BOXY.EXE: ISS Imagent and Oximeter Data Acquisition Program Version 0.80
Ascii Record File

#ACQ INFORMATION
2  Detector Channels 
16  External MUX Channels 
1  Auxiliary Channels 
5000  Waveform (CCF) Frequency (Hz)
1  Waveforms Skipped 
30  Waveforms Averaged 
1  Cycles Averaged 
16  Acquisitions per Waveform 
10.0806  Updata Rate (Hz) 

#FILE INFORMATION
TRUE -- External MUX Channel results are PARSED.
FALSE -- AC DC and Phase are NOT grouped.
TRUE -- Companion Program Settings File CREATED.
FALSE -- AC data not excluded
FALSE -- DC data not excluded
FALSE -- Phase data not excluded
FALSE -- Auxillary Chn. data not excluded
Tab delimiters

#CALIBRATION STATE
TRUE -- Waveform Calibration Values APPLIED.


#AUX CALIBRATION VALUES
Val Type	aux-1	

Term	1.0000e+00	
Factor	0.0000e+00	


#WF CALIBRATION VALUES
A = Detector Channel
Val Type	A-AC1	A-AC2	A-AC3	A-AC4	A-AC5	A-AC6	A-AC7	A-AC8	A-AC9	A-AC10	A-AC11	A-AC12	A-AC13	A-AC14	A-AC15	A-AC16	A-DC1	A-DC2	A-DC3	A-DC4	A-DC5	A-DC6	A-DC7	A-DC8	A-DC9	A-DC10	A-DC11	A-DC12	A-DC13	A-DC14	A-DC15	A-DC16	A-Ph1	A-Ph2	A-Ph3	A-Ph4	A-Ph5	A-Ph6	A-Ph7	A-Ph8	A-Ph9	A-Ph10	A-Ph11	A-Ph12	A-Ph13	A-Ph14	A-Ph15	A-Ph16	

Term	0.00000e+00	0.00000e+00	0.00000e+00	0.00000e+00	0.00000e+00	0.00000e+00	0.00000e+00	0.00000e+00	0.00000e+00	0.00000e+00	0.00000e+00	0.00000e+00	0.00000e+00	0.00000e+00	0.00000e+00	0.00000e+00	0.00000e+00	0.00000e+00	0.00000e+00	0.00000e+00	0.00000e+00	0.00000e+00	0.00000e+00	0.00000e+00	0.00000e+00	0.00000e+00	0.00000e+00	0.00000e+00	0.00000e+00	0.00000e+00	0.00000e+00	0.00000e+00	0.00000e+00	0.00000e+00	0.00000e+00	0.00000e+00	0.00000e+00	0.00000e+00	0.00000e+00	0.00000e+00	0.00000e+00	0.00000e+00	0.00000e+00	0.00000e+00	0.00000e+00	0.00000e+00	0.00000e+00	0.00000e+00	
Factor	1.00000e+00	1.00000e+00	1.00000e+00	1.00000e+00	1.00000e+00	1.00000e+00	1.00000e+00	1.00000e+00	1.00000e+00	1.00000e+00	1.00000e+00	1.00000e+00	1.00000e+00	1.00000e+00	1.00000e+00	1.00000e+00	1.00000e+00	1.00000e+00	1.00000e+00	1.00000e+00	1.00000e+00	1.00000e+00	1.00000e+00	1.00000e+00	1.00000e+00	1.00000e+00	1.00000e+00	1.00000e+00	1.00000e+00	1.00000e+00	1.00000e+00	1.00000e+00	X	X	X	X	X	X	X	X	X	X	X	X	X	X	X	X	

B = Detector Channel
Val Type	B-AC1	B-AC2	B-AC3	B-AC4	B-AC5	B-AC6	B-AC7	B-AC8	B-AC9	B-AC10	B-AC11	B-AC12	B-AC13	B-AC14	B-AC15	B-AC16	B-DC1	B-DC2	B-DC3	B-DC4	B-DC5	B-DC6	B-DC7	B-DC8	B-DC9	B-DC10	B-DC11	B-DC12	B-DC13	B-DC14	B-DC15	B-DC16	B-Ph1	B-Ph2	B-Ph3	B-Ph4	B-Ph5	B-Ph6	B-Ph7	B-Ph8	B-Ph9	B-Ph10	B-Ph11	B-Ph12	B-Ph13	B-Ph14	B-Ph15	B-Ph16	

Term	0.00000e+00	0.00000e+00	0.00000e+00	0.00000e+00	0.00000e+00	0.00000e+00	0.00000e+00	0.00000e+00	0.00000e+00	0.00000e+00	0.00000e+00	0.00000e+00	0.00000e+00	0.00000e+00	0.00000e+00	0.00000e+00	0.00000e+00	0.00000e+00	0.00000e+00	0.00000e+00	0.00000e+00	0.00000e+00	0.00000e+00	0.00000e+00	0.00000e+00	0.00000e+00	0.00000e+00	0.00000e+00	0.00000e+00	0.00000e+00	0.00000e+00	0.00000e+00	-1.07286e+02	-1.33750e+02	-1.30724e+02	-1.82363e+02	-6.19824e+01	-6.62161e+01	-1.57848e+02	-1.62015e+02	-5.98885e+01	-6.91183e+01	-1.70843e+02	-1.70945e+02	-1.83296e+02	-1.76809e+02	-6.51458e+01	-1.49940e+02	
Factor	1.60289e-05	1.47158e-04	4.35422e-05	1.53391e-01	1.14493e-06	1.53336e-06	1.58280e-01	4.76737e-02	1.01461e-06	1.45935e-06	8.23878e-02	2.72771e-02	2.23222e-02	8.72536e-03	1.20848e-06	1.24093e-02	9.10509e-06	1.43128e-05	4.00729e-06	8.10904e-02	1.47627e-07	1.59585e-07	7.86080e-02	2.53910e-02	1.46793e-07	1.59995e-07	4.23457e-02	1.41041e-02	1.20320e-02	4.67646e-03	1.51879e-07	6.42207e-03	X	X	X	X	X	X	X	X	X	X	X	X	X	X	X	X	



#DISTANCE SETTINGS
A = Detector Channel
A-1	A-2	A-3	A-4	A-5	A-6	A-7	A-8	A-9	A-10	A-11	A-12	A-13	A-14	A-15	A-16	

2.5000e+00	3.0000e+00	2.5000e+00	3.0000e+00	2.0000e+00	3.0000e+00	1.5000e+00	3.0000e+00	3.0000e+00	3.0000e+00	3.0000e+00	3.0000e+00	3.0000e+00	3.0000e+00	1.5000e+00	3.0000e+00	

B = Detector Channel
B-1	B-2	B-3	B-4	B-5	B-6	B-7	B-8	B-9	B-10	B-11	B-12	B-13	B-14	B-15	B-16	

1.0000e+01	1.0000e+01	1.0000e+01	1.4400e+00	1.0000e+01	1.0000e+01	1.5100e+00	1.9400e+00	1.0000e+01	1.0000e+01	1.9900e+00	2.4900e+00	2.4100e+00	2.9000e+00	1.0000e+01	2.9800e+00	




#DATA BEGINS
time	group	step	mark	flag	A-AC1	A-AC2	A-AC3	A-AC4	A-AC5	A-AC6	A-AC7	A-AC8	A-AC9	A-AC10	A-AC11	A-AC12	A-AC13	A-AC14	A-AC15	A-AC16	A-DC1	A-DC2	A-DC3	A-DC4	A-DC5	A-DC6	A-DC7	A-DC8	A-DC9	A-DC10	A-DC11	A-DC12	A-DC13	A-DC14	A-DC15	A-DC16	A-Ph1	A-Ph2	A-Ph3	A-Ph4	A-Ph5	A-Ph6	A-Ph7	A-Ph8	A-Ph9	A-Ph10	A-Ph11	A-Ph12	A-Ph13	A-Ph14	A-Ph15	A-Ph16	B-AC1	B-AC2	B-AC3	B-AC4	B-AC5	B-AC6	B-AC7	B-AC8	B-AC9	B-AC10	B-AC11	B-AC12	B-AC13	B-AC14	B-AC15	B-AC16	B-DC1	B-DC2	B-DC3	B-DC4	B-DC5	B-DC6	B-DC7	B-DC8	B-DC9	B-DC10	B-DC11	B-DC12	B-DC13	B-DC14	B-DC15	B-DC16	B-Ph1	B-Ph2	B-Ph3	B-Ph4	B-Ph5	B-Ph6	B-Ph7	B-Ph8	B-Ph9	B-Ph10	B-Ph11	B-Ph12	B-Ph13	B-Ph14	B-Ph15	B-Ph16	aux-1	digaux	

1513.445	1	1	0	256	0.12537	0.29376	0.22867	0.044008	0.22102	0.10748	0.10453	0.061092	0.11556	0.14356	0.26742	0.21609	0.18102	0.16665	0.20025	0.13445	-2.3667	-2.0687	-2.6479	-2.4708	-2.1646	-2.9125	-2.3063	-2.3542	-2.6083	-2.1521	-2.8812	-2.5271	-2.0458	-2.9521	-2.1604	-2.5417	358.668	323.712	314.777	504.960	285.595	201.936	169.356	230.094	474.109	257.518	473.638	229.264	453.527	485.765	374.190	264.419	0.00015634	0.00019528	5.0814e-05	412.42	7.7048e-07	2.9032e-06	739.9	132.29	1.7111e-06	1.8185e-06	251.58	54.86	29.972	6.631	3.0989e-06	13.367	0.0006079	0.00085537	0.00023487	363.52	9.0403e-06	9.7756e-06	651.02	116.77	9.2642e-06	9.559e-06	222.43	48.949	26.718	6.0934	9.0533e-06	12.167	218.508	287.475	332.286	181.165	355.554	513.124	181.152	186.289	201.924	221.692	184.202	188.567	190.803	196.934	385.617	195.510	-8191	255	
1513.541	1	1	0	0	0.22387	0.084804	0.19612	0.15077	0.11008	0.12705	0.0618	0.16171	0.23072	0.36643	0.097974	0.24888	0.062984	0.11008	0.27213	0.17093	-2.5333	-1.9167	-2.7396	-2.6396	-2.1104	-2.9958	-2.45	-2.3604	-3.0042	-1.9438	-2.8937	-2.6896	-2.175	-2.7646	-2.2292	-2.5125	349.959	191.224	291.120	453.177	518.172	211.386	172.416	516.267	482.601	216.555	494.698	454.506	396.081	398.957	222.074	467.116	0.00012164	0.00058453	0.00010273	417.86	2.8443e-06	2.3823e-06	743.63	132.36	4.0415e-06	3.283e-06	251.48	55.026	29.778	6.6865	1.4346e-06	13.56	0.00058237	0.00086569	0.00023304	363.73	9.3288e-06	9.4907e-06	652.34	116.22	8.7229e-06	9.5237e-06	221.73	48.961	26.776	6.1462	9.0849e-06	12.313	245.186	272.287	283.239	181.702	281.977	471.118	181.258	186.459	284.681	331.573	184.654	189.215	190.672	196.505	231.024	195.695	-8191	255	
1513.635	1	1	0	0	0.1954	0.28809	0.24661	0.13319	0.25554	0.12553	0.12891	0.275	0.032633	0.044324	0.35438	0.16217	0.065828	0.019702	0.018739	0.26279	-2.6625	-1.9958	-2.5104	-2.5979	-2.075	-2.9938	-2.4417	-2.1896	-3.0375	-2.2375	-2.4271	-2.8104	-1.9667	-2.9562	-2.4333	-2.1104	383.081	237.607	199.894	195.985	413.341	362.039	479.765	357.932	438.310	489.622	305.818	320.384	257.355	517.515	471.597	175.711	0.00010203	0.00019084	0.00014605	415.58	3.8367e-06	3.7028e-06	747.35	131.06	1.7671e-06	4.8756e-06	252.67	54.607	29.921	6.6272	8.1862e-07	13.804	0.00060029	0.00087064	0.00023494	364.62	9.0507e-06	9.3477e-06	654.88	116.48	8.7385e-06	9.502e-06	222.83	49.083	26.701	6.1323	8.7324e-06	12.349	239.639	454.082	390.266	181.842	256.649	373.634	180.980	186.196	293.356	184.141	184.549	189.074	190.818	198.466	269.266	196.369	-8191	255	
1513.732	1	1	0	0	0.077321	0.10639	0.16795	0.070659	0.27475	0.1636	0.20735	0.24665	0.10975	0.25664	0.17573	0.15076	0.16751	0.023627	0.25609	0.064885	-2.4938	-2.2687	-2.5833	-2.7708	-1.9104	-2.7271	-2.6396	-2.2021	-2.9083	-2.3438	-2.275	-2.8417	-1.9125	-2.6479	-2.5333	-2.0479	502.849	377.940	172.745	487.730	429.237	458.896	385.832	184.678	439.274	252.245	420.762	405.510	474.765	367.533	328.615	362.806	0.00013427	0.00034215	5.6129e-05	417.58	9.6552e-07	2.6618e-06	749.05	130.57	8.3274e-07	2.4307e-06	249.39	54.456	29.232	6.5879	2.4852e-06	13.143	0.00055972	0.00083426	0.00023685	365.96	8.7622e-06	9.1745e-06	654.94	115.83	8.6284e-06	9.108e-06	219.85	48.47	26.33	6.0089	8.7492e-06	12.036	207.892	310.094	257.401	181.728	342.216	364.921	181.264	186.129	284.499	193.353	184.381	190.174	190.795	196.852	404.860	196.261	-8191	255	
1513.852	1	1	0	0	0.032032	0.48997	0.070154	0.092373	0.041572	0.19462	0.33604	0.07865	0.17155	0.17103	0.12929	0.2217	0.15248	0.10675	0.11013	0.1853	-2.4625	-2.3896	-2.3563	-3.0104	-1.8792	-2.6458	-2.6417	-2.1437	-2.7875	-2.2438	-2.2167	-2.8688	-2.2146	-2.5563	-2.7438	-2.0604	239.020	382.119	250.514	378.577	176.683	467.533	497.723	219.584	240.490	472.679	471.097	385.715	465.718	282.707	469.361	453.927	0.000137	0.00025544	6.8701e-05	415.99	4.5968e-06	9.0787e-07	740.37	130.47	1.4074e-06	6.5086e-06	247.49	54.51	29.144	6.5937	1.0216e-06	13.373	0.00056539	0.00081362	0.0002262	364.5	8.8216e-06	9.5871e-06	651.5	115.02	8.7369e-06	8.8834e-06	218.7	48.238	26.231	6.0784	8.852e-06	12.138	239.775	288.680	260.632	181.669	324.709	340.999	180.756	186.165	271.320	344.933	185.161	189.255	190.710	197.471	234.197	196.106	-8191	255	
1513.948	1	1	0	0	0.35992	0.092724	0.10383	0.21583	0.33936	0.21917	0.10433	0.14801	0.21999	0.35918	0.1372	0.067964	0.22518	0.044782	0.15141	0.021737	-2.4188	-2.375	-2.0396	-2.9813	-2.1979	-2.5271	-2.8479	-2.1583	-2.6229	-2.4417	-2.2021	-2.8104	-2.2354	-2.4437	-2.7729	-1.9	516.928	339.611	452.256	479.167	425.331	423.601	297.132	182.865	502.468	470.711	366.346	445.952	511.997	243.957	398.755	451.648	0.0001533	0.00037579	0.0001165	414.01	3.7087e-06	3.1293e-06	741.51	130.21	3.9505e-06	2.5088e-06	244.95	53.814	29.461	6.5502	1.5257e-06	13.679	0.0005699	0.00082057	0.00023029	364.58	8.5762e-06	9.2709e-06	650.89	115.01	8.2332e-06	9.105e-06	218.67	48.338	26.19	6.0577	8.7688e-06	12.297	237.100	274.948	281.305	181.673	182.103	484.070	181.119	186.514	352.325	341.777	184.941	190.076	190.818	196.622	256.583	194.715	-8191	255	
1514.020	1	1	0	0	0.2035	0.35446	0.072659	0.24451	0.029737	0.044746	0.1485	0.21103	0.23679	0.24553	0.26036	0.17922	0.2558	0.23379	0.29233	0.17683	-2.3125	-2.5938	-2.1271	-2.7479	-2.0625	-2.2375	-2.8	-2.2375	-2.5187	-2.7917	-2.0146	-2.8917	-2.3479	-2.2417	-2.7979	-1.8375	296.942	393.033	486.562	435.789	472.484	381.983	455.460	462.384	455.003	494.624	334.729	177.888	208.354	308.234	481.887	367.165	0.00013571	8.6675e-05	9.5194e-05	416.34	3.6934e-06	1.8041e-06	745.68	131.55	1.8172e-06	4.8368e-06	250.98	54.954	29.581	6.5803	3.855e-06	13.704	0.00057963	0.00080188	0.00023192	365.43	8.3738e-06	9.0355e-06	654.81	115.89	8.254e-06	9.137e-06	221.96	49.049	26.51	6.1188	8.6948e-06	12.398	204.344	328.383	520.155	182.014	258.506	406.590	181.232	186.789	272.844	309.777	184.891	189.079	191.044	197.922	324.865	196.231	-8191	255	
1514.116	1	1	0	0	0.1683	0.22111	0.28046	0.18965	0.12615	0.2032	0.078959	0.35005	0.094533	0.021546	0.032245	0.11515	0.050288	0.34186	0.30699	0.12137	-2.1125	-2.6229	-1.875	-2.9083	-2.2104	-2.0333	-2.8667	-2.1	-2.6292	-2.5854	-2.0729	-2.6292	-2.4104	-2.1	-2.8542	-1.8771	235.206	393.185	428.777	203.483	411.380	267.635	222.950	198.832	498.956	269.321	278.125	214.793	214.675	367.595	297.510	380.624	0.00011257	0.00017687	4.1637e-05	419.73	2.4601e-06	4.3963e-06	743.77	132.16	3.8992e-07	4.9302e-06	252.22	54.077	29.823	6.6366	6.3358e-07	13.589	0.00055389	0.00081228	0.00022915	367.94	8.8874e-06	8.971e-06	654.13	116.18	8.3284e-06	8.7581e-06	221.98	48.767	26.593	6.0895	8.3957e-06	12.194	215.090	319.536	388.194	181.964	461.309	484.599	181.098	185.694	407.852	371.283	184.833	190.058	190.460	196.751	174.844	195.286	-8191	255	
1514.237	1	1	0	0	0.2141	0.16409	0.15234	0.072721	0.10658	0.18411	0.1995	0.19814	0.22339	0.25831	0.066023	0.1144	0.15876	0.19499	0.17298	0.11134	-2.1354	-2.7917	-2.0812	-2.8854	-2.4771	-1.9604	-2.9062	-2.3812	-2.2979	-2.8333	-2.0396	-2.6896	-2.4313	-2.1021	-2.7687	-2.45	247.297	177.617	460.507	256.085	250.586	460.757	170.641	250.143	214.654	420.691	343.583	456.016	226.567	469.981	185.562	434.110	0.00010266	0.00043998	0.00020936	416.28	4.1758e-06	3.4019e-06	744.74	131.99	9.5878e-07	1.9796e-06	250.91	54.863	29.119	6.6184	2.6273e-06	13.631	0.00055275	0.00078184	0.00022402	366.3	8.141e-06	8.6003e-06	653.82	116.42	8.1644e-06	8.7427e-06	221.9	48.984	26.471	6.095	8.448e-06	12.208	218.180	315.800	255.364	182.004	317.623	324.097	181.419	186.394	312.416	352.984	184.591	189.701	190.808	197.680	215.891	194.690	-8191	255	
1514.333	1	1	0	0	0.14754	0.049941	0.16691	0.1664	0.084336	0.19883	0.17692	0.17677	0.16168	0.095113	0.21588	0.12008	0.21642	0.23462	0.10811	0.18554	-1.8208	-2.5938	-2.0479	-2.5521	-2.7646	-2.0646	-3.1333	-2.1896	-2.2458	-2.9667	-2.3021	-2.4917	-2.5896	-1.9479	-2.7229	-2.3917	284.156	202.237	273.520	169.968	214.557	308.480	431.615	456.410	461.801	267.694	210.302	320.724	222.796	493.200	479.790	354.538	0.00011456	0.00042905	0.00010375	415.7	2.9136e-06	1.7608e-06	746.57	132.75	1.7654e-06	3.6986e-06	253.1	54.923	29.881	6.6545	4.3863e-06	13.612	0.00054648	0.00078169	0.00022212	366.2	8.029e-06	8.7306e-06	655.36	116.24	8.3186e-06	8.8857e-06	222.59	48.997	26.604	6.0708	8.4128e-06	12.223	222.001	271.800	202.495	182.402	333.628	467.167	181.538	186.118	333.520	379.509	184.927	189.218	191.169	197.729	397.893	196.285	-8191	255	
1514.429	1	1	0	0	0.19408	0.16891	0.15851	0.20235	0.2139	0.22132	0.17779	0.091895	0.10698	0.22779	0.036366	0.2474	0.29202	0.047388	0.18319	0.07669	-1.7521	-2.7958	-2.0417	-2.5875	-2.6625	-1.9562	-2.9104	-2.5271	-1.9917	-2.8292	-2.1708	-2.4875	-2.7333	-1.9271	-2.7208	-2.4292	319.345	502.490	308.841	385.653	468.545	311.947	451.590	176.689	427.866	494.507	368.629	194.511	491.001	432.529	503.777	477.525	8.354e-05	0.00016261	4.6484e-05	415.58	6.1398e-06	2.0857e-06	748.37	132.62	4.6819e-07	1.4516e-06	253.43	55.249	29.472	6.6617	2.2826e-06	13.616	0.00056046	0.00079305	0.00022557	365.92	8.2542e-06	9.1692e-06	654.86	116.61	8.1892e-06	8.7644e-06	222.83	49.415	26.43	6.1215	8.3828e-06	12.323	226.499	202.948	185.366	182.326	316.206	431.833	181.185	186.758	449.200	395.239	184.471	189.664	190.928	197.836	509.839	195.200	-8191	255	
1514.525	1	1	0	0	0.26168	0.13301	0.049668	0.34373	0.15085	0.13892	0.22519	0.1066	0.07768	0.089122	0.31688	0.24391	0.19484	0.38183	0.16206	0.10414	-1.6625	-2.7417	-1.9917	-2.3979	-2.7604	-1.9937	-2.6604	-2.4979	-1.8458	-2.8125	-2.2771	-2.1875	-2.8208	-1.975	-2.775	-2.8083	374.715	246.615	424.275	188.340	217.370	376.301	362.437	319.907	363.974	358.714	475.611	170.498	414.038	509.440	494.592	371.838	0.00013272	0.00032875	4.7304e-05	416.69	3.1083e-06	2.9826e-06	744.34	131.47	2.2074e-06	3.7764e-06	251.06	54.396	29.392	6.5807	1.0725e-06	13.319	0.00057347	0.00078461	0.00021538	367.13	8.5362e-06	8.9049e-06	653.16	115.99	8.0926e-06	9.219e-06	220.62	48.413	26.492	6.0478	8.3641e-06	12.104	230.004	328.665	456.677	182.152	379.878	501.419	181.481	186.581	348.455	313.169	184.334	189.794	191.330	197.917	188.878	196.346	-8191	255	
1514.621	1	1	0	0	0.1232	0.33435	0.28738	0.078374	0.053638	0.33892	0.15049	0.10091	0.35677	0.14999	0.11168	0.22759	0.28805	0.12734	0.19568	0.17902	-1.5063	-2.7396	-2.3104	-2.1583	-2.8521	-1.9875	-2.7021	-2.65	-2.125	-2.7146	-2.5125	-2.0979	-2.7104	-2.2792	-2.3563	-2.7062	331.588	324.480	376.881	374.173	470.834	219.644	357.962	481.206	224.992	482.035	434.999	511.336	301.772	439.446	340.151	189.548	0.00015881	0.0001521	4.8322e-05	413.31	2.051e-06	1.8325e-06	738.67	130.83	3.5113e-06	1.618e-06	249.84	54.62	29.621	6.727	9.7847e-07	13.31	0.0005515	0.00080799	0.00021411	364.31	7.9432e-06	8.7599e-06	650.17	115.6	7.9091e-06	8.5517e-06	219.82	48.465	26.459	6.1427	8.4923e-06	12.083	231.764	212.882	388.036	182.398	510.890	369.377	181.036	185.945	335.129	336.641	185.210	189.531	190.858	198.123	370.424	195.684	-8191	255	
1514.716	1	1	0	0	0.22766	0.15738	0.10968	0.2948	0.082225	0.20015	0.28875	0.16855	0.024467	0.13661	0.22732	0.2971	0.20693	0.32081	0.12385	0.11773	-1.55	-2.9229	-2.3979	-2.0563	-2.8958	-2.1354	-2.4125	-2.7875	-1.8542	-2.5083	-2.475	-1.9271	-2.6458	-2.0917	-2.1875	-2.8229	432.083	218.973	222.524	381.880	350.890	305.914	461.775	414.399	273.744	281.262	247.054	307.283	182.369	257.325	439.058	412.310	0.00010701	0.00023797	0.00017565	407.76	2.0376e-06	2.2665e-06	736.14	129.78	1.6332e-06	3.1542e-06	251.84	54.686	29.182	6.5566	3.5559e-06	13.826	0.00052328	0.00076267	0.00022008	363.64	8.2096e-06	8.3656e-06	650.66	114.87	8.3186e-06	8.5961e-06	221.04	48.483	26.285	6.0811	7.9176e-06	12.285	222.774	292.356	349.858	182.373	231.045	184.979	181.412	186.486	300.422	303.778	184.560	189.583	190.809	198.027	408.868	196.528	-8191	255	
1514.814	1	1	0	0	0.026627	0.21215	0.23709	0.091098	0.047583	0.10524	0.22731	0.027078	0.05663	0.099629	0.13595	0.17546	0.087336	0.13799	0.095004	0.26259	-1.5625	-2.7833	-2.4688	-1.9125	-2.8854	-2.1021	-2.3667	-2.9479	-2.1229	-2.5979	-2.8208	-1.8771	-2.7792	-2.1958	-2.1583	-2.9188	443.183	377.725	492.284	485.890	217.932	345.681	175.308	262.258	279.751	374.254	435.896	377.070	175.359	380.109	405.300	304.687	5.3095e-05	0.00041094	7.9918e-05	414.48	2.2795e-06	3.7376e-06	753.64	131.65	2.5429e-06	1.657e-06	251.41	54.662	29.168	6.6922	1.4175e-06	13.354	0.00053881	0.00076917	0.00021348	364.35	8.4039e-06	8.7652e-06	657.95	116.44	8.2167e-06	8.5981e-06	222.28	48.756	26.469	6.1182	8.6581e-06	12.273	213.684	221.361	221.713	182.026	312.579	326.260	181.551	186.666	346.717	299.383	184.415	190.354	191.795	197.971	232.978	195.651	-8191	255	
1514.933	1	1	0	0	0.010828	0.16127	0.13721	0.19792	0.20801	0.075933	0.1124	0.28549	0.24918	0.060975	0.13914	0.16526	0.044283	0.20947	0.11727	0.10186	-1.4667	-2.4125	-2.6708	-1.8104	-2.7646	-2.2542	-2.1833	-2.7542	-2.0479	-2.5042	-2.7667	-2.1333	-2.8417	-2.5062	-2.0146	-2.7188	327.332	504.482	406.286	190.961	256.956	354.171	232.821	266.340	497.234	348.587	180.386	467.629	503.871	226.417	495.457	367.835	0.00012516	0.00058531	9.3327e-05	416.97	2.0026e-06	7.7109e-06	748.28	131.52	3.3159e-06	2.843e-06	252.42	55.166	29.694	6.8554	2.6281e-06	13.55	0.00055846	0.00074167	0.00021815	367.24	8.4107e-06	8.5262e-06	655.16	115.8	8.0241e-06	8.8157e-06	222.24	48.966	26.6	6.1859	8.0094e-06	12.243	238.890	292.462	271.700	182.328	357.228	347.757	181.008	186.899	338.079	426.278	185.507	188.566	191.245	197.466	235.865	195.558	-8191	255	
1515.029	1	1	0	0	0.075209	0.20434	0.17955	0.12236	0.23053	0.096378	0.17885	0.064235	0.21539	0.25343	0.14716	0.20567	0.18281	0.14281	0.27922	0.34817	-1.6146	-2.1021	-2.6188	-1.9479	-2.5062	-2.3937	-2.1333	-2.825	-2.2521	-2.3312	-2.7062	-1.9292	-2.4938	-2.5333	-1.8937	-2.8771	213.334	519.113	180.519	481.379	366.262	337.582	471.844	469.396	525.517	225.178	218.630	378.335	218.538	384.605	215.157	433.393	0.00010113	3.3409e-05	0.00018077	415.47	3.5828e-06	1.8464e-06	747.65	133.02	1.6841e-06	4.3016e-06	254.91	55.091	29.668	6.7523	3.4298e-06	13.729	0.00054642	0.00076982	0.00021548	367.17	8.0395e-06	8.0099e-06	655.8	117	7.9397e-06	8.6297e-06	223.73	48.811	26.557	6.1785	8.1964e-06	12.296	222.180	348.076	315.435	182.223	341.753	375.516	181.441	187.005	269.833	288.761	184.748	189.617	191.483	198.551	330.957	195.791	-8191	255	
1515.125	1	1	0	0	0.049776	0.029115	0.018487	0.35174	0.27301	0.1396	0.16593	0.35723	0.27539	0.33144	0.22886	0.065816	0.15137	0.2098	0.18135	0.15533	-1.9021	-2.2875	-2.8625	-2.0958	-2.5	-2.5167	-2.2708	-2.7062	-2.3625	-2.0438	-2.9292	-2.1958	-2.5479	-2.6771	-2.05	-2.8083	241.600	506.330	230.435	448.655	446.391	398.422	439.486	456.623	387.917	511.370	499.337	317.656	460.833	468.471	265.482	421.111	8.8012e-05	0.00035061	0.00010058	412.88	2.1118e-06	6.6364e-06	748.36	133.32	4.8834e-07	2.8625e-06	253.18	54.857	29.831	6.757	4.7346e-06	13.606	0.00052832	0.00080244	0.00021119	364.47	7.9721e-06	8.3829e-06	654.83	116.69	7.7959e-06	8.4591e-06	222.56	48.89	26.57	6.1475	8.5157e-06	12.332	216.950	394.777	242.068	182.380	300.856	344.390	181.629	186.674	323.823	345.953	185.192	189.748	191.921	198.272	309.611	196.098	-8191	255	
1515.246	1	1	0	0	0.24969	0.44357	0.063952	0.19502	0.10924	0.23307	0.26066	0.12567	0.24709	0.56221	0.19877	0.27808	0.18247	0.096695	0.13504	0.059724	-1.925	-1.9688	-2.8333	-2.2729	-2.3896	-2.6083	-2.1583	-2.8563	-2.4146	-2.0833	-2.8229	-2.2646	-2.1437	-2.7583	-2	-2.6583	456.896	492.859	192.495	320.724	332.245	306.103	434.242	464.893	362.489	299.289	439.282	328.575	491.868	175.975	357.031	175.738	0.00011566	0.00040721	4.9897e-05	417.01	3.0477e-06	4.3206e-06	750.88	131.86	1.0156e-06	2.3749e-06	254.54	55.23	29.79	6.9047	3.4948e-06	13.446	0.00053995	0.00079564	0.00021944	366.63	7.8845e-06	8.7137e-06	657.63	116.5	8.0727e-06	8.7457e-06	224.41	49.209	26.631	6.2546	8.2704e-06	12.292	229.497	252.377	471.524	182.423	364.597	293.081	182.024	186.859	336.190	369.772	184.610	189.731	191.108	199.259	280.561	195.157	-8191	255	
1515.317	1	1	0	0	0.093271	0.22079	0.044614	0.091508	0.2684	0.24063	0.19227	0.12738	0.082657	0.27287	0.18944	0.14074	0.14506	0.20958	0.067021	0.25582	-1.9417	-1.9896	-2.8063	-2.2042	-2.3521	-3.0312	-1.9917	-2.6583	-2.5708	-2.0292	-2.8083	-2.2438	-2.3	-2.8063	-1.8792	-2.4958	441.164	212.557	218.635	393.113	273.512	276.119	501.159	392.565	216.043	323.917	337.959	501.713	397.910	439.749	233.101	287.067	0.00013196	0.00038355	7.4996e-05	412.59	1.9857e-06	6.0365e-06	741.78	132.03	3.0862e-06	4.304e-06	253.11	55.111	29.113	6.732	2.6666e-06	13.459	0.00054154	0.00077274	0.00021742	364.79	8.1727e-06	8.4314e-06	655.64	116.15	8.0614e-06	8.5017e-06	222.23	48.54	26.299	6.1449	8.4068e-06	12.207	221.338	281.174	512.299	182.409	192.489	287.763	181.603	186.401	188.889	345.791	185.226	190.040	191.571	197.102	356.620	195.477	-8191	255	
1515.413	1	1	0	0	0.21296	0.11768	0.11359	0.096237	0.27973	0.25127	0.15731	0.16265	0.065941	0.18431	0.014139	0.093353	0.067419	0.23836	0.14929	0.25515	-2.1188	-1.7375	-2.6729	-2.4479	-2.1771	-2.8312	-2.3146	-2.4604	-2.5771	-1.9854	-2.8583	-2.3083	-2.0208	-2.825	-1.9521	-2.4813	427.451	392.265	198.136	327.730	523.135	427.312	462.237	480.583	253.046	436.901	238.223	473.816	498.366	389.165	203.733	394.250	9.2294e-05	0.00071504	0.00018071	411.01	1.4116e-06	2.2299e-06	742.37	131.65	1.9916e-06	2.2697e-06	249.19	54.271	29.364	6.6493	1.1109e-06	13.478	0.00052963	0.00078041	0.00021679	363.03	8.0583e-06	8.5634e-06	651.71	115.92	8.2941e-06	8.7281e-06	220.97	48.405	26.376	6.1077	8.9378e-06	12.166	235.233	198.446	278.517	181.884	353.230	365.217	181.506	186.903	299.287	262.613	184.961	189.574	191.378	196.712	404.853	196.181	-8191	255	
1515.534	1	1	0	0	0.31903	0.090127	0.17093	0.069386	0.11378	0.051603	0.17412	0.1244	0.20505	0.12706	0.16021	0.10058	0.17735	0.16947	0.14078	0.29916	-2.4313	-2.0917	-2.6375	-2.5312	-2.0479	-2.8646	-2.2354	-2.2833	-2.8979	-1.9813	-2.775	-2.6271	-1.9958	-2.8583	-2.2375	-2.1375	475.461	407.528	503.425	294.354	178.937	415.745	475.483	473.815	463.022	180.394	452.078	266.560	502.448	221.592	243.014	400.035	0.00016286	7.0847e-05	8.0956e-05	414.61	4.3198e-06	5.0964e-06	740.22	130.98	4.2173e-06	3.2646e-06	251.25	54.636	28.974	6.5393	2.382e-06	13.435	0.00053665	0.00077209	0.00021178	363.38	8.6245e-06	8.6475e-06	651.64	115.66	8.1638e-06	8.5934e-06	221.92	48.742	26.171	6.1057	8.2492e-06	12.219	214.545	265.575	252.605	181.896	326.224	328.976	181.501	186.430	339.483	328.418	184.889	189.974	191.182	198.456	376.186	196.274	-8191	255	
1515.628	1	1	0	0	0.17926	0.052887	0.10353	0.29521	0.16888	0.26633	0.066327	0.16385	0.029953	0.30179	0.13556	0.1126	0.0493	0.075732	0.25838	0.26325	-2.4125	-1.975	-2.45	-2.4583	-2.1146	-2.8083	-2.3187	-2.2021	-2.9604	-2.0896	-2.6021	-2.8	-2.0125	-2.8792	-2.3833	-2.1896	226.287	504.143	302.480	322.777	395.648	395.904	391.013	430.673	190.082	388.998	440.429	300.795	337.727	363.893	445.092	200.571	0.00011316	4.2463e-05	7.7361e-05	418.52	6.4324e-07	1.0202e-06	743.81	131.89	3.1701e-06	6.8805e-06	253.05	54.883	29.693	6.6952	4.0821e-06	13.661	0.0005379	0.00077871	0.00021579	366.1	8.3018e-06	9.0608e-06	655.56	115.89	8.1498e-06	9.0154e-06	223.39	49.101	26.677	6.1814	8.4758e-06	12.415	221.253	195.853	261.851	182.478	354.128	488.255	181.496	187.155	274.130	268.425	185.500	188.821	191.647	198.416	465.745	196.519	-8191	255	
1515.725	1	1	0	0	0.10317	0.14751	0.07101	0.030352	0.099093	0.040865	0.14895	0.11342	0.18409	0.15094	0.15536	0.072764	0.26232	0.26263	0.21557	0.19171	-2.475	-2.1583	-2.4313	-2.7021	-2.0083	-2.6646	-2.5021	-2.0542	-2.8125	-1.9667	-2.2896	-2.9062	-1.8917	-2.7729	-2.6417	-2.225	486.223	211.240	187.086	456.464	469.692	415.882	521.891	389.146	372.420	361.614	415.168	272.719	267.484	203.879	500.507	276.200	9.2718e-05	0.00013058	0.00010515	413.65	3.4718e-06	4.8386e-06	744.09	132.48	1.1477e-06	3.4951e-06	252.16	55.374	30.077	6.7727	4.3467e-06	13.686	0.00054551	0.00079773	0.00022482	365.52	8.204e-06	8.5604e-06	656.12	116.9	8.4192e-06	9.227e-06	222.79	49.011	26.729	6.2087	8.1964e-06	12.294	215.822	249.190	351.097	181.953	329.666	374.228	181.788	187.399	285.927	376.951	185.028	190.039	190.830	198.302	496.916	195.620	-8191	255	
1515.821	1	1	0	0	0.078287	0.17994	0.12058	0.20061	0.18252	0.10798	0.2193	0.16529	0.078066	0.054201	0.10153	0.31327	0.07436	0.18234	0.20118	0.21389	-2.5646	-2.1458	-2.0917	-2.9146	-1.9771	-2.6312	-2.5229	-2.0812	-2.8521	-2.0667	-2.3625	-2.9437	-2.0812	-2.4708	-2.5312	-1.9646	300.664	466.434	215.194	497.315	436.538	311.547	516.133	229.621	429.092	505.409	323.538	423.694	242.734	352.888	228.181	318.355	0.00016891	0.00059737	5.1859e-05	416.48	1.74e-06	2.9972e-06	745.13	132.88	3.0643e-06	2.8062e-06	253.28	54.075	29.782	6.8247	4.0004e-06	13.694	0.00054813	0.00079341	0.00022574	365.73	8.34e-06	8.6911e-06	655.05	117.5	8.2455e-06	8.5444e-06	223.32	48.595	26.624	6.2081	8.4995e-06	12.238	228.413	260.930	213.184	182.388	250.267	375.478	181.360	186.299	337.521	385.403	185.122	189.568	190.638	198.295	348.271	195.973	-8191	255	
1515.894	1	1	0	0	0.19001	0.30158	0.12417	0.1842	0.12126	0.033418	0.14377	0.20306	0.19912	0.13194	0.13841	0.053011	0.045015	0.15011	0.080048	0.26674	-2.4958	-2.2896	-2.1229	-2.9646	-2.1937	-2.4792	-2.8979	-2.0083	-2.6229	-2.3208	-2.2229	-2.8688	-2.2271	-2.3729	-2.5583	-2.3333	465.337	264.226	327.057	516.870	175.044	186.363	448.882	521.505	405.736	504.597	417.860	506.789	291.749	466.709	220.277	197.253	0.00011933	0.00022008	0.00011618	413.34	5.1702e-07	1.6739e-06	746.02	131.38	2.3663e-06	1.5533e-06	254.15	55.475	29.935	6.6756	3.0985e-06	13.701	0.00058551	0.0008192	0.00022355	365.07	8.224e-06	9.0369e-06	655.02	116.66	8.3831e-06	9.2774e-06	223.95	49.105	26.692	6.1874	8.9849e-06	12.311	203.502	237.949	225.292	182.094	181.454	297.570	181.389	186.999	327.029	271.775	184.965	189.338	191.275	197.509	382.429	196.309	-8191	255	
1516.013	1	1	0	0	0.22946	0.20459	0.129	0.15917	0.26833	0.07175	0.16941	0.1778	0.2381	0.10062	0.34034	0.035391	0.13406	0.1237	0.17004	0.14808	-2.2646	-2.4146	-1.9354	-2.9896	-2.1708	-2.3229	-2.8604	-2.0833	-2.4896	-2.4354	-2.0917	-2.8688	-2.1417	-2.1813	-2.7896	-2.0333	199.327	232.577	206.735	489.936	505.425	464.617	419.101	516.136	279.885	292.282	448.362	337.891	394.410	392.124	257.336	198.933	0.00013517	0.00014354	9.2334e-05	417.61	2.1013e-06	3.1489e-06	747.56	131.82	1.0951e-06	1.3718e-06	253.71	55.082	29.747	6.6733	3.2227e-06	13.833	0.00054604	0.00081184	0.00022907	365.83	8.5196e-06	8.9215e-06	656.15	116.47	8.2635e-06	8.9517e-06	224.14	49.191	26.51	6.1772	8.2654e-06	12.356	216.953	503.596	209.015	182.086	289.565	331.227	181.933	186.593	314.261	293.680	185.450	189.624	190.920	198.322	208.984	195.239	-8191	255	
1516.109	1	1	0	0	0.2477	0.049545	0.34576	0.14521	0.15011	0.17765	0.26185	0.32486	0.1905	0.19615	0.33247	0.13668	0.28343	0.19338	0.43957	0.35116	-2.2438	-2.675	-1.9146	-2.7146	-2.1646	-2.2083	-3.0104	-2.0646	-2.5625	-2.6917	-2.1854	-2.7729	-2.1833	-2.1229	-2.8958	-2.1083	287.631	371.603	525.811	212.012	519.507	381.756	478.444	244.477	428.139	450.241	502.268	379.171	334.147	469.774	171.513	358.155	0.00011132	0.00062231	2.9033e-05	414.51	4.9022e-06	4.7789e-06	743.69	131.87	4.2224e-06	4.3225e-06	253.07	55.226	29.65	6.7557	2.1356e-06	13.45	0.00054583	0.00078082	0.00021772	365.71	8.3135e-06	9.1166e-06	654.77	116.65	8.3886e-06	9.1494e-06	223.01	48.933	26.411	6.1898	8.5897e-06	12.249	251.585	305.463	245.568	182.333	377.848	272.449	181.847	186.569	264.224	318.921	184.897	189.410	190.198	198.642	289.107	195.414	-8191	255	
1516.205	1	1	0	0	0.071977	0.16236	0.22853	0.17159	0.18141	0.21036	0.29531	0.10151	0.018639	0.16533	0.26112	0.25063	0.24111	0.15854	0.18266	0.30738	-1.9188	-2.7125	-1.8458	-2.8646	-2.4375	-2.1917	-2.8125	-2.2896	-2.2604	-2.8917	-2.1	-2.7292	-2.6875	-2.2083	-3.1104	-2.3125	347.024	220.151	408.176	458.157	257.740	303.427	179.456	286.695	340.731	277.812	467.247	189.271	255.909	527.400	341.602	296.563	0.00012386	0.00019268	0.0001846	413.14	8.2522e-07	3.6267e-06	742.88	131.66	3.2505e-06	1.0413e-06	250.35	54.671	29.141	6.6534	1.377e-06	13.244	0.00055602	0.00081515	0.00021932	364.06	8.2871e-06	8.5039e-06	652.53	116.11	8.7871e-06	9.052e-06	221.01	48.598	26.247	6.1479	8.2761e-06	12.125	193.720	491.356	191.952	182.116	286.524	308.741	180.805	186.611	249.948	516.762	184.858	189.507	190.719	196.965	246.893	195.644	-8191	255	
1516.326	1	1	0	0	0.23615	0.10822	0.25425	0.27823	0.11703	0.24691	0.29025	0.3109	0.066631	0.12454	0.075272	0.13798	0.14635	0.034769	0.33974	0.32164	-1.9646	-2.8083	-2.1083	-2.7	-2.575	-2.2292	-2.9417	-2.3146	-2.1083	-2.9229	-2.2687	-2.7354	-2.6417	-2.0229	-2.7458	-2.4917	455.180	321.077	217.542	506.656	309.389	429.323	403.261	510.836	244.542	445.203	338.520	522.806	371.643	452.851	420.710	193.299	0.00012869	0.00046113	0.00011274	414.7	2.8952e-06	2.4219e-06	743	131.17	2.8607e-06	2.9078e-06	252.78	54.192	29.116	6.8229	3.6839e-06	13.597	0.0005347	0.00077951	0.0002254	364.38	8.4608e-06	9.1213e-06	652.34	115.85	8.6177e-06	8.5684e-06	222.62	48.548	26.25	6.2209	8.515e-06	12.311	247.216	274.312	287.983	182.290	369.817	242.973	181.159	186.527	282.337	425.940	184.999	189.409	191.508	197.282	343.631	195.076	-8191	255	
1516.422	1	1	0	0	0.12897	0.16587	0.13051	0.17487	0.28119	0.051516	0.10403	0.16301	0.05453	0.29935	0.07722	0.25151	0.15453	0.12338	0.13784	0.1788	-1.9188	-2.8417	-2.0938	-2.6271	-2.5312	-1.9479	-2.7667	-2.3542	-2.0104	-2.7562	-1.8771	-2.3979	-2.6354	-1.9396	-2.6479	-2.4313	179.561	297.888	177.999	412.390	242.532	328.298	488.900	478.358	305.755	443.252	413.714	527.074	414.497	443.863	292.720	207.603	0.00012293	0.00047417	7.6516e-05	414.38	2.9001e-06	2.4045e-06	745.32	132.91	2.2435e-06	7.3553e-07	254.23	55.131	29.279	6.7698	3.3295e-07	13.842	0.00054312	0.00077626	0.00022476	364.43	8.1081e-06	9.0073e-06	656.07	116.82	8.4758e-06	8.5657e-06	224.04	49.235	26.514	6.2317	8.3929e-06	12.469	212.912	239.396	312.630	182.413	394.860	316.001	181.485	186.831	253.866	189.223	184.304	189.890	191.116	198.302	272.421	195.888	-8191	255	
1516.516	1	1	0	0	0.10215	0.071087	0.084025	0.093728	0.22603	0.070545	0.18093	0.16108	0.35672	0.3568	0.22195	0.20197	0.16495	0.25509	0.082526	0.075787	-1.6042	-2.8812	-2.0354	-2.1562	-2.7271	-1.8292	-2.7771	-2.4604	-1.9708	-2.8271	-2.2854	-2.2479	-2.65	-1.8937	-2.6312	-2.4437	282.903	360.101	267.484	193.193	445.867	332.593	482.419	358.105	415.015	316.248	315.661	401.624	442.807	412.878	461.268	511.573	0.00011299	0.00049791	0.00010434	415.45	1.2167e-06	5.1652e-07	747.6	132.81	1.6219e-06	3.8204e-06	252.72	55.025	29.491	6.6966	3.164e-06	13.589	0.00056643	0.00076729	0.00021948	365.43	8.0764e-06	8.6588e-06	656.83	117.46	8.1507e-06	8.4497e-06	222.78	49.014	26.545	6.1819	8.3834e-06	12.306	235.486	264.727	235.648	182.653	173.652	419.692	181.705	186.467	388.397	311.431	184.883	190.077	191.135	198.377	298.142	195.243	-8191	255	
1516.614	1	1	0	0	0.10182	0.12913	0.19683	0.23998	0.3814	0.16866	0.18048	0.074917	0.20783	0.10996	0.080427	0.21088	0.17992	0.16857	0.10419	0.22841	-1.5667	-2.6063	-2.2062	-2.1021	-2.725	-2.0667	-2.775	-2.7292	-2.0583	-3	-2.3125	-2.2292	-2.9313	-1.8917	-2.45	-2.7188	324.253	222.541	464.584	186.585	188.007	344.195	245.377	289.432	267.496	208.107	435.797	299.767	306.467	476.080	241.173	478.703	0.00015169	0.00029739	0.00013042	411.81	1.4058e-06	1.6022e-06	743.07	133.05	1.8411e-06	2.2881e-06	251.72	55.086	29.857	6.741	2.0173e-06	13.594	0.00055592	0.0007601	0.00021942	364.18	7.8254e-06	8.4726e-06	652.01	117.27	8.0828e-06	8.4011e-06	222.23	48.636	26.6	6.1996	8.4495e-06	12.288	230.931	450.622	301.098	182.360	292.215	274.649	181.862	186.766	309.085	293.017	185.490	190.390	191.300	197.923	422.004	195.490	-8191	255	
1516.709	1	1	0	0	0.20874	0.2571	0.05507	0.26263	0.10482	0.27459	0.14604	0.15247	0.030422	0.18619	0.13328	0.16367	0.23512	0.17713	0.28995	0.10771	-1.4813	-2.6125	-2.325	-2.0604	-2.5521	-2.1167	-2.4667	-2.4938	-1.9833	-2.9375	-2.4229	-2.175	-2.8917	-2.1354	-2.3438	-2.6792	279.595	243.053	424.453	490.719	364.469	282.880	399.913	350.499	257.601	488.145	234.303	431.718	522.547	189.504	215.978	340.665	7.989e-05	0.0004392	0.00010578	410.68	3.3153e-06	4.2953e-06	742.99	131.66	2.7121e-06	6.7314e-06	252.74	54.439	29.323	6.8056	2.1061e-06	13.657	0.00053035	0.00075118	0.00022083	362.98	8.1702e-06	8.454e-06	652.35	116.55	8.329e-06	9.0057e-06	222.28	48.832	26.363	6.2214	8.3853e-06	12.368	246.008	259.684	503.150	182.835	330.180	372.811	181.567	186.348	305.382	235.177	185.059	189.537	191.410	197.931	324.233	196.152	-8191	255	
1516.805	1	1	0	0	0.20179	0.087321	0.24397	0.22184	0.088237	0.34233	0.05287	0.24781	0.20046	0.28096	0.30355	0.18582	0.13763	0.10345	0.23423	0.2958	-1.5312	-2.7438	-2.5104	-1.8062	-2.8646	-2.0875	-2.2396	-2.8667	-2.0521	-2.4792	-2.5729	-1.8208	-2.6021	-2.1667	-2.3083	-2.6854	204.120	403.486	353.877	335.614	304.842	395.542	450.771	514.593	260.828	351.249	194.566	483.282	395.299	425.132	474.491	461.972	0.00014787	0.00033919	7.1383e-05	412.29	1.6295e-06	6.2184e-06	743.48	131.35	4.2444e-06	3.0164e-06	252.13	54.609	29.558	6.7511	5.0596e-07	13.892	0.00054638	0.00080665	0.00021782	363.04	7.9045e-06	9.0265e-06	655.04	116.23	8.1079e-06	8.7764e-06	222.9	48.77	26.452	6.1997	8.6505e-06	12.413	206.571	215.413	361.621	182.733	294.672	301.412	181.771	187.208	329.354	365.929	184.773	189.885	190.607	197.646	367.234	196.097	-8191	255	
1516.926	1	1	0	0	0.11222	0.15565	0.043967	0.28796	0.1605	0.15739	0.17768	0.069288	0.10134	0.20073	0.30522	0.14317	0.14783	0.10466	0.17942	0.14251	-1.7062	-2.4417	-2.3625	-1.8875	-2.875	-2.1333	-2.2562	-2.75	-1.8854	-2.3646	-2.6229	-2.0062	-2.7062	-2.3583	-1.9833	-2.6729	450.367	309.657	192.909	469.860	398.768	192.046	500.176	453.128	505.143	273.831	476.734	510.594	365.139	182.452	192.792	492.229	9.3397e-05	0.00033084	0.00016927	417.38	3.2659e-06	4.6435e-06	736.5	132.17	9.6981e-07	3.0472e-06	252.74	54.358	29.335	6.6727	1.7818e-06	13.426	0.00054337	0.00079445	0.00022091	363.61	8.3123e-06	8.6628e-06	651.81	116.57	8.0819e-06	8.8744e-06	221.95	48.578	26.343	6.1341	8.565e-06	12.226	202.547	251.985	210.743	181.880	287.760	372.171	181.712	186.861	331.385	225.865	184.914	190.276	191.344	197.280	427.815	196.030	-8191	255	
1517.022	1	1	0	0	0.13309	0.14333	0.26996	0.29469	0.15868	0.15372	0.15868	0.11021	0.2633	0.31897	0.17054	0.18183	0.1086	0.12625	0.064317	0.21795	-1.6042	-2.3187	-2.8354	-2.0687	-2.7583	-2.4688	-2.1229	-2.9104	-2.0896	-2.1979	-2.8	-1.9042	-2.7208	-2.2917	-1.8042	-2.7542	486.677	366.323	342.083	243.701	281.238	316.975	429.935	515.749	459.669	373.993	473.401	237.964	425.983	323.643	270.373	228.725	0.00010458	0.00012615	0.00012359	410.4	1.7356e-06	4.8656e-06	738.25	131.32	1.3987e-06	3.938e-06	250.47	54.091	28.759	6.7764	2.596e-06	13.421	0.00054431	0.00079224	0.00022286	362.51	8.1388e-06	8.5677e-06	647.69	115.75	8.0195e-06	8.8061e-06	220.34	48.458	26.161	6.1468	8.135e-06	12.229	221.685	246.459	277.605	182.013	374.801	347.629	181.619	186.854	280.956	353.247	185.229	189.352	191.949	197.702	300.571	195.752	-8191	255	
1517.118	1	1	0	0	0.24488	0.21775	0.1983	0.043031	0.11977	0.13233	0.088789	0.17254	0.10471	0.18772	0.1008	0.16837	0.14726	0.25512	0.27024	0.35329	-1.8062	-2.1896	-2.7687	-1.9937	-2.5396	-2.6688	-2.0062	-2.9458	-2.2292	-2.1188	-2.95	-2.0979	-2.4062	-2.3354	-1.8021	-2.7104	426.201	327.097	287.369	176.129	498.673	331.585	406.652	388.728	194.808	403.641	509.892	350.570	174.469	475.676	373.098	446.281	8.861e-05	0.00023896	0.00011702	414.1	2.7542e-06	3.434e-06	736.21	132.07	3.6886e-06	3.5657e-06	250.66	53.843	29.403	6.8465	5.3757e-06	13.57	0.00054316	0.00077987	0.00021674	363.27	7.9786e-06	8.7729e-06	647.5	115.95	7.9666e-06	8.7371e-06	220.35	48.233	26.223	6.1744	8.1714e-06	12.306	236.153	509.811	257.019	182.222	300.737	276.890	181.827	187.191	272.110	220.625	185.255	190.089	191.633	198.070	324.214	195.979	-8191	255	
1517.190	1	1	0	0	0.17177	0.18199	0.27959	0.078089	0.32677	0.15275	0.43385	0.27436	0.047395	0.11631	0.43253	0.14011	0.16869	0.23252	0.027589	0.082469	-1.8875	-2.0292	-2.7167	-1.9875	-2.4875	-2.6667	-2.0833	-2.4375	-2.1979	-1.9771	-2.7833	-2.0292	-2.3354	-2.6521	-1.8854	-2.4938	413.966	517.067	328.666	521.459	375.808	423.141	522.542	236.813	379.297	430.732	464.537	453.885	236.786	469.840	256.943	471.714	0.00013623	0.00025193	9.6228e-05	411.34	2.1366e-06	7.4535e-07	740.93	130.28	2.7734e-06	1.1592e-06	252.17	54.739	29.05	6.7858	6.2822e-06	13.765	0.00054213	0.00079454	0.00022545	362.95	8.045e-06	8.5707e-06	652.31	115.68	8.0005e-06	8.6077e-06	222.51	48.6	26.288	6.1949	8.4201e-06	12.462	205.198	185.244	276.522	182.371	374.970	231.729	181.857	187.123	329.200	352.754	185.000	189.508	190.500	196.624	344.095	195.596	-8191	255	
1517.310	1	1	0	0	0.42411	0.32633	0.15365	0.14846	0.061361	0.19443	0.17943	0.13987	0.31369	0.054395	0.21265	0.15106	0.092446	0.19775	0.14548	0.2045	-2.0187	-1.9438	-2.8771	-1.9688	-2.1292	-2.5792	-1.9813	-2.6146	-2.3625	-1.8375	-2.6479	-2.1562	-2.1208	-2.6708	-1.9146	-2.5292	394.178	284.050	220.088	274.798	201.126	439.907	215.461	227.890	348.246	478.619	201.172	428.324	400.757	208.457	387.375	240.294	0.00015492	0.00017347	0.00012014	413.22	1.1301e-06	4.1209e-06	742.72	132.28	4.6665e-06	4.161e-06	251.82	55.236	29.22	6.7972	1.1045e-06	13.474	0.00054145	0.00078998	0.00021506	363.58	8.4239e-06	8.3161e-06	653.88	117.35	8.5149e-06	8.7851e-06	223.38	49.003	26.5	6.2525	8.4002e-06	12.227	216.864	225.481	267.896	181.521	299.191	238.015	181.113	186.638	354.721	282.082	185.165	189.283	190.967	198.012	357.348	195.059	-8191	255	
1517.406	1	1	0	0	0.090152	0.22396	0.10041	0.14961	0.1018	0.072282	0.16913	0.18398	0.041102	0.069511	0.12051	0.080409	0.18929	0.1488	0.14958	0.11407	-2.3	-1.7896	-2.5979	-2.2667	-2.1125	-2.7667	-1.9479	-2.5	-2.5979	-1.7896	-2.775	-2.2479	-2.0521	-2.8354	-1.9125	-2.5	305.748	210.465	327.236	407.657	424.224	463.885	448.046	382.115	320.970	300.522	205.091	514.892	353.649	396.493	457.367	492.433	0.00014893	0.00055355	0.0001464	418.91	2.9858e-06	3.6684e-06	741.4	132.32	2.5015e-06	2.5543e-06	254.59	55.158	29.477	6.8046	1.4146e-06	13.41	0.00052533	0.0007864	0.00021585	365.27	8.109e-06	8.7217e-06	651.03	117.42	7.6883e-06	8.8877e-06	223.29	48.697	26.475	6.2416	7.9724e-06	12.21	219.720	251.484	245.467	181.874	360.781	348.068	181.017	186.298	216.757	252.067	184.964	189.225	190.873	197.136	401.033	195.480	-8191	255	
1517.502	1	1	0	0	0.11628	0.081288	0.10474	0.10496	0.23623	0.13072	0.12402	0.23065	0.042058	0.09399	0.23498	0.055554	0.1463	0.15399	0.3603	0.21764	-2.3167	-2.1229	-2.6271	-2.4292	-2.0896	-2.8021	-2.2104	-2.2729	-2.7167	-1.8	-2.5125	-2.5187	-1.85	-2.5479	-2.0854	-2.1188	434.123	208.177	192.996	277.197	332.559	361.757	458.446	502.942	387.669	371.009	417.133	364.260	475.502	260.144	369.667	452.388	0.00012063	0.00042777	5.9119e-05	410.8	9.0763e-07	2.7418e-06	735.26	131.7	3.4537e-06	4.3357e-07	250.22	54.313	29.621	6.7726	3.1858e-06	13.541	0.00052216	0.00077131	0.00021022	363.07	7.9315e-06	8.5252e-06	648.38	116.69	7.8871e-06	9.013e-06	222.12	48.473	26.502	6.2126	8.3837e-06	12.347	223.625	514.316	504.167	182.269	418.064	289.873	181.199	187.002	288.574	266.839	184.355	190.056	190.844	197.139	344.967	195.678	-8191	255	
1517.597	1	1	0	0	0.058208	0.10066	0.30006	0.12427	0.20998	0.20684	0.21614	0.076795	0.27529	0.18362	0.072647	0.11293	0.092316	0.17779	0.22888	0.26258	-2.4583	-1.8167	-2.5187	-2.5708	-1.925	-2.7979	-2.2083	-2.0896	-2.9625	-1.8646	-2.5146	-2.5333	-1.8563	-2.7271	-2.3458	-2.0521	306.041	469.434	174.778	436.764	329.296	195.860	422.320	490.932	375.034	425.689	504.781	199.461	473.360	445.981	169.258	221.514	0.00010317	0.00037302	0.00011459	415.71	2.8593e-06	4.9461e-06	739.7	132.39	4.0055e-06	2.2849e-06	254.09	53.798	29.841	6.762	5.2182e-07	13.718	0.00055054	0.00074188	0.00022208	363.05	8.2151e-06	8.4773e-06	651.26	116.83	8.1283e-06	8.6567e-06	223.76	48.427	26.561	6.2273	8.4957e-06	12.398	221.573	236.063	234.801	181.914	502.459	194.885	181.646	186.661	309.011	357.585	184.847	189.713	190.675	198.424	376.959	195.669	-8191	255	
1517.717	1	1	0	0	0.30765	0.23905	0.14656	0.12197	0.095908	0.1073	0.11096	0.028453	0.21802	0.12653	0.19517	0.14019	0.20938	0.15686	0.154	0.13884	-2.4125	-1.9896	-2.325	-2.7292	-1.8771	-2.7396	-2.5292	-2.0458	-2.6354	-2.2354	-2.2604	-2.7083	-1.8708	-2.5	-2.4708	-1.9125	204.206	443.734	267.655	439.199	239.118	219.063	289.246	523.130	449.429	216.915	272.786	302.511	503.710	386.541	482.186	215.426	0.00014737	0.00063828	0.00012199	413.75	2.1563e-06	7.4703e-06	738.64	130.7	1.2163e-06	4.5734e-06	249.96	54.228	29.164	6.7349	1.0611e-06	13.295	0.00054964	0.00078864	0.00022279	362.99	7.9097e-06	8.1924e-06	648.49	116.38	7.9302e-06	8.3671e-06	220.9	48.193	26.244	6.1475	7.9632e-06	12.104	241.107	226.894	276.277	182.012	259.067	274.582	181.134	186.971	445.982	340.906	185.066	189.845	190.907	197.992	247.725	196.264	-8191	255	
1517.789	1	1	0	0	0.20924	0.28418	0.14526	0.21237	0.091589	0.16651	0.24522	0.12195	0.056727	0.17148	0.2249	0.085155	0.21048	0.11153	0.14275	0.10554	-2.3542	-2.1021	-2.2333	-2.8854	-1.7979	-2.5187	-2.4104	-2.0646	-2.7979	-2.1417	-2.2208	-2.7354	-1.6417	-2.4875	-2.5208	-1.8188	270.805	294.475	301.237	229.344	194.658	218.320	368.885	500.310	491.864	280.751	461.471	223.879	503.903	513.824	451.755	499.983	8.1033e-05	0.00015725	3.3795e-05	407.26	1.8879e-06	3.0915e-06	730.59	130.72	1.8568e-06	6.0957e-07	249.51	53.449	28.917	6.6894	2.4524e-06	13.278	0.00052921	0.00077382	0.00020966	359.96	7.9851e-06	8.2649e-06	644.48	115.42	7.8011e-06	8.7201e-06	219.82	47.61	25.916	6.1601	8.4502e-06	12.072	238.513	205.492	318.711	182.351	350.700	290.031	181.364	186.439	367.364	469.529	184.885	188.836	190.667	198.022	352.478	195.135	-8191	255	
1517.887	1	1	0	0	0.20632	0.080597	0.16852	0.17957	0.53282	0.090482	0.33818	0.17841	0.020922	0.18161	0.22529	0.3142	0.075224	0.17591	0.19787	0.31723	-2.4083	-2.4292	-2.2417	-2.8021	-1.8042	-2.4313	-2.6479	-1.9646	-2.5958	-2.3396	-2.3104	-2.7208	-1.9354	-2.1813	-2.7479	-1.9667	526.125	234.856	420.285	412.670	444.778	417.996	444.848	449.498	170.559	443.646	177.853	436.439	430.193	471.213	461.684	346.229	8.8671e-05	0.00016906	4.1424e-05	407.2	8.0113e-07	3.9468e-06	732.28	131.24	3.461e-06	3.1028e-06	249.67	53.38	29.126	6.6797	5.0006e-06	13.452	0.00053041	0.00078741	0.00022043	359.28	8.184e-06	8.4441e-06	643.2	115.14	7.6785e-06	8.5394e-06	220.03	47.787	25.988	6.1541	8.2015e-06	12.264	214.613	269.406	343.395	182.293	446.268	306.312	181.602	186.408	286.846	318.050	184.819	189.425	190.888	197.193	360.416	195.399	-8191	255	
1518.006	1	1	0	0	0.18351	0.22449	0.21925	0.17579	0.012036	0.093813	0.32362	0.16065	0.15863	0.065115	0.077604	0.16127	0.13085	0.079242	0.19801	0.20442	-2.3396	-2.175	-1.9646	-2.75	-2.1417	-2.3792	-2.8604	-1.9271	-2.7083	-2.5062	-1.9667	-2.6583	-2.0167	-2.0833	-2.6583	-1.9833	291.616	185.224	249.225	466.790	479.292	460.521	514.504	383.414	185.359	192.019	465.660	353.030	451.934	387.881	470.698	351.730	0.00016242	0.00022666	6.7364e-05	408.77	6.9021e-07	3.0516e-06	737.07	130.26	2.8601e-06	6.4317e-06	253.43	54.604	28.755	6.7701	2.5155e-06	13.656	0.00053741	0.00076615	0.00022431	360.47	8.1665e-06	8.6492e-06	648.03	115.49	8.2965e-06	8.3901e-06	221.7	48.336	25.955	6.1838	8.0448e-06	12.406	225.225	227.929	403.046	182.094	278.060	191.024	181.309	186.363	276.263	308.378	184.639	189.506	191.241	197.918	376.440	195.552	-8191	255	
1518.102	1	1	0	0	0.07913	0.06014	0.072465	0.17519	0.24365	0.16061	0.13933	0.33498	0.017517	0.061635	0.28819	0.053786	0.20547	0.29052	0.33309	0.057055	-2.275	-2.6042	-2.1583	-2.95	-2.2125	-2.2104	-2.7896	-2.025	-2.4771	-2.5167	-1.9583	-2.8646	-2.0833	-1.975	-2.8	-2.0979	170.546	482.414	328.633	447.569	391.035	229.755	526.000	517.025	495.177	217.575	523.526	360.099	194.563	369.038	400.392	488.003	8.4586e-05	0.00031343	7.0051e-05	410.07	3.3754e-06	4.7505e-06	743.37	132.05	1.875e-06	3.3311e-06	249.03	54.174	29.319	6.7463	3.1887e-06	13.563	0.00053424	0.00077242	0.00021932	362.5	7.795e-06	8.715e-06	651.5	116.37	8.2926e-06	8.3847e-06	221.32	48.152	26.306	6.1703	8.0198e-06	12.219	223.150	291.265	264.263	182.008	392.365	248.191	181.281	186.332	279.932	458.893	184.867	189.702	191.699	197.137	311.942	195.107	-8191	255	
1518.198	1	1	0	0	0.19764	0.17503	0.094561	0.10107	0.15888	0.1282	0.15618	0.1249	0.21721	0.041631	0.16368	0.11268	0.14143	0.26069	0.09866	0.032409	-2.0229	-2.3729	-1.9271	-2.7646	-2.3958	-1.9792	-2.8896	-2.1292	-2.2646	-2.7521	-1.8958	-2.7958	-2.2438	-1.9479	-2.7021	-2.1479	213.636	493.553	473.546	220.978	354.005	332.166	518.650	437.072	346.401	406.810	188.945	367.277	486.158	183.413	198.814	408.919	0.0001199	0.00034173	9.2348e-05	413.53	1.4914e-06	3.3383e-06	736.69	132.27	4.6807e-06	2.8561e-06	249.6	54.1	29.276	6.7612	1.7554e-06	13.651	0.00054208	0.00080375	0.00020938	364.35	7.922e-06	8.5621e-06	648.38	116.33	7.8537e-06	8.6531e-06	221.36	48.166	26.296	6.1927	8.2135e-06	12.264	255.127	305.922	326.314	182.263	284.140	361.061	181.358	186.217	271.006	407.298	184.753	190.210	190.782	198.781	375.120	195.566	-8191	255	
1518.294	1	1	0	0	0.27621	0.18193	0.26855	0.42715	0.07745	0.11295	0.44905	0.21998	0.085651	0.029582	0.11439	0.022609	0.25297	0.16456	0.17129	0.1787	-1.8062	-2.65	-1.7583	-2.6437	-2.5229	-1.925	-2.8292	-2.1583	-2.1396	-2.8667	-1.975	-2.5542	-2.5187	-2.0187	-2.7542	-2.2333	325.770	263.053	279.943	507.156	292.048	400.370	459.643	489.392	420.594	340.329	499.600	358.942	527.097	287.755	332.439	253.164	0.00012208	0.00049268	9.5078e-05	416.27	2.4012e-06	2.1453e-06	734.57	131.9	3.164e-06	1.8378e-06	251.4	53.673	29.238	6.7425	1.3574e-06	13.4	0.00053969	0.00075691	0.00020855	365.53	7.9057e-06	8.7366e-06	649.76	116.45	7.858e-06	8.4764e-06	221.32	47.966	26.22	6.2459	7.8398e-06	12.235	225.873	250.210	229.770	182.442	275.584	414.331	181.039	186.796	283.668	459.480	185.121	189.110	190.835	198.736	329.108	196.164	-8191	255	
1518.415	1	1	0	0	0.35381	0.072387	0.2676	0.14001	0.15272	0.033738	0.22856	0.23382	0.23244	0.049459	0.27046	0.28707	0.14193	0.10127	0.13142	0.29225	-1.7729	-2.7417	-1.9625	-2.4625	-2.4437	-1.9271	-2.8042	-2.1458	-1.9937	-2.7562	-2.2188	-2.6396	-2.5708	-1.9875	-2.5896	-2.4896	423.694	246.682	343.766	403.841	340.671	387.751	461.226	306.134	220.342	190.562	411.973	447.435	280.191	192.095	233.852	508.798	0.00012947	0.00010334	3.8006e-05	416.05	4.163e-07	4.1847e-06	735.45	132.39	2.0836e-06	1.7651e-06	252.67	54.522	29.17	6.856	3.0342e-06	13.542	0.0005408	0.00076007	0.00021504	365.51	7.823e-06	8.7416e-06	648.63	116.67	8.2788e-06	8.4861e-06	221.4	48.448	26.256	6.2631	7.867e-06	12.389	214.886	216.615	322.343	182.567	289.840	307.849	181.928	187.117	326.961	352.636	184.520	190.051	190.973	198.136	364.424	195.583	-8191	255	
1518.487	1	1	0	0	0.10383	0.13027	0.073329	0.11588	0.21707	0.10958	0.27762	0.11768	0.12142	0.17612	0.439	0.16625	0.17568	0.14147	0.22177	0.068204	-1.5125	-2.875	-1.8813	-2.3	-2.7708	-1.8458	-2.7542	-2.4729	-1.9688	-2.7375	-2.1104	-2.2479	-2.7479	-1.7896	-2.5521	-2.5	266.765	260.878	203.637	293.948	481.612	387.379	445.279	503.656	323.277	213.468	494.413	509.152	481.156	346.783	441.332	457.860	9.5562e-05	0.00013422	0.00018602	415.62	2.4857e-06	2.9475e-06	739.77	131.96	2.818e-06	2.8547e-06	250.57	54.046	28.718	6.7262	1.8789e-06	13.478	0.00054202	0.00076896	0.0002236	365.28	8.0097e-06	8.7662e-06	649.91	116.31	7.8751e-06	8.4421e-06	221.19	48.002	25.98	6.2154	8.3385e-06	12.227	217.997	496.925	221.244	181.931	299.689	290.034	181.288	187.136	182.509	341.135	184.690	190.021	191.115	197.395	227.201	195.470	-8191	255	
1518.607	1	1	0	0	0.22038	0.098841	0.040621	0.3088	0.17932	0.1486	0.15783	0.36088	0.34571	0.030322	0.34975	0.1998	0.20429	0.14851	0.36235	0.12721	-1.4292	-2.7083	-2.0187	-2.0917	-2.6542	-1.9958	-2.4854	-2.4854	-1.8958	-2.65	-2.475	-2.2396	-2.7917	-1.9583	-2.3625	-2.6521	170.702	181.209	230.814	467.510	347.397	179.717	226.578	391.353	354.161	340.839	192.315	467.498	446.788	412.045	211.030	238.489	0.00010951	0.00013881	9.2461e-05	415.43	1.1499e-06	2.7217e-06	732.17	130.67	1.9979e-06	2.216e-06	252.46	52.938	28.641	6.7277	3.6597e-06	13.298	0.00053714	0.00076442	0.00022162	363.15	7.5846e-06	8.9461e-06	645.6	115.78	8.0525e-06	8.6377e-06	219.75	47.522	25.935	6.1913	8.2815e-06	12.121	222.840	231.294	238.593	182.291	358.947	224.518	181.463	186.210	385.196	252.539	184.785	189.370	190.872	197.590	295.760	196.310	-8191	255	
1518.702	1	1	0	0	0.073696	0.13794	0.20772	0.11659	0.15185	0.13237	0.30534	0.24745	0.05444	0.11415	0.01905	0.050647	0.1914	0.28044	0.16818	0.13154	-1.4937	-2.5417	-2.0292	-2.0563	-2.8125	-1.9396	-2.3917	-2.6354	-1.8479	-2.6646	-2.325	-1.8458	-2.7646	-1.9583	-2.1688	-2.6667	377.477	327.703	443.637	280.577	245.230	245.066	444.785	176.398	331.813	362.971	484.534	378.078	205.369	422.965	495.613	433.989	0.00012294	0.00012374	0.00016297	411.75	3.4805e-06	4.1608e-06	739.71	131.12	4.4466e-06	1.5741e-06	250	53.925	28.612	6.671	9.5202e-07	13.405	0.00053335	0.00075968	0.0002072	361.9	8.018e-06	8.3094e-06	649.07	116	7.9583e-06	8.6027e-06	220.3	47.784	25.895	6.1647	7.9433e-06	12.24	214.676	409.243	231.876	182.356	345.982	407.994	181.024	186.996	282.576	261.487	185.048	189.355	190.902	197.476	320.854	196.232	-8191	255	
1518.798	1	1	0	0	0.19278	0.045966	0.19217	0.053902	0.093764	0.24043	0.099452	0.23742	0.044931	0.03767	0.19344	0.3482	0.11286	0.015642	0.042756	0.2468	-1.4958	-2.5792	-2.3583	-1.7625	-2.5979	-2.1208	-2.1979	-2.6937	-1.7917	-2.4521	-2.5542	-1.9833	-2.7583	-2.1625	-2.0312	-2.8375	184.858	188.502	341.959	299.974	482.864	482.564	513.474	412.958	239.363	286.622	494.627	508.925	433.022	247.608	491.819	257.137	0.00012533	0.00022354	0.00017167	414.69	2.6984e-06	2.4453e-06	738.33	132.65	3.8923e-06	5.9822e-06	251.4	54.592	29.103	6.7903	4.1609e-06	13.62	0.00054304	0.00076726	0.00021402	363.72	7.978e-06	8.5338e-06	650.47	117.08	8.1546e-06	8.6937e-06	221.66	48.512	26.208	6.1921	8.0569e-06	12.338	222.018	327.424	410.964	183.117	311.530	297.565	181.395	186.798	332.608	330.925	184.644	189.678	191.099	197.257	524.832	195.658	-8191	255	
1518.894	1	1	0	0	0.047712	0.27015	0.0839	0.16806	0.10715	0.24631	0.096633	0.26651	0.063349	0.17525	0.28924	0.24071	0.051695	0.18921	0.30142	0.15108	-1.5292	-2.3333	-2.4792	-1.8417	-2.6646	-2.2042	-2.375	-2.7042	-1.8771	-2.3	-2.6604	-1.9188	-2.5187	-2.2938	-1.8687	-2.7333	223.190	479.976	437.557	344.035	217.628	294.782	436.598	429.227	324.003	321.524	401.533	446.013	486.216	425.710	305.487	495.690	0.00013125	0.00043952	5.5754e-05	417.41	1.0954e-06	2.577e-07	744.35	132.56	2.0457e-06	2.9988e-06	255.09	54.373	29.585	6.6838	2.0584e-06	13.745	0.00052637	0.00077	0.00020456	365.26	7.6523e-06	8.4557e-06	653.3	117.69	7.9577e-06	8.6674e-06	222.47	48.61	26.536	6.2012	7.9502e-06	12.363	229.885	228.155	171.087	182.604	348.556	214.496	181.705	186.417	309.207	200.850	184.929	190.353	191.614	197.622	187.885	196.032	-8191	255	
1519.015	1	1	0	0	0.29224	0.31426	0.1897	0.29956	0.11912	0.15036	0.38104	0.035766	0.19397	0.12677	0.047518	0.23158	0.17879	0.50503	0.11299	0.28869	-1.6625	-2.2875	-2.5417	-1.85	-2.5458	-2.3583	-2.2396	-2.6333	-1.9854	-2.1625	-2.7188	-1.9146	-2.5938	-2.3479	-1.8792	-2.675	268.198	419.681	278.548	457.946	502.667	482.197	189.400	173.486	455.472	298.055	519.731	172.048	233.485	487.568	433.893	214.888	8.9313e-05	0.00012703	0.00010421	412.19	2.4603e-06	3.8551e-06	738.71	133.59	1.3053e-06	7.269e-07	249.87	54.657	29.649	6.9175	2.6108e-06	13.443	0.00052641	0.00076976	0.00020914	364.68	7.9026e-06	8.6715e-06	648.99	117.79	8.1488e-06	8.5931e-06	221.28	48.427	26.541	6.2408	8.3853e-06	12.174	210.060	463.827	517.652	182.556	201.840	507.865	181.387	186.624	486.112	299.684	184.915	189.232	191.021	198.187	328.571	196.486	-8191	255	
1519.086	1	1	0	0	0.25364	0.14111	0.16506	0.16286	0.081815	0.2728	0.12133	0.1249	0.20145	0.068817	0.11875	0.12237	0.038917	0.091218	0.24658	0.078134	-1.6458	-2.2417	-2.775	-1.7021	-2.4667	-2.4479	-1.9104	-2.6521	-1.9458	-2.0542	-2.7313	-1.975	-2.4	-2.4313	-1.8687	-2.5167	243.548	226.135	250.085	219.218	525.934	344.501	188.096	516.126	478.649	232.941	225.198	400.963	527.718	500.040	172.179	334.926	0.0001456	0.00041786	0.00010977	411.84	1.8851e-06	6.4487e-06	734.72	131.86	7.0077e-07	1.4659e-06	250.87	54.745	29.205	6.7753	1.5388e-06	13.392	0.00056027	0.00080113	0.00021463	363.01	8.3969e-06	8.6113e-06	647.32	117.02	8.1332e-06	8.6074e-06	221.53	48.319	26.379	6.2346	8.3552e-06	12.276	239.935	207.547	269.070	182.458	255.733	513.874	182.081	186.702	248.923	277.520	185.156	190.417	191.284	198.432	501.453	196.473	-8191	255	
1519.182	1	1	0	0	0.13806	0.13464	0.18672	0.25198	0.22322	0.14056	0.18853	0.044343	0.051568	0.096701	0.11798	0.065905	0.14233	0.13325	0.22452	0.17239	-1.8146	-1.9188	-2.6125	-1.9438	-2.2417	-2.5167	-1.6812	-2.5417	-2.3333	-1.8271	-2.6771	-2.0104	-2.1458	-2.3292	-1.6542	-2.6292	385.211	431.181	437.552	504.545	415.839	467.692	451.720	515.928	348.947	459.708	426.794	188.533	497.572	490.732	376.341	410.565	0.00012894	0.00023961	0.00010133	410.85	7.2987e-07	1.6689e-06	736.7	132.8	1.0954e-06	1.3299e-06	252.08	54.807	29.444	6.7042	4.4459e-06	13.849	0.00057387	0.00079937	0.00022158	362.14	8.5959e-06	8.7978e-06	646.62	117.51	8.3476e-06	8.6961e-06	221.89	48.374	26.281	6.2375	8.5097e-06	12.448	218.919	233.634	309.306	182.193	339.714	367.608	181.490	187.037	265.184	262.821	184.684	189.341	190.788	198.857	388.569	195.656	-8191	255	
1519.279	1	1	0	0	0.28388	0.14609	0.22358	0.1636	0.034593	0.17419	0.32937	0.17491	0.12256	0.17625	0.090895	0.12741	0.11711	0.28546	0.16141	0.20026	-2.0396	-1.6896	-2.6792	-2.1292	-2.0875	-2.6646	-1.8312	-2.5979	-2.5021	-1.925	-2.8083	-1.9312	-2.1458	-2.6667	-1.9979	-2.4667	464.879	460.114	437.566	492.642	276.890	353.040	465.788	491.591	295.668	359.343	190.363	364.517	245.822	490.787	514.924	361.416	0.00013952	0.00045686	0.00013984	411.48	1.2637e-06	4.0019e-06	737.62	131.76	4.7511e-06	2.8097e-06	251.66	53.496	29.221	6.6773	1.817e-06	13.278	0.00054815	0.0008441	0.00021859	361.97	8.26e-06	8.6901e-06	646.84	116.75	8.2666e-06	9.007e-06	221.16	47.901	26.243	6.1878	8.7163e-06	12.222	230.072	383.410	346.309	182.565	287.209	361.092	181.640	186.719	345.504	250.199	184.832	190.048	191.811	198.148	241.784	195.852	-8191	255	
1519.399	1	1	0	0	0.12554	0.11711	0.11825	0.10906	0.18471	0.19502	0.1538	0.036121	0.090426	0.042723	0.25379	0.18729	0.24354	0.233	0.11838	0.1653	-2.1417	-1.9167	-2.675	-2.1333	-2.1562	-2.8104	-2.2208	-2.4813	-2.5833	-1.8792	-2.775	-2.2958	-1.8417	-2.6979	-2.0062	-2.2687	236.685	293.073	485.354	307.166	294.389	485.499	404.528	488.393	336.598	459.395	466.036	206.352	392.087	321.791	387.121	227.482	0.00012777	0.00036769	8.4264e-05	411.41	2.1823e-06	1.6072e-06	732.03	130.67	1.3682e-07	5.1459e-06	247.71	53.493	29.08	6.7866	1.4797e-06	13.443	0.0005618	0.00080972	0.00022609	362.32	8.276e-06	8.6598e-06	641.18	116.06	8.0608e-06	8.9294e-06	219.29	47.726	25.979	6.1999	8.7384e-06	12.156	230.786	331.757	232.301	182.293	172.041	364.631	181.282	186.819	418.507	324.479	184.651	189.618	191.111	197.941	384.706	196.561	-8191	255	
1519.494	1	1	0	0	0.24185	0.3873	0.11514	0.22009	0.14487	0.16556	0.16676	0.2808	0.068827	0.22982	0.089911	0.12206	0.14716	0.19332	0.15476	0.1648	-2.1708	-1.7271	-2.5583	-2.2104	-1.9083	-2.8229	-2.0896	-2.4188	-2.5958	-1.7771	-2.4792	-2.4042	-1.7042	-2.6625	-1.9833	-2.0396	312.805	487.628	413.420	268.823	405.687	271.647	360.635	507.338	212.886	340.204	205.316	452.834	191.198	370.114	519.354	216.558	0.00014151	0.00042709	0.00012606	410.36	4.6711e-07	3.6354e-06	731.79	130.94	3.7381e-06	6.5469e-07	248.56	53.715	28.767	6.8023	3.4688e-06	13.644	0.00055018	0.00078586	0.00023442	359.48	8.2203e-06	8.8636e-06	641.31	115.76	8.2868e-06	9.169e-06	219.51	47.522	26.03	6.2218	8.5549e-06	12.27	207.580	183.473	333.436	182.623	349.628	304.882	181.846	187.282	276.369	307.169	185.266	189.773	191.810	198.957	330.390	196.433	-8191	255	
1519.590	1	1	0	0	0.15736	0.22709	0.083723	0.15996	0.32344	0.17215	0.1452	0.1689	0.12618	0.33323	0.10821	0.13237	0.036694	0.2169	0.27552	0.17954	-2.2083	-1.8479	-2.3312	-2.3729	-1.9771	-2.7958	-2.2229	-2.2396	-2.6104	-1.7333	-2.4167	-2.4833	-1.7979	-2.6063	-2.2021	-2.0042	334.849	291.641	187.457	171.712	507.342	394.656	479.724	308.514	417.759	466.270	394.798	362.849	437.544	371.735	284.183	352.629	0.00012392	0.00055996	0.00012118	409.68	4.1619e-08	3.7037e-06	733.98	131.05	2.08e-06	4.3057e-06	252.31	53.937	28.973	6.8505	3.7751e-06	13.91	0.00054989	0.00083384	0.00022624	361.89	8.7619e-06	8.8583e-06	645.3	116.98	8.4345e-06	9.417e-06	221.85	48.099	26.263	6.2986	9.1627e-06	12.518	232.864	415.976	258.140	182.363	180.543	329.179	181.513	187.046	355.542	317.769	185.477	190.092	191.267	199.101	261.386	196.932	-8191	255	
1519.688	1	1	0	0	0.10677	0.22377	0.10144	0.069849	0.062331	0.27393	0.14054	0.095673	0.043523	0.16064	0.034397	0.1987	0.27443	0.15923	0.26031	0.18969	-2.3187	-1.7854	-2.1521	-2.6604	-1.9875	-2.5583	-2.2771	-1.8979	-2.5479	-1.7958	-2.2979	-2.5104	-1.7083	-2.5438	-2.2583	-1.8854	331.995	490.875	313.236	357.209	258.594	438.031	292.459	388.003	217.994	465.393	174.155	524.195	253.869	342.951	365.564	441.995	6.4267e-05	0.00040815	8.7598e-05	409.64	6.4349e-07	2.7573e-06	734.88	133.24	5.0434e-06	4.4034e-06	250.97	54.175	29.639	6.7996	2.589e-06	13.681	0.00057542	0.00087001	0.00023161	364.46	8.6995e-06	9.2766e-06	649.73	118.25	8.6657e-06	9.4257e-06	223.13	48.37	26.503	6.3039	8.7808e-06	12.392	225.333	219.878	520.189	181.951	205.236	348.157	181.451	186.944	273.129	394.058	185.113	189.865	191.314	198.777	374.139	195.614	-8191	255	
1519.784	1	1	0	0	0.14048	0.013652	0.091066	0.063619	0.07864	0.088259	0.093532	0.25826	0.16963	0.07971	0.28565	0.14664	0.10078	0.15323	0.12011	0.20456	-2.4125	-1.9896	-2.1375	-2.6917	-1.9167	-2.6875	-2.5375	-1.6938	-2.575	-1.9708	-2.1354	-2.6354	-1.9042	-2.4062	-2.3729	-1.7646	379.611	457.121	521.768	275.863	392.414	184.985	411.674	374.831	374.528	419.922	424.056	408.550	361.842	190.900	180.328	307.893	0.0001644	0.00024137	0.0001581	412.19	3.6168e-07	1.2051e-07	729.45	133.4	1.6327e-06	3.7367e-06	251.52	53.628	29.238	6.7501	6.5196e-06	13.602	0.0005787	0.00082695	0.00022819	362.29	8.2981e-06	8.9674e-06	644.1	118.07	8.3329e-06	8.8701e-06	222.1	47.966	26.425	6.2526	8.4584e-06	12.279	220.264	290.134	253.873	182.820	283.044	483.616	181.314	186.630	486.646	378.795	185.578	189.769	191.481	199.583	361.761	196.513	-8191	255	
1519.878	1	1	0	0	0.17192	0.11744	0.089539	0.25567	0.27815	0.23996	0.32326	0.10558	0.082944	0.11066	0.30586	0.26957	0.10484	0.11895	0.26759	0.25459	-2.2438	-2.175	-2.0563	-2.6979	-1.825	-2.4562	-2.6083	-1.8917	-2.5312	-2.1146	-1.9875	-2.7812	-1.9083	-2.4021	-2.65	-1.8687	315.347	490.802	495.691	527.336	476.929	505.741	236.205	501.998	238.650	273.567	258.622	526.185	383.474	225.883	383.303	502.467	0.00011407	0.0002447	6.1911e-05	411.43	2.9101e-06	1.6525e-06	731.08	132.99	1.6472e-06	5.1108e-06	252.9	53.543	29.232	6.8307	3.9328e-06	13.546	0.00054331	0.00077095	0.00022634	362.2	8.7487e-06	8.9704e-06	643.89	117.35	8.3599e-06	8.8947e-06	221.8	48.105	26.361	6.2322	8.61e-06	12.327	218.957	508.061	517.863	182.001	312.555	349.374	181.634	186.714	328.450	310.780	185.443	189.687	191.355	197.940	319.013	196.065	-8191	255	
1519.974	1	1	0	0	0.2179	0.38126	0.064012	0.17254	0.10088	0.18215	0.056154	0.12265	0.013752	0.19938	0.010262	0.041467	0.33246	0.1421	0.19111	0.039692	-2.275	-2.0854	-2.0021	-2.7292	-1.9854	-2.1958	-2.4979	-1.8188	-2.4125	-2.2146	-1.9813	-2.7167	-2.025	-2.2	-2.5521	-2.0375	408.282	403.335	235.184	400.317	334.363	172.365	458.244	480.285	378.646	223.683	517.694	415.906	266.234	322.994	259.736	499.895	0.00016474	0.00020821	7.53e-05	409.54	2.4364e-06	2.13e-06	729.81	132.84	8.3009e-07	2.3491e-06	252.12	54.117	29.236	6.8653	3.1329e-06	13.479	0.0005651	0.00080313	0.00023007	362.31	8.6558e-06	9.1216e-06	644.25	117.73	8.4329e-06	9.2064e-06	222.7	48.255	26.456	6.2864	8.858e-06	12.347	218.214	267.119	226.355	182.140	352.696	413.288	181.838	187.275	232.615	341.384	184.928	189.802	191.916	197.863	377.833	196.439	-8191	255	
1520.095	1	1	0	0	0.22598	0.23272	0.03099	0.24188	0.055129	0.20259	0.1698	0.098226	0.25582	0.092959	0.056505	0.26168	0.11966	0.058144	0.10802	0.41984	-2.2333	-2.3792	-1.8125	-2.6229	-2.0917	-1.8188	-2.6792	-1.9208	-2.4375	-2.3729	-1.7479	-2.5292	-2.2333	-2.0729	-2.6042	-2	244.639	371.302	184.025	469.358	489.839	517.450	512.992	460.965	169.169	519.533	261.458	520.478	182.517	207.980	400.495	407.391	0.00011042	0.00013202	0.00016839	413.14	1.2631e-06	2.0411e-06	732.29	131.95	2.8773e-06	4.2076e-06	249.59	53.832	29.651	6.7849	2.3554e-06	13.489	0.00057269	0.00084455	0.00023914	363.77	9.2153e-06	9.7397e-06	643.66	116.96	8.7917e-06	9.4254e-06	220.78	48.095	26.409	6.2337	8.9007e-06	12.275	235.893	491.726	266.567	182.190	356.326	267.997	181.992	186.678	345.136	340.190	185.495	189.820	191.058	198.290	241.298	195.837	-8191	255	
1520.191	1	1	0	0	0.16236	0.14488	0.29156	0.17675	0.10419	0.13735	0.21711	0.087814	0.13315	0.21302	0.21556	0.20946	0.082873	0.08547	0.24843	0.20877	-1.8292	-2.5312	-1.7354	-2.55	-2.0958	-1.9396	-2.7625	-1.9854	-2.2625	-2.7	-1.8333	-2.4042	-2.4875	-1.9417	-2.7521	-1.8729	375.613	484.901	410.117	200.494	349.452	362.873	188.243	379.007	261.512	176.412	377.995	441.922	308.274	216.693	264.880	368.553	0.0001282	0.00041333	0.00015305	410.45	7.4926e-07	3.6809e-06	726.25	131.6	2.9229e-07	2.3685e-06	248.17	53.182	28.777	6.7334	2.7848e-06	13.328	0.00059371	0.0008444	0.000247	361.91	9.282e-06	9.7098e-06	639.92	116.5	9.0975e-06	9.6074e-06	219.26	47.561	25.884	6.2258	9.1767e-06	12.061	242.650	260.512	232.928	182.778	381.891	367.826	181.625	186.893	495.151	252.005	185.837	190.278	191.031	198.603	257.878	196.093	-8191	255	
1520.287	1	1	0	0	0.18626	0.12082	0.053603	0.22875	0.088425	0.10749	0.22436	0.22122	0.3281	0.2415	0.11728	0.1905	0.12144	0.13303	0.25946	0.243	-1.7188	-2.6458	-1.9625	-2.5083	-2.3312	-1.6875	-2.6833	-1.9458	-2.0938	-2.6542	-1.7667	-2.4896	-2.3021	-1.8062	-2.6083	-2.0583	520.214	467.028	279.892	305.649	477.399	320.594	505.027	404.022	271.623	238.693	349.691	411.226	215.517	176.776	317.273	285.292	6.2721e-05	0.0003673	0.00019249	409.48	4.6138e-06	5.4282e-06	730.74	132.95	7.3386e-07	1.5125e-06	247.58	52.864	28.797	6.7394	4.7121e-06	13.274	0.00058796	0.00082999	0.00023586	360.92	8.8324e-06	9.5026e-06	639.59	116.63	8.8849e-06	9.161e-06	218.95	47.268	25.931	6.1841	8.6799e-06	12.087	232.327	230.348	268.406	183.534	364.541	251.245	182.083	186.903	398.273	402.986	185.001	189.899	191.570	197.915	312.098	196.133	-8191	255	
1520.383	1	1	0	0	0.1811	0.072146	0.035508	0.39514	0.048219	0.036334	0.14639	0.029059	0.18454	0.23169	0.10216	0.13002	0.10499	0.14831	0.12141	0.30871	-1.8125	-2.675	-1.8208	-2.4813	-2.6458	-1.7521	-2.7208	-2.0563	-1.95	-2.6354	-2.1458	-2.4062	-2.7083	-1.8771	-2.6833	-2.1813	252.386	404.667	495.892	482.656	384.857	519.251	469.640	250.344	391.632	185.745	343.272	492.825	291.751	428.478	401.193	197.374	0.00011561	1.3903e-05	8.8062e-05	413.54	5.217e-06	9.8763e-06	728.79	130.69	3.9077e-06	3.8087e-06	247.56	53.254	28.519	6.6981	4.9819e-06	13.736	0.00058954	0.00083664	0.00023169	360.58	8.7702e-06	9.639e-06	640.28	116.35	8.9219e-06	9.1984e-06	219.76	47.569	25.879	6.1585	8.789e-06	12.33	250.973	301.047	239.503	182.848	262.002	366.166	182.217	186.878	369.552	265.339	185.262	189.952	191.951	198.275	208.204	195.944	-8191	255	
1520.480	1	1	0	0	0.23722	0.12335	0.15778	0.049669	0.075627	0.2445	0.19428	0.28346	0.12237	0.12407	0.40192	0.072738	0.40993	0.30161	0.072057	0.16255	-1.5479	-2.6521	-1.7875	-2.3729	-2.4729	-1.8604	-2.6	-2.3479	-1.7958	-2.6688	-1.8729	-2.0771	-2.5958	-1.7333	-2.4562	-2.4146	433.043	255.792	312.065	422.124	180.208	211.926	481.965	425.975	397.129	486.952	420.888	299.796	501.937	446.594	375.565	481.069	0.00010489	0.00025242	0.00012645	409.95	1.5275e-06	1.6148e-07	730.76	132.75	1.5188e-06	6.1587e-06	251.26	54.196	29.281	6.928	2.7545e-06	13.488	0.00057315	0.00083381	0.00023415	361.93	8.9465e-06	9.247e-06	641.63	117.19	8.788e-06	8.8394e-06	220.19	48.068	26.241	6.2684	8.5919e-06	12.229	211.158	230.742	312.198	183.014	190.464	246.217	181.769	187.129	329.395	311.652	185.277	189.585	191.433	198.924	336.277	196.742	-8191	255	
1520.576	1	1	0	0	0.12508	0.18404	0.092962	0.20093	0.19513	0.25927	0.3062	0.18935	0.20491	0.073789	0.12362	0.21168	0.028676	0.11783	0.50112	0.051113	-1.2542	-2.7396	-2.0792	-2.0062	-2.5354	-1.7958	-2.525	-2.3229	-1.9125	-2.4375	-2.0229	-2.0042	-2.6229	-1.85	-2.3458	-2.6396	205.299	173.161	476.063	401.047	518.423	342.283	477.302	393.169	401.572	483.412	394.049	424.869	520.816	501.106	320.693	395.402	0.00014821	0.00052018	0.00010207	411.39	1.5616e-06	1.2221e-06	727.98	132.15	2.7407e-06	3.0492e-06	246.85	53.987	29.287	6.8362	1.766e-06	13.424	0.00057246	0.00080438	0.00022832	362.18	8.1188e-06	9.1246e-06	638.77	116.98	8.1501e-06	9.0057e-06	219.55	47.738	26.187	6.2119	8.7865e-06	12.103	209.779	222.943	277.102	182.747	206.330	203.516	181.074	186.382	312.883	359.729	184.838	189.865	190.802	198.968	325.383	195.641	-8191	255	
1520.695	1	1	0	0	0.076854	0.17367	0.24328	0.21668	0.22016	0.20408	0.30851	0.16734	0.2323	0.23163	0.16496	0.13018	0.18275	0.07565	0.10748	0.21746	-1.4	-2.6417	-2.1583	-1.9896	-2.5917	-2.0458	-2.3104	-2.5875	-1.7	-2.6354	-2.2125	-1.8208	-2.8292	-2.0312	-2.3458	-2.5563	224.249	293.927	471.735	488.555	260.803	220.153	475.492	419.466	438.321	450.154	348.325	464.086	289.894	327.446	300.050	463.670	9.7014e-05	0.00032365	0.00014261	414.01	5.9571e-07	2.8493e-06	729.37	133.26	4.6696e-06	5.063e-06	247.12	53.193	29.375	6.8944	3.0444e-06	13.369	0.00056505	0.00080706	0.00023076	362.48	8.3757e-06	8.9953e-06	641.03	116.91	8.7311e-06	8.8577e-06	220.15	47.8	26.217	6.2651	9.0577e-06	12.242	258.722	211.003	323.136	182.135	338.522	392.766	181.952	186.496	290.058	268.955	185.070	189.383	191.231	198.783	412.613	196.643	-8191	255	
1520.791	1	1	0	0	0.28676	0.029324	0.080201	0.3574	0.1739	0.30444	0.050616	0.20376	0.099176	0.2058	0.2844	0.11421	0.083416	0.029595	0.16096	0.14054	-1.4562	-2.3979	-2.2062	-1.9625	-2.5458	-2.0396	-2.2542	-2.5208	-1.7167	-2.4938	-2.3979	-1.8813	-2.6542	-2.0292	-2.0396	-2.725	492.978	198.409	493.229	408.906	243.657	461.254	403.627	299.109	393.362	284.547	475.235	394.025	477.223	520.129	416.179	388.984	8.7429e-05	0.0002411	9.269e-05	409.15	3.9003e-07	1.8584e-06	733.2	132.16	2.3596e-06	4.5536e-06	250.14	53.206	29.076	6.7385	4.4896e-06	13.386	0.00057121	0.00080274	0.00022185	360.32	8.4209e-06	8.869e-06	643.06	116.65	8.888e-06	9.227e-06	220.62	47.822	26.144	6.2174	8.615e-06	12.194	250.800	230.456	207.899	182.607	435.117	241.654	181.506	186.374	307.806	366.607	184.778	189.481	191.708	198.104	320.302	196.008	-8191	255	
1520.887	1	1	0	0	0.19558	0.16135	0.10399	0.15556	0.055414	0.20865	0.17629	0.083023	0.40426	0.21234	0.13446	0.15501	0.14762	0.15561	0.074406	0.19975	-1.4708	-2.4021	-2.525	-1.7396	-2.5938	-2.0771	-2.1104	-2.6958	-1.9	-2.5271	-2.5271	-1.9188	-2.6458	-2.225	-1.8521	-2.8271	233.263	326.468	390.757	453.972	246.739	283.965	185.316	310.528	429.034	187.615	423.979	413.558	441.045	437.763	241.859	247.900	0.00011353	0.00040118	7.5223e-05	410.63	2.0451e-06	2.9637e-06	729.62	131.46	3.611e-06	3.8111e-06	248.39	53.247	28.837	6.7727	1.9773e-06	13.244	0.00056076	0.00082349	0.00022213	361.44	8.3009e-06	9.118e-06	641.49	116.58	8.3375e-06	8.997e-06	219.27	47.391	26.001	6.1688	8.4306e-06	12.114	230.897	286.038	219.804	182.325	279.543	338.747	182.076	186.788	257.859	176.410	185.125	190.164	191.801	198.399	285.418	195.401	-8191	255	
1520.959	1	1	0	0	0.25606	0.16109	0.11903	0.20367	0.15699	0.094068	0.069517	0.10561	0.18932	0.09028	0.23023	0.087086	0.11888	0.20926	0.12167	0.21678	-1.6417	-2.2417	-2.5646	-1.7313	-2.4229	-2.1833	-1.8958	-2.6167	-1.925	-2.0479	-2.7062	-1.9792	-2.4333	-2.1583	-1.9354	-2.7687	194.096	456.911	466.243	335.470	364.633	522.608	403.297	174.916	428.529	436.878	485.213	205.838	454.621	214.655	288.082	522.219	0.00012197	0.00037115	0.00011189	410.69	2.5482e-06	3.3394e-06	725.24	130.45	1.9624e-06	1.9581e-06	247.81	52.739	28.837	6.6571	3.6513e-06	13.334	0.00055907	0.00078071	0.00022262	360.94	8.1032e-06	8.8207e-06	636.28	115.09	8.4069e-06	8.5887e-06	217.95	46.965	25.723	6.1234	8.6473e-06	12.018	214.518	337.768	320.157	182.639	311.315	272.644	181.999	186.171	218.062	439.557	185.184	190.180	191.698	197.862	267.241	195.748	-8191	255	
1521.079	1	1	0	0	0.13239	0.21142	0.09586	0.12114	0.22666	0.084421	0.24416	0.039503	0.18794	0.18808	0.086781	0.23166	0.33602	0.2201	0.12416	0.13745	-1.6562	-1.9667	-2.5354	-1.7563	-2.4396	-2.3688	-1.7188	-2.6604	-2.0812	-2.1167	-2.7958	-1.9125	-2.3604	-2.5354	-1.9167	-2.7208	436.076	186.205	427.584	223.524	345.952	379.628	396.594	325.584	351.941	280.569	437.805	171.092	501.062	432.518	218.598	322.480	0.00010243	0.00026729	0.00011612	409.57	2.1178e-06	4.8922e-06	724.48	129.29	3.9888e-06	3.2027e-06	244.38	52.646	28.559	6.615	1.605e-06	13.307	0.00053686	0.00076785	0.00021649	359.56	8.4719e-06	9.0634e-06	637.72	114.79	8.258e-06	8.9421e-06	217.01	46.936	25.596	6.1207	8.4514e-06	12.116	200.615	209.059	367.813	182.621	333.121	232.389	181.783	186.353	226.750	192.019	184.392	189.244	191.480	197.620	392.153	195.374	-8191	255	
1521.175	1	1	0	0	0.07874	0.1234	0.036039	0.25009	0.043941	0.22133	0.19239	0.13817	0.30872	0.22342	0.20624	0.13664	0.081606	0.2665	0.2183	0.21028	-1.6	-1.8687	-2.6208	-1.9062	-2.3208	-2.4604	-1.9688	-2.5042	-2.0583	-1.9438	-2.8125	-1.9479	-2.0604	-2.3958	-1.7896	-2.5771	247.804	442.488	364.709	500.004	490.605	203.928	410.478	473.879	467.665	362.459	220.802	465.648	358.487	472.278	288.187	198.270	8.9608e-05	0.00016995	9.9642e-05	406.42	2.0775e-06	2.6718e-06	720.29	131.46	8.998e-07	1.6172e-06	245	52.769	28.289	6.6398	1.9244e-06	13.618	0.00055958	0.00080125	0.00021513	358.45	8.2013e-06	8.9015e-06	634.41	115.56	8.0277e-06	9.0137e-06	218.2	47.119	25.644	6.1581	8.4688e-06	12.291	243.631	307.986	271.633	181.837	309.894	289.374	180.668	186.154	376.124	360.811	184.667	189.574	190.860	197.858	222.765	195.602	-8191	255	
1521.272	1	1	0	0	0.074131	0.15154	0.1444	0.11249	0.26026	0.19376	0.19588	0.071234	0.14925	0.22004	0.10905	0.30625	0.17454	0.2169	0.14251	0.1337	-1.8208	-1.675	-2.7062	-1.9229	-2.1146	-2.4833	-1.9417	-2.5354	-2.3229	-1.8729	-2.775	-1.9458	-1.9979	-2.5312	-1.6167	-2.4479	415.879	344.787	209.021	204.238	214.130	325.449	464.444	492.389	338.576	467.576	524.291	413.242	306.920	416.119	436.970	455.985	0.00012669	0.000399	6.173e-05	407.46	2.0676e-06	1.6912e-06	723.89	131.75	3.939e-06	7.3249e-06	250	53.515	28.521	6.7667	3.6462e-06	13.537	0.00055319	0.00080358	0.0002177	359.56	8.1588e-06	8.6013e-06	639.04	116.43	8.0204e-06	8.8511e-06	220.26	47.475	25.852	6.1532	8.2505e-06	12.164	225.794	188.903	261.756	181.629	257.860	224.410	181.114	186.728	364.468	310.743	184.757	190.269	191.157	198.333	234.653	195.955	-8191	255	
1521.368	1	1	0	0	0.095691	0.1192	0.17587	0.28965	0.17822	0.051198	0.18224	0.17935	0.2204	0.088775	0.44087	0.34639	0.082002	0.1511	0.083457	0.18073	-1.9083	-1.7167	-2.6146	-2.2	-1.8917	-2.7021	-1.9354	-2.35	-2.3375	-1.8167	-2.7438	-2.1521	-2.0125	-2.6562	-1.8271	-2.3542	524.276	498.302	230.396	194.023	513.619	473.608	488.962	248.902	488.856	385.203	492.294	176.288	192.629	181.709	221.968	520.549	0.00013135	0.00022454	0.00010462	410.53	6.7202e-06	9.7827e-07	725.3	131.31	1.5113e-06	2.8009e-06	248.88	53.116	28.667	6.6985	1.2301e-06	13.342	0.00054801	0.00081371	0.00021467	359.54	7.9275e-06	8.5874e-06	637.61	116.49	7.9712e-06	8.7147e-06	220.16	47.361	25.892	6.1398	8.4644e-06	12.026	232.732	293.831	431.417	182.481	350.060	394.629	181.700	186.644	304.073	336.561	185.159	189.970	191.395	197.949	334.784	195.421	-8191	255	
1521.488	1	1	0	0	0.2109	0.164	0.12251	0.1434	0.15511	0.30508	0.12685	0.19176	0.19206	0.12751	0.12869	0.10994	0.18277	0.13679	0.22959	0.15784	-2.1479	-1.6	-2.6292	-2.3771	-1.8312	-2.5354	-2.0583	-2.2313	-2.6229	-1.7875	-2.5563	-2.225	-1.7437	-2.6312	-1.9062	-2.1063	449.793	333.904	484.136	231.630	414.411	479.530	453.764	414.434	340.953	478.078	347.518	508.470	456.227	399.944	415.400	177.247	0.00013124	6.2158e-05	0.00012025	411.87	2.825e-06	2.2643e-06	726.45	132.43	1.5847e-06	2.3478e-06	244.74	53.025	28.964	6.8412	2.1578e-06	13.484	0.0005224	0.00075885	0.00021126	360.01	8.1896e-06	8.5501e-06	637.65	116.55	8.0938e-06	8.8527e-06	218.88	47.229	26.01	6.2083	8.4574e-06	12.164	232.013	297.152	243.941	182.307	322.235	323.162	180.832	186.280	242.891	373.082	185.423	189.302	191.532	197.756	369.872	196.946	-8191	255	
1521.583	1	1	0	0	0.21671	0.11086	0.20129	0.14935	0.16624	0.17681	0.3485	0.16731	0.14431	0.11927	0.33454	0.20413	0.16561	0.22932	0.20469	0.021614	-2.1604	-1.8583	-2.4167	-2.35	-1.8438	-2.7542	-2.1104	-2.0854	-2.4625	-1.7812	-2.2729	-2.5062	-1.7354	-2.6083	-2.0563	-2.0854	513.859	474.829	234.220	417.806	513.542	262.662	449.559	217.379	518.353	226.145	405.454	432.676	506.325	441.692	171.063	341.975	0.00014984	0.00014321	7.3067e-05	408.69	1.6924e-06	7.3624e-06	726.47	131.03	3.1875e-06	5.1702e-06	252.17	53.171	28.738	6.842	2.5092e-06	13.526	0.00053424	0.00075795	0.00021831	360.42	8.5264e-06	8.8211e-06	639.05	116.38	8.3577e-06	9.1847e-06	221.2	47.422	25.878	6.2553	8.6356e-06	12.182	213.741	344.441	387.356	182.307	475.720	324.469	181.181	187.341	330.041	310.094	185.097	190.271	191.888	197.504	320.805	196.168	-8191	255	
1521.656	1	1	0	0	0.059182	0.049511	0.18758	0.30066	0.13572	0.09127	0.17925	0.17161	0.18083	0.10163	0.089376	0.11429	0.045252	0.016718	0.26485	0.2505	-2.2938	-1.9917	-2.225	-2.4208	-1.8062	-2.5604	-2.1729	-2.1042	-2.4417	-1.9188	-2.2875	-2.5667	-1.5833	-2.4292	-2.3521	-1.8333	178.485	257.468	324.063	422.423	483.929	528.242	467.414	317.427	290.842	442.176	449.734	348.527	496.223	415.089	387.139	498.650	0.00013737	0.00078449	0.00015439	408.85	1.564e-06	7.3141e-07	728.58	132.47	1.4635e-06	1.6515e-06	249.49	53.281	28.899	6.7202	3.1711e-06	13.409	0.00056505	0.00077731	0.0002176	360.02	8.348e-06	8.6974e-06	639.6	116.7	8.1556e-06	8.7957e-06	219.4	47.393	25.971	6.189	8.5546e-06	12.122	228.173	260.913	312.201	182.525	354.858	373.428	181.526	186.658	324.977	464.309	185.263	189.851	191.465	197.968	245.037	195.517	-8191	255	
1521.775	1	1	0	0	0.074696	0.088447	0.14775	0.21431	0.30488	0.19174	0.08743	0.1478	0.18841	0.2333	0.25813	0.168	0.3478	0.063018	0.070707	0.089997	-2.3708	-1.7833	-2.1063	-2.6604	-1.7646	-2.4354	-2.2583	-1.9396	-2.6833	-2.1688	-2.125	-2.5292	-1.8958	-2.5396	-2.4771	-1.7771	209.085	377.355	344.265	214.429	420.708	279.713	525.650	206.738	172.299	275.951	495.567	210.530	326.244	190.118	334.306	212.882	9.0529e-05	0.00054134	4.6104e-05	410.1	2.2537e-06	3.8914e-06	729.06	129.06	3.3053e-06	2.2988e-07	246.92	52.685	28.11	6.6503	1.5151e-06	13.331	0.00053491	0.00081589	0.00022294	361.63	8.1364e-06	8.6063e-06	637.85	115.23	8.2241e-06	8.9327e-06	217.97	46.726	25.541	6.0866	8.129e-06	12.025	232.253	260.174	491.116	182.636	334.125	331.424	181.570	187.078	307.794	381.260	184.955	189.558	191.095	198.570	290.569	196.373	-8191	255	
1521.871	1	1	0	0	0.24887	0.2426	0.32413	0.21453	0.10122	0.21889	0.10077	0.23197	0.31268	0.061941	0.34032	0.04242	0.13952	0.095778	0.03809	0.14541	-2.1562	-2.0271	-2.2646	-2.875	-1.8833	-2.5396	-2.4688	-1.8167	-2.6562	-2.2583	-1.9854	-2.6208	-1.9958	-2.1917	-2.6083	-1.8417	406.336	182.816	364.063	503.191	419.173	292.401	419.540	419.135	264.113	311.367	472.731	220.537	254.946	269.438	475.532	344.564	0.00013625	0.00069746	7.8449e-05	407.95	3.3413e-06	4.8548e-06	724.31	130.38	2.9147e-06	4.4143e-06	246.91	52.417	28.086	6.7345	3.4802e-06	13.418	0.00052601	0.00078407	0.00021396	359.87	8.1963e-06	8.612e-06	636.54	115.75	8.4351e-06	8.4794e-06	218.11	46.952	25.417	6.1565	7.9895e-06	12.004	221.426	507.786	288.718	182.638	316.459	312.811	181.248	186.957	442.572	273.158	184.454	190.127	190.876	196.992	296.362	195.394	-8191	255	
1521.967	1	1	0	0	0.18227	0.15565	0.10576	0.040138	0.079354	0.1853	0.25718	0.23772	0.13348	0.21559	0.19535	0.12313	0.22061	0.31462	0.16365	0.41601	-2.2354	-2.1	-1.8667	-2.5333	-1.8833	-2.3	-2.825	-1.6521	-2.6708	-2.2687	-1.8875	-2.6354	-1.8604	-2.0917	-2.6146	-1.8292	397.475	207.089	471.071	326.799	497.771	445.670	461.728	479.089	415.083	466.427	520.777	484.897	437.254	287.358	407.577	211.441	0.00013601	0.00060399	0.00015015	409.06	9.3045e-07	4.6223e-06	725.36	130.25	2.4939e-06	3.3095e-06	247.94	53.115	28.277	6.6733	1.7598e-06	13.393	0.00053111	0.000783	0.00022603	359.3	8.2394e-06	8.8088e-06	637.57	115.19	8.6724e-06	8.7411e-06	219.62	47.393	25.688	6.2006	8.3401e-06	12.172	222.291	252.928	274.213	182.270	307.411	293.469	181.236	186.833	291.545	319.304	184.484	189.464	191.192	197.822	393.861	196.544	-8191	255	
1522.088	1	1	0	0	0.20687	0.15665	0.098576	0.15893	0.10948	0.07639	0.19204	0.079767	0.15055	0.07957	0.30309	0.065792	0.23488	0.1307	0.10544	0.23193	-2.0833	-2.5396	-1.7458	-2.5938	-2.1937	-2.0792	-2.7208	-1.9104	-2.4833	-2.3292	-1.9021	-2.6917	-1.9771	-2.1896	-2.8063	-2.1208	315.601	169.656	229.251	396.127	308.286	282.697	201.170	310.444	421.279	251.040	496.957	287.195	498.285	271.757	174.927	448.405	9.1679e-05	0.00050184	3.5566e-05	409.97	3.1848e-06	3.6343e-06	726.38	131.61	1.695e-06	4.0616e-06	250.04	53.595	28.825	6.8771	2.5288e-06	13.39	0.0005685	0.00081583	0.00022023	360.1	8.3169e-06	8.6864e-06	640.83	115.71	8.4886e-06	8.6814e-06	220.85	47.673	25.917	6.2433	8.1398e-06	12.154	226.519	259.971	418.651	182.738	357.643	310.270	181.419	186.236	310.406	417.285	185.162	189.927	190.987	198.331	268.566	195.743	-8191	255	
1522.184	1	1	0	0	0.13116	0.042802	0.20913	0.016863	0.20263	0.23133	0.27845	0.11562	0.089526	0.2565	0.18302	0.16468	0.47141	0.19163	0.16211	0.24677	-1.9125	-2.4292	-1.6521	-2.6792	-2.2854	-1.9542	-2.6458	-1.7458	-2.2542	-2.4375	-1.8042	-2.4208	-2.1396	-1.8042	-2.6354	-1.8958	429.677	447.923	366.298	352.670	366.526	239.395	405.554	494.632	243.738	327.988	483.267	396.764	350.554	505.294	414.773	311.963	0.00010786	0.00018857	5.2822e-05	408.21	2.8726e-06	2.7845e-06	722.58	131.61	1.3912e-06	5.3042e-06	245.5	53.143	29.049	6.7916	4.8284e-06	13.248	0.00055095	0.00077936	0.00021245	360.65	8.3535e-06	8.6542e-06	636.95	116.39	8.3794e-06	8.5327e-06	218.57	47.525	26.072	6.192	8.2426e-06	12.081	218.654	263.920	306.072	182.124	373.741	222.688	181.664	186.648	406.950	404.026	184.650	190.109	190.858	198.047	265.558	196.405	-8191	255	
1522.256	1	1	0	0	0.30842	0.21881	0.057938	0.10749	0.13298	0.20779	0.18118	0.19104	0.12631	0.12047	0.076287	0.10641	0.03127	0.2015	0.063144	0.18118	-1.9	-2.6375	-1.8833	-2.7188	-2.2146	-1.9875	-2.8625	-2.1583	-2.0771	-2.6146	-1.8042	-2.5208	-2.3292	-1.8687	-2.625	-2.0646	482.553	435.365	226.434	391.044	286.302	197.787	471.098	275.697	367.659	505.344	286.306	230.499	459.145	413.008	320.703	321.479	0.00010015	0.00036949	9.0419e-05	410.49	2.9602e-07	3.5633e-06	723.98	132.23	3.499e-06	6.4102e-06	252.66	54.037	29.174	6.7665	5.8081e-06	13.439	0.00057263	0.00080739	0.00022837	363.49	8.4965e-06	9.1815e-06	639.82	116.89	8.1387e-06	8.7354e-06	222.12	47.758	26.137	6.2658	8.2926e-06	12.232	204.485	310.021	209.221	182.234	300.236	244.609	181.589	186.609	277.683	281.052	185.509	189.591	191.488	197.541	307.665	195.956	-8191	255	
1522.376	1	1	0	0	0.10915	0.17304	0.10247	0.22447	0.1606	0.028736	0.19181	0.08996	0.11669	0.096565	0.30766	0.1625	0.24839	0.21631	0.17569	0.23366	-1.8125	-2.7875	-1.6396	-2.3833	-2.4875	-1.8813	-2.6854	-2.1437	-2.0396	-2.8458	-1.8854	-2.4417	-2.5667	-1.8604	-2.5646	-2.1417	498.902	492.152	476.528	353.072	240.927	463.577	459.756	307.360	313.593	229.067	170.341	251.521	472.036	315.595	316.010	364.306	8.6728e-05	0.00027814	0.00014826	411.61	1.535e-06	4.9571e-06	729.82	132.19	5.0297e-07	1.2749e-06	253.5	52.83	29.124	6.7461	3.8288e-06	13.542	0.0005692	0.00077417	0.00021833	363.21	8.5104e-06	8.8972e-06	641.63	116.92	8.3011e-06	9.2397e-06	222.82	47.594	26.112	6.198	8.5274e-06	12.228	236.754	305.371	265.238	182.105	237.214	277.035	181.303	186.291	447.660	176.614	184.455	189.087	191.772	198.157	340.490	195.013	-8191	255	
1522.473	1	1	0	0	0.068752	0.15734	0.066042	0.20192	0.0099843	0.04889	0.18227	0.31217	0.37033	0.30596	0.21917	0.15305	0.287	0.091145	0.15065	0.34016	-1.5875	-2.6854	-1.8438	-2.2104	-2.4562	-1.9417	-2.7604	-2.1083	-1.9375	-2.7625	-2.1125	-2.2979	-2.5646	-1.9542	-2.4729	-2.4979	497.501	433.078	382.063	250.393	295.664	460.388	348.443	448.802	393.973	494.212	504.516	281.167	312.284	371.563	306.901	248.703	0.00014591	0.00017114	3.8802e-05	416.71	2.9632e-06	5.234e-06	733.41	133.26	1.196e-06	9.7849e-06	248.74	53.024	29.074	6.8657	1.282e-06	13.306	0.00056249	0.00080531	0.00023757	365.04	8.1179e-06	8.9411e-06	644.23	117.23	8.228e-06	8.8204e-06	220.88	47.526	26.06	6.2541	8.4894e-06	12.148	213.863	524.799	223.503	182.368	357.045	325.996	181.478	186.192	255.654	264.544	184.974	189.354	191.104	198.272	311.342	196.476	-8191	255	
1522.567	1	1	0	0	0.1168	0.074871	0.2002	0.096833	0.30695	0.18506	0.16871	0.077313	0.059908	0.087095	0.15429	0.24703	0.25265	0.18398	0.3033	0.032444	-1.5812	-2.5354	-1.7875	-2.2	-2.6021	-1.8604	-2.4604	-2.5458	-1.7542	-2.5812	-2.1083	-2.0604	-2.7354	-1.8354	-2.3458	-2.4062	400.033	375.847	509.961	178.811	525.808	465.808	169.398	457.303	257.484	508.471	426.334	508.824	514.857	431.565	270.489	192.281	0.00011077	0.00043216	5.7295e-05	414.39	1.9277e-06	3.0099e-06	727.83	131.38	3.2149e-06	6.6505e-06	247.86	52.557	28.499	6.6338	7.5898e-07	13.216	0.00055892	0.00081523	0.00022814	364.73	8.3634e-06	8.9813e-06	638.28	115.84	8.4329e-06	9.1874e-06	218.66	47.065	25.743	6.175	8.3799e-06	12.074	222.328	253.306	231.829	182.498	404.826	298.090	181.440	186.389	315.669	257.295	184.199	189.586	190.915	197.863	321.446	195.562	-8191	255	
1522.663	1	1	0	0	0.23045	0.11698	0.23984	0.062517	0.1726	0.36198	0.059709	0.15803	0.14916	0.40397	0.23762	0.10199	0.12859	0.15414	0.16633	0.18086	-1.3292	-2.6104	-2.0917	-1.9854	-2.8	-1.9729	-2.425	-2.4771	-1.8604	-2.625	-2.1479	-2	-2.7	-1.8229	-2.325	-2.4292	410.150	513.084	221.823	392.660	333.110	179.100	216.017	277.120	221.940	202.904	508.277	495.335	199.611	404.049	180.709	184.253	0.00016694	0.00037517	2.4403e-05	408.72	2.8647e-06	4.2037e-06	724.24	131.69	4.5381e-06	2.5607e-06	246.81	53.03	28.594	6.6853	2.952e-06	13.311	0.00054809	0.00081965	0.00022593	361.62	8.5528e-06	8.982e-06	637.66	116.22	8.2938e-06	8.9477e-06	218.64	47.052	25.71	6.1779	8.416e-06	12.105	241.876	242.365	318.134	182.793	282.228	276.530	181.635	187.225	282.800	299.649	185.090	190.357	191.226	198.632	317.482	196.538	-8191	255	
1522.784	1	1	0	0	0.22255	0.14697	0.16246	0.15833	0.22658	0.22138	0.15456	0.19053	0.30352	0.06596	0.096711	0.13069	0.22984	0.17903	0.068282	0.073602	-1.4271	-2.4917	-2.4021	-2.025	-2.7167	-1.9729	-2.2979	-2.8667	-1.8854	-2.5812	-2.5	-1.8563	-2.6604	-2.0521	-1.7354	-2.8396	175.474	419.672	274.702	425.599	407.841	372.715	456.575	473.544	202.946	509.637	486.306	473.654	384.365	180.937	341.998	359.958	0.00014996	0.00034395	0.00015572	394.68	1.0019e-06	3.2808e-06	673.39	122.4	2.9252e-06	6.5616e-06	251.24	52.916	28.761	6.7734	3.4903e-06	13.309	0.00056757	0.00077122	0.00023589	360.05	8.1502e-06	8.7167e-06	632.43	114.82	8.2525e-06	8.7131e-06	220.75	47.222	25.988	6.2297	8.7201e-06	12.227	216.767	268.820	204.854	186.151	250.088	356.270	186.318	191.294	193.095	339.321	185.786	190.378	191.719	197.773	339.591	195.466	-8191	255	
1522.880	1	1	0	0	0.07115	0.18485	0.25931	0.23155	0.10053	0.11396	0.23755	0.082226	0.26619	0.057189	0.17316	0.099122	0.18898	0.23436	0.12238	0.077343	-1.5271	-2.4646	-2.5375	-1.925	-2.65	-2.0729	-2.2458	-2.7208	-1.8771	-2.3104	-2.5833	-1.8854	-2.6354	-2.075	-1.7396	-2.7396	223.262	234.447	322.584	173.576	195.896	293.973	421.916	526.988	327.701	274.147	320.037	434.214	501.465	505.514	388.022	416.477	0.00010648	0.00012053	4.3531e-05	413.44	2.3717e-06	4.432e-06	729.19	133.38	4.6118e-06	1.0203e-06	250.23	53.247	29.098	6.8405	4.1486e-06	13.544	0.00058106	0.00079415	0.00022448	363.4	8.2422e-06	8.9654e-06	642.9	117.39	8.5302e-06	8.8761e-06	220.67	47.575	26.227	6.2117	8.6986e-06	12.319	191.979	269.460	361.993	182.380	387.825	318.438	181.820	186.547	355.546	338.316	184.772	190.360	191.848	197.013	312.469	196.525	-8191	255	
1522.952	1	1	0	0	0.21156	0.24439	0.17017	0.24625	0.17366	0.116	0.23767	0.15714	0.1348	0.27146	0.20951	0.30364	0.073217	0.11713	0.31929	0.12736	-1.5792	-2.4271	-2.6208	-1.9062	-2.5208	-2.2708	-2.175	-2.7125	-1.8292	-2.2854	-2.6646	-1.7938	-2.4875	-2.1833	-1.9625	-2.7812	501.349	285.190	438.759	451.770	461.308	357.115	460.206	448.933	395.637	191.963	500.703	485.492	193.048	527.732	414.907	446.247	0.00011998	0.00056962	6.2048e-05	411.59	1.6239e-06	9.571e-06	738.86	133.67	3.3999e-06	1.4311e-06	250.29	53.331	29.403	6.7217	2.1106e-06	13.492	0.00054323	0.00081389	0.00021892	362.75	8.0109e-06	8.7951e-06	644.51	117.73	8.1412e-06	9.0904e-06	220.57	47.579	26.275	6.2132	8.3597e-06	12.244	224.764	254.697	438.501	182.419	491.842	250.864	181.460	186.777	340.228	255.050	185.381	189.680	191.277	198.017	224.405	196.303	-8191	255	
1523.048	1	1	0	0	0.20978	0.10851	0.12737	0.29961	0.37013	0.10509	0.14427	0.17171	0.29303	0.29917	0.053814	0.25885	0.018645	0.18659	0.12524	0.077526	-1.7958	-2.0687	-2.6063	-1.7167	-2.6188	-2.3458	-2.0062	-2.6729	-1.9396	-2.1021	-2.7896	-1.9813	-2.3563	-2.3542	-1.7021	-2.7208	366.305	329.928	239.942	454.186	522.231	451.307	447.203	177.139	424.915	244.267	287.593	393.172	350.182	230.331	490.714	485.651	0.00012755	0.00033073	4.628e-05	417.12	1.4857e-06	2.1097e-06	730.26	134.1	7.2511e-07	2.7344e-06	251.82	53.549	29.064	6.6743	8.7003e-07	13.642	0.00055408	0.00081804	0.00022485	367.46	8.6023e-06	8.8337e-06	645.37	118.28	8.4978e-06	9.1177e-06	222.89	47.789	26.325	6.2025	8.322e-06	12.286	229.228	223.466	290.824	182.666	411.344	245.433	182.196	187.095	174.820	285.117	185.452	190.048	191.668	197.565	356.862	196.586	-8191	255	
1523.168	1	1	0	0	0.048513	0.12151	0.37346	0.082151	0.12317	0.21992	0.10348	0.23516	0.047362	0.075834	0.19465	0.031574	0.098238	0.10356	0.23499	0.33483	-1.6479	-2.1667	-2.7646	-1.8354	-2.375	-2.5604	-1.8042	-2.6104	-2.2521	-2.0521	-2.8458	-1.7396	-2.2125	-2.5771	-1.8438	-2.7083	234.405	498.665	455.136	301.855	442.055	477.518	507.489	218.236	390.913	294.422	170.526	349.267	452.057	310.448	275.765	209.324	0.00012318	0.00049916	6.2243e-05	417.31	4.9277e-06	3.4567e-06	736.08	135.32	2.5512e-06	6.0188e-06	253.87	53.945	29.229	6.827	5.9537e-07	13.572	0.00056899	0.00081231	0.00022477	365.85	8.2471e-06	8.6173e-06	647.36	118.96	8.2724e-06	8.7884e-06	223.41	47.897	26.286	6.2613	8.6302e-06	12.347	224.625	358.941	205.543	182.185	279.979	240.461	181.534	186.690	332.504	304.784	185.156	190.120	191.827	198.667	339.950	196.874	-8191	255	
1523.264	1	1	0	0	0.051809	0.22239	0.15103	0.20722	0.094465	0.24636	0.33227	0.08907	0.14819	0.21869	0.10649	0.1205	0.29503	0.30457	0.2563	0.018662	-1.7	-1.8875	-2.6688	-1.9667	-2.2333	-2.4	-1.8875	-2.4604	-2.2938	-1.7208	-2.6167	-1.9958	-2.1521	-2.4896	-1.8354	-2.4938	455.885	394.267	442.750	442.004	235.962	274.012	438.029	298.701	183.189	289.873	505.954	503.401	227.897	196.935	195.134	475.720	0.00015885	0.00021653	0.00014398	415.71	1.5543e-06	3.6442e-06	727.44	133.57	3.8105e-06	3.761e-06	250.74	53.954	28.817	6.7473	1.4401e-06	13.468	0.00055131	0.00079809	0.00021417	365.57	8.2536e-06	8.7243e-06	643.19	117.97	8.1283e-06	8.4661e-06	221.75	47.863	25.97	6.2203	8.3885e-06	12.174	241.906	293.616	211.139	182.618	340.331	353.338	182.021	187.227	256.892	315.006	185.390	189.794	192.088	199.602	381.293	196.050	-8191	255	
#DATA ENDS
