BOXY.EXE: ISS Imagent and Oximeter Data Acquisition Program Version 0.80
Ascii Record File

#ACQ INFORMATION
2  Detector Channels 
16  External MUX Channels 
1  Auxiliary Channels 
5000  Waveform (CCF) Frequency (Hz)
1  Waveforms Skipped 
30  Waveforms Averaged 
1  Cycles Averaged 
16  Acquisitions per Waveform 
10.0806  Updata Rate (Hz) 

#FILE INFORMATION
TRUE -- External MUX Channel results are PARSED.
FALSE -- AC DC and Phase are NOT grouped.
TRUE -- Companion Program Settings File CREATED.
FALSE -- AC data not excluded
FALSE -- DC data not excluded
FALSE -- Phase data not excluded
FALSE -- Auxillary Chn. data not excluded
Tab delimiters

#CALIBRATION STATE
TRUE -- Waveform Calibration Values APPLIED.


#AUX CALIBRATION VALUES
Val Type	aux-1	

Term	1.0000e+00	
Factor	0.0000e+00	


#WF CALIBRATION VALUES
A = Detector Channel
Val Type	A-AC1	A-AC2	A-AC3	A-AC4	A-AC5	A-AC6	A-AC7	A-AC8	A-AC9	A-AC10	A-AC11	A-AC12	A-AC13	A-AC14	A-AC15	A-AC16	A-DC1	A-DC2	A-DC3	A-DC4	A-DC5	A-DC6	A-DC7	A-DC8	A-DC9	A-DC10	A-DC11	A-DC12	A-DC13	A-DC14	A-DC15	A-DC16	A-Ph1	A-Ph2	A-Ph3	A-Ph4	A-Ph5	A-Ph6	A-Ph7	A-Ph8	A-Ph9	A-Ph10	A-Ph11	A-Ph12	A-Ph13	A-Ph14	A-Ph15	A-Ph16	

Term	0.00000e+00	0.00000e+00	0.00000e+00	0.00000e+00	0.00000e+00	0.00000e+00	0.00000e+00	0.00000e+00	0.00000e+00	0.00000e+00	0.00000e+00	0.00000e+00	0.00000e+00	0.00000e+00	0.00000e+00	0.00000e+00	0.00000e+00	0.00000e+00	0.00000e+00	0.00000e+00	0.00000e+00	0.00000e+00	0.00000e+00	0.00000e+00	0.00000e+00	0.00000e+00	0.00000e+00	0.00000e+00	0.00000e+00	0.00000e+00	0.00000e+00	0.00000e+00	0.00000e+00	0.00000e+00	0.00000e+00	0.00000e+00	0.00000e+00	0.00000e+00	0.00000e+00	0.00000e+00	0.00000e+00	0.00000e+00	0.00000e+00	0.00000e+00	0.00000e+00	0.00000e+00	0.00000e+00	0.00000e+00	
Factor	1.00000e+00	1.00000e+00	1.00000e+00	1.00000e+00	1.00000e+00	1.00000e+00	1.00000e+00	1.00000e+00	1.00000e+00	1.00000e+00	1.00000e+00	1.00000e+00	1.00000e+00	1.00000e+00	1.00000e+00	1.00000e+00	1.00000e+00	1.00000e+00	1.00000e+00	1.00000e+00	1.00000e+00	1.00000e+00	1.00000e+00	1.00000e+00	1.00000e+00	1.00000e+00	1.00000e+00	1.00000e+00	1.00000e+00	1.00000e+00	1.00000e+00	1.00000e+00	X	X	X	X	X	X	X	X	X	X	X	X	X	X	X	X	

B = Detector Channel
Val Type	B-AC1	B-AC2	B-AC3	B-AC4	B-AC5	B-AC6	B-AC7	B-AC8	B-AC9	B-AC10	B-AC11	B-AC12	B-AC13	B-AC14	B-AC15	B-AC16	B-DC1	B-DC2	B-DC3	B-DC4	B-DC5	B-DC6	B-DC7	B-DC8	B-DC9	B-DC10	B-DC11	B-DC12	B-DC13	B-DC14	B-DC15	B-DC16	B-Ph1	B-Ph2	B-Ph3	B-Ph4	B-Ph5	B-Ph6	B-Ph7	B-Ph8	B-Ph9	B-Ph10	B-Ph11	B-Ph12	B-Ph13	B-Ph14	B-Ph15	B-Ph16	

Term	0.00000e+00	0.00000e+00	0.00000e+00	0.00000e+00	0.00000e+00	0.00000e+00	0.00000e+00	0.00000e+00	0.00000e+00	0.00000e+00	0.00000e+00	0.00000e+00	0.00000e+00	0.00000e+00	0.00000e+00	0.00000e+00	0.00000e+00	0.00000e+00	0.00000e+00	0.00000e+00	0.00000e+00	0.00000e+00	0.00000e+00	0.00000e+00	0.00000e+00	0.00000e+00	0.00000e+00	0.00000e+00	0.00000e+00	0.00000e+00	0.00000e+00	0.00000e+00	-1.07286e+02	-1.33750e+02	-1.30724e+02	-1.82363e+02	-6.19824e+01	-6.62161e+01	-1.57848e+02	-1.62015e+02	-5.98885e+01	-6.91183e+01	-1.70843e+02	-1.70945e+02	-1.83296e+02	-1.76809e+02	-6.51458e+01	-1.49940e+02	
Factor	1.60289e-05	1.47158e-04	4.35422e-05	1.53391e-01	1.14493e-06	1.53336e-06	1.58280e-01	4.76737e-02	1.01461e-06	1.45935e-06	8.23878e-02	2.72771e-02	2.23222e-02	8.72536e-03	1.20848e-06	1.24093e-02	9.10509e-06	1.43128e-05	4.00729e-06	8.10904e-02	1.47627e-07	1.59585e-07	7.86080e-02	2.53910e-02	1.46793e-07	1.59995e-07	4.23457e-02	1.41041e-02	1.20320e-02	4.67646e-03	1.51879e-07	6.42207e-03	X	X	X	X	X	X	X	X	X	X	X	X	X	X	X	X	



#DISTANCE SETTINGS
A = Detector Channel
A-1	A-2	A-3	A-4	A-5	A-6	A-7	A-8	A-9	A-10	A-11	A-12	A-13	A-14	A-15	A-16	

2.5000e+00	3.0000e+00	2.5000e+00	3.0000e+00	2.0000e+00	3.0000e+00	1.5000e+00	3.0000e+00	3.0000e+00	3.0000e+00	3.0000e+00	3.0000e+00	3.0000e+00	3.0000e+00	1.5000e+00	3.0000e+00	

B = Detector Channel
B-1	B-2	B-3	B-4	B-5	B-6	B-7	B-8	B-9	B-10	B-11	B-12	B-13	B-14	B-15	B-16	

1.0000e+01	1.0000e+01	1.0000e+01	1.4400e+00	1.0000e+01	1.0000e+01	1.5100e+00	1.9400e+00	1.0000e+01	1.0000e+01	1.9900e+00	2.4900e+00	2.4100e+00	2.9000e+00	1.0000e+01	2.9800e+00	




#DATA BEGINS
time	group	step	mark	flag	A-AC1	A-AC2	A-AC3	A-AC4	A-AC5	A-AC6	A-AC7	A-AC8	A-AC9	A-AC10	A-AC11	A-AC12	A-AC13	A-AC14	A-AC15	A-AC16	A-DC1	A-DC2	A-DC3	A-DC4	A-DC5	A-DC6	A-DC7	A-DC8	A-DC9	A-DC10	A-DC11	A-DC12	A-DC13	A-DC14	A-DC15	A-DC16	A-Ph1	A-Ph2	A-Ph3	A-Ph4	A-Ph5	A-Ph6	A-Ph7	A-Ph8	A-Ph9	A-Ph10	A-Ph11	A-Ph12	A-Ph13	A-Ph14	A-Ph15	A-Ph16	B-AC1	B-AC2	B-AC3	B-AC4	B-AC5	B-AC6	B-AC7	B-AC8	B-AC9	B-AC10	B-AC11	B-AC12	B-AC13	B-AC14	B-AC15	B-AC16	B-DC1	B-DC2	B-DC3	B-DC4	B-DC5	B-DC6	B-DC7	B-DC8	B-DC9	B-DC10	B-DC11	B-DC12	B-DC13	B-DC14	B-DC15	B-DC16	B-Ph1	B-Ph2	B-Ph3	B-Ph4	B-Ph5	B-Ph6	B-Ph7	B-Ph8	B-Ph9	B-Ph10	B-Ph11	B-Ph12	B-Ph13	B-Ph14	B-Ph15	B-Ph16	aux-1	digaux	

861.576	1	1	0	256	0.17159	0.047087	0.13695	0.15956	0.12901	0.26703	0.27438	0.19089	0.078245	0.095415	0.36413	0.11738	0.28992	0.15646	0.12223	0.19766	-3.8646	-3.5854	-3.8688	-4.075	-3.3312	-4.1771	-3.9917	-3.6229	-4.1813	-3.7313	-3.9562	-4.2667	-3.4854	-4.175	-3.8167	-3.5667	23.229	-70.098	75.953	156.196	61.624	34.472	162.132	145.326	162.090	118.182	131.330	100.494	114.406	160.767	154.940	-115.648	0.0001698	0.00034403	6.8219e-05	1096.7	3.8663e-06	6.3782e-06	1186.8	224.85	2.9992e-06	4.3573e-06	286.07	80.002	62.484	18.229	3.7969e-06	25.59	0.00056419	0.00077912	0.00021464	1085.5	8.2646e-06	8.4314e-06	1179.7	224.73	8.1277e-06	8.6911e-06	287.21	81.577	63.399	18.598	8.1094e-06	26.157	-133.316	-66.512	-58.987	-138.506	-6.406	16.139	-138.790	-130.901	-7.466	7.316	-131.123	-125.009	-124.105	-116.438	3.991	-117.672	-8191	255	
861.672	1	1	0	0	0.05146	0.18158	0.032447	0.16543	0.0318	0.079685	0.070777	0.091338	0.12835	0.13977	0.18401	0.28732	0.24589	0.21294	0.067749	0.18542	-3.8042	-3.4979	-3.6813	-4.2063	-3.2917	-3.9604	-4.0354	-3.4479	-4.1458	-3.7208	-3.6583	-4.2271	-3.4333	-4.0208	-3.8854	-3.3104	29.799	102.449	-137.150	-125.637	149.796	79.250	92.164	72.076	173.850	188.333	151.442	113.118	157.855	110.010	-110.120	-123.725	0.00016025	0.00041426	0.00012404	1097.5	2.7471e-06	1.3351e-06	1171.1	219.93	1.7322e-06	1.9938e-06	281.52	78.39	61.925	18.161	2.2182e-06	24.919	0.00055879	0.00077659	0.0002082	1086.4	8.2615e-06	8.3749e-06	1177.3	223.53	7.7877e-06	8.6767e-06	285.67	80.8	63.354	18.631	7.9088e-06	26.014	-122.378	-93.343	-72.603	-138.394	-36.146	30.608	-138.434	-131.576	-34.502	77.148	-131.487	-125.196	-124.932	-117.043	-38.488	-117.535	-8191	255	
861.768	1	1	0	0	0.071292	0.1919	0.26601	0.17211	0.11648	0.12031	0.21478	0.16262	0.17527	0.11743	0.27422	0.11511	0.2838	0.13616	0.091041	0.094793	-3.825	-3.7917	-3.5042	-4.3229	-3.3917	-3.8604	-4.3063	-3.5438	-4.175	-3.7458	-3.4688	-4.2292	-3.6542	-3.8958	-4.1167	-3.1604	176.875	18.712	-18.652	203.556	-78.813	180.750	176.291	113.787	33.311	-62.369	155.822	34.320	-90.126	126.600	15.697	175.879	0.00012908	0.00045857	8.4724e-05	1087.4	2.329e-06	5.327e-06	1176.9	221.39	3.1014e-06	2.41e-06	283.84	79.058	61.752	17.854	2.5518e-06	25.096	0.0005479	0.00076034	0.00021572	1080.9	8.2449e-06	8.1957e-06	1175.3	223.61	8.2354e-06	8.1771e-06	287.07	81.13	63.147	18.537	7.7613e-06	26.07	-130.883	-80.154	-20.321	-138.495	-38.625	21.420	-138.453	-131.297	-13.213	2.029	-131.250	-124.923	-124.817	-117.279	37.216	-117.822	-8191	255	
861.864	1	1	0	0	0.18302	0.10302	0.20334	0.13427	0.084209	0.080838	0.14074	0.31335	0.10729	0.23394	0.17202	0.091095	0.20474	0.13131	0.13967	0.079017	-3.5208	-3.7562	-3.525	-4.2958	-3.4688	-3.6458	-4.2354	-3.475	-3.9625	-3.7	-3.4938	-4.2771	-3.5458	-3.7562	-4.0333	-3.4667	5.685	20.393	135.923	206.400	70.156	-105.221	132.072	102.924	147.698	-73.761	78.322	148.863	-133.115	-140.258	9.987	-53.460	0.00018178	0.00034566	7.1184e-05	1083.8	2.5567e-06	3.7072e-06	1178.7	223.38	2.9511e-06	1.9172e-06	285.82	79.275	62.091	18.236	3.6601e-06	25.257	0.00055048	0.00075405	0.00021129	1080.8	8.0373e-06	7.8878e-06	1177.3	223.81	7.6198e-06	8.1944e-06	286.66	81.094	63.288	18.59	7.7503e-06	26.023	-134.317	-100.873	-74.096	-138.827	-19.821	26.688	-138.673	-131.294	-25.154	-47.362	-131.517	-125.231	-124.318	-117.308	2.912	-117.446	-8191	255	
861.961	1	1	0	0	0.32726	0.13613	0.082857	0.086899	0.23502	0.1059	0.091288	0.031048	0.030748	0.21649	0.15953	0.021224	0.076007	0.12516	0.10114	0.11707	-3.6667	-3.8625	-3.55	-4.2229	-3.6146	-3.7687	-4.2771	-3.4854	-3.8708	-3.9583	-3.4646	-4.2438	-3.8667	-3.5604	-4.1417	-3.5458	6.997	-129.908	-77.774	145.608	166.426	71.581	57.196	37.510	24.186	-47.468	-100.589	154.493	176.259	-142.993	-64.799	-3.743	0.00014328	0.00022737	6.555e-05	1093.9	6.4836e-07	2.9142e-07	1184.6	223.22	4.1183e-06	1.1227e-06	284.2	79.362	62.346	18.12	3.5495e-06	25.186	0.00052944	0.00071552	0.00020656	1082	7.9282e-06	7.957e-06	1178.7	223.79	7.9436e-06	8.0314e-06	286.36	80.893	63.297	18.606	8.0233e-06	25.986	-129.358	-48.013	-25.645	-138.196	-71.133	-34.316	-138.329	-131.228	-40.622	-34.324	-131.287	-125.054	-124.745	-117.159	21.572	-117.550	-8191	255	
862.081	1	1	0	0	0.15449	0.14698	0.034101	0.34145	0.16262	0.22736	0.26598	0.35397	0.19696	0.20209	0.27889	0.16975	0.35196	0.096191	0.13544	0.10891	-3.2833	-3.9583	-3.4104	-4.325	-3.7208	-3.6312	-4.4375	-3.5396	-3.8417	-4.0958	-3.4354	-4.1771	-3.8792	-3.6146	-4.1062	-3.5229	30.732	-29.455	89.770	122.801	159.736	-89.605	194.391	-135.205	63.194	-44.746	198.665	-50.155	-59.578	56.764	100.004	-75.640	0.00013879	0.00051833	8.3298e-05	1090.9	2.4983e-06	5.7023e-06	1185.9	223.25	2.7384e-06	2.7185e-06	286.76	78.856	62.477	18.25	3.723e-06	25.515	0.00053528	0.00073711	0.00021118	1081.9	7.6784e-06	8.3649e-06	1178.6	223.6	7.9886e-06	8.2391e-06	287.02	81.169	63.37	18.626	7.9025e-06	26.07	-139.991	-59.053	-12.203	-138.063	-36.309	2.783	-138.269	-131.112	-23.529	-3.964	-131.647	-124.656	-124.537	-117.518	4.580	-117.923	-8191	255	
862.176	1	1	0	0	0.22149	0.078455	0.23757	0.18529	0.14282	0.17702	0.16782	0.088266	0.14785	0.22756	0.049702	0.31528	0.12311	0.010035	0.11824	0.20227	-3.5042	-4.0938	-3.3729	-4.2729	-3.8563	-3.3458	-4.3792	-3.5708	-3.6958	-4.275	-3.4688	-4.0479	-4.0333	-3.4688	-4.0167	-3.7062	112.625	157.282	-0.349	152.576	177.598	58.695	163.303	138.748	201.432	-104.176	96.145	-116.719	76.699	207.773	129.254	85.937	0.00015094	0.0003164	8.7294e-05	1097.7	2.0151e-06	1.6745e-06	1183.2	221.92	1.1116e-06	1.6836e-06	285.47	80.053	62.394	18.099	2.7025e-06	25.462	0.00055287	0.00071692	0.00021257	1084.1	8.1278e-06	8.4909e-06	1176.3	223.51	8.2962e-06	8.2251e-06	286.43	81.216	63.327	18.555	7.7468e-06	26.118	-127.372	-55.388	-63.526	-138.384	26.761	-7.871	-138.041	-131.058	5.248	-72.065	-131.013	-124.590	-124.540	-116.788	-33.361	-117.377	-8191	255	
862.272	1	1	0	0	0.068556	0.13275	0.040604	0.15808	0.29686	0.054961	0.0063834	0.40089	0.039716	0.074836	0.13292	0.14423	0.28852	0.097319	0.33765	0.095219	-3.2687	-4.1396	-3.4917	-4.0188	-3.7833	-3.3312	-4.2604	-3.4896	-3.4521	-4.2312	-3.3063	-3.9062	-3.975	-3.4021	-4.1271	-3.7417	-142.216	-105.627	130.315	202.599	-47.088	163.330	-142.139	150.972	106.873	-145.848	122.173	125.370	127.927	85.389	171.154	180.468	0.00016062	0.00037624	9.1007e-05	1089.8	1.6559e-06	9.6907e-07	1182.2	223.04	1.2489e-06	4.3431e-06	283.85	79.384	62.393	18.205	2.0718e-06	25.098	0.00053987	0.00073723	0.00020436	1080.4	7.8177e-06	8.2728e-06	1177.1	223.82	8.0201e-06	7.9571e-06	285.82	81.138	63.296	18.57	7.8041e-06	25.974	-139.482	-65.254	-58.151	-138.303	-101.152	21.309	-138.190	-131.115	-70.579	22.805	-131.208	-124.772	-124.829	-116.802	-32.668	-117.664	-8191	255	
862.368	1	1	0	0	0.2113	0.20893	0.28012	0.23746	0.17813	0.12973	0.11437	0.37312	0.2161	0.26545	0.17436	0.11245	0.27893	0.11401	0.070625	0.16641	-3.0229	-4.0813	-3.5396	-3.8875	-3.9042	-3.5187	-4.1604	-3.8125	-3.3542	-3.9625	-3.4938	-3.7417	-4.0188	-3.5208	-3.8729	-3.8396	-96.872	-11.730	-56.882	199.652	80.268	95.619	189.887	142.370	130.850	9.514	198.244	123.786	139.212	-14.658	-77.374	-4.704	0.0001735	0.00035904	0.0001596	1090.2	5.3318e-07	4.7081e-06	1182.4	222.77	2.2119e-06	2.7746e-06	283.02	79.194	61.921	18.218	4.2522e-06	25.202	0.00054894	0.00071373	0.00020466	1078.5	7.5591e-06	8.0724e-06	1176.1	223.43	7.7234e-06	7.8628e-06	285.21	80.966	63.083	18.524	7.5231e-06	25.985	-135.106	-71.221	-74.043	-138.365	-36.356	21.949	-138.353	-131.098	-32.763	42.431	-131.344	-124.769	-124.351	-116.649	-10.108	-117.060	-8191	255	
862.464	1	1	0	0	0.27217	0.043026	0.0354	0.21212	0.049515	0.098649	0.29553	0.36194	0.17987	0.11337	0.19969	0.043117	0.25361	0.17881	0.14617	0.23241	-2.9771	-3.9604	-3.55	-3.8688	-4.2188	-3.3125	-4.1333	-3.9792	-3.3438	-4.2188	-3.4104	-3.6729	-4.2271	-3.3146	-3.9542	-3.9313	-141.137	62.468	-76.106	152.613	115.806	205.349	145.093	-101.004	49.798	181.844	136.435	156.932	192.279	86.948	-65.088	165.561	0.00016443	8.1642e-05	7.7919e-05	1087.9	1.4604e-06	2.2857e-06	1180.1	222.06	1.3782e-06	1.3044e-06	285.22	79.542	61.825	18.012	1.5991e-06	25.238	0.00053003	0.00070607	0.0002013	1077.7	7.7289e-06	7.9783e-06	1173.6	222.78	7.5085e-06	7.6811e-06	285.59	81.001	62.961	18.432	7.5478e-06	25.86	-128.617	-100.110	-59.910	-138.052	50.577	-79.807	-138.123	-131.388	-44.427	-127.004	-130.988	-124.955	-124.889	-117.008	4.331	-117.243	-8191	255	
862.560	1	1	0	0	0.10905	0.27988	0.089954	0.22376	0.16731	0.057516	0.28996	0.12981	0.088481	0.16933	0.12781	0.19495	0.3281	0.091359	0.094095	0.16113	-2.9354	-4.1583	-3.5292	-3.5458	-4.0667	-3.4958	-4.15	-4.0833	-3.2354	-4.0333	-3.7417	-3.6125	-4.1292	-3.6188	-3.6604	-4.1104	87.916	-80.647	48.400	174.530	-44.195	148.275	152.826	189.282	190.919	-8.676	-144.406	-4.086	-128.598	132.673	-4.912	105.652	0.00016204	0.00041122	8.4266e-05	1085.8	2.1383e-06	2.7696e-06	1175.3	221.78	1.3865e-06	4.8701e-06	283.2	79.486	62.104	18.023	3.3134e-06	25.119	0.00052891	0.0006965	0.00019656	1074.6	7.64e-06	7.7199e-06	1170.5	222.47	7.6996e-06	7.7164e-06	284.01	80.755	62.933	18.415	7.5927e-06	25.911	-138.560	-95.965	21.868	-138.392	42.253	-11.012	-137.850	-131.322	24.733	9.767	-131.097	-125.037	-124.658	-117.064	30.718	-117.599	-8191	255	
862.681	1	1	0	0	0.1403	0.23981	0.18602	0.022597	0.11094	0.094106	0.29349	0.14116	0.18208	0.096088	0.12592	0.14696	0.18558	0.44353	0.23366	0.10467	-2.9938	-4.1062	-3.7313	-3.7	-4.375	-3.4	-4.0208	-4.0813	-3.2417	-4.0104	-3.9646	-3.4688	-4.2021	-3.5708	-3.6854	-4.1979	52.878	204.519	183.395	-54.820	18.291	-52.433	120.605	-109.011	17.211	159.118	-95.886	-38.754	-119.299	-141.670	-48.566	-132.849	0.00016518	0.00037637	5.8672e-05	1085.9	1.7787e-06	1.5346e-06	1173.5	221.07	2.9507e-06	3.0173e-06	282.72	79.055	62.192	18.065	1.14e-06	25.376	0.00052045	0.00070163	0.00020013	1075.7	7.4435e-06	7.8117e-06	1171.2	222.43	7.5332e-06	7.8121e-06	283.85	80.778	63.007	18.404	7.5775e-06	25.929	-128.316	-43.973	-96.274	-138.305	1.606	16.921	-138.110	-130.998	-45.604	-50.069	-130.889	-124.807	-124.369	-116.967	43.698	-116.633	-8191	255	
862.777	1	1	0	0	0.12704	0.058756	0.26302	0.24138	0.062673	0.19744	0.19916	0.17452	0.14966	0.1691	0.18657	0.2606	0.20766	0.036405	0.13628	0.16877	-3.0687	-4.0938	-3.9833	-3.3187	-4.1521	-3.6167	-3.8125	-4.1	-3.4042	-3.9604	-4.0188	-3.4208	-4.1958	-3.6208	-3.5979	-4.2937	-102.961	77.545	-147.849	166.586	-126.067	122.414	144.514	142.477	29.192	-101.838	-126.988	85.309	148.327	79.069	87.531	164.889	0.00016506	0.00039033	4.6946e-05	1084.2	2.0657e-06	4.8622e-06	1177.7	223.03	2.2611e-06	5.891e-06	282.39	79.229	61.974	17.993	2.2434e-06	25.315	0.00052436	0.00070207	0.00019614	1073.7	7.6969e-06	7.7509e-06	1169.8	222.69	7.688e-06	7.8428e-06	283.88	80.731	62.92	18.434	7.9183e-06	25.961	-126.104	-112.748	-5.481	-138.182	13.637	25.790	-138.193	-131.236	-16.049	-3.842	-131.505	-124.845	-124.578	-116.714	-41.886	-117.659	-8191	255	
862.873	1	1	0	0	0.1299	0.21559	0.011155	0.16274	0.12906	0.073941	0.22616	0.25475	0.095155	0.18828	0.046608	0.16299	0.061155	0.092368	0.070265	0.1096	-2.9958	-3.9146	-3.9375	-3.3396	-4.0792	-3.5938	-3.6771	-4.275	-3.5271	-3.675	-4.0437	-3.4062	-4.2833	-3.8833	-3.5062	-4.3292	171.186	166.080	0.461	-82.055	-121.193	152.412	173.480	171.198	201.227	-23.171	173.840	-10.127	149.810	60.494	102.324	69.606	0.00017016	0.00025429	6.411e-05	1076.3	2.1062e-06	2.8053e-06	1171.6	222.9	3.7589e-06	1.3577e-06	282.75	79.004	61.75	18.128	2.7395e-06	25.188	0.00052324	0.00073422	0.00019828	1072.8	7.8974e-06	8.2416e-06	1170.1	222.99	7.9742e-06	8.1847e-06	284.32	80.686	62.881	18.464	7.8648e-06	25.819	-133.273	95.737	-80.783	-138.585	-24.380	34.364	-138.598	-131.368	12.024	-13.486	-131.474	-125.148	-124.383	-117.109	22.243	-117.700	-8191	255	
862.969	1	1	0	0	0.13734	0.10669	0.25758	0.19376	0.15846	0.16272	0.3087	0.10831	0.10737	0.21012	0.24497	0.078351	0.1431	0.11446	0.13048	0.25077	-3.175	-3.8438	-4.0458	-3.4833	-3.9833	-3.7375	-3.3271	-4.4354	-3.6688	-3.5938	-4.2562	-3.4813	-4.0083	-3.8542	-3.4562	-4.2771	-131.552	-106.354	-80.815	150.698	200.959	-87.692	167.854	136.863	89.466	96.952	182.608	-136.463	-137.841	151.250	141.683	-111.120	0.00017005	0.00028008	5.5919e-05	1080.3	1.3585e-06	3.9841e-06	1170.4	222.11	1.725e-06	4.26e-06	282.4	78.9	61.874	18.022	1.6785e-06	25.222	0.0005384	0.00072912	0.00020353	1071.8	7.8347e-06	8.0424e-06	1169.7	222.61	7.7069e-06	8.0431e-06	284.12	80.598	62.978	18.473	7.618e-06	25.9	-141.749	-71.526	-65.189	-138.392	-45.970	23.787	-138.018	-130.945	-36.399	35.440	-131.105	-125.109	-124.314	-117.128	32.879	-117.691	-8191	255	
863.041	1	1	0	0	0.13183	0.11349	0.14936	0.24102	0.22889	0.12541	0.28446	0.013779	0.35349	0.12198	0.22051	0.10204	0.1753	0.12589	0.093727	0.040895	-3.1167	-3.5833	-4.0458	-3.5729	-3.9292	-3.8583	-3.3917	-4.1792	-3.6104	-3.5271	-4.2021	-3.4083	-3.7333	-3.9792	-3.5417	-4.0917	-47.716	56.853	179.501	196.171	-121.291	91.466	152.814	-64.864	-119.939	7.640	-96.606	-89.721	165.060	-116.164	-112.631	183.064	0.0001715	0.00053528	0.0001364	1086.4	9.4382e-07	2.3992e-06	1170.9	221.87	3.4405e-06	5.0094e-06	281.74	78.92	61.636	17.98	1.6293e-06	25.001	0.00053595	0.0007191	0.00020035	1073.3	7.6003e-06	7.9816e-06	1168.5	222.68	7.5363e-06	8.1021e-06	284.17	80.604	62.963	18.404	7.6373e-06	25.857	-136.146	-60.687	-89.053	-139.053	40.869	-55.887	-138.666	-131.131	-24.258	-25.938	-131.554	-125.368	-124.302	-117.381	-10.709	-117.658	-8191	255	
863.160	1	1	0	0	0.022334	0.044805	0.1562	0.19216	0.15614	0.12476	0.18989	0.15281	0.11902	0.15106	0.11572	0.16235	0.19569	0.26954	0.32759	0.20957	-3.2604	-3.4688	-4.0208	-3.4854	-3.7125	-4.1208	-3.3271	-4.1667	-3.8229	-3.4167	-4.2167	-3.5604	-3.5833	-3.9437	-3.3854	-4.0062	-103.312	-7.537	-26.528	-107.783	12.739	66.449	-141.383	156.517	-60.582	174.904	152.482	146.923	-119.140	205.101	154.505	47.515	0.00015315	0.00032424	0.00010377	1072.4	2.201e-06	2.4308e-06	1165.7	220.11	2.703e-06	1.8268e-06	280.35	77.755	61.079	17.924	2.9065e-06	24.846	0.00052013	0.00069772	0.00019468	1070.8	7.6996e-06	7.7668e-06	1167.1	222.06	7.51e-06	7.7561e-06	283.92	80.421	62.783	18.422	7.6107e-06	25.776	-134.893	-66.696	-49.709	-139.266	-29.172	13.623	-138.725	-131.658	-16.776	11.398	-131.809	-125.500	-124.981	-117.500	20.650	-118.114	-8191	255	
863.256	1	1	0	0	0.23781	0.16996	0.12203	0.26612	0.24081	0.1497	0.22196	0.051145	0.25265	0.076315	0.14107	0.082652	0.10553	0.18559	0.27053	0.057394	-3.4479	-3.3063	-4.3021	-3.7062	-3.5479	-4.1125	-3.55	-4.0292	-3.8	-3.2896	-4.2917	-3.5771	-3.7771	-4.1146	-3.3229	-3.7979	-25.506	41.495	189.240	185.814	-139.675	56.445	108.329	27.659	60.316	-98.999	-134.393	38.659	-1.200	148.797	106.557	-75.356	0.00016992	0.00027621	8.4528e-05	1071.4	6.8823e-07	3.4622e-06	1166.7	220.22	1.7586e-06	3.2031e-06	282.47	78.961	61.561	18.001	4.7133e-06	25.345	0.00053841	0.00071639	0.00019568	1069.3	7.616e-06	7.8609e-06	1168.5	222.1	7.4106e-06	8.1134e-06	284.44	80.672	62.901	18.408	7.8677e-06	25.963	-126.190	-16.874	-90.518	-139.305	-25.064	-28.831	-139.046	-131.499	-68.205	-22.127	-131.479	-125.571	-125.039	-117.369	-41.829	-117.401	-8191	255	
863.354	1	1	0	0	0.040338	0.28966	0.23808	0.15389	0.12951	0.081451	0.10387	0.27054	0.23636	0.22249	0.086564	0.10257	0.29893	0.14249	0.14574	0.12875	-3.4792	-3.3917	-4.2208	-3.6	-3.3896	-4.1333	-3.6646	-3.8146	-3.9062	-3.3208	-4.1667	-3.6937	-3.4104	-4.0771	-3.3146	-3.7729	4.172	174.470	9.073	156.977	-57.573	-135.988	-122.263	102.142	-2.834	83.880	-45.759	48.908	149.509	71.477	-107.016	117.101	0.00017241	0.00026853	8.3345e-05	1079.9	4.4497e-07	8.7381e-07	1172.7	221.52	2.825e-06	3.5111e-06	283.48	78.891	62.104	18.083	1.2759e-06	25.011	0.00052149	0.00070192	0.00019734	1072.4	7.7818e-06	7.5288e-06	1169.4	222.63	7.6271e-06	8.0464e-06	284.96	80.546	62.938	18.413	7.6503e-06	25.788	-135.866	-59.120	-70.125	-138.785	22.886	9.505	-138.506	-131.268	-40.929	-15.915	-131.676	-125.424	-124.440	-117.012	-6.660	-117.688	-8191	255	
863.473	1	1	0	0	0.1358	0.18884	0.22094	0.22802	0.20475	0.19667	0.32108	0.15038	0.11893	0.1341	0.22315	0.12528	0.15748	0.072293	0.23606	0.14746	-3.6896	-3.2979	-3.9771	-4.0542	-3.3625	-4.0437	-3.5208	-3.7042	-4.0458	-3.2021	-3.9417	-3.7313	-3.3958	-4.0938	-3.4396	-3.6104	7.830	-24.547	-84.837	144.731	35.369	-60.516	55.198	158.653	153.629	152.660	9.735	116.770	-146.259	-53.768	-30.565	161.506	0.00013524	0.00036306	8.4143e-05	1089.4	2.3279e-06	4.3308e-06	1170.8	221.13	2.7347e-06	1.9864e-06	282.35	79.158	61.968	17.97	4.0838e-06	25.367	0.00050484	0.00068705	0.00018894	1074.9	7.5336e-06	7.5032e-06	1166.6	222.09	7.414e-06	7.9764e-06	283.74	80.551	62.884	18.398	7.3082e-06	25.929	-125.216	-24.154	-134.787	-139.103	-80.449	14.976	-139.097	-131.585	-84.232	53.277	-132.035	-125.606	-124.887	-117.485	17.360	-117.962	-8191	255	
863.569	1	1	0	0	0.13223	0.12063	0.13638	0.2757	0.17517	0.075208	0.061574	0.3129	0.23551	0.14834	0.30181	0.12966	0.10645	0.12987	0.31745	0.18057	-3.8854	-3.2875	-3.8771	-4.0208	-3.0208	-4.0021	-3.8021	-3.6104	-4.1562	-3.3417	-3.7979	-4.0854	-3.3688	-4.1062	-3.4667	-3.4104	-0.879	-115.075	-23.422	137.035	202.965	-88.529	91.556	171.859	71.023	180.826	113.192	-113.269	-116.691	-103.658	-13.543	199.093	0.00014741	0.00024709	8.3425e-05	1079.9	2.9862e-06	2.3367e-06	1173.8	223.47	1.9237e-06	4.6023e-06	283.58	78.736	61.811	18.005	2.6471e-06	25.084	0.00051472	0.00072852	0.00019119	1071.9	7.588e-06	7.6814e-06	1168.2	222.89	7.3161e-06	7.9977e-06	284.47	80.603	62.845	18.418	7.4601e-06	25.841	-135.357	-61.403	-22.482	-138.972	-69.282	-29.534	-139.016	-131.737	-1.924	9.815	-131.933	-125.343	-125.064	-117.880	-40.534	-117.863	-8191	255	
863.641	1	1	0	0	0.06973	0.058878	0.10635	0.16878	0.24757	0.32529	0.11455	0.095285	0.13189	0.29712	0.13682	0.068636	0.10328	0.14562	0.036363	0.15201	-3.7021	-3.4479	-3.6396	-4.0958	-3.3542	-4.2083	-3.8	-3.3396	-4.0854	-3.4146	-3.9104	-4.1104	-3.5687	-4.1	-3.7979	-3.5792	123.513	-37.510	100.167	193.235	43.373	128.439	-120.481	109.979	100.985	-91.623	188.818	-15.687	-55.375	12.980	177.620	200.946	0.00015505	0.00031951	0.0001153	1083	2.4612e-06	1.6416e-06	1176.1	222.64	2.2837e-06	2.8627e-06	283.57	79.049	61.638	18.067	3.2736e-06	25.252	0.00052165	0.00072417	0.00020362	1073.3	7.6246e-06	8.0983e-06	1168.5	222.55	7.3185e-06	7.8894e-06	284.15	80.608	62.839	18.417	7.4335e-06	25.871	-123.819	-64.282	-36.921	-138.912	-43.692	50.965	-139.098	-131.178	-18.161	-22.610	-131.500	-125.350	-124.730	-117.447	7.770	-117.501	-8191	255	
863.761	1	1	0	0	0.08867	0.05918	0.15822	0.33438	0.23104	0.14459	0.15909	0.11381	0.065601	0.29422	0.22677	0.18922	0.17631	0.27396	0.15302	0.080049	-3.7792	-3.5375	-3.6979	-4.2646	-3.2562	-3.9583	-4.1375	-3.3708	-4.2604	-3.4	-3.6875	-4.2063	-3.3688	-3.8896	-3.7479	-3.2354	41.640	-88.379	136.935	108.894	109.326	51.338	-147.506	74.146	-122.742	-9.667	157.576	69.537	-141.513	-111.068	140.325	-140.837	0.00016765	0.00013501	7.2303e-05	1078.4	2.5312e-06	4.1792e-06	1174.3	221.36	1.2017e-06	3.6856e-06	284.5	79.578	61.829	18.04	5.377e-07	25.066	0.00051448	0.00070813	0.00020065	1070.7	7.703e-06	8.0182e-06	1168.3	222.31	7.3699e-06	7.9867e-06	284.7	80.606	62.895	18.439	7.6341e-06	25.859	-120.072	-108.134	-10.269	-138.981	-46.918	52.951	-138.679	-131.295	-53.795	-3.846	-131.982	-125.619	-124.966	-117.090	-96.422	-117.732	-8191	255	
863.857	1	1	0	0	0.11669	0.07788	0.059669	0.14488	0.25176	0.1573	0.18239	0.18325	0.11374	0.24119	0.23492	0.061784	0.27706	0.11196	0.21735	0.048957	-3.6792	-3.5438	-3.5187	-4.2271	-3.2854	-3.8812	-4.0333	-3.3083	-3.7854	-3.65	-3.4708	-4.1521	-3.475	-3.8521	-4.0042	-3.4417	-123.181	87.868	-67.506	175.610	19.382	128.355	89.241	-140.738	2.970	-146.888	-118.854	47.393	177.799	205.315	-73.680	0.520	0.0001488	0.00024685	8.364e-05	1084.7	1.2289e-06	5.9073e-06	1172.7	221.28	2.1337e-06	1.4052e-06	282.36	79.03	61.463	17.867	7.595e-07	25.315	0.00052305	0.00072605	0.00020148	1074.3	7.9669e-06	7.8755e-06	1168	222.28	7.7332e-06	8.0654e-06	284.2	80.662	62.686	18.402	7.923e-06	25.904	-125.555	-79.295	-25.480	-138.663	-88.278	2.062	-138.697	-131.267	-30.612	-1.876	-131.472	-125.000	-124.564	-116.773	93.729	-117.965	-8191	255	
863.954	1	1	0	0	0.14793	0.009239	0.1689	0.34089	0.1937	0.17509	0.11099	0.049365	0.11198	0.14133	0.087244	0.05074	0.17849	0.08432	0.26351	0.069859	-3.5792	-3.6396	-3.4396	-4.2375	-3.4062	-3.8063	-4.2333	-3.3271	-3.9708	-3.8542	-3.2938	-4.1125	-3.3771	-3.6646	-4.1354	-3.3896	-128.210	162.737	-119.920	189.249	8.587	-7.491	147.025	-52.181	-92.823	-126.922	203.051	-60.114	140.517	16.832	85.609	-26.434	0.00018109	0.00032166	9.4261e-05	1079.4	3.2313e-06	3.7532e-06	1172.1	220.63	8.0496e-07	1.7619e-06	282.68	79.197	61.797	17.893	2.4618e-06	25.03	0.00052498	0.00074439	0.00020587	1071.1	7.7971e-06	8.0637e-06	1166.1	221.84	7.739e-06	8.0717e-06	284.28	80.481	62.626	18.401	7.8775e-06	25.823	-133.329	-94.744	-69.534	-138.687	-48.410	41.507	-138.749	-131.603	-26.974	-66.643	-131.696	-125.119	-124.969	-117.212	31.993	-118.341	-8191	255	
864.074	1	1	0	0	0.044881	0.0040475	0.091983	0.12639	0.35546	0.23498	0.049812	0.27188	0.23965	0.042466	0.16557	0.080289	0.24368	0.035873	0.043642	0.15257	-3.6625	-3.7583	-3.2958	-4.2729	-3.4708	-3.4958	-4.2479	-3.3875	-3.8229	-3.8708	-3.3438	-4.1583	-3.6646	-3.6083	-4.1229	-3.3604	-68.184	-102.431	151.013	176.604	65.355	17.752	159.827	180.558	-67.851	-106.591	192.922	179.366	-101.551	-25.279	-9.496	62.728	0.0001397	0.00029358	0.00011407	1079	1.6804e-06	3.4222e-06	1154.2	218.19	3.8276e-06	1.2472e-06	280.9	78.201	61.372	17.732	3.1149e-06	24.854	0.00053978	0.00072244	0.00020526	1070.8	7.7888e-06	8.0278e-06	1163.1	221.34	7.7819e-06	7.8604e-06	283.77	80.28	62.716	18.382	7.9585e-06	25.752	-122.023	-69.226	-77.103	-138.830	23.336	17.298	-138.949	-131.820	-25.838	71.032	-131.689	-125.417	-125.179	-117.664	-16.610	-118.365	-8191	255	
864.169	1	1	0	0	0.039443	0.093468	0.075318	0.24835	0.058641	0.12627	0.28419	0.14934	0.10735	0.20381	0.20627	0.11229	0.080031	0.23845	0.1686	0.29667	-3.4688	-3.7938	-3.3792	-4.1979	-3.6021	-3.4625	-4.125	-3.4542	-3.775	-4.0667	-3.4104	-4.0646	-3.7479	-3.5271	-3.9938	-3.4188	-125.481	26.064	-74.447	162.379	-20.966	199.940	112.237	-81.553	-3.014	-25.588	-133.872	124.214	115.825	124.083	199.047	185.785	0.00015228	0.00013621	6.0763e-05	1067.2	3.455e-06	5.3807e-06	1152.3	218.17	7.8182e-07	4.0116e-06	279.02	78.205	61	17.81	8.974e-07	24.921	0.00054092	0.00072387	0.00020526	1068.5	7.8663e-06	7.9872e-06	1161.5	221.31	7.6858e-06	7.8011e-06	283.15	80.424	62.699	18.32	7.7075e-06	25.774	-135.699	-38.834	-55.372	-139.145	-16.581	12.288	-138.852	-132.003	-39.925	24.528	-131.731	-125.499	-124.913	-117.576	-100.372	-118.158	-8191	255	
864.240	1	1	0	0	0.2307	0.075263	0.25762	0.11902	0.12733	0.088758	0.20741	0.091546	0.15397	0.035288	0.28801	0.15725	0.13961	0.068142	0.16418	0.25087	-3.2229	-4.0312	-3.2292	-4.05	-3.5729	-3.3312	-4.2417	-3.6	-3.5146	-3.8375	-3.3417	-4.0583	-3.8438	-3.3063	-4.0687	-3.6312	-5.014	159.962	33.049	143.663	110.124	-85.975	121.152	113.649	126.056	105.346	168.652	-27.110	132.944	-37.528	-102.981	127.231	0.00018189	0.00061643	0.00011087	1071.4	4.6488e-06	3.2016e-06	1157.1	218.79	3.3773e-06	3.6872e-06	279.85	77.801	61.361	17.831	1.9803e-06	25.081	0.00053189	0.00071522	0.00019861	1068	7.5526e-06	7.7329e-06	1162.5	221.35	7.6396e-06	7.7914e-06	282.86	80.109	62.528	18.281	7.555e-06	25.755	-133.941	-58.409	-63.802	-139.238	-0.213	-41.394	-139.126	-132.279	-16.848	-9.258	-132.117	-125.676	-125.580	-117.964	-15.112	-118.492	-8191	255	
864.361	1	1	0	0	0.22376	0.19678	0.37711	0.162	0.19727	0.20069	0.19274	0.23514	0.39078	0.10447	0.079646	0.24856	0.076005	0.15021	0.12292	0.38181	-3.2146	-4.0938	-3.2062	-3.9833	-3.9729	-3.3875	-4.2542	-3.7646	-3.45	-4.1479	-3.5917	-3.8438	-3.8458	-3.3563	-4.1375	-3.75	-57.421	-142.704	103.652	-120.803	181.894	121.133	-135.603	176.689	3.069	17.508	173.613	-91.569	196.711	-75.976	-88.703	-90.410	0.00014948	0.00037868	0.00013727	1068.1	2.5078e-06	1.802e-06	1154.7	219.27	2.1045e-06	7.3677e-07	278.25	77.642	60.654	17.785	4.2979e-06	24.655	0.00052844	0.00069226	0.00020203	1068.2	7.5317e-06	7.8489e-06	1162	221.56	7.3555e-06	7.7721e-06	282.74	80.23	62.512	18.315	7.3927e-06	25.685	-131.604	-61.211	-37.523	-139.335	22.199	-25.046	-139.516	-132.078	15.846	24.651	-132.342	-126.061	-125.515	-117.878	31.858	-118.389	-8191	255	
864.457	1	1	0	0	0.17187	0.10022	0.099446	0.28479	0.1947	0.15236	0.020802	0.041792	0.36987	0.074962	0.099118	0.13823	0.22017	0.20136	0.26267	0.24339	-3.2104	-4.05	-3.2396	-3.9062	-4.1146	-3.3083	-4.175	-3.9083	-3.4875	-4.1271	-3.5187	-3.7625	-4.1479	-3.2646	-3.9813	-3.8271	205.183	-98.455	-24.401	209.611	146.292	161.858	-122.782	-9.720	-82.381	-62.742	27.513	175.091	172.559	8.632	-72.350	47.534	0.00014336	0.00011031	8.87e-05	1066.5	4.3649e-06	1.5986e-06	1154.7	218.82	1.8221e-06	4.5832e-06	279.09	78.213	60.873	17.674	3.8224e-06	24.85	0.00052775	0.00067762	0.00019494	1067.5	7.3278e-06	7.6551e-06	1162.1	221.35	7.4837e-06	7.5664e-06	283.02	80.373	62.63	18.275	7.312e-06	25.745	-132.986	-56.858	-40.642	-139.479	-21.335	-7.962	-139.593	-132.126	-72.850	2.494	-132.543	-125.999	-125.297	-118.003	-14.648	-118.340	-8191	255	
864.553	1	1	0	0	0.14841	0.1114	0.045861	0.085283	0.18029	0.12616	0.31401	0.12814	0.12303	0.024352	0.2616	0.087519	0.020729	0.048135	0.093425	0.2468	-3.1208	-4.0458	-3.4042	-3.7354	-4.0729	-3.4667	-4.0792	-3.9646	-3.2479	-4.0292	-3.4437	-3.4917	-4.0521	-3.3646	-3.8292	-3.8958	-22.095	87.156	127.598	125.489	-142.924	-131.990	76.910	-148.972	170.043	134.500	18.628	61.854	23.351	17.690	45.320	86.244	0.00012785	0.00037606	9.9514e-05	1062.9	2.7878e-06	2.7934e-06	1160.6	219.1	1.7589e-06	2.1454e-06	279.74	78.623	61.001	17.756	1.1372e-06	25.034	0.00051391	0.00067968	0.00019561	1066.9	7.4462e-06	7.7791e-06	1163.7	221.02	7.4026e-06	7.4714e-06	282.47	80.365	62.65	18.308	7.4171e-06	25.738	-137.052	-77.288	-25.766	-139.450	9.782	6.008	-139.130	-132.019	-15.283	29.640	-132.559	-125.835	-125.370	-118.163	35.445	-119.008	-8191	255	
864.649	1	1	0	0	0.28011	0.19142	0.025674	0.18178	0.17447	0.14195	0.15781	0.2212	0.15985	0.28787	0.32216	0.25206	0.18065	0.17692	0.2304	0.12662	-2.8958	-4.1708	-3.6312	-3.7687	-4.025	-3.4854	-4.0646	-4.0938	-3.4354	-4.2	-3.9646	-3.4542	-4.1083	-3.3479	-3.7542	-4.2375	160.660	94.744	2.417	157.745	73.461	170.830	179.128	98.147	18.861	107.415	-96.682	148.666	64.119	-28.374	4.169	-38.669	0.00014914	0.00021639	6.713e-05	1070.3	2.7403e-07	3.6787e-06	1163.8	219.24	1.7566e-06	2.2593e-06	280.05	78.794	61.328	17.88	2.4774e-06	25.318	0.00051956	0.00069724	0.00019128	1068.1	7.2697e-06	7.7688e-06	1164.8	221.16	7.6641e-06	7.7364e-06	282.91	80.319	62.719	18.329	7.4753e-06	25.858	-128.825	-61.528	-6.684	-139.316	-99.985	21.203	-139.451	-132.165	-8.436	16.761	-132.332	-125.705	-125.345	-117.638	24.080	-118.419	-8191	255	
864.745	1	1	0	0	0.15451	0.029211	0.30836	0.21243	0.067211	0.083703	0.25723	0.14255	0.20209	0.21349	0.078596	0.062308	0.15258	0.28264	0.14645	0.29531	-3.1167	-4.1583	-3.7583	-3.5521	-4.0938	-3.4042	-3.8708	-4.2833	-3.4562	-4.0229	-4.0104	-3.4854	-4.0771	-3.4792	-3.7042	-4.1833	119.809	-144.818	-38.008	-105.222	195.412	47.157	97.855	49.572	175.650	137.924	148.717	-17.376	-27.149	113.056	102.606	83.731	0.00012022	0.00030889	0.00014183	1080.8	2.0816e-06	5.4275e-06	1168.8	219.31	2.0963e-06	3.3988e-06	279.98	78.074	61.14	17.905	4.1358e-06	24.941	0.00051114	0.00069781	0.00019562	1069.7	7.2389e-06	7.836e-06	1164.2	221.09	7.487e-06	7.8158e-06	283.25	80.323	62.678	18.352	7.7351e-06	25.747	-130.193	-84.311	-36.540	-139.207	30.300	13.104	-139.228	-132.041	-38.902	-11.192	-132.620	-125.461	-125.464	-118.331	7.053	-118.892	-8191	255	
864.866	1	1	0	0	0.093225	0.1506	0.093738	0.36543	0.080958	0.23163	0.10857	0.079443	0.17132	0.12695	0.095923	0.18076	0.22666	0.37834	0.074281	0.069795	-2.8875	-3.9521	-3.9375	-3.4896	-4.1542	-3.4333	-3.7271	-4.2271	-3.3833	-3.75	-4.1	-3.4229	-4.0833	-3.7854	-3.4688	-4.1917	84.810	51.538	156.718	207.470	-111.634	92.709	174.575	-123.085	45.821	209.455	-48.329	164.713	-130.554	-122.432	125.193	135.666	0.00015278	0.00052985	7.4456e-05	1071.6	2.4807e-06	3.961e-06	1161	219.9	9.7364e-07	2.3772e-06	281.21	78.435	61.492	17.783	2.7724e-06	24.88	0.0005184	0.00069179	0.00019499	1066.9	7.2946e-06	7.5228e-06	1163.9	221.11	7.4011e-06	7.6071e-06	283.26	80.276	62.677	18.289	7.3528e-06	25.735	-141.088	-56.662	-69.410	-139.271	-34.278	-8.805	-139.177	-132.075	-0.278	-42.583	-132.226	-125.779	-125.488	-117.915	74.232	-118.409	-8191	255	
864.938	1	1	0	0	0.25704	0.067741	0.11381	0.15679	0.14775	0.20385	0.035187	0.21223	0.081238	0.068782	0.13586	0.14456	0.2307	0.10818	0.17857	0.049407	-2.8875	-3.8042	-3.9833	-3.5917	-4.2167	-3.5687	-3.6146	-4.0417	-3.3333	-3.6479	-4.0708	-3.2438	-4.1771	-3.875	-3.4062	-4.1687	84.790	-14.940	181.448	-42.848	82.455	197.150	190.254	-132.745	101.847	-120.374	96.477	-87.237	14.021	-79.525	-45.790	52.288	0.00016221	0.00034861	0.00014241	1081.8	1.9536e-06	4.1292e-06	1164.4	220.54	4.2108e-06	1.922e-06	280.69	78.113	61.098	17.815	5.2846e-06	24.964	0.00051485	0.00068296	0.00019278	1071.1	7.4355e-06	7.5753e-06	1165.5	221.52	7.6247e-06	7.8301e-06	283.03	80.359	62.593	18.301	7.5528e-06	25.764	-130.286	-78.433	-57.365	-139.223	77.452	9.317	-139.014	-131.975	-34.431	-75.097	-132.032	-126.139	-125.172	-117.604	-21.415	-118.001	-8191	255	
865.034	1	1	0	0	0.27884	0.11758	0.16295	0.081181	0.12544	0.17732	0.20978	0.069822	0.077988	0.19943	0.23653	0.34909	0.20911	0.16596	0.22419	0.093573	-3.1375	-3.6917	-4.0896	-3.3792	-3.8083	-3.8396	-3.5208	-4.2625	-3.6375	-3.6937	-4.0687	-3.4062	-4.0021	-3.8396	-3.4313	-4.025	114.370	-121.539	-110.953	203.833	-63.552	79.886	156.449	-111.678	108.222	132.158	101.924	155.199	-129.251	-49.990	205.750	189.772	0.00017165	0.00067299	0.00012564	1077.7	2.7359e-06	3.1867e-06	1165.8	220.13	2.7922e-06	9.3137e-07	281.02	78.529	61.358	17.717	9.6479e-07	25	0.00052235	0.00067756	0.00018739	1070.3	7.4727e-06	7.5873e-06	1165.9	221.53	7.2757e-06	7.6624e-06	283.44	80.39	62.701	18.296	7.5304e-06	25.733	-140.332	-70.771	-70.017	-139.219	-26.660	22.859	-139.005	-131.758	-21.271	35.000	-131.872	-125.341	-125.173	-117.876	-118.204	-118.186	-8191	255	
865.155	1	1	0	0	0.2107	0.060357	0.11015	0.13065	0.11101	0.27959	0.12147	0.080314	0.14406	0.17783	0.1754	0.11514	0.045846	0.13263	0.16926	0.041717	-3.2208	-3.4667	-3.8417	-3.525	-3.9229	-3.9271	-3.7208	-4.1396	-3.5333	-3.5604	-4.2646	-3.5062	-3.6625	-4.0729	-3.4708	-4.1104	-5.575	-94.454	0.152	183.396	-47.589	-74.629	161.294	-135.752	123.381	54.634	171.816	-122.643	-132.248	72.802	166.692	-49.483	0.0001378	0.00030572	8.1981e-05	1073.2	1.9037e-06	3.2655e-06	1159.5	219.49	1.6333e-06	3.323e-06	279.48	77.914	61.669	17.814	2.729e-06	24.8	0.00050871	0.00068022	0.00018727	1069.5	7.5293e-06	7.6591e-06	1163.8	221.53	7.3195e-06	7.8988e-06	283.31	80.118	62.878	18.312	7.5383e-06	25.728	-133.637	-40.159	-59.894	-139.217	-71.294	17.224	-139.147	-131.850	-90.904	69.931	-132.273	-125.663	-124.774	-117.964	-73.766	-118.059	-8191	255	
865.249	1	1	0	0	0.27431	0.055475	0.16297	0.12051	0.23414	0.079686	0.15543	0.31513	0.27151	0.06248	0.13049	0.12713	0.16953	0.13783	0.038192	0.20582	-3.3458	-3.4917	-4.2167	-3.6312	-3.6729	-3.9854	-3.55	-4.1792	-3.7875	-3.3438	-4.1771	-3.6354	-3.6604	-4.0062	-3.3146	-4.0333	209.173	-86.664	-139.931	170.645	160.456	-14.086	115.883	151.490	187.252	-17.445	-17.959	202.837	78.998	163.702	-26.844	159.713	0.00016246	0.00037141	7.2904e-05	1067	2.859e-06	8.2795e-07	1159.2	219.68	2.309e-06	1.2691e-06	280.13	78.08	61.358	17.787	3.8527e-06	24.932	0.00049469	0.00068693	0.0001904	1067.5	7.4431e-06	7.2781e-06	1163	221.36	6.9308e-06	7.6781e-06	283.13	80.17	62.674	18.305	7.301e-06	25.686	-138.627	-91.658	-71.163	-139.359	70.826	4.494	-139.184	-131.792	-7.228	161.538	-131.715	-125.579	-124.929	-117.806	-16.595	-118.111	-8191	255	
865.345	1	1	0	0	0.11913	0.11368	0.21857	0.26798	0.04859	0.11181	0.17942	0.03924	0.062346	0.12348	0.1613	0.085862	0.19061	0.057629	0.13789	0.10112	-3.3875	-3.4354	-4.0792	-3.5792	-3.5542	-3.9708	-3.4917	-4.0646	-3.8583	-3.4167	-4.2312	-3.6833	-3.5458	-4.1625	-3.4729	-4.0292	-137.752	-62.945	116.336	198.036	113.830	-4.701	69.801	-68.346	18.880	-125.555	175.411	-6.684	146.968	46.146	158.767	-26.438	0.00018588	0.00032496	8.6948e-05	1065.3	2.6471e-06	2.8116e-06	1159.9	218.56	3.1387e-06	4.8532e-06	279.87	77.866	60.777	17.831	1.0029e-06	25.009	0.0005154	0.00070583	0.0001864	1066.6	7.361e-06	7.3845e-06	1163.4	221.35	6.9399e-06	7.8734e-06	282.41	80.226	62.469	18.248	7.4361e-06	25.721	-132.434	-105.085	-27.507	-139.252	-22.632	-10.585	-139.224	-131.637	-39.200	32.885	-131.774	-125.457	-125.349	-118.046	-43.818	-118.151	-8191	255	
865.441	1	1	0	0	0.050697	0.054428	0.21492	0.28072	0.13455	0.059027	0.061738	0.10545	0.14402	0.083687	0.12365	0.10826	0.096531	0.16033	0.11044	0.077912	-3.4646	-3.3542	-4.15	-3.8	-3.4813	-4.2	-3.5417	-3.9417	-4.0396	-3.2167	-3.9104	-3.8958	-3.4104	-4.0354	-3.5021	-3.8646	150.129	143.135	-22.665	162.637	-121.447	-27.024	126.858	197.234	-89.146	-27.858	-147.169	-56.140	139.272	-49.804	14.516	-77.227	0.00017274	0.00039208	6.4787e-05	1072.8	3.8012e-06	4.0742e-06	1156.9	219.23	1.8749e-06	1.6794e-06	279.9	77.811	60.978	17.847	7.5059e-07	24.912	0.00048853	0.00066256	0.00018944	1067.8	7.3223e-06	7.1125e-06	1161.9	221.19	6.9289e-06	7.4591e-06	282.69	80.21	62.585	18.325	7.0513e-06	25.63	-127.712	-45.968	-58.702	-139.036	-70.685	-3.719	-139.159	-131.616	-15.791	-27.264	-132.103	-125.522	-125.157	-118.018	-0.629	-117.821	-8191	255	
865.537	1	1	0	0	0.22438	0.13599	0.17389	0.30299	0.068228	0.21173	0.22733	0.25823	0.078783	0.16342	0.06121	0.21367	0.049218	0.13646	0.15487	0.11351	-3.7292	-3.2083	-3.9896	-3.9583	-3.5417	-4.1042	-3.6813	-3.7917	-4.0292	-3.3792	-4.0854	-3.8708	-3.4646	-4.1062	-3.4813	-3.6375	153.710	118.485	103.593	149.003	142.122	127.538	164.641	-136.256	199.893	158.395	-130.712	182.803	200.808	179.073	-40.498	64.598	0.00016087	0.00025138	5.8335e-05	1069.1	2.1939e-06	2.1228e-06	1150.7	219.11	2.1128e-06	1.348e-06	281.69	78	60.908	17.747	2.3148e-06	25.172	0.00049672	0.00067601	0.00018301	1066.2	7.334e-06	7.1158e-06	1160.4	221.29	6.7668e-06	7.4111e-06	283.36	80.137	62.437	18.287	7.05e-06	25.782	-133.738	-140.573	-56.472	-139.098	-37.580	-33.012	-139.168	-131.716	-53.975	1.306	-131.743	-125.641	-124.889	-117.370	12.616	-118.026	-8191	255	
865.634	1	1	0	0	0.17117	0.032518	0.24944	0.14371	0.29099	0.28592	0.14939	0.167	0.021887	0.13227	0.20037	0.14642	0.31731	0.37354	0.28468	0.086653	-3.8187	-3.4083	-3.9375	-4.0813	-3.4062	-4.1687	-3.7875	-3.7375	-4.1042	-3.2646	-3.9854	-3.9688	-3.3771	-4.2833	-3.7833	-3.5771	107.273	164.278	165.035	182.151	32.314	49.515	123.247	81.370	-1.692	-99.901	-59.035	13.885	164.917	-9.006	102.126	47.913	0.00014973	0.00025063	5.1542e-05	1082.7	2.3536e-06	3.7542e-06	1164.9	222.38	3.0199e-06	2.0229e-06	283.71	79.017	61.843	17.961	4.0513e-06	24.904	0.00049892	0.00069161	0.00018433	1069.8	7.1913e-06	7.2382e-06	1163.4	222.05	6.954e-06	7.4248e-06	283.97	80.439	62.752	18.32	7.2101e-06	25.73	-131.674	-1.964	-137.897	-138.901	-12.738	9.594	-138.698	-131.160	-20.635	-73.283	-131.620	-125.258	-124.405	-117.142	-29.428	-117.470	-8191	255	
865.754	1	1	0	0	0.12542	0.087499	0.17918	0.17889	0.1206	0.14208	0.25193	0.34277	0.20659	0.1938	0.13673	0.14865	0.15756	0.20319	0.18567	0.11355	-3.7417	-3.3479	-3.8875	-4.2708	-3.3208	-4.0292	-3.7958	-3.4375	-4.0979	-3.5125	-3.8667	-4.0854	-3.3875	-4.0479	-3.8792	-3.3708	86.541	116.676	70.505	151.656	-0.365	53.503	153.553	109.221	99.836	-51.995	192.819	-14.407	-80.003	-91.333	69.598	16.663	0.00018527	0.00021275	9.8765e-05	1075	3.6217e-06	6.4487e-06	1170	221.25	1.6883e-06	1.5049e-06	282.51	78.265	61.622	17.951	4.9204e-06	25.03	0.000489	0.00067786	0.000181	1067.1	7.1777e-06	7.318e-06	1163.9	221.93	6.9638e-06	7.3604e-06	283.19	80.023	62.751	18.338	6.994e-06	25.686	-138.345	-72.653	-70.928	-138.659	-33.982	-0.533	-138.311	-130.976	34.351	45.118	-131.200	-124.852	-124.597	-117.254	-20.031	-117.403	-8191	255	
865.850	1	1	0	0	0.062804	0.012003	0.25198	0.078423	0.2029	0.18933	0.20682	0.20601	0.14168	0.22923	0.094689	0.15119	0.23587	0.2266	0.17338	0.1524	-3.8146	-3.3812	-3.6146	-4.2083	-3.35	-3.8333	-4.0146	-3.475	-4.1417	-3.6146	-3.5875	-4.1542	-3.2417	-3.9646	-3.9167	-3.5167	-69.345	43.336	-40.797	134.946	-104.884	27.753	205.114	186.610	79.532	-88.027	169.205	-148.103	161.510	102.961	115.799	-32.444	0.00016499	0.00046045	5.0018e-05	1083.6	2.8285e-06	2.981e-06	1172.5	221.62	9.0038e-07	3.9611e-06	283.47	78.908	61.31	18.032	1.5878e-06	25.067	0.00049137	0.00066659	0.00019163	1068.7	7.1427e-06	7.323e-06	1165.2	221.83	7.0176e-06	7.3478e-06	283.68	80.108	62.38	18.341	7.0576e-06	25.746	-136.470	-49.107	-23.061	-138.610	-4.613	-14.497	-138.150	-130.881	-36.586	-8.729	-131.122	-125.031	-124.403	-116.740	-6.852	-117.513	-8191	255	
865.946	1	1	0	0	0.14052	0.22999	0.17398	0.16658	0.12842	0.091312	0.16597	0.068683	0.13602	0.13094	0.18703	0.088617	0.040599	0.15963	0.035821	0.073531	-3.7104	-3.5271	-3.5021	-4.3167	-3.4042	-3.925	-4.2271	-3.4729	-4.1021	-3.6937	-3.4688	-4.2979	-3.4104	-3.7479	-4.1396	-3.4396	73.428	-7.846	139.982	136.115	-57.319	156.399	133.349	26.964	128.245	-31.803	209.547	114.369	-62.831	96.305	11.535	114.350	0.00014007	0.00014833	0.00011911	1084.9	1.3033e-06	2.6696e-06	1168.3	221.57	3.1981e-06	3.416e-06	283.45	78.781	61.5	17.908	2.0483e-06	25.207	0.00049496	0.00065955	0.00018459	1070.1	7.3115e-06	7.2432e-06	1164.6	221.69	7.1048e-06	7.1744e-06	283.85	80.306	62.67	18.276	7.1364e-06	25.774	-135.707	-5.480	-64.106	-138.478	-80.070	18.117	-138.314	-131.168	-41.600	-10.273	-131.433	-125.455	-124.508	-117.359	3.255	-117.533	-8191	255	
866.043	1	1	0	0	0.14482	0.13263	0.081248	0.12117	0.04948	0.18021	0.20318	0.12587	0.14502	0.15644	0.10228	0.11294	0.20165	0.024381	0.080364	0.011085	-3.5771	-3.6875	-3.4125	-4.15	-3.5542	-3.6979	-4.225	-3.5833	-3.975	-3.7729	-3.3229	-4.0729	-3.5875	-3.8146	-4.1417	-3.3604	-25.618	171.837	10.913	48.055	25.984	-56.183	77.238	-90.192	-125.203	90.859	-144.027	48.156	-119.759	75.095	-109.373	-53.583	0.00016866	0.0002085	0.00010726	1087.3	1.4604e-06	2.3004e-07	1171.6	222.21	2.1477e-06	5.2247e-06	283.14	79.294	61.839	18.033	2.6348e-06	25.094	0.00048953	0.00065404	0.00018057	1071	7.0867e-06	7.2944e-06	1165.2	221.42	6.9237e-06	7.3424e-06	284.07	80.525	62.616	18.34	6.975e-06	25.651	-130.507	-102.282	-31.728	-138.480	-52.552	-81.448	-138.482	-131.320	-42.128	-28.399	-131.453	-125.357	-124.585	-116.909	49.176	-117.592	-8191	255	
866.162	1	1	0	0	0.11425	0.21194	0.1391	0.37914	0.032643	0.22748	0.21122	0.17196	0.15576	0.095943	0.11045	0.109	0.1935	0.031402	0.10841	0.25528	-3.6146	-3.8312	-3.3375	-4.1104	-3.6937	-3.5938	-4.2271	-3.4229	-3.925	-3.8958	-3.4521	-4.0458	-3.8375	-3.6333	-4.15	-3.3771	105.298	92.576	176.217	192.740	32.135	-6.899	124.066	87.041	-23.537	7.295	23.239	133.135	98.887	157.511	-42.513	187.116	0.00017249	0.00032928	2.3937e-05	1082.6	1.7461e-06	1.7685e-06	1171.8	221.29	1.8882e-06	2.1649e-06	282.76	78.713	61.507	17.967	1.9363e-06	25.199	0.00049463	0.00065696	0.00018496	1069	7.2146e-06	7.4709e-06	1163	221.3	6.8298e-06	7.2458e-06	283.53	80.285	62.54	18.315	6.9538e-06	25.769	-132.555	-72.134	-113.056	-138.994	-64.202	-48.806	-138.409	-131.665	15.692	2.719	-131.249	-125.197	-124.564	-117.240	3.247	-117.536	-8191	255	
866.233	1	1	0	0	0.066307	0.29031	0.19685	0.02754	0.044506	0.060585	0.099699	0.24051	0.25636	0.14597	0.21598	0.056455	0.10938	0.17214	0.13249	0.2931	-3.45	-4.1417	-3.25	-4.2729	-3.7125	-3.6167	-4.3375	-3.4896	-3.6479	-4.0375	-3.4896	-4.125	-3.9229	-3.5792	-4.1854	-3.6854	-125.471	128.400	-36.193	75.022	146.166	144.993	145.493	-128.221	30.874	141.863	146.069	57.364	-7.374	92.811	-30.953	-126.964	0.00014007	0.00031013	9.0714e-05	1079.7	1.7689e-06	1.7771e-06	1174.2	221.86	1.1846e-06	8.2725e-07	283.32	79.004	61.517	17.824	2.3218e-06	25.09	0.0004956	0.00065338	0.00018322	1067.7	6.9375e-06	7.2891e-06	1164.5	221.69	7.0225e-06	7.2518e-06	283.69	80.395	62.59	18.298	7.0409e-06	25.679	-140.644	-36.134	-63.491	-138.378	71.982	-28.365	-138.349	-130.961	-23.965	-82.472	-131.442	-125.106	-125.000	-116.832	-0.370	-117.801	-8191	255	
866.329	1	1	0	0	0.14149	0.087509	0.12024	0.23905	0.16306	0.15452	0.28167	0.19577	0.10895	0.06597	0.14433	0.18662	0.15361	0.18586	0.099389	0.20705	-3.35	-4.0646	-3.2167	-4.2771	-3.9042	-3.5229	-4.2438	-3.6458	-3.8063	-4.0563	-3.3542	-4.2333	-3.9188	-3.4042	-4.075	-3.4271	-65.352	46.959	139.692	176.452	61.082	36.963	156.364	113.571	52.637	-83.591	143.359	172.029	21.295	138.567	-114.275	145.711	0.00017447	0.00038781	0.00012542	1073.6	6.7251e-07	2.8325e-06	1156.2	218.33	3.0376e-06	1.4118e-06	281.55	78.116	61.156	17.931	1.746e-06	24.7	0.00049568	0.00064915	0.00018186	1067.6	7.0556e-06	7.5002e-06	1161	220.87	7.0103e-06	7.1611e-06	283.25	80.241	62.641	18.354	7.3535e-06	25.585	-132.005	-96.858	-64.027	-138.631	4.120	-9.769	-138.822	-131.478	-56.073	9.443	-131.885	-125.210	-125.011	-117.386	-34.631	-117.708	-8191	255	
866.425	1	1	0	0	0.13219	0.063987	0.27254	0.33684	0.14285	0.22763	0.2564	0.11366	0.21701	0.065045	0.24746	0.19307	0.20248	0.085093	0.04949	0.12285	-3.0812	-4.2167	-3.4062	-4.0875	-3.9	-3.3521	-4.2604	-3.7104	-3.4708	-3.9604	-3.4646	-3.9354	-4.0625	-3.3042	-4.2292	-3.65	-64.054	-60.668	11.949	32.602	-93.875	-141.611	175.315	120.197	209.053	4.317	-137.572	-92.423	-15.653	-15.925	108.853	-136.082	0.00014873	0.00020748	3.23e-05	1072.7	7.6022e-07	1.6969e-06	1157.5	219.14	3.3712e-06	3.1318e-06	281.72	78.387	61.312	17.884	1.5596e-06	24.98	0.0005038	0.00066886	0.00018659	1067.4	7.163e-06	7.6268e-06	1160.8	220.78	7.3451e-06	7.0274e-06	283.52	80.241	62.523	18.324	7.1719e-06	25.645	-135.817	-98.864	-85.663	-138.595	-89.816	-17.610	-138.605	-131.432	-26.528	35.020	-131.929	-125.288	-125.028	-117.133	-3.584	-117.829	-8191	255	
866.546	1	1	0	0	0.34187	0.17372	0.23076	0.23462	0.23093	0.0033494	0.24368	0.095372	0.2657	0.015605	0.043875	0.12912	0.21171	0.14468	0.18153	0.26038	-3.0292	-4.1146	-3.5646	-4.0083	-3.8979	-3.3708	-4.1875	-3.8583	-3.3	-4.1333	-3.5187	-3.7146	-4.0542	-3.3917	-3.9521	-3.8271	-25.518	-113.616	-90.503	169.438	153.438	9.382	187.850	91.536	184.872	-47.915	-88.945	1.996	159.431	185.198	105.381	125.212	0.00015253	0.00014638	9.2998e-05	1078.1	3.1985e-07	5.5613e-06	1163.7	219.67	2.7966e-06	2.4096e-06	279.35	78.219	61.065	17.761	1.7524e-06	24.846	0.00049372	0.0006758	0.00018474	1067.8	7.015e-06	7.2352e-06	1161.2	220.77	7.128e-06	7.1861e-06	282.04	80.202	62.395	18.286	7.0959e-06	25.71	-136.590	-104.735	-83.727	-138.607	128.755	13.381	-138.434	-131.268	1.431	-12.820	-131.626	-125.386	-124.967	-117.614	0.158	-118.005	-8191	255	
866.642	1	1	0	0	0.14387	0.089728	0.27454	0.26129	0.13965	0.21663	0.20774	0.27226	0.18491	0.18841	0.021936	0.13038	0.31723	0.12964	0.13866	0.23843	-3.1688	-4.1062	-3.4292	-3.8667	-4.2458	-3.3563	-4.0312	-4.0687	-3.2104	-4.2104	-3.6937	-3.5979	-4.0708	-3.4646	-3.9104	-3.9896	-47.758	-49.011	63.833	129.709	153.243	138.558	152.182	105.380	0.280	10.279	112.791	19.915	148.770	118.610	-103.057	121.194	0.00014945	0.00066578	7.8365e-05	1067.7	1.8965e-06	3.0567e-06	1156.6	219.05	1.8058e-06	3.7885e-06	278.69	77.732	60.904	17.694	2.4633e-06	24.947	0.00049985	0.00065287	0.00018044	1064.5	6.8634e-06	7.1557e-06	1159.5	220.91	7.076e-06	7.2884e-06	282.38	80.034	62.487	18.239	7.0583e-06	25.669	-130.581	-44.557	-95.632	-138.552	-13.688	-2.277	-138.842	-131.723	-46.439	-7.923	-131.640	-125.524	-124.810	-117.608	-1.274	-117.957	-8191	255	
866.738	1	1	0	0	0.12785	0.11944	0.34598	0.27358	0.10525	0.18623	0.11801	0.25683	0.30227	0.045265	0.076682	0.060193	0.20427	0.15427	0.10218	0.14778	-2.8521	-4.0479	-3.7458	-3.6542	-4.0062	-3.5229	-4.0542	-4.2146	-3.5312	-3.9938	-3.8833	-3.7104	-4.2271	-3.6312	-3.7583	-4.1854	-101.889	4.584	149.094	169.959	105.935	-122.145	121.049	63.963	141.288	161.569	-27.174	-73.566	104.298	201.736	89.447	95.907	0.00015799	0.00020453	5.1389e-05	1069	2.1771e-06	3.2319e-06	1158.2	219.29	2.6269e-06	2.9007e-06	279.57	78.46	60.927	17.749	1.0491e-06	24.879	0.00050744	0.00065192	0.00018096	1065.2	6.948e-06	7.1471e-06	1160.4	220.79	7.2081e-06	7.1444e-06	282.52	80.138	62.327	18.219	6.9883e-06	25.617	-124.186	21.208	-46.669	-138.654	-87.478	-19.781	-138.638	-131.531	-76.885	-14.247	-131.775	-125.048	-124.778	-117.719	-4.120	-117.932	-8191	255	
866.835	1	1	0	0	0.13973	0.045538	0.040142	0.19275	0.2696	0.075915	0.23264	0.13446	0.21259	0.17967	0.097479	0.16782	0.0109	0.26359	0.24783	0.11231	-2.9979	-4.0625	-3.825	-3.6312	-4.1333	-3.6271	-3.9375	-4.0062	-3.3146	-3.8958	-3.9083	-3.4958	-4.2083	-3.5146	-3.5708	-4.1562	-21.085	-40.785	171.857	84.504	-92.054	200.726	132.176	133.453	43.240	-114.012	-123.539	201.315	162.322	-19.431	106.786	174.273	0.00015438	0.00030829	5.5874e-05	1072.3	5.2445e-07	5.7206e-06	1156.5	219.45	1.9199e-06	2.592e-06	278.39	78.228	61.173	17.832	1.8699e-06	24.692	0.00049647	0.0006476	0.00017868	1066.9	6.9424e-06	7.1012e-06	1158.9	220.8	6.9574e-06	7.2894e-06	281.63	80.104	62.421	18.247	7.0842e-06	25.575	-139.705	-88.866	-78.711	-138.696	-29.284	9.626	-138.698	-131.646	-36.893	12.607	-131.702	-125.120	-124.878	-117.493	-60.756	-118.269	-8191	255	
866.931	1	1	0	0	0.26217	0.06295	0.16362	0.18306	0.23066	0.20781	0.20924	0.29878	0.047906	0.1654	0.19872	0.11202	0.032017	0.11017	0.12445	0.02168	-2.9646	-4.0271	-3.8312	-3.4062	-4.125	-3.6063	-3.5958	-4.2354	-3.4042	-3.9583	-3.9792	-3.3792	-4.1667	-3.7083	-3.7125	-4.2688	116.553	40.570	7.220	125.838	-19.483	-41.476	124.495	187.871	179.924	119.048	169.329	160.493	167.300	198.736	153.129	-30.937	0.00017718	0.00034288	9.1049e-05	1069	2.1996e-06	3.3803e-06	1159.3	218.97	9.5866e-07	3.4215e-06	279.04	77.935	61.259	17.835	3.3862e-06	24.83	0.00049604	0.00065812	0.00017898	1064.4	6.9135e-06	6.9499e-06	1159.5	220.67	6.832e-06	7.1728e-06	282.21	80.027	62.363	18.224	7.0507e-06	25.634	-133.090	-25.755	-26.465	-138.860	-3.539	-31.380	-138.608	-131.467	-30.358	-17.712	-131.601	-124.967	-124.913	-117.339	-41.167	-117.699	-8191	255	
867.027	1	1	0	0	0.042066	0.12621	0.091028	0.22723	0.20615	0.061192	0.32411	0.11832	0.18371	0.10489	0.2186	0.10473	0.29541	0.20917	0.1817	0.045087	-2.9917	-3.8042	-4.0333	-3.4417	-4.1729	-3.6104	-3.5854	-4.2708	-3.3896	-3.8312	-4.2958	-3.4854	-4.1292	-3.8167	-3.4583	-4.1833	-36.916	86.589	44.503	174.197	26.468	15.076	85.447	-110.654	-42.905	131.351	188.498	207.694	194.571	-20.295	-29.604	158.185	0.00015633	0.00020982	0.0001347	1068.3	2.4082e-06	2.4709e-06	1157.9	218.16	2.29e-06	2.8775e-06	280.32	77.783	60.8	17.574	4.0839e-06	24.97	0.00048889	0.00066796	0.000177	1064.6	6.9501e-06	7.051e-06	1158.1	220.06	7.0341e-06	7.1344e-06	282.46	79.845	62.304	18.173	6.9121e-06	25.609	-125.492	-31.077	-69.068	-138.734	34.426	23.507	-138.800	-131.564	-24.172	-60.610	-131.703	-125.735	-125.273	-117.870	-10.399	-117.712	-8191	255	
867.123	1	1	0	0	0.26772	0.041494	0.10751	0.36169	0.04496	0.041995	0.33487	0.04599	0.12556	0.068457	0.11069	0.076827	0.24291	0.078945	0.15628	0.13208	-3.1875	-3.5979	-3.8625	-3.4271	-3.7979	-3.9229	-3.4875	-4.1167	-3.4583	-3.525	-4.1896	-3.3896	-3.9896	-3.8292	-3.45	-4.2417	179.326	-137.537	104.412	188.892	204.774	73.187	120.789	-110.012	42.939	174.557	-88.901	-91.862	-83.693	173.879	-61.469	161.682	0.00017167	0.00027633	8.8343e-05	1072.2	7.3225e-07	2.4313e-06	1157.2	218.96	3.9332e-06	2.2155e-06	279.84	78.06	60.619	17.846	3.4517e-06	25.006	0.00048642	0.00063713	0.00017916	1061	7.008e-06	7.1318e-06	1156	220.45	6.7522e-06	6.9791e-06	282.15	79.841	62.242	18.247	6.7127e-06	25.635	-135.989	-53.426	-102.335	-138.975	-101.651	0.406	-138.679	-131.315	-13.574	28.556	-131.829	-125.477	-124.874	-117.448	2.584	-117.941	-8191	255	
867.242	1	1	0	0	0.047252	0.068923	0.072753	0.21529	0.081042	0.0046791	0.071972	0.21311	0.066052	0.20313	0.14397	0.10075	0.16884	0.15304	0.12798	0.015031	-3.0729	-3.5312	-4.4167	-3.3792	-3.8354	-4.0354	-3.6312	-4.2812	-3.6333	-3.5542	-4.225	-3.4708	-3.8333	-4.0417	-3.4104	-4.0354	46.169	203.381	43.600	200.156	114.583	46.453	-37.863	62.535	-72.076	188.144	23.609	68.893	158.671	112.108	29.273	-54.920	0.00015002	0.00038349	6.03e-05	1068.2	2.4907e-06	2.5494e-06	1157.5	218.9	2.8035e-06	3.7324e-06	279.22	78.48	61.654	17.868	1.8599e-06	24.903	0.00049211	0.00066394	0.00017675	1062.2	6.9372e-06	6.9672e-06	1157.5	220.73	6.9225e-06	6.8768e-06	281.61	80.102	62.559	18.201	7.0931e-06	25.648	-130.989	-50.892	-80.000	-139.141	-49.911	32.781	-138.720	-131.363	-34.183	1.277	-131.920	-125.242	-124.806	-117.525	-11.357	-117.681	-8191	255	
867.338	1	1	0	0	0.19548	0.28934	0.16025	0.20552	0.14286	0.041449	0.096736	0.17564	0.12109	0.16219	0.10254	0.23531	0.17883	0.2455	0.19637	0.13245	-3.2313	-3.3604	-4.1604	-3.5521	-3.7979	-4.0854	-3.4208	-4.0479	-3.4688	-3.3604	-4.1292	-3.5812	-3.7521	-4.0792	-3.3812	-4.1687	41.936	-106.385	-66.848	181.953	-143.138	-56.150	9.814	103.368	-99.175	-62.394	135.831	-12.420	-136.321	-126.016	-126.837	102.685	0.00013771	0.00031768	0.00012601	1063.4	1.2567e-06	4.8231e-07	1157.5	220.2	1.014e-06	3.9615e-06	282.07	78.749	60.54	17.858	2.577e-06	25.002	0.000481	0.0006391	0.00017204	1061.4	6.8923e-06	6.9037e-06	1157.7	221.09	6.984e-06	7.2651e-06	283.54	80.1	62.288	18.216	7.0554e-06	25.626	-124.760	-82.667	-108.767	-138.697	-104.358	-49.886	-138.847	-131.296	-2.723	4.955	-131.623	-125.873	-124.540	-117.728	59.124	-117.626	-8191	255	
867.434	1	1	0	0	0.14307	0.25337	0.20407	0.44284	0.10762	0.11294	0.1112	0.033285	0.12517	0.20118	0.085425	0.021488	0.24628	0.056169	0.12396	0.28976	-3.3708	-3.4542	-4.1229	-3.7479	-3.7833	-4.1708	-3.4208	-4.0146	-3.8667	-3.4104	-4.1292	-3.6042	-3.4229	-4.2104	-3.3979	-3.9292	-41.653	-130.623	45.196	178.019	-66.481	45.252	104.274	120.460	-72.776	-20.261	182.866	171.008	193.338	-25.662	-125.877	112.034	0.00014468	0.0003634	0.00010192	1066.7	2.8596e-06	4.5995e-06	1163.3	217.73	4.8772e-07	2.0898e-06	281.82	78.381	61.171	17.82	2.1609e-06	25.006	0.00049399	0.00064751	0.00017997	1061.1	7.1098e-06	7.0214e-06	1158.8	220.08	6.8176e-06	7.1581e-06	282.48	79.98	62.309	18.227	7.0554e-06	25.675	-129.370	-90.504	-90.854	-138.957	-56.896	-48.362	-138.774	-131.618	-57.054	36.685	-131.787	-125.921	-124.838	-117.516	-0.487	-117.811	-8191	255	
867.530	1	1	0	0	0.067384	0.12749	0.15185	0.28046	0.091924	0.16644	0.060434	0.14855	0.13189	0.29338	0.25667	0.10693	0.14107	0.093012	0.073165	0.17061	-3.5229	-3.1708	-4.1396	-3.7	-3.5417	-4.1438	-3.4875	-3.9562	-4.0958	-3.4	-4.0813	-3.6937	-3.4875	-4.1271	-3.425	-3.875	52.092	101.205	14.380	208.154	172.819	-20.768	-93.524	168.623	-121.609	-36.467	201.548	190.780	-87.925	25.265	10.135	-1.056	0.00013775	0.00037293	0.00010303	1070.3	1.9827e-06	6.5033e-06	1159.3	219.37	1.1777e-06	2.9812e-06	280.86	78.156	61.111	17.682	2.121e-06	25.071	0.0004887	0.00064482	0.00017983	1062.9	6.8794e-06	7.0001e-06	1158.1	220.43	6.6051e-06	7.1604e-06	282.68	79.955	62.454	18.207	6.6877e-06	25.614	-131.461	-68.838	-49.799	-139.057	-40.853	20.645	-139.097	-131.904	-15.372	45.976	-132.157	-125.642	-125.108	-117.674	6.915	-117.855	-8191	255	
867.627	1	1	0	0	0.14838	0.13532	0.08302	0.2103	0.35402	0.22284	0.37034	0.19946	0.17132	0.060094	0.20496	0.33158	0.05692	0.12991	0.18036	0.16433	-3.7208	-3.3208	-4.1729	-3.8479	-3.35	-4.1271	-3.6917	-3.6771	-4.1271	-3.3333	-4.0271	-3.8312	-3.2646	-4.2292	-3.4896	-3.5542	142.591	-46.076	113.584	139.218	94.592	-131.819	150.337	150.053	-45.285	-71.080	147.754	150.613	-148.680	31.261	-34.065	112.040	0.00016614	0.00037077	8.3015e-05	1070.5	2.0801e-06	3.4099e-06	1155.3	219.38	2.9826e-06	2.2513e-06	280.35	78.097	61.286	17.83	3.5552e-06	24.941	0.00047441	0.0006368	0.00017709	1063.1	6.9418e-06	7.0882e-06	1156.3	220.82	6.8702e-06	7.1614e-06	282.56	80.037	62.54	18.216	6.8115e-06	25.59	-131.209	-98.954	-77.131	-139.062	-48.737	50.209	-139.088	-131.609	-11.977	-27.821	-131.575	-125.232	-125.411	-117.839	-3.847	-117.466	-8191	255	
867.723	1	1	0	0	0.16144	0.12245	0.15363	0.16005	0.14087	0.12106	0.28237	0.37252	0.099417	0.1124	0.14659	0.2586	0.11364	0.058314	0.1261	0.14525	-3.7438	-3.2771	-3.9104	-3.9583	-3.2042	-4.1687	-3.7792	-3.5	-4.225	-3.4688	-3.7208	-4.0854	-3.4146	-4.1396	-3.8167	-3.6333	-45.228	-123.970	-86.808	164.513	8.740	41.841	108.405	171.598	88.969	74.563	-119.123	187.473	-92.066	-34.515	194.540	-10.871	0.00018647	0.00044086	4.9143e-05	1075.2	3.7116e-06	3.195e-06	1153.8	219.25	2.0467e-06	3.6701e-06	281.15	78.046	61.399	17.695	1.4265e-06	24.783	0.00048486	0.00064136	0.00017778	1065.5	7.0565e-06	7.323e-06	1157.1	220.6	7.0317e-06	7.2931e-06	282.55	79.725	62.5	18.251	6.9425e-06	25.627	-135.443	-75.734	-92.361	-139.087	5.186	-49.783	-139.158	-131.451	-13.770	56.759	-131.713	-125.467	-125.118	-117.807	9.040	-118.226	-8191	255	
867.843	1	1	0	0	0.29862	0.020489	0.12569	0.33428	0.15853	0.087148	0.15212	0.36866	0.19306	0.038831	0.23264	0.023066	0.1516	0.11396	0.15487	0.058753	-3.7333	-3.4271	-3.9542	-4.2021	-3.2708	-4.0312	-3.8771	-3.5187	-4.1438	-3.4354	-3.7521	-4.2312	-3.4896	-4.0771	-3.8396	-3.5333	82.538	-77.182	-59.744	125.471	114.465	-136.613	90.047	194.436	99.867	-33.431	79.585	99.906	-139.221	156.326	-149.022	166.848	0.00015893	0.00016236	0.00011998	1070.6	9.6507e-07	2.8543e-06	1157.1	220.15	1.6973e-06	3.8932e-06	280	78.09	61.132	17.826	3.2388e-06	24.881	0.00048016	0.00063823	0.00018413	1061.5	7.0864e-06	6.7302e-06	1157.4	220.92	6.9941e-06	7.1581e-06	282.25	80.042	62.481	18.24	6.994e-06	25.662	-134.052	-123.279	-49.769	-139.274	-22.828	4.595	-138.959	-131.751	16.358	6.388	-131.745	-125.374	-124.860	-117.534	-14.742	-118.128	-8191	255	
867.939	1	1	0	0	0.08451	0.20866	0.072769	0.046168	0.31448	0.021368	0.17813	0.17116	0.30478	0.12125	0.11641	0.27319	0.073946	0.13265	0.16293	0.14552	-3.6771	-3.6333	-3.6354	-4.3417	-3.2604	-3.9562	-4.2146	-3.5146	-4.1646	-3.4479	-3.5854	-4.2146	-3.3958	-4.0417	-3.9417	-3.4958	-125.535	-129.704	-5.319	-129.905	12.446	24.214	165.049	160.562	-39.907	-50.869	69.084	124.065	186.499	-85.717	-136.800	33.738	0.00016264	0.00029783	7.4631e-05	1067.4	5.0393e-07	4.7196e-06	1155.9	218.86	2.8235e-06	5.2515e-06	279.83	77.971	60.921	17.805	1.3801e-06	24.796	0.00049097	0.00065747	0.00018381	1062.3	7.0387e-06	7.2741e-06	1157.3	220.19	7.0087e-06	7.0868e-06	282.3	79.892	62.276	18.219	7.0703e-06	25.618	-139.932	-50.378	-11.008	-138.880	-10.264	23.856	-138.850	-131.609	3.027	-2.259	-131.398	-125.265	-125.142	-117.202	-76.945	-117.603	-8191	255	
868.034	1	1	0	0	0.30747	0.050557	0.095094	0.16627	0.11299	0.23313	0.37055	0.23419	0.092588	0.17191	0.079544	0.23804	0.2613	0.17451	0.24206	0.1583	-3.7875	-3.5521	-3.4854	-4.2833	-3.3333	-3.9125	-4.1708	-3.4604	-4.0021	-3.7875	-3.7896	-4.1708	-3.4146	-3.8	-3.8979	-3.3104	133.461	22.816	73.878	101.930	39.065	100.661	152.948	39.623	141.938	164.827	-94.197	140.278	138.323	-6.824	36.249	76.894	0.00014689	0.00016018	4.7358e-05	1066.3	3.3009e-06	2.182e-06	1160.9	219.3	1.5417e-06	3.4284e-06	280.01	78.203	61.032	17.699	3.5073e-06	24.887	0.00047707	0.00062654	0.00017522	1061.6	6.9674e-06	7.3333e-06	1158.7	221.01	6.906e-06	7.1968e-06	281.88	80.01	62.278	18.168	6.8422e-06	25.531	-131.912	-14.797	-29.803	-138.859	-26.241	73.806	-138.686	-131.645	11.646	26.222	-131.838	-125.359	-124.864	-117.684	-32.381	-117.549	-8191	255	
868.107	1	1	0	0	0.16414	0.12914	0.094816	0.23198	0.37771	0.19091	0.091226	0.14198	0.25324	0.012321	0.12817	0.15356	0.15113	0.26323	0.12718	0.18904	-3.7271	-3.7708	-3.2	-4.1979	-3.4479	-3.7167	-4.3438	-3.3854	-3.8021	-3.8063	-3.3458	-4.1917	-3.4708	-3.725	-4.0708	-3.475	109.560	209.312	111.566	142.487	133.567	-66.638	22.710	134.300	196.381	112.589	154.144	165.386	-128.102	-73.902	157.492	179.433	0.00015451	0.00030164	8.232e-05	1070.4	1.2672e-06	4.2959e-06	1150.7	218.82	1.7596e-06	3.7804e-06	278.85	78.252	60.987	17.763	2.0725e-06	24.841	0.00048553	0.00063632	0.00017365	1063.5	6.9938e-06	6.9297e-06	1154.1	220.03	6.9776e-06	6.9921e-06	281.73	79.973	62.324	18.169	6.9111e-06	25.59	-124.919	-77.039	-93.168	-138.807	-124.311	19.732	-138.866	-131.592	-32.772	-20.681	-131.893	-125.284	-125.157	-117.202	-7.651	-118.164	-8191	255	
868.226	1	1	0	0	0.21175	0.20417	0.06321	0.12011	0.08688	0.115	0.21937	0.17538	0.1706	0.021558	0.010968	0.075765	0.2328	0.15922	0.05045	0.1024	-3.6292	-3.7687	-3.4521	-4.3396	-3.4813	-3.4729	-4.2312	-3.2938	-3.9229	-3.9958	-3.4333	-4.2479	-3.6875	-3.4875	-4.1375	-3.5333	-113.205	6.136	121.609	150.730	-51.919	18.540	190.056	-118.390	-34.449	-18.115	83.615	136.595	106.863	142.744	207.102	-43.495	0.00015954	0.00032002	1.5884e-05	1066.1	2.5548e-06	2.3838e-06	1153.8	217.94	1.0496e-06	2.605e-06	280.11	77.83	61.136	17.839	3.7071e-06	24.934	0.00049351	0.00063677	0.00017696	1059.9	6.7373e-06	7.0507e-06	1153.2	220.17	6.8583e-06	7.0184e-06	282.45	79.741	62.111	18.222	6.7583e-06	25.573	-134.460	-32.539	-20.665	-138.723	5.070	55.958	-139.024	-131.749	16.867	121.307	-131.667	-125.595	-124.702	-117.072	60.664	-117.819	-8191	255	
868.322	1	1	0	0	0.070573	0.059153	0.14584	0.25758	0.11423	0.22516	0.15631	0.15008	0.1899	0.07813	0.12414	0.044029	0.14395	0.13822	0.33058	0.17593	-3.4375	-4.0021	-3.4292	-4.0958	-3.5667	-3.5958	-4.2917	-3.5229	-3.7687	-3.9792	-3.4104	-4.3063	-3.8146	-3.5208	-4.2521	-3.6792	41.976	10.768	-130.197	130.384	109.949	-134.027	121.325	-91.286	-90.442	134.226	-4.351	-89.411	90.018	139.303	-16.418	59.969	0.00016584	0.0002745	6.9654e-05	1067.6	2.1709e-06	5.6609e-06	1149.5	219.3	2.537e-06	8.5168e-07	278.4	78.066	61.133	17.843	2.449e-06	24.928	0.00048375	0.00064086	0.00017375	1059.8	6.8431e-06	6.9782e-06	1153.1	220.42	6.85e-06	6.7841e-06	281.41	79.836	62.395	18.228	6.8811e-06	25.596	-133.886	-56.679	-56.514	-139.293	-25.832	18.683	-138.842	-131.336	1.136	20.361	-132.124	-125.218	-125.111	-117.314	-6.474	-117.942	-8191	255	
868.418	1	1	0	0	0.20021	0.036813	0.14596	0.092916	0.18374	0.13586	0.19136	0.074681	0.11443	0.082468	0.11844	0.23822	0.33669	0.080288	0.1091	0.13965	-3.4354	-4.0563	-3.4354	-3.95	-3.7313	-3.6312	-4.2604	-3.8042	-3.5458	-4.0229	-3.4979	-4.0167	-3.9979	-3.425	-4.1875	-3.4458	133.235	20.528	-39.827	146.017	73.648	56.373	168.568	167.651	-126.957	64.804	-7.500	143.360	181.467	-62.123	210.116	35.365	0.00014052	0.00031683	0.00011766	1065	2.2695e-06	2.6238e-06	1155.9	218.55	8.1066e-07	2.9067e-06	278.21	78.484	60.594	17.749	2.4292e-06	24.92	0.00048532	0.00063281	0.00017302	1060.6	6.8892e-06	7.0979e-06	1155.1	220.22	6.7127e-06	6.9228e-06	281.25	79.876	62.039	18.167	7.0029e-06	25.676	-140.339	-54.670	-46.278	-138.728	-20.667	-50.117	-138.982	-131.342	1.640	-0.604	-131.735	-125.432	-124.710	-116.669	-22.124	-117.802	-8191	255	
868.515	1	1	0	0	0.12667	0.20043	0.28646	0.3545	0.10732	0.13221	0.038634	0.11613	0.42987	0.13878	0.19859	0.19055	0.10865	0.14811	0.23251	0.044951	-3.1542	-4.075	-3.4562	-4.0563	-3.9729	-3.3917	-4.4625	-3.625	-3.5083	-4.0792	-3.3438	-3.7271	-4.1979	-3.3958	-4.0687	-3.8438	175.751	59.397	82.393	196.179	87.546	75.299	170.701	182.390	72.273	-42.859	130.159	66.259	-75.996	23.098	-54.140	9.095	0.00012889	0.00022411	0.00010598	1069.8	2.1752e-06	2.3539e-06	1152.9	218.55	2.4759e-06	1.9548e-06	279.38	77.762	60.782	17.691	1.6225e-06	24.88	0.00048198	0.00062362	0.00017236	1059.6	6.5466e-06	6.8834e-06	1153.2	219.88	6.5653e-06	6.6605e-06	281.12	79.59	62.199	18.217	6.6735e-06	25.582	-135.588	-87.777	-59.605	-138.880	-36.835	-9.657	-138.760	-131.677	-36.371	-16.437	-132.144	-125.230	-124.875	-117.480	4.294	-118.132	-8191	255	
868.635	1	1	0	0	0.27342	0.13006	0.21973	0.14116	0.35016	0.15691	0.072818	0.19982	0.27404	0.071759	0.096317	0.26961	0.22797	0.14931	0.18992	0.17221	-3.1542	-4.0979	-3.5479	-3.9104	-4.0104	-3.3458	-4.2646	-3.6604	-3.4813	-4.1583	-3.3875	-3.65	-4.2292	-3.3937	-4.0958	-3.8729	-33.179	208.950	16.458	175.369	85.563	203.371	170.663	138.806	79.429	54.672	162.440	116.403	192.559	205.744	207.146	-79.379	0.00018129	0.00027306	0.00010603	1063.8	2.9111e-06	2.5244e-06	1157	217.95	2.0754e-06	2.3461e-06	278.59	78.549	60.942	17.62	1.3812e-06	24.721	0.00046529	0.00060898	0.00017325	1058.3	6.6616e-06	6.8529e-06	1154.4	219.55	6.5204e-06	6.7315e-06	280.85	80.006	62.177	18.118	6.5409e-06	25.454	-138.822	-78.133	-52.071	-138.840	36.672	-3.547	-138.778	-131.596	7.369	78.023	-131.977	-125.316	-124.751	-117.181	-68.167	-117.850	-8191	255	
868.707	1	1	0	0	0.17881	0.061654	0.027833	0.18245	0.083822	0.16815	0.12491	0.20779	0.099511	0.12702	0.11845	0.14439	0.088131	0.125	0.16456	0.11334	-3.1104	-4.175	-3.4979	-3.7792	-4.1104	-3.4146	-4.1604	-3.9188	-3.4688	-4.1312	-3.7875	-3.4313	-4.15	-3.1813	-3.9271	-3.9938	-80.215	-20.297	-106.419	46.586	-118.221	122.494	81.002	155.018	-19.957	-17.610	193.721	187.350	21.073	153.279	-34.839	100.254	0.00014731	0.00026342	0.00013202	1069.3	4.113e-06	4.025e-06	1150.6	218.55	1.1506e-06	4.4656e-06	279.84	77.91	60.808	17.625	1.8879e-06	24.563	0.00044837	0.00060212	0.00016471	1058.8	6.3169e-06	6.5453e-06	1150.8	219.46	6.3515e-06	6.4911e-06	280.92	79.645	62.132	18.105	6.483e-06	25.524	-120.195	-92.607	-40.119	-138.866	2.641	-7.072	-138.578	-131.494	-11.638	5.387	-131.612	-125.143	-124.840	-117.271	28.763	-117.369	-8191	255	
868.803	1	1	0	0	0.037507	0.11865	0.17553	0.097538	0.18958	0.19128	0.08396	0.26015	0.055054	0.13198	0.31476	0.12273	0.079114	0.35153	0.054369	0.17171	-3.0833	-3.9813	-3.5271	-3.4729	-4.0229	-3.3896	-3.8708	-3.9479	-3.3375	-4.0521	-3.7417	-3.6354	-4.2354	-3.3917	-3.6833	-4.0458	-32.912	-56.880	146.587	154.423	-137.715	74.664	190.963	149.297	154.219	-136.052	68.507	123.250	-85.925	177.959	82.533	210.182	0.00016112	0.00041222	8.3338e-05	1066.6	2.5051e-06	2.0187e-06	1158.1	218.46	2.1885e-06	3.6832e-06	277.94	78.038	61.006	17.695	2.4262e-06	24.99	0.00047396	0.0005851	0.00016876	1055.7	6.4654e-06	6.8047e-06	1152.6	219.49	6.5623e-06	6.5308e-06	280.71	79.55	62.04	18.072	6.6346e-06	25.554	-132.647	-97.403	-51.708	-138.262	-4.732	48.401	-138.389	-131.496	-16.958	-9.107	-131.423	-124.977	-124.288	-116.821	22.096	-117.394	-8191	255	
868.924	1	1	0	0	0.153	0.32342	0.22068	0.23416	0.095592	0.20683	0.10459	0.20678	0.075004	0.067386	0.25357	0.11507	0.19617	0.14691	0.25323	0.11935	-3.0625	-4.0521	-3.725	-3.3896	-4.0729	-3.5563	-3.7896	-4.1333	-3.3104	-3.9062	-4.0563	-3.5	-4.0563	-3.5396	-3.5542	-4.0687	53.726	-25.294	0.423	168.872	136.293	189.505	159.641	-140.425	159.139	163.299	164.584	154.634	-85.695	-34.067	-107.108	201.842	0.00015233	0.00032295	0.00012721	1065.3	1.5305e-06	5.1045e-06	1156.9	219.6	3.1688e-06	3.3879e-06	280.53	77.731	61.336	17.742	2.7867e-06	24.968	0.00045626	0.00059762	0.00016058	1057.2	6.4347e-06	6.7066e-06	1152.8	219.71	6.2888e-06	6.8288e-06	281.65	79.768	62.138	18.117	6.6352e-06	25.527	-125.272	-87.252	-29.990	-138.309	-57.166	32.267	-138.214	-130.873	-23.057	-52.102	-131.203	-124.591	-123.783	-116.607	11.551	-117.172	-8191	255	
869.020	1	1	0	0	0.25298	0.10992	0.17192	0.16589	0.037211	0.27823	0.17277	0.18067	0.22625	0.15471	0.17624	0.25314	0.045845	0.20137	0.14191	0.17169	-2.7729	-3.9417	-3.9125	-3.4771	-4.1292	-3.7208	-3.6854	-4.2333	-3.3812	-3.8792	-4.0521	-3.3688	-4.0792	-3.5333	-3.5312	-4.2375	25.786	-143.899	30.878	94.235	-18.535	174.033	95.069	103.536	105.175	22.189	-115.575	-126.445	205.228	-66.402	-20.979	-81.248	0.00014771	0.00059117	8.2688e-05	1066.9	2.1442e-06	3.9293e-06	1158.7	218.41	1.7393e-06	3.8948e-06	281.12	78.679	61.062	17.761	2.0411e-06	25.117	0.00045928	0.00060719	0.00016793	1055.6	6.5254e-06	6.5869e-06	1152.3	219.53	6.3956e-06	6.6155e-06	282.1	79.602	62.232	18.123	6.7039e-06	25.63	-134.456	-96.381	-74.233	-138.253	46.094	6.393	-137.886	-130.766	-28.830	29.158	-131.095	-124.812	-123.857	-117.181	-27.928	-117.755	-8191	255	
869.116	1	1	0	0	0.079417	0.19315	0.10808	0.097055	0.17277	0.11286	0.29194	0.19468	0.18309	0.17947	0.13594	0.034648	0.095956	0.13742	0.095447	0.14429	-2.9146	-3.825	-4.0875	-3.475	-4.0604	-3.6312	-3.5729	-4.1083	-3.4833	-3.8479	-4.0833	-3.4521	-3.9896	-3.7729	-3.4208	-4.2604	28.713	-78.307	-99.579	118.421	60.327	159.276	140.497	199.525	-126.790	-94.739	-46.993	-136.180	-107.728	-95.131	-44.037	172.612	0.00012911	0.00028188	8.4638e-05	1068.4	4.1856e-06	1.4978e-06	1155.4	219.25	5.2806e-07	2.9838e-06	280.34	78.059	61.354	17.715	3.6151e-06	24.968	0.00045319	0.0006119	0.00016392	1057.1	6.3461e-06	6.5885e-06	1151.7	219.95	6.6191e-06	6.5448e-06	281.24	79.659	62.093	18.089	6.5944e-06	25.591	-126.837	-84.986	-103.215	-138.427	-8.908	-10.584	-138.134	-130.990	46.496	43.907	-131.713	-124.976	-124.155	-116.906	-0.849	-117.143	-8191	255	
869.235	1	1	0	0	0.050238	0.23231	0.081391	0.24105	0.03466	0.12272	0.21964	0.033973	0.199	0.24918	0.085703	0.1536	0.17326	0.025144	0.11386	0.10936	-3.1771	-3.6729	-4.2771	-3.5125	-4.1625	-3.8854	-3.5938	-4.3229	-3.5042	-3.6333	-4.1104	-3.5792	-4.0542	-3.8146	-3.3396	-4.225	22.161	-24.227	150.104	-145.166	-117.829	-29.715	112.400	12.822	62.288	-103.587	-22.411	-38.577	44.632	-55.108	-79.260	-112.602	0.00014876	0.00040974	9.0818e-05	1069.9	1.4284e-06	2.8118e-06	1154.4	219.86	2.5899e-06	8.0592e-07	279.21	77.729	60.885	17.731	2.2855e-06	25.147	0.00044495	0.0006063	0.00016913	1056.7	6.6149e-06	6.5749e-06	1149.8	220.28	6.4252e-06	6.6451e-06	280.76	79.498	61.943	18.08	6.3501e-06	25.565	-126.510	-71.684	-41.136	-138.569	45.032	-11.286	-138.429	-131.096	-12.030	-21.559	-130.967	-125.085	-124.103	-117.298	-2.891	-117.347	-8191	255	
869.331	1	1	0	0	0.12799	0.18468	0.35192	0.15416	0.062041	0.16315	0.090933	0.16431	0.19096	0.054135	0.18561	0.10127	0.23882	0.21073	0.23029	0.18831	-3.1229	-3.5542	-4.1604	-3.6417	-3.7542	-3.9417	-3.5625	-4.2604	-3.6417	-3.3979	-4.3208	-3.4583	-3.8521	-3.9833	-3.2458	-3.9771	128.819	103.544	-113.576	-135.844	152.456	136.601	183.657	181.593	-4.324	157.320	181.747	-122.237	184.617	184.605	205.083	102.948	0.00014107	0.00057472	9.562e-05	1067.9	1.2472e-06	4.6901e-06	1155.7	219.22	7.9154e-07	3.6901e-06	280.78	78.108	61.51	17.712	2.3988e-06	24.915	0.00044359	0.00058748	0.00016101	1055	6.5657e-06	6.6065e-06	1152.1	219.8	6.1552e-06	6.5718e-06	280.82	79.575	62.11	18.096	6.3808e-06	25.519	-133.539	-52.882	-70.487	-138.556	-95.637	13.629	-138.399	-130.867	-22.501	-7.871	-130.882	-124.612	-123.867	-116.201	-21.369	-117.457	-8191	255	
869.403	1	1	0	0	0.22293	0.16905	0.13863	0.18948	0.27416	0.18035	0.22341	0.086369	0.072541	0.2125	0.21256	0.22704	0.089137	0.24806	0.032814	0.1305	-3.1375	-3.425	-4.15	-3.5896	-3.6708	-4.0604	-3.3688	-3.9917	-3.8167	-3.2833	-4.3521	-3.4208	-3.7083	-4.0854	-3.2667	-4.0854	132.906	112.779	63.236	150.211	-75.243	-132.300	175.984	205.694	91.157	-0.523	201.904	-117.285	-5.263	208.431	-31.746	113.136	0.00017154	0.00040026	0.00010225	1067.8	1.9836e-06	2.416e-06	1156.4	218.74	2.8702e-06	3.296e-06	281.07	78.208	61.323	17.816	2.7679e-06	25.067	0.0004566	0.00058665	0.00016344	1056	6.6008e-06	6.6796e-06	1150.5	219.15	6.5014e-06	6.5685e-06	281.3	79.664	62.179	18.137	6.2264e-06	25.552	-133.249	-47.831	-41.227	-138.248	8.794	-25.281	-138.670	-131.108	-11.849	-21.602	-131.297	-124.787	-124.212	-116.872	-6.522	-116.597	-8191	255	
869.523	1	1	0	0	0.17821	0.19624	0.18898	0.069244	0.21514	0.14965	0.26237	0.10041	0.14819	0.087627	0.14834	0.1635	0.12843	0.19095	0.28355	0.10421	-3.4167	-3.4417	-4.1417	-3.6479	-3.4562	-3.9729	-3.6042	-4.0687	-4.0646	-3.4083	-4.2458	-3.7021	-3.5271	-4.1354	-3.1875	-3.8458	195.673	45.963	-3.532	99.088	186.530	109.525	196.456	130.960	-9.892	-137.306	173.844	132.685	136.375	138.555	-1.517	72.763	0.00016702	0.00044379	8.9498e-05	1071.9	2.3536e-06	2.7743e-06	1160.5	219.78	2.0778e-06	3.521e-06	279.99	78.645	61.295	17.681	1.7178e-06	25.127	0.00045986	0.00058232	0.00016564	1058	6.3968e-06	6.6497e-06	1149.7	219.83	6.4311e-06	6.7445e-06	281	79.889	62.043	18.13	6.3833e-06	25.592	-124.675	-45.122	-74.444	-138.397	21.686	-23.411	-138.387	-130.718	-26.936	0.265	-131.410	-124.811	-124.277	-117.002	-6.700	-117.401	-8191	255	
869.619	1	1	0	0	0.052343	0.027555	0.17538	0.38636	0.22202	0.15667	0.10089	0.17491	0.089042	0.0077734	0.049371	0.1759	0.1252	0.10573	0.097631	0.21167	-3.4979	-3.3625	-4.1208	-3.8458	-3.4813	-4.1646	-3.4667	-3.8354	-3.8937	-3.3187	-4.1312	-3.7604	-3.3958	-4.1292	-3.5312	-3.7625	-21.119	24.302	192.761	157.791	179.417	-142.248	188.262	157.972	97.006	-49.845	193.874	151.024	45.166	196.314	-95.133	-11.698	0.00017382	7.5184e-05	5.4046e-05	1063.8	1.2018e-06	2.9522e-06	1154.6	220.56	1.2656e-06	7.3889e-07	280.97	78.326	61.21	17.79	7.4024e-07	24.941	0.0004698	0.00060099	0.00016426	1055.3	6.3442e-06	6.4925e-06	1150.4	220.03	6.161e-06	6.6445e-06	281.54	79.589	62.098	18.144	6.4204e-06	25.568	-145.119	-127.870	-89.143	-138.831	-40.878	-31.179	-138.571	-131.288	-34.686	-6.280	-131.603	-125.127	-124.610	-117.345	1.042	-117.105	-8191	255	
869.716	1	1	0	0	0.11951	0.1231	0.221	0.23792	0.045711	0.17509	0.3137	0.20272	0.36039	0.21004	0.12324	0.026228	0.19636	0.16199	0.2331	0.063964	-3.7521	-3.4	-3.9583	-3.8708	-3.3875	-4.1208	-3.6542	-3.7062	-4.0312	-3.2854	-4.0875	-4.0125	-3.3771	-4.25	-3.5125	-3.4896	-14.494	-15.832	42.946	190.325	177.148	100.987	116.047	-113.153	126.598	120.588	149.655	-134.077	-36.820	4.892	40.512	84.028	0.00014646	0.0004439	0.00010728	1068.9	2.152e-06	3.0371e-06	1158.1	219.61	1.4932e-06	3.5957e-06	279.84	78.486	61.716	17.705	3.4902e-06	25.013	0.00045324	0.00061068	0.00016225	1055.1	6.4731e-06	6.6115e-06	1151.3	219.79	6.3191e-06	6.4045e-06	280.91	79.642	62.44	18.163	6.5336e-06	25.503	-137.526	-62.019	-76.340	-138.574	-24.511	39.544	-138.782	-131.502	-41.423	23.145	-131.755	-125.112	-124.777	-117.432	12.194	-117.371	-8191	255	
869.812	1	1	0	0	0.22854	0.073982	0.078238	0.26221	0.019719	0.077259	0.24984	0.25917	0.14527	0.12121	0.39385	0.085313	0.065471	0.016046	0.12675	0.035969	-3.7167	-3.275	-3.8542	-3.9875	-3.2729	-4.1542	-3.8875	-3.5854	-4.1125	-3.4625	-3.9896	-4.0771	-3.3417	-4.125	-3.8917	-3.5521	157.998	104.998	38.532	149.793	-45.489	6.938	133.685	-117.110	204.495	206.189	162.705	97.231	166.949	-13.105	-28.537	-146.712	0.00014666	0.00021673	0.00010699	1071.3	2.7372e-06	3.4906e-06	1155.5	220.05	1.1714e-06	2.8836e-06	283.72	78.916	61.519	17.748	1.7937e-06	24.965	0.00045842	0.00059935	0.00016523	1056.5	6.4461e-06	6.3977e-06	1149.7	219.78	6.0595e-06	6.6905e-06	282.04	79.771	62.264	18.144	6.2283e-06	25.592	-127.604	-91.745	-73.840	-138.603	-6.264	-14.930	-138.679	-131.091	14.394	13.241	-131.399	-124.956	-124.956	-116.757	-7.553	-117.211	-8191	255	
869.932	1	1	0	0	0.077809	0.065573	0.081079	0.11097	0.14765	0.087568	0.24649	0.23636	0.081506	0.065156	0.14928	0.34118	0.088269	0.13082	0.22863	0.032064	-3.8937	-3.4667	-3.5479	-4.2167	-3.3104	-4.0312	-3.8187	-3.4792	-4.0437	-3.6792	-3.6958	-4.1708	-3.5146	-4.0062	-3.8479	-3.5104	183.225	110.096	124.445	193.084	48.596	-108.780	130.179	148.648	62.810	65.870	-40.724	156.405	79.159	-30.495	180.791	162.301	0.0001532	0.00037615	9.0549e-05	1070.4	6.1305e-07	3.3719e-06	1161.4	218.86	3.9607e-06	2.6795e-06	280.72	78.682	60.735	17.701	1.3234e-06	24.869	0.00044992	0.00058581	0.00016985	1056.9	6.458e-06	6.5344e-06	1151.6	219.74	6.1448e-06	6.5658e-06	280.83	79.827	61.972	18.119	6.4707e-06	25.503	-131.206	-52.877	-52.537	-138.645	57.381	29.032	-138.288	-131.128	-14.928	-37.729	-131.366	-124.793	-125.055	-117.214	-21.873	-117.718	-8191	255	
870.004	1	1	0	0	0.086507	0.25444	0.1156	0.17005	0.11564	0.05069	0.097057	0.12324	0.26603	0.11916	0.05489	0.046814	0.13239	0.062409	0.16528	0.27192	-3.8438	-3.3521	-3.6125	-4.1625	-3.2479	-4.1	-3.9938	-3.3792	-4.1396	-3.6333	-3.7188	-4.3	-3.5333	-3.7812	-3.8333	-3.4542	192.694	89.324	37.209	-102.387	150.460	90.271	184.712	116.333	22.208	113.598	117.615	-14.434	187.154	0.974	45.244	-94.835	0.00015201	0.00023651	0.0001114	1063.8	1.8498e-06	2.5757e-06	1155.5	219.96	2.4023e-06	4.1803e-06	280.89	77.911	61.317	17.923	3.2266e-06	24.863	0.00044514	0.00060048	0.00016846	1057.6	6.4322e-06	6.6979e-06	1149	219.64	6.2763e-06	6.6098e-06	280.9	79.679	62.084	18.154	6.3777e-06	25.556	-129.825	-69.951	-62.743	-138.627	-70.229	-27.726	-138.595	-131.203	-34.035	-47.479	-131.256	-125.251	-124.773	-116.621	-19.562	-118.043	-8191	255	
870.100	1	1	0	0	0.12999	0.018859	0.20536	0.158	0.20475	0.19117	0.30342	0.095462	0.078164	0.12541	0.14607	0.092282	0.19781	0.16992	0.2643	0.22418	-3.7708	-3.5042	-3.575	-4.1813	-3.3854	-3.7938	-4.1479	-3.4562	-4.1062	-3.6792	-3.7146	-4.2229	-3.5667	-3.8708	-4.0167	-3.4083	160.171	150.089	-131.358	164.316	72.334	118.344	118.132	-81.058	3.689	-39.287	114.605	101.532	-56.346	33.877	-82.393	-102.948	0.00015784	0.00013821	9.2601e-05	1066.4	3.038e-06	5.846e-06	1153.4	217.75	1.5548e-06	8.8723e-07	279.35	77.635	61.167	17.667	2.4771e-06	24.662	0.00045793	0.00057624	0.00016869	1055.9	6.2901e-06	6.3967e-06	1149.4	219.06	6.2647e-06	6.5038e-06	281.46	79.458	62.054	18.079	6.3378e-06	25.429	-137.998	-69.292	-2.686	-138.886	-32.088	17.648	-138.880	-131.517	13.626	5.646	-131.712	-125.489	-125.052	-117.580	10.438	-117.696	-8191	255	
870.196	1	1	0	0	0.077384	0.027714	0.16435	0.28482	0.082332	0.071346	0.19764	0.1143	0.12319	0.19445	0.22982	0.29183	0.1516	0.1832	0.14614	0.14276	-3.6229	-3.6896	-3.4104	-4.0333	-3.4667	-3.7667	-4.2229	-3.3688	-4.1375	-3.8104	-3.5229	-4.2667	-3.7125	-3.6188	-4.1542	-3.4583	37.094	-108.319	129.033	-129.367	208.286	86.997	203.115	176.813	-10.176	127.948	-109.917	59.277	182.102	162.449	-98.875	104.428	0.00014682	0.00024115	8.4461e-05	1057.8	1.8047e-06	2.3074e-06	1144.7	217.38	2.3742e-06	8.9882e-07	279.03	77.713	60.53	17.661	2.9755e-06	24.684	0.00044402	0.00058608	0.00016525	1053.3	6.4833e-06	6.5699e-06	1145.2	218.92	6.287e-06	6.4588e-06	280.91	79.369	61.911	18.081	6.347e-06	25.421	-126.027	-65.336	-85.776	-138.750	-43.743	57.030	-138.685	-131.311	30.142	-80.259	-131.415	-125.052	-124.706	-117.527	33.129	-117.154	-8191	255	
870.315	1	1	0	0	0.17525	0.12537	0.18301	0.14646	0.18023	0.14226	0.090117	0.12651	0.06427	0.11986	0.19581	0.25359	0.14898	0.037896	0.2186	0.23498	-3.6167	-3.8229	-3.475	-4.2125	-3.5979	-3.6458	-4.3458	-3.4313	-3.9729	-3.8917	-3.4875	-4.1312	-3.7667	-3.4542	-4.0792	-3.4875	66.462	6.887	24.124	57.103	9.794	204.237	101.382	-87.706	120.675	-120.727	145.473	-144.768	183.466	29.914	122.746	131.746	0.00016375	0.0004893	6.681e-05	1059.2	3.4558e-06	1.7008e-06	1146.9	218.18	1.3865e-06	1.8362e-06	278.57	77.95	60.856	17.623	3.0806e-06	24.65	0.00044628	0.00058677	0.00016568	1053.9	6.498e-06	6.6298e-06	1147.7	219.55	6.3326e-06	6.5135e-06	280.78	79.647	61.908	18.05	6.2707e-06	25.424	-121.589	-52.055	-88.101	-138.672	13.709	-14.780	-138.604	-131.231	31.440	2.126	-131.823	-125.227	-124.759	-116.985	53.466	-117.646	-8191	255	
870.411	1	1	0	0	0.21402	0.12483	0.090848	0.16068	0.16899	0.053096	0.30738	0.090265	0.16237	0.064435	0.069458	0.15297	0.31405	0.17449	0.072439	0.18446	-3.5333	-4.0563	-3.4188	-4.1896	-3.7333	-3.4458	-4.2708	-3.5708	-3.7396	-3.9833	-3.4167	-4.2646	-3.8063	-3.3333	-4.1604	-3.5729	35.420	114.977	-22.793	183.033	168.090	42.507	115.585	207.500	183.754	-111.735	75.059	145.720	-128.088	-118.914	-127.661	-140.710	0.00014316	6.6836e-05	6.4583e-05	1062.2	1.9589e-06	1.1718e-06	1148.8	217.41	2.3264e-06	2.7211e-06	276.98	77.77	60.896	17.743	2.9114e-06	24.841	0.00045004	0.00057654	0.00016313	1055.1	6.4553e-06	6.665e-06	1147.1	219.33	6.3824e-06	6.6188e-06	280.85	79.612	61.921	18.148	6.5767e-06	25.435	-134.945	-100.614	-50.859	-138.685	35.483	33.523	-138.996	-131.496	-41.820	14.637	-131.676	-125.466	-124.950	-117.164	45.096	-117.560	-8191	255	
870.508	1	1	0	0	0.068588	0.16542	0.23475	0.069754	0.10136	0.16367	0.19128	0.1052	0.039834	0.1639	0.23416	0.15868	0.11409	0.16603	0.2361	0.16219	-3.2625	-3.9792	-3.3917	-4.0687	-3.7125	-3.2354	-4.2417	-3.6104	-3.5104	-4	-3.3187	-4.0563	-3.7833	-3.4083	-3.9917	-3.575	81.913	205.635	104.366	60.198	120.173	3.255	207.126	24.685	-142.759	6.541	43.225	88.338	196.062	114.750	116.691	175.308	0.00016162	0.00050928	9.9721e-05	1062.7	3.7043e-06	4.1277e-06	1155.8	218.13	1.1249e-06	3.4464e-06	277.02	78.063	60.845	17.75	3.0541e-06	25.098	0.00045046	0.00058715	0.00016805	1053.9	6.5113e-06	6.5949e-06	1149	219.3	6.3944e-06	6.5355e-06	279.79	79.54	61.997	18.131	6.4311e-06	25.589	-131.513	-69.394	-42.874	-139.060	-40.959	-14.023	-138.717	-131.511	-8.784	-31.473	-131.595	-125.228	-124.421	-116.754	24.437	-117.573	-8191	255	
870.604	1	1	0	0	0.24914	0.092948	0.13701	0.28416	0.045646	0.20985	0.18401	0.27851	0.091532	0.13969	0.10327	0.1619	0.099465	0.18864	0.084177	0.12274	-3.0563	-4.1042	-3.4771	-4.0021	-4.0875	-3.3708	-4.2708	-3.7979	-3.5	-4.1792	-3.475	-3.8021	-4.0625	-3.4938	-4	-3.9792	50.689	-146.281	-83.786	192.357	-108.768	85.582	107.403	138.798	-40.210	123.373	6.890	-97.454	181.530	-130.574	-146.051	155.555	0.00016362	0.0003711	0.00013234	1063.4	2.8437e-06	3.2144e-06	1152.8	219.63	6.9026e-07	2.9053e-06	278.95	78.024	60.91	17.839	1.6649e-06	24.647	0.00046301	0.00061635	0.00016395	1055.3	6.5623e-06	6.7501e-06	1148.2	219.85	6.5311e-06	6.7768e-06	281.01	79.614	62.091	18.133	6.4799e-06	25.491	-134.592	-11.633	-53.609	-138.648	-31.308	-39.416	-139.057	-131.844	-70.582	3.421	-131.871	-125.222	-125.012	-117.766	53.207	-118.065	-8191	255	
870.700	1	1	0	0	0.13872	0.1465	0.17511	0.23223	0.030916	0.26135	0.14686	0.14659	0.16686	0.088915	0.22571	0.18289	0.3313	0.31498	0.19187	0.12451	-3.0812	-4.2333	-3.4021	-3.9062	-4.1438	-3.4417	-4.1875	-3.9667	-3.4646	-4.1083	-3.575	-3.7771	-3.9854	-3.3958	-3.8333	-3.8375	187.147	63.201	-72.932	158.945	121.860	31.099	207.979	129.699	-122.229	5.530	202.822	104.527	188.886	-111.771	92.968	187.645	0.00015512	0.00037395	1.5508e-05	1064.6	2.6601e-06	3.8113e-06	1147.7	219.31	2.4374e-06	2.065e-06	279.02	77.565	61.007	17.713	2.8132e-06	24.97	0.0004636	0.00059574	0.00016577	1054.4	6.5189e-06	6.8648e-06	1149.7	220	6.4879e-06	6.6301e-06	280.55	79.487	61.99	18.117	6.8422e-06	25.554	-138.521	-77.147	-96.953	-138.849	-31.745	8.760	-138.665	-131.648	-55.243	-18.421	-131.916	-125.663	-125.177	-117.353	-42.331	-117.751	-8191	255	
870.796	1	1	0	0	0.11123	0.1247	0.074223	0.14968	0.042346	0.22634	0.2732	0.14364	0.15064	0.16629	0.015746	0.23123	0.18355	0.16709	0.10226	0.22475	-3.0771	-4.0042	-3.4979	-3.6771	-4.0667	-3.2625	-3.975	-3.8417	-3.2854	-4.0021	-3.6667	-3.6958	-4.2458	-3.3458	-3.8063	-3.8708	187.095	-111.993	26.269	-115.406	-121.258	74.549	174.183	-146.738	-66.402	166.497	191.965	107.271	139.516	156.740	2.198	105.769	0.00016138	0.00031375	7.2247e-05	1063.2	9.9914e-07	1.2333e-06	1157.2	219.36	3.5624e-06	3.5744e-06	280.24	78.444	61.063	17.727	2.3121e-06	24.824	0.0004687	0.00061032	0.00016736	1055.6	6.4608e-06	6.8642e-06	1152.1	219.48	6.6925e-06	6.7825e-06	280.96	79.739	62.138	18.139	6.8134e-06	25.462	-133.141	-91.733	-53.358	-138.905	15.268	-37.608	-138.848	-131.317	-42.519	9.577	-132.053	-125.793	-124.950	-117.435	-6.130	-118.570	-8191	255	
870.917	1	1	0	0	0.12421	0.13489	0.073291	0.19856	0.13111	0.073679	0.055909	0.30871	0.044521	0.12049	0.14312	0.21526	0.21386	0.19473	0.21192	0.16495	-2.8125	-4.0375	-3.5646	-3.7146	-4.1083	-3.4188	-3.9813	-3.9854	-3.4333	-4.0354	-3.6896	-3.425	-4.1792	-3.3833	-3.4646	-3.9625	147.359	86.411	27.761	-134.071	69.333	112.446	150.418	177.846	12.883	-72.907	183.136	-15.549	52.368	38.749	152.501	-108.429	0.00015582	0.00028286	0.00013834	1065.4	2.9192e-06	2.3302e-06	1152.8	218.54	2.6783e-06	3.97e-06	278.51	78.074	60.896	17.557	3.7951e-06	24.665	0.00045596	0.00061799	0.0001662	1054.9	6.6989e-06	6.9725e-06	1149.4	219.68	6.7191e-06	6.7945e-06	280.51	79.62	62.086	18.094	6.7849e-06	25.517	-126.307	-42.171	-56.563	-139.310	-24.038	-25.168	-138.910	-131.392	-18.350	-44.263	-131.838	-125.173	-124.811	-117.562	2.341	-117.872	-8191	255	
871.013	1	1	0	0	0.099358	0.087727	0.13391	0.055494	0.23396	0.16659	0.10904	0.17548	0.19709	0.070211	0.074786	0.28273	0.21583	0.22983	0.20484	0.23153	-2.7958	-4.0229	-3.9875	-3.4938	-4.1687	-3.3729	-3.7354	-4.1438	-3.2229	-3.9521	-3.85	-3.5583	-4.1979	-3.2958	-3.7417	-4.1792	208.261	-25.033	-0.479	179.144	76.675	185.539	121.915	18.571	-128.455	-43.425	196.753	-103.724	-130.079	-64.053	131.960	24.562	0.0001745	0.00036624	9.0272e-05	1067	1.9844e-06	2.9746e-06	1155.6	218.95	3.7438e-06	2.9265e-06	278.19	78.357	61.133	17.785	1.3145e-06	24.993	0.00046692	0.0006088	0.00017176	1056.7	6.6666e-06	7.1524e-06	1151.9	219.67	6.595e-06	6.8891e-06	280.07	79.82	62.116	18.145	6.4776e-06	25.57	-134.397	-71.148	-48.452	-138.827	-34.961	40.966	-138.563	-131.529	-32.827	-30.738	-131.692	-125.018	-124.451	-117.218	-0.742	-117.586	-8191	255	
871.107	1	1	0	0	0.32557	0.30021	0.14923	0.1576	0.19111	0.2567	0.39528	0.27769	0.051076	0.15687	0.23902	0.19423	0.29916	0.19747	0.11514	0.26886	-2.9854	-3.8854	-3.8271	-3.5062	-4.1104	-3.6625	-3.6562	-4.0563	-3.4313	-3.8792	-3.9875	-3.3604	-4.1979	-3.6604	-3.6063	-4.0146	-99.728	-32.924	98.077	205.790	-66.329	58.009	147.188	197.654	3.289	29.974	131.933	202.526	170.484	-119.324	12.161	-140.233	0.00012287	0.00044071	9.3138e-05	1070.6	1.2631e-07	5.8215e-06	1154.5	218.27	2.5457e-06	2.5887e-06	279.44	77.614	61.151	17.748	2.6433e-06	24.679	0.00045694	0.00059351	0.00016766	1056.7	6.5928e-06	6.8153e-06	1150.6	219.41	6.4708e-06	6.8398e-06	280.87	79.643	62.098	18.144	6.3827e-06	25.469	-135.267	-80.745	-81.135	-138.356	-119.998	25.790	-138.233	-131.060	-1.496	-3.713	-131.270	-124.861	-124.506	-117.263	17.985	-117.742	-8191	255	
871.205	1	1	0	0	0.14509	0.09357	0.063825	0.09061	0.13821	0.34801	0.14214	0.054136	0.17362	0.13874	0.22992	0.19125	0.19978	0.23676	0.14812	0.13051	-2.9542	-3.7708	-3.9604	-3.3979	-4.0542	-3.6396	-3.5375	-4.3271	-3.4854	-3.875	-4.0854	-3.3208	-4.0625	-3.8292	-3.4813	-4.2854	160.180	173.155	-102.851	168.467	118.955	58.209	68.990	84.916	84.780	-144.564	106.248	155.717	-146.506	166.469	-71.120	137.613	0.0001562	0.00035934	6.7799e-05	1065.9	4.9137e-07	3.1206e-06	1159.1	219.1	2.2556e-06	4.6113e-06	280.42	77.757	61.077	17.591	2.161e-06	25.143	0.00046861	0.00061262	0.00017072	1054.9	6.7438e-06	6.7761e-06	1151.7	219.6	6.6623e-06	6.8271e-06	281.23	79.595	62.245	18.114	6.676e-06	25.647	-122.470	-84.701	-81.121	-138.200	-47.043	-32.688	-138.302	-131.191	-11.450	-22.937	-131.186	-124.844	-124.089	-116.924	46.848	-117.496	-8191	255	
871.299	1	1	0	0	0.2687	0.22731	0.11891	0.2354	0.26653	0.1372	0.13434	0.22469	0.07627	0.069605	0.28371	0.053724	0.071236	0.26231	0.20931	0.0066526	-2.9062	-3.8187	-4.0479	-3.5229	-3.95	-3.8729	-3.5125	-4.2375	-3.55	-3.4188	-4.0521	-3.3354	-3.9458	-3.8708	-3.3896	-4.1542	176.014	192.590	-90.101	169.541	43.534	92.778	46.587	146.747	-49.151	-10.209	85.200	171.211	191.708	88.722	209.780	111.723	0.00015299	0.00028336	7.2778e-05	1069.9	3.4124e-06	7.6092e-07	1154.8	218.38	7.5273e-07	2.5901e-06	278.29	77.507	61.687	17.839	3.9085e-06	25.04	0.00045224	0.00060433	0.00016824	1056.9	6.622e-06	6.7282e-06	1150.4	219.74	6.6347e-06	6.8168e-06	280.82	79.671	62.446	18.158	6.6877e-06	25.634	-134.401	-87.535	-80.234	-138.434	-34.234	70.296	-138.369	-131.530	-5.089	19.022	-131.767	-125.413	-125.041	-117.624	-11.731	-117.767	-8191	255	
871.396	1	1	0	0	0.056909	0.24028	0.084715	0.098203	0.034849	0.050074	0.24741	0.054483	0.18181	0.079057	0.016141	0.16935	0.1452	0.2418	0.11413	0.19233	-3.2646	-3.5687	-4.0292	-3.4083	-3.9542	-4.0167	-3.4604	-4.1687	-3.6896	-3.5042	-4.2208	-3.5167	-3.5958	-3.9417	-3.0896	-4.1521	182.446	76.936	-34.143	129.462	-87.709	86.877	147.650	93.172	94.820	-137.563	77.350	-141.545	131.584	-119.903	-67.149	175.968	0.00012831	0.00049659	2.2046e-05	1069.5	2.9295e-06	2.2756e-06	1156.2	219.61	3.1942e-06	1.6644e-06	279.32	78.542	61.395	17.65	8.5329e-07	25.037	0.00047227	0.00058853	0.00016604	1058.3	6.8299e-06	6.7867e-06	1152	219.87	6.58e-06	6.8848e-06	280.95	79.84	62.154	18.094	6.6963e-06	25.586	-134.261	-67.506	-120.790	-138.896	-33.869	-47.153	-138.644	-131.514	-25.383	76.595	-132.011	-125.257	-124.745	-117.478	-16.832	-117.842	-8191	255	
#DATA ENDS
