BOXY.EXE: ISS Imagent and Oximeter Data Acquisition Program Version 0.80
Ascii Record File

#ACQ INFORMATION
2  Detector Channels 
16  External MUX Channels 
1  Auxiliary Channels 
5000  Waveform (CCF) Frequency (Hz)
1  Waveforms Skipped 
30  Waveforms Averaged 
1  Cycles Averaged 
16  Acquisitions per Waveform 
10.0806  Updata Rate (Hz) 

#FILE INFORMATION
TRUE -- External MUX Channel results are PARSED.
FALSE -- AC DC and Phase are NOT grouped.
TRUE -- Companion Program Settings File CREATED.
FALSE -- AC data not excluded
FALSE -- DC data not excluded
FALSE -- Phase data not excluded
FALSE -- Auxillary Chn. data not excluded
Tab delimiters

#CALIBRATION STATE
TRUE -- Waveform Calibration Values APPLIED.


#AUX CALIBRATION VALUES
Val Type	aux-1	

Term	1.0000e+00	
Factor	0.0000e+00	


#WF CALIBRATION VALUES
A = Detector Channel
Val Type	A-AC1	A-AC2	A-AC3	A-AC4	A-AC5	A-AC6	A-AC7	A-AC8	A-AC9	A-AC10	A-AC11	A-AC12	A-AC13	A-AC14	A-AC15	A-AC16	A-DC1	A-DC2	A-DC3	A-DC4	A-DC5	A-DC6	A-DC7	A-DC8	A-DC9	A-DC10	A-DC11	A-DC12	A-DC13	A-DC14	A-DC15	A-DC16	A-Ph1	A-Ph2	A-Ph3	A-Ph4	A-Ph5	A-Ph6	A-Ph7	A-Ph8	A-Ph9	A-Ph10	A-Ph11	A-Ph12	A-Ph13	A-Ph14	A-Ph15	A-Ph16	

Term	0.00000e+00	0.00000e+00	0.00000e+00	0.00000e+00	0.00000e+00	0.00000e+00	0.00000e+00	0.00000e+00	0.00000e+00	0.00000e+00	0.00000e+00	0.00000e+00	0.00000e+00	0.00000e+00	0.00000e+00	0.00000e+00	0.00000e+00	0.00000e+00	0.00000e+00	0.00000e+00	0.00000e+00	0.00000e+00	0.00000e+00	0.00000e+00	0.00000e+00	0.00000e+00	0.00000e+00	0.00000e+00	0.00000e+00	0.00000e+00	0.00000e+00	0.00000e+00	0.00000e+00	0.00000e+00	0.00000e+00	0.00000e+00	0.00000e+00	0.00000e+00	0.00000e+00	0.00000e+00	0.00000e+00	0.00000e+00	0.00000e+00	0.00000e+00	0.00000e+00	0.00000e+00	0.00000e+00	0.00000e+00	
Factor	1.00000e+00	1.00000e+00	1.00000e+00	1.00000e+00	1.00000e+00	1.00000e+00	1.00000e+00	1.00000e+00	1.00000e+00	1.00000e+00	1.00000e+00	1.00000e+00	1.00000e+00	1.00000e+00	1.00000e+00	1.00000e+00	1.00000e+00	1.00000e+00	1.00000e+00	1.00000e+00	1.00000e+00	1.00000e+00	1.00000e+00	1.00000e+00	1.00000e+00	1.00000e+00	1.00000e+00	1.00000e+00	1.00000e+00	1.00000e+00	1.00000e+00	1.00000e+00	X	X	X	X	X	X	X	X	X	X	X	X	X	X	X	X	

B = Detector Channel
Val Type	B-AC1	B-AC2	B-AC3	B-AC4	B-AC5	B-AC6	B-AC7	B-AC8	B-AC9	B-AC10	B-AC11	B-AC12	B-AC13	B-AC14	B-AC15	B-AC16	B-DC1	B-DC2	B-DC3	B-DC4	B-DC5	B-DC6	B-DC7	B-DC8	B-DC9	B-DC10	B-DC11	B-DC12	B-DC13	B-DC14	B-DC15	B-DC16	B-Ph1	B-Ph2	B-Ph3	B-Ph4	B-Ph5	B-Ph6	B-Ph7	B-Ph8	B-Ph9	B-Ph10	B-Ph11	B-Ph12	B-Ph13	B-Ph14	B-Ph15	B-Ph16	

Term	0.00000e+00	0.00000e+00	0.00000e+00	0.00000e+00	0.00000e+00	0.00000e+00	0.00000e+00	0.00000e+00	0.00000e+00	0.00000e+00	0.00000e+00	0.00000e+00	0.00000e+00	0.00000e+00	0.00000e+00	0.00000e+00	0.00000e+00	0.00000e+00	0.00000e+00	0.00000e+00	0.00000e+00	0.00000e+00	0.00000e+00	0.00000e+00	0.00000e+00	0.00000e+00	0.00000e+00	0.00000e+00	0.00000e+00	0.00000e+00	0.00000e+00	0.00000e+00	-1.07286e+02	-1.33750e+02	-1.30724e+02	-1.82363e+02	-6.19824e+01	-6.62161e+01	-1.57848e+02	-1.62015e+02	-5.98885e+01	-6.91183e+01	-1.70843e+02	-1.70945e+02	-1.83296e+02	-1.76809e+02	-6.51458e+01	-1.49940e+02	
Factor	1.60289e-05	1.47158e-04	4.35422e-05	1.53391e-01	1.14493e-06	1.53336e-06	1.58280e-01	4.76737e-02	1.01461e-06	1.45935e-06	8.23878e-02	2.72771e-02	2.23222e-02	8.72536e-03	1.20848e-06	1.24093e-02	9.10509e-06	1.43128e-05	4.00729e-06	8.10904e-02	1.47627e-07	1.59585e-07	7.86080e-02	2.53910e-02	1.46793e-07	1.59995e-07	4.23457e-02	1.41041e-02	1.20320e-02	4.67646e-03	1.51879e-07	6.42207e-03	X	X	X	X	X	X	X	X	X	X	X	X	X	X	X	X	



#DISTANCE SETTINGS
A = Detector Channel
A-1	A-2	A-3	A-4	A-5	A-6	A-7	A-8	A-9	A-10	A-11	A-12	A-13	A-14	A-15	A-16	

2.5000e+00	3.0000e+00	2.5000e+00	3.0000e+00	2.0000e+00	3.0000e+00	1.5000e+00	3.0000e+00	3.0000e+00	3.0000e+00	3.0000e+00	3.0000e+00	3.0000e+00	3.0000e+00	1.5000e+00	3.0000e+00	

B = Detector Channel
B-1	B-2	B-3	B-4	B-5	B-6	B-7	B-8	B-9	B-10	B-11	B-12	B-13	B-14	B-15	B-16	

1.0000e+01	1.0000e+01	1.0000e+01	1.4400e+00	1.0000e+01	1.0000e+01	1.5100e+00	1.9400e+00	1.0000e+01	1.0000e+01	1.9900e+00	2.4900e+00	2.4100e+00	2.9000e+00	1.0000e+01	2.9800e+00	




#DATA BEGINS
time	group	step	mark	flag	A-AC1	A-AC2	A-AC3	A-AC4	A-AC5	A-AC6	A-AC7	A-AC8	A-AC9	A-AC10	A-AC11	A-AC12	A-AC13	A-AC14	A-AC15	A-AC16	A-DC1	A-DC2	A-DC3	A-DC4	A-DC5	A-DC6	A-DC7	A-DC8	A-DC9	A-DC10	A-DC11	A-DC12	A-DC13	A-DC14	A-DC15	A-DC16	A-Ph1	A-Ph2	A-Ph3	A-Ph4	A-Ph5	A-Ph6	A-Ph7	A-Ph8	A-Ph9	A-Ph10	A-Ph11	A-Ph12	A-Ph13	A-Ph14	A-Ph15	A-Ph16	B-AC1	B-AC2	B-AC3	B-AC4	B-AC5	B-AC6	B-AC7	B-AC8	B-AC9	B-AC10	B-AC11	B-AC12	B-AC13	B-AC14	B-AC15	B-AC16	B-DC1	B-DC2	B-DC3	B-DC4	B-DC5	B-DC6	B-DC7	B-DC8	B-DC9	B-DC10	B-DC11	B-DC12	B-DC13	B-DC14	B-DC15	B-DC16	B-Ph1	B-Ph2	B-Ph3	B-Ph4	B-Ph5	B-Ph6	B-Ph7	B-Ph8	B-Ph9	B-Ph10	B-Ph11	B-Ph12	B-Ph13	B-Ph14	B-Ph15	B-Ph16	aux-1	digaux	

844.314	1	1	0	768	0.25946	0.10196	0.074179	0.33073	0.13135	0.073767	0.088729	0.05495	0.06607	0.19355	0.30991	0.1588	0.15443	0.25834	0.097124	0.048342	-3.3396	-3.5792	-3.9667	-3.7333	-4.0396	-3.9333	-3.7458	-4.3604	-3.65	-3.7438	-4.1646	-3.6604	-3.9208	-4.1583	-3.2792	-4.2604	93.569	-22.041	64.126	144.677	-121.386	137.565	126.931	65.858	-119.512	-95.221	112.837	183.256	-94.428	161.302	48.204	117.873	0.00037908	0.00036936	0.00012191	1356.2	3.4253e-06	2.9573e-06	1348.4	365.16	4.714e-06	3.3072e-06	418.3	139.47	120.24	41.702	4.5173e-06	51.624	0.00049613	0.0005268	0.00014243	1367.8	5.774e-06	5.6756e-06	1366	371.44	5.8442e-06	5.7512e-06	425.21	142.44	123.54	42.642	5.9717e-06	52.844	-131.503	-64.765	-35.897	-140.923	-4.839	15.185	-140.690	-136.136	-33.675	-26.542	-136.884	-132.722	-131.861	-127.130	-22.728	-127.810	-8191	255	
844.411	1	1	0	0	0.17793	0.18097	0.30416	0.22305	0.38621	0.12272	0.069703	0.067963	0.19609	0.19696	0.094641	0.0065931	0.14263	0.35831	0.098474	0.28409	-3.3292	-3.4313	-4.1167	-3.5729	-3.7542	-3.9917	-3.4792	-4.0917	-3.7958	-3.3833	-4.1792	-3.5479	-3.775	-4.1167	-3.3021	-4.1687	-37.064	31.165	159.148	-153.582	65.532	-80.129	-133.401	71.904	-79.513	119.279	-56.103	134.394	-140.364	200.331	-113.413	72.445	0.00039151	0.00052658	0.00017791	1355.1	5.4989e-06	2.8684e-06	1349.8	367.09	4.1225e-06	5.8348e-06	420	138.98	121.68	41.899	3.3887e-06	51.876	0.00050239	0.00053566	0.00014814	1365.6	6.0487e-06	5.7607e-06	1368.3	371.57	5.9797e-06	5.9748e-06	425.06	142.24	123.99	42.747	5.8094e-06	52.954	-136.091	-99.256	-79.576	-140.771	-16.921	18.765	-140.667	-136.218	-15.791	0.604	-136.305	-132.536	-131.809	-127.237	-20.621	-127.669	-8191	255	
844.507	1	1	0	0	0.019421	0.094291	0.061261	0.31805	0.166	0.27469	0.34765	0.17006	0.17472	0.20165	0.18186	0.23014	0.25533	0.13243	0.14518	0.22957	-3.5646	-3.4125	-4.2688	-3.7375	-3.525	-4.0792	-3.525	-4.1125	-4.1312	-3.3688	-4.2146	-3.7646	-3.6	-4.2	-3.4437	-4.0583	60.358	186.026	-57.299	198.771	-5.168	63.839	125.641	183.942	14.507	-86.521	101.732	190.304	200.986	201.649	-73.803	162.520	0.000365	0.00040048	0.0001137	1358.7	1.455e-06	4.4858e-06	1351.7	367.21	2.1277e-06	4.6186e-06	416.58	138.66	121.01	42	3.5402e-06	51.514	0.00048892	0.00052495	0.00014154	1368.6	5.9635e-06	5.497e-06	1367.2	371.85	5.8368e-06	5.8505e-06	424	142.11	123.58	42.728	5.7008e-06	52.854	-132.242	-71.794	-66.028	-140.644	-13.944	-22.431	-140.773	-135.918	-52.100	-1.339	-136.578	-132.609	-131.594	-126.942	-28.698	-127.834	-8191	255	
844.603	1	1	0	0	0.13363	0.19041	0.14796	0.36603	0.066921	0.19647	0.23295	0.269	0.14596	0.15494	0.074436	0.15641	0.17764	0.34487	0.0082726	0.25359	-3.5229	-3.3875	-4.1708	-3.7583	-3.5458	-4.0563	-3.7021	-3.9125	-4.0646	-3.3063	-4.2521	-3.9417	-3.7229	-4.3833	-3.425	-3.9125	17.828	72.410	193.140	169.552	152.292	15.137	41.548	157.822	-43.767	51.143	167.579	169.297	171.713	182.657	-17.699	113.909	0.0003646	0.00044687	0.00017641	1353.4	5.1562e-06	6.3398e-06	1344.6	365.15	4.056e-06	3.7576e-06	419.97	138.39	120.81	41.777	4.5819e-06	51.845	0.0004834	0.00052391	0.00014079	1367.6	5.8611e-06	5.6187e-06	1366.1	371.01	5.6454e-06	5.9241e-06	424.77	141.88	123.68	42.633	5.8556e-06	52.947	-135.576	-66.574	-54.123	-140.774	-34.701	-10.982	-140.785	-136.280	-23.163	-0.628	-136.464	-132.727	-131.934	-126.793	-8.975	-127.279	-8191	255	
844.697	1	1	0	0	0.087697	0.23713	0.39345	0.30916	0.17716	0.079152	0.30333	0.073628	0.27516	0.068537	0.16154	0.12789	0.18987	0.2522	0.07746	0.2352	-3.7896	-3.3271	-4.0229	-4.1104	-3.6229	-4.0729	-3.6688	-3.7479	-4.2958	-3.425	-4.2188	-3.8521	-3.5292	-4.2854	-3.6521	-3.625	-25.270	-89.371	173.262	-144.338	64.205	82.291	195.657	156.542	161.071	160.247	60.167	-112.814	153.261	184.973	-143.888	168.660	0.00034702	0.0005094	0.00011372	1356.8	3.1725e-06	6.3632e-06	1348.2	365.96	3.6448e-06	5.6598e-06	417.98	138.35	121.44	41.811	4.8409e-06	51.767	0.00049389	0.00054428	0.00014682	1369	5.8712e-06	5.661e-06	1366.4	371.43	5.9222e-06	5.7698e-06	424.25	142.05	123.72	42.757	5.9312e-06	52.874	-136.356	-77.082	-72.063	-140.702	-12.232	12.076	-140.747	-136.124	-11.403	-28.259	-136.800	-132.798	-131.824	-126.960	-5.904	-127.615	-8191	255	
844.795	1	1	0	0	0.035013	0.13748	0.16216	0.26407	0.061502	0.12341	0.16572	0.18645	0.056301	0.18572	0.14669	0.10746	0.14633	0.11368	0.10172	0.21318	-3.8625	-3.4437	-3.8563	-4.0604	-3.2792	-4.0208	-3.8583	-3.7271	-4.2063	-3.4042	-4.0354	-3.9917	-3.4208	-4.1396	-3.7938	-3.6	-97.136	-135.942	29.849	-140.029	59.346	170.252	-115.889	177.162	-49.331	-148.992	-81.440	-74.163	128.663	13.856	-121.779	-121.133	0.00037543	0.00043894	0.00017869	1357	2.7124e-06	4.1802e-06	1347.5	366.42	3.2924e-06	4.1536e-06	418.24	138.92	120.53	41.701	2.946e-06	51.581	0.00048843	0.00052701	0.00015031	1369.3	5.7587e-06	5.8222e-06	1366.6	371.04	5.7561e-06	5.7685e-06	424.67	142.47	123.49	42.632	5.8489e-06	52.779	-133.512	-63.507	-61.718	-140.649	-9.841	4.983	-140.728	-136.267	-19.218	13.939	-136.477	-132.416	-131.875	-127.090	-17.498	-127.430	-8191	255	
844.914	1	1	0	0	0.14846	0.37956	0.32144	0.1847	0.0010763	0.12333	0.42852	0.16903	0.12047	0.030538	0.21815	0.072393	0.29295	0.090982	0.11497	0.21308	-3.6646	-3.3333	-3.7896	-4.2104	-3.3583	-4.1854	-3.8	-3.5854	-4.1937	-3.5563	-3.7479	-4.2708	-3.4771	-4.1979	-3.8312	-3.6833	-29.885	123.560	-1.463	-76.604	180.000	87.350	103.927	142.548	164.352	145.001	197.317	24.682	163.987	-81.643	47.516	132.588	0.00035522	0.000499	0.00016431	1360.2	2.9617e-06	6.0928e-06	1348.7	365.87	3.6782e-06	4.1976e-06	420.57	139.4	120.96	42.03	5.2409e-06	51.575	0.00049378	0.00052218	0.000149	1369.6	5.9727e-06	5.8545e-06	1368	371.81	6.024e-06	5.8531e-06	426.08	142.48	123.83	42.82	5.941e-06	52.834	-136.329	-40.002	-71.694	-140.873	-0.222	7.656	-140.795	-136.226	-16.188	-0.206	-136.614	-132.438	-131.944	-126.836	5.823	-127.657	-8191	255	
845.010	1	1	0	0	0.16534	0.12248	0.12255	0.23164	0.097938	0.16508	0.10976	0.2292	0.0134	0.14353	0.19665	0.15004	0.20081	0.15981	0.25254	0.31377	-3.8333	-3.4521	-3.6792	-4.1125	-3.2854	-3.9875	-4.0958	-3.5333	-4.1667	-3.6125	-3.6583	-4.1062	-3.4646	-4.1104	-3.9354	-3.3458	140.526	-116.470	-64.097	105.580	-8.326	-57.228	-148.322	197.496	109.900	28.664	-59.782	-124.424	-127.061	144.895	-33.863	26.650	0.00036389	0.00058058	0.00020939	1355	3.3773e-06	5.2924e-06	1351.9	366.81	3.7436e-06	4.405e-06	420.17	139.02	120.97	41.942	2.9184e-06	51.559	0.00049773	0.00054606	0.00015135	1368.4	6.1711e-06	5.9901e-06	1366.4	371.87	5.8965e-06	5.9805e-06	425.78	142.27	123.86	42.731	5.9809e-06	52.84	-131.733	-60.227	-68.963	-140.681	-8.269	26.977	-140.905	-136.095	-25.338	-17.988	-136.429	-132.674	-132.039	-127.096	-24.743	-127.703	-8191	255	
845.106	1	1	0	0	0.19157	0.10821	0.10561	0.37177	0.26848	0.21606	0.25757	0.22671	0.18265	0.20167	0.1304	0.10641	0.11831	0.14431	0.16267	0.16389	-3.9125	-3.6979	-3.5292	-4.2583	-3.2896	-3.9708	-4.0396	-3.5896	-4.0479	-3.625	-3.7729	-4.4354	-3.6396	-3.9333	-4.1208	-3.6312	-148.421	83.621	86.390	167.377	-126.010	86.645	164.465	91.756	93.727	151.931	98.761	145.384	-120.469	166.296	90.375	83.902	0.00037296	0.0006709	0.00014507	1356.4	3.7477e-06	5.6607e-06	1348.5	366.18	4.3483e-06	4.3277e-06	419.97	138.9	120.48	41.784	3.6467e-06	51.744	0.00050704	0.00053903	0.0001473	1367.9	6.1536e-06	5.9628e-06	1366.3	371.42	5.7555e-06	6.1351e-06	425.31	142.17	123.54	42.653	6.0283e-06	52.843	-134.164	-53.206	-65.191	-140.681	-24.952	-3.807	-140.942	-136.033	-27.918	-14.854	-136.349	-132.395	-131.891	-127.097	-15.180	-127.742	-8191	255	
845.203	1	1	0	0	0.19373	0.02074	0.14934	0.21055	0.093837	0.11589	0.33138	0.27457	0.12477	0.24298	0.18189	0.094202	0.22282	0.11976	0.21807	0.29648	-3.6292	-3.7438	-3.5125	-4.2708	-3.5438	-3.7604	-4.1417	-3.6188	-4.1271	-3.9333	-3.5042	-4.2292	-3.6354	-3.5563	-4.0583	-3.6417	-46.446	190.751	153.929	135.405	132.568	-78.679	138.780	146.456	74.719	-104.375	190.539	-68.811	195.425	151.242	45.892	115.659	0.0003512	0.00050861	0.00010072	1357.5	1.6692e-06	5.0092e-06	1346.8	366.27	3.6822e-06	3.8625e-06	419.79	139.35	121.06	41.988	4.8416e-06	51.652	0.00050275	0.00053154	0.00014698	1368.9	5.8903e-06	5.8212e-06	1365.7	371.64	5.9549e-06	5.8192e-06	425.37	142.4	123.39	42.7	5.6755e-06	52.819	-129.421	-70.912	-98.242	-140.496	-40.958	-11.908	-140.781	-136.060	-29.562	-25.840	-136.307	-132.432	-131.840	-126.975	-12.386	-127.645	-8191	255	
845.299	1	1	0	0	0.23422	0.28343	0.17496	0.15555	0.23541	0.17863	0.35821	0.11177	0.11168	0.20025	0.18059	0.15145	0.16328	0.22215	0.19585	0.096148	-3.4958	-3.8458	-3.3771	-4.2396	-3.6	-3.6792	-4.2646	-3.6125	-3.9854	-3.8187	-3.4896	-4.3812	-3.7875	-3.7	-4.2458	-3.4479	2.002	-150.239	180.798	-139.265	-153.676	183.148	114.523	-114.266	-67.188	124.042	41.736	150.071	-140.674	141.170	123.245	128.695	0.00036968	0.00058695	0.00021463	1362	3.9344e-06	2.6632e-06	1346.6	365.74	4.6673e-06	5.2619e-06	417.87	138.51	120.29	41.654	2.5902e-06	51.698	0.00049974	0.00051386	0.00014654	1369.3	5.7888e-06	5.6969e-06	1364.5	371.18	5.746e-06	5.8285e-06	423.81	142.05	123.3	42.628	5.5695e-06	52.78	-132.631	-88.919	-54.513	-140.662	-18.465	22.170	-140.891	-136.360	-36.205	-17.896	-136.298	-132.370	-131.894	-127.135	-28.641	-127.687	-8191	255	
845.395	1	1	0	0	0.1959	0.15386	0.15148	0.23549	0.20102	0.122	0.49583	0.23048	0.13759	0.081181	0.14178	0.19315	0.26246	0.36711	0.144	0.10157	-3.5042	-4.0604	-3.2333	-4.1354	-3.7625	-3.5458	-4.3333	-3.425	-3.8271	-3.9562	-3.2604	-4.2979	-3.9417	-3.4833	-4.2042	-3.5604	-105.577	10.507	-12.426	130.458	140.323	-119.914	180.828	184.984	5.491	-100.650	-127.028	199.700	161.710	-138.984	193.862	46.767	0.00035658	0.00035328	0.0001166	1358.4	4.217e-06	4.7591e-06	1350.9	364.57	3.8368e-06	4.1936e-06	416.95	138.77	120.52	41.767	4.5447e-06	51.7	0.00048215	0.00051207	0.00014992	1367.6	5.56e-06	5.7803e-06	1365.1	371.1	5.8234e-06	5.5955e-06	423.73	142.16	123.42	42.66	5.485e-06	52.811	-132.658	-89.792	-55.838	-140.686	-5.794	-2.222	-140.668	-135.998	-32.207	-13.447	-136.594	-132.417	-132.101	-127.216	-18.662	-127.971	-8191	255	
845.515	1	1	0	0	0.21314	0.057376	0.19844	0.21662	0.060288	0.095762	0.20368	0.27567	0.064582	0.14647	0.2349	0.24892	0.23449	0.26439	0.12598	0.10301	-3.3	-4.075	-3.3063	-4.0375	-3.7875	-3.5417	-4.4938	-3.5417	-3.7667	-4.2271	-3.4771	-4.1146	-3.9625	-3.4667	-4.1917	-3.8917	70.089	-67.098	46.034	202.395	189.796	-9.216	-59.560	133.717	-62.651	59.703	21.909	-115.541	-150.592	191.698	4.612	149.233	0.00034858	0.00058676	0.00015894	1353.7	2.61e-06	6.0991e-06	1349.2	365.83	3.8603e-06	4.3281e-06	415.93	138.99	120.34	41.785	3.0374e-06	51.781	0.00048244	0.00050474	0.00014343	1366.1	5.4757e-06	5.6563e-06	1364.7	371.21	5.657e-06	5.5438e-06	424.03	142.37	123.51	42.633	5.3034e-06	52.835	-135.307	-61.896	-59.997	-140.364	-12.643	-3.318	-140.658	-136.089	-10.200	19.421	-136.819	-132.524	-131.902	-126.907	0.253	-127.570	-8191	255	
845.610	1	1	0	0	0.074393	0.091449	0.11967	0.085389	0.13561	0.13646	0.39189	0.17457	0.094866	0.15144	0.2644	0.12858	0.26873	0.25364	0.18439	0.216	-3.325	-4.1229	-3.45	-4.2417	-3.9208	-3.5125	-4.2354	-3.9521	-3.7562	-4.0521	-3.35	-4.1208	-4.0062	-3.6833	-4.2271	-3.7562	9.560	-121.137	116.231	-111.121	0.703	146.444	147.728	82.373	159.702	-120.708	147.790	-133.109	153.072	182.570	70.766	113.383	0.0003364	0.00036564	0.0001186	1355.9	3.5407e-06	2.4929e-06	1347.1	364.22	3.8345e-06	3.8413e-06	418.44	138.37	120.76	41.751	4.9674e-06	51.652	0.00048062	0.00050372	0.00014397	1368.6	5.5409e-06	5.79e-06	1367.3	370.32	5.6781e-06	5.4148e-06	423.91	142.18	123.37	42.573	5.5265e-06	52.829	-133.809	-72.461	-58.490	-140.524	2.574	-14.341	-140.700	-136.068	-19.042	-5.525	-136.524	-132.420	-131.924	-127.052	-0.631	-127.544	-8191	255	
845.706	1	1	0	0	0.17945	0.11489	0.21441	0.31663	0.13083	0.21402	0.13391	0.17771	0.24354	0.16389	0.09153	0.2495	0.17086	0.15143	0.11814	0.30656	-3.1229	-4.2458	-3.4667	-3.8812	-4.1042	-3.3646	-4.1062	-3.9104	-3.5187	-4.2917	-3.5917	-3.9167	-4.3021	-3.4521	-4.0417	-3.85	-93.527	138.613	-118.985	143.251	198.897	80.804	143.433	90.875	130.176	-88.000	23.286	143.264	182.974	-116.058	-150.267	199.185	0.0003397	0.00031268	0.00010396	1355.8	4.8266e-06	5.9003e-06	1352	365.46	3.5446e-06	5.4912e-06	417.11	138.13	120.48	41.673	2.4712e-06	51.347	0.00048329	0.00049111	0.00014058	1367.8	5.4843e-06	5.6955e-06	1367.9	370.9	5.7965e-06	5.5475e-06	424.17	141.85	123.23	42.612	5.4911e-06	52.71	-134.146	-69.072	-80.715	-140.426	7.771	-0.503	-140.541	-136.265	-15.703	-10.523	-136.788	-132.509	-131.976	-127.196	9.551	-127.760	-8191	255	
845.802	1	1	0	0	0.12175	0.19201	0.161	0.26191	0.011979	0.27469	0.18984	0.21558	0.12465	0.062833	0.23615	0.40865	0.067048	0.29936	0.020931	0.19441	-3.0875	-4.1125	-3.5187	-3.7854	-4.1396	-3.4146	-4.1667	-4.2021	-3.4125	-4.1438	-3.6771	-3.6188	-4.2271	-3.5792	-3.8833	-4.0188	-97.141	12.363	-117.094	171.827	160.945	-25.160	91.422	-127.454	-58.426	-26.225	156.048	183.394	132.198	149.086	-143.345	34.992	0.00036416	0.00048289	0.00010731	1353	2.6922e-06	5.2252e-06	1344.1	362.4	3.2503e-06	5.6973e-06	418.75	138.89	120.59	41.538	3.2905e-06	51.462	0.00048445	0.00050083	0.00014309	1366.8	5.5538e-06	5.5812e-06	1365.8	369.64	5.8099e-06	5.5395e-06	424.31	142	123.51	42.509	5.6126e-06	52.752	-135.107	-75.319	-49.884	-140.241	-22.142	-14.278	-140.504	-136.189	-7.697	1.983	-136.657	-132.617	-132.176	-127.185	-13.488	-127.857	-8191	255	
845.876	1	1	0	0	0.25894	0.062126	0.1161	0.37336	0.21798	0.06464	0.34169	0.042547	0.10422	0.1077	0.26325	0.14866	0.16037	0.19043	0.17519	0.26819	-3.075	-4.1	-3.6375	-3.7208	-4.1104	-3.4229	-4.0687	-4.1208	-3.3083	-4.225	-3.8937	-3.625	-4.2292	-3.3958	-3.8812	-3.9688	-132.787	-17.478	-38.185	160.631	-133.574	-45.106	135.265	35.147	204.042	-133.696	193.856	145.688	142.964	153.845	6.067	195.712	0.00034609	0.00049587	0.00011515	1350.1	3.489e-06	3.6294e-06	1343.2	364.9	3.5733e-06	5.0585e-06	418.15	138.36	120.31	41.676	3.278e-06	51.641	0.00048132	0.00049865	0.00014299	1363.4	5.4247e-06	5.6649e-06	1362.8	370.16	5.7072e-06	5.5775e-06	423.78	141.95	123.31	42.651	5.6385e-06	52.782	-133.449	-65.762	-93.188	-140.510	-7.386	6.895	-140.514	-136.154	-39.814	-11.586	-136.604	-132.464	-132.066	-127.276	-12.399	-127.933	-8191	255	
845.994	1	1	0	0	0.1444	0.19715	0.28156	0.12477	0.11829	0.15156	0.28932	0.27714	0.058539	0.082939	0.15126	0.13506	0.22144	0.14682	0.31685	0.088681	-2.7958	-4.2146	-3.7479	-3.6667	-4.2417	-3.45	-3.9958	-4.1542	-3.4146	-4.0104	-3.8729	-3.3354	-4.3646	-3.6167	-3.6896	-4.2021	77.113	-36.968	16.729	123.088	38.887	-127.709	193.610	149.329	30.959	188.588	-152.712	-120.376	169.453	131.038	78.612	52.683	0.00036006	0.00050354	0.00012958	1351.3	1.7599e-06	5.8228e-06	1342.1	363.49	3.5238e-06	4.3977e-06	416.29	138.2	120.16	41.418	2.7831e-06	51.444	0.00048043	0.00049242	0.00014041	1366.3	5.5763e-06	5.6543e-06	1362.2	370.15	5.7402e-06	5.5435e-06	423.43	141.85	123.2	42.494	5.6391e-06	52.766	-135.256	-86.627	-65.585	-140.473	-29.304	-12.503	-140.842	-136.435	-24.396	14.289	-136.511	-132.850	-132.116	-127.290	-35.680	-127.944	-8191	255	
846.091	1	1	0	0	0.18882	0.21259	0.19695	0.33788	0.1906	0.10769	0.16717	0.27522	0.076935	0.13559	0.030886	0.10377	0.20852	0.037746	0.22912	0.24354	-2.9	-3.9104	-3.675	-3.3438	-4.0333	-3.4896	-3.775	-4.2854	-3.3667	-3.9667	-4.1667	-3.5458	-4.2625	-3.7021	-3.3812	-4.3521	201.370	-69.442	-90.060	188.940	-7.843	96.270	124.427	149.195	170.157	53.163	136.364	-143.693	169.612	110.493	-95.589	152.526	0.00035441	0.0003503	0.00016748	1355.7	3.6305e-06	6.4554e-06	1345.6	364.18	2.8449e-06	5.7639e-06	417.52	137.94	120.84	41.738	3.6856e-06	51.341	0.00049486	0.00048807	0.00013955	1365.2	5.4923e-06	5.7933e-06	1362.6	370.22	5.6463e-06	5.5168e-06	423.32	141.68	123.38	42.559	5.6372e-06	52.752	-132.191	-64.371	-49.692	-140.593	-14.564	1.242	-140.536	-136.216	-29.728	8.516	-136.536	-132.676	-131.891	-127.144	-20.863	-127.397	-8191	255	
846.187	1	1	0	0	0.14278	0.17012	0.1551	0.1586	0.020809	0.069971	0.18422	0.27927	0.15503	0.0082403	0.28964	0.03631	0.040246	0.11252	0.089305	0.070635	-3.0792	-3.7271	-3.9333	-3.6104	-4.1042	-3.7854	-3.5417	-4.2583	-3.3354	-3.7708	-4.2458	-3.3937	-4.1062	-3.7313	-3.5125	-4.3021	169.480	186.687	54.590	181.436	-50.042	-49.216	153.103	146.111	75.923	-47.538	157.517	139.119	-110.943	116.762	95.777	107.595	0.00036742	0.00071927	0.00020453	1350.1	3.1953e-06	6.0725e-06	1344.1	362.55	2.9925e-06	3.9778e-06	416.76	138.24	120.46	41.794	2.3928e-06	51.456	0.00048689	0.00050861	0.0001395	1362.3	5.6661e-06	5.6137e-06	1363.7	369.62	5.6482e-06	5.4708e-06	423.95	141.97	123.43	42.616	5.7214e-06	52.737	-135.656	-76.351	-68.617	-140.514	-8.695	10.923	-140.448	-136.104	-19.258	-12.943	-136.591	-132.529	-131.916	-127.187	-42.257	-127.688	-8191	255	
846.283	1	1	0	0	0.18125	0.14468	0.097341	0.03296	0.28316	0.070907	0.28738	0.13442	0.1319	0.15831	0.12132	0.23787	0.085832	0.2514	0.24914	0.060899	-2.9979	-3.7667	-4.0062	-3.7833	-3.9292	-3.8479	-3.6625	-4.2	-3.4521	-3.6813	-4.3	-3.6229	-3.9896	-4.1375	-3.4938	-4.2604	104.637	-58.511	-84.883	-124.079	-147.480	-6.783	124.397	186.894	6.026	154.672	177.575	138.512	-110.390	-66.539	-0.763	158.626	0.0003656	0.00031624	0.00014724	1349.1	4.3387e-06	4.1317e-06	1346.2	364.99	3.257e-06	4.0419e-06	419.39	139.08	120.38	41.726	2.9275e-06	51.447	0.00049084	0.00051642	0.00014352	1365	5.5628e-06	5.5147e-06	1365.4	370.45	5.5821e-06	5.6952e-06	424.13	142.03	123.29	42.619	5.6869e-06	52.783	-137.342	-63.482	-61.755	-140.772	-0.348	-21.712	-140.775	-136.079	-38.374	-21.142	-136.655	-132.590	-131.883	-126.739	-8.400	-127.709	-8191	255	
846.404	1	1	0	0	0.036874	0.12869	0.050911	0.092473	0.10891	0.045345	0.055133	0.021651	0.18794	0.11319	0.30154	0.19429	0.22688	0.021715	0.11181	0.14383	-3.0938	-3.3604	-4.1458	-3.7771	-3.7917	-3.9729	-3.4917	-4.1687	-3.7188	-3.5833	-4.2667	-3.5833	-3.9521	-4.1146	-3.3375	-4.1708	-117.651	161.506	-102.198	135.488	127.837	75.599	192.634	-54.191	179.660	-23.687	-137.886	151.323	60.451	-80.840	154.765	-32.494	0.00034867	0.00067657	0.00018735	1350.3	3.9744e-06	5.8103e-06	1349.9	364.45	4.2003e-06	5.1737e-06	420.01	138.04	120.36	41.559	3.908e-06	51.472	0.00049706	0.00051183	0.00013741	1363.8	5.6261e-06	5.5808e-06	1364.4	370.2	5.6075e-06	5.7205e-06	424.91	141.8	123.27	42.56	5.6847e-06	52.723	-135.799	-71.959	-57.378	-140.601	-6.023	-23.567	-140.590	-135.836	-51.027	-22.294	-136.572	-132.538	-131.571	-127.058	2.063	-127.836	-8191	255	
846.475	1	1	0	0	0.066422	0.23108	0.1769	0.11858	0.083577	0.22966	0.27821	0.092042	0.22812	0.41707	0.06507	0.15025	0.15533	0.15759	0.18579	0.13639	-3.4021	-3.5	-3.9896	-3.6854	-3.7687	-4.0958	-3.4396	-4.3	-3.6375	-3.3542	-4.2521	-3.4896	-3.75	-4.15	-3.2667	-4.0646	168.763	-146.399	32.498	-142.947	-67.884	-76.778	139.656	166.482	187.076	123.316	-52.066	148.064	171.835	175.493	105.054	-26.100	0.00036674	0.00061371	0.00016325	1351.9	2.4946e-06	5.31e-06	1348.1	364.96	3.0259e-06	3.4348e-06	418.84	138.33	120.53	41.699	6.2462e-06	51.679	0.00048731	0.00052	0.00014228	1365	5.512e-06	5.4984e-06	1364	370.38	5.5849e-06	5.5905e-06	423.61	141.78	123.32	42.616	5.6205e-06	52.824	-134.850	-75.249	-49.116	-140.838	-30.391	0.721	-140.400	-136.076	-51.487	4.335	-136.350	-132.471	-131.942	-127.024	-19.858	-127.375	-8191	255	
846.596	1	1	0	0	0.35108	0.22799	0.086462	0.46707	0.14043	0.096886	0.13349	0.22054	0.21236	0.24593	0.17166	0.2832	0.11105	0.25476	0.21488	0.23524	-3.4792	-3.35	-4.0917	-3.7583	-3.6479	-4.2667	-3.5625	-4.1417	-3.8375	-3.4208	-4.4625	-3.6667	-3.6063	-4.2125	-3.3146	-4.1604	175.014	-114.809	110.937	142.183	100.293	-17.863	98.578	122.705	11.083	104.693	1.981	158.704	-28.857	169.463	121.553	169.327	0.00035239	0.00046164	0.00015867	1354.3	1.8638e-06	3.5912e-06	1347.4	365.33	3.9974e-06	6.3377e-06	417.73	138.62	121.06	41.735	4.6215e-06	51.618	0.00047828	0.0005217	0.0001445	1364.5	5.564e-06	5.4961e-06	1363.6	370.42	5.5258e-06	5.5405e-06	423.14	141.94	123.59	42.547	5.6138e-06	52.792	-133.043	-80.474	-65.913	-140.794	13.986	2.713	-140.717	-135.979	-29.735	-15.859	-136.485	-132.362	-131.583	-127.184	-14.190	-127.352	-8191	255	
846.690	1	1	0	0	0.14235	0.15182	0.10744	0.036664	0.091187	0.17284	0.29189	0.18296	0.065909	0.076064	0.015074	0.19527	0.38062	0.19298	0.21394	0.27347	-3.6917	-3.4458	-4.1542	-3.8125	-3.6146	-4.1708	-3.6708	-4.0062	-4.0583	-3.3792	-4.1438	-3.6958	-3.6042	-4.2562	-3.5667	-3.8875	-111.358	167.158	76.247	73.479	200.117	-123.443	161.601	104.305	31.927	122.794	60.160	100.561	179.401	175.161	125.407	128.788	0.00035665	0.00064319	0.00011884	1352.2	4.6941e-06	5.8935e-06	1342.5	365.43	3.1258e-06	3.7846e-06	416.94	138.55	120.47	41.888	3.3884e-06	51.59	0.00047035	0.00050918	0.00013637	1363.7	5.6135e-06	5.4103e-06	1363.8	370.63	5.446e-06	5.5575e-06	423.38	141.97	123.38	42.643	5.5354e-06	52.754	-136.543	-62.460	-47.519	-140.595	-9.279	7.752	-140.822	-135.793	-32.693	-4.692	-136.243	-132.541	-131.601	-127.116	-12.783	-127.525	-8191	255	
846.786	1	1	0	0	0.38611	0.057391	0.21959	0.23029	0.11382	0.022284	0.42118	0.078093	0.092224	0.089463	0.023628	0.319	0.23276	0.16268	0.15292	0.28602	-3.7208	-3.3792	-3.875	-3.9583	-3.3625	-4.1375	-3.8312	-3.8458	-4.2021	-3.5229	-4.2167	-3.8833	-3.4208	-4.2167	-3.5563	-3.8438	-76.681	64.740	-94.375	149.356	-110.668	85.429	111.261	-110.076	-137.142	-97.943	-50.930	112.986	144.083	170.258	-107.403	120.729	0.00037814	0.00063259	0.00016787	1354.1	3.2388e-06	3.9753e-06	1337.5	363.64	3.8075e-06	5.4794e-06	417.2	138.61	120.29	41.492	2.6472e-06	51.552	0.00046772	0.00050629	0.00013723	1364.7	5.5412e-06	5.2922e-06	1360.3	370.08	5.3708e-06	5.3788e-06	423.77	141.77	123.09	42.462	5.4882e-06	52.733	-135.937	-46.398	-73.149	-140.686	-32.805	4.649	-140.688	-136.017	-29.710	-13.041	-136.731	-132.554	-131.799	-127.042	-18.148	-127.394	-8191	255	
846.883	1	1	0	0	0.17012	0.033091	0.070391	0.14609	0.10146	0.082986	0.26202	0.11649	0.35547	0.089397	0.086213	0.088962	0.24769	0.045343	0.083788	0.25511	-3.6729	-3.1833	-3.9833	-4.1687	-3.3167	-4.1417	-3.7896	-3.6	-4.175	-3.4354	-3.9188	-4.0729	-3.2875	-4.1687	-3.7958	-3.5896	20.002	-77.373	-132.339	173.693	-146.682	183.136	151.147	121.579	-101.357	70.877	76.684	55.107	187.409	34.537	93.932	179.930	0.00036888	0.00047555	0.00015873	1349.2	3.6604e-06	5.5266e-06	1337.7	364.28	4.9548e-06	4.5005e-06	416.81	138.34	120.48	41.742	5.5697e-06	51.756	0.00047153	0.00050545	0.00013697	1364	5.4831e-06	5.3285e-06	1360.3	370.09	5.2818e-06	5.1405e-06	422.85	141.7	123.15	42.556	5.43e-06	52.773	-134.205	-66.985	-42.300	-140.482	-31.125	-5.763	-140.824	-136.026	-48.037	-9.860	-136.360	-132.672	-131.748	-127.062	-28.683	-127.739	-8191	255	
847.003	1	1	0	0	0.082233	0.0053237	0.26577	0.11842	0.29279	0.15551	0.1305	0.17035	0.059749	0.026372	0.16153	0.26538	0.28242	0.23781	0.25968	0.25583	-3.8021	-3.3271	-3.7333	-4.3688	-3.2875	-4.1417	-3.7562	-3.5125	-4.2583	-3.4313	-3.9875	-4.1833	-3.5542	-4.1125	-3.8042	-3.5042	132.085	-148.174	-117.441	183.384	-1.097	-54.257	162.850	111.683	-56.595	-136.792	-150.913	145.978	153.279	198.661	175.330	-78.680	0.00036882	0.00050939	0.00011803	1349.5	3.722e-06	5.0647e-06	1343.5	363.77	3.3489e-06	3.8378e-06	417.38	137.94	121.12	41.774	3.7512e-06	51.417	0.00046927	0.00048136	0.0001364	1362.3	5.3484e-06	5.1849e-06	1361.4	369.57	5.1848e-06	5.3885e-06	423.03	141.63	123.25	42.602	5.1174e-06	52.726	-136.299	-57.096	-66.160	-140.672	-20.382	-17.149	-140.818	-136.035	-29.528	11.418	-136.500	-132.520	-132.186	-127.244	-20.560	-127.841	-8191	255	
847.099	1	1	0	0	0.11947	0.14709	0.41509	0.384	0.18496	0.13078	0.33111	0.18161	0.28353	0.13095	0.14062	0.32842	0.25372	0.095561	0.099714	0.32817	-3.8646	-3.5417	-3.8208	-4.2375	-3.4813	-4.0792	-4.0104	-3.4417	-4.1146	-3.5125	-3.7271	-4.0792	-3.575	-3.9313	-3.975	-3.2917	-97.582	-107.465	89.973	197.126	-98.153	-125.738	89.688	-42.766	98.978	118.210	122.120	-95.251	-122.033	163.526	-13.409	90.587	0.00033352	0.00064711	0.000194	1344.7	2.9501e-06	3.8301e-06	1341	363.49	3.9822e-06	4.151e-06	418.73	138.56	120.5	41.559	3.1245e-06	51.548	0.00044973	0.00048014	0.00013127	1361.8	5.3921e-06	5.1217e-06	1358	369.77	5.3157e-06	5.3065e-06	423.31	141.69	122.98	42.523	5.1455e-06	52.672	-132.461	-73.363	-66.153	-140.889	-4.172	-12.634	-140.864	-136.418	-17.868	0.249	-136.876	-132.834	-132.083	-127.087	-40.580	-127.946	-8191	255	
847.171	1	1	0	0	0.12109	0.085197	0.10757	0.31284	0.1525	0.089743	0.25655	0.10218	0.20616	0.063682	0.037864	0.0415	0.28365	0.10255	0.2179	0.15966	-3.6917	-3.6604	-3.375	-4.3083	-3.3042	-3.9146	-4.0958	-3.5042	-4.15	-3.7792	-3.7458	-4.3875	-3.3979	-3.8438	-4.0292	-3.5333	-25.082	172.380	160.876	171.853	35.400	-72.758	149.682	174.736	-11.982	99.149	126.760	-22.040	106.688	-139.812	79.619	197.651	0.00036665	0.00066222	0.0001338	1350.7	2.5988e-06	4.5799e-06	1347	362.66	4.619e-06	7.5452e-06	416.44	138.55	119.92	41.558	3.9228e-06	51.279	0.0004629	0.00047695	0.00013174	1361.2	5.4136e-06	5.1513e-06	1361.3	368.89	5.154e-06	5.3522e-06	423.08	141.68	122.86	42.495	5.2231e-06	52.646	-135.522	-73.282	-69.306	-140.677	-7.986	6.691	-141.056	-136.332	-26.955	-14.246	-136.690	-132.754	-132.038	-127.077	-13.897	-128.098	-8191	255	
847.292	1	1	0	0	0.01989	0.13781	0.086838	0.27798	0.088476	0.14942	0.18172	0.17737	0.14628	0.18081	0.146	0.23841	0.35983	0.11793	0.29039	0.23357	-3.7104	-3.6708	-3.4042	-4.275	-3.3854	-3.7333	-4.2688	-3.5104	-4.0271	-3.7062	-3.5792	-4.3	-3.6292	-3.6688	-4.0312	-3.4833	95.943	21.327	-116.511	203.726	104.213	49.022	90.966	-149.987	150.671	177.708	166.948	134.647	163.845	167.894	167.092	18.584	0.00035479	0.00045322	0.00015133	1349.2	4.8256e-06	6.0405e-06	1343.6	361.2	2.633e-06	3.5269e-06	416.91	138.28	120.15	41.537	2.318e-06	51.389	0.00045372	0.00046898	0.00013764	1361.5	5.2681e-06	5.0047e-06	1360.3	369.06	5.1598e-06	5.2772e-06	422.83	141.63	122.9	42.467	5.1345e-06	52.625	-131.908	-83.722	-66.216	-140.827	-5.659	-2.794	-140.986	-136.413	-41.774	-8.797	-136.986	-132.710	-132.286	-127.162	-17.612	-127.907	-8191	255	
847.388	1	1	0	0	0.10016	0.07823	0.11473	0.16863	0.236	0.073605	0.22381	0.20017	0.071272	0.094096	0.17693	0.25431	0.10338	0.28809	0.1098	0.1504	-3.675	-3.7687	-3.3521	-4.1417	-3.5479	-3.5458	-4.3354	-3.5333	-4.1979	-3.7104	-3.6229	-4.1125	-3.6208	-3.6229	-3.975	-3.4479	156.902	81.540	-135.124	112.053	139.346	-18.946	103.226	172.716	-66.240	176.633	-149.324	139.117	-123.569	78.808	-2.511	198.490	0.00036546	0.00040946	0.00012885	1348.7	4.1166e-06	6.1499e-06	1342.7	363.19	3.9837e-06	4.9724e-06	416.12	138.29	119.97	41.665	3.4773e-06	51.374	0.00044448	0.00045148	0.00013244	1361.9	5.2168e-06	5.0761e-06	1361.2	369.65	5.0433e-06	4.9818e-06	421.98	141.63	122.97	42.527	4.937e-06	52.66	-132.515	-91.958	-67.028	-140.726	1.844	-17.084	-141.053	-136.375	-27.856	-12.846	-136.511	-132.734	-132.053	-127.142	-13.270	-127.956	-8191	255	
847.484	1	1	0	0	0.14304	0.16284	0.10343	0.18859	0.10061	0.17097	0.25675	0.20916	0.079587	0.25027	0.16695	0.099539	0.059241	0.28299	0.16841	0.16605	-3.6021	-3.8104	-3.3104	-4.2708	-3.6458	-3.5229	-4.2333	-3.6063	-3.6833	-3.9896	-3.3438	-4.0729	-3.7083	-3.75	-4.2375	-3.3979	-115.256	71.304	-124.258	169.310	120.699	6.856	161.684	187.007	67.468	154.357	203.984	86.650	-13.775	-120.417	-137.234	140.445	0.00037108	0.00069459	0.0001576	1345.8	1.89e-06	5.6304e-06	1336.1	362.79	5.0255e-06	4.5163e-06	414.39	137.67	120.28	41.532	5.1612e-06	51.348	0.00046163	0.00046758	0.00012765	1360.3	5.1928e-06	5.1689e-06	1357.3	368.77	5.2218e-06	5.0602e-06	422.46	141.41	122.97	42.453	4.9712e-06	52.601	-130.768	-55.342	-84.340	-140.768	-18.139	2.810	-140.915	-136.347	-23.903	3.819	-136.790	-132.739	-132.238	-127.125	-2.774	-127.978	-8191	255	
847.580	1	1	0	0	0.14405	0.24369	0.2251	0.099515	0.29824	0.058582	0.20236	0.27162	0.071643	0.26844	0.13431	0.14678	0.16114	0.23535	0.24392	0.28058	-3.3521	-4.2625	-3.2188	-4.1625	-3.8375	-3.2938	-4.3354	-3.8833	-3.6292	-3.9167	-3.3917	-4.0771	-4.0188	-3.3396	-4.3	-3.7833	-145.241	-123.543	153.300	135.908	153.109	-44.689	124.815	141.648	190.516	-35.159	160.511	-147.489	111.927	-102.203	79.727	124.947	0.00034676	0.00049475	0.00019474	1342	4.17e-06	4.6004e-06	1331.3	360.06	4.2241e-06	5.4094e-06	413.87	137.16	120.57	41.611	3.8628e-06	51.408	0.00045078	0.00044248	0.00013321	1360.3	5.0298e-06	5.0775e-06	1357.9	368.46	5.1243e-06	4.9622e-06	421.96	141.45	123.12	42.477	4.9497e-06	52.61	-131.244	-92.412	-68.926	-140.881	-6.295	15.785	-140.749	-136.394	-23.498	-10.878	-136.692	-132.550	-132.133	-127.195	-6.377	-127.743	-8191	255	
847.699	1	1	0	0	0.12889	0.1234	0.1595	0.17705	0.26533	0.18292	0.23022	0.091059	0.13787	0.22456	0.18524	0.090011	0.36334	0.043609	0.07316	0.23348	-3.1937	-4.0208	-3.4708	-4.0292	-3.9396	-3.3354	-4.1521	-3.6979	-3.3646	-4.1917	-3.5062	-3.875	-4.0104	-3.2625	-4.1521	-3.6813	115.807	63.117	171.627	175.097	125.570	67.907	64.059	4.021	136.177	156.604	117.321	28.975	-97.075	-78.840	-115.945	122.526	0.00037564	0.00066951	0.00017163	1339.1	3.7605e-06	5.1439e-06	1332.5	360.39	3.8065e-06	4.0818e-06	413.89	137.93	119.71	41.345	4.7335e-06	51.107	0.00044951	0.00045583	0.00013003	1359.1	5.0568e-06	5.1882e-06	1358.2	368.66	5.2332e-06	4.8735e-06	421.74	141.5	122.88	42.419	4.9082e-06	52.548	-133.990	-74.880	-61.260	-140.783	-9.686	13.964	-140.932	-136.378	-35.952	7.780	-136.893	-132.576	-132.261	-127.238	-7.350	-127.980	-8191	255	
847.771	1	1	0	0	0.15749	0.17581	0.11687	0.16067	0.13932	0.18924	0.31677	0.11381	0.30699	0.056531	0.16323	0.30237	0.13046	0.1648	0.077491	0.13625	-3.0583	-4.2042	-3.3937	-3.9542	-4.075	-3.3896	-4.1479	-4	-3.5208	-4.1896	-3.5479	-3.8271	-4.2021	-3.4667	-4.0896	-4.0167	172.088	-33.958	44.234	144.702	95.531	160.469	93.886	141.712	62.783	113.398	128.695	203.633	153.224	199.756	-95.851	-78.226	0.00033911	0.00042809	0.00019119	1342.1	4.8248e-06	3.7349e-06	1331.5	361.63	3.1083e-06	5.0464e-06	413.49	137.4	119.17	41.163	5.2383e-06	51.092	0.00044575	0.00044417	0.00012723	1360.9	5.1309e-06	5.0625e-06	1359.1	368.37	5.2335e-06	4.8895e-06	421.6	141.57	122.83	42.373	5.1474e-06	52.63	-133.963	-44.236	-66.785	-140.641	-19.854	9.002	-140.874	-136.328	-56.780	-18.539	-136.764	-132.577	-132.136	-127.157	-16.552	-128.214	-8191	255	
847.867	1	1	0	0	0.27048	0.17417	0.14439	0.2318	0.10393	0.13097	0.10915	0.38868	0.11163	0.021515	0.23259	0.31229	0.20262	0.094467	0.23916	0.37068	-2.8958	-4.1396	-3.4583	-3.9833	-4.1708	-3.3729	-4.2646	-3.9917	-3.5021	-4.0646	-3.4979	-3.7021	-4.2604	-3.4833	-3.9562	-4.0938	101.010	-53.457	97.761	-138.322	193.586	-63.604	56.798	124.440	-97.475	31.609	-146.130	190.450	-118.887	157.377	-121.699	99.215	0.00036616	0.00055786	0.00014007	1339.7	3.203e-06	5.5569e-06	1330.9	360.32	4.6565e-06	3.907e-06	415	137.95	119.9	41.468	4.9502e-06	51.219	0.00045782	0.00045178	0.00012907	1360.2	5.0236e-06	5.0542e-06	1359.3	368.13	5.1959e-06	4.9498e-06	421.63	141.6	123.08	42.437	5.1136e-06	52.661	-133.885	-67.591	-86.072	-140.551	-44.224	-15.258	-140.979	-136.391	-28.638	-19.688	-137.002	-132.439	-132.260	-127.271	-12.011	-128.120	-8191	255	
847.963	1	1	0	0	0.27975	0.10497	0.15175	0.1019	0.10571	0.13675	0.31437	0.25496	0.093166	0.27436	0.27285	0.10519	0.17744	0.30061	0.083595	0.15538	-2.9208	-4.0854	-3.7521	-3.6208	-4.0625	-3.3229	-4.1062	-4.0458	-3.2687	-4.0312	-3.6146	-3.5771	-4.1687	-3.4437	-3.8604	-4.0208	82.980	-8.560	-140.269	115.535	23.564	115.388	147.606	148.228	8.116	48.696	166.926	197.446	163.578	193.107	112.859	115.615	0.00035607	0.00032577	0.00015018	1336.6	3.3683e-06	5.3033e-06	1332.4	362.71	2.9526e-06	4.3501e-06	415.37	137.86	118.97	41.155	4.079e-06	51.02	0.00045305	0.00044933	0.00012712	1358.1	4.8994e-06	5.0279e-06	1357.8	368.98	5.1931e-06	4.9878e-06	422.38	141.51	122.67	42.345	5.1234e-06	52.54	-132.816	-66.786	-69.096	-140.987	10.247	19.685	-140.860	-136.247	-18.312	-10.875	-136.725	-132.802	-132.381	-127.431	-10.654	-128.326	-8191	255	
848.084	1	1	0	0	0.1632	0.40213	0.064143	0.2433	0.13688	0.25221	0.088304	0.33492	0.25371	0.34626	0.22867	0.11257	0.10264	0.16914	0.0084972	0.26351	-2.9562	-4.0792	-3.5896	-3.5979	-4.2417	-3.3312	-3.85	-4.1667	-3.1562	-3.9875	-3.7687	-3.4021	-4.1958	-3.4333	-3.5958	-4.125	80.695	42.138	169.228	-144.225	124.591	15.161	79.319	187.236	31.597	-105.458	-121.091	95.784	151.182	-117.420	-123.229	149.858	0.00038005	0.00064868	0.00025811	1345.4	3.8209e-06	5.873e-06	1337.7	361.95	3.027e-06	4.5094e-06	415.41	137.22	119.12	41.059	3.1366e-06	51.13	0.00045425	0.00044901	0.00012951	1360.3	4.9532e-06	4.9352e-06	1357.6	369.17	5.1977e-06	4.8755e-06	422.2	141.46	122.98	42.333	4.949e-06	52.638	-132.634	-63.543	-64.751	-140.834	-9.419	4.293	-141.094	-136.463	-30.930	-8.938	-137.134	-132.989	-132.497	-128.035	4.293	-128.347	-8191	255	
848.180	1	1	0	0	0.13293	0.13504	0.22503	0.12463	0.086577	0.10378	0.12603	0.21452	0.19277	0.15016	0.19248	0.29801	0.23829	0.064536	0.075392	0.16102	-2.8854	-3.9375	-3.8604	-3.6	-4.0667	-3.4208	-3.7438	-4.2104	-3.3375	-3.8417	-4.0813	-3.5896	-4.1646	-3.6125	-3.4875	-4.3646	-145.778	96.466	-137.604	30.496	-9.128	93.069	195.467	89.347	-11.652	-80.072	203.338	142.980	-128.592	184.447	198.658	105.292	0.00038108	0.00057693	0.00012493	1332.2	2.4932e-06	5.3634e-06	1320.9	356.53	5.2548e-06	5.086e-06	408.29	137.01	119.64	41.332	2.8969e-06	51.22	0.00045886	0.00045649	0.00012772	1356.6	4.8911e-06	5.0958e-06	1356.3	367.62	5.1809e-06	4.8872e-06	420.46	141.36	122.68	42.323	5.1091e-06	52.487	-137.040	-55.676	-75.239	-141.021	-46.934	12.954	-141.146	-136.581	-28.696	-9.947	-137.107	-132.913	-132.222	-127.575	-7.256	-128.135	-8191	255	
848.276	1	1	0	0	0.29648	0.167	0.10779	0.16213	0.20063	0.12024	0.063298	0.19925	0.29322	0.11033	0.4247	0.12251	0.13382	0.1574	0.18782	0.18901	-3.0062	-3.7104	-3.9667	-3.5	-3.9625	-3.7146	-3.5542	-4.2396	-3.5604	-3.7188	-4.0854	-3.3521	-4.1062	-3.7583	-3.3833	-4.3646	-85.769	-78.864	-113.841	161.496	-76.394	-133.778	172.930	159.645	-137.445	40.681	143.183	67.729	-96.039	-108.850	-145.393	25.366	0.00035587	0.00045257	0.00011954	1348.9	2.9276e-06	3.9873e-06	1339.9	361.96	4.1544e-06	4.4003e-06	414.38	137.13	119.2	41.364	3.4595e-06	50.471	0.00046244	0.00045664	0.00012929	1361	5.1208e-06	4.9914e-06	1358	368.98	5.2436e-06	5.0805e-06	421.97	141.22	122.82	42.378	5.1886e-06	52.491	-127.860	-92.385	-55.350	-140.901	-16.162	8.480	-140.979	-136.498	-44.792	-8.002	-136.731	-132.918	-132.237	-127.581	-8.287	-128.237	-8191	255	
848.372	1	1	0	0	0.12399	0.065246	0.034707	0.16296	0.088529	0.20845	0.2954	0.13534	0.1531	0.095489	0.13645	0.14999	0.23593	0.233	0.040981	0.094697	-2.9437	-3.5667	-3.8292	-3.3896	-3.9062	-3.8271	-3.7354	-4.4667	-3.4167	-3.6708	-4.3625	-3.5104	-3.9833	-4.0896	-3.2542	-4.0979	142.789	114.196	104.426	168.222	157.028	-126.553	181.189	59.036	169.636	12.157	97.766	200.789	198.894	-87.898	107.647	194.763	0.00034233	0.00043523	0.00017188	1335.8	4.5592e-06	4.3807e-06	1317.3	354.34	3.2406e-06	6.8313e-06	410.69	136.75	118.56	41.112	4.1732e-06	51.26	0.00044391	0.00046186	0.00012787	1356.2	5.0015e-06	4.9781e-06	1353.3	367.06	5.0894e-06	4.9778e-06	421.14	141.35	122.64	42.286	5.1389e-06	52.578	-132.988	-71.533	-61.961	-140.732	-32.923	-10.706	-140.993	-136.328	-23.120	-0.055	-136.814	-132.975	-132.351	-127.463	-0.340	-127.631	-8191	255	
848.468	1	1	0	0	0.20305	0.12073	0.15899	0.27403	0.12611	0.068507	0.24021	0.18372	0.16891	0.098048	0.1066	0.14898	0.22586	0.28315	0.35432	0.19284	-3.2646	-3.5021	-4.1333	-3.4792	-3.8479	-4.0188	-3.55	-4.2667	-3.5021	-3.6146	-4.2396	-3.4292	-4.025	-4.0854	-3.25	-4.1375	125.388	-124.768	111.674	-149.748	-56.365	87.984	95.413	97.223	95.572	20.675	142.330	-147.554	137.037	172.599	126.400	34.982	0.00035983	0.00072833	0.00016656	1324.7	4.3427e-06	4.8092e-06	1323.9	356.5	3.6501e-06	3.9436e-06	410.27	137.03	118.94	41.252	5.0141e-06	50.745	0.00045038	0.00046448	0.00012521	1354.5	4.9965e-06	4.8743e-06	1355.1	367.52	5.0267e-06	5.1318e-06	421.44	141.45	122.56	42.394	5.0275e-06	52.496	-138.664	-73.690	-80.485	-140.928	-25.984	33.808	-141.057	-136.181	-3.683	-17.831	-136.497	-132.658	-131.830	-127.182	-14.893	-127.904	-8191	255	
848.564	1	1	0	0	0.16105	0.24658	0.20811	0.2936	0.022133	0.18335	0.27194	0.1331	0.10202	0.091526	0.15563	0.20641	0.066444	0.071369	0.024468	0.14044	-3.1688	-3.4125	-4.125	-3.4313	-3.8479	-3.9583	-3.6167	-4.1396	-3.8396	-3.3563	-4.3625	-3.4437	-3.8438	-4.2896	-3.1646	-4.1062	147.304	-147.391	97.964	162.334	-61.509	34.022	155.791	68.443	24.746	144.385	112.299	144.946	-121.226	28.805	155.288	119.313	0.00034474	0.00041751	0.00021148	1330.2	3.2913e-06	5.4252e-06	1319.8	355.8	4.8957e-06	3.939e-06	410.92	136.62	118.38	40.997	4.6437e-06	50.631	0.00044949	0.00043812	0.0001311	1353.8	5.1952e-06	4.9209e-06	1354.5	367.33	5.0692e-06	5.1518e-06	421.5	141.24	122.63	42.286	5.1601e-06	52.499	-133.704	-61.165	-70.443	-141.100	-12.366	-10.602	-140.928	-136.172	-27.035	-14.757	-136.399	-132.746	-131.828	-127.184	-24.736	-127.793	-8191	255	
848.683	1	1	0	0	0.27418	0.14335	0.13165	0.14075	0.19515	0.22859	0.3898	0.31031	0.042346	0.17288	0.20986	0.13139	0.28521	0.062269	0.045427	0.087104	-3.3187	-3.4542	-4.1875	-3.7062	-3.6813	-4.2042	-3.5708	-3.9813	-3.8979	-3.4542	-4.2354	-3.625	-3.6083	-4.1771	-3.5438	-3.8896	-138.730	159.239	-76.070	-102.145	141.851	91.940	160.195	160.417	42.246	-76.991	128.409	191.537	101.763	192.486	43.708	61.124	0.00036085	0.00058164	0.00017638	1331.4	2.117e-06	5.5285e-06	1318.4	356.81	4.0917e-06	4.3307e-06	409.72	135.29	118.01	40.795	4.6923e-06	50.825	0.00044537	0.0004558	0.00012341	1355.4	5.1153e-06	4.74e-06	1353.1	367.16	4.7937e-06	4.9482e-06	420.79	140.96	122.52	42.218	5.0661e-06	52.44	-136.910	-58.226	-52.435	-140.374	7.663	-7.155	-140.780	-135.961	-35.440	-14.651	-136.823	-132.599	-132.065	-127.408	-7.988	-127.726	-8191	255	
848.779	1	1	0	0	0.17437	0.15407	0.047641	0.2292	0.1775	0.037289	0.067642	0.27932	0.16273	0.24275	0.070164	0.14346	0.30933	0.23164	0.20078	0.079758	-3.5687	-3.2667	-4.1062	-3.7583	-3.4938	-4.1875	-3.5917	-3.8458	-3.9417	-3.2958	-4.1354	-3.7292	-3.4813	-4.0188	-3.4583	-3.8104	58.346	-52.755	-35.215	-91.414	40.885	63.842	174.968	134.902	116.856	165.983	168.833	184.562	-153.432	31.003	87.722	-127.293	0.00037563	0.00064474	9.5317e-05	1335	3.058e-06	5.0532e-06	1323	357.37	3.8202e-06	5.5668e-06	411.56	135.95	118.52	41.025	1.8023e-06	50.63	0.00043722	0.00045643	0.00012623	1357.4	5.1635e-06	4.7394e-06	1354.6	368.12	4.931e-06	4.9478e-06	421.5	141.04	122.49	42.298	5.0307e-06	52.455	-133.267	-46.818	-94.019	-140.815	-39.739	-17.554	-140.842	-136.184	-35.494	8.850	-136.447	-132.822	-131.961	-127.493	-46.955	-127.821	-8191	255	
848.875	1	1	0	0	0.19982	0.063714	0.048821	0.16293	0.24145	0.12073	0.10134	0.078246	0.026833	0.31194	0.067477	0.12652	0.14602	0.15226	0.18542	0.09691	-3.7125	-3.0563	-4.0521	-3.8354	-3.4146	-4.1438	-3.8063	-3.9375	-3.9521	-3.3812	-4.2021	-3.8958	-3.4479	-4.0708	-3.4875	-3.5396	129.879	-44.385	-55.301	150.371	-35.961	-0.147	-100.862	82.316	136.642	-146.652	174.278	181.653	123.565	149.728	183.583	-22.130	0.00037667	0.00044205	0.00014322	1338.8	2.8704e-06	5.1412e-06	1320.5	356.35	3.9983e-06	4.9303e-06	408.68	135.75	118.32	40.939	3.4284e-06	50.628	0.00042908	0.00044507	0.00012438	1357.6	5.0445e-06	4.8454e-06	1354.2	367.66	4.8732e-06	5.0258e-06	420.42	141.02	122.49	42.275	5.2553e-06	52.429	-136.574	-58.219	-35.700	-140.617	5.223	-12.046	-140.744	-136.153	-25.532	-11.916	-136.884	-132.970	-132.437	-127.503	-31.251	-127.882	-8191	255	
848.996	1	1	0	0	0.045797	0.29154	0.049691	0.19015	0.21006	0.071378	0.23473	0.12437	0.23089	0.25113	0.10903	0.13906	0.12061	0.089972	0.086515	0.12862	-3.7354	-3.2167	-3.8937	-4.1375	-3.4625	-4.0687	-3.6896	-3.8375	-4.0583	-3.4437	-4.1104	-3.9667	-3.6063	-4.375	-3.675	-3.8083	97.611	-117.328	48.147	169.045	109.408	-21.104	100.579	95.646	184.317	64.154	-141.508	156.155	151.881	-152.657	149.029	140.184	0.00034958	0.00044312	0.00018267	1324.4	4.1824e-06	2.5517e-06	1311.8	355.83	3.8973e-06	5.0166e-06	409.1	135.07	117.44	40.684	5.7142e-06	50.88	0.00043317	0.00045989	0.00012427	1354.2	5.2106e-06	4.9212e-06	1352.1	367.33	4.9867e-06	4.8448e-06	421.03	140.76	122.28	42.241	5.0728e-06	52.527	-135.774	-92.759	-69.895	-140.975	-11.259	-45.336	-141.027	-136.235	-38.864	-18.065	-137.138	-132.897	-132.056	-127.384	-21.016	-127.647	-8191	255	
849.068	1	1	0	0	0.1082	0.12572	0.20234	0.45931	0.1035	0.082674	0.15574	0.060757	0.06444	0.20203	0.1924	0.060269	0.21749	0.19142	0.23696	0.12402	-3.8187	-3.3854	-3.85	-4.1167	-3.3187	-4.0312	-4.0062	-3.6542	-4.0938	-3.325	-3.8187	-4.2854	-3.475	-4.1146	-3.8458	-3.6417	12.726	-152.352	-129.524	-150.506	84.705	87.448	88.548	187.556	92.189	9.076	168.887	177.678	-139.375	-136.162	147.760	163.692	0.00035253	0.00056737	0.00016892	1331.6	5.0936e-06	3.214e-06	1320.7	357.89	3.8506e-06	3.0085e-06	411	135.78	118.97	41.155	3.1806e-06	50.64	0.00043511	0.00045577	0.00012175	1355.3	5.0002e-06	4.8654e-06	1351.7	367.48	4.9283e-06	5.0468e-06	421.55	140.87	122.58	42.405	5.0281e-06	52.507	-136.512	-75.467	-66.923	-140.762	-15.322	-2.078	-140.878	-136.120	-24.339	4.538	-136.709	-132.785	-132.218	-127.183	-40.836	-127.770	-8191	255	
849.164	1	1	0	0	0.24405	0.075701	0.10034	0.080623	0.098035	0.12474	0.42856	0.14263	0.059472	0.27489	0.18025	0.22397	0.079876	0.10635	0.16477	0.47549	-3.6771	-3.6521	-3.575	-4.1479	-3.3563	-3.9458	-4.0188	-3.5854	-4.2063	-3.5375	-3.8167	-4.25	-3.3208	-4.0917	-3.8917	-3.4729	-137.595	-104.766	-39.288	111.108	-76.396	191.847	130.419	138.314	6.582	-128.607	-148.919	154.556	186.176	52.405	195.193	103.627	0.00037256	0.00045936	0.00011088	1331.3	4.0163e-06	3.8552e-06	1320.2	357.82	3.795e-06	2.3406e-06	408.34	136.21	118.76	41.021	4.8862e-06	50.861	0.00044224	0.00043818	0.00012315	1355.5	5.1399e-06	4.76e-06	1353.3	367.68	5.0533e-06	5.0192e-06	420.25	141.27	122.61	42.357	4.9044e-06	52.474	-134.753	-58.075	-71.929	-141.011	-12.033	21.712	-141.209	-136.520	-13.830	6.544	-136.933	-133.006	-132.461	-127.117	-29.340	-127.870	-8191	255	
849.260	1	1	0	0	0.34967	0.11523	0.090377	0.24646	0.040851	0.10095	0.14456	0.17347	0.14653	0.24364	0.1338	0.22712	0.23637	0.095701	0.28194	0.23974	-3.8708	-3.5083	-3.4833	-4.375	-3.3146	-3.7729	-4.0167	-3.4292	-4.1312	-3.5833	-3.5	-4.2646	-3.4646	-3.8688	-4.1125	-3.5229	78.939	-0.885	-121.478	125.642	117.457	-3.729	-104.615	88.618	-23.949	-85.621	178.500	146.466	193.066	-143.398	-102.622	51.075	0.00038453	0.00053224	0.00014692	1326.2	4.9738e-06	3.8656e-06	1325.6	359.97	5.1438e-06	6.0012e-06	413.61	137.38	119.13	41.308	3.8924e-06	51.067	0.00043856	0.0004522	0.0001273	1352.1	4.9436e-06	4.7992e-06	1355	368.05	5.0173e-06	4.9825e-06	422.17	141.24	122.65	42.426	4.8282e-06	52.508	-136.175	-90.433	-78.966	-140.944	-43.657	26.603	-141.154	-136.500	-39.251	-2.733	-136.893	-132.807	-132.130	-127.228	2.494	-128.029	-8191	255	
849.381	1	1	0	0	0.080049	0.15346	0.077369	0.25793	0.22167	0.035233	0.057314	0.24938	0.099763	0.16938	0.10235	0.22303	0.17088	0.17751	0.14146	0.17946	-3.7854	-3.6229	-3.3875	-4.2479	-3.3042	-3.7604	-4.2937	-3.5187	-4.1062	-3.8375	-3.575	-4.3021	-3.5729	-3.75	-4.2521	-3.4958	-138.680	184.775	169.531	129.612	40.292	169.428	-14.251	184.423	109.070	-32.703	-77.691	44.864	201.300	183.289	-58.335	103.443	0.00036114	0.0004236	0.00015173	1335.6	3.1066e-06	5.1847e-06	1330.8	360.28	3.2338e-06	3.1689e-06	414.56	136.84	119.16	41.114	3.6937e-06	50.504	0.00044	0.00045431	0.00012494	1355.1	4.975e-06	4.8873e-06	1354.9	368.04	5.0105e-06	4.8392e-06	421.79	141.41	122.49	42.334	4.7893e-06	52.415	-133.153	-60.869	-75.136	-140.911	-4.562	3.369	-141.025	-136.223	-10.587	-26.896	-136.376	-132.832	-132.081	-127.148	-36.988	-127.929	-8191	255	
849.475	1	1	0	0	0.14317	0.066941	0.15665	0.17776	0.089938	0.10791	0.26581	0.37068	0.17615	0.09035	0.15965	0.14809	0.35592	0.08751	0.056264	0.072038	-3.7875	-3.6937	-3.4167	-4.2958	-3.4062	-3.6104	-4.2542	-3.4792	-3.9188	-3.9646	-3.5708	-4.1396	-3.7042	-3.6562	-4.0583	-3.4917	-59.089	78.614	-134.685	179.533	-128.493	-41.809	121.330	75.332	18.856	-49.818	-134.660	-89.381	169.967	-138.039	138.288	-136.192	0.00036166	0.00044422	0.00015204	1319.5	2.6515e-06	5.2295e-06	1318.7	357.18	2.7393e-06	4.2812e-06	408.53	135.53	118.46	40.849	4.2647e-06	50.377	0.00044852	0.00043702	0.00012802	1352.7	5.094e-06	4.8265e-06	1352.5	367.45	5.0402e-06	4.9735e-06	420.92	141.05	122.57	42.264	4.9383e-06	52.289	-133.561	-79.644	-89.374	-140.874	-25.092	-14.808	-140.924	-136.698	-38.278	-18.019	-137.031	-132.847	-132.281	-127.223	-32.966	-127.784	-8191	255	
849.571	1	1	0	0	0.04962	0.077817	0.20587	0.20468	0.04389	0.20722	0.22582	0.38843	0.35545	0.14887	0.17541	0.11029	0.089634	0.12485	0.12438	0.029484	-3.3979	-4.0104	-3.3229	-4.2458	-3.7083	-3.7375	-4.325	-3.6	-3.7771	-3.9021	-3.4875	-4.1646	-3.7812	-3.4562	-4.2	-3.6208	-151.596	-45.833	111.053	138.128	-76.669	18.481	65.760	165.370	-89.377	139.991	183.927	128.817	183.702	21.060	28.335	192.352	0.00034509	0.00048492	0.0001772	1323.7	2.8507e-06	5.3201e-06	1324.8	359.63	2.3311e-06	4.8228e-06	410.82	136.99	118.19	41.046	4.5396e-06	51.087	0.00044583	0.00043744	0.00012825	1354.1	5.0574e-06	5.0402e-06	1353.7	368.14	5.039e-06	4.9362e-06	421.01	141.18	122.52	42.295	4.8915e-06	52.507	-136.026	-70.520	-71.355	-140.854	-13.974	4.006	-140.790	-136.382	-25.303	-22.632	-136.852	-132.718	-132.147	-127.225	-15.891	-127.832	-8191	255	
849.645	1	1	0	0	0.082249	0.20862	0.14984	0.2607	0.20704	0.042621	0.25683	0.12668	0.16633	0.043392	0.084669	0.15661	0.23866	0.083906	0.1737	0.11974	-3.3896	-4.0437	-3.2771	-4.0312	-3.7062	-3.5021	-4.4021	-3.5792	-3.7167	-4.1375	-3.5604	-4.0917	-3.9646	-3.2958	-4.1583	-3.5875	-57.090	-62.762	-150.031	204.582	90.876	178.239	124.427	83.136	-26.966	170.977	48.628	159.818	-126.986	173.935	29.800	187.501	0.00035718	0.00071008	0.00012568	1332.7	3.0408e-06	4.3692e-06	1324.6	357.72	2.5544e-06	3.3635e-06	410.3	135.83	118.74	40.918	3.2181e-06	50.318	0.0004596	0.00043756	0.00013129	1353.8	5.019e-06	4.9309e-06	1353.2	367.42	5.12e-06	4.8285e-06	420.63	141.18	122.42	42.256	4.9263e-06	52.4	-134.257	-70.499	-64.012	-140.744	-41.022	-7.559	-141.048	-136.478	-19.133	-9.520	-136.641	-132.805	-132.438	-127.554	-10.077	-128.277	-8191	255	
849.764	1	1	0	0	0.19873	0.16364	0.020232	0.13364	0.12983	0.13382	0.033629	0.10999	0.15562	0.22798	0.3137	0.12833	0.30859	0.060837	0.21246	0.085239	-3.3083	-4.1188	-3.3854	-4.0188	-3.9146	-3.3125	-4.2583	-3.8438	-3.5708	-4.0896	-3.4042	-3.8854	-4.0792	-3.5083	-4.1479	-3.6604	179.101	38.406	143.322	180.396	-59.641	155.828	-146.715	170.891	-26.798	-13.545	170.121	156.067	163.071	-56.971	29.807	203.476	0.00035877	0.00049258	0.00011832	1324.5	3.4834e-06	5.2276e-06	1335.1	359.97	3.9344e-06	3.7736e-06	413.69	137.01	119.44	41.017	4.5425e-06	50.832	0.00043494	0.00042482	0.00012696	1352.2	4.9836e-06	4.9538e-06	1356.1	367.46	5.0215e-06	4.9362e-06	420.93	141.12	122.73	42.269	4.9956e-06	52.491	-135.099	-63.043	-70.989	-140.924	-34.591	-23.338	-140.838	-136.312	-45.733	15.730	-136.741	-132.895	-132.307	-127.446	-14.339	-128.112	-8191	255	
849.860	1	1	0	0	0.32232	0.22677	0.097803	0.32456	0.13776	0.077257	0.23198	0.14636	0.23357	0.21387	0.074597	0.27441	0.13916	0.11225	0.12667	0.091323	-3.1042	-4.0542	-3.3125	-3.95	-3.8708	-3.2687	-4.4083	-3.7687	-3.3375	-4.2937	-3.5875	-3.7479	-4.2708	-3.4604	-3.9604	-3.8667	122.715	113.499	81.836	146.364	-9.339	62.030	-148.248	165.606	-134.773	146.537	20.035	202.273	171.639	196.394	-84.992	45.447	0.00036648	0.00037228	0.00016691	1333.6	4.4313e-06	5.3613e-06	1329.8	359.39	3.9283e-06	4.2239e-06	412.33	136.76	119.59	41.119	3.6861e-06	51.031	0.00044843	0.00043988	0.00013124	1355.1	5.1125e-06	5.1985e-06	1355.2	367.81	5.0952e-06	4.9012e-06	420.85	141.21	122.64	42.281	4.9525e-06	52.465	-137.740	-86.114	-72.261	-140.812	-20.372	6.326	-140.953	-136.592	-28.455	-3.140	-137.086	-133.211	-132.361	-127.685	-15.911	-128.333	-8191	255	
849.956	1	1	0	0	0.20292	0.18013	0.14438	0.24757	0.11741	0.11668	0.27593	0.39333	0.11333	0.15835	0.034822	0.26729	0.22891	0.089587	0.24015	0.04698	-3.0229	-4.1708	-3.3917	-3.8917	-4.0938	-3.2208	-4.0646	-3.8937	-3.3375	-4.0854	-3.625	-3.6813	-4.1792	-3.4583	-3.875	-4.2375	134.953	119.621	-74.370	157.203	-16.849	100.276	141.742	197.393	-60.444	191.495	-48.408	201.897	-152.461	125.253	52.324	93.572	0.00035336	0.00048864	0.00013831	1335.9	3.5539e-06	4.0448e-06	1324.7	358.45	3.9377e-06	5.6658e-06	412.42	137.15	118.97	41.031	3.5338e-06	50.719	0.00044017	0.00044414	0.00013014	1354.9	4.9815e-06	4.9634e-06	1353.8	367.26	5.135e-06	4.8112e-06	421.53	141.3	122.69	42.288	5.0465e-06	52.463	-136.930	-67.687	-92.067	-141.027	-9.719	-2.970	-141.203	-136.865	-40.228	-17.670	-137.069	-132.949	-132.578	-127.743	-16.318	-128.364	-8191	255	
850.076	1	1	0	0	0.11179	0.041846	0.10244	0.29896	0.16886	0.085028	0.13431	0.26545	0.1031	0.08591	0.14443	0.20019	0.28658	0.23216	0.11871	0.16223	-3.0167	-4.2146	-3.4188	-3.8042	-3.9333	-3.2958	-3.9792	-3.9479	-3.3917	-4.0396	-3.7583	-3.5625	-4.3875	-3.5	-3.8396	-3.9896	60.984	-107.456	49.094	-154.801	133.081	169.262	181.808	134.726	22.485	158.341	143.253	188.325	172.035	22.758	174.903	81.805	0.00034173	0.00064031	0.00021005	1335.4	3.0681e-06	4.8834e-06	1323.6	357.99	3.9698e-06	3.0122e-06	410.99	137.07	119.19	41.107	3.2806e-06	50.685	0.00045738	0.00044957	0.00012515	1356.6	5.0445e-06	4.9342e-06	1353.6	367.44	5.1796e-06	4.7655e-06	420.7	141.31	122.7	42.316	4.9699e-06	52.377	-134.594	-78.352	-72.804	-140.974	-11.765	14.864	-141.150	-136.824	-41.437	-0.076	-137.513	-133.077	-132.185	-127.732	-20.557	-128.500	-8191	255	
850.173	1	1	0	0	0.099764	0.14044	0.11349	0.26276	0.16089	0.097508	0.10321	0.030735	0.28378	0.14942	0.24647	0.14607	0.28999	0.31567	0.31519	0.23625	-3.0792	-3.8604	-3.825	-3.5396	-4.0396	-3.5167	-3.9021	-4.1875	-3.2	-4.1813	-3.9583	-3.5375	-4.1333	-3.5625	-3.6229	-4.1062	167.932	-86.546	-50.140	-99.261	141.324	112.245	-100.610	58.974	-153.856	153.000	-150.846	-119.007	198.571	169.999	-48.483	21.780	0.00036765	0.00033741	0.00018655	1333.2	3.0327e-06	2.8583e-06	1330.6	358.39	5.2047e-06	5.5971e-06	410.49	136.8	118.99	41.108	4.0228e-06	50.756	0.00045078	0.00044909	0.00012746	1356.1	4.927e-06	5.0532e-06	1356.8	367.92	4.9726e-06	4.8822e-06	420.82	141.21	122.78	42.296	5.006e-06	52.441	-134.258	-104.482	-57.400	-141.132	-6.875	17.145	-141.155	-136.645	-37.937	4.763	-136.988	-133.313	-132.494	-127.999	-4.871	-128.527	-8191	255	
850.269	1	1	0	0	0.26188	0.13239	0.11089	0.072282	0.19858	0.11195	0.049875	0.30306	0.1259	0.064752	0.18161	0.14802	0.125	0.28803	0.15815	0.081692	-2.9667	-3.9083	-3.7229	-3.5583	-4.2146	-3.5896	-3.7	-4.3083	-3.3458	-3.8146	-4.0146	-3.5125	-4.0458	-3.6521	-3.5229	-4.1771	69.353	73.141	134.360	-16.504	36.914	203.568	195.044	149.116	-126.966	-135.601	65.888	153.169	-117.678	191.658	111.618	-127.248	0.00036531	0.00072858	0.00018406	1337.9	3.9149e-06	4.3107e-06	1328.4	359.97	4.807e-06	3.697e-06	411.68	136.4	118.33	41.007	3.7286e-06	50.639	0.00044053	0.00043976	0.00012151	1358.1	4.9261e-06	4.881e-06	1355.2	367.28	5.1377e-06	4.8148e-06	421.17	141.26	122.48	42.248	4.9845e-06	52.348	-132.730	-76.529	-62.055	-141.205	-10.855	-16.302	-141.282	-136.531	-33.451	-20.147	-137.077	-133.191	-132.236	-127.805	-13.127	-128.214	-8191	255	
850.365	1	1	0	0	0.21119	0.20839	0.1997	0.22358	0.1343	0.06887	0.094143	0.24436	0.08531	0.10534	0.21406	0.15466	0.27336	0.26081	0.10898	0.21351	-2.8063	-3.7375	-4.0271	-3.5812	-4.1167	-3.6667	-3.6833	-4.3667	-3.2896	-3.725	-4.1417	-3.4271	-4.0708	-3.8604	-3.4146	-4.2771	21.640	-72.628	190.920	182.575	-8.727	-104.441	16.127	106.176	133.851	41.039	66.978	138.832	-149.755	-112.573	-151.244	66.102	0.00034309	0.00048257	0.00014387	1340.2	3.0613e-06	3.7183e-06	1325.6	359.34	5.4082e-06	4.6186e-06	412.11	136.95	119.19	41.333	4.9556e-06	50.735	0.00044721	0.00044781	0.00012469	1358.5	4.9114e-06	4.8514e-06	1355.4	367.94	5.0041e-06	4.9752e-06	421.33	141.31	122.59	42.347	5.1905e-06	52.449	-136.991	-46.886	-51.300	-141.064	-1.296	16.327	-141.014	-136.692	-48.160	-1.480	-137.008	-132.869	-132.564	-127.695	-16.028	-128.341	-8191	255	
850.461	1	1	0	0	0.1199	0.084635	0.1031	0.1483	0.12112	0.15116	0.26882	0.38787	0.10036	0.11626	0.2957	0.16772	0.25394	0.14101	0.069925	0.23546	-3.2333	-3.6083	-4.2021	-3.4521	-4.1021	-3.9479	-3.6104	-4.2271	-3.5563	-3.6333	-4.0958	-3.4479	-4.1042	-3.9396	-3.35	-4.2875	-25.402	-93.511	24.299	145.853	51.095	32.394	134.097	141.041	-149.349	135.182	-132.199	86.013	-122.095	-151.650	-63.347	124.367	0.00037953	0.00044241	0.00014877	1335.4	3.2729e-06	4.3401e-06	1327.3	358.4	4.388e-06	4.1319e-06	411.92	136.93	119.14	41.327	4.0529e-06	50.835	0.00044247	0.00044248	0.00012195	1355.9	5.0245e-06	4.762e-06	1354.5	367.38	4.8928e-06	4.9875e-06	420.82	141.23	122.57	42.365	5.0155e-06	52.435	-132.719	-74.484	-52.123	-141.137	-27.579	-9.649	-141.296	-136.597	-15.948	-4.849	-137.537	-133.320	-132.578	-127.978	-41.935	-128.292	-8191	255	
850.557	1	1	0	0	0.14789	0.16035	0.17454	0.3017	0.10269	0.039523	0.17234	0.053437	0.057152	0.22956	0.092486	0.16152	0.19788	0.20565	0.15259	0.21335	-3.2479	-3.5625	-3.9542	-3.4042	-3.9396	-3.9146	-3.4667	-4.1062	-3.5062	-3.7188	-4.2375	-3.55	-3.9125	-4.1542	-3.3917	-3.9333	-141.806	13.982	-69.813	186.891	198.311	131.207	85.165	123.509	160.454	104.910	47.543	108.077	197.144	166.482	-146.353	-133.298	0.00036299	0.00057135	0.00012334	1336.6	2.4959e-06	4.8862e-06	1332.3	360.55	4.7116e-06	5.3431e-06	409.77	136.9	118.41	40.938	4.8285e-06	50.575	0.00044247	0.00045273	0.00011796	1354.4	5.0867e-06	4.7011e-06	1353.8	367.92	5.0148e-06	5.0055e-06	420.67	141.09	122.47	42.224	4.9718e-06	52.393	-132.545	-80.881	-53.352	-141.445	-14.243	-11.538	-141.445	-136.789	-15.478	2.766	-137.731	-133.540	-132.504	-127.930	-8.097	-128.567	-8191	255	
850.676	1	1	0	0	0.31678	0.1845	0.08966	0.18291	0.12817	0.15412	0.2546	0.16687	0.06558	0.29312	0.1405	0.1537	0.25299	0.26456	0.18209	0.23337	-3.2396	-3.5646	-4.0375	-3.6208	-3.9625	-4.1167	-3.4729	-4.2708	-3.6937	-3.6667	-4.2708	-3.3958	-3.7167	-4.2042	-3.2167	-4.1	54.490	-80.427	-75.068	174.471	-64.665	-77.291	126.549	-147.610	-6.899	-90.532	171.095	-148.743	145.773	-145.703	93.774	118.396	0.00036244	0.00049152	0.00017513	1319.1	4.8637e-06	5.0495e-06	1312.8	358.62	3.2165e-06	4.3096e-06	410.62	135.86	118.04	40.712	3.456e-06	50.603	0.00044647	0.00043657	0.00012028	1350.6	5.0848e-06	4.9455e-06	1348.9	367.81	4.9726e-06	4.9822e-06	420.32	140.99	122.32	42.218	4.9959e-06	52.391	-133.761	-85.502	-64.534	-141.792	-10.643	-9.681	-141.668	-137.162	-17.349	-17.025	-137.638	-133.429	-132.951	-128.387	-18.101	-128.819	-8191	255	
850.772	1	1	0	0	0.15884	0.14039	0.2762	0.12293	0.077766	0.018429	0.18544	0.19695	0.25321	0.12171	0.133	0.22338	0.1584	0.09255	0.29031	0.13641	-3.1562	-3.2729	-4.0167	-3.5354	-3.5062	-4.1167	-3.5062	-3.9604	-3.8	-3.2625	-4.2854	-3.6625	-3.7125	-4.2354	-3.2604	-4.1208	-128.653	149.556	-20.721	86.977	-11.775	31.222	89.232	118.405	-150.709	167.612	146.647	155.996	-79.103	167.338	74.206	136.459	0.00038531	0.00069876	0.00014376	1324.8	4.0923e-06	3.9912e-06	1314.2	358.23	3.6176e-06	3.2074e-06	410.18	135.18	118.54	40.814	4.1422e-06	50.062	0.00044641	0.00046514	0.00012104	1351.9	5.0073e-06	4.737e-06	1351.5	367.64	4.9295e-06	5.0302e-06	421	140.69	122.62	42.237	4.9506e-06	52.265	-136.131	-76.256	-78.920	-141.801	-12.714	3.983	-141.952	-137.007	-20.987	-9.182	-137.923	-133.824	-133.211	-128.042	-16.176	-128.916	-8191	255	
850.868	1	1	0	0	0.080177	0.14088	0.069716	0.24682	0.28581	0.19721	0.15635	0.30152	0.13416	0.037295	0.26783	0.1363	0.082502	0.27253	0.17498	0.036827	-3.6667	-3.3271	-4	-3.6688	-3.6188	-4.2292	-3.5146	-3.8812	-4.0563	-3.3396	-4.2646	-3.7333	-3.4854	-4.2688	-3.2438	-3.675	28.404	198.055	83.915	163.985	-71.502	-68.207	-132.179	160.177	-152.213	37.497	70.175	108.902	-122.942	113.521	50.037	-8.582	0.00036178	0.00051561	0.00013554	1319.4	3.9685e-06	3.332e-06	1311.6	356.96	3.8416e-06	3.3226e-06	408.02	136.02	118.66	41.175	3.385e-06	50.811	0.0004386	0.00043663	0.00011612	1349.8	4.9673e-06	4.5635e-06	1348.2	367.21	4.8527e-06	4.8015e-06	419.57	140.97	122.54	42.323	5.0323e-06	52.426	-136.968	-67.861	-72.253	-141.941	-19.675	-2.173	-141.898	-137.108	-13.561	-14.357	-137.887	-133.851	-132.928	-128.160	-27.125	-128.844	-8191	255	
850.940	1	1	0	0	0.020937	0.21885	0.090803	0.24197	0.25255	0.14912	0.061819	0.13703	0.1273	0.062072	0.28153	0.16566	0.21931	0.21295	0.18799	0.057142	-3.6917	-3.1646	-3.9042	-3.8625	-3.3312	-4.1458	-3.7812	-3.8854	-3.8479	-3.2729	-4.0354	-3.9083	-3.2854	-4.3063	-3.6417	-3.5792	147.662	116.352	-84.372	165.309	64.049	0.767	120.227	147.230	115.951	168.767	25.957	-137.302	149.023	-126.518	183.328	12.284	0.00036184	0.00066938	0.00014044	1341.1	3.7897e-06	4.4905e-06	1334.3	361.18	3.6823e-06	4.9968e-06	412.75	137.31	119.51	41.212	4.2668e-06	50.896	0.00044021	0.00044593	0.00011916	1355.4	4.9938e-06	4.8301e-06	1352.9	368	4.9117e-06	4.9058e-06	421.38	141.01	122.76	42.307	4.8775e-06	52.519	-132.441	-73.669	-71.567	-141.523	-4.798	-9.260	-142.006	-137.176	-7.969	-9.853	-137.750	-133.766	-133.093	-128.101	-10.406	-128.713	-8191	255	
851.061	1	1	0	0	0.11324	0.1101	0.17851	0.37495	0.18211	0.20539	0.33571	0.17249	0.16193	0.098047	0.11718	0.050407	0.20842	0.14795	0.040818	0.11835	-3.7792	-3.3979	-3.8917	-3.9625	-3.4188	-4.025	-3.8333	-3.7771	-4.0229	-3.2771	-4.0896	-3.9708	-3.2625	-4.0521	-3.8	-3.6917	118.858	-50.405	-39.284	199.655	174.584	35.200	104.776	101.254	63.623	161.390	-144.807	-65.175	144.713	24.483	103.223	25.413	0.00034947	0.00060049	0.00017808	1335.2	2.1668e-06	4.1696e-06	1328.8	360.54	2.9328e-06	4.2624e-06	414.12	137.55	119.51	41.256	3.6395e-06	51.042	0.00043374	0.00044054	0.00012478	1352.6	4.9636e-06	4.5711e-06	1353.6	368.11	4.901e-06	4.8042e-06	421.88	141.31	122.73	42.338	4.899e-06	52.431	-135.934	-79.967	-74.721	-141.848	-27.238	-4.279	-141.969	-137.082	-41.495	-27.124	-137.742	-133.630	-132.878	-128.166	-28.663	-128.866	-8191	255	
851.157	1	1	0	0	0.16712	0.30123	0.059025	0.11853	0.077396	0.080047	0.28301	0.18481	0.15496	0.20536	0.12248	0.18994	0.17176	0.083054	0.23839	0.18754	-3.7354	-3.4021	-3.9813	-4	-3.2333	-4.0542	-3.8771	-3.6688	-4.1583	-3.3229	-3.7292	-4.1271	-3.5333	-4.0167	-3.6896	-3.4833	-103.555	-149.993	10.183	123.845	47.625	-112.809	137.152	103.155	-93.018	-54.219	-36.898	159.870	88.733	-57.923	111.587	-52.844	0.00038461	0.000514	0.00017149	1338.9	4.2385e-06	5.7319e-06	1327.4	360.5	4.682e-06	6.0034e-06	415.03	137.47	118.87	41.302	3.3114e-06	50.979	0.00043522	0.00043493	0.00011903	1355.7	4.9569e-06	4.7151e-06	1354.7	367.98	4.894e-06	5.0412e-06	422.29	141.38	122.5	42.313	4.7586e-06	52.464	-137.803	-70.469	-82.687	-141.738	-20.570	-38.363	-141.804	-137.036	-31.464	-3.118	-137.486	-133.816	-133.043	-128.009	-13.364	-128.524	-8191	255	
851.253	1	1	0	0	0.14144	0.082016	0.15362	0.15243	0.23208	0.12448	0.098886	0.16154	0.21168	0.12244	0.08533	0.23919	0.27457	0.098235	0.13044	0.3016	-3.7083	-3.3	-3.5667	-4.1771	-3.2917	-3.9333	-3.9271	-3.4979	-4.1062	-3.5958	-3.6979	-4.0625	-3.4958	-4.1188	-3.8583	-3.35	159.280	100.703	143.890	182.973	26.242	-7.862	55.149	106.077	-100.246	-60.817	69.123	133.463	-87.171	173.562	7.575	101.698	0.00036202	0.00039529	0.00014624	1321.6	3.2272e-06	3.9501e-06	1315	357.16	2.9906e-06	5.3413e-06	410.13	136.06	118.15	40.829	3.153e-06	50.933	0.00043593	0.00042288	0.0001199	1353.3	4.9455e-06	4.7344e-06	1353.8	367.43	4.8218e-06	4.6892e-06	420.74	141.12	122.38	42.296	4.5915e-06	52.46	-134.186	-68.374	-87.848	-142.023	-5.614	-23.842	-142.218	-137.445	-37.435	-17.682	-137.885	-133.948	-133.174	-128.235	-10.399	-128.999	-8191	255	
851.349	1	1	0	0	0.07906	0.041722	0.1644	0.21476	0.051689	0.23475	0.32436	0.20981	0.040998	0.17792	0.071396	0.097012	0.10875	0.22885	0.085333	0.22081	-3.7833	-3.4417	-3.4062	-4.2229	-3.4104	-4.1292	-4.225	-3.3979	-4.1917	-3.5667	-3.7292	-4.4125	-3.475	-3.8521	-4.0687	-3.3875	-137.421	-77.220	176.983	115.546	177.140	-127.926	184.385	-118.160	-153.910	145.223	176.758	91.113	-26.094	-82.242	-113.963	145.703	0.00034837	0.00063178	0.00012539	1338.9	3.048e-06	2.4013e-06	1319.3	356.46	4.3109e-06	4.6363e-06	409.24	137.27	119.6	41.036	2.4923e-06	51.122	0.00042031	0.00041978	0.00011536	1355.9	4.7231e-06	4.3899e-06	1351.9	366.99	4.4986e-06	4.5042e-06	420.54	141.41	122.88	42.268	4.3747e-06	52.495	-133.698	-65.349	-60.939	-141.614	-42.231	33.494	-141.911	-137.402	-21.483	-6.231	-137.741	-133.711	-133.506	-128.195	-22.283	-129.032	-8191	255	
851.445	1	1	0	0	0.015017	0.16266	0.13194	0.254	0.032242	0.056144	0.26377	0.037863	0.099189	0.26548	0.40158	0.11098	0.11141	0.21041	0.15679	0.15966	-3.7167	-3.6646	-3.2917	-4.2417	-3.4167	-3.85	-4.1375	-3.5042	-3.9771	-3.7542	-3.6292	-4.2458	-3.6708	-3.7396	-3.9521	-3.3896	182.098	80.866	119.645	162.419	-10.279	-66.215	104.269	4.924	-80.356	78.945	115.316	45.463	140.122	150.897	110.948	196.483	0.00032669	0.00048356	9.9248e-05	1335.5	3.8331e-06	5.2606e-06	1313.3	355.96	3.6168e-06	4.7528e-06	408.14	135.97	118.86	41.126	3.2959e-06	50.496	0.00041477	0.00041087	0.00011523	1354.7	4.6093e-06	4.5552e-06	1351.7	366.61	4.5056e-06	4.4082e-06	420.22	141.06	122.6	42.312	4.5535e-06	52.399	-136.332	-54.727	-73.856	-141.797	-17.336	-18.480	-141.881	-137.417	-8.895	-19.225	-137.978	-133.905	-133.050	-128.054	-22.075	-128.783	-8191	255	
851.541	1	1	0	0	0.088998	0.20729	0.20311	0.15651	0.16058	0.096256	0.25845	0.27405	0.1045	0.080729	0.3451	0.050488	0.091714	0.12518	0.13004	0.053743	-3.6458	-3.7667	-3.4771	-4.2146	-3.5417	-3.5896	-4.2667	-3.4625	-3.8875	-3.975	-3.4333	-4.1937	-3.5687	-3.7208	-3.8729	-3.5833	63.090	-39.172	108.186	159.621	-35.756	5.099	132.168	147.369	96.981	-17.367	-144.253	-125.662	180.810	-116.396	181.773	0.207	0.00038465	0.00051581	0.000119	1321.2	3.4436e-06	6.112e-06	1315.4	356.67	3.3815e-06	4.9588e-06	408.7	136.19	118.39	40.877	4.5203e-06	50.971	0.0004147	0.00039873	0.00011854	1351.3	4.5143e-06	4.3793e-06	1349.9	366.88	4.4757e-06	4.5762e-06	420.43	141.08	122.43	42.286	4.4855e-06	52.467	-136.657	-77.981	-65.366	-141.909	-33.930	-8.134	-142.012	-137.313	-8.392	-5.091	-137.950	-133.973	-133.337	-128.199	-22.406	-129.150	-8191	255	
851.638	1	1	0	0	0.077437	0.15061	0.18941	0.22739	0.087992	0.13712	0.15466	0.28334	0.055549	0.07007	0.3034	0.11215	0.24212	0.19904	0.095007	0.20323	-3.6875	-3.9479	-3.225	-4.275	-3.6125	-3.5292	-4.4229	-3.4479	-3.6562	-4.0146	-3.475	-4.2	-3.8104	-3.4479	-4.0708	-3.4104	-57.103	34.119	47.957	199.928	145.589	-19.239	164.085	151.385	178.675	-135.016	163.735	76.371	95.697	151.668	-141.265	195.554	0.00038187	0.00047358	0.00017681	1333.4	2.9258e-06	4.9836e-06	1321.9	361.05	3.4871e-06	4.7069e-06	412.88	137.62	119.57	41.292	4.2323e-06	51.002	0.00042483	0.00038898	0.00011326	1354	4.5411e-06	4.5485e-06	1352.6	367.77	4.6946e-06	4.5102e-06	421.56	141.29	122.79	42.381	4.4311e-06	52.493	-129.709	-70.606	-68.075	-141.775	-15.712	19.841	-141.888	-137.433	-28.762	-24.843	-137.689	-133.844	-133.066	-128.282	-5.831	-128.992	-8191	255	
851.756	1	1	0	0	0.04582	0.15634	0.19664	0.35415	0.080494	0.11301	0.18996	0.10188	0.16909	0.069822	0.10523	0.14636	0.30796	0.26726	0.16088	0.30317	-3.4	-4.1021	-3.3417	-4.2479	-3.7562	-3.3479	-4.3708	-3.65	-3.6688	-4.0896	-3.4417	-4.0479	-3.8729	-3.6333	-4.1771	-3.6458	45.429	53.048	52.912	186.924	55.983	-29.490	200.584	-92.061	-154.626	197.667	194.615	169.074	115.348	-107.182	-37.188	188.186	0.0003729	0.00053083	0.00015155	1336.9	2.7467e-06	5.6997e-06	1324.7	357.75	3.9882e-06	4.6674e-06	412.89	137.1	119	41.172	4.8484e-06	50.782	0.00042301	0.00039629	0.00011792	1355.2	4.6502e-06	4.5036e-06	1351.8	367.44	4.824e-06	4.5242e-06	421.15	140.99	122.36	42.277	4.6247e-06	52.37	-137.725	-60.536	-60.988	-141.826	-5.712	-15.383	-141.630	-137.404	-28.940	-10.403	-137.886	-133.520	-133.138	-128.392	-8.248	-129.030	-8191	255	
851.853	1	1	0	0	0.24269	0.21762	0.24665	0.050915	0.11332	0.031833	0.23444	0.26524	0.043176	0.11546	0.2824	0.21075	0.23326	0.16294	0.085283	0.14538	-3.2042	-4.0104	-3.4229	-4.1625	-3.8229	-3.2958	-4.5708	-3.7583	-3.3812	-4.2396	-3.6146	-3.9188	-3.9979	-3.4667	-4.0979	-3.5938	-141.602	87.460	140.867	-58.814	108.106	-89.431	166.190	123.253	-50.607	27.993	197.299	106.910	-112.794	-94.732	-66.681	136.555	0.00034475	0.00054166	0.00018685	1336.1	2.9995e-06	3.7972e-06	1327.7	360.49	3.4854e-06	5.1301e-06	413.97	137.52	119.18	41.32	3.8006e-06	50.849	0.00042883	0.00040231	0.00012385	1353.2	4.7579e-06	4.7071e-06	1350.7	367.43	4.9249e-06	4.5919e-06	420.3	141.2	122.34	42.275	4.5681e-06	52.302	-135.512	-71.956	-86.458	-141.499	-30.268	-24.476	-141.677	-137.349	-30.647	-1.315	-137.627	-133.505	-133.116	-128.215	15.579	-128.696	-8191	255	
851.949	1	1	0	0	0.082911	0.11197	0.14526	0.22549	0.09826	0.16922	0.14199	0.32567	0.25171	0.094002	0.31328	0.24028	0.28275	0.086355	0.13179	0.16282	-3.2521	-4.2188	-3.4125	-4.0458	-3.9083	-3.2687	-4.3104	-3.7167	-3.5292	-4.3125	-3.6208	-3.8375	-4.0687	-3.2521	-3.9208	-3.7313	29.264	-110.930	55.887	143.519	-144.813	-47.901	118.361	101.624	-31.899	-106.220	119.171	-141.560	20.931	0.105	-132.108	87.683	0.00037251	0.00033811	0.00020653	1332.4	4.1868e-06	4.7388e-06	1315.5	358.61	4.2992e-06	5.5216e-06	412.45	136.42	117.89	40.958	4.0914e-06	50.783	0.00042636	0.00041731	0.00012009	1353.3	4.6718e-06	4.6822e-06	1348.9	367.03	4.8001e-06	4.5662e-06	421.43	140.96	122.14	42.146	4.614e-06	52.292	-135.739	-89.355	-72.279	-141.544	-14.370	0.772	-141.947	-137.335	-17.506	13.422	-137.783	-133.969	-133.236	-128.332	-35.496	-128.968	-8191	255	
852.045	1	1	0	0	0.23096	0.26966	0.25092	0.2752	0.12014	0.11918	0.12448	0.07653	0.18843	0.12692	0.21492	0.28449	0.032063	0.039211	0.097196	0.16889	-3.0375	-4.0417	-3.4146	-3.7479	-3.9792	-3.3125	-4.225	-3.9979	-3.3229	-4.1708	-3.5062	-3.7438	-4.2042	-3.425	-4	-3.9771	-117.720	-118.798	190.426	196.494	72.718	168.790	-145.592	93.369	66.333	84.262	186.160	144.087	164.366	145.623	121.557	111.328	0.00034858	0.00046441	0.00016685	1333.9	4.6158e-06	4.982e-06	1323.5	359.92	3.8404e-06	4.7598e-06	411.06	136.84	118.38	41.26	3.951e-06	50.824	0.00044404	0.0004233	0.00011931	1352.8	4.7511e-06	4.5661e-06	1351.1	367.46	4.7203e-06	4.4989e-06	419.85	140.93	122.12	42.309	4.6114e-06	52.383	-132.281	-53.711	-77.784	-141.894	3.388	-2.557	-141.638	-137.181	-17.034	-12.495	-137.787	-133.824	-133.133	-128.157	-26.631	-129.099	-8191	255	
852.166	1	1	0	0	0.2055	0.11248	0.20934	0.21135	0.13333	0.13242	0.34887	0.24046	0.074878	0.21959	0.14849	0.1097	0.22878	0.36541	0.18141	0.16735	-2.9042	-4.0771	-3.7375	-3.5792	-4.0229	-3.4083	-3.9167	-3.9771	-3.3875	-4.2583	-3.95	-3.4854	-4.3021	-3.4417	-3.8021	-4.0521	29.130	-39.282	74.201	139.917	23.838	185.736	120.989	183.413	-57.667	-117.541	174.676	-104.521	128.570	128.983	150.850	94.758	0.0003681	0.00042809	0.00011011	1336.8	4.7065e-06	5.7596e-06	1322.3	358.84	4.6493e-06	4.8749e-06	411.14	137.11	119.04	40.901	3.7289e-06	51.21	0.00043092	0.00040282	0.00011715	1352.7	4.6112e-06	4.7287e-06	1348	366.8	4.7237e-06	4.6859e-06	419.91	141.13	122.6	42.227	4.7684e-06	52.489	-135.513	-69.151	-45.814	-141.596	-13.991	-0.362	-141.888	-137.417	-48.971	-12.169	-138.007	-133.873	-133.375	-128.376	-10.594	-128.768	-8191	255	
852.237	1	1	0	0	0.18679	0.19306	0.27301	0.16794	0.047509	0.043045	0.1035	0.30524	0.40321	0.18315	0.27917	0.064239	0.13665	0.1533	0.03922	0.15756	-2.9938	-4.0188	-3.6729	-3.5104	-4.0979	-3.3833	-3.8438	-4.0375	-3.2167	-4.0292	-3.8854	-3.5687	-4.3479	-3.5729	-3.6917	-4.1771	62.030	10.559	93.972	159.297	-54.000	69.846	-138.488	162.799	145.386	-113.026	-153.733	-126.491	-155.130	164.141	192.741	139.015	0.00036168	0.0005412	0.00016816	1336.6	5.3691e-06	4.3055e-06	1329.1	359.27	2.9865e-06	5.6774e-06	412.68	137.44	118.99	41.033	4.2217e-06	51.091	0.00041988	0.00042855	0.00011452	1352.3	4.6401e-06	4.7041e-06	1352.7	367.3	4.8659e-06	4.6139e-06	421.21	141.44	122.53	42.234	4.7453e-06	52.512	-133.248	-68.334	-64.668	-141.724	-20.707	-0.952	-141.667	-137.300	-29.878	-40.039	-137.865	-133.547	-133.179	-128.321	-23.744	-128.945	-8191	255	
852.333	1	1	0	0	0.063304	0.2798	0.059493	0.31181	0.13842	0.14332	0.28371	0.052997	0.20579	0.063787	0.096692	0.056942	0.12449	0.1799	0.11917	0.17018	-2.8833	-3.8979	-3.6937	-3.6042	-4.0896	-3.5687	-3.7229	-4.1583	-3.3792	-4.0521	-3.8521	-3.5	-4.2729	-3.6458	-3.5021	-4.2125	88.893	-148.820	-61.812	152.812	-51.768	6.639	179.795	-153.835	-116.538	-111.311	-87.756	122.402	-116.303	176.973	-13.342	-98.289	0.0003591	0.0005921	0.00017901	1330.8	3.5199e-06	4.2922e-06	1323.7	358.2	3.8024e-06	5.7455e-06	410.91	136.25	119.17	41.036	3.6457e-06	50.923	0.00043651	0.00040979	0.000122	1351.5	4.8169e-06	4.7044e-06	1353.6	367.05	4.8188e-06	4.7112e-06	421.11	140.99	122.49	42.255	4.7279e-06	52.412	-131.505	-69.014	-66.234	-141.834	-29.299	2.679	-141.826	-137.416	-20.423	-4.279	-137.761	-133.806	-133.105	-128.439	9.244	-128.800	-8191	255	
852.454	1	1	0	0	0.067958	0.08128	0.20903	0.23023	0.20575	0.076391	0.23056	0.15411	0.12306	0.18167	0.070793	0.10972	0.41697	0.14379	0.14167	0.057753	-3.0042	-3.9813	-3.95	-3.5167	-3.9437	-3.875	-3.6458	-4.2229	-3.3146	-3.825	-4.2333	-3.5083	-4.2896	-3.7708	-3.3917	-4.2688	107.398	108.865	180.800	-139.403	164.365	-55.977	149.888	73.784	-7.159	197.960	113.928	122.099	166.205	159.642	-4.310	63.498	0.00034152	0.0005646	0.00013607	1330.7	3.9489e-06	4.9888e-06	1320.3	355.86	3.6467e-06	3.5391e-06	408.81	136.48	118.69	40.933	4.2232e-06	50.673	0.00042553	0.00042882	0.000116	1352	4.6788e-06	4.6865e-06	1350.6	366.29	4.7114e-06	4.5255e-06	419.61	141.06	122.41	42.176	4.6409e-06	52.299	-134.692	-71.662	-61.889	-141.907	-31.161	-3.106	-141.884	-137.331	-12.916	5.116	-138.028	-133.711	-133.189	-128.218	-7.674	-129.115	-8191	255	
852.548	1	1	0	0	0.29404	0.13674	0.084839	0.31075	0.19436	0.11385	0.14233	0.068181	0.043676	0.21632	0.088416	0.17064	0.12044	0.12362	0.14848	0.25604	-2.8563	-3.7667	-4.0667	-3.4604	-3.9042	-3.7812	-3.5771	-4.3042	-3.4604	-3.7	-4.1708	-3.3438	-4.0479	-3.7292	-3.2833	-4.2625	-154.171	-139.802	40.732	160.808	-15.671	184.578	150.293	160.948	82.896	100.075	170.422	158.430	-64.437	186.753	-63.533	154.663	0.00035377	0.00056247	0.00018821	1326.7	3.2316e-06	6.7529e-06	1315.9	357.33	4.1616e-06	5.7058e-06	411.88	136.65	118.51	40.931	3.2087e-06	50.876	0.00042542	0.00042429	0.0001211	1349.1	4.7969e-06	4.6187e-06	1349	366.72	4.713e-06	4.8088e-06	420.32	141.03	122.16	42.168	4.7715e-06	52.377	-134.580	-59.409	-52.396	-141.799	-0.166	4.299	-141.826	-137.215	-12.615	17.971	-137.733	-133.559	-133.099	-128.518	1.990	-128.909	-8191	255	
852.645	1	1	0	0	0.089637	0.10427	0.073694	0.049668	0.15084	0.052831	0.27823	0.24017	0.031922	0.10129	0.11966	0.19793	0.25597	0.24791	0.068218	0.39417	-3.1771	-3.525	-3.8688	-3.3146	-3.7125	-3.9292	-3.4125	-4.2958	-3.6208	-3.5167	-4.325	-3.4125	-3.8354	-4.0938	-3.1125	-4.2063	-39.043	-13.719	96.374	136.376	-15.317	-110.293	145.078	162.126	25.316	144.089	100.076	192.359	192.814	117.537	-73.684	137.301	0.00036365	0.00050397	0.00014292	1326.9	4.2087e-06	4.1595e-06	1321.9	358.27	3.6669e-06	5.8733e-06	410.48	137.44	118.79	41.3	2.1377e-06	50.824	0.00043431	0.00041835	0.00011763	1348.8	4.8594e-06	4.6549e-06	1348.7	367.28	4.7172e-06	4.8972e-06	419.11	141.14	122.4	42.263	4.9266e-06	52.341	-133.844	-61.543	-74.920	-141.791	-4.031	2.674	-141.833	-137.188	-55.400	-9.781	-137.564	-133.820	-132.926	-128.109	-23.555	-129.066	-8191	255	
852.765	1	1	0	0	0.086436	0.14347	0.1198	0.17196	0.16081	0.088246	0.19287	0.071531	0.13624	0.23685	0.020791	0.31268	0.29229	0.31336	0.22362	0.13545	-3.4813	-3.3583	-4.1	-3.6458	-3.6146	-3.9813	-3.4375	-4.1438	-3.675	-3.3271	-4.2562	-3.6896	-3.6708	-4.0938	-3.2583	-4.0667	-25.376	-18.080	-56.846	162.312	-45.167	33.686	151.931	122.764	-45.883	-92.127	-142.403	180.504	141.536	154.497	-118.322	-134.614	0.0003677	0.00051388	0.00014914	1320	4.2577e-06	5.4992e-06	1316.8	355.15	4.4291e-06	4.3368e-06	414.24	137.04	119.06	40.871	4.3469e-06	51.014	0.00043188	0.00043111	0.00012001	1347	4.8585e-06	4.6133e-06	1346.9	366.31	4.9595e-06	4.7072e-06	421.7	141	122.53	42.118	4.9449e-06	52.4	-133.437	-79.321	-60.164	-141.872	-12.289	-1.999	-141.816	-137.463	-25.714	-23.959	-137.750	-133.632	-132.748	-128.117	-8.647	-128.664	-8191	255	
852.837	1	1	0	0	0.15396	0.06123	0.26576	0.064781	0.23796	0.082848	0.30522	0.43613	0.12323	0.16369	0.080264	0.25775	0.13874	0.0071254	0.16376	0.22437	-3.2333	-3.3521	-4.0458	-3.5167	-3.5563	-4.1375	-3.5521	-4.0292	-3.7896	-3.3021	-4.1271	-3.4875	-3.65	-4.1458	-3.3292	-3.9208	127.850	32.772	-111.625	152.069	115.937	103.253	79.687	107.715	170.405	107.376	187.768	172.768	-146.593	202.545	-112.285	128.940	0.00035798	0.00053343	0.00014128	1338.3	4.2385e-06	5.9121e-06	1332.4	361.7	3.4042e-06	5.8824e-06	417.27	138	119.8	41.218	3.7088e-06	51.072	0.00044807	0.00043893	0.00011899	1350.3	5.0547e-06	4.8923e-06	1350.5	367.84	4.901e-06	4.8455e-06	421.92	141.28	122.55	42.241	4.8851e-06	52.361	-133.440	-73.379	-66.042	-141.724	-21.867	-11.172	-141.818	-136.992	-17.588	1.381	-137.684	-133.470	-132.882	-127.858	-23.975	-128.944	-8191	255	
852.933	1	1	0	0	0.14767	0.035041	0.23682	0.18114	0.1698	0.14612	0.15998	0.20135	0.11448	0.19716	0.23106	0.088718	0.11916	0.031824	0.24639	0.11609	-3.4688	-3.2271	-3.9875	-3.6646	-3.3583	-4.1771	-3.4979	-3.8854	-3.8812	-3.3771	-4.1729	-3.7042	-3.4	-4.1604	-3.3896	-3.9208	130.740	135.991	203.738	189.847	69.621	164.660	159.881	114.726	35.656	142.748	130.188	196.810	-112.352	-34.067	-27.597	-89.932	0.00036831	0.0004645	0.00015853	1336.8	2.9332e-06	3.1434e-06	1325.7	360.95	3.7892e-06	5.8717e-06	411.67	137.55	119.78	41.524	3.588e-06	51.179	0.00043885	0.00044176	0.00012122	1351	5.0101e-06	4.7633e-06	1347.6	366.92	4.9273e-06	4.8528e-06	420.17	140.83	122.48	42.263	4.8655e-06	52.481	-135.852	-70.108	-77.088	-141.754	-10.800	-6.147	-141.898	-137.058	-19.662	-9.386	-137.446	-133.584	-132.866	-128.251	-47.229	-128.527	-8191	255	
853.029	1	1	0	0	0.2344	0.090983	0.19659	0.13738	0.043462	0.020573	0.094428	0.2842	0.11728	0.087198	0.11486	0.09678	0.32685	0.20325	0.13509	0.12157	-3.5021	-3.3229	-3.925	-3.7625	-3.3667	-4.0563	-3.6833	-3.8396	-4.0458	-3.0438	-4.0917	-4.0396	-3.5167	-4.1104	-3.5417	-3.6833	78.457	77.396	123.053	157.327	9.082	-69.889	102.784	151.828	-104.567	166.413	88.766	64.339	76.159	195.876	-104.796	68.677	0.00036146	0.00047863	0.00018381	1334.2	3.0345e-06	6.5467e-06	1328.2	361.13	4.2762e-06	4.4312e-06	414.15	137.72	119.45	41.446	3.9013e-06	51.251	0.00043833	0.00044152	0.0001179	1347.5	4.8621e-06	4.8009e-06	1348.5	367.44	4.8533e-06	4.8145e-06	420.46	140.96	122.46	42.259	4.931e-06	52.44	-137.309	-86.685	-78.710	-141.702	-39.710	0.096	-141.835	-136.858	-38.222	-5.555	-137.434	-133.828	-132.844	-128.127	-11.463	-128.762	-8191	255	
853.125	1	1	0	0	0.024069	0.027836	0.16654	0.1838	0.062926	0.17551	0.34239	0.1014	0.094386	0.24295	0.15896	0.06086	0.29238	0.10355	0.12609	0.04599	-3.6354	-3.175	-4.0208	-4.0188	-3.3063	-3.9958	-3.6875	-3.7854	-4.2375	-3.3396	-4.1104	-3.7562	-3.5062	-4.1188	-3.5792	-3.7521	-135.223	-105.176	-95.163	128.750	-98.889	-40.752	47.954	136.582	-11.386	100.650	54.129	48.894	-151.174	198.505	-115.081	196.267	0.00038103	0.00056799	0.00011938	1332.9	3.5351e-06	4.7895e-06	1327.2	361.47	4.4793e-06	4.6444e-06	414.63	137.35	119.16	41.355	2.3046e-06	51.101	0.00043058	0.00043505	0.00012153	1349.6	4.8449e-06	4.7224e-06	1348.2	367.83	4.8861e-06	4.8645e-06	421.35	141.14	122.47	42.285	4.7997e-06	52.425	-133.529	-71.934	-71.126	-141.503	-21.974	-7.940	-141.924	-137.144	-34.568	-14.884	-137.527	-133.638	-132.991	-128.162	-6.376	-128.750	-8191	255	
853.246	1	1	0	0	0.31514	0.26963	0.1154	0.30376	0.18392	0.10455	0.083074	0.1718	0.25087	0.18889	0.27027	0.015766	0.20133	0.097168	0.10556	0.39949	-3.5542	-3.2625	-3.7562	-4.1271	-3.1937	-4.1292	-3.8833	-3.4813	-4.1271	-3.4708	-3.7	-4.0229	-3.2812	-4.1062	-3.7854	-3.6021	-51.579	183.775	137.447	-141.946	133.749	141.513	-148.407	168.409	46.562	128.862	143.130	-142.549	137.527	171.661	-113.571	156.787	0.00037375	0.00035255	0.0001318	1337.6	3.9954e-06	4.9841e-06	1333.6	360.69	3.6867e-06	6.3501e-06	414.02	137.85	119.53	41.322	4.4311e-06	51.119	0.00042325	0.00043043	0.00011904	1351.7	4.7849e-06	4.5242e-06	1350.6	367.5	4.7726e-06	4.8612e-06	421.19	141.1	122.57	42.267	4.7734e-06	52.391	-136.076	-56.736	-65.535	-141.642	-10.784	13.359	-141.796	-137.077	-47.347	-35.423	-137.496	-133.477	-132.931	-128.106	-9.993	-128.810	-8191	255	
853.342	1	1	0	0	0.22002	0.20187	0.17198	0.15581	0.12862	0.10281	0.34959	0.17745	0.061815	0.21914	0.13321	0.15841	0.19658	0.24923	0.043794	0.11966	-3.675	-3.4958	-3.5312	-4.1667	-3.1646	-3.975	-3.9813	-3.4708	-4.0396	-3.3104	-3.6583	-4.3104	-3.2979	-4.0312	-4.0104	-3.4229	183.167	-10.506	-104.749	144.112	-111.581	189.440	173.096	91.949	46.470	197.530	109.079	175.886	172.575	203.860	23.656	118.235	0.00036119	0.00050821	0.0001384	1336.3	2.1187e-06	6.8083e-06	1331.9	361.4	3.5849e-06	4.5029e-06	412.77	137.4	119.1	41.343	4.5574e-06	51.084	0.0004383	0.00042297	0.00011952	1350.9	4.8385e-06	4.6622e-06	1349.2	367.67	4.9023e-06	4.7212e-06	420.82	141.1	122.39	42.348	4.8557e-06	52.479	-135.326	-105.700	-47.966	-141.744	-3.501	-23.156	-141.907	-137.317	-40.740	-21.295	-137.628	-133.581	-132.761	-128.171	-5.764	-128.531	-8191	255	
853.438	1	1	0	0	0.24736	0.1617	0.089154	0.14625	0.2465	0.1177	0.043221	0.12036	0.13909	0.23299	0.17252	0.068329	0.10115	0.099165	0.12262	0.11247	-3.6958	-3.5146	-3.5542	-4.175	-3.5354	-3.9458	-4.2312	-3.5208	-4.2333	-3.4688	-3.6646	-4.2375	-3.5792	-3.9479	-3.9417	-3.4667	120.424	-23.694	-139.678	193.545	177.659	175.116	-7.765	67.595	44.959	-3.145	181.855	12.356	-80.951	-10.538	-120.083	32.257	0.00036841	0.00055335	0.00012297	1335.9	4.1768e-06	5.5177e-06	1333.2	362.09	4.2588e-06	5.0912e-06	415.44	137.81	120.07	41.319	2.1807e-06	51.093	0.00042636	0.0004191	0.0001211	1351.6	4.7948e-06	4.6838e-06	1350.5	367.64	4.8338e-06	4.7672e-06	421.37	141.4	122.59	42.3	4.7032e-06	52.475	-133.608	-67.090	-67.066	-141.694	-39.538	7.602	-141.947	-137.108	-20.308	-1.319	-137.379	-133.682	-133.085	-128.017	-33.138	-128.839	-8191	255	
853.534	1	1	0	0	0.078462	0.15893	0.15016	0.11638	0.2304	0.11439	0.19008	0.29961	0.22487	0.088404	0.15877	0.051587	0.28114	0.28306	0.18098	0.24837	-3.725	-3.6083	-3.4771	-4.2458	-3.1562	-3.9313	-4.2	-3.4521	-4.0833	-3.7708	-3.5208	-4.1354	-3.4271	-3.6854	-4.0104	-3.4417	-56.824	30.438	-95.818	167.632	97.680	-18.951	155.156	143.291	183.911	183.168	173.827	198.703	-148.939	201.967	164.857	184.938	0.00036889	0.0006198	0.00014879	1336	3.3379e-06	3.8664e-06	1332	360.67	2.8234e-06	5.3364e-06	407.8	136.02	117.84	40.986	3.0315e-06	51.354	0.00043198	0.00043299	0.00011883	1351.6	4.9153e-06	4.7354e-06	1350.6	367.11	4.8127e-06	4.7169e-06	419.76	140.78	122.11	42.151	4.8038e-06	52.48	-136.187	-57.427	-77.555	-141.713	-13.091	1.260	-141.918	-137.029	-35.662	4.233	-137.791	-133.715	-133.226	-128.110	-12.687	-128.776	-8191	255	
853.631	1	1	0	0	0.076145	0.06573	0.28973	0.24582	0.14049	0.10162	0.078664	0.35424	0.057907	0.10519	0.23541	0.27783	0.14439	0.22519	0.18046	0.13399	-3.4583	-3.7021	-3.2438	-4.2583	-3.5917	-3.4813	-4.2562	-3.4542	-3.7917	-3.9125	-3.4875	-4.0125	-3.7333	-3.8354	-4.0646	-3.4729	142.312	-136.446	-151.793	185.386	-133.183	-143.161	-48.143	172.037	-52.534	-114.434	199.245	-132.504	199.996	194.286	-15.536	157.249	0.00036811	0.00018767	0.00017573	1333.1	4.6174e-06	5.7067e-06	1305.7	356.49	3.0407e-06	4.9548e-06	407.19	135.77	118.08	40.698	3.414e-06	50.54	0.000429	0.00042339	0.00011999	1350.7	4.8262e-06	4.8181e-06	1346.3	366.47	4.9087e-06	4.7322e-06	420.39	140.97	122.12	42.062	4.812e-06	52.259	-134.790	-69.473	-80.134	-141.686	-33.880	-17.260	-142.101	-137.361	-32.188	-17.913	-137.780	-133.625	-133.302	-128.498	-31.309	-129.136	-8191	255	
853.727	1	1	0	0	0.090653	0.14748	0.26761	0.25219	0.10269	0.17318	0.1491	0.15505	0.071204	0.17984	0.15069	0.023917	0.13502	0.2497	0.18221	0.076667	-3.5	-3.8979	-3.2479	-4.2396	-3.6208	-3.6333	-4.3438	-3.4708	-3.8104	-3.9979	-3.5521	-4.2125	-3.7417	-3.5771	-4.175	-3.6937	34.836	-57.749	89.921	156.983	15.602	152.705	49.422	-131.565	123.019	61.035	165.806	-4.703	-99.682	-134.689	7.250	59.762	0.0003589	0.00038522	0.00012017	1321	2.5835e-06	4.6394e-06	1324.3	359.43	3.5025e-06	4.7465e-06	412.37	137.44	119.59	41.217	4.5666e-06	50.902	0.00044632	0.00043264	0.00012191	1348.6	4.8966e-06	4.8065e-06	1348.5	367.18	4.7163e-06	4.7535e-06	420.43	140.97	122.49	42.309	4.6418e-06	52.265	-133.301	-47.107	-54.211	-141.852	-15.028	-18.842	-141.648	-137.289	-30.754	-14.457	-137.518	-133.508	-132.993	-128.095	-13.104	-128.828	-8191	255	
853.846	1	1	0	0	0.21122	0.024149	0.2026	0.31534	0.25439	0.18427	0.21215	0.30879	0.29763	0.31315	0.13925	0.083672	0.13494	0.15642	0.16424	0.021418	-3.3229	-3.8146	-3.2958	-4.2667	-3.6042	-3.3396	-4.3021	-3.5708	-3.6063	-4.0417	-3.5583	-4.1708	-3.7896	-3.5208	-4.0479	-3.4875	17.231	67.239	64.099	185.445	112.823	166.139	142.311	182.933	-59.987	9.540	168.251	-149.161	192.139	175.589	-4.614	172.560	0.0003706	0.00050134	0.00017945	1335.7	2.7183e-06	3.6719e-06	1332.1	361.26	3.4e-06	3.1046e-06	416.32	137.89	119.86	41.462	3.2974e-06	50.924	0.00042741	0.00042518	0.00012189	1349.5	4.7893e-06	4.5299e-06	1350.3	367.38	4.8821e-06	4.6899e-06	421.75	141.46	122.66	42.327	4.8117e-06	52.415	-135.407	-89.129	-83.622	-141.576	-25.495	-17.157	-141.665	-137.325	-21.450	-27.098	-137.304	-133.243	-133.099	-127.994	-1.586	-128.563	-8191	255	
853.942	1	1	0	0	0.13819	0.23422	0.2129	0.41183	0.12521	0.1636	0.10148	0.29282	0.067374	0.15019	0.20176	0.23218	0.26142	0.18675	0.25614	0.14035	-3.1208	-4.1854	-3.3479	-4.0354	-3.7625	-3.3625	-4.3583	-3.6271	-3.5792	-4.0271	-3.4875	-3.9979	-4.0229	-3.4979	-4.1604	-3.6937	58.342	-29.314	138.987	-154.199	-37.581	-126.135	187.635	174.195	-109.792	134.566	94.966	-134.664	-112.581	135.974	200.165	71.234	0.00036306	0.00050458	0.00013034	1347.3	3.9145e-06	6.2866e-06	1327.7	361.83	3.2568e-06	6.208e-06	415.02	137.14	117.87	40.687	3.3872e-06	51	0.00043888	0.00043955	0.00011952	1353	4.9061e-06	4.8291e-06	1350.3	367.57	4.8962e-06	4.6862e-06	421.59	141.03	122.15	42.117	4.7741e-06	52.329	-132.556	-60.462	-75.613	-141.543	-6.203	-12.739	-141.457	-136.972	-21.345	2.948	-137.397	-133.376	-133.211	-128.306	-14.672	-128.836	-8191	255	
854.038	1	1	0	0	0.16369	0.20304	0.20205	0.1778	0.038537	0.17449	0.022377	0.325	0.11312	0.069114	0.38284	0.086732	0.057787	0.17559	0.059187	0.07664	-3.0917	-4.1396	-3.3604	-4.0188	-3.9562	-3.4688	-4.225	-3.8312	-3.4854	-4.1042	-3.3833	-3.9354	-4.0333	-3.4479	-4.0417	-3.7625	36.346	-20.781	-54.530	153.493	31.929	-89.812	-84.015	141.176	-124.685	80.095	103.516	56.962	148.209	202.130	111.130	50.227	0.00034259	0.0004496	0.00017737	1318.3	2.5391e-06	5.1802e-06	1323.8	357.62	2.853e-06	4.6622e-06	408.67	135.68	118.25	40.67	2.9376e-06	50.681	0.0004334	0.00041811	0.00011877	1346.8	4.7102e-06	4.8657e-06	1348.5	366.86	4.7796e-06	4.6452e-06	420.29	140.74	122.17	42.123	4.731e-06	52.318	-137.545	-61.085	-91.331	-141.942	-5.136	-24.486	-141.813	-137.517	-36.950	-20.405	-137.782	-133.782	-133.210	-128.277	5.343	-128.972	-8191	255	
854.134	1	1	0	0	0.12506	0.19116	0.18147	0.24308	0.20657	0.23818	0.083239	0.18318	0.17125	0.092437	0.25816	0.17918	0.23782	0.13808	0.1024	0.021777	-2.9458	-4.1625	-3.2833	-3.7292	-4.1188	-3.3458	-4.2167	-3.9875	-3.4	-4.1062	-3.6729	-3.7083	-4.1625	-3.4896	-3.9125	-3.95	172.880	8.157	-55.012	196.188	-52.361	-1.398	122.784	141.917	-144.583	39.183	-94.627	-70.667	90.927	-81.556	51.268	-147.317	0.00036816	0.00057394	0.00012173	1320.3	2.4e-06	5.7188e-06	1316.1	356.18	4.6937e-06	4.832e-06	409.26	135.37	118.86	40.715	4.6431e-06	50.544	0.00043966	0.00042139	0.00011605	1347.8	4.6761e-06	4.7992e-06	1349.2	366.06	4.887e-06	4.7249e-06	419.99	140.46	122.39	42.108	4.7484e-06	52.241	-135.967	-67.886	-71.188	-141.709	10.440	11.586	-142.001	-137.192	-28.554	5.181	-137.580	-133.434	-133.047	-128.133	-33.170	-129.013	-8191	255	
#DATA ENDS
