BOXY.EXE: ISS Imagent and Oximeter Data Acquisition Program Version 0.80
Ascii Record File

#ACQ INFORMATION
2  Detector Channels 
16  External MUX Channels 
1  Auxiliary Channels 
5000  Waveform (CCF) Frequency (Hz)
1  Waveforms Skipped 
30  Waveforms Averaged 
1  Cycles Averaged 
16  Acquisitions per Waveform 
10.0806  Updata Rate (Hz) 

#FILE INFORMATION
TRUE -- External MUX Channel results are PARSED.
FALSE -- AC DC and Phase are NOT grouped.
TRUE -- Companion Program Settings File CREATED.
FALSE -- AC data not excluded
FALSE -- DC data not excluded
FALSE -- Phase data not excluded
FALSE -- Auxillary Chn. data not excluded
Tab delimiters

#CALIBRATION STATE
TRUE -- Waveform Calibration Values APPLIED.


#AUX CALIBRATION VALUES
Val Type	aux-1	

Term	1.0000e+00	
Factor	0.0000e+00	


#WF CALIBRATION VALUES
A = Detector Channel
Val Type	A-AC1	A-AC2	A-AC3	A-AC4	A-AC5	A-AC6	A-AC7	A-AC8	A-AC9	A-AC10	A-AC11	A-AC12	A-AC13	A-AC14	A-AC15	A-AC16	A-DC1	A-DC2	A-DC3	A-DC4	A-DC5	A-DC6	A-DC7	A-DC8	A-DC9	A-DC10	A-DC11	A-DC12	A-DC13	A-DC14	A-DC15	A-DC16	A-Ph1	A-Ph2	A-Ph3	A-Ph4	A-Ph5	A-Ph6	A-Ph7	A-Ph8	A-Ph9	A-Ph10	A-Ph11	A-Ph12	A-Ph13	A-Ph14	A-Ph15	A-Ph16	

Term	0.00000e+00	0.00000e+00	0.00000e+00	0.00000e+00	0.00000e+00	0.00000e+00	0.00000e+00	0.00000e+00	0.00000e+00	0.00000e+00	0.00000e+00	0.00000e+00	0.00000e+00	0.00000e+00	0.00000e+00	0.00000e+00	0.00000e+00	0.00000e+00	0.00000e+00	0.00000e+00	0.00000e+00	0.00000e+00	0.00000e+00	0.00000e+00	0.00000e+00	0.00000e+00	0.00000e+00	0.00000e+00	0.00000e+00	0.00000e+00	0.00000e+00	0.00000e+00	0.00000e+00	0.00000e+00	0.00000e+00	0.00000e+00	0.00000e+00	0.00000e+00	0.00000e+00	0.00000e+00	0.00000e+00	0.00000e+00	0.00000e+00	0.00000e+00	0.00000e+00	0.00000e+00	0.00000e+00	0.00000e+00	
Factor	1.00000e+00	1.00000e+00	1.00000e+00	1.00000e+00	1.00000e+00	1.00000e+00	1.00000e+00	1.00000e+00	1.00000e+00	1.00000e+00	1.00000e+00	1.00000e+00	1.00000e+00	1.00000e+00	1.00000e+00	1.00000e+00	1.00000e+00	1.00000e+00	1.00000e+00	1.00000e+00	1.00000e+00	1.00000e+00	1.00000e+00	1.00000e+00	1.00000e+00	1.00000e+00	1.00000e+00	1.00000e+00	1.00000e+00	1.00000e+00	1.00000e+00	1.00000e+00	X	X	X	X	X	X	X	X	X	X	X	X	X	X	X	X	

B = Detector Channel
Val Type	B-AC1	B-AC2	B-AC3	B-AC4	B-AC5	B-AC6	B-AC7	B-AC8	B-AC9	B-AC10	B-AC11	B-AC12	B-AC13	B-AC14	B-AC15	B-AC16	B-DC1	B-DC2	B-DC3	B-DC4	B-DC5	B-DC6	B-DC7	B-DC8	B-DC9	B-DC10	B-DC11	B-DC12	B-DC13	B-DC14	B-DC15	B-DC16	B-Ph1	B-Ph2	B-Ph3	B-Ph4	B-Ph5	B-Ph6	B-Ph7	B-Ph8	B-Ph9	B-Ph10	B-Ph11	B-Ph12	B-Ph13	B-Ph14	B-Ph15	B-Ph16	

Term	0.00000e+00	0.00000e+00	0.00000e+00	0.00000e+00	0.00000e+00	0.00000e+00	0.00000e+00	0.00000e+00	0.00000e+00	0.00000e+00	0.00000e+00	0.00000e+00	0.00000e+00	0.00000e+00	0.00000e+00	0.00000e+00	0.00000e+00	0.00000e+00	0.00000e+00	0.00000e+00	0.00000e+00	0.00000e+00	0.00000e+00	0.00000e+00	0.00000e+00	0.00000e+00	0.00000e+00	0.00000e+00	0.00000e+00	0.00000e+00	0.00000e+00	0.00000e+00	-1.07286e+02	-1.33750e+02	-1.30724e+02	-1.82363e+02	-6.19824e+01	-6.62161e+01	-1.57848e+02	-1.62015e+02	-5.98885e+01	-6.91183e+01	-1.70843e+02	-1.70945e+02	-1.83296e+02	-1.76809e+02	-6.51458e+01	-1.49940e+02	
Factor	1.60289e-05	1.47158e-04	4.35422e-05	1.53391e-01	1.14493e-06	1.53336e-06	1.58280e-01	4.76737e-02	1.01461e-06	1.45935e-06	8.23878e-02	2.72771e-02	2.23222e-02	8.72536e-03	1.20848e-06	1.24093e-02	9.10509e-06	1.43128e-05	4.00729e-06	8.10904e-02	1.47627e-07	1.59585e-07	7.86080e-02	2.53910e-02	1.46793e-07	1.59995e-07	4.23457e-02	1.41041e-02	1.20320e-02	4.67646e-03	1.51879e-07	6.42207e-03	X	X	X	X	X	X	X	X	X	X	X	X	X	X	X	X	



#DISTANCE SETTINGS
A = Detector Channel
A-1	A-2	A-3	A-4	A-5	A-6	A-7	A-8	A-9	A-10	A-11	A-12	A-13	A-14	A-15	A-16	

2.5000e+00	3.0000e+00	2.5000e+00	3.0000e+00	2.0000e+00	3.0000e+00	1.5000e+00	3.0000e+00	3.0000e+00	3.0000e+00	3.0000e+00	3.0000e+00	3.0000e+00	3.0000e+00	1.5000e+00	3.0000e+00	

B = Detector Channel
B-1	B-2	B-3	B-4	B-5	B-6	B-7	B-8	B-9	B-10	B-11	B-12	B-13	B-14	B-15	B-16	

1.0000e+01	1.0000e+01	1.0000e+01	1.4400e+00	1.0000e+01	1.0000e+01	1.5100e+00	1.9400e+00	1.0000e+01	1.0000e+01	1.9900e+00	2.4900e+00	2.4100e+00	2.9000e+00	1.0000e+01	2.9800e+00	




#DATA BEGINS
time	group	step	mark	flag	A-AC1	A-AC2	A-AC3	A-AC4	A-AC5	A-AC6	A-AC7	A-AC8	A-AC9	A-AC10	A-AC11	A-AC12	A-AC13	A-AC14	A-AC15	A-AC16	A-DC1	A-DC2	A-DC3	A-DC4	A-DC5	A-DC6	A-DC7	A-DC8	A-DC9	A-DC10	A-DC11	A-DC12	A-DC13	A-DC14	A-DC15	A-DC16	A-Ph1	A-Ph2	A-Ph3	A-Ph4	A-Ph5	A-Ph6	A-Ph7	A-Ph8	A-Ph9	A-Ph10	A-Ph11	A-Ph12	A-Ph13	A-Ph14	A-Ph15	A-Ph16	B-AC1	B-AC2	B-AC3	B-AC4	B-AC5	B-AC6	B-AC7	B-AC8	B-AC9	B-AC10	B-AC11	B-AC12	B-AC13	B-AC14	B-AC15	B-AC16	B-DC1	B-DC2	B-DC3	B-DC4	B-DC5	B-DC6	B-DC7	B-DC8	B-DC9	B-DC10	B-DC11	B-DC12	B-DC13	B-DC14	B-DC15	B-DC16	B-Ph1	B-Ph2	B-Ph3	B-Ph4	B-Ph5	B-Ph6	B-Ph7	B-Ph8	B-Ph9	B-Ph10	B-Ph11	B-Ph12	B-Ph13	B-Ph14	B-Ph15	B-Ph16	aux-1	digaux	

879.126	1	1	0	256	0.078343	0.21344	0.15339	0.30382	0.17777	0.045778	0.11978	0.31175	0.36833	0.070744	0.20167	0.27746	0.17439	0.15609	0.16275	0.085337	-2.9375	-4.2333	-3.4167	-3.6292	-4.1625	-3.2208	-4.0396	-3.8667	-3.1771	-4.0125	-3.7667	-3.6021	-4.1958	-3.4729	-3.8625	-4.0354	1.174	166.698	-115.609	146.525	-117.759	-130.293	144.083	155.401	141.954	-125.320	143.143	117.337	151.019	150.789	106.771	158.295	0.00036074	0.00033357	0.00016971	1329.9	3.6696e-06	4.5295e-06	1322.1	359.67	3.6429e-06	5.7074e-06	412.92	137.09	118.8	41.211	2.8494e-06	50.864	0.00041845	0.00040908	0.00011902	1350.2	4.4971e-06	4.5651e-06	1348.1	368.51	4.7821e-06	4.4499e-06	421.16	141.16	122.41	42.258	4.6602e-06	52.335	-133.315	-74.683	-69.845	-141.732	-27.117	-16.886	-141.831	-137.387	-30.014	-15.955	-137.547	-133.585	-133.024	-128.140	-20.876	-128.712	-8191	255	
879.247	1	1	0	0	0.14516	0.073734	0.16474	0.30402	0.20125	0.20039	0.31009	0.15821	0.091508	0.096649	0.049968	0.15005	0.19552	0.061823	0.08638	0.086338	-2.9292	-4.0708	-3.6542	-3.6896	-4.1333	-3.3521	-3.9333	-3.7833	-3.1771	-3.9958	-3.7417	-3.3583	-4.2583	-3.5271	-3.6562	-4.0729	31.283	-124.889	113.408	147.270	62.115	64.542	112.839	125.772	-7.863	-132.850	203.005	111.082	-124.561	89.362	-36.111	137.679	0.000342	0.00055347	0.00010858	1331.1	3.0251e-06	7.7881e-06	1322.4	358.95	4.2775e-06	3.7116e-06	414.2	136.28	118.79	40.948	3.7673e-06	50.763	0.00042356	0.00042613	0.00011816	1347.9	4.5463e-06	4.8374e-06	1345.6	367.33	4.8747e-06	4.6199e-06	421.96	140.65	122.39	42.165	4.7459e-06	52.427	-133.008	-87.976	-66.746	-141.736	-27.555	1.498	-141.703	-137.406	-4.393	-5.939	-137.731	-133.651	-133.239	-127.986	-5.719	-128.749	-8191	255	
879.343	1	1	0	0	0.23127	0.25542	0.14119	0.23794	0.054917	0.17092	0.14094	0.2349	0.22959	0.31502	0.081602	0.1029	0.11103	0.19046	0.15487	0.14915	-3.0375	-3.9271	-3.5563	-3.5438	-4.2854	-3.4604	-3.6604	-4.1292	-3.3521	-4.0458	-3.8937	-3.4229	-4.2771	-3.5896	-3.6521	-4.1354	181.713	-1.598	42.478	163.730	69.804	-58.011	139.950	175.801	138.602	-35.040	178.833	-31.500	-18.956	-87.814	198.011	65.070	0.00034646	0.00047268	9.8627e-05	1318	4.0416e-06	4.6095e-06	1315.4	356	3.5898e-06	5.665e-06	408.75	135.44	118.28	40.761	2.0998e-06	50.395	0.00043454	0.00041257	0.00011825	1344.5	4.7447e-06	4.619e-06	1344	366.34	4.9151e-06	4.6235e-06	419.34	140.58	122.09	42.057	4.7288e-06	52.213	-136.973	-82.006	-52.146	-141.800	-5.883	16.735	-141.728	-137.262	-20.313	15.386	-137.954	-133.426	-133.378	-128.366	3.519	-128.611	-8191	255	
879.439	1	1	0	0	0.089616	0.17406	0.25515	0.15826	0.24557	0.10639	0.17236	0.10395	0.20833	0.068588	0.10737	0.058462	0.28137	0.064419	0.25008	0.11176	-2.7188	-3.9479	-3.8958	-3.4542	-4.0417	-3.7396	-3.6583	-4.0146	-3.4437	-3.6833	-3.9896	-3.5	-4.0729	-3.7521	-3.2521	-4.1396	22.743	76.351	-69.404	-139.484	-149.381	1.345	146.735	-131.370	159.920	81.143	142.876	148.644	-89.893	94.243	82.603	-32.464	0.00036496	0.00058749	0.00016652	1321	3.9861e-06	5.1343e-06	1307.5	356.87	4.2089e-06	3.8572e-06	410.13	136.03	118.05	40.79	2.721e-06	50.745	0.00042993	0.00042906	0.00011677	1342.1	4.6352e-06	4.7227e-06	1339.9	366.76	4.7686e-06	4.5512e-06	419.24	140.45	122	42.009	4.8829e-06	52.288	-134.314	-72.368	-55.711	-141.849	-9.550	11.228	-141.966	-137.296	-22.508	-16.120	-137.588	-133.685	-132.889	-128.310	-2.889	-128.915	-8191	255	
879.535	1	1	0	0	0.24979	0.04469	0.22953	0.30533	0.20746	0.14737	0.29124	0.13955	0.26256	0.099995	0.29977	0.30692	0.23298	0.13435	0.16761	0.14347	-2.9208	-3.7396	-3.8812	-3.3563	-4.0854	-3.6479	-3.5687	-4.2979	-3.5271	-3.6813	-4.1083	-3.3208	-3.9417	-3.8771	-3.3375	-4.2458	-43.981	-122.721	26.333	161.803	88.020	-30.788	197.892	169.998	-140.121	29.211	89.086	177.778	169.497	-11.898	112.799	189.293	0.00035685	0.00057331	8.4143e-05	1316.9	3.7858e-06	2.6675e-06	1308.2	356.5	4.307e-06	4.1047e-06	408.61	135.74	118.34	40.772	2.7923e-06	50.552	0.00043833	0.00042357	0.00011209	1341.1	4.6099e-06	4.5618e-06	1337.8	366.42	4.7955e-06	4.4715e-06	419.16	140.02	122.15	42.019	4.7912e-06	52.14	-137.023	-92.636	-47.558	-141.789	-22.513	-5.726	-141.857	-137.363	-5.658	-23.631	-137.886	-133.674	-133.112	-128.407	-24.505	-128.707	-8191	255	
879.631	1	1	0	0	0.18896	0.146	0.18197	0.21554	0.18588	0.13779	0.029995	0.25402	0.064971	0.2393	0.21599	0.068965	0.25697	0.084696	0.23534	0.19115	-3.0438	-3.5208	-4.0875	-3.5875	-3.9604	-3.7583	-3.4938	-4.2688	-3.3458	-3.6437	-4.1625	-3.3917	-3.95	-3.9771	-3.4896	-4.1813	-106.236	-78.190	77.057	193.053	-84.432	-23.530	-123.022	124.893	113.846	186.487	163.255	4.918	-139.532	60.312	-30.556	108.117	0.00037123	0.00059946	0.00015446	1322.7	4.4111e-06	3.8675e-06	1312.1	356.3	4.2164e-06	3.7534e-06	411.48	135.96	117.65	40.675	2.892e-06	50.635	0.00043458	0.0004205	0.00011168	1342.8	4.5697e-06	4.4408e-06	1340.4	366.02	4.6922e-06	4.6349e-06	419.73	140.39	121.7	41.967	4.7158e-06	52.239	-136.887	-70.759	-82.989	-141.582	-17.676	-10.424	-141.712	-137.101	-8.591	-25.169	-137.706	-133.583	-133.149	-128.242	-15.626	-128.690	-8191	255	
879.726	1	1	0	0	0.19278	0.16082	0.17315	0.24129	0.14284	0.18594	0.033855	0.30468	0.16837	0.12933	0.14312	0.046435	0.27918	0.18028	0.18268	0.32683	-3.2812	-3.3271	-4.1292	-3.5854	-3.875	-3.9667	-3.6063	-4.2188	-3.525	-3.3979	-4.2167	-3.5312	-3.6854	-4.2583	-3.2604	-4.1708	12.840	15.147	61.861	200.845	151.686	-106.048	-17.474	148.588	201.402	-45.550	53.420	60.866	124.351	191.611	35.792	83.476	0.00035429	0.000586	0.00011559	1317.6	3.4169e-06	5.6728e-06	1304.6	358.16	2.6005e-06	5.0579e-06	410.84	135.86	118.16	41.058	2.4427e-06	50.722	0.00042208	0.00043073	0.00011318	1339	4.6699e-06	4.4701e-06	1336.5	366.87	4.7931e-06	4.6229e-06	419.41	140.17	121.98	42.076	4.7614e-06	52.246	-137.652	-73.862	-70.837	-141.464	-24.386	4.612	-141.817	-137.111	-7.207	0.152	-137.572	-133.531	-132.827	-128.349	-5.499	-128.839	-8191	255	
879.846	1	1	0	0	0.26243	0.1707	0.14249	0.28315	0.16802	0.21994	0.27819	0.11864	0.090799	0.19404	0.14349	0.16833	0.11027	0.076938	0.15635	0.077571	-3.375	-3.2833	-4.0813	-3.5563	-3.6667	-4.2458	-3.6292	-4.1396	-3.8021	-3.4354	-4.2979	-3.4583	-3.7521	-4.2438	-3.3292	-3.9625	-11.774	-17.699	-28.848	-127.759	-19.844	8.174	159.908	-14.353	-112.495	75.242	127.163	-25.014	197.264	191.614	-50.265	103.335	0.00035772	0.00061269	0.00012267	1316.1	5.2576e-06	4.0071e-06	1310.8	357.84	2.9305e-06	2.8901e-06	409.97	135.91	118.57	40.804	4.4419e-06	50.678	0.00041751	0.00042241	0.00011197	1337.9	4.6662e-06	4.4208e-06	1337.1	365.94	4.6442e-06	4.4739e-06	419.31	140.19	122.05	42.075	4.7747e-06	52.198	-132.291	-61.849	-60.187	-141.635	-12.581	11.389	-141.643	-136.869	-26.420	-10.286	-137.567	-133.661	-132.898	-128.164	-16.877	-128.809	-8191	255	
879.942	1	1	0	0	0.023447	0.16214	0.016954	0.12406	0.18022	0.26337	0.19467	0.17947	0.062727	0.25521	0.0026237	0.17608	0.21781	0.2044	0.15924	0.16128	-3.4208	-3.3979	-4.1583	-3.7833	-3.7292	-4.1687	-3.4167	-4.0833	-3.9688	-3.3583	-4.1542	-3.7438	-3.5521	-4.2125	-3.3792	-4.0771	136.496	-17.091	36.832	170.867	-76.331	-74.316	132.435	152.986	128.636	-12.347	7.843	79.875	191.019	-127.004	-71.603	-124.006	0.00035699	0.00046268	0.00020427	1314.6	4.5127e-06	5.4147e-06	1307.4	357.83	3.444e-06	7.1045e-06	409.87	134.81	118.28	40.949	3.3693e-06	50.467	0.00041969	0.00041949	0.0001162	1337.7	4.7493e-06	4.4405e-06	1335.7	366.28	4.6631e-06	4.7532e-06	418.43	139.95	121.73	42.088	4.7687e-06	52.101	-137.023	-83.906	-60.275	-141.621	-10.982	8.550	-141.643	-137.068	-36.614	-8.978	-137.518	-133.655	-132.995	-128.074	-48.027	-128.833	-8191	255	
880.039	1	1	0	0	0.14867	0.23317	0.036102	0.070688	0.12125	0.19668	0.16932	0.34255	0.15905	0.15333	0.1022	0.12589	0.28879	0.16765	0.28063	0.17759	-3.4688	-3.3021	-3.9833	-3.9	-3.5	-4.1188	-3.7	-3.9042	-3.9979	-3.3646	-4.2167	-3.75	-3.4083	-4.1562	-3.4146	-3.7229	127.586	116.401	-5.803	172.712	140.804	121.510	122.239	137.720	32.227	34.264	175.736	92.030	150.972	-5.741	185.685	129.522	0.00036437	0.00063338	0.00012069	1314.5	2.419e-06	4.3458e-06	1307.6	356.67	2.1237e-06	4.5977e-06	410.26	134.59	118.09	40.807	3.69e-06	50.513	0.00043022	0.00043514	0.00011503	1334.1	4.8569e-06	4.4657e-06	1334.1	364.94	4.5035e-06	4.5762e-06	418.71	139.61	121.66	41.97	4.539e-06	52.191	-134.573	-63.451	-80.266	-141.646	-14.260	-8.175	-141.654	-137.167	-27.170	-27.496	-137.528	-133.617	-133.102	-128.275	-11.379	-128.833	-8191	255	
880.110	1	1	0	0	0.19863	0.10079	0.072561	0.33625	0.10559	0.015711	0.26474	0.1952	0.12609	0.25134	0.25751	0.18016	0.069877	0.23123	0.10857	0.028918	-3.6146	-3.3125	-4.0042	-3.9271	-3.4083	-4.125	-3.6813	-3.8271	-4.0292	-3.4104	-3.9875	-3.9625	-3.4667	-4.2104	-3.55	-3.6125	-117.704	-49.182	74.467	190.080	40.841	198.320	114.455	55.965	-55.235	-86.990	41.601	181.407	149.400	-132.693	72.564	99.770	0.00034419	0.00070382	0.00016588	1307.5	4.0015e-06	4.4111e-06	1296.9	356.46	3.8735e-06	4.5553e-06	407.23	135.35	117.5	40.609	3.9771e-06	50.264	0.00042012	0.00043302	0.00011437	1331.2	4.769e-06	4.4029e-06	1328.7	365.66	4.5594e-06	4.6702e-06	417.76	139.56	121.5	41.908	4.4991e-06	51.978	-132.887	-72.720	-84.229	-141.694	-0.911	-5.339	-141.738	-137.046	-29.137	-12.123	-137.634	-133.656	-132.930	-128.158	-20.799	-128.798	-8191	255	
880.231	1	1	0	0	0.020198	0.10351	0.10038	0.12983	0.14787	0.15403	0.022296	0.12673	0.26454	0.11814	0.13695	0.21705	0.22157	0.12608	0.10111	0.23476	-3.8104	-3.2271	-3.8667	-4.0104	-3.3146	-4.0938	-3.7542	-3.5917	-4.2438	-3.475	-3.8104	-3.9708	-3.3396	-4.1854	-3.6458	-3.5	-111.122	-154.336	-12.569	134.864	-8.647	0.355	-12.631	-66.254	124.650	159.256	169.877	163.074	-24.672	173.420	-121.221	129.922	0.00038517	0.00052049	0.00018885	1311.4	3.2328e-06	3.9475e-06	1296	355.33	3.049e-06	4.0543e-06	407.71	135.5	117.98	40.737	3.2327e-06	50.452	0.00040527	0.00040389	0.00011201	1332.4	4.5789e-06	4.4016e-06	1326.9	364.19	4.5249e-06	4.4435e-06	417.55	139.82	121.45	41.904	4.5326e-06	51.98	-138.086	-71.299	-57.916	-141.797	-35.824	4.991	-141.898	-137.131	-21.051	8.573	-137.328	-133.473	-132.945	-127.939	-7.491	-128.584	-8191	255	
880.327	1	1	0	0	0.13578	0.22991	0.15299	0.23927	0.20269	0.27881	0.11903	0.29996	0.093747	0.11046	0.23028	0.45614	0.19869	0.054113	0.2172	0.010428	-3.6917	-3.3604	-3.8063	-4.0583	-3.2958	-3.9875	-3.8667	-3.5417	-4.0625	-3.4188	-3.8438	-4.1708	-3.4458	-4.0708	-3.8229	-3.6854	-89.168	-95.814	-94.711	154.495	-78.759	192.545	179.654	148.290	125.541	-21.283	-128.932	180.281	-77.863	78.505	195.693	-18.809	0.000365	0.00046835	0.00012385	1306.9	3.9077e-06	5.8251e-06	1292.1	355.5	2.6964e-06	4.5881e-06	407.36	134.63	117.05	40.665	4.2021e-06	50.26	0.00039975	0.00039477	0.00011082	1330.2	4.4623e-06	4.3078e-06	1324	363.74	4.4353e-06	4.3399e-06	416.74	139.43	121	41.859	4.2207e-06	51.889	-135.838	-66.080	-63.356	-141.573	-12.216	3.661	-141.668	-136.887	-34.286	5.152	-137.494	-133.607	-132.811	-127.997	-27.071	-128.675	-8191	255	
880.423	1	1	0	0	0.2635	0.10133	0.11078	0.11112	0.034187	0.26231	0.055814	0.12843	0.081449	0.090091	0.25046	0.32859	0.088618	0.13804	0.022456	0.0608	-3.7042	-3.5146	-3.4333	-4.0521	-3.2896	-3.8438	-3.9354	-3.4771	-3.9896	-3.6417	-3.5479	-4.2792	-3.4604	-3.9146	-3.9146	-3.2604	190.085	177.670	187.506	92.220	-89.059	-40.315	56.463	-151.388	-90.661	-6.197	-61.071	138.166	75.308	-148.435	127.943	169.699	0.00036256	0.00055774	0.00012697	1301.8	4.4283e-06	5.0321e-06	1290.5	354.88	3.2915e-06	6.0367e-06	406.7	135.39	117.31	40.65	3.0107e-06	50.267	0.00040514	0.00038072	0.00010922	1324.8	4.5675e-06	4.1309e-06	1321.1	363.22	4.312e-06	4.2049e-06	416.16	139.54	120.79	41.714	4.1355e-06	51.821	-132.916	-61.713	-80.738	-141.488	-25.727	5.817	-141.636	-137.099	-38.667	-4.113	-137.371	-133.415	-132.886	-127.738	-7.333	-128.842	-8191	255	
880.519	1	1	0	0	0.28299	0.1081	0.066817	0.13099	0.085202	0.13015	0.21076	0.1909	0.1964	0.08055	0.21735	0.27643	0.16952	0.079937	0.052298	0.17223	-3.6854	-3.6688	-3.5375	-4.3271	-3.3021	-3.7458	-4.1604	-3.3333	-3.9021	-3.8479	-3.6708	-4.4458	-3.6729	-3.8312	-3.8688	-3.4437	85.155	130.824	29.347	204.193	-1.257	178.813	156.072	169.023	-3.244	118.103	113.530	72.298	174.109	-12.828	90.289	150.147	0.00036416	0.00037495	0.00012367	1306.3	5.2507e-06	4.2353e-06	1294.1	354.16	4.0804e-06	4.6489e-06	406.25	135.05	116.92	40.658	2.5295e-06	50.138	0.00040762	0.00038108	0.0001093	1323.2	4.3159e-06	4.1884e-06	1322	362.73	4.4243e-06	4.2282e-06	416.13	139.22	120.7	41.733	4.2975e-06	51.758	-137.754	-58.908	-78.972	-141.533	-25.604	26.663	-141.656	-137.018	-36.824	-18.541	-137.408	-133.503	-132.896	-128.184	-13.516	-128.843	-8191	255	
880.638	1	1	0	0	0.22972	0.14351	0.15987	0.044937	0.21806	0.050366	0.24665	0.077765	0.27661	0.18264	0.060304	0.1279	0.30254	0.11489	0.14944	0.064206	-3.6125	-3.8479	-3.2104	-4.2792	-3.2708	-3.5312	-4.1458	-3.3563	-3.9083	-3.8208	-3.3438	-4.2042	-3.7104	-3.7104	-4.0417	-3.4375	2.735	-116.150	180.170	192.646	135.266	70.890	128.912	-130.509	-122.121	101.466	133.953	144.797	112.693	21.503	-102.914	149.246	0.00037178	0.00051901	0.00011521	1300.7	2.7241e-06	4.6333e-06	1290	355.03	3.5553e-06	4.6995e-06	407.39	134.77	117.22	40.69	1.8235e-06	50.417	0.00039909	0.0003764	0.0001075	1321.4	4.3488e-06	4.1502e-06	1320.2	363.07	4.3044e-06	4.2572e-06	415.61	139.22	120.86	41.779	4.0919e-06	51.782	-134.849	-70.100	-66.400	-141.632	-21.496	5.514	-141.646	-137.117	-18.942	-2.872	-137.263	-133.328	-132.958	-127.936	-14.669	-128.818	-8191	255	
880.734	1	1	0	0	0.082608	0.33962	0.18319	0.25715	0.19287	0.12234	0.24575	0.26654	0.20568	0.17051	0.20578	0.3067	0.10995	0.099671	0.28288	0.2496	-3.4833	-3.8187	-3.3521	-4.3313	-3.5438	-3.6208	-4.2188	-3.4604	-3.7938	-4.1333	-3.4979	-4.0729	-3.7458	-3.6021	-4.2667	-3.3771	76.564	40.223	182.261	136.745	-109.125	80.906	117.014	-146.745	177.779	77.364	143.315	199.791	159.453	-15.014	79.280	151.520	0.00037865	0.00035265	0.00021253	1303.1	3.3254e-06	5.004e-06	1296.5	356.55	3.1573e-06	4.9055e-06	406.73	135.16	117.48	40.525	3.3298e-06	50.528	0.00040155	0.00039208	0.00010771	1321.1	4.458e-06	4.2662e-06	1321	363.24	4.383e-06	4.1905e-06	415.75	139.08	120.79	41.687	4.1033e-06	51.841	-132.520	-74.360	-59.317	-141.560	-46.502	-7.749	-141.769	-137.023	-14.227	-3.366	-137.234	-133.467	-133.102	-127.698	-23.402	-128.723	-8191	255	
880.808	1	1	0	0	0.32053	0.21848	0.071943	0.30498	0.043613	0.17222	0.17454	0.097081	0.1983	0.19551	0.097174	0.079338	0.14027	0.095168	0.28824	0.030563	-3.1625	-3.6375	-3.3146	-4.225	-3.7313	-3.4667	-4.2854	-3.6167	-3.7854	-4.0729	-3.5187	-4.0792	-3.9313	-3.5708	-4.1396	-3.475	49.815	-120.589	32.309	139.281	7.366	80.337	153.094	191.114	-25.302	-136.043	167.122	55.030	-103.949	129.653	-85.465	29.621	0.00035424	0.00038612	0.00015788	1303.7	4.3291e-06	5.2304e-06	1294	354.54	3.7242e-06	4.9288e-06	407.38	134.66	117.45	40.697	4.7401e-06	50.393	0.00041517	0.00036071	0.0001078	1319.9	4.3771e-06	4.2965e-06	1318.6	361.98	4.2842e-06	4.0309e-06	415.03	138.94	120.56	41.694	4.0599e-06	51.746	-135.786	-81.078	-67.089	-141.373	-25.814	15.664	-141.545	-137.077	-16.111	-4.572	-137.573	-133.105	-132.961	-127.909	2.530	-128.326	-8191	255	
880.927	1	1	0	0	0.20485	0.19147	0.2288	0.25541	0.072252	0.19446	0.20903	0.16362	0.20404	0.40442	0.20182	0.095758	0.061498	0.14277	0.22012	0.090836	-3.1521	-3.9938	-3.3271	-4.0687	-3.7792	-3.4167	-4.2688	-3.5167	-3.6333	-4.1937	-3.5042	-3.8688	-4.0583	-3.5875	-4.2083	-3.6979	63.339	71.627	-83.220	-147.475	155.457	-59.411	141.950	-142.641	-66.696	-89.670	-152.315	200.705	161.097	72.674	-17.504	55.811	0.00036218	0.00053758	0.00015846	1299.5	2.9471e-06	6.0967e-06	1300.7	354.79	4.4454e-06	5.6797e-06	408.1	135.41	117.47	40.495	3.7979e-06	50.432	0.00039814	0.00037395	0.00010731	1318.7	4.2175e-06	4.2506e-06	1318.9	361.87	4.3613e-06	4.0182e-06	415.05	139.04	120.62	41.55	4.1669e-06	51.775	-134.392	-74.278	-48.141	-141.514	-14.769	-14.367	-141.567	-136.863	-31.762	-7.478	-137.483	-133.490	-132.634	-127.994	-9.608	-128.524	-8191	255	
881.023	1	1	0	0	0.067149	0.12266	0.13508	0.12651	0.1136	0.31047	0.13049	0.26112	0.22027	0.14004	0.092985	0.17968	0.25729	0.51675	0.037389	0.2368	-3.0729	-4.2125	-3.3958	-3.9813	-3.925	-3.3521	-4.2312	-3.8812	-3.2958	-4.1333	-3.5104	-3.6813	-4.0479	-3.3563	-3.8792	-3.7646	-101.865	117.154	-79.493	182.885	54.944	43.059	-147.352	186.989	3.901	105.011	-128.179	129.304	154.392	156.094	53.696	140.725	0.0003554	0.00061075	0.00017848	1302.6	2.3865e-06	4.6083e-06	1299	355.55	3.7462e-06	4.133e-06	408.6	136.19	117.81	40.775	3.6515e-06	50.312	0.00041015	0.00036802	0.00010763	1318.4	4.2572e-06	4.1482e-06	1317.4	362.55	4.3151e-06	3.9119e-06	415.74	139.18	120.96	41.703	4.1346e-06	51.66	-134.542	-70.241	-68.010	-141.300	-2.110	-5.716	-141.647	-137.012	-40.449	5.465	-137.423	-133.357	-132.845	-127.788	-18.769	-128.581	-8191	255	
881.119	1	1	0	0	0.14111	0.40279	0.097585	0.092673	0.18034	0.21568	0.15715	0.2499	0.14354	0.068485	0.26045	0.05523	0.27362	0.14382	0.21865	0.16459	-3.1042	-4.1854	-3.3375	-3.9604	-4.05	-3.3667	-4.2083	-3.7917	-3.2438	-4.2042	-3.5917	-3.7521	-4.2271	-3.375	-3.9604	-3.9208	47.828	186.042	-76.381	-101.517	-68.189	-98.595	96.757	123.153	-95.547	18.181	169.684	-45.319	171.760	200.709	-93.828	161.660	0.00035113	0.00041013	0.00014369	1304.6	3.9372e-06	3.4742e-06	1295.5	354.77	4.4686e-06	4.071e-06	408.01	134.7	117.75	40.506	3.5283e-06	50.457	0.0004021	0.00037184	0.00010335	1316.9	4.2513e-06	4.12e-06	1317.8	361.76	4.3068e-06	4.0145e-06	414.8	138.68	120.53	41.534	4.0802e-06	51.697	-136.873	-70.249	-71.640	-141.211	-13.318	6.725	-141.390	-137.010	-23.266	15.039	-137.411	-133.139	-132.639	-127.864	6.022	-128.675	-8191	255	
881.240	1	1	0	0	0.18235	0.11864	0.078238	0.14597	0.098623	0.35316	0.14728	0.39847	0.16701	0.20521	0.18328	0.1354	0.10753	0.28305	0.18327	0.18825	-2.8875	-4.1396	-3.5042	-3.6146	-4.0875	-3.3833	-4.0479	-3.8729	-3.2875	-4.0188	-3.7458	-3.5646	-4.2979	-3.4188	-3.8271	-4.025	110.138	-66.711	18.650	190.399	125.235	-22.639	112.398	167.493	35.356	112.336	159.545	130.622	168.001	150.921	21.733	115.869	0.00035967	0.00055722	0.00015551	1300	2.559e-06	5.1795e-06	1294.5	355.85	3.5537e-06	5.6785e-06	406.86	135.14	118.05	40.388	4.9086e-06	50.223	0.00039727	0.00036879	0.00010275	1316.2	4.1425e-06	3.9793e-06	1316.2	361.66	4.3521e-06	3.9382e-06	414.25	138.81	120.8	41.606	4.1862e-06	51.696	-131.550	-84.095	-71.072	-141.198	-12.288	-1.433	-141.578	-136.940	-15.365	6.297	-137.297	-133.287	-132.646	-128.210	-19.093	-128.565	-8191	255	
881.336	1	1	0	0	0.06233	0.09888	0.11344	0.14446	0.031594	0.13591	0.24183	0.15061	0.18909	0.16512	0.33156	0.19775	0.12167	0.088978	0.066877	0.11674	-2.9042	-4.0646	-3.6167	-3.5875	-4.0542	-3.4542	-3.9875	-4.1083	-3.2604	-4.1646	-3.85	-3.575	-4.2021	-3.6354	-3.6396	-4.1667	-12.045	-142.726	-74.490	200.796	-4.193	-6.704	-143.206	190.229	199.784	67.928	68.882	172.242	-24.773	138.087	44.371	132.722	0.00038375	0.00045831	0.00017622	1301.6	2.3276e-06	2.0261e-06	1292.8	354.9	4.2707e-06	4.0477e-06	406.57	135.08	117.82	40.493	5.0506e-06	50.668	0.00040436	0.00035985	0.00010384	1315.5	4.0351e-06	4.2264e-06	1313.5	361.58	4.3307e-06	3.8879e-06	414.34	138.82	120.58	41.543	4.1884e-06	51.768	-132.901	-73.367	-61.508	-141.286	-8.663	1.006	-141.324	-136.961	-34.352	-5.661	-137.449	-133.033	-132.441	-128.113	-18.403	-128.112	-8191	255	
881.407	1	1	0	0	0.095326	0.13177	0.18912	0.30412	0.19571	0.29859	0.25957	0.063914	0.045562	0.21474	0.14606	0.28372	0.31894	0.22914	0.21459	0.22865	-2.8229	-3.9083	-3.8875	-3.4646	-4.1271	-3.5208	-3.6771	-4.2438	-3.3729	-3.8125	-4.0229	-3.4833	-4.05	-3.5563	-3.5563	-4.1729	96.516	73.797	-60.324	178.054	-137.795	107.861	109.607	75.284	184.781	59.141	-19.817	178.798	172.788	-153.925	-32.968	150.541	0.00036495	0.00058673	0.00012666	1302.7	3.8537e-06	4.6632e-06	1292.4	354.21	3.7455e-06	3.5742e-06	407.45	135.2	117.01	40.574	2.1006e-06	50.399	0.00040396	0.00036805	0.00010532	1316.3	4.1326e-06	4.0378e-06	1313.5	360.88	4.2922e-06	3.9549e-06	413.86	138.96	120.21	41.57	4.2301e-06	51.688	-134.116	-53.917	-66.728	-141.398	-7.033	-14.331	-141.404	-136.819	-36.764	-1.938	-137.262	-133.257	-132.757	-127.714	-15.963	-128.487	-8191	255	
881.528	1	1	0	0	0.19539	0.12682	0.20068	0.28575	0.12714	0.24071	0.20237	0.24739	0.23542	0.1952	0.11106	0.35091	0.2073	0.029182	0.10316	0.10564	-2.8229	-3.8333	-3.7333	-3.4646	-3.9833	-3.5979	-3.6104	-4.4375	-3.2667	-3.7104	-4.1813	-3.2646	-4.2021	-3.6208	-3.4354	-4.2583	-80.364	-124.383	175.075	112.521	46.800	63.484	162.296	189.090	-36.044	41.682	142.521	170.378	111.527	-111.113	147.309	-80.967	0.00033679	0.00025785	0.00010492	1298.5	3.4696e-06	5.0723e-06	1292.2	354.73	3.4495e-06	4.2714e-06	407.37	134.98	117.34	40.662	4.4354e-06	50.641	0.00039548	0.00037118	0.00010604	1313.6	4.1966e-06	4.0651e-06	1313.2	361.16	4.2915e-06	4.0419e-06	414.22	138.75	120.47	41.606	4.2975e-06	51.709	-136.906	-70.712	-49.085	-141.244	-28.160	-1.925	-141.320	-136.899	-48.427	-27.704	-137.268	-133.364	-132.726	-127.934	-17.148	-128.600	-8191	255	
881.622	1	1	0	0	0.088997	0.19229	0.20984	0.11243	0.24232	0.24667	0.059557	0.4135	0.064725	0.16722	0.14168	0.24144	0.23704	0.080235	0.11416	0.099277	-2.8021	-3.7417	-3.9979	-3.4271	-4.05	-3.7208	-3.6104	-4.1687	-3.5	-3.6437	-4.1729	-3.3771	-3.9396	-3.8063	-3.4292	-4.1646	-144.715	-39.709	-79.058	180.110	-93.761	21.919	-137.717	118.685	92.994	115.022	-154.363	17.661	-151.384	121.558	159.526	59.845	0.00033655	0.00038366	0.00011345	1298.7	2.4027e-06	4.7254e-06	1295.6	355.27	3.4617e-06	4.2692e-06	409.4	135.37	117.18	40.555	4.6875e-06	50.364	0.00040038	0.00037276	0.00010294	1312.3	4.0991e-06	4.0501e-06	1313.7	361.48	4.2992e-06	4.1425e-06	414.44	138.77	120.32	41.511	4.3507e-06	51.646	-136.747	-94.381	-87.511	-141.040	-3.344	-13.259	-141.409	-136.791	-50.659	-2.280	-137.335	-133.276	-132.552	-127.805	-15.054	-128.173	-8191	255	
881.719	1	1	0	0	0.1547	0.079252	0.24416	0.074569	0.099656	0.19164	0.12578	0.2604	0.26189	0.065956	0.27375	0.40589	0.14522	0.17844	0.11222	0.25489	-3.0417	-3.6021	-3.8729	-3.5208	-3.9833	-3.825	-3.5146	-4.2833	-3.575	-3.4375	-4.1146	-3.1875	-3.8042	-3.8333	-3.1646	-4.0938	-35.959	43.292	92.404	83.245	166.273	68.076	152.527	138.869	182.545	29.870	203.373	156.334	-128.290	162.417	14.103	-104.931	0.00035223	0.0006259	0.00010191	1300	3.6994e-06	5.1488e-06	1292.9	355.74	3.4842e-06	6.3729e-06	407.25	134.95	117.4	40.592	2.3457e-06	50.397	0.00039501	0.00039137	0.00010146	1312.2	4.219e-06	3.865e-06	1313.2	361.37	4.372e-06	4.0505e-06	413.92	138.6	120.41	41.553	4.1216e-06	51.63	-136.065	-40.300	-70.606	-141.287	-24.043	-0.774	-141.282	-136.485	-24.577	-13.894	-137.187	-133.289	-132.587	-127.816	-12.117	-128.157	-8191	255	
881.815	1	1	0	0	0.12328	0.17224	0.031191	0.073091	0.14456	0.16852	0.16575	0.21396	0.15377	0.0092287	0.44818	0.17699	0.1907	0.066318	0.16651	0.22334	-3.0604	-3.5354	-4.15	-3.575	-3.7833	-3.9229	-3.275	-4.2104	-3.5333	-3.3375	-4.2479	-3.5708	-3.8187	-3.9917	-3.3125	-4.0771	38.287	52.162	79.530	201.727	192.437	-66.182	166.748	161.164	-134.294	-45.782	200.216	189.638	167.785	61.221	-81.531	160.636	0.00032972	0.00047078	0.00014033	1299.4	2.4683e-06	4.8442e-06	1294.6	354.61	4.3099e-06	3.997e-06	404.97	134.51	117.53	40.622	3.1836e-06	50.249	0.00039196	0.00037184	0.00010316	1312.8	4.1625e-06	3.973e-06	1312.5	361.35	4.2463e-06	4.0329e-06	413.87	138.56	120.48	41.52	4.2643e-06	51.68	-137.626	-64.039	-80.247	-141.260	-42.779	3.299	-141.181	-136.516	-13.492	-2.365	-137.291	-133.045	-132.468	-127.647	-7.167	-128.159	-8191	255	
881.935	1	1	0	0	0.22348	0.20163	0.15903	0.28012	0.14733	0.17538	0.16722	0.069977	0.10822	0.25085	0.073207	0.10259	0.034047	0.083415	0.20376	0.12421	-3.2875	-3.4667	-3.9792	-3.5854	-3.5354	-3.9896	-3.5417	-4.1062	-3.6813	-3.3125	-4.3479	-3.6271	-3.6562	-4.2562	-3.1354	-3.9062	70.926	145.630	20.431	173.316	42.971	59.375	164.462	178.566	110.396	-110.073	-41.245	138.693	-7.646	184.863	117.460	-130.500	0.00037578	0.00048252	0.0001144	1296.8	4.3593e-06	4.5237e-06	1297.2	354.25	4.1815e-06	4.0687e-06	408.12	134.44	117.87	40.501	3.3527e-06	50.268	0.00040074	0.00036835	0.00010327	1311.3	4.1886e-06	3.9514e-06	1312.2	360.83	4.2732e-06	4.0189e-06	414.56	138.49	120.51	41.514	4.1811e-06	51.649	-134.725	-61.548	-80.630	-141.378	-12.776	-9.608	-141.417	-136.687	-23.001	-13.470	-137.241	-133.223	-132.415	-127.859	-18.205	-128.200	-8191	255	
882.032	1	1	0	0	0.326	0.19079	0.30342	0.047435	0.043629	0.21905	0.38398	0.17821	0.10305	0.32653	0.20482	0.26222	0.35578	0.20607	0.15026	0.11343	-3.5979	-3.1896	-3.9188	-3.7	-3.5812	-4.0583	-3.5375	-4.0396	-3.85	-3.2292	-4.1542	-3.7812	-3.5938	-4.1792	-3.4604	-3.85	13.080	9.497	119.574	-38.914	130.817	-13.321	134.014	109.860	70.992	152.390	202.916	133.566	194.583	173.494	-13.450	118.640	0.00036568	0.00058491	0.00014348	1296.3	2.7993e-06	3.8495e-06	1287.3	353.96	4.4731e-06	3.7845e-06	404.51	134.36	117.13	40.645	2.9239e-06	50.223	0.00039038	0.00037383	9.9731e-05	1309.9	4.1468e-06	3.9062e-06	1310.3	360.27	4.2093e-06	4.0219e-06	413.2	138.48	120.19	41.604	4.1147e-06	51.545	-133.007	-63.912	-66.428	-141.213	-6.167	22.020	-141.304	-136.851	-26.076	-11.971	-137.023	-133.295	-132.537	-127.799	-15.295	-128.479	-8191	255	
882.103	1	1	0	0	0.20333	0.15776	0.073102	0.071886	0.1959	0.19055	0.27739	0.12868	0.16936	0.10964	0.23796	0.029018	0.30829	0.3253	0.10374	0.28613	-3.5146	-3.4292	-4.1229	-3.7271	-3.5062	-4.0625	-3.5	-3.8229	-3.9625	-3.3271	-4.0938	-3.7708	-3.4979	-4.5229	-3.4354	-3.8292	26.014	182.097	21.648	88.018	64.323	-31.227	144.448	-105.464	79.017	-100.050	90.041	65.070	-153.021	203.250	171.117	165.924	0.00036028	0.00036626	0.00014406	1295.8	3.3618e-06	3.961e-06	1292.4	354.11	4.6242e-06	2.9654e-06	405.82	135.06	117.42	40.519	3.714e-06	50.555	0.00038964	0.00038027	9.9957e-05	1309	4.1867e-06	3.9497e-06	1310.5	360.77	4.2068e-06	4.0329e-06	413.02	138.66	120.25	41.501	4.059e-06	51.723	-135.080	-108.544	-61.944	-141.253	-18.300	-22.811	-141.225	-136.566	-24.959	7.560	-137.031	-133.296	-132.299	-127.599	-15.606	-128.174	-8191	255	
882.199	1	1	0	0	0.11032	0.15556	0.25835	0.17259	0.14443	0.18386	0.055616	0.26225	0.28317	0.1579	0.026403	0.17626	0.10644	0.19012	0.11361	0.26112	-3.6437	-3.3229	-4.0875	-4.1083	-3.2375	-4.1792	-3.7229	-3.5646	-4.0292	-3.3271	-3.9667	-4.0375	-3.4917	-4.2167	-3.4771	-3.6833	-147.056	-140.569	105.413	156.045	-55.901	-49.660	-107.340	77.489	132.525	-6.457	0.215	150.048	161.592	-65.107	69.785	185.277	0.0003349	0.00041703	0.00015447	1295.1	3.0585e-06	3.5993e-06	1288.2	354.65	3.9669e-06	5.8093e-06	407.46	135	117.26	40.394	2.8896e-06	50.438	0.0003743	0.0003679	9.9598e-05	1310.1	4.2495e-06	4.0199e-06	1309	360.79	4.2224e-06	4.0339e-06	413.72	138.39	120.25	41.476	4.1501e-06	51.64	-133.924	-57.177	-68.430	-141.233	-20.308	1.596	-141.461	-136.442	-23.704	3.583	-137.127	-133.071	-132.763	-127.513	-16.500	-128.299	-8191	255	
882.320	1	1	0	0	0.094113	0.11406	0.096095	0.10302	0.27869	0.25577	0.15438	0.22687	0.031657	0.20764	0.17964	0.071177	0.2018	0.16224	0.27221	0.19422	-3.7167	-3.1813	-4	-4.0375	-3.1417	-4.2333	-3.7979	-3.55	-4.0813	-3.3375	-3.8563	-3.9458	-3.2667	-4.05	-3.6792	-3.4938	151.329	-149.748	-1.300	-75.238	-56.027	-60.391	154.628	169.323	191.822	179.677	196.384	-154.378	97.654	188.205	99.910	-104.567	0.00033329	0.00042883	0.00014584	1294.8	3.145e-06	3.9895e-06	1290.7	354.04	5.1424e-06	4.4749e-06	405.35	135.23	116.96	40.657	2.9885e-06	50.152	0.00038332	0.00037631	0.00010325	1308.6	4.3931e-06	4.0801e-06	1309.7	360.15	4.187e-06	3.9805e-06	413.39	138.4	119.98	41.544	4.0954e-06	51.524	-133.806	-58.570	-59.046	-141.237	-21.845	1.670	-141.381	-136.575	-35.526	-10.184	-136.981	-133.148	-132.340	-127.416	-18.789	-128.190	-8191	255	
882.416	1	1	0	0	0.054174	0.16965	0.048009	0.40116	0.24119	0.084638	0.1539	0.2405	0.068237	0.35381	0.39171	0.16339	0.16236	0.13442	0.17886	0.064506	-3.7313	-3.45	-3.6292	-4.1312	-3.3042	-4.0792	-3.9667	-3.6104	-4.15	-3.4583	-3.7521	-4.0104	-3.5	-4.0479	-3.8771	-3.6208	88.714	16.500	143.920	188.325	72.939	136.231	146.528	158.961	-93.263	0.402	-152.632	-106.643	-128.516	80.933	127.946	-31.081	0.00034391	0.00030974	0.00010143	1299.4	2.7715e-06	4.468e-06	1292	352.49	3.3234e-06	3.5154e-06	406.79	134.9	117.82	40.486	3.9154e-06	50.387	0.00038807	0.00036211	0.00010368	1309.3	4.2046e-06	3.865e-06	1309.4	359.92	4.2582e-06	3.9855e-06	413.75	138.59	120.24	41.545	4.0824e-06	51.571	-136.515	-54.911	-83.269	-141.208	-18.604	-0.713	-141.399	-136.699	-23.948	1.750	-136.914	-132.854	-132.536	-127.280	-29.221	-128.172	-8191	255	
882.512	1	1	0	0	0.20574	0.050675	0.14609	0.091369	0.1419	0.21725	0.20892	0.25082	0.057804	0.12211	0.20239	0.29241	0.23311	0.033764	0.24287	0.24886	-3.6875	-3.6437	-3.5292	-4.3604	-3.3042	-3.8479	-3.9437	-3.4708	-4.1917	-3.4437	-3.7042	-4.2729	-3.5	-3.8229	-3.8625	-3.4479	-54.695	-47.419	-104.677	184.200	-130.150	-42.820	103.634	131.864	16.336	-32.298	189.549	131.518	-154.320	49.515	21.373	168.880	0.00035974	0.00022897	0.00013693	1295.7	4.2658e-06	5.0006e-06	1288.3	353.75	3.5387e-06	3.6847e-06	407.04	135.43	117.31	40.719	4.2009e-06	50.211	0.00038687	0.00037017	0.00010285	1307.8	4.299e-06	3.977e-06	1308.1	360.36	4.0821e-06	4.0742e-06	413.15	138.44	120.19	41.563	4.0555e-06	51.493	-135.709	-87.317	-75.251	-141.099	-2.497	10.607	-141.167	-136.674	-50.703	-7.135	-137.013	-133.024	-132.383	-127.418	-10.863	-128.303	-8191	255	
882.608	1	1	0	0	0.22494	0.17326	0.035767	0.16852	0.18478	0.27632	0.41469	0.077749	0.10009	0.14619	0.11745	0.3112	0.10543	0.072901	0.29778	0.21091	-3.7208	-3.6542	-3.3458	-4.2625	-3.5375	-3.7188	-4.2271	-3.3833	-4.0875	-3.7021	-3.4958	-4.3187	-3.5438	-3.6312	-4.0625	-3.2625	-146.395	66.942	-38.147	100.856	47.341	55.138	200.381	123.592	-25.032	98.540	97.727	161.941	-86.583	190.801	200.855	14.273	0.00034644	0.00037939	0.00018241	1293.3	3.6696e-06	3.7179e-06	1287.8	352.61	4.338e-06	5.5375e-06	406.2	134.89	117.24	40.798	3.8763e-06	50.186	0.00038439	0.00035982	0.00010042	1308.5	4.1529e-06	3.984e-06	1307.5	360.02	4.0961e-06	3.9265e-06	412.86	138.44	120.09	41.616	4.0299e-06	51.566	-133.819	-58.563	-61.766	-141.024	-26.341	16.939	-141.402	-136.467	-40.295	-7.727	-136.818	-132.901	-132.283	-127.360	-2.530	-127.960	-8191	255	
882.705	1	1	0	0	0.036935	0.11736	0.081274	0.035277	0.15436	0.17933	0.19428	0.28688	0.21288	0.041627	0.034774	0.22296	0.11657	0.28582	0.19785	0.085595	-3.5604	-3.8167	-3.3396	-4.1667	-3.3396	-3.6813	-4.2188	-3.5312	-4.0417	-3.8917	-3.2604	-4.3167	-3.7042	-3.5833	-4.0875	-3.4125	24.980	-110.752	173.066	-149.811	119.070	13.351	116.185	171.521	182.428	-117.209	-106.237	170.585	137.294	175.356	112.451	97.450	0.00036467	0.00038417	0.00011665	1294	2.7396e-06	5.4841e-06	1292.1	353.6	4.0498e-06	4.3013e-06	407.51	135.17	116.95	40.454	3.7601e-06	50.148	0.00039091	0.00036238	0.00010347	1306.9	4.0723e-06	4.0807e-06	1307.9	359.93	4.1818e-06	3.9622e-06	413.58	138.46	119.9	41.544	3.9321e-06	51.5	-136.157	-61.299	-68.702	-141.370	-19.578	-7.499	-141.367	-136.805	-38.405	-4.825	-137.270	-133.009	-132.386	-127.634	-40.180	-128.378	-8191	255	
882.801	1	1	0	0	0.097457	0.26138	0.055164	0.025893	0.04108	0.073919	0.042399	0.28443	0.087824	0.15371	0.11804	0.14383	0.10577	0.11256	0.30447	0.18348	-3.6021	-3.8104	-3.2167	-4.3083	-3.6458	-3.5771	-4.2354	-3.3937	-3.7562	-3.8708	-3.2812	-4.075	-3.6604	-3.7333	-4.0917	-3.4854	107.064	-122.589	-36.133	-136.167	-17.145	103.016	168.054	145.651	119.854	-116.435	191.067	115.837	-147.251	-102.147	-79.838	152.668	0.00034888	0.00040671	0.0001666	1299.4	3.2317e-06	4.6564e-06	1292.7	353.22	3.887e-06	5.7644e-06	405.94	134.63	117.23	40.411	3.9307e-06	50.334	0.00037431	0.00035558	0.00010077	1308	4.0265e-06	3.8586e-06	1309.3	359.72	4.1084e-06	3.7355e-06	412.44	138.41	119.99	41.489	3.9277e-06	51.521	-135.413	-65.650	-74.362	-140.862	-12.586	5.683	-141.081	-136.633	-29.283	-1.710	-137.003	-132.848	-132.367	-127.360	-5.068	-128.077	-8191	255	
882.920	1	1	0	0	0.14128	0.098582	0.11253	0.18463	0.20747	0.052505	0.12533	0.096795	0.21453	0.11845	0.12017	0.056944	0.057538	0.26043	0.024129	0.17435	-3.25	-4.0979	-3.2458	-4.1542	-3.7083	-3.3542	-4.225	-3.6021	-3.5604	-3.9083	-3.4313	-4.0292	-3.9896	-3.4771	-4.0896	-3.6292	-42.302	103.706	-41.745	-146.707	-115.261	30.713	144.007	-111.282	36.059	23.536	-139.958	46.682	134.735	184.302	80.573	167.560	0.00034634	0.00045239	0.0001882	1295.7	4.3547e-06	4.9197e-06	1290.2	353.57	3.1168e-06	4.1769e-06	407.42	135.12	117.17	40.453	4.7251e-06	50.634	0.0003852	0.00035308	0.00010133	1306.1	4.1354e-06	4.09e-06	1307.5	359.59	3.9438e-06	3.7152e-06	413.15	138.58	120.07	41.493	3.834e-06	51.671	-135.801	-58.943	-70.397	-140.617	-21.642	-5.768	-140.985	-136.404	-35.164	-3.184	-137.205	-133.095	-132.449	-127.277	-28.376	-128.501	-8191	255	
883.016	1	1	0	0	0.19001	0.11647	0.14831	0.1164	0.11676	0.15371	0.31932	0.098568	0.42321	0.20908	0.12726	0.076941	0.13783	0.22703	0.15855	0.18194	-3.2417	-3.9208	-3.1437	-3.9354	-3.7042	-3.3292	-4.3438	-3.6125	-3.525	-4.1125	-3.4625	-3.825	-3.8479	-3.375	-4.1708	-3.6521	192.473	-26.717	-145.468	119.266	65.381	-45.100	86.201	127.464	-104.139	-136.196	179.430	161.290	173.814	189.592	171.771	130.072	0.00035339	0.00040461	0.00014152	1291.7	3.112e-06	5.0806e-06	1287.1	351.4	2.8917e-06	4.5258e-06	407.41	135.41	116.75	40.444	2.0799e-06	50.364	0.00038435	0.00034676	9.923e-05	1305.9	4.0813e-06	4.0206e-06	1306.4	359.46	4.1506e-06	3.7735e-06	412.74	138.52	119.88	41.438	4.0757e-06	51.622	-135.190	-54.484	-64.381	-141.067	-26.424	-4.958	-141.264	-136.530	-20.883	-32.841	-137.144	-132.835	-132.616	-127.414	-18.671	-128.170	-8191	255	
883.112	1	1	0	0	0.065858	0.043503	0.092132	0.26349	0.18217	0.035209	0.24223	0.25138	0.31369	0.12126	0.07395	0.051299	0.20893	0.028451	0.04243	0.14112	-3.2938	-4.0542	-3.1813	-3.9333	-4.0062	-3.2458	-4.2021	-3.9979	-3.4958	-4.1021	-3.5083	-3.7875	-4.0062	-3.4292	-4.0167	-3.7854	-60.414	-87.719	-1.318	162.367	-79.045	-126.532	164.377	184.559	-112.783	198.901	29.649	75.088	148.132	111.685	-68.763	107.627	0.00035454	0.0004399	0.00013102	1291.9	3.6697e-06	6.5379e-06	1289.5	353.71	2.9475e-06	4.3165e-06	406.16	135.13	116.95	40.506	3.0926e-06	50.218	0.00039042	0.00035347	0.00010178	1307.6	3.9078e-06	4.0179e-06	1308.6	360.35	3.9607e-06	3.7885e-06	413.65	138.52	120.16	41.495	3.8732e-06	51.601	-133.875	-79.021	-59.096	-140.952	-21.185	-7.911	-141.185	-136.664	-27.875	-13.422	-137.013	-132.938	-132.299	-127.399	-27.866	-128.413	-8191	255	
883.208	1	1	0	0	0.18322	0.06364	0.022101	0.32053	0.072686	0.1945	0.39227	0.44121	0.037428	0.11349	0.20701	0.1533	0.24943	0.18199	0.089377	0.38967	-2.9542	-4.0833	-3.225	-3.7229	-3.9021	-3.3396	-4.1583	-4.0479	-3.325	-4.1083	-3.6729	-3.7479	-4.1	-3.3708	-3.8937	-3.8875	39.666	-13.480	-115.661	185.672	127.599	-71.632	163.742	124.855	-0.990	47.092	178.658	135.815	-87.178	-91.826	152.590	193.354	0.00033801	0.00059623	0.00016065	1291.3	2.0978e-06	4.4182e-06	1289.4	352.42	3.9835e-06	2.3673e-06	405.8	134.75	116.92	40.712	5.9478e-06	50.204	0.00038883	0.00036528	9.6442e-05	1307.2	4.0659e-06	3.8929e-06	1308.1	359.38	4.3301e-06	3.9782e-06	412.9	138.42	119.95	41.513	4.0549e-06	51.568	-131.936	-70.469	-71.147	-141.071	-8.642	11.143	-141.135	-136.517	-27.688	-7.189	-137.174	-132.863	-132.469	-127.609	-25.036	-128.014	-8191	255	
883.304	1	1	0	0	0.18102	0.020943	0.093293	0.070259	0.15658	0.15986	0.25734	0.073426	0.25581	0.03354	0.21093	0.19306	0.12158	0.21315	0.15798	0.15262	-2.8563	-4.0083	-3.6333	-3.525	-4.0188	-3.4542	-4.2417	-4.0396	-3.2875	-3.8312	-3.7771	-3.4896	-4.0979	-3.3521	-3.7792	-3.8292	117.341	-51.204	-75.993	-90.583	46.012	60.774	133.311	86.904	-19.240	-52.675	125.897	157.167	-134.873	90.361	-140.430	187.085	0.00034051	0.00045968	8.2331e-05	1292.9	3.3858e-06	4.5953e-06	1288.9	353.31	4.6511e-06	4.8925e-06	406.56	134.7	117.11	40.494	3.7385e-06	50.251	0.00038253	0.0003597	9.8529e-05	1307.2	4.1674e-06	3.9305e-06	1308.5	360.01	4.2812e-06	3.8539e-06	412.63	138.41	119.88	41.368	3.9688e-06	51.58	-133.205	-82.787	-71.716	-141.181	-17.579	-8.441	-141.175	-136.349	-47.263	-12.131	-137.079	-133.154	-132.294	-127.628	-2.443	-128.509	-8191	255	
883.400	1	1	0	0	0.096833	0.24313	0.22235	0.20703	0.11127	0.079383	0.22672	0.2115	0.089398	0.13158	0.054115	0.10816	0.15234	0.13112	0.16307	0.10281	-2.8292	-4.0521	-3.675	-3.6583	-4.1562	-3.4958	-3.8688	-4.1188	-3.3	-4.0042	-3.9479	-3.4896	-4.1375	-3.6521	-3.4875	-4.1	183.594	-129.050	-7.813	134.144	166.885	-27.706	107.109	164.748	-13.369	-51.739	196.683	-135.627	-123.761	-114.590	-99.730	132.594	0.00034034	0.00030724	0.00015072	1290.3	3.9441e-06	5.0779e-06	1288.6	353.72	3.7107e-06	5.9489e-06	406.26	135.37	117.07	40.433	4.2076e-06	50.349	0.0003864	0.00036516	0.00010361	1306.6	3.9472e-06	3.9597e-06	1308	360.02	4.2955e-06	3.8599e-06	412.84	138.39	120.04	41.444	4.1169e-06	51.588	-136.128	-76.935	-72.357	-140.989	-19.280	-6.019	-141.039	-136.576	-13.728	-16.354	-137.048	-132.863	-132.325	-127.568	-32.024	-128.191	-8191	255	
883.497	1	1	0	0	0.046698	0.1275	0.030731	0.26491	0.076421	0.11795	0.16935	0.048451	0.32202	0.13035	0.15815	0.30442	0.17506	0.15269	0.12891	0.1342	-2.7958	-3.9917	-3.7354	-3.4833	-3.975	-3.5208	-3.8979	-4.0875	-3.2479	-4.0125	-4.0729	-3.4479	-4.2438	-3.4854	-3.4313	-4.2271	93.472	179.370	38.678	135.863	178.617	25.209	203.041	149.603	-81.778	129.142	127.633	119.220	195.210	118.241	98.654	139.143	0.00036066	0.0004694	0.00018655	1295.9	4.1085e-06	4.7649e-06	1288.3	352.41	3.2577e-06	4.0202e-06	406.27	134.72	117.4	40.519	3.8868e-06	50.628	0.00039131	0.00036211	0.00010047	1306.5	4.1621e-06	3.861e-06	1307.9	360	4.2393e-06	3.9419e-06	413.31	138.25	120.28	41.49	4.1166e-06	51.652	-130.780	-93.324	-62.718	-141.018	-25.874	15.706	-140.859	-136.607	-30.265	-2.210	-137.241	-132.657	-132.485	-127.613	-31.901	-128.191	-8191	255	
883.615	1	1	0	0	0.13876	0.094397	0.071545	0.28829	0.12951	0.0076307	0.21931	0.0024714	0.23387	0.26788	0.26383	0.1791	0.074338	0.095556	0.10778	0.023212	-2.8958	-3.6958	-3.875	-3.4229	-4.0437	-3.6333	-3.5875	-4.2542	-3.275	-3.7583	-4.1146	-3.3333	-4.1708	-3.8104	-3.325	-4.1083	-44.888	168.809	-141.113	-122.435	-96.451	109.884	187.960	180.000	137.433	1.255	-134.132	99.562	-69.036	109.652	169.821	193.466	0.00035533	0.00045036	0.00012843	1296.1	2.3943e-06	4.8038e-06	1288.3	353.9	4.1634e-06	3.5553e-06	408.25	135.23	117.4	40.653	4.3805e-06	49.979	0.00039099	0.00036047	0.0001004	1307.9	4.036e-06	4.0232e-06	1307.8	360.22	4.1863e-06	3.9332e-06	413.53	138.48	120.27	41.509	4.0666e-06	51.538	-133.093	-61.464	-68.851	-141.012	-8.791	0.806	-140.974	-136.550	-21.629	-16.063	-136.635	-133.001	-132.265	-127.558	-13.920	-127.938	-8191	255	
883.712	1	1	0	0	0.2303	0.13419	0.21463	0.13583	0.05427	0.33933	0.25158	0.18316	0.14942	0.12716	0.31448	0.089014	0.36929	0.24402	0.044524	0.15433	-2.9188	-3.6271	-4.1875	-3.4188	-4.0021	-3.7875	-3.4896	-4.0875	-3.5583	-3.5292	-4.075	-3.5563	-4.0479	-3.8792	-3.5062	-4.2792	200.295	-87.292	88.381	117.109	-88.785	134.702	157.399	-106.884	200.349	182.908	122.956	120.547	200.324	101.294	19.640	14.971	0.00033623	0.00043514	0.00013258	1295.2	4.5536e-06	3.3158e-06	1294.5	354.62	3.332e-06	2.001e-06	407.49	134.99	117.48	40.592	5.0205e-06	50.537	0.00038224	0.00037067	9.6876e-05	1308	4.1468e-06	3.8281e-06	1309.3	360.08	4.142e-06	3.8982e-06	413.11	138.26	120.17	41.512	4.0748e-06	51.64	-133.999	-86.060	-74.786	-140.839	-25.850	9.029	-141.017	-136.182	-32.697	-12.145	-136.920	-132.706	-131.873	-127.550	-24.156	-127.871	-8191	255	
883.808	1	1	0	0	0.077129	0.11334	0.12455	0.043281	0.32305	0.036392	0.19186	0.12749	0.3308	0.11532	0.21276	0.15074	0.19183	0.16545	0.11249	0.19999	-3.0438	-3.5542	-3.9938	-3.5333	-3.9375	-3.7854	-3.4625	-4.2104	-3.4854	-3.4167	-4.0854	-3.3458	-3.9938	-4.0687	-3.25	-4.0813	-30.898	-63.611	7.062	23.594	70.886	62.939	193.867	183.537	0.016	72.116	141.316	203.115	169.306	123.651	166.249	-48.565	0.00033485	0.00053596	0.00016343	1289.7	5.0107e-06	4.45e-06	1288	353.55	2.8816e-06	5.6657e-06	405.51	134.75	117.26	40.521	3.6024e-06	50.241	0.00038611	0.00035755	9.8345e-05	1305.9	4.2344e-06	3.8044e-06	1309.3	360.13	4.1237e-06	3.9642e-06	412.16	138.26	120.2	41.464	4.0862e-06	51.483	-138.191	-94.663	-99.827	-141.107	-7.654	-14.529	-140.985	-136.437	-20.210	-13.861	-137.028	-132.785	-132.391	-127.454	-12.173	-128.266	-8191	255	
883.904	1	1	0	0	0.078888	0.095106	0.21218	0.24277	0.091965	0.13822	0.33014	0.15051	0.1914	0.24737	0.088623	0.30449	0.24137	0.043865	0.088216	0.14472	-3.1521	-3.5917	-4.0146	-3.4896	-3.7	-3.7188	-3.6875	-4.1979	-3.6917	-3.2854	-4.1958	-3.45	-3.7417	-4.0979	-3.325	-3.9521	-153.693	176.991	-57.823	-143.952	126.204	192.024	152.541	180.050	141.556	-35.842	95.262	162.030	176.905	143.747	152.335	-76.347	0.00034062	0.00052386	0.00015761	1294.3	4.7282e-06	5.3093e-06	1289.2	353.03	3.5818e-06	5.8281e-06	406.32	135.05	117.55	40.588	4.1954e-06	50.099	0.00038486	0.00035549	9.6584e-05	1306.9	4.2067e-06	3.992e-06	1307.9	360.08	4.1481e-06	3.8835e-06	413.25	138.4	120.17	41.471	4.0333e-06	51.489	-131.788	-73.829	-68.294	-140.982	-18.522	2.659	-141.360	-136.321	-23.858	4.839	-136.698	-133.237	-132.339	-127.549	-14.938	-128.497	-8191	255	
884.000	1	1	0	0	0.17046	0.24933	0.058738	0.30242	0.16326	0.15047	0.26592	0.38891	0.068352	0.24627	0.1037	0.24642	0.10131	0.17051	0.18314	0.21363	-3.4792	-3.3208	-3.9104	-3.5	-3.5208	-3.8896	-3.425	-4.0667	-3.6771	-3.2021	-4.2292	-3.4583	-3.7396	-4.0521	-3.2	-4.0125	25.028	-26.103	151.345	136.188	-129.859	21.830	115.938	84.163	-88.714	101.857	32.478	-79.447	-93.250	-121.164	98.400	86.399	0.00035631	0.00061532	0.00019436	1293.8	5.5595e-06	3.9991e-06	1286.6	352.78	3.4061e-06	4.0671e-06	404.79	134.85	117.31	40.6	2.3349e-06	50.447	0.00038059	0.00035854	9.5148e-05	1305.5	4.1142e-06	3.7725e-06	1305.6	359.83	3.9044e-06	3.9705e-06	412.77	138.47	120.25	41.514	3.9508e-06	51.594	-131.923	-73.387	-63.558	-140.949	-26.703	-13.493	-141.329	-136.701	-21.415	-6.371	-136.985	-133.246	-132.291	-127.717	-7.768	-128.291	-8191	255	
884.096	1	1	0	0	0.14248	0.21958	0.094612	0.18766	0.059145	0.14348	0.1526	0.16151	0.17497	0.16574	0.066462	0.41407	0.11619	0.2412	0.13186	0.14219	-3.5771	-3.2833	-4.0188	-3.6271	-3.5042	-4.3063	-3.5729	-3.9167	-3.9437	-3.2646	-4.1708	-3.7354	-3.6	-4.1292	-3.4813	-3.7708	45.954	7.053	190.360	89.658	-48.429	135.037	-117.139	-153.070	74.579	-81.198	6.230	188.036	111.013	137.576	119.069	-108.108	0.00036117	0.00055621	0.00013819	1287.5	3.325e-06	4.7001e-06	1291.3	354.08	3.2862e-06	3.6881e-06	406.8	134.87	117.68	40.569	4.7422e-06	50.202	0.00038046	0.00037377	9.9089e-05	1303.8	4.1388e-06	3.8477e-06	1306.5	360.08	4.0738e-06	4.0272e-06	413.47	138.53	120.33	41.505	3.9492e-06	51.523	-133.798	-71.578	-65.258	-141.022	-2.552	-12.200	-141.262	-136.594	-32.969	-17.818	-136.656	-132.798	-132.106	-127.258	-9.406	-128.248	-8191	255	
884.192	1	1	0	0	0.12913	0.21614	0.19412	0.37008	0.13081	0.078441	0.073655	0.29733	0.12086	0.1628	0.11893	0.22587	0.15675	0.25963	0.13988	0.017773	-3.4708	-3.25	-4.0167	-3.8625	-3.4188	-4.1208	-3.6604	-3.8896	-3.9271	-3.2604	-4.2375	-3.8271	-3.4979	-4.2854	-3.5208	-3.7854	66.004	103.950	142.280	155.994	5.326	18.212	195.011	172.185	111.809	41.964	84.429	174.877	141.239	45.159	-147.003	-117.484	0.000342	0.0003902	9.2326e-05	1296.6	4.9817e-06	6.5512e-06	1281.4	353.97	2.5387e-06	6.557e-06	405.79	134.54	117.54	40.709	2.6805e-06	50.093	0.00037748	0.00036229	9.9982e-05	1305.9	4.2357e-06	3.8214e-06	1306.1	359.85	4.0555e-06	3.9559e-06	413.34	138.3	120.18	41.559	4.0273e-06	51.483	-134.644	-62.061	-64.297	-141.138	-0.853	-9.137	-141.175	-136.201	-38.011	-20.720	-136.678	-132.983	-131.975	-127.268	-12.529	-127.889	-8191	255	
884.288	1	1	0	0	0.20929	0.11329	0.30258	0.18719	0.11688	0.21885	0.31764	0.20617	0.12269	0.17805	0.34623	0.13649	0.063668	0.1036	0.063789	0.20104	-3.7292	-3.4042	-4.0125	-3.9083	-3.3729	-3.9104	-3.7479	-3.7042	-4.1729	-3.3521	-4.1354	-3.9333	-3.6063	-4.0292	-3.6312	-3.5625	107.875	-110.931	19.047	167.938	3.774	19.369	161.209	110.670	-115.577	0.022	140.271	173.560	94.847	-121.345	-59.066	119.394	0.00036784	0.00059296	0.00014765	1293.1	2.8521e-06	5.7019e-06	1287	352.52	3.7756e-06	5.4795e-06	406.04	134.79	117.03	40.532	2.4532e-06	50.304	0.00037701	0.00036468	0.00010386	1307.1	4.061e-06	3.8689e-06	1306.3	359.87	4.0769e-06	3.8335e-06	412.99	138.23	120.15	41.543	4.0457e-06	51.551	-133.532	-63.414	-65.821	-140.853	-22.651	2.478	-140.779	-136.079	-28.655	-11.018	-136.661	-132.711	-132.117	-127.779	-44.624	-128.380	-8191	255	
884.409	1	1	0	0	0.039313	0.092811	0.13811	0.2523	0.16186	0.082177	0.27975	0.13394	0.088502	0.11806	0.14035	0.1303	0.33298	0.15579	0.081453	0.17203	-3.8167	-3.2479	-3.7396	-4.075	-3.3271	-3.9542	-3.8375	-3.5333	-4.0813	-3.4188	-3.9208	-4.2458	-3.5542	-4.1958	-3.875	-3.6521	189.517	120.717	-137.198	134.411	-52.753	11.870	107.947	119.691	-36.642	-34.897	-75.721	-136.501	-89.941	-88.105	-137.155	117.843	0.00032558	0.00048905	0.00013385	1291.6	3.8486e-06	4.2147e-06	1288.9	353.53	2.8337e-06	4.9998e-06	406.89	134.88	117.15	40.584	3.9353e-06	50.49	0.00037371	0.00035204	9.5674e-05	1304.7	4.0394e-06	3.7606e-06	1305.8	359.92	4.0915e-06	4.0455e-06	413.09	138.11	119.95	41.426	3.7805e-06	51.587	-136.167	-58.833	-70.663	-140.989	-8.035	8.753	-140.934	-136.626	-29.353	-2.541	-136.684	-132.808	-132.456	-127.374	-15.681	-128.041	-8191	255	
884.505	1	1	0	0	0.14963	0.16148	0.20372	0.13326	0.10341	0.11529	0.34848	0.2445	0.12398	0.089363	0.021323	0.21889	0.029585	0.042128	0.2314	0.22447	-3.8083	-3.3458	-3.6312	-4.1562	-3.3021	-3.9958	-4.05	-3.4958	-4.2125	-3.5458	-3.6688	-4.0958	-3.3125	-4.1854	-3.9708	-3.2375	-137.671	180.613	78.414	158.794	-23.456	67.168	115.798	98.539	105.821	-22.907	128.328	159.046	-35.863	-108.886	1.502	121.831	0.0003326	0.00056793	0.0001594	1293.9	4.8427e-06	5.5679e-06	1283.9	353.72	3.91e-06	5.1307e-06	407.38	134.74	117.06	40.771	3.5559e-06	50.417	0.00037414	0.00034891	9.9656e-05	1304.4	4.1052e-06	3.85e-06	1305.8	360	3.9998e-06	3.8829e-06	413.65	138.32	120.04	41.546	3.7859e-06	51.598	-135.994	-71.747	-62.952	-140.884	4.243	-5.458	-140.663	-135.981	-21.848	-12.228	-137.070	-132.766	-132.639	-127.545	1.480	-128.057	-8191	255	
884.601	1	1	0	0	0.14297	0.016542	0.09315	0.32843	0.074646	0.10016	0.12476	0.11057	0.21875	0.09057	0.24415	0.28251	0.197	0.20591	0.14747	0.32227	-3.7167	-3.7042	-3.3979	-4.1583	-3.5104	-3.9229	-3.9771	-3.5417	-4.1021	-3.6792	-3.6208	-4.1271	-3.5354	-4	-3.9333	-3.4542	59.666	200.726	-48.016	143.242	-111.859	-118.407	86.701	142.105	-41.954	173.567	163.742	161.931	102.948	175.336	-144.256	127.339	0.00035756	0.00037643	0.00016312	1290	2.996e-06	3.6493e-06	1288.8	353.06	3.5678e-06	4.0916e-06	405.52	135.08	117.32	40.532	3.213e-06	50.322	0.00038221	0.00033394	9.9139e-05	1303.7	3.9622e-06	3.6961e-06	1307.4	359.55	4.0558e-06	3.6976e-06	412.94	138.54	120.08	41.513	3.7438e-06	51.532	-132.035	-55.654	-50.051	-140.770	-13.541	5.498	-140.922	-136.265	-26.783	-14.287	-136.625	-132.706	-132.386	-127.192	-36.084	-128.063	-8191	255	
884.696	1	1	0	0	0.054431	0.06829	0.047673	0.19349	0.20602	0.17482	0.21599	0.18836	0.1077	0.18996	0.084686	0.13948	0.16353	0.0055389	0.077636	0.24197	-3.6542	-3.4875	-3.5125	-4.125	-3.4437	-3.7979	-4.1312	-3.35	-3.9875	-3.7083	-3.6042	-4.4771	-3.525	-3.8417	-4.0646	-3.4396	115.521	163.699	-149.134	202.449	-1.657	-76.120	60.031	-145.280	-4.997	29.152	-5.915	127.658	-84.921	28.779	149.334	-92.964	0.00036438	0.00047355	0.00017661	1292.5	2.6355e-06	6.5455e-06	1283.4	352.07	3.8406e-06	4.0185e-06	406.61	134.9	116.92	40.576	1.9647e-06	50.073	0.00037989	0.00034324	0.00010015	1305.6	3.9607e-06	3.9052e-06	1305.5	358.98	4.0949e-06	3.7012e-06	412.9	138.27	119.86	41.507	3.7166e-06	51.446	-133.225	-70.009	-56.688	-141.154	-22.802	-12.070	-141.076	-136.476	-36.462	-21.876	-136.678	-132.849	-132.300	-127.301	-6.574	-128.279	-8191	255	
884.792	1	1	0	0	0.039578	0.02957	0.22912	0.19676	0.18122	0.22773	0.079292	0.23411	0.087485	0.11387	0.1528	0.10005	0.25284	0.17114	0.091027	0.23827	-3.55	-3.7854	-3.2188	-4.2771	-3.5125	-3.6896	-4.1188	-3.3708	-3.9729	-3.7354	-3.5	-4.0771	-3.5229	-3.4813	-3.9813	-3.3917	-85.643	126.470	-128.511	-123.912	-91.274	112.919	163.868	114.770	179.859	24.398	-127.079	165.494	-71.575	101.497	118.780	164.991	0.00035747	0.00057563	0.000131	1289.2	4.0874e-06	4.8818e-06	1285.9	352.63	3.3734e-06	4.6174e-06	408.78	134.77	117.73	40.666	3.4943e-06	50.44	0.00037579	0.00032908	9.7661e-05	1303.8	3.8675e-06	3.8247e-06	1305.8	359.19	3.8998e-06	3.9022e-06	413.34	138.42	120.15	41.501	3.8552e-06	51.519	-133.299	-61.920	-74.392	-140.672	-6.755	-2.544	-141.155	-136.559	-24.236	-8.042	-136.587	-132.816	-132.387	-127.496	-16.855	-127.928	-8191	255	
884.890	1	1	0	0	0.14711	0.027852	0.22085	0.013884	0.30903	0.25492	0.41733	0.28348	0.053156	0.099909	0.17155	0.20862	0.18139	0.12478	0.047103	0.13863	-3.4437	-3.7042	-3.2521	-4.2625	-3.6021	-3.425	-4.3479	-3.4604	-3.825	-3.9229	-3.3146	-4.1521	-3.7854	-3.4167	-4.1312	-3.5	-22.632	-56.956	164.118	-6.940	57.951	-143.209	123.112	133.618	72.091	-103.873	111.188	120.129	107.123	158.966	-139.421	122.994	0.00034435	0.00054353	0.00012879	1292.7	4.0104e-06	4.6682e-06	1291.6	352.2	3.3648e-06	4.6359e-06	405.97	135	117.52	40.53	3.2335e-06	50.263	0.0003886	0.00034366	9.9623e-05	1305.3	3.9828e-06	3.8523e-06	1306.9	359.23	4.0093e-06	3.7545e-06	412.19	138.48	120.1	41.472	3.7596e-06	51.521	-133.785	-91.347	-65.345	-140.737	-7.420	-17.553	-140.697	-136.104	-25.157	-9.687	-136.386	-132.593	-132.092	-126.878	-40.195	-127.876	-8191	255	
885.009	1	1	0	0	0.097381	0.19107	0.13577	0.28974	0.069507	0.061317	0.17502	0.29045	0.084216	0.12672	0.16385	0.25115	0.090065	0.17129	0.11524	0.14193	-3.2979	-3.9771	-3.2313	-4.1792	-3.75	-3.4146	-4.4042	-3.4313	-3.6292	-4.1521	-3.4979	-4.1083	-3.9646	-3.3729	-4.2333	-3.6188	93.446	175.966	4.185	193.263	96.264	-120.101	146.928	128.315	152.495	145.456	151.237	131.774	203.919	46.891	-138.461	156.885	0.00035262	0.00037675	0.0001042	1295.6	4.1055e-06	5.5652e-06	1283.1	352.03	3.1001e-06	4.9292e-06	405.71	134.22	117.2	40.498	3.4343e-06	50.303	0.00038057	0.00033987	9.7494e-05	1304.8	3.9118e-06	3.9211e-06	1304.9	359.53	3.9928e-06	3.6192e-06	412.41	138.14	119.93	41.445	3.8058e-06	51.542	-134.281	-83.727	-35.835	-140.725	-20.460	-11.031	-141.019	-136.213	-17.374	-26.702	-136.548	-132.481	-131.987	-127.345	-21.867	-128.108	-8191	255	
885.105	1	1	0	0	0.017761	0.047803	0.15744	0.26438	0.12935	0.13019	0.1479	0.28343	0.22321	0.23335	0.1536	0.25419	0.25234	0.2307	0.29585	0.15512	-3.3208	-4.0729	-3.3812	-4.1125	-3.8229	-3.25	-4.3375	-3.7625	-3.4854	-4.1375	-3.4458	-3.9208	-3.9375	-3.3729	-4.225	-3.6604	166.020	62.641	31.534	177.759	33.881	79.951	82.246	137.769	56.424	124.567	-133.915	168.853	115.365	168.971	-134.587	195.617	0.00035462	0.00039708	0.000154	1294.2	3.27e-06	5.5349e-06	1288.3	353.42	3.7598e-06	3.8157e-06	405.9	134.51	116.43	40.573	4.2146e-06	50.41	0.00038152	0.00033716	9.7118e-05	1304.4	3.9825e-06	4.0611e-06	1306	359.37	4.1264e-06	3.6819e-06	412.41	138.27	119.69	41.461	3.8501e-06	51.528	-136.697	-69.482	-66.403	-140.736	-15.680	7.739	-140.587	-136.058	-37.881	1.813	-136.857	-132.634	-132.250	-127.149	-0.039	-128.007	-8191	255	
885.201	1	1	0	0	0.13033	0.17368	0.084307	0.31861	0.1193	0.047449	0.14205	0.18004	0.13189	0.03532	0.22031	0.1816	0.016033	0.22343	0.096731	0.080704	-3.0958	-4.1354	-3.3187	-3.9562	-3.925	-3.1396	-4.0542	-3.6542	-3.4375	-4.1687	-3.3458	-3.6625	-3.9688	-3.2333	-3.9042	-3.8042	-136.545	128.906	165.946	178.988	132.633	28.101	121.708	129.981	76.365	-21.689	-127.018	31.071	-153.105	157.545	-131.136	184.257	0.00035198	0.00073235	0.00016206	1290.2	4.505e-06	4.0175e-06	1286.8	352.34	4.22e-06	4.5687e-06	406.35	134.39	117.26	40.416	3.6108e-06	50.163	0.0003712	0.00034461	9.9865e-05	1303.4	3.9441e-06	4.0312e-06	1305.5	359.42	4.2188e-06	3.8825e-06	412.52	138.27	119.92	41.436	3.9564e-06	51.469	-134.666	-76.997	-61.376	-140.845	-19.315	11.813	-140.848	-136.239	-16.487	-25.502	-136.825	-132.585	-132.143	-127.562	-28.272	-128.201	-8191	255	
885.297	1	1	0	0	0.086209	0.10027	0.092494	0.15015	0.16274	0.059377	0.37438	0.073665	0.14416	0.13771	0.040622	0.038348	0.23004	0.25723	0.13672	0.17321	-2.9042	-4.0583	-3.4042	-3.7604	-4.0604	-3.1583	-4.1062	-3.9271	-3.3521	-3.9896	-3.4104	-3.7104	-4.0938	-3.4167	-3.9646	-3.9458	-93.500	167.761	29.567	137.838	18.421	-147.403	186.220	160.390	85.158	97.077	-43.613	125.139	-147.906	137.714	-29.393	-117.456	0.00035315	0.00056795	0.00013094	1287.9	2.9915e-06	4.5658e-06	1285	353.3	3.969e-06	5.7344e-06	406.71	135.19	117.26	40.321	3.7635e-06	50.23	0.00038862	0.00034744	9.817e-05	1302.9	3.9176e-06	3.8783e-06	1304.5	359.55	4.0977e-06	3.8722e-06	412.22	138.34	119.9	41.348	3.8615e-06	51.489	-132.970	-69.229	-47.202	-140.407	14.845	5.675	-140.597	-135.972	-23.843	-11.986	-136.625	-132.368	-131.962	-127.120	3.327	-127.984	-8191	255	
885.393	1	1	0	0	0.090883	0.17483	0.11009	0.31754	0.15118	0.19113	0.29759	0.12024	0.29976	0.22608	0.089389	0.22667	0.10096	0.2732	0.16014	0.16234	-3.0542	-3.9604	-3.4333	-3.6104	-4.1438	-3.2271	-3.8708	-3.9854	-3.1833	-4	-3.6854	-3.5708	-4.1146	-3.4313	-3.5917	-3.9646	-1.639	96.363	187.529	189.195	174.699	-95.546	156.501	76.177	147.245	-42.277	119.859	-122.472	-123.346	154.629	-111.197	-40.512	0.0003567	0.00063997	0.00015693	1289.3	2.1499e-06	4.1201e-06	1282.4	351.73	3.9339e-06	3.4122e-06	405.61	134.38	117.23	40.382	4.5278e-06	50.098	0.00039118	0.00034834	0.00010521	1300.8	4.0274e-06	3.9338e-06	1303	359.18	4.175e-06	3.7575e-06	412.13	138.09	119.93	41.386	4.0587e-06	51.484	-132.600	-62.061	-60.421	-140.905	-13.114	18.271	-140.999	-136.534	-37.902	-29.648	-137.070	-132.756	-132.542	-127.518	-13.902	-128.386	-8191	255	
885.489	1	1	0	0	0.18943	0.058425	0.13678	0.21948	0.16107	0.12876	0.3239	0.16464	0.12925	0.32035	0.12321	0.017315	0.25544	0.33942	0.066889	0.10638	-2.9917	-3.9958	-3.6937	-3.5375	-4.0938	-3.3187	-3.7938	-4.1229	-3.2833	-3.7604	-3.8417	-3.4729	-4.1854	-3.5062	-3.4646	-4.0333	56.126	169.942	166.672	166.346	204.326	-61.155	149.146	126.899	164.689	-129.694	181.747	194.406	-88.034	-137.943	-40.808	155.453	0.00035478	0.0005114	0.00012382	1287.7	3.5383e-06	3.4091e-06	1279.8	353.77	3.1942e-06	4.7837e-06	405.2	135.15	117.37	40.424	3.807e-06	50.119	0.00038689	0.00036012	9.9205e-05	1302.6	3.8998e-06	3.8387e-06	1303.4	359.15	4.0457e-06	3.7915e-06	411.84	138.29	120.03	41.434	3.9365e-06	51.45	-132.093	-65.444	-75.503	-141.062	-0.499	17.396	-140.993	-136.468	-32.247	-3.755	-137.183	-133.083	-132.883	-127.801	-20.373	-128.426	-8191	255	
885.586	1	1	0	0	0.084264	0.16443	0.23203	0.043655	0.13913	0.24532	0.44872	0.19512	0.019787	0.078889	0.15334	0.1555	0.13202	0.20541	0.15657	0.22615	-2.9062	-3.9813	-3.7167	-3.5167	-3.9688	-3.4979	-3.7458	-4.2167	-3.2896	-3.7458	-3.9833	-3.4688	-4.0417	-3.4396	-3.4188	-4.1646	-117.275	187.689	169.943	-106.978	-62.458	-5.594	154.747	111.373	-122.119	112.011	185.341	142.821	66.065	176.960	20.724	65.341	0.00035058	0.00057349	0.00015378	1292.4	3.2678e-06	5.7788e-06	1285.9	352.95	2.6201e-06	4.9819e-06	405.91	135.63	116.84	40.501	4.3294e-06	50.042	0.00038171	0.00035496	9.5933e-05	1304.9	4.0099e-06	3.7941e-06	1304.3	359.09	3.9989e-06	3.9115e-06	411.7	138.45	119.97	41.402	4.0185e-06	51.436	-133.026	-76.874	-74.762	-141.079	-25.442	-11.922	-141.201	-136.859	-47.469	-8.476	-137.410	-133.258	-132.518	-127.813	-22.695	-128.123	-8191	255	
885.682	1	1	0	0	0.057869	0.10517	0.095625	0.24373	0.14369	0.12377	0.20709	0.07901	0.13702	0.10168	0.1568	0.16475	0.39721	0.14011	0.086614	0.2549	-2.9813	-3.8708	-3.8708	-3.4813	-4.1104	-3.6146	-3.6688	-4.2167	-3.3771	-3.8875	-4.0021	-3.3708	-3.9479	-3.6979	-3.3479	-4.2125	-36.800	88.943	75.333	198.510	-152.959	-60.099	184.696	133.474	145.742	26.503	110.788	180.087	194.936	178.162	-36.023	-92.707	0.00033972	0.00046128	0.00016551	1287	2.7677e-06	4.4851e-06	1283.8	352.34	4.114e-06	4.2942e-06	406.79	134.37	117.33	40.513	4.7858e-06	50.266	0.00038	0.00035812	9.8654e-05	1302.1	3.9899e-06	3.6648e-06	1305	359.13	4.179e-06	3.8372e-06	411.86	138.23	120.13	41.41	3.9732e-06	51.541	-134.614	-59.893	-62.452	-141.002	-12.109	15.999	-141.225	-136.925	-36.202	-23.147	-137.303	-133.201	-132.445	-127.659	-15.937	-128.445	-8191	255	
885.801	1	1	0	0	0.050318	0.1095	0.089537	0.079664	0.093959	0.085328	0.34919	0.2587	0.11197	0.16827	0.32111	0.17689	0.1856	0.12284	0.062156	0.10204	-2.9667	-3.7062	-3.9229	-3.4771	-3.9229	-3.6021	-3.4854	-4.1354	-3.3896	-3.7333	-4.2583	-3.4729	-4.0083	-3.8354	-3.2417	-4.2583	-133.308	129.957	11.398	146.813	-34.652	19.260	198.354	116.986	145.861	-14.462	203.665	61.677	-132.823	171.743	160.979	16.185	0.00035449	0.00059285	0.0001648	1289.2	4.2262e-06	4.1746e-06	1284.3	354.19	4.3901e-06	5.4053e-06	406.2	134.84	117.02	40.642	3.5217e-06	50.256	0.00037538	0.000343	9.6167e-05	1303.5	3.9324e-06	3.8088e-06	1304	360.05	4.0246e-06	3.8855e-06	412.99	138.24	119.98	41.401	3.8802e-06	51.504	-138.269	-59.027	-79.047	-141.182	-14.616	-11.363	-141.605	-136.611	-23.589	-16.310	-137.287	-133.354	-132.641	-127.810	-21.926	-128.446	-8191	255	
885.872	1	1	0	0	0.13172	0.10928	0.19132	0.27471	0.11307	0.1686	0.024014	0.39018	0.17594	0.21644	0.21071	0.081009	0.12693	0.2561	0.29353	0.28031	-3.0542	-3.55	-4.0583	-3.6042	-3.9729	-3.8167	-3.4771	-4.3958	-3.5667	-3.3708	-4.3104	-3.5604	-4.0083	-3.9542	-3.3667	-4.1687	-146.495	187.551	78.538	152.116	39.076	18.447	-116.175	131.628	102.452	-139.671	170.932	-143.527	-121.360	116.849	53.014	-67.175	0.00035456	0.00045437	0.00013158	1291.1	2.7457e-06	5.456e-06	1282.9	353.46	4.0196e-06	4.8185e-06	404.92	134.7	117.21	40.476	4.1429e-06	50.234	0.00037589	0.00035394	9.2961e-05	1304.2	4.0496e-06	3.8197e-06	1305.7	359.28	4.0142e-06	3.7769e-06	412.92	138.26	120.21	41.419	3.8767e-06	51.565	-133.914	-64.609	-92.268	-141.193	-20.767	-3.154	-141.360	-136.635	-32.358	-6.795	-137.312	-133.154	-132.536	-127.486	-10.434	-128.315	-8191	255	
885.970	1	1	0	0	0.23744	0.09962	0.10468	0.19671	0.18984	0.095897	0.35532	0.20239	0.18481	0.24656	0.18456	0.055583	0.13219	0.21889	0.26198	0.11777	-3.0875	-3.3563	-4.1708	-3.7333	-3.8875	-4.0667	-3.4271	-4.1667	-3.6771	-3.5333	-4.2104	-3.3812	-3.6875	-4.2292	-3.2917	-4.1125	64.189	-113.444	22.693	191.019	162.696	-24.692	122.163	109.200	-67.784	-23.003	146.196	128.014	42.413	200.694	-104.998	-2.206	0.00034782	0.00049849	0.00013761	1288.9	4.1692e-06	6.021e-06	1283.4	352.86	4.1181e-06	5.1137e-06	405.46	134.84	117.15	40.449	4.3597e-06	50.102	0.00039232	0.00036185	9.6492e-05	1304.2	3.897e-06	3.8184e-06	1304.4	359.46	4.0077e-06	3.9842e-06	413.12	138.19	120.07	41.453	4.1131e-06	51.464	-132.681	-66.198	-73.760	-141.466	-23.244	-16.530	-141.374	-136.625	-14.529	-6.879	-137.179	-133.025	-132.397	-127.870	-0.256	-128.388	-8191	255	
886.089	1	1	0	0	0.214	0.11897	0.16272	0.20075	0.1021	0.082353	0.1497	0.092138	0.30652	0.11247	0.038472	0.039021	0.15558	0.12109	0.27939	0.069925	-3.3875	-3.1896	-4.2042	-3.6708	-3.4813	-4.0375	-3.4771	-4.0604	-3.6458	-3.45	-4.1042	-3.5583	-3.7062	-4.1438	-3.35	-4.0708	-85.531	68.819	34.859	129.557	-57.375	23.679	-128.278	80.315	-136.428	-128.286	26.306	117.720	192.368	175.379	129.768	-144.329	0.00034082	0.00050861	0.00013579	1288.2	3.2039e-06	4.5008e-06	1284.5	353.68	2.0243e-06	4.5567e-06	404.18	134.67	117.71	40.511	2.9173e-06	50.33	0.0003717	0.00036495	9.3228e-05	1301.9	3.9004e-06	3.6824e-06	1304.1	359.87	4.0188e-06	3.8159e-06	411.92	138.21	120.07	41.401	4.2017e-06	51.536	-133.886	-80.394	-62.288	-141.354	-22.932	-22.117	-141.303	-136.632	-16.730	-11.569	-137.217	-132.969	-132.420	-127.447	-12.628	-128.158	-8191	255	
886.185	1	1	0	0	0.20597	0.12628	0.19859	0.25762	0.11232	0.02904	0.13363	0.21532	0.17634	0.16725	0.37845	0.17844	0.16391	0.065691	0.16264	0.064404	-3.3458	-3.2562	-4.0208	-3.7083	-3.6604	-4.2521	-3.4437	-3.9375	-3.8417	-3.3542	-4.3771	-3.6771	-3.5333	-4.2604	-3.425	-3.7083	141.692	75.077	40.456	157.932	41.981	34.185	104.567	-137.089	119.867	-73.665	111.450	178.916	-145.484	57.394	-145.558	75.871	0.00033544	0.0005529	0.00012123	1289.4	2.8733e-06	4.2246e-06	1286.3	351.94	3.2238e-06	5.1843e-06	404.16	134.73	117.34	40.435	5.1089e-06	50.105	0.00038304	0.00035385	9.7077e-05	1300.6	4.1206e-06	3.8683e-06	1303.6	359.26	4.0077e-06	4.0239e-06	412.01	138.08	120.07	41.423	3.9682e-06	51.467	-133.434	-72.817	-77.439	-141.155	-6.935	16.667	-141.275	-136.321	-43.484	2.131	-137.296	-133.019	-132.323	-127.712	-19.894	-128.260	-8191	255	
886.281	1	1	0	0	0.10778	0.13434	0.085828	0.14625	0.15196	0.10032	0.25671	0.11641	0.22151	0.16353	0.15772	0.15247	0.31725	0.073233	0.19624	0.1715	-3.7854	-3.3125	-3.8333	-3.8333	-3.3104	-4.1583	-3.5333	-3.6667	-3.95	-3.2729	-4.2312	-3.9854	-3.3708	-4.0396	-3.4813	-3.6583	-63.755	129.799	70.377	204.959	185.130	97.240	101.956	177.828	173.111	-148.735	146.865	181.214	153.344	115.566	77.911	-27.620	0.00033553	0.0005028	8.9571e-05	1286	4.0743e-06	4.6943e-06	1279.5	353.02	3.6e-06	4.3625e-06	404.68	135.2	116.79	40.519	4.2958e-06	50.203	0.0003798	0.00036945	9.7895e-05	1300.6	4.0551e-06	3.8666e-06	1301.1	359.38	3.9784e-06	4.0092e-06	412.27	138.26	119.9	41.409	4.0232e-06	51.463	-131.961	-88.298	-56.446	-141.118	-12.363	-1.480	-141.169	-136.406	-22.758	-20.883	-136.904	-132.997	-132.232	-127.423	-11.651	-128.001	-8191	255	
886.402	1	1	0	0	0.16987	0.021624	0.025723	0.26455	0.092624	0.15772	0.31112	0.31927	0.11884	0.095891	0.24407	0.095549	0.25882	0.16097	0.28977	0.31179	-3.725	-3.3167	-3.7833	-3.9396	-3.3396	-4.1167	-3.7271	-3.6875	-4	-3.25	-3.9833	-3.7938	-3.4229	-4.2812	-3.5375	-3.5062	-96.787	116.253	-14.613	130.635	90.746	-47.321	150.057	193.814	-111.837	-99.427	172.916	42.696	132.141	-135.980	83.305	75.765	0.00035806	0.000437	0.00013601	1287.2	3.5584e-06	5.4532e-06	1286.3	352.26	3.5683e-06	4.5263e-06	404.82	134.55	117	40.438	3.5653e-06	50.298	0.00038575	0.00036778	9.6083e-05	1301.9	4.0385e-06	3.866e-06	1304.5	359.38	4.1151e-06	3.8992e-06	411.99	138.35	119.97	41.43	4.1536e-06	51.493	-135.205	-79.115	-63.878	-141.153	-35.715	-13.674	-141.172	-136.454	-18.018	1.252	-136.992	-132.947	-132.343	-127.667	-12.894	-128.202	-8191	255	
886.474	1	1	0	0	0.072862	0.094053	0.1316	0.17725	0.17792	0.12944	0.20435	0.16214	0.036502	0.096264	0.07357	0.26492	0.17689	0.034029	0.077152	0.24121	-3.7958	-3.2667	-3.7354	-4.2271	-3.1625	-4.1458	-3.7771	-3.6458	-4.0479	-3.5104	-3.8521	-4.0208	-3.3396	-4.0563	-3.7667	-3.4333	22.935	-7.839	142.492	166.477	-93.509	-71.323	142.257	181.714	89.652	-139.686	-119.611	189.894	-153.137	-19.505	-136.131	-63.153	0.00035405	0.00054196	0.00016147	1288.5	2.5136e-06	3.8696e-06	1282.2	352.48	3.6612e-06	5.8403e-06	405.78	134.45	116.46	40.68	4.7947e-06	50.283	0.00037213	0.00035684	9.5081e-05	1301.4	3.9807e-06	3.6332e-06	1302.6	359.07	3.9307e-06	3.8392e-06	412.02	138.14	119.77	41.44	3.8758e-06	51.497	-132.695	-52.760	-57.290	-140.809	-23.496	-9.808	-140.771	-136.268	-36.460	0.129	-136.584	-132.814	-132.057	-127.235	-36.392	-128.169	-8191	255	
886.570	1	1	0	0	0.26284	0.18887	0.10831	0.041058	0.13828	0.059847	0.26141	0.26604	0.12002	0.227	0.021874	0.049799	0.17362	0.070676	0.10992	0.045982	-3.7917	-3.4417	-3.7042	-4.1521	-3.3958	-4.0479	-4.1625	-3.4708	-4.15	-3.4854	-3.7167	-4.1625	-3.3854	-4.0125	-3.9167	-3.6437	-0.079	139.878	26.295	-73.920	-108.094	154.829	137.285	109.501	-115.680	-154.254	-140.295	-5.235	146.571	-147.949	-33.290	120.696	0.00035464	0.00048771	0.00018938	1285.9	2.8068e-06	3.356e-06	1285.7	352.99	3.5987e-06	4.6187e-06	406.62	134.24	117.14	40.399	2.9835e-06	50.635	0.0003772	0.00035442	0.00010144	1299.9	3.9459e-06	3.7905e-06	1304.2	359.34	3.8652e-06	3.7959e-06	412.42	138.18	119.9	41.413	3.772e-06	51.564	-136.094	-70.122	-61.957	-141.057	-1.153	-2.284	-140.915	-136.459	-21.399	-4.862	-137.106	-132.965	-132.436	-127.348	-13.796	-128.290	-8191	255	
886.690	1	1	0	0	0.11097	0.14168	0.017686	0.28732	0.13997	0.04328	0.24201	0.15809	0.07653	0.11097	0.23295	0.17126	0.24133	0.077205	0.11867	0.21364	-3.7271	-3.4688	-3.5771	-4.1896	-3.3042	-3.8354	-4.0458	-3.4333	-3.9792	-3.7104	-3.5812	-4.0833	-3.4146	-3.8604	-3.9521	-3.3438	-34.522	161.017	-1.380	155.004	21.954	152.527	97.870	57.553	30.853	-30.804	191.114	118.359	-99.783	-128.438	2.033	136.048	0.00035045	0.00053787	0.00019177	1288.5	2.595e-06	6.2357e-06	1288	353.26	3.3171e-06	4.9316e-06	407.22	135	116.83	40.421	5.1621e-06	50.367	0.0003738	0.00034318	9.5323e-05	1301.2	3.9404e-06	3.8443e-06	1304.6	358.87	3.8099e-06	3.8135e-06	412.21	138.12	119.92	41.364	3.8511e-06	51.494	-135.883	-58.626	-70.610	-141.152	-6.331	7.155	-141.224	-136.522	-36.160	-10.337	-136.831	-133.190	-132.337	-127.491	-25.606	-127.937	-8191	255	
886.785	1	1	0	0	0.012218	0.15346	0.31336	0.17129	0.11481	0.42571	0.071808	0.27273	0.11033	0.22074	0.20336	0.31438	0.24586	0.19784	0.12313	0.1834	-3.6312	-3.4833	-3.4229	-4.3625	-3.4479	-3.7417	-4.35	-3.5625	-4.0146	-3.8	-3.4938	-4.2	-3.6125	-3.7313	-3.9979	-3.5271	36.568	169.222	120.175	99.384	151.292	-33.939	-38.077	-139.225	20.677	48.137	162.867	140.868	169.896	-61.686	151.901	-6.302	0.0003418	0.00066141	0.00013132	1289.2	3.9164e-06	3.5049e-06	1284.4	352.63	4.016e-06	3.045e-06	406.42	134.51	116.88	40.338	3.9653e-06	50.046	0.00036912	0.0003388	9.539e-05	1302.7	3.9592e-06	3.6356e-06	1303.1	359.15	3.9032e-06	3.5949e-06	411.58	138.12	119.78	41.344	3.8311e-06	51.458	-135.035	-67.235	-84.288	-140.762	-15.673	-5.732	-141.075	-136.211	-32.284	-27.041	-136.498	-132.944	-132.018	-127.352	-22.180	-127.789	-8191	255	
886.881	1	1	0	0	0.15561	0.079372	0.071865	0.25777	0.03022	0.095234	0.030802	0.31782	0.23287	0.20821	0.40394	0.16546	0.18079	0.15403	0.077493	0.17178	-3.4938	-3.7667	-3.4542	-4.2583	-3.5521	-3.7042	-4.2937	-3.5312	-3.9875	-3.9083	-3.5938	-4.2042	-3.6063	-3.5687	-4.2188	-3.5729	94.905	87.770	4.615	116.949	-44.332	193.275	-7.462	-120.313	-74.339	94.761	144.573	191.182	83.404	61.487	-146.151	127.420	0.00034984	0.00047885	0.00013525	1286	2.7785e-06	4.7072e-06	1280.4	351.63	3.4922e-06	6.2605e-06	404.06	135.21	117.04	40.657	4.0938e-06	50.149	0.00037145	0.00033757	9.7452e-05	1300	3.9432e-06	3.7931e-06	1301.2	358.06	3.8353e-06	3.6766e-06	411.27	138.18	119.91	41.463	3.7989e-06	51.424	-136.150	-51.512	-81.176	-140.785	-10.673	-1.747	-140.833	-136.167	-33.878	-18.945	-136.309	-132.650	-131.829	-126.821	-20.381	-127.569	-8191	255	
887.002	1	1	0	0	0.044845	0.043369	0.17123	0.17196	0.17993	0.19107	0.078018	0.10422	0.16309	0.27499	0.2238	0.14976	0.29697	0.1778	0.093065	0.27306	-3.5542	-3.8563	-3.5917	-4.2792	-3.6958	-3.5687	-4.2979	-3.4958	-3.7521	-3.8729	-3.3396	-4.2875	-3.7771	-3.6292	-4.1167	-3.425	-74.483	-147.754	-131.427	-116.094	57.392	205.224	134.161	88.839	-6.949	117.091	197.082	4.408	-10.355	196.658	117.878	113.512	0.00037497	0.00040143	0.00015211	1289.9	3.2039e-06	2.0598e-06	1287.1	352.47	3.1923e-06	4.4412e-06	405.3	134.47	116.81	40.482	3.3577e-06	50.138	0.000375	0.00034312	9.8345e-05	1301	3.9358e-06	3.6525e-06	1300.7	358.65	3.8521e-06	3.7552e-06	412.29	138.14	119.71	41.401	3.7609e-06	51.374	-137.171	-86.264	-62.383	-140.480	-8.705	-2.145	-141.028	-136.217	-38.756	-1.386	-136.800	-132.483	-131.664	-126.830	3.967	-127.889	-8191	255	
887.098	1	1	0	0	0.022515	0.34732	0.17515	0.12333	0.18323	0.14731	0.062434	0.17158	0.1353	0.15582	0.26372	0.16291	0.1934	0.25903	0.13209	0.14212	-3.5104	-3.9458	-3.3958	-4.4104	-3.8312	-3.4458	-4.3208	-3.5958	-3.8979	-4.1979	-3.5792	-4.0458	-3.9417	-3.5208	-4.1396	-3.9208	-25.728	167.709	146.564	166.780	-7.141	195.098	-73.655	161.808	19.979	-148.699	-132.626	-108.954	-119.746	138.849	-140.154	59.363	0.00036765	0.00040006	0.00014277	1291.2	3.2266e-06	4.075e-06	1281.4	352.97	2.7133e-06	3.7693e-06	404.48	135.04	116.68	40.626	4.598e-06	50.371	0.00037889	0.00033659	9.7644e-05	1301.2	3.861e-06	3.9258e-06	1300.6	358.84	3.8487e-06	3.7249e-06	411.76	138.3	119.69	41.41	3.8482e-06	51.421	-136.485	-56.107	-65.788	-140.552	-31.357	-5.845	-140.527	-135.933	-21.910	-10.813	-136.236	-132.224	-131.756	-126.755	-6.841	-127.597	-8191	255	
887.169	1	1	0	0	0.12887	0.16231	0.18778	0.24378	0.036788	0.14814	0.17082	0.13064	0.087543	0.020215	0.16034	0.17085	0.084753	0.25395	0.060906	0.20495	-3.3937	-4.1312	-3.3688	-4.1042	-3.9813	-3.3521	-4.3375	-3.7875	-3.5083	-4.125	-3.5938	-4.0833	-4.0354	-3.2896	-4.0625	-3.8083	-76.642	-12.515	75.522	137.958	4.378	138.398	31.856	111.748	-95.665	-78.284	93.430	145.692	188.906	178.396	-73.528	-90.916	0.00035144	0.00040803	0.00013374	1289.8	2.8859e-06	5.0161e-06	1281.1	352.15	3.4515e-06	5.3275e-06	404.21	134.65	116.61	40.433	3.2117e-06	49.938	0.00037467	0.00033695	9.433e-05	1301.2	3.9192e-06	3.717e-06	1301.5	358.49	3.8163e-06	3.5932e-06	411.14	138.12	119.58	41.386	3.6989e-06	51.382	-134.623	-92.240	-53.339	-140.318	-13.270	-2.088	-140.756	-136.078	-37.310	-19.048	-136.814	-132.414	-131.669	-126.787	-17.896	-127.353	-8191	255	
887.266	1	1	0	0	0.16303	0.21386	0.19192	0.17618	0.089752	0.07643	0.13149	0.33911	0.11412	0.24335	0.017681	0.2021	0.23825	0.035791	0.070917	0.34976	-3.0542	-4.1583	-3.1479	-3.7812	-3.8812	-3.3646	-4.2271	-3.8312	-3.4167	-4.2875	-3.6146	-3.825	-4.1625	-3.3688	-4.0437	-3.7938	135.491	-149.164	56.879	-133.773	3.879	-107.084	-90.425	95.695	168.752	194.723	125.047	197.918	143.115	51.523	6.944	187.726	0.00034738	0.00048643	0.00016415	1290.3	4.4289e-06	4.4393e-06	1282.7	352.3	3.012e-06	3.544e-06	404.61	134.69	116.99	40.586	3.8619e-06	50.286	0.00038183	0.00033298	9.8195e-05	1301.2	3.7832e-06	3.7157e-06	1301	358.58	3.8454e-06	3.6662e-06	410.93	138.05	119.66	41.418	3.7641e-06	51.476	-133.027	-77.968	-58.320	-140.285	-18.588	6.746	-140.240	-135.848	-42.241	-5.354	-136.504	-132.512	-131.885	-127.215	-19.881	-127.602	-8191	255	
887.362	1	1	0	0	0.12948	0.060561	0.026426	0.16887	0.25	0.19662	0.20272	0.147	0.10141	0.18544	0.2404	0.12967	0.13441	0.10793	0.16667	0.14093	-2.8854	-4.225	-3.4375	-3.7271	-4.0687	-3.4771	-4.1625	-3.8521	-3.3875	-4.0354	-3.8042	-3.9521	-4.2583	-3.3896	-3.9562	-4.05	-65.535	-35.863	28.407	158.923	121.290	56.446	144.196	167.672	205.880	116.493	176.035	183.052	-120.034	-110.156	90.863	3.895	0.00032835	0.00054807	0.00013346	1288.1	1.8887e-06	4.2124e-06	1282.8	352.59	3.5179e-06	4.7599e-06	406.72	135.05	117.27	40.493	3.4453e-06	50.058	0.00037925	0.00034106	9.5123e-05	1300.4	3.8672e-06	3.6612e-06	1300.7	358.43	3.9151e-06	3.6486e-06	411.09	138.1	120.1	41.388	3.8046e-06	51.301	-134.151	-71.160	-51.310	-139.939	-19.485	-12.287	-140.674	-135.915	-53.469	7.264	-136.441	-132.120	-132.026	-126.312	-2.388	-127.670	-8191	255	
887.482	1	1	0	0	0.031383	0.20958	0.15145	0.23948	0.14595	0.13716	0.040759	0.089861	0.11122	0.16301	0.25155	0.13669	0.2148	0.16305	0.1747	0.11478	-2.9833	-4.1125	-3.55	-3.6208	-4.0667	-3.3937	-4.1021	-3.9688	-3.4854	-4.0958	-3.7812	-3.7021	-4.2167	-3.4354	-3.9042	-4.1167	24.323	-2.350	-30.668	166.076	169.370	-36.208	-96.958	3.522	-85.772	-93.401	133.571	20.995	-104.707	181.004	130.118	182.892	0.00034092	0.00038276	0.00012288	1287	2.9005e-06	5.7451e-06	1279.9	352.82	3.3845e-06	4.3455e-06	405.99	134.89	116.97	40.411	4.3724e-06	50.093	0.00038247	0.00033018	9.4873e-05	1298.9	3.8524e-06	3.851e-06	1300.2	358.4	3.9316e-06	3.6749e-06	411.31	138.29	119.76	41.28	3.7321e-06	51.416	-132.770	-57.876	-54.570	-140.183	0.075	-21.000	-140.840	-136.212	-37.828	-19.078	-136.504	-132.386	-131.702	-126.805	-23.671	-127.452	-8191	255	
887.579	1	1	0	0	0.34222	0.12172	0.23825	0.17546	0.18674	0.11522	0.28034	0.29657	0.11032	0.26378	0.055567	0.15178	0.11199	0.085524	0.060857	0.067277	-2.9542	-4.0896	-3.8625	-3.6375	-4.2063	-3.4271	-3.8979	-4.1312	-3.1917	-4.0938	-3.8438	-3.5104	-4.2188	-3.6562	-3.4625	-4.2292	171.861	164.334	187.816	191.022	87.717	-18.078	172.883	135.065	62.729	24.057	-87.727	104.128	101.691	-57.085	-124.520	102.633	0.0003352	0.00044867	0.00020576	1290.1	2.8924e-06	4.5679e-06	1282.9	352.46	3.7265e-06	4.9201e-06	405.7	134.53	117.22	40.546	4.2071e-06	50.537	0.0003749	0.00033611	9.4555e-05	1299	3.8835e-06	3.8231e-06	1302	358.67	3.997e-06	3.7612e-06	411.51	137.85	119.94	41.398	3.9444e-06	51.482	-135.989	-79.436	-69.020	-140.211	-2.694	4.528	-140.330	-135.867	-20.774	-16.710	-136.615	-132.614	-131.790	-127.014	-33.888	-127.504	-8191	255	
887.673	1	1	0	0	0.22208	0.31974	0.022464	0.18107	0.12381	0.20232	0.086963	0.1113	0.066608	0.043612	0.12566	0.030704	0.078072	0.14561	0.22208	0.1471	-2.9062	-4.0042	-3.9417	-3.65	-4.2417	-3.5938	-3.8167	-4.3625	-3.2854	-3.8396	-3.9813	-3.5042	-4.3458	-3.6208	-3.6042	-4.2646	135.289	-29.013	2.283	183.985	-104.973	174.196	119.410	-143.611	139.071	188.492	-1.700	199.441	-83.351	184.476	-73.962	156.471	0.00034196	0.00041615	0.00015384	1291.4	3.2642e-06	6.9773e-06	1285.7	354.72	4.0988e-06	4.8296e-06	404.16	134.49	116.98	40.569	3.8484e-06	50.243	0.00038414	0.00032702	9.5482e-05	1301.3	3.9628e-06	3.7755e-06	1301.9	359.39	4.0224e-06	3.7559e-06	411.01	138.09	119.8	41.407	3.8679e-06	51.444	-136.238	-54.926	-67.518	-139.895	14.017	-15.906	-140.272	-135.952	-33.297	3.594	-136.806	-132.776	-131.859	-126.988	-17.475	-127.127	-8191	255	
887.771	1	1	0	0	0.10473	0.18866	0.24579	0.14048	0.16596	0.14471	0.3083	0.065117	0.20529	0.18079	0.020438	0.15012	0.097127	0.071216	0.15356	0.10958	-3.1292	-4.0292	-4.05	-3.5687	-4.2042	-3.6583	-3.7354	-4.3313	-3.4521	-3.6542	-4.2	-3.5292	-4.1333	-3.7854	-3.3688	-4.2271	-70.459	119.960	-55.543	160.570	-21.455	59.488	-134.281	63.732	-95.531	-119.183	-3.191	-128.612	-125.286	-95.932	36.281	-121.653	0.00037139	0.00047511	9.2087e-05	1287.7	2.6317e-06	4.4643e-06	1282.9	352.29	3.1992e-06	5.425e-06	405.73	134.59	117.2	40.467	3.5983e-06	50.286	0.00037858	0.00035078	9.8012e-05	1298.4	3.8964e-06	3.6758e-06	1300.2	358.3	4.009e-06	3.9805e-06	412.05	137.97	119.79	41.337	4.09e-06	51.485	-132.989	-67.019	-78.581	-140.342	-10.271	-15.974	-140.363	-135.797	-41.022	-6.407	-136.242	-132.411	-131.535	-127.027	4.428	-127.525	-8191	255	
887.865	1	1	0	0	0.14322	0.03417	0.074509	0.14147	0.26843	0.16383	0.22377	0.11211	0.21406	0.047831	0.02464	0.024151	0.15355	0.065773	0.22989	0.13856	-3.2083	-3.7125	-4.0938	-3.4875	-4	-3.7771	-3.4479	-4.4833	-3.5438	-3.7479	-4.1292	-3.4979	-4.1375	-4.0417	-3.2708	-4.1458	174.277	-54.901	30.634	134.003	-3.174	-127.786	172.951	138.438	-141.870	49.250	-17.171	196.449	104.370	-144.405	-138.342	164.707	0.00034333	0.00054684	0.00014905	1291.4	3.6261e-06	4.1119e-06	1281.4	353.68	4.0419e-06	5.0868e-06	405.93	134.23	117.08	40.376	3.8963e-06	50.297	0.0003812	0.0003501	9.4931e-05	1299.5	3.9635e-06	3.858e-06	1301.5	359.1	4.094e-06	3.8945e-06	411.69	137.75	119.76	41.286	3.9697e-06	51.346	-135.899	-70.148	-82.004	-140.077	-23.839	1.255	-140.364	-135.876	-10.698	-0.304	-136.245	-132.685	-131.738	-126.904	-17.403	-127.343	-8191	255	
887.961	1	1	0	0	0.092614	0.077668	0.11358	0.32493	0.2421	0.18517	0.31017	0.14381	0.073224	0.2539	0.17237	0.17953	0.099012	0.22272	0.080172	0.055971	-3.1125	-3.7188	-4.0854	-3.4979	-3.7896	-3.8646	-3.6063	-4.2604	-3.7479	-3.5604	-4.3396	-3.4833	-3.9583	-3.8854	-3.5146	-4.1458	193.415	-82.511	-42.960	177.315	67.336	-27.898	155.074	172.530	174.314	124.807	152.724	-132.505	-127.328	-138.203	89.769	-68.613	0.00036237	0.00042636	0.00011239	1282.7	4.2127e-06	4.1974e-06	1282.5	352.17	4.5898e-06	4.8573e-06	407.56	134.97	116.95	40.472	2.9324e-06	50.183	0.00038427	0.00035526	9.7736e-05	1297.2	4.1477e-06	3.967e-06	1301.1	358.76	4.1555e-06	3.9045e-06	412.28	137.96	119.72	41.316	4.0378e-06	51.423	-133.570	-83.527	-76.157	-140.359	5.986	4.886	-140.369	-135.760	-23.184	4.338	-136.324	-132.342	-131.297	-126.425	-12.305	-127.372	-8191	255	
888.082	1	1	0	0	0.11491	0.073185	0.27	0.11063	0.16496	0.24045	0.21858	0.34724	0.29794	0.22773	0.17395	0.20416	0.26446	0.09795	0.084921	0.14498	-3.3646	-3.4	-4.1542	-3.5167	-3.7604	-3.8771	-3.6771	-4.2208	-3.7125	-3.5333	-4.3083	-3.625	-3.8917	-4.1958	-3.2687	-4.1062	-113.556	177.306	86.780	-98.997	59.079	-4.339	171.306	128.548	-32.868	5.674	-120.460	163.729	134.139	-120.859	43.704	-152.679	0.00035094	0.00059363	0.00016024	1290.3	2.3759e-06	2.7313e-06	1281.4	351.92	3.4506e-06	2.3829e-06	407.82	134.37	116.93	40.35	4.5476e-06	50.33	0.00038422	0.00037011	9.8512e-05	1301.8	4.0256e-06	3.7888e-06	1301.6	359.17	4.164e-06	4.0665e-06	412.4	137.88	119.7	41.289	4.0897e-06	51.418	-133.769	-58.856	-66.671	-140.379	-2.141	31.372	-140.474	-135.905	-36.713	-18.965	-136.344	-132.363	-131.494	-126.747	-11.907	-127.201	-8191	255	
888.178	1	1	0	0	0.16837	0.11575	0.13736	0.17567	0.18986	0.074506	0.29626	0.15007	0.12106	0.23619	0.30092	0.081849	0.1512	0.0086018	0.069463	0.20166	-3.4604	-3.5854	-4.2375	-3.7062	-3.5125	-4.1729	-3.5458	-4.0604	-4.0229	-3.4354	-4.2708	-3.6896	-3.7583	-4.2937	-3.3479	-3.8708	-130.642	31.473	-111.234	168.572	-45.575	90.776	130.691	186.450	-144.067	40.868	191.070	91.287	167.212	177.321	36.184	-125.448	0.00034556	0.00033204	0.00014728	1288.5	4.1686e-06	4.8942e-06	1281.3	354.27	4.5687e-06	4.8187e-06	407.52	134.54	117.12	40.472	5.0361e-06	50.071	0.00038556	0.00037443	9.9998e-05	1298.5	4.0416e-06	3.9378e-06	1300.2	359.06	4.2393e-06	3.9772e-06	412.33	137.83	119.77	41.289	4.1175e-06	51.433	-131.940	-65.980	-62.406	-140.087	-8.772	2.810	-140.348	-135.681	-14.975	-1.777	-136.072	-131.978	-131.657	-126.868	-14.473	-127.124	-8191	255	
888.274	1	1	0	0	0.16054	0.12806	0.17748	0.16098	0.035505	0.1754	0.14489	0.11723	0.097143	0.27594	0.17209	0.17705	0.09028	0.48335	0.35279	0.0062623	-3.4313	-3.2458	-4.1167	-3.8917	-3.4729	-4.1771	-3.4833	-3.9417	-4.075	-3.4583	-4.2667	-3.9167	-3.4958	-4.1792	-3.3083	-3.9437	-79.969	108.781	117.057	137.530	187.348	137.488	163.686	-152.959	6.950	-42.998	188.162	82.283	-71.491	-132.475	91.890	-102.364	0.00034677	0.00031897	0.00019235	1287.8	3.8738e-06	3.1655e-06	1280.6	352.69	4.3054e-06	4.4859e-06	405.51	134.11	116.69	40.437	3.491e-06	50.142	0.00039596	0.00036426	0.00010171	1300.7	4.1231e-06	3.9198e-06	1300.3	358.83	4.1708e-06	4.0255e-06	411.53	137.68	119.55	41.281	4.1523e-06	51.468	-135.518	-76.190	-68.835	-140.017	-12.498	-22.132	-140.307	-135.552	-30.343	-2.013	-136.337	-132.453	-131.938	-126.911	-0.045	-127.277	-8191	255	
888.370	1	1	0	0	0.022419	0.37135	0.2407	0.3273	0.027431	0.13037	0.43548	0.097923	0.21479	0.25138	0.042425	0.15627	0.35327	0.14559	0.10183	0.098115	-3.6688	-3.2333	-4.2083	-3.85	-3.4771	-4.2292	-3.775	-3.8271	-3.9583	-3.5292	-4.1583	-3.8875	-3.6333	-4.2604	-3.6958	-3.825	80.120	148.233	117.059	168.221	127.969	116.276	179.545	-58.173	31.537	118.339	121.471	95.345	169.333	-59.322	85.603	-93.443	0.00034691	0.00057337	0.00020237	1286.8	2.2815e-06	6.5253e-06	1277.6	351.89	3.4869e-06	4.8026e-06	405.28	134.63	117.33	40.376	3.6195e-06	50.223	0.00038391	0.00037049	0.00010282	1298.9	4.2172e-06	3.8347e-06	1298.6	358.3	4.049e-06	4.0279e-06	411.95	137.96	119.85	41.357	4.0805e-06	51.431	-133.986	-79.383	-58.229	-140.316	-10.614	-5.821	-140.920	-136.374	-35.481	-13.681	-136.437	-132.645	-131.934	-126.687	-4.965	-127.523	-8191	255	
888.467	1	1	0	0	0.10253	0.16458	0.078095	0.33175	0.14026	0.079583	0.16661	0.17034	0.18818	0.25117	0.036852	0.015107	0.10271	0.20375	0.069107	0.10469	-3.8896	-3.1312	-3.9042	-4.1458	-3.5021	-4.2375	-3.7812	-3.8625	-4.0646	-3.325	-3.8229	-4.0646	-3.5021	-4.2104	-3.6396	-3.7479	28.516	119.873	98.175	169.639	-72.961	76.784	159.833	112.245	14.618	45.362	96.528	-97.452	67.959	139.248	119.815	-92.433	0.0003567	0.0005122	8.6759e-05	1284.5	3.4709e-06	5.1769e-06	1284.7	352.89	3.846e-06	6.2141e-06	406.7	134.2	116.8	40.524	2.2554e-06	50.208	0.00037754	0.00035901	0.00010108	1298.4	4.0846e-06	4.0295e-06	1301.3	359.26	4.1233e-06	4.0435e-06	412.05	137.76	119.55	41.312	4.0134e-06	51.418	-135.082	-83.137	-57.818	-140.686	-15.034	-7.472	-140.289	-135.646	-49.664	-6.181	-136.105	-132.189	-131.314	-126.612	-25.657	-127.296	-8191	255	
888.563	1	1	0	0	0.15857	0.20953	0.26772	0.187	0.032264	0.10597	0.2987	0.11638	0.12387	0.23112	0.067368	0.10438	0.03429	0.054534	0.14718	0.17229	-3.8958	-3.2458	-3.8667	-4.2	-3.5167	-3.95	-3.8688	-3.6188	-4.1813	-3.4729	-3.9604	-4.2375	-3.4958	-4.2604	-3.8479	-3.4625	79.969	90.832	-56.354	125.638	53.606	6.121	189.376	131.512	45.874	47.579	29.710	-39.037	-9.810	-115.667	148.896	-43.199	0.00033693	0.00033944	0.0001115	1291.2	3.0319e-06	4.4559e-06	1279.4	353.34	2.941e-06	4.9553e-06	408.02	134.91	117.13	40.425	3.3584e-06	50.287	0.00037522	0.0003634	0.00010042	1300.1	4.2233e-06	3.84e-06	1300	358.66	3.9625e-06	3.9389e-06	412.15	138.07	119.8	41.311	3.9587e-06	51.401	-138.250	-62.519	-69.951	-140.117	-11.964	-2.944	-140.306	-135.569	-33.977	-21.239	-136.017	-132.166	-131.392	-126.292	-10.333	-127.332	-8191	255	
888.659	1	1	0	0	0.067402	0.11918	0.16914	0.078368	0.051339	0.17464	0.21623	0.32016	0.1261	0.25484	0.11461	0.12052	0.13379	0.13708	0.20791	0.30173	-3.7875	-3.5271	-3.6521	-4.1833	-3.3958	-3.9854	-4.0271	-3.5208	-4.1229	-3.4688	-3.7479	-4.225	-3.4729	-4.0208	-3.8854	-3.6354	11.955	194.441	-77.009	166.981	-103.378	134.333	122.494	131.301	201.085	143.733	206.461	165.474	166.605	172.495	-26.414	-118.665	0.00033544	0.0006026	0.00014713	1288.8	2.8237e-06	4.2249e-06	1281.6	352.72	2.9777e-06	5.032e-06	404.59	134.87	117.08	40.491	3.5644e-06	50.111	0.0003746	0.00035505	0.00010091	1300.2	4.1551e-06	3.7001e-06	1301.9	358.63	3.9386e-06	4.1195e-06	411.29	138.03	119.64	41.357	3.8922e-06	51.424	-135.292	-87.807	-77.727	-140.895	-16.083	-4.099	-140.117	-135.150	-13.935	-0.813	-136.321	-132.057	-131.759	-126.670	-10.938	-127.544	-8191	255	
888.778	1	1	0	0	0.10989	0.24809	0.099588	0.37225	0.30273	0.10342	0.16604	0.45087	0.16987	0.097386	0.18687	0.32694	0.20764	0.040647	0.08366	0.032751	-3.7604	-3.4188	-3.5208	-4.3354	-3.4646	-3.8854	-4.1188	-3.5458	-4.2896	-3.6208	-3.6333	-4.2312	-3.6813	-3.8792	-4.0188	-3.3438	-86.416	-88.718	-25.966	192.017	156.438	-15.724	150.387	144.764	-72.401	-69.243	164.886	165.790	-144.121	103.578	-101.051	191.771	0.00034403	0.00060626	0.00016722	1287.2	3.4363e-06	4.1457e-06	1282.8	352.35	4.4633e-06	4.8376e-06	403.83	134.94	116.58	40.609	2.2856e-06	50.29	0.00038395	0.00035603	9.9564e-05	1299.1	4.0354e-06	3.8437e-06	1299.7	358.51	3.9711e-06	3.8715e-06	411.18	137.91	119.44	41.361	3.7694e-06	51.441	-135.707	-66.479	-62.974	-140.388	-12.462	-15.754	-140.532	-135.692	-23.862	-7.303	-136.175	-132.609	-131.694	-126.850	-11.698	-127.397	-8191	255	
888.874	1	1	0	0	0.16781	0.10373	0.078698	0.28237	0.12212	0.056867	0.20441	0.13363	0.12684	0.033861	0.10414	0.088616	0.040157	0.17331	0.19934	0.20721	-3.8104	-3.8854	-3.4083	-4.2854	-3.4021	-3.9062	-4.2729	-3.5354	-3.9604	-4.1062	-3.6271	-4.2333	-3.7146	-3.8146	-4.2271	-3.4958	76.283	60.204	126.728	139.067	26.449	163.709	95.109	-111.971	50.481	109.197	35.728	123.705	139.291	99.820	-128.809	106.938	0.00037101	0.00061193	0.00011732	1286	4.6316e-06	4.012e-06	1280.9	351.75	3.5385e-06	3.0125e-06	404.94	134.63	116.51	40.376	3.5187e-06	50.242	0.00037892	0.0003478	9.8379e-05	1296.8	4.0754e-06	3.8008e-06	1298.6	358.03	3.9741e-06	3.9865e-06	411.15	137.81	119.72	41.364	3.8109e-06	51.434	-134.573	-77.060	-60.217	-140.304	3.925	-7.004	-140.568	-135.807	-33.224	-2.028	-136.245	-132.215	-131.315	-126.748	-7.504	-127.259	-8191	255	
888.970	1	1	0	0	0.19281	0.13231	0.26979	0.32429	0.27085	0.18953	0.26177	0.21622	0.25933	0.13877	0.071941	0.22105	0.095047	0.08808	0.07327	0.26001	-3.5708	-3.8063	-3.3208	-4.3104	-3.7062	-3.7417	-4.3229	-3.6333	-3.9292	-3.9521	-3.4688	-4.2542	-3.5729	-3.5479	-4.1396	-3.5792	-15.512	-73.786	166.453	181.352	160.749	-151.207	104.276	138.479	157.974	-38.899	55.706	109.531	158.259	147.866	-67.945	128.565	0.00036222	0.00052071	0.00012485	1291.8	4.7783e-06	4.7693e-06	1279.6	351.8	3.0971e-06	4.5811e-06	404.96	134.63	117.29	40.363	4.1336e-06	49.998	0.00037359	0.00034413	9.8955e-05	1299.9	4.1369e-06	3.9128e-06	1298.7	358.2	3.9463e-06	3.7155e-06	410.94	138.14	119.66	41.292	3.8792e-06	51.295	-132.930	-73.246	-76.554	-140.247	-1.594	-15.324	-140.327	-135.529	-9.016	6.216	-135.949	-132.304	-131.541	-126.707	-25.007	-127.363	-8191	255	
#DATA ENDS
