BOXY.EXE: ISS Imagent and Oximeter Data Acquisition Program Version 0.80
Ascii Record File

#ACQ INFORMATION
2  Detector Channels 
16  External MUX Channels 
1  Auxiliary Channels 
5000  Waveform (CCF) Frequency (Hz)
1  Waveforms Skipped 
30  Waveforms Averaged 
1  Cycles Averaged 
16  Acquisitions per Waveform 
10.0806  Updata Rate (Hz) 

#FILE INFORMATION
TRUE -- External MUX Channel results are PARSED.
FALSE -- AC DC and Phase are NOT grouped.
TRUE -- Companion Program Settings File CREATED.
FALSE -- AC data not excluded
FALSE -- DC data not excluded
FALSE -- Phase data not excluded
FALSE -- Auxillary Chn. data not excluded
Tab delimiters

#CALIBRATION STATE
TRUE -- Waveform Calibration Values APPLIED.


#AUX CALIBRATION VALUES
Val Type	aux-1	

Term	1.0000e+00	
Factor	0.0000e+00	


#WF CALIBRATION VALUES
A = Detector Channel
Val Type	A-AC1	A-AC2	A-AC3	A-AC4	A-AC5	A-AC6	A-AC7	A-AC8	A-AC9	A-AC10	A-AC11	A-AC12	A-AC13	A-AC14	A-AC15	A-AC16	A-DC1	A-DC2	A-DC3	A-DC4	A-DC5	A-DC6	A-DC7	A-DC8	A-DC9	A-DC10	A-DC11	A-DC12	A-DC13	A-DC14	A-DC15	A-DC16	A-Ph1	A-Ph2	A-Ph3	A-Ph4	A-Ph5	A-Ph6	A-Ph7	A-Ph8	A-Ph9	A-Ph10	A-Ph11	A-Ph12	A-Ph13	A-Ph14	A-Ph15	A-Ph16	

Term	0.00000e+00	0.00000e+00	0.00000e+00	0.00000e+00	0.00000e+00	0.00000e+00	0.00000e+00	0.00000e+00	0.00000e+00	0.00000e+00	0.00000e+00	0.00000e+00	0.00000e+00	0.00000e+00	0.00000e+00	0.00000e+00	0.00000e+00	0.00000e+00	0.00000e+00	0.00000e+00	0.00000e+00	0.00000e+00	0.00000e+00	0.00000e+00	0.00000e+00	0.00000e+00	0.00000e+00	0.00000e+00	0.00000e+00	0.00000e+00	0.00000e+00	0.00000e+00	0.00000e+00	0.00000e+00	0.00000e+00	0.00000e+00	0.00000e+00	0.00000e+00	0.00000e+00	0.00000e+00	0.00000e+00	0.00000e+00	0.00000e+00	0.00000e+00	0.00000e+00	0.00000e+00	0.00000e+00	0.00000e+00	
Factor	1.00000e+00	1.00000e+00	1.00000e+00	1.00000e+00	1.00000e+00	1.00000e+00	1.00000e+00	1.00000e+00	1.00000e+00	1.00000e+00	1.00000e+00	1.00000e+00	1.00000e+00	1.00000e+00	1.00000e+00	1.00000e+00	1.00000e+00	1.00000e+00	1.00000e+00	1.00000e+00	1.00000e+00	1.00000e+00	1.00000e+00	1.00000e+00	1.00000e+00	1.00000e+00	1.00000e+00	1.00000e+00	1.00000e+00	1.00000e+00	1.00000e+00	1.00000e+00	X	X	X	X	X	X	X	X	X	X	X	X	X	X	X	X	

B = Detector Channel
Val Type	B-AC1	B-AC2	B-AC3	B-AC4	B-AC5	B-AC6	B-AC7	B-AC8	B-AC9	B-AC10	B-AC11	B-AC12	B-AC13	B-AC14	B-AC15	B-AC16	B-DC1	B-DC2	B-DC3	B-DC4	B-DC5	B-DC6	B-DC7	B-DC8	B-DC9	B-DC10	B-DC11	B-DC12	B-DC13	B-DC14	B-DC15	B-DC16	B-Ph1	B-Ph2	B-Ph3	B-Ph4	B-Ph5	B-Ph6	B-Ph7	B-Ph8	B-Ph9	B-Ph10	B-Ph11	B-Ph12	B-Ph13	B-Ph14	B-Ph15	B-Ph16	

Term	0.00000e+00	0.00000e+00	0.00000e+00	0.00000e+00	0.00000e+00	0.00000e+00	0.00000e+00	0.00000e+00	0.00000e+00	0.00000e+00	0.00000e+00	0.00000e+00	0.00000e+00	0.00000e+00	0.00000e+00	0.00000e+00	0.00000e+00	0.00000e+00	0.00000e+00	0.00000e+00	0.00000e+00	0.00000e+00	0.00000e+00	0.00000e+00	0.00000e+00	0.00000e+00	0.00000e+00	0.00000e+00	0.00000e+00	0.00000e+00	0.00000e+00	0.00000e+00	-1.33287e+02	-1.33058e+02	-1.22415e+02	-1.83602e+02	-6.63235e+01	-6.86494e+01	-1.58175e+02	-1.62015e+02	-6.98326e+01	-6.27199e+01	-1.70709e+02	-1.71243e+02	-1.78816e+02	-1.76819e+02	-7.21941e+01	-1.49827e+02	
Factor	1.98011e-05	1.68726e-04	4.68094e-05	1.72646e-01	1.25001e-06	1.72005e-06	1.91519e-01	5.90140e-02	1.19171e-06	1.73739e-06	9.70808e-02	3.25887e-02	3.02680e-02	1.03601e-02	1.44427e-06	1.45597e-02	1.17642e-05	1.95404e-05	5.41394e-06	8.28772e-02	1.95271e-07	2.18153e-07	8.65750e-02	2.84976e-02	1.98045e-07	2.18247e-07	4.54550e-02	1.53416e-02	1.48428e-02	5.03973e-03	2.04727e-07	6.86683e-03	X	X	X	X	X	X	X	X	X	X	X	X	X	X	X	X	



#DISTANCE SETTINGS
A = Detector Channel
A-1	A-2	A-3	A-4	A-5	A-6	A-7	A-8	A-9	A-10	A-11	A-12	A-13	A-14	A-15	A-16	

2.5000e+00	3.0000e+00	2.5000e+00	3.0000e+00	2.0000e+00	3.0000e+00	1.5000e+00	3.0000e+00	3.0000e+00	3.0000e+00	3.0000e+00	3.0000e+00	3.0000e+00	3.0000e+00	1.5000e+00	3.0000e+00	

B = Detector Channel
B-1	B-2	B-3	B-4	B-5	B-6	B-7	B-8	B-9	B-10	B-11	B-12	B-13	B-14	B-15	B-16	

1.0000e+01	1.0000e+01	1.0000e+01	1.4400e+00	1.0000e+01	1.0000e+01	1.5100e+00	1.9400e+00	1.0000e+01	1.0000e+01	1.9900e+00	2.4900e+00	2.4100e+00	2.9000e+00	1.0000e+01	2.9800e+00	




#DATA BEGINS
time	group	step	mark	flag	A-AC1	A-AC2	A-AC3	A-AC4	A-AC5	A-AC6	A-AC7	A-AC8	A-AC9	A-AC10	A-AC11	A-AC12	A-AC13	A-AC14	A-AC15	A-AC16	A-DC1	A-DC2	A-DC3	A-DC4	A-DC5	A-DC6	A-DC7	A-DC8	A-DC9	A-DC10	A-DC11	A-DC12	A-DC13	A-DC14	A-DC15	A-DC16	A-Ph1	A-Ph2	A-Ph3	A-Ph4	A-Ph5	A-Ph6	A-Ph7	A-Ph8	A-Ph9	A-Ph10	A-Ph11	A-Ph12	A-Ph13	A-Ph14	A-Ph15	A-Ph16	B-AC1	B-AC2	B-AC3	B-AC4	B-AC5	B-AC6	B-AC7	B-AC8	B-AC9	B-AC10	B-AC11	B-AC12	B-AC13	B-AC14	B-AC15	B-AC16	B-DC1	B-DC2	B-DC3	B-DC4	B-DC5	B-DC6	B-DC7	B-DC8	B-DC9	B-DC10	B-DC11	B-DC12	B-DC13	B-DC14	B-DC15	B-DC16	B-Ph1	B-Ph2	B-Ph3	B-Ph4	B-Ph5	B-Ph6	B-Ph7	B-Ph8	B-Ph9	B-Ph10	B-Ph11	B-Ph12	B-Ph13	B-Ph14	B-Ph15	B-Ph16	aux-1	digaux	

57899.418	1	1	0	256	0.13707	0.061592	0.28119	0.27126	0.036196	0.11017	0.067167	0.20963	0.16622	0.12502	0.058844	0.10069	0.12925	0.01858	0.2443	0.13701	-3.2354	-4.3083	-4.1104	-3.6917	-4.4167	-3.8229	-4.0729	-4.6312	-3.4458	-4.4104	-4.3646	-3.8354	-4.5125	-3.9188	-3.7562	-4.6792	-49.140	-134.849	-55.029	164.346	-79.268	-28.781	147.776	185.246	72.151	12.832	186.893	-33.906	-57.939	-87.414	-128.343	182.918	0.00056224	0.00063789	0.00026666	1348.8	3.7482e-06	1.3196e-05	1730.2	384.15	4.0931e-06	7.6055e-06	594.66	192.64	110.77	44.357	2.4548e-06	91.79	0.0035014	0.0052454	0.0013768	1219	5.2235e-05	5.866e-05	1570.4	350.99	5.4448e-05	5.7327e-05	542.39	179.06	103.47	41.027	5.1842e-05	84.754	198.762	-84.249	75.752	-134.073	-58.133	38.019	-133.968	-130.184	-27.345	-70.675	-130.719	-127.100	-126.516	-120.977	32.787	-122.332	-8191	255	
57899.535	1	1	0	0	0.14591	0.067183	0.20067	0.050264	0.21445	0.14228	0.3034	0.11573	0.019434	0.063313	0.11928	0.17833	0.060421	0.14637	0.12683	0.11828	-3.2646	-4.1687	-4.2167	-3.8604	-4.4583	-3.7771	-4.0167	-4.775	-3.725	-4.2333	-4.7229	-3.7812	-4.5437	-4.0667	-3.8583	-4.6521	-139.394	-91.570	116.168	-111.472	-139.630	201.679	175.655	197.324	9.090	127.073	175.211	192.904	-8.180	-135.076	-103.563	-93.623	0.00058194	0.0013706	0.00024213	1363.3	9.1005e-06	8.9682e-06	1769.4	393.8	5.4359e-06	6.7338e-06	607.68	197.44	112.73	44.934	5.7039e-06	93.347	0.0034632	0.005049	0.001384	1238.5	5.1726e-05	5.7613e-05	1601.7	359.75	5.3898e-05	5.5165e-05	556.42	182.59	105.48	41.764	5.3855e-05	85.685	199.464	-104.135	-134.696	-133.969	-10.465	118.735	-134.098	-130.517	-62.966	57.726	-130.700	-127.222	-126.756	-121.090	22.738	-122.489	-8191	255	
57899.609	1	1	0	0	0.22664	0.18253	0.24241	0.20422	0.10408	0.12849	0.25197	0.12257	0.3568	0.068047	0.079747	0.034507	0.27713	0.07365	0.09965	0.38135	-3.3271	-4.0479	-4.4979	-3.7479	-4.4313	-3.9437	-4.1021	-4.7375	-3.7833	-4.0271	-4.5771	-3.825	-4.3979	-4.2625	-3.6771	-4.6188	-30.887	44.425	-118.065	-127.660	145.636	44.025	130.749	166.458	-63.993	151.206	-2.439	-34.654	164.306	194.900	87.665	170.343	0.00051094	0.00078903	0.00030988	1379.5	5.903e-06	2.0514e-06	1748	390.53	1.2563e-05	7.465e-06	590.78	189.38	109.41	43.468	7.6125e-06	88.941	0.0035191	0.0048856	0.0014051	1241.2	5.1893e-05	5.6144e-05	1587.4	355.23	5.3352e-05	5.5437e-05	542.38	176.24	102.23	40.16	5.4872e-05	82.239	208.657	-48.502	-93.655	-134.231	142.897	-69.501	-134.355	-130.544	-11.834	-35.870	-130.633	-127.278	-127.020	-121.154	-43.480	-122.592	-8191	255	
57899.730	1	1	0	0	0.057854	0.15255	0.18304	0.11554	0.20528	0.25049	0.30034	0.099267	0.037924	0.15992	0.085413	0.065242	0.15786	0.14171	0.036134	0.27352	-3.5646	-3.8937	-4.275	-3.8021	-4.3521	-4.1625	-3.7938	-4.5917	-3.7479	-3.9208	-4.7063	-3.6562	-4.3208	-4.2438	-3.3979	-4.5437	-83.146	80.348	-68.372	-143.245	-75.110	-7.151	133.291	147.382	-134.717	87.553	198.688	93.040	186.230	124.256	102.768	126.973	0.00057071	0.00059417	0.00026717	1339.6	4.7884e-06	1.2543e-05	1717.2	383.22	4.2906e-06	5.547e-06	588.63	189	109.01	43.355	1.162e-05	89.402	0.0034363	0.0049989	0.0014643	1212.9	5.1625e-05	5.7186e-05	1560.5	351.06	5.3533e-05	5.7725e-05	540.19	174.68	101.74	40.207	5.688e-05	82.574	199.184	140.975	-75.404	-134.342	-65.330	90.456	-134.143	-130.034	-17.265	-26.374	-130.947	-127.318	-127.286	-121.407	-47.808	-122.690	-8191	255	
57899.824	1	1	0	0	0.15871	0.066728	0.19893	0.10748	0.06096	0.15598	0.16398	0.17222	0.074715	0.11146	0.076763	0.27531	0.28452	0.10204	0.11208	0.2325	-3.3292	-3.7521	-4.4187	-3.775	-4.0833	-4.3896	-3.775	-4.5229	-4.1333	-3.7271	-4.6083	-3.7646	-4.2604	-4.5479	-3.7271	-4.5646	-124.464	-16.573	203.837	113.297	-146.426	-117.304	156.204	-147.952	19.500	46.360	200.098	97.375	-124.251	105.067	-22.830	55.821	0.00060557	0.00085136	0.00036304	1348.2	6.3426e-06	4.0128e-06	1734.7	387.23	3.8064e-06	1.1326e-05	595.42	190.21	109.64	43.82	1.0321e-05	91.111	0.003389	0.0051445	0.0015116	1224.9	5.0626e-05	5.7951e-05	1576	353.97	5.3495e-05	5.9157e-05	546.95	176.33	103.03	40.922	5.8545e-05	84.121	198.893	-48.082	-36.844	-133.927	17.736	2.790	-134.115	-130.643	-58.803	-11.845	-130.340	-127.135	-126.737	-121.499	-30.928	-122.447	-8191	255	
57899.922	1	1	0	0	0.27761	0.15173	0.074257	0.082322	0.19995	0.14098	0.27338	0.29278	0.17123	0.068138	0.3096	0.23178	0.18942	0.22924	0.039307	0.21104	-3.8438	-3.7	-4.475	-4.075	-3.8563	-4.4667	-3.9458	-4.575	-4.1854	-3.7062	-4.6792	-4.025	-3.8125	-4.6396	-3.7104	-4.3917	-22.192	127.982	105.921	127.709	-77.997	152.558	178.018	138.733	-124.132	196.453	174.380	-110.186	125.257	-93.013	-57.079	206.830	0.00067451	0.00019385	0.00030316	1361.5	4.6877e-06	1.4966e-05	1750.3	393.4	8.7866e-06	8.7891e-06	597.61	190.94	110.59	43.825	1.7057e-05	89.334	0.0034624	0.0053329	0.0014921	1239.7	5.1947e-05	5.982e-05	1594.4	358.87	5.3343e-05	5.9938e-05	547.67	177.05	103.05	40.803	5.7522e-05	82.905	195.914	-138.993	-54.855	-133.965	18.525	-25.370	-134.284	-130.210	-64.138	10.121	-130.919	-127.014	-127.118	-121.379	-27.120	-122.299	-8191	255	
57900.020	1	1	0	0	0.18469	0.12374	0.10754	0.1017	0.12243	0.19173	0.39048	0.23415	0.053477	0.20687	0.12474	0.16635	0.083014	0.096443	0.21524	0.12681	-3.825	-3.6667	-4.4062	-3.9167	-3.8833	-4.4896	-3.9625	-4.2937	-4.3333	-3.6417	-4.6188	-4.1104	-3.8708	-4.5521	-3.5958	-4.2479	89.304	15.594	-88.216	-103.872	55.744	208.402	144.383	173.403	-14.281	81.027	109.298	-131.134	-0.297	-0.127	-24.103	134.160	0.00079189	0.0010827	0.00033905	1340	8.875e-06	1.7069e-05	1721.1	384.26	3.4909e-06	1.109e-05	585	187.22	108.78	42.794	1.4259e-05	88.56	0.0034215	0.0054041	0.0014929	1216.5	5.1281e-05	5.9453e-05	1558.1	350.28	5.271e-05	6.0525e-05	536.87	173.29	101.48	39.936	5.6756e-05	81.788	195.050	-101.482	-17.470	-134.196	-13.630	-11.537	-134.077	-130.792	0.152	-52.160	-130.841	-126.847	-126.913	-121.254	-10.008	-122.700	-8191	255	
57900.137	1	1	0	0	0.024449	0.1705	0.082597	0.19667	0.10668	0.17118	0.23753	0.074541	0.21928	0.16702	0.33481	0.11788	0.17017	0.13648	0.081022	0.069775	-4.0437	-3.4208	-4.4854	-4.1083	-3.7417	-4.3854	-3.9896	-4.1542	-4.3229	-3.6083	-4.5729	-4.2792	-3.7917	-4.5938	-3.7521	-4.0396	25.931	73.663	-41.470	154.692	144.264	145.459	123.403	84.975	141.930	111.095	187.272	81.666	-131.676	130.479	-139.017	186.182	0.0006399	0.0011155	0.00025518	1345.3	5.7088e-06	1.4554e-05	1726	386.88	5.7207e-06	1.0291e-05	590.8	189.2	110.14	43.647	1.961e-06	90.047	0.003461	0.0054586	0.001466	1218.6	5.3728e-05	6.0732e-05	1567.3	354.06	5.4832e-05	6.1265e-05	542.56	175.41	103.11	40.581	5.613e-05	82.751	198.305	-77.739	-85.840	-133.690	39.117	18.496	-134.138	-130.518	55.987	7.365	-130.562	-127.682	-126.856	-121.019	-31.292	-122.665	-8191	255	
57900.211	1	1	0	0	0.18003	0.1247	0.075298	0.4276	0.10945	0.11785	0.19351	0.29404	0.019666	0.08054	0.090384	0.28743	0.25619	0.24112	0.29299	0.14477	-4.0833	-3.5438	-4.125	-4.3938	-3.7062	-4.5479	-3.9396	-3.9083	-4.2688	-3.5229	-4.2583	-4.1625	-3.5917	-4.6375	-3.9188	-4.0167	104.137	9.592	-106.541	180.492	122.695	-110.873	128.860	93.748	145.606	119.633	99.904	152.091	165.796	151.990	79.144	146.588	0.0006213	0.0012855	7.9843e-05	1358.3	4.0077e-06	1.0931e-05	1741.7	391.55	1.2804e-05	1.1229e-05	598.11	188.79	112.55	43.958	5.9457e-06	89.221	0.0035806	0.005485	0.0014224	1235.4	5.5321e-05	6.1281e-05	1584.5	358.38	5.5695e-05	6.1462e-05	548.43	176.27	104.54	40.858	5.5359e-05	83.065	192.154	-15.012	172.168	-133.831	19.375	-51.259	-134.207	-130.637	-27.414	0.032	-130.886	-127.298	-126.961	-121.083	17.761	-122.241	-8191	255	
57900.305	1	1	0	0	0.18834	0.094213	0.07822	0.18485	0.21509	0.067237	0.12398	0.073491	0.041612	0.16709	0.10563	0.1833	0.2652	0.18281	0.10063	0.23445	-4.2333	-3.4458	-4.1917	-4.3812	-3.5771	-4.5042	-4.0354	-3.7125	-4.4229	-3.6833	-4.3313	-4.4187	-3.6792	-4.525	-4.2021	-3.7646	11.756	-83.665	-46.113	203.900	-3.126	-13.395	174.265	-68.023	-126.179	119.180	86.688	154.794	202.370	168.231	-26.648	180.863	0.00056246	0.0009954	0.00027687	1368.7	1.0756e-05	3.0534e-06	1723	388.05	4.4066e-06	5.9749e-06	586.4	188.12	109.01	42.444	5.7836e-06	87.376	0.0035501	0.0054749	0.0014436	1239.7	5.5668e-05	5.9823e-05	1572	356.32	5.5818e-05	6.1029e-05	538.48	173.09	101.72	39.661	5.5337e-05	80.851	209.062	-73.864	-93.328	-133.855	-52.477	-36.130	-134.299	-130.324	-34.088	18.294	-130.641	-126.931	-126.916	-120.859	-71.377	-122.963	-8191	255	
57900.402	1	1	0	0	0.062733	0.098408	0.24023	0.27995	0.14049	0.089276	0.1324	0.085614	0.17877	0.034359	0.2209	0.28381	0.28881	0.090175	0.15667	0.075076	-4.1958	-3.5146	-4.1354	-4.5604	-3.6979	-4.375	-4.2875	-3.75	-4.4417	-3.8146	-4.0354	-4.4896	-3.5021	-4.3562	-4.1125	-3.8958	38.459	90.026	67.355	211.155	-95.025	-118.930	141.499	-135.603	16.878	97.326	194.624	188.090	142.526	-109.408	-70.023	-72.534	0.00052619	0.0014476	0.00022151	1334.1	6.3595e-06	5.639e-06	1713.3	387.99	3.0644e-06	6.2352e-06	590.07	185.01	107.54	42.441	9.5915e-06	87.411	0.0035418	0.00538	0.0014141	1216.9	5.4797e-05	5.8141e-05	1559	352.47	5.4968e-05	5.8823e-05	537.67	171.63	101.16	39.574	5.5101e-05	80.922	205.152	-57.727	-9.000	-133.698	-68.518	50.469	-134.307	-130.579	-79.684	-18.796	-130.905	-127.176	-126.812	-121.319	-53.122	-122.835	-8191	255	
57900.520	1	1	0	0	0.10081	0.14776	0.18839	0.23393	0.18766	0.23252	0.15376	0.066314	0.18817	0.13065	0.13769	0.058086	0.14375	0.20474	0.38133	0.22031	-4.3146	-3.7687	-3.8042	-4.4958	-3.5833	-4.3125	-4.5771	-3.775	-4.5167	-3.8958	-3.875	-4.6792	-3.5521	-4.1604	-4.2354	-3.7313	167.367	-5.193	25.557	184.942	-84.469	53.418	116.160	63.533	-143.528	36.252	155.371	14.548	-11.610	192.735	-138.466	154.994	0.00054095	0.0018127	0.00025603	1352.8	4.3484e-06	9.8277e-06	1727.2	389.05	1.2073e-05	6.7071e-06	591.56	188.53	109.81	43.511	1.6724e-05	89.115	0.0035072	0.0052232	0.0014788	1226.4	5.44e-05	5.6841e-05	1573.8	356.01	5.5212e-05	5.7339e-05	542.9	174.63	103.01	40.344	5.6164e-05	82.231	194.736	-70.134	203.379	-133.921	-1.336	-20.422	-134.170	-130.538	-60.730	-9.842	-130.817	-127.456	-126.935	-121.028	-50.541	-122.316	-8191	255	
57900.617	1	1	0	0	0.21528	0.070969	0.32146	0.036528	0.17655	0.19317	0.21338	0.19464	0.11313	0.20628	0.18353	0.21702	0.11071	0.21805	0.12136	0.27796	-4.1354	-4.0021	-3.7896	-4.675	-3.6167	-3.9729	-4.4708	-3.6792	-4.4042	-4.1021	-3.8312	-4.5604	-3.8375	-3.9646	-4.4771	-3.7375	134.709	-71.295	160.055	-21.688	170.460	-136.432	125.045	163.316	168.927	-139.178	43.724	191.468	108.054	208.728	129.300	144.031	0.00063515	0.00082364	6.346e-05	1370.8	7.3426e-06	6.6272e-06	1753.3	394.09	6.98e-06	6.8547e-06	596.1	189.51	110.09	43.255	1.5603e-06	87.895	0.0034639	0.0052307	0.0014643	1246.4	5.395e-05	5.7893e-05	1596.8	360.88	5.296e-05	5.9172e-05	548.53	175.33	102.85	40.235	5.6831e-05	81.492	200.592	-72.592	-111.616	-133.734	-24.780	-26.735	-133.911	-130.246	21.514	42.776	-130.723	-126.925	-126.708	-121.424	-143.330	-122.428	-8191	255	
57900.711	1	1	0	0	0.16761	0.16146	0.25003	0.21686	0.24173	0.042785	0.10879	0.18741	0.087983	0.1209	0.26513	0.042141	0.109	0.366	0.17657	0.15554	-3.9542	-4.0854	-3.6604	-4.7167	-3.7667	-3.9854	-4.6042	-3.8958	-4.2312	-4.1917	-3.7687	-4.5417	-3.8438	-3.7812	-4.5542	-3.7667	170.710	-61.331	-134.883	195.099	88.321	173.456	178.288	145.963	-120.936	135.869	135.647	8.849	153.226	-100.196	208.242	-71.360	0.00053942	0.00022458	0.0001148	1353.1	1.3399e-05	8.9371e-06	1706.4	387.77	7.9024e-06	1.6663e-05	581.2	184.39	108.06	42.242	5.6614e-06	85.681	0.0033498	0.0052914	0.0015118	1230.2	5.1679e-05	5.8214e-05	1560.5	353.03	5.1946e-05	5.7639e-05	533.76	170.85	100.53	39.118	5.6493e-05	79.556	193.376	-95.900	-72.972	-134.169	-3.855	132.422	-134.079	-130.191	-24.355	-3.861	-130.938	-127.232	-126.858	-121.655	-44.782	-122.497	-8191	255	
57900.809	1	1	0	0	0.11193	0.084592	0.19466	0.087349	0.37143	0.36668	0.31159	0.16211	0.1181	0.14132	0.2287	0.15716	0.14688	0.29736	0.11956	0.27725	-3.875	-4.2812	-3.6583	-4.6375	-3.7792	-3.6	-4.6396	-3.7938	-4.0125	-4.2125	-3.7438	-4.4187	-4.1604	-3.85	-4.5042	-3.8854	-67.534	-129.305	7.160	38.467	149.108	-114.705	109.008	135.506	-73.276	-6.940	101.556	100.265	126.324	168.875	-142.323	169.827	0.00057958	0.0012355	0.00021571	1341	6.8586e-06	1.0077e-05	1708.9	388.07	6.8197e-06	1.3154e-05	584.69	185.81	108.81	42.621	5.1818e-06	87.16	0.0033573	0.0052937	0.0015056	1218.9	5.3198e-05	5.993e-05	1559.8	352.95	5.2461e-05	6.0269e-05	536.47	172.11	101.85	39.791	5.7294e-05	81.213	195.063	-132.226	-14.034	-133.627	-23.230	62.787	-133.986	-130.437	-26.752	8.091	-130.871	-127.668	-126.894	-121.184	-15.833	-122.587	-8191	255	
57900.902	1	1	0	0	0.21259	0.089599	0.10894	0.07811	0.1376	0.02797	0.16181	0.37487	0.24353	0.10282	0.21899	0.1489	0.15646	0.2705	0.091235	0.16282	-3.6354	-4.3063	-3.5792	-4.5167	-4.0021	-3.5708	-4.5354	-3.8021	-3.8354	-4.4062	-3.7417	-4.3812	-4.325	-3.7	-4.35	-3.8167	-68.348	-41.506	-6.096	-137.019	-93.564	179.566	188.666	96.349	194.631	74.640	177.352	29.431	154.203	-76.071	4.567	141.056	0.00062471	0.00094596	0.000506	1351.3	3.1101e-06	9.0191e-06	1719.3	391.29	3.829e-06	2.2537e-06	590.62	191.31	110.66	43.577	1.9053e-06	89.168	0.0033853	0.005506	0.0015415	1226.8	5.3947e-05	6.1116e-05	1569.6	356.24	5.2714e-05	6.1332e-05	543.7	175.87	103.8	40.563	5.6373e-05	82.645	203.173	-98.894	-96.543	-133.860	161.887	31.596	-133.916	-130.714	-49.789	166.662	-130.552	-127.063	-126.854	-121.223	166.088	-122.480	-8191	255	
57901.000	1	1	0	0	0.20895	0.063042	0.21894	0.24643	0.16417	0.11635	0.13533	0.048786	0.18176	0.13685	0.32183	0.22032	0.24931	0.03336	0.20374	0.16156	-3.5438	-4.4354	-3.6792	-4.4771	-4.1958	-3.5062	-4.6312	-3.8937	-3.6813	-4.4688	-3.7167	-4.2042	-4.3542	-3.7167	-4.3729	-3.9958	-20.560	174.050	55.607	143.577	156.872	147.401	116.152	158.743	114.358	34.844	141.027	155.740	36.502	30.408	54.526	169.422	0.00054816	0.0011439	0.00020741	1355.6	2.4817e-06	1.0139e-06	1722.6	388.42	6.9461e-06	5.8028e-06	588.62	188.25	109.39	42.843	7.753e-06	88.004	0.003442	0.0054195	0.0015025	1228.2	5.3935e-05	6.1514e-05	1566.8	354.07	5.4907e-05	6.2139e-05	538.92	174.32	102.71	40.193	5.437e-05	81.193	193.734	-89.185	-100.365	-133.732	65.336	28.368	-134.084	-130.082	-56.021	-24.656	-130.700	-127.173	-126.751	-121.165	-40.667	-122.354	-8191	255	
57901.098	1	1	0	0	0.17452	0.076407	0.12796	0.12165	0.12938	0.17813	0.2996	0.22734	0.11172	0.067232	0.090866	0.32903	0.13397	0.26911	0.15813	0.090096	-3.4708	-4.4563	-3.5917	-4.2438	-4.5208	-3.6042	-4.5333	-4.2188	-3.6917	-4.4479	-3.75	-4.1604	-4.4	-3.5563	-4.3708	-4.3396	-58.424	20.543	-0.353	198.061	-101.800	6.377	106.241	153.538	13.132	-5.595	167.628	152.981	158.526	6.578	-25.642	141.581	0.00052647	0.00096558	0.00022276	1332.3	1.3346e-06	6.3095e-06	1699.6	380.74	1.9806e-06	1.2962e-05	577.55	187.53	109.04	42.859	8.3243e-06	87.706	0.0035477	0.005436	0.0014663	1209.5	5.4671e-05	6.0071e-05	1544.8	348.89	5.4728e-05	5.9481e-05	533.43	173.92	102.3	39.93	5.3128e-05	81.172	194.840	-67.478	-146.455	-133.834	-92.131	51.266	-134.274	-130.395	86.454	12.929	-130.729	-127.509	-126.504	-121.068	-56.231	-122.805	-8191	255	
57901.219	1	1	0	0	0.19443	0.039716	0.15167	0.31591	0.36314	0.048932	0.22259	0.064303	0.070618	0.12975	0.44153	0.27082	0.10776	0.008987	0.093986	0.17604	-3.4625	-4.425	-3.75	-4.1813	-4.4	-3.5833	-4.6479	-4.275	-3.6	-4.5042	-3.9562	-3.9229	-4.4437	-3.6854	-4.1979	-4.2063	204.858	21.611	118.089	192.094	-125.259	80.254	192.804	190.010	40.847	-36.579	141.656	163.507	-73.840	141.288	122.159	178.366	0.00060785	0.0014303	0.00011983	1346.3	8.1288e-06	6.1085e-06	1717.5	385.55	8.9859e-06	9.1323e-06	591.38	191.76	110.91	43.664	9.9347e-06	89.739	0.0035364	0.0053761	0.0014099	1217.5	5.4678e-05	5.9751e-05	1562.7	353.93	5.5244e-05	5.8329e-05	543.2	177.15	103.8	40.657	5.4015e-05	82.826	203.542	4.217	-77.015	-134.151	17.417	9.304	-134.535	-130.326	-90.053	14.304	-130.806	-127.230	-126.925	-121.259	-60.312	-122.440	-8191	255	
57901.312	1	1	0	0	0.20519	0.10653	0.18585	0.082407	0.13934	0.19059	0.032551	0.16999	0.16743	0.088639	0.17371	0.14417	0.12434	0.077016	0.14981	0.14806	-3.1104	-4.5354	-3.6729	-3.9583	-4.35	-3.6813	-4.3792	-4.2625	-3.4167	-4.3479	-4.0687	-3.7396	-4.5104	-3.725	-4.1604	-4.425	26.816	-146.893	184.236	143.436	51.230	36.847	111.859	92.655	152.882	48.544	180.666	133.586	210.881	97.769	9.800	149.015	0.00066782	0.00068716	0.00013515	1376.3	5.03e-06	2.6688e-06	1750.5	394.83	8.2646e-06	1.6765e-05	600.68	191.97	111.31	43.508	3.1192e-06	88.861	0.0035676	0.005128	0.0014439	1243.2	5.3726e-05	5.8135e-05	1587.4	360.49	5.4862e-05	5.6498e-05	550.03	178.23	104.56	40.674	5.3507e-05	82.233	201.056	-102.922	-80.160	-134.142	-12.335	-142.243	-134.235	-130.382	-36.577	2.007	-130.817	-127.347	-126.863	-121.263	4.436	-122.584	-8191	255	
57901.410	1	1	0	0	0.075116	0.18756	0.10148	0.39774	0.15267	0.035808	0.30611	0.46923	0.19921	0.12983	0.17178	0.068991	0.091008	0.1409	0.044518	0.23566	-3.2958	-4.3979	-4.0125	-3.6875	-4.5563	-3.6562	-4.3042	-4.5125	-3.5021	-4.2875	-4.2208	-3.675	-4.4458	-3.9083	-3.9792	-4.4771	204.358	-35.664	-144.785	192.091	49.552	-85.031	131.622	179.826	31.878	147.084	191.933	198.217	-141.453	203.124	114.157	154.177	0.00065139	0.0012365	0.00020136	1350.8	6.2339e-06	1.2238e-05	1715	387.95	8.6265e-06	6.6727e-06	581.33	185.63	109.49	42.032	1.0119e-05	86.288	0.0035505	0.0050665	0.0014765	1228	5.3357e-05	5.7578e-05	1556.8	353.75	5.5527e-05	5.6036e-05	533.98	172.28	102.03	39.378	5.4842e-05	79.711	193.499	-48.345	-78.299	-134.296	53.101	9.495	-134.298	-130.417	6.899	-55.293	-130.631	-127.515	-126.641	-121.369	18.949	-122.417	-8191	255	
57901.504	1	1	0	0	0.10242	0.051401	0.067542	0.31634	0.11969	0.10434	0.23166	0.27388	0.12897	0.16722	0.10933	0.24377	0.12261	0.058771	0.038316	0.13245	-3.3479	-4.2229	-4.1396	-3.8688	-4.3479	-3.8625	-4.0583	-4.5542	-3.4583	-4.2021	-4.3333	-3.7875	-4.4771	-3.9646	-3.8438	-4.4167	85.036	0.938	95.136	-147.496	-24.665	-115.017	-114.572	201.912	131.521	135.401	-107.245	38.771	110.649	167.931	133.922	127.331	0.00067594	0.00059574	0.000316	1338.7	6.3869e-06	9.1437e-06	1713.3	385.63	9.6409e-06	3.2546e-06	585.73	186.69	109.34	42.344	1.6005e-06	87.257	0.0034491	0.0051152	0.0014729	1215.3	5.276e-05	5.7788e-05	1553.8	352.73	5.4482e-05	5.6705e-05	536.88	172.95	102.1	39.602	5.742e-05	80.709	209.534	-66.241	-85.010	-133.950	14.587	-133.803	-134.106	-130.200	-46.097	74.871	-130.726	-127.596	-126.730	-121.396	-73.197	-122.163	-8191	255	
57901.602	1	1	0	0	0.092475	0.12189	0.12622	0.10054	0.12001	0.041307	0.2015	0.28407	0.098458	0.2079	0.034823	0.21399	0.12023	0.13756	0.11988	0.27139	-3.2458	-4.1333	-4.1771	-3.7917	-4.4604	-3.7646	-3.8688	-4.6458	-3.7188	-4.0625	-4.3917	-3.5646	-4.4646	-4.0958	-3.525	-4.5479	-16.836	134.298	161.784	-61.398	-120.832	70.380	153.231	116.450	-139.451	-91.476	12.954	-128.620	-3.280	114.342	39.141	117.006	0.00070298	0.0014801	9.1839e-05	1358.4	1.3251e-06	1.2893e-05	1727.7	391.92	1.0683e-05	5.693e-06	593.41	188.42	109.9	42.981	2.617e-06	88.87	0.0034532	0.0052073	0.0015461	1230.1	5.2925e-05	5.9067e-05	1570.1	358.03	5.5038e-05	5.9208e-05	544.31	174.88	103.11	40.272	5.7948e-05	81.917	198.455	-12.043	9.719	-133.698	-46.244	20.647	-134.241	-130.391	-19.700	122.733	-130.628	-127.483	-127.035	-121.291	-31.819	-122.728	-8191	255	
57901.699	1	1	0	0	0.13392	0.23486	0.17912	0.18963	0.1257	0.15636	0.23678	0.29347	0.29285	0.13297	0.40247	0.11257	0.099765	0.067091	0.20961	0.23703	-3.4833	-3.8729	-4.35	-3.8167	-4.4979	-4.1083	-3.9062	-4.7521	-3.8	-3.8187	-4.6583	-3.7354	-4.3042	-4.1458	-3.6833	-4.4958	-102.730	134.993	-24.880	-89.940	-122.641	-86.026	109.892	-91.903	-56.481	-116.347	161.567	65.539	-86.298	-134.919	-132.437	116.398	0.00062098	0.0012136	8.0519e-05	1360.5	1.4696e-06	1.0615e-05	1727.5	390.17	7.6453e-06	2.1798e-05	589.82	187.24	109.13	42.757	4.1703e-06	86.392	0.0034486	0.0053695	0.0015665	1237	5.1576e-05	6.1777e-05	1571.7	357.43	5.4143e-05	6.2141e-05	541.45	174.03	102.54	39.8	5.8235e-05	80.15	193.255	12.184	8.703	-133.863	-40.972	-22.180	-134.328	-130.412	-35.749	10.904	-130.500	-127.123	-126.805	-121.041	178.130	-122.713	-8191	255	
57901.816	1	1	0	0	0.30397	0.14104	0.30435	0.26393	0.3281	0.11614	0.15494	0.41017	0.059232	0.20883	0.22625	0.24441	0.29138	0.28595	0.2782	0.086839	-3.4521	-3.8146	-4.4021	-3.8833	-4.0687	-4.1208	-3.9104	-4.4229	-3.7625	-3.7583	-4.6396	-3.5542	-4.0854	-4.3542	-3.6458	-4.5188	121.179	118.427	-80.640	186.219	-119.058	-59.745	163.046	210.446	-13.470	-30.310	151.940	143.246	-134.792	48.560	-140.682	-136.845	0.0005452	0.00048425	0.00018439	1336.7	2.1982e-06	3.6561e-06	1709.1	385.98	4.5843e-06	1.1841e-06	581.68	185.96	109.51	42.577	9.3488e-06	87.051	0.0035138	0.0056484	0.0015378	1212.9	5.1656e-05	5.9911e-05	1550.3	351.96	5.4307e-05	6.2095e-05	535.44	172.76	102.18	39.794	5.7537e-05	80.449	207.725	-73.912	-67.963	-134.090	22.070	1.043	-134.275	-130.334	-14.974	-17.969	-130.683	-127.277	-126.714	-121.345	-15.606	-122.457	-8191	255	
57901.914	1	1	0	0	0.083975	0.13897	0.024363	0.16218	0.13597	0.16024	0.23085	0.066244	0.14902	0.1182	0.10782	0.37741	0.2616	0.24696	0.088381	0.20106	-3.7188	-3.5771	-4.4563	-3.6292	-4.0792	-4.2917	-3.7562	-4.5396	-4.2542	-3.6229	-4.5167	-3.7146	-4.0563	-4.6417	-3.4562	-4.3125	-21.373	-98.313	38.025	91.477	181.499	140.726	181.041	181.646	-115.246	19.766	-117.928	133.838	113.160	-103.271	193.803	139.865	0.00062538	0.0011809	0.0004197	1355.9	6.5542e-06	7.1078e-06	1719	389.58	6.2747e-06	1.0415e-05	591.57	188.95	110.1	43.088	6.2599e-06	88.551	0.0035837	0.0055498	0.0015149	1224.8	5.3958e-05	6.2758e-05	1563.9	355.43	5.5508e-05	6.1197e-05	541.61	174.45	103.31	40.19	5.6472e-05	81.833	199.318	-73.059	-108.502	-133.738	54.870	41.389	-134.159	-130.426	14.168	-5.293	-130.439	-127.077	-126.695	-121.383	8.238	-122.416	-8191	255	
57902.008	1	1	0	0	0.076303	0.057816	0.16082	0.19318	0.20686	0.24691	0.34519	0.29647	0.24029	0.21962	0.1657	0.18595	0.15028	0.04361	0.09525	0.27294	-3.8083	-3.575	-4.5896	-4.0125	-3.9271	-4.5271	-3.9625	-4.3042	-4.2521	-3.5938	-4.7667	-3.9896	-4.0104	-4.6021	-3.7313	-4.3313	-5.255	187.226	-117.979	88.315	-91.344	203.803	139.805	187.193	-74.302	208.113	104.566	118.737	-9.904	207.385	27.434	39.411	0.00060445	0.00088528	0.00037243	1361.2	3.6807e-06	7.1469e-06	1736.8	396.66	2.0706e-06	1.2217e-06	598.94	189.15	110.42	43.009	8.8535e-06	87.811	0.0035831	0.0055654	0.0014639	1237.7	5.5499e-05	6.0252e-05	1583.7	360.75	5.6274e-05	6.0581e-05	548.31	176.12	103.88	40.381	5.4073e-05	81.405	192.642	-50.200	-15.846	-133.573	10.315	23.831	-133.981	-130.685	-24.857	8.645	-130.684	-127.113	-126.801	-121.293	-118.665	-122.648	-8191	255	
57902.105	1	1	0	0	0.14376	0.17861	0.29737	0.34197	0.051914	0.17039	0.22813	0.17856	0.087438	0.10742	0.27984	0.17319	0.12423	0.21959	0.23057	0.038629	-3.9771	-3.5854	-4.5104	-3.9625	-3.8312	-4.4375	-3.7667	-4.1312	-4.2562	-3.7438	-4.4917	-4.0625	-3.7	-4.5833	-3.7958	-4.0479	0.498	153.105	54.663	153.081	48.895	-44.463	43.287	-134.771	82.538	81.804	136.647	-123.372	87.954	129.768	37.812	-117.088	0.00056919	0.00077566	0.00033904	1354.6	1.064e-05	2.9188e-06	1707.3	387.38	1.0722e-05	1.1455e-05	583	185.05	107.86	41.968	9.7164e-06	85.248	0.0036095	0.0054456	0.0014328	1227.6	5.6154e-05	6.0207e-05	1553.6	353.27	5.6325e-05	5.9865e-05	533.01	171.1	101.29	39.034	5.4047e-05	78.939	-145.051	-87.513	21.507	-133.683	37.440	-80.492	-134.182	-130.681	-42.852	13.794	-130.933	-127.463	-127.008	-121.226	-21.144	-122.699	-8191	255	
57902.176	1	1	0	0	0.1956	0.15348	0.15453	0.29625	0.14263	0.044884	0.18543	0.19406	0.20675	0.096192	0.11453	0.125	0.14897	0.10494	0.19917	0.49567	-4.0396	-3.6167	-4.2458	-4.1521	-3.7042	-4.55	-4.0979	-4.175	-4.325	-3.6958	-4.5083	-4.3979	-3.6417	-4.5583	-3.9437	-3.9938	132.762	26.780	-17.409	178.226	121.011	103.332	-111.689	129.646	-31.908	-29.200	-131.128	170.521	155.015	-21.753	87.063	159.280	0.00058252	0.0021128	0.00025512	1336.5	1.6763e-06	4.5914e-06	1705.8	385.83	7.4871e-06	7.0093e-06	584.22	184.9	109.02	42.262	9.0268e-06	85.876	0.0035358	0.0053386	0.0013934	1212.9	5.5158e-05	5.7727e-05	1546.7	353.15	5.6128e-05	5.8381e-05	534.31	171.72	102.08	39.382	5.5758e-05	79.483	198.013	-67.276	20.088	-133.909	-61.657	-29.186	-134.272	-130.263	-10.526	144.147	-130.713	-127.063	-127.048	-121.011	17.755	-122.703	-8191	255	
57902.297	1	1	0	0	0.1124	0.092169	0.2389	0.39097	0.10026	0.1964	0.35963	0.15979	0.093636	0.22006	0.28707	0.080796	0.11362	0.24068	0.12073	0.063391	-4.1521	-3.6937	-4.1417	-4.3938	-3.5667	-4.4833	-4.1229	-3.925	-4.2917	-3.4729	-4.3063	-4.4979	-3.7396	-4.4021	-3.975	-3.8167	20.586	-121.714	-139.685	191.363	201.907	-93.299	151.238	-139.893	189.249	14.057	187.382	59.761	169.685	-110.955	177.569	-51.453	0.00060637	0.0009969	0.00028955	1357.1	1.5227e-05	1.8154e-05	1723.7	390.75	6.7564e-06	1.1329e-05	587.24	187.12	108.94	42.549	5.3934e-06	86.515	0.0035655	0.0052731	0.0014582	1227.8	5.5763e-05	5.8228e-05	1563.5	356.89	5.596e-05	5.8626e-05	539.92	173.21	102.7	39.695	5.7763e-05	80.243	199.553	-32.417	-89.944	-134.083	-20.662	46.941	-133.921	-130.809	-33.081	33.252	-130.840	-127.133	-126.504	-121.326	97.460	-122.526	-8191	255	
57902.395	1	1	0	0	0.23154	0.09685	0.078775	0.25029	0.055493	0.038266	0.24161	0.31938	0.22549	0.15056	0.25168	0.17185	0.1741	0.21578	0.15955	0.1515	-4.0437	-3.4583	-4.1312	-4.5729	-3.6667	-4.4167	-4.1458	-3.7896	-4.3083	-3.6625	-4.1042	-4.5042	-3.575	-4.4854	-4.1188	-3.9292	-27.541	119.303	-19.106	-116.078	97.254	51.962	167.602	184.063	-31.933	-35.933	118.401	173.538	170.968	191.421	46.855	49.673	0.00061254	0.00077712	0.00036834	1363.6	7.9294e-06	1.2812e-05	1727.7	391.08	2.8066e-06	8.1655e-06	588.76	184.61	108.81	41.921	1.0122e-05	84.488	0.0035685	0.0053345	0.001518	1237.4	5.4956e-05	5.8125e-05	1569	356.37	5.4648e-05	6.0301e-05	538.99	172.1	101.62	39.186	5.9286e-05	78.761	193.635	40.013	-115.781	-133.837	35.254	-21.035	-133.786	-130.593	131.294	-29.305	-130.569	-127.352	-126.840	-121.175	36.600	-122.760	-8191	255	
57902.488	1	1	0	0	0.057713	0.04326	0.2723	0.01099	0.18502	0.21467	0.24835	0.1882	0.16876	0.13535	0.051372	0.22359	0.15768	0.15046	0.029366	0.098221	-4.1792	-3.8208	-3.9125	-4.5687	-3.4396	-4.2146	-4.4708	-3.7396	-4.4563	-3.7229	-4.0417	-4.5125	-3.7792	-4.3667	-4.2104	-3.825	-15.334	-93.969	131.648	152.718	45.733	-145.115	182.679	156.024	210.862	-74.428	-28.603	92.767	-145.311	133.870	106.317	33.468	0.00050977	0.0008953	0.00032461	1344.6	4.3281e-06	1.331e-05	1692.7	382.54	5.5129e-06	5.2046e-06	578.26	182.03	107.03	41.596	5.3532e-06	84.35	0.0034528	0.0054481	0.0015692	1217.9	5.3765e-05	5.9863e-05	1543.6	350.89	5.4106e-05	6.0247e-05	531.04	169.42	100.51	38.724	5.8129e-05	78.087	200.893	-132.424	-142.374	-133.963	92.531	12.257	-134.173	-130.562	-100.818	-7.634	-130.479	-126.861	-126.301	-120.851	6.250	-123.024	-8191	255	
57902.609	1	1	0	0	0.099525	0.041962	0.077244	0.30948	0.14531	0.11828	0.15149	0.1281	0.20546	0.16187	0.13195	0.2078	0.15262	0.079563	0.15787	0.060791	-4.1458	-3.9896	-3.8	-4.5437	-3.6354	-4.1083	-4.5833	-3.5687	-4.4187	-3.9188	-3.7812	-4.5708	-3.9771	-4.1021	-4.325	-3.8021	169.296	23.884	-133.615	168.950	147.399	-38.243	2.953	134.108	-33.426	191.739	-131.074	191.913	200.860	149.516	-99.032	-142.897	0.0006745	0.00079674	0.00011611	1341.3	8.218e-06	9.0388e-06	1695.6	383.81	8.6419e-06	9.3287e-06	580.09	184.57	109.87	42.301	2.0315e-06	85.643	0.0033689	0.0055725	0.0015408	1217	5.3383e-05	6.1226e-05	1551.2	352.3	5.3125e-05	6.1402e-05	534.75	171.42	101.87	39.231	5.7799e-05	79.147	197.919	-84.023	10.209	-133.892	-3.635	-1.878	-133.944	-130.264	-70.674	20.168	-130.997	-126.984	-126.925	-121.459	52.541	-122.355	-8191	255	
57902.703	1	1	0	0	0.19689	0.10879	0.030767	0.23409	0.11586	0.17001	0.22508	0.25305	0.19418	0.18284	0.14992	0.20759	0.20652	0.12168	0.051313	0.29291	-4.1146	-4.0646	-3.6354	-4.8146	-3.6063	-4.0563	-4.6042	-3.6875	-4.2625	-4.2125	-3.7542	-4.6208	-3.7833	-4.0667	-4.4042	-3.6042	181.269	48.660	-93.510	-148.468	-109.862	54.470	99.079	159.311	5.783	141.721	-136.931	-125.052	150.871	134.912	-28.067	168.786	0.00063537	0.00066657	0.00013513	1349.7	8.743e-06	2.0475e-06	1720.9	389.69	8.7008e-06	5.675e-06	592.26	186.08	109.24	42.212	1.9858e-06	85.411	0.0034739	0.0055641	0.0015142	1228.7	5.3856e-05	6.0754e-05	1569.7	356.22	5.4021e-05	6.2096e-05	542.85	173.17	102.52	39.404	5.7261e-05	79.24	205.301	-33.556	-0.531	-134.031	-7.377	103.090	-134.190	-130.623	-31.711	-11.189	-131.034	-126.934	-126.635	-120.959	-9.014	-122.658	-8191	255	
57902.777	1	1	0	0	0.12473	0.10224	0.12926	0.19645	0.11195	0.049756	0.11967	0.1541	0.20689	0.084063	0.16917	0.25948	0.15466	0.18076	0.082781	0.22018	-3.9125	-4.1125	-3.5646	-4.7583	-3.8708	-3.9167	-4.7688	-3.8208	-4.1729	-4.3542	-3.8542	-4.6417	-3.8625	-3.8812	-4.5375	-3.8833	-6.375	-69.167	-21.643	111.990	187.935	-51.676	128.312	131.982	-10.080	-58.865	175.921	154.666	115.375	203.554	186.295	152.732	0.00056398	0.0011952	0.00023073	1350.7	6.5556e-06	1.7073e-05	1701.6	385.45	5.7071e-06	7.1769e-06	579.33	183.06	108.2	40.972	8.5515e-06	83.428	0.0034572	0.0056127	0.0015249	1220.7	5.4774e-05	6.0729e-05	1549.2	352.09	5.5654e-05	6.1466e-05	530.47	169.66	100.93	38.385	5.5578e-05	77.247	192.898	-39.634	20.384	-133.779	-6.062	-4.227	-133.990	-130.495	-4.307	-47.887	-130.961	-127.352	-126.954	-121.374	106.738	-122.211	-8191	255	
57902.898	1	1	0	0	0.1008	0.081822	0.046633	0.33596	0.03773	0.22602	0.33522	0.25136	0.23471	0.04728	0.11938	0.1069	0.19124	0.22773	0.15933	0.16537	-3.9062	-4.3729	-3.4688	-4.6312	-3.9021	-3.6833	-4.7438	-3.7708	-4.1687	-4.5792	-3.7646	-4.3792	-3.9688	-3.8771	-4.4833	-3.8208	-81.693	194.384	-112.103	152.329	-107.429	30.414	137.285	199.117	72.171	177.435	195.271	-89.871	31.121	-110.282	164.281	173.643	0.00048901	0.00076753	0.00020257	1319.9	1.0134e-05	1.7705e-05	1688.4	384.29	6.2701e-06	6.188e-06	576.08	182.73	107.59	41.395	7.967e-06	84.102	0.0035404	0.0056079	0.0015026	1203.2	5.4553e-05	6.2448e-05	1534	350	5.5959e-05	6.0528e-05	528.74	169.2	100.65	38.549	5.6071e-05	78.037	209.677	-121.092	-51.871	-134.102	2.324	16.755	-134.306	-130.660	-88.057	11.308	-131.070	-126.983	-126.499	-121.575	3.088	-122.552	-8191	255	
57902.992	1	1	0	0	0.11774	0.22207	0.073753	0.22649	0.084617	0.10752	0.27324	0.11164	0.1226	0.044213	0.13694	0.12634	0.28784	0.14146	0.11288	0.31482	-3.7375	-4.5188	-3.5771	-4.5479	-4.2667	-3.6479	-4.8438	-3.9271	-3.8833	-4.4292	-3.7812	-4.4708	-4.2958	-3.8812	-4.5917	-4.0062	-44.789	123.972	-70.573	139.462	19.995	-1.894	191.411	74.214	-72.509	-31.333	173.411	117.546	110.943	-80.347	-2.430	79.235	0.00061673	0.0014632	0.00021165	1333.7	1.6269e-06	3.3675e-06	1705.1	383.95	5.0743e-06	1.1007e-05	579.72	187.25	109.28	42.444	3.7628e-06	86.186	0.0035952	0.0055047	0.0015075	1210.3	5.782e-05	6.3622e-05	1545.8	352.28	5.9032e-05	6.3252e-05	534.84	173.06	102.45	39.391	5.6568e-05	79.751	204.552	-17.381	-25.457	-134.066	33.109	4.420	-134.315	-130.354	20.073	-28.637	-130.899	-126.922	-126.632	-121.262	-55.988	-122.240	-8191	255	
57903.090	1	1	0	0	0.11483	0.12687	0.087804	0.030839	0.34273	0.3087	0.24431	0.11436	0.15083	0.17649	0.20764	0.19965	0.25879	0.18605	0.17794	0.32378	-3.4354	-4.4187	-3.6042	-4.3125	-4.2104	-3.6583	-4.8167	-4.0458	-3.7667	-4.4104	-3.7438	-4.1333	-4.4896	-3.625	-4.4021	-4.1292	43.765	30.145	-78.920	7.786	-112.199	201.229	182.105	179.745	138.019	1.686	146.606	176.093	162.530	162.418	-109.818	177.500	0.00067806	0.00076099	0.00031798	1351.3	1.4735e-05	1.0103e-05	1706.3	388.44	4.2692e-06	2.0125e-06	586.02	187.52	109.06	42.111	3.9866e-06	84.849	0.0037859	0.0054474	0.0015125	1224	5.8011e-05	6.2839e-05	1554.4	355.21	5.8554e-05	6.1279e-05	536.69	173.93	102.74	39.248	5.8045e-05	78.849	194.680	188.314	-141.277	-134.009	8.382	26.362	-134.420	-130.615	-84.349	147.485	-130.389	-127.392	-126.671	-121.223	211.232	-122.507	-8191	255	
57903.211	1	1	0	0	0.045909	0.07652	0.10992	0.17967	0.12167	0.12706	0.28775	0.19905	0.16116	0.19268	0.12903	0.10275	0.18428	0.12946	0.11875	0.20889	-3.4417	-4.5417	-3.6979	-4.2188	-4.3333	-3.7104	-4.6958	-4.2646	-3.7625	-4.5917	-3.7313	-3.9646	-4.6188	-3.7625	-4.3688	-4.275	-50.323	88.986	-48.341	205.888	165.122	-108.847	116.511	114.795	55.616	-69.944	179.498	188.228	129.376	192.072	110.911	138.187	0.00050499	0.00040249	0.00017401	1331.1	1.1543e-05	1.5564e-05	1676.5	380.87	7.1355e-06	1.3681e-05	571.95	183.19	107.63	41.407	9.1167e-06	83.816	0.0037454	0.005446	0.0015219	1206.8	5.7292e-05	6.0747e-05	1530.4	349.36	5.7568e-05	6.0707e-05	527.31	170.46	101.45	38.682	5.8959e-05	77.974	195.215	153.959	54.213	-133.801	-69.605	24.105	-134.409	-130.336	96.266	-23.105	-130.990	-127.174	-126.578	-120.829	-91.439	-122.345	-8191	255	
57903.305	1	1	0	0	0.26928	0.13317	0.15863	0.15218	0.13001	0.047152	0.23912	0.10274	0.10184	0.1591	0.33907	0.08002	0.14807	0.19214	0.22975	0.19913	-3.2646	-4.6271	-3.8625	-4.0958	-4.5146	-3.6021	-4.3812	-4.2875	-3.7021	-4.5604	-4	-3.8583	-4.5875	-3.8125	-4.2063	-4.4542	-133.688	152.939	-83.723	179.111	-14.337	132.693	167.452	43.833	210.120	164.013	136.114	136.048	-145.281	188.288	33.373	103.744	0.0005752	0.0010972	0.00020892	1333.6	2.5658e-06	4.7716e-06	1689.2	385.03	3.8843e-06	7.8805e-06	580.74	185.21	107.83	41.871	1.2581e-05	84.686	0.0036753	0.0053219	0.0015942	1207.1	5.6482e-05	6.0354e-05	1537.9	352.31	5.7084e-05	5.9608e-05	532.66	171.45	101.93	39.016	5.8748e-05	78.618	203.451	-71.273	-55.890	-133.891	131.201	198.300	-134.329	-130.360	78.206	47.440	-130.880	-127.525	-126.941	-121.383	33.775	-122.352	-8191	255	
57903.379	1	1	0	0	0.077763	0.15822	0.10045	0.045032	0.046813	0.077967	0.08659	0.22775	0.041362	0.060799	0.045554	0.14789	0.12045	0.15449	0.10246	0.22663	-3.425	-4.5042	-3.9854	-4.0188	-4.5125	-3.5646	-4.2833	-4.3917	-3.5021	-4.3063	-4.1458	-3.8417	-4.6625	-3.8958	-3.9417	-4.6271	106.006	35.396	184.107	126.328	173.690	15.350	73.457	92.052	63.841	-107.286	118.243	200.608	-134.701	151.605	-139.498	192.591	0.0005102	0.0012318	0.00021597	1332	5.247e-06	9.3896e-06	1700.8	388.37	5.5956e-06	9.2593e-06	588.15	187.47	110.21	42.38	9.304e-06	85.857	0.0035592	0.0053798	0.0015703	1214.6	5.4188e-05	5.9812e-05	1551.6	356.14	5.5174e-05	6.028e-05	539.77	174.22	103.14	39.39	5.8943e-05	79.592	200.526	-11.968	-36.181	-133.980	-33.057	-77.158	-134.034	-130.148	11.568	-52.072	-130.748	-127.201	-126.954	-121.259	16.421	-122.025	-8191	255	
57903.496	1	1	0	0	0.05239	0.022137	0.086346	0.21625	0.048055	0.10094	0.14039	0.2218	0.10118	0.1581	0.12316	0.16895	0.087556	0.20395	0.11035	0.20163	-3.2229	-4.3708	-4.0813	-3.7562	-4.6208	-3.6333	-4.1396	-4.5792	-3.675	-4.5042	-4.3	-3.7146	-4.6667	-3.8104	-3.9583	-4.5813	120.003	84.208	168.067	90.773	184.218	81.464	-128.095	91.272	-119.297	-7.187	130.327	203.489	200.378	103.533	17.070	-139.175	0.00055711	0.00061409	0.00046028	1335.1	6.7418e-06	4.3206e-06	1689.1	385.78	1.1448e-05	2.9031e-06	579.34	183.48	108.34	41.388	6.1024e-06	83.256	0.0035239	0.0054643	0.0015996	1212.1	5.2999e-05	6.3067e-05	1536.9	351.64	5.6028e-05	6.2032e-05	530.6	170.53	101.18	38.669	5.8521e-05	77.496	196.145	-84.790	-47.554	-134.076	16.705	-17.169	-134.403	-130.675	-7.421	206.418	-130.756	-126.989	-126.637	-121.162	-26.721	-122.693	-8191	255	
57903.594	1	1	0	0	0.23954	0.15564	0.081916	0.37019	0.038784	0.10529	0.32617	0.013962	0.17801	0.15566	0.12599	0.1343	0.22646	0.1287	0.28482	0.16624	-3.3646	-4.2542	-4.1271	-3.8542	-4.5667	-3.9188	-3.9688	-4.6292	-3.5958	-4.2604	-4.4625	-3.5958	-4.4417	-4.1354	-3.7687	-4.7104	9.558	186.915	-31.246	189.092	4.649	-54.084	-145.881	-63.269	-5.277	-106.753	67.395	46.657	180.482	-50.469	-35.334	180.829	0.00060768	0.00057443	0.00025093	1306.6	1.1069e-05	7.4299e-06	1660.4	380.52	7.2286e-07	8.7947e-06	576.89	185.02	108.74	41.773	5.7909e-06	85.761	0.0035596	0.0056233	0.00158	1188.4	5.4066e-05	6.4338e-05	1518.8	347.1	5.5852e-05	6.1844e-05	527.82	171.42	101.37	39.152	5.9768e-05	79.163	197.354	-32.542	-51.094	-134.028	-43.117	11.856	-134.414	-129.994	-46.813	44.444	-130.204	-126.931	-126.590	-120.944	-71.982	-122.792	-8191	255	
57903.691	1	1	0	0	0.070429	0.075695	0.066818	0.3144	0.079543	0.091066	0.24416	0.29048	0.14663	0.073463	0.19644	0.21948	0.13472	0.32551	0.055151	0.26991	-3.4	-4.075	-4.3688	-3.6875	-4.4688	-4.3063	-3.9313	-4.6292	-3.8271	-4.0188	-4.6896	-3.7542	-4.4167	-4.1667	-3.6229	-4.8313	-88.722	-69.899	-60.592	142.169	164.859	-53.185	173.809	126.170	202.820	-45.560	210.556	141.976	-22.858	94.116	76.870	168.428	0.00050686	0.0016302	0.00015495	1316.2	1.1393e-05	1.0453e-05	1674.6	382.79	5.1455e-06	4.0833e-06	579.86	187.34	110.43	42.773	2.6584e-06	86.958	0.0036011	0.0058164	0.0015872	1192.9	5.5354e-05	6.4762e-05	1525	349.99	5.757e-05	6.3516e-05	533.42	174.84	103.6	39.957	5.8239e-05	80.602	200.084	-44.011	-74.758	-134.049	7.956	12.164	-134.049	-130.412	-7.803	-86.431	-130.434	-127.166	-126.916	-121.197	-73.269	-122.411	-8191	255	
57903.785	1	1	0	0	0.046879	0.19058	0.087505	0.10019	0.20604	0.22422	0.35438	0.18502	0.10393	0.30562	0.19223	0.17731	0.22064	0.047376	0.17178	0.15647	-3.4833	-3.8896	-4.3979	-3.7271	-4.3542	-4.2042	-3.9146	-4.6042	-3.9125	-3.8208	-4.8021	-3.7875	-4.3375	-4.4437	-3.7188	-4.7417	194.396	-7.590	100.774	195.344	-46.824	32.959	121.236	139.244	195.828	-48.729	102.468	133.413	-135.944	-5.869	193.491	197.517	0.00053032	0.00098105	0.00036225	1324.3	9.5738e-06	1.1979e-05	1695.5	386.88	2.7394e-06	5.1858e-06	586.08	192.29	110.37	42.785	8.6152e-06	86.194	0.0037344	0.005678	0.0015667	1206.6	5.7843e-05	6.3773e-05	1541.3	352.24	5.8976e-05	6.3155e-05	535.21	177.2	103.53	40.004	5.7116e-05	80.055	206.367	-36.721	-62.992	-133.806	-31.558	27.295	-134.023	-130.492	-147.467	-117.335	-130.429	-127.164	-126.487	-121.018	-78.913	-122.756	-8191	255	
57903.883	1	1	0	0	0.16188	0.10531	0.04226	0.22372	0.11955	0.085688	0.19165	0.13533	0.08042	0.065689	0.1683	0.1503	0.16659	0.061684	0.15565	0.32991	-3.7208	-3.9208	-4.5667	-4.0125	-4.2208	-4.1896	-3.8646	-4.7667	-3.9854	-3.8542	-4.6646	-3.8146	-4.0146	-4.6083	-3.6312	-4.575	168.009	9.607	205.161	201.606	-123.885	83.595	135.669	157.573	7.389	15.526	114.321	-88.971	126.001	169.742	71.935	184.148	0.00056823	0.00097668	0.00018048	1308.7	9.3398e-06	1.4871e-05	1667.3	376.26	1.1608e-05	1.1771e-05	575.28	188.39	109.01	42.259	7.5351e-06	85.745	0.0037624	0.0055502	0.0015027	1190.6	5.6815e-05	6.3535e-05	1514.1	346.48	5.8556e-05	6.2991e-05	527.23	175.17	102.97	39.443	5.6463e-05	79.624	200.076	1.442	-80.145	-134.078	9.879	62.308	-134.263	-130.746	-21.619	57.431	-130.641	-127.097	-126.524	-120.898	72.724	-122.614	-8191	255	
57904.004	1	1	0	0	0.13348	0.19531	0.078253	0.10956	0.1114	0.28658	0.25336	0.14554	0.047017	0.12218	0.094357	0.19555	0.17801	0.28833	0.21685	0.26345	-3.7729	-3.8542	-4.6896	-3.9583	-3.9583	-4.4812	-3.7292	-4.5229	-4.1438	-3.7854	-4.6604	-3.9479	-4.0958	-4.4854	-3.6417	-4.3938	-44.120	1.500	-11.237	166.918	-81.518	-113.508	153.806	79.110	96.781	57.613	177.823	160.839	145.856	-123.380	-133.526	120.128	0.00057142	0.00063387	0.0004994	1317	5.2193e-06	1.1957e-05	1673.6	380.03	2.8351e-06	1.1475e-05	582.74	192.44	110.99	43.021	7.0293e-06	87.414	0.0036729	0.005469	0.0014645	1192.9	5.5775e-05	6.086e-05	1522.2	348.91	5.7773e-05	6.1081e-05	534.71	177.94	104.04	39.901	5.7735e-05	81.085	204.269	-56.831	-12.204	-133.874	34.071	-45.305	-134.097	-130.377	11.304	-31.202	-130.679	-127.290	-126.687	-121.209	53.166	-122.851	-8191	255	
57904.074	1	1	0	0	0.054059	0.11783	0.33911	0.070162	0.12251	0.10717	0.15072	0.23372	0.10389	0.13528	0.14615	0.2863	0.11541	0.11992	0.27104	0.094068	-4.0687	-3.5479	-4.5417	-3.8917	-3.6562	-4.4625	-3.8	-4.3021	-4.3292	-3.6708	-4.6396	-4.1542	-3.8771	-4.6188	-3.675	-4.2667	160.512	-63.171	-87.886	-94.734	-12.860	-9.602	104.472	144.340	147.362	-130.616	153.427	-143.012	195.008	-137.929	-121.102	174.800	0.00062814	0.00072422	0.00037881	1327.1	5.5845e-06	4.719e-06	1690.2	388.92	7.6148e-06	2.9676e-06	588.88	194.23	112.05	43.547	8.1917e-06	88.258	0.0036513	0.005347	0.0015052	1207.2	5.5717e-05	6.0468e-05	1540.6	354.71	5.6764e-05	6.0422e-05	539.38	180.48	105.56	40.399	5.7444e-05	81.862	206.835	-119.687	-12.732	-133.890	44.424	-39.865	-134.174	-130.351	-33.418	172.453	-131.005	-126.820	-126.440	-120.838	-16.353	-122.248	-8191	255	
57904.172	1	1	0	0	0.167	0.13963	0.068264	0.25223	0.089912	0.19886	0.25107	0.35245	0.24873	0.072371	0.14183	0.27815	0.19765	0.24701	0.082572	0.10788	-4.1583	-3.6937	-4.4833	-4.1229	-3.7417	-4.5396	-4.0792	-4.1458	-4.5125	-3.6729	-4.4771	-4.225	-3.7875	-4.4958	-3.725	-4.225	-13.188	48.139	52.621	185.806	-83.001	81.474	159.949	-119.812	-8.757	92.305	190.361	152.932	143.168	-147.792	96.797	41.013	0.0006046	0.00054577	9.7097e-05	1332.7	1.0783e-05	9.588e-06	1682.8	381.47	1.1681e-05	1.0433e-05	576.4	190.47	110.91	42.183	6.0112e-06	84.677	0.0035955	0.005309	0.0014975	1210.1	5.432e-05	5.8981e-05	1532.7	350.05	5.3714e-05	5.8431e-05	530.86	176.14	103.27	39.273	5.8294e-05	78.645	-142.420	-79.589	120.284	-133.719	-16.614	-11.237	-134.444	-130.377	14.260	54.562	-130.825	-127.049	-127.095	-121.154	-49.930	-122.711	-8191	255	
57904.289	1	1	0	0	0.14855	0.13758	0.15731	0.25061	0.059095	0.092685	0.31147	0.10505	0.14022	0.095993	0.18316	0.15944	0.16371	0.20979	0.13394	0.25199	-4.2312	-3.65	-4.2833	-4.1958	-3.7417	-4.5979	-4.0833	-4.1042	-4.4	-3.6167	-4.3521	-4.3875	-3.8729	-4.6813	-4.0563	-4.0125	-82.972	-23.646	-132.798	171.464	110.463	172.108	127.786	169.283	-27.763	184.733	-144.677	-132.147	74.747	-82.180	-74.031	-58.971	0.0004638	0.0017568	0.00028452	1301.8	8.8991e-06	8.378e-06	1663.3	378.94	9.1459e-06	1.5022e-05	572.23	189.34	109.52	42.053	7.0557e-06	84.954	0.0033971	0.005385	0.0015261	1184.5	5.3444e-05	5.795e-05	1514.8	346.25	5.3668e-05	5.9852e-05	527.09	174.77	102.47	39.038	5.8627e-05	78.791	-147.481	-68.085	-79.970	-133.891	-79.439	59.136	-134.225	-130.043	-23.656	-33.934	-131.190	-127.194	-126.700	-121.231	-3.218	-122.515	-8191	255	
57904.387	1	1	0	0	0.25311	0.085548	0.2049	0.13879	0.069363	0.072705	0.28101	0.095199	0.19952	0.1199	0.2125	0.10938	0.16232	0.06932	0.20121	0.15252	-4.2208	-3.6271	-4.2937	-4.3917	-3.7104	-4.4917	-4.0771	-3.9271	-4.5458	-3.5563	-4.1438	-4.5979	-3.5979	-4.6312	-4.0458	-3.9042	-17.529	-39.754	-143.902	189.856	-112.992	108.097	125.961	187.206	-130.650	-43.801	86.201	-88.324	90.322	205.642	-109.529	-144.707	0.00068175	0.0010052	0.00038988	1312	6.4183e-06	4.2493e-06	1673	383.56	7.4695e-06	1.2319e-05	580.25	190.52	110.14	42.615	1.6437e-05	85.799	0.003372	0.0053721	0.0015242	1195.4	5.1365e-05	5.9529e-05	1524.1	350.67	5.3993e-05	6.0848e-05	533.36	176.29	103.2	39.544	5.7017e-05	79.566	193.612	-48.917	-60.172	-133.804	14.957	175.855	-134.089	-130.424	-69.453	-18.854	-130.587	-127.467	-126.939	-121.317	-2.837	-122.736	-8191	255	
57904.480	1	1	0	0	0.25246	0.14795	0.080758	0.16084	0.086431	0.1114	0.14329	0.12295	0.10497	0.089118	0.096718	0.17851	0.24355	0.10579	0.13512	0.10989	-4.2167	-3.7521	-3.9146	-4.5104	-3.7292	-4.5125	-4.3417	-3.95	-4.5604	-3.6896	-3.8937	-4.4938	-3.6896	-4.5167	-4.1583	-3.7542	-13.289	-112.100	187.125	-6.981	139.366	168.982	206.989	11.122	164.162	-76.231	121.146	174.687	-106.695	-69.584	207.157	194.711	0.00053527	0.00085795	0.00019447	1336.5	6.4223e-06	1.6263e-05	1692.5	386.14	1.011e-06	5.3009e-06	588.02	190.02	111.63	42.581	5.0482e-06	85.487	0.0033961	0.0055129	0.001514	1209.2	5.3241e-05	6.0397e-05	1543	353.19	5.4215e-05	6.2095e-05	536.61	176.54	103.9	39.731	5.7722e-05	79.018	204.162	-18.927	-43.379	-133.968	-31.171	46.866	-134.013	-130.224	148.647	-142.143	-130.760	-127.341	-126.734	-121.288	-53.293	-122.436	-8191	255	
57904.578	1	1	0	0	0.1683	0.068733	0.14764	0.046267	0.065991	0.14106	0.24055	0.15655	0.1343	0.030496	0.16879	0.32118	0.1083	0.12314	0.16926	0.12522	-4.1083	-3.8	-3.8146	-4.5375	-3.5479	-4.2375	-4.4479	-3.9437	-4.4667	-3.775	-3.95	-4.675	-3.6917	-4.4354	-4.4125	-3.7375	-23.275	-96.542	-96.241	208.901	-83.750	42.090	123.129	128.824	129.294	-113.316	-90.233	198.074	-81.796	181.646	70.752	-106.885	0.00057422	0.00075231	0.0004173	1319.2	1.2147e-05	1.342e-05	1675.3	379.78	4.4002e-06	4.365e-06	575.23	185.3	108.41	41.098	5.442e-06	82.918	0.0033938	0.0055029	0.0015029	1195.6	5.3654e-05	6.0172e-05	1519.6	347.5	5.3208e-05	6.0808e-05	525.9	171.45	101.4	38.258	5.4465e-05	76.837	193.442	-25.637	-46.836	-134.010	-27.595	-6.609	-133.771	-130.455	-36.497	36.324	-130.772	-127.404	-126.377	-121.378	102.240	-122.735	-8191	255	
57904.676	1	1	0	0	0.26781	0.18205	0.16615	0.23898	0.36866	0.32469	0.48392	0.18242	0.088591	0.067169	0.11964	0.016938	0.19415	0.13853	0.17026	0.05976	-4.1083	-3.9	-3.9229	-4.6813	-3.6708	-4.1937	-4.4458	-3.7229	-4.4771	-4.1396	-4.0625	-4.6042	-3.9271	-4.0875	-4.3479	-3.7979	113.530	18.061	47.329	147.983	177.161	94.106	153.271	156.083	2.375	124.942	188.849	-4.006	192.910	-67.300	57.814	156.636	0.00056293	0.00055802	0.00016224	1328	1.21e-05	1.3895e-05	1686.1	383.15	3.2367e-07	1.2443e-05	577.97	185.79	108.35	41.11	8.5656e-06	83.53	0.0033816	0.0054096	0.0014142	1200.4	5.2915e-05	5.7641e-05	1530.2	349.86	5.1807e-05	5.9219e-05	530.16	171.5	101.39	38.332	5.24e-05	77.356	194.136	-86.471	-31.036	-134.095	-4.011	-9.330	-134.271	-130.576	-101.001	-14.250	-130.718	-127.156	-126.798	-121.427	-28.559	-122.652	-8191	255	
57904.770	1	1	0	0	0.28312	0.12702	0.15332	0.10712	0.19477	0.059748	0.06264	0.11018	0.11962	0.12054	0.20228	0.42017	0.022118	0.097802	0.1135	0.14753	-4.1583	-4.35	-3.7792	-4.7354	-3.6125	-3.9313	-4.5062	-3.8688	-4.3438	-4.2042	-3.8812	-4.6125	-3.9458	-3.9479	-4.5042	-3.8396	88.197	58.729	130.822	204.133	44.504	33.260	173.946	-128.192	-76.133	-103.676	-146.283	-147.276	135.466	200.720	97.263	-91.963	0.00049104	0.0013528	0.00036914	1338.1	2.8346e-06	5.4042e-06	1701.5	387.66	4.2851e-06	1.686e-05	589.36	186.76	110.08	42.115	6.6148e-06	84.837	0.0034129	0.0052604	0.0013623	1212	5.4125e-05	5.7903e-05	1546.8	354.5	5.3127e-05	5.8222e-05	537.25	173.71	103.11	38.959	5.1295e-05	78.576	203.777	-63.481	-45.476	-133.767	193.040	-10.337	-134.350	-130.549	-25.810	8.144	-130.664	-127.037	-126.498	-121.123	4.245	-122.708	-8191	255	
57904.891	1	1	0	0	0.035703	0.17177	0.11513	0.093106	0.18556	0.38039	0.22762	0.26267	0.072308	0.1186	0.082545	0.28441	0.15517	0.024709	0.21683	0.24269	-3.9875	-4.2021	-3.5354	-4.6625	-3.9604	-3.8458	-4.6729	-3.7167	-4.2729	-4.35	-3.6958	-4.5604	-4.0625	-3.7938	-4.5458	-3.6813	-39.064	169.965	54.056	58.915	167.803	-59.857	46.699	127.620	-81.760	20.992	189.498	145.629	209.500	-136.417	110.352	138.011	0.00067617	0.00089364	0.00036337	1345.4	2.9668e-06	3.4123e-06	1682.9	385.44	1.1237e-05	4.3251e-06	579.41	183.71	108.58	40.781	8.3134e-06	82.763	0.0033911	0.0050507	0.0013471	1217	5.2012e-05	5.4684e-05	1536	352.08	5.2586e-05	5.5985e-05	529.21	170.87	101.11	37.912	5.1426e-05	76.744	193.835	-66.614	-92.088	-133.760	-82.454	-11.795	-134.081	-130.306	1.406	-9.641	-130.635	-127.399	-126.714	-120.819	35.488	-122.984	-8191	255	
57904.984	1	1	0	0	0.11188	0.068677	0.20931	0.096402	0.13837	0.10354	0.22133	0.16504	0.045993	0.32694	0.10776	0.087793	0.05668	0.19036	0.20731	0.15648	-3.7604	-4.3854	-3.7292	-4.7125	-4.1687	-3.7917	-4.7688	-3.9458	-4.1604	-4.3958	-3.8479	-4.4917	-4.1979	-3.7917	-4.6292	-3.9417	-130.401	-25.014	108.914	191.761	4.448	172.737	172.005	-146.421	-132.694	12.535	210.817	166.872	100.928	202.923	14.938	103.323	0.00042808	0.00036136	0.00024377	1314.9	1.1121e-05	5.8378e-06	1671.1	379.77	6.01e-06	8.32e-06	575.26	183.17	106.81	40.63	7.1175e-06	82.672	0.0032918	0.0049176	0.0013492	1190.8	5.1534e-05	5.3786e-05	1517.8	347.13	5.1055e-05	5.3174e-05	525.11	169.74	100.14	37.777	5.284e-05	76.649	201.043	-45.164	-117.208	-134.024	-10.927	-61.035	-133.888	-130.170	-1.569	-63.528	-130.936	-127.376	-126.443	-121.409	8.100	-122.572	-8191	255	
57905.082	1	1	0	0	0.1549	0.11954	0.047626	0.16342	0.35409	0.05637	0.10291	0.11032	0.20544	0.12075	0.089278	0.13304	0.15479	0.14721	0.15778	0.30921	-3.7542	-4.425	-3.6604	-4.5563	-4.1958	-3.7375	-4.7646	-3.9292	-3.9125	-4.5521	-3.6646	-4.3729	-4.3833	-3.7729	-4.3708	-4.1333	111.959	-143.937	193.692	209.585	168.921	13.543	195.744	61.208	6.936	78.026	121.631	44.840	60.423	176.244	171.340	173.663	0.00060092	0.0013908	0.00025249	1325.2	1.0709e-05	1.0819e-05	1677.5	383.77	6.7099e-06	2.1789e-06	578.11	186.38	108.82	41.303	1.7252e-05	83.9	0.0032996	0.0049312	0.0014292	1200.8	5.0803e-05	5.5684e-05	1529.8	350.99	5.1732e-05	5.4958e-05	530.2	172.27	101.7	38.302	5.3843e-05	77.658	197.885	-60.176	-105.254	-133.776	-5.114	20.293	-134.393	-130.437	-28.899	-147.810	-130.832	-127.274	-126.947	-121.191	13.915	-122.235	-8191	255	
57905.180	1	1	0	0	0.23831	0.12475	0.1714	0.15806	0.13963	0.10974	0.10185	0.089116	0.16731	0.12288	0.082762	0.10294	0.27419	0.15468	0.21276	0.14585	-3.6271	-4.4062	-3.7375	-4.2771	-4.3688	-3.4146	-4.6708	-4.2167	-3.8542	-4.5896	-3.8354	-4.2146	-4.4583	-3.8771	-4.525	-4.2688	84.202	44.111	15.902	157.215	-16.867	-106.143	159.288	179.017	197.752	-54.017	-26.793	-135.885	70.871	210.370	-1.220	210.309	0.00058908	0.0006859	7.5596e-05	1337.7	2.5008e-06	1.2166e-05	1699.6	388.99	3.0233e-06	8.647e-06	583.35	185.1	108.42	41.364	8.0092e-06	83.335	0.0033044	0.004942	0.0014427	1210.8	5.0011e-05	5.608e-05	1546.7	355.53	5.1448e-05	5.7361e-05	535.8	172.45	101.71	38.431	5.4732e-05	77.4	196.152	-75.519	-31.222	-133.804	-87.585	20.601	-133.936	-130.311	113.162	4.248	-130.802	-127.392	-126.993	-121.097	-29.973	-122.504	-8191	255	
57905.301	1	1	0	0	0.12473	0.1318	0.089744	0.080883	0.14921	0.034308	0.09014	0.17796	0.15424	0.083372	0.18066	0.18094	0.17623	0.1677	0.22652	0.20369	-3.3958	-4.6292	-3.6562	-4.05	-4.4688	-3.6729	-4.5521	-4.2271	-3.7625	-4.6271	-3.9854	-3.9562	-4.6458	-3.7333	-4.3875	-4.3271	-86.605	129.780	148.397	-135.822	179.802	-56.136	53.204	159.657	187.024	-138.282	62.373	159.320	-78.068	-140.612	-73.869	104.003	0.00053513	0.0001601	0.00024741	1316.8	8.1688e-06	1.281e-05	1678	382.06	2.9049e-06	1.0642e-05	574.68	183.08	107.57	40.515	4.0965e-06	82.025	0.0032535	0.0050335	0.0014883	1195.3	4.9495e-05	5.7223e-05	1521	348.18	5.0995e-05	5.6614e-05	525.69	169.35	100.3	37.751	5.3625e-05	75.981	192.665	168.634	7.279	-133.942	-40.734	-70.380	-134.212	-130.510	73.617	-26.510	-130.934	-127.343	-126.985	-120.906	100.804	-122.503	-8191	255	
57905.371	1	1	0	0	0.38285	0.29639	0.12014	0.36007	0.044276	0.28272	0.16187	0.19432	0.083163	0.057475	0.096033	0.22316	0.2958	0.21491	0.10649	0.10975	-3.2771	-4.4812	-3.9396	-4.0771	-4.6354	-3.6542	-4.4625	-4.3375	-3.675	-4.5625	-4.1438	-3.9292	-4.5042	-3.6646	-3.9958	-4.5292	-32.136	-142.097	178.013	165.665	111.028	157.887	134.331	-139.574	40.676	-15.493	9.867	119.266	118.492	211.883	163.416	157.811	0.00053373	0.0014133	0.00015431	1318.2	5.8521e-06	1.007e-05	1671.3	381.86	8.6666e-06	1.5344e-05	575.65	183.89	107.52	40.762	6.8478e-06	83.498	0.0032035	0.0051434	0.0014427	1193.7	4.9373e-05	5.8467e-05	1522.6	348.78	5.0725e-05	5.7081e-05	528.4	170.61	100.5	38.169	5.3561e-05	77.479	197.195	-42.083	-106.905	-133.836	25.830	-44.995	-134.581	-130.130	-4.632	-31.535	-130.505	-127.425	-126.665	-120.960	-31.816	-122.167	-8191	255	
57905.469	1	1	0	0	0.097557	0.17896	0.16087	0.15627	0.13466	0.3337	0.10991	0.21327	0.10862	0.11618	0.12145	0.01982	0.15133	0.10603	0.17622	0.1207	-3.2562	-4.325	-4.0687	-3.8	-4.55	-3.8208	-4.2271	-4.5979	-3.4313	-4.4688	-4.2562	-3.7229	-4.35	-3.8792	-3.9313	-4.4646	-140.563	-122.912	23.172	-36.489	189.658	-37.627	78.524	176.544	-0.010	-120.664	194.076	-127.276	73.431	121.866	-48.289	-124.065	0.00059497	0.0011896	0.00045343	1330.5	5.1624e-06	9.7e-06	1690.3	388.23	6.1651e-06	3.089e-06	583.48	187.04	109.5	41.446	1.2545e-05	84.431	0.0033323	0.0051614	0.001438	1206.3	4.957e-05	5.8809e-05	1537.9	353.5	5.1283e-05	5.7554e-05	535.49	172.79	102.37	38.705	5.3253e-05	77.935	201.029	-27.567	-27.471	-133.989	-29.645	-136.017	-134.002	-130.564	-63.074	122.131	-130.593	-127.391	-126.847	-120.944	-11.641	-122.134	-8191	255	
57905.562	1	1	0	0	0.29596	0.16811	0.16671	0.15353	0.24726	0.17873	0.18408	0.12455	0.28449	0.025949	0.18548	0.246	0.022018	0.1931	0.23034	0.2179	-3.3333	-4.1354	-4.1229	-3.6562	-4.5813	-3.9271	-4.0396	-4.5667	-3.6271	-4.175	-4.4313	-3.7396	-4.6375	-4.0667	-3.8646	-4.6271	62.987	48.937	-34.560	97.115	183.817	-7.548	123.883	117.175	-1.465	-32.129	111.339	105.134	-140.472	104.116	183.193	-107.725	0.00045565	0.0004851	0.00049237	1332.6	4.2867e-06	1.5926e-05	1695.3	387.17	6.1799e-06	7.1376e-06	580.24	183.61	107.04	40.65	7.4246e-06	82.606	0.0033695	0.005117	0.0013817	1214.3	5.1477e-05	5.7058e-05	1543	352.17	5.2883e-05	5.7067e-05	530.35	169.95	100.4	37.832	5.1387e-05	76	181.408	-3.474	-48.026	-134.108	-30.721	13.358	-134.211	-130.538	-74.134	70.645	-130.786	-127.573	-126.655	-121.300	13.835	-122.446	-8191	255	
57905.684	1	1	0	0	0.19163	0.12187	0.18843	0.23726	0.09299	0.15041	0.033974	0.097275	0.11843	0.13596	0.15513	0.14039	0.043769	0.18128	0.10677	0.39064	-3.4292	-4.2188	-4.2	-4	-4.4875	-4	-4	-4.6667	-3.6708	-4.15	-4.5729	-3.6479	-4.4729	-4.1438	-3.7188	-4.6604	22.987	112.866	153.607	127.212	197.760	-16.317	112.641	141.742	179.729	7.838	166.919	-26.762	-77.298	202.109	55.277	112.382	0.00057669	0.00045168	0.0004397	1315.8	8.0004e-06	8.0393e-06	1663.1	382.07	3.5661e-06	6.5275e-06	574.51	180.16	106.49	40.3	5.2513e-06	81.628	0.0033984	0.0051537	0.0013671	1191.8	5.1244e-05	5.7155e-05	1515.7	347.76	5.1795e-05	5.5704e-05	524.14	167.48	99.604	37.431	5.0438e-05	75.698	208.444	-47.673	-15.796	-133.847	23.000	13.451	-134.434	-130.390	-73.135	149.679	-130.866	-127.154	-126.887	-121.343	16.234	-122.662	-8191	255	
57905.777	1	1	0	0	0.25698	0.19498	0.065918	0.25298	0.30183	0.15078	0.24142	0.18954	0.13823	0.061886	0.36695	0.085618	0.24127	0.26844	0.089924	0.26904	-3.4229	-3.9479	-4.4938	-3.7333	-4.3042	-4.1521	-3.9437	-4.725	-3.7042	-3.9188	-4.4812	-3.7188	-4.4292	-4.3063	-3.7146	-4.6396	-44.194	-23.609	48.559	194.450	-15.300	72.730	107.815	-135.427	9.598	197.089	158.994	22.473	-97.748	201.773	-9.008	92.464	0.00052664	0.00081302	0.00021173	1324	1.2867e-05	1.296e-05	1675.9	383.66	3.5981e-06	1.1147e-05	575.82	182.81	107.44	40.816	7.486e-06	83.006	0.0033278	0.0049737	0.0013341	1201.3	5.067e-05	5.6428e-05	1525.5	351.48	5.3329e-05	5.5405e-05	528.83	169.79	101.04	37.849	5.0694e-05	76.809	197.136	-35.924	-24.472	-133.907	-7.520	-37.120	-134.291	-130.345	173.481	-0.374	-130.510	-127.206	-127.077	-121.045	-47.031	-122.629	-8191	255	
57905.875	1	1	0	0	0.13867	0.070762	0.11066	0.30515	0.15873	0.18789	0.34131	0.18271	0.1731	0.14946	0.16872	0.20669	0.21877	0.12146	0.10844	0.17658	-3.6979	-3.8125	-4.3229	-3.7708	-4.1188	-4.1708	-3.7604	-4.6333	-3.8688	-3.7604	-4.6271	-3.9125	-4.1062	-4.2625	-3.5479	-4.5146	0.500	-147.380	179.637	154.824	179.419	140.780	98.363	199.966	-139.432	195.571	-123.098	130.906	-142.382	51.217	64.788	109.442	0.00059655	0.0013949	0.00039966	1341	1.0803e-06	6.5874e-06	1710.5	389.39	9.8761e-06	5.684e-06	581.99	184.64	108.02	40.96	1.043e-05	82.408	0.0033516	0.0049672	0.0013477	1212.2	5.0757e-05	5.5181e-05	1546.4	355.42	5.2562e-05	5.5373e-05	534.63	171.52	101.13	38.004	5.2081e-05	76.582	202.880	-45.345	-67.442	-134.220	33.242	-39.391	-134.171	-130.431	-50.172	32.107	-130.546	-127.608	-126.710	-121.129	-61.391	-122.771	-8191	255	
57905.969	1	1	0	0	0.085971	0.25406	0.067137	0.10604	0.097589	0.022644	0.19275	0.18737	0.12763	0.099882	0.44961	0.14326	0.071561	0.18902	0.11941	0.17611	-3.6333	-3.6583	-4.5	-3.875	-4.1104	-4.3604	-3.9271	-4.5437	-4.0521	-3.7708	-4.575	-3.7958	-4.0292	-4.4708	-3.5312	-4.3875	-14.925	-53.485	91.390	-87.266	-78.700	-60.806	121.493	165.702	204.477	148.759	171.653	207.681	117.735	163.722	-114.623	131.254	0.00059607	0.00020219	0.00038607	1331.2	1.5852e-06	2.6408e-06	1682.9	381.25	1.0049e-05	8.1467e-06	571.96	182.14	105.98	40.238	5.8416e-06	81.543	0.0032813	0.0047725	0.0013663	1203.3	4.9893e-05	5.3759e-05	1523.8	347.53	5.0826e-05	5.3809e-05	523.51	168.79	99.414	37.325	5.2401e-05	75.454	200.132	-42.247	-14.497	-134.049	-27.316	-114.871	-134.259	-130.184	-50.820	-45.203	-131.219	-127.018	-126.737	-121.044	-38.638	-122.611	-8191	255	
57906.066	1	1	0	0	0.13975	0.21384	0.33883	0.27953	0.09589	0.05299	0.24683	0.21576	0.1463	0.051541	0.036358	0.10808	0.11327	0.085828	0.1478	0.21808	-3.8875	-3.7188	-4.5437	-4.0542	-3.7958	-4.5437	-3.8229	-4.5708	-4.1271	-3.6125	-4.6708	-4.0042	-3.8542	-4.6896	-3.5521	-4.3271	-23.112	158.867	47.088	164.907	178.685	-86.277	136.046	145.381	133.063	115.789	149.224	142.929	169.388	206.162	-32.079	108.406	0.00057815	0.00060195	0.00025036	1328.6	6.153e-06	1.6804e-05	1676.4	379.41	3.0802e-06	1.3244e-05	576.13	183.19	107.09	40.827	1.2273e-05	82.601	0.0032286	0.0047876	0.0013714	1198.6	4.7992e-05	5.3066e-05	1523.2	348.15	4.8081e-05	5.28e-05	526.5	169.48	100.36	37.804	5.3129e-05	76.167	204.887	-51.084	-25.769	-133.684	36.449	15.937	-134.279	-130.470	-13.522	-7.684	-130.823	-126.899	-126.965	-121.307	-0.865	-122.539	-8191	255	
57906.160	1	1	0	0	0.048456	0.18273	0.18051	0.44839	0.10959	0.22572	0.15344	0.48707	0.17029	0.15753	0.24708	0.068334	0.1235	0.25108	0.17537	0.2179	-3.8729	-3.5354	-4.4167	-4.1583	-3.6896	-4.3667	-4.0021	-4.4187	-4.2188	-3.5792	-4.525	-4.275	-3.9062	-4.5875	-3.6542	-4.1604	-84.778	-134.174	164.239	154.939	-31.982	-21.219	171.393	118.181	-14.779	112.981	142.393	180.016	-81.526	-61.114	133.904	138.682	0.00048272	0.00059105	0.00011664	1342.5	1.2249e-05	1.6867e-05	1689.6	384.33	8.1745e-06	8.2444e-06	581.17	184.86	107.66	41.149	6.1132e-06	83.075	0.0030983	0.0048893	0.0013981	1213.5	4.735e-05	5.4076e-05	1539.6	351.82	4.895e-05	5.5063e-05	534.09	171.68	101.19	38.217	5.2646e-05	77.115	198.923	-85.943	78.084	-133.890	-28.381	-30.220	-134.232	-130.478	-21.728	-7.098	-131.134	-126.756	-126.943	-121.280	4.293	-122.796	-8191	255	
57906.258	1	1	0	0	0.12726	0.10869	0.14362	0.14382	0.18818	0.060067	0.17247	0.14668	0.12114	0.077091	0.11081	0.18326	0.18433	0.013431	0.17213	0.21794	-4.1604	-3.4417	-4.4062	-4.3063	-3.5792	-4.5437	-4.0167	-4.1354	-4.3771	-3.5458	-4.5646	-4.2438	-3.775	-4.5167	-3.8083	-4.0708	101.449	-70.139	-49.182	71.953	-28.355	38.439	98.758	154.247	83.458	-53.798	-114.395	148.980	186.275	159.513	18.452	156.298	0.00052644	0.00067417	0.00032004	1346.1	4.4043e-06	8.4349e-06	1699.4	386.91	5.0201e-06	5.0298e-06	577.78	183.37	107.22	40.382	7.9089e-06	81.998	0.0030732	0.0049056	0.0013592	1216.3	4.742e-05	5.4175e-05	1544.1	351.2	4.7679e-05	5.5729e-05	529.4	169.73	99.985	37.527	5.2364e-05	75.352	204.003	-5.713	-44.442	-133.880	-38.530	-22.754	-134.295	-130.515	-56.017	-10.174	-131.120	-126.966	-126.984	-121.609	-49.662	-122.839	-8191	255	
57906.379	1	1	0	0	0.18309	0.14882	0.12414	0.22955	0.18603	0.21001	0.49079	0.22236	0.13404	0.14194	0.34187	0.168	0.056109	0.21575	0.2137	0.047968	-4.1458	-3.5187	-4.3125	-4.3375	-3.7792	-4.525	-3.9604	-4.0062	-4.6375	-3.7479	-4.3208	-4.3479	-3.6688	-4.6417	-3.8333	-3.9958	-115.037	73.028	210.562	180.604	73.829	169.061	181.210	121.013	-51.977	204.277	-146.015	152.683	137.268	80.735	-46.013	194.075	0.00060869	0.0015471	3.5101e-05	1321.2	3.1145e-06	1.7124e-05	1656.9	379.34	2.5222e-06	1.4983e-05	570.67	181.62	106.21	39.807	2.4501e-06	81.536	0.0031007	0.0049913	0.0013332	1194.7	4.8092e-05	5.455e-05	1513.5	345.17	4.8908e-05	5.5639e-05	520.72	167.52	99.193	37.184	5.1302e-05	75.167	201.350	-75.382	205.956	-133.918	-47.117	-65.805	-134.095	-130.487	-140.555	-3.163	-130.959	-127.458	-126.502	-121.700	-134.680	-122.375	-8191	255	
57906.477	1	1	0	0	0.14957	0.039969	0.25993	0.10486	0.19048	0.29315	0.33452	0.10171	0.14924	0.13526	0.23766	0.19781	0.31179	0.15367	0.17827	0.07275	-4.2188	-3.6896	-4.125	-4.5625	-3.4688	-4.2312	-4.1542	-3.95	-4.5229	-3.5917	-4.3271	-4.5938	-3.5917	-4.4542	-3.9688	-3.7958	-12.792	34.721	-3.508	200.710	148.295	167.485	144.635	116.314	-90.768	194.281	196.285	30.293	118.034	-4.763	-140.188	-134.589	0.00058931	0.0014196	0.00021581	1316.3	4.2241e-06	1.2859e-05	1693.4	382.15	1.1095e-05	6.9238e-06	573.45	183.96	107.83	40.669	1.1959e-05	83.25	0.0031519	0.005079	0.0013387	1197.6	4.9144e-05	5.562e-05	1527.4	348.5	4.9606e-05	5.6943e-05	527.18	170.19	100.46	37.935	5.0791e-05	76.756	190.166	-16.452	-76.998	-133.811	-20.033	22.238	-134.255	-130.553	-14.144	85.800	-130.984	-127.074	-127.092	-121.031	63.534	-122.461	-8191	255	
57906.570	1	1	0	0	0.1118	0.24454	0.14333	0.39456	0.043816	0.13375	0.39251	0.11027	0.08487	0.10533	0.36065	0.11423	0.1666	0.13944	0.24403	0.20985	-4.1667	-3.7479	-3.875	-4.5229	-3.5187	-4.3812	-4.4458	-3.8792	-4.55	-3.7083	-4.0625	-4.5396	-3.7917	-4.3479	-4.2042	-3.7687	-14.682	81.782	125.832	167.140	-137.752	118.856	113.162	134.013	127.433	201.466	180.511	156.325	193.379	-74.920	155.652	143.842	0.00055907	0.00073957	0.00011718	1336.9	6.7723e-06	7.4358e-06	1700.7	389.22	1.977e-06	9.4866e-06	583.6	185.21	108.96	40.952	9.8425e-06	83.009	0.0032635	0.0050757	0.0013243	1211.5	5.1473e-05	5.581e-05	1546.4	354.27	5.15e-05	5.7215e-05	536.05	172.15	101.73	38.166	5.0544e-05	76.765	198.239	-124.772	41.951	-134.173	-34.374	10.824	-134.206	-130.569	-19.024	65.812	-131.050	-127.026	-126.790	-121.375	-21.415	-122.665	-8191	255	
57906.668	1	1	0	0	0.092088	0.22845	0.26297	0.18714	0.15941	0.13103	0.17946	0.34975	0.12677	0.14507	0.21708	0.31414	0.06761	0.14806	0.10806	0.22063	-4.1667	-3.9521	-3.7313	-4.5979	-3.6437	-4.1896	-4.4417	-3.7042	-4.35	-4.1292	-3.7854	-4.5708	-3.7438	-4.2333	-4.3167	-3.7458	-14.161	162.951	107.454	-126.929	97.735	94.836	130.287	72.734	127.563	-61.776	192.741	186.712	-119.277	157.713	28.443	135.250	0.00054959	0.00021291	0.0002966	1338.2	4.8161e-06	5.4444e-06	1688.2	382.31	1.1256e-06	6.125e-06	570.84	182.07	106.5	40.115	8.1744e-06	81.085	0.0033406	0.0051262	0.0013299	1206.4	5.2768e-05	5.6281e-05	1530.3	350.09	5.2629e-05	5.6411e-05	523.69	168.3	99.711	37.27	5.1198e-05	74.95	198.230	205.362	-72.395	-133.691	-101.700	-23.127	-134.115	-130.127	7.766	-4.699	-130.725	-127.635	-126.896	-121.245	98.401	-122.426	-8191	255	
57906.766	1	1	0	0	0.16928	0.2204	0.16757	0.17383	0.097135	0.30816	0.13136	0.19602	0.24213	0.12237	0.22183	0.050645	0.27547	0.17676	0.11076	0.2514	-4.1125	-3.9417	-3.6729	-4.525	-3.7208	-4.0208	-4.5563	-3.675	-4.3083	-4.1375	-3.7104	-4.5667	-3.8167	-4.0813	-4.3958	-3.8812	13.653	145.653	70.171	131.031	-91.534	174.823	135.111	172.335	208.225	64.260	32.764	-132.693	-122.813	167.287	110.367	126.174	0.00054109	0.0010818	0.00019102	1324.5	4.2701e-06	3.876e-06	1673.9	383.13	5.0805e-06	1.4205e-05	577.2	180.97	106.44	40.504	1.5352e-06	82.177	0.0032912	0.0050239	0.0013604	1198.7	5.2859e-05	5.4209e-05	1523.7	349.25	5.135e-05	5.4944e-05	527.1	168.49	99.849	37.585	5.2252e-05	76.032	192.654	-32.596	-13.293	-133.851	-71.149	166.604	-134.078	-130.700	7.229	7.336	-131.034	-127.184	-126.497	-120.963	42.809	-122.518	-8191	255	
57906.859	1	1	0	0	0.16778	0.19635	0.28057	0.10415	0.23133	0.15933	0.088629	0.048091	0.14402	0.077305	0.21662	0.13272	0.11398	0.17344	0.30237	0.15214	-4.1083	-4.2604	-3.5604	-4.65	-3.9625	-3.7875	-4.6833	-3.6479	-4.1937	-4.2396	-3.7625	-4.4688	-3.8729	-3.7271	-4.4187	-3.8542	-2.355	136.020	106.035	188.276	111.788	61.343	184.118	-49.810	-138.196	145.143	188.020	197.257	-114.479	135.347	-25.002	153.087	0.00056556	0.0013512	0.00033123	1333.2	4.613e-06	5.703e-06	1700.5	386.75	4.0669e-06	4.9649e-06	584.14	184.57	108.66	40.676	6.5402e-06	83.384	0.0032921	0.0049001	0.0013911	1211.4	5.1076e-05	5.3709e-05	1541.7	353.19	5.1318e-05	5.3968e-05	533.53	170.75	101.28	37.919	5.2934e-05	76.575	201.579	-28.397	-51.450	-133.772	-92.369	-66.251	-134.186	-130.396	-25.884	67.018	-131.173	-127.010	-126.727	-121.240	190.583	-122.801	-8191	255	
57906.980	1	1	0	0	0.22576	0.072066	0.11895	0.22969	0.1592	0.10692	0.23704	0.011268	0.062585	0.13198	0.10472	0.27095	0.011561	0.17448	0.23132	0.1601	-3.7104	-4.1792	-3.5271	-4.5375	-3.8563	-3.8646	-4.7021	-3.6854	-4.0229	-4.3917	-3.7271	-4.6458	-4.1604	-3.5833	-4.5146	-4.0583	204.429	145.735	109.424	163.095	-133.166	209.480	167.148	41.498	-22.172	-103.964	-55.766	192.030	-25.249	135.740	177.860	-116.612	0.00050875	0.0011212	0.00038037	1347.2	5.025e-06	7.2361e-06	1697.2	387.23	1.1224e-05	4.849e-06	576.66	181.22	107.16	39.954	5.1574e-06	80.853	0.0032403	0.0048561	0.0014405	1222.1	5.1186e-05	5.4556e-05	1542.6	352.95	4.97e-05	5.4213e-05	528.45	168.48	99.916	37.301	5.3155e-05	75.029	193.179	-47.772	-34.183	-133.732	17.052	17.377	-133.889	-130.139	14.435	-30.089	-130.813	-127.190	-126.516	-121.223	45.023	-122.259	-8191	255	
57907.074	1	1	0	0	0.22464	0.083798	0.17006	0.12454	0.080651	0.10641	0.2223	0.37125	0.16765	0.29682	0.12304	0.23437	0.1594	0.25149	0.1517	0.026054	-3.7083	-4.4271	-3.7375	-4.5396	-4.1375	-3.5708	-4.7312	-4.0542	-3.8875	-4.4292	-3.775	-4.4646	-4.3125	-3.5417	-4.4646	-4.0729	-65.593	-105.907	83.720	-115.521	62.524	163.707	125.430	102.269	202.162	-21.643	108.079	115.481	163.418	-137.829	195.168	201.939	0.00054297	0.0012319	0.00038681	1316.8	6.1475e-06	8.5534e-06	1671.6	379.02	2.5478e-06	9.4595e-06	567.12	179.97	104.96	39.809	3.3644e-06	80.867	0.0031718	0.0048789	0.001429	1194	4.8951e-05	5.4799e-05	1516.9	345.61	4.8238e-05	5.4635e-05	521.34	166.11	98.335	36.967	5.3354e-05	74.652	202.287	1.589	-98.120	-133.845	21.824	-90.041	-134.223	-130.563	-54.551	16.328	-130.920	-127.509	-126.791	-121.304	-22.763	-122.441	-8191	255	
57907.172	1	1	0	0	0.16079	0.087669	0.098749	0.22109	0.03834	0.070026	0.30792	0.1295	0.12896	0.20526	0.11519	0.37396	0.13808	0.22544	0.16102	0.30836	-3.5375	-4.4292	-3.4625	-4.3438	-4.2875	-3.8021	-4.7271	-4.1021	-3.8812	-4.4021	-3.6625	-4.1917	-4.2604	-3.7875	-4.5292	-4.1687	157.883	2.039	-28.802	-124.540	111.050	-75.252	-148.467	198.313	76.343	-93.910	-142.026	132.875	-26.149	200.752	83.010	86.082	0.00055931	0.0011581	0.00042134	1321	8.3732e-06	2.44e-06	1677	381.67	5.2359e-06	9.6621e-06	576.87	181.78	107.07	40.629	3.051e-06	82.422	0.0031518	0.0050819	0.001433	1196.2	4.8614e-05	5.6127e-05	1526	348.19	4.9342e-05	5.7532e-05	528.72	167.99	99.959	37.763	5.3926e-05	76.084	204.376	-128.738	-59.017	-134.020	-103.051	10.174	-134.280	-130.641	-50.662	-67.069	-130.799	-127.428	-126.654	-121.691	-65.309	-122.577	-8191	255	
57907.242	1	1	0	0	0.092008	0.13273	0.10982	0.14015	0.14763	0.14307	0.18	0.26903	0.18495	0.11716	0.13234	0.16426	0.16971	0.060762	0.094718	0.11688	-3.6333	-4.4688	-3.6667	-4.2104	-4.425	-3.6083	-4.7146	-4.1479	-3.6646	-4.5813	-3.8479	-4.1687	-4.5792	-3.5708	-4.375	-4.2667	-141.237	67.885	50.322	110.583	-120.106	58.386	178.437	96.534	-131.123	-11.285	202.194	184.959	170.410	62.220	26.841	-123.487	0.00050798	0.00023336	0.00021898	1337.3	1.0046e-05	7.5078e-06	1702.2	387.95	5.3334e-06	1.3848e-05	584.4	184.35	108.58	41.037	1.5342e-05	83.257	0.0032488	0.0051555	0.0014405	1212.2	5.1256e-05	5.856e-05	1546.5	353.05	5.1517e-05	5.8148e-05	535.61	170.64	101.3	38.225	5.3411e-05	76.897	200.011	21.697	-37.678	-134.039	-5.148	-40.949	-134.031	-130.600	-19.980	80.487	-131.081	-127.520	-126.812	-121.252	-44.659	-122.612	-8191	255	
57907.340	1	1	0	0	0.1894	0.11657	0.16341	0.15018	0.14919	0.094203	0.13786	0.1851	0.16131	0.22967	0.062993	0.35283	0.13342	0.1884	0.096246	0.14416	-3.2375	-4.4208	-3.8083	-4.0167	-4.1979	-3.7583	-4.6375	-4.4062	-3.5875	-4.4875	-3.9292	-3.8104	-4.4917	-3.7896	-4.1958	-4.4396	156.780	-44.722	-141.030	-121.139	39.274	46.395	162.791	144.370	134.034	207.951	140.862	140.231	131.089	-51.241	162.892	-79.717	0.00062002	0.00087034	0.00027132	1323.3	3.6276e-06	5.2187e-06	1680.3	382.73	2.8225e-06	1.085e-05	573.97	180.02	105.12	39.871	4.8938e-06	81.218	0.0033087	0.0050329	0.0014202	1205.7	5.0651e-05	5.8823e-05	1527.1	348.7	5.2911e-05	5.6635e-05	525.18	167.1	99.112	37.321	5.0551e-05	75.085	192.730	-81.982	-112.710	-134.022	-32.669	-33.596	-133.936	-130.272	11.110	-6.860	-131.212	-127.215	-126.928	-121.033	-32.080	-122.250	-8191	255	
57907.461	1	1	0	0	0.41833	0.14703	0.10069	0.28321	0.034389	0.055756	0.23838	0.062734	0.096366	0.16698	0.23698	0.16182	0.078782	0.22985	0.28911	0.30587	-3.4729	-4.5604	-3.8667	-4.0271	-4.4333	-3.7854	-4.325	-4.4333	-3.8375	-4.4437	-4.2354	-3.7854	-4.6958	-3.8	-4.0896	-4.4958	-19.005	-9.121	-113.813	135.753	89.316	-18.784	201.576	184.397	-143.714	206.430	110.516	163.553	144.014	137.949	-123.825	148.711	0.00056696	0.00042176	0.00022144	1312.8	8.1793e-06	1.1228e-05	1670.5	379.95	4.9755e-06	7.9211e-06	573.76	181.52	107.02	40.469	1.5126e-05	81.688	0.0033204	0.0050006	0.0013736	1192.4	5.1038e-05	5.6409e-05	1516	347.09	5.2881e-05	5.5415e-05	525.43	168.09	100.03	37.627	5.0405e-05	75.651	190.789	7.860	-6.307	-133.870	-29.879	-24.241	-134.129	-130.279	151.490	-10.053	-130.855	-127.100	-126.992	-120.883	1.204	-122.714	-8191	255	
57907.555	1	1	0	0	0.15033	0.08249	0.22325	0.21421	0.16797	0.17822	0.32469	0.213	0.30653	0.06934	0.25975	0.05637	0.19211	0.28467	0.051603	0.18808	-3.2042	-4.3187	-4.1083	-3.8646	-4.4417	-3.8292	-4.0896	-4.6458	-3.5438	-4.3646	-4.4042	-3.9021	-4.425	-4.0333	-3.8979	-4.7771	198.487	59.473	101.150	166.327	-90.969	-69.230	143.911	-147.856	-6.823	-2.648	159.265	-80.653	169.390	158.030	201.641	181.979	0.00057061	0.0012605	0.0002005	1324.7	1.1202e-05	8.0179e-06	1684.1	384.5	7.9614e-06	9.7555e-06	579.15	183.28	108.65	40.81	5.1767e-06	83.041	0.0033958	0.0049383	0.0013564	1203.1	5.2229e-05	5.7067e-05	1531.3	350.94	5.2723e-05	5.5616e-05	530.34	170.01	101.22	38.043	5.1189e-05	76.952	188.015	-60.338	43.168	-133.885	-44.986	-7.162	-134.488	-130.469	-17.504	-54.465	-130.746	-127.597	-126.961	-121.171	12.793	-122.344	-8191	255	
57907.652	1	1	0	0	0.16533	0.19548	0.16791	0.091189	0.14233	0.15723	0.207	0.17229	0.1021	0.16921	0.21832	0.13831	0.054317	0.14656	0.15186	0.10996	-3.2375	-4.1854	-4.1646	-3.6458	-4.4396	-3.9646	-4.025	-4.6687	-3.5604	-4.1604	-4.5125	-3.8083	-4.6146	-4.0729	-3.8271	-4.5646	64.905	-148.107	198.374	8.085	-147.047	117.863	136.380	92.052	-106.726	165.635	126.997	-76.217	166.181	176.511	-9.134	165.190	0.00056425	0.00050743	0.00029338	1338.2	4.2121e-06	7.2798e-06	1687.5	383.13	5.3284e-06	6.3763e-06	580	183.38	107.82	40.549	1.1679e-05	82.227	0.0034124	0.0049594	0.001367	1210.8	5.117e-05	5.6001e-05	1532.4	350.99	5.3861e-05	5.4958e-05	529.77	170.11	100.69	37.775	5.1963e-05	76.166	193.321	-66.755	-9.841	-133.994	-18.559	60.365	-134.005	-130.422	-62.836	9.864	-130.650	-127.376	-126.704	-121.291	-19.900	-122.283	-8191	255	
57907.773	1	1	0	0	0.086054	0.24641	0.1135	0.14892	0.28387	0.09203	0.2121	0.20864	0.11249	0.057967	0.14489	0.065471	0.25049	0.17658	0.16616	0.17021	-3.45	-4.0771	-4.2937	-3.7687	-4.6583	-4.0896	-4.0792	-4.5646	-3.7687	-4.0771	-4.6104	-3.5396	-4.5833	-4.2396	-3.7354	-4.7833	16.700	-83.713	-81.931	149.982	185.258	119.239	152.936	108.522	-138.944	-134.903	-111.565	27.366	-88.212	187.432	-90.325	-121.369	0.00057855	0.00050654	5.3175e-05	1309.6	6.7468e-06	1.5299e-05	1657.9	375.15	3.7047e-06	7.671e-06	567.19	180.98	106.1	40.461	5.1371e-06	81.807	0.0033701	0.0048401	0.0013986	1188.8	5.0999e-05	5.4085e-05	1507.6	344.71	5.2207e-05	5.4989e-05	520.93	167.68	99.377	37.608	5.3134e-05	75.812	202.865	-100.810	111.024	-134.227	46.952	12.542	-134.282	-130.342	16.847	-27.121	-130.989	-127.400	-127.130	-121.074	54.228	-122.362	-8191	255	
57907.844	1	1	0	0	0.030769	0.037378	0.15901	0.11548	0.12758	0.15356	0.23236	0.12953	0.092019	0.12596	0.33169	0.18846	0.22643	0.30477	0.053259	0.2345	-3.3958	-4.0083	-4.4708	-3.75	-4.4104	-4.1396	-3.8771	-4.5938	-3.9354	-3.8937	-4.5437	-3.6146	-4.2146	-4.4042	-3.5292	-4.5896	112.379	-134.617	153.490	163.618	-21.330	-63.704	-73.911	119.411	206.713	-51.918	169.549	183.781	201.693	202.186	200.285	190.904	0.0006548	0.00074933	0.00023469	1313.4	4.9005e-06	1.593e-05	1667.6	379.87	7.3379e-06	3.829e-06	575.54	185.1	108.42	41.346	1.5702e-05	83.27	0.0033192	0.0047629	0.0014129	1192.3	4.9516e-05	5.4371e-05	1518.4	347.26	4.9901e-05	5.3667e-05	526.72	170.88	100.79	38.247	5.4235e-05	77.161	185.208	-45.238	-20.428	-134.157	-37.813	-0.018	-134.085	-130.233	-86.042	47.247	-130.813	-127.059	-126.901	-121.093	38.815	-122.597	-8191	255	
57907.941	1	1	0	0	0.10359	0.025433	0.019009	0.19153	0.16696	0.19131	0.33014	0.14518	0.16669	0.2083	0.20865	0.19071	0.06194	0.13767	0.10799	0.18855	-3.5479	-3.7667	-4.3958	-3.8375	-4.0833	-4.4812	-3.5729	-4.5188	-3.9562	-3.7125	-4.5771	-3.9417	-4.1042	-4.5771	-3.6125	-4.45	201.791	194.576	-64.099	-127.560	70.605	1.245	150.555	-102.753	141.822	140.374	136.543	36.304	-14.349	-99.015	191.126	-74.075	0.00052087	0.0011272	0.00040439	1328.3	3.3045e-06	5.7962e-06	1691.8	386.92	2.0496e-06	1.224e-05	585.06	188.38	109.06	41.272	4.9912e-06	84.269	0.0032468	0.0049531	0.001411	1204.9	4.8434e-05	5.5647e-05	1539.3	352.82	5.0126e-05	5.516e-05	536.42	173.78	102.24	38.666	5.4234e-05	77.888	198.596	-26.304	-22.281	-133.663	45.445	3.695	-134.249	-130.093	-41.628	-62.743	-130.724	-127.568	-127.215	-121.362	79.469	-122.916	-8191	255	
57908.059	1	1	0	0	0.1856	0.29099	0.29436	0.3945	0.26197	0.085895	0.3573	0.11484	0.16928	0.16252	0.23923	0.20596	0.27657	0.069345	0.10999	0.058564	-3.7229	-3.6521	-4.5396	-3.8937	-4.05	-4.4708	-3.8563	-4.4375	-4.2917	-3.5896	-4.5354	-3.9521	-4	-4.3854	-3.6708	-4.4708	-88.953	-102.113	-99.311	143.356	-109.487	126.143	158.260	207.581	109.271	-3.716	120.167	186.762	-147.997	-35.201	181.576	-90.478	0.00048759	0.0018527	0.00051199	1338.4	3.3701e-06	1.1728e-05	1671.3	382.01	1.2116e-05	5.5439e-06	572.71	183.52	106.58	40.391	8.2791e-06	81.719	0.0032225	0.005004	0.0014116	1208.4	4.8514e-05	5.6362e-05	1526.6	348.41	4.9407e-05	5.5542e-05	524.08	169.35	99.844	37.641	5.4374e-05	75.614	187.693	-81.791	-109.477	-134.003	-122.316	-24.685	-134.269	-130.192	-50.449	-32.254	-130.770	-127.299	-126.924	-121.167	9.686	-122.413	-8191	255	
57908.156	1	1	0	0	0.090671	0.27297	0.22403	0.23613	0.26864	0.19877	0.30904	0.051585	0.20475	0.12266	0.16051	0.073629	0.21986	0.29949	0.12495	0.13432	-3.7708	-3.6375	-4.4604	-4.0687	-3.7458	-4.3854	-3.9021	-4.4604	-4.3917	-3.6146	-4.6458	-4.0437	-3.7771	-4.7167	-3.6854	-4.3729	97.379	52.036	-57.920	176.421	203.230	44.444	164.437	-21.579	-91.089	-79.113	124.364	37.715	-87.013	-120.603	115.513	-32.249	0.00054787	0.00040557	0.00042667	1311	4.0812e-06	9.9164e-06	1666.1	378.99	1.3414e-05	8.6618e-06	571.38	182.99	106.82	40.522	8.8589e-06	82.243	0.0031596	0.0050704	0.0013948	1188.6	4.9162e-05	5.6832e-05	1511.2	344.5	5.1435e-05	5.6906e-05	522.96	169.35	99.741	37.773	5.3171e-05	76.129	197.105	-22.373	-40.687	-134.032	-47.546	-6.770	-134.398	-130.237	-49.110	94.586	-130.819	-126.927	-126.502	-121.118	16.208	-122.665	-8191	255	
57908.254	1	1	0	0	0.16736	0.051457	0.026659	0.15672	0.075128	0.063801	0.14016	0.12542	0.10824	0.1159	0.060491	0.20251	0.32756	0.16061	0.16108	0.31648	-3.9917	-3.7396	-4.525	-4.0833	-3.8333	-4.5687	-3.9625	-4.1542	-4.4333	-3.6688	-4.5021	-4.1667	-3.8104	-4.5333	-3.7583	-4.0437	-115.367	-140.024	172.699	148.110	92.783	-13.617	129.549	69.945	159.497	-5.864	80.574	174.653	-117.254	148.730	202.615	192.692	0.00062054	0.0012734	0.00027133	1319.8	7.0866e-06	5.3092e-06	1685	383.58	6.4031e-06	7.8819e-06	577.71	185.16	108.29	41.123	9.0718e-06	84.098	0.0033042	0.0052021	0.0013955	1192.9	5.119e-05	5.7031e-05	1525.7	347.9	5.2122e-05	5.8146e-05	530.33	171.56	101.63	38.553	5.2748e-05	77.758	200.148	-54.667	-56.915	-133.963	181.976	1.156	-134.170	-130.559	-83.325	-49.752	-130.974	-127.799	-126.636	-120.943	-6.756	-122.489	-8191	255	
57908.371	1	1	0	0	0.15936	0.084915	0.073189	0.091967	0.17988	0.13508	0.17825	0.31178	0.091315	0.26508	0.24624	0.26703	0.15451	0.26627	0.043304	0.1487	-3.9458	-3.5896	-4.4604	-4.4208	-3.5292	-4.5792	-4.1438	-3.9375	-4.4688	-3.6042	-4.4583	-4.2125	-3.7333	-4.6333	-3.75	-3.8937	154.629	-13.899	-29.492	156.809	-84.976	-16.703	160.412	143.857	9.335	-76.532	-131.802	93.994	-123.537	163.265	-33.641	156.645	0.0004926	0.0011428	0.0002117	1335.3	4.0755e-06	9.406e-06	1688.1	384.41	3.6075e-06	2.1047e-05	579.32	186.03	107.79	40.957	1.5613e-05	82.653	0.0033615	0.0051691	0.0013697	1210.6	5.0669e-05	5.6817e-05	1540.7	351.7	5.1814e-05	5.7262e-05	531.68	171.92	100.91	38.176	5.1468e-05	76.484	205.055	-105.337	-96.125	-133.852	11.902	57.939	-133.985	-130.629	-36.983	37.789	-130.881	-127.095	-126.759	-121.504	-58.215	-122.815	-8191	255	
57908.469	1	1	0	0	0.22809	0.033291	0.22653	0.20937	0.15717	0.085427	0.19684	0.31145	0.14424	0.17444	0.32762	0.28125	0.06782	0.14542	0.13054	0.23903	-4.3375	-3.6	-4.1958	-4.5062	-3.5896	-4.3729	-4.2354	-3.8812	-4.4229	-3.6188	-4.1667	-4.4792	-3.6958	-4.2812	-3.8688	-3.8792	13.363	-105.195	135.741	111.753	107.810	-79.072	174.749	157.405	146.820	195.200	194.895	169.773	-137.126	109.778	37.778	155.802	0.0005932	0.0010918	0.00030754	1326.4	3.8908e-06	9.3936e-06	1666.6	379.35	3.4765e-06	1.4674e-05	571.44	183.06	106.55	40.387	4.6765e-06	81.608	0.0033273	0.0051723	0.0013218	1195.7	5.1711e-05	5.5963e-05	1510	345.79	5.2303e-05	5.6842e-05	521.76	169.12	99.777	37.746	5.1214e-05	75.903	195.232	-130.119	-5.668	-133.887	18.268	91.158	-134.241	-130.251	40.569	-15.172	-130.978	-127.162	-126.837	-120.964	38.923	-122.928	-8191	255	
57908.539	1	1	0	0	0.035025	0.11298	0.0058376	0.16688	0.031202	0.045071	0.29562	0.04393	0.31943	0.15021	0.13931	0.036301	0.20099	0.11915	0.079887	0.12631	-4.2083	-3.7417	-3.9625	-4.5458	-3.5812	-4.3646	-4.2979	-3.8417	-4.3833	-3.8833	-4.0062	-4.5292	-3.5354	-4.3708	-4.1917	-3.7042	-105.540	97.918	-31.912	175.661	194.136	73.370	82.761	-130.962	-11.030	168.906	204.422	126.636	174.616	-117.132	48.313	-0.340	0.00052286	0.00057401	0.00028544	1318.3	1.1783e-05	1.1959e-05	1668.7	383.74	3.454e-06	6.7283e-06	579.75	182.75	108.08	40.836	3.9527e-06	83.05	0.0033211	0.005048	0.0013435	1195	5.1989e-05	5.4404e-05	1519.8	348.02	5.1568e-05	5.4636e-05	528.28	170.26	100.77	37.964	5.1898e-05	76.928	201.998	-55.995	-19.397	-134.028	-25.939	9.184	-134.412	-130.845	-9.803	-3.194	-130.825	-127.065	-126.860	-121.380	6.335	-122.624	-8191	255	
57908.660	1	1	0	0	0.14614	0.025079	0.18284	0.092074	0.071402	0.11919	0.11846	0.17536	0.16133	0.13054	0.083795	0.28409	0.12383	0.18257	0.15618	0.33305	-4.1479	-3.8271	-3.9417	-4.8417	-3.5417	-4.2583	-4.4375	-3.6979	-4.4125	-3.925	-4.1062	-4.7042	-3.6896	-4.425	-4.3125	-3.7687	-124.754	35.224	-47.581	113.660	208.893	12.731	206.936	-51.788	-81.764	-100.275	71.144	119.286	106.224	-120.073	-128.913	154.736	0.00053948	0.00027709	0.00017034	1334.6	2.1032e-06	9.5367e-06	1685.2	385.33	9.2842e-06	4.3659e-07	579.06	185.05	109.02	41.304	8.6889e-06	84.279	0.003294	0.0049962	0.0013753	1209.2	5.1319e-05	5.3915e-05	1537	351.9	5.1657e-05	5.4659e-05	533.01	171.98	101.68	38.472	5.3277e-05	77.635	194.856	-86.439	-62.515	-134.018	24.477	42.422	-134.196	-130.489	14.547	51.032	-130.777	-127.324	-126.758	-121.497	-20.084	-122.094	-8191	255	
57908.754	1	1	0	0	0.10182	0.066395	0.0034326	0.11481	0.27386	0.19516	0.22956	0.28243	0.17635	0.23085	0.1617	0.24682	0.13468	0.21525	0.032769	0.07395	-4.2542	-4.0833	-3.7333	-4.6729	-3.8125	-4.1417	-4.5208	-3.8875	-4.4	-3.8792	-3.8063	-4.6312	-3.8771	-4.1458	-4.4875	-3.7896	-129.350	125.457	77.067	94.408	145.191	44.298	163.825	140.376	31.446	-131.166	52.196	77.052	117.454	174.210	-95.992	133.193	0.00051919	0.0010384	0.00021359	1331.9	3.8027e-06	4.2964e-06	1671.3	379.74	5.2387e-06	1.0168e-05	569.18	182.53	106.63	40.485	6.6254e-06	81.499	0.0031711	0.0048851	0.0013888	1207	4.9091e-05	5.3513e-05	1521.9	347.44	4.9934e-05	5.4426e-05	522.84	168.67	99.505	37.567	5.4104e-05	75.504	201.321	-111.603	-14.222	-134.016	50.100	40.878	-134.244	-130.681	-50.098	-3.578	-130.863	-127.357	-127.199	-121.480	-16.967	-122.262	-8191	255	
57908.852	1	1	0	0	0.092147	0.16859	0.26125	0.19831	0.12327	0.14342	0.16602	0.0695	0.23762	0.11129	0.2387	0.16218	0.27327	0.045218	0.20373	0.17563	-4.0792	-4.1021	-3.6958	-4.7771	-3.8312	-3.9542	-4.6708	-3.7833	-4.3667	-4.2688	-3.9021	-4.5396	-3.8917	-3.9979	-4.4688	-3.7042	-40.638	111.477	207.508	-120.002	128.542	-79.286	208.376	93.204	-42.829	183.979	207.758	-136.823	-117.503	124.693	88.260	209.346	0.00051501	0.00045391	2.4339e-05	1304.7	4.4789e-06	2.0216e-06	1665.8	378.48	4.9149e-06	4.8352e-06	568.16	182.91	106.79	40.514	1.0287e-05	82.314	0.0032015	0.0049295	0.0014456	1183.8	5.0164e-05	5.4993e-05	1510.4	344.98	4.7991e-05	5.5878e-05	521.87	168.82	99.646	37.572	5.284e-05	76.105	191.182	-83.802	-73.888	-133.681	43.984	74.293	-133.971	-130.484	-75.467	-19.281	-130.883	-127.254	-127.176	-121.213	21.880	-122.676	-8191	255	
57908.945	1	1	0	0	0.11193	0.16106	0.30044	0.10665	0.3426	0.22482	0.35821	0.3966	0.20748	0.11931	0.1549	0.23251	0.22223	0.041714	0.17192	0.28673	-3.8979	-4.1875	-3.5542	-4.7104	-3.8104	-3.8854	-4.7646	-3.7333	-4.2271	-4.3583	-3.7812	-4.55	-4.0375	-3.9375	-4.5521	-3.8333	-51.119	96.003	-15.830	75.211	-69.764	-111.811	70.211	171.248	63.651	163.540	197.514	-131.941	183.225	-125.977	127.598	162.259	0.00062631	0.00044931	0.00027367	1314.7	6.0275e-06	5.3281e-06	1671.5	380.63	3.6269e-06	1.1674e-05	576.88	184.53	107.77	41.342	6.2909e-06	83.069	0.0031801	0.0050298	0.0014137	1192.2	4.8994e-05	5.5856e-05	1523.2	347.53	4.8665e-05	5.7343e-05	528.22	170.54	100.88	38.361	5.2483e-05	76.991	204.330	140.744	-90.463	-134.079	-29.645	38.095	-134.066	-130.311	-4.413	-22.161	-131.073	-127.291	-127.133	-121.217	-24.033	-122.480	-8191	255	
57909.043	1	1	0	0	0.17516	0.061705	0.062664	0.23704	0.12943	0.034999	0.34051	0.33551	0.12349	0.076872	0.092472	0.27472	0.13234	0.12465	0.18033	0.077057	-3.8312	-4.3104	-3.7438	-4.5479	-4.1	-3.8208	-4.7792	-3.9208	-3.9875	-4.4563	-3.8438	-4.4521	-4.1542	-3.8104	-4.5458	-3.9958	46.242	15.995	169.638	153.821	208.466	205.187	130.488	153.097	-117.139	14.821	193.667	201.197	9.092	141.563	4.774	94.703	0.00052781	0.0011629	0.00042077	1334.3	7.2748e-06	8.8397e-06	1702.9	386.32	7.0331e-06	1.0198e-05	577	185.08	107.57	40.672	8.74e-06	83.102	0.0031664	0.0051374	0.0014211	1208	4.9958e-05	5.5868e-05	1543.7	351.76	4.9286e-05	5.7213e-05	529.54	170.85	100.54	38.043	5.2717e-05	76.519	188.585	-29.362	-73.692	-133.674	-4.667	6.761	-134.229	-130.314	85.201	-29.535	-130.943	-127.572	-126.651	-121.270	-7.024	-122.615	-8191	255	
57909.141	1	1	0	0	0.16769	0.25187	0.23981	0.089531	0.17623	0.17161	0.24544	0.050115	0.18431	0.17986	0.1914	0.20153	0.089257	0.062178	0.11558	0.18902	-3.6063	-4.5042	-3.7	-4.4854	-4.4021	-3.9	-4.7708	-4.1021	-3.8729	-4.5312	-3.8083	-4.3042	-4.2833	-3.7396	-4.3958	-4.1083	197.309	-92.064	194.833	-102.460	28.143	-20.286	145.940	-76.572	127.591	-90.290	118.636	136.096	-101.263	72.450	-146.474	-133.976	0.00048492	0.00050226	5.0931e-05	1317.4	4.1399e-06	4.6846e-06	1665.1	378.1	4.639e-06	9.8683e-06	568.22	181.39	105.62	39.987	8.7812e-06	81.86	0.003218	0.0050409	0.0013769	1190.4	4.9746e-05	5.6127e-05	1508.7	345.19	5.0512e-05	5.5197e-05	520.66	167.71	99.276	37.489	5.1524e-05	75.392	196.236	-65.781	-34.311	-133.983	-28.324	-58.980	-134.194	-130.610	62.917	-19.688	-130.601	-127.230	-127.123	-121.415	81.706	-122.595	-8191	255	
57909.234	1	1	0	0	0.15305	0.09328	0.28251	0.19785	0.16387	0.3861	0.213	0.47511	0.16967	0.23619	0.17088	0.14968	0.19028	0.13419	0.15576	0.179	-3.5896	-4.55	-3.6542	-4.2708	-4.3854	-3.6229	-4.5875	-4.0667	-3.7	-4.4458	-3.8521	-4.1708	-4.4313	-3.6375	-4.4167	-4.1583	-144.810	-9.857	202.261	136.471	198.103	22.174	164.808	158.477	-114.538	-129.948	185.793	-145.271	-103.448	10.991	174.152	175.821	0.00056482	0.0014219	0.00025483	1316	2.9682e-06	6.8717e-06	1658.2	379.97	8.0109e-06	5.1287e-06	575.38	181.91	106.79	40.703	1.3411e-05	82.655	0.0032649	0.0050748	0.0013635	1189.8	5.0294e-05	5.5349e-05	1512.3	346.25	5.252e-05	5.6117e-05	524.8	169.2	100.19	37.926	5.0093e-05	76.4	190.682	-23.418	-24.536	-133.835	-64.694	12.546	-134.259	-130.499	-99.109	31.800	-130.916	-127.412	-126.328	-121.414	-2.345	-122.427	-8191	255	
#DATA ENDS
