BOXY.EXE: ISS Imagent and Oximeter Data Acquisition Program Version 0.80
Ascii Record File

#ACQ INFORMATION
2  Detector Channels 
16  External MUX Channels 
1  Auxiliary Channels 
5000  Waveform (CCF) Frequency (Hz)
1  Waveforms Skipped 
30  Waveforms Averaged 
1  Cycles Averaged 
16  Acquisitions per Waveform 
10.0806  Updata Rate (Hz) 

#FILE INFORMATION
TRUE -- External MUX Channel results are PARSED.
FALSE -- AC DC and Phase are NOT grouped.
TRUE -- Companion Program Settings File CREATED.
FALSE -- AC data not excluded
FALSE -- DC data not excluded
FALSE -- Phase data not excluded
FALSE -- Auxillary Chn. data not excluded
Tab delimiters

#CALIBRATION STATE
TRUE -- Waveform Calibration Values APPLIED.


#AUX CALIBRATION VALUES
Val Type	aux-1	

Term	1.0000e+00	
Factor	0.0000e+00	


#WF CALIBRATION VALUES
A = Detector Channel
Val Type	A-AC1	A-AC2	A-AC3	A-AC4	A-AC5	A-AC6	A-AC7	A-AC8	A-AC9	A-AC10	A-AC11	A-AC12	A-AC13	A-AC14	A-AC15	A-AC16	A-DC1	A-DC2	A-DC3	A-DC4	A-DC5	A-DC6	A-DC7	A-DC8	A-DC9	A-DC10	A-DC11	A-DC12	A-DC13	A-DC14	A-DC15	A-DC16	A-Ph1	A-Ph2	A-Ph3	A-Ph4	A-Ph5	A-Ph6	A-Ph7	A-Ph8	A-Ph9	A-Ph10	A-Ph11	A-Ph12	A-Ph13	A-Ph14	A-Ph15	A-Ph16	

Term	0.00000e+00	0.00000e+00	0.00000e+00	0.00000e+00	0.00000e+00	0.00000e+00	0.00000e+00	0.00000e+00	0.00000e+00	0.00000e+00	0.00000e+00	0.00000e+00	0.00000e+00	0.00000e+00	0.00000e+00	0.00000e+00	0.00000e+00	0.00000e+00	0.00000e+00	0.00000e+00	0.00000e+00	0.00000e+00	0.00000e+00	0.00000e+00	0.00000e+00	0.00000e+00	0.00000e+00	0.00000e+00	0.00000e+00	0.00000e+00	0.00000e+00	0.00000e+00	0.00000e+00	0.00000e+00	0.00000e+00	0.00000e+00	0.00000e+00	0.00000e+00	0.00000e+00	0.00000e+00	0.00000e+00	0.00000e+00	0.00000e+00	0.00000e+00	0.00000e+00	0.00000e+00	0.00000e+00	0.00000e+00	
Factor	1.00000e+00	1.00000e+00	1.00000e+00	1.00000e+00	1.00000e+00	1.00000e+00	1.00000e+00	1.00000e+00	1.00000e+00	1.00000e+00	1.00000e+00	1.00000e+00	1.00000e+00	1.00000e+00	1.00000e+00	1.00000e+00	1.00000e+00	1.00000e+00	1.00000e+00	1.00000e+00	1.00000e+00	1.00000e+00	1.00000e+00	1.00000e+00	1.00000e+00	1.00000e+00	1.00000e+00	1.00000e+00	1.00000e+00	1.00000e+00	1.00000e+00	1.00000e+00	X	X	X	X	X	X	X	X	X	X	X	X	X	X	X	X	

B = Detector Channel
Val Type	B-AC1	B-AC2	B-AC3	B-AC4	B-AC5	B-AC6	B-AC7	B-AC8	B-AC9	B-AC10	B-AC11	B-AC12	B-AC13	B-AC14	B-AC15	B-AC16	B-DC1	B-DC2	B-DC3	B-DC4	B-DC5	B-DC6	B-DC7	B-DC8	B-DC9	B-DC10	B-DC11	B-DC12	B-DC13	B-DC14	B-DC15	B-DC16	B-Ph1	B-Ph2	B-Ph3	B-Ph4	B-Ph5	B-Ph6	B-Ph7	B-Ph8	B-Ph9	B-Ph10	B-Ph11	B-Ph12	B-Ph13	B-Ph14	B-Ph15	B-Ph16	

Term	0.00000e+00	0.00000e+00	0.00000e+00	0.00000e+00	0.00000e+00	0.00000e+00	0.00000e+00	0.00000e+00	0.00000e+00	0.00000e+00	0.00000e+00	0.00000e+00	0.00000e+00	0.00000e+00	0.00000e+00	0.00000e+00	0.00000e+00	0.00000e+00	0.00000e+00	0.00000e+00	0.00000e+00	0.00000e+00	0.00000e+00	0.00000e+00	0.00000e+00	0.00000e+00	0.00000e+00	0.00000e+00	0.00000e+00	0.00000e+00	0.00000e+00	0.00000e+00	-1.33287e+02	-1.33058e+02	-1.22415e+02	-1.83602e+02	-6.63235e+01	-6.86494e+01	-1.58175e+02	-1.62015e+02	-6.98326e+01	-6.27199e+01	-1.70709e+02	-1.71243e+02	-1.78816e+02	-1.76819e+02	-7.21941e+01	-1.49827e+02	
Factor	1.98011e-05	1.68726e-04	4.68094e-05	1.72646e-01	1.25001e-06	1.72005e-06	1.91519e-01	5.90140e-02	1.19171e-06	1.73739e-06	9.70808e-02	3.25887e-02	3.02680e-02	1.03601e-02	1.44427e-06	1.45597e-02	1.17642e-05	1.95404e-05	5.41394e-06	8.28772e-02	1.95271e-07	2.18153e-07	8.65750e-02	2.84976e-02	1.98045e-07	2.18247e-07	4.54550e-02	1.53416e-02	1.48428e-02	5.03973e-03	2.04727e-07	6.86683e-03	X	X	X	X	X	X	X	X	X	X	X	X	X	X	X	X	



#DISTANCE SETTINGS
A = Detector Channel
A-1	A-2	A-3	A-4	A-5	A-6	A-7	A-8	A-9	A-10	A-11	A-12	A-13	A-14	A-15	A-16	

2.5000e+00	3.0000e+00	2.5000e+00	3.0000e+00	2.0000e+00	3.0000e+00	1.5000e+00	3.0000e+00	3.0000e+00	3.0000e+00	3.0000e+00	3.0000e+00	3.0000e+00	3.0000e+00	1.5000e+00	3.0000e+00	

B = Detector Channel
B-1	B-2	B-3	B-4	B-5	B-6	B-7	B-8	B-9	B-10	B-11	B-12	B-13	B-14	B-15	B-16	

1.0000e+01	1.0000e+01	1.0000e+01	1.4400e+00	1.0000e+01	1.0000e+01	1.5100e+00	1.9400e+00	1.0000e+01	1.0000e+01	1.9900e+00	2.4900e+00	2.4100e+00	2.9000e+00	1.0000e+01	2.9800e+00	




#DATA BEGINS
time	group	step	mark	flag	A-AC1	A-AC2	A-AC3	A-AC4	A-AC5	A-AC6	A-AC7	A-AC8	A-AC9	A-AC10	A-AC11	A-AC12	A-AC13	A-AC14	A-AC15	A-AC16	A-DC1	A-DC2	A-DC3	A-DC4	A-DC5	A-DC6	A-DC7	A-DC8	A-DC9	A-DC10	A-DC11	A-DC12	A-DC13	A-DC14	A-DC15	A-DC16	A-Ph1	A-Ph2	A-Ph3	A-Ph4	A-Ph5	A-Ph6	A-Ph7	A-Ph8	A-Ph9	A-Ph10	A-Ph11	A-Ph12	A-Ph13	A-Ph14	A-Ph15	A-Ph16	B-AC1	B-AC2	B-AC3	B-AC4	B-AC5	B-AC6	B-AC7	B-AC8	B-AC9	B-AC10	B-AC11	B-AC12	B-AC13	B-AC14	B-AC15	B-AC16	B-DC1	B-DC2	B-DC3	B-DC4	B-DC5	B-DC6	B-DC7	B-DC8	B-DC9	B-DC10	B-DC11	B-DC12	B-DC13	B-DC14	B-DC15	B-DC16	B-Ph1	B-Ph2	B-Ph3	B-Ph4	B-Ph5	B-Ph6	B-Ph7	B-Ph8	B-Ph9	B-Ph10	B-Ph11	B-Ph12	B-Ph13	B-Ph14	B-Ph15	B-Ph16	aux-1	digaux	

57388.148	1	1	0	256	0.19719	0.1216	0.16896	0.20367	0.14607	0.1159	0.30619	0.33676	0.10441	0.14896	0.33491	0.084627	0.10167	0.18023	0.10835	0.15454	-4.0104	-4.0792	-4.6813	-3.9958	-4.0687	-4.6833	-4.0333	-4.5583	-4.2917	-4.0625	-4.6813	-3.8	-4.0896	-4.5708	-3.7729	-4.4979	24.790	-78.104	167.648	-72.980	6.063	103.599	276.808	207.518	212.905	225.075	265.280	239.016	185.503	71.221	109.996	72.032	8.3051e-05	0.00022705	9.6177e-05	1127.8	1.3383e-06	3.01e-06	1214.2	229.46	1.4633e-06	3.0169e-06	284.67	80.701	64.171	18.959	2.334e-06	26.236	0.00013237	0.00010051	2.4171e-05	1106.6	1.3514e-06	7.5581e-07	1194.7	227	1.1342e-06	9.5756e-07	283.88	81.485	64.417	18.98	1.0876e-06	26.33	170.627	-13.877	-1.447	-72.051	72.379	54.761	-72.121	-64.523	60.841	72.674	-64.722	-58.329	-57.746	-50.436	69.455	-50.764	-8191	255	
57388.246	1	1	0	0	0.15562	0.1127	0.048796	0.19446	0.23134	0.041899	0.057159	0.065147	0.050142	0.13017	0.21613	0.13102	0.12007	0.18555	0.14763	0.096427	-3.9625	-3.8583	-4.7083	-4.0833	-4.0667	-4.3979	-3.9583	-4.5	-4.4479	-3.8146	-4.4604	-3.975	-4.1687	-4.6729	-3.7521	-4.3958	254.657	190.079	80.946	189.536	222.223	37.267	265.590	222.854	92.229	114.815	247.311	172.556	275.519	141.211	74.303	194.832	7.062e-05	0.00037928	0.00011918	1129.9	6.8e-07	2.9702e-06	1211	228.68	1.2976e-06	2.5729e-06	285.94	80.596	64.415	18.87	2.2368e-06	26.373	0.00013012	0.00010047	2.0189e-05	1102.1	1.2892e-06	8.1671e-07	1188.6	227.18	1.291e-06	1.0221e-06	284.07	81.396	64.719	18.982	1.0795e-06	26.362	165.460	-11.228	17.747	-71.990	40.738	74.748	-71.987	-64.905	54.242	62.412	-64.870	-58.242	-58.020	-50.838	98.269	-50.537	-8191	255	
57388.340	1	1	0	0	0.2363	0.22963	0.030618	0.13008	0.082446	0.26524	0.28846	0.15165	0.14778	0.079885	0.15691	0.088193	0.31993	0.096642	0.046608	0.22572	-4.2812	-3.6771	-4.55	-4.3208	-3.7083	-4.5104	-4.0958	-4.3083	-4.5875	-3.7125	-4.6125	-4.1646	-3.9375	-4.7063	-3.9125	-4.225	266.006	237.692	-17.996	-74.656	248.007	102.091	204.128	250.273	204.287	134.659	247.045	202.776	-75.934	107.839	176.357	246.258	8.3245e-05	0.00026042	9.836e-05	1130.1	1.7944e-06	1.9573e-06	1219.6	228.31	1.5993e-06	3.5898e-06	285.94	80.871	64.145	18.796	2.2639e-06	25.72	0.00011595	9.8353e-05	2.2039e-05	1105	1.3771e-06	8.2807e-07	1194.5	226.53	1.0707e-06	1.1663e-06	283.53	81.156	64.233	18.86	1.0876e-06	26.065	181.723	0.874	13.666	-71.783	88.860	36.646	-71.980	-64.622	70.908	72.425	-64.843	-58.528	-57.823	-49.972	74.825	-51.334	-8191	255	
57388.438	1	1	0	0	0.076558	0.22231	0.28657	0.47143	0.20359	0.13179	0.10509	0.07931	0.098677	0.12177	0.31322	0.15245	0.22482	0.14813	0.17746	0.18187	-4.2833	-3.8708	-4.425	-4.2958	-3.8375	-4.8854	-4.1896	-4.2479	-4.6333	-3.7646	-4.6167	-4.5542	-3.825	-4.6625	-3.9125	-4.1188	-28.010	146.599	191.362	268.419	145.458	162.166	-12.882	250.998	255.070	76.783	187.906	94.729	-40.025	234.152	59.028	-7.978	7.7273e-05	0.00024275	6.5826e-05	1124.7	1.2565e-06	3.9776e-06	1213	228.16	1.2896e-06	3.2178e-06	283.86	80	64.047	18.57	2.5986e-06	25.721	0.00012624	0.00010621	2.3494e-05	1103.6	1.3994e-06	8.3761e-07	1191.9	225.86	1.2667e-06	1.1954e-06	280.63	80.611	63.791	18.681	1.1392e-06	25.928	168.308	7.346	2.329	-72.046	59.212	86.842	-71.996	-64.743	64.019	46.622	-64.777	-58.267	-57.913	-50.181	63.011	-50.903	-8191	255	
57388.559	1	1	0	0	0.17333	0.1506	0.13433	0.11157	0.033226	0.17108	0.04643	0.31817	0.24237	0.12838	0.21478	0.13488	0.12336	0.014231	0.067437	0.14646	-4.3	-3.75	-4.3771	-4.6375	-3.7104	-4.7229	-4.3604	-3.9062	-4.5917	-3.9583	-4.2812	-4.5437	-3.8937	-4.5417	-4.1438	-3.9229	36.773	136.349	128.355	201.672	95.894	161.841	144.880	242.219	14.042	230.773	121.843	-16.300	-62.845	1.591	23.772	184.625	6.738e-05	0.00035899	7.2114e-05	1122.7	1.3128e-06	3.0419e-06	1197.1	227.46	9.8048e-07	3.2122e-06	281.6	79.211	62.991	18.798	1.9803e-06	25.714	0.00012698	0.00010047	2.3833e-05	1096.4	1.397e-06	8.3671e-07	1181.8	225.24	1.1264e-06	1.1435e-06	279.61	80.22	63.472	18.676	1.1443e-06	25.932	169.798	7.699	2.812	-71.981	79.697	49.912	-71.801	-64.718	58.996	89.654	-64.889	-58.450	-58.052	-50.239	47.788	-51.028	-8191	255	
57388.652	1	1	0	0	0.038019	0.25595	0.030276	0.43028	0.12682	0.028781	0.044088	0.13724	0.053878	0.03827	0.12293	0.14337	0.098463	0.16631	0.020681	0.11891	-4.2458	-3.8396	-4.1854	-4.7417	-3.725	-4.5396	-4.3729	-3.9729	-4.65	-3.8958	-4.2146	-4.5167	-3.6958	-4.5083	-4.2021	-3.9229	81.377	244.676	254.013	237.169	27.774	190.194	111.493	178.848	117.534	210.585	-43.439	182.200	3.017	270.625	24.978	227.232	8.4298e-05	0.00029364	5.9212e-05	1113.7	1.7174e-06	3.2155e-06	1194.4	228.46	1.8263e-06	2.261e-06	282.83	79.597	63.199	18.775	2.0782e-06	25.736	0.00011987	0.0001034	2.4476e-05	1091.8	1.5536e-06	1.0326e-06	1181.1	225.66	1.3937e-06	1.2085e-06	280.1	80.521	63.658	18.746	1.2527e-06	25.999	184.259	4.599	40.742	-71.984	78.370	75.149	-71.951	-64.504	56.239	76.018	-65.031	-58.424	-58.216	-50.157	79.658	-51.054	-8191	255	
57388.750	1	1	0	0	0.16198	0.28551	0.067437	0.047761	0.10203	0.20564	0.22102	0.17314	0.2088	0.29767	0.088334	0.14314	0.1585	0.039116	0.19055	0.11549	-4.4062	-4.0396	-4.1229	-4.8104	-3.6271	-4.3354	-4.3229	-3.8854	-4.6875	-4.0188	-4.1562	-4.5146	-3.875	-4.4042	-4.3667	-3.65	92.764	157.074	43.185	183.830	183.879	-38.819	228.383	226.515	183.095	-75.055	101.133	199.036	-25.649	64.124	192.162	121.961	8.9641e-05	0.00030894	8.9252e-05	1139.3	2.5644e-06	2.2069e-06	1234.9	231.16	1.5133e-06	1.3678e-05	294.88	83.294	66.665	19.683	1.7728e-06	27.546	0.00013661	0.00013642	3.5247e-05	1117.4	1.9474e-06	1.4303e-06	1221.5	229.8	1.8757e-06	3.1569e-06	291.46	83.842	67.125	19.887	2.8973e-06	27.915	177.418	19.816	20.674	-72.015	40.343	74.915	-71.853	-65.064	57.856	-82.908	-64.922	-58.690	-58.495	-50.880	-34.843	-51.402	-8191	255	
57388.844	1	1	0	0	0.30263	0.21637	0.12515	0.054957	0.30205	0.11691	0.26751	0.074591	0.21186	0.13323	0.092368	0.22328	0.1855	0.11329	0.18789	0.1388	-4.2292	-4	-3.9813	-4.9187	-3.6771	-4.3313	-4.6021	-3.8375	-4.6062	-4.2854	-3.8417	-4.7229	-3.8979	-4.2583	-4.6083	-3.8563	21.153	65.092	50.628	80.539	33.476	11.938	200.582	8.748	-73.080	60.864	-59.905	189.462	149.949	-51.364	121.926	57.425	0.00015112	0.00029415	8.042e-05	1296.8	2.4759e-06	2.9626e-06	1404.5	264.98	2.7744e-06	4.5572e-06	334.09	92.038	74.037	21.397	5.2468e-06	29.26	0.00026491	0.00030597	8.9003e-05	1272.3	4.2813e-06	3.9817e-06	1387.7	262.77	4.8905e-06	5.0793e-06	331.6	92.863	74.549	21.763	5.218e-06	29.586	195.156	-20.293	-2.879	-72.502	115.714	79.629	-72.227	-65.335	88.432	39.592	-65.448	-58.976	-58.559	-51.415	84.442	-51.677	-8191	255	
57388.965	1	1	0	0	0.12879	0.17701	0.13607	0.11712	0.14472	0.071071	0.13427	0.20684	0.16755	0.17706	0.29218	0.036759	0.17583	0.21185	0.04238	0.14211	-4.4104	-4.2063	-3.8708	-4.7604	-3.85	-4.275	-4.8083	-3.8375	-4.4771	-4.1917	-3.9354	-4.6729	-4.0792	-4.0771	-4.6333	-3.8604	-31.329	161.094	46.721	253.982	15.629	91.215	4.347	161.094	254.715	267.872	202.892	276.054	-75.377	179.688	185.062	200.817	7.533e-05	0.00036915	9.1625e-05	1335.6	7.2125e-07	2.8419e-06	1430.1	270.66	7.6217e-07	4.4578e-06	331.65	90.996	72.598	21.192	2.5803e-06	28.763	0.00036878	0.00047353	0.00013131	1308.5	4.9408e-06	4.8471e-06	1406.7	268.92	4.7605e-06	4.7442e-06	331.47	92.022	73.301	21.305	4.2251e-06	29.099	145.058	30.983	-3.556	-72.563	-5.582	71.508	-72.286	-65.340	57.323	60.210	-65.395	-58.840	-58.597	-50.806	20.082	-51.527	-8191	255	
57389.035	1	1	0	0	0.06386	0.021266	0.25957	0.3011	0.16243	0.079349	0.040897	0.14329	0.077712	0.19554	0.14289	0.12786	0.2698	0.12998	0.038015	0.092339	-4.2625	-4.2979	-3.8271	-4.8333	-4.1083	-4.0583	-4.7812	-3.9375	-4.2083	-4.4854	-3.875	-4.5896	-4.0479	-4.0521	-4.6667	-3.8083	-80.241	-49.391	-66.714	227.853	114.752	251.451	275.043	175.602	249.406	29.918	140.655	218.032	237.884	120.492	225.144	27.545	6.5015e-05	0.00036889	0.00012607	1330.3	8.0285e-07	2.7875e-06	1412.2	261.76	1.3427e-06	3.6271e-06	326.52	88.528	71.648	20.749	2.6998e-06	28.336	0.00030555	0.00040318	0.00011138	1297.6	4.5811e-06	4.4353e-06	1390.9	259.98	4.6107e-06	4.7628e-06	324.96	90.159	72.105	20.953	4.7219e-06	28.795	179.525	7.932	6.618	-72.436	83.949	51.915	-72.158	-65.235	-22.602	54.600	-65.584	-59.230	-58.176	-51.136	74.730	-51.458	-8191	255	
57389.133	1	1	0	0	0.24368	0.21036	0.1102	0.25269	0.094245	0.06599	0.30826	0.23474	0.10617	0.13028	0.27717	0.25742	0.21325	0.035318	0.081677	0.057395	-3.9562	-4.5542	-3.6312	-4.675	-4.25	-4.0771	-4.8708	-3.9792	-4.0958	-4.5771	-3.7208	-4.6042	-4.2354	-3.8125	-4.7021	-4.0312	74.066	185.412	49.009	64.793	210.379	174.659	267.903	126.026	242.185	140.937	237.907	222.541	209.783	94.583	-26.493	231.939	9.8091e-05	0.00045609	0.0001256	1309	1.0306e-06	3.2139e-06	1390.2	256.11	2.1307e-07	2.2654e-06	320.49	87.769	70.14	20.445	1.9988e-06	28.136	0.00035545	0.00048643	0.00013626	1284.5	5.1019e-06	5.4134e-06	1372.3	255	4.9074e-06	4.8551e-06	318.13	88.673	70.808	20.59	4.7121e-06	28.422	164.352	9.296	9.191	-72.523	4.242	59.638	-72.166	-65.116	72.544	122.645	-65.052	-58.943	-58.268	-51.056	68.285	-51.583	-8191	255	
57389.230	1	1	0	0	0.22515	0.15319	0.23091	0.098632	0.19827	0.11079	0.11331	0.076268	0.089477	0.14087	0.28129	0.041378	0.16323	0.13018	0.14724	0.16232	-3.9292	-4.6646	-3.7438	-4.7042	-4.2312	-3.8271	-4.9458	-4.0479	-4.0125	-4.4875	-3.8104	-4.3917	-4.3812	-3.8771	-4.6625	-4.1521	145.048	-42.088	-0.044	75.052	23.480	-10.360	226.747	236.088	244.050	206.001	205.661	239.993	267.941	230.659	82.456	46.832	5.9398e-05	0.0003721	0.0001132	1272.6	1.8932e-06	2.6367e-06	1342.1	245.37	2.8701e-07	1.1064e-06	309.04	85.207	68.011	19.676	3.6929e-06	27.277	0.00035712	0.00043815	0.00012189	1247	4.488e-06	4.2872e-06	1322.9	244.95	3.982e-06	3.6124e-06	306.54	86.174	68.474	19.83	2.9677e-06	27.38	161.392	19.307	26.195	-72.459	3.622	52.533	-72.306	-64.906	-4.334	41.337	-65.262	-58.214	-58.282	-50.765	91.229	-51.067	-8191	255	
57389.352	1	1	0	0	0.22581	0.073462	0.19491	0.23837	0.2415	0.3093	0.34527	0.11596	0.13574	0.14332	0.12763	0.17216	0.20367	0.062079	0.21052	0.23622	-3.8396	-4.5708	-3.8937	-4.5021	-4.1979	-3.7292	-4.7688	-4.3313	-3.7625	-4.6	-4.0083	-4.0917	-4.4333	-3.7812	-4.6021	-4.1708	-3.700	-25.276	-26.992	111.374	112.625	-27.618	217.698	46.361	-34.835	-50.177	-68.389	221.072	-32.281	83.287	241.915	251.964	6.3744e-05	0.00028937	5.1202e-05	1195.7	1.1293e-06	2.4709e-06	1267.7	235.98	1.2823e-06	2.2557e-06	293.24	82.304	65.394	18.941	4.6481e-07	26.316	0.00023428	0.00022032	6.4257e-05	1170.9	2.4393e-06	2.1852e-06	1247	233.45	2.2198e-06	1.7864e-06	290.73	82.97	65.531	19.127	1.7581e-06	26.495	189.721	9.578	23.530	-72.173	78.465	56.167	-71.971	-64.727	10.787	124.199	-65.059	-57.818	-57.857	-50.409	38.453	-50.914	-8191	255	
57389.445	1	1	0	0	0.039684	0.267	0.21446	0.22361	0.10271	0.10471	0.19493	0.1647	0.12495	0.18155	0.07025	0.14668	0.06745	0.17511	0.1971	0.15823	-3.4833	-4.6667	-3.8458	-4.3438	-4.6479	-3.5917	-4.5625	-4.4083	-3.9375	-4.7521	-3.9104	-4.05	-4.4396	-3.8229	-4.3917	-4.3208	270.673	-38.661	250.111	223.627	243.687	-47.624	229.217	240.795	126.588	-77.864	49.510	-47.595	9.505	205.154	197.070	261.277	9.2293e-05	0.00029466	9.7173e-05	1160.3	1.9911e-06	3.3015e-06	1244.5	232.59	1.0926e-06	3.5894e-06	289.12	81.041	65.291	18.926	2.9011e-06	25.872	0.00017609	0.00015376	4.5443e-05	1137.1	1.9552e-06	1.648e-06	1224	229.91	1.8913e-06	1.3436e-06	286.59	81.718	64.994	19.002	1.3806e-06	26.359	157.402	-6.378	6.542	-72.206	50.669	70.310	-71.819	-64.579	43.204	75.023	-64.806	-58.558	-57.814	-50.168	69.443	-51.221	-8191	255	
57389.543	1	1	0	0	0.21681	0.096854	0.20064	0.30796	0.16968	0.22122	0.14964	0.18556	0.050974	0.19752	0.084011	0.25511	0.078865	0.10527	0.26971	0.16686	-3.5646	-4.8104	-3.9625	-4.1604	-4.6021	-3.95	-4.5125	-4.4354	-3.6521	-4.55	-4.2667	-3.9333	-4.6875	-3.8458	-4.4417	-4.4437	220.329	12.831	60.166	210.518	265.196	152.907	197.368	207.696	90.826	207.526	150.113	204.874	212.515	269.173	243.238	-58.556	7.5201e-05	0.00029501	5.9267e-05	1141.8	1.7384e-06	2.4321e-06	1217.7	228.82	1.158e-06	2.6508e-06	285.81	80.088	63.563	18.602	2.4862e-06	26.101	0.00014999	0.00011903	3.5473e-05	1118.6	1.4263e-06	1.383e-06	1200.6	227.08	1.6714e-06	1.0494e-06	283.12	80.978	64.153	18.849	1.3367e-06	26.171	171.378	8.877	13.477	-72.190	61.923	84.171	-71.792	-64.882	65.406	80.248	-64.438	-58.637	-57.727	-50.329	76.076	-50.553	-8191	255	
57389.637	1	1	0	0	0.11566	0.046701	0.067338	0.31681	0.071458	0.1655	0.30478	0.21021	0.084136	0.12593	0.13176	0.02874	0.1202	0.18592	0.060163	0.1645	-3.45	-4.525	-4.1188	-4.2167	-4.7063	-3.8417	-4.4917	-4.5167	-3.6354	-4.7063	-4.1813	-3.8333	-4.75	-3.9354	-4.3	-4.7917	-73.865	-69.708	166.094	251.138	196.967	192.566	274.055	224.263	86.474	139.457	243.445	150.056	87.797	25.947	38.907	201.762	8.4299e-05	0.00034796	8.6211e-05	1128.1	1.0813e-06	2.559e-06	1210.7	226.99	5.2364e-07	2.2851e-06	281.61	79.563	63.737	18.769	1.8958e-06	25.8	0.00014507	0.00011798	3.2653e-05	1104.8	1.5105e-06	1.3475e-06	1191.7	225.58	1.5967e-06	1.1326e-06	280.56	80.583	63.816	18.79	1.3269e-06	26.077	172.080	-17.191	34.569	-72.291	28.459	63.906	-72.079	-64.504	36.233	67.901	-64.858	-58.070	-57.553	-50.661	67.887	-50.848	-8191	255	
57389.734	1	1	0	0	0.073989	0.076947	0.17306	0.11689	0.073995	0.2107	0.22735	0.080662	0.18551	0.20406	0.1733	0.14488	0.11266	0.11647	0.088034	0.16427	-3.375	-4.4479	-4.25	-4.1312	-4.6333	-3.9208	-4.2729	-4.5458	-3.8187	-4.5583	-4.3187	-3.8187	-4.7729	-3.8646	-4.1271	-4.7229	165.201	82.926	266.181	235.968	144.546	27.064	240.301	125.554	195.191	-65.455	207.998	168.551	247.175	-54.505	-37.364	201.919	7.3021e-05	0.00032375	7.0238e-05	1123.4	1.674e-06	2.189e-06	1206.7	227.87	1.5726e-06	3.0961e-06	281.26	79.617	63.55	18.618	2.5179e-06	25.78	0.00014759	9.7417e-05	3.0408e-05	1100.7	1.4975e-06	1.1453e-06	1185.7	225.63	1.5047e-06	1.0685e-06	279.8	80.441	63.787	18.77	1.2066e-06	25.991	165.280	7.126	35.902	-72.135	86.568	69.544	-71.883	-64.160	58.450	78.159	-64.565	-58.484	-57.836	-50.018	63.753	-50.906	-8191	255	
57389.828	1	1	0	0	0.079754	0.1306	0.22545	0.20093	0.059304	0.052143	0.17762	0.16566	0.17289	0.22841	0.13183	0.20822	0.007693	0.28846	0.053418	0.10252	-3.65	-4.5479	-4.5396	-3.9896	-4.55	-3.9667	-4.1604	-4.7208	-3.8333	-4.5208	-4.5854	-3.9417	-4.7896	-4.1229	-3.9958	-4.75	200.062	224.233	-15.971	-54.650	188.568	-12.322	-70.688	217.652	264.531	89.389	-9.505	-61.040	-71.464	140.966	49.867	183.490	6.6168e-05	0.00029703	0.00011675	1113.6	2.2039e-06	3.2795e-06	1197.5	226.21	1.1086e-06	2.0391e-06	283.43	79.606	63.034	18.539	1.8201e-06	25.629	0.00013379	0.00010759	2.7329e-05	1091.2	1.3376e-06	1.1017e-06	1176.5	224.21	1.3554e-06	9.2937e-07	279.37	80.045	63.394	18.636	1.1866e-06	25.907	157.332	4.467	17.160	-72.342	72.736	55.913	-71.914	-64.334	54.301	35.954	-64.351	-58.407	-58.070	-50.092	66.114	-50.507	-8191	255	
57389.926	1	1	0	0	0.1573	0.10032	0.2183	0.25835	0.1993	0.15523	0.043866	0.16614	0.1424	0.35766	0.15353	0.12921	0.11109	0.090675	0.11149	0.084639	-3.6458	-4.2542	-4.6312	-3.9188	-4.6937	-4.2229	-4.0563	-4.8187	-3.9396	-4.3333	-4.6562	-3.8646	-4.7896	-4.4521	-3.925	-4.9167	218.180	188.370	64.385	253.013	259.815	14.526	45.575	-74.615	-60.785	-20.588	242.058	3.781	72.061	73.508	62.764	138.728	8.2171e-05	0.00025689	7.1508e-05	1105.2	1.7725e-06	2.5308e-06	1192.7	224.83	6.5352e-07	2.3776e-06	280.15	79.718	63.1	18.719	3.1092e-06	25.71	0.00013122	9.986e-05	2.4622e-05	1085.8	1.2941e-06	9.3169e-07	1171.8	223.35	1.298e-06	9.1755e-07	277.4	79.812	63.421	18.724	1.0642e-06	25.846	183.867	-2.924	18.865	-71.832	61.904	76.561	-71.802	-64.684	50.163	73.657	-64.765	-58.463	-57.832	-50.465	47.848	-50.833	-8191	255	
57390.047	1	1	0	0	0.076372	0.11158	0.10629	0.25691	0.2093	0.034413	0.096284	0.17279	0.1218	0.14027	0.18046	0.25109	0.16187	0.26377	0.15271	0.20278	-3.5729	-4.1896	-4.5833	-3.9229	-4.4958	-4.4792	-4.1583	-4.8229	-4.0521	-4.1521	-4.875	-3.9333	-4.4854	-4.4625	-3.8521	-4.7	238.186	270.674	77.029	231.904	236.191	10.155	174.811	232.457	13.597	72.723	237.980	137.698	-77.991	212.483	45.116	212.260	8.2303e-05	0.00029324	5.1749e-05	1102.1	1.7966e-06	3.0449e-06	1184.2	223.67	1.2004e-06	3.3121e-06	278.42	78.406	63.066	18.423	2.5957e-06	25.851	0.00012808	9.9208e-05	2.4351e-05	1081.1	1.1537e-06	9.017e-07	1165.2	222.35	1.3372e-06	1.0121e-06	276.81	79.49	63.055	18.527	1.2139e-06	25.852	182.285	8.581	9.534	-72.006	53.157	62.298	-71.831	-64.713	18.232	83.873	-64.876	-58.292	-57.927	-50.405	68.225	-50.746	-8191	255	
57390.141	1	1	0	0	0.069811	0.15314	0.13394	0.27398	0.15773	0.18479	0.080736	0.34434	0.016386	0.162	0.096769	0.13378	0.16611	0.18333	0.29837	0.26188	-3.8167	-3.8	-4.6604	-4.0854	-4.3167	-4.5229	-4.0771	-4.7	-4.1167	-4.0312	-4.6958	-3.9562	-4.5125	-4.6646	-3.9042	-4.8333	245.877	121.172	47.918	230.259	165.421	-75.851	177.461	195.707	160.455	9.560	-79.756	206.427	211.156	141.077	-7.460	264.582	8.3756e-05	0.00026664	7.3645e-05	1095.4	2.5424e-06	3.0352e-06	1171.7	222.53	1.1717e-06	2.7547e-06	278.47	78.321	62.488	18.228	2.2488e-06	25.813	0.00012999	9.5056e-05	2.3878e-05	1074.1	1.3466e-06	8.4716e-07	1156.8	221.74	1.2576e-06	9.6847e-07	274.74	78.848	62.6	18.406	1.0603e-06	25.671	167.476	1.620	3.284	-71.946	80.405	73.563	-71.963	-64.388	56.404	99.268	-64.480	-58.516	-57.349	-50.182	81.095	-50.926	-8191	255	
57390.238	1	1	0	0	0.10349	0.15172	0.18219	0.079181	0.16449	0.036096	0.067923	0.010546	0.12053	0.11846	0.045064	0.086912	0.12343	0.029721	0.10009	0.14787	-3.9604	-3.9688	-4.7458	-4.0958	-4.1333	-4.6583	-3.9271	-4.7396	-4.1687	-3.9979	-4.8562	-4.0771	-4.2104	-4.6208	-3.7313	-4.4417	-72.684	233.416	138.979	219.338	173.561	-21.881	184.538	198.955	194.350	250.223	258.929	59.520	-32.959	38.260	132.016	209.028	6.4917e-05	0.00031959	4.9198e-05	1091.9	1.548e-06	2.1079e-06	1165	222.44	4.1369e-07	2.8709e-06	277.1	78.301	62.017	18.354	2.7689e-06	25.697	0.00011948	9.6766e-05	2.0663e-05	1070.2	1.3274e-06	5.9674e-07	1151.9	220.65	8.5696e-07	8.1206e-07	273.87	78.86	62.412	18.496	9.1487e-07	25.604	177.915	14.375	-1.942	-71.951	86.531	57.200	-71.935	-64.663	6.346	63.083	-64.756	-58.323	-57.754	-50.014	70.579	-50.728	-8191	255	
57390.336	1	1	0	0	0.075903	0.074508	0.16513	0.11349	0.065608	0.22527	0.12864	0.10926	0.25885	0.056538	0.23615	0.26537	0.12389	0.099764	0.075638	0.35022	-3.9083	-3.9229	-4.8167	-4.1479	-4.0938	-4.5813	-4.0104	-4.4354	-4.35	-3.9208	-4.8021	-4.1417	-4.1375	-4.7396	-3.7896	-4.4542	157.420	250.189	197.802	-38.609	-37.485	-5.998	154.194	154.975	18.412	94.119	264.442	240.885	246.525	243.035	64.987	236.945	8.1139e-05	0.00035989	7.2378e-05	1081.7	1.0188e-06	2.7583e-06	1154.9	221.59	1.6824e-06	2.8161e-06	273.74	77.468	61.765	18.218	2.2798e-06	25.311	0.00010808	7.8447e-05	1.4584e-05	1057.9	1.0703e-06	4.9675e-07	1138.7	219.18	8.9946e-07	6.7247e-07	271.32	78.056	61.768	18.33	7.8479e-07	25.366	165.029	21.758	15.348	-72.031	69.040	48.455	-71.695	-64.584	52.791	68.318	-64.940	-58.561	-57.888	-50.263	60.367	-50.323	-8191	255	
57390.430	1	1	0	0	0.18335	0.098851	0.081061	0.19989	0.022905	0.098957	0.20521	0.066893	0.083021	0.085084	0.20245	0.14833	0.18112	0.19603	0.10553	0.080028	-4.225	-3.8292	-4.6625	-4.3208	-3.9521	-4.8729	-4.0188	-4.3854	-4.4708	-3.7604	-4.7729	-4.2292	-4.0229	-4.7479	-3.8333	-4.3604	-9.445	-21.071	212.785	-50.401	-31.355	71.952	251.279	102.563	244.147	159.527	268.801	223.782	141.861	260.486	58.223	137.552	8.7137e-05	0.00027885	7.9226e-05	1060.3	1.7727e-06	3.2206e-06	1130.4	218.07	1.3563e-06	2.433e-06	271.73	76.248	61.232	18.07	1.8975e-06	25.2	0.00010725	6.6926e-05	1.4505e-05	1036.7	1.0227e-06	5.013e-07	1116.3	216.42	8.1487e-07	6.1928e-07	269.04	77.269	61.252	18.168	7.0588e-07	25.221	169.137	12.346	30.193	-71.935	85.163	63.411	-71.500	-64.583	45.925	101.188	-64.703	-58.331	-57.757	-49.999	65.899	-50.883	-8191	255	
57390.527	1	1	0	0	0.048732	0.059348	0.15625	0.12792	0.1522	0.18309	0.2221	0.091465	0.20659	0.22156	0.20775	0.38126	0.11338	0.09295	0.19718	0.23439	-4.2979	-3.9333	-4.5521	-4.3625	-3.75	-4.775	-4.0625	-4.2354	-4.4688	-3.8729	-4.5583	-4.2937	-3.8583	-4.6875	-3.9437	-3.9938	138.792	85.949	231.482	127.751	208.751	-76.081	274.854	36.171	105.535	52.112	181.941	-69.454	-18.379	253.021	48.610	230.690	8.3548e-05	0.00030453	0.00010825	1046.4	1.5256e-06	3.1967e-06	1127.8	217.52	1.5414e-06	2.9372e-06	272.12	75.854	61.102	18.137	2.3656e-06	24.811	9.8451e-05	7.1323e-05	1.2001e-05	1023.5	1.0113e-06	4.5767e-07	1108	214.87	6.9976e-07	6.12e-07	268.03	76.855	61.045	18.099	7.9332e-07	25.049	167.159	18.203	22.154	-72.000	58.134	61.088	-71.351	-64.360	48.182	66.921	-64.847	-58.015	-57.595	-49.782	50.963	-50.990	-8191	255	
57390.648	1	1	0	0	0.2512	0.17886	0.29717	0.21347	0.17611	0.20783	0.050738	0.2753	0.25362	0.094021	0.22157	0.060963	0.10254	0.11363	0.24299	0.15231	-4.3812	-3.7021	-4.4229	-4.5229	-3.7792	-4.6583	-4.3667	-4.2	-4.6354	-3.8646	-4.3875	-4.4854	-3.7729	-4.8083	-4.1958	-3.9146	209.133	71.629	128.856	196.185	-57.508	248.831	89.216	220.831	211.352	-32.231	77.885	14.896	19.988	117.959	87.574	-78.997	5.754e-05	0.00032548	8.0072e-05	1035.2	1.4097e-06	2.5941e-06	1118	215.13	1.8108e-06	3.8e-06	268.1	75.87	60.632	17.873	3.0087e-06	24.582	0.00010022	7.4335e-05	1.3422e-05	1014.8	1.0724e-06	4.6357e-07	1100	213.25	8.3344e-07	6.1882e-07	265.72	76.636	60.624	17.909	7.8266e-07	24.84	164.400	13.311	8.072	-71.960	69.955	80.118	-71.612	-64.390	55.712	80.070	-64.923	-58.137	-57.654	-50.341	57.217	-51.340	-8191	255	
57390.742	1	1	0	0	0.086558	0.10908	0.10267	0.22132	0.2336	0.13668	0.26981	0.11827	0.16048	0.24369	0.15953	0.089623	0.093472	0.15449	0.1565	0.13131	-4.5333	-3.8458	-4.2208	-4.6521	-3.7021	-4.6188	-4.2104	-3.9125	-4.6917	-3.9146	-4.2688	-4.65	-4.0146	-4.6833	-4.2937	-3.9813	187.110	-12.121	89.451	247.030	-49.669	-82.042	199.221	-56.749	242.438	-27.594	269.403	107.000	248.262	194.920	171.059	224.026	7.3695e-05	0.00026291	7.6202e-05	1031.4	7.1926e-07	2.5858e-06	1118.5	216.04	1.4045e-06	3.0198e-06	270.23	75.945	60.546	17.971	3.0199e-06	24.568	9.1834e-05	6.2366e-05	1.5678e-05	1011.8	1.0545e-06	4.2812e-07	1098.4	212.85	7.6206e-07	6.02e-07	266.55	76.457	60.661	17.931	6.4404e-07	24.895	172.935	14.531	3.712	-71.596	51.610	58.480	-71.789	-64.545	55.246	86.627	-64.975	-57.536	-57.686	-49.272	76.523	-50.886	-8191	255	
57390.836	1	1	0	0	0.079977	0.16406	0.1002	0.27385	0.036745	0.054904	0.30101	0.13183	0.10825	0.22174	0.21706	0.10904	0.11723	0.081711	0.14112	0.13996	-4.4958	-4.0958	-4.1875	-4.7208	-3.6771	-4.3479	-4.4708	-3.8646	-4.5646	-3.9792	-4.1521	-4.525	-3.7625	-4.3875	-4.2708	-3.5896	64.524	16.535	233.724	257.919	274.012	90.219	231.563	180.066	263.733	157.923	225.176	-4.483	185.719	-78.323	38.716	-56.039	6.1559e-05	0.00023033	9.6548e-05	1028.3	6.2573e-07	3.6878e-06	1111	213.63	1.0511e-06	2.744e-06	269.26	75.797	60.094	17.731	2.0438e-06	24.778	9.8991e-05	5.9517e-05	1.605e-05	1008.9	1.0329e-06	5.1493e-07	1094.3	212.34	8.0002e-07	5.9154e-07	265.51	76.308	60.219	17.881	6.7816e-07	24.84	163.449	37.947	27.815	-71.880	106.981	65.757	-71.794	-64.325	61.211	66.027	-64.648	-58.080	-58.025	-50.023	86.367	-50.771	-8191	255	
57390.910	1	1	0	0	0.20077	0.094413	0.13394	0.3195	0.01995	0.14557	0.21243	0.08537	0.15341	0.081161	0.22971	0.2307	0.067884	0.17098	0.17698	0.38413	-4.4437	-4.0188	-3.8937	-4.8771	-3.7708	-4.1167	-4.7021	-3.875	-4.6979	-4.0813	-3.9271	-4.6875	-3.975	-4.1813	-4.4292	-3.6771	50.544	-10.018	123.525	232.660	85.043	199.094	225.678	32.340	275.084	-28.030	243.047	150.051	181.994	228.902	111.485	247.868	7.5687e-05	0.0003413	9.4309e-05	1025.4	1.7181e-06	3.3894e-06	1107.4	213.06	1.5954e-06	2.3885e-06	266.12	75.155	60.266	17.784	2.0728e-06	24.467	0.00010524	6.3791e-05	1.843e-05	1004.1	1.0492e-06	4.6221e-07	1089	211.65	7.7279e-07	6.4519e-07	264.98	76.063	60.257	17.853	5.4935e-07	24.62	161.661	7.528	31.300	-71.541	77.254	86.214	-71.494	-64.534	87.918	82.114	-64.716	-58.118	-57.689	-50.350	72.449	-50.612	-8191	255	
57391.031	1	1	0	0	0.11065	0.10122	0.24345	0.13221	0.069818	0.22671	0.11317	0.13977	0.11808	0.32535	0.28861	0.068589	0.23495	0.34729	0.12505	0.16849	-4.1729	-4.2396	-3.7646	-4.6604	-3.9708	-4.2833	-4.6604	-3.9042	-4.5437	-4.3688	-3.8896	-4.7375	-3.9938	-4.0813	-4.5271	-3.5875	197.773	-57.081	-46.906	-13.170	266.409	167.381	209.495	-61.096	-57.118	159.687	202.007	28.708	-66.533	-80.555	78.744	-25.564	7.6157e-05	0.00029578	7.8753e-05	1020.1	1.4522e-06	3.1657e-06	1104.2	213.89	1.9427e-06	2.4037e-06	267.83	75.892	60.324	17.629	2.4879e-06	24.297	9.904e-05	5.2271e-05	1.7889e-05	999.55	9.8653e-07	6.2583e-07	1089.5	211.61	8.7181e-07	5.4244e-07	264.55	76.092	60.064	17.76	5.6513e-07	24.654	174.540	6.587	11.916	-71.965	21.279	60.805	-71.531	-64.474	58.845	61.027	-64.572	-58.367	-57.492	-50.351	62.922	-50.823	-8191	255	
57391.125	1	1	0	0	0.37146	0.093232	0.046223	0.28964	0.26562	0.15098	0.17556	0.22723	0.24248	0.090247	0.13185	0.21955	0.073876	0.18687	0.14196	0.43948	-3.9396	-4.3417	-3.8021	-4.7583	-3.9729	-3.9333	-4.9375	-3.7146	-4.3896	-4.5604	-3.7604	-4.5646	-4.2188	-4.0542	-4.5833	-3.7104	261.579	166.752	67.625	227.559	243.998	33.946	179.089	151.085	-68.727	121.303	158.051	238.338	-39.236	-75.631	194.583	176.845	7.3018e-05	0.00021861	8.5154e-05	1022	2.3072e-06	2.7455e-06	1101.8	212.76	1.9216e-06	2.312e-06	265.54	75.104	59.654	17.678	2.2818e-06	24.491	0.0001034	5.6667e-05	1.667e-05	1001.7	1.0508e-06	5.6038e-07	1086.6	210.8	8.3922e-07	5.3925e-07	264.21	76.039	59.996	17.802	5.502e-07	24.57	179.371	21.926	36.051	-71.779	73.799	45.694	-71.519	-64.748	68.514	66.468	-64.731	-58.339	-57.844	-49.933	73.550	-50.862	-8191	255	
57391.223	1	1	0	0	0.14412	0.051827	0.032512	0.057038	0.11591	0.088732	0.06433	0.11831	0.10081	0.12714	0.27576	0.12266	0.18748	0.13972	0.094595	0.15021	-3.9521	-4.3604	-3.6729	-4.6583	-4.1604	-3.9604	-4.8958	-3.8729	-4.2188	-4.5771	-3.7292	-4.6167	-4.3896	-3.7958	-4.6604	-3.8125	-77.188	160.991	179.747	244.524	207.876	187.584	266.962	129.359	26.048	-30.430	105.991	183.985	222.290	55.945	174.315	145.445	5.6207e-05	0.00039414	0.00010036	1019.7	1.2633e-06	3.1098e-06	1098.6	214.36	1.1285e-06	2.7876e-06	267.8	75.378	59.936	17.694	2.0069e-06	24.23	9.9064e-05	4.9502e-05	1.9152e-05	999.96	9.0109e-07	6.9672e-07	1084.8	211.57	9.139e-07	4.1558e-07	265.26	75.925	60.238	17.81	5.5746e-07	24.599	172.813	9.259	16.183	-71.644	82.211	76.698	-71.578	-64.538	98.179	76.021	-65.036	-58.022	-58.021	-50.216	55.848	-51.007	-8191	255	
57391.316	1	1	0	0	0.075278	0.10738	0.31399	0.13536	0.10345	0.18096	0.184	0.19245	0.1153	0.16079	0.19304	0.16028	0.088062	0.17998	0.025206	0.18317	-3.7812	-4.5437	-3.6625	-4.7063	-4.2417	-3.8104	-4.9729	-3.9271	-4.0958	-4.5854	-3.925	-4.5563	-4.45	-3.7938	-4.7292	-4.0833	-55.147	190.648	47.553	194.262	132.207	110.634	226.713	258.607	74.372	151.307	-64.932	251.481	183.870	-78.964	256.682	111.479	7.376e-05	0.00021624	9.3924e-05	1018.5	1.5939e-06	2.7329e-06	1107.5	214.55	9.195e-07	3.0706e-06	268.5	75.79	60.283	17.64	2.4768e-06	24.474	9.9432e-05	4.6368e-05	1.7663e-05	999.2	9.3364e-07	7.549e-07	1086.8	211.56	9.2627e-07	4.956e-07	265.05	76.202	60.173	17.777	5.4509e-07	24.648	172.257	22.522	5.344	-71.557	96.458	76.577	-71.551	-64.429	81.147	69.182	-64.773	-58.306	-57.297	-50.346	63.304	-50.413	-8191	255	
57391.438	1	1	0	0	0.044634	0.1187	0.082503	0.19855	0.14838	0.21914	0.16414	0.13972	0.055637	0.22697	0.10989	0.20502	0.082616	0.086673	0.11074	0.19056	-3.6979	-4.6646	-3.7521	-4.4	-4.4729	-3.7771	-4.8313	-4.2583	-3.9729	-4.7125	-3.9833	-4.3313	-4.4146	-3.6583	-4.5667	-4.1854	115.361	-73.436	223.559	-10.550	117.798	171.592	154.204	163.814	-66.444	153.467	116.293	12.835	-71.868	-23.886	113.090	144.826	5.595e-05	0.00027841	0.00010076	1022.1	1.1492e-06	3.5958e-06	1105.6	212.65	1.7449e-06	3.0924e-06	267.04	75.59	59.475	17.63	1.4905e-06	24.543	0.00010681	4.4658e-05	1.7268e-05	999.16	8.8848e-07	6.4582e-07	1086.4	210.85	9.469e-07	5.3152e-07	264.09	76.171	59.952	17.828	5.6172e-07	24.643	177.800	-4.234	35.076	-71.977	81.165	55.040	-71.740	-64.438	41.087	64.926	-64.481	-58.029	-57.943	-49.551	49.899	-50.306	-8191	255	
57391.512	1	1	0	0	0.18252	0.1516	0.091051	0.085628	0.30778	0.18688	0.25595	0.069457	0.19193	0.069001	0.16343	0.041783	0.20219	0.19551	0.14572	0.11678	-3.5375	-4.6646	-3.8583	-4.1937	-4.5042	-3.7167	-4.7396	-4.2208	-3.6771	-4.5021	-3.8125	-4.2729	-4.6021	-3.6542	-4.4979	-4.3958	-76.869	1.457	229.034	210.464	-80.207	36.460	215.821	248.222	193.688	271.812	-69.830	218.377	34.163	56.915	213.901	39.539	6.4469e-05	0.00034555	6.7366e-05	1015.5	9.6161e-07	2.371e-06	1101.3	214.12	5.6612e-07	3.5961e-06	266.4	74.992	59.605	17.672	2.5768e-06	24.289	0.00010446	4.5879e-05	1.9851e-05	996.65	7.2983e-07	7.0809e-07	1084.2	211.46	8.7635e-07	4.5877e-07	264.2	75.584	60.037	17.784	6.1674e-07	24.561	159.284	-5.384	27.050	-71.718	115.001	83.383	-71.727	-64.311	82.116	64.869	-64.628	-58.485	-57.480	-50.340	38.178	-50.420	-8191	255	
57391.605	1	1	0	0	0.088266	0.12669	0.085873	0.1785	0.11911	0.11856	0.0046967	0.12349	0.30822	0.080822	0.16409	0.15191	0.059352	0.18737	0.16577	0.17919	-3.5458	-4.7792	-3.95	-4.375	-4.6104	-3.7458	-4.6062	-4.4021	-3.8063	-4.6104	-4.0875	-4.1792	-4.7708	-3.6958	-4.3771	-4.45	216.081	91.358	-23.752	-29.225	-52.634	-9.603	-40.795	104.542	236.598	104.011	216.900	159.082	-5.578	226.769	-7.482	118.727	5.6742e-05	0.00028706	4.1159e-05	1012.5	1.3269e-06	3.2229e-06	1095.4	213.32	1.7326e-06	2.7083e-06	267.54	74.927	59.762	17.651	1.5832e-06	24.396	0.00010742	4.2378e-05	1.5813e-05	994.19	7.758e-07	6.7445e-07	1081.2	210.4	1.0047e-06	3.8648e-07	264.18	75.597	60.01	17.761	5.9115e-07	24.587	166.022	-0.576	21.397	-71.773	80.533	77.105	-71.719	-64.329	59.292	78.929	-64.783	-58.435	-56.821	-49.766	89.126	-50.947	-8191	255	
57391.727	1	1	0	0	0.057644	0.037194	0.15547	0.36385	0.17014	0.17696	0.076832	0.12899	0.041548	0.11722	0.12957	0.14766	0.04049	0.20289	0.11296	0.025693	-3.4313	-4.7354	-4.0375	-4.0583	-4.7271	-3.8771	-4.4229	-4.625	-3.6583	-4.5958	-4.1312	-3.7562	-4.5708	-3.7854	-4.2125	-4.5479	53.412	177.666	-37.297	234.407	67.475	-21.760	202.325	162.915	7.543	52.462	18.393	153.081	98.039	-42.172	182.191	62.548	6.3606e-05	0.00027209	9.5323e-05	1015.6	1.7219e-06	2.0112e-06	1101.9	212.24	1.8418e-06	3.2754e-06	266.48	74.845	59.651	17.755	2.1764e-06	24.525	0.00010201	4.5431e-05	1.7043e-05	994.43	9.2021e-07	5.8583e-07	1083.8	211.08	9.2462e-07	3.883e-07	264.47	75.775	60.112	17.814	6.7731e-07	24.613	156.601	21.729	11.533	-72.054	68.201	68.950	-71.713	-63.952	40.183	73.777	-64.749	-58.116	-57.455	-50.188	43.644	-50.102	-8191	255	
57391.820	1	1	0	0	0.042293	0.19802	0.14255	0.15464	0.24185	0.090379	0.32127	0.23082	0.2347	0.16398	0.069663	0.063744	0.070898	0.12769	0.21161	0.071098	-3.4979	-4.5604	-4.3708	-4.0729	-4.6188	-3.7521	-4.2771	-4.6083	-3.6688	-4.4271	-4.4208	-3.9792	-4.6208	-3.975	-4.0813	-4.8021	62.587	33.516	-71.551	255.546	217.838	-20.902	217.978	248.958	209.725	49.675	-61.336	-31.231	240.906	82.138	207.495	91.666	7.2691e-05	0.00021949	4.6583e-05	1018	1.2691e-06	1.9521e-06	1099.3	212.69	1.0657e-06	2.5204e-06	265.1	74.666	60.173	17.717	1.0759e-06	24.577	0.000105	4.8932e-05	1.367e-05	995.63	7.8475e-07	6.3628e-07	1083.4	211.41	1.0158e-06	5.4698e-07	264.5	75.724	60.046	17.821	6.4745e-07	24.69	173.862	27.913	-4.775	-71.881	66.220	73.935	-71.611	-64.077	15.421	61.194	-64.354	-58.425	-57.520	-50.187	54.643	-50.384	-8191	255	
57391.922	1	1	0	0	0.15983	0.064834	0.045885	0.11089	0.02796	0.25762	0.1088	0.12981	0.19239	0.016619	0.2012	0.07032	0.1315	0.13605	0.09176	0.036677	-3.4583	-4.4104	-4.2604	-3.8688	-4.6562	-3.9667	-4.1667	-4.6562	-3.8146	-4.4167	-4.6021	-3.9854	-4.6167	-4.1083	-4.0375	-4.7375	-5.398	276.914	3.424	-69.105	-47.697	-46.204	206.953	277.655	52.364	-68.412	204.710	-32.734	152.982	-23.075	172.284	217.993	6.175e-05	0.00045272	3.2937e-05	1015.6	6.6896e-07	3.3046e-06	1100.7	213.58	1.7675e-06	3.1018e-06	266.08	75.49	60.032	17.846	2.2816e-06	24.65	0.00010669	4.9136e-05	1.252e-05	996.95	7.6807e-07	6.1901e-07	1084.1	211.68	9.7991e-07	4.8787e-07	264.83	75.996	60.28	17.873	7.3659e-07	24.724	168.698	-1.285	4.943	-71.809	9.847	67.398	-71.646	-64.038	80.137	72.977	-64.534	-58.089	-57.936	-50.120	71.283	-50.838	-8191	255	
57392.039	1	1	0	0	0.15891	0.22233	0.16799	0.28449	0.076768	0.2165	0.27807	0.12471	0.32087	0.11288	0.18801	0.066825	0.17764	0.076737	0.0074879	0.21507	-3.5146	-4.4062	-4.4625	-3.9292	-4.6104	-4.1271	-4.1104	-4.7688	-3.95	-4.1833	-4.5	-3.75	-4.6104	-4.2646	-3.8104	-4.7021	49.772	259.266	175.517	183.112	272.683	91.971	152.312	165.467	-7.572	6.373	-24.789	248.469	263.202	80.138	232.254	-69.290	6.7921e-05	0.00026552	7.2803e-05	1015.8	1.7192e-06	3.7677e-06	1102.2	211.38	1.1277e-06	3.2872e-06	267.22	75.089	60.248	17.677	2.5078e-06	24.414	0.00010414	5.7196e-05	1.4403e-05	998.29	8.6774e-07	6.4719e-07	1086.3	210.75	9.106e-07	5.6835e-07	264.98	75.953	60.357	17.865	8.0014e-07	24.745	168.161	-10.807	28.032	-71.803	42.850	79.935	-71.747	-64.122	53.963	84.758	-64.569	-58.060	-57.488	-50.148	68.852	-50.246	-8191	255	
57392.137	1	1	0	0	0.061114	0.12849	0.15148	0.050755	0.098796	0.10545	0.17042	0.087881	0.030327	0.11018	0.088644	0.20623	0.17321	0.083345	0.15736	0.14298	-3.5708	-4.1104	-4.6208	-3.8833	-4.3917	-4.3833	-3.9521	-4.6687	-3.9333	-4.1042	-4.6771	-3.8104	-4.4417	-4.2792	-3.7375	-4.6583	194.012	191.376	-73.560	179.918	-15.574	104.912	231.353	179.783	15.799	126.767	65.777	-60.113	271.422	-26.072	240.772	-51.948	6.2204e-05	0.00035421	8.3299e-05	1020.5	1.1815e-06	2.3253e-06	1102.8	213.06	1.9104e-06	3.0659e-06	268.52	75.349	60.658	17.744	2.1375e-06	24.578	0.00010426	6.1715e-05	1.2204e-05	998.31	8.9418e-07	4.3812e-07	1086.8	211.35	9.6712e-07	6.5611e-07	265.54	76.267	60.585	17.931	6.8157e-07	24.844	177.293	5.737	-16.446	-72.161	83.267	73.716	-71.724	-64.391	36.811	75.677	-64.749	-58.293	-57.882	-49.762	55.785	-50.967	-8191	255	
57392.207	1	1	0	0	0.037855	0.30216	0.02979	0.096223	0.065572	0.21822	0.048524	0.10836	0.23291	0.11574	0.19009	0.060817	0.08707	0.15323	0.10241	0.11368	-3.6875	-4.0021	-4.6583	-3.9229	-4.4146	-4.5083	-3.9188	-4.7688	-4.1458	-4.0312	-4.8125	-3.925	-4.3688	-4.475	-3.825	-4.6854	80.811	-56.487	155.806	-43.845	238.512	122.459	-13.900	100.173	62.295	52.571	-46.920	165.981	258.160	33.157	92.913	-67.247	6.445e-05	0.0002549	6.2452e-05	1023.2	9.666e-07	3.8327e-06	1100.1	212.92	9.546e-07	3.7924e-06	268.31	75.475	59.95	17.862	1.5464e-06	24.435	9.9138e-05	6.1308e-05	1.2993e-05	999.93	8.9865e-07	4.7266e-07	1085.6	211.54	8.5531e-07	7.1567e-07	264.73	75.903	60.32	17.897	7.8649e-07	24.643	171.658	9.572	-4.175	-71.756	79.538	84.298	-71.479	-64.233	88.716	72.719	-64.706	-58.355	-57.630	-49.890	53.763	-50.286	-8191	255	
57392.328	1	1	0	0	0.11384	0.075018	0.21159	0.23116	0.098475	0.17975	0.095889	0.11397	0.12144	0.18281	0.19677	0.19221	0.037347	0.058102	0.17915	0.11624	-3.8646	-3.7896	-4.6167	-4.0687	-4.1854	-4.5083	-3.8375	-4.5729	-4.2521	-3.8187	-4.7479	-3.85	-4.1438	-4.5583	-3.6958	-4.4729	221.748	121.544	219.569	228.618	0.578	148.419	-31.410	224.789	20.719	240.944	256.875	11.965	221.230	102.203	-65.967	256.207	6.6129e-05	0.00024217	7.8156e-05	1017.6	1.0464e-06	3.0652e-06	1098.8	212.96	1.1401e-06	2.4321e-06	268.45	75.422	59.689	17.695	1.0584e-06	24.571	9.5265e-05	5.4795e-05	1.3501e-05	995.62	9.3527e-07	4.3494e-07	1082.8	211.23	7.3648e-07	6.0473e-07	265.32	75.775	60.033	17.801	7.8863e-07	24.789	158.848	7.601	22.917	-71.788	59.861	70.342	-71.664	-64.333	42.307	72.934	-64.628	-58.119	-57.533	-50.498	76.054	-50.804	-8191	255	
57392.422	1	1	0	0	0.03756	0.19027	0.15246	0.1196	0.037976	0.11989	0.1879	0.26301	0.064201	0.2779	0.21213	0.1307	0.21622	0.072639	0.07551	0.19656	-3.95	-3.7667	-4.7	-3.9313	-4.1312	-4.6271	-3.825	-4.5	-4.2667	-3.9417	-4.4688	-4.0667	-3.9729	-4.5917	-3.8208	-4.4458	4.614	-42.875	-23.239	263.952	22.026	165.699	259.052	191.699	109.908	106.885	257.472	246.972	204.066	-73.445	57.834	245.718	6.5126e-05	0.00028311	8.8514e-05	1013.3	1.3699e-06	2.5688e-06	1101.4	211.66	1.0648e-06	3.3312e-06	267.05	74.899	59.575	17.786	2.3947e-06	24.656	0.00010095	6.2041e-05	1.2914e-05	994.12	8.6001e-07	5.0448e-07	1080.4	210.36	7.5216e-07	6.6793e-07	264.66	76.038	59.989	17.836	7.6986e-07	24.756	153.474	17.076	5.011	-71.626	90.404	77.114	-71.816	-64.451	34.610	80.365	-64.537	-57.712	-57.703	-49.983	62.704	-51.304	-8191	255	
57392.520	1	1	0	0	0.094503	0.13867	0.12857	0.26551	0.16399	0.23248	0.058741	0.25831	0.22578	0.14407	0.077811	0.048295	0.14768	0.017474	0.28219	0.25637	-4.0229	-3.6813	-4.6208	-4.1917	-3.8729	-4.6875	-3.8563	-4.1729	-4.4771	-3.7125	-4.6521	-4.2979	-3.9875	-4.5625	-4.1083	-4.3792	132.256	120.585	222.882	-74.619	208.589	231.376	2.256	257.257	86.606	258.478	-26.557	237.897	-40.754	-59.450	257.729	249.252	6.6949e-05	0.00030935	9.4093e-05	1016.1	2.3461e-06	3.0633e-06	1095	212.37	1.1554e-06	2.0158e-06	267.23	75.386	59.753	17.725	1.842e-06	24.57	9.8157e-05	7.3358e-05	1.3851e-05	994.97	1.0504e-06	4.204e-07	1080.3	210.74	7.8558e-07	5.92e-07	264.88	75.935	60.136	17.857	7.2337e-07	24.813	168.695	34.730	24.729	-71.449	75.889	70.899	-71.665	-64.244	34.058	57.220	-64.516	-57.854	-57.536	-50.051	63.329	-50.950	-8191	255	
57392.613	1	1	0	0	0.11588	0.042561	0.0412	0.17508	0.096901	0.20165	0.022456	0.090307	0.19155	0.07477	0.11882	0.12567	0.23149	0.15951	0.043494	0.18292	-4.2792	-3.6542	-4.5271	-4.3938	-3.8167	-4.6083	-4.0271	-4.05	-4.5188	-3.7438	-4.5938	-4.2083	-3.7521	-4.8083	-3.9688	-4.1792	105.399	-67.899	2.364	199.354	162.764	-80.566	169.258	-39.730	223.039	95.321	66.335	173.393	159.599	-19.985	244.086	216.240	6.6284e-05	0.00030231	7.5418e-05	1014.3	1.5567e-06	3.936e-06	1095.5	212.62	1.0904e-06	2.7199e-06	268.04	74.698	59.884	17.656	2.0835e-06	24.635	9.7912e-05	6.3221e-05	1.3693e-05	993.71	1.0345e-06	5.0402e-07	1081.6	210.95	8.0126e-07	7.1158e-07	264.88	75.755	60.099	17.789	6.1674e-07	24.792	167.406	7.584	8.991	-71.984	56.314	70.574	-71.571	-64.326	83.845	68.427	-64.814	-58.316	-57.634	-49.969	72.189	-50.916	-8191	255	
57392.734	1	1	0	0	0.14604	0.11126	0.14633	0.13596	0.25104	0.27394	0.26617	0.13046	0.39387	0.26464	0.29427	0.24346	0.11859	0.021761	0.2153	0.18192	-4.2812	-3.6917	-4.4146	-4.3438	-3.8312	-4.5833	-4.0729	-3.9646	-4.5479	-3.7208	-4.4	-4.3875	-3.6958	-4.6292	-4.1021	-3.8792	38.943	-2.127	117.790	184.071	35.138	8.367	210.127	179.615	266.303	75.822	-37.490	204.228	4.641	-30.755	180.828	150.559	6.8982e-05	0.00028265	7.3534e-05	1013.7	1.0211e-06	3.5572e-06	1098.1	212.18	1.3382e-06	3.1824e-06	269.64	75.032	59.615	17.787	1.6085e-06	24.523	9.2594e-05	6.3832e-05	1.4787e-05	995.61	1.0508e-06	4.2722e-07	1080.7	210.68	8.4582e-07	6.361e-07	264.99	75.882	60.097	17.818	6.8285e-07	24.752	157.394	-2.375	8.838	-71.740	65.879	70.578	-71.791	-64.521	24.678	52.950	-65.043	-57.969	-57.770	-50.225	29.187	-51.244	-8191	255	
57392.809	1	1	0	0	0.13188	0.14321	0.25838	0.26708	0.1256	0.21746	0.15696	0.4889	0.27306	0.22011	0.098592	0.18439	0.22953	0.34013	0.39492	0.33822	-4.2167	-3.7646	-4.2438	-4.5938	-3.4729	-4.4646	-4.2375	-3.8667	-4.6104	-3.7313	-4.2125	-4.6729	-3.7896	-4.3625	-4.1667	-3.7562	120.637	186.850	-66.409	236.822	201.357	63.217	190.255	-72.726	273.012	180.144	32.490	129.711	-66.684	231.422	250.779	-36.085	6.0601e-05	0.00024789	9.5264e-05	1014.2	1.6313e-06	1.2723e-06	1097.1	213.4	1.1433e-06	2.4352e-06	267.45	75.157	60.251	17.804	1.7881e-06	24.31	9.9824e-05	6.6804e-05	1.464e-05	993.81	1.0467e-06	4.154e-07	1080	210.78	7.5917e-07	6.4565e-07	264.83	75.818	60.148	17.839	6.5811e-07	24.733	163.387	-3.679	19.575	-71.878	66.635	71.195	-71.730	-64.434	67.802	58.716	-64.960	-57.860	-57.841	-50.470	84.706	-50.842	-8191	255	
57392.902	1	1	0	0	0.074617	0.10934	0.35836	0.085135	0.13634	0.086391	0.1065	0.25841	0.24163	0.04521	0.25486	0.26969	0.093259	0.12778	0.13497	0.15356	-4.3771	-3.7958	-4.0312	-4.8208	-3.6958	-4.6604	-4.4833	-3.8771	-4.4729	-3.8396	-4.1146	-4.4833	-3.6896	-4.2521	-4.5667	-3.8896	72.789	127.979	176.878	120.602	67.527	55.808	230.426	201.731	267.376	118.313	192.763	174.557	150.266	133.205	206.315	229.041	7.4203e-05	0.0003226	5.9124e-05	1013.7	1.6451e-06	3.8715e-06	1096.3	212.69	1.4484e-06	2.2407e-06	265.78	74.801	60.279	17.532	1.9911e-06	24.548	9.7986e-05	5.9191e-05	1.4291e-05	994.35	9.8897e-07	4.5494e-07	1078.9	210.13	7.2452e-07	5.1379e-07	263.79	75.645	60.183	17.795	5.8305e-07	24.688	165.252	7.185	28.572	-71.772	65.059	69.057	-71.567	-64.067	45.441	66.255	-64.953	-57.898	-58.318	-49.941	80.494	-50.675	-8191	255	
57393.000	1	1	0	0	0.013075	0.12583	0.03496	0.2926	0.24485	0.060355	0.058582	0.05582	0.14439	0.1521	0.089945	0.085996	0.17149	0.14112	0.054212	0.085397	-4.2708	-4.1333	-3.9208	-4.7479	-3.6646	-4.2104	-4.7271	-3.7917	-4.5979	-4.0938	-4.0563	-4.5188	-3.8812	-4.2833	-4.4479	-3.7562	87.945	65.371	275.517	180.320	250.193	58.775	74.576	-55.312	35.676	19.698	238.618	63.730	178.759	96.271	-29.807	83.658	5.8845e-05	0.00026766	8.3628e-05	1012.4	1.7114e-06	2.1602e-06	1099.1	213.04	1.4036e-06	3.1665e-06	266.7	75.158	60.424	17.807	1.8814e-06	24.484	9.1393e-05	5.2352e-05	1.7742e-05	992.24	1.0463e-06	4.8312e-07	1080.1	210.71	7.7114e-07	5.3198e-07	264.6	75.84	60.243	17.799	5.9414e-07	24.71	166.760	-7.474	18.539	-71.815	107.952	34.543	-71.424	-64.470	52.381	81.551	-64.277	-57.748	-57.858	-50.011	91.308	-51.001	-8191	255	
57393.117	1	1	0	0	0.13494	0.26442	0.084671	0.23879	0.13467	0.062211	0.15846	0.21144	0.19397	0.035683	0.22204	0.12146	0.19011	0.25195	0.19501	0.12438	-4.1958	-4.225	-3.9146	-4.7479	-3.8833	-4.1292	-4.7583	-3.8729	-4.5687	-4.3812	-3.9042	-4.6562	-3.9458	-4.1146	-4.3854	-3.7729	-76.173	-23.623	28.048	223.396	231.722	-2.858	183.510	-24.087	65.461	275.089	-78.291	-58.817	-15.973	233.348	46.369	108.044	6.9028e-05	0.0002426	9.1551e-05	1012.9	1.2274e-06	2.8407e-06	1095	212.54	1.1713e-06	2.5102e-06	266.37	75.633	59.714	17.782	2.2037e-06	24.366	9.4187e-05	5.2311e-05	1.6659e-05	994.1	1.0374e-06	5.1039e-07	1076.4	210.73	7.0677e-07	5.388e-07	263.45	75.922	60.07	17.81	4.7642e-07	24.656	170.172	-2.587	15.313	-71.709	68.478	51.186	-71.402	-64.150	74.797	84.808	-64.746	-58.170	-57.800	-50.373	72.438	-50.758	-8191	255	
57393.215	1	1	0	0	0.069907	0.019384	0.064147	0.23968	0.25185	0.21884	0.22583	0.041229	0.21933	0.12111	0.021835	0.078276	0.15337	0.032755	0.081932	0.22502	-4.1312	-4.225	-3.7729	-4.8167	-3.9188	-4.1521	-4.7646	-3.9625	-4.3729	-4.5125	-3.7917	-4.5833	-4.1042	-4.0417	-4.5604	-3.7167	57.983	148.049	78.282	209.215	143.358	20.120	-21.112	250.851	-26.211	244.335	222.755	202.238	-34.396	66.994	162.754	179.806	6.6145e-05	0.00027736	5.1277e-05	1011	1.1683e-06	3.2823e-06	1092.1	211.38	1.032e-06	2.7e-06	266.34	74.96	59.782	17.721	1.9471e-06	24.488	9.5682e-05	4.4577e-05	1.799e-05	992.05	9.1452e-07	5.6947e-07	1078.1	210.14	7.2039e-07	3.5283e-07	264.44	75.778	59.895	17.817	6.2868e-07	24.709	170.509	6.382	8.282	-71.623	99.057	54.905	-71.721	-64.042	35.519	93.324	-64.216	-58.189	-58.192	-50.197	82.986	-50.938	-8191	255	
57393.312	1	1	0	0	0.33711	0.17423	0.14854	0.26574	0.20871	0.14624	0.071684	0.081383	0.037266	0.09926	0.10234	0.014184	0.13146	0.075856	0.065215	0.11544	-4.0417	-4.3354	-3.7479	-4.8458	-4.125	-3.8604	-4.8167	-3.9333	-4.2021	-4.4479	-3.8208	-4.5479	-4.2312	-3.8646	-4.5667	-3.8625	269.780	-11.826	71.053	260.364	250.145	170.584	52.180	240.177	-71.569	6.902	189.551	-17.900	159.557	78.956	226.820	-51.908	6.796e-05	0.0002973	8.6172e-05	1013.3	1.5789e-06	2.6599e-06	1096.4	213.55	1.1795e-06	2.9027e-06	266.68	75.47	59.676	17.854	1.3865e-06	24.564	9.7398e-05	3.8837e-05	1.8419e-05	992.68	1.0158e-06	7.0536e-07	1078.6	210.49	7.6578e-07	5.1152e-07	264.03	75.738	59.97	17.857	5.5532e-07	24.725	160.292	4.537	21.899	-71.845	81.559	75.318	-71.609	-64.652	39.817	73.792	-64.628	-57.995	-57.285	-50.256	91.894	-50.831	-8191	255	
57393.406	1	1	0	0	0.3481	0.21584	0.14828	0.20107	0.056828	0.09521	0.23604	0.036476	0.016389	0.22367	0.13542	0.092558	0.12725	0.14915	0.143	0.060443	-3.7542	-4.6042	-3.5208	-4.575	-4.4042	-3.8375	-4.7896	-4	-4.1562	-4.7083	-3.8271	-4.4521	-4.4229	-3.9188	-4.7688	-4.0146	5.521	208.954	12.044	245.623	111.363	-81.117	73.695	-3.045	163.306	63.849	149.721	228.209	-64.208	67.347	14.149	-65.384	7.1333e-05	0.00031774	6.458e-05	1009.4	1.0911e-06	3.6593e-06	1093.9	212.75	1.2933e-06	2.0799e-06	267.82	74.611	60.289	17.653	2.8458e-06	24.441	9.8133e-05	4.3559e-05	1.6321e-05	990.09	8.3438e-07	6.4037e-07	1076.6	210.46	8.4252e-07	4.6241e-07	264.13	75.648	60.162	17.777	5.711e-07	24.698	170.408	7.747	18.878	-71.719	77.033	58.900	-71.774	-64.333	28.690	66.236	-64.555	-58.301	-57.971	-50.096	68.799	-50.395	-8191	255	
57393.504	1	1	0	0	0.14098	0.12915	0.12057	0.12524	0.077759	0.1146	0.13514	0.22105	0.15652	0.065064	0.19261	0.023031	0.07087	0.11424	0.16016	0.073572	-3.7792	-4.6438	-3.7	-4.6521	-4.3146	-3.7521	-4.7312	-4.0625	-4.0458	-4.5104	-4.0354	-4.4167	-4.4333	-3.7958	-4.5021	-4.1396	47.238	-27.666	-19.912	238.077	218.424	-67.531	159.350	170.488	169.614	274.228	265.760	230.130	44.818	272.420	-2.326	180.639	6.3781e-05	0.00025738	7.3769e-05	1014.5	7.5824e-07	3.1805e-06	1097.8	212.62	1.1066e-06	2.0065e-06	266.32	74.835	59.686	17.658	3.0749e-06	24.587	0.00010139	3.8267e-05	1.7054e-05	989.75	8.5472e-07	6.7855e-07	1078.5	210.42	7.6082e-07	4.7196e-07	264.36	75.72	59.932	17.788	5.6727e-07	24.766	176.968	-0.089	8.990	-71.898	87.351	75.593	-71.532	-64.002	78.141	60.643	-64.780	-58.179	-57.536	-49.773	69.625	-50.445	-8191	255	
57393.602	1	1	0	0	0.16722	0.13772	0.12894	0.12769	0.21298	0.1215	0.17748	0.23459	0.077635	0.1782	0.039208	0.12519	0.10737	0.19485	0.1401	0.2809	-3.5208	-4.6792	-3.8854	-4.4563	-4.425	-3.7313	-4.6292	-4.2312	-3.8292	-4.6771	-3.8458	-4.2875	-4.5938	-3.7667	-4.4833	-4.275	103.955	233.421	98.662	265.750	226.165	-68.196	188.884	151.241	235.087	-59.943	50.452	-3.066	257.872	203.268	55.173	167.064	5.1351e-05	0.00028105	9.7894e-05	1010.9	5.6719e-07	2.7796e-06	1091.6	213.17	1.5455e-06	3.3438e-06	265.53	74.669	59.848	17.524	1.9807e-06	24.453	0.00010272	5.0602e-05	1.7866e-05	988.52	8.7302e-07	6.6264e-07	1075.3	210.1	9.0276e-07	3.4192e-07	263.7	75.453	59.913	17.761	5.8987e-07	24.645	171.468	23.490	19.719	-71.853	37.669	59.048	-71.430	-64.178	38.545	73.605	-64.850	-58.375	-57.602	-50.406	58.906	-50.453	-8191	255	
57393.719	1	1	0	0	0.10579	0.13345	0.092965	0.13765	0.020025	0.016813	0.18097	0.056482	0.082613	0.21925	0.11874	0.097334	0.26938	0.23372	0.1008	0.201	-3.5583	-4.5646	-3.8375	-4.1396	-4.6729	-3.6292	-4.7771	-4.4646	-3.9208	-4.8083	-4.0917	-4.1062	-4.7042	-4.0021	-4.3187	-4.3833	33.539	37.109	50.340	253.978	88.290	55.854	-71.916	-54.401	194.017	87.424	-38.011	26.852	-19.860	-48.356	276.691	-29.943	6.7566e-05	0.0002755	9.4591e-05	1004.8	1.6478e-06	2.5949e-06	1087.1	210.28	1.1125e-06	3.2381e-06	267.27	74.468	59.678	17.459	1.8045e-06	24.432	0.00010073	4.8281e-05	1.711e-05	986.93	8.7669e-07	5.5765e-07	1072.4	209.35	9.2421e-07	3.933e-07	263.66	75.271	59.699	17.675	6.0608e-07	24.527	166.487	-4.224	30.265	-71.975	77.736	80.626	-71.496	-64.382	99.626	68.010	-64.646	-58.340	-56.977	-49.686	96.211	-50.564	-8191	255	
57393.816	1	1	0	0	0.14909	0.090437	0.094033	0.10772	0.13895	0.12278	0.042984	0.067037	0.19164	0.19125	0.026253	0.10705	0.2698	0.27132	0.057452	0.19762	-3.5125	-4.5583	-3.975	-4.0146	-4.6833	-3.9083	-4.6562	-4.5542	-3.8187	-4.7958	-4.2708	-4.0062	-4.7708	-3.9104	-4.2729	-4.6896	-56.276	41.009	268.879	214.132	-55.643	216.175	222.169	126.860	235.642	141.632	-51.454	-36.664	102.789	247.227	182.175	102.937	6.2825e-05	0.00026983	6.5981e-05	1005.7	1.9085e-06	2.0017e-06	1091.2	210.69	1.6079e-06	2.6783e-06	264.84	74.582	59.239	17.637	1.707e-06	24.356	0.00010443	4.0343e-05	1.5644e-05	985.09	8.596e-07	5.5493e-07	1072.5	209.51	8.8419e-07	4.2513e-07	262.9	75.311	59.635	17.669	6.1418e-07	24.462	159.468	20.226	25.192	-71.882	65.765	82.372	-71.338	-63.998	57.413	86.391	-64.322	-58.629	-57.796	-50.323	35.062	-50.466	-8191	255	
57393.910	1	1	0	0	0.27756	0.19126	0.095709	0.10252	0.14581	0.12983	0.2056	0.032667	0.12379	0.067204	0.10634	0.042986	0.20718	0.092209	0.21368	0.22462	-3.6271	-4.5104	-4.1021	-4.0646	-4.4938	-3.925	-4.4187	-4.75	-3.7917	-4.4292	-4.2438	-3.9854	-4.7375	-4	-4.1854	-4.6958	-40.652	125.312	176.614	156.012	200.697	-68.360	240.861	69.623	197.368	119.199	8.720	-11.959	131.019	143.078	18.452	232.623	7.4793e-05	0.00029363	8.4847e-05	1004.6	1.9324e-06	2.3069e-06	1088.4	210.4	1.5127e-06	2.2967e-06	264.86	74.389	59.656	17.687	1.1899e-06	24.63	9.6883e-05	4.2623e-05	1.3749e-05	983.88	7.2047e-07	5.322e-07	1072.1	209.28	8.7057e-07	4.3468e-07	262.78	75.267	59.654	17.706	6.611e-07	24.553	171.019	7.657	14.698	-71.851	71.602	64.346	-71.785	-64.048	71.939	72.026	-64.190	-58.200	-57.866	-49.713	59.829	-50.962	-8191	255	
57394.008	1	1	0	0	0.09451	0.14448	0.10885	0.14531	0.090793	0.27912	0.12967	0.084638	0.23909	0.20886	0.13188	0.22218	0.074156	0.12859	0.04035	0.073572	-3.4771	-4.3667	-4.3729	-3.8833	-4.5083	-3.9479	-4.2146	-4.7417	-3.7625	-4.5396	-4.4979	-3.8792	-4.7	-4.1167	-4.025	-4.7521	25.129	178.008	-62.122	-77.632	263.442	188.820	156.614	-47.481	-62.229	120.590	146.593	122.937	-78.142	189.361	-81.370	-65.324	7.005e-05	0.00023915	7.3019e-05	1003.8	1.4076e-06	2.0532e-06	1085.3	210.69	1.7311e-06	2.7963e-06	265.33	74.682	59.834	17.543	1.6994e-06	24.306	0.00010061	4.6978e-05	1.2091e-05	985.43	7.2332e-07	7.3763e-07	1071.1	209.23	9.2091e-07	4.3149e-07	262.55	75.268	59.69	17.644	6.3636e-07	24.476	160.718	25.641	18.030	-71.877	73.522	63.137	-71.773	-64.219	72.691	93.235	-64.619	-58.249	-57.363	-49.781	112.081	-50.047	-8191	255	
57394.102	1	1	0	0	0.14493	0.059895	0.24998	0.04483	0.044366	0.026697	0.2709	0.16903	0.031272	0.11817	0.12918	0.12841	0.26944	0.10554	0.21359	0.06348	-3.55	-4.3458	-4.4938	-3.9083	-4.5458	-4.2542	-4.2	-4.8667	-3.8146	-4.3854	-4.7063	-3.9188	-4.575	-4.2292	-3.8125	-4.8771	270.942	49.233	183.166	193.550	124.268	133.689	-70.419	-61.548	160.523	-81.118	33.704	267.555	-16.515	57.185	15.030	271.031	5.206e-05	0.00024053	9.5043e-05	1008.1	8.5986e-07	2.9283e-06	1090.3	212.54	1.7235e-06	2.7951e-06	265.48	74.141	59.594	17.572	1.6626e-06	24.315	9.8966e-05	4.6734e-05	1.3388e-05	985.1	7.9939e-07	4.8857e-07	1070.5	209.49	8.5943e-07	4.5832e-07	262.96	75.06	59.627	17.681	7.2422e-07	24.497	168.180	-0.903	20.295	-71.750	88.139	58.295	-71.836	-64.509	52.355	68.048	-64.733	-57.928	-57.349	-49.809	61.351	-50.875	-8191	255	
57394.199	1	1	0	0	0.1931	0.1957	0.031492	0.28417	0.35278	0.040155	0.24861	0.19074	0.18103	0.18301	0.058424	0.077172	0.097269	0.086605	0.17144	0.071322	-3.6312	-4.2812	-4.5229	-3.8771	-4.3896	-4.3417	-4.0771	-4.725	-3.95	-4.1292	-4.5854	-3.8604	-4.5875	-4.4479	-3.8458	-4.6583	211.776	15.177	-58.323	-56.134	174.455	129.118	146.668	-38.351	-22.695	57.538	-66.188	196.212	173.868	-42.530	-56.280	209.266	8.0368e-05	0.00025315	7.3358e-05	1002.3	1.6083e-07	2.709e-06	1092.2	211.9	1.3636e-06	1.3871e-06	266.26	74.619	59.666	17.606	2.3251e-06	24.409	9.3746e-05	4.9462e-05	1.2723e-05	983.83	7.6278e-07	4.3903e-07	1070.1	209.85	8.8006e-07	5.3425e-07	263.42	75.143	59.575	17.676	6.8584e-07	24.486	176.686	-15.814	17.230	-71.969	127.464	62.490	-71.930	-64.830	53.011	46.953	-64.485	-57.856	-57.541	-49.810	64.536	-50.198	-8191	255	
57394.297	1	1	0	0	0.069469	0.12446	0.050147	0.36426	0.15869	0.3031	0.061686	0.18333	0.074487	0.14257	0.25766	0.09589	0.25638	0.056499	0.20207	0.052098	-3.725	-4.2146	-4.6604	-3.9021	-4.375	-4.325	-3.9292	-4.6229	-3.9479	-4.0312	-4.8521	-3.9562	-4.2292	-4.4542	-3.9375	-4.6292	156.035	174.820	114.611	220.377	224.948	-75.630	-35.010	-76.608	-47.062	134.050	156.850	9.674	142.505	251.268	236.680	248.194	6.0305e-05	0.00021604	7.6626e-05	1005.9	1.437e-06	2.8258e-06	1085.3	212.55	1.2273e-06	1.676e-06	266.3	74.28	59.412	17.592	2.5697e-06	24.163	0.00010551	5.4306e-05	1.102e-05	983.72	9.2021e-07	4.663e-07	1069.2	209.74	8.8543e-07	5.97e-07	263.14	75.021	59.596	17.657	7.7157e-07	24.495	163.203	10.843	27.385	-71.905	64.796	75.653	-71.815	-64.307	50.224	95.070	-64.902	-57.901	-57.656	-50.266	66.486	-50.693	-8191	255	
57394.391	1	1	0	0	0.12362	0.09439	0.17001	0.33109	0.18945	0.094124	0.25891	0.27745	0.16936	0.14142	0.18351	0.16109	0.11201	0.046321	0.083533	0.14651	-4.0021	-3.7417	-4.6229	-3.9313	-4.1771	-4.5542	-3.9167	-4.6792	-4.1604	-4.0125	-4.7667	-3.9437	-4.2792	-4.5437	-3.825	-4.5479	265.384	73.259	185.087	232.036	-78.634	20.473	234.709	259.722	202.571	264.584	243.144	105.705	-38.362	-80.952	275.309	49.939	7.1627e-05	0.00021894	7.1569e-05	1002.5	9.4554e-07	3.047e-06	1086.2	210.41	1.2953e-06	2.5063e-06	264.64	74.813	59.766	17.463	2.7269e-06	24.266	0.00010056	6.0575e-05	7.9066e-06	984.51	9.6212e-07	4.0631e-07	1071.3	209.11	7.4762e-07	6.1337e-07	262.13	75.422	59.629	17.653	7.8735e-07	24.492	169.063	2.668	34.829	-71.817	135.444	54.822	-71.582	-64.692	67.641	60.907	-64.304	-58.266	-57.843	-49.815	79.090	-50.812	-8191	255	
57394.512	1	1	0	0	0.24764	0.085696	0.26491	0.22694	0.074316	0.1495	0.046158	0.041103	0.055362	0.16187	0.11218	0.15006	0.13098	0.17649	0.067366	0.093845	-4.0167	-3.7687	-4.7125	-4.0542	-4.0146	-4.5854	-3.8354	-4.6104	-4.4187	-3.8104	-4.6875	-4.1188	-4.1	-4.625	-3.7104	-4.4812	93.139	64.922	52.649	229.601	190.953	-61.754	4.561	-47.423	-43.700	236.058	189.041	256.834	69.008	43.731	-12.296	101.045	6.99e-05	0.0002832	6.0747e-05	1007.5	1.8192e-06	2.9882e-06	1083.4	210.63	9.6211e-07	2.6886e-06	265.12	74.583	59.781	17.631	2.2814e-06	24.414	9.5878e-05	5.8703e-05	9.8015e-06	986.49	9.3038e-07	4.2222e-07	1069.2	209.31	7.765e-07	6.4747e-07	263.09	75.266	59.706	17.628	7.1399e-07	24.507	174.205	-11.952	23.482	-71.652	78.960	86.184	-71.703	-64.662	43.096	84.276	-64.347	-57.996	-57.525	-49.851	43.860	-50.679	-8191	255	
57394.609	1	1	0	0	0.072108	0.12985	0.047026	0.13627	0.089163	0.16025	0.17881	0.15987	0.063521	0.050168	0.22565	0.13236	0.16091	0.039466	0.17298	0.26909	-4.1062	-3.8333	-4.7521	-4.1958	-3.925	-4.7854	-3.9458	-4.3208	-4.5479	-3.7438	-4.7063	-4.2271	-4.0125	-4.8542	-3.9292	-4.425	38.416	172.169	222.261	1.289	92.422	-81.249	169.105	215.685	209.408	147.426	-43.343	108.647	268.938	244.361	98.695	253.133	7.7853e-05	0.00037975	4.9444e-05	1007	1.8894e-06	3.7071e-06	1086.3	210.91	1.3207e-06	2.681e-06	264.97	74.588	59.217	17.516	2.313e-06	24.318	8.9187e-05	6.1756e-05	1.0467e-05	984.22	9.3852e-07	3.8722e-07	1070.1	209.41	7.8641e-07	5.829e-07	262.65	75.296	59.691	17.659	7.3872e-07	24.44	169.488	-8.552	21.962	-71.724	82.846	59.864	-71.733	-64.173	62.403	77.687	-64.977	-57.977	-57.871	-49.695	63.953	-50.830	-8191	255	
57394.680	1	1	0	0	0.044618	0.10525	0.18626	0.088688	0.13874	0.18175	0.16708	0.11514	0.065415	0.28105	0.17368	0.23475	0.10799	0.24126	0.055396	0.19835	-4.3021	-3.8125	-4.5479	-4.4667	-3.7917	-4.7063	-4.0417	-4.3125	-4.5854	-3.6833	-4.5563	-4.3125	-3.7729	-4.6708	-3.9292	-4.0083	262.029	84.072	73.280	-13.135	-45.756	21.875	54.553	20.766	47.639	18.216	154.691	-72.017	112.197	-52.655	-31.746	251.333	6.1534e-05	0.00029119	9.308e-05	1001.1	1.1673e-06	3.6378e-06	1091.3	211.49	1.0254e-06	3.3494e-06	266.15	75.207	60.162	17.821	2.5893e-06	24.27	9.5657e-05	6.1389e-05	1.252e-05	984.8	9.4096e-07	4.6857e-07	1070.6	209.37	7.6825e-07	6.8475e-07	263.02	75.421	59.782	17.737	8.01e-07	24.468	159.564	11.623	17.168	-71.762	51.269	80.946	-72.202	-64.728	57.699	43.960	-65.136	-58.705	-58.242	-50.667	59.986	-51.517	-8191	255	
57394.801	1	1	0	0	0.17429	0.076451	0.07704	0.034351	0.041165	0.094687	0.29061	0.14206	0.11312	0.2256	0.21956	0.086969	0.44064	0.22954	0.061871	0.24697	-4.4479	-3.8375	-4.575	-4.6583	-3.7812	-4.6667	-4.1937	-4.1792	-4.8354	-3.9917	-4.4917	-4.4708	-3.9479	-4.7312	-4.1625	-3.9604	127.955	34.732	29.694	238.651	73.973	-76.205	195.819	258.201	267.914	182.248	-51.382	126.401	5.598	48.059	188.077	197.287	6.0777e-05	0.0003367	0.00010542	1010	1.0388e-06	2.829e-06	1087.3	212.86	1.7145e-06	2.5519e-06	267.18	74.543	59.72	17.715	1.8391e-06	24.47	9.9432e-05	5.9924e-05	1.4257e-05	985.91	9.1533e-07	4.1176e-07	1069.7	209.48	7.6124e-07	4.9288e-07	264.02	75.509	59.659	17.74	6.3124e-07	24.535	168.184	12.587	2.829	-72.120	70.863	44.949	-72.092	-65.119	64.541	49.864	-65.276	-58.455	-58.596	-50.690	65.282	-51.034	-8191	255	
57394.898	1	1	0	0	0.16237	0.24476	0.13396	0.18632	0.27339	0.023524	0.29633	0.22032	0.13506	0.14446	0.28759	0.17635	0.17833	0.14914	0.044216	0.11439	-4.3146	-3.875	-4.3458	-4.4625	-3.7708	-4.6396	-4.25	-3.9896	-4.6771	-3.7458	-4.2167	-4.5687	-3.7062	-4.425	-4.1813	-3.875	244.741	203.484	-5.961	192.164	125.709	-67.306	193.290	171.720	202.198	97.286	28.878	175.755	135.604	251.338	-72.723	227.605	7.3364e-05	0.00028604	6.705e-05	1007.4	1.5602e-06	3.861e-06	1090.3	212.95	1.9494e-06	3.8551e-06	266.22	75.33	59.884	17.738	2.049e-06	24.595	9.2863e-05	6.0779e-05	1.3275e-05	983.42	1.0675e-06	4.8539e-07	1068.5	209.34	7.831e-07	6.8975e-07	263.26	75.553	59.645	17.729	6.338e-07	24.508	168.684	-4.389	15.604	-72.177	47.398	62.284	-72.481	-64.978	56.109	82.592	-65.289	-58.470	-58.554	-50.844	61.644	-51.622	-8191	255	
57394.992	1	1	0	0	0.16204	0.20083	0.15557	0.34323	0.034525	0.086096	0.11511	0.22399	0.30418	0.20466	0.18661	0.030949	0.04106	0.20907	0.20911	0.11094	-4.3	-3.8271	-4.0854	-4.6687	-3.8479	-4.6792	-4.5354	-4.0083	-4.7917	-3.8729	-4.2438	-4.5625	-3.9125	-4.425	-4.3333	-3.9271	-23.806	122.551	204.031	273.302	-39.154	145.372	-8.336	76.743	196.685	29.090	235.214	238.564	9.484	80.563	260.618	-80.337	7.2353e-05	0.00034366	6.8135e-05	1008.4	1.3483e-06	2.773e-06	1094.4	210.63	1.2341e-06	1.5929e-06	265.77	74.715	59.968	17.754	2.1332e-06	24.343	8.9089e-05	6.0046e-05	1.3614e-05	983.55	9.0882e-07	4.5039e-07	1072.3	208.76	6.6799e-07	6.2064e-07	262.59	75.39	59.696	17.72	5.9542e-07	24.495	171.307	11.627	7.636	-72.299	91.677	81.489	-72.390	-64.837	39.337	79.674	-65.666	-58.381	-58.463	-50.467	60.716	-51.227	-8191	255	
57395.090	1	1	0	0	0.051599	0.056814	0.19842	0.14691	0.085303	0.18314	0.25305	0.084628	0.062952	0.21243	0.08352	0.191	0.14205	0.3374	0.15064	0.19786	-4.2958	-3.8021	-4.0021	-4.7792	-3.7375	-4.4625	-4.6083	-3.7854	-4.6438	-3.9979	-3.9542	-4.7146	-3.8688	-4.2542	-4.4292	-3.7917	-44.840	159.165	234.571	222.580	-64.894	65.921	224.457	124.828	134.988	243.083	242.347	272.353	-70.918	257.397	115.535	191.269	6.6905e-05	0.00041786	5.6938e-05	1008.9	1.6173e-06	2.3866e-06	1091.1	212.16	1.1465e-06	2.5616e-06	267.72	75.205	59.567	17.611	3.3648e-06	24.467	8.8721e-05	6.1959e-05	1.4302e-05	983.47	1.124e-06	4.2358e-07	1071.3	209.1	7.9218e-07	5.5835e-07	262.91	75.427	59.61	17.754	6.065e-07	24.515	157.608	25.640	22.618	-72.275	95.560	48.441	-72.227	-65.120	37.173	73.119	-65.273	-58.203	-58.555	-50.782	70.872	-50.978	-8191	255	
57395.207	1	1	0	0	0.069264	0.068282	0.15355	0.20626	0.045732	0.14158	0.19256	0.14754	0.11431	0.10418	0.23911	0.11411	0.12287	0.11201	0.2195	0.079902	-4.3354	-4.1042	-3.9188	-4.6312	-3.8812	-4.2646	-4.5229	-3.7604	-4.4521	-4.3229	-3.8438	-4.6937	-3.7521	-3.9146	-4.4979	-3.7521	254.848	-80.405	-81.915	222.228	186.634	246.315	220.555	107.402	20.735	176.804	253.941	-77.562	51.883	-73.878	-56.059	-71.401	6.201e-05	0.00035679	5.2562e-05	1008.4	1.4054e-06	1.5246e-06	1087.5	212.58	1.6254e-06	2.9687e-06	266.71	75.719	59.842	17.8	1.1651e-06	24.407	9.2839e-05	5.0764e-05	1.5971e-05	984.4	9.3649e-07	4.3494e-07	1069.1	209.27	7.4473e-07	5.1743e-07	262.61	75.475	59.596	17.68	4.5424e-07	24.483	168.871	10.660	9.847	-72.097	36.062	51.432	-72.508	-64.669	47.953	98.076	-65.299	-58.865	-58.200	-50.407	67.974	-51.029	-8191	255	
57395.305	1	1	0	0	0.097131	0.12304	0.075976	0.16626	0.10644	0.018781	0.15193	0.052529	0.073219	0.13508	0.17557	0.1547	0.05334	0.17552	0.16245	0.1878	-4.1854	-4.15	-3.6792	-4.7521	-3.8417	-4.0312	-4.5146	-3.7938	-4.3792	-4.2833	-3.7646	-4.8438	-3.9583	-4.0083	-4.8021	-3.8229	-16.035	74.473	164.692	222.870	226.885	108.778	-69.771	-77.473	86.455	-47.995	-4.050	228.494	276.318	-80.685	133.844	193.549	7.1848e-05	0.00022967	6.7807e-05	1012.2	1.6691e-06	2.1045e-06	1088	212.63	1.0322e-06	2.7514e-06	264.69	74.181	60.068	17.6	2.3979e-06	24.407	0.00010441	5.7115e-05	1.8509e-05	984.16	9.5968e-07	5.8038e-07	1070.5	209.3	7.4515e-07	4.4104e-07	262.44	75.067	59.627	17.678	5.3741e-07	24.506	162.277	14.406	27.080	-72.433	69.178	61.553	-72.057	-64.750	80.193	62.206	-65.536	-58.699	-58.186	-50.641	49.025	-51.427	-8191	255	
57395.398	1	1	0	0	0.12715	0.22948	0.11153	0.16508	0.17557	0.21502	0.047206	0.24556	0.17574	0.25315	0.18304	0.076706	0.11871	0.20431	0.067554	0.11625	-4.0167	-4.3104	-4	-4.6354	-4.0458	-3.9188	-4.7042	-3.9062	-4.2396	-4.3104	-3.8104	-4.625	-4.1667	-3.8646	-4.7979	-3.9417	35.117	174.340	260.710	262.917	159.933	169.135	-17.335	-82.281	114.723	-23.170	241.980	151.887	19.269	157.974	14.937	202.608	5.9115e-05	0.00025297	7.358e-05	1010.2	2.2388e-06	3.304e-06	1090.9	210.97	1.5792e-06	2.7659e-06	265.46	74.878	59.82	17.595	2.3246e-06	24.308	0.00010661	4.649e-05	1.5452e-05	984.67	9.6618e-07	7.149e-07	1072	209.22	8.8337e-07	3.6647e-07	263.24	75.399	59.786	17.709	5.1011e-07	24.538	170.324	38.444	14.288	-72.154	76.070	68.570	-72.164	-65.009	32.906	54.632	-65.462	-58.855	-58.319	-51.029	41.386	-51.596	-8191	255	
57395.496	1	1	0	0	0.25222	0.21477	0.17429	0.092575	0.19544	0.11609	0.21756	0.094304	0.14741	0.12447	0.24911	0.18237	0.086425	0.15524	0.055413	0.20158	-3.825	-4.3729	-3.6583	-4.6208	-4.1271	-3.9	-4.7396	-3.9854	-4.0875	-4.7646	-3.8417	-4.6896	-4.3583	-3.7854	-4.7021	-3.9125	-42.364	95.257	196.240	256.341	-70.220	-11.162	225.273	63.917	3.825	-61.024	255.854	72.244	117.773	189.141	258.161	-71.147	6.7168e-05	0.0002613	6.9654e-05	1005.9	1.0722e-06	2.8364e-06	1093	213.31	1.6244e-06	2.403e-06	264.92	75.296	59.897	17.636	1.8529e-06	24.506	9.8721e-05	4.0953e-05	1.5452e-05	981.92	9.1045e-07	7.0854e-07	1072.1	209.75	9.3824e-07	3.6966e-07	262.71	75.445	59.852	17.715	4.5296e-07	24.532	165.019	1.551	16.358	-72.480	64.295	68.173	-72.040	-64.786	55.213	52.985	-65.110	-58.431	-57.914	-51.149	77.274	-51.549	-8191	255	
57395.594	1	1	0	0	0.048671	0.050226	0.10989	0.039502	0.21506	0.0565	0.16245	0.13441	0.24756	0.073547	0.051213	0.051585	0.36878	0.071229	0.087526	0.17275	-3.925	-4.5104	-3.7188	-4.7042	-4.2396	-3.7188	-4.7792	-4.1021	-4.0083	-4.6146	-3.8667	-4.35	-4.4	-3.7542	-4.6208	-4.0354	191.804	107.530	-67.239	137.496	149.075	89.981	193.987	74.987	192.625	196.588	249.026	-17.795	-45.967	151.631	174.247	196.597	4.899e-05	0.00036664	7.0522e-05	1009.9	1.5144e-06	2.892e-06	1095	211.48	1.6161e-06	2.8455e-06	266.25	75.015	59.745	17.843	2.6705e-06	24.577	9.8942e-05	4.6368e-05	1.6377e-05	984.22	9.0923e-07	7.2808e-07	1070.8	209.36	9.3824e-07	4.2831e-07	263.6	75.26	59.711	17.755	5.8816e-07	24.541	163.216	-2.796	15.018	-72.392	80.845	50.133	-72.337	-65.041	53.962	79.600	-65.529	-58.888	-58.026	-50.854	52.843	-50.756	-8191	255	
57395.688	1	1	0	0	0.18142	0.19323	0.21841	0.25867	0.33448	0.095735	0.2812	0.16081	0.1567	0.22704	0.098009	0.39023	0.074508	0.23861	0.04438	0.08488	-3.6479	-4.6542	-3.7396	-4.3187	-4.3458	-3.6625	-4.7	-4.1979	-3.8104	-4.6479	-3.8271	-4.2708	-4.5479	-3.9	-4.35	-4.2354	-64.697	156.283	-7.693	257.672	-39.218	225.236	187.451	42.655	14.250	187.363	224.321	266.686	157.722	177.595	12.837	121.682	6.5146e-05	0.00030475	7.7015e-05	1006.3	1.2056e-06	3.9305e-06	1090.3	213.71	1.3927e-06	2.5152e-06	267.51	75.505	59.941	17.728	2.1395e-06	24.524	9.5118e-05	4.1238e-05	1.7652e-05	983.27	8.4251e-07	6.7809e-07	1071	209.53	9.1802e-07	5.0242e-07	263.54	75.46	59.707	17.715	6.4276e-07	24.588	185.839	0.555	1.616	-72.515	92.508	60.383	-72.251	-64.839	40.487	81.679	-65.188	-58.737	-58.025	-50.918	57.596	-51.182	-8191	255	
57395.809	1	1	0	0	0.1449	0.032042	0.14043	0.10511	0.11414	0.18183	0.09543	0.11366	0.23085	0.12159	0.026065	0.09787	0.0013497	0.21201	0.2399	0.19734	-3.5333	-4.6	-3.6729	-4.1937	-4.55	-3.5542	-4.6312	-4.2833	-3.7708	-4.6125	-4.1021	-4.3167	-4.5542	-3.7958	-4.3938	-4.4229	224.119	-10.432	-46.968	-67.031	87.477	252.658	176.911	253.591	-46.781	144.289	26.825	144.508	180.000	252.883	191.979	155.801	7.4817e-05	0.0003326	9.06e-05	1009.4	1.4301e-06	3.268e-06	1092.5	212.67	1.5375e-06	4.2452e-06	267.75	74.974	59.919	17.613	2.5691e-06	24.346	0.0001123	3.904e-05	1.6546e-05	984.82	7.6847e-07	5.6629e-07	1070.8	209.33	8.9574e-07	4.2786e-07	263.03	75.435	59.85	17.681	6.5641e-07	24.554	164.630	-3.368	7.531	-72.449	63.844	55.040	-72.142	-64.586	47.634	57.010	-64.960	-58.922	-58.047	-50.590	60.067	-50.741	-8191	255	
57395.902	1	1	0	0	0.17837	0.026054	0.17391	0.1345	0.13737	0.18289	0.25038	0.085555	0.11561	0.23474	0.035287	0.095589	0.34647	0.1379	0.12348	0.08057	-3.3063	-4.625	-3.9042	-3.9	-4.7208	-3.8042	-4.5167	-4.5396	-3.6854	-4.6875	-4.1188	-4.0375	-4.85	-3.9688	-4.1896	-4.4292	-22.117	47.628	-60.550	198.324	16.254	-2.028	186.444	21.544	271.389	5.859	138.021	-25.131	240.258	247.979	-80.686	-8.242	5.9397e-05	0.00041048	8.5973e-05	1007.9	9.8486e-07	2.22e-06	1090.1	211.44	8.5906e-07	2.2159e-06	266.43	75.316	59.765	17.71	1.7135e-06	24.408	0.0001047	5.0764e-05	1.5317e-05	983.16	8.5472e-07	6.2492e-07	1068.5	209.15	8.5118e-07	3.3692e-07	263.09	75.457	59.667	17.713	6.2783e-07	24.464	169.136	29.829	12.251	-72.572	43.523	82.191	-72.009	-64.567	40.831	60.804	-65.115	-58.785	-58.115	-50.710	85.908	-51.270	-8191	255	
57395.977	1	1	0	0	0.10738	0.1512	0.070507	0.11778	0.20067	0.052094	0.16727	0.12269	0.22745	0.16712	0.095277	0.071201	0.11821	0.05018	0.14449	0.16905	-3.3438	-4.5583	-4.1521	-3.9667	-4.5333	-3.9062	-4.3854	-4.5875	-3.7354	-4.6854	-4.3917	-3.9042	-4.6396	-4.1667	-4.1146	-4.6396	274.354	258.260	42.484	238.889	77.773	-13.064	209.971	198.314	157.652	220.077	194.115	206.477	-24.569	27.253	144.802	221.099	6.1507e-05	0.00037881	6.9055e-05	1009.2	1.8598e-06	2.2957e-06	1086.2	210.98	4.9253e-07	2.8322e-06	264.92	74.706	59.489	17.509	2.5817e-06	24.102	0.00010406	4.4292e-05	1.4336e-05	981.82	8.3112e-07	6.0901e-07	1067.2	209.45	8.0415e-07	3.5556e-07	262.54	74.989	59.479	17.636	6.4063e-07	24.364	165.474	10.802	11.937	-72.285	72.657	83.605	-71.824	-64.298	84.698	65.771	-64.710	-58.310	-57.538	-50.365	46.781	-50.264	-8191	255	
57396.070	1	1	0	0	0.11636	0.17685	0.055637	0.13117	0.054154	0.0779	0.40497	0.22791	0.23438	0.45364	0.15913	0.15	0.13412	0.14387	0.23327	0.19718	-3.4479	-4.5542	-4.1687	-3.8708	-4.5708	-3.9479	-4.0979	-4.6917	-3.9146	-4.4104	-4.3604	-3.6479	-4.6271	-4.0292	-3.9771	-4.6292	7.339	-20.238	-23.475	236.531	182.207	-44.587	182.953	75.618	28.855	36.277	166.597	132.519	58.088	98.385	-23.693	110.088	6.8167e-05	0.0001831	7.6667e-05	1002.7	8.7032e-07	3.3883e-06	1082.3	211.7	7.2318e-07	2.4983e-06	265.4	74.129	59.091	17.57	2.1363e-06	24.353	0.00010431	4.767e-05	1.4302e-05	980.64	8.3519e-07	5.7083e-07	1066	209.2	9.5722e-07	5.1925e-07	262.72	74.958	59.289	17.632	6.6323e-07	24.468	173.400	3.252	-4.038	-71.854	36.673	77.819	-71.633	-64.201	40.121	61.668	-64.155	-57.713	-57.238	-49.957	73.452	-50.598	-8191	255	
57396.191	1	1	0	0	0.19911	0.064226	0.094456	0.12471	0.12844	0.17323	0.076583	0.13634	0.22555	0.18883	0.17118	0.069371	0.18906	0.22762	0.1315	0.13572	-3.4562	-4.4062	-4.3313	-3.7375	-4.5437	-3.9188	-4.0375	-4.6667	-3.7771	-4.1854	-4.5229	-3.8667	-4.5333	-4.0958	-3.8667	-4.7562	274.442	173.492	72.012	235.260	188.525	-71.126	225.663	246.153	143.505	265.452	-29.269	63.549	251.052	-54.283	39.771	132.648	6.2605e-05	0.00028968	7.9001e-05	1003.5	1.5445e-06	2.8461e-06	1080.5	209.52	6.626e-07	2.9983e-06	264.67	73.869	59.068	17.425	2.4956e-06	24.183	0.00010649	5.7481e-05	1.049e-05	981.32	8.9214e-07	5.4356e-07	1065.6	208.83	9.106e-07	4.7514e-07	261.75	74.878	59.319	17.574	6.0522e-07	24.346	166.896	13.176	16.381	-71.829	88.188	51.261	-71.869	-64.312	40.185	80.298	-64.764	-58.123	-57.408	-50.062	71.362	-50.519	-8191	255	
57396.289	1	1	0	0	0.11685	0.06694	0.24646	0.16884	0.18568	0.0065615	0.14807	0.013919	0.1161	0.077488	0.16655	0.1508	0.096047	0.12211	0.35486	0.055164	-3.6021	-4.2333	-4.4229	-3.7583	-4.4604	-4.2146	-3.9458	-4.7292	-3.9333	-4.2125	-4.6229	-3.9896	-4.4771	-4.3167	-3.8042	-4.7542	-39.344	-42.351	21.029	247.001	-59.588	137.273	-70.465	45.221	87.315	141.833	55.072	177.818	-45.764	-0.178	120.107	-66.625	7.6685e-05	0.00037657	7.6102e-05	999.03	1.5377e-06	3.4176e-06	1082.1	211.71	1.4304e-06	2.4573e-06	264.2	74.181	58.843	17.301	2.1568e-06	23.807	0.00010973	5.2556e-05	1.4663e-05	979.4	8.5187e-07	5.9856e-07	1065.4	208.85	9.0276e-07	6.22e-07	261.72	74.864	59.283	17.456	7.5195e-07	24.099	163.469	-8.910	5.612	-71.978	85.637	65.284	-71.611	-64.175	65.729	79.018	-64.635	-57.839	-57.700	-49.870	69.094	-50.636	-8191	255	
57396.383	1	1	0	0	0.18392	0.14069	0.10786	0.15883	0.054204	0.1901	0.35428	0.19307	0.13703	0.20022	0.21281	0.039165	0.24537	0.20594	0.20693	0.15944	-3.725	-3.9542	-4.5333	-3.875	-4.2625	-4.3792	-3.7938	-4.6521	-3.9667	-4.1667	-4.6125	-3.8542	-4.3042	-4.4333	-3.8354	-4.5708	121.594	27.154	265.897	236.830	3.624	-80.892	223.156	180.991	-63.579	158.351	215.601	69.751	58.762	83.586	13.602	223.515	5.6835e-05	0.00027056	0.00012744	998.15	1.1404e-06	2.5248e-06	1085.1	209.75	7.8822e-07	3.3884e-06	264.21	74.237	58.838	17.238	1.8934e-06	24.034	0.00010276	7.6248e-05	1.6422e-05	977.71	1.0191e-06	5.1266e-07	1066.2	208.67	8.879e-07	7.4932e-07	262.08	74.876	59.126	17.396	7.2124e-07	24.139	157.784	22.115	8.065	-71.983	120.497	41.397	-71.623	-64.117	28.794	62.216	-64.620	-58.512	-57.195	-50.209	50.877	-50.402	-8191	255	
57396.480	1	1	0	0	0.058823	0.14767	0.12044	0.15314	0.12642	0.0096674	0.022304	0.096622	0.16865	0.053709	0.12091	0.050804	0.14344	0.16517	0.049247	0.19595	-3.7	-3.8812	-4.625	-3.8667	-4.1875	-4.3625	-3.7188	-4.6042	-4.2208	-3.8479	-4.7063	-3.9375	-4.3042	-4.4313	-3.7729	-4.4812	16.679	89.489	251.258	252.246	91.159	213.147	48.172	176.887	32.448	26.566	173.556	16.922	102.017	-80.153	-58.836	194.276	6.6585e-05	0.00031077	8.2816e-05	999.88	9.0897e-07	2.2367e-06	1082.1	211.26	5.3517e-07	2.6889e-06	264.93	73.99	58.731	17.485	1.9612e-06	23.757	0.00010237	6.2529e-05	1.0129e-05	979.7	8.7343e-07	4.3631e-07	1066.6	208.76	8.5242e-07	6.5565e-07	261.94	74.87	59.209	17.42	8.5985e-07	24.062	166.946	-7.611	33.872	-71.707	97.074	63.022	-71.450	-64.426	58.500	82.499	-64.596	-58.293	-57.619	-50.112	59.744	-50.412	-8191	255	
57396.578	1	1	0	0	0.046881	0.15249	0.075388	0.031878	0.22469	0.067538	0.28917	0.090462	0.20487	0.021985	0.12478	0.12335	0.11497	0.23282	0.20421	0.21677	-3.8563	-3.8042	-4.6333	-3.9833	-4.0771	-4.6604	-3.9479	-4.45	-4.3854	-3.7104	-4.6854	-4.0083	-3.9542	-4.55	-3.725	-4.4729	204.555	130.463	4.425	-46.335	-75.955	106.068	171.915	219.613	241.365	-0.805	38.087	191.597	10.486	144.433	4.696	271.178	6.5975e-05	0.00024036	8.8807e-05	1003.2	1.4685e-06	2.2869e-06	1084.8	211.93	1.3852e-06	3.3079e-06	264.51	73.98	59.464	17.361	8.8024e-07	23.867	9.5829e-05	6.7007e-05	1.2565e-05	980.2	9.5154e-07	4.6312e-07	1069.8	209.48	8.3592e-07	6.1109e-07	262.36	74.989	59.463	17.444	7.3958e-07	24.215	170.647	-19.458	26.950	-71.878	87.607	76.820	-71.683	-64.558	50.137	59.727	-64.687	-58.115	-57.870	-50.379	85.843	-50.469	-8191	255	
57396.672	1	1	0	0	0.11156	0.20016	0.10857	0.12546	0.24277	0.16559	0.090219	0.18191	0.22855	0.32119	0.13296	0.21433	0.22768	0.27311	0.09801	0.0533	-3.8875	-3.5354	-4.5979	-4.0708	-3.8667	-4.7375	-3.9646	-4.3167	-4.4021	-3.7104	-4.6625	-4.0229	-3.9271	-4.6438	-3.725	-4.2375	268.577	102.395	117.807	90.667	0.332	37.514	254.549	274.325	157.393	159.150	108.140	-71.189	275.398	-35.479	52.054	69.185	5.309e-05	0.00019632	6.3123e-05	1002.1	1.4884e-06	3.5673e-06	1089.2	211.18	6.0899e-07	1.523e-06	264.83	74.664	59.508	17.329	1.8443e-06	24.188	9.8672e-05	7.3358e-05	1.1245e-05	983.97	8.8523e-07	5.4811e-07	1072.8	209.56	7.633e-07	6.3837e-07	263.08	75.266	59.752	17.563	6.7773e-07	24.397	180.718	7.724	-1.066	-71.570	95.023	64.406	-71.467	-64.359	72.724	62.154	-64.947	-58.042	-57.737	-49.920	84.719	-50.798	-8191	255	
57396.770	1	1	0	0	0.086636	0.085026	0.096342	0.19021	0.078151	0.14114	0.20332	0.058998	0.058937	0.081879	0.057215	0.30661	0.099545	0.014936	0.028032	0.21969	-4.25	-3.7042	-4.7	-4.275	-3.8625	-4.6396	-3.8958	-4.2521	-4.4604	-3.7583	-4.5375	-4.2979	-3.8271	-4.7188	-3.9437	-4.1312	74.297	141.908	140.802	-27.499	-61.325	129.480	-80.379	35.689	153.676	165.300	252.904	226.661	128.620	276.974	93.603	54.143	7.6434e-05	0.00012137	7.3769e-05	1011.2	1.5383e-06	1.9255e-06	1090.7	211.06	6.4446e-07	2.557e-06	265.06	75.005	59.882	17.622	1.8862e-06	24.475	9.975e-05	6.1919e-05	1.596e-05	987.63	9.9059e-07	4.0358e-07	1074.2	209.75	8.124e-07	6.5292e-07	263.48	75.739	59.928	17.782	7.801e-07	24.566	174.457	-18.105	-2.410	-71.718	76.230	52.475	-71.617	-64.588	47.502	57.103	-64.636	-57.935	-57.766	-50.091	54.504	-51.074	-8191	255	
57396.891	1	1	0	0	0.15597	0.14582	0.038165	0.18236	0.15155	0.26598	0.35015	0.084667	0.094251	0.13952	0.054444	0.3703	0.22604	0.020278	0.13069	0.10698	-4.1604	-3.7687	-4.5167	-4.1979	-3.875	-4.6771	-4.0875	-4.0854	-4.5792	-3.7417	-4.3313	-4.4958	-3.6958	-4.5958	-4.1208	-3.9646	200.658	50.402	249.238	-10.140	211.806	79.191	169.138	270.692	-66.237	-71.287	234.285	-69.404	5.043	256.605	82.280	-59.903	7.6952e-05	0.00028245	5.9045e-05	1007.8	1.4588e-06	2.164e-06	1091.6	212.59	8.5367e-07	4.0033e-06	266.77	74.649	59.581	17.78	1.5847e-06	24.546	9.2569e-05	7.1689e-05	1.5926e-05	985.52	1.0134e-06	3.2632e-07	1075.3	210.36	7.5133e-07	7.1476e-07	264.36	75.686	59.92	17.848	7.6858e-07	24.706	161.556	28.866	7.071	-71.758	82.281	59.724	-71.478	-64.577	70.410	65.802	-64.609	-57.936	-57.494	-50.198	57.111	-50.661	-8191	255	
57396.984	1	1	0	0	0.26634	0.16359	0.12353	0.17163	0.063027	0.24551	0.11194	0.28094	0.103	0.078214	0.027175	0.21296	0.076931	0.033844	0.17346	0.26676	-4.35	-3.5667	-4.2	-4.5437	-3.8063	-4.5479	-4.1625	-3.9104	-4.5771	-3.7833	-4.0646	-4.3063	-3.7479	-4.5354	-4.0417	-3.9542	31.833	161.691	124.686	143.532	195.500	184.178	148.257	264.740	124.081	128.492	49.028	219.621	-68.290	35.497	79.238	-72.565	7.2176e-05	0.00027808	0.00011282	1007.6	1.609e-06	1.6913e-06	1091.8	213.46	7.6608e-07	2.7692e-06	267.75	74.836	60.21	17.741	2.2204e-06	24.564	9.7545e-05	7.4131e-05	1.4358e-05	987.41	1.0227e-06	4.0767e-07	1074.3	210.56	7.175e-07	7.0339e-07	264.86	75.78	60.183	17.95	6.9693e-07	24.806	166.807	-0.453	23.364	-71.904	72.429	42.889	-71.483	-64.514	45.991	98.768	-64.708	-58.129	-58.018	-50.037	53.078	-51.034	-8191	255	
57397.078	1	1	0	0	0.031721	0.26585	0.14939	0.069639	0.17752	0.21591	0.072628	0.047862	0.054997	0.18315	0.11125	0.10886	0.17512	0.24966	0.085484	0.094334	-4.3208	-3.8229	-4.075	-4.6021	-3.5854	-4.3896	-4.2667	-3.8729	-4.7021	-3.9208	-4.0521	-4.6813	-3.7375	-4.4396	-4.2063	-3.7292	205.360	138.827	190.975	270.873	268.694	88.005	84.367	25.168	182.062	55.419	166.327	108.525	226.443	140.502	-55.620	188.062	7.3119e-05	0.00017941	7.5691e-05	1013.6	1.5603e-06	2.4629e-06	1097.5	212.03	8.1986e-07	2.658e-06	267.53	75.117	60.344	17.885	1.377e-06	24.821	9.3305e-05	6.9776e-05	1.5712e-05	992.22	1.087e-06	5.6765e-07	1080.3	210.56	8.0085e-07	5.6608e-07	264.88	76.091	60.283	17.95	7.1143e-07	24.914	161.037	0.016	24.099	-71.659	109.153	64.817	-71.558	-64.567	97.377	50.320	-64.999	-57.836	-57.912	-50.227	63.512	-50.991	-8191	255	
57397.199	1	1	0	0	0.12978	0.096963	0.10851	0.19833	0.16983	0.16347	0.33275	0.14011	0.15464	0.12906	0.14812	0.22447	0.22548	0.26762	0.12721	0.040289	-4.175	-3.8917	-4.0979	-4.7833	-3.5833	-4.3354	-4.5542	-3.8708	-4.675	-4.1208	-3.95	-4.475	-3.7104	-4.2271	-4.4521	-3.6729	265.804	252.636	144.024	213.762	173.308	114.564	185.435	127.646	47.156	155.561	264.023	-50.756	95.468	-2.536	37.417	-44.816	7.6311e-05	0.00026704	8.5803e-05	1014.9	2.0482e-06	3.0635e-06	1101.5	212.33	1.0382e-06	2.4771e-06	268.52	75.842	59.879	17.997	2.0225e-06	24.669	9.7912e-05	6.1186e-05	1.6242e-05	994.86	1.0951e-06	5.472e-07	1082.9	211.53	8.4541e-07	6.411e-07	265.47	76.282	60.303	18.049	6.1503e-07	24.986	165.022	3.709	18.429	-71.790	40.131	59.173	-71.534	-64.614	113.387	69.922	-64.839	-57.717	-57.971	-50.154	82.285	-51.019	-8191	255	
57397.273	1	1	0	0	0.062231	0.072823	0.15804	0.17953	0.091738	0.097407	0.068162	0.12562	0.048033	0.19688	0.2204	0.2269	0.10106	0.13545	0.15698	0.16282	-4.2417	-4.1208	-3.9771	-4.7646	-3.7	-4.1896	-4.5354	-3.7479	-4.5062	-3.9292	-3.9667	-4.6167	-3.8021	-4.0042	-4.5375	-3.7562	224.045	-9.009	275.441	268.134	119.391	89.186	-68.275	-73.724	-51.294	180.610	178.512	15.523	62.116	-57.365	178.880	210.020	6.3236e-05	0.00025496	7.463e-05	1014.1	4.3567e-07	2.3781e-06	1101.3	213.24	1.8405e-06	3.0438e-06	267.98	75.457	60.237	17.879	1.8836e-06	24.873	0.00010495	6.4483e-05	1.3648e-05	995.57	9.9344e-07	5.4902e-07	1085.3	211.13	8.8006e-07	5.197e-07	265.77	76.393	60.616	18.041	6.4318e-07	25.147	175.529	4.816	19.840	-71.696	117.074	69.985	-71.721	-64.668	61.535	87.405	-64.914	-58.154	-57.733	-50.416	82.463	-50.489	-8191	255	
57397.367	1	1	0	0	0.12218	0.018841	0.15928	0.35582	0.19228	0.11968	0.22837	0.13234	0.082372	0.28712	0.096782	0.1782	0.1268	0.094951	0.16762	0.14603	-4.0396	-4.2104	-3.8438	-4.7562	-3.8417	-4.0563	-4.9104	-3.7771	-4.4062	-4.3833	-3.9792	-4.6729	-4.0375	-4.0854	-4.5625	-3.6375	-14.793	234.178	161.599	209.665	-29.961	141.263	250.622	265.715	24.100	-44.215	83.756	130.834	51.906	-20.572	271.363	88.572	8.2938e-05	0.00038209	7.1006e-05	1013.3	1.672e-06	2.5653e-06	1104.7	213.31	1.7324e-06	2.7847e-06	268.83	76.094	60.943	17.992	2.2373e-06	24.935	9.8157e-05	5.4754e-05	1.7133e-05	996.63	9.312e-07	5.9946e-07	1087.9	211.41	9.1307e-07	4.9515e-07	265.86	76.796	60.985	18.137	5.6001e-07	25.137	164.161	-10.539	-3.809	-71.750	84.504	59.339	-71.450	-64.306	29.709	63.684	-64.904	-58.121	-58.169	-50.332	86.155	-50.505	-8191	255	
57397.488	1	1	0	0	0.20148	0.1228	0.23472	0.46744	0.07404	0.14399	0.25883	0.18986	0.24424	0.15255	0.079357	0.21353	0.22506	0.17915	0.17247	0.10679	-3.9125	-4.3958	-3.9208	-4.7625	-4.0271	-3.9875	-4.7438	-3.7979	-4.3958	-4.5	-3.8854	-4.6979	-4.1292	-3.8604	-4.7646	-3.8146	74.829	-32.998	170.659	259.294	149.004	-35.275	245.038	49.751	55.568	-36.062	-30.687	150.659	201.814	-49.411	133.033	87.765	6.6231e-05	0.00015072	9.7528e-05	1025.8	7.7904e-07	3.1805e-06	1111.4	214.4	1.5841e-06	2.5146e-06	268.95	76.294	60.728	18.238	1.5827e-06	24.949	0.00010083	4.7223e-05	1.8204e-05	1002	9.0069e-07	6.2901e-07	1092.4	212.36	8.8667e-07	6.3383e-07	266.28	77.27	61.258	18.272	5.3101e-07	25.301	170.698	9.866	22.198	-71.567	96.446	68.619	-71.612	-64.503	59.483	62.149	-64.691	-58.256	-57.737	-50.117	68.301	-50.771	-8191	255	
57397.586	1	1	0	0	0.1083	0.011004	0.064159	0.25125	0.11327	0.12108	0.13403	0.083588	0.10698	0.065056	0.045209	0.21042	0.051152	0.14228	0.2692	0.098324	-3.9104	-4.4271	-3.8063	-4.6875	-4.2021	-3.8146	-4.825	-3.8792	-4.1771	-4.4667	-3.9833	-4.4104	-4.2	-3.875	-4.6646	-3.7917	1.902	263.068	-4.408	251.601	156.661	237.957	88.522	88.777	27.978	134.648	-49.031	189.861	41.865	85.932	41.430	53.127	6.5109e-05	0.00023619	7.757e-05	1025.4	9.8745e-07	3.4455e-06	1106.6	215.06	1.4516e-06	2.462e-06	268.84	76.769	61.235	18.263	2.2649e-06	25.216	0.00010272	4.9747e-05	1.8768e-05	1003	1.0248e-06	7.1081e-07	1092.7	213.33	9.4567e-07	3.9648e-07	267.05	77.504	61.427	18.283	5.6343e-07	25.408	163.293	-12.622	2.319	-71.738	60.592	89.815	-71.477	-64.413	58.276	68.101	-64.718	-58.361	-57.221	-50.331	75.356	-50.686	-8191	255	
57397.684	1	1	0	0	0.045854	0.091319	0.1625	0.21268	0.11349	0.16621	0.13778	0.14761	0.045042	0.13849	0.15386	0.083092	0.045064	0.17991	0.19181	0.10603	-3.7354	-4.6271	-3.625	-4.5104	-4.2937	-3.9667	-4.9104	-4.0479	-3.9979	-4.4625	-3.8646	-4.5208	-4.5375	-3.9021	-4.4563	-4.0563	-68.404	101.076	-60.041	209.662	58.583	32.238	193.614	0.027	4.535	-50.269	-27.333	145.964	181.135	241.106	144.477	-78.376	6.2927e-05	0.00034825	8.0854e-05	1023.8	1.6596e-06	2.0201e-06	1113.8	216.49	8.4534e-07	2.8936e-06	270.33	77.309	61.726	18.257	1.4154e-06	25.336	0.00010762	5.3533e-05	1.7686e-05	1004.8	9.3445e-07	6.2673e-07	1094.8	214.54	9.0399e-07	4.2285e-07	267.21	77.564	61.673	18.389	4.6533e-07	25.447	175.499	12.833	8.425	-71.961	80.860	66.644	-71.653	-64.350	104.135	68.027	-64.814	-58.602	-57.685	-50.667	63.002	-50.570	-8191	255	
57397.777	1	1	0	0	0.074903	0.074394	0.041287	0.21116	0.12093	0.12197	0.068054	0.1826	0.081026	0.1186	0.20229	0.24968	0.19821	0.13512	0.16357	0.14225	-3.6333	-4.6771	-3.7062	-4.4396	-4.5292	-3.8896	-5.0188	-4.1917	-3.7667	-4.5583	-3.8458	-4.3417	-4.4396	-3.7354	-4.5479	-4.4083	209.446	78.269	-69.604	195.263	123.970	8.751	-69.752	193.665	57.688	262.824	247.047	-52.580	121.105	-20.584	66.742	213.980	7.7686e-05	0.00026912	8.988e-05	1024.9	1.4273e-06	2.1242e-06	1114.3	216.19	5.638e-07	1.6612e-06	268.98	77.327	61.3	18.202	1.2549e-06	25.075	0.00010267	3.9244e-05	2.0753e-05	1005.8	9.5845e-07	6.0401e-07	1095.6	214.45	8.9244e-07	4.2422e-07	267.51	77.767	61.544	18.327	5.0798e-07	25.469	165.865	-3.018	22.896	-71.910	67.104	65.129	-71.863	-64.350	86.553	100.709	-64.594	-58.334	-57.481	-50.031	88.652	-50.727	-8191	255	
57397.871	1	1	0	0	0.18954	0.13145	0.05684	0.52371	0.14506	0.043132	0.25478	0.22121	0.17084	0.10768	0.059969	0.087101	0.18751	0.19147	0.1916	0.20938	-3.5583	-4.6188	-3.8479	-4.2521	-4.5687	-3.6188	-4.7979	-4.3896	-3.9125	-4.7875	-4.0729	-4.1687	-4.5062	-3.6854	-4.4417	-4.3438	263.493	-73.519	179.137	275.851	-38.210	217.709	225.635	228.337	222.772	94.799	236.851	166.015	124.580	138.668	44.278	224.865	8.5048e-05	0.00027658	0.00010158	1030	3.7017e-07	2.6484e-06	1114.4	216.99	6.4742e-07	2.7569e-06	270.03	77.429	61.343	18.306	2.0245e-06	25.391	0.00010477	4.6571e-05	1.5802e-05	1008.2	9.0313e-07	6.9173e-07	1099	214.82	8.9368e-07	4.8787e-07	267.75	78.002	61.73	18.418	5.0969e-07	25.504	159.137	15.893	16.533	-71.769	45.295	65.830	-71.811	-64.285	77.279	68.256	-64.691	-58.345	-57.583	-49.966	40.784	-51.015	-8191	255	
57397.969	1	1	0	0	0.28909	0.055136	0.19048	0.20595	0.097856	0.14155	0.25452	0.23089	0.075882	0.12574	0.10958	0.10193	0.063125	0.066007	0.03078	0.20416	-3.3646	-4.6875	-4.0542	-4.125	-4.6417	-3.7938	-4.5563	-4.5563	-3.8292	-4.7146	-4.1312	-4.0188	-4.5875	-3.7917	-4.3292	-4.5437	203.082	1.971	242.937	257.549	94.912	243.010	158.237	216.320	193.372	-2.610	92.612	-53.470	-53.997	215.187	131.743	146.486	7.8081e-05	0.00032372	8.5212e-05	1035.3	1.9522e-06	1.8344e-06	1118.4	216.55	3.0441e-07	2.308e-06	269.06	77.655	61.674	18.188	1.8245e-06	25.572	0.00011468	5.3329e-05	1.4967e-05	1010.6	8.36e-07	6.2583e-07	1098.1	215.15	8.6521e-07	5.4789e-07	267.35	77.892	61.947	18.373	7.3105e-07	25.606	156.543	7.704	24.754	-71.967	78.276	81.068	-71.786	-64.322	157.327	87.203	-64.854	-58.253	-58.517	-50.200	84.138	-50.394	-8191	255	
#DATA ENDS
