BOXY.EXE: ISS Imagent and Oximeter Data Acquisition Program Version 0.80
Ascii Record File

#ACQ INFORMATION
2  Detector Channels 
16  External MUX Channels 
1  Auxiliary Channels 
5000  Waveform (CCF) Frequency (Hz)
1  Waveforms Skipped 
30  Waveforms Averaged 
1  Cycles Averaged 
16  Acquisitions per Waveform 
10.0806  Updata Rate (Hz) 

#FILE INFORMATION
TRUE -- External MUX Channel results are PARSED.
FALSE -- AC DC and Phase are NOT grouped.
TRUE -- Companion Program Settings File CREATED.
FALSE -- AC data not excluded
FALSE -- DC data not excluded
FALSE -- Phase data not excluded
FALSE -- Auxillary Chn. data not excluded
Tab delimiters

#CALIBRATION STATE
TRUE -- Waveform Calibration Values APPLIED.


#AUX CALIBRATION VALUES
Val Type	aux-1	

Term	1.0000e+00	
Factor	0.0000e+00	


#WF CALIBRATION VALUES
A = Detector Channel
Val Type	A-AC1	A-AC2	A-AC3	A-AC4	A-AC5	A-AC6	A-AC7	A-AC8	A-AC9	A-AC10	A-AC11	A-AC12	A-AC13	A-AC14	A-AC15	A-AC16	A-DC1	A-DC2	A-DC3	A-DC4	A-DC5	A-DC6	A-DC7	A-DC8	A-DC9	A-DC10	A-DC11	A-DC12	A-DC13	A-DC14	A-DC15	A-DC16	A-Ph1	A-Ph2	A-Ph3	A-Ph4	A-Ph5	A-Ph6	A-Ph7	A-Ph8	A-Ph9	A-Ph10	A-Ph11	A-Ph12	A-Ph13	A-Ph14	A-Ph15	A-Ph16	

Term	0.00000e+00	0.00000e+00	0.00000e+00	0.00000e+00	0.00000e+00	0.00000e+00	0.00000e+00	0.00000e+00	0.00000e+00	0.00000e+00	0.00000e+00	0.00000e+00	0.00000e+00	0.00000e+00	0.00000e+00	0.00000e+00	0.00000e+00	0.00000e+00	0.00000e+00	0.00000e+00	0.00000e+00	0.00000e+00	0.00000e+00	0.00000e+00	0.00000e+00	0.00000e+00	0.00000e+00	0.00000e+00	0.00000e+00	0.00000e+00	0.00000e+00	0.00000e+00	0.00000e+00	0.00000e+00	0.00000e+00	0.00000e+00	0.00000e+00	0.00000e+00	0.00000e+00	0.00000e+00	0.00000e+00	0.00000e+00	0.00000e+00	0.00000e+00	0.00000e+00	0.00000e+00	0.00000e+00	0.00000e+00	
Factor	1.00000e+00	1.00000e+00	1.00000e+00	1.00000e+00	1.00000e+00	1.00000e+00	1.00000e+00	1.00000e+00	1.00000e+00	1.00000e+00	1.00000e+00	1.00000e+00	1.00000e+00	1.00000e+00	1.00000e+00	1.00000e+00	1.00000e+00	1.00000e+00	1.00000e+00	1.00000e+00	1.00000e+00	1.00000e+00	1.00000e+00	1.00000e+00	1.00000e+00	1.00000e+00	1.00000e+00	1.00000e+00	1.00000e+00	1.00000e+00	1.00000e+00	1.00000e+00	X	X	X	X	X	X	X	X	X	X	X	X	X	X	X	X	

B = Detector Channel
Val Type	B-AC1	B-AC2	B-AC3	B-AC4	B-AC5	B-AC6	B-AC7	B-AC8	B-AC9	B-AC10	B-AC11	B-AC12	B-AC13	B-AC14	B-AC15	B-AC16	B-DC1	B-DC2	B-DC3	B-DC4	B-DC5	B-DC6	B-DC7	B-DC8	B-DC9	B-DC10	B-DC11	B-DC12	B-DC13	B-DC14	B-DC15	B-DC16	B-Ph1	B-Ph2	B-Ph3	B-Ph4	B-Ph5	B-Ph6	B-Ph7	B-Ph8	B-Ph9	B-Ph10	B-Ph11	B-Ph12	B-Ph13	B-Ph14	B-Ph15	B-Ph16	

Term	0.00000e+00	0.00000e+00	0.00000e+00	0.00000e+00	0.00000e+00	0.00000e+00	0.00000e+00	0.00000e+00	0.00000e+00	0.00000e+00	0.00000e+00	0.00000e+00	0.00000e+00	0.00000e+00	0.00000e+00	0.00000e+00	0.00000e+00	0.00000e+00	0.00000e+00	0.00000e+00	0.00000e+00	0.00000e+00	0.00000e+00	0.00000e+00	0.00000e+00	0.00000e+00	0.00000e+00	0.00000e+00	0.00000e+00	0.00000e+00	0.00000e+00	0.00000e+00	-1.33287e+02	-1.33058e+02	-1.22415e+02	-1.83602e+02	-6.63235e+01	-6.86494e+01	-1.58175e+02	-1.62015e+02	-6.98326e+01	-6.27199e+01	-1.70709e+02	-1.71243e+02	-1.78816e+02	-1.76819e+02	-7.21941e+01	-1.49827e+02	
Factor	1.98011e-05	1.68726e-04	4.68094e-05	1.72646e-01	1.25001e-06	1.72005e-06	1.91519e-01	5.90140e-02	1.19171e-06	1.73739e-06	9.70808e-02	3.25887e-02	3.02680e-02	1.03601e-02	1.44427e-06	1.45597e-02	1.17642e-05	1.95404e-05	5.41394e-06	8.28772e-02	1.95271e-07	2.18153e-07	8.65750e-02	2.84976e-02	1.98045e-07	2.18247e-07	4.54550e-02	1.53416e-02	1.48428e-02	5.03973e-03	2.04727e-07	6.86683e-03	X	X	X	X	X	X	X	X	X	X	X	X	X	X	X	X	



#DISTANCE SETTINGS
A = Detector Channel
A-1	A-2	A-3	A-4	A-5	A-6	A-7	A-8	A-9	A-10	A-11	A-12	A-13	A-14	A-15	A-16	

2.5000e+00	3.0000e+00	2.5000e+00	3.0000e+00	2.0000e+00	3.0000e+00	1.5000e+00	3.0000e+00	3.0000e+00	3.0000e+00	3.0000e+00	3.0000e+00	3.0000e+00	3.0000e+00	1.5000e+00	3.0000e+00	

B = Detector Channel
B-1	B-2	B-3	B-4	B-5	B-6	B-7	B-8	B-9	B-10	B-11	B-12	B-13	B-14	B-15	B-16	

1.0000e+01	1.0000e+01	1.0000e+01	1.4400e+00	1.0000e+01	1.0000e+01	1.5100e+00	1.9400e+00	1.0000e+01	1.0000e+01	1.9900e+00	2.4900e+00	2.4100e+00	2.9000e+00	1.0000e+01	2.9800e+00	




#DATA BEGINS
time	group	step	mark	flag	A-AC1	A-AC2	A-AC3	A-AC4	A-AC5	A-AC6	A-AC7	A-AC8	A-AC9	A-AC10	A-AC11	A-AC12	A-AC13	A-AC14	A-AC15	A-AC16	A-DC1	A-DC2	A-DC3	A-DC4	A-DC5	A-DC6	A-DC7	A-DC8	A-DC9	A-DC10	A-DC11	A-DC12	A-DC13	A-DC14	A-DC15	A-DC16	A-Ph1	A-Ph2	A-Ph3	A-Ph4	A-Ph5	A-Ph6	A-Ph7	A-Ph8	A-Ph9	A-Ph10	A-Ph11	A-Ph12	A-Ph13	A-Ph14	A-Ph15	A-Ph16	B-AC1	B-AC2	B-AC3	B-AC4	B-AC5	B-AC6	B-AC7	B-AC8	B-AC9	B-AC10	B-AC11	B-AC12	B-AC13	B-AC14	B-AC15	B-AC16	B-DC1	B-DC2	B-DC3	B-DC4	B-DC5	B-DC6	B-DC7	B-DC8	B-DC9	B-DC10	B-DC11	B-DC12	B-DC13	B-DC14	B-DC15	B-DC16	B-Ph1	B-Ph2	B-Ph3	B-Ph4	B-Ph5	B-Ph6	B-Ph7	B-Ph8	B-Ph9	B-Ph10	B-Ph11	B-Ph12	B-Ph13	B-Ph14	B-Ph15	B-Ph16	aux-1	digaux	

58011.184	1	1	0	256	0.25337	0.055692	0.080657	0.16526	0.18097	0.048997	0.10457	0.036579	0.11582	0.050004	0.17136	0.060232	0.046168	0.012986	0.18242	0.11574	-3.8563	-3.8167	-4.6479	-3.9833	-4.2083	-4.6729	-3.8312	-4.5417	-4.2917	-3.7042	-4.6167	-3.975	-3.9354	-4.5062	-3.7062	-4.5146	304.186	138.005	304.962	430.152	309.040	243.476	413.056	437.654	205.601	405.405	195.102	395.984	440.012	352.676	372.063	325.293	0.00047535	0.00040745	0.00016787	1120.9	3.3043e-06	9.3482e-06	1420	304.03	5.4736e-06	3.9683e-06	455.53	135.32	77.249	21.661	8.7181e-07	49.942	0.001671	0.0024358	0.0006757	1076.9	2.4551e-05	2.7832e-05	1366.5	293.59	2.5302e-05	2.7177e-05	443.09	131.08	75.728	21.483	2.6653e-05	49.132	162.938	118.469	165.215	95.620	298.438	237.286	95.216	99.776	217.305	229.506	98.999	103.281	103.268	108.561	279.985	107.003	-8191	255	
58011.277	1	1	0	0	0.12746	0.15837	0.35474	0.21947	0.1519	0.1723	0.25227	0.31818	0.18535	0.09396	0.14675	0.24042	0.13327	0.20633	0.091314	0.043245	-4.0771	-3.7542	-4.5771	-3.9917	-4.0583	-4.6729	-3.9021	-4.4875	-4.3042	-3.7687	-4.6792	-4.0792	-3.975	-4.6104	-3.6792	-4.1667	425.250	195.649	362.653	411.121	210.017	158.835	354.925	424.419	395.850	328.341	435.999	426.770	441.146	111.514	403.221	158.512	0.00049961	0.00019347	0.00019272	1124.7	1.0962e-05	5.172e-06	1424.4	304.86	3.254e-06	7.0014e-06	458.22	135.01	77.51	21.701	2.5805e-06	50.343	0.001693	0.0025352	0.00067916	1081.6	2.5468e-05	2.7708e-05	1372.8	294.53	2.5753e-05	2.7888e-05	444.69	131.71	75.662	21.528	2.6089e-05	49.207	171.894	219.029	187.131	95.737	223.737	277.292	95.407	99.569	276.830	180.878	98.774	103.129	103.656	108.140	299.873	106.882	-8191	255	
58011.375	1	1	0	0	0.12559	0.1371	0.18299	0.15919	0.12151	0.13743	0.21814	0.08732	0.0052873	0.23242	0.12616	0.26857	0.26803	0.094582	0.049663	0.14027	-4.2021	-3.5875	-4.5375	-4.1188	-3.65	-4.5354	-4.1312	-4.2167	-4.4854	-3.6958	-4.6	-4.3854	-3.8396	-4.775	-3.7229	-4.3396	166.190	200.758	343.605	110.043	204.305	91.605	329.131	362.285	394.066	371.631	372.527	410.125	413.203	318.827	204.986	142.961	0.00052126	0.00098472	7.8305e-05	1121	5.1994e-06	3.7494e-06	1410	300.18	1.6342e-06	5.8628e-06	451.58	132.63	75.544	21.079	5.4474e-06	49.158	0.0016877	0.0024635	0.00069456	1073.6	2.4981e-05	2.7177e-05	1358.4	291.33	2.5415e-05	2.7547e-05	438.63	129.22	74.278	21.019	2.5973e-05	48.217	163.151	187.111	172.368	95.651	245.675	278.271	95.466	99.189	228.218	382.660	98.782	103.031	103.396	108.640	241.237	106.956	-8191	255	
58011.473	1	1	0	0	0.16139	0.23096	0.12733	0.27406	0.22131	0.034155	0.046402	0.13762	0.13285	0.16929	0.13819	0.21074	0.085035	0.041169	0.12553	0.39451	-4.1312	-3.675	-4.3771	-4.4333	-3.8063	-4.5229	-4.0333	-4.025	-4.6375	-3.6625	-4.5	-4.4812	-3.8312	-4.6146	-3.9062	-3.95	125.760	334.890	218.560	86.127	190.755	352.423	352.611	433.634	163.397	229.026	438.548	436.726	251.772	156.173	215.898	408.731	0.00053054	0.0010208	0.00014775	1114.9	2.513e-06	5.2332e-06	1421.1	303.41	4.3255e-06	5.5269e-06	458.88	133.42	76.513	21.552	5.4869e-06	50.008	0.0016957	0.0025205	0.00067556	1072.2	2.5367e-05	2.8068e-05	1363.8	292.29	2.5533e-05	2.7921e-05	443.21	130.19	75.24	21.308	2.6698e-05	48.896	162.559	145.104	170.680	95.695	260.876	184.721	95.258	99.198	265.825	310.793	98.646	102.891	103.362	108.583	175.654	107.270	-8191	255	
58011.594	1	1	0	0	0.18418	0.15316	0.08725	0.30037	0.096893	0.026744	0.018855	0.29049	0.008589	0.12746	0.084255	0.07987	0.084622	0.2401	0.24743	0.33891	-4.3562	-3.5646	-4.4479	-4.4896	-3.7667	-4.5062	-4.1854	-4.0312	-4.5729	-3.7833	-4.375	-4.6521	-3.8521	-4.6188	-4.0958	-3.9938	305.225	393.226	198.759	406.624	91.864	420.793	371.344	333.411	229.056	227.090	397.503	383.457	207.274	218.778	417.141	104.611	0.00049659	0.00077769	0.00020825	1117.9	2.3528e-06	9.8089e-06	1421.7	302.7	2.5786e-06	6.4259e-06	455.43	134.72	77.141	21.71	9.8928e-06	50.699	0.0017013	0.0025375	0.00069708	1074.8	2.5477e-05	2.7765e-05	1368	292.75	2.5594e-05	2.7752e-05	443.5	131.55	75.57	21.574	2.6971e-05	49.548	163.450	142.508	162.813	95.646	186.902	238.955	95.604	99.327	270.724	233.436	98.732	102.740	103.864	107.941	224.174	106.998	-8191	255	
58011.664	1	1	0	0	0.14031	0.18836	0.092216	0.20005	0.33211	0.076527	0.24768	0.072983	0.13901	0.078185	0.2155	0.14733	0.07113	0.17422	0.15399	0.059061	-4.3708	-3.8104	-4.1687	-4.5813	-3.5646	-4.5167	-4.4167	-4.0312	-4.6667	-4.0042	-4.125	-4.7875	-3.7125	-4.5188	-4.3438	-3.8792	273.495	273.389	391.094	429.302	228.543	323.478	407.313	215.240	136.824	261.373	411.065	398.366	244.061	305.188	246.425	205.020	0.00039671	0.00043824	0.00012658	1126.1	4.797e-06	3.9333e-06	1427	303.63	5.456e-06	6.8879e-06	457.65	133.31	76.075	21.14	3.3541e-06	49.557	0.0016801	0.0025174	0.00069897	1081.7	2.5368e-05	2.7737e-05	1368.6	292.89	2.4992e-05	2.8172e-05	442.8	129.62	74.473	21.091	2.6307e-05	48.377	160.911	149.610	125.710	95.729	225.717	183.404	95.390	99.505	226.803	246.902	98.608	102.954	103.688	108.267	196.760	107.114	-8191	255	
58011.762	1	1	0	0	0.10137	0.22726	0.11423	0.40017	0.39544	0.049438	0.33388	0.10521	0.11643	0.052263	0.25232	0.10952	0.15016	0.15425	0.053406	0.22912	-4.1438	-3.8917	-4.0208	-4.7375	-3.5604	-4.2354	-4.4917	-3.8063	-4.6604	-3.9313	-4.0104	-4.5813	-3.7062	-4.5146	-4.4646	-3.7938	385.990	421.808	143.492	427.075	341.575	213.773	97.952	175.216	181.705	276.056	393.751	323.138	340.676	260.989	386.897	412.995	0.00050171	0.00019143	0.00024691	1119.2	2.5295e-06	4.4731e-06	1409.3	301.27	5.7631e-06	9.2626e-06	456.05	132.59	75.918	21.088	5.1047e-06	49.715	0.0016803	0.0025121	0.00068389	1072.3	2.5303e-05	2.6893e-05	1359.8	289.91	2.5303e-05	2.79e-05	438.56	129.06	74.177	21.038	2.6604e-05	48.57	165.160	94.530	153.714	95.695	210.765	179.887	95.629	99.547	252.230	274.402	98.544	102.842	103.724	108.655	260.416	107.004	-8191	255	
58011.879	1	1	0	0	0.10547	0.15059	0.25308	0.081501	0.026337	0.10045	0.30013	0.21142	0.1994	0.12514	0.062835	0.10811	0.34568	0.062331	0.18169	0.034828	-4.1542	-4.1	-4.0604	-4.8562	-3.8458	-4.3667	-4.6083	-3.7313	-4.6083	-3.9604	-3.8604	-4.6271	-3.8854	-4.2562	-4.6417	-3.5563	198.389	153.698	394.255	364.384	347.217	301.477	316.113	323.334	210.305	232.929	351.090	389.004	411.320	218.932	292.685	168.262	0.00048588	0.00030739	3.6909e-05	1113.6	6.4822e-06	3.6085e-06	1417	303.48	4.881e-06	3.8169e-06	457.8	134.22	76.529	21.431	3.9381e-06	50.205	0.0016775	0.0025572	0.00069848	1073	2.4766e-05	2.7614e-05	1364.5	292.3	2.5443e-05	2.7762e-05	442.38	130.56	75.024	21.304	2.6768e-05	49.058	168.939	113.664	229.185	95.760	204.904	225.736	95.471	99.428	215.544	160.233	98.744	103.241	103.706	108.610	226.072	107.047	-8191	255	
58011.977	1	1	0	0	0.11352	0.083246	0.19513	0.063476	0.20766	0.15799	0.26471	0.080006	0.12129	0.17794	0.071963	0.052473	0.015098	0.28841	0.22752	0.066246	-4.1792	-4.2167	-3.6479	-4.725	-3.775	-4.1333	-4.8083	-3.7292	-4.3187	-4.3417	-3.9708	-4.7	-3.9646	-4.0563	-4.5417	-3.8563	155.072	369.718	373.480	382.712	118.780	329.894	352.470	81.710	116.152	349.563	271.405	96.156	97.418	313.883	323.399	114.148	0.0004767	0.00098442	5.8613e-05	1122.6	2.867e-06	6.5819e-06	1427.9	303.83	6.809e-06	8.0965e-06	459.32	135.55	77.046	21.798	4.1612e-06	50.376	0.0016917	0.0025413	0.00069143	1079.7	2.5816e-05	2.8455e-05	1372.4	294.46	2.5399e-05	2.8321e-05	445.45	132	75.701	21.595	2.6552e-05	49.346	168.531	143.259	167.585	95.793	302.380	246.054	95.405	99.462	232.703	297.341	98.879	102.957	103.517	108.225	240.649	107.164	-8191	255	
58012.070	1	1	0	0	0.14037	0.088412	0.071146	0.078072	0.091052	0.24829	0.21367	0.088476	0.14439	0.14511	0.12065	0.2089	0.024318	0.37686	0.14107	0.22144	-3.9938	-4.3271	-3.7	-4.7417	-3.9167	-3.8375	-4.7479	-3.8125	-4.3167	-4.3583	-3.7792	-4.5458	-3.925	-4.0083	-4.525	-3.8917	295.065	361.562	407.280	374.300	377.710	319.492	397.047	331.057	101.794	101.647	265.636	146.363	390.207	380.895	253.955	393.425	0.00051409	0.0008323	6.3383e-05	1119.8	3.8442e-06	3.7176e-06	1423	302.37	6.5392e-06	4.1992e-06	453.86	132.79	75.475	21.18	5.8845e-06	49.088	0.0017111	0.0024809	0.00069171	1078.7	2.5519e-05	2.8007e-05	1367.2	291.61	2.5407e-05	2.7622e-05	439.33	129.04	74.256	20.962	2.5495e-05	48.113	163.071	165.073	106.867	95.754	250.447	195.530	95.498	99.259	212.471	243.791	98.705	102.837	103.680	108.145	205.252	107.498	-8191	255	
58012.168	1	1	0	0	0.16844	0.1426	0.082681	0.20776	0.09348	0.13445	0.09718	0.15269	0.16253	0.24346	0.19758	0.1069	0.25696	0.045005	0.098461	0.17361	-4.0875	-4.5125	-3.8208	-4.6708	-4.0354	-3.8688	-4.7354	-3.7792	-4.1104	-4.4771	-3.7083	-4.5375	-4.2167	-3.7396	-4.5958	-4.0021	253.916	117.562	298.439	125.439	94.776	234.622	133.580	414.390	334.582	179.085	119.591	256.769	428.808	391.948	132.800	286.158	0.00044251	0.00048946	0.00033381	1116.6	5.4492e-06	2.5046e-07	1422.4	303.1	2.8965e-06	6.0985e-06	453.01	133.48	75.968	21.301	3.4875e-06	49.642	0.0017387	0.002548	0.00070629	1076.7	2.5849e-05	2.7596e-05	1365.8	291.72	2.6048e-05	2.8315e-05	439.55	129.42	74.501	21.124	2.6138e-05	48.711	170.374	210.227	150.971	95.558	254.015	176.725	95.295	99.609	239.790	281.290	98.637	102.833	103.484	108.223	204.229	106.915	-8191	255	
58012.262	1	1	0	0	0.18127	0.19404	0.20744	0.22351	0.29092	0.22866	0.10859	0.18843	0.037545	0.20474	0.23714	0.12415	0.19002	0.11799	0.30871	0.1602	-3.7167	-4.6083	-3.7188	-4.6083	-4.1396	-3.9562	-4.875	-3.9917	-3.8521	-4.5771	-3.9979	-4.4563	-4.3083	-3.7438	-4.5583	-4.0667	174.111	408.537	288.566	441.146	172.716	373.101	390.363	330.223	358.552	414.975	107.389	330.066	356.662	128.719	169.161	339.781	0.00046117	0.00033982	0.00022149	1122.8	4.6027e-06	5.9162e-06	1414.5	300.93	5.2631e-06	7.9438e-06	455.06	134.26	76.664	21.725	6.3354e-06	50.4	0.001713	0.0025072	0.00069346	1077.3	2.5743e-05	2.8442e-05	1364.5	291.73	2.5721e-05	2.8031e-05	441.41	130.78	75.168	21.508	2.6421e-05	49.447	169.096	165.001	185.516	95.719	272.945	218.744	95.520	99.500	220.831	251.253	98.825	102.773	103.972	108.560	249.935	106.663	-8191	255	
58012.359	1	1	0	0	0.26022	0.27998	0.15167	0.22451	0.17622	0.090215	0.17912	0.14601	0.17278	0.042286	0.094629	0.075519	0.15386	0.23412	0.13054	0.14458	-3.5833	-4.5375	-3.6937	-4.4271	-4.3375	-3.7729	-4.6479	-3.9896	-3.85	-4.6625	-3.9396	-4.3417	-4.45	-3.8271	-4.4938	-4.3187	139.898	108.756	241.545	385.078	99.040	349.547	418.000	332.446	99.673	198.617	294.622	340.675	403.916	145.386	366.848	342.161	0.00050713	0.00029905	0.0002599	1125.8	3.3532e-06	3.8338e-06	1425.2	301.37	6.12e-06	2.5453e-06	452.27	132.89	76.572	21.348	5.2241e-06	49.942	0.0017132	0.0025067	0.00068763	1080.6	2.5698e-05	2.8175e-05	1369.6	291.91	2.5474e-05	2.773e-05	440.18	129.93	74.624	21.181	2.5838e-05	48.691	163.907	167.130	172.433	95.790	250.019	250.861	95.327	99.355	222.088	248.707	99.144	102.725	103.795	108.782	250.387	107.285	-8191	255	
58012.457	1	1	0	0	0.10508	0.19927	0.30151	0.27827	0.13827	0.20664	0.1522	0.13523	0.091624	0.22024	0.093785	0.10571	0.37831	0.11282	0.15694	0.23893	-3.5812	-4.6771	-3.7708	-4.1125	-4.45	-3.8271	-4.6104	-4.2542	-3.9354	-4.525	-4.1271	-4.0958	-4.6458	-3.625	-4.5813	-4.3979	349.224	212.758	259.026	352.428	116.418	98.545	409.509	396.764	386.008	130.248	320.814	431.379	435.462	332.241	254.767	440.757	0.00044119	0.00048991	0.00020471	1114.1	5.1689e-06	4.2686e-06	1411.5	299.74	1.6385e-06	2.6488e-06	452.77	132.52	75.464	21.391	7.8095e-06	49.637	0.0017164	0.0024847	0.00070567	1071.1	2.5266e-05	2.7894e-05	1357.2	289.34	2.5803e-05	2.749e-05	437.92	128.96	74.113	21.125	2.6066e-05	48.696	168.130	198.757	210.271	95.592	257.636	193.208	95.376	99.491	267.392	244.321	98.704	102.976	103.741	108.220	246.334	107.244	-8191	255	
58012.551	1	1	0	0	0.20302	0.13302	0.095029	0.15653	0.14522	0.14408	0.17182	0.20023	0.22046	0.090349	0.15295	0.14015	0.179	0.15276	0.22445	0.04565	-3.3958	-4.6208	-3.775	-4.1667	-4.5771	-3.6	-4.4313	-4.3979	-3.8438	-4.475	-3.9333	-4.1396	-4.6146	-3.8521	-4.3812	-4.3708	420.806	364.377	403.864	83.528	144.605	110.102	364.232	440.377	384.694	236.516	83.217	183.744	284.474	394.271	243.614	179.188	0.00050566	0.00075071	0.00033889	1115	1.1864e-06	4.1491e-06	1419.5	301.82	1.7827e-06	3.1627e-06	456.48	133.72	76.783	21.792	5.0344e-06	50.426	0.0016983	0.0024673	0.00070538	1074.7	2.4996e-05	2.7978e-05	1365.3	291.13	2.6319e-05	2.7717e-05	442.6	130.51	74.9	21.49	2.662e-05	49.432	162.848	148.530	176.262	95.457	214.576	202.488	95.581	99.356	232.041	246.729	99.174	102.968	103.602	108.319	217.152	107.256	-8191	255	
58012.672	1	1	0	0	0.18079	0.071786	0.20212	0.019344	0.31037	0.22803	0.058439	0.048501	0.21379	0.15709	0.22183	0.096917	0.033864	0.17323	0.071161	0.040673	-3.2771	-4.5312	-4.0583	-4.0729	-4.4812	-3.7	-4.3958	-4.5479	-3.6979	-4.4667	-4.1542	-3.9083	-4.5708	-3.8312	-4.2104	-4.5729	253.036	277.639	181.613	416.515	425.745	316.911	302.053	90.955	262.430	266.070	104.238	94.300	406.930	141.294	91.349	283.044	0.00050442	0.00060366	0.0002374	1131.7	5.5637e-06	8.9716e-06	1431.8	302.64	6.7093e-06	7.0007e-06	458.46	135.02	77.294	21.897	2.8317e-06	50.779	0.0017352	0.0025162	0.0007066	1083.7	2.5451e-05	2.8807e-05	1373.7	293.76	2.6619e-05	2.7924e-05	444.88	131.88	75.503	21.722	2.6792e-05	49.699	165.630	148.740	179.637	95.654	236.897	246.712	95.522	99.624	218.861	278.463	99.212	102.783	103.282	107.898	179.511	107.213	-8191	255	
58012.766	1	1	0	0	0.21484	0.14705	0.027941	0.23919	0.052519	0.13062	0.046153	0.12413	0.061411	0.097672	0.047302	0.046941	0.20949	0.17497	0.097329	0.1782	-3.3729	-4.5771	-4.1438	-3.9938	-4.6042	-3.8979	-4.2771	-4.6083	-3.5375	-4.4021	-4.4938	-3.8854	-4.8229	-3.8292	-4.0333	-4.6625	301.414	329.541	291.693	107.956	88.653	264.426	285.953	333.171	313.447	235.493	221.186	287.464	370.423	94.582	394.247	81.974	0.00049518	0.00064888	0.00017503	1124.6	5.7304e-07	6.5461e-06	1420.9	300.43	5.2146e-06	9.237e-06	454.88	132.36	75.97	21.246	4.0796e-06	49.224	0.0017737	0.0025477	0.00071015	1078.5	2.4886e-05	2.8028e-05	1362	290.69	2.5832e-05	2.8023e-05	439.08	129.03	74.18	21.102	2.569e-05	48.473	175.127	187.566	211.634	95.534	299.009	374.432	95.277	99.826	241.366	246.550	98.704	102.860	103.190	108.396	217.933	107.501	-8191	255	
58012.863	1	1	0	0	0.080142	0.13517	0.1125	0.15493	0.17171	0.17761	0.23183	0.18064	0.22015	0.10576	0.12698	0.20051	0.13828	0.43692	0.084251	0.18912	-3.3229	-4.4688	-4.1875	-3.7729	-4.6896	-3.9583	-4.1271	-4.7875	-3.5187	-4.2083	-4.4396	-3.6813	-4.5646	-4.1729	-3.8563	-4.6833	222.208	202.579	243.173	433.804	304.983	346.214	378.737	103.947	367.390	218.753	400.689	385.522	432.387	352.346	147.424	335.098	0.00047953	0.00058584	0.00022343	1108.9	3.3738e-06	5.0242e-06	1413.3	300.79	1.0774e-06	4.8473e-06	454.97	132.49	75.486	21.45	3.5464e-06	50.018	0.0016667	0.0024811	0.00069298	1070.3	2.5004e-05	2.8151e-05	1359.9	289.64	2.5405e-05	2.7577e-05	439.91	129.2	74.313	21.328	2.6228e-05	49.08	167.602	124.525	193.548	95.700	206.247	259.283	95.486	99.412	245.228	231.339	99.044	102.736	103.701	108.408	172.243	106.703	-8191	255	
58012.961	1	1	0	0	0.23177	0.1942	0.17462	0.15469	0.031543	0.21812	0.13965	0.13395	0.24192	0.16296	0.16595	0.28465	0.30073	0.062268	0.1657	0.1856	-3.6271	-4.2667	-4.2937	-3.6854	-4.4375	-3.9042	-3.9313	-4.6292	-3.8438	-4.2312	-4.425	-3.7062	-4.3771	-4.125	-3.6437	-4.6208	290.208	157.449	118.648	382.126	273.769	369.044	240.253	269.710	384.603	264.758	86.802	382.908	329.936	194.507	414.396	395.720	0.00054476	0.00039466	0.0003158	1122.6	5.9432e-06	9.4385e-06	1422.4	302.93	4.1781e-06	4.5357e-06	455.03	133.85	76.1	21.796	2.7409e-06	50.982	0.0017128	0.0025265	0.00069982	1078.1	2.5333e-05	2.7784e-05	1368.1	291.89	2.6155e-05	2.7849e-05	441.87	130.74	74.975	21.523	2.6116e-05	49.801	164.432	151.965	142.222	95.834	235.500	256.300	95.647	99.758	270.377	221.279	98.955	102.622	103.441	108.264	271.128	107.342	-8191	255	
58013.055	1	1	0	0	0.16809	0.15548	0.2205	0.16892	0.16395	0.26363	0.050209	0.13894	0.074016	0.063352	0.056053	0.14057	0.084223	0.12457	0.1504	0.077836	-3.5479	-4.0354	-4.4938	-3.8875	-4.3187	-4.1729	-3.8896	-4.8229	-3.7812	-3.9875	-4.6333	-3.7396	-4.5125	-4.3958	-3.7771	-4.7937	283.347	195.934	399.312	355.622	84.600	427.428	315.335	92.716	376.537	294.418	133.688	294.248	296.406	123.671	134.244	373.662	0.00045797	0.00030976	2.0733e-05	1126.2	5.8109e-06	6.0171e-06	1423.3	304.15	5.6854e-06	5.7549e-06	458.82	134.21	76.56	21.814	4.5144e-06	50.306	0.0017664	0.00252	0.00068503	1083.1	2.5589e-05	2.7819e-05	1372.4	293.23	2.6038e-05	2.805e-05	443.58	130.76	75.085	21.504	2.5773e-05	49.452	161.966	165.723	262.364	95.647	187.705	247.825	95.672	99.501	196.856	226.436	98.796	102.915	103.798	108.523	268.402	107.185	-8191	255	
58013.176	1	1	0	0	0.16765	0.19592	0.38654	0.081652	0.15094	0.10492	0.022079	0.27857	0.17062	0.25907	0.31659	0.090121	0.031575	0.10791	0.20063	0.14594	-3.5458	-3.8708	-4.5062	-3.8104	-4.4062	-4.4021	-4.0521	-4.6083	-4.0938	-3.8688	-4.7125	-3.8063	-4.2812	-4.5521	-3.7438	-4.575	368.199	258.205	276.812	414.469	321.399	378.192	390.840	396.389	264.454	116.916	276.628	248.463	142.542	159.387	220.030	205.784	0.00043734	0.00031193	0.00013145	1110.9	1.7307e-06	2.9516e-06	1414.5	299.4	1.4529e-06	6.3522e-06	452.93	131.79	75.386	21.408	9.999e-07	49.876	0.0017304	0.0025063	0.00067859	1073.5	2.4601e-05	2.7623e-05	1355.2	289.58	2.6019e-05	2.7932e-05	438.98	128.92	73.811	21.249	2.6143e-05	48.945	169.562	192.308	178.133	95.687	226.816	292.240	95.292	99.562	151.856	238.920	98.711	103.389	103.471	108.592	216.611	107.153	-8191	255	
58013.273	1	1	0	0	0.25984	0.095732	0.21353	0.18238	0.17057	0.18834	0.44557	0.15185	0.27201	0.21034	0.17537	0.28282	0.16979	0.1263	0.043543	0.11101	-3.8771	-3.9521	-4.5208	-4.1021	-4.1396	-4.5208	-3.7104	-4.5188	-4.2292	-3.8792	-4.6667	-3.925	-4.1208	-4.5687	-3.7021	-4.7229	357.484	111.163	175.036	323.187	343.388	209.551	363.828	414.821	359.576	200.192	299.874	111.638	346.112	111.958	110.353	284.071	0.00046591	0.00030357	0.000167	1118	7.2942e-06	4.4931e-06	1416.9	302.12	6.0633e-06	5.7953e-06	451.92	133.79	76.146	21.724	5.9095e-06	50.842	0.0017316	0.0024881	0.0006634	1075.6	2.5334e-05	2.7761e-05	1360.4	290.92	2.5944e-05	2.7867e-05	440.63	130.16	74.489	21.467	2.6186e-05	49.738	173.133	158.454	202.259	95.735	238.857	182.729	95.619	99.801	246.726	262.742	98.975	102.734	103.483	108.602	217.777	107.227	-8191	255	
58013.367	1	1	0	0	0.30676	0.25314	0.20002	0.16735	0.11023	0.12185	0.22532	0.060707	0.14115	0.28337	0.45882	0.043743	0.1199	0.28509	0.11051	0.052501	-3.8917	-3.7625	-4.6021	-4.1771	-3.9875	-4.4833	-3.8771	-4.25	-4.2562	-3.8917	-4.5813	-4.1562	-4.0292	-4.6438	-3.7271	-4.375	275.202	263.023	424.122	394.281	416.086	439.019	348.363	298.714	440.688	421.657	319.050	85.937	261.178	393.758	123.607	386.935	0.00054178	0.00033674	0.00019638	1117.8	5.0136e-06	7.8252e-06	1412.9	302.43	4.5927e-06	1.0671e-05	456.94	133.84	76.125	21.904	5.7652e-06	51.211	0.0017317	0.0024848	0.00068381	1073.4	2.5923e-05	2.7396e-05	1359.6	291.25	2.6111e-05	2.7904e-05	442.48	130.82	74.656	21.716	2.6973e-05	50.388	159.558	152.943	212.225	95.835	247.410	226.870	95.150	99.721	233.684	240.489	99.143	102.877	103.451	108.448	230.776	107.441	-8191	255	
58013.465	1	1	0	0	0.30436	0.14368	0.24912	0.21902	0.21574	0.1981	0.36699	0.14186	0.21024	0.040964	0.21197	0.1091	0.086155	0.10719	0.26741	0.25611	-4.1354	-3.6521	-4.8042	-4.1562	-3.9229	-4.4958	-3.9521	-4.4125	-4.4208	-3.7396	-4.6062	-4.1896	-3.6937	-4.825	-3.8708	-4.0833	319.389	416.649	407.121	81.599	188.160	358.309	390.747	309.115	262.928	321.988	116.141	398.568	339.480	355.251	417.956	108.055	0.00049004	0.00062232	0.00026384	1106.4	4.3129e-06	5.1523e-06	1396.9	296.73	6.6514e-06	7.4029e-06	450.37	131.21	74.237	21.513	1.6249e-06	50.304	0.0017343	0.0024999	0.0006789	1064.6	2.5194e-05	2.7494e-05	1344.9	287	2.537e-05	2.7398e-05	434.8	128	72.532	21.252	2.5922e-05	49.23	164.792	144.890	173.379	95.486	259.541	258.270	95.489	99.454	229.751	230.532	98.906	103.070	103.595	109.611	218.827	107.288	-8191	255	
58013.559	1	1	0	0	0.060244	0.19433	0.1274	0.12306	0.091892	0.10359	0.23005	0.16883	0.13672	0.26252	0.14068	0.15465	0.12879	0.12776	0.15536	0.041297	-4.225	-3.7125	-4.5417	-4.3313	-3.6521	-4.5312	-4.2229	-4.3417	-4.6062	-3.7875	-4.6729	-4.2771	-3.8604	-4.6042	-3.7417	-4.1729	119.320	237.862	332.239	435.123	160.314	280.872	397.150	86.882	128.510	84.643	360.398	402.087	401.136	271.518	239.299	259.419	0.00047019	0.00035638	0.00022493	1093.5	6.6076e-06	6.2569e-06	1391.2	295.25	7.092e-06	3.613e-06	450.86	130.89	74.579	21.433	1.6857e-06	50.359	0.0016715	0.0024625	0.00068677	1054	2.4535e-05	2.7128e-05	1337.7	285.33	2.5115e-05	2.7679e-05	435.31	127.91	72.961	21.283	2.6399e-05	49.506	166.040	143.909	195.103	95.933	237.899	233.816	95.410	99.731	240.690	83.545	99.229	103.517	103.399	108.714	375.896	107.221	-8191	255	
58013.656	1	1	0	0	0.26328	0.096635	0.18335	0.197	0.20451	0.080234	0.30527	0.33631	0.2936	0.13379	0.38864	0.075012	0.40564	0.12462	0.026576	0.19147	-4.1979	-3.6875	-4.3042	-4.3354	-3.7021	-4.6354	-4.1542	-4.0625	-4.5271	-3.7938	-4.5687	-4.5437	-3.7958	-4.65	-4.1333	-3.9188	422.972	405.709	282.326	147.948	327.302	105.705	423.822	354.981	131.096	250.585	387.753	94.510	147.083	151.525	436.305	145.784	0.00055104	0.00073231	0.00017787	1115.5	5.096e-06	9.2225e-06	1401.3	296.88	4.7633e-06	5.4703e-06	450.64	132.38	74.824	21.661	6.0898e-06	51.169	0.0016708	0.0025199	0.00068987	1064.3	2.4743e-05	2.7069e-05	1346.9	287.85	2.5013e-05	2.7453e-05	437.69	129.74	73.756	21.478	2.6736e-05	49.963	161.489	217.185	159.707	95.824	213.866	230.073	95.328	99.572	251.444	196.951	99.068	102.876	103.745	108.805	255.403	106.942	-8191	255	
58013.750	1	1	0	0	0.10726	0.06571	0.1393	0.2271	0.029775	0.038159	0.32124	0.078445	0.3498	0.13616	0.088906	0.090358	0.26656	0.082635	0.17935	0.086364	-4.2625	-3.6979	-4.3208	-4.575	-3.5375	-4.4042	-4.3333	-4.1042	-4.6396	-3.6792	-4.4042	-4.4125	-3.6792	-4.5792	-4.1021	-3.825	372.450	284.964	241.750	376.988	182.767	171.219	393.168	81.590	235.148	324.405	110.116	351.182	435.707	405.991	81.939	423.249	0.00044834	0.00091997	0.00018636	1109.7	6.3994e-06	5.3425e-06	1411.2	300.49	5.6264e-06	9.0595e-06	452.49	133.58	75.118	21.613	2.0326e-06	50.686	0.0016902	0.0025173	0.00069122	1068.5	2.5321e-05	2.6994e-05	1356.4	290.28	2.5428e-05	2.8088e-05	438.81	130.49	73.933	21.486	2.6096e-05	49.516	161.291	181.303	212.912	95.950	234.369	332.475	95.453	99.525	194.158	273.318	99.179	102.824	103.875	108.286	183.804	107.451	-8191	255	
58013.848	1	1	0	0	0.11081	0.084985	0.2448	0.13355	0.16073	0.079146	0.16688	0.22709	0.16064	0.19436	0.069813	0.18792	0.13065	0.30529	0.13615	0.20546	-4.2	-3.8229	-3.9208	-4.6729	-3.4854	-4.5083	-4.3833	-3.8479	-4.6104	-4.0208	-4.1521	-4.5729	-3.6458	-4.5021	-4.175	-3.8312	245.056	176.027	121.208	307.981	280.450	310.807	404.093	401.136	205.273	326.800	306.604	351.251	272.161	402.633	131.875	432.886	0.00052597	0.00018642	9.1935e-05	1107.4	4.2336e-06	6.6921e-06	1402.2	297.61	5.5705e-06	4.7335e-06	449.78	131.86	74.505	21.201	5.4578e-06	49.446	0.0016889	0.0025372	0.0006897	1064.7	2.5047e-05	2.7479e-05	1344	286.69	2.4885e-05	2.7847e-05	434.88	128.01	72.863	21.005	2.6441e-05	48.523	162.559	225.192	418.977	95.880	271.039	212.527	95.410	99.339	224.385	225.893	98.811	102.745	103.533	108.699	249.723	107.372	-8191	255	
58013.941	1	1	0	0	0.14221	0.17105	0.095219	0.2335	0.10053	0.082429	0.19433	0.074364	0.11679	0.18304	0.068277	0.083662	0.083045	0.13265	0.022337	0.18394	-4.2375	-4.0437	-3.8271	-4.6667	-3.8583	-4.3938	-4.4896	-3.9542	-4.4708	-3.9938	-3.9583	-4.7417	-3.7896	-4.15	-4.3125	-3.85	262.951	390.178	424.533	112.193	423.998	307.512	354.484	96.386	341.066	432.993	276.145	204.917	360.738	294.209	406.203	434.921	0.00046992	0.00047591	7.1347e-05	1109.6	4.9367e-06	1.1074e-05	1404.2	298.07	4.8989e-06	2.7481e-06	451.86	132.88	74.981	21.561	4.6676e-06	50.272	0.0016925	0.0025418	0.00067899	1065.9	2.5295e-05	2.8635e-05	1348.7	287.61	2.5699e-05	2.8171e-05	437.46	129.07	73.668	21.165	2.5713e-05	49.217	159.318	157.236	120.489	95.889	196.151	212.601	95.300	99.549	210.594	298.359	98.846	102.975	103.725	108.366	242.173	107.204	-8191	255	
58014.062	1	1	0	0	0.047294	0.10782	0.10182	0.025893	0.14541	0.075942	0.18141	0.095583	0.1431	0.071702	0.080519	0.15499	0.11088	0.052692	0.046883	0.20186	-4.1813	-4.1667	-3.8646	-4.6958	-3.7875	-4.2188	-4.7208	-3.7562	-4.4229	-4.1	-3.8542	-4.7	-3.8229	-4.1646	-4.4938	-3.6625	178.555	132.503	257.141	308.767	123.651	289.472	251.814	96.446	269.904	176.566	228.698	397.464	203.321	307.288	372.965	376.461	0.00049511	0.0010096	0.00013029	1119.1	6.6017e-06	4.1893e-06	1411.9	300.86	2.0717e-06	4.7854e-06	452.67	133.45	75.94	21.392	6.8832e-06	50.668	0.0017068	0.0025319	0.00069891	1074.1	2.6484e-05	2.8008e-05	1357.9	290.04	2.6144e-05	2.8501e-05	439.84	130.34	74.269	21.406	2.6908e-05	49.61	166.491	149.553	159.670	95.870	204.642	179.331	95.733	99.461	210.859	200.729	98.735	102.896	103.657	109.123	212.418	107.131	-8191	255	
58014.160	1	1	0	0	0.12937	0.17285	0.32223	0.058731	0.037988	0.057864	0.10016	0.23693	0.088522	0.040182	0.11346	0.16252	0.18953	0.018196	0.1348	0.078753	-4.1562	-4.1625	-3.7313	-4.7375	-3.7438	-3.9875	-4.5833	-3.7625	-4.3979	-4.3958	-3.8729	-4.6625	-4.1104	-3.9583	-4.5521	-3.8208	359.227	140.184	358.078	409.856	154.737	329.568	394.126	428.749	183.586	214.360	103.065	97.112	117.877	281.624	264.346	270.589	0.00047493	0.00031437	0.00017729	1120	6.6766e-06	8.3259e-06	1412.5	299.05	2.3037e-06	6.8671e-06	449.5	133.07	75.137	21.356	7.7665e-06	49.702	0.0017485	0.0025747	0.00069739	1076.1	2.5391e-05	2.7665e-05	1357.6	289.09	2.5682e-05	2.7713e-05	437.79	129.08	73.492	21.108	2.5798e-05	48.742	168.632	204.381	142.456	95.976	268.915	193.158	95.328	99.399	232.195	229.569	98.513	103.137	103.690	108.821	212.504	107.632	-8191	255	
58014.258	1	1	0	0	0.12572	0.11925	0.16224	0.12602	0.18947	0.11549	0.13677	0.16713	0.15954	0.1814	0.041512	0.19899	0.080987	0.070413	0.14325	0.39029	-4.0208	-4.25	-3.7396	-4.5042	-4.0521	-3.8312	-4.7896	-3.8937	-4.125	-4.3187	-3.8583	-4.5042	-4.2063	-3.9167	-4.6875	-3.8896	210.712	102.899	347.456	91.687	119.627	198.444	404.737	363.950	428.377	209.233	256.754	426.783	438.051	327.209	368.530	415.712	0.00043665	0.00082277	4.9827e-05	1110.2	6.8642e-06	2.91e-06	1407.1	297.64	1.7716e-06	3.0305e-06	449.56	131.7	74.571	21.304	5.0823e-06	49.54	0.0016753	0.0024786	0.00067532	1068.3	2.5493e-05	2.7924e-05	1351.6	288.14	2.5361e-05	2.8023e-05	435.67	128.73	73.493	21.077	2.5863e-05	48.772	160.527	167.099	236.624	95.734	259.542	291.658	95.743	99.661	173.193	222.645	98.667	103.159	103.033	108.525	132.063	107.442	-8191	255	
58014.352	1	1	0	0	0.11156	0.14212	0.15001	0.20497	0.19372	0.16557	0.082254	0.33382	0.15279	0.14781	0.16293	0.21129	0.075703	0.15903	0.14352	0.22517	-3.9354	-4.3979	-3.6833	-4.6542	-4.0604	-3.8646	-4.7083	-3.8187	-4.1854	-4.5938	-3.8479	-4.4437	-4.3438	-3.9042	-4.7042	-4.0583	304.054	258.143	410.165	399.532	407.703	111.113	385.398	382.652	329.533	420.278	153.270	373.359	115.858	303.398	340.984	341.701	0.00052131	0.0004109	0.00018457	1115.1	4.3955e-06	8.5371e-06	1415.6	300.16	4.0716e-06	6.353e-06	453.08	134.12	75.815	21.396	1.9468e-06	50.362	0.0017246	0.0024875	0.00070386	1070.8	2.5485e-05	2.7929e-05	1360.5	289.54	2.5702e-05	2.7866e-05	439.31	130.31	74.117	21.232	2.6229e-05	49.276	165.849	197.078	169.786	95.809	242.574	239.687	95.554	99.462	240.114	173.813	98.689	103.007	103.367	108.657	357.583	107.039	-8191	255	
58014.445	1	1	0	0	0.13112	0.099402	0.16619	0.07223	0.061603	0.087454	0.25128	0.20527	0.095931	0.32377	0.28423	0.10714	0.0506	0.20294	0.24809	0.29834	-3.8063	-4.4604	-3.7417	-4.5458	-4.3146	-3.7438	-4.6833	-3.9854	-4.125	-4.7104	-3.9271	-4.2854	-4.4042	-3.7833	-4.4479	-4.2167	403.732	352.166	371.446	368.188	430.718	397.836	348.712	123.263	228.567	120.270	319.238	420.664	349.345	436.507	244.161	401.160	0.00047881	0.00071746	9.1032e-05	1122.4	4.3329e-06	4.1286e-06	1420.3	301.64	2.4263e-06	5.8698e-06	456.03	134.95	75.824	21.553	5.4705e-06	49.947	0.0017207	0.0024961	0.0007058	1078.1	2.5411e-05	2.8277e-05	1366.1	291.35	2.5868e-05	2.7986e-05	442.13	131.41	74.585	21.352	2.6405e-05	49.243	169.616	158.518	156.935	96.029	246.481	216.166	95.521	99.603	137.754	233.146	98.614	102.657	103.519	108.486	237.226	107.295	-8191	255	
58014.543	1	1	0	0	0.20035	0.15903	0.17446	0.059517	0.21527	0.079471	0.08116	0.093565	0.044636	0.057808	0.10443	0.13758	0.21379	0.10364	0.18575	0.19563	-3.5312	-4.4896	-3.7979	-4.3083	-4.3875	-3.575	-4.6729	-4.2083	-3.8271	-4.4083	-3.8771	-4.2688	-4.5687	-3.7125	-4.4625	-4.4146	156.274	178.943	322.838	377.982	127.486	240.226	404.425	366.969	337.782	345.320	135.705	376.212	98.429	363.509	285.605	83.361	0.0004467	0.00023847	0.00016284	1120	2.2793e-06	1.0353e-05	1415.5	300.01	1.071e-05	4.2043e-06	452.46	131.85	74.773	21.04	3.9457e-06	49.351	0.0017052	0.0025122	0.00071466	1078.5	2.5243e-05	2.8055e-05	1360.9	289.71	2.507e-05	2.7927e-05	439.23	128.91	73.532	20.84	2.6485e-05	48.406	161.286	196.616	118.910	95.612	224.691	223.852	95.423	99.392	237.107	210.105	98.770	102.929	103.651	108.283	238.254	107.354	-8191	255	
58014.664	1	1	0	0	0.08633	0.11484	0.15358	0.16993	0.17443	0.2002	0.2744	0.21714	0.32718	0.047294	0.3489	0.26496	0.084032	0.087202	0.20004	0.37112	-3.4437	-4.6021	-3.9521	-4.1542	-4.4062	-3.7271	-4.5792	-4.2833	-3.6833	-4.5979	-4.0437	-4.1438	-4.5854	-3.7354	-4.4125	-4.3396	176.168	340.463	348.338	111.221	296.577	299.731	371.667	275.623	347.253	386.145	373.351	355.197	103.053	413.777	125.637	377.814	0.00045395	0.00021918	0.00019832	1126.1	2.3837e-06	1.2101e-05	1425.2	302.22	5.0803e-06	2.6476e-06	456.85	133.34	76.244	21.313	3.3157e-06	49.959	0.0017385	0.0024892	0.00071567	1082	2.5491e-05	2.8462e-05	1370.1	291.62	2.6213e-05	2.8133e-05	441.23	130.04	74.708	21.074	2.6443e-05	48.803	156.668	277.150	279.697	95.572	281.125	199.392	95.135	99.650	218.595	234.101	98.983	102.966	103.949	108.909	239.429	107.697	-8191	255	
58014.762	1	1	0	0	0.021974	0.12499	0.34342	0.13919	0.079212	0.2625	0.28346	0.044211	0.34631	0.049104	0.22342	0.19208	0.11816	0.25684	0.18171	0.12741	-3.3875	-4.6729	-3.8208	-4.1458	-4.5521	-3.6521	-4.4729	-4.4875	-3.7	-4.4167	-4.0521	-4.1854	-4.5563	-3.6417	-4.4292	-4.55	209.175	110.951	382.080	356.656	115.883	254.362	357.057	351.394	278.101	268.754	131.850	338.570	235.967	111.549	401.039	192.136	0.00049251	0.00084882	0.00021919	1128.3	7.9492e-06	9.0956e-06	1421.8	301.48	1.8983e-06	1.2347e-05	457.5	134.86	76.556	21.55	4.9673e-06	49.892	0.0017269	0.0025775	0.00072396	1086.4	2.5548e-05	2.9586e-05	1372.4	291.69	2.621e-05	2.8264e-05	443.02	131.29	75.203	21.288	2.6776e-05	49.147	167.368	187.148	120.287	95.834	219.871	323.550	95.317	99.363	231.390	245.838	98.546	102.869	104.028	108.061	247.192	107.482	-8191	255	
58014.855	1	1	0	0	0.01444	0.2122	0.011638	0.26092	0.16966	0.22153	0.28015	0.14457	0.11037	0.15206	0.18609	0.38092	0.087124	0.24287	0.084304	0.14967	-3.2812	-4.6771	-3.9854	-3.9854	-4.5646	-3.7625	-4.4854	-4.6396	-3.6042	-4.6417	-4.3583	-3.9125	-4.7604	-3.8667	-4.1292	-4.625	179.464	114.432	209.316	418.355	431.853	105.512	394.981	364.331	401.222	282.012	343.299	415.284	140.996	105.613	105.577	404.716	0.00051754	0.00040756	0.00013351	1130.1	5.0631e-06	1.0785e-05	1433.7	303.75	3.2552e-06	1.0577e-05	456.05	133.11	75.885	21.094	4.1225e-06	49.365	0.0017485	0.0025419	0.0007173	1088.3	2.5622e-05	2.8845e-05	1376.4	293.01	2.6105e-05	2.8416e-05	441.52	129.76	74.55	21.001	2.6357e-05	48.223	161.504	387.569	240.061	95.574	210.573	213.137	95.256	99.460	197.149	266.076	98.612	102.857	103.574	108.654	274.847	107.484	-8191	255	
58014.953	1	1	0	0	0.17309	0.043878	0.13931	0.24097	0.10445	0.18257	0.35244	0.29867	0.17141	0.13893	0.12464	0.10349	0.098155	0.057925	0.12414	0.18796	-3.3875	-4.3646	-4.0667	-3.9583	-4.4604	-3.8583	-4.2729	-4.6271	-3.6771	-4.4563	-4.4688	-3.7438	-4.5729	-3.9958	-3.9542	-4.6542	428.713	110.131	245.799	84.548	269.245	437.232	336.791	386.242	155.060	397.819	406.931	157.915	83.695	181.027	155.646	346.756	0.00047291	0.00034608	7.511e-05	1126.3	5.7133e-06	2.4399e-06	1413.7	297.31	5.4234e-06	2.1751e-06	454.07	132.11	75.769	21.099	7.0817e-06	49.341	0.0017618	0.0024996	0.00069921	1078.9	2.5765e-05	2.8434e-05	1361.4	288.92	2.6543e-05	2.8269e-05	439.06	129.14	74.254	20.85	2.6321e-05	48.191	163.387	129.997	215.586	95.743	227.417	225.156	95.527	99.987	249.873	216.285	98.937	102.517	103.415	107.799	288.794	107.071	-8191	255	
58015.047	1	1	0	0	0.054487	0.29482	0.091685	0.4268	0.064604	0.18128	0.083477	0.14105	0.10553	0.33007	0.22764	0.24757	0.070431	0.06799	0.13117	0.25085	-3.3042	-4.3562	-4.3729	-3.9542	-4.7104	-3.8896	-4.1854	-4.7583	-3.9042	-4.2875	-4.5687	-3.8333	-4.5604	-4.0687	-3.8625	-4.7562	304.714	387.933	432.267	391.745	163.145	222.990	349.637	360.776	97.239	242.949	382.083	294.633	432.399	411.981	225.225	400.581	0.00052372	0.0003069	0.00017932	1123.3	1.1994e-06	5.4677e-06	1422.6	302.53	7.327e-06	1.8279e-06	456.82	133.89	76.571	21.023	2.4282e-06	49.69	0.0017608	0.0025472	0.00069033	1079.7	2.525e-05	2.8508e-05	1368.7	291.55	2.6718e-05	2.8181e-05	441.27	130.02	74.696	20.999	2.6805e-05	48.637	173.156	212.741	196.068	95.632	231.559	205.559	95.422	99.549	235.137	256.760	99.235	102.969	103.368	108.841	230.697	107.344	-8191	255	
58015.145	1	1	0	0	0.087374	0.008667	0.062893	0.24006	0.23782	0.37379	0.2432	0.043446	0.17366	0.19897	0.16427	0.10833	0.26962	0.2292	0.11403	0.36456	-3.5	-4.1687	-4.4104	-3.8667	-4.425	-4.15	-4.1208	-4.9292	-3.8604	-4.2438	-4.7812	-3.8042	-4.6229	-4.2146	-3.9729	-4.8313	173.660	210.042	306.540	433.749	354.346	102.131	390.771	378.973	142.979	240.119	413.755	358.006	441.487	286.935	368.313	432.215	0.00048097	0.00086175	6.6862e-05	1121.7	6.8468e-06	5.4925e-06	1422.7	301.55	7.6774e-06	5.7472e-06	457.08	135.07	76.657	21.438	4.9346e-06	50.004	0.001756	0.0025479	0.00069395	1078.1	2.5689e-05	2.8431e-05	1367.6	292.42	2.6466e-05	2.7893e-05	443.19	131.53	75.14	21.276	2.6412e-05	48.952	166.925	118.752	203.891	95.671	260.387	233.473	95.344	99.505	241.775	219.524	98.701	102.837	104.063	108.579	273.402	106.815	-8191	255	
58015.262	1	1	0	0	0.21107	0.098581	0.19457	0.20459	0.050157	0.26066	0.34555	0.15503	0.11558	0.11665	0.3583	0.027959	0.17843	0.10064	0.10126	0.12364	-3.5833	-3.8563	-4.6	-3.9667	-4.4771	-4.45	-3.9104	-4.8729	-4.0354	-4.1854	-4.6625	-3.825	-4.3125	-4.3417	-3.8854	-4.8458	250.269	253.551	217.652	394.143	95.867	92.389	433.488	406.665	146.295	139.318	336.156	361.394	273.573	355.868	427.261	226.350	0.00040841	0.0003803	0.00014355	1125.2	7.0169e-06	3.8316e-06	1416.7	298.85	3.3955e-06	4.5137e-06	451.04	132.16	75.467	20.874	7.0975e-06	49.323	0.0017412	0.0025075	0.00070057	1081.8	2.5609e-05	2.8015e-05	1363.8	290.03	2.625e-05	2.805e-05	438.49	128.97	73.908	20.818	2.6713e-05	48.289	169.728	181.187	230.048	95.808	279.625	223.379	95.734	99.756	352.372	205.625	99.026	102.714	103.510	108.408	237.440	106.969	-8191	255	
58015.359	1	1	0	0	0.112	0.27232	0.075187	0.26006	0.093983	0.098805	0.23015	0.14795	0.12329	0.13475	0.26123	0.19923	0.28659	0.042522	0.1798	0.17174	-3.7833	-4	-4.6375	-3.9229	-4.3396	-4.5854	-3.9542	-4.5583	-4.0125	-3.7562	-4.8021	-3.9479	-4.2667	-4.5917	-3.8833	-4.6708	377.043	331.868	372.235	422.220	401.525	98.388	393.705	371.313	201.509	438.420	304.342	300.465	121.365	247.997	183.517	108.475	0.00045674	0.00027449	9.5019e-05	1119.4	4.4151e-06	9.4773e-06	1423.8	300.13	7.0981e-07	2.2349e-06	453.27	132.02	75.539	21.204	7.6654e-06	49.856	0.0017238	0.0025242	0.00069992	1077.8	2.5613e-05	2.7619e-05	1365.7	290.65	2.654e-05	2.7934e-05	439.74	129.48	74.054	21.032	2.7162e-05	48.824	168.212	158.620	161.197	95.831	222.303	202.356	95.430	99.794	347.716	197.669	98.749	102.858	103.918	108.443	226.932	107.333	-8191	255	
58015.430	1	1	0	0	0.24517	0.29765	0.095028	0.089176	0.049466	0.18127	0.19792	0.14731	0.028765	0.069496	0.11901	0.28494	0.26699	0.09206	0.044472	0.1766	-3.9062	-4.0083	-4.5521	-3.9458	-4.1771	-4.5479	-3.9062	-4.5167	-4.0917	-3.8312	-4.8375	-4.075	-4.0271	-4.6146	-3.7938	-4.4688	130.382	204.687	149.820	432.464	313.381	140.235	388.184	408.521	381.007	234.612	384.480	383.775	204.254	240.056	172.840	314.164	0.00054978	0.00088609	0.00016449	1128.8	6.4515e-06	4.0301e-06	1418.9	301.54	4.7649e-06	1.2554e-06	455.45	134.7	76.544	21.374	5.961e-06	50.465	0.0017625	0.0025556	0.00069849	1081.6	2.5716e-05	2.8498e-05	1367.6	291.48	2.6071e-05	2.8476e-05	442.37	131.45	74.893	21.2	2.7766e-05	49.332	166.316	195.356	171.704	95.905	233.070	268.764	95.309	99.683	207.790	269.943	98.867	103.218	103.681	108.390	210.178	106.975	-8191	255	
58015.527	1	1	0	0	0.22432	0.17566	0.19909	0.34892	0.19702	0.069069	0.049325	0.13097	0.12095	0.26339	0.34751	0.12485	0.074666	0.10645	0.11588	0.23116	-3.8979	-3.8583	-4.5938	-4.0708	-4.1229	-4.5771	-3.8604	-4.4938	-4.225	-3.8104	-4.7312	-4.1354	-4.0792	-4.6042	-3.8583	-4.3917	290.240	298.361	374.729	109.379	312.677	274.605	208.354	205.258	249.757	236.896	414.285	183.509	397.267	129.262	202.223	394.281	0.00049738	0.0010188	4.7375e-05	1131	4.5055e-06	3.5589e-06	1422.5	301.02	5.503e-06	4.843e-06	459.03	133.53	75.832	21.145	6.581e-06	49.719	0.0017324	0.0025557	0.00071137	1087.4	2.6094e-05	2.8801e-05	1370.7	291.6	2.6219e-05	2.9062e-05	442.28	130.12	74.463	21.008	2.7013e-05	48.66	162.831	160.745	178.980	95.657	301.709	350.082	95.448	99.574	209.613	254.003	98.797	102.971	103.465	108.456	193.779	107.171	-8191	255	
58015.621	1	1	0	0	0.11112	0.17365	0.086357	0.11236	0.27316	0.23065	0.12884	0.23068	0.13936	0.067095	0.19774	0.12429	0.16714	0.12409	0.053798	0.26467	-3.9833	-3.7812	-4.6854	-4.2396	-3.8646	-4.6625	-4.0083	-4.1479	-4.525	-3.6813	-4.5979	-4.125	-3.9104	-4.6167	-3.9167	-4.1625	110.845	83.668	207.207	217.855	168.423	162.683	284.593	319.244	368.904	259.179	358.381	373.809	106.084	310.399	84.671	95.107	0.00049607	0.001013	3.7558e-05	1119.6	3.2028e-06	2.1429e-06	1425.9	299.96	4.5281e-06	4.1666e-06	453.6	131.67	75.094	20.788	4.38e-06	48.998	0.0017205	0.002566	0.00071244	1078.3	2.5838e-05	2.8305e-05	1362.9	289.14	2.6012e-05	2.8295e-05	437.79	128.39	73.763	20.767	2.7333e-05	48.267	165.631	176.575	129.349	95.596	133.454	197.370	95.431	99.369	199.412	244.200	98.900	103.042	103.665	108.309	164.364	107.357	-8191	255	
58015.742	1	1	0	0	0.28839	0.15945	0.077007	0.33785	0.092855	0.14241	0.11494	0.10465	0.205	0.13563	0.036657	0.11662	0.1152	0.019681	0.33015	0.1356	-4.2354	-3.6021	-4.4812	-4.4167	-3.9854	-4.6687	-4.1604	-4.2688	-4.6417	-3.8896	-4.7229	-4.3604	-3.9521	-4.5771	-4.0771	-4.1771	185.833	237.801	275.646	393.080	155.221	402.809	375.031	167.562	155.898	309.924	139.841	240.321	383.874	211.317	139.646	175.799	0.00049787	0.00059534	0.00013851	1122.7	4.8509e-06	8.6466e-06	1420.3	299.78	4.7259e-06	4.1433e-06	453.37	133.36	75.21	21.192	4.7751e-06	49.939	0.0017284	0.0025517	0.00070897	1079.7	2.5932e-05	2.8715e-05	1363.3	289.92	2.6039e-05	2.8607e-05	439.39	129.75	74.139	21.038	2.6899e-05	48.828	169.043	211.809	278.252	95.793	244.149	270.410	95.554	99.535	198.337	309.624	98.579	103.142	103.814	108.298	317.045	107.279	-8191	255	
58015.840	1	1	0	0	0.031257	0.0045668	0.09252	0.083381	0.047928	0.22565	0.17772	0.1634	0.12164	0.073658	0.3954	0.21923	0.26141	0.082611	0.22098	0.23814	-4.4167	-3.7687	-4.2646	-4.4292	-3.7229	-4.6333	-4.1854	-4.0021	-4.5	-3.8417	-4.2583	-4.45	-3.8708	-4.5729	-3.9562	-4.1104	314.357	288.199	102.548	427.654	291.550	146.042	342.350	367.731	304.756	131.119	413.456	427.903	193.560	161.689	344.113	95.983	0.0006191	0.0010518	0.0001476	1121.9	3.4547e-06	5.7923e-06	1430.7	301.68	5.3445e-06	2.8999e-06	453.57	134.6	76.662	21.248	6.3337e-06	49.843	0.0017478	0.0026066	0.00070282	1080.5	2.6324e-05	2.8263e-05	1371.7	291.12	2.6015e-05	2.8914e-05	440.91	131	74.848	21.157	2.6855e-05	48.981	163.143	180.739	165.790	95.847	296.155	120.245	95.338	99.454	176.394	281.430	98.750	103.366	103.411	108.488	223.023	107.433	-8191	255	
58015.938	1	1	0	0	0.044283	0.29672	0.18769	0.28122	0.099303	0.28317	0.049245	0.38087	0.33077	0.031713	0.20945	0.23676	0.12078	0.15844	0.085236	0.25016	-4.3	-3.8	-4.0146	-4.6167	-3.7521	-4.6083	-4.375	-3.75	-4.5062	-3.9375	-4.3438	-4.5208	-3.7896	-4.5854	-4.2042	-3.9062	81.990	263.981	281.037	373.700	356.619	411.394	346.336	376.377	352.237	103.059	102.047	431.524	151.871	376.507	137.769	336.186	0.00049845	0.00086974	0.00017363	1123.8	5.5484e-06	4.2156e-06	1417.6	300.23	6.4115e-06	4.3237e-06	450.63	131.08	75.01	21.002	3.9998e-06	48.776	0.0016913	0.0025801	0.00071058	1080.6	2.5976e-05	2.7564e-05	1362.7	289.5	2.5413e-05	2.8462e-05	437.13	128.3	73.577	20.778	2.6689e-05	48.058	157.281	119.146	164.036	95.646	242.918	197.909	95.468	99.479	239.975	219.946	98.728	102.894	103.774	108.546	198.764	107.075	-8191	255	
58016.059	1	1	0	0	0.22645	0.16242	0.29465	0.23863	0.045262	0.15722	0.42073	0.17984	0.14155	0.19969	0.099278	0.14461	0.22577	0.171	0.060866	0.013934	-4.2854	-3.7521	-3.9708	-4.8167	-3.7604	-4.5125	-4.5458	-3.9125	-4.6604	-3.9479	-4.0604	-4.6292	-3.7125	-4.3479	-4.4104	-3.9958	178.303	83.749	148.519	406.512	437.781	365.011	417.700	279.765	351.221	332.369	358.373	422.905	379.137	333.305	209.701	437.706	0.00044321	0.0003629	0.00018897	1126.5	7.0464e-06	3.5733e-06	1417.9	298.55	4.8279e-06	2.4352e-06	451.07	132.31	75.364	21.093	4.2485e-06	49.575	0.0017157	0.002544	0.00070069	1080.6	2.5842e-05	2.8167e-05	1362.7	289.3	2.5599e-05	2.843e-05	438.38	129.17	73.839	20.88	2.6268e-05	48.558	161.013	135.883	149.579	95.931	262.854	142.172	95.642	99.551	233.161	267.933	98.970	102.894	103.477	108.249	283.687	106.898	-8191	255	
58016.129	1	1	0	0	0.181	0.089756	0.028661	0.29957	0.090146	0.11409	0.14385	0.15218	0.11978	0.17109	0.21025	0.17461	0.073653	0.39003	0.15185	0.22306	-4.2354	-4.0146	-4.0667	-4.8146	-3.6937	-4.4458	-4.7479	-3.775	-4.4625	-4.0813	-4.0708	-4.6146	-3.9521	-4.2146	-4.4958	-3.8375	199.364	152.272	371.382	400.727	100.878	101.543	432.796	386.969	366.681	264.415	256.898	130.779	411.617	81.953	243.947	378.084	0.00046594	0.00037324	0.00019068	1122.4	4.276e-06	7.4097e-06	1413.2	299.3	5.2179e-06	4.7394e-06	455.73	134.04	75.514	21.406	3.1584e-06	50.412	0.0017067	0.0025745	0.00070271	1079.8	2.6182e-05	2.8076e-05	1365.4	290.24	2.6273e-05	2.8943e-05	440.92	130.62	74.474	21.192	2.7048e-05	49.324	165.665	181.650	179.512	95.926	259.106	238.398	95.451	99.744	269.629	289.130	98.865	103.076	103.088	108.537	190.808	107.434	-8191	255	
58016.227	1	1	0	0	0.30063	0.17717	0.21266	0.20508	0.19583	0.12565	0.14116	0.22082	0.20762	0.10232	0.14522	0.16043	0.36692	0.23907	0.11884	0.070368	-4.2542	-4.1229	-3.6854	-4.8021	-3.8688	-4.1896	-4.6333	-3.8771	-4.3792	-4.4833	-4.0396	-4.7917	-3.9792	-4.1292	-4.5104	-3.8146	230.021	137.025	109.274	403.110	394.162	187.094	298.128	396.110	284.794	219.260	313.335	424.611	149.297	366.192	353.165	395.556	0.00046014	0.00048862	0.00025916	1126.7	5.4632e-06	9.2692e-06	1427.2	301.93	5.8127e-06	5.6388e-06	454.46	133.9	74.944	21.088	4.7215e-06	49.615	0.0017543	0.0025999	0.0007303	1085.4	2.6774e-05	2.824e-05	1372.7	291.75	2.6212e-05	2.8878e-05	440.18	130.13	74.003	20.978	2.6841e-05	48.708	167.765	152.430	176.164	95.841	218.217	276.912	95.667	99.627	244.771	233.185	98.760	102.879	103.604	108.874	166.629	107.285	-8191	255	
58016.344	1	1	0	0	0.12826	0.18862	0.22869	0.16601	0.25325	0.046931	0.075029	0.20114	0.17206	0.14246	0.17306	0.21935	0.27326	0.069402	0.24321	0.11108	-3.9979	-4.3292	-3.7229	-4.8	-3.9625	-3.8396	-4.7562	-3.7938	-4.4083	-4.4333	-3.8667	-4.5958	-4.0917	-4.0938	-4.6167	-3.7583	149.138	339.150	374.111	400.227	387.300	438.310	435.501	434.792	316.123	216.660	106.043	393.506	384.075	355.580	395.348	375.928	0.0004481	0.00014969	0.00010003	1122.9	2.8016e-06	4.7416e-06	1413.1	296.68	4.9377e-06	2.62e-06	448.6	131.17	75.02	20.942	5.7469e-06	49.114	0.0017195	0.0025603	0.00071578	1079.9	2.6113e-05	2.8434e-05	1361.2	288.87	2.5667e-05	2.8456e-05	436.89	128.11	73.401	20.738	2.6619e-05	48.17	160.503	209.978	185.495	96.010	258.460	110.544	95.246	99.805	231.862	309.608	98.273	103.352	103.835	108.471	233.042	107.051	-8191	255	
58016.441	1	1	0	0	0.15826	0.17584	0.095914	0.14654	0.22306	0.10789	0.38505	0.16718	0.26023	0.040663	0.1805	0.29114	0.30708	0.10486	0.19165	0.19372	-3.9188	-4.3438	-3.6917	-4.7417	-3.9917	-3.8229	-4.9396	-3.9854	-4.2417	-4.425	-3.8354	-4.6583	-4.2208	-3.8042	-4.6354	-3.9979	359.444	440.487	100.018	303.577	212.976	395.560	403.593	430.975	424.795	201.317	119.975	435.358	147.197	169.100	100.071	407.709	0.0004078	0.00070212	7.958e-05	1123	6.0058e-06	7.0735e-06	1419.6	300.5	9.476e-06	2.3403e-06	456.33	133.12	75.836	21.039	2.8977e-06	49.658	0.0017255	0.0025436	0.0007126	1079.3	2.5581e-05	2.8348e-05	1364.7	290.48	2.6449e-05	2.8723e-05	439.96	129.56	73.969	20.887	2.6733e-05	48.729	170.960	211.882	238.913	95.678	251.858	248.353	95.649	99.622	249.295	226.964	98.753	102.722	103.220	108.802	204.588	107.386	-8191	255	
58016.535	1	1	0	0	0.096826	0.23366	0.19656	0.11141	0.069711	0.075244	0.28879	0.18955	0.065168	0.14667	0.064704	0.11512	0.20083	0.16782	0.11319	0.081873	-3.9417	-4.4958	-3.4958	-4.5417	-4.1396	-3.7646	-4.8187	-4.1167	-4.0896	-4.4854	-3.6792	-4.3833	-4.4437	-3.8646	-4.6521	-4.1083	219.703	222.218	100.510	408.715	364.568	146.714	336.617	392.639	379.681	127.473	106.515	393.892	437.788	203.924	278.644	430.109	0.00047581	0.00064024	0.00019131	1126.8	4.8954e-06	7.1453e-06	1423.3	300.58	6.9472e-06	5.5221e-06	452.69	132.85	75.528	21.393	2.7262e-06	50.269	0.001765	0.0025325	0.00072771	1082.2	2.639e-05	2.9182e-05	1365.5	290.34	2.6146e-05	2.8656e-05	439.52	129.76	73.937	21.216	2.6944e-05	49.287	160.122	161.505	221.939	95.821	238.017	243.791	95.656	99.664	213.293	205.996	98.912	102.911	103.566	108.176	252.214	107.291	-8191	255	
58016.656	1	1	0	0	0.051423	0.09721	0.31425	0.10141	0.13096	0.057849	0.083976	0.14385	0.13434	0.15979	0.3366	0.11926	0.1788	0.23521	0.15616	0.082749	-3.6917	-4.4292	-3.6396	-4.65	-4.3958	-3.825	-4.6667	-4.1813	-3.9313	-4.6229	-4.05	-4.3542	-4.5833	-3.7896	-4.6687	-4.2417	384.154	395.688	370.407	201.046	176.694	151.190	408.205	428.115	141.009	154.312	398.137	427.516	288.478	95.451	104.303	312.248	0.00052927	0.00072815	0.00019921	1122.6	4.6552e-06	1.1591e-05	1410.6	298.82	8.095e-06	4.6191e-06	450.15	130.79	73.745	20.789	3.3642e-06	49.254	0.0017485	0.0025818	0.00072438	1080.3	2.5584e-05	2.8846e-05	1361.5	288.95	2.6167e-05	2.9418e-05	436.22	127.89	72.982	20.735	2.6626e-05	48.241	167.270	180.246	195.487	95.516	235.456	285.438	95.475	99.505	246.177	241.415	98.868	102.871	103.637	108.089	177.703	107.483	-8191	255	
58016.727	1	1	0	0	0.27107	0.32818	0.19864	0.13448	0.045895	0.35233	0.05657	0.21014	0.11858	0.097435	0.31704	0.18696	0.20841	0.095144	0.16472	0.18487	-3.5333	-4.6958	-3.6292	-4.2479	-4.5292	-3.6688	-4.6417	-4.3187	-3.8417	-4.7354	-3.9208	-4.0917	-4.5521	-3.85	-4.4479	-4.3792	231.273	162.278	383.909	413.852	81.802	436.925	289.264	297.668	283.314	356.081	412.729	424.114	98.945	129.747	116.100	427.951	0.00050779	0.00045926	0.00013127	1117.2	4.8015e-06	6.1185e-06	1415.4	300.01	5.7089e-06	5.2315e-06	451.3	132.15	74.946	21.181	6.4835e-06	49.475	0.0017491	0.0025543	0.00071708	1075.3	2.6197e-05	2.8894e-05	1360.5	289.14	2.6528e-05	2.8342e-05	437.67	128.78	73.468	20.957	2.6582e-05	48.499	162.701	151.136	138.121	95.463	226.382	180.301	95.306	99.786	213.661	206.957	99.123	103.014	103.359	108.397	299.707	107.287	-8191	255	
58016.824	1	1	0	0	0.087088	0.066509	0.23829	0.14256	0.19141	0.054838	0.24199	0.28639	0.10455	0.10949	0.37703	0.24341	0.084621	0.3185	0.037611	0.20327	-3.5229	-4.6542	-3.9146	-4.1333	-4.6104	-3.6875	-4.6958	-4.6229	-3.7958	-4.5667	-4.1208	-4.075	-4.6646	-3.7104	-4.2583	-4.3729	233.295	283.217	441.286	431.113	198.308	305.413	421.062	361.720	307.111	349.703	84.946	93.936	201.414	413.333	297.025	91.396	0.00048372	0.00099206	0.00010978	1128.2	5.3984e-06	6.3821e-06	1421.6	302.16	5.2321e-07	2.0136e-06	460.39	133.03	75.717	21.425	1.9952e-06	50.167	0.0017407	0.0025377	0.00070789	1083.9	2.604e-05	2.9002e-05	1371.4	291.47	2.6898e-05	2.8903e-05	442.61	129.96	74.433	21.167	2.6686e-05	49.057	167.343	140.514	133.091	95.322	193.965	237.949	95.215	99.674	102.449	195.840	98.810	102.760	103.814	108.832	344.802	107.500	-8191	255	
58016.922	1	1	0	0	0.12899	0.052965	0.15466	0.3083	0.0064149	0.10274	0.42336	0.13204	0.048853	0.05809	0.083761	0.10922	0.15178	0.16537	0.085916	0.27475	-3.6625	-4.6229	-4.0563	-4.0396	-4.6271	-3.9125	-4.5813	-4.5083	-3.7479	-4.5417	-4.1208	-3.8292	-4.7667	-3.7354	-4.2646	-4.6083	131.897	281.218	273.744	403.273	96.823	173.149	353.565	354.769	390.817	276.858	104.323	369.363	172.574	156.210	143.134	323.457	0.00045875	0.00086134	5.1885e-05	1143.5	4.4938e-06	1.2445e-06	1439.1	303.52	6.227e-06	3.9726e-06	455.87	133.55	76.433	21.106	2.6623e-06	49.516	0.0017767	0.0025997	0.00073086	1095	2.5753e-05	2.8917e-05	1383.5	293.6	2.6982e-05	2.8203e-05	442.52	130.39	74.538	21.079	2.6531e-05	48.619	165.792	167.340	191.224	95.588	219.445	244.233	95.577	99.724	256.875	228.180	98.585	102.715	103.673	108.728	355.321	107.562	-8191	255	
58017.039	1	1	0	0	0.14857	0.14695	0.074392	0.12448	0.073547	0.28122	0.14939	0.19982	0.22578	0.15947	0.30746	0.24726	0.19413	0.018185	0.21415	0.40743	-3.3833	-4.4479	-4.1917	-3.8375	-4.5021	-3.7	-4.3396	-4.5625	-3.6479	-4.425	-4.3187	-3.8458	-4.6	-3.9875	-3.8688	-4.6875	375.506	395.719	109.594	119.709	223.270	190.349	395.458	393.234	193.077	367.376	423.959	376.785	383.931	425.762	349.340	83.523	0.00050733	0.00017294	0.00017508	1126.6	3.2051e-06	6.984e-06	1416.5	299.84	5.7741e-06	2.5746e-06	450.59	131.96	75.086	20.787	4.2447e-06	48.777	0.0017485	0.0025519	0.00071644	1084.5	2.5824e-05	2.8638e-05	1365.1	289.83	2.64e-05	2.7956e-05	437.48	128.01	73.353	20.638	2.7251e-05	47.838	159.510	95.174	198.368	95.607	197.675	245.137	95.540	99.429	228.779	277.186	99.217	102.751	103.503	108.627	229.529	107.428	-8191	255	
58017.137	1	1	0	0	0.027832	0.17361	0.10082	0.12443	0.17665	0.20811	0.061163	0.22418	0.19331	0.28833	0.14388	0.25309	0.17254	0.42774	0.25825	0.066758	-3.3438	-4.3292	-4.2542	-3.7188	-4.6271	-3.9708	-4.1937	-4.6021	-3.6333	-4.3542	-4.525	-3.7854	-4.6875	-4.1542	-3.9729	-4.6417	384.422	255.290	382.616	375.335	401.052	397.975	86.602	383.802	211.822	330.423	439.212	351.474	360.915	398.812	95.611	282.616	0.00052552	0.00026981	0.0001966	1129.2	2.3938e-06	9.2584e-06	1418.2	300.56	3.5279e-06	2.537e-06	453.48	133.15	75.721	21.156	6.7546e-06	49.783	0.0017842	0.0025959	0.00071861	1084.7	2.5798e-05	2.9128e-05	1368.5	291.23	2.699e-05	2.8884e-05	439.72	129.13	74.118	20.905	2.7476e-05	48.631	163.650	165.433	178.858	95.799	265.487	227.696	95.285	99.777	232.629	150.246	98.905	102.775	103.846	108.616	206.421	106.950	-8191	255	
58017.230	1	1	0	0	0.12185	0.12806	0.12266	0.14336	0.22144	0.14117	0.19056	0.09941	0.22972	0.093595	0.016231	0.17573	0.2217	0.23656	0.023206	0.24432	-3.5479	-4.2812	-4.3542	-3.9854	-4.55	-4.0708	-4.0292	-4.65	-3.8896	-4.1271	-4.7479	-3.8667	-4.6479	-4.2979	-3.9437	-4.7167	129.032	269.364	204.874	402.643	415.858	352.291	425.980	343.253	372.814	194.876	224.579	440.742	219.357	327.719	300.155	422.830	0.00053128	0.00027696	0.00026019	1135.1	2.8829e-06	1.0311e-05	1429.8	301.37	5.8167e-06	4.6559e-06	454.64	132.73	76.157	21.093	7.0457e-06	49.824	0.0018001	0.0025864	0.00072234	1085.9	2.6448e-05	2.9446e-05	1374.2	291.32	2.6896e-05	2.9525e-05	441.44	129.91	74.479	21.143	2.7886e-05	48.896	171.088	93.509	144.507	95.514	241.592	173.365	95.201	100.027	179.668	283.664	99.154	102.593	103.368	109.061	217.173	107.014	-8191	255	
58017.328	1	1	0	0	0.080096	0.13359	0.017188	0.11701	0.1623	0.23268	0.19779	0.19962	0.10399	0.11482	0.14056	0.12772	0.2936	0.33295	0.25669	0.14942	-3.4417	-4.0146	-4.5875	-3.6021	-4.425	-4.3646	-3.8875	-4.8625	-3.8812	-3.9562	-4.5104	-3.6437	-4.4292	-4.3708	-3.6229	-4.7188	222.512	380.691	126.799	125.297	149.758	118.303	384.519	400.206	109.837	376.577	284.195	215.380	354.358	405.714	133.100	299.450	0.00048986	0.00059803	7.0477e-05	1125.4	3.0383e-06	6.8055e-06	1422.1	301.85	5.9291e-06	2.0765e-06	453.9	132.65	75.369	20.77	4.8188e-06	48.831	0.0017878	0.0025901	0.00071732	1084.8	2.5709e-05	2.8824e-05	1369.1	290.27	2.6051e-05	2.8394e-05	438.26	128.5	73.597	20.703	2.6969e-05	47.928	165.084	222.732	159.206	95.649	263.699	186.466	95.431	99.666	272.873	287.511	98.990	102.818	103.162	108.374	234.361	107.055	-8191	255	
58017.426	1	1	0	0	0.1416	0.1659	0.17348	0.31459	0.36764	0.25076	0.1785	0.28341	0.11317	0.15544	0.11586	0.14827	0.15195	0.099267	0.21112	0.21015	-3.6208	-4.025	-4.6458	-3.8542	-4.3083	-4.5	-3.9792	-4.6875	-3.9021	-3.8708	-4.7792	-3.8146	-4.2646	-4.5083	-3.5896	-4.7479	317.948	333.336	138.706	373.017	375.923	152.666	360.396	386.888	414.375	381.694	120.427	300.422	334.176	156.264	115.365	417.399	0.00041316	0.00013488	0.00016508	1127.5	4.8217e-06	5.3524e-06	1414.3	298.92	1.0847e-06	9.5955e-06	450.39	131.16	75.465	20.908	5.3135e-06	49.088	0.0017236	0.002597	0.00070274	1080.2	2.571e-05	2.8618e-05	1362.7	289.35	2.7077e-05	2.8273e-05	437.82	128.38	73.823	20.718	2.7291e-05	48.01	168.201	283.824	198.130	95.644	229.719	268.524	95.289	99.528	235.948	258.690	98.945	103.089	103.847	108.623	219.373	107.256	-8191	255	
58017.520	1	1	0	0	0.092205	0.064288	0.088887	0.23193	0.08106	0.069295	0.32018	0.22963	0.13608	0.059001	0.07513	0.29306	0.3436	0.17819	0.12895	0.18615	-3.7708	-3.8625	-4.6479	-4.0208	-4.1771	-4.3792	-3.8646	-4.7854	-4.3375	-3.8792	-4.7396	-4.0542	-4.3104	-4.5458	-3.6708	-4.7417	401.860	148.785	317.324	365.506	243.575	264.101	400.869	92.781	268.004	292.478	277.475	84.240	129.966	98.919	412.585	128.617	0.0005105	0.00084141	0.00011555	1124.6	2.7206e-06	5.2656e-06	1420.8	302.46	3.8969e-06	4.7064e-06	453.84	132.92	76.015	20.953	4.3607e-07	49.502	0.001783	0.0025543	0.00070451	1084.2	2.611e-05	2.8325e-05	1368.9	291.18	2.664e-05	2.8378e-05	439.89	129.56	74.175	20.893	2.7035e-05	48.546	171.350	105.257	217.280	95.740	195.680	166.386	95.281	99.664	208.918	229.216	98.672	102.976	103.552	108.285	238.619	107.239	-8191	255	
58017.617	1	1	0	0	0.20125	0.16397	0.12701	0.27971	0.19347	0.041242	0.25807	0.21252	0.077291	0.10854	0.057501	0.15551	0.1827	0.33541	0.059359	0.15908	-3.9313	-3.7438	-4.7271	-4.0333	-4.1292	-4.5083	-3.9354	-4.5083	-4.3417	-3.7062	-4.7188	-4.1417	-4.1125	-4.6562	-3.8083	-4.5188	159.519	381.081	400.419	428.798	381.275	212.021	395.245	372.696	323.011	247.351	207.091	109.276	339.406	372.590	394.208	409.774	0.00053844	0.00026691	0.00014369	1133.9	7.9518e-06	8.3967e-06	1436.6	303.19	3.7334e-06	6.7228e-06	455.54	133.57	76.782	21.088	4.1658e-06	49.249	0.0017752	0.0026209	0.00070417	1090.5	2.5866e-05	2.9033e-05	1377.7	293.15	2.6555e-05	2.9069e-05	443.23	130.34	74.856	20.985	2.7048e-05	48.437	159.092	152.708	405.271	95.763	210.399	218.189	95.450	99.337	256.164	305.682	99.022	103.088	103.608	108.416	277.584	107.188	-8191	255	
58017.738	1	1	0	0	0.026038	0.052629	0.21008	0.079003	0.23748	0.056901	0.0444	0.12899	0.037187	0.19254	0.034387	0.042531	0.28642	0.21253	0.13865	0.17857	-3.9729	-3.7542	-4.6771	-4.2375	-3.9917	-4.6917	-3.8854	-4.2354	-4.4979	-3.775	-4.5792	-4.0542	-4.0646	-4.6229	-3.725	-4.3292	162.986	421.815	339.034	223.734	244.668	154.793	84.553	153.466	86.734	378.160	162.168	121.651	379.285	416.473	419.973	90.278	0.00043091	0.00019138	4.5564e-05	1127	6.5396e-06	9.1586e-07	1419.7	300.65	7.406e-06	6.7648e-06	452.75	131.75	75.542	20.793	1.0329e-05	48.294	0.0017671	0.0026174	0.00069776	1085.5	2.5523e-05	2.7961e-05	1367.7	291.09	2.6211e-05	2.8479e-05	438.27	128.17	73.814	20.599	2.7118e-05	47.529	170.996	327.366	231.042	95.980	201.356	317.733	95.300	99.427	268.341	253.015	98.740	103.080	103.565	108.818	246.729	106.970	-8191	255	
58017.832	1	1	0	0	0.25785	0.18497	0.065299	0.15436	0.30025	0.066901	0.30585	0.19856	0.23818	0.22162	0.15597	0.23153	0.18495	0.06377	0.068296	0.19753	-4.3667	-3.675	-4.3854	-4.3562	-3.8917	-4.6229	-3.7917	-4.0729	-4.5146	-3.6521	-4.5646	-4.4313	-3.675	-4.4938	-3.8312	-4.1333	434.637	265.511	223.429	368.352	290.389	151.988	439.191	372.251	282.397	263.917	82.560	139.573	332.469	148.630	389.251	192.303	0.00046357	0.00049529	0.00031814	1129.4	7.8281e-06	3.0387e-06	1422.6	300.31	3.259e-06	4.2988e-06	452.29	131.7	75.692	20.786	3.7938e-06	48.811	0.0017422	0.0025397	0.00070695	1085.6	2.5827e-05	2.8398e-05	1368.2	290.62	2.6611e-05	2.836e-05	439.68	129	73.969	20.687	2.7027e-05	47.974	172.165	195.974	156.928	95.712	249.649	255.329	95.536	99.528	240.667	320.623	98.976	102.648	103.570	107.873	162.501	106.931	-8191	255	
58017.930	1	1	0	0	0.10507	0.11549	0.12296	0.13968	0.095718	0.14836	0.20347	0.030238	0.056292	0.016847	0.23974	0.32617	0.15668	0.32112	0.089334	0.21976	-4.2812	-3.675	-4.55	-4.4396	-3.7542	-4.6167	-4.2312	-4.1604	-4.6646	-3.625	-4.4125	-4.3417	-3.6896	-4.6708	-3.9083	-3.9437	176.092	217.266	294.179	392.010	276.400	220.014	397.313	316.262	303.368	165.865	402.123	396.566	425.108	142.225	163.895	89.115	0.00048751	0.00051728	0.00016912	1122.1	2.677e-06	6.224e-06	1422.7	301.46	8.3932e-06	6.4719e-06	451.8	133.05	75.565	21.275	7.2303e-06	49.421	0.0017547	0.0025922	0.00070367	1078.8	2.6366e-05	2.7894e-05	1366.6	290.25	2.641e-05	2.9117e-05	439.93	129.7	74.061	21.011	2.7695e-05	48.429	165.759	156.910	169.714	95.757	261.984	188.844	95.525	99.615	179.689	266.276	98.882	102.826	103.626	108.916	242.202	107.055	-8191	255	
58018.023	1	1	0	0	0.093988	0.028896	0.14135	0.022332	0.038024	0.18525	0.17229	0.11639	0.20522	0.032103	0.11489	0.10087	0.24561	0.12003	0.10708	0.10366	-4.2667	-3.7833	-4.2021	-4.3917	-3.5396	-4.6188	-4.2979	-3.8625	-4.6958	-3.7812	-4.2396	-4.5708	-3.7583	-4.6771	-4.1542	-3.9604	351.627	216.569	382.623	293.034	420.804	214.469	434.694	395.640	364.294	104.034	94.406	381.879	428.065	383.156	190.199	304.594	0.00045641	0.0010004	0.00027199	1128.5	3.7476e-06	7.222e-06	1411.3	300.62	4.6037e-06	4.3172e-06	450.29	130.98	74.357	20.532	4.9722e-06	48.089	0.0017385	0.0026104	0.00071824	1084.6	2.6223e-05	2.7725e-05	1360.7	289.6	2.5619e-05	2.89e-05	436.24	127.6	72.951	20.484	2.7245e-05	47.384	157.860	189.276	166.833	95.847	231.676	221.472	95.178	99.300	265.027	189.232	98.918	102.975	103.725	108.919	193.837	106.791	-8191	255	
58018.121	1	1	0	0	0.1957	0.29973	0.12688	0.090203	0.077019	0.12337	0.08952	0.11751	0.21563	0.06134	0.19485	0.23288	0.12455	0.14028	0.068974	0.083483	-4.5479	-3.8208	-4.1312	-4.6958	-3.7521	-4.5417	-4.4729	-3.9	-4.55	-3.8312	-4.15	-4.6312	-3.8438	-4.4563	-4.1687	-3.8771	229.262	271.520	147.880	282.735	96.822	371.010	435.224	277.241	435.928	117.093	395.335	400.808	124.197	165.403	296.175	359.840	0.00048029	0.0005352	0.00020706	1117.3	5.2205e-06	6.7797e-06	1407.4	295.61	5.1755e-06	5.3555e-06	450.32	130.51	74.346	20.54	9.9688e-06	48.39	0.0017056	0.0025885	0.00069116	1073.4	2.5573e-05	2.7576e-05	1351.9	286.84	2.584e-05	2.8239e-05	435.2	127.21	72.867	20.426	2.6441e-05	47.497	161.224	162.868	156.064	95.961	265.404	254.901	95.602	99.503	210.445	239.950	98.896	102.833	103.809	108.870	172.841	107.112	-8191	255	
58018.219	1	1	0	0	0.22681	0.33205	0.057713	0.27626	0.099006	0.05104	0.18349	0.17739	0.1757	0.12841	0.076541	0.17648	0.12761	0.070952	0.18719	0.15087	-4.2937	-3.9688	-3.9813	-4.6292	-3.5938	-4.2875	-4.5479	-3.7979	-4.5375	-4.0813	-3.9979	-4.6	-3.5771	-4.1417	-4.5125	-3.8542	183.639	238.185	436.929	426.861	275.305	218.248	410.947	90.131	359.568	151.911	360.510	114.420	404.356	386.722	395.875	311.315	0.00041409	0.00032679	0.00012082	1122	6.0547e-06	9.5537e-06	1413	298.81	2.2715e-06	9.5427e-06	450.29	131.3	75.301	20.89	9.887e-06	48.784	0.0017211	0.0025473	0.00070514	1074.7	2.589e-05	2.8233e-05	1359.1	288.9	2.6167e-05	2.8004e-05	436.55	128.44	73.779	20.699	2.6398e-05	47.873	159.745	173.095	172.354	95.612	184.248	207.106	95.686	99.236	189.867	239.181	98.552	103.225	103.609	108.384	209.765	107.064	-8191	255	
58018.336	1	1	0	0	0.082669	0.1093	0.18653	0.16532	0.24015	0.15651	0.18652	0.18865	0.18495	0.08206	0.074245	0.1427	0.1772	0.357	0.087236	0.23921	-4.2458	-4.0833	-3.7979	-4.6438	-3.6917	-4	-4.7	-3.8125	-4.4812	-4.1792	-3.9292	-4.7521	-4.0771	-4.2729	-4.4958	-3.8396	95.071	426.698	313.665	430.874	117.451	133.709	395.857	268.555	98.287	232.169	427.151	85.757	343.360	395.592	298.182	379.264	0.00046678	0.00080796	0.00014081	1124.3	2.6247e-06	4.2832e-06	1425.5	300.4	4.5701e-06	9.5941e-06	455.45	132.44	76.09	20.912	3.2483e-06	48.77	0.0016843	0.0025146	0.00069941	1082.7	2.5653e-05	2.7802e-05	1370.4	291.05	2.5792e-05	2.8586e-05	440.56	129.51	74.398	20.801	2.6386e-05	47.798	160.456	112.044	184.263	95.799	232.500	251.748	95.494	99.644	245.293	221.573	99.005	103.165	103.487	108.291	247.991	107.174	-8191	255	
58018.434	1	1	0	0	0.18809	0.096415	0.070354	0.42769	0.14766	0.15683	0.1471	0.23515	0.13331	0.10655	0.31082	0.13081	0.14193	0.060483	0.14436	0.16166	-4.1854	-4.2917	-3.8292	-4.825	-3.8417	-3.9562	-4.6792	-3.6646	-4.2583	-4.375	-3.8604	-4.6667	-4.1583	-3.9208	-4.725	-4.0271	137.262	310.960	188.149	420.934	209.291	206.432	387.174	96.546	291.762	114.095	438.972	342.331	132.821	100.595	168.389	326.444	0.00040441	0.0005432	8.5111e-05	1114.7	5.013e-06	4.874e-06	1402.6	296.59	3.3931e-06	6.839e-06	448.8	129.47	74.565	20.595	3.4595e-06	47.744	0.0017275	0.002555	0.00069628	1075.9	2.5663e-05	2.8407e-05	1357.9	287.76	2.6024e-05	2.8411e-05	434.7	126.76	72.654	20.375	2.6164e-05	47.007	168.953	215.433	168.649	95.758	168.043	203.784	95.320	99.694	244.164	229.634	98.772	103.101	103.377	108.454	232.280	107.279	-8191	255	
58018.527	1	1	0	0	0.36866	0.2971	0.05425	0.35308	0.13151	0.10683	0.077221	0.34598	0.21011	0.029742	0.16321	0.17087	0.07089	0.12256	0.07013	0.081549	-4.1854	-4.3938	-3.6604	-4.7521	-4.1354	-3.8312	-4.6625	-3.9458	-4.3104	-4.425	-3.8542	-4.5396	-4.175	-3.8604	-4.7625	-3.9437	382.356	222.476	130.960	81.788	106.207	108.630	402.069	394.600	210.134	146.699	404.257	241.905	204.699	90.576	438.994	255.865	0.00046367	0.00012967	0.0001002	1119.7	7.0029e-06	4.4972e-06	1409.6	297.38	2.9804e-06	5.2304e-06	450.36	130.01	74.095	20.709	2.6449e-06	48.271	0.0017098	0.0025325	0.00070456	1075.4	2.5838e-05	2.8088e-05	1357.5	288.36	2.603e-05	2.8648e-05	435.48	127.68	73.149	20.546	2.631e-05	47.525	156.612	286.671	177.553	95.742	252.729	292.490	95.551	99.453	240.610	231.606	98.972	102.904	103.397	108.469	285.469	107.271	-8191	255	
58018.602	1	1	0	0	0.11697	0.16263	0.16982	0.32568	0.18791	0.2474	0.18371	0.12531	0.12631	0.131	0.081156	0.26373	0.10114	0.23733	0.055847	0.028782	-3.9188	-4.4437	-3.8167	-4.6687	-4.3833	-3.7	-4.9125	-3.9833	-4.1021	-4.4271	-3.8063	-4.5875	-4.2646	-3.8792	-4.5604	-3.8563	361.440	347.119	348.680	88.722	128.327	360.727	395.576	162.766	130.433	107.302	249.110	348.444	356.869	391.445	201.287	386.316	0.00040551	0.00053901	4.132e-05	1119.6	4.5449e-06	1.0111e-05	1413.5	298.88	8.0401e-06	6.5526e-06	451.91	132.51	75.184	20.86	5.4926e-06	49.066	0.0017183	0.0025708	0.0006977	1077.3	2.5858e-05	2.8223e-05	1359.6	289.21	2.6048e-05	2.8303e-05	437.2	128.89	73.703	20.809	2.6854e-05	48.199	165.427	211.536	181.135	95.669	140.848	250.603	95.617	99.343	234.601	187.843	98.238	102.686	103.897	108.192	271.985	107.150	-8191	255	
58018.723	1	1	0	0	0.2233	0.12397	0.10064	0.25148	0.069365	0.095141	0.39232	0.0075782	0.13561	0.19389	0.33063	0.17468	0.2141	0.23037	0.14679	0.16699	-3.8292	-4.5271	-3.7125	-4.4417	-4.1875	-3.7792	-4.8833	-4.0062	-3.9896	-4.7042	-3.6708	-4.425	-4.4792	-3.9479	-4.6708	-4.15	311.518	126.247	436.782	384.243	217.999	264.728	347.176	163.070	415.410	86.235	101.028	191.418	352.643	154.259	143.841	358.728	0.00044683	0.00061721	0.00015238	1120.7	6.7844e-06	8.2626e-06	1414.8	299.16	4.1171e-06	5.0892e-06	450.68	130.92	74.322	20.779	5.5885e-06	48.597	0.0017494	0.0024974	0.00071491	1081.4	2.5934e-05	2.816e-05	1360.9	289.39	2.552e-05	2.7517e-05	436.36	127.7	72.937	20.556	2.5939e-05	47.451	167.406	171.411	170.476	95.605	227.908	186.953	95.493	99.758	232.990	89.831	98.941	103.339	103.381	108.483	208.217	107.054	-8191	255	
58018.816	1	1	0	0	0.20266	0.10619	0.17942	0.076382	0.28114	0.17762	0.089631	0.17064	0.1005	0.13334	0.38108	0.08829	0.12957	0.11294	0.25499	0.041837	-3.6375	-4.5917	-3.8187	-4.4208	-4.3729	-3.8271	-4.6042	-4.1292	-3.9167	-4.6813	-3.9708	-4.2812	-4.6042	-3.7812	-4.5792	-4.1208	373.677	427.539	357.287	394.687	249.838	298.208	397.530	320.283	153.435	250.058	372.026	103.876	431.317	170.515	165.146	254.343	0.00044026	0.00026163	0.00026717	1114.2	4.6155e-06	1.2277e-06	1404.4	294.22	7.5665e-06	4.3225e-06	446.34	129.22	73.309	20.527	8.7647e-07	48.031	0.0016943	0.002438	0.00070147	1068.8	2.4883e-05	2.7785e-05	1347.8	286.25	2.5568e-05	2.7721e-05	432.56	126.5	72.497	20.41	2.6254e-05	47.237	161.756	149.064	199.942	95.629	191.367	334.896	95.458	99.736	236.392	236.817	98.822	102.982	103.814	108.328	205.365	106.953	-8191	255	
58018.914	1	1	0	0	0.090696	0.1805	0.15429	0.27501	0.010691	0.21905	0.1539	0.033887	0.22214	0.13188	0.17181	0.21245	0.17589	0.037211	0.04424	0.017944	-3.6125	-4.7479	-4.0542	-4.2271	-4.5458	-3.7646	-4.6979	-4.4333	-3.8	-4.6667	-4.0042	-4.1125	-4.6646	-3.7812	-4.3146	-4.4271	195.399	206.872	282.791	414.368	152.540	292.754	375.533	417.824	203.888	315.340	419.352	259.553	105.860	206.744	368.300	132.009	0.00036614	0.00023883	0.00014392	1109.3	5.18e-06	1.0372e-05	1405.7	297.48	6.3065e-06	6.2287e-06	446.7	130.91	74.215	20.693	5.694e-06	48.69	0.0017285	0.0024772	0.0007082	1070.1	2.5917e-05	2.8294e-05	1352.7	287.84	2.5736e-05	2.7663e-05	434.12	127.59	72.812	20.576	2.6221e-05	47.806	166.938	146.752	147.162	95.829	231.887	247.885	95.582	99.870	216.673	187.675	98.936	102.670	103.575	108.574	214.294	107.095	-8191	255	
58019.012	1	1	0	0	0.064216	0.13437	0.171	0.28108	0.088538	0.19312	0.16708	0.27257	0.12999	0.049383	0.30811	0.21442	0.10419	0.06391	0.19574	0.096389	-3.5	-4.7333	-3.9729	-4.1667	-4.6792	-3.7521	-4.6687	-4.6062	-3.5292	-4.6667	-4.0854	-4.0375	-4.6958	-3.7812	-4.1667	-4.5021	431.118	248.184	298.483	424.185	243.910	262.412	300.852	91.802	118.841	300.780	410.065	391.496	307.960	332.406	91.798	340.814	0.00045382	0.00043155	3.422e-05	1117.5	4.5331e-06	1.0391e-05	1409.8	299.3	5.7749e-06	8.7222e-06	451.27	132.43	76.09	21.082	5.8959e-06	49.442	0.0017058	0.002487	0.00070761	1076.1	2.512e-05	2.8088e-05	1356.5	289.01	2.58e-05	2.816e-05	437.51	129.11	73.958	20.879	2.6129e-05	48.492	159.311	202.089	169.376	95.381	226.715	247.258	95.402	99.654	244.150	252.239	98.845	102.961	103.427	108.830	243.417	107.110	-8191	255	
58019.105	1	1	0	0	0.12533	0.042188	0.029901	0.26062	0.088223	0.13929	0.22733	0.10258	0.19714	0.22895	0.2741	0.18815	0.22572	0.24488	0.10838	0.2059	-3.3979	-4.6771	-4.0896	-3.9917	-4.5958	-3.9417	-4.3771	-4.5938	-3.6188	-4.4021	-4.1875	-4.0687	-4.5854	-3.9708	-4.0167	-4.6083	198.422	156.471	242.905	407.477	99.373	91.434	418.175	83.029	419.580	290.847	127.078	130.831	388.517	152.662	100.585	321.649	0.00059133	0.00030083	0.00016005	1122.6	4.9055e-06	6.5902e-06	1409.2	298.08	3.3414e-06	5.8399e-06	446.1	128.85	74.405	20.65	6.2041e-06	47.784	0.0017057	0.0025206	0.0007016	1078.9	2.5521e-05	2.8243e-05	1356.8	287.98	2.5519e-05	2.7759e-05	433.26	126.45	72.644	20.415	2.6369e-05	46.9	167.552	185.170	145.949	95.395	212.699	201.109	95.361	100.025	224.737	260.392	98.963	102.760	103.815	108.137	193.533	107.354	-8191	255	
58019.227	1	1	0	0	0.039709	0.14071	0.057415	0.25036	0.20723	0.013114	0.014707	0.01833	0.18543	0.07138	0.27883	0.034343	0.16957	0.082922	0.27406	0.21475	-3.3375	-4.3938	-4.2146	-3.9521	-4.5979	-3.9292	-4.3833	-4.6708	-3.7	-4.425	-4.3125	-3.7521	-4.75	-4.1062	-4.0396	-4.7854	246.596	257.007	387.050	410.189	122.472	235.825	258.719	125.960	373.896	325.976	397.396	136.394	167.736	429.302	419.574	344.272	0.00046632	0.00076149	0.00015064	1113.2	6.5833e-06	8.1741e-06	1417.2	299.22	5.6931e-06	2.9151e-06	448.28	130.9	74.388	20.523	5.3094e-06	48.198	0.0016842	0.002543	0.00071461	1072.4	2.4792e-05	2.8565e-05	1358.1	288.06	2.6011e-05	2.8326e-05	434.38	127.16	73.1	20.414	2.6824e-05	47.132	160.131	176.319	171.199	95.682	242.872	248.182	95.599	99.696	229.287	384.852	98.826	102.830	103.615	108.166	272.689	107.174	-8191	255	
58019.297	1	1	0	0	0.19497	0.22451	0.20803	0.22453	0.078064	0.092164	0.052057	0.1047	0.16696	0.30795	0.13092	0.11915	0.089244	0.14192	0.11446	0.19617	-3.5	-4.4021	-4.4833	-3.9083	-4.5146	-4.15	-4.2708	-4.8063	-3.9146	-4.1896	-4.5146	-3.8875	-4.6979	-4.3417	-3.9313	-4.6958	416.407	342.483	140.827	378.504	303.828	100.563	371.922	360.533	151.936	431.404	358.341	413.382	405.959	332.912	131.549	364.446	0.00053314	0.00051384	0.00015668	1127.2	2.6166e-06	9.3265e-06	1411	298.85	1.7916e-06	7.2497e-06	449.08	131.55	75.119	20.973	3.8945e-06	48.806	0.001775	0.0025701	0.00070803	1082.4	2.5258e-05	2.8299e-05	1361.7	289.25	2.5855e-05	2.8224e-05	437.02	128	73.844	20.64	2.6484e-05	47.661	166.344	186.438	185.786	95.744	215.622	198.688	95.589	99.705	189.898	256.187	99.107	102.614	103.766	107.921	292.550	107.183	-8191	255	
58019.418	1	1	0	0	0.16828	0.087388	0.13791	0.12794	0.39312	0.082383	0.2396	0.092123	0.16053	0.17748	0.19156	0.18777	0.33815	0.21267	0.072349	0.050458	-3.6646	-4.1396	-4.6333	-3.8833	-4.4812	-4.0146	-4.0833	-4.7208	-3.8896	-4.0479	-4.5917	-3.8208	-4.4396	-4.2396	-3.9188	-4.7063	188.157	229.466	401.315	268.337	257.318	382.784	360.749	364.005	369.125	261.336	106.960	378.125	405.325	173.253	297.763	360.937	0.0003954	0.0003188	7.4559e-05	1128.7	7.4263e-06	7.4254e-06	1415	299.95	2.93e-06	2.373e-06	451.48	131.38	74.758	20.872	3.644e-06	48.21	0.0017462	0.0025517	0.00069994	1085.2	2.6051e-05	2.8756e-05	1364.1	290.32	2.647e-05	2.8548e-05	436.55	127.56	73.195	20.617	2.6346e-05	47.308	162.147	108.911	145.113	95.630	235.025	252.443	95.285	99.464	224.169	203.100	98.990	102.856	103.885	108.643	189.737	107.315	-8191	255	
58019.512	1	1	0	0	0.15012	0.034093	0.34862	0.10292	0.055098	0.1232	0.29598	0.17452	0.26781	0.11633	0.20355	0.11965	0.36827	0.13129	0.14918	0.27247	-3.6729	-4.075	-4.5167	-3.6625	-4.4354	-4.3146	-3.9208	-4.5563	-3.9188	-3.9396	-4.7792	-3.8229	-4.3979	-4.1896	-3.9313	-4.6937	274.952	92.744	93.447	345.809	176.634	389.306	375.521	425.381	421.487	313.508	369.732	278.787	400.537	379.218	262.876	320.821	0.00051965	0.00029065	0.00011518	1122.8	4.0911e-06	6.9167e-06	1416.6	298.09	8.2341e-06	8.9185e-07	445.05	129.36	74.059	20.46	4.441e-06	48.004	0.0017124	0.0024948	0.00067574	1079.3	2.577e-05	2.7853e-05	1358.5	287.44	2.6162e-05	2.762e-05	432.78	126.38	72.646	20.362	2.703e-05	47.104	163.147	119.790	120.407	95.604	208.922	203.931	95.253	99.463	265.414	100.750	99.113	102.985	103.484	108.210	191.164	107.054	-8191	255	
58019.609	1	1	0	0	0.26231	0.24667	0.09805	0.37155	0.1361	0.16234	0.21975	0.041997	0.21655	0.04001	0.085032	0.17535	0.29464	0.11906	0.21511	0.060576	-3.8104	-3.9917	-4.6833	-3.9313	-4.0771	-4.4042	-3.8354	-4.625	-4.1687	-3.8542	-4.7583	-3.9771	-4.3167	-4.5979	-3.6813	-4.5188	380.986	420.440	327.841	425.207	206.094	390.874	362.410	218.660	153.375	246.106	137.297	91.655	397.143	144.828	354.645	351.911	0.00050947	0.00082701	0.00023219	1120.6	5.0479e-06	2.0136e-06	1409	300.52	4.2324e-06	8.4115e-06	451.29	130.82	75.62	20.858	7.4995e-06	48.322	0.0017681	0.0025362	0.00070209	1077.6	2.57e-05	2.7984e-05	1357.8	290.18	2.6147e-05	2.7916e-05	436.77	127.88	73.683	20.606	2.6996e-05	47.727	167.675	189.123	187.593	95.619	274.237	361.798	95.569	99.532	219.198	173.409	98.917	103.050	103.053	108.642	241.854	107.430	-8191	255	
58019.703	1	1	0	0	0.15538	0.24718	0.14478	0.091026	0.087428	0.15773	0.13369	0.090668	0.047941	0.18941	0.12492	0.034935	0.12143	0.10862	0.13537	0.061914	-3.7812	-3.8875	-4.5729	-3.8771	-3.9375	-4.5521	-3.8646	-4.5813	-4.2604	-3.8042	-4.6208	-4.0729	-4.1229	-4.7208	-3.8271	-4.4812	254.998	352.623	402.827	341.175	338.783	188.040	416.214	381.110	113.622	350.461	337.615	366.638	201.491	159.789	263.135	218.971	0.00050219	0.0007068	0.00012781	1129.6	3.6965e-06	5.9488e-06	1422.5	299.31	4.7755e-06	2.966e-06	450.86	131.96	75.703	20.94	5.2394e-06	49.117	0.0017484	0.0025211	0.00072609	1084.9	2.5752e-05	2.8134e-05	1367.5	290.71	2.6649e-05	2.8387e-05	438.7	128.8	74.121	20.878	2.7404e-05	48.182	162.949	188.219	193.940	95.726	291.116	212.007	95.597	99.899	249.131	272.378	99.254	102.774	103.747	108.286	209.878	106.974	-8191	255	
58019.824	1	1	0	0	0.048019	0.29802	0.19554	0.18757	0.10381	0.29613	0.20745	0.17891	0.018052	0.057623	0.096361	0.25356	0.22045	0.14327	0.097439	0.071259	-4.0417	-3.8708	-4.6062	-4.1292	-4.0979	-4.7104	-3.9437	-4.5542	-4.4958	-3.7354	-4.5583	-4.2375	-4.0021	-4.7688	-4.0333	-4.4104	89.575	262.664	434.347	400.038	339.874	162.819	420.945	151.639	328.111	122.326	426.650	355.312	296.965	270.918	264.591	332.001	0.00042674	0.00056713	0.00012612	1125.6	6.3341e-06	1.1218e-05	1411.2	298.81	6.3828e-06	5.3102e-06	447.6	129.16	74.233	20.264	3.3373e-06	46.981	0.0017377	0.002524	0.00069989	1081	2.5485e-05	2.7637e-05	1359.1	288.54	2.5792e-05	2.7781e-05	434.25	126.07	72.58	20.219	2.6406e-05	46.591	161.518	162.948	182.295	95.751	261.783	269.043	95.333	99.115	225.336	211.393	98.893	102.805	103.261	108.272	132.063	107.204	-8191	255	
58019.898	1	1	0	0	0.28266	0.14948	0.10983	0.22185	0.15798	0.11976	0.15148	0.091994	0.19676	0.05714	0.16492	0.10933	0.19803	0.12391	0.069334	0.075953	-4.2229	-3.7562	-4.5167	-4.2333	-3.8292	-4.7375	-4.1438	-4.3021	-4.525	-3.875	-4.6208	-4.2729	-3.875	-4.5687	-3.7188	-4.2417	86.438	357.387	127.161	122.862	161.055	330.813	83.548	387.091	179.081	229.412	183.516	397.696	153.299	132.290	269.063	273.917	0.00049562	0.00084679	8.355e-05	1114.2	3.1327e-06	5.3178e-06	1397.2	296.38	9.5959e-06	7.3842e-06	445.08	128.98	74.102	20.59	4.4474e-06	47.956	0.0017109	0.0025251	0.00069892	1070.5	2.503e-05	2.7877e-05	1348.1	286.29	2.5318e-05	2.882e-05	431.79	125.91	72.389	20.384	2.6911e-05	47.156	163.697	141.709	161.715	95.574	208.386	286.832	95.299	99.634	214.642	235.400	98.687	102.946	103.349	108.545	214.069	106.754	-8191	255	
58020.020	1	1	0	0	0.13857	0.18028	0.36774	0.067934	0.17095	0.15093	0.075258	0.028343	0.10457	0.10643	0.24261	0.062077	0.10287	0.22844	0.12863	0.040569	-4.2354	-3.6354	-4.5104	-4.3063	-3.5187	-4.7562	-4.1729	-4.2188	-4.4563	-3.7292	-4.4125	-4.3521	-3.9708	-4.7646	-4.1104	-4.1083	127.679	245.139	113.270	296.296	265.780	99.340	346.789	82.374	363.946	149.737	402.266	342.940	345.491	100.661	293.065	379.122	0.00047124	0.00088109	0.00019798	1113.6	4.2651e-06	6.3111e-06	1405.2	296.62	5.6093e-06	8.916e-06	446.21	130.04	74.625	20.869	5.4996e-06	48.782	0.0017303	0.0025174	0.0006994	1072.2	2.523e-05	2.8112e-05	1354.8	287.3	2.5608e-05	2.8613e-05	434.08	127.07	72.699	20.68	2.7149e-05	47.902	155.747	152.343	150.163	95.720	225.342	263.172	95.408	99.360	273.734	224.095	98.823	102.774	103.577	108.670	261.306	107.028	-8191	255	
58020.113	1	1	0	0	0.12695	0.044068	0.066426	0.3246	0.29661	0.12811	0.44497	0.076512	0.19466	0.048603	0.24103	0.27957	0.12734	0.063196	0.17033	0.11727	-4.3854	-3.8167	-4.3542	-4.5708	-3.7833	-4.7875	-4.2854	-3.9833	-4.6521	-3.8271	-4.5271	-4.6375	-3.7542	-4.5708	-4.0896	-4.1188	168.788	134.840	175.591	390.911	176.189	217.033	402.787	351.785	343.741	421.464	397.218	119.588	425.595	217.249	196.783	275.867	0.00054107	0.00056812	0.00038736	1119.9	6.3719e-06	8.0886e-06	1411.7	298.37	2.3286e-06	2.7167e-06	446.32	130.08	73.792	20.697	1.0146e-06	48.485	0.0017031	0.0025614	0.00070347	1076.2	2.5399e-05	2.8522e-05	1357.2	288.23	2.5779e-05	2.8489e-05	434.5	127.2	72.626	20.624	2.6541e-05	47.64	169.758	104.864	187.826	95.833	200.504	278.891	95.636	99.378	262.899	220.244	99.001	103.070	104.077	108.492	166.209	107.262	-8191	255	
58020.211	1	1	0	0	0.065035	0.1607	0.1503	0.15194	0.1446	0.16461	0.20106	0.036605	0.088659	0.07941	0.1637	0.15315	0.095592	0.12502	0.21327	0.13664	-4.2042	-3.8104	-4.2688	-4.6521	-3.7667	-4.5208	-4.4167	-3.8771	-4.5	-3.8563	-4.4646	-4.6208	-3.6292	-4.4583	-4.2146	-3.8729	153.671	210.144	334.030	139.239	193.529	274.662	371.335	326.279	417.472	86.232	326.095	374.384	392.969	410.574	137.888	105.881	0.00039409	0.00077784	0.00017255	1111.2	6.1766e-06	7.7797e-06	1397.7	295.16	4.1043e-06	6.2616e-06	444.1	128.29	73.605	20.328	5.2623e-06	47.71	0.0017009	0.0025323	0.00068327	1069.5	2.5072e-05	2.7834e-05	1346.3	285.24	2.5066e-05	2.8022e-05	430.87	125.43	72.07	20.241	2.5387e-05	46.957	163.870	184.948	196.473	95.944	219.487	259.430	95.523	99.711	247.562	247.937	98.847	103.245	103.665	108.423	209.560	107.498	-8191	255	
58020.305	1	1	0	0	0.1603	0.24362	0.079122	0.30691	0.35718	0.30337	0.31253	0.17055	0.24065	0.19569	0.38609	0.068064	0.12741	0.118	0.17064	0.10862	-4.3979	-3.8896	-3.9938	-4.6625	-3.6167	-4.4771	-4.5583	-3.9125	-4.5062	-4.0208	-4.1958	-4.6854	-3.9646	-4.4979	-4.45	-3.825	247.389	212.229	302.048	428.848	404.803	436.339	395.928	400.356	352.393	91.017	366.156	388.656	381.237	435.843	107.375	336.604	0.00049519	0.00044713	0.00024775	1117.6	5.2576e-06	3.4062e-06	1402.1	296.5	3.9439e-06	5.1578e-06	449.79	130.44	74.046	20.902	9.4026e-06	48.423	0.0017018	0.0025214	0.00068557	1072.1	2.5389e-05	2.7575e-05	1347.5	286.57	2.5401e-05	2.7398e-05	434.04	127.13	72.933	20.661	2.5699e-05	47.595	169.872	165.248	216.338	95.580	273.906	164.919	95.355	99.402	223.725	241.776	98.645	102.936	103.518	108.282	212.955	106.799	-8191	255	
58020.426	1	1	0	0	0.11514	0.13469	0.1847	0.096197	0.14903	0.059706	0.15466	0.2114	0.088996	0.13576	0.074419	0.11192	0.12846	0.054406	0.18846	0.21052	-4.3021	-3.9896	-3.9354	-4.8458	-3.7313	-4.2937	-4.6312	-3.675	-4.5979	-4.0583	-3.8896	-4.6708	-3.8812	-4.2917	-4.4667	-3.8979	107.456	184.231	320.361	351.984	215.448	284.196	327.415	425.520	192.846	384.227	343.695	96.671	126.382	150.214	219.493	189.012	0.00046263	0.00040624	0.00011023	1120.9	4.2263e-06	1.0277e-05	1410.5	299.08	3.0885e-06	3.9515e-06	450.73	130.61	74.915	20.977	6.7246e-06	48.9	0.0017113	0.0025193	0.000692	1074.7	2.5589e-05	2.7718e-05	1354.8	288.81	2.5486e-05	2.8295e-05	436.18	128.3	73.513	20.852	2.5857e-05	48.209	169.572	158.897	132.321	95.711	241.991	210.480	95.346	99.047	185.903	258.059	98.358	103.216	103.785	108.604	169.316	107.369	-8191	255	
58020.523	1	1	0	0	0.040634	0.20415	0.11159	0.15491	0.022752	0.065781	0.28741	0.050866	0.16826	0.16825	0.11976	0.026528	0.19711	0.22518	0.15888	0.16282	-4.0875	-4.3167	-3.9396	-4.9187	-3.9271	-3.9917	-4.625	-3.6354	-4.3625	-4.2667	-3.9146	-4.6646	-3.9146	-3.9958	-4.6042	-3.5417	403.005	275.301	286.191	394.477	413.030	114.949	412.591	174.905	164.628	184.659	407.914	370.959	334.085	264.889	415.463	401.139	0.00044764	0.00055724	0.00014143	1118.9	3.5828e-06	8.4884e-06	1407.2	296.78	5.4307e-06	8.184e-06	444.1	129.84	73.801	20.369	7.3429e-06	47.598	0.0017026	0.0024967	0.00066622	1077.2	2.5725e-05	2.7421e-05	1350.5	286.95	2.5592e-05	2.7666e-05	431.6	126.12	72.297	20.323	2.5324e-05	46.833	162.559	172.567	208.176	95.701	211.786	196.448	95.508	99.733	238.809	254.335	98.586	103.040	103.318	108.692	201.640	107.383	-8191	255	
58020.594	1	1	0	0	0.030384	0.053068	0.20908	0.35293	0.039761	0.030248	0.13636	0.13334	0.26081	0.21917	0.027146	0.10898	0.22007	0.077839	0.2481	0.20928	-3.9562	-4.3229	-3.6083	-4.6937	-3.9167	-3.9229	-4.7833	-3.8688	-4.2688	-4.1646	-3.9167	-4.5792	-4.0646	-3.9354	-4.5958	-3.8104	130.676	379.647	238.597	398.743	432.488	157.005	115.048	410.968	278.596	350.564	150.642	429.671	382.197	225.227	184.110	386.039	0.0004081	0.00037728	7.8344e-05	1108.2	6.0454e-06	5.2639e-06	1396.2	296	4.2519e-06	3.863e-06	441.31	128.24	73.42	20.829	1.8421e-06	48.086	0.0016914	0.0024973	0.00068145	1068	2.5505e-05	2.6882e-05	1345.5	285.3	2.5608e-05	2.7633e-05	429.61	125.13	71.92	20.353	2.6194e-05	47.088	175.041	137.230	245.814	95.859	233.628	214.420	95.549	99.606	211.252	238.190	98.664	102.943	103.609	108.728	226.441	107.433	-8191	255	
58020.691	1	1	0	0	0.094944	0.069819	0.153	0.2335	0.16356	0.1008	0.088784	0.22039	0.1546	0.12352	0.14567	0.026559	0.31979	0.12658	0.048546	0.30077	-4.0167	-4.5312	-3.7854	-4.5667	-4.1375	-3.9313	-4.7688	-3.7562	-4.1375	-4.5	-3.7271	-4.65	-4.2042	-3.9292	-4.6104	-4.0021	113.280	263.740	107.769	360.261	114.567	121.981	421.685	398.859	255.114	150.683	407.508	305.441	106.608	190.289	124.815	376.413	0.00051102	0.0006128	0.00011498	1109.5	5.4852e-06	4.0879e-06	1400.4	296.7	5.6637e-06	2.5467e-06	446.14	129.97	73.882	20.673	4.5132e-06	48.942	0.0016991	0.0025362	0.00070241	1068.6	2.5623e-05	2.7912e-05	1348.6	286.23	2.5777e-05	2.8415e-05	431.76	126.77	72.518	20.584	2.7005e-05	47.87	161.170	187.993	158.439	96.005	226.229	257.292	95.297	99.536	217.052	244.661	98.645	102.685	103.444	108.356	228.400	107.267	-8191	255	
58020.809	1	1	0	0	0.21423	0.080485	0.063773	0.12182	0.065608	0.28846	0.12474	0.13199	0.14151	0.21174	0.051149	0.26676	0.18173	0.099106	0.23729	0.059309	-3.8063	-4.4292	-3.6063	-4.6479	-4.2812	-3.8083	-4.8854	-4.0146	-4.1458	-4.5563	-3.7646	-4.5104	-4.4521	-3.7	-4.4542	-4.0583	201.646	328.792	91.411	419.043	354.940	132.741	428.570	313.589	334.016	286.125	358.325	114.208	326.645	164.033	381.531	281.122	0.00053118	0.00022522	7.5258e-05	1118.7	8.7774e-07	6.767e-06	1414.6	300.83	7.2513e-06	7.4541e-06	450.68	132.24	75.203	20.77	2.398e-06	48.33	0.0017244	0.0024936	0.0007211	1076.1	2.5794e-05	2.9034e-05	1360.4	289.98	2.5948e-05	2.8158e-05	437.89	128.31	73.777	20.728	2.6438e-05	47.629	170.199	184.259	94.159	96.096	226.979	210.114	95.399	99.454	175.591	238.111	98.643	103.009	103.566	108.652	168.842	107.120	-8191	255	
58020.906	1	1	0	0	0.098876	0.15892	0.27397	0.038577	0.25062	0.11161	0.18328	0.32133	0.13214	0.11811	0.21718	0.19277	0.06774	0.1347	0.036152	0.18082	-3.5021	-4.7188	-3.7812	-4.4062	-4.3708	-3.775	-4.8	-4.125	-3.9646	-4.7042	-3.975	-4.2562	-4.5771	-3.7687	-4.6667	-4.0896	240.491	86.797	333.949	341.708	406.727	263.842	356.086	373.129	163.846	388.729	85.287	355.573	218.011	121.518	335.287	429.342	0.00048108	0.00052874	0.00024564	1117.6	4.0675e-06	9.0698e-06	1410.3	296.32	3.3079e-06	6.4066e-06	443.09	128.42	73.824	20.283	2.9057e-06	46.984	0.0017043	0.002496	0.00071071	1075.6	2.5283e-05	2.7783e-05	1355.9	287.22	2.5787e-05	2.7804e-05	431.65	125.52	72.29	20.128	2.6086e-05	46.381	164.174	183.263	158.108	95.541	229.463	262.659	95.582	99.707	246.548	325.108	98.732	102.550	103.136	107.979	223.875	107.600	-8191	255	
58021.004	1	1	0	0	0.034001	0.30405	0.060811	0.09716	0.12756	0.11862	0.17528	0.3193	0.10757	0.090068	0.40276	0.2004	0.19889	0.25932	0.057403	0.1878	-3.5104	-4.6521	-3.6229	-4.1937	-4.4021	-3.85	-4.7688	-4.2	-3.8042	-4.5667	-3.9625	-4.125	-4.7542	-3.7729	-4.4146	-4.3375	122.720	164.622	428.074	360.863	432.619	274.123	385.151	389.785	343.007	247.910	358.028	123.588	393.712	339.526	252.011	431.626	0.00042351	0.0002794	0.00029488	1118.9	6.572e-06	5.8579e-06	1403.9	294.75	6.0269e-06	3.2954e-06	442.28	128.31	72.532	20.156	5.5558e-06	47.716	0.0016732	0.0024986	0.00071253	1071.7	2.5296e-05	2.8138e-05	1347	285.18	2.5549e-05	2.7836e-05	428.92	124.42	70.809	20.159	2.6329e-05	46.876	165.224	210.952	185.977	95.765	202.662	225.121	95.378	99.736	234.697	246.872	98.754	103.004	103.897	108.418	219.211	107.044	-8191	255	
#DATA ENDS
