BOXY.EXE: ISS Imagent and Oximeter Data Acquisition Program Version 0.80
Ascii Record File

#ACQ INFORMATION
2  Detector Channels 
16  External MUX Channels 
1  Auxiliary Channels 
5000  Waveform (CCF) Frequency (Hz)
1  Waveforms Skipped 
30  Waveforms Averaged 
1  Cycles Averaged 
16  Acquisitions per Waveform 
10.0806  Updata Rate (Hz) 

#FILE INFORMATION
TRUE -- External MUX Channel results are PARSED.
FALSE -- AC DC and Phase are NOT grouped.
TRUE -- Companion Program Settings File CREATED.
FALSE -- AC data not excluded
FALSE -- DC data not excluded
FALSE -- Phase data not excluded
FALSE -- Auxillary Chn. data not excluded
Tab delimiters

#CALIBRATION STATE
TRUE -- Waveform Calibration Values APPLIED.


#AUX CALIBRATION VALUES
Val Type	aux-1	

Term	1.0000e+00	
Factor	0.0000e+00	


#WF CALIBRATION VALUES
A = Detector Channel
Val Type	A-AC1	A-AC2	A-AC3	A-AC4	A-AC5	A-AC6	A-AC7	A-AC8	A-AC9	A-AC10	A-AC11	A-AC12	A-AC13	A-AC14	A-AC15	A-AC16	A-DC1	A-DC2	A-DC3	A-DC4	A-DC5	A-DC6	A-DC7	A-DC8	A-DC9	A-DC10	A-DC11	A-DC12	A-DC13	A-DC14	A-DC15	A-DC16	A-Ph1	A-Ph2	A-Ph3	A-Ph4	A-Ph5	A-Ph6	A-Ph7	A-Ph8	A-Ph9	A-Ph10	A-Ph11	A-Ph12	A-Ph13	A-Ph14	A-Ph15	A-Ph16	

Term	0.00000e+00	0.00000e+00	0.00000e+00	0.00000e+00	0.00000e+00	0.00000e+00	0.00000e+00	0.00000e+00	0.00000e+00	0.00000e+00	0.00000e+00	0.00000e+00	0.00000e+00	0.00000e+00	0.00000e+00	0.00000e+00	0.00000e+00	0.00000e+00	0.00000e+00	0.00000e+00	0.00000e+00	0.00000e+00	0.00000e+00	0.00000e+00	0.00000e+00	0.00000e+00	0.00000e+00	0.00000e+00	0.00000e+00	0.00000e+00	0.00000e+00	0.00000e+00	0.00000e+00	0.00000e+00	0.00000e+00	0.00000e+00	0.00000e+00	0.00000e+00	0.00000e+00	0.00000e+00	0.00000e+00	0.00000e+00	0.00000e+00	0.00000e+00	0.00000e+00	0.00000e+00	0.00000e+00	0.00000e+00	
Factor	1.00000e+00	1.00000e+00	1.00000e+00	1.00000e+00	1.00000e+00	1.00000e+00	1.00000e+00	1.00000e+00	1.00000e+00	1.00000e+00	1.00000e+00	1.00000e+00	1.00000e+00	1.00000e+00	1.00000e+00	1.00000e+00	1.00000e+00	1.00000e+00	1.00000e+00	1.00000e+00	1.00000e+00	1.00000e+00	1.00000e+00	1.00000e+00	1.00000e+00	1.00000e+00	1.00000e+00	1.00000e+00	1.00000e+00	1.00000e+00	1.00000e+00	1.00000e+00	X	X	X	X	X	X	X	X	X	X	X	X	X	X	X	X	

B = Detector Channel
Val Type	B-AC1	B-AC2	B-AC3	B-AC4	B-AC5	B-AC6	B-AC7	B-AC8	B-AC9	B-AC10	B-AC11	B-AC12	B-AC13	B-AC14	B-AC15	B-AC16	B-DC1	B-DC2	B-DC3	B-DC4	B-DC5	B-DC6	B-DC7	B-DC8	B-DC9	B-DC10	B-DC11	B-DC12	B-DC13	B-DC14	B-DC15	B-DC16	B-Ph1	B-Ph2	B-Ph3	B-Ph4	B-Ph5	B-Ph6	B-Ph7	B-Ph8	B-Ph9	B-Ph10	B-Ph11	B-Ph12	B-Ph13	B-Ph14	B-Ph15	B-Ph16	

Term	0.00000e+00	0.00000e+00	0.00000e+00	0.00000e+00	0.00000e+00	0.00000e+00	0.00000e+00	0.00000e+00	0.00000e+00	0.00000e+00	0.00000e+00	0.00000e+00	0.00000e+00	0.00000e+00	0.00000e+00	0.00000e+00	0.00000e+00	0.00000e+00	0.00000e+00	0.00000e+00	0.00000e+00	0.00000e+00	0.00000e+00	0.00000e+00	0.00000e+00	0.00000e+00	0.00000e+00	0.00000e+00	0.00000e+00	0.00000e+00	0.00000e+00	0.00000e+00	-1.33287e+02	-1.33058e+02	-1.22415e+02	-1.83602e+02	-6.63235e+01	-6.86494e+01	-1.58175e+02	-1.62015e+02	-6.98326e+01	-6.27199e+01	-1.70709e+02	-1.71243e+02	-1.78816e+02	-1.76819e+02	-7.21941e+01	-1.49827e+02	
Factor	1.98011e-05	1.68726e-04	4.68094e-05	1.72646e-01	1.25001e-06	1.72005e-06	1.91519e-01	5.90140e-02	1.19171e-06	1.73739e-06	9.70808e-02	3.25887e-02	3.02680e-02	1.03601e-02	1.44427e-06	1.45597e-02	1.17642e-05	1.95404e-05	5.41394e-06	8.28772e-02	1.95271e-07	2.18153e-07	8.65750e-02	2.84976e-02	1.98045e-07	2.18247e-07	4.54550e-02	1.53416e-02	1.48428e-02	5.03973e-03	2.04727e-07	6.86683e-03	X	X	X	X	X	X	X	X	X	X	X	X	X	X	X	X	



#DISTANCE SETTINGS
A = Detector Channel
A-1	A-2	A-3	A-4	A-5	A-6	A-7	A-8	A-9	A-10	A-11	A-12	A-13	A-14	A-15	A-16	

2.5000e+00	3.0000e+00	2.5000e+00	3.0000e+00	2.0000e+00	3.0000e+00	1.5000e+00	3.0000e+00	3.0000e+00	3.0000e+00	3.0000e+00	3.0000e+00	3.0000e+00	3.0000e+00	1.5000e+00	3.0000e+00	

B = Detector Channel
B-1	B-2	B-3	B-4	B-5	B-6	B-7	B-8	B-9	B-10	B-11	B-12	B-13	B-14	B-15	B-16	

1.0000e+01	1.0000e+01	1.0000e+01	1.4400e+00	1.0000e+01	1.0000e+01	1.5100e+00	1.9400e+00	1.0000e+01	1.0000e+01	1.9900e+00	2.4900e+00	2.4100e+00	2.9000e+00	1.0000e+01	2.9800e+00	




#DATA BEGINS
time	group	step	mark	flag	A-AC1	A-AC2	A-AC3	A-AC4	A-AC5	A-AC6	A-AC7	A-AC8	A-AC9	A-AC10	A-AC11	A-AC12	A-AC13	A-AC14	A-AC15	A-AC16	A-DC1	A-DC2	A-DC3	A-DC4	A-DC5	A-DC6	A-DC7	A-DC8	A-DC9	A-DC10	A-DC11	A-DC12	A-DC13	A-DC14	A-DC15	A-DC16	A-Ph1	A-Ph2	A-Ph3	A-Ph4	A-Ph5	A-Ph6	A-Ph7	A-Ph8	A-Ph9	A-Ph10	A-Ph11	A-Ph12	A-Ph13	A-Ph14	A-Ph15	A-Ph16	B-AC1	B-AC2	B-AC3	B-AC4	B-AC5	B-AC6	B-AC7	B-AC8	B-AC9	B-AC10	B-AC11	B-AC12	B-AC13	B-AC14	B-AC15	B-AC16	B-DC1	B-DC2	B-DC3	B-DC4	B-DC5	B-DC6	B-DC7	B-DC8	B-DC9	B-DC10	B-DC11	B-DC12	B-DC13	B-DC14	B-DC15	B-DC16	B-Ph1	B-Ph2	B-Ph3	B-Ph4	B-Ph5	B-Ph6	B-Ph7	B-Ph8	B-Ph9	B-Ph10	B-Ph11	B-Ph12	B-Ph13	B-Ph14	B-Ph15	B-Ph16	aux-1	digaux	

57450.996	1	1	0	256	0.079125	0.14242	0.1281	0.19992	0.087249	0.22855	0.25557	0.30515	0.22464	0.2242	0.25786	0.092659	0.18848	0.11764	0.12362	0.18078	-3.4125	-4.3562	-4.1896	-3.8625	-4.4542	-3.9729	-4.2021	-4.7854	-3.7042	-4.3438	-4.3042	-3.9083	-4.9313	-4.2125	-4.0604	-4.6458	84.319	175.780	71.208	-98.312	118.619	-74.299	201.862	191.140	-43.467	4.565	214.535	129.763	139.251	-89.795	-41.532	177.698	0.00024149	0.00035443	0.00012762	1439.2	2.7637e-06	5.8322e-06	1430.5	381.31	2.7789e-06	3.4932e-06	436.97	146.47	126.32	43.493	4.7451e-06	53.824	0.00047821	0.00051774	0.00013945	1448.8	5.5343e-06	5.7919e-06	1442.5	385.65	5.7792e-06	5.7381e-06	442.25	149.44	129.13	44.458	5.7494e-06	55.044	194.397	-9.333	-12.747	-94.300	53.790	54.402	-94.476	-89.651	15.692	37.768	-90.159	-86.315	-85.756	-80.895	17.520	-81.323	-8191	255	
57451.094	1	1	0	0	0.18554	0.042648	0.18875	0.15797	0.088018	0.094007	0.22903	0.33726	0.15773	0.029718	0.12871	0.23743	0.48015	0.18745	0.20353	0.18717	-3.5563	-4.3604	-4.4229	-4.0083	-4.4292	-4.1604	-4.1937	-4.6604	-3.6354	-4.3354	-4.4125	-3.6896	-4.6167	-4.2458	-3.8563	-4.7063	157.188	82.837	29.964	246.763	-28.929	-106.660	165.146	178.302	243.899	119.786	-84.945	158.755	193.314	142.263	-50.700	-77.459	0.00023297	0.00058307	0.00015023	1430.8	2.5049e-06	4.0228e-06	1421.6	379.66	2.2177e-06	5.1089e-06	435.58	145.45	125.83	43.402	3.4839e-06	53.898	0.00046701	0.00049852	0.00013684	1440.3	5.4253e-06	5.4911e-06	1434.7	383.91	5.6575e-06	5.5985e-06	440.27	148.78	128.71	44.296	5.5229e-06	54.899	191.285	-31.914	-6.127	-94.345	38.628	52.885	-94.294	-89.942	24.573	55.307	-90.200	-86.397	-85.530	-80.932	-4.837	-81.588	-8191	255	
57451.211	1	1	0	0	0.085394	0.1624	0.2027	0.16635	0.21723	0.1725	0.32665	0.19816	0.10353	0.11403	0.22482	0.094265	0.2356	0.34578	0.11385	0.11746	-3.4917	-4.2292	-4.4271	-3.9083	-4.4	-4.0875	-4.0292	-4.7271	-3.9146	-4.0458	-4.5813	-3.6417	-4.5437	-4.2771	-3.9188	-4.5938	216.458	-31.725	134.108	128.623	132.363	173.522	-104.724	160.756	150.785	222.984	-105.269	249.500	184.068	230.318	-64.684	135.482	0.00026408	0.00054342	0.00015158	1426.1	2.3149e-06	3.4989e-06	1416.8	377.27	2.2019e-06	5.8096e-06	434.08	144.11	124.73	42.941	3.3345e-06	53.17	0.00047116	0.00051224	0.00013647	1435.1	5.4159e-06	5.5947e-06	1429.2	382.13	5.8003e-06	5.4876e-06	438.04	147.96	127.74	43.98	5.6701e-06	54.395	184.984	-15.636	-12.832	-94.410	83.345	34.746	-94.344	-89.672	1.366	50.870	-90.328	-86.403	-85.644	-80.571	44.512	-80.920	-8191	255	
57451.309	1	1	0	0	0.14972	0.12906	0.074204	0.28696	0.070203	0.2702	0.24334	0.19676	0.045046	0.23208	0.35789	0.22831	0.061552	0.019738	0.055683	0.16503	-3.6458	-3.7646	-4.625	-3.95	-4.3854	-4.4146	-3.9333	-4.6417	-4.1167	-4.0146	-4.6854	-3.8667	-4.5625	-4.3271	-3.7938	-4.7958	10.918	69.886	166.661	182.519	236.582	106.960	193.973	231.021	141.892	160.618	215.977	185.430	181.353	151.358	73.139	-34.389	0.00023504	0.00067342	0.00015252	1424.4	1.5415e-06	5.0764e-06	1413.8	376.41	2.7849e-06	3.978e-06	434.28	144.18	124.42	43.141	2.4255e-06	53.3	0.00047265	0.00053097	0.00014779	1428.4	5.6681e-06	5.7401e-06	1424.5	381.64	6.0639e-06	5.7626e-06	437.66	147.65	127.61	43.901	5.9665e-06	54.427	190.353	-18.454	-16.420	-94.511	19.173	15.328	-94.261	-89.574	18.978	64.544	-90.278	-86.375	-85.980	-80.738	43.695	-81.250	-8191	255	
57451.402	1	1	0	0	0.16594	0.24878	0.16836	0.1264	0.094316	0.16678	0.092388	0.16787	0.10273	0.092257	0.075493	0.17569	0.1507	0.2013	0.13281	0.079257	-3.6042	-3.9104	-4.425	-3.9979	-4.2417	-4.2708	-3.8104	-4.8583	-3.975	-4.0396	-4.8708	-3.7521	-4.2396	-4.5479	-3.8104	-4.7438	208.962	132.854	-94.015	-102.838	66.900	-95.626	221.379	186.784	181.189	121.867	212.227	-53.993	70.899	210.655	-74.744	101.018	0.00024284	0.00030255	0.00015976	1413.6	2.3018e-06	6.1335e-06	1409.1	375.58	2.3682e-06	7.3405e-06	429.05	143.51	124.61	42.983	3.1121e-06	52.781	0.00047601	0.00053089	0.00014321	1425.9	6.0001e-06	5.6729e-06	1422.6	381.08	6.1019e-06	6.1132e-06	436.25	147.26	127.37	43.811	6.08e-06	54.164	191.936	-7.022	-21.837	-94.287	48.820	32.910	-94.365	-89.733	33.246	39.991	-90.209	-86.494	-85.969	-80.623	26.910	-81.500	-8191	255	
57451.500	1	1	0	0	0.053752	0.13848	0.01861	0.21883	0.16222	0.16213	0.24561	0.039106	0.15554	0.23664	0.16583	0.20843	0.32859	0.01386	0.16677	0.17334	-3.8854	-3.8542	-4.6583	-4.1833	-4.2104	-4.5563	-3.9104	-4.6875	-4.3167	-3.8542	-4.8063	-3.8979	-4.1312	-4.625	-3.7917	-4.5208	-5.054	226.932	-32.187	238.946	103.804	163.755	195.083	23.622	130.745	-35.814	-37.656	185.284	178.697	137.304	213.414	-49.974	0.00023009	0.0006944	0.00012013	1415.5	4.8335e-06	2.8542e-06	1400.7	376.21	3.4746e-06	4.5772e-06	433.47	143.27	124.13	42.636	4.5293e-06	53.142	0.00048625	0.00054359	0.00014307	1425.1	6.0973e-06	5.831e-06	1419	381.21	5.6868e-06	5.8668e-06	437.07	146.96	127.12	43.724	5.7848e-06	54.241	196.042	-32.058	-19.149	-94.250	16.973	60.618	-94.385	-89.898	19.961	27.127	-90.259	-86.475	-85.611	-80.831	48.135	-81.405	-8191	255	
57451.598	1	1	0	0	0.23122	0.18245	0.022146	0.33974	0.23448	0.20488	0.15939	0.14758	0.27857	0.081722	0.13652	0.0643	0.12869	0.064399	0.1825	0.091991	-4.0875	-3.7958	-4.6625	-4.1813	-3.8688	-4.5563	-4.0563	-4.6229	-4.5417	-3.7979	-4.7312	-4.3042	-4.1562	-4.7812	-3.8438	-4.4271	126.311	48.287	81.135	184.132	199.359	110.325	197.825	150.169	80.846	-63.528	159.453	184.726	225.895	72.186	-50.683	-0.731	0.00023428	0.00054948	0.00016736	1413.7	3.3506e-06	5.0489e-06	1400.8	376.24	3.3393e-06	5.7554e-06	431.71	143.93	124.86	43.193	3.5699e-06	53.309	0.00046608	0.00050113	0.00013651	1420.6	5.5164e-06	5.3388e-06	1418.5	381.24	5.3852e-06	5.4198e-06	437.21	147.51	127.42	43.989	5.1617e-06	54.413	192.513	-1.935	-22.119	-94.359	53.154	33.923	-94.446	-89.517	-3.981	59.526	-89.981	-86.273	-85.703	-80.598	17.659	-81.642	-8191	255	
57451.691	1	1	0	0	0.12612	0.15497	0.18243	0.46576	0.1205	0.17546	0.17575	0.25291	0.27903	0.19839	0.038675	0.091298	0.22538	0.12669	0.17408	0.17285	-4.2833	-3.8375	-4.5979	-4.3438	-3.9333	-4.7396	-4.1729	-4.3688	-4.5583	-3.8521	-4.6833	-4.3833	-4.0083	-4.9021	-4.0979	-4.2583	98.646	96.791	-18.142	-74.512	108.240	-10.058	202.628	194.329	3.933	-41.151	-57.355	162.619	178.735	221.663	185.024	233.329	0.00022609	0.00028036	0.00015633	1416	2.8989e-06	6.1653e-06	1399.2	376.09	1.1809e-06	4.882e-06	431.7	144.39	124.43	43.123	3.5727e-06	53.416	0.00044841	0.00048086	0.0001256	1419.8	5.2324e-06	5.0434e-06	1416.9	380.81	5.0039e-06	5.1361e-06	436.76	147.63	127.5	44.191	5.0418e-06	54.573	188.853	3.537	-4.621	-94.332	29.885	52.555	-94.272	-89.783	13.266	43.781	-89.895	-86.393	-85.645	-81.026	26.860	-81.533	-8191	255	
57451.789	1	1	0	0	0.25249	0.11487	0.099069	0.27963	0.091138	0.22371	0.063325	0.22986	0.13118	0.099595	0.13327	0.23053	0.15034	0.16198	0.088755	0.037409	-4.4021	-3.7208	-4.6104	-4.5083	-3.9271	-4.6042	-4.1875	-4.2937	-4.4708	-3.7417	-4.5667	-4.4479	-3.8521	-4.6333	-4.0813	-4.0938	201.690	140.126	14.124	-96.988	213.897	82.616	192.494	-101.103	-40.408	152.379	-61.348	167.228	168.330	92.924	45.596	215.827	0.00025192	0.00041449	0.00011422	1404.9	3.072e-06	4.8833e-06	1398.2	376.51	1.6311e-06	4.652e-06	430.48	144.05	124.6	43.496	3.629e-06	53.542	0.0004253	0.0004647	0.00012413	1413.9	5.0591e-06	4.808e-06	1411.9	380.9	4.9569e-06	4.9665e-06	436.89	147.63	127.55	44.187	4.9088e-06	54.608	190.306	-17.287	-18.846	-94.228	26.187	34.900	-94.290	-89.671	20.969	63.612	-90.178	-86.314	-85.534	-80.783	52.421	-81.294	-8191	255	
57451.906	1	1	0	0	0.021373	0.26623	0.050737	0.13839	0.084093	0.029984	0.19449	0.19191	0.083904	0.15998	0.066589	0.27202	0.094657	0.12754	0.061188	0.015017	-4.3875	-3.8417	-4.2458	-4.5896	-3.8167	-4.6792	-4.2458	-4.0958	-4.625	-3.8625	-4.5083	-4.7521	-3.7729	-4.7104	-4.2729	-4.0333	10.783	-98.628	-64.481	241.870	-104.209	-72.568	156.634	-80.423	-25.095	111.747	244.224	173.136	130.368	238.643	52.591	199.556	0.00023012	0.00057378	0.00011277	1399.4	4.8779e-06	6.3386e-06	1390	373.92	3.4695e-06	4.2134e-06	430.28	142.98	124.51	43.059	4.7406e-06	53.353	0.00042513	0.00045366	0.00012598	1406.6	5.0575e-06	4.9398e-06	1405.5	379.59	4.9936e-06	4.9933e-06	435.91	147.04	127.2	43.849	5.1374e-06	54.253	192.144	-34.955	-22.311	-94.137	38.105	40.148	-94.338	-89.815	12.706	18.160	-90.531	-86.145	-85.818	-80.734	15.614	-81.599	-8191	255	
57452.004	1	1	0	0	0.1912	0.26687	0.18523	0.25864	0.089819	0.085555	0.21671	0.29548	0.097517	0.26592	0.095532	0.15234	0.30039	0.016492	0.21413	0.19901	-4.4583	-3.9042	-4.275	-4.85	-3.725	-4.5271	-4.4104	-4.0208	-4.5667	-4.0312	-4.3208	-4.7708	-3.8708	-4.6104	-4.375	-3.7938	102.536	226.524	34.994	217.846	-90.231	209.713	195.772	90.464	86.435	117.180	238.952	175.680	-96.966	51.610	94.488	47.710	0.00022423	0.00068702	0.00012175	1390.4	3.0812e-06	4.9889e-06	1382.3	373.58	2.0825e-06	3.4559e-06	425.71	142.05	122.82	42.544	3.44e-06	52.738	0.00041903	0.00046474	0.00012854	1396.7	5.2084e-06	5.1198e-06	1393.1	377.91	5.1372e-06	5.2298e-06	432.06	145.87	125.8	43.404	5.2031e-06	53.709	194.668	-22.632	-11.977	-94.317	1.102	38.019	-94.313	-89.810	1.301	21.969	-90.242	-86.266	-85.638	-80.732	31.380	-81.497	-8191	255	
57452.098	1	1	0	0	0.10819	0.19891	0.093605	0.2091	0.22693	0.10838	0.18617	0.23872	0.14892	0.07136	0.16177	0.15497	0.030135	0.18163	0.20628	0.11323	-4.4667	-3.95	-4.1917	-4.7417	-3.6875	-4.3938	-4.6271	-3.8396	-4.6562	-4.0229	-4.225	-4.7229	-3.8187	-4.4333	-4.425	-3.9562	7.135	206.873	30.826	-77.144	126.430	52.777	153.091	236.958	230.266	222.230	27.367	-52.358	22.441	98.279	56.714	224.005	0.00023183	0.00047599	0.00015954	1376.1	2.1335e-06	3.4789e-06	1367.6	369.54	2.6598e-06	4.9924e-06	423.06	141.33	122.55	41.774	3.691e-06	52.539	0.00042814	0.00048033	0.00012771	1385.4	5.1613e-06	5.1625e-06	1384.4	375	5.2041e-06	5.338e-06	428.2	144.73	124.95	42.928	5.0397e-06	53.235	198.444	-31.952	-35.099	-94.233	25.973	36.471	-94.290	-89.694	28.689	72.636	-90.010	-86.151	-85.668	-80.818	29.624	-81.415	-8191	255	
57452.195	1	1	0	0	0.20898	0.060294	0.041959	0.21056	0.1488	0.087702	0.19999	0.1538	0.096953	0.14929	0.19773	0.23179	0.19434	0.042528	0.29612	0.2476	-4.3583	-4.0437	-4.0833	-4.7333	-3.825	-4.2479	-4.6375	-3.9479	-4.7438	-4.2646	-4.1562	-4.9229	-3.9479	-4.3125	-4.4604	-3.8896	248.591	205.783	-86.770	252.101	75.849	196.221	189.062	143.316	-46.097	82.727	205.412	209.180	130.226	189.036	56.739	205.153	0.00025929	0.00055051	0.00017334	1379.5	2.9494e-06	4.81e-06	1367.8	367.4	2.6011e-06	5.9469e-06	423.82	141.69	121.56	42.133	3.5666e-06	52.351	0.00044738	0.00048415	0.00013118	1382.8	5.2682e-06	5.0907e-06	1380.6	374.08	5.0242e-06	5.0365e-06	429.03	145.13	124.91	42.989	4.7838e-06	53.312	197.629	-21.649	5.781	-94.250	62.011	46.234	-94.177	-89.609	29.369	63.118	-90.237	-86.124	-85.686	-80.829	26.797	-81.482	-8191	255	
57452.289	1	1	0	0	0.19225	0.088182	0.11706	0.27121	0.10963	0.011105	0.16951	0.13077	0.15298	0.31464	0.1653	0.16248	0.035369	0.23406	0.098414	0.10029	-4.1458	-4.3229	-3.7812	-4.7063	-3.9208	-4.2021	-4.7854	-3.8812	-4.3229	-4.4604	-3.9917	-4.8729	-4.1896	-4.1583	-4.7521	-3.9958	162.974	211.210	104.305	245.687	211.489	-82.255	204.412	135.562	4.208	124.221	204.768	-85.719	67.573	180.609	129.198	-7.424	0.00022901	0.00057463	0.00014811	1367.7	4.4107e-06	3.7181e-06	1368.9	369.8	1.735e-06	4.3607e-06	423.25	141.57	122.48	42.356	3.8641e-06	52.459	0.00041677	0.00044776	0.0001223	1376.7	4.8594e-06	4.8071e-06	1378.8	374.04	4.6805e-06	4.5032e-06	427.75	145.14	125.1	43.198	4.5663e-06	53.523	192.769	-21.471	1.183	-94.314	35.719	46.842	-94.174	-89.568	16.480	46.916	-90.249	-86.099	-85.540	-80.852	9.817	-81.138	-8191	255	
57452.387	1	1	0	0	0.064232	0.16206	0.28633	0.22935	0.069973	0.025899	0.26074	0.1844	0.15996	0.15124	0.33789	0.25173	0.24029	0.11922	0.20523	0.15139	-4.1125	-4.5917	-3.5854	-4.7667	-3.9917	-4.1542	-4.9375	-3.9813	-4.4146	-4.5833	-4.0292	-4.7042	-4.2688	-4.0563	-4.7729	-3.9854	53.461	125.429	238.994	209.264	120.826	204.356	200.017	192.864	206.239	166.861	230.927	185.615	239.228	35.919	-92.994	106.425	0.00023837	0.00038301	0.00011831	1363.4	2.262e-06	5.0622e-06	1361.3	368.77	1.8257e-06	6.0102e-06	420.68	140.77	122.09	42.49	3.0608e-06	52.349	0.00040937	0.00042342	0.00012144	1371.3	4.7036e-06	4.748e-06	1375.5	372.85	4.9099e-06	4.7442e-06	427.41	144.57	124.95	43.088	4.9062e-06	53.354	191.234	-34.608	-0.398	-94.368	34.842	30.183	-94.010	-89.743	13.409	43.380	-89.978	-86.299	-85.440	-80.677	0.704	-81.428	-8191	255	
57452.508	1	1	0	0	0.14361	0.04732	0.12455	0.25346	0.11298	0.20685	0.28463	0.22128	0.024312	0.18683	0.094133	0.25223	0.30205	0.25863	0.10735	0.14941	-4.0312	-4.4333	-3.6771	-4.575	-4.0875	-3.7979	-4.7833	-4.0833	-4.1542	-4.5437	-3.9313	-4.6729	-4.3375	-3.7833	-4.7937	-3.9917	60.595	105.312	217.453	233.050	191.115	-80.647	186.033	202.099	-18.446	5.734	67.053	-80.423	175.717	213.443	136.058	193.287	0.00023337	0.0005101	0.00013711	1361	2.5255e-06	4.4933e-06	1365.9	368.87	3.7215e-06	5.5935e-06	422.04	141.16	122.02	42.331	4.811e-06	52.534	0.00040464	0.00044178	0.00012322	1371	4.988e-06	4.8912e-06	1378.5	372.98	4.8298e-06	4.6691e-06	428.12	144.84	124.92	43.248	4.4417e-06	53.733	194.296	-9.391	-16.118	-94.270	42.143	45.220	-94.066	-89.757	-0.194	48.049	-90.218	-86.421	-85.663	-80.991	18.792	-81.586	-8191	255	
57452.605	1	1	0	0	0.32617	0.2116	0.13958	0.30433	0.18971	0.18795	0.2024	0.34064	0.11778	0.1374	0.14276	0.073066	0.095016	0.24983	0.24049	0.13356	-3.8187	-4.6687	-3.6896	-4.6146	-4.2333	-3.9375	-4.7271	-4.0062	-4.0458	-4.7083	-3.7396	-4.5021	-4.4354	-3.9104	-4.7063	-4.2042	-28.841	205.868	98.667	197.644	-2.322	38.449	181.105	177.530	74.428	243.255	157.482	188.472	250.568	-81.347	-6.680	95.967	0.00024944	0.00069546	0.00012969	1365.6	3.2116e-06	2.7212e-06	1358.9	369.89	1.692e-06	4.4809e-06	425.21	141.37	123.04	42.859	4.2384e-06	52.97	0.00041567	0.00041173	0.00011112	1373.9	4.6011e-06	4.5985e-06	1378.6	374.01	4.7717e-06	4.3904e-06	429.36	145.34	125.6	43.592	4.3948e-06	53.982	187.466	-15.040	-37.884	-94.214	40.784	56.921	-94.206	-89.686	-34.158	46.088	-90.348	-86.202	-85.747	-80.667	19.734	-81.722	-8191	255	
57452.699	1	1	0	0	0.10476	0.11994	0.15846	0.21901	0.030839	0.28511	0.19455	0.082435	0.27668	0.33413	0.102	0.097423	0.18728	0.0085641	0.2245	0.17539	-3.6396	-4.5417	-3.6375	-4.4583	-4.5292	-3.7792	-4.7021	-4.1646	-3.9188	-4.6854	-3.8104	-4.3146	-4.5042	-3.7188	-4.3542	-4.1375	47.530	141.242	116.696	247.557	104.554	152.711	168.303	219.202	102.465	127.223	233.230	-75.583	162.256	105.870	31.015	232.770	0.00023878	0.00043461	0.00013706	1370.5	2.2312e-06	5.0677e-06	1365.6	367.76	3.0572e-06	4.7963e-06	423.83	142.19	122.64	42.821	3.8179e-06	52.921	0.00040155	0.00039427	0.00010905	1376	4.4501e-06	4.1853e-06	1378.6	373.28	4.5901e-06	4.1221e-06	429.38	145.42	125.57	43.515	4.3679e-06	53.947	193.833	-22.709	-24.109	-94.287	49.344	48.209	-94.180	-89.669	21.437	30.833	-90.300	-86.199	-85.552	-80.905	32.795	-81.126	-8191	255	
57452.797	1	1	0	0	0.16147	0.26282	0.045366	0.23761	0.062391	0.074392	0.041001	0.081652	0.16686	0.069102	0.35975	0.17173	0.2093	0.13675	0.13233	0.057498	-3.4771	-4.6479	-3.775	-4.4542	-4.5417	-3.8167	-4.6021	-4.3958	-3.8875	-4.7458	-3.9292	-4.2792	-4.7354	-3.7479	-4.4125	-4.3354	34.941	-79.280	246.016	184.091	185.298	214.886	221.051	246.341	79.310	-103.470	192.741	201.950	169.755	-26.750	161.056	107.434	0.00024041	0.00062792	0.00011343	1368.4	1.7385e-06	5.5443e-06	1361.3	367.89	2.688e-06	4.3614e-06	422.91	142.04	122.75	42.409	3.8588e-06	52.722	0.00039775	0.00038776	0.00010924	1373.4	4.4119e-06	4.4303e-06	1378.9	373.82	4.6178e-06	4.1867e-06	428.88	145.28	125.64	43.359	4.513e-06	53.844	193.982	-20.553	-3.410	-94.090	20.222	40.511	-94.092	-89.471	12.124	62.004	-90.220	-86.403	-85.725	-80.512	29.923	-81.348	-8191	255	
57452.891	1	1	0	0	0.16945	0.15013	0.28765	0.11995	0.086609	0.24278	0.049012	0.23451	0.13969	0.123	0.14615	0.21528	0.12204	0.32489	0.042155	0.24673	-3.5896	-4.5604	-4.0062	-4.1979	-4.5104	-3.6167	-4.4854	-4.4667	-3.675	-4.5979	-4.0062	-4.0167	-4.7917	-3.8688	-4.2833	-4.5708	73.017	227.652	167.895	150.924	-57.776	216.793	211.457	180.027	-89.355	-4.044	-8.856	248.870	202.992	231.246	-33.643	210.356	0.00024625	0.00042348	0.00012159	1366.6	2.7011e-06	4.9004e-06	1358.9	367.94	2.5231e-06	5.3354e-06	422.88	141.49	122.58	42.473	3.7155e-06	52.832	0.00039898	0.00040473	0.00011138	1374.7	4.5958e-06	4.5244e-06	1376.7	373.23	4.5489e-06	4.3768e-06	428.08	145.22	125.3	43.323	4.35e-06	53.736	197.314	-30.967	-14.533	-94.184	2.338	55.142	-94.382	-89.504	-2.107	31.492	-90.341	-86.245	-85.476	-80.935	46.115	-81.292	-8191	255	
57452.988	1	1	0	0	0.20321	0.25357	0.082131	0.2856	0.059732	0.015819	0.15838	0.3162	0.068591	0.075331	0.19776	0.26277	0.25713	0.050398	0.16698	0.071704	-3.5896	-4.6687	-4.1083	-4.1146	-4.5854	-3.825	-4.4792	-4.4917	-3.7438	-4.6062	-4.4875	-3.9208	-4.6813	-3.7625	-4.0542	-4.6854	129.289	230.055	78.696	169.521	193.187	141.899	214.393	212.308	54.753	61.874	194.690	129.892	214.384	40.934	110.776	-98.615	0.00023235	0.0005176	0.00010357	1366.3	2.5453e-06	5.182e-06	1357.1	369.25	2.326e-06	3.6452e-06	425.97	141.49	122.79	42.281	4.1647e-06	52.745	0.00039765	0.00038971	0.00011498	1371.4	4.3842e-06	4.5494e-06	1374.5	373.69	4.5579e-06	4.3172e-06	429.12	144.93	125.38	43.221	4.4136e-06	53.734	187.124	-11.889	5.892	-94.416	56.874	37.742	-94.362	-89.453	24.627	53.247	-90.102	-86.299	-85.402	-80.920	20.036	-81.287	-8191	255	
57453.082	1	1	0	0	0.15893	0.11748	0.33876	0.28041	0.19752	0.067206	0.15255	0.18779	0.21073	0.23768	0.21924	0.18572	0.17356	0.17909	0.26085	0.12562	-3.4208	-4.5354	-4.1042	-4.0708	-4.5875	-3.8729	-4.2458	-4.5854	-3.7292	-4.3771	-4.2708	-3.9562	-4.6396	-4.1125	-4.0333	-4.7042	70.644	-41.242	-106.258	-92.101	-23.779	91.375	166.355	223.097	-42.493	48.303	204.821	-101.352	150.665	201.356	243.667	119.908	0.00021577	0.00043149	0.00012112	1362.8	3.0523e-06	3.7457e-06	1354.9	368.79	3.8582e-06	6.2051e-06	423.18	141.15	122.83	42.192	2.1965e-06	52.653	0.000399	0.00039871	0.00010973	1370.6	4.5722e-06	4.5626e-06	1372.6	372.72	4.6607e-06	4.1694e-06	427.56	144.76	125.37	43.214	4.44e-06	53.548	188.832	-33.270	-16.519	-94.265	26.611	43.369	-94.417	-89.648	-4.244	44.171	-89.714	-86.326	-85.336	-80.522	13.616	-81.409	-8191	255	
57453.180	1	1	0	0	0.12148	0.081939	0.22269	0.075238	0.19642	0.18989	0.12001	0.21216	0.29491	0.088682	0.1161	0.26772	0.15917	0.0062216	0.092734	0.17085	-3.4854	-4.3562	-4.1708	-3.9792	-4.5896	-4.0604	-4.1354	-4.7146	-3.9646	-4.4167	-4.5417	-3.975	-4.7167	-4.0646	-3.9313	-4.7396	18.337	5.244	116.463	-98.212	-81.411	102.691	-106.862	246.649	168.236	26.120	204.600	209.936	170.010	-34.670	72.013	183.392	0.00022287	0.00063784	0.00012217	1355.9	2.6881e-06	3.8463e-06	1357.1	366.56	2.6913e-06	4.8823e-06	419.12	141.68	123.14	42.483	3.0128e-06	52.546	0.0004018	0.00041369	0.00010885	1367.3	4.3155e-06	4.2926e-06	1371.1	372.36	4.7477e-06	4.3249e-06	426.89	144.83	125.08	43.295	4.5616e-06	53.553	187.173	-43.464	-22.358	-94.373	39.407	41.409	-94.259	-89.540	6.967	47.368	-90.046	-86.334	-85.608	-80.528	41.566	-81.361	-8191	255	
57453.301	1	1	0	0	0.1536	0.33438	0.13129	0.16431	0.19059	0.11836	0.21879	0.21855	0.045528	0.068958	0.14927	0.20433	0.12378	0.094216	0.088443	0.055387	-3.4667	-4.2792	-4.3458	-3.8312	-4.5521	-4.3333	-4.225	-4.7417	-3.6771	-4.1958	-4.6562	-4.0708	-4.5708	-4.2583	-3.9125	-4.7583	93.364	217.530	30.633	161.432	68.582	160.261	163.377	203.307	135.696	216.093	186.016	226.114	200.781	28.127	193.356	16.440	0.00022217	0.00059104	0.00013332	1361.8	4.0837e-06	5.6934e-06	1351.3	366.85	1.9859e-06	6.2815e-06	422.21	140.78	122.19	42.291	3.728e-06	52.424	0.00040574	0.00041576	0.00011377	1367.2	4.3509e-06	4.3462e-06	1369.7	371.83	4.6887e-06	4.4277e-06	426.64	144.42	124.88	43.118	4.4528e-06	53.417	190.153	-32.704	-27.416	-94.326	31.847	56.289	-94.199	-89.591	16.433	28.411	-89.836	-86.259	-85.740	-80.641	21.127	-81.423	-8191	255	
57453.395	1	1	0	0	0.089943	0.11477	0.1462	0.28656	0.1236	0.13023	0.10849	0.20064	0.28299	0.21393	0.2338	0.1215	0.17599	0.056976	0.17739	0.14013	-3.3896	-4.1146	-4.5229	-3.875	-4.5417	-4.2833	-3.8438	-4.7729	-4.0167	-4.0917	-4.7	-3.8021	-4.3792	-4.4	-3.7708	-4.7375	31.817	1.546	-83.630	195.836	111.372	234.422	190.872	157.937	117.759	64.101	226.630	181.099	-54.050	189.319	181.885	223.655	0.00023534	0.00044908	0.00012356	1355.9	2.9956e-06	3.8126e-06	1353.9	367.43	2.9246e-06	4.1535e-06	424	140.99	121.81	42.113	3.394e-06	52.192	0.00039319	0.00041055	0.000102	1364.3	4.6454e-06	4.3708e-06	1369.1	371.55	4.539e-06	4.3786e-06	426.52	144.21	124.37	43.021	4.5471e-06	53.349	187.076	-17.172	-7.462	-94.234	36.319	33.476	-94.417	-89.692	14.623	45.519	-89.969	-86.200	-85.933	-80.545	10.566	-81.698	-8191	255	
57453.469	1	1	0	0	0.15528	0.077716	0.2407	0.16533	0.23349	0.10641	0.27728	0.31816	0.17476	0.1634	0.030271	0.10641	0.15908	0.15422	0.093329	0.090724	-3.6021	-4.0188	-4.6062	-3.8854	-4.3063	-4.3562	-3.9	-4.7521	-4.1188	-3.8583	-4.8729	-4.0479	-4.3354	-4.6542	-3.7438	-4.7333	-0.974	54.322	180.777	-62.130	137.230	98.192	237.475	184.859	109.778	-10.311	85.296	214.015	152.962	-93.974	-53.984	232.760	0.00023197	0.00042156	0.0001476	1356.1	3.6035e-06	4.2254e-06	1349.5	366.31	1.2508e-06	6.1641e-06	422.25	140.16	121.57	42.356	4.5784e-06	52.369	0.0004066	0.00040119	0.00011076	1363.7	4.4794e-06	4.2672e-06	1366.5	371.46	4.5311e-06	4.2099e-06	426.41	144.13	124.56	43.121	4.3291e-06	53.315	189.880	-20.159	-6.204	-94.514	34.975	46.778	-94.282	-89.458	22.230	51.687	-90.141	-86.107	-85.558	-80.522	41.938	-81.573	-8191	255	
57453.590	1	1	0	0	0.21075	0.047484	0.21088	0.19255	0.28253	0.12851	0.19804	0.22878	0.20792	0.11688	0.25472	0.12031	0.10239	0.031956	0.17303	0.23685	-3.8729	-3.7458	-4.5542	-4.1875	-4.0875	-4.6937	-3.8458	-4.6292	-4.2188	-3.9833	-4.8375	-4.0521	-4.1979	-4.5813	-3.7604	-4.6042	105.436	9.521	-89.817	184.330	53.446	220.739	212.547	180.427	245.660	98.261	121.143	102.851	192.807	63.465	4.669	183.300	0.00025293	0.00074796	0.00012785	1359.9	3.4659e-06	4.5141e-06	1353.6	366.96	2.6945e-06	5.4581e-06	420.58	140.68	122.31	42.091	3.7306e-06	52.362	0.00040192	0.00040099	0.00010574	1363.7	4.5901e-06	4.2222e-06	1367.2	371.19	4.496e-06	4.3086e-06	425.62	143.96	124.65	42.973	4.5629e-06	53.315	189.234	-25.532	-24.934	-94.296	52.528	37.686	-94.524	-89.804	-3.161	34.434	-90.225	-86.462	-85.895	-80.684	35.843	-81.246	-8191	255	
57453.684	1	1	0	0	0.10822	0.16299	0.1869	0.13508	0.043227	0.1203	0.37185	0.071059	0.14173	0.17407	0.063421	0.16984	0.048386	0.026961	0.095521	0.16884	-3.8896	-3.8979	-4.6458	-4.2333	-4.0771	-4.4583	-3.925	-4.5479	-4.3708	-3.7896	-4.7354	-4.0333	-4.1896	-4.7583	-3.7125	-4.3646	123.175	-48.547	-85.094	235.289	212.988	172.419	193.025	50.938	-47.425	106.720	17.519	228.716	50.210	-32.348	135.618	129.691	0.00023856	0.00052709	0.00016142	1361.8	2.9259e-06	5.4563e-06	1348.5	366.07	3.0272e-06	5.1535e-06	419.96	140.4	121.62	42.076	2.7513e-06	52.347	0.00039621	0.0004064	0.00010647	1362.3	4.6015e-06	4.2353e-06	1364.4	370.77	4.4284e-06	4.4086e-06	424.67	144.03	124.11	42.921	4.5351e-06	53.204	189.727	-19.408	3.022	-94.310	38.712	49.401	-94.316	-89.793	15.473	51.668	-90.162	-86.042	-85.779	-80.640	23.254	-81.365	-8191	255	
57453.781	1	1	0	0	0.071339	0.1537	0.060891	0.21207	0.197	0.13589	0.092266	0.19031	0.12572	0.085	0.10438	0.21009	0.078871	0.13629	0.11411	0.052102	-4.1479	-3.6896	-4.6604	-4.3187	-3.9375	-4.625	-3.9521	-4.3375	-4.4187	-3.8521	-4.7625	-4.2979	-3.8146	-4.5437	-3.8146	-4.3708	-49.939	-71.984	85.754	-98.289	-70.282	236.465	222.407	161.940	177.511	180.796	102.081	218.338	-106.611	-79.204	115.793	232.333	0.00023843	0.000358	0.00011311	1353	2.8406e-06	4.1992e-06	1350.4	366.43	2.0439e-06	5.683e-06	421.49	140.17	121.09	41.85	2.9724e-06	52.158	0.00039283	0.00040127	0.00011066	1360.4	4.5283e-06	4.1517e-06	1363.8	370.74	4.3211e-06	4.4786e-06	425.31	143.84	123.89	42.82	4.4682e-06	53.105	190.781	-14.362	-14.312	-94.181	26.605	35.645	-94.111	-89.596	10.750	58.265	-90.013	-86.140	-85.474	-80.640	26.784	-81.239	-8191	255	
57453.898	1	1	0	0	0.18845	0.10771	0.38419	0.22695	0.042455	0.13107	0.16176	0.074829	0.02219	0.12115	0.16513	0.061516	0.12097	0.16895	0.20106	0.22834	-4.1875	-3.8208	-4.5312	-4.375	-3.7083	-4.7625	-4.175	-4.2354	-4.6042	-3.7458	-4.7812	-4.5208	-3.9292	-4.8292	-4.1021	-4.1188	234.607	222.452	247.451	236.877	221.855	-11.208	239.281	153.715	-68.999	-86.504	190.532	222.587	224.875	-7.535	109.161	239.260	0.00025398	0.00052191	0.00015812	1350.5	3.0318e-06	3.5227e-06	1352.2	367.21	4.1263e-06	4.5024e-06	417.9	139.86	121.72	42.106	4.616e-06	52.04	0.00038295	0.0004193	0.00010847	1356.7	4.6112e-06	4.2717e-06	1363.7	370.89	4.5352e-06	4.354e-06	424.08	143.77	124.22	42.883	4.5748e-06	53.087	191.072	-20.404	-14.082	-94.362	43.652	16.063	-94.317	-89.829	-0.873	38.541	-90.553	-86.274	-85.646	-80.572	9.947	-81.716	-8191	255	
57453.996	1	1	0	0	0.21264	0.14697	0.36074	0.22433	0.23306	0.060952	0.017129	0.29197	0.25341	0.073197	0.18249	0.1337	0.17792	0.15432	0.2089	0.27305	-4.3708	-3.6479	-4.2917	-4.6729	-3.7521	-4.7688	-4.1917	-4.0271	-4.4833	-3.9188	-4.5312	-4.6354	-3.8125	-4.6521	-4.1542	-4.1229	-100.219	37.169	77.775	237.425	-10.337	36.079	51.837	208.517	114.620	113.682	-105.436	115.671	230.301	113.744	234.152	-19.288	0.00021721	0.00068683	0.00018219	1347.4	2.2791e-06	4.9791e-06	1346.8	364.12	3.4737e-06	3.8915e-06	418.11	139.73	120.96	42.105	4.0808e-06	52.063	0.00038351	0.00040966	0.00010861	1356.9	4.6121e-06	4.2576e-06	1361.5	370	4.4874e-06	4.4109e-06	424.12	143.45	123.76	42.938	4.44e-06	53.081	189.143	-37.968	-8.427	-94.312	20.581	44.403	-94.274	-89.948	8.224	45.534	-90.023	-85.976	-85.613	-80.330	28.618	-81.719	-8191	255	
57454.066	1	1	0	0	0.13608	0.1356	0.122	0.14652	0.17353	0.2255	0.28348	0.21334	0.10472	0.067442	0.30721	0.14183	0.12394	0.29086	0.21475	0.02716	-4.3354	-3.7938	-4.1479	-4.5792	-3.8187	-4.6438	-4.325	-4.1667	-4.6604	-3.9208	-4.175	-4.7146	-3.825	-4.5521	-4.3729	-3.8021	21.605	224.322	137.138	229.952	177.346	158.561	172.398	225.908	27.046	55.969	208.667	176.411	240.331	-90.752	246.430	-37.028	0.00024339	0.00055391	0.00018693	1346.9	3.4779e-06	5.3102e-06	1347.6	366.04	2.1899e-06	4.7548e-06	418.53	140.35	120.81	42.357	3.8519e-06	51.979	0.00039395	0.0003961	0.00011296	1356.5	4.5596e-06	4.2335e-06	1361	370.57	4.3921e-06	4.2235e-06	424.02	143.4	123.81	42.917	4.3138e-06	53.006	195.319	-4.888	-25.955	-94.234	16.969	24.538	-94.394	-89.719	11.366	68.349	-89.975	-86.230	-85.722	-80.485	49.035	-81.549	-8191	255	
57454.188	1	1	0	0	0.042513	0.23285	0.075496	0.21482	0.18692	0.11479	0.12957	0.042168	0.167	0.13419	0.23502	0.24735	0.13972	0.349	0.046648	0.086481	-4.4958	-3.9125	-4.1667	-4.8229	-3.7729	-4.3271	-4.5146	-4	-4.6646	-3.9583	-4.1625	-4.8396	-3.7938	-4.4958	-4.3917	-3.8542	-29.598	-54.118	40.040	-58.530	141.212	179.091	158.501	201.240	48.186	78.300	-80.357	202.823	112.696	-56.043	112.163	90.957	0.0002308	0.00055729	0.00014759	1340	4.4506e-06	4.638e-06	1347.8	365.78	1.923e-06	4.8769e-06	417.29	140.12	120.17	41.857	1.249e-06	51.648	0.00037903	0.00040628	0.0001073	1352.8	4.6466e-06	4.2912e-06	1360	369.69	4.3879e-06	4.465e-06	423.39	143.46	123.59	42.759	4.2715e-06	52.894	193.993	-21.015	-1.471	-94.031	35.938	54.294	-93.996	-90.024	16.073	62.152	-90.202	-86.236	-85.693	-80.707	9.914	-81.836	-8191	255	
57454.285	1	1	0	0	0.15733	0.083234	0.09723	0.028493	0.069503	0.24252	0.051018	0.17727	0.086954	0.24916	0.059093	0.20067	0.10918	0.19317	0.16407	0.10731	-4.3458	-3.9729	-3.9354	-4.8583	-3.7667	-4.3417	-4.7833	-3.8708	-4.5625	-4.1687	-3.8104	-4.8417	-4.0104	-4.3667	-4.4729	-3.8792	92.268	180.421	179.088	242.005	-80.123	58.826	180.538	208.952	79.071	-84.842	-13.791	180.829	199.032	-103.995	15.325	1.562	0.00024728	0.00059481	0.00015185	1346.8	2.1597e-06	5.2941e-06	1350	364.8	2.475e-06	6.2324e-06	417.38	140.35	121.3	42.012	3.5719e-06	52.062	0.00038481	0.00041556	0.00011271	1353.6	4.3586e-06	4.3508e-06	1358.7	369.69	4.4494e-06	4.384e-06	423.85	143.67	123.62	42.754	4.3163e-06	53.012	191.838	-19.937	-31.604	-94.204	36.034	28.182	-94.148	-89.698	28.760	30.828	-90.222	-86.224	-85.470	-80.982	48.234	-81.414	-8191	255	
57454.379	1	1	0	0	0.041019	0.043904	0.12025	0.080245	0.053346	0.12846	0.14425	0.17945	0.077798	0.18516	0.073758	0.13448	0.11193	0.050083	0.016754	0.23446	-4.2417	-4.2417	-3.9333	-4.7729	-3.8667	-4.2646	-4.7375	-4.0396	-4.575	-4.3187	-3.9729	-4.675	-4.0792	-4.1479	-4.4875	-3.9313	-88.827	-15.573	163.187	188.748	-29.242	12.109	136.010	204.290	206.900	-1.413	-36.616	205.865	-66.550	175.515	2.208	142.148	0.00020821	0.00074486	0.0001192	1346.5	2.7433e-06	2.9524e-06	1346.3	366.27	2.0188e-06	4.515e-06	419.35	139.91	120.84	41.927	3.7559e-06	51.84	0.00039501	0.0004016	0.00011297	1354.5	4.4107e-06	4.249e-06	1359.5	369.68	4.4247e-06	4.2413e-06	423.39	143.52	123.68	42.755	4.2357e-06	52.951	190.398	-28.321	1.584	-94.264	25.868	63.676	-93.955	-89.608	40.410	61.354	-90.326	-86.345	-85.660	-80.737	11.415	-81.294	-8191	255	
57454.477	1	1	0	0	0.16608	0.11218	0.016968	0.13944	0.18953	0.12925	0.10216	0.24948	0.10219	0.039862	0.05162	0.074207	0.08397	0.12411	0.20657	0.18758	-4.1479	-4.2708	-3.8167	-4.7688	-4.0021	-4.0125	-4.8792	-3.9979	-4.4146	-4.4833	-3.8	-4.6458	-4.0542	-4.0083	-4.5458	-3.8354	58.364	-85.629	62.831	215.535	93.942	162.973	145.064	-93.792	72.660	91.034	23.804	138.151	-37.517	-59.839	-99.320	251.549	0.00024094	0.00065995	0.00012158	1346.6	1.8959e-06	5.2729e-06	1349.6	364.66	2.4037e-06	7.1863e-06	418.98	140.23	121.08	41.874	2.9547e-06	51.943	0.00039412	0.00039569	0.00010651	1354.2	4.3297e-06	4.2581e-06	1359.4	369.73	4.4601e-06	4.1367e-06	424.09	143.49	123.66	42.76	4.3769e-06	52.991	188.407	-19.195	-5.993	-94.210	21.145	53.343	-94.193	-89.426	-10.939	52.516	-90.016	-86.347	-85.790	-80.880	27.421	-81.250	-8191	255	
57454.598	1	1	0	0	0.0933	0.27476	0.056767	0.19851	0.29986	0.11032	0.29439	0.03251	0.099776	0.18643	0.16968	0.21176	0.17566	0.099821	0.10284	0.16681	-4.1042	-4.4	-3.8063	-4.8104	-4.2875	-3.9917	-4.9146	-3.925	-4.1958	-4.4437	-3.875	-4.5188	-4.2167	-4.0146	-4.6479	-4.1	-36.078	217.804	73.674	176.849	174.807	142.661	230.426	-41.991	-78.163	115.336	-59.072	190.018	200.025	218.584	192.482	132.755	0.00021265	0.00058392	0.00018138	1346.2	3.1418e-06	4.3475e-06	1341.4	363.75	2.2892e-06	5.6714e-06	417.02	139.62	120.86	41.97	4.2617e-06	51.71	0.00038783	0.00038438	0.0001126	1351.3	4.3875e-06	4.3317e-06	1357.5	369.62	4.463e-06	4.3313e-06	423.12	143.29	123.66	42.825	4.217e-06	52.924	194.942	-16.872	-27.477	-94.439	38.842	46.007	-94.481	-89.421	-2.742	72.197	-90.141	-86.251	-85.586	-80.848	25.269	-81.235	-8191	255	
57454.691	1	1	0	0	0.11976	0.2167	0.22615	0.064605	0.051178	0.15748	0.21142	0.22056	0.1065	0.078903	0.092638	0.066555	0.052898	0.14671	0.13219	0.1043	-3.8333	-4.6937	-3.7313	-4.7521	-4.325	-4.05	-4.8854	-4.0813	-4.2333	-4.7521	-3.9542	-4.6667	-4.4542	-3.95	-4.6188	-4.0958	-62.276	-62.561	-57.248	209.036	99.753	236.810	144.667	185.973	-10.566	113.178	106.530	-36.469	-25.313	221.033	50.715	142.453	0.00023489	0.00045238	0.00016217	1345.1	2.924e-06	5.096e-06	1345.9	364.08	2.8269e-06	4.709e-06	417.65	139.08	120.97	41.938	3.1334e-06	51.908	0.00038932	0.00038218	0.00011253	1352.2	4.3204e-06	4.1867e-06	1358.2	369.26	4.3446e-06	4.2454e-06	423.1	143.16	123.61	42.799	4.5658e-06	52.944	191.922	-47.417	3.347	-94.218	19.383	26.961	-94.130	-89.475	-1.269	34.124	-89.934	-86.219	-85.628	-80.750	51.517	-81.308	-8191	255	
57454.766	1	1	0	0	0.21732	0.13695	0.29859	0.061552	0.16761	0.12621	0.057653	0.10554	0.081621	0.28372	0.41766	0.051877	0.17716	0.19787	0.11597	0.025314	-3.6937	-4.5521	-3.8167	-4.6979	-4.4958	-3.9292	-4.7271	-4.1188	-3.9688	-4.6083	-3.8979	-4.4375	-4.4854	-3.9	-4.6542	-4.1604	-61.689	68.422	91.007	53.580	59.809	12.560	171.196	44.594	-54.434	164.952	215.151	226.197	225.775	-89.935	174.950	62.389	0.00020887	0.00044808	0.00011758	1344.2	3.0598e-06	3.6168e-06	1346.1	364.34	2.5139e-06	6.1779e-06	418.49	140.75	120.72	41.914	3.3027e-06	51.946	0.0003876	0.00037701	0.00010577	1351.9	4.3513e-06	4.4458e-06	1356.9	369.17	4.5472e-06	4.324e-06	422.58	143.36	123.58	42.748	4.3876e-06	52.949	188.931	-14.593	-5.665	-94.352	30.783	45.442	-94.177	-89.345	21.795	67.724	-90.035	-86.445	-85.337	-80.984	27.055	-81.515	-8191	255	
57454.859	1	1	0	0	0.22462	0.14832	0.044097	0.12847	0.20055	0.27307	0.054838	0.090319	0.23296	0.23981	0.19379	0.13741	0.3204	0.047499	0.093843	0.31575	-3.6979	-4.6687	-3.7854	-4.2833	-4.5312	-3.9313	-4.675	-4.4417	-4.0062	-4.7292	-3.9083	-4.2021	-4.5604	-3.8812	-4.4938	-4.4979	-92.692	-99.660	63.375	151.724	173.900	149.017	-95.304	121.576	70.309	-58.333	151.983	-39.438	202.866	-94.447	99.135	169.267	0.00020583	0.00037404	0.0001893	1347.1	2.747e-06	4.1505e-06	1342.4	364.31	2.003e-06	4.0964e-06	419.42	139.62	121.14	41.647	3.8109e-06	52.02	0.00038824	0.00039577	0.00010874	1350.7	4.5112e-06	4.3385e-06	1357.8	368.82	4.5472e-06	4.2181e-06	423.46	143.06	123.53	42.672	4.1803e-06	52.944	195.700	-17.716	-4.870	-94.421	56.727	47.680	-94.214	-89.499	-7.011	34.933	-90.263	-86.316	-85.349	-80.655	50.580	-81.242	-8191	255	
57454.980	1	1	0	0	0.11482	0.17956	0.26564	0.15089	0.13455	0.14746	0.22753	0.13251	0.094832	0.04137	0.13875	0.23631	0.23526	0.057839	0.16137	0.26333	-3.4188	-4.675	-4.1042	-4.2812	-4.5604	-3.7125	-4.5979	-4.4896	-3.7104	-4.8771	-4.0813	-4.1521	-4.7146	-3.8271	-4.3646	-4.5854	148.419	104.175	-66.848	215.521	113.915	121.975	183.112	-97.677	53.031	182.975	205.025	216.571	194.411	241.431	46.564	52.888	0.00020303	0.00067516	0.00012392	1343.8	3.3349e-06	6.3332e-06	1341.4	364.15	2.4035e-06	5.6396e-06	418.34	139.17	121.09	41.78	3.7819e-06	51.734	0.00039153	0.00039785	0.00011484	1350.8	4.2358e-06	4.4362e-06	1356.8	369.1	4.5526e-06	4.0926e-06	422.59	142.97	123.54	42.675	4.2391e-06	52.933	191.067	-34.080	-2.946	-94.170	22.396	53.226	-94.310	-89.800	12.308	57.989	-90.028	-86.374	-85.624	-80.947	18.723	-81.425	-8191	255	
57455.074	1	1	0	0	0.13286	0.14001	0.16401	0.14937	0.12002	0.14859	0.30422	0.093741	0.17435	0.068441	0.18255	0.18304	0.093546	0.14353	0.11229	0.20163	-3.4667	-4.6667	-4.1021	-4.0417	-4.7083	-3.7729	-4.5729	-4.8417	-3.6688	-4.5437	-4.2875	-4.0583	-4.7958	-3.8792	-4.2167	-4.6062	-18.081	-40.987	43.923	-12.431	188.674	114.939	-80.241	155.860	102.875	-6.753	72.244	156.273	-68.643	226.070	119.853	220.846	0.00023561	0.00046866	0.00017573	1348.7	2.5144e-06	5.5112e-06	1343.2	364.73	1.6978e-06	3.0607e-06	418.39	140.23	120.98	42.081	3.6364e-06	51.958	0.00041596	0.0004016	0.00010908	1354.5	4.3232e-06	4.3544e-06	1356.2	369.01	4.607e-06	4.1494e-06	423.09	143.16	123.69	42.669	4.3522e-06	52.998	196.578	-29.852	-25.605	-94.313	36.738	49.909	-94.361	-89.583	19.335	51.528	-90.023	-86.104	-85.452	-80.953	11.608	-81.253	-8191	255	
57455.172	1	1	0	0	0.41604	0.18977	0.17094	0.1228	0.32354	0.19378	0.21172	0.11105	0.096644	0.07318	0.16616	0.082268	0.23315	0.17312	0.12734	0.24182	-3.45	-4.5354	-4.2354	-3.9688	-4.6917	-4.0437	-4.3375	-4.7646	-3.7188	-4.3958	-4.4417	-3.8812	-4.6042	-4.0312	-4.0646	-4.6792	12.475	115.325	35.070	-89.669	251.993	-92.750	152.129	145.947	-71.243	-60.537	-31.404	-90.331	224.941	207.659	66.064	12.473	0.00021994	0.00047901	0.00012495	1343.2	3.4386e-06	5.197e-06	1339.5	364.93	1.4851e-06	4.844e-06	418.41	139.14	120.69	41.952	3.0327e-06	51.382	0.00039981	0.00039407	0.0001087	1350.8	4.3358e-06	4.5435e-06	1355.6	369.26	4.6033e-06	4.3199e-06	423.02	142.94	123.42	42.734	4.2809e-06	52.842	186.648	-17.587	-18.509	-94.320	42.072	46.212	-94.201	-89.514	10.611	37.633	-90.124	-86.440	-85.509	-80.763	37.259	-81.297	-8191	255	
57455.270	1	1	0	0	0.17296	0.14964	0.2287	0.20312	0.12721	0.24692	0.090514	0.073542	0.27601	0.19531	0.03913	0.2671	0.11366	0.22824	0.24407	0.19741	-3.6042	-4.3104	-4.0729	-4.0292	-4.6042	-3.9521	-4.0896	-4.6604	-3.7354	-4.3854	-4.4479	-3.9	-4.6521	-4.0979	-3.7896	-4.8896	-60.090	190.964	116.772	165.787	-79.756	138.875	167.565	178.991	7.347	157.028	-96.604	191.564	221.343	-66.056	163.625	78.217	0.00021388	0.00036477	0.00017885	1337.7	2.4725e-06	5.2875e-06	1341.8	363.44	3.0588e-06	4.9368e-06	416.5	139.08	120.79	41.973	5.1365e-06	51.753	0.00041184	0.00040123	0.00010545	1347.9	4.3672e-06	4.3621e-06	1354.8	369.31	4.638e-06	4.3308e-06	422.61	142.86	123.63	42.726	4.5292e-06	52.873	195.787	-21.780	-9.850	-94.277	16.088	42.614	-94.196	-89.786	12.652	46.611	-90.271	-86.232	-85.695	-80.782	29.169	-81.543	-8191	255	
57455.363	1	1	0	0	0.079151	0.20373	0.072601	0.11556	0.11276	0.063105	0.14595	0.095052	0.14821	0.089504	0.23806	0.28212	0.12705	0.044629	0.11704	0.25342	-3.3875	-4.2958	-4.3521	-3.8854	-4.5396	-4.275	-4.0417	-4.7937	-3.9854	-4.2333	-4.5771	-3.9562	-4.5854	-4.2958	-3.9292	-4.8688	63.140	245.114	133.573	-91.629	233.217	-41.251	203.827	154.137	-14.396	-38.899	127.698	242.098	-42.396	171.519	228.177	-95.247	0.00022468	0.00058221	0.00014193	1342.9	3.1241e-06	5.433e-06	1340.1	363.3	2.1602e-06	6.7379e-06	416.26	140.27	120.95	41.691	3.7517e-06	51.85	0.00039738	0.00041116	0.00010853	1348.9	4.3647e-06	4.4158e-06	1356.3	369.16	4.6334e-06	4.2385e-06	422.54	143.07	123.64	42.669	4.2916e-06	52.967	194.287	-10.321	-16.509	-94.322	35.691	24.571	-94.231	-89.499	-16.140	57.271	-90.137	-86.304	-85.439	-80.767	15.991	-81.072	-8191	255	
57455.461	1	1	0	0	0.34049	0.1626	0.2219	0.12879	0.41924	0.044922	0.12897	0.23049	0.16883	0.23866	0.22632	0.26383	0.17719	0.052827	0.21694	0.15547	-3.625	-4.0479	-4.5458	-3.775	-4.3187	-4.2312	-3.9646	-4.9313	-3.9417	-4.0604	-4.6604	-3.9562	-4.5521	-4.3479	-3.8063	-4.7604	80.097	167.624	-99.498	250.036	205.577	222.802	243.478	236.961	238.625	-30.509	208.090	229.592	-73.786	95.866	224.473	140.864	0.00023999	0.0004548	0.00012968	1339.5	2.4053e-06	4.0013e-06	1337.6	362.14	2.5197e-06	3.8963e-06	418.85	138.96	121.07	41.975	3.436e-06	52.019	0.00040373	0.00038234	0.00010709	1348.1	4.3928e-06	4.2899e-06	1353.4	368.54	4.4659e-06	4.3077e-06	423.23	142.68	123.75	42.696	4.44e-06	52.919	196.919	-33.510	5.369	-94.322	50.439	42.853	-94.381	-89.614	6.586	64.539	-90.042	-86.211	-85.516	-80.721	26.946	-81.147	-8191	255	
57455.582	1	1	0	0	0.078149	0.34907	0.09012	0.13209	0.21521	0.088585	0.16997	0.13103	0.083722	0.13427	0.16487	0.11851	0.17997	0.2897	0.21876	0.29296	-3.7062	-4.1	-4.5854	-3.9021	-4.4271	-4.375	-3.9167	-4.7875	-4.1896	-3.9833	-4.775	-4.1146	-4.425	-4.6062	-3.9083	-4.8396	-64.389	-7.648	59.128	168.129	115.373	-80.410	180.398	174.002	66.230	-88.855	194.627	246.181	-52.716	207.069	-53.655	185.496	0.00021952	0.00043696	9.2129e-05	1338.2	2.7904e-06	4.1683e-06	1345	363.28	1.79e-06	3.3845e-06	418.15	139.32	121.15	42.028	3.1959e-06	51.87	0.00039248	0.0003917	0.00010556	1348.1	4.3517e-06	4.174e-06	1356.7	368.45	4.4102e-06	4.3813e-06	422.64	143.21	123.66	42.706	4.4515e-06	52.901	190.757	-16.098	15.890	-94.161	37.394	33.564	-94.327	-89.534	-3.625	40.260	-89.988	-86.622	-85.321	-80.436	47.797	-81.450	-8191	255	
57455.680	1	1	0	0	0.3546	0.050853	0.17212	0.22831	0.14571	0.13446	0.14235	0.15068	0.056361	0.10636	0.10086	0.073706	0.11424	0.12376	0.3468	0.099727	-3.8625	-3.8667	-4.7	-4.0917	-4.1896	-4.5292	-3.9771	-4.5854	-4.1167	-3.9604	-4.7792	-3.9813	-4.1646	-4.6021	-3.7188	-4.6083	148.569	47.734	57.134	-91.011	30.956	155.648	144.131	196.806	141.040	109.095	129.030	-36.264	54.239	213.829	186.047	184.930	0.00022361	0.00047917	0.00012978	1344.1	2.6193e-06	5.9191e-06	1339.7	365.71	1.9633e-06	4.5837e-06	418.41	140	120.39	42.024	4.4044e-06	51.771	0.000394	0.00040021	0.00010727	1352.8	4.3244e-06	4.209e-06	1355.1	369.39	4.6462e-06	4.4022e-06	423.21	143.16	123.45	42.705	4.5654e-06	52.913	189.099	-29.032	-29.289	-94.141	21.169	42.937	-94.238	-89.708	7.786	45.922	-90.085	-86.181	-85.900	-80.664	33.912	-81.391	-8191	255	
57455.773	1	1	0	0	0.034562	0.062479	0.073614	0.28216	0.036679	0.0876	0.26842	0.15142	0.12031	0.082358	0.035612	0.20961	0.17575	0.012849	0.044794	0.13857	-4.0771	-3.8271	-4.6417	-4.1062	-4.1438	-4.575	-3.9708	-4.5354	-4.4042	-3.8438	-4.8125	-4.1438	-4.1854	-4.6604	-3.6771	-4.3875	141.885	171.756	47.847	186.932	-96.360	85.734	187.688	-89.054	249.230	54.192	-83.117	191.452	-58.158	185.081	180.701	-81.781	0.00021994	0.00047614	0.00013242	1345.5	3.5425e-06	4.1509e-06	1338	364.41	2.389e-06	5.5945e-06	417.25	138.54	121.04	41.559	1.8339e-06	51.712	0.00038442	0.00041051	0.00010876	1350.2	4.573e-06	4.2226e-06	1356	368.99	4.4189e-06	4.3304e-06	422.94	142.74	123.37	42.545	4.6392e-06	52.854	193.311	-12.917	-13.414	-94.318	30.774	62.136	-94.322	-89.582	11.315	36.162	-90.220	-86.301	-85.682	-80.677	8.325	-81.252	-8191	255	
57455.871	1	1	0	0	0.098871	0.41515	0.16673	0.48601	0.14205	0.21189	0.15499	0.16711	0.099981	0.098188	0.067253	0.11945	0.075932	0.20328	0.26154	0.13526	-4.0979	-3.7292	-4.5875	-4.1229	-3.9437	-4.6687	-3.9083	-4.325	-4.5854	-3.6875	-4.7208	-4.15	-4.1583	-4.7208	-3.8542	-4.1104	196.157	38.347	252.017	202.127	-72.019	159.294	173.273	181.742	-98.445	13.664	238.841	-103.709	-40.451	234.916	246.777	185.654	0.00022049	0.00042765	0.00016426	1344.4	2.649e-06	6.8849e-06	1344.1	364.82	2.4635e-06	4.6277e-06	417.3	139.63	121.11	41.919	3.9962e-06	51.758	0.00038939	0.00042822	0.00010862	1351.8	4.4326e-06	4.2372e-06	1357.1	369.56	4.4849e-06	4.4095e-06	422.52	143.27	123.44	42.591	4.5637e-06	52.769	188.021	-2.498	-3.087	-94.352	56.126	37.149	-94.229	-89.675	23.906	51.710	-90.181	-86.250	-85.658	-80.552	53.226	-81.335	-8191	255	
57455.988	1	1	0	0	0.14841	0.12649	0.15308	0.34002	0.22301	0.089171	0.055324	0.02641	0.052427	0.10293	0.34639	0.12876	0.14779	0.14988	0.16494	0.11986	-4.0938	-3.7062	-4.4854	-4.325	-3.7042	-4.6792	-4.1687	-4.2479	-4.5104	-3.8042	-4.6021	-4.3521	-3.9417	-4.8083	-3.8083	-4.05	22.259	197.326	137.319	205.306	169.473	-27.420	143.147	201.035	-7.819	-64.524	233.847	-80.562	40.455	-71.520	135.346	219.400	0.00020783	0.00072938	0.00010916	1344.7	2.1776e-06	4.2908e-06	1341.9	364.61	2.0283e-06	4.3303e-06	417.65	138.88	120.8	41.944	3.1133e-06	51.869	0.00039643	0.00042598	0.00011268	1352.3	4.5665e-06	4.3421e-06	1357.2	369.29	4.3731e-06	4.4882e-06	422.55	142.86	123.49	42.718	4.5326e-06	52.881	194.132	-24.937	-16.611	-94.223	43.131	44.120	-93.990	-89.879	4.292	41.511	-90.501	-86.164	-85.668	-80.552	34.616	-81.277	-8191	255	
57456.059	1	1	0	0	0.13182	0.17139	0.077095	0.12954	0.097496	0.073284	0.083806	0.086173	0.27738	0.12576	0.3179	0.19323	0.11705	0.27751	0.090305	0.15459	-4.225	-3.7917	-4.3771	-4.3583	-3.6208	-4.8042	-4.3333	-4.2125	-4.7063	-3.8896	-4.4375	-4.45	-3.875	-4.6146	-4.1417	-3.9437	205.622	31.057	-46.999	-94.782	223.094	-67.432	-64.903	243.515	-52.999	172.726	150.201	170.543	67.006	202.423	128.536	78.926	0.00022469	0.00046691	0.00012884	1348.9	2.6919e-06	4.7878e-06	1342.4	363.68	1.9612e-06	5.9678e-06	417.68	139.39	121.08	41.845	3.5235e-06	51.638	0.00039297	0.00041458	0.00011397	1354	4.7532e-06	4.3431e-06	1357.5	369.27	4.5101e-06	4.5905e-06	422.85	143.05	123.54	42.744	4.5061e-06	52.815	186.694	-26.236	-5.803	-94.195	70.316	23.452	-94.231	-89.796	16.557	44.318	-89.884	-86.203	-85.808	-80.696	48.450	-81.093	-8191	255	
57456.156	1	1	0	0	0.13676	0.082962	0.12884	0.13188	0.19055	0.067187	0.14369	0.25875	0.081084	0.14412	0.033229	0.024674	0.22837	0.045755	0.036218	0.21801	-4.45	-3.8021	-4.1521	-4.7396	-3.6854	-4.5604	-4.4333	-4.1646	-4.6229	-3.9021	-4.4917	-4.6208	-3.7917	-4.7646	-4.225	-4.0292	196.362	115.492	-27.843	-92.749	-26.400	30.001	80.005	129.949	8.002	-26.546	142.823	208.579	245.618	-63.915	1.464	177.058	0.00021706	0.00061365	0.00015521	1351	3.3749e-06	4.8994e-06	1343	363.88	2.69e-06	5.3402e-06	419.53	139.14	120.65	41.809	3.1433e-06	51.564	0.0004017	0.00041784	0.00011218	1355	4.6434e-06	4.2631e-06	1357.3	369.62	4.4284e-06	4.6232e-06	424.05	142.89	123.33	42.6	4.6268e-06	52.786	192.336	-25.076	-31.320	-94.121	31.231	35.795	-94.187	-89.709	32.615	54.620	-90.207	-86.190	-85.713	-80.749	18.804	-81.436	-8191	255	
57456.254	1	1	0	0	0.19347	0.30395	0.21456	0.10863	0.18686	0.18929	0.43197	0.20713	0.29155	0.030005	0.16311	0.22899	0.10943	0.11254	0.13899	0.17368	-4.3688	-3.9833	-4.0729	-4.6542	-3.5958	-4.5354	-4.3729	-3.7646	-4.5271	-4.0375	-4.1625	-4.5125	-3.75	-4.5125	-4.3042	-3.9021	220.466	-83.405	249.089	223.436	47.366	7.130	183.226	223.284	-46.052	18.052	201.970	194.391	217.529	-107.010	12.103	233.472	0.00022087	0.00059929	0.00012879	1345.9	2.3686e-06	5.2354e-06	1344.9	364.12	2.4126e-06	3.8402e-06	418.13	138.8	120.26	41.96	2.0118e-06	51.795	0.00040403	0.00042008	0.00011533	1353.3	4.6287e-06	4.4112e-06	1359.6	369.37	4.56e-06	4.6018e-06	422.46	142.99	123.24	42.675	4.4776e-06	52.816	191.548	-25.661	6.003	-94.042	25.052	15.018	-94.103	-89.653	24.995	43.596	-90.151	-86.053	-85.779	-80.773	60.016	-81.236	-8191	255	
57456.371	1	1	0	0	0.080233	0.08265	0.078315	0.22633	0.033572	0.13279	0.21238	0.15422	0.13621	0.15896	0.21165	0.13307	0.22355	0.095144	0.039123	0.14063	-4.3979	-4.0146	-3.9229	-4.7396	-3.9104	-4.3583	-4.5583	-3.8917	-4.6562	-4.1687	-4.1146	-4.6979	-4.0292	-4.3479	-4.6229	-3.9292	-91.227	247.441	36.123	-99.064	49.938	138.138	190.027	248.059	147.932	-5.386	185.586	16.222	225.559	-31.184	120.021	239.118	0.00022067	0.00047079	0.00017045	1346.4	2.1171e-06	5.7111e-06	1343.3	364.24	4.0534e-06	4.8358e-06	418.73	139.06	120.86	42.03	3.0903e-06	51.642	0.00039025	0.00040469	0.00011457	1353.7	4.6841e-06	4.3726e-06	1358.6	369.77	4.6623e-06	4.4463e-06	423.01	143.04	123.63	42.639	4.4456e-06	52.828	188.780	-9.755	-14.044	-94.154	36.811	43.320	-94.070	-89.695	6.878	32.700	-90.170	-86.021	-85.398	-80.799	21.384	-81.446	-8191	255	
57456.469	1	1	0	0	0.049353	0.27477	0.091214	0.094756	0.21748	0.1743	0.17995	0.14341	0.1252	0.11345	0.18678	0.12822	0.16359	0.32489	0.22803	0.21945	-4.3396	-4.0583	-3.9688	-4.7104	-3.8167	-4.225	-4.6542	-3.9583	-4.5958	-4.2271	-4.0146	-4.6687	-3.8604	-4.3104	-4.3646	-3.7083	-0.285	-89.690	-81.004	-85.619	115.712	152.427	155.728	185.757	142.658	246.960	208.299	244.548	207.902	193.328	-38.710	179.445	0.00019994	0.00058301	0.00014172	1342.4	1.9502e-06	6.4988e-06	1344.4	364.07	2.7306e-06	4.3625e-06	418.11	140.03	120.34	41.881	2.3669e-06	51.542	0.00040106	0.0004248	0.00011984	1353.5	4.6662e-06	4.4958e-06	1359.1	369.17	4.5715e-06	4.2822e-06	423.19	143.33	123.38	42.619	4.42e-06	52.669	183.854	-21.376	-17.733	-94.227	20.564	37.734	-94.147	-89.568	13.282	57.847	-90.253	-86.137	-85.824	-80.832	-4.592	-81.404	-8191	255	
57456.566	1	1	0	0	0.24961	0.1482	0.18165	0.21838	0.15287	0.10598	0.094445	0.12424	0.11547	0.10793	0.16573	0.24214	0.14782	0.027901	0.076888	0.31983	-4.2146	-4.4417	-3.7479	-4.7937	-3.9562	-4.2417	-4.6729	-3.7521	-4.4	-4.3375	-4.0146	-4.6813	-4.0208	-4.075	-4.6146	-3.8958	213.744	141.885	119.416	210.671	239.810	-6.994	175.022	186.793	77.783	14.233	216.054	-100.235	79.384	-55.751	201.259	158.276	0.00021739	0.00054499	0.00012325	1344.3	1.9156e-06	5.5389e-06	1347.5	364.58	3.1359e-06	4.3889e-06	418.39	139.65	120.6	41.759	2.7446e-06	51.751	0.00040001	0.00040371	0.00011373	1352.9	4.7288e-06	4.5857e-06	1358.3	369.34	4.6594e-06	4.5232e-06	422.61	143.07	123.36	42.602	4.3394e-06	52.828	189.992	-1.277	13.618	-94.229	23.692	40.616	-94.325	-89.477	1.855	56.890	-90.246	-86.153	-85.353	-80.754	16.760	-81.543	-8191	255	
57456.660	1	1	0	0	0.015057	0.055551	0.06066	0.33398	0.080177	0.20724	0.11697	0.076096	0.054373	0.12808	0.17885	0.13087	0.0060047	0.2906	0.28343	0.078312	-3.9896	-4.3688	-3.7146	-4.6667	-4.1813	-4.0354	-4.8917	-3.9146	-4.35	-4.4521	-3.8979	-4.6958	-4.2042	-4.0979	-4.5854	-3.9396	-10.569	199.336	236.414	220.593	66.066	178.231	-97.143	43.551	148.154	-3.654	215.664	203.921	62.355	-104.544	-99.027	222.480	0.00023189	0.00041036	0.0001312	1347.5	3.3667e-06	4.9268e-06	1348.5	365.16	2.3696e-06	3.7504e-06	417.76	139.75	120.95	42.107	4.1268e-06	51.66	0.00039604	0.0004031	0.00011352	1353.9	4.5144e-06	4.3967e-06	1357.4	369.62	4.6825e-06	4.3699e-06	422.73	142.97	123.42	42.715	4.2425e-06	52.77	190.894	-19.855	-12.919	-94.141	48.767	49.460	-94.186	-89.628	3.687	49.738	-90.351	-86.011	-85.531	-80.685	44.809	-81.141	-8191	255	
57456.758	1	1	0	0	0.16387	0.18501	0.039895	0.051729	0.29621	0.23597	0.28857	0.12754	0.15433	0.094999	0.044539	0.18064	0.30789	0.20688	0.17464	0.18309	-3.875	-4.5437	-3.8417	-4.6854	-4.2188	-3.8229	-4.8333	-4.1875	-4.1813	-4.5896	-3.9708	-4.6521	-4.4292	-3.8146	-4.5958	-4.0312	31.947	-57.722	-27.245	227.017	10.977	145.096	190.909	172.057	99.884	-1.015	-99.896	-94.726	169.238	236.501	176.763	235.015	0.00021047	0.00038956	0.00017253	1347.2	3.9983e-06	4.6406e-06	1351.4	363.89	2.7981e-06	4.9275e-06	417.07	139.66	120.36	42.033	4.4258e-06	51.625	0.00038677	0.0003959	0.00011711	1353.3	4.5588e-06	4.3885e-06	1360.9	369.02	4.5579e-06	4.2358e-06	422.83	143.16	123.38	42.682	4.4042e-06	52.763	194.473	-27.691	-12.674	-94.346	41.331	40.246	-94.279	-89.591	-16.896	43.021	-90.505	-86.247	-85.481	-80.913	44.731	-81.392	-8191	255	
57456.852	1	1	0	0	0.21394	0.079357	0.095223	0.21794	0.096834	0.18307	0.24572	0.036778	0.26599	0.13187	0.019457	0.063045	0.1238	0.14618	0.065953	0.21233	-3.9958	-4.75	-3.7708	-4.7146	-4.4062	-3.7729	-4.8812	-4.1604	-3.8208	-4.5188	-3.8771	-4.6208	-4.4875	-3.8354	-4.6521	-4.0979	163.247	-70.012	-90.424	201.642	-36.849	2.350	242.262	153.838	189.190	-41.501	28.568	52.559	75.420	201.173	-47.564	186.433	0.00023709	0.00073167	0.00013018	1346.3	2.215e-06	3.4329e-06	1344.2	363.19	2.3943e-06	4.2641e-06	417.8	139.41	120.79	41.721	3.588e-06	51.717	0.0003992	0.00039557	0.00011679	1353.8	4.5942e-06	4.3803e-06	1358.6	368.78	4.4441e-06	4.264e-06	422.98	143.09	123.41	42.673	4.2882e-06	52.843	193.096	3.256	-0.795	-94.326	16.821	55.162	-94.310	-89.512	-1.557	61.696	-90.142	-86.141	-85.672	-80.664	16.035	-81.099	-8191	255	
57456.949	1	1	0	0	0.2295	0.14163	0.12688	0.20667	0.17413	0.14236	0.17144	0.1607	0.11169	0.29186	0.26754	0.21108	0.24014	0.24683	0.19114	0.24679	-3.6042	-4.6062	-3.8563	-4.3292	-4.3521	-3.8187	-4.8417	-4.3688	-4.0333	-4.7854	-4.0229	-4.2958	-4.6083	-3.8667	-4.6167	-4.4521	-77.630	-10.937	4.848	-34.146	167.850	57.021	161.769	69.002	3.390	92.764	184.741	252.369	166.341	-85.231	12.206	185.227	0.00024698	0.00060734	0.00013585	1345.3	2.4132e-06	4.552e-06	1345.7	363.32	2.1193e-06	7.5162e-06	417.89	139.33	120.64	41.823	3.3949e-06	51.553	0.00040959	0.00040192	0.00011145	1351.8	4.3098e-06	4.3449e-06	1358.9	368.83	4.6343e-06	4.3013e-06	422.35	142.93	123.51	42.447	4.3803e-06	52.727	196.712	-12.120	-28.823	-94.401	40.792	45.137	-94.216	-89.620	17.533	37.583	-90.050	-86.336	-85.522	-81.014	39.890	-81.178	-8191	255	
57457.070	1	1	0	0	0.12325	0.11415	0.22274	0.23352	0.16953	0.066177	0.25079	0.16618	0.33418	0.096943	0.24222	0.23518	0.12472	0.2715	0.11844	0.20993	-3.4708	-4.5458	-3.8521	-4.2625	-4.4875	-3.6771	-4.7812	-4.5292	-3.7542	-4.8313	-4.1333	-4.2667	-4.65	-3.85	-4.4437	-4.2896	-2.803	224.855	124.669	237.252	-48.074	44.272	217.887	118.445	-6.274	28.883	236.304	238.447	185.452	-10.145	243.770	132.835	0.00022513	0.00040779	0.00014927	1343.4	2.6091e-06	5.4398e-06	1342.8	364.98	2.7966e-06	5.5859e-06	417.78	138.83	120.97	41.575	2.2337e-06	51.647	0.00040037	0.00039732	0.000109	1352.3	4.3806e-06	4.3521e-06	1357.8	369.32	4.5303e-06	4.2708e-06	422.61	142.86	123.41	42.504	4.3628e-06	52.694	194.236	-23.126	-15.086	-94.049	49.156	33.734	-94.075	-89.622	6.160	33.916	-90.015	-86.452	-85.543	-80.772	4.716	-81.132	-8191	255	
57457.164	1	1	0	0	0.26437	0.043723	0.18969	0.12402	0.27261	0.082489	0.20299	0.25041	0.23182	0.068585	0.25741	0.1371	0.13258	0.066033	0.099796	0.026586	-3.5875	-4.6271	-4.0875	-4.1937	-4.4708	-3.6875	-4.55	-4.5167	-3.7188	-4.6687	-4.2792	-4.2229	-4.6729	-3.8521	-4.0312	-4.6146	-24.410	33.128	-66.495	216.979	18.480	-44.382	206.216	182.234	131.460	94.576	221.111	-106.664	-54.159	216.339	120.668	114.758	0.00023214	0.00063697	0.00013997	1341.6	2.8412e-06	5.4343e-06	1335.9	363.22	1.5207e-06	4.4236e-06	418	139.06	120.58	41.391	3.7756e-06	51.441	0.00040596	0.00038979	0.00011222	1352	4.3956e-06	4.3744e-06	1355	368.96	4.7684e-06	4.2449e-06	422.79	142.96	123.47	42.475	4.3223e-06	52.763	186.670	-24.788	-1.286	-94.377	42.870	61.264	-94.187	-89.508	11.479	65.184	-90.141	-86.400	-85.353	-80.573	46.519	-81.160	-8191	255	
57457.262	1	1	0	0	0.11911	0.12909	0.48657	0.24333	0.15558	0.12294	0.27994	0.19236	0.10212	0.063657	0.21376	0.26189	0.17458	0.29993	0.15891	0.15149	-3.4354	-4.5729	-4.0292	-3.9375	-4.7125	-3.7167	-4.3708	-4.6125	-3.7292	-4.5188	-4.3958	-4.0687	-4.6854	-4.0792	-4.0875	-4.6229	-59.344	-96.645	153.074	-93.365	-12.370	-75.915	240.051	-95.480	-36.874	127.476	202.194	222.632	-42.534	-99.908	62.772	177.221	0.00024502	0.00034949	0.00016477	1343.8	3.6697e-06	4.7742e-06	1342.6	364.73	2.7335e-06	6.8268e-06	418.5	139.42	120.97	41.852	3.3399e-06	51.552	0.00039738	0.00041532	0.00010925	1350.5	4.4318e-06	4.408e-06	1356	369.42	4.7519e-06	4.3386e-06	423.2	143.03	123.56	42.602	4.6388e-06	52.721	191.915	-34.970	-21.903	-94.295	36.963	53.957	-94.407	-89.659	23.765	58.066	-90.149	-86.193	-85.363	-80.841	30.209	-81.232	-8191	255	
57457.359	1	1	0	0	0.1679	0.16912	0.087381	0.34886	0.037155	0.16373	0.16541	0.059668	0.11588	0.17528	0.099794	0.031548	0.33418	0.1939	0.20836	0.12602	-3.4854	-4.5583	-4.2708	-3.9562	-4.6625	-4.0312	-4.2333	-4.8167	-3.8083	-4.3646	-4.4812	-3.875	-4.7333	-4.0979	-4.0312	-4.75	19.452	198.230	-62.090	205.136	-63.214	84.393	200.055	109.559	-20.808	-97.757	48.513	-59.984	-54.667	204.289	39.930	70.173	0.00022301	0.00062774	0.00014223	1348.5	2.6533e-06	4.7873e-06	1341.3	364.72	2.8264e-06	4.4942e-06	418.42	139.45	120.59	42.086	4.238e-06	51.816	0.00039949	0.00040127	0.000109	1352.8	4.4314e-06	4.683e-06	1357.8	369.69	4.5918e-06	4.4095e-06	423.24	143.05	123.5	42.608	4.469e-06	52.789	194.098	-11.120	-25.239	-94.302	66.021	37.628	-94.325	-89.540	28.669	74.118	-90.012	-86.223	-85.514	-80.593	48.050	-81.200	-8191	255	
57457.453	1	1	0	0	0.20287	0.098927	0.048257	0.25777	0.077013	0.055638	0.10072	0.32794	0.085826	0.22189	0.14739	0.084857	0.29388	0.091533	0.085137	0.17269	-3.6312	-4.3229	-4.5208	-4.0813	-4.4146	-4.0687	-3.9917	-4.7042	-3.7771	-4.0896	-4.5917	-3.7917	-4.7833	-4.275	-3.9229	-4.7896	16.718	182.917	62.927	144.713	153.761	235.852	128.792	-105.753	134.907	78.119	155.591	1.107	214.565	244.765	-11.454	198.444	0.00022197	0.00034497	0.00014481	1347.4	3.4818e-06	3.2833e-06	1348.5	364.64	1.1586e-06	4.4306e-06	417.91	139.66	120.44	41.709	3.4942e-06	51.775	0.00039491	0.00040033	0.00010536	1352.9	4.2976e-06	4.3635e-06	1356.9	369.23	4.4948e-06	4.4618e-06	422.76	142.98	123.45	42.605	4.498e-06	52.759	194.234	-30.799	-29.511	-94.377	23.916	35.983	-94.310	-89.372	-30.309	21.374	-89.931	-86.359	-85.515	-80.597	15.157	-81.277	-8191	255	
57457.551	1	1	0	0	0.18209	0.13965	0.11124	0.16616	0.11619	0.12523	0.19185	0.19826	0.10665	0.092934	0.068175	0.10552	0.17816	0.065127	0.069171	0.20738	-3.4437	-4.3292	-4.4583	-3.9083	-4.4333	-4.275	-4.1062	-4.7438	-3.8792	-4.2292	-4.6813	-3.9792	-4.6146	-4.3771	-3.9688	-4.7333	161.945	-101.708	116.245	248.749	115.711	-105.244	196.787	190.200	178.700	161.117	11.819	148.154	-90.810	102.607	225.995	215.576	0.00023497	0.00064174	0.00014573	1346.1	1.9852e-06	4.9501e-06	1341.6	364.17	2.7365e-06	4.337e-06	417.52	139.76	120.87	41.738	2.9044e-06	51.927	0.00038452	0.00038723	0.00010711	1353.9	4.359e-06	4.2685e-06	1358.2	369.72	4.5191e-06	4.1435e-06	422.55	143.14	123.43	42.658	4.4537e-06	52.929	189.448	-20.229	-11.904	-94.136	56.849	42.117	-94.352	-89.638	34.831	72.164	-89.888	-86.534	-85.684	-80.676	44.048	-81.166	-8191	255	
57457.672	1	1	0	0	0.10035	0.12007	0.080735	0.10993	0.16073	0.23715	0.033733	0.018926	0.14214	0.10384	0.12881	0.17194	0.091303	0.22464	0.15838	0.091915	-3.8292	-4.0563	-4.7833	-4.1417	-4.4375	-4.3521	-4.0521	-4.7875	-3.9271	-4.0521	-4.8063	-3.8958	-4.4	-4.4	-3.7167	-4.7583	17.365	135.572	18.048	207.233	-25.168	53.243	85.123	39.918	123.955	56.090	192.804	33.738	127.791	-72.252	-42.477	237.517	0.00022116	0.00045528	0.00012209	1341.5	3.1206e-06	4.4289e-06	1341.6	364.85	2.8751e-06	4.2334e-06	418.69	139.25	120.94	41.857	4.0618e-06	51.783	0.00039334	0.00038393	0.00010993	1349.1	4.2825e-06	4.2744e-06	1358.1	369.66	4.4585e-06	4.3549e-06	422.57	143.07	123.49	42.617	4.5676e-06	52.894	196.213	-16.706	-23.579	-94.312	39.302	41.990	-94.410	-89.643	50.905	54.609	-90.246	-86.539	-85.810	-80.530	30.546	-81.034	-8191	255	
57457.766	1	1	0	0	0.10012	0.19603	0.15874	0.17776	0.08358	0.091174	0.238	0.13841	0.2624	0.19005	0.035599	0.12817	0.13852	0.20833	0.2772	0.20756	-3.9708	-4.0042	-4.6667	-3.9646	-4.2562	-4.7	-4.1479	-4.6292	-4.1625	-3.9458	-4.7104	-4.0292	-4.3438	-4.6771	-3.7208	-4.5375	231.557	196.951	14.438	161.458	85.876	163.694	209.511	-92.169	140.559	-68.706	237.098	146.297	231.126	215.944	-33.809	164.989	0.0002543	0.00030509	0.00010181	1344.3	3.5979e-06	5.1695e-06	1350.8	365.1	2.392e-06	4.8216e-06	418.9	139.71	120.9	41.803	1.9751e-06	52.147	0.0003951	0.00039366	0.0001065	1351	4.4961e-06	4.1076e-06	1357.5	369.93	4.4214e-06	4.4081e-06	423.1	143.07	123.35	42.56	4.6076e-06	52.821	194.738	-25.536	-13.719	-94.184	36.905	40.900	-94.247	-89.596	7.399	38.902	-90.235	-86.358	-85.615	-80.712	12.348	-81.137	-8191	255	
57457.859	1	1	0	0	0.081265	0.13261	0.18491	0.23693	0.15181	0.29485	0.1333	0.31318	0.24673	0.19607	0.11372	0.077604	0.17513	0.067545	0.034622	0.31888	-3.7062	-3.7604	-4.6458	-4.1458	-4.0646	-4.7271	-4.1646	-4.7896	-4.3417	-3.8563	-4.6521	-4.2271	-4.4708	-4.8146	-3.7375	-4.7812	-2.601	198.678	225.545	168.863	181.648	211.272	150.001	174.659	189.050	102.719	199.488	-22.869	192.046	-91.072	-18.944	165.562	0.00022397	0.00050303	0.00014937	1348.1	2.3503e-06	4.9275e-06	1338.4	365.12	2.6879e-06	5.4896e-06	417.97	139.55	120.38	41.724	3.3652e-06	51.725	0.00038579	0.000402	0.00010512	1351.3	4.4872e-06	4.1767e-06	1355	370.15	4.5258e-06	4.5018e-06	422.64	142.72	123.45	42.589	4.446e-06	52.772	189.076	-15.415	-0.555	-94.346	36.343	60.073	-94.200	-89.849	24.368	47.224	-90.187	-86.514	-85.752	-80.464	9.334	-81.367	-8191	255	
57457.934	1	1	0	0	0.13366	0.18294	0.2054	0.19052	0.1052	0.13613	0.080694	0.23321	0.30987	0.086561	0.17582	0.14618	0.13697	0.11216	0.14125	0.22949	-4.1021	-3.7292	-4.625	-4.2438	-4.0354	-4.6062	-3.9458	-4.4479	-4.375	-3.9521	-4.8021	-4.2125	-4.1312	-4.6188	-3.8771	-4.3333	-54.917	125.206	-35.762	190.939	227.650	57.842	109.752	219.661	235.637	201.020	166.885	-86.561	-79.641	-88.456	112.719	202.419	0.0002195	0.00059177	0.00011549	1343.1	2.3597e-06	5.2448e-06	1346.3	364.21	2.308e-06	4.7242e-06	416.08	139.57	120.58	41.693	3.7326e-06	51.844	0.00038898	0.00040371	0.00010427	1349.3	4.4754e-06	4.3499e-06	1357.1	369.43	4.4564e-06	4.3668e-06	422.01	142.97	123.26	42.55	4.4144e-06	52.805	194.600	-12.489	-18.925	-94.214	24.489	72.569	-94.412	-89.770	25.299	41.644	-90.170	-86.204	-85.724	-80.634	31.232	-81.374	-8191	255	
57458.055	1	1	0	0	0.27565	0.10126	0.11363	0.26978	0.14104	0.08408	0.20547	0.34514	0.25881	0.13781	0.29913	0.14835	0.096554	0.14759	0.15401	0.066559	-4.0729	-3.7667	-4.4563	-4.3583	-3.8688	-4.7354	-3.8771	-4.2333	-4.525	-3.7458	-4.5125	-4.4542	-4.0396	-4.6958	-3.9688	-4.2979	142.644	94.704	193.363	200.027	184.559	44.742	14.113	203.069	114.501	28.259	163.824	114.922	186.353	-104.673	-59.153	228.217	0.00025232	0.00034253	0.00017216	1346.6	3.6257e-06	4.4956e-06	1338.2	364.57	2.9335e-06	5.1683e-06	416.64	139.19	120.89	41.773	1.514e-06	52.024	0.00038716	0.00040082	0.00011183	1350.2	4.5274e-06	4.1676e-06	1355	369.45	4.2274e-06	4.4227e-06	422.89	142.92	123.3	42.588	4.449e-06	52.794	194.011	1.128	-2.336	-94.266	45.917	58.784	-94.006	-89.708	-11.960	51.762	-90.288	-86.200	-85.602	-80.728	23.258	-81.341	-8191	255	
57458.148	1	1	0	0	0.11382	0.13597	0.22317	0.082301	0.10594	0.13871	0.26663	0.22621	0.065438	0.10775	0.23554	0.12133	0.26772	0.34738	0.17802	0.1482	-4.2958	-3.7125	-4.4271	-4.3979	-3.8958	-4.6646	-4.175	-4.1875	-4.6917	-3.8208	-4.4833	-4.45	-3.8875	-4.6917	-3.9625	-4.05	224.214	-43.960	-78.239	247.230	128.550	214.851	196.001	186.779	63.816	232.236	202.915	-101.029	-89.929	233.531	-27.340	162.677	0.00022375	0.00050791	0.00015852	1347.5	3.0207e-06	6.1182e-06	1349.8	364.34	2.3831e-06	5.5313e-06	418.84	138.79	120.54	41.713	4.7715e-06	51.735	0.00038653	0.00041267	0.00010756	1350.8	4.4326e-06	4.2349e-06	1355.5	368.94	4.3388e-06	4.5154e-06	422.9	142.71	123.35	42.518	4.3927e-06	52.653	193.569	-33.369	10.647	-94.136	40.214	63.227	-94.384	-89.595	-3.527	45.237	-89.905	-86.223	-85.526	-80.718	44.268	-81.466	-8191	255	
57458.246	1	1	0	0	0.21664	0.24336	0.090479	0.26602	0.069993	0.088326	0.10655	0.1508	0.14906	0.085134	0.045467	0.15825	0.19888	0.087131	0.18751	0.21803	-4.2354	-3.9208	-4.4854	-4.6167	-3.6958	-4.5646	-4.3063	-4.0292	-4.6813	-3.8667	-4.3417	-4.7292	-3.8979	-4.5604	-4.0687	-3.9938	143.824	-2.234	173.257	-94.016	28.088	-97.986	-1.992	-86.766	230.595	13.562	143.712	170.278	-104.913	-97.213	-11.715	226.715	0.00024971	0.00062095	0.00017669	1345.9	2.5403e-06	5.3738e-06	1341.2	363.93	2.7906e-06	3.7349e-06	418.66	138.7	120.74	41.825	3.4164e-06	51.603	0.0003878	0.00039622	0.00010923	1350.5	4.4994e-06	4.3017e-06	1355.5	368.78	4.352e-06	4.4445e-06	423.1	142.78	123.33	42.599	4.3257e-06	52.772	190.709	-1.002	-4.799	-94.268	26.857	39.815	-94.113	-89.876	8.927	38.068	-90.221	-86.451	-85.621	-80.559	21.425	-81.443	-8191	255	
57458.344	1	1	0	0	0.14242	0.23939	0.046108	0.18024	0.20665	0.29455	0.19674	0.1286	0.264	0.064479	0.18889	0.1512	0.26878	0.13313	0.11396	0.27599	-4.4187	-3.8937	-4.2021	-4.775	-3.9208	-4.5188	-4.4187	-3.975	-4.7063	-3.95	-4.2562	-4.7792	-3.825	-4.4875	-4.3313	-4.0833	125.129	-48.257	182.795	202.262	-58.723	173.990	168.047	-88.700	-81.081	52.343	153.415	229.490	-106.164	144.253	-40.138	-63.132	0.00023685	0.00050011	0.00012693	1342.8	2.3064e-06	5.1323e-06	1344.4	366.95	2.229e-06	4.6435e-06	416.62	139.51	120.76	41.742	2.9796e-06	52	0.00040371	0.00041552	0.000107	1350.5	4.6222e-06	4.3699e-06	1358	369.7	4.2947e-06	4.264e-06	422.52	142.82	123.57	42.576	4.3185e-06	52.794	193.405	-28.359	-12.699	-94.111	30.249	25.375	-94.277	-89.713	3.743	49.663	-90.255	-86.239	-85.328	-80.519	47.068	-81.423	-8191	255	
57458.461	1	1	0	0	0.14357	0.097541	0.27025	0.18078	0.22025	0.16671	0.36118	0.072833	0.067431	0.12548	0.12653	0.18632	0.12223	0.18055	0.16714	0.24751	-4.4167	-4.0146	-3.9667	-4.7208	-3.8479	-4.5583	-4.6875	-3.8396	-4.6604	-4.2021	-4.1417	-4.7083	-3.8875	-4.5188	-4.4938	-3.9938	5.182	149.272	-39.334	115.907	225.382	-29.339	222.366	142.528	-55.659	77.094	121.578	-77.050	26.344	-81.756	217.051	228.291	0.00023781	0.00045131	0.0001238	1345.1	2.1049e-06	5.4148e-06	1345.2	365.57	2.1989e-06	5.1799e-06	418.58	139.38	120.37	41.775	3.5578e-06	51.765	0.00038878	0.00039223	0.00010995	1352.1	4.4204e-06	4.2508e-06	1358.8	369.39	4.4465e-06	4.309e-06	423.63	142.93	123.32	42.546	4.1931e-06	52.895	192.466	-15.064	-15.428	-94.247	10.149	44.125	-94.232	-89.479	-11.440	56.016	-90.099	-86.070	-85.809	-80.848	50.980	-81.486	-8191	255	
57458.535	1	1	0	0	0.13227	0.1875	0.14751	0.21654	0.12037	0.1276	0.18236	0.063088	0.19535	0.15586	0.026302	0.14336	0.15357	0.20161	0.25559	0.21472	-4.3542	-4.2375	-3.9417	-4.8917	-3.7562	-4.2188	-4.8292	-3.9292	-4.5771	-4.3187	-4.1271	-4.7063	-3.9833	-4.1958	-4.5583	-3.9833	47.116	-24.363	-87.722	-48.903	107.616	-28.084	-95.961	-85.698	86.937	-60.973	179.990	-73.700	48.721	-103.138	-21.221	189.841	0.00022767	0.00038295	0.00012527	1338.7	1.61e-06	4.9706e-06	1347.9	364.84	2.3945e-06	3.9751e-06	420.48	139.67	120.6	41.952	4.1032e-06	51.972	0.00038854	0.00037607	0.00010383	1350.6	4.3647e-06	4.2917e-06	1357.8	369.19	4.3372e-06	4.3067e-06	423.63	143.32	123.57	42.737	4.0907e-06	52.914	190.323	-26.809	-23.074	-94.210	7.079	37.033	-94.122	-89.869	-6.604	52.221	-90.155	-86.408	-85.828	-80.879	18.704	-81.463	-8191	255	
57458.629	1	1	0	0	0.12207	0.13008	0.22632	0.25812	0.15976	0.062444	0.14595	0.20781	0.231	0.091809	0.087228	0.25414	0.081838	0.25221	0.12747	0.23223	-4.3	-4.0312	-3.9688	-4.7146	-3.8958	-4.1208	-4.7562	-3.9354	-4.5167	-4.3646	-3.9313	-4.8562	-3.9792	-4.1354	-4.5687	-3.9479	104.513	6.382	14.426	193.141	22.429	175.730	-68.382	191.982	-9.500	-12.765	227.365	172.425	88.726	-58.039	173.725	53.285	0.00019839	0.00058954	0.00010541	1346.2	3.5956e-06	4.4252e-06	1343.5	364.48	1.9524e-06	5.7798e-06	419.6	139.61	120.58	42.019	2.7547e-06	52.059	0.00038388	0.00038202	0.00010539	1352.2	4.4652e-06	4.0449e-06	1357.4	369.5	4.3582e-06	4.1603e-06	423.27	143.3	123.73	42.788	4.2545e-06	52.943	192.746	-19.317	-12.238	-94.263	74.472	31.475	-94.278	-89.619	11.543	56.208	-90.368	-85.998	-85.577	-80.612	33.847	-81.190	-8191	255	
57458.750	1	1	0	0	0.14223	0.14282	0.01002	0.25004	0.16359	0.22989	0.18192	0.033609	0.21876	0.20377	0.47419	0.062674	0.1359	0.36877	0.076105	0.30927	-4.2458	-4.4833	-3.9562	-4.7667	-4.2063	-3.9188	-4.9083	-3.9771	-4.4458	-4.4375	-3.6958	-4.775	-4.0875	-4.0312	-4.75	-3.8521	-91.069	-11.487	99.310	226.034	136.722	-33.243	155.317	-71.080	35.636	-26.977	179.187	155.968	251.800	143.806	7.547	142.506	0.0002183	0.00036056	0.00016425	1344.6	3.355e-06	4.8214e-06	1346.6	363.3	3.3159e-06	4.8312e-06	417.91	139.2	121.15	42.1	2.6493e-06	51.957	0.0003841	0.00037705	0.00011006	1352.7	4.5034e-06	4.2776e-06	1359.1	369.36	4.411e-06	4.0712e-06	423.21	143	123.78	42.755	4.1662e-06	52.973	194.190	-12.477	-9.742	-94.171	72.293	29.370	-94.161	-89.928	-10.277	47.004	-90.278	-86.138	-85.473	-80.946	35.258	-81.546	-8191	255	
57458.844	1	1	0	0	0.20718	0.13761	0.33121	0.32176	0.12518	0.25044	0.1934	0.031489	0.18915	0.073919	0.094567	0.17706	0.19143	0.25007	0.077652	0.1742	-3.9521	-4.4271	-3.7375	-4.7667	-4.2354	-3.8604	-4.9625	-3.9583	-4.1417	-4.4563	-3.7833	-4.5917	-4.4604	-3.8729	-4.7479	-3.8229	17.328	23.298	250.371	234.672	-48.790	146.605	167.048	180.328	52.473	99.096	150.128	-31.394	-94.200	137.595	100.692	28.267	0.00022186	0.00035417	0.00013897	1344.7	2.6436e-06	5.6041e-06	1340.7	364.12	2.5086e-06	3.3522e-06	417.73	139.36	121.17	41.922	3.49e-06	51.755	0.00039182	0.00037953	0.00010921	1351.2	4.2968e-06	4.3135e-06	1357.6	369.86	4.3797e-06	4.1699e-06	422.94	143.27	123.55	42.713	4.2007e-06	52.936	192.973	-19.048	-22.180	-94.346	54.036	33.299	-94.020	-89.639	-0.156	54.024	-90.268	-86.248	-85.707	-80.902	29.924	-81.358	-8191	255	
57458.941	1	1	0	0	0.10336	0.14177	0.10955	0.0962	0.13302	0.12646	0.25585	0.20686	0.17987	0.098058	0.049404	0.090455	0.21807	0.099005	0.10582	0.35108	-3.8479	-4.6562	-3.7271	-4.5292	-4.3479	-3.7833	-4.5646	-4.1896	-4.0292	-4.7	-3.75	-4.5667	-4.5417	-3.9833	-4.5792	-4.1687	135.209	178.365	73.907	-59.906	64.661	-61.399	224.538	196.463	-87.808	117.720	-81.396	-23.294	205.917	250.748	23.250	207.634	0.00022042	0.00047886	0.00013123	1345.6	3.1326e-06	4.9531e-06	1348.1	365.02	1.888e-06	4.3104e-06	416.99	139.64	121.32	41.999	4.7929e-06	51.652	0.00037437	0.00037371	0.00010682	1350.5	4.2907e-06	4.149e-06	1357.7	369.7	4.258e-06	3.9403e-06	423.08	143.24	123.79	42.81	4.1035e-06	52.888	189.560	-26.850	-17.001	-94.250	24.472	56.367	-94.354	-89.794	27.265	49.523	-90.164	-86.433	-85.538	-80.470	35.984	-81.580	-8191	255	
57459.062	1	1	0	0	0.16654	0.076945	0.20227	0.16123	0.059529	0.14673	0.16623	0.062679	0.22812	0.026867	0.19219	0.14455	0.085231	0.2754	0.12291	0.1239	-3.8708	-4.7104	-3.9833	-4.5854	-4.625	-3.8375	-4.7125	-4.3104	-4.0604	-4.6729	-4.0083	-4.3146	-4.5667	-3.8271	-4.7	-4.3792	-75.891	-30.025	163.855	152.408	-10.728	-94.194	249.477	161.911	29.337	179.334	193.071	-7.567	192.611	216.294	35.856	162.828	0.00022542	0.00049755	0.00013897	1339.4	2.6236e-06	5.6898e-06	1340	364.42	2.2104e-06	4.413e-06	416.73	139.73	121.09	42.065	2.6066e-06	51.702	0.00038197	0.00035441	0.00010118	1349.9	4.2679e-06	4.2453e-06	1356.5	369.33	4.3186e-06	3.9421e-06	423.39	143.26	123.6	42.864	4.1044e-06	52.875	186.430	-50.310	-1.998	-94.399	19.046	35.290	-94.188	-89.549	8.523	44.558	-90.067	-86.376	-85.585	-80.742	44.023	-81.360	-8191	255	
57459.156	1	1	0	0	0.12248	0.094815	0.11959	0.083876	0.14893	0.15308	0.042319	0.17576	0.13917	0.25733	0.17258	0.16251	0.18084	0.10427	0.18219	0.11841	-3.7896	-4.6687	-3.7542	-4.2604	-4.6062	-3.8104	-4.7104	-4.4021	-3.9042	-4.7042	-4.0792	-4.2417	-4.6562	-4.0229	-4.5729	-4.6021	204.058	173.559	-44.795	-100.070	137.864	-64.608	-87.565	-104.336	16.859	212.486	158.026	244.329	191.481	-78.347	15.069	252.360	0.00022723	0.00047698	0.00012938	1341.8	3.3426e-06	4.1817e-06	1348.2	365.69	2.8567e-06	4.4726e-06	418.27	140.12	121.35	41.878	2.2753e-06	51.849	0.00039366	0.00037151	0.00011172	1350.8	4.2203e-06	4.1576e-06	1358.2	369.57	4.376e-06	4.0007e-06	423.18	143.35	123.85	42.713	4.1735e-06	53.015	190.555	-3.471	-26.829	-94.351	20.270	48.858	-94.176	-89.611	15.843	58.071	-90.072	-86.596	-85.425	-81.004	37.597	-81.248	-8191	255	
57459.230	1	1	0	0	0.1621	0.1211	0.036176	0.22313	0.15216	0.047537	0.1498	0.13214	0.17672	0.07215	0.17755	0.064407	0.27322	0.14481	0.22277	0.11448	-3.5729	-4.6354	-4.125	-4.2792	-4.6458	-3.8292	-4.5229	-4.6188	-3.8833	-4.6708	-4.2729	-4.1375	-4.7937	-3.9146	-4.2146	-4.5521	176.431	132.411	226.397	231.647	-64.511	180.172	81.091	205.928	190.836	239.594	-86.155	183.680	246.188	-91.270	-59.740	79.745	0.00020769	0.00055992	0.0001264	1345.3	3.5245e-06	5.0428e-06	1341.1	365.29	1.5204e-06	4.0926e-06	419.31	140.39	121.38	41.841	3.4174e-06	51.892	0.00038412	0.00037448	0.00010369	1350.5	4.2687e-06	4.1226e-06	1357.7	369.62	4.3355e-06	4.0235e-06	423.8	143.44	123.63	42.732	4.2046e-06	52.985	191.574	-36.948	-7.269	-94.262	19.100	38.528	-94.327	-89.857	-3.314	58.718	-90.294	-85.954	-85.682	-80.921	14.627	-81.228	-8191	255	
57459.352	1	1	0	0	0.085493	0.23371	0.061673	0.29767	0.14997	0.29528	0.13906	0.13258	0.30686	0.083507	0.12745	0.16199	0.26361	0.24662	0.16214	0.14467	-3.5542	-4.7646	-4.1562	-4.0875	-4.6188	-3.8229	-4.5771	-4.7229	-3.6792	-4.55	-4.4042	-3.9625	-4.7354	-4.0854	-4.2229	-4.6583	-3.174	206.586	121.977	239.575	-75.150	-0.850	221.507	246.129	133.166	-3.750	191.109	4.612	244.866	-69.001	53.713	139.203	0.00021464	0.00063739	0.00011154	1343.2	3.2192e-06	2.8249e-06	1343.9	364.65	2.2582e-06	4.9654e-06	419.01	139.25	121	42.042	2.593e-06	52.022	0.00039314	0.00036874	0.00010787	1349.4	4.1011e-06	4.0349e-06	1355.1	369.71	4.3376e-06	4.0758e-06	423.88	143.25	123.91	42.798	4.0869e-06	53.097	192.885	-23.746	-19.916	-94.251	49.215	46.246	-94.407	-89.600	17.115	37.739	-90.037	-86.346	-85.656	-80.871	18.835	-81.266	-8191	255	
57459.445	1	1	0	0	0.31594	0.045314	0.078328	0.15463	0.14465	0.063224	0.35673	0.19699	0.13982	0.15167	0.18739	0.036912	0.18375	0.047708	0.23581	0.038316	-3.5208	-4.5417	-4.3021	-3.9417	-4.6875	-3.9833	-4.4021	-4.7562	-3.7771	-4.575	-4.5354	-4.0646	-4.9437	-4.2562	-4.1271	-4.8542	223.820	-51.729	54.399	229.401	74.280	244.620	195.994	77.176	-61.639	132.075	208.872	223.437	-68.273	119.769	-47.602	109.598	0.00025151	0.00059183	0.00011965	1343.2	4.1013e-06	4.0426e-06	1347.5	364.5	2.1349e-06	5.5866e-06	418.02	140.07	121.37	42.052	4.5254e-06	51.854	0.00037952	0.00036577	0.00010249	1347.7	4.1121e-06	3.9986e-06	1359.2	369.56	4.2518e-06	3.968e-06	423.33	143.45	124.12	42.776	4.1359e-06	52.967	190.992	-6.791	-38.363	-94.600	38.739	50.254	-94.095	-89.585	-1.834	34.687	-90.074	-86.534	-85.534	-80.824	64.312	-81.118	-8191	255	
57459.543	1	1	0	0	0.18558	0.17222	0.10485	0.19598	0.28857	0.18435	0.21408	0.11031	0.37265	0.10859	0.21595	0.16419	0.12972	0.02524	0.1757	0.24483	-3.3625	-4.4771	-4.5354	-3.9708	-4.6542	-4.0896	-4.2083	-4.9313	-3.7687	-4.3229	-4.6042	-3.7708	-4.7125	-4.2146	-3.8458	-4.6896	211.636	18.579	0.435	-55.532	-50.228	205.016	181.137	-93.794	119.251	202.418	139.373	158.635	188.851	20.904	229.313	205.910	0.00024574	0.00056332	0.00016338	1343.4	3.0621e-06	6.271e-06	1344.4	365.17	1.8182e-06	5.3257e-06	417.95	139.34	121.03	41.758	4.6495e-06	51.658	0.00037984	0.00038193	0.00010262	1349	4.1943e-06	3.9699e-06	1357.4	369.69	4.3174e-06	4.1703e-06	423.59	143.3	123.71	42.718	4.3398e-06	52.912	191.266	-14.724	-7.423	-94.335	30.144	27.908	-94.270	-89.553	28.766	61.036	-90.009	-86.228	-85.498	-80.517	50.477	-81.411	-8191	255	
57459.641	1	1	0	0	0.036455	0.11901	0.1046	0.19562	0.11143	0.192	0.082755	0.10328	0.025643	0.11892	0.13205	0.26967	0.025088	0.074475	0.29539	0.21635	-3.5833	-4.3021	-4.4187	-3.9729	-4.5479	-4.2	-4.2896	-4.8271	-4.1146	-4.2104	-4.6438	-3.7854	-4.6729	-4.2792	-3.8667	-4.7583	192.323	67.020	62.428	199.977	192.102	174.453	194.390	205.331	184.352	156.837	134.803	-89.052	171.424	-66.211	-2.803	39.487	0.00020627	0.00063643	0.00014908	1349	2.5304e-06	5.4949e-06	1348.4	364.13	2.12e-06	3.8914e-06	418.73	139.02	121.03	41.671	3.4541e-06	51.907	0.00039444	0.00038222	0.00010588	1351.5	4.1629e-06	4.2144e-06	1358.5	369.68	4.251e-06	4.0262e-06	423.13	143.23	123.88	42.719	4.1432e-06	53.03	192.841	-29.230	-7.780	-94.192	46.000	41.605	-94.049	-89.733	-7.789	47.454	-90.019	-86.633	-85.667	-80.625	30.682	-81.443	-8191	255	
57459.758	1	1	0	0	0.14971	0.026344	0.035625	0.35705	0.21822	0.27335	0.29764	0.32512	0.23458	0.012613	0.28147	0.16607	0.067516	0.11182	0.20107	0.20465	-3.5896	-4.0437	-4.4	-3.9771	-4.4917	-4.3896	-3.8271	-4.6854	-4.025	-4.0771	-4.7771	-3.9688	-4.5333	-4.3792	-3.8604	-4.9167	-47.297	79.196	126.409	-94.993	-97.883	150.614	239.930	207.756	246.231	183.171	209.334	159.052	215.574	-61.430	202.858	237.333	0.00021646	0.00054974	0.00012441	1342.9	2.0305e-06	5.6933e-06	1340	365.77	3.022e-06	4.6897e-06	418.89	140.02	120.7	41.978	2.5466e-06	51.924	0.00039888	0.00038096	0.00010432	1350.1	4.3057e-06	4.1649e-06	1356.7	370.05	4.3252e-06	4.2008e-06	423.14	143.4	123.64	42.758	4.1999e-06	52.996	190.305	-1.022	-5.934	-94.118	54.008	36.839	-94.403	-89.434	10.561	48.597	-90.108	-86.297	-85.546	-80.693	26.807	-81.404	-8191	255	
57459.832	1	1	0	0	0.079511	0.10461	0.10133	0.31607	0.23451	0.080093	0.20118	0.10984	0.057185	0.026718	0.2109	0.15839	0.44111	0.022715	0.22855	0.084928	-3.8208	-4.1396	-4.7042	-3.9958	-4.2229	-4.4708	-3.9958	-4.7833	-4.2083	-3.9604	-4.7333	-4.0021	-4.3167	-4.6396	-3.8187	-4.7229	-14.748	-33.186	244.763	218.747	246.206	121.584	164.486	-71.232	126.491	-3.592	-79.183	159.006	184.867	43.155	-0.582	140.534	0.00024475	0.00068346	0.00014056	1339	2.6494e-06	5.5136e-06	1346	364.23	9.4747e-07	6.5206e-06	418.52	139.27	121.52	42.065	3.1442e-06	51.771	0.00037613	0.00039606	0.00010054	1348	4.3615e-06	3.9817e-06	1356.2	369.89	4.3834e-06	4.3254e-06	423.6	143.18	124.06	42.776	4.2848e-06	53.019	193.473	-6.998	-13.624	-94.447	16.822	25.755	-94.360	-89.655	-4.790	33.114	-89.955	-86.436	-85.810	-80.630	45.156	-81.414	-8191	255	
57459.926	1	1	0	0	0.093126	0.1559	0.15872	0.23103	0.1043	0.19205	0.3343	0.04374	0.25806	0.070851	0.1016	0.084547	0.29405	0.075491	0.24906	0.19924	-3.9333	-3.8979	-4.8313	-4.1188	-4.2833	-4.7896	-3.9667	-4.7146	-4.3063	-3.8479	-4.7292	-4.0188	-4.1562	-4.6417	-3.6979	-4.6062	-100.745	198.289	45.303	241.570	-106.617	163.184	180.775	-34.323	-8.990	100.619	208.813	176.170	107.353	191.134	-48.618	192.903	0.0002225	0.00044634	0.00013302	1344.8	1.816e-06	4.7183e-06	1346	364.82	3.8517e-06	4.9704e-06	417.47	139.59	121.22	42.026	1.646e-06	51.915	0.00039248	0.00040563	0.00010072	1350.2	4.2362e-06	3.9886e-06	1358.3	369.91	4.3355e-06	4.2358e-06	423.38	143.37	123.8	42.799	4.2067e-06	53.008	190.203	-32.375	-11.858	-94.279	14.203	61.626	-94.366	-89.608	16.776	54.424	-90.246	-86.177	-85.758	-80.592	54.135	-81.553	-8191	255	
57460.023	1	1	0	0	0.15659	0.18109	0.11282	0.15439	0.083685	0.11436	0.075121	0.1498	0.16321	0.068789	0.13481	0.18668	0.017169	0.13436	0.042896	0.10834	-3.9604	-3.8646	-4.6312	-4.0875	-3.9708	-4.7146	-3.9542	-4.4896	-4.3562	-3.9729	-4.7312	-4.0396	-3.875	-4.7562	-3.7958	-4.4854	242.000	212.344	202.965	176.560	-41.854	137.910	227.419	215.447	102.319	227.910	225.195	154.221	227.145	-34.877	-90.806	196.076	0.00023125	0.00056996	0.00014231	1346.1	2.9682e-06	7.6642e-06	1341.1	365.76	2.6739e-06	7.0979e-06	418.64	139.79	120.73	41.821	3.7998e-06	51.777	0.00037253	0.00039313	0.00010365	1351.8	4.3549e-06	4.0108e-06	1356.2	370.06	4.1903e-06	4.3113e-06	423.45	143.39	123.62	42.804	4.4255e-06	52.973	189.102	-31.537	-9.602	-94.290	33.604	50.930	-94.370	-89.450	30.004	57.177	-90.044	-86.392	-85.513	-80.740	31.210	-81.375	-8191	255	
57460.141	1	1	0	0	0.069316	0.19858	0.2388	0.031799	0.079818	0.080351	0.37028	0.27832	0.017322	0.29013	0.05282	0.13732	0.094456	0.07704	0.095162	0.08702	-4.2354	-3.7292	-4.3208	-4.2042	-3.8229	-4.7125	-3.9333	-4.3604	-4.3854	-3.7458	-4.5021	-4.2979	-3.8417	-4.6562	-3.9042	-4.3479	112.860	-68.955	61.376	201.903	-19.479	49.897	187.125	180.647	-89.855	-94.498	-55.693	217.851	1.226	234.513	187.731	106.564	0.00022911	0.0003269	0.00014655	1346.5	3.3989e-06	5.8991e-06	1347.4	364.62	1.6283e-06	4.4198e-06	419.37	140.26	120.6	42.081	3.9389e-06	51.876	0.00038064	0.00037233	0.00010214	1351.1	4.3517e-06	4.1176e-06	1358.5	369.39	4.199e-06	4.294e-06	423.51	143.29	123.56	42.792	4.3133e-06	53.04	190.164	-21.327	-19.314	-94.181	33.843	41.901	-94.220	-89.358	13.457	53.727	-89.887	-86.388	-85.836	-80.705	31.449	-81.515	-8191	255	
57460.238	1	1	0	0	0.14611	0.10885	0.18855	0.33485	0.22041	0.23592	0.25983	0.10257	0.090184	0.17518	0.18926	0.26101	0.04004	0.19447	0.096831	0.15979	-4.2958	-3.8375	-4.4313	-4.3792	-3.8	-4.6917	-4.0312	-4.1917	-4.5333	-3.6354	-4.4396	-4.3604	-3.8229	-4.7	-3.9813	-4.1521	158.269	163.515	203.248	-90.155	-58.002	193.197	203.708	-36.692	50.364	-75.199	100.087	248.190	133.316	67.845	105.293	202.731	0.00021223	0.00047332	0.00011493	1340	2.9858e-06	4.1809e-06	1344.7	365.7	2.8387e-06	4.1609e-06	416.78	139.68	121.22	41.943	4.522e-06	51.919	0.00038037	0.00040526	0.00010347	1350.2	4.4465e-06	4.1822e-06	1358	370.26	4.2035e-06	4.2726e-06	423.45	143.32	123.59	42.793	4.2643e-06	53.039	200.746	-27.398	4.605	-94.627	51.439	20.367	-93.991	-89.466	5.882	44.523	-90.051	-85.944	-85.458	-80.770	43.799	-81.339	-8191	255	
57460.336	1	1	0	0	0.029937	0.25738	0.22279	0.20166	0.18214	0.084363	0.10697	0.047056	0.094271	0.12851	0.097464	0.068844	0.056096	0.29511	0.051855	0.079505	-4.3562	-3.7188	-4.4875	-4.4604	-3.875	-4.6229	-4.2271	-4.1062	-4.5979	-3.8271	-4.4333	-4.4313	-3.8937	-4.6958	-4.1417	-4.1083	-71.891	222.760	-70.545	217.197	243.246	-95.505	221.497	241.344	-42.982	50.197	27.429	202.167	170.231	243.599	141.859	144.376	0.00022586	0.00051869	0.0001101	1343.6	3.2588e-06	4.458e-06	1343.5	364.53	2.2924e-06	4.7406e-06	420.2	140.06	121.26	42.016	3.3172e-06	52.01	0.0003805	0.0003996	0.00010468	1351.4	4.4042e-06	3.8595e-06	1357	369.44	4.253e-06	4.1003e-06	423.73	143.39	123.56	42.805	4.3833e-06	53.078	190.431	-33.360	-15.966	-94.118	45.775	25.678	-94.135	-89.753	12.186	32.790	-90.182	-86.220	-85.678	-80.631	25.839	-81.588	-8191	255	
57460.430	1	1	0	0	0.13625	0.23287	0.087365	0.11187	0.061965	0.04163	0.059545	0.17522	0.26977	0.038337	0.1624	0.11792	0.17537	0.23785	0.10603	0.14435	-4.2333	-3.7687	-4.3	-4.7063	-3.6958	-4.5667	-4.3458	-3.8771	-4.65	-3.8812	-4.3354	-4.6375	-3.7771	-4.5458	-4.3104	-3.8729	21.121	-72.885	139.478	-15.149	66.943	143.889	68.497	196.439	145.317	-79.185	179.984	127.541	176.343	220.214	159.258	50.191	0.0002184	0.00055981	0.00016396	1345.9	3.0295e-06	5.2006e-06	1346.4	365.85	2.5901e-06	3.8664e-06	419.49	139.66	121.77	42.104	3.4948e-06	51.969	0.00038496	0.00039256	0.00010638	1351.6	4.4522e-06	4.1099e-06	1357.1	370.21	4.2481e-06	4.2035e-06	423.56	143.54	123.73	42.78	4.2379e-06	52.995	194.131	-31.587	-15.641	-94.154	52.594	36.439	-94.100	-89.799	3.795	40.823	-90.240	-86.422	-85.738	-80.636	50.162	-81.492	-8191	255	
57460.527	1	1	0	0	0.028791	0.19453	0.11081	0.035576	0.30705	0.041219	0.14423	0.20694	0.075912	0.16589	0.26452	0.15139	0.3029	0.098485	0.16531	0.16705	-4.2521	-3.9792	-4.05	-4.6208	-3.5812	-4.4271	-4.4833	-3.7625	-4.4896	-4.0271	-4.0729	-4.6583	-3.8354	-4.5062	-4.3479	-3.8937	-17.438	68.615	-17.361	224.102	93.890	-86.942	152.843	99.847	-31.116	90.405	177.808	166.587	160.764	-63.466	111.376	239.068	0.00023478	0.00051431	0.0001383	1351.3	1.8253e-06	3.9124e-06	1341.4	365.77	2.9291e-06	4.0742e-06	418.52	139.7	120.64	41.85	4.6499e-06	51.694	0.00038162	0.0003764	0.00010406	1352.6	4.1808e-06	4.039e-06	1356.5	369.85	4.293e-06	4.2254e-06	423.67	143.44	123.75	42.769	4.0016e-06	52.898	198.230	0.819	-18.615	-94.311	18.808	32.292	-94.493	-89.751	9.765	31.895	-89.746	-86.145	-86.051	-80.889	18.818	-81.881	-8191	255	
57460.621	1	1	0	0	0.11431	0.030157	0.096398	0.24506	0.096028	0.13927	0.24399	0.038634	0.11011	0.074942	0.17655	0.089389	0.035288	0.129	0.045282	0.12547	-4.2375	-4.1458	-3.9521	-4.7333	-3.7542	-4.3167	-4.4854	-3.7021	-4.7	-4.2937	-3.9854	-4.6813	-3.8917	-4.0667	-4.3458	-3.7583	-2.581	200.473	-98.435	211.117	-20.318	-69.068	195.643	-95.416	-16.442	-7.674	247.160	172.445	-58.399	14.944	37.863	-81.180	0.0002127	0.00028962	0.00010892	1343.9	2.0328e-06	4.8263e-06	1342.9	364.06	1.6081e-06	4.9158e-06	418.67	140.34	120.66	41.693	4.197e-06	51.691	0.00037993	0.00036952	0.0001023	1351.9	4.4428e-06	4.2017e-06	1357.7	368.93	4.2955e-06	4.2244e-06	423.53	143.45	123.51	42.706	4.0408e-06	52.923	191.232	-24.059	-13.549	-94.238	19.796	35.348	-94.367	-90.013	2.314	38.519	-89.899	-86.405	-85.628	-80.699	35.052	-81.527	-8191	255	
57460.742	1	1	0	0	0.30448	0.26542	0.093935	0.1223	0.1561	0.18599	0.25851	0.17668	0.18527	0.12245	0.19515	0.19182	0.18181	0.244	0.24407	0.082249	-4.1375	-4.2333	-3.7812	-4.8125	-3.6917	-4.15	-4.7208	-3.7854	-4.5604	-4.3979	-3.8896	-4.7271	-4.0208	-4.2583	-4.6208	-3.8792	83.173	175.339	-28.468	226.365	-69.674	175.126	203.505	196.651	168.022	-14.647	234.634	198.322	-69.067	199.012	139.587	2.639	0.00023096	0.00058684	0.00012702	1348.2	3.1517e-06	3.8777e-06	1341.5	364.2	1.9647e-06	3.2386e-06	417.12	140.1	121.15	42.008	4.0567e-06	51.749	0.00038087	0.00039911	0.00010909	1351.8	4.3859e-06	4.1594e-06	1356	369.54	4.2089e-06	4.1308e-06	423.34	143.74	123.81	42.765	4.0545e-06	52.972	190.114	-5.333	-12.551	-94.154	23.842	52.254	-94.036	-89.821	20.402	58.656	-90.257	-86.166	-85.628	-80.494	22.471	-81.460	-8191	255	
57460.840	1	1	0	0	0.053139	0.13615	0.19448	0.14114	0.076353	0.17489	0.11037	0.030816	0.090164	0.16968	0.21819	0.14089	0.10828	0.25134	0.10225	0.017486	-4.2271	-4.3458	-3.6958	-4.7625	-3.9104	-4.0062	-4.8229	-3.7917	-4.2479	-4.5396	-3.8875	-4.675	-4.2458	-3.9854	-4.6542	-3.9729	186.235	-97.727	-58.179	176.046	52.775	-100.574	67.477	36.186	-75.361	-77.671	150.859	-36.078	147.661	246.638	128.532	26.880	0.00021681	0.00061205	0.00016236	1343.6	2.9834e-06	6.824e-06	1348.8	365.55	2.6238e-06	5.6547e-06	418.14	140.17	121	41.904	3.6962e-06	51.82	0.00037912	0.00038649	0.00010405	1349.6	4.202e-06	4.0895e-06	1358.9	369.99	4.3698e-06	4.1935e-06	423.26	143.52	123.5	42.718	4.2575e-06	52.924	189.593	-8.234	-15.290	-94.385	38.905	54.315	-94.150	-89.676	35.833	53.161	-90.010	-86.299	-85.688	-80.477	51.721	-81.294	-8191	255	
#DATA ENDS
