BOXY.EXE: ISS Imagent and Oximeter Data Acquisition Program Version 0.80
Ascii Record File

#ACQ INFORMATION
2  Detector Channels 
16  External MUX Channels 
1  Auxiliary Channels 
5000  Waveform (CCF) Frequency (Hz)
1  Waveforms Skipped 
30  Waveforms Averaged 
1  Cycles Averaged 
16  Acquisitions per Waveform 
10.0806  Updata Rate (Hz) 

#FILE INFORMATION
TRUE -- External MUX Channel results are PARSED.
FALSE -- AC DC and Phase are NOT grouped.
TRUE -- Companion Program Settings File CREATED.
FALSE -- AC data not excluded
FALSE -- DC data not excluded
FALSE -- Phase data not excluded
FALSE -- Auxillary Chn. data not excluded
Tab delimiters

#CALIBRATION STATE
TRUE -- Waveform Calibration Values APPLIED.


#AUX CALIBRATION VALUES
Val Type	aux-1	

Term	1.0000e+00	
Factor	0.0000e+00	


#WF CALIBRATION VALUES
A = Detector Channel
Val Type	A-AC1	A-AC2	A-AC3	A-AC4	A-AC5	A-AC6	A-AC7	A-AC8	A-AC9	A-AC10	A-AC11	A-AC12	A-AC13	A-AC14	A-AC15	A-AC16	A-DC1	A-DC2	A-DC3	A-DC4	A-DC5	A-DC6	A-DC7	A-DC8	A-DC9	A-DC10	A-DC11	A-DC12	A-DC13	A-DC14	A-DC15	A-DC16	A-Ph1	A-Ph2	A-Ph3	A-Ph4	A-Ph5	A-Ph6	A-Ph7	A-Ph8	A-Ph9	A-Ph10	A-Ph11	A-Ph12	A-Ph13	A-Ph14	A-Ph15	A-Ph16	

Term	0.00000e+00	0.00000e+00	0.00000e+00	0.00000e+00	0.00000e+00	0.00000e+00	0.00000e+00	0.00000e+00	0.00000e+00	0.00000e+00	0.00000e+00	0.00000e+00	0.00000e+00	0.00000e+00	0.00000e+00	0.00000e+00	0.00000e+00	0.00000e+00	0.00000e+00	0.00000e+00	0.00000e+00	0.00000e+00	0.00000e+00	0.00000e+00	0.00000e+00	0.00000e+00	0.00000e+00	0.00000e+00	0.00000e+00	0.00000e+00	0.00000e+00	0.00000e+00	0.00000e+00	0.00000e+00	0.00000e+00	0.00000e+00	0.00000e+00	0.00000e+00	0.00000e+00	0.00000e+00	0.00000e+00	0.00000e+00	0.00000e+00	0.00000e+00	0.00000e+00	0.00000e+00	0.00000e+00	0.00000e+00	
Factor	1.00000e+00	1.00000e+00	1.00000e+00	1.00000e+00	1.00000e+00	1.00000e+00	1.00000e+00	1.00000e+00	1.00000e+00	1.00000e+00	1.00000e+00	1.00000e+00	1.00000e+00	1.00000e+00	1.00000e+00	1.00000e+00	1.00000e+00	1.00000e+00	1.00000e+00	1.00000e+00	1.00000e+00	1.00000e+00	1.00000e+00	1.00000e+00	1.00000e+00	1.00000e+00	1.00000e+00	1.00000e+00	1.00000e+00	1.00000e+00	1.00000e+00	1.00000e+00	X	X	X	X	X	X	X	X	X	X	X	X	X	X	X	X	

B = Detector Channel
Val Type	B-AC1	B-AC2	B-AC3	B-AC4	B-AC5	B-AC6	B-AC7	B-AC8	B-AC9	B-AC10	B-AC11	B-AC12	B-AC13	B-AC14	B-AC15	B-AC16	B-DC1	B-DC2	B-DC3	B-DC4	B-DC5	B-DC6	B-DC7	B-DC8	B-DC9	B-DC10	B-DC11	B-DC12	B-DC13	B-DC14	B-DC15	B-DC16	B-Ph1	B-Ph2	B-Ph3	B-Ph4	B-Ph5	B-Ph6	B-Ph7	B-Ph8	B-Ph9	B-Ph10	B-Ph11	B-Ph12	B-Ph13	B-Ph14	B-Ph15	B-Ph16	

Term	0.00000e+00	0.00000e+00	0.00000e+00	0.00000e+00	0.00000e+00	0.00000e+00	0.00000e+00	0.00000e+00	0.00000e+00	0.00000e+00	0.00000e+00	0.00000e+00	0.00000e+00	0.00000e+00	0.00000e+00	0.00000e+00	0.00000e+00	0.00000e+00	0.00000e+00	0.00000e+00	0.00000e+00	0.00000e+00	0.00000e+00	0.00000e+00	0.00000e+00	0.00000e+00	0.00000e+00	0.00000e+00	0.00000e+00	0.00000e+00	0.00000e+00	0.00000e+00	-1.33287e+02	-1.33058e+02	-1.22415e+02	-1.83602e+02	-6.63235e+01	-6.86494e+01	-1.58175e+02	-1.62015e+02	-6.98326e+01	-6.27199e+01	-1.70709e+02	-1.71243e+02	-1.78816e+02	-1.76819e+02	-7.21941e+01	-1.49827e+02	
Factor	1.98011e-05	1.68726e-04	4.68094e-05	1.72646e-01	1.25001e-06	1.72005e-06	1.91519e-01	5.90140e-02	1.19171e-06	1.73739e-06	9.70808e-02	3.25887e-02	3.02680e-02	1.03601e-02	1.44427e-06	1.45597e-02	1.17642e-05	1.95404e-05	5.41394e-06	8.28772e-02	1.95271e-07	2.18153e-07	8.65750e-02	2.84976e-02	1.98045e-07	2.18247e-07	4.54550e-02	1.53416e-02	1.48428e-02	5.03973e-03	2.04727e-07	6.86683e-03	X	X	X	X	X	X	X	X	X	X	X	X	X	X	X	X	



#DISTANCE SETTINGS
A = Detector Channel
A-1	A-2	A-3	A-4	A-5	A-6	A-7	A-8	A-9	A-10	A-11	A-12	A-13	A-14	A-15	A-16	

2.5000e+00	3.0000e+00	2.5000e+00	3.0000e+00	2.0000e+00	3.0000e+00	1.5000e+00	3.0000e+00	3.0000e+00	3.0000e+00	3.0000e+00	3.0000e+00	3.0000e+00	3.0000e+00	1.5000e+00	3.0000e+00	

B = Detector Channel
B-1	B-2	B-3	B-4	B-5	B-6	B-7	B-8	B-9	B-10	B-11	B-12	B-13	B-14	B-15	B-16	

1.0000e+01	1.0000e+01	1.0000e+01	1.4400e+00	1.0000e+01	1.0000e+01	1.5100e+00	1.9400e+00	1.0000e+01	1.0000e+01	1.9900e+00	2.4900e+00	2.4100e+00	2.9000e+00	1.0000e+01	2.9800e+00	




#DATA BEGINS
time	group	step	mark	flag	A-AC1	A-AC2	A-AC3	A-AC4	A-AC5	A-AC6	A-AC7	A-AC8	A-AC9	A-AC10	A-AC11	A-AC12	A-AC13	A-AC14	A-AC15	A-AC16	A-DC1	A-DC2	A-DC3	A-DC4	A-DC5	A-DC6	A-DC7	A-DC8	A-DC9	A-DC10	A-DC11	A-DC12	A-DC13	A-DC14	A-DC15	A-DC16	A-Ph1	A-Ph2	A-Ph3	A-Ph4	A-Ph5	A-Ph6	A-Ph7	A-Ph8	A-Ph9	A-Ph10	A-Ph11	A-Ph12	A-Ph13	A-Ph14	A-Ph15	A-Ph16	B-AC1	B-AC2	B-AC3	B-AC4	B-AC5	B-AC6	B-AC7	B-AC8	B-AC9	B-AC10	B-AC11	B-AC12	B-AC13	B-AC14	B-AC15	B-AC16	B-DC1	B-DC2	B-DC3	B-DC4	B-DC5	B-DC6	B-DC7	B-DC8	B-DC9	B-DC10	B-DC11	B-DC12	B-DC13	B-DC14	B-DC15	B-DC16	B-Ph1	B-Ph2	B-Ph3	B-Ph4	B-Ph5	B-Ph6	B-Ph7	B-Ph8	B-Ph9	B-Ph10	B-Ph11	B-Ph12	B-Ph13	B-Ph14	B-Ph15	B-Ph16	aux-1	digaux	

57367.117	1	1	0	768	0.036029	0.075762	0.17998	0.10297	0.037597	0.093449	0.054321	0.17574	0.069985	0.013075	0.058378	0.034764	0.091494	0.29756	0.23115	0.17568	-4.0396	-3.8604	-4.6458	-4.2146	-4.0479	-4.7333	-4.0062	-4.5125	-4.4646	-3.7625	-4.6813	-4.2667	-4.025	-4.7917	-3.8396	-4.4979	-80.386	-69.259	72.908	198.669	224.987	121.386	-23.564	191.936	50.741	6.525	-85.196	208.925	-42.903	213.822	25.188	254.343	0.00019049	0.00041488	0.00012784	1375	3.0125e-06	6.5767e-06	1364.7	371.04	1.763e-06	4.0647e-06	423.69	140.73	122.34	42.562	4.5343e-06	52.244	0.00046059	0.00052959	0.00014486	1380.6	5.8557e-06	5.5202e-06	1380.1	375.2	5.5783e-06	5.7767e-06	429.31	143.77	125.32	43.252	5.7226e-06	53.384	173.806	-9.050	8.413	-74.002	8.695	64.904	-73.772	-69.312	19.220	76.253	-69.761	-65.913	-65.209	-60.460	69.182	-60.996	-8191	255	
57367.215	1	1	0	0	0.14316	0.16446	0.30572	0.15375	0.15467	0.33067	0.20802	0.19758	0.029613	0.049373	0.080355	0.13166	0.22118	0.13336	0.14436	0.10318	-4.2937	-3.7229	-4.6271	-4.4375	-3.825	-4.7167	-4.0833	-4.5125	-4.5375	-3.8563	-4.75	-4.3646	-4.0979	-4.8375	-3.9375	-4.4021	-81.039	-62.624	103.948	227.097	220.936	-60.752	154.293	250.725	-74.283	268.564	64.711	67.173	188.847	87.022	77.697	224.321	0.00016496	0.00059767	0.00019785	1376	1.343e-06	5.5169e-06	1370	370.32	8.7218e-07	5.4016e-06	423.55	140.03	122.53	42.461	4.5339e-06	52.521	0.00044858	0.00052222	0.00014554	1380.7	5.7479e-06	5.5811e-06	1378.6	374.95	5.7536e-06	5.7554e-06	429.17	143.75	125.13	43.109	5.7831e-06	53.435	180.481	-2.474	1.791	-73.917	58.804	50.642	-73.912	-69.289	55.850	65.199	-69.893	-65.733	-65.348	-60.371	61.370	-61.205	-8191	255	
57367.309	1	1	0	0	0.21728	0.15502	0.20898	0.33023	0.13087	0.19524	0.035198	0.089389	0.045203	0.34124	0.18504	0.059633	0.23081	0.11047	0.23343	0.14776	-4.3729	-3.7208	-4.5354	-4.5167	-3.8625	-4.7479	-4.1708	-4.2188	-4.5875	-3.8396	-4.5708	-4.4833	-3.9313	-4.775	-4.1229	-4.3229	82.448	171.797	115.139	198.135	-19.781	39.436	70.530	254.015	-49.280	107.047	155.124	180.208	185.287	-57.961	-19.107	226.817	0.00016135	0.00048362	0.00016196	1375.9	3.7173e-06	5.4958e-06	1369	369.56	2.661e-06	5.5749e-06	425.25	140.82	122.28	42.292	3.3062e-06	52.441	0.00045535	0.00053353	0.0001372	1378.9	5.7434e-06	5.6383e-06	1379.4	374.97	5.6505e-06	5.9768e-06	428.45	143.94	125.15	43.094	5.8714e-06	53.323	180.688	2.789	1.528	-73.797	57.987	55.372	-73.875	-69.479	35.224	63.442	-69.689	-65.660	-64.983	-60.346	67.868	-60.962	-8191	255	
57367.406	1	1	0	0	0.14458	0.13978	0.073409	0.15179	0.050262	0.16653	0.19419	0.10468	0.086056	0.066823	0.32348	0.061557	0.16059	0.22178	0.17096	0.1303	-4.3417	-3.6958	-4.4333	-4.6062	-3.8854	-4.8396	-4.2354	-4.0542	-4.7375	-3.8604	-4.45	-4.5875	-4.0354	-4.7792	-4.2396	-4.0979	212.793	-48.785	201.264	214.320	118.325	10.392	197.275	191.803	268.497	212.297	264.996	31.884	226.415	171.849	-48.716	195.531	0.0001686	0.00042405	0.00014978	1373.7	2.5411e-06	5.0028e-06	1370.4	369.44	1.637e-06	5.4898e-06	425.23	139.9	122.82	42.171	4.3999e-06	52.245	0.00045456	0.00054677	0.00013998	1379.2	5.8142e-06	5.741e-06	1378.5	374.76	5.4549e-06	5.9195e-06	428.38	143.69	125.14	43.107	5.5204e-06	53.391	179.161	14.513	29.448	-73.814	95.696	72.218	-73.833	-69.491	32.253	72.538	-69.699	-65.570	-65.430	-60.384	77.713	-60.978	-8191	255	
57367.500	1	1	0	0	0.19226	0.12847	0.19112	0.13265	0.16611	0.12606	0.12107	0.26057	0.037857	0.039475	0.063555	0.1471	0.20378	0.061486	0.18038	0.096174	-4.5146	-3.9167	-4.3333	-4.7583	-3.925	-4.7688	-4.4125	-4	-4.7958	-3.8833	-4.2417	-4.7	-3.7417	-4.5479	-4.3625	-3.9271	130.511	257.354	56.349	241.787	95.990	-56.756	-48.860	199.827	-75.035	215.257	235.079	-71.325	30.212	-55.123	203.012	134.648	0.00018214	0.00042647	0.00011191	1371.7	2.1354e-06	5.6154e-06	1362.5	370.76	1.7205e-06	3.3386e-06	424.47	139.98	122.26	42.251	3.2968e-06	51.986	0.00045498	0.00052698	0.0001406	1378.2	5.5424e-06	5.7256e-06	1375.9	374.87	5.6719e-06	5.8554e-06	428.18	143.83	125.22	43.069	5.604e-06	53.3	175.039	0.771	1.739	-73.781	68.542	35.053	-73.747	-69.266	57.349	90.412	-69.797	-65.518	-65.278	-60.143	36.102	-60.840	-8191	255	
57367.598	1	1	0	0	0.29911	0.15295	0.04004	0.090758	0.20346	0.077144	0.18481	0.1639	0.16961	0.097896	0.07455	0.071176	0.24828	0.116	0.19628	0.043898	-4.4333	-3.9771	-4.0667	-4.975	-3.7667	-4.5146	-4.5292	-4.075	-4.925	-4.175	-4.1354	-4.825	-3.9708	-4.7812	-4.5521	-4.05	136.825	25.411	-51.738	-36.053	129.549	192.719	270.235	242.648	175.486	254.548	236.542	228.459	217.134	65.551	166.169	177.022	0.00017981	0.00064138	0.00011242	1373.5	2.8505e-06	6.322e-06	1366	370.07	2.2661e-06	3.9411e-06	423.25	140.35	122.73	42.487	2.9169e-06	52.209	0.00045189	0.00052161	0.00014155	1379	5.7572e-06	5.8029e-06	1374.9	374.47	5.61e-06	5.694e-06	428.14	143.66	125.04	43.163	5.4726e-06	53.392	184.180	-9.003	13.455	-73.797	80.527	54.283	-73.884	-69.524	44.289	80.319	-69.582	-65.866	-65.130	-60.308	85.435	-60.951	-8191	255	
57367.719	1	1	0	0	0.20601	0.1495	0.26673	0.24558	0.19991	0.16897	0.12181	0.028078	0.1001	0.074838	0.2933	0.15365	0.14083	0.1323	0.088209	0.26552	-4.2854	-4.1479	-4.0208	-4.8187	-3.8583	-4.2958	-4.6333	-3.8271	-4.5833	-4.1458	-4.2646	-4.8	-4.0104	-4.4771	-4.6896	-3.9458	144.692	9.185	241.829	226.032	137.033	179.967	231.448	172.740	135.445	146.387	85.383	126.689	143.485	83.724	228.918	174.732	0.0001565	0.00040255	0.00015054	1368.4	2.715e-06	4.1366e-06	1364.2	369.87	2.2677e-06	6.268e-06	422.96	140.68	122.12	41.951	4.5618e-06	52.334	0.00045625	0.00051517	0.00014104	1376.6	5.5721e-06	5.5738e-06	1376.4	374.7	5.5539e-06	5.3921e-06	428	143.86	125.09	42.975	5.4624e-06	53.344	182.151	24.014	29.104	-73.781	78.685	79.681	-73.633	-69.533	6.331	52.158	-69.838	-65.458	-65.127	-60.491	28.347	-61.006	-8191	255	
57367.812	1	1	0	0	0.14036	0.20909	0.11799	0.12706	0.19781	0.13902	0.19832	0.15319	0.039229	0.2623	0.016872	0.062587	0.17392	0.076003	0.059793	0.1876	-4.2958	-4.4271	-3.8604	-4.9333	-3.8312	-4.275	-4.9062	-3.9104	-4.675	-4.2646	-4.0417	-5.0458	-4.0396	-4.4	-4.7667	-3.925	208.252	86.390	146.305	-80.653	-55.671	182.488	167.375	221.439	264.830	35.575	204.383	240.626	-84.855	-71.434	63.433	194.964	0.00016053	0.00040136	0.00013285	1367.3	1.7367e-06	4.7963e-06	1360.3	368.91	1.4369e-06	4.3343e-06	425.19	140.13	123.17	42.277	3.3211e-06	52.148	0.00044258	0.00052043	0.00014779	1376.9	5.3773e-06	5.6429e-06	1374.4	374.03	5.5473e-06	5.5889e-06	428.77	143.86	125.1	43.028	5.473e-06	53.293	180.950	-1.879	22.707	-73.855	36.888	79.526	-73.938	-69.323	25.078	56.820	-69.901	-65.648	-64.788	-60.474	15.690	-60.524	-8191	255	
57367.910	1	1	0	0	0.090495	0.08652	0.132	0.1793	0.17978	0.11144	0.042618	0.23783	0.097745	0.039069	0.13499	0.098301	0.18232	0.011002	0.056723	0.15236	-4.1479	-4.4417	-3.8521	-4.9875	-4.0125	-4.1458	-4.9292	-3.9542	-4.5104	-4.6417	-4.0271	-4.9271	-4.1542	-4.0729	-4.6833	-4.1333	61.193	251.868	229.031	-70.448	54.458	131.685	35.617	4.867	55.417	105.694	132.246	-29.046	237.019	-29.579	62.666	186.979	0.0001514	0.00047097	0.00012281	1367.3	2.2378e-06	4.8423e-06	1358.7	369.82	2.6982e-06	4.9493e-06	423.75	140.38	122.09	42.25	3.5182e-06	52.246	0.00044133	0.000512	0.00014319	1376	5.7666e-06	5.6492e-06	1374.5	374.66	5.4091e-06	5.2852e-06	427.54	143.74	125.03	43.049	5.502e-06	53.265	171.850	-9.457	14.432	-73.951	74.368	74.548	-73.895	-69.455	52.968	68.828	-69.962	-65.634	-65.148	-60.056	77.128	-61.061	-8191	255	
57368.008	1	1	0	0	0.30948	0.19933	0.11393	0.21286	0.1928	0.062592	0.22459	0.37191	0.10048	0.089224	0.19947	0.10796	0.11917	0.3208	0.068701	0.1068	-4.1729	-4.6333	-3.8542	-4.8208	-4.1979	-4.1396	-4.9187	-4.0167	-4.3812	-4.6417	-3.7729	-4.6979	-4.3667	-4.0687	-4.5708	-4.1521	120.541	141.897	12.287	235.357	82.959	-62.611	224.934	252.530	-53.092	212.911	165.866	239.685	104.161	192.542	267.477	-70.817	0.00018414	0.00072588	0.00011754	1370.8	3.0947e-06	3.7932e-06	1364.4	369.54	1.2103e-06	6.5408e-06	423.28	140	122.33	42.272	4.6266e-06	52.295	0.00045699	0.00050964	0.00014084	1375	5.7483e-06	5.7547e-06	1376	374.59	5.4359e-06	5.3739e-06	428.1	143.66	124.93	43.04	5.4914e-06	53.298	176.271	-8.986	1.170	-73.908	55.667	62.431	-73.854	-69.362	64.594	68.886	-69.968	-65.992	-64.904	-60.557	82.320	-61.102	-8191	255	
57368.102	1	1	0	0	0.15361	0.0045721	0.12976	0.17068	0.128	0.11866	0.30262	0.17386	0.12115	0.22208	0.34008	0.0189	0.24208	0.10065	0.010122	0.20711	-3.9875	-4.5938	-3.7625	-4.8125	-4.3917	-3.975	-4.8792	-4.0062	-4.1771	-4.6333	-3.9708	-4.6396	-4.4583	-3.9667	-4.7125	-4.1458	178.861	45.852	213.299	232.117	267.772	184.301	181.480	-30.418	0.916	-55.823	221.664	133.727	-76.819	70.811	12.373	189.530	0.00019505	0.00046401	0.00012654	1374	1.6225e-06	5.1123e-06	1369.5	370.37	2.4069e-06	5.1904e-06	424.76	140.32	122.24	42.386	4.7962e-06	52.199	0.00045711	0.00050113	0.00014294	1376.8	5.5563e-06	5.4729e-06	1378.1	374.89	5.5411e-06	5.333e-06	428.83	143.63	125.1	43.04	5.5511e-06	53.222	177.647	-12.480	3.248	-73.959	33.931	36.897	-73.883	-69.189	62.768	75.071	-69.822	-65.679	-65.274	-60.282	50.722	-60.834	-8191	255	
57368.199	1	1	0	0	0.13016	0.26346	0.10964	0.1842	0.20669	0.082716	0.17287	0.028718	0.1953	0.17501	0.14139	0.099082	0.22337	0.21831	0.14055	0.10736	-3.8396	-4.75	-3.8083	-4.5458	-4.4271	-3.9125	-4.8063	-4.2667	-4.1458	-4.7583	-4.0979	-4.4854	-4.4896	-3.9396	-4.6271	-4.3854	165.120	180.010	-83.293	-69.704	-66.681	64.925	125.267	230.767	202.286	20.357	200.149	169.693	208.200	213.309	12.411	-53.081	0.00015849	0.00055871	7.7145e-05	1371.8	2.4955e-06	3.9719e-06	1360.3	369.73	2.3862e-06	5.8067e-06	422.64	140.32	122.54	42.192	3.4197e-06	52.38	0.00045302	0.00049112	0.00014398	1377.7	5.5847e-06	5.7592e-06	1374.9	374.44	5.6666e-06	5.6135e-06	427.43	143.81	125.22	43.028	5.5656e-06	53.371	182.625	-15.806	4.663	-73.837	75.484	63.315	-74.080	-69.372	28.590	62.111	-69.937	-65.788	-65.034	-60.437	27.496	-60.606	-8191	255	
57368.297	1	1	0	0	0.21811	0.1285	0.062395	0.12821	0.042298	0.23083	0.034252	0.26706	0.16337	0.13858	0.23986	0.16439	0.12407	0.17616	0.038223	0.2604	-3.7083	-4.6479	-3.9396	-4.5521	-4.6958	-3.8542	-4.7562	-4.3875	-4.0312	-4.7292	-3.95	-4.3396	-4.6458	-3.8896	-4.6104	-4.5188	172.918	246.144	239.115	225.783	196.910	35.807	208.490	185.974	75.724	97.115	245.631	261.545	188.621	241.910	152.718	107.911	0.00017432	0.00047604	0.00014676	1373.4	4.1526e-06	5.1766e-06	1363.1	370.35	3.4786e-06	4.1487e-06	422.95	140.05	122.46	42.157	2.3718e-06	52.397	0.00045344	0.00049983	0.00014268	1377.9	5.5245e-06	5.8192e-06	1374.4	374.55	5.6439e-06	5.5649e-06	428.1	143.46	125.12	43.135	5.5703e-06	53.378	176.295	-0.480	15.218	-73.895	104.482	44.258	-73.876	-69.064	50.391	76.427	-69.760	-65.779	-65.441	-60.061	83.398	-61.027	-8191	255	
57368.414	1	1	0	0	0.13051	0.22311	0.16478	0.20427	0.15255	0.018337	0.4249	0.15375	0.055818	0.082646	0.12395	0.10877	0.16937	0.13745	0.11444	0.13323	-3.6292	-4.6875	-4.0771	-4.3562	-4.5792	-3.8771	-4.7167	-4.5458	-3.8563	-4.8646	-4.2063	-4.1604	-5.0208	-3.8375	-4.3938	-4.5062	-7.787	114.594	268.042	228.688	119.448	257.625	234.160	165.154	-16.181	132.190	-6.581	239.462	206.252	265.564	52.451	19.838	0.00016527	0.00064959	0.00012957	1368.3	1.6011e-06	5.1317e-06	1362.3	368.46	1.9792e-06	5.0718e-06	422.96	140.05	122.13	42.353	3.3015e-06	52.283	0.00044322	0.00049706	0.00014756	1375.5	5.4375e-06	5.6665e-06	1376.3	374.39	5.7111e-06	5.2529e-06	427.66	143.67	125.04	43.033	5.5298e-06	53.327	178.865	-8.052	3.202	-74.022	77.871	56.605	-73.687	-69.292	64.739	66.808	-69.835	-65.734	-65.082	-60.395	56.511	-60.517	-8191	255	
57368.512	1	1	0	0	0.1897	0.21969	0.14676	0.20456	0.090912	0.072831	0.071939	0.14234	0.16492	0.057955	0.14465	0.13059	0.054832	0.11501	0.09188	0.29655	-3.6146	-4.6979	-4.0854	-4.1958	-4.7312	-3.925	-4.6146	-4.6083	-3.7917	-4.6667	-4.4396	-4.1917	-4.8542	-4.1042	-4.3042	-4.6792	109.626	117.154	212.607	-22.803	211.358	153.771	173.433	154.652	67.592	2.551	109.741	266.987	-13.898	205.983	162.182	181.056	0.00016502	0.00057037	0.00011165	1370.5	2.8551e-06	6.2224e-06	1362.1	369.71	2.0741e-06	3.6613e-06	424.39	139.68	122.54	42.24	3.4127e-06	52.445	0.00045245	0.00051033	0.00013764	1376.2	5.2699e-06	5.6942e-06	1375.3	374.22	5.6377e-06	5.3784e-06	428.58	143.66	125.09	42.998	5.6944e-06	53.442	182.080	-18.409	6.420	-73.767	41.100	60.452	-74.077	-69.154	22.095	60.498	-69.649	-65.632	-64.959	-60.132	54.301	-60.988	-8191	255	
57368.605	1	1	0	0	0.22021	0.13253	0.072552	0.34638	0.076023	0.052965	0.14896	0.099709	0.11825	0.24608	0.21447	0.062413	0.069554	0.15094	0.036006	0.049055	-3.4625	-4.5875	-4.3333	-4.0271	-4.6208	-3.8646	-4.4437	-4.7688	-3.8042	-4.4875	-4.4208	-3.925	-4.8313	-3.9375	-4.2021	-4.7083	111.970	127.717	265.156	218.431	104.552	-25.934	190.158	92.919	194.120	136.825	116.155	-66.133	-73.219	-79.995	105.035	255.131	0.00017925	0.00056181	9.6846e-05	1370.5	1.8661e-06	4.5794e-06	1364.5	371.63	1.5887e-06	6.8782e-06	423.71	139.54	122.68	42.128	4.9191e-06	52.297	0.00045059	0.0005063	0.00014135	1375.2	5.3988e-06	5.4529e-06	1374.6	374.88	5.7792e-06	5.5298e-06	428.24	143.77	125.08	42.975	5.5618e-06	53.281	183.232	-4.723	30.346	-73.786	100.635	76.443	-73.880	-69.208	79.087	60.737	-69.496	-65.988	-65.144	-60.322	47.247	-60.850	-8191	255	
57368.676	1	1	0	0	0.050954	0.034463	0.19954	0.16692	0.15525	0.13879	0.059296	0.3114	0.21124	0.053407	0.42542	0.14605	0.065316	0.22228	0.21195	0.14237	-3.5042	-4.4667	-4.2833	-3.9917	-4.5292	-4.0583	-4.3438	-4.8354	-3.7958	-4.4958	-4.5646	-3.7917	-4.7396	-4.2937	-4.0292	-4.7229	112.799	-84.800	-31.707	-49.457	49.047	199.469	-29.630	217.932	196.627	-33.584	253.779	175.786	10.053	208.349	-27.325	163.683	0.00017102	0.00067645	0.00011998	1375	2.7911e-06	4.1604e-06	1362.8	369.08	2.5074e-06	5.4487e-06	422.54	139.8	122.13	42.105	2.8006e-06	52.216	0.00044902	0.00049942	0.00013769	1377.6	5.4074e-06	5.6338e-06	1375.1	374.7	5.8572e-06	5.5203e-06	428.15	143.54	124.98	43.004	5.4922e-06	53.331	175.496	-6.338	17.798	-73.861	67.655	75.482	-73.986	-69.068	28.839	88.761	-69.613	-66.055	-65.233	-60.268	46.966	-60.714	-8191	255	
57368.797	1	1	0	0	0.24381	0.10048	0.19175	0.40375	0.17564	0.096784	0.20353	0.15831	0.099843	0.23809	0.085714	0.10231	0.08087	0.085804	0.079674	0.15604	-3.6958	-4.2229	-4.5708	-3.9083	-4.7562	-4.2688	-4.1562	-4.85	-3.9021	-4.2833	-4.6542	-3.7771	-4.7042	-4.5167	-3.9938	-5.0042	-61.438	46.273	-46.140	236.238	133.139	-80.317	165.828	201.495	267.885	261.064	178.191	220.801	257.732	65.058	110.502	246.878	0.00016626	0.00031301	0.00015191	1369.2	3.4744e-06	4.2927e-06	1363	369.83	3.1694e-06	3.7729e-06	422.51	140.78	122.05	42.492	4.0265e-06	52.684	0.00044978	0.0004984	0.00014072	1376	5.4481e-06	5.6011e-06	1374.6	374.27	5.6814e-06	5.6949e-06	427.89	143.83	125.04	43.109	5.4649e-06	53.361	176.021	32.120	14.791	-73.858	53.957	58.249	-73.824	-69.414	26.269	79.627	-69.679	-65.859	-65.241	-60.187	68.503	-60.814	-8191	255	
57368.895	1	1	0	0	0.1696	0.14653	0.17641	0.24721	0.10323	0.15423	0.2319	0.091566	0.26413	0.11036	0.079297	0.13123	0.19372	0.072537	0.14776	0.09867	-3.75	-4.3896	-4.7063	-3.9708	-4.4938	-4.4	-4.0604	-4.8458	-3.9917	-4.1583	-4.8833	-3.9562	-4.5188	-4.4833	-3.8312	-4.6958	272.810	-53.987	-8.603	217.695	49.027	138.254	245.896	265.032	110.483	-69.712	40.386	250.770	228.138	159.401	78.865	212.738	0.00017657	0.00048782	0.00017523	1373.7	3.7185e-06	5.5301e-06	1362.3	368.62	2.7844e-06	6.0097e-06	422.96	140.42	122.79	42	2.5999e-06	52.349	0.0004563	0.00051188	0.00012999	1376.8	5.4354e-06	5.4902e-06	1374.7	374.8	5.6018e-06	5.5576e-06	427.26	143.97	125.22	42.985	5.6756e-06	53.276	177.691	2.051	13.429	-73.824	61.647	61.504	-73.817	-69.096	37.038	52.676	-69.465	-65.717	-65.190	-60.110	49.180	-61.196	-8191	255	
57368.988	1	1	0	0	0.094741	0.10121	0.053268	0.2703	0.11493	0.21588	0.036598	0.13468	0.049125	0.072884	0.15002	0.17543	0.25396	0.099029	0.13431	0.18886	-3.6688	-4.1708	-4.6271	-4.1375	-4.3562	-4.4667	-3.9917	-4.7271	-4.2125	-4.0021	-4.8812	-3.9083	-4.4792	-4.6854	-3.8354	-4.8313	190.654	-44.518	96.029	228.436	250.356	187.217	218.585	180.476	41.865	95.767	245.708	138.658	-82.457	272.303	20.689	210.317	0.00017393	0.00058048	8.073e-05	1369.2	3.5183e-06	5.5278e-06	1364.9	369.5	3.0413e-06	5.1891e-06	425.52	140.21	123.04	42.146	2.8432e-06	52.526	0.00045145	0.00053679	0.00013672	1375.2	5.6873e-06	5.3793e-06	1376.2	374.23	5.6575e-06	5.6299e-06	428.99	143.77	125.2	43.005	5.6709e-06	53.342	183.410	-7.039	24.865	-73.806	88.675	66.015	-73.757	-69.274	40.229	67.366	-69.868	-65.893	-64.917	-60.243	43.680	-61.055	-8191	255	
57369.109	1	1	0	0	0.26334	0.045215	0.088081	0.21042	0.068762	0.015049	0.14672	0.20538	0.078826	0.095322	0.16098	0.27825	0.080898	0.039832	0.16935	0.16496	-4.0396	-3.9146	-4.6417	-4.0792	-4.2583	-4.5687	-4.0667	-4.8458	-4.1687	-4	-4.8208	-3.9542	-4.3271	-4.7937	-3.7646	-4.6479	-49.563	241.063	66.465	242.620	29.761	216.919	220.294	247.775	116.147	69.035	201.132	221.364	108.962	-29.292	85.160	252.945	0.0001521	0.0007037	0.00010465	1373.2	2.743e-06	5.3149e-06	1361.9	369.26	1.2756e-06	4.586e-06	425.41	140.81	121.82	42.156	3.5641e-06	52.398	0.00043942	0.0005107	0.0001395	1376.5	5.6901e-06	5.4006e-06	1374.7	374.55	5.6645e-06	5.7836e-06	428.67	143.85	124.95	43.027	5.6146e-06	53.278	177.192	-2.608	22.326	-73.867	70.758	64.142	-73.731	-69.400	56.863	51.593	-69.865	-65.551	-65.075	-60.303	65.208	-60.908	-8191	255	
57369.203	1	1	0	0	0.20979	0.15077	0.088704	0.21612	0.085286	0.25418	0.11402	0.33317	0.18505	0.14491	0.14917	0.090811	0.24783	0.092852	0.22039	0.19948	-4.0667	-3.9396	-4.8	-4.2542	-4.1208	-4.6937	-4.0917	-4.6417	-4.2271	-3.8583	-4.6958	-4.1333	-4.1937	-4.7833	-3.875	-4.5042	53.530	45.416	16.427	199.230	258.154	-85.557	214.789	218.822	66.554	17.794	259.172	219.275	183.725	152.525	70.707	132.454	0.00017863	0.00040062	0.00014221	1369.1	2.4698e-06	4.8951e-06	1362.5	369.8	2.7243e-06	5.0971e-06	423.72	139.87	122.06	42.229	3.5004e-06	52.122	0.0004539	0.00050846	0.00014235	1376.4	5.6588e-06	5.4684e-06	1374.4	374.46	5.5902e-06	5.669e-06	427.8	143.72	125.09	43.015	5.6488e-06	53.259	172.901	-7.503	18.759	-73.844	64.116	65.990	-73.843	-69.264	22.322	77.916	-69.483	-65.691	-64.917	-60.237	74.938	-60.772	-8191	255	
57369.277	1	1	0	0	0.10409	0.19096	0.13791	0.1712	0.25183	0.23483	0.042196	0.16732	0.011223	0.17208	0.21526	0.12107	0.11606	0.17385	0.12866	0.034323	-4.1625	-3.7687	-4.625	-4.2812	-4.125	-4.775	-4.2188	-4.5146	-4.4354	-3.9417	-4.8063	-4.3	-3.8833	-4.85	-3.9354	-4.3167	113.163	-47.611	-38.146	140.546	-85.938	131.442	243.559	-76.356	131.090	-68.511	130.328	270.115	-14.911	181.373	66.901	186.492	0.0001658	0.00045861	0.00015313	1368.7	3.2124e-06	4.8954e-06	1364	369.17	2.3373e-06	4.8145e-06	423.75	140.01	122.19	42.316	2.807e-06	52.269	0.00044483	0.00054074	0.00013875	1378.9	5.5949e-06	5.5265e-06	1375.2	374.3	5.6117e-06	5.5494e-06	429.02	143.54	125.09	43.138	5.3843e-06	53.333	180.030	-15.609	6.209	-73.726	55.735	67.415	-73.879	-69.285	48.611	55.502	-69.690	-65.414	-65.348	-60.204	53.883	-61.064	-8191	255	
57369.398	1	1	0	0	0.098076	0.108	0.12976	0.26284	0.062404	0.16063	0.14634	0.05897	0.13829	0.15917	0.12954	0.12374	0.11123	0.092532	0.073582	0.31663	-4.3313	-3.8354	-4.6687	-4.525	-3.9875	-4.7063	-4.1542	-4.4375	-4.5104	-3.6917	-4.5813	-4.4	-4.0271	-4.8562	-4.0625	-4.2604	-47.900	-8.797	-66.589	256.057	-12.785	149.383	244.025	53.359	109.147	-19.436	230.332	129.207	229.045	167.972	-72.834	189.126	0.00020003	0.00068584	0.00011644	1370.7	2.9072e-06	3.5682e-06	1368	369.23	3.1162e-06	4.7654e-06	423.56	140.74	122	42.254	3.2795e-06	52.186	0.00044716	0.00050805	0.00013548	1377.9	5.6454e-06	5.4102e-06	1378.4	374.78	5.5989e-06	5.6794e-06	428.54	143.99	125.2	43.101	5.5123e-06	53.328	180.830	2.351	-20.507	-73.922	52.540	88.059	-73.771	-69.206	13.945	68.292	-69.640	-65.511	-65.253	-60.173	90.141	-61.202	-8191	255	
57369.492	1	1	0	0	0.04705	0.28244	0.076407	0.21306	0.12733	0.11032	0.22095	0.41703	0.18638	0.11763	0.089006	0.015576	0.09647	0.2196	0.24352	0.11647	-4.3958	-3.7938	-4.45	-4.7354	-3.7042	-4.6937	-4.3958	-4.3708	-4.6229	-3.8187	-4.6375	-4.4896	-3.7958	-4.7625	-4.1917	-4.0958	168.587	180.374	228.919	165.721	115.511	63.165	204.500	220.938	-48.820	151.898	208.342	94.349	191.109	204.896	205.811	189.843	0.0001755	0.00049245	0.00013825	1374.2	2.9728e-06	4.7731e-06	1359.6	369.74	2.4211e-06	6.2358e-06	423.61	140.25	122.44	42.235	5.0924e-06	52.362	0.00044388	0.00052832	0.0001372	1378.2	5.5481e-06	5.377e-06	1375.2	374.15	5.483e-06	5.7385e-06	428.13	143.69	124.89	43.059	5.4794e-06	53.285	175.727	-19.089	10.481	-73.700	77.744	77.968	-73.999	-69.123	47.675	76.641	-69.678	-65.446	-65.248	-60.134	43.438	-61.038	-8191	255	
57369.590	1	1	0	0	0.023424	0.085125	0.12228	0.12753	0.18298	0.32998	0.16825	0.22082	0.33343	0.030055	0.2841	0.26293	0.097582	0.029723	0.067415	0.19652	-4.2063	-3.8521	-4.2167	-4.6667	-3.8604	-4.6292	-4.3875	-4.2583	-4.7271	-3.7542	-4.3083	-4.7979	-4.0208	-4.5875	-4.3354	-4.2354	-70.548	179.639	208.576	247.273	176.427	212.232	218.751	192.573	-57.905	203.050	-79.815	250.339	216.389	115.139	154.456	-82.610	0.00015951	0.00059817	8.8315e-05	1371.5	2.4959e-06	2.7572e-06	1365.3	369.61	2.5472e-06	4.0664e-06	422.9	140.15	122.25	42.048	2.0937e-06	52.207	0.00044491	0.00051245	0.00013722	1376	5.6006e-06	5.4475e-06	1375.2	374.46	5.5399e-06	5.5953e-06	427.85	143.63	125.12	43.02	5.5724e-06	53.301	172.177	-3.463	30.583	-73.666	80.827	72.650	-73.882	-69.422	48.599	75.404	-69.511	-65.484	-65.223	-60.189	61.103	-61.046	-8191	255	
57369.711	1	1	0	0	0.17789	0.24612	0.14432	0.26698	0.13071	0.061051	0.20266	0.13984	0.012818	0.17028	0.15954	0.19069	0.11587	0.20063	0.19319	0.34536	-4.5813	-3.8542	-4.2229	-4.6771	-3.8146	-4.6312	-4.4021	-3.9167	-4.6833	-4.0042	-4.3333	-4.8771	-3.8479	-4.6333	-4.4479	-3.8646	258.612	189.283	224.054	253.247	224.389	59.539	223.903	208.965	92.483	-40.020	254.104	243.945	-51.968	-36.971	89.389	258.885	0.00017335	0.00053131	0.0001335	1368.2	2.4627e-06	6.2778e-06	1366	370.48	5.8218e-07	5.4337e-06	423.69	140.56	122.17	42.288	3.7256e-06	52.579	0.00044503	0.00052295	0.00014437	1377	5.6328e-06	5.5643e-06	1377.4	374.44	5.5568e-06	5.7608e-06	427.78	143.77	124.99	43.035	5.6479e-06	53.35	176.614	-17.425	-16.606	-73.684	72.822	57.992	-73.716	-69.349	15.862	77.771	-69.726	-65.545	-64.816	-60.687	64.346	-61.047	-8191	255	
57369.809	1	1	0	0	0.23134	0.15728	0.11756	0.078893	0.050956	0.15769	0.086445	0.094429	0.16187	0.11369	0.34366	0.25747	0.014651	0.089727	0.13172	0.2986	-4.5604	-3.9021	-4.0208	-4.8146	-3.7354	-4.4938	-4.5958	-4.0833	-4.6917	-4.15	-3.9792	-4.8083	-3.9021	-4.4208	-4.5229	-3.8333	-19.489	10.344	29.336	250.588	-84.403	-60.381	179.970	-8.256	235.528	-54.091	244.385	235.030	94.974	74.786	67.643	203.058	0.00017216	0.00038238	0.00019148	1370.6	3.8665e-06	6.8507e-06	1365.3	368.98	8.4654e-07	3.9475e-06	419.54	139.76	121.86	42.255	4.3581e-06	52.361	0.00044856	0.00052653	0.00014047	1378.1	5.802e-06	5.5297e-06	1374.2	374.76	5.4607e-06	5.4876e-06	427.32	143.5	124.93	42.986	5.54e-06	53.268	172.155	4.123	11.864	-73.977	53.707	61.989	-73.825	-69.121	31.764	64.651	-69.917	-66.003	-65.091	-60.398	53.116	-60.665	-8191	255	
57369.902	1	1	0	0	0.071359	0.13183	0.2118	0.098378	0.1645	0.1337	0.30206	0.22348	0.163	0.072934	0.30072	0.019188	0.16822	0.13041	0.038847	0.21814	-4.2125	-4.1562	-3.9271	-4.8104	-3.9188	-4.3938	-4.8792	-4.0646	-4.6417	-4.2229	-4.0437	-4.8375	-4.1438	-4.2438	-4.7271	-3.8125	-65.228	79.981	-9.316	261.892	213.995	184.381	222.806	261.840	-3.888	2.577	224.026	263.847	246.257	2.127	156.005	238.043	0.00018627	0.00061089	0.00014163	1369.7	2.2844e-06	3.1719e-06	1364.4	369.3	2.0956e-06	6.0153e-06	424.51	139.9	122.36	42.037	3.9955e-06	52.397	0.00045103	0.00051542	0.00014113	1377.3	5.4574e-06	5.6388e-06	1377.3	374.59	5.568e-06	5.7231e-06	428.03	143.56	125.23	42.963	5.4824e-06	53.287	176.405	-25.411	1.652	-73.777	40.945	78.730	-73.746	-69.254	56.596	62.044	-69.744	-65.750	-64.959	-60.327	53.432	-61.061	-8191	255	
57369.977	1	1	0	0	0.09463	0.057436	0.071369	0.17155	0.27137	0.20183	0.2661	0.14518	0.2737	0.10086	0.072939	0.2111	0.14887	0.066377	0.23621	0.41983	-4.3521	-4.2625	-3.7979	-4.7979	-4.0458	-4.0542	-4.9187	-4.0417	-4.5354	-4.3771	-3.9375	-4.7438	-4.2292	-4.1375	-4.6458	-3.9521	53.159	-55.621	38.953	221.268	186.909	118.353	183.570	169.958	247.576	177.574	-44.234	252.196	-67.360	243.894	-39.561	235.475	0.00015289	0.00054873	0.00016111	1373.1	2.9812e-06	5.463e-06	1364.8	369.53	2.3062e-06	5.1453e-06	423.17	140.28	122.36	42.226	4.1886e-06	52.277	0.00046044	0.00051896	0.00014197	1378.4	5.6279e-06	5.6424e-06	1376.8	374.81	5.7144e-06	5.5298e-06	427.82	143.72	125.11	43.059	5.2278e-06	53.211	175.634	16.974	31.547	-73.673	32.344	44.495	-73.927	-69.266	40.207	81.738	-69.834	-66.004	-65.255	-60.309	63.578	-61.254	-8191	255	
57370.094	1	1	0	0	0.061997	0.18019	0.15992	0.17067	0.13328	0.13795	0.15572	0.30542	0.24028	0.11807	0.23964	0.36608	0.13445	0.11017	0.2089	0.19913	-4.0729	-4.3063	-3.8146	-4.8521	-4.1438	-3.9104	-4.8646	-4.1208	-4.3	-4.5062	-3.9271	-4.6729	-4.3313	-4.025	-4.8104	-3.9625	169.537	92.008	-82.135	210.338	209.213	57.768	-28.542	-83.356	124.297	235.418	254.236	-75.301	29.250	254.427	163.473	-16.472	0.00018136	0.00040816	8.7206e-05	1375.2	2.5589e-06	5.3553e-06	1360.1	369.82	1.3652e-06	4.653e-06	424.16	139.98	122.37	42.26	5.2199e-06	52.282	0.00045363	0.00050528	0.00014037	1379.3	5.5412e-06	5.6947e-06	1376.2	374.62	5.622e-06	5.654e-06	428.29	143.66	125.15	42.983	5.4381e-06	53.298	177.037	1.063	1.468	-73.724	43.069	36.448	-73.812	-69.271	93.345	91.096	-69.923	-65.425	-65.155	-60.525	74.158	-60.833	-8191	255	
57370.191	1	1	0	0	0.18497	0.21267	0.10354	0.14523	0.13315	0.18132	0.37059	0.23802	0.14153	0.045456	0.212	0.07414	0.18738	0.15132	0.10947	0.17378	-3.9854	-4.5188	-3.9292	-4.7958	-4.2854	-3.9167	-4.9354	-4.1104	-4.2	-4.6188	-3.8854	-4.6312	-4.2812	-3.8812	-4.6292	-4.0687	-37.174	147.342	249.791	247.806	226.677	-39.321	234.171	236.074	205.386	162.370	192.602	-43.731	239.366	234.551	64.266	-76.038	0.00018177	0.00045348	9.8492e-05	1367.2	3.4134e-06	2.6976e-06	1369.8	370.21	2.423e-06	7.5763e-06	424.85	140.77	122.94	42.02	5.4144e-06	52.526	0.00044547	0.00049975	0.00014831	1376.8	5.6067e-06	5.5942e-06	1377.6	375.23	5.6889e-06	5.624e-06	428.75	144.01	125.14	42.916	5.4978e-06	53.308	173.985	-11.910	22.688	-73.838	60.474	48.895	-73.852	-69.210	45.156	78.912	-69.972	-65.718	-65.072	-60.606	65.555	-60.917	-8191	255	
57370.285	1	1	0	0	0.042245	0.14061	0.10902	0.058843	0.094034	0.022999	0.30611	0.14491	0.20561	0.081842	0.054011	0.21703	0.1298	0.32993	0.0866	0.14161	-3.825	-4.6208	-3.8438	-4.5437	-4.5604	-3.8021	-4.8396	-4.3021	-4.0938	-4.6542	-3.9167	-4.3812	-4.6562	-3.9104	-4.6333	-4.3375	-3.469	-17.964	-46.089	-76.765	84.455	-17.053	184.438	58.681	87.436	91.459	-71.623	-83.395	257.201	261.117	196.203	170.654	0.00014632	0.00054611	0.00012315	1375	2.7977e-06	5.8358e-06	1361	370.2	1.4249e-06	5.1445e-06	422.98	139.86	121.84	42.208	3.1227e-06	52.25	0.00045792	0.00050337	0.0001479	1379.8	5.6173e-06	5.8474e-06	1374.9	374.9	5.6039e-06	5.4698e-06	427.53	143.6	124.87	42.953	5.694e-06	53.242	180.844	-13.138	14.191	-73.880	79.701	72.367	-73.938	-69.328	83.327	52.656	-69.917	-65.691	-64.822	-60.085	71.532	-60.694	-8191	255	
57370.383	1	1	0	0	0.053298	0.096584	0.1504	0.26347	0.21088	0.17875	0.20028	0.055196	0.16516	0.068818	0.36435	0.20316	0.067529	0.23492	0.21184	0.067655	-3.625	-4.625	-3.8375	-4.4917	-4.4458	-3.7583	-4.925	-4.4	-3.9292	-4.6583	-4.2146	-4.2688	-4.6771	-3.9917	-4.5917	-4.2271	-66.008	240.847	-62.094	227.094	237.643	166.876	218.985	264.838	-22.041	144.905	241.196	171.970	-49.994	-78.270	-85.430	-17.341	0.00017825	0.00057832	0.00014574	1375.6	2.0281e-06	4.3424e-06	1364.1	371.46	2.6308e-06	4.8389e-06	424.26	140.1	122.08	42.245	3.8647e-06	52.39	0.00044883	0.00049466	0.00014491	1378.8	5.5433e-06	5.8029e-06	1377.4	374.72	5.74e-06	5.5012e-06	428.09	143.64	124.89	43.042	5.4995e-06	53.237	178.461	-10.766	2.593	-73.881	65.118	53.259	-73.867	-69.176	15.414	62.475	-69.825	-65.645	-65.181	-60.214	55.870	-61.074	-8191	255	
57370.504	1	1	0	0	0.074983	0.134	0.17624	0.072334	0.10048	0.21221	0.088651	0.33429	0.11975	0.12879	0.12569	0.15914	0.076489	0.27355	0.077606	0.1395	-3.7354	-4.6438	-3.8833	-4.4521	-4.5458	-3.8125	-4.6083	-4.4854	-3.9333	-4.7979	-4.2042	-4.3667	-4.7438	-3.8354	-4.3708	-4.6125	145.117	258.846	125.162	143.952	76.520	72.427	175.558	158.316	154.293	175.993	163.532	-62.269	249.755	171.427	-12.073	214.434	0.0001793	0.00042272	0.00015895	1373.4	3.2402e-06	6.2657e-06	1366.2	370.72	1.7395e-06	5.5817e-06	422.87	140.08	122.33	42.013	3.3729e-06	51.944	0.00046248	0.00049848	0.0001456	1378.8	5.3655e-06	5.7333e-06	1379.2	375.12	5.7132e-06	5.5253e-06	427.95	143.73	124.99	42.852	5.537e-06	53.143	178.941	-40.293	-4.841	-73.996	64.348	70.447	-73.979	-69.356	30.542	69.116	-69.707	-65.736	-64.617	-59.991	61.041	-61.221	-8191	255	
57370.574	1	1	0	0	0.30085	0.11497	0.097961	0.17053	0.22607	0.32598	0.28394	0.19684	0.11608	0.10601	0.21994	0.022196	0.076492	0.10134	0.20299	0.13602	-3.4229	-4.5417	-4.1229	-4.2188	-4.6792	-3.8792	-4.4604	-4.6104	-3.9667	-4.7688	-4.3521	-4.1375	-4.6771	-3.9833	-4.2604	-4.6021	26.172	-58.472	114.471	195.416	56.608	32.397	251.826	223.770	181.929	61.381	248.601	-69.678	0.202	-47.456	-77.939	246.457	0.00015645	0.00051286	0.00017169	1370.1	2.0621e-06	6.8759e-06	1362.2	370.58	2.6683e-06	5.5638e-06	421.01	139.97	122.46	41.983	2.842e-06	52.264	0.00046169	0.00052108	0.00014763	1376.8	5.3919e-06	5.7179e-06	1375.8	374.43	5.7433e-06	5.6753e-06	427.36	143.59	124.79	42.791	5.7626e-06	53.142	179.477	-3.775	15.303	-74.086	41.401	63.051	-74.148	-68.983	44.800	78.583	-69.850	-66.085	-64.980	-60.231	68.904	-60.943	-8191	255	
57370.672	1	1	0	0	0.17129	0.18249	0.080614	0.18005	0.13234	0.070143	0.4124	0.19405	0.16141	0.044228	0.30094	0.24903	0.09157	0.1284	0.061342	0.043134	-3.5521	-4.6062	-4.3229	-4.0896	-4.5625	-3.8438	-4.5125	-4.7625	-3.8021	-4.6813	-4.2875	-4.0042	-4.7208	-3.9667	-4.1021	-4.7917	-6.758	56.660	62.029	262.560	-62.340	-78.486	240.546	194.982	-72.799	195.986	-7.762	92.307	-25.240	-52.366	207.318	186.430	0.00017916	0.00059799	0.0001475	1366.3	1.791e-06	3.3615e-06	1361.7	370.28	1.3089e-06	4.3326e-06	420.33	139.48	122.05	42.174	4.1572e-06	52.184	0.00045949	0.0005407	0.00015218	1375.8	5.636e-06	5.9447e-06	1375.3	373.96	5.9591e-06	5.7017e-06	427.3	143.28	124.82	42.909	5.6577e-06	53.083	171.776	4.032	10.257	-73.692	66.580	48.769	-73.929	-69.233	29.400	73.174	-69.838	-65.542	-64.945	-60.212	68.080	-60.579	-8191	255	
57370.789	1	1	0	0	0.21502	0.21575	0.27272	0.16196	0.14334	0.084949	0.061213	0.063673	0.20486	0.13225	0.17738	0.11315	0.31263	0.11636	0.14447	0.13087	-3.5521	-4.4146	-4.1333	-3.9958	-4.7083	-4.0271	-4.275	-4.6479	-3.8563	-4.6333	-4.5979	-4.1	-4.7625	-4.0312	-4.0458	-4.8625	-38.031	-22.623	104.235	271.215	-86.783	174.267	-67.321	65.519	5.547	74.972	264.392	-75.347	235.844	246.978	257.869	123.469	0.00017734	0.00059349	0.00014112	1371	2.5335e-06	5.2893e-06	1364.1	370.17	1.4228e-06	4.3144e-06	422.24	139.8	122.11	42.003	4.633e-06	52.138	0.0004601	0.00050854	0.00014084	1374.6	5.5677e-06	5.7665e-06	1374.9	374.41	5.9661e-06	5.6753e-06	427.82	143.41	124.96	42.919	5.6974e-06	53.155	178.753	-8.155	15.860	-73.952	65.080	44.031	-74.153	-69.327	30.750	58.213	-69.748	-65.551	-65.088	-60.228	61.456	-61.102	-8191	255	
57370.887	1	1	0	0	0.093129	0.13373	0.17736	0.12878	0.095939	0.17001	0.046351	0.047493	0.24037	0.13762	0.20172	0.21066	0.16838	0.098529	0.20727	0.18184	-3.4333	-4.2958	-4.4479	-4.0854	-4.5813	-4.2438	-3.9875	-4.8958	-3.7208	-4.3438	-4.5458	-4.0271	-4.7208	-4.3354	-3.8	-4.7958	47.150	59.121	-46.617	226.195	-30.771	136.012	133.187	184.638	76.034	100.378	260.312	270.261	10.691	166.060	-59.045	158.867	0.00018839	0.0003088	0.00013992	1366	2.2848e-06	4.8605e-06	1360.3	370.74	3.0314e-06	5.9727e-06	422.55	140.24	121.64	41.933	4.241e-06	52.138	0.00044863	0.00051465	0.00013922	1375.1	5.5656e-06	5.5861e-06	1373.7	375.05	5.7912e-06	5.5071e-06	427.53	143.8	124.85	42.897	5.6117e-06	53.209	181.567	-24.277	32.136	-73.999	73.152	50.638	-73.838	-69.461	53.676	61.252	-69.627	-65.798	-65.098	-60.331	64.582	-60.676	-8191	255	
57370.984	1	1	0	0	0.2329	0.14517	0.062987	0.23578	0.080384	0.19866	0.4692	0.33109	0.092879	0.055519	0.05592	0.20516	0.078211	0.28758	0.1787	0.24054	-3.6104	-4.1937	-4.4792	-3.8958	-4.6021	-4.2083	-4.0771	-4.8271	-4.0563	-4.2583	-4.5188	-4.0062	-4.7312	-4.3063	-3.7729	-4.7708	162.782	109.663	-52.012	221.964	56.934	257.492	159.484	200.637	120.210	259.338	175.981	160.942	137.745	-8.570	248.372	148.573	0.00016305	0.00057734	0.00020182	1370.9	2.7519e-06	2.7287e-06	1365.7	371.58	2.6813e-06	3.298e-06	421.41	140.61	122.41	42.086	3.2912e-06	52.398	0.00045633	0.00051167	0.00013951	1376.1	5.2886e-06	5.6938e-06	1375.2	374.79	5.7656e-06	5.4826e-06	427.84	143.75	125.13	42.877	5.8138e-06	53.23	175.375	0.812	14.767	-73.774	62.415	34.857	-73.654	-69.164	44.007	57.323	-69.862	-65.667	-64.956	-60.220	66.454	-60.892	-8191	255	
57371.078	1	1	0	0	0.171	0.15705	0.015959	0.21909	0.24099	0.134	0.23744	0.06686	0.10987	0.14426	0.051877	0.045075	0.16117	0.050493	0.13195	0.15668	-3.7562	-4.0354	-4.7354	-4.0271	-4.5896	-4.4146	-4.1667	-4.8771	-4.1917	-4.1667	-4.8604	-4.0771	-4.5896	-4.5458	-3.8333	-4.7646	56.376	199.461	130.785	258.998	253.594	201.193	227.815	-73.250	10.135	199.663	154.938	255.969	215.754	165.902	176.659	267.387	0.00017746	0.00045467	0.00015028	1364.9	4.3478e-06	6.1203e-06	1361.9	370.11	3.2767e-06	4.9389e-06	422.9	140.74	122	41.982	4.3205e-06	52.244	0.00045574	0.0005015	0.00013756	1374.5	5.8248e-06	5.5697e-06	1375.8	374.56	5.9376e-06	5.6544e-06	427.74	143.57	124.98	42.84	5.7388e-06	53.295	174.537	-5.668	14.011	-73.800	62.331	80.099	-74.094	-69.441	25.851	84.020	-69.594	-65.473	-65.242	-60.230	33.903	-60.910	-8191	255	
57371.176	1	1	0	0	0.10168	0.2109	0.14795	0.20847	0.22195	0.13268	0.074295	0.22782	0.20829	0.25697	0.3902	0.2498	0.20932	0.2641	0.02324	0.069166	-3.9854	-3.9729	-4.7521	-4.2125	-4.2042	-4.5563	-4.0229	-4.8875	-4.1687	-3.9917	-4.6521	-3.8937	-4.3625	-4.5417	-3.6792	-4.5625	-62.465	155.881	257.665	239.005	137.573	159.205	110.382	215.546	94.121	-79.398	220.847	220.146	154.070	259.155	77.626	147.059	0.00018753	0.00050403	0.0001329	1371.5	2.8592e-06	3.4558e-06	1361.6	369.28	2.1632e-06	4.6162e-06	423.69	139.27	122.05	42.085	4.1936e-06	52.325	0.00044866	0.00051864	0.00013411	1376.1	5.5579e-06	5.7792e-06	1375.1	374.32	5.7813e-06	5.7545e-06	428.55	143.32	124.93	42.868	5.7251e-06	53.196	180.947	-3.480	5.636	-73.952	74.754	71.021	-73.873	-69.236	49.769	75.271	-69.803	-65.779	-65.103	-60.169	46.957	-61.183	-8191	255	
57371.273	1	1	0	0	0.11494	0.21704	0.11567	0.27128	0.063946	0.13097	0.31021	0.13984	0.14639	0.058299	0.11908	0.17819	0.033202	0.026391	0.11925	0.10156	-3.9813	-3.9667	-4.7083	-4.0917	-4.1604	-4.6562	-4.0417	-4.7312	-4.4437	-3.9292	-4.8187	-4.1062	-4.2292	-4.7875	-3.7104	-4.4479	55.997	155.069	-26.852	194.905	236.235	55.051	220.295	198.942	104.253	-4.527	87.801	47.723	237.454	-32.660	57.576	-60.824	0.00019321	0.00057392	0.00014971	1371.3	4.4226e-06	2.9786e-06	1362.1	369.76	1.7754e-06	4.5253e-06	421.42	139.63	122.24	42.05	2.3847e-06	52.237	0.00045412	0.00053085	0.00014197	1378.2	5.6755e-06	5.4415e-06	1375.9	375.07	5.7202e-06	5.6931e-06	427.59	143.7	124.86	42.962	5.6897e-06	53.316	177.624	-7.700	-12.557	-73.751	46.829	93.747	-74.153	-69.179	90.123	46.629	-69.625	-65.427	-65.131	-60.418	62.779	-61.155	-8191	255	
57371.391	1	1	0	0	0.071653	0.1743	0.11941	0.15814	0.20758	0.23361	0.21352	0.34087	0.30282	0.23741	0.07254	0.11514	0.21442	0.1002	0.027962	0.1614	-4.1021	-3.8438	-4.4583	-4.2458	-4.0417	-4.6458	-3.8917	-4.5	-4.5104	-3.9479	-4.7896	-4.2458	-3.9521	-4.7521	-3.8417	-4.5458	139.115	159.421	-34.692	-62.119	241.830	-31.913	165.503	210.294	123.728	24.488	262.815	-44.728	240.351	251.920	-10.280	-6.259	0.00019378	0.00046294	0.00020632	1374.8	3.8404e-06	5.2636e-06	1368.6	369.92	1.2794e-06	4.5893e-06	423.39	139.93	122.41	41.898	3.5112e-06	52.385	0.00044464	0.00053553	0.00014579	1378	5.6352e-06	5.5797e-06	1379.2	375.22	5.7458e-06	5.7772e-06	428.45	143.61	125.12	42.951	5.8352e-06	53.297	175.223	10.416	6.080	-73.929	39.537	66.477	-73.939	-69.259	83.159	55.148	-69.414	-65.619	-65.071	-60.114	19.048	-61.310	-8191	255	
57371.488	1	1	0	0	0.14845	0.16942	0.16147	0.21511	0.090713	0.079127	0.28756	0.24255	0.19401	0.15481	0.29242	0.096931	0.2172	0.17169	0.12326	0.074172	-4.2937	-3.6354	-4.7167	-4.5	-3.9208	-4.7604	-4.2562	-4.3333	-4.5625	-3.8854	-4.6188	-4.3604	-4.1083	-4.8063	-4.075	-4.2167	64.852	13.344	-19.221	248.157	60.188	202.473	189.423	221.705	135.817	-24.056	-43.365	244.649	-75.155	221.756	122.359	77.620	0.00018453	0.00056587	0.00017189	1374.4	2.8778e-06	5.0911e-06	1360.5	369.6	1.7751e-06	4.4416e-06	424.37	139.37	122.17	42.241	2.2911e-06	52.428	0.00045488	0.00053239	0.00013795	1380.2	5.7524e-06	5.6374e-06	1377.3	374.88	5.6497e-06	5.869e-06	428.1	143.35	125.08	43.031	5.8407e-06	53.256	180.575	-14.096	39.442	-73.818	66.427	58.237	-73.933	-69.350	22.753	48.544	-69.665	-65.785	-65.007	-60.545	57.024	-61.002	-8191	255	
57371.582	1	1	0	0	0.10723	0.073492	0.25224	0.14628	0.14524	0.033284	0.12663	0.054922	0.097183	0.10005	0.30677	0.16153	0.089098	0.18629	0.12641	0.087009	-4.35	-3.8542	-4.4917	-4.3313	-4.0146	-4.7583	-4.2979	-4.175	-4.5854	-3.6688	-4.7292	-4.5146	-3.9604	-4.7125	-4.1333	-4.2667	232.130	-9.847	227.421	126.865	-52.355	12.989	216.476	249.269	-62.049	70.334	204.160	127.452	123.403	-69.502	49.426	-17.100	0.00018728	0.00056146	0.00015435	1371.9	3.278e-06	2.6762e-06	1367.1	371.12	1.1682e-06	3.9913e-06	423.13	139.47	122.21	42.079	8.645e-07	52.16	0.00044569	0.00053496	0.00014104	1379.1	5.8581e-06	5.6801e-06	1376.9	375.17	5.7635e-06	5.9204e-06	429.06	143.22	124.82	42.888	5.714e-06	53.15	184.872	20.032	-11.781	-73.747	67.794	22.461	-73.727	-69.480	87.205	65.255	-70.076	-65.795	-65.284	-60.277	19.312	-60.820	-8191	255	
57371.680	1	1	0	0	0.18853	0.0066713	0.12865	0.27203	0.13393	0.21226	0.062268	0.059603	0.15363	0.25444	0.36809	0.29436	0.24482	0.27976	0.18311	0.16578	-4.4542	-3.7687	-4.4875	-4.5729	-3.7104	-4.6667	-4.4396	-3.9667	-4.6396	-3.7417	-4.3187	-4.5854	-3.8083	-4.6792	-4.0729	-4.0667	145.983	185.937	198.831	-64.960	266.869	83.797	-2.301	225.122	89.819	80.701	260.289	-74.052	-72.336	139.807	-16.924	240.712	0.00016216	0.00054593	0.00013797	1369.6	2.483e-06	5.5751e-06	1361.1	369.48	5.7651e-07	2.3362e-06	424.59	139.74	122.34	41.941	3.7969e-06	52.313	0.00044341	0.00054058	0.00014506	1378.8	5.8728e-06	5.5424e-06	1376	374.69	5.752e-06	5.9604e-06	429.08	143.36	125.13	42.921	5.9222e-06	53.14	170.981	17.753	0.397	-73.798	74.817	59.147	-73.911	-69.100	-1.690	100.155	-69.927	-65.575	-65.152	-60.147	51.500	-61.107	-8191	255	
57371.801	1	1	0	0	0.17026	0.16924	0.15436	0.25825	0.14651	0.23807	0.15355	0.51591	0.093719	0.043701	0.18408	0.14903	0.12572	0.16224	0.1507	0.16018	-4.4208	-3.9646	-4.1104	-4.5792	-3.7208	-4.6708	-4.6104	-3.9479	-4.5833	-3.8979	-4.3292	-4.6167	-4.1	-4.5854	-4.3354	-3.8937	169.565	238.035	113.061	194.425	-57.090	187.966	247.040	227.491	-49.978	221.971	-82.365	252.314	248.556	191.189	154.525	208.902	0.00019482	0.00047689	0.00017674	1367.7	3.4508e-06	5.536e-06	1364.8	371.89	1.6765e-06	4.8604e-06	424.03	139.79	121.62	42.077	3.7093e-06	51.77	0.00046853	0.00055947	0.00014755	1376.4	6.0408e-06	5.6901e-06	1376.2	374.78	5.7598e-06	6.2182e-06	427.97	143.35	124.67	42.888	6.0382e-06	53.006	178.860	9.601	10.469	-73.875	70.990	74.850	-73.792	-69.369	5.205	82.177	-70.037	-65.659	-65.129	-59.992	96.490	-61.017	-8191	255	
57371.871	1	1	0	0	0.14261	0.092469	0.19654	0.15044	0.29535	0.17938	0.077837	0.20791	0.15006	0.086289	0.1805	0.22525	0.13488	0.1729	0.14616	0.17456	-4.3562	-4.1354	-4.075	-4.6729	-3.5729	-4.3021	-4.5563	-3.8688	-4.6604	-4.0458	-4.1896	-4.8042	-3.8271	-4.4812	-4.4583	-3.7958	-59.948	127.341	256.483	238.735	159.355	202.693	131.161	211.894	-17.678	-15.574	150.814	183.026	239.941	-69.255	57.067	227.525	0.00018972	0.00038432	0.00011117	1369.4	1.8903e-06	3.242e-06	1367.4	370.07	3.2636e-06	5.3851e-06	424.6	140	122.96	42.393	3.5651e-06	52.281	0.00046321	0.00055686	0.00014461	1377.5	5.8699e-06	5.722e-06	1377.5	375.18	5.8919e-06	6.1237e-06	428.89	143.75	125.22	42.985	5.8177e-06	53.21	178.732	13.536	-1.656	-73.611	16.440	74.205	-73.807	-69.301	59.888	59.978	-69.829	-65.886	-65.167	-60.433	54.776	-60.854	-8191	255	
57371.969	1	1	0	0	0.25805	0.054466	0.21737	0.35434	0.053862	0.082419	0.16004	0.32613	0.159	0.081361	0.28165	0.23238	0.18885	0.14295	0.20371	0.060012	-4.3833	-4.1125	-3.8646	-4.6729	-3.7667	-4.25	-4.7896	-3.9458	-4.5354	-4.1438	-4.1104	-4.6979	-4.0333	-4.225	-4.6833	-3.8708	110.499	268.333	-42.628	-79.550	235.174	-48.073	171.465	213.380	100.239	97.254	-34.160	-70.220	215.709	-22.291	-17.596	-10.451	0.00018103	0.00045777	0.00011868	1372.8	3.8108e-06	6.7214e-06	1362.2	369.73	3.9008e-06	6.4757e-06	425.08	140.17	122.34	42.179	5.0518e-06	51.998	0.00045054	0.00055092	0.0001469	1376.8	5.9741e-06	5.7397e-06	1376.9	374.66	5.9154e-06	5.909e-06	428.43	143.76	125.02	42.951	5.868e-06	53.047	176.923	1.495	5.435	-73.729	60.033	63.399	-73.634	-69.326	29.086	58.556	-69.911	-65.740	-65.042	-60.633	73.421	-61.060	-8191	255	
57372.062	1	1	0	0	0.083112	0.35755	0.31976	0.21627	0.12614	0.081122	0.034723	0.36548	0.13492	0.15046	0.14312	0.13615	0.20397	0.094559	0.068261	0.091454	-4.225	-4.2	-3.8187	-4.8083	-3.8688	-4.1188	-4.7667	-4.0229	-4.4104	-4.3833	-3.8292	-4.9083	-4.1917	-3.9875	-4.6167	-3.9917	190.581	214.946	146.955	195.091	209.636	152.137	212.497	235.793	197.781	219.712	168.036	195.666	25.431	101.372	148.456	86.215	0.00018003	0.00057337	0.000157	1372.4	3.6947e-06	5.9886e-06	1367.8	369.59	1.5623e-06	2.4903e-06	421.75	139.88	121.6	41.975	4.9817e-06	52.112	0.00047196	0.00052706	0.00015628	1378.9	6.0725e-06	5.7979e-06	1379.4	374.75	5.7045e-06	5.7408e-06	428.66	143.92	125.06	42.935	5.7814e-06	53.185	185.236	-10.994	-11.251	-73.806	63.813	63.443	-73.683	-69.364	0.404	54.600	-69.996	-65.731	-65.106	-60.274	49.983	-60.904	-8191	255	
57372.184	1	1	0	0	0.11783	0.23602	0.077186	0.17642	0.091982	0.15697	0.14973	0.2501	0.23634	0.028166	0.12193	0.10625	0.17099	0.023951	0.092134	0.18961	-4.2312	-4.3875	-3.5896	-4.8354	-3.9229	-3.8229	-4.7583	-3.9521	-4.2854	-4.55	-4.0667	-4.775	-4.2292	-4.0854	-4.7604	-3.7896	215.886	121.875	-9.579	256.685	235.063	-58.213	156.424	215.108	91.771	232.590	157.507	264.444	-67.189	36.310	25.391	237.864	0.0001715	0.0003766	0.00010372	1372.1	2.0323e-06	2.878e-06	1365.7	370.56	1.2095e-06	4.0991e-06	423.47	140.35	122.87	41.946	3.7461e-06	52.332	0.00046866	0.00053618	0.00014294	1379.3	5.7096e-06	5.6942e-06	1378.2	375.25	5.8213e-06	5.5908e-06	428.14	143.74	124.98	42.912	5.8062e-06	53.294	179.527	-14.286	-17.876	-73.972	24.324	47.513	-73.822	-69.414	59.603	81.467	-70.185	-65.717	-65.210	-60.207	59.722	-60.931	-8191	255	
57372.277	1	1	0	0	0.16675	0.043138	0.18571	0.20455	0.09649	0.092661	0.2732	0.18003	0.12251	0.171	0.11073	0.12982	0.06444	0.10774	0.14769	0.1847	-3.8917	-4.4354	-3.5563	-4.6958	-4.1271	-3.925	-4.8187	-3.9938	-4.3521	-4.7208	-3.9979	-4.6646	-4.3083	-3.9958	-4.7396	-4.1687	-17.154	-55.718	157.583	270.025	-61.988	38.152	225.325	209.358	57.908	179.791	-33.261	262.191	228.491	154.829	-54.990	151.022	0.00017747	0.00041178	0.00013817	1368.7	3.9414e-06	5.4055e-06	1358.7	371.15	2.5049e-06	3.6451e-06	421.96	139.56	122.66	42.189	5.4228e-06	52.172	0.00044973	0.00051188	0.00014801	1379.7	5.7397e-06	5.8978e-06	1375.1	375.55	5.8304e-06	5.6976e-06	427.95	143.37	125.08	43.004	5.7895e-06	53.097	180.799	2.916	-2.085	-73.880	63.023	52.282	-73.871	-69.358	34.877	92.293	-69.804	-65.704	-64.918	-60.352	63.232	-60.926	-8191	255	
57372.375	1	1	0	0	0.06013	0.092172	0.042224	0.24922	0.18324	0.13316	0.11336	0.078047	0.33829	0.14658	0.19821	0.035117	0.17491	0.2819	0.12248	0.17235	-3.775	-4.6792	-3.8063	-4.7833	-4.3812	-3.9979	-4.8729	-4.2063	-3.9062	-4.6896	-3.8979	-4.5833	-4.5354	-3.9958	-4.5125	-4.2146	75.757	113.638	176.392	251.584	83.384	198.631	215.441	37.483	-9.012	-85.619	185.391	56.107	-38.879	203.883	-77.053	150.494	0.00016419	0.00045127	6.9913e-05	1370.2	3.1728e-06	5.352e-06	1370.2	370.24	2.499e-06	6.7119e-06	421.38	139.71	122.56	42.284	5.1468e-06	52.161	0.00046314	0.00051135	0.00014812	1378.6	5.686e-06	5.8038e-06	1379.5	375.15	5.8584e-06	5.6703e-06	427.87	143.52	125.16	42.987	5.4376e-06	53.182	174.953	1.963	18.395	-73.673	61.720	82.643	-73.764	-69.222	51.568	68.253	-69.684	-65.948	-65.008	-60.450	61.328	-60.771	-8191	255	
57372.473	1	1	0	0	0.085055	0.10331	0.25405	0.091482	0.24671	0.047202	0.3085	0.035269	0.10168	0.15602	0.31064	0.44965	0.16832	0.10643	0.081248	0.18605	-3.7542	-4.5667	-3.7958	-4.625	-4.4583	-3.8458	-4.7812	-4.2729	-4.05	-4.5708	-3.9583	-4.4521	-4.6125	-3.8042	-4.4729	-4.2312	-29.526	41.742	176.848	218.353	81.723	251.827	201.412	-25.930	-80.127	110.499	-67.501	261.613	240.051	19.777	-24.756	197.470	0.00014506	0.00047383	0.00012679	1368.6	2.339e-06	4.434e-06	1366	371.98	2.1124e-06	5.5147e-06	423.59	139.57	122.11	42.368	5.4997e-06	52.1	0.00046302	0.000505	0.00014456	1376.2	5.7475e-06	5.9656e-06	1377.1	375.65	5.8964e-06	5.7117e-06	428.09	143.44	125	43.028	5.813e-06	53.19	179.541	-2.869	8.455	-73.960	61.692	69.627	-73.866	-69.264	71.157	68.028	-69.794	-65.641	-64.893	-60.159	58.799	-60.991	-8191	255	
57372.566	1	1	0	0	0.066705	0.23046	0.04743	0.15552	0.23514	0.043321	0.072636	0.30164	0.17354	0.068697	0.15172	0.19653	0.18085	0.1365	0.19088	0.11864	-3.5667	-4.6458	-3.8875	-4.3625	-4.5479	-3.6	-4.5521	-4.4625	-3.9229	-4.7125	-4.0458	-4.2937	-4.7458	-3.7125	-4.5021	-4.3938	50.051	-70.819	242.462	244.262	76.930	148.889	262.063	200.455	124.065	135.863	-56.280	223.821	172.865	-83.500	22.058	152.694	0.00019613	0.00047247	0.00019179	1370.4	1.9412e-06	5.9216e-06	1366	370.74	2.4879e-06	6.2119e-06	424.28	140.04	122.05	42.341	3.6472e-06	52.173	0.0004626	0.00049539	0.00014432	1377	5.6319e-06	5.6583e-06	1378.2	374.61	5.8481e-06	5.6258e-06	428.16	143.61	125.2	43.023	5.5737e-06	53.166	170.770	7.956	0.644	-73.740	95.704	79.449	-73.737	-69.364	55.305	74.105	-69.618	-65.868	-65.355	-60.272	59.985	-60.870	-8191	255	
57372.664	1	1	0	0	0.14969	0.1166	0.10028	0.20094	0.053482	0.14962	0.18027	0.17834	0.15534	0.028533	0.24173	0.17006	0.10801	0.037067	0.18679	0.23691	-3.6625	-4.7042	-3.9125	-4.2271	-4.5229	-3.8375	-4.6875	-4.5062	-3.8604	-4.8417	-4.2208	-4.1937	-4.6896	-3.8979	-4.3083	-4.4313	229.017	-8.306	-28.078	-78.979	36.325	195.264	-79.359	258.067	189.236	170.697	260.964	246.152	138.814	21.339	42.995	151.483	0.00019328	0.00054036	0.00016697	1368	3.1425e-06	4.7204e-06	1365.3	369.42	1.5107e-06	4.6051e-06	424.31	139.65	122.29	42.081	1.9953e-06	51.975	0.00045493	0.00052157	0.00014869	1376.1	5.7873e-06	5.7615e-06	1378.7	374.65	5.9694e-06	5.8536e-06	428.12	143.47	125.05	42.888	5.7703e-06	53.107	175.159	-1.276	11.785	-74.055	73.221	64.772	-73.755	-69.167	-4.076	77.683	-69.618	-65.797	-64.938	-60.275	27.693	-60.770	-8191	255	
57372.758	1	1	0	0	0.071061	0.27378	0.037423	0.18068	0.23257	0.23582	0.33763	0.20639	0.13372	0.19986	0.20853	0.090615	0.15769	0.17194	0.09838	0.10819	-3.3271	-4.5625	-4.1562	-4.0917	-4.6625	-3.9813	-4.4396	-4.6521	-3.8896	-4.5667	-4.2396	-3.9667	-4.8562	-3.9792	-4.2854	-4.6271	158.735	-11.859	113.902	247.921	94.787	55.332	211.516	220.186	178.557	188.777	-72.468	-26.629	-38.086	248.254	188.419	-12.510	0.00016163	0.00029737	0.00017143	1373.8	2.5733e-06	6.0115e-06	1363.9	368.92	3.4734e-06	5.0746e-06	420.82	139.45	121.82	41.922	3.5402e-06	52.536	0.00046258	0.00054367	0.00014865	1379.5	5.7609e-06	5.846e-06	1376.4	374.21	6.1208e-06	5.955e-06	427.6	143.53	124.94	42.888	6.0203e-06	53.245	173.473	-7.722	-7.869	-73.896	28.462	51.954	-73.937	-69.258	46.534	67.032	-69.902	-65.729	-64.989	-60.109	83.183	-61.018	-8191	255	
57372.879	1	1	0	0	0.054645	0.21854	0.16272	0.31254	0.10819	0.17257	0.18546	0.28477	0.24943	0.094356	0.15608	0.091991	0.28684	0.38723	0.043385	0.10657	-3.4792	-4.5729	-4.2167	-4.05	-4.6312	-3.9792	-4.2604	-4.6833	-3.8042	-4.5396	-4.4021	-3.9229	-4.7208	-3.9875	-4.075	-4.8146	93.891	-58.875	148.810	238.121	245.347	52.549	190.482	267.921	105.623	127.204	-5.352	127.420	160.456	162.574	248.987	111.135	0.0001893	0.00058747	0.00010623	1369.5	3.3921e-06	6.2313e-06	1364.5	369.5	3.3045e-06	4.7494e-06	424.14	140.28	122.2	42.014	3.6533e-06	51.942	0.00047326	0.00054115	0.00014395	1377.5	5.8056e-06	5.8051e-06	1377.7	374.9	6.3003e-06	5.8836e-06	428.39	143.66	124.85	42.92	5.8416e-06	53.146	176.671	-20.302	5.029	-73.838	71.696	50.951	-73.672	-69.168	42.146	58.438	-69.873	-65.901	-65.122	-60.325	66.908	-60.945	-8191	255	
57372.977	1	1	0	0	0.1131	0.14506	0.14857	0.1517	0.086765	0.094044	0.2111	0.21321	0.23489	0.24872	0.10822	0.13404	0.16476	0.27157	0.053134	0.27008	-3.5521	-4.4479	-4.4688	-3.8979	-4.7937	-4.0667	-4.1937	-4.7146	-3.8771	-4.2771	-4.4979	-3.9208	-4.8708	-4.2812	-4	-4.9583	45.459	9.005	256.591	-84.964	50.723	77.930	170.625	216.135	-23.878	13.803	107.398	245.084	212.809	269.682	261.914	236.591	0.0001636	0.00042399	0.00013615	1371.3	2.5282e-06	3.9692e-06	1364.5	370.45	2.0443e-07	6.0742e-06	422.76	139.76	121.77	41.853	3.5411e-06	52.077	0.00047255	0.00052731	0.0001477	1379.9	5.8333e-06	5.8965e-06	1376.3	375.1	6.0915e-06	5.9804e-06	427.6	143.6	124.94	42.798	5.8748e-06	53.119	180.097	23.929	-9.237	-74.037	52.388	46.592	-74.054	-69.157	39.598	64.572	-69.791	-65.644	-65.268	-60.226	75.931	-60.862	-8191	255	
57373.070	1	1	0	0	0.085415	0.10904	0.020774	0.17953	0.15608	0.22282	0.15169	0.10241	0.080191	0.1664	0.22701	0.26523	0.1644	0.13285	0.36252	0.29012	-3.4875	-4.2396	-4.4125	-3.7687	-4.6937	-4.2833	-3.9979	-4.6729	-3.9062	-4.3938	-4.7583	-3.8729	-4.5375	-4.3104	-3.7125	-4.7583	-66.592	271.356	219.325	231.163	200.996	18.105	-36.774	252.875	240.617	248.904	259.223	-68.593	-84.417	265.178	-4.930	272.454	0.00015106	0.00032477	0.0001241	1371.2	2.8174e-06	5.219e-06	1368.7	370.57	2.0945e-06	4.4979e-06	423.35	139.72	122.18	42.075	2.9536e-06	52.389	0.00047674	0.0005221	0.00014259	1375.7	5.721e-06	5.9478e-06	1378.2	374.82	6.2805e-06	5.789e-06	427.96	143.48	124.99	42.905	5.9652e-06	53.222	179.162	28.739	11.593	-73.885	63.039	61.503	-73.697	-69.495	39.671	80.387	-69.705	-65.752	-65.140	-60.470	41.564	-60.593	-8191	255	
57373.168	1	1	0	0	0.11113	0.18415	0.11838	0.28101	0.17334	0.19787	0.11943	0.18842	0.12074	0.1423	0.12492	0.29481	0.07299	0.10595	0.31515	0.28479	-3.6792	-4.0813	-4.6292	-4.1292	-4.5	-4.3354	-3.9833	-4.8688	-3.9167	-4.1562	-4.7896	-3.9354	-4.5271	-4.4208	-3.6937	-4.6562	156.907	241.575	-74.824	213.531	89.029	151.661	226.678	257.642	101.567	-2.496	169.268	237.352	258.032	214.943	-78.180	219.587	0.00017191	0.00047129	0.00012279	1369.8	2.2115e-06	5.7431e-06	1366.2	369	1.5455e-06	5.1413e-06	423.32	139.75	122.82	42.145	3.3562e-06	52.185	0.00046986	0.00053154	0.00014741	1377.2	5.5506e-06	5.8065e-06	1377.7	374.69	5.8419e-06	5.8786e-06	428.68	143.44	125.11	42.922	5.917e-06	53.269	178.092	8.054	-9.160	-74.028	58.296	38.825	-73.911	-69.335	-42.499	61.173	-69.462	-65.803	-65.017	-60.147	29.794	-61.131	-8191	255	
57373.266	1	1	0	0	0.19112	0.22013	0.048174	0.40123	0.046257	0.09062	0.064043	0.08084	0.1609	0.1209	0.16103	0.099214	0.19289	0.16186	0.10729	0.11742	-3.7229	-3.9396	-4.6188	-4.1042	-4.3187	-4.3854	-3.8521	-4.7312	-4.1958	-4.0125	-4.9292	-4.0375	-4.3667	-4.6125	-3.8896	-4.6771	126.034	67.797	54.906	250.103	-24.766	63.737	47.379	248.768	15.601	196.746	-61.340	3.202	151.266	245.929	-47.204	144.513	0.0001565	0.00071674	0.00016527	1372.5	2.7184e-06	7.1216e-06	1365.8	369.39	2.5776e-06	6.1744e-06	425.44	139.82	122.2	42.056	4.5048e-06	52.462	0.00048297	0.00053948	0.0001476	1377.8	5.7755e-06	5.9747e-06	1377.6	374.95	6.0066e-06	5.9677e-06	428.89	143.87	125.19	42.974	5.8833e-06	53.242	175.971	11.740	7.374	-73.993	40.394	45.201	-73.865	-69.154	21.617	51.036	-69.558	-65.542	-65.143	-60.383	39.670	-60.811	-8191	255	
57373.359	1	1	0	0	0.016059	0.2265	0.12303	0.28625	0.039296	0.15344	0.040761	0.21583	0.063824	0.16949	0.26163	0.15245	0.24343	0.24349	0.067366	0.16932	-3.7792	-3.8563	-4.7937	-4.1417	-4.2021	-4.6	-3.7896	-4.7125	-4.3417	-3.7542	-4.7229	-3.9958	-4.3625	-4.7833	-3.7604	-4.5667	210.929	-10.167	191.958	261.459	-43.933	169.330	-80.411	204.462	231.331	236.856	179.853	239.165	179.855	147.501	212.270	126.968	0.0001448	0.0004667	0.0001537	1373.4	1.7557e-06	4.8604e-06	1363	369.93	2.2322e-06	4.6279e-06	424.55	139.57	122.36	42.194	2.4024e-06	52.039	0.00045689	0.00052906	0.00014685	1378.1	5.6779e-06	5.6279e-06	1377.4	374.51	5.8786e-06	6.0764e-06	428.89	143.44	125.1	42.937	6.0301e-06	53.169	177.035	-6.641	5.280	-73.837	74.149	55.706	-73.905	-69.512	66.242	75.285	-69.791	-65.303	-64.932	-60.427	95.462	-61.015	-8191	255	
57373.480	1	1	0	0	0.11877	0.1956	0.16435	0.081065	0.026319	0.24976	0.037172	0.1689	0.14501	0.094387	0.1908	0.30354	0.10157	0.23315	0.26856	0.11639	-4.0271	-3.7687	-4.6667	-4.1958	-4.0188	-4.5396	-4.0563	-4.5708	-4.4958	-3.8458	-4.7688	-4.2854	-4.0188	-4.7854	-3.9417	-4.4625	118.092	233.903	232.025	247.558	118.730	200.000	143.554	145.340	-53.333	47.903	-75.348	199.435	82.585	152.800	210.578	212.732	0.00018015	0.00052454	0.00011107	1373.7	2.0605e-06	6.0971e-06	1361.9	369.41	2.8561e-06	5.7584e-06	424.91	140.02	122.04	42.046	1.6e-06	52.054	0.00046326	0.00054762	0.00014192	1379.1	5.8691e-06	5.6592e-06	1377.4	375.04	5.9892e-06	5.8695e-06	428.98	143.74	125.1	42.911	5.9908e-06	53.23	169.468	-13.178	13.154	-73.822	64.869	49.604	-73.885	-69.009	47.071	51.763	-69.716	-65.427	-65.032	-60.224	80.979	-61.172	-8191	255	
57373.574	1	1	0	0	0.11669	0.14306	0.17009	0.14897	0.20504	0.12468	0.24334	0.29704	0.17151	0.10995	0.12378	0.16202	0.10926	0.13246	0.13311	0.22448	-4.2271	-3.7917	-4.5375	-4.3187	-4.0896	-4.7312	-3.9125	-4.5396	-4.5625	-3.8521	-4.7333	-4.3896	-4.0604	-4.8021	-3.8458	-4.2396	89.697	-83.114	266.673	249.690	-68.693	208.382	-38.808	23.732	51.221	127.412	-81.457	260.385	-20.391	269.320	107.027	119.995	0.00016774	0.0006129	9.6538e-05	1374.6	1.7878e-06	3.9785e-06	1364.3	369.85	2.7503e-06	6.3003e-06	423.94	139.41	122.18	42.127	4.8901e-06	52.19	0.00045312	0.00054501	0.00014701	1379.6	5.9444e-06	5.826e-06	1376.6	374.67	5.8725e-06	6.1441e-06	428.81	143.54	125.08	42.981	5.9469e-06	53.217	177.713	1.122	-0.542	-73.961	48.805	56.285	-74.051	-69.321	39.499	57.401	-70.020	-65.679	-65.281	-60.214	50.939	-60.984	-8191	255	
57373.672	1	1	0	0	0.12609	0.10426	0.229	0.10277	0.092085	0.21094	0.12163	0.051336	0.16135	0.30148	0.21242	0.24933	0.13675	0.21418	0.14271	0.20546	-4.2042	-3.8479	-4.4083	-4.4062	-3.8542	-4.8042	-4.2417	-4.3729	-4.5687	-3.8833	-4.5542	-4.4083	-4.0354	-4.8917	-4.0188	-4.2125	6.112	183.482	129.360	233.563	132.761	159.865	169.228	232.174	22.965	129.979	259.042	229.562	261.335	174.661	104.047	234.591	0.00016559	0.00057388	0.00013729	1373.5	1.9132e-06	5.8061e-06	1365.3	369.95	2.4391e-06	5.7203e-06	423.64	139.63	122.23	42.195	4.3285e-06	52.333	0.00045765	0.00055401	0.00014386	1380	5.7267e-06	5.6347e-06	1376.1	375.02	5.924e-06	5.8877e-06	428.85	143.44	124.8	42.974	5.9524e-06	53.204	170.574	6.014	13.469	-73.675	81.785	50.122	-73.848	-69.160	51.297	69.616	-69.589	-65.690	-65.274	-60.059	39.673	-60.916	-8191	255	
57373.742	1	1	0	0	0.098979	0.089606	0.051348	0.27714	0.10302	0.14806	0.096137	0.20829	0.27177	0.1267	0.026009	0.18806	0.13719	0.057273	0.037003	0.13553	-4.325	-3.7062	-4.4354	-4.4688	-3.7583	-4.6312	-4.1813	-4.0708	-4.7125	-3.8896	-4.5354	-4.5667	-3.7167	-4.7583	-4.1979	-4.0583	272.686	174.394	100.138	232.763	31.321	-75.222	54.088	190.220	2.452	169.070	152.195	-59.498	-86.117	-66.191	82.549	212.387	0.00016747	0.00053806	0.00013364	1373.8	2.645e-06	2.8025e-06	1364.5	371.32	2.7223e-06	5.9722e-06	422.34	140.17	121.85	42.201	4.2749e-06	52.028	0.00046074	0.00052845	0.00014412	1378.1	5.8956e-06	5.7111e-06	1377	375.52	5.8919e-06	5.9682e-06	427.9	143.54	124.74	42.995	5.807e-06	53.149	172.435	-10.198	6.470	-73.945	53.455	63.108	-73.731	-69.128	35.510	82.590	-69.872	-65.416	-65.135	-60.288	56.311	-61.065	-8191	255	
57373.840	1	1	0	0	0.078827	0.05237	0.22708	0.28875	0.10236	0.13418	0.17552	0.17553	0.1013	0.13007	0.012794	0.36639	0.2647	0.20732	0.14674	0.13819	-4.4021	-3.9396	-4.325	-4.7583	-3.6708	-4.7688	-4.5417	-3.9708	-4.7729	-3.9625	-4.4646	-4.775	-3.7646	-4.65	-4.2812	-4.0208	194.855	200.657	36.802	-39.909	-69.003	230.838	188.597	-30.850	244.621	152.288	42.689	259.601	247.048	158.534	103.611	183.811	0.00016629	0.00054626	0.00012041	1371.7	3.6456e-06	4.3792e-06	1367	369.48	2.6459e-06	4.7452e-06	423.88	139.75	122.37	42.167	3.1552e-06	52.181	0.00045719	0.00053227	0.00014701	1379.4	6.005e-06	5.7906e-06	1378.5	374.58	5.9055e-06	5.9973e-06	428.72	143.44	125.21	42.947	5.7921e-06	53.171	175.973	-25.982	-2.322	-73.711	72.355	64.718	-73.979	-69.329	46.886	49.255	-69.883	-65.583	-65.459	-60.321	58.540	-60.984	-8191	255	
57373.961	1	1	0	0	0.17043	0.18539	0.18833	0.25482	0.11349	0.05287	0.056382	0.2901	0.26868	0.10956	0.24339	0.12849	0.20529	0.09997	0.022794	0.065223	-4.4833	-3.9146	-4.1104	-4.9437	-3.8021	-4.5333	-4.5333	-4.0125	-4.7729	-4.1792	-4.2188	-4.9021	-4.0188	-4.6542	-4.3417	-3.8146	40.839	158.425	224.253	246.352	27.217	96.080	86.085	219.181	168.631	-11.978	145.817	237.300	162.411	248.179	-55.047	106.439	0.00017628	0.00063487	0.00014357	1372.9	3.7445e-06	5.6445e-06	1363	369.08	1.6963e-06	5.1219e-06	426.08	140.53	122.08	42.075	4.0657e-06	52.044	0.00046177	0.00055075	0.00015032	1379.4	6.0611e-06	5.9319e-06	1378.1	373.88	5.8201e-06	5.789e-06	428.42	143.7	125.05	42.87	5.752e-06	53.106	183.231	-5.232	0.478	-73.762	65.221	55.824	-73.847	-69.137	83.388	57.129	-69.933	-65.538	-65.232	-60.246	65.928	-60.932	-8191	255	
57374.059	1	1	0	0	0.011426	0.21691	0.2202	0.1468	0.30319	0.19885	0.14722	0.21714	0.097712	0.10662	0.14733	0.12036	0.13347	0.1225	0.17616	0.13902	-4.3875	-4.0083	-3.9042	-4.7271	-3.8854	-4.3479	-4.6604	-3.8688	-4.6167	-4.2708	-4.1271	-4.7208	-4.1083	-4.325	-4.4375	-3.8604	70.057	-65.402	119.407	253.738	131.906	84.890	178.682	205.408	221.589	232.825	218.948	153.553	199.351	267.956	90.630	195.412	0.00016718	0.00044906	8.7207e-05	1372	3.3893e-06	5.2552e-06	1363.8	370.12	3.2673e-06	5.9413e-06	423.71	140.01	122.16	41.991	3.8788e-06	51.732	0.00045853	0.00053907	0.00015134	1379	5.9407e-06	5.8397e-06	1378.7	374.83	5.8234e-06	5.9654e-06	428.66	143.67	124.97	42.95	5.7575e-06	53.051	181.413	-17.665	23.537	-73.679	56.782	59.612	-73.950	-69.037	47.348	59.874	-69.891	-65.658	-65.088	-60.301	47.047	-60.884	-8191	255	
57374.152	1	1	0	0	0.16058	0.019107	0.12829	0.3394	0.11239	0.19312	0.29776	0.27014	0.19138	0.15428	0.22082	0.10864	0.18987	0.19037	0.065403	0.238	-4.1208	-4.2667	-3.9021	-4.8396	-3.8417	-4.1792	-4.85	-4.0354	-4.4333	-4.4729	-4.175	-4.7417	-4.2562	-4.2625	-4.5667	-3.8146	245.539	-11.026	227.687	-69.171	-55.178	220.356	195.246	-65.584	38.720	62.090	-62.854	194.845	240.109	263.106	-4.383	-68.714	0.00017925	0.00068026	0.00014169	1372.9	1.7967e-06	4.5882e-06	1368.9	369.46	1.9051e-06	4.2989e-06	424.54	140.43	122.31	41.99	1.6842e-06	52.168	0.00045853	0.00053476	0.00014844	1378.6	5.8341e-06	5.6688e-06	1378.6	375.02	5.6901e-06	5.7531e-06	428.34	143.83	125.1	42.89	5.6744e-06	53.143	174.978	5.244	5.318	-73.776	23.106	62.637	-73.823	-69.338	30.136	49.593	-69.735	-65.527	-65.004	-60.425	44.044	-61.292	-8191	255	
57374.273	1	1	0	0	0.091091	0.22997	0.10464	0.12178	0.06881	0.20535	0.17573	0.22943	0.060112	0.2413	0.19318	0.26547	0.015737	0.17085	0.16667	0.17661	-4.1937	-4.2667	-3.8167	-4.9708	-3.9708	-4.1	-4.9875	-3.9479	-4.4667	-4.4938	-3.8875	-4.7667	-4.1542	-4.2083	-4.5917	-3.8625	263.105	161.941	-6.724	-66.899	-15.226	165.765	133.714	-70.566	227.501	5.129	191.852	-45.648	-86.711	-0.070	191.925	232.223	0.00018122	0.00046182	0.00013709	1369.5	2.6584e-06	6.2397e-06	1364.3	371.32	2.1481e-06	3.7925e-06	423.07	140.4	122.33	42.077	4.1397e-06	52.155	0.00046177	0.00050313	0.00014644	1380.3	5.778e-06	5.5815e-06	1378.8	375.05	5.7041e-06	5.5444e-06	428.28	143.74	125.01	42.968	5.5259e-06	53.156	177.952	3.858	3.494	-73.754	61.887	67.512	-73.774	-69.100	11.513	72.153	-69.777	-65.675	-65.079	-60.506	69.293	-60.840	-8191	255	
57374.344	1	1	0	0	0.16011	0.073778	0.16574	0.37032	0.068034	0.13291	0.14497	0.10829	0.10488	0.18581	0.17597	0.054285	0.060408	0.20459	0.075671	0.082768	-4.0563	-4.5208	-3.7729	-4.875	-4.2146	-3.9375	-4.8313	-3.9813	-4.1271	-4.6146	-3.8187	-4.5792	-4.5	-4.0146	-4.7083	-4.2479	41.076	216.719	33.625	231.989	111.899	253.908	253.511	154.159	52.998	241.305	56.247	188.840	197.064	-74.071	95.101	233.668	0.00014958	0.00043781	0.00012472	1376.9	3.3421e-06	6.5206e-06	1364.7	368.73	2.5036e-06	5.5864e-06	423.49	139.88	122.3	42.024	4.0327e-06	52.115	0.00046299	0.0005146	0.00014556	1381.1	5.6291e-06	5.7061e-06	1376.3	374.32	5.733e-06	5.5403e-06	428.21	143.54	124.92	42.87	5.43e-06	53.212	177.919	-4.682	16.535	-73.872	70.655	68.892	-73.775	-69.236	55.286	82.143	-69.919	-65.935	-65.051	-60.622	55.151	-60.745	-8191	255	
57374.441	1	1	0	0	0.18372	0.019548	0.11996	0.3098	0.14194	0.1592	0.22123	0.15109	0.14606	0.2184	0.070937	0.1795	0.19791	0.14975	0.07977	0.17949	-4.0083	-4.6479	-3.8917	-4.6625	-4.3083	-3.9667	-4.7646	-4.0667	-4.1	-4.6062	-3.9625	-4.6583	-4.3146	-3.9792	-4.7771	-4.1979	8.656	228.115	214.529	-80.033	-59.795	222.255	198.265	215.073	-65.594	-35.547	-45.694	269.700	144.547	238.541	-61.553	224.663	0.0001744	0.00040661	0.00013657	1373.3	1.05e-06	4.8634e-06	1368.4	370.53	2.9426e-06	5.207e-06	423.54	140.31	122.16	42.063	3.0706e-06	52.059	0.00044459	0.0005225	0.00014364	1379.1	5.6624e-06	5.8051e-06	1377.3	374.97	5.7813e-06	5.4771e-06	428.37	143.82	125.17	42.908	5.4739e-06	53.136	177.798	-2.210	20.977	-73.822	70.323	61.626	-73.713	-69.314	48.813	52.789	-69.746	-65.924	-64.782	-60.515	74.106	-61.238	-8191	255	
57374.559	1	1	0	0	0.22174	0.059454	0.057596	0.22478	0.15521	0.13047	0.18247	0.15074	0.25724	0.10904	0.21329	0.074696	0.0982	0.041514	0.1622	0.20892	-3.7104	-4.7125	-3.8688	-4.5917	-4.5625	-3.7812	-4.8938	-4.4646	-3.9437	-4.9042	-4.0312	-4.4333	-4.6229	-4.0542	-4.7	-4.5396	146.741	198.220	37.131	204.317	-69.134	-28.267	-57.776	150.079	4.039	63.329	234.246	-17.694	65.070	-39.545	103.404	261.906	0.00017765	0.00036273	0.0001486	1375.3	4.986e-06	6.6725e-06	1369.2	371.31	2.862e-06	4.938e-06	422.28	140.6	122.98	42.109	2.3352e-06	52.324	0.00045361	0.00049002	0.0001418	1381.5	5.5709e-06	5.4438e-06	1380.3	375.29	5.5168e-06	5.7026e-06	428.42	144.05	125.38	42.943	5.4799e-06	53.277	181.848	-14.712	3.956	-74.080	49.495	71.007	-73.857	-68.971	-8.906	66.597	-69.790	-65.830	-65.001	-60.472	39.494	-60.936	-8191	255	
57374.656	1	1	0	0	0.13016	0.19517	0.30726	0.17474	0.14857	0.17294	0.14005	0.24696	0.18212	0.16942	0.3247	0.056737	0.13684	0.1349	0.098936	0.011381	-3.5583	-4.675	-3.8958	-4.6062	-4.6583	-3.7479	-4.6771	-4.5167	-3.9979	-4.5146	-4.1354	-4.3729	-4.8271	-3.7812	-4.5771	-4.3792	264.031	247.526	-63.548	212.370	164.499	82.962	183.022	156.243	209.845	-6.909	3.635	36.226	220.631	-51.019	-24.953	-22.770	0.00018191	0.00042531	0.00016274	1375.9	3.2088e-06	4.2291e-06	1373.2	370.95	2.2521e-06	5.1233e-06	422.82	140.39	122.31	42.127	2.9513e-06	52.444	0.00044836	0.00050337	0.0001416	1381.9	5.5347e-06	5.6338e-06	1381.2	375.43	5.6237e-06	5.4544e-06	429.05	143.92	125.18	42.964	5.4457e-06	53.228	180.475	3.708	4.252	-73.904	53.142	60.706	-73.932	-69.013	34.394	90.478	-69.850	-65.704	-65.146	-60.344	55.435	-61.040	-8191	255	
57374.754	1	1	0	0	0.057424	0.14742	0.22304	0.33108	0.19369	0.093871	0.15972	0.19392	0.23435	0.19788	0.31274	0.30864	0.093996	0.17653	0.08546	0.23531	-3.5354	-4.8229	-3.9583	-4.3354	-4.7854	-3.8312	-4.6813	-4.6125	-3.7229	-4.6625	-4.3	-4.1687	-4.7937	-4.0083	-4.3958	-4.6125	39.606	239.274	78.039	222.863	138.802	132.188	260.533	84.563	200.040	260.461	77.047	248.159	-9.407	207.476	12.644	172.751	0.00018128	0.0003451	0.00012515	1373.9	2.9468e-06	5.3493e-06	1363.7	370.41	3.1783e-06	5.7034e-06	425.43	139.76	122.73	42.094	3.7247e-06	52.273	0.00046601	0.00049128	0.0001403	1379.7	5.4196e-06	5.7192e-06	1381	375.38	5.8989e-06	5.3721e-06	428.18	143.64	125.14	42.94	5.6765e-06	53.202	172.327	-5.384	1.610	-73.849	70.001	60.689	-74.016	-69.043	51.353	94.269	-69.802	-65.584	-64.919	-60.291	55.112	-61.041	-8191	255	
57374.871	1	1	0	0	0.12714	0.16117	0.27584	0.16894	0.1758	0.21745	0.25962	0.10618	0.17703	0.16406	0.19007	0.17464	0.13687	0.037508	0.19432	0.21106	-3.4646	-4.6562	-4.1729	-4.2917	-4.6438	-3.9813	-4.5875	-4.6604	-3.7771	-4.7104	-4.2667	-4.0729	-4.9458	-4.0479	-4.2542	-4.7083	215.459	195.556	112.549	254.100	183.290	60.395	171.814	232.808	-47.000	-15.753	256.076	-86.103	163.810	180.782	251.080	213.708	0.00014499	0.00037015	0.00012901	1372.5	3.0534e-06	5.977e-06	1366.9	370.05	2.1353e-06	4.647e-06	422.71	140.52	122.34	41.984	4.3621e-06	51.957	0.00046089	0.00050716	0.0001403	1379	5.5542e-06	5.8047e-06	1379.5	374.94	5.9046e-06	5.2993e-06	427.71	143.89	125.17	42.901	5.6876e-06	53.152	172.684	9.763	17.533	-73.987	102.391	54.720	-74.012	-69.198	55.031	74.598	-69.837	-66.066	-65.180	-60.391	29.054	-60.695	-8191	255	
57374.969	1	1	0	0	0.12909	0.0838	0.089601	0.2136	0.1122	0.24527	0.14281	0.17928	0.31397	0.16098	0.10238	0.13653	0.1066	0.19442	0.15376	0.088804	-3.4167	-4.6062	-4.125	-4.2271	-4.6083	-4.0896	-4.4542	-4.6833	-3.6979	-4.4208	-4.5813	-4.0542	-4.8021	-4.1146	-4.2417	-4.6625	9.369	57.113	75.540	152.612	59.333	204.307	199.443	190.901	60.454	30.480	45.560	246.425	195.680	220.682	-52.855	200.968	0.00015694	0.00043641	0.00015756	1374.5	1.9436e-06	6.6854e-06	1365	369.89	1.7377e-06	4.7123e-06	423.42	140.56	122.69	42.205	3.6533e-06	52.138	0.00046929	0.00051338	0.00014226	1381.1	5.7048e-06	5.6106e-06	1376.4	374.93	5.6567e-06	5.3707e-06	428.21	143.91	125.32	42.987	5.5481e-06	53.213	173.122	3.910	1.714	-73.830	82.636	63.035	-73.877	-69.454	35.711	62.086	-69.554	-65.925	-65.246	-60.163	68.722	-60.879	-8191	255	
57375.039	1	1	0	0	0.090256	0.1717	0.1802	0.2229	0.06316	0.13938	0.25041	0.32516	0.15581	0.12659	0.30253	0.20594	0.22155	0.20254	0.19805	0.13349	-3.3875	-4.3896	-4.4437	-3.9667	-4.7333	-4.0563	-4.2333	-4.9146	-3.7771	-4.3542	-4.6188	-3.9458	-4.7875	-4.2104	-3.9146	-4.7646	218.507	247.959	107.687	181.401	262.809	212.194	-80.533	231.835	-10.743	158.975	184.802	267.514	237.861	-68.632	-75.431	210.786	0.00020257	0.00061899	0.00014777	1371.4	2.6128e-06	6.7128e-06	1361	370.91	3.2971e-06	4.3573e-06	424.98	139.89	122.78	42.055	3.07e-06	52.476	0.00045456	0.00051017	0.00013897	1380	5.49e-06	5.5034e-06	1376.9	375.62	5.61e-06	5.6108e-06	429.03	143.55	125.36	42.981	5.7537e-06	53.331	178.619	-7.192	14.381	-73.999	10.107	39.249	-74.059	-69.382	47.711	52.446	-69.708	-65.601	-65.310	-60.306	62.484	-60.825	-8191	255	
57375.137	1	1	0	0	0.25309	0.037285	0.15321	0.10136	0.17497	0.069772	0.3102	0.26003	0.34801	0.076186	0.19295	0.19076	0.099751	0.12949	0.078502	0.19026	-3.4375	-4.3438	-4.525	-3.9021	-4.7292	-4.2771	-4.1271	-4.7229	-4.0396	-4.35	-4.6708	-3.8021	-4.6583	-4.3979	-3.8771	-4.8187	23.954	0.083	238.686	247.916	12.227	36.448	235.351	148.497	49.044	252.839	245.551	202.000	257.296	118.963	71.043	214.381	0.00017105	0.00066415	0.00010396	1372.7	2.5011e-06	3.343e-06	1360.6	370.21	1.8414e-06	6.0425e-06	422.62	139.59	122.18	42.001	3.0433e-06	52.055	0.00044662	0.00051277	0.00014037	1379.2	5.527e-06	5.4802e-06	1375.5	374.57	5.7429e-06	5.6544e-06	427.95	143.37	124.7	42.819	5.7093e-06	53.027	179.732	-9.513	-2.056	-73.931	31.063	81.580	-73.968	-69.029	45.354	89.620	-69.767	-65.540	-65.062	-60.170	43.300	-60.508	-8191	255	
57375.258	1	1	0	0	0.082778	0.076624	0.039124	0.29678	0.047772	0.28693	0.078559	0.13634	0.23099	0.047929	0.076927	0.097453	0.18383	0.21405	0.20797	0.13195	-3.7229	-4.1229	-4.6667	-3.9083	-4.55	-4.3375	-3.9375	-4.8812	-4.0687	-4.2438	-4.7688	-3.8167	-4.7708	-4.5437	-3.8208	-4.7333	249.027	181.717	110.112	152.380	116.471	125.756	-61.395	222.629	29.438	61.572	0.663	-86.694	248.103	-63.616	102.334	161.269	0.0001727	0.00050475	0.00010255	1368.2	3.1795e-06	5.2653e-06	1362.2	371.26	2.2426e-06	4.1107e-06	421.78	139.06	121.37	41.713	1.7774e-06	51.819	0.00046427	0.00054367	0.00015002	1374.2	5.8882e-06	6.0287e-06	1371.5	374.07	6.1968e-06	6.1027e-06	426.33	142.84	124.42	42.629	6.4101e-06	52.86	175.378	-18.227	37.077	-73.681	88.143	47.641	-73.745	-69.239	34.410	35.554	-69.780	-65.618	-64.865	-60.063	34.261	-60.726	-8191	255	
57375.352	1	1	0	0	0.18846	0.27027	0.21007	0.25904	0.11767	0.28597	0.2869	0.37801	0.14421	0.25729	0.16881	0.074115	0.10346	0.17481	0.16496	0.097683	-3.8271	-3.9542	-4.625	-4.0312	-4.5146	-4.4792	-3.9583	-4.8479	-4.2958	-3.9667	-4.7312	-3.8125	-4.3271	-4.7021	-3.7771	-4.8354	-19.416	-54.246	-11.640	-63.026	-85.036	237.209	166.438	226.234	135.193	65.870	247.580	-29.536	162.775	175.092	214.259	229.084	0.00016582	0.00029975	0.00017446	1365.2	2.7089e-06	5.7952e-06	1359.1	368.96	1.9698e-06	4.2805e-06	421.69	139.52	121.47	41.783	3.1175e-06	51.434	0.00048765	0.00059089	0.00015845	1373.9	6.1693e-06	6.3455e-06	1373.3	373.79	6.4567e-06	6.5506e-06	426.23	142.9	124.2	42.5	6.4643e-06	52.733	177.274	-18.845	-8.081	-73.859	43.455	50.330	-73.791	-69.159	73.656	57.662	-69.572	-65.627	-65.201	-60.201	62.772	-60.900	-8191	255	
57375.449	1	1	0	0	0.10468	0.17109	0.25886	0.1782	0.16533	0.064202	0.21578	0.076476	0.241	0.17539	0.075572	0.18129	0.15706	0.069904	0.20425	0.21919	-3.8312	-3.8021	-4.6542	-4.1875	-4.2396	-4.4729	-3.9813	-4.7458	-4.275	-3.7604	-4.8708	-4.0854	-4.2354	-4.7208	-3.7167	-4.7979	254.570	32.534	-17.560	226.340	265.085	36.125	167.816	183.952	258.124	1.921	121.656	270.639	196.877	250.327	33.216	175.763	0.00015988	0.00051883	0.00012607	1371.4	3.7238e-06	4.0035e-06	1363	368.45	1.7637e-06	4.5991e-06	425.1	139.06	121.67	41.753	4.1586e-06	51.784	0.00051642	0.00061947	0.00016502	1377	6.7356e-06	6.6959e-06	1376.1	373.57	6.918e-06	7.404e-06	428.01	142.68	124.3	42.538	7.6065e-06	52.749	183.333	-3.434	17.544	-73.949	84.120	71.957	-73.872	-69.378	63.822	64.517	-69.824	-65.829	-65.122	-60.290	73.286	-60.886	-8191	255	
57375.543	1	1	0	0	0.24944	0.16008	0.17857	0.40156	0.11017	0.1859	0.22364	0.10444	0.073347	0.05138	0.12286	0.18602	0.029509	0.34897	0.18696	0.29995	-3.9542	-3.9042	-4.675	-4.0667	-4.1625	-4.8229	-3.9771	-4.5875	-4.2604	-3.6521	-4.7042	-4.2854	-4.1333	-4.6083	-3.8083	-4.4146	155.438	24.468	22.159	210.697	184.251	-82.518	221.890	-68.016	180.470	4.491	219.203	192.667	23.115	191.176	146.554	171.967	0.00018207	0.00061178	0.00016451	1376.4	1.8743e-06	9.5075e-06	1361.5	370.41	1.4193e-06	5.6139e-06	423.69	139.7	121.44	41.872	4.153e-06	51.83	0.00057252	0.00070476	0.00019187	1385.1	7.5301e-06	7.5913e-06	1380.7	374.94	7.6157e-06	7.7141e-06	428.49	143.31	124.46	42.673	7.3774e-06	52.759	178.412	-17.240	10.772	-73.769	58.039	57.651	-73.907	-69.439	82.038	58.313	-69.933	-65.693	-65.352	-60.285	39.845	-61.253	-8191	255	
57375.641	1	1	0	0	0.36244	0.15731	0.084358	0.35339	0.21197	0.1627	0.36155	0.18805	0.11666	0.036255	0.14782	0.16992	0.18818	0.02506	0.13761	0.34697	-4.2729	-3.675	-4.6167	-4.3354	-4.0417	-4.8187	-4.0542	-4.5229	-4.6271	-3.9104	-4.6896	-4.1896	-4.025	-4.8208	-3.7125	-4.3896	146.531	49.967	-49.986	166.421	124.483	173.399	164.265	187.732	173.090	39.157	262.270	-22.120	175.073	-0.130	215.173	235.390	0.00021134	0.00049195	0.00014906	1378.8	5.7315e-07	2.89e-06	1370.1	370.27	2.0779e-06	5.2501e-06	425.42	139.83	121.53	41.748	3.8173e-06	51.891	0.0005365	0.00068241	0.0001839	1384.9	6.9317e-06	7.0913e-06	1386	375.02	6.8957e-06	7.2181e-06	429.42	143.35	124.87	42.705	6.9275e-06	52.982	185.990	-22.112	-4.493	-73.842	55.888	78.187	-73.913	-69.283	39.809	67.883	-70.071	-65.642	-65.187	-60.383	67.377	-61.065	-8191	255	
57375.738	1	1	0	0	0.16446	0.01473	0.32041	0.21096	0.11623	0.11773	0.19104	0.062947	0.06365	0.2706	0.19455	0.16283	0.24712	0.070485	0.12483	0.15762	-4.2042	-3.7313	-4.4812	-4.4854	-3.7833	-4.6229	-4.0458	-4.4042	-4.6208	-3.9125	-4.6625	-4.2417	-3.9729	-4.7167	-3.8229	-4.2438	55.563	161.907	-0.822	259.726	76.251	65.300	144.378	62.862	-41.557	-67.574	264.420	234.401	222.059	171.558	126.751	132.277	0.00017503	0.00042588	0.00024338	1383.4	3.2424e-06	4.5198e-06	1370.7	370.63	1.4223e-06	6.0374e-06	424.18	140.5	122.11	41.718	2.262e-06	52.1	0.00051189	0.00063808	0.00017623	1387.5	6.9769e-06	6.665e-06	1386	375.69	6.7463e-06	6.9394e-06	429.1	143.69	124.77	42.682	6.721e-06	52.947	180.411	-14.232	14.919	-73.737	78.496	68.308	-73.793	-69.391	59.633	73.989	-69.748	-65.551	-65.301	-60.022	70.174	-60.917	-8191	255	
57375.832	1	1	0	0	0.29668	0.03362	0.16952	0.18654	0.06467	0.15137	0.08255	0.25444	0.20003	0.22215	0.1829	0.09022	0.091606	0.098557	0.092606	0.12069	-4.3167	-3.6271	-4.3792	-4.5771	-3.7812	-4.7521	-4.2042	-4.3	-4.5521	-3.8042	-4.475	-4.5479	-3.8729	-4.6937	-3.9813	-4.0708	-85.466	-84.119	-2.463	269.176	38.586	194.607	238.259	213.119	-75.743	-59.078	45.126	51.145	-72.985	24.134	209.283	199.586	0.00016235	0.00054253	0.00017636	1382.7	2.7707e-06	6.3392e-06	1376.5	371.56	3.2651e-06	4.504e-06	423.48	140.35	121.47	41.823	2.4891e-06	52.38	0.00051625	0.00063197	0.00016687	1388.9	6.6811e-06	6.7982e-06	1387.9	376.09	6.4678e-06	6.6725e-06	429.05	143.71	124.82	42.742	6.6097e-06	53.112	185.039	-18.869	13.264	-73.785	84.955	64.383	-73.784	-69.137	63.095	63.344	-69.483	-65.612	-65.295	-60.263	73.823	-60.762	-8191	255	
57375.953	1	1	0	0	0.021159	0.14343	0.35816	0.06985	0.1541	0.15459	0.27877	0.20984	0.047713	0.12292	0.13046	0.14784	0.25494	0.077061	0.074224	0.24904	-4.4021	-3.7771	-4.45	-4.7	-3.6229	-4.6667	-4.2354	-3.9292	-4.6687	-4.0042	-4.3375	-4.6521	-3.8521	-4.5792	-4.2812	-4.1062	212.350	72.184	236.029	239.808	133.042	161.816	265.209	171.505	243.242	63.331	216.521	51.757	222.441	161.009	191.840	200.338	0.00018119	0.00056452	0.00013009	1378.3	2.5814e-06	4.6615e-06	1366.6	369.56	6.1666e-07	6.3425e-06	424.45	139.98	122.12	41.783	3.1593e-06	52.011	0.00049044	0.0006233	0.00016721	1386.8	6.7999e-06	6.5982e-06	1383.5	375.44	6.4361e-06	6.6429e-06	428.99	143.31	124.95	42.577	6.4289e-06	52.901	188.176	-8.982	-4.493	-73.521	55.569	59.134	-73.824	-69.331	69.547	68.705	-69.592	-65.429	-65.356	-60.233	52.857	-61.172	-8191	255	
57376.051	1	1	0	0	0.065887	0.15006	0.13342	0.21758	0.21709	0.18082	0.20116	0.10881	0.055199	0.028953	0.10061	0.11264	0.1083	0.18885	0.16886	0.11319	-4.2438	-4.0083	-4.1417	-4.725	-3.8625	-4.5979	-4.6354	-3.95	-4.7833	-4.0146	-4.2854	-4.7	-3.7438	-4.5	-4.3063	-3.9521	168.896	-44.510	-16.272	234.513	1.689	141.675	154.190	169.507	240.542	112.440	233.343	204.711	202.309	265.213	257.631	165.196	0.000185	0.00050058	0.00017309	1383	3.1274e-06	5.0189e-06	1375.8	370.24	5.1477e-07	3.2048e-06	423.3	139.93	121.81	41.762	3.0105e-06	51.987	0.00049216	0.00060384	0.00016189	1387	6.564e-06	6.421e-06	1386	375.41	6.46e-06	6.7357e-06	428.44	143.55	124.66	42.656	6.1973e-06	52.928	189.043	-0.030	22.482	-73.864	58.839	53.421	-73.672	-69.421	114.386	52.721	-69.789	-65.910	-64.835	-60.013	77.937	-60.871	-8191	255	
57376.145	1	1	0	0	0.11438	0.14977	0.1078	0.23675	0.038074	0.013371	0.2153	0.29394	0.057555	0.12378	0.24424	0.10936	0.1097	0.10225	0.17939	0.11124	-4.5437	-3.8812	-4.025	-4.9292	-3.8292	-4.3979	-4.8021	-3.9083	-4.6604	-4.1646	-4.1479	-4.8375	-4.0375	-4.5	-4.4125	-3.8167	98.216	168.478	-51.804	201.568	78.670	28.277	178.656	239.579	-2.968	11.910	205.750	184.564	250.164	-11.358	65.293	158.144	0.00015857	0.00065949	0.00017838	1377.2	2.8874e-06	4.8415e-06	1375	370.36	1.415e-06	3.4968e-06	422.54	139.73	121.48	42.132	3.1084e-06	51.921	0.00049758	0.00061544	0.0001675	1387.6	6.4529e-06	6.391e-06	1386.5	374.69	6.3494e-06	6.642e-06	428.21	143.41	124.69	42.73	6.4796e-06	52.913	171.959	8.111	-2.544	-73.610	71.964	64.740	-73.769	-69.235	47.403	73.737	-69.822	-65.636	-65.140	-60.373	23.669	-60.780	-8191	255	
57376.242	1	1	0	0	0.32224	0.20993	0.06718	0.22842	0.16426	0.096617	0.20058	0.11285	0.17216	0.11244	0.096188	0.16066	0.11571	0.28311	0.081859	0.11683	-4.2375	-4.1417	-3.9854	-4.85	-3.8438	-4.2542	-4.6958	-4.0917	-4.6687	-4.3417	-4.0875	-4.7792	-4.1438	-4.0938	-4.7833	-3.9	235.426	3.248	134.884	228.423	170.238	59.307	205.206	-80.599	268.589	118.966	209.532	-4.615	216.106	-63.433	98.506	-82.189	0.00014597	0.00054121	0.00016	1380.9	2.7552e-06	4.6492e-06	1376.2	371.15	2.0822e-06	4.3783e-06	423.99	140.14	121.48	41.586	4.7193e-06	51.776	0.00049625	0.00059908	0.00016972	1387.9	6.5526e-06	6.7959e-06	1385.6	375.14	6.5037e-06	6.5611e-06	428.98	143.64	124.48	42.609	6.4382e-06	52.917	185.053	-15.058	-0.300	-73.945	106.663	54.683	-73.675	-69.125	60.679	62.163	-69.777	-65.561	-65.216	-60.556	68.838	-60.797	-8191	255	
57376.340	1	1	0	0	0.18082	0.33094	0.078431	0.25237	0.24449	0.22002	0.066034	0.27575	0.13542	0.1488	0.23916	0.099019	0.14569	0.063402	0.043487	0.077559	-4.2688	-4.4208	-4.0167	-4.9917	-3.9292	-4.1042	-4.7688	-4.0188	-4.3458	-4.4062	-3.8667	-4.7708	-4.1667	-4.075	-4.6438	-3.8625	236.223	-3.157	112.045	209.466	80.889	-69.751	186.473	186.604	-84.757	8.823	-15.272	242.953	139.708	178.704	178.940	108.831	0.00019002	0.00079785	0.00012694	1382.5	2.1295e-06	5.3122e-06	1372.6	369.98	1.3554e-06	3.981e-06	423.77	139.51	121.91	41.734	3.3688e-06	51.777	0.00050711	0.00061406	0.00016798	1389.1	6.7263e-06	6.6564e-06	1387.2	375.5	6.7546e-06	6.697e-06	429.12	143.59	125.17	42.73	6.4097e-06	52.947	177.977	2.045	7.871	-73.822	64.406	60.029	-74.038	-69.294	-3.958	44.824	-70.017	-65.593	-64.951	-59.938	57.549	-61.080	-8191	255	
57376.434	1	1	0	0	0.19882	0.18987	0.024948	0.32559	0.23103	0.19376	0.25309	0.061956	0.14227	0.099727	0.14803	0.26765	0.15306	0.089998	0.082867	0.20012	-4.0062	-4.5625	-3.7729	-4.9667	-4.1708	-3.9875	-4.8917	-4.0521	-4.2667	-4.3875	-3.9229	-4.7688	-4.3229	-4.1167	-4.6042	-4.0104	70.856	91.923	267.226	237.037	170.684	232.900	229.746	178.828	33.744	106.987	235.596	263.454	237.579	36.251	48.569	221.021	0.00016554	0.00041569	0.00014687	1382.6	4.005e-06	4.5901e-06	1377.2	370.63	1.8915e-06	5.4656e-06	423.68	139.87	122.54	42.131	3.0933e-06	52.1	0.00050084	0.00060099	0.00017254	1390.5	6.6909e-06	6.6809e-06	1388.8	375.55	6.6457e-06	6.8889e-06	429.02	143.53	125.24	42.748	6.3376e-06	53.009	184.442	11.274	3.126	-73.844	83.897	75.031	-73.868	-69.210	72.648	73.784	-69.954	-65.620	-65.291	-60.521	56.089	-61.000	-8191	255	
57376.555	1	1	0	0	0.11844	0.07135	0.24143	0.18859	0.51534	0.089971	0.042577	0.077332	0.31457	0.27517	0.2104	0.10982	0.21175	0.18215	0.094588	0.093858	-3.8479	-4.5417	-3.6979	-4.7063	-4.2854	-3.9813	-4.8021	-4.1813	-4.0667	-4.5917	-3.8792	-4.4833	-4.4313	-3.7771	-4.775	-3.9979	10.709	112.973	116.074	218.133	82.128	160.499	234.884	211.803	228.533	116.853	187.356	202.926	156.474	-16.960	184.300	198.261	0.00016934	0.00049077	0.00014607	1384.1	1.431e-06	4.631e-06	1376.2	371.1	1.1224e-06	5.9434e-06	425.06	140.99	122.62	41.863	3.3672e-06	51.821	0.00052194	0.0006108	0.00017402	1391.6	6.8975e-06	7.005e-06	1389.1	376.09	6.8338e-06	6.7375e-06	430.11	143.89	125.22	42.74	6.7948e-06	52.977	181.880	-9.236	29.607	-73.810	90.480	30.942	-73.666	-69.195	77.501	74.378	-69.658	-65.623	-65.067	-60.687	18.722	-60.716	-8191	255	
57376.648	1	1	0	0	0.18415	0.069544	0.12673	0.2497	0.26604	0.16174	0.29347	0.15457	0.20068	0.11584	0.1007	0.17414	0.20309	0.17757	0.27158	0.27082	-3.8229	-4.6354	-3.7104	-4.6667	-4.2917	-3.8958	-4.6792	-4.3042	-3.8479	-4.5875	-4.0062	-4.4688	-4.5896	-3.9646	-4.5563	-4.2812	-53.540	21.522	140.812	259.762	-51.182	-83.298	268.029	217.893	-70.609	0.020	76.338	2.388	182.983	253.945	26.595	197.065	0.00015139	0.00045555	0.00016504	1379.9	3.2365e-06	5.0612e-06	1376.1	371.21	3.2101e-06	6.2357e-06	425.15	140.52	122.3	41.959	2.2894e-06	52.052	0.00053961	0.00062989	0.00017876	1389.1	6.8202e-06	7.0827e-06	1390.7	376.15	7.0628e-06	7.0271e-06	429.26	143.86	125.12	42.811	7.1518e-06	53.093	174.177	-11.199	-4.979	-73.807	71.797	77.060	-73.818	-69.254	46.589	50.911	-69.657	-65.572	-65.029	-60.316	69.282	-60.866	-8191	255	
57376.746	1	1	0	0	0.14049	0.30204	0.22737	0.3639	0.24527	0.20701	0.17066	0.19101	0.081305	0.40032	0.28745	0.10736	0.24531	0.15769	0.047918	0.037604	-3.6417	-4.6958	-3.8958	-4.3708	-4.4979	-3.8771	-4.8292	-4.3667	-3.8417	-4.7708	-3.95	-4.3812	-4.6	-3.7979	-4.5646	-4.3375	-37.922	261.596	-34.802	241.989	231.360	164.797	183.545	242.953	216.459	133.999	247.238	117.109	191.526	-72.982	177.953	66.044	0.00016845	0.00059392	0.00014314	1384.9	2.1992e-06	5.3952e-06	1369.7	372.22	2.0354e-06	3.9215e-06	421.63	139.94	122.24	41.874	2.4751e-06	52.002	0.00052544	0.00063983	0.00017921	1392	6.8166e-06	7.2322e-06	1388.7	376.36	6.9654e-06	6.9162e-06	429.43	144.02	125.19	42.702	6.855e-06	53.082	178.575	-0.456	35.711	-73.880	92.277	58.162	-73.731	-69.167	44.582	78.316	-69.848	-65.929	-65.045	-60.500	50.527	-60.971	-8191	255	
57376.840	1	1	0	0	0.11495	0.33953	0.041101	0.30825	0.23814	0.14424	0.19493	0.076731	0.14004	0.10243	0.092733	0.27362	0.092757	0.22573	0.13298	0.16986	-3.6583	-4.775	-3.9542	-4.2708	-4.6813	-3.7771	-4.6771	-4.675	-3.8021	-4.6042	-4.1	-4.1583	-4.6333	-3.8958	-4.3938	-4.4042	242.665	-86.331	-21.076	207.499	99.182	-22.034	235.419	178.280	228.683	92.519	-76.545	248.875	-66.362	-49.033	211.126	266.386	0.00018399	0.0006594	0.00016449	1386	2.6112e-06	5.3752e-06	1377.4	372.06	3.2914e-06	5.5908e-06	424.7	140.57	122.87	42.007	1.8839e-06	51.703	0.00053821	0.00064878	0.00018009	1392.8	6.7832e-06	7.1263e-06	1390.6	376.78	7.2402e-06	7.1817e-06	429.67	143.99	125.62	42.861	6.6912e-06	53.099	182.597	13.564	4.048	-73.957	90.362	34.424	-73.773	-69.430	20.802	61.673	-69.821	-65.738	-64.933	-60.470	68.384	-61.096	-8191	255	
57376.938	1	1	0	0	0.3127	0.093076	0.25346	0.18171	0.061228	0.12099	0.3104	0.068137	0.26547	0.043776	0.28409	0.10971	0.16595	0.046817	0.085293	0.11265	-3.525	-4.7812	-4.0917	-4.1625	-4.7354	-3.9188	-4.6354	-4.5854	-3.7854	-4.8104	-4.2125	-4.1229	-4.7979	-3.9	-4.1813	-4.7375	186.184	70.794	180.190	-74.173	213.465	196.405	-68.711	-77.543	113.713	211.856	211.329	213.993	237.229	-23.659	17.930	111.399	0.00016562	0.00033974	0.00017616	1394.6	2.6614e-06	6.5475e-06	1381.7	371.94	2.3731e-06	3.802e-06	423.72	140.38	122.37	42.207	3.2453e-06	51.909	0.00053672	0.00062318	0.00018182	1393.8	6.7291e-06	7.2327e-06	1391.4	376.65	7.0776e-06	6.888e-06	430.1	143.91	125.35	42.93	7.0341e-06	53.063	182.289	27.118	11.881	-73.940	47.946	50.598	-74.041	-69.109	42.347	92.605	-70.017	-65.616	-65.100	-60.185	75.732	-61.013	-8191	255	
#DATA ENDS
