BOXY.EXE: ISS Imagent and Oximeter Data Acquisition Program Version 0.80
Ascii Record File

#ACQ INFORMATION
2  Detector Channels 
16  External MUX Channels 
1  Auxiliary Channels 
5000  Waveform (CCF) Frequency (Hz)
1  Waveforms Skipped 
30  Waveforms Averaged 
1  Cycles Averaged 
16  Acquisitions per Waveform 
10.0806  Updata Rate (Hz) 

#FILE INFORMATION
TRUE -- External MUX Channel results are PARSED.
FALSE -- AC DC and Phase are NOT grouped.
TRUE -- Companion Program Settings File CREATED.
FALSE -- AC data not excluded
FALSE -- DC data not excluded
FALSE -- Phase data not excluded
FALSE -- Auxillary Chn. data not excluded
Tab delimiters

#CALIBRATION STATE
TRUE -- Waveform Calibration Values APPLIED.


#AUX CALIBRATION VALUES
Val Type	aux-1	

Term	1.0000e+00	
Factor	0.0000e+00	


#WF CALIBRATION VALUES
A = Detector Channel
Val Type	A-AC1	A-AC2	A-AC3	A-AC4	A-AC5	A-AC6	A-AC7	A-AC8	A-AC9	A-AC10	A-AC11	A-AC12	A-AC13	A-AC14	A-AC15	A-AC16	A-DC1	A-DC2	A-DC3	A-DC4	A-DC5	A-DC6	A-DC7	A-DC8	A-DC9	A-DC10	A-DC11	A-DC12	A-DC13	A-DC14	A-DC15	A-DC16	A-Ph1	A-Ph2	A-Ph3	A-Ph4	A-Ph5	A-Ph6	A-Ph7	A-Ph8	A-Ph9	A-Ph10	A-Ph11	A-Ph12	A-Ph13	A-Ph14	A-Ph15	A-Ph16	

Term	0.00000e+00	0.00000e+00	0.00000e+00	0.00000e+00	0.00000e+00	0.00000e+00	0.00000e+00	0.00000e+00	0.00000e+00	0.00000e+00	0.00000e+00	0.00000e+00	0.00000e+00	0.00000e+00	0.00000e+00	0.00000e+00	0.00000e+00	0.00000e+00	0.00000e+00	0.00000e+00	0.00000e+00	0.00000e+00	0.00000e+00	0.00000e+00	0.00000e+00	0.00000e+00	0.00000e+00	0.00000e+00	0.00000e+00	0.00000e+00	0.00000e+00	0.00000e+00	0.00000e+00	0.00000e+00	0.00000e+00	0.00000e+00	0.00000e+00	0.00000e+00	0.00000e+00	0.00000e+00	0.00000e+00	0.00000e+00	0.00000e+00	0.00000e+00	0.00000e+00	0.00000e+00	0.00000e+00	0.00000e+00	
Factor	1.00000e+00	1.00000e+00	1.00000e+00	1.00000e+00	1.00000e+00	1.00000e+00	1.00000e+00	1.00000e+00	1.00000e+00	1.00000e+00	1.00000e+00	1.00000e+00	1.00000e+00	1.00000e+00	1.00000e+00	1.00000e+00	1.00000e+00	1.00000e+00	1.00000e+00	1.00000e+00	1.00000e+00	1.00000e+00	1.00000e+00	1.00000e+00	1.00000e+00	1.00000e+00	1.00000e+00	1.00000e+00	1.00000e+00	1.00000e+00	1.00000e+00	1.00000e+00	X	X	X	X	X	X	X	X	X	X	X	X	X	X	X	X	

B = Detector Channel
Val Type	B-AC1	B-AC2	B-AC3	B-AC4	B-AC5	B-AC6	B-AC7	B-AC8	B-AC9	B-AC10	B-AC11	B-AC12	B-AC13	B-AC14	B-AC15	B-AC16	B-DC1	B-DC2	B-DC3	B-DC4	B-DC5	B-DC6	B-DC7	B-DC8	B-DC9	B-DC10	B-DC11	B-DC12	B-DC13	B-DC14	B-DC15	B-DC16	B-Ph1	B-Ph2	B-Ph3	B-Ph4	B-Ph5	B-Ph6	B-Ph7	B-Ph8	B-Ph9	B-Ph10	B-Ph11	B-Ph12	B-Ph13	B-Ph14	B-Ph15	B-Ph16	

Term	0.00000e+00	0.00000e+00	0.00000e+00	0.00000e+00	0.00000e+00	0.00000e+00	0.00000e+00	0.00000e+00	0.00000e+00	0.00000e+00	0.00000e+00	0.00000e+00	0.00000e+00	0.00000e+00	0.00000e+00	0.00000e+00	0.00000e+00	0.00000e+00	0.00000e+00	0.00000e+00	0.00000e+00	0.00000e+00	0.00000e+00	0.00000e+00	0.00000e+00	0.00000e+00	0.00000e+00	0.00000e+00	0.00000e+00	0.00000e+00	0.00000e+00	0.00000e+00	-1.33287e+02	-1.33058e+02	-1.22415e+02	-1.83602e+02	-6.63235e+01	-6.86494e+01	-1.58175e+02	-1.62015e+02	-6.98326e+01	-6.27199e+01	-1.70709e+02	-1.71243e+02	-1.78816e+02	-1.76819e+02	-7.21941e+01	-1.49827e+02	
Factor	1.98011e-05	1.68726e-04	4.68094e-05	1.72646e-01	1.25001e-06	1.72005e-06	1.91519e-01	5.90140e-02	1.19171e-06	1.73739e-06	9.70808e-02	3.25887e-02	3.02680e-02	1.03601e-02	1.44427e-06	1.45597e-02	1.17642e-05	1.95404e-05	5.41394e-06	8.28772e-02	1.95271e-07	2.18153e-07	8.65750e-02	2.84976e-02	1.98045e-07	2.18247e-07	4.54550e-02	1.53416e-02	1.48428e-02	5.03973e-03	2.04727e-07	6.86683e-03	X	X	X	X	X	X	X	X	X	X	X	X	X	X	X	X	



#DISTANCE SETTINGS
A = Detector Channel
A-1	A-2	A-3	A-4	A-5	A-6	A-7	A-8	A-9	A-10	A-11	A-12	A-13	A-14	A-15	A-16	

2.5000e+00	3.0000e+00	2.5000e+00	3.0000e+00	2.0000e+00	3.0000e+00	1.5000e+00	3.0000e+00	3.0000e+00	3.0000e+00	3.0000e+00	3.0000e+00	3.0000e+00	3.0000e+00	1.5000e+00	3.0000e+00	

B = Detector Channel
B-1	B-2	B-3	B-4	B-5	B-6	B-7	B-8	B-9	B-10	B-11	B-12	B-13	B-14	B-15	B-16	

1.0000e+01	1.0000e+01	1.0000e+01	1.4400e+00	1.0000e+01	1.0000e+01	1.5100e+00	1.9400e+00	1.0000e+01	1.0000e+01	1.9900e+00	2.4900e+00	2.4100e+00	2.9000e+00	1.0000e+01	2.9800e+00	




#DATA BEGINS
time	group	step	mark	flag	A-AC1	A-AC2	A-AC3	A-AC4	A-AC5	A-AC6	A-AC7	A-AC8	A-AC9	A-AC10	A-AC11	A-AC12	A-AC13	A-AC14	A-AC15	A-AC16	A-DC1	A-DC2	A-DC3	A-DC4	A-DC5	A-DC6	A-DC7	A-DC8	A-DC9	A-DC10	A-DC11	A-DC12	A-DC13	A-DC14	A-DC15	A-DC16	A-Ph1	A-Ph2	A-Ph3	A-Ph4	A-Ph5	A-Ph6	A-Ph7	A-Ph8	A-Ph9	A-Ph10	A-Ph11	A-Ph12	A-Ph13	A-Ph14	A-Ph15	A-Ph16	B-AC1	B-AC2	B-AC3	B-AC4	B-AC5	B-AC6	B-AC7	B-AC8	B-AC9	B-AC10	B-AC11	B-AC12	B-AC13	B-AC14	B-AC15	B-AC16	B-DC1	B-DC2	B-DC3	B-DC4	B-DC5	B-DC6	B-DC7	B-DC8	B-DC9	B-DC10	B-DC11	B-DC12	B-DC13	B-DC14	B-DC15	B-DC16	B-Ph1	B-Ph2	B-Ph3	B-Ph4	B-Ph5	B-Ph6	B-Ph7	B-Ph8	B-Ph9	B-Ph10	B-Ph11	B-Ph12	B-Ph13	B-Ph14	B-Ph15	B-Ph16	aux-1	digaux	

57883.449	1	1	0	768	0.10921	0.21859	0.1102	0.26156	0.16718	0.068744	0.11966	0.12012	0.17115	0.20547	0.072404	0.18288	0.034438	0.14967	0.10826	0.16617	-3.6437	-3.9417	-4.5833	-3.9146	-4.2229	-4.5312	-4.0167	-4.7083	-4.225	-3.9167	-4.5938	-3.8438	-4.3438	-4.5687	-3.7792	-4.8583	-43.160	-79.467	-118.840	-145.702	-61.629	55.394	134.537	-129.080	-93.896	26.331	209.628	142.020	-55.058	175.593	164.784	197.163	0.00065234	0.00087587	0.00017364	1435.3	8.2897e-06	8.0452e-06	1779	387.01	3.4071e-06	5.5201e-06	599.19	183.96	94.691	41.471	4.9722e-06	88.184	0.002246	0.0030627	0.00088222	1291.9	3.1548e-05	3.5146e-05	1612	351.21	3.3351e-05	3.3592e-05	544.48	168.11	87.3	37.848	3.5516e-05	81.26	201.675	-47.212	-57.777	-134.540	-0.963	-32.831	-134.615	-131.179	-4.875	97.578	-131.099	-127.484	-127.294	-121.133	-58.739	-122.549	-8191	255	
57883.547	1	1	0	0	0.32065	0.19909	0.30627	0.13848	0.1416	0.14277	0.28053	0.033281	0.13615	0.18657	0.18444	0.25101	0.14325	0.11217	0.1174	0.13849	-3.7354	-3.8688	-4.5542	-4.1271	-4.0333	-4.6833	-4.0292	-4.725	-4.3771	-3.8354	-4.7708	-3.9771	-4.1438	-4.7292	-3.7354	-4.5771	33.165	29.556	-74.900	-67.704	-54.986	-46.016	197.222	21.824	-59.838	126.551	-4.210	171.022	90.820	76.842	40.553	-141.290	0.00055855	0.00090131	0.00013729	1395.7	8.3053e-06	7.268e-06	1721.6	375.33	5.6462e-06	5.2526e-06	585.39	180.24	93.402	41.062	1.0185e-05	88.441	0.0021595	0.0031228	0.00092056	1249.6	3.1052e-05	3.5794e-05	1559.3	340.09	3.2629e-05	3.539e-05	532.46	165.1	86.156	37.474	3.5713e-05	81.186	191.295	207.652	-12.718	-134.272	10.427	65.999	-134.322	-131.245	-12.693	4.135	-131.009	-127.211	-126.563	-121.211	-32.814	-122.840	-8191	255	
57883.641	1	1	0	0	0.26906	0.18774	0.11296	0.23071	0.089807	0.33582	0.2519	0.16271	0.17834	0.24101	0.24371	0.28724	0.053772	0.39179	0.24262	0.21541	-4.0396	-3.8021	-4.7708	-4.0896	-4.025	-4.6146	-4.0687	-4.4688	-4.4313	-3.6625	-4.8042	-4.1312	-4.0146	-4.5958	-3.775	-4.5188	69.293	-108.368	94.504	205.085	-144.207	-114.423	153.512	192.732	-48.932	-139.436	189.327	135.582	193.832	201.119	152.867	118.070	0.00064894	0.00044122	0.00018844	1380.8	2.4823e-06	1.306e-05	1746.8	380.39	4.5587e-06	1.2528e-05	595.03	182.2	95.043	41.462	7.1774e-06	89.971	0.0021362	0.0033422	0.00093732	1247.8	3.1198e-05	3.6738e-05	1580.7	344.3	3.2095e-05	3.6693e-05	540.88	167.83	87.705	38.22	3.5965e-05	82.404	202.173	-90.458	-15.648	-134.322	206.130	-4.082	-134.509	-131.156	-26.703	9.693	-130.927	-127.123	-127.416	-121.384	-74.929	-122.507	-8191	255	
57883.738	1	1	0	0	0.058297	0.21855	0.17857	0.44192	0.11162	0.11316	0.32336	0.18467	0.15622	0.10608	0.17097	0.12398	0.16882	0.18622	0.24876	0.18126	-4.0958	-3.7562	-4.6813	-4.2875	-3.9646	-4.8187	-3.9396	-4.3271	-4.7188	-3.6854	-4.6062	-4.3125	-3.8271	-4.6729	-3.9042	-4.2312	-114.106	-23.819	-142.721	190.652	-97.128	52.307	127.652	-113.944	-138.897	-125.455	-47.156	96.902	129.067	127.016	80.091	154.796	0.00072713	0.00099192	0.00029209	1416.9	4.9988e-06	4.3752e-06	1775.6	384.96	1.8636e-06	8.7856e-06	605.06	185.31	95.563	41.685	6.336e-06	90.636	0.0022279	0.0034472	0.00095279	1272.3	3.2402e-05	3.7554e-05	1606.4	349.14	3.2842e-05	3.8196e-05	550.52	170.23	88.629	38.534	3.5811e-05	83.006	193.371	-131.131	-62.876	-134.296	9.035	108.986	-134.534	-131.113	-26.254	-37.356	-130.887	-127.243	-127.233	-121.285	-12.701	-122.663	-8191	255	
57883.836	1	1	0	0	0.2148	0.12578	0.23183	0.065576	0.12697	0.28479	0.20337	0.16345	0.14107	0.14093	0.3354	0.16445	0.094441	0.041885	0.093954	0.21617	-4.3375	-3.7188	-4.5667	-4.4708	-3.725	-4.6292	-4.05	-4.1729	-4.55	-3.5583	-4.7167	-4.2354	-3.7625	-4.6896	-4.0958	-4.1542	-28.004	-5.981	39.919	196.353	-126.229	82.995	134.001	166.910	-48.497	5.403	169.687	165.167	-112.454	-69.109	-34.281	-111.466	0.00061353	0.0011761	0.00030722	1407.5	6.146e-06	1.7981e-06	1742.3	380.09	3.3084e-06	5.9605e-06	590.68	177.33	92.224	40.271	1.0037e-05	86.541	0.0022426	0.0034277	0.00092231	1266.1	3.3298e-05	3.6834e-05	1578.7	343.29	3.2708e-05	3.7273e-05	534.03	164.19	85.605	37.004	3.4281e-05	79.351	201.164	-113.634	-53.552	-134.207	-51.387	-108.099	-134.446	-130.997	-39.322	8.418	-131.050	-127.279	-126.999	-121.267	-25.928	-122.687	-8191	255	
57883.930	1	1	0	0	0.22235	0.20546	0.046078	0.20794	0.05932	0.1881	0.071481	0.31135	0.17873	0.16454	0.13315	0.22495	0.16841	0.031945	0.096817	0.25791	-4.1542	-3.7125	-4.225	-4.5917	-3.7979	-4.4604	-4.1813	-4.075	-4.6312	-3.9708	-4.4313	-4.4708	-3.7792	-4.6292	-4.0479	-3.9125	124.639	-46.737	202.468	193.741	-106.696	-24.928	121.735	88.905	60.480	173.415	130.141	93.241	113.584	60.096	123.654	98.906	0.00063129	0.000593	0.00027035	1370.3	7.0809e-06	4.1955e-06	1715	372.79	1.8162e-06	9.3676e-06	582.17	175.68	92.131	40.038	1.7969e-06	86.39	0.0022294	0.003325	0.00087436	1233.8	3.3362e-05	3.6374e-05	1550.2	338.4	3.3766e-05	3.7056e-05	528.96	162.3	85.351	36.582	3.303e-05	79.399	192.906	-62.734	-124.701	-134.300	10.220	-9.810	-134.538	-131.059	152.180	11.124	-131.028	-127.302	-127.424	-121.001	-138.158	-122.956	-8191	255	
57884.051	1	1	0	0	0.12094	0.1819	0.057302	0.11969	0.087171	0.13513	0.075987	0.17079	0.074863	0.17536	0.20774	0.20208	0.16721	0.14006	0.31282	0.23534	-4.3854	-3.6417	-4.1188	-4.5792	-3.7292	-4.5833	-4.4313	-4.1146	-4.5917	-3.9542	-4.2	-4.675	-3.7167	-4.5563	-4.2021	-3.9729	72.252	-34.314	-59.766	-129.409	-44.259	127.388	-106.707	149.242	166.730	45.918	158.630	164.328	-100.414	-17.952	136.553	195.865	0.0005977	0.000595	6.2041e-05	1378.4	5.3675e-06	1.6242e-05	1730.8	378.66	2.7134e-06	6.4253e-06	592.5	181.73	94.187	41.003	2.6461e-06	88.324	0.0023258	0.0033511	0.00085735	1242.7	3.4216e-05	3.6344e-05	1563.9	342.54	3.3611e-05	3.5919e-05	538.25	166.68	87.29	37.759	3.3251e-05	81.222	204.371	-64.706	-12.811	-134.385	-20.538	34.201	-134.066	-130.982	-14.737	52.507	-131.355	-127.183	-126.764	-121.418	-59.469	-122.527	-8191	255	
57884.145	1	1	0	0	0.17923	0.13806	0.2004	0.12105	0.21485	0.20346	0.17456	0.26183	0.13164	0.062463	0.25873	0.15399	0.18169	0.12967	0.1002	0.074222	-4.3917	-3.9021	-4.1083	-4.55	-3.7083	-4.3	-4.5729	-4.0354	-4.6333	-4.0062	-4.1729	-4.6917	-3.85	-4.2333	-4.4875	-3.8083	51.233	-61.550	-76.146	200.454	181.000	108.882	112.642	138.777	198.830	-95.915	126.703	-137.576	177.934	-113.655	-126.022	101.719	0.00058672	0.00078019	0.000198	1413.9	9.5515e-06	5.8306e-06	1749.9	384.14	4.119e-06	1.0499e-05	595.95	182.51	93.311	40.853	8.4945e-07	87.872	0.0022878	0.003245	0.00085394	1272.2	3.3616e-05	3.5172e-05	1588.9	348.01	3.375e-05	3.6213e-05	540.13	167.17	87.205	37.613	3.3745e-05	80.565	194.487	-59.513	-76.092	-134.155	-1.022	-10.678	-134.361	-131.217	-23.896	-37.539	-130.908	-127.342	-126.719	-121.570	192.765	-122.413	-8191	255	
57884.242	1	1	0	0	0.10178	0.048652	0.20082	0.18638	0.082588	0.11588	0.2185	0.2121	0.15501	0.23442	0.1872	0.085223	0.11405	0.092717	0.055977	0.077824	-4.1438	-3.8417	-3.9	-4.6937	-3.6271	-4.2854	-4.6042	-3.7812	-4.4896	-4.0188	-3.9417	-4.7417	-3.9542	-4.3896	-4.4021	-3.8146	-1.389	-43.102	-79.502	181.415	62.132	31.634	109.220	185.486	-84.684	149.922	139.840	52.154	112.723	-89.597	4.673	187.069	0.00059134	0.0007843	0.00037818	1379.9	5.6685e-06	1.1913e-05	1722.1	375.97	5.1564e-06	1.4403e-05	580.83	177.88	93.172	40.129	6.4605e-06	86.817	0.0022777	0.0031426	0.0008878	1244.2	3.4761e-05	3.4475e-05	1557.1	339.39	3.3385e-05	3.5074e-05	527.81	163.07	85.868	36.938	3.4392e-05	79.726	199.155	-10.085	-62.860	-134.027	-6.169	34.805	-134.214	-130.836	14.928	-4.628	-131.068	-127.714	-127.139	-121.137	6.131	-122.503	-8191	255	
57884.340	1	1	0	0	0.14624	0.02953	0.21445	0.039432	0.17045	0.29579	0.028966	0.17989	0.019631	0.15895	0.064456	0.086219	0.24865	0.069595	0.09427	0.20791	-4.2021	-4.1458	-3.6417	-4.6833	-3.9313	-4.1958	-4.8812	-3.7479	-4.4563	-4.2292	-3.8688	-4.7604	-4.0292	-4.0896	-4.5917	-3.9854	195.944	112.025	-115.126	190.377	148.435	-88.837	206.391	99.316	111.842	-127.210	-49.229	21.422	-39.771	185.886	210.904	149.030	0.00061588	0.00055859	0.00023869	1387.2	4.5811e-06	1.0277e-05	1735	375.57	1.7794e-06	4.0257e-06	590.3	179.88	92.759	40.781	1.6736e-06	88.576	0.0021888	0.0030782	0.00090683	1244.5	3.3027e-05	3.5155e-05	1565.8	341.46	3.3165e-05	3.5234e-05	535.14	165.3	86.15	37.484	3.4199e-05	81.096	198.675	-49.884	-90.515	-134.078	-77.205	-45.322	-134.176	-130.655	-4.284	-11.259	-130.950	-127.053	-127.172	-120.896	16.209	-122.736	-8191	255	
57884.434	1	1	0	0	0.18736	0.1303	0.12739	0.2422	0.048876	0.24395	0.38444	0.17149	0.058666	0.071443	0.10635	0.18275	0.24812	0.19529	0.16043	0.10189	-4.2146	-4.1771	-3.6333	-4.8521	-3.975	-3.9562	-4.85	-3.9	-4.3375	-4.5437	-3.9271	-4.6083	-4.1333	-4.0167	-4.475	-4.0396	-69.542	-69.080	196.486	146.346	85.701	-128.089	178.512	105.065	-14.298	60.314	-147.827	-107.516	116.906	-60.644	-69.541	187.380	0.00055454	0.00047643	0.0002707	1395	5.3789e-06	2.4288e-06	1746.7	380.76	1.7804e-06	6.1762e-06	593.3	181.64	92.87	40.986	2.8331e-06	88.62	0.0021796	0.0031715	0.00094913	1255.8	3.2127e-05	3.5483e-05	1580.4	345.87	3.1292e-05	3.5719e-05	540.79	167.22	86.831	37.766	3.5037e-05	81.344	197.253	-96.101	-57.170	-134.364	17.956	77.767	-134.066	-130.656	48.409	39.715	-131.172	-127.177	-126.601	-121.334	-44.130	-122.500	-8191	255	
57884.531	1	1	0	0	0.09916	0.15314	0.16676	0.18876	0.14827	0.080376	0.39789	0.10426	0.24794	0.14387	0.022587	0.16644	0.060742	0.30721	0.18683	0.13842	-3.9	-4.4792	-3.7062	-4.7271	-4.0875	-3.8979	-4.9729	-3.9	-4.0813	-4.575	-4.0062	-4.6667	-4.2042	-3.8125	-4.5417	-4.1562	95.422	-69.324	66.735	163.857	89.492	149.834	154.454	-144.012	73.874	-55.186	109.787	-27.004	185.635	167.798	196.381	81.781	0.00062623	0.00083693	4.4044e-06	1392	5.3781e-06	3.9287e-06	1728	375.85	3.0926e-06	5.6198e-06	583.04	176.45	91.828	40.053	8.1533e-06	86.758	0.0021506	0.0032061	0.00093836	1254.9	3.1001e-05	3.5266e-05	1563.6	341.04	3.1151e-05	3.6235e-05	529.13	162.89	85.54	36.888	3.5118e-05	79.183	192.883	-106.010	148.211	-134.145	-25.403	-51.095	-134.516	-130.818	-32.234	87.092	-131.119	-127.296	-126.495	-120.793	-12.244	-122.593	-8191	255	
57884.629	1	1	0	0	0.186	0.17622	0.25963	0.25413	0.34603	0.32168	0.355	0.23044	0.081907	0.24817	0.10107	0.068664	0.042497	0.23512	0.22017	0.20781	-3.5896	-4.6271	-3.6958	-4.5083	-4.1771	-3.775	-4.7792	-3.9417	-3.875	-4.525	-3.8146	-4.5312	-4.4167	-3.8333	-4.425	-4.1521	-28.481	207.259	-72.578	186.647	106.505	-86.031	154.783	170.942	30.071	180.093	-147.522	-30.691	93.021	192.023	165.696	182.129	0.00057268	0.0010223	0.00015786	1365.1	2.2194e-06	5.7536e-06	1704.4	371.7	5.5217e-06	3.6156e-06	580.45	178.37	93.047	40.457	1.0705e-05	87.1	0.0021016	0.003277	0.00093132	1229.5	3.1715e-05	3.6668e-05	1544.1	336.81	3.2413e-05	3.7867e-05	527.63	163.2	85.732	37.063	3.6245e-05	79.979	193.468	-95.442	-35.365	-134.167	-67.068	120.132	-134.313	-130.758	-35.872	119.370	-131.140	-127.346	-126.927	-121.304	-69.751	-122.391	-8191	255	
57884.746	1	1	0	0	0.19728	0.11064	0.26035	0.1757	0.17236	0.090891	0.21382	0.19665	0.045451	0.11922	0.18198	0.33369	0.16573	0.31671	0.15634	0.18399	-3.6188	-4.6354	-3.7646	-4.3083	-4.4542	-3.875	-4.7937	-4.2771	-4.0875	-4.6042	-3.9854	-4.4187	-4.525	-3.7479	-4.5604	-4.3313	195.113	137.733	151.309	181.607	190.683	-74.230	135.582	-80.297	-102.237	168.237	196.017	-140.581	137.229	106.562	202.377	128.565	0.00068663	0.0020324	0.00024883	1383.4	5.8919e-06	1.2302e-05	1728.9	377.03	6.7058e-06	6.8318e-06	590.01	179.29	93.957	40.878	2.8986e-06	88.228	0.0022593	0.003411	0.00094006	1245.2	3.3085e-05	3.8171e-05	1565	342.25	3.3837e-05	3.8489e-05	534.09	164.6	86.634	37.502	3.5178e-05	80.768	198.118	-53.415	11.755	-134.202	-22.203	-25.865	-134.504	-130.658	-3.210	-26.377	-131.196	-127.127	-126.716	-121.430	-57.344	-122.685	-8191	255	
57884.844	1	1	0	0	0.12466	0.175	0.21624	0.031024	0.21053	0.26517	0.30722	0.077582	0.02506	0.10378	0.15657	0.42221	0.096568	0.23472	0.061761	0.059266	-3.575	-4.6979	-3.8917	-4.2667	-4.5104	-3.7229	-4.5042	-4.3104	-3.7438	-4.6646	-3.9313	-4.1542	-4.6646	-3.6729	-4.5458	-4.3438	130.391	135.282	-136.091	109.332	90.897	-29.966	126.009	-143.489	-46.268	194.354	180.844	158.525	204.056	205.513	90.268	-134.338	0.00054304	0.00042887	0.00042579	1397.8	3.4397e-06	1.1094e-06	1755.9	382.51	6.8515e-06	1.5485e-05	591.53	180.48	92.983	40.623	1.3091e-05	87.449	0.0023134	0.0034232	0.00093946	1259.3	3.5381e-05	3.8559e-05	1585.7	346.99	3.55e-05	3.8133e-05	537.35	165.32	86.489	37.405	3.4709e-05	80.077	204.320	-51.760	-11.409	-134.114	-34.789	209.450	-134.292	-130.856	-0.515	-31.983	-131.147	-127.417	-126.641	-121.455	-20.569	-122.081	-8191	255	
57884.938	1	1	0	0	0.15365	0.17528	0.17708	0.072105	0.060743	0.17304	0.24922	0.19125	0.06998	0.10383	0.26122	0.34166	0.26485	0.20662	0.086878	0.24609	-3.4521	-4.6125	-4.0563	-4.2917	-4.6708	-3.7958	-4.6042	-4.5104	-3.8771	-4.6854	-4.1417	-4.0167	-4.7833	-4.0333	-4.4604	-4.5062	121.997	22.400	-73.005	22.007	-35.563	-1.296	121.768	178.893	-136.687	163.244	145.401	155.588	180.688	156.987	101.446	130.540	0.00060868	0.00059945	0.00027065	1367.3	1.14e-05	5.2387e-06	1710.2	370.44	3.8923e-06	9.2557e-06	569.8	173.63	91.244	39.262	4.2664e-06	84.422	0.0023835	0.0033408	0.00091337	1235.7	3.4966e-05	3.8158e-05	1544.4	336.43	3.5509e-05	3.7047e-05	519.82	159.84	84.191	36.148	3.3739e-05	77.868	190.782	-45.613	-54.418	-134.518	-26.837	13.957	-134.498	-130.663	-39.418	-42.090	-130.941	-127.647	-126.587	-121.345	74.553	-122.325	-8191	255	
57885.012	1	1	0	0	0.2951	0.14567	0.22685	0.035519	0.2546	0.045075	0.075404	0.22115	0.097493	0.18305	0.18226	0.30421	0.074785	0.29142	0.11404	0.16674	-3.6437	-4.5312	-4.1708	-3.9729	-4.6021	-3.9146	-4.475	-4.675	-3.6625	-4.5375	-4.4563	-4.1167	-4.8688	-3.9625	-4.1667	-4.8167	159.252	136.983	175.502	2.118	75.710	8.004	-129.017	-1.042	58.697	140.639	141.729	149.435	36.639	195.889	11.514	132.428	0.0006019	0.0010984	0.00025325	1367.8	3.0157e-06	4.9669e-06	1700.2	372.02	9.7968e-06	5.8081e-06	576.24	175.73	91.485	40.086	4.177e-06	86.242	0.0023447	0.0033315	0.00089439	1231.5	3.4674e-05	3.8115e-05	1539.2	337.39	3.6409e-05	3.7087e-05	525.37	161.39	85.007	36.873	3.5745e-05	79.689	200.600	-51.285	-117.394	-134.646	-5.711	34.767	-134.613	-130.835	-62.458	40.702	-131.302	-127.261	-127.155	-121.241	-23.699	-122.246	-8191	255	
57885.133	1	1	0	0	0.33894	0.060297	0.12759	0.23493	0.054073	0.16901	0.27449	0.24578	0.19498	0.19325	0.080221	0.31093	0.080426	0.099855	0.15256	0.203	-3.4313	-4.5271	-4.3938	-3.9333	-4.7063	-4.0062	-4.2688	-4.6104	-3.6875	-4.3938	-4.5292	-3.9021	-4.8438	-3.9792	-3.9146	-4.5167	-78.349	168.998	82.060	180.172	-67.608	-41.448	175.038	160.428	138.213	72.615	103.958	171.472	44.968	57.208	128.651	136.694	0.00068288	0.00067396	0.00018154	1379.5	1.0945e-05	8.1934e-06	1734.1	375.35	9.2823e-06	5.9214e-06	587.02	177.53	92.502	40.59	6.7511e-06	88.311	0.0024455	0.0034152	0.00095535	1240	3.5849e-05	3.861e-05	1564.8	341.7	3.6905e-05	3.7362e-05	534.04	163.69	86.114	37.48	3.6467e-05	81.014	203.643	-53.691	-24.170	-134.389	32.374	-1.751	-134.649	-130.789	-14.544	82.738	-131.095	-127.391	-126.504	-121.286	37.282	-122.077	-8191	255	
57885.227	1	1	0	0	0.17705	0.31058	0.21697	0.18188	0.16184	0.11666	0.23018	0.21732	0.16242	0.293	0.096714	0.10797	0.2332	0.20587	0.12788	0.1454	-3.3438	-4.35	-4.3854	-3.9375	-4.4771	-4.0521	-4.0021	-4.7812	-3.8271	-4.4083	-4.5958	-3.8479	-4.5271	-4.2479	-3.6917	-4.7063	190.013	21.333	210.926	-141.437	187.304	155.615	162.708	175.266	-114.798	13.630	190.250	29.233	100.922	166.986	167.916	158.203	0.0006556	0.0010892	0.00025581	1393.5	3.6471e-06	5.2654e-06	1716	376.81	8.2526e-06	1.4946e-05	575.72	177.81	92.437	40.635	5.4023e-06	87.189	0.0024088	0.0032999	0.00099365	1251.8	3.5001e-05	3.7107e-05	1560	341.23	3.5432e-05	3.6609e-05	527.58	163.6	85.666	37.333	3.6702e-05	80.188	198.341	-55.095	-60.377	-134.431	-130.314	-38.002	-134.497	-130.992	-6.216	-5.408	-130.810	-127.277	-126.699	-121.150	-5.096	-122.247	-8191	255	
57885.324	1	1	0	0	0.2103	0.23129	0.053388	0.093814	0.144	0.041589	0.20804	0.14282	0.062552	0.33224	0.30805	0.17979	0.17369	0.26592	0.15833	0.23384	-3.4771	-4.0542	-4.4854	-3.7792	-4.4604	-4.1188	-3.9146	-4.5229	-3.8271	-4.0062	-4.5021	-3.6917	-4.3938	-4.1604	-3.7771	-4.8104	22.601	190.345	-66.528	202.073	-73.762	59.554	146.905	125.910	106.180	23.934	157.217	191.470	-112.578	197.342	164.827	166.449	0.00059365	0.00051951	0.00031078	1372.7	2.9708e-06	6.6991e-06	1712.6	371.47	7.6493e-06	2.1389e-06	575.9	176.7	93.035	40.482	2.5093e-06	87.62	0.0023152	0.0033087	0.00098392	1233.6	3.2687e-05	3.8036e-05	1549.8	337.47	3.4842e-05	3.7202e-05	526.63	163.07	85.711	37.413	3.7469e-05	80.633	194.715	-48.226	-31.431	-134.487	34.313	14.299	-134.688	-130.825	13.333	56.564	-131.024	-127.253	-127.171	-121.271	69.390	-122.458	-8191	255	
57885.441	1	1	0	0	0.12978	0.044277	0.22515	0.023219	0.11947	0.2286	0.13575	0.15609	0.18976	0.29911	0.23889	0.34367	0.16348	0.11363	0.064086	0.27566	-3.3583	-4.0188	-4.5396	-3.8063	-4.2688	-4.2625	-4.0917	-4.525	-3.9354	-3.9583	-4.6146	-3.6479	-4.1792	-4.325	-3.7542	-4.7896	-87.853	16.075	39.739	18.445	-114.155	-37.031	207.150	153.378	-42.860	200.794	102.215	161.009	-59.398	107.234	-81.333	169.160	0.0006426	0.00086978	0.00040856	1397	7.9321e-06	8.6676e-06	1743.6	377.32	5.6489e-06	8.9783e-06	592.73	179.51	93.681	41.041	7.3083e-06	89.443	0.0023174	0.0033933	0.0009913	1255.2	3.3315e-05	3.9035e-05	1577.4	343.16	3.4186e-05	3.9242e-05	537.25	165.19	86.789	37.929	3.6948e-05	81.57	196.650	-46.623	-27.163	-134.325	39.514	-0.875	-134.410	-130.817	-47.519	2.180	-130.775	-127.223	-126.184	-120.928	14.810	-122.232	-8191	255	
57885.539	1	1	0	0	0.11175	0.16218	0.17663	0.11553	0.077404	0.10683	0.46733	0.15739	0.18698	0.0619	0.3005	0.13405	0.04308	0.17239	0.061328	0.21463	-3.6208	-3.875	-4.6125	-3.8771	-4.1667	-4.4708	-3.8521	-4.5437	-3.9062	-3.8604	-4.7937	-3.8896	-4.1458	-4.5437	-3.6188	-4.5792	125.693	21.301	20.652	194.922	-39.914	33.721	-123.090	-129.801	-120.550	-57.456	162.454	158.303	163.310	-147.922	68.731	173.406	0.00056844	0.00068314	0.00018335	1411.6	3.5157e-06	6.6467e-06	1766.5	384.45	3.5554e-06	1.2624e-05	594.37	179.78	92.936	41.116	8.029e-06	88.764	0.0023117	0.0034868	0.00096572	1272.1	3.3767e-05	3.9738e-05	1600.8	348.27	3.4927e-05	3.9673e-05	540.44	165.58	86.548	37.859	3.7535e-05	80.887	198.127	-26.011	-111.074	-134.226	37.323	-20.043	-134.410	-130.846	28.045	12.028	-130.887	-127.278	-127.035	-120.958	51.764	-122.194	-8191	255	
57885.609	1	1	0	0	0.19558	0.044734	0.037724	0.24736	0.2098	0.06948	0.16239	0.08938	0.11838	0.28091	0.18003	0.168	0.18015	0.34344	0.1001	0.22766	-3.9625	-3.8	-4.6042	-3.9813	-4.0583	-4.65	-3.85	-4.4167	-4.3187	-3.7333	-4.6354	-3.9896	-3.9229	-4.5896	-3.6292	-4.4958	110.117	24.433	-62.132	186.489	-41.443	-75.781	165.758	115.664	-139.176	152.711	140.798	209.429	136.183	172.894	115.021	155.624	0.00058411	0.0007589	0.00016609	1383	1.0379e-05	1.113e-05	1720.4	371.06	1.4156e-06	5.8308e-06	574.42	174.52	90.5	39.815	8.5793e-07	85.396	0.0023679	0.0036333	0.00097962	1247	3.5108e-05	3.9839e-05	1554	336.34	3.5053e-05	3.9764e-05	521.18	160.21	84.238	36.614	3.6062e-05	78.26	197.084	-65.091	-52.374	-133.949	5.670	-34.377	-134.315	-130.553	-35.415	-21.862	-131.113	-127.026	-126.741	-120.938	107.182	-122.430	-8191	255	
57885.730	1	1	0	0	0.14126	0.095109	0.1929	0.31096	0.17975	0.20576	0.097166	0.19648	0.17543	0.20666	0.15001	0.020032	0.17233	0.37547	0.3075	0.28965	-3.9625	-3.8125	-4.5604	-4.05	-3.7792	-4.5792	-4.0042	-4.1083	-4.2208	-3.6	-4.8021	-4.125	-3.9396	-4.8063	-3.7083	-4.1625	83.165	63.756	-66.204	-140.940	131.525	146.919	132.620	138.819	189.721	141.868	43.865	167.079	183.453	80.849	-112.129	153.507	0.00061473	0.0011176	0.00040351	1378.2	5.3993e-06	3.4998e-06	1703.4	372.42	4.6271e-07	1.0615e-05	576.31	175.95	92.207	40.281	4.9929e-06	86.858	0.0023437	0.0035932	0.00092442	1236	3.5025e-05	3.9283e-05	1546.7	337.47	3.6145e-05	4.051e-05	523.47	161.67	85.139	37.125	3.7271e-05	79.667	205.667	-45.071	-73.929	-134.446	-79.392	-69.862	-134.292	-131.145	-86.349	30.416	-130.940	-127.343	-126.676	-120.923	4.845	-122.663	-8191	255	
57885.828	1	1	0	0	0.026563	0.097007	0.12572	0.22473	0.062012	0.18953	0.040496	0.11513	0.16486	0.15792	0.022342	0.30597	0.4011	0.26277	0.061033	0.19441	-4.0854	-3.7271	-4.4833	-4.2833	-3.7812	-4.6417	-3.9542	-4.1708	-4.4625	-3.4792	-4.6458	-4.2271	-3.7604	-4.5333	-3.9521	-4.1771	199.619	172.185	183.337	164.160	22.835	118.884	191.348	68.058	28.700	-78.021	63.351	196.688	114.279	140.133	-48.462	135.300	0.00054019	0.00082557	0.00018249	1386.3	2.9592e-06	3.778e-06	1716.3	377.84	8.5837e-06	8.2133e-06	585.75	178.06	92.415	40.675	1.1395e-05	87.339	0.0024631	0.0035905	0.00092555	1247.6	3.7054e-05	3.9531e-05	1559.3	341.59	3.7024e-05	4.0185e-05	531.06	163.63	85.899	37.511	3.5984e-05	80.596	203.310	-29.145	-25.077	-134.358	7.255	-7.866	-134.226	-130.890	-54.027	3.686	-131.214	-126.991	-126.776	-121.382	-28.773	-122.512	-8191	255	
57885.926	1	1	0	0	0.093079	0.21032	0.11892	0.23156	0.075418	0.015446	0.10102	0.18398	0.11844	0.08326	0.065454	0.24741	0.24171	0.11026	0.1279	0.18604	-4.1792	-3.7604	-4.3063	-4.2604	-3.6875	-4.6312	-4.1188	-4.1104	-4.4208	-3.7292	-4.4146	-4.425	-3.7625	-4.6562	-3.9333	-4.1021	106.020	-142.397	200.696	190.964	-26.806	-40.690	164.418	159.721	62.549	-2.852	-75.274	96.564	199.327	-109.203	188.332	147.629	0.0006309	0.00091522	0.00040879	1388.5	8.5314e-06	1.1309e-05	1727	374.49	5.9449e-06	1.0969e-05	578.99	176.72	91.873	39.852	9.592e-06	85.843	0.0024261	0.0035502	0.00092931	1252.9	3.6578e-05	3.8218e-05	1560.9	340.32	3.6969e-05	3.9184e-05	527.03	162.3	85.569	36.97	3.6223e-05	79.097	210.597	-104.216	-76.191	-134.427	-0.770	11.605	-134.442	-130.817	14.029	-11.730	-131.224	-127.533	-126.853	-121.494	-35.836	-122.458	-8191	255	
57886.043	1	1	0	0	0.19003	0.034133	0.16381	0.025816	0.03061	0.19443	0.24056	0.24399	0.1114	0.21269	0.083355	0.11651	0.08216	0.23581	0.11129	0.31923	-4.2042	-3.7583	-4.0708	-4.4062	-3.675	-4.3938	-4.3313	-3.9708	-4.6583	-3.5438	-4.15	-4.5021	-3.6188	-4.6104	-4.0479	-4.1375	55.595	196.939	24.737	131.593	-26.706	97.763	146.743	162.474	61.620	-93.950	201.447	181.237	195.804	174.879	-100.271	100.874	0.00056267	0.00041461	0.0001525	1367.6	6.5874e-06	8.6626e-06	1704.3	368.59	3.0243e-06	1.3595e-05	573.28	176.08	91.643	40.422	6.2313e-06	86.981	0.0023552	0.0034713	0.00094474	1229.8	3.5672e-05	3.729e-05	1540.9	334.96	3.5901e-05	3.6978e-05	521.8	161.62	84.995	37.064	3.6873e-05	79.681	196.872	36.140	-39.086	-134.135	-62.147	91.431	-134.277	-131.008	27.482	3.760	-130.861	-127.050	-126.818	-121.072	-55.537	-122.844	-8191	255	
57886.141	1	1	0	0	0.22022	0.034462	0.20613	0.019726	0.093435	0.062364	0.22234	0.12918	0.19937	0.11527	0.079027	0.14013	0.2071	0.18313	0.19626	0.13303	-4.1875	-3.8854	-4.0896	-4.7083	-3.6312	-4.4708	-4.4354	-3.9604	-4.6937	-3.8312	-4.1958	-4.5938	-3.7208	-4.3417	-4.3104	-3.8479	-32.166	-122.908	-73.255	103.529	-60.407	-1.813	158.126	121.370	-101.408	60.663	154.507	-113.281	-137.135	114.736	61.847	177.314	0.00056244	0.0012453	0.00038198	1371.9	6.0543e-06	2.9476e-06	1722.7	376.46	8.5165e-06	3.6923e-06	582.71	178.44	93.299	40.875	6.8887e-06	88.064	0.002391	0.0033526	0.00094836	1236.9	3.4911e-05	3.6042e-05	1553.7	339.59	3.5075e-05	3.723e-05	530.46	164.11	86.288	37.672	3.7521e-05	81.085	206.844	-47.071	-83.955	-134.134	31.074	-16.042	-134.142	-130.872	56.042	130.798	-131.150	-126.977	-126.724	-121.323	26.972	-122.681	-8191	255	
57886.234	1	1	0	0	0.18806	0.19901	0.09193	0.27019	0.069137	0.17819	0.2467	0.15194	0.12453	0.29614	0.29375	0.218	0.11062	0.20032	0.21174	0.045048	-4.3187	-3.8937	-3.7729	-4.6875	-3.4542	-4.2	-4.5292	-3.7188	-4.6333	-4.0479	-4	-4.7354	-3.7917	-4.3688	-4.4729	-3.7271	145.996	-60.337	97.239	185.564	134.088	-64.066	114.716	95.577	49.928	115.276	197.162	-133.912	207.219	-135.747	92.391	186.819	0.00058622	0.0008794	0.0002051	1397.2	4.9131e-06	2.0105e-06	1752.2	377.46	8.5662e-06	4.572e-06	588.28	179.81	93.363	40.964	7.88e-06	88.457	0.0022997	0.0033874	0.0009809	1256.7	3.4203e-05	3.663e-05	1584.9	344.64	3.4413e-05	3.9033e-05	536.39	165.68	86.749	37.847	3.8275e-05	81.347	201.326	-140.985	-82.804	-134.245	53.290	19.272	-134.326	-131.140	-29.233	150.943	-131.156	-127.292	-127.203	-121.405	-24.820	-122.405	-8191	255	
57886.309	1	1	0	0	0.10252	0.11687	0.19783	0.18675	0.13701	0.17433	0.11554	0.12789	0.27971	0.131	0.16655	0.18014	0.14473	0.41102	0.11681	0.21657	-4.2208	-4.1062	-3.7521	-4.6104	-3.8729	-4.1417	-4.6833	-3.8875	-4.4187	-4.1271	-3.8708	-4.7583	-3.8583	-4.0625	-4.5021	-3.8688	157.380	72.274	18.309	180.759	90.985	58.713	122.857	-89.965	-112.165	163.603	164.669	83.426	185.134	206.186	-122.606	-123.177	0.0006511	0.00063086	0.00018825	1386.9	2.272e-06	5.3279e-06	1728.9	371.34	2.8269e-06	7.243e-06	571.31	174.34	90.951	39.932	5.3842e-06	86.134	0.0022894	0.0035461	0.0010098	1250.3	3.4825e-05	3.8809e-05	1563.2	337.37	3.5088e-05	4.0657e-05	522.36	160.34	84.357	36.948	3.8352e-05	78.922	200.498	-37.358	-65.677	-133.934	-89.545	85.115	-134.441	-131.097	-33.141	50.784	-131.029	-127.559	-126.598	-121.699	122.903	-122.628	-8191	255	
57886.426	1	1	0	0	0.1222	0.11531	0.1658	0.27715	0.12479	0.15923	0.08872	0.17525	0.21283	0.10492	0.13154	0.22042	0.14672	0.097087	0.30225	0.22153	-3.9083	-4.0792	-3.5458	-4.6188	-3.9229	-4.0146	-4.8375	-3.7938	-4.2875	-4.35	-3.7562	-4.6854	-4.0646	-3.9667	-4.5146	-3.9188	-25.103	104.269	-37.516	191.981	185.169	57.484	124.354	72.912	-135.848	201.341	-132.026	-140.639	185.331	61.899	-69.361	168.694	0.00058904	0.0013071	0.00015389	1373.2	2.5631e-06	3.8088e-06	1730.7	370.96	3.9267e-06	7.7217e-06	576.51	175.22	90.418	40.36	5.1814e-06	86.611	0.0023836	0.0036138	0.0010124	1234	3.4672e-05	4.0147e-05	1556.7	337.03	3.5735e-05	4.216e-05	523.51	161.06	84.927	37.36	3.834e-05	79.696	202.854	-99.850	164.609	-134.639	-48.601	23.720	-134.655	-131.079	9.252	-24.037	-131.176	-127.158	-126.559	-121.540	-33.541	-122.402	-8191	255	
57886.523	1	1	0	0	0.23269	0.18605	0.088448	0.30918	0.14746	0.1161	0.34801	0.43161	0.12426	0.077046	0.038301	0.11241	0.20023	0.13677	0.11596	0.1403	-3.9167	-4.25	-3.7104	-4.7583	-4.0292	-3.8354	-4.7188	-3.7875	-4.2875	-4.3333	-3.7646	-4.6229	-4.05	-3.8042	-4.55	-3.7625	-127.860	110.121	29.275	208.066	-4.967	-58.958	130.180	144.786	-81.881	-62.949	-112.165	-146.810	-109.962	195.505	57.423	-115.776	0.00064823	0.00030734	0.00016892	1375.5	3.1993e-06	1.2794e-05	1735.7	371.93	9.2623e-06	9.2615e-06	579.49	177.12	92.636	40.768	9.0654e-06	88.298	0.0024307	0.0037183	0.0010116	1240.3	3.6332e-05	4.1162e-05	1562.5	338.35	3.6668e-05	4.1659e-05	528.67	163.12	86.168	37.738	3.7356e-05	81.144	199.515	-125.413	-95.199	-134.448	-5.300	27.084	-134.011	-130.889	-34.735	-24.651	-130.901	-127.132	-126.579	-120.768	-19.358	-122.330	-8191	255	
57886.617	1	1	0	0	0.065638	0.14757	0.34414	0.22082	0.026666	0.052364	0.20406	0.26147	0.064808	0.044592	0.24816	0.11929	0.16439	0.039724	0.19104	0.12853	-3.8292	-4.3458	-3.4458	-4.6583	-4.2146	-3.7438	-4.8187	-4.0854	-3.9583	-4.5042	-3.7896	-4.4042	-4.3438	-3.8917	-4.6708	-4.1021	146.000	96.691	-146.441	150.958	70.119	115.152	140.346	89.204	-111.956	132.318	184.797	151.509	-142.085	-119.841	-110.301	61.287	0.00049513	0.0010393	0.00029353	1395.3	2.1679e-06	8.5982e-06	1729.2	373.06	5.882e-06	1.7515e-05	578.22	177.39	92.826	40.214	1.3974e-05	86.99	0.0024302	0.0037003	0.00099376	1250.5	3.7131e-05	4.0926e-05	1563.2	339.4	3.7724e-05	4.0411e-05	526.48	163.3	86.049	37.393	3.6058e-05	80.159	198.556	-82.421	-69.209	-134.260	58.240	101.867	-134.283	-130.981	-57.409	-14.535	-130.967	-127.048	-126.702	-121.160	-20.336	-122.692	-8191	255	
57886.715	1	1	0	0	0.17756	0.13126	0.10046	0.10741	0.10583	0.12906	0.22796	0.18032	0.38699	0.12293	0.25635	0.090064	0.10079	0.068636	0.04148	0.21654	-3.5312	-4.5	-3.8208	-4.4896	-4.2771	-3.7896	-4.7854	-4.1604	-3.9271	-4.6104	-3.825	-4.3542	-4.3396	-3.9042	-4.4646	-4.0667	-50.412	197.474	207.458	202.381	-25.582	129.641	140.215	141.094	189.814	-106.090	150.220	50.413	209.452	-41.076	8.207	94.195	0.00064784	0.0013334	0.00020198	1362	2.7121e-06	6.4139e-06	1704.2	368.51	5.1909e-06	8.5211e-06	571.72	176.54	92.384	40.764	9.4396e-06	88.35	0.0024466	0.0036444	0.00095581	1225.3	3.7012e-05	4.0925e-05	1536	333.5	3.7605e-05	4.0382e-05	521.44	162.4	86.093	37.605	3.5966e-05	81.083	196.183	-20.083	-92.445	-134.329	-44.734	-12.962	-134.154	-130.705	-5.402	16.505	-130.904	-127.527	-126.164	-121.124	-42.104	-122.578	-8191	255	
57886.836	1	1	0	0	0.14937	0.19864	0.27597	0.323	0.20537	0.093549	0.38018	0.22125	0.29049	0.062989	0.17573	0.14136	0.12793	0.18431	0.11538	0.10302	-3.5	-4.5312	-3.825	-4.2229	-4.4479	-3.7167	-4.6271	-4.2375	-3.6729	-4.575	-3.9333	-4.1625	-4.4875	-3.775	-4.5667	-4.2479	-75.381	-127.481	135.695	200.578	32.416	-61.531	146.610	-145.567	199.386	48.996	-118.277	28.146	-142.770	191.752	75.816	171.137	0.00064254	0.00092234	0.00021935	1375.7	2.0138e-06	5.619e-06	1718.8	376.23	6.6835e-06	8.6809e-06	585.69	180.25	93.904	41.938	3.9461e-06	90.336	0.0024803	0.0035363	0.00094999	1236.4	3.7486e-05	4.0271e-05	1555.9	340.41	3.8241e-05	3.9083e-05	531.54	165.76	87.367	38.504	3.6898e-05	83.188	196.635	-56.220	-66.165	-133.883	-5.292	-65.531	-134.214	-130.627	-37.434	-2.670	-131.063	-127.253	-126.808	-120.975	-43.423	-122.404	-8191	255	
57886.906	1	1	0	0	0.12261	0.22633	0.049893	0.29009	0.17695	0.20549	0.47539	0.17467	0.1382	0.25553	0.22752	0.24126	0.090544	0.06765	0.15354	0.32442	-3.5667	-4.5708	-3.7021	-4.2896	-4.6521	-3.8292	-4.4854	-4.4125	-3.8667	-4.3875	-4.125	-4.0604	-4.4458	-3.8625	-4.3438	-4.5083	169.462	209.365	182.762	-110.093	61.029	93.275	165.234	178.217	-102.696	27.919	119.656	175.283	129.142	158.974	47.453	135.121	0.00060424	0.00053725	0.00030759	1395.1	6.3389e-06	9.1898e-06	1753	381.98	7.6971e-06	1.0347e-05	598.37	182.29	94.819	42.076	6.918e-06	90.002	0.0025443	0.0036057	0.0010117	1255.4	3.8677e-05	4.041e-05	1583.2	345.7	3.8849e-05	4.0263e-05	542.04	167.67	88.507	38.677	3.8931e-05	82.442	197.649	61.454	-55.326	-134.246	16.164	-48.543	-134.336	-130.703	-61.137	4.773	-130.961	-127.429	-126.835	-121.101	-16.694	-122.326	-8191	255	
57887.004	1	1	0	0	0.15207	0.23405	0.050866	0.20785	0.26131	0.15233	0.35228	0.14511	0.07225	0.17046	0.15009	0.119	0.2283	0.12205	0.20752	0.021315	-3.3875	-4.6188	-3.9375	-4.0312	-4.3604	-3.8812	-4.2604	-4.525	-3.7083	-4.4854	-4.125	-3.9188	-4.55	-3.7521	-4.1833	-4.6125	-27.375	74.254	136.047	156.519	55.877	58.410	143.749	69.893	22.899	57.695	131.015	116.840	4.659	69.940	179.700	29.839	0.00066572	0.00059622	0.00043367	1383.5	4.4986e-06	1.5729e-05	1713	370.23	4.426e-06	1.6503e-05	575.04	175.3	92.02	40.356	6.9333e-06	86.876	0.0025852	0.0036228	0.0010593	1245.1	3.8052e-05	4.1081e-05	1552	336.51	3.894e-05	4.052e-05	523.56	161.83	85.462	37.29	4.0038e-05	79.729	188.021	-79.168	-88.377	-134.358	-22.346	-29.599	-134.421	-130.621	-58.938	8.038	-131.022	-127.195	-126.662	-121.237	-1.401	-122.647	-8191	255	
57887.125	1	1	0	0	0.18473	0.054206	0.088957	0.071988	0.16464	0.12149	0.13132	0.1537	0.1678	0.16339	0.19465	0.19707	0.27497	0.10226	0.21853	0.2515	-3.3271	-4.4146	-4.075	-3.9313	-4.6417	-3.8104	-4.3521	-4.5604	-3.5375	-4.4146	-4.1854	-3.7521	-4.5333	-4.0083	-3.8542	-4.6021	-87.736	178.698	54.620	-104.830	87.976	-108.660	66.825	137.131	98.338	-34.777	153.749	203.068	207.706	170.441	68.536	182.814	0.00057924	0.00061519	0.00014137	1358.5	6.3341e-06	5.9829e-06	1688.1	369.08	5.5672e-06	1.1607e-05	571.7	175.97	91.458	40.384	6.7712e-06	87.094	0.002545	0.0036684	0.0010958	1223.9	3.6817e-05	4.0701e-05	1533.3	335.71	3.8056e-05	4.1429e-05	521.7	162.1	85.579	37.437	4.1551e-05	80.319	201.898	-75.744	57.484	-134.364	36.199	56.901	-134.812	-131.008	-23.728	30.066	-130.774	-127.275	-126.773	-120.737	-34.166	-122.406	-8191	255	
57887.219	1	1	0	0	0.11522	0.11202	0.086726	0.13941	0.048374	0.094313	0.27473	0.34716	0.2654	0.1114	0.18082	0.19222	0.15877	0.086277	0.054116	0.25672	-3.3917	-4.1583	-4.2625	-3.9104	-4.5	-3.8604	-4.0542	-4.7021	-3.7104	-4.2417	-4.5417	-3.8271	-4.5229	-4.1375	-3.9083	-4.7	-64.810	6.782	45.997	166.295	152.617	-134.253	174.048	142.567	91.812	29.450	163.578	156.210	113.512	148.076	-55.183	185.304	0.00069647	0.00038036	0.00020805	1363.7	4.4322e-06	1.3354e-05	1693	370.27	7.0916e-06	5.275e-06	581.91	178.98	93.46	41.015	6.433e-06	88.872	0.0025312	0.0037487	0.0011113	1226.6	3.7198e-05	4.2992e-05	1537.9	337.22	3.8596e-05	4.2438e-05	528.62	164.87	86.837	38.132	4.1407e-05	81.69	198.363	136.204	5.958	-134.670	-38.328	-1.904	-134.259	-130.696	-88.687	-13.503	-130.881	-127.229	-126.462	-121.673	71.550	-122.375	-8191	255	
57887.316	1	1	0	0	0.1462	0.043221	0.1315	0.22042	0.16063	0.13875	0.26885	0.1101	0.039053	0.18599	0.25236	0.25926	0.10375	0.070963	0.22025	0.17175	-3.45	-4.2625	-4.35	-3.9125	-4.3979	-4.0604	-4.0333	-4.7312	-3.7708	-4.0583	-4.4917	-3.9042	-4.5875	-4.1771	-3.6396	-4.6396	9.164	162.884	194.139	201.108	128.414	143.874	171.348	161.806	37.280	164.460	152.190	175.048	153.240	113.470	-9.789	72.936	0.00057405	0.0011115	0.00016989	1376.7	5.6871e-06	4.4629e-06	1714.1	371.99	6.6187e-06	9.9147e-06	576.52	179.72	93.36	41.54	3.0934e-06	88.34	0.0024962	0.0039041	0.0011106	1236.9	3.7109e-05	4.4444e-05	1554.2	338.92	3.8625e-05	4.4156e-05	527.45	165.03	86.882	38.256	4.0893e-05	81.008	195.919	-104.748	-37.515	-134.134	44.046	75.314	-134.378	-130.547	-113.584	48.215	-130.873	-126.937	-126.723	-120.942	111.133	-122.193	-8191	255	
57887.410	1	1	0	0	0.18994	0.16934	0.13858	0.15857	0.2703	0.16277	0.2198	0.20546	0.13987	0.1824	0.14026	0.27579	0.37139	0.064519	0.13929	0.11286	-3.45	-4.0563	-4.4104	-3.8542	-4.2042	-4.1958	-4.0104	-4.6937	-3.9646	-3.8458	-4.6854	-3.7667	-4.4	-4.3896	-3.6667	-4.7125	-120.288	179.987	-123.703	116.564	187.630	99.722	157.905	173.748	138.432	187.117	73.317	-135.999	-138.645	-98.512	-69.794	-138.586	0.00055616	0.00035629	0.00021226	1353.3	4.3821e-06	1.0575e-05	1677.9	366.13	5.2838e-06	7.9074e-06	571.79	175.82	92.82	40.698	2.7459e-06	87.875	0.0025367	0.0038709	0.0010573	1218.2	3.792e-05	4.4432e-05	1525.8	333.79	3.9689e-05	4.3385e-05	521.56	162.64	86.05	37.729	3.9826e-05	80.764	202.867	-147.779	-34.364	-134.440	-28.226	21.948	-134.356	-130.528	24.139	50.350	-130.889	-127.387	-127.246	-120.899	5.548	-122.301	-8191	255	
57887.508	1	1	0	0	0.030915	0.16506	0.13248	0.17932	0.22157	0.27639	0.26158	0.051654	0.30649	0.214	0.12171	0.28186	0.20843	0.2314	0.089222	0.2424	-3.5687	-3.9042	-4.5083	-3.9458	-4.2771	-4.4042	-3.9333	-4.6229	-4.0458	-3.9729	-4.6458	-3.8479	-4.1687	-4.5292	-3.7167	-4.6042	157.708	-67.173	145.444	183.717	206.788	109.032	146.655	77.570	115.716	-52.623	107.758	139.531	125.877	175.790	-89.662	177.897	0.00054028	0.00046749	0.00026992	1361.2	1.2941e-06	1.1736e-05	1694.5	370.09	2.4557e-06	8.4967e-06	580.5	179.12	93.861	41.564	7.3984e-06	89.49	0.0025893	0.0038857	0.0010388	1220.7	3.8523e-05	4.2987e-05	1533.1	336.22	3.9803e-05	4.2769e-05	527.62	165.36	87.19	38.452	3.8317e-05	82.261	187.736	-17.164	11.774	-134.245	2.897	39.993	-134.567	-130.669	-14.024	-22.585	-131.211	-127.120	-126.702	-120.952	-63.247	-122.747	-8191	255	
57887.605	1	1	0	0	0.36015	0.013598	0.25919	0.22433	0.26565	0.1464	0.34306	0.21175	0.18248	0.27888	0.25328	0.17813	0.30169	0.22112	0.18982	0.14968	-3.8542	-3.8604	-4.575	-3.85	-4.0979	-4.2833	-3.7729	-4.6229	-4.1562	-3.6562	-4.7896	-3.9562	-3.9167	-4.5396	-3.6583	-4.5625	-77.762	-16.875	-85.722	-136.542	-102.501	-73.109	144.789	123.208	-77.330	155.034	117.200	117.375	126.348	199.993	185.240	140.538	0.00065426	0.00055405	0.00020715	1365.5	4.4259e-06	3.7443e-06	1713	376.85	1.3001e-06	1.758e-06	591.85	184.08	96.426	42.37	1.1991e-05	90.616	0.0026966	0.0039124	0.00098983	1235.7	3.9425e-05	4.3471e-05	1553.9	341.73	4.0944e-05	4.2754e-05	537.38	169.15	89.189	39.038	3.863e-05	83.272	198.706	-28.044	4.149	-134.201	119.927	-97.946	-134.515	-130.625	33.577	112.101	-130.806	-127.490	-126.810	-120.724	-9.889	-122.438	-8191	255	
57887.723	1	1	0	0	0.1777	0.19069	0.15954	0.29419	0.16925	0.1404	0.20731	0.11344	0.38	0.061045	0.21334	0.19515	0.13347	0.21299	0.093748	0.13796	-3.8167	-3.7313	-4.5521	-3.9708	-3.9146	-4.45	-3.9292	-4.3583	-4.1896	-3.8187	-4.8313	-4.1854	-4.0437	-4.7292	-3.5958	-4.3875	-31.552	171.898	3.604	163.315	195.259	-50.061	132.653	131.747	-51.411	-32.211	187.581	184.061	-1.675	180.751	-78.576	161.707	0.00052528	0.0005158	0.00031798	1376.5	4.1851e-06	1.127e-05	1704.2	370.1	5.3361e-06	5.694e-06	573.71	178.01	93.065	41.109	1.2306e-05	88.73	0.0026478	0.0038045	0.0009871	1234.7	3.9227e-05	4.1582e-05	1541.3	337.31	4.0023e-05	4.1306e-05	524.14	164.51	86.712	37.871	3.8513e-05	81.057	204.183	-133.475	-57.027	-134.181	69.070	-37.602	-134.388	-131.040	-68.799	134.863	-130.862	-127.206	-126.767	-121.405	-21.004	-122.332	-8191	255	
57887.820	1	1	0	0	0.22001	0.17097	0.042991	0.22576	0.046545	0.19755	0.35696	0.19034	0.080028	0.14926	0.036479	0.15998	0.088903	0.23429	0.092878	0.11984	-3.9042	-3.4396	-4.3771	-4.1146	-3.8333	-4.6458	-3.9479	-4.1625	-4.325	-3.4792	-4.6167	-4.0542	-3.7583	-4.5312	-3.8812	-4.3542	69.005	66.381	-104.796	206.914	133.997	-21.035	178.118	195.613	-137.888	-105.667	67.016	17.537	-27.846	203.643	56.119	198.617	0.00061069	0.00063498	0.00024431	1344.9	3.9063e-06	5.7604e-06	1690.6	370.49	5.6887e-06	1.371e-05	574.76	177.82	92.55	40.641	1.7367e-06	87.734	0.0025189	0.0036291	0.0010071	1214.5	3.8079e-05	3.9567e-05	1529	335.21	3.966e-05	4.018e-05	524.33	163.68	86.314	37.709	4.0601e-05	80.858	202.888	-72.353	-25.974	-134.216	-79.427	74.862	-134.255	-130.876	-61.272	-5.911	-131.156	-127.013	-126.688	-121.414	-9.004	-121.968	-8191	255	
57887.918	1	1	0	0	0.14212	0.23556	0.12052	0.26695	0.12228	0.14686	0.34956	0.18502	0.13186	0.17561	0.2246	0.20693	0.20272	0.24554	0.23359	0.22443	-4.2542	-3.525	-4.2083	-4.3438	-3.7708	-4.4271	-4.1062	-4.1292	-4.4646	-3.6625	-4.4021	-4.3875	-3.6188	-4.5083	-3.8792	-4.0083	90.811	-56.945	36.681	-134.524	-7.724	26.121	187.126	110.672	-52.341	25.974	160.731	-126.823	169.046	146.838	101.183	95.214	0.00050369	0.00064634	0.00037552	1355.5	4.6887e-06	8.3563e-06	1699.1	374.02	3.4769e-06	7.2585e-06	578.46	179.02	93.221	41.514	9.1909e-06	89.476	0.0025745	0.003655	0.0010525	1226.1	3.81e-05	3.9993e-05	1540	338.73	3.8863e-05	4.0341e-05	528.3	165.24	86.85	38.117	4.1825e-05	81.966	197.114	-37.197	-119.052	-134.300	68.895	-4.572	-134.643	-130.671	-25.374	-45.970	-130.955	-127.016	-127.189	-121.162	-13.772	-122.405	-8191	255	
57888.012	1	1	0	0	0.16399	0.078538	0.11853	0.17675	0.073588	0.073827	0.39686	0.19887	0.14616	0.069259	0.26499	0.13555	0.10437	0.14132	0.23016	0.28173	-4.2125	-3.6292	-4.3625	-4.3875	-3.6896	-4.7271	-4.2271	-3.9917	-4.6	-3.7708	-4.2833	-4.5563	-3.6813	-4.4812	-4.0646	-3.8688	180.200	173.252	-47.445	176.611	150.564	-110.148	172.933	158.758	172.972	106.655	148.338	154.810	-11.829	-142.369	7.300	106.255	0.00059134	0.00056167	0.00019581	1367.7	3.1843e-06	3.262e-06	1711.1	373.93	3.3593e-06	1.3313e-05	580.38	179.17	93.428	41.021	1.0559e-05	88.416	0.0025127	0.0037849	0.0010946	1238.3	3.7964e-05	4.0499e-05	1547.5	339.85	3.7967e-05	4.3079e-05	527.51	165.47	87.146	38.013	4.2014e-05	81.01	198.133	85.310	-79.123	-134.266	-7.465	38.791	-134.131	-130.768	7.617	34.301	-130.883	-127.245	-126.796	-121.163	-20.597	-122.711	-8191	255	
57888.133	1	1	0	0	0.1051	0.16083	0.20976	0.17913	0.16759	0.22924	0.21064	0.053353	0.17543	0.25026	0.050155	0.15276	0.15349	0.074476	0.29196	0.10697	-4.2542	-3.7438	-4.175	-4.5833	-3.8	-4.3979	-4.3104	-4.0271	-4.5375	-3.9062	-4.2396	-4.6	-3.6229	-4.5021	-4.0542	-3.9417	-29.786	-23.570	173.608	58.591	77.305	-67.648	150.820	161.067	-137.325	123.534	24.395	132.258	155.038	-91.067	101.798	-9.257	0.00069675	0.00079099	0.00023761	1341.4	3.5365e-06	1.0499e-05	1680.6	366.38	6.5787e-06	9.3647e-06	567.35	176.73	92.761	40.918	3.4543e-06	87.164	0.0024962	0.0039037	0.0011038	1214.4	3.7039e-05	4.1916e-05	1522.6	333.69	3.7337e-05	4.275e-05	519.35	163.39	86.032	37.722	4.2006e-05	80.659	199.195	-67.717	-31.175	-134.256	-44.695	-84.790	-134.459	-130.818	-59.501	-73.744	-130.860	-127.037	-126.140	-121.426	66.371	-122.756	-8191	255	
57888.203	1	1	0	0	0.060191	0.1466	0.11507	0.302	0.081184	0.16702	0.29213	0.24518	0.24152	0.1859	0.39037	0.19288	0.042094	0.16888	0.13151	0.12092	-4.2354	-3.9396	-3.9813	-4.5687	-3.5625	-4.3521	-4.4958	-3.9146	-4.4458	-3.9583	-4.0208	-4.6333	-3.6667	-4.2812	-4.3542	-3.6833	-102.952	118.339	-145.795	166.144	64.894	188.746	106.411	128.438	-140.482	118.856	-124.487	-138.655	30.394	-122.681	101.073	57.124	0.00050918	0.0014078	0.00020322	1351.5	5.0115e-06	3.514e-06	1685.3	370.36	7.5622e-06	1.636e-05	577.67	178.72	93.384	41.636	1.1171e-05	89.458	0.0024702	0.0039055	0.0010985	1217.4	3.7752e-05	4.3135e-05	1530.6	336.2	3.7089e-05	4.3862e-05	525.1	165.14	87.03	38.344	4.0592e-05	82.072	201.001	-46.948	-43.958	-133.968	-7.117	35.865	-134.310	-130.769	-28.351	-29.173	-130.678	-127.002	-126.957	-120.892	-23.728	-122.189	-8191	255	
57888.301	1	1	0	0	0.16602	0.20477	0.27978	0.22854	0.16384	0.082202	0.29076	0.13946	0.23331	0.075798	0.20714	0.11288	0.19199	0.13151	0.074748	0.35385	-4.225	-4.0188	-3.7917	-4.5708	-3.8125	-4.2542	-4.5583	-3.6979	-4.5167	-4.05	-4.0125	-4.6667	-3.7396	-4.1375	-4.3646	-3.8125	161.438	93.501	-36.155	153.225	64.923	-30.459	182.605	205.237	-48.523	188.077	177.664	121.223	176.782	147.225	75.853	161.127	0.00065239	0.00059542	0.0001117	1365.1	8.9076e-06	6.9965e-06	1705.4	374.26	7.4231e-06	3.0087e-06	584.68	181.95	94.715	41.984	1.7172e-05	89.7	0.0024718	0.0039759	0.0010813	1226.8	3.8636e-05	4.3543e-05	1545.9	340.14	3.8338e-05	4.417e-05	532.71	167.78	88.395	38.661	4.0429e-05	82.599	198.684	8.322	83.274	-133.961	-1.533	50.124	-134.279	-130.711	-49.780	-21.673	-131.030	-126.894	-126.906	-121.110	13.950	-122.479	-8191	255	
57888.395	1	1	0	0	0.30754	0.13296	0.18764	0.22397	0.26595	0.22021	0.23337	0.062382	0.0094635	0.17185	0.062736	0.23853	0.020239	0.22587	0.21556	0.17149	-4.0604	-3.9771	-3.725	-4.7354	-3.7333	-4.15	-4.6229	-3.7833	-4.3375	-4.1937	-3.8063	-4.6813	-3.8	-3.9437	-4.5	-3.6813	10.720	167.137	165.828	175.215	67.900	29.146	208.675	55.625	-9.775	-67.196	43.701	100.497	118.457	205.219	-100.708	162.751	0.00063442	0.00052379	0.00035755	1364.8	7.0427e-06	2.436e-06	1693.5	370.2	4.5056e-06	2.4912e-06	572.84	177.68	93.013	40.924	7.9666e-06	88.16	0.0025789	0.0040107	0.0010514	1229.9	3.8929e-05	4.3418e-05	1537.4	336.24	3.9332e-05	4.3635e-05	520.52	164.07	86.788	37.663	3.9352e-05	80.612	194.908	-76.354	-63.630	-134.279	-17.095	137.475	-134.009	-130.861	-25.677	-87.963	-131.008	-127.195	-126.457	-120.936	-85.908	-122.812	-8191	255	
57888.492	1	1	0	0	0.3484	0.23226	0.22916	0.075968	0.16803	0.031291	0.4496	0.25045	0.01265	0.17996	0.029954	0.13158	0.30039	0.23144	0.068654	0.23278	-4.0833	-4.2542	-3.6479	-4.7458	-3.9083	-3.8979	-4.675	-3.8854	-4.3458	-4.3042	-3.6792	-4.5271	-4.0083	-3.9521	-4.5938	-3.8333	-38.567	148.434	68.056	-99.047	15.040	207.547	155.709	200.976	-139.381	-38.118	131.649	90.069	103.503	-130.366	206.614	126.933	0.0006254	0.00079244	0.00021505	1336.9	6.986e-06	8.3847e-06	1676.3	369.11	1.0921e-05	9.0883e-06	569.88	177.77	92.226	40.516	6.8238e-06	88.054	0.0025827	0.0039081	0.0010305	1210.2	4.0328e-05	4.2853e-05	1520.6	334.3	3.9884e-05	4.4189e-05	519.36	163.67	86.395	37.58	3.7936e-05	80.488	197.805	-57.391	-97.852	-133.990	-18.489	-51.456	-134.081	-130.785	-12.806	-40.887	-130.928	-127.462	-126.629	-121.014	90.059	-122.375	-8191	255	
57888.613	1	1	0	0	0.22079	0.19646	0.17839	0.33258	0.13326	0.15538	0.346	0.18293	0.053959	0.11559	0.29807	0.17231	0.13787	0.23713	0.056654	0.14631	-3.8	-4.3375	-3.6583	-4.65	-4.225	-3.7958	-4.7667	-3.9437	-4.1292	-4.5042	-3.8688	-4.6271	-4.225	-3.8021	-4.5979	-4	207.141	110.519	-32.826	190.164	-2.745	202.806	141.710	-74.298	32.938	138.682	-135.370	150.484	-117.311	-99.914	-2.784	164.935	0.00054472	0.0010275	8.0288e-05	1346.1	1.4462e-06	1.0735e-05	1682.2	368.89	4.9302e-06	7.8816e-06	576.74	180.5	93.905	41.331	1.1492e-05	88.831	0.0026375	0.0038463	0.0010137	1216.4	4.0893e-05	4.3007e-05	1528.9	336.08	4.0838e-05	4.2767e-05	524.49	165.57	87.671	38.288	3.885e-05	82.071	204.196	-80.741	9.211	-134.181	-19.143	54.777	-134.342	-130.686	-42.826	-3.481	-130.946	-127.487	-126.515	-121.186	12.549	-122.316	-8191	255	
57888.711	1	1	0	0	0.087903	0.10013	0.19942	0.18912	0.094051	0.22848	0.15413	0.38186	0.16028	0.14419	0.24015	0.21012	0.21744	0.15446	0.08128	0.12256	-3.6813	-4.5458	-3.6688	-4.4354	-4.2188	-3.725	-4.8708	-3.975	-4.0792	-4.4042	-3.8854	-4.3354	-4.2354	-3.6312	-4.6271	-4.0479	-58.293	17.706	-118.535	175.364	38.235	76.310	133.170	164.178	72.159	-94.357	178.881	-118.082	157.534	199.808	-144.555	122.791	0.00057327	0.0010077	0.00041588	1367.1	1.0291e-05	3.6997e-06	1699	373.95	6.5503e-06	6.185e-06	576.33	179.25	93.236	41.21	1.0449e-05	88.8	0.002698	0.0038036	0.0010413	1230	3.9989e-05	4.1795e-05	1541.9	338.86	4.0133e-05	4.1542e-05	525.05	165.71	87.264	38.02	3.935e-05	81.565	206.995	-41.726	-65.583	-134.202	28.401	172.806	-134.325	-130.819	-30.351	63.613	-131.116	-127.282	-126.015	-121.042	-20.126	-122.215	-8191	255	
57888.805	1	1	0	0	0.014814	0.13992	0.073978	0.13856	0.15579	0.13357	0.17077	0.077271	0.044091	0.020429	0.05226	0.26135	0.017563	0.16234	0.21848	0.14948	-3.4583	-4.6208	-3.6875	-4.3542	-4.3208	-3.6354	-4.7708	-4.0896	-3.7646	-4.6	-3.7958	-4.1542	-4.4792	-3.6354	-4.4833	-4.275	199.825	34.918	-2.286	197.693	-79.326	-92.480	160.078	126.745	203.306	-42.009	-103.436	127.985	-80.760	173.450	-134.411	92.769	0.00056753	0.0020539	9.4981e-05	1352.4	6.8086e-06	1.2446e-05	1669.5	367.79	9.2233e-06	1.2311e-06	569.2	176.36	92.482	40.644	4.3877e-06	87.911	0.0026752	0.0037048	0.0010681	1214.6	3.9449e-05	4.2143e-05	1519.3	332.75	3.9173e-05	4.0007e-05	517.95	163.11	86.189	37.577	4.0884e-05	80.943	200.695	-42.966	-67.415	-134.511	-4.106	-6.991	-134.329	-130.668	-43.212	211.222	-131.028	-127.068	-126.103	-120.960	34.511	-122.290	-8191	255	
57888.902	1	1	0	0	0.11871	0.25692	0.32382	0.2394	0.10091	0.21059	0.060148	0.15891	0.14703	0.053306	0.20983	0.17681	0.14054	0.23192	0.10386	0.11331	-3.6833	-4.5875	-3.7	-4.2438	-4.4125	-3.6604	-4.6854	-4.2958	-3.7646	-4.6354	-3.9437	-4.2479	-4.6167	-3.7646	-4.3688	-4.4208	54.540	64.772	33.971	-143.059	40.148	-130.358	175.271	76.605	55.566	-18.084	117.612	152.105	-144.519	134.896	-147.991	203.495	0.00059256	0.0012578	0.00027977	1351	3.8965e-06	1.7422e-05	1680.4	369.99	4.827e-06	6.7905e-06	571.82	178.54	93.116	41.351	1.0068e-05	89.076	0.0025191	0.0036374	0.0010961	1213.2	3.8099e-05	4.2125e-05	1524.6	335.54	3.893e-05	4.0863e-05	522.92	165.11	87.099	38.123	4.1323e-05	81.974	196.336	-64.197	-37.133	-134.205	-19.049	-13.327	-134.281	-130.927	-62.766	-15.262	-130.918	-127.321	-126.374	-120.958	1.107	-122.251	-8191	255	
57888.996	1	1	0	0	0.22626	0.18649	0.1562	0.12826	0.20066	0.13476	0.040581	0.31678	0.071257	0.061242	0.27522	0.14618	0.17857	0.16575	0.26929	0.074278	-3.3583	-4.4708	-3.9458	-4.0354	-4.4792	-3.6437	-4.3875	-4.5229	-3.6167	-4.5	-4.0563	-4.0375	-4.6208	-3.6667	-4.1792	-4.6146	-53.899	-110.794	48.191	141.825	60.877	180.170	118.534	160.746	-2.129	40.053	97.387	174.121	201.767	196.198	75.153	-146.365	0.0007336	0.0003928	6.4054e-05	1350	6.0932e-06	1.1566e-05	1714.9	373.85	4.6815e-06	5.2617e-06	581.66	182.08	95.669	42.271	4.4635e-06	90.532	0.0025036	0.0037563	0.0011082	1224.3	3.6877e-05	4.3848e-05	1549.5	339.8	3.8787e-05	4.2761e-05	532.46	167.78	88.933	38.988	4.219e-05	83.355	204.170	-79.542	38.371	-133.975	26.178	34.889	-134.389	-130.647	-32.749	-30.859	-130.530	-127.299	-126.679	-121.117	-26.831	-122.054	-8191	255	
57889.094	1	1	0	0	0.055425	0.2308	0.21872	0.27975	0.24139	0.039171	0.20184	0.20607	0.079226	0.12201	0.52516	0.08856	0.053871	0.16677	0.23609	0.21879	-3.2896	-4.475	-4.1583	-3.9208	-4.475	-3.8104	-4.2583	-4.3875	-3.4771	-4.4208	-4.2771	-3.7896	-4.4812	-3.7354	-4.0375	-4.6646	-124.636	-120.384	167.679	185.246	-75.605	-93.263	168.370	154.372	184.395	-121.537	141.507	-136.122	37.117	-140.885	-77.586	168.727	0.00061667	0.0010408	0.00019163	1365.8	2.8681e-06	1.435e-05	1704.6	371.58	7.8671e-06	1.1006e-05	576.02	177.93	92.338	41.317	6.6528e-06	88.896	0.0025176	0.0037929	0.0011053	1228.4	3.6664e-05	4.3202e-05	1542.3	337.28	3.8844e-05	4.292e-05	523.87	164.34	86.636	38.054	4.1824e-05	81.433	196.797	-83.612	-79.710	-134.559	-109.326	-62.271	-134.228	-130.845	-44.514	17.249	-130.913	-127.039	-126.243	-120.800	33.919	-122.080	-8191	255	
57889.215	1	1	0	0	0.13683	0.039123	0.032672	0.18952	0.17799	0.27338	0.13576	0.082398	0.13481	0.23122	0.21182	0.09236	0.30892	0.084224	0.1221	0.28996	-3.3812	-4.3167	-4.1396	-3.8438	-4.5563	-3.8875	-4.3833	-4.6292	-3.6271	-4.3438	-4.3938	-3.7	-4.5833	-3.9688	-3.8792	-4.8417	-54.477	-134.140	-138.723	136.750	185.474	20.822	207.237	189.616	56.002	-86.387	142.574	47.721	-79.889	82.050	97.220	150.911	0.00066394	0.00085789	0.00019467	1345.7	4.6302e-06	2.4492e-06	1675.6	367.2	7.2975e-06	3.8323e-06	574.23	177.3	93.755	41.048	4.2244e-06	88.164	0.0025567	0.0039891	0.0010712	1211.4	3.7779e-05	4.539e-05	1521.4	333.1	3.8439e-05	4.365e-05	520.97	163.82	86.591	37.866	4.0271e-05	81.088	203.876	-61.058	-68.593	-134.339	-61.456	36.636	-134.539	-130.850	0.854	44.142	-130.452	-127.106	-126.848	-121.254	90.664	-122.493	-8191	255	
57889.309	1	1	0	0	0.043382	0.066231	0.0928	0.33729	0.33938	0.1932	0.098571	0.15084	0.095629	0.06168	0.16218	0.095109	0.093771	0.17245	0.13714	0.28122	-3.3583	-4.2167	-4.3875	-3.8042	-4.4646	-4.1354	-4.2042	-4.7896	-3.7833	-4.275	-4.4646	-3.8104	-4.6958	-4.1708	-3.8646	-4.7208	-26.094	-46.669	197.248	161.518	8.275	-11.847	118.445	76.007	203.909	-78.044	142.465	35.801	-130.082	141.230	177.087	134.997	0.00063005	0.00098736	0.00035433	1341.8	6.0614e-06	1.3466e-05	1681.1	370.62	6.7848e-06	9.4544e-06	575.77	180.43	94.149	41.336	1.0132e-05	89.139	0.0025797	0.0040395	0.001065	1211.5	3.9104e-05	4.4309e-05	1525	336.4	4.0182e-05	4.47e-05	524.75	165.85	87.677	38.398	4.0155e-05	82.342	194.957	-130.793	9.670	-134.122	65.701	-3.419	-134.370	-130.608	-1.511	-54.330	-130.622	-126.907	-126.657	-120.789	28.098	-122.294	-8191	255	
57889.402	1	1	0	0	0.053867	0.072191	0.13339	0.1391	0.23162	0.22714	0.31329	0.22662	0.038908	0.14969	0.13585	0.16148	0.16707	0.18622	0.1121	0.30063	-3.4896	-4.1312	-4.4375	-3.8646	-4.3896	-4.2333	-4.0729	-4.6687	-3.8479	-4.0271	-4.6167	-3.7167	-4.3979	-4.1917	-3.8333	-4.6729	165.154	-128.674	155.197	179.916	-28.280	-55.117	120.493	75.525	-147.805	130.205	180.928	183.767	-76.748	137.645	151.260	-134.646	0.00048076	0.00049743	0.00038491	1355.2	5.7658e-06	1.754e-05	1692.1	373.43	7.1756e-06	4.0742e-06	581.44	181.4	94.363	41.509	1.1663e-05	88.822	0.0027662	0.0040491	0.0010631	1223.7	4.0085e-05	4.5127e-05	1539.2	339.4	4.2308e-05	4.3867e-05	527.94	166.41	87.973	38.322	3.9112e-05	81.959	190.464	-79.737	-56.436	-134.195	-9.931	56.903	-134.280	-130.721	9.063	133.723	-130.705	-127.230	-126.330	-121.093	-86.813	-121.899	-8191	255	
57889.500	1	1	0	0	0.12059	0.1714	0.16421	0.26312	0.24663	0.060829	0.3434	0.26077	0.0092892	0.08217	0.12345	0.25411	0.13328	0.28738	0.28275	0.32805	-3.65	-3.6854	-4.425	-3.9021	-4.3771	-4.2188	-3.9396	-4.6771	-3.875	-3.9479	-4.5813	-3.7958	-4.2396	-4.3667	-3.4979	-4.7021	-70.314	42.026	174.924	203.662	193.026	-23.230	175.665	165.239	106.836	-74.498	179.921	111.409	-146.346	142.037	-117.296	192.602	0.00062483	0.0013067	0.00015214	1342.3	9.6038e-06	8.4836e-06	1668.7	365.6	4.1782e-06	1.1468e-05	572.72	179.46	93.455	41.072	8.5568e-06	87.989	0.0027736	0.0038783	0.0010507	1209.9	4.077e-05	4.3477e-05	1514.5	332.88	4.1695e-05	4.4155e-05	519.61	164.49	86.713	37.928	4.0193e-05	81.211	199.852	4.557	-105.138	-134.155	10.185	59.713	-134.350	-130.628	-116.484	-49.356	-131.057	-127.042	-126.801	-120.499	60.219	-122.229	-8191	255	
57889.598	1	1	0	0	0.028404	0.11775	0.028058	0.29764	0.18703	0.07468	0.23209	0.19286	0.061825	0.088425	0.16681	0.084103	0.086769	0.24263	0.23074	0.12772	-3.6979	-3.8375	-4.625	-3.7729	-4.1583	-4.5542	-3.8625	-4.5104	-4.0396	-3.8708	-4.6833	-3.8396	-4.1479	-4.5083	-3.7438	-4.6667	53.819	64.588	-126.685	145.824	-30.257	28.209	99.666	210.196	197.503	122.413	189.102	-103.650	170.042	138.030	-83.107	205.697	0.00060021	0.00044256	0.00029364	1338.5	3.446e-06	9.5779e-06	1682	371.15	2.098e-06	1.1678e-05	572.19	179.49	94.847	41.238	8.1494e-06	89.086	0.0027271	0.003875	0.0010607	1209.2	4.1109e-05	4.3153e-05	1525.1	336.43	4.1719e-05	4.21e-05	522.74	165.52	87.697	38.161	4.1912e-05	82.044	200.399	-31.636	-48.510	-134.319	-30.640	24.333	-134.649	-130.856	-40.437	-23.326	-130.782	-127.291	-127.076	-120.713	33.741	-122.366	-8191	255	
57889.691	1	1	0	0	0.14482	0.14182	0.078781	0.13378	0.21134	0.3535	0.29403	0.11104	0.052862	0.22341	0.253	0.087489	0.17923	0.072038	0.042804	0.27952	-3.7687	-3.7833	-4.5917	-4.0625	-3.8083	-4.4125	-3.7208	-4.6375	-4.2271	-3.6708	-4.7688	-4.1271	-4.1146	-4.4958	-3.5187	-4.3583	-99.285	-108.260	104.048	107.310	171.963	167.449	150.107	90.886	54.072	170.042	193.329	201.408	164.306	-32.175	75.643	168.421	0.00053899	0.001045	0.00012196	1353.7	7.9026e-06	8.855e-06	1701.9	373.42	7.7835e-06	1.5067e-05	583.08	181.03	95.005	41.867	9.2956e-06	90.535	0.0027237	0.0037774	0.0010823	1221.4	4.0449e-05	4.2218e-05	1540	340.19	4.1593e-05	4.3102e-05	531.11	167.87	88.402	38.689	4.3107e-05	83.314	196.189	-43.798	-103.498	-134.301	29.551	-42.381	-134.207	-130.814	3.996	9.134	-130.650	-127.084	-126.661	-120.983	-54.184	-122.093	-8191	255	
57889.789	1	1	0	0	0.17947	0.17539	0.24591	0.084333	0.17161	0.27383	0.10134	0.21283	0.2006	0.23654	0.087353	0.11069	0.29206	0.1596	0.22667	0.16332	-3.9896	-3.6396	-4.6458	-4.1292	-3.7812	-4.6021	-3.9	-4.2646	-4.3063	-3.6188	-4.5437	-4.1167	-3.8625	-4.7604	-3.6312	-4.1708	-133.169	113.102	-112.375	-105.420	12.118	-87.602	173.432	158.356	78.447	125.024	115.269	123.035	-115.926	168.019	132.968	179.180	0.0005593	0.00054228	0.00018875	1359.6	1.1087e-06	8.5162e-06	1703.6	372.84	1.0386e-05	7.7402e-06	576.62	178.71	93.391	41.186	5.7793e-06	88.009	0.0026658	0.0038734	0.0011081	1226.4	3.8661e-05	4.1978e-05	1542.9	338.01	3.978e-05	4.2763e-05	524.86	165.52	86.907	37.866	4.3596e-05	80.987	200.491	39.286	-107.935	-134.136	73.431	30.616	-134.170	-130.765	-26.205	-60.721	-130.974	-127.056	-126.693	-121.193	13.532	-122.335	-8191	255	
57889.910	1	1	0	0	0.085256	0.14861	0.10182	0.30473	0.029395	0.26916	0.18885	0.23585	0.048523	0.11045	0.093822	0.2203	0.23129	0.11469	0.16735	0.26899	-3.9979	-3.5979	-4.3042	-4.3167	-3.7167	-4.5396	-4.0771	-4.1417	-4.2917	-3.5708	-4.6188	-4.3979	-3.7792	-4.6417	-3.8521	-4.1479	38.719	96.953	-22.626	150.351	-74.409	-124.957	185.859	20.139	147.508	134.723	127.236	166.067	18.867	-137.868	-111.755	151.835	0.00056998	0.00057278	0.00010989	1340.3	5.8347e-06	8.3216e-06	1663	366.66	8.7564e-06	8.0577e-06	569.55	176.89	92.851	40.361	2.1844e-06	87.188	0.002589	0.0039084	0.0011121	1207.9	3.8603e-05	4.3128e-05	1514.5	334.32	3.846e-05	4.5262e-05	520.25	163.85	86.253	37.558	4.2948e-05	80.577	206.822	4.724	1.962	-134.141	25.775	32.223	-134.341	-130.925	28.658	-15.343	-130.941	-126.897	-126.413	-121.023	-54.156	-122.445	-8191	255	
57890.008	1	1	0	0	0.16665	0.18974	0.087046	0.04233	0.079617	0.056813	0.26284	0.20551	0.097343	0.22906	0.12705	0.11117	0.13344	0.22786	0.1123	0.25811	-4.2042	-3.6146	-4.2771	-4.3938	-3.6604	-4.5646	-4.0667	-4.0687	-4.5813	-3.6104	-4.4875	-4.3833	-3.8292	-4.5375	-4.0104	-3.7896	75.251	99.522	-131.014	47.211	27.250	96.227	154.931	173.222	-89.500	174.577	-66.162	186.782	201.443	144.292	108.558	175.798	0.00058192	0.00090514	0.00046092	1342.7	6.4271e-06	7.5185e-06	1673.7	369.36	1.6595e-06	1.174e-05	572.12	178.5	93.035	40.713	1.0165e-05	88.514	0.0025725	0.0040626	0.0011332	1211.8	3.848e-05	4.5204e-05	1519.9	335.63	3.7981e-05	4.4977e-05	523.83	164.73	86.786	37.792	4.2658e-05	81.463	204.647	-50.072	-37.954	-134.313	77.743	-36.326	-134.306	-130.619	-139.453	2.643	-130.793	-127.461	-126.591	-120.892	-2.444	-122.595	-8191	255	
57890.078	1	1	0	0	0.19236	0.11793	0.35271	0.35931	0.037778	0.14117	0.12869	0.16448	0.034391	0.24781	0.42891	0.24683	0.045758	0.11769	0.094542	0.16251	-4.1604	-3.6667	-4.15	-4.4979	-3.5396	-4.2917	-4.2625	-3.7896	-4.5708	-3.7604	-4.4187	-4.4271	-3.6312	-4.5083	-4.0958	-3.9396	-13.480	132.733	-62.221	167.852	68.245	18.065	77.932	112.791	59.438	103.927	-109.132	184.072	-126.643	-27.025	-85.720	150.557	0.00061585	0.0010976	0.00014367	1354.5	5.2755e-06	9.9816e-06	1688.4	371.71	3.8221e-06	1.2699e-05	579.62	181.35	93.963	41.235	5.1038e-06	88.238	0.0026025	0.0041394	0.0011522	1219	3.9282e-05	4.566e-05	1533.9	338.31	3.9208e-05	4.6592e-05	525.61	166.59	87.574	38.132	4.2103e-05	81.298	194.288	-38.884	-113.088	-134.111	-59.987	46.487	-134.171	-130.793	4.299	-1.977	-131.153	-127.256	-126.417	-121.306	-75.973	-122.019	-8191	255	
57890.176	1	1	0	0	0.2062	0.22167	0.23356	0.0817	0.12237	0.16219	0.24717	0.18551	0.27374	0.1709	0.20698	0.16677	0.24328	0.099789	0.23586	0.16564	-4.1646	-3.7229	-3.9917	-4.7667	-3.5521	-4.4167	-4.3729	-3.8125	-4.4604	-3.8104	-4.1937	-4.5958	-3.625	-4.4521	-4.2208	-3.7354	0.849	0.377	-92.461	126.937	60.184	-111.975	160.383	178.514	-69.999	-32.734	193.016	164.537	-126.596	-58.322	-61.902	-100.310	0.00057621	0.00083804	0.00012882	1335.8	3.9577e-06	1.0041e-05	1659.4	366.69	1.0504e-05	2.9364e-06	564.73	176.82	92.589	40.538	7.7467e-06	87.341	0.0026691	0.0041904	0.001114	1205.5	4.0098e-05	4.6779e-05	1506.5	332.24	4.134e-05	4.687e-05	517.47	162.96	86.481	37.44	4.2106e-05	80.474	196.797	-135.165	-34.385	-134.130	-7.778	34.024	-133.942	-130.485	-27.094	51.539	-130.597	-126.742	-126.857	-121.186	-14.365	-122.569	-8191	255	
57890.293	1	1	0	0	0.19082	0.10916	0.14669	0.097791	0.089838	0.25672	0.24269	0.34294	0.14845	0.059373	0.18719	0.25568	0.23724	0.21698	0.046945	0.097942	-4.2458	-3.8458	-4.0375	-4.5958	-3.6708	-4.1854	-4.5458	-3.6312	-4.4271	-3.9958	-3.925	-4.6833	-3.8688	-4.2708	-4.5333	-3.7792	82.111	-37.581	-84.420	-117.446	-28.339	8.207	101.897	150.281	77.082	50.013	-138.160	182.410	128.871	200.770	-79.356	19.573	0.00056769	0.0015199	9.8776e-05	1325.6	5.349e-06	3.3433e-06	1654.2	365.49	3.5415e-06	9.3297e-06	569.23	179.95	93.053	41.007	1.9197e-06	89.029	0.0027325	0.0041358	0.0010666	1197.4	4.168e-05	4.4603e-05	1502.2	332.36	4.1742e-05	4.6393e-05	519.65	165.95	87.325	38.041	4.071e-05	82.087	201.136	-60.246	-71.675	-134.367	-116.470	141.880	-134.136	-130.561	-40.533	-59.211	-130.927	-126.887	-126.655	-121.206	10.220	-122.292	-8191	255	
57890.391	1	1	0	0	0.24995	0.0863	0.23212	0.02608	0.063967	0.20902	0.38432	0.065415	0.15642	0.12955	0.26296	0.060998	0.14261	0.16847	0.049739	0.36254	-4.0521	-4.0458	-3.8208	-4.7312	-3.5375	-4.1333	-4.5938	-3.8333	-4.3625	-4.3021	-3.8979	-4.6083	-3.8146	-4.1167	-4.35	-3.8292	-147.555	-27.276	-106.563	62.861	112.974	113.695	107.907	169.430	-82.495	-91.285	143.268	-93.084	144.812	-144.110	93.908	164.408	0.00064963	0.00021707	0.00023028	1330	4.1295e-06	4.728e-06	1671.6	366.52	1.066e-05	6.7796e-06	578.96	185.4	96.407	42.294	8.6183e-06	91.734	0.0027534	0.0040961	0.0010532	1198	4.1853e-05	4.4197e-05	1512.3	334.61	4.2215e-05	4.465e-05	526.99	170.27	89.618	38.898	4.0529e-05	84.464	192.573	-54.722	-44.897	-134.423	15.079	-10.458	-133.984	-130.482	4.449	13.656	-130.817	-127.041	-126.851	-121.099	-75.872	-122.008	-8191	255	
57890.484	1	1	0	0	0.063159	0.13358	0.23801	0.17414	0.026244	0.26613	0.21099	0.061841	0.12449	0.22368	0.20325	0.27523	0.17777	0.35184	0.056255	0.10667	-4.0938	-4.125	-3.7146	-4.6062	-3.7167	-4.0917	-4.775	-3.7104	-4.2833	-4.3083	-3.7208	-4.6375	-4.0437	-3.9021	-4.5854	-3.9167	-90.997	-144.677	175.017	-106.953	60.721	101.734	146.080	129.222	172.103	0.817	152.448	150.523	12.046	-145.479	-74.327	77.649	0.00061886	0.00044421	0.00044189	1336.5	1.0859e-05	1.4801e-05	1670.2	368.42	4.3754e-06	9.6343e-06	572.03	183.91	95.867	42.097	1.3902e-06	90.772	0.0027678	0.0040265	0.001112	1203.6	4.224e-05	4.398e-05	1513.4	334.74	4.2484e-05	4.3147e-05	522.14	170.19	89.08	38.665	4.1141e-05	83.399	207.539	185.791	-25.220	-133.985	0.915	-13.235	-134.478	-130.958	-79.469	-13.438	-131.022	-127.420	-126.602	-120.682	-123.803	-122.220	-8191	255	
57890.605	1	1	0	0	0.23082	0.18152	0.21376	0.17028	0.085895	0.10806	0.23509	0.15202	0.25394	0.16217	0.2429	0.26531	0.20685	0.3286	0.049557	0.31156	-3.9437	-4.3708	-3.7208	-4.5813	-3.8604	-3.7583	-4.7896	-3.975	-4.0771	-4.4667	-3.7812	-4.6833	-4.0854	-3.9437	-4.5458	-3.9771	-34.166	116.828	-122.894	207.986	-132.388	142.112	174.799	-122.500	20.890	6.983	121.061	132.327	198.150	-134.290	-137.553	166.206	0.000565	0.0010899	0.00012836	1311.8	5.7416e-06	1.3401e-05	1630.1	359.39	8.1671e-06	1.8681e-06	567.56	181.76	93.401	41.436	9.3959e-06	90.238	0.0027191	0.0039084	0.0011073	1179.2	4.1308e-05	4.2835e-05	1483.9	326.86	4.0645e-05	4.163e-05	516.55	168.01	87.277	38.087	4.1008e-05	83.093	193.697	-62.874	-56.468	-134.286	34.413	-63.109	-134.034	-130.746	-69.919	151.003	-130.848	-127.147	-126.793	-121.347	-10.339	-122.577	-8191	255	
57890.676	1	1	0	0	0.11224	0.24499	0.12925	0.068696	0.17112	0.18255	0.11797	0.24597	0.23771	0.017066	0.31352	0.33348	0.21535	0.086767	0.21645	0.066713	-3.6625	-4.4354	-3.6229	-4.4104	-3.9542	-3.6729	-4.7229	-3.8958	-3.9437	-4.5083	-3.7938	-4.5479	-4.2292	-3.8583	-4.525	-4.0458	-82.106	-46.249	-118.074	-101.602	120.701	156.073	157.943	179.091	197.129	143.158	201.384	162.179	-113.395	-148.055	-47.297	145.764	0.00058661	0.0013137	0.00030229	1302	7.0578e-06	1.0704e-05	1629.5	357.66	3.4136e-06	4.371e-06	571.38	184.24	95.331	41.713	7.1494e-06	92.132	0.0026084	0.0038158	0.0010734	1173.9	3.9089e-05	4.1691e-05	1478.6	326.97	3.8508e-05	4.2853e-05	521.37	170.1	88.195	38.655	4.1761e-05	84.745	190.476	-48.730	-76.542	-133.911	-29.389	14.508	-134.254	-130.618	-1.586	-1.872	-130.713	-126.962	-126.529	-120.920	-27.936	-122.486	-8191	255	
57890.773	1	1	0	0	0.12497	0.080795	0.069933	0.40106	0.1121	0.24462	0.25718	0.24371	0.14982	0.33548	0.1502	0.119	0.068336	0.004317	0.17337	0.090161	-3.5	-4.5687	-3.6083	-4.4771	-4.3833	-3.5396	-4.7688	-4.1229	-3.8021	-4.5813	-3.9667	-4.4417	-4.5104	-3.7771	-4.5208	-4.2208	128.818	-140.538	23.529	158.389	12.113	-67.006	150.103	192.274	199.458	180.085	93.092	-112.740	-3.501	-73.154	-113.543	-92.813	0.00067991	0.00092557	7.2252e-05	1313	5.4872e-06	4.2454e-06	1639.4	361.75	1.1761e-05	6.592e-06	574.44	187.87	97.264	42.444	5.0487e-06	92.642	0.0025951	0.0037483	0.00112	1178.7	3.8874e-05	4.3615e-05	1487.2	329.96	3.8854e-05	4.3866e-05	524.38	172.91	89.539	39.27	4.2971e-05	85.578	191.267	-29.977	-54.992	-133.955	62.020	-46.217	-134.186	-130.578	-20.284	-47.481	-131.008	-127.200	-126.694	-121.056	-55.984	-122.390	-8191	255	
57890.895	1	1	0	0	0.061787	0.11228	0.0641	0.18013	0.055049	0.11138	0.21885	0.11403	0.081737	0.19309	0.35842	0.24222	0.13503	0.16964	0.029146	0.15848	-3.3583	-4.5958	-3.7188	-4.2292	-4.1833	-3.6271	-4.7708	-4.2	-3.8417	-4.5167	-3.9792	-4.3208	-4.4625	-3.7104	-4.4688	-4.2729	62.907	101.837	41.570	160.941	-103.234	79.296	-143.095	197.115	3.864	99.010	168.541	-53.000	-128.812	-57.117	-131.649	-133.501	0.00060068	0.0012457	0.00017178	1293.7	2.0191e-06	9.7022e-06	1616.1	358.97	2.1558e-06	3.8327e-06	564.74	186.59	96.433	42.127	7.0319e-06	92.078	0.0025898	0.0040038	0.0011466	1166.3	3.9166e-05	4.5671e-05	1469	326.34	3.9924e-05	4.5484e-05	516.41	171.96	89.202	39.009	4.4232e-05	84.719	201.191	-147.336	-136.569	-134.250	-16.585	-17.449	-134.037	-130.603	-61.617	95.239	-130.390	-126.888	-126.876	-120.652	-5.477	-122.494	-8191	255	
57890.988	1	1	0	0	0.19788	0.068982	0.14403	0.07716	0.19395	0.24438	0.12971	0.29796	0.16676	0.12923	0.20407	0.26312	0.20685	0.19035	0.23278	0.041484	-3.3729	-4.3958	-3.7625	-4.0458	-4.4437	-3.5479	-4.3396	-4.3063	-3.6083	-4.4667	-4.1917	-4.0854	-4.5458	-3.65	-4.1604	-4.325	-102.959	-68.891	-16.070	-119.759	93.614	-16.225	179.915	147.952	-89.665	-49.124	-142.541	-142.539	159.675	-87.143	-130.043	-107.933	0.00069272	0.0015706	0.00011916	1291.3	1.0642e-05	6.2807e-06	1618.5	362.17	9.8717e-06	1.4575e-05	570.88	189.85	97.552	42.767	7.9045e-06	93.296	0.0027192	0.0042285	0.0011931	1165.8	4.0426e-05	4.8459e-05	1470.7	328.97	4.1203e-05	4.7101e-05	524.29	174.76	90.771	39.685	4.3645e-05	86.083	197.497	-43.895	-26.053	-134.044	-35.403	51.675	-134.612	-130.583	-3.735	44.317	-130.579	-127.282	-126.883	-120.915	-8.703	-121.942	-8191	255	
57891.086	1	1	0	0	0.28682	0.14632	0.13983	0.27929	0.15336	0.21627	0.49463	0.061584	0.14098	0.21247	0.26133	0.18337	0.14355	0.088695	0.099495	0.08422	-3.2333	-4.5833	-4.0687	-3.8542	-4.5375	-3.5792	-4.3	-4.4437	-3.6583	-4.5833	-4.2688	-3.7833	-4.6188	-3.8104	-4.0312	-4.625	-109.694	107.322	-73.277	197.652	127.612	77.489	123.737	-142.626	-119.214	188.979	101.460	-88.312	-113.281	-8.173	158.848	120.766	0.00071179	0.00061286	0.00032334	1295.1	6.0346e-06	1.1232e-05	1635	369.54	7.4668e-06	1.1332e-05	583.69	193.27	99.925	43.499	1.8591e-06	95.375	0.0028063	0.0041838	0.0011638	1169.7	4.1174e-05	4.7415e-05	1486.5	335.22	4.2431e-05	4.6825e-05	532.89	178.19	93.646	40.314	4.2875e-05	87.538	192.605	-14.850	-51.540	-133.909	-33.210	5.092	-134.159	-130.684	-29.440	-7.101	-130.894	-127.526	-126.777	-120.987	-87.767	-122.366	-8191	255	
57891.207	1	1	0	0	0.16643	0.060339	0.14552	0.43372	0.020594	0.1772	0.26182	0.20888	0.11842	0.080795	0.1558	0.19161	0.12777	0.15386	0.036375	0.13823	-3.1063	-4.3438	-4.0667	-3.8396	-4.4521	-3.6708	-4.1146	-4.4042	-3.5167	-4.3021	-4.0833	-3.8	-4.6396	-3.8812	-3.9229	-4.625	-75.540	-43.575	8.789	170.045	-4.716	-16.660	205.384	81.730	-31.665	-68.612	155.939	191.609	-113.802	197.233	159.968	-63.679	0.00073244	0.00064009	0.00032261	1305.2	4.4184e-06	1.0858e-05	1646.6	367.72	5.372e-06	6.3589e-06	582.72	194.42	100.53	43.407	4.6107e-06	94.401	0.0028921	0.0041841	0.0011174	1180.1	4.2516e-05	4.7465e-05	1490	335.78	4.2917e-05	4.6663e-05	531.69	179.1	93.777	40.085	4.1414e-05	86.774	191.993	-106.993	-62.477	-134.157	-0.258	-48.089	-134.005	-130.473	-80.596	45.634	-130.451	-126.934	-126.804	-120.825	23.700	-122.291	-8191	255	
57891.305	1	1	0	0	0.035445	0.15271	0.20762	0.18199	0.013544	0.022005	0.22324	0.25902	0.27071	0.1209	0.12686	0.27026	0.23294	0.23341	0.27345	0.18563	-3.0833	-4.3354	-4.0396	-3.7646	-4.4667	-3.8729	-4.0667	-4.4521	-3.4542	-4.0771	-4.2312	-3.6521	-4.4792	-3.9458	-3.65	-4.6146	203.780	-19.774	191.824	-142.254	-49.430	64.234	153.959	142.681	46.864	143.536	-145.488	187.622	169.989	-140.640	101.652	144.341	0.00061312	0.00047233	0.0001495	1289.7	1.082e-05	5.4629e-06	1631.8	367.78	6.7783e-06	8.2336e-06	587.19	194.33	100.59	43.165	4.0779e-06	94.561	0.0028648	0.0040993	0.0011056	1164.2	4.2108e-05	4.6491e-05	1479.8	334.36	4.3308e-05	4.5416e-05	533.06	179.02	94.05	40.033	4.1625e-05	87.114	206.776	11.886	-84.312	-133.960	-33.770	11.042	-134.248	-130.522	-26.233	4.722	-130.639	-127.080	-126.365	-120.738	24.846	-122.061	-8191	255	
57891.371	1	1	0	0	0.23284	0.18332	0.19471	0.1166	0.055329	0.053302	0.21913	0.21594	0.19084	0.12079	0.10412	0.084924	0.039447	0.047508	0.27494	0.20821	-3.2021	-4.0792	-4.3917	-3.7646	-4.3625	-3.9396	-3.9042	-4.5708	-3.5708	-4.1354	-4.4021	-3.6667	-4.3479	-3.9104	-3.5729	-4.7688	106.951	-43.430	-51.642	201.351	178.884	206.570	113.929	192.369	-130.967	205.109	-124.069	-27.167	-11.673	195.671	-145.475	-136.660	0.00068557	0.00032985	0.00016582	1294.5	7.488e-06	8.1145e-06	1637.5	368.33	3.2714e-06	2.7444e-06	586.01	196.18	102.57	43.32	5.2484e-06	95.631	0.0028028	0.0039609	0.0010938	1172.2	4.1452e-05	4.4811e-05	1489.6	336.01	4.3007e-05	4.3413e-05	535.19	181	95.129	40.272	4.0969e-05	87.887	199.327	99.152	-21.693	-134.014	8.537	18.097	-134.388	-130.887	-88.039	-1.995	-130.690	-127.314	-126.631	-121.013	-1.789	-122.211	-8191	255	
57891.469	1	1	0	0	0.16447	0.069551	0.099079	0.15267	0.17631	0.060878	0.066026	0.1257	0.26827	0.10511	0.33456	0.2315	0.11196	0.37985	0.075244	0.039554	-3.3688	-3.8854	-4.5	-3.6375	-4.2146	-4.1167	-3.8792	-4.7333	-3.6792	-3.9354	-4.525	-3.7708	-4.45	-4.3125	-3.6437	-4.6083	147.414	7.190	32.129	-134.265	-128.545	203.694	100.105	194.490	26.218	38.221	150.681	205.847	44.049	154.080	62.506	208.025	0.00061024	0.0004971	0.00038048	1312.1	1.2081e-05	8.8997e-06	1674.4	375.12	5.4646e-06	1.4606e-05	594.26	198.22	102.58	44.065	1.7992e-06	96.762	0.0028104	0.0039993	0.0011177	1187.8	4.1289e-05	4.3967e-05	1513.8	341.28	4.228e-05	4.3373e-05	542.55	183.03	95.997	40.816	4.3444e-05	88.666	205.698	-47.351	-93.945	-134.093	-24.681	-10.753	-134.315	-130.574	-11.917	-2.117	-130.814	-126.998	-126.979	-121.044	-72.275	-121.876	-8191	255	
57891.590	1	1	0	0	0.11279	0.39057	0.27155	0.31476	0.086749	0.15541	0.19778	0.22496	0.037311	0.077067	0.025023	0.26992	0.038356	0.15325	0.08522	0.35108	-3.575	-3.6896	-4.4688	-3.8021	-4.3	-4.4042	-3.7917	-4.4729	-4.0104	-3.8417	-4.5396	-3.7417	-4.1229	-4.4625	-3.6479	-4.5375	0.433	14.720	-92.474	-141.684	59.449	-120.289	178.922	177.176	115.227	-36.879	-107.565	168.483	179.821	197.327	-62.532	183.981	0.00073585	0.00033156	0.00014706	1315.3	9.7911e-06	2.5665e-07	1645.2	366.99	4.0591e-06	7.5357e-06	581.52	196.28	100.93	43.532	9.5253e-06	93.788	0.0027509	0.0039519	0.0011298	1184.6	4.0821e-05	4.3324e-05	1495.1	334.94	4.1013e-05	4.299e-05	531.33	180.44	94.22	39.927	4.3211e-05	86.658	181.914	133.657	-36.108	-134.102	-12.799	-64.874	-134.685	-130.417	-5.390	15.523	-130.691	-127.328	-126.946	-120.749	46.580	-122.423	-8191	255	
57891.688	1	1	0	0	0.028586	0.21504	0.19257	0.17624	0.099036	0.11462	0.28484	0.10858	0.35008	0.091755	0.13921	0.25879	0.33951	0.12225	0.22097	0.12198	-3.8063	-3.7292	-4.3854	-3.8146	-4.0729	-4.4	-3.8688	-4.5208	-4.0917	-3.6646	-4.8438	-3.9646	-3.9021	-4.5875	-3.5917	-4.6458	159.617	64.888	191.604	178.069	-14.036	169.451	62.571	114.341	-61.145	-99.736	126.016	195.161	169.821	105.056	174.586	16.800	0.00076519	0.00043846	6.5137e-05	1295.4	7.7884e-06	7.5322e-06	1648	368.11	4.7955e-06	7.4522e-06	584.98	195.47	102	43.562	5.0371e-06	95.466	0.0026621	0.0039835	0.0011432	1172	3.8885e-05	4.3372e-05	1490.8	334.63	4.0504e-05	4.3643e-05	532.39	180.61	94.791	40.187	4.3564e-05	87.698	197.978	-72.196	-89.021	-133.863	14.341	-12.351	-134.157	-130.725	-21.652	-5.761	-130.843	-127.264	-127.008	-121.258	-102.888	-122.120	-8191	255	
57891.781	1	1	0	0	0.063393	0.21677	0.03284	0.15258	0.13302	0.30576	0.13487	0.15853	0.251	0.15477	0.15855	0.038374	0.16607	0.35539	0.10934	0.10608	-3.9583	-3.7604	-4.3917	-3.9062	-3.8771	-4.4229	-3.875	-4.3333	-4.1896	-3.6229	-4.5583	-4.0021	-3.8312	-4.6438	-3.6208	-4.3729	87.512	164.152	79.334	182.385	68.596	142.761	171.788	192.698	-45.095	-31.209	-122.811	-13.947	185.489	153.102	99.862	47.056	0.00068327	0.0016515	0.00028837	1304.5	9.5021e-06	4.953e-06	1664.4	369.11	8.9335e-06	9.2342e-06	587.44	199.28	103.49	43.995	8.8836e-06	95.929	0.0026095	0.0040563	0.0011461	1178.3	3.8198e-05	4.4795e-05	1506.4	336.09	3.9994e-05	4.48e-05	537.38	182.98	96.188	40.674	4.3094e-05	88.656	208.966	-44.737	-99.681	-134.186	-58.381	201.107	-134.122	-130.795	-72.848	28.970	-130.749	-126.935	-126.388	-120.899	33.264	-122.231	-8191	255	
57891.879	1	1	0	0	0.1429	0.14531	0.12635	0.14565	0.30275	0.30301	0.078334	0.092732	0.068016	0.19532	0.025005	0.19438	0.13125	0.21861	0.11276	0.18047	-4.0396	-3.5667	-4.3354	-4.2042	-3.7042	-4.5083	-3.9479	-4.1042	-4.2167	-3.5104	-4.6229	-4.1917	-3.7687	-4.65	-3.5208	-4.1958	166.655	-144.807	14.077	204.637	178.707	177.127	146.396	-91.921	141.189	190.887	177.223	168.392	92.113	197.589	146.287	188.508	0.00060805	0.00097321	0.00051532	1307.5	8.5596e-06	9.1471e-06	1661.2	371.02	7.0844e-06	1.376e-05	580.74	197.59	102.31	43.42	2.812e-06	94.694	0.0026504	0.0040197	0.0011112	1184.4	3.8403e-05	4.5333e-05	1504.9	335.87	3.9874e-05	4.5981e-05	532.55	181.51	95.226	40.183	4.1657e-05	86.812	200.780	-69.920	-76.836	-134.117	33.351	-32.597	-134.122	-130.521	-77.814	-19.705	-130.467	-127.012	-126.739	-120.931	22.233	-122.561	-8191	255	
57891.973	1	1	0	0	0.14778	0.037195	0.25602	0.25165	0.051723	0.088128	0.16102	0.11298	0.10463	0.23077	0.28349	0.23508	0.17273	0.079412	0.18074	0.04438	-4.225	-3.6375	-4.2771	-4.2729	-3.7625	-4.4271	-3.8438	-4.0375	-4.375	-3.6375	-4.6229	-4.2646	-3.4437	-4.6208	-3.7771	-4.1104	33.596	148.766	36.203	190.373	154.708	158.208	98.698	-115.501	199.578	-66.394	106.290	169.984	-134.840	118.560	158.217	174.129	0.00064777	0.00069457	0.00045207	1294.1	5.8603e-06	5.6228e-06	1631.2	363.25	3.981e-06	1.5751e-06	577.53	194.89	101.14	43.371	5.9328e-06	94.097	0.0026008	0.004088	0.0010711	1166	3.9496e-05	4.3882e-05	1483.4	330.77	3.9849e-05	4.4439e-05	527.91	179.33	94.485	39.907	4.0896e-05	86.306	194.715	-100.777	-58.672	-134.205	-33.054	57.951	-134.383	-130.966	-51.709	66.724	-130.732	-126.723	-127.173	-120.728	21.968	-122.330	-8191	255	
57892.070	1	1	0	0	0.13883	0.14847	0.18838	0.02967	0.22568	0.057441	0.11211	0.18506	0.25037	0.15143	0.20466	0.086905	0.19883	0.26477	0.10664	0.13458	-4.2146	-3.5542	-4.3583	-4.4167	-3.7687	-4.3958	-4.0083	-4.0188	-4.5542	-3.5	-4.45	-4.3458	-3.8167	-4.6833	-4.1771	-3.9208	-41.295	71.558	-141.072	100.408	83.699	-16.592	189.184	-144.724	10.555	98.262	181.899	91.515	122.786	-126.456	113.768	132.119	0.00070754	0.00079574	0.00016462	1299.9	4.3786e-06	1.4885e-05	1643.4	368.4	4.2413e-06	1.0845e-05	587.73	199.11	103.58	43.924	7.125e-06	95.836	0.0026791	0.0039952	0.0010455	1172.1	3.9473e-05	4.3644e-05	1492.7	334.58	4.0101e-05	4.4543e-05	534.7	182.37	96.05	40.545	3.9613e-05	88.249	192.362	-22.220	-45.743	-133.925	9.609	2.758	-134.559	-130.442	-1.156	52.883	-130.797	-127.345	-126.715	-120.927	-31.072	-122.543	-8191	255	
57892.164	1	1	0	0	0.42077	0.078107	0.34864	0.12173	0.27615	0.083221	0.24571	0.49976	0.067722	0.17337	0.32111	0.32308	0.17208	0.1319	0.074493	0.14265	-4.225	-3.5417	-4.0583	-4.4812	-3.5542	-4.425	-4.2917	-3.8042	-4.6875	-3.7583	-4.1521	-4.625	-3.7417	-4.4042	-4.1188	-4.0125	57.252	48.493	35.408	171.358	-110.146	52.824	127.526	-114.927	40.605	-33.536	149.036	133.987	-128.297	191.641	-70.855	-123.764	0.00059181	0.00095245	0.00023307	1316.8	9.3002e-06	1.5789e-05	1670	373.38	5.0281e-06	7.6615e-06	596.89	200.75	104.97	43.982	6.936e-06	96.581	0.0026427	0.0040287	0.0010119	1186.3	3.9977e-05	4.2824e-05	1515.8	339.23	3.9393e-05	4.376e-05	542.36	184.71	97.261	40.581	3.9477e-05	88.307	192.507	-48.991	-69.997	-134.168	-41.695	-0.932	-134.073	-130.489	22.391	40.211	-130.930	-126.966	-126.496	-121.448	-43.176	-122.748	-8191	255	
57892.285	1	1	0	0	0.35608	0.2954	0.1596	0.14435	0.20142	0.0813	0.15248	0.20488	0.073035	0.22593	0.14301	0.15766	0.10489	0.13741	0.12863	0.072375	-4.0979	-3.7167	-4.0521	-4.4938	-3.5938	-4.4542	-4.4646	-3.9083	-4.5333	-3.8812	-4.1604	-4.6	-3.6271	-4.2688	-4.2688	-3.8375	102.536	-110.497	-82.944	144.746	-108.415	-36.040	179.834	-139.815	57.419	-39.952	-70.447	148.503	205.551	-146.884	162.424	-36.951	0.00068025	0.00037553	0.00018039	1299.8	4.7921e-06	2.7522e-06	1645.9	367.56	6.1972e-06	5.1987e-06	586.69	197.38	102	43.209	5.8938e-06	94.211	0.0026731	0.0038707	0.0010161	1177.5	3.9779e-05	4.0678e-05	1495.9	334.08	4.0112e-05	4.1857e-05	532.29	181.02	95.262	39.831	3.8313e-05	86.965	198.701	-40.963	-17.806	-134.029	-74.550	-65.557	-134.070	-130.713	17.888	-8.511	-131.078	-126.958	-126.727	-121.073	72.550	-122.418	-8191	255	
57892.383	1	1	0	0	0.1114	0.22609	0.18285	0.14107	0.24097	0.12095	0.16045	0.12488	0.22108	0.12009	0.15629	0.17052	0.27449	0.32709	0.042997	0.047634	-3.9854	-3.7875	-3.7333	-4.5938	-3.6875	-4.2271	-4.4771	-3.7583	-4.4146	-3.9479	-3.8563	-4.7312	-3.7562	-4.0625	-4.4896	-3.7708	-47.958	162.040	161.120	72.096	57.963	-90.780	144.483	151.301	135.609	120.581	180.072	160.762	104.161	179.337	-13.468	158.590	0.0005678	0.00075566	0.00023491	1295.8	4.113e-06	6.4437e-06	1652.8	368.31	6.7909e-06	6.1223e-06	587.95	198.69	103.21	43.608	9.3942e-07	95.52	0.0025979	0.0037059	0.0010128	1171.3	3.9558e-05	4.0365e-05	1498.6	335.28	3.9598e-05	4.1812e-05	532.43	182.39	96.078	40.073	4.0925e-05	87.655	204.455	-108.716	-34.412	-134.289	22.595	23.795	-133.702	-131.066	16.388	-19.179	-130.869	-127.180	-126.921	-120.709	125.115	-122.383	-8191	255	
57892.477	1	1	0	0	0.10425	0.06599	0.22678	0.2092	0.086342	0.11257	0.24435	0.14907	0.20007	0.37999	0.20898	0.1136	0.18868	0.068248	0.057481	0.24466	-4.1333	-3.8854	-3.6854	-4.6708	-3.7625	-3.9229	-4.4729	-3.7125	-4.2917	-4.2229	-3.8063	-4.5917	-3.8542	-3.9854	-4.4688	-3.7062	191.056	17.817	22.176	143.648	24.965	-7.996	119.570	169.453	-70.042	14.736	173.124	179.757	-5.242	189.744	83.101	123.058	0.00075838	0.0013053	0.00013335	1318.6	6.9967e-06	3.5974e-06	1662.3	374.46	1.5324e-06	6.3159e-06	596.95	201.58	104.99	43.87	2.6583e-06	97.103	0.0025708	0.0037961	0.0010646	1185.3	3.902e-05	4.0585e-05	1512	339.82	3.8532e-05	4.1418e-05	541.88	184.81	97.292	40.666	4.0588e-05	88.91	196.921	-72.554	-31.017	-134.206	23.220	-13.473	-134.148	-130.615	-48.672	-34.319	-130.791	-126.781	-126.178	-121.455	-6.458	-122.902	-8191	255	
57892.574	1	1	0	0	0.22118	0.056873	0.068769	0.37924	0.10441	0.059118	0.31376	0.19301	0.03168	0.21627	0.13736	0.18852	0.24961	0.25551	0.10582	0.019476	-3.9896	-4.1896	-3.5896	-4.6687	-3.8688	-3.9437	-4.6896	-3.7875	-4.2792	-4.3146	-3.6771	-4.5458	-3.9688	-4.0062	-4.4104	-3.8187	114.884	-67.744	-141.314	137.747	135.494	-42.030	137.437	210.228	106.999	115.182	144.977	83.098	62.314	188.744	-15.945	145.579	0.00066897	0.0015672	0.00014505	1327	9.6866e-07	1.3378e-05	1673.5	373.89	5.7142e-06	1.1306e-05	588.43	196.78	103.13	42.926	5.3401e-06	94.347	0.0025348	0.0037515	0.0010838	1197.1	3.7198e-05	4.1078e-05	1518.8	339.57	3.7717e-05	4.1891e-05	535.76	181.88	95.564	39.718	4.1412e-05	86.447	200.673	-31.643	-29.781	-134.232	208.707	33.840	-134.436	-130.518	-7.175	44.665	-131.200	-127.045	-126.789	-120.863	-19.703	-122.210	-8191	255	
57892.672	1	1	0	0	0.15034	0.047724	0.18238	0.047986	0.2625	0.032463	0.037726	0.10997	0.099088	0.19254	0.34112	0.24899	0.20151	0.20681	0.079154	0.26036	-3.8875	-4.1729	-3.5792	-4.5417	-4.1229	-3.7167	-4.7979	-3.8937	-3.95	-4.6083	-3.7646	-4.5312	-4.1979	-3.8521	-4.5437	-3.9021	-51.571	-142.966	-6.162	105.022	97.129	-133.374	100.826	176.848	-111.465	133.105	139.450	141.808	135.175	-114.476	-140.934	131.293	0.00064727	0.00092383	0.00024029	1296.7	4.3724e-06	6.2568e-06	1643.2	368.66	9.8269e-06	8.7156e-06	576.74	194.47	101.75	43.006	5.6916e-06	93.825	0.0024693	0.0038434	0.0010978	1170	3.7427e-05	4.1642e-05	1489.9	332.95	3.757e-05	4.3143e-05	528.06	179.12	94.793	39.635	4.1159e-05	86.076	203.589	207.768	-26.010	-134.078	55.418	123.515	-134.289	-130.476	-58.181	-16.921	-131.407	-127.167	-126.954	-121.137	44.073	-122.404	-8191	255	
57892.766	1	1	0	0	0.12397	0.028647	0.1564	0.12005	0.13672	0.09044	0.056663	0.25665	0.19641	0.11536	0.046946	0.068292	0.18959	0.097035	0.050872	0.028876	-3.7521	-4.3	-3.7125	-4.4833	-4.1062	-3.725	-4.8063	-3.8667	-3.8229	-4.4229	-3.7687	-4.3833	-4.1708	-3.7854	-4.475	-4.0542	192.957	-35.569	145.074	153.327	135.767	72.007	67.994	141.778	-71.982	132.303	100.231	-123.590	81.876	49.431	-121.508	-10.381	0.00067834	0.0015621	6.3848e-05	1302.7	6.4507e-06	6.2476e-06	1655.6	369.61	3.0548e-06	5.9823e-06	586.53	196.5	102.4	42.976	7.5667e-06	94.18	0.002562	0.0039976	0.0011101	1177.4	3.8132e-05	4.4125e-05	1500	335.68	3.899e-05	4.4711e-05	534.65	180.52	95.187	39.904	4.1628e-05	86.542	204.889	-25.839	-51.406	-134.047	62.975	89.425	-134.204	-130.757	97.326	-31.821	-130.779	-127.350	-126.982	-121.280	15.770	-122.112	-8191	255	
57892.887	1	1	0	0	0.074006	0.12783	0.18162	0.061655	0.11589	0.13873	0.20042	0.12852	0.21033	0.2167	0.26435	0.16911	0.12008	0.1027	0.082624	0.1171	-3.55	-4.5042	-3.6937	-4.4292	-4.2583	-3.5708	-4.5875	-4.15	-3.7375	-4.5375	-3.7875	-4.3083	-4.3979	-3.5417	-4.4542	-4.1542	-134.166	-14.937	-100.571	86.226	148.163	-68.992	138.803	199.658	-108.281	-89.110	-128.856	205.906	-70.117	129.380	108.157	-33.520	0.00076475	0.0011176	0.00035405	1318.8	2.2134e-06	1.661e-06	1671.3	375.65	3.6324e-06	7.7379e-06	588.72	197.86	102.7	43.442	6.6981e-06	94.517	0.0026384	0.0040562	0.0011196	1186.5	3.9754e-05	4.5157e-05	1517	340.06	4.0384e-05	4.5444e-05	537.88	181.48	96.204	40.156	4.0966e-05	86.994	194.704	-33.021	-44.210	-134.205	-58.878	-89.374	-134.319	-130.685	15.440	-31.081	-130.650	-127.284	-126.516	-121.317	-8.761	-122.141	-8191	255	
57892.984	1	1	0	0	0.095159	0.14311	0.19465	0.25388	0.087467	0.1225	0.092723	0.10872	0.25539	0.080424	0.18836	0.09087	0.14761	0.23317	0.085118	0.037591	-3.5875	-4.3604	-3.9167	-4.2021	-4.3271	-3.5083	-4.575	-4.0479	-3.7021	-4.5167	-3.7125	-4.0813	-4.45	-3.5583	-4.3375	-4.4146	47.307	143.227	82.634	-145.880	-86.767	63.358	130.970	137.416	-101.365	51.443	193.407	116.744	-120.246	153.192	170.694	192.184	0.0006823	0.0010573	0.00031619	1303.3	3.6165e-06	6.3514e-06	1647.4	368.02	4.0585e-06	1.0402e-05	574.91	193.33	101.16	42.557	1.3814e-05	92.483	0.0027251	0.0040127	0.0011007	1179	3.9285e-05	4.541e-05	1497.4	335	4.0925e-05	4.3878e-05	525.59	177.84	94.242	39.249	3.9342e-05	85.06	191.124	-38.246	-33.338	-134.343	46.174	11.503	-134.590	-130.517	72.349	41.957	-130.571	-127.383	-126.865	-121.470	-12.416	-122.363	-8191	255	
57893.078	1	1	0	0	0.076654	0.17732	0.19949	0.14974	0.2121	0.075888	0.21097	0.20245	0.16134	0.21863	0.22807	0.2713	0.2059	0.1326	0.031337	0.14017	-3.4104	-4.4604	-3.7167	-4.0625	-4.4458	-3.6917	-4.6188	-4.5167	-3.5771	-4.6292	-3.8792	-3.9458	-4.4917	-3.8438	-4.2021	-4.3729	-19.000	-99.856	-24.622	-42.269	90.090	-61.821	198.054	109.288	138.807	41.701	-141.863	183.777	-109.205	123.268	185.650	120.311	0.00064649	0.0014398	0.00011688	1303.9	5.1205e-06	7.3633e-06	1658.1	367.63	5.7756e-06	4.472e-06	578.55	194.38	101.18	42.594	1.1269e-05	93.945	0.0027347	0.0040011	0.0010699	1175.3	4.0365e-05	4.4615e-05	1493.9	333.53	4.0882e-05	4.3645e-05	528	178.64	94.342	39.425	3.8997e-05	86.18	191.269	-86.951	49.357	-134.239	-104.534	79.831	-134.454	-130.834	-57.893	17.253	-131.013	-127.035	-126.314	-120.783	10.993	-122.447	-8191	255	
57893.172	1	1	0	0	0.033081	0.097677	0.062904	0.22166	0.14822	0.056815	0.23469	0.079763	0.29224	0.31384	0.36207	0.14242	0.050527	0.15956	0.10188	0.28272	-3.3708	-4.4979	-3.9979	-3.875	-4.675	-3.7229	-4.2542	-4.5	-3.5708	-4.4042	-4.1229	-3.9208	-4.7208	-3.9521	-3.9917	-4.6229	207.064	187.019	186.553	-137.811	74.420	25.721	122.590	60.216	173.686	-35.704	193.958	202.173	156.868	164.425	95.788	170.479	0.00056547	0.001204	0.00025069	1311.9	1.7735e-06	7.0572e-06	1664.2	371.56	4.0051e-06	1.111e-05	583.58	195.97	103.63	43.517	8.7655e-06	94.972	0.0027494	0.0038003	0.0010725	1184.9	3.9949e-05	4.3989e-05	1506	337.42	4.1683e-05	4.2842e-05	533.99	181.07	95.992	40.158	4.0293e-05	87.407	208.607	-49.387	-89.756	-134.243	-37.502	-3.680	-134.334	-130.614	2.352	39.100	-130.750	-126.845	-127.170	-121.040	-28.206	-122.467	-8191	255	
57893.270	1	1	0	0	0.1069	0.22378	0.0378	0.16301	0.23263	0.16864	0.15317	0.23141	0.16075	0.077749	0.122	0.30675	0.070213	0.29403	0.042819	0.23627	-3.3146	-4.3708	-4.2146	-3.8417	-4.7188	-3.8271	-4.1896	-4.5271	-3.5062	-4.2333	-4.1917	-3.7042	-4.5229	-4.0667	-3.8	-4.5417	-34.140	190.456	178.890	-127.216	-103.846	198.673	150.526	-143.386	-60.268	63.071	205.215	189.518	-131.863	97.314	26.857	165.025	0.00068373	0.00057675	0.0002747	1325.1	8.8278e-06	1.0137e-05	1669.1	373.43	9.9123e-06	5.378e-06	583.37	195.96	102.33	43.064	6.3735e-06	93.419	0.0027525	0.0037932	0.0010851	1195.6	3.9422e-05	4.2597e-05	1510.8	339.08	4.1075e-05	4.2677e-05	532.5	179.57	94.842	39.674	4.1479e-05	85.812	194.746	-94.141	-47.348	-134.231	-30.153	-32.344	-134.433	-130.751	-19.943	57.323	-130.844	-127.346	-127.134	-121.192	21.246	-122.117	-8191	255	
#DATA ENDS
