BOXY.EXE: ISS Imagent and Oximeter Data Acquisition Program Version 0.80
Ascii Record File

#ACQ INFORMATION
2  Detector Channels 
16  External MUX Channels 
1  Auxiliary Channels 
5000  Waveform (CCF) Frequency (Hz)
1  Waveforms Skipped 
30  Waveforms Averaged 
1  Cycles Averaged 
16  Acquisitions per Waveform 
10.0806  Updata Rate (Hz) 

#FILE INFORMATION
TRUE -- External MUX Channel results are PARSED.
FALSE -- AC DC and Phase are NOT grouped.
TRUE -- Companion Program Settings File CREATED.
FALSE -- AC data not excluded
FALSE -- DC data not excluded
FALSE -- Phase data not excluded
FALSE -- Auxillary Chn. data not excluded
Tab delimiters

#CALIBRATION STATE
TRUE -- Waveform Calibration Values APPLIED.


#AUX CALIBRATION VALUES
Val Type	aux-1	

Term	1.0000e+00	
Factor	0.0000e+00	


#WF CALIBRATION VALUES
A = Detector Channel
Val Type	A-AC1	A-AC2	A-AC3	A-AC4	A-AC5	A-AC6	A-AC7	A-AC8	A-AC9	A-AC10	A-AC11	A-AC12	A-AC13	A-AC14	A-AC15	A-AC16	A-DC1	A-DC2	A-DC3	A-DC4	A-DC5	A-DC6	A-DC7	A-DC8	A-DC9	A-DC10	A-DC11	A-DC12	A-DC13	A-DC14	A-DC15	A-DC16	A-Ph1	A-Ph2	A-Ph3	A-Ph4	A-Ph5	A-Ph6	A-Ph7	A-Ph8	A-Ph9	A-Ph10	A-Ph11	A-Ph12	A-Ph13	A-Ph14	A-Ph15	A-Ph16	

Term	0.00000e+00	0.00000e+00	0.00000e+00	0.00000e+00	0.00000e+00	0.00000e+00	0.00000e+00	0.00000e+00	0.00000e+00	0.00000e+00	0.00000e+00	0.00000e+00	0.00000e+00	0.00000e+00	0.00000e+00	0.00000e+00	0.00000e+00	0.00000e+00	0.00000e+00	0.00000e+00	0.00000e+00	0.00000e+00	0.00000e+00	0.00000e+00	0.00000e+00	0.00000e+00	0.00000e+00	0.00000e+00	0.00000e+00	0.00000e+00	0.00000e+00	0.00000e+00	0.00000e+00	0.00000e+00	0.00000e+00	0.00000e+00	0.00000e+00	0.00000e+00	0.00000e+00	0.00000e+00	0.00000e+00	0.00000e+00	0.00000e+00	0.00000e+00	0.00000e+00	0.00000e+00	0.00000e+00	0.00000e+00	
Factor	1.00000e+00	1.00000e+00	1.00000e+00	1.00000e+00	1.00000e+00	1.00000e+00	1.00000e+00	1.00000e+00	1.00000e+00	1.00000e+00	1.00000e+00	1.00000e+00	1.00000e+00	1.00000e+00	1.00000e+00	1.00000e+00	1.00000e+00	1.00000e+00	1.00000e+00	1.00000e+00	1.00000e+00	1.00000e+00	1.00000e+00	1.00000e+00	1.00000e+00	1.00000e+00	1.00000e+00	1.00000e+00	1.00000e+00	1.00000e+00	1.00000e+00	1.00000e+00	X	X	X	X	X	X	X	X	X	X	X	X	X	X	X	X	

B = Detector Channel
Val Type	B-AC1	B-AC2	B-AC3	B-AC4	B-AC5	B-AC6	B-AC7	B-AC8	B-AC9	B-AC10	B-AC11	B-AC12	B-AC13	B-AC14	B-AC15	B-AC16	B-DC1	B-DC2	B-DC3	B-DC4	B-DC5	B-DC6	B-DC7	B-DC8	B-DC9	B-DC10	B-DC11	B-DC12	B-DC13	B-DC14	B-DC15	B-DC16	B-Ph1	B-Ph2	B-Ph3	B-Ph4	B-Ph5	B-Ph6	B-Ph7	B-Ph8	B-Ph9	B-Ph10	B-Ph11	B-Ph12	B-Ph13	B-Ph14	B-Ph15	B-Ph16	

Term	0.00000e+00	0.00000e+00	0.00000e+00	0.00000e+00	0.00000e+00	0.00000e+00	0.00000e+00	0.00000e+00	0.00000e+00	0.00000e+00	0.00000e+00	0.00000e+00	0.00000e+00	0.00000e+00	0.00000e+00	0.00000e+00	0.00000e+00	0.00000e+00	0.00000e+00	0.00000e+00	0.00000e+00	0.00000e+00	0.00000e+00	0.00000e+00	0.00000e+00	0.00000e+00	0.00000e+00	0.00000e+00	0.00000e+00	0.00000e+00	0.00000e+00	0.00000e+00	-1.33287e+02	-1.33058e+02	-1.22415e+02	-1.83602e+02	-6.63235e+01	-6.86494e+01	-1.58175e+02	-1.62015e+02	-6.98326e+01	-6.27199e+01	-1.70709e+02	-1.71243e+02	-1.78816e+02	-1.76819e+02	-7.21941e+01	-1.49827e+02	
Factor	1.98011e-05	1.68726e-04	4.68094e-05	1.72646e-01	1.25001e-06	1.72005e-06	1.91519e-01	5.90140e-02	1.19171e-06	1.73739e-06	9.70808e-02	3.25887e-02	3.02680e-02	1.03601e-02	1.44427e-06	1.45597e-02	1.17642e-05	1.95404e-05	5.41394e-06	8.28772e-02	1.95271e-07	2.18153e-07	8.65750e-02	2.84976e-02	1.98045e-07	2.18247e-07	4.54550e-02	1.53416e-02	1.48428e-02	5.03973e-03	2.04727e-07	6.86683e-03	X	X	X	X	X	X	X	X	X	X	X	X	X	X	X	X	



#DISTANCE SETTINGS
A = Detector Channel
A-1	A-2	A-3	A-4	A-5	A-6	A-7	A-8	A-9	A-10	A-11	A-12	A-13	A-14	A-15	A-16	

2.5000e+00	3.0000e+00	2.5000e+00	3.0000e+00	2.0000e+00	3.0000e+00	1.5000e+00	3.0000e+00	3.0000e+00	3.0000e+00	3.0000e+00	3.0000e+00	3.0000e+00	3.0000e+00	1.5000e+00	3.0000e+00	

B = Detector Channel
B-1	B-2	B-3	B-4	B-5	B-6	B-7	B-8	B-9	B-10	B-11	B-12	B-13	B-14	B-15	B-16	

1.0000e+01	1.0000e+01	1.0000e+01	1.4400e+00	1.0000e+01	1.0000e+01	1.5100e+00	1.9400e+00	1.0000e+01	1.0000e+01	1.9900e+00	2.4900e+00	2.4100e+00	2.9000e+00	1.0000e+01	2.9800e+00	




#DATA BEGINS
time	group	step	mark	flag	A-AC1	A-AC2	A-AC3	A-AC4	A-AC5	A-AC6	A-AC7	A-AC8	A-AC9	A-AC10	A-AC11	A-AC12	A-AC13	A-AC14	A-AC15	A-AC16	A-DC1	A-DC2	A-DC3	A-DC4	A-DC5	A-DC6	A-DC7	A-DC8	A-DC9	A-DC10	A-DC11	A-DC12	A-DC13	A-DC14	A-DC15	A-DC16	A-Ph1	A-Ph2	A-Ph3	A-Ph4	A-Ph5	A-Ph6	A-Ph7	A-Ph8	A-Ph9	A-Ph10	A-Ph11	A-Ph12	A-Ph13	A-Ph14	A-Ph15	A-Ph16	B-AC1	B-AC2	B-AC3	B-AC4	B-AC5	B-AC6	B-AC7	B-AC8	B-AC9	B-AC10	B-AC11	B-AC12	B-AC13	B-AC14	B-AC15	B-AC16	B-DC1	B-DC2	B-DC3	B-DC4	B-DC5	B-DC6	B-DC7	B-DC8	B-DC9	B-DC10	B-DC11	B-DC12	B-DC13	B-DC14	B-DC15	B-DC16	B-Ph1	B-Ph2	B-Ph3	B-Ph4	B-Ph5	B-Ph6	B-Ph7	B-Ph8	B-Ph9	B-Ph10	B-Ph11	B-Ph12	B-Ph13	B-Ph14	B-Ph15	B-Ph16	aux-1	digaux	

57434.141	1	1	0	768	0.17526	0.28414	0.036349	0.18188	0.16349	0.094053	0.27354	0.22034	0.12375	0.11748	0.24759	0.052082	0.16024	0.14422	0.1697	0.09345	-3.6729	-4.5104	-4.0292	-4.1896	-4.6625	-3.9208	-4.6646	-4.5146	-3.7083	-4.8313	-4.1625	-4.0771	-4.8229	-4.0354	-4.3896	-4.6792	88.728	17.683	1.652	126.889	83.814	35.241	199.660	101.703	135.915	-29.734	199.606	40.848	191.660	-6.895	34.021	-78.268	8.2662e-05	0.00028554	0.00010082	1061.7	1.9408e-06	3.9104e-06	1148.3	213.59	1.2003e-06	2.7626e-06	272.17	75.65	60.057	16.695	1.5497e-06	23.905	0.00017786	0.00017989	5.2075e-05	1041.9	2.0723e-06	2.0779e-06	1136	211.77	2.3398e-06	1.8642e-06	269.49	76.608	60.133	16.959	1.8212e-06	24.133	197.983	5.820	8.106	-92.428	46.745	52.533	-92.601	-85.093	35.639	53.842	-85.306	-78.862	-78.265	-70.771	-9.744	-70.941	-8191	255	
57434.234	1	1	0	0	0.31045	0.25671	0.13839	0.21743	0.16214	0.1673	0.10896	0.18574	0.12078	0.20114	0.23711	0.21223	0.13114	0.13778	0.17973	0.1935	-3.4292	-4.6292	-4.2	-4.0167	-4.6937	-3.8417	-4.4375	-4.5729	-3.7562	-4.6021	-4.375	-3.8146	-4.8812	-3.9833	-4.3812	-4.5667	50.124	189.867	35.548	236.831	-24.475	41.740	101.959	181.457	55.190	-63.428	156.738	-14.667	248.462	-83.866	-13.436	92.763	8.8339e-05	0.00021491	6.5175e-05	1068.2	9.051e-07	2.6768e-06	1150.3	213.21	1.8579e-06	3.7056e-06	271.7	75.255	59.818	17.098	1.9623e-06	23.914	0.00018112	0.00017692	4.9504e-05	1045.9	2.0097e-06	2.0402e-06	1137.5	211.96	2.1979e-06	1.9106e-06	269.45	76.382	60.194	17.051	1.8805e-06	24.125	198.142	-8.019	-39.538	-92.782	106.505	29.878	-92.444	-84.982	40.086	38.177	-85.530	-78.976	-78.583	-70.717	-4.595	-71.343	-8191	255	
57434.336	1	1	0	0	0.17491	0.14484	0.16989	0.17321	0.23903	0.036077	0.069807	0.10365	0.23992	0.067819	0.099466	0.03293	0.12622	0.12896	0.10328	0.11824	-3.4792	-4.3729	-4.4167	-4.1292	-4.6917	-4.2229	-4.3146	-4.7292	-3.7167	-4.3917	-4.4812	-4.0917	-4.7208	-4.0687	-4.1125	-4.8292	172.004	78.537	217.125	246.020	130.380	42.107	93.973	99.309	-53.967	151.420	68.780	14.458	228.495	-39.428	243.947	181.112	0.00010178	0.00030008	8.7285e-05	1070.7	3.0161e-06	1.9992e-06	1152.1	214.23	1.5065e-06	3.6067e-06	271.16	75.537	59.858	16.997	7.1963e-07	24.092	0.00017217	0.00018348	5.0665e-05	1046.4	1.8787e-06	1.9488e-06	1139.1	211.94	2.0741e-06	1.9183e-06	269.64	76.687	60.133	17.084	1.8775e-06	24.163	184.095	-36.473	-8.394	-92.853	22.438	75.046	-92.568	-84.917	19.042	38.809	-85.378	-79.172	-78.333	-70.613	24.719	-71.544	-8191	255	
57434.430	1	1	0	0	0.26116	0.14353	0.083565	0.29721	0.18678	0.33211	0.097753	0.18492	0.038631	0.16454	0.16411	0.11721	0.05102	0.047775	0.079179	0.016477	-3.5563	-4.3458	-4.4083	-3.9271	-4.6167	-4.1375	-4.0813	-4.8375	-3.7375	-4.3583	-4.5792	-3.8771	-4.5958	-4.3021	-3.8646	-4.7812	95.893	18.698	198.446	218.469	11.762	-62.896	105.910	203.618	180.821	111.748	219.926	81.525	199.286	140.802	35.126	31.522	8.2388e-05	0.00032002	7.6334e-05	1069.6	2.0257e-06	1.5871e-06	1159.6	213.47	8.5697e-07	3.1045e-06	272.41	75.913	60.138	16.977	2.4266e-06	23.978	0.00016188	0.00017208	4.3729e-05	1049.1	2.0723e-06	1.8457e-06	1140.3	212.2	2.1715e-06	1.8369e-06	270.7	76.666	60.316	17.04	1.9782e-06	24.18	187.882	-48.159	-10.807	-92.542	54.306	70.281	-92.633	-85.010	4.932	56.656	-85.695	-79.030	-78.344	-70.754	20.552	-71.083	-8191	255	
57434.523	1	1	0	0	0.076701	0.070837	0.051113	0.11721	0.11888	0.13204	0.26404	0.079362	0.20974	0.086895	0.029973	0.089452	0.17838	0.18232	0.069776	0.17442	-3.6312	-4.2833	-4.6083	-3.9958	-4.5917	-4.3562	-3.975	-4.8958	-3.9896	-4.0333	-4.6271	-3.8375	-4.4979	-4.5125	-3.8896	-4.775	113.784	2.849	109.823	-13.433	12.848	89.300	77.207	-29.882	157.374	-73.845	78.624	-9.379	-79.430	211.865	214.674	-83.139	7.8928e-05	0.000296	9.0983e-05	1069.8	1.4655e-06	2.3782e-06	1157.4	212.96	1.1867e-06	2.7425e-06	270.99	75.584	60.269	16.859	1.6826e-06	23.911	0.00017362	0.00016992	4.6729e-05	1047	2.1162e-06	1.8238e-06	1139.7	211.77	2.1368e-06	1.9051e-06	269.83	76.829	60.298	17.023	1.9799e-06	24.201	184.346	-22.322	10.932	-92.637	18.046	19.408	-92.643	-85.068	27.963	52.691	-85.203	-78.852	-78.504	-70.868	45.688	-71.328	-8191	255	
57434.621	1	1	0	0	0.10707	0.117	0.26492	0.20766	0.14073	0.108	0.30558	0.28144	0.15133	0.26454	0.08562	0.22773	0.23624	0.098509	0.051689	0.20227	-3.7417	-4.1062	-4.5583	-4.0646	-4.3854	-4.3604	-4.1979	-4.7104	-4.1146	-4.1646	-4.7396	-3.8458	-4.4313	-4.4104	-3.7979	-4.7271	50.025	78.794	150.352	-74.648	8.924	3.571	204.207	244.050	-8.755	109.339	-52.149	-101.047	-91.978	68.452	-84.254	170.361	9.6867e-05	0.00026289	7.7272e-05	1066	1.1905e-06	2.3911e-06	1157.5	212.81	2.2138e-06	2.6629e-06	272.81	75.436	60.001	16.907	2.3922e-06	23.982	0.00016793	0.00018164	4.6312e-05	1048.2	2.0617e-06	1.7343e-06	1140.5	211.46	2.0304e-06	1.866e-06	269.91	76.727	60.337	17.069	2.0255e-06	24.161	191.573	-24.308	6.745	-92.673	72.507	37.661	-92.423	-85.352	-16.071	53.071	-85.268	-78.965	-78.458	-70.659	37.187	-71.187	-8191	255	
57434.742	1	1	0	0	0.18511	0.21576	0.074946	0.057498	0.21192	0.19983	0.071403	0.17791	0.14118	0.14145	0.20291	0.10507	0.089884	0.082977	0.28679	0.15019	-3.8646	-3.9292	-4.6771	-3.9271	-4.4229	-4.5563	-3.9771	-4.7854	-4.1312	-3.9813	-4.6042	-4.1396	-4.2417	-4.5833	-3.6375	-4.6167	102.585	-45.510	22.655	25.641	119.938	172.390	-25.268	-38.285	-14.784	46.531	-1.642	9.591	172.599	203.163	210.353	-75.643	8.4877e-05	0.00029304	8.0886e-05	1067.6	1.2755e-06	3.4003e-06	1162.3	212.93	1.1286e-06	2.8152e-06	271.21	75.763	59.794	17.053	1.9762e-06	23.876	0.00017411	0.00017065	4.1473e-05	1046.9	1.9259e-06	1.7734e-06	1143.3	211.72	2.0258e-06	1.7924e-06	269.5	76.955	60.168	17.094	2.0549e-06	24.171	188.574	-3.761	21.472	-92.590	7.361	55.470	-92.597	-85.312	43.883	76.409	-85.361	-78.535	-78.298	-70.865	32.543	-71.287	-8191	255	
57434.836	1	1	0	0	0.18784	0.21144	0.045964	0.2957	0.1831	0.053841	0.081211	0.10143	0.17436	0.085757	0.2372	0.032316	0.084992	0.3053	0.14059	0.2123	-3.9437	-3.7313	-4.6438	-4.0521	-4.0563	-4.7771	-3.9917	-4.4625	-4.2979	-3.8729	-4.65	-4.1104	-3.9417	-4.7604	-3.8479	-4.5208	118.972	49.372	62.670	178.489	63.555	143.731	250.133	184.048	138.951	167.502	218.133	-41.998	140.768	141.340	59.027	180.861	8.8309e-05	0.00034337	9.6927e-05	1067.4	1.1953e-06	2.7504e-06	1154.2	214.72	5.4147e-07	3.0292e-06	271.94	75.718	60.307	16.907	1.8472e-06	24.007	0.00016146	0.00017957	4.1484e-05	1047.5	2.1793e-06	1.7448e-06	1138.8	212.22	1.9049e-06	1.9679e-06	269.74	76.843	60.311	17.086	2.0404e-06	24.152	184.255	-45.760	-1.009	-92.570	10.756	75.246	-92.535	-85.228	34.548	86.161	-85.548	-79.387	-78.210	-70.958	28.438	-71.500	-8191	255	
57434.934	1	1	0	0	0.058254	0.12888	0.019452	0.24861	0.055685	0.10481	0.27034	0.1126	0.33946	0.21842	0.096842	0.21384	0.24402	0.13828	0.073672	0.20077	-4.1687	-3.8875	-4.7021	-4.2833	-3.9708	-4.7104	-3.9625	-4.5	-4.4646	-3.8771	-4.8167	-4.2354	-4.0396	-4.5708	-3.7354	-4.3229	140.032	247.265	-29.388	227.143	147.537	107.464	65.965	123.157	68.918	178.307	26.549	133.526	-98.093	126.368	66.272	242.162	6.7394e-05	0.00032016	5.3411e-05	1073.3	1.187e-06	2.6382e-06	1155	213.49	1.1846e-06	1.8656e-06	272.24	75.905	59.469	16.906	1.7489e-06	23.911	0.00016825	0.00018185	4.7417e-05	1045.9	2.0739e-06	1.6739e-06	1139.4	211.99	1.9681e-06	1.8387e-06	269.67	76.697	59.954	17.018	2.078e-06	24.147	183.706	-24.214	-29.829	-92.529	37.921	61.750	-92.185	-85.168	29.511	82.721	-85.211	-79.307	-78.311	-70.862	41.461	-71.365	-8191	255	
57435.031	1	1	0	0	0.16677	0.17721	0.14231	0.35385	0.08233	0.03286	0.11276	0.21666	0.13812	0.12078	0.23362	0.21535	0.12807	0.17462	0.0851	0.2223	-4.0604	-3.7292	-4.5729	-4.3	-3.8812	-4.6792	-4.1708	-4.3271	-4.5938	-3.8625	-4.5833	-4.4833	-3.8396	-4.7083	-3.9604	-4.1083	-48.957	83.153	223.815	248.851	103.988	-80.622	168.642	181.194	-94.892	220.003	-2.292	244.008	183.929	231.635	200.956	181.841	7.8317e-05	0.00031002	7.3101e-05	1067.8	7.5953e-07	2.4865e-06	1154.9	212.68	8.6081e-07	2.2334e-06	273.42	75.924	60.225	17.077	2.3091e-06	23.89	0.00017031	0.00018596	5.2323e-05	1046.8	2.2354e-06	1.7507e-06	1138.7	211.31	1.9454e-06	1.9692e-06	269.58	76.858	60.215	17.089	1.9108e-06	24.203	189.388	-35.989	2.361	-92.604	60.486	43.576	-92.267	-85.196	21.698	55.345	-85.426	-78.737	-78.887	-70.931	9.748	-71.060	-8191	255	
57435.125	1	1	0	0	0.091535	0.16945	0.15932	0.071055	0.16322	0.044603	0.1774	0.079523	0.096738	0.12083	0.22984	0.1132	0.26168	0.13799	0.21434	0.075687	-4.2812	-3.8271	-4.3625	-4.6083	-3.8	-4.6229	-4.1104	-4.1937	-4.7042	-3.7438	-4.5354	-4.3417	-3.9625	-4.6937	-4.2708	-4.0312	-29.767	211.649	110.928	-101.522	-23.558	-32.879	172.164	110.169	-71.906	-102.162	-100.926	236.152	-22.592	223.950	46.239	256.406	9.0207e-05	0.0001331	8.771e-05	1070.3	1.197e-06	3.5294e-06	1156.6	213.85	2.3373e-06	2.8306e-06	274.24	76.385	60.225	17.025	2.5093e-06	23.901	0.00016445	0.00017501	4.3515e-05	1048.9	2.1195e-06	1.6634e-06	1142.6	212.22	1.8946e-06	1.836e-06	270.45	76.884	60.378	17.098	1.7312e-06	24.19	190.028	9.263	-7.708	-92.678	34.760	34.310	-92.490	-85.360	12.879	39.328	-85.369	-78.749	-78.687	-70.741	18.311	-71.535	-8191	255	
57435.223	1	1	0	0	0.13514	0.17239	0.13742	0.16726	0.087708	0.032096	0.13064	0.28237	0.17532	0.12692	0.095567	0.0611	0.22159	0.17085	0.10299	0.1423	-4.3375	-3.8667	-4.5083	-4.7271	-3.8979	-4.6125	-4.3896	-4.0375	-4.7812	-3.9146	-4.5271	-4.7146	-3.8479	-4.4958	-4.175	-3.9208	173.618	-69.767	1.138	241.841	-23.953	159.195	249.303	113.722	-12.164	49.815	-95.899	75.106	145.211	182.516	180.577	-48.469	6.7774e-05	0.00022287	6.0323e-05	1073.6	2.087e-06	2.1494e-06	1157.1	214.95	1.6125e-06	3.6401e-06	271.64	76.227	60.145	17.058	5.6338e-07	23.977	0.00015524	0.00016137	4.3436e-05	1049.9	2.1411e-06	1.7098e-06	1140.2	212.6	1.6974e-06	1.982e-06	270.17	76.884	60.275	17.146	1.7479e-06	24.266	184.533	-19.602	-4.217	-92.612	33.418	56.169	-92.350	-85.326	18.209	71.060	-85.381	-78.495	-78.398	-70.971	33.684	-71.341	-8191	255	
57435.340	1	1	0	0	0.083866	0.025886	0.1516	0.29449	0.20755	0.15532	0.059534	0.042047	0.21702	0.14779	0.15135	0.11743	0.10447	0.12253	0.20414	0.13274	-4.4667	-4.0417	-4.1708	-4.7354	-3.7771	-4.6083	-4.5437	-3.825	-4.5333	-3.9229	-4.0875	-4.6438	-3.7104	-4.3313	-4.4437	-3.8688	202.159	43.687	-73.880	222.386	237.560	-66.770	27.916	27.560	139.731	228.453	14.785	202.268	57.869	-58.477	48.231	-42.745	7.5373e-05	0.00025357	4.8816e-05	1067	1.3964e-06	1.6568e-06	1153.2	212.77	9.0099e-07	3.644e-06	270.87	76.36	60.113	17.077	1.2729e-06	23.927	0.00016134	0.00018059	4.9256e-05	1048.1	2.0638e-06	1.5775e-06	1139.1	211.64	1.7564e-06	1.7464e-06	270.08	76.828	60.224	17.109	1.7014e-06	24.185	187.840	-15.301	17.735	-92.351	50.411	80.035	-92.380	-85.203	8.066	24.118	-85.203	-79.208	-78.619	-70.899	24.056	-71.347	-8191	255	
57435.438	1	1	0	0	0.29471	0.1798	0.068175	0.21142	0.14661	0.063923	0.27453	0.24962	0.22799	0.17086	0.20074	0.14471	0.18326	0.10835	0.20675	0.12647	-4.4167	-3.9188	-3.9	-4.8375	-3.8771	-4.6146	-4.6312	-3.7958	-4.6229	-4.1729	-3.95	-4.7562	-4	-4.3521	-4.5188	-3.8542	162.261	23.084	96.172	255.938	-85.274	1.630	122.108	232.605	143.678	235.687	221.316	218.101	246.245	213.550	220.948	145.939	8.8571e-05	0.00026388	4.8503e-05	1069.4	1.7992e-06	2.2469e-06	1151.5	214.07	1.6343e-06	3.1206e-06	270	75.763	60.259	16.919	1.2865e-06	23.922	0.00016188	0.00016015	4.3368e-05	1046.8	2.1138e-06	1.6471e-06	1137.5	212.12	1.8138e-06	1.6523e-06	268.93	76.702	60.338	17.088	1.5427e-06	24.167	196.737	-31.388	29.513	-92.430	45.939	56.194	-92.459	-85.360	23.988	34.370	-85.333	-79.066	-78.760	-71.094	89.485	-71.595	-8191	255	
57435.531	1	1	0	0	0.093292	0.089936	0.068025	0.17183	0.11939	0.070824	0.1216	0.1668	0.047081	0.17046	0.22542	0.11936	0.056141	0.16472	0.24139	0.32585	-4.2708	-4.3187	-3.9688	-4.9062	-3.9375	-4.2604	-4.5646	-3.7542	-4.5646	-4.4542	-3.8792	-4.65	-4.125	-4.2646	-4.6708	-3.8354	-93.552	-45.135	-69.133	225.893	-18.707	6.229	-87.350	204.680	80.012	41.174	-70.117	240.374	-57.094	246.618	171.702	-85.729	9.7802e-05	0.00028625	5.5378e-05	1063.8	1.0359e-06	3.6858e-06	1149.2	213.08	1.7101e-06	1.5145e-06	271.46	76.287	60.045	16.954	1.4155e-06	23.821	0.00016683	0.00015555	4.5195e-05	1043.8	2.0068e-06	1.8298e-06	1135	211.46	1.7977e-06	1.5959e-06	268.38	76.845	60.259	17.097	1.6173e-06	24.089	200.323	-26.046	-2.378	-92.513	80.183	44.015	-92.338	-85.007	32.943	63.804	-85.293	-79.047	-78.154	-70.483	47.477	-71.142	-8191	255	
57435.629	1	1	0	0	0.12088	0.25263	0.11273	0.18918	0.12568	0.23277	0.17963	0.18726	0.055748	0.11726	0.040718	0.20219	0.14331	0.28718	0.079379	0.12756	-4.1375	-4.3604	-3.7562	-4.9146	-3.9417	-4.0021	-4.6875	-3.7104	-4.3417	-4.6375	-3.9917	-4.6104	-4.0729	-4.0729	-4.5958	-3.8396	-83.846	187.574	-67.975	232.738	158.289	204.261	175.487	215.690	11.887	-51.781	-45.782	223.914	-54.094	240.006	133.176	-97.526	0.00010456	0.00040901	5.9812e-05	1065.4	1.6869e-06	2.5449e-06	1148	213.98	1.6545e-06	3.1211e-06	271.47	75.847	59.694	16.832	1.9248e-06	23.976	0.00017232	0.00016776	4.4958e-05	1042.9	2.0109e-06	1.8161e-06	1131.2	211.41	1.7791e-06	1.7451e-06	268.57	76.313	60.019	17.027	1.6523e-06	24.116	178.640	-32.052	-12.683	-92.293	31.385	39.121	-92.146	-85.460	54.843	52.009	-85.144	-78.652	-78.343	-71.266	31.580	-71.527	-8191	255	
57435.699	1	1	0	0	0.21288	0.11273	0.096398	0.088341	0.095464	0.097116	0.1209	0.13608	0.034832	0.12282	0.15786	0.030615	0.13018	0.082689	0.062344	0.13235	-4.0625	-4.3042	-3.6437	-4.6958	-4.1687	-3.8312	-4.9563	-4.0896	-4.3708	-4.4854	-3.8229	-4.6458	-4.3708	-3.8563	-4.7708	-3.9479	-72.867	157.858	198.340	-85.344	63.495	150.891	199.101	130.850	82.930	243.764	162.801	72.067	78.248	214.634	238.438	-23.574	8.0861e-05	0.00034877	5.8313e-05	1063	1.8669e-06	1.9694e-06	1148.3	213.42	1.7806e-07	2.897e-06	269.79	75.595	59.826	16.947	2.8997e-06	23.763	0.00015889	0.00014529	4.5793e-05	1040	1.9836e-06	1.7434e-06	1133	211.24	1.7325e-06	1.6055e-06	268.27	76.467	59.96	17.012	1.608e-06	24.067	188.443	-1.957	-31.485	-92.658	57.716	16.801	-92.211	-84.984	95.938	76.438	-85.729	-79.331	-78.876	-71.139	31.408	-71.562	-8191	255	
57435.820	1	1	0	0	0.34002	0.2682	0.14266	0.32421	0.2716	0.18862	0.15586	0.20502	0.0087381	0.33843	0.14423	0.23661	0.080936	0.051629	0.07211	0.1646	-3.7938	-4.4125	-3.7979	-4.6875	-4.1292	-3.8187	-4.8438	-3.9	-4.3292	-4.7271	-3.7771	-4.7354	-4.3667	-3.7979	-4.6188	-4.1083	-97.041	256.720	-59.198	200.124	114.302	119.413	210.984	-80.451	82.798	60.555	183.902	172.177	-22.191	218.945	188.548	230.847	8.8146e-05	0.00034004	4.865e-05	1062.2	1.1412e-06	2.8656e-06	1147	212.59	1.5495e-06	3.579e-06	269.49	75.519	59.877	16.929	2.8993e-06	23.906	0.00015808	0.00014847	4.0413e-05	1040.8	1.8892e-06	1.7811e-06	1131.8	210.64	1.9136e-06	1.7041e-06	267.55	76.664	59.975	17.02	1.6382e-06	24.12	177.930	-40.384	-15.318	-92.354	-1.615	29.379	-92.262	-85.070	-6.978	43.704	-85.359	-78.584	-78.352	-71.054	31.548	-71.091	-8191	255	
57435.918	1	1	0	0	0.26382	0.024342	0.064057	0.23595	0.073012	0.12327	0.13514	0.084225	0.014958	0.15604	0.16767	0.18965	0.15744	0.0084848	0.26534	0.10875	-3.7583	-4.6125	-3.6625	-4.4667	-4.1979	-3.7	-4.925	-4.0667	-4.0792	-4.7208	-3.8333	-4.3146	-4.3646	-3.6792	-4.7312	-4.1604	-68.074	184.542	160.982	100.501	6.917	-0.873	192.647	146.071	78.866	-102.917	94.000	-83.615	244.533	226.199	-77.223	220.604	7.6776e-05	0.0002355	7.0473e-05	1067.3	1.6817e-06	3.2599e-06	1146.5	212.9	1.7099e-06	1.9279e-06	271.36	75.347	60.139	17.021	2.119e-06	23.79	0.0001661	0.0001586	4.206e-05	1042.7	1.9914e-06	1.8075e-06	1130.5	210.9	1.9169e-06	1.4477e-06	268.59	76.352	60.102	17.05	1.6583e-06	24.063	190.216	-19.116	-0.345	-92.802	28.185	63.750	-92.469	-85.336	27.160	46.962	-85.231	-78.864	-78.290	-70.458	38.653	-71.657	-8191	255	
57436.016	1	1	0	0	0.14958	0.25067	0.18109	0.26492	0.078419	0.097418	0.085339	0.18653	0.082217	0.090523	0.060633	0.27549	0.21157	0.12935	0.098143	0.058657	-3.6729	-4.6458	-3.8979	-4.4646	-4.4271	-3.8312	-4.8	-4.3292	-3.8937	-4.7417	-4.0208	-4.2646	-4.5417	-3.8125	-4.6333	-4.2292	-1.723	112.870	219.852	200.277	-77.081	139.772	201.828	146.457	141.881	41.037	-7.155	164.432	255.059	231.441	193.070	-63.115	9.0868e-05	0.00026577	5.717e-05	1064.1	1.6674e-06	3.2199e-06	1145.2	212.02	1.6258e-06	1.7528e-06	271.98	75.382	59.802	16.924	1.8501e-06	24.103	0.00015965	0.00015372	4.3593e-05	1041.3	2.0516e-06	1.7684e-06	1129	210.74	1.8497e-06	1.5309e-06	268.48	76.299	59.938	17.012	1.657e-06	24.164	186.418	28.296	-18.367	-92.612	26.152	26.765	-92.302	-85.026	23.850	54.069	-85.250	-78.573	-77.938	-70.581	27.870	-71.404	-8191	255	
57436.137	1	1	0	0	0.19387	0.1192	0.14351	0.043731	0.19948	0.074958	0.072769	0.25313	0.072819	0.09503	0.2151	0.26071	0.25812	0.18514	0.18019	0.34547	-3.5167	-4.6271	-3.7583	-4.3667	-4.6646	-3.8563	-4.5729	-4.5021	-3.8854	-4.8104	-4.0062	-4.0646	-4.6708	-3.9104	-4.3354	-4.4146	-14.911	194.727	-31.081	218.170	245.250	172.647	210.416	213.550	-37.186	-94.980	136.539	-95.418	204.436	-64.630	215.962	217.394	8.331e-05	0.00028821	0.00010824	1060.1	1.5169e-06	2.5965e-06	1143.1	211.65	1.5209e-06	3.2978e-06	268.28	75.237	59.801	17.013	1.0878e-06	23.877	0.00016247	0.00014639	4.6932e-05	1039.3	1.8591e-06	1.6602e-06	1130.7	210.79	1.9842e-06	1.6405e-06	267.58	76.264	59.873	17.033	1.5956e-06	24.052	184.712	-29.000	-11.627	-92.186	64.254	56.061	-92.323	-85.010	16.912	61.027	-85.275	-79.031	-78.308	-70.859	28.184	-71.043	-8191	255	
57436.230	1	1	0	0	0.162	0.10482	0.17342	0.075529	0.19383	0.25607	0.25637	0.29969	0.068858	0.21909	0.13515	0.03412	0.20975	0.12971	0.10024	0.22442	-3.65	-4.6354	-4.0542	-3.9938	-4.6104	-3.7958	-4.4333	-4.5833	-3.6417	-4.6375	-4.2042	-3.9562	-4.6042	-3.8833	-4.2917	-4.5146	218.746	58.728	-85.062	240.851	-91.697	110.796	162.015	215.306	108.090	193.319	167.773	249.062	-89.789	213.149	-59.462	92.124	8.7344e-05	0.00035079	6.2837e-05	1062.5	1.156e-06	1.8138e-06	1144.3	211.26	1.1519e-06	4.7894e-07	270.43	75.637	59.423	16.815	2.3985e-06	23.508	0.00016509	0.00014895	4.427e-05	1040.1	1.8115e-06	1.8348e-06	1128.8	210.43	1.9916e-06	1.6009e-06	268.21	76.19	59.729	16.927	1.6771e-06	23.899	195.860	-17.797	11.327	-92.728	32.482	25.684	-92.170	-85.008	32.276	101.336	-85.140	-78.942	-78.540	-71.035	40.427	-71.732	-8191	255	
57436.301	1	1	0	0	0.091701	0.046758	0.077699	0.12724	0.14608	0.14091	0.23292	0.14556	0.021633	0.094525	0.13342	0.17542	0.30061	0.26861	0.074766	0.045945	-3.475	-4.6312	-4.2771	-4.0896	-4.6833	-3.9208	-4.3667	-4.5917	-3.7729	-4.6729	-4.2396	-3.9208	-4.7542	-3.8688	-4.1771	-4.6062	172.018	-91.657	156.329	209.894	83.349	13.695	128.290	-56.923	90.941	-34.179	-54.205	-7.554	233.670	15.291	-95.492	211.425	7.9435e-05	0.00023523	8.3687e-05	1058.4	1.7464e-06	2.7307e-06	1142.5	212.77	1.247e-06	1.5616e-06	270.76	75.31	59.726	16.743	2.7015e-06	23.83	0.00017465	0.00014948	4.621e-05	1036.2	1.8661e-06	1.6689e-06	1128.5	210.47	2.0015e-06	1.6228e-06	267.38	76.232	59.851	16.917	1.7163e-06	23.949	195.271	-20.430	-4.258	-92.836	29.359	55.167	-92.377	-85.355	19.033	65.888	-85.164	-78.998	-78.561	-71.236	37.351	-71.190	-8191	255	
57436.422	1	1	0	0	0.12633	0.1488	0.23538	0.048212	0.15494	0.074994	0.028755	0.070268	0.099345	0.17157	0.31181	0.22541	0.050613	0.1054	0.078508	0.10009	-3.4729	-4.4313	-4.2562	-3.9938	-4.6917	-4.1271	-4.225	-4.5437	-3.7979	-4.3313	-4.2458	-3.8229	-4.6083	-4.0354	-3.7979	-4.7271	143.062	29.016	193.320	-31.928	233.087	139.453	48.961	125.735	156.048	49.045	82.560	-78.329	124.758	185.636	248.978	152.275	7.7009e-05	0.00019383	8.1373e-05	1054.5	6.6153e-07	2.9351e-06	1148	211.25	1.3071e-06	1.9177e-06	269.11	75.182	59.724	16.861	1.5383e-06	23.591	0.00016987	0.00015987	3.8529e-05	1035.6	1.8343e-06	1.6161e-06	1129.1	210.18	1.862e-06	1.7201e-06	266.38	76.098	59.763	16.94	1.7683e-06	23.912	196.744	-55.502	-10.023	-92.645	46.365	36.453	-92.506	-85.029	31.330	66.361	-85.566	-78.725	-78.203	-70.614	46.959	-71.449	-8191	255	
57436.520	1	1	0	0	0.13552	0.19364	0.049969	0.055504	0.13859	0.076002	0.13326	0.053993	0.22867	0.26329	0.1215	0.16967	0.18185	0.019066	0.076941	0.17134	-3.3708	-4.35	-4.4437	-3.9208	-4.6208	-4.0479	-4.0875	-4.75	-3.7958	-4.1646	-4.675	-3.8521	-4.4792	-4.175	-4.0729	-4.7292	24.699	152.548	-71.560	90.639	218.452	93.309	-15.577	83.885	-8.532	-36.546	236.221	-90.073	190.970	22.162	-45.448	25.137	7.9404e-05	0.00019295	5.1799e-05	1060	1.5938e-06	2.6307e-06	1142.2	211.7	1.2797e-07	6.5032e-07	268.33	75.338	59.581	16.83	3.5872e-06	24.005	0.0001721	0.00015579	4.2274e-05	1036.3	1.8657e-06	1.6207e-06	1127.6	210.5	2.039e-06	1.5055e-06	266.92	76.07	59.938	16.93	1.8396e-06	23.985	179.155	-24.116	-24.663	-92.886	28.077	11.463	-92.509	-85.168	-2.449	58.459	-85.086	-78.629	-78.360	-70.576	38.492	-71.145	-8191	255	
57436.613	1	1	0	0	0.18568	0.073673	0.090887	0.39769	0.096476	0.27608	0.31887	0.081314	0.12586	0.119	0.086365	0.37704	0.25441	0.29721	0.095854	0.36085	-3.5687	-4.3875	-4.6042	-3.8042	-4.4563	-4.3292	-4.125	-4.6708	-3.9667	-4.1667	-4.6875	-3.7854	-4.5479	-4.3438	-3.8563	-4.6271	238.962	-20.815	49.057	189.930	214.152	91.389	236.830	136.146	115.015	44.639	-98.607	-63.356	-96.223	237.725	11.404	234.565	7.6872e-05	0.00020689	5.9431e-05	1057.5	2.441e-06	1.7846e-06	1139.3	212.74	1.2554e-06	2.3067e-06	268.88	75.432	59.526	16.927	1.5346e-06	23.859	0.00016725	0.00015156	3.9172e-05	1036.9	1.8327e-06	1.6071e-06	1124.9	210.48	1.9037e-06	1.7714e-06	267.46	76.128	59.648	16.879	1.7572e-06	23.978	184.650	-25.701	-0.531	-92.475	13.016	18.306	-92.483	-85.035	69.340	63.212	-85.142	-79.289	-78.196	-70.816	42.857	-71.028	-8191	255	
57436.734	1	1	0	0	0.27604	0.22143	0.19884	0.092994	0.13356	0.1569	0.15252	0.14161	0.10097	0.060376	0.081565	0.15256	0.18253	0.12749	0.11895	0.079184	-3.875	-3.8854	-4.6604	-3.8458	-4.5896	-4.6667	-3.9667	-4.7083	-4.1729	-4.1104	-4.625	-4.025	-4.2146	-4.675	-4.0542	-4.7833	43.400	130.269	3.821	-13.279	182.521	88.224	211.126	-58.683	52.065	-22.024	194.729	-58.614	139.739	-78.537	70.730	203.491	8.752e-05	0.00043734	6.365e-05	1058.6	1.1186e-06	1.9972e-06	1143.5	212.51	1.5274e-06	3.1013e-06	268.62	74.756	59.629	16.822	2.0469e-06	23.699	0.0001696	0.00015213	3.8822e-05	1034.7	1.8945e-06	1.548e-06	1125.6	210.21	1.8096e-06	1.7346e-06	267.26	76.012	59.866	16.896	1.8229e-06	23.991	180.497	-10.971	16.383	-92.492	58.095	43.193	-92.473	-85.053	64.838	18.403	-85.370	-78.795	-78.364	-70.963	31.328	-71.781	-8191	255	
57436.828	1	1	0	0	0.13444	0.16192	0.14205	0.15596	0.026087	0.13159	0.27513	0.073376	0.078526	0.042664	0.055277	0.23628	0.053029	0.036004	0.20234	0.19091	-3.9104	-3.9208	-4.5646	-4.0833	-4.2396	-4.5646	-3.8896	-4.5792	-4.2688	-3.8667	-4.8187	-3.8187	-4.4125	-4.6271	-3.7938	-4.5104	14.754	77.176	256.285	80.477	168.003	64.557	34.564	-11.700	74.122	175.801	255.172	172.605	-38.194	120.498	105.611	185.060	8.5236e-05	0.00032096	7.4161e-05	1053.9	4.2016e-07	2.5228e-06	1140.9	212.1	2.1463e-06	1.941e-06	268.53	74.776	59.1	16.824	1.7269e-06	23.803	0.00015485	0.00016292	4.021e-05	1034.6	1.9714e-06	1.5053e-06	1125.4	210.47	1.7915e-06	1.6382e-06	266.86	76.135	59.665	16.902	1.6562e-06	23.937	192.265	-33.814	-25.638	-92.533	62.244	63.001	-92.321	-84.884	7.935	45.805	-85.419	-78.872	-78.915	-70.520	20.703	-71.346	-8191	255	
57436.926	1	1	0	0	0.11717	0.028546	0.11244	0.13039	0.074937	0.2409	0.45135	0.2597	0.12941	0.12621	0.2689	0.25301	0.20538	0.054482	0.14942	0.19939	-4	-3.9979	-4.6562	-4.1729	-4.1479	-4.4917	-3.925	-4.5083	-4.3479	-3.9083	-4.825	-4.0417	-4.075	-4.6875	-3.7458	-4.65	161.541	47.942	-98.569	-90.887	208.626	137.097	220.650	231.581	-94.270	121.248	-98.781	59.122	214.454	96.879	136.317	120.121	9.1024e-05	0.00026079	3.6406e-05	1057.8	1.8264e-06	3.3977e-06	1139.3	212.64	9.6975e-07	2.8188e-06	269.73	75.358	59.753	16.879	1.7214e-06	23.724	0.00016607	0.00015482	4.3932e-05	1036.1	1.9295e-06	1.5616e-06	1126	210.64	1.7878e-06	1.7596e-06	267.84	76.115	59.83	16.92	1.8208e-06	23.898	195.606	-45.039	-14.472	-92.313	42.908	27.619	-92.462	-84.957	37.977	64.901	-85.269	-79.201	-78.396	-70.908	50.714	-71.380	-8191	255	
57436.996	1	1	0	0	0.071211	0.29779	0.29794	0.26906	0.15546	0.1131	0.28252	0.10544	0.19646	0.16508	0.049387	0.048667	0.24889	0.30629	0.10436	0.2993	-4.0042	-3.6729	-4.475	-4.1854	-4.1292	-4.7604	-4.0042	-4.5792	-4.3958	-3.8771	-4.7188	-4.3208	-3.8187	-4.7146	-3.8646	-4.3083	179.913	84.086	126.067	217.020	86.545	82.370	218.866	203.368	113.712	87.354	223.524	169.335	-70.861	205.268	-95.594	-34.653	8.0304e-05	0.00019093	3.9268e-05	1057.9	4.114e-07	3.3153e-06	1137.1	211.91	3.945e-07	1.8529e-06	268.2	75.904	59.062	16.883	2.3561e-06	23.575	0.00015967	0.00018079	4.427e-05	1037.7	2.08e-06	1.5007e-06	1126.2	210.41	1.8691e-06	1.7342e-06	267.57	76.243	59.68	16.945	1.8234e-06	23.916	179.637	-34.477	-13.786	-92.537	8.228	38.555	-92.703	-85.171	-15.390	67.270	-85.296	-78.883	-78.062	-70.819	34.057	-71.659	-8191	255	
57437.117	1	1	0	0	0.05032	0.32739	0.18151	0.20327	0.19758	0.15669	0.12779	0.050548	0.15837	0.1382	0.084748	0.22541	0.24167	0.19986	0.061797	0.25856	-4.1542	-3.8146	-4.5646	-4.3729	-3.8104	-4.6646	-3.9604	-4.2542	-4.6146	-3.6333	-4.5083	-4.3375	-3.8063	-4.7167	-3.9208	-4.1917	202.529	10.085	16.563	147.555	-74.727	-86.180	96.505	-51.653	24.656	63.092	255.005	227.628	224.743	-10.281	208.419	216.878	8.219e-05	0.00029775	9.6883e-05	1055.4	1.016e-06	2.9837e-06	1136.7	212.15	1.8757e-06	2.913e-06	268.91	75.419	59.853	16.76	1.3306e-06	23.642	0.00015945	0.00016736	4.5274e-05	1034.5	2.0573e-06	1.5157e-06	1125.1	210.45	1.8092e-06	1.7678e-06	266.52	76.132	59.816	16.902	1.7611e-06	23.844	193.621	2.975	-21.339	-92.788	24.806	58.112	-92.218	-85.174	14.453	70.579	-85.253	-78.597	-78.419	-70.970	97.924	-71.527	-8191	255	
57437.215	1	1	0	0	0.20408	0.13662	0.18857	0.15172	0.070892	0.1527	0.22441	0.10217	0.20043	0.25959	0.1689	0.062771	0.20897	0.15475	0.13979	0.10614	-4.2542	-3.6708	-4.3229	-4.3542	-3.8771	-4.6583	-4.3083	-4.0104	-4.5354	-3.7417	-4.3938	-4.3354	-3.6917	-4.6	-4.0417	-3.9896	-66.878	220.519	169.179	206.473	202.786	56.474	107.953	76.797	153.206	-63.615	173.077	12.099	-97.144	240.406	203.741	-31.229	8.6055e-05	0.00028188	8.0492e-05	1056	2.1523e-06	2.4462e-06	1140.4	212.98	9.8234e-07	2.4427e-06	268.7	75.652	59.5	16.766	2.5676e-06	23.608	0.00015276	0.00016227	4.0086e-05	1033.1	2.0215e-06	1.4571e-06	1125.5	210.01	1.7911e-06	1.7387e-06	266.8	76.263	59.663	16.89	1.7986e-06	23.933	198.989	-24.774	-19.587	-92.552	71.257	43.249	-92.233	-85.195	48.030	72.352	-85.444	-79.030	-78.286	-70.735	43.852	-71.233	-8191	255	
57437.309	1	1	0	0	0.11535	0.15971	0.38307	0.29904	0.15197	0.14009	0.20226	0.33325	0.17111	0.19679	0.13066	0.13202	0.039417	0.10348	0.091899	0.26155	-4.3625	-3.7625	-4.3396	-4.6167	-3.5979	-4.5938	-4.2333	-4.0333	-4.6396	-3.9583	-4.2375	-4.6396	-3.6875	-4.4958	-4.275	-3.775	-103.181	-11.068	177.601	254.490	-83.776	126.753	201.748	131.156	173.981	69.026	82.042	74.372	206.696	126.724	72.368	186.705	9.2725e-05	0.00030596	6.3612e-05	1050.9	1.2639e-06	3.2626e-06	1139.9	211.47	8.4189e-07	3.108e-06	268.17	74.962	58.991	16.829	1.5265e-06	23.628	0.00015107	0.00016898	4.0616e-05	1031.9	2.0125e-06	1.528e-06	1124.8	209.59	1.7457e-06	1.6655e-06	266.93	76.104	59.688	16.9	1.7295e-06	23.877	193.286	-13.789	-5.072	-92.590	41.591	73.477	-92.218	-85.225	41.939	60.789	-84.965	-78.873	-78.728	-70.654	51.938	-71.342	-8191	255	
57437.406	1	1	0	0	0.3203	0.11001	0.24096	0.24126	0.16987	0.058773	0.25249	0.13881	0.16115	0.13444	0.10785	0.33283	0.079403	0.14317	0.25934	0.038981	-4.3375	-3.9583	-4.2771	-4.75	-3.7542	-4.5	-4.4625	-3.8083	-4.7063	-3.9375	-4.2312	-4.5979	-3.7854	-4.5625	-4.3562	-4.1146	94.814	235.300	-54.597	245.474	95.223	73.204	179.228	219.777	209.491	190.478	173.920	180.110	221.082	230.977	58.762	117.236	7.0298e-05	0.00019795	7.3535e-05	1057.9	1.4961e-06	3.6451e-06	1142.1	211.7	1.0891e-06	2.7622e-06	269.71	75.508	59.534	16.763	1.9712e-06	23.827	0.00015379	0.00015531	4.2093e-05	1034.1	2.052e-06	1.5784e-06	1125.4	210.25	1.7176e-06	1.6264e-06	266.85	75.99	59.699	16.854	1.6771e-06	23.957	192.214	0.945	-46.872	-92.223	40.169	26.283	-92.280	-85.196	35.378	57.656	-85.039	-78.815	-78.566	-70.823	21.258	-71.013	-8191	255	
57437.527	1	1	0	0	0.26603	0.16148	0.095251	0.32924	0.1523	0.14244	0.22567	0.21498	0.031191	0.21097	0.32993	0.15233	0.2159	0.1134	0.17035	0.12993	-4.4104	-3.8646	-3.9917	-4.6458	-3.5604	-4.2271	-4.5062	-3.7646	-4.5854	-4.1271	-3.9104	-4.5458	-3.8229	-4.2688	-4.5875	-3.8917	-101.234	-76.814	173.499	143.196	193.496	-71.767	208.386	-102.705	230.855	-98.261	-51.023	206.068	-39.718	-99.769	94.996	208.134	9.9418e-05	0.00020233	9.9637e-05	1054.1	9.4519e-07	1.2152e-06	1135.5	212	1.3342e-06	1.8071e-06	268.35	75.4	59.132	16.795	2.8727e-06	23.603	0.00015333	0.00015575	4.4372e-05	1034.8	1.9425e-06	1.5816e-06	1123.9	210.17	1.7234e-06	1.6896e-06	266.95	76.133	59.65	16.903	1.5738e-06	23.887	187.630	-18.655	-10.654	-92.478	35.209	27.075	-92.482	-85.040	12.303	54.941	-85.327	-79.313	-78.829	-70.993	40.953	-70.882	-8191	255	
57437.598	1	1	0	0	0.06232	0.10685	0.12879	0.23982	0.13872	0.082744	0.063943	0.21121	0.16463	0.13238	0.056247	0.10793	0.20445	0.31789	0.16977	0.098103	-4.4271	-4.1438	-3.8563	-4.8688	-3.7646	-4.1833	-4.6604	-3.925	-4.5667	-4.2562	-3.9958	-4.5708	-3.7146	-4.1875	-4.4938	-3.7729	12.148	-55.128	251.111	178.006	141.221	119.603	203.090	-91.171	20.714	-26.664	200.634	-5.363	161.850	31.265	256.000	101.463	7.7971e-05	0.00032251	8.5757e-05	1061.7	1.9797e-07	3.1004e-06	1139.5	211.93	1.0099e-06	3.8254e-06	268.57	75.412	59.471	16.586	2.1838e-06	23.687	0.00015384	0.00014826	4.3199e-05	1037.4	1.9926e-06	1.6271e-06	1123.8	209.92	1.6574e-06	1.6296e-06	266.96	76.101	59.788	16.834	1.5841e-06	23.948	185.277	-13.776	-3.627	-92.634	-57.564	60.083	-92.235	-85.165	-1.687	28.946	-85.111	-79.262	-78.531	-70.650	21.682	-71.558	-8191	255	
57437.695	1	1	0	0	0.1343	0.083529	0.080053	0.15709	0.31125	0.22997	0.09653	0.29027	0.19693	0.028909	0.15902	0.20742	0.14617	0.073976	0.17728	0.14784	-4.3208	-4.2479	-3.6917	-4.7688	-3.9625	-4.0042	-4.6875	-3.7729	-4.3958	-4.4646	-3.6521	-4.6312	-4.0646	-4.0104	-4.6104	-3.8083	116.292	72.032	-6.114	-101.489	-74.968	158.764	155.082	-103.106	-45.970	13.757	-42.105	62.340	136.582	100.598	211.923	-85.094	9.1823e-05	0.00022937	0.00011603	1054.7	6.6371e-07	2.4881e-06	1133	210.48	7.7399e-07	2.7501e-06	270.38	75.525	59.892	16.731	1.825e-06	23.852	0.00014776	0.00013666	4.277e-05	1032.7	1.8299e-06	1.5848e-06	1122.1	209.61	1.5819e-06	1.4659e-06	266.76	75.942	59.731	16.896	1.5171e-06	23.867	197.838	-6.687	-1.741	-92.587	73.264	54.441	-92.505	-85.466	32.669	22.015	-85.241	-78.955	-77.994	-70.597	11.826	-70.988	-8191	255	
57437.816	1	1	0	0	0.093051	0.13841	0.13935	0.20742	0.012767	0.13131	0.13628	0.33586	0.0034496	0.11058	0.14337	0.10807	0.16022	0.076917	0.062867	0.23764	-3.9854	-4.4437	-3.8167	-4.7375	-3.9354	-3.8833	-4.9542	-3.8917	-4.3042	-4.5104	-3.8083	-4.6667	-4.2063	-4.0042	-4.6146	-3.7479	177.125	51.162	216.410	-6.072	28.375	102.172	54.507	196.747	-72.287	107.520	-13.283	160.644	-57.449	-19.425	84.154	55.673	0.00010298	0.00017708	7.966e-05	1054	1.9399e-06	2.5633e-06	1136.7	212.13	1.4759e-06	3.9384e-06	269.21	75.151	59.478	16.843	9.8908e-07	23.431	0.00015269	0.00013715	4.3537e-05	1032.4	2.0231e-06	1.5348e-06	1123.1	209.87	1.7498e-06	1.4759e-06	266.7	76.034	59.624	16.841	1.6063e-06	23.863	186.048	8.151	-25.691	-92.396	61.840	59.547	-92.204	-85.071	9.940	54.648	-85.564	-78.919	-78.084	-70.855	7.094	-71.283	-8191	255	
57437.910	1	1	0	0	0.15633	0.21215	0.22582	0.41988	0.22769	0.11355	0.11147	0.16031	0.20614	0.12701	0.1386	0.088778	0.1742	0.25364	0.11907	0.13988	-3.8396	-4.4625	-3.7479	-4.5521	-4.2854	-3.8729	-4.8187	-3.8958	-4.0646	-4.5687	-3.7729	-4.2667	-4.1896	-3.7792	-4.6271	-4.0854	-13.502	-40.856	-47.324	226.191	17.804	133.248	200.117	245.308	-40.124	55.793	209.168	250.468	159.101	-13.883	185.519	190.959	8.8739e-05	0.00029939	9.7931e-05	1055.5	5.8437e-07	3.7256e-06	1142.4	209.62	1.21e-06	2.9877e-06	267.11	75.126	59.443	16.719	1.0206e-06	23.582	0.00015568	0.0001411	4.4236e-05	1033.2	2.0251e-06	1.723e-06	1125.8	209.16	1.926e-06	1.5682e-06	266.3	75.719	59.648	16.82	1.5376e-06	23.794	191.961	-9.322	-13.907	-92.652	-13.567	64.674	-92.478	-85.051	23.790	82.869	-85.996	-79.223	-78.406	-71.022	84.041	-71.575	-8191	255	
57438.008	1	1	0	0	0.1141	0.17237	0.050071	0.24292	0.1579	0.25983	0.091062	0.23749	0.23072	0.17648	0.043624	0.32266	0.19389	0.20558	0.21059	0.061215	-3.7979	-4.6042	-3.8688	-4.5229	-4.375	-3.8354	-4.8083	-4.1042	-3.9708	-4.6646	-3.9771	-4.5021	-4.4146	-3.7375	-4.5042	-4.1917	50.936	46.093	-80.942	-55.817	217.085	122.649	159.151	226.814	252.430	172.691	142.979	165.784	-74.613	223.475	27.061	200.765	9.8026e-05	0.00025481	2.6588e-05	1056.2	2.1873e-06	3.7139e-06	1141	212.61	2.0779e-06	2.3067e-06	269.12	75.18	59.455	16.749	1.5402e-06	23.579	0.00016651	0.00013833	4.206e-05	1035.1	1.912e-06	1.6343e-06	1127.9	209.99	1.9545e-06	1.5095e-06	266.58	76.027	59.794	16.904	1.4293e-06	23.839	191.875	2.000	-9.811	-92.800	49.474	31.466	-92.519	-85.050	13.996	19.399	-85.302	-78.904	-78.199	-70.868	24.099	-71.803	-8191	255	
57438.102	1	1	0	0	0.11624	0.10012	0.18619	0.043857	0.11709	0.25083	0.041633	0.10649	0.33124	0.1808	0.1894	0.077715	0.089033	0.059628	0.026198	0.094483	-3.6375	-4.6667	-3.7687	-4.375	-4.4104	-3.7896	-4.8229	-4.125	-3.9083	-4.7562	-3.9333	-4.2208	-4.5125	-3.6125	-4.4104	-4.1937	3.929	92.075	-97.122	223.496	-4.395	-43.970	138.494	222.735	100.753	183.376	-7.245	-27.452	-81.147	-13.267	217.685	204.179	7.7785e-05	0.00028923	3.5895e-05	1057	9.3837e-07	2.2214e-06	1138	210.66	1.3265e-06	3.3154e-06	270.92	74.747	59.912	16.698	1.7986e-06	23.693	0.00016761	0.000138	3.9296e-05	1036.6	1.8323e-06	1.7048e-06	1126	209.69	1.9606e-06	1.5214e-06	267.64	76.077	59.89	16.905	1.5939e-06	23.948	192.841	-20.462	-1.501	-92.643	45.565	28.494	-92.256	-84.698	56.467	67.973	-85.486	-78.866	-78.136	-70.838	37.136	-71.824	-8191	255	
57438.199	1	1	0	0	0.15949	0.071217	0.089328	0.15957	0.16391	0.025571	0.051182	0.06814	0.30032	0.14846	0.090086	0.058906	0.20102	0.21084	0.11972	0.21882	-3.5771	-4.5188	-3.9229	-4.2917	-4.4854	-3.6229	-4.6667	-4.2812	-3.7896	-4.6438	-3.8563	-4.1083	-4.45	-3.6604	-4.3583	-4.3917	43.129	62.304	166.855	81.315	9.773	98.495	183.915	114.559	186.574	220.476	48.802	120.000	13.330	111.939	115.045	161.654	8.8134e-05	0.00030856	0.00011196	1058.2	1.1311e-06	3.283e-06	1139.8	212.05	1.2174e-06	2.5306e-06	267.19	75.095	60.049	16.804	1.7732e-06	23.641	0.00016909	0.00014594	4.2759e-05	1036.5	1.8372e-06	1.6248e-06	1127	210.26	1.7816e-06	1.5255e-06	266.73	75.88	60.147	16.977	1.5158e-06	23.918	188.719	-43.292	-7.381	-92.744	18.408	43.830	-92.285	-85.220	-30.911	58.271	-85.293	-79.169	-78.428	-70.537	40.787	-71.328	-8191	255	
57438.297	1	1	0	0	0.067846	0.12619	0.11405	0.12178	0.024707	0.18345	0.078073	0.16806	0.15839	0.10447	0.10872	0.079078	0.18184	0.057892	0.080313	0.051436	-3.5667	-4.6958	-4.1542	-4.0958	-4.7354	-3.7792	-4.4625	-4.6667	-3.8667	-4.5938	-4.2958	-4.0542	-4.7688	-3.8063	-4.2771	-4.6188	24.508	209.767	-47.597	162.809	231.896	53.902	152.036	176.827	-88.678	226.082	235.049	-58.569	-40.126	196.307	-56.090	121.383	8.2982e-05	0.00037155	0.0001002	1059.6	1.1578e-06	3.1622e-06	1140.5	211.32	1.4173e-06	3.8017e-06	269.46	75.558	59.697	16.959	2.0308e-06	23.578	0.0001644	0.00014073	4.0559e-05	1036.4	1.7591e-06	1.6202e-06	1125.2	209.91	1.8319e-06	1.4313e-06	266.58	76.091	60.007	17.014	1.4591e-06	24.012	185.684	-14.094	-29.607	-92.677	25.239	52.889	-92.614	-85.102	20.079	46.775	-85.552	-79.032	-78.506	-71.197	49.790	-71.568	-8191	255	
57438.414	1	1	0	0	0.03839	0.14429	0.20695	0.23103	0.15368	0.12323	0.21736	0.15048	0.054717	0.18305	0.11999	0.18381	0.17402	0.2346	0.25925	0.18855	-3.3896	-4.6292	-4.0938	-3.9375	-4.7271	-3.9729	-4.2688	-4.6333	-3.7333	-4.5479	-4.4	-4.0312	-4.675	-3.8854	-4.1479	-4.5271	208.288	16.259	69.102	247.384	-33.839	51.557	210.978	118.472	108.728	121.907	22.312	238.419	78.406	167.861	-86.274	70.846	7.5527e-05	0.00024965	6.5182e-05	1056.1	1.312e-06	2.2764e-06	1145.7	211.83	8.0505e-07	2.3216e-06	268.01	75.526	59.562	16.805	1.7742e-06	23.756	0.00015492	0.00013194	3.8247e-05	1035.2	1.7208e-06	1.5698e-06	1126.6	209.98	1.7135e-06	1.3709e-06	267.08	76.072	59.758	16.997	1.4578e-06	24.027	202.739	-38.402	-19.178	-92.848	33.685	91.107	-92.665	-85.229	31.273	59.818	-85.567	-78.717	-79.050	-70.622	45.871	-71.834	-8191	255	
57438.512	1	1	0	0	0.1546	0.13191	0.056116	0.19443	0.038022	0.21104	0.094849	0.1348	0.19766	0.14526	0.25642	0.026505	0.085849	0.3234	0.10853	0.14505	-3.3542	-4.3688	-4.3771	-4.0042	-4.6062	-3.8896	-4.1312	-4.6937	-3.8625	-4.3979	-4.5708	-3.8792	-4.5875	-4.0958	-3.9125	-4.7188	67.221	216.369	208.976	133.912	44.102	-26.079	190.661	187.238	-101.229	-46.955	240.659	151.354	245.916	210.210	-23.117	166.369	9.5267e-05	0.00015413	5.0716e-05	1059	2.4247e-06	3.089e-06	1134.3	210.31	2.104e-06	1.7573e-06	269.78	75.477	59.892	16.986	2.3972e-06	24.126	0.0001645	0.00012722	3.7864e-05	1035.2	1.6561e-06	1.5471e-06	1124.5	209.66	1.8893e-06	1.3686e-06	267.23	76.263	60.048	17.126	1.5495e-06	24.209	192.452	0.927	10.751	-92.690	42.057	51.646	-92.382	-85.190	59.132	72.897	-84.846	-79.142	-78.383	-70.444	46.575	-71.112	-8191	255	
57438.605	1	1	0	0	0.12183	0.28083	0.090993	0.25269	0.23817	0.12115	0.23865	0.062074	0.085414	0.18453	0.14691	0.34372	0.16142	0.16185	0.06745	0.14426	-3.5417	-4.3	-4.4979	-3.8979	-4.7292	-4.25	-4.0146	-4.6729	-3.9625	-4.2958	-4.6979	-3.8146	-4.6	-4.2354	-3.9062	-4.7667	15.917	253.990	-14.802	216.292	12.042	-68.040	229.350	-79.205	-37.190	26.341	149.268	-32.086	173.603	-26.664	148.558	199.880	7.2454e-05	0.00021728	8.7579e-05	1056.3	2.3753e-06	3.0896e-06	1148	211.71	1.5158e-06	3.151e-06	271.01	75.269	59.471	17.146	1.822e-06	24.31	0.00016149	0.00014366	3.8698e-05	1036.9	1.731e-06	1.4525e-06	1128.4	210.21	1.6702e-06	1.4695e-06	267.64	76.297	60.019	17.209	1.4506e-06	24.303	181.176	-27.279	-14.979	-92.456	45.498	38.710	-92.573	-85.191	9.604	30.300	-84.989	-79.280	-78.113	-70.796	34.337	-71.419	-8191	255	
57438.703	1	1	0	0	0.068762	0.096614	0.11623	0.047231	0.070079	0.083389	0.070472	0.11005	0.18679	0.2253	0.14512	0.16276	0.11342	0.16854	0.37565	0.17161	-3.4813	-4.0792	-4.5646	-3.8771	-4.5042	-4.0687	-3.975	-4.9167	-3.9396	-4.1521	-4.6271	-3.7917	-4.6292	-4.3438	-3.7396	-4.6896	128.992	-100.240	-13.326	121.486	-59.618	239.469	-87.068	-41.501	71.960	-16.757	206.573	-82.276	233.224	123.699	33.035	-72.322	6.1048e-05	0.00034434	8.6208e-05	1058.9	1.8745e-06	3.1471e-06	1141.6	212.71	8.0999e-07	3.0835e-06	269.89	76.113	59.755	17.252	2.9858e-06	24.082	0.00015338	0.00014191	3.5563e-05	1037.8	1.7212e-06	1.2435e-06	1128.9	210.33	1.7482e-06	1.5905e-06	267.4	76.626	60.347	17.338	1.532e-06	24.493	203.118	-15.400	-9.139	-92.805	36.808	33.369	-92.548	-84.997	32.381	46.391	-85.243	-78.966	-78.682	-70.925	39.820	-71.507	-8191	255	
57438.824	1	1	0	0	0.4115	0.086482	0.12014	0.14918	0.11427	0.088663	0.05218	0.10612	0.077039	0.027881	0.047766	0.17398	0.032181	0.19287	0.082177	0.069897	-3.7667	-4.2104	-4.675	-4.0021	-4.4542	-4.3854	-3.9021	-4.65	-4.0521	-4	-4.8146	-3.8312	-4.4083	-4.4187	-3.8688	-4.7083	175.127	116.570	47.629	217.950	96.338	21.617	206.438	-101.713	-102.384	192.582	159.272	-100.826	222.704	106.431	153.042	142.429	8.9736e-05	0.00036067	8.1126e-05	1061.2	1.4354e-06	2.7773e-06	1141.8	212.36	2.2771e-06	1.8622e-06	268.47	75.752	59.796	17.25	1.8582e-06	24.289	0.00015583	0.00013601	3.3894e-05	1038	1.7391e-06	1.4189e-06	1127.6	210.71	1.7086e-06	1.4677e-06	267.21	76.618	60.179	17.346	1.5653e-06	24.62	180.437	-31.031	-11.311	-92.460	41.132	46.581	-92.619	-85.070	27.196	76.700	-85.117	-78.728	-78.282	-70.567	60.445	-71.577	-8191	255	
57438.895	1	1	0	0	0.12461	0.22134	0.10607	0.061598	0.039761	0.16005	0.057656	0.20435	0.18901	0.12003	0.080023	0.16312	0.025228	0.30398	0.10766	0.15401	-3.8646	-3.8542	-4.6479	-3.9208	-4.1646	-4.3875	-3.9688	-4.6583	-4.2771	-4.0458	-4.7896	-3.7333	-4.2604	-4.5062	-3.7729	-4.6271	16.776	-16.937	122.294	196.596	49.656	-50.824	196.996	222.204	37.183	71.173	159.182	190.331	119.741	184.211	42.311	114.584	0.00010016	0.00030907	7.9183e-05	1057.8	1.146e-06	3.1989e-06	1143.8	212.32	1.5653e-06	1.5879e-06	272.03	76.244	59.64	17.338	2.3844e-06	24.499	0.00015585	0.00014806	3.4153e-05	1037.8	1.805e-06	1.4066e-06	1128.8	210.89	1.7218e-06	1.5937e-06	268.22	76.961	60.249	17.423	1.6506e-06	24.585	187.360	5.791	-16.167	-92.437	36.598	51.610	-92.518	-85.094	27.610	31.376	-85.380	-79.254	-79.105	-70.673	65.087	-71.867	-8191	255	
57438.992	1	1	0	0	0.042688	0.18739	0.35419	0.05603	0.12393	0.19391	0.14916	0.25232	0.27635	0.10103	0.13838	0.11691	0.16734	0.05726	0.18986	0.045004	-4.0375	-3.8083	-4.6833	-4.1687	-4.1604	-4.7875	-3.9437	-4.6625	-4.3	-3.8042	-4.7812	-4.1	-4.0333	-4.7271	-3.9021	-4.5375	73.616	75.130	-75.711	198.082	-14.188	-12.312	-100.644	206.674	88.073	44.943	67.328	198.528	209.526	-80.182	64.335	192.336	7.2297e-05	0.00020354	8.3315e-05	1061.9	4.5747e-07	2.7736e-06	1139.1	212.11	1.1887e-06	1.6741e-06	269.24	76.386	59.572	17.277	1.783e-06	24.483	0.00015306	0.0001424	3.4807e-05	1039.4	1.8229e-06	1.1753e-06	1129	210.81	1.5873e-06	1.3577e-06	268.08	76.92	60.338	17.422	1.64e-06	24.751	189.412	5.645	-10.935	-92.332	100.836	45.366	-92.354	-85.385	39.127	56.839	-85.067	-78.955	-78.236	-70.562	46.467	-71.423	-8191	255	
57439.086	1	1	0	0	0.1094	0.067128	0.11694	0.27055	0.072602	0.22303	0.061179	0.065153	0.080229	0.10928	0.090121	0.21736	0.1812	0.072804	0.17887	0.15872	-4.1	-3.8	-4.7146	-4.2083	-4.1354	-4.5479	-4.0333	-4.3104	-4.3583	-3.8833	-4.6438	-4.2854	-3.8875	-4.7438	-3.8708	-4.4083	140.729	80.641	189.727	229.031	217.360	-67.199	-70.429	240.486	113.798	245.129	222.798	147.793	-24.436	86.656	115.613	157.683	9.6184e-05	0.00024258	6.2195e-05	1062.7	2.0769e-06	2.7471e-06	1149.4	213.29	1.6096e-06	2.2543e-06	270.24	76.217	60.172	17.483	1.6206e-06	24.684	0.00014063	0.00014146	3.4243e-05	1040.1	1.7672e-06	1.2489e-06	1131.1	211.31	1.5188e-06	1.3872e-06	267.74	77.345	60.437	17.479	1.5551e-06	24.808	191.678	-10.791	-7.134	-92.547	47.758	77.406	-92.441	-85.435	17.766	49.355	-85.147	-79.153	-78.060	-70.970	31.787	-71.265	-8191	255	
57439.207	1	1	0	0	0.058121	0.078823	0.15556	0.15752	0.069482	0.24672	0.34938	0.16892	0.060394	0.084372	0.018296	0.14635	0.20325	0.13997	0.11934	0.044005	-4.1937	-3.7729	-4.4104	-4.3979	-3.8854	-4.6875	-3.8979	-4.3604	-4.6146	-3.7	-4.4812	-4.2583	-3.9083	-4.7583	-3.8958	-4.1854	74.996	-84.673	247.537	194.256	139.519	16.118	203.113	-68.796	24.087	244.201	119.096	193.675	-58.369	-94.334	69.573	126.012	9.3571e-05	0.0002406	7.2868e-05	1062.2	1.8613e-06	3.1845e-06	1146	214.25	1.2715e-06	2.1986e-06	269.68	76.471	60.06	17.429	2.512e-06	24.531	0.00014693	0.00014049	3.395e-05	1040.7	1.9881e-06	1.3716e-06	1132.4	211.64	1.5406e-06	1.565e-06	267.51	77.286	60.504	17.574	1.5291e-06	24.801	183.853	11.073	-8.440	-92.555	53.029	31.357	-92.523	-85.293	23.327	86.159	-85.548	-78.854	-78.592	-70.230	53.229	-71.841	-8191	255	
57439.301	1	1	0	0	0.084313	0.3258	0.10289	0.16149	0.30529	0.11252	0.21132	0.18214	0.10334	0.027928	0.14924	0.17528	0.19253	0.19382	0.121	0.079874	-4.1813	-3.8438	-4.3812	-4.3812	-3.7771	-4.6312	-4.0375	-3.9229	-4.5833	-3.8708	-4.3625	-4.5813	-3.75	-4.7375	-4.1125	-4.0542	14.606	-10.916	182.471	-16.883	60.858	27.952	225.139	-101.883	-52.450	248.345	-49.496	-11.167	219.570	-100.682	252.375	-45.095	7.3103e-05	0.00024249	6.8661e-05	1063.2	1.7028e-06	2.5231e-06	1145.3	213.47	4.8708e-07	2.8732e-06	271.02	76.25	60.099	17.427	2.5115e-06	24.418	0.00014394	0.00013279	2.9134e-05	1039.4	1.7786e-06	1.2998e-06	1131.3	211.35	1.447e-06	1.6205e-06	267.57	77.09	60.382	17.518	1.361e-06	24.758	185.046	-7.033	-4.725	-92.659	57.368	38.728	-92.447	-85.052	-3.112	49.338	-85.543	-78.883	-78.567	-70.540	36.268	-71.618	-8191	255	
57439.398	1	1	0	0	0.1043	0.053378	0.17556	0.24649	0.20633	0.2454	0.20173	0.34865	0.057936	0.10717	0.056108	0.23524	0.18125	0.10683	0.15136	0.28669	-4.3479	-3.9208	-4.125	-4.6271	-3.8417	-4.55	-4.325	-3.9479	-4.6687	-3.7771	-4.4458	-4.6104	-3.7438	-4.4583	-4.3583	-3.9437	158.607	124.488	-93.835	109.401	212.613	72.798	182.035	200.777	-35.060	-88.861	-58.065	204.708	-26.602	161.382	122.089	-89.933	8.3877e-05	0.00023793	6.3512e-05	1061.8	1.1617e-06	2.6072e-06	1147	213.17	1.5067e-06	1.0525e-06	270.61	76.644	60.413	17.495	1.8937e-06	24.547	0.00014323	0.00013182	3.6758e-05	1041.9	1.7196e-06	1.2417e-06	1130.3	211.7	1.4932e-06	1.4232e-06	268.42	77.213	60.594	17.516	1.2015e-06	24.801	185.881	-3.872	-0.440	-92.546	66.029	33.010	-92.221	-84.899	-1.249	84.956	-85.025	-79.229	-78.260	-70.623	58.167	-71.661	-8191	255	
57439.496	1	1	0	0	0.04418	0.15258	0.10513	0.019521	0.049281	0.075072	0.16135	0.10034	0.36452	0.071581	0.053254	0.35741	0.15117	0.17842	0.18223	0.069054	-4.4354	-3.8396	-4.0437	-4.7146	-3.6375	-4.5833	-4.4604	-3.8458	-4.7729	-3.8792	-4.1479	-4.6271	-3.9083	-4.4771	-4.4021	-3.8667	70.382	37.802	1.951	12.026	178.233	189.184	151.782	174.910	59.569	231.511	127.009	207.928	51.594	-10.897	105.158	222.744	8.9194e-05	0.00028373	6.465e-05	1057	1.1591e-06	2.6806e-06	1145.2	214.27	1.1983e-06	3.707e-06	267.08	76.089	60.129	17.519	2.6475e-06	24.556	0.00014357	0.00012954	3.3792e-05	1038.1	1.6964e-06	1.3807e-06	1129.7	212	1.494e-06	1.4295e-06	267.23	77.229	60.5	17.545	1.425e-06	24.761	188.511	-39.448	-5.966	-92.481	88.334	38.746	-92.360	-85.201	22.909	46.792	-85.291	-79.214	-78.253	-70.932	22.732	-71.663	-8191	255	
57439.590	1	1	0	0	0.17488	0.2019	0.1211	0.25972	0.035989	0.34629	0.048334	0.32578	0.069879	0.042016	0.12259	0.14584	0.12484	0.12349	0.13167	0.11892	-4.3292	-4.2167	-3.9146	-4.7021	-3.7687	-4.4646	-4.6396	-3.7354	-4.5792	-4.1937	-3.9229	-4.7271	-3.7333	-4.3854	-4.4812	-3.7958	1.673	61.700	4.532	78.997	-37.251	122.591	71.271	231.407	122.419	-60.817	32.835	255.375	178.530	-68.220	-16.836	-99.460	9.7525e-05	0.00032431	5.5841e-05	1056.9	1.8658e-06	3.6237e-06	1148.5	213.64	1.2298e-06	2.9894e-06	270.16	76.109	60.096	17.224	2.8406e-06	24.599	0.00014926	0.00012319	3.5597e-05	1038.3	1.7326e-06	1.4439e-06	1129.5	211.87	1.4903e-06	1.2722e-06	267.75	77.016	60.534	17.469	1.4395e-06	24.724	190.548	-14.899	-1.083	-92.548	75.446	36.465	-92.297	-85.064	9.310	68.967	-85.338	-79.196	-78.481	-71.015	37.992	-71.499	-8191	255	
57439.688	1	1	0	0	0.28899	0.14216	0.22361	0.048586	0.12506	0.18684	0.21012	0.24758	0.087929	0.34486	0.04593	0.10452	0.059365	0.090341	0.17793	0.032731	-4.1292	-4.1625	-3.9604	-4.8917	-3.7917	-4.1646	-4.775	-3.7896	-4.6104	-4.1333	-4.0333	-4.7646	-4.0062	-4.2229	-4.7771	-3.8625	101.383	198.655	210.372	-64.748	11.971	-10.375	205.737	95.065	58.906	-13.883	75.280	171.266	230.578	58.448	43.534	182.239	6.7956e-05	0.00032832	6.0463e-05	1061.9	1.3044e-06	2.9732e-06	1147	214.85	2.4466e-06	2.8776e-06	269.49	76.768	60.338	17.581	1.2486e-06	24.602	0.00013705	0.0001376	3.7886e-05	1038.7	1.6431e-06	1.3303e-06	1130.8	211.75	1.5266e-06	1.2736e-06	267.58	77.319	60.627	17.56	1.2446e-06	24.778	200.762	-15.636	-15.024	-92.487	54.901	59.851	-92.569	-85.071	13.462	74.574	-85.354	-79.057	-78.443	-70.814	15.962	-71.517	-8191	255	
57439.781	1	1	0	0	0.15173	0.16754	0.15121	0.0848	0.15053	0.067363	0.23208	0.20865	0.24837	0.12788	0.088363	0.18885	0.23655	0.18591	0.30905	0.20798	-4.2063	-4.3333	-3.8667	-4.775	-3.9562	-4.0854	-4.8521	-3.9	-4.2896	-4.4792	-3.6833	-4.5542	-4.0354	-4.0437	-4.5396	-3.8271	97.605	138.405	63.238	165.984	76.496	205.641	231.521	254.075	208.390	-73.932	54.246	162.566	-71.393	14.398	-102.871	236.017	8.9128e-05	0.00018287	6.0244e-05	1060.3	1.4765e-06	2.1914e-06	1146.6	214.13	1.4493e-06	2.7782e-06	269.14	76.465	60.429	17.447	2.0142e-06	24.561	0.00014401	0.00011875	3.5529e-05	1040.6	1.6151e-06	1.2776e-06	1131.1	211.93	1.6198e-06	1.1281e-06	266.93	77.451	60.79	17.537	1.248e-06	24.822	182.888	-9.787	0.907	-92.467	26.188	63.224	-92.331	-85.281	7.182	48.258	-85.444	-79.222	-78.565	-70.886	57.008	-71.215	-8191	255	
57439.902	1	1	0	0	0.16372	0.12949	0.10562	0.15759	0.097178	0.15218	0.17128	0.13987	0.14073	0.16672	0.073457	0.13197	0.22024	0.16201	0.15257	0.2237	-4.075	-4.2896	-3.6771	-4.7292	-3.9042	-3.9271	-4.7875	-3.7854	-4.2458	-4.6104	-3.8479	-4.6667	-4.2604	-4.0188	-4.5625	-3.9729	31.973	182.376	-46.711	237.901	14.666	191.494	133.226	239.898	36.737	-49.853	72.504	6.625	-57.077	126.149	-86.277	137.842	9.4405e-05	0.00037378	9.8046e-05	1060.4	4.4184e-07	3.4656e-06	1139.2	213.63	1.2402e-06	3.216e-06	269.97	76.328	60.184	17.336	1.957e-06	24.442	0.0001421	0.00012803	4.1247e-05	1037.3	1.5984e-06	1.2757e-06	1127	211.69	1.5947e-06	1.1735e-06	267.53	77.298	60.433	17.394	1.2757e-06	24.708	183.126	3.863	11.811	-92.707	-16.437	34.269	-92.275	-85.169	38.820	44.912	-85.582	-79.178	-78.278	-70.711	51.091	-71.355	-8191	255	
57440.000	1	1	0	0	0.12605	0.20294	0.2001	0.13148	0.27548	0.066419	0.14667	0.33772	0.073383	0.12912	0.10028	0.078426	0.16233	0.10185	0.30456	0.032314	-3.7979	-4.6021	-3.7938	-4.6562	-4.1354	-3.9333	-5.0167	-3.9188	-4.2104	-4.5833	-3.6521	-4.5771	-4.2521	-3.7896	-4.5042	-4.0458	-93.541	-18.804	-45.200	136.074	137.045	214.584	-77.216	206.775	-75.129	106.392	120.199	193.520	-55.363	-79.919	231.057	-93.949	9.6651e-05	0.00035754	8.9397e-05	1054.9	2.0543e-06	2.74e-06	1143.7	213.44	1.338e-06	2.1796e-06	268.37	76.4	60.489	17.309	1.2033e-06	24.392	0.00014678	0.00012148	3.7988e-05	1035.5	1.7741e-06	1.5848e-06	1125.8	211.21	1.6112e-06	1.2349e-06	266.77	77.082	60.687	17.436	1.3056e-06	24.703	178.429	-5.634	-5.298	-92.723	28.643	40.182	-92.612	-85.407	-4.711	24.249	-85.012	-78.785	-78.264	-70.633	52.973	-71.710	-8191	255	
57440.098	1	1	0	0	0.26754	0.064383	0.064874	0.20882	0.32028	0.14568	0.28732	0.17186	0.29207	0.074123	0.047104	0.17627	0.10173	0.051018	0.088214	0.1244	-3.7292	-4.5875	-3.6729	-4.4688	-4.4396	-3.75	-4.6729	-4.2396	-3.875	-4.5792	-3.7917	-4.4854	-4.5062	-3.6667	-4.6646	-4.2625	125.869	139.700	115.810	209.669	171.323	67.821	221.517	165.453	150.400	158.108	126.940	207.582	153.983	28.287	133.508	133.541	8.6252e-05	0.00024307	5.9096e-05	1057	1.0816e-06	3.0889e-06	1145.2	213.95	8.6588e-07	2.6755e-06	270.07	76.35	60.132	17.391	2.4387e-06	24.467	0.00015031	0.00012286	3.9296e-05	1036.4	1.7009e-06	1.6271e-06	1127.4	211.67	1.5443e-06	1.2918e-06	267.29	77.015	60.434	17.501	1.3077e-06	24.694	190.255	-0.447	-3.044	-92.480	47.020	33.058	-92.263	-84.919	6.704	58.546	-85.657	-79.086	-78.451	-71.020	25.038	-71.417	-8191	255	
57440.191	1	1	0	0	0.13851	0.19197	0.095809	0.06538	0.16418	0.13255	0.1362	0.13356	0.13622	0.10886	0.10685	0.17155	0.11653	0.19353	0.059117	0.043842	-3.6604	-4.4667	-3.8792	-4.3812	-4.4875	-3.7583	-4.7396	-4.1958	-3.925	-4.5771	-3.8667	-4.1667	-4.7417	-3.9	-4.5271	-4.2937	12.874	126.571	73.244	247.048	73.575	129.258	196.739	72.981	139.589	21.651	207.389	144.735	185.036	238.274	89.957	238.734	8.6648e-05	0.00030713	2.7423e-05	1056.1	6.2992e-07	2.2237e-06	1138.4	212.78	1.1961e-06	3.828e-06	270.08	75.952	60.41	17.459	1.4495e-06	24.134	0.0001457	0.00012461	3.6544e-05	1034.6	1.5105e-06	1.3448e-06	1123.2	211.14	1.6541e-06	1.2217e-06	266.39	77.031	60.389	17.48	1.2962e-06	24.699	193.586	-43.184	19.171	-92.714	39.438	47.498	-92.315	-85.047	28.083	65.952	-85.408	-79.457	-78.308	-70.688	34.293	-71.689	-8191	255	
57440.285	1	1	0	0	0.14879	0.20336	0.15574	0.29241	0.28861	0.21731	0.19422	0.11907	0.11891	0.079767	0.072294	0.11174	0.15442	0.18147	0.11957	0.056088	-3.5125	-4.6646	-3.8333	-4.2042	-4.5375	-3.7667	-4.5042	-4.3167	-3.8146	-4.6042	-4.0021	-4.0312	-4.6542	-3.7333	-4.5146	-4.4583	138.943	20.055	220.271	224.264	27.824	-61.167	186.480	-93.150	-26.292	37.527	181.611	145.644	-77.225	194.981	80.560	150.206	7.0002e-05	0.00028884	8.1638e-05	1050.7	2.8545e-06	2.7385e-06	1134.2	212.56	1.3071e-06	2.6625e-06	267.93	76.277	60.102	17.363	2.0894e-06	24.381	0.00015953	0.00012648	3.6228e-05	1032	1.6236e-06	1.6048e-06	1122.6	210.81	1.7032e-06	1.3108e-06	266.07	76.867	60.305	17.387	1.3431e-06	24.595	201.342	-9.490	18.430	-92.740	24.758	94.689	-92.486	-84.904	12.398	30.653	-85.197	-79.231	-78.623	-70.796	73.715	-71.105	-8191	255	
57440.383	1	1	0	0	0.15081	0.10057	0.23552	0.16588	0.115	0.14173	0.045793	0.20454	0.11232	0.063488	0.10313	0.05143	0.19397	0.077781	0.05043	0.11148	-3.4271	-4.6312	-4.1708	-4.1562	-4.6583	-3.7125	-4.5917	-4.4646	-3.7458	-4.575	-4.2208	-3.9333	-4.625	-3.8104	-4.1667	-4.5813	-44.936	55.316	5.765	46.383	-100.049	29.540	-99.422	127.919	204.869	6.109	-3.338	-30.469	111.649	193.994	-99.468	215.051	7.0758e-05	0.00018989	0.00010959	1050.5	1.0394e-06	3.655e-06	1136.8	212.63	8.9816e-07	3.2607e-06	268.5	75.876	60.221	17.303	2.5401e-06	24.279	0.00016208	0.00011333	3.5021e-05	1032	1.5821e-06	1.5084e-06	1120.3	210.79	1.5769e-06	1.2927e-06	265.82	76.447	60.195	17.356	1.512e-06	24.479	199.832	-20.576	-7.600	-92.756	39.965	58.590	-92.230	-85.243	-0.904	64.777	-85.149	-79.017	-78.604	-70.553	40.700	-71.472	-8191	255	
57440.504	1	1	0	0	0.30644	0.067181	0.30054	0.16223	0.14998	0.18229	0.096051	0.17654	0.26884	0.32346	0.1009	0.064567	0.18174	0.28343	0.046064	0.16226	-3.6021	-4.5604	-4.1479	-4.0083	-4.725	-3.9062	-4.4437	-4.5667	-3.9333	-4.5875	-4.1792	-3.8896	-4.675	-3.9354	-4.0833	-4.7667	-17.584	131.444	200.442	-75.871	236.939	93.269	84.060	169.458	-48.970	-54.383	-25.837	113.967	6.019	45.972	183.327	180.259	9.174e-05	0.00028631	8.2526e-05	1049.4	1.264e-06	2.7513e-06	1132.5	210.89	7.1788e-07	2.0359e-06	265.8	75.918	59.674	17.287	2.4603e-06	24.322	0.0001586	0.00013344	3.7266e-05	1025.9	1.5854e-06	1.4107e-06	1115.9	210.41	1.7213e-06	1.3209e-06	265.45	76.454	60.012	17.326	1.4548e-06	24.526	184.226	-12.932	-22.391	-92.601	69.862	50.469	-92.281	-84.724	5.808	62.493	-85.584	-79.183	-78.569	-70.617	56.041	-70.837	-8191	255	
57440.602	1	1	0	0	0.070796	0.1931	0.33761	0.097256	0.14563	0.31532	0.18357	0.37451	0.053302	0.19644	0.17777	0.20731	0.2385	0.065298	0.24698	0.22143	-3.3958	-4.5271	-4.1958	-4.05	-4.6792	-4.0583	-4.2396	-4.8292	-3.8187	-4.4625	-4.5062	-3.8312	-4.6625	-4.1792	-4.0042	-4.7312	233.897	99.125	116.580	155.083	164.930	230.868	140.536	219.561	171.508	165.527	159.368	249.479	230.444	-87.384	250.024	-68.812	8.9719e-05	0.00016673	7.0813e-05	1041.1	1.0699e-06	2.935e-06	1131.6	212.67	1.5472e-06	2.2833e-06	269.27	75.625	59.24	17.159	1.2704e-06	24.225	0.0001497	0.00012099	3.4322e-05	1020.2	1.5943e-06	1.3862e-06	1111.8	210.34	1.5963e-06	1.385e-06	265.43	76.203	59.737	17.285	1.445e-06	24.517	181.892	-27.897	6.466	-92.531	27.830	51.172	-92.318	-84.935	6.151	49.539	-84.976	-79.105	-78.084	-70.449	43.170	-70.827	-8191	255	
57440.695	1	1	0	0	0.45114	0.23139	0.1762	0.16122	0.10634	0.20433	0.14602	0.16706	0.089081	0.21849	0.090004	0.26486	0.042759	0.091725	0.13202	0.096779	-3.5333	-4.1896	-4.7708	-3.9437	-4.6312	-4.0375	-4.0813	-4.6708	-3.85	-4.1104	-4.5021	-3.7438	-4.5542	-4.1729	-3.8312	-4.6896	-12.272	101.742	-49.153	167.397	-9.403	-83.063	233.893	-5.579	48.715	-101.094	214.556	236.437	82.851	-14.123	-2.216	91.045	8.7191e-05	0.00024398	5.6999e-05	1043.6	1.8557e-06	1.8383e-06	1127.4	213.05	1.023e-06	1.7808e-06	267.94	75.861	59.267	17.313	2.9222e-06	24.294	0.00014884	0.00012526	3.483e-05	1019.7	1.5528e-06	1.3662e-06	1112	209.79	1.6628e-06	1.4027e-06	264.6	76.355	59.711	17.31	1.5158e-06	24.483	180.640	4.790	-21.371	-92.493	17.901	21.479	-92.475	-85.173	47.123	71.056	-85.156	-78.749	-78.311	-70.082	39.512	-70.883	-8191	255	
57440.766	1	1	0	0	0.16964	0.10302	0.15286	0.18439	0.072469	0.075038	0.32284	0.11188	0.23148	0.05947	0.16451	0.060073	0.25396	0.01331	0.22164	0.063259	-3.6271	-4.1167	-4.4187	-3.9188	-4.625	-4.3021	-4.025	-4.5708	-3.8771	-4.0792	-4.6646	-3.7458	-4.4333	-4.3833	-3.8521	-4.7	154.265	131.224	-28.646	166.993	58.119	144.652	197.870	38.250	56.029	107.882	199.487	27.621	162.769	249.253	65.844	190.049	8.9264e-05	0.00029611	0.00011613	1037.3	1.3181e-06	2.611e-06	1122.9	210.99	1.2052e-06	1.5234e-06	265.87	75.415	59.16	17.018	2.5445e-06	24.251	0.00015002	0.00013169	3.2506e-05	1018.3	1.6435e-06	1.3185e-06	1108.3	209.23	1.6999e-06	1.3895e-06	264.13	76.082	59.7	17.206	1.4642e-06	24.401	200.757	-5.091	-14.446	-92.514	-10.505	29.854	-92.450	-84.724	40.154	77.360	-85.127	-78.836	-78.395	-70.557	47.599	-70.921	-8191	255	
57440.887	1	1	0	0	0.09939	0.074588	0.045727	0.17325	0.071738	0.090134	0.071316	0.13835	0.14373	0.066349	0.21998	0.23032	0.12606	0.16018	0.047935	0.11996	-3.8833	-4.0208	-4.5542	-4.0333	-4.5563	-4.3521	-4.025	-4.6687	-4.0563	-4.0729	-4.65	-3.8958	-4.1375	-4.4625	-3.7521	-4.6937	-69.765	34.871	199.418	224.126	-18.789	-60.370	-58.769	-42.143	205.022	-97.157	87.823	-97.694	-54.740	2.936	-66.997	131.719	8.2227e-05	0.00048703	0.0001004	1040.4	8.5589e-07	4.0708e-06	1123.5	210.21	1.4595e-06	4.1606e-06	265.77	75.303	59.408	17.173	1.7716e-06	23.896	0.0001522	0.00013918	3.3081e-05	1016.9	1.6834e-06	1.3257e-06	1106.1	209.07	1.5443e-06	1.4718e-06	263.67	75.874	59.552	17.204	1.5952e-06	24.333	179.500	0.416	13.718	-92.782	42.972	37.403	-92.077	-84.900	30.422	52.651	-85.366	-78.667	-78.383	-70.804	44.099	-70.932	-8191	255	
57440.984	1	1	0	0	0.14288	0.18368	0.15778	0.09589	0.14864	0.18886	0.13156	0.076749	0.16956	0.17123	0.22498	0.26765	0.16091	0.20079	0.056123	0.37788	-3.7938	-3.9458	-4.6521	-3.8563	-4.2354	-4.5563	-3.9604	-4.5583	-4.1583	-3.8333	-4.7417	-3.9771	-4.1687	-4.4187	-3.85	-4.6083	-75.317	216.801	131.216	-96.418	31.885	126.948	97.688	122.427	197.444	-47.496	81.538	46.173	210.896	-1.463	51.590	188.926	6.7938e-05	0.0002603	6.5596e-05	1031.1	1.1237e-06	2.237e-06	1116.2	210.47	9.1729e-07	2.8968e-06	267.28	75.171	59.499	17.212	1.7432e-06	24.298	0.00014791	0.00013015	2.9968e-05	1014.5	1.552e-06	1.0903e-06	1104.4	208.71	1.5889e-06	1.45e-06	264.1	75.994	59.697	17.296	1.4263e-06	24.497	190.983	-31.647	-7.915	-92.579	50.564	37.755	-92.547	-85.212	40.427	35.339	-85.363	-78.914	-78.516	-70.873	62.848	-71.040	-8191	255	
57441.078	1	1	0	0	0.30804	0.069568	0.029101	0.11421	0.19624	0.25933	0.1597	0.13268	0.04593	0.11743	0.091367	0.25899	0.27564	0.093146	0.17184	0.1933	-3.8396	-3.8083	-4.6667	-3.9771	-4.1208	-4.7146	-3.8458	-4.4854	-4.3	-3.8083	-4.8167	-3.9896	-3.9813	-4.6292	-3.8604	-4.5146	23.367	139.056	34.997	104.743	-52.900	-13.266	-32.749	185.741	-64.826	163.313	136.395	254.537	231.459	3.384	53.938	138.412	8.4374e-05	0.0001281	6.582e-05	1040.4	1.1061e-06	2.2409e-06	1113.6	211.18	1.6883e-06	2.9623e-06	265.31	75.625	59.041	17.11	2.7422e-06	24.271	0.00014865	0.00013764	2.9021e-05	1016.4	1.552e-06	1.1708e-06	1101.6	208.92	1.3772e-06	1.4441e-06	263.08	75.965	59.521	17.223	1.5303e-06	24.379	180.964	-16.595	-31.315	-92.597	72.719	49.011	-92.637	-85.241	16.554	27.990	-85.299	-79.101	-78.333	-71.022	17.524	-71.488	-8191	255	
57441.176	1	1	0	0	0.14174	0.11216	0.02345	0.24186	0.16701	0.36961	0.28218	0.18156	0.084094	0.12484	0.23116	0.077864	0.12531	0.18585	0.15742	0.11671	-4.2479	-3.7354	-4.5896	-4.125	-3.9229	-4.5396	-4.0146	-4.4146	-4.2833	-3.5792	-4.6708	-4.0521	-4.1292	-4.6167	-3.7417	-4.1438	220.835	54.724	-13.862	207.756	-45.254	190.153	198.570	243.600	-72.263	24.119	80.278	-93.134	-70.140	130.591	215.393	181.897	7.258e-05	0.00019723	5.5795e-05	1037.6	1.9151e-06	3.441e-06	1116.5	210.05	1.6316e-06	2.3338e-06	265.28	74.472	59.768	17.21	2.7768e-06	24.278	0.00013994	0.00013666	2.9416e-05	1015.3	1.6692e-06	1.1698e-06	1104.6	208.74	1.4581e-06	1.465e-06	263.34	75.696	59.518	17.244	1.4263e-06	24.38	206.697	-13.985	-27.824	-92.602	68.898	40.624	-92.559	-85.055	24.223	77.293	-85.365	-78.884	-78.309	-70.572	49.736	-71.570	-8191	255	
57441.297	1	1	0	0	0.039141	0.15326	0.15669	0.36711	0.24226	0.13647	0.13372	0.054594	0.11175	0.26233	0.19715	0.084429	0.12739	0.14729	0.088104	0.25161	-4.2208	-3.6312	-4.5687	-4.3104	-3.8896	-4.6208	-4.1875	-4.1667	-4.5271	-3.9375	-4.475	-4.3833	-3.8979	-4.6979	-3.9771	-4.1	-65.362	-36.837	158.401	218.554	-93.087	-78.877	-7.918	-99.895	132.665	41.701	146.431	-64.755	-40.344	188.365	209.482	108.716	8.3851e-05	0.00019033	6.0851e-05	1032.3	1.323e-06	2.2812e-06	1116.3	210.02	1.5817e-06	2.5846e-06	266.33	75.105	59.066	17.252	2.3139e-06	24.125	0.00014482	0.00012941	3.1311e-05	1013.3	1.8392e-06	1.1485e-06	1103.8	208.98	1.5084e-06	1.2513e-06	263.45	75.908	59.502	17.283	1.4037e-06	24.388	182.720	-24.318	0.266	-92.519	57.428	52.455	-92.490	-84.789	21.065	32.702	-85.157	-79.185	-78.500	-70.059	59.770	-71.290	-8191	255	
57441.367	1	1	0	0	0.070419	0.12574	0.0797	0.08291	0.13763	0.12413	0.13888	0.17902	0.098509	0.24161	0.10253	0.11418	0.14049	0.099613	0.29682	0.094057	-4.3792	-3.7938	-4.4125	-4.4208	-3.9354	-4.7271	-4.1271	-4.3021	-4.7167	-3.7979	-4.3917	-4.6104	-3.7396	-4.8521	-4.1167	-4.1146	-90.668	-79.460	25.178	91.557	150.367	50.321	30.469	242.047	75.249	129.880	221.213	183.375	-87.268	-95.987	115.169	102.438	7.8249e-05	0.00041231	0.00010363	1037.3	6.7487e-07	3.3986e-06	1119.6	210.83	1.3526e-06	2.6243e-06	265.11	75.487	59.093	17.124	2.4123e-06	24.313	0.00013801	0.00014199	3.5473e-05	1014.6	1.6525e-06	1.2039e-06	1105.6	208.68	1.3607e-06	1.4691e-06	263.91	76.11	59.749	17.283	1.3201e-06	24.498	196.597	-10.573	0.673	-92.282	32.573	45.545	-92.407	-85.440	68.741	60.707	-85.432	-79.176	-78.217	-71.098	26.796	-71.229	-8191	255	
57441.465	1	1	0	0	0.10178	0.14686	0.12568	0.15783	0.20914	0.1163	0.037046	0.27821	0.13018	0.21119	0.12566	0.17698	0.074435	0.04836	0.2483	0.13875	-4.3812	-3.7687	-4.1958	-4.6229	-3.7167	-4.5437	-4.3562	-3.9542	-4.7688	-3.9104	-4.2833	-4.5625	-3.7458	-4.6333	-4.1729	-3.95	23.047	254.785	-77.156	108.034	-32.743	-67.716	180.462	-100.449	137.787	32.439	234.962	-47.829	106.443	205.231	227.240	-43.751	8.3103e-05	0.00021948	9.8257e-05	1036.7	1.4823e-06	2.481e-06	1119.2	209.93	1.1786e-06	1.8977e-06	266.24	75.514	59.634	17.231	2.2688e-06	24.223	0.0001436	0.00013039	3.3837e-05	1015.1	1.7029e-06	1.2198e-06	1104.6	208.76	1.4771e-06	1.4309e-06	264.16	76.069	59.684	17.296	1.3004e-06	24.499	182.836	18.203	-13.366	-92.264	58.184	46.877	-92.396	-85.144	40.336	3.801	-85.555	-78.880	-78.570	-70.599	1.582	-71.453	-8191	255	
57441.586	1	1	0	0	0.1813	0.15611	0.10696	0.35609	0.027572	0.034797	0.22223	0.24943	0.15956	0.17968	0.2187	0.14345	0.25256	0.016428	0.20721	0.068721	-4.3542	-3.8854	-4.225	-4.6021	-3.55	-4.4771	-4.3646	-3.9875	-4.6792	-3.9979	-4.2354	-4.6479	-3.7708	-4.4708	-4.5354	-3.7667	183.903	-37.172	30.572	-78.034	80.802	53.638	181.503	204.958	167.263	-44.987	250.739	212.381	249.265	141.440	-26.921	-32.813	9.0293e-05	0.00028846	8.4502e-05	1036.2	1.8211e-06	3.4627e-06	1121.9	211.22	1.4577e-06	2.3596e-06	266.59	75.437	59.747	17.171	2.9076e-06	24.124	0.00013384	0.0001273	3.2461e-05	1015.5	1.7334e-06	1.2039e-06	1108	209.26	1.2658e-06	1.2977e-06	264.58	76.152	59.825	17.313	1.355e-06	24.473	191.138	2.133	-12.049	-92.158	80.385	44.031	-92.280	-85.368	-18.198	37.943	-85.174	-79.085	-78.644	-70.800	9.840	-71.118	-8191	255	
57441.680	1	1	0	0	0.054361	0.18178	0.21485	0.30903	0.18528	0.14167	0.037744	0.077407	0.13612	0.16136	0.15817	0.10696	0.20206	0.12638	0.23406	0.13902	-4.3375	-3.9562	-3.9396	-4.8125	-3.8688	-4.4771	-4.6708	-3.9062	-4.6646	-4.0917	-4.0542	-4.6417	-3.9271	-4.35	-4.5354	-3.8417	225.241	161.905	227.755	228.781	13.664	100.291	-5.311	242.245	242.592	104.834	33.439	79.298	-97.356	232.259	194.210	168.448	7.8172e-05	0.00018761	7.4793e-05	1040	2.3866e-06	3.1416e-06	1128.9	211.02	1.0514e-06	2.5996e-06	268.04	75.502	59.859	17.226	1.9043e-06	24.233	0.00014019	0.00013454	3.3792e-05	1016.7	1.7953e-06	1.2267e-06	1109.8	209.24	1.5439e-06	1.2226e-06	265.61	76.373	59.923	17.301	1.2676e-06	24.518	188.847	-28.809	-10.221	-92.493	48.719	58.837	-92.150	-85.065	7.932	44.890	-85.439	-78.867	-79.256	-70.943	36.017	-71.390	-8191	255	
57441.777	1	1	0	0	0.18952	0.12184	0.088903	0.35868	0.058171	0.20913	0.17446	0.097154	0.080832	0.06303	0.19208	0.02721	0.062964	0.27911	0.11709	0.033585	-4.4771	-4.15	-3.9167	-4.7354	-3.8563	-4.1896	-4.5437	-3.9813	-4.4083	-4.3354	-3.9625	-4.7625	-3.9646	-3.9979	-4.5375	-3.7667	44.638	83.029	-30.699	195.878	199.020	94.833	186.965	89.932	-91.400	-77.071	199.872	-25.287	-68.261	249.801	242.473	-32.588	9.5046e-05	0.0002616	8.6841e-05	1034.2	2.0334e-06	2.604e-06	1119.4	210.78	5.8196e-07	3.1134e-06	266.87	75.188	59.398	17.237	2.3983e-06	24.128	0.000137	0.0001124	3.4175e-05	1017.3	1.6488e-06	1.253e-06	1108.8	209.46	1.3669e-06	1.1963e-06	265.22	76.202	59.912	17.286	1.1687e-06	24.501	193.605	25.166	-7.497	-92.805	54.103	64.441	-92.318	-85.131	-3.256	62.304	-85.802	-78.844	-78.780	-70.894	26.810	-71.217	-8191	255	
57441.898	1	1	0	0	0.18341	0.06593	0.34558	0.042186	0.047749	0.10936	0.26504	0.028314	0.21525	0.13535	0.11524	0.095489	0.11388	0.16735	0.1336	0.15993	-4.2688	-4.125	-3.7667	-4.8458	-4.0938	-4.0854	-4.6375	-3.7	-4.4604	-4.4396	-3.8563	-4.7188	-4.1	-4.0208	-4.6396	-3.9417	158.957	232.225	20.153	39.172	214.076	100.774	228.618	-96.135	167.205	-96.442	250.486	228.163	237.552	-47.338	138.040	86.389	7.5423e-05	0.00015191	8.5873e-05	1040.2	9.3515e-07	2.8704e-06	1125.2	211.4	2.1316e-06	1.799e-06	267.68	75.329	59.805	17.188	3.4084e-06	24.449	0.00014384	0.00011374	3.8777e-05	1018.6	1.6382e-06	1.3298e-06	1109.7	209.3	1.3694e-06	1.2249e-06	264.96	76.475	59.996	17.352	1.2109e-06	24.649	190.984	-2.569	-17.593	-92.521	97.309	57.084	-92.426	-85.196	7.651	43.372	-85.143	-78.700	-78.499	-70.450	41.639	-71.517	-8191	255	
57441.992	1	1	0	0	0.07763	0.062555	0.064173	0.10908	0.19752	0.12449	0.13692	0.12528	0.20691	0.056593	0.09842	0.17906	0.17014	0.1887	0.22918	0.046518	-3.9688	-4.4354	-3.7208	-4.6542	-4.0229	-3.9062	-4.7562	-3.8729	-4.2146	-4.5458	-3.75	-4.4583	-4.2167	-3.7917	-4.6188	-3.9604	225.883	206.625	75.414	-89.402	35.006	174.030	244.036	115.841	-80.335	-19.152	110.479	-14.199	76.868	-90.123	-43.484	250.402	7.4265e-05	0.00033847	6.1587e-05	1041.2	1.8868e-06	2.0843e-06	1123.3	210.8	1.6004e-06	3.3923e-06	266.49	75.423	59.861	17.226	2.0016e-06	24.412	0.00014703	0.00011956	3.7074e-05	1021.5	1.6354e-06	1.4703e-06	1110.4	209.61	1.4899e-06	1.2481e-06	265.24	76.378	60.135	17.347	1.2719e-06	24.609	194.157	-27.113	-7.654	-92.809	44.993	48.067	-92.232	-84.970	6.697	57.454	-85.313	-79.002	-78.611	-71.128	49.168	-71.426	-8191	255	
57442.062	1	1	0	0	0.26284	0.1515	0.08764	0.13894	0.0050405	0.16044	0.071993	0.16363	0.14481	0.083103	0.23605	0.15265	0.14536	0.051446	0.050526	0.16211	-3.9167	-4.4708	-3.8375	-4.5479	-4.1521	-3.7896	-4.5875	-4.0167	-4.025	-4.5042	-3.8083	-4.4437	-4.3854	-3.7833	-4.6312	-3.8833	241.169	145.410	-10.256	192.060	-92.143	236.967	122.529	188.203	237.800	-87.468	158.710	-32.957	93.131	96.284	254.934	-77.292	7.4339e-05	0.00039194	6.4379e-05	1043.4	7.0081e-07	2.3244e-06	1128.1	211.82	1.2848e-06	2.7391e-06	266.11	75.588	60.3	17.278	1.9414e-06	24.531	0.00014727	0.00011761	3.7097e-05	1021.5	1.5992e-06	1.4203e-06	1111.6	210.04	1.5501e-06	1.2149e-06	265.09	76.436	60.236	17.393	1.367e-06	24.678	184.417	-11.127	-5.679	-92.669	34.718	35.331	-92.347	-85.152	15.556	57.108	-85.097	-79.004	-78.277	-70.831	54.056	-71.347	-8191	255	
57442.184	1	1	0	0	0.21052	0.19669	0.16277	0.17807	0.21748	0.10995	0.06036	0.028642	0.3091	0.054827	0.23918	0.077656	0.097418	0.071941	0.1847	0.11807	-3.7542	-4.6062	-3.6375	-4.3542	-4.3063	-3.6937	-4.6896	-4.0687	-3.9708	-4.6396	-3.8063	-4.375	-4.4042	-3.8146	-4.5312	-4.1813	109.328	123.755	-94.650	-33.140	-34.646	17.950	57.818	127.230	-76.116	121.583	53.881	155.088	186.669	246.125	73.184	197.236	9.8907e-05	0.00012893	6.6198e-05	1042.8	1.8112e-06	2.5826e-06	1123.9	212.06	1.8004e-06	2.0333e-06	267.51	75.839	59.593	17.296	2.119e-06	24.359	0.00013911	0.00010983	3.3127e-05	1018.4	1.6895e-06	1.4298e-06	1108.8	209	1.676e-06	1.2272e-06	265.56	76.708	60.104	17.427	1.2932e-06	24.573	188.808	-77.329	-27.349	-92.230	43.774	32.090	-92.273	-85.241	2.149	77.017	-85.166	-78.831	-78.091	-70.497	39.041	-71.129	-8191	255	
57442.281	1	1	0	0	0.12158	0.026961	0.1563	0.13171	0.13758	0.070567	0.1166	0.26289	0.14768	0.038317	0.3425	0.2106	0.13718	0.10337	0.084442	0.10464	-3.5333	-4.5563	-3.7062	-4.4042	-4.4146	-3.7583	-4.7146	-4.2271	-3.9062	-4.5979	-3.8688	-4.2312	-4.4938	-3.7562	-4.4437	-4.2667	242.018	134.072	252.949	-94.351	161.870	229.308	-3.044	-23.324	251.581	76.330	93.199	216.662	136.381	87.134	127.589	241.421	9.5404e-05	0.00024682	5.1204e-05	1036.4	1.5477e-06	2.0041e-06	1115.9	211.52	1.6055e-06	3.107e-06	266.08	76.053	60.291	17.402	2.5486e-06	24.518	0.00015043	0.00010548	3.6679e-05	1017.5	1.4719e-06	1.3934e-06	1107.2	209.53	1.7048e-06	1.2627e-06	265.62	76.909	60.349	17.53	1.2548e-06	24.723	189.800	-24.716	-18.199	-92.434	83.937	84.848	-92.121	-84.916	13.754	54.995	-85.190	-78.935	-78.003	-70.772	39.736	-71.493	-8191	255	
57442.375	1	1	0	0	0.40056	0.13355	0.24064	0.22421	0.11196	0.11054	0.081653	0.03999	0.21179	0.087354	0.16654	0.01555	0.22359	0.31934	0.1099	0.17886	-3.5479	-4.6083	-3.8729	-4.1229	-4.4792	-3.8542	-4.5208	-4.3292	-3.7562	-4.6354	-4.0396	-4.0437	-4.4375	-3.85	-4.3042	-4.2917	54.280	-55.152	209.298	175.135	-86.848	-44.005	-79.093	219.202	57.921	163.370	147.122	131.274	208.865	-71.248	-37.107	254.133	8.7242e-05	0.00032435	4.9349e-05	1037.6	1.5145e-06	1.7684e-06	1122.8	211.01	1.6269e-06	1.9574e-06	268.84	76.219	60.002	17.276	2.1343e-06	24.44	0.00014627	9.815e-05	3.3769e-05	1017.8	1.4515e-06	1.4307e-06	1108.6	209.89	1.605e-06	1.1553e-06	266.38	76.947	60.291	17.504	1.2723e-06	24.732	193.707	-5.191	4.919	-92.317	24.683	56.394	-92.353	-84.818	18.508	51.482	-85.188	-79.033	-78.375	-70.184	58.227	-71.257	-8191	255	
57442.473	1	1	0	0	0.039876	0.10738	0.24908	0.054705	0.11884	0.18388	0.04417	0.062456	0.02511	0.12961	0.11219	0.21973	0.21814	0.27743	0.22262	0.12871	-3.3125	-4.6042	-4.0312	-4.0583	-4.55	-3.6271	-4.3938	-4.5104	-3.6833	-4.5583	-4.1583	-3.9792	-4.6854	-3.8479	-4.2479	-4.4729	-21.816	19.489	-100.847	-82.847	-13.096	-50.636	166.622	-4.335	-45.843	-53.335	216.239	205.564	30.799	198.354	-89.250	177.047	8.6797e-05	0.00029715	7.8397e-05	1035.6	1.3943e-06	3.6661e-06	1124.2	211.36	8.9911e-07	3.149e-06	267.25	76.31	60.445	17.485	1.8337e-06	24.473	0.0001473	0.00010759	3.4108e-05	1015.8	1.6391e-06	1.5057e-06	1108.2	210.16	1.5555e-06	1.0662e-06	265.76	76.905	60.533	17.475	1.3896e-06	24.676	198.080	-6.381	8.627	-92.363	26.973	29.798	-92.487	-85.111	53.735	25.915	-85.436	-79.008	-78.568	-71.110	42.147	-71.303	-8191	255	
57442.594	1	1	0	0	0.272	0.048194	0.015994	0.12851	0.099185	0.086025	0.21189	0.034223	0.30253	0.092268	0.14585	0.46359	0.14736	0.071809	0.15065	0.042906	-3.4958	-4.4313	-4.0813	-3.8312	-4.6729	-3.7542	-4.3688	-4.6104	-3.7396	-4.5542	-4.2292	-3.9104	-4.7188	-3.8917	-4.0792	-4.6729	240.778	210.813	87.838	79.957	-65.090	226.383	164.750	-25.098	119.082	12.236	154.753	219.591	238.956	165.559	29.790	95.930	8.5054e-05	0.00018951	2.9382e-05	1033.8	8.6938e-07	3.3873e-06	1119.9	211.18	1.4916e-06	2.1197e-06	269.36	76.264	60.018	17.271	1.1897e-06	24.597	0.00015477	0.00011008	3.095e-05	1015.5	1.5227e-06	1.4344e-06	1106.8	209.53	1.5757e-06	1.0994e-06	266.31	76.836	60.413	17.455	1.2237e-06	24.735	191.783	-1.148	4.840	-92.504	46.485	42.096	-92.534	-84.722	44.411	70.497	-85.142	-79.214	-78.209	-70.548	30.223	-71.651	-8191	255	
57442.664	1	1	0	0	0.22976	0.014721	0.087666	0.32476	0.11241	0.19307	0.087046	0.20352	0.07075	0.040161	0.11157	0.37691	0.072864	0.11207	0.10595	0.14569	-3.3187	-4.3333	-4.3063	-3.8146	-4.5563	-3.9333	-4.0312	-4.7188	-3.5792	-4.2458	-4.5271	-3.7812	-4.6521	-3.9521	-3.9417	-4.6854	77.189	32.390	-32.404	199.882	57.743	98.402	-49.046	161.605	117.114	200.321	35.225	107.437	237.726	98.998	240.750	248.951	8.6804e-05	0.00041507	0.00010252	1034.6	1.7746e-06	2.2371e-06	1117.7	210.84	3.002e-06	3.6869e-06	266.31	75.323	59.065	17.123	4.245e-07	24.241	0.00014906	0.00012632	3.4029e-05	1013.4	1.4576e-06	1.2712e-06	1102.3	209.11	1.7143e-06	1.2231e-06	265.12	76.461	59.925	17.31	1.364e-06	24.515	197.094	3.280	-22.310	-92.696	23.468	52.654	-92.535	-84.996	9.223	66.582	-85.270	-79.582	-78.524	-70.580	67.264	-71.434	-8191	255	
57442.762	1	1	0	0	0.072538	0.13635	0.097992	0.14238	0.088674	0.11793	0.11052	0.1955	0.12381	0.26094	0.24685	0.10564	0.21678	0.10133	0.23507	0.040644	-3.3604	-4.0625	-4.3125	-3.7771	-4.4563	-4.0604	-4.1188	-4.6625	-3.9042	-4.3167	-4.5604	-3.8333	-4.5062	-4.25	-3.8104	-4.6958	243.462	120.431	216.955	181.353	113.850	184.019	204.951	176.116	0.870	44.608	-49.311	148.468	-21.115	155.254	248.552	214.923	9.6727e-05	0.00022351	8.2683e-05	1027.7	6.5249e-07	2.5631e-06	1112.8	210.02	1.3442e-06	2.5749e-06	265.05	75.237	59.19	17.259	1.7253e-06	24.387	0.00014862	0.00011142	3.4728e-05	1007.7	1.4397e-06	1.2203e-06	1096.7	209.13	1.5782e-06	1.3504e-06	263.96	76.169	59.655	17.333	1.4702e-06	24.522	179.914	-22.306	-0.741	-92.500	9.963	48.085	-92.297	-85.323	-2.524	45.490	-84.981	-79.059	-78.553	-70.557	13.112	-71.422	-8191	255	
57442.855	1	1	0	0	0.10472	0.061546	0.093215	0.17896	0.061653	0.11309	0.11027	0.032996	0.17184	0.10801	0.16225	0.06887	0.077086	0.21752	0.34425	0.34336	-3.5667	-4.1271	-4.7271	-3.8625	-4.2063	-4.2688	-3.9083	-4.6042	-3.9854	-4.1854	-4.6646	-3.8	-4.4146	-4.3479	-3.8042	-4.6458	205.120	56.078	-5.154	231.528	-47.943	188.857	149.037	108.130	-97.520	57.275	125.203	44.519	-20.640	197.610	-8.645	-82.705	8.462e-05	0.00025984	0.00010417	1030	1.2086e-06	4.3338e-06	1119.4	210.12	1.6476e-06	2.351e-06	266.8	74.77	59.583	17.032	1.7105e-06	24.083	0.00014994	0.00013125	2.9709e-05	1009.1	1.5585e-06	1.2462e-06	1101.3	209.29	1.7197e-06	1.3868e-06	264.57	76.165	59.807	17.232	1.5256e-06	24.379	188.096	-11.069	-13.844	-92.606	66.195	49.974	-92.359	-84.746	-1.617	47.908	-85.125	-78.882	-78.887	-70.374	-26.608	-71.362	-8191	255	
57442.977	1	1	0	0	0.15069	0.21292	0.24954	0.11025	0.19383	0.19975	0.36994	0.1937	0.018683	0.13329	0.30833	0.16456	0.18578	0.027419	0.057608	0.12696	-3.6021	-3.9896	-4.6125	-3.7604	-4.2958	-4.5375	-3.8146	-4.7479	-3.9479	-3.8979	-4.6917	-3.7646	-4.1562	-4.4437	-3.6083	-4.5896	212.028	196.354	-64.739	242.032	-16.737	146.619	140.766	56.269	235.599	-7.516	62.956	122.346	176.925	69.653	-24.737	2.084	7.7802e-05	0.00040873	4.2562e-05	1026	1.6263e-06	2.1278e-06	1114.3	210	1.4209e-06	2.2414e-06	265.63	75.789	59.893	17.184	3.5247e-06	24.324	0.00014463	0.00013336	3.245e-05	1005.8	1.6305e-06	1.3085e-06	1097.9	208.66	1.5811e-06	1.3909e-06	263.82	76.075	59.735	17.225	1.6353e-06	24.476	191.481	-28.172	1.989	-92.346	59.152	48.182	-92.281	-85.025	30.092	52.957	-85.179	-78.857	-78.078	-70.431	32.458	-70.958	-8191	255	
57443.074	1	1	0	0	0.11142	0.15461	0.14173	0.27592	0.10415	0.051477	0.10823	0.23921	0.12929	0.043956	0.15216	0.26387	0.055209	0.0265	0.23856	0.16927	-3.8333	-3.8063	-4.4896	-3.9833	-4.2	-4.5271	-4.1167	-4.6354	-4.2604	-3.875	-4.7229	-3.8104	-4.1646	-4.5687	-3.6521	-4.475	180.954	134.824	132.541	212.507	148.975	187.962	71.482	171.334	-92.009	-10.678	-81.064	218.308	-72.321	-50.288	33.112	-13.377	9.3972e-05	0.00029831	9.8729e-05	1025.5	1.0195e-06	2.9882e-06	1106.4	211.18	1.7338e-06	2.5023e-06	268.63	75.315	60.047	17.206	2.2623e-06	24.369	0.0001435	0.00012909	3.3713e-05	1007.9	1.6679e-06	1.2712e-06	1098.7	209.38	1.6405e-06	1.3172e-06	264.99	76.219	59.982	17.322	1.5244e-06	24.473	184.007	-14.090	7.400	-92.504	-9.177	32.627	-92.810	-84.905	54.047	72.766	-85.257	-79.284	-78.821	-70.725	13.369	-71.655	-8191	255	
57443.168	1	1	0	0	0.20163	0.23942	0.064478	0.30034	0.090167	0.096336	0.17339	0.14253	0.068872	0.039319	0.24056	0.12937	0.090886	0.17274	0.044747	0.26708	-4.0687	-3.8479	-4.5687	-4.0396	-4.0271	-4.4896	-3.8625	-4.4479	-4.3208	-3.7521	-4.7562	-4.0646	-4.1354	-4.5833	-3.825	-4.3667	-30.870	201.751	11.211	253.585	2.698	-22.273	174.295	246.799	203.063	-63.578	174.271	104.523	153.439	215.676	14.793	-48.486	7.9469e-05	0.00039624	9.0788e-05	1032.3	1.1427e-06	1.4404e-06	1119.6	211.55	6.2458e-07	4.1536e-06	266	75.312	59.349	17.226	2.3032e-06	24.244	0.00015247	0.00013691	3.2754e-05	1010.9	1.5927e-06	1.3039e-06	1103	209.42	1.5212e-06	1.4932e-06	264.66	76.169	59.83	17.318	1.4527e-06	24.545	195.267	-11.969	-28.183	-92.674	26.557	18.898	-92.434	-84.978	-2.300	46.627	-84.921	-79.255	-78.359	-70.776	57.733	-71.445	-8191	255	
57443.266	1	1	0	0	0.17405	0.099134	0.1255	0.15706	0.14465	0.13815	0.14627	0.063166	0.048717	0.15788	0.077448	0.19353	0.078645	0.077216	0.15463	0.092638	-4.0667	-3.7479	-4.6167	-4.2479	-3.8854	-4.6937	-3.8563	-4.1937	-4.4021	-3.6646	-4.7083	-4.1854	-3.9771	-4.6188	-3.7854	-4.2854	113.797	-52.774	-66.772	200.347	25.450	142.663	179.662	23.873	103.595	114.658	145.989	-77.831	-91.333	202.488	-58.713	125.874	9.0867e-05	0.00032737	0.00011485	1035.7	1.5836e-06	2.7082e-06	1115.7	211.79	9.7135e-07	2.7417e-06	265.27	75.753	59.112	17.151	2.3075e-06	24.211	0.0001457	0.00012591	3.3115e-05	1011.5	1.7481e-06	1.4053e-06	1102.7	209.3	1.5873e-06	1.5564e-06	264.26	76.237	59.635	17.267	1.4804e-06	24.468	184.517	-11.401	17.241	-92.692	76.281	37.488	-92.559	-84.936	7.334	31.247	-85.086	-78.944	-78.536	-70.419	33.644	-71.039	-8191	255	
57443.359	1	1	0	0	0.080761	0.1408	0.10569	0.14376	0.13596	0.33741	0.12439	0.037486	0.15736	0.20883	0.29651	0.16073	0.11778	0.14058	0.074467	0.32216	-4.1354	-3.6854	-4.4479	-4.4	-3.8833	-4.5958	-4.0563	-4.1917	-4.4646	-3.625	-4.6312	-4.2833	-3.6729	-4.7083	-3.8729	-4.0271	-50.782	207.271	-73.022	-67.572	-22.539	-29.848	164.666	101.891	-47.282	110.692	15.014	89.160	184.349	-73.255	86.617	222.185	8.414e-05	0.00037028	8.4034e-05	1032.4	1.1802e-06	2.3163e-06	1115.6	210.48	6.6238e-07	3.1973e-06	266.44	75.043	60.069	17.207	2.979e-06	24.396	0.00014666	0.00014761	3.0995e-05	1010.8	1.7827e-06	1.1526e-06	1103.2	209.09	1.5159e-06	1.5773e-06	264.43	76.163	59.851	17.255	1.4446e-06	24.515	182.446	-18.807	2.980	-92.621	62.614	47.080	-92.168	-84.905	-20.756	33.343	-85.118	-78.666	-78.820	-70.439	32.581	-71.392	-8191	255	
57443.457	1	1	0	0	0.19778	0.085902	0.14095	0.24177	0.071075	0.1403	0.17764	0.11749	0.16332	0.041115	0.19251	0.12242	0.31608	0.20913	0.25984	0.046875	-4.2958	-3.5854	-4.3688	-4.4458	-3.6813	-4.575	-4.1562	-4.0771	-4.6042	-3.9292	-4.5729	-4.5167	-3.6625	-4.6521	-4.025	-3.9	-97.602	-46.522	221.686	224.248	42.961	-96.388	155.803	-70.002	-81.562	-25.831	-82.708	-75.837	241.560	143.301	-75.223	187.875	9.4382e-05	0.00031308	8.2284e-05	1029.4	1.7459e-06	1.1336e-06	1117.8	209.72	1.6757e-06	2.345e-06	267.24	75.018	59.168	17.183	1.3582e-06	24.228	0.00014654	0.00012363	3.5721e-05	1009	1.7505e-06	1.2521e-06	1101.8	208.89	1.5311e-06	1.4654e-06	264.38	75.973	59.51	17.209	1.4049e-06	24.435	184.985	-0.811	-2.837	-92.478	-12.304	101.942	-92.316	-85.212	6.390	62.856	-84.979	-78.732	-78.528	-70.726	-11.602	-71.691	-8191	255	
57443.578	1	1	0	0	0.28236	0.26346	0.10544	0.22783	0.055391	0.1054	0.17343	0.25455	0.15243	0.32282	0.076642	0.16919	0.05609	0.22964	0.13921	0.21876	-4.2937	-3.7604	-4.2042	-4.6333	-3.7208	-4.6312	-4.1917	-3.8229	-4.4792	-3.7604	-4.3167	-4.4625	-3.7521	-4.4667	-4.2208	-3.8583	232.036	89.714	70.048	216.258	124.574	115.352	191.597	-29.144	47.390	73.349	-18.556	7.108	216.625	-49.324	227.847	204.841	9.2195e-05	0.0001645	9.9224e-05	1030.5	1.0783e-06	2.3326e-06	1120.1	210.14	1.7454e-06	1.458e-06	267.08	75.456	59.72	17.144	3.7563e-06	24.13	0.00013972	0.00014004	3.4085e-05	1009.2	1.7534e-06	1.2776e-06	1101.4	208.88	1.4924e-06	1.4977e-06	264.74	76.166	59.746	17.17	1.4595e-06	24.354	180.278	-42.955	-16.747	-92.555	-2.392	13.973	-92.584	-85.471	20.952	15.839	-85.325	-79.163	-78.340	-70.874	45.702	-71.438	-8191	255	
57443.672	1	1	0	0	0.12362	0.1775	0.16165	0.24463	0.12841	0.20067	0.20665	0.23308	0.1022	0.17361	0.092934	0.10353	0.19361	0.14784	0.18116	0.16505	-4.3292	-4.0312	-4.1083	-4.8583	-3.7021	-4.4542	-4.3938	-3.8042	-4.6354	-3.9396	-3.9542	-4.6708	-3.8312	-4.3854	-4.3042	-3.7438	199.337	161.480	232.196	223.187	212.203	248.097	253.544	204.212	109.667	150.152	50.823	-67.042	-75.172	-10.241	94.761	44.378	8.3355e-05	0.00030383	7.3567e-05	1033	1.3795e-06	2.3962e-06	1119.3	212.01	1.6888e-06	1.8956e-06	266.98	75.87	59.249	17.185	1.9526e-06	24.056	0.00014539	0.0001402	3.3205e-05	1011.5	1.7753e-06	1.2117e-06	1101.7	209.29	1.5051e-06	1.5523e-06	264.94	76.243	59.695	17.271	1.3235e-06	24.399	183.255	-23.516	-14.056	-92.556	68.822	26.110	-92.073	-85.278	33.387	36.856	-85.204	-78.943	-78.460	-70.719	23.320	-71.412	-8191	255	
57443.770	1	1	0	0	0.23601	0.2784	0.13066	0.13193	0.081586	0.21438	0.11953	0.17345	0.1082	0.077279	0.10327	0.13475	0.046984	0.13963	0.059735	0.1888	-4.2292	-4.1375	-4.0312	-4.6458	-3.7458	-4.3083	-4.5563	-3.8958	-4.5875	-4.125	-4.0271	-4.6542	-3.8729	-4.1583	-4.3625	-3.8458	-29.499	33.064	-58.137	-30.794	107.281	225.748	101.877	117.241	162.788	87.075	-8.565	196.876	135.452	-40.191	181.137	157.224	9.6566e-05	0.00046136	9.2805e-05	1033.2	1.9642e-06	3.3139e-06	1116.6	210.77	1.2158e-06	2.6819e-06	265.36	75.448	59.231	17.164	1.7639e-06	24.309	0.00014553	0.00014269	4.1112e-05	1011.5	1.8115e-06	1.4303e-06	1101	209.31	1.4891e-06	1.44e-06	264.35	76.116	59.546	17.224	1.39e-06	24.411	185.453	-28.903	-1.796	-92.216	38.089	49.152	-92.369	-85.380	20.069	42.204	-85.064	-78.845	-78.409	-71.003	49.455	-71.262	-8191	255	
57443.863	1	1	0	0	0.16728	0.12095	0.15767	0.077943	0.15607	0.19682	0.27999	0.13921	0.09215	0.05721	0.077458	0.14586	0.11561	0.058492	0.13015	0.026371	-4.15	-3.9646	-3.7771	-4.8542	-3.8417	-4.2771	-4.5125	-3.8167	-4.5771	-4.3479	-3.8021	-4.8271	-3.9771	-4.0312	-4.6104	-3.7354	-6.867	86.682	55.912	256.764	-17.221	32.086	118.780	190.483	68.633	1.104	194.987	-78.111	121.057	38.979	235.150	95.977	8.7995e-05	0.00027775	8.4586e-05	1030.5	1.4733e-06	3.5817e-06	1115.1	210.31	5.3314e-07	1.5821e-06	262.83	75.346	58.922	17.354	1.5007e-06	24.018	0.00014423	0.00013397	3.6589e-05	1008.6	1.7908e-06	1.4971e-06	1099.5	208.8	1.5773e-06	1.4677e-06	262.8	75.949	59.394	17.245	1.3653e-06	24.297	193.278	4.538	-0.715	-92.473	21.644	42.177	-92.282	-85.082	46.484	39.890	-85.294	-78.641	-78.350	-70.709	91.953	-70.893	-8191	255	
57443.961	1	1	0	0	0.12561	0.074147	0.051507	0.1083	0.071125	0.43237	0.36527	0.068512	0.20665	0.017617	0.069911	0.1174	0.043375	0.11526	0.054945	0.071393	-4.1896	-4.2917	-3.7062	-4.7667	-3.9208	-4.2229	-4.5958	-3.7188	-4.4	-4.35	-3.875	-4.5792	-3.9896	-3.8125	-4.5708	-3.7375	231.233	135.849	-9.981	180.649	116.690	87.938	142.677	112.967	-57.253	38.989	253.837	206.799	-65.112	86.787	105.057	58.896	0.00011141	0.00036262	4.2598e-05	1028.2	6.6093e-07	3.4074e-06	1114.5	211.18	1.4791e-06	2.5128e-06	265.25	75.44	59.024	16.868	2.4586e-06	24.086	0.00015041	0.00012392	3.6567e-05	1010.3	1.7778e-06	1.3412e-06	1099.5	209.27	1.6182e-06	1.2936e-06	263.99	75.9	59.51	17.142	1.3252e-06	24.344	194.738	-24.193	-2.156	-92.493	37.944	55.252	-92.183	-84.923	8.369	70.582	-85.501	-79.001	-78.387	-71.161	40.137	-71.129	-8191	255	
#DATA ENDS
