BOXY.EXE: ISS Imagent and Oximeter Data Acquisition Program Version 0.80
Ascii Record File

#ACQ INFORMATION
2  Detector Channels 
16  External MUX Channels 
1  Auxiliary Channels 
5000  Waveform (CCF) Frequency (Hz)
1  Waveforms Skipped 
30  Waveforms Averaged 
1  Cycles Averaged 
16  Acquisitions per Waveform 
10.0806  Updata Rate (Hz) 

#FILE INFORMATION
TRUE -- External MUX Channel results are PARSED.
FALSE -- AC DC and Phase are NOT grouped.
TRUE -- Companion Program Settings File CREATED.
FALSE -- AC data not excluded
FALSE -- DC data not excluded
FALSE -- Phase data not excluded
FALSE -- Auxillary Chn. data not excluded
Tab delimiters

#CALIBRATION STATE
TRUE -- Waveform Calibration Values APPLIED.


#AUX CALIBRATION VALUES
Val Type	aux-1	

Term	1.0000e+00	
Factor	0.0000e+00	


#WF CALIBRATION VALUES
A = Detector Channel
Val Type	A-AC1	A-AC2	A-AC3	A-AC4	A-AC5	A-AC6	A-AC7	A-AC8	A-AC9	A-AC10	A-AC11	A-AC12	A-AC13	A-AC14	A-AC15	A-AC16	A-DC1	A-DC2	A-DC3	A-DC4	A-DC5	A-DC6	A-DC7	A-DC8	A-DC9	A-DC10	A-DC11	A-DC12	A-DC13	A-DC14	A-DC15	A-DC16	A-Ph1	A-Ph2	A-Ph3	A-Ph4	A-Ph5	A-Ph6	A-Ph7	A-Ph8	A-Ph9	A-Ph10	A-Ph11	A-Ph12	A-Ph13	A-Ph14	A-Ph15	A-Ph16	

Term	0.00000e+00	0.00000e+00	0.00000e+00	0.00000e+00	0.00000e+00	0.00000e+00	0.00000e+00	0.00000e+00	0.00000e+00	0.00000e+00	0.00000e+00	0.00000e+00	0.00000e+00	0.00000e+00	0.00000e+00	0.00000e+00	0.00000e+00	0.00000e+00	0.00000e+00	0.00000e+00	0.00000e+00	0.00000e+00	0.00000e+00	0.00000e+00	0.00000e+00	0.00000e+00	0.00000e+00	0.00000e+00	0.00000e+00	0.00000e+00	0.00000e+00	0.00000e+00	0.00000e+00	0.00000e+00	0.00000e+00	0.00000e+00	0.00000e+00	0.00000e+00	0.00000e+00	0.00000e+00	0.00000e+00	0.00000e+00	0.00000e+00	0.00000e+00	0.00000e+00	0.00000e+00	0.00000e+00	0.00000e+00	
Factor	1.00000e+00	1.00000e+00	1.00000e+00	1.00000e+00	1.00000e+00	1.00000e+00	1.00000e+00	1.00000e+00	1.00000e+00	1.00000e+00	1.00000e+00	1.00000e+00	1.00000e+00	1.00000e+00	1.00000e+00	1.00000e+00	1.00000e+00	1.00000e+00	1.00000e+00	1.00000e+00	1.00000e+00	1.00000e+00	1.00000e+00	1.00000e+00	1.00000e+00	1.00000e+00	1.00000e+00	1.00000e+00	1.00000e+00	1.00000e+00	1.00000e+00	1.00000e+00	X	X	X	X	X	X	X	X	X	X	X	X	X	X	X	X	

B = Detector Channel
Val Type	B-AC1	B-AC2	B-AC3	B-AC4	B-AC5	B-AC6	B-AC7	B-AC8	B-AC9	B-AC10	B-AC11	B-AC12	B-AC13	B-AC14	B-AC15	B-AC16	B-DC1	B-DC2	B-DC3	B-DC4	B-DC5	B-DC6	B-DC7	B-DC8	B-DC9	B-DC10	B-DC11	B-DC12	B-DC13	B-DC14	B-DC15	B-DC16	B-Ph1	B-Ph2	B-Ph3	B-Ph4	B-Ph5	B-Ph6	B-Ph7	B-Ph8	B-Ph9	B-Ph10	B-Ph11	B-Ph12	B-Ph13	B-Ph14	B-Ph15	B-Ph16	

Term	0.00000e+00	0.00000e+00	0.00000e+00	0.00000e+00	0.00000e+00	0.00000e+00	0.00000e+00	0.00000e+00	0.00000e+00	0.00000e+00	0.00000e+00	0.00000e+00	0.00000e+00	0.00000e+00	0.00000e+00	0.00000e+00	0.00000e+00	0.00000e+00	0.00000e+00	0.00000e+00	0.00000e+00	0.00000e+00	0.00000e+00	0.00000e+00	0.00000e+00	0.00000e+00	0.00000e+00	0.00000e+00	0.00000e+00	0.00000e+00	0.00000e+00	0.00000e+00	-8.69914e+00	-1.27636e+02	-1.26579e+02	-1.81887e+02	-5.43741e+01	-6.80890e+01	-1.57669e+02	-1.62015e+02	-3.26815e+01	-6.62177e+01	-1.72231e+02	-1.69913e+02	-1.80444e+02	-1.76573e+02	-5.52496e+01	-1.49179e+02	
Factor	3.53343e-05	1.72379e-04	5.09740e-05	1.64140e-01	2.14399e-06	1.74113e-06	1.89180e-01	5.70625e-02	2.23709e-06	1.85859e-06	9.95569e-02	3.28311e-02	4.44292e-02	9.93343e-03	2.12406e-06	1.45167e-02	1.70138e-05	2.97382e-05	8.36903e-06	8.38226e-02	2.87917e-07	3.39007e-07	9.04686e-02	2.91930e-02	2.86657e-07	3.34529e-07	4.92895e-02	1.63091e-02	2.28853e-02	5.14651e-03	3.07838e-07	7.27220e-03	X	X	X	X	X	X	X	X	X	X	X	X	X	X	X	X	



#DISTANCE SETTINGS
A = Detector Channel
A-1	A-2	A-3	A-4	A-5	A-6	A-7	A-8	A-9	A-10	A-11	A-12	A-13	A-14	A-15	A-16	

2.5000e+00	3.0000e+00	2.5000e+00	3.0000e+00	2.0000e+00	3.0000e+00	1.5000e+00	3.0000e+00	3.0000e+00	3.0000e+00	3.0000e+00	3.0000e+00	3.0000e+00	3.0000e+00	1.5000e+00	3.0000e+00	

B = Detector Channel
B-1	B-2	B-3	B-4	B-5	B-6	B-7	B-8	B-9	B-10	B-11	B-12	B-13	B-14	B-15	B-16	

1.0000e+01	1.0000e+01	1.0000e+01	1.4400e+00	1.0000e+01	1.0000e+01	1.5100e+00	1.9400e+00	1.0000e+01	1.0000e+01	1.9900e+00	2.4900e+00	2.4100e+00	2.9000e+00	1.0000e+01	2.9800e+00	




#DATA BEGINS
time	group	step	mark	flag	A-AC1	A-AC2	A-AC3	A-AC4	A-AC5	A-AC6	A-AC7	A-AC8	A-AC9	A-AC10	A-AC11	A-AC12	A-AC13	A-AC14	A-AC15	A-AC16	A-DC1	A-DC2	A-DC3	A-DC4	A-DC5	A-DC6	A-DC7	A-DC8	A-DC9	A-DC10	A-DC11	A-DC12	A-DC13	A-DC14	A-DC15	A-DC16	A-Ph1	A-Ph2	A-Ph3	A-Ph4	A-Ph5	A-Ph6	A-Ph7	A-Ph8	A-Ph9	A-Ph10	A-Ph11	A-Ph12	A-Ph13	A-Ph14	A-Ph15	A-Ph16	B-AC1	B-AC2	B-AC3	B-AC4	B-AC5	B-AC6	B-AC7	B-AC8	B-AC9	B-AC10	B-AC11	B-AC12	B-AC13	B-AC14	B-AC15	B-AC16	B-DC1	B-DC2	B-DC3	B-DC4	B-DC5	B-DC6	B-DC7	B-DC8	B-DC9	B-DC10	B-DC11	B-DC12	B-DC13	B-DC14	B-DC15	B-DC16	B-Ph1	B-Ph2	B-Ph3	B-Ph4	B-Ph5	B-Ph6	B-Ph7	B-Ph8	B-Ph9	B-Ph10	B-Ph11	B-Ph12	B-Ph13	B-Ph14	B-Ph15	B-Ph16	aux-1	digaux	

3325.651	1	1	0	768	0.19881	0.27334	0.1455	0.17566	0.063953	0.076006	0.51817	0.34127	0.01664	0.15882	0.24096	0.097829	0.088616	0.44681	0.24169	0.28111	-2.6312	-2.9708	-2.4042	-3.4708	-2.8292	-2.6771	-3.6667	-2.7208	-3.0354	-3.0458	-2.6333	-3.2583	-3.0104	-2.75	-3.4646	-2.7375	194.798	183.611	147.986	163.864	76.328	-17.996	252.651	174.782	-63.783	-54.063	158.154	146.510	234.164	180.064	76.445	-96.516	0.00037505	0.00056143	0.00018445	1368.3	2.9501e-06	3.756e-06	1365.2	368.13	2.3627e-06	4.3362e-06	420.7	140.12	122.04	41.941	4.4424e-06	51.889	0.00051619	0.00056044	0.00016201	1384.1	6.0415e-06	6.3818e-06	1381.5	374.61	6.0891e-06	5.9881e-06	428.66	143.36	124.66	42.994	6.3158e-06	53.196	-39.896	-9.620	-19.366	-93.798	49.026	41.127	-93.831	-89.215	38.294	35.084	-89.683	-85.238	-84.664	-79.931	41.166	-80.824	-8191	255	
3325.747	1	1	0	0	0.19424	0.093632	0.12447	0.15326	0.17238	0.13415	0.2687	0.37051	0.043478	0.14463	0.12785	0.089369	0.23203	0.03028	0.075203	0.22249	-2.7521	-3.075	-2.325	-3.4521	-2.9188	-2.5958	-3.45	-2.6	-3.0021	-3.3063	-2.5396	-3.1542	-3.0625	-2.6104	-3.4771	-2.8208	-48.812	87.041	162.785	205.909	118.157	22.583	183.833	236.952	-103.688	205.354	245.872	-78.918	-65.747	3.806	118.336	145.213	0.00038314	0.00049895	0.00014782	1363.3	4.4301e-06	2.8593e-06	1364.7	368.81	3.8951e-06	4.2791e-06	421.96	140.33	122.47	41.901	4.8844e-06	51.649	0.00054398	0.00056794	0.00016649	1384.1	6.2736e-06	6.5457e-06	1381.1	374.57	6.0897e-06	6.1546e-06	428.48	143.27	124.95	42.96	6.1151e-06	53.141	-35.250	-2.728	-19.629	-93.698	30.956	22.908	-93.823	-89.016	5.731	55.383	-89.538	-85.070	-84.720	-79.881	57.206	-81.159	-8191	255	
3325.844	1	1	0	0	0.17604	0.048078	0.10906	0.027477	0.21163	0.50313	0.12925	0.14244	0.19069	0.18396	0.081882	0.22531	0.11821	0.23561	0.059888	0.14311	-2.7062	-3.3625	-2.3958	-3.4708	-3.0021	-2.5896	-3.4646	-2.8729	-2.7667	-3.3167	-2.6458	-3.3	-3.0792	-2.5938	-3.3667	-2.95	-19.809	-61.550	-40.602	205.559	159.891	-14.707	174.313	172.711	-14.199	-12.759	-79.355	252.097	144.747	219.610	-48.008	28.144	0.00037755	0.00047916	0.00014432	1367.7	3.9899e-06	5.3997e-06	1365.1	367.61	4.0029e-06	5.5714e-06	420.68	140.34	122.11	41.823	4.3514e-06	51.798	0.00053218	0.00055232	0.00015967	1386	5.9851e-06	6.5704e-06	1382.6	374.54	6.0891e-06	6.2425e-06	427.56	143.74	124.62	43.004	5.89e-06	53.168	-41.086	-9.065	-12.379	-93.813	35.996	38.246	-93.847	-88.888	31.345	43.201	-89.403	-84.895	-84.616	-80.179	37.083	-80.918	-8191	255	
3325.940	1	1	0	0	0.38842	0.17812	0.19648	0.2109	0.10962	0.15234	0.086431	0.094722	0.19353	0.025735	0.096525	0.39244	0.084035	0.098938	0.13414	0.0679	-2.2667	-3.3104	-2.5125	-3.2542	-3.1792	-2.5271	-3.5812	-3.0542	-2.6146	-3.2833	-2.6125	-3.0833	-3.2792	-2.5104	-3.2854	-3.1625	43.339	119.564	152.757	-106.065	26.737	-39.021	181.867	-25.493	67.221	-58.788	-79.804	249.025	179.858	-56.031	200.057	-83.277	0.00037718	0.00041744	0.00019229	1366.3	4.0031e-06	4.3671e-06	1367.5	368.39	5.7339e-06	5.6334e-06	419.15	140.12	122	42.007	4.9334e-06	51.865	0.00054118	0.00055914	0.00016309	1384.2	6.1134e-06	6.3225e-06	1383.2	374.52	6.697e-06	6.131e-06	427.51	143.25	124.82	43.066	6.0125e-06	53.263	-38.739	-28.962	0.097	-93.757	49.605	43.026	-93.768	-89.095	56.556	52.173	-89.539	-84.926	-84.447	-80.098	59.448	-80.960	-8191	255	
3326.036	1	1	0	0	0.28106	0.15412	0.065898	0.10784	0.065114	0.079662	0.35454	0.14806	0.091023	0.19448	0.061246	0.3098	0.17706	0.075543	0.14254	0.12557	-2.2875	-3.3083	-2.5396	-3.0771	-3.2521	-2.5875	-3.3042	-3.1604	-2.425	-3.3854	-2.6625	-3.0354	-3.4208	-2.6437	-3.1542	-3.0438	159.239	94.241	150.905	184.024	90.916	-19.867	196.246	142.189	221.961	6.123	-96.408	-86.747	77.734	248.914	-78.979	-52.938	0.00037009	0.00056319	0.00017233	1369.4	5.6841e-06	3.5607e-06	1365.9	368.77	3.498e-06	4.8749e-06	420.92	140.15	121.41	41.777	4.6884e-06	51.902	0.00054501	0.00055964	0.00015856	1385.3	6.2346e-06	6.3451e-06	1382.3	374.96	6.2342e-06	6.0424e-06	427.91	143.41	124.59	42.954	6.0323e-06	53.278	-46.251	-11.634	-12.572	-93.689	21.660	45.205	-93.714	-88.949	28.322	49.532	-89.801	-84.792	-84.554	-79.857	38.466	-81.088	-8191	255	
3326.132	1	1	0	0	0.23963	0.13524	0.22797	0.070731	0.1283	0.35235	0.28769	0.23255	0.12342	0.074207	0.11264	0.07846	0.20675	0.28566	0.40053	0.076197	-2.1125	-3.2521	-2.7625	-3.0208	-3.2958	-2.6229	-3.3979	-3.0271	-2.5708	-3.3833	-2.8812	-2.6312	-3.4125	-2.5021	-2.9479	-3.1271	-29.766	-30.982	-58.434	113.277	219.677	30.191	203.038	231.533	125.692	239.043	244.118	1.473	-62.553	-47.710	-76.628	-20.475	0.00036067	0.00056463	0.0001941	1364	4.5746e-06	5.2935e-06	1367.6	368.73	5.7337e-06	4.3956e-06	419.7	140.26	122.08	41.811	3.3955e-06	51.681	0.00054834	0.0005509	0.00016177	1384	5.8843e-06	6.2455e-06	1383.3	374.86	6.4868e-06	5.8982e-06	427.78	143.43	124.71	42.988	5.924e-06	53.166	-41.448	-27.748	-5.513	-93.752	50.209	30.618	-93.704	-89.008	44.873	49.987	-89.585	-85.133	-84.664	-80.131	40.271	-80.892	-8191	255	
3326.253	1	1	0	0	0.080925	0.10512	0.12996	0.36752	0.082538	0.21718	0.28548	0.20533	0.3462	0.093956	0.18811	0.18486	0.13914	0.072267	0.14482	0.22849	-2.075	-3.3958	-2.8729	-2.9625	-3.3771	-2.8438	-3.2896	-3.3417	-2.625	-3.3104	-3.1125	-2.7812	-3.3458	-2.6	-2.8542	-3.4104	13.373	92.686	72.131	248.426	69.215	144.436	196.406	182.439	-52.112	185.634	163.944	209.627	-62.498	242.914	-60.768	232.517	0.00039992	0.00058816	0.00015264	1368	3.9704e-06	4.076e-06	1366.6	368.41	4.5816e-06	4.6267e-06	420.58	139.5	122.36	41.938	4.216e-06	51.772	0.00054157	0.00053609	0.00015641	1385.1	6.0097e-06	6.112e-06	1382.1	375.08	6.2061e-06	5.7832e-06	427.86	143.17	124.93	42.995	6.0631e-06	53.239	-39.563	-30.977	-24.804	-93.538	40.392	57.402	-93.775	-88.970	35.149	26.469	-89.690	-84.952	-84.497	-79.981	40.491	-81.076	-8191	255	
3326.347	1	1	0	0	0.20125	0.17696	0.12865	0.31665	0.22183	0.24017	0.21261	0.11289	0.2409	0.11652	0.17853	0.12751	0.16325	0.29469	0.070023	0.18096	-2.2542	-3.0979	-2.9062	-2.7833	-3.4437	-2.8333	-3.0146	-3.4479	-2.4042	-3.1917	-3.2458	-2.6188	-3.55	-2.7375	-2.4875	-3.4229	159.071	146.645	-12.808	-90.102	-11.197	-12.028	186.697	7.539	-2.858	3.535	56.878	-54.908	-104.520	141.536	-49.801	-96.499	0.00036503	0.00048535	0.00016971	1366.9	3.5712e-06	4.9789e-06	1366	369.14	3.3221e-06	6.2106e-06	420.55	140.07	122.38	41.983	3.4564e-06	51.812	0.00054926	0.00052953	0.00015551	1383.5	6.0025e-06	6.0986e-06	1381.2	374.78	6.2043e-06	6.1979e-06	428.22	143.47	124.94	43.001	6.0695e-06	53.173	-42.508	-13.012	-13.887	-93.727	53.999	52.351	-93.662	-89.080	43.026	49.552	-89.616	-85.059	-84.310	-80.028	34.117	-80.755	-8191	255	
3326.445	1	1	0	0	0.10477	0.10263	0.29432	0.29689	0.26525	0.23643	0.11028	0.25232	0.15155	0.12104	0.17432	0.14429	0.033393	0.067092	0.12888	0.16013	-2.0812	-3.175	-3.0938	-2.7	-3.2771	-2.7833	-2.825	-3.5042	-2.4562	-3.1708	-3.2188	-2.7	-3.2771	-3.0229	-2.6167	-3.5104	-81.453	13.458	112.085	175.343	85.115	65.581	216.356	202.052	214.759	201.689	-87.051	-37.165	-34.601	-7.095	-41.634	235.360	0.00039646	0.00043129	0.00014128	1367.9	2.6221e-06	3.9078e-06	1365.4	367.7	7.6592e-06	3.8699e-06	419.29	140.07	122.42	41.996	4.3851e-06	51.756	0.00054093	0.00055232	0.00015106	1384.2	6.0343e-06	6.0117e-06	1381	374.6	6.107e-06	5.9644e-06	428.34	143.3	124.85	43.059	6.226e-06	53.255	-41.012	-3.448	-9.022	-93.750	66.952	54.823	-93.643	-89.023	60.110	58.888	-89.323	-84.909	-84.255	-80.047	57.859	-80.663	-8191	255	
3326.541	1	1	0	0	0.21512	0.076432	0.072361	0.13683	0.29709	0.10665	0.13767	0.28706	0.11139	0.11152	0.20356	0.13286	0.29955	0.093521	0.141	0.077453	-2.2708	-2.9458	-3.1083	-2.6542	-3.1896	-2.9771	-2.675	-3.3625	-2.7396	-2.8604	-3.3333	-2.7687	-3.2917	-3.1125	-2.5812	-3.2521	-40.576	209.256	25.360	14.552	197.721	164.494	199.842	196.068	176.159	154.273	241.179	225.423	181.345	-73.041	114.833	75.597	0.00037324	0.00060355	0.00013554	1367.8	4.7582e-06	5.7323e-06	1368.1	369.18	3.358e-06	5.8206e-06	420.69	140.21	121.89	41.621	2.1544e-06	51.95	0.00051913	0.00054675	0.00015528	1382.7	5.8105e-06	6.2342e-06	1381.8	374.9	5.8568e-06	6.0843e-06	428.59	143.28	124.69	42.955	6.244e-06	53.237	-47.108	-13.217	-11.229	-93.785	54.465	48.322	-93.770	-88.935	23.432	29.813	-89.588	-85.249	-84.157	-80.124	49.471	-80.349	-8191	255	
3326.636	1	1	0	0	0.07286	0.22119	0.083885	0.21876	0.03348	0.15758	0.25958	0.14404	0.17578	0.082511	0.11385	0.10894	0.21453	0.036927	0.16653	0.33669	-2.3792	-2.9	-3.2292	-2.5333	-3.0771	-3.0375	-2.6896	-3.4813	-2.6188	-2.675	-3.3229	-2.5938	-3.3417	-3.1771	-2.5583	-3.4083	-72.413	183.876	185.451	181.719	91.792	164.685	168.103	174.591	19.346	195.875	-7.705	196.690	200.975	64.080	-71.107	197.931	0.00038973	0.00050693	0.00012967	1368.4	3.8873e-06	3.8876e-06	1362.7	368.86	3.6371e-06	4.3482e-06	421.05	139.67	122.05	41.962	6.6748e-06	51.539	0.00052481	0.00054266	0.00015019	1383.4	5.7913e-06	6.0011e-06	1380.9	374.98	5.9935e-06	5.9525e-06	428.6	143.21	124.95	43	6.3831e-06	53.151	-41.207	-29.613	-10.761	-93.665	37.817	36.206	-93.653	-88.833	46.405	35.510	-89.435	-85.008	-84.285	-80.071	59.244	-80.904	-8191	255	
3326.732	1	1	0	0	0.29067	0.19622	0.16532	0.18253	0.05155	0.15172	0.062081	0.16006	0.064069	0.13344	0.21244	0.17064	0.14472	0.16123	0.086015	0.097519	-2.4417	-2.675	-3.3708	-2.7313	-3.1021	-3.2083	-2.6	-3.3563	-2.9104	-2.6729	-3.4604	-2.6562	-3.0479	-3.2562	-2.5271	-3.3042	165.874	-18.754	218.926	246.203	-104.602	110.042	200.814	-54.861	246.517	233.652	178.790	-72.245	135.044	152.697	-63.161	106.895	0.00036461	0.0005523	0.00011369	1367.5	4.4025e-06	6.3659e-06	1366.2	367.86	4.0986e-06	4.922e-06	423.41	140.13	122.56	41.932	4.4947e-06	51.697	0.00052346	0.00055517	0.00014953	1383	5.8009e-06	6.237e-06	1381.8	374.59	5.8251e-06	5.9888e-06	428.81	143.11	124.76	42.976	6.0317e-06	53.203	-48.915	-29.487	-8.699	-93.588	25.074	41.668	-93.633	-88.840	8.271	63.772	-89.308	-85.001	-84.011	-79.830	38.330	-80.769	-8191	255	
3326.828	1	1	0	0	0.094391	0.073281	0.074188	0.072318	0.081023	0.062867	0.41983	0.24564	0.16479	0.17075	0.11728	0.04239	0.033615	0.052654	0.2103	0.14202	-2.5354	-2.3688	-3.2229	-2.825	-2.9021	-3.4125	-2.4979	-3.3521	-3.0021	-2.6875	-3.3396	-2.5479	-2.8292	-3.3792	-2.5667	-3.4979	74.731	70.392	237.052	242.636	-36.130	-93.732	181.683	204.394	68.287	82.286	192.648	-97.742	-96.196	22.327	34.669	-69.616	0.0004296	0.00048096	0.00013692	1367.7	5.1913e-06	5.2368e-06	1360.1	367.44	5.0441e-06	4.7702e-06	420.53	139.69	122.37	41.922	4.8284e-06	51.876	0.00052041	0.00054855	0.00014944	1383.4	6.0265e-06	6.0294e-06	1381	374.33	5.8048e-06	6.1965e-06	428.29	143.15	125.01	42.98	6.1285e-06	53.208	-40.460	-11.036	-31.055	-93.552	49.434	37.350	-93.543	-88.819	42.007	44.913	-89.440	-84.809	-84.296	-79.974	51.637	-80.933	-8191	255	
3326.948	1	1	0	0	0.22728	0.19399	0.20876	0.085305	0.096955	0.19502	0.13635	0.060457	0.094291	0.22169	0.1828	0.12508	0.14239	0.062479	0.2615	0.24022	-2.8563	-2.5062	-3.3833	-3.1104	-2.8083	-3.3354	-2.7375	-3.125	-3.0646	-2.575	-3.5229	-2.8167	-2.8187	-3.5083	-2.5604	-3.1479	235.826	142.637	54.091	173.488	137.495	54.325	-26.848	109.256	99.729	28.037	233.739	-44.798	201.087	181.608	137.571	221.304	0.00039379	0.0004763	0.00015295	1370.2	3.8731e-06	3.3065e-06	1364.2	370.2	3.6117e-06	4.9636e-06	424.17	140.01	122.48	41.771	4.3618e-06	51.795	0.00052863	0.00057221	0.00014742	1384.7	6.0121e-06	6.0534e-06	1380.1	375.64	5.9219e-06	6.2878e-06	429.01	143.09	124.89	42.982	6.1022e-06	53.222	-41.895	-21.118	-19.178	-93.507	52.446	44.654	-93.482	-88.735	68.662	42.793	-89.150	-84.848	-84.263	-79.720	46.998	-80.593	-8191	255	
3327.045	1	1	0	0	0.038072	0.34201	0.31341	0.28761	0.21253	0.18278	0.13638	0.15637	0.22169	0.24058	0.14111	0.24795	0.11757	0.064907	0.1624	0.17191	-2.8083	-2.4208	-3.1229	-2.9875	-2.6208	-3.3875	-2.6979	-3.3271	-3.2313	-2.6021	-3.5083	-2.9792	-2.7771	-3.2729	-2.8479	-3.0104	-1.841	-91.497	63.976	217.469	79.370	56.041	122.719	-95.198	112.162	211.594	-83.697	-104.892	19.214	11.861	36.238	50.996	0.00037846	0.00056122	0.00014252	1367.6	4.7513e-06	3.7997e-06	1368.3	367.81	3.9731e-06	4.7258e-06	420.82	140.19	122.01	41.726	5.6714e-06	51.775	0.00052711	0.00054879	0.00014668	1383	6.2796e-06	5.9369e-06	1381.8	374.91	6.1786e-06	6.156e-06	428.13	143.24	124.86	42.918	5.7816e-06	53.211	-43.024	-8.359	-6.755	-93.545	43.826	50.587	-93.436	-88.581	51.393	39.611	-89.304	-85.010	-84.386	-79.663	44.413	-80.569	-8191	255	
3327.141	1	1	0	0	0.19468	0.13802	0.012653	0.1106	0.025767	0.088717	0.11123	0.20005	0.062682	0.1206	0.23995	0.11755	0.22924	0.13511	0.28792	0.14431	-2.9	-2.5875	-3.3333	-3.2417	-2.6708	-3.4062	-3.0542	-3.1271	-3.2875	-2.5	-3.2667	-3.1146	-2.8063	-3.5104	-2.7333	-2.8	-103.636	29.633	154.989	200.277	-83.750	158.502	90.317	184.489	25.250	-21.743	230.321	152.594	183.469	80.635	17.845	41.671	0.00033943	0.00056432	0.00017107	1365.6	5.1746e-06	4.6727e-06	1364.5	369.29	5.1113e-06	5.0743e-06	419.86	140.37	122.02	41.894	4.8174e-06	51.754	0.0005415	0.00055598	0.00015174	1384.2	6.1392e-06	5.8917e-06	1381.9	375.13	6.0198e-06	5.9846e-06	428.02	143.46	124.79	42.983	6.0638e-06	53.248	-39.363	-26.797	-29.725	-93.301	6.378	33.389	-93.865	-88.637	47.759	40.314	-89.408	-84.856	-84.276	-79.838	49.420	-80.607	-8191	255	
3327.212	1	1	0	0	0.062737	0.13393	0.21964	0.091923	0.06445	0.12567	0.17623	0.31081	0.27422	0.070812	0.15916	0.33282	0.30108	0.2276	0.070795	0.11749	-3.05	-2.65	-2.9417	-3.2646	-2.4417	-3.4979	-2.8792	-2.8875	-3.5125	-2.5771	-3.2313	-3.2292	-2.6271	-3.4	-2.8	-2.7104	189.922	216.728	176.570	203.578	130.748	99.356	163.910	251.145	-55.911	64.955	205.687	227.184	156.760	243.941	-105.495	42.123	0.00037425	0.00068413	0.00015839	1368	3.4697e-06	4.6502e-06	1363.9	367.92	2.1382e-06	5.1936e-06	421	140.37	122.19	41.958	4.6592e-06	51.896	0.00053324	0.00057395	0.00015124	1384	6.1314e-06	5.9771e-06	1380.6	374.63	5.9153e-06	6.2669e-06	427.9	143.44	124.81	43.015	5.9887e-06	53.223	-37.038	-32.855	-28.024	-93.528	42.999	28.629	-93.412	-88.635	41.963	47.040	-89.125	-84.886	-84.216	-80.000	54.011	-80.740	-8191	255	
3327.331	1	1	0	0	0.21665	0.051955	0.20348	0.31373	0.047507	0.19142	0.057922	0.17018	0.16122	0.14667	0.063562	0.29281	0.056516	0.2386	0.30098	0.39944	-2.9208	-2.4562	-2.8063	-3.3104	-2.525	-3.3104	-3.1854	-2.75	-3.4938	-2.8208	-3	-3.4958	-2.5146	-3.4146	-2.9167	-2.7042	14.388	227.223	16.861	233.342	-58.894	115.557	71.496	192.333	27.827	199.769	134.867	-17.849	175.960	141.187	65.028	226.284	0.0003838	0.00054643	0.00015051	1369.5	4.2253e-06	5.2678e-06	1366.8	368.74	3.6109e-06	4.4603e-06	421.28	140.19	122.2	42.044	4.2226e-06	52.06	0.00052133	0.00055883	0.00015069	1385.3	6.2418e-06	5.9249e-06	1381.7	374.9	6.009e-06	5.9727e-06	427.85	143.42	124.8	43.014	5.9188e-06	53.318	-41.521	-14.734	14.924	-93.318	39.623	53.048	-93.383	-88.678	14.700	52.526	-89.289	-84.551	-84.042	-79.543	48.055	-80.665	-8191	255	
3327.427	1	1	0	0	0.13866	0.14911	0.15813	0.21826	0.28447	0.23178	0.060083	0.18445	0.036478	0.08399	0.13067	0.084763	0.30512	0.23545	0.21084	0.10423	-2.975	-2.5708	-2.8479	-3.5542	-2.4688	-3.2521	-3.2	-2.8083	-3.275	-2.9146	-2.6792	-3.5187	-2.5833	-3.2667	-3.2229	-2.6937	240.263	129.732	-81.792	232.230	-85.445	24.643	181.611	164.133	233.570	-50.372	231.419	-67.327	202.692	223.827	-3.756	181.098	0.00037126	0.00050059	0.00018579	1366.4	5.0661e-06	4.4509e-06	1358.8	368.89	3.0603e-06	5.2989e-06	420.87	140.43	121.98	41.88	5.953e-06	52.04	0.00052396	0.00055871	0.00014932	1384.7	6.1308e-06	5.8352e-06	1379.8	374.98	5.8448e-06	5.8905e-06	428.08	143.09	124.72	42.963	6.1632e-06	53.212	-37.208	-19.853	-19.576	-93.447	32.747	43.363	-93.560	-88.824	68.390	44.731	-89.018	-84.932	-84.110	-79.610	57.398	-80.390	-8191	255	
3327.524	1	1	0	0	0.13931	0.1186	0.017054	0.18537	0.10656	0.16678	0.092867	0.42501	0.29031	0.26531	0.13705	0.25547	0.1279	0.25663	0.18279	0.29945	-3.0604	-2.8667	-2.9417	-3.5229	-2.5729	-3.0521	-3.3646	-2.5708	-3.2104	-2.8958	-2.9688	-3.4771	-2.7375	-3.0208	-3.2687	-2.65	-88.861	18.918	232.612	83.981	97.579	141.165	238.838	188.959	-90.528	10.783	114.731	192.619	171.170	216.670	36.636	77.016	0.00036747	0.00056192	0.00015562	1367.7	4.2434e-06	4.643e-06	1363.7	368.17	4.1257e-06	5.5166e-06	420.94	140.46	121.95	41.885	5.7179e-06	51.897	0.00051357	0.0005426	0.00015593	1384.2	6.1986e-06	5.8917e-06	1380.1	375.05	5.9141e-06	6.0027e-06	427.94	143.38	124.56	43.003	5.9823e-06	53.258	-44.940	-11.072	-9.770	-93.547	46.927	50.775	-93.601	-88.729	34.445	36.398	-89.063	-84.746	-84.315	-79.712	49.567	-80.663	-8191	255	
3327.644	1	1	0	0	0.13	0.12062	0.17318	0.23784	0.10013	0.19578	0.13807	0.15216	0.31048	0.077261	0.24092	0.18346	0.038347	0.055969	0.083118	0.18664	-2.9313	-3.0208	-2.6188	-3.6646	-2.6688	-3.1354	-3.4875	-2.6875	-3.3812	-3.0917	-2.7979	-3.5042	-2.9042	-2.7875	-3.3833	-2.6229	-66.168	145.347	-46.816	232.656	18.513	181.113	110.883	35.486	33.721	110.465	78.488	193.414	43.464	93.507	69.288	153.727	0.00037299	0.00052539	0.00016518	1367.8	6.4758e-06	5.2552e-06	1363.6	368.48	5.7452e-06	5.9016e-06	419.46	139.7	121.98	41.902	4.7016e-06	51.722	0.0005052	0.00053095	0.00015631	1384.4	5.8579e-06	5.8684e-06	1380.1	374.65	5.6077e-06	5.5372e-06	428.06	143.27	124.57	42.989	5.9086e-06	53.148	-40.469	-3.259	-21.103	-93.318	45.484	31.009	-93.527	-88.592	50.313	32.869	-89.106	-84.584	-84.164	-79.595	24.647	-80.622	-8191	255	
3327.740	1	1	0	0	0.095454	0.12256	0.096912	0.24052	0.12106	0.29286	0.12966	0.15393	0.11936	0.16489	0.14972	0.095264	0.16719	0.33126	0.13554	0.10919	-2.8292	-3.1625	-2.5938	-3.5958	-2.8042	-2.8521	-3.4813	-2.7958	-3.05	-3.1146	-2.6042	-3.3479	-2.8688	-2.7146	-3.475	-2.7083	204.091	142.068	83.244	-102.482	109.821	158.716	-95.377	233.142	217.438	138.577	72.355	179.427	-2.276	238.074	229.630	248.781	0.00036082	0.00058726	0.00018946	1363.9	5.2364e-06	5.4059e-06	1363.4	367.8	5.055e-06	6.3517e-06	421.09	139.96	122.24	41.86	5.7501e-06	51.798	0.00052105	0.00053752	0.00015807	1383.4	5.7499e-06	6.1452e-06	1380.5	374.18	5.6274e-06	5.91e-06	428.05	143.15	124.69	43.023	6.0144e-06	53.15	-42.525	-3.530	-19.789	-93.436	46.268	25.772	-93.600	-88.599	47.278	66.697	-89.099	-84.640	-83.943	-79.620	50.205	-80.769	-8191	255	
3327.812	1	1	0	0	0.17915	0.18827	0.080882	0.041377	0.18972	0.14404	0.051652	0.2521	0.050003	0.086868	0.34499	0.23575	0.11154	0.46749	0.090592	0.19069	-2.5729	-3.0854	-2.325	-3.4833	-2.6333	-2.6937	-3.5375	-2.6937	-2.9646	-3.3333	-2.5187	-3.4771	-2.8979	-2.6021	-3.4833	-2.7208	-85.188	90.911	70.101	220.288	45.330	98.554	150.352	-66.408	-81.031	-78.486	171.738	181.123	243.857	186.258	10.890	233.276	0.00040795	0.0005835	0.00014535	1367.1	5.0645e-06	5.1281e-06	1366.3	367.61	4.093e-06	5.6464e-06	420.85	139.81	121.86	42.015	5.9991e-06	51.6	0.00051726	0.00054371	0.00015777	1384.4	5.7895e-06	6.1968e-06	1380.9	374.18	5.8209e-06	5.7748e-06	428.19	143.35	124.58	42.999	5.7726e-06	53.095	-44.716	-32.309	-7.967	-93.430	61.686	67.199	-93.467	-88.736	56.504	68.204	-89.187	-84.662	-84.094	-79.808	56.694	-80.424	-8191	255	
3327.933	1	1	0	0	0.11721	0.17188	0.063223	0.31655	0.053097	0.049491	0.18882	0.36658	0.2219	0.067009	0.16253	0.086532	0.22229	0.24242	0.11438	0.15295	-2.4771	-3.1583	-2.575	-3.3083	-3.1958	-2.6021	-3.4562	-2.7229	-2.4708	-3.2583	-2.7354	-3.1437	-3.1417	-2.5521	-3.1417	-2.8479	221.190	99.819	-76.704	236.295	-34.645	103.391	166.368	172.225	237.803	-61.169	185.588	247.317	60.343	13.497	68.525	226.171	0.00037826	0.00067736	0.00014751	1362.7	3.2119e-06	5.7151e-06	1364	368.57	4.3091e-06	5.0943e-06	421.33	140.04	122.19	41.693	5.0597e-06	51.56	0.00052073	0.0005312	0.00015246	1382.3	5.8549e-06	5.9799e-06	1380.9	374.24	6.024e-06	5.634e-06	427.69	143.44	124.54	42.951	5.7662e-06	53.066	-42.774	-16.850	-11.424	-93.260	41.164	41.034	-93.380	-88.674	31.316	57.530	-89.262	-84.479	-84.395	-79.936	72.455	-80.693	-8191	255	
3328.029	1	1	0	0	0.090929	0.12569	0.093291	0.12819	0.033491	0.026628	0.31327	0.13066	0.09013	0.13267	0.19253	0.14267	0.17415	0.067829	0.26055	0.33201	-2.4396	-3.3063	-2.4062	-3.3292	-3.1021	-2.5333	-3.5292	-2.9854	-2.7104	-3.3521	-2.6042	-2.9792	-3.1937	-2.5187	-3.2854	-2.8396	-23.369	26.944	182.783	-98.678	96.689	183.889	188.338	188.264	182.315	-20.980	-7.610	235.201	107.813	105.005	230.923	138.269	0.00037812	0.00053731	0.00014705	1363.4	3.587e-06	3.5602e-06	1365.2	367.9	3.1002e-06	4.2561e-06	421.03	139.92	122.06	41.998	4.2376e-06	51.727	0.00053119	0.00052073	0.00014566	1382.2	5.9167e-06	6.0548e-06	1380.5	373.95	6.0073e-06	5.6717e-06	427.3	143.3	124.62	42.999	5.4301e-06	53.08	-40.172	-6.581	-30.268	-93.243	74.602	48.486	-93.454	-88.744	54.446	52.508	-88.769	-84.602	-84.265	-79.622	43.163	-80.644	-8191	255	
3328.125	1	1	0	0	0.16943	0.1309	0.14035	0.076802	0.18717	0.20206	0.27073	0.19099	0.11402	0.23274	0.2836	0.2738	0.063555	0.10552	0.093621	0.18754	-2.1542	-3.1063	-2.5542	-3.0542	-3.1958	-2.3396	-3.3292	-2.9833	-2.4313	-3.25	-2.7854	-2.9729	-3.3083	-2.4979	-3.2458	-3.0687	197.905	191.902	31.449	-18.648	169.376	126.136	197.308	178.644	141.156	-68.631	38.985	80.338	193.776	-12.833	215.671	177.022	0.00037274	0.00056671	0.00016153	1367.2	4.6108e-06	4.4689e-06	1367.8	369.89	4.2081e-06	4.9216e-06	421.65	140.28	122.31	41.907	5.3698e-06	51.929	0.0005298	0.00054997	0.00014871	1385.2	5.8819e-06	5.8104e-06	1382.9	374.79	6.0335e-06	5.4152e-06	428.48	143.55	124.84	42.989	5.5674e-06	53.274	-42.078	-9.925	-13.422	-93.309	24.356	52.214	-93.444	-88.689	54.904	51.720	-89.218	-84.627	-84.269	-79.610	56.684	-80.590	-8191	255	
3328.246	1	1	0	0	0.084274	0.2831	0.11306	0.10071	0.25999	0.066409	0.11563	0.016202	0.21354	0.18823	0.039614	0.31505	0.057098	0.10825	0.054301	0.39483	-2.1208	-3.2313	-2.5333	-2.8979	-3.1437	-2.6958	-3.2562	-3.3688	-2.45	-3.4583	-2.9083	-2.7333	-3.3167	-2.5771	-3.0104	-3.1333	38.208	68.547	-8.658	-58.451	66.696	132.938	179.851	-92.815	250.013	114.127	112.798	163.900	73.700	-20.155	122.970	179.488	0.00038122	0.00036571	0.00019284	1374.3	4.7195e-06	3.1948e-06	1372.8	368.13	4.6746e-06	4.9437e-06	421.01	141.3	122.5	42.054	5.3652e-06	52.074	0.00052222	0.00050958	0.00015036	1387.7	5.8627e-06	5.8677e-06	1386.2	374.84	6.2724e-06	5.5936e-06	428.44	143.75	125.09	43.078	5.9855e-06	53.372	-45.901	-15.787	-16.968	-93.126	69.801	42.745	-93.367	-88.623	48.655	43.128	-89.225	-84.589	-84.150	-79.727	83.694	-80.309	-8191	255	
3328.342	1	1	0	0	0.10124	0.049446	0.067644	0.17463	0.29872	0.14313	0.29701	0.12447	0.1026	0.13109	0.12532	0.23594	0.033553	0.34552	0.15407	0.14573	-1.9271	-3.0333	-2.7875	-2.775	-3.4938	-2.5708	-3.1625	-3.2708	-2.3854	-3.3146	-2.9521	-2.6958	-3.175	-2.5833	-2.9313	-3.1875	44.256	244.526	-94.957	-48.004	188.190	44.757	223.231	128.469	233.943	165.956	-55.852	-71.040	244.945	83.357	-5.650	207.506	0.00037343	0.00039777	0.0001826	1373.1	4.7624e-06	4.8145e-06	1369.5	369.13	2.3249e-06	5.2179e-06	419.87	141.06	122.14	41.991	5.5804e-06	51.866	0.00054848	0.00053615	0.0001512	1388.1	6.297e-06	6.1466e-06	1386.7	375.46	6.3518e-06	5.91e-06	428.08	143.82	125.11	43.025	6.2934e-06	53.263	-41.941	-29.257	-29.578	-93.363	42.518	30.707	-93.447	-88.584	17.449	45.868	-89.126	-84.721	-84.130	-79.619	41.227	-80.630	-8191	255	
3328.436	1	1	0	0	0.070725	0.14491	0.18864	0.16919	0.077815	0.34301	0.31806	0.11493	0.22596	0.12329	0.080299	0.087619	0.12779	0.35642	0.13477	0.081866	-2.1792	-3.1125	-2.7438	-2.8542	-3.325	-2.7042	-2.9958	-3.2896	-2.4792	-3.3125	-2.9708	-2.475	-3.375	-2.7625	-2.8646	-3.2458	-58.396	79.104	-33.369	-26.367	6.495	229.361	121.845	-69.400	89.430	13.895	-68.245	-36.281	-11.089	119.329	70.679	178.952	0.00035914	0.00043095	0.00014989	1375.3	6.4293e-06	4.9841e-06	1369.4	370.08	5.4328e-06	4.1187e-06	422.89	140.66	122.91	42.101	5.157e-06	51.952	0.00055458	0.00053882	0.00015849	1389.3	6.2928e-06	6.2349e-06	1388.5	375.69	6.4558e-06	6.0146e-06	429.56	143.85	125.35	43.114	6.4357e-06	53.301	-40.032	-30.132	-22.659	-93.094	36.590	51.068	-93.115	-88.668	63.470	34.150	-89.078	-84.464	-83.890	-79.630	34.423	-80.455	-8191	255	
3328.508	1	1	0	0	0.099843	0.24589	0.2073	0.15536	0.23239	0.30438	0.076777	0.27717	0.16512	0.1242	0.22149	0.41811	0.090636	0.21615	0.076301	0.092994	-2.0708	-3.1271	-3.0542	-2.6521	-3.4625	-2.8396	-3.0542	-3.3333	-2.5458	-3.0479	-3.3417	-2.5167	-3.4792	-2.7333	-2.7313	-3.3771	248.097	2.676	91.094	200.888	-41.437	1.228	244.067	205.119	-61.079	-7.126	-104.710	163.507	-31.473	-29.958	185.671	23.787	0.00040525	0.00042196	0.00011161	1371.6	4.4558e-06	5.4227e-06	1372.6	370.03	5.2806e-06	4.9358e-06	422.83	140.97	123.02	42.073	4.896e-06	52.157	0.00054738	0.000554	0.00016112	1390.4	6.1416e-06	6.2144e-06	1389.3	375.95	6.3148e-06	6.1588e-06	429.28	144.08	125.4	43.186	6.5249e-06	53.373	-42.648	-16.902	-16.041	-93.028	36.050	33.442	-93.162	-88.321	70.259	73.841	-89.175	-84.632	-83.908	-79.524	51.144	-80.165	-8191	255	
3328.628	1	1	0	0	0.16186	0.26852	0.26739	0.21551	0.13667	0.17796	0.40908	0.07288	0.17354	0.27789	0.1748	0.25379	0.11741	0.3581	0.056044	0.10089	-2.2333	-3.05	-3.3083	-2.5167	-3.4479	-2.9417	-2.9479	-3.4062	-2.5396	-2.9188	-3.3688	-2.5167	-3.3063	-3.1104	-2.6146	-3.5292	204.976	-23.411	17.438	205.962	39.499	100.016	205.969	85.507	216.115	-29.071	219.372	-97.137	-15.938	207.897	10.880	244.842	0.00038217	0.00054885	0.00012975	1373.1	3.4963e-06	4.492e-06	1374.5	369.19	4.1499e-06	5.7308e-06	421.26	140.05	122.37	41.909	5.1395e-06	51.949	0.00053895	0.00057878	0.00015392	1390.8	5.8591e-06	6.112e-06	1388.6	375.98	5.8508e-06	6.3365e-06	428.78	143.7	124.86	43.14	6.4165e-06	53.421	-43.342	-12.520	-19.631	-93.425	67.417	42.071	-93.605	-88.658	46.398	19.515	-89.307	-84.817	-84.052	-79.630	42.020	-80.569	-8191	255	
3328.725	1	1	0	0	0.067983	0.18975	0.15379	0.20653	0.11335	0.033868	0.0069351	0.17256	0.074373	0.092947	0.14014	0.15644	0.19217	0.115	0.12675	0.1152	-2.1312	-2.8271	-3.1333	-2.775	-3.2917	-2.9167	-2.775	-3.5896	-2.7542	-2.7708	-3.4375	-2.575	-3.2542	-3.0417	-2.3625	-3.3312	51.467	-65.318	133.687	188.814	49.492	191.064	-72.619	155.770	149.115	219.803	181.453	27.854	87.018	218.978	48.711	240.837	0.00039754	0.00042551	0.00015472	1372	2.8679e-06	3.96e-06	1372.4	369.88	5.6587e-06	5.3338e-06	422.06	140.35	122.36	42.068	5.1471e-06	52.009	0.00052931	0.00057209	0.00015784	1388.3	6.0193e-06	6.2377e-06	1387.5	375.7	6.2342e-06	6.3937e-06	429.53	143.58	125.15	43.183	6.5973e-06	53.322	-44.163	-13.222	-4.849	-93.296	67.604	40.831	-93.293	-88.539	47.901	42.973	-89.180	-84.399	-84.186	-79.579	43.294	-80.306	-8191	255	
3328.821	1	1	0	0	0.2734	0.24197	0.14251	0.20845	0.34404	0.21025	0.16382	0.10475	0.15669	0.32197	0.17248	0.14777	0.11789	0.082449	0.16366	0.18781	-2.2708	-2.6042	-3.2229	-2.7292	-3.1646	-3.2104	-2.5896	-3.4417	-2.8479	-2.4938	-3.425	-2.5833	-3.0083	-3.2438	-2.4667	-3.3	-91.822	137.114	-71.232	186.754	211.826	-93.285	-93.679	142.569	175.910	138.489	129.800	200.855	-60.192	18.222	13.700	-77.049	0.00041675	0.00050381	0.00015022	1369.8	4.6119e-06	5.3276e-06	1371.4	369.84	6.2722e-06	4.6266e-06	422.35	140.44	122.02	42.094	5.622e-06	52.108	0.00054398	0.00057748	0.00015577	1388.1	6.0571e-06	6.1636e-06	1387.1	375.8	5.9207e-06	6.4035e-06	428.95	143.55	124.96	43.107	6.4614e-06	53.384	-42.599	-23.863	-5.797	-93.142	42.344	51.641	-93.214	-88.470	41.510	42.597	-88.968	-84.183	-83.757	-79.369	33.422	-80.406	-8191	255	
3328.917	1	1	0	0	0.093114	0.11584	0.12844	0.18098	0.20366	0.20374	0.20706	0.18708	0.16052	0.14832	0.16847	0.1999	0.11478	0.081939	0.15273	0.2571	-2.3979	-2.4542	-3.1979	-2.7625	-2.9167	-3.1958	-2.5312	-3.3708	-2.9125	-2.6667	-3.3375	-2.5417	-2.7562	-3.1708	-2.5187	-3.3354	195.849	-83.750	-40.297	90.200	-81.257	-0.465	213.985	209.430	93.363	88.113	234.650	181.521	-96.678	-11.078	1.644	-86.837	0.00037115	0.0004834	0.00014019	1375.7	4.8998e-06	5.7822e-06	1370.9	368.33	5.1894e-06	5.9774e-06	423.66	140.48	122.54	41.941	4.5448e-06	52.022	0.00052917	0.0005833	0.00015641	1389.9	6.225e-06	6.3006e-06	1388.2	375.32	6.0873e-06	6.3561e-06	429.67	143.73	125.11	43.109	6.4646e-06	53.344	-42.137	-14.645	-10.460	-93.166	33.661	31.282	-93.236	-88.215	56.434	52.494	-88.967	-84.489	-84.002	-79.156	58.904	-80.385	-8191	255	
3329.038	1	1	0	0	0.22334	0.12158	0.13412	0.3439	0.13816	0.328	0.23361	0.20969	0.12482	0.047588	0.18421	0.12823	0.21427	0.20211	0.069898	0.051142	-2.6312	-2.4104	-3.2146	-2.9021	-2.8521	-3.4	-2.525	-3.2896	-3.1625	-2.5479	-3.2812	-2.6625	-2.7771	-3.3521	-2.4938	-3.0875	-97.092	17.997	-64.194	188.574	42.856	74.292	-69.090	155.083	150.574	-30.768	197.517	103.900	-41.842	86.133	188.201	9.777	0.00034603	0.00060153	0.00014883	1372	2.6989e-06	3.3879e-06	1367.5	369.54	4.5129e-06	5.3391e-06	422.71	140.55	122.72	42.064	6.9369e-06	52.138	0.00054678	0.00058702	0.00015139	1387.8	6.1902e-06	6.1473e-06	1386.3	375.68	6.285e-06	6.524e-06	429.82	143.81	125.32	43.16	6.0965e-06	53.397	-43.209	-12.551	-22.016	-93.147	51.502	39.052	-93.135	-88.457	25.962	49.232	-89.187	-84.552	-83.930	-79.586	52.993	-80.207	-8191	255	
3329.109	1	1	0	0	0.1198	0.16107	0.16184	0.34885	0.11842	0.11384	0.23811	0.27862	0.14811	0.37818	0.19961	0.077405	0.051916	0.16245	0.082711	0.062899	-2.6813	-2.5125	-3.2938	-2.8208	-2.6354	-3.3854	-2.7208	-2.9729	-3.2458	-2.4542	-3.4292	-2.9271	-2.7125	-3.4604	-2.6583	-3.0583	-34.497	20.759	6.705	230.652	1.545	22.276	238.467	209.153	208.750	133.077	53.313	9.516	-65.621	122.832	129.148	117.671	0.0003653	0.00061435	0.00012453	1373.8	4.3151e-06	4.4709e-06	1367.9	369.45	5.3869e-06	5.5069e-06	421.57	140.26	122.37	42.003	5.0769e-06	51.833	0.00053459	0.00059848	0.00015089	1390.2	6.384e-06	6.0096e-06	1385.9	376.14	6.1142e-06	6.3324e-06	429.48	143.57	125.12	43.127	5.8797e-06	53.309	-43.778	-23.498	-31.488	-93.174	42.692	37.707	-93.097	-88.208	41.644	32.848	-88.908	-84.352	-83.964	-79.416	48.093	-80.249	-8191	255	
3329.205	1	1	0	0	0.2213	0.16565	0.24546	0.23212	0.23381	0.081048	0.26203	0.050759	0.074424	0.15071	0.19889	0.078967	0.32342	0.49149	0.19325	0.051433	-2.7917	-2.4833	-3.1458	-2.9437	-2.6292	-3.4771	-2.8896	-3.075	-3.2375	-2.4188	-3.4042	-3.2229	-2.4771	-3.2458	-2.7708	-2.9604	166.095	-92.927	53.409	229.293	94.226	64.300	154.883	-29.553	90.945	232.822	-72.735	163.951	227.930	179.015	-24.445	122.283	0.00042111	0.00050043	0.00015744	1367.7	3.6249e-06	4.5059e-06	1363.4	369.01	4.6018e-06	6.0137e-06	421.65	140.78	122.85	42.208	5.6891e-06	52.24	0.00052761	0.00055288	0.00014398	1388.9	6.3672e-06	6.0131e-06	1387.6	375.34	6.0658e-06	6.0215e-06	429.22	143.68	125.38	43.225	5.8573e-06	53.48	-41.646	-14.498	-21.624	-93.167	61.020	25.030	-93.109	-88.466	41.140	49.216	-88.911	-84.447	-83.733	-79.286	60.782	-80.359	-8191	255	
3329.326	1	1	0	0	0.072665	0.11155	0.14511	0.37997	0.2669	0.16098	0.18679	0.13221	0.19984	0.21249	0.22074	0.13748	0.17115	0.080812	0.098953	0.13123	-3	-2.4708	-3.0938	-3.2938	-2.5438	-3.3958	-3.0208	-2.7979	-3.3604	-2.5542	-3.1521	-3.2542	-2.6646	-3.1729	-2.8396	-2.5979	-41.521	119.319	-22.205	208.093	17.601	-85.602	227.895	-59.134	217.424	-105.651	-57.841	-23.336	88.552	168.762	33.260	-84.576	0.00039092	0.00046313	0.00011365	1375	3.7841e-06	4.4429e-06	1373.9	370.01	5.4458e-06	6.2727e-06	422.82	140.93	122.22	42.038	5.4783e-06	52.209	0.00053831	0.00055586	0.00015275	1391.3	6.2604e-06	5.8274e-06	1388.2	376.07	5.9828e-06	6.0627e-06	429.86	143.78	125.06	43.122	6.1183e-06	53.463	-46.736	-17.084	-18.412	-93.044	30.001	41.848	-93.182	-88.311	40.186	43.694	-88.735	-84.406	-83.691	-79.424	53.916	-80.151	-8191	255	
3329.420	1	1	0	0	0.35765	0.20579	0.10675	0.14036	0.17615	0.26583	0.20378	0.3217	0.22009	0.38447	0.10174	0.18642	0.11055	0.2265	0.18761	0.44709	-3.0375	-2.6833	-3.0292	-3.4083	-2.6479	-3.2542	-2.8854	-2.5667	-3.3333	-2.6354	-3.0708	-3.4229	-2.5812	-3.3	-2.9583	-2.6333	250.969	-10.936	217.986	196.466	23.585	-53.777	89.963	172.574	157.959	80.617	140.970	176.030	-53.596	-100.534	54.125	195.894	0.00039504	0.00054067	0.00013225	1374.2	2.9562e-06	4.1807e-06	1368.9	369.03	4.1251e-06	4.9289e-06	421.68	140.44	122.08	42.262	5.233e-06	52.051	0.00052084	0.00054892	0.00015314	1390.3	6.1752e-06	5.8987e-06	1387.5	375.39	5.9678e-06	5.9421e-06	429.57	143.79	125.02	43.298	6.1144e-06	53.471	-39.730	-10.373	-18.547	-93.045	30.719	51.457	-93.195	-88.269	40.510	49.275	-88.806	-84.453	-83.831	-79.336	41.328	-80.244	-8191	255	
3329.517	1	1	0	0	0.073766	0.16344	0.16589	0.29669	0.084519	0.13643	0.24912	0.25779	0.31314	0.13743	0.18468	0.31838	0.24128	0.27255	0.52612	0.093985	-3.1375	-2.6104	-2.7292	-3.5167	-2.4667	-3.3229	-3.1521	-2.6354	-3.3833	-2.6458	-2.9271	-3.3583	-2.5792	-3.0687	-3.1521	-2.6562	66.745	155.498	154.887	244.159	-29.659	211.359	154.516	157.613	79.429	246.709	142.252	-104.585	12.373	-93.629	38.513	96.512	0.00035997	0.00050991	9.8839e-05	1371.5	3.9998e-06	4.8427e-06	1372.6	368.66	5.1887e-06	4.8657e-06	423.27	140.66	123.13	42.192	5.3475e-06	52.206	0.00051719	0.00053058	0.00015645	1388.8	6.387e-06	5.9955e-06	1387.1	375.29	5.9846e-06	6.1386e-06	429.66	144.02	125.35	43.223	6.4704e-06	53.486	-43.723	-3.518	-16.606	-92.976	47.003	45.949	-93.116	-88.380	23.105	38.514	-89.065	-84.501	-84.139	-79.573	48.450	-80.198	-8191	255	
3329.613	1	1	0	0	0.15731	0.069809	0.14274	0.35962	0.14636	0.22242	0.21195	0.16111	0.20308	0.12499	0.24341	0.052584	0.28541	0.069392	0.12476	0.10291	-2.8292	-2.6979	-2.7625	-3.3125	-2.5354	-3.3563	-3.3333	-2.4396	-3.2896	-2.9583	-2.8625	-3.4354	-2.7083	-3.0396	-3.0896	-2.5646	2.720	-42.652	113.124	232.831	120.705	169.223	169.675	219.239	-95.390	205.654	34.132	-73.081	160.257	232.852	239.302	-82.475	0.0003713	0.00055931	0.00012842	1378.4	5.9324e-06	3.8048e-06	1379.1	369.62	5.8482e-06	4.7643e-06	423.83	140.73	122.03	42.16	4.8433e-06	52.133	0.00052038	0.0005592	0.00016374	1392.6	6.3636e-06	6.0393e-06	1390.7	375.79	6.0282e-06	6.2355e-06	430.21	144.18	125.25	43.219	6.1779e-06	53.468	-38.540	-25.452	0.658	-93.076	61.662	51.477	-93.284	-88.206	44.223	57.888	-88.778	-84.372	-84.032	-79.341	59.954	-80.216	-8191	255	
3329.709	1	1	0	0	0.24826	0.2061	0.22479	0.2157	0.088823	0.14529	0.13168	0.1847	0.1241	0.1153	0.26762	0.071229	0.40328	0.13578	0.05074	0.03081	-2.7396	-2.7354	-2.625	-3.4333	-2.5979	-3.0354	-3.5458	-2.8125	-3.2479	-2.9958	-2.5604	-3.625	-2.5938	-2.9646	-3.3125	-2.5958	176.275	111.839	56.645	239.322	-18.199	7.997	-80.588	177.591	75.835	-10.541	-62.349	123.767	203.700	-88.791	-48.749	98.252	0.00037867	0.00057835	0.00014232	1378.8	3.5548e-06	4.0259e-06	1373.8	369.78	3.3138e-06	3.6287e-06	423.08	141.73	122.47	42.235	4.4872e-06	52.034	0.00054186	0.00056757	0.00016386	1394	6.4421e-06	6.5266e-06	1390.2	375.54	6.1249e-06	6.1874e-06	430.29	144.22	125.43	43.278	6.5268e-06	53.481	-48.204	-8.017	-21.555	-92.851	51.088	48.088	-93.187	-88.356	72.072	52.272	-88.721	-84.538	-83.947	-79.198	51.270	-80.193	-8191	255	
3329.805	1	1	0	0	0.28625	0.088977	0.094541	0.06073	0.11504	0.094926	0.27305	0.26042	0.2345	0.19623	0.31404	0.22604	0.05177	0.26269	0.19158	0.14179	-2.7125	-3.1167	-2.4979	-3.4125	-2.6333	-2.8854	-3.3688	-2.6292	-3.075	-3.15	-2.6146	-3.4292	-2.7833	-3.1188	-3.4646	-2.6771	-46.764	125.988	-0.329	236.372	104.306	-102.759	161.788	171.027	-21.993	228.208	-101.039	-45.361	75.620	243.237	99.043	248.269	0.00037774	0.00041085	0.00016694	1380.4	4.4702e-06	5.5771e-06	1375.2	369.18	5.5509e-06	5.1874e-06	421.91	140.63	122.7	42.119	5.0528e-06	52.084	0.00053065	0.00054929	0.00016851	1395.4	6.2112e-06	6.6361e-06	1391.5	375.23	6.0544e-06	6.1951e-06	429.52	144.21	125.5	43.227	6.1907e-06	53.454	-40.994	-22.339	-12.774	-92.892	64.643	54.632	-92.986	-88.238	43.768	55.072	-88.788	-84.314	-83.726	-79.263	72.072	-80.144	-8191	255	
3329.926	1	1	0	0	0.16325	0.13604	0.13899	0.32738	0.068557	0.18131	0.061038	0.17826	0.052917	0.14658	0.12213	0.28315	0.19815	0.22784	0.1327	0.17222	-2.8292	-3.2042	-2.5542	-3.5417	-2.7062	-2.6479	-3.5625	-2.8812	-3.1354	-3.1083	-2.6542	-3.5062	-3.0812	-2.8542	-3.5729	-2.8229	-101.839	197.995	-58.248	213.309	-31.129	239.552	205.742	248.085	-19.204	15.300	128.390	185.413	245.764	-79.477	-55.909	216.775	0.00036165	0.00052095	0.0001528	1376.7	3.6674e-06	3.9622e-06	1374.8	370.74	3.2933e-06	4.9123e-06	422.96	141.06	122.81	42.233	4.5393e-06	52.064	0.00054558	0.00057438	0.000166	1394.2	6.2742e-06	6.5824e-06	1389.6	375.57	6.2778e-06	6.4676e-06	429.94	144.3	125.61	43.31	6.2446e-06	53.432	-43.092	-14.299	-38.548	-92.722	63.655	29.593	-92.989	-88.271	15.722	55.900	-88.631	-84.005	-83.929	-79.293	53.191	-80.222	-8191	255	
3330.022	1	1	0	0	0.034666	0.084676	0.15268	0.1305	0.10324	0.075606	0.043234	0.3544	0.076272	0.16306	0.075771	0.34233	0.22997	0.086882	0.067009	0.29124	-2.575	-3.2458	-2.5938	-3.5375	-2.9813	-2.5563	-3.5458	-2.6792	-2.8229	-3.2396	-2.7292	-3.2812	-3.0979	-2.6583	-3.3021	-2.8583	-89.322	243.122	-5.919	244.789	-21.023	190.425	215.700	215.552	-42.119	83.793	247.630	231.034	-84.024	167.134	-62.372	245.904	0.00036251	0.00053664	0.00016258	1376.7	4.6638e-06	3.9716e-06	1377.5	370.21	3.3276e-06	4.7962e-06	422.74	140.61	122.59	42.132	4.5234e-06	51.934	0.0005571	0.00056273	0.00016293	1394.7	6.411e-06	6.6784e-06	1391.7	375.59	6.3668e-06	6.1804e-06	429.6	143.84	125.28	43.285	6.2619e-06	53.394	-37.276	-3.527	4.526	-92.827	54.543	37.435	-92.794	-88.219	39.082	75.507	-88.810	-84.139	-83.854	-79.024	32.638	-80.125	-8191	255	
3330.118	1	1	0	0	0.32919	0.10388	0.13554	0.23546	0.14014	0.1548	0.11769	0.30446	0.13215	0.17489	0.096173	0.16179	0.17157	0.14494	0.054795	0.067775	-2.3896	-3.3146	-2.4208	-3.2938	-3.0667	-2.6667	-3.5146	-2.7687	-2.7396	-3.3771	-2.8521	-3.3438	-3.2188	-2.5854	-3.2771	-2.9333	150.894	58.868	93.105	-95.968	232.184	83.592	-68.426	-89.124	143.319	-47.544	236.259	-66.127	156.322	242.383	125.145	103.697	0.00039252	0.00050137	0.0002115	1375.9	5.2041e-06	4.8668e-06	1375.9	369.26	4.8229e-06	5.6215e-06	422.37	141.13	122.63	42.301	3.3826e-06	52.104	0.00054147	0.00057766	0.00016137	1393.7	6.4841e-06	6.8091e-06	1390.6	375.34	6.5334e-06	6.3108e-06	429.86	144.28	125.43	43.269	6.0901e-06	53.482	-40.160	-8.983	-24.823	-92.798	45.821	36.567	-92.940	-88.116	45.992	53.858	-88.719	-84.256	-83.653	-79.132	58.706	-80.118	-8191	255	
3330.214	1	1	0	0	0.17622	0.064676	0.19921	0.35203	0.099444	0.26733	0.19478	0.2864	0.0984	0.12812	0.12776	0.1796	0.13272	0.21218	0.19019	0.11931	-2.4771	-3.175	-2.6375	-3.2917	-3.2458	-2.6625	-3.45	-3.0271	-2.6917	-3.5687	-2.875	-3.1437	-3.4542	-2.675	-3.2146	-2.9458	178.976	160.061	187.749	-103.424	224.246	35.574	176.541	225.580	-101.811	167.568	209.829	91.155	214.360	187.104	252.072	-27.307	0.00036568	0.00057742	0.00014541	1377.7	3.4285e-06	6.2623e-06	1376.7	368.98	3.3984e-06	5.2316e-06	422.15	141.05	123.43	42.124	5.2698e-06	52.096	0.00055554	0.00059005	0.0001632	1394.5	6.3918e-06	6.92e-06	1391.7	375.3	6.4414e-06	6.1693e-06	429.43	144.07	125.57	43.306	5.9393e-06	53.463	-43.232	-25.277	-6.553	-92.741	79.224	53.979	-92.979	-88.157	35.198	41.192	-88.809	-84.122	-83.729	-79.178	36.614	-80.059	-8191	255	
3330.333	1	1	0	0	0.11428	0.16595	0.054336	0.13253	0.20975	0.2237	0.0599	0.20076	0.25674	0.19477	0.11829	0.25622	0.25778	0.19842	0.25292	0.041301	-2.1417	-3.4354	-2.5583	-3.1042	-3.3063	-2.6604	-3.2562	-3.225	-2.6833	-3.3583	-2.8667	-2.9875	-3.3104	-2.6937	-3.3021	-3.3	-54.897	-82.292	112.626	228.315	-82.535	238.886	217.633	181.680	-19.738	-24.808	-105.564	-65.849	-74.685	-18.861	159.691	-33.817	0.00036669	0.00054635	0.00014476	1375.8	3.5812e-06	4.3661e-06	1377.2	368.73	3.8132e-06	4.0233e-06	422.15	140.85	122.51	42.206	4.6496e-06	51.984	0.00055454	0.00055313	0.00015157	1392.7	6.306e-06	6.504e-06	1391.3	375.3	6.2169e-06	6.0891e-06	429.8	144.05	125.3	43.272	5.8637e-06	53.452	-45.245	-5.161	-12.175	-92.790	51.103	35.858	-92.867	-88.041	41.714	48.506	-88.764	-84.054	-83.825	-79.260	37.480	-80.084	-8191	255	
3330.405	1	1	0	0	0.26225	0.23389	0.10355	0.22645	0.095575	0.15349	0.10806	0.27753	0.21104	0.15613	0.11206	0.10136	0.10706	0.24905	0.12978	0.08161	-2.1479	-3.2687	-2.9042	-3	-3.325	-2.7667	-3.4042	-3.3479	-2.4938	-3.4313	-2.9125	-2.9146	-3.6292	-2.5896	-3.0375	-3.3125	-42.097	-24.748	85.095	252.132	234.787	252.972	221.890	229.225	222.302	17.396	224.121	77.455	25.754	220.801	173.884	143.477	0.00036156	0.0005303	0.00014344	1377	5.4037e-06	5.1104e-06	1378.3	369.57	5.3168e-06	5.4405e-06	424.5	141.03	122.63	42.312	3.3048e-06	52.261	0.00055341	0.00053566	0.00015284	1393.7	6.1416e-06	6.3818e-06	1392.1	375.54	6.4755e-06	5.533e-06	430.8	144.19	125.27	43.251	5.9252e-06	53.426	-39.638	-20.080	-11.811	-92.853	55.415	55.465	-92.615	-87.913	59.829	60.011	-88.657	-84.171	-83.390	-79.114	39.069	-80.168	-8191	255	
3330.501	1	1	0	0	0.10971	0.24578	0.10856	0.42514	0.29914	0.19858	0.25053	0.015018	0.21502	0.11517	0.1531	0.21955	0.14178	0.11572	0.022051	0.11058	-2.2292	-3.2208	-2.9042	-2.6729	-3.2542	-2.6188	-3.2625	-3.3333	-2.375	-3.2417	-3.0354	-2.6792	-3.4896	-2.8479	-2.8583	-3.5521	97.476	-10.169	21.094	174.359	-19.286	-30.446	168.547	230.614	-56.782	-18.154	193.774	-94.722	-93.519	-79.287	-97.043	184.733	0.00034609	0.0004536	0.00013562	1376.2	4.4105e-06	6.091e-06	1371.4	368.82	4.3564e-06	3.2428e-06	422.93	141.15	122.76	42.214	6.1547e-06	51.925	0.00054664	0.00052891	0.0001545	1392.9	5.8555e-06	6.0746e-06	1388.9	375.23	6.1052e-06	5.6759e-06	430.04	144.16	125.47	43.251	6.2459e-06	53.339	-38.007	-32.370	-11.227	-92.825	55.361	41.686	-92.882	-88.267	64.377	47.357	-88.744	-83.996	-83.644	-79.225	34.713	-80.064	-8191	255	
3330.597	1	1	0	0	0.076751	0.094537	0.11459	0.041074	0.095698	0.078522	0.31482	0.27784	0.074668	0.15176	0.19201	0.10448	0.37386	0.077513	0.2243	0.15987	-2.2	-3.2021	-2.9313	-2.6688	-3.2625	-2.6958	-3.2542	-3.3458	-2.4604	-3.3896	-3.0375	-2.5396	-3.3625	-2.9521	-2.8125	-3.3458	98.955	179.194	18.533	157.078	-8.676	95.595	-66.875	-90.968	-38.056	44.650	-101.343	-88.708	127.545	-27.281	104.367	-74.047	0.00038398	0.00043759	0.00015999	1377.3	4.9757e-06	4.3471e-06	1371.3	369.17	5.4119e-06	3.2146e-06	421.54	140.69	123.02	42.143	3.2572e-06	52.216	0.00054505	0.0005522	0.00015683	1392.1	6.1236e-06	6.0866e-06	1388.3	375.21	6.2646e-06	5.74e-06	429.58	144.19	125.52	43.256	6.4428e-06	53.492	-42.704	-15.149	-11.933	-92.900	56.984	20.371	-92.661	-87.981	57.918	24.518	-88.859	-83.915	-83.308	-79.222	60.045	-79.837	-8191	255	
3330.718	1	1	0	0	0.16648	0.11557	0.16259	0.36272	0.27443	0.1252	0.12124	0.042612	0.16077	0.056454	0.33528	0.1374	0.26177	0.076724	0.16665	0.28812	-2.3125	-3.0333	-3.1083	-2.3792	-3.1583	-2.8917	-2.7333	-3.4521	-2.6604	-2.95	-3.2	-2.6875	-3.2604	-3.0208	-2.625	-3.6104	81.299	-92.798	56.354	231.585	207.336	-10.365	110.149	197.645	205.700	-96.091	208.083	248.932	-97.435	172.719	41.195	141.337	0.00036441	0.00039846	0.00017667	1378.9	3.8854e-06	4.5659e-06	1370.8	369.78	3.8033e-06	4.9419e-06	420.76	140.55	122.62	42.287	4.0642e-06	52.178	0.00052658	0.00054737	0.00014925	1393.4	5.735e-06	6.2512e-06	1389.2	375.7	6.0538e-06	5.9957e-06	429.41	143.99	125.49	43.281	6.4556e-06	53.476	-38.811	-15.147	-3.992	-92.574	49.185	43.001	-92.723	-88.188	53.853	50.189	-88.668	-84.138	-83.851	-79.169	60.104	-79.618	-8191	255	
3330.814	1	1	0	0	0.11628	0.26173	0.18	0.55161	0.05816	0.17964	0.24422	0.17598	0.27439	0.40595	0.024646	0.34203	0.21746	0.102	0.25424	0.11912	-2.5167	-3.0708	-3.1771	-2.6896	-3.2125	-3.0875	-2.7812	-3.5333	-2.6437	-2.8688	-3.3625	-2.6542	-3.1688	-3.0938	-2.6625	-3.2979	-52.553	127.368	157.353	205.362	132.919	171.721	182.775	226.384	137.480	-33.705	-44.538	238.099	-81.315	217.507	53.402	222.337	0.00037256	0.00048326	0.00016062	1377.7	5.89e-06	4.2557e-06	1372.3	369.01	4.6198e-06	5.5938e-06	422.65	141.38	122.27	42.053	3.0717e-06	51.861	0.00052761	0.00055877	0.00015756	1393.8	5.9215e-06	6.5739e-06	1389.6	375.46	6.0628e-06	6.5087e-06	430.06	144.2	125.31	43.289	6.3023e-06	53.378	-42.615	-10.324	-6.210	-92.654	45.518	45.436	-92.947	-88.055	57.370	37.487	-88.666	-84.050	-83.343	-79.330	54.286	-79.934	-8191	255	
3330.910	1	1	0	0	0.20982	0.23611	0.1109	0.12532	0.19095	0.13006	0.23736	0.10354	0.03775	0.22402	0.18745	0.2425	0.17485	0.25135	0.16827	0.27843	-2.3937	-2.9146	-3.2958	-2.75	-3.0417	-3.1292	-2.7646	-3.45	-2.8271	-2.8208	-3.4542	-2.7979	-3.2958	-3.1354	-2.4958	-3.4083	21.878	69.871	145.831	149.161	221.592	-8.874	242.139	120.443	-64.184	119.470	217.107	92.886	-82.092	-2.216	-45.271	168.847	0.00038473	0.00074735	0.00017509	1376.4	3.8161e-06	3.5443e-06	1371.1	370.26	5.9075e-06	5.2597e-06	422.53	140.69	122.51	42.223	4.2987e-06	52.033	0.00054299	0.0005535	0.00015207	1392.3	5.9881e-06	6.1099e-06	1389	375.91	6.0401e-06	6.3261e-06	429.71	143.95	125.37	43.262	6.3459e-06	53.415	-45.779	0.320	-4.605	-92.683	31.425	31.293	-92.675	-88.221	57.186	42.404	-88.693	-84.094	-83.208	-79.198	43.781	-79.980	-8191	255	
3331.006	1	1	0	0	0.1855	0.10611	0.15116	0.1548	0.29489	0.083626	0.16788	0.13384	0.18491	0.30981	0.025035	0.23809	0.19851	0.099336	0.059455	0.34969	-2.4583	-2.6125	-3.4958	-2.7083	-3.0896	-3.2625	-2.6896	-3.2833	-2.9083	-2.5917	-3.4896	-2.7083	-2.9417	-3.2938	-2.4667	-3.2958	112.607	170.173	-10.377	216.719	159.948	177.874	207.645	193.791	0.689	-34.181	-6.516	-105.309	235.284	114.595	211.256	206.884	0.00039557	0.00035423	0.0001326	1379.4	4.0923e-06	4.6308e-06	1367.8	368.95	3.6501e-06	5.2801e-06	421.52	140.26	122.38	42.161	5.5968e-06	52.017	0.00053863	0.00059631	0.00015769	1392.3	5.9755e-06	6.0357e-06	1387.8	375.05	5.9099e-06	6.1379e-06	430.32	143.95	125.3	43.242	6.101e-06	53.471	-40.575	-11.296	-4.719	-92.737	55.232	31.374	-92.740	-87.928	27.270	63.131	-88.598	-83.994	-83.310	-79.152	63.712	-79.900	-8191	255	
3331.102	1	1	0	0	0.24891	0.16838	0.091862	0.28439	0.16147	0.09362	0.12952	0.35775	0.2116	0.25209	0.22159	0.20583	0.3564	0.091435	0.047521	0.12382	-2.7021	-2.3875	-3.45	-2.9437	-2.7188	-3.3917	-2.6333	-3.2854	-3.1667	-2.7146	-3.3667	-2.6521	-2.8604	-3.4	-2.3646	-3.2208	88.968	-47.965	-24.198	227.144	172.884	37.866	245.257	238.854	-87.368	-4.607	144.263	-93.762	188.377	235.193	31.905	221.216	0.00034316	0.0005578	0.00011044	1371.4	3.2666e-06	4.4779e-06	1368.3	367.93	3.08e-06	5.6534e-06	423.36	140.36	122.53	42.094	5.2122e-06	51.866	0.00053512	0.00058219	0.00014921	1390	6.192e-06	5.9814e-06	1388.4	375.03	6.0795e-06	6.1693e-06	430.14	143.77	125.38	43.248	6.2363e-06	53.414	-42.608	-15.230	-3.616	-92.642	47.759	46.960	-92.754	-87.900	50.885	25.904	-88.432	-83.805	-83.395	-79.010	46.592	-80.054	-8191	255	
3331.198	1	1	0	0	0.20544	0.080491	0.13158	0.062141	0.17478	0.1699	0.11286	0.2602	0.010776	0.080837	0.1487	0.1266	0.21871	0.11669	0.043269	0.13019	-2.6479	-2.4813	-3.5	-2.9062	-2.8083	-3.3542	-2.5979	-3.25	-3.1	-2.4688	-3.5333	-2.8438	-2.7062	-3.5396	-2.5167	-2.8979	-98.580	251.007	131.406	-99.093	-64.843	148.100	81.974	205.096	187.910	-38.355	234.463	79.132	199.227	202.574	165.166	125.664	0.00040107	0.00062286	0.0001557	1371.7	2.8294e-06	3.6508e-06	1368	369.06	4.5923e-06	5.414e-06	423.79	140.2	122.61	41.981	3.1969e-06	52.348	0.00054629	0.00058448	0.00015038	1391.1	6.3132e-06	6.0315e-06	1388.1	375.58	6.0813e-06	6.3365e-06	429.84	143.83	125.27	43.139	6.4479e-06	53.459	-40.920	-18.658	-25.031	-92.767	77.733	49.277	-92.862	-87.749	55.179	57.486	-88.489	-84.029	-83.479	-79.158	38.919	-79.976	-8191	255	
3331.294	1	1	0	0	0.21239	0.17501	0.21741	0.23405	0.20867	0.19466	0.082423	0.18185	0.13691	0.24486	0.25605	0.13432	0.31968	0.19801	0.15222	0.39272	-2.8	-2.6542	-3.2	-3.0917	-2.5	-3.1833	-2.8604	-3.2229	-3.2646	-2.2208	-3.3187	-3.0021	-2.6521	-3.4083	-2.7562	-2.9667	223.917	185.164	44.974	63.971	71.083	242.458	-74.311	156.481	161.533	176.850	248.794	169.364	-49.519	-91.587	-65.416	-93.279	0.00036939	0.00046627	0.000158	1375.1	4.0509e-06	5.4331e-06	1376.3	369.31	3.512e-06	4.9625e-06	422.56	140.69	122.97	42.167	5.2368e-06	52.078	0.00053182	0.00057469	0.00014925	1391.1	6.4338e-06	5.8804e-06	1389.2	375.59	5.9726e-06	6.0243e-06	430.09	144.19	125.43	43.212	5.8996e-06	53.505	-47.574	-9.976	-1.139	-92.807	58.624	38.659	-92.888	-87.678	20.118	40.757	-88.505	-84.323	-83.564	-79.626	27.300	-80.036	-8191	255	
3331.413	1	1	0	0	0.13363	0.11436	0.21936	0.16316	0.22594	0.10262	0.15691	0.24652	0.16093	0.12039	0.28589	0.1383	0.10526	0.23221	0.10012	0.29471	-2.8187	-2.5625	-3.1833	-3.1562	-2.6188	-3.4062	-2.8521	-2.9437	-3.1375	-2.5542	-3.2896	-3.0917	-2.6417	-3.4896	-2.7854	-2.8333	181.720	155.535	-34.478	-105.051	-36.363	-84.579	249.700	178.194	57.105	211.240	-96.331	-78.678	-35.275	79.043	86.350	206.803	0.0003633	0.00052744	0.00016419	1371.9	2.9312e-06	4.6022e-06	1376.2	368.99	4.0505e-06	4.4615e-06	423.18	140.56	123.24	42.105	5.4109e-06	52.105	0.00053835	0.00058194	0.00015486	1391.9	6.369e-06	6.1473e-06	1390.6	375.69	6.0061e-06	5.9832e-06	430.44	144.15	125.65	43.245	6.2087e-06	53.493	-39.947	-18.918	-15.761	-93.015	28.645	36.492	-93.208	-88.075	61.346	51.405	-88.811	-84.175	-83.797	-79.254	78.396	-80.137	-8191	255	
3331.509	1	1	0	0	0.2936	0.26078	0.16491	0.21575	0.089411	0.10364	0.27934	0.1266	0.30065	0.047665	0.3226	0.22043	0.14457	0.14906	0.044593	0.11035	-2.8833	-2.3667	-3.1	-3.275	-2.4542	-3.3771	-3.0583	-2.8896	-3.4208	-2.65	-3.05	-3.4229	-2.45	-3.4062	-2.9042	-2.6792	-82.876	249.007	-53.052	236.597	118.515	107.730	161.568	190.765	65.204	-60.690	-93.547	-53.088	-23.477	-105.380	84.044	146.118	0.00034618	0.00051465	0.00014795	1376	4.9255e-06	5.3157e-06	1375.4	368.65	2.3818e-06	5.6611e-06	422.73	140.36	122.68	42.321	4.3528e-06	52.114	0.00053473	0.00054693	0.00015697	1392.3	6.3552e-06	5.9178e-06	1389.9	375.23	5.9917e-06	6.3777e-06	430.17	143.92	125.42	43.243	6.4716e-06	53.435	-46.236	-6.572	-24.263	-92.937	22.573	53.498	-93.228	-88.227	85.889	43.258	-88.773	-84.371	-84.062	-79.338	47.778	-80.336	-8191	255	
3331.606	1	1	0	0	0.45825	0.25011	0.064559	0.095586	0.25202	0.11159	0.050923	0.24326	0.26586	0.049062	0.053417	0.11145	0.21341	0.14114	0.32076	0.066245	-2.95	-2.6604	-2.8396	-3.3208	-2.5729	-3.3646	-3.2333	-2.6458	-3.4833	-2.6688	-2.9396	-3.4708	-2.6125	-3.3375	-3.1125	-2.7875	-28.613	17.421	-11.220	7.525	85.812	174.732	170.207	218.146	191.941	115.960	28.978	-55.021	12.636	-5.732	-59.095	-46.414	0.00036659	0.00050235	0.00012355	1370	4.9439e-06	3.1721e-06	1374.1	369.17	3.8006e-06	6.5497e-06	423.52	140.87	122.29	41.914	3.9953e-06	51.975	0.00053863	0.00056552	0.00016271	1391.7	6.5837e-06	6.3126e-06	1388.8	375.52	6.1428e-06	6.1205e-06	430.62	144.24	125.13	43.167	6.2632e-06	53.427	-35.912	-12.238	-19.856	-93.123	34.098	48.598	-93.131	-88.299	60.720	57.804	-88.689	-84.356	-84.012	-79.321	39.951	-80.073	-8191	255	
3331.702	1	1	0	0	0.28817	0.21336	0.24555	0.016434	0.26697	0.071106	0.16007	0.11908	0.076961	0.051267	0.34431	0.2044	0.08741	0.15143	0.16643	0.2263	-3.0062	-2.725	-3.0312	-3.4938	-2.5625	-2.9979	-3.4042	-2.6333	-3.3417	-2.8083	-2.7792	-3.2854	-2.5208	-3.175	-3.1542	-2.5438	-76.040	22.038	-60.187	99.603	-3.944	2.637	139.222	237.027	45.066	153.312	187.988	153.664	231.848	-87.685	133.906	-61.465	0.00037086	0.00043894	0.00015069	1376	3.8926e-06	4.3516e-06	1372.2	369.3	4.2367e-06	3.4372e-06	422.96	140.64	122.33	42.204	5.142e-06	51.767	0.00052442	0.00056781	0.00016578	1393.7	6.2124e-06	6.1191e-06	1388.6	375.33	5.9744e-06	6.1059e-06	429.15	143.92	125.27	43.23	6.1119e-06	53.375	-49.703	-13.733	1.173	-92.971	25.499	51.430	-92.992	-88.199	35.952	40.795	-88.888	-84.292	-83.661	-79.470	60.043	-79.990	-8191	255	
3331.798	1	1	0	0	0.046529	0.10653	0.18161	0.40341	0.065073	0.13529	0.2644	0.19054	0.25667	0.069687	0.21329	0.11865	0.12311	0.1166	0.084464	0.13968	-3.0417	-2.6937	-2.6396	-3.4104	-2.5604	-3.125	-3.3375	-2.65	-3.2771	-2.8375	-2.7833	-3.55	-2.6917	-3.0604	-3.3458	-2.6208	-102.893	71.377	161.304	201.178	100.343	220.189	240.581	148.158	17.721	13.853	251.513	240.704	-97.204	-98.987	110.842	104.479	0.00037629	0.00051451	0.00011752	1372.6	4.614e-06	4.8066e-06	1371.6	368.32	6.0776e-06	4.2349e-06	421.91	140.46	122.96	42.292	4.5235e-06	52.088	0.00051502	0.00052079	0.00015212	1391	5.7895e-06	5.7751e-06	1386.9	374.62	5.6113e-06	5.8187e-06	429.63	143.74	125.28	43.259	5.627e-06	53.365	-41.669	-23.458	-16.249	-92.906	45.612	45.923	-92.986	-88.211	53.157	44.559	-88.730	-84.062	-83.611	-79.582	41.747	-80.232	-8191	255	
3331.894	1	1	0	0	0.19091	0.16548	0.18413	0.089704	0.21283	0.15058	0.084861	0.07186	0.076623	0.11244	0.25718	0.15309	0.044373	0.26393	0.23368	0.17743	-2.8104	-3.0146	-2.6292	-3.5125	-2.7854	-2.825	-3.4708	-2.525	-3.275	-3.0729	-2.6979	-3.5729	-2.8	-3.075	-3.3771	-2.5125	10.792	242.826	18.545	-103.987	98.228	159.525	31.259	181.284	-0.030	100.487	211.001	66.355	12.677	-0.757	88.941	172.932	0.00037583	0.00061537	0.0001356	1378.2	4.1722e-06	4.4057e-06	1370.2	368.96	4.4837e-06	5.2304e-06	421.94	141.26	122.32	42.127	4.2456e-06	52.025	0.00050687	0.00055821	0.00015385	1392.1	6.0139e-06	5.8952e-06	1386.6	374.72	5.5749e-06	5.8041e-06	430.19	143.97	125.14	43.23	5.8136e-06	53.405	-42.451	-13.107	-16.227	-93.050	41.213	41.001	-93.027	-88.147	66.369	42.683	-88.852	-84.494	-83.863	-79.080	40.608	-79.835	-8191	255	
3331.990	1	1	0	0	0.0082402	0.012648	0.15358	0.11888	0.2159	0.24689	0.2073	0.23933	0.11808	0.079814	0.17629	0.23017	0.16009	0.18865	0.10934	0.10488	-2.6646	-3.1083	-2.4979	-3.4437	-2.6646	-2.8667	-3.4813	-2.6688	-3.1646	-3.1146	-2.4146	-3.3396	-3.0021	-2.8271	-3.325	-2.55	145.633	92.185	98.775	188.119	129.368	222.036	209.666	139.925	4.123	-24.174	165.662	-73.779	-3.167	183.844	198.587	176.499	0.00040422	0.00055103	0.00017364	1374.8	4.4178e-06	4.2651e-06	1373.3	367.47	4.0561e-06	5.2563e-06	420.2	140.64	122.11	42.086	4.7695e-06	51.98	0.00050978	0.00053975	0.00015722	1391.6	5.7901e-06	6.0873e-06	1388.1	374.31	5.8287e-06	6.0104e-06	429.03	144.01	125.24	43.219	5.8874e-06	53.317	-39.152	-14.057	-10.879	-92.788	47.864	46.769	-92.892	-88.077	40.464	51.629	-88.677	-84.113	-83.608	-79.003	56.120	-79.568	-8191	255	
3332.111	1	1	0	0	0.15159	0.24458	0.22171	0.15189	0.067325	0.094659	0.096078	0.06451	0.18265	0.074311	0.2952	0.2396	0.083773	0.18262	0.028	0.16434	-2.8083	-3.3583	-2.6958	-3.5563	-2.9667	-2.7271	-3.6	-2.7438	-2.8604	-3.1375	-2.6646	-3.3583	-3.0521	-2.7021	-3.2083	-2.6875	179.651	229.998	132.835	-82.108	230.539	-64.262	164.260	245.021	58.620	3.898	-83.945	-84.732	90.991	250.205	186.986	83.196	0.00036301	0.00050266	0.00011879	1378.1	4.0067e-06	6.4531e-06	1374.4	367.44	5.3184e-06	3.5717e-06	420.64	141.1	122.7	42.024	4.2335e-06	51.986	0.00053576	0.0005408	0.0001606	1392.5	6.0097e-06	6.261e-06	1389.5	374.79	6.1362e-06	5.9957e-06	429.46	143.99	125.27	43.234	5.8181e-06	53.412	-40.403	2.757	-11.048	-92.762	42.266	50.738	-92.745	-87.885	46.873	82.058	-88.591	-84.524	-83.714	-79.062	80.081	-80.127	-8191	255	
3332.207	1	1	0	0	0.079414	0.055083	0.25615	0.15264	0.12283	0.095076	0.16584	0.32704	0.20035	0.15047	0.08739	0.074214	0.27518	0.13007	0.25504	0.35078	-2.3625	-3.3917	-2.4208	-3.5021	-2.8542	-2.5625	-3.4667	-2.9375	-2.8125	-3.3583	-2.6292	-3.4521	-3.1188	-2.5625	-3.1458	-2.8187	249.283	103.882	4.650	173.020	-58.644	-46.656	178.058	250.484	-20.615	15.270	-62.872	131.031	-62.829	208.662	-74.237	233.588	0.00037055	0.00055172	0.00015803	1373.4	4.42e-06	4.9096e-06	1372.9	369.98	5.0488e-06	4.3823e-06	422.12	140.61	122.7	41.994	5.0039e-06	51.783	0.00054473	0.00054539	0.00015737	1392.6	6.243e-06	6.2653e-06	1388.9	375.02	6.2736e-06	6.0083e-06	429.16	144.03	125.29	43.203	5.8784e-06	53.309	-37.672	-15.401	-19.284	-92.636	22.573	36.192	-92.756	-88.051	56.812	29.503	-88.636	-83.857	-83.605	-79.044	41.882	-79.829	-8191	255	
3332.279	1	1	0	0	0.074756	0.23193	0.29169	0.31456	0.12883	0.19159	0.35798	0.14826	0.11989	0.15978	0.20693	0.25485	0.21547	0.095853	0.2345	0.23734	-2.3521	-3.2333	-2.4917	-3.0646	-3.1437	-2.4188	-3.5979	-2.9188	-2.7125	-3.4229	-2.7375	-3.0167	-3.2021	-2.5729	-3.3021	-3.0104	-13.676	87.530	19.134	222.846	-75.552	-92.348	166.170	234.587	157.779	28.324	194.719	168.151	-89.358	176.942	-43.399	-35.630	0.00035283	0.0004533	0.000125	1378.1	2.4698e-06	6.3729e-06	1377.3	369.21	4.475e-06	4.556e-06	425.33	140.33	122.18	42.18	3.3896e-06	52.264	0.00055844	0.00056236	0.0001622	1393.3	6.3792e-06	6.2815e-06	1391.3	375.3	6.4032e-06	6.0571e-06	430.39	143.85	125.16	43.256	5.8168e-06	53.393	-43.323	-21.132	-13.429	-92.742	63.398	60.213	-92.804	-88.082	53.942	39.285	-88.745	-83.966	-83.537	-79.074	54.051	-80.160	-8191	255	
3332.375	1	1	0	0	0.23977	0.1772	0.12002	0.22762	0.27447	0.062733	0.052912	0.25495	0.1178	0.27239	0.16289	0.13635	0.14854	0.06459	0.26492	0.14304	-2.2562	-3.3479	-2.4792	-3.1958	-3.2958	-2.6312	-3.4354	-3.1417	-2.5083	-3.5042	-2.75	-2.7604	-3.3208	-2.6312	-3.3146	-3.1312	244.732	-23.093	179.456	215.026	14.493	230.923	173.932	227.586	248.345	43.172	-94.911	178.474	241.458	-40.764	-60.858	194.442	0.00039138	0.00050616	0.00013834	1378.6	3.3254e-06	5.6732e-06	1371.7	368.39	5.2441e-06	3.2634e-06	422.61	141.14	122.84	42.293	4.6229e-06	52.075	0.00054799	0.00054923	0.00015713	1391.9	5.9203e-06	6.3952e-06	1390.3	375.08	6.3417e-06	5.9874e-06	430.03	144.24	125.39	43.226	5.8791e-06	53.438	-41.457	-19.985	3.841	-92.635	64.997	26.949	-92.696	-88.070	20.555	52.967	-88.617	-83.709	-83.559	-79.053	73.494	-80.093	-8191	255	
3332.494	1	1	0	0	0.086423	0.33566	0.12355	0.12907	0.22415	0.21544	0.075558	0.28524	0.16752	0.11838	0.1308	0.23204	0.25674	0.087631	0.30412	0.32606	-2.0479	-3.2812	-2.6437	-3.2229	-3.3104	-2.6146	-3.5042	-3.2896	-2.4646	-3.4125	-2.9625	-2.8479	-3.3208	-2.6604	-3.2062	-3.1646	8.493	39.578	215.286	107.238	-26.833	-105.285	58.019	212.202	-96.079	154.246	126.719	207.502	223.637	-84.999	-89.415	212.796	0.00044489	0.00044379	0.00012338	1377.8	3.7022e-06	6.0751e-06	1368.9	368.49	3.4228e-06	4.9478e-06	422.88	140.89	122.84	42.27	4.6856e-06	52.105	0.00054008	0.0005307	0.0001602	1394.2	6.171e-06	6.2752e-06	1388.8	375.13	6.1512e-06	5.7797e-06	429.59	144.04	125.53	43.246	6.0362e-06	53.477	-42.461	-14.538	-13.370	-92.807	57.150	43.487	-92.714	-88.121	50.911	42.555	-88.615	-84.254	-83.175	-79.194	59.531	-79.928	-8191	255	
3332.590	1	1	0	0	0.10066	0.21438	0.056329	0.11723	0.19149	0.17682	0.10996	0.38774	0.14098	0.21284	0.17633	0.24456	0.040787	0.03312	0.31801	0.25459	-2.1479	-3.1479	-2.5708	-2.9042	-3.1958	-2.6333	-3.1188	-3.2146	-2.3896	-3.375	-2.9479	-2.5417	-3.3792	-2.6417	-2.9938	-3.3104	225.826	34.439	252.404	-61.074	42.753	90.669	56.830	199.874	194.342	242.412	-88.967	211.568	-57.981	-91.757	-13.788	153.639	0.00036156	0.00056557	0.00015748	1372	5.9163e-06	4.9449e-06	1374.6	369.25	5.6402e-06	4.5801e-06	422.57	140.49	122.45	42.09	4.847e-06	51.901	0.00056805	0.00053064	0.00015601	1392.6	5.9995e-06	6.1396e-06	1391.5	375.15	6.2396e-06	5.9581e-06	429.59	143.73	125.31	43.201	6.2292e-06	53.351	-42.952	-1.990	-4.682	-92.660	41.547	19.450	-92.730	-87.958	32.613	44.509	-88.492	-84.012	-83.373	-79.100	49.384	-79.688	-8191	255	
3332.686	1	1	0	0	0.13785	0.0997	0.013792	0.18374	0.11577	0.36122	0.1033	0.03762	0.14299	0.20208	0.11312	0.32939	0.21123	0.12536	0.14232	0.089377	-1.9604	-3.2417	-2.9375	-2.7938	-3.4208	-2.6167	-2.9792	-3.4437	-2.4479	-3.3229	-3.0917	-2.6667	-3.3833	-2.7667	-2.7708	-3.2958	-27.703	126.665	156.221	231.546	-103.358	128.746	-89.658	24.196	138.043	21.295	-91.810	224.817	12.315	-68.181	35.090	230.947	0.00038979	0.00051294	0.00017817	1373.7	2.7279e-06	4.3166e-06	1376.5	368.7	4.2462e-06	5.3011e-06	422.5	141.11	122.99	42.139	4.2021e-06	52.17	0.00054738	0.00053969	0.00015624	1392.6	5.8285e-06	6.3126e-06	1390.2	375.07	6.3548e-06	6.1595e-06	429.86	144.3	125.58	43.145	6.3876e-06	53.568	-40.959	-12.031	-22.584	-92.545	59.210	35.401	-92.568	-87.846	37.205	46.958	-88.534	-83.895	-83.376	-79.117	39.550	-79.916	-8191	255	
3332.807	1	1	0	0	0.20414	0.02127	0.26175	0.14558	0.20989	0.06671	0.17531	0.065287	0.2068	0.22854	0.15471	0.29838	0.11012	0.20103	0.18337	0.11631	-2.1271	-3.225	-2.9958	-2.6146	-3.2479	-2.6562	-2.8521	-3.4813	-2.5333	-3.1667	-3.225	-2.7062	-3.3542	-2.8208	-2.5062	-3.4917	22.894	151.754	129.143	190.280	20.113	124.011	138.050	-50.796	-34.162	128.619	189.426	211.148	229.805	27.453	-1.414	67.804	0.00040182	0.00052152	7.1053e-05	1375.9	3.6426e-06	5.1132e-06	1370.1	369.66	2.544e-06	4.2815e-06	422.63	140.33	122.39	42.107	3.4897e-06	52.037	0.0005325	0.00052699	0.00015075	1393.4	5.8951e-06	6.0654e-06	1389.6	375.18	5.9087e-06	6.0083e-06	429.4	143.78	125.35	43.186	6.1503e-06	53.448	-45.459	-30.909	-18.645	-92.578	14.826	48.688	-92.734	-87.979	53.850	58.358	-88.444	-84.094	-83.348	-78.979	35.874	-79.911	-8191	255	
3332.878	1	1	0	0	0.20767	0.20509	0.13375	0.23942	0.23493	0.10192	0.17108	0.19947	0.29185	0.21591	0.2425	0.17325	0.30658	0.21225	0.09459	0.069511	-2.0208	-2.95	-3.0646	-2.5375	-3.2542	-2.8542	-2.9688	-3.5104	-2.5479	-3.0646	-3.3125	-2.7542	-3.2396	-2.9667	-2.5146	-3.5521	16.121	-35.014	-61.936	140.734	-25.563	-81.461	99.852	175.319	231.546	-105.698	215.243	240.254	126.950	189.417	210.275	53.241	0.0003983	0.00052954	0.00019989	1375.6	5.3993e-06	4.1178e-06	1368.4	368.65	2.9744e-06	6.3447e-06	423.28	141.65	123.04	41.975	4.1871e-06	52.121	0.0005353	0.00056453	0.00016273	1392.1	5.9587e-06	6.3027e-06	1388.6	375.48	6.1482e-06	6.5024e-06	430.05	144.02	125.47	43.205	6.3979e-06	53.472	-44.468	-7.561	-3.016	-92.553	72.961	50.402	-92.639	-88.028	45.717	46.966	-88.509	-84.165	-83.420	-79.180	62.315	-79.770	-8191	255	
3332.974	1	1	0	0	0.03281	0.059944	0.12474	0.28215	0.26375	0.07259	0.42434	0.051651	0.11558	0.11075	0.26482	0.12751	0.08871	0.095906	0.078351	0.04278	-2.4667	-2.8708	-3.2	-2.6229	-3.0312	-3.0938	-2.7208	-3.4583	-2.7771	-2.75	-3.4167	-2.7083	-3.175	-3.0208	-2.3104	-3.4167	231.587	152.183	-10.371	195.130	-79.953	233.206	225.044	252.764	197.804	5.023	168.236	199.312	183.145	250.191	-9.258	85.234	0.00040252	0.00058949	0.0001698	1373.8	4.7338e-06	5.5397e-06	1370.1	369.6	2.5344e-06	4.5495e-06	422.18	140.81	122.18	42.215	5.0755e-06	52.073	0.00053799	0.00056942	0.0001547	1392.1	5.9599e-06	6.48e-06	1388.3	375.81	6.2485e-06	6.354e-06	429.42	144.05	125.27	43.259	6.4235e-06	53.479	-43.105	-13.257	-25.498	-92.626	26.777	59.216	-92.784	-88.038	86.095	50.088	-88.581	-83.978	-83.434	-79.015	46.738	-79.928	-8191	255	
3333.095	1	1	0	0	0.12985	0.13425	0.11342	0.30982	0.16227	0.083637	0.15043	0.24636	0.16583	0.088372	0.092906	0.34504	0.11219	0.050024	0.14408	0.29927	-2.3688	-2.5687	-3.3604	-2.6854	-3.0229	-3.1312	-2.6771	-3.4375	-2.8563	-2.9	-3.3438	-2.6625	-3.05	-3.1646	-2.3292	-3.3187	18.597	179.748	250.318	230.239	126.933	200.353	165.290	245.588	1.435	-30.633	194.581	238.752	-1.461	205.902	88.536	-80.754	0.00037582	0.00059139	0.00015259	1373.7	4.5306e-06	4.2089e-06	1370.5	368.93	2.968e-06	5.4835e-06	421.56	141.05	122.82	41.981	5.8672e-06	52.102	0.00054253	0.00058727	0.00015389	1392.2	6.3534e-06	6.1848e-06	1389.3	375.39	6.3566e-06	6.6753e-06	429.74	144.07	125.69	43.182	6.6217e-06	53.481	-41.942	-16.093	-19.510	-92.732	57.570	24.445	-92.461	-87.899	21.872	64.573	-88.406	-83.924	-83.343	-79.206	63.047	-79.893	-8191	255	
3333.191	1	1	0	0	0.14348	0.13379	0.2025	0.10919	0.17314	0.23168	0.17041	0.075204	0.17211	0.17892	0.1172	0.039949	0.13604	0.2032	0.094008	0.13568	-2.5604	-2.3729	-3.2021	-2.8542	-2.8354	-3.2854	-2.6688	-3.4062	-2.9958	-2.5542	-3.4688	-2.7313	-3.0083	-3.2583	-2.6083	-3.3042	-95.006	153.908	79.855	126.416	32.875	145.031	73.604	-11.776	-103.359	135.812	-51.620	-90.963	-89.320	176.960	221.747	250.927	0.00038556	0.00058623	0.00011867	1376	4.7151e-06	4.2183e-06	1373.9	368.72	5.3569e-06	4.7845e-06	424.45	140.5	122.5	42.113	3.1447e-06	52.249	0.00055323	0.00059049	0.00015643	1393.7	6.5951e-06	6.1304e-06	1389.3	375.86	6.4223e-06	6.3512e-06	430.58	143.88	125.39	43.26	6.4223e-06	53.495	-39.582	-15.422	4.095	-92.632	55.970	35.759	-92.715	-87.708	54.201	28.819	-88.515	-84.059	-83.319	-79.029	60.443	-80.055	-8191	255	
3333.287	1	1	0	0	0.18755	0.052387	0.14353	0.1255	0.127	0.16777	0.080429	0.24419	0.17039	0.2557	0.050463	0.19008	0.11316	0.13468	0.12706	0.091771	-2.65	-2.2479	-3.3083	-2.825	-2.9271	-3.2917	-2.6063	-3.1958	-3.0812	-2.6625	-3.5563	-2.7604	-2.9771	-3.4833	-2.5375	-3.2521	202.595	195.536	-49.659	209.729	-47.606	120.391	248.244	-92.840	1.476	-30.913	-49.236	157.637	207.024	236.545	-91.708	192.590	0.0003527	0.00052611	0.00017986	1374.2	3.6347e-06	5.3528e-06	1369.1	369.02	3.2748e-06	4.9042e-06	422.08	140.81	121.95	42.183	4.5314e-06	52.162	0.00054685	0.00060511	0.00015336	1391.9	6.195e-06	6.5082e-06	1390.2	375.42	6.2724e-06	6.5059e-06	429.67	144.07	125.09	43.262	6.1561e-06	53.486	-44.571	-5.620	-18.173	-92.730	65.611	34.946	-92.720	-88.048	69.449	54.901	-88.523	-84.317	-83.159	-79.065	63.757	-80.006	-8191	255	
3333.406	1	1	0	0	0.13775	0.04215	0.11386	0.19666	0.12494	0.14635	0.2032	0.16147	0.11285	0.20435	0.22781	0.16646	0.16306	0.083453	0.24048	0.039671	-2.6854	-2.5208	-3.3937	-3.0375	-2.6229	-3.3479	-2.65	-3.2229	-3.1021	-2.5125	-3.3521	-2.9396	-2.8187	-3.5167	-2.675	-2.9896	96.244	68.800	252.720	218.679	210.429	1.588	-83.487	172.827	169.684	119.949	149.354	175.920	233.197	-98.845	-7.745	164.579	0.00035492	0.00039371	9.8344e-05	1376.5	2.9086e-06	5.652e-06	1363.5	367.81	4.5513e-06	4.5642e-06	422.31	140.64	122.53	42.014	3.8917e-06	52.134	0.00055696	0.00058857	0.00015341	1394	6.3912e-06	6.3423e-06	1387.8	374.88	6.396e-06	6.3156e-06	429.88	143.93	125.32	43.18	6.3158e-06	53.475	-38.473	-12.672	7.975	-92.705	53.868	43.676	-92.728	-87.908	26.331	47.513	-88.664	-84.014	-83.491	-79.091	36.485	-79.820	-8191	255	
3333.502	1	1	0	0	0.31442	0.20555	0.14707	0.16027	0.11656	0.19698	0.12928	0.11905	0.088987	0.13111	0.084319	0.11325	0.43251	0.30174	0.18169	0.16533	-2.9167	-2.4208	-3.2771	-3.2292	-2.8208	-3.2542	-2.7979	-2.8854	-3.2333	-2.6167	-3.1646	-3.2417	-2.5771	-3.4854	-2.8333	-2.875	101.964	-4.704	-14.636	240.788	-20.351	-43.146	199.022	128.689	216.446	109.547	236.264	126.537	185.737	-84.100	74.351	123.426	0.00041904	0.00071531	0.00013968	1374.4	5.1025e-06	4.911e-06	1371.9	368.9	4.027e-06	5.1559e-06	421.8	140.68	122.02	41.925	5.5625e-06	52.089	0.00054802	0.0005719	0.00016382	1393.5	6.5477e-06	6.2653e-06	1390	375.55	6.11e-06	6.2989e-06	429.87	144.29	125.39	43.189	6.4114e-06	53.492	-42.558	-11.443	-24.059	-92.662	45.709	42.067	-92.683	-87.841	36.323	50.151	-88.435	-84.021	-83.675	-78.837	39.378	-79.867	-8191	255	
3333.574	1	1	0	0	0.053892	0.10798	0.1087	0.32043	0.40849	0.13136	0.35832	0.23301	0.2393	0.14714	0.19578	0.22536	0.18435	0.27572	0.079547	0.23784	-2.9583	-2.5458	-3.1167	-3.2375	-2.5479	-3.375	-2.9708	-2.8729	-3.2604	-2.5396	-3.2208	-3.3208	-2.6188	-3.1625	-2.7896	-2.8937	242.708	-59.010	-0.987	-72.515	54.145	-94.309	172.238	120.347	14.172	1.642	248.338	223.947	-41.803	178.721	-64.886	-59.706	0.00039691	0.00055359	0.00016821	1370.5	3.7816e-06	6.0006e-06	1369.7	369.06	5.1148e-06	4.7939e-06	422.8	140.96	122.78	42.237	4.4497e-06	52.146	0.00054852	0.00056967	0.00015908	1392	6.6833e-06	6.1e-06	1390.8	375.09	6.3351e-06	6.3324e-06	430.07	144.14	125.61	43.317	6.4344e-06	53.441	-44.700	-29.190	-15.201	-92.718	37.728	47.067	-92.664	-87.757	49.730	28.346	-88.694	-84.030	-83.555	-78.864	49.317	-79.871	-8191	255	
3333.670	1	1	0	0	0.27705	0.089055	0.22885	0.25739	0.1403	0.096347	0.066858	0.18648	0.069981	0.069034	0.2199	0.20079	0.12397	0.14956	0.28588	0.18854	-3.1063	-2.7	-3.05	-3.3625	-2.5187	-3.2958	-2.9333	-2.9083	-3.2917	-2.7354	-3.1479	-3.4125	-2.4062	-3.2542	-2.8563	-2.5417	109.490	-9.372	126.170	-60.789	192.186	7.162	143.828	169.746	61.003	145.238	245.646	215.822	153.893	153.461	139.239	214.799	0.00040795	0.00054086	8.8332e-05	1376.8	3.4376e-06	4.4688e-06	1371.9	367.86	4.5898e-06	4.1306e-06	423.66	139.93	122.69	42.266	3.686e-06	51.947	0.00055341	0.00059303	0.00015922	1394.3	6.6017e-06	6.0824e-06	1389.8	375.73	6.224e-06	6.262e-06	430.5	143.86	125.47	43.29	6.5909e-06	53.444	-46.449	-17.778	-11.707	-92.641	63.966	43.124	-92.939	-88.059	46.659	51.800	-88.472	-84.139	-83.269	-78.962	64.026	-79.838	-8191	255	
3333.791	1	1	0	0	0.28645	0.23766	0.14126	0.28415	0.15903	0.12245	0.0066018	0.032191	0.27744	0.22482	0.12134	0.078973	0.14413	0.1466	0.23704	0.041946	-2.9833	-2.4792	-2.9813	-3.4688	-2.3146	-3.1521	-3.2313	-2.4458	-3.3229	-2.6896	-2.7062	-3.35	-2.6188	-3.0042	-3.0958	-2.6542	62.963	45.660	16.791	-92.970	-47.778	-16.942	-40.925	26.756	115.137	18.380	120.583	194.424	181.796	21.325	-102.243	-39.952	0.00035081	0.00047596	0.00014593	1372.4	3.4974e-06	3.943e-06	1373	368.88	5.0224e-06	5.1211e-06	425.07	140.06	121.74	41.974	4.4479e-06	51.92	0.00052959	0.00058758	0.00016088	1393.1	6.4559e-06	6.0251e-06	1389.6	375.29	6.3088e-06	6.5184e-06	431.17	143.95	125.27	43.212	6.4428e-06	53.457	-39.793	-12.764	-22.942	-92.692	60.255	28.541	-92.922	-88.082	58.874	17.058	-88.296	-83.941	-83.383	-78.934	45.096	-79.936	-8191	255	
3333.887	1	1	0	0	0.22518	0.09209	0.16031	0.1937	0.097856	0.14751	0.083999	0.25701	0.077839	0.31232	0.2293	0.20333	0.17427	0.13461	0.203	0.16405	-2.9625	-2.6604	-2.5958	-3.6042	-2.4625	-3.0312	-3.2188	-2.6437	-3.3812	-2.8375	-2.8354	-3.4708	-2.5938	-3	-3.2208	-2.8875	-19.431	69.001	123.143	-8.161	186.010	20.312	178.935	198.370	90.392	68.180	185.297	171.025	205.736	233.770	132.054	-103.669	0.0003846	0.00047838	0.00015192	1375.3	3.9765e-06	4.1028e-06	1365.5	368.33	5.6875e-06	6.4467e-06	422.48	140.6	121.87	41.982	5.482e-06	52.072	0.00054643	0.00058206	0.00016674	1393.8	6.3528e-06	6.3875e-06	1388.3	375.38	6.0837e-06	6.2982e-06	430.33	144.02	125.37	43.222	6.185e-06	53.45	-41.794	-25.531	4.175	-92.596	35.502	34.275	-92.581	-87.765	47.421	44.153	-88.402	-83.933	-83.378	-78.882	40.453	-79.713	-8191	255	
3333.983	1	1	0	0	0.17204	0.31894	0.16394	0.20455	0.15029	0.10994	0.29168	0.19307	0.10088	0.049096	0.055107	0.20803	0.12107	0.16505	0.16734	0.12733	-2.8375	-3.0583	-2.5375	-3.6312	-2.7729	-2.9354	-3.4562	-2.4396	-3.0854	-2.9208	-2.6521	-3.4604	-2.7792	-2.8812	-3.225	-2.7271	-53.046	74.239	0.984	209.406	193.325	10.980	203.637	152.388	-93.339	190.248	61.118	185.140	42.539	185.849	42.165	41.661	0.00039598	0.00041021	0.00014364	1377.7	4.7403e-06	4.407e-06	1364.9	367.41	3.6287e-06	4.5407e-06	421.48	140.28	122.24	42.069	5.5573e-06	51.944	0.00052931	0.00058374	0.00015959	1393.5	6.156e-06	6.4828e-06	1388.3	374.9	6.0252e-06	6.3059e-06	429.55	144	125.43	43.264	6.5031e-06	53.381	-49.171	1.361	-12.602	-92.463	50.734	33.615	-92.715	-87.902	52.324	34.546	-88.411	-84.037	-83.550	-78.855	71.353	-79.683	-8191	255	
3334.079	1	1	0	0	0.088128	0.10216	0.16704	0.28645	0.2414	0.2327	0.1582	0.18366	0.063857	0.20819	0.11086	0.038316	0.25067	0.28777	0.063084	0.35076	-2.8187	-3.0521	-2.5333	-3.4667	-2.7208	-2.9146	-3.4562	-2.75	-3.1917	-3.1854	-2.625	-3.4375	-2.7729	-2.9083	-3.3083	-2.5896	12.568	107.691	135.285	250.511	201.799	116.635	126.621	203.886	128.867	-21.130	250.445	6.625	187.794	238.294	73.801	153.169	0.00038829	0.00049716	0.00012527	1371.2	4.002e-06	2.4382e-06	1365.1	369.04	4.779e-06	4.7201e-06	421.03	140.48	122.66	42.073	5.0501e-06	51.919	0.00055338	0.00062116	0.00017127	1393.9	6.6095e-06	6.8197e-06	1388.5	375.68	6.3285e-06	6.5624e-06	430.4	144.1	125.42	43.268	6.2145e-06	53.399	-40.376	-14.806	-20.975	-92.450	36.671	60.621	-92.688	-87.884	41.698	34.366	-88.360	-83.956	-83.321	-79.030	56.806	-79.643	-8191	255	
3334.175	1	1	0	0	0.078803	0.30643	0.19234	0.27125	0.27774	0.21436	0.14757	0.39531	0.049672	0.14358	0.22391	0.23082	0.20144	0.18301	0.26188	0.16196	-2.5542	-2.9667	-2.5146	-3.4104	-2.7333	-2.6396	-3.3979	-2.6896	-3.1229	-3.2833	-2.7146	-3.3146	-2.9792	-2.6042	-3.3792	-2.6562	-33.959	-91.865	-49.518	-101.962	159.790	177.766	134.623	142.377	130.085	-78.724	113.562	-52.388	102.392	178.769	42.756	198.351	0.00037366	0.00054475	0.00012933	1373.5	3.9683e-06	5.5075e-06	1372.2	368.43	6.1662e-06	4.5827e-06	421.71	140.54	121.84	41.984	4.4123e-06	51.847	0.0005526	0.00058813	0.0001651	1395	6.2778e-06	6.6403e-06	1391.6	375.93	6.4187e-06	6.4501e-06	430.76	144.17	125.6	43.231	6.1773e-06	53.433	-45.231	-17.456	-2.866	-92.613	62.669	62.649	-92.719	-87.959	35.315	36.387	-88.266	-83.929	-83.421	-79.142	46.724	-79.770	-8191	255	
3334.272	1	1	0	0	0.16364	0.13507	0.22417	0.18893	0.08318	0.14472	0.16099	0.14218	0.1775	0.15816	0.21263	0.21811	0.45722	0.25669	0.10326	0.1519	-2.4771	-3.0667	-2.2229	-3.3563	-3.0729	-2.7583	-3.4833	-2.7875	-2.9375	-3.3	-2.4729	-3.2917	-3.0458	-2.4979	-3.4458	-2.725	162.223	115.349	28.224	205.893	214.110	-83.951	184.396	157.345	238.948	74.947	95.772	193.840	-80.715	-52.940	3.419	128.002	0.00035012	0.00060865	0.00013615	1372.8	4.2745e-06	5.8645e-06	1373.7	366.9	3.9072e-06	4.1192e-06	420.79	140.51	121.96	42.162	5.2219e-06	51.987	0.00056025	0.00058628	0.00016316	1395.4	6.3678e-06	6.8903e-06	1390.8	375.28	6.3638e-06	6.0905e-06	429.96	144.01	125.09	43.313	6.1074e-06	53.453	-42.015	-12.384	-0.316	-92.309	42.335	45.599	-92.754	-87.766	38.082	13.645	-88.603	-83.809	-83.450	-78.936	58.623	-79.947	-8191	255	
3334.368	1	1	0	0	0.031688	0.11117	0.15178	0.1506	0.19997	0.013841	0.15965	0.1809	0.17924	0.1703	0.063971	0.10379	0.093149	0.07105	0.21716	0.27106	-2.5333	-3.3937	-2.4958	-3.3521	-3.2938	-2.3854	-3.4646	-2.8875	-2.9146	-3.4333	-2.5917	-2.9813	-3.0812	-2.5	-3.2708	-2.9396	46.406	102.710	21.940	240.767	36.365	138.994	162.415	197.969	-40.160	50.597	27.790	94.966	220.830	232.237	77.791	223.324	0.00034321	0.00060225	0.0001735	1372.8	2.9069e-06	4.2214e-06	1369.1	367.19	2.0122e-06	4.6289e-06	420.78	140.84	122.74	41.817	3.6107e-06	52.028	0.00056238	0.00056391	0.00016508	1396.3	6.4523e-06	6.8896e-06	1391.9	375.01	6.5758e-06	6.1923e-06	430.02	144.38	125.48	43.218	6.1247e-06	53.493	-45.665	-24.334	-9.682	-92.560	87.636	45.262	-92.597	-87.821	49.111	30.941	-88.696	-83.805	-83.537	-78.952	37.542	-79.677	-8191	255	
3334.487	1	1	0	0	0.050462	0.10455	0.16872	0.13086	0.11534	0.16012	0.058374	0.32944	0.158	0.15129	0.031432	0.4187	0.12659	0.4122	0.18317	0.35819	-2.2188	-3.3292	-2.6396	-2.9375	-3.2083	-2.4042	-3.3458	-2.8688	-2.5896	-3.4	-2.6	-3.0208	-3.2625	-2.675	-3.2292	-2.95	-67.421	103.350	109.739	-85.556	-73.301	-58.079	199.853	206.725	17.694	240.113	91.469	227.905	200.826	202.612	234.347	174.250	0.00035255	0.00062156	0.00011565	1373.3	3.717e-06	3.1685e-06	1371.4	367.47	2.6286e-06	3.3315e-06	420.71	140.42	122.14	41.938	3.7187e-06	51.817	0.00055348	0.00055716	0.00015955	1394.4	6.2802e-06	6.6255e-06	1391.5	375	6.365e-06	5.979e-06	430.09	143.93	125.49	43.173	5.99e-06	53.389	-45.758	-28.425	-13.310	-92.540	48.149	46.364	-92.622	-87.666	76.374	47.937	-88.507	-83.850	-83.351	-78.752	68.702	-79.945	-8191	255	
3334.583	1	1	0	0	0.041744	0.084057	0.090337	0.32466	0.054782	0.24587	0.28482	0.32457	0.21317	0.22377	0.18538	0.027329	0.36263	0.2022	0.012841	0.087148	-2.2188	-3.3667	-2.5229	-3.075	-3.2271	-2.5667	-3.2021	-2.9667	-2.7146	-3.4042	-2.6917	-2.8042	-3.2875	-2.6271	-3.2292	-3.1854	140.040	127.584	58.010	241.603	-87.832	119.245	245.066	215.566	36.868	95.730	223.517	12.459	244.793	156.807	55.380	212.906	0.00040347	0.00052625	0.00017078	1372.5	5.4034e-06	5.5165e-06	1368.2	368.17	3.7593e-06	5.9326e-06	420.94	141.31	122.3	42.058	4.3936e-06	51.87	0.00055905	0.00054693	0.00015943	1393.6	6.0996e-06	6.1939e-06	1390.2	375.39	6.5621e-06	5.8863e-06	430.42	144.23	125.44	43.257	6.1112e-06	53.49	-39.018	-29.312	-5.633	-92.507	46.778	43.925	-92.302	-87.920	40.816	38.580	-88.224	-83.802	-83.283	-78.893	66.992	-79.897	-8191	255	
3334.679	1	1	0	0	0.40324	0.22437	0.24047	0.34791	0.15639	0.35789	0.15312	0.13899	0.14889	0.043128	0.23674	0.26394	0.17569	0.245	0.21776	0.18548	-2.1229	-3.1833	-2.5187	-2.8542	-3.3479	-2.6354	-3.175	-3.2542	-2.3375	-3.2417	-2.9229	-2.6979	-3.2979	-2.5187	-2.9708	-3.325	-0.836	49.817	-53.004	244.743	33.187	-0.214	102.354	-43.713	7.599	69.117	-80.998	220.916	202.074	209.827	25.374	-70.455	0.00038571	0.0004731	0.00012466	1369.6	4.9487e-06	3.4998e-06	1365.5	368.38	4.2238e-06	4.7944e-06	419.55	139.95	121.41	41.984	4.131e-06	51.591	0.00054214	0.00053584	0.00015812	1392.9	6.0613e-06	6.3027e-06	1387.6	374.92	6.2169e-06	5.9093e-06	429.33	143.84	125.11	43.177	6.2177e-06	53.298	-41.431	-23.807	-32.153	-92.540	71.018	54.540	-92.633	-87.989	40.818	46.205	-88.610	-83.837	-83.341	-78.961	55.738	-79.425	-8191	255	
3334.775	1	1	0	0	0.13656	0.30635	0.14556	0.14007	0.20062	0.071846	0.073009	0.22609	0.21974	0.1424	0.042717	0.43283	0.11076	0.19847	0.15395	0.15971	-2.1604	-3.1896	-2.6833	-2.7687	-3.3375	-2.5208	-3.0771	-3.2521	-2.3917	-3.2833	-3.0708	-2.5792	-3.4458	-2.7542	-2.8042	-3.2896	92.695	17.461	163.534	-42.010	-17.296	138.550	166.779	185.888	225.284	126.214	-34.424	243.722	117.775	5.382	57.650	138.459	0.00037668	0.00066986	0.00020031	1370.8	5.3754e-06	3.9814e-06	1365	365.8	5.1045e-06	4.7042e-06	420.64	139.58	122.18	42.052	5.5906e-06	52.077	0.0005471	0.00056849	0.0001579	1392.5	5.9791e-06	6.16e-06	1387.4	374.08	6.4772e-06	6.0836e-06	429.87	143.71	125.42	43.248	6.2715e-06	53.45	-39.484	-20.308	2.649	-92.400	59.980	37.841	-92.523	-87.889	70.476	49.016	-88.278	-84.086	-83.339	-78.936	36.770	-79.752	-8191	255	
3334.871	1	1	0	0	0.14757	0.16645	0.14956	0.17962	0.15108	0.08218	0.17232	0.22411	0.27708	0.21279	0.044137	0.40515	0.16347	0.26867	0.045244	0.23743	-2.1	-3.0958	-2.8125	-2.6583	-3.3604	-2.525	-2.8792	-3.3708	-2.5521	-3.2729	-3.1292	-2.6708	-3.4646	-2.8917	-2.6937	-3.2562	181.476	-32.817	-102.155	211.036	52.016	241.753	146.611	186.999	120.715	219.613	207.902	-101.756	176.292	247.793	35.006	182.800	0.00039238	0.00048156	0.00016023	1370.9	2.7276e-06	3.757e-06	1364.8	367.13	4.1783e-06	5.5092e-06	421.51	140.18	121.84	41.732	4.2725e-06	51.883	0.00054494	0.0005522	0.00016039	1393.8	6.0883e-06	6.1636e-06	1390.1	375.09	6.147e-06	6.2202e-06	430.3	143.87	125.22	43.201	6.4312e-06	53.356	-44.029	-7.144	-12.303	-92.403	20.311	32.578	-92.468	-87.841	30.767	44.290	-88.364	-83.962	-83.200	-78.942	68.624	-79.764	-8191	255	
3334.967	1	1	0	0	0.1501	0.29854	0.23094	0.1378	0.021258	0.10118	0.067899	0.11001	0.042771	0.12379	0.132	0.052064	0.21088	0.12055	0.12207	0.19139	-2.1292	-3.1042	-3.1646	-2.6646	-3.4583	-2.7375	-2.9437	-3.4958	-2.3792	-3.0312	-3.1729	-2.6917	-3.4313	-2.8146	-2.7812	-3.3417	229.954	-27.393	179.028	-36.401	-29.372	43.929	90.368	2.505	86.355	218.880	-84.513	157.077	254.154	-98.096	60.735	223.997	0.00038089	0.00041036	0.00018201	1370.6	4.2407e-06	4.2301e-06	1369.7	366.22	3.6521e-06	4.7146e-06	420.87	140.09	122.03	42.001	4.7563e-06	51.739	0.00053296	0.00058305	0.00016039	1393.4	6.0415e-06	6.1918e-06	1390.6	375.04	6.3065e-06	6.4181e-06	429.71	143.99	125.42	43.26	6.6794e-06	53.447	-43.457	-36.214	-36.101	-92.319	56.454	38.321	-92.421	-87.734	42.152	79.946	-88.327	-83.873	-83.451	-79.126	50.066	-79.808	-8191	255	
3335.088	1	1	0	0	0.13569	0.21456	0.06491	0.30494	0.16719	0.011723	0.26642	0.25873	0.084321	0.068925	0.16802	0.16521	0.04201	0.10763	0.39872	0.19629	-2.2146	-2.7562	-3.2188	-2.8021	-3.0833	-2.9396	-2.7146	-3.625	-2.5417	-2.8771	-3.2083	-2.6458	-3.1937	-3.0104	-2.5917	-3.5146	172.073	194.446	49.575	218.954	124.095	172.278	243.079	220.737	240.855	220.500	227.331	-56.148	180.359	199.702	193.707	155.480	0.00036141	0.00059515	0.00013454	1369.5	4.4215e-06	3.9833e-06	1363.3	366.44	7.0102e-06	4.5539e-06	420.22	139.61	122.23	41.853	3.25e-06	51.789	0.00054703	0.00061385	0.0001649	1393.2	6.255e-06	6.5407e-06	1390.8	375.5	6.4587e-06	6.4704e-06	429.76	144.04	125.49	43.218	6.7314e-06	53.392	-39.041	-31.033	-15.874	-92.280	41.672	41.967	-92.403	-87.656	39.574	57.794	-88.414	-83.635	-83.229	-78.937	52.563	-79.649	-8191	255	
3335.184	1	1	0	0	0.1851	0.1523	0.10773	0.25181	0.045914	0.17649	0.15722	0.25712	0.075199	0.060829	0.13143	0.13896	0.2051	0.11584	0.067237	0.15218	-2.1437	-2.8812	-3.1521	-2.6958	-3.2	-2.9646	-2.6521	-3.5375	-2.7979	-2.7104	-3.3271	-2.6521	-3.2229	-3.275	-2.5333	-3.4521	238.657	-81.303	153.193	222.930	151.562	240.165	211.403	245.964	248.073	-60.828	230.235	-53.964	207.414	208.288	97.186	192.001	0.00038065	0.00043147	0.00014929	1371.9	4.0259e-06	3.5613e-06	1364.2	368.77	5.0538e-06	3.744e-06	421.77	140.52	122.88	42.092	4.3524e-06	51.789	0.00055582	0.00061465	0.00016288	1391.8	6.4529e-06	6.4644e-06	1390.7	375.87	6.0765e-06	6.3017e-06	430.49	144.14	125.5	43.237	6.3524e-06	53.416	-41.017	-16.632	-13.978	-92.559	32.586	27.125	-92.569	-87.776	58.232	32.648	-88.084	-83.802	-83.202	-78.885	61.144	-79.450	-8191	255	
3335.280	1	1	0	0	0.12077	0.045236	0.17851	0.33958	0.056478	0.14183	0.15565	0.26108	0.014108	0.18764	0.097516	0.13664	0.14404	0.22798	0.20203	0.14945	-2.4417	-2.6771	-3.2833	-2.5854	-3.0875	-3.225	-2.6104	-3.3417	-2.9333	-2.4437	-3.4833	-2.8479	-2.9646	-3.3563	-2.5062	-3.3333	118.610	19.976	213.840	246.644	112.952	206.982	145.156	199.438	141.432	-31.787	186.501	0.438	-47.100	242.368	139.081	145.022	0.00034853	0.00045581	0.00017781	1371.6	1.7226e-06	5.1857e-06	1365.3	367.96	3.2618e-06	5.281e-06	421.64	140.25	122.04	41.723	4.1322e-06	51.767	0.00054735	0.00057804	0.00015572	1394.5	6.258e-06	6.4277e-06	1390.2	375.78	6.1972e-06	6.5087e-06	430.11	143.98	125.23	43.144	6.0426e-06	53.469	-39.466	-17.852	-9.767	-92.470	35.944	32.363	-92.577	-87.953	41.869	51.707	-88.527	-83.901	-83.187	-78.879	45.626	-79.817	-8191	255	
3335.375	1	1	0	0	0.15427	0.19015	0.028782	0.31678	0.20085	0.29847	0.1753	0.13138	0.12885	0.12495	0.17278	0.23	0.25225	0.09617	0.22336	0.20945	-2.4	-2.375	-3.35	-2.9104	-2.8479	-3.3042	-2.6875	-3.2771	-3.0917	-2.5042	-3.4104	-2.6958	-2.6771	-3.3104	-2.5167	-3.2646	22.730	24.347	-88.585	149.657	-56.873	230.494	166.887	203.653	229.347	146.810	-45.520	219.976	235.388	140.485	122.560	103.717	0.00038595	0.00056053	0.00013993	1369.3	5.9181e-06	5.2969e-06	1365.4	367.88	2.5636e-06	4.0903e-06	420.52	139.96	121.74	42	6.5665e-06	51.685	0.00053083	0.00055877	0.00014742	1393.1	6.0727e-06	5.9581e-06	1388.3	375.66	6.0729e-06	5.8654e-06	429.38	143.97	125.51	43.23	5.9265e-06	53.364	-43.386	-19.320	-7.576	-92.460	25.299	46.577	-92.640	-87.666	49.416	48.645	-88.397	-83.899	-83.288	-78.757	64.388	-79.823	-8191	255	
3335.471	1	1	0	0	0.027289	0.17523	0.11525	0.27371	0.28028	0.21808	0.063925	0.24085	0.22223	0.1367	0.37208	0.24359	0.27131	0.17363	0.11895	0.1918	-2.5438	-2.6792	-3.3292	-2.9375	-2.6979	-3.3521	-2.6479	-3.2687	-3.0375	-2.5917	-3.4229	-2.7917	-2.7646	-3.4437	-2.7062	-3.2042	3.128	38.050	-24.223	160.185	-44.904	-35.628	151.712	194.540	152.983	251.355	250.110	179.830	228.256	194.501	215.743	-8.789	0.00038996	0.00053754	0.00017059	1371.9	4.2557e-06	4.8403e-06	1369.9	369.25	1.8673e-06	5.068e-06	420.43	140.02	121.74	41.932	4.4268e-06	51.745	0.00052349	0.00054229	0.00014213	1391.5	6.0187e-06	5.6409e-06	1388.5	375.78	5.8359e-06	5.9623e-06	429.29	143.84	125.27	43.244	5.6976e-06	53.336	-37.337	-30.309	-25.039	-92.743	47.773	41.019	-92.642	-87.653	72.087	35.885	-88.278	-83.885	-83.102	-78.841	53.677	-79.730	-8191	255	
#DATA ENDS
