BOXY.EXE: ISS Imagent and Oximeter Data Acquisition Program Version 0.80
Ascii Record File

#ACQ INFORMATION
2  Detector Channels 
16  External MUX Channels 
1  Auxiliary Channels 
5000  Waveform (CCF) Frequency (Hz)
1  Waveforms Skipped 
30  Waveforms Averaged 
1  Cycles Averaged 
16  Acquisitions per Waveform 
10.0806  Updata Rate (Hz) 

#FILE INFORMATION
TRUE -- External MUX Channel results are PARSED.
FALSE -- AC DC and Phase are NOT grouped.
TRUE -- Companion Program Settings File CREATED.
FALSE -- AC data not excluded
FALSE -- DC data not excluded
FALSE -- Phase data not excluded
FALSE -- Auxillary Chn. data not excluded
Tab delimiters

#CALIBRATION STATE
TRUE -- Waveform Calibration Values APPLIED.


#AUX CALIBRATION VALUES
Val Type	aux-1	

Term	1.0000e+00	
Factor	0.0000e+00	


#WF CALIBRATION VALUES
A = Detector Channel
Val Type	A-AC1	A-AC2	A-AC3	A-AC4	A-AC5	A-AC6	A-AC7	A-AC8	A-AC9	A-AC10	A-AC11	A-AC12	A-AC13	A-AC14	A-AC15	A-AC16	A-DC1	A-DC2	A-DC3	A-DC4	A-DC5	A-DC6	A-DC7	A-DC8	A-DC9	A-DC10	A-DC11	A-DC12	A-DC13	A-DC14	A-DC15	A-DC16	A-Ph1	A-Ph2	A-Ph3	A-Ph4	A-Ph5	A-Ph6	A-Ph7	A-Ph8	A-Ph9	A-Ph10	A-Ph11	A-Ph12	A-Ph13	A-Ph14	A-Ph15	A-Ph16	

Term	0.00000e+00	0.00000e+00	0.00000e+00	0.00000e+00	0.00000e+00	0.00000e+00	0.00000e+00	0.00000e+00	0.00000e+00	0.00000e+00	0.00000e+00	0.00000e+00	0.00000e+00	0.00000e+00	0.00000e+00	0.00000e+00	0.00000e+00	0.00000e+00	0.00000e+00	0.00000e+00	0.00000e+00	0.00000e+00	0.00000e+00	0.00000e+00	0.00000e+00	0.00000e+00	0.00000e+00	0.00000e+00	0.00000e+00	0.00000e+00	0.00000e+00	0.00000e+00	0.00000e+00	0.00000e+00	0.00000e+00	0.00000e+00	0.00000e+00	0.00000e+00	0.00000e+00	0.00000e+00	0.00000e+00	0.00000e+00	0.00000e+00	0.00000e+00	0.00000e+00	0.00000e+00	0.00000e+00	0.00000e+00	
Factor	1.00000e+00	1.00000e+00	1.00000e+00	1.00000e+00	1.00000e+00	1.00000e+00	1.00000e+00	1.00000e+00	1.00000e+00	1.00000e+00	1.00000e+00	1.00000e+00	1.00000e+00	1.00000e+00	1.00000e+00	1.00000e+00	1.00000e+00	1.00000e+00	1.00000e+00	1.00000e+00	1.00000e+00	1.00000e+00	1.00000e+00	1.00000e+00	1.00000e+00	1.00000e+00	1.00000e+00	1.00000e+00	1.00000e+00	1.00000e+00	1.00000e+00	1.00000e+00	X	X	X	X	X	X	X	X	X	X	X	X	X	X	X	X	

B = Detector Channel
Val Type	B-AC1	B-AC2	B-AC3	B-AC4	B-AC5	B-AC6	B-AC7	B-AC8	B-AC9	B-AC10	B-AC11	B-AC12	B-AC13	B-AC14	B-AC15	B-AC16	B-DC1	B-DC2	B-DC3	B-DC4	B-DC5	B-DC6	B-DC7	B-DC8	B-DC9	B-DC10	B-DC11	B-DC12	B-DC13	B-DC14	B-DC15	B-DC16	B-Ph1	B-Ph2	B-Ph3	B-Ph4	B-Ph5	B-Ph6	B-Ph7	B-Ph8	B-Ph9	B-Ph10	B-Ph11	B-Ph12	B-Ph13	B-Ph14	B-Ph15	B-Ph16	

Term	0.00000e+00	0.00000e+00	0.00000e+00	0.00000e+00	0.00000e+00	0.00000e+00	0.00000e+00	0.00000e+00	0.00000e+00	0.00000e+00	0.00000e+00	0.00000e+00	0.00000e+00	0.00000e+00	0.00000e+00	0.00000e+00	0.00000e+00	0.00000e+00	0.00000e+00	0.00000e+00	0.00000e+00	0.00000e+00	0.00000e+00	0.00000e+00	0.00000e+00	0.00000e+00	0.00000e+00	0.00000e+00	0.00000e+00	0.00000e+00	0.00000e+00	0.00000e+00	-8.69914e+00	-1.27636e+02	-1.26579e+02	-1.81887e+02	-5.43741e+01	-6.80890e+01	-1.57669e+02	-1.62015e+02	-3.26815e+01	-6.62177e+01	-1.72231e+02	-1.69913e+02	-1.80444e+02	-1.76573e+02	-5.52496e+01	-1.49179e+02	
Factor	3.53343e-05	1.72379e-04	5.09740e-05	1.64140e-01	2.14399e-06	1.74113e-06	1.89180e-01	5.70625e-02	2.23709e-06	1.85859e-06	9.95569e-02	3.28311e-02	4.44292e-02	9.93343e-03	2.12406e-06	1.45167e-02	1.70138e-05	2.97382e-05	8.36903e-06	8.38226e-02	2.87917e-07	3.39007e-07	9.04686e-02	2.91930e-02	2.86657e-07	3.34529e-07	4.92895e-02	1.63091e-02	2.28853e-02	5.14651e-03	3.07838e-07	7.27220e-03	X	X	X	X	X	X	X	X	X	X	X	X	X	X	X	X	



#DISTANCE SETTINGS
A = Detector Channel
A-1	A-2	A-3	A-4	A-5	A-6	A-7	A-8	A-9	A-10	A-11	A-12	A-13	A-14	A-15	A-16	

2.5000e+00	3.0000e+00	2.5000e+00	3.0000e+00	2.0000e+00	3.0000e+00	1.5000e+00	3.0000e+00	3.0000e+00	3.0000e+00	3.0000e+00	3.0000e+00	3.0000e+00	3.0000e+00	1.5000e+00	3.0000e+00	

B = Detector Channel
B-1	B-2	B-3	B-4	B-5	B-6	B-7	B-8	B-9	B-10	B-11	B-12	B-13	B-14	B-15	B-16	

1.0000e+01	1.0000e+01	1.0000e+01	1.4400e+00	1.0000e+01	1.0000e+01	1.5100e+00	1.9400e+00	1.0000e+01	1.0000e+01	1.9900e+00	2.4900e+00	2.4100e+00	2.9000e+00	1.0000e+01	2.9800e+00	




#DATA BEGINS
time	group	step	mark	flag	A-AC1	A-AC2	A-AC3	A-AC4	A-AC5	A-AC6	A-AC7	A-AC8	A-AC9	A-AC10	A-AC11	A-AC12	A-AC13	A-AC14	A-AC15	A-AC16	A-DC1	A-DC2	A-DC3	A-DC4	A-DC5	A-DC6	A-DC7	A-DC8	A-DC9	A-DC10	A-DC11	A-DC12	A-DC13	A-DC14	A-DC15	A-DC16	A-Ph1	A-Ph2	A-Ph3	A-Ph4	A-Ph5	A-Ph6	A-Ph7	A-Ph8	A-Ph9	A-Ph10	A-Ph11	A-Ph12	A-Ph13	A-Ph14	A-Ph15	A-Ph16	B-AC1	B-AC2	B-AC3	B-AC4	B-AC5	B-AC6	B-AC7	B-AC8	B-AC9	B-AC10	B-AC11	B-AC12	B-AC13	B-AC14	B-AC15	B-AC16	B-DC1	B-DC2	B-DC3	B-DC4	B-DC5	B-DC6	B-DC7	B-DC8	B-DC9	B-DC10	B-DC11	B-DC12	B-DC13	B-DC14	B-DC15	B-DC16	B-Ph1	B-Ph2	B-Ph3	B-Ph4	B-Ph5	B-Ph6	B-Ph7	B-Ph8	B-Ph9	B-Ph10	B-Ph11	B-Ph12	B-Ph13	B-Ph14	B-Ph15	B-Ph16	aux-1	digaux	

3390.451	1	1	0	256	0.073732	0.14808	0.12086	0.02203	0.074227	0.15051	0.23398	0.27695	0.096537	0.089125	0.32604	0.1464	0.083113	0.22814	0.15079	0.17112	-1.9917	-3.0354	-2.9417	-2.675	-3.2458	-2.725	-2.95	-3.4104	-2.4062	-3.1375	-3.3667	-2.4979	-3.3458	-2.9625	-2.7542	-3.3604	-86.938	-34.321	56.205	33.946	177.192	199.817	189.598	150.578	250.914	29.882	124.021	180.626	173.023	-88.301	225.470	146.736	0.00037997	0.0004786	0.00012156	1398.9	2.954e-06	4.1896e-06	1395.9	376.44	5.2493e-06	6.2614e-06	429.73	141.52	124.02	42.159	3.1303e-06	52.239	0.00073624	0.0008642	0.00023557	1415.4	9.2541e-06	9.9908e-06	1409.1	382.69	9.296e-06	9.8024e-06	438.3	144.65	126.8	43.255	9.248e-06	53.659	-44.661	-16.704	-16.754	-94.017	57.704	29.811	-94.035	-89.157	46.193	52.498	-89.896	-85.381	-84.433	-80.389	43.063	-81.214	-8191	255	
3390.547	1	1	0	0	0.074267	0.07569	0.070616	0.16671	0.11112	0.023304	0.33233	0.095615	0.12125	0.2241	0.044875	0.25952	0.12918	0.071471	0.068137	0.19274	-2.1667	-2.9375	-3.2896	-2.7375	-3.2125	-2.9083	-2.7438	-3.5229	-2.7292	-2.9729	-3.4208	-2.5438	-3.1021	-2.9125	-2.4437	-3.4938	7.672	118.568	162.934	167.976	-14.962	173.135	166.563	-28.676	-7.524	-53.446	149.212	155.235	-99.757	224.421	244.615	249.213	0.00037592	0.000448	0.00018542	1389.2	3.5209e-06	3.9343e-06	1392	375.76	3.8982e-06	4.5249e-06	431.19	140.83	123.78	42.092	5.771e-06	52.246	0.00072553	0.00085448	0.00024739	1409.8	9.2158e-06	9.7945e-06	1408.3	382.23	9.1772e-06	9.6017e-06	438.61	144.29	126.35	43.274	9.2736e-06	53.662	-43.706	-13.632	-25.082	-94.167	65.460	32.196	-93.931	-89.367	13.150	52.800	-90.088	-85.569	-84.574	-80.181	46.861	-81.357	-8191	255	
3390.668	1	1	0	0	0.16313	0.14302	0.17276	0.18539	0.11553	0.12288	0.063981	0.20522	0.14369	0.35528	0.057887	0.081451	0.18242	0.36048	0.095486	0.1619	-2.3292	-2.8417	-3.3083	-2.9042	-3.1875	-2.95	-2.7542	-3.6208	-2.6312	-2.8	-3.5271	-2.6917	-3.0854	-3.0479	-2.4208	-3.4271	135.592	236.323	126.981	-32.307	103.449	192.715	27.905	183.306	105.251	-31.416	-93.833	-27.744	-11.844	230.695	212.350	22.571	0.00037661	0.00064969	0.00017697	1391.7	4.7201e-06	4.5203e-06	1383.4	375.39	4.3431e-06	6.3669e-06	431	140.79	123.11	41.983	6.8757e-06	51.975	0.00071894	0.00086829	0.0002385	1413.2	8.9764e-06	9.1949e-06	1402.1	381.63	9.1503e-06	9.4574e-06	438.4	144.34	126.19	43.168	9.541e-06	53.48	-38.664	-29.061	12.639	-94.040	45.001	33.051	-93.795	-89.203	68.678	46.705	-89.940	-85.472	-84.936	-80.290	64.689	-81.001	-8191	255	
3390.740	1	1	0	0	0.067257	0.092087	0.1908	0.13832	0.10265	0.12844	0.27381	0.23192	0.23661	0.11314	0.18036	0.08116	0.1162	0.053737	0.4165	0.14657	-2.4104	-2.5542	-3.2896	-2.7792	-3.0187	-3.0521	-2.7333	-3.4479	-2.65	-2.5208	-3.4771	-2.5354	-2.9896	-3.2646	-2.5875	-3.2979	-95.086	154.891	-42.515	248.791	223.799	213.004	200.728	226.668	207.988	78.768	60.933	236.160	58.218	229.480	245.222	160.397	0.00036932	0.00045448	0.00012451	1392.1	4.5374e-06	6.0267e-06	1389.4	375.69	4.9605e-06	6.3017e-06	430.14	140.81	122.85	41.916	4.8751e-06	51.952	0.00071398	0.00085807	0.00024207	1410.4	9.1456e-06	9.5212e-06	1403.8	381.74	9.2901e-06	9.4024e-06	437.61	144.16	125.95	43.115	9.8348e-06	53.473	-47.166	-18.629	4.814	-93.992	54.387	40.219	-94.203	-89.371	56.638	28.347	-89.995	-85.437	-84.554	-79.983	32.296	-80.855	-8191	255	
3390.836	1	1	0	0	0.17485	0.12521	0.15193	0.12381	0.28761	0.30621	0.20539	0.11806	0.021511	0.12811	0.27617	0.29737	0.12121	0.075725	0.13715	0.30675	-2.5396	-2.4437	-3.4708	-2.7792	-2.8708	-3.25	-2.5729	-3.1813	-2.9625	-2.5542	-3.25	-2.7333	-2.7062	-3.2729	-2.4396	-3.2625	-50.635	198.302	-42.429	213.707	18.119	143.391	167.576	209.179	201.822	-53.219	224.938	213.248	176.094	192.174	48.334	8.611	0.00042194	0.00045393	0.00021883	1394.1	3.4463e-06	6.1306e-06	1382.6	374.36	5.1821e-06	4.0285e-06	430.37	141.01	122.74	42.05	6.9244e-06	51.931	0.00072125	0.00090584	0.00024846	1412.4	9.2835e-06	9.8842e-06	1403.9	381.39	9.1348e-06	1.0248e-05	438.06	144.4	126.15	43.168	1.0278e-05	53.466	-42.754	-19.583	-28.187	-93.886	81.961	45.289	-93.979	-89.018	24.490	30.656	-89.772	-85.267	-84.671	-80.255	43.862	-81.118	-8191	255	
3390.932	1	1	0	0	0.18612	0.063463	0.34466	0.21744	0.11588	0.1876	0.19251	0.28423	0.11718	0.17514	0.057536	0.1541	0.14335	0.16012	0.15867	0.15131	-2.5042	-2.3187	-3.1479	-2.6708	-2.7	-3.1688	-2.7208	-3.25	-3.0896	-2.4833	-3.4188	-2.7083	-2.7021	-3.3958	-2.5187	-3.3833	-107.011	-62.805	245.814	-97.889	-33.790	233.641	180.433	-102.382	-98.916	203.629	-83.455	-27.449	93.819	187.954	-63.635	-97.858	0.00039554	0.00033292	0.00016617	1398.4	2.8546e-06	5.3629e-06	1388.1	375.18	4.1626e-06	8.0593e-06	429.46	140.41	123.48	41.984	5.9148e-06	51.967	0.00073259	0.00096197	0.00025928	1413.7	9.7562e-06	1.0263e-05	1406.7	382.23	9.5893e-06	1.0575e-05	437.89	144.47	126.43	43.195	1.0499e-05	53.532	-41.465	-5.474	-21.851	-94.002	83.234	38.781	-94.165	-89.222	45.893	54.474	-89.732	-85.381	-84.781	-80.000	49.362	-81.458	-8191	255	
3391.028	1	1	0	0	0.14536	0.036718	0.11567	0.12342	0.12994	0.10468	0.31512	0.23883	0.086248	0.13884	0.096188	0.05615	0.32615	0.025623	0.13192	0.15375	-2.7417	-2.3312	-3.35	-2.7625	-2.7583	-3.5	-2.6708	-3.1417	-3.2458	-2.6083	-3.4271	-3.0708	-2.5687	-3.475	-2.6083	-3.0438	132.245	167.327	-64.755	105.344	105.019	-27.138	226.373	53.426	189.708	-89.240	-25.741	-1.694	228.428	-32.187	-71.311	66.337	0.00038736	0.00058698	0.00016697	1396.3	6.2193e-06	5.9449e-06	1387.7	376.33	3.8309e-06	5.0475e-06	431.07	140.69	123.81	42.12	5.4996e-06	51.849	0.00073294	0.00093359	0.0002571	1415.1	9.7046e-06	1.0525e-05	1407.1	382.34	9.1885e-06	1.0308e-05	438.39	144.29	126.4	43.177	1.0046e-05	53.411	-40.644	-32.341	-12.799	-93.850	54.826	47.071	-93.842	-89.185	28.298	50.424	-89.701	-85.707	-84.563	-80.245	58.669	-81.255	-8191	255	
3391.147	1	1	0	0	0.075784	0.24661	0.28575	0.16075	0.12032	0.15316	0.20308	0.26397	0.090243	0.2208	0.216	0.02329	0.054514	0.19684	0.07685	0.33461	-2.7542	-2.2604	-3.2583	-3.0396	-2.3896	-3.3021	-2.8271	-3.0625	-3.3521	-2.4208	-3.3479	-3.0687	-2.6833	-3.4167	-2.7771	-2.9104	79.289	121.578	-52.465	213.489	-29.315	226.770	-24.662	206.898	-77.631	-99.149	170.778	12.652	102.237	88.656	200.502	-102.746	0.00041194	0.00057322	0.00013576	1396.1	6.0175e-06	4.0353e-06	1388.4	374.75	5.0278e-06	5.1637e-06	429.37	140.84	122.83	42	5.6414e-06	51.963	0.00074464	0.0009388	0.00025606	1414.4	9.6284e-06	1.0093e-05	1406.3	382.07	9.2763e-06	1.0515e-05	438.66	144.37	126	43.175	9.9547e-06	53.496	-40.948	-19.492	-21.521	-94.021	39.219	40.535	-93.918	-89.088	50.434	39.962	-89.658	-85.446	-84.494	-80.275	56.693	-81.275	-8191	255	
3391.243	1	1	0	0	0.10486	0.095563	0.060786	0.18397	0.090465	0.26773	0.10778	0.2916	0.16566	0.16029	0.15864	0.049734	0.13589	0.24361	0.14374	0.08432	-2.9729	-2.4854	-2.9562	-3.2083	-2.45	-3.3104	-2.8833	-2.6333	-3.4229	-2.7417	-2.9375	-3.1896	-2.5938	-3.3729	-2.9854	-2.6958	-80.724	-39.499	178.115	-98.343	92.187	168.569	116.986	-88.372	156.490	95.959	228.989	226.674	-102.506	221.887	-95.927	235.393	0.00038824	0.00037834	0.00017882	1398.4	3.6533e-06	5.5119e-06	1388.4	375.43	4.5635e-06	5.1461e-06	428.92	141.17	123.35	42.059	6.2358e-06	52.144	0.00072777	0.0009484	0.00026111	1416.7	9.6404e-06	1.0518e-05	1407.8	382.43	9.4274e-06	1.0523e-05	437.83	144.43	126.33	43.183	9.8444e-06	53.504	-45.917	-15.490	-28.500	-93.806	61.593	35.379	-94.004	-89.032	69.619	23.776	-89.665	-85.346	-84.568	-80.149	50.488	-81.059	-8191	255	
3391.339	1	1	0	0	0.14193	0.21333	0.17039	0.10796	0.22481	0.20808	0.090091	0.17506	0.25156	0.063907	0.29787	0.17601	0.11357	0.10466	0.18409	0.18982	-2.95	-2.4896	-2.8187	-3.4646	-2.5687	-3.2479	-3.025	-2.5729	-3.4521	-2.575	-2.9417	-3.2562	-2.5354	-3.0854	-3.0333	-2.5708	249.632	228.006	223.540	240.528	110.847	67.664	210.729	201.183	-33.261	180.398	102.846	149.699	214.314	231.546	33.648	-75.945	0.00038914	0.00033546	0.0001703	1398.7	3.7586e-06	3.4349e-06	1386.6	375.24	6.0472e-06	5.1973e-06	429.41	141.17	122.78	42.013	5.193e-06	51.899	0.00073333	0.00093743	0.00025403	1415.5	9.9397e-06	1.0368e-05	1406.6	382.24	9.6293e-06	1.0386e-05	437.9	144.36	126.26	43.236	9.8316e-06	53.488	-44.210	-0.103	-24.150	-93.877	39.666	41.173	-93.968	-88.832	32.798	40.428	-89.839	-85.367	-84.423	-80.371	18.390	-80.844	-8191	255	
3391.436	1	1	0	0	0.10814	0.17993	0.23451	0.21048	0.097436	0.077185	0.10182	0.32737	0.098839	0.356	0.22084	0.22345	0.025231	0.069892	0.20441	0.074501	-3.0833	-2.4583	-2.7	-3.4458	-2.5	-3.0083	-3.1042	-2.5312	-3.3375	-2.7062	-2.8958	-3.3208	-2.8146	-3.0146	-2.9437	-2.5729	-9.866	170.925	-48.964	-78.794	167.188	-84.392	128.526	162.848	-48.551	213.161	-76.631	204.260	231.554	-43.536	225.922	-30.522	0.00036869	0.00045674	0.00021403	1395	3.0939e-06	2.9561e-06	1390.8	374.34	4.526e-06	3.6166e-06	429.95	140.87	122.62	41.953	5.0867e-06	51.859	0.0007591	0.00092442	0.00026026	1415.2	1.0147e-05	1.0762e-05	1406.9	381.91	1.0038e-05	1.0855e-05	438.29	144.28	126.21	43.211	1.0255e-05	53.414	-38.161	-19.336	-18.693	-93.917	46.691	15.104	-94.093	-89.218	54.181	63.151	-89.646	-85.458	-84.400	-80.215	58.987	-80.909	-8191	255	
3391.532	1	1	0	0	0.20371	0.097451	0.12026	0.2235	0.20628	0.29983	0.27535	0.22597	0.18574	0.17605	0.091477	0.2702	0.26881	0.19683	0.13005	0.13831	-3.0396	-2.8187	-2.625	-3.4688	-2.4917	-3.1104	-3.3375	-2.675	-3.2562	-2.8479	-2.6562	-3.3354	-2.6729	-3	-3.1604	-2.5125	234.132	134.560	-100.525	242.188	233.854	224.322	235.568	214.594	-58.408	-1.271	130.072	244.569	248.635	-107.026	-50.195	205.279	0.0003854	0.00047187	9.3098e-05	1401.4	5.0931e-06	4.4161e-06	1392.9	377.26	4.5528e-06	3.9596e-06	429.76	140.26	123.49	41.856	5.5095e-06	52.223	0.00079501	0.00096525	0.00026736	1417.2	1.0625e-05	1.0985e-05	1408.5	383.05	1.0183e-05	1.0589e-05	438.64	144.3	126.41	43.104	9.8713e-06	53.633	-43.699	-40.907	-4.567	-93.863	62.629	19.023	-94.078	-89.238	-2.839	46.216	-90.104	-85.524	-84.971	-80.322	41.664	-81.171	-8191	255	
3391.628	1	1	0	0	0.11096	0.11578	0.10444	0.22483	0.17502	0.17617	0.19383	0.22599	0.22878	0.18893	0.22963	0.030669	0.099736	0.17936	0.19036	0.041216	-2.8958	-2.9479	-2.4354	-3.3604	-2.475	-2.9021	-3.5729	-2.7729	-3.1208	-3.025	-2.7938	-3.425	-2.8312	-2.9396	-3.3125	-2.5687	178.929	81.258	-82.995	-80.863	176.698	-78.024	171.012	158.086	-89.412	-54.763	-75.841	-35.412	-80.482	204.251	194.460	13.498	0.00033928	0.0005809	0.00012813	1400.6	4.7858e-06	5.2092e-06	1393.5	373.65	3.964e-06	4.8202e-06	429.18	140.75	123.03	42.049	4.6625e-06	51.91	0.00077108	0.00092002	0.00026059	1417.5	1.012e-05	1.04e-05	1409.2	381.81	9.6412e-06	1.0103e-05	437.72	144.34	126.36	43.18	9.7187e-06	53.352	-44.793	-23.316	-1.323	-93.948	49.325	58.145	-94.151	-89.397	60.879	53.251	-89.646	-85.307	-84.419	-80.054	61.339	-81.198	-8191	255	
3391.748	1	1	0	0	0.11497	0.18478	0.048319	0.077382	0.15447	0.13569	0.20984	0.33791	0.1934	0.16669	0.22587	0.18307	0.19843	0.096182	0.17571	0.016186	-2.6188	-2.8625	-2.4917	-3.4	-2.7708	-2.7438	-3.2583	-2.7562	-2.9562	-3.0667	-2.5625	-3.4917	-2.7208	-2.5354	-3.1708	-2.6063	196.643	-102.378	234.688	19.819	210.175	52.666	228.497	195.240	206.458	54.501	-74.133	194.862	193.480	19.059	206.621	185.750	0.00034969	0.0005469	0.00015101	1395.1	4.4166e-06	6.6099e-06	1394.4	375.04	5.705e-06	6.0367e-06	429.67	140.53	123.11	42.011	6.3823e-06	51.887	0.00075045	0.00093774	0.00026811	1416.5	9.9499e-06	1.0428e-05	1411.1	382.5	9.8496e-06	1.0101e-05	437.83	144.08	126.18	43.151	1.0322e-05	53.365	-34.914	-15.666	2.141	-93.921	70.977	35.978	-94.078	-89.338	40.068	23.257	-89.779	-85.595	-84.510	-80.183	55.980	-81.114	-8191	255	
3391.845	1	1	0	0	0.15893	0.17971	0.051061	0.22289	0.14218	0.16981	0.085625	0.16073	0.15128	0.29515	0.17786	0.20581	0.34873	0.28066	0.052363	0.10039	-2.6958	-3.0083	-2.2771	-3.3104	-2.6188	-2.6667	-3.4396	-2.8229	-2.9667	-3.2708	-2.6021	-3.3583	-2.9958	-2.6083	-3.3812	-2.8312	10.039	222.740	-30.326	218.620	-59.278	-75.725	251.030	-35.102	62.982	-34.364	224.916	173.810	-97.378	-44.023	198.847	166.200	0.00037616	0.00047781	0.00015295	1400.9	5.5936e-06	5.9398e-06	1389.4	376.91	4.4833e-06	6.4263e-06	429.71	141.12	123.8	42.072	3.3843e-06	51.87	0.00078491	0.00096364	0.00027858	1418.9	1.0289e-05	1.1542e-05	1412	383.02	1.0766e-05	1.1291e-05	439.14	144.76	126.76	43.253	1.1631e-05	53.597	-36.500	-10.433	-21.009	-93.872	56.786	49.547	-93.985	-89.210	44.101	49.641	-89.885	-85.074	-84.806	-80.384	19.861	-81.360	-8191	255	
3391.939	1	1	0	0	0.26683	0.20299	0.11393	0.20148	0.047945	0.17183	0.18173	0.19797	0.31071	0.11696	0.049144	0.27994	0.11751	0.074659	0.229	0.17917	-2.3583	-3.2771	-2.3604	-3.1896	-2.9354	-2.35	-3.3375	-2.7562	-2.7438	-3.3583	-2.6188	-3.2812	-3.1646	-2.7083	-3.35	-2.8	193.597	140.296	139.877	197.407	130.709	-10.453	-8.950	129.085	-59.714	173.268	205.436	197.624	-24.043	-82.926	3.485	239.804	0.00034544	0.00049088	0.00014592	1399	3.461e-06	4.352e-06	1396.2	376.2	2.5827e-06	4.1863e-06	431.48	141.69	123.62	41.896	5.0499e-06	51.984	0.00080532	0.0010075	0.00031211	1419.6	1.0643e-05	1.1673e-05	1412.6	382.89	1.0576e-05	1.1063e-05	439.71	144.98	126.74	43.199	1.0974e-05	53.477	-42.943	-15.026	-18.685	-93.912	35.177	39.625	-94.074	-89.146	33.202	18.795	-89.536	-85.497	-84.914	-80.391	40.393	-81.315	-8191	255	
3392.035	1	1	0	0	0.12997	0.26027	0.12946	0.28177	0.062369	0.11853	0.13272	0.098833	0.13977	0.19664	0.33273	0.097424	0.1542	0.18187	0.18886	0.04396	-2.3812	-3.4042	-2.4688	-3.2646	-3.1792	-2.3563	-3.2687	-2.6813	-2.6354	-3.3708	-2.825	-3.0042	-3.0354	-2.4688	-3.2313	-2.85	112.499	162.242	-101.761	169.780	165.569	102.230	192.455	160.021	167.665	-45.615	-90.806	67.367	-3.593	219.716	226.991	-89.952	0.00032694	0.00052145	0.00017631	1400.5	4.4719e-06	5.7124e-06	1391.5	376.09	1.9322e-06	5.2022e-06	431.5	140.97	123.43	42.023	3.6758e-06	51.942	0.00078157	0.00098111	0.00029469	1419.5	1.0386e-05	1.1752e-05	1412.1	382.81	1.0379e-05	1.1247e-05	439.78	144.66	126.54	43.177	1.0848e-05	53.427	-45.294	-16.957	-12.386	-93.841	59.408	36.601	-94.124	-89.341	11.036	52.238	-89.771	-85.470	-84.543	-80.325	50.912	-81.502	-8191	255	
3392.131	1	1	0	0	0.10108	0.12727	0.061308	0.30908	0.24509	0.17315	0.3316	0.15889	0.10774	0.18704	0.18697	0.1824	0.29943	0.11196	0.21022	0.017401	-2.2292	-3.3	-2.5292	-3.0271	-3.0812	-2.5417	-3.2667	-3.1063	-2.4562	-3.2042	-2.7188	-2.7854	-3.3187	-2.4917	-3.0104	-2.8979	119.643	215.239	-101.190	242.304	-44.223	-97.699	182.330	207.083	177.803	43.141	239.949	122.084	164.853	32.779	208.662	150.769	0.00039096	0.0004392	0.00016391	1404.3	2.422e-06	5.417e-06	1393.9	376.58	4.1128e-06	4.9163e-06	431.64	140.86	123.12	41.93	5.4951e-06	52.066	0.00078824	0.0010196	0.000279	1421.1	1.0084e-05	1.1408e-05	1412.1	383.06	1.0123e-05	1.0878e-05	438.25	144.58	126.43	43.142	1.0842e-05	53.437	-41.769	-19.962	-23.317	-93.980	33.192	31.789	-93.976	-89.417	61.356	57.534	-89.901	-85.252	-84.705	-80.168	41.731	-81.159	-8191	255	
3392.227	1	1	0	0	0.24549	0.055814	0.03438	0.35091	0.19497	0.15017	0.43197	0.26238	0.32163	0.08406	0.13105	0.13874	0.036085	0.13556	0.1487	0.068632	-1.9979	-3.2562	-2.4313	-3.0354	-3.2708	-2.35	-3.225	-3.025	-2.4396	-3.2125	-2.6875	-2.6542	-3.3042	-2.5375	-3.0563	-3.1896	61.169	-79.571	9.361	221.235	222.905	0.956	184.388	209.658	62.734	86.261	195.180	173.023	48.118	92.375	-5.908	-76.889	0.00037326	0.00054455	0.00013088	1397.9	1.8792e-06	4.4177e-06	1391.4	375.31	6.046e-06	5.2578e-06	430.78	141.34	123.83	41.922	7.2784e-06	52.164	0.00076459	0.0010177	0.00028381	1417.2	1.0166e-05	1.1521e-05	1410.1	382.82	1.0375e-05	1.0924e-05	439.37	144.71	126.53	43.16	1.0628e-05	53.444	-47.130	-35.669	-17.811	-93.921	64.018	29.834	-93.877	-89.332	60.604	35.391	-89.882	-85.400	-84.500	-80.119	49.796	-81.239	-8191	255	
3392.324	1	1	0	0	0.14671	0.19852	0.14868	0.25057	0.2256	0.052894	0.071222	0.10055	0.16911	0.15892	0.098711	0.037706	0.050734	0.11172	0.12019	0.076613	-2.0812	-3.2812	-2.8271	-2.8104	-3.3146	-2.4271	-3.1292	-3.1271	-2.425	-3.1917	-2.9708	-2.6458	-3.4646	-2.6063	-2.8854	-3.2479	176.663	169.644	87.198	-79.427	182.849	89.688	189.619	181.444	151.913	71.005	252.012	235.000	-36.362	221.128	-7.468	-7.805	0.00040594	0.00060852	0.00017385	1399.8	6.6638e-06	5.537e-06	1389.5	377.13	5.3084e-06	3.9192e-06	432.35	140.95	123.99	42.057	2.4059e-06	51.88	0.00079635	0.0010006	0.00027567	1420.1	1.0488e-05	1.1278e-05	1411.2	383.04	1.0609e-05	1.0894e-05	438.98	144.41	126.58	43.158	1.0668e-05	53.394	-44.868	-14.674	-28.279	-94.018	62.149	40.852	-93.970	-89.167	72.990	37.239	-90.005	-85.270	-84.831	-80.478	74.200	-81.162	-8191	255	
3392.444	1	1	0	0	0.13562	0.16189	0.249	0.33548	0.13853	0.049761	0.34153	0.15549	0.21481	0.085545	0.1043	0.14816	0.14725	0.19212	0.18896	0.15643	-2.0396	-3.3458	-2.8417	-2.7271	-3.3104	-2.6937	-3.0312	-3.4062	-2.5021	-3.0292	-3.3146	-2.6292	-3.4125	-2.7354	-2.8083	-3.4313	73.771	-6.641	224.405	225.924	-44.937	92.769	153.511	167.237	50.891	-59.793	149.128	-103.890	14.007	172.725	-57.474	178.580	0.00041015	0.00062291	0.00010489	1399.7	4.9303e-06	6.2548e-06	1392.5	375.83	2.1909e-06	2.9327e-06	431.09	140.68	123.43	42.166	4.2465e-06	51.906	0.00081479	0.0010094	0.00027484	1418.9	1.0354e-05	1.121e-05	1412.2	382.98	1.0885e-05	1.1221e-05	439.51	144.64	127.01	43.267	1.0794e-05	53.445	-33.955	-24.716	-52.681	-93.968	33.230	45.874	-93.824	-89.261	61.915	36.373	-89.622	-85.463	-84.759	-80.335	66.796	-81.261	-8191	255	
3392.540	1	1	0	0	0.096879	0.14937	0.14042	0.2651	0.2982	0.090285	0.20751	0.36329	0.13626	0.16652	0.15405	0.2313	0.30871	0.057439	0.13226	0.18582	-2.0208	-2.9479	-2.9208	-2.6208	-3.2708	-2.6083	-2.925	-3.4104	-2.4125	-3.1333	-3.1375	-2.4	-3.3187	-2.7062	-2.6021	-3.5167	-78.457	170.991	121.208	146.113	105.130	83.400	209.222	173.885	71.877	225.237	-104.823	218.912	34.309	222.220	215.140	106.542	0.00036901	0.00042539	0.0001778	1403	4.0572e-06	5.2654e-06	1389.7	376.71	4.6352e-06	4.0638e-06	429.63	141.71	123.47	41.975	5.7985e-06	51.919	0.00082999	0.001039	0.00028592	1420.7	1.0836e-05	1.1955e-05	1411.5	383.45	1.128e-05	1.1467e-05	438.9	144.64	126.73	43.22	1.0803e-05	53.483	-34.956	-15.039	-13.534	-93.891	39.095	66.310	-94.086	-89.241	42.061	28.477	-89.724	-85.590	-84.902	-80.102	76.370	-81.062	-8191	255	
3392.612	1	1	0	0	0.11767	0.12834	0.15321	0.17809	0.25021	0.10451	0.27292	0.15989	0.075222	0.095745	0.17142	0.31082	0.23999	0.061792	0.055334	0.10768	-2.2062	-2.9417	-3.1958	-2.7167	-3.1937	-3.0396	-2.7167	-3.4042	-2.5271	-2.9813	-3.3458	-2.7083	-3.15	-3.0417	-2.5208	-3.5854	-78.877	-82.238	-86.875	243.418	233.459	173.106	224.668	-95.565	5.341	1.708	-84.428	174.453	216.142	8.895	-37.119	-71.566	0.00038957	0.00053945	0.00011946	1400.3	3.3399e-06	3.6327e-06	1394	376.8	1.8625e-06	4.7027e-06	432.68	140.77	123.81	41.979	3.4557e-06	51.847	0.0008167	0.0010279	0.0002786	1421	1.0641e-05	1.1344e-05	1412.1	383.61	1.0527e-05	1.0873e-05	439.45	144.79	126.79	43.209	1.0868e-05	53.504	-41.353	-12.638	-31.316	-93.819	48.171	61.052	-94.040	-89.196	8.656	28.256	-89.898	-85.340	-84.517	-80.478	28.475	-81.015	-8191	255	
3392.708	1	1	0	0	0.11734	0.11578	0.1912	0.20325	0.17966	0.128	0.28867	0.17569	0.17838	0.33199	0.2706	0.073544	0.096073	0.33641	0.17337	0.16403	-2.2	-2.7604	-3.1542	-2.6396	-3.3375	-2.9188	-2.6458	-3.3604	-2.6479	-2.575	-3.4313	-2.6063	-3.1521	-3.2521	-2.4792	-3.4833	61.696	214.194	229.398	250.346	-92.448	148.644	209.299	229.420	-86.675	159.039	-100.008	-88.599	189.464	189.129	154.990	1.721	0.00037207	0.00062332	0.00011234	1404	5.3193e-06	4.9275e-06	1394	376.03	4.2439e-06	3.9393e-06	431.01	140.69	123.89	41.946	3.3482e-06	52.021	0.0008218	0.0010174	0.00027921	1422.3	1.0756e-05	1.1272e-05	1413.2	383.62	1.0728e-05	1.1168e-05	439.25	144.52	126.91	43.208	1.1212e-05	53.507	-45.165	-11.331	-23.450	-93.853	62.171	55.729	-94.069	-89.274	33.416	25.201	-89.595	-85.243	-84.606	-80.308	59.238	-81.179	-8191	255	
3392.829	1	1	0	0	0.14848	0.19282	0.21523	0.41742	0.010604	0.16984	0.17746	0.20071	0.076986	0.18868	0.18728	0.28909	0.23118	0.26926	0.11077	0.18707	-2.3458	-2.8354	-3.2313	-2.8125	-2.9188	-3.1625	-2.5312	-3.4396	-2.9542	-2.7458	-3.4813	-2.7104	-3.0125	-3.1479	-2.55	-3.3167	109.061	162.044	97.991	233.527	-79.076	48.837	162.184	185.607	43.859	-98.837	133.357	172.459	-68.065	217.324	65.739	246.088	0.00037723	0.0004417	0.00012418	1402.4	4.551e-06	6.0454e-06	1394.7	376.68	3.3348e-06	6.2621e-06	431.83	141.01	123.81	42.022	3.9449e-06	52.052	0.00081752	0.0010561	0.00028776	1419.3	1.0988e-05	1.1584e-05	1414.1	383.6	1.076e-05	1.1597e-05	440.46	144.83	126.87	43.268	1.1652e-05	53.561	-42.648	-20.867	-12.052	-93.993	58.250	39.840	-94.056	-89.261	33.074	46.977	-90.039	-85.550	-84.603	-80.263	86.885	-81.165	-8191	255	
3392.925	1	1	0	0	0.035261	0.075909	0.12471	0.2896	0.11621	0.061533	0.049892	0.3562	0.11685	0.19621	0.15361	0.19247	0.20987	0.26746	0.17908	0.095872	-2.45	-2.5521	-3.3521	-2.7875	-2.9729	-3.2771	-2.6562	-3.4188	-2.9271	-2.5938	-3.5667	-2.6625	-2.9667	-3.2792	-2.3458	-3.25	-63.867	110.376	217.893	192.979	157.135	36.777	166.343	177.703	120.821	-35.252	227.912	223.004	92.384	-20.462	240.256	64.817	0.00036202	0.00053121	0.00018896	1402.5	3.0486e-06	5.5132e-06	1397.3	378.15	3.1842e-06	3.7243e-06	432.96	141.29	124.56	42.24	6.3309e-06	52.151	0.0008044	0.001039	0.00030012	1421.5	1.079e-05	1.1666e-05	1415.7	384.44	1.0603e-05	1.1696e-05	441.36	145.36	127.34	43.404	1.1546e-05	53.609	-38.967	-13.044	-23.093	-94.015	71.183	45.717	-94.043	-89.362	56.797	53.053	-89.879	-85.292	-84.527	-80.204	66.599	-81.175	-8191	255	
3393.021	1	1	0	0	0.16866	0.23636	0.17183	0.11755	0.10016	0.064168	0.13206	0.05435	0.16465	0.20897	0.25185	0.18532	0.14826	0.33524	0.061703	0.25431	-2.5854	-2.3333	-3.3979	-2.7271	-2.8833	-3.2146	-2.5833	-3.3042	-2.9062	-2.4354	-3.3521	-2.8563	-2.6625	-3.4854	-2.4458	-3.1125	4.341	-31.059	65.786	245.828	-16.956	183.899	128.882	240.527	194.307	39.712	194.146	218.452	-32.731	227.412	101.508	141.127	0.00040246	0.00044808	0.0001798	1400.8	3.5357e-06	3.8246e-06	1395.1	377.36	3.2661e-06	5.7846e-06	432.1	141.67	124.02	41.99	5.9194e-06	52.278	0.00080153	0.0010262	0.00028999	1422.1	1.0472e-05	1.1321e-05	1413.2	383.96	1.0707e-05	1.1868e-05	440.45	144.68	127.08	43.354	1.1563e-05	53.617	-42.955	-27.226	-23.292	-94.025	62.083	18.400	-93.862	-89.172	40.579	39.226	-89.874	-85.658	-84.868	-80.210	37.762	-81.333	-8191	255	
3393.140	1	1	0	0	0.14699	0.13549	0.21879	0.22795	0.040887	0.22236	0.42126	0.24306	0.26444	0.14906	0.28402	0.12569	0.033903	0.17128	0.14473	0.32634	-2.7292	-2.3292	-3.2417	-2.7854	-2.725	-3.3854	-2.6396	-2.9854	-3.0563	-2.6646	-3.2521	-2.9729	-2.6688	-3.2938	-2.5125	-3.05	80.047	117.056	39.163	199.045	111.715	207.273	142.956	184.080	10.482	11.737	137.758	-99.881	188.629	245.153	163.118	196.240	0.00042148	0.0004062	0.00011777	1402.8	2.3492e-06	5.639e-06	1399.3	376.71	3.621e-06	5.8124e-06	433.31	141.24	124.24	41.991	3.2746e-06	52.105	0.00080901	0.0010931	0.00030922	1424.2	1.0393e-05	1.1538e-05	1416	383.56	1.0554e-05	1.1741e-05	440.93	144.75	127.18	43.258	1.1029e-05	53.579	-35.095	-11.154	-4.154	-93.630	72.135	52.585	-94.169	-89.231	-20.013	44.379	-90.071	-85.231	-84.560	-80.208	52.509	-81.175	-8191	255	
3393.212	1	1	0	0	0.086984	0.13395	0.27565	0.255	0.076108	0.12401	0.089346	0.16453	0.099472	0.1825	0.057753	0.080373	0.17424	0.15641	0.17983	0.058369	-2.8042	-2.4792	-2.9646	-3.2604	-2.4625	-3.3917	-2.9583	-2.8438	-3.1479	-2.5375	-3.3125	-3.1917	-2.6625	-3.5083	-2.6	-2.7354	127.745	98.290	0.665	247.735	179.201	219.046	127.994	222.746	9.697	200.864	45.614	189.609	-84.878	247.973	-2.274	-17.164	0.00032209	0.00069015	0.000128	1402.2	2.8666e-06	4.3916e-06	1396.7	378.33	4.5904e-06	8.7736e-06	433.37	141.11	123.84	42.062	3.7861e-06	51.972	0.00079295	0.0010934	0.0002978	1420.8	1.0794e-05	1.1724e-05	1414.4	384.39	1.0511e-05	1.2143e-05	440.36	144.67	126.94	43.271	1.1423e-05	53.429	-34.062	-16.777	-25.507	-94.027	10.829	46.456	-94.063	-89.194	14.678	48.814	-89.607	-85.424	-84.778	-80.126	39.420	-81.165	-8191	255	
3393.310	1	1	0	0	0.10765	0.19453	0.17494	0.49326	0.14546	0.10865	0.40457	0.18339	0.056036	0.12482	0.15257	0.0741	0.23869	0.095417	0.12329	0.13044	-2.9167	-2.4458	-3.3417	-3.2333	-2.475	-3.4104	-2.8542	-2.8167	-3.2542	-2.6125	-3.2729	-3.3292	-2.4625	-3.2313	-2.8292	-2.7667	-60.547	76.370	236.826	201.556	-42.560	188.287	199.488	249.133	160.030	155.198	89.786	36.019	41.204	231.039	164.355	218.999	0.00035538	0.00055689	0.00015204	1405	4.7386e-06	4.7672e-06	1395.8	375.4	4.0094e-06	5.4481e-06	431.96	140.74	123.61	42.154	6.9815e-06	51.94	0.00080132	0.0010736	0.00029182	1421.4	1.1005e-05	1.1624e-05	1414.9	383.57	1.061e-05	1.2003e-05	440.34	144.4	126.8	43.318	1.0797e-05	53.476	-40.037	-28.184	-35.564	-93.754	33.359	37.898	-93.771	-89.137	49.573	32.952	-89.536	-85.241	-84.442	-80.185	68.893	-81.020	-8191	255	
3393.428	1	1	0	0	0.29348	0.037272	0.095027	0.10352	0.13142	0.070456	0.31311	0.27272	0.12971	0.20273	0.2798	0.3063	0.18615	0.082241	0.14458	0.22139	-2.9146	-2.4396	-2.9313	-3.3688	-2.4271	-3.1458	-3.0521	-2.5812	-3.2771	-2.6042	-2.9229	-3.1979	-2.4833	-3.2583	-2.9625	-2.4458	-27.036	114.469	-45.735	250.656	102.368	-0.574	187.998	204.162	109.852	-62.325	212.501	243.339	-39.355	242.029	71.948	235.377	0.00038005	0.00049997	0.00020231	1404.2	3.7613e-06	4.7351e-06	1392.7	376.15	4.1076e-06	5.4475e-06	431.54	140.9	123.28	42.113	5.2085e-06	52.002	0.00080507	0.0010478	0.00027827	1421.1	1.0845e-05	1.1684e-05	1413	383.73	1.08e-05	1.2022e-05	440.25	144.78	126.67	43.301	1.1034e-05	53.542	-39.327	-6.197	-19.015	-93.690	46.468	16.848	-94.163	-89.044	47.724	48.735	-89.914	-85.296	-84.631	-80.238	72.821	-81.166	-8191	255	
3393.525	1	1	0	0	0.080319	0.17828	0.21228	0.24805	0.22102	0.14595	0.35193	0.28582	0.24713	0.11365	0.076836	0.28338	0.18068	0.19793	0.018903	0.15302	-2.9604	-2.5	-2.8646	-3.5271	-2.6979	-3.2458	-3.2167	-2.575	-3.2354	-2.8438	-2.7792	-3.4333	-2.7146	-3.2667	-3.1333	-2.6479	58.522	60.915	77.562	167.721	-24.859	22.023	182.953	235.997	173.869	121.526	-83.714	150.792	236.795	232.706	-56.192	222.840	0.00042353	0.00059476	0.00015654	1399.5	4.0737e-06	4.5796e-06	1395.5	377.22	3.1525e-06	3.8232e-06	434.14	141.23	124.03	42.074	2.9734e-06	52.242	0.00081752	0.0010975	0.0002911	1421.6	1.1333e-05	1.1807e-05	1414.2	384.6	1.1283e-05	1.2189e-05	441.53	145.12	127.15	43.368	1.1322e-05	53.599	-39.407	-8.036	-20.442	-93.833	26.317	48.913	-93.939	-89.176	52.826	46.508	-89.750	-85.333	-84.449	-80.266	13.142	-80.799	-8191	255	
3393.621	1	1	0	0	0.27217	0.07249	0.1256	0.21961	0.10718	0.27088	0.15074	0.0072997	0.11256	0.2124	0.072633	0.17595	0.096998	0.15516	0.092094	0.068021	-2.8312	-2.6188	-2.875	-3.5771	-2.4021	-3.1729	-3.3146	-2.5187	-3.5438	-2.9188	-3.0417	-3.4562	-2.525	-3.1271	-3.2458	-2.5312	170.452	126.492	129.543	206.864	137.490	29.291	184.194	20.815	193.792	-106.775	207.970	-75.469	175.681	95.162	21.655	-68.977	0.00041174	0.00053021	0.00021475	1407.9	4.182e-06	6.8793e-06	1394.9	377.08	2.7017e-06	5.5487e-06	432.88	142.3	124.25	42.064	5.6276e-06	51.76	0.00084491	0.0011085	0.00029966	1424.5	1.1635e-05	1.2157e-05	1415.7	384.56	1.0858e-05	1.1743e-05	442.36	145.61	127.25	43.337	1.0937e-05	53.375	-47.230	-17.524	-14.084	-93.715	42.952	40.537	-93.973	-89.002	35.647	48.006	-89.692	-85.127	-84.468	-80.148	46.437	-81.135	-8191	255	
3393.741	1	1	0	0	0.068281	0.077631	0.14736	0.16868	0.27857	0.022164	0.31247	0.26673	0.27585	0.20285	0.16748	0.21939	0.045273	0.22683	0.1784	0.24353	-2.8875	-2.8812	-2.6063	-3.5312	-2.5062	-2.9667	-3.4917	-2.5687	-3.175	-3.0458	-2.6625	-3.5292	-2.5208	-2.7896	-3.4042	-2.4958	222.071	235.995	218.972	248.038	66.596	-65.060	-105.063	178.279	44.767	198.792	-78.037	243.848	21.978	217.298	96.110	94.078	0.0003668	0.00061011	0.00024059	1407	6.3557e-06	5.5847e-06	1399.5	378.06	5.7165e-06	5.2014e-06	432.04	141.26	124.11	42.106	3.3869e-06	51.981	0.00080245	0.0010581	0.00029496	1425.4	1.091e-05	1.155e-05	1417.5	384.48	1.0443e-05	1.1068e-05	439.86	144.71	126.81	43.279	9.8444e-06	53.334	-40.264	-44.265	-12.413	-93.938	5.939	30.224	-93.751	-89.123	55.807	37.041	-89.581	-85.347	-84.572	-80.196	47.514	-81.127	-8191	255	
3393.838	1	1	0	0	0.058313	0.09634	0.030568	0.23381	0.27789	0.11483	0.099931	0.11779	0.11995	0.11471	0.15699	0.15352	0.14345	0.20568	0.057099	0.12589	-2.8271	-2.9854	-2.4188	-3.3896	-2.7333	-2.7812	-3.5271	-2.7646	-2.9688	-3.1562	-2.4771	-3.2292	-2.8354	-2.6437	-3.2667	-2.5646	244.913	-6.694	89.263	143.945	3.553	128.733	186.597	212.962	29.955	169.405	198.104	-66.987	80.363	34.166	-51.875	14.162	0.000386	0.00047032	0.00017142	1403.6	4.0464e-06	3.7358e-06	1397	375.41	4.4689e-06	4.2608e-06	429.26	141.24	123.83	42.002	4.0796e-06	51.936	0.00072273	0.00087839	0.00025581	1421.5	9.4179e-06	1.0182e-05	1415.1	382.88	9.4489e-06	9.8115e-06	438.83	144.58	126.68	43.221	1.0525e-05	53.437	-44.584	-26.970	-21.467	-93.681	41.619	45.816	-94.010	-89.239	24.164	51.879	-89.423	-85.401	-84.444	-80.214	50.528	-80.909	-8191	255	
3393.909	1	1	0	0	0.23336	0.13642	0.2481	0.1212	0.21712	0.03988	0.11367	0.2161	0.2067	0.13077	0.10287	0.097456	0.072066	0.22166	0.045831	0.12386	-2.65	-3.2333	-2.4833	-3.3021	-2.8583	-2.7438	-3.3479	-2.7083	-2.925	-3.1042	-2.5875	-3.4208	-2.8771	-2.5521	-3.1937	-2.6333	-8.035	156.522	-24.096	-31.142	43.353	97.266	243.821	241.467	96.523	140.275	89.349	234.589	117.442	-80.714	182.407	175.334	0.0003764	0.00056125	0.00013559	1406.8	1.9202e-06	6.837e-06	1399.9	376.94	5.2015e-06	5.2617e-06	433.83	141.46	123.92	42.087	6.5046e-06	51.84	0.00075825	0.00097721	0.00029607	1424.2	1.0579e-05	1.1264e-05	1417.5	383.76	1.0533e-05	1.1261e-05	440.89	144.76	126.76	43.232	1.0638e-05	53.418	-36.966	-15.235	-24.189	-93.680	68.578	40.034	-93.970	-89.145	68.504	61.274	-89.559	-85.205	-84.430	-80.000	59.632	-81.229	-8191	255	
3394.005	1	1	0	0	0.22342	0.21368	0.158	0.2818	0.03646	0.13764	0.096942	0.26613	0.28161	0.12545	0.11625	0.17788	0.11668	0.15873	0.18511	0.1567	-2.5354	-3.1688	-2.4417	-3.4104	-3.0021	-2.5479	-3.5438	-2.85	-2.7479	-3.3187	-2.4854	-3.3167	-2.9437	-2.6542	-3.2708	-2.7021	15.903	52.800	-87.689	195.274	152.511	65.519	-85.320	180.608	-1.415	164.147	208.917	-79.753	182.356	-47.773	235.524	139.157	0.00034381	0.00056948	0.00017965	1401.3	4.3354e-06	5.7066e-06	1398	376.87	5.4432e-06	4.9554e-06	432.5	141.92	124.37	42.23	5.3224e-06	52.223	0.00078455	0.00096823	0.00029335	1422.9	1.0322e-05	1.13e-05	1416.6	383.21	1.0575e-05	1.1323e-05	440.32	145.14	127.25	43.372	1.128e-05	53.58	-41.961	-28.021	-7.178	-93.829	67.945	56.505	-93.890	-89.031	60.682	50.937	-90.091	-85.299	-84.347	-80.176	27.840	-80.923	-8191	255	
3394.124	1	1	0	0	0.23367	0.082414	0.1033	0.1	0.13419	0.10205	0.42121	0.22847	0.17049	0.28242	0.11117	0.19453	0.20539	0.054756	0.22475	0.097163	-2.275	-3.2646	-2.5042	-3.2021	-3	-2.3667	-3.4062	-2.6479	-2.5833	-3.35	-2.6813	-3.1188	-3.0646	-2.4646	-3.5	-2.6896	23.927	22.253	40.640	-36.721	-0.365	199.934	182.950	221.933	-101.427	107.633	205.312	-16.130	-104.182	-79.736	219.616	-71.966	0.00035507	0.00049548	0.00018124	1405.1	6.3122e-06	3.3212e-06	1405.4	377.35	4.4934e-06	5.0299e-06	434.83	141.66	124.17	42.195	3.5541e-06	51.969	0.0008021	0.0010242	0.00029761	1424.6	1.0552e-05	1.1599e-05	1422.3	384.72	1.0496e-05	1.1272e-05	441.78	145.26	127.12	43.318	1.0926e-05	53.513	-39.404	-0.760	-11.957	-93.873	35.201	41.878	-93.865	-89.057	49.731	29.533	-89.550	-85.544	-84.678	-80.096	41.703	-80.932	-8191	255	
3394.220	1	1	0	0	0.10219	0.1878	0.18102	0.31618	0.13917	0.055093	0.0847	0.10273	0.073073	0.1829	0.09517	0.28302	0.06098	0.17082	0.071427	0.1237	-2.2	-3.3479	-2.4875	-3.1479	-3.175	-2.5125	-3.2875	-3.0021	-2.4646	-3.3125	-2.6354	-3.0542	-3.3438	-2.4958	-3.1292	-2.9875	205.766	122.922	13.894	-97.472	205.618	-58.578	205.104	-92.315	35.715	248.801	68.780	220.473	226.742	-93.919	224.853	93.546	0.0004153	0.0004367	0.00017888	1409.1	3.4222e-06	5.2869e-06	1404.4	378.15	4.8632e-06	5.7479e-06	432.5	141.62	124.09	42.141	4.5582e-06	52.103	0.00082056	0.0010218	0.00029375	1428.6	1.0606e-05	1.2059e-05	1420.8	384.71	1.0861e-05	1.1508e-05	441.02	145.34	127.43	43.421	1.0871e-05	53.595	-40.262	-14.097	-13.485	-93.818	9.747	44.947	-93.766	-89.137	82.433	29.257	-90.043	-85.327	-84.456	-80.201	51.512	-81.222	-8191	255	
3394.317	1	1	0	0	0.3638	0.1515	0.085158	0.47461	0.090875	0.1032	0.16565	0.16039	0.050641	0.081247	0.13452	0.07023	0.15628	0.11382	0.12423	0.077186	-2.1562	-3.2167	-2.6583	-2.9062	-3.1979	-2.475	-3.2771	-3.0146	-2.6979	-3.15	-2.6979	-2.8958	-3.3	-2.7	-3.1354	-3.1729	232.915	-74.287	226.993	186.281	231.598	90.167	189.171	-83.692	124.271	-64.387	118.438	171.532	-74.096	239.361	188.241	244.607	0.00039952	0.00053017	0.00011801	1408.8	3.608e-06	6.7739e-06	1397.9	377.81	5.279e-06	5.6856e-06	432.73	141.51	123.93	42.228	5.3165e-06	51.962	0.00079915	0.0010621	0.00029337	1427.4	1.0499e-05	1.192e-05	1418.6	384.5	1.0693e-05	1.1648e-05	440.78	145.1	126.99	43.419	1.0965e-05	53.41	-41.990	-1.612	-49.213	-93.716	18.945	61.715	-93.998	-89.239	44.360	36.110	-89.542	-85.173	-85.260	-80.101	49.959	-81.197	-8191	255	
3394.413	1	1	0	0	0.33693	0.18324	0.1815	0.24112	0.23095	0.13205	0.094456	0.23598	0.10363	0.094463	0.2374	0.10785	0.13998	0.11485	0.16707	0.26551	-2.2729	-3.1979	-2.5938	-2.9833	-3.3375	-2.4792	-3.1604	-3.1542	-2.4104	-3.275	-2.8833	-2.6354	-3.3271	-2.7438	-2.8063	-3.1354	211.565	119.550	231.686	229.973	187.945	-55.518	231.934	-97.560	50.163	-42.713	236.309	26.759	109.205	-83.598	92.355	200.890	0.00035752	0.00037727	0.00017222	1402.5	3.9841e-06	6.6991e-06	1402.9	377.73	2.9776e-06	6.6385e-06	430.6	141.63	124.16	42.063	4.6318e-06	52.072	0.0008184	0.0010527	0.00029839	1424.2	1.0944e-05	1.2212e-05	1421.7	384.79	1.0932e-05	1.1735e-05	440.05	145.18	127.27	43.299	1.0972e-05	53.602	-48.142	-29.300	-17.343	-93.622	88.638	36.882	-93.742	-88.884	41.465	45.492	-89.981	-85.313	-84.543	-80.472	46.544	-81.202	-8191	255	
3394.509	1	1	0	0	0.10851	0.25926	0.10317	0.19541	0.18476	0.21272	0.17027	0.12325	0.19325	0.059709	0.31246	0.31689	0.12806	0.39489	0.21496	0.14804	-1.9062	-3.025	-2.6604	-2.6604	-3.2771	-2.5208	-2.8583	-3.3187	-2.6	-3.2687	-2.9729	-2.5667	-3.5875	-2.7	-2.8208	-3.5333	87.945	-7.370	26.013	197.459	132.178	152.370	214.501	-25.800	49.989	-11.042	196.912	198.072	158.734	246.141	227.078	-86.929	0.00037607	0.00030112	0.00016627	1410.4	3.8395e-06	2.9728e-06	1398.3	376.37	6.2698e-06	6.1465e-06	433.68	141.91	124.52	42.047	3.4238e-06	51.856	0.00080901	0.0010325	0.0002817	1429.8	1.0522e-05	1.1559e-05	1419.8	384.17	1.0718e-05	1.1176e-05	441.75	145.5	127.4	43.322	1.0673e-05	53.458	-41.435	-15.943	-15.843	-93.397	21.357	55.841	-93.742	-89.205	5.317	46.589	-89.795	-84.841	-84.538	-80.285	61.278	-81.006	-8191	255	
3394.605	1	1	0	0	0.21229	0.0043849	0.29672	0.53306	0.19756	0.18948	0.386	0.098819	0.049031	0.092819	0.17353	0.13416	0.11187	0.16377	0.21927	0.093401	-2.1104	-2.975	-2.8292	-2.5854	-3.1708	-2.7625	-3.0292	-3.2583	-2.3958	-2.9833	-3.2292	-2.6104	-3.4	-2.7417	-2.7313	-3.2875	57.704	-22.896	206.589	249.137	141.923	-28.542	144.263	193.699	164.329	99.799	-22.803	193.635	170.726	-93.187	20.172	-67.591	0.00036812	0.00044985	0.00012925	1406.4	5.0041e-06	5.5797e-06	1400.3	377.35	4.1085e-06	5.6726e-06	432.19	141.25	123.95	42.008	3.5264e-06	51.778	0.00082198	0.0010267	0.00028041	1427.7	1.0812e-05	1.164e-05	1419.3	384.3	1.1002e-05	1.0953e-05	440.09	144.96	127.34	43.224	1.0788e-05	53.55	-44.984	-15.273	-31.380	-93.844	47.668	47.037	-93.823	-88.946	45.881	53.030	-89.569	-84.982	-84.604	-80.143	31.134	-80.879	-8191	255	
3394.701	1	1	0	0	0.22215	0.14715	0.035102	0.32523	0.13559	0.28546	0.32687	0.11462	0.056519	0.063722	0.21491	0.14775	0.23254	0.19432	0.10687	0.042318	-2.0042	-3.0792	-2.9542	-2.5292	-3.2229	-2.9125	-2.7938	-3.5187	-2.5563	-2.9167	-3.1542	-2.4729	-3.3063	-3.0521	-2.4188	-3.4083	68.969	-44.323	49.602	220.253	116.683	73.076	204.232	163.107	28.168	81.746	124.069	238.981	-105.261	179.635	200.593	199.750	0.00037345	0.00045934	0.00015198	1412.9	5.1397e-06	5.3846e-06	1401.6	376.16	5.4684e-06	6.4245e-06	432.15	142.09	124.38	42.159	2.854e-06	52.097	0.0008284	0.0010133	0.00028354	1431.7	1.1001e-05	1.1552e-05	1420.9	384.26	1.1024e-05	1.1339e-05	440.78	145.35	127.24	43.405	1.0823e-05	53.519	-37.945	-17.370	-7.738	-93.601	58.922	43.326	-93.810	-89.337	51.163	54.942	-89.535	-85.169	-84.838	-80.157	68.807	-81.241	-8191	255	
3394.822	1	1	0	0	0.19592	0.15995	0.097303	0.28749	0.1224	0.13571	0.1704	0.064097	0.28932	0.2189	0.096481	0.08681	0.26424	0.282	0.10939	0.21079	-2.3688	-2.8458	-3.1208	-2.5333	-3.1792	-2.8854	-2.5875	-3.525	-2.5312	-2.975	-3.2375	-2.725	-3.1375	-3.0625	-2.4188	-3.3125	-47.921	108.827	-84.690	198.503	-32.867	-42.474	94.493	38.032	74.443	-48.588	103.157	200.242	38.871	172.460	-104.046	197.492	0.00040136	0.00049495	0.00019115	1410.2	1.8179e-06	6.3363e-06	1403.8	378.52	2.0548e-06	7.1487e-06	433.15	141.89	123.25	42.054	2.853e-06	52.235	0.00080302	0.0010167	0.00028474	1430.4	1.0592e-05	1.0805e-05	1421.9	385.8	1.0308e-05	1.0729e-05	441.57	145.33	126.78	43.321	1.079e-05	53.635	-41.905	-21.303	-25.106	-93.671	33.025	33.050	-93.763	-89.032	44.456	53.653	-89.635	-85.231	-84.732	-80.289	71.291	-80.847	-8191	255	
3394.918	1	1	0	0	0.049641	0.12172	0.27869	0.27416	0.082491	0.11889	0.43902	0.2837	0.22477	0.082584	0.09874	0.12563	0.21461	0.029837	0.12702	0.084368	-2.3146	-2.5687	-3.1771	-2.7083	-3.0083	-3.075	-2.5667	-3.4729	-2.8479	-2.6417	-3.3208	-2.5146	-3.0729	-3.2375	-2.5542	-3.2458	11.954	70.092	-104.508	237.686	247.109	-36.255	201.063	222.051	206.423	207.714	144.595	140.215	245.393	142.250	111.361	196.070	0.00035303	0.00067668	0.0001809	1407.7	3.7546e-06	3.4036e-06	1402.1	378.97	6.4216e-06	5.4782e-06	431.97	141.38	124.26	42.198	5.2739e-06	51.869	0.00078522	0.00096476	0.00027417	1425.8	1.0549e-05	1.0915e-05	1418.2	384.72	1.0529e-05	1.138e-05	439.87	144.93	127.31	43.304	1.109e-05	53.493	-43.412	-15.736	-51.143	-93.693	63.630	39.387	-93.649	-89.115	64.240	58.872	-89.870	-85.174	-84.211	-80.093	50.735	-80.874	-8191	255	
3395.012	1	1	0	0	0.17854	0.10143	0.1932	0.35436	0.074364	0.12549	0.1544	0.075494	0.12204	0.16972	0.18856	0.10978	0.076938	0.19826	0.075166	0.29225	-2.4979	-2.6354	-3.4396	-2.7812	-2.8521	-3.1875	-2.6562	-3.2313	-2.8396	-2.6729	-3.4417	-2.6708	-3.0542	-3.2083	-2.5333	-3.3396	52.156	-21.524	118.220	202.439	174.441	-88.174	138.800	58.457	87.165	25.013	151.567	35.953	147.414	237.505	48.687	146.316	0.00035661	0.00050436	0.00014982	1411.2	6.1538e-06	5.1444e-06	1400	377.96	3.5866e-06	5.3102e-06	432.85	141.69	123.4	42.171	3.1403e-06	52	0.00078172	0.0009958	0.00028024	1426	1.0667e-05	1.1102e-05	1418.3	384.47	1.0378e-05	1.1293e-05	441.31	144.94	127.11	43.289	1.1014e-05	53.479	-40.431	-8.986	-14.311	-94.034	31.805	59.598	-93.831	-88.906	37.916	32.509	-89.636	-85.307	-84.648	-80.038	42.939	-80.797	-8191	255	
3395.110	1	1	0	0	0.12906	0.030512	0.19304	0.15522	0.057732	0.105	0.174	0.30581	0.26549	0.13828	0.16684	0.21831	0.12003	0.32451	0.28036	0.2797	-2.6937	-2.5687	-3.2875	-2.625	-2.8	-3.1813	-2.5125	-3.2562	-3.15	-2.5625	-3.3646	-2.7875	-2.8187	-3.3708	-2.2292	-3.2687	-34.201	-3.520	-89.319	232.701	28.002	-99.196	210.605	191.662	132.140	212.154	71.719	242.359	214.110	-97.753	177.078	208.619	0.00038397	0.00057225	9.1989e-05	1405.1	4.1062e-06	3.8108e-06	1399.1	376.47	3.2941e-06	5.0756e-06	434.27	140.93	124.22	42.214	4.979e-06	51.96	0.00077927	0.0010207	0.00027967	1427.7	1.0499e-05	1.1013e-05	1418.8	384.09	1.0068e-05	1.1387e-05	441.37	144.6	127.23	43.315	1.12e-05	53.465	-37.300	-7.923	16.030	-93.777	39.343	23.084	-93.836	-88.986	53.303	44.369	-89.546	-85.052	-84.420	-80.073	36.364	-80.906	-8191	255	
3395.205	1	1	0	0	0.072401	0.13675	0.27417	0.15222	0.21686	0.10241	0.2104	0.14092	0.22689	0.37527	0.12956	0.20573	0.32401	0.13667	0.088398	0.11065	-2.6771	-2.4417	-3.1958	-2.8625	-2.5854	-3.2708	-2.5833	-3.1354	-2.975	-2.4854	-3.3542	-2.9417	-2.7125	-3.3042	-2.6479	-3.0729	154.756	246.122	240.752	212.687	-9.342	37.261	188.620	214.812	8.634	97.167	-37.053	-86.080	229.611	-40.010	-47.220	230.707	0.00039213	0.00051159	0.00022203	1406.3	5.669e-06	3.9594e-06	1396.6	378.82	3.0019e-06	5.649e-06	433.38	141.41	124.1	42.14	5.0256e-06	52.081	0.00079501	0.001062	0.0002891	1424.8	1.0462e-05	1.1487e-05	1418.1	384.61	1.0358e-05	1.188e-05	441.41	145.02	126.99	43.34	1.1081e-05	53.493	-39.935	-34.966	-28.413	-93.841	54.267	30.926	-93.873	-88.803	62.136	23.121	-89.529	-85.263	-84.543	-80.153	52.735	-80.990	-8191	255	
3395.301	1	1	0	0	0.096629	0.11077	0.24515	0.14191	0.078275	0.25036	0.348	0.13624	0.065595	0.11323	0.078529	0.21896	0.069462	0.15147	0.037625	0.066962	-2.7271	-2.4313	-3.2667	-3.0292	-2.4979	-3.3771	-2.8312	-3.0354	-3.4	-2.6542	-3.2021	-3.0208	-2.525	-3.3625	-2.7562	-2.8646	127.883	-103.685	-90.410	190.060	229.577	-38.549	224.923	207.042	80.639	73.425	-103.647	-47.957	216.383	-38.140	1.234	190.289	0.00037491	0.00053515	0.00014778	1409.5	4.3348e-06	4.668e-06	1401.4	376.56	3.6463e-06	6.5276e-06	432.56	140.88	123.71	42.083	8.0785e-06	52.05	0.00077339	0.0010604	0.0002887	1426.8	1.0603e-05	1.1712e-05	1419.3	383.94	1.0301e-05	1.1713e-05	440.71	144.7	127.04	43.316	1.1532e-05	53.422	-40.381	-34.550	8.753	-93.770	50.104	18.651	-93.989	-88.850	26.572	52.829	-89.696	-85.167	-84.438	-80.147	44.001	-81.233	-8191	255	
3395.421	1	1	0	0	0.09208	0.19994	0.14506	0.20104	0.2339	0.17882	0.28901	0.26164	0.081095	0.065877	0.17741	0.09065	0.17421	0.29018	0.27226	0.16515	-2.7896	-2.4146	-3.0896	-3.2208	-2.4938	-3.2708	-2.9271	-2.8396	-3.2792	-2.3167	-3.1375	-3.1479	-2.3646	-3.2708	-2.6271	-2.6896	166.099	-36.131	-15.571	142.206	249.905	214.517	190.899	201.418	145.548	-77.237	200.359	195.875	-90.441	-23.557	-85.971	99.714	0.00042008	0.000451	0.0002091	1407.3	5.9647e-07	5.7863e-06	1398.7	377.8	6.2589e-06	3.762e-06	431.97	141.58	124.13	42.164	5.239e-06	51.955	0.00081284	0.001094	0.0002971	1425	1.1017e-05	1.184e-05	1417.7	384.48	1.0505e-05	1.199e-05	440.37	144.87	126.96	43.361	1.1038e-05	53.475	-43.335	-24.346	-10.179	-93.724	152.671	27.307	-93.916	-89.151	52.242	71.227	-89.652	-85.425	-84.478	-80.223	5.637	-80.944	-8191	255	
3395.516	1	1	0	0	0.054799	0.25605	0.1299	0.2866	0.15807	0.076924	0.18242	0.24102	0.13022	0.19842	0.10803	0.11297	0.062159	0.11492	0.0708	0.11274	-3.0292	-2.5167	-2.9938	-3.4833	-2.5292	-3.225	-3.0167	-2.7333	-3.4062	-2.3937	-3.0563	-3.1854	-2.5833	-3.3417	-2.8229	-2.6208	95.707	1.718	203.384	202.578	166.065	183.294	181.871	155.525	74.199	170.747	164.854	231.272	-98.196	223.536	-64.822	202.440	0.00036256	0.00062964	0.00013589	1409.1	3.978e-06	5.7227e-06	1394.7	378.5	6.2404e-06	6.186e-06	431.82	141.37	124.31	42.137	4.8779e-06	52.076	0.00080164	0.0010754	0.00028469	1425.9	1.0661e-05	1.1468e-05	1415.6	384.07	1.0382e-05	1.1526e-05	439.96	144.78	127.14	43.294	1.0463e-05	53.46	-43.327	-25.153	-5.559	-93.645	80.620	40.238	-93.914	-89.003	38.839	52.027	-89.547	-85.350	-84.405	-80.051	43.859	-80.924	-8191	255	
3395.612	1	1	0	0	0.13478	0.33843	0.33241	0.23214	0.26402	0.076742	0.28256	0.35684	0.012799	0.099011	0.20528	0.19597	0.049572	0.21713	0.23697	0.12977	-2.875	-2.4667	-2.7958	-3.4062	-2.4479	-3.1396	-3.2708	-2.7479	-3.2854	-2.6375	-2.6833	-3.3792	-2.5125	-3.1958	-3.1042	-2.7375	7.538	65.648	-31.804	204.604	104.109	-81.217	155.243	192.529	72.430	62.066	-92.474	-98.370	-27.610	199.392	84.984	-100.073	0.00036778	0.00053001	0.0001324	1403.7	4.5221e-06	3.3855e-06	1400.4	377.47	4.301e-06	2.5207e-06	431.7	142.09	123.56	42.164	2.2964e-06	51.875	0.00078973	0.0010036	0.00026955	1423.9	1.055e-05	1.1173e-05	1416.9	383.87	1.0529e-05	1.1261e-05	440.29	144.91	126.83	43.275	1.0602e-05	53.509	-34.121	-16.426	-33.631	-93.764	59.869	38.117	-93.876	-88.858	17.749	19.528	-89.665	-85.235	-84.505	-79.842	48.966	-80.835	-8191	255	
3395.708	1	1	0	0	0.14435	0.33452	0.13356	0.27699	0.1958	0.25086	0.17948	0.18434	0.092679	0.11112	0.13102	0.33657	0.20245	0.095214	0.13341	0.0095869	-2.9792	-2.7229	-2.6208	-3.5167	-2.5542	-3.1333	-3.2375	-2.5604	-3.0625	-2.9292	-2.7625	-3.3583	-2.7021	-3.1104	-3.2125	-2.5375	27.126	6.327	-86.370	220.679	189.953	-81.822	166.058	184.281	184.656	4.604	-78.207	160.177	110.119	-24.489	124.879	135.970	0.00036056	0.00074879	0.0001793	1404.9	5.742e-06	5.0533e-06	1397.9	376.97	6.055e-06	5.4571e-06	433.8	141.12	123.96	41.922	4.5494e-06	52.096	0.00079894	0.00099462	0.00028136	1425.3	1.0652e-05	1.1047e-05	1416.2	384.05	1.0448e-05	1.1279e-05	440.51	144.51	127	43.255	1.0331e-05	53.519	-45.657	-6.529	-21.807	-93.771	64.669	41.559	-93.936	-89.286	52.512	44.344	-89.511	-85.013	-84.602	-79.920	57.936	-81.089	-8191	255	
3395.804	1	1	0	0	0.15158	0.2785	0.079528	0.29531	0.1037	0.096031	0.32089	0.30549	0.23734	0.19004	0.033365	0.039875	0.14693	0.13008	0.20669	0.17053	-2.9167	-2.9542	-2.5292	-3.55	-2.7854	-3.0167	-3.5646	-2.6271	-3.4229	-3.0354	-2.6625	-3.4979	-2.6042	-2.9542	-3.2938	-2.6	-0.587	186.435	178.647	199.972	-88.572	161.653	119.498	236.772	128.426	-97.387	-78.068	-93.521	91.659	-56.314	132.081	50.639	0.00040845	0.00032186	0.00013659	1409.3	4.3838e-06	4.2079e-06	1400.5	377.19	4.6637e-06	4.2782e-06	429.78	141.65	123.15	42.222	6.2988e-06	51.965	0.00078806	0.00098328	0.00027637	1426.5	1.0447e-05	1.0867e-05	1417.9	383.61	1.0178e-05	1.0351e-05	439.76	145.01	126.75	43.252	1.0064e-05	53.332	-47.666	-14.868	-5.422	-93.657	77.727	29.609	-93.824	-88.880	46.698	51.969	-89.449	-85.069	-84.341	-79.989	39.201	-80.925	-8191	255	
3395.900	1	1	0	0	0.16291	0.10349	0.032865	0.1388	0.24442	0.24942	0.22788	0.26616	0.054586	0.027658	0.11051	0.13168	0.19	0.25575	0.11167	0.2168	-2.8354	-3.0125	-2.4271	-3.4458	-2.7542	-2.9021	-3.4188	-2.5458	-3.1104	-2.9896	-2.675	-3.2917	-2.7521	-2.7396	-3.2292	-2.6042	88.587	44.309	9.154	172.452	90.055	179.592	176.694	-32.334	-61.078	147.079	115.800	180.077	173.659	191.069	47.111	-13.793	0.00039166	0.00051643	0.0002201	1403.3	5.5917e-06	3.6341e-06	1394.3	377.32	4.1717e-06	4.2201e-06	431.65	141.14	124.17	42.037	4.8113e-06	51.782	0.00076038	0.00094431	0.00027267	1422.7	1.0091e-05	1.0467e-05	1416.5	383.83	1.0007e-05	1.0515e-05	439.62	144.57	127.04	43.228	1.0622e-05	53.421	-40.517	-12.546	-15.125	-93.682	63.114	11.836	-93.821	-89.109	52.171	51.307	-89.608	-85.049	-84.392	-80.039	35.562	-80.985	-8191	255	
3395.997	1	1	0	0	0.21921	0.1032	0.26069	0.23364	0.12868	0.22422	0.16235	0.24959	0.28292	0.070482	0.13471	0.24772	0.16318	0.21628	0.24113	0.11969	-2.5875	-3.1708	-2.4333	-3.3854	-2.9813	-2.6208	-3.5563	-2.7583	-3.0458	-3.1771	-2.6042	-3.2417	-2.7896	-2.6063	-3.2979	-2.6604	147.486	42.991	-69.119	160.843	-75.586	-59.297	212.866	237.219	121.884	252.755	123.137	27.273	-7.518	141.029	70.592	-79.356	0.00034901	0.00045881	0.0001067	1407.8	3.4921e-06	4.3697e-06	1398.4	378.11	7.3865e-06	8.294e-06	432.34	141.32	123.62	42.004	5.4493e-06	51.841	0.00078239	0.0010049	0.00028655	1426	1.0483e-05	1.1472e-05	1417.5	384.48	1.0618e-05	1.1328e-05	440.27	144.77	126.78	43.213	1.1394e-05	53.48	-43.867	-0.223	-1.490	-93.637	46.941	48.188	-93.840	-88.866	52.819	45.319	-89.520	-84.792	-84.549	-80.123	48.082	-80.984	-8191	255	
3396.093	1	1	0	0	0.136	0.27413	0.11934	0.099992	0.20823	0.20337	0.14809	0.25361	0.21678	0.099498	0.32975	0.53611	0.024619	0.30956	0.11043	0.13297	-2.5625	-3.2938	-2.2083	-3.4646	-2.8146	-2.6229	-3.4542	-2.6437	-3.0979	-3.1917	-2.35	-3.3271	-3.0396	-2.5917	-3.5021	-2.825	105.194	141.662	245.151	-93.563	211.353	-44.844	7.692	-96.477	-77.137	226.326	219.504	228.122	5.253	-97.342	247.670	239.207	0.00039374	0.00052228	0.00016257	1404.6	5.0132e-06	3.3427e-06	1406.8	376.83	5.4691e-06	4.9121e-06	432.97	141.17	123.63	42.118	7.9239e-06	51.919	0.00080642	0.0010123	0.00030258	1425.8	1.0826e-05	1.1725e-05	1420.5	384.18	1.0771e-05	1.175e-05	441.26	145.07	127.07	43.3	1.1696e-05	53.46	-40.077	-23.908	10.614	-93.632	36.679	60.586	-93.876	-88.928	24.846	24.392	-89.549	-85.012	-84.627	-79.947	44.654	-81.190	-8191	255	
3396.213	1	1	0	0	0.073907	0.27459	0.12052	0.22285	0.047485	0.38732	0.18445	0.12623	0.29724	0.084691	0.14579	0.22554	0.25025	0.26582	0.053621	0.23728	-2.475	-3.2958	-2.4792	-3.3292	-2.9792	-2.5563	-3.4271	-2.6833	-2.7042	-3.4979	-2.7	-3.125	-3.0812	-2.6625	-3.15	-2.9146	-90.973	110.952	64.303	221.946	-44.256	-37.225	171.482	240.444	156.226	235.759	141.921	72.230	191.497	-104.329	181.390	88.701	0.00038676	0.00036171	0.00017684	1402	5.6554e-06	5.3508e-06	1403	377.32	4.4932e-06	3.8831e-06	433.87	141.39	123.52	42.152	5.6739e-06	52.024	0.00084172	0.0010587	0.00031082	1425.4	1.1141e-05	1.2455e-05	1419.6	384	1.1212e-05	1.2228e-05	441.81	145.05	126.81	43.259	1.1864e-05	53.522	-40.864	1.500	-17.408	-93.657	32.146	46.122	-93.745	-89.080	-3.371	46.604	-89.635	-84.957	-84.635	-80.275	51.465	-80.982	-8191	255	
3396.309	1	1	0	0	0.065373	0.15017	0.09522	0.18296	0.34989	0.2707	0.20662	0.2464	0.18827	0.17593	0.020714	0.25504	0.20579	0.149	0.27774	0.11421	-2.4208	-3.2979	-2.5792	-3.1354	-3.3896	-2.4104	-3.4437	-2.9958	-2.4333	-3.3417	-2.6521	-3.0438	-3.2687	-2.6396	-3.2167	-2.9562	141.987	-80.364	79.934	213.291	33.607	140.358	165.324	203.619	228.691	244.464	-11.336	170.827	144.761	199.803	155.944	232.312	0.00044998	0.00074699	0.00011766	1411	6.7707e-06	4.8835e-06	1402.4	376.8	3.8695e-06	5.4936e-06	433.28	141.25	124.05	41.937	3.4831e-06	52.091	0.00084569	0.0010494	0.00031239	1426.4	1.0788e-05	1.2161e-05	1420	384.36	1.0836e-05	1.1923e-05	441.61	144.93	127.06	43.201	1.1214e-05	53.486	-39.456	-29.242	-31.456	-93.602	60.634	51.737	-93.612	-88.903	24.007	76.749	-89.550	-85.021	-84.537	-79.999	37.335	-80.896	-8191	255	
3396.381	1	1	0	0	0.28377	0.061368	0.079054	0.3332	0.14812	0.092411	0.18403	0.22125	0.1874	0.065042	0.13299	0.27543	0.14922	0.27793	0.1738	0.10628	-2.3729	-3.325	-2.5875	-3.1063	-3.2583	-2.5417	-3.3042	-2.9292	-2.375	-3.3667	-2.7146	-2.8146	-3.2417	-2.4896	-3.1333	-3.1771	35.636	114.399	247.222	189.123	233.284	200.354	48.587	45.337	23.984	-38.893	-70.093	-68.926	250.488	-78.617	146.286	8.006	0.00039845	0.00046305	0.00017583	1405.2	3.3175e-06	6.0988e-06	1401.1	377.46	2.2896e-06	5.3287e-06	434.95	141.36	124.33	41.859	4.8979e-06	52.171	0.00080904	0.0010525	0.0002963	1425.8	1.0615e-05	1.2344e-05	1418.4	384.34	1.1114e-05	1.1779e-05	440.78	144.95	127.04	43.244	1.1527e-05	53.458	-48.665	-15.643	-27.388	-93.564	51.349	54.019	-93.751	-88.964	21.299	57.852	-89.583	-84.923	-84.738	-79.936	56.713	-80.889	-8191	255	
3396.502	1	1	0	0	0.091888	0.21252	0.026765	0.09738	0.12001	0.27279	0.14786	0.29441	0.020071	0.087541	0.1098	0.087075	0.15536	0.14933	0.089471	0.068699	-2.2021	-3.3375	-2.7083	-2.7938	-3.4229	-2.5938	-3.1083	-3.2625	-2.3563	-3.1875	-2.8937	-2.8333	-3.3417	-2.6479	-2.8812	-3.325	-73.036	96.535	76.328	248.096	93.911	151.001	31.040	162.956	179.102	33.323	234.253	221.913	58.883	227.591	144.540	70.859	0.00032914	0.00063156	0.00019754	1409	5.4756e-06	3.1521e-06	1400.3	377.41	4.1649e-06	5.1498e-06	433.18	141.07	124.01	41.965	5.1753e-06	51.794	0.00084864	0.0010993	0.00030141	1425.7	1.1361e-05	1.2665e-05	1419	384.27	1.1338e-05	1.2e-05	440.76	144.76	127.16	43.232	1.1112e-05	53.371	-38.472	-22.786	-22.925	-93.650	49.678	68.470	-93.547	-88.912	40.501	35.532	-89.569	-85.250	-84.439	-79.801	49.264	-81.142	-8191	255	
3396.596	1	1	0	0	0.085661	0.16642	0.030764	0.14268	0.19702	0.096055	0.13298	0.073345	0.065788	0.16467	0.13647	0.15975	0.045966	0.15769	0.1243	0.33462	-2.025	-3.175	-2.7771	-2.6562	-3.4771	-2.6708	-3.0312	-3.2792	-2.3625	-3.2208	-3.2083	-2.6417	-3.3021	-2.7271	-2.8896	-3.3833	67.879	-2.427	189.833	247.117	154.462	-53.138	-65.816	-78.104	224.040	132.047	152.706	200.550	48.582	-9.546	-29.835	217.266	0.0003644	0.00042236	0.00016809	1407.6	6.2699e-06	4.8465e-06	1401.6	377.47	3.9514e-06	4.8244e-06	435.01	141.1	123.69	42.125	3.4384e-06	51.928	0.00083584	0.0010519	0.0002851	1425	1.0837e-05	1.2392e-05	1418.8	384.47	1.1302e-05	1.1854e-05	441.02	144.74	127.15	43.247	1.1171e-05	53.475	-46.315	-43.151	-13.640	-93.623	47.763	54.612	-93.686	-89.036	77.846	39.308	-89.327	-85.078	-84.591	-80.168	70.699	-81.064	-8191	255	
3396.692	1	1	0	0	0.10214	0.16314	0.046237	0.13033	0.10362	0.22548	0.11748	0.26333	0.24917	0.22744	0.15476	0.040293	0.16206	0.14823	0.13393	0.20188	-2.1833	-3.0042	-3.1125	-2.5938	-3.1937	-2.6396	-3.0604	-3.425	-2.4854	-3.1625	-3.1146	-2.5083	-3.2438	-2.9	-2.8375	-3.4104	189.393	224.347	68.524	200.922	223.509	-13.806	171.859	235.065	72.488	-103.483	-98.173	240.092	-33.634	-98.302	-50.475	79.655	0.0003869	0.00050711	0.00012943	1405.3	3.9845e-06	3.1492e-06	1400.2	376.64	4.4533e-06	5.6665e-06	432.58	141.57	123.82	42.19	3.582e-06	51.861	0.00083006	0.0010607	0.00029147	1425.8	1.1121e-05	1.1917e-05	1419.7	384.52	1.1323e-05	1.1184e-05	440.53	145.03	126.89	43.266	1.0865e-05	53.488	-35.247	-19.985	-22.477	-93.587	58.541	43.067	-93.543	-88.970	53.958	56.211	-89.641	-84.966	-84.409	-80.099	25.708	-81.055	-8191	255	
3396.813	1	1	0	0	0.054559	0.0096813	0.15303	0.16999	0.048659	0.21747	0.31928	0.21571	0.12057	0.050918	0.054802	0.31194	0.11337	0.29895	0.18957	0.21146	-2.0458	-3.0208	-3.0729	-2.7354	-3.2062	-2.9292	-2.7521	-3.4771	-2.5312	-3.2188	-3.2708	-2.6271	-3.2604	-2.8417	-2.5875	-3.4708	18.367	-103.479	-78.217	191.671	13.336	-69.884	212.201	108.891	-13.124	78.197	159.980	127.093	-42.888	247.612	19.159	152.915	0.00036137	0.00042514	0.00013961	1407.9	4.5844e-06	5.5336e-06	1400	378.19	7.2e-06	5.5546e-06	431.96	141.39	124.45	42.002	1.7292e-06	51.903	0.00082365	0.00099716	0.00028319	1426.2	1.0726e-05	1.1261e-05	1419.2	384.05	1.0742e-05	1.1035e-05	440.28	144.86	127.11	43.238	1.0753e-05	53.555	-38.699	-35.505	-21.208	-93.509	38.455	34.651	-93.724	-88.900	42.572	49.724	-89.684	-85.114	-84.598	-80.237	42.294	-80.966	-8191	255	
3396.909	1	1	0	0	0.062049	0.14661	0.14713	0.33513	0.20306	0.01513	0.37093	0.32615	0.12321	0.053199	0.1783	0.25777	0.099347	0.21644	0.29263	0.28299	-2.3688	-2.8542	-3.2896	-2.4896	-3.2042	-2.9792	-2.5396	-3.4062	-2.5917	-2.5687	-3.1396	-2.4938	-3.2146	-3.025	-2.5708	-3.3875	189.828	28.155	68.615	192.380	-80.856	25.186	208.393	238.914	213.744	117.453	207.171	199.101	7.989	-92.684	147.215	116.594	0.00044919	0.0004461	0.00016742	1410.1	3.9652e-06	4.2194e-06	1399	378.07	3.3087e-06	5.5097e-06	431.47	141.21	123.98	42.052	6.331e-06	51.862	0.0008122	0.0010016	0.0002896	1427.7	1.084e-05	1.1168e-05	1419	384.41	1.1012e-05	1.1338e-05	440.37	145.03	127.19	43.316	1.1607e-05	53.469	-45.696	-39.489	-14.122	-93.744	56.793	5.383	-93.739	-88.824	48.873	35.509	-89.619	-84.928	-84.046	-79.813	49.908	-80.922	-8191	255	
3397.005	1	1	0	0	0.14854	0.11614	0.17104	0.3941	0.10926	0.1537	0.22481	0.10019	0.11349	0.23291	0.082047	0.18323	0.089747	0.12689	0.14707	0.29497	-2.2938	-2.6646	-3.2479	-2.5708	-3.0625	-3.2396	-2.7792	-3.4292	-2.6667	-2.7125	-3.3104	-2.4604	-2.9562	-3.2313	-2.4208	-3.3167	16.019	-42.132	219.043	211.894	-26.077	-46.515	161.076	-105.811	68.272	-1.587	149.047	-85.967	-28.288	-91.142	78.890	216.596	0.00038903	0.00058567	0.00017337	1407.1	6.3079e-06	3.8982e-06	1398.9	378.28	5.3457e-06	5.2053e-06	433.76	141.03	124.41	42.137	4.4457e-06	51.926	0.00084169	0.0010592	0.00030052	1427.1	1.097e-05	1.1941e-05	1419.6	385.1	1.1174e-05	1.1492e-05	441.26	144.75	127.21	43.286	1.1465e-05	53.456	-41.707	-13.201	4.943	-93.627	65.599	25.102	-93.631	-88.900	43.713	56.284	-89.135	-84.867	-84.300	-79.918	73.549	-80.979	-8191	255	
3397.101	1	1	0	0	0.38729	0.15219	0.23385	0.23564	0.030509	0.30302	0.16656	0.092961	0.23881	0.16738	0.24533	0.24898	0.14866	0.25048	0.14759	0.17874	-2.3125	-2.6021	-3.2604	-2.825	-2.8833	-3.0833	-2.4333	-3.5187	-2.7104	-2.4708	-3.3083	-2.7396	-2.8958	-3.0958	-2.4938	-3.2625	138.196	251.130	-104.209	199.071	205.868	-10.696	235.297	220.486	-80.756	187.084	244.144	228.332	214.094	233.622	75.973	132.314	0.00036409	0.00031889	0.00016532	1409.3	5.3368e-06	6.4791e-06	1403.4	378.48	3.6644e-06	4.1883e-06	433.89	141.43	124.31	42.132	3.9937e-06	52.354	0.00078781	0.0010459	0.0002955	1427.5	1.0658e-05	1.1499e-05	1420	385.11	1.061e-05	1.158e-05	441.09	144.91	127.32	43.288	1.2019e-05	53.718	-39.864	-43.615	-39.082	-93.533	48.132	39.964	-93.545	-88.822	27.221	58.941	-89.460	-85.204	-84.227	-80.048	32.996	-80.871	-8191	255	
3397.198	1	1	0	0	0.10496	0.054484	0.092371	0.26318	0.19428	0.339	0.42633	0.19045	0.14287	0.077229	0.3146	0.27363	0.17348	0.12315	0.22709	0.090393	-2.4896	-2.6813	-3.4562	-2.9437	-2.7604	-3.1875	-2.7396	-3.0708	-3.0583	-2.4896	-3.5104	-2.9042	-2.8396	-3.475	-2.4688	-3.2333	179.315	-34.324	-55.295	196.706	-35.213	-0.281	211.748	183.293	104.491	150.673	223.393	-87.471	245.862	-14.325	31.291	127.876	0.00041393	0.00037338	0.00013231	1409.9	4.4529e-06	5.2432e-06	1398.7	377.09	3.6041e-06	4.6034e-06	433.9	140.78	124.17	42.156	5.1809e-06	51.879	0.00080674	0.0010793	0.00030067	1427.7	1.0824e-05	1.1869e-05	1418.7	384.69	1.0824e-05	1.1959e-05	440.86	144.72	127.16	43.284	1.1636e-05	53.399	-40.744	-22.308	-11.396	-93.682	20.361	38.833	-93.798	-88.750	-39.279	42.110	-89.410	-84.993	-84.225	-79.951	30.759	-80.995	-8191	255	
3397.294	1	1	0	0	0.082196	0.18264	0.056061	0.10888	0.032424	0.17771	0.176	0.2486	0.19127	0.2029	0.21488	0.080365	0.12822	0.23809	0.30049	0.03999	-2.8063	-2.4167	-3.3312	-2.7854	-2.6354	-3.3625	-2.8479	-3.3146	-3.1479	-2.5396	-3.4271	-2.9417	-2.6167	-3.3396	-2.6604	-3.0104	130.469	138.675	180.747	-83.860	1.085	149.004	185.281	202.278	-31.241	32.423	207.750	13.176	-64.299	243.250	-95.046	136.021	0.00035363	0.00056881	0.00011607	1408.1	2.8071e-06	5.7196e-06	1398.5	377.25	5.0828e-06	3.0883e-06	434.3	141.23	124.55	42.216	4.6902e-06	52.176	0.0008038	0.001073	0.00029872	1427	1.0647e-05	1.1782e-05	1418.2	384.66	1.0804e-05	1.2116e-05	441.44	144.8	127.32	43.315	1.1643e-05	53.54	-45.675	-20.981	-27.154	-93.589	78.180	51.720	-93.588	-88.949	61.286	25.275	-89.377	-85.214	-84.167	-79.918	91.881	-80.985	-8191	255	
3397.390	1	1	0	0	0.03995	0.35713	0.23508	0.22328	0.20994	0.13019	0.48257	0.16941	0.074043	0.20802	0.12838	0.076446	0.030416	0.34236	0.041293	0.17808	-2.7667	-2.325	-3.0792	-2.9625	-2.4396	-3.3375	-2.8417	-2.9146	-3.2313	-2.5417	-3.2771	-3.0104	-2.5021	-3.3167	-2.6708	-2.8917	13.197	-0.332	67.595	-62.688	237.692	-67.157	199.039	93.672	-73.623	72.478	110.691	-31.559	194.939	180.976	-45.217	17.183	0.00034672	0.00059074	0.00019867	1410.8	4.354e-06	3.9545e-06	1402.8	377.18	5.4738e-06	4.1773e-06	433	141.17	123.87	42.007	4.8826e-06	51.908	0.00083325	0.0010873	0.00031037	1427.2	1.1435e-05	1.2098e-05	1419.6	384.03	1.1416e-05	1.2516e-05	441.27	144.86	127.27	43.344	1.1672e-05	53.485	-35.803	-34.009	-14.532	-93.472	83.456	66.176	-93.942	-88.741	43.390	30.663	-89.303	-85.012	-84.458	-79.800	70.438	-80.945	-8191	255	
3397.509	1	1	0	0	0.25676	0.16746	0.046815	0.23127	0.17836	0.23773	0.25152	0.41271	0.072673	0.16146	0.10946	0.11221	0.16583	0.13724	0.10054	0.39367	-3.025	-2.4104	-2.9958	-3.1917	-2.5896	-3.3667	-2.8063	-2.975	-3.3792	-2.5542	-3.1813	-3.2271	-2.5125	-3.4792	-2.8042	-2.7479	191.597	122.053	86.696	198.164	-0.781	151.975	192.297	216.220	171.947	241.370	100.313	172.533	201.237	113.049	-77.575	174.188	0.00039187	0.00060342	0.00018634	1411.9	4.1289e-06	2.7409e-06	1399.1	377.47	2.4426e-06	6.0047e-06	433.24	141.56	123.93	41.945	3.8586e-06	51.918	0.00085363	0.0011463	0.00030782	1428.9	1.1609e-05	1.2675e-05	1418.6	385.02	1.1273e-05	1.2393e-05	440.72	145.02	127.09	43.319	1.1512e-05	53.55	-41.176	-32.948	-31.514	-93.538	63.704	49.551	-93.560	-88.851	29.825	42.610	-89.453	-84.904	-84.296	-79.910	56.203	-80.762	-8191	255	
3397.605	1	1	0	0	0.095	0.0797	0.15403	0.18228	0.20487	0.089532	0.38709	0.10626	0.032143	0.15531	0.1357	0.10735	0.084513	0.14138	0.01528	0.30294	-2.7687	-2.5896	-3.1479	-3.2438	-2.5083	-3.2021	-3.0021	-2.8583	-3.375	-2.6562	-2.9437	-3.2375	-2.475	-3.3458	-3.0604	-2.6021	-28.901	68.886	164.865	195.334	119.618	13.909	173.076	201.644	54.340	105.267	171.195	129.897	141.162	101.966	94.984	240.507	0.00036354	0.00044669	0.00013408	1408.9	5.025e-06	4.2503e-06	1402.3	378.84	4.0751e-06	4.6512e-06	432.79	141.64	123.83	42.245	7.5931e-06	52.375	0.00082645	0.0011457	0.00030653	1427.1	1.1821e-05	1.2544e-05	1419.6	385.25	1.1534e-05	1.2732e-05	441.13	145.19	127.36	43.445	1.1566e-05	53.741	-44.572	-1.370	-24.670	-93.504	50.716	27.327	-93.742	-88.652	59.524	38.380	-89.396	-84.889	-84.426	-79.606	50.091	-80.642	-8191	255	
3397.677	1	1	0	0	0.12019	0.087008	0.22736	0.42198	0.12611	0.16436	0.33419	0.1746	0.27181	0.18712	0.067574	0.10743	0.049617	0.10441	0.22219	0.071119	-3.0854	-2.6188	-2.7938	-3.4688	-2.5354	-3.0896	-2.9833	-2.6667	-3.2646	-2.6458	-2.9646	-3.3375	-2.5146	-3.2125	-2.9875	-2.6625	-91.762	-2.702	88.800	-96.265	-41.991	86.382	214.540	210.084	15.464	40.675	171.367	196.573	-36.043	236.957	194.710	-54.127	0.00043728	0.0005462	0.00012088	1409.1	2.9604e-06	5.9078e-06	1401	378.2	6.5419e-06	4.4648e-06	433.84	141.53	124.19	42.115	5.356e-06	51.99	0.00088344	0.0011462	0.00031475	1428.8	1.2277e-05	1.275e-05	1420.4	385.37	1.1533e-05	1.2436e-05	441.63	145.08	127.34	43.344	1.1484e-05	53.532	-41.471	-48.952	-8.372	-93.477	50.483	47.230	-93.639	-88.937	47.641	43.726	-89.335	-85.003	-84.256	-79.974	32.159	-80.922	-8191	255	
3397.773	1	1	0	0	0.15186	0.12372	0.39872	0.28835	0.22873	0.057972	0.082611	0.10425	0.28743	0.11424	0.25247	0.35401	0.23027	0.066765	0.17541	0.094533	-3.0042	-2.5396	-2.6792	-3.4667	-2.4646	-3.075	-3.1688	-2.575	-3.3125	-2.8375	-2.8354	-3.4667	-2.4437	-2.9979	-3.1875	-2.65	-26.718	-67.049	160.512	252.336	184.177	12.123	131.228	159.665	-58.120	51.024	210.001	219.832	176.652	125.995	39.179	193.625	0.00042221	0.00044094	0.00015844	1406.9	5.195e-06	5.228e-06	1404.6	376.94	4.1848e-06	6.7582e-06	432.21	141.24	124.34	42.205	5.2506e-06	52.219	0.00085541	0.0011198	0.00030381	1428.2	1.2103e-05	1.2188e-05	1423.4	384.81	1.1679e-05	1.2549e-05	441.33	145.14	127.29	43.42	1.1625e-05	53.665	-41.365	-11.191	-6.870	-93.621	64.044	36.498	-93.567	-88.792	73.697	43.198	-89.262	-85.099	-84.504	-79.931	36.533	-80.999	-8191	255	
3397.893	1	1	0	0	0.25256	0.14481	0.14231	0.14077	0.15605	0.33636	0.0091966	0.22	0.090511	0.18681	0.2183	0.15213	0.10383	0.15826	0.036175	0.21471	-2.9104	-2.675	-2.6937	-3.6333	-2.4917	-2.9188	-3.4188	-2.6167	-3.3042	-2.9167	-2.7583	-3.3229	-2.5833	-2.875	-3.3729	-2.5896	163.336	236.307	165.662	180.529	140.375	69.219	196.618	242.705	-34.488	41.865	-99.196	-100.445	164.829	47.177	108.126	168.846	0.00034008	0.00052876	0.00014258	1410.7	6.3374e-06	2.1753e-06	1404.5	378.28	2.5003e-06	5.9852e-06	434.86	142.17	124.67	42.359	5.2358e-06	52.095	0.00086335	0.0011224	0.00030931	1430.3	1.198e-05	1.2576e-05	1421.4	385.26	1.1592e-05	1.21e-05	442.32	145.33	127.48	43.426	1.1707e-05	53.576	-42.601	-4.056	-26.984	-93.703	4.368	18.693	-93.838	-89.169	-0.705	14.471	-89.751	-85.150	-84.415	-80.307	49.544	-80.867	-8191	255	
3397.990	1	1	0	0	0.23786	0.16144	0.018612	0.19389	0.23226	0.09486	0.21339	0.22849	0.15852	0.086431	0.1713	0.11137	0.25777	0.21493	0.14699	0.23847	-2.8625	-2.8375	-2.4708	-3.4042	-2.7646	-2.7562	-3.6271	-2.6625	-3.0187	-3.1354	-2.6437	-3.4562	-2.8729	-2.9625	-3.2417	-2.7104	60.190	-45.815	4.580	-83.538	6.455	168.170	-106.907	203.539	73.555	98.002	144.815	248.950	-2.677	211.087	181.987	-99.851	0.00040726	0.00038582	0.00014889	1408.2	4.807e-06	3.4063e-06	1400.1	377.78	5.9846e-06	5.5365e-06	433.38	141.91	123.86	42.147	6.8889e-06	51.884	0.00085934	0.0010954	0.00031743	1427	1.1695e-05	1.2202e-05	1421.5	384.66	1.128e-05	1.2062e-05	441.68	145.36	127.18	43.385	1.1885e-05	53.543	-41.743	-4.983	-13.079	-93.648	31.322	21.691	-93.670	-89.140	27.444	48.619	-89.701	-85.042	-84.487	-80.184	35.549	-80.800	-8191	255	
3398.086	1	1	0	0	0.22929	0.25786	0.26624	0.34985	0.10651	0.14257	0.22387	0.25686	0.070859	0.05327	0.060501	0.17496	0.054162	0.10866	0.12407	0.10579	-2.5729	-2.9813	-2.4813	-3.375	-2.8438	-2.7687	-3.5125	-2.6792	-2.9896	-3.1854	-2.5875	-3.3292	-2.9646	-2.6083	-3.4021	-2.6104	238.782	141.129	-12.281	248.875	-38.280	112.783	144.054	133.724	185.227	36.992	164.230	91.497	-87.206	175.620	132.075	71.145	0.00034328	0.00044911	0.00013219	1408.7	5.7299e-06	4.6661e-06	1401.9	378.37	2.7096e-06	3.3834e-06	432.68	141.97	124.47	42.356	5.8708e-06	52.23	0.00084289	0.001077	0.00032193	1430.2	1.159e-05	1.2445e-05	1421.3	384.94	1.1355e-05	1.185e-05	441.62	145.63	127.67	43.456	1.2077e-05	53.628	-44.541	-12.771	-26.928	-93.554	59.429	36.034	-93.620	-88.811	56.422	32.941	-89.542	-85.217	-84.446	-80.221	14.449	-80.826	-8191	255	
3398.182	1	1	0	0	0.17523	0.069457	0.15341	0.18299	0.11161	0.15644	0.20745	0.18126	0.28045	0.10225	0.091365	0.2332	0.29537	0.38766	0.076498	0.11003	-2.6083	-3.1	-2.55	-3.4708	-2.7938	-2.5312	-3.5729	-2.6562	-3.0708	-3.3417	-2.6188	-3.3396	-3.075	-2.5938	-3.3063	-2.7958	202.322	-11.483	85.337	200.431	28.077	191.082	217.123	157.784	248.244	12.985	178.061	195.423	183.440	-48.718	22.913	154.723	0.00044512	0.00049467	0.00017945	1410.8	6.5462e-06	3.9473e-06	1404	377.4	6.4216e-06	6.2543e-06	434.76	142.21	124.2	42.138	5.2533e-06	52.239	0.00085271	0.001126	0.00031387	1431.3	1.1517e-05	1.2478e-05	1423.8	384.78	1.1466e-05	1.2639e-05	442.03	145.51	127.43	43.385	1.1876e-05	53.589	-40.925	-25.914	-13.460	-93.584	24.836	51.103	-93.856	-88.801	62.037	48.055	-89.485	-85.110	-84.326	-80.024	33.088	-81.079	-8191	255	
3398.302	1	1	0	0	0.24934	0.16271	0.36768	0.3832	0.15157	0.1652	0.17912	0.18425	0.08674	0.21494	0.25074	0.22263	0.048653	0.17767	0.25538	0.29184	-2.3312	-3.1875	-2.5104	-3.3396	-2.9396	-2.5062	-3.5062	-2.8312	-2.7521	-3.3021	-2.6208	-3.2479	-3.075	-2.5229	-3.3167	-2.9792	131.071	-31.110	120.028	184.703	132.633	92.608	251.971	11.636	-60.770	-37.533	173.478	245.764	49.496	38.274	-11.913	203.612	0.0003862	0.00040094	0.00011611	1413	4.6463e-06	3.3804e-06	1408.1	377.93	3.4544e-06	5.6804e-06	434.39	141.83	124.46	42.163	6.265e-06	52.179	0.00084786	0.0011219	0.00032702	1430.2	1.1603e-05	1.3278e-05	1423.7	385.44	1.184e-05	1.2812e-05	442.22	145.36	127.36	43.371	1.2309e-05	53.616	-42.154	-43.601	-21.295	-93.411	76.301	48.873	-93.715	-88.937	57.451	36.315	-89.335	-85.059	-84.509	-80.249	39.967	-80.907	-8191	255	
3398.374	1	1	0	0	0.32265	0.076645	0.24641	0.41635	0.10346	0.13755	0.097363	0.1108	0.12154	0.10329	0.17597	0.090547	0.30047	0.15238	0.14365	0.15845	-2.5062	-3.075	-2.5854	-3.1583	-3.2104	-2.6188	-3.5125	-2.9167	-2.6604	-3.3292	-2.7729	-2.875	-3.3646	-2.4375	-3.2729	-2.9188	106.739	-27.665	161.372	198.424	206.148	66.486	15.990	172.410	134.641	121.895	202.348	-96.618	172.824	97.715	159.551	230.844	0.0003779	0.00059526	0.00017799	1408.1	4.2277e-06	4.9303e-06	1400.5	380.11	6.1082e-06	4.7034e-06	432.99	141.91	124.73	42.422	4.0243e-06	51.812	0.0008788	0.0011458	0.00033023	1429.1	1.1262e-05	1.317e-05	1421.8	386.02	1.1756e-05	1.2629e-05	442.09	145.32	127.7	43.465	1.1873e-05	53.53	-39.971	-1.416	-32.904	-93.411	54.790	49.101	-93.763	-89.015	39.560	45.492	-89.578	-85.131	-84.385	-80.179	2.597	-80.966	-8191	255	
3398.495	1	1	0	0	0.10202	0.038832	0.025985	0.11724	0.11886	0.16237	0.27542	0.21426	0.21604	0.13269	0.25051	0.13161	0.10361	0.21422	0.15305	0.29428	-2.0354	-3.2938	-2.6562	-3.0896	-3.3771	-2.5292	-3.3187	-3.1271	-2.6167	-3.4188	-2.7604	-2.8875	-3.3625	-2.6854	-3.1375	-3.0979	-75.695	195.018	126.098	226.272	60.572	-82.115	252.264	194.357	151.414	23.032	186.659	214.157	-101.536	203.853	151.726	212.789	0.00040056	0.00046721	0.00018738	1412.2	3.5991e-06	3.884e-06	1406.3	378.15	6.3346e-06	4.7051e-06	433.99	141.73	124.2	42.21	6.1389e-06	52.001	0.00085512	0.001127	0.00030798	1431.9	1.1542e-05	1.3358e-05	1423.1	385.18	1.1635e-05	1.2424e-05	442.19	145.46	127.52	43.409	1.194e-05	53.61	-44.011	-7.707	-21.495	-93.602	48.122	41.699	-93.785	-89.020	34.846	30.399	-89.525	-85.012	-84.376	-80.227	44.293	-81.098	-8191	255	
3398.589	1	1	0	0	0.087419	0.26324	0.23762	0.10302	0.11555	0.072445	0.15443	0.01086	0.14864	0.17326	0.12382	0.17629	0.11673	0.14252	0.18446	0.23635	-2.0271	-3.4562	-2.7687	-2.825	-3.4083	-2.4625	-3.3646	-3.0646	-2.4396	-3.3896	-2.8812	-2.8187	-3.3021	-2.4479	-3.1375	-3.2083	221.442	-39.831	146.349	27.030	-41.370	24.964	205.826	51.117	-65.263	113.658	200.046	-67.627	169.884	133.591	-54.164	171.030	0.00038396	0.00055055	0.00015881	1411	7.1359e-06	4.8581e-06	1400.5	379.26	3.3797e-06	4.5159e-06	432.72	141.09	124.45	42.1	4.2803e-06	52.285	0.00089298	0.0011345	0.00031025	1430.6	1.1725e-05	1.3259e-05	1420.7	386.03	1.2175e-05	1.2965e-05	442.33	145.24	127.69	43.384	1.2201e-05	53.6	-40.912	-24.867	-14.153	-93.691	38.142	39.093	-93.588	-89.156	84.301	64.549	-89.847	-85.079	-84.422	-80.027	16.443	-81.047	-8191	255	
3398.685	1	1	0	0	0.09241	0.12222	0.1409	0.33787	0.085166	0.04273	0.25684	0.19875	0.16345	0.24969	0.13518	0.3134	0.10772	0.16625	0.065087	0.11704	-2.2042	-3.3438	-2.8292	-2.7979	-3.2646	-2.5938	-3.2542	-3.3604	-2.6188	-3.2521	-3.025	-2.5083	-3.4188	-2.7417	-2.8125	-3.3958	179.958	34.531	36.630	-105.765	-52.308	184.316	-91.173	-72.941	15.900	11.425	120.241	-94.480	28.554	-99.769	207.907	76.051	0.00038813	0.00035915	0.00015373	1417	4.9731e-06	4.341e-06	1401	377.74	2.8727e-06	5.6041e-06	433.25	141.99	124.89	42.273	5.1285e-06	52.002	0.00090173	0.0011659	0.00032297	1431.8	1.2082e-05	1.336e-05	1421.5	385.43	1.1806e-05	1.2913e-05	442.15	145.58	127.95	43.432	1.179e-05	53.542	-43.770	-4.891	-7.145	-93.669	13.712	45.438	-93.584	-88.904	55.092	45.642	-89.472	-85.200	-84.454	-80.279	89.690	-80.950	-8191	255	
3398.781	1	1	0	0	0.32677	0.043223	0.30182	0.19989	0.12237	0.1773	0.13546	0.22792	0.10947	0.1244	0.18343	0.081463	0.13786	0.2557	0.20541	0.2559	-2.0521	-3.2083	-3.0104	-2.75	-3.4146	-2.6333	-2.9417	-3.3896	-2.5646	-3.1521	-3.275	-2.6708	-3.3604	-2.7438	-2.6833	-3.5312	134.110	62.915	53.519	170.087	92.391	138.592	170.071	176.783	244.004	180.471	-11.793	-68.097	249.311	-50.919	-90.433	193.261	0.00041019	0.00028696	0.00010441	1410.5	2.4874e-06	5.1451e-06	1403.1	378.92	2.8989e-06	4.8164e-06	432.56	141.95	124.48	42.19	5.8841e-06	52.194	0.00089089	0.0011275	0.00030903	1430.8	1.1485e-05	1.2774e-05	1422.4	385.66	1.1958e-05	1.2561e-05	442.32	145.41	127.73	43.459	1.2131e-05	53.626	-50.022	6.468	-7.278	-93.646	48.589	47.253	-93.787	-88.794	20.447	58.847	-89.606	-85.198	-84.309	-80.174	69.654	-80.990	-8191	255	
3398.902	1	1	0	0	0.12553	0.12098	0.043976	0.17214	0.16033	0.22999	0.11762	0.13511	0.21359	0.11815	0.12028	0.10044	0.36165	0.24857	0.32417	0.088191	-2.0687	-3.025	-3.0958	-2.7333	-3.2708	-2.9437	-2.8271	-3.4688	-2.65	-3.1063	-3.3667	-2.6646	-3.4437	-3.1104	-2.7292	-3.4646	158.413	235.670	-29.576	224.064	226.882	233.060	153.778	241.931	-17.367	27.334	248.986	191.952	225.075	-82.499	237.691	208.850	0.00039484	0.00048695	0.00015356	1413.9	4.7509e-06	5.8047e-06	1403.7	379.23	4.915e-06	4.8071e-06	432.81	141.56	124.73	42.171	3.4679e-06	52.222	0.00087196	0.0011131	0.00030882	1431.8	1.1851e-05	1.271e-05	1423	386.26	1.1886e-05	1.2428e-05	441.82	145.31	127.78	43.398	1.2103e-05	53.678	-39.743	-11.092	-13.813	-93.592	55.524	35.841	-93.764	-88.962	22.685	53.898	-89.667	-84.874	-84.440	-79.759	43.724	-80.927	-8191	255	
3398.974	1	1	0	0	0.079268	0.079994	0.22636	0.11874	0.089244	0.063042	0.098513	0.13199	0.15366	0.19678	0.11236	0.073162	0.094554	0.10836	0.22353	0.14558	-2.2938	-2.8917	-3.1458	-2.7604	-3.3458	-3.1083	-2.8333	-3.4646	-2.6646	-2.9979	-3.4896	-2.7583	-3.2146	-3.0812	-2.6188	-3.4562	46.812	45.795	130.188	-79.737	-15.733	-54.868	196.397	-37.337	175.482	-64.665	204.357	88.966	192.981	195.178	197.775	210.663	0.00038192	0.00029161	0.00015066	1415.3	4.604e-06	5.4898e-06	1405.4	378.81	5.4431e-06	3.7415e-06	434.53	141.63	124.67	42.202	5.3505e-06	51.914	0.00088975	0.0011078	0.00031475	1433	1.1787e-05	1.263e-05	1425.3	385.84	1.1872e-05	1.2651e-05	442.46	145.45	127.74	43.443	1.2637e-05	53.667	-42.475	-11.749	-4.896	-93.585	48.420	47.558	-93.598	-89.012	94.026	29.327	-89.556	-85.168	-84.328	-80.106	3.465	-80.634	-8191	255	
3399.070	1	1	0	0	0.19199	0.23656	0.14743	0.15444	0.2038	0.073916	0.2658	0.18873	0.066097	0.12551	0.35627	0.41607	0.23912	0.03484	0.13686	0.16604	-2.4125	-2.75	-3.2292	-2.75	-3.1542	-2.95	-2.7812	-3.5354	-2.6937	-2.6542	-3.3937	-2.5687	-3.0104	-3.0917	-2.5417	-3.3958	163.123	122.299	170.092	148.303	-0.663	-22.586	150.452	167.501	-20.944	149.587	184.999	-65.569	110.896	218.068	230.488	201.086	0.00040469	0.00055934	6.6533e-05	1410.1	6.0626e-06	5.2813e-06	1407.7	378.9	4.9164e-06	5.671e-06	435.6	142.28	124.56	42.304	4.2447e-06	52.25	0.00090219	0.0011747	0.00033038	1430.6	1.1854e-05	1.3162e-05	1424.2	386.26	1.1938e-05	1.2932e-05	443.33	145.52	127.57	43.455	1.2604e-05	53.736	-41.534	-26.042	-23.310	-93.583	26.097	39.226	-93.713	-88.833	39.822	86.895	-89.561	-84.996	-84.326	-80.151	69.024	-80.642	-8191	255	
3399.166	1	1	0	0	0.11887	0.25993	0.20235	0.11578	0.22143	0.060002	0.21264	0.38329	0.096105	0.18596	0.18488	0.12407	0.13197	0.09495	0.1189	0.13439	-2.3521	-2.6542	-3.3458	-2.5917	-2.9271	-3.1583	-2.7854	-3.3812	-2.9542	-2.6646	-3.3771	-2.8229	-2.8958	-3.2646	-2.4521	-3.2479	148.762	-57.264	154.590	219.044	-99.013	111.666	170.452	169.640	-89.877	-32.081	238.350	37.479	-60.025	14.521	-71.324	-33.243	0.00035225	0.00056928	0.00014322	1413.1	7.1825e-06	6.0795e-06	1405.5	378.23	5.1928e-06	5.8673e-06	434.12	141.62	125.38	42.452	7.2462e-06	51.91	0.00086686	0.0011831	0.00032304	1430.6	1.1909e-05	1.2681e-05	1424.2	385.93	1.1694e-05	1.3217e-05	442.71	145.23	127.9	43.499	1.2933e-05	53.679	-43.451	-5.438	-27.540	-93.645	56.139	47.810	-93.659	-88.819	44.840	34.207	-89.689	-85.079	-84.318	-80.095	42.233	-81.092	-8191	255	
3399.287	1	1	0	0	0.16562	0.083726	0.26701	0.47355	0.023789	0.21025	0.022945	0.19985	0.1653	0.094323	0.17415	0.022834	0.087372	0.14762	0.22324	0.13322	-2.5687	-2.7	-3.5104	-2.9979	-2.9688	-3.3083	-2.6188	-3.1917	-3.0604	-2.6979	-3.5042	-2.8708	-2.6771	-3.4208	-2.5208	-3.2604	72.068	20.443	206.454	243.529	111.653	-68.103	47.987	252.920	-65.443	-79.717	22.020	241.562	223.619	208.492	54.996	232.577	0.00038046	0.00059216	0.00014096	1415.1	5.0255e-06	5.5524e-06	1405.5	378.7	3.8167e-06	2.8103e-06	434.55	142.07	124.94	42.285	5.7652e-06	52.181	0.00085948	0.0011841	0.00032521	1430.7	1.1908e-05	1.3089e-05	1423.9	385.31	1.1927e-05	1.3121e-05	443.37	145.39	127.81	43.456	1.2721e-05	53.686	-44.608	-20.587	-11.114	-93.710	40.889	35.645	-93.740	-89.036	28.612	8.753	-89.531	-84.956	-84.288	-79.996	65.965	-80.983	-8191	255	
3399.381	1	1	0	0	0.10907	0.27874	0.18386	0.13557	0.22774	0.22273	0.1859	0.15001	0.20119	0.24256	0.059357	0.34253	0.027381	0.3336	0.27755	0.18244	-2.5458	-2.5208	-3.3396	-2.9396	-2.875	-3.4313	-2.7229	-3.225	-3.0854	-2.5	-3.5687	-2.9813	-2.6917	-3.425	-2.575	-3.1813	99.315	-100.227	67.250	80.286	42.947	-16.522	187.651	242.705	91.835	-78.746	115.831	207.755	201.577	237.694	-23.569	230.991	0.00039263	0.00065135	0.0002134	1412.9	5.8812e-06	5.7329e-06	1402.4	379.64	1.5276e-06	2.5999e-06	433.38	142.18	124.01	42.218	5.1375e-06	52.037	0.00088157	0.0012072	0.00033422	1430.7	1.1836e-05	1.3757e-05	1423.5	386.61	1.2002e-05	1.3341e-05	442.57	145.64	127.6	43.476	1.2609e-05	53.674	-36.915	-18.527	-18.649	-93.483	53.151	23.042	-93.704	-88.758	56.597	38.698	-89.599	-84.913	-84.050	-80.111	27.519	-80.768	-8191	255	
3399.477	1	1	0	0	0.11101	0.20406	0.19539	0.224	0.087081	0.11212	0.2089	0.053249	0.10628	0.20066	0.23757	0.10091	0.10434	0.058963	0.31625	0.08227	-2.8729	-2.3542	-3.2396	-2.9542	-2.4688	-3.4104	-2.5792	-2.9479	-3.1854	-2.5833	-3.325	-2.9688	-2.5312	-3.525	-2.7	-2.9229	-67.609	30.016	93.613	-80.892	198.487	76.458	183.762	249.186	-99.933	64.485	-106.144	204.613	94.167	170.771	-50.930	145.571	0.00037025	0.00047802	0.00016814	1408.1	7.4744e-06	5.3555e-06	1402.9	379.8	2.5308e-06	4.7452e-06	434.75	141.75	124.11	42.332	5.0896e-06	52.247	0.00088245	0.0012237	0.00032918	1430.1	1.2404e-05	1.3653e-05	1423.8	386.12	1.2084e-05	1.3811e-05	443.23	145.31	127.72	43.545	1.2988e-05	53.68	-38.585	-20.490	-6.113	-93.670	68.769	44.098	-93.808	-88.917	24.403	54.783	-89.443	-84.928	-84.396	-80.083	45.291	-80.726	-8191	255	
3399.575	1	1	0	0	0.15839	0.051792	0.25349	0.072377	0.27178	0.2031	0.12536	0.25387	0.093374	0.18884	0.16774	0.25991	0.40009	0.12098	0.25584	0.19027	-2.8688	-2.2812	-3.1625	-3.2229	-2.4667	-3.2729	-2.8229	-2.9146	-3.3521	-2.5062	-3.2708	-3.1729	-2.4917	-3.3729	-2.8187	-2.6979	125.335	67.415	199.941	124.694	73.134	20.932	209.536	198.807	149.718	98.381	174.931	220.615	-49.740	61.666	24.253	-40.708	0.00036043	0.000571	0.000206	1408.1	2.3124e-06	4.309e-06	1406	378.73	6.054e-06	6.3318e-06	436.11	141.96	124.67	42.283	4.5475e-06	52.236	0.00091474	0.0012856	0.00034144	1429.9	1.2692e-05	1.4038e-05	1423.8	386.07	1.221e-05	1.3705e-05	443.93	145.62	127.75	43.521	1.2762e-05	53.698	-40.753	-12.894	-11.029	-93.555	37.251	42.377	-93.615	-88.739	39.938	55.410	-89.171	-85.372	-84.102	-79.899	43.705	-80.798	-8191	255	
3399.670	1	1	0	0	0.11945	0.30308	0.18225	0.20614	0.044575	0.14151	0.15036	0.086122	0.056336	0.29839	0.083061	0.096409	0.094719	0.14252	0.15696	0.11874	-2.8375	-2.5396	-3.0958	-3.2458	-2.6083	-3.45	-2.9	-2.6688	-3.4042	-2.5708	-3.1104	-3.2646	-2.7021	-3.4208	-2.9667	-2.7833	70.104	88.761	197.519	195.460	89.617	-34.687	138.200	-93.074	147.553	215.997	-81.536	-76.823	-2.322	230.998	42.135	199.063	0.00039586	0.00066535	0.0001563	1411.2	4.2092e-06	4.8432e-06	1404.9	379.03	2.1327e-06	5.0675e-06	435.52	141.6	124.51	42.284	7.2186e-06	52.42	0.00091517	0.0012346	0.00032871	1430.9	1.2705e-05	1.3541e-05	1424.8	386.37	1.2003e-05	1.3632e-05	443.01	145.4	127.62	43.516	1.2642e-05	53.777	-49.633	-16.493	-24.815	-93.504	24.867	54.709	-93.751	-88.930	25.667	45.864	-89.743	-85.294	-84.492	-80.036	49.705	-80.932	-8191	255	
3399.766	1	1	0	0	0.12037	0.25603	0.09255	0.146	0.22693	0.16223	0.2243	0.19138	0.18376	0.081475	0.24299	0.09376	0.14233	0.11877	0.041419	0.12639	-3.025	-2.5938	-2.9313	-3.5125	-2.5021	-3.2062	-3.1208	-2.7771	-3.4604	-2.6937	-3.0292	-3.3625	-2.4688	-3.2396	-3.025	-2.6104	43.882	-21.549	18.547	-74.596	83.001	238.213	98.997	106.512	127.799	-74.495	176.245	3.017	69.562	-7.273	-19.427	100.649	0.00034456	0.00040244	0.00012518	1413.3	4.3977e-06	4.1936e-06	1402.1	378.28	7.6466e-06	6.1902e-06	436.41	141.91	124.1	42.381	3.8605e-06	52.078	0.00090868	0.0011943	0.0003276	1432.5	1.2708e-05	1.312e-05	1424.1	385.77	1.2227e-05	1.3346e-05	443.07	145.65	127.74	43.534	1.2347e-05	53.603	-42.223	-51.111	-3.684	-93.662	70.363	50.054	-93.600	-88.884	44.510	57.817	-89.680	-85.189	-84.333	-80.180	47.107	-81.304	-8191	255	
3399.862	1	1	0	0	0.098258	0.16654	0.21686	0.15532	0.078074	0.27924	0.15155	0.34975	0.19214	0.12866	0.1273	0.092317	0.12504	0.17879	0.17276	0.21953	-2.9667	-2.7333	-2.7708	-3.3583	-2.6479	-3.1792	-3.3063	-2.6437	-3.3438	-2.8417	-2.5062	-3.5687	-2.4562	-3.1729	-3.2708	-2.6458	148.313	197.247	103.773	180.798	-62.979	209.461	185.039	149.631	67.765	212.770	199.424	247.622	95.811	-96.165	118.356	166.974	0.00036112	0.00050441	0.00011183	1412.8	4.5006e-06	5.9697e-06	1403.5	380.86	5.1302e-06	3.531e-06	435.77	141.43	124.48	42.381	1.97e-06	52.048	0.00091088	0.0012234	0.00032447	1434.2	1.2535e-05	1.3052e-05	1424.3	386.88	1.2115e-05	1.2974e-05	443.33	145.55	127.63	43.506	1.2528e-05	53.612	-39.597	-14.232	-45.476	-93.571	38.967	13.583	-93.634	-88.929	13.795	49.494	-89.218	-85.093	-84.019	-79.707	89.777	-80.808	-8191	255	
3399.982	1	1	0	0	0.22481	0.19311	0.03919	0.1075	0.12379	0.12462	0.20207	0.20229	0.31354	0.18998	0.30826	0.28023	0.12154	0.14199	0.30314	0.083585	-2.7417	-2.9375	-2.4208	-3.4771	-2.6292	-3.0729	-3.4375	-2.5812	-3.3583	-3.0521	-2.7771	-3.3833	-2.8292	-3.0958	-3.225	-2.5958	98.819	-26.292	-15.093	-93.473	-54.724	7.147	98.036	-90.746	75.841	36.121	172.281	215.073	183.297	-100.302	41.968	235.975	0.00037079	0.00062057	0.00012564	1413.8	4.7833e-06	4.2202e-06	1405	379.88	7.3719e-06	3.2119e-06	435.08	141.98	124.26	42.21	5.8383e-06	52.064	0.0009034	0.001194	0.0003356	1433.7	1.2317e-05	1.3639e-05	1424.4	386.99	1.2349e-05	1.3384e-05	443.52	145.4	127.72	43.479	1.2812e-05	53.613	-34.545	-3.295	-25.815	-93.523	62.115	13.693	-93.813	-89.004	45.078	27.957	-89.236	-85.085	-84.782	-79.847	41.851	-80.757	-8191	255	
3400.079	1	1	0	0	0.29927	0.21807	0.18571	0.43065	0.081619	0.29773	0.091086	0.12948	0.21833	0.20309	0.21488	0.16578	0.21455	0.02987	0.16004	0.19149	-2.9354	-2.9104	-2.5167	-3.5604	-2.725	-2.9042	-3.5854	-2.5312	-3.0917	-3.0875	-2.5396	-3.4542	-2.7562	-2.8375	-3.3979	-2.7667	141.063	28.189	179.543	220.324	179.947	-84.025	214.551	177.252	150.668	73.048	182.543	185.876	119.520	60.433	-44.218	145.742	0.00036971	0.00072919	0.00015405	1411.1	5.6124e-06	6.6052e-06	1402.9	379.79	6.5852e-06	4.7491e-06	432.46	142.22	124.91	42.226	3.0026e-06	52.069	0.00092382	0.001151	0.00033752	1432.4	1.2221e-05	1.3471e-05	1424.9	386.62	1.2077e-05	1.298e-05	442.71	145.81	127.86	43.489	1.2482e-05	53.677	-40.501	-15.243	-9.818	-93.586	38.231	40.127	-93.818	-88.828	50.129	29.982	-89.208	-84.927	-84.203	-79.867	34.126	-80.737	-8191	255	
3400.175	1	1	0	0	0.037422	0.087577	0.20202	0.18689	0.37843	0.22529	0.22187	0.16887	0.06706	0.077792	0.092338	0.13372	0.094029	0.23943	0.059826	0.11659	-2.8333	-3.0042	-2.425	-3.4375	-2.6729	-2.6771	-3.5125	-2.6042	-3.0479	-3.1729	-2.7708	-3.5	-2.9188	-2.6312	-3.3896	-2.6688	-30.210	127.779	91.487	219.439	112.581	198.445	210.240	168.219	119.067	36.802	-19.026	-60.911	39.333	-105.227	-42.368	239.799	0.00034959	0.00049602	0.00022037	1417.1	4.9541e-06	4.9274e-06	1405.8	379.01	5.7727e-06	5.4163e-06	435.71	141.65	124.56	42.226	6.3766e-06	52.093	0.00087639	0.0011628	0.00034315	1433.7	1.2204e-05	1.3251e-05	1424.1	385.74	1.1914e-05	1.2819e-05	443.18	145.52	127.62	43.515	1.2261e-05	53.572	-38.988	-30.208	-19.799	-93.402	25.927	37.566	-93.644	-88.907	41.214	33.658	-89.193	-85.104	-84.413	-79.885	72.206	-80.967	-8191	255	
3400.271	1	1	0	0	0.34126	0.070763	0.070756	0.19113	0.075872	0.21962	0.08172	0.023639	0.22666	0.31806	0.081078	0.079954	0.34129	0.06782	0.22015	0.23803	-2.4938	-3.2021	-2.4375	-3.2438	-2.925	-2.5979	-3.6979	-2.6583	-2.9625	-3.3729	-2.6208	-3.1562	-2.9354	-2.7375	-3.1583	-2.8458	-80.104	128.117	89.900	223.859	159.045	107.069	170.173	154.991	226.863	188.523	-105.363	-82.094	-55.584	128.173	-3.313	-105.652	0.00037	0.00061479	0.00014525	1415.1	4.3096e-06	3.3633e-06	1402.2	379.08	5.7899e-06	4.2837e-06	434.9	141.87	123.73	42.218	6.7549e-06	52.122	0.00086849	0.001133	0.0003356	1433.4	1.1677e-05	1.3033e-05	1424.7	385.83	1.1684e-05	1.2591e-05	442.59	145.6	127.72	43.51	1.2499e-05	53.674	-35.641	-1.029	-17.535	-93.382	9.553	59.768	-93.623	-89.157	59.707	22.357	-89.712	-85.161	-84.289	-80.176	58.582	-81.123	-8191	255	
#DATA ENDS
