BOXY.EXE: ISS Imagent and Oximeter Data Acquisition Program Version 0.80
Ascii Record File

#ACQ INFORMATION
2  Detector Channels 
16  External MUX Channels 
1  Auxiliary Channels 
5000  Waveform (CCF) Frequency (Hz)
1  Waveforms Skipped 
30  Waveforms Averaged 
1  Cycles Averaged 
16  Acquisitions per Waveform 
10.0806  Updata Rate (Hz) 

#FILE INFORMATION
TRUE -- External MUX Channel results are PARSED.
FALSE -- AC DC and Phase are NOT grouped.
TRUE -- Companion Program Settings File CREATED.
FALSE -- AC data not excluded
FALSE -- DC data not excluded
FALSE -- Phase data not excluded
FALSE -- Auxillary Chn. data not excluded
Tab delimiters

#CALIBRATION STATE
TRUE -- Waveform Calibration Values APPLIED.


#AUX CALIBRATION VALUES
Val Type	aux-1	

Term	1.0000e+00	
Factor	0.0000e+00	


#WF CALIBRATION VALUES
A = Detector Channel
Val Type	A-AC1	A-AC2	A-AC3	A-AC4	A-AC5	A-AC6	A-AC7	A-AC8	A-AC9	A-AC10	A-AC11	A-AC12	A-AC13	A-AC14	A-AC15	A-AC16	A-DC1	A-DC2	A-DC3	A-DC4	A-DC5	A-DC6	A-DC7	A-DC8	A-DC9	A-DC10	A-DC11	A-DC12	A-DC13	A-DC14	A-DC15	A-DC16	A-Ph1	A-Ph2	A-Ph3	A-Ph4	A-Ph5	A-Ph6	A-Ph7	A-Ph8	A-Ph9	A-Ph10	A-Ph11	A-Ph12	A-Ph13	A-Ph14	A-Ph15	A-Ph16	

Term	0.00000e+00	0.00000e+00	0.00000e+00	0.00000e+00	0.00000e+00	0.00000e+00	0.00000e+00	0.00000e+00	0.00000e+00	0.00000e+00	0.00000e+00	0.00000e+00	0.00000e+00	0.00000e+00	0.00000e+00	0.00000e+00	0.00000e+00	0.00000e+00	0.00000e+00	0.00000e+00	0.00000e+00	0.00000e+00	0.00000e+00	0.00000e+00	0.00000e+00	0.00000e+00	0.00000e+00	0.00000e+00	0.00000e+00	0.00000e+00	0.00000e+00	0.00000e+00	0.00000e+00	0.00000e+00	0.00000e+00	0.00000e+00	0.00000e+00	0.00000e+00	0.00000e+00	0.00000e+00	0.00000e+00	0.00000e+00	0.00000e+00	0.00000e+00	0.00000e+00	0.00000e+00	0.00000e+00	0.00000e+00	
Factor	1.00000e+00	1.00000e+00	1.00000e+00	1.00000e+00	1.00000e+00	1.00000e+00	1.00000e+00	1.00000e+00	1.00000e+00	1.00000e+00	1.00000e+00	1.00000e+00	1.00000e+00	1.00000e+00	1.00000e+00	1.00000e+00	1.00000e+00	1.00000e+00	1.00000e+00	1.00000e+00	1.00000e+00	1.00000e+00	1.00000e+00	1.00000e+00	1.00000e+00	1.00000e+00	1.00000e+00	1.00000e+00	1.00000e+00	1.00000e+00	1.00000e+00	1.00000e+00	X	X	X	X	X	X	X	X	X	X	X	X	X	X	X	X	

B = Detector Channel
Val Type	B-AC1	B-AC2	B-AC3	B-AC4	B-AC5	B-AC6	B-AC7	B-AC8	B-AC9	B-AC10	B-AC11	B-AC12	B-AC13	B-AC14	B-AC15	B-AC16	B-DC1	B-DC2	B-DC3	B-DC4	B-DC5	B-DC6	B-DC7	B-DC8	B-DC9	B-DC10	B-DC11	B-DC12	B-DC13	B-DC14	B-DC15	B-DC16	B-Ph1	B-Ph2	B-Ph3	B-Ph4	B-Ph5	B-Ph6	B-Ph7	B-Ph8	B-Ph9	B-Ph10	B-Ph11	B-Ph12	B-Ph13	B-Ph14	B-Ph15	B-Ph16	

Term	0.00000e+00	0.00000e+00	0.00000e+00	0.00000e+00	0.00000e+00	0.00000e+00	0.00000e+00	0.00000e+00	0.00000e+00	0.00000e+00	0.00000e+00	0.00000e+00	0.00000e+00	0.00000e+00	0.00000e+00	0.00000e+00	0.00000e+00	0.00000e+00	0.00000e+00	0.00000e+00	0.00000e+00	0.00000e+00	0.00000e+00	0.00000e+00	0.00000e+00	0.00000e+00	0.00000e+00	0.00000e+00	0.00000e+00	0.00000e+00	0.00000e+00	0.00000e+00	-8.69914e+00	-1.27636e+02	-1.26579e+02	-1.81887e+02	-5.43741e+01	-6.80890e+01	-1.57669e+02	-1.62015e+02	-3.26815e+01	-6.62177e+01	-1.72231e+02	-1.69913e+02	-1.80444e+02	-1.76573e+02	-5.52496e+01	-1.49179e+02	
Factor	3.53343e-05	1.72379e-04	5.09740e-05	1.64140e-01	2.14399e-06	1.74113e-06	1.89180e-01	5.70625e-02	2.23709e-06	1.85859e-06	9.95569e-02	3.28311e-02	4.44292e-02	9.93343e-03	2.12406e-06	1.45167e-02	1.70138e-05	2.97382e-05	8.36903e-06	8.38226e-02	2.87917e-07	3.39007e-07	9.04686e-02	2.91930e-02	2.86657e-07	3.34529e-07	4.92895e-02	1.63091e-02	2.28853e-02	5.14651e-03	3.07838e-07	7.27220e-03	X	X	X	X	X	X	X	X	X	X	X	X	X	X	X	X	



#DISTANCE SETTINGS
A = Detector Channel
A-1	A-2	A-3	A-4	A-5	A-6	A-7	A-8	A-9	A-10	A-11	A-12	A-13	A-14	A-15	A-16	

2.5000e+00	3.0000e+00	2.5000e+00	3.0000e+00	2.0000e+00	3.0000e+00	1.5000e+00	3.0000e+00	3.0000e+00	3.0000e+00	3.0000e+00	3.0000e+00	3.0000e+00	3.0000e+00	1.5000e+00	3.0000e+00	

B = Detector Channel
B-1	B-2	B-3	B-4	B-5	B-6	B-7	B-8	B-9	B-10	B-11	B-12	B-13	B-14	B-15	B-16	

1.0000e+01	1.0000e+01	1.0000e+01	1.4400e+00	1.0000e+01	1.0000e+01	1.5100e+00	1.9400e+00	1.0000e+01	1.0000e+01	1.9900e+00	2.4900e+00	2.4100e+00	2.9000e+00	1.0000e+01	2.9800e+00	




#DATA BEGINS
time	group	step	mark	flag	A-AC1	A-AC2	A-AC3	A-AC4	A-AC5	A-AC6	A-AC7	A-AC8	A-AC9	A-AC10	A-AC11	A-AC12	A-AC13	A-AC14	A-AC15	A-AC16	A-DC1	A-DC2	A-DC3	A-DC4	A-DC5	A-DC6	A-DC7	A-DC8	A-DC9	A-DC10	A-DC11	A-DC12	A-DC13	A-DC14	A-DC15	A-DC16	A-Ph1	A-Ph2	A-Ph3	A-Ph4	A-Ph5	A-Ph6	A-Ph7	A-Ph8	A-Ph9	A-Ph10	A-Ph11	A-Ph12	A-Ph13	A-Ph14	A-Ph15	A-Ph16	B-AC1	B-AC2	B-AC3	B-AC4	B-AC5	B-AC6	B-AC7	B-AC8	B-AC9	B-AC10	B-AC11	B-AC12	B-AC13	B-AC14	B-AC15	B-AC16	B-DC1	B-DC2	B-DC3	B-DC4	B-DC5	B-DC6	B-DC7	B-DC8	B-DC9	B-DC10	B-DC11	B-DC12	B-DC13	B-DC14	B-DC15	B-DC16	B-Ph1	B-Ph2	B-Ph3	B-Ph4	B-Ph5	B-Ph6	B-Ph7	B-Ph8	B-Ph9	B-Ph10	B-Ph11	B-Ph12	B-Ph13	B-Ph14	B-Ph15	B-Ph16	aux-1	digaux	

3406.825	1	1	0	256	0.025271	0.047554	0.10958	0.14272	0.1143	0.20804	0.23354	0.14647	0.054137	0.068244	0.2026	0.21173	0.29227	0.18473	0.088646	0.22358	-2.2604	-3.3312	-2.4979	-3.125	-3.1333	-2.5396	-3.1896	-2.8438	-2.5729	-3.5021	-2.5563	-2.7979	-3.2979	-2.4271	-2.9938	-3.0917	135.052	-101.930	214.087	171.239	5.289	113.679	198.101	190.207	139.074	60.759	-93.111	-17.362	128.075	-23.812	-65.335	90.780	0.00015691	0.00031362	0.00010481	1071.8	1.7633e-06	3.1032e-06	1194.5	221.17	3.5332e-06	2.3461e-06	288.93	79.55	61.699	17.467	3.5231e-06	24.795	0.00054306	0.00071279	0.00019995	1055.5	7.5806e-06	8.5917e-06	1176.1	220.26	7.6191e-06	8.2392e-06	287.91	80.282	62.133	17.782	7.4349e-06	25.307	-48.067	21.071	13.774	-91.657	54.247	32.782	-91.014	-83.977	113.497	38.416	-84.199	-76.917	-76.771	-69.881	71.772	-70.781	-8191	255	
3406.921	1	1	0	0	0.10933	0.069559	0.25785	0.081951	0.19913	0.12091	0.11497	0.083663	0.36231	0.23282	0.04889	0.095778	0.19184	0.15793	0.18415	0.01322	-2.0458	-3.2354	-2.7521	-2.8646	-3.2875	-2.5042	-3.1708	-3.1667	-2.3	-3.1917	-2.6854	-2.675	-3.3125	-2.4437	-3.0563	-2.8417	110.927	230.870	187.733	108.596	-75.436	199.934	147.665	113.451	-66.492	-85.193	26.519	154.105	150.916	23.729	156.691	120.962	0.00012771	0.00030633	9.8421e-05	1072	4.4178e-06	3.4571e-06	1196	222.54	2.0199e-06	4.5487e-06	288.97	79.782	62.148	17.547	2.3499e-06	24.852	0.0005062	0.00071663	0.00020129	1057	7.2861e-06	8.2386e-06	1177.7	220.72	7.096e-06	7.7834e-06	287.61	80.294	62.521	17.759	7.687e-06	25.297	-36.134	-0.929	-31.856	-91.363	48.783	61.948	-90.999	-84.039	88.083	49.877	-83.845	-77.405	-76.860	-70.030	57.202	-70.792	-8191	255	
3407.017	1	1	0	0	0.098002	0.22028	0.30241	0.32709	0.079437	0.039788	0.27558	0.034509	0.13479	0.32709	0.23243	0.1482	0.17198	0.069102	0.069451	0.11099	-1.9979	-3.2438	-2.8583	-2.6625	-3.3667	-2.5396	-3.1937	-3.1958	-2.4958	-3.2208	-2.8667	-2.6542	-3.2646	-2.75	-2.7646	-3.0792	209.779	-91.774	168.048	234.560	215.047	-94.508	192.784	242.214	43.677	119.496	-18.709	188.088	198.455	-75.947	116.007	-47.403	0.00013302	0.0002388	4.0773e-05	1075	1.3632e-06	3.3122e-06	1195.2	221.63	1.5819e-06	3.8664e-06	287.28	79.35	61.807	17.524	2.7972e-06	24.892	0.00050598	0.00071824	0.00019224	1058	7.4079e-06	7.8862e-06	1176.7	220.52	7.3044e-06	7.5506e-06	287.04	80.317	62.29	17.792	7.2893e-06	25.325	-41.356	-3.319	18.550	-91.404	97.712	69.700	-91.186	-84.034	96.829	35.777	-84.269	-77.283	-76.582	-69.595	54.037	-70.332	-8191	255	
3407.138	1	1	0	0	0.06407	0.32441	0.10323	0.23788	0.047092	0.25354	0.5275	0.24423	0.021269	0.1571	0.35669	0.12492	0.045588	0.27802	0.2515	0.13287	-2.0604	-3.0292	-2.9083	-2.7896	-3.35	-2.5667	-2.9375	-3.2792	-2.3958	-3.2271	-3.1562	-2.3812	-3.2208	-2.7687	-2.6771	-3.325	243.385	215.076	245.295	222.328	88.444	-99.590	184.879	204.346	-74.600	136.389	227.589	74.798	83.379	-6.776	9.313	245.906	0.00013986	0.00020336	0.00011626	1073.8	1.2117e-06	2.6515e-06	1192.3	222.36	1.1023e-06	3.2898e-06	290.97	79.975	61.919	17.505	3.8682e-06	25.228	0.00051538	0.00067723	0.0001871	1057.7	7.55e-06	8.3516e-06	1178	220.87	7.7129e-06	8.0071e-06	288.54	80.493	62.398	17.796	8.2558e-06	25.506	-52.822	-6.891	-19.077	-91.509	169.030	30.853	-91.099	-83.880	-33.709	47.319	-84.579	-76.984	-76.764	-70.351	49.177	-70.328	-8191	255	
3407.209	1	1	0	0	0.36145	0.1702	0.19744	0.097651	0.10785	0.075518	0.14549	0.1824	0.08455	0.053381	0.16046	0.076763	0.098743	0.28593	0.13859	0.040292	-2.1	-3.0062	-3.0062	-2.5187	-3.2917	-2.6917	-2.75	-3.2875	-2.4771	-2.8146	-3.1042	-2.3458	-3.3875	-2.825	-2.6292	-3.3292	30.970	217.779	34.543	168.019	-88.620	256.117	189.536	221.955	144.824	256.251	219.481	42.228	212.114	215.244	-99.817	-1.287	0.00015499	0.00033831	9.0568e-05	1081.2	1.1893e-06	3.6073e-06	1202.4	222.97	2.8561e-06	2.9092e-06	289.43	80.128	62.544	17.486	4.0424e-06	25.022	0.00056748	0.00074482	0.00022154	1062.9	8.4366e-06	8.7874e-06	1184.6	221.77	8.3357e-06	8.534e-06	289.49	80.879	62.819	17.909	8.6701e-06	25.512	-57.268	-17.480	-15.742	-91.456	51.331	31.840	-91.246	-83.861	67.525	83.283	-84.145	-77.610	-76.937	-69.439	70.667	-70.583	-8191	255	
3407.306	1	1	0	0	0.17953	0.28007	0.16826	0.16724	0.11526	0.23871	0.1332	0.37575	0.24016	0.20637	0.20791	0.10153	0.26431	0.22347	0.26935	0.23425	-2.2542	-2.8542	-3.0938	-2.6167	-3.2854	-2.9021	-2.7479	-3.3333	-2.6437	-3.0312	-3.1937	-2.6792	-3.1917	-2.9458	-2.6417	-3.3875	172.313	-69.457	-94.315	115.439	73.514	77.012	240.303	171.013	-0.647	106.142	124.367	196.574	53.239	-28.211	182.845	255.790	0.00015395	0.00029501	9.962e-05	1083.2	2.9167e-06	1.4849e-06	1206.9	224.54	2.8179e-06	1.2874e-06	290.97	80.241	62.367	17.744	3.7203e-06	25.078	0.00058942	0.00079444	0.00023836	1067.8	8.4534e-06	9.1419e-06	1189.2	222.81	8.0592e-06	8.1646e-06	290.26	80.92	62.834	17.972	8.0936e-06	25.509	-53.966	-37.548	-18.948	-91.318	64.976	111.630	-91.292	-83.843	53.982	-7.885	-83.812	-77.016	-76.657	-69.562	34.588	-70.368	-8191	255	
3407.426	1	1	0	0	0.21357	0.17224	0.086825	0.12574	0.085027	0.18171	0.12164	0.20488	0.26398	0.13701	0.28396	0.20511	0.32565	0.1997	0.15289	0.19154	-2.2313	-2.6958	-3.1458	-2.5771	-3.0104	-2.9771	-2.6333	-3.2562	-2.675	-2.8187	-3.4229	-2.625	-3.0417	-3.0479	-2.4271	-3.3708	105.480	74.175	139.829	206.533	227.251	104.544	-66.751	163.536	140.333	-13.062	136.275	253.886	233.122	210.487	169.595	195.065	0.00013969	0.00033347	4.2839e-05	1088	3.641e-06	3.1077e-06	1208.3	223.86	4.0173e-06	4.4495e-06	292.21	80.808	62.588	17.686	2.4361e-06	25.042	0.00055398	0.00080405	0.00021983	1072.1	8.418e-06	9.1687e-06	1193.2	223.14	8.6475e-06	9.838e-06	292.12	81.264	63.235	18.137	9.9451e-06	25.682	-27.790	-25.398	-2.677	-91.371	50.229	44.912	-91.464	-83.514	84.306	65.212	-84.436	-77.423	-76.668	-70.064	59.075	-70.293	-8191	255	
3407.521	1	1	0	0	0.25941	0.12196	0.034056	0.27534	0.39694	0.12169	0.20567	0.26254	0.18262	0.27397	0.14858	0.11805	0.061418	0.18517	0.19734	0.24086	-2.3979	-2.6104	-3.3208	-2.6729	-2.9979	-3.1646	-2.4521	-3.2979	-2.9813	-2.6229	-3.4354	-2.6146	-2.9583	-3.2729	-2.6083	-3.2333	157.166	106.818	179.638	220.410	152.954	124.775	241.206	167.668	204.992	132.569	203.266	142.303	70.156	130.260	189.306	-88.532	0.00013916	0.00028107	0.00013785	1090.2	2.4549e-06	4.3788e-06	1218.6	224.3	1.5003e-06	5.6861e-06	295.61	80.698	63.31	17.895	3.083e-06	25.278	0.00060913	0.00088936	0.00025885	1076.1	9.2643e-06	1.0325e-05	1199.1	224.43	9.2889e-06	1.0823e-05	294.12	81.718	63.831	18.259	1.0727e-05	25.827	-41.620	0.661	-12.929	-91.472	73.813	29.188	-91.395	-83.740	37.496	43.925	-84.299	-77.433	-76.482	-70.048	34.017	-70.807	-8191	255	
3407.617	1	1	0	0	0.16817	0.14817	0.13254	0.20237	0.035586	0.12312	0.18874	0.091683	0.14232	0.16951	0.19671	0.17046	0.22205	0.14432	0.044147	0.232	-2.4729	-2.6583	-3.2479	-2.6188	-2.7792	-3.2771	-2.6771	-3.2583	-3.0083	-2.6063	-3.4125	-2.7396	-2.9542	-3.4083	-2.5729	-3.1625	188.234	-38.212	-19.701	252.789	-57.000	123.612	210.564	162.819	-54.330	-49.444	204.144	218.370	164.477	-48.514	37.937	-25.547	0.00010985	0.00026904	0.00013253	1097.5	3.3053e-06	4.9698e-06	1220.9	226.88	2.0846e-06	1.7244e-06	295.1	81.285	63.393	18.196	3.5544e-06	25.329	0.00063352	0.0010159	0.00028146	1081.3	9.7148e-06	1.0774e-05	1201.3	225.45	9.8084e-06	1.1612e-05	294.23	82.087	64.186	18.432	1.1005e-05	25.941	-60.864	1.045	29.294	-91.521	42.226	14.106	-91.362	-84.058	-6.331	69.067	-84.239	-77.720	-76.942	-69.833	73.193	-71.125	-8191	255	
3407.713	1	1	0	0	0.17423	0.37237	0.13831	0.2047	0.053469	0.16723	0.19403	0.12942	0.19327	0.28006	0.165	0.36021	0.1858	0.034127	0.36736	0.18687	-2.6708	-2.3729	-3.3604	-2.9646	-2.6771	-3.4271	-2.5875	-3.1167	-3.2104	-2.5479	-3.4146	-2.7854	-2.8708	-3.3958	-2.3854	-3.0062	102.196	235.201	116.208	-76.510	207.956	-17.782	113.698	240.467	146.743	22.791	216.701	131.252	78.094	164.599	-36.691	191.674	0.0001351	0.00039128	9.4901e-05	1096.7	2.8469e-06	3.774e-06	1220.8	226.89	2.2587e-06	3.3643e-06	297.13	81.625	63.712	18.101	5.0413e-06	25.649	0.0006702	0.0010602	0.00029945	1082.1	1.0433e-05	1.1663e-05	1204.6	226.21	1.0062e-05	1.195e-05	296.32	82.341	64.452	18.51	1.1012e-05	26.082	-41.104	-8.273	-30.587	-91.520	36.031	25.725	-91.410	-83.865	-6.912	76.234	-84.142	-77.395	-76.671	-70.285	40.230	-70.620	-8191	255	
3407.834	1	1	0	0	0.1449	0.21688	0.13115	0.27767	0.36632	0.16842	0.26771	0.10602	0.12586	0.16689	0.041914	0.084756	0.31579	0.11617	0.10364	0.30762	-2.9146	-2.5292	-3.3479	-3.1083	-2.6188	-3.2729	-2.7417	-3.0458	-3.4104	-2.4625	-3.2167	-2.8833	-2.3833	-3.3854	-2.6208	-2.95	137.115	-16.710	15.414	241.816	-97.420	47.690	167.214	-30.778	248.970	2.765	174.584	22.189	-77.692	-76.472	146.594	-41.642	0.00013599	0.00058212	0.00014588	1100.1	3.1562e-06	3.2184e-06	1226.2	228.08	1.2406e-06	3.4258e-06	297.03	82.199	64.123	18.257	6.8458e-07	25.913	0.00067212	0.001055	0.0002851	1085.1	1.0346e-05	1.1937e-05	1207.6	226.68	1.0261e-05	1.2248e-05	297.53	82.775	64.683	18.679	1.1766e-05	26.375	-42.011	-47.388	1.593	-91.620	-21.269	71.046	-91.332	-83.906	-18.938	48.337	-84.228	-77.891	-76.762	-69.822	41.750	-70.445	-8191	255	
3407.905	1	1	0	0	0.12976	0.069795	0.10349	0.080813	0.25655	0.15832	0.20431	0.037042	0.050389	0.071159	0.085651	0.06079	0.18278	0.14236	0.17127	0.12764	-2.9333	-2.5479	-3.2646	-3.0812	-2.6104	-3.3229	-2.9667	-2.9	-3.3875	-2.5833	-3.2625	-3.025	-2.3292	-3.1583	-2.6917	-2.6375	106.350	32.729	-77.559	-75.594	-90.427	-49.766	211.565	191.187	-76.909	-43.090	40.960	-27.367	-38.592	250.780	69.550	8.210	0.00020667	0.00051818	0.0001077	1101.8	3.4942e-06	1.8274e-06	1221.6	231.05	1.9021e-06	3.5279e-06	302.07	82.128	64.424	18.498	2.4926e-06	26.346	0.00074276	0.0011821	0.00032676	1086.9	1.2016e-05	1.3177e-05	1208.3	230.13	1.2046e-05	1.4214e-05	301.72	83.565	65.395	18.95	1.3695e-05	26.852	-52.224	-8.675	11.689	-91.756	67.534	2.296	-91.505	-83.793	-25.702	59.399	-84.223	-77.392	-77.287	-69.840	-12.315	-70.569	-8191	255	
3408.001	1	1	0	0	0.11434	0.17215	0.098186	0.32942	0.17827	0.089616	0.30553	0.24305	0.13784	0.086338	0.14428	0.16598	0.024451	0.15465	0.1279	0.26261	-2.85	-2.5854	-2.9833	-3.1708	-2.4958	-3.1708	-3.0812	-2.8875	-3.3083	-2.5229	-3.0292	-3.2604	-2.3979	-3.3312	-2.8417	-2.6188	227.146	217.292	-48.928	219.509	27.683	183.688	215.235	176.700	174.001	-29.486	222.056	221.993	190.957	23.117	8.007	203.099	0.00018039	0.0003496	0.00012101	1108.9	5.1911e-07	5.3857e-06	1231.3	239.2	3.0736e-06	1.2897e-06	308.45	83.279	65.598	18.999	4.8197e-06	26.406	0.00089156	0.0013845	0.00037938	1095.4	1.4747e-05	1.6611e-05	1217.9	238.61	1.4506e-05	1.638e-05	309.37	84.775	66.798	19.354	1.5403e-05	27.135	-38.893	14.238	-4.856	-91.463	246.229	80.823	-91.564	-84.034	57.115	120.076	-84.137	-77.673	-77.347	-70.354	47.315	-70.666	-8191	255	
3408.098	1	1	0	0	0.14869	0.17995	0.038399	0.16795	0.18133	0.19512	0.13314	0.0602	0.14146	0.019263	0.11928	0.26863	0.3634	0.22694	0.086776	0.092326	-2.9042	-2.6917	-2.85	-3.3167	-2.3667	-3.2042	-2.9583	-2.4583	-3.3958	-2.6917	-2.7979	-3.1063	-2.2146	-3.1042	-2.8771	-2.6875	-76.611	-22.997	256.844	164.784	162.931	98.309	67.881	223.114	-96.924	71.178	-28.249	124.130	-61.356	-60.416	178.440	111.130	0.00013827	0.00029829	0.00011938	1115.8	2.4271e-06	1.9713e-06	1244.8	242.29	5.6499e-06	3.8611e-06	312.13	83.889	65.806	18.807	3.1464e-06	26.572	0.00097649	0.0014668	0.00040189	1101.6	1.5706e-05	1.6575e-05	1227.7	241.24	1.5063e-05	1.6443e-05	311.26	85.433	66.912	19.287	1.4791e-05	27.23	-47.189	11.539	-26.614	-91.324	88.962	-8.364	-91.395	-84.120	5.613	-51.773	-83.677	-77.678	-77.280	-70.079	124.539	-70.680	-8191	255	
3408.218	1	1	0	0	0.045873	0.19872	0.13118	0.071542	0.11401	0.18908	0.37745	0.32977	0.061119	0.20454	0.11177	0.062407	0.12214	0.12016	0.24209	0.16048	-3.0062	-2.6542	-2.6417	-3.3271	-2.4521	-3.2	-3.1271	-2.5792	-3.2417	-2.6833	-2.6917	-3.4667	-2.3146	-2.9896	-2.9542	-2.425	164.100	175.510	20.195	169.879	89.697	-33.065	254.257	216.277	-51.842	82.322	142.102	19.539	66.164	-14.351	57.771	-62.199	0.00016345	0.00035915	7.603e-05	1117.5	3.0723e-06	2.8792e-06	1246.4	240.61	2.4517e-06	4.0988e-06	309.69	83.955	65.394	18.948	3.7796e-06	26.195	0.00089982	0.0014389	0.00038721	1105.4	1.4256e-05	1.5127e-05	1229.2	240.39	1.3584e-05	1.4606e-05	309.79	84.965	66.524	19.25	1.351e-05	27.02	-49.331	4.131	-37.178	-91.329	55.835	130.616	-91.217	-83.774	60.547	78.567	-84.520	-77.673	-76.696	-70.502	64.808	-70.479	-8191	255	
3408.314	1	1	0	0	0.17914	0.20745	0.12311	0.22403	0.042299	0.16474	0.17012	0.45484	0.20296	0.1475	0.27511	0.065795	0.0053349	0.13716	0.097532	0.3035	-3.1375	-2.5083	-2.7	-3.3438	-2.4833	-3.0062	-3.1562	-2.8229	-3.3625	-3.0125	-2.6625	-3.3458	-2.5542	-3.0583	-3.2021	-2.5375	-96.135	-6.887	-50.951	247.737	44.782	130.870	206.140	217.808	-55.268	189.403	-2.120	-94.989	202.353	-18.173	158.125	226.403	0.00017982	0.00051208	0.00014327	1115	3.5161e-06	1.174e-06	1243	240.57	6.2904e-06	4.1745e-06	311.09	83.569	65.891	18.785	3.694e-06	26.372	0.00088047	0.0012906	0.00036369	1103.1	1.3813e-05	1.479e-05	1225.5	239.91	1.3539e-05	1.4957e-05	310.55	84.801	66.567	19.189	1.3839e-05	27.063	-48.372	12.228	22.560	-91.451	111.598	237.031	-91.181	-83.903	59.443	52.720	-84.338	-77.564	-77.078	-69.893	37.548	-71.074	-8191	255	
3408.410	1	1	0	0	0.096253	0.064704	0.053198	0.17321	0.22078	0.16011	0.33499	0.25692	0.058197	0.1346	0.19101	0.07735	0.075173	0.14657	0.072594	0.061085	-2.9354	-2.8396	-2.5167	-3.6104	-2.6604	-2.8521	-3.2354	-2.5771	-3.1042	-2.9542	-2.625	-3.35	-2.6833	-2.7396	-3.3438	-2.5792	185.395	-22.514	39.005	-100.515	67.184	201.686	201.048	-91.137	256.909	170.299	-70.542	44.139	132.828	211.964	37.148	177.368	0.00017435	0.00039113	0.00011811	1114.4	3.0594e-06	4.9878e-06	1239.6	238.75	3.5507e-06	4.8552e-06	308.82	83.32	65.121	18.616	2.8888e-06	26.277	0.00085314	0.001283	0.00038307	1103.7	1.3373e-05	1.4078e-05	1224	238.59	1.2102e-05	1.3056e-05	307.79	84.47	65.912	19.049	1.2294e-05	26.852	-49.107	15.625	-43.993	-91.309	91.163	60.126	-91.047	-84.028	72.966	51.182	-84.242	-77.233	-76.839	-69.698	84.042	-70.373	-8191	255	
3408.507	1	1	0	0	0.082895	0.31353	0.057033	0.16657	0.11431	0.048694	0.21542	0.24035	0.0375	0.074418	0.25531	0.20409	0.087108	0.11771	0.27459	0.11659	-2.7771	-2.9729	-2.5042	-3.3125	-2.9979	-2.6771	-3.5417	-2.7208	-3.0229	-3.2875	-2.6188	-3.3917	-2.7833	-2.825	-3.3625	-2.5625	118.396	210.427	55.981	231.090	42.075	18.619	209.240	-64.440	-85.923	-75.818	135.826	252.077	-4.508	30.950	55.860	91.248	0.00020427	0.00051077	7.1708e-05	1118	3.4646e-06	3.1863e-06	1243.7	238.28	7.5078e-07	4.3479e-06	306.75	83.325	64.646	18.499	2.0774e-06	26.128	0.00077689	0.001109	0.00033811	1099.6	1.1545e-05	1.2775e-05	1223.5	236.33	1.1502e-05	1.3236e-05	306.74	84.216	65.796	18.969	1.297e-05	26.778	-39.892	4.928	-25.654	-91.355	-20.312	49.839	-91.462	-84.026	242.174	124.780	-84.435	-77.336	-76.767	-69.703	5.649	-70.622	-8191	255	
3408.601	1	1	0	0	0.08082	0.21542	0.1188	0.22172	0.54201	0.14798	0.1029	0.29854	0.11042	0.10916	0.18588	0.28096	0.27799	0.33234	0.27701	0.19206	-2.7	-3.0042	-2.4854	-3.3312	-2.9104	-2.5771	-3.475	-2.45	-2.8917	-3.4417	-2.4771	-3.2062	-3.0604	-2.5104	-3.4313	-2.7167	-42.336	229.671	-68.480	-46.328	82.765	-96.026	212.458	208.942	136.551	-89.869	90.231	-30.555	85.167	-11.898	164.346	-62.640	0.00018827	0.00030825	0.00015289	1113.6	3.7848e-06	3.4996e-06	1241.9	238.65	3.0066e-06	1.6755e-06	309.59	83.462	65.422	18.665	2.0926e-06	26.068	0.00081886	0.0013102	0.00037865	1101.6	1.3377e-05	1.5244e-05	1226.3	238.28	1.3296e-05	1.5294e-05	309.37	84.746	66.438	19.152	1.4801e-05	26.884	-51.117	-7.528	-30.985	-91.319	7.544	5.394	-91.350	-84.190	-19.613	-8.346	-84.248	-77.385	-77.038	-69.854	20.006	-70.747	-8191	255	
3408.699	1	1	0	0	0.19496	0.11332	0.25009	0.29181	0.10791	0.17911	0.10799	0.30788	0.14134	0.33607	0.10371	0.21053	0.05834	0.054696	0.037744	0.049974	-2.5458	-3.2812	-2.1979	-3.2938	-2.9292	-2.55	-3.4729	-2.7729	-2.7354	-3.3104	-2.4708	-3.1312	-3.0167	-2.5229	-3.2375	-2.775	156.286	129.007	134.732	225.702	-93.200	200.866	151.207	212.545	-28.288	56.918	-93.613	25.779	70.449	127.743	106.048	203.620	0.00012955	8.6535e-05	0.00010683	1116	1.5229e-06	3.9739e-06	1241.9	239.35	2.8424e-06	1.8971e-06	308.05	83.562	64.89	18.727	2.5516e-06	26.37	0.00088986	0.0013714	0.00039606	1102	1.329e-05	1.5181e-05	1225.7	237.89	1.2799e-05	1.4122e-05	307.59	84.392	66.043	19.034	1.2648e-05	26.793	-22.357	-52.123	-1.081	-91.255	99.567	96.264	-91.204	-84.278	50.901	18.870	-84.178	-77.204	-77.245	-70.029	7.886	-70.708	-8191	255	
3408.818	1	1	0	0	0.12895	0.13465	0.13804	0.21842	0.14782	0.087005	0.17753	0.18039	0.13649	0.22993	0.25168	0.15539	0.28416	0.13977	0.10369	0.23667	-2.4458	-3.375	-2.5062	-3.225	-3.0479	-2.4062	-3.4333	-2.7229	-2.5146	-3.2271	-2.6896	-2.9313	-3.2792	-2.4896	-3.2083	-2.8688	80.872	244.644	193.735	221.304	-24.403	224.744	121.275	39.574	-85.600	-12.263	175.929	37.993	-87.581	-78.026	1.521	174.835	0.00016875	0.00027263	0.00011755	1121	3.0966e-06	1.5894e-06	1236.8	237.73	1.3602e-06	4.6494e-06	308.84	84.04	65.541	18.66	5.6807e-06	26.093	0.00078569	0.0012221	0.0003484	1103.2	1.2118e-05	1.4604e-05	1222.8	237.63	1.3086e-05	1.4712e-05	307.93	84.649	66.192	19.09	1.3954e-05	26.84	-40.949	-30.509	12.552	-91.282	68.485	108.722	-91.463	-84.149	141.444	51.836	-84.377	-76.941	-76.975	-70.080	116.686	-70.497	-8191	255	
3408.914	1	1	0	0	0.084717	0.28343	0.13579	0.33219	0.11002	0.16578	0.15831	0.32064	0.12453	0.1113	0.058044	0.1548	0.17475	0.066616	0.070154	0.13281	-2.2917	-3.2083	-2.4354	-2.9833	-3.3021	-2.5396	-3.3063	-2.9146	-2.5229	-3.3458	-2.7125	-2.8333	-3.0604	-2.3812	-3.3208	-3.2	140.070	50.797	-72.537	-85.633	-80.084	35.723	187.608	235.041	122.923	-45.828	161.849	233.056	218.110	-52.561	43.602	-35.165	0.00018593	0.00029973	0.00012508	1117.3	3.1703e-06	3.4056e-06	1240.2	239.54	1.2245e-06	3.2714e-06	308.38	83.529	65.057	18.661	4.6046e-06	26.31	0.00086941	0.0013248	0.0003798	1102.2	1.3907e-05	1.5908e-05	1224.6	238.42	1.3975e-05	1.5581e-05	308.27	84.649	66.285	19.12	1.4858e-05	26.949	-50.690	-21.431	-10.339	-91.195	70.824	13.844	-91.146	-84.008	32.814	61.573	-84.557	-77.324	-77.152	-69.807	42.298	-70.692	-8191	255	
3409.010	1	1	0	0	0.25624	0.16263	0.24929	0.24899	0.16852	0.17538	0.33119	0.26342	0.13562	0.10076	0.073083	0.33199	0.1853	0.095032	0.23224	0.089304	-2.3104	-3.3083	-2.6958	-2.7146	-3.4104	-2.6458	-3.2208	-3.2812	-2.4188	-3.3104	-2.9583	-2.8083	-3.2896	-2.5687	-3.0625	-3.1063	229.282	127.732	-89.096	215.801	-88.952	20.791	213.482	97.827	1.013	-53.709	109.187	176.920	42.864	-12.931	105.110	107.881	0.00015935	0.00041492	0.00014994	1116.8	1.1362e-06	1.5676e-06	1239.9	239.54	3.6744e-06	3.0527e-06	309.16	83.442	65.217	18.751	3.4669e-06	26.276	0.00094221	0.0014311	0.00038609	1102.3	1.4194e-05	1.6069e-05	1224.9	239.12	1.3805e-05	1.4928e-05	309.09	84.433	66.334	19.133	1.3172e-05	26.87	-47.604	-4.676	-7.683	-91.128	95.875	24.446	-91.274	-83.835	83.420	65.843	-84.201	-77.227	-76.753	-70.254	66.689	-71.087	-8191	255	
3409.106	1	1	0	0	0.23942	0.18687	0.11508	0.22953	0.11142	0.099837	0.11087	0.15129	0.035686	0.37335	0.041355	0.12867	0.20991	0.029379	0.14944	0.15197	-1.9542	-3.1958	-2.8063	-2.6792	-3.35	-2.5604	-3.0375	-3.1604	-2.5083	-3.3167	-2.8458	-2.4479	-3.2042	-2.5458	-2.7188	-3.0854	90.072	193.899	83.513	204.367	-95.500	28.831	220.100	60.151	195.961	198.444	-58.876	181.898	-74.456	-29.419	148.556	236.719	0.00012639	0.00028131	4.7346e-05	1116.2	2.4664e-06	2.0151e-06	1237.7	239.63	2.9855e-06	3.1295e-06	307.68	83.57	65.212	18.853	2.0879e-06	26.004	0.00088688	0.0013217	0.00036072	1103.1	1.3296e-05	1.5406e-05	1225	238.96	1.4049e-05	1.5268e-05	308.66	84.822	66.418	19.18	1.3505e-05	26.78	-42.360	-9.607	-10.565	-91.239	22.843	78.884	-91.225	-83.948	49.925	15.710	-84.256	-77.362	-76.794	-70.057	7.866	-70.869	-8191	255	
3409.202	1	1	0	0	0.19941	0.11029	0.15339	0.26044	0.14651	0.2528	0.061308	0.08453	0.21872	0.18414	0.33646	0.10169	0.14761	0.2878	0.096201	0.20171	-2.1188	-3.025	-2.9604	-2.6333	-3.1937	-2.7521	-2.9854	-3.3729	-2.65	-3.1792	-3.05	-2.3167	-3.25	-2.7438	-2.6771	-3.375	126.032	-99.900	95.084	174.780	225.902	115.492	-28.102	101.829	-37.938	145.464	241.655	153.156	214.438	137.779	41.452	127.957	0.00014489	0.00034684	8.2942e-05	1116.4	3.6791e-06	3.0092e-06	1242.1	238.8	6.77e-06	4.4248e-06	306.75	83.134	65.252	18.646	9.2708e-07	26.368	0.00091807	0.0013358	0.00036494	1102.4	1.3687e-05	1.5453e-05	1225	238.44	1.399e-05	1.4857e-05	308.75	84.469	66.125	19.102	1.4362e-05	26.95	-50.726	-13.082	-16.574	-91.183	66.053	21.055	-91.250	-84.257	21.761	79.071	-83.975	-77.446	-76.770	-70.338	-43.035	-70.419	-8191	255	
3409.299	1	1	0	0	0.077799	0.13238	0.27601	0.084844	0.13579	0.27411	0.005019	0.1325	0.090504	0.081913	0.1888	0.095694	0.21228	0.17239	0.082056	0.15287	-2.2771	-3.2208	-3.25	-2.5292	-3.2333	-2.6417	-2.8771	-3.3042	-2.5083	-2.9688	-3.3854	-2.6042	-3.4146	-2.8375	-2.6979	-3.5021	126.037	111.421	79.418	167.315	213.202	65.888	58.916	-54.081	4.069	-79.745	55.339	132.842	248.288	93.951	12.775	115.659	0.00014763	0.00019871	0.00011789	1116.9	2.1066e-06	3.3474e-06	1245.9	238.74	3.275e-06	4.9701e-06	310.28	83.441	65.84	18.852	3.5527e-06	26.525	0.00091786	0.0013424	0.00038384	1103.2	1.4113e-05	1.5744e-05	1226.3	239.23	1.467e-05	1.5648e-05	309.84	84.922	66.788	19.227	1.594e-05	27.12	-27.546	-7.932	-21.037	-91.221	-65.218	45.992	-90.990	-84.126	78.801	51.515	-84.383	-77.306	-76.794	-70.249	107.466	-70.825	-8191	255	
3409.395	1	1	0	0	0.062609	0.24072	0.25939	0.090008	0.22207	0.26666	0.22876	0.27859	0.12044	0.10319	0.072257	0.056239	0.13547	0.10452	0.052235	0.11697	-2.2625	-3.0792	-3.2125	-2.625	-3.1958	-2.8271	-2.8021	-3.4521	-2.6896	-2.9208	-3.4104	-2.5542	-3.1271	-3.0062	-2.6021	-3.3625	101.024	50.624	177.723	-89.771	183.222	79.908	213.989	140.544	153.623	-77.018	94.483	197.391	-83.514	230.915	220.614	120.087	0.00013222	0.00034346	0.00011433	1116.2	1.3936e-06	3.0038e-06	1241	241.3	4.7689e-06	4.2469e-06	308.16	83.702	65.695	18.809	3.6372e-06	26.302	0.00095873	0.0014491	0.00040501	1103.8	1.4489e-05	1.6322e-05	1228.1	240.22	1.4002e-05	1.5583e-05	309.91	84.823	66.53	19.131	1.4473e-05	26.894	-61.263	-32.389	26.908	-91.371	115.529	46.045	-90.980	-83.878	58.791	58.572	-84.171	-77.723	-77.094	-70.399	52.530	-70.458	-8191	255	
3409.515	1	1	0	0	0.090999	0.19916	0.025113	0.27269	0.088003	0.099399	0.0741	0.22917	0.18847	0.012832	0.24279	0.094086	0.14144	0.062397	0.15836	0.030489	-2.1917	-2.7083	-3.3271	-2.5958	-3.2625	-3.075	-2.4604	-3.6167	-2.6708	-2.7396	-3.2958	-2.4437	-3.2146	-2.9958	-2.4958	-3.2313	59.348	33.874	143.524	224.324	-54.431	62.472	171.694	161.520	175.489	25.230	193.680	250.431	-94.043	153.590	190.407	217.073	0.00013123	0.00036831	6.2713e-05	1117.4	1.7651e-06	1.975e-06	1244.8	239.67	1.5261e-06	2.5708e-06	310.56	83.922	65.419	18.741	3.2827e-06	26.441	0.00083137	0.0013012	0.00036766	1103.6	1.2713e-05	1.464e-05	1227.7	239.03	1.2897e-05	1.4674e-05	309.26	84.913	66.458	19.095	1.4909e-05	26.986	-54.243	-14.559	0.350	-91.324	106.029	31.854	-90.927	-83.933	128.158	73.817	-84.018	-77.633	-77.005	-70.369	8.661	-70.709	-8191	255	
3409.610	1	1	0	0	0.13349	0.076707	0.080856	0.18018	0.11833	0.092033	0.025766	0.17405	0.16114	0.41398	0.1479	0.18559	0.26251	0.13073	0.071452	0.2215	-2.3271	-2.8	-3.3042	-2.4562	-2.8896	-3.0083	-2.6625	-3.3125	-2.7542	-2.6458	-3.3333	-2.5438	-2.8896	-3.0542	-2.4562	-3.3521	-82.681	154.901	92.654	161.544	180.519	-17.140	90.057	186.478	94.037	-11.461	94.377	-15.602	188.091	-93.858	-18.054	251.460	0.0001486	0.00068747	2.0102e-05	1120.4	5.1396e-06	3.5619e-06	1241.6	241.11	3.2924e-06	4.1918e-07	309.12	83.63	65.354	18.699	2.7059e-06	26.326	0.00088032	0.0014081	0.00038583	1105.7	1.349e-05	1.5713e-05	1228.1	239.84	1.3149e-05	1.4937e-05	309.08	84.734	66.375	19.133	1.4347e-05	26.987	-39.972	-0.109	8.597	-91.420	33.405	75.913	-91.175	-84.023	129.050	-58.859	-84.460	-77.325	-76.838	-69.945	82.015	-70.182	-8191	255	
3409.706	1	1	0	0	0.27172	0.26032	0.18789	0.19425	0.039534	0.14027	0.21289	0.043309	0.09652	0.17647	0.17703	0.075667	0.063364	0.26176	0.17758	0.1277	-2.4562	-2.5271	-3.2375	-2.8979	-2.9458	-3.1792	-2.6063	-3.2896	-2.8021	-2.5542	-3.3708	-2.7687	-2.7438	-3.3083	-2.4521	-3.1104	-74.411	120.338	239.010	191.870	257.162	144.916	164.019	220.591	142.063	-59.407	175.780	-27.602	242.367	-65.087	166.709	-53.506	0.00014424	0.00031498	9.3195e-05	1121	2.7918e-06	4.1277e-06	1243.3	240.34	1.5804e-06	1.3692e-06	310.47	83.454	65.393	18.719	4.0983e-06	26.381	0.00085693	0.0013556	0.00038396	1107.3	1.3704e-05	1.5605e-05	1226.7	240.02	1.3284e-05	1.5257e-05	309.32	84.741	66.591	19.104	1.4781e-05	26.982	-57.524	-26.167	-18.489	-91.367	19.957	65.295	-91.245	-83.942	146.609	77.789	-83.989	-77.574	-76.567	-70.407	24.650	-70.430	-8191	255	
3409.779	1	1	0	0	0.18774	0.55645	0.1771	0.17085	0.020737	0.12525	0.36489	0.21697	0.16544	0.12526	0.30469	0.1161	0.048642	0.10092	0.044952	0.048887	-2.6333	-2.4	-3.2604	-2.7687	-2.7104	-3.2104	-2.7021	-3.1375	-3.2104	-2.5083	-3.3958	-2.9813	-2.5354	-3.4208	-2.3625	-3.0771	107.332	-43.701	223.731	99.309	-34.643	-82.404	202.136	99.202	-29.957	94.972	141.203	135.998	175.949	68.267	-6.895	-61.047	0.00016164	0.00045001	0.00015122	1120.3	4.198e-06	4.5293e-06	1244.8	241.77	3.5825e-06	4.2812e-06	310.31	84.041	65.363	18.933	6.0728e-06	26.534	0.00084569	0.0013992	0.00038546	1104	1.3801e-05	1.5801e-05	1227.8	240.19	1.3538e-05	1.6179e-05	309.83	85.179	66.431	19.202	1.5405e-05	27.069	-53.685	-26.998	-12.049	-91.308	47.766	23.388	-91.151	-83.925	79.817	37.197	-84.349	-77.373	-77.571	-69.802	62.256	-70.370	-8191	255	
3409.898	1	1	0	0	0.15455	0.13398	0.063333	0.16735	0.12271	0.19268	0.13437	0.17836	0.15045	0.11238	0.13608	0.20213	0.21137	0.14199	0.063425	0.17265	-2.7438	-2.4625	-3.1479	-2.9875	-2.7646	-3.3646	-2.7125	-2.8917	-3.2062	-2.4708	-3.3208	-2.9313	-2.5083	-3.525	-2.775	-2.7708	-96.524	121.893	-55.963	184.303	128.378	-38.258	183.659	-98.614	196.617	134.459	171.084	198.991	214.138	101.456	86.031	18.302	0.00021393	0.00045409	8.5813e-05	1116.2	1.4002e-06	6.192e-06	1243.2	240.68	4.7541e-06	5.2307e-06	309.06	83.936	65.986	18.778	7.0696e-06	26.348	0.00093289	0.0015073	0.0004109	1105.7	1.4507e-05	1.6979e-05	1227.7	239.95	1.4713e-05	1.6137e-05	309.83	84.922	66.79	19.186	1.4569e-05	26.957	-45.240	15.664	1.370	-91.147	39.681	47.539	-91.172	-83.946	64.485	42.386	-84.049	-77.506	-76.680	-70.147	58.734	-70.071	-8191	255	
3409.994	1	1	0	0	0.046137	0.12391	0.024592	0.14277	0.18908	0.04652	0.11692	0.39357	0.090973	0.16781	0.17732	0.18487	0.037347	0.27372	0.17567	0.16697	-2.7729	-2.5187	-3.2042	-3.1771	-2.5792	-3.4542	-2.9208	-2.9542	-3.2458	-2.4688	-3.1792	-2.9958	-2.5958	-3.2979	-2.7438	-2.7146	133.572	18.100	-25.126	23.552	91.112	145.772	215.285	-76.972	10.464	109.957	240.886	-35.509	76.676	-90.549	147.028	-40.209	0.00013075	0.00036795	7.3639e-05	1118.9	2.5127e-06	2.5085e-06	1244.5	240.73	1.5734e-06	7.1544e-07	311.1	83.936	65.729	18.912	2.6024e-06	26.424	0.00091566	0.0014007	0.00038201	1105.4	1.4176e-05	1.5624e-05	1228.5	239.86	1.3717e-05	1.5241e-05	310.37	84.886	66.71	19.278	1.4128e-05	27.035	-60.412	-39.939	-9.487	-91.320	80.176	12.915	-91.339	-83.895	38.353	-17.834	-84.015	-77.476	-76.845	-70.193	24.989	-70.399	-8191	255	
3410.090	1	1	0	0	0.24098	0.038095	0.15431	0.25677	0.1196	0.079872	0.19951	0.17765	0.037672	0.21692	0.10298	0.15087	0.16311	0.092658	0.21864	0.20414	-2.9542	-2.525	-3.1083	-3.3125	-2.3979	-3.1167	-2.8583	-2.8688	-3.1542	-2.4854	-3.1417	-3.1312	-2.4938	-3.2375	-2.7292	-2.6396	-36.417	-90.311	-10.416	215.151	106.430	255.911	157.866	166.358	-32.507	135.543	212.795	131.880	75.465	-64.434	207.714	-36.519	0.00017776	0.00016396	3.6234e-05	1122.7	2.2252e-06	3.6236e-06	1237.9	241.34	4.2512e-06	2.0379e-06	308.57	83.868	65.486	18.856	5.9607e-06	26.486	0.00089507	0.0013939	0.00037371	1105.2	1.4248e-05	1.5888e-05	1225.1	240.06	1.3666e-05	1.5646e-05	309.43	84.839	66.554	19.229	1.3808e-05	27.056	-60.696	28.362	-1.654	-91.113	87.345	96.802	-91.251	-84.203	58.585	-7.525	-83.860	-77.711	-77.336	-70.117	76.852	-70.509	-8191	255	
3410.187	1	1	0	0	0.12868	0.19476	0.33221	0.17887	0.16393	0.14636	0.092802	0.046501	0.18608	0.16613	0.27482	0.16145	0.11266	0.2363	0.18704	0.078708	-2.9375	-2.5021	-2.8312	-3.4125	-2.4229	-3.2146	-3.1104	-2.5167	-3.3042	-2.6958	-2.8833	-3.3646	-2.5583	-3.1813	-2.9917	-2.5542	6.068	24.647	-35.080	221.516	8.426	-67.182	-12.843	114.616	-82.286	112.827	201.151	127.718	-81.657	134.025	-52.508	133.389	0.00015038	0.00034357	6.0895e-05	1118.6	5.2547e-06	1.8493e-06	1244.5	241.14	3.5145e-06	1.7829e-06	307.31	84.3	65.204	18.834	2.4231e-06	26.532	0.00088316	0.0013792	0.00037077	1104.4	1.3627e-05	1.4966e-05	1227.9	239.77	1.2948e-05	1.4672e-05	308.61	84.891	66.073	19.16	1.2602e-05	27.023	-56.809	-48.347	-74.699	-91.353	26.412	1.687	-91.186	-84.055	10.424	103.916	-84.023	-77.674	-77.263	-69.802	111.773	-70.655	-8191	255	
3410.307	1	1	0	0	0.10615	0.17971	0.050614	0.07321	0.070839	0.2764	0.26705	0.17922	0.15228	0.097798	0.084149	0.16969	0.10937	0.088434	0.1799	0.12705	-2.9625	-2.6188	-2.7604	-3.3292	-2.4313	-3.1042	-3.1271	-2.4938	-3.3021	-2.7417	-2.8271	-3.3396	-2.5417	-3.0125	-3.1333	-2.6458	20.855	96.007	24.410	-27.372	-96.884	178.265	208.852	148.408	-53.579	-21.304	185.010	-52.072	82.410	13.756	136.435	116.118	0.00013437	0.00032547	9.9368e-05	1121.9	5.7866e-06	4.8908e-06	1235.9	238.48	3.3969e-06	2.2061e-06	307.95	83.636	65.502	18.804	2.9584e-06	26.403	0.00082981	0.0012608	0.00035061	1104.1	1.2959e-05	1.387e-05	1224.5	238.47	1.2479e-05	1.3925e-05	308.69	84.613	66.325	19.167	1.25e-05	27.036	-37.356	50.027	-6.470	-91.288	63.101	50.012	-91.410	-83.817	66.514	57.452	-83.940	-77.514	-76.898	-70.067	76.360	-70.662	-8191	255	
3410.379	1	1	0	0	0.12423	0.11743	0.13539	0.035245	0.065336	0.086162	0.1576	0.16982	0.15009	0.12186	0.16198	0.19819	0.2559	0.15285	0.22271	0.18271	-2.9396	-2.6542	-2.6125	-3.4062	-2.4688	-2.8271	-3.2062	-2.4104	-3.1813	-2.8729	-2.6229	-3.2417	-2.55	-2.9708	-3.1417	-2.5896	22.764	108.402	95.766	189.527	234.718	119.358	243.313	128.568	-55.729	72.260	100.239	142.670	-48.714	87.653	-9.699	68.810	0.00017634	0.00014999	7.9114e-05	1119.7	3.3949e-06	3.0767e-06	1241.7	238.22	5.9506e-06	1.7565e-06	309.09	83.317	64.993	18.761	3.1271e-06	26.356	0.00078732	0.0012293	0.00035082	1103.2	1.2655e-05	1.3299e-05	1224.6	238.27	1.2086e-05	1.2977e-05	308.05	84.38	66.12	19.106	1.2081e-05	26.892	-54.665	-39.037	-36.642	-91.243	97.742	105.685	-91.310	-83.920	92.673	113.128	-84.444	-77.315	-76.835	-69.603	96.657	-70.504	-8191	255	
3410.500	1	1	0	0	0.058175	0.1031	0.19613	0.22418	0.045307	0.23862	0.13011	0.36739	0.09207	0.17675	0.076018	0.17401	0.24963	0.21235	0.07873	0.32301	-2.9083	-2.8583	-2.4208	-3.3854	-2.5083	-2.9	-3.3333	-2.6333	-3.1625	-2.9583	-2.6333	-3.3688	-2.6958	-2.7396	-3.2771	-2.4125	55.845	65.628	-49.570	255.939	-12.787	62.646	-78.944	140.930	167.201	148.818	-58.544	-9.204	124.780	211.268	-5.081	-79.911	0.00017691	0.00033007	0.00013212	1121.1	3.1179e-06	4.6114e-06	1236.9	238.38	4.1446e-06	2.7354e-06	308.16	83.914	64.958	18.706	2.2546e-06	26.424	0.00076906	0.0011074	0.00033961	1102.7	1.1997e-05	1.3261e-05	1221.6	238.12	1.1623e-05	1.3052e-05	307.87	84.587	65.972	19.078	1.2648e-05	26.876	-31.935	-55.698	-8.316	-91.487	140.549	41.140	-91.391	-84.127	103.408	82.351	-84.054	-77.583	-77.138	-69.801	81.380	-70.452	-8191	255	
3410.596	1	1	0	0	0.21568	0.051363	0.23885	0.15945	0.16991	0.18422	0.26671	0.17024	0.071177	0.10347	0.21715	0.077782	0.10967	0.13827	0.18821	0.35066	-2.7854	-2.9021	-2.4271	-3.4917	-2.6104	-2.6896	-3.4646	-2.4667	-3.0187	-3.125	-2.4083	-3.3	-2.875	-2.5958	-3.4083	-2.4562	164.395	58.905	106.297	250.078	39.303	204.560	235.403	207.085	247.370	144.927	175.476	-15.977	-33.856	38.751	-37.431	156.912	0.00015439	0.00024395	5.4658e-05	1115.6	1.5561e-06	3.9698e-06	1232.9	238.54	2.6364e-06	5.882e-06	307.27	83.573	64.519	18.539	4.7565e-06	26.128	0.00079207	0.0011398	0.00034446	1100.7	1.1844e-05	1.3055e-05	1221.3	237.86	1.1625e-05	1.2803e-05	307.25	84.427	65.817	19.055	1.2392e-05	26.844	-38.216	-17.695	-55.892	-91.197	66.695	29.402	-91.319	-84.051	37.468	33.502	-84.215	-77.120	-77.284	-70.088	54.299	-70.436	-8191	255	
3410.690	1	1	0	0	0.14225	0.13596	0.35896	0.34832	0.12353	0.097677	0.037835	0.097096	0.19635	0.021443	0.19555	0.17705	0.11076	0.15813	0.26706	0.26186	-2.6396	-3.0187	-2.5396	-3.2042	-2.8	-2.5542	-3.375	-2.4125	-2.9104	-3.1917	-2.5438	-3.0875	-3.1333	-2.4813	-3.4854	-2.7271	109.178	-51.759	-94.185	162.236	-1.228	55.211	117.694	-101.390	35.535	-59.686	-41.620	-87.148	41.628	98.263	-31.146	50.661	0.00015912	0.00019543	0.00016084	1115.9	2.7357e-06	4.9433e-06	1243	238.47	1.9939e-06	3.6036e-06	308	83.237	65.336	18.772	5.7748e-06	26.412	0.00077225	0.0011383	0.0003465	1100.4	1.1872e-05	1.3693e-05	1223.3	237.84	1.1418e-05	1.3362e-05	307.76	84.457	66.093	19.086	1.241e-05	26.894	-54.982	-4.285	-19.307	-91.005	65.624	108.776	-90.912	-83.997	123.537	70.790	-84.024	-77.137	-77.051	-69.946	30.577	-70.822	-8191	255	
3410.786	1	1	0	0	0.14083	0.19162	0.14512	0.058877	0.062733	0.10751	0.05931	0.11358	0.12386	0.24496	0.19714	0.31767	0.17266	0.13602	0.078609	0.030424	-2.2625	-3.1854	-2.4646	-3.1792	-2.9292	-2.3333	-3.3542	-2.675	-2.5938	-3.2771	-2.5333	-3.0396	-3.0396	-2.3771	-3.3479	-2.6958	-50.392	257.461	-91.213	188.079	-92.791	-49.762	139.024	210.953	-87.624	171.213	-69.703	-79.549	239.594	46.846	-42.406	23.795	0.00013846	0.00022166	7.4568e-05	1116.4	2.3688e-06	2.1501e-06	1234.7	238.62	4.1397e-07	2.1802e-06	309.2	83.211	64.876	18.723	2.1385e-06	26.615	0.00076413	0.0011882	0.00033337	1100.7	1.1742e-05	1.4186e-05	1222.5	237.77	1.2244e-05	1.3654e-05	307.86	84.315	65.932	19.127	1.3406e-05	27.066	-41.906	-13.190	32.870	-91.104	92.104	8.250	-91.163	-84.089	122.767	52.411	-84.177	-77.334	-76.941	-69.704	58.645	-70.486	-8191	255	
3410.907	1	1	0	0	0.28298	0.069226	0.2518	0.14558	0.07739	0.022142	0.19781	0.091137	0.041929	0.20438	0.1515	0.15518	0.33761	0.075294	0.24341	0.288	-2.3104	-3.3	-2.5021	-3.0896	-3.0833	-2.5833	-3.4167	-2.7875	-2.5917	-3.3187	-2.6833	-2.8521	-2.9688	-2.4208	-3.0812	-2.8458	215.244	156.257	-91.811	189.736	192.833	18.300	209.011	157.881	63.942	10.698	154.208	-21.796	125.599	188.344	101.187	146.359	0.00010993	1.1336e-05	0.00014874	1116.2	6.0336e-06	2.4596e-06	1239.3	239.01	1.8449e-06	2.3251e-06	309.43	84.059	65.449	18.8	2.7778e-06	26.296	0.00081631	0.0012828	0.00037342	1100.3	1.3013e-05	1.5188e-05	1222.1	238.15	1.2647e-05	1.3976e-05	307.89	84.61	66.32	19.131	1.2665e-05	26.887	-41.008	103.274	-14.344	-91.120	80.699	52.563	-90.901	-83.806	80.770	77.934	-84.335	-77.218	-77.322	-70.017	17.694	-70.346	-8191	255	
3411.003	1	1	0	0	0.26015	0.095652	0.35831	0.092675	0.15911	0.18598	0.16047	0.1971	0.12268	0.12899	0.13069	0.098763	0.091059	0.18197	0.14028	0.23603	-2.0854	-3.2917	-2.3812	-2.9062	-3.15	-2.5833	-3.3396	-2.8042	-2.6229	-3.4208	-2.7083	-2.7375	-3.3042	-2.3208	-3.05	-3	198.765	-56.356	119.957	223.161	9.303	49.189	-50.703	206.972	221.119	93.002	150.357	-35.590	-97.710	10.536	133.396	35.972	0.00018369	0.00025848	0.0001083	1118	6.1238e-06	5.7781e-06	1245.1	238.52	3.7841e-06	1.9083e-06	307.9	83.807	64.573	18.786	3.1115e-06	26.266	0.00082163	0.001208	0.00034079	1101	1.2431e-05	1.464e-05	1224.3	237.93	1.2538e-05	1.3575e-05	306.97	84.337	65.929	19.101	1.2669e-05	26.926	-66.833	33.015	15.826	-91.175	78.721	64.017	-91.025	-84.002	103.365	56.140	-83.799	-77.424	-76.740	-69.977	22.901	-70.294	-8191	255	
3411.075	1	1	0	0	0.15272	0.27982	0.20667	0.43949	0.20288	0.31407	0.45472	0.048763	0.21232	0.11452	0.045979	0.13438	0.04644	0.15696	0.15992	0.13902	-2.1437	-3.2292	-2.6	-2.6917	-3.3333	-2.2542	-3.0458	-2.9313	-2.3521	-3.2313	-2.8688	-2.6375	-3.4188	-2.5167	-2.9854	-3.1583	231.774	153.440	3.173	-94.209	-18.052	165.669	224.286	188.271	116.509	-59.877	226.139	-93.779	-40.973	118.862	114.503	171.235	0.00015901	0.00049943	0.00011537	1116.1	2.7313e-06	1.5622e-06	1238.8	238.36	6.1276e-06	6.56e-06	309.43	83.394	65.502	18.745	4.1044e-06	26.33	0.00082382	0.0012193	0.00034941	1101.6	1.2672e-05	1.4676e-05	1223.3	237.76	1.2689e-05	1.4351e-05	307.3	84.525	66.239	19.125	1.2902e-05	26.948	-44.035	-11.228	1.902	-90.992	37.256	-35.968	-90.844	-84.005	35.067	59.387	-83.966	-77.104	-76.944	-69.993	106.191	-70.569	-8191	255	
3411.171	1	1	0	0	0.23666	0.11365	0.13343	0.12515	0.13878	0.11401	0.25057	0.074434	0.17478	0.14225	0.01638	0.34674	0.1593	0.11037	0.082661	0.11766	-1.9792	-3.2542	-2.7375	-2.6521	-3.2625	-2.4625	-3.0896	-3.2083	-2.4521	-3.2313	-2.7792	-2.6521	-3.3563	-2.6167	-2.7188	-3.1875	227.164	210.820	9.810	122.525	233.777	21.136	216.098	-67.444	227.607	153.949	-63.139	113.490	-82.049	35.835	-93.366	187.473	0.0001542	0.00035858	8.6811e-05	1117.7	1.8029e-06	2.0646e-06	1238.9	239.83	6.983e-06	5.3478e-06	308.6	83.08	65.766	18.751	1.0516e-06	26.508	0.00084931	0.0012526	0.00035092	1102.9	1.2752e-05	1.4801e-05	1222.6	238.33	1.3303e-05	1.3815e-05	307.9	84.475	66.362	19.167	1.2811e-05	27.022	-20.465	39.953	-22.036	-91.251	91.878	23.503	-90.848	-83.923	40.006	53.810	-84.086	-77.349	-76.751	-69.662	84.952	-70.109	-8191	255	
3411.291	1	1	0	0	0.31119	0.14356	0.2804	0.33973	0.082194	0.086644	0.055785	0.034983	0.20101	0.03841	0.20942	0.11995	0.18105	0.16102	0.10658	0.15325	-2.0979	-3.0979	-2.9729	-2.7521	-3.4188	-2.5521	-2.9979	-3.2833	-2.4604	-2.9771	-2.95	-2.4542	-3.3333	-2.8292	-2.9208	-3.2271	111.150	51.081	206.063	217.944	227.588	65.789	242.161	-40.565	197.360	190.077	189.639	154.468	162.144	38.835	88.812	104.994	0.00017647	0.00031085	9.3916e-05	1117.4	2.7141e-06	1.3322e-06	1236.1	239.03	2.913e-06	3.2932e-06	308.22	83.272	65.311	18.737	1.8762e-06	26.284	0.00084389	0.0012599	0.00034897	1101.9	1.3104e-05	1.4375e-05	1222.6	238.06	1.2716e-05	1.4135e-05	307.75	84.429	66.286	19.125	1.3238e-05	26.941	-59.442	5.060	-14.999	-91.013	26.218	17.967	-90.746	-83.950	131.995	52.589	-83.796	-77.427	-76.633	-70.357	-0.790	-70.556	-8191	255	
3411.388	1	1	0	0	0.23873	0.17658	0.0808	0.15548	0.060481	0.054195	0.16309	0.20322	0.063004	0.19935	0.05186	0.10393	0.050816	0.11193	0.099163	0.19598	-2.1896	-3.0271	-3.0062	-2.5729	-3.25	-2.7896	-2.9104	-3.4	-2.5958	-3.0083	-3.2479	-2.4	-3.1896	-2.5833	-2.6667	-3.2542	160.056	-38.824	-10.002	-93.504	80.360	173.002	180.479	174.735	132.876	172.820	191.258	-12.724	49.327	86.899	211.351	222.425	0.00015032	0.00055073	0.00010263	1122.3	5.8521e-06	3.7911e-06	1238.5	239.73	4.9514e-06	2.347e-06	307.66	83.745	65.694	18.772	2.6775e-06	26.21	0.00084304	0.0012585	0.00034323	1103.2	1.2975e-05	1.382e-05	1221.3	238.26	1.3014e-05	1.3656e-05	307.22	84.635	66.434	19.145	1.3712e-05	26.941	-49.016	15.549	-8.388	-90.988	26.826	6.299	-91.065	-83.892	43.280	96.859	-83.949	-77.357	-76.592	-69.942	73.572	-69.995	-8191	255	
3411.484	1	1	0	0	0.13243	0.17313	0.3407	0.31784	0.091835	0.19737	0.095932	0.38696	0.10554	0.14149	0.062205	0.11915	0.15987	0.1573	0.048127	0.19882	-2.1875	-2.9	-3.1979	-2.7333	-3.2396	-2.8896	-2.7146	-3.5271	-2.4375	-2.9896	-3.2021	-2.5167	-3.0833	-2.975	-2.3646	-3.3021	141.825	50.641	117.833	160.587	-83.083	104.472	172.188	-56.308	44.543	110.869	114.121	166.736	-65.989	219.101	204.283	110.568	0.00016037	0.00016657	0.00014823	1115.1	2.2873e-06	1.443e-06	1235.3	239.31	3.6743e-06	3.7317e-06	307.94	83.361	65.789	18.804	3.0294e-06	26.5	0.00082797	0.0012657	0.00035228	1100.4	1.2835e-05	1.3877e-05	1224.3	238.13	1.2834e-05	1.3943e-05	307.83	84.584	66.269	19.157	1.3445e-05	27.03	-60.497	11.351	-19.896	-91.212	53.892	75.052	-90.997	-83.659	120.483	73.140	-83.869	-77.383	-76.829	-69.997	73.017	-70.777	-8191	255	
3411.580	1	1	0	0	0.11681	0.18609	0.1317	0.27698	0.24267	0.067372	0.24767	0.14122	0.2428	0.20057	0.24379	0.14648	0.21381	0.1183	0.12921	0.19723	-2.3458	-2.6562	-3.3708	-2.6542	-3.1917	-3.0979	-2.6771	-3.3812	-2.5833	-2.6833	-3.2833	-2.3563	-3.0208	-3.1646	-2.4125	-3.1813	187.588	188.383	92.778	252.647	56.348	57.247	185.892	-43.634	47.825	-18.225	107.247	228.643	249.977	-97.972	138.521	94.975	0.00012423	0.00038981	7.3528e-05	1111.8	2.7238e-06	4.168e-06	1236.8	239.52	1.2907e-06	4.3792e-06	308.27	83.299	65.906	18.801	3.6606e-06	26.32	0.00084343	0.0012793	0.00035525	1099.9	1.303e-05	1.3923e-05	1221.4	238.29	1.2716e-05	1.4396e-05	307.6	84.437	66.147	19.141	1.3995e-05	26.951	-36.516	-12.995	-87.270	-91.075	-35.879	28.780	-91.054	-83.817	98.881	45.043	-83.844	-77.578	-76.916	-70.102	24.872	-70.520	-8191	255	
3411.674	1	1	0	0	0.12245	0.19997	0.22432	0.07328	0.10607	0.18566	0.29773	0.19008	0.11141	0.22846	0.163	0.084531	0.070467	0.30543	0.1214	0.097498	-2.2708	-2.4771	-3.075	-2.7021	-3.0333	-3.1	-2.6667	-3.3875	-3.0083	-2.5125	-3.4896	-2.6271	-2.8833	-3.1042	-2.6792	-3.3125	97.494	115.939	-3.989	51.930	185.714	175.726	241.414	243.181	-58.726	189.763	152.951	-85.529	136.423	90.433	236.530	47.407	0.00014706	0.00028795	0.00015139	1116.5	5.3275e-06	3.3913e-06	1238.2	240.45	1.0983e-06	3.067e-06	307.84	83.239	65.208	18.738	3.8256e-06	26.29	0.00081932	0.0012512	0.00036571	1100.2	1.2807e-05	1.4577e-05	1224.7	238.76	1.2539e-05	1.463e-05	307.6	84.482	66.145	19.182	1.391e-05	26.989	-35.469	-23.259	12.884	-90.872	85.427	20.289	-91.104	-83.708	-49.912	43.542	-83.836	-77.408	-76.629	-69.640	-23.630	-70.270	-8191	255	
3411.770	1	1	0	0	0.17635	0.14412	0.2575	0.16257	0.047157	0.27994	0.14206	0.22283	0.39905	0.048698	0.24654	0.10455	0.1949	0.096455	0.13694	0.19696	-2.3937	-2.45	-3.2833	-2.8563	-2.8479	-3.2667	-2.4979	-3.2396	-2.9146	-2.5354	-3.4729	-2.7958	-2.8479	-3.2271	-2.3583	-3.1813	184.641	69.182	191.380	-88.706	75.088	231.628	-78.715	175.127	104.824	163.881	204.986	37.795	-86.757	-25.337	251.382	153.788	0.00014676	0.00049519	0.00010844	1116.1	2.0703e-06	6.0539e-06	1238.9	238.48	7.7637e-07	3.7069e-06	306.97	83.747	65.535	18.832	1.6359e-06	26.501	0.00083832	0.0013554	0.00036609	1100.9	1.3347e-05	1.5369e-05	1221.8	238.04	1.2772e-05	1.5472e-05	306.93	84.627	66.26	19.195	1.4315e-05	27.064	-44.390	-21.649	8.397	-91.157	229.385	58.431	-91.134	-83.866	-12.523	30.045	-84.053	-77.562	-76.849	-69.803	76.691	-70.655	-8191	255	
3411.867	1	1	0	0	0.2032	0.19541	0.30761	0.26433	0.028486	0.22383	0.11387	0.12715	0.2784	0.11576	0.10343	0.19566	0.27745	0.12519	0.20891	0.15442	-2.5917	-2.3396	-3.2833	-2.8917	-2.7625	-3.2354	-2.6896	-3.1979	-3.2042	-2.4062	-3.3333	-3.0417	-2.5167	-3.5187	-2.675	-3.0375	105.732	160.714	-92.759	205.643	153.033	132.016	174.528	-78.924	27.999	-34.454	-73.220	221.767	244.860	17.933	58.556	39.883	0.00012693	0.00046521	8.8662e-05	1115.2	3.3718e-06	5.1344e-06	1243.4	239.54	2.7946e-06	3.7254e-06	309.39	82.987	65.467	18.813	4.6786e-06	26.381	0.0008519	0.0013823	0.00037823	1100.6	1.3147e-05	1.5051e-05	1224	238.62	1.2771e-05	1.5147e-05	308.06	84.341	66.351	19.163	1.3755e-05	27.033	-47.089	-2.487	46.751	-91.164	83.044	81.771	-91.048	-83.676	48.398	66.893	-84.217	-77.244	-76.807	-69.893	66.365	-70.216	-8191	255	
3411.987	1	1	0	0	0.15667	0.02426	0.24539	0.36627	0.025367	0.19608	0.26579	0.29026	0.26894	0.11775	0.32345	0.17861	0.39413	0.17741	0.06264	0.14291	-2.8208	-2.35	-3.15	-2.8812	-2.7271	-3.1875	-2.6521	-2.9542	-3.1125	-2.1708	-3.0646	-2.8604	-2.6125	-3.3812	-2.6521	-2.8417	-4.325	173.993	130.116	158.345	-83.655	24.181	194.469	185.359	197.845	-68.903	258.191	-9.394	-78.415	226.294	-40.290	90.902	0.00015889	0.00026253	4.9154e-05	1115.5	2.0784e-06	4.6769e-06	1242.4	239.35	1.1015e-06	4.8306e-06	308.48	83.959	65.132	18.746	1.8991e-06	26.236	0.00086508	0.0013564	0.00036485	1099.3	1.3289e-05	1.482e-05	1222.9	237.93	1.3018e-05	1.5186e-05	307.8	84.512	66.169	19.199	1.3768e-05	26.935	-63.025	7.982	-59.165	-91.077	176.053	74.166	-90.955	-83.815	42.031	78.726	-83.925	-77.359	-76.493	-69.887	74.194	-69.975	-8191	255	
3412.083	1	1	0	0	0.085655	0.099478	0.010428	0.097752	0.19664	0.11854	0.14429	0.11446	0.039924	0.16988	0.11282	0.17744	0.13258	0.26792	0.13749	0.051438	-2.7083	-2.5604	-2.9729	-3.05	-2.5604	-3.3021	-2.6604	-2.9771	-3.2667	-2.3667	-3.2833	-2.925	-2.3917	-3.3125	-2.7521	-2.5438	16.787	-4.729	-84.363	200.704	210.971	-11.463	167.742	241.313	64.665	163.303	-86.681	-3.467	162.958	-61.724	101.545	-1.181	0.00015201	0.00032518	0.00015753	1115.7	4.7486e-06	1.9914e-06	1244.1	239.27	1.988e-06	3.7883e-06	308.8	83.165	65.23	18.77	3.7424e-06	26.545	0.00085739	0.0013109	0.00035748	1099.2	1.3105e-05	1.4377e-05	1222.8	238.1	1.3312e-05	1.503e-05	307.83	84.477	66.162	19.164	1.3685e-05	27.067	-56.658	-24.285	13.429	-91.093	69.912	41.873	-91.052	-83.482	110.014	39.974	-83.717	-77.099	-77.039	-69.639	37.641	-70.546	-8191	255	
3412.180	1	1	0	0	0.21308	0.26287	0.17583	0.11659	0.1506	0.29207	0.11065	0.19313	0.11821	0.25846	0.15698	0.21398	0.048599	0.13018	0.18242	0.3477	-2.9958	-2.4479	-3.05	-3.0792	-2.3417	-3.325	-2.9313	-2.6063	-3.3271	-2.4542	-2.925	-3.1479	-2.4708	-3.1729	-2.8438	-2.6958	213.045	124.684	6.596	247.331	-14.886	218.038	-8.694	162.218	20.217	168.398	200.758	142.654	255.927	171.413	-97.061	-98.901	0.00011479	0.00038744	0.0001044	1116.5	1.3529e-06	1.9752e-06	1240.5	240.63	3.7875e-06	4.5188e-06	308.24	83.486	65.49	18.871	1.4605e-06	26.273	0.00087398	0.0014243	0.00037845	1101	1.4288e-05	1.5813e-05	1221.8	238.77	1.3919e-05	1.5829e-05	307.84	84.67	66.442	19.228	1.4143e-05	26.991	-46.914	44.207	-12.012	-91.110	50.039	-2.985	-90.993	-83.819	96.248	83.898	-84.027	-77.020	-76.883	-69.634	43.490	-70.566	-8191	255	
3412.276	1	1	0	0	0.15458	0.060548	0.12617	0.23144	0.072438	0.18503	0.15799	0.31503	0.098921	0.26181	0.17473	0.14515	0.19475	0.17437	0.30983	0.24399	-3.0271	-2.5875	-2.8187	-3.375	-2.5625	-3.1958	-3.125	-2.6021	-3.4292	-2.575	-2.7188	-3.2292	-2.5	-3.1896	-2.9708	-2.5792	245.967	92.526	-48.099	-37.443	34.515	110.695	43.606	150.697	-101.655	-43.256	164.421	-39.033	-97.645	208.578	232.472	-91.551	0.00014436	0.00046364	0.00017122	1119.2	3.4666e-06	2.0213e-06	1232.3	239.34	1.0224e-06	3.1639e-06	309.85	83.824	65.835	18.739	1.777e-06	26.308	0.00090861	0.0013912	0.0003795	1101.7	1.4376e-05	1.5352e-05	1220.7	238.46	1.3506e-05	1.5164e-05	308.07	84.514	66.482	19.145	1.3396e-05	26.972	-25.770	-6.394	-7.435	-91.050	57.751	6.182	-90.830	-83.851	10.898	27.543	-83.888	-77.352	-76.731	-70.077	84.627	-69.725	-8191	255	
3412.372	1	1	0	0	0.17128	0.20983	0.064332	0.22723	0.30295	0.13026	0.21775	0.15467	0.12002	0.17089	0.083321	0.14326	0.22148	0.23061	0.22256	0.27041	-3.0125	-2.6896	-2.5292	-3.3125	-2.4854	-3.2021	-3.2083	-2.4896	-3.4167	-2.8875	-2.5146	-3.4271	-2.4417	-3.125	-3.2458	-2.4542	-18.466	189.947	42.317	151.779	-58.548	237.739	217.849	217.138	219.973	228.891	37.792	133.062	255.555	-87.515	229.036	208.639	0.0001421	0.00033916	3.0553e-05	1117.6	3.2001e-06	3.7446e-06	1237.7	239.86	3.5845e-06	2.5832e-06	306.92	83.478	64.963	18.776	3.9532e-06	26.51	0.00088036	0.0013483	0.00037727	1100.3	1.4089e-05	1.4417e-05	1222.1	239.02	1.3353e-05	1.4615e-05	307.6	84.524	66.275	19.165	1.356e-05	27.027	-47.563	-14.016	14.944	-91.114	159.921	44.607	-90.860	-83.705	-14.063	90.970	-83.639	-77.405	-76.374	-70.089	25.744	-70.138	-8191	255	
3412.468	1	1	0	0	0.12741	0.17063	0.3099	0.18891	0.20819	0.29159	0.089775	0.17021	0.07772	0.10586	0.34274	0.14874	0.10627	0.028706	0.23506	0.12295	-2.8854	-2.725	-2.5604	-3.3521	-2.3187	-2.9437	-3.3229	-2.425	-3.3167	-2.9333	-2.625	-3.4125	-2.6396	-2.9854	-3.3146	-2.65	49.843	25.687	237.983	186.840	241.742	42.015	168.355	-65.525	219.041	70.638	220.474	143.544	-26.778	12.011	-22.750	34.830	0.0001551	0.00034454	0.00015106	1116.2	3.1324e-06	2.2189e-06	1235.9	238.59	2.7192e-06	1.5437e-06	307.41	83.435	65.81	18.798	4.0038e-06	26.551	0.00087674	0.0013249	0.00036986	1100.4	1.373e-05	1.5329e-05	1222.2	238.47	1.362e-05	1.5077e-05	307.54	84.59	66.37	19.19	1.4318e-05	27.018	-32.424	-10.328	-12.032	-90.969	89.910	95.587	-90.964	-83.572	47.499	75.278	-83.870	-77.100	-76.669	-69.568	69.280	-70.890	-8191	255	
3412.587	1	1	0	0	0.19086	0.25786	0.090898	0.24032	0.29204	0.20873	0.055316	0.22814	0.24777	0.13305	0.19251	0.17273	0.077329	0.16494	0.062296	0.14504	-2.7875	-2.95	-2.475	-3.4188	-2.55	-2.8542	-3.3271	-2.4417	-3.1104	-3.0042	-2.8187	-3.4208	-2.8271	-2.7708	-3.3083	-2.3917	-69.390	14.365	-73.188	192.029	53.614	0.265	-58.087	-37.736	-42.318	141.691	45.940	149.803	127.334	220.365	-21.661	55.276	0.00016264	0.00027078	0.00012882	1101.7	2.0566e-06	1.4179e-06	1219.6	235.69	4.5312e-06	1.4343e-06	304	82.43	64.995	18.434	3.8234e-06	26.026	0.00087504	0.0013567	0.00039099	1098	1.3759e-05	1.5354e-05	1219.7	237.27	1.3467e-05	1.4795e-05	307.01	84.328	66.226	19.138	1.4574e-05	26.953	-64.366	-19.632	-36.451	-90.027	58.651	43.099	-90.040	-82.694	58.530	12.229	-82.773	-76.350	-76.206	-69.300	22.600	-69.550	-8191	255	
3412.683	1	1	0	0	0.15746	0.34372	0.31034	0.05591	0.10636	0.22133	0.25162	0.13973	0.22806	0.085196	0.2117	0.14417	0.072977	0.21174	0.10561	0.21783	-2.8896	-3.0167	-2.4583	-3.4688	-2.9708	-2.6562	-3.3875	-2.5312	-3.0938	-3.1104	-2.5938	-3.3854	-2.9625	-2.6021	-3.1375	-2.5687	123.652	45.631	55.193	-94.448	188.653	7.831	211.199	214.857	-71.918	22.708	217.809	258.358	97.846	-47.051	197.886	103.795	0.0001856	0.00010514	8.4007e-05	1104.6	3.703e-06	9.0822e-07	1220.8	235.62	1.4453e-06	7.2399e-06	302.64	82.564	64.083	18.52	1.6113e-06	25.957	0.00087689	0.0013367	0.0003874	1099.2	1.3506e-05	1.5089e-05	1218.3	237.67	1.3223e-05	1.4942e-05	306.56	84.426	65.962	19.117	1.43e-05	26.887	-49.228	48.266	29.798	-90.004	5.382	8.842	-90.163	-82.896	60.389	48.133	-83.150	-76.687	-75.798	-69.239	79.690	-69.509	-8191	255	
3412.779	1	1	0	0	0.14427	0.047246	0.20017	0.075227	0.15496	0.19231	0.2829	0.041507	0.33635	0.15571	0.23171	0.15832	0.22594	0.31468	0.10167	0.11624	-2.3979	-3.2542	-2.2917	-3.1979	-2.8396	-2.7729	-3.4875	-2.5292	-2.9021	-3.3521	-2.6021	-3.3833	-3.0312	-2.5042	-3.3896	-2.7667	241.353	-0.650	214.789	214.930	3.187	131.375	163.502	132.667	112.278	-72.277	158.531	234.472	102.197	43.756	-43.793	190.584	0.00014163	0.00049215	9.7217e-05	1097.7	4.0056e-06	6.317e-06	1222.5	235.49	3.1576e-06	1.27e-06	302.62	82.27	64.13	18.513	2.5714e-06	25.924	0.00085597	0.0013607	0.00038437	1097.3	1.3376e-05	1.5454e-05	1218.9	237.4	1.2926e-05	1.5317e-05	306.42	84.359	65.905	19.074	1.4177e-05	26.912	-57.534	6.469	-8.446	-89.979	92.554	54.500	-90.172	-82.867	49.153	41.898	-83.111	-76.366	-76.154	-68.589	81.212	-69.618	-8191	255	
3412.875	1	1	0	0	0.20561	0.14831	0.028298	0.11372	0.13167	0.24091	0.13824	0.08364	0.226	0.075692	0.12734	0.13355	0.17283	0.34419	0.12267	0.30867	-2.4125	-3.2708	-2.5	-3.2292	-3.0042	-2.4333	-3.5687	-2.7438	-2.7896	-3.5167	-2.5979	-3.025	-3.2438	-2.4958	-3.3	-2.8646	-57.027	185.015	27.429	-45.527	75.349	88.781	151.030	151.768	76.003	198.624	-63.628	217.055	200.339	37.312	63.850	-78.020	0.00014835	0.00032927	0.00013666	1098.3	1.5406e-06	4.2923e-06	1221.1	236.42	2.7439e-06	1.6895e-06	302.73	82.458	64.787	18.644	5.0756e-06	26.092	0.00084828	0.001348	0.00038719	1098.3	1.2942e-05	1.5443e-05	1219.8	237.13	1.3268e-05	1.5178e-05	306.46	84.406	66.013	19.132	1.4224e-05	26.875	-61.506	-29.834	-1.202	-90.205	23.720	70.362	-90.171	-82.902	170.984	37.247	-82.637	-76.083	-75.861	-68.756	69.093	-69.536	-8191	255	
3412.970	1	1	0	0	0.12466	0.12975	0.26101	0.23343	0.15807	0.13319	0.4456	0.29844	0.066232	0.18229	0.040938	0.17952	0.12674	0.10549	0.065746	0.33749	-2.3854	-3.1271	-2.2958	-3.2604	-3.1125	-2.4458	-3.3563	-2.8771	-2.5833	-3.225	-2.5979	-3.0083	-3.1146	-2.4979	-3.1375	-2.9958	162.894	-19.038	60.072	114.550	25.522	17.982	224.189	224.580	250.024	52.135	188.762	162.877	34.976	149.958	-64.244	-75.371	0.00020224	0.0002599	0.00016667	1103.3	1.1027e-06	1.1257e-06	1222.3	235.18	1.814e-06	5.1162e-06	302.88	82.204	64.646	18.526	1.5154e-06	25.932	0.00088472	0.0013379	0.00038304	1097	1.3589e-05	1.5608e-05	1218.5	237.53	1.3579e-05	1.5439e-05	306.43	84.054	66.077	19.17	1.3914e-05	26.898	-47.434	4.824	-28.633	-90.146	-25.968	42.806	-90.074	-82.952	15.936	41.863	-83.081	-76.335	-76.015	-68.971	64.771	-69.474	-8191	255	
3413.066	1	1	0	0	0.12304	0.31663	0.037516	0.051404	0.13662	0.12183	0.35893	0.29348	0.078041	0.088238	0.33959	0.19976	0.034264	0.14022	0.1179	0.16494	-2.1042	-3.3917	-2.5979	-3.0583	-3.3708	-2.5917	-3.5125	-2.9833	-2.4979	-3.3458	-2.7062	-2.8792	-3.2854	-2.5708	-3.1083	-3.0563	186.061	48.081	62.746	-70.309	194.987	-13.849	156.126	184.004	237.425	66.084	13.728	190.657	-18.883	-5.534	1.639	123.218	0.00013574	0.00019678	5.2737e-05	1097.8	4.8164e-06	4.0509e-06	1221.1	236.36	3.2628e-06	7.328e-06	302.91	82.083	64.481	18.419	3.9618e-06	26.102	0.00088702	0.0013958	0.00039392	1095.5	1.3644e-05	1.56e-05	1219.8	237.5	1.3788e-05	1.4683e-05	306.3	84.19	66.061	19.074	1.3907e-05	26.939	-23.563	-4.981	26.891	-90.029	-19.936	26.543	-90.037	-82.874	254.824	46.670	-83.474	-76.036	-75.703	-68.954	87.646	-69.756	-8191	255	
3413.162	1	1	0	0	0.036358	0.14459	0.13664	0.26251	0.024811	0.26391	0.17083	0.061077	0.05486	0.2147	0.17517	0.28908	0.26581	0.11053	0.077872	0.13641	-2.2604	-3.3937	-2.7417	-2.9938	-3.1958	-2.6125	-3.2062	-3.2562	-2.4042	-3.4042	-2.7604	-2.5292	-3.2583	-2.5271	-2.9479	-3.2313	145.951	80.439	-26.311	-72.775	141.461	-30.228	-8.781	-72.045	81.732	41.084	-75.964	231.547	-31.653	-62.466	-3.744	-35.110	0.00011103	0.00037765	0.00017042	1101.2	2.8759e-06	5.9928e-07	1220.3	235.33	1.056e-06	3.7512e-06	302.7	82.56	64.549	18.373	1.1491e-06	25.895	0.00088759	0.0013358	0.00036616	1098.8	1.3381e-05	1.551e-05	1218.3	237.32	1.3662e-05	1.4801e-05	306.45	84.263	66.032	19.07	1.3505e-05	26.847	-47.992	-23.963	-13.400	-89.998	42.950	-85.230	-90.070	-82.853	96.359	87.757	-82.908	-76.345	-76.192	-69.137	36.210	-69.686	-8191	255	
3413.258	1	1	0	0	0.066874	0.06108	0.12596	0.2804	0.071194	0.10678	0.21082	0.21422	0.14164	0.18955	0.26735	0.22201	0.073365	0.19485	0.22894	0.37572	-2.0417	-3.175	-2.7083	-2.5583	-3.3563	-2.6917	-3.1333	-3.4	-2.5396	-3.1458	-2.8438	-2.6104	-3.3937	-2.5604	-2.8229	-3.3604	125.222	-96.062	57.064	-96.067	147.572	195.509	181.333	189.837	190.658	99.179	-41.012	190.949	-25.273	133.966	-73.709	237.828	0.00013018	0.0005125	7.4464e-05	1099.6	1.8419e-06	4.607e-06	1222.7	236.09	2.2117e-06	1.7381e-06	302.49	82.486	64.93	18.539	2.5178e-06	26.017	0.00089493	0.0013457	0.00036794	1096.9	1.3834e-05	1.5156e-05	1219.4	237.7	1.3441e-05	1.5004e-05	306.47	84.306	66.236	19.131	1.403e-05	26.923	-50.400	12.381	-61.348	-90.283	138.224	32.146	-89.995	-82.761	55.248	-4.506	-83.203	-76.018	-75.573	-69.253	57.377	-69.093	-8191	255	
3413.379	1	1	0	0	0.28708	0.12719	0.208	0.037002	0.049622	0.12067	0.27884	0.12331	0.022971	0.16681	0.071005	0.11891	0.25157	0.076376	0.14512	0.21351	-2.1792	-3.1292	-3.0438	-2.725	-3.1229	-2.5083	-2.8458	-3.3396	-2.5396	-3.1021	-2.95	-2.6354	-3.3583	-2.7104	-2.7396	-3.4958	159.016	-16.960	99.239	-55.900	191.766	10.225	207.098	123.422	-15.457	228.741	43.741	181.557	-49.673	71.800	27.561	230.764	0.00016322	0.00013179	0.00011437	1096.5	1.5852e-06	2.5883e-06	1219.2	235.71	1.9041e-06	3.1446e-06	302.83	82.435	64.224	18.564	4.3838e-06	26.003	0.00091701	0.0013629	0.00037849	1098	1.4416e-05	1.5707e-05	1218.7	238.19	1.45e-05	1.553e-05	307.15	84.609	66.134	19.176	1.5003e-05	26.972	-27.642	-67.672	-29.684	-90.133	27.469	45.309	-89.889	-83.060	-22.113	105.641	-83.135	-76.252	-75.700	-68.911	72.126	-69.403	-8191	255	
3413.475	1	1	0	0	0.31582	0.063251	0.23744	0.20682	0.34406	0.28066	0.13149	0.083734	0.24077	0.19538	0.20478	0.14975	0.13724	0.071029	0.12317	0.043096	-2.3187	-2.9479	-2.875	-2.3896	-3.2292	-2.5771	-2.5854	-3.3729	-2.5125	-3.0187	-3.1521	-2.4854	-3.4271	-2.9	-2.7354	-3.5104	94.734	-1.800	213.589	211.677	-20.990	227.396	201.810	232.776	84.046	153.166	255.921	103.198	8.672	-6.139	64.329	-49.068	0.00011777	0.00049539	9.3249e-05	1101.2	2.151e-06	2.3534e-06	1220.2	235.13	1.8175e-06	3.5868e-06	302.86	82.754	64.125	18.486	1.4473e-06	25.921	0.00094484	0.0014243	0.00039439	1099	1.4503e-05	1.5844e-05	1219.5	237.54	1.4562e-05	1.5715e-05	306.95	84.727	66.224	19.156	1.5114e-05	26.952	-45.499	-9.309	2.553	-89.975	31.503	22.823	-89.914	-82.747	-25.591	11.476	-82.955	-76.022	-75.620	-68.953	81.119	-69.402	-8191	255	
3413.547	1	1	0	0	0.099342	0.071249	0.093953	0.19179	0.35712	0.2156	0.18447	0.20885	0.064081	0.1452	0.24507	0.094284	0.12382	0.32152	0.23319	0.092634	-2.2667	-2.6458	-3.1021	-2.5125	-3.2833	-2.8896	-2.7375	-3.3958	-2.5875	-2.8021	-3.3083	-2.7313	-3.1271	-2.9542	-2.4292	-3.2188	134.181	166.728	202.293	191.202	146.024	75.879	92.075	191.498	71.387	186.851	138.877	199.988	231.631	220.919	89.899	-56.076	0.00015395	0.00048516	0.00012499	1094.5	5.255e-06	3.3344e-06	1218.3	235.72	2.3186e-06	3.8492e-06	304.85	82.443	64.499	18.432	2.1874e-06	26.101	0.00092105	0.001418	0.00041709	1098.3	1.4048e-05	1.6057e-05	1220.5	238.07	1.4236e-05	1.5462e-05	308.04	84.625	66.435	19.146	1.5005e-05	26.986	-50.865	-9.885	-41.176	-90.108	41.954	78.928	-89.837	-82.821	49.040	59.556	-82.936	-75.985	-75.755	-68.838	49.227	-69.088	-8191	255	
3413.667	1	1	0	0	0.076909	0.22785	0.15558	0.30062	0.060812	0.07404	0.32838	0.26178	0.038166	0.28596	0.07756	0.11952	0.082709	0.1269	0.081084	0.085317	-2.3	-2.8812	-3.2729	-2.6646	-3.1979	-3.2708	-2.7062	-3.5375	-2.7	-2.6979	-3.2917	-2.6813	-3.1292	-3.1771	-2.5229	-3.2438	134.615	91.471	185.464	159.533	107.273	-8.187	-42.771	232.136	137.258	216.329	248.657	241.285	28.509	62.889	211.261	209.702	0.00015847	0.00026253	8.8762e-05	1095.1	3.6569e-06	1.9219e-06	1216.4	236.71	3.2979e-06	2.9412e-06	303.66	81.749	64.637	18.573	1.3502e-06	26.074	0.00089546	0.0013892	0.0003988	1097.7	1.425e-05	1.6027e-05	1219.7	238.31	1.4303e-05	1.5744e-05	307.76	84.438	66.323	19.195	1.5344e-05	27.057	-51.712	-25.525	-23.089	-89.854	6.308	30.016	-89.807	-83.066	88.704	29.059	-82.535	-76.158	-75.803	-69.340	149.004	-69.468	-8191	255	
3413.763	1	1	0	0	0.017805	0.075695	0.11324	0.29648	0.18047	0.3581	0.017378	0.053919	0.16814	0.11219	0.20627	0.13872	0.16099	0.13764	0.20032	0.0043993	-2.5625	-2.5938	-3.3312	-2.6292	-3.0271	-3.175	-2.5208	-3.2854	-2.9417	-2.5312	-3.375	-2.6437	-2.7917	-3.3396	-2.4083	-3.2917	178.825	128.886	258.225	217.025	-68.141	109.077	170.332	127.727	138.626	142.313	226.694	-41.149	81.958	-68.414	7.570	167.537	0.00015704	0.00031443	7.5563e-05	1100.8	3.0218e-06	3.4023e-06	1226.7	236.56	3.1927e-06	5.1879e-06	304.64	82.664	65.115	18.541	2.7759e-06	26.196	0.00090599	0.0014031	0.00040231	1100.1	1.3924e-05	1.5253e-05	1222.1	238.48	1.3814e-05	1.552e-05	308.15	84.554	66.537	19.186	1.5476e-05	27.045	-49.821	-2.807	-53.237	-90.313	47.076	64.546	-90.111	-82.588	94.374	61.291	-83.136	-76.248	-75.672	-68.759	51.376	-69.733	-8191	255	
3413.860	1	1	0	0	0.11716	0.075521	0.15131	0.2433	0.22317	0.16327	0.17172	0.30492	0.14133	0.32019	0.12274	0.16988	0.16695	0.43945	0.16612	0.030204	-2.6562	-2.575	-3.3063	-2.6375	-2.7146	-3.3583	-2.675	-3.2354	-3.1708	-2.4188	-3.4583	-2.7417	-2.6021	-3.5062	-2.3583	-3.1063	251.731	3.284	3.090	235.933	122.403	209.246	173.151	196.162	-40.926	124.999	-87.720	-74.890	229.022	157.060	163.359	87.711	0.00011052	0.00019827	0.00012432	1104.7	2.4565e-06	4.6297e-06	1222.4	236.74	3.031e-06	2.4535e-06	304.45	82.631	65.123	18.54	3.3523e-06	26.101	0.00091495	0.0014245	0.00040968	1100.9	1.4719e-05	1.634e-05	1220.5	238.7	1.4023e-05	1.579e-05	307.99	84.55	66.478	19.224	1.5321e-05	27.037	-31.978	26.669	-19.711	-90.198	-30.367	30.377	-90.212	-82.571	46.111	27.133	-83.101	-75.963	-75.963	-69.026	42.850	-69.536	-8191	255	
3413.978	1	1	0	0	0.21765	0.06385	0.082818	0.20282	0.14546	0.12428	0.16386	0.15909	0.19409	0.18886	0.28719	0.2519	0.15828	0.12296	0.12002	0.25649	-2.8479	-2.4333	-3.2938	-2.9625	-2.4625	-3.3167	-2.6083	-3.1188	-3.1375	-2.4854	-3.2938	-2.7708	-2.5875	-3.2458	-2.7313	-3.0896	74.204	198.317	162.751	220.659	148.548	-84.043	164.966	178.324	212.854	34.339	20.063	-77.979	53.231	250.312	53.389	24.568	0.00015958	0.0004281	7.0346e-05	1100.6	1.9047e-06	1.0517e-06	1225.6	236.28	4.5243e-06	3.2731e-06	305	82.624	64.906	18.547	4.3034e-06	26.298	0.00091822	0.0015349	0.00040769	1099.6	1.4804e-05	1.6948e-05	1221.1	238.62	1.4613e-05	1.7372e-05	308.44	84.732	66.549	19.211	1.59e-05	27.119	-56.646	9.977	-19.125	-90.133	106.110	129.824	-90.216	-82.523	52.603	11.142	-83.074	-76.491	-75.376	-68.898	97.647	-69.654	-8191	255	
3414.075	1	1	0	0	0.071554	0.23744	0.088858	0.29845	0.22816	0.28471	0.16885	0.27027	0.29369	0.20702	0.18757	0.17702	0.2198	0.24688	0.040496	0.24502	-2.7354	-2.5354	-3.1458	-3.1229	-2.5396	-3.3146	-2.8625	-2.9208	-3.1604	-2.4521	-3.2458	-2.7146	-2.6125	-3.2896	-2.6396	-2.9125	-88.959	140.313	103.806	251.064	120.112	208.456	129.300	248.705	93.257	-13.449	229.249	209.721	23.051	-34.882	208.140	188.233	0.00017986	7.7607e-05	7.7162e-05	1098.7	2.8264e-06	4.6113e-06	1225.3	236.06	2.5561e-06	2.7079e-06	304.67	82.526	65.031	18.649	4.0721e-06	25.986	0.00094281	0.001508	0.00041219	1099.7	1.4983e-05	1.7028e-05	1224.5	238.58	1.4753e-05	1.743e-05	308.06	84.646	66.484	19.235	1.5538e-05	27.039	-57.090	43.293	-8.668	-90.296	114.107	54.767	-90.245	-82.858	-1.902	105.025	-83.325	-76.424	-75.917	-68.921	162.093	-69.366	-8191	255	
3414.171	1	1	0	0	0.029352	0.25963	0.19227	0.23378	0.098833	0.12156	0.12766	0.22038	0.11103	0.30399	0.21457	0.10348	0.13576	0.16002	0.15559	0.063756	-2.875	-2.4417	-2.9042	-3.1354	-2.3896	-3.3917	-2.8625	-2.6813	-3.2625	-2.4729	-3.1479	-3.1792	-2.4313	-3.4271	-2.6937	-2.8063	49.784	-49.237	138.116	197.461	98.415	237.961	163.192	253.170	84.813	4.907	171.220	51.712	122.511	-69.760	57.107	235.576	0.0002116	0.00042529	7.5369e-05	1099.5	4.5707e-06	5.5903e-06	1224.3	236.67	1.624e-06	2.0579e-06	304.13	82.908	65.425	18.658	7.7969e-06	26.139	0.00098638	0.0016035	0.00042408	1098.5	1.5845e-05	1.7656e-05	1219.9	238.9	1.5342e-05	1.7964e-05	308.01	84.641	66.596	19.245	1.6048e-05	27.085	-32.603	-39.370	63.225	-90.246	108.363	60.690	-90.354	-82.819	-14.299	31.678	-82.856	-76.203	-75.807	-68.909	32.103	-69.698	-8191	255	
3414.267	1	1	0	0	0.28603	0.33087	0.20184	0.27833	0.083834	0.38149	0.29736	0.18809	0.20287	0.12533	0.054862	0.14636	0.057061	0.17713	0.1137	0.10662	-3.1188	-2.3583	-2.8187	-3.225	-2.4375	-3.3	-2.9375	-2.5479	-3.2146	-2.5167	-2.7729	-3.3563	-2.5563	-2.9104	-2.7417	-2.5083	-99.137	193.338	-77.015	189.844	-94.906	168.261	227.867	110.495	139.083	-48.279	217.831	132.316	-57.877	23.094	191.754	138.512	9.0222e-05	0.00054484	0.00010728	1101.7	2.3674e-06	2.4794e-06	1221.6	236.7	4.5175e-06	2.9813e-06	305.72	82.305	64.966	18.413	5.1584e-06	25.963	0.00095107	0.0015715	0.00041013	1100.9	1.5625e-05	1.7385e-05	1222.1	238.9	1.5243e-05	1.7373e-05	307.9	84.737	66.587	19.161	1.5353e-05	27.03	-46.541	45.734	-11.176	-90.139	-72.456	114.387	-90.112	-82.947	67.833	29.925	-82.981	-76.301	-75.664	-68.888	23.780	-69.563	-8191	255	
3414.363	1	1	0	0	0.238	0.18513	0.13805	0.21223	0.2008	0.19428	0.2554	0.12273	0.30735	0.1962	0.19214	0.044145	0.090178	0.29306	0.055242	0.14195	-2.8854	-2.6625	-2.8292	-3.3396	-2.5104	-3.0708	-3.3	-2.5646	-3.3375	-2.8333	-2.7438	-3.3146	-2.5187	-2.9938	-3.0729	-2.4729	-12.859	34.161	150.695	179.612	47.095	155.201	202.787	185.925	-41.045	47.223	76.070	59.251	2.766	244.899	11.447	-56.083	0.00013747	0.00036401	6.7395e-05	1101.8	4.55e-06	3.6685e-06	1225.2	236.23	3.6251e-06	4.082e-06	307.12	83.161	64.713	18.68	4.8441e-06	26.088	0.00096724	0.0014631	0.00040138	1099.7	1.5372e-05	1.6715e-05	1222.2	238.9	1.5008e-05	1.5888e-05	308.85	84.797	66.456	19.243	1.5276e-05	27.045	-52.034	-14.952	3.312	-90.079	59.786	81.341	-89.986	-82.940	80.825	84.187	-82.684	-76.330	-75.815	-68.762	42.536	-68.982	-8191	255	
3414.459	1	1	0	0	0.1141	0.11032	0.19777	0.19439	0.18295	0.36555	0.089098	0.14754	0.25239	0.21778	0.21323	0.25731	0.12005	0.21408	0.35217	0.24745	-2.8417	-2.7354	-2.65	-3.3458	-2.4625	-3.1208	-3.0854	-2.525	-3.3333	-2.6354	-2.7833	-3.1271	-2.3667	-3.0958	-3.2292	-2.4896	121.468	232.094	-68.816	213.287	214.649	69.677	2.461	227.723	-0.277	153.856	210.358	-44.291	99.943	44.039	98.732	206.134	0.00011536	0.00025364	9.2566e-05	1102.5	4.1184e-06	1.0507e-06	1224.1	237.02	2.2898e-06	2.9012e-06	307.05	82.486	64.419	18.624	5.0164e-06	26.157	0.00096206	0.0014781	0.00040944	1101.2	1.4837e-05	1.7045e-05	1222.2	239.2	1.4631e-05	1.6402e-05	308.99	84.637	66.474	19.194	1.5587e-05	27.145	-51.287	-25.513	-37.545	-90.129	36.347	19.834	-90.044	-82.984	70.328	60.265	-82.964	-76.345	-75.664	-68.798	81.355	-69.700	-8191	255	
3414.555	1	1	0	0	0.42721	0.20144	0.21483	0.12404	0.02743	0.23031	0.020342	0.098219	0.15942	0.31684	0.20131	0.1286	0.066394	0.097125	0.017861	0.22448	-2.6937	-2.6625	-2.6208	-3.1375	-2.5146	-2.9583	-3.3104	-2.5187	-3.2562	-3.0021	-2.6521	-3.2917	-2.4708	-2.9354	-3.3438	-2.2729	191.229	159.954	30.742	223.701	169.955	10.708	145.158	180.631	94.313	195.744	34.571	5.420	232.179	-1.704	46.743	158.425	0.00016845	0.00039239	9.9773e-05	1105.6	6.5554e-06	4.1072e-06	1227	236.9	3.7366e-06	4.8629e-06	304.43	82.702	65.027	18.616	1.6463e-06	26.319	0.00095097	0.0014688	0.00042253	1101.4	1.5498e-05	1.6373e-05	1224.6	238.96	1.509e-05	1.6275e-05	308.53	84.725	66.501	19.24	1.5154e-05	27.114	-57.085	26.197	-35.353	-90.178	66.357	105.711	-90.077	-82.930	95.373	107.839	-82.788	-76.407	-76.168	-68.635	111.117	-69.711	-8191	255	
3414.676	1	1	0	0	0.13558	0.10371	0.045698	0.32536	0.11201	0.14903	0.31452	0.15861	0.20776	0.13282	0.19411	0.12544	0.09265	0.22113	0.07587	0.28659	-2.6875	-2.75	-2.2583	-3.4167	-2.6375	-2.8479	-3.3396	-2.6	-3.025	-3.0687	-2.3521	-3.2479	-2.5521	-2.6167	-3.1813	-2.3854	110.808	187.343	-33.002	252.682	16.839	195.110	120.961	217.619	206.077	64.479	60.978	31.157	247.781	-27.546	-13.856	172.243	0.00019424	0.00033614	0.00014112	1101.8	6.4371e-06	3.7036e-06	1221.1	236.54	1.8706e-06	1.6562e-06	304.35	82.739	64.384	18.565	3.8148e-06	26.049	0.00093906	0.0014666	0.0004211	1101.4	1.4587e-05	1.621e-05	1222.1	238.51	1.4582e-05	1.5669e-05	308.18	84.707	66.456	19.167	1.5626e-05	27.015	-54.234	15.174	-14.533	-89.720	50.082	43.399	-90.000	-82.789	106.162	64.333	-83.099	-76.395	-75.852	-68.674	197.806	-69.995	-8191	255	
3414.772	1	1	0	0	0.13145	0.15202	0.038491	0.30387	0.20001	0.16748	0.40894	0.056671	0.28819	0.045048	0.30926	0.09128	0.17215	0.079911	0.082607	0.32317	-2.6813	-3.0542	-2.4313	-3.2583	-2.8021	-2.55	-3.3792	-2.6229	-2.9167	-3.3812	-2.4979	-3.2938	-2.7562	-2.5104	-3.2562	-2.7313	18.029	171.836	255.767	171.544	97.033	64.957	200.896	0.333	54.700	139.866	104.749	240.926	10.876	202.150	221.040	45.455	0.00016249	0.00021825	0.0001274	1103.7	5.6505e-06	2.2932e-06	1220	235.67	1.4584e-06	3.8405e-06	303.61	81.936	63.987	18.528	3.436e-06	25.966	0.00092885	0.001453	0.00042584	1101.5	1.4594e-05	1.6316e-05	1221.2	238.62	1.4427e-05	1.6113e-05	307.81	84.502	66.135	19.204	1.5362e-05	26.866	-54.569	11.558	5.417	-90.237	108.096	6.202	-90.025	-82.646	101.636	-0.278	-83.168	-76.058	-75.620	-69.110	110.074	-69.479	-8191	255	
3414.844	1	1	0	0	0.28988	0.14992	0.12663	0.28172	0.084661	0.33464	0.22893	0.30699	0.0118	0.15397	0.11446	0.04417	0.27649	0.32915	0.12929	0.31426	-2.3875	-3.1229	-2.4938	-3.2687	-3.0125	-2.6833	-3.5458	-2.5312	-2.8021	-3.2708	-2.5375	-3.1708	-3.05	-2.5083	-3.2062	-2.7438	24.706	-81.821	92.723	192.237	65.758	98.515	197.226	196.623	21.000	82.402	180.879	254.668	141.154	-54.297	220.694	-51.746	0.00014798	0.00020984	4.7767e-05	1096.7	1.9001e-06	4.8322e-06	1221.3	235.85	1.9293e-06	4.0986e-06	302.56	82.245	63.994	18.496	3.8156e-06	25.72	0.00092435	0.001452	0.00043085	1100.6	1.4356e-05	1.6721e-05	1221.8	238.28	1.4419e-05	1.6087e-05	307.64	84.394	66.242	19.162	1.5691e-05	26.891	-45.060	-35.163	76.033	-89.975	228.746	42.926	-89.925	-82.600	65.654	55.837	-82.412	-75.807	-75.750	-68.628	112.219	-69.597	-8191	255	
3414.940	1	1	0	0	0.19468	0.10267	0.035837	0.10672	0.23108	0.16798	0.34265	0.20311	0.11623	0.1676	0.15514	0.22514	0.22021	0.099413	0.075743	0.072715	-2.3354	-3.4042	-2.4333	-3.1333	-3.175	-2.3958	-3.4208	-2.8958	-2.6312	-3.2229	-2.4771	-3.0812	-3.0208	-2.3688	-3.3104	-2.8187	247.810	58.303	-80.079	63.398	183.310	159.100	-43.878	-15.245	0.892	83.592	161.752	-96.566	-29.408	137.269	115.903	152.309	0.00011786	0.00042389	6.0243e-05	1096.4	2.3909e-06	3.2809e-06	1214.3	233.73	4.4777e-06	5.6864e-07	302.25	81.672	64.192	18.447	3.3441e-06	25.99	0.00091315	0.0014785	0.00041449	1099.9	1.4008e-05	1.6578e-05	1219.8	237.58	1.4066e-05	1.5923e-05	306.88	84.099	66.081	19.118	1.4817e-05	26.808	-20.228	-64.445	-11.421	-89.673	-10.401	68.816	-89.816	-82.713	38.177	0.217	-82.626	-76.285	-75.732	-68.591	14.775	-69.485	-8191	255	
3415.059	1	1	0	0	0.071662	0.14233	0.11424	0.079923	0.20962	0.13108	0.078367	0.11457	0.12257	0.055246	0.09227	0.15103	0.06075	0.25294	0.22062	0.089126	-2.1292	-3.3542	-2.625	-3.0792	-3.1896	-2.5542	-3.3333	-3.1562	-2.5062	-3.4854	-2.6854	-2.9646	-3.3333	-2.5146	-2.9979	-3.0083	-62.329	256.418	7.207	158.453	87.145	99.418	-55.377	233.227	220.228	-8.813	79.915	247.553	164.899	240.978	-37.756	208.542	0.00017804	0.0003673	0.0001059	1099.8	5.0621e-06	1.7369e-06	1222.7	235.57	3.318e-06	4.9593e-06	303.01	82.237	64.184	18.404	2.2908e-06	25.754	0.00091364	0.0014213	0.00041265	1098.4	1.4143e-05	1.6794e-05	1221.7	237.99	1.4013e-05	1.6393e-05	307.06	84.272	66.191	19.115	1.4434e-05	26.864	-27.333	-3.543	-30.564	-90.061	62.660	126.362	-89.981	-82.600	106.191	11.660	-82.990	-76.060	-75.725	-68.644	-21.441	-69.389	-8191	255	
3415.155	1	1	0	0	0.30561	0.23028	0.12638	0.12631	0.11857	0.16366	0.22163	0.065459	0.14011	0.037192	0.055312	0.14281	0.052427	0.046654	0.09923	0.10881	-2.1083	-3.2229	-2.6792	-2.925	-3.3083	-2.4917	-3.2208	-3.1104	-2.7313	-3.1167	-2.7313	-2.7792	-3.2833	-2.6604	-3.0958	-2.9938	28.844	246.061	-16.476	13.263	188.215	181.332	218.826	175.619	232.664	91.430	-75.969	200.669	82.040	25.700	217.988	134.300	0.00016144	0.00031081	9.94e-05	1095.9	3.6969e-06	1.5172e-06	1213.7	231.72	2.0295e-06	5.1498e-06	298.88	80.89	62.917	18.203	3.1161e-06	25.441	0.00091286	0.0013404	0.00037	1097.8	1.2795e-05	1.4746e-05	1215.9	235.76	1.2225e-05	1.3443e-05	304.8	83.403	65.338	18.867	1.1935e-05	26.588	-43.287	-8.710	-53.268	-89.793	92.641	52.396	-89.552	-82.316	38.865	54.502	-82.702	-75.972	-75.399	-68.746	18.350	-69.560	-8191	255	
3415.251	1	1	0	0	0.06791	0.15901	0.023632	0.12931	0.10086	0.044184	0.26962	0.32732	0.052927	0.23347	0.29224	0.20959	0.1589	0.23321	0.21321	0.14037	-2.0125	-3.2979	-2.8854	-2.5708	-3.3354	-2.4458	-3.4188	-3.3792	-2.5625	-3.2812	-3.0833	-2.6833	-3.3625	-2.5687	-2.9688	-3.0958	218.648	11.525	177.392	-80.352	73.711	186.968	195.881	14.199	124.279	188.406	108.216	-80.914	-36.773	236.227	79.750	235.095	0.00016554	0.0006502	0.00010229	1093.4	3.999e-06	1.3519e-06	1208.9	232.64	7.1794e-06	3.4095e-06	297.73	81.177	63.253	18.295	2.9548e-06	25.753	0.00079214	0.0011955	0.00032693	1093	1.2472e-05	1.4498e-05	1214.4	235.46	1.2683e-05	1.4289e-05	304.06	83.596	65.614	18.937	1.3313e-05	26.803	-57.010	-42.928	-35.589	-89.794	66.239	171.456	-89.480	-82.591	74.523	132.778	-82.680	-75.760	-75.605	-68.539	49.636	-69.208	-8191	255	
3415.347	1	1	0	0	0.25586	0.00069865	0.049957	0.18557	0.10012	0.1988	0.16066	0.10378	0.077082	0.040945	0.28619	0.16966	0.22733	0.1487	0.20721	0.14351	-1.9917	-3.3	-3.05	-2.6312	-3.2979	-2.6708	-2.9875	-3.2438	-2.5083	-3.2271	-3.0167	-2.5	-3.3104	-2.4625	-2.7292	-3.2021	-52.900	180.000	-13.576	234.385	166.748	-95.591	-16.918	233.958	6.647	228.254	195.348	-57.341	27.389	149.466	181.469	164.903	0.00010553	0.00038273	0.00011046	1087.5	5.3217e-06	4.2851e-06	1206.9	231.97	4.0756e-06	2.9587e-06	298.67	80.665	63.233	18.152	2.3345e-06	25.591	0.00087692	0.0013061	0.00036358	1093.4	1.331e-05	1.4659e-05	1212.7	235.77	1.2538e-05	1.3829e-05	304.66	83.648	65.484	18.863	1.1814e-05	26.548	-63.835	-31.305	-32.131	-89.689	53.555	59.358	-89.440	-82.657	63.180	44.764	-82.665	-75.596	-75.288	-68.267	44.309	-68.843	-8191	255	
3415.443	1	1	0	0	0.22755	0.089935	0.1259	0.32317	0.11239	0.28489	0.35625	0.20161	0.18507	0.032938	0.1494	0.25743	0.13943	0.10261	0.25211	0.26687	-2.2354	-3.0396	-3.0146	-2.6979	-3.4188	-2.8667	-2.85	-3.4042	-2.5708	-3.1896	-3.1583	-2.5271	-3.1312	-2.7854	-2.6042	-3.3625	-7.303	144.141	256.655	-81.638	57.736	-67.563	179.643	168.715	67.766	-46.392	241.421	-50.257	224.606	5.147	-77.433	69.597	0.00016429	0.00016783	7.285e-05	1087.7	1.3209e-06	3.2477e-06	1207.1	231.67	5.1103e-06	4.1847e-06	298.02	81	63.211	18.19	6.2097e-06	25.342	0.000753	0.0011022	0.00030179	1092.7	1.1306e-05	1.2282e-05	1213.1	234.55	1.1644e-05	1.2311e-05	303.79	83.36	65.158	18.83	1.2033e-05	26.529	-45.224	-22.732	-35.308	-89.730	-82.070	58.808	-89.654	-82.316	-7.206	42.582	-82.528	-75.417	-75.620	-68.437	15.771	-68.854	-8191	255	
3415.540	1	1	0	0	0.17976	0.16921	0.19742	0.079925	0.18171	0.18644	0.31974	0.15732	0.12404	0.11946	0.13876	0.1412	0.22071	0.10707	0.15693	0.3234	-2.1917	-2.7438	-3.1396	-2.5521	-3.1708	-2.9104	-2.75	-3.3042	-2.6917	-2.8396	-3.2313	-2.4229	-3.1729	-2.8333	-2.6896	-3.4354	68.971	-14.653	-69.179	186.803	-76.058	204.470	246.772	-56.588	211.887	-33.565	228.052	43.557	225.003	30.277	50.756	216.976	9.8011e-05	0.00027725	7.7511e-05	1085.9	3.3832e-06	4.6866e-07	1200.5	231.66	4.2031e-06	3.3798e-06	301.9	81.808	63.917	18.384	2.351e-06	25.721	0.00079547	0.001175	0.00034034	1092	1.2801e-05	1.3612e-05	1210.1	235.31	1.2674e-05	1.3709e-05	304.58	83.768	65.754	18.964	1.3273e-05	26.614	-45.112	-13.729	-26.319	-89.720	69.570	208.334	-89.327	-82.576	39.818	99.906	-82.642	-76.355	-75.716	-68.999	70.963	-69.528	-8191	255	
3415.660	1	1	0	0	0.094504	0.18378	0.23012	0.43858	0.077709	0.034194	0.036793	0.1411	0.014722	0.23621	0.37596	0.2439	0.30891	0.21719	0.38783	0.264	-2.35	-2.8396	-3.1458	-2.4125	-3.1063	-3.0729	-2.6958	-3.2896	-2.6271	-2.6125	-3.3438	-2.4708	-3.1771	-2.9854	-2.4396	-3.3708	167.370	-7.696	-23.906	258.485	105.448	152.042	232.000	64.409	-62.435	246.359	247.631	181.463	159.693	32.184	210.894	236.000	0.00015662	0.00043265	3.6528e-05	1091.3	2.2461e-06	3.4267e-06	1211.7	232.27	3.6113e-06	3.1106e-06	299.4	81.081	63.396	18.161	2.3153e-06	25.504	0.00079703	0.001202	0.00033865	1093.1	1.2584e-05	1.273e-05	1212.7	234.99	1.1721e-05	1.2647e-05	303.35	83.607	65.295	18.802	1.2326e-05	26.569	-54.976	-15.749	-28.302	-90.160	66.238	49.806	-89.691	-82.599	-4.333	108.730	-82.800	-75.975	-75.550	-68.652	108.805	-68.882	-8191	255	
3415.756	1	1	0	0	0.08878	0.1228	0.19608	0.47847	0.17985	0.13764	0.22618	0.14486	0.09741	0.25984	0.095566	0.052004	0.12022	0.38047	0.054546	0.18715	-2.2875	-2.8271	-3.0938	-2.65	-2.9417	-3.2375	-2.5938	-3.3896	-2.6479	-2.5083	-3.5208	-2.65	-2.9437	-3.2208	-2.3521	-3.2979	104.585	30.744	22.352	228.531	28.557	124.806	144.168	178.837	253.796	180.555	106.468	-28.345	218.002	-80.830	64.213	11.066	0.00016078	0.00026158	0.00011494	1086.9	5.529e-06	3.0884e-06	1201.9	230.8	1.5803e-06	1.5169e-06	299.38	80.537	62.942	18.019	2.977e-06	25.413	0.00075361	0.0011432	0.0003208	1091.5	1.185e-05	1.3009e-05	1209.2	234.54	1.1425e-05	1.3194e-05	303.65	83.067	64.965	18.783	1.2789e-05	26.585	-26.030	-31.576	-12.083	-89.593	39.742	25.754	-89.626	-82.274	122.579	-0.059	-82.675	-75.397	-75.028	-68.605	98.792	-68.629	-8191	255	
3415.852	1	1	0	0	0.10523	0.061533	0.067926	0.020936	0.29353	0.066296	0.27892	0.31601	0.16846	0.038581	0.094227	0.47033	0.19767	0.082797	0.11812	0.12706	-2.4729	-2.4354	-3.2667	-2.6312	-2.8438	-3.2396	-2.6042	-3.2708	-2.9917	-2.5396	-3.4813	-2.5333	-2.7458	-3.4125	-2.4771	-3.1021	-61.102	64.897	117.917	-41.755	159.788	235.317	204.443	216.131	-51.363	215.166	248.005	227.180	254.970	-96.542	90.249	168.910	0.00014794	0.00021695	5.0999e-05	1075.2	3.3168e-06	3.0608e-06	1203.7	231.35	3.3942e-06	4.096e-06	298.74	80.528	62.989	17.924	3.4682e-06	25.407	0.00075066	0.0011701	0.00033328	1086.8	1.131e-05	1.278e-05	1209.6	234.05	1.0276e-05	1.2293e-05	302.75	82.766	64.71	18.658	1.0967e-05	26.398	-39.505	-7.520	-15.749	-89.500	36.813	73.890	-89.939	-82.815	-5.006	81.218	-82.848	-75.851	-75.207	-68.387	48.232	-68.733	-8191	255	
3415.949	1	1	0	0	0.14295	0.29968	0.22814	0.35349	0.22392	0.095387	0.17377	0.091887	0.053111	0.090358	0.16201	0.049604	0.17639	0.063472	0.25122	0.096914	-2.7125	-2.425	-3.2938	-2.8396	-2.7104	-3.4146	-2.6208	-3.2271	-3.2479	-2.4437	-3.3438	-2.7771	-2.6708	-3.3	-2.6354	-2.9562	230.769	-5.228	197.622	200.663	249.410	215.831	192.812	-79.101	97.985	174.248	198.615	177.034	-58.407	30.086	52.331	-73.822	0.00014772	0.0001762	7.8993e-05	1076.1	2.1522e-06	3.655e-06	1189.7	228.72	2.9226e-06	4.6455e-06	295.91	79.543	62.081	17.798	2.7105e-06	25.208	0.00065581	0.0010527	0.00029133	1083.8	1.0784e-05	1.1863e-05	1203.1	233.35	1.0796e-05	1.2588e-05	301.93	82.584	64.661	18.721	1.2835e-05	26.498	-57.702	-17.609	31.378	-89.509	158.982	59.534	-89.563	-82.181	117.812	40.795	-82.372	-75.616	-75.219	-68.072	60.450	-68.578	-8191	255	
3416.067	1	1	0	0	0.22454	0.2789	0.050787	0.32734	0.26485	0.14393	0.19013	0.15236	0.29382	0.21741	0.28857	0.17572	0.1702	0.080419	0.086163	0.2527	-2.7854	-2.3354	-3.3854	-2.9229	-2.6271	-3.4062	-2.7083	-2.9396	-3.2646	-2.4229	-3.35	-3.1188	-2.5958	-3.3063	-2.5646	-2.7458	96.122	15.449	159.092	-50.736	4.274	125.558	194.078	-59.554	150.475	-12.250	185.269	174.372	-77.242	141.526	173.610	-22.278	0.0001114	0.00018267	7.1615e-05	1085.6	7.5927e-07	3.7719e-06	1213.5	233.79	2.977e-06	1.8871e-06	298.28	80.673	63.269	18.338	3.3572e-06	25.682	0.00077909	0.0012548	0.0003504	1087.3	1.2093e-05	1.4016e-05	1209.8	234.6	1.186e-05	1.3808e-05	302.75	83.184	64.955	18.833	1.2519e-05	26.507	-43.015	55.550	-32.846	-89.931	73.771	65.430	-89.763	-82.861	10.523	30.097	-82.763	-76.492	-75.696	-68.804	44.750	-69.321	-8191	255	
3416.139	1	1	0	0	0.15454	0.21286	0.11103	0.14322	0.19146	0.24984	0.16849	0.26434	0.093162	0.41313	0.02978	0.21273	0.14336	0.16613	0.19036	0.15802	-2.8729	-2.1292	-3.2083	-3.15	-2.4813	-3.2854	-2.8312	-2.9708	-3.275	-2.4417	-2.9917	-3.0771	-2.5062	-3.4042	-2.7146	-2.6917	117.533	212.416	185.657	193.595	117.699	-91.712	228.516	162.466	66.526	21.522	100.241	237.827	-62.100	204.150	251.538	131.010	0.00016766	0.00031739	0.00019052	1093.3	1.9262e-06	2.7461e-06	1210.9	232.71	2.371e-06	2.3461e-06	300.1	80.609	63.709	18.26	3.2819e-06	25.646	0.00075875	0.0011807	0.00031272	1088.2	1.1291e-05	1.2768e-05	1209.4	234.42	1.1625e-05	1.3073e-05	302.69	83.194	65.008	18.823	1.1823e-05	26.493	-44.388	5.236	-11.273	-90.166	52.058	-13.160	-89.916	-82.631	61.994	22.133	-83.139	-76.349	-75.541	-69.208	48.986	-69.209	-8191	255	
3416.235	1	1	0	0	0.048869	0.25281	0.18845	0.083759	0.26736	0.18592	0.080622	0.30226	0.10498	0.078618	0.11957	0.1476	0.17792	0.29944	0.17204	0.1535	-2.9125	-2.4625	-3.1458	-3.125	-2.4979	-3.2229	-2.9813	-2.7	-3.3104	-2.6021	-2.9458	-3.2687	-2.6229	-3.2313	-2.8458	-2.7729	213.750	208.751	-94.098	204.331	225.719	247.441	203.982	197.834	-30.153	193.492	-47.243	89.911	257.173	151.200	238.619	-63.514	0.00019513	0.00037732	0.00013751	1087.3	4.3385e-06	1.9903e-06	1210.9	233.16	1.2434e-06	3.6227e-06	298.71	81.328	63.957	18.324	2.9479e-06	25.714	0.00078186	0.0012436	0.00032446	1089.1	1.2218e-05	1.3406e-05	1209	234.59	1.1727e-05	1.3132e-05	302.66	83.025	65.351	18.801	1.199e-05	26.524	-55.736	-22.730	6.805	-90.294	97.489	120.417	-89.944	-82.912	109.624	11.496	-83.097	-76.202	-75.263	-68.805	32.292	-69.070	-8191	255	
3416.356	1	1	0	0	0.20536	0.022561	0.035445	0.28829	0.15309	0.082876	0.25467	0.28944	0.14678	0.13367	0.07457	0.046992	0.14146	0.058019	0.10792	0.11608	-2.9229	-2.6229	-2.9083	-3.2938	-2.3417	-3.0792	-2.9646	-2.5062	-3.25	-2.4729	-2.8479	-3.3604	-2.5479	-3.1688	-3.1833	-2.6021	212.210	-1.408	-41.380	255.691	251.605	145.725	178.535	-87.667	48.329	197.860	117.597	133.367	103.190	-54.453	-3.686	-86.630	0.00014582	0.00041621	7.0572e-05	1092.1	3.1091e-06	4.2287e-06	1211.4	232.88	8.6712e-07	5.309e-07	300.41	81.583	63.391	18.348	1.1536e-06	25.827	0.00077611	0.0011768	0.00031412	1090.1	1.2872e-05	1.3217e-05	1208.6	234.53	1.2194e-05	1.3436e-05	303.35	83.165	65.238	18.849	1.1963e-05	26.596	-50.690	29.317	-30.768	-90.004	83.119	45.234	-90.257	-82.810	121.294	253.121	-83.123	-76.420	-75.996	-68.836	163.071	-69.770	-8191	255	
3416.452	1	1	0	0	0.14839	0.19493	0.12791	0.065267	0.07084	0.088527	0.25541	0.15162	0.10166	0.10878	0.37778	0.27086	0.095106	0.088469	0.074134	0.12168	-2.9625	-2.5938	-2.5125	-3.4292	-2.3542	-3.0062	-3.1854	-2.3833	-3.1292	-2.7333	-2.6792	-3.1375	-2.4833	-3.2438	-3.0167	-2.425	209.614	-16.509	17.946	-69.483	102.155	161.365	136.371	149.900	-60.208	224.514	227.229	-79.201	224.560	178.606	136.939	129.813	0.0001504	0.00030508	0.00013413	1095.1	2.8092e-06	1.2812e-06	1215.7	232.01	2.0361e-06	4.4964e-06	300.89	81.681	63.549	18.38	2.8372e-06	25.814	0.00077207	0.0011702	0.00031727	1090.9	1.2213e-05	1.2932e-05	1210.8	234.12	1.1537e-05	1.2955e-05	303.46	83.185	65.193	18.838	1.2104e-05	26.537	-42.216	-0.500	-21.368	-90.055	41.778	66.564	-90.104	-82.582	29.461	34.943	-82.933	-76.032	-76.067	-68.515	-19.501	-69.666	-8191	255	
3416.548	1	1	0	0	0.14114	0.30968	0.11952	0.30019	0.10139	0.081507	0.086184	0.11305	0.08285	0.32066	0.14357	0.076169	0.14712	0.16655	0.32547	0.20891	-2.8271	-2.7958	-2.4271	-3.6021	-2.4417	-3.0958	-3.1937	-2.5792	-3.2104	-2.7729	-2.6333	-3.3458	-2.675	-2.8688	-3.1937	-2.4729	86.106	19.010	81.086	231.493	133.241	-63.500	-78.676	-94.725	112.670	72.183	-78.002	166.210	212.378	128.743	28.573	231.133	0.00017622	0.00050716	8.3033e-05	1092.1	8.1506e-07	4.0577e-06	1212.3	233.4	2.1027e-06	3.8573e-06	299.49	81.908	63.257	18.121	6.1237e-06	25.65	0.00077902	0.0011659	0.00032299	1090	1.2318e-05	1.3249e-05	1210.6	234.73	1.1823e-05	1.3454e-05	303.05	83.304	65.323	18.755	1.2501e-05	26.597	-45.425	37.079	6.162	-90.077	53.490	80.564	-90.027	-82.628	40.781	49.263	-82.645	-76.224	-76.056	-68.598	58.174	-69.317	-8191	255	
3416.644	1	1	0	0	0.20321	0.32109	0.18964	0.16977	0.20404	0.11731	0.12393	0.25751	0.15286	0.0841	0.19598	0.079739	0.089003	0.23753	0.25304	0.096127	-2.7167	-2.8312	-2.425	-3.4333	-2.5146	-2.8292	-3.3333	-2.6792	-3.0667	-3.0646	-2.5146	-3.2812	-2.6333	-2.5667	-3.3167	-2.3958	82.287	-40.634	254.605	-96.306	233.153	2.651	187.510	228.896	21.507	192.751	-17.190	240.638	13.961	43.142	113.216	144.665	0.00019026	0.00038742	7.4635e-05	1091.8	4.5256e-06	2.21e-06	1209.4	232.25	3.3721e-06	1.5502e-06	299.41	81.186	63.978	18.294	2.8669e-06	25.772	0.00080575	0.0011686	0.00034887	1090.8	1.2986e-05	1.4001e-05	1211.7	234.36	1.2559e-05	1.3248e-05	303.56	83.247	65.383	18.868	1.2477e-05	26.613	-55.125	-9.074	-23.401	-90.118	99.258	18.349	-90.036	-83.018	17.672	-7.474	-82.926	-75.996	-75.919	-68.589	98.759	-69.443	-8191	255	
#DATA ENDS
