BOXY.EXE: ISS Imagent and Oximeter Data Acquisition Program Version 0.80
Ascii Record File

#ACQ INFORMATION
2  Detector Channels 
16  External MUX Channels 
1  Auxiliary Channels 
5000  Waveform (CCF) Frequency (Hz)
1  Waveforms Skipped 
30  Waveforms Averaged 
1  Cycles Averaged 
16  Acquisitions per Waveform 
10.0806  Updata Rate (Hz) 

#FILE INFORMATION
TRUE -- External MUX Channel results are PARSED.
FALSE -- AC DC and Phase are NOT grouped.
TRUE -- Companion Program Settings File CREATED.
FALSE -- AC data not excluded
FALSE -- DC data not excluded
FALSE -- Phase data not excluded
FALSE -- Auxillary Chn. data not excluded
Tab delimiters

#CALIBRATION STATE
TRUE -- Waveform Calibration Values APPLIED.


#AUX CALIBRATION VALUES
Val Type	aux-1	

Term	1.0000e+00	
Factor	0.0000e+00	


#WF CALIBRATION VALUES
A = Detector Channel
Val Type	A-AC1	A-AC2	A-AC3	A-AC4	A-AC5	A-AC6	A-AC7	A-AC8	A-AC9	A-AC10	A-AC11	A-AC12	A-AC13	A-AC14	A-AC15	A-AC16	A-DC1	A-DC2	A-DC3	A-DC4	A-DC5	A-DC6	A-DC7	A-DC8	A-DC9	A-DC10	A-DC11	A-DC12	A-DC13	A-DC14	A-DC15	A-DC16	A-Ph1	A-Ph2	A-Ph3	A-Ph4	A-Ph5	A-Ph6	A-Ph7	A-Ph8	A-Ph9	A-Ph10	A-Ph11	A-Ph12	A-Ph13	A-Ph14	A-Ph15	A-Ph16	

Term	0.00000e+00	0.00000e+00	0.00000e+00	0.00000e+00	0.00000e+00	0.00000e+00	0.00000e+00	0.00000e+00	0.00000e+00	0.00000e+00	0.00000e+00	0.00000e+00	0.00000e+00	0.00000e+00	0.00000e+00	0.00000e+00	0.00000e+00	0.00000e+00	0.00000e+00	0.00000e+00	0.00000e+00	0.00000e+00	0.00000e+00	0.00000e+00	0.00000e+00	0.00000e+00	0.00000e+00	0.00000e+00	0.00000e+00	0.00000e+00	0.00000e+00	0.00000e+00	0.00000e+00	0.00000e+00	0.00000e+00	0.00000e+00	0.00000e+00	0.00000e+00	0.00000e+00	0.00000e+00	0.00000e+00	0.00000e+00	0.00000e+00	0.00000e+00	0.00000e+00	0.00000e+00	0.00000e+00	0.00000e+00	
Factor	1.00000e+00	1.00000e+00	1.00000e+00	1.00000e+00	1.00000e+00	1.00000e+00	1.00000e+00	1.00000e+00	1.00000e+00	1.00000e+00	1.00000e+00	1.00000e+00	1.00000e+00	1.00000e+00	1.00000e+00	1.00000e+00	1.00000e+00	1.00000e+00	1.00000e+00	1.00000e+00	1.00000e+00	1.00000e+00	1.00000e+00	1.00000e+00	1.00000e+00	1.00000e+00	1.00000e+00	1.00000e+00	1.00000e+00	1.00000e+00	1.00000e+00	1.00000e+00	X	X	X	X	X	X	X	X	X	X	X	X	X	X	X	X	

B = Detector Channel
Val Type	B-AC1	B-AC2	B-AC3	B-AC4	B-AC5	B-AC6	B-AC7	B-AC8	B-AC9	B-AC10	B-AC11	B-AC12	B-AC13	B-AC14	B-AC15	B-AC16	B-DC1	B-DC2	B-DC3	B-DC4	B-DC5	B-DC6	B-DC7	B-DC8	B-DC9	B-DC10	B-DC11	B-DC12	B-DC13	B-DC14	B-DC15	B-DC16	B-Ph1	B-Ph2	B-Ph3	B-Ph4	B-Ph5	B-Ph6	B-Ph7	B-Ph8	B-Ph9	B-Ph10	B-Ph11	B-Ph12	B-Ph13	B-Ph14	B-Ph15	B-Ph16	

Term	0.00000e+00	0.00000e+00	0.00000e+00	0.00000e+00	0.00000e+00	0.00000e+00	0.00000e+00	0.00000e+00	0.00000e+00	0.00000e+00	0.00000e+00	0.00000e+00	0.00000e+00	0.00000e+00	0.00000e+00	0.00000e+00	0.00000e+00	0.00000e+00	0.00000e+00	0.00000e+00	0.00000e+00	0.00000e+00	0.00000e+00	0.00000e+00	0.00000e+00	0.00000e+00	0.00000e+00	0.00000e+00	0.00000e+00	0.00000e+00	0.00000e+00	0.00000e+00	-8.69914e+00	-1.27636e+02	-1.26579e+02	-1.81887e+02	-5.43741e+01	-6.80890e+01	-1.57669e+02	-1.62015e+02	-3.26815e+01	-6.62177e+01	-1.72231e+02	-1.69913e+02	-1.80444e+02	-1.76573e+02	-5.52496e+01	-1.49179e+02	
Factor	3.53343e-05	1.72379e-04	5.09740e-05	1.64140e-01	2.14399e-06	1.74113e-06	1.89180e-01	5.70625e-02	2.23709e-06	1.85859e-06	9.95569e-02	3.28311e-02	4.44292e-02	9.93343e-03	2.12406e-06	1.45167e-02	1.70138e-05	2.97382e-05	8.36903e-06	8.38226e-02	2.87917e-07	3.39007e-07	9.04686e-02	2.91930e-02	2.86657e-07	3.34529e-07	4.92895e-02	1.63091e-02	2.28853e-02	5.14651e-03	3.07838e-07	7.27220e-03	X	X	X	X	X	X	X	X	X	X	X	X	X	X	X	X	



#DISTANCE SETTINGS
A = Detector Channel
A-1	A-2	A-3	A-4	A-5	A-6	A-7	A-8	A-9	A-10	A-11	A-12	A-13	A-14	A-15	A-16	

2.5000e+00	3.0000e+00	2.5000e+00	3.0000e+00	2.0000e+00	3.0000e+00	1.5000e+00	3.0000e+00	3.0000e+00	3.0000e+00	3.0000e+00	3.0000e+00	3.0000e+00	3.0000e+00	1.5000e+00	3.0000e+00	

B = Detector Channel
B-1	B-2	B-3	B-4	B-5	B-6	B-7	B-8	B-9	B-10	B-11	B-12	B-13	B-14	B-15	B-16	

1.0000e+01	1.0000e+01	1.0000e+01	1.4400e+00	1.0000e+01	1.0000e+01	1.5100e+00	1.9400e+00	1.0000e+01	1.0000e+01	1.9900e+00	2.4900e+00	2.4100e+00	2.9000e+00	1.0000e+01	2.9800e+00	




#DATA BEGINS
time	group	step	mark	flag	A-AC1	A-AC2	A-AC3	A-AC4	A-AC5	A-AC6	A-AC7	A-AC8	A-AC9	A-AC10	A-AC11	A-AC12	A-AC13	A-AC14	A-AC15	A-AC16	A-DC1	A-DC2	A-DC3	A-DC4	A-DC5	A-DC6	A-DC7	A-DC8	A-DC9	A-DC10	A-DC11	A-DC12	A-DC13	A-DC14	A-DC15	A-DC16	A-Ph1	A-Ph2	A-Ph3	A-Ph4	A-Ph5	A-Ph6	A-Ph7	A-Ph8	A-Ph9	A-Ph10	A-Ph11	A-Ph12	A-Ph13	A-Ph14	A-Ph15	A-Ph16	B-AC1	B-AC2	B-AC3	B-AC4	B-AC5	B-AC6	B-AC7	B-AC8	B-AC9	B-AC10	B-AC11	B-AC12	B-AC13	B-AC14	B-AC15	B-AC16	B-DC1	B-DC2	B-DC3	B-DC4	B-DC5	B-DC6	B-DC7	B-DC8	B-DC9	B-DC10	B-DC11	B-DC12	B-DC13	B-DC14	B-DC15	B-DC16	B-Ph1	B-Ph2	B-Ph3	B-Ph4	B-Ph5	B-Ph6	B-Ph7	B-Ph8	B-Ph9	B-Ph10	B-Ph11	B-Ph12	B-Ph13	B-Ph14	B-Ph15	B-Ph16	aux-1	digaux	

3735.180	1	1	0	256	0.11461	0.10402	0.1323	0.26473	0.083834	0.3294	0.24365	0.16131	0.14119	0.19462	0.07636	0.12142	0.3691	0.20069	0.30903	0.15489	-2.6917	-2.2083	-3.0687	-2.7854	-2.4792	-3.2771	-2.5146	-2.7625	-3.1271	-2.1813	-3.2125	-2.8729	-2.3125	-3.4188	-2.3229	-2.7313	103.610	215.498	260.157	3.199	199.060	112.135	44.892	60.088	95.006	124.458	87.013	56.564	291.413	299.070	16.941	10.614	0.00048029	0.00044854	0.00012574	445.19	5.0598e-06	4.7794e-06	380.32	199.44	4.1509e-06	4.9374e-06	190.87	85.105	90.622	48.824	3.3969e-06	48.303	0.00070391	0.00087189	0.00023632	488.76	8.3892e-06	9.4449e-06	415.73	219.61	8.4558e-06	9.631e-06	210.31	94.197	100.47	54.573	9.3871e-06	53.641	270.632	80.133	101.120	9.155	163.065	150.923	7.009	14.713	201.374	148.905	11.201	15.369	19.054	22.740	209.523	18.019	-8191	255	
3735.278	1	1	0	0	0.27825	0.17529	0.2575	0.38369	0.30178	0.27334	0.2587	0.22513	0.060232	0.21836	0.011348	0.26198	0.021639	0.084772	0.06219	0.055253	-2.7938	-2.4125	-3	-2.8646	-2.3937	-3.1146	-2.5354	-2.6271	-3.1063	-2.4375	-3.0667	-3.05	-2.5167	-3.3292	-2.7146	-2.6542	340.013	84.259	234.658	308.331	19.633	336.974	29.918	291.830	132.111	138.040	65.863	264.581	325.367	54.270	40.984	58.109	0.00043929	0.00039209	9.873e-05	447.92	2.5341e-06	3.3524e-06	383.91	200.4	3.9771e-06	3.3258e-06	192.99	86.48	91.467	49.383	3.9246e-06	49.062	0.00070108	0.00085627	0.00024075	490.7	8.511e-06	9.5388e-06	418.99	220.73	8.3596e-06	9.4386e-06	212.16	95.423	101.36	55.185	9.5045e-06	54.42	266.656	70.840	78.664	9.193	168.424	135.390	7.372	14.536	190.887	157.969	11.221	15.585	19.412	23.016	176.685	18.270	-8191	255	
3735.396	1	1	0	0	0.06735	0.2271	0.2089	0.21418	0.17843	0.1502	0.22561	0.26711	0.086267	0.16983	0.1242	0.13646	0.1369	0.25995	0.1558	0.19714	-2.8438	-2.275	-2.9	-2.9417	-2.3896	-3.2021	-2.7375	-2.4917	-3.1875	-2.2667	-2.8083	-3.1167	-2.4854	-3.275	-3.0083	-2.5771	225.805	325.448	216.813	318.447	350.406	283.567	155.910	258.900	264.481	180.060	223.304	3.640	302.540	326.994	255.668	311.098	0.00044621	0.00031797	0.0001295	451.19	3.6975e-06	4.606e-06	386.42	201.07	3.5864e-06	3.8087e-06	193.24	86.27	91.432	49.184	5.7923e-06	48.803	0.00070629	0.00088106	0.00023683	494.29	8.6201e-06	9.6017e-06	421.03	221.62	8.3967e-06	9.7007e-06	212.19	95.263	101.27	54.966	9.5782e-06	53.966	265.573	78.183	97.037	9.473	137.411	115.407	7.327	14.659	170.823	137.802	11.305	15.702	19.291	22.901	169.102	18.358	-8191	255	
3735.493	1	1	0	0	0.099483	0.19539	0.25342	0.21037	0.14049	0.10262	0.28677	0.15416	0.32058	0.1425	0.042044	0.30722	0.27333	0.064021	0.20549	0.26417	-2.8771	-2.4479	-2.625	-3.0938	-2.2375	-3.1833	-2.8521	-2.4021	-3.2333	-2.6063	-2.825	-3.1708	-2.3563	-3.1708	-2.8187	-2.4125	255.963	181.216	187.565	81.867	12.978	166.186	102.886	213.237	98.539	38.458	215.394	21.280	323.525	45.058	39.489	327.294	0.00048681	0.00029072	0.00012898	446.72	4.6749e-06	4.0053e-06	383.9	199.56	3.929e-06	3.6432e-06	191.06	85.765	90.916	48.942	4.3335e-06	48.547	0.0007082	0.00083986	0.00024678	490.19	8.5811e-06	9.4082e-06	417.73	219.92	8.3375e-06	9.4302e-06	210.2	94.674	100.78	54.773	9.2011e-06	53.754	263.656	88.973	112.633	9.111	165.312	119.954	7.251	14.461	194.905	151.558	10.966	15.572	19.492	22.774	180.188	18.198	-8191	255	
3735.589	1	1	0	0	0.16814	0.030274	0.12489	0.11548	0.15417	0.28721	0.2149	0.38878	0.10971	0.1225	0.17902	0.092396	0.17205	0.2152	0.153	0.2505	-2.8917	-2.4583	-2.4333	-3.2167	-2.5	-2.9042	-2.8396	-2.4229	-3.1437	-2.8208	-2.6771	-3.2167	-2.4396	-2.9333	-3.1375	-2.3104	108.889	336.601	301.685	134.853	60.573	161.887	149.957	283.027	288.942	106.233	56.431	146.607	291.764	354.628	55.375	356.380	0.00044123	0.00053618	0.00012226	447.73	5.2022e-06	4.0861e-06	382.54	199.86	4.4618e-06	3.4723e-06	191.28	86.129	91.621	49.163	4.9718e-06	48.701	0.00069643	0.00085014	0.00023988	490.4	8.5691e-06	9.447e-06	417.41	219.85	8.2551e-06	9.509e-06	210.59	95.081	100.93	54.847	9.0639e-06	53.981	264.047	86.195	85.956	8.962	177.771	148.206	7.281	14.404	186.789	145.148	11.229	15.681	19.270	22.680	168.399	18.198	-8191	255	
3735.685	1	1	0	0	0.1265	0.10035	0.094365	0.13929	0.076702	0.18666	0.28941	0.070438	0.10667	0.22087	0.16888	0.19287	0.30536	0.46403	0.42563	0.20238	-2.7333	-2.6333	-2.3771	-3.3417	-2.4604	-2.8521	-3.0563	-2.4188	-2.8917	-2.8021	-2.5646	-3.2521	-2.475	-2.6667	-3.1021	-2.4062	350.793	288.270	118.214	26.170	92.061	206.902	37.680	114.065	325.936	258.051	142.527	277.965	343.815	-1.569	29.133	243.240	0.00047279	0.00038498	9.1826e-05	446.65	4.7468e-06	3.0782e-06	382.68	199.71	4.1538e-06	3.4189e-06	191.96	86.495	91.133	49.144	3.6306e-06	49.062	0.00070565	0.000859	0.00024533	489.04	8.3862e-06	9.6441e-06	417.77	219.66	8.4994e-06	9.4728e-06	211.13	95.588	100.93	54.806	9.4224e-06	54.329	264.863	87.365	74.960	9.227	183.380	133.197	7.409	14.609	198.388	131.103	11.320	15.462	19.120	22.969	175.641	18.357	-8191	255	
3735.805	1	1	0	0	0.16049	0.1196	0.18456	0.03211	0.15498	0.31226	0.093174	0.19853	0.072793	0.064275	0.24976	0.13757	0.18445	0.1673	0.058337	0.16337	-2.5521	-2.7333	-2.3937	-3.1708	-2.3708	-2.7729	-3.0042	-2.5687	-2.9938	-2.9125	-2.3688	-3.2979	-2.4771	-2.6917	-3.2229	-2.4062	29.824	187.401	183.662	244.305	333.050	74.737	261.278	334.175	172.894	237.006	319.085	128.586	269.101	311.784	39.922	317.568	0.00046355	0.00047761	0.00010453	445.96	4.3019e-06	2.2983e-06	384.15	198.7	3.7647e-06	4.2983e-06	191.28	85.821	90.084	48.525	4.3043e-06	48.364	0.00071692	0.00086383	0.00024528	489.57	8.4138e-06	9.5063e-06	419.34	219.23	8.3256e-06	9.4609e-06	210.74	95.009	100.1	54.249	9.1518e-06	53.589	266.142	79.768	100.747	9.054	170.374	133.206	7.410	14.613	207.727	151.732	11.149	15.617	19.169	22.788	177.108	18.079	-8191	255	
3735.877	1	1	0	0	0.13619	0.19216	0.12963	0.11729	0.25322	0.036547	0.10259	0.13426	0.0083892	0.075821	0.31788	0.20954	0.1042	0.17004	0.17555	0.22974	-2.5792	-2.9625	-2.3354	-3.2083	-2.6458	-2.5542	-3.3104	-2.5125	-2.8708	-2.9875	-2.3187	-3.1583	-2.6333	-2.6375	-3.1021	-2.3104	39.723	245.049	321.932	47.817	339.087	283.670	277.000	13.661	99.519	206.020	293.906	147.005	345.917	124.597	20.053	304.656	0.00046463	0.00047002	0.00011662	445.16	4.2205e-06	2.7491e-06	379.86	196.87	4.6295e-06	3.9203e-06	189.58	85.15	89.284	48.109	4.8305e-06	48.087	0.00070388	0.00085491	0.00024213	486.77	8.4474e-06	9.7111e-06	414.52	216.6	8.3543e-06	9.4344e-06	208.36	94.059	99.165	53.721	9.1652e-06	53.178	264.311	77.615	94.342	9.143	161.946	108.404	7.254	14.455	183.524	129.323	11.223	15.875	19.100	22.957	165.762	18.498	-8191	255	
3735.998	1	1	0	0	0.18057	0.22282	0.04722	0.11093	0.22055	0.35677	0.20869	0.083596	0.17682	0.21413	0.45546	0.11625	0.016705	0.11957	0.16095	0.26255	-2.3958	-3.0625	-2.2729	-3.3375	-2.7	-2.4708	-3.1729	-2.3417	-2.7458	-3.1646	-2.3417	-3.0583	-2.8229	-2.3854	-3.1375	-2.5104	111.172	318.800	249.307	22.390	337.103	350.915	289.516	200.075	120.214	96.227	336.148	352.282	246.317	17.408	345.383	81.793	0.00046339	0.00047769	0.00011648	441.35	4.509e-06	3.6038e-06	378.8	195.97	4.331e-06	2.9275e-06	188.25	84.911	89.215	47.986	5.9104e-06	48.163	0.00070033	0.00083645	0.00024157	483.51	8.412e-06	9.5063e-06	413.99	215.63	8.3608e-06	9.0504e-06	207.98	93.742	98.786	53.703	9.0594e-06	53.382	265.459	90.775	98.294	9.048	179.246	137.237	7.324	14.527	202.129	122.004	11.168	15.664	19.353	22.698	192.364	18.307	-8191	255	
3736.092	1	1	0	0	0.079045	0.086003	0.096324	0.037049	0.073538	0.14784	0.14975	0.20597	0.060863	0.1112	0.12493	0.25028	0.079027	0.12249	0.42543	0.13449	-2.3958	-3.0021	-2.2708	-2.7604	-2.9313	-2.3354	-3.3354	-2.7083	-2.5875	-3.1021	-2.3917	-3.125	-3.0042	-2.4562	-3.2042	-2.6271	252.504	49.226	320.722	31.496	75.302	52.130	-2.843	300.107	77.781	160.761	102.275	278.926	214.751	304.674	179.969	302.445	0.00044964	0.00030763	9.7925e-05	441.99	4.0783e-06	4.5423e-06	379.29	196.35	3.3689e-06	2.876e-06	190.46	85.369	89.263	48.183	5.0677e-06	48.5	0.00070636	0.00083558	0.00024143	484.43	8.433e-06	9.6998e-06	415.88	216.08	8.5669e-06	9.4177e-06	209.24	94.261	99.095	53.94	9.1607e-06	53.721	261.852	85.906	90.835	9.207	159.364	143.651	7.381	14.333	191.751	152.255	11.294	15.992	19.525	22.893	141.128	18.501	-8191	255	
3736.188	1	1	0	0	0.19643	0.0104	0.051216	0.30719	0.065464	0.17692	0.0092195	0.085614	0.11748	0.15101	0.2553	0.1336	0.25665	0.23014	0.13518	0.27575	-2.1854	-3.0958	-2.3229	-2.9437	-3.0292	-2.2417	-3.0187	-2.6708	-2.525	-3.0729	-2.5125	-2.7729	-3.0292	-2.5708	-3.1437	-2.9667	183.646	175.405	267.921	4.670	260.975	180.608	164.433	112.941	156.514	163.499	48.369	332.252	351.188	325.573	313.263	320.559	0.00045416	0.00044631	8.8586e-05	444.82	3.6081e-06	3.1631e-06	380.33	196.38	4.2006e-06	3.8494e-06	189.67	84.613	88.984	48.097	4.3782e-06	47.858	0.0007088	0.00085008	0.00024221	486.8	8.4594e-06	9.5558e-06	417.05	216.54	8.6654e-06	9.3355e-06	208.7	93.501	98.646	53.67	9.0665e-06	53.271	263.977	67.889	57.294	9.458	163.397	133.575	7.904	14.610	210.619	146.377	11.431	16.039	19.456	23.136	173.445	18.423	-8191	255	
3736.284	1	1	0	0	0.14067	0.30066	0.13868	0.12131	0.19702	0.089957	0.16719	0.049842	0.19831	0.1619	0.10033	0.24068	0.089829	0.048625	0.10554	0.050703	-2.0292	-3.1042	-2.5125	-2.6104	-3.1833	-2.3771	-3.1542	-2.7438	-2.4146	-3.2104	-2.4708	-2.6583	-3.2979	-2.3833	-3.0042	-2.9375	241.750	297.077	245.154	126.650	249.539	2.117	296.609	334.534	112.035	341.737	177.775	294.511	326.415	340.893	62.435	19.905	0.00047286	0.00040265	0.00013393	441.85	4.1246e-06	3.3057e-06	378.79	196.26	4.9916e-06	4.0901e-06	188.72	84.183	88.291	47.873	3.5922e-06	48.063	0.00071245	0.00083855	0.00023777	484	8.1804e-06	9.3792e-06	413.8	215.69	8.6481e-06	9.2017e-06	207.5	93.059	98.374	53.622	9.0729e-06	53.298	263.640	68.737	96.376	9.568	162.023	146.422	7.906	14.900	199.381	135.343	11.673	16.611	20.832	23.953	177.028	19.204	-8191	255	
3736.405	1	1	0	0	0.12896	0.17503	0.19975	0.33511	0.24968	0.1325	0.12743	0.27383	0.35203	0.10527	0.23712	0.39463	0.19294	0.41553	0.20342	0.11881	-2.0833	-3.3333	-2.6833	-2.675	-3.3042	-2.3854	-3.0271	-3.1521	-2.4417	-3.1604	-2.7458	-2.6021	-3.2771	-2.6479	-3.0104	-3.2938	117.713	339.528	28.851	316.421	309.389	236.198	0.228	236.240	184.835	303.313	278.237	347.598	58.441	357.290	200.383	329.621	0.00046607	0.00044312	0.00011103	441.25	4.3758e-06	3.0554e-06	375.91	194.78	4.5349e-06	4.0928e-06	187.43	83.625	87.807	47.6	4.4856e-06	47.623	0.00071394	0.00082815	0.00023799	484.35	8.2788e-06	9.5558e-06	413.86	215.87	8.5334e-06	9.1863e-06	207.92	92.92	98.294	53.621	9.2223e-06	53.223	264.792	90.709	78.116	10.155	177.264	143.283	8.852	15.756	186.478	144.520	12.683	17.105	20.826	24.438	198.939	19.558	-8191	255	
3736.477	1	1	0	0	0.21227	0.19703	0.061812	0.29639	0.17383	0.071281	0.20401	0.097632	0.26844	0.12579	0.057176	0.19078	0.20191	0.11535	0.25092	0.093338	-2.1229	-3.2146	-2.6729	-2.6667	-3.2146	-2.4625	-2.875	-3.1188	-2.375	-3.3	-2.9562	-2.4437	-3.3417	-2.6417	-2.6708	-3.2917	75.020	95.148	330.076	354.182	231.635	338.900	293.253	50.104	68.075	338.723	173.167	338.045	16.380	300.324	243.966	132.279	0.00043663	0.00043653	9.9315e-05	439.2	3.9144e-06	3.1819e-06	377.72	194.05	4.7182e-06	3.8988e-06	186.96	83.365	87.431	47.436	4.3186e-06	47.897	0.00070671	0.0008116	0.00023154	485.18	8.3274e-06	9.3919e-06	416.87	216.63	8.5603e-06	9.2602e-06	209.03	93.519	98.557	53.71	9.3685e-06	53.725	265.414	84.816	63.388	10.712	174.454	151.301	9.354	16.551	213.329	127.704	12.944	17.867	21.342	24.547	168.725	20.258	-8191	255	
3736.573	1	1	0	0	0.30029	0.056422	0.17024	0.22632	0.077442	0.28351	0.091299	0.24773	0.11019	0.097953	0.029423	0.097317	0.13911	0.23376	0.23417	0.073557	-2.0958	-2.9542	-2.7521	-2.6667	-3.2625	-2.8667	-2.5312	-3.2917	-2.3646	-3.2438	-2.9875	-2.5354	-3.125	-2.525	-2.7875	-3.0979	11.593	81.955	-1.087	142.093	66.917	290.125	288.396	295.013	309.036	237.714	217.139	262.700	339.429	301.541	314.878	323.040	0.00046081	0.00041379	0.00013204	434.91	4.8503e-06	3.6944e-06	375.51	192.83	4.1348e-06	3.7656e-06	186.39	82.993	86.949	47.38	4.9627e-06	47.831	0.0007137	0.00083385	0.00022983	486.43	8.2632e-06	9.5346e-06	417.97	216.74	8.6552e-06	8.9431e-06	208.74	93.188	98.147	53.571	9.289e-06	53.381	263.804	89.987	75.747	11.387	173.979	133.571	9.516	16.742	191.094	160.892	13.519	17.862	21.192	24.436	176.825	19.887	-8191	255	
3736.694	1	1	0	0	0.28936	0.11642	0.22658	0.16233	0.15578	0.022836	0.2873	0.24297	0.21056	0.026101	0.13826	0.17938	0.12935	0.055673	0.17258	0.2113	-1.8875	-2.7792	-3.1396	-2.3937	-3.1542	-2.6771	-2.5896	-3.2229	-2.5833	-3.1167	-3.0146	-2.525	-3.2729	-2.8396	-2.6333	-3.2979	335.711	312.198	303.122	284.145	331.605	119.157	65.060	332.992	20.300	121.391	188.434	211.276	327.176	195.587	247.679	292.290	0.00045699	0.0003034	0.00012449	437.47	4.1773e-06	3.9191e-06	374.36	194.55	4.7252e-06	2.8299e-06	186.87	82.957	87.277	47.286	3.2634e-06	47.489	0.00071253	0.000824	0.0002366	484.6	7.9975e-06	9.4534e-06	414.58	215.87	8.3961e-06	9.2023e-06	207.64	92.511	97.954	53.372	9.1992e-06	53.163	267.842	69.017	86.035	10.692	155.588	131.511	9.154	16.116	190.255	154.510	12.843	17.450	21.169	24.305	190.912	20.144	-8191	255	
3736.790	1	1	0	0	0.19351	0.23393	0.043426	0.29651	0.014595	0.38681	0.16025	0.27111	0.078799	0.12581	0.06859	0.1231	0.17288	0.10734	0.12374	0.23595	-2.0875	-2.8417	-2.8625	-2.5229	-3.2938	-2.7958	-2.5354	-3.1646	-2.5687	-2.7208	-3.2062	-2.2792	-3.0396	-2.8708	-2.6667	-3.3667	150.562	273.017	299.357	10.216	188.481	88.978	104.199	246.002	91.614	319.425	285.780	128.421	306.695	93.213	322.652	295.460	0.00046327	0.00035031	0.00014675	440.18	3.5922e-06	3.5213e-06	382.13	196.47	5.2161e-06	2.4546e-06	190.06	83.864	88.49	48.269	4.9229e-06	48.509	0.00070845	0.0008297	0.00023153	485.25	8.1301e-06	9.3799e-06	416.61	216.24	8.3322e-06	9.3466e-06	208.76	92.888	98.167	53.753	9.3448e-06	53.667	266.923	65.989	79.655	10.718	163.289	146.545	8.128	15.344	202.016	162.118	12.194	16.603	20.157	23.601	157.986	19.089	-8191	255	
3736.886	1	1	0	0	0.086771	0.095779	0.064654	0.18007	0.16578	0.091443	0.1914	0.066684	0.28809	0.050471	0.073409	0.29548	0.15708	0.049459	0.14398	0.087721	-2.2208	-2.75	-3.0917	-2.2313	-2.975	-2.9562	-2.5	-3.2021	-2.6396	-2.6521	-3.1813	-2.3375	-2.8583	-2.9917	-2.3625	-3.2521	110.714	164.550	312.360	256.891	293.327	48.123	317.145	343.307	49.169	244.082	94.238	306.173	308.686	317.823	158.467	252.571	0.00047334	0.00035222	0.00012778	442.39	7.1683e-06	3.564e-06	384.35	197.51	3.2471e-06	2.0078e-06	189.99	85.079	88.91	48.439	4.5056e-06	49.107	0.00070473	0.00085553	0.00023057	485.43	8.2398e-06	9.3912e-06	418.16	217.26	8.2414e-06	9.4811e-06	209.88	93.791	98.822	54.102	9.1915e-06	54.286	261.708	90.836	88.481	10.016	176.589	155.246	8.310	15.516	201.058	140.246	12.161	16.789	20.357	23.825	190.067	19.011	-8191	255	
3736.982	1	1	0	0	0.16872	0.022328	0.03737	0.030463	0.14038	0.22579	0.261	0.15922	0.16496	0.056254	0.05377	0.13539	0.064726	0.15968	0.32244	0.29321	-2.4896	-2.4958	-3.2542	-2.6937	-2.7562	-3.1271	-2.4542	-3.1875	-2.7188	-2.5333	-3.2583	-2.5583	-2.8167	-3.4583	-2.3	-3.125	205.385	265.733	189.803	93.536	20.347	110.066	242.577	165.379	78.560	226.649	318.051	10.331	252.926	226.105	205.991	228.648	0.00047136	0.000416	9.5545e-05	445.67	3.7388e-06	3.1446e-06	384.02	197.49	4.9283e-06	4.4484e-06	190.97	84.878	89.041	48.2	3.9332e-06	48.633	0.00070895	0.00084723	0.00023425	487.24	8.3202e-06	9.3107e-06	419.7	217.19	8.3554e-06	9.4128e-06	210.12	93.863	98.49	53.878	9.2589e-06	53.921	271.557	104.938	98.378	10.149	148.044	146.102	8.084	15.196	211.716	135.158	11.919	16.344	20.296	23.778	179.239	19.372	-8191	255	
3737.076	1	1	0	0	0.22968	0.34261	0.063799	0.25571	0.035588	0.13778	0.22578	0.15744	0.3192	0.32139	0.21673	0.056097	0.33775	0.17564	0.086027	0.21181	-2.4417	-2.5708	-3.3333	-2.5167	-2.6437	-3.2896	-2.3104	-3.0854	-2.8354	-2.4354	-3.2792	-2.6125	-2.8354	-3.275	-2.4938	-3.1	250.519	190.480	133.289	262.680	64.697	161.352	160.108	287.545	46.613	137.111	299.069	131.786	331.733	326.021	342.036	288.850	0.00049289	0.00046703	0.00012349	441.54	4.3139e-06	3.3019e-06	381.55	197.37	4.5403e-06	3.8047e-06	189.9	84.553	88.723	48.477	3.8848e-06	48.97	0.00070249	0.00084661	0.00022827	485.35	8.3892e-06	9.2168e-06	417.12	217.1	8.2748e-06	9.2741e-06	209.54	93.577	98.693	54.122	9.407e-06	54.266	265.901	68.697	78.420	10.311	162.575	160.464	7.914	14.877	194.692	136.520	11.608	16.255	19.762	23.372	172.217	18.576	-8191	255	
3737.173	1	1	0	0	0.1544	0.1972	0.088771	0.042987	0.12378	0.20775	0.055053	0.26324	0.095381	0.019571	0.30254	0.21707	0.085383	0.15705	0.24495	0.23201	-2.4688	-2.1979	-3.3187	-2.6792	-2.6771	-3.1958	-2.5375	-3.05	-2.8583	-2.3479	-3.0062	-2.725	-2.6042	-3.4688	-2.4729	-3.0458	172.672	142.351	159.277	283.144	229.507	348.945	340.657	337.357	196.385	335.416	348.563	275.771	16.206	2.314	49.984	62.864	0.00044839	0.00029304	0.00011266	444.68	3.7155e-06	2.2475e-06	382.66	197.88	5.1027e-06	3.3905e-06	191.82	85.382	89.122	48.661	2.6666e-06	49.24	0.00069778	0.00085423	0.00022849	486.45	8.3712e-06	9.2944e-06	418.24	217.38	8.2712e-06	9.3961e-06	210.75	94.088	98.704	54.287	9.2133e-06	54.6	261.874	84.435	75.560	9.693	158.005	167.423	7.821	14.848	186.182	150.459	11.928	16.627	20.366	23.822	170.234	19.435	-8191	255	
3737.269	1	1	0	0	0.19316	0.12638	0.094721	0.25582	0.39265	0.055628	0.15231	0.19449	0.056044	0.14002	0.25158	0.21067	0.13815	0.1489	0.23718	0.18158	-2.6063	-2.2417	-3.2604	-2.8063	-2.4708	-3.4604	-2.5667	-2.9104	-2.8833	-2.3708	-3.2687	-2.7188	-2.4917	-3.4646	-2.6333	-2.9042	208.776	112.947	50.772	274.190	230.598	77.374	113.014	243.390	83.741	70.453	57.702	15.453	300.947	328.063	26.147	339.681	0.00046065	0.00048717	0.00011	444.46	4.9872e-06	2.2924e-06	380.06	195.51	5.1648e-06	5.201e-06	192.52	85.884	88.407	48.243	3.421e-06	49.412	0.00069952	0.00086408	0.00023008	486.19	8.4318e-06	9.2055e-06	418.88	217.15	8.233e-06	9.2992e-06	212.05	94.971	99.029	54.237	9.1062e-06	54.933	265.723	80.640	85.085	10.173	163.528	125.914	8.789	16.051	197.847	146.755	12.185	16.874	20.691	24.187	162.301	19.631	-8191	255	
3737.365	1	1	0	0	0.053588	0.10322	0.068178	0.14122	0.058725	0.30119	0.10567	0.10891	0.32681	0.18658	0.089692	0.15957	0.21614	0.18409	0.21133	0.048968	-2.7938	-2.3688	-3.0854	-2.9813	-2.2938	-3.3063	-2.5646	-2.7583	-3.1229	-2.6312	-3.0375	-2.9479	-2.3521	-3.1958	-2.6167	-2.7021	305.038	337.161	296.615	172.646	127.135	216.385	186.327	24.217	249.664	12.968	278.272	122.487	56.084	7.643	34.103	53.495	0.00047519	0.00036039	9.337e-05	441.81	3.9672e-06	2.9437e-06	380.62	195.78	4.191e-06	2.8604e-06	188.9	84.455	88.004	47.934	3.2983e-06	48.495	0.00070033	0.00085609	0.00023255	487.19	8.4756e-06	9.3298e-06	419.96	216.77	8.3698e-06	9.578e-06	211.19	94.346	98.648	53.895	9.0389e-06	54.239	263.963	93.297	98.254	10.497	147.146	160.758	8.983	15.724	193.634	136.130	13.274	17.658	20.984	24.042	167.256	19.894	-8191	255	
3737.485	1	1	0	0	0.084923	0.11946	0.22986	0.21491	0.095287	0.16444	0.25315	0.16084	0.14765	0.26476	0.082922	0.2315	0.14366	0.2909	0.18186	0.083283	-2.7896	-2.5438	-3.0187	-2.95	-2.3021	-3.3417	-2.8354	-2.7062	-3.2208	-2.4021	-2.9688	-3.1208	-2.3125	-3.1729	-2.7062	-2.6354	323.115	101.476	97.723	97.662	156.679	43.871	216.768	349.625	192.164	195.474	51.860	21.043	50.681	-1.669	201.849	241.907	0.00046601	0.00058957	0.0001291	436.49	4.4141e-06	3.4002e-06	380.37	195.24	3.5761e-06	3.4992e-06	191.15	84.642	88.701	47.991	4.2432e-06	48.703	0.00069626	0.00084122	0.0002313	484.05	8.3238e-06	9.1214e-06	416.48	215.57	8.205e-06	9.3473e-06	209.81	93.646	97.959	53.532	9.0825e-06	53.911	265.170	93.606	83.824	10.778	179.610	138.791	8.621	15.719	215.497	145.544	11.835	16.399	19.721	23.298	166.660	19.046	-8191	255	
3737.580	1	1	0	0	0.16722	0.11356	0.059081	0.047586	0.15924	0.095277	0.070159	0.13793	0.12127	0.086372	0.1963	0.051589	0.09811	0.17307	0.17497	0.39571	-2.7771	-2.4625	-2.8667	-3.1417	-2.5208	-3.2167	-2.7083	-2.5708	-3.3833	-2.4792	-2.5563	-3.3396	-2.2938	-3.1917	-2.9896	-2.2812	277.122	342.629	279.638	160.102	300.115	304.894	310.806	256.795	9.810	92.913	266.066	349.784	234.493	319.719	126.208	311.834	0.0004841	0.00044377	0.00012035	440.48	2.4365e-06	3.0627e-06	382.21	195.53	3.8221e-06	3.4751e-06	190.92	85.093	88.045	47.921	4.338e-06	48.81	0.00070065	0.00084171	0.00023318	482.67	8.3124e-06	9.0028e-06	416.17	215.19	8.2981e-06	9.3884e-06	209.96	93.734	97.569	53.481	8.9908e-06	54.037	265.659	66.988	73.589	9.798	127.120	133.108	7.810	15.070	191.925	154.595	11.834	16.439	19.990	23.495	175.808	19.037	-8191	255	
3737.676	1	1	0	0	0.19715	0.21996	0.094884	0.28806	0.19397	0.27255	0.057204	0.4055	0.12858	0.34398	0.046748	0.17034	0.10204	0.17077	0.15285	0.084278	-2.8417	-2.2583	-2.675	-3.1813	-2.6417	-2.9646	-3.1542	-2.4062	-3.1396	-2.5563	-2.5354	-3.1167	-2.3542	-3.0104	-2.9854	-2.5083	198.983	292.146	161.527	10.375	78.771	37.596	257.044	311.950	89.773	24.012	23.501	316.277	305.165	182.907	267.594	46.254	0.00045449	0.0004142	0.000137	440.76	3.1357e-06	3.1473e-06	382.55	195.49	3.5034e-06	3.9516e-06	192.76	85.553	88.456	48.308	4.3073e-06	49.83	0.00068715	0.00082988	0.00023186	482.49	8.1409e-06	9.3213e-06	418.42	215.57	8.2927e-06	9.3278e-06	212.33	94.651	98.188	53.888	9.0556e-06	54.896	269.348	99.482	87.950	9.831	171.788	155.949	7.942	14.994	207.998	136.484	11.902	16.298	19.526	23.529	185.784	19.094	-8191	255	
3737.772	1	1	0	0	0.3294	0.040656	0.25174	0.14828	0.22723	0.25323	0.11712	0.34449	0.086476	0.096722	0.095871	0.23919	0.1282	0.17947	0.16159	0.12868	-2.8042	-2.7167	-2.3667	-3.3125	-2.5062	-2.8833	-3.1354	-2.4021	-3.1854	-2.7729	-2.5062	-3.2229	-2.3583	-2.8875	-3.1958	-2.3979	100.374	87.842	42.359	77.106	3.346	3.722	350.221	29.254	52.653	132.215	76.397	69.957	29.969	311.109	264.800	155.075	0.00047088	0.00042105	9.8602e-05	442.46	3.9982e-06	3.0434e-06	383.94	196.32	4.732e-06	2.8195e-06	191.57	85.68	88.761	48.194	3.3032e-06	49.236	0.00069856	0.0008406	0.00024145	485.6	8.3736e-06	9.149e-06	420.52	215.95	8.156e-06	9.1236e-06	211.35	94.49	98.352	53.769	9.1466e-06	54.424	263.334	76.700	65.516	10.027	187.290	137.396	8.174	15.323	192.385	140.992	11.999	16.451	19.909	23.638	158.620	19.097	-8191	255	
3737.868	1	1	0	0	0.28625	0.056018	0.07499	0.22401	0.070109	0.12959	0.44128	0.35642	0.13124	0.11919	0.13799	0.071182	0.17956	0.27466	0.1282	0.16167	-2.7229	-2.6937	-2.2979	-3.2188	-2.4458	-2.9729	-3.0917	-2.2875	-3.1396	-2.8292	-2.4604	-3.2125	-2.4938	-2.6958	-3.1083	-2.5187	301.345	265.304	325.333	318.151	70.335	192.648	118.188	79.671	41.442	317.138	300.508	227.033	280.576	347.437	174.078	312.208	0.00049193	0.00034073	0.00012067	442.19	2.6814e-06	2.0096e-06	382.78	195.94	4.49e-06	4.0852e-06	191.24	85.1	88.468	48.216	3.8837e-06	49.221	0.0006964	0.00081799	0.00023531	484	8.2368e-06	9.4039e-06	417.18	215.55	8.0867e-06	9.0553e-06	209.93	93.983	98.118	53.786	9.094e-06	54.382	267.395	86.594	93.448	9.985	145.358	136.405	7.897	15.348	205.900	156.630	11.807	16.412	19.814	23.271	165.877	18.718	-8191	255	
3737.989	1	1	0	0	0.073653	0.18116	0.082639	0.13641	0.26653	0.23713	0.1782	0.064019	0.11757	0.129	0.14161	0.10134	0.15847	0.14447	0.17712	0.10872	-2.6479	-2.9354	-2.5667	-3.3271	-2.5354	-2.5167	-3.2687	-2.3937	-2.8458	-2.9125	-2.4417	-3.1896	-2.5312	-2.575	-3.0854	-2.5604	314.211	354.044	258.736	3.844	238.329	240.722	55.497	14.732	210.906	262.687	216.701	176.736	197.602	100.365	256.180	150.026	0.00049337	0.00048558	0.00015144	442.67	5.1194e-06	3.9769e-06	381.8	195.74	5.6441e-06	3.5148e-06	192.53	85.401	88.57	47.92	3.7111e-06	49.309	0.00070792	0.00084995	0.00023564	483.73	8.1151e-06	9.3721e-06	417.2	215.19	8.3662e-06	9.0678e-06	211.13	94.271	98.07	53.627	9.1511e-06	54.501	266.849	87.144	79.200	10.027	166.248	146.841	8.237	14.811	170.831	143.368	11.913	16.874	19.495	23.320	160.215	19.073	-8191	255	
3738.085	1	1	0	0	0.20468	0.20937	0.057462	0.24328	0.047773	0.12979	0.13045	0.2297	0.097124	0.21789	0.036394	0.17635	0.14092	0.063796	0.13629	0.041848	-2.5312	-3.1417	-2.3521	-2.9771	-2.5708	-2.3937	-3.0938	-2.6063	-2.6063	-3.2021	-2.3958	-3.1979	-2.6625	-2.5479	-3.3479	-2.6146	78.861	171.638	54.244	326.228	10.954	116.837	299.258	56.835	303.728	193.489	203.322	346.108	115.302	3.270	152.940	24.145	0.00046919	0.00024642	0.00011209	442	4.7817e-06	3.0624e-06	381.35	193.72	2.7431e-06	1.5465e-06	189.1	84.251	87.463	47.472	4.4692e-06	48.978	0.00070171	0.00083961	0.00023958	483.52	8.2308e-06	9.3919e-06	418.73	215.26	8.4038e-06	8.8894e-06	211.53	94.172	97.645	53.507	9.0049e-06	54.625	266.226	90.080	89.166	9.947	137.591	134.520	8.972	16.195	239.736	193.394	13.369	17.632	20.929	24.192	162.865	19.570	-8191	255	
3738.181	1	1	0	0	0.16669	0.15326	0.10811	0.25275	0.066003	0.15686	0.096176	0.090855	0.16128	0.21685	0.047789	0.13357	0.31889	0.2536	0.17101	0.22932	-2.2208	-3.1	-2.5708	-3.1021	-2.8625	-2.5062	-3.2958	-2.6521	-2.6229	-3.1833	-2.3854	-2.9896	-2.8271	-2.3354	-2.9458	-2.5354	279.614	314.211	268.326	246.090	268.728	190.167	281.211	261.678	24.341	278.307	341.416	314.366	357.080	331.270	208.600	15.048	0.00047071	0.00049048	0.00011609	438.8	3.9823e-06	3.6124e-06	377.72	192.27	5.8759e-06	3.4879e-06	189.66	83.955	86.744	47.128	4.4536e-06	48.318	0.00070239	0.00084872	0.00024066	484.53	8.0977e-06	9.5791e-06	419.07	214.75	8.4426e-06	9.0365e-06	210.03	93.35	97.003	52.984	8.8933e-06	53.776	262.071	105.538	73.122	10.663	167.501	115.876	8.941	16.142	215.492	143.205	12.584	17.281	20.437	24.094	162.908	19.359	-8191	255	
3738.277	1	1	0	0	0.15284	0.18452	0.29579	0.0066647	0.11666	0.1692	0.14468	0.12925	0.17672	0.41772	0.15913	0.29843	0.22309	0.24936	0.057512	0.14681	-2.2896	-3.0438	-2.2833	-3.0458	-3.0292	-2.2562	-3.1	-2.825	-2.5417	-3.2104	-2.5667	-2.8937	-3.0083	-2.4021	-3.0521	-2.5687	34.566	201.180	14.696	45.567	85.634	109.710	354.816	329.788	134.445	116.973	165.922	4.580	253.805	347.625	114.923	74.080	0.00046278	0.00032827	9.2048e-05	438.03	3.9454e-06	2.5758e-06	379.03	193.67	4.491e-06	2.6689e-06	189.62	84.026	87.744	47.406	4.1602e-06	48.549	0.00069658	0.00080739	0.00023425	481.25	8.1475e-06	9.3594e-06	414.94	214.03	8.2139e-06	8.7821e-06	209.21	93.103	96.836	52.93	8.7484e-06	53.798	266.519	66.666	86.187	10.011	165.816	146.406	8.303	15.291	203.065	161.694	12.394	16.708	19.907	23.632	178.292	18.969	-8191	255	
3738.374	1	1	0	0	0.13964	0.14423	0.19862	0.22286	0.23452	0.27797	0.070723	0.11943	0.22153	0.06106	0.055875	0.062267	0.023149	0.29257	0.14187	0.12522	-1.9417	-3.2083	-2.5771	-2.825	-2.9104	-2.3833	-3.1583	-2.8917	-2.3854	-3.2354	-2.6708	-2.6562	-3.2062	-2.4562	-3.1188	-2.8667	322.938	317.671	117.385	285.709	221.044	200.942	305.373	253.194	91.119	17.670	151.262	262.242	153.728	23.921	242.738	222.341	0.00045189	0.00024159	0.00014696	438.03	3.9577e-06	3.9962e-06	374.6	191.38	5.9173e-06	2.5518e-06	188.85	83.489	85.967	46.631	4.7069e-06	48.354	0.00070434	0.00079587	0.00022997	480.91	8.0809e-06	9.1843e-06	415	213.51	8.445e-06	8.9487e-06	209.96	93.23	96.751	52.812	8.9369e-06	53.979	266.616	100.587	75.074	10.074	174.242	158.290	9.454	16.201	221.414	164.608	12.870	17.280	20.875	24.548	177.840	19.574	-8191	255	
3738.468	1	1	0	0	0.082115	0.068349	0.17923	0.057052	0.067821	0.23957	0.067958	0.081038	0.1342	0.21491	0.25417	0.11265	0.16502	0.13522	0.25887	0.090053	-2.0833	-3.1396	-2.5771	-2.9042	-3.1583	-2.4896	-2.9208	-3.0938	-2.4292	-3.2083	-2.6875	-2.6937	-3.2917	-2.5875	-2.9167	-3.1583	4.694	337.462	3.517	53.639	323.237	185.553	332.749	292.347	330.889	196.429	39.226	46.164	347.359	142.180	70.965	190.756	0.00045848	0.00030703	0.00013811	437.09	3.9468e-06	3.4347e-06	381.53	193.68	5.4985e-06	3.8598e-06	191.19	85.205	87.149	47.091	4.5936e-06	48.639	0.00072153	0.00079537	0.00023829	480.79	8.1445e-06	9.4661e-06	417.8	214.1	8.491e-06	9.0379e-06	211.18	94.293	97.29	53.047	9.1646e-06	54.342	266.578	83.254	64.247	10.496	157.999	131.154	8.494	15.353	190.906	137.380	11.912	16.857	20.507	24.188	173.827	19.708	-8191	255	
3738.564	1	1	0	0	0.069807	0.021886	0.080212	0.073826	0.34866	0.32639	0.16591	0.080158	0.18325	0.070486	0.087992	0.10358	0.20892	0.23105	0.24696	0.20369	-1.925	-3.1188	-2.6437	-2.7458	-3.3104	-2.4896	-3.0604	-2.9979	-2.3917	-3.2229	-2.8417	-2.5042	-3.3833	-2.6042	-2.7771	-3.1708	164.231	198.258	78.983	121.198	120.683	141.558	299.371	346.009	257.028	231.668	240.367	87.127	158.934	0.455	276.464	298.343	0.00048959	0.00062721	0.0001178	432.56	4.0171e-06	3.5985e-06	379.17	191.41	3.0167e-06	3.7919e-06	187.45	83.399	86.385	46.675	3.7331e-06	47.73	0.00071416	0.00080336	0.00023278	481.24	8.1169e-06	9.5586e-06	417.25	213.55	8.5531e-06	9.134e-06	209.46	93.271	96.393	52.561	9.1748e-06	53.56	263.985	101.413	84.352	11.004	172.237	131.000	9.154	16.192	189.654	133.968	12.949	17.433	20.692	24.159	172.411	20.000	-8191	255	
3738.660	1	1	0	0	0.028305	0.30601	0.082179	0.11283	0.21673	0.18948	0.063173	0.070137	0.16173	0.13969	0.04586	0.066901	0.27155	0.32668	0.15211	0.13401	-1.9625	-3.1854	-2.7375	-2.5687	-3.1042	-2.7125	-2.6604	-3.1667	-2.5979	-3.2812	-2.8917	-2.6417	-3.1437	-2.5375	-2.6771	-3.3333	11.020	92.741	218.681	342.521	297.706	72.348	50.608	108.123	214.113	127.275	17.666	159.003	28.361	261.159	261.738	58.736	0.00048213	0.00032495	0.00011149	430.61	4.9832e-06	2.0703e-06	375.27	190.5	4.0705e-06	3.5893e-06	186.71	83.15	85.947	46.741	4.1309e-06	48.292	0.0007043	0.00081737	0.00023276	478.39	8.0533e-06	9.3283e-06	414.6	212.37	8.4205e-06	9.1989e-06	207.94	92.761	96.068	52.496	9.1178e-06	53.639	263.719	71.936	97.167	10.845	150.684	137.310	9.123	15.789	183.793	147.562	12.757	17.229	20.669	23.909	170.783	19.560	-8191	255	
3738.758	1	1	0	0	0.11502	0.10346	0.17202	0.18443	0.23319	0.14554	0.05218	0.27131	0.062204	0.22657	0.18549	0.29658	0.21673	0.13173	0.14552	0.080901	-1.9958	-3.0417	-2.8688	-2.4396	-3.2854	-2.6375	-2.6271	-3.3042	-2.3042	-3.0042	-2.9146	-2.3312	-3.1729	-2.6979	-2.35	-3.0917	128.366	189.218	346.216	314.773	302.014	1.286	173.146	282.692	298.234	170.723	324.651	181.973	329.022	348.913	206.585	15.647	0.0004525	0.00039094	0.00013135	434.46	3.9728e-06	2.9553e-06	381.93	193.21	3.7262e-06	2.0209e-06	190.42	84.566	87.265	47.126	4.7359e-06	48.645	0.00070976	0.00082226	0.00022854	478.52	7.9939e-06	9.1433e-06	415.56	212.68	8.4659e-06	9.1975e-06	209.54	93.268	96.476	52.6	9.2178e-06	53.915	265.271	90.868	95.835	10.248	173.944	154.193	7.777	14.742	190.453	140.571	11.237	15.942	19.387	22.873	178.176	18.469	-8191	255	
3738.877	1	1	0	0	0.23213	0.034012	0.11789	0.12835	0.10676	0.12715	0.089432	0.030905	0.13163	0.17655	0.14191	0.16209	0.17202	0.08731	0.22118	0.1265	-2.0792	-2.8708	-2.9917	-2.5187	-3.1583	-2.7062	-2.3896	-3.0896	-2.6229	-2.9271	-3.2604	-2.5187	-3.1312	-2.8167	-2.2854	-3.2208	153.059	176.252	114.509	355.274	64.762	69.627	349.583	64.535	68.575	75.693	6.346	47.937	221.366	101.387	347.972	307.815	0.00048014	0.00035095	0.00010978	437.79	6.0185e-06	3.7971e-06	382.75	194.22	5.2369e-06	3.6003e-06	192.27	85.745	88.183	47.542	4.7786e-06	49.294	0.00070643	0.00083149	0.00023055	480.19	8.2446e-06	9.5558e-06	418.43	213.86	8.3549e-06	9.2936e-06	211.62	94.537	97.414	53.077	9.189e-06	54.633	264.973	112.825	70.479	9.318	152.811	171.158	7.570	14.548	191.711	115.260	11.056	15.886	19.042	22.766	189.205	18.137	-8191	255	
3738.973	1	1	0	0	0.2322	0.2282	0.20768	0.27187	0.25798	0.074122	0.39284	0.016764	0.20638	0.10916	0.32983	0.16574	0.16959	0.27696	0.086899	0.22821	-2.2604	-2.7938	-3.1333	-2.4292	-3.0646	-3.025	-2.5604	-3.1771	-2.6042	-2.6146	-3.1229	-2.3625	-2.9188	-2.9958	-2.3042	-3.2083	176.085	95.501	280.479	46.386	228.902	181.048	297.446	19.250	224.334	313.006	331.774	66.919	252.101	82.481	339.077	281.269	0.00046527	0.0002523	0.00013545	440.66	4.9092e-06	3.0634e-06	383.8	194.2	4.3568e-06	3.9182e-06	191.77	85.813	88.233	47.502	3.4985e-06	49.152	0.00069845	0.0008331	0.0002318	481.82	8.1787e-06	9.3672e-06	418.55	213.8	8.5095e-06	9.3989e-06	211.37	94.5	97.393	53.067	9.112e-06	54.329	264.862	106.982	75.984	9.382	160.428	150.645	7.980	15.068	181.915	153.432	11.727	16.297	19.851	23.140	176.211	19.148	-8191	255	
3739.069	1	1	0	0	0.23066	0.090675	0.15611	0.14003	0.20982	0.20132	0.40813	0.13596	0.18697	0.11822	0.096954	0.22589	0.071459	0.079057	0.21916	0.038094	-2.1479	-2.5292	-3.0917	-2.4542	-3.1312	-3.0187	-2.5646	-3.4229	-2.7104	-2.7062	-3.3292	-2.4271	-2.9479	-3.2917	-2.3854	-3.1625	233.169	234.501	328.095	164.619	232.995	32.217	146.500	349.083	95.280	236.284	179.833	314.266	304.707	42.764	142.176	337.086	0.00047239	0.00026464	9.1342e-05	436.65	5.549e-06	2.2013e-06	379.62	193.01	4.2317e-06	3.4629e-06	189.04	84.489	86.929	46.715	5.5942e-06	48.226	0.00070636	0.00085287	0.00022413	478.42	8.1265e-06	9.2888e-06	415.11	213.1	8.3674e-06	9.2546e-06	209.29	93.853	96.909	52.645	9.2364e-06	54.049	261.300	99.453	88.832	10.094	170.478	128.572	8.425	15.350	213.680	155.324	12.614	17.167	20.519	24.154	186.429	20.072	-8191	255	
3739.165	1	1	0	0	0.074246	0.18419	0.24833	0.18313	0.12555	0.24673	0.20347	0.23558	0.2162	0.057333	0.22795	0.18877	0.20615	0.038903	0.018516	0.13727	-2.3271	-2.5333	-3.2687	-2.4271	-2.7042	-3.2208	-2.5042	-3.1063	-2.7958	-2.3583	-3.3021	-2.5646	-2.7521	-3.1875	-2.2292	-3.1042	117.571	228.639	87.565	137.112	137.538	188.375	29.160	330.474	305.781	115.818	77.632	205.242	76.582	304.285	13.966	98.459	0.00048987	0.00036048	0.00010064	429.7	4.8657e-06	3.8582e-06	378.03	191.63	5.0385e-06	3.2773e-06	191.16	85.785	87.73	47.281	4.6566e-06	48.997	0.00069732	0.00083868	0.00022989	476.71	8.2002e-06	9.1694e-06	415.26	213.07	8.4038e-06	9.2149e-06	210.78	94.363	97.078	52.764	9.339e-06	54.258	260.859	94.718	67.230	10.640	155.645	143.706	8.702	15.911	195.348	159.879	12.095	16.457	19.941	23.399	162.124	19.368	-8191	255	
3739.262	1	1	0	0	0.2281	0.070884	0.071789	0.10893	0.2194	0.10022	0.2151	0.16553	0.21137	0.31318	0.18405	0.074862	0.44133	0.16327	0.097856	0.15772	-2.6208	-2.4917	-3.3146	-2.45	-2.7375	-3.0563	-2.375	-3.225	-3.0417	-2.4667	-3.2896	-2.8979	-2.8354	-3.2229	-2.2917	-3.0042	20.210	113.657	291.624	303.626	267.341	147.017	321.191	4.231	77.857	229.216	242.905	195.083	331.193	346.078	294.883	201.962	0.00049656	0.00037796	9.7101e-05	431.59	5.7104e-06	3.9648e-06	380.91	193.91	4.89e-06	4.0665e-06	191.64	85.72	87.597	47.212	3.872e-06	49.149	0.00070086	0.00084444	0.00023118	477.61	8.3388e-06	9.298e-06	416.75	213.06	8.2987e-06	9.4512e-06	211.48	94.643	97.013	52.702	9.1107e-06	54.479	264.053	90.444	80.398	10.531	137.227	163.702	8.187	14.809	183.042	144.411	11.505	16.056	19.503	23.062	168.834	18.713	-8191	255	
3739.358	1	1	0	0	0.42302	0.1242	0.045985	0.10211	0.13314	0.21699	0.11793	0.052696	0.14821	0.044066	0.075104	0.16402	0.16134	0.070246	0.10389	0.20486	-2.6312	-2.3063	-3.1458	-2.6729	-2.5687	-3.0229	-2.2083	-2.9375	-3.0417	-2.4354	-3.1854	-2.725	-2.3875	-3.3354	-2.4271	-2.9625	101.230	3.595	299.476	150.812	12.721	102.885	291.897	33.088	85.873	203.856	30.023	11.702	191.792	57.790	61.650	279.803	0.0004899	0.00046001	0.00013491	436.73	5.4981e-06	3.7061e-06	379.27	192.68	3.5206e-06	4.775e-06	188.95	84.246	86.755	46.447	5.4304e-06	48.548	0.00071221	0.00085993	0.00022943	477.82	8.5463e-06	9.2831e-06	415.06	212.08	8.236e-06	9.3717e-06	209.64	93.808	96.081	52.073	9.1261e-06	53.696	259.273	92.516	77.408	9.463	172.483	156.647	8.326	15.540	239.654	139.750	12.765	17.118	20.707	24.057	177.748	19.533	-8191	255	
3739.478	1	1	0	0	0.39032	0.27019	0.15994	0.19735	0.083434	0.23717	0.14455	0.23131	0.21041	0.1036	0.22074	0.20193	0.093323	0.1744	0.17411	0.1128	-2.6979	-2.2896	-3.1125	-2.8042	-2.5062	-3.2521	-2.6562	-2.6708	-3.225	-2.3729	-3.0125	-2.85	-2.4313	-3.15	-2.6292	-2.9333	312.555	81.343	174.516	22.470	9.230	215.154	174.531	271.712	337.617	77.092	18.991	311.223	128.176	330.618	225.673	0.300	0.00045749	0.00037507	0.00011718	427.34	4.8443e-06	1.7352e-06	372.44	189.66	5.0973e-06	3.9149e-06	189.62	84.286	86.403	46.517	3.7641e-06	47.885	0.00069374	0.00083124	0.00022875	473.29	8.295e-06	8.8121e-06	411.21	210.37	8.0138e-06	9.1849e-06	208.37	93.145	95.66	51.967	8.7721e-06	53.467	261.326	73.713	100.533	10.697	155.437	140.141	8.993	15.897	197.889	139.247	12.056	16.581	20.143	23.752	171.052	19.495	-8191	255	
3739.573	1	1	0	0	0.17226	0.29733	0.059006	0.23695	0.092218	0.30726	0.091756	0.20232	0.21307	0.13796	0.09448	0.23141	0.19493	0.38212	0.15183	0.037356	-2.75	-2.4062	-3.0771	-3.1125	-2.4521	-3.3208	-2.8208	-2.6604	-3.3125	-2.5625	-3.0229	-3.0667	-2.4292	-3.3479	-2.7583	-2.6104	329.953	199.142	356.610	124.721	340.693	273.049	6.790	66.150	119.037	352.628	87.839	108.119	101.972	332.088	140.721	137.888	0.00047679	0.00028513	0.00012446	426.96	4.1943e-06	3.5695e-06	372.81	189.61	4.8786e-06	2.6114e-06	187.03	83.367	85.03	45.972	3.2161e-06	47.792	0.00068406	0.00084933	0.0002295	473.22	8.2704e-06	9.233e-06	411.56	210.35	7.9416e-06	9.1814e-06	208.24	92.983	95.287	51.936	9.01e-06	53.674	265.807	83.632	70.933	11.006	163.337	131.740	8.961	15.824	182.185	125.283	12.810	17.431	20.756	24.547	175.234	20.068	-8191	255	
3739.669	1	1	0	0	0.29163	0.082656	0.063731	0.15741	0.16441	0.13742	0.039374	0.14319	0.14469	0.11514	0.022092	0.22399	0.24469	0.19907	0.12223	0.16975	-2.9375	-2.5167	-3.0021	-3.0458	-2.2792	-3.1	-2.8396	-2.5521	-3.3979	-2.4583	-2.9354	-3.1688	-2.4083	-3.1292	-2.8417	-2.6667	252.661	100.123	289.139	258.063	149.291	145.213	27.085	104.689	160.661	162.199	23.230	341.374	113.884	158.598	140.799	334.598	0.0004426	0.00036192	5.4071e-05	430.77	4.9112e-06	2.877e-06	377.45	190.44	2.9701e-06	3.957e-06	188.57	85.107	85.715	46.538	5.0214e-06	48.765	0.0006802	0.00083248	0.00023578	474.22	8.2632e-06	9.1108e-06	414.24	211.26	8.1434e-06	9.4128e-06	210.32	94.205	96.002	52.336	9.1338e-06	54.34	266.671	87.518	62.999	10.414	148.694	159.093	8.975	15.642	192.130	150.111	12.727	16.964	20.878	24.233	172.767	19.790	-8191	255	
3739.765	1	1	0	0	0.10649	0.19766	0.15609	0.10311	0.34051	0.14523	0.1937	0.18655	0.16542	0.081647	0.079497	0.30529	0.17856	0.19784	0.34293	0.27075	-2.9396	-2.2854	-2.8021	-3.2104	-2.4813	-3.1312	-2.9583	-2.5792	-3.2333	-2.7542	-2.6708	-3.3125	-2.4021	-3.1937	-2.8583	-2.7021	126.819	50.637	204.506	333.589	-1.600	229.903	8.792	263.368	320.117	356.448	288.924	246.044	190.571	317.451	200.347	266.230	0.00048881	0.00037692	0.00015155	433.49	3.3035e-06	2.4527e-06	375.67	190.27	5.5831e-06	3.6369e-06	188.3	83.92	85.753	46.223	5.295e-06	48.005	0.00070455	0.00083589	0.00023737	477.01	8.5391e-06	9.2881e-06	414.74	211.71	8.015e-06	9.233e-06	209.38	93.459	95.973	52.192	8.9933e-06	53.754	263.852	84.960	96.612	10.398	195.168	129.735	9.003	15.930	206.005	142.440	13.072	17.348	20.781	24.284	178.046	20.043	-8191	255	
3739.861	1	1	0	0	0.13374	0.082831	0.28762	0.15461	0.08275	0.18912	0.0679	0.25794	0.070963	0.19023	0.1864	0.25639	0.21105	0.34424	0.14489	0.35757	-2.875	-2.4604	-2.7938	-3.2708	-2.6146	-3.1375	-3.1479	-2.5542	-3.275	-2.8	-2.5896	-3.3479	-2.3479	-3.175	-3.0125	-2.3958	6.104	43.859	290.787	282.220	228.596	129.058	339.522	5.288	117.119	273.461	83.802	186.308	27.231	36.250	128.346	212.467	0.00046951	0.00030741	8.5661e-05	429.18	4.031e-06	3.5937e-06	373.23	189.33	4.4506e-06	2.9795e-06	187.45	83.795	85.425	46.386	4.1997e-06	48.572	0.0006953	0.00085671	0.00023724	475.68	8.3466e-06	9.2683e-06	411.87	210.92	8.0479e-06	9.0602e-06	208.53	93.154	95.531	52.067	9.0216e-06	53.713	262.989	73.549	70.701	10.663	168.421	138.008	9.245	16.134	196.733	150.905	12.720	16.971	20.513	24.167	169.888	19.070	-8191	255	
3739.957	1	1	0	0	0.12272	0.05328	0.12679	0.31163	0.20911	0.28516	0.22749	0.17334	0.080809	0.27903	0.16074	0.16661	0.076738	0.18812	0.22007	0.085121	-2.8521	-2.8438	-2.4313	-3.2562	-2.6292	-2.7771	-3.2167	-2.4562	-3.0271	-2.8354	-2.4833	-3.2729	-2.5271	-2.9396	-3.2375	-2.6813	295.152	302.018	135.213	284.539	353.562	324.155	41.147	42.543	191.930	343.822	220.196	296.454	29.423	8.339	269.772	1.615	0.0004451	0.00032442	0.00011241	433.81	4.542e-06	4.4324e-06	380.17	192.76	4.0461e-06	3.3983e-06	190.33	84.614	86.042	46.442	4.8272e-06	48.795	0.00068888	0.00082604	0.00023386	476.12	8.1355e-06	9.3693e-06	414.67	211.39	8.2336e-06	9.1557e-06	209.75	93.276	95.346	51.963	8.951e-06	53.831	265.007	51.320	90.943	9.916	182.878	151.793	8.209	15.543	212.694	128.445	12.277	16.554	20.185	23.652	161.385	19.053	-8191	255	
3740.078	1	1	0	0	0.16226	0.31353	0.22026	0.15993	0.20159	0.088334	0.20623	0.14341	0.10104	0.25587	0.23079	0.22054	0.022733	0.2037	0.21163	0.3871	-2.6771	-2.8396	-2.3208	-3.4042	-2.7292	-2.6875	-3.3875	-2.4688	-2.9562	-3.1896	-2.3479	-3.1896	-2.5625	-2.6958	-3.3375	-2.575	176.721	340.887	44.412	32.006	146.597	278.513	245.733	182.679	192.450	34.455	315.483	263.622	118.588	16.840	163.540	251.617	0.00051588	0.00031905	7.6486e-05	436.09	5.0353e-06	3.5839e-06	383.32	191.87	3.6342e-06	2.867e-06	191.55	85.255	86.059	46.734	3.907e-06	49.023	0.00070391	0.00083663	0.00023775	476.78	8.3016e-06	9.4131e-06	416.43	211.35	8.2545e-06	9.2421e-06	211.07	94.152	95.86	52.098	8.9452e-06	54.198	262.240	68.953	80.010	9.648	193.677	132.061	8.052	15.209	188.477	106.621	12.002	16.547	19.981	23.574	167.138	19.277	-8191	255	
3740.174	1	1	0	0	0.10968	0.28203	0.15458	0.15581	0.12115	0.1478	0.15016	0.13175	0.099687	0.082417	0.20125	0.16583	0.14659	0.16319	0.20763	0.13438	-2.6	-3.0729	-2.3312	-3.3417	-2.8125	-2.5938	-3.4458	-2.5583	-3.05	-3.0917	-2.4708	-2.9896	-2.8042	-2.7021	-3.3438	-2.6271	69.319	74.212	4.823	338.332	174.899	105.761	140.894	233.439	349.179	84.664	38.337	157.629	142.057	325.232	47.823	320.834	0.00048117	0.00027823	0.00010067	434.46	5.8332e-06	3.0392e-06	380.51	191.37	5.5918e-06	3.8011e-06	190.23	84.589	85.643	46.279	4.2269e-06	48.447	0.00069459	0.00080436	0.00023873	475.95	8.0431e-06	9.4668e-06	415.18	210.4	8.1458e-06	8.8838e-06	209.01	93.177	95.121	51.739	8.9472e-06	53.617	269.857	83.345	74.597	9.676	156.942	140.046	8.089	15.245	203.793	146.090	11.768	16.391	19.865	23.746	180.200	18.949	-8191	255	
3740.246	1	1	0	0	0.15159	0.14458	0.28829	0.13479	0.17153	0.098674	0.10523	0.14156	0.19223	0.023904	0.2288	0.24	0.33342	0.080747	0.13996	0.079418	-2.4479	-3.2042	-2.3312	-3.1979	-2.8375	-2.6146	-3.3438	-2.8063	-2.8104	-3.225	-2.4146	-3.1396	-2.8021	-2.3792	-3.2313	-2.7667	109.881	340.909	173.964	336.793	45.466	62.879	157.857	101.899	179.084	91.570	352.063	143.343	251.194	266.440	37.272	194.585	0.00043875	0.00025406	0.00012375	433.03	4.5648e-06	2.385e-06	379.4	190.12	4.859e-06	2.8377e-06	189.98	84.65	86.047	46.409	3.0874e-06	48.545	0.00070129	0.00082195	0.00023606	474.82	8.2428e-06	9.3029e-06	412.69	210	8.2742e-06	8.9487e-06	209.07	93.281	95.322	51.806	8.926e-06	53.693	264.411	82.600	87.598	9.843	155.687	168.517	8.050	14.856	199.275	136.526	12.170	16.774	20.234	23.489	178.357	19.208	-8191	255	
3740.342	1	1	0	0	0.15431	0.27586	0.18515	0.12141	0.066131	0.096288	0.19508	0.15869	0.066982	0.073167	0.067602	0.33154	0.084584	0.19406	0.096098	0.015321	-2.3063	-3.0812	-2.2812	-3.0958	-2.8771	-2.4688	-3.2687	-2.7812	-2.5229	-3.2021	-2.4125	-2.8021	-2.9854	-2.3542	-3.2667	-2.8125	15.673	195.747	259.738	54.635	343.184	228.394	347.357	322.930	51.468	82.734	160.568	322.798	324.343	298.845	94.065	227.199	0.00046026	0.00043855	0.00010565	432.83	5.7745e-06	3.5579e-06	380.92	192.48	4.5687e-06	3.2226e-06	192.07	85.668	86.495	46.824	4.4648e-06	48.976	0.0007037	0.00081557	0.00023301	474.48	8.0731e-06	9.4696e-06	414.72	211.16	8.3829e-06	9.1605e-06	210.67	94.607	96.139	52.215	8.9587e-06	54.326	265.522	97.411	86.616	10.100	166.974	144.416	8.405	15.156	201.855	137.602	12.069	16.716	20.038	23.484	175.675	19.087	-8191	255	
3740.438	1	1	0	0	0.11567	0.20026	0.22136	0.22619	0.14886	0.094089	0.187	0.24633	0.041618	0.10716	0.071922	0.094647	0.25764	0.10678	0.34206	0.084333	-2.0771	-2.9708	-2.3479	-2.8292	-3.0687	-2.35	-3.075	-2.7188	-2.5083	-3.3479	-2.6521	-2.85	-3.1896	-2.4667	-3.1875	-2.9625	33.975	196.117	144.870	61.899	140.395	91.114	229.262	122.429	12.536	246.032	185.146	53.773	273.952	290.883	164.885	121.898	0.00047373	0.00039841	8.7518e-05	438.57	4.3593e-06	2.8102e-06	383.33	193.08	4.2307e-06	3.6608e-06	194.21	86.686	87.597	46.965	4.1797e-06	49.66	0.00070451	0.00081898	0.0002339	478.03	8.1055e-06	9.5318e-06	417.9	212.29	8.5901e-06	9.194e-06	213.02	95.69	96.799	52.464	9.1017e-06	54.843	261.789	78.270	81.912	9.723	146.836	171.482	8.433	15.075	201.537	151.625	11.652	16.384	19.802	23.472	171.138	18.814	-8191	255	
3740.557	1	1	0	0	0.037446	0.064719	0.1218	0.21771	0.27907	0.24373	0.15055	0.14159	0.13558	0.13615	0.21568	0.39257	0.1552	0.14977	0.11315	0.098645	-2.0708	-3.2854	-2.6208	-2.5917	-3.1604	-2.4313	-3.1333	-2.9271	-2.6	-3.3375	-2.6146	-2.7375	-3.2396	-2.4583	-3.2479	-2.9313	114.738	54.375	2.742	63.327	82.629	106.858	97.239	204.617	340.640	225.394	295.442	81.399	150.155	55.191	85.381	270.022	0.00048132	0.00037807	7.7134e-05	434.36	3.9227e-06	2.1695e-06	382.35	191.96	3.3618e-06	3.1177e-06	191.04	85.051	86.892	46.477	4.0971e-06	48.647	0.00071292	0.00083168	0.00023749	476.63	8.0689e-06	9.601e-06	416.71	211.45	8.4158e-06	8.9473e-06	210.45	94.056	95.835	51.859	8.8369e-06	53.793	266.339	88.608	79.824	9.550	159.072	164.776	8.168	15.143	168.506	118.692	11.985	16.460	19.856	23.232	185.166	18.870	-8191	255	
3740.653	1	1	0	0	0.36455	0.065386	0.11972	0.174	0.024635	0.29336	0.064063	0.15691	0.3267	0.14199	0.068791	0.13416	0.20584	0.20378	0.11184	0.32347	-2.05	-3.225	-2.775	-2.7146	-3.3146	-2.4479	-3.0042	-3.0833	-2.5062	-3.3375	-2.8271	-2.4604	-3.2062	-2.5875	-2.9562	-3.2396	221.603	68.648	53.035	330.810	223.396	126.938	207.748	157.681	172.390	269.793	98.832	25.794	355.020	329.056	94.555	237.173	0.00046668	0.00044868	0.00010716	431.69	3.7122e-06	3.7374e-06	379.11	190.46	4.697e-06	3.3723e-06	189.63	84.819	86.087	46.215	4.0156e-06	48.548	0.00069136	0.00082046	0.00023377	473.94	8.0197e-06	9.3799e-06	413.31	210.32	8.5113e-06	9.0776e-06	209.09	93.515	95.263	51.629	8.8741e-06	53.617	265.986	102.259	85.395	9.532	163.050	137.612	7.813	14.658	201.664	150.638	11.709	16.086	19.664	23.002	168.962	18.527	-8191	255	
3740.749	1	1	0	0	0.04672	0.1183	0.10933	0.061586	0.092412	0.074196	0.16649	0.11542	0.23113	0.14712	0.2815	0.21934	0.048849	0.22524	0.045825	0.14575	-2.0583	-3.1292	-2.7708	-2.4271	-3.2292	-2.5125	-2.8583	-3.3354	-2.4021	-3.225	-2.9813	-2.4958	-3.1896	-2.6146	-2.5625	-3.3042	88.000	192.077	101.355	102.326	329.851	136.843	289.666	9.331	180.439	288.125	34.170	285.935	43.830	299.551	175.762	273.069	0.00045575	0.00040186	0.00013158	432.62	4.0177e-06	3.0834e-06	379.43	190.5	4.6363e-06	3.5965e-06	190.52	85.424	85.923	46.14	4.0081e-06	48.818	0.00069225	0.00080776	0.00023196	474.45	7.9351e-06	9.418e-06	413.84	210.09	8.5191e-06	9.0191e-06	209.78	94.051	95.612	51.693	9.0588e-06	54.029	264.567	88.100	88.862	9.749	147.118	110.941	8.040	15.156	180.055	139.155	12.041	16.610	19.933	23.443	178.198	18.932	-8191	255	
3740.870	1	1	0	0	0.11598	0.13209	0.17741	0.18966	0.08248	0.12545	0.16751	0.064177	0.081036	0.12186	0.098414	0.24711	0.12057	0.24627	0.21328	0.14232	-2.0792	-2.9979	-3.0229	-2.5167	-3.1917	-2.6021	-2.9333	-3.3438	-2.4458	-2.8708	-3.0354	-2.4875	-3.3229	-2.85	-2.8271	-3.3375	132.365	74.821	316.209	129.222	144.576	64.117	54.083	220.998	15.412	273.889	158.980	341.266	3.338	322.880	267.876	330.638	0.0004739	0.00050681	0.00014689	435.3	5.1274e-06	3.7579e-06	380.89	192.06	6.179e-06	4.7032e-06	192.69	86.251	87.008	46.586	4.4186e-06	49.374	0.00071373	0.00080863	0.00023074	475.66	8.1487e-06	9.4421e-06	416.48	211.6	8.5167e-06	9.1863e-06	212.03	95.299	96.511	52.094	9.1755e-06	54.631	265.420	92.034	95.082	9.743	165.187	139.076	7.976	15.070	195.962	133.875	11.942	16.251	19.784	23.129	173.470	18.928	-8191	255	
3740.942	1	1	0	0	0.21645	0.020255	0.34162	0.29002	0.36342	0.11634	0.082914	0.13469	0.086097	0.064266	0.23925	0.40691	0.13735	0.11301	0.26535	0.28144	-2.2146	-3.0708	-2.9708	-2.3771	-3.1042	-2.6354	-2.7104	-3.3271	-2.4646	-2.8146	-3.2521	-2.3958	-3.2958	-2.8125	-2.6333	-3.1813	4.179	264.136	26.323	214.797	236.543	27.051	294.777	331.583	346.588	342.418	303.399	-1.790	207.059	242.369	186.604	278.278	0.00048392	0.00034041	0.00010723	434.3	1.9379e-06	3.0653e-06	380.52	192.48	5.6813e-06	3.5276e-06	191.24	85.744	87.295	46.539	3.3968e-06	48.883	0.00070806	0.00084252	0.00023306	475.92	8.2158e-06	9.1963e-06	415.67	211.42	8.4211e-06	9.2337e-06	210.74	94.642	96.352	51.935	9.1293e-06	54.028	264.140	101.410	73.437	9.813	161.446	147.802	8.149	15.039	184.152	152.583	11.968	16.596	20.080	23.383	177.924	19.100	-8191	255	
3741.038	1	1	0	0	0.08826	0.18474	0.21851	0.15702	0.056377	0.16315	0.05322	0.13755	0.12771	0.15947	0.12647	0.32471	0.16222	0.15015	0.36491	0.15585	-2.0708	-2.85	-3.175	-2.35	-2.9479	-2.8958	-2.3167	-3.4062	-2.4167	-2.8	-2.9562	-2.4	-2.9792	-3.0458	-2.5146	-3.2812	35.393	315.297	106.045	124.604	61.848	204.920	21.341	208.331	168.070	309.021	102.927	31.253	206.979	40.217	186.056	210.357	0.00047531	0.00049532	0.00013297	431.27	3.6024e-06	3.4909e-06	378.21	190.93	5.0193e-06	3.5746e-06	191.12	85.264	86.71	46.343	4.2182e-06	48.685	0.00070519	0.00082579	0.00022827	474.54	8.1769e-06	9.204e-06	413.62	210.51	8.3901e-06	9.0825e-06	210.21	94.245	96.028	51.779	9.1152e-06	53.966	262.455	74.456	86.399	9.919	170.225	125.291	8.312	15.270	201.567	137.314	11.900	16.204	19.951	23.270	160.257	18.985	-8191	255	
3741.158	1	1	0	0	0.21697	0.19344	0.3294	0.044453	0.18528	0.084165	0.15066	0.1134	0.080847	0.10486	0.048633	0.066944	0.085115	0.44858	0.11514	0.31873	-2.0375	-2.6854	-3.2833	-2.5479	-2.9167	-3.1083	-2.4583	-3.1417	-2.6437	-2.5604	-3.2396	-2.5146	-3.0729	-3.0583	-2.6021	-3.2812	233.990	170.916	14.747	188.217	304.656	211.242	0.897	307.356	259.898	206.542	255.642	311.794	202.557	355.310	173.484	273.491	0.00045552	0.00021491	9.1027e-05	432.65	4.5721e-06	4.8294e-06	380.31	191.5	3.3255e-06	3.6486e-06	191.17	85.049	85.71	46.17	5.3082e-06	48.578	0.0006976	0.00083378	0.00023107	473.9	8.1487e-06	9.0663e-06	414.88	210.31	8.3202e-06	9.2226e-06	210.19	93.96	95.3	51.514	9.1383e-06	53.827	268.950	107.541	107.814	9.619	180.858	152.997	8.098	14.885	199.584	151.842	11.598	16.194	20.002	23.291	186.057	18.804	-8191	255	
3741.255	1	1	0	0	0.33879	0.077014	0.16776	0.065041	0.15429	0.14941	0.22874	0.048003	0.29602	0.035216	0.27693	0.10591	0.12644	0.28073	0.27566	0.29534	-2.2104	-2.4854	-3.1417	-2.4562	-2.8417	-3.0854	-2.1917	-3.2521	-2.9521	-2.4271	-3.4708	-2.6104	-2.8583	-3.1271	-2.3396	-3.0438	155.523	274.556	327.396	143.557	242.859	325.858	101.827	114.553	234.244	224.459	98.064	214.209	256.701	318.473	213.773	337.814	0.0004717	0.00030358	0.00013209	433.48	4.0508e-06	3.6471e-06	381.38	191.31	3.55e-06	4.2051e-06	192.36	85.755	85.964	45.924	5.8815e-06	48.757	0.00070108	0.00085392	0.00023097	474.3	8.2146e-06	8.9795e-06	416.15	210.57	8.3214e-06	9.4072e-06	211.33	94.316	95.143	51.401	9.2441e-06	53.929	266.148	95.005	87.128	9.584	199.684	148.552	7.938	14.947	185.947	147.471	11.555	15.998	19.523	23.246	186.037	18.620	-8191	255	
3741.351	1	1	0	0	0.092868	0.089546	0.079154	0.069097	0.30135	0.26922	0.095032	0.038239	0.12348	0.14569	0.23838	0.2907	0.20907	0.21541	0.14319	0.22607	-2.475	-2.3542	-3.1958	-2.7333	-2.85	-3.1479	-2.4083	-3.05	-2.9083	-2.4625	-3.2313	-2.5563	-2.8104	-3.1333	-2.1792	-3.0271	109.371	332.120	133.084	238.409	241.510	281.380	73.747	128.687	126.644	289.332	301.155	287.259	331.864	352.704	61.192	312.139	0.0004471	0.00027089	0.00012866	430.67	2.5163e-06	2.545e-06	379.39	190.22	4.5955e-06	4.7951e-06	189.58	84.425	85.197	45.649	4.2972e-06	47.973	0.00070016	0.00084574	0.00023322	473.22	8.3232e-06	9.1377e-06	413.88	209.26	8.2563e-06	9.3215e-06	208.77	93.066	94.495	50.975	8.9036e-06	53.136	264.906	88.933	99.122	9.730	180.668	146.665	7.934	15.068	197.697	147.458	11.481	16.015	19.372	23.137	166.463	18.731	-8191	255	
3741.470	1	1	0	0	0.16013	0.01627	0.21568	0.24149	0.10849	0.061025	0.16978	0.30451	0.055641	0.061665	0.27486	0.23148	0.34318	0.18663	0.19504	0.22092	-2.65	-2.4271	-3.2146	-2.5542	-2.4917	-3.4021	-2.4292	-2.9417	-3.0687	-2.1833	-3.2562	-2.7708	-2.5292	-3.2792	-2.5354	-2.7521	40.186	240.930	67.861	272.355	342.999	164.691	292.692	347.741	129.886	-1.869	110.275	341.607	288.745	341.754	344.803	12.447	0.00047053	0.00030265	8.7603e-05	430.63	5.7334e-06	3.0204e-06	375.05	189.22	3.8724e-06	5.1212e-06	189.2	83.604	84.809	45.462	4.0126e-06	48.107	0.00069342	0.00082164	0.00022609	471.37	8.0275e-06	9.1242e-06	411.75	208.42	8.3041e-06	9.2023e-06	207.4	92.139	93.911	50.823	8.9722e-06	53.127	266.496	95.950	92.146	9.416	150.598	147.286	7.694	14.948	199.926	133.242	11.888	16.391	19.767	23.086	183.591	18.836	-8191	255	
3741.541	1	1	0	0	0.11045	0.26163	0.21505	0.14386	0.070577	0.084913	0.29622	0.1414	0.14048	0.23895	0.18941	0.12951	0.16961	0.21665	0.12068	0.07972	-2.7229	-2.3792	-3.1375	-2.7812	-2.6875	-3.2542	-2.6354	-2.8083	-3.1229	-2.4375	-3.1937	-2.9833	-2.375	-3.3	-2.5687	-2.7	66.851	71.879	322.178	307.834	27.426	184.208	345.867	136.909	252.393	104.951	6.283	345.228	167.412	282.204	170.866	72.971	0.00046127	0.00034762	7.5722e-05	432.28	4.6175e-06	2.7528e-06	380.15	190.26	4.4137e-06	3.5309e-06	190.31	84.011	85.597	45.627	3.9374e-06	48.423	0.00067439	0.00080944	0.00022394	472.55	8.19e-06	9.2062e-06	413.38	209.4	8.2426e-06	9.1689e-06	209.19	92.767	94.381	51.046	9.1223e-06	53.584	265.695	94.735	86.623	9.453	155.460	139.005	7.748	14.854	204.279	126.371	11.540	16.032	19.630	23.066	199.232	18.740	-8191	255	
3741.637	1	1	0	0	0.18885	0.31316	0.10841	0.18965	0.10628	0.079512	0.20739	0.095206	0.11175	0.13023	0.24221	0.13859	0.013106	0.019388	0.18149	0.17123	-2.6854	-2.2562	-3.1312	-3.0229	-2.45	-3.2292	-2.5146	-2.5979	-3.2812	-2.6271	-2.7625	-2.9313	-2.5021	-3.2771	-2.6333	-2.7083	66.830	125.111	166.264	72.179	319.118	108.658	216.109	233.266	203.593	321.898	290.780	321.199	262.504	353.562	218.532	209.118	0.0004669	0.00033243	0.00011386	432.05	2.9967e-06	3.1497e-06	381.54	191.02	5.3205e-06	2.504e-06	192.2	85.104	86.144	46.001	4.0576e-06	48.834	0.00069363	0.00084103	0.00023269	474.41	8.1157e-06	9.2591e-06	416.19	210.6	8.331e-06	9.0623e-06	211.06	93.883	95.098	51.401	9.2557e-06	53.988	261.798	74.563	76.040	9.538	153.371	116.372	7.587	14.817	203.727	158.629	11.674	16.342	19.456	23.121	172.438	18.804	-8191	255	
3741.734	1	1	0	0	0.15893	0.19636	0.20466	0.22273	0.14778	0.25762	0.21922	0.12464	0.1428	0.32435	0.2009	0.1094	0.18494	0.3264	0.12858	0.12582	-2.875	-2.3937	-2.9313	-3.0479	-2.4208	-3.1604	-2.7042	-2.5375	-3.2562	-2.5312	-2.8146	-3.0896	-2.4146	-3.2417	-2.8312	-2.5833	32.888	190.856	356.540	86.208	340.543	44.515	174.757	292.525	146.408	307.012	330.418	316.484	266.520	353.911	95.811	356.896	0.00049162	0.00045202	7.8254e-05	434.37	3.9069e-06	2.8967e-06	379.4	190.67	4.0384e-06	3.4077e-06	189.26	84.198	85.105	45.687	4.7801e-06	48.254	0.00069236	0.0008362	0.0002328	474.53	8.2782e-06	9.0868e-06	414.54	209.49	8.2115e-06	9.2651e-06	209.15	92.834	94.198	50.997	9.0645e-06	53.306	265.363	88.534	85.374	9.338	167.900	154.733	7.925	14.889	194.495	161.694	11.617	16.371	19.678	23.215	156.940	18.835	-8191	255	
3741.854	1	1	0	0	0.035544	0.14241	0.32824	0.041316	0.043492	0.2891	0.17148	0.034584	0.16718	0.20754	0.22562	0.052088	0.22503	0.28342	0.12074	0.12882	-2.7479	-2.4771	-2.6	-3.0667	-2.2792	-3.0583	-2.8917	-2.5375	-3.1354	-2.575	-2.7833	-3.2167	-2.4417	-3.1583	-3.0062	-2.3021	321.286	105.926	347.150	296.919	75.645	191.175	103.301	150.009	113.628	223.643	174.767	102.770	117.499	108.031	76.508	163.246	0.0004703	0.00041302	9.8987e-05	429.68	5.8325e-06	3.3188e-06	377.62	188.96	5.0197e-06	2.6656e-06	187.97	83.396	84.349	45.221	3.8347e-06	47.929	0.00068856	0.00084419	0.00023147	471.59	8.2836e-06	9.1949e-06	411.41	208.28	8.0461e-06	8.9347e-06	207.62	91.879	93.438	50.637	8.7432e-06	52.975	264.610	82.704	90.864	9.430	155.134	119.045	7.930	14.930	215.642	172.683	11.768	15.993	19.983	23.440	156.864	18.875	-8191	255	
3741.950	1	1	0	0	0.27609	0.07211	0.091906	0.15137	0.39282	0.11114	0.10955	0.19915	0.035816	0.081394	0.14957	0.20574	0.24983	0.30375	0.087677	0.23493	-2.7979	-2.5292	-2.5396	-3.1667	-2.3042	-2.7125	-2.8646	-2.2292	-3.0625	-2.5938	-2.475	-3.3271	-2.5438	-3.0333	-3.1333	-2.3979	58.272	93.982	58.954	7.102	197.450	50.435	15.962	10.337	324.241	101.788	192.777	191.829	55.038	353.462	107.694	31.290	0.00046374	0.00046955	0.00012532	430.06	2.5976e-06	3.0233e-06	376.64	188.94	5.0717e-06	3.6327e-06	189.3	83.353	84.028	45.214	3.6274e-06	47.916	0.00068389	0.00081055	0.00023357	471.28	8.214e-06	9.0614e-06	411.68	208.33	7.8884e-06	9.0734e-06	208.02	92.124	93.3	50.534	8.9125e-06	53.048	264.686	50.244	88.678	10.054	167.738	129.163	7.998	14.883	175.764	143.462	11.877	16.410	19.916	23.560	176.521	19.075	-8191	255	
3742.047	1	1	0	0	0.51119	0.047971	0.065667	0.15694	0.20743	0.14407	0.063272	0.040896	0.16804	0.25766	0.089018	0.35583	0.17534	0.087686	0.24905	0.32836	-2.6479	-2.5667	-2.5417	-3.1979	-2.3979	-2.9583	-3.2583	-2.3271	-3.0896	-2.8187	-2.3917	-3.1625	-2.6333	-2.8854	-3.2104	-2.5104	246.786	150.335	66.946	323.094	248.392	336.200	239.905	177.171	349.811	29.166	111.216	313.738	49.622	32.854	48.172	284.814	0.00045745	0.00035995	9.8556e-05	428.05	4.5123e-06	2.9145e-06	378.52	189.07	3.5384e-06	4.4412e-06	190.13	83.98	84.706	45.417	3.7567e-06	48.349	0.00068311	0.00082393	0.00023494	471.6	8.1289e-06	9.2733e-06	413.89	208.54	8.0718e-06	9.2072e-06	209.24	92.678	93.622	50.714	8.7939e-06	53.383	263.057	77.405	88.202	9.841	176.437	153.922	8.639	15.504	190.571	137.339	11.825	16.940	20.185	23.651	171.353	19.306	-8191	255	
3742.143	1	1	0	0	0.16964	0.19822	0.076341	0.14984	0.23172	0.16144	0.16319	0.0011304	0.061137	0.27728	0.19243	0.18818	0.26109	0.25946	0.08501	0.14467	-2.8354	-2.6146	-2.4	-3.1292	-2.3812	-2.7104	-3.1417	-2.5438	-3.0083	-2.8521	-2.4813	-3.1729	-2.4854	-2.7375	-3.1917	-2.3333	175.845	265.582	271.145	136.046	258.341	327.836	333.355	180.000	214.510	10.880	272.702	226.036	275.799	0.048	249.792	90.465	0.00046955	0.00035626	0.0001441	427.79	3.9767e-06	1.5675e-06	376.08	189	3.7428e-06	3.3883e-06	188.41	82.913	83.845	45.184	4.6663e-06	47.664	0.00068931	0.0008217	0.0002367	470.33	8.0113e-06	9.2952e-06	411.59	207.5	7.947e-06	8.9515e-06	206.9	91.347	92.908	50.356	8.7221e-06	52.625	261.845	75.341	92.523	10.098	180.946	141.581	8.000	15.198	183.833	151.732	11.854	16.511	19.845	23.791	177.185	19.084	-8191	255	
3742.239	1	1	0	0	0.12185	0.1498	0.12513	0.13374	0.14055	0.21246	0.16278	0.1283	0.10368	0.098971	0.12419	0.26657	0.25813	0.12433	0.04423	0.17373	-2.5979	-3	-2.3917	-3.0771	-2.6083	-2.5208	-3.2625	-2.4625	-2.8438	-2.9542	-2.3479	-3.1271	-2.7604	-2.7146	-3.3417	-2.5917	30.235	184.285	144.817	2.225	24.233	241.680	84.657	6.475	220.584	167.049	191.688	13.813	321.986	293.321	146.731	276.772	0.00042924	0.00040975	0.00010558	426.99	2.988e-06	2.224e-06	373.04	186.39	4.8864e-06	5.339e-06	186.91	82.535	83.559	44.914	3.3242e-06	47.613	0.00067665	0.00079674	0.00022319	468.64	8.0971e-06	9.0649e-06	408.18	205.92	8.3202e-06	8.8302e-06	205.67	91.127	92.61	50.183	8.7843e-06	52.613	266.156	104.288	77.578	10.028	156.207	173.976	8.526	15.437	208.362	145.834	12.118	16.696	20.148	23.825	163.544	19.146	-8191	255	
3742.335	1	1	0	0	0.088563	0.12961	0.28106	0.19695	0.038254	0.2831	0.11145	0.34696	0.10269	0.21672	0.26702	0.18784	0.19919	0.23006	0.10666	0.2306	-2.4771	-2.9667	-2.2146	-3.0271	-3	-2.4271	-3.3875	-2.4313	-2.7562	-3.0958	-2.3333	-3.3146	-2.9833	-2.675	-3.2396	-2.5604	253.189	41.779	250.824	333.239	309.137	298.062	285.102	345.874	164.916	223.763	286.284	114.884	60.823	338.535	304.346	317.270	0.00046683	0.00028663	8.6264e-05	426.02	4.4811e-06	2.7635e-06	375.62	187.75	4.216e-06	3.2057e-06	188.6	83.007	83.679	44.896	4.0413e-06	47.881	0.00068598	0.00079432	0.00022902	468.79	8.0821e-06	9.2881e-06	409.8	206.83	8.15e-06	9.1138e-06	207.07	91.783	92.746	50.208	8.613e-06	52.902	265.840	90.656	79.832	9.920	165.863	121.424	8.247	14.879	208.486	130.121	12.053	16.695	20.142	23.772	184.717	18.910	-8191	255	
3742.431	1	1	0	0	0.039831	0.12869	0.14044	0.18046	0.13999	0.1669	0.13356	0.18581	0.18588	0.11267	0.33204	0.099019	0.087397	0.3082	0.13585	0.16715	-2.2375	-3.2021	-2.5083	-3.175	-3.0229	-2.4375	-3.1146	-2.5729	-2.5708	-3.2021	-2.3937	-3.0354	-2.8604	-2.2333	-3.0979	-2.7208	310.387	237.931	21.718	327.421	155.729	141.042	284.226	227.238	2.753	35.443	231.465	-2.311	20.479	314.340	222.686	28.639	0.00045926	0.0003043	9.7977e-05	428.01	6.1199e-06	3.2057e-06	377.22	187.43	6.3263e-06	3.5948e-06	190.28	83.886	84.111	44.955	2.7642e-06	48.125	0.00068534	0.00079463	0.00023032	468.93	7.9663e-06	9.3912e-06	412.24	206.94	8.4444e-06	8.8211e-06	208.84	92.713	93.079	50.272	8.5149e-06	53.093	263.573	79.653	92.577	9.769	173.993	174.682	8.158	15.057	173.681	154.067	12.048	16.599	19.975	23.502	155.310	18.727	-8191	255	
3742.550	1	1	0	0	0.10914	0.19443	0.15584	0.035689	0.161	0.02461	0.15393	0.12377	0.084311	0.19124	0.085461	0.32057	0.26984	0.24364	0.16756	0.03164	-2.2021	-3.1833	-2.2396	-2.8479	-2.9708	-2.4042	-3.0667	-2.8875	-2.4813	-3.3292	-2.525	-2.8833	-3.1229	-2.3063	-3.0333	-2.8604	249.593	76.733	111.759	89.647	277.840	147.097	60.369	331.580	162.159	191.963	39.256	324.522	45.865	281.685	170.401	56.022	0.00049465	0.00046437	9.6372e-05	426.56	4.6403e-06	3.2018e-06	378.05	187.24	4.0439e-06	2.8818e-06	187.76	82.805	83.206	44.765	4.317e-06	47.395	0.00069686	0.00080132	0.00022809	468.53	7.9561e-06	9.2846e-06	411.14	206.44	8.1578e-06	8.6741e-06	206.11	91.416	92.317	49.974	8.8125e-06	52.416	264.204	90.924	71.405	9.903	161.135	146.893	8.037	15.214	202.356	149.892	11.994	16.578	19.863	23.410	185.218	19.062	-8191	255	
3742.646	1	1	0	0	0.09472	0.064867	0.15568	0.18262	0.12125	0.29875	0.23021	0.27251	0.098523	0.24799	0.26682	0.17678	0.15962	0.11186	0.16483	0.16676	-1.9833	-3.125	-2.4083	-2.7396	-2.9604	-2.4792	-3.0604	-2.8542	-2.4813	-3.2083	-2.6083	-2.5604	-3.1688	-2.3333	-3.0083	-2.8667	51.323	199.205	31.205	201.195	230.892	111.150	323.671	73.629	315.549	297.995	101.181	289.268	28.814	33.995	334.760	335.477	0.00044661	0.0003115	8.7968e-05	426.89	4.5994e-06	3.4228e-06	375.65	186.83	3.7041e-06	3.126e-06	186.55	82.43	82.844	44.727	3.8205e-06	47.402	0.0006836	0.00081377	0.00022779	468.01	7.9315e-06	9.1532e-06	409.12	205.75	8.245e-06	8.7884e-06	205.05	90.967	92.199	50.017	8.7824e-06	52.503	265.897	85.301	107.636	9.891	166.855	168.859	8.334	14.870	180.151	126.419	12.009	16.662	19.865	23.446	170.121	19.186	-8191	255	
3742.742	1	1	0	0	0.18223	0.090602	0.16866	0.34097	0.26674	0.18021	0.23566	0.20271	0.2573	0.15575	0.24297	0.24966	0.44598	0.14834	0.11518	0.1915	-2.0083	-3.1125	-2.5438	-2.6437	-3.2062	-2.3479	-2.8604	-2.9271	-2.2979	-3.05	-2.4917	-2.6542	-3.2271	-2.425	-2.9771	-2.9083	144.399	311.807	333.169	354.927	350.635	194.017	238.673	247.591	328.442	273.152	276.742	323.885	256.298	283.208	59.553	331.167	0.00046653	0.00039448	0.00010798	426.28	3.7023e-06	3.2491e-06	377.49	187.71	4.9968e-06	1.8853e-06	187.62	82.91	83.616	45.052	4.4107e-06	47.742	0.00069679	0.00079432	0.00022813	469.01	7.8236e-06	9.3227e-06	410.66	206.43	8.2724e-06	8.8622e-06	206.32	91.379	92.65	50.299	8.8657e-06	52.95	266.986	103.091	89.336	9.697	175.508	165.246	8.362	15.292	179.924	147.559	11.802	16.757	20.082	23.605	174.911	19.037	-8191	255	
3742.838	1	1	0	0	0.23062	0.12704	0.18265	0.047221	0.053019	0.049532	0.11888	0.15483	0.1699	0.21655	0.22012	0.17589	0.20195	0.27803	0.22461	0.13011	-1.95	-3.0708	-2.6146	-2.5667	-3.175	-2.5729	-2.9021	-3.1625	-2.3063	-3.2479	-2.7938	-2.2771	-3.2542	-2.6354	-2.75	-3.0583	293.362	231.937	86.120	180.631	145.392	5.113	285.396	160.943	66.273	317.124	77.175	125.098	266.092	76.133	231.896	302.521	0.0004815	0.00035256	0.00011143	431.13	4.6001e-06	4.0677e-06	378.98	188.97	4.6239e-06	3.4838e-06	188.81	83.722	84.432	45.163	5.7952e-06	48.043	0.0006975	0.00081346	0.00022422	471.75	8.0401e-06	9.1242e-06	413.38	208.02	8.5806e-06	8.9187e-06	208.55	92.315	93.219	50.448	8.8523e-06	53.177	265.796	82.356	89.725	9.675	162.508	135.585	8.096	14.742	205.694	139.900	11.961	16.401	19.792	23.303	170.270	18.960	-8191	255	
3742.935	1	1	0	0	0.2287	0.17767	0.21489	0.076682	0.27952	0.18737	0.23161	0.046847	0.26892	0.26623	0.1517	0.095931	0.23542	0.13388	0.12763	0.15938	-2.1312	-3.0354	-2.8937	-2.4708	-3.1208	-2.55	-2.8771	-3.1083	-2.5167	-3.1375	-2.9188	-2.4708	-3.125	-2.5479	-2.7188	-3.2042	25.549	163.060	202.406	333.180	181.696	-0.303	108.426	22.687	-1.854	126.611	239.474	291.392	299.444	87.798	248.724	217.818	0.00047213	0.00039626	0.00011007	430.7	1.8285e-06	2.1348e-06	376.04	187.98	4.1911e-06	2.4866e-06	186.81	83.105	84.309	44.998	4.1699e-06	47.359	0.00069704	0.0008025	0.00022795	470.73	7.9657e-06	9.0741e-06	410.73	207	8.288e-06	9.0428e-06	206.1	91.526	92.945	50.198	9.0568e-06	52.469	266.418	82.015	80.147	9.775	141.820	153.723	8.045	15.153	217.918	138.575	11.861	16.517	20.115	23.758	156.394	19.018	-8191	255	
3743.031	1	1	0	0	0.16842	0.22616	0.1029	0.11026	0.35493	0.16083	0.16395	0.11683	0.14654	0.22514	0.16003	0.23545	0.23716	0.19043	0.24452	0.23782	-1.9937	-2.8438	-2.9604	-2.3375	-3.1458	-2.5354	-2.6417	-3.2188	-2.4792	-2.9042	-3.0187	-2.4833	-3.3208	-2.7313	-2.3812	-3.2938	343.365	273.566	250.104	296.471	350.521	254.507	93.309	357.340	152.875	329.452	170.610	91.488	232.329	228.350	264.503	330.204	0.00044298	0.00040434	0.00012053	428.95	3.9116e-06	4.955e-06	373.98	188.16	3.4934e-06	5.7065e-06	187.38	82.697	84.001	44.8	5.4176e-06	47.419	0.00069377	0.00080039	0.00022558	469.11	7.8379e-06	8.9554e-06	409.24	206.82	8.242e-06	8.8009e-06	206.27	91.284	92.858	50.19	8.8946e-06	52.57	267.757	83.164	77.542	10.060	152.685	134.304	8.133	15.421	218.650	141.704	12.332	16.909	20.270	23.516	194.305	19.318	-8191	255	
3743.151	1	1	0	0	0.1313	0.13164	0.08836	0.091718	0.20499	0.29174	0.19983	0.14994	0.1482	0.069009	0.2212	0.02504	0.072752	0.19123	0.22018	0.060877	-1.9917	-2.8563	-3.1083	-2.5458	-3.1292	-2.7271	-2.6125	-3.3229	-2.65	-2.9167	-3.1229	-2.4708	-2.9979	-3.0292	-2.4104	-3.25	204.654	328.904	96.315	314.104	51.807	135.530	203.402	282.345	152.790	144.399	2.265	113.085	247.249	354.378	174.844	111.947	0.0004462	0.00037814	0.00012253	430.05	4.2799e-06	3.4158e-06	376.29	188.65	5.267e-06	3.2543e-06	187.82	82.884	84.12	45.138	3.6539e-06	47.703	0.00068778	0.00081861	0.0002275	469.91	8.0251e-06	9.1892e-06	411.32	207.54	8.1572e-06	8.9048e-06	206.92	91.432	93.215	50.465	8.9311e-06	53	268.563	86.558	85.768	10.156	176.287	177.024	8.310	15.315	189.565	138.550	11.947	16.765	20.204	23.810	180.559	19.253	-8191	255	
3743.248	1	1	0	0	0.199	0.047078	0.15163	0.15649	0.11085	0.053084	0.061108	0.27807	0.020833	0.14794	0.33552	0.23815	0.072537	0.058122	0.26404	0.1184	-2.0687	-2.6854	-3.0646	-2.4146	-3.0187	-2.7042	-2.3812	-3.1167	-2.65	-2.7083	-3.3625	-2.4958	-3.05	-2.975	-2.3104	-3.1583	276.292	235.944	331.771	250.116	168.627	130.496	148.246	339.740	143.287	42.225	333.322	54.208	217.241	269.935	332.874	227.018	0.00049281	0.00033194	6.5123e-05	431.23	3.1825e-06	3.1942e-06	379.85	189.13	4.5176e-06	3.3568e-06	190.13	83.416	84.304	45.279	4.0211e-06	48.023	0.00068545	0.00082424	0.00022274	472.16	7.9021e-06	9.257e-06	414.72	208.86	8.2163e-06	9.0253e-06	209.35	92.614	93.822	50.716	9.1024e-06	53.284	265.851	74.709	84.140	9.842	165.219	144.427	8.341	15.531	195.017	141.478	12.311	16.901	20.299	23.640	177.051	19.080	-8191	255	
3743.344	1	1	0	0	0.12493	0.065565	0.18424	0.12165	0.1826	0.31867	0.17818	0.1158	0.062542	0.11736	0.24846	0.20013	0.085955	0.072068	0.060011	0.10733	-2.4813	-2.5354	-3.1458	-2.5146	-2.8354	-2.9896	-2.4708	-3.0896	-2.6833	-2.55	-2.9896	-2.4583	-2.8458	-3.0979	-2.3271	-3.0521	140.415	247.223	83.291	227.908	235.886	317.046	83.400	178.916	60.312	120.490	232.796	272.951	83.349	89.885	189.670	182.067	0.00044994	0.00038961	0.00011317	430.33	4.8029e-06	4.5045e-06	376.2	188.16	3.8237e-06	4.7591e-06	187.92	82.871	84.032	44.941	4.3399e-06	47.652	0.00068626	0.00081105	0.00022943	471.16	8.0311e-06	8.9915e-06	411.78	207.87	8.1596e-06	9.2644e-06	206.88	91.629	93.258	50.364	9.0754e-06	52.65	264.566	78.031	88.670	10.005	159.504	149.500	8.524	15.444	186.878	143.193	12.348	16.582	20.305	24.052	164.323	19.126	-8191	255	
3743.415	1	1	0	0	0.093787	0.027406	0.20273	0.095318	0.17401	0.051286	0.10597	0.22522	0.076931	0.020252	0.13966	0.12172	0.41138	0.087792	0.13863	0.10549	-2.5208	-2.5104	-3.0938	-2.575	-2.5563	-2.9479	-2.4292	-3.0979	-2.7396	-2.4562	-3.2625	-2.5187	-2.6875	-3.25	-2.4167	-3.0771	90.192	163.562	319.571	90.565	307.118	278.648	159.593	61.256	237.738	356.482	80.757	334.960	15.273	334.570	212.033	274.497	0.00046573	0.00030968	0.00010873	428.68	3.8486e-06	2.1348e-06	374.17	187.87	4.3622e-06	1.7222e-06	186.95	82.53	83.69	45.042	4.2398e-06	47.576	0.00067166	0.00081879	0.00021899	470.38	8.0491e-06	8.9837e-06	410.36	207.3	7.9995e-06	8.9821e-06	206.26	91.316	92.797	50.28	8.8022e-06	52.79	267.796	85.353	100.780	10.096	165.574	138.024	8.499	15.354	200.955	128.052	12.320	16.566	19.998	23.674	192.579	19.227	-8191	255	
3743.534	1	1	0	0	0.086095	0.20976	0.081879	0.13387	0.12047	0.059132	0.23038	0.046486	0.1487	0.36308	0.15023	0.31679	0.09072	0.095086	0.14797	0.15726	-2.5812	-2.3688	-3.0292	-2.6208	-2.4437	-3.1583	-2.3167	-3.125	-3.0146	-2.275	-3.0646	-2.675	-2.4833	-3.2208	-2.2833	-3.0083	314.688	341.606	142.764	116.957	204.759	92.120	17.366	22.044	52.408	186.122	341.194	321.050	142.022	350.769	149.208	327.722	0.00050124	0.00031402	0.00011575	427.46	4.6595e-06	3.4883e-06	378.74	189.25	4.7657e-06	3.0483e-06	189.68	83.834	84.657	45.647	3.9015e-06	48.461	0.00067935	0.00083093	0.00022485	470.61	7.9675e-06	9.1857e-06	413.06	208.07	8.0443e-06	8.9947e-06	208.33	92.419	93.814	50.816	8.9414e-06	53.48	264.611	78.584	71.789	9.911	164.985	139.252	8.191	15.317	213.359	148.502	12.186	16.482	19.886	23.614	161.472	19.072	-8191	255	
3743.630	1	1	0	0	0.11986	0.2901	0.16626	0.081555	0.13445	0.15176	0.1068	0.16844	0.056721	0.033791	0.086591	0.14605	0.096427	0.36336	0.18723	0.092112	-2.65	-2.325	-3.1458	-2.5729	-2.5542	-3.4604	-2.6125	-2.8667	-3.1417	-2.1958	-3.225	-2.8187	-2.4688	-3.2438	-2.4813	-2.7375	341.108	130.982	10.687	314.081	162.209	148.617	155.266	93.134	217.092	223.974	294.063	296.516	25.775	342.676	135.702	276.566	0.00046453	0.00033558	0.00011248	432.7	4.7007e-06	2.8045e-06	381.28	190.87	3.6027e-06	2.6292e-06	192.31	85.237	85.813	46.04	5.7643e-06	48.811	0.00067697	0.00084698	0.00022255	473.47	8.223e-06	8.9357e-06	417.12	209.83	8.1602e-06	9.2818e-06	211.36	93.915	95.025	51.295	8.9863e-06	53.97	261.796	57.812	85.684	9.835	178.442	134.491	8.474	15.274	197.941	141.657	12.021	16.340	19.869	23.370	181.699	19.020	-8191	255	
3743.727	1	1	0	0	0.20329	0.26176	0.18158	0.17782	0.34732	0.15629	0.2558	0.26711	0.1898	0.055838	0.38856	0.081718	0.32264	0.23188	0.28494	0.2337	-2.7188	-2.1625	-3.0083	-2.8396	-2.3937	-3.0083	-2.5979	-2.625	-3.05	-2.3417	-3.1125	-2.8646	-2.4021	-3.0729	-2.6396	-2.6	101.910	143.659	262.961	272.050	72.139	258.512	227.031	228.512	38.292	210.076	335.019	140.017	0.801	158.498	113.665	212.354	0.00048767	0.00035901	0.00011658	431.99	4.7909e-06	3.1667e-06	381.77	190.5	4.1661e-06	3.545e-06	189.38	84.358	85.366	45.84	4.5445e-06	48.198	0.00069668	0.00084605	0.00022518	473.73	8.2998e-06	8.8749e-06	414.28	209.67	8.1154e-06	9.3299e-06	209.06	93.117	94.621	51.134	8.8144e-06	53.42	262.647	99.870	99.532	9.925	173.453	153.816	7.957	14.973	197.389	140.602	11.916	16.306	19.847	23.144	160.200	18.921	-8191	255	
3743.823	1	1	0	0	0.12699	0.040508	0.13911	0.094959	0.16903	0.14569	0.039689	0.084048	0.20387	0.1357	0.054083	0.042515	0.080543	0.27534	0.11494	0.22404	-2.8083	-2.1729	-2.925	-3.0333	-2.2896	-3.1479	-2.8167	-2.5667	-3.1417	-2.5729	-2.9104	-3.0583	-2.4771	-3.0708	-2.7542	-2.5604	356.895	237.975	236.271	353.381	356.613	74.856	239.379	330.251	323.151	306.564	274.465	58.449	354.473	235.309	109.305	334.196	0.00047283	0.00037498	0.00010768	431.57	4.4943e-06	3.29e-06	378.69	189.6	2.8559e-06	4.1406e-06	189.53	84.087	84.807	45.699	4.5635e-06	48.049	0.00068757	0.00084401	0.00022978	472.92	8.3334e-06	8.8107e-06	413.15	209	7.9105e-06	9.0058e-06	208.55	92.77	94.2	51.006	8.9311e-06	53.381	264.549	103.019	78.616	9.648	174.792	145.622	7.861	15.087	192.632	152.950	11.664	16.389	19.692	23.261	172.271	18.689	-8191	255	
3743.943	1	1	0	0	0.049404	0.23495	0.29093	0.057548	0.29218	0.11021	0.075044	0.23404	0.20192	0.2172	0.26637	0.12088	0.20975	0.182	0.12296	0.1156	-2.7479	-2.4354	-2.5396	-2.8771	-2.2792	-3.2604	-2.8438	-2.3521	-3.2375	-2.5187	-2.8417	-3.1229	-2.3167	-3.1896	-2.9729	-2.3375	319.485	143.597	230.233	306.813	33.016	183.107	173.540	274.131	270.644	15.073	349.195	172.809	244.742	347.608	222.650	321.958	0.00045891	0.00022336	0.00012778	431.01	3.0142e-06	2.8932e-06	379.22	190.78	3.2329e-06	2.3129e-06	190.29	84.253	85.138	45.801	4.1004e-06	48.525	0.00067105	0.00082629	0.00023173	473.08	8.1517e-06	9.0134e-06	414.1	209.36	7.9326e-06	9.1633e-06	209.94	93.045	94.319	51.037	8.8324e-06	53.658	265.353	111.276	78.037	9.557	174.407	126.818	7.939	14.744	197.990	159.831	11.824	16.027	19.717	23.292	183.641	18.684	-8191	255	
3744.039	1	1	0	0	0.080834	0.29899	0.38385	0.26918	0.29472	0.13891	0.16464	0.3192	0.15691	0.14999	0.083549	0.23669	0.021333	0.20141	0.26387	0.054824	-2.7542	-2.5812	-2.4646	-3.2958	-2.2604	-3.0396	-2.9333	-2.3146	-3.1125	-2.4708	-2.4813	-3.2313	-2.4	-2.9375	-2.9813	-2.3104	308.052	195.537	271.127	285.501	177.395	200.906	333.979	335.273	166.908	156.423	270.266	252.731	283.306	131.397	52.945	314.880	0.00050176	0.00036605	0.00011835	435.89	4.9661e-06	3.3013e-06	380.22	191.11	3.7125e-06	3.0204e-06	191.14	85.01	85.58	45.798	5.694e-06	48.582	0.0006847	0.00081836	0.00023791	474.64	8.325e-06	9.0247e-06	416.32	210.16	8.1094e-06	9.0776e-06	210.73	93.753	94.708	51.147	8.9908e-06	53.718	264.761	95.577	94.364	9.454	179.213	152.220	7.912	14.961	208.225	152.800	11.655	16.202	19.587	23.237	184.860	18.565	-8191	255	
3744.111	1	1	0	0	0.15412	0.18286	0.19598	0.18656	0.18332	0.13071	0.15259	0.13987	0.14908	0.15221	0.2524	0.29025	0.12257	0.2862	0.13853	0.14886	-2.7375	-2.6604	-2.4562	-3.0958	-2.4521	-2.8229	-2.9562	-2.3458	-3.1854	-2.7708	-2.2917	-2.9917	-2.5354	-2.9833	-2.9854	-2.3333	20.432	166.445	138.161	168.740	77.666	159.365	31.529	12.968	144.015	121.386	97.680	259.747	285.597	329.934	68.928	29.277	0.00047506	0.00030598	0.00012455	430.82	3.7517e-06	4.0636e-06	379.27	189.68	5.1427e-06	3.6848e-06	190.28	84.054	84.995	45.677	3.4678e-06	47.907	0.00067903	0.00081117	0.00023233	473.43	8.0713e-06	9.2274e-06	414.19	209.12	8.0061e-06	9.1076e-06	208.57	92.517	94.094	50.955	8.7676e-06	53.09	263.135	73.225	86.926	9.484	178.638	143.502	7.907	14.907	186.161	135.724	11.520	16.177	19.433	23.294	172.097	18.789	-8191	255	
3744.232	1	1	0	0	0.083111	0.12971	0.045454	0.19025	0.31728	0.24535	0.10673	0.40471	0.099635	0.07823	0.33871	0.18317	0.026136	0.17223	0.24532	0.11164	-2.6833	-2.8229	-2.2354	-3.1333	-2.4062	-2.5875	-2.9813	-2.4354	-2.725	-2.8312	-2.2021	-3.0729	-2.6167	-2.6437	-3.1937	-2.4813	171.268	248.857	20.840	90.078	103.055	153.398	13.460	27.766	40.465	256.664	296.095	275.431	192.216	48.199	31.713	227.995	0.00045593	0.00038001	0.00016765	431.41	4.0284e-06	3.9978e-06	376.39	190.28	5.0834e-06	3.7569e-06	188.8	83.972	85.112	45.666	5.0253e-06	48.154	0.00068052	0.00082071	0.00023191	472.78	8.1277e-06	9.1836e-06	412.76	209.23	8.0389e-06	8.8971e-06	208.03	92.494	94.302	51.005	8.6913e-06	53.234	267.952	87.876	89.622	9.558	155.460	157.670	7.665	14.860	181.229	138.427	11.469	16.143	19.717	23.214	159.286	18.735	-8191	255	
3744.328	1	1	0	0	0.27091	0.18662	0.23743	0.051075	0.17077	0.16662	0.026574	0.1497	0.15773	0.12542	0.055765	0.26376	0.15104	0.13197	0.10989	0.15915	-2.4042	-2.8271	-2.2729	-3.3479	-2.5521	-2.4688	-3.3708	-2.5104	-2.9938	-2.9792	-2.4479	-3.2687	-2.7	-2.6542	-3.2479	-2.45	323.672	242.044	328.445	233.266	136.242	211.248	102.411	170.123	98.686	129.871	273.827	104.449	19.296	354.441	190.156	249.114	0.00043604	0.00021912	0.00010363	433.11	3.8469e-06	3.7746e-06	379.91	191.1	3.3334e-06	3.1794e-06	189.23	84.417	85.405	45.876	3.523e-06	48.396	0.00068179	0.00081867	0.00023329	474.53	8.0593e-06	9.2881e-06	414.72	210.03	8.2677e-06	9.0037e-06	208.91	92.992	94.471	51.147	8.7375e-06	53.539	267.432	82.608	85.027	9.366	158.880	136.020	8.034	14.829	190.338	165.690	11.924	16.152	19.537	23.185	171.768	18.914	-8191	255	
3744.424	1	1	0	0	0.1361	0.23649	0.096672	0.10371	0.12726	0.082173	0.2193	0.17532	0.048893	0.19583	0.049006	0.26489	0.10929	0.2634	0.035597	0.11052	-2.5979	-2.8771	-2.3042	-2.9458	-2.8979	-2.4854	-3.1083	-2.5208	-2.7458	-3.0125	-2.1375	-3.0875	-2.6375	-2.5979	-3.2604	-2.6	298.250	7.285	118.841	193.216	347.718	299.007	298.111	277.388	86.681	117.963	72.388	262.215	111.768	34.014	273.234	193.043	0.00049358	0.00033575	8.3038e-05	433.59	3.4472e-06	3.0784e-06	381.8	191.33	4.9613e-06	3.9517e-06	191.21	85.028	85.129	45.833	5.1488e-06	48.235	0.0007059	0.00079705	0.00023775	474.99	8.1792e-06	9.4908e-06	416.77	210.24	8.3841e-06	9.0058e-06	210.75	93.62	94.587	51.112	8.7387e-06	53.504	267.077	98.347	89.942	9.509	179.458	147.322	7.937	15.004	194.335	143.502	12.041	16.109	19.716	23.279	189.679	18.816	-8191	255	
3744.520	1	1	0	0	0.10601	0.34345	0.2182	0.11717	0.09462	0.20163	0.16923	0.19182	0.091481	0.11968	0.18051	0.1532	0.1014	0.15252	0.23452	0.1102	-2.4417	-3.0146	-2.2938	-3.1625	-2.8646	-2.5333	-3.2	-2.5521	-2.6583	-3.1667	-2.4979	-2.875	-2.8	-2.3125	-3.1646	-2.8625	46.587	5.555	257.581	187.529	119.297	229.728	261.359	220.055	136.838	202.878	281.588	274.382	147.601	223.952	35.313	6.259	0.00048566	0.00034119	9.9985e-05	430.82	3.2351e-06	3.6446e-06	378.95	189.26	4.1935e-06	3.7839e-06	188.58	83.189	84.306	45.264	2.8243e-06	47.65	0.00069261	0.00079711	0.00023648	473.3	8.0221e-06	9.4018e-06	413.33	208.63	8.1542e-06	8.9668e-06	207.33	91.793	93.667	50.59	8.6169e-06	52.652	266.300	106.699	74.237	9.665	165.366	146.569	8.046	14.980	216.027	142.370	11.631	16.630	19.619	23.327	166.968	18.911	-8191	255	
3744.639	1	1	0	0	0.24365	0.15719	0.17053	0.23178	0.2615	0.25094	0.09108	0.22946	0.078888	0.080523	0.20323	0.113	0.064846	0.06729	0.11112	0.077302	-2.2333	-3.1542	-2.3604	-3.1354	-2.95	-2.4375	-3.1375	-2.6437	-2.6271	-3.1604	-2.4833	-2.9	-3.2354	-2.4479	-3.15	-2.9708	246.784	280.902	270.159	242.205	5.159	338.387	153.860	320.319	71.550	13.903	191.589	32.569	229.501	242.570	269.933	190.310	0.00046875	0.00034969	0.00011039	431.09	3.2862e-06	3.1914e-06	378.4	189.07	3.8538e-06	3.0516e-06	187.2	82.875	84.305	45.246	5.0647e-06	47.51	0.00068016	0.00079128	0.0002284	471.92	8.0017e-06	9.0268e-06	411.28	208.15	8.3238e-06	8.9612e-06	206.25	91.48	93.411	50.521	8.885e-06	52.602	264.691	73.030	84.411	9.974	175.834	139.980	8.385	14.998	216.701	149.528	12.141	16.644	19.946	23.516	180.388	18.962	-8191	255	
3744.711	1	1	0	0	0.14651	0.37321	0.06265	0.12507	0.14541	0.2516	0.1112	0.15975	0.13663	0.17873	0.15663	0.10479	0.07574	0.045263	0.18761	0.21393	-2.025	-3.2313	-2.5062	-2.7812	-3.0021	-2.5917	-3.1792	-2.8229	-2.3812	-3.0625	-2.6167	-2.7854	-3.1271	-2.4333	-2.95	-2.8604	294.732	46.406	225.782	80.020	136.982	185.165	230.208	186.437	38.367	109.282	34.044	346.453	140.741	89.888	302.231	348.332	0.00046639	0.00031443	9.0557e-05	430.57	4.6128e-06	3.8413e-06	376.85	188.91	3.3052e-06	5.0592e-06	188.17	83.224	84.639	45.28	2.9483e-06	47.916	0.00069307	0.00081191	0.00022992	471.94	7.8847e-06	9.1186e-06	411.96	208.11	8.3865e-06	8.8859e-06	207.65	91.779	93.651	50.567	8.7638e-06	53.016	266.992	74.312	78.058	9.891	153.755	126.092	8.254	14.916	195.395	141.569	12.156	16.730	20.256	23.471	151.491	19.038	-8191	255	
3744.831	1	1	0	0	0.28254	0.24963	0.08896	0.33851	0.14124	0.095148	0.040468	0.36008	0.018013	0.076685	0.19698	0.22832	0.072715	0.24866	0.13651	0.069402	-1.9583	-3.0354	-2.4021	-2.7417	-3.1667	-2.3771	-2.9188	-2.9271	-2.2833	-3.0896	-2.6604	-2.6042	-3.1479	-2.5042	-3.0229	-3.025	236.811	79.654	247.078	273.668	100.772	98.068	335.588	80.035	52.128	78.976	274.867	220.242	286.983	280.168	59.493	215.985	0.0004648	0.0003682	0.00011551	430.34	5.6e-06	3.3752e-06	380.49	189.64	3.1156e-06	4.5709e-06	188.91	84.359	85.08	45.221	4.1143e-06	47.837	0.00069477	0.00079785	0.00023268	473.16	7.9759e-06	9.3305e-06	415.07	209.03	8.2085e-06	9.04e-06	208.62	92.642	93.93	50.579	8.9202e-06	52.991	266.973	87.905	81.719	10.191	177.859	129.628	8.465	15.268	184.202	151.194	12.031	16.560	20.040	23.545	170.786	19.017	-8191	255	
3744.928	1	1	0	0	0.12558	0.14583	0.06886	0.35473	0.15673	0.11693	0.059991	0.073704	0.073883	0.25082	0.11916	0.083904	0.09149	0.078181	0.033294	0.068346	-2.0146	-3.1833	-2.7313	-2.8	-3.2292	-2.4667	-2.9146	-3.1729	-2.3063	-3.1104	-2.75	-2.5229	-3.1375	-2.6833	-3.0146	-3.1958	236.005	134.490	143.473	53.778	343.805	148.370	121.411	353.747	242.067	226.855	334.029	290.126	315.706	118.762	81.554	3.870	0.00044803	0.00043293	0.00011328	430.31	4.2972e-06	3.6104e-06	375.06	187.87	3.9106e-06	4.8695e-06	188.09	82.46	83.413	44.914	4.4215e-06	47.423	0.00069721	0.00079804	0.00022689	471.16	7.8763e-06	9.1963e-06	410.58	207.33	8.4606e-06	8.849e-06	206.18	91.33	93.018	50.244	8.8798e-06	52.459	266.908	84.808	79.144	10.249	161.088	135.403	8.545	15.515	207.289	150.535	11.920	16.766	20.146	23.742	166.267	19.330	-8191	255	
3745.024	1	1	0	0	0.31937	0.12555	0.095984	0.19773	0.1782	0.18063	0.235	0.22006	0.13563	0.1479	0.18688	0.23255	0.14341	0.26121	0.027313	0.30074	-2.0479	-3.1146	-2.7896	-2.4229	-3.1708	-2.45	-2.6833	-3.1917	-2.3708	-3.0042	-2.8875	-2.5563	-3.1188	-2.5938	-2.7958	-3.2979	207.184	146.514	0.417	226.727	176.447	180.035	28.502	285.757	191.452	121.944	223.216	290.656	31.710	307.616	129.603	278.791	0.00046778	0.0002001	0.00010873	428.65	4.3193e-06	3.9977e-06	374.37	187.19	3.2376e-06	3.2301e-06	186.78	82.546	83.963	44.942	4.4613e-06	47.272	0.00068541	0.00079153	0.00022446	470.32	7.8331e-06	9.0501e-06	410.24	206.93	8.405e-06	8.8825e-06	206.22	91.324	93.194	50.297	8.9401e-06	52.527	264.403	99.382	82.891	10.268	169.647	135.606	8.639	15.438	186.288	144.847	12.095	16.898	20.240	23.959	179.647	19.485	-8191	255	
#DATA ENDS
