BOXY.EXE: ISS Imagent and Oximeter Data Acquisition Program Version 0.80
Ascii Record File

#ACQ INFORMATION
2  Detector Channels 
16  External MUX Channels 
1  Auxiliary Channels 
5000  Waveform (CCF) Frequency (Hz)
1  Waveforms Skipped 
30  Waveforms Averaged 
1  Cycles Averaged 
16  Acquisitions per Waveform 
10.0806  Updata Rate (Hz) 

#FILE INFORMATION
TRUE -- External MUX Channel results are PARSED.
FALSE -- AC DC and Phase are NOT grouped.
TRUE -- Companion Program Settings File CREATED.
FALSE -- AC data not excluded
FALSE -- DC data not excluded
FALSE -- Phase data not excluded
FALSE -- Auxillary Chn. data not excluded
Tab delimiters

#CALIBRATION STATE
TRUE -- Waveform Calibration Values APPLIED.


#AUX CALIBRATION VALUES
Val Type	aux-1	

Term	1.0000e+00	
Factor	0.0000e+00	


#WF CALIBRATION VALUES
A = Detector Channel
Val Type	A-AC1	A-AC2	A-AC3	A-AC4	A-AC5	A-AC6	A-AC7	A-AC8	A-AC9	A-AC10	A-AC11	A-AC12	A-AC13	A-AC14	A-AC15	A-AC16	A-DC1	A-DC2	A-DC3	A-DC4	A-DC5	A-DC6	A-DC7	A-DC8	A-DC9	A-DC10	A-DC11	A-DC12	A-DC13	A-DC14	A-DC15	A-DC16	A-Ph1	A-Ph2	A-Ph3	A-Ph4	A-Ph5	A-Ph6	A-Ph7	A-Ph8	A-Ph9	A-Ph10	A-Ph11	A-Ph12	A-Ph13	A-Ph14	A-Ph15	A-Ph16	

Term	0.00000e+00	0.00000e+00	0.00000e+00	0.00000e+00	0.00000e+00	0.00000e+00	0.00000e+00	0.00000e+00	0.00000e+00	0.00000e+00	0.00000e+00	0.00000e+00	0.00000e+00	0.00000e+00	0.00000e+00	0.00000e+00	0.00000e+00	0.00000e+00	0.00000e+00	0.00000e+00	0.00000e+00	0.00000e+00	0.00000e+00	0.00000e+00	0.00000e+00	0.00000e+00	0.00000e+00	0.00000e+00	0.00000e+00	0.00000e+00	0.00000e+00	0.00000e+00	0.00000e+00	0.00000e+00	0.00000e+00	0.00000e+00	0.00000e+00	0.00000e+00	0.00000e+00	0.00000e+00	0.00000e+00	0.00000e+00	0.00000e+00	0.00000e+00	0.00000e+00	0.00000e+00	0.00000e+00	0.00000e+00	
Factor	1.00000e+00	1.00000e+00	1.00000e+00	1.00000e+00	1.00000e+00	1.00000e+00	1.00000e+00	1.00000e+00	1.00000e+00	1.00000e+00	1.00000e+00	1.00000e+00	1.00000e+00	1.00000e+00	1.00000e+00	1.00000e+00	1.00000e+00	1.00000e+00	1.00000e+00	1.00000e+00	1.00000e+00	1.00000e+00	1.00000e+00	1.00000e+00	1.00000e+00	1.00000e+00	1.00000e+00	1.00000e+00	1.00000e+00	1.00000e+00	1.00000e+00	1.00000e+00	X	X	X	X	X	X	X	X	X	X	X	X	X	X	X	X	

B = Detector Channel
Val Type	B-AC1	B-AC2	B-AC3	B-AC4	B-AC5	B-AC6	B-AC7	B-AC8	B-AC9	B-AC10	B-AC11	B-AC12	B-AC13	B-AC14	B-AC15	B-AC16	B-DC1	B-DC2	B-DC3	B-DC4	B-DC5	B-DC6	B-DC7	B-DC8	B-DC9	B-DC10	B-DC11	B-DC12	B-DC13	B-DC14	B-DC15	B-DC16	B-Ph1	B-Ph2	B-Ph3	B-Ph4	B-Ph5	B-Ph6	B-Ph7	B-Ph8	B-Ph9	B-Ph10	B-Ph11	B-Ph12	B-Ph13	B-Ph14	B-Ph15	B-Ph16	

Term	0.00000e+00	0.00000e+00	0.00000e+00	0.00000e+00	0.00000e+00	0.00000e+00	0.00000e+00	0.00000e+00	0.00000e+00	0.00000e+00	0.00000e+00	0.00000e+00	0.00000e+00	0.00000e+00	0.00000e+00	0.00000e+00	0.00000e+00	0.00000e+00	0.00000e+00	0.00000e+00	0.00000e+00	0.00000e+00	0.00000e+00	0.00000e+00	0.00000e+00	0.00000e+00	0.00000e+00	0.00000e+00	0.00000e+00	0.00000e+00	0.00000e+00	0.00000e+00	-8.69914e+00	-1.27636e+02	-1.26579e+02	-1.81887e+02	-5.43741e+01	-6.80890e+01	-1.57669e+02	-1.62015e+02	-3.26815e+01	-6.62177e+01	-1.72231e+02	-1.69913e+02	-1.80444e+02	-1.76573e+02	-5.52496e+01	-1.49179e+02	
Factor	3.53343e-05	1.72379e-04	5.09740e-05	1.64140e-01	2.14399e-06	1.74113e-06	1.89180e-01	5.70625e-02	2.23709e-06	1.85859e-06	9.95569e-02	3.28311e-02	4.44292e-02	9.93343e-03	2.12406e-06	1.45167e-02	1.70138e-05	2.97382e-05	8.36903e-06	8.38226e-02	2.87917e-07	3.39007e-07	9.04686e-02	2.91930e-02	2.86657e-07	3.34529e-07	4.92895e-02	1.63091e-02	2.28853e-02	5.14651e-03	3.07838e-07	7.27220e-03	X	X	X	X	X	X	X	X	X	X	X	X	X	X	X	X	



#DISTANCE SETTINGS
A = Detector Channel
A-1	A-2	A-3	A-4	A-5	A-6	A-7	A-8	A-9	A-10	A-11	A-12	A-13	A-14	A-15	A-16	

2.5000e+00	3.0000e+00	2.5000e+00	3.0000e+00	2.0000e+00	3.0000e+00	1.5000e+00	3.0000e+00	3.0000e+00	3.0000e+00	3.0000e+00	3.0000e+00	3.0000e+00	3.0000e+00	1.5000e+00	3.0000e+00	

B = Detector Channel
B-1	B-2	B-3	B-4	B-5	B-6	B-7	B-8	B-9	B-10	B-11	B-12	B-13	B-14	B-15	B-16	

1.0000e+01	1.0000e+01	1.0000e+01	1.4400e+00	1.0000e+01	1.0000e+01	1.5100e+00	1.9400e+00	1.0000e+01	1.0000e+01	1.9900e+00	2.4900e+00	2.4100e+00	2.9000e+00	1.0000e+01	2.9800e+00	




#DATA BEGINS
time	group	step	mark	flag	A-AC1	A-AC2	A-AC3	A-AC4	A-AC5	A-AC6	A-AC7	A-AC8	A-AC9	A-AC10	A-AC11	A-AC12	A-AC13	A-AC14	A-AC15	A-AC16	A-DC1	A-DC2	A-DC3	A-DC4	A-DC5	A-DC6	A-DC7	A-DC8	A-DC9	A-DC10	A-DC11	A-DC12	A-DC13	A-DC14	A-DC15	A-DC16	A-Ph1	A-Ph2	A-Ph3	A-Ph4	A-Ph5	A-Ph6	A-Ph7	A-Ph8	A-Ph9	A-Ph10	A-Ph11	A-Ph12	A-Ph13	A-Ph14	A-Ph15	A-Ph16	B-AC1	B-AC2	B-AC3	B-AC4	B-AC5	B-AC6	B-AC7	B-AC8	B-AC9	B-AC10	B-AC11	B-AC12	B-AC13	B-AC14	B-AC15	B-AC16	B-DC1	B-DC2	B-DC3	B-DC4	B-DC5	B-DC6	B-DC7	B-DC8	B-DC9	B-DC10	B-DC11	B-DC12	B-DC13	B-DC14	B-DC15	B-DC16	B-Ph1	B-Ph2	B-Ph3	B-Ph4	B-Ph5	B-Ph6	B-Ph7	B-Ph8	B-Ph9	B-Ph10	B-Ph11	B-Ph12	B-Ph13	B-Ph14	B-Ph15	B-Ph16	aux-1	digaux	

4624.933	1	1	0	512	0.27779	0.15718	0.25513	0.14587	0.065275	0.083791	0.13253	0.20273	0.16212	0.33835	0.18288	0.086407	0.10041	0.060628	0.18197	0.093122	-2.0729	-3.1729	-2.9854	-2.7	-3.3146	-2.7292	-3	-3.2292	-2.5375	-3.35	-3.1312	-2.675	-3.3604	-2.7083	-2.7562	-3.3063	105.943	108.886	0.438	-104.464	-83.439	55.223	13.968	67.236	38.889	-139.832	134.701	62.362	-131.296	-176.321	-154.955	94.951	0.0004796	0.00050798	0.00019963	433.41	8.5197e-06	5.1209e-06	501.21	131.87	6.3532e-06	1.0295e-05	229.74	76.186	46.108	24.827	7.8958e-06	34.633	0.0048031	0.0079348	0.0021952	428.64	7.6184e-05	9.023e-05	492.36	131.75	7.541e-05	8.7044e-05	228.34	75.978	48.991	25.082	7.8501e-05	34.798	-58.741	-147.629	-33.399	-165.065	-47.058	9.225	-167.507	-159.285	-48.043	-83.275	-163.051	-158.764	-155.033	-150.011	-27.729	-154.810	-8191	255	
4625.029	1	1	0	0	0.06835	0.1266	0.11432	0.073773	0.1284	0.3826	0.10974	0.15134	0.13186	0.076672	0.05043	0.093096	0.094155	0.093268	0.076962	0.11901	-2.1208	-3.2062	-2.85	-2.4896	-3.4146	-2.8333	-2.9896	-3.3229	-2.525	-3.1021	-3.1667	-2.7042	-3.2667	-2.9375	-2.6208	-3.3375	-26.748	-27.072	153.718	78.754	-47.404	74.745	-144.414	99.419	16.960	-81.634	20.406	85.912	-105.363	127.952	-122.875	77.379	0.00057335	0.00055647	0.00020182	438.61	1.4198e-05	6.2747e-06	508.22	132.6	5.2412e-06	1.3419e-05	228.81	76.485	45.87	24.794	1.0976e-06	34.344	0.0046126	0.0076703	0.0021297	431.31	7.4009e-05	8.7369e-05	496.14	131.83	7.5848e-05	8.5148e-05	227.84	76.177	49.135	25.105	7.8763e-05	34.59	-30.191	-20.118	-89.487	-165.183	5.362	-175.927	-167.054	-159.655	37.755	-36.374	-163.405	-159.427	-154.397	-149.751	-53.711	-154.391	-8191	255	
4625.125	1	1	0	0	0.17064	0.028936	0.17038	0.1416	0.085913	0.13979	0.21304	0.14341	0.18045	0.26482	0.14107	0.1194	0.027011	0.20992	0.087802	0.16659	-2.0625	-2.9854	-3.1792	-2.5333	-3.4167	-2.8104	-2.6979	-3.4354	-2.6417	-3.0208	-3.1833	-2.4646	-3.3979	-2.7896	-2.6396	-3.3	112.447	-111.739	63.838	170.088	-137.746	31.467	-111.293	-122.876	-50.640	-62.665	51.862	52.102	157.090	153.596	96.032	-167.823	0.00053606	0.00077988	0.00011411	437.73	8.9024e-06	3.3573e-06	498.36	132.04	7.1925e-06	2.3732e-06	228.28	76.493	46.107	24.562	1.3244e-05	34.1	0.0046122	0.0075545	0.0021117	430.21	7.4006e-05	8.6411e-05	491.53	131.65	7.4066e-05	8.45e-05	226.61	75.801	49.07	24.945	7.9674e-05	34.446	-48.437	-55.440	48.903	-165.100	-130.539	53.829	-167.466	-159.385	34.728	15.064	-163.384	-159.193	-154.120	-150.107	17.026	-154.663	-8191	255	
4625.221	1	1	0	0	0.14924	0.15763	0.040722	0.17108	0.16635	0.034009	0.1038	0.21569	0.17947	0.24937	0.09983	0.14881	0.042068	0.16951	0.20128	0.12297	-2.4271	-2.9125	-3.2146	-2.55	-3.3542	-3.1188	-2.5646	-3.2354	-2.7542	-2.7479	-3.4479	-2.5521	-3.2771	-2.9479	-2.5042	-3.1917	138.998	-82.608	116.365	119.709	-35.315	-153.310	162.411	118.535	-9.267	96.379	166.468	139.189	124.056	177.423	-37.401	134.849	0.00055674	0.00027594	0.00040729	437.96	6.9481e-06	1.0926e-05	505.05	132.14	8.8116e-06	5.9505e-06	229.01	77.032	46.129	24.818	2.2614e-06	34.876	0.0045579	0.0075996	0.0021454	431.4	7.3969e-05	8.5421e-05	493.51	131.89	7.4488e-05	8.4346e-05	228.11	76.52	49.503	25.241	7.9788e-05	34.838	-34.642	-62.210	-36.724	-165.259	-31.559	-9.546	-167.427	-159.629	40.238	104.879	-162.986	-159.431	-154.454	-150.413	56.537	-154.258	-8191	255	
4625.318	1	1	0	0	0.10448	0.20053	0.025172	0.065349	0.211	0.20637	0.22089	0.167	0.11654	0.084685	0.11846	0.24054	0.33984	0.11643	0.24532	0.35212	-2.2917	-2.7896	-3.1125	-2.6458	-3.0312	-3.0104	-2.6708	-3.2854	-2.725	-2.7604	-3.4437	-2.5625	-3.0833	-3.0375	-2.4562	-3.2938	-165.884	-31.133	-170.436	-163.553	-153.090	-132.494	-173.819	118.209	-60.793	-61.923	12.562	81.051	-93.946	162.231	173.761	124.386	0.00057542	0.00070921	0.00011373	438.23	5.9024e-06	9.5518e-06	503.83	133.22	1.155e-05	3.0982e-06	234.04	77.854	46.975	25.314	8.2258e-06	35.182	0.0046149	0.0077683	0.0021806	435	7.4415e-05	8.7385e-05	497.48	133.08	7.3975e-05	8.5368e-05	231.32	77.288	49.863	25.512	8.0413e-05	35.26	-40.262	-83.107	-106.112	-165.729	-40.728	-5.664	-167.354	-159.764	-17.145	-155.594	-163.038	-159.177	-154.999	-149.770	-39.449	-154.228	-8191	255	
4625.436	1	1	0	0	0.11763	0.10532	0.15208	0.30092	0.19579	0.13749	0.22123	0.21973	0.052061	0.13493	0.19763	0.096339	0.22646	0.098609	0.1603	0.14679	-2.3146	-2.7271	-3.3354	-2.4229	-3.0896	-3.1625	-2.5375	-3.3583	-2.8917	-2.6583	-3.2938	-2.5646	-3.0104	-3.2625	-2.55	-3.2104	45.606	-45.800	31.827	-126.347	-49.169	173.692	-75.947	165.781	51.397	-53.913	-176.871	-122.219	-156.789	-106.808	-72.520	-90.717	0.00059107	0.00042043	0.00048587	442.1	6.6554e-06	9.6392e-06	509.97	133.11	8.0156e-06	6.6822e-06	233.21	77.281	46.765	25.548	8.8912e-06	34.682	0.0046016	0.0075962	0.0021496	436.6	7.49e-05	8.7897e-05	501.47	133.33	7.5926e-05	8.7113e-05	231.61	77.225	49.91	25.688	8.2146e-05	34.961	-29.421	-112.164	-44.238	-164.969	-91.550	-19.812	-167.616	-159.408	177.120	-41.812	-163.269	-158.948	-155.076	-150.312	-5.377	-154.619	-8191	255	
4625.508	1	1	0	0	0.15656	0.050575	0.064112	0.083248	0.052715	0.18239	0.068138	0.054505	0.080515	0.33258	0.13175	0.066181	0.25221	0.072456	0.10995	0.14029	-2.6208	-2.6104	-3.1896	-2.6312	-2.7	-3.2167	-2.5229	-3.1292	-3.1521	-2.6125	-3.2708	-2.5708	-2.925	-3.3375	-2.6896	-3.1583	129.418	63.745	64.146	21.974	59.113	128.262	7.718	-129.545	-19.373	31.208	180.652	-108.123	-118.057	140.342	-158.082	-152.762	0.00050841	0.00014295	0.00019306	440.82	3.645e-06	6.5335e-06	504.93	133.36	1.5955e-05	6.7432e-06	227.68	76.491	46.268	25.034	9.9808e-06	34.773	0.004677	0.0078592	0.0022125	436.3	7.4905e-05	8.7791e-05	497.2	133.04	7.4619e-05	8.786e-05	229.4	76.452	49.737	25.509	8.1499e-05	34.861	-50.214	-24.491	-126.458	-165.436	-78.927	-26.753	-167.734	-159.919	-100.405	-29.732	-163.111	-159.116	-155.303	-150.089	10.386	-155.135	-8191	255	
4625.604	1	1	0	0	0.22627	0.13156	0.10422	0.04899	0.093698	0.088615	0.35297	0.27444	0.19433	0.38262	0.10003	0.023467	0.33932	0.3002	0.20722	0.11375	-2.6937	-2.4708	-3.3854	-2.7313	-2.7354	-3.3333	-2.6208	-3.1833	-3.1083	-2.5646	-3.2958	-2.9458	-2.75	-3.3875	-2.6063	-3.0646	-55.713	-144.589	9.283	-156.908	-129.185	6.772	99.214	163.400	114.610	-130.232	-59.421	-9.395	-166.662	169.029	20.011	38.784	0.00044802	0.00020993	0.00020774	440.63	1.0209e-05	5.0073e-06	510.33	133.69	1.2657e-05	1.6735e-06	231.36	76.728	46.72	25.104	2.4956e-06	34.767	0.004608	0.0079548	0.0022236	434.91	7.5557e-05	8.8965e-05	499.24	133.28	7.3849e-05	8.6796e-05	230.86	76.715	49.879	25.521	8.0084e-05	35.008	-36.512	-3.648	-3.629	-165.298	-22.366	-27.815	-167.689	-159.553	-24.373	-159.981	-163.516	-159.232	-154.843	-149.770	-34.653	-154.369	-8191	255	
4625.702	1	1	0	0	0.19325	0.31361	0.11957	0.05572	0.19156	0.071748	0.21632	0.28217	0.24167	0.20407	0.19846	0.14163	0.21716	0.18343	0.057641	0.11134	-2.9146	-2.5708	-3.2458	-2.8583	-2.8542	-3.2354	-2.5125	-2.9813	-3.3	-2.6104	-3.3	-3.0687	-2.4625	-3.1792	-2.7188	-2.9083	0.649	5.246	-164.340	39.203	-49.975	14.592	-155.094	181.834	-36.201	114.028	-63.091	-69.007	-157.562	28.087	-149.436	3.090	0.00059219	0.00074825	0.00013556	440.19	1.0918e-05	8.1739e-06	508.05	132.22	4.4629e-06	2.6377e-06	230.62	76.991	45.79	25.043	1.0778e-05	34.864	0.0045609	0.0076529	0.0021626	434.08	7.3395e-05	8.7279e-05	500.22	131.99	7.249e-05	8.5295e-05	230.31	76.749	49.262	25.384	7.7297e-05	35.04	-39.772	-16.913	117.208	-165.372	-71.238	-22.497	-167.667	-159.536	-50.151	25.457	-162.938	-159.461	-154.851	-149.977	-15.141	-154.244	-8191	255	
4625.821	1	1	0	0	0.099419	0.083836	0.10403	0.15592	0.21789	0.21555	0.097703	0.14414	0.17594	0.13558	0.15834	0.074189	0.31832	0.096991	0.070938	0.093741	-2.9833	-2.6063	-3.1729	-2.9417	-2.5271	-3.2167	-2.7708	-2.9437	-3.2	-2.4958	-3.1542	-3.1458	-2.575	-3.4688	-2.8812	-2.7812	-143.712	74.498	150.752	133.749	-113.087	167.177	64.458	105.304	153.064	42.170	76.842	-141.032	78.988	143.952	-17.349	156.614	0.00054227	0.00056845	0.00015531	440.09	2.2986e-06	3.0872e-06	512.61	132.53	5.2748e-06	1.1172e-05	231.43	76.709	46.635	24.925	6.462e-06	34.88	0.0044587	0.0074843	0.0020785	432.91	7.3056e-05	8.5443e-05	500.5	132.16	7.3545e-05	8.4012e-05	230.05	76.447	49.483	25.279	7.6827e-05	34.864	-38.143	-171.183	-130.751	-165.396	137.058	-60.683	-167.447	-159.362	-52.548	-114.501	-163.554	-159.267	-154.691	-150.368	35.414	-154.868	-8191	255	
4625.917	1	1	0	0	0.17413	0.20621	0.30608	0.15104	0.2092	0.20169	0.15841	0.095181	0.11512	0.12703	0.3296	0.16733	0.23381	0.14955	0.038338	0.097512	-2.9604	-2.5438	-3.1146	-3.1729	-2.6417	-3.3	-2.925	-2.7833	-3.2625	-2.4896	-3.1	-3.1	-2.4292	-3.1937	-2.8375	-2.6521	-161.152	-7.274	-44.453	-148.379	-11.028	-149.152	43.926	-153.956	158.999	34.212	84.090	-173.049	-162.989	-130.571	39.362	106.241	0.00067903	0.0010018	0.00025787	439.41	1.257e-06	6.1846e-06	507.27	132.19	6.5893e-06	7.9428e-06	229.43	76.578	46.308	25.233	4.9329e-06	34.746	0.0045536	0.0075388	0.0021062	433.86	7.4373e-05	8.6333e-05	496.44	132.29	7.3287e-05	8.609e-05	228.79	76.411	49.716	25.522	7.781e-05	34.801	-30.381	-56.530	-80.350	-165.218	159.273	-17.451	-167.567	-159.637	9.816	-6.514	-162.992	-159.582	-154.735	-149.945	68.790	-154.127	-8191	255	
4626.013	1	1	0	0	0.24604	0.15343	0.16507	0.27895	0.10445	0.099597	0.10295	0.22266	0.14369	0.15262	0.18674	0.15217	0.2484	0.046765	0.22134	0.099462	-2.7729	-2.5396	-2.8354	-3.2771	-2.4792	-3.0438	-3.0542	-2.6354	-3.3563	-2.4604	-2.8187	-3.1917	-2.4396	-3.25	-2.9479	-2.575	-156.676	-60.664	-157.519	-158.025	-48.822	-37.858	158.287	114.317	157.973	-102.371	134.890	-161.103	-59.810	64.099	-76.586	160.574	0.00053487	0.0008501	0.00023545	443.33	9.2542e-06	5.9872e-06	507.28	134.71	8.9851e-06	1.2256e-06	232.52	77.152	46.866	25.688	1.2317e-05	34.797	0.0045512	0.0076682	0.0020938	436.73	7.5014e-05	8.6413e-05	499	134.07	7.2576e-05	8.5762e-05	231.11	77.009	49.893	25.771	7.7447e-05	35.088	-41.889	-115.268	-12.018	-165.529	-51.317	10.421	-167.775	-159.261	-46.075	-149.419	-163.227	-159.225	-154.917	-150.258	-66.177	-154.412	-8191	255	
4626.109	1	1	0	0	0.092148	0.11604	0.19027	0.12265	0.21323	0.11373	0.29501	0.14178	0.070497	0.081282	0.13815	0.16782	0.19991	0.14839	0.17187	0.1141	-2.9667	-2.5687	-2.8292	-3.3896	-2.5833	-3.3229	-3.225	-2.6667	-3.1292	-2.8146	-2.725	-3.35	-2.4521	-3.1125	-3.1562	-2.5479	-65.636	-154.748	-85.171	130.967	-82.928	-10.261	-133.010	134.465	-4.336	19.503	169.097	148.675	-150.944	102.164	125.139	-171.368	0.00049033	0.00030183	0.00018728	444.86	5.4137e-06	1.0861e-06	513.42	134.43	4.267e-06	2.9977e-06	232.3	77.657	46.681	25.385	5.6515e-06	35.084	0.0045406	0.0075629	0.002093	438.53	7.2328e-05	8.605e-05	500.88	133.43	7.2992e-05	8.4188e-05	231.4	77.323	50.004	25.626	7.6716e-05	35.264	-54.089	-126.837	-31.544	-165.720	89.749	129.063	-167.495	-159.660	-8.020	98.885	-163.397	-159.010	-155.344	-150.265	27.338	-154.389	-8191	255	
4626.206	1	1	0	0	0.13058	0.19596	0.08722	0.11912	0.23848	0.084606	0.27114	0.26021	0.13793	0.12869	0.35861	0.12121	0.10785	0.15842	0.20787	0.19368	-2.9333	-2.6	-2.4854	-3.3958	-2.6354	-3.0354	-3.1146	-2.5604	-3.2479	-2.9917	-2.6167	-3.4188	-2.6854	-2.9542	-3.2896	-2.5042	-82.015	-132.757	-167.885	170.783	31.794	5.866	71.702	59.623	29.461	-127.139	141.481	82.176	-173.303	50.806	-58.453	-139.064	0.00054327	0.00039681	0.00013904	445.14	1.0454e-05	7.9267e-06	514.51	134.18	4.8435e-06	2.9102e-06	232.39	77.395	46.306	25.199	6.3727e-06	34.884	0.0045171	0.0074621	0.0020806	438.39	7.4484e-05	8.6683e-05	504.72	133.91	7.3824e-05	8.4658e-05	231.06	76.922	49.952	25.54	7.9336e-05	34.932	-31.987	23.635	53.888	-165.348	2.982	-10.997	-167.786	-159.709	-152.016	72.277	-163.299	-159.334	-155.131	-150.127	-30.446	-154.839	-8191	255	
4626.302	1	1	0	0	0.054776	0.45674	0.056089	0.11108	0.16235	0.14572	0.10032	0.0962	0.1666	0.055073	0.1327	0.12669	0.09183	0.11756	0.17215	0.22103	-2.8833	-2.925	-2.6271	-3.3063	-2.6896	-2.7438	-3.2875	-2.4875	-3.2125	-2.9875	-2.5458	-3.3208	-2.7625	-2.6813	-3.2896	-2.5479	-100.588	114.513	-141.143	122.383	22.636	-98.767	65.830	-117.780	9.256	135.306	143.371	-142.506	-33.240	164.308	1.914	17.125	0.00048001	0.00065821	8.8094e-05	443.79	3.4487e-06	8.4929e-06	507.28	133.18	5.7631e-06	3.8748e-06	230.75	76.76	46.874	25.133	1.0079e-05	34.558	0.0046312	0.0076122	0.0021816	437.57	7.5352e-05	8.671e-05	499.95	133.65	7.5286e-05	8.7895e-05	229.55	76.559	50.097	25.536	8.1763e-05	34.869	-37.377	-87.971	176.483	-164.993	-154.421	-6.560	-167.782	-159.835	-13.895	5.144	-163.032	-159.140	-154.440	-150.323	-48.657	-154.308	-8191	255	
4626.422	1	1	0	0	0.25884	0.033784	0.10479	0.24437	0.27165	0.062645	0.22399	0.048165	0.27435	0.094866	0.16597	0.17872	0.35865	0.33402	0.24236	0.26456	-2.7833	-2.8146	-2.5292	-3.2146	-2.8187	-2.8042	-3.4146	-2.6	-3.0854	-3.15	-2.4	-3.2896	-2.7354	-2.7604	-3.2125	-2.4396	43.880	-163.622	64.686	112.311	9.961	147.448	-88.271	-21.591	-40.146	-88.110	88.760	39.737	-56.166	97.349	-107.930	149.045	0.00055809	0.00096096	0.00015912	439.62	9.3896e-07	3.7025e-06	509.72	134.67	9.0779e-06	4.5248e-06	229.16	76.444	45.794	25.181	8.9771e-06	34.49	0.0046647	0.0078921	0.0022051	436.51	7.6235e-05	9.034e-05	500.23	133.87	7.6124e-05	8.8613e-05	228.82	76.369	49.769	25.557	8.2442e-05	35.018	-31.171	4.422	-127.531	-164.963	12.507	-24.039	-167.435	-159.684	-12.420	51.318	-163.415	-159.802	-154.777	-150.264	29.827	-154.372	-8191	255	
4626.517	1	1	0	0	0.083652	0.04563	0.24423	0.16915	0.11896	0.14428	0.15137	0.12829	0.15091	0.10602	0.2738	0.19409	0.054184	0.15437	0.17873	0.071588	-2.6646	-2.9708	-2.3979	-3.3208	-2.825	-2.5833	-3.1188	-2.4813	-2.7417	-3.2542	-2.5354	-3.1771	-2.7875	-2.6667	-3.1521	-2.4708	-152.602	-0.692	42.881	180.629	-77.007	-29.611	0.593	57.114	-112.542	119.480	91.480	-176.863	-25.748	-85.204	68.838	-93.158	0.00048751	0.00049245	1.8086e-05	442.05	6.336e-06	8.7464e-06	513.08	133.98	1.4854e-05	8.2259e-06	232.11	77.097	46.92	25.667	1.4634e-05	35.199	0.0047193	0.0078904	0.0022802	437.28	7.6233e-05	9.0839e-05	503.12	134.23	7.6874e-05	9.04e-05	230.97	77.131	50.495	25.907	8.3666e-05	35.45	-46.451	-102.860	-51.683	-165.313	-78.208	-87.142	-167.723	-159.808	28.631	-22.415	-163.172	-158.942	-154.053	-149.821	-87.299	-154.834	-8191	255	
4626.613	1	1	0	0	0.064317	0.16474	0.33361	0.23021	0.10423	0.090927	0.041784	0.23012	0.16225	0.15941	0.044767	0.121	0.10703	0.013934	0.12942	0.13561	-2.7687	-3.2271	-2.4833	-3.3	-3.0146	-2.6583	-3.3187	-2.5979	-2.7313	-3.2938	-2.6104	-3.075	-3.0312	-2.6479	-3.3771	-2.7313	46.952	3.340	144.674	-127.092	12.810	-128.371	60.765	-32.946	64.284	-8.741	38.074	102.022	151.423	163.184	12.355	118.820	0.00054626	0.0007514	0.00029006	445.65	7.7087e-06	1.5783e-06	512.54	135.85	3.8765e-06	9.5715e-06	231.57	76.476	46.667	25.328	4.3239e-06	34.644	0.0047205	0.0080272	0.0023191	440	7.7775e-05	9.1983e-05	505.02	135.88	7.8441e-05	9.1169e-05	230.38	76.61	50.251	25.928	8.4991e-05	34.944	-48.247	-162.783	-80.805	-165.137	-27.480	-42.676	-167.695	-159.829	-144.705	125.307	-163.045	-158.896	-154.298	-150.120	-22.994	-154.830	-8191	255	
4626.709	1	1	0	0	0.33403	0.050709	0.17936	0.3204	0.16422	0.26537	0.075462	0.11593	0.29165	0.14187	0.10344	0.25955	0.088265	0.090257	0.34739	0.20621	-2.4771	-3.0854	-2.5771	-3.0396	-3.0833	-2.5771	-3.3042	-2.8917	-2.8333	-3.3583	-2.4833	-3.0646	-3.1792	-2.5167	-3.2625	-2.925	-151.384	180.319	-103.220	-138.320	-94.393	154.077	38.987	-131.000	-91.215	-81.274	124.232	113.522	-120.236	75.713	30.940	129.221	0.00038971	4.3003e-05	0.00026289	444.34	1.4891e-05	8.3539e-06	505.2	134.13	5.6166e-06	7.0984e-06	229.21	76.442	46.542	25.334	6.062e-06	34.482	0.0048053	0.0081592	0.0022948	439.55	7.7709e-05	9.2608e-05	500.44	135.18	7.7407e-05	9.2784e-05	228.04	76.131	50.07	25.841	8.4567e-05	34.818	-40.364	20.244	-107.676	-165.168	-98.775	-55.632	-167.385	-159.340	109.203	-141.735	-163.470	-159.258	-155.377	-150.147	-147.766	-154.855	-8191	255	
4626.805	1	1	0	0	0.10981	0.043945	0.16588	0.097774	0.18519	0.13911	0.079676	0.16622	0.11876	0.12859	0.18216	0.13266	0.13634	0.24682	0.20555	0.088792	-2.2792	-3.2062	-2.5917	-2.9396	-3.2625	-2.5312	-3.2583	-2.9417	-2.5229	-3.4583	-2.6188	-2.8667	-3.2354	-2.5375	-3.1333	-2.8375	-61.723	-25.391	-171.775	175.086	172.740	-8.544	-125.702	47.186	-85.224	-140.272	80.047	-7.761	83.774	-145.029	-58.671	-112.757	0.00064074	0.00044278	0.00046532	442.66	8.0683e-06	9.6361e-06	506.58	134.26	8.3836e-06	1.2379e-05	227.73	76.844	47.071	25.703	2.9582e-06	34.526	0.0048124	0.0080841	0.0022884	438.5	7.7745e-05	9.3447e-05	501.11	135.2	7.728e-05	8.916e-05	227.95	76.418	50.481	25.923	8.3518e-05	34.986	-35.227	-142.235	-62.044	-164.747	-76.125	-136.307	-167.541	-159.486	-97.939	-58.925	-163.412	-159.466	-154.684	-150.462	170.107	-154.562	-8191	255	
4626.901	1	1	0	0	0.10836	0.026795	0.10294	0.089523	0.16538	0.066855	0.17767	0.24464	0.1842	0.24931	0.1854	0.13685	0.28743	0.11415	0.2293	0.13566	-2.1875	-3.1729	-2.5375	-3.0167	-3.3292	-2.5854	-3.2542	-3.075	-2.5958	-3.5	-2.5646	-2.8958	-3.3812	-2.4417	-3.1542	-3.0896	92.531	160.409	-25.271	132.590	-173.310	-130.190	45.713	110.596	170.639	114.442	-121.795	168.942	51.716	-42.095	-12.116	43.198	0.00074164	0.00061911	0.00031513	446.06	7.164e-06	2.6982e-06	508.9	135.49	7.7576e-06	3.1622e-06	232.73	76.782	46.621	25.777	4.9085e-06	35.051	0.004821	0.0081034	0.0022187	440.08	7.7791e-05	9.0933e-05	502.72	135.58	7.6987e-05	9.0585e-05	230.96	76.749	50.346	26.022	8.3004e-05	35.321	-33.727	-85.609	-4.249	-164.761	131.586	95.700	-167.207	-159.625	-54.268	-41.618	-163.321	-159.385	-154.203	-150.242	-19.091	-154.794	-8191	255	
4627.022	1	1	0	0	0.042198	0.030806	0.22521	0.21434	0.1787	0.16695	0.063023	0.021794	0.049592	0.156	0.27166	0.22111	0.17941	0.092337	0.045331	0.11296	-2.1437	-3.2271	-2.8396	-2.7625	-3.3021	-2.5604	-2.95	-3.0896	-2.8104	-3.3542	-2.7229	-2.5396	-3.3229	-2.6646	-2.9292	-3.3646	93.623	-137.987	-16.290	58.620	-117.129	-127.558	7.691	43.718	82.950	-113.786	-132.340	-141.641	-113.229	-30.827	93.480	40.819	0.00064861	0.00055932	0.00012633	445.59	6.7261e-06	4.8255e-06	511.67	136.14	1.0695e-05	4.5528e-06	228.68	76.212	46.297	25.84	4.7015e-06	34.637	0.0048047	0.0080651	0.0022637	441.32	7.8631e-05	9.3794e-05	503.1	135.61	7.9151e-05	9.1442e-05	228.63	76.134	50.44	26.022	8.5048e-05	34.928	-37.659	32.316	-153.667	-165.154	72.641	-64.250	-167.756	-159.737	38.114	38.523	-163.533	-159.096	-154.483	-149.716	77.695	-154.720	-8191	255	
4627.118	1	1	0	0	0.13581	0.20613	0.15203	0.23132	0.20982	0.30824	0.1396	0.11716	0.095273	0.18607	0.08567	0.10798	0.11151	0.19226	0.083801	0.1564	-2.025	-3.1729	-2.925	-2.8271	-3.4417	-2.6792	-3.1458	-3.1562	-2.5917	-3.3646	-3.0333	-2.6937	-3.3333	-2.9604	-2.9792	-3.3125	53.022	159.700	-46.940	138.773	155.449	140.618	-168.858	82.818	116.090	-134.628	42.186	161.711	129.709	-103.562	83.532	90.581	0.0005759	0.00075412	6.6628e-05	446.56	9.3115e-06	4.553e-06	510.12	136.12	9.1719e-06	1.175e-05	228.88	75.997	46.895	25.779	5.804e-06	34.644	0.0049406	0.0082517	0.0022963	441.1	8.0084e-05	9.3721e-05	501.54	136.23	7.8907e-05	9.3683e-05	228.73	76.354	50.716	26.046	8.407e-05	35.084	-35.495	-68.688	-42.717	-165.435	-74.828	71.610	-167.337	-160.131	-85.954	-7.894	-163.379	-159.246	-155.014	-150.320	-144.589	-154.983	-8191	255	
4627.214	1	1	0	0	0.23137	0.042494	0.24896	0.31912	0.1422	0.33256	0.10172	0.094673	0.13362	0.15609	0.26576	0.013305	0.2846	0.34327	0.11385	0.2836	-2.0979	-3.1917	-2.8729	-2.5521	-3.2979	-2.7646	-2.9833	-3.3937	-2.6354	-3.2292	-3.2604	-2.7062	-3.1437	-2.9104	-2.9042	-3.2458	-25.667	166.487	-60.767	-154.721	-46.625	93.223	150.206	-166.529	-171.318	175.792	-177.330	-140.278	130.360	125.738	-129.743	114.879	0.00065302	0.00072658	0.00014652	444.12	1.2125e-05	1.0001e-05	510.56	136.22	1.2205e-05	2.4865e-06	227.65	75.565	47.388	25.604	9.6401e-06	34.586	0.004929	0.0082359	0.0022974	441.79	8.0926e-05	9.1952e-05	502.26	136.47	7.9243e-05	9.1053e-05	228.67	76.078	50.663	25.986	8.3763e-05	34.955	-46.044	140.178	-37.235	-165.283	-46.096	-18.716	-167.474	-159.818	-28.107	24.508	-163.723	-159.193	-155.244	-149.964	21.247	-155.193	-8191	255	
4627.310	1	1	0	0	0.17193	0.11173	0.093681	0.030709	0.18383	0.17859	0.085102	0.13162	0.24513	0.079133	0.17256	0.15672	0.083493	0.21857	0.14479	0.2361	-2.2229	-3.025	-3.0438	-2.4979	-3.3375	-2.7313	-2.7875	-3.3667	-2.5521	-3.1771	-3.1688	-2.4667	-3.2354	-2.9854	-2.6604	-3.4604	-68.958	-88.718	115.248	-128.494	17.484	174.525	106.645	117.816	142.386	-161.378	-155.830	-103.442	15.928	52.488	-63.753	48.001	0.00060072	0.00029468	0.00017688	440.6	6.6127e-07	9.6989e-06	512.2	136.68	1.4762e-05	5.916e-06	233.15	76.465	46.576	25.568	7.0566e-06	34.696	0.0048571	0.007984	0.0022752	439.18	7.8044e-05	9.0301e-05	503.38	136.35	7.6626e-05	8.8026e-05	230.55	76.405	50.19	25.828	8.2023e-05	35.188	-35.621	-47.508	-29.944	-165.307	14.301	-35.692	-167.147	-159.618	40.447	-29.977	-163.211	-159.126	-154.164	-149.995	-12.783	-154.973	-8191	255	
4627.382	1	1	0	0	0.18894	0.037195	0.059043	0.045388	0.17301	0.037078	0.25308	0.11839	0.19591	0.1126	0.13746	0.13704	0.077032	0.18302	0.017492	0.21157	-2.1521	-2.9167	-3.1542	-2.4354	-3.1937	-3.0083	-2.4875	-3.2729	-2.7708	-2.8271	-3.4	-2.7083	-3.1479	-2.9062	-2.6292	-3.3396	-79.346	161.076	-145.589	20.996	-16.534	-141.944	77.012	126.152	-26.056	-90.178	-127.934	24.904	180.306	124.889	-111.379	57.764	0.00058413	0.00046429	0.00018509	444.61	7.3385e-06	1.1128e-05	515.54	135.41	1.5067e-05	3.9339e-06	231.52	75.111	46.538	25.431	3.6008e-06	34.396	0.0047001	0.0079193	0.002224	440.52	7.7316e-05	8.9343e-05	504.26	135.24	7.6648e-05	8.8915e-05	229.47	75.683	49.918	25.707	8.2266e-05	34.641	-27.495	-137.267	-38.627	-165.186	-53.659	-106.012	-167.568	-159.716	7.299	-44.876	-163.287	-159.321	-154.327	-150.100	-84.183	-154.256	-8191	255	
4627.501	1	1	0	0	0.10554	0.11946	0.091667	0.22801	0.039853	0.10614	0.075173	0.34784	0.093434	0.042793	0.12313	0.19001	0.010152	0.081726	0.16804	0.27726	-2.3438	-2.7396	-3.2396	-2.4979	-3.1458	-3.1063	-2.6437	-3.3271	-2.8146	-2.7833	-3.3167	-2.5563	-3.1083	-3.1458	-2.5146	-3.275	-166.632	-96.681	135.452	74.510	83.080	-5.302	-125.232	-72.459	132.331	-101.439	140.450	33.349	105.143	115.739	-144.105	-148.863	0.00068174	0.00047161	0.00032649	441.92	2.1977e-05	1.0293e-05	508.2	134.41	6.5487e-06	3.5493e-06	227.02	74.787	47.131	25.34	9.0428e-06	33.964	0.0047175	0.0079945	0.0022378	437.36	7.7435e-05	9.0326e-05	498.14	134.41	7.7014e-05	8.8931e-05	227.34	75.038	50.071	25.674	8.4014e-05	34.489	-59.360	170.436	-68.136	-165.054	-26.544	-157.993	-167.232	-159.733	-16.441	176.325	-163.481	-159.066	-154.586	-150.351	27.858	-154.434	-8191	255	
4627.597	1	1	0	0	0.27057	0.1895	0.30081	0.15166	0.27753	0.038303	0.15694	0.15673	0.028396	0.080796	0.061409	0.41108	0.12872	0.18951	0.0932	0.16084	-2.4854	-2.8229	-3.3792	-2.6104	-3.15	-3.3229	-2.6104	-3.2021	-3.0333	-2.4688	-3.3375	-2.6125	-2.8875	-3.1604	-2.4979	-3.1771	-125.656	13.913	10.926	-172.170	-3.674	124.036	15.028	122.773	122.990	105.246	46.181	144.755	-161.274	-97.859	91.345	-130.524	0.00049741	0.00053784	0.00023149	442.61	3.722e-06	7.53e-06	508.29	134.82	4.5671e-06	6.881e-06	229.88	75.774	46.358	25.556	4.4051e-06	34.845	0.0047054	0.0080436	0.0022651	437.17	7.7793e-05	9.1761e-05	500	135.05	7.661e-05	9.0379e-05	229.47	75.634	50.299	25.9	8.3331e-05	35.025	-49.171	179.643	-38.442	-165.003	-166.940	-63.751	-167.676	-159.272	-145.990	-12.402	-163.424	-159.039	-154.056	-149.892	-64.448	-154.528	-8191	255	
4627.693	1	1	0	0	0.10629	0.15904	0.15819	0.15624	0.078153	0.092579	0.064423	0.25611	0.023553	0.16637	0.23845	0.13922	0.16669	0.2816	0.27878	0.1214	-2.4396	-2.4979	-3.2625	-2.7396	-3.0417	-3.2396	-2.575	-3.2229	-3.1458	-2.4854	-3.3083	-2.7792	-2.7479	-3.3	-2.6583	-3.0896	-44.425	-128.599	59.442	-23.955	-39.335	-49.012	-86.874	143.766	-18.560	30.631	-122.791	-105.099	-141.989	-9.594	-34.360	158.780	0.00047874	0.00048861	0.00020808	447.41	5.3073e-06	9.7782e-06	512.08	137.05	1.0835e-05	7.1848e-06	230.68	77.308	47.475	26.18	6.3022e-06	34.851	0.0047936	0.0081455	0.0022427	442.34	7.8197e-05	9.3683e-05	504.02	136.57	7.8456e-05	9.2458e-05	230.4	76.934	50.815	26.317	8.4966e-05	35.344	-25.427	-100.554	10.015	-164.862	-2.489	-103.921	-167.410	-159.971	-13.424	145.298	-162.879	-159.299	-154.769	-149.871	-7.400	-154.628	-8191	255	
4627.814	1	1	0	0	0.11172	0.11896	0.22297	0.20554	0.14389	0.19492	0.16216	0.20829	0.2479	0.30169	0.17834	0.25709	0.30597	0.29727	0.16624	0.14655	-2.7812	-2.6312	-3.3521	-2.925	-2.7354	-3.4042	-2.6104	-3.2729	-3.2375	-2.7042	-3.2979	-2.9125	-2.7333	-3.4792	-2.5438	-2.9646	103.764	30.630	106.314	133.360	-61.190	-107.138	131.791	76.089	44.951	-56.196	-152.752	52.700	-21.521	85.763	104.031	-107.031	0.00046959	0.00062982	6.6675e-05	449.67	3.472e-06	2.6425e-06	513.27	137.73	7.5775e-06	6.1167e-06	228.47	75.77	47.041	25.854	8.551e-06	34.645	0.0048701	0.0082891	0.0023139	444.53	7.9049e-05	9.4079e-05	504.46	137.72	7.9054e-05	9.3642e-05	228.73	75.924	51.008	26.279	8.6089e-05	34.821	-31.551	-43.621	-154.762	-165.125	0.227	-8.184	-167.413	-160.014	7.271	-4.732	-163.274	-159.428	-153.917	-150.115	81.428	-154.677	-8191	255	
4627.910	1	1	0	0	0.051804	0.27845	0.22509	0.3063	0.042126	0.17763	0.042605	0.1669	0.23178	0.13348	0.17007	0.083676	0.20843	0.14115	0.10291	0.19551	-2.8875	-2.3542	-3.25	-2.9604	-2.6417	-3.425	-2.7479	-3.0875	-3.2	-2.4146	-3.2479	-3.0375	-2.5833	-3.2542	-2.7625	-2.7875	5.857	39.397	-29.406	159.902	116.765	-150.507	36.870	-127.086	-55.649	16.842	94.800	-105.922	-74.073	109.661	156.125	70.376	0.00062688	0.0011764	0.00016589	445.12	9.0976e-06	3.5319e-06	511.93	137.12	1.5969e-05	2.344e-06	228.3	75.883	47.839	25.941	7.7504e-06	34.346	0.0049308	0.0084626	0.0023585	443.56	8.1601e-05	9.464e-05	501.67	137.11	8.0534e-05	9.4983e-05	228.13	75.994	51.401	26.225	8.6335e-05	34.857	-52.957	-57.768	-24.586	-165.341	-48.771	27.234	-167.229	-159.919	18.540	-82.751	-163.161	-159.449	-154.806	-150.222	-68.155	-154.275	-8191	255	
4627.982	1	1	0	0	0.18836	0.075966	0.098422	0.28689	0.24478	0.20059	0.11898	0.22881	0.14104	0.061395	0.14664	0.037475	0.035626	0.16486	0.075442	0.15672	-2.8917	-2.4604	-3.1125	-3.025	-2.525	-3.1562	-2.6729	-2.8604	-3.2354	-2.6729	-3.0354	-2.9875	-2.5208	-3.3187	-2.7021	-2.7542	-42.023	-129.247	-15.757	21.964	-101.868	-138.036	-121.037	-78.463	-38.116	-3.940	-60.265	-100.006	102.223	-130.441	-79.250	163.486	0.00061639	0.00042358	8.309e-05	448.47	1.2188e-05	1.039e-05	509.04	136.88	3.2613e-06	5.8215e-06	228.25	76.251	47.188	25.888	8.4121e-06	34.653	0.0049487	0.0085043	0.0023216	443.66	8.071e-05	9.4991e-05	501.09	137.13	8.0816e-05	9.4801e-05	228.7	76.198	51.18	26.281	8.4888e-05	35.067	-41.558	-41.565	-77.935	-165.520	-154.901	55.618	-167.801	-159.576	-80.914	-90.135	-163.422	-159.111	-154.584	-149.953	4.752	-154.248	-8191	255	
4628.102	1	1	0	0	0.078471	0.22189	0.2206	0.25915	0.30616	0.25311	0.2554	0.17574	0.085172	0.27204	0.07155	0.040577	0.31506	0.086761	0.11963	0.10837	-2.8875	-2.4583	-2.9167	-3.2396	-2.3542	-3.1562	-2.8354	-2.7083	-3.2625	-2.6604	-2.9375	-2.9729	-2.525	-3.2208	-2.7542	-2.5979	-68.791	105.123	-130.090	-124.325	-8.792	-97.319	-51.404	80.041	123.595	-34.482	-25.394	122.634	47.029	-45.265	53.877	23.236	0.00060204	0.00046017	0.00014191	450.03	9.5396e-06	1.1924e-05	509.55	137.58	5.5488e-06	6.9927e-06	229.81	76.461	47.992	26.031	1.6312e-06	35.318	0.0048918	0.0083473	0.0022919	444.65	8.0808e-05	9.4157e-05	501.94	137.9	8.0032e-05	9.1393e-05	229.21	76.302	51.524	26.435	8.5146e-05	35.469	-32.798	90.501	-69.689	-165.419	73.064	-111.778	-167.537	-159.678	-76.390	9.757	-162.995	-159.114	-154.727	-150.115	35.102	-154.481	-8191	255	
4628.199	1	1	0	0	0.15566	0.17182	0.056593	0.0081001	0.054732	0.1225	0.13644	0.11637	0.15128	0.17794	0.18855	0.1106	0.10317	0.061336	0.088023	0.21932	-2.9188	-2.6729	-2.9104	-3.1896	-2.5042	-3.3625	-3.1708	-2.6979	-3.2125	-2.7604	-2.7458	-3.4521	-2.4896	-3.1104	-2.9917	-2.4062	-63.764	160.760	-21.880	-95.808	100.739	-7.372	89.988	-169.031	66.601	-34.114	181.086	36.353	-154.900	80.429	-148.291	-118.688	0.00055796	0.00049596	0.00026629	449.67	2.6724e-06	3.6894e-06	515.74	139.5	1.1014e-05	3.691e-06	227.31	75.943	48.138	26.207	4.2574e-06	34.671	0.0049767	0.0083434	0.0023167	446	8.0507e-05	9.4568e-05	505.31	139.14	8.145e-05	9.381e-05	228.31	76.217	51.608	26.52	8.6139e-05	35.001	-47.294	-78.098	-84.346	-165.275	-95.618	-39.471	-167.457	-159.931	-20.560	9.326	-163.297	-159.169	-154.502	-150.121	-26.384	-154.746	-8191	255	
4628.295	1	1	0	0	0.089607	0.13847	0.042066	0.17675	0.20657	0.058218	0.14303	0.050819	0.13761	0.16474	0.091605	0.13577	0.028504	0.084266	0.090736	0.10653	-2.9771	-2.7354	-2.6646	-3.2875	-2.4917	-3.1667	-3.0396	-2.7604	-3.2792	-2.8479	-2.8333	-3.3896	-2.6333	-3.1708	-3.2479	-2.4542	-109.678	82.082	-129.490	167.999	105.072	-76.988	55.072	-135.110	-5.945	-114.836	124.539	-38.025	45.756	132.700	-107.108	158.904	0.00051265	0.00059513	1.3224e-05	453.21	9.507e-06	8.385e-06	506.99	139.74	3.4023e-06	3.8453e-06	226.34	75.804	47.822	26.007	9.6241e-06	34.294	0.0049791	0.0082991	0.0023438	447.65	8.1257e-05	9.4361e-05	499.9	139.2	8.0288e-05	9.1098e-05	227.23	75.782	51.387	26.358	8.5344e-05	34.852	-55.108	-46.895	44.644	-165.097	-138.472	3.625	-167.592	-159.602	48.274	37.006	-163.155	-159.410	-154.503	-149.982	-89.379	-154.525	-8191	255	
4628.415	1	1	0	0	0.15425	0.2091	0.35212	0.12094	0.14899	0.094441	0.18652	0.095874	0.042851	0.17603	0.1595	0.42339	0.17454	0.26473	0.1879	0.18879	-2.775	-2.7604	-2.7125	-3.4813	-2.6708	-3.025	-3.2521	-2.4542	-3.2562	-2.7958	-2.7583	-3.4792	-2.7667	-3.0187	-3.2646	-2.5062	-176.007	-101.391	-17.880	143.540	-154.443	165.181	139.729	160.795	-118.645	-33.617	112.251	-114.215	-141.291	175.809	-45.063	-141.639	0.00064859	0.0011075	0.00020805	447.66	7.275e-06	9.4456e-06	509.47	137.11	9.0371e-06	2.9773e-06	227.4	75.617	47.138	25.922	1.162e-05	34.481	0.0049314	0.0081776	0.0023432	444.22	8.0886e-05	9.3013e-05	501.22	137.39	7.8713e-05	9.0906e-05	227.63	75.826	51.129	26.11	8.5385e-05	34.799	-30.146	-89.489	-90.132	-164.951	142.554	-55.804	-167.605	-159.628	-11.976	2.136	-163.341	-159.327	-154.274	-149.923	-46.473	-154.816	-8191	255	
4628.510	1	1	0	0	0.12825	0.25184	0.29057	0.083559	0.1663	0.28036	0.086555	0.12844	0.17061	0.11406	0.067331	0.20432	0.1696	0.15438	0.30003	0.13173	-2.8875	-2.8083	-2.5875	-3.2917	-2.525	-2.6937	-3.3	-2.5312	-3.3229	-2.9167	-2.5312	-3.2875	-2.6292	-2.9062	-3.4708	-2.5208	170.581	21.499	118.463	42.151	-61.624	154.156	-9.203	98.035	13.442	134.867	138.106	-132.515	-52.161	153.900	-27.627	124.554	0.00050745	0.00039004	0.00014544	447.11	5.2335e-06	5.0791e-06	509.33	136.49	7.7422e-06	4.4134e-06	230.67	75.802	47.797	25.611	7.1401e-06	34.977	0.0049118	0.0080349	0.0022936	442.85	7.7967e-05	9.2229e-05	503.76	135.98	7.779e-05	8.9189e-05	229.73	76.053	51.075	26.039	8.5027e-05	35.066	-36.975	-169.377	178.958	-165.068	24.248	-33.679	-167.358	-159.587	-25.782	172.980	-163.194	-159.578	-154.352	-149.517	-33.783	-154.305	-8191	255	
4628.606	1	1	0	0	0.087327	0.11494	0.36431	0.12583	0.2267	0.16678	0.17623	0.1987	0.10567	0.10446	0.30794	0.11192	0.26172	0.096561	0.13145	0.23865	-2.8146	-3.1854	-2.3688	-3.3563	-2.7646	-2.9271	-3.3458	-2.6937	-3.2438	-3.2396	-2.5875	-3.2875	-2.825	-3.0271	-3.2542	-2.6521	-150.892	-47.272	-31.994	44.565	-174.269	44.366	39.576	90.430	114.173	157.919	102.992	155.741	-111.592	-136.354	-84.017	-164.755	0.00054181	0.00036938	0.00011015	447.08	1.4378e-05	7.6021e-06	513	135.18	5.5537e-06	3.3449e-06	226.55	74.159	47.284	25.476	5.1244e-06	34.174	0.0048178	0.0082543	0.0023568	442.8	7.8274e-05	9.3573e-05	502.52	135.69	7.995e-05	9.2816e-05	227.8	75.018	50.978	25.964	8.5935e-05	34.529	-50.093	99.735	57.201	-165.090	33.080	-1.031	-167.432	-159.380	49.921	-123.858	-163.346	-159.191	-154.405	-149.786	33.217	-154.691	-8191	255	
4628.678	1	1	0	0	0.13465	0.153	0.1342	0.30414	0.13727	0.054364	0.081077	0.079534	0.16954	0.16378	0.084057	0.080362	0.13358	0.18	0.090909	0.087079	-2.5833	-3.1	-2.6417	-3.3063	-3.0312	-2.5687	-3.3396	-2.6792	-3.1312	-3.3396	-2.4417	-3.3229	-2.7708	-2.5646	-3.3292	-2.5875	-30.628	-74.559	-139.342	178.844	162.829	-168.290	37.759	-157.301	180.007	171.569	35.884	51.553	84.253	123.044	-59.964	-69.290	0.00066343	0.00066401	2.7224e-05	443.93	1.0526e-05	1.5264e-06	507.68	135.22	5.9996e-06	4.6943e-06	227.71	75.009	47.386	25.75	5.6675e-06	33.923	0.0049214	0.0083378	0.002366	442.15	8.0447e-05	9.4382e-05	499.85	135.49	8.0065e-05	9.3591e-05	227.32	75.101	50.988	26.033	8.7003e-05	34.492	-30.155	35.330	-60.673	-165.364	181.896	-78.359	-167.426	-158.955	-80.965	-158.297	-163.335	-159.188	-154.612	-149.646	-77.550	-154.957	-8191	255	
4628.798	1	1	0	0	0.15091	0.30981	0.028319	0.057759	0.19039	0.12969	0.069342	0.37201	0.10278	0.13754	0.26055	0.16106	0.099142	0.074195	0.0878	0.1971	-2.5021	-3.2812	-2.4042	-3.2354	-2.8563	-2.5771	-3.4583	-2.7167	-3.0375	-3.3333	-2.7	-3.0875	-2.9896	-2.6083	-3.3542	-2.7542	31.290	119.135	-137.656	-103.679	113.526	-80.610	-136.386	89.769	-50.554	-115.888	176.598	80.125	168.572	99.375	-97.942	98.624	0.00050004	0.00092033	0.0001207	446.1	7.8047e-06	3.5554e-06	507.1	134.72	7.2568e-06	5.4358e-06	227.41	75.525	47.271	25.636	5.5529e-06	34.142	0.0049504	0.0084903	0.0023691	441.31	8.0524e-05	9.396e-05	499.95	134.67	7.8199e-05	9.1984e-05	227.07	75.282	50.743	25.927	8.4236e-05	34.633	-43.350	-99.518	-141.949	-164.550	-16.968	-85.026	-167.525	-159.335	-65.010	-78.801	-163.589	-158.919	-154.083	-149.886	-40.187	-154.823	-8191	255	
4628.894	1	1	0	0	0.092037	0.25993	0.37124	0.15031	0.17705	0.082333	0.13718	0.21685	0.25749	0.104	0.23626	0.059532	0.070867	0.18992	0.060066	0.17457	-2.3104	-3.375	-2.65	-3.0583	-3.1771	-2.6937	-3.5125	-2.8083	-2.9	-3.3833	-2.5687	-3.1583	-3.275	-2.4667	-3.2042	-2.8708	46.362	-162.787	-175.846	117.322	48.021	133.073	128.193	99.932	-30.045	79.362	-142.642	-165.590	-79.464	-128.373	156.201	123.007	0.00061354	0.00020211	0.00028988	441.59	8.6341e-06	3.9966e-06	510.5	134.63	8.4593e-06	1.5984e-06	229.93	75.756	47.507	25.899	3.5396e-06	34.708	0.0048035	0.0080829	0.0023104	440.29	7.8388e-05	9.2839e-05	502.2	135.19	7.77e-05	9.0914e-05	229.25	75.89	50.96	26.186	8.2888e-05	35.071	-44.938	-143.166	92.473	-164.954	165.148	-30.197	-167.555	-159.572	107.643	-0.665	-162.807	-158.984	-154.893	-150.060	145.268	-154.742	-8191	255	
4628.990	1	1	0	0	0.18765	0.11195	0.20734	0.093906	0.17664	0.22624	0.15416	0.16477	0.30844	0.14885	0.17287	0.28837	0.17838	0.29927	0.13451	0.17747	-2.1917	-3.4875	-2.6104	-2.9875	-2.9271	-2.5542	-3.4	-2.8937	-2.5646	-3.3521	-2.6375	-2.8438	-3.2104	-2.5896	-3.0792	-2.8542	-176.919	122.879	22.413	129.817	129.417	44.108	-153.370	113.398	38.329	-63.175	106.937	-102.624	-175.410	125.359	-81.613	154.407	0.00054006	0.00064043	0.00024996	449.27	1.2879e-05	1.4093e-05	516	136.31	4.9487e-06	5.2287e-06	228.86	75.559	47.61	25.738	1.1114e-05	34.129	0.0048557	0.008132	0.0022465	444.65	7.8138e-05	9.1331e-05	505.67	136.35	7.8759e-05	9.3514e-05	228.24	75.676	51.239	26.166	8.4464e-05	34.449	-38.582	-49.916	-25.545	-165.478	0.635	11.199	-167.458	-160.150	120.255	14.575	-163.194	-159.079	-155.355	-149.921	-16.430	-154.667	-8191	255	
4629.087	1	1	0	0	0.24138	0.21884	0.13747	0.056094	0.21534	0.13094	0.25558	0.18047	0.19597	0.20472	0.10988	0.11466	0.17715	0.1458	0.12952	0.18569	-2.2313	-3.3438	-2.775	-2.8208	-3.4229	-2.5833	-3.4083	-2.9708	-2.7687	-3.3833	-2.9354	-2.8104	-3.3563	-2.7062	-3.2542	-3.0479	4.741	-138.309	112.438	-4.303	64.100	44.512	-131.968	-133.071	120.533	-83.868	97.867	-156.860	26.590	40.698	109.914	70.298	0.0005895	0.0012766	9.0145e-05	449.81	1.0088e-06	7.5427e-06	505.76	135.85	1.4055e-05	6.8095e-06	227.67	75.523	47.4	25.795	4.8233e-06	34.063	0.004964	0.0080832	0.0022962	444.2	8.0696e-05	9.3733e-05	500.19	136.2	7.9325e-05	9.2102e-05	227.07	75.556	51.398	26.158	8.5127e-05	34.529	-45.396	-48.082	175.307	-165.239	-92.880	-155.991	-167.374	-159.857	-40.688	-106.320	-163.186	-159.556	-155.841	-149.783	106.637	-154.873	-8191	255	
4629.207	1	1	0	0	0.2117	0.1908	0.082081	0.17944	0.14752	0.10485	0.21286	0.21129	0.022032	0.27036	0.13577	0.0903	0.10928	0.18942	0.3128	0.162	-2.0958	-3.3792	-2.9417	-2.7292	-3.3833	-2.6021	-3.1188	-3.1271	-2.4938	-3.3833	-3.0042	-2.9125	-3.4146	-2.7125	-2.8583	-3.2646	-131.669	89.526	0.760	74.649	-158.781	-166.867	155.011	95.252	180.997	-76.935	-19.033	69.066	94.938	-80.902	-31.692	16.549	0.00068388	0.00063286	0.0001337	447.31	6.8427e-06	2.2994e-06	506.02	136.47	9.973e-06	7.0848e-06	228.44	75.34	47.323	25.884	1.1437e-05	34.276	0.0049783	0.0082593	0.0023292	444.57	8.1137e-05	9.4887e-05	502.29	136.39	8.1043e-05	9.3796e-05	228.39	75.911	51.388	26.288	8.5077e-05	34.78	-25.813	-110.936	-128.370	-165.224	50.618	-42.866	-167.673	-159.585	-72.326	3.512	-163.065	-158.538	-154.300	-149.999	-106.132	-154.850	-8191	255	
4629.279	1	1	0	0	0.0519	0.17963	0.11537	0.192	0.16661	0.19888	0.050585	0.10081	0.065904	0.14728	0.34205	0.067513	0.17318	0.16378	0.14595	0.098695	-2.2146	-3.1562	-3.0687	-2.625	-3.2792	-2.7104	-2.8042	-3.3854	-2.4604	-3.1562	-3.0979	-2.5417	-3.3792	-2.6458	-2.975	-3.4292	-77.293	-76.721	-98.649	87.420	66.738	43.010	43.699	-146.969	177.949	-137.697	-55.533	154.269	64.706	-52.074	-27.333	-84.854	0.00060022	0.00063141	0.0003449	450.18	5.8362e-06	3.7854e-06	508.75	137.25	6.647e-06	5.7452e-06	230.45	76.056	48.541	26.115	5.6745e-06	34.608	0.005007	0.0081113	0.0023299	444.68	8.1745e-05	9.3967e-05	503.09	137.57	7.9024e-05	9.1386e-05	229.97	76.539	51.713	26.415	8.3325e-05	35.081	-62.216	32.465	-118.959	-165.475	2.520	-70.119	-167.080	-159.795	-61.367	94.365	-162.988	-159.319	-154.944	-150.099	63.657	-154.472	-8191	255	
4629.375	1	1	0	0	0.28579	0.24544	0.21518	0.089781	0.098871	0.26341	0.072255	0.089271	0.16435	0.064324	0.1377	0.12158	0.15887	0.27166	0.079203	0.21979	-2.1083	-2.9896	-3.1292	-2.5729	-3.3479	-2.8563	-2.7396	-3.4542	-2.5	-3.1083	-3.0687	-2.5729	-3.3125	-2.7625	-2.7708	-3.4562	-73.114	45.386	-152.886	-153.076	28.969	143.802	-129.047	-33.804	-117.779	177.913	93.492	-37.975	43.637	104.121	-143.324	108.953	0.00061908	0.00058095	0.00021962	446.77	1.2531e-05	7.0238e-06	507.61	136.96	7.9956e-06	9.4755e-06	228.66	75.014	47.36	25.74	6.173e-06	33.971	0.0048716	0.0080293	0.0022887	443.71	7.8525e-05	9.2151e-05	500.28	136.42	7.792e-05	9.0175e-05	227.65	75.178	50.943	25.975	8.3691e-05	34.401	-44.836	-106.207	181.826	-165.123	20.511	-63.543	-166.994	-159.540	-52.073	103.116	-163.138	-158.561	-154.291	-150.204	46.045	-154.723	-8191	255	
4629.496	1	1	0	0	0.2818	0.1024	0.14448	0.20906	0.079612	0.28761	0.19567	0.21341	0.10426	0.18435	0.26424	0.18663	0.30251	0.067264	0.066801	0.10863	-2.3542	-3.1188	-3.0833	-2.5708	-3.3125	-3.075	-2.6437	-3.4146	-2.7062	-2.9083	-3.2854	-2.575	-3.3479	-3.0687	-2.7271	-3.3229	131.536	-169.670	33.263	93.275	-41.953	59.322	89.512	-138.011	61.257	-135.616	92.343	148.479	151.157	178.410	129.044	-61.982	0.00059428	6.2308e-05	9.9376e-05	443.76	1.0389e-06	5.2157e-06	504.63	133.88	5.3031e-06	8.4295e-06	225.85	74.491	47.597	25.515	5.2157e-06	33.862	0.0047505	0.0080078	0.0022626	439.36	7.7703e-05	9.0916e-05	497	134.66	7.7138e-05	8.8845e-05	225.94	74.681	50.805	25.912	8.3103e-05	34.499	-36.907	-78.273	156.146	-164.607	26.482	-43.234	-167.607	-159.377	164.702	-14.553	-163.150	-159.249	-154.587	-149.810	169.332	-154.776	-8191	255	
4629.590	1	1	0	0	0.20773	0.091972	0.10011	0.046819	0.10231	0.15013	0.018584	0.16755	0.2292	0.23876	0.12118	0.13728	0.2178	0.16102	0.19483	0.23433	-2.3271	-2.775	-3.2646	-2.5125	-3.1625	-3.125	-2.7542	-3.4437	-2.6792	-2.6646	-3.2979	-2.5833	-2.95	-3.0729	-2.4938	-3.2896	112.690	-74.476	17.143	-63.752	-33.041	-8.352	33.681	118.351	-134.573	17.133	58.117	3.263	-158.387	-171.364	36.402	74.834	0.00062708	0.00063484	0.00013893	447.9	5.5718e-06	8.4073e-06	505.71	136.5	5.4384e-06	1.5578e-06	228.44	75.365	48.412	25.788	1.0104e-05	34.204	0.00478	0.007983	0.0022719	442.29	7.779e-05	9.148e-05	498.71	136.02	7.5963e-05	8.8115e-05	228.27	75.443	51.334	26.144	8.3974e-05	34.663	-44.373	-91.482	-86.107	-165.165	-5.260	47.415	-167.001	-159.416	-53.486	70.082	-163.442	-159.237	-154.312	-150.158	-57.267	-154.997	-8191	255	
4629.686	1	1	0	0	0.045664	0.14957	0.13452	0.26529	0.47904	0.063311	0.11381	0.16389	0.10533	0.049601	0.27879	0.11338	0.12084	0.22258	0.13512	0.26824	-2.4333	-2.6167	-3.1937	-2.7042	-3.1896	-3.0542	-2.4854	-3.25	-2.6688	-2.8958	-3.5229	-2.5625	-3.1292	-2.9542	-2.4479	-3.3063	9.818	-25.937	82.448	103.052	-142.754	16.784	20.986	175.587	-15.981	-47.674	137.519	-153.170	-0.083	-108.813	-13.115	-174.925	0.00049132	0.00030713	0.00017403	446.35	5.1971e-06	5.0176e-06	510.9	136.44	1.9083e-05	6.2463e-06	229.23	76.308	48.379	25.846	5.8991e-06	34.988	0.0047602	0.0079288	0.0022824	443.41	7.5921e-05	9.1218e-05	502.52	136.19	7.6212e-05	9.0379e-05	229.27	75.789	51.475	26.184	8.3963e-05	35.037	-32.878	121.740	-8.348	-164.913	-48.855	59.992	-167.348	-159.430	-14.759	32.906	-163.597	-159.770	-154.340	-149.791	-9.012	-154.476	-8191	255	
4629.782	1	1	0	0	0.12994	0.11441	0.06775	0.069799	0.10871	0.16694	0.28053	0.21715	0.080396	0.2227	0.083007	0.20902	0.16305	0.014574	0.1328	0.23815	-2.6271	-2.5979	-3.2104	-2.4958	-2.9313	-3.35	-2.5646	-3.3	-3.0417	-2.6042	-3.3875	-2.6271	-2.8958	-3.3479	-2.5396	-3.0958	-79.752	-163.062	119.632	-145.521	47.231	31.447	179.143	79.972	152.788	146.121	144.294	-64.788	90.031	-152.033	145.761	31.673	0.00045515	0.0009818	7.9216e-05	446.66	8.9817e-06	6.9867e-06	511.87	137.19	5.7394e-06	3.0041e-06	228.3	76.204	48.584	26.171	7.8058e-06	34.301	0.0047643	0.0080791	0.0022879	443.9	7.799e-05	9.3084e-05	501.55	137.33	7.7639e-05	9.1589e-05	228.13	75.987	51.909	26.415	8.5274e-05	34.563	-34.113	-38.775	182.783	-165.041	-31.896	-76.174	-167.538	-158.989	8.435	-109.488	-163.401	-158.912	-154.639	-149.758	-54.956	-154.818	-8191	255	
4629.879	1	1	0	0	0.1061	0.12166	0.084697	0.090209	0.2751	0.10878	0.18686	0.10508	0.23215	0.28783	0.12588	0.15938	0.18599	0.12971	0.088402	0.065596	-2.3521	-2.5625	-3.2188	-2.6104	-2.6479	-3.2625	-2.5958	-3.1146	-2.8958	-2.5792	-3.4208	-2.7083	-2.7021	-3.3312	-2.6167	-3.0938	43.024	122.814	-105.154	-129.058	129.699	-154.113	87.102	-128.321	-133.732	-109.968	-119.828	124.855	55.120	105.114	129.817	-147.211	0.00050661	0.0007529	0.00016821	450.34	1.4317e-05	5.1127e-06	508.57	137.35	5.9241e-06	1.0517e-05	227.06	75.053	47.524	25.866	4.5055e-06	34.225	0.004763	0.0082188	0.0022749	444.74	7.8261e-05	9.2646e-05	499.16	137.15	7.8292e-05	9.2167e-05	226.98	75.27	51.68	26.335	8.4837e-05	34.636	-44.572	136.325	-49.277	-165.154	-11.584	-27.295	-167.338	-159.500	-130.237	73.538	-163.314	-159.546	-153.725	-149.960	19.242	-154.424	-8191	255	
4629.975	1	1	0	0	0.16212	0.12769	0.12566	0.20487	0.19671	0.20152	0.092793	0.16838	0.15302	0.30632	0.13023	0.054505	0.29121	0.101	0.20451	0.26542	-2.6771	-2.5625	-3.1708	-2.7792	-2.8729	-3.525	-2.5333	-3.0667	-3.2521	-2.6396	-3.3063	-2.9896	-2.7375	-3.4583	-2.7812	-3.0354	75.653	174.100	-169.154	143.122	-69.849	-86.158	76.135	69.068	71.503	-105.116	-130.477	91.913	76.993	-148.336	-86.701	-81.864	0.00062256	0.00018429	4.3538e-05	447.51	9.9507e-06	1.6016e-06	509.39	136.17	9.3823e-06	4.8149e-06	228.51	75.839	47.921	25.888	6.6268e-06	34.349	0.0048017	0.0081107	0.0022539	443.41	7.8969e-05	9.2177e-05	499.08	136.41	7.649e-05	8.8942e-05	227.89	75.56	51.519	26.309	8.1044e-05	34.738	-42.318	134.081	-62.841	-165.089	-112.912	-12.873	-167.121	-159.722	-87.300	36.105	-163.434	-159.497	-154.300	-149.925	-59.228	-154.959	-8191	255	
4630.095	1	1	0	0	0.16681	0.13699	0.075845	0.15908	0.11552	0.11335	0.1017	0.25554	0.34871	0.079203	0.10825	0.09186	0.22121	0.15381	0.12936	0.13245	-2.8646	-2.6042	-3.2021	-2.9708	-2.5708	-3.3354	-2.6937	-2.9708	-3.4083	-2.6688	-3.1896	-2.8187	-2.7146	-3.4708	-2.7479	-2.9833	-58.334	125.715	-113.248	164.712	-161.625	167.629	-165.581	-35.630	-153.697	-8.737	-107.409	-90.484	-55.878	89.702	-131.678	23.298	0.00048222	0.00049311	0.00032462	444.84	1.0825e-05	1.4662e-06	510.39	136.71	7.4343e-06	9.7116e-06	229.1	75.579	47.127	25.844	3.4886e-06	34.642	0.0047063	0.0078887	0.0021528	441.55	7.5207e-05	8.9317e-05	499.96	136.09	7.4981e-05	8.6721e-05	227.83	75.371	50.932	26.104	7.8843e-05	34.903	-32.234	106.303	-88.672	-165.287	-79.523	-129.696	-167.598	-159.693	-52.434	53.971	-163.181	-159.384	-154.237	-150.217	-26.744	-154.451	-8191	255	
4630.191	1	1	0	0	0.13595	0.064725	0.15752	0.39435	0.2027	0.099547	0.23531	0.12585	0.12111	0.095849	0.072918	0.38256	0.029578	0.13375	0.2057	0.11271	-2.9	-2.4437	-3.0229	-3.0271	-2.5021	-3.2917	-2.7687	-2.8	-3.2167	-2.7104	-3.2271	-3.0083	-2.45	-3.3625	-2.6437	-2.8792	18.443	-48.850	-35.017	103.074	-66.869	95.321	127.767	133.405	56.540	-1.841	-58.037	148.365	173.436	50.524	99.346	181.583	0.00051804	0.00080679	0.00026919	446.44	6.3091e-06	5.9619e-06	513.05	135.35	2.4411e-06	1.1095e-06	230.92	74.852	47.792	25.59	5.1641e-06	33.998	0.0045881	0.0076639	0.0021537	440.36	7.478e-05	8.6361e-05	500.42	134.9	7.4573e-05	8.5311e-05	228.74	74.678	50.829	25.871	7.8208e-05	34.216	-35.733	-16.063	-115.130	-164.956	-106.404	-168.792	-167.156	-159.315	-119.753	-104.977	-163.419	-159.487	-154.570	-149.778	-79.467	-154.584	-8191	255	
4630.288	1	1	0	0	0.10784	0.2298	0.22701	0.28682	0.12696	0.23368	0.20322	0.17228	0.15676	0.033859	0.14127	0.15112	0.17192	0.12483	0.47835	0.15131	-2.9562	-2.4521	-3.0208	-3.15	-2.5875	-3.3875	-2.7562	-2.7729	-3.1125	-2.6063	-3.0167	-3.2792	-2.6583	-3.2771	-2.7938	-2.4958	4.855	74.133	64.611	161.545	176.170	-66.188	171.581	-106.309	-34.719	29.683	-65.913	-8.406	59.393	-55.273	50.137	126.506	0.00049076	0.00074395	7.1616e-05	443.4	5.2786e-06	4.4845e-06	507.43	134.57	7.3762e-06	8.8605e-06	226.47	74.287	46.808	25.129	4.8214e-06	33.982	0.004617	0.0076869	0.0021515	437.26	7.479e-05	8.6162e-05	496.38	134.33	7.3544e-05	8.4935e-05	226.3	73.814	50.278	25.447	7.9213e-05	34.061	-37.313	-124.292	-24.321	-165.193	-171.489	-25.206	-167.297	-159.370	66.171	-46.770	-162.930	-159.581	-154.230	-149.841	102.889	-154.603	-8191	255	
4630.382	1	1	0	0	0.087035	0.24514	0.25824	0.17611	0.17516	0.31267	0.21427	0.10779	0.28204	0.11551	0.12801	0.10211	0.11678	0.30307	0.29023	0.28578	-3.1208	-2.6271	-2.8187	-3.2729	-2.4708	-3.1625	-2.9146	-2.5583	-3.2854	-2.8042	-2.7687	-3.2875	-2.5646	-3.0854	-3.0604	-2.5062	-139.383	-92.559	-119.560	137.591	-140.224	125.523	-164.643	116.485	48.388	126.658	81.055	-120.384	-78.559	137.714	-37.448	-157.912	0.00054688	0.00021795	0.00017133	436.33	1.0657e-05	4.8739e-06	508.26	131.95	5.8486e-06	9.6287e-06	229.27	74.104	47.137	25.11	5.78e-06	33.846	0.0045985	0.0075834	0.0021396	432.68	7.5641e-05	8.6376e-05	497.15	132.15	7.5674e-05	8.5032e-05	227.31	73.623	50.189	25.35	7.7366e-05	34.051	-36.675	-103.134	150.426	-165.292	-37.680	109.451	-167.398	-159.418	2.995	-54.901	-163.115	-159.296	-154.582	-149.829	15.302	-154.850	-8191	255	
4630.503	1	1	0	0	0.022581	0.19186	0.12856	0.23717	0.23382	0.30012	0.3054	0.28884	0.54895	0.047968	0.25477	0.076121	0.38618	0.23921	0.28426	0.14458	-3.0458	-2.7979	-2.8375	-3.3187	-2.4833	-3.2875	-3.1229	-2.5792	-3.3292	-2.9479	-2.6396	-3.3396	-2.4979	-3.2792	-3.0375	-2.4771	127.806	-97.014	-32.695	181.673	77.553	-144.110	52.881	88.351	24.513	-102.510	105.691	-133.145	177.371	-48.534	-93.738	13.794	0.00047067	0.00053066	4.885e-05	437.07	7.2141e-06	4.3604e-06	507.67	132.99	6.115e-06	8.2909e-06	229.35	74.168	47.229	25.119	5.0328e-07	34.175	0.0045193	0.0075163	0.0021242	430.4	7.3286e-05	8.554e-05	498.22	131.96	7.3347e-05	8.3409e-05	227.54	74.036	50.363	25.387	7.7279e-05	34.334	-28.241	-111.371	-174.124	-165.309	136.043	-36.980	-167.907	-159.415	9.606	162.873	-163.487	-159.182	-154.371	-149.974	4.557	-154.722	-8191	255	
4630.574	1	1	0	0	0.088766	0.20653	0.17945	0.19615	0.098126	0.09896	0.26479	0.12203	0.2609	0.15569	0.20266	0.082549	0.016236	0.25206	0.20092	0.19234	-2.9521	-2.8354	-2.6208	-3.3583	-2.6813	-2.9188	-3.075	-2.5125	-3.3667	-3.1458	-2.6292	-3.3375	-2.6625	-2.9917	-3.1375	-2.7313	-18.693	-22.082	-4.206	55.581	-100.963	170.769	66.605	-133.528	14.740	-104.438	165.118	-111.216	19.171	77.400	147.351	105.651	0.00065435	0.00044488	0.00010244	437.54	1.5221e-05	7.1546e-06	504.65	131.76	4.3405e-06	6.645e-06	226.13	73.373	46.514	25.146	5.1206e-06	33.876	0.0044044	0.0074016	0.0021216	430.75	7.1625e-05	8.3962e-05	496.25	131.92	7.0814e-05	8.4171e-05	225.71	73.255	49.866	25.312	7.8139e-05	33.861	-50.228	-8.068	-62.753	-164.999	-30.717	150.768	-167.682	-159.497	-32.648	14.973	-163.380	-158.748	-154.251	-149.563	178.437	-154.171	-8191	255	
4630.670	1	1	0	0	0.20257	0.10708	0.16587	0.16866	0.32621	0.14366	0.26864	0.12666	0.031378	0.1162	0.068201	0.087616	0.056081	0.19951	0.079527	0.053309	-2.8667	-2.9542	-2.6104	-3.1813	-2.7958	-2.8187	-3.4458	-2.4938	-3.1188	-2.9229	-2.6146	-3.2917	-2.7625	-2.8167	-3.4021	-2.5354	-13.195	-22.632	15.117	68.981	135.938	94.825	153.562	63.258	50.368	-112.041	13.417	90.250	-107.644	-144.282	-6.184	-134.367	0.00053389	0.00036099	0.00011837	434.01	1.1119e-06	3.213e-06	502.32	131.2	7.6852e-06	1.1583e-05	226.92	73.013	47.005	25.167	5.5259e-06	33.417	0.0043957	0.007466	0.0021257	428.81	7.2925e-05	8.3895e-05	493.71	131.34	7.0208e-05	8.4292e-05	224.85	73.019	49.694	25.42	7.9062e-05	33.904	-55.080	-75.751	-63.216	-164.945	-46.680	125.828	-167.857	-159.589	15.747	-68.361	-163.564	-159.256	-153.830	-150.128	-130.123	-154.657	-8191	255	
4630.767	1	1	0	0	0.14956	0.070991	0.055751	0.11491	0.12922	0.1544	0.13508	0.21826	0.13651	0.081445	0.25662	0.083501	0.11548	0.1286	0.1622	0.27712	-2.8333	-3.0563	-2.4813	-3.1354	-2.8229	-2.7396	-3.4896	-2.6792	-3.0312	-3.1813	-2.5333	-3.1104	-2.9188	-2.7146	-3.3854	-2.575	-23.613	-163.122	-94.903	-30.487	130.684	83.313	42.684	-119.028	-36.030	-5.412	-135.859	63.315	-128.923	-133.068	-168.341	-97.198	0.0005046	0.00084794	0.0002836	434.31	1.274e-05	4.4498e-06	507.29	132.61	6.3435e-06	6.2943e-06	226.91	74.332	46.829	25.315	1.1799e-05	34.281	0.0044501	0.0074388	0.0021266	431.33	7.0276e-05	8.4507e-05	496.58	131.94	7.0156e-05	8.2024e-05	225.61	73.936	49.903	25.602	7.6288e-05	34.269	-50.346	-126.547	-144.937	-164.585	13.258	-37.627	-167.202	-159.488	21.423	16.535	-163.475	-158.999	-154.886	-150.291	34.279	-154.553	-8191	255	
4630.887	1	1	0	0	0.079747	0.19271	0.13277	0.23187	0.096032	0.21556	0.2341	0.23625	0.1548	0.41192	0.073264	0.22284	0.29007	0.16404	0.089198	0.084796	-2.6646	-3.2062	-2.3646	-3.2458	-2.7146	-2.6667	-3.4104	-2.3854	-2.9354	-3.0042	-2.6104	-3.2771	-2.9188	-2.4896	-3.2542	-2.8646	102.512	-6.001	-108.112	116.950	161.692	167.345	24.851	176.885	92.656	142.733	133.845	180.761	-147.061	-23.329	-44.801	-175.403	0.00055882	0.00020387	5.4557e-05	436.83	1.4761e-05	2.5495e-06	509.29	133.01	6.2073e-06	1.0993e-05	227.04	75.179	46.497	25.203	5.9606e-06	33.922	0.0044474	0.0074927	0.0021202	432.63	7.0966e-05	8.4797e-05	497.69	132.24	6.9655e-05	8.3306e-05	226.62	74.179	49.859	25.504	7.3365e-05	34.266	-57.050	-135.820	101.541	-164.953	17.232	22.250	-167.405	-159.706	-34.209	-77.723	-163.409	-158.870	-154.587	-149.846	51.797	-154.337	-8191	255	
4630.983	1	1	0	0	0.29838	0.092025	0.17946	0.26752	0.037495	0.069388	0.15292	0.22889	0.25726	0.15524	0.29657	0.20271	0.14221	0.2742	0.068112	0.49096	-2.4167	-3.1896	-2.4979	-2.9562	-3.0625	-2.3667	-3.4625	-2.7021	-2.6854	-3.2208	-2.3396	-3.0729	-2.9542	-2.5125	-3.1813	-2.8833	-67.742	168.076	40.024	-177.651	117.819	76.596	151.577	-88.087	51.244	-39.386	-147.231	-103.881	-80.492	139.392	-176.389	127.822	0.00047558	0.0005748	6.7276e-05	435.95	1.3621e-05	2.912e-06	504.14	131.91	1.6286e-06	5.0386e-06	225.19	73.695	46.107	24.893	6.3246e-06	33.639	0.0043099	0.007258	0.0020104	430.08	6.8999e-05	8.27e-05	494.26	131.42	6.8527e-05	8.0094e-05	224.68	73.158	49.084	25.177	7.3289e-05	33.655	-51.650	-126.357	-71.771	-164.747	-74.032	-130.422	-167.167	-159.728	37.402	24.033	-163.239	-159.214	-155.046	-149.552	80.594	-154.739	-8191	255	
4631.080	1	1	0	0	0.22984	0.3062	0.031382	0.20363	0.050034	0.19082	0.24839	0.12547	0.19982	0.17286	0.26015	0.0516	0.093142	0.16294	0.13995	0.1344	-2.2229	-3.3146	-2.4625	-3.0125	-3.1354	-2.5729	-3.3812	-2.9146	-2.5708	-3.3729	-2.4333	-3.0167	-3.2458	-2.5354	-3.2083	-2.9229	-104.854	108.488	-17.794	159.016	23.686	-125.362	59.811	-145.445	-132.329	81.335	101.733	-63.725	27.795	80.285	-75.065	-140.529	0.00049647	0.00046221	0.00010097	433.05	9.3167e-06	1.0279e-05	502.71	130.66	4.9085e-06	5.3157e-06	226.12	73.706	46.23	24.977	1.1675e-05	33.613	0.0042511	0.0071586	0.0019635	425.95	6.936e-05	8.1056e-05	492.87	130.54	6.8561e-05	7.9575e-05	224.14	72.882	49.072	25.163	7.367e-05	33.724	-33.685	176.689	167.054	-164.883	-11.630	-28.026	-167.281	-159.338	34.256	77.078	-163.444	-158.896	-154.785	-149.833	-70.913	-155.029	-8191	255	
4631.176	1	1	0	0	0.12422	0.21878	0.089598	0.20674	0.15133	0.17195	0.085669	0.25676	0.32498	0.06844	0.08084	0.09069	0.10147	0.048005	0.13475	0.16963	-2.1146	-3.2667	-2.6854	-2.9313	-3.3354	-2.525	-3.0792	-3.2208	-2.5833	-3.325	-2.7396	-3.1	-3.25	-2.5396	-3.4042	-3.2438	-149.124	-151.123	62.302	-67.837	159.477	-98.733	-78.816	141.352	-173.294	97.135	-105.885	56.204	-110.425	171.145	40.011	39.562	0.00050462	0.00057587	0.00028541	433.54	7.3052e-06	1.0596e-06	505.52	131.78	2.6207e-06	8.6766e-06	226.58	74.647	47.068	25.206	5.8938e-06	33.889	0.0042922	0.0072234	0.002007	428.55	7.0148e-05	8.3644e-05	496.01	131.24	7.0557e-05	8.0288e-05	225.89	74.044	49.739	25.439	7.4916e-05	34.111	-34.411	-23.056	-66.749	-165.438	-47.833	150.191	-167.308	-159.473	1.270	-54.576	-163.304	-159.298	-154.227	-150.120	37.841	-154.668	-8191	255	
4631.272	1	1	0	0	0.029949	0.18379	0.16689	0.14084	0.081978	0.10787	0.17953	0.22015	0.14027	0.075534	0.11479	0.01296	0.028205	0.15352	0.2053	0.13597	-2.4	-3.2396	-2.8646	-2.9333	-3.3229	-2.5167	-3.1479	-3.075	-2.7146	-3.4667	-2.9583	-2.8125	-3.3312	-2.5875	-3.1354	-3.25	65.147	-129.182	33.948	127.004	-73.595	-46.478	80.765	-174.987	111.248	64.909	174.185	-158.830	-133.547	-143.596	-89.526	26.439	0.00058904	1.8325e-05	0.00014908	438.11	9.8592e-06	2.1828e-06	507.99	131.42	7.0236e-06	3.0055e-06	231.49	74.817	47.329	25.564	3.7102e-06	34.567	0.0044193	0.007299	0.0020166	432.65	7.1631e-05	8.2942e-05	499.86	132.38	7.1447e-05	8.2346e-05	227.92	74.352	50.269	25.833	7.5641e-05	34.716	-37.654	-50.041	-163.957	-165.171	-8.198	-30.317	-166.834	-159.414	3.511	-107.305	-163.321	-159.275	-154.198	-149.907	40.564	-154.920	-8191	255	
4631.368	1	1	0	0	0.3091	0.099755	0.17617	0.11436	0.16308	0.20711	0.23514	0.31506	0.25776	0.3073	0.28602	0.033976	0.071838	0.19028	0.058862	0.06612	-2.2188	-3.0833	-2.8375	-2.675	-3.4042	-2.6083	-2.9729	-2.9958	-2.5833	-3.3583	-2.9437	-2.6979	-3.225	-2.6979	-2.8021	-3.4354	-61.385	-92.843	129.186	-115.266	-83.439	-102.441	-9.017	-147.910	87.744	-87.695	170.137	-127.997	43.981	170.055	86.124	-143.751	0.00057869	0.00075069	0.00015743	436.84	7.6399e-06	6.0993e-06	510.95	132.49	5.5736e-06	1.5903e-06	228.53	74.221	46.724	25.395	8.3314e-06	33.823	0.0044545	0.0073533	0.0020467	434.55	7.2564e-05	8.4279e-05	500.13	132.78	7.0246e-05	8.1649e-05	225.98	73.849	49.631	25.598	7.4091e-05	34.023	-39.156	-28.674	-109.075	-164.805	105.814	157.033	-167.284	-159.258	52.039	181.149	-163.633	-159.147	-154.743	-149.656	-86.888	-154.814	-8191	255	
4631.464	1	1	0	0	0.11743	0.18528	0.071609	0.043219	0.23766	0.16764	0.12682	0.25905	0.2129	0.1991	0.11922	0.085999	0.11411	0.23328	0.17149	0.15592	-2.075	-3.2562	-2.8646	-2.4167	-3.1521	-2.8875	-2.8583	-3.275	-2.4708	-3.0458	-3.0396	-2.5104	-3.2479	-2.7583	-2.6229	-3.3708	-71.206	123.348	-162.621	0.021	-116.650	154.432	-131.625	-175.550	157.799	-108.750	117.009	26.232	148.107	-90.597	99.118	180.435	0.00070211	0.00078371	0.00021653	439.21	9.416e-07	8.9942e-06	505.24	132.4	1.6456e-05	8.0187e-06	226.48	72.72	46.132	25.227	3.5848e-06	34.114	0.0043251	0.0071843	0.0020428	431.88	7.0738e-05	8.1953e-05	494.08	132.01	6.9109e-05	7.9838e-05	225.46	73.035	48.989	25.337	7.4059e-05	33.952	-37.518	-77.333	-111.230	-164.815	12.177	-61.180	-167.309	-159.209	-7.482	-35.246	-163.046	-158.921	-154.610	-149.995	-134.487	-154.793	-8191	255	
4631.583	1	1	0	0	0.26848	0.046688	0.12789	0.18671	0.092844	0.10155	0.051409	0.11282	0.11309	0.11747	0.22801	0.26585	0.18647	0.12335	0.14212	0.15834	-2.1437	-3.0917	-3.1063	-2.5167	-3.2167	-2.8917	-2.7708	-3.4417	-2.6167	-3.0687	-3.1333	-2.4562	-3.2313	-2.7062	-2.7167	-3.4396	169.951	-101.001	-85.333	-165.880	120.260	-130.444	-52.774	-46.851	182.004	90.091	142.938	32.216	-18.474	166.073	-44.128	125.136	0.00041678	0.00088239	0.00010536	435.54	1.1472e-05	6.7421e-06	504.96	130.66	6.303e-06	8.6912e-06	225.52	73.527	45.873	25.279	9.1635e-06	33.753	0.0042403	0.0070364	0.0019871	426.98	6.8453e-05	7.6813e-05	492.5	129.63	6.5726e-05	7.6276e-05	224.21	72.848	48.563	25.278	7.1223e-05	33.858	-50.180	-18.899	-70.502	-165.278	78.101	-98.150	-167.242	-159.257	-91.049	-5.756	-163.381	-158.979	-154.042	-149.528	-88.425	-154.288	-8191	255	
4631.679	1	1	0	0	0.14318	0.10817	0.10243	0.12599	0.15432	0.088326	0.21938	0.17113	0.13598	0.22738	0.11916	0.099534	0.11773	0.34326	0.1128	0.19598	-2.2313	-3.0542	-3.1	-2.5229	-3.3708	-3.0771	-2.6458	-3.3438	-2.6792	-3.0438	-3.1958	-2.5354	-3.1271	-3	-2.5604	-3.6125	60.657	105.852	109.826	26.724	-51.489	-47.984	150.319	86.008	177.519	108.986	135.128	-5.599	72.772	134.213	45.329	-116.368	0.00052144	0.00048299	0.00023842	429.95	5.6149e-06	3.8556e-06	508.63	130.87	2.7296e-06	2.451e-06	227.98	74.264	46.466	25.246	3.9531e-06	34.391	0.0040348	0.0067091	0.0019278	426.87	6.4908e-05	7.6722e-05	494.79	130.58	6.3573e-05	7.5142e-05	225.69	73.567	48.864	25.414	7.1158e-05	34.417	-48.720	-108.439	-99.045	-164.834	132.528	92.894	-167.431	-159.353	57.418	-168.191	-163.311	-158.758	-154.146	-149.680	100.312	-154.472	-8191	255	
4631.775	1	1	0	0	0.16918	0.17666	0.11317	0.29036	0.22583	0.30016	0.17391	0.17565	0.10152	0.058345	0.026748	0.18651	0.028843	0.14675	0.0087315	0.21188	-2.2438	-2.7167	-3.1604	-2.4979	-3.1208	-3.0146	-2.8187	-3.2875	-2.8479	-2.7938	-3.3417	-2.6208	-3.0438	-3.125	-2.5542	-3.2958	-25.346	-47.644	-37.827	150.971	22.925	143.420	2.206	126.451	-125.432	-76.463	-133.666	-84.737	22.548	-88.120	142.049	-85.293	0.0006897	0.00032566	0.00010872	436.05	7.5233e-06	8.8724e-07	507.59	131.65	8.1175e-06	8.5909e-06	227.8	73.539	45.962	25.257	1.045e-05	33.903	0.0040447	0.0068701	0.0019324	430.4	6.5202e-05	7.8428e-05	496.76	130.69	6.4592e-05	7.6214e-05	224.99	72.947	48.777	25.457	7.032e-05	33.909	-51.448	33.606	-24.820	-165.108	-67.556	-44.088	-167.209	-159.395	-161.177	42.925	-163.770	-158.690	-154.223	-149.700	-54.581	-154.202	-8191	255	
4631.871	1	1	0	0	0.24455	0.16371	0.07882	0.18714	0.33068	0.11197	0.12099	0.13625	0.15128	0.085742	0.25694	0.30864	0.056187	0.036747	0.03236	0.15516	-2.475	-2.7417	-3.2729	-2.5396	-2.8917	-3.2	-2.7083	-3.2396	-2.8271	-2.7562	-3.3563	-2.6125	-2.9188	-3.4104	-2.6396	-3.3125	-126.631	73.117	-106.943	-168.146	-57.855	156.101	-38.501	102.468	-26.964	-161.877	-86.254	107.389	50.659	30.893	-172.841	103.982	0.00058936	0.000283	0.00015491	436.8	5.1192e-06	4.8554e-06	504.71	131.74	8.2871e-06	5.0945e-06	224.79	73.201	46.022	25.224	1.4144e-05	33.708	0.0040499	0.0067488	0.0018961	427.26	6.4654e-05	7.769e-05	493.23	130.57	6.5122e-05	7.5046e-05	222.91	72.595	48.569	25.267	7.0262e-05	33.752	-31.521	-174.157	-6.165	-165.227	-84.387	-61.889	-166.976	-159.102	-78.245	-18.353	-163.692	-159.234	-154.201	-149.451	15.895	-154.335	-8191	255	
4631.968	1	1	0	0	0.27549	0.21179	0.10162	0.17166	0.1455	0.20136	0.1696	0.10651	0.1277	0.31743	0.09046	0.33729	0.095755	0.16871	0.30078	0.069479	-2.4375	-2.6604	-3.3229	-2.6104	-2.8458	-3.4188	-2.6979	-3.4375	-3.0083	-2.7167	-3.4813	-2.6021	-2.8167	-3.2042	-2.5771	-3.2083	156.285	-116.448	-63.209	61.928	53.628	-176.132	38.650	18.352	-147.273	-153.958	160.579	-29.232	167.001	-154.649	72.023	-168.720	0.00050486	0.0007515	0.00015028	433.52	4.6346e-06	6.6554e-06	505.49	130.6	6.386e-06	6.4109e-06	225.84	74.337	45.693	25.368	9.6454e-06	34.028	0.0040632	0.0067655	0.0018685	426.09	6.3511e-05	7.5617e-05	493.73	129.93	6.275e-05	7.4517e-05	223.41	72.942	48.374	25.324	6.6991e-05	34.108	-53.625	86.085	162.986	-165.154	139.643	-18.063	-167.161	-159.571	-27.845	-18.607	-163.655	-159.673	-154.498	-149.850	-63.411	-154.884	-8191	255	
4632.064	1	1	0	0	0.30459	0.27698	0.14786	0.11979	0.17066	0.21876	0.080194	0.14029	0.20201	0.021101	0.039822	0.11107	0.21764	0.19696	0.1438	0.0049732	-2.8104	-2.5104	-3.4229	-2.7687	-2.9313	-3.4875	-2.4375	-3.2271	-3.1292	-2.5187	-3.2562	-2.8021	-2.8292	-3.1396	-2.5646	-3.0917	-20.947	-68.572	-73.472	-161.556	11.800	131.650	22.255	-146.550	-27.649	-97.343	136.148	-96.983	-82.336	162.616	117.847	131.092	0.00061749	0.00057651	0.00019674	436.43	5.7475e-06	4.5028e-06	504.66	131.2	6.9123e-06	3.3451e-06	228.3	73.758	45.741	25.445	9.8188e-06	34.379	0.0039573	0.0064534	0.0018016	426.99	6.2412e-05	7.2086e-05	493.1	129.95	6.1642e-05	7.0204e-05	224.81	72.996	48.094	25.355	6.3316e-05	34.113	-41.723	-109.571	172.997	-165.062	-48.083	-78.123	-167.025	-159.359	43.013	12.488	-163.061	-159.685	-154.131	-150.019	-6.500	-154.542	-8191	255	
4632.184	1	1	0	0	0.12727	0.14023	0.18081	0.12104	0.25519	0.037255	0.02922	0.14738	0.13129	0.16871	0.10274	0.11653	0.27592	0.15936	0.093594	0.071516	-2.7604	-2.3354	-3.425	-2.7604	-2.6042	-3.4562	-2.7375	-2.9354	-3.1792	-2.5104	-3.2479	-2.825	-2.4938	-3.3792	-2.6667	-2.8812	81.431	-140.588	44.090	-162.939	-163.481	-121.854	-156.803	146.848	-133.949	-60.984	105.432	-5.762	-137.708	-55.239	-142.087	-104.990	0.00055327	0.00038159	0.00023484	435.56	6.6423e-06	2.8558e-06	502.99	129.28	5.2493e-06	7.5123e-07	226.32	72.909	45.624	25.158	1.2839e-05	33.924	0.0036412	0.0061313	0.0016893	424.63	5.9109e-05	6.8803e-05	490.33	128.9	5.7533e-05	6.7367e-05	222.76	72.275	47.675	25.12	6.0735e-05	33.637	-53.288	-46.219	46.203	-164.952	-21.741	-53.601	-167.518	-158.975	172.270	-123.220	-162.644	-158.939	-153.742	-149.713	-85.787	-154.607	-8191	255	
4632.279	1	1	0	0	0.098007	0.1385	0.18524	0.11062	0.22141	0.18508	0.18781	0.16588	0.014882	0.094431	0.17734	0.092729	0.13177	0.18259	0.17948	0.28987	-2.9437	-2.6188	-3.0563	-2.875	-2.5187	-3.2792	-2.7333	-2.9375	-3.3896	-2.6729	-3.2479	-3.1	-2.5062	-3.3417	-2.7604	-2.75	148.826	-168.744	109.975	-145.476	45.363	-165.147	-0.467	76.604	67.802	-23.714	-164.754	136.240	92.492	96.487	-63.552	69.579	0.0005967	0.00045523	0.00019499	429.77	1.782e-06	2.9078e-06	504.15	129.6	8.878e-06	2.0558e-06	227.62	73.586	45.869	25.046	6.8055e-06	33.695	0.0035444	0.0058633	0.0016253	421.37	5.6704e-05	6.6677e-05	487.57	128.11	5.5798e-05	6.494e-05	222.64	72.41	47.404	24.96	5.8032e-05	33.588	-43.822	-43.643	-94.121	-165.667	-27.248	12.630	-166.972	-159.265	11.073	-80.793	-163.145	-159.037	-153.616	-149.664	7.410	-154.157	-8191	255	
4632.375	1	1	0	0	0.09488	0.10081	0.11826	0.037019	0.066122	0.076671	0.028245	0.20677	0.019575	0.27163	0.31093	0.20927	0.13832	0.33635	0.17759	0.091437	-2.8521	-2.4583	-3.0375	-3.0167	-2.4583	-3.4354	-2.8125	-2.8292	-3.375	-2.6063	-3.2354	-3.1458	-2.6042	-3.3375	-2.9625	-2.8104	45.441	-166.907	-6.704	-102.530	30.392	30.979	-13.769	-153.975	-147.314	117.218	114.524	-20.042	143.114	-163.884	78.842	-172.774	0.00058001	0.00052519	0.00011267	432.16	5.445e-06	5.5914e-06	503.68	129.69	5.573e-06	8.107e-06	226.98	73.57	45.407	24.969	4.7161e-06	33.876	0.0034796	0.0057025	0.0015795	423.69	5.6845e-05	6.57e-05	489.26	127.99	5.5886e-05	6.4214e-05	222.95	72.631	47.558	25.024	5.9537e-05	33.76	-41.678	168.619	-81.495	-164.696	-3.485	-66.328	-167.601	-159.018	-28.748	-12.643	-163.432	-159.500	-153.820	-149.382	-20.171	-154.803	-8191	255	
4632.448	1	1	0	0	0.035654	0.04354	0.18367	0.18606	0.043852	0.06152	0.22852	0.022707	0.10129	0.15246	0.035047	0.14516	0.11344	0.035872	0.085793	0.083297	-2.9938	-2.6	-3.0958	-3.2958	-2.6312	-3.4813	-3.0167	-2.3167	-3.3521	-2.8396	-3.0812	-3.2396	-2.4771	-3.4188	-2.9333	-2.8312	-91.774	-22.484	179.462	-67.306	-98.957	-85.438	165.546	64.499	-14.458	-23.054	122.505	-37.661	-58.764	160.046	-60.777	151.778	0.00051842	0.00077646	0.00015199	433.05	5.3253e-06	4.4718e-06	508.92	130.2	3.5428e-06	5.1437e-06	227.55	74.604	45.735	25.306	1.1777e-05	34.009	0.0034369	0.0056603	0.0016223	423.79	5.5548e-05	6.3598e-05	492.57	128.57	5.4347e-05	6.3103e-05	224.25	73.297	47.494	25.115	5.7154e-05	33.852	-56.004	-159.970	-103.762	-164.571	-57.199	-38.817	-167.118	-159.093	-88.258	-35.085	-163.150	-159.568	-154.530	-149.516	-7.176	-154.411	-8191	255	
4632.545	1	1	0	0	0.017218	0.05866	0.10127	0.11027	0.26465	0.24668	0.11867	0.20421	0.10827	0.18432	0.1815	0.27328	0.18316	0.11566	0.15347	0.13782	-2.9333	-2.6854	-2.9146	-3.2229	-2.7042	-3.2188	-3.125	-2.5354	-3.2938	-2.7958	-2.8729	-3.4688	-2.6583	-3.2562	-3.1083	-2.5083	126.617	64.357	126.785	94.701	155.684	-95.964	106.021	-162.472	50.174	-65.015	141.713	171.704	-120.360	104.528	23.943	49.720	0.00046072	0.00083411	9.4653e-05	435.4	6.0046e-06	5.38e-06	500.98	128.7	7.3279e-06	4.3958e-06	224.34	73.063	45.485	24.8	9.1032e-06	33.671	0.0033644	0.0054482	0.00155	422.87	5.338e-05	6.2736e-05	487.85	127.48	5.3249e-05	6.2094e-05	221.28	72.031	47.223	24.724	5.8463e-05	33.361	-38.714	-62.097	-31.642	-165.056	-104.656	20.777	-167.198	-159.326	-44.860	-73.660	-163.084	-159.148	-154.322	-149.670	-25.808	-154.566	-8191	255	
4632.663	1	1	0	0	0.1636	0.16244	0.071378	0.19065	0.18109	0.29557	0.2402	0.39725	0.10125	0.18132	0.049154	0.022071	0.29223	0.091921	0.13951	0.18541	-3.0875	-2.8125	-2.9021	-3.5146	-2.5375	-3.1604	-3.1854	-2.5583	-3.4167	-2.7896	-2.7583	-3.275	-2.7604	-2.9771	-3.2313	-2.5604	105.057	89.443	-84.973	-2.481	-137.713	31.782	99.301	48.844	79.011	-112.882	62.199	-76.329	-82.147	139.069	-0.999	40.567	0.00066193	0.00084169	0.00012689	429.93	1.1791e-05	8.0087e-07	497.73	128.27	5.7721e-06	4.0793e-06	223.4	72.409	44.881	24.784	9.8255e-06	33.316	0.0034015	0.0055204	0.0015732	418.46	5.3209e-05	6.1924e-05	483.46	126.49	5.3131e-05	6.0058e-05	220.73	71.444	46.803	24.59	5.8159e-05	33.265	-37.910	-23.830	-78.550	-164.990	36.572	120.162	-167.104	-159.027	-5.963	-72.287	-162.963	-158.760	-154.282	-149.642	-65.139	-154.172	-8191	255	
4632.760	1	1	0	0	0.23202	0.1897	0.078058	0.16629	0.08147	0.21307	0.13122	0.1253	0.16114	0.24189	0.26574	0.13582	0.12007	0.15718	0.036537	0.015178	-2.875	-2.6792	-2.5354	-3.3896	-2.5896	-3.0083	-3.3667	-2.6875	-3.2583	-3.0771	-2.7938	-3.5167	-2.7562	-2.9021	-3.3604	-2.6104	-21.716	70.021	121.165	107.905	36.214	19.748	-110.578	-130.566	-88.721	17.054	-70.979	-64.570	-66.385	163.421	-86.145	-129.880	0.00054595	0.00081183	0.00021452	428.91	3.4699e-06	3.654e-06	503.81	128.14	7.4188e-06	3.163e-06	225.96	73.141	45.439	24.736	2.1569e-06	33.763	0.0033147	0.0055185	0.001574	418.57	5.3225e-05	6.2999e-05	487.17	126.25	5.2419e-05	6.089e-05	221.27	71.847	46.752	24.752	5.6513e-05	33.492	-51.266	-161.026	-105.215	-164.733	18.787	0.492	-167.172	-159.107	115.670	91.827	-163.027	-159.133	-154.680	-149.321	-162.500	-153.990	-8191	255	
4632.856	1	1	0	0	0.18143	0.31945	0.20223	0.18666	0.20569	0.16248	0.26161	0.19971	0.028443	0.11446	0.069832	0.10275	0.09344	0.081704	0.051906	0.15676	-2.675	-2.9104	-2.5625	-3.5229	-2.8104	-2.8333	-3.2729	-2.5771	-3.1125	-3.0625	-2.6604	-3.3458	-2.7625	-2.9688	-3.5083	-2.6	22.661	-142.610	127.269	-172.317	0.125	0.085	107.149	-74.499	113.569	12.043	72.887	100.240	114.745	-137.915	146.750	164.156	0.0005657	0.00024888	7.2316e-05	430.74	5.8193e-06	2.1744e-06	502.78	128.37	1.1455e-05	3.3906e-06	226.34	73.509	45.6	24.9	7.9469e-06	33.86	0.003263	0.0055454	0.0015263	419.76	5.2522e-05	6.1716e-05	488.74	126.92	5.1666e-05	5.97e-05	222.65	72.215	47.101	24.853	5.6712e-05	33.764	-43.471	-119.966	-1.580	-165.244	-81.352	-18.431	-167.378	-159.037	-9.302	-35.576	-163.148	-159.335	-154.698	-149.839	-28.988	-154.128	-8191	255	
4632.976	1	1	0	0	0.18614	0.27704	0.11728	0.13502	0.049142	0.11439	0.15708	0.054284	0.24001	0.11623	0.25147	0.21569	0.20676	0.10846	0.1524	0.21405	-2.8438	-2.8833	-2.2604	-3.3563	-2.8937	-2.7354	-3.3833	-2.6646	-3.0854	-3.2208	-2.5542	-3.3354	-2.8812	-2.5833	-3.2979	-2.7146	120.146	26.695	113.883	167.802	-144.527	-158.538	151.300	-61.643	70.379	-125.231	-55.754	148.041	122.752	59.664	93.751	-41.389	0.00062568	0.00015828	0.00021511	429.56	5.8594e-06	2.5748e-06	506.34	128.31	3.8624e-06	7.0819e-06	225.84	72.844	45.329	24.959	8.1387e-06	33.631	0.0032424	0.0054142	0.0015149	420.19	5.2811e-05	6.2816e-05	490.27	126.44	5.1967e-05	6.1779e-05	222	71.867	47.054	24.872	5.6718e-05	33.447	-45.807	41.994	-121.604	-164.515	16.711	-80.926	-167.057	-159.040	-36.999	-28.123	-163.087	-158.818	-154.020	-149.493	-131.421	-154.698	-8191	255	
4633.048	1	1	0	0	0.20069	0.051062	0.10753	0.1215	0.21682	0.20737	0.17395	0.20114	0.15049	0.39272	0.19056	0.27396	0.04082	0.16545	0.24245	0.070366	-2.7188	-3.1542	-2.4313	-3.4208	-2.8771	-2.5458	-3.5687	-2.7687	-2.8646	-3.2604	-2.6167	-3.2438	-3.1333	-2.6979	-3.2146	-2.8771	-141.706	-1.917	70.620	-118.288	-3.006	-90.988	-146.903	91.869	-130.621	6.545	146.920	-129.641	-39.024	137.311	-95.479	126.910	0.00066978	0.00031176	0.00021849	429.81	9.4915e-06	3.4797e-06	500.61	129.8	5.6794e-06	5.6559e-06	225.45	73.65	46.15	25.144	1.1556e-06	34.079	0.0033095	0.0055589	0.0015585	420.34	5.3437e-05	6.4757e-05	486.75	127.56	5.4478e-05	6.2725e-05	221.59	72.523	47.56	25.063	5.7172e-05	33.775	-43.719	-94.967	-97.076	-164.867	-51.873	-37.137	-167.498	-158.839	-36.589	-64.070	-163.368	-159.320	-155.071	-149.662	55.895	-154.458	-8191	255	
4633.144	1	1	0	0	0.090875	0.072496	0.021652	0.20113	0.19355	0.2594	0.020972	0.21286	0.22598	0.10868	0.10008	0.20176	0.062483	0.14151	0.21013	0.18368	-2.4604	-3.3937	-2.6188	-3.1396	-3.1875	-2.7125	-3.3083	-2.8271	-2.8396	-3.3375	-2.675	-3.1521	-2.9604	-2.6479	-3.4667	-2.8229	-118.186	74.137	-141.059	-156.269	77.329	-54.095	25.810	-37.506	46.304	-149.235	-105.973	106.928	-135.430	-27.280	-122.238	146.012	0.00068445	0.00076753	0.00028979	434.57	2.8546e-06	4.8803e-06	505.14	130.53	3.9949e-06	7.0755e-06	227.84	75.219	45.817	25.483	1.0666e-05	34.237	0.003387	0.0055671	0.0015575	423.97	5.3424e-05	6.3178e-05	490.27	127.5	5.3383e-05	6.1212e-05	224.21	73.442	47.677	25.296	5.5019e-05	34.007	-27.834	130.526	-115.472	-164.822	-12.763	75.990	-167.004	-158.964	3.831	-45.010	-163.200	-158.875	-154.481	-149.448	-14.518	-154.275	-8191	255	
4633.265	1	1	0	0	0.27658	0.24599	0.021212	0.30619	0.28201	0.074596	0.21484	0.16088	0.18931	0.25448	0.04556	0.12186	0.1752	0.12186	0.087642	0.22123	-2.5104	-3.3937	-2.5104	-3.1479	-3.3104	-2.7542	-3.4958	-2.9062	-2.7708	-3.55	-2.8125	-3.1562	-3.1604	-2.6458	-3.3646	-3.0104	-174.195	15.000	145.198	-16.183	-109.743	94.182	60.619	89.586	-92.433	-18.597	32.310	112.240	25.396	-122.689	27.479	87.254	0.00056869	0.000461	8.4353e-05	442.2	8.0921e-06	4.6357e-06	516.14	132.68	5.6444e-06	5.479e-06	234.71	77.223	47.301	25.489	8.0056e-06	34.713	0.0031927	0.0051978	0.0014318	430	4.973e-05	5.9833e-05	496.59	130.72	4.8974e-05	5.7064e-05	228.5	75.143	48.078	25.392	5.0628e-05	34.305	-37.510	-24.765	88.987	-164.772	-76.881	-14.169	-167.266	-159.193	139.908	-47.655	-163.175	-158.988	-154.579	-149.550	39.374	-154.654	-8191	255	
4633.361	1	1	0	0	0.14236	0.21016	0.10097	0.14972	0.05223	0.21866	0.11518	0.17362	0.031748	0.034701	0.084132	0.27904	0.092472	0.18576	0.16557	0.013334	-2.3187	-3.225	-2.7667	-2.95	-3.2375	-2.4875	-3.0917	-3.0125	-2.8104	-3.3896	-2.6813	-2.8292	-3.3375	-2.4396	-3.2104	-3.1125	154.328	-49.305	181.271	44.651	180.957	-154.576	0.384	123.634	-130.670	-121.838	-166.869	-153.374	-159.898	116.012	-115.272	-169.355	0.00057486	0.00015921	0.00017724	446.49	1.2658e-05	2.2538e-06	517.7	136.1	9.6794e-06	6.3956e-06	237.06	77.765	48.145	25.655	5.1254e-06	34.622	0.003022	0.0049661	0.0013429	433.12	4.6451e-05	5.4059e-05	500.28	132.38	4.6929e-05	5.382e-05	230.49	75.631	48.457	25.402	4.7087e-05	33.898	-54.535	-59.569	-57.532	-164.816	-45.043	75.696	-167.335	-159.445	27.280	-53.904	-162.899	-159.021	-154.454	-149.652	8.124	-154.642	-8191	255	
4633.455	1	1	0	0	0.23898	0.20239	0.23401	0.17376	0.40371	0.20541	0.076851	0.22833	0.22323	0.075726	0.01918	0.073214	0.087382	0.12431	0.22985	0.074949	-2.125	-3.2583	-2.6125	-2.8375	-3.3625	-2.775	-3.1292	-3.1771	-2.4854	-3.3146	-2.9083	-2.7208	-3.6646	-2.5292	-3.0292	-3.3979	-18.172	-123.659	-175.783	108.039	38.550	-57.608	-136.074	155.872	-127.996	36.339	60.061	-159.788	144.836	-15.462	171.204	89.864	0.00057519	0.00055231	0.00023285	453.15	9.2304e-06	2.7801e-06	527.76	137.96	8.2765e-06	7.1238e-06	242.68	80.248	47.949	25.375	3.9641e-06	34.821	0.0027716	0.004335	0.0012195	438.42	4.2387e-05	5.0251e-05	506.99	134.32	4.2618e-05	4.9369e-05	235.86	77.225	48.535	25.241	4.4046e-05	34.166	-30.402	-58.273	-109.279	-164.746	-70.928	66.736	-166.532	-159.047	7.733	23.397	-163.274	-159.091	-154.572	-149.298	-13.899	-154.355	-8191	255	
4633.576	1	1	0	0	0.18897	0.2704	0.16227	0.16305	0.1111	0.089066	0.288	0.19479	0.37855	0.10082	0.23278	0.29588	0.11036	0.12565	0.25253	0.16761	-2.1542	-3.225	-2.7812	-2.5417	-3.5	-2.7562	-2.9708	-3.3083	-2.5396	-3.2417	-3.0167	-2.7479	-3.4333	-2.8646	-2.8729	-3.2188	71.189	-38.392	32.179	108.218	157.542	72.245	-85.139	58.285	64.633	-6.556	81.939	162.021	138.815	106.002	109.316	-121.670	0.00056051	0.00052147	0.00020578	463.96	5.402e-06	6.6232e-06	545.04	138.84	5.1463e-06	9.2905e-06	251.14	82.928	49.093	25.784	1.4955e-06	35.505	0.0026155	0.0040905	0.0011459	446.1	4.0189e-05	4.6034e-05	521.06	135.61	3.9063e-05	4.4329e-05	243.25	79.882	49.182	25.477	4.104e-05	34.811	-44.914	-87.270	139.021	-165.076	-127.749	-3.236	-167.064	-159.122	-14.510	-68.392	-163.467	-158.792	-154.183	-149.626	-53.149	-154.157	-8191	255	
4633.672	1	1	0	0	0.25154	0.15656	0.10967	0.15311	0.21147	0.18022	0.22899	0.063435	0.12405	0.14401	0.21949	0.22623	0.16814	0.0065202	0.17665	0.14621	-2.2208	-3.0375	-2.875	-2.6479	-3.4313	-2.5646	-2.8271	-3.2083	-2.5438	-3.1125	-3	-2.6208	-3.3729	-2.7104	-2.6729	-3.35	118.332	12.586	50.803	-175.694	-80.835	-103.997	115.956	59.152	-40.719	-61.101	141.406	159.462	180.929	69.824	-20.817	-149.192	0.00053849	0.00035189	6.5655e-05	467.48	1.0338e-05	3.9282e-06	553.59	141.68	7.1779e-06	4.6116e-06	258.37	84.53	50.042	26.072	1.1959e-05	36.208	0.0025043	0.0039369	0.0011096	450.85	3.8367e-05	4.4847e-05	530.87	137.86	3.845e-05	4.4862e-05	248.83	82.088	50.163	25.884	4.4073e-05	35.617	-42.075	-102.011	10.116	-165.183	47.218	127.175	-167.131	-159.258	-24.463	4.118	-163.725	-158.990	-154.250	-149.731	-55.630	-154.667	-8191	255	
4633.744	1	1	0	0	0.11396	0.20927	0.14586	0.055786	0.25568	0.10331	0.11659	0.10051	0.095362	0.22203	0.22085	0.13455	0.16848	0.17305	0.27979	0.1756	-2.1063	-3.0646	-3.1875	-2.6521	-3.0979	-2.9104	-2.7604	-3.5646	-2.5208	-3.2313	-3.0917	-2.5229	-3.2104	-2.8979	-2.5292	-3.575	-172.306	46.871	32.840	158.412	9.790	-110.814	4.501	26.466	-75.501	55.642	111.688	-34.580	-123.044	96.722	170.913	106.648	0.00066228	0.00042896	9.3379e-05	471.22	5.0314e-06	3.8985e-06	560.03	145.4	1.0403e-05	6.9425e-07	257.82	85.674	50.84	27.207	3.4958e-06	36.667	0.0025971	0.0041414	0.0011501	455.77	4.0275e-05	4.7977e-05	535.25	140.61	4.0612e-05	4.8323e-05	251.24	83.281	51.461	26.744	4.6084e-05	36.037	-37.518	-30.533	-117.012	-164.681	-145.277	-131.337	-167.110	-159.083	17.297	170.736	-163.996	-159.109	-154.322	-150.010	43.987	-154.383	-8191	255	
4633.840	1	1	0	0	0.10069	0.1554	0.085163	0.11089	0.31975	0.1147	0.048596	0.02909	0.094855	0.094006	0.024744	0.023231	0.074797	0.25293	0.21683	0.11297	-2.2125	-2.9437	-3.3458	-2.5604	-3.1458	-3.0938	-2.8375	-3.4333	-2.6813	-2.9562	-3.2812	-2.6396	-3.1542	-2.9813	-2.6083	-3.2812	135.068	-72.088	129.993	51.263	-84.889	-71.878	-6.364	153.917	-80.162	-172.169	100.609	-68.767	156.929	105.707	-49.434	-79.931	0.00057693	0.00061643	0.00010606	477.5	1.1611e-05	8.3501e-06	554.57	146.4	2.2215e-06	7.5364e-06	258.18	85.427	50.976	26.775	5.3071e-06	36.38	0.0027201	0.0044451	0.0012647	460.73	4.3907e-05	5.1904e-05	533.44	142.01	4.3937e-05	5.3691e-05	250.31	82.827	51.456	26.717	5.0025e-05	36	-39.039	-98.992	-45.999	-164.543	27.285	-59.016	-167.256	-159.310	176.797	56.721	-163.271	-159.051	-154.616	-149.670	-151.633	-154.710	-8191	255	
4633.961	1	1	0	0	0.026721	0.046149	0.14296	0.103	0.31978	0.19047	0.048498	0.11599	0.061101	0.072942	0.26794	0.032929	0.065927	0.28336	0.11837	0.14433	-2.4667	-2.7687	-3.2854	-2.6125	-3.1375	-3.1875	-2.525	-3.2854	-2.7958	-2.8917	-3.2583	-2.6167	-3.0375	-3.1396	-2.6125	-3.2667	117.886	-29.528	55.376	82.518	38.908	-56.385	-52.505	-48.580	169.106	-92.379	-174.198	155.569	-40.530	-154.857	111.235	49.281	0.00050543	0.00056202	0.00012735	478.06	5.4151e-07	1.1627e-05	556.62	145.07	5.369e-06	9.8822e-06	258.05	86.219	50.71	26.987	4.7932e-06	36.988	0.0029057	0.0048027	0.0013349	461.74	4.519e-05	5.2874e-05	534.9	141.49	4.5655e-05	5.2097e-05	252.03	83.42	51.617	26.654	4.8838e-05	36.119	-32.920	-147.788	-109.486	-165.146	106.602	8.778	-167.097	-159.184	-34.430	-13.320	-163.926	-158.875	-154.087	-149.376	-163.036	-154.563	-8191	255	
4634.057	1	1	0	0	0.22295	0.055161	0.10155	0.096047	0.20033	0.27878	0.08833	0.13926	0.30516	0.19087	0.13114	0.11609	0.13569	0.13886	0.21781	0.13397	-2.3479	-2.6292	-3.35	-2.7042	-3.025	-3.1021	-2.6833	-3.2458	-2.9542	-2.7896	-3.4146	-2.6437	-2.8875	-3.1646	-2.3563	-3.375	-147.964	120.177	121.223	117.410	-146.825	29.445	19.701	-111.986	151.798	24.931	147.909	-125.487	164.583	173.722	149.438	181.127	0.00053507	0.00068896	5.7537e-05	478.04	4.4771e-06	3.4442e-06	561	144.64	2.2427e-06	6.3459e-06	260.81	85.559	51.013	27.14	3.9119e-06	36.985	0.0028388	0.0046066	0.0013069	460.72	4.5894e-05	5.2187e-05	537.76	141.16	4.497e-05	5.3039e-05	253.36	83.514	51.75	26.742	4.9881e-05	36.339	-42.768	-4.213	-80.479	-165.195	31.575	-0.703	-167.222	-159.051	-116.358	-74.618	-163.512	-159.265	-153.674	-149.637	5.793	-154.293	-8191	255	
4634.153	1	1	0	0	0.08779	0.22267	0.22229	0.21148	0.17836	0.084505	0.10288	0.16555	0.083315	0.16207	0.16308	0.1753	0.14814	0.12338	0.27234	0.16157	-2.5792	-2.525	-3.3854	-2.6646	-2.8104	-3.5125	-2.6542	-3.1729	-3.0125	-2.7125	-3.2417	-2.9042	-2.8458	-3.3021	-2.6167	-3.175	-123.268	-17.881	50.452	-146.851	147.423	10.123	-50.166	142.653	-74.752	143.261	178.069	176.452	120.957	-130.371	-22.316	165.912	0.00054627	0.00029611	0.00018206	475.35	6.4313e-06	4.6438e-06	553.77	143.93	5.3222e-06	3.9901e-06	256.4	83.594	49.688	26.615	6.2764e-06	35.754	0.0029068	0.0047944	0.0013394	459.29	4.7134e-05	5.5513e-05	533.57	140.48	4.7157e-05	5.5548e-05	248.79	81.493	50.852	26.246	5.3432e-05	35.447	-45.402	-56.143	-97.579	-165.399	-38.087	-117.608	-167.106	-159.443	-28.166	138.987	-163.547	-159.507	-154.598	-149.473	-19.480	-154.016	-8191	255	
4634.249	1	1	0	0	0.098559	0.043549	0.19466	0.22285	0.14776	0.046897	0.070088	0.18635	0.14292	0.15261	0.17041	0.32714	0.21006	0.14555	0.012414	0.0065389	-2.5958	-2.4396	-3.2208	-2.7417	-2.6	-3.3833	-2.3792	-3.1583	-3.1583	-2.4417	-3.2375	-2.7354	-2.675	-3.5062	-2.6167	-3.0729	-91.439	145.899	164.918	182.034	-92.669	-91.643	-34.733	-53.364	-61.723	5.784	46.589	154.235	-81.199	6.031	-129.316	-15.263	0.00057821	0.00032521	0.00014177	462.08	7.5975e-06	5.5293e-06	541.19	136.24	9.7657e-06	1.0363e-05	245.98	78.889	47.916	25.559	4.5714e-06	34.789	0.0031357	0.0052243	0.0014681	447.59	5.2318e-05	6.1103e-05	520.51	133.67	5.3676e-05	6.1942e-05	240.44	77.501	49.665	25.496	5.8967e-05	34.588	-41.781	39.757	-99.547	-165.028	0.870	132.629	-166.789	-159.077	17.607	-90.962	-163.135	-158.750	-154.278	-149.571	-33.367	-154.177	-8191	255	
4634.345	1	1	0	0	0.15233	0.28631	0.095956	0.42375	0.23933	0.24451	0.15951	0.25984	0.1174	0.18389	0.065557	0.078347	0.099819	0.22711	0.19453	0.1133	-2.6729	-2.525	-3.1063	-2.8021	-2.6375	-3.4667	-2.5271	-3.0979	-3.2396	-2.5604	-3.1	-3.0646	-2.4729	-3.3208	-2.6292	-3.0479	-44.280	-172.084	-106.386	-160.219	-67.585	46.774	141.595	80.781	162.042	167.327	35.505	-73.906	125.499	-58.806	-63.477	176.770	0.00044553	0.0003615	0.00013915	447.71	1.449e-05	5.7743e-06	532.11	133.81	7.1992e-06	4.5177e-06	241.34	76.622	47.722	25.166	7.0894e-06	34.798	0.0035065	0.0057377	0.0016274	435.18	5.7025e-05	6.5557e-05	514.84	131.13	5.6554e-05	6.6389e-05	237.01	75.83	49.064	25.294	5.9967e-05	34.649	-28.910	-20.089	81.277	-164.663	-28.702	53.272	-167.527	-158.977	-25.220	119.408	-163.067	-158.861	-154.464	-149.511	-49.224	-153.944	-8191	255	
4634.441	1	1	0	0	0.098155	0.074255	0.083396	0.14537	0.1474	0.22757	0.11301	0.18532	0.27464	0.12929	0.16798	0.23204	0.27183	0.081288	0.034611	0.18536	-2.8063	-2.5062	-3.1708	-2.8854	-2.6583	-3.3458	-2.6833	-2.8667	-3.3354	-2.475	-3.2562	-3.1292	-2.5125	-3.3292	-2.9146	-2.8875	-80.953	24.095	-129.721	84.749	93.003	69.034	12.556	69.078	79.846	96.566	155.648	-26.853	-132.064	-101.996	106.692	25.727	0.00046244	0.00057722	5.1508e-05	444.21	7.8868e-06	7.3703e-06	530.34	131.74	1.4742e-06	2.5315e-06	242.35	77.123	47.812	25.473	2.7251e-06	34.889	0.0036506	0.0059638	0.0016666	433.28	5.8466e-05	6.8856e-05	515.59	131.09	5.9205e-05	6.7692e-05	238.54	76.059	49.601	25.435	6.4767e-05	34.769	-44.619	-16.711	-16.484	-164.852	-103.455	-153.588	-167.249	-158.775	-35.535	-78.604	-162.927	-159.119	-154.090	-149.627	174.899	-154.401	-8191	255	
4634.537	1	1	0	0	0.24303	0.19779	0.35623	0.35991	0.22298	0.10355	0.28948	0.2959	0.095869	0.10156	0.34895	0.093308	0.13178	0.14106	0.18198	0.1568	-3.0375	-2.5208	-3.0729	-3.0062	-2.4292	-3.475	-2.9146	-2.7208	-3.2208	-2.4625	-3.1792	-3.2542	-2.4396	-3.2354	-2.8833	-2.6188	32.465	113.653	-126.778	50.590	161.698	-176.241	65.676	176.006	-54.807	-149.019	167.678	-85.432	-123.779	80.972	43.430	110.290	0.00064587	0.0010694	0.00015669	440.76	1.2818e-05	9.7289e-06	528.66	132.29	8.8942e-06	9.117e-06	240.04	75.892	47.34	25.114	8.0392e-06	34.278	0.0038466	0.0062863	0.0017428	432.79	6.2098e-05	7.3416e-05	514.26	131.16	6.2417e-05	7.2082e-05	236.24	74.686	49.843	25.117	6.9048e-05	34.311	-32.781	-51.214	-108.028	-165.069	-33.799	119.629	-167.138	-158.765	-69.380	-63.036	-163.146	-158.500	-153.460	-149.494	8.089	-154.023	-8191	255	
4634.656	1	1	0	0	0.185	0.31497	0.12361	0.075252	0.14917	0.094607	0.20936	0.18212	0.16921	0.18859	0.20013	0.25258	0.28472	0.093088	0.23717	0.19107	-2.9917	-2.6813	-2.8667	-3.2396	-2.4896	-3.1271	-2.8833	-2.6021	-3.2812	-2.65	-2.7875	-3.2146	-2.4083	-3.2687	-3.0208	-2.4396	-161.266	160.678	-41.609	130.616	-27.663	-80.499	-4.539	148.958	145.538	23.106	167.113	135.992	98.574	175.563	118.558	95.602	0.00048594	0.00019111	6.9511e-05	436.95	3.6964e-06	4.7149e-06	525.23	131.46	3.0155e-06	4.9202e-06	239.71	75.793	47.531	24.946	1.7661e-06	34.199	0.0039723	0.0065322	0.0018743	430.11	6.4571e-05	7.5019e-05	513.12	130.85	6.4417e-05	7.5871e-05	235.26	74.811	49.905	25.091	7.0773e-05	34.396	-49.985	136.722	52.573	-164.806	-121.103	44.753	-167.000	-158.777	66.538	-23.321	-163.210	-158.849	-154.641	-149.342	-93.680	-154.386	-8191	255	
4634.752	1	1	0	0	0.20434	0.10789	0.11137	0.17437	0.047192	0.21864	0.29012	0.070508	0.07493	0.052225	0.091552	0.1863	0.18955	0.1476	0.078666	0.23169	-2.9	-2.6417	-2.8271	-3.1833	-2.5146	-3.1	-3.1604	-2.5812	-3.3375	-2.8292	-2.7917	-3.3417	-2.4229	-3.0667	-2.9854	-2.4604	-116.903	127.299	107.351	111.162	-166.588	-54.465	79.899	-106.944	-31.126	75.560	-99.836	-90.092	-118.485	64.041	-107.648	155.083	0.00045823	0.00027023	7.5831e-05	437.33	4.2504e-06	8.547e-06	528.07	131.27	6.0132e-06	6.0289e-06	240.46	76.074	47.175	25.19	3.5982e-06	34.73	0.0041293	0.0068328	0.0019309	430.03	6.5723e-05	7.5839e-05	515.48	130.66	6.4626e-05	7.5974e-05	237.31	75.161	49.935	25.275	7.0334e-05	34.762	-63.272	-113.229	-30.594	-164.406	-138.782	-73.581	-167.123	-158.659	19.456	100.013	-163.342	-159.086	-154.380	-148.970	-18.827	-154.107	-8191	255	
#DATA ENDS
