BOXY.EXE: ISS Imagent and Oximeter Data Acquisition Program Version 0.80
Ascii Record File

#ACQ INFORMATION
2  Detector Channels 
16  External MUX Channels 
1  Auxiliary Channels 
5000  Waveform (CCF) Frequency (Hz)
1  Waveforms Skipped 
30  Waveforms Averaged 
1  Cycles Averaged 
16  Acquisitions per Waveform 
10.0806  Updata Rate (Hz) 

#FILE INFORMATION
TRUE -- External MUX Channel results are PARSED.
FALSE -- AC DC and Phase are NOT grouped.
TRUE -- Companion Program Settings File CREATED.
FALSE -- AC data not excluded
FALSE -- DC data not excluded
FALSE -- Phase data not excluded
FALSE -- Auxillary Chn. data not excluded
Tab delimiters

#CALIBRATION STATE
TRUE -- Waveform Calibration Values APPLIED.


#AUX CALIBRATION VALUES
Val Type	aux-1	

Term	1.0000e+00	
Factor	0.0000e+00	


#WF CALIBRATION VALUES
A = Detector Channel
Val Type	A-AC1	A-AC2	A-AC3	A-AC4	A-AC5	A-AC6	A-AC7	A-AC8	A-AC9	A-AC10	A-AC11	A-AC12	A-AC13	A-AC14	A-AC15	A-AC16	A-DC1	A-DC2	A-DC3	A-DC4	A-DC5	A-DC6	A-DC7	A-DC8	A-DC9	A-DC10	A-DC11	A-DC12	A-DC13	A-DC14	A-DC15	A-DC16	A-Ph1	A-Ph2	A-Ph3	A-Ph4	A-Ph5	A-Ph6	A-Ph7	A-Ph8	A-Ph9	A-Ph10	A-Ph11	A-Ph12	A-Ph13	A-Ph14	A-Ph15	A-Ph16	

Term	0.00000e+00	0.00000e+00	0.00000e+00	0.00000e+00	0.00000e+00	0.00000e+00	0.00000e+00	0.00000e+00	0.00000e+00	0.00000e+00	0.00000e+00	0.00000e+00	0.00000e+00	0.00000e+00	0.00000e+00	0.00000e+00	0.00000e+00	0.00000e+00	0.00000e+00	0.00000e+00	0.00000e+00	0.00000e+00	0.00000e+00	0.00000e+00	0.00000e+00	0.00000e+00	0.00000e+00	0.00000e+00	0.00000e+00	0.00000e+00	0.00000e+00	0.00000e+00	0.00000e+00	0.00000e+00	0.00000e+00	0.00000e+00	0.00000e+00	0.00000e+00	0.00000e+00	0.00000e+00	0.00000e+00	0.00000e+00	0.00000e+00	0.00000e+00	0.00000e+00	0.00000e+00	0.00000e+00	0.00000e+00	
Factor	1.00000e+00	1.00000e+00	1.00000e+00	1.00000e+00	1.00000e+00	1.00000e+00	1.00000e+00	1.00000e+00	1.00000e+00	1.00000e+00	1.00000e+00	1.00000e+00	1.00000e+00	1.00000e+00	1.00000e+00	1.00000e+00	1.00000e+00	1.00000e+00	1.00000e+00	1.00000e+00	1.00000e+00	1.00000e+00	1.00000e+00	1.00000e+00	1.00000e+00	1.00000e+00	1.00000e+00	1.00000e+00	1.00000e+00	1.00000e+00	1.00000e+00	1.00000e+00	X	X	X	X	X	X	X	X	X	X	X	X	X	X	X	X	

B = Detector Channel
Val Type	B-AC1	B-AC2	B-AC3	B-AC4	B-AC5	B-AC6	B-AC7	B-AC8	B-AC9	B-AC10	B-AC11	B-AC12	B-AC13	B-AC14	B-AC15	B-AC16	B-DC1	B-DC2	B-DC3	B-DC4	B-DC5	B-DC6	B-DC7	B-DC8	B-DC9	B-DC10	B-DC11	B-DC12	B-DC13	B-DC14	B-DC15	B-DC16	B-Ph1	B-Ph2	B-Ph3	B-Ph4	B-Ph5	B-Ph6	B-Ph7	B-Ph8	B-Ph9	B-Ph10	B-Ph11	B-Ph12	B-Ph13	B-Ph14	B-Ph15	B-Ph16	

Term	0.00000e+00	0.00000e+00	0.00000e+00	0.00000e+00	0.00000e+00	0.00000e+00	0.00000e+00	0.00000e+00	0.00000e+00	0.00000e+00	0.00000e+00	0.00000e+00	0.00000e+00	0.00000e+00	0.00000e+00	0.00000e+00	0.00000e+00	0.00000e+00	0.00000e+00	0.00000e+00	0.00000e+00	0.00000e+00	0.00000e+00	0.00000e+00	0.00000e+00	0.00000e+00	0.00000e+00	0.00000e+00	0.00000e+00	0.00000e+00	0.00000e+00	0.00000e+00	-8.69914e+00	-1.27636e+02	-1.26579e+02	-1.81887e+02	-5.43741e+01	-6.80890e+01	-1.57669e+02	-1.62015e+02	-3.26815e+01	-6.62177e+01	-1.72231e+02	-1.69913e+02	-1.80444e+02	-1.76573e+02	-5.52496e+01	-1.49179e+02	
Factor	3.53343e-05	1.72379e-04	5.09740e-05	1.64140e-01	2.14399e-06	1.74113e-06	1.89180e-01	5.70625e-02	2.23709e-06	1.85859e-06	9.95569e-02	3.28311e-02	4.44292e-02	9.93343e-03	2.12406e-06	1.45167e-02	1.70138e-05	2.97382e-05	8.36903e-06	8.38226e-02	2.87917e-07	3.39007e-07	9.04686e-02	2.91930e-02	2.86657e-07	3.34529e-07	4.92895e-02	1.63091e-02	2.28853e-02	5.14651e-03	3.07838e-07	7.27220e-03	X	X	X	X	X	X	X	X	X	X	X	X	X	X	X	X	



#DISTANCE SETTINGS
A = Detector Channel
A-1	A-2	A-3	A-4	A-5	A-6	A-7	A-8	A-9	A-10	A-11	A-12	A-13	A-14	A-15	A-16	

2.5000e+00	3.0000e+00	2.5000e+00	3.0000e+00	2.0000e+00	3.0000e+00	1.5000e+00	3.0000e+00	3.0000e+00	3.0000e+00	3.0000e+00	3.0000e+00	3.0000e+00	3.0000e+00	1.5000e+00	3.0000e+00	

B = Detector Channel
B-1	B-2	B-3	B-4	B-5	B-6	B-7	B-8	B-9	B-10	B-11	B-12	B-13	B-14	B-15	B-16	

1.0000e+01	1.0000e+01	1.0000e+01	1.4400e+00	1.0000e+01	1.0000e+01	1.5100e+00	1.9400e+00	1.0000e+01	1.0000e+01	1.9900e+00	2.4900e+00	2.4100e+00	2.9000e+00	1.0000e+01	2.9800e+00	




#DATA BEGINS
time	group	step	mark	flag	A-AC1	A-AC2	A-AC3	A-AC4	A-AC5	A-AC6	A-AC7	A-AC8	A-AC9	A-AC10	A-AC11	A-AC12	A-AC13	A-AC14	A-AC15	A-AC16	A-DC1	A-DC2	A-DC3	A-DC4	A-DC5	A-DC6	A-DC7	A-DC8	A-DC9	A-DC10	A-DC11	A-DC12	A-DC13	A-DC14	A-DC15	A-DC16	A-Ph1	A-Ph2	A-Ph3	A-Ph4	A-Ph5	A-Ph6	A-Ph7	A-Ph8	A-Ph9	A-Ph10	A-Ph11	A-Ph12	A-Ph13	A-Ph14	A-Ph15	A-Ph16	B-AC1	B-AC2	B-AC3	B-AC4	B-AC5	B-AC6	B-AC7	B-AC8	B-AC9	B-AC10	B-AC11	B-AC12	B-AC13	B-AC14	B-AC15	B-AC16	B-DC1	B-DC2	B-DC3	B-DC4	B-DC5	B-DC6	B-DC7	B-DC8	B-DC9	B-DC10	B-DC11	B-DC12	B-DC13	B-DC14	B-DC15	B-DC16	B-Ph1	B-Ph2	B-Ph3	B-Ph4	B-Ph5	B-Ph6	B-Ph7	B-Ph8	B-Ph9	B-Ph10	B-Ph11	B-Ph12	B-Ph13	B-Ph14	B-Ph15	B-Ph16	aux-1	digaux	

3375.854	1	1	0	256	0.13942	0.053685	0.15576	0.26922	0.24471	0.04355	0.25812	0.1394	0.19457	0.2183	0.13521	0.093793	0.11733	0.1159	0.069155	0.19672	-2.3146	-2.6021	-3.3	-2.8021	-3.0917	-3.2333	-2.4604	-3.2812	-2.8104	-2.5646	-3.5438	-2.525	-2.9437	-3.3354	-2.3958	-3.2979	200.612	206.518	115.861	-96.630	177.665	234.476	194.214	144.135	-75.937	119.989	-28.113	236.002	-42.162	182.483	170.683	174.039	0.00016141	0.0002924	7.4563e-05	1076.9	2.6067e-06	2.9352e-06	1167.5	223.79	1.4591e-06	1.1246e-06	281.13	78.001	62.481	18.219	3.8711e-06	25.654	0.00030572	0.00036305	9.2774e-05	1060.6	3.9811e-06	3.6125e-06	1150	221.54	3.7964e-06	3.806e-06	279.1	78.693	62.551	18.462	3.9493e-06	25.856	-42.171	-34.530	-4.212	-90.966	52.014	64.788	-91.000	-83.584	100.990	81.236	-83.737	-76.603	-76.607	-69.609	71.413	-70.050	-8191	255	
3375.975	1	1	0	0	0.22302	0.32182	0.26309	0.13423	0.19094	0.068177	0.277	0.25059	0.36027	0.31947	0.092841	0.1709	0.11022	0.13193	0.14434	0.062285	-2.5458	-2.4688	-3.275	-2.7667	-2.9854	-3.1292	-2.5917	-3.2979	-2.8271	-2.6604	-3.4292	-2.7021	-2.8312	-3.3542	-2.4208	-3.1229	26.486	151.169	-50.182	240.215	39.720	163.909	116.304	108.914	13.806	147.735	-55.307	209.910	-31.600	253.529	-31.898	46.962	0.00014441	0.00023849	9.6121e-05	1074.5	2.2402e-06	3.3637e-06	1170.1	222.77	2.7429e-06	3.6225e-06	280.41	77.911	61.821	18.233	2.2632e-06	25.498	0.00031249	0.00035946	9.5355e-05	1060.6	4.2132e-06	4.0151e-06	1151.1	221.43	3.8955e-06	4.1935e-06	280.02	78.603	62.375	18.523	3.9974e-06	25.849	-51.751	1.534	7.792	-90.934	29.652	72.447	-90.742	-83.418	38.849	53.158	-83.641	-77.038	-76.252	-69.099	52.094	-69.726	-8191	255	
3376.071	1	1	0	0	0.041257	0.1013	0.15975	0.27344	0.26515	0.24707	0.1626	0.19765	0.17229	0.13111	0.06705	0.28453	0.26628	0.15069	0.13135	0.1713	-2.7958	-2.4188	-3.3208	-2.7646	-2.6896	-3.1854	-2.5938	-3.15	-3.1979	-2.5625	-3.3604	-2.6521	-2.7042	-3.2875	-2.5354	-3.1958	-22.971	-37.747	-47.392	210.124	43.091	170.382	242.836	226.367	215.057	218.766	0.142	36.070	236.253	-68.111	214.263	-92.253	0.00017506	0.00038301	7.0893e-05	1077.6	2.1768e-06	3.0669e-06	1162.4	222.95	1.3936e-06	2.4709e-06	281.34	78.03	62.168	18.255	4.7319e-06	25.338	0.00030589	0.00035562	9.8197e-05	1061.2	4.119e-06	3.7121e-06	1147.7	221.89	3.8113e-06	3.7642e-06	279.74	78.663	62.38	18.496	3.755e-06	25.816	-49.770	-49.406	5.629	-91.352	43.461	31.730	-91.123	-83.527	18.678	50.131	-83.634	-76.905	-76.208	-69.164	64.082	-70.084	-8191	255	
3376.142	1	1	0	0	0.047226	0.14975	0.054927	0.11517	0.10595	0.12895	0.046177	0.26776	0.1021	0.10885	0.15213	0.37604	0.15725	0.098616	0.077755	0.34178	-3.0167	-2.4938	-3.3104	-2.9104	-2.525	-3.3167	-2.6167	-3.1042	-3.1271	-2.4583	-3.1646	-2.7542	-2.5646	-3.3875	-2.5396	-2.8375	5.222	114.886	129.027	236.463	184.100	134.705	173.610	94.621	197.647	238.825	35.543	-19.435	75.898	119.779	35.279	-93.437	0.00015407	0.00036767	7.1511e-05	1080.4	2.4659e-06	3.2426e-06	1168.8	222.35	2.0355e-06	2.1606e-06	279.95	78.041	62.079	18.262	3.8038e-06	25.418	0.00029884	0.00035122	9.6139e-05	1061.5	3.9817e-06	3.6909e-06	1151.2	221.57	3.7982e-06	3.8032e-06	279.89	78.671	62.43	18.51	4.0263e-06	25.82	-45.428	-2.348	-9.685	-91.144	28.231	45.830	-91.252	-83.451	63.113	31.706	-83.675	-76.914	-76.571	-69.113	49.603	-70.105	-8191	255	
3376.263	1	1	0	0	0.23172	0.20117	0.12446	0.093539	0.24896	0.1043	0.13722	0.068164	0.26257	0.19788	0.19085	0.18224	0.075084	0.26453	0.07497	0.05429	-2.9146	-2.3771	-3.0604	-3.0438	-2.5833	-3.3312	-2.7958	-2.975	-3.3937	-2.5083	-3.2375	-3.0042	-2.425	-3.1562	-2.8771	-2.5792	-65.699	54.993	127.226	142.951	204.270	222.840	176.462	-53.020	50.449	108.341	229.061	241.715	152.075	-9.186	155.784	63.080	0.0001509	0.00037799	9.492e-05	1080.7	1.0263e-06	1.3659e-06	1159.3	222.07	1.6185e-06	2.5815e-06	281.16	77.386	61.908	18.296	2.992e-06	25.555	0.00029317	0.0003765	9.45e-05	1061.6	4.1238e-06	3.6796e-06	1148.6	221.15	3.7881e-06	4.2165e-06	279.7	78.548	62.284	18.503	3.8621e-06	25.882	-51.794	9.293	-22.349	-91.110	68.995	44.928	-91.091	-83.143	74.059	38.341	-83.576	-77.231	-76.303	-69.006	102.829	-70.077	-8191	255	
3376.359	1	1	0	0	0.12808	0.16925	0.050491	0.24177	0.19757	0.031688	0.36584	0.1146	0.12748	0.01508	0.16689	0.30363	0.091673	0.22116	0.23361	0.038663	-2.9417	-2.3958	-3.1771	-3.1813	-2.3854	-3.2646	-2.6771	-2.7479	-3.3479	-2.5	-2.9938	-3.3563	-2.5625	-3.3729	-2.8563	-2.6542	-60.179	-79.224	-57.390	-59.870	54.287	229.545	238.422	202.599	178.960	69.095	207.887	-89.366	129.454	111.896	-44.140	149.608	0.0001289	0.0004294	0.00013532	1077.9	1.8157e-06	1.9717e-06	1169.3	222.07	2.2567e-06	2.0463e-06	281.79	78.021	62.295	18.254	2.3317e-06	25.384	0.00029097	0.00036943	9.668e-05	1063.1	4.2252e-06	3.7757e-06	1151.8	220.9	3.5098e-06	4.1342e-06	280.09	78.663	62.359	18.5	3.8172e-06	25.863	-50.686	-12.238	-9.112	-91.386	69.175	51.013	-91.097	-83.358	72.136	46.042	-83.663	-76.606	-75.973	-69.042	29.043	-69.767	-8191	255	
3376.454	1	1	0	0	0.11368	0.20379	0.10947	0.16419	0.1517	0.33874	0.068995	0.23663	0.13728	0.21166	0.051238	0.2738	0.25522	0.12227	0.076154	0.02682	-2.8417	-2.4958	-2.9167	-3.2292	-2.4271	-3.1771	-3.1271	-2.5563	-3.3958	-2.5417	-2.9021	-3.3812	-2.5854	-3.2958	-3.1063	-2.6771	235.529	85.385	47.919	221.394	-56.864	94.344	-14.176	198.299	120.404	78.060	-13.393	-96.944	-68.851	-63.812	145.793	-42.119	0.00013204	0.00030157	7.9599e-05	1079.9	2.7936e-06	2.4344e-06	1166.2	222.41	1.1277e-06	3.0871e-06	280.62	78.356	61.85	18.334	2.9008e-06	25.417	0.00029686	0.00036888	0.00010606	1062	4.011e-06	3.8336e-06	1151.9	221.31	3.5754e-06	3.7844e-06	279.63	78.744	62.251	18.475	3.8711e-06	25.825	-52.018	-24.817	-1.639	-90.871	46.458	74.699	-90.931	-83.613	40.920	25.381	-83.789	-76.857	-76.512	-69.114	66.702	-69.640	-8191	255	
3376.574	1	1	0	0	0.16427	0.061938	0.059509	0.073938	0.29457	0.30212	0.23479	0.26432	0.079051	0.19054	0.11946	0.18429	0.11879	0.044091	0.098379	0.063875	-3.0271	-2.6729	-2.5625	-3.4875	-2.5604	-3.1354	-3.0646	-2.4979	-3.2188	-2.6896	-2.8333	-3.3812	-2.4396	-3.0333	-3.0271	-2.4333	57.394	117.361	100.307	-84.473	85.332	208.534	-78.670	222.561	-39.083	8.889	-67.452	179.758	120.225	245.300	170.890	104.573	0.00014604	0.00036635	6.9875e-05	1080.3	2.7046e-06	1.2704e-06	1169.8	222.65	2.5764e-06	2.5975e-06	281.27	78.548	62.345	18.238	2.7664e-06	25.666	0.00030086	0.00037582	0.00010102	1063.2	4.3997e-06	3.8371e-06	1151.4	221.63	3.6507e-06	4.0123e-06	279.95	78.727	62.476	18.485	3.8409e-06	25.838	-57.962	-15.469	-11.709	-91.375	83.977	32.849	-91.603	-83.856	63.592	51.986	-84.270	-77.201	-76.797	-69.368	79.526	-70.280	-8191	255	
3376.670	1	1	0	0	0.25924	0.21417	0.16236	0.1229	0.16187	0.28783	0.10865	0.16509	0.11442	0.09256	0.19507	0.12098	0.10903	0.14294	0.11122	0.11561	-2.9042	-2.6604	-2.7708	-3.3917	-2.6667	-3.1417	-3.3438	-2.6792	-3.1958	-2.6937	-2.7313	-3.4021	-2.5854	-3.0896	-3.0875	-2.5375	54.170	9.788	86.919	-81.070	-96.105	100.471	172.960	88.608	33.338	47.614	-17.610	224.179	53.899	123.038	-98.098	27.958	0.00011678	0.00031768	7.3669e-05	1076.9	2.6153e-06	2.369e-06	1165	222.81	2.2672e-06	2.5046e-06	282.34	77.958	61.9	18.184	2.6749e-06	25.377	0.00029767	0.00038753	0.00010599	1063.1	4.4057e-06	3.823e-06	1151.1	221.71	3.7337e-06	4.1112e-06	280.31	78.692	62.207	18.472	3.5869e-06	25.779	-39.369	-0.073	-6.311	-91.465	66.470	62.680	-91.339	-83.660	29.872	103.955	-83.938	-77.012	-76.739	-69.080	93.857	-70.007	-8191	255	
3376.742	1	1	0	0	0.176	0.11539	0.12291	0.34995	0.039327	0.18267	0.23051	0.27378	0.12278	0.077047	0.20579	0.11552	0.24937	0.14156	0.24123	0.099397	-2.9479	-2.7354	-2.4229	-3.4104	-2.6146	-2.8312	-3.3979	-2.5292	-3.2938	-3.0354	-2.5812	-3.4938	-2.65	-2.825	-3.3917	-2.6604	174.732	-33.777	138.884	202.053	74.329	65.085	228.188	163.559	69.975	199.878	-93.777	71.800	208.163	-89.974	68.040	34.877	0.00015703	0.00012197	0.00010508	1081.8	1.451e-06	2.8021e-06	1164.4	223.18	2.5212e-06	2.8533e-06	281.05	77.814	61.827	18.233	3.1869e-06	25.414	0.00029647	0.00037668	0.00010482	1064.8	4.1904e-06	3.828e-06	1151	221.3	3.8758e-06	3.8875e-06	279.92	78.395	62.195	18.474	3.8217e-06	25.759	-47.981	8.146	-10.953	-91.370	38.843	68.201	-91.362	-83.974	57.303	23.970	-84.131	-76.941	-76.865	-69.685	40.197	-70.421	-8191	255	
3376.838	1	1	0	0	0.14223	0.13688	0.096851	0.17091	0.11035	0.2121	0.15856	0.15176	0.17742	0.17133	0.12776	0.11565	0.19879	0.1206	0.093825	0.12718	-2.7125	-2.9437	-2.3833	-3.5187	-2.7188	-2.7542	-3.4521	-2.6458	-3.1312	-2.9021	-2.5354	-3.4688	-2.9458	-2.7167	-3.35	-2.5646	-97.145	195.176	-68.381	247.524	241.099	183.155	197.109	210.469	15.841	57.803	216.676	255.736	-96.885	107.833	-98.752	50.360	0.00012966	0.00038028	7.0902e-05	1079.8	1.5178e-06	3.4016e-06	1168.6	223.4	2.3146e-06	4.0836e-06	282.18	77.525	61.485	18.157	4.1778e-06	25.375	0.00031132	0.00035977	0.00010472	1063.6	4.1946e-06	4.085e-06	1151.3	221.27	4.0813e-06	4.068e-06	280	78.365	62.232	18.469	3.7588e-06	25.777	-48.588	-13.974	-23.524	-91.336	117.094	30.606	-91.276	-83.855	37.538	33.813	-83.906	-77.145	-76.736	-69.594	55.461	-70.529	-8191	255	
3376.959	1	1	0	0	0.040208	0.28229	0.24933	0.27723	0.24184	0.17279	0.21115	0.10514	0.29753	0.26117	0.2517	0.22863	0.17518	0.34302	0.25611	0.26073	-2.4833	-3.0312	-2.6437	-3.2583	-2.8104	-2.8333	-3.5083	-2.6271	-3.0021	-3.2438	-2.6771	-3.3021	-2.8708	-2.6646	-3.3917	-2.6021	-2.739	-8.271	230.455	-99.811	152.401	170.687	185.581	96.417	29.725	61.647	186.839	-78.468	37.349	196.725	80.210	199.364	0.00013697	0.00040575	9.0705e-05	1081.7	4.5612e-06	1.1733e-06	1171.2	222.84	2.5345e-06	2.2408e-06	282.54	78.054	62.384	18.402	3.7334e-06	25.228	0.00031174	0.00036776	0.00010498	1064.3	4.3763e-06	4.4396e-06	1150.7	221.76	4.0819e-06	4.1036e-06	280.26	78.554	62.484	18.529	3.9961e-06	25.743	-49.257	-28.621	-9.023	-91.353	40.458	2.658	-91.674	-84.094	30.789	99.531	-84.544	-77.591	-77.010	-69.620	64.158	-70.686	-8191	255	
3377.055	1	1	0	0	0.11633	0.13284	0.11369	0.32721	0.31066	0.1293	0.41831	0.13444	0.20931	0.39647	0.10502	0.26424	0.13709	0.1306	0.16353	0.13569	-2.3917	-3.1229	-2.5021	-3.4229	-2.9333	-2.5396	-3.4625	-2.6708	-2.9167	-3.3167	-2.6813	-3.2333	-3.2146	-2.4479	-3.2167	-2.7313	42.216	-0.629	-91.017	-87.209	156.648	-88.816	235.342	-93.016	177.760	86.353	230.090	214.190	-2.912	-59.531	201.568	151.573	0.00014057	0.00022431	6.7298e-05	1081	2.5205e-06	2.7813e-06	1172.4	223.66	1.6234e-06	1.7101e-06	282.77	77.484	62.525	18.208	3.0431e-06	25.311	0.00031508	0.00037383	0.00010243	1064.4	4.323e-06	4.3746e-06	1153.5	222.08	4.0753e-06	4.0192e-06	280.06	78.512	62.437	18.464	3.864e-06	25.685	-45.428	-38.682	-31.980	-91.634	55.831	90.278	-91.310	-84.071	103.376	68.041	-84.161	-77.178	-76.877	-69.912	65.561	-70.761	-8191	255	
3377.151	1	1	0	0	0.20387	0.14534	0.13752	0.033916	0.17773	0.10355	0.36881	0.098036	0.11074	0.26706	0.16956	0.32618	0.13825	0.15053	0.2772	0.10345	-2.4167	-3.2208	-2.3375	-3.0479	-3.1833	-2.4396	-3.5396	-2.8083	-2.7	-3.4333	-2.6958	-3.15	-3.2188	-2.3792	-3.1583	-3.0771	141.509	86.828	-100.903	-96.840	-46.462	-92.913	183.256	118.316	244.458	-38.193	256.514	58.058	122.982	-76.836	6.568	-16.569	0.00015039	0.00033141	7.4785e-05	1080.3	3.17e-06	1.8764e-06	1171	224.09	2.6015e-06	5.0394e-06	282.11	78.475	62.189	18.179	1.9478e-06	25.211	0.0003289	0.00037619	0.00010873	1064.7	4.248e-06	4.2524e-06	1155.2	222	4.4874e-06	4.1579e-06	280.37	78.939	62.301	18.39	3.9095e-06	25.669	-50.320	-14.068	-0.751	-91.301	77.682	65.716	-91.188	-84.182	47.561	75.635	-84.342	-77.781	-76.714	-68.945	57.361	-70.323	-8191	255	
3377.247	1	1	0	0	0.20578	0.12556	0.19814	0.10876	0.14672	0.17146	0.19246	0.043709	0.057739	0.09991	0.089346	0.12169	0.068594	0.29194	0.13015	0.11679	-2.3146	-3.3458	-2.5333	-2.9604	-3.1771	-2.5333	-3.3479	-3.1208	-2.5458	-3.2042	-2.7812	-2.7438	-3.2583	-2.6479	-3.0729	-3.1104	-45.469	46.338	130.118	38.564	73.948	50.026	225.218	243.564	111.341	125.112	-96.299	1.618	82.469	-16.665	-3.121	149.320	0.00014442	0.00019909	0.00010627	1085.2	2.9629e-06	3.9415e-06	1166.3	222.34	2.1759e-06	2.2882e-06	281.54	78.152	61.874	18.218	1.3238e-06	25.342	0.00032815	0.00037049	0.00012022	1066.2	4.4429e-06	4.5024e-06	1153.2	221.37	4.3016e-06	4.1238e-06	280.64	78.795	62.242	18.435	4.2623e-06	25.64	-45.083	-14.431	-2.999	-91.337	38.679	44.451	-91.425	-84.021	35.509	50.035	-83.949	-77.014	-76.382	-69.687	72.247	-70.712	-8191	255	
3377.343	1	1	0	0	0.19148	0.097486	0.1002	0.10678	0.26289	0.17894	0.24992	0.22404	0.093097	0.23669	0.081422	0.093457	0.066183	0.33688	0.18093	0.26116	-2.1813	-3.3375	-2.7521	-3.0187	-3.3688	-2.6458	-3.2833	-3.125	-2.4562	-3.2729	-2.9375	-2.7542	-3.3604	-2.4562	-3.0938	-3.2375	237.582	255.397	254.570	226.111	-97.148	97.160	220.091	196.424	104.534	119.552	-7.937	25.037	130.981	245.378	82.672	-70.670	0.00012024	0.00028701	0.00013413	1080.8	1.4054e-06	1.529e-06	1172.4	222.65	1.3523e-06	3.8043e-06	282.05	77.762	62.255	18.264	2.2358e-06	25.231	0.00033953	0.00037396	0.00011469	1065.1	4.266e-06	4.3527e-06	1154	221.67	4.2085e-06	4.1781e-06	281.13	78.599	62.48	18.481	4.1353e-06	25.699	-34.229	-6.046	5.057	-91.363	61.353	25.342	-91.485	-83.660	29.168	36.320	-84.359	-77.351	-76.643	-69.683	50.920	-70.386	-8191	255	
3377.440	1	1	0	0	0.15147	0.042838	0.16387	0.28901	0.19415	0.34577	0.098123	0.34324	0.090453	0.2914	0.14536	0.04001	0.12994	0.17259	0.12108	0.026101	-2.0667	-3.3729	-2.8833	-2.9479	-3.3667	-2.5062	-3.2	-3.2354	-2.2125	-3.225	-2.7875	-2.5438	-3.3708	-2.6271	-3.0375	-3.4083	79.283	12.493	183.875	225.759	-56.036	156.179	246.633	175.701	175.762	53.108	51.042	7.491	184.343	257.834	45.632	-92.198	0.00014382	0.0003641	7.7884e-05	1080.6	3.3905e-06	2.3097e-06	1175.1	222.64	9.9399e-07	2.4484e-06	282.83	77.986	62.677	18.164	3.1235e-06	25.219	0.00033464	0.00037328	0.00011185	1066.5	4.0494e-06	4.5385e-06	1155	221.38	3.8991e-06	3.845e-06	281.28	78.546	62.442	18.404	4.0352e-06	25.655	-52.557	-3.419	-10.737	-91.158	49.255	29.999	-91.445	-83.753	18.790	92.164	-83.896	-77.101	-76.390	-69.772	38.170	-70.418	-8191	255	
3377.536	1	1	0	0	0.25648	0.19962	0.010773	0.30845	0.16527	0.123	0.30383	0.095544	0.45007	0.093764	0.18446	0.054659	0.26567	0.20286	0.18259	0.051422	-2.0479	-3.25	-2.9542	-2.6813	-3.4042	-2.6042	-2.9396	-3.1458	-2.5187	-3.3583	-3.0792	-2.6979	-3.2625	-2.7271	-2.8667	-3.2917	242.844	113.014	-16.277	218.077	132.271	87.221	215.964	257.689	42.095	63.164	207.272	-36.324	40.601	-83.825	7.568	116.381	0.00012319	0.00022235	8.88e-05	1080.9	2.2772e-06	8.809e-07	1170.5	224.19	2.8206e-06	2.7938e-06	281.56	78.02	62.143	18.231	1.1809e-06	25.319	0.00030699	0.00036621	0.00010526	1066	4.041e-06	4.1112e-06	1153.6	221.76	4.095e-06	3.9454e-06	280.9	78.539	62.417	18.45	4.0545e-06	25.675	-57.789	-0.905	-0.996	-91.472	29.215	71.929	-91.242	-83.509	12.465	62.036	-84.055	-77.440	-76.605	-69.922	31.216	-70.313	-8191	255	
3377.655	1	1	0	0	0.11878	0.21143	0.031843	0.27879	0.15336	0.1748	0.31263	0.21321	0.24524	0.16199	0.17329	0.025052	0.057622	0.089526	0.12105	0.15014	-2.225	-2.9396	-2.9396	-2.5563	-3.3771	-2.8479	-2.7854	-3.2125	-2.5583	-3.0875	-3.2146	-2.4875	-3.3021	-2.7333	-2.7729	-3.3458	227.058	-97.676	46.505	-96.941	126.841	44.961	207.486	0.472	132.206	132.887	252.625	38.380	77.136	-72.066	61.874	-7.290	0.00015717	0.00020948	4.9782e-05	1086.3	1.4756e-06	2.3721e-06	1166.5	222.78	8.6963e-07	3.0025e-06	281.68	78.198	61.625	18.217	3.8065e-06	25.187	0.000311	0.0003778	0.000102	1066.7	3.9955e-06	4.1917e-06	1153.8	222.16	4.0365e-06	4.1001e-06	280.41	78.489	62.185	18.426	4.0429e-06	25.702	-45.898	-6.070	7.123	-91.508	109.991	41.662	-91.166	-83.753	-39.508	43.537	-84.345	-77.180	-76.879	-69.683	67.617	-70.645	-8191	255	
3377.751	1	1	0	0	0.090582	0.22391	0.13516	0.078303	0.086557	0.21859	0.16794	0.11871	0.29672	0.2241	0.32655	0.22541	0.2291	0.094727	0.152	0.24361	-2.1125	-2.9667	-3.0375	-2.7479	-3.3937	-2.8667	-2.6375	-3.4854	-2.4813	-2.9896	-3.1396	-2.4646	-3.3083	-2.8312	-2.5438	-3.5521	-24.888	105.716	-100.475	-10.405	109.709	110.766	1.342	205.105	30.312	-6.290	221.273	1.064	93.730	190.222	-29.009	136.131	0.00015737	0.00029288	9.0779e-05	1079.4	1.1325e-06	3.1652e-06	1171.1	223.39	2.3204e-06	2.7682e-06	281.87	78.077	61.854	18.269	2.7751e-06	25.149	0.00032032	0.00037953	0.00010147	1065.1	4.1244e-06	4.4297e-06	1153.1	221.96	4.3876e-06	4.5099e-06	280.59	78.44	62.268	18.422	4.2155e-06	25.673	-59.103	-10.024	-26.412	-91.304	84.044	45.586	-91.378	-83.588	113.071	50.797	-83.894	-77.187	-77.117	-69.656	79.393	-70.828	-8191	255	
3377.845	1	1	0	0	0.22422	0.042207	0.24984	0.19496	0.25324	0.051858	0.25526	0.057357	0.034085	0.11545	0.18473	0.31529	0.1029	0.056576	0.073306	0.059392	-2.2354	-2.7604	-3.2583	-2.6729	-3.1312	-2.9417	-2.6625	-3.3708	-2.5833	-2.6875	-3.2167	-2.5792	-3.1063	-2.9854	-2.5271	-3.3792	125.381	187.571	105.168	200.738	-21.606	-84.937	-71.403	190.582	253.992	18.016	191.685	-95.942	81.068	-37.762	232.414	185.275	0.00017263	0.00029364	0.00011474	1080.7	2.5904e-06	2.5053e-06	1168.7	221.85	1.4911e-06	1.3387e-06	281.09	77.917	61.917	18.15	2.7141e-06	25.336	0.00031582	0.00037885	0.00010442	1063.9	3.9889e-06	4.3167e-06	1152.9	221.51	4.184e-06	4.2973e-06	280.3	78.42	62.253	18.414	4.2629e-06	25.7	-47.329	-16.751	-1.384	-91.578	23.661	44.078	-91.213	-84.092	38.250	70.252	-84.078	-77.363	-76.467	-69.927	79.918	-70.580	-8191	255	
3377.943	1	1	0	0	0.06283	0.2758	0.13818	0.16364	0.25713	0.12388	0.16431	0.11722	0.13432	0.20125	0.26484	0.03119	0.34528	0.086788	0.19235	0.12237	-2.3625	-2.7833	-3.1417	-2.65	-3.0646	-3.1146	-2.6646	-3.3792	-2.9021	-2.8229	-3.3937	-2.4854	-3.0604	-3.0479	-2.4896	-3.3063	138.413	-44.321	-71.322	107.557	-48.720	-87.959	179.002	137.254	141.568	13.579	143.651	125.751	-31.252	219.004	16.086	112.261	0.00014536	0.00030538	6.9154e-05	1083.7	4.0948e-06	2.9086e-06	1171.8	222.58	3.2393e-06	2.1777e-06	282.32	78.177	62.079	18.265	3.7233e-06	25.279	0.00032674	0.00038257	9.9086e-05	1065.4	4.4237e-06	4.1437e-06	1153.7	221.87	4.3608e-06	4.3224e-06	281.29	78.708	62.306	18.426	4.3912e-06	25.677	-48.894	-25.507	-6.893	-91.337	51.967	23.088	-91.338	-84.012	20.032	29.054	-84.110	-77.541	-76.757	-69.593	49.631	-69.873	-8191	255	
3378.037	1	1	0	0	0.045836	0.15576	0.19018	0.15969	0.20184	0.11349	0.11538	0.10552	0.21937	0.084505	0.26271	0.13177	0.14698	0.060603	0.089287	0.11017	-2.3937	-2.4208	-3.2833	-2.5729	-3.0146	-3.2062	-2.8229	-3.175	-3.0542	-2.5896	-3.3646	-2.5833	-2.9062	-3.2542	-2.5646	-3.325	195.813	213.860	94.872	108.806	30.739	24.770	204.537	-22.213	184.768	12.373	-70.097	192.656	236.659	-79.227	-29.909	59.420	0.00016698	0.00033608	0.00011017	1080.7	1.7976e-06	3.2282e-06	1169.8	222.93	1.2885e-06	3.5564e-06	282.72	78.009	61.851	18.315	2.8186e-06	25.324	0.00032195	0.0004102	0.00010831	1065.1	4.2714e-06	4.2637e-06	1153.3	222.04	4.2121e-06	4.199e-06	281.26	78.57	62.238	18.448	4.0596e-06	25.682	-40.579	0.076	9.071	-91.446	53.053	79.086	-91.480	-83.681	62.924	54.664	-84.052	-77.433	-76.396	-69.538	57.898	-70.679	-8191	255	
3378.134	1	1	0	0	0.15919	0.14865	0.074092	0.13696	0.181	0.22624	0.18876	0.19493	0.13832	0.1405	0.026997	0.16682	0.18459	0.11571	0.12059	0.20662	-2.7354	-2.5833	-3.2229	-2.9104	-2.8229	-3.275	-2.7542	-3.1458	-3.0938	-2.6479	-3.5021	-2.8167	-2.9458	-3.2958	-2.55	-3.1271	56.794	-51.034	129.386	-97.309	-94.664	106.186	168.628	255.943	83.534	104.582	-81.969	257.693	-48.231	242.905	198.101	200.788	0.00012528	0.00028978	8.7741e-05	1085	2.4849e-06	3.3853e-06	1170.1	224.11	2.5868e-06	3.2691e-06	282.85	77.731	62.164	18.286	1.9333e-06	25.421	0.0003049	0.00038753	0.00010421	1067.4	4.239e-06	3.7291e-06	1152.1	221.93	4.0496e-06	4.1607e-06	281	78.363	62.33	18.394	4.0955e-06	25.705	-43.807	-9.153	-20.590	-91.600	54.916	52.673	-91.425	-84.036	71.926	44.754	-83.933	-77.204	-76.794	-69.863	68.654	-70.184	-8191	255	
3378.254	1	1	0	0	0.073961	0.076399	0.18184	0.18355	0.25632	0.12922	0.091083	0.095829	0.16422	0.11904	0.20086	0.070075	0.090054	0.089553	0.082481	0.15297	-2.7729	-2.5604	-3.4417	-2.8333	-2.6708	-3.35	-2.85	-3.2271	-3.1521	-2.6354	-3.3417	-3.1146	-2.8292	-3.3479	-2.6354	-2.9542	10.231	121.178	48.159	136.417	-91.157	-77.785	87.492	-69.511	-59.960	24.317	154.381	185.183	119.158	247.626	192.365	76.294	0.00012536	0.00029861	0.00010657	1083	2.0438e-06	3.8947e-06	1168.3	222.96	3.314e-06	3.1425e-06	280.89	77.809	61.711	18.248	3.7605e-06	25.285	0.00031869	0.00039979	0.00010648	1065.4	4.3212e-06	3.9141e-06	1154.2	222.32	4.0675e-06	4.4799e-06	280.84	78.494	62.237	18.473	4.4624e-06	25.63	-47.503	-15.565	-8.363	-91.322	37.905	59.056	-91.466	-83.832	74.553	68.100	-84.150	-77.514	-76.564	-69.863	71.733	-70.642	-8191	255	
3378.350	1	1	0	0	0.1702	0.24921	0.053674	0.31494	0.19086	0.13204	0.2976	0.033878	0.081094	0.31602	0.22884	0.089496	0.1209	0.077328	0.14418	0.25681	-2.8833	-2.475	-3.1312	-2.8792	-2.6146	-3.3646	-2.8146	-3.0125	-3.4417	-2.5625	-3.25	-3.0271	-2.7208	-3.3375	-2.8854	-3.0625	126.638	107.454	61.369	246.409	170.957	-34.428	118.945	179.184	143.380	32.229	72.118	-79.796	-50.904	65.756	243.894	-99.657	0.00013929	0.00034619	7.0781e-05	1081.5	1.7043e-06	2.5118e-06	1170	222.35	2.6358e-06	3.7872e-06	280.95	78.112	61.89	18.178	2.2254e-06	25.224	0.00032613	0.00039818	0.00010545	1066.1	4.3595e-06	3.9282e-06	1153.7	221.67	3.9809e-06	4.2694e-06	280.49	78.592	62.184	18.434	4.1988e-06	25.644	-50.075	-38.961	11.560	-91.436	57.053	58.430	-91.303	-83.866	44.848	49.210	-84.051	-77.549	-76.560	-69.654	112.065	-70.258	-8191	255	
3378.447	1	1	0	0	0.17554	0.22339	0.20461	0.27124	0.090412	0.11332	0.22487	0.13123	0.19567	0.077385	0.055086	0.0414	0.28723	0.073422	0.06309	0.13493	-2.8833	-2.3271	-3.225	-3.0542	-2.7396	-3.2917	-3.1312	-2.9979	-3.3021	-2.5917	-3.225	-3.1	-2.575	-3.4479	-2.7396	-2.525	181.201	29.711	104.840	248.521	43.951	125.817	-60.179	137.046	236.518	96.981	201.305	-5.682	168.013	55.092	-3.067	151.652	0.00017038	0.00036899	5.7469e-05	1086.9	2.4202e-06	2.9801e-06	1169.2	223.66	2.4839e-06	4.3889e-06	282.9	77.892	62.105	18.27	3.0371e-06	25.051	0.0003234	0.00038517	0.00011124	1068.1	4.5281e-06	4.1189e-06	1155.3	222.13	3.9845e-06	4.5893e-06	281.21	78.559	62.406	18.464	4.3117e-06	25.596	-62.360	12.378	11.009	-91.505	79.848	64.426	-91.557	-84.176	83.642	59.555	-84.226	-78.005	-77.115	-70.470	53.107	-71.226	-8191	255	
3378.543	1	1	0	0	0.26808	0.076748	0.30025	0.26762	0.11181	0.11408	0.28783	0.10676	0.21877	0.055318	0.27023	0.23334	0.17065	0.16327	0.34211	0.16693	-2.9333	-2.8896	-2.9313	-3.2375	-2.4958	-3.3625	-2.9042	-2.825	-3.3979	-2.6	-3.1375	-3.0875	-2.3958	-3.2104	-2.8646	-2.7917	101.452	173.587	-65.925	224.007	23.546	233.218	216.601	231.524	10.321	-93.662	-65.734	115.152	-86.071	213.961	-32.655	197.696	0.00013565	0.00031196	5.8254e-05	1083.2	2.3173e-06	2.5406e-06	1173	223.27	1.2254e-06	1.9059e-06	282.83	78.179	62.297	18.246	2.0146e-06	25.263	0.00031266	0.00039948	0.00011061	1067.6	4.5317e-06	4.287e-06	1156	222.33	3.8275e-06	4.5113e-06	281.09	78.767	62.415	18.502	4.3335e-06	25.68	-54.634	-47.779	-23.372	-92.154	81.917	33.763	-92.188	-84.534	41.069	86.681	-84.783	-77.851	-77.397	-70.322	56.410	-71.375	-8191	255	
3378.614	1	1	0	0	0.17208	0.092754	0.11634	0.15288	0.13305	0.012456	0.18594	0.13684	0.28754	0.083809	0.1052	0.14158	0.080699	0.11077	0.05568	0.19275	-3.0458	-2.4708	-2.8396	-3.4958	-2.5854	-3.2771	-3.1521	-2.525	-3.4042	-2.5375	-2.9708	-3.2521	-2.35	-3.1125	-2.8667	-2.4729	110.083	117.167	-9.607	211.803	-17.064	98.289	114.337	76.777	95.899	226.950	223.542	127.440	245.448	252.455	141.601	-15.562	0.00014383	0.0003308	0.00010338	1083.9	2.565e-06	1.6293e-06	1174.3	222.11	5.0245e-07	2.2269e-06	283.04	77.706	62.155	18.371	4.6434e-06	25.266	0.0003143	0.00040196	0.00011117	1067.9	4.4879e-06	4.525e-06	1155.7	222.24	4.1147e-06	4.3775e-06	282.07	78.595	62.507	18.534	4.463e-06	25.713	-41.364	-34.729	-8.460	-92.078	32.779	55.502	-92.108	-84.519	49.473	58.955	-85.203	-78.286	-77.332	-70.337	78.094	-70.890	-8191	255	
3378.735	1	1	0	0	0.038407	0.059926	0.16385	0.28849	0.15888	0.11836	0.20886	0.1085	0.3253	0.34422	0.31802	0.054261	0.08884	0.095524	0.094906	0.15027	-3.0125	-2.6458	-2.6125	-3.3354	-2.4333	-3.1375	-3.2771	-2.525	-3.2562	-2.6958	-2.6896	-3.3312	-2.4958	-2.9875	-3.0896	-2.6229	24.278	69.364	128.443	91.918	232.810	-5.494	236.678	223.760	153.725	-66.060	208.185	-92.272	166.457	137.639	146.226	186.793	0.00013066	0.00017974	9.9765e-05	1080.4	1.2364e-06	2.799e-06	1174.6	222.98	2.9521e-06	2.4125e-06	282.34	77.759	61.835	18.304	2.7409e-06	25.344	0.00032188	0.00038957	0.0001169	1067.1	4.5515e-06	4.1465e-06	1158.3	222.07	3.9911e-06	4.3259e-06	281.72	78.584	62.205	18.502	4.2975e-06	25.771	-57.058	-0.971	-11.116	-92.207	106.874	73.865	-92.149	-84.724	66.165	68.460	-84.976	-78.532	-77.103	-70.004	7.899	-71.181	-8191	255	
3378.831	1	1	0	0	0.042135	0.16401	0.01667	0.27497	0.062695	0.35722	0.067628	0.11251	0.2004	0.091436	0.044569	0.21454	0.13305	0.25971	0.091797	0.17785	-2.9625	-2.6708	-2.4708	-3.2687	-2.5875	-2.9917	-3.3167	-2.625	-3.1729	-2.9146	-2.5583	-3.4458	-2.5083	-2.6937	-3.1375	-2.5479	-56.299	-45.245	200.580	53.110	159.426	13.217	184.919	239.159	249.487	179.832	186.227	132.195	-80.047	243.696	38.139	125.789	0.00013072	0.00028344	4.1238e-05	1085.6	3.1845e-06	1.6828e-06	1172.1	222.95	4.5847e-06	2.5361e-06	282.76	78.166	61.755	18.257	1.5211e-06	25.31	0.00031727	0.00039843	0.00010836	1068.6	4.4063e-06	4.4007e-06	1154.9	222.12	4.3094e-06	4.3635e-06	281.54	78.524	62.387	18.481	3.9865e-06	25.692	-51.635	-38.478	-43.423	-92.229	60.601	34.678	-92.100	-84.674	50.047	66.851	-85.109	-77.952	-77.755	-70.517	44.340	-71.051	-8191	255	
3378.927	1	1	0	0	0.28173	0.10799	0.13735	0.19072	0.060123	0.28528	0.28125	0.021733	0.14973	0.21735	0.054248	0.20022	0.031142	0.16204	0.064104	0.20472	-2.9125	-3.0521	-2.575	-3.4458	-2.7104	-2.8271	-3.4271	-2.6188	-3.2313	-3.1083	-2.625	-3.3771	-2.5646	-2.7375	-3.3417	-2.5708	65.333	172.041	214.767	-2.418	71.190	156.637	194.942	20.542	18.618	158.928	206.663	217.048	199.335	230.902	220.477	146.549	0.00018224	0.0002264	0.00011785	1087.6	2.475e-06	3.9293e-06	1166.4	222.6	4.2918e-06	3.2606e-06	282.51	78.201	62.505	18.28	2.5103e-06	25.234	0.00031302	0.00038591	0.00011296	1069.1	4.4429e-06	4.5307e-06	1156.8	222.05	4.0132e-06	4.0157e-06	281.23	78.752	62.62	18.504	3.7479e-06	25.634	-50.690	-6.124	-3.152	-91.964	121.044	31.428	-92.402	-84.392	50.768	53.737	-84.969	-78.200	-77.616	-70.332	68.355	-71.083	-8191	255	
3379.023	1	1	0	0	0.066551	0.19173	0.067815	0.27271	0.07606	0.17331	0.23827	0.0637	0.195	0.29452	0.14742	0.057144	0.016632	0.16118	0.1192	0.24388	-2.6312	-3.1771	-2.4208	-3.4437	-2.8063	-2.6854	-3.4646	-2.6813	-2.9688	-3.2313	-2.5292	-3.1917	-2.8438	-2.5583	-3.3604	-2.4396	124.511	-81.033	119.251	-82.501	-51.052	-36.919	133.476	-55.940	230.183	-74.491	202.834	167.882	255.201	-56.737	104.208	158.602	0.00016935	0.00018443	6.992e-05	1082.2	6.9872e-07	3.8849e-06	1173.8	223.18	3.7972e-06	2.3085e-06	283.55	78.66	61.556	18.276	2.7286e-06	25.209	0.00032589	0.00036658	0.00010704	1069.1	4.3679e-06	4.2793e-06	1158.4	221.85	4.0466e-06	3.9168e-06	281.96	78.687	62.321	18.515	3.9538e-06	25.773	-49.521	-14.320	-5.720	-92.095	193.173	24.649	-92.072	-84.630	18.611	20.241	-84.994	-77.904	-77.582	-70.675	22.309	-70.894	-8191	255	
3379.142	1	1	0	0	0.17871	0.12476	0.12783	0.22408	0.085782	0.18758	0.11922	0.15232	0.068585	0.15584	0.12265	0.084953	0.16381	0.077575	0.094475	0.14526	-2.3812	-3.1729	-2.4917	-3.2854	-3.0292	-2.5938	-3.3375	-2.6729	-2.8833	-3.3021	-2.4604	-3.3083	-2.9667	-2.5979	-3.1979	-2.7521	199.327	156.664	120.190	205.795	150.002	201.326	238.372	156.102	115.079	-18.731	193.276	-94.204	-2.645	-88.056	53.531	141.067	0.00017233	0.0003649	7.7839e-05	1085.3	5.3024e-07	3.0055e-06	1171.1	222.26	2.5007e-06	3.6387e-06	283.6	77.837	62.077	18.292	3.9896e-06	25.305	0.00032847	0.00034676	0.00011011	1070.6	4.2828e-06	4.162e-06	1157.1	221.93	4.046e-06	4.1154e-06	282.01	78.6	62.496	18.519	3.9294e-06	25.716	-52.842	-8.764	9.276	-92.088	142.757	30.844	-92.115	-84.611	77.155	40.824	-84.928	-77.791	-77.775	-70.616	44.962	-70.762	-8191	255	
3379.238	1	1	0	0	0.31877	0.057072	0.13574	0.26266	0.041965	0.17772	0.19912	0.092985	0.19501	0.10989	0.28618	0.28706	0.12714	0.18624	0.2129	0.18731	-2.3521	-3.1312	-2.5896	-3.1708	-2.9833	-2.3542	-3.3271	-2.6396	-2.625	-3.4542	-2.5104	-3.3271	-3.2833	-2.3271	-3.3958	-2.7292	175.374	-101.600	-90.418	240.316	113.695	135.867	-56.200	146.140	50.106	-68.836	217.824	192.208	89.393	-46.263	191.339	-40.010	0.00013731	0.00019511	0.00011216	1085.4	2.9295e-06	1.7523e-06	1172.4	223.9	3.244e-06	2.7024e-06	282.29	78.462	62.256	18.187	2.4141e-06	25.256	0.00032798	0.00035159	0.00011471	1069.5	4.3853e-06	4.3661e-06	1156.5	222.62	4.2467e-06	3.9244e-06	281.14	78.795	62.617	18.473	3.9641e-06	25.681	-40.092	-8.040	4.255	-92.228	49.949	64.592	-92.059	-84.579	26.721	76.825	-84.756	-78.535	-77.832	-70.386	26.416	-71.109	-8191	255	
3379.335	1	1	0	0	0.22991	0.24774	0.24725	0.15456	0.097744	0.18603	0.25459	0.13672	0.14686	0.18228	0.12686	0.12265	0.23439	0.18542	0.19599	0.1043	-2.2354	-3.3125	-2.4292	-3.1583	-3.2708	-2.3646	-3.4313	-3.0542	-2.7	-3.4708	-2.6688	-2.9604	-3.2375	-2.6271	-3.3354	-2.9188	-92.787	115.230	-44.584	-96.054	192.853	80.036	159.790	213.028	94.931	-30.620	-52.918	82.492	230.687	-95.218	67.727	219.863	9.8994e-05	0.00028306	8.5773e-05	1080.1	2.1011e-06	2.3952e-06	1177.1	223.98	2.0125e-06	2.0375e-06	282.33	77.903	61.751	18.237	3.6569e-06	25.133	0.00032163	0.00035692	0.0001137	1068.8	4.263e-06	4.1317e-06	1157.7	221.95	4.3578e-06	3.8861e-06	281.27	78.681	62.23	18.487	3.9025e-06	25.657	-39.197	-25.989	1.446	-91.941	45.646	50.978	-92.245	-84.390	39.194	59.040	-84.653	-77.920	-78.067	-70.695	59.873	-71.167	-8191	255	
3379.431	1	1	0	0	0.049745	0.12846	0.023417	0.21094	0.2133	0.10605	0.19775	0.19707	0.020146	0.066343	0.074972	0.20137	0.11801	0.12168	0.10266	0.25806	-2.2604	-3.1667	-2.6792	-3.025	-3.2708	-2.4437	-3.3708	-3.0292	-2.5521	-3.4	-2.8604	-2.8354	-3.3042	-2.6583	-3.3438	-2.9021	111.077	85.620	171.956	181.118	-75.048	9.899	215.888	-64.738	91.554	99.743	239.488	81.779	161.894	-12.557	17.378	61.439	0.00012571	0.00018827	0.00011458	1083.4	2.7749e-06	3.5488e-06	1170.8	223.11	3.4007e-06	2.5283e-06	281.2	78.083	61.938	18.144	4.2713e-06	25.225	0.0003144	0.00036745	0.00010902	1069.2	4.0308e-06	4.2757e-06	1156.4	221.99	4.1285e-06	3.8548e-06	280.76	78.807	62.062	18.492	4.025e-06	25.621	-50.111	-23.970	-21.684	-92.018	82.606	55.096	-91.900	-84.422	64.279	86.532	-84.777	-77.758	-77.510	-70.306	39.999	-71.159	-8191	255	
3379.527	1	1	0	0	0.35617	0.022421	0.14386	0.12827	0.056137	0.062701	0.10982	0.15118	0.24745	0.14796	0.22086	0.14235	0.21839	0.18388	0.054612	0.082053	-2.2417	-3.3333	-2.7896	-2.95	-3.3854	-2.5875	-3.2708	-3.1958	-2.4208	-3.1771	-2.725	-2.7083	-3.0917	-2.5187	-3.0521	-3.1771	-61.794	-42.285	112.652	230.848	140.731	82.785	248.855	95.176	-78.419	102.035	94.070	241.347	158.947	95.978	127.308	160.000	0.00014231	0.00029126	8.3167e-05	1081.2	3.2239e-06	4.2036e-06	1172.2	223.97	3.1629e-06	2.6893e-06	279.92	77.662	62.02	18.152	1.5718e-06	25.38	0.00031405	0.00036528	0.00011183	1066.9	4.0032e-06	4.5074e-06	1155.5	222.36	4.2449e-06	4.1077e-06	280.42	78.599	62.335	18.466	4.0359e-06	25.688	-48.774	-7.759	-18.092	-92.050	47.913	66.614	-91.902	-84.432	45.846	47.281	-84.604	-78.026	-77.591	-70.185	75.371	-70.749	-8191	255	
3379.623	1	1	0	0	0.068869	0.20487	0.042735	0.31889	0.33413	0.026905	0.17784	0.1466	0.074902	0.24366	0.09209	0.17426	0.14914	0.1003	0.14226	0.12688	-1.9521	-3.2771	-2.6979	-2.6458	-3.4042	-2.5375	-3.0833	-3.1208	-2.2104	-3.1833	-2.9729	-2.4208	-3.2958	-2.4646	-3.0104	-3.1479	-82.686	181.722	69.775	255.793	197.312	75.834	203.501	73.554	112.577	105.112	166.484	186.753	-13.654	7.474	-85.586	226.166	0.00016744	0.00035535	0.00010471	1078.6	1.4816e-06	3.881e-06	1174.6	223.14	1.7052e-06	2.7722e-06	281.88	78.338	61.754	18.203	3.2114e-06	25.278	0.00030356	0.00036844	0.00010913	1066.7	3.9781e-06	4.4876e-06	1157.5	222.03	4.1147e-06	4.2011e-06	280.9	78.545	62.422	18.478	3.8505e-06	25.717	-40.352	-28.948	-13.152	-92.086	10.762	18.783	-91.819	-84.479	67.913	57.103	-85.032	-77.909	-77.368	-70.645	56.422	-70.786	-8191	255	
3379.744	1	1	0	0	0.073624	0.35479	0.051439	0.35474	0.20312	0.12335	0.090679	0.17606	0.29235	0.36719	0.1566	0.2551	0.18383	0.10366	0.2014	0.27963	-2.1271	-3.2188	-3.0312	-2.5208	-3.1937	-2.6396	-3.05	-3.3021	-2.4625	-3.175	-2.9917	-2.35	-3.2458	-2.8	-2.7313	-3.2562	79.090	123.332	20.807	173.052	224.360	-22.063	148.421	173.651	81.021	-49.553	-57.147	238.390	-4.361	173.719	-19.938	161.788	0.00015624	0.0002661	9.1691e-05	1083.4	4.1555e-07	2.7541e-06	1167.2	223.91	2.9164e-06	3.4033e-06	283.2	77.767	62.403	18.169	1.72e-06	25.376	0.00032511	0.00040165	0.00010512	1067.3	4.1298e-06	4.4375e-06	1156.5	222.52	4.175e-06	4.2813e-06	281.56	78.466	62.439	18.469	4.0647e-06	25.693	-37.983	-6.118	-47.365	-91.934	236.083	19.635	-91.922	-84.625	68.822	51.843	-85.041	-78.089	-77.338	-70.297	31.089	-71.037	-8191	255	
3379.838	1	1	0	0	0.19322	0.12823	0.26182	0.21894	0.14598	0.33462	0.034874	0.25275	0.26361	0.055324	0.080984	0.21631	0.15121	0.11513	0.21782	0.09251	-2.1688	-3.1125	-2.9125	-2.6292	-3.2333	-2.7229	-2.875	-3.3042	-2.3104	-3.125	-3.1333	-2.6271	-3.1937	-2.8021	-2.5583	-3.4062	118.830	205.905	-3.493	228.792	196.335	-22.250	85.353	192.301	94.946	250.078	-39.619	0.018	244.926	-6.561	128.104	247.550	0.00015096	0.00024223	2.9733e-05	1085.2	2.7584e-06	2.4918e-06	1168.8	223.18	2.8125e-06	2.4704e-06	283.94	78.31	61.787	18.254	3.605e-06	25.526	0.0003245	0.00037383	0.00010353	1069.5	4.1028e-06	4.1663e-06	1155.3	222.22	4.3685e-06	4.2653e-06	281.87	78.507	62.255	18.462	4.2296e-06	25.721	-54.077	10.734	-11.373	-91.999	35.119	43.934	-92.310	-84.550	30.165	55.962	-84.712	-77.771	-77.270	-70.535	75.246	-71.189	-8191	255	
3379.912	1	1	0	0	0.16057	0.1537	0.040576	0.055902	0.12162	0.12748	0.32428	0.11763	0.19885	0.22499	0.048594	0.14147	0.10673	0.11425	0.2022	0.14477	-2.2479	-2.8354	-3.1354	-2.575	-3.1188	-2.7979	-2.6042	-3.3896	-2.6375	-2.825	-3.175	-2.3979	-3.0875	-2.8583	-2.5438	-3.3292	92.042	174.769	-83.629	32.521	210.527	56.595	216.894	191.945	238.487	-28.359	199.356	132.250	-25.471	195.537	-24.093	-70.535	0.000167	0.00035121	0.000103	1081.6	3.0617e-06	2.34e-06	1174.1	223.54	2.219e-06	2.0641e-06	281.47	78.269	62.253	18.18	2.5443e-06	25.241	0.00032255	0.00037786	0.00010188	1068.4	4.4357e-06	4.2673e-06	1156.7	222.41	4.3058e-06	4.2039e-06	281.19	78.641	62.345	18.484	4.1109e-06	25.679	-35.437	-31.248	-8.246	-92.160	80.417	46.528	-91.991	-84.487	79.950	32.522	-84.653	-77.904	-77.229	-70.345	67.213	-71.191	-8191	255	
3380.030	1	1	0	0	0.16505	0.18694	0.19713	0.2524	0.17996	0.25878	0.57558	0.15128	0.10841	0.34666	0.31889	0.13144	0.23075	0.095239	0.37752	0.22799	-2.2812	-2.65	-3.0687	-2.4271	-3.0083	-2.925	-2.5354	-3.3167	-2.575	-2.7521	-3.4083	-2.6583	-3.1042	-3.1271	-2.4583	-3.4542	64.793	67.587	98.248	217.352	170.321	158.626	193.197	181.455	-22.986	53.870	13.125	-56.723	255.187	64.726	88.742	-18.974	0.00013548	0.00018698	9.7554e-05	1085.5	2.7546e-06	3.8283e-06	1174.6	224.11	2.6328e-06	1.4809e-06	283.02	77.882	62.611	18.199	2.8613e-06	25.398	0.00033067	0.00039242	0.00010109	1070	4.3535e-06	4.2835e-06	1158.4	222.23	4.1816e-06	4.3503e-06	281.32	78.761	62.572	18.461	4.0288e-06	25.703	-36.885	-15.577	5.863	-92.163	56.093	44.482	-92.211	-84.475	42.344	42.625	-84.818	-77.843	-77.574	-70.494	35.750	-71.225	-8191	255	
3380.127	1	1	0	0	0.22439	0.20969	0.13269	0.19505	0.17177	0.094118	0.24129	0.033014	0.16436	0.081306	0.24824	0.18208	0.23182	0.06991	0.019404	0.075503	-2.35	-2.5583	-3.3125	-2.8688	-3.0021	-3.2188	-2.5292	-3.3688	-2.8792	-2.7104	-3.3563	-2.5979	-2.8771	-2.9833	-2.4625	-3.2104	177.680	-56.686	103.886	187.358	161.213	26.911	203.800	156.099	140.265	58.193	-53.924	-83.275	0.768	-41.853	169.457	28.735	0.00013499	0.00034463	6.5912e-05	1084.1	2.5158e-06	1.1385e-06	1170.2	223.64	2.241e-06	2.4457e-06	282.94	78.818	62.048	18.207	2.3399e-07	25.53	0.00032812	0.00039657	0.00010535	1068.1	4.329e-06	4.2461e-06	1155.1	222.06	4.1541e-06	4.4109e-06	281.93	78.842	62.375	18.493	4.3187e-06	25.717	-45.602	-12.514	-5.741	-92.185	69.238	44.717	-91.858	-84.327	140.360	36.299	-84.702	-78.066	-77.627	-70.576	112.005	-70.834	-8191	255	
3380.223	1	1	0	0	0.25176	0.21042	0.095124	0.18078	0.018143	0.2057	0.11257	0.15586	0.10978	0.1297	0.165	0.040268	0.22817	0.10284	0.21458	0.13068	-2.475	-2.5583	-3.0833	-2.775	-2.7875	-3.2188	-2.6813	-3.1021	-2.8563	-2.5208	-3.2354	-2.5271	-2.7313	-3.3563	-2.4625	-3.2708	17.173	196.770	243.402	214.694	239.148	-92.795	192.291	111.157	43.260	-75.528	201.542	111.955	230.612	140.694	34.709	153.744	0.00015979	0.00029793	2.7851e-05	1085.8	2.6181e-06	3.6307e-06	1170.8	221.94	2.7209e-06	3.0241e-06	283.16	77.917	61.918	18.265	1.6709e-06	25.337	0.00033684	0.00041082	0.0001032	1068.8	4.4177e-06	4.2736e-06	1155.4	221.77	4.482e-06	4.4771e-06	281.57	78.673	62.485	18.493	4.3219e-06	25.66	-52.891	11.734	-56.477	-92.377	64.408	32.297	-92.144	-84.429	53.989	60.405	-85.066	-77.639	-77.754	-70.319	41.940	-70.926	-8191	255	
3380.319	1	1	0	0	0.22209	0.067619	0.081539	0.30048	0.17616	0.077624	0.08773	0.17613	0.074076	0.35568	0.12233	0.076561	0.17504	0.10217	0.10265	0.22982	-2.7146	-2.5854	-3.2917	-2.7333	-2.7833	-3.4083	-2.8354	-3.1854	-3.1979	-2.6875	-3.4562	-2.8583	-2.7687	-3.3646	-2.4813	-2.9583	-77.868	76.551	-86.757	212.530	-7.695	217.394	91.686	-35.464	-60.526	195.493	129.293	245.810	162.997	231.185	80.876	240.887	0.00014867	0.00028674	6.4145e-05	1084.4	3.5203e-06	1.8671e-06	1167.4	223.95	2.0089e-06	3.56e-06	282.83	77.803	61.924	18.28	2.3901e-06	25.193	0.00031869	0.00039694	0.00011256	1069.9	4.4021e-06	3.9558e-06	1155.4	222.7	4.1876e-06	4.5092e-06	281.8	78.574	62.365	18.498	4.3867e-06	25.714	-35.268	-9.459	-40.908	-92.164	56.259	58.323	-91.886	-84.480	13.689	43.035	-84.762	-77.810	-77.039	-70.513	68.427	-71.121	-8191	255	
3380.439	1	1	0	0	0.11699	0.12017	0.1926	0.13495	0.15108	0.13145	0.24999	0.16257	0.17092	0.17545	0.12812	0.031231	0.080705	0.081041	0.22204	0.14071	-2.8479	-2.4375	-3.2	-3.0167	-2.5958	-3.2521	-2.5917	-3.025	-3.3083	-2.6375	-3.4167	-3.1333	-2.5979	-3.5021	-2.5354	-2.8729	49.339	-63.199	-41.006	-91.694	30.097	9.125	165.932	210.845	-67.751	216.320	-67.155	20.610	11.858	32.893	50.404	7.828	0.00014193	0.00030611	0.00011951	1085	2.4285e-06	2.5726e-06	1170.9	224.15	2.0551e-06	4.1955e-06	283.05	78.368	62.393	18.171	1.988e-06	25.349	0.00031259	0.00040004	0.00011234	1069.7	4.6295e-06	4.2736e-06	1156.8	222.5	4.1285e-06	4.3579e-06	281.99	78.703	62.395	18.445	4.4091e-06	25.729	-30.675	-9.433	-11.452	-92.095	98.552	47.656	-91.852	-84.478	57.911	58.866	-84.714	-77.716	-76.972	-70.389	68.423	-70.972	-8191	255	
3380.511	1	1	0	0	0.17423	0.033155	0.042699	0.19874	0.20924	0.27124	0.17823	0.30905	0.067957	0.19828	0.063319	0.22443	0.14545	0.10438	0.20856	0.11512	-2.9833	-2.4313	-3.2146	-3.0917	-2.6104	-3.3187	-2.8792	-2.7271	-3.3896	-2.4083	-3.3146	-3.1375	-2.5708	-3.3521	-2.6437	-2.8542	105.613	252.937	-49.161	-81.770	-64.471	48.907	138.096	206.926	146.644	-57.756	193.512	9.600	217.873	49.213	104.611	115.928	0.00016426	0.00039222	0.00010683	1082.7	2.3684e-06	2.6744e-06	1174.1	223.25	1.8414e-06	1.8053e-06	283.05	77.586	62.117	18.231	1.5393e-06	25.367	0.00032068	0.00038753	0.00010932	1068.1	4.3224e-06	4.1557e-06	1157.6	222.49	3.9594e-06	4.4032e-06	281.64	78.632	62.418	18.536	4.4361e-06	25.69	-42.078	-19.412	-20.138	-92.056	47.713	12.360	-91.969	-84.369	32.876	1.839	-84.613	-78.108	-77.285	-69.994	11.304	-71.092	-8191	255	
3380.607	1	1	0	0	0.038139	0.10513	0.15743	0.14072	0.11684	0.14351	0.46536	0.086851	0.22338	0.065018	0.17097	0.067427	0.27119	0.079521	0.083149	0.061711	-2.8667	-2.5146	-3.0312	-3.2104	-2.5917	-3.1625	-2.9958	-2.8812	-3.3833	-2.5792	-3.0938	-3.3083	-2.4604	-3.3063	-2.7562	-2.5146	187.663	112.367	209.987	245.753	-34.704	165.749	191.900	219.500	22.581	176.624	-40.442	-92.483	-76.739	-7.664	-80.591	233.520	0.00018216	0.0003032	9.6491e-05	1083.8	3.2302e-06	2.9971e-06	1173.9	224.17	3.2608e-07	2.5698e-06	282.17	78.232	62.416	18.216	2.0118e-06	25.325	0.0003121	0.00042588	0.00010916	1067.8	4.4189e-06	4.4947e-06	1157.5	222.62	3.9553e-06	4.6123e-06	281.59	78.809	62.493	18.466	4.4014e-06	25.705	-41.016	4.531	-11.055	-91.965	79.072	37.949	-92.000	-84.547	120.963	45.876	-84.673	-78.378	-77.514	-70.012	96.965	-71.270	-8191	255	
3380.703	1	1	0	0	0.11883	0.11634	0.13125	0.22567	0.14901	0.24828	0.042863	0.11312	0.15699	0.11695	0.11445	0.076934	0.095125	0.22174	0.15994	0.11101	-2.95	-2.5021	-2.8146	-3.2021	-2.5042	-3.1521	-2.9	-2.5333	-3.4646	-2.7354	-2.9042	-3.1937	-2.5208	-3.2229	-2.8396	-2.6917	-56.250	129.330	-6.413	179.472	61.283	31.280	241.876	-14.000	-56.725	240.824	210.042	90.223	-28.850	176.098	37.692	253.040	0.00015579	0.00020655	7.1216e-05	1085.5	1.8003e-06	2.668e-06	1176.8	223.27	2.3071e-06	3.3841e-06	282.2	78.396	62.139	18.211	3.1272e-06	25.402	0.00031692	0.00041243	0.00011204	1069.5	4.4849e-06	4.3894e-06	1158.1	222.91	4.1643e-06	4.4695e-06	281.42	78.785	62.42	18.506	4.3315e-06	25.691	-33.572	-8.104	-29.704	-92.005	17.067	58.798	-92.100	-84.351	83.575	35.260	-85.059	-77.987	-76.908	-70.090	28.331	-71.298	-8191	255	
3380.824	1	1	0	0	0.10558	0.12813	0.20485	0.075334	0.10586	0.032014	0.17865	0.21224	0.076417	0.16257	0.15607	0.14173	0.15124	0.087082	0.29467	0.11242	-3.0604	-2.6688	-2.7521	-3.3833	-2.5687	-3.05	-3.1354	-2.5896	-3.5187	-2.8292	-2.8167	-3.4083	-2.5104	-3.2042	-3.0438	-2.6	182.923	148.556	-0.469	-14.026	-75.498	30.567	214.443	212.518	121.774	191.164	248.154	-76.442	-29.161	-1.801	59.711	90.508	0.00014063	0.00024782	8.0714e-05	1089.1	2.7642e-06	2.4832e-06	1174.4	224.46	2.5739e-06	1.7433e-06	282.95	77.893	61.401	18.175	3.9043e-06	25.249	0.00032543	0.00040134	0.00011378	1070.1	4.6457e-06	4.5314e-06	1156.8	222.63	4.0825e-06	4.6744e-06	281.71	78.729	62.271	18.441	4.0622e-06	25.692	-43.569	-33.501	-8.572	-91.880	59.763	65.547	-92.077	-84.346	7.677	76.313	-84.564	-78.145	-77.491	-70.298	45.050	-70.802	-8191	255	
3380.918	1	1	0	0	0.091092	0.23879	0.0732	0.05652	0.23539	0.17885	0.1252	0.20699	0.17703	0.29886	0.05979	0.086996	0.2004	0.31628	0.12453	0.2578	-2.9042	-2.7583	-2.6854	-3.4792	-2.3875	-3.0521	-3.5042	-2.5604	-3.2646	-2.9146	-2.8	-3.1667	-2.6771	-3.0333	-3.3958	-2.4813	-66.908	-73.111	242.177	-15.850	95.008	156.059	185.796	163.473	-71.564	-60.161	215.829	-90.068	131.822	189.121	249.493	188.050	0.00016626	0.0002213	7.6964e-05	1086.3	3.2328e-06	4.1471e-06	1173.1	223.2	3.0705e-06	3.2521e-06	282.9	77.943	61.755	18.203	4.5049e-06	25.205	0.00032142	0.00038573	0.00011138	1069.3	4.4525e-06	4.3668e-06	1159.4	222.2	4.2324e-06	4.2158e-06	281.56	78.836	62.497	18.467	4.0962e-06	25.665	-44.761	-16.112	19.390	-91.995	2.814	55.115	-91.905	-84.483	79.572	81.740	-84.592	-77.988	-77.208	-69.814	66.250	-71.369	-8191	255	
3381.016	1	1	0	0	0.018614	0.18529	0.12856	0.18611	0.1583	0.11791	0.12923	0.16733	0.072652	0.033368	0.21502	0.20691	0.32559	0.089917	0.22608	0.16446	-2.8396	-3.0708	-2.7438	-3.5167	-2.6542	-2.9083	-3.525	-2.525	-3.4125	-3.0458	-2.7208	-3.4521	-2.6312	-2.875	-3.2833	-2.6	183.622	243.124	192.355	-80.287	16.423	36.228	136.737	231.433	192.752	237.647	23.744	129.715	-43.647	224.104	-8.921	99.480	0.00015159	0.00019126	6.6406e-05	1084.7	1.2775e-06	1.9672e-06	1172.5	224.17	8.0456e-07	2.3894e-06	281.39	77.991	61.818	18.339	2.4932e-06	25.366	0.00032195	0.00038808	0.00011359	1070	4.6073e-06	4.3259e-06	1157.1	222.37	4.1989e-06	4.1976e-06	281.11	78.655	62.299	18.539	3.9467e-06	25.688	-36.936	-28.118	-1.530	-91.768	56.313	55.818	-91.934	-84.560	107.268	46.543	-84.468	-78.197	-77.087	-70.383	46.261	-71.248	-8191	255	
3381.135	1	1	0	0	0.28033	0.14747	0.1206	0.10034	0.12208	0.22701	0.17036	0.16953	0.061769	0.081143	0.18735	0.1618	0.18449	0.20035	0.18354	0.11327	-2.8563	-3.0312	-2.4854	-3.4313	-2.8021	-2.7042	-3.3167	-2.5687	-3.0917	-3.025	-2.4208	-3.2604	-2.6167	-2.6583	-3.2896	-2.7542	206.505	159.029	133.853	-27.123	176.273	209.814	146.176	154.673	-2.229	217.138	147.086	-53.506	60.465	3.776	182.302	-6.201	0.0001373	0.00047509	9.1425e-05	1084	3.33e-06	1.6075e-06	1174.7	223.73	2.1026e-06	3.2152e-06	283.68	78.221	61.71	18.247	2.6929e-06	25.043	0.0003395	0.00038839	0.00011293	1069.1	4.4663e-06	4.4459e-06	1158	222.39	4.4056e-06	4.3879e-06	281.76	78.684	62.427	18.501	4.059e-06	25.641	-46.741	-28.107	-3.064	-91.980	48.177	39.387	-91.854	-84.375	42.438	36.032	-84.803	-77.731	-77.337	-70.059	47.001	-70.975	-8191	255	
3381.207	1	1	0	0	0.12369	0.18563	0.19932	0.064202	0.32862	0.10281	0.12739	0.14822	0.16149	0.22198	0.13688	0.028359	0.1516	0.20015	0.14763	0.1418	-2.6917	-3.0521	-2.4917	-3.4583	-2.8854	-2.8312	-3.6229	-2.5521	-2.875	-3.2417	-2.6667	-3.2875	-2.9813	-2.4146	-3.1708	-2.7375	-37.223	153.267	10.048	222.817	-61.665	212.457	-82.448	203.828	57.846	47.723	-19.598	-86.709	9.059	-99.485	216.774	198.436	0.0001803	0.00036799	7.2676e-05	1087.4	2.4598e-06	2.7116e-06	1170.7	222.64	1.0235e-06	2.5121e-06	282.89	78.29	62.179	18.192	1.6681e-06	25.385	0.0003322	0.00036789	0.00010878	1071	4.3583e-06	4.4177e-06	1158.5	222.01	4.4199e-06	4.0032e-06	281.65	78.774	62.534	18.482	4.084e-06	25.679	-50.381	34.795	-24.730	-91.806	73.924	18.209	-91.674	-84.273	92.027	49.620	-84.708	-77.726	-76.869	-70.061	33.920	-71.000	-8191	255	
3381.303	1	1	0	0	0.21431	0.04826	0.32693	0.19344	0.10813	0.2019	0.14895	0.1987	0.16725	0.1105	0.17039	0.19403	0.20605	0.35895	0.076064	0.12387	-2.4875	-3.1583	-2.4646	-3.375	-2.8917	-2.5187	-3.3417	-2.6083	-2.8875	-3.3167	-2.7021	-3.2417	-3.1479	-2.3875	-3.25	-2.8604	-2.060	99.496	96.143	129.123	257.603	30.125	220.507	210.247	144.260	-63.738	-94.394	213.087	-23.120	-89.747	202.999	165.246	0.00015939	0.00031691	9.0607e-05	1082.7	1.4423e-06	2.3924e-06	1177.4	222.9	1.7223e-06	2.1432e-06	281.93	77.916	62.473	18.148	1.71e-06	25.426	0.00033992	0.00035184	0.00010782	1069.6	4.3212e-06	4.3697e-06	1158.5	222.31	4.1368e-06	4.1788e-06	281.63	78.636	62.378	18.445	4.0788e-06	25.776	-49.372	18.554	-4.313	-91.801	91.833	52.108	-91.703	-84.248	74.643	7.234	-84.422	-77.701	-77.206	-70.315	24.530	-71.067	-8191	255	
3381.424	1	1	0	0	0.13719	0.11315	0.12529	0.19976	0.053853	0.063368	0.2595	0.02755	0.037773	0.17735	0.24255	0.16323	0.15531	0.13845	0.28884	0.15916	-2.3917	-3.4583	-2.4854	-3.0625	-2.9833	-2.4458	-3.5187	-2.9771	-2.5979	-3.4188	-2.6229	-3.0854	-3.0292	-2.3979	-3.2438	-2.7521	-79.010	187.864	183.662	176.365	252.527	-53.991	221.390	36.833	203.813	-98.194	223.046	-69.058	-53.821	-48.372	-71.532	181.119	0.00016116	0.00026722	8.1103e-05	1089	2.4429e-06	3.6715e-06	1179	223.41	2.0984e-06	2.8957e-06	283.51	77.642	62.061	18.208	1.7807e-06	25.115	0.00032847	0.00035413	0.000115	1070	4.2468e-06	4.2016e-06	1160.6	222.13	4.1876e-06	4.0178e-06	281.86	78.536	62.227	18.475	4.2629e-06	25.674	-50.379	5.293	-2.345	-91.814	88.887	34.197	-91.753	-84.134	39.263	53.020	-84.248	-77.660	-77.353	-70.082	17.671	-70.729	-8191	255	
3381.520	1	1	0	0	0.092059	0.10839	0.18229	0.059587	0.10931	0.20331	0.12218	0.082232	0.14938	0.35409	0.13479	0.12502	0.14871	0.27245	0.13644	0.30969	-2.2792	-3.2896	-2.4188	-3.0312	-3.2792	-2.5271	-3.325	-2.9396	-2.6375	-3.5021	-2.7042	-2.9417	-3.4021	-2.2979	-3.1854	-2.8833	196.962	78.385	173.215	175.618	139.985	96.411	47.476	-43.393	107.763	-87.164	140.909	-44.897	47.063	143.024	-66.793	-24.075	0.00019788	0.00020942	4.6832e-05	1090.9	2.0988e-06	2.8217e-06	1170.9	222.99	3.3426e-06	3.544e-06	283.13	77.996	62.386	18.235	3.7233e-06	25.337	0.00034148	0.00037489	0.00011248	1073.4	3.9235e-06	4.7193e-06	1157.2	221.99	4.39e-06	4.1057e-06	281.63	78.604	62.478	18.454	4.0949e-06	25.718	-45.545	-44.156	-10.159	-91.670	12.969	22.219	-91.684	-84.244	61.505	27.572	-84.942	-77.764	-77.163	-70.147	76.975	-70.550	-8191	255	
3381.616	1	1	0	0	0.042644	0.19021	0.093857	0.16064	0.19946	0.1153	0.14008	0.26656	0.27643	0.043447	0.1435	0.071887	0.2623	0.072592	0.053275	0.13179	-1.9854	-3.3104	-2.5667	-2.9062	-3.2687	-2.3146	-3.3563	-3.15	-2.6021	-3.2021	-2.6312	-2.6292	-3.4083	-2.4875	-3.2229	-3.1896	-64.084	189.250	-85.511	175.865	24.698	220.194	225.630	242.709	-23.053	-33.607	115.416	70.904	-72.321	-2.990	-33.445	115.172	0.00014756	0.00038593	7.8665e-05	1089.4	3.4717e-06	1.9831e-06	1174	222.87	1.8078e-06	1.6737e-06	282.35	78.129	63.106	18.247	3.0186e-06	25.307	0.00031738	0.00038114	0.0001203	1071.7	4.1754e-06	4.5053e-06	1159	222.17	4.1368e-06	3.9921e-06	281.43	78.708	62.848	18.472	4.0615e-06	25.686	-44.099	-11.917	-29.183	-91.738	64.827	48.412	-91.984	-84.240	62.292	56.479	-85.283	-77.857	-77.302	-69.753	70.832	-70.846	-8191	255	
3381.737	1	1	0	0	0.18316	0.074081	0.22085	0.30391	0.14438	0.11574	0.13784	0.29011	0.069262	0.081486	0.18937	0.3302	0.14467	0.19613	0.17431	0.076666	-2.2208	-3.225	-2.7771	-2.9146	-3.3	-2.6292	-3.2542	-3.1625	-2.4958	-3.2583	-2.8021	-2.5958	-3.1333	-2.5312	-3.1688	-3.2354	48.721	144.326	45.468	242.549	58.311	165.951	163.999	214.892	158.956	-82.360	-95.091	233.479	142.070	252.389	-74.963	162.952	0.00017492	0.0002456	6.9928e-05	1088.6	3.6966e-06	2.7693e-06	1173.1	225.43	2.1537e-06	3.5462e-06	283.53	78.059	62.164	18.356	1.441e-06	25.248	0.00032879	0.0003695	0.00011373	1072.8	4.1856e-06	4.4855e-06	1158	222.87	4.3709e-06	4.1788e-06	281.36	78.715	62.365	18.495	4.1308e-06	25.722	-48.064	-29.298	-10.234	-91.794	73.335	78.609	-91.657	-84.525	64.206	45.200	-84.729	-77.241	-77.215	-70.070	77.905	-70.961	-8191	255	
3381.808	1	1	0	0	0.034329	0.12175	0.13279	0.27534	0.10197	0.13887	0.080942	0.27704	0.074833	0.24085	0.15716	0.2368	0.11849	0.095029	0.084645	0.094166	-2.3	-3.2313	-2.7062	-2.6833	-3.3896	-2.6604	-3.0563	-3.3625	-2.4458	-3.3021	-2.9813	-2.8063	-3.1833	-2.6729	-2.7021	-3.3167	178.405	79.697	24.905	235.120	174.868	245.673	251.284	179.665	176.699	219.022	109.376	-59.442	199.582	106.894	67.058	38.773	0.0001549	0.00034843	5.5831e-05	1087.7	2.5532e-06	2.6722e-06	1177.8	222.41	1.861e-06	3.3673e-06	279.8	78.092	62.355	18.357	1.76e-06	25.306	0.00033152	0.00038604	0.00011113	1072.1	4.131e-06	4.4474e-06	1160.7	221.77	4.4647e-06	4.6311e-06	281.17	78.734	62.52	18.51	4.4367e-06	25.696	-40.757	-25.622	-30.641	-91.796	64.362	39.729	-91.783	-84.258	96.273	25.876	-84.556	-77.498	-76.894	-70.304	78.869	-70.854	-8191	255	
3381.904	1	1	0	0	0.18052	0.12643	0.24393	0.1287	0.38191	0.30138	0.054709	0.078684	0.18286	0.087744	0.15714	0.10229	0.10631	0.051694	0.17007	0.10874	-1.9771	-3.1354	-2.9188	-2.6667	-3.3854	-2.7938	-2.8625	-3.2354	-2.5604	-3.2729	-3.2687	-2.5917	-3.3438	-2.9771	-2.5312	-3.3396	-1.222	94.442	160.841	-90.262	198.186	-70.353	-33.467	238.229	9.321	50.481	217.748	163.023	2.628	197.529	-69.776	52.810	0.00015272	0.00033852	0.00010512	1088	2.1957e-06	3.1402e-06	1174.9	223.59	1.8198e-06	3.5934e-06	281.87	78.034	62.696	18.292	2.3424e-06	25.3	0.00033205	0.00039639	0.00010745	1071.4	4.1934e-06	4.518e-06	1159.6	222.56	4.39e-06	4.2924e-06	281.29	78.611	62.577	18.527	4.0872e-06	25.691	-45.001	21.919	-10.762	-91.643	48.028	76.850	-91.799	-84.258	102.960	64.368	-84.805	-77.650	-77.228	-69.649	73.416	-70.814	-8191	255	
3382.001	1	1	0	0	0.21573	0.079522	0.020612	0.36601	0.29264	0.080982	0.19462	0.15193	0.099762	0.20857	0.10198	0.21545	0.36244	0.19927	0.30656	0.027239	-2.2708	-2.8812	-3.0667	-2.7146	-3.2917	-2.8312	-2.7083	-3.275	-2.5958	-2.9896	-3.2229	-2.4708	-3.0708	-3.0083	-2.6688	-3.3792	102.817	-10.819	96.053	-47.791	2.196	-75.200	177.262	-85.048	26.572	-55.340	23.888	-28.065	-59.829	219.250	41.813	43.449	0.00018607	0.00023829	8.8688e-05	1087.8	1.4202e-06	1.8736e-06	1171.6	223.36	1.9373e-06	2.8142e-06	283.22	77.859	61.817	18.248	2.3202e-06	25.201	0.00033539	0.00038616	0.00011387	1071.3	4.1778e-06	4.5116e-06	1157.5	222.39	4.353e-06	4.1983e-06	281.77	78.612	62.44	18.446	4.1911e-06	25.723	-50.693	-2.978	-6.342	-91.796	73.923	18.443	-91.676	-84.286	61.123	65.066	-84.642	-77.885	-77.108	-70.129	103.002	-70.975	-8191	255	
3382.119	1	1	0	0	0.24227	0.17381	0.30487	0.44718	0.17513	0.053664	0.15318	0.21584	0.0398	0.13912	0.073644	0.32867	0.10894	0.31101	0.28478	0.25606	-2.225	-2.7854	-3.2354	-2.4979	-3.05	-2.8979	-2.5458	-3.3604	-2.5521	-2.925	-3.2792	-2.4875	-3.1375	-2.9521	-2.4792	-3.3229	13.789	245.803	212.491	232.737	87.564	138.105	-49.709	213.618	192.825	-6.817	172.057	186.646	162.970	128.285	69.486	213.635	0.00015983	0.00023238	0.00010026	1089.2	2.657e-06	2.806e-06	1170.7	223.96	9.9858e-07	2.3201e-06	284.06	78.375	62.622	18.228	2.8498e-06	25.459	0.00032716	0.00040407	0.00010597	1071.2	4.1088e-06	4.381e-06	1156.5	222.6	4.4426e-06	4.4395e-06	281.53	78.739	62.602	18.444	4.0096e-06	25.741	-50.628	-29.019	-35.858	-92.039	76.458	52.800	-91.884	-84.094	91.810	75.875	-84.737	-77.722	-77.094	-70.164	78.963	-70.928	-8191	255	
3382.216	1	1	0	0	0.079401	0.092287	0.23998	0.34942	0.19266	0.19306	0.19717	0.33303	0.21117	0.11846	0.18134	0.13103	0.1407	0.10794	0.089176	0.11231	-2.3271	-2.6542	-3.1792	-2.4729	-3.0438	-2.975	-2.7313	-3.3333	-2.7771	-2.7354	-3.5062	-2.5354	-3.1125	-3.0521	-2.5083	-3.3042	172.029	-38.879	214.823	-101.280	210.073	218.409	210.576	170.216	-3.345	-80.633	22.329	1.348	227.664	107.812	196.782	128.431	0.00014799	0.00020784	9.3448e-05	1086.3	1.5579e-06	2.2347e-06	1172.9	223.58	2.4738e-06	3.9048e-06	282.01	78.015	62.105	18.214	2.4195e-06	25.463	0.00032206	0.00040717	0.00010995	1071.4	4.4261e-06	4.4481e-06	1156.5	222.33	4.4032e-06	4.5273e-06	281.19	78.65	62.429	18.468	4.4111e-06	25.74	-41.927	6.190	-1.651	-91.975	41.420	48.439	-91.726	-84.237	46.701	43.251	-84.689	-77.488	-77.052	-69.870	76.068	-70.803	-8191	255	
3382.312	1	1	0	0	0.27762	0.27504	0.30459	0.082055	0.15355	0.13433	0.12328	0.2901	0.12738	0.23938	0.069377	0.22116	0.22065	0.032693	0.18734	0.1873	-2.4104	-2.5833	-3.3604	-2.5458	-3.0292	-3.1688	-2.5687	-3.2917	-2.9354	-2.5729	-3.5542	-2.5125	-2.8563	-3.1833	-2.5833	-3.3708	-98.568	-52.001	242.099	223.056	97.079	-65.172	218.721	84.397	-33.058	114.651	197.307	228.816	183.214	4.639	161.332	200.482	0.00017826	0.000393	0.00010084	1085.3	1.9251e-06	4.1275e-06	1175	223.59	1.8545e-06	2.4649e-06	282.65	77.98	62.192	18.322	4.0564e-06	25.201	0.00031869	0.00040816	0.00010555	1070	4.323e-06	4.2277e-06	1157.8	222.51	4.3225e-06	4.2708e-06	281.21	78.633	62.521	18.494	4.2783e-06	25.701	-46.918	-40.883	3.601	-91.811	47.667	51.878	-91.830	-84.265	84.151	64.165	-84.399	-77.515	-76.970	-70.066	67.876	-70.626	-8191	255	
3382.408	1	1	0	0	0.1292	0.098346	0.20847	0.061801	0.23988	0.060846	0.037877	0.16016	0.1457	0.099438	0.14721	0.27583	0.15533	0.069765	0.10687	0.21649	-2.7708	-2.3479	-3.3812	-2.7042	-2.8104	-3.1833	-2.5958	-3.0687	-3.0604	-2.5812	-3.3917	-2.7583	-2.7	-3.2542	-2.5708	-3.0917	-59.310	-5.992	0.558	185.792	11.358	200.540	175.962	245.762	109.679	231.612	-67.417	244.883	-86.719	-12.580	204.604	222.370	0.00015645	0.00023715	4.9478e-05	1084.8	1.5748e-06	3.9405e-06	1168.6	223.65	2.5472e-06	2.8955e-06	284.4	77.957	61.586	18.211	2.6693e-06	25.319	0.00032245	0.00039409	0.00010322	1069.5	4.4195e-06	4.3174e-06	1157	222.53	4.0634e-06	4.5057e-06	281.62	78.602	62.252	18.466	4.345e-06	25.749	-48.694	14.906	-29.925	-92.063	57.152	59.942	-92.209	-84.391	7.991	33.760	-84.996	-77.956	-77.621	-70.431	71.360	-71.207	-8191	255	
3382.504	1	1	0	0	0.17905	0.13239	0.11682	0.15709	0.014407	0.031139	0.2334	0.25897	0.13236	0.10276	0.1246	0.26688	0.25485	0.31393	0.16933	0.042353	-2.7104	-2.5146	-3.2458	-3.1063	-2.7167	-3.3021	-2.7	-3.1479	-3.1688	-2.4542	-3.1917	-2.8958	-2.4354	-3.2917	-2.4896	-2.9958	-45.138	25.268	-63.157	-79.395	246.011	152.859	188.608	182.180	247.648	-100.625	-76.191	199.503	127.448	216.644	-9.411	-35.346	0.00014387	0.00018553	6.0343e-05	1086.5	1.7279e-06	2.8375e-07	1172.7	222.68	3.8552e-06	4.2943e-06	281.86	78.298	62.539	18.188	3.9837e-06	25.362	0.00033322	0.00040085	0.00010777	1070.3	4.4579e-06	4.1585e-06	1157.4	222.33	4.0311e-06	4.4757e-06	281.61	78.696	62.612	18.478	4.3084e-06	25.73	-42.854	-10.341	-58.910	-92.290	43.066	104.733	-92.095	-84.470	88.139	51.473	-85.172	-78.044	-77.349	-70.410	85.911	-71.100	-8191	255	
3382.600	1	1	0	0	0.12322	0.15117	0.43691	0.068212	0.17373	0.17438	0.056636	0.23887	0.04135	0.20305	0.17974	0.20425	0.3215	0.12235	0.22378	0.049006	-2.8479	-2.3063	-3.1458	-2.9562	-2.7021	-3.4375	-2.7958	-2.8167	-3.1813	-2.4938	-3.2958	-2.8896	-2.5917	-3.4083	-2.6958	-2.8146	177.086	99.621	-94.901	-92.198	7.013	191.898	-89.171	124.817	210.691	228.020	226.528	165.182	-60.267	220.636	-44.182	201.022	0.00016591	0.00033303	5.7515e-05	1087.6	2.0212e-06	3.5519e-06	1174.5	224.24	3.0873e-06	2.8708e-06	282.82	77.6	62.279	18.263	3.5856e-06	25.269	0.00031337	0.00039812	0.00010517	1070.6	4.3937e-06	4.1451e-06	1157.7	222.76	3.7869e-06	4.4562e-06	281.53	78.389	62.37	18.46	4.1455e-06	25.666	-41.958	-22.524	-38.214	-92.340	54.272	31.929	-92.168	-84.403	10.298	65.029	-84.842	-78.074	-77.703	-70.353	77.782	-70.827	-8191	255	
3382.696	1	1	0	0	0.11786	0.14624	0.20695	0.25123	0.26488	0.12936	0.23299	0.28765	0.090162	0.19452	0.054871	0.16365	0.16103	0.21762	0.36376	0.141	-2.8792	-2.3583	-3.2083	-3.2854	-2.3896	-3.4208	-2.9958	-2.8896	-3.3271	-2.5521	-3.1208	-2.9938	-2.4146	-3.3625	-2.7875	-2.6271	-30.800	-10.617	-26.122	199.551	21.504	145.081	204.532	123.631	146.889	2.772	166.608	99.542	-13.989	80.551	172.238	248.252	0.00014978	0.00037228	7.9234e-05	1083.2	2.9204e-06	2.8097e-06	1176.5	223.87	2.5001e-06	3.4204e-06	284.71	78.109	62.457	18.247	4.2677e-06	25.244	0.00030696	0.00039484	0.00010925	1070.5	4.3721e-06	4.2383e-06	1158.6	222.45	3.9194e-06	4.2304e-06	281.69	78.604	62.495	18.474	4.1571e-06	25.709	-64.778	-28.098	17.508	-92.128	75.357	17.588	-92.039	-84.578	70.298	48.379	-84.794	-77.953	-77.142	-70.388	55.035	-71.438	-8191	255	
3382.817	1	1	0	0	0.11775	0.23072	0.062	0.04388	0.14269	0.17001	0.29212	0.33204	0.08325	0.085086	0.12391	0.027904	0.20543	0.070989	0.18403	0.1096	-2.9354	-2.4521	-2.95	-3.2833	-2.6458	-3.3042	-2.9188	-2.6833	-3.3625	-2.6958	-2.8563	-3.2917	-2.4458	-3.3312	-2.8812	-2.7062	-57.779	91.370	245.275	-12.123	-46.059	71.866	241.939	195.956	194.305	256.971	-88.923	29.128	183.307	70.825	164.743	174.801	9.5521e-05	0.00027225	8.9978e-05	1082.8	3.1211e-07	3.1102e-06	1171.9	225.35	2.5107e-06	1.4187e-06	284.12	78.15	62.266	18.076	2.8451e-06	25.343	0.00031734	0.00039019	0.00011375	1069.4	4.4471e-06	4.162e-06	1156.3	222.95	4.052e-06	4.3064e-06	282.19	78.662	62.556	18.428	4.1398e-06	25.671	-41.762	-15.046	-14.753	-92.123	67.083	54.972	-91.870	-84.457	95.405	56.439	-84.655	-77.668	-76.940	-70.550	77.144	-70.896	-8191	255	
3382.913	1	1	0	0	0.27557	0.38976	0.3585	0.12759	0.17303	0.11457	0.3545	0.26206	0.12307	0.095306	0.024261	0.082739	0.17865	0.075374	0.087343	0.25475	-3.0521	-2.5458	-2.7583	-3.3729	-2.3563	-3.2333	-3.0875	-2.8104	-3.3958	-2.6583	-3.0125	-3.3604	-2.3021	-3.2729	-3.1	-2.3875	184.355	34.130	198.668	209.694	161.089	211.393	180.787	227.050	245.494	85.262	-18.320	-37.053	72.126	215.965	160.349	144.914	0.00014385	0.00017674	0.00010061	1082.4	1.9937e-06	2.6853e-06	1169.1	224.28	2.2009e-06	1.7082e-06	282.06	77.985	61.935	18.099	3.8467e-06	25.301	0.00031171	0.00039614	0.00010409	1067.8	4.4033e-06	4.2284e-06	1156.2	222.58	3.9654e-06	4.3301e-06	281.36	78.743	62.511	18.442	3.9756e-06	25.674	-40.156	-22.216	-40.440	-92.077	16.808	24.362	-92.130	-84.536	87.938	53.553	-84.827	-78.310	-77.015	-70.820	70.976	-71.044	-8191	255	
3383.008	1	1	0	0	0.12255	0.18336	0.26126	0.18556	0.12413	0.14992	0.17314	0.057408	0.29744	0.024524	0.22644	0.25865	0.37149	0.073361	0.17392	0.063001	-2.9521	-2.6979	-2.7229	-3.4688	-2.45	-3.0771	-3.2417	-2.5104	-3.1958	-2.8104	-2.8396	-3.3729	-2.5417	-3.1146	-3.1125	-2.5771	-47.290	-32.243	47.725	118.288	-9.187	-37.650	185.554	244.416	-68.362	64.282	192.474	214.630	37.335	208.198	77.509	242.217	0.00013127	0.00035678	8.1545e-05	1085.1	2.6124e-06	2.9639e-06	1170.3	223.48	6.0856e-07	3.0459e-06	282.97	77.744	62.328	18.173	2.9772e-06	25.555	0.00030143	0.00040927	0.00010325	1069.8	4.5713e-06	4.4177e-06	1157	222.47	4.1243e-06	4.3691e-06	281.79	78.561	62.557	18.55	3.8903e-06	25.79	-33.220	-33.102	13.727	-92.350	34.213	55.886	-92.322	-84.789	111.012	13.696	-84.934	-78.212	-77.574	-70.492	64.604	-70.948	-8191	255	
3383.104	1	1	0	0	0.057965	0.019841	0.11353	0.25996	0.1873	0.22915	0.29975	0.0068846	0.12093	0.20887	0.12144	0.20593	0.097894	0.1412	0.23534	0.082241	-2.9979	-2.8333	-2.5042	-3.4104	-2.5604	-2.8312	-3.0167	-2.4646	-3.2042	-3.0167	-2.6583	-3.4042	-2.7792	-2.6729	-3.375	-2.4604	222.501	157.423	-14.806	158.336	-5.164	-11.731	188.283	-47.074	248.424	38.611	-64.630	217.480	231.035	178.708	193.087	243.730	0.00015505	0.00032665	0.00010316	1084.8	1.2619e-06	2.0237e-06	1173.9	223.54	1.73e-06	2.8102e-06	282.02	77.748	62.287	18.176	2.6397e-06	25.343	0.00031858	0.0003931	0.00010723	1069.5	4.4099e-06	4.2687e-06	1157.3	222.18	4.1452e-06	4.337e-06	281.65	78.579	62.469	18.483	4.0224e-06	25.734	-49.382	16.472	-3.031	-92.293	159.394	45.634	-92.096	-84.502	57.695	55.806	-85.142	-77.949	-78.340	-70.037	107.983	-71.316	-8191	255	
3383.200	1	1	0	0	0.18979	0.028805	0.11615	0.19418	0.061133	0.2277	0.23637	0.12651	0.074784	0.18016	0.067186	0.12067	0.21828	0.090843	0.21053	0.19915	-2.7917	-2.875	-2.5146	-3.2896	-2.7667	-2.7479	-3.4104	-2.6771	-3.1417	-3.1771	-2.6063	-3.3563	-2.8229	-2.6729	-3.0833	-2.4229	238.624	-25.584	-3.890	206.262	36.494	230.403	8.068	191.422	111.583	-39.750	-67.747	28.744	228.828	10.597	79.791	226.676	0.00014542	0.00030708	6.6598e-05	1084.7	2.8345e-06	3.0138e-06	1174.2	224.39	3.3753e-06	2.4766e-06	283.49	77.728	61.712	18.234	3.5281e-06	25.32	0.00031858	0.00036919	0.00010826	1069.3	4.4219e-06	4.3329e-06	1156.4	222.52	4.0484e-06	3.9265e-06	282.05	78.488	62.249	18.454	3.8576e-06	25.718	-40.767	-38.187	-16.335	-92.142	26.432	57.790	-92.105	-84.593	69.024	39.773	-85.034	-78.198	-77.160	-70.299	75.112	-71.110	-8191	255	
3383.296	1	1	0	0	0.23234	0.092906	0.34966	0.19663	0.26986	0.38019	0.22351	0.21279	0.052346	0.10479	0.30263	0.20613	0.10358	0.10242	0.079121	0.083932	-2.8396	-3.0938	-2.4083	-3.3375	-2.7104	-2.6521	-3.3917	-2.7188	-3.1771	-3.0521	-2.6479	-3.2542	-2.8063	-2.4958	-3.3438	-2.5625	215.145	-27.849	-21.293	58.841	91.539	-69.201	79.194	25.915	43.123	35.739	245.148	-49.870	114.760	-17.661	107.354	12.448	0.00015413	0.00021814	8.1066e-05	1083.5	2.7283e-06	2.2524e-06	1173.2	222.77	2.3467e-06	4.7345e-06	282.5	77.752	62.274	18.314	4.9601e-06	25.123	0.00032823	0.00036609	0.00010589	1069.5	4.3212e-06	4.1154e-06	1156.7	222.3	3.9117e-06	4.0597e-06	282.29	78.617	62.348	18.48	3.7383e-06	25.669	-55.697	-3.603	-45.975	-92.021	86.624	65.449	-91.899	-84.616	79.987	39.867	-85.201	-78.146	-77.406	-70.348	53.378	-71.222	-8191	255	
3383.417	1	1	0	0	0.045217	0.091386	0.12758	0.13354	0.20446	0.1251	0.21142	0.10066	0.15922	0.18009	0.31507	0.14776	0.063721	0.088929	0.11168	0.24274	-2.5875	-3.1312	-2.2625	-3.3	-2.9708	-2.6125	-3.4396	-2.5	-2.9396	-3.1729	-2.2438	-3.2167	-2.9396	-2.7062	-3.2146	-2.7729	223.591	-34.387	-65.982	223.175	167.825	-1.003	189.377	-70.240	-81.320	51.690	-76.874	95.142	-97.443	112.232	34.479	61.296	0.00014528	0.00028123	6.7987e-05	1087.7	5.5297e-07	3.2105e-06	1175.3	222.61	3.276e-06	2.6515e-06	281.94	78.108	62.06	18.22	4.49e-06	25.297	0.00031369	0.00036324	0.00010641	1070.9	4.5059e-06	4.1154e-06	1158	222.35	4.2879e-06	3.937e-06	281.35	78.782	62.514	18.492	3.9499e-06	25.708	-28.674	-38.064	-24.217	-92.049	66.544	48.409	-91.834	-84.412	77.233	58.329	-84.816	-77.957	-77.203	-70.136	57.034	-71.416	-8191	255	
3383.513	1	1	0	0	0.19412	0.19121	0.47004	0.34183	0.25832	0.1908	0.23571	0.017441	0.13523	0.12499	0.18866	0.072133	0.11112	0.11091	0.14057	0.22802	-2.4875	-3.3438	-2.6	-3.3333	-2.9437	-2.4542	-3.5	-2.6854	-2.7062	-3.2021	-2.5583	-3.0667	-3.1271	-2.5583	-3.2188	-2.8042	62.598	-94.924	203.838	176.937	84.360	148.841	184.359	112.055	-20.289	42.547	-51.715	236.335	-4.153	104.973	-9.803	-79.009	0.00018048	0.00029241	6.0896e-05	1084.1	3.0247e-06	1.5956e-06	1175.2	223.39	2.5459e-06	2.5961e-06	282.86	78.253	61.823	18.151	3.5327e-06	25.277	0.00031585	0.00035407	0.00010878	1071.2	4.0482e-06	4.143e-06	1158	222.21	4.1452e-06	3.7223e-06	281.31	78.582	62.311	18.436	3.8422e-06	25.717	-43.687	-12.042	-5.556	-91.889	32.353	46.559	-91.674	-84.578	87.349	53.572	-84.651	-77.376	-77.317	-69.725	61.843	-71.336	-8191	255	
3383.609	1	1	0	0	0.22041	0.37904	0.088683	0.071445	0.078009	0.11261	0.10463	0.06698	0.047481	0.10794	0.16212	0.20547	0.16338	0.20686	0.23887	0.084468	-2.3312	-3.3021	-2.475	-3.0625	-3.05	-2.5271	-3.3771	-2.9313	-2.7562	-3.3125	-2.525	-2.9458	-3.2812	-2.5333	-3.3104	-2.8958	1.294	-84.043	123.529	213.557	146.282	-32.524	115.098	-37.968	-14.327	-15.932	156.266	-28.163	40.951	176.118	13.454	112.301	0.00014366	0.00026442	0.00012192	1087.1	1.8377e-06	3.7862e-06	1176	223.02	3.6238e-06	1.6379e-06	280.58	77.918	61.939	18.214	1.2867e-06	25.347	0.00031217	0.00035345	0.00011298	1068.7	4.0116e-06	4.3697e-06	1158.9	221.87	3.8967e-06	3.7007e-06	281	78.653	62.191	18.443	4.0198e-06	25.687	-38.956	2.429	-13.267	-91.801	29.980	42.158	-91.803	-84.349	50.684	24.118	-84.450	-77.574	-77.458	-70.082	27.498	-70.897	-8191	255	
3383.681	1	1	0	0	0.18465	0.052526	0.14434	0.14252	0.22285	0.19152	0.32413	0.1115	0.073419	0.067652	0.20103	0.048994	0.079176	0.10902	0.22089	0.042223	-2.0542	-3.3583	-2.7208	-2.9458	-3.1542	-2.5333	-3.3833	-3.1729	-2.6854	-3.4562	-2.9	-2.7396	-3.3479	-2.6521	-3.2042	-3.0083	209.674	-69.718	-64.369	-49.876	232.324	132.288	138.216	196.270	189.517	-37.400	-73.793	-62.055	-101.785	43.682	136.157	-70.937	0.00015206	0.00045542	8.8956e-05	1088.4	3.0764e-06	3.3668e-06	1168.9	222.58	2.6995e-06	2.2215e-06	282.68	77.835	62.021	18.114	4.5304e-06	25.313	0.00029951	0.00038362	0.00010322	1070.5	4.0009e-06	4.4664e-06	1156.3	221.53	4.0634e-06	3.8924e-06	280.82	78.584	62.329	18.466	3.9974e-06	25.618	-55.807	-30.782	-9.318	-91.723	40.499	38.774	-91.760	-84.158	12.566	10.642	-84.666	-77.532	-77.132	-69.908	71.242	-70.964	-8191	255	
3383.801	1	1	0	0	0.014457	0.27636	0.21347	0.14171	0.088356	0.18696	0.29271	0.21955	0.18705	0.10562	0.081321	0.24526	0.10636	0.14617	0.099152	0.27123	-2.1375	-3.3208	-2.7417	-3.0604	-3.4625	-2.6104	-3.4	-3.225	-2.6521	-3.3625	-2.8333	-2.5604	-3.2771	-2.6396	-2.9646	-3.2979	55.613	-9.054	-5.438	146.633	-69.421	-71.379	156.792	138.546	187.519	-29.508	149.238	-18.346	88.445	191.357	8.089	73.503	0.00015727	0.00037665	9.3011e-05	1086.7	2.8743e-06	1.5281e-06	1178.2	221.98	2.6895e-06	3.4458e-06	282.24	78.152	61.56	18.208	4.3029e-06	25.057	0.0003172	0.00036931	0.00010773	1069.7	4.0188e-06	4.2447e-06	1158.1	221.78	3.9379e-06	3.9454e-06	281.27	78.743	62.141	18.466	4.0853e-06	25.628	-42.185	-2.068	-20.253	-91.413	53.607	36.546	-91.628	-84.356	61.033	63.140	-84.863	-77.351	-77.467	-70.052	60.961	-70.516	-8191	255	
3383.897	1	1	0	0	0.094246	0.074331	0.31016	0.20607	0.052024	0.094018	0.12208	0.13223	0.095236	0.16838	0.11608	0.21396	0.087746	0.27101	0.18302	0.2315	-1.9688	-3.2083	-2.8417	-2.9208	-3.4125	-2.725	-2.975	-3.1583	-2.3229	-3.1292	-2.9479	-2.6646	-3.2812	-2.7375	-2.9896	-3.2375	257.406	19.873	-9.755	216.292	60.175	204.948	-93.928	-99.588	139.092	-29.913	169.992	204.823	80.011	98.458	4.188	162.201	0.00013924	0.00024452	8.7777e-05	1086.2	3.2333e-06	2.243e-06	1171.8	223.66	3.7765e-06	2.1866e-06	282.62	78.107	62.042	18.347	4.2575e-06	25.196	0.00032589	0.00035872	0.00010791	1070.4	4.1478e-06	4.3082e-06	1156.8	222.49	4.2067e-06	4.0088e-06	281.29	78.611	62.295	18.485	4.0449e-06	25.666	-57.677	3.253	4.370	-91.493	125.469	42.588	-91.802	-84.429	56.228	35.347	-84.420	-77.509	-76.933	-69.929	62.553	-71.382	-8191	255	
3383.994	1	1	0	0	0.10337	0.19353	0.12784	0.073372	0.19783	0.31147	0.14275	0.010567	0.11807	0.14015	0.21679	0.064946	0.27132	0.16018	0.042834	0.27425	-2.0479	-3.0812	-3.0146	-2.7938	-3.4313	-2.8542	-3.0896	-3.3063	-2.5938	-3.1562	-3	-2.5479	-3.4021	-2.725	-2.8292	-3.3333	220.830	246.580	7.426	45.467	240.380	86.793	-47.212	-82.202	177.340	-91.728	180.425	6.499	-75.609	-1.969	-40.695	-47.488	0.00015656	0.00032266	8.2559e-05	1087	3.2372e-06	2.4155e-06	1173.1	223.11	2.4351e-06	3.1246e-06	281.57	77.984	61.889	18.36	3.0242e-06	25.382	0.00032596	0.00038331	0.00010569	1069.3	4.1328e-06	4.2115e-06	1157.5	222.25	4.1965e-06	4.0534e-06	281.19	78.572	62.581	18.473	4.1648e-06	25.696	-40.766	-30.931	-17.942	-91.771	44.038	22.658	-91.570	-84.094	7.978	50.535	-84.451	-77.467	-77.042	-69.962	91.569	-70.925	-8191	255	
3384.088	1	1	0	0	0.22056	0.049938	0.26194	0.30959	0.10433	0.1856	0.33067	0.087731	0.13157	0.025567	0.15184	0.10641	0.13723	0.1027	0.12808	0.054246	-2.1813	-2.9354	-3.0646	-2.5604	-3.4667	-2.8729	-2.8146	-3.5729	-2.6583	-3.0583	-3.0667	-2.5812	-3.3771	-2.7667	-2.6813	-3.4562	229.021	-57.459	-53.015	227.838	251.800	-56.261	239.859	183.963	158.830	-12.461	121.084	95.312	155.189	241.492	207.800	247.235	0.00013677	0.0003036	6.4511e-05	1082.1	1.1104e-06	3.0334e-06	1172.3	223	3.247e-06	4.4163e-06	283.64	77.914	62.043	18.139	2.6064e-06	25.393	0.00034003	0.0003949	9.8685e-05	1068.9	4.2324e-06	4.5342e-06	1156.9	221.9	4.4277e-06	4.2743e-06	280.99	78.638	62.451	18.393	3.941e-06	25.685	-26.345	-2.488	9.932	-91.849	81.226	69.562	-91.834	-84.115	26.708	54.740	-84.738	-77.828	-76.878	-70.286	30.898	-70.359	-8191	255	
3384.209	1	1	0	0	0.23029	0.14879	0.1295	0.15378	0.14039	0.10872	0.53903	0.11255	0.16714	0.1241	0.13549	0.16901	0.15093	0.055115	0.11148	0.24369	-2.2042	-2.95	-3.3333	-2.5583	-3.2375	-2.8167	-2.6479	-3.4583	-2.6604	-2.7354	-3.2687	-2.4688	-3.3208	-3.0354	-2.4604	-3.4417	51.031	-86.302	-23.219	185.771	95.885	183.282	218.425	167.785	-52.493	-83.756	134.999	81.976	148.135	72.244	59.117	-61.613	0.00015882	0.00041369	0.00010382	1088.3	1.0155e-06	2.5388e-06	1175.9	224.9	1.9201e-06	3.2166e-06	281.39	78.273	62.108	18.308	9.4391e-07	25.264	0.00032046	0.00039137	0.00010646	1070.1	4.2498e-06	4.2411e-06	1157.9	222.46	4.4085e-06	4.3649e-06	280.7	78.737	62.461	18.461	4.2321e-06	25.65	-44.227	-20.703	-6.346	-91.650	71.814	61.478	-91.554	-84.157	58.939	39.505	-84.410	-77.617	-77.203	-70.183	38.200	-71.070	-8191	255	
3384.305	1	1	0	0	0.12532	0.12139	0.25695	0.36907	0.13365	0.2066	0.14032	0.11362	0.11707	0.22984	0.15157	0.13739	0.15296	0.26372	0.018241	0.05213	-2.4083	-2.6729	-3.2792	-2.5625	-3.0687	-3.1375	-2.6542	-3.5042	-2.7396	-2.7375	-3.3854	-2.475	-3.0229	-2.9875	-2.5021	-3.1875	121.510	-73.918	7.006	215.329	-65.957	125.451	232.898	194.720	229.274	-82.455	170.856	-21.869	90.364	167.618	43.168	158.898	0.00014873	0.00025734	9.8201e-05	1085.9	2.743e-06	3.5674e-06	1174.4	223.05	2.1285e-06	1.7335e-06	282.5	77.774	61.989	18.203	2.8508e-06	25.464	0.00031766	0.00039273	0.0001046	1068.2	4.3062e-06	4.1437e-06	1156.6	222.13	4.1135e-06	4.5851e-06	281.17	78.526	62.323	18.488	4.2821e-06	25.755	-40.719	-26.909	-8.918	-91.446	74.878	54.291	-91.781	-84.146	78.855	53.337	-84.787	-77.575	-76.770	-69.670	57.845	-70.422	-8191	255	
3384.376	1	1	0	0	0.10894	0.25352	0.18307	0.12079	0.10681	0.11179	0.20766	0.09395	0.24513	0.047539	0.082297	0.18521	0.15119	0.13785	0.42675	0.27746	-2.4625	-2.6333	-3.2146	-2.7	-2.9	-3.1771	-2.5625	-3.2	-2.7771	-2.4979	-3.2646	-2.5708	-2.95	-3.2896	-2.4458	-3.2667	257.541	-90.184	211.436	177.363	158.183	-56.792	-74.164	163.276	80.219	2.019	247.389	4.748	7.207	91.642	203.982	86.268	0.00016296	0.00016126	7.0171e-05	1084.5	2.32e-06	2.4957e-06	1173.7	223.79	4.1499e-07	2.1282e-06	283.32	78.138	62.247	18.357	2.8964e-06	25.31	0.00033563	0.00039484	0.00010658	1068.8	4.5059e-06	4.2235e-06	1157.5	222.63	4.4927e-06	4.0576e-06	281.38	78.747	62.455	18.504	4.4669e-06	25.667	-56.575	16.986	3.369	-91.889	38.120	45.088	-91.752	-84.141	-23.217	69.647	-84.283	-77.503	-77.492	-69.730	53.783	-70.799	-8191	255	
3384.497	1	1	0	0	0.065216	0.44404	0.26725	0.22691	0.27413	0.11392	0.071399	0.17371	0.10416	0.11303	0.17499	0.097682	0.26332	0.17784	0.20365	0.23799	-2.5667	-2.5646	-3.3625	-2.9042	-2.8187	-3.275	-2.6188	-3.3521	-3.0042	-2.5917	-3.375	-2.6646	-2.8375	-3.3229	-2.5521	-2.9833	82.338	104.590	211.159	238.758	28.003	107.598	24.337	214.183	121.465	35.226	106.964	159.898	249.022	-0.615	173.391	-60.749	0.00017161	0.00029988	9.4111e-05	1081	2.4357e-06	3.0535e-06	1173	222.64	2.3238e-06	3.3073e-06	283.52	78.258	61.921	18.229	2.0377e-06	25.458	0.00032411	0.00038957	0.0001092	1068.1	4.2756e-06	4.1853e-06	1156.7	222.28	4.2425e-06	4.167e-06	282.07	78.702	62.369	18.44	4.4008e-06	25.751	-48.530	-1.914	-19.825	-91.686	18.769	66.553	-91.761	-84.305	76.034	27.458	-84.658	-77.809	-76.912	-70.323	21.111	-70.754	-8191	255	
3384.593	1	1	0	0	0.041355	0.089919	0.15699	0.21418	0.24008	0.063148	0.30431	0.2404	0.1168	0.25624	0.071209	0.11884	0.12435	0.11227	0.25492	0.24163	-2.7458	-2.5271	-3.2292	-2.95	-2.8396	-3.4188	-2.7	-3.0104	-3.1104	-2.5104	-3.3854	-2.7896	-2.575	-3.3604	-2.5812	-2.9375	8.927	222.448	92.971	189.167	18.303	250.041	-85.936	232.181	84.255	220.392	122.194	-70.016	145.067	236.845	-78.606	107.023	0.00015409	0.00044291	0.00014994	1082	4.0902e-06	1.9373e-06	1175	223.5	3.2538e-06	3.165e-06	282.49	77.783	62.008	18.274	1.5668e-06	25.58	0.00031965	0.00039508	0.00010787	1069.1	4.4735e-06	4.1211e-06	1157.7	222.13	4.0317e-06	4.3914e-06	281.6	78.591	62.41	18.498	4.4438e-06	25.768	-33.743	-24.602	-21.274	-91.744	82.731	53.077	-91.816	-84.352	48.278	54.528	-84.639	-77.438	-77.183	-70.443	79.758	-70.842	-8191	255	
3384.689	1	1	0	0	0.10378	0.077153	0.10574	0.12651	0.1909	0.16131	0.25657	0.087263	0.13107	0.11559	0.14171	0.077503	0.088027	0.1067	0.10475	0.15047	-2.6458	-2.3771	-3.2708	-2.9646	-2.5042	-3.4583	-2.7313	-2.975	-3.1854	-2.4833	-3.1562	-2.9292	-2.4458	-3.3729	-2.6813	-2.7833	227.984	136.449	97.145	204.031	-7.293	106.755	124.007	238.874	165.863	-100.944	-85.468	92.538	-47.445	189.637	-18.605	-18.470	0.00016505	0.00031429	0.00010213	1088.6	3.0434e-06	4.677e-06	1174.8	224.63	3.1364e-06	2.8033e-06	283.53	78.046	62	18.174	3.0358e-06	25.432	0.0003132	0.0003931	0.00010759	1070.5	4.5041e-06	4.2016e-06	1157.5	222.72	3.9463e-06	4.2443e-06	281.9	78.675	62.353	18.48	4.3001e-06	25.719	-54.766	9.086	-7.518	-91.936	86.712	51.809	-91.775	-84.129	40.834	61.333	-84.478	-77.422	-77.265	-70.082	84.204	-71.197	-8191	255	
3384.785	1	1	0	0	0.18844	0.025708	0.24796	0.24789	0.10411	0.083908	0.064144	0.15027	0.11433	0.14775	0.21225	0.10406	0.19302	0.121	0.31134	0.19044	-3.0062	-2.4875	-3.0687	-3.0854	-2.4958	-3.3	-2.7562	-2.8208	-3.2042	-2.6312	-3.0479	-3.1917	-2.3917	-3.2229	-2.6562	-2.7542	253.176	63.134	-2.222	210.663	129.665	51.994	150.944	-16.468	50.958	77.061	160.740	-41.625	-34.034	188.740	20.123	110.067	0.00018193	0.00039339	6.8823e-05	1084	1.636e-06	3.2246e-06	1172.4	224.51	2.0458e-06	2.5718e-06	281.93	78.322	62.351	18.221	4.5935e-07	25.262	0.00031291	0.0004255	0.00011237	1068.4	4.3685e-06	4.3541e-06	1156.6	222.96	4.0096e-06	4.6939e-06	281.35	78.68	62.358	18.439	4.1981e-06	25.718	-48.274	-25.481	-6.558	-91.973	69.425	41.879	-91.685	-84.091	20.826	61.078	-84.528	-77.632	-76.988	-69.910	53.452	-70.926	-8191	255	
3384.906	1	1	0	0	0.093271	0.24852	0.092097	0.11483	0.26023	0.076017	0.37338	0.1334	0.09107	0.086131	0.31778	0.086049	0.18049	0.085971	0.24643	0.13258	-2.85	-2.2479	-2.9792	-3.275	-2.625	-3.3292	-2.8667	-2.8854	-3.4146	-2.4417	-2.95	-3.1083	-2.4729	-3.1833	-2.7896	-2.3771	58.724	6.581	123.231	99.747	211.072	204.049	210.929	-2.362	244.495	97.533	154.855	205.232	251.954	-29.455	29.812	-85.516	0.00015779	0.00026153	9.027e-05	1084.1	3.4555e-06	2.7197e-07	1166	223.31	1.2018e-06	3.4557e-06	283.18	77.896	62.223	18.196	2.0724e-06	25.319	0.00031465	0.00040642	0.00011349	1069.7	4.2732e-06	4.2425e-06	1156.6	222.3	4.2795e-06	4.4938e-06	281.51	78.554	62.493	18.493	4.4277e-06	25.71	-45.268	41.586	-4.198	-91.983	91.933	21.149	-91.863	-84.126	42.603	56.118	-84.229	-77.663	-77.285	-70.470	65.868	-71.099	-8191	255	
3384.978	1	1	0	0	0.15515	0.027833	0.085701	0.2652	0.15482	0.15068	0.051619	0.11766	0.078175	0.31228	0.1769	0.071328	0.225	0.20265	0.156	0.27203	-2.9104	-2.45	-2.8104	-3.2146	-2.5604	-3.4875	-2.9375	-2.65	-3.4604	-2.5083	-2.7938	-3.1792	-2.6937	-3.2271	-2.95	-2.4313	-96.701	173.097	247.459	231.477	74.521	108.512	86.651	203.880	106.547	-86.363	240.935	208.910	-102.063	232.388	-87.239	144.440	0.00014138	0.00033714	0.0001097	1088	1.5795e-06	2.237e-06	1171.6	223.52	3.2853e-06	3.7015e-06	281.86	78.148	62.063	18.242	2.3713e-06	25.403	0.00032645	0.00040252	0.00011079	1070.2	4.4585e-06	4.2948e-06	1158.4	222.32	4.1034e-06	4.4423e-06	281.26	78.623	62.372	18.514	4.1571e-06	25.721	-49.948	-1.498	-3.089	-92.064	37.089	64.810	-91.866	-84.301	60.540	22.579	-84.388	-77.721	-77.194	-69.808	40.459	-70.717	-8191	255	
3385.097	1	1	0	0	0.15122	0.36258	0.29253	0.12586	0.069126	0.074695	0.17446	0.05197	0.25583	0.050687	0.067175	0.21481	0.16198	0.1338	0.11942	0.12578	-2.9104	-2.5771	-2.75	-3.6083	-2.4125	-3.1833	-3.0312	-2.65	-3.1771	-2.7313	-2.7396	-3.3479	-2.45	-3.0938	-2.9729	-2.5271	-79.780	90.907	-57.955	125.794	-48.193	233.508	244.861	41.931	102.557	-14.409	68.512	245.702	217.071	143.357	31.473	132.804	0.00014627	0.00016456	0.00011915	1084.6	2.1817e-06	2.6035e-06	1173.8	222.76	9.5428e-07	3.3158e-06	283.47	78.153	62.269	18.322	2.5029e-06	25.432	0.00032156	0.00039329	0.00010603	1068.5	4.3446e-06	4.0829e-06	1157.2	221.94	3.9475e-06	4.5656e-06	281.82	78.666	62.383	18.493	3.9974e-06	25.684	-46.531	-34.685	-11.019	-91.910	-14.210	40.763	-91.862	-84.323	149.282	43.622	-84.348	-77.641	-77.272	-70.129	60.035	-70.595	-8191	255	
3385.193	1	1	0	0	0.18748	0.15456	0.19138	0.15432	0.22766	0.14201	0.25604	0.11432	0.17497	0.19556	0.03672	0.017769	0.37474	0.14835	0.061093	0.23643	-2.9562	-2.8063	-2.7146	-3.4	-2.6375	-3.1229	-3.2167	-2.4271	-3.1542	-2.7667	-2.5083	-3.3083	-2.5146	-2.8333	-3.3083	-2.4333	9.196	59.164	24.392	-100.766	155.328	206.355	241.217	188.160	228.822	-50.658	148.832	-56.318	129.051	-89.595	171.473	149.138	0.00014715	0.00044192	0.00011808	1086.9	2.225e-06	2.5503e-06	1173.8	224.07	2.8111e-06	3.6987e-06	282.09	78.194	62.229	18.197	2.4301e-06	25.251	0.00032206	0.00038765	0.00010313	1070.5	4.6889e-06	4.4212e-06	1156.6	222.43	4.1261e-06	4.0847e-06	281.35	78.606	62.445	18.44	4.0147e-06	25.688	-38.660	-20.310	-9.998	-91.830	80.178	42.895	-91.752	-84.079	50.364	70.142	-84.565	-78.020	-77.007	-70.247	87.822	-70.508	-8191	255	
3385.289	1	1	0	0	0.087628	0.091163	0.086372	0.24176	0.083434	0.044705	0.099484	0.13882	0.15981	0.046633	0.089153	0.15193	0.28223	0.14526	0.20375	0.24779	-2.8979	-2.6958	-2.6021	-3.4125	-2.7104	-2.8917	-3.5833	-2.5708	-3.1708	-2.875	-2.4104	-3.4	-2.4958	-2.7313	-3.4583	-2.3708	176.697	93.568	-101.190	176.020	-36.112	100.547	196.592	155.523	-25.158	15.392	93.368	240.055	-41.557	176.018	69.942	-69.456	0.0001577	0.00036184	0.00010438	1086.2	9.2137e-07	3.2966e-06	1174.8	222.62	1.9787e-06	1.719e-06	282.33	78.147	62.613	18.188	5.1523e-06	25.331	0.00033329	0.00038418	0.00011305	1071.8	4.4777e-06	4.3428e-06	1159.2	222.07	4.1697e-06	4.1746e-06	282.56	78.636	62.511	18.517	3.9936e-06	25.685	-55.201	-22.783	10.918	-91.929	49.963	47.211	-91.557	-84.395	40.578	67.179	-84.498	-78.059	-77.357	-70.333	46.380	-71.121	-8191	255	
3385.385	1	1	0	0	0.12333	0.031886	0.066893	0.15624	0.12723	0.12134	0.17704	0.15693	0.19372	0.068132	0.04734	0.22697	0.26656	0.27846	0.32073	0.16366	-2.7167	-3.0875	-2.4521	-3.5417	-2.8375	-2.575	-3.2896	-2.5854	-2.9062	-3.1479	-2.5708	-3.0771	-2.7729	-2.4917	-3.2021	-2.6354	152.686	24.530	78.537	179.359	65.179	175.529	-71.403	-51.866	187.614	240.935	246.049	-56.808	88.812	-35.351	-2.858	-77.236	0.00014673	0.00018585	6.3829e-05	1084.7	2.0615e-06	2.4619e-06	1174.4	223.29	1.7299e-06	4.2162e-06	282.96	77.921	62.303	18.177	3.3806e-06	25.325	0.00032078	0.00037049	0.00011171	1071.1	4.4057e-06	4.4509e-06	1159.5	222.28	4.0825e-06	4.1063e-06	282.31	78.597	62.397	18.461	4.1654e-06	25.679	-42.342	21.186	8.796	-91.785	61.510	42.067	-91.901	-84.265	60.720	63.068	-84.360	-77.680	-77.695	-69.877	66.763	-71.075	-8191	255	
3385.506	1	1	0	0	0.24785	0.11794	0.1006	0.080505	0.041069	0.12244	0.09225	0.23241	0.20351	0.12366	0.12653	0.025278	0.14819	0.10645	0.12625	0.072768	-2.6396	-3.1292	-2.4354	-3.2958	-2.8833	-2.4875	-3.5104	-2.6729	-3.0875	-3.3396	-2.4167	-3.3104	-2.85	-2.5563	-3.3271	-2.5708	-6.145	-101.158	-101.875	-25.619	19.211	243.056	-49.941	112.709	187.355	111.274	165.922	187.721	216.959	99.822	223.996	194.919	0.0001484	0.00044931	0.00011076	1083.9	2.1946e-06	4.0669e-06	1173.7	222.63	2.7371e-06	2.7674e-06	284	77.679	61.914	18.174	3.4934e-06	25.237	0.00031079	0.00035791	0.00011382	1070.1	4.3332e-06	4.3393e-06	1158.8	222.14	4.1679e-06	4.0645e-06	282.22	78.458	62.485	18.493	4.1898e-06	25.595	-40.318	-5.815	-16.332	-91.876	67.447	72.790	-91.940	-84.208	38.509	50.941	-84.658	-77.641	-77.548	-70.333	65.180	-71.166	-8191	255	
3385.602	1	1	0	0	0.10053	0.12375	0.17855	0.29951	0.16227	0.23781	0.24024	0.15324	0.056227	0.1344	0.20657	0.14436	0.074371	0.23445	0.048142	0.23383	-2.4396	-3.2979	-2.3771	-3.3208	-3.0458	-2.5792	-3.375	-2.5187	-2.875	-3.4313	-2.5646	-3.1813	-3.0312	-2.4979	-3.3479	-2.6375	-3.693	254.225	149.736	241.057	199.372	-53.128	159.511	113.032	93.508	237.151	228.270	0.186	-30.029	-1.582	117.802	88.082	0.00014686	0.00024809	7.1423e-05	1084.6	2.7559e-06	3.5194e-06	1170.9	224.51	1.6829e-06	3.3847e-06	282.8	78.016	62.23	18.226	2.5104e-06	25.218	0.00032571	0.00036237	0.00011289	1070.1	4.3685e-06	4.4459e-06	1157.6	222.74	4.1601e-06	3.9907e-06	281.5	78.689	62.499	18.512	3.9461e-06	25.695	-42.273	-10.446	-4.332	-92.116	64.572	47.818	-91.921	-84.303	83.513	45.053	-84.807	-77.707	-77.456	-69.964	65.501	-71.017	-8191	255	
3385.674	1	1	0	0	0.31031	0.32771	0.25843	0.051769	0.057602	0.18995	0.04245	0.14561	0.14568	0.19844	0.06705	0.048297	0.11964	0.36579	0.21831	0.18683	-2.3479	-3.2604	-2.3625	-3.2896	-2.9583	-2.3646	-3.325	-2.7854	-2.6625	-3.2708	-2.6354	-3.0646	-3.3792	-2.4583	-3.3917	-2.9313	56.219	73.865	146.869	146.098	1.397	253.210	253.501	199.383	94.712	-1.976	107.650	158.364	174.210	175.419	-52.490	227.778	0.00015302	0.00020549	6.8224e-05	1084.1	1.3863e-06	3.507e-06	1169.9	223.18	3.1014e-06	2.2208e-06	283.37	78.074	62.236	18.326	3.8963e-06	25.277	0.00032642	0.00038276	0.00011188	1070.3	4.3841e-06	4.679e-06	1156.9	222.36	4.2909e-06	4.3663e-06	281.9	78.68	62.497	18.535	4.261e-06	25.701	-40.110	-5.070	-11.220	-91.601	9.217	35.608	-91.841	-84.210	80.489	26.932	-84.582	-77.681	-77.025	-70.103	68.221	-70.595	-8191	255	
#DATA ENDS
