BOXY.EXE: ISS Imagent and Oximeter Data Acquisition Program Version 0.80
Ascii Record File

#ACQ INFORMATION
2  Detector Channels 
16  External MUX Channels 
1  Auxiliary Channels 
5000  Waveform (CCF) Frequency (Hz)
1  Waveforms Skipped 
30  Waveforms Averaged 
1  Cycles Averaged 
16  Acquisitions per Waveform 
10.0806  Updata Rate (Hz) 

#FILE INFORMATION
TRUE -- External MUX Channel results are PARSED.
FALSE -- AC DC and Phase are NOT grouped.
TRUE -- Companion Program Settings File CREATED.
FALSE -- AC data not excluded
FALSE -- DC data not excluded
FALSE -- Phase data not excluded
FALSE -- Auxillary Chn. data not excluded
Tab delimiters

#CALIBRATION STATE
TRUE -- Waveform Calibration Values APPLIED.


#AUX CALIBRATION VALUES
Val Type	aux-1	

Term	1.0000e+00	
Factor	0.0000e+00	


#WF CALIBRATION VALUES
A = Detector Channel
Val Type	A-AC1	A-AC2	A-AC3	A-AC4	A-AC5	A-AC6	A-AC7	A-AC8	A-AC9	A-AC10	A-AC11	A-AC12	A-AC13	A-AC14	A-AC15	A-AC16	A-DC1	A-DC2	A-DC3	A-DC4	A-DC5	A-DC6	A-DC7	A-DC8	A-DC9	A-DC10	A-DC11	A-DC12	A-DC13	A-DC14	A-DC15	A-DC16	A-Ph1	A-Ph2	A-Ph3	A-Ph4	A-Ph5	A-Ph6	A-Ph7	A-Ph8	A-Ph9	A-Ph10	A-Ph11	A-Ph12	A-Ph13	A-Ph14	A-Ph15	A-Ph16	

Term	0.00000e+00	0.00000e+00	0.00000e+00	0.00000e+00	0.00000e+00	0.00000e+00	0.00000e+00	0.00000e+00	0.00000e+00	0.00000e+00	0.00000e+00	0.00000e+00	0.00000e+00	0.00000e+00	0.00000e+00	0.00000e+00	0.00000e+00	0.00000e+00	0.00000e+00	0.00000e+00	0.00000e+00	0.00000e+00	0.00000e+00	0.00000e+00	0.00000e+00	0.00000e+00	0.00000e+00	0.00000e+00	0.00000e+00	0.00000e+00	0.00000e+00	0.00000e+00	0.00000e+00	0.00000e+00	0.00000e+00	0.00000e+00	0.00000e+00	0.00000e+00	0.00000e+00	0.00000e+00	0.00000e+00	0.00000e+00	0.00000e+00	0.00000e+00	0.00000e+00	0.00000e+00	0.00000e+00	0.00000e+00	
Factor	1.00000e+00	1.00000e+00	1.00000e+00	1.00000e+00	1.00000e+00	1.00000e+00	1.00000e+00	1.00000e+00	1.00000e+00	1.00000e+00	1.00000e+00	1.00000e+00	1.00000e+00	1.00000e+00	1.00000e+00	1.00000e+00	1.00000e+00	1.00000e+00	1.00000e+00	1.00000e+00	1.00000e+00	1.00000e+00	1.00000e+00	1.00000e+00	1.00000e+00	1.00000e+00	1.00000e+00	1.00000e+00	1.00000e+00	1.00000e+00	1.00000e+00	1.00000e+00	X	X	X	X	X	X	X	X	X	X	X	X	X	X	X	X	

B = Detector Channel
Val Type	B-AC1	B-AC2	B-AC3	B-AC4	B-AC5	B-AC6	B-AC7	B-AC8	B-AC9	B-AC10	B-AC11	B-AC12	B-AC13	B-AC14	B-AC15	B-AC16	B-DC1	B-DC2	B-DC3	B-DC4	B-DC5	B-DC6	B-DC7	B-DC8	B-DC9	B-DC10	B-DC11	B-DC12	B-DC13	B-DC14	B-DC15	B-DC16	B-Ph1	B-Ph2	B-Ph3	B-Ph4	B-Ph5	B-Ph6	B-Ph7	B-Ph8	B-Ph9	B-Ph10	B-Ph11	B-Ph12	B-Ph13	B-Ph14	B-Ph15	B-Ph16	

Term	0.00000e+00	0.00000e+00	0.00000e+00	0.00000e+00	0.00000e+00	0.00000e+00	0.00000e+00	0.00000e+00	0.00000e+00	0.00000e+00	0.00000e+00	0.00000e+00	0.00000e+00	0.00000e+00	0.00000e+00	0.00000e+00	0.00000e+00	0.00000e+00	0.00000e+00	0.00000e+00	0.00000e+00	0.00000e+00	0.00000e+00	0.00000e+00	0.00000e+00	0.00000e+00	0.00000e+00	0.00000e+00	0.00000e+00	0.00000e+00	0.00000e+00	0.00000e+00	-8.69914e+00	-1.27636e+02	-1.26579e+02	-1.81887e+02	-5.43741e+01	-6.80890e+01	-1.57669e+02	-1.62015e+02	-3.26815e+01	-6.62177e+01	-1.72231e+02	-1.69913e+02	-1.80444e+02	-1.76573e+02	-5.52496e+01	-1.49179e+02	
Factor	3.53343e-05	1.72379e-04	5.09740e-05	1.64140e-01	2.14399e-06	1.74113e-06	1.89180e-01	5.70625e-02	2.23709e-06	1.85859e-06	9.95569e-02	3.28311e-02	4.44292e-02	9.93343e-03	2.12406e-06	1.45167e-02	1.70138e-05	2.97382e-05	8.36903e-06	8.38226e-02	2.87917e-07	3.39007e-07	9.04686e-02	2.91930e-02	2.86657e-07	3.34529e-07	4.92895e-02	1.63091e-02	2.28853e-02	5.14651e-03	3.07838e-07	7.27220e-03	X	X	X	X	X	X	X	X	X	X	X	X	X	X	X	X	



#DISTANCE SETTINGS
A = Detector Channel
A-1	A-2	A-3	A-4	A-5	A-6	A-7	A-8	A-9	A-10	A-11	A-12	A-13	A-14	A-15	A-16	

2.5000e+00	3.0000e+00	2.5000e+00	3.0000e+00	2.0000e+00	3.0000e+00	1.5000e+00	3.0000e+00	3.0000e+00	3.0000e+00	3.0000e+00	3.0000e+00	3.0000e+00	3.0000e+00	1.5000e+00	3.0000e+00	

B = Detector Channel
B-1	B-2	B-3	B-4	B-5	B-6	B-7	B-8	B-9	B-10	B-11	B-12	B-13	B-14	B-15	B-16	

1.0000e+01	1.0000e+01	1.0000e+01	1.4400e+00	1.0000e+01	1.0000e+01	1.5100e+00	1.9400e+00	1.0000e+01	1.0000e+01	1.9900e+00	2.4900e+00	2.4100e+00	2.9000e+00	1.0000e+01	2.9800e+00	




#DATA BEGINS
time	group	step	mark	flag	A-AC1	A-AC2	A-AC3	A-AC4	A-AC5	A-AC6	A-AC7	A-AC8	A-AC9	A-AC10	A-AC11	A-AC12	A-AC13	A-AC14	A-AC15	A-AC16	A-DC1	A-DC2	A-DC3	A-DC4	A-DC5	A-DC6	A-DC7	A-DC8	A-DC9	A-DC10	A-DC11	A-DC12	A-DC13	A-DC14	A-DC15	A-DC16	A-Ph1	A-Ph2	A-Ph3	A-Ph4	A-Ph5	A-Ph6	A-Ph7	A-Ph8	A-Ph9	A-Ph10	A-Ph11	A-Ph12	A-Ph13	A-Ph14	A-Ph15	A-Ph16	B-AC1	B-AC2	B-AC3	B-AC4	B-AC5	B-AC6	B-AC7	B-AC8	B-AC9	B-AC10	B-AC11	B-AC12	B-AC13	B-AC14	B-AC15	B-AC16	B-DC1	B-DC2	B-DC3	B-DC4	B-DC5	B-DC6	B-DC7	B-DC8	B-DC9	B-DC10	B-DC11	B-DC12	B-DC13	B-DC14	B-DC15	B-DC16	B-Ph1	B-Ph2	B-Ph3	B-Ph4	B-Ph5	B-Ph6	B-Ph7	B-Ph8	B-Ph9	B-Ph10	B-Ph11	B-Ph12	B-Ph13	B-Ph14	B-Ph15	B-Ph16	aux-1	digaux	

3360.272	1	1	0	256	0.080632	0.041473	0.29153	0.31193	0.14412	0.21906	0.15683	0.096196	0.18678	0.040358	0.24651	0.12524	0.11289	0.11414	0.088432	0.085973	-2.1854	-3.2917	-2.3063	-2.9979	-3.1083	-2.4292	-3.3542	-3.1167	-2.5896	-3.3104	-2.8167	-2.8563	-3.275	-2.6979	-3.1854	-3.1167	180.127	81.999	225.006	-72.053	17.974	174.188	205.992	-96.170	148.763	48.327	246.377	12.201	72.390	161.989	-84.774	134.670	0.0003907	0.00054239	0.00015307	1433.6	4.3418e-06	5.4031e-06	1423.2	377.2	4.641e-06	5.0348e-06	432.74	141.71	123.8	41.716	6.0684e-06	51.51	0.00065805	0.0007349	0.0002006	1448.6	7.4942e-06	7.7732e-06	1438.3	383.99	6.9676e-06	6.8495e-06	440.56	145.21	126.22	42.737	6.8981e-06	53.022	-45.103	-0.240	-26.071	-93.150	65.051	30.393	-93.204	-88.546	66.556	45.829	-88.852	-84.242	-83.887	-79.609	53.708	-80.345	-8191	255	
3360.369	1	1	0	0	0.27012	0.088662	0.11839	0.23005	0.14746	0.21139	0.044259	0.12254	0.23774	0.06064	0.27728	0.21617	0.036311	0.22708	0.2423	0.02519	-2.1	-3.4417	-2.6625	-3.0667	-3.2104	-2.3375	-3.1417	-3.2583	-2.6125	-3.4042	-2.7271	-2.7146	-3.3854	-2.4188	-3.0792	-3.0833	110.312	146.458	65.935	187.200	89.799	25.325	216.117	92.092	119.552	140.219	-62.367	-62.311	-37.778	-88.211	114.445	157.967	0.00036312	0.00055094	0.0001419	1427.5	3.3226e-06	4.1156e-06	1417.1	377.69	8.3229e-06	5.0325e-06	434.7	142.58	124.34	41.87	5.2108e-06	51.962	0.00058329	0.00067326	0.0001902	1443.3	7.808e-06	8.4377e-06	1436.1	384.45	8.7323e-06	9.0295e-06	443.15	145.78	126.98	42.871	9.094e-06	53.301	-44.474	-24.136	-10.895	-93.060	50.706	46.054	-93.053	-88.506	61.800	31.498	-89.237	-84.422	-83.941	-79.373	50.162	-80.113	-8191	255	
3360.487	1	1	0	0	0.24647	0.0706	0.092405	0.050201	0.07264	0.16342	0.17541	0.24311	0.33495	0.19003	0.26671	0.099253	0.17389	0.10654	0.078567	0.13519	-2.1042	-3.0958	-2.7625	-2.7562	-3.2917	-2.4062	-3.1	-3.3646	-2.4542	-3.4688	-2.8896	-2.6208	-3.3417	-2.7021	-3.0271	-3.3208	122.674	190.906	141.067	232.536	162.791	73.855	-95.074	150.625	207.028	12.028	211.991	74.944	122.040	95.267	152.282	236.373	0.00036207	0.00049804	0.00017117	1435.8	3.6268e-06	4.194e-06	1423.2	379.42	4.536e-06	6.1139e-06	436.04	142.23	124.09	41.801	4.0895e-06	51.635	0.00070753	0.00084283	0.00023388	1451.4	8.7461e-06	9.334e-06	1442.5	385.33	8.9407e-06	9.1856e-06	444.05	145.78	126.91	42.845	8.9991e-06	53.179	-39.371	-14.914	-4.619	-93.184	41.311	41.571	-93.158	-88.635	50.269	40.515	-89.238	-84.652	-84.077	-79.533	43.843	-80.374	-8191	255	
3360.584	1	1	0	0	0.20035	0.053604	0.10461	0.25332	0.17924	0.09521	0.40987	0.04461	0.10282	0.22877	0.21988	0.17526	0.28889	0.058174	0.29559	0.11787	-2.475	-3.2687	-2.8979	-2.6375	-3.2167	-2.6646	-3.0062	-3.3833	-2.5625	-3.2417	-3.1437	-2.7792	-3.4604	-2.8688	-2.9292	-3.5146	250.204	66.626	247.866	-92.499	87.800	115.090	237.384	83.868	216.318	45.140	-89.446	-62.973	151.937	-19.155	-96.662	186.307	0.00039848	0.00049564	0.00016411	1430.1	6.223e-06	4.3686e-06	1425	379.68	2.4714e-06	5.7225e-06	435.47	142.24	124.52	41.681	1.7861e-06	52.08	0.00074159	0.00086681	0.000249	1447.7	9.0094e-06	9.613e-06	1440.7	385.5	9.4215e-06	9.5836e-06	443.19	145.54	126.89	42.847	9.5603e-06	53.23	-44.357	-35.829	-17.347	-93.200	44.441	46.551	-93.277	-88.428	80.123	60.462	-89.126	-84.522	-84.036	-79.425	119.497	-80.563	-8191	255	
3360.680	1	1	0	0	0.27816	0.11968	0.041772	0.051325	0.080363	0.13706	0.093811	0.28477	0.12712	0.13238	0.17058	0.09467	0.23408	0.094548	0.24643	0.03109	-2.1583	-3.1083	-3.0271	-2.6562	-3.2729	-2.7396	-2.8146	-3.3875	-2.55	-3.0271	-3.0792	-2.5521	-3.2917	-2.7896	-2.6729	-3.4021	173.413	242.921	-5.987	103.792	-102.687	168.167	145.048	155.897	73.341	175.215	134.054	150.416	-86.924	112.374	30.694	-104.438	0.00039821	0.00044487	0.00017161	1428.9	4.9543e-06	3.5625e-06	1422.7	379.87	5.6211e-06	5.7846e-06	434.51	142.05	123.74	41.618	6.9653e-06	51.583	0.00070657	0.00084878	0.00022943	1446.1	8.5769e-06	8.8714e-06	1439.1	385.63	8.2933e-06	8.4037e-06	442.31	145.49	126.41	42.737	8.5091e-06	53.091	-43.015	-36.173	-13.547	-93.030	62.461	54.189	-93.160	-88.407	61.573	55.272	-88.998	-84.440	-83.733	-79.579	30.680	-80.292	-8191	255	
3360.776	1	1	0	0	0.046971	0.38665	0.25997	0.050663	0.24542	0.083006	0.15286	0.058918	0.047245	0.15001	0.19865	0.076796	0.16543	0.16211	0.20122	0.199	-2.1604	-3.0125	-3.2521	-2.6937	-3.1917	-2.7271	-2.8187	-3.5208	-2.4083	-3.0646	-3.2417	-2.6188	-3.3583	-3.0458	-2.6	-3.4833	210.887	-91.010	14.792	-55.340	229.671	-78.417	110.932	118.827	33.828	161.511	-95.730	153.270	-56.066	151.831	81.869	-22.661	0.00041327	0.00054576	0.00017717	1428.2	4.7647e-06	3.5576e-06	1421.7	378.32	4.2425e-06	4.8697e-06	433.02	141.69	123.19	41.682	5.5168e-06	51.522	0.0006506	0.00077493	0.00021177	1445.2	7.6388e-06	8.2414e-06	1437.1	383.84	7.8299e-06	8.1772e-06	441.22	144.93	126.23	42.754	8.2545e-06	53.057	-43.519	-22.932	-21.067	-93.084	63.005	34.745	-92.999	-88.281	44.956	44.244	-88.793	-84.537	-83.814	-79.557	54.686	-80.137	-8191	255	
3360.872	1	1	0	0	0.098268	0.23527	0.14232	0.17727	0.23984	0.076227	0.1353	0.19435	0.10935	0.16311	0.1075	0.15899	0.097403	0.14367	0.068137	0.15008	-2.2146	-2.8208	-3.1625	-2.6	-3.1917	-3.0125	-2.8708	-3.4875	-2.625	-2.6458	-3.3125	-2.6063	-3.1813	-3.325	-2.5771	-3.4729	-19.657	-12.386	2.261	79.963	-11.185	212.885	218.671	237.297	84.134	-42.907	167.514	136.242	145.993	-98.471	-82.342	225.594	0.00038263	0.00060897	0.00015949	1424.4	3.6539e-06	3.9282e-06	1414.7	378.25	5.2581e-06	3.9683e-06	435.61	141.67	123.18	41.637	7.2578e-06	51.754	0.00065011	0.00079011	0.00021861	1443.5	8.2002e-06	8.8947e-06	1437.7	384.5	8.5274e-06	8.8392e-06	443.06	145.13	126.41	42.661	8.7926e-06	53.141	-43.890	-16.814	-33.572	-92.988	61.102	48.408	-93.187	-88.287	61.172	65.501	-89.150	-84.442	-83.669	-79.359	40.031	-80.265	-8191	255	
3360.968	1	1	0	0	0.011292	0.1234	0.17004	0.084776	0.25192	0.20895	0.23997	0.12449	0.011407	0.13945	0.12393	0.29064	0.1125	0.10668	0.056574	0.13941	-2.425	-2.6979	-3.4167	-2.8375	-3.0563	-3.1688	-2.7167	-3.3167	-2.7417	-2.6646	-3.4292	-2.7021	-2.8771	-3.1479	-2.5396	-3.1375	-86.457	75.456	214.696	207.914	152.391	190.054	180.784	228.974	79.522	-0.601	221.401	195.397	60.087	186.738	180.897	195.181	0.00037507	0.00047862	0.00011846	1426.9	5.3814e-06	4.2291e-06	1423.7	378.56	5.1519e-06	5.4188e-06	434.89	141.43	123.66	41.455	5.5871e-06	51.587	0.00067485	0.00081737	0.0002219	1445.4	8.4324e-06	9.0487e-06	1439.8	384.87	8.6326e-06	8.7619e-06	442.11	145.14	126.38	42.554	8.6393e-06	52.932	-43.524	-4.018	-16.657	-93.054	47.813	45.137	-93.214	-88.527	41.088	47.052	-88.976	-84.472	-83.467	-79.506	54.399	-80.217	-8191	255	
3361.064	1	1	0	0	0.11078	0.19574	0.19159	0.04828	0.18041	0.19833	0.2573	0.46555	0.024334	0.13153	0.15722	0.27768	0.29698	0.044114	0.056761	0.19327	-2.5187	-2.6271	-3.3333	-2.7917	-3.0438	-3.2104	-2.7021	-3.1458	-3.0125	-2.5479	-3.5146	-2.7708	-2.8937	-3.1479	-2.4813	-3.2146	-64.226	14.131	207.053	-73.664	122.019	113.312	132.219	208.032	82.453	-9.737	148.417	205.804	-100.305	-78.082	-84.578	200.522	0.00035636	0.00043763	0.00013061	1426.6	4.253e-06	3.2641e-06	1417	378.11	4.3614e-06	4.2913e-06	434.66	142.1	123.37	41.582	2.9922e-06	51.602	0.00063802	0.00076247	0.00020483	1445.1	7.7858e-06	8.3544e-06	1436.9	384.39	8.1303e-06	8.8051e-06	442.4	145.14	126.28	42.703	8.4386e-06	53.058	-44.396	-28.468	0.910	-93.150	42.532	22.352	-93.170	-88.309	49.699	45.841	-88.667	-84.574	-83.447	-79.465	49.482	-80.259	-8191	255	
3361.185	1	1	0	0	0.25171	0.16837	0.03073	0.39163	0.20566	0.31311	0.20132	0.12857	0.15822	0.13617	0.18049	0.23513	0.24671	0.14359	0.11869	0.12979	-2.8125	-2.4833	-3.2521	-2.8312	-2.8125	-3.3417	-2.7229	-3.3042	-3.0333	-2.4833	-3.4792	-2.9938	-2.7396	-3.5271	-2.4479	-3.1813	80.232	74.433	182.258	220.757	-7.485	202.435	160.036	155.864	167.651	-96.416	234.067	187.247	151.211	-90.277	36.566	212.035	0.00037254	0.00054564	0.00014981	1428.2	5.3043e-06	3.7204e-06	1415.7	376.01	4.2047e-06	4.1128e-06	434.57	141.69	123.45	41.545	4.926e-06	51.585	0.00066329	0.00081693	0.00021882	1444.7	8.3466e-06	8.6313e-06	1436	384.02	8.2342e-06	8.8023e-06	441.61	145.18	126.4	42.683	8.1577e-06	53.107	-44.547	-17.322	-8.607	-93.115	34.835	44.383	-93.280	-88.325	57.057	47.138	-88.855	-84.428	-83.577	-79.134	67.698	-80.062	-8191	255	
3361.279	1	1	0	0	0.18035	0.11646	0.16609	0.053	0.25275	0.1135	0.36597	0.2378	0.22525	0.20641	0.21514	0.10994	0.15194	0.13243	0.095274	0.2647	-2.7396	-2.6354	-3.375	-2.9479	-2.7604	-3.3583	-2.6917	-3.2188	-3.0646	-2.5854	-3.5604	-2.9875	-2.8812	-3.3333	-2.7167	-3.0292	-19.111	32.546	163.840	-35.276	56.262	-64.082	190.322	165.855	-42.948	-0.807	95.024	248.222	-81.889	119.004	48.065	191.143	0.00035247	0.00043832	0.00011716	1429.1	4.5417e-06	3.105e-06	1419.9	377.37	5.8287e-06	6.2497e-06	432.45	142.01	122.58	41.635	4.98e-06	51.736	0.00066496	0.00080318	0.00020311	1445.4	8.5463e-06	8.4632e-06	1439.4	384.53	8.1626e-06	8.9257e-06	441.53	145.17	126.11	42.592	8.3629e-06	53.011	-41.603	-6.290	-5.686	-93.121	69.158	58.489	-93.404	-88.295	56.061	53.827	-88.806	-84.638	-83.604	-79.439	63.729	-80.200	-8191	255	
3361.375	1	1	0	0	0.073901	0.19571	0.10217	0.13447	0.0099661	0.23043	0.049253	0.13091	0.062656	0.18596	0.29366	0.16073	0.36268	0.28259	0.13119	0.2083	-2.8292	-2.4042	-3.1562	-3.2729	-2.4208	-3.4792	-2.8271	-3.0271	-3.15	-2.3708	-3.3187	-3.1417	-2.7438	-3.4271	-2.7667	-2.9688	37.777	-86.366	-92.812	242.946	-95.481	-15.234	-37.747	222.118	38.643	-96.790	246.697	141.835	211.768	246.299	174.315	197.222	0.0003684	0.00060307	0.00011295	1424.5	6.0407e-06	3.5867e-06	1418.9	377.98	3.9324e-06	5.2879e-06	435.33	141.38	123.42	41.578	3.6704e-06	51.546	0.00065766	0.00079698	0.00020192	1443	8.1001e-06	7.9427e-06	1437	384.18	7.6794e-06	8.4336e-06	441.98	144.68	125.87	42.561	7.9012e-06	52.902	-40.909	-12.822	-41.588	-93.276	49.005	18.794	-93.317	-88.430	44.075	34.749	-88.977	-84.465	-84.089	-79.273	57.083	-80.362	-8191	255	
3361.449	1	1	0	0	0.098009	0.052959	0.26629	0.23792	0.13021	0.086429	0.11732	0.16622	0.033501	0.14633	0.12332	0.23519	0.19609	0.20504	0.033784	0.2337	-2.9625	-2.5625	-3.1604	-3.3146	-2.5938	-3.4646	-2.9167	-3.1229	-3.3271	-2.575	-3.1583	-3.225	-2.6146	-3.4375	-2.9062	-2.9021	-37.077	102.774	-104.333	-71.944	-45.584	-18.427	-29.813	-68.182	42.753	114.287	203.312	83.894	-93.661	18.520	15.995	-89.311	0.00035231	0.00061617	0.00017492	1422.6	3.9267e-06	5.5906e-06	1411.9	376.57	6.4319e-06	4.9993e-06	433.24	141.45	123.12	41.437	4.4339e-06	51.363	0.00064163	0.00071712	0.00018834	1441.8	7.682e-06	7.6411e-06	1432.3	383.3	7.8018e-06	8.2078e-06	440.77	144.78	125.96	42.553	7.687e-06	52.857	-38.198	-30.624	-1.752	-93.084	47.410	35.519	-93.145	-88.161	50.776	51.569	-88.846	-84.410	-83.962	-79.416	80.073	-80.238	-8191	255	
3361.568	1	1	0	0	0.41457	0.22324	0.10257	0.32889	0.11903	0.06919	0.20153	0.3787	0.10818	0.10783	0.039171	0.052437	0.37578	0.099955	0.30189	0.17758	-2.9562	-2.4833	-2.9729	-3.4625	-2.5062	-3.1604	-3.0042	-2.6646	-3.2917	-2.6604	-3.1875	-3.4104	-2.4979	-3.2938	-2.9125	-2.6833	-36.576	55.291	110.212	226.775	9.927	238.102	211.126	161.301	-56.068	-53.735	197.371	234.324	235.665	-58.362	104.742	134.715	0.00037403	0.00041487	0.00014602	1426.8	3.1672e-06	2.888e-06	1417.9	376.55	4.8494e-06	8.0158e-06	434.37	142.24	123.16	41.392	4.9222e-06	51.389	0.00062451	0.00074643	0.00020068	1442.9	8.0971e-06	7.8028e-06	1432.9	383.28	7.5898e-06	8.1493e-06	441.01	144.92	125.74	42.555	8.0544e-06	52.834	-42.909	-31.459	-10.722	-93.261	85.744	42.437	-93.272	-88.438	23.342	43.139	-88.904	-84.465	-84.294	-79.321	61.205	-80.332	-8191	255	
3361.664	1	1	0	0	0.10446	0.12378	0.13847	0.071309	0.15803	0.12262	0.28516	0.1802	0.2437	0.16902	0.19738	0.1898	0.20006	0.16842	0.2559	0.32202	-3.0833	-2.6292	-2.8625	-3.4021	-2.5125	-3.2917	-3.2292	-2.5646	-3.3146	-2.7604	-2.8646	-3.5833	-2.5938	-3.2583	-3.1896	-2.5958	215.286	74.588	-35.317	-104.650	58.569	-25.100	-64.097	221.801	-62.709	192.678	216.264	-103.394	152.067	18.148	-41.996	218.554	0.00037789	0.00070763	0.00021226	1423.3	3.1337e-06	4.8512e-06	1415.5	377.33	2.6223e-06	6.4548e-06	431.75	140.6	123.18	41.365	5.4317e-06	51.379	0.00063515	0.00072505	0.00019995	1441.2	8.0275e-06	8.0274e-06	1433.6	383.05	7.6884e-06	8.0496e-06	440.45	144.55	125.89	42.504	7.6029e-06	52.725	-39.837	-39.664	-11.274	-93.412	30.338	50.786	-93.290	-88.385	25.987	46.079	-88.919	-84.555	-83.733	-79.265	26.682	-80.301	-8191	255	
3361.760	1	1	0	0	0.095693	0.094988	0.12778	0.2285	0.20518	0.18762	0.26424	0.20781	0.15984	0.07048	0.18188	0.1083	0.12438	0.20113	0.049825	0.17135	-3.075	-2.6854	-2.7229	-3.5375	-2.5583	-3.0042	-3.1333	-2.4458	-3.3479	-2.7854	-2.6396	-3.3958	-2.6896	-3.175	-3.1854	-2.55	19.903	107.433	15.121	-54.232	120.175	-65.369	134.204	189.870	-51.062	33.638	140.031	-86.320	30.189	218.714	153.500	-70.411	0.00035228	0.00047564	0.00018312	1422.9	5.9001e-06	3.7662e-06	1412.3	375.52	3.8049e-06	5.6992e-06	431.84	140.72	123.14	41.404	5.0288e-06	51.262	0.00061487	0.00073082	0.00020781	1439.7	7.8349e-06	8.1432e-06	1430.5	381.94	7.8305e-06	8.3409e-06	439.96	144.59	125.81	42.547	8.3097e-06	52.759	-38.533	-22.741	-5.535	-93.146	57.785	41.010	-93.434	-88.453	27.606	53.860	-88.794	-84.399	-84.120	-79.559	47.494	-80.453	-8191	255	
3361.856	1	1	0	0	0.30794	0.13278	0.19567	0.1252	0.25534	0.18668	0.15868	0.10089	0.059113	0.052022	0.12718	0.22078	0.032352	0.359	0.15073	0.087773	-2.8937	-3	-2.5062	-3.7271	-2.75	-2.9667	-3.5292	-2.6729	-3.1917	-2.8937	-2.8958	-3.4583	-2.5563	-2.9854	-3.2062	-2.6021	210.699	125.845	206.830	223.071	173.273	-48.405	178.222	62.190	8.829	-77.357	-47.713	245.664	-21.634	-95.548	90.565	232.830	0.00036022	0.00061398	0.00015165	1420.6	3.5064e-06	3.4678e-06	1419	377	5.1756e-06	5.5816e-06	433.35	140.63	122.9	41.45	4.7233e-06	51.52	0.00066684	0.00079351	0.00022881	1439.7	8.4264e-06	8.6129e-06	1432.4	383.17	8.4719e-06	8.7277e-06	441.09	144.51	125.77	42.475	8.7227e-06	52.802	-40.129	-11.506	-14.021	-93.181	52.896	44.000	-93.287	-88.535	63.676	38.165	-88.852	-84.379	-83.627	-79.264	56.184	-80.315	-8191	255	
3361.977	1	1	0	0	0.063482	0.038344	0.09209	0.33431	0.13238	0.16743	0.13752	0.071136	0.053968	0.35751	0.14279	0.15575	0.37736	0.05746	0.10806	0.20844	-2.7188	-3.0667	-2.5583	-3.4958	-2.6208	-2.7542	-3.3583	-2.675	-3.2396	-3.1396	-2.6396	-3.4688	-2.7958	-2.9583	-3.3354	-2.6125	101.369	222.129	151.475	198.868	236.698	94.598	247.046	67.210	-29.969	129.233	194.685	213.808	151.450	231.269	76.010	-12.464	0.00037197	0.00047767	0.00014326	1420.6	6.4726e-06	3.9768e-06	1414.9	377.63	2.8695e-06	4.102e-06	432.35	141.35	123.03	41.379	5.3878e-06	51.469	0.00067229	0.00080795	0.00023065	1441	8.5799e-06	9.5325e-06	1434.6	383.43	8.5424e-06	9.3222e-06	440.73	144.84	125.98	42.523	8.7875e-06	52.862	-43.530	-20.302	-10.500	-93.065	51.195	56.994	-93.196	-88.438	81.078	45.883	-88.969	-84.564	-83.850	-79.362	49.537	-80.216	-8191	255	
3362.073	1	1	0	0	0.051035	0.067304	0.23824	0.14231	0.1689	0.11705	0.096049	0.19189	0.12508	0.086044	0.20534	0.2802	0.09249	0.22658	0.072755	0.22204	-2.6542	-3.0438	-2.4833	-3.5563	-2.8042	-2.4542	-3.5542	-2.6437	-3.1583	-3.0271	-2.4271	-3.3375	-3.1125	-2.7292	-3.4042	-2.6708	253.633	-65.068	201.483	221.734	14.960	-60.801	141.505	197.394	170.208	113.661	173.488	-75.761	87.583	-51.173	-9.244	189.515	0.00036665	0.00051801	0.00017297	1427	4.9071e-06	4.089e-06	1417.1	375.86	4.9197e-06	5.9903e-06	432.87	140.89	122.85	41.473	6.4625e-06	51.308	0.00067772	0.00084085	0.00022963	1443.1	8.2134e-06	8.9533e-06	1433.6	382.7	7.8048e-06	8.2406e-06	440.69	144.58	125.96	42.516	7.921e-06	52.779	-43.361	-14.415	6.684	-93.017	41.725	47.270	-93.249	-88.260	36.490	44.412	-89.074	-84.618	-83.923	-79.394	49.494	-80.228	-8191	255	
3362.169	1	1	0	0	0.074464	0.11013	0.17068	0.14419	0.15606	0.1382	0.30767	0.26606	0.2194	0.16432	0.11142	0.034238	0.061138	0.16638	0.21042	0.2557	-2.7	-3.1042	-2.5479	-3.3896	-2.9646	-2.5979	-3.4	-2.8083	-2.9437	-3.3042	-2.5792	-3.2646	-3.0583	-2.5896	-3.1854	-2.8583	-77.455	207.526	-23.277	224.959	45.841	189.847	209.152	240.880	199.855	217.615	-55.438	70.605	135.631	-81.735	211.467	181.275	0.00034545	0.00052376	0.00014724	1424.9	4.6175e-06	4.6114e-06	1411.6	376.58	5.9395e-06	4.1973e-06	431.57	141.44	122.53	41.393	5.3801e-06	51.368	0.00064936	0.00075826	0.00020903	1440.4	7.7198e-06	8.3586e-06	1430.5	382.36	7.7971e-06	7.8824e-06	440.01	144.62	125.59	42.458	7.8556e-06	52.778	-38.996	-21.182	-10.585	-92.900	28.771	44.943	-93.204	-88.313	75.692	34.042	-88.884	-84.522	-83.728	-79.275	47.889	-80.430	-8191	255	
3362.265	1	1	0	0	0.056324	0.33453	0.21549	0.13355	0.19247	0.22266	0.28661	0.29256	0.17632	0.16632	0.15585	0.12653	0.11706	0.21032	0.091161	0.1804	-2.4292	-3.2604	-2.6083	-3.1437	-3.1375	-2.4646	-3.5604	-2.9146	-2.6813	-3.4896	-2.5729	-3.0854	-3.1333	-2.5729	-3.2583	-3.0187	18.213	-87.869	8.036	192.544	45.064	220.854	193.945	211.073	178.066	-1.203	225.935	237.931	-83.339	-65.118	103.919	-15.924	0.00039806	0.00062724	0.00018604	1425.4	3.1997e-06	4.7171e-06	1422.1	375.77	4.525e-06	5.559e-06	433.74	141.21	122.92	41.375	4.9297e-06	51.366	0.0006578	0.00074259	0.00020478	1444.3	7.6862e-06	8.223e-06	1436.1	382.19	7.6245e-06	7.4391e-06	440.35	144.46	125.56	42.45	7.0726e-06	52.743	-42.913	-29.225	-11.548	-92.955	55.190	47.254	-93.114	-88.241	41.632	37.289	-88.978	-84.635	-83.928	-79.312	50.680	-80.161	-8191	255	
3362.361	1	1	0	0	0.11926	0.16324	0.086246	0.23918	0.23906	0.0651	0.18061	0.033405	0.12924	0.17583	0.22832	0.0076236	0.44599	0.279	0.13265	0.086385	-2.1833	-3.3458	-2.5938	-2.9875	-3.0687	-2.6042	-3.45	-3.0812	-2.5708	-3.1875	-2.7979	-3.1479	-3.2667	-2.5146	-3.1458	-3	129.024	-29.166	90.343	207.197	79.549	-96.318	233.531	202.159	-96.010	113.219	199.617	229.981	83.805	228.493	2.195	73.134	0.00034637	0.00053245	0.00011052	1425.6	4.6516e-06	4.9154e-06	1409.6	375.49	2.8604e-06	6.1991e-06	431.73	141.1	122.98	41.31	5.2447e-06	51.095	0.00058719	0.00065994	0.00018781	1440.4	7.1493e-06	7.6114e-06	1429.9	381.53	7.1503e-06	7.1227e-06	439.43	144.5	125.58	42.436	6.9514e-06	52.75	-43.903	-1.254	-7.757	-92.956	46.052	15.453	-93.225	-88.540	18.601	46.126	-89.011	-84.303	-83.837	-79.563	55.286	-80.524	-8191	255	
3362.458	1	1	0	0	0.23165	0.22606	0.11906	0.16986	0.12795	0.17514	0.46017	0.18924	0.069533	0.11808	0.17933	0.14792	0.065528	0.33562	0.016107	0.12343	-2.2521	-3.3458	-2.5875	-3.05	-3.3271	-2.4583	-3.4125	-3.0021	-2.6125	-3.3458	-2.5563	-2.7188	-3.4896	-2.4875	-3.2021	-3.0563	48.607	11.895	140.679	-45.825	223.787	176.638	-71.624	237.496	32.270	-55.119	100.386	170.396	-44.659	-49.110	148.011	201.795	0.00039244	0.00040917	0.00015781	1421.4	6.8139e-06	4.2435e-06	1413.4	376.11	3.7596e-06	4.6776e-06	432.79	141.25	123.2	41.44	6.4652e-06	51.42	0.00059811	0.00066905	0.0001879	1438.6	7.3203e-06	7.622e-06	1431.4	382.13	7.7499e-06	7.5144e-06	439.91	144.53	125.85	42.498	7.0873e-06	52.728	-34.675	-5.534	-13.269	-93.261	40.459	43.692	-93.168	-88.387	31.432	32.051	-88.851	-84.414	-83.720	-79.408	39.055	-80.337	-8191	255	
3362.576	1	1	0	0	0.092963	0.19785	0.2128	0.51367	0.10069	0.19184	0.40981	0.1747	0.12789	0.24409	0.28148	0.23502	0.20365	0.18867	0.1713	0.13955	-2.1167	-3.3708	-2.6729	-2.9396	-3.3125	-2.5979	-3.3146	-3.3125	-2.6042	-3.2208	-2.8937	-2.9146	-3.3937	-2.675	-3.0062	-3.3521	182.938	9.668	152.680	226.508	209.506	120.037	-101.972	183.627	208.174	60.933	164.097	188.942	-66.262	226.079	107.201	177.473	0.00035829	0.00048802	0.00013277	1426.2	2.436e-06	3.9677e-06	1419	376.47	3.25e-06	5.2116e-06	431.15	141.7	123.01	41.551	4.4653e-06	51.364	0.00060747	0.00065213	0.00018307	1440.8	6.9664e-06	7.2795e-06	1433	382.57	7.1282e-06	6.7882e-06	440.15	144.66	125.59	42.515	6.9257e-06	52.766	-39.183	-23.787	-21.834	-93.032	58.751	37.760	-93.218	-88.468	33.253	22.250	-88.803	-84.432	-83.735	-79.659	45.135	-80.273	-8191	255	
3362.673	1	1	0	0	0.23559	0.19337	0.13965	0.16448	0.29816	0.11612	0.27651	0.056281	0.036635	0.23582	0.25288	0.15486	0.27493	0.20842	0.27652	0.15628	-2.1437	-3.3042	-2.9479	-2.7646	-3.3521	-2.6917	-3.125	-3.375	-2.4146	-3.2812	-2.9271	-2.7125	-3.3458	-2.8417	-2.8604	-3.3125	-28.758	61.603	-47.999	172.325	136.192	51.419	208.455	40.791	-21.135	42.406	172.841	-51.027	1.544	185.347	73.267	128.172	0.00035843	0.00049844	0.00020011	1421.6	4.3778e-06	3.9109e-06	1416.4	375.82	4.6267e-06	5.3374e-06	434.06	140.97	123.28	41.327	6.0087e-06	51.365	0.00059006	0.00064011	0.00018351	1439.1	6.8452e-06	7.1467e-06	1432.2	382.55	7.4256e-06	6.8997e-06	440.72	144.44	125.84	42.461	7.147e-06	52.81	-36.665	-8.857	-27.226	-93.075	44.182	45.537	-93.112	-88.564	61.846	40.592	-89.202	-84.433	-83.814	-79.201	67.990	-80.212	-8191	255	
3362.744	1	1	0	0	0.2033	0.16342	0.18992	0.13873	0.16667	0.041922	0.26263	0.034491	0.034036	0.17165	0.24403	0.25906	0.098287	0.11056	0.15191	0.2454	-2.2354	-3.2729	-3.05	-2.7021	-3.3104	-2.6771	-3.0292	-3.5125	-2.4771	-3.1875	-3.1667	-2.5542	-3.2125	-2.8542	-2.6521	-3.525	75.982	153.270	176.439	239.842	-56.671	-66.484	-65.887	81.648	-97.294	239.398	206.601	-85.258	170.454	46.070	11.534	190.827	0.00038776	0.00051743	0.00013923	1420.2	6.1258e-06	4.731e-06	1415.6	375.53	2.5945e-06	7.7968e-06	433.48	141.11	122.78	41.441	4.1173e-06	51.542	0.00059187	0.00059693	0.00018124	1436.4	6.7583e-06	6.8331e-06	1427.7	382.25	6.9019e-06	6.607e-06	439.84	144.22	125.27	42.501	6.759e-06	52.851	-39.319	-29.336	-19.519	-93.033	34.516	51.546	-93.295	-88.326	42.846	34.641	-88.892	-84.383	-83.718	-79.511	28.064	-80.401	-8191	255	
3362.865	1	1	0	0	0.14517	0.059649	0.055779	0.29664	0.18859	0.071794	0.14099	0.095449	0.12411	0.23139	0.15559	0.15702	0.1309	0.31898	0.17746	0.17638	-2.1917	-3.0229	-3.2042	-2.6146	-3.4604	-2.9313	-2.9708	-3.5792	-2.7208	-3.0729	-3.175	-2.5438	-3.2729	-3.1292	-2.7042	-3.3125	53.420	163.092	-25.370	250.024	236.738	-21.005	-50.888	244.787	204.029	20.781	215.950	168.305	143.885	236.641	186.329	57.332	0.00034419	0.00039976	0.00014004	1419	5.1227e-06	3.705e-06	1409.8	376.46	2.4514e-06	6.4857e-06	433.72	141.2	122.78	41.521	6.0183e-06	51.556	0.0005807	0.0006281	0.00017704	1437.3	6.6935e-06	7.1531e-06	1431.1	382.97	6.6946e-06	6.6488e-06	440.72	144.64	125.49	42.53	6.9975e-06	52.807	-43.583	-9.751	-14.323	-93.086	54.296	32.905	-93.037	-88.282	15.457	30.953	-88.884	-84.629	-83.673	-79.261	51.819	-80.077	-8191	255	
3362.961	1	1	0	0	0.18004	0.12223	0.035253	0.22111	0.024599	0.20122	0.26345	0.27906	0.079289	0.14436	0.20954	0.28682	0.14553	0.048877	0.070143	0.079503	-2.2854	-3.0333	-3.2188	-2.6875	-3.4188	-3.0854	-2.6792	-3.5604	-2.7188	-3.025	-3.4354	-2.4208	-3.1354	-3.2167	-2.6188	-3.5167	2.520	197.594	-14.344	-74.341	-16.327	49.673	230.900	250.227	202.011	110.790	246.893	228.753	-56.891	161.377	7.361	11.785	0.00036511	0.00059578	0.00016742	1426.6	4.7589e-06	5.7843e-06	1411.3	376.22	5.4028e-06	5.6565e-06	433.19	140.64	122.55	41.505	4.8308e-06	51.225	0.00058056	0.00063051	0.00017889	1440.4	6.8032e-06	7.1848e-06	1431.5	382.39	6.7024e-06	7.1771e-06	440.31	144.24	125.54	42.487	7.0585e-06	52.655	-40.119	-25.350	-8.313	-93.023	41.405	41.393	-93.199	-88.300	49.796	50.051	-88.931	-84.166	-83.643	-79.592	56.261	-80.301	-8191	255	
3363.057	1	1	0	0	0.16546	0.2872	0.040504	0.23454	0.17857	0.13988	0.078038	0.23743	0.3078	0.11643	0.25338	0.099318	0.18119	0.2731	0.13135	0.21684	-2.2792	-2.7021	-3.3604	-2.7313	-3.0958	-3.1188	-2.7458	-3.4375	-2.7313	-2.775	-3.3688	-2.6229	-3.0771	-3.0646	-2.5438	-3.3896	-7.875	55.033	206.105	221.205	-30.901	-49.067	208.973	178.117	52.240	32.091	234.874	155.930	216.317	179.241	-28.884	161.983	0.00035931	0.00060326	0.00018205	1420.2	1.312e-06	4.902e-06	1409	375.75	4.0078e-06	5.8259e-06	432.94	141.19	122.8	41.247	4.6458e-06	51.526	0.00056645	0.0006232	0.00017299	1437.6	6.6839e-06	7.069e-06	1427.1	382.12	6.7974e-06	7.5457e-06	439.48	144.15	125.44	42.406	7.2028e-06	52.759	-41.796	-13.609	-14.554	-93.066	26.911	50.096	-93.143	-88.414	47.934	41.334	-88.833	-84.335	-83.676	-79.652	33.628	-80.286	-8191	255	
3363.153	1	1	0	0	0.32587	0.076698	0.24607	0.42154	0.090612	0.1783	0.24103	0.082419	0.018391	0.16256	0.42534	0.22654	0.098328	0.18049	0.16176	0.16337	-2.6229	-2.575	-3.425	-2.8312	-2.9458	-3.1604	-2.9188	-3.5438	-2.8937	-2.8417	-3.525	-2.6083	-3.1437	-3.2917	-2.2979	-3.2146	-39.754	103.269	-34.593	178.779	-4.816	-16.465	137.651	159.102	-11.276	-2.601	212.084	213.086	129.281	233.168	251.871	231.046	0.00038618	0.00037533	0.00018288	1415.9	5.1201e-06	4.3923e-06	1406.8	374.62	3.2769e-06	5.7071e-06	430.59	140.58	123.08	41.308	5.9728e-06	51.536	0.0005829	0.00069017	0.00018363	1432.6	7.2183e-06	7.4144e-06	1424.8	381.35	7.1688e-06	7.5987e-06	438.82	144.13	125.32	42.421	7.5876e-06	52.697	-39.870	-35.352	-19.775	-92.943	53.837	28.278	-93.042	-88.220	72.040	46.231	-88.902	-84.636	-83.708	-79.046	53.843	-80.309	-8191	255	
3363.250	1	1	0	0	0.16663	0.094396	0.061674	0.51198	0.11485	0.16607	0.21333	0.21821	0.061329	0.14922	0.27829	0.19712	0.18214	0.10455	0.30902	0.23815	-2.6896	-2.5354	-3.2854	-2.8604	-2.9667	-3.4479	-2.6208	-3.5417	-3.0646	-2.5583	-3.4437	-2.7458	-2.6792	-3.2958	-2.5229	-3.2146	33.778	-38.612	29.102	225.257	-13.711	247.902	152.566	202.702	116.783	-96.819	217.367	-72.554	7.620	7.189	48.263	174.682	0.00040549	0.00046922	0.00019218	1413.5	4.2446e-06	5.6284e-06	1408.7	375.89	4.5778e-06	6.0178e-06	433.27	140.88	122.62	41.268	4.4968e-06	51.147	0.00061601	0.00071483	0.0001837	1430.8	7.5422e-06	7.4921e-06	1424.9	381.72	7.3086e-06	7.7207e-06	439.69	144.29	125.51	42.394	7.5253e-06	52.636	-40.162	6.170	-6.541	-93.049	55.405	28.124	-93.118	-88.364	43.578	53.918	-88.776	-84.313	-83.599	-79.392	46.306	-80.006	-8191	255	
3363.368	1	1	0	0	0.20581	0.17978	0.12433	0.24973	0.052184	0.20217	0.21491	0.21599	0.071268	0.12121	0.21205	0.323	0.14605	0.2101	0.32203	0.20279	-2.6333	-2.4104	-3.2521	-3.1813	-2.6625	-3.4437	-2.6354	-3.2479	-3.1729	-2.5667	-3.4458	-2.975	-2.7062	-3.4667	-2.6042	-3.0646	-70.695	122.496	244.283	-69.009	131.882	-7.919	175.887	162.698	131.760	175.309	250.301	229.529	140.134	22.774	35.013	-62.894	0.00036185	0.00057093	0.00015557	1419.1	2.4284e-06	3.8443e-06	1407.2	376.16	3.621e-06	5.0477e-06	433.47	141.17	122.24	41.378	4.3929e-06	51.303	0.00060456	0.00070455	0.00018837	1435	7.2873e-06	7.8445e-06	1427.9	382.02	7.124e-06	7.697e-06	439.26	144.24	125.31	42.421	7.2855e-06	52.749	-40.437	-24.376	-18.741	-93.010	44.737	39.078	-93.038	-88.199	26.191	52.749	-88.729	-84.537	-83.896	-79.263	61.437	-80.300	-8191	255	
3363.442	1	1	0	0	0.19542	0.10814	0.16692	0.13295	0.055915	0.17478	0.1936	0.026533	0.17402	0.1592	0.1308	0.080753	0.042834	0.12442	0.17193	0.04687	-2.7646	-2.5979	-3.3292	-3.0792	-2.6958	-3.3875	-2.6521	-3.1125	-3.2854	-2.5896	-3.4	-3.1104	-2.6813	-3.3792	-2.8229	-2.9896	192.474	21.885	4.420	-63.612	112.676	30.676	158.895	140.272	32.177	-56.933	239.521	147.066	167.978	-61.017	-49.397	146.786	0.00036636	0.00036381	0.00012874	1417.9	3.2146e-06	5.8352e-06	1415.3	375.85	2.5666e-06	5.83e-06	432.13	141	121.91	41.511	4.8639e-06	51.466	0.00060569	0.00069166	0.00017746	1435.4	7.4625e-06	7.432e-06	1429.7	382.34	7.1987e-06	7.6085e-06	440.09	144.33	125.1	42.509	7.2509e-06	52.763	-43.277	-30.312	-12.776	-93.160	73.971	35.842	-93.165	-88.468	21.772	41.773	-88.910	-84.450	-83.707	-79.461	51.972	-80.279	-8191	255	
3363.538	1	1	0	0	0.066516	0.074222	0.20846	0.18585	0.23228	0.10465	0.11367	0.28237	0.045675	0.092665	0.099267	0.14237	0.22553	0.11272	0.24295	0.10008	-2.9604	-2.4625	-3.25	-3.2792	-2.5979	-3.2708	-2.9229	-3.0667	-3.4833	-2.7792	-3.1063	-3.1375	-2.5771	-3.4583	-2.75	-2.7188	-65.423	32.632	50.285	178.552	87.649	253.220	132.318	202.560	128.876	45.652	-60.385	-48.567	-102.084	-70.074	32.906	96.367	0.00034577	0.00054619	0.00014232	1420	3.8969e-06	5.9909e-06	1410.3	376.44	3.7402e-06	4.8978e-06	432.1	140.85	122.54	41.407	5.6931e-06	51.211	0.0006042	0.00067964	0.0001868	1435.7	7.4727e-06	7.3918e-06	1428.4	382.38	7.3551e-06	7.4983e-06	439.9	143.99	125.33	42.446	7.2701e-06	52.623	-37.306	-25.809	-16.589	-93.189	23.460	34.844	-93.099	-88.167	50.052	62.101	-88.762	-84.417	-83.886	-79.451	49.503	-80.189	-8191	255	
3363.657	1	1	0	0	0.036191	0.1766	0.22962	0.24255	0.21964	0.14461	0.12037	0.25693	0.054349	0.22125	0.21793	0.13544	0.070753	0.056166	0.15816	0.088071	-3.0167	-2.4313	-3.05	-3.5146	-2.5167	-3.125	-2.9708	-3.0042	-3.3917	-2.5896	-3.3	-3.175	-2.6396	-3.375	-2.9437	-2.8438	8.817	27.770	102.406	170.213	174.054	112.727	225.387	183.572	194.067	143.413	131.985	88.034	202.973	44.291	-87.138	127.967	0.0004039	0.00043282	0.00015673	1422.1	3.8604e-06	5.7711e-06	1412.3	375.77	4.702e-06	4.9068e-06	432.57	141.32	123.75	41.457	4.5765e-06	51.242	0.00059924	0.00066682	0.0001844	1438	7.4834e-06	7.468e-06	1428.3	382.5	7.1318e-06	7.5018e-06	440.33	144.43	125.67	42.444	7.2079e-06	52.701	-40.523	-34.423	-19.168	-93.065	75.559	52.789	-93.031	-88.350	23.402	54.248	-88.764	-84.597	-83.561	-79.290	44.363	-80.189	-8191	255	
3363.753	1	1	0	0	0.15998	0.044974	0.17453	0.22052	0.077866	0.13686	0.15977	0.36245	0.093084	0.27088	0.087654	0.056847	0.19289	0.10256	0.28588	0.12187	-3.0604	-2.6104	-2.8937	-3.4771	-2.5771	-3.2167	-3.2313	-2.4854	-3.5083	-2.6646	-2.9729	-3.2708	-2.4292	-3.2271	-3.1521	-2.5646	225.098	124.748	28.432	213.290	39.251	193.973	215.696	-98.092	75.733	-36.426	-63.869	218.495	160.771	177.901	82.849	-62.375	0.00038938	0.00062384	0.00017317	1418.2	4.8489e-06	4.9697e-06	1412.9	376.98	6.0456e-06	4.8462e-06	430.54	141.22	123.09	41.53	5.0683e-06	51.187	0.00057861	0.00066737	0.00018961	1436.2	7.2207e-06	7.1644e-06	1430.2	382.56	6.8009e-06	7.0683e-06	439.15	144.37	125.57	42.525	7.0148e-06	52.719	-45.834	-18.078	-7.756	-93.008	36.484	17.691	-93.180	-88.169	51.786	36.426	-88.755	-84.489	-83.640	-79.231	65.992	-79.861	-8191	255	
3363.849	1	1	0	0	0.054899	0.055919	0.12297	0.085878	0.14255	0.18903	0.11668	0.17405	0.14429	0.054402	0.22435	0.076673	0.24977	0.056384	0.17747	0.185	-3.0938	-2.7229	-2.7146	-3.4542	-2.6292	-3.2354	-3.4125	-2.8063	-3.2771	-2.8187	-2.7646	-3.4521	-2.5354	-3.2479	-3.2667	-2.7021	-103.326	167.855	59.233	-99.364	-71.850	-62.073	178.603	-70.984	144.790	36.140	214.671	-53.120	107.275	219.013	205.169	-68.426	0.00039263	0.00054926	0.00015954	1417.5	4.187e-06	3.3693e-06	1408.6	376.9	2.982e-06	5.8639e-06	433.69	141.51	122	41.442	6.0329e-06	51.307	0.00055486	0.00061843	0.00018058	1435.5	6.8356e-06	7.0669e-06	1428.3	382.27	6.5698e-06	6.7387e-06	440.3	144.37	125.24	42.53	7.2945e-06	52.725	-42.592	-17.604	-21.316	-93.082	51.409	28.874	-93.172	-88.335	51.759	58.543	-88.886	-84.160	-83.634	-79.147	49.175	-80.023	-8191	255	
3363.970	1	1	0	0	0.055185	0.17017	0.11332	0.27653	0.070789	0.14373	0.22382	0.22867	0.094721	0.067069	0.26306	0.10891	0.20532	0.42224	0.15973	0.18594	-2.9479	-2.8604	-2.6958	-3.4125	-2.6604	-3.1354	-3.6333	-2.6708	-3.1813	-2.9479	-2.8292	-3.4667	-2.6229	-3.0667	-3.2687	-2.5438	195.027	3.403	215.788	228.075	235.991	14.437	189.620	242.444	8.416	207.545	110.262	227.362	-0.597	-84.967	62.383	235.957	0.00040106	0.00044252	0.00015569	1421.2	4.6532e-06	3.2776e-06	1414.9	376.13	6.2132e-06	5.3798e-06	433.28	141.67	123.02	41.532	4.1531e-06	51.21	0.00058903	0.0006351	0.00019064	1437.8	6.9346e-06	7.3459e-06	1429.5	382.33	6.8642e-06	7.0844e-06	439.86	144.6	125.59	42.536	7.1752e-06	52.636	-37.481	-28.297	-22.225	-92.951	6.894	46.388	-93.114	-88.241	47.229	32.760	-88.861	-84.329	-84.068	-79.285	29.847	-80.166	-8191	255	
3364.041	1	1	0	0	0.22477	0.06516	0.13655	0.20805	0.17367	0.073037	0.013213	0.3281	0.29025	0.0258	0.17624	0.34155	0.14646	0.1937	0.087579	0.24041	-2.8021	-2.8625	-2.4062	-3.5375	-2.9667	-3.0354	-3.4479	-2.7083	-3.2396	-3.1875	-2.8063	-3.3792	-2.8271	-2.9479	-3.3771	-2.7438	-102.171	135.439	-4.897	235.209	76.581	210.530	41.239	189.223	171.270	243.635	211.311	185.351	211.806	189.133	137.127	211.650	0.00040021	0.00040566	0.00015831	1415.3	4.3271e-06	4.6083e-06	1407.1	375.58	4.2559e-06	3.3605e-06	432.87	141.39	122.55	41.545	3.6581e-06	51.186	0.00057117	0.00066886	0.00019148	1436.6	7.1314e-06	7.5676e-06	1428.8	382.54	6.7591e-06	7.1136e-06	439.99	144.47	125.46	42.555	7.1848e-06	52.717	-42.234	-18.033	-14.259	-93.118	43.906	58.122	-92.981	-88.188	50.312	66.189	-88.841	-84.239	-83.889	-79.276	54.889	-80.182	-8191	255	
3364.138	1	1	0	0	0.13513	0.086742	0.047948	0.30908	0.16797	0.037676	0.099504	0.096848	0.15695	0.16196	0.098268	0.01347	0.067842	0.14968	0.070131	0.14768	-2.7854	-3.2062	-2.7104	-3.5542	-2.8271	-2.9021	-3.6083	-2.7583	-3.1083	-3.2521	-2.8063	-3.3146	-2.8854	-2.7854	-3.3792	-2.6771	30.753	18.152	-4.968	220.506	51.234	-97.437	122.580	-104.167	179.342	178.161	-100.776	-74.291	78.441	-31.076	56.020	158.946	0.00036756	0.00039779	0.00015825	1419.8	4.474e-06	4.9682e-06	1411.3	375.79	3.9407e-06	4.5943e-06	433.1	141.26	122.66	41.434	4.7368e-06	51.212	0.00058535	0.00063373	0.00018571	1437.1	7.021e-06	7.0845e-06	1429.3	381.97	6.8248e-06	7.0314e-06	439.79	144.55	125.47	42.502	7.0649e-06	52.684	-38.475	-18.763	-15.515	-92.871	35.593	22.699	-92.745	-88.185	73.295	32.732	-88.785	-84.191	-83.826	-79.013	38.782	-79.978	-8191	255	
3364.258	1	1	0	0	0.225	0.22378	0.10652	0.25609	0.034206	0.17409	0.075828	0.29334	0.16622	0.19508	0.17389	0.054989	0.060679	0.030179	0.1323	0.13019	-2.4729	-3.1458	-2.3708	-3.5021	-2.8708	-2.5479	-3.4354	-2.8187	-2.8729	-3.4437	-2.6813	-3.3396	-3.1188	-2.725	-3.4396	-2.7167	168.459	63.026	-68.662	195.188	213.074	32.997	192.266	230.181	-0.181	36.504	152.814	250.076	68.201	117.979	15.011	-102.946	0.00033644	0.00054182	0.00016963	1418.3	4.6567e-06	3.0739e-06	1414	375.92	5.1307e-06	4.6335e-06	432.37	141.59	122.78	41.371	4.7333e-06	51.381	0.00057248	0.00066006	0.00018616	1436.9	6.9646e-06	7.1735e-06	1429.1	382.39	7.2046e-06	7.2398e-06	439.37	144.7	125.75	42.489	7.2098e-06	52.781	-37.766	-9.669	-12.680	-93.004	57.905	55.504	-93.126	-88.295	60.174	38.640	-88.936	-84.343	-84.197	-79.301	41.021	-80.010	-8191	255	
3364.353	1	1	0	0	0.046777	0.24698	0.2965	0.5201	0.22166	0.22472	0.30858	0.28331	0.15502	0.17542	0.21056	0.22433	0.37113	0.034591	0.11458	0.34387	-2.5979	-3.4792	-2.5042	-3.4042	-3.1042	-2.6771	-3.4729	-2.8271	-2.7667	-3.2792	-2.7313	-3.2104	-3.1021	-2.5896	-3.2083	-2.7938	234.031	102.440	31.781	238.682	106.233	-4.552	162.111	90.942	116.605	11.067	242.620	195.932	206.864	225.240	230.909	174.910	0.00036163	0.00060475	0.0001256	1421.7	2.9287e-06	4.225e-06	1415.4	376.34	4.7352e-06	5.9478e-06	433.12	141.57	123.31	41.492	3.8995e-06	51.109	0.00061976	0.00067599	0.00018754	1437.6	7.4235e-06	7.9737e-06	1429.8	382.93	7.3683e-06	7.5311e-06	440.62	144.61	125.88	42.536	6.9148e-06	52.677	-40.555	-14.991	-19.221	-93.015	58.728	41.565	-93.056	-88.304	44.287	61.473	-88.720	-84.265	-83.895	-79.203	58.372	-80.152	-8191	255	
3364.449	1	1	0	0	0.21979	0.096529	0.093262	0.13183	0.15665	0.13784	0.23067	0.31184	0.048082	0.18446	0.095275	0.16984	0.19688	0.26511	0.076921	0.070134	-2.3958	-3.3312	-2.4958	-3.2313	-2.9188	-2.6	-3.4521	-2.9813	-2.8521	-3.5062	-2.6521	-2.9917	-3.3729	-2.5667	-3.2438	-3.0583	2.046	215.042	-47.855	122.458	174.322	224.396	104.641	212.359	236.223	68.863	123.834	218.160	6.417	-96.905	169.837	223.554	0.00038795	0.00067201	0.00016268	1418.2	4.6498e-06	5.0126e-06	1418.6	377.38	5.2863e-06	6.4346e-06	432.23	140.39	122.31	41.467	3.889e-06	51.499	0.00061005	0.00067394	0.00018391	1436.6	7.3797e-06	7.7202e-06	1431.6	382.64	7.3414e-06	7.336e-06	440.55	144.29	125.43	42.527	6.9706e-06	52.772	-45.951	-11.926	-4.570	-92.719	46.443	50.784	-93.050	-88.372	59.139	44.073	-88.672	-84.168	-83.905	-79.175	49.492	-80.131	-8191	255	
3364.569	1	1	0	0	0.19834	0.21644	0.28951	0.42035	0.1176	0.25133	0.2176	0.18814	0.12711	0.13238	0.10434	0.1625	0.23261	0.10938	0.011706	0.2086	-2.3688	-3.3104	-2.5542	-3.05	-3.2917	-2.5208	-3.3875	-3.1562	-2.5333	-3.3479	-2.7458	-2.8438	-3.4604	-2.5604	-3.1354	-3.1917	143.599	121.948	29.243	226.895	-28.347	143.967	237.071	223.926	-21.036	178.410	252.568	-101.210	-63.813	172.603	154.595	162.795	0.00037852	0.0006097	0.00014532	1418.5	4.9425e-06	5.0313e-06	1412.2	377.26	3.2199e-06	3.6454e-06	432.68	141.38	123.39	41.345	5.719e-06	51.317	0.00060527	0.00064197	0.00017927	1436.2	6.8626e-06	7.3798e-06	1428	383.22	7.2775e-06	6.8913e-06	440.01	144.5	125.63	42.464	6.9007e-06	52.667	-34.844	-6.030	-26.132	-92.958	63.659	39.424	-93.129	-88.376	52.514	53.926	-88.774	-84.155	-83.723	-78.982	55.184	-80.360	-8191	255	
3364.641	1	1	0	0	0.07088	0.22083	0.26145	0.28248	0.31416	0.16479	0.11499	0.097702	0.1109	0.065481	0.088003	0.050081	0.015016	0.095324	0.1457	0.1735	-2.0625	-3.2583	-2.7	-3.0229	-3.3292	-2.4792	-3.4104	-3.25	-2.5271	-3.2625	-3.0042	-2.7958	-3.4354	-2.6167	-3.1271	-3.2521	33.241	-65.774	46.036	214.176	48.345	158.727	128.947	72.773	228.864	151.323	-78.201	133.424	4.137	200.761	208.728	124.008	0.00042137	0.00053548	0.00011598	1420.7	6.2349e-06	4.7932e-06	1411.2	376.31	3.8186e-06	3.9312e-06	430.88	141.24	122.93	41.314	5.3655e-06	51.273	0.00059828	0.00065201	0.0001834	1436.5	6.9862e-06	7.3296e-06	1428.6	381.99	6.9807e-06	6.7889e-06	440.14	144.34	125.69	42.483	7.0976e-06	52.63	-41.629	-2.289	-20.321	-92.951	24.530	46.970	-92.809	-88.287	32.555	48.805	-88.636	-84.296	-83.617	-79.167	53.543	-80.291	-8191	255	
3364.737	1	1	0	0	0.16885	0.20061	0.094909	0.29221	0.16885	0.083505	0.090339	0.12427	0.093319	0.25024	0.14557	0.25985	0.081837	0.23325	0.10108	0.1588	-2.1083	-3.2833	-3.0458	-2.95	-3.3125	-2.5563	-3.1521	-3.325	-2.425	-3.3292	-2.7833	-2.7917	-3.4396	-2.8146	-2.9562	-3.5563	118.652	67.650	-84.335	220.102	59.464	179.047	-58.009	57.861	191.031	13.081	117.804	188.167	1.868	218.731	-29.571	5.469	0.00039509	0.00060277	0.0001615	1420.7	2.4058e-06	4.3192e-06	1410.9	375.82	4.0988e-06	5.4335e-06	431.34	141.24	122.96	41.287	5.2489e-06	51.247	0.00059102	0.00063912	0.00018893	1437.7	7.0108e-06	7.2265e-06	1428.9	382.54	7.3229e-06	7.3102e-06	440.41	144.59	125.61	42.469	7.3329e-06	52.741	-42.371	-14.770	-12.807	-92.788	49.635	35.870	-93.027	-88.227	34.603	55.310	-88.874	-84.379	-83.796	-79.060	72.779	-80.188	-8191	255	
3364.833	1	1	0	0	0.1356	0.033083	0.23473	0.11682	0.081055	0.33162	0.23677	0.021089	0.078438	0.18553	0.12286	0.11986	0.080672	0.046944	0.24395	0.088808	-2.1917	-3.0583	-3.0438	-2.7313	-3.3375	-2.7479	-3.0792	-3.4917	-2.7313	-3.2708	-3.3646	-2.6458	-3.4854	-2.8854	-2.8021	-3.5333	52.104	72.290	58.029	-97.489	-80.950	196.298	154.675	139.397	-30.183	-32.823	-93.174	149.112	172.675	141.078	55.715	168.410	0.00035501	0.00050365	0.00016042	1421.8	2.7071e-06	5.8542e-06	1417.8	375.82	4.7648e-06	5.1255e-06	432.24	141.26	122.23	41.383	3.3593e-06	51.502	0.00061051	0.00066744	0.00018639	1436.3	7.1589e-06	7.5479e-06	1431.3	382.44	7.2859e-06	7.0516e-06	440.22	144.35	125.55	42.522	7.4388e-06	52.766	-40.232	-12.213	-7.516	-92.826	27.115	28.979	-92.993	-88.205	70.953	43.629	-88.601	-84.210	-83.696	-79.235	29.697	-80.287	-8191	255	
3364.954	1	1	0	0	0.092074	0.24586	0.19724	0.26297	0.073578	0.24276	0.11125	0.14972	0.044135	0.15595	0.23931	0.2481	0.17045	0.14333	0.066304	0.10489	-2.1437	-3.0833	-3.1125	-2.7604	-3.3229	-2.7167	-2.7667	-3.5229	-2.3979	-3.3146	-3.2542	-2.6729	-3.4458	-2.8854	-2.7146	-3.3625	245.366	224.000	110.999	224.919	80.993	123.878	-92.041	218.149	-58.150	151.563	204.351	-96.324	222.747	-74.684	226.554	-33.489	0.00038613	0.00050575	0.00014044	1416.9	4.7568e-06	4.1703e-06	1408.1	377.82	6.93e-06	5.4455e-06	431.88	141.05	122.54	41.505	3.8789e-06	51.368	0.00059871	0.00065486	0.00019186	1436.1	6.8704e-06	7.4285e-06	1429.2	383.26	7.1879e-06	7.0899e-06	439.6	144.41	125.68	42.507	7.331e-06	52.799	-39.476	-14.182	5.723	-92.961	50.728	56.579	-92.954	-88.097	48.441	37.701	-88.803	-84.251	-83.575	-79.315	68.324	-80.113	-8191	255	
3365.050	1	1	0	0	0.20304	0.13662	0.11474	0.17381	0.1534	0.09353	0.09767	0.18812	0.27018	0.17913	0.11194	0.23264	0.18524	0.11027	0.26549	0.12431	-2.2979	-2.9708	-3.1562	-2.5854	-3.3458	-2.9313	-2.9125	-3.525	-2.7729	-3.0396	-3.5208	-2.7687	-3.1333	-3.0938	-2.5479	-3.4646	73.995	169.518	144.378	225.171	247.943	-6.688	-76.150	112.856	53.525	-21.924	152.125	216.335	-89.621	-103.804	17.345	183.525	0.00039776	0.000487	0.00015338	1417.6	6.3981e-06	4.4687e-06	1411.1	377.78	3.5245e-06	4.5139e-06	433.49	140.88	122.69	41.419	4.1597e-06	51.586	0.00058953	0.00064482	0.00018516	1436.3	7.0048e-06	7.3713e-06	1428.7	383.37	7.0595e-06	7.1687e-06	441.05	144.28	125.82	42.48	7.5125e-06	52.793	-44.880	-19.819	-14.057	-92.748	49.120	48.131	-92.986	-88.101	29.674	38.556	-88.851	-84.224	-83.579	-79.202	40.248	-80.090	-8191	255	
3365.146	1	1	0	0	0.29766	0.11884	0.11828	0.014648	0.1007	0.36155	0.27462	0.096454	0.081009	0.16631	0.13899	0.38039	0.2104	0.26185	0.19274	0.10646	-2.2687	-2.9583	-3.2562	-2.85	-3.25	-3.3438	-2.6854	-3.5854	-2.7208	-2.9875	-3.3854	-2.7083	-3.1979	-3.1437	-2.7271	-3.3688	166.987	-105.659	181.638	-103.258	68.788	-60.496	205.699	135.574	-22.359	12.246	250.029	248.058	-73.585	207.097	167.565	71.130	0.0003926	0.00074146	0.0001886	1418.1	3.4411e-06	5.2584e-06	1415.3	377.32	3.4839e-06	7.3477e-06	432.73	141.14	123.45	41.522	4.6671e-06	51.56	0.00058538	0.00070337	0.00019034	1434.7	7.1721e-06	7.6037e-06	1428.2	383.25	7.3223e-06	7.7081e-06	439.99	144.65	125.75	42.524	7.5805e-06	52.772	-42.817	-19.446	-17.599	-92.756	45.407	41.217	-93.038	-88.039	67.859	31.584	-88.632	-84.222	-83.788	-79.089	49.246	-79.985	-8191	255	
3365.242	1	1	0	0	0.051892	0.27425	0.17212	0.11918	0.15979	0.16496	0.25035	0.091447	0.23135	0.028221	0.074443	0.15821	0.18746	0.10616	0.095876	0.10887	-2.5938	-2.65	-3.3187	-2.8021	-3.0729	-3.2687	-2.5458	-3.4625	-2.8688	-2.6896	-3.4979	-2.7333	-3.0729	-3.2062	-2.6396	-3.1104	36.371	4.695	135.632	-80.264	-94.209	112.357	187.195	75.271	24.665	14.177	50.793	93.896	179.886	8.986	203.955	187.267	0.00036551	0.00047871	0.00017398	1418.1	4.4789e-06	5.2325e-06	1410.7	376.31	5.9205e-06	4.5613e-06	433.94	141.1	122.83	41.481	5.1779e-06	51.458	0.00060945	0.00069711	0.00018752	1435.9	7.2045e-06	7.5549e-06	1429.1	383.18	7.376e-06	7.7444e-06	440.76	144.48	125.85	42.565	7.4477e-06	52.85	-41.152	-16.749	-3.823	-92.873	53.300	25.763	-92.747	-88.132	59.011	41.445	-88.670	-84.276	-83.711	-79.123	56.952	-80.054	-8191	255	
3365.339	1	1	0	0	0.05727	0.12136	0.16188	0.11855	0.22001	0.30275	0.40991	0.259	0.12193	0.35636	0.20893	0.33592	0.10685	0.046025	0.4954	0.19492	-2.5583	-2.6271	-3.3104	-2.9604	-2.9562	-3.3583	-2.9104	-3.3833	-2.9396	-2.6688	-3.5229	-2.925	-2.8896	-3.3312	-2.6292	-3.2333	250.965	13.754	222.756	-15.350	136.588	-52.033	190.182	214.835	181.961	-20.385	229.974	-94.263	213.936	-54.901	240.824	218.368	0.00040315	0.00043912	0.00014974	1416.8	4.5189e-06	3.7979e-06	1411.4	377.28	4.3797e-06	7.0226e-06	432.4	140.82	123.06	41.511	5.187e-06	51.219	0.00060275	0.00069501	0.00018682	1434.7	7.2843e-06	7.312e-06	1427.8	383.04	6.9735e-06	7.7604e-06	440.76	144.41	126.04	42.618	7.4061e-06	52.781	-41.648	-43.662	-25.639	-92.921	40.173	40.894	-92.892	-88.015	51.816	50.879	-88.523	-84.197	-83.569	-79.053	71.074	-80.075	-8191	255	
3365.435	1	1	0	0	0.17059	0.13578	0.10501	0.12608	0.1564	0.25241	0.12846	0.23978	0.072684	0.16612	0.061282	0.088856	0.19258	0.080646	0.10746	0.092713	-2.6167	-2.4333	-3.3875	-2.7292	-2.675	-3.3063	-2.7875	-3.1771	-2.975	-2.5812	-3.4313	-2.8854	-2.7896	-3.3521	-2.3604	-3.2958	127.363	204.351	176.605	-33.360	1.277	-37.048	55.014	238.466	70.524	-53.841	145.418	210.762	59.605	184.587	-61.213	-82.760	0.00034834	0.00056414	0.00022777	1419.1	4.0306e-06	3.8873e-06	1416.6	377.29	5.8076e-06	3.5109e-06	432.68	140.96	123.11	41.447	5.2891e-06	51.383	0.00060633	0.00068825	0.00018168	1434.4	7.4781e-06	7.5429e-06	1429.3	383.05	7.2823e-06	7.8161e-06	440.7	144.54	125.89	42.524	7.3605e-06	52.705	-44.121	-9.423	-10.573	-92.984	56.341	45.290	-92.898	-88.026	52.618	41.608	-88.833	-84.182	-83.583	-78.914	40.190	-79.826	-8191	255	
3365.531	1	1	0	0	0.12074	0.1987	0.12924	0.41523	0.085643	0.15094	0.36237	0.27369	0.04523	0.065193	0.062434	0.32216	0.18133	0.15153	0.071566	0.32346	-2.9979	-2.375	-3.3	-3.0479	-2.7146	-3.2208	-2.8021	-3.0729	-3.3063	-2.4458	-3.2125	-3.1646	-2.5354	-3.4396	-2.6583	-3.1333	220.737	246.379	125.406	194.298	27.732	-9.920	253.382	238.959	-103.421	222.129	209.214	200.789	51.069	-60.050	6.755	190.110	0.00034573	0.00036462	0.00019011	1419.7	5.2234e-06	5.5975e-06	1412.2	377.68	6.0739e-06	4.806e-06	433.9	140.97	123.92	41.47	2.8983e-06	51.601	0.00059605	0.00070795	0.00018937	1436.4	7.5656e-06	7.4207e-06	1427.3	382.75	7.3115e-06	7.5799e-06	440.89	144.26	126.13	42.545	7.2682e-06	52.825	-42.650	1.522	-1.486	-92.952	35.478	44.510	-92.986	-88.113	39.912	39.339	-88.651	-84.226	-83.506	-79.137	78.149	-80.063	-8191	255	
3365.650	1	1	0	0	0.074394	0.10229	0.14997	0.21756	0.1898	0.1679	0.17295	0.096399	0.069232	0.25407	0.087687	0.1732	0.25188	0.23765	0.028902	0.13071	-2.9938	-2.4083	-3.2771	-3.2604	-2.65	-3.45	-2.9125	-2.7979	-3.3438	-2.775	-3.1104	-3.2062	-2.6333	-3.2729	-2.8688	-2.9708	133.835	251.733	136.483	-92.252	105.687	213.114	158.947	249.374	1.450	35.121	198.076	214.854	181.050	132.643	-25.598	139.802	0.00039169	0.00043159	0.00018953	1417	3.2103e-06	4.0569e-06	1411.7	376.51	4.3376e-06	5.8241e-06	433.77	141.36	123.11	41.422	3.5177e-06	51.48	0.00059371	0.00069748	0.00018513	1435.2	7.3761e-06	7.2272e-06	1430.7	382.94	7.2757e-06	7.5095e-06	440.66	144.55	125.73	42.562	7.4439e-06	52.844	-42.825	-26.409	-18.592	-92.777	34.949	43.935	-92.938	-88.151	40.536	38.513	-88.623	-84.362	-83.641	-79.153	50.746	-80.282	-8191	255	
3365.746	1	1	0	0	0.05341	0.098394	0.4922	0.37436	0.18401	0.13629	0.094573	0.19094	0.099412	0.057425	0.29387	0.11241	0.30463	0.18367	0.13167	0.19917	-2.8958	-2.6771	-3.1583	-3.3021	-2.4125	-3.3104	-3.1125	-2.825	-3.3229	-2.5667	-3.2625	-3.2104	-2.4521	-3.3208	-2.7333	-2.7188	137.140	-4.819	-64.007	220.050	186.649	110.801	145.928	249.858	137.831	-61.446	136.417	215.354	233.995	204.235	242.012	159.167	0.00039782	0.000592	0.00018222	1418.2	4.3909e-06	4.5012e-06	1410.2	376.91	5.985e-06	3.5047e-06	432.23	141.37	123.09	41.6	6.1399e-06	51.496	0.00058754	0.00066335	0.00018848	1436.1	7.5278e-06	7.1785e-06	1429.8	383.11	7.3527e-06	7.697e-06	440.64	144.42	125.92	42.552	7.6132e-06	52.824	-44.411	-23.627	-24.440	-93.073	64.063	25.587	-92.798	-88.083	58.928	51.840	-88.512	-84.195	-83.408	-79.269	53.809	-79.850	-8191	255	
3365.842	1	1	0	0	0.161	0.20575	0.22337	0.18476	0.024791	0.075115	0.19087	0.31873	0.072488	0.17447	0.17843	0.29981	0.21234	0.16451	0.16263	0.11301	-3.1354	-2.5854	-2.8438	-3.4229	-2.55	-3.3063	-3.1312	-2.6625	-3.4458	-2.7604	-3.0292	-3.2979	-2.5	-3.3354	-3.0125	-2.675	205.612	-8.596	37.173	247.535	24.323	19.803	152.319	195.445	164.179	60.391	71.585	127.004	212.633	206.150	162.808	178.925	0.00035684	0.00066913	0.00012302	1419.5	4.4857e-06	5.5839e-06	1408.6	377.12	5.7036e-06	3.9862e-06	433.85	141.68	123.12	41.441	5.4471e-06	51.43	0.00060009	0.00069922	0.00019242	1435.4	7.4715e-06	7.3868e-06	1429.3	382.81	6.9693e-06	7.3367e-06	440.89	144.53	125.85	42.574	7.0341e-06	52.766	-39.899	-19.337	-11.222	-92.999	67.350	46.982	-93.011	-88.170	43.232	51.224	-88.843	-84.225	-83.606	-78.987	44.268	-79.985	-8191	255	
3365.938	1	1	0	0	0.16776	0.1507	0.10535	0.29017	0.065932	0.040464	0.2616	0.34844	0.19921	0.17253	0.090482	0.28931	0.023356	0.2438	0.37553	0.30598	-3.0375	-2.6917	-2.7833	-3.4167	-2.7417	-3.2625	-3.3583	-2.8208	-3.3312	-2.7396	-2.8521	-3.4062	-2.4875	-3.2917	-3.2083	-2.8958	164.923	169.206	89.565	-97.510	-95.086	248.349	109.938	221.192	161.305	-63.786	86.429	145.418	3.285	232.339	212.905	59.711	0.00039229	0.00043782	0.00015374	1419.8	3.9136e-06	4.7107e-06	1411.2	376.29	5.4346e-06	4.7942e-06	432.12	141.36	123.34	41.46	5.2213e-06	51.527	0.00057627	0.00066044	0.00019298	1435.3	7.3347e-06	7.3734e-06	1428.2	382.61	7.3647e-06	7.3813e-06	440.78	144.5	125.72	42.561	7.5722e-06	52.817	-37.108	-5.157	-12.944	-92.864	56.154	64.924	-93.067	-88.171	36.042	41.722	-88.907	-84.442	-83.580	-78.913	45.956	-79.927	-8191	255	
3366.034	1	1	0	0	0.19779	0.20101	0.094424	0.053295	0.025269	0.14669	0.2904	0.31498	0.18501	0.16862	0.14411	0.10762	0.12463	0.21915	0.18142	0.064521	-2.9771	-2.9229	-2.6792	-3.4417	-2.4479	-3.0354	-3.3771	-2.5354	-3.3854	-2.8458	-2.8563	-3.6229	-2.6792	-2.9479	-3.1208	-2.7458	158.900	123.796	88.436	-65.595	222.111	209.008	202.536	-92.742	-37.321	59.711	63.237	247.653	212.974	74.266	-69.771	246.545	0.00034152	0.00039047	0.00017577	1419.5	7.6478e-06	5.2709e-06	1413.4	376.41	4.9008e-06	3.7186e-06	432.69	142	122.61	41.644	5.5053e-06	51.285	0.00057525	0.00068367	0.00019709	1436.2	7.2699e-06	7.3176e-06	1430.1	383.03	7.1145e-06	7.5569e-06	439.75	144.48	125.49	42.627	7.4253e-06	52.75	-36.882	20.451	-25.899	-92.894	42.482	43.753	-93.054	-88.306	46.089	39.304	-88.615	-84.299	-83.834	-79.169	63.373	-79.996	-8191	255	
3366.131	1	1	0	0	0.20845	0.25071	0.11712	0.22791	0.074196	0.031143	0.24749	0.088831	0.040731	0.2304	0.13814	0.19082	0.22091	0.10437	0.22134	0.10283	-2.9729	-2.8688	-2.7354	-3.4083	-2.6708	-3.1104	-3.4313	-2.6854	-3.2208	-2.8875	-2.4167	-3.5187	-2.5875	-3.0292	-3.3292	-2.7188	82.167	2.147	119.392	235.932	188.032	5.414	142.157	209.956	29.972	7.370	-0.650	245.879	178.256	239.947	70.706	-63.613	0.00038779	0.00044736	0.00014472	1421.5	3.7388e-06	3.3557e-06	1414	377.86	3.5126e-06	5.973e-06	434.03	141.44	122.84	41.347	5.2988e-06	51.33	0.00059371	0.00066013	0.0001995	1438.7	7.3215e-06	7.7965e-06	1429.7	383.14	7.2309e-06	7.4293e-06	441.08	144.8	125.6	42.543	7.4638e-06	52.852	-40.078	-8.092	-24.419	-93.025	46.667	43.340	-92.899	-88.290	69.968	56.331	-88.628	-84.207	-83.641	-79.296	45.957	-79.925	-8191	255	
3366.251	1	1	0	0	0.052394	0.070883	0.13716	0.17008	0.28561	0.12389	0.060805	0.22361	0.2543	0.14078	0.16524	0.18828	0.15781	0.046508	0.077015	0.079724	-2.8458	-3.2	-2.4958	-3.6	-2.8187	-2.8292	-3.4125	-2.6083	-3.1292	-3.1333	-2.775	-3.4958	-3.0333	-2.9208	-3.4542	-2.5583	-20.276	174.242	-49.893	175.383	105.592	118.840	185.803	-67.402	-85.879	-7.909	180.738	161.407	-86.704	251.844	201.500	58.027	0.00038767	0.00042785	0.00013561	1423	4.2326e-06	3.5556e-06	1408.1	375.62	4.6401e-06	4.6117e-06	433.12	141.28	123.53	41.512	5.4424e-06	51.357	0.00060052	0.00069414	0.00019599	1437.2	7.2483e-06	7.6312e-06	1429.7	382.82	7.1145e-06	7.5715e-06	440.96	144.59	125.91	42.587	7.3509e-06	52.781	-39.065	-18.779	-12.667	-93.013	58.626	47.304	-93.100	-88.462	43.893	72.982	-88.718	-84.485	-83.800	-79.144	38.519	-80.003	-8191	255	
3366.347	1	1	0	0	0.20414	0.14199	0.18631	0.17019	0.17945	0.24125	0.10197	0.094522	0.18127	0.24079	0.099138	0.065483	0.1445	0.062273	0.18593	0.056973	-2.825	-3.1479	-2.5375	-3.5438	-2.9292	-2.7208	-3.5167	-2.6625	-3.0229	-3.0417	-2.5563	-3.3375	-2.925	-2.5896	-3.25	-2.575	118.801	171.592	204.082	186.222	-85.278	190.725	37.157	212.929	-12.675	231.543	172.966	182.115	-88.649	-61.483	48.127	203.166	0.00034206	0.00047082	0.00012421	1418.7	3.6137e-06	3.6964e-06	1412.8	376.3	4.6619e-06	6.3587e-06	431.82	141.67	122.6	41.58	4.2948e-06	51.477	0.00060211	0.00070579	0.0002004	1437	7.4631e-06	8.067e-06	1428.8	383.16	7.5188e-06	7.5102e-06	439.99	144.65	125.8	42.616	7.5491e-06	52.829	-38.836	-13.561	-24.273	-92.745	33.931	41.708	-93.007	-88.070	59.565	36.456	-88.792	-84.091	-83.606	-78.980	77.373	-80.293	-8191	255	
3366.442	1	1	0	0	0.12724	0.1373	0.054375	0.22588	0.11072	0.08617	0.26686	0.30855	0.14962	0.35327	0.23957	0.05123	0.18282	0.34175	0.17303	0.25546	-2.35	-3.1375	-2.4	-3.3833	-2.9042	-2.4979	-3.5854	-2.7896	-2.9521	-3.2271	-2.6792	-3.175	-3.0229	-2.5729	-3.2792	-2.8875	-11.669	153.431	67.978	144.926	251.201	176.877	215.719	200.935	105.848	-82.608	71.185	209.237	-91.646	-55.252	190.193	235.786	0.00038797	0.00060437	0.00013421	1421.3	4.3973e-06	3.6071e-06	1413.6	376.87	4.4475e-06	6.0266e-06	433.6	141.42	123.4	41.5	3.4477e-06	51.301	0.00061533	0.00069786	0.00019843	1436.9	7.5386e-06	8.0783e-06	1430.7	383.26	7.419e-06	7.5827e-06	440.27	144.78	126.07	42.557	7.0508e-06	52.75	-40.553	-14.632	-27.606	-92.828	49.870	35.129	-92.938	-88.300	23.582	36.331	-88.809	-84.337	-83.551	-79.254	60.439	-79.950	-8191	255	
3366.538	1	1	0	0	0.2514	0.19742	0.094713	0.081464	0.042711	0.08104	0.060668	0.036453	0.11813	0.1392	0.26916	0.23086	0.081114	0.075551	0.22406	0.21444	-2.4	-3.3479	-2.375	-3.0542	-3.1	-2.5146	-3.3917	-2.9458	-2.6104	-3.1917	-2.4771	-3.1771	-3.1604	-2.5438	-3.2062	-2.7812	5.268	246.044	192.485	233.715	209.091	29.333	252.439	-28.913	-8.188	249.777	139.346	145.756	17.934	-101.263	-0.124	207.373	0.00034938	0.00054803	0.00013983	1420.7	2.9659e-06	4.7314e-06	1413.2	375.31	2.5614e-06	3.7205e-06	432.1	141.66	122.84	41.623	3.1141e-06	51.478	0.00060988	0.00069067	0.00019148	1437.2	7.4127e-06	8.0083e-06	1430.7	382.36	7.6872e-06	7.5903e-06	440.05	144.68	125.84	42.607	7.1085e-06	52.687	-48.778	-30.621	-13.933	-92.811	23.392	51.262	-93.059	-88.374	47.788	28.569	-88.913	-84.327	-83.724	-79.259	37.511	-80.431	-8191	255	
3366.611	1	1	0	0	0.24427	0.12998	0.1993	0.26496	0.15233	0.18849	0.12422	0.068374	0.081623	0.21902	0.2131	0.14855	0.047921	0.33921	0.13369	0.23247	-2.4125	-3.3708	-2.5104	-3.2229	-3.0687	-2.4542	-3.3333	-3.0625	-2.5458	-3.3438	-2.7	-3.0583	-3.3354	-2.5438	-3.1604	-3.2771	165.056	-104.369	65.088	238.602	-95.515	21.697	-30.068	130.092	-0.563	76.430	2.683	156.651	143.606	188.822	5.755	219.051	0.00039278	0.00050276	0.00013742	1418.6	5.4919e-06	4.8654e-06	1413.6	376.31	6.2986e-06	5.5158e-06	434.16	141.13	122.94	41.381	6.838e-06	51.36	0.00062295	0.00065281	0.00019502	1437.2	7.4571e-06	7.5542e-06	1430.4	382.8	7.2912e-06	7.4928e-06	441.21	144.29	125.69	42.551	7.4317e-06	52.795	-47.595	-11.731	-9.247	-92.655	50.408	34.761	-92.948	-88.163	64.227	61.916	-88.918	-84.259	-83.689	-79.158	53.267	-79.982	-8191	255	
3366.730	1	1	0	0	0.22087	0.18712	0.22262	0.36989	0.01238	0.072376	0.1678	0.1798	0.10622	0.067094	0.18047	0.12582	0.17129	0.2631	0.17468	0.034341	-2.0917	-3.3479	-2.7188	-2.9271	-3.45	-2.25	-3.5125	-3.0812	-2.6417	-3.4083	-2.8833	-2.9813	-3.5479	-2.6708	-3.0167	-3.1542	-48.150	127.953	250.301	-96.760	-86.347	194.011	-46.970	246.029	46.878	209.965	40.568	201.122	180.306	245.188	-76.873	37.262	0.00038227	0.00050287	0.0001813	1417	3.6116e-06	4.5041e-06	1415.3	375.83	3.4432e-06	5.1187e-06	434.14	141.06	123.27	41.435	6.3242e-06	51.383	0.00062533	0.00066434	0.00019292	1435.9	7.4103e-06	7.538e-06	1429	382.9	7.729e-06	7.4196e-06	440.4	144.69	125.91	42.556	7.1329e-06	52.722	-42.787	-3.793	-16.938	-92.761	52.109	49.197	-92.714	-88.129	14.636	52.359	-88.837	-84.354	-83.687	-79.448	39.579	-80.174	-8191	255	
3366.826	1	1	0	0	0.26675	0.17599	0.031762	0.31441	0.10463	0.05533	0.11968	0.27502	0.27651	0.17354	0.26825	0.20597	0.087635	0.35805	0.34987	0.2224	-2.2479	-3.3083	-2.9167	-2.7083	-3.5062	-2.6458	-3.0417	-3.3229	-2.5583	-3.2667	-3.0354	-2.7729	-3.5625	-2.6479	-2.9354	-3.3021	-27.917	248.745	105.704	-60.501	38.246	200.981	243.105	166.178	-7.487	-19.880	175.166	110.504	83.508	-90.475	156.492	179.045	0.0004023	0.00056649	0.00013841	1419	5.1983e-06	4.894e-06	1413.5	377.41	4.1069e-06	5.9097e-06	433.49	141.86	122.85	41.409	5.5504e-06	51.483	0.00062047	0.00066886	0.00019277	1436.4	7.4361e-06	7.5669e-06	1430	383.52	7.5367e-06	7.5429e-06	440.59	144.73	125.85	42.531	7.5016e-06	52.763	-45.104	-21.713	-38.145	-92.783	50.189	59.593	-92.881	-88.374	36.595	57.117	-88.755	-84.207	-83.753	-79.043	30.246	-80.352	-8191	255	
3366.922	1	1	0	0	0.28176	0.10494	0.16357	0.47375	0.31923	0.097107	0.29999	0.1731	0.14481	0.10371	0.38734	0.26252	0.16016	0.25999	0.27604	0.2604	-2.0854	-3.1458	-2.925	-2.6729	-3.375	-2.5917	-3.2687	-3.3729	-2.5938	-3.2646	-3.2333	-2.6813	-3.4417	-2.8729	-2.85	-3.2833	-27.858	122.207	-15.981	-101.029	15.170	-4.918	148.723	223.080	-104.871	-82.790	221.571	172.626	238.475	228.348	70.564	166.624	0.00037977	0.00041967	0.00015829	1418.3	4.7132e-06	4.1292e-06	1412.5	375.62	4.7737e-06	5.6049e-06	433.76	141.38	122.82	41.286	7.2933e-06	51.339	0.00060381	0.00067568	0.00019453	1434.5	7.1068e-06	7.468e-06	1428.1	383.19	7.4746e-06	7.6635e-06	440.65	144.62	125.52	42.492	7.8248e-06	52.777	-44.845	-16.766	0.208	-92.881	1.727	32.161	-93.013	-88.123	50.637	60.529	-88.757	-84.275	-83.615	-79.388	44.543	-79.801	-8191	255	
3367.019	1	1	0	0	0.15865	0.030769	0.18343	0.30848	0.18747	0.17949	0.13835	0.3996	0.14979	0.1779	0.17916	0.11313	0.36355	0.28052	0.21544	0.2192	-1.95	-3.025	-2.95	-2.6562	-3.3625	-2.8667	-3.0062	-3.4125	-2.3417	-3.1042	-3.2687	-2.5292	-3.3292	-2.9188	-2.7	-3.4625	-21.172	187.357	52.191	250.892	155.763	222.848	156.319	232.335	0.168	154.873	205.295	210.214	196.386	222.566	241.061	93.898	0.00039986	0.00052449	0.00016534	1415.7	4.4431e-06	4.2688e-06	1410.1	375.99	4.5542e-06	3.8976e-06	432.65	140.61	122.64	41.513	4.0873e-06	51.398	0.000612	0.00069556	0.00019777	1436.2	7.3359e-06	8.0288e-06	1430	382.9	7.7087e-06	7.6614e-06	440.53	144.56	125.7	42.554	7.7158e-06	52.722	-42.602	-21.490	-10.914	-92.783	32.691	46.401	-93.007	-88.222	69.756	32.035	-88.892	-84.232	-83.447	-79.116	45.318	-80.167	-8191	255	
3367.139	1	1	0	0	0.07554	0.10824	0.10884	0.29862	0.27274	0.078985	0.12469	0.30661	0.16929	0.1797	0.35182	0.090065	0.14468	0.18956	0.076863	0.062838	-2.1833	-3.1583	-2.9688	-2.6208	-3.3271	-2.8917	-2.7146	-3.4708	-2.6312	-3.1188	-3.275	-2.4938	-3.2833	-3.1875	-2.5792	-3.4021	79.975	10.747	-98.282	157.743	115.419	11.288	81.029	185.278	-84.995	116.266	226.645	167.647	-102.564	150.294	83.245	199.193	0.00037717	0.00059539	0.0001249	1420.3	5.445e-06	4.8597e-06	1408.9	377.49	4.328e-06	2.9857e-06	433.32	141.47	123.55	41.234	5.2457e-06	51.391	0.00061019	0.00070777	0.00019815	1437.1	7.4301e-06	7.8763e-06	1429.2	383.4	7.7063e-06	7.8817e-06	441.08	144.55	125.78	42.504	7.6523e-06	52.743	-43.890	-20.135	-35.562	-92.763	64.139	44.272	-92.941	-88.186	35.631	54.426	-88.725	-84.205	-83.568	-79.126	46.290	-79.791	-8191	255	
3367.211	1	1	0	0	0.045732	0.1449	0.13834	0.23588	0.2224	0.2035	0.27748	0.057875	0.21405	0.014436	0.035108	0.26894	0.15029	0.27126	0.14735	0.1985	-2.2812	-2.7021	-3.2875	-2.7646	-3.2729	-2.9833	-2.75	-3.4104	-2.5687	-2.8042	-3.3917	-2.4958	-3.3271	-3.1917	-2.5187	-3.4521	41.146	171.422	-33.978	228.952	65.880	230.225	168.215	191.836	121.892	171.486	61.922	198.006	-19.009	244.148	131.061	227.526	0.00041169	0.00049723	0.00016382	1417.7	4.3089e-06	5.4445e-06	1406	377.1	5.1779e-06	6.2634e-06	434.02	141.25	123.41	41.297	4.7443e-06	51.088	0.00061487	0.00071421	0.00019561	1435.1	7.3467e-06	8.0267e-06	1428.7	382.89	7.4393e-06	8.0008e-06	441.12	144.51	126.02	42.497	7.6979e-06	52.734	-42.700	-35.370	-12.801	-92.813	59.003	49.631	-93.083	-88.099	38.998	47.076	-88.770	-84.504	-83.574	-79.162	45.562	-80.091	-8191	255	
3367.332	1	1	0	0	0.28492	0.15692	0.11351	0.39264	0.21028	0.066809	0.1749	0.042118	0.15589	0.10739	0.3149	0.17993	0.20762	0.23327	0.16254	0.061051	-2.4333	-2.7875	-3.2687	-2.8979	-3.0312	-3.1917	-2.6583	-3.2687	-2.675	-2.6479	-3.4292	-2.7125	-3.0771	-3.2292	-2.2521	-3.3646	106.112	156.906	34.342	251.117	-75.537	22.877	-105.089	215.715	239.975	125.759	170.499	211.932	-105.941	-31.290	156.318	212.094	0.00043003	0.0005035	0.00016382	1419.8	3.0041e-06	5.1257e-06	1414	377.14	2.3301e-06	5.6191e-06	433.07	141.24	122.99	41.556	6.5666e-06	51.591	0.00061565	0.00072227	0.00019287	1437.5	7.646e-06	7.8996e-06	1429.1	383.5	7.508e-06	8.205e-06	440.97	144.58	125.94	42.616	7.8345e-06	52.843	-40.177	-4.706	-12.858	-92.749	28.916	56.332	-92.900	-87.957	33.383	39.420	-88.696	-84.104	-83.508	-79.220	53.583	-79.859	-8191	255	
3367.428	1	1	0	0	0.17297	0.12394	0.14233	0.29531	0.16605	0.073922	0.0773	0.32839	0.14154	0.027834	0.092622	0.061647	0.10305	0.083645	0.11632	0.19516	-2.3646	-2.5667	-3.2271	-2.7229	-3.1708	-3.3812	-2.7333	-3.3375	-2.8667	-2.475	-3.2479	-2.7625	-2.9729	-3.4062	-2.4167	-3.1229	-101.681	-101.214	-17.495	150.241	170.265	-13.266	234.498	161.743	79.201	89.631	120.476	-85.534	172.297	-20.214	4.473	235.068	0.00037133	0.00044258	0.00015455	1420.4	3.7212e-06	3.8972e-06	1409.9	378.01	4.6515e-06	5.8413e-06	434.87	141.18	122.8	41.505	2.7286e-06	51.428	0.00060062	0.0007152	0.00019017	1435.4	7.5908e-06	7.7823e-06	1429.9	383.26	7.4513e-06	7.906e-06	441.23	144.44	125.72	42.601	7.7004e-06	52.821	-43.677	-9.130	-12.360	-92.825	75.736	49.710	-92.836	-88.005	22.561	44.563	-88.872	-84.304	-83.536	-79.248	64.378	-80.019	-8191	255	
3367.522	1	1	0	0	0.10974	0.10653	0.081929	0.20539	0.14131	0.17573	0.18228	0.14744	0.29883	0.10305	0.11265	0.10316	0.20961	0.14657	0.096678	0.23328	-2.5625	-2.3354	-3.1146	-2.9167	-2.9	-3.2042	-2.5875	-3.3	-3.2667	-2.3792	-3.3458	-2.8312	-2.7271	-3.4417	-2.4958	-3.1562	84.240	144.767	27.230	236.693	-102.941	-72.239	221.362	-36.475	-86.033	92.226	200.617	208.885	-94.372	-92.429	-0.781	150.405	0.00036669	0.0004509	0.00016817	1417.9	4.8e-06	3.9297e-06	1416.7	376.96	5.0511e-06	3.8668e-06	433.65	141.19	123.01	41.414	5.8758e-06	51.516	0.00060902	0.0007069	0.00019357	1434.7	7.583e-06	7.3727e-06	1430.5	383.24	7.545e-06	7.8085e-06	440.95	144.5	125.86	42.535	7.4625e-06	52.871	-41.332	-26.832	-10.508	-92.894	37.679	56.376	-93.032	-88.083	55.152	24.831	-88.817	-84.358	-83.701	-78.880	50.193	-79.842	-8191	255	
3367.618	1	1	0	0	0.16729	0.20362	0.16405	0.2361	0.094164	0.097046	0.19051	0.023719	0.14037	0.06211	0.22416	0.2355	0.053077	0.12125	0.04848	0.17506	-2.5771	-2.3021	-3.1917	-3.0812	-2.7062	-3.3229	-2.9104	-3.0625	-3.1792	-2.4083	-3.3917	-2.9938	-2.6292	-3.4562	-2.6292	-3.0229	-28.193	-44.642	203.738	186.536	224.301	91.957	37.256	-59.209	101.282	49.969	166.601	193.689	216.747	205.056	-98.768	44.175	0.00036514	0.0005138	0.00015525	1421.2	4.2351e-06	4.3312e-06	1408.6	376.51	6.5339e-06	3.4667e-06	434.39	141.55	122.88	41.455	5.1977e-06	51.542	0.00059797	0.00072462	0.00018717	1436.9	7.616e-06	7.3847e-06	1428.7	382.97	7.5146e-06	7.7451e-06	441.58	144.57	125.86	42.527	7.5452e-06	52.857	-45.429	-30.662	-15.450	-92.921	37.658	49.094	-93.124	-88.126	42.973	55.609	-88.105	-84.461	-83.500	-79.409	51.720	-80.031	-8191	255	
3367.739	1	1	0	0	0.22888	0.1352	0.038837	0.28949	0.26011	0.11743	0.068561	0.091381	0.079102	0.24394	0.23696	0.1184	0.2119	0.12401	0.19805	0.094639	-2.6854	-2.4688	-3.0604	-3.0208	-2.4771	-3.25	-2.8187	-2.8	-3.2375	-2.625	-3.3542	-2.85	-2.4854	-3.4917	-2.6729	-2.9813	-5.754	-8.429	-65.258	205.495	34.900	33.879	120.687	164.746	247.334	-42.477	215.189	141.816	202.584	187.869	15.351	64.068	0.00038042	0.00062738	0.00020181	1414.6	6.28e-06	4.9644e-06	1411.5	375.89	2.8674e-06	3.6629e-06	433.09	141.57	122.89	41.463	6.1594e-06	51.261	0.00061172	0.00072041	0.00019273	1435.3	7.8032e-06	7.6206e-06	1428.7	382.99	7.5534e-06	7.7911e-06	440.94	144.55	125.84	42.554	7.415e-06	52.802	-38.611	-16.632	-25.421	-92.972	75.424	39.775	-92.794	-88.102	59.845	46.279	-88.686	-84.282	-83.610	-79.216	35.836	-79.774	-8191	255	
3367.811	1	1	0	0	0.12041	0.13445	0.034751	0.11454	0.28363	0.16457	0.30166	0.23294	0.23331	0.18039	0.10253	0.086797	0.34997	0.2796	0.059163	0.19505	-3.0458	-2.2417	-2.9875	-3.0958	-2.45	-3.3375	-2.7792	-2.7417	-3.2833	-2.5708	-3.1292	-3.1875	-2.7229	-3.2729	-2.8083	-2.5104	4.124	153.381	76.650	174.489	-70.519	42.593	215.738	214.945	151.903	78.555	157.785	126.746	218.972	-23.264	-6.809	81.704	0.00042047	0.00070099	0.00020172	1418.8	1.8021e-06	3.9085e-06	1411.8	377.38	5.8885e-06	6.2562e-06	432.37	141.22	123.44	41.416	4.9803e-06	51.492	0.00061062	0.00070368	0.0001909	1437.4	7.547e-06	7.7131e-06	1428.8	383.34	7.3802e-06	7.8078e-06	440.69	144.42	125.97	42.549	7.6844e-06	52.864	-43.267	-24.905	6.876	-92.924	9.351	37.706	-93.093	-88.214	39.145	53.346	-88.622	-84.204	-83.387	-79.222	45.826	-79.890	-8191	255	
3367.907	1	1	0	0	0.1188	0.099646	0.2129	0.25925	0.15354	0.17929	0.29652	0.16351	0.088025	0.029012	0.27951	0.16629	0.38128	0.36417	0.29861	0.064274	-2.9646	-2.6437	-2.9958	-3.4813	-2.4667	-3.3542	-3.0479	-2.7438	-3.2896	-2.6583	-3.0896	-3.3063	-2.5396	-3.2854	-2.8854	-2.5958	193.927	175.366	-56.235	189.914	-78.460	34.501	214.363	227.274	-30.148	83.597	187.797	116.738	-104.134	212.444	44.446	179.968	0.00036362	0.00057134	0.00015128	1419	4.0966e-06	5.4436e-06	1415.7	376.75	6.4439e-06	5.4395e-06	432.45	141.23	122.57	41.602	3.5561e-06	51.358	0.00060357	0.00071403	0.00019693	1436.2	7.6526e-06	7.6842e-06	1429.3	383.19	7.3516e-06	7.5666e-06	440.79	144.53	125.68	42.597	7.7998e-06	52.821	-43.282	-23.131	-0.742	-93.077	53.146	35.020	-92.808	-87.941	40.915	37.977	-88.631	-84.225	-83.483	-78.977	40.702	-79.630	-8191	255	
3368.027	1	1	0	0	0.13266	0.23802	0.34907	0.30623	0.10142	0.32866	0.015334	0.13222	0.088169	0.31806	0.14426	0.36906	0.2409	0.28061	0.089884	0.32852	-2.8979	-2.5833	-2.725	-3.4083	-2.5687	-3.0812	-3.3021	-2.7292	-3.2208	-2.7708	-2.9396	-3.2875	-2.5604	-3.2104	-3.0729	-2.5229	120.284	117.441	-57.327	200.125	3.464	-21.718	-30.612	198.745	214.588	113.500	195.257	-82.875	235.915	206.751	115.933	-92.152	0.0003764	0.00055378	0.00013857	1422.9	5.102e-06	4.8007e-06	1411.6	377.18	4.6499e-06	5.0253e-06	433.44	140.83	123.76	41.578	4.732e-06	51.698	0.00060466	0.00072536	0.00020054	1438	7.4733e-06	7.6001e-06	1428.6	383.08	7.1288e-06	7.6335e-06	440.52	144.39	125.86	42.58	7.7697e-06	52.835	-36.610	-20.582	-14.879	-92.959	41.355	40.555	-92.894	-88.209	47.029	46.203	-88.686	-84.121	-83.431	-79.143	31.686	-79.776	-8191	255	
3368.123	1	1	0	0	0.20491	0.072265	0.050655	0.26742	0.13762	0.089046	0.12326	0.31946	0.15354	0.13293	0.28392	0.21236	0.032476	0.14432	0.18657	0.094891	-3.0583	-2.6583	-2.6271	-3.4833	-2.5854	-3.1188	-3.3333	-2.4729	-3.2021	-2.8667	-2.8021	-3.3438	-2.7354	-3.1	-3.1771	-2.6833	19.669	-80.609	140.224	248.583	70.224	50.752	156.220	179.198	91.010	-41.740	223.744	244.316	87.845	185.154	113.176	175.722	0.00038848	0.00039642	0.00012248	1420.9	4.0526e-06	6.3223e-06	1411.2	375.99	4.6194e-06	3.7126e-06	432.87	141.2	123.41	41.397	3.6695e-06	51.525	0.00059566	0.00072363	0.00020293	1435.6	7.7042e-06	7.8056e-06	1429.5	383.01	7.4925e-06	7.8656e-06	440.5	144.37	125.89	42.577	7.6696e-06	52.803	-43.732	0.913	-27.355	-93.089	60.072	47.997	-92.961	-88.155	46.564	37.434	-88.608	-84.231	-83.774	-79.239	63.361	-80.188	-8191	255	
3368.220	1	1	0	0	0.17943	0.37598	0.14661	0.46904	0.12837	0.079884	0.28586	0.081117	0.056845	0.12345	0.23159	0.13076	0.18931	0.28872	0.19924	0.32271	-2.8646	-2.6542	-2.6021	-3.5229	-2.5979	-3.0792	-3.3396	-2.4833	-3.2604	-3.0333	-2.5875	-3.4271	-2.8354	-2.7354	-3.1417	-2.5563	103.671	208.797	26.804	220.911	3.042	51.816	214.570	223.965	-91.425	213.842	228.309	176.626	242.865	-98.187	-88.914	208.756	0.00034908	0.00044572	0.00014956	1418.7	3.9134e-06	5.9358e-06	1410.4	376.6	4.6234e-06	5.8941e-06	433.89	140.86	123.14	41.516	4.5104e-06	51.537	0.00060484	0.00070919	0.00020497	1436.6	7.4019e-06	7.7732e-06	1427.9	382.74	7.3725e-06	7.8245e-06	441.01	144.67	125.73	42.604	7.6927e-06	52.807	-43.099	-14.983	-36.447	-92.781	62.140	40.428	-92.987	-88.068	33.147	32.357	-88.763	-83.876	-83.446	-79.287	53.763	-80.172	-8191	255	
3368.316	1	1	0	0	0.26188	0.11446	0.21508	0.39138	0.11486	0.26599	0.050825	0.23455	0.19791	0.18956	0.19143	0.083073	0.37921	0.13101	0.12542	0.2452	-2.8375	-2.9125	-2.4208	-3.4271	-2.625	-2.7625	-3.3521	-2.475	-3.0042	-3.0875	-2.5833	-3.3604	-2.7687	-2.8021	-3.25	-2.5479	33.599	26.610	16.375	-104.403	75.981	110.114	204.692	164.848	223.147	86.305	210.292	172.976	185.717	187.907	-18.572	186.711	0.00035585	0.00042731	0.00011516	1421	3.8711e-06	3.5372e-06	1414.2	376.06	4.1485e-06	5.0512e-06	432.22	141.76	122.83	41.319	3.3701e-06	51.434	0.0006019	0.00070504	0.00020202	1435.8	7.5344e-06	7.5881e-06	1429.1	382.61	7.3957e-06	7.7388e-06	439.91	144.78	125.84	42.53	7.4702e-06	52.727	-41.980	-17.791	-26.020	-92.786	36.548	41.012	-92.875	-88.244	71.513	21.571	-88.571	-84.106	-83.492	-79.130	50.071	-80.054	-8191	255	
3368.435	1	1	0	0	0.027441	0.08561	0.14781	0.20815	0.1569	0.12816	0.2305	0.083495	0.21095	0.24564	0.063781	0.050352	0.21895	0.13051	0.13381	0.13835	-2.5854	-2.9604	-2.5375	-3.4271	-2.7188	-2.5792	-3.3354	-2.7667	-2.9229	-3.2542	-2.6188	-3.4354	-2.8937	-2.7687	-3.4813	-2.7646	190.731	162.569	103.806	173.020	-58.466	138.845	139.519	222.072	144.093	23.395	-12.532	233.727	-90.544	61.672	-23.601	157.290	0.00036931	0.0004426	0.00017485	1416.1	3.3126e-06	5.5629e-06	1414.7	377.02	3.8101e-06	5.6375e-06	433.09	140.66	122.57	41.497	5.1193e-06	51.678	0.00061168	0.00068924	0.00019461	1434.9	7.4259e-06	7.7972e-06	1429.3	383.06	7.3068e-06	7.7332e-06	440.44	144.41	125.6	42.58	7.3253e-06	52.85	-45.297	-9.923	-19.199	-92.888	13.623	41.417	-93.162	-88.210	47.241	47.876	-88.500	-84.302	-83.697	-78.970	60.972	-79.991	-8191	255	
3368.506	1	1	0	0	0.31829	0.10959	0.23613	0.32077	0.12298	0.36312	0.18401	0.12847	0.16595	0.064557	0.12134	0.30628	0.096679	0.10734	0.23874	0.043833	-2.4729	-3.1396	-2.3917	-3.4813	-2.9708	-2.5604	-3.4354	-2.7417	-2.9229	-3.1729	-2.6271	-3.1625	-3.0104	-2.5687	-3.4854	-2.9375	113.654	-68.383	72.034	229.131	-57.903	86.573	123.733	198.697	-49.072	236.376	179.250	-58.117	-58.575	-94.255	10.867	83.919	0.00039227	0.00049773	0.00013161	1416.9	3.2588e-06	5.4045e-06	1409.5	375.76	3.8929e-06	5.4879e-06	431.11	141.47	122.62	41.534	5.3989e-06	51.13	0.0006159	0.00068596	0.00020166	1436.4	7.5566e-06	7.8855e-06	1428.9	382.65	7.5128e-06	7.7513e-06	440.25	144.68	125.89	42.577	7.0623e-06	52.666	-45.945	-15.065	-4.829	-92.958	47.711	44.216	-92.995	-88.287	29.179	35.536	-88.688	-84.373	-83.971	-78.952	59.799	-80.173	-8191	255	
3368.602	1	1	0	0	0.1457	0.20072	0.053603	0.24385	0.13827	0.20398	0.19577	0.37415	0.10227	0.1567	0.1415	0.13069	0.26901	0.099513	0.14382	0.22734	-2.4792	-3.3479	-2.4292	-3.4104	-2.9229	-2.4417	-3.6	-2.8167	-2.7188	-3.3354	-2.6583	-3.2938	-3.3521	-2.6	-3.2562	-2.6875	79.611	92.649	217.349	237.328	127.671	6.341	23.733	223.743	104.879	116.223	250.728	225.838	-71.715	184.149	166.251	104.885	0.00037976	0.00074364	0.00015521	1419.5	5.9189e-06	3.3641e-06	1412.5	376.13	4.5238e-06	5.2583e-06	435.39	140.92	123.02	41.412	3.9667e-06	51.435	0.00062778	0.00070077	0.0001951	1437.5	7.5614e-06	7.8176e-06	1429.8	383.01	7.5552e-06	7.6119e-06	441.12	144.69	125.76	42.569	7.1829e-06	52.825	-50.737	-26.765	-11.530	-92.663	24.965	39.147	-92.966	-88.222	32.118	28.637	-88.755	-84.235	-83.908	-79.238	57.022	-79.964	-8191	255	
3368.700	1	1	0	0	0.2187	0.22033	0.10225	0.10312	0.041122	0.14931	0.22108	0.33861	0.13302	0.11993	0.083438	0.17068	0.2356	0.34039	0.25472	0.096286	-2.2792	-3.2729	-2.575	-3.2396	-3.1021	-2.3729	-3.4375	-2.9542	-2.5438	-3.4125	-2.6396	-3.0792	-3.325	-2.5125	-3.2625	-3.0292	17.942	53.836	10.400	-99.782	194.863	98.574	197.630	113.334	219.064	205.941	125.465	-99.438	235.182	249.982	-9.476	-84.235	0.00040434	0.00033722	0.00013524	1423.4	2.6396e-06	2.3344e-06	1409.6	375.7	3.1464e-06	6.007e-06	432.82	141.89	122.79	41.526	4.9396e-06	51.218	0.0006148	0.00069872	0.00019047	1437.4	7.5314e-06	8.1058e-06	1428.5	382.78	7.5755e-06	7.1994e-06	440.4	144.93	125.79	42.625	7.1078e-06	52.808	-41.225	-10.009	-21.879	-92.880	55.253	57.079	-92.969	-88.253	65.588	40.582	-88.533	-84.415	-83.939	-78.999	54.295	-80.018	-8191	255	
3368.819	1	1	0	0	0.14443	0.075644	0.32956	0.15238	0.073988	0.36182	0.28837	0.15008	0.23105	0.069662	0.15845	0.084154	0.2754	0.0089994	0.094686	0.1169	-2.2042	-3.225	-2.5708	-2.9229	-3.2104	-2.4667	-3.2479	-3.2625	-2.4021	-3.3	-2.7125	-3.0125	-3.1229	-2.5583	-3.0104	-3.0958	-13.693	198.318	38.913	-83.480	161.157	70.812	190.949	155.100	-38.370	27.769	92.300	244.939	216.225	136.660	234.649	-88.757	0.00037125	0.00049005	0.00017026	1418.8	6.5508e-06	3.9742e-06	1412.3	376.16	4.3187e-06	5.5124e-06	432.92	141.75	122.7	41.561	5.5256e-06	51.127	0.00061852	0.00066031	0.00019106	1437.9	7.2885e-06	7.6665e-06	1430.3	383.06	7.6806e-06	7.2781e-06	440.51	144.73	126.13	42.554	7.3599e-06	52.622	-38.987	-25.283	-30.375	-92.832	71.302	63.476	-92.906	-88.207	32.652	34.261	-88.756	-84.289	-83.722	-79.114	62.714	-80.059	-8191	255	
3368.915	1	1	0	0	0.13101	0.17895	0.24215	0.097785	0.070404	0.25782	0.19253	0.068409	0.14791	0.17701	0.14136	0.25739	0.37138	0.028864	0.17925	0.23087	-2.0083	-3.3396	-2.7062	-2.8521	-3.2604	-2.4521	-3.0417	-3.3646	-2.3812	-3.2438	-2.8958	-2.7854	-3.5021	-2.5563	-2.9771	-3.2083	6.158	44.707	95.139	244.531	194.606	241.031	-61.043	151.516	-56.587	36.765	219.828	246.408	251.470	-79.206	132.285	235.220	0.00035948	0.00045236	0.00018591	1418.6	2.2608e-06	4.6175e-06	1413.8	376.91	6.2715e-06	4.3385e-06	431.82	141.47	123.4	41.558	4.1143e-06	51.49	0.00062349	0.00067574	0.00019319	1435.8	7.2735e-06	7.6764e-06	1430	383.25	7.6006e-06	7.1729e-06	439.43	144.61	125.98	42.564	7.651e-06	52.812	-43.484	-1.555	-10.144	-92.727	48.306	27.784	-92.970	-88.148	33.442	51.275	-89.000	-84.251	-83.915	-79.300	44.998	-80.132	-8191	255	
3369.012	1	1	0	0	0.14891	0.14851	0.026044	0.23636	0.036661	0.21842	0.31166	0.14932	0.049027	0.039138	0.23879	0.22542	0.21776	0.16163	0.087052	0.088609	-2.1167	-3.1	-2.8854	-2.7625	-3.4042	-2.3583	-3.0625	-3.2229	-2.5125	-3.2292	-2.8563	-2.5542	-3.2958	-2.6458	-2.8333	-3.3125	-96.668	54.435	96.413	224.985	-97.949	251.345	173.685	234.502	-86.638	172.976	244.581	239.744	228.199	-6.584	107.207	164.450	0.00036024	0.00042855	0.00018587	1421	3.5046e-06	4.3564e-06	1412.2	376.74	2.9556e-06	5.3702e-06	432.58	141.13	123.02	41.433	4.8784e-06	51.232	0.00060771	0.00066651	0.00020086	1436.1	7.1697e-06	7.853e-06	1429.7	383.07	7.3934e-06	7.6482e-06	440.44	144.66	125.74	42.513	7.6748e-06	52.703	-36.038	-8.887	-19.410	-92.828	49.421	39.284	-93.111	-88.315	53.559	37.796	-88.785	-84.357	-83.897	-79.573	43.428	-80.171	-8191	255	
3369.108	1	1	0	0	0.22778	0.069794	0.20084	0.21261	0.22455	0.11991	0.48539	0.15731	0.23674	0.16768	0.22159	0.22747	0.082882	0.13414	0.13929	0.056578	-2.0208	-3.2938	-2.8979	-2.8292	-3.3396	-2.7083	-3.0229	-3.4688	-2.5104	-3.1292	-3.3063	-2.5646	-3.4646	-2.7083	-2.725	-3.4188	9.711	109.195	-41.135	144.177	-1.024	157.155	228.574	51.082	55.177	236.767	226.780	112.130	-71.237	193.971	5.572	201.322	0.00034838	0.00042979	0.00012336	1417.7	4.7679e-06	4.2467e-06	1418.2	378.89	5.5041e-06	4.7498e-06	434.54	140.95	122.57	41.411	4.8025e-06	51.296	0.0006047	0.0006934	0.00019292	1435.1	7.1697e-06	7.6142e-06	1431.1	383.5	7.2548e-06	7.338e-06	440.93	144.34	125.82	42.5	7.5504e-06	52.679	-36.882	-18.188	-17.998	-92.731	82.752	67.575	-92.985	-88.235	20.471	58.162	-88.851	-84.472	-83.653	-79.613	33.478	-80.063	-8191	255	
3369.204	1	1	0	0	0.11867	0.243	0.01609	0.17729	0.072026	0.25673	0.1581	0.1073	0.22722	0.28369	0.21669	0.24541	0.2132	0.12782	0.083593	0.10715	-1.9917	-2.9208	-3.0938	-2.7208	-3.2958	-2.8417	-2.8708	-3.4833	-2.6188	-2.9813	-3.275	-2.3729	-3.3187	-2.9333	-2.6688	-3.6	104.288	111.555	60.043	209.519	-91.857	-1.863	-35.717	161.690	-101.123	-60.764	243.258	253.227	216.793	94.979	129.994	200.621	0.00037354	0.00045559	0.00015668	1419	5.0437e-06	3.3672e-06	1413.3	375.35	3.8416e-06	4.9739e-06	432.91	140.8	122.85	41.452	4.0126e-06	51.427	0.00059307	0.00068187	0.00018654	1436.3	7.0198e-06	7.4306e-06	1429.9	382.64	6.9729e-06	7.4307e-06	440.09	144.28	125.78	42.535	7.4612e-06	52.751	-41.261	-15.536	-5.945	-92.706	31.372	41.577	-93.072	-88.245	69.986	42.813	-88.513	-84.134	-83.563	-79.083	24.354	-79.939	-8191	255	
3369.300	1	1	0	0	0.19003	0.047995	0.11278	0.069495	0.20056	0.27714	0.26298	0.034591	0.095644	0.14208	0.20429	0.063092	0.18833	0.13211	0.040937	0.23237	-2.2104	-2.9688	-3.175	-2.8042	-3.2083	-2.9708	-2.6854	-3.225	-2.5833	-2.9229	-3.2896	-2.8187	-3.2854	-3.1188	-2.6021	-3.5479	51.755	146.821	-54.305	24.270	39.644	145.851	196.821	252.826	-98.804	177.846	251.167	25.565	225.954	246.047	-80.251	223.314	0.00037615	0.00035827	0.00017076	1418.8	5.2127e-06	3.8417e-06	1412.6	377.35	3.6803e-06	5.617e-06	431.8	140.82	123.03	41.379	1.0952e-06	51.32	0.0005818	0.00068565	0.00018206	1436.6	7.0948e-06	7.5924e-06	1428.9	383.12	7.3348e-06	7.7367e-06	440.15	144.28	125.86	42.542	7.1649e-06	52.744	-41.552	-17.694	-27.326	-92.767	32.865	49.886	-92.862	-88.046	62.354	65.330	-88.791	-84.326	-83.265	-79.190	62.232	-79.741	-8191	255	
3369.421	1	1	0	0	0.14019	0.22888	0.16328	0.3045	0.12132	0.10637	0.22653	0.15006	0.050098	0.4168	0.31932	0.039098	0.16927	0.25213	0.094967	0.10737	-2.3729	-2.7667	-3.3083	-2.6396	-3.2917	-2.9167	-2.6937	-3.4917	-2.5271	-2.7896	-3.4188	-2.5271	-3.2062	-3.0417	-2.4521	-3.3458	225.294	-80.757	-36.559	235.343	-59.049	93.094	196.094	246.157	163.219	-68.910	78.596	-64.031	115.860	-64.921	163.603	133.204	0.00036655	0.00041824	0.00015562	1413.7	5.0354e-06	3.7111e-06	1401.8	376.03	4.2709e-06	4.6598e-06	432.41	140.43	122.66	41.343	5.7719e-06	51.11	0.00061395	0.00068763	0.00019275	1435.6	7.2297e-06	7.7576e-06	1426.2	382.84	7.213e-06	7.6175e-06	440.77	144.45	125.92	42.529	7.728e-06	52.673	-43.893	-15.482	-25.055	-92.722	52.644	46.705	-92.764	-87.999	46.898	35.826	-88.290	-83.951	-83.265	-79.001	40.624	-80.122	-8191	255	
3369.515	1	1	0	0	0.056367	0.34578	0.13593	0.23806	0.36586	0.16054	0.42418	0.20556	0.047779	0.11452	0.19026	0.064531	0.30067	0.17794	0.16467	0.051509	-2.4167	-2.6854	-3.5083	-2.8292	-2.9271	-3.2292	-2.6083	-3.3146	-3.0417	-2.5687	-3.4896	-2.6479	-3.0375	-3.2438	-2.4875	-3.2812	177.811	-69.514	177.581	245.442	-27.846	239.906	163.580	251.893	76.935	157.714	-92.268	167.024	-32.776	228.372	75.546	-79.078	0.0004273	0.00037021	0.00015605	1409.6	4.7018e-06	3.6965e-06	1400.6	374.81	5.2515e-06	3.9633e-06	430.01	140.41	123.12	41.345	3.9173e-06	51.324	0.00060934	0.0007144	0.00018579	1433.4	7.6394e-06	7.7477e-06	1424.8	382.58	7.5928e-06	8.0461e-06	439.74	144.06	125.9	42.537	7.6761e-06	52.694	-42.554	-20.002	-18.601	-92.651	16.353	55.537	-92.649	-87.619	63.875	42.405	-88.329	-84.126	-83.359	-78.964	56.389	-79.803	-8191	255	
3369.611	1	1	0	0	0.17519	0.060091	0.14558	0.29646	0.22267	0.086296	0.22786	0.13682	0.14544	0.13934	0.079446	0.12733	0.28388	0.17611	0.22876	0.16924	-2.6729	-2.6771	-3.1437	-2.8438	-2.7896	-3.4562	-2.7875	-3.2792	-3.0833	-2.6167	-3.4688	-2.8021	-2.7354	-3.2542	-2.5563	-3.1354	-11.806	237.686	98.349	213.974	-11.853	80.748	183.698	134.474	224.605	23.013	-100.505	193.560	248.895	249.448	-23.244	-21.835	0.00038128	0.00056887	0.00018651	1409.2	1.8722e-06	4.8235e-06	1405.4	374.07	4.8049e-06	5.463e-06	432.42	140.01	122.39	41.189	4.8182e-06	51.143	0.00062923	0.00072753	0.00018898	1434.8	7.487e-06	7.7972e-06	1427.9	382.27	7.4853e-06	8.058e-06	440.81	144.32	125.66	42.498	7.4837e-06	52.741	-37.739	-14.387	-10.201	-92.687	70.120	33.203	-92.793	-87.771	46.046	49.299	-88.629	-84.057	-83.315	-78.956	40.487	-79.626	-8191	255	
3369.732	1	1	0	0	0.15996	0.25135	0.058578	0.15869	0.30397	0.22034	0.24541	0.16041	0.19984	0.22701	0.081812	0.16037	0.16147	0.26356	0.20368	0.16327	-2.5417	-2.6583	-3.4104	-2.8604	-2.9042	-3.3187	-2.7438	-3.2646	-3.1521	-2.7042	-3.4062	-3.0458	-2.7896	-3.5479	-2.6583	-3.0208	47.202	24.213	4.287	-58.072	115.249	-25.596	243.473	129.600	65.491	240.750	227.396	146.128	203.086	194.307	-52.682	188.736	0.00036467	0.000451	0.00011203	1405.8	4.6879e-06	6.1655e-06	1403.4	373.53	5.1713e-06	3.8832e-06	430.17	140.4	122.24	41.112	3.5377e-06	51.191	0.0006081	0.00070579	0.00018902	1431.3	7.5878e-06	7.8148e-06	1426	382.12	7.1993e-06	7.5443e-06	440.1	144.24	126.09	42.515	7.4317e-06	52.726	-41.803	-1.120	-10.515	-92.539	34.516	30.754	-92.772	-87.844	48.404	26.058	-88.402	-84.079	-83.250	-78.783	38.988	-79.774	-8191	255	
3369.803	1	1	0	0	0.18795	0.37109	0.12825	0.29082	0.2622	0.23095	0.10163	0.14349	0.036689	0.085833	0.12956	0.18166	0.21715	0.096001	0.25612	0.21113	-2.7958	-2.5062	-3.2708	-3.0479	-2.5875	-3.2687	-2.9188	-3.1396	-3.3208	-2.5375	-3.2438	-2.9354	-2.5896	-3.4896	-2.7438	-2.7896	-7.144	30.763	7.320	-105.441	10.067	107.781	68.189	180.635	-4.206	22.682	-60.756	134.997	129.641	246.325	-31.493	124.019	0.00035407	0.00047332	0.00014689	1404.5	3.5709e-06	3.8695e-06	1397.6	374.71	7.351e-06	6.2586e-06	425.63	138.81	121.7	41.018	6.035e-06	50.93	0.000617	0.00069717	0.00018837	1432.6	7.9069e-06	7.6736e-06	1426.3	382.8	7.5331e-06	7.828e-06	439.61	143.94	125.65	42.491	7.7017e-06	52.666	-45.429	-0.053	-6.758	-92.428	32.366	31.441	-92.459	-87.657	42.736	48.358	-88.037	-83.704	-82.962	-78.738	63.992	-79.535	-8191	255	
3369.900	1	1	0	0	0.13635	0.33142	0.2489	0.33069	0.023933	0.17013	0.17904	0.22777	0.23319	0.069217	0.05888	0.33224	0.19407	0.2041	0.20152	0.31649	-2.925	-2.5729	-3.2458	-3.0958	-2.5563	-3.3729	-2.9583	-2.9479	-3.4042	-2.6292	-3.1771	-3.1729	-2.55	-3.4896	-2.7812	-2.8458	-91.027	96.739	11.538	188.323	143.261	-75.020	150.218	196.868	121.569	-7.595	234.983	245.190	-85.374	34.297	118.835	182.317	0.00037251	0.00071016	0.0001244	1400.3	4.7012e-06	5.3208e-06	1392	371.9	3.8063e-06	2.3989e-06	425.6	139.62	121.81	41.082	5.6297e-06	50.644	0.00060605	0.00069761	0.00019882	1432.9	7.5956e-06	7.5005e-06	1424.8	381.95	7.3593e-06	7.6781e-06	439.04	144.02	125.63	42.543	7.594e-06	52.646	-42.487	-11.687	-2.327	-92.175	28.411	49.234	-92.293	-87.474	52.546	80.171	-88.094	-83.930	-83.355	-78.379	36.684	-79.361	-8191	255	
3369.996	1	1	0	0	0.1402	0.17528	0.14281	0.29591	0.13499	0.28517	0.084448	0.29498	0.09717	0.15366	0.082878	0.019901	0.083323	0.087754	0.25023	0.13117	-3.0333	-2.3229	-3.1208	-3.3625	-2.4229	-3.2792	-3.0125	-2.8167	-3.4062	-2.6937	-3.1688	-3.2854	-2.6979	-3.2875	-2.675	-2.5979	194.286	-29.135	-20.208	154.458	117.521	71.234	150.527	147.336	131.154	-77.046	170.562	161.935	124.573	214.571	232.449	126.177	0.00039149	0.00041031	0.00012732	1400.9	3.7213e-06	3.4009e-06	1393.2	371.95	5.188e-06	4.6882e-06	428.4	139.87	121.93	41.249	4.8704e-06	51.055	0.00060218	0.00071093	0.00019327	1431.7	7.7936e-06	7.3473e-06	1425.1	382.01	7.4811e-06	7.743e-06	440.02	144.19	125.65	42.559	7.862e-06	52.724	-43.403	-7.291	-5.952	-92.286	46.518	15.604	-92.347	-87.410	55.509	43.108	-88.252	-83.684	-83.125	-78.524	72.716	-79.150	-8191	255	
3370.092	1	1	0	0	0.084021	0.29979	0.026911	0.49273	0.13009	0.01554	0.0744	0.042273	0.07713	0.13056	0.24235	0.021934	0.1372	0.27355	0.14901	0.20121	-3.1604	-2.4188	-2.9625	-3.55	-2.7583	-3.2833	-3.2167	-2.5917	-3.3708	-2.6333	-2.9062	-3.4667	-2.5812	-3.2208	-3.1125	-2.6792	124.050	143.456	-84.216	209.881	158.720	170.524	99.031	144.773	182.738	-35.158	-63.227	79.133	210.087	188.095	69.298	-18.049	0.00038557	0.00066861	0.0001611	1400.5	4.4735e-06	5.9701e-06	1390.2	371.24	4.2746e-06	4.7428e-06	428.06	139.77	121.75	41.024	5.1216e-06	50.748	0.00060633	0.00069587	0.0001901	1431.6	7.2861e-06	7.2625e-06	1423.5	381.86	7.2835e-06	7.7276e-06	439.56	144.42	125.53	42.465	7.5446e-06	52.686	-45.692	-11.248	-18.555	-92.302	53.003	40.293	-92.471	-87.577	76.264	44.130	-87.989	-83.722	-82.749	-78.519	40.533	-79.353	-8191	255	
#DATA ENDS
