BOXY.EXE: ISS Imagent and Oximeter Data Acquisition Program Version 0.80
Ascii Record File

#ACQ INFORMATION
2  Detector Channels 
16  External MUX Channels 
1  Auxiliary Channels 
5000  Waveform (CCF) Frequency (Hz)
1  Waveforms Skipped 
30  Waveforms Averaged 
1  Cycles Averaged 
16  Acquisitions per Waveform 
10.0806  Updata Rate (Hz) 

#FILE INFORMATION
TRUE -- External MUX Channel results are PARSED.
FALSE -- AC DC and Phase are NOT grouped.
TRUE -- Companion Program Settings File CREATED.
FALSE -- AC data not excluded
FALSE -- DC data not excluded
FALSE -- Phase data not excluded
FALSE -- Auxillary Chn. data not excluded
Tab delimiters

#CALIBRATION STATE
TRUE -- Waveform Calibration Values APPLIED.


#AUX CALIBRATION VALUES
Val Type	aux-1	

Term	1.0000e+00	
Factor	0.0000e+00	


#WF CALIBRATION VALUES
A = Detector Channel
Val Type	A-AC1	A-AC2	A-AC3	A-AC4	A-AC5	A-AC6	A-AC7	A-AC8	A-AC9	A-AC10	A-AC11	A-AC12	A-AC13	A-AC14	A-AC15	A-AC16	A-DC1	A-DC2	A-DC3	A-DC4	A-DC5	A-DC6	A-DC7	A-DC8	A-DC9	A-DC10	A-DC11	A-DC12	A-DC13	A-DC14	A-DC15	A-DC16	A-Ph1	A-Ph2	A-Ph3	A-Ph4	A-Ph5	A-Ph6	A-Ph7	A-Ph8	A-Ph9	A-Ph10	A-Ph11	A-Ph12	A-Ph13	A-Ph14	A-Ph15	A-Ph16	

Term	0.00000e+00	0.00000e+00	0.00000e+00	0.00000e+00	0.00000e+00	0.00000e+00	0.00000e+00	0.00000e+00	0.00000e+00	0.00000e+00	0.00000e+00	0.00000e+00	0.00000e+00	0.00000e+00	0.00000e+00	0.00000e+00	0.00000e+00	0.00000e+00	0.00000e+00	0.00000e+00	0.00000e+00	0.00000e+00	0.00000e+00	0.00000e+00	0.00000e+00	0.00000e+00	0.00000e+00	0.00000e+00	0.00000e+00	0.00000e+00	0.00000e+00	0.00000e+00	0.00000e+00	0.00000e+00	0.00000e+00	0.00000e+00	0.00000e+00	0.00000e+00	0.00000e+00	0.00000e+00	0.00000e+00	0.00000e+00	0.00000e+00	0.00000e+00	0.00000e+00	0.00000e+00	0.00000e+00	0.00000e+00	
Factor	1.00000e+00	1.00000e+00	1.00000e+00	1.00000e+00	1.00000e+00	1.00000e+00	1.00000e+00	1.00000e+00	1.00000e+00	1.00000e+00	1.00000e+00	1.00000e+00	1.00000e+00	1.00000e+00	1.00000e+00	1.00000e+00	1.00000e+00	1.00000e+00	1.00000e+00	1.00000e+00	1.00000e+00	1.00000e+00	1.00000e+00	1.00000e+00	1.00000e+00	1.00000e+00	1.00000e+00	1.00000e+00	1.00000e+00	1.00000e+00	1.00000e+00	1.00000e+00	X	X	X	X	X	X	X	X	X	X	X	X	X	X	X	X	

B = Detector Channel
Val Type	B-AC1	B-AC2	B-AC3	B-AC4	B-AC5	B-AC6	B-AC7	B-AC8	B-AC9	B-AC10	B-AC11	B-AC12	B-AC13	B-AC14	B-AC15	B-AC16	B-DC1	B-DC2	B-DC3	B-DC4	B-DC5	B-DC6	B-DC7	B-DC8	B-DC9	B-DC10	B-DC11	B-DC12	B-DC13	B-DC14	B-DC15	B-DC16	B-Ph1	B-Ph2	B-Ph3	B-Ph4	B-Ph5	B-Ph6	B-Ph7	B-Ph8	B-Ph9	B-Ph10	B-Ph11	B-Ph12	B-Ph13	B-Ph14	B-Ph15	B-Ph16	

Term	0.00000e+00	0.00000e+00	0.00000e+00	0.00000e+00	0.00000e+00	0.00000e+00	0.00000e+00	0.00000e+00	0.00000e+00	0.00000e+00	0.00000e+00	0.00000e+00	0.00000e+00	0.00000e+00	0.00000e+00	0.00000e+00	0.00000e+00	0.00000e+00	0.00000e+00	0.00000e+00	0.00000e+00	0.00000e+00	0.00000e+00	0.00000e+00	0.00000e+00	0.00000e+00	0.00000e+00	0.00000e+00	0.00000e+00	0.00000e+00	0.00000e+00	0.00000e+00	-8.69914e+00	-1.27636e+02	-1.26579e+02	-1.81887e+02	-5.43741e+01	-6.80890e+01	-1.57669e+02	-1.62015e+02	-3.26815e+01	-6.62177e+01	-1.72231e+02	-1.69913e+02	-1.80444e+02	-1.76573e+02	-5.52496e+01	-1.49179e+02	
Factor	3.53343e-05	1.72379e-04	5.09740e-05	1.64140e-01	2.14399e-06	1.74113e-06	1.89180e-01	5.70625e-02	2.23709e-06	1.85859e-06	9.95569e-02	3.28311e-02	4.44292e-02	9.93343e-03	2.12406e-06	1.45167e-02	1.70138e-05	2.97382e-05	8.36903e-06	8.38226e-02	2.87917e-07	3.39007e-07	9.04686e-02	2.91930e-02	2.86657e-07	3.34529e-07	4.92895e-02	1.63091e-02	2.28853e-02	5.14651e-03	3.07838e-07	7.27220e-03	X	X	X	X	X	X	X	X	X	X	X	X	X	X	X	X	



#DISTANCE SETTINGS
A = Detector Channel
A-1	A-2	A-3	A-4	A-5	A-6	A-7	A-8	A-9	A-10	A-11	A-12	A-13	A-14	A-15	A-16	

2.5000e+00	3.0000e+00	2.5000e+00	3.0000e+00	2.0000e+00	3.0000e+00	1.5000e+00	3.0000e+00	3.0000e+00	3.0000e+00	3.0000e+00	3.0000e+00	3.0000e+00	3.0000e+00	1.5000e+00	3.0000e+00	

B = Detector Channel
B-1	B-2	B-3	B-4	B-5	B-6	B-7	B-8	B-9	B-10	B-11	B-12	B-13	B-14	B-15	B-16	

1.0000e+01	1.0000e+01	1.0000e+01	1.4400e+00	1.0000e+01	1.0000e+01	1.5100e+00	1.9400e+00	1.0000e+01	1.0000e+01	1.9900e+00	2.4900e+00	2.4100e+00	2.9000e+00	1.0000e+01	2.9800e+00	




#DATA BEGINS
time	group	step	mark	flag	A-AC1	A-AC2	A-AC3	A-AC4	A-AC5	A-AC6	A-AC7	A-AC8	A-AC9	A-AC10	A-AC11	A-AC12	A-AC13	A-AC14	A-AC15	A-AC16	A-DC1	A-DC2	A-DC3	A-DC4	A-DC5	A-DC6	A-DC7	A-DC8	A-DC9	A-DC10	A-DC11	A-DC12	A-DC13	A-DC14	A-DC15	A-DC16	A-Ph1	A-Ph2	A-Ph3	A-Ph4	A-Ph5	A-Ph6	A-Ph7	A-Ph8	A-Ph9	A-Ph10	A-Ph11	A-Ph12	A-Ph13	A-Ph14	A-Ph15	A-Ph16	B-AC1	B-AC2	B-AC3	B-AC4	B-AC5	B-AC6	B-AC7	B-AC8	B-AC9	B-AC10	B-AC11	B-AC12	B-AC13	B-AC14	B-AC15	B-AC16	B-DC1	B-DC2	B-DC3	B-DC4	B-DC5	B-DC6	B-DC7	B-DC8	B-DC9	B-DC10	B-DC11	B-DC12	B-DC13	B-DC14	B-DC15	B-DC16	B-Ph1	B-Ph2	B-Ph3	B-Ph4	B-Ph5	B-Ph6	B-Ph7	B-Ph8	B-Ph9	B-Ph10	B-Ph11	B-Ph12	B-Ph13	B-Ph14	B-Ph15	B-Ph16	aux-1	digaux	

3343.298	1	1	0	256	0.15999	0.1653	0.10607	0.11163	0.075169	0.058965	0.32319	0.082591	0.21041	0.18761	0.18419	0.075528	0.16714	0.092021	0.034072	0.30037	-1.9583	-3.1125	-2.9	-2.5521	-3.2938	-2.4688	-3.1146	-3.4625	-2.2458	-3.2917	-2.8854	-2.5312	-3.4146	-2.4854	-2.7417	-3.2667	38.358	186.564	196.143	-42.125	81.608	-68.544	-45.207	150.594	36.478	198.728	209.998	226.528	47.897	159.253	-73.682	233.781	0.00017526	0.00035805	6.8906e-05	1118.6	5.0821e-06	2.2503e-06	1207.9	236.29	1.4955e-06	2.8888e-06	300.58	83.845	66.941	19.331	3.6896e-06	26.832	0.00045445	0.00061756	0.00017918	1103.4	6.5591e-06	7.2081e-06	1194.5	234.64	6.4163e-06	7.1067e-06	298.81	84.195	67.102	19.641	6.725e-06	27.275	-50.337	-4.337	18.928	-91.023	60.425	34.600	-90.970	-83.638	69.058	68.073	-84.250	-77.219	-76.422	-69.920	74.624	-70.652	-8191	255	
3343.418	1	1	0	0	0.18764	0.10818	0.18603	0.22873	0.084097	0.13769	0.17794	0.13579	0.081534	0.021998	0.31233	0.20372	0.14629	0.24905	0.12086	0.029293	-1.925	-3.1083	-2.7125	-2.5312	-3.3208	-2.5917	-2.925	-3.125	-2.4938	-3.2979	-3.0042	-2.4729	-3.3104	-2.7729	-2.6667	-3.4208	-5.645	57.341	-30.591	-77.097	-57.993	-93.411	-38.853	-76.626	72.073	121.322	123.834	94.255	-62.947	205.724	164.151	207.496	0.00018383	0.0002778	0.00010461	1123.8	2.0768e-06	4.0906e-06	1211.8	235.36	7.5493e-07	3.2798e-06	301.12	83.67	66.878	19.529	4.3413e-07	26.896	0.00047199	0.00064792	0.000181	1106.2	6.6173e-06	7.4645e-06	1195.7	234.7	6.5621e-06	7.2927e-06	298.79	84.238	67.104	19.726	6.7455e-06	27.279	-25.549	-25.235	15.244	-91.080	72.173	56.970	-91.283	-83.813	210.100	52.746	-84.332	-76.864	-76.147	-69.413	117.572	-70.457	-8191	255	
3343.514	1	1	0	0	0.11658	0.15078	0.16128	0.05893	0.13731	0.12404	0.23923	0.24895	0.19855	0.095298	0.16066	0.13591	0.17531	0.26661	0.18011	0.18331	-2.0771	-2.8479	-3.0042	-2.6396	-3.2354	-2.775	-2.6417	-3.3875	-2.5208	-2.8375	-3.1896	-2.4479	-3.1562	-2.7646	-2.6958	-3.2875	40.614	-42.367	24.619	66.520	-19.473	19.128	152.403	206.693	44.046	-3.984	-70.672	-101.172	59.226	107.018	52.950	-64.951	0.00014619	0.0003469	0.0001667	1119.3	2.4998e-06	2.2473e-06	1213.3	236.61	3.383e-06	2.2095e-06	297.37	83.135	66.393	19.495	1.5022e-06	26.832	0.00046664	0.00063156	0.00018312	1103.6	6.5495e-06	7.1177e-06	1196.5	235.04	6.4689e-06	6.83e-06	298.18	84.106	67.013	19.688	6.7538e-06	27.273	-37.341	18.371	-26.939	-91.062	81.641	90.464	-90.859	-83.843	42.657	44.597	-84.072	-76.990	-76.708	-69.804	-15.127	-70.493	-8191	255	
3343.610	1	1	0	0	0.065295	0.11117	0.27336	0.16158	0.19454	0.055984	0.11664	0.31171	0.18593	0.10763	0.31562	0.22309	0.13106	0.05467	0.30319	0.30063	-2.0354	-2.9562	-3.1208	-2.6937	-3.2396	-2.8521	-2.9271	-3.2875	-2.6729	-2.8833	-3.1417	-2.6042	-3.2125	-3.0917	-2.5646	-3.2354	-42.099	84.902	44.024	-67.374	-52.554	-43.874	186.111	230.014	217.891	127.777	110.346	167.308	78.349	138.882	104.190	225.364	0.00017092	0.00020202	3.7188e-05	1123.9	4.2463e-06	3.3021e-06	1212.8	236.45	4.066e-06	4.0723e-06	299.19	84.157	66.563	19.439	3.8509e-06	26.59	0.00048808	0.00064092	0.00017394	1106	6.9184e-06	7.2498e-06	1197	235.2	6.7042e-06	6.9924e-06	298.64	84.397	67.031	19.649	6.682e-06	27.26	-41.731	2.573	4.765	-91.363	63.371	57.630	-91.126	-83.604	56.791	28.572	-84.146	-77.196	-76.717	-69.721	74.928	-70.676	-8191	255	
3343.707	1	1	0	0	0.18801	0.29333	0.17026	0.25744	0.1182	0.02761	0.2086	0.038425	0.26222	0.10202	0.22542	0.063063	0.06572	0.11822	0.059124	0.092338	-2.2667	-2.7375	-3.1083	-2.5583	-3.1375	-2.8604	-2.5125	-3.3312	-2.7479	-2.7021	-3.4354	-2.5583	-2.9417	-3.2021	-2.3875	-3.1625	230.665	95.661	17.199	159.327	-26.997	171.162	172.246	-44.647	252.383	224.282	46.443	-71.178	216.099	239.356	236.789	79.580	0.00014303	0.0001256	0.0001032	1125.6	1.0436e-06	2.6646e-06	1213.2	237.05	3.1603e-06	2.3208e-06	300.58	83.962	66.185	19.404	3.3902e-06	27.114	0.00048798	0.00062196	0.00017137	1107.7	7.1026e-06	7.1389e-06	1198.8	235.55	7.0512e-06	7.2286e-06	299.47	84.348	66.986	19.682	6.9219e-06	27.385	-39.093	-25.056	-27.760	-91.230	107.874	49.488	-91.115	-83.586	19.533	22.931	-84.179	-76.877	-76.245	-69.854	45.433	-70.086	-8191	255	
3343.803	1	1	0	0	0.24384	0.14422	0.058211	0.25023	0.088052	0.028602	0.14419	0.084645	0.044509	0.065991	0.034192	0.21379	0.10683	0.041486	0.26194	0.2931	-2.4333	-2.4958	-3.2917	-2.6667	-2.9083	-3.2125	-2.4625	-3.2292	-2.6813	-2.4958	-3.2521	-2.5708	-3.0583	-3.1083	-2.5229	-3.1021	-21.346	216.289	158.240	124.181	169.117	74.808	-65.312	-62.844	249.638	0.732	38.919	-2.801	-77.511	147.905	-80.775	-17.915	0.00011953	0.00010802	0.0001169	1126.7	3.5728e-06	8.4269e-07	1221.1	236.98	2.5946e-06	2.6189e-06	302	83.637	66.656	19.407	1.4916e-06	26.835	0.0005091	0.00064606	0.00017263	1109.9	7.3887e-06	7.1086e-06	1200.7	235.45	6.7119e-06	6.9735e-06	299.85	84.326	67.206	19.697	6.8462e-06	27.277	-56.605	-19.890	-29.761	-91.183	32.426	59.357	-90.950	-83.733	37.211	35.018	-84.154	-77.483	-76.939	-69.563	68.147	-70.395	-8191	255	
3343.899	1	1	0	0	0.019562	0.35009	0.13016	0.084448	0.26823	0.1315	0.30615	0.077589	0.11442	0.051573	0.05115	0.10674	0.20401	0.094996	0.080851	0.11647	-2.5312	-2.3875	-3.1	-2.5229	-2.8146	-3.0917	-2.5375	-3.2042	-2.8646	-2.5312	-3.4188	-2.6479	-2.6917	-3.3167	-2.4583	-3.0771	-28.252	206.092	239.651	247.940	26.065	-18.545	200.697	49.433	-0.979	151.704	-65.421	-26.353	226.667	120.021	240.435	255.545	0.00017361	0.00027022	0.00010198	1122.4	2.6414e-06	9.2397e-07	1213.3	238.04	1.6093e-06	1.8053e-06	301.26	83.491	66.162	19.338	3.3075e-06	26.843	0.00050311	0.00062933	0.00017373	1108.7	7.2075e-06	7.0365e-06	1200.5	235.84	6.912e-06	7.1596e-06	299.78	84.182	67.095	19.71	7.1226e-06	27.272	-50.379	-41.037	17.828	-91.160	68.690	17.162	-91.430	-83.483	15.414	65.869	-83.895	-77.198	-76.611	-69.788	45.164	-70.014	-8191	255	
3344.018	1	1	0	0	0.13652	0.14231	0.1095	0.18203	0.020055	0.12825	0.18592	0.24303	0.17582	0.060619	0.17354	0.22477	0.20936	0.095788	0.29333	0.28504	-2.8083	-2.4146	-3.1625	-2.8583	-2.6	-3.3375	-2.6354	-3.1125	-3.0062	-2.6167	-3.2917	-2.7854	-2.6521	-3.3875	-2.4479	-3.0083	64.438	108.794	-61.662	237.847	190.335	107.185	-97.205	-91.494	104.276	-60.222	196.473	25.739	-64.028	-48.950	167.148	-87.849	0.00020675	0.00023928	4.5246e-05	1124.5	2.0261e-06	2.578e-06	1217.7	238.22	1.4899e-06	5.0977e-06	301.25	83.001	67.453	19.602	4.3111e-06	26.945	0.00047908	0.00069934	0.00018265	1110.2	7.3869e-06	7.187e-06	1202.2	236.63	6.6594e-06	7.5032e-06	300.01	84.232	67.478	19.761	7.551e-06	27.358	-41.508	24.400	-23.651	-91.190	20.368	85.626	-91.158	-83.493	120.007	42.915	-83.690	-77.116	-76.503	-69.812	77.565	-70.070	-8191	255	
3344.114	1	1	0	0	0.42925	0.27934	0.19886	0.3072	0.18412	0.19735	0.24006	0.099248	0.18009	0.13896	0.22867	0.19601	0.092711	0.065419	0.073661	0.19491	-2.6792	-2.5354	-3.1604	-2.8333	-2.45	-3.4167	-3.0104	-3.0083	-3.1063	-2.4896	-3.2104	-2.9083	-2.7229	-3.4042	-2.5729	-2.8563	99.880	70.768	45.327	-90.191	-79.460	-5.743	214.869	-46.786	-6.200	135.438	196.515	139.828	-33.855	-75.264	172.634	-0.499	0.00012141	0.00039561	0.00012533	1128.8	3.374e-06	3.9742e-06	1220.2	236.44	2.9092e-06	3.8509e-07	302.81	83.464	67.008	19.46	3.8648e-06	26.905	0.00048103	0.00066285	0.00018433	1113	7.108e-06	7.1022e-06	1203	235.51	6.488e-06	7.4663e-06	300.59	84.299	67.348	19.727	7.0585e-06	27.379	-37.476	-23.165	-15.928	-91.162	58.962	10.755	-91.133	-83.232	65.072	120.520	-83.867	-77.365	-76.497	-69.506	26.720	-70.023	-8191	255	
3344.210	1	1	0	0	0.21618	0.14655	0.24339	0.12466	0.1973	0.17472	0.17889	0.068648	0.083647	0.23792	0.21452	0.043624	0.20419	0.096256	0.2893	0.035242	-2.9188	-2.3583	-2.9208	-2.9104	-2.4938	-3.4521	-2.7667	-2.7667	-3.2229	-2.5187	-3.1729	-3.1146	-2.5875	-3.2438	-2.575	-2.6396	99.532	146.906	218.741	-78.766	169.557	10.101	125.180	-22.948	216.872	-101.198	36.929	-78.155	222.379	-29.609	149.682	250.905	0.0001656	0.00043866	7.5592e-05	1129.3	1.4282e-06	4.5307e-06	1220.3	236.81	1.9877e-06	3.3411e-06	301.65	84.001	66.683	19.406	3.449e-06	26.986	0.00046455	0.00065133	0.00017891	1112.8	6.6695e-06	7.0923e-06	1203.2	236.04	6.5053e-06	7.1053e-06	299.79	84.492	67.167	19.703	6.6256e-06	27.257	-42.407	-4.526	38.307	-91.220	65.154	83.354	-91.070	-83.622	31.551	59.538	-84.050	-76.960	-76.257	-69.738	49.905	-70.172	-8191	255	
3344.306	1	1	0	0	0.18405	0.28637	0.096649	0.17568	0.10242	0.15176	0.22519	0.22162	0.044374	0.13947	0.080251	0.29003	0.24472	0.162	0.11647	0.13555	-2.9104	-2.4	-3	-3.2458	-2.4083	-3.2521	-2.7042	-2.7188	-3.3125	-2.5062	-3.0333	-3.125	-2.5083	-3.2854	-2.6375	-2.6083	54.347	-23.061	199.412	252.544	-54.133	-97.021	201.646	44.235	168.328	29.558	-36.057	146.809	191.260	-50.355	203.472	11.447	0.00017491	0.00021222	0.00012106	1125.5	3.2387e-06	3.0657e-06	1215.7	236.39	2.5926e-06	2.4291e-06	301.22	83.397	67.208	19.296	8.8554e-07	26.814	0.00044495	0.0006341	0.00017753	1109.9	6.4847e-06	6.8621e-06	1200.6	235.77	6.2891e-06	7.3555e-06	298.96	83.971	67.411	19.656	6.5954e-06	27.204	-54.428	-8.611	-43.308	-91.128	15.379	36.943	-91.056	-83.257	37.871	53.848	-83.941	-76.912	-76.775	-69.273	107.509	-69.957	-8191	255	
3344.378	1	1	0	0	0.20036	0.21644	0.061637	0.18712	0.29855	0.37923	0.45081	0.26413	0.18918	0.22832	0.055461	0.15311	0.091904	0.20247	0.22197	0.082422	-2.8708	-2.4667	-2.7917	-3.3375	-2.5021	-3.1604	-3.0812	-2.5938	-3.2146	-2.6854	-2.8979	-3.25	-2.3646	-3.25	-2.9854	-2.4083	182.298	132.842	-1.613	-98.049	239.622	24.325	181.462	171.520	36.266	20.626	181.694	62.578	-16.801	-80.421	13.540	-53.033	0.00014237	0.00018217	5.2555e-05	1123.2	4.3802e-06	3.3315e-06	1216.8	236.73	2.0084e-06	3.854e-06	299.27	83.303	66.729	19.489	3.1708e-06	26.922	0.00045555	0.00065684	0.00017641	1108.8	6.8368e-06	7.2745e-06	1200.4	235.51	6.3423e-06	7.1185e-06	299.41	84.077	67.228	19.71	6.7295e-06	27.258	-38.758	-23.378	37.946	-90.982	102.959	75.924	-90.898	-83.535	-48.640	24.461	-83.539	-76.815	-76.491	-69.841	79.530	-70.263	-8191	255	
3344.499	1	1	0	0	0.14979	0.034559	0.26498	0.18123	0.31631	0.10359	0.16587	0.2162	0.11711	0.1095	0.10895	0.15669	0.13293	0.17139	0.31835	0.29583	-3.0833	-2.5	-2.725	-3.1937	-2.4604	-3.1063	-3.1375	-2.7167	-3.3042	-2.7458	-2.9083	-3.1917	-2.5104	-3.125	-3.025	-2.5687	100.130	57.830	253.580	220.746	-66.955	120.471	179.837	-96.247	102.961	102.643	-20.891	163.384	47.081	-88.635	-63.302	98.034	0.00018147	0.00028065	0.00011393	1126.7	2.8252e-06	3.5633e-06	1218.6	236.75	4.2681e-06	2.3124e-06	300.96	84.195	66.3	19.458	1.9917e-06	26.724	0.00045257	0.00064278	0.00017216	1111.5	6.6563e-06	6.9722e-06	1201.4	235.99	6.4384e-06	7.283e-06	299.8	84.348	66.952	19.695	6.5268e-06	27.251	-57.807	-2.433	-32.747	-91.122	69.700	26.462	-91.145	-83.543	49.676	29.967	-83.661	-77.001	-76.504	-69.316	31.339	-70.332	-8191	255	
3344.595	1	1	0	0	0.14943	0.24428	0.096561	0.073979	0.32286	0.12283	0.15612	0.1146	0.10832	0.1224	0.12779	0.29849	0.12293	0.33502	0.29453	0.20263	-2.9229	-2.6312	-2.7229	-3.5062	-2.5187	-3.0396	-3.1833	-2.7604	-3.3187	-2.7604	-2.5312	-3.5083	-2.4875	-2.975	-3.3063	-2.6396	162.546	8.241	-9.058	-53.905	50.504	-2.201	223.564	105.886	127.862	134.250	240.286	-7.345	256.792	-17.888	75.597	-53.876	0.00016697	0.00020353	0.00012044	1127.3	2.4166e-06	3.2219e-06	1219.3	236.67	2.9273e-06	2.4162e-06	300.43	83.195	66.385	19.298	1.8635e-06	26.861	0.00045774	0.00063572	0.00017742	1110.9	6.997e-06	6.9807e-06	1201.2	235.49	6.3662e-06	7.2579e-06	299.25	84.008	67.057	19.666	6.5383e-06	27.313	-27.860	-26.845	-2.729	-91.141	66.805	61.829	-91.135	-83.714	14.915	64.592	-83.618	-76.903	-76.538	-69.355	82.998	-70.098	-8191	255	
3344.691	1	1	0	0	0.038651	0.17895	0.083769	0.29322	0.30423	0.033674	0.23222	0.13198	0.030801	0.096568	0.33194	0.081077	0.20681	0.35286	0.14315	0.14575	-2.9458	-2.8646	-2.5792	-3.6167	-2.6333	-2.7208	-3.4021	-2.5417	-3.2667	-3.0979	-2.6604	-3.2938	-2.7562	-2.7208	-3.3812	-2.5771	145.499	74.689	231.002	192.328	168.503	222.199	191.322	80.856	60.035	-2.161	105.239	-32.441	157.538	-51.129	192.349	216.904	0.00019529	0.0003832	0.00011244	1124.7	6.1223e-06	2.7739e-06	1218.7	236.84	4.3022e-06	3.1997e-06	300.67	83.574	66.821	19.385	6.8955e-07	26.812	0.00047695	0.00065833	0.0001802	1109.1	6.9934e-06	7.0683e-06	1203.6	235.36	6.924e-06	7.2307e-06	299.18	84.035	67.086	19.673	6.3703e-06	27.199	-61.275	-15.620	2.170	-90.978	114.536	37.281	-91.095	-83.401	36.737	38.900	-83.801	-77.075	-76.691	-69.525	28.786	-70.123	-8191	255	
3344.811	1	1	0	0	0.23723	0.27323	0.28889	0.28167	0.08185	0.2041	0.16282	0.23056	0.13786	0.12866	0.10722	0.28932	0.057664	0.2093	0.05884	0.058113	-2.9313	-3.0896	-2.5062	-3.4813	-2.7812	-2.7125	-3.5771	-2.5312	-3.0042	-2.9917	-2.6729	-3.5062	-2.7188	-2.7708	-3.3625	-2.7104	247.255	101.928	169.420	199.051	142.510	-4.407	-74.979	206.562	-75.395	142.638	-79.480	115.879	-24.079	212.858	136.668	208.503	0.00016175	0.00027319	9.7081e-05	1130	2.2491e-06	4.7777e-06	1220.7	236.79	2.5725e-06	2.0663e-06	300.49	83.54	66.979	19.494	4.9385e-06	26.695	0.00046777	0.00063962	0.00017451	1112.6	7.105e-06	7.206e-06	1202.5	235.58	6.5919e-06	6.8774e-06	299.09	84.267	67.215	19.73	6.7115e-06	27.221	-54.236	22.919	6.095	-91.075	44.615	52.501	-90.816	-83.578	19.596	34.814	-83.631	-77.253	-76.447	-69.790	91.825	-70.320	-8191	255	
3344.906	1	1	0	0	0.20299	0.23786	0.14114	0.14874	0.12874	0.23823	0.1009	0.21558	0.18883	0.074819	0.20675	0.10393	0.28242	0.36608	0.058101	0.13797	-2.4979	-3.1771	-2.5167	-3.3417	-2.8375	-2.6208	-3.3812	-2.8333	-2.9562	-3.2708	-2.5792	-3.2542	-2.8604	-2.7479	-3.2354	-2.5333	3.288	166.748	65.032	246.790	102.990	45.614	207.575	-10.144	110.729	-21.573	-24.791	114.258	-101.572	-24.847	122.997	15.066	0.00018952	0.00043679	0.00012334	1128.4	3.7692e-06	3.5495e-06	1221	237.1	2.2233e-06	3.2689e-06	300.49	83.578	66.623	19.494	4.394e-06	26.853	0.00048007	0.00062655	0.00018306	1111.5	6.9502e-06	7.4899e-06	1202.2	235.69	6.8439e-06	7.2579e-06	299.37	84.146	67.236	19.69	6.4697e-06	27.287	-43.423	-23.267	-5.984	-91.082	5.105	72.456	-91.058	-83.770	78.225	73.265	-84.033	-76.847	-76.176	-69.467	39.057	-70.347	-8191	255	
3344.979	1	1	0	0	0.10379	0.24696	0.056998	0.14163	0.040273	0.032768	0.26194	0.28209	0.10734	0.18506	0.13815	0.11478	0.19167	0.19729	0.18163	0.15298	-2.5042	-3.2542	-2.3896	-3.4208	-2.9708	-2.4667	-3.4167	-2.8083	-2.7167	-3.35	-2.4375	-3.1896	-2.9854	-2.5667	-3.3688	-2.5	113.534	123.016	97.990	191.110	168.639	104.739	188.611	-88.896	-74.801	-3.411	172.297	119.739	-95.648	227.909	210.581	182.753	0.00017908	0.00034768	0.0001415	1126.8	5.1387e-06	2.5917e-06	1222.5	236.2	2.1224e-06	3.0194e-06	300.02	83.463	66.988	19.4	2.7078e-06	26.762	0.0004845	0.00064228	0.00018787	1112.9	6.9406e-06	7.0951e-06	1203	235.54	6.6582e-06	6.9199e-06	299.43	84.185	67.181	19.717	6.6544e-06	27.259	-37.535	-39.023	-19.291	-90.920	47.380	105.945	-91.023	-83.501	42.769	8.443	-83.716	-77.089	-76.466	-69.258	69.213	-70.233	-8191	255	
3345.098	1	1	0	0	0.12173	0.07811	0.2231	0.1113	0.16582	0.048939	0.28155	0.17805	0.20638	0.11664	0.27568	0.28637	0.20031	0.14901	0.057181	0.19445	-2.4458	-3.4333	-2.4396	-3.1854	-3.1271	-2.4	-3.4146	-2.7896	-2.7938	-3.4396	-2.5354	-2.9958	-3.1875	-2.475	-3.3604	-2.7812	-4.645	238.985	-43.253	156.674	87.530	257.125	256.368	242.022	96.667	-54.391	111.366	104.491	67.867	244.172	181.823	84.275	0.00016529	0.00030677	0.00014334	1128	1.8465e-06	3.0068e-06	1215.1	235.95	3.2727e-06	3.8163e-06	302.44	83.009	66.991	19.279	4.7308e-06	26.796	0.00047621	0.00060678	0.00019076	1113.4	6.6419e-06	7.3769e-06	1201	235.39	6.691e-06	6.777e-06	299.53	84.093	67.223	19.639	7.054e-06	27.25	-52.620	-23.288	-24.831	-90.859	43.642	92.170	-91.029	-83.316	65.840	38.033	-83.879	-77.007	-76.978	-68.978	56.796	-70.293	-8191	255	
3345.194	1	1	0	0	0.23873	0.073085	0.13683	0.16734	0.085767	0.16665	0.14062	0.12592	0.046359	0.21202	0.10252	0.22928	0.13993	0.10314	0.07295	0.089033	-2.2188	-3.2729	-2.6604	-3.0396	-3.2708	-2.5021	-3.4604	-2.8937	-2.6312	-3.3688	-2.8271	-2.9	-3.1792	-2.3187	-3.0542	-3.0146	35.830	239.794	-14.704	-86.318	134.311	32.922	116.514	201.479	217.687	2.905	208.912	-100.004	-49.191	-55.203	16.320	-78.889	0.00012638	0.00024729	5.3352e-05	1129	3.4479e-06	2.8179e-06	1225.3	237.51	1.4421e-06	3.7262e-06	300.77	83.37	66.836	19.392	2.9923e-06	26.674	0.00046462	0.00061273	0.00018347	1112.8	6.7853e-06	7.242e-06	1206.3	235.6	6.3859e-06	6.8272e-06	299.25	84.153	67.156	19.689	6.952e-06	27.192	-38.846	-12.729	-5.745	-90.852	42.454	23.547	-90.796	-83.502	40.006	55.513	-84.023	-76.978	-76.874	-69.727	36.643	-69.867	-8191	255	
3345.290	1	1	0	0	0.071198	0.12793	0.030411	0.18681	0.12534	0.18237	0.26867	0.14364	0.081355	0.19814	0.096515	0.16111	0.27248	0.16985	0.19485	0.077513	-2.0146	-3.2979	-2.525	-2.9313	-3.1729	-2.3917	-3.2188	-2.9021	-2.1479	-3.3438	-2.6229	-2.7229	-3.275	-2.4583	-3.1229	-2.9625	104.318	104.818	74.672	162.635	195.028	198.997	178.018	-80.058	28.708	199.343	256.518	76.715	188.563	224.333	-15.906	12.540	0.00014578	0.00034154	8.4403e-05	1132.1	3.4438e-06	3.115e-06	1220.3	236.09	2.5427e-06	3.2369e-06	299.25	83.381	66.643	19.407	2.4665e-06	26.773	0.00048546	0.00061787	0.00020014	1114.9	6.6965e-06	7.271e-06	1202.5	235.23	6.6271e-06	7.1694e-06	299.37	84.097	67.303	19.638	6.918e-06	27.256	-51.009	-20.652	-60.782	-90.977	56.074	23.951	-91.031	-83.782	17.962	45.920	-83.996	-76.704	-76.150	-69.377	75.302	-70.558	-8191	255	
3345.411	1	1	0	0	0.32533	0.10175	0.12538	0.1272	0.041773	0.31828	0.33384	0.294	0.24774	0.11311	0.054246	0.054859	0.37559	0.13589	0.16778	0.2227	-1.9604	-3.0354	-2.5375	-2.7167	-3.2708	-2.6042	-3.2062	-3.1625	-2.5896	-3.2729	-2.8	-2.6271	-3.2708	-2.575	-3.0354	-3.1854	143.957	5.695	-59.446	218.065	20.024	42.336	-68.428	123.711	9.921	236.068	193.891	250.179	117.253	104.804	-40.764	57.103	0.00015567	0.00016425	9.6973e-05	1129.7	9.0258e-07	2.2303e-06	1223.5	236.79	2.2583e-06	4.5671e-06	298.41	83.746	66.523	19.358	1.6741e-06	26.841	0.00049166	0.00064321	0.00018806	1114.4	6.5927e-06	7.6277e-06	1205.1	235.45	6.8236e-06	7.1694e-06	298.63	84.204	67.21	19.703	6.8648e-06	27.262	-34.712	21.490	-2.017	-91.149	123.620	56.815	-90.770	-83.229	25.570	43.579	-83.855	-76.533	-76.664	-69.974	69.435	-70.229	-8191	255	
3345.507	1	1	0	0	0.032122	0.071696	0.14585	0.20396	0.20776	0.21344	0.20496	0.15616	0.4772	0.13607	0.11705	0.26798	0.10736	0.056707	0.11114	0.12483	-1.9562	-3.0979	-2.7375	-2.7083	-3.2708	-2.4292	-2.8521	-3.3042	-2.4625	-3.1146	-2.8875	-2.5458	-3.1667	-2.6063	-2.8604	-3.1917	103.950	211.749	140.759	209.024	7.990	74.867	191.440	241.976	94.349	176.489	42.199	140.438	199.706	144.884	34.169	176.630	0.00013461	0.00050388	7.7297e-05	1131.9	2.9019e-06	4.4678e-06	1222.7	236.82	1.323e-06	2.6213e-06	301.05	83.455	66.073	19.405	3.9155e-06	26.856	0.00048188	0.00064228	0.00017779	1113.6	6.6941e-06	7.3113e-06	1204.3	235.37	6.7125e-06	7.0307e-06	299.82	84.181	67.14	19.688	7.0341e-06	27.249	-57.560	-5.087	19.750	-91.047	60.909	21.395	-90.809	-83.713	-12.108	62.879	-84.009	-76.867	-76.806	-69.283	38.569	-70.280	-8191	255	
3345.579	1	1	0	0	0.21753	0.076202	0.24518	0.18985	0.025654	0.11886	0.32751	0.21653	0.062794	0.14629	0.085412	0.20781	0.19797	0.055327	0.034686	0.10382	-2.2188	-3.1146	-2.9292	-2.725	-3.2354	-2.725	-2.9021	-3.3604	-2.5271	-3.0667	-2.9833	-2.5312	-3.225	-2.7583	-2.6271	-3.4417	167.667	-95.801	19.344	235.367	198.573	67.589	207.175	205.045	197.994	-74.455	162.140	-54.994	194.593	18.584	113.401	189.379	0.00017608	0.00036476	8.4831e-05	1134.7	3.982e-06	3.4855e-06	1216.7	237.57	4.5455e-06	3.2717e-06	301.29	83.242	66.685	19.395	2.9998e-06	26.753	0.00050116	0.00064408	0.00018652	1114.9	6.8236e-06	7.5161e-06	1203.3	235.69	6.9956e-06	7.5353e-06	299.32	84.115	67.227	19.652	7.1579e-06	27.14	-54.646	-28.734	-28.902	-91.065	46.999	59.116	-91.044	-83.654	42.940	53.180	-83.761	-76.690	-76.437	-69.471	62.429	-70.270	-8191	255	
3345.700	1	1	0	0	0.062771	0.050749	0.14436	0.14091	0.20537	0.22588	0.2541	0.048066	0.096406	0.1003	0.2357	0.23819	0.1426	0.1298	0.025792	0.12223	-2.0771	-3.1583	-3.1417	-2.4292	-3.0583	-3.0583	-2.75	-3.5083	-2.7521	-2.9875	-3.4042	-2.4938	-3.1458	-2.9604	-2.5687	-3.2375	159.129	-22.968	180.937	-76.699	188.197	-79.165	148.352	-100.944	-76.067	231.008	-27.095	147.881	215.776	-2.337	80.448	223.945	0.00016806	0.00047579	0.00012796	1129.2	3.7672e-06	3.178e-06	1222.3	237.3	1.5048e-06	2.9768e-06	300.14	83.073	66.67	19.362	2.0422e-06	26.735	0.00048585	0.00065666	0.00016757	1113.8	7.072e-06	7.5224e-06	1204.2	235.66	6.7502e-06	7.1331e-06	299.28	84.156	67.251	19.658	6.3261e-06	27.213	-55.823	-2.763	-30.933	-91.067	57.287	38.998	-90.883	-83.381	98.802	34.447	-84.036	-77.183	-76.249	-69.474	79.829	-70.506	-8191	255	
3345.796	1	1	0	0	0.15279	0.071065	0.20133	0.16306	0.26114	0.11442	0.062885	0.13406	0.17685	0.073582	0.33537	0.22755	0.15738	0.25522	0.28249	0.23832	-2.0938	-2.7271	-3.1375	-2.7313	-3.1021	-2.9813	-2.6271	-3.3979	-2.7	-2.9062	-3.3542	-2.5812	-3.1646	-2.9604	-2.4437	-3.2938	91.559	76.400	11.143	219.757	42.966	118.836	101.097	48.089	212.218	107.203	173.418	77.552	-69.313	-85.151	206.940	102.135	0.00015166	0.00021615	7.6627e-05	1134.5	2.4896e-06	3.168e-06	1225.4	236.54	3.4463e-06	3.4819e-06	299.59	83.298	67.166	19.51	1.9058e-06	26.753	0.00047401	0.00067555	0.00016409	1114.7	6.7966e-06	7.4567e-06	1204.2	235.71	6.9496e-06	7.0934e-06	299.31	84.204	67.276	19.69	6.8443e-06	27.273	-44.646	-66.337	21.482	-90.981	84.410	26.880	-90.876	-83.790	82.699	38.155	-84.241	-76.801	-76.125	-69.663	37.714	-70.240	-8191	255	
3345.890	1	1	0	0	0.20497	0.16817	0.11542	0.25939	0.33993	0.11198	0.2353	0.19189	0.31106	0.21795	0.32375	0.087361	0.16247	0.095455	0.16592	0.022133	-2.2208	-2.7125	-3.2396	-2.6396	-3.0021	-2.9333	-2.525	-3.1979	-2.7083	-2.8104	-3.4042	-2.65	-3	-3.0833	-2.5104	-3.2354	84.980	18.994	162.424	252.233	13.909	236.888	171.022	-72.296	191.813	47.791	167.765	-31.391	-65.232	68.001	5.109	-64.591	0.00017773	0.0003969	0.00012736	1129.1	1.3384e-06	2.6581e-06	1220.1	236.53	2.5816e-06	2.5226e-06	299.41	83.167	66.778	19.514	2.9015e-06	26.894	0.00050489	0.00066998	0.00018527	1113.7	7.006e-06	7.4546e-06	1203.1	235.94	7.3527e-06	7.5388e-06	299.25	84.291	67.302	19.695	7.5664e-06	27.309	-39.548	-7.937	-3.071	-90.955	45.177	38.770	-90.975	-83.457	45.132	24.261	-83.883	-77.155	-76.675	-69.469	97.474	-70.288	-8191	255	
3345.986	1	1	0	0	0.25304	0.23272	0.14325	0.29863	0.26085	0.23668	0.092341	0.1379	0.2592	0.10203	0.073899	0.25857	0.030704	0.19553	0.15334	0.25347	-2.3354	-2.5792	-3.3667	-2.5625	-2.9125	-3.2479	-2.7646	-3.2062	-2.8208	-2.5938	-3.3229	-2.5521	-2.7333	-3.1417	-2.3625	-3.1104	34.014	5.549	42.307	158.385	50.298	196.329	236.867	151.306	-1.673	138.403	174.542	-46.192	-32.517	199.074	-35.361	-24.365	0.00016866	0.00040081	3.7734e-05	1130.5	1.2143e-06	3.3009e-06	1219.2	237.79	2.1918e-06	3.2847e-06	300.8	83.512	67.067	19.56	3.292e-06	26.985	0.00051541	0.00068794	0.00018849	1113.9	7.2807e-06	7.5125e-06	1204.4	236.2	6.82e-06	7.2718e-06	300.04	84.377	67.299	19.724	7.1899e-06	27.261	-39.608	10.579	5.459	-91.124	199.227	32.643	-90.976	-83.224	43.201	45.926	-83.772	-76.991	-76.619	-69.953	109.210	-70.208	-8191	255	
3346.082	1	1	0	0	0.093082	0.14833	0.24751	0.22922	0.13849	0.14772	0.050587	0.12993	0.14512	0.48867	0.076071	0.26472	0.089707	0.22887	0.30631	0.13808	-2.5979	-2.325	-3.2562	-2.75	-2.6375	-3.3083	-2.6167	-3.0854	-3.0479	-2.2875	-3.4396	-2.6875	-2.6375	-3.275	-2.1917	-3.1396	-26.043	5.094	149.791	-89.543	-20.443	-38.710	161.912	192.804	105.382	13.834	60.701	45.146	113.554	219.160	98.444	-60.890	0.00016597	0.00037509	4.4471e-05	1134.3	3.0791e-06	2.8719e-06	1224.9	237.74	4.3265e-06	2.8877e-06	300.42	83.53	66.908	19.382	4.2034e-06	26.886	0.00050166	0.0006929	0.00018656	1114.6	7.1517e-06	7.2364e-06	1205.1	236.36	6.9634e-06	7.5234e-06	300.04	84.369	67.27	19.683	7.5016e-06	27.252	-57.311	-26.609	-7.936	-90.915	8.743	68.866	-90.786	-83.572	76.227	74.885	-84.029	-77.103	-76.295	-69.295	56.735	-70.270	-8191	255	
3346.203	1	1	0	0	0.14596	0.056209	0.061231	0.13216	0.1455	0.077841	0.39732	0.27044	0.12976	0.062934	0.054256	0.23399	0.11514	0.14776	0.13733	0.13375	-2.6562	-2.4062	-3.0917	-3.0208	-2.6	-3.3042	-2.5479	-3.0396	-3.0521	-2.5479	-3.3187	-2.85	-2.5979	-3.2083	-2.6042	-3.1583	80.815	205.177	-101.181	169.271	160.739	-9.831	198.488	237.179	232.748	-84.709	86.170	183.328	112.026	-4.343	79.143	-29.436	0.00014604	0.00029985	9.8325e-05	1130.4	3.8109e-06	2.6721e-06	1222.6	238.37	4.5752e-06	3.1349e-06	300.76	83.596	67.415	19.517	3.9097e-06	26.799	0.00048238	0.00066682	0.00019034	1114.5	7.1385e-06	7.3388e-06	1206.5	236.77	6.7508e-06	7.6071e-06	300.05	84.524	67.475	19.726	7.4471e-06	27.251	-44.191	-8.411	-43.888	-91.097	51.165	65.173	-90.747	-83.658	35.392	34.363	-83.848	-77.195	-76.308	-69.578	74.773	-69.999	-8191	255	
3346.275	1	1	0	0	0.28367	0.15913	0.12381	0.20395	0.078371	0.17189	0.15251	0.18213	0.11788	0.12708	0.0537	0.24223	0.16068	0.12468	0.13716	0.21918	-2.7292	-2.5938	-3.1917	-2.8771	-2.5521	-3.1875	-2.6646	-2.95	-3.3312	-2.4208	-3.1854	-2.8333	-2.4562	-3.3646	-2.6937	-2.7313	-10.076	226.860	164.708	-60.087	110.121	39.551	98.803	250.686	-14.271	153.423	-63.160	184.884	-71.266	-79.357	43.997	112.234	0.00016919	0.00049818	0.00013513	1133	1.7302e-06	2.0345e-06	1225.7	238.04	4.2252e-06	2.9221e-06	301.19	83.854	67.174	19.374	2.6015e-06	26.935	0.00048915	0.00067791	0.0001955	1115.5	7.2309e-06	7.7159e-06	1204.4	236.72	7.0249e-06	7.9033e-06	300.06	84.524	67.383	19.746	7.2669e-06	27.234	-32.603	-6.462	-8.283	-91.024	50.204	52.664	-91.197	-83.169	67.482	68.536	-84.186	-77.249	-76.491	-69.431	54.321	-70.333	-8191	255	
3346.371	1	1	0	0	0.14555	0.10884	0.061067	0.21603	0.12868	0.14487	0.43053	0.12802	0.32642	0.12048	0.20826	0.032075	0.19665	0.13159	0.14937	0.083173	-2.8229	-2.5583	-3.3312	-2.9437	-2.4583	-3.4	-2.7729	-2.7229	-3.3438	-2.6083	-3.0917	-3.1688	-2.4813	-3.2771	-2.8333	-2.7	166.266	159.512	220.739	149.444	-11.601	104.845	191.701	187.858	-75.336	216.793	207.463	97.210	-100.749	216.563	233.697	235.937	0.00015592	0.00034036	0.00010888	1130	2.1433e-06	3.268e-06	1224.5	237.14	1.3034e-06	4.4631e-06	300.85	83.793	67.219	19.482	3.9468e-06	26.853	0.00048855	0.00066558	0.00019294	1115.8	6.8998e-06	7.4024e-06	1205.7	236.37	6.7747e-06	7.913e-06	299.79	84.46	67.24	19.691	7.356e-06	27.302	-73.825	-17.818	-4.870	-90.856	68.790	49.119	-90.763	-83.414	15.877	69.358	-83.729	-76.914	-77.347	-69.366	56.927	-69.816	-8191	255	
3346.491	1	1	0	0	0.11059	0.070838	0.20653	0.23129	0.1062	0.26807	0.23162	0.16353	0.18655	0.1649	0.061771	0.19074	0.20478	0.050875	0.049604	0.23154	-3.0687	-2.2167	-2.9167	-3.2354	-2.5062	-3.3063	-2.9813	-2.7792	-3.3083	-2.525	-2.8937	-3.1042	-2.5146	-3.2	-2.7792	-2.6396	201.981	-95.331	223.317	212.721	7.516	152.271	185.671	-98.206	-55.612	158.687	-53.280	149.891	18.117	247.481	-43.486	-83.657	0.00016364	0.00032239	0.00014623	1131	4.0906e-06	2.561e-06	1231.5	237.49	4.4537e-06	4.2583e-06	301.74	83.379	67.204	19.524	8.4532e-07	26.802	0.00046434	0.00069147	0.00019353	1115.5	6.9904e-06	7.3847e-06	1207.5	236.68	6.4068e-06	7.5611e-06	300.96	84.266	67.362	19.759	6.9783e-06	27.183	-42.571	25.502	0.556	-91.105	74.479	68.361	-90.946	-83.481	65.717	40.004	-83.737	-77.022	-76.669	-69.084	114.211	-69.941	-8191	255	
3346.588	1	1	0	0	0.10207	0.066168	0.28376	0.33972	0.17405	0.25537	0.11386	0.24275	0.20111	0.2567	0.26529	0.059681	0.11385	0.12592	0.1578	0.20338	-3.0708	-2.4938	-2.7938	-3.3937	-2.4208	-2.9813	-3.0292	-2.4375	-3.4	-2.6604	-2.8042	-3.2083	-2.4583	-3.0792	-3.1	-2.4646	214.114	15.749	176.193	176.644	-57.550	210.873	240.965	145.882	251.101	193.263	215.310	257.338	83.548	124.799	-26.751	104.549	0.0001926	0.00039442	7.3384e-05	1128.9	3.9121e-06	2.4669e-06	1219.9	238.42	1.7687e-06	1.7237e-06	302.68	83.927	66.872	19.38	1.3799e-06	26.77	0.00049078	0.00068491	0.00018551	1114.8	7.4103e-06	8.2019e-06	1205.5	236.67	7.0804e-06	8.1235e-06	300.92	84.609	67.349	19.774	7.4638e-06	27.308	-50.995	-28.156	5.922	-91.092	54.511	17.710	-91.000	-83.368	-25.254	14.921	-83.520	-77.426	-75.967	-69.513	90.814	-70.072	-8191	255	
3346.684	1	1	0	0	0.19064	0.15529	0.09544	0.21651	0.1239	0.031695	0.19418	0.15637	0.36886	0.38734	0.15693	0.32735	0.36554	0.23591	0.22711	0.17119	-2.8937	-2.5896	-2.5583	-3.4292	-2.4104	-2.9896	-3.2167	-2.6146	-3.2146	-2.6667	-2.8521	-3.1562	-2.4729	-3.025	-3.0042	-2.5083	128.404	37.872	246.840	251.948	-57.922	-21.665	226.314	176.526	152.182	95.763	-29.326	-14.631	143.635	249.918	49.577	106.836	0.00016726	0.00022794	9.908e-05	1134.6	9.1042e-07	1.596e-06	1219.4	237.96	3.9222e-06	5.2419e-06	302.39	83.582	67.077	19.417	3.4702e-06	26.782	0.00049854	0.00076297	0.00020907	1116.2	7.6754e-06	7.9095e-06	1207.7	237.08	6.835e-06	7.9674e-06	301.41	84.365	67.357	19.747	7.104e-06	27.247	-46.716	-53.909	-8.576	-90.994	11.220	23.554	-90.843	-83.597	100.532	64.535	-83.681	-77.172	-76.670	-69.241	58.781	-69.805	-8191	255	
3346.780	1	1	0	0	0.18426	0.2735	0.11325	0.19885	0.1482	0.06683	0.2285	0.33852	0.14103	0.18671	0.32366	0.18771	0.096986	0.087592	0.10839	0.24718	-2.7375	-2.6271	-2.4396	-3.2958	-2.4021	-2.9333	-3.2292	-2.4208	-3.1604	-2.7583	-2.5417	-3.1937	-2.5875	-2.9229	-3.075	-2.4688	-76.382	-80.253	-45.686	217.403	13.199	246.698	166.744	146.377	192.958	-21.980	243.158	-49.816	105.507	190.868	117.753	175.692	0.00017975	0.00022611	5.9984e-05	1136.4	1.8403e-06	3.8262e-06	1224.2	238.25	3.7745e-06	3.8539e-06	302.21	83.698	66.954	19.351	2.202e-06	26.996	0.00049127	0.00065653	0.00018417	1118.7	7.1985e-06	7.3713e-06	1207	237.13	6.7269e-06	7.2279e-06	300.69	84.363	67.422	19.7	6.614e-06	27.313	-39.193	-10.339	-39.429	-90.870	46.958	47.423	-90.952	-83.272	45.740	68.770	-83.607	-76.857	-76.841	-69.267	50.903	-70.120	-8191	255	
3346.876	1	1	0	0	0.19054	0.20205	0.086407	0.20048	0.095351	0.12095	0.10227	0.083464	0.090219	0.076155	0.15055	0.1256	0.19814	0.11684	0.13797	0.03168	-2.8271	-2.8104	-2.4646	-3.4396	-2.3604	-2.7438	-3.3625	-2.4375	-3.1229	-3.1042	-2.5604	-3.3271	-2.7896	-2.7917	-3.3812	-2.55	124.482	21.800	-99.169	160.364	185.184	-43.560	206.490	-69.030	12.223	126.569	188.673	-0.904	6.963	67.375	55.542	33.657	0.00014459	0.0003391	6.114e-05	1136.3	5.398e-06	3.0518e-06	1228.3	238.23	2.3473e-06	3.9992e-06	304.02	83.515	66.35	19.505	5.5418e-06	26.859	0.00048972	0.00064854	0.000183	1120	7.2465e-06	7.3063e-06	1210.6	237.34	6.611e-06	7.0467e-06	301.88	84.623	67.262	19.756	6.6102e-06	27.262	-53.445	-0.031	8.824	-91.031	46.026	50.707	-91.158	-83.367	15.711	86.872	-83.719	-76.770	-76.686	-69.764	40.687	-69.935	-8191	255	
3346.970	1	1	0	0	0.18298	0.043427	0.14585	0.15458	0.059467	0.16631	0.11831	0.16433	0.14219	0.38014	0.24132	0.12414	0.24337	0.097695	0.20018	0.31329	-2.5917	-3.0958	-2.4521	-3.3771	-2.8521	-2.7542	-3.3792	-2.6042	-2.9854	-3.1188	-2.5042	-3.4917	-2.8208	-2.5125	-3.3271	-2.4792	133.935	217.568	-64.419	162.580	26.705	240.562	110.459	77.180	207.386	-61.856	205.621	59.377	-34.201	70.436	194.541	165.881	0.0001333	0.00037869	2.4056e-05	1139.2	4.42e-06	2.8594e-06	1229.5	238.15	1.6034e-06	3.2597e-06	303.53	83.999	67.161	19.547	5.8141e-06	26.696	0.00049535	0.00064891	0.00018801	1119.7	7.4445e-06	7.3741e-06	1210.2	237.31	6.9025e-06	6.9303e-06	301.48	84.509	67.573	19.779	7.2291e-06	27.244	-31.585	-31.431	-15.312	-90.709	48.240	67.393	-90.876	-83.573	69.028	52.461	-83.969	-77.243	-76.766	-69.363	64.737	-70.402	-8191	255	
3347.091	1	1	0	0	0.095121	0.25048	0.17328	0.23729	0.16293	0.12439	0.24953	0.21509	0.079916	0.11978	0.12131	0.26492	0.013873	0.042104	0.29945	0.2937	-2.6042	-3.1479	-2.4854	-3.2729	-2.8875	-2.6146	-3.4229	-2.6937	-2.8063	-3.0979	-2.4	-3.2521	-2.9292	-2.5042	-3.1167	-2.5521	61.531	249.565	240.658	-82.177	-7.128	50.331	193.155	221.056	-96.130	20.569	-36.793	245.060	-56.299	213.661	-6.559	111.787	0.00015315	0.00021207	0.00012406	1136.7	2.8601e-06	3.1342e-06	1229.3	238.2	3.259e-06	2.6857e-06	303.54	84.146	67.103	19.501	3.6653e-06	26.825	0.00052222	0.00068751	0.00020612	1118.6	7.715e-06	8.5451e-06	1211.2	237.42	7.9888e-06	8.38e-06	301.76	84.935	67.846	19.847	7.5786e-06	27.42	-55.138	-13.734	13.023	-91.020	58.255	1.320	-90.968	-83.609	35.702	70.571	-84.287	-77.644	-76.653	-70.440	78.364	-71.137	-8191	255	
3347.187	1	1	0	0	0.12492	0.19964	0.14443	0.24295	0.10973	0.27315	0.17077	0.3217	0.18988	0.04926	0.030747	0.15108	0.19297	0.078818	0.15747	0.018456	-2.4458	-3.1375	-2.2354	-3.2958	-3.1021	-2.4958	-3.2667	-2.8229	-2.8	-3.375	-2.4208	-3.175	-2.9437	-2.3187	-3.3167	-2.9437	16.702	-76.226	232.767	200.918	251.447	-74.075	-63.214	-57.342	143.501	63.418	132.036	135.399	-70.907	101.372	154.235	2.334	0.00016902	0.00020831	0.00010967	1141.8	2.2372e-06	2.048e-06	1233.8	240.74	8.5528e-07	2.042e-06	304.62	83.82	67.642	19.518	3.8012e-06	26.903	0.00053615	0.00071372	0.00020998	1126.8	7.616e-06	7.7654e-06	1214.4	239.12	7.1843e-06	7.6475e-06	303.21	85.074	67.816	19.872	7.7774e-06	27.474	-42.980	15.578	-15.683	-91.292	40.586	29.134	-91.522	-84.012	44.588	52.964	-84.201	-77.786	-77.010	-69.798	39.638	-70.724	-8191	255	
3347.283	1	1	0	0	0.1338	0.19804	0.3342	0.32127	0.22402	0.24139	0.086212	0.065397	0.10529	0.15169	0.26403	0.053661	0.10276	0.1616	0.17211	0.17844	-2.1625	-3.1479	-2.4271	-3.1583	-2.875	-2.5062	-3.3375	-2.8021	-2.8063	-3.2958	-2.4167	-3.075	-3.2208	-2.3833	-3.1646	-2.8063	253.666	17.942	-1.666	256.713	82.989	206.515	221.654	71.593	104.041	253.393	251.689	-101.442	218.125	75.842	39.903	235.804	0.00018234	0.00030888	4.3788e-05	1140.7	1.7531e-06	2.9488e-06	1232.9	240.53	3.5831e-06	1.6162e-06	304.06	84.24	67.006	19.655	3.8318e-06	27.108	0.00052927	0.00069835	0.00020886	1126	7.6124e-06	8.2266e-06	1216.7	239.71	7.7218e-06	7.9897e-06	303.71	85.283	68.006	19.997	7.6062e-06	27.508	-39.066	22.818	1.819	-91.437	4.615	12.559	-91.317	-83.862	97.372	108.119	-84.366	-77.452	-77.298	-70.200	83.146	-70.855	-8191	255	
3347.380	1	1	0	0	0.14494	0.1376	0.1234	0.16479	0.21017	0.059381	0.14265	0.10893	0.25545	0.12885	0.13621	0.20078	0.32959	0.28498	0.25159	0.19995	-2.1375	-3.2938	-2.4042	-3.1	-3.15	-2.4562	-3.4292	-2.8896	-2.4146	-3.1937	-2.6937	-2.8708	-3.1229	-2.5417	-2.9313	-2.9375	-66.372	205.469	54.042	145.065	-31.786	2.068	75.531	-49.743	119.862	135.621	90.836	-81.165	70.214	-85.983	125.000	211.397	0.00015975	0.00027697	8.6574e-05	1143.9	2.2651e-06	4.2908e-06	1235.9	240.68	1.7668e-06	4.0352e-06	306.36	84.832	66.995	19.601	4.5051e-06	27.013	0.00053002	0.00072431	0.00021134	1131.3	7.697e-06	8.6468e-06	1220.3	240.75	7.4764e-06	8.044e-06	304.37	85.473	68.055	19.896	7.9249e-06	27.494	-42.199	-21.162	-16.417	-91.310	97.947	49.173	-91.641	-84.473	33.424	22.932	-84.688	-77.729	-77.152	-70.286	37.449	-70.757	-8191	255	
3347.500	1	1	0	0	0.15885	0.31189	0.077688	0.067719	0.094396	0.12298	0.06912	0.1896	0.016674	0.088594	0.13406	0.14739	0.16728	0.13309	0.08849	0.1845	-2.1437	-3	-2.6854	-2.7375	-3.3708	-2.5271	-3.1521	-3.0771	-2.3812	-3.2562	-2.8688	-2.5958	-3.1958	-2.7583	-3.0396	-3.2188	243.888	-60.006	-16.781	237.257	82.946	187.340	250.301	169.132	3.374	-26.155	234.141	171.545	-60.516	183.855	191.345	91.697	0.00015875	0.00026382	5.3029e-05	1146.7	1.8554e-06	5.2255e-06	1240.3	243.29	2.9248e-06	2.2816e-06	304.3	84.941	67.513	19.732	1.2189e-06	27.146	0.0005292	0.00069724	0.00021015	1129.4	7.4043e-06	8.3255e-06	1220.5	241.6	7.3754e-06	7.9102e-06	302.86	85.383	67.916	19.955	7.4574e-06	27.499	-35.429	-23.198	-38.510	-91.601	50.155	49.481	-91.553	-84.188	98.594	84.820	-84.689	-77.575	-77.321	-70.135	70.781	-71.287	-8191	255	
3347.572	1	1	0	0	0.20052	0.24018	0.12075	0.13744	0.20647	0.14968	0.22535	0.09093	0.24299	0.024205	0.36521	0.13822	0.12678	0.24282	0.14246	0.063485	-1.9438	-3.1917	-2.6125	-2.6833	-3.175	-2.4771	-3.1375	-3.2646	-2.5375	-3.0812	-2.9396	-2.5187	-3.4062	-2.5729	-2.9896	-3.1271	3.492	2.776	222.185	160.511	48.298	160.152	143.026	167.005	191.457	55.776	-73.083	-58.508	-26.687	139.796	-14.662	-66.856	0.00014633	0.00023995	0.00011711	1143	2.7485e-06	3.0999e-06	1237.9	241.67	1.6169e-06	4.3112e-06	303.27	83.766	67.701	19.597	5.5645e-06	27.024	0.0005124	0.0006802	0.00019264	1129.2	7.0984e-06	7.9695e-06	1220.5	240.86	7.3324e-06	7.5339e-06	303.03	84.97	67.894	19.841	7.1951e-06	27.455	-34.591	-28.197	-16.739	-91.824	17.323	42.893	-91.761	-84.188	109.194	52.641	-84.591	-77.555	-77.543	-70.463	86.300	-71.369	-8191	255	
3347.668	1	1	0	0	0.028831	0.098241	0.043618	0.40528	0.16842	0.29926	0.23591	0.14355	0.23745	0.043124	0.035592	0.23094	0.094444	0.051517	0.19617	0.26918	-1.9854	-3.0104	-2.8271	-2.5104	-3.1833	-2.6188	-2.9792	-3.1458	-2.5208	-3.0417	-3.1063	-2.5354	-3.4417	-2.8333	-2.7833	-3.3021	54.338	-48.090	185.396	249.201	6.574	245.240	217.202	130.176	255.592	120.045	44.536	167.593	-21.959	204.739	101.912	-65.167	0.00014714	0.00032226	7.9428e-05	1144.5	1.1302e-06	2.6972e-06	1230.5	241.23	3.3618e-06	2.6626e-06	304.78	84.274	67.321	19.463	2.8984e-06	26.891	0.0004883	0.00066093	0.00019207	1126.4	7.1302e-06	7.9801e-06	1217.2	240.09	7.0936e-06	7.3123e-06	303.29	84.925	67.76	19.8	6.9045e-06	27.328	-42.391	-23.716	-32.773	-91.579	61.629	55.808	-91.809	-84.235	37.053	23.848	-84.507	-77.696	-76.935	-70.401	33.729	-70.969	-8191	255	
3347.764	1	1	0	0	0.1464	0.15151	0.22041	0.22608	0.065225	0.13174	0.22228	0.22729	0.074968	0.22105	0.17496	0.22203	0.12156	0.076976	0.14258	0.14889	-2.1083	-3.1562	-2.9021	-2.4396	-3.3	-2.8104	-2.6042	-3.3812	-2.4354	-3.0687	-3.0125	-2.3583	-3.1333	-2.7938	-2.4542	-3.2146	159.758	178.963	81.353	194.788	7.938	-8.038	-89.112	-32.220	38.647	-14.329	2.483	203.939	125.425	-15.626	-5.397	-61.930	0.00020154	0.00030882	0.0001168	1141.8	3.7531e-06	3.9316e-06	1230.7	241.06	8.5178e-07	2.2568e-06	302.95	83.922	66.855	19.507	3.1062e-06	26.811	0.00050907	0.00068144	0.0001826	1124.1	7.3377e-06	7.7555e-06	1214.8	239.93	7.4202e-06	7.7276e-06	303.19	84.868	67.861	19.823	7.5946e-06	27.344	-44.860	-46.490	-16.768	-91.768	57.506	61.434	-91.413	-84.394	42.005	25.446	-84.764	-77.828	-76.692	-70.255	54.835	-70.882	-8191	255	
3347.883	1	1	0	0	0.093981	0.14764	0.23892	0.36766	0.12257	0.097168	0.074853	0.1869	0.2182	0.11626	0.18576	0.094846	0.31774	0.22948	0.1241	0.025698	-2.0375	-2.9646	-3.1646	-2.5563	-3.1021	-2.8229	-2.7625	-3.375	-2.4521	-2.9125	-3.0729	-2.4062	-3.0938	-2.9917	-2.25	-3.2292	-21.023	-95.871	-34.891	211.120	64.917	-42.412	242.151	83.153	201.821	221.758	81.733	90.980	203.474	174.235	159.727	36.977	0.00014501	0.00037505	3.5404e-05	1142.8	2.924e-06	2.9948e-06	1234.6	242.25	6.6775e-07	2.6907e-06	305.96	84.888	67.75	19.548	5.0795e-06	26.928	0.00055678	0.0007473	0.00023067	1126.1	8.4306e-06	9.3778e-06	1219.3	241.26	8.9742e-06	9.5543e-06	305.34	85.472	68.325	19.922	9.1101e-06	27.573	-52.585	26.806	73.585	-91.410	54.424	42.450	-91.772	-84.336	65.951	57.419	-84.754	-77.703	-76.863	-70.319	59.065	-70.931	-8191	255	
3347.979	1	1	0	0	0.12554	0.28538	0.17894	0.28982	0.17496	0.099487	0.39369	0.16337	0.12132	0.086332	0.20226	0.089943	0.167	0.067533	0.26433	0.32249	-2.2125	-2.8333	-3.2042	-2.5875	-3.1083	-2.9333	-2.5146	-3.3125	-2.6396	-2.7458	-3.2208	-2.5125	-3.0625	-3.175	-2.4562	-3.0896	-8.108	-96.945	160.299	-55.419	24.163	-86.675	206.053	186.000	199.423	94.974	-57.843	-82.597	-55.599	66.901	-34.804	129.963	0.00015094	0.00046293	6.341e-05	1150.5	2.6147e-06	4.7491e-06	1240.9	243.84	1.3501e-06	3.3278e-06	308.18	84.302	68.202	19.716	4.5101e-06	26.93	0.00063058	0.00093279	0.00023885	1136	9.6698e-06	1.01e-05	1229	242.95	9.483e-06	1.0029e-05	307.08	85.592	68.562	19.995	9.23e-06	27.473	-40.589	9.334	0.486	-91.814	78.530	58.542	-91.635	-84.335	134.395	49.850	-84.769	-77.754	-77.616	-70.428	59.776	-71.110	-8191	255	
3348.075	1	1	0	0	0.11605	0.11979	0.14367	0.37477	0.22239	0.1723	0.24076	0.24843	0.043333	0.30648	0.091122	0.053082	0.23629	0.062956	0.17395	0.15439	-2.2958	-2.5542	-3.2979	-2.5687	-2.825	-3.0167	-2.4688	-3.1979	-2.7917	-2.4188	-3.3771	-2.5604	-2.8354	-3.15	-2.4542	-3.1792	13.333	128.198	160.879	232.676	246.193	197.642	-90.058	227.605	-80.828	104.637	121.325	250.648	72.034	16.923	221.209	215.037	0.00016218	0.00025292	0.0001141	1154.6	8.8001e-07	2.1388e-06	1247.2	243.42	2.3204e-06	1.9199e-06	306.83	85.031	68.072	19.674	4.9836e-06	26.923	0.00063369	0.00089636	0.0002488	1140.3	9.3393e-06	9.5381e-06	1233.2	243.56	9.7654e-06	1.0368e-05	307.4	85.886	68.76	20.025	9.9791e-06	27.557	-38.256	-56.084	-55.903	-91.625	-29.496	71.730	-91.657	-84.250	28.367	39.946	-84.310	-77.615	-76.954	-70.661	81.923	-70.718	-8191	255	
3348.171	1	1	0	0	0.14241	0.266	0.13192	0.22269	0.14457	0.1919	0.24478	0.090542	0.075399	0.24503	0.084322	0.14447	0.11251	0.21881	0.086121	0.14785	-2.4813	-2.4021	-3.2292	-2.6	-2.7896	-3.0896	-2.4542	-3.2167	-2.8063	-2.4458	-3.3125	-2.6188	-2.7313	-3.2479	-2.3396	-2.9562	87.831	188.918	-91.153	156.987	100.860	-78.429	159.011	-4.210	139.010	32.145	113.781	133.946	147.284	1.169	185.483	121.046	0.00019203	0.00018057	0.00010205	1157.9	1.5384e-06	2.5136e-06	1252.5	245.3	3.8395e-06	3.631e-06	308.86	85.041	67.741	19.747	1.2302e-06	27.262	0.00065631	0.00094778	0.00026373	1143.4	9.8444e-06	1.0191e-05	1236.1	244.75	9.5534e-06	1.0142e-05	308.31	85.787	68.618	20.093	1.0136e-05	27.693	-50.714	-10.403	-1.592	-91.839	76.692	78.575	-91.387	-84.139	108.272	67.933	-84.474	-77.793	-77.275	-70.064	40.362	-70.869	-8191	255	
3348.268	1	1	0	0	0.068202	0.14529	0.1399	0.26438	0.083102	0.057357	0.10335	0.11878	0.18364	0.089216	0.3396	0.19069	0.16701	0.24788	0.071056	0.14467	-2.7042	-2.2479	-3.2	-2.6542	-2.6292	-3.1292	-2.5208	-3.1083	-2.95	-2.3854	-3.3604	-2.7792	-2.6604	-3.2833	-2.3229	-3.0604	86.362	216.553	-20.043	203.855	-49.635	179.054	209.101	256.202	254.178	39.468	-88.635	-11.303	-58.467	128.808	-96.645	-100.454	0.00020936	4.6624e-05	6.3648e-05	1160.7	1.4403e-06	2.4562e-06	1249.1	245.14	5.2504e-06	2.8766e-06	309.92	85.22	67.953	19.77	5.0236e-06	27.138	0.00062154	0.00091117	0.00026014	1145.1	8.6819e-06	9.5875e-06	1236.9	244.41	8.7615e-06	9.886e-06	308.7	85.861	68.576	20.082	9.1787e-06	27.661	-31.760	-20.558	-17.898	-91.415	20.569	47.535	-91.485	-84.518	57.689	15.847	-84.216	-77.905	-77.189	-69.832	104.419	-70.747	-8191	255	
3348.364	1	1	0	0	0.18378	0.12482	0.10316	0.18369	0.13054	0.12098	0.042238	0.13547	0.15358	0.2389	0.20333	0.11119	0.26843	0.21943	0.21986	0.20992	-2.8333	-2.4167	-3.2167	-2.9479	-2.5646	-3.3229	-2.5979	-3.0563	-3.275	-2.5021	-3.325	-2.8375	-2.5125	-3.2146	-2.675	-2.9062	-5.623	214.664	83.613	-28.489	84.539	243.617	183.115	221.734	121.821	40.574	-56.090	32.471	15.403	-49.542	6.872	127.990	0.00017229	0.00014273	5.0991e-05	1159.1	1.5339e-06	2.735e-06	1250	244.95	4.2067e-06	3.6909e-06	307.9	84.953	68.076	19.645	1.374e-06	27.136	0.00058638	0.00083242	0.00024563	1144.9	8.8804e-06	9.5847e-06	1235.5	243.95	8.1219e-06	9.4498e-06	307.82	85.809	68.543	20.007	8.8574e-06	27.633	-48.970	16.592	-30.202	-91.781	53.060	44.121	-91.795	-84.098	65.677	-5.994	-84.590	-77.532	-77.199	-69.973	106.610	-70.617	-8191	255	
3348.460	1	1	0	0	0.064747	0.029243	0.18606	0.15471	0.10158	0.27311	0.10241	0.15038	0.19071	0.050787	0.10019	0.21779	0.076208	0.10711	0.075439	0.24241	-2.7458	-2.4854	-3.2313	-3.0958	-2.5292	-3.3375	-2.4729	-2.8375	-3.1562	-2.3187	-3.0729	-2.8167	-2.5792	-3.2667	-2.6229	-2.7979	-12.307	143.824	238.017	254.315	59.971	214.554	157.492	-90.068	-37.504	-20.267	-83.891	24.749	170.894	-10.026	108.437	241.351	0.0001445	0.00032237	0.00012014	1160.8	1.2264e-06	3.1996e-06	1254	245.44	2.2991e-06	3.6324e-06	307.47	84.997	67.972	19.534	3.0074e-06	27.107	0.00055299	0.00084506	0.00024312	1145	8.3724e-06	9.3651e-06	1235.5	243.6	7.778e-06	9.2567e-06	307.77	85.624	68.513	19.966	8.579e-06	27.62	-48.467	-13.666	-6.428	-91.764	72.715	58.993	-91.594	-84.059	2.308	46.888	-84.197	-77.492	-76.703	-70.167	62.037	-70.858	-8191	255	
3348.581	1	1	0	0	0.16162	0.16118	0.20232	0.26783	0.13803	0.31188	0.24035	0.22047	0.079455	0.1257	0.17472	0.15863	0.087685	0.1524	0.10359	0.060102	-2.8229	-2.5292	-2.9583	-3.0062	-2.4354	-3.1833	-2.7958	-2.5729	-3.1063	-2.3854	-3.1208	-3.1375	-2.4208	-3.2292	-2.5792	-2.6562	230.086	240.061	210.609	205.950	-78.026	29.529	222.486	241.966	220.144	237.342	239.672	252.922	151.599	183.026	-59.124	96.410	0.00014288	0.00025976	0.00011307	1159.3	3.006e-06	2.789e-06	1250.2	243.27	4.1368e-06	5.9581e-07	308.37	84.548	68.032	19.679	3.5258e-06	27.108	0.00056451	0.00084054	0.00023358	1142.2	8.3016e-06	9.2422e-06	1235.3	243.35	7.9619e-06	9.2414e-06	307.37	85.442	68.472	19.992	8.5149e-06	27.582	-58.527	-4.752	13.642	-91.436	122.498	67.290	-91.378	-84.032	73.461	-28.876	-84.361	-77.607	-77.334	-69.938	2.278	-70.725	-8191	255	
3348.677	1	1	0	0	0.2496	0.11752	0.24434	0.19043	0.28162	0.14436	0.21955	0.21019	0.18492	0.30262	0.19721	0.1368	0.13663	0.13672	0.18443	0.14067	-2.9958	-2.3583	-2.8896	-3.3021	-2.1021	-3.2	-2.8333	-2.3812	-3.2875	-2.4813	-2.8708	-3.15	-2.4292	-3.3396	-2.8333	-2.4271	15.188	194.870	148.243	-39.479	-24.548	-16.034	218.449	189.813	-98.130	153.097	154.178	139.770	76.893	244.396	-60.229	232.456	0.00014014	0.00020233	9.6589e-05	1160.1	3.6015e-06	2.257e-06	1254.5	243.3	9.0199e-07	3.0402e-06	308.14	84.499	67.392	19.648	3.9689e-06	27.193	0.00056564	0.00083044	0.00023018	1143.2	8.7941e-06	9.3813e-06	1236.3	242.89	8.2796e-06	9.1905e-06	306.95	85.37	68.305	19.95	8.8939e-06	27.529	-41.160	0.598	-15.702	-91.629	52.532	42.769	-91.823	-84.241	59.238	45.070	-84.223	-77.446	-77.352	-69.974	61.801	-70.498	-8191	255	
3348.773	1	1	0	0	0.16168	0.22523	0.20464	0.40344	0.076314	0.25588	0.16184	0.26181	0.058153	0.18734	0.014348	0.13564	0.093264	0.20112	0.11865	0.10356	-2.9354	-2.6083	-2.7146	-3.4417	-2.4646	-3.1813	-3.0271	-2.5312	-3.2646	-2.4375	-2.6833	-3.2729	-2.5312	-3.1646	-2.9771	-2.3458	190.503	-63.906	-46.936	232.843	-37.629	63.223	159.582	195.064	92.566	181.898	242.265	-14.163	-58.994	174.168	-38.250	53.402	0.00011987	0.00036874	0.00010602	1164.9	2.923e-06	3.0889e-06	1250.3	244.37	1.8479e-06	6.3878e-07	306.35	84.525	67.535	19.494	3.4719e-06	27.113	0.00059977	0.00087573	0.00023092	1145.1	9.2433e-06	9.5649e-06	1233.7	243.4	8.8272e-06	9.8993e-06	306.71	85.424	68.415	19.943	9.0203e-06	27.561	-59.096	-5.005	-11.454	-91.526	71.822	43.706	-91.571	-83.996	-1.915	28.434	-84.460	-77.366	-76.798	-69.891	69.354	-70.808	-8191	255	
3348.869	1	1	0	0	0.081949	0.11514	0.28118	0.043433	0.18228	0.14934	0.19364	0.021037	0.36144	0.17991	0.026297	0.12776	0.16253	0.30153	0.14477	0.16967	-2.975	-2.4042	-2.4208	-3.3375	-2.4875	-2.8708	-3.3583	-2.3979	-3.3187	-2.9271	-2.7188	-3.1521	-2.6646	-3.0187	-3.0292	-2.525	-52.893	88.855	254.602	171.913	141.406	79.420	-72.963	169.067	-57.892	120.514	60.831	81.594	-68.183	-63.047	-22.674	225.636	0.00018177	0.00044735	0.00012884	1160.1	4.2747e-06	3.738e-06	1254	243.91	2.3466e-06	3.2164e-06	307.1	84.692	67.725	19.679	5.0523e-06	27.027	0.0006366	0.00089927	0.00023346	1143.4	9.4149e-06	9.6172e-06	1235.4	242.54	8.8093e-06	9.654e-06	306.27	85.573	68.477	19.974	8.3706e-06	27.493	-46.641	-10.870	-8.294	-91.494	100.650	45.602	-91.481	-84.070	47.167	33.126	-84.411	-77.563	-77.133	-69.797	80.875	-70.650	-8191	255	
3348.963	1	1	0	0	0.23827	0.021407	0.063621	0.25078	0.22221	0.1146	0.064464	0.26229	0.17073	0.072853	0.48494	0.35904	0.16918	0.10311	0.045012	0.064964	-3.0333	-2.8708	-2.4271	-3.5229	-2.3937	-2.9146	-3.4271	-2.3937	-3.2521	-2.8854	-2.6708	-3.1458	-2.6583	-2.9083	-3.15	-2.4521	-56.549	202.992	-91.471	192.278	159.345	191.759	217.369	229.072	27.683	7.975	-47.448	235.686	29.883	7.738	28.608	-43.734	0.00016734	0.0003596	0.00012108	1155.8	5.3369e-06	1.4839e-06	1250.3	242.82	2.2475e-06	4.834e-06	307.72	84.858	67.902	19.58	3.6375e-06	26.868	0.00060013	0.00084655	0.00023044	1142.3	8.9404e-06	9.3361e-06	1233.9	242.16	8.6134e-06	9.1027e-06	306.3	85.503	68.513	19.927	8.6695e-06	27.515	-33.315	1.677	12.984	-91.274	53.719	16.312	-91.531	-83.834	129.059	45.340	-84.061	-77.473	-76.742	-69.801	70.790	-70.509	-8191	255	
3349.060	1	1	0	0	0.023501	0.27341	0.1522	0.13451	0.087291	0.058045	0.15965	0.28411	0.18518	0.042798	0.16238	0.074528	0.06959	0.038476	0.23989	0.19356	-2.7479	-2.9667	-2.6104	-3.4542	-2.6708	-2.6813	-3.5	-2.5125	-3.2313	-3.0229	-2.4208	-3.1896	-2.6604	-2.7292	-3.3208	-2.425	164.451	7.489	-53.634	173.733	198.392	-66.480	3.625	151.936	-22.298	127.711	-61.793	239.576	74.607	61.248	58.766	3.444	0.0001095	0.00042892	0.00012186	1160	2.3869e-06	2.4456e-06	1252.7	244.05	1.2539e-06	1.998e-06	307.42	84.082	67.621	19.595	2.974e-06	26.909	0.00060303	0.00082554	0.00024056	1142.8	8.9494e-06	9.596e-06	1233.2	242.54	8.4689e-06	9.1989e-06	306.94	85.281	68.31	19.914	8.7875e-06	27.511	-36.278	-29.507	10.473	-91.285	49.155	61.067	-91.459	-84.194	73.253	104.242	-84.348	-77.726	-76.846	-70.191	48.554	-70.870	-8191	255	
3349.180	1	1	0	0	0.15522	0.12616	0.24169	0.30468	0.069556	0.15714	0.19235	0.21851	0.071111	0.2294	0.099694	0.23947	0.075377	0.17404	0.20089	0.03062	-2.7646	-3.1292	-2.3729	-3.3542	-2.7542	-2.6021	-3.3792	-2.6583	-2.8792	-3.0771	-2.6271	-3.2687	-2.7938	-2.65	-3.0542	-2.4958	209.230	-48.086	-42.448	215.596	106.914	92.281	147.479	162.681	231.947	214.901	257.615	177.978	214.353	246.194	146.172	-61.500	0.00018655	0.00050422	0.0001577	1159.7	1.3206e-06	3.1128e-06	1244	242.84	3.6014e-06	1.7429e-06	306.61	84.801	67.789	19.624	3.5727e-06	27.033	0.00058992	0.00082071	0.00024366	1142.7	8.9212e-06	9.6116e-06	1233	242.33	8.7209e-06	9.1522e-06	306.99	85.592	68.474	19.954	9.0806e-06	27.537	-61.180	-22.046	-18.582	-91.237	77.945	47.523	-91.240	-83.904	60.745	-19.786	-83.991	-77.284	-77.034	-70.049	38.167	-70.636	-8191	255	
3349.276	1	1	0	0	0.37076	0.1219	0.028403	0.15662	0.23628	0.24797	0.26225	0.29219	0.23288	0.21476	0.29179	0.27707	0.078936	0.1515	0.12114	0.11427	-2.5312	-3.0583	-2.3563	-3.3187	-2.8792	-2.6229	-3.4167	-2.5979	-2.7812	-3.2917	-2.5521	-2.9854	-2.9417	-2.3917	-3.3479	-2.6312	-18.299	-29.002	53.823	211.630	16.607	228.712	202.774	122.417	-51.598	-1.428	-46.803	129.335	102.899	-77.181	4.848	-88.831	0.0001655	0.00024438	8.0802e-05	1158.9	1.9698e-06	3.2369e-06	1251.7	242.72	7.7648e-07	1.9146e-06	306.7	84.75	67.776	19.567	1.3061e-06	27.104	0.00058496	0.00083224	0.00025473	1144.5	8.9344e-06	9.7394e-06	1234.7	242.17	9.0757e-06	9.3975e-06	306.62	85.528	68.469	19.917	9.1652e-06	27.539	-51.549	-42.399	-9.299	-91.257	48.261	62.135	-91.130	-83.922	48.673	11.093	-84.533	-77.157	-76.485	-70.077	55.358	-70.420	-8191	255	
3349.372	1	1	0	0	0.11749	0.070427	0.11599	0.050162	0.11246	0.078127	0.15961	0.072197	0.20914	0.2914	0.19608	0.19569	0.066664	0.11445	0.041033	0.1243	-2.3354	-3.2208	-2.5125	-3.1021	-3.1167	-2.6771	-3.5438	-2.8083	-2.8083	-3.3542	-2.5312	-3.1437	-3.1688	-2.4938	-3.2958	-2.7438	225.264	-39.901	32.587	0.000	-63.275	-55.344	178.422	176.142	257.646	19.910	-75.030	239.122	-95.849	122.644	5.136	176.073	0.00016704	0.00040708	6.3181e-05	1161	1.4936e-06	4.2629e-06	1251.8	243.79	4.6242e-06	4.1742e-06	307.2	84.184	67.525	19.617	3.77e-06	27.063	0.00062292	0.00086544	0.0002607	1143.1	9.1024e-06	1.011e-05	1234	242.86	9.0154e-06	9.8826e-06	306.9	85.315	68.347	19.943	9.4994e-06	27.574	-48.923	7.446	12.791	-91.263	98.815	93.166	-91.170	-83.876	66.268	79.976	-84.217	-77.165	-76.969	-69.963	55.574	-70.409	-8191	255	
3349.444	1	1	0	0	0.26848	0.15801	0.15496	0.041483	0.18991	0.045828	0.33464	0.44808	0.1501	0.1476	0.023224	0.045558	0.30535	0.11605	0.21189	0.1838	-2.1896	-3.2792	-2.475	-3.0938	-3.2521	-2.3771	-3.4229	-2.875	-2.6417	-3.4854	-2.4625	-2.9667	-3.1688	-2.3333	-3.0792	-2.9104	-58.457	138.633	-44.352	214.606	-50.968	228.413	244.859	216.266	238.068	-37.239	76.230	244.493	-81.756	-56.577	-65.133	-31.419	0.00018363	0.00041575	9.1229e-05	1161.6	4.6973e-06	4.4053e-06	1249.9	243.51	1.8204e-06	2.486e-06	306.51	84.617	67.994	19.543	3.573e-06	26.945	0.00060761	0.00087387	0.00025606	1145.1	8.8283e-06	1.0171e-05	1235.2	242.67	8.9771e-06	9.9962e-06	306.78	85.54	68.522	19.902	9.221e-06	27.483	-48.441	-6.148	-10.976	-91.300	79.940	49.262	-91.167	-84.051	59.256	57.195	-84.079	-77.015	-76.874	-69.976	50.396	-70.390	-8191	255	
3349.565	1	1	0	0	0.24184	0.086051	0.052135	0.14391	0.15372	0.27565	0.14173	0.24132	0.017475	0.21291	0.42271	0.058005	0.076894	0.28405	0.071795	0.16573	-2.1125	-3.3833	-2.5583	-3.0438	-3.2062	-2.5104	-3.3542	-3.0396	-2.4062	-3.4083	-2.6104	-2.6937	-3.4208	-2.4042	-3.1063	-3.1271	65.873	79.743	35.673	114.779	212.278	91.316	228.545	250.532	-51.859	-30.505	-100.709	29.908	33.588	25.570	104.925	116.262	0.00016899	0.00019853	6.5964e-05	1156.3	4.0586e-06	3.1103e-06	1252.5	243.8	4.8675e-06	2.5939e-06	309.22	83.697	67.791	19.492	2.5959e-06	26.977	0.00063093	0.00089425	0.0002479	1142.4	9.0598e-06	1.0372e-05	1234.6	242.58	8.9126e-06	9.9425e-06	306.83	85.124	68.409	19.91	8.9876e-06	27.488	-40.464	-1.147	-27.660	-90.976	84.534	50.196	-91.066	-83.685	55.424	83.741	-84.318	-76.833	-76.546	-69.907	69.645	-69.993	-8191	255	
3349.661	1	1	0	0	0.085722	0.23931	0.095985	0.14817	0.1658	0.15761	0.26516	0.11593	0.16066	0.18075	0.21369	0.085307	0.033842	0.1404	0.04219	0.093724	-2.0333	-3.2812	-2.6146	-2.6875	-3.1667	-2.3583	-3.0771	-2.9437	-2.4229	-3.2979	-2.7729	-2.6521	-3.2729	-2.3708	-3.0771	-3.0812	200.092	92.832	106.186	178.399	240.379	59.382	196.378	44.835	-30.157	85.971	243.100	-32.420	-6.503	16.826	41.102	198.750	0.0001212	0.00045186	0.00011444	1163	4.885e-06	5.6455e-06	1250.2	242.98	4.7532e-06	3.8512e-06	305.7	84.626	68.091	19.578	9.8273e-07	26.983	0.0006203	0.00089388	0.00025658	1143.9	8.8337e-06	1.0143e-05	1235.4	242.13	8.9694e-06	1.0223e-05	306.46	85.47	68.555	19.933	9.4455e-06	27.467	-59.755	25.186	-33.671	-91.383	51.195	57.704	-91.227	-83.817	29.223	76.191	-84.265	-77.004	-76.819	-69.601	32.966	-70.365	-8191	255	
3349.757	1	1	0	0	0.047919	0.18559	0.14357	0.19658	0.19435	0.079448	0.25484	0.29545	0.062195	0.02918	0.080777	0.020114	0.089039	0.18792	0.053859	0.086268	-2.1146	-3.1708	-2.7438	-2.8187	-3.2562	-2.5792	-3.0417	-3.2333	-2.3937	-3.1521	-2.825	-2.5812	-3.1792	-2.6063	-2.8083	-3.2396	-34.073	122.887	177.416	3.039	87.833	238.255	228.393	2.243	39.863	52.851	90.101	-89.568	-49.064	-70.696	47.403	-54.731	9.9331e-05	0.00035468	0.00012661	1156.1	1.0582e-06	2.693e-06	1251.9	243.18	4.6243e-06	2.6949e-06	306.86	84.833	67.8	19.558	3.5849e-06	26.941	0.00063444	0.00092523	0.0002529	1142.5	9.4941e-06	1.0504e-05	1234.1	242.48	9.2184e-06	1.0232e-05	306.91	85.396	68.303	19.932	9.2864e-06	27.448	-66.206	-9.346	-18.557	-91.107	-7.396	80.336	-91.158	-83.599	84.218	82.558	-84.242	-76.911	-76.546	-69.923	41.476	-69.928	-8191	255	
3349.853	1	1	0	0	0.29785	0.12513	0.31909	0.21175	0.14516	0.063898	0.18076	0.24875	0.23968	0.16949	0.13254	0.24129	0.223	0.27307	0.14297	0.096103	-1.9271	-3.1958	-2.8708	-2.6437	-3.0312	-2.5438	-2.7896	-3.3354	-2.5375	-3.1708	-3.0354	-2.4083	-3.5062	-2.8958	-2.6625	-3.3979	195.034	199.412	95.269	-67.739	74.660	50.169	-49.417	-80.913	27.972	113.889	-29.944	148.886	240.623	136.604	-26.072	-78.109	0.0001381	0.00028877	6.572e-05	1154.1	2.1402e-06	3.6974e-06	1252.4	244.45	4.8191e-06	2.8799e-06	307.36	84.35	67.829	19.704	1.9834e-06	26.896	0.00064202	0.0009331	0.00024994	1142	9.3555e-06	1.0771e-05	1235.4	242.85	9.5678e-06	9.9606e-06	306.66	85.255	68.382	19.928	9.2922e-06	27.522	-49.073	14.557	-47.834	-91.240	88.277	38.278	-91.101	-83.748	42.052	25.765	-84.254	-77.027	-76.809	-69.571	16.337	-70.434	-8191	255	
3349.972	1	1	0	0	0.24785	0.14883	0.054691	0.24576	0.10466	0.29928	0.34277	0.14037	0.16445	0.026958	0.15973	0.22933	0.1489	0.20648	0.20629	0.15887	-2.1708	-3.0417	-3.2917	-2.3708	-3.2958	-2.7458	-2.8417	-3.2229	-2.4167	-2.8375	-3.1813	-2.4813	-3.1125	-2.6625	-2.5604	-3.2625	132.492	-93.510	103.770	-80.990	99.159	-37.538	211.646	69.636	63.452	119.938	12.329	209.986	-13.289	221.992	-21.195	-3.357	0.00016469	0.00035194	0.00015208	1160.6	1.8099e-06	3.6708e-06	1250.7	243.8	1.1128e-06	3.6072e-06	307.28	84.368	67.8	19.623	3.4929e-06	26.862	0.0006617	0.0009046	0.0002502	1144.1	9.7304e-06	1.0673e-05	1235.6	242.54	9.6824e-06	1.015e-05	306.59	85.236	68.418	19.934	9.432e-06	27.479	-38.210	-15.228	6.967	-90.996	-79.128	72.165	-90.761	-83.792	78.439	40.356	-84.256	-77.137	-76.577	-69.672	82.384	-70.252	-8191	255	
3350.044	1	1	0	0	0.089634	0.20227	0.21691	0.25247	0.16494	0.099268	0.38041	0.10926	0.14918	0.13925	0.34643	0.062872	0.13074	0.19987	0.24697	0.25133	-2.2146	-2.7438	-3.225	-2.6521	-3.1229	-3.1208	-2.7188	-3.3125	-2.6625	-2.8833	-3.35	-2.5062	-3.1792	-2.9521	-2.6125	-3.425	1.422	77.486	60.678	190.210	208.654	-22.163	202.462	-39.141	36.383	210.671	176.896	132.405	169.970	175.481	-94.607	186.444	0.00019712	0.00038858	3.4418e-05	1159.6	4.26e-06	4.6793e-06	1250.5	242.82	6.3314e-06	3.2914e-06	308.02	84.819	67.953	19.637	2.7108e-06	27.117	0.0006316	0.00090001	0.00025201	1143.7	9.6452e-06	1.0239e-05	1235.2	242.27	9.5988e-06	1.0177e-05	306.93	85.57	68.482	19.9	9.7315e-06	27.555	-46.850	1.842	-27.245	-91.456	26.767	11.667	-90.959	-83.449	23.920	44.187	-83.935	-77.151	-76.804	-69.704	34.966	-70.247	-8191	255	
3350.142	1	1	0	0	0.091924	0.15382	0.10589	0.15309	0.074748	0.16926	0.064232	0.058902	0.18493	0.11316	0.19805	0.1725	0.2021	0.25946	0.18985	0.20129	-2.3063	-2.5646	-3.0812	-2.4542	-3.1104	-2.8229	-2.5521	-3.2521	-2.5646	-2.6854	-3.4604	-2.4354	-3.0708	-3.1396	-2.5104	-3.3208	4.923	1.874	18.239	253.520	140.965	249.698	-78.169	129.803	-29.438	16.543	170.045	151.456	-11.328	78.384	168.885	243.366	0.00014006	1.3464e-05	9.6816e-05	1159.8	3.8837e-06	3.4997e-06	1253.3	243.2	6.9358e-07	3.2905e-06	305.87	84.503	67.949	19.562	4.3432e-06	27.12	0.00065241	0.00093619	0.00025717	1142.9	9.9883e-06	1.0105e-05	1235.6	242.49	9.4686e-06	1.0041e-05	307.04	85.522	68.544	19.916	9.8726e-06	27.514	-43.379	191.313	-50.487	-91.196	-6.396	69.902	-91.271	-83.764	69.761	45.249	-84.049	-77.223	-77.084	-69.541	17.642	-70.109	-8191	255	
3350.261	1	1	0	0	0.02711	0.13052	0.16384	0.14232	0.17406	0.17941	0.212	0.17628	0.12087	0.15938	0.13431	0.091651	0.032146	0.12462	0.11469	0.2398	-2.3771	-2.7917	-3.3167	-2.6729	-3.0375	-3.1083	-2.6583	-3.35	-2.8354	-2.5667	-3.4396	-2.4375	-2.9604	-3.3042	-2.4104	-3.3167	257.879	143.968	42.994	128.844	-37.204	55.106	184.577	-59.061	251.997	-68.918	83.928	-76.828	246.689	257.104	132.856	36.795	0.00015735	0.00040627	6.4826e-05	1156.9	3.7194e-06	2.6851e-06	1255.7	243.03	1.1201e-06	1.2488e-06	305.62	84.519	67.571	19.76	2.7606e-06	26.997	0.00064759	0.00090893	0.00026165	1142.2	9.749e-06	1.0158e-05	1235.5	242.19	9.431e-06	1.0623e-05	306.72	85.497	68.26	19.968	9.9444e-06	27.561	-33.694	-11.199	25.511	-91.083	97.385	57.999	-90.966	-83.733	132.506	163.666	-83.914	-76.959	-76.057	-69.260	83.591	-70.371	-8191	255	
3350.357	1	1	0	0	0.10697	0.097745	0.054357	0.065428	0.18538	0.14428	0.41803	0.17878	0.23961	0.15141	0.12452	0.37114	0.32652	0.03785	0.17754	0.1406	-2.6333	-2.5687	-3.3104	-2.6271	-2.925	-3.2313	-2.5896	-3.2313	-2.8646	-2.5438	-3.3854	-2.6333	-2.7562	-3.2812	-2.4104	-3.2188	211.280	-98.855	-49.897	4.258	122.147	148.268	160.848	193.237	73.094	204.582	65.940	-72.616	203.472	49.673	81.477	195.858	0.00011135	0.00053441	9.1402e-05	1159.7	1.2954e-06	3.4816e-06	1252.6	244.61	1.8925e-06	3.3307e-06	308.74	85.181	67.604	19.536	2.7857e-06	26.932	0.00065117	0.00093737	0.00026115	1143.4	9.7586e-06	1.0441e-05	1236.1	243.05	9.508e-06	1.0332e-05	306.88	85.785	68.448	19.864	1.0376e-05	27.476	-37.276	15.623	2.793	-91.188	-30.391	14.273	-91.285	-83.637	97.304	18.434	-84.287	-77.274	-76.706	-69.159	71.779	-70.310	-8191	255	
3350.453	1	1	0	0	0.11437	0.062353	0.15628	0.17115	0.26268	0.11784	0.21344	0.12482	0.044225	0.19092	0.16553	0.15016	0.11447	0.1642	0.16806	0.11204	-2.6542	-2.2521	-3.3083	-2.6208	-2.5833	-3.275	-2.5208	-3.1292	-3.0771	-2.6063	-3.2062	-2.7271	-2.6188	-3.3458	-2.6188	-2.8563	-5.794	182.786	98.999	189.859	-51.219	167.200	228.869	159.134	220.523	-65.769	208.874	194.876	-57.473	-34.370	-53.906	-83.684	0.00017413	0.00031716	0.00010239	1161.6	2.3812e-06	3.0839e-06	1253.2	243.87	3.7305e-06	4.5052e-06	308.29	84.559	67.684	19.614	3.9501e-06	26.933	0.00062664	0.00099821	0.00026762	1143.7	1.0013e-05	1.0899e-05	1236.2	242.81	9.5224e-06	1.0881e-05	307.29	85.489	68.537	19.916	1.0466e-05	27.515	-41.692	10.922	-16.695	-91.022	71.724	85.876	-91.076	-83.749	41.600	74.865	-83.916	-77.509	-76.560	-69.401	71.616	-69.942	-8191	255	
3350.573	1	1	0	0	0.22704	0.1349	0.074288	0.22457	0.11082	0.080855	0.04923	0.23319	0.18853	0.10357	0.17818	0.11678	0.087183	0.10245	0.087672	0.2606	-2.6729	-2.2271	-3.1396	-2.8521	-2.5062	-3.4	-2.8354	-2.9542	-3.1542	-2.4771	-3.2875	-3.0125	-2.5458	-3.3292	-2.5292	-3.0104	185.687	65.498	97.323	109.887	-97.058	2.309	55.324	224.685	8.440	-94.987	215.142	-57.662	176.451	151.270	-53.880	230.747	0.00017354	0.00024391	6.8793e-05	1160.4	2.9895e-06	2.3269e-06	1251.2	243.8	5.7623e-07	5.8077e-06	308.78	85.239	67.715	19.496	4.0887e-06	27.026	0.0006411	0.00099549	0.00026828	1144.7	9.9697e-06	1.0684e-05	1234.2	242.77	9.775e-06	1.1373e-05	307.43	85.668	68.544	19.923	1.0291e-05	27.509	-33.408	2.321	-44.675	-91.298	40.111	22.119	-90.931	-83.555	189.628	59.220	-83.854	-77.137	-76.814	-69.538	78.485	-70.248	-8191	255	
3350.670	1	1	0	0	0.06641	0.35877	0.17526	0.39704	0.20061	0.1752	0.117	0.29997	0.07651	0.29953	0.048562	0.1946	0.085514	0.0216	0.23754	0.15028	-2.9104	-2.4938	-3.1708	-3.2438	-2.4062	-3.4083	-2.7354	-2.8083	-3.1542	-2.5708	-3.2313	-3.1354	-2.45	-3.2292	-2.7188	-2.7729	13.950	-45.532	86.196	221.220	-44.272	216.100	11.884	244.747	247.846	249.784	87.235	170.276	66.406	187.731	224.838	237.292	0.0001692	0.00033967	0.00010995	1162.2	2.0025e-06	2.2507e-06	1253.7	244.79	3.7415e-06	5.9825e-06	309.07	84.48	67.593	19.532	5.997e-06	27.011	0.00064901	0.0010148	0.00027384	1144.6	9.9751e-06	1.0879e-05	1237.7	243	9.563e-06	1.1287e-05	307.16	85.415	68.678	19.963	1.0244e-05	27.593	-39.677	-52.873	-45.987	-91.182	99.882	70.196	-90.924	-83.903	86.578	23.038	-84.178	-77.165	-76.520	-69.587	58.632	-70.197	-8191	255	
3350.741	1	1	0	0	0.14501	0.1243	0.25702	0.22812	0.11138	0.41232	0.17377	0.18493	0.20882	0.069804	0.14079	0.14202	0.23727	0.18692	0.26099	0.16657	-2.9667	-2.4583	-3.0354	-3.1625	-2.5417	-3.3396	-2.9	-2.8563	-3.4	-2.5979	-2.9917	-3.2521	-2.4292	-3.3458	-2.7792	-2.6292	18.321	8.242	-7.526	235.992	241.812	-96.857	170.226	126.560	158.272	173.883	119.038	225.813	-94.981	251.320	107.653	104.975	0.00016717	0.00030213	0.00017529	1159.6	2.686e-06	2.8395e-06	1253.1	244.63	3.4583e-06	3.5912e-06	308.55	84.737	67.936	19.642	2.1906e-06	26.946	0.00065787	0.0010041	0.00027865	1146	9.8954e-06	1.1181e-05	1235.7	242.73	9.6759e-06	1.1486e-05	307.28	85.791	68.664	19.951	9.9149e-06	27.535	-41.562	-28.353	-22.140	-90.999	43.290	68.275	-91.266	-83.616	35.266	35.146	-84.396	-77.178	-76.386	-69.862	-1.716	-70.158	-8191	255	
3350.862	1	1	0	0	0.070245	0.30267	0.1545	0.30228	0.43451	0.1127	0.16346	0.10717	0.25079	0.28631	0.17189	0.27368	0.24601	0.10947	0.15412	0.2347	-2.9729	-2.4458	-2.8833	-3.1708	-2.4125	-3.2438	-2.7479	-2.4583	-3.5438	-2.6729	-3.0042	-3.1542	-2.3375	-3.1646	-2.975	-2.4083	-49.406	140.566	-5.152	216.818	11.805	113.809	223.896	-56.900	-11.228	204.480	201.203	70.719	249.915	99.046	-46.166	-49.192	0.0002009	0.00036236	0.00012318	1163.8	3.1826e-06	2.3355e-06	1253.4	244.36	4.9293e-06	4.369e-06	307.32	85.139	68.431	19.565	2.5048e-06	27.014	0.00066319	0.0010203	0.0002796	1145.6	1.0293e-05	1.0908e-05	1238.1	243.17	1.0013e-05	1.1143e-05	307.09	85.687	68.807	19.951	1.016e-05	27.481	-38.357	-14.631	-9.481	-91.022	31.153	69.731	-91.074	-83.724	33.200	54.620	-84.148	-77.327	-76.773	-69.852	24.338	-70.188	-8191	255	
3350.956	1	1	0	0	0.17367	0.15804	0.096505	0.32347	0.17455	0.18005	0.25638	0.068143	0.10245	0.10178	0.2654	0.27642	0.11718	0.19405	0.092158	0.065968	-2.8937	-2.7687	-2.6354	-3.3521	-2.4208	-3.1521	-3.0583	-2.6229	-3.2771	-2.7604	-2.6167	-3.4208	-2.4688	-3.1729	-2.9729	-2.4042	55.630	135.532	68.857	246.519	161.496	41.572	151.936	-81.201	-68.815	210.565	255.339	167.057	242.240	93.318	-73.492	145.782	0.00012303	0.00044088	0.00011248	1164.2	3.0887e-06	2.3162e-06	1250.7	244.14	2.0166e-06	3.4634e-06	307.75	84.787	68.24	19.726	4.8397e-06	27.061	0.00068254	0.0010043	0.00026659	1146.2	1.0183e-05	1.0937e-05	1235.8	243.15	9.892e-06	1.118e-05	307.06	85.588	68.681	19.962	1.006e-05	27.462	-53.557	-5.359	-11.874	-91.389	35.611	36.386	-91.021	-83.485	57.171	44.393	-83.985	-77.082	-76.718	-69.764	47.228	-70.512	-8191	255	
3351.052	1	1	0	0	0.10202	0.1069	0.13141	0.089193	0.13843	0.068283	0.091957	0.1633	0.15487	0.39449	0.15341	0.064162	0.12415	0.052729	0.20663	0.15602	-2.9021	-2.7042	-2.5833	-3.4542	-2.4729	-3.0708	-3.1917	-2.5125	-3.2292	-2.8708	-2.575	-3.2354	-2.5375	-2.9125	-3.2313	-2.5917	81.165	139.460	32.515	181.665	44.761	-97.448	102.675	226.095	145.148	130.406	214.273	137.955	-70.811	112.074	-42.203	-38.888	0.00016659	0.00021368	3.937e-05	1159.7	3.9086e-06	4.8813e-06	1251.1	243.3	1.4845e-06	1.7361e-06	307.53	84.334	68.476	19.65	2.2287e-06	27.086	0.00065273	0.00099041	0.00027145	1145.4	1.0318e-05	1.0575e-05	1235.4	242.7	9.8586e-06	1.0524e-05	307.28	85.42	68.609	19.994	9.5231e-06	27.523	-45.690	-11.252	-84.051	-91.224	64.349	55.521	-90.909	-83.761	-2.844	64.436	-83.596	-77.139	-76.533	-69.683	11.566	-70.259	-8191	255	
3351.149	1	1	0	0	0.1268	0.10321	0.16448	0.10695	0.076011	0.056117	0.22212	0.13609	0.15288	0.26265	0.39171	0.21854	0.13298	0.085119	0.2939	0.30857	-2.7896	-2.8833	-2.4875	-3.4562	-2.5333	-2.8854	-3.4167	-2.3833	-3.2292	-2.8563	-2.4229	-3.3312	-2.5	-2.5792	-3.275	-2.4521	73.448	-26.755	-69.363	144.990	70.145	201.058	186.897	214.297	-91.622	121.871	51.177	-54.128	184.502	51.507	161.578	77.270	0.00016722	0.00037149	0.00010579	1164.7	3.3226e-06	2.894e-06	1246.2	243.73	2.5453e-06	2.4303e-06	309.62	84.22	68.203	19.472	4.8421e-06	27.088	0.00064163	0.00091668	0.00027175	1146.4	9.7916e-06	1.0487e-05	1232.9	242.69	9.5397e-06	1.0047e-05	308.19	85.534	68.551	19.944	9.5494e-06	27.507	-58.247	-8.607	-41.007	-90.973	120.192	75.953	-91.077	-83.352	50.097	12.674	-83.679	-76.879	-76.680	-69.371	28.996	-70.151	-8191	255	
3351.245	1	1	0	0	0.060673	0.3533	0.089733	0.25192	0.10379	0.14722	0.22732	0.12751	0.099215	0.1258	0.31286	0.1656	0.13352	0.052156	0.2292	0.11815	-2.7542	-2.9479	-2.5208	-3.3146	-2.7646	-2.6562	-3.575	-2.5833	-2.95	-3.1625	-2.3146	-3.3854	-2.7458	-2.5875	-3.3146	-2.4396	212.462	231.061	38.012	209.497	-4.055	-87.915	225.341	99.963	64.761	123.407	109.219	203.705	10.563	89.793	173.846	183.428	0.00011984	0.00042938	0.00010059	1158.3	3.035e-06	8.1503e-07	1254.1	242.73	4.2568e-06	1.9182e-06	306.13	84.728	67.359	19.783	3.2342e-06	27.144	0.00062724	0.00090763	0.00026108	1145.9	9.7442e-06	9.9619e-06	1236.9	242.4	9.44e-06	1.0112e-05	306.32	85.501	68.552	20.014	9.5218e-06	27.551	-35.061	-22.663	43.345	-91.281	66.817	26.293	-91.209	-83.605	75.127	58.835	-84.041	-77.127	-76.381	-69.752	32.097	-70.326	-8191	255	
3351.341	1	1	0	0	0.23915	0.17273	0.070243	0.12382	0.30197	0.23617	0.22225	0.077384	0.10551	0.13269	0.23159	0.23837	0.40796	0.1098	0.11391	0.067136	-2.6292	-2.9896	-2.5021	-3.4083	-2.8729	-2.6771	-3.4146	-2.6354	-2.9521	-3.1833	-2.4625	-3.2229	-2.8438	-2.5625	-3.3271	-2.7	143.182	175.241	116.058	218.349	7.796	-43.677	161.821	30.758	139.418	180.244	-81.857	241.449	120.407	82.457	64.946	14.188	0.00016454	0.00051059	0.00013349	1164.5	3.1239e-06	2.6949e-06	1254.5	243.47	6.0347e-06	3.3517e-06	307.83	84.372	67.589	19.59	2.7094e-06	27.159	0.00062696	0.00089661	0.00026223	1146.5	9.4629e-06	1.0433e-05	1236.9	242.48	9.4621e-06	1.0019e-05	307.12	85.465	68.391	19.895	9.8239e-06	27.529	-47.555	0.290	-19.886	-91.114	28.386	74.385	-91.027	-83.730	52.840	59.853	-84.016	-77.011	-76.563	-69.494	53.670	-69.975	-8191	255	
3351.437	1	1	0	0	0.13647	0.071231	0.21351	0.14183	0.14932	0.19353	0.31777	0.16423	0.10149	0.16092	0.090168	0.1442	0.05384	0.35228	0.17879	0.072034	-2.4375	-3.1063	-2.4625	-3.2562	-2.8458	-2.4542	-3.4208	-2.7687	-2.6729	-3.2188	-2.3958	-3.1312	-3.0979	-2.4813	-3.2417	-2.4604	-11.756	35.233	45.631	220.837	-33.489	64.706	235.077	216.765	2.894	5.530	165.412	258.233	210.707	230.686	68.586	218.210	0.00016564	0.00041428	0.00010518	1164.4	6.1465e-07	3.0285e-06	1248.6	242.84	2.8816e-06	2.8381e-06	306.92	84.308	68.099	19.636	4.1583e-06	27.033	0.00063313	0.00094289	0.00026926	1146.6	9.6098e-06	1.0451e-05	1235.2	242.49	9.4716e-06	1.0523e-05	306.87	85.507	68.639	19.97	1.008e-05	27.482	-57.440	3.646	-2.461	-91.184	182.561	5.792	-91.152	-83.602	9.792	64.050	-83.751	-77.138	-76.834	-69.315	51.242	-70.063	-8191	255	
3351.533	1	1	0	0	0.12636	0.12556	0.31204	0.21151	0.1497	0.1914	0.31058	0.16493	0.30087	0.14257	0.20803	0.086127	0.32798	0.28667	0.20742	0.20831	-2.3063	-3.1458	-2.6292	-3.25	-3.025	-2.3937	-3.4479	-2.8646	-2.7083	-3.3688	-2.4958	-3.0667	-3.1958	-2.5563	-3.2875	-2.8333	11.211	151.387	-42.854	208.764	47.443	67.028	130.117	166.656	169.314	1.022	-88.474	114.616	13.492	-71.491	204.906	-23.132	0.00014561	0.00032702	0.0001627	1168	1.6911e-06	2.4819e-06	1250.3	243.61	1.053e-06	2.3549e-06	307.87	84.721	68.233	19.484	5.5295e-06	26.786	0.00064731	0.00091569	0.00028177	1147.6	9.6998e-06	1.0978e-05	1235.2	242.75	9.6926e-06	1.0472e-05	307.27	85.47	68.679	19.913	1.0252e-05	27.46	-32.858	-38.331	-4.982	-91.183	-100.250	77.736	-91.289	-83.608	192.180	76.169	-84.137	-77.225	-77.232	-70.040	72.908	-70.344	-8191	255	
3351.654	1	1	0	0	0.26084	0.14278	0.20305	0.068381	0.051241	0.18344	0.23393	0.18008	0.037076	0.23906	0.023055	0.10556	0.19282	0.087968	0.16151	0.19035	-2.2062	-3.2833	-2.4896	-2.9083	-3.0479	-2.6167	-3.2042	-2.9688	-2.4958	-3.2396	-2.775	-2.925	-3.1604	-2.4604	-3.1042	-2.9354	125.273	222.666	13.793	241.038	246.761	95.646	226.007	152.103	203.170	248.218	6.343	187.219	74.242	-92.968	38.921	-52.967	0.00019536	0.00029779	9.9193e-05	1159.6	3.5372e-06	2.7916e-06	1248.1	243.24	3.9424e-06	5.3523e-06	308.18	84.6	68.018	19.588	2.5136e-06	26.856	0.00063366	0.00094307	0.00026851	1146.1	9.4665e-06	1.1289e-05	1236.9	242.28	9.6311e-06	1.069e-05	307.27	85.492	68.615	19.933	1.0042e-05	27.451	-50.558	10.793	45.042	-90.936	33.893	105.396	-91.021	-83.663	78.491	52.880	-84.105	-77.136	-76.850	-69.469	26.516	-70.611	-8191	255	
3351.750	1	1	0	0	0.080367	0.1293	0.025017	0.27335	0.1584	0.13882	0.015473	0.082281	0.06903	0.090956	0.17782	0.17903	0.1314	0.20022	0.14745	0.24636	-2.0938	-3.2646	-2.6583	-2.9354	-3.4104	-2.4688	-3.3771	-3.0625	-2.6083	-3.3042	-2.7771	-2.6792	-3.2125	-2.4583	-2.9417	-3.1437	38.813	195.663	59.447	232.954	-65.122	96.674	87.258	197.337	211.877	155.336	187.926	214.134	187.398	-32.430	30.964	81.453	0.00024088	0.0004392	0.00010427	1160.8	1.2633e-06	1.9805e-06	1256.8	243.39	3.9286e-06	4.3923e-06	307.52	84.754	68.332	19.557	3.8577e-06	26.869	0.00067027	0.00097647	0.0002766	1145.9	9.5223e-06	1.1538e-05	1238.6	242.56	9.8377e-06	1.0915e-05	307.32	85.71	68.705	19.959	1.003e-05	27.502	-57.181	-16.480	19.163	-91.034	-33.723	104.316	-90.932	-83.631	63.118	28.880	-83.991	-77.177	-76.511	-69.427	85.696	-70.284	-8191	255	
3351.846	1	1	0	0	0.11177	0.13284	0.10326	0.37764	0.09012	0.20518	0.16973	0.16482	0.04903	0.064175	0.19535	0.090566	0.17326	0.069933	0.13065	0.079523	-2.1792	-3.1813	-2.8021	-2.7583	-3.4667	-2.6167	-3.1021	-3.225	-2.6167	-3.2771	-2.9667	-2.7667	-3.4833	-2.575	-3.0292	-3.1458	101.111	113.983	-13.755	245.751	-23.924	97.108	245.240	229.296	-51.066	17.347	188.046	-76.302	77.923	-15.751	-47.310	-90.061	0.00017307	0.00048179	0.00011746	1158.2	2.2029e-06	3.9484e-06	1251.2	243.46	2.7635e-06	9.8567e-07	307.85	83.737	67.772	19.558	8.1704e-07	26.99	0.00069888	0.00096866	0.00028702	1144.6	1.0141e-05	1.1199e-05	1236.6	242.52	9.9697e-06	1.0942e-05	306.96	85.271	68.479	19.96	1.0109e-05	27.457	-49.760	-18.059	-30.407	-91.149	25.800	54.980	-91.148	-83.539	-12.769	40.217	-84.083	-77.358	-76.666	-69.566	65.543	-70.138	-8191	255	
3351.942	1	1	0	0	0.22788	0.13965	0.18221	0.18711	0.14283	0.29271	0.13225	0.12034	0.15277	0.11987	0.063762	0.10317	0.25664	0.20618	0.08373	0.13231	-2.0333	-3.1542	-2.8042	-2.8125	-3.3771	-2.6479	-3.1729	-3.2687	-2.5375	-3.2562	-3.0687	-2.5854	-3.3625	-2.6042	-2.7875	-3.4458	184.715	-15.117	9.739	205.988	232.468	250.086	28.556	123.945	-92.603	219.806	200.541	99.458	134.556	234.332	70.126	-45.300	0.00016663	0.00023948	0.00013131	1162	3.4815e-06	3.7329e-06	1250.9	244.26	5.2249e-06	4.3931e-06	308.82	84.846	67.978	19.572	2.2305e-06	26.709	0.00068803	0.00095509	0.00026863	1144.4	1.0256e-05	1.1083e-05	1235.8	242.81	1.0256e-05	1.1039e-05	307.01	85.523	68.46	19.917	9.9226e-06	27.452	-41.574	-1.422	-8.991	-91.044	55.996	118.753	-91.177	-83.527	81.847	58.848	-83.976	-77.162	-76.535	-69.510	68.322	-70.460	-8191	255	
3352.037	1	1	0	0	0.088369	0.15042	0.12453	0.078999	0.15794	0.08953	0.35766	0.24355	0.1328	0.098047	0.078875	0.10193	0.25974	0.07323	0.15713	0.15448	-2.0438	-3.1042	-2.9458	-2.6667	-3.3667	-2.7396	-2.9646	-3.4833	-2.4104	-3.0771	-3.15	-2.5354	-3.2125	-2.7229	-2.5792	-3.2979	190.151	227.985	191.980	62.049	178.056	145.316	194.392	-47.135	150.554	45.448	210.264	-54.699	-100.932	162.340	218.144	63.186	0.00016182	0.0003883	3.3081e-05	1162	2.5809e-06	1.5319e-06	1251.4	243.01	4.2829e-06	2.9039e-06	307.4	84.528	67.903	19.539	4.1539e-06	27.126	0.00065943	0.00098904	0.00025846	1146.6	1.012e-05	1.0925e-05	1236.3	242.37	1.0124e-05	1.0645e-05	307.12	85.476	68.441	19.885	9.8809e-06	27.477	-54.387	-14.043	-14.410	-91.192	-12.301	49.146	-91.069	-83.658	31.148	59.300	-84.006	-77.139	-76.488	-69.419	94.001	-70.325	-8191	255	
3352.133	1	1	0	0	0.22147	0.126	0.12434	0.3616	0.19373	0.31076	0.17568	0.13121	0.17499	0.18947	0.2367	0.14066	0.11796	0.05955	0.17996	0.12575	-2.0917	-2.9854	-3.1375	-2.6479	-3.3271	-2.8604	-2.5958	-3.3229	-2.5312	-3.0125	-3.0521	-2.5604	-3.1875	-2.9229	-2.5104	-3.3104	59.444	64.745	-79.547	188.794	19.845	232.573	161.298	-49.058	9.565	-29.058	169.404	-40.111	174.900	127.130	110.421	201.571	0.0001436	0.00016622	0.00012549	1160.2	1.4391e-06	3.028e-06	1255	243.24	1.4003e-06	2.6811e-06	307.01	84.243	68.502	19.629	1.5888e-06	26.724	0.00068594	0.00096358	0.00026389	1144.5	1.0002e-05	1.1009e-05	1236.3	242.47	1.0084e-05	1.0791e-05	306.81	85.395	68.949	19.937	1.0318e-05	27.421	-34.489	-7.690	-18.327	-90.967	183.514	25.344	-91.212	-83.728	-24.626	51.236	-83.861	-77.188	-76.726	-69.709	62.222	-70.283	-8191	255	
3352.253	1	1	0	0	0.15041	0.025235	0.088828	0.15238	0.12262	0.12458	0.19777	0.12388	0.070831	0.15048	0.46894	0.14654	0.18647	0.1867	0.15639	0.17673	-2.2042	-2.8229	-3.2292	-2.4042	-3.2896	-2.9479	-2.7438	-3.4146	-2.8625	-2.8875	-3.3667	-2.5583	-3.2292	-2.8	-2.3542	-3.3896	4.653	-80.475	-94.816	-36.589	77.868	-70.089	-97.161	15.111	41.420	239.649	-98.285	250.643	-19.469	211.146	-27.756	-79.185	0.00011145	0.00045638	7.7911e-05	1160.9	3.3659e-06	3.1345e-06	1254.7	243.75	2.4055e-06	1.8614e-06	308.96	84.276	67.688	19.515	4.9574e-06	27.224	0.00069541	0.00098099	0.00026565	1145.5	1.027e-05	1.0898e-05	1237	242.92	9.8652e-06	1.0832e-05	307.3	85.388	68.604	19.921	1.0446e-05	27.53	-59.864	-23.556	3.675	-90.952	49.107	86.203	-90.977	-83.470	88.675	104.579	-84.371	-77.013	-76.196	-69.852	44.765	-70.090	-8191	255	
3352.350	1	1	0	0	0.15472	0.37033	0.17263	0.068769	0.21964	0.054197	0.15058	0.31624	0.11162	0.18895	0.20637	0.12375	0.32597	0.17516	0.16768	0.095175	-2.5083	-2.675	-3	-2.5604	-3.1188	-2.8187	-2.5354	-3.2771	-2.7083	-2.6896	-3.3729	-2.4625	-2.8604	-3.15	-2.4875	-3.1188	10.912	-59.010	69.273	170.759	116.854	243.698	143.741	142.020	-0.277	155.444	133.946	84.760	-66.625	-59.419	-36.798	143.492	0.00015136	0.00046281	7.4559e-05	1158.2	2.3935e-06	4.223e-06	1249.6	242.95	5.8027e-06	3.7864e-06	306.32	84.481	67.586	19.51	8.7595e-07	26.878	0.00068431	0.00098378	0.00028578	1142.5	1.024e-05	1.0672e-05	1235.6	242.63	1.0025e-05	1.1129e-05	307.14	85.355	68.508	19.945	1.0609e-05	27.483	-27.911	-12.377	-27.369	-91.253	16.653	54.225	-91.080	-83.526	42.274	95.143	-84.442	-77.428	-76.756	-69.238	51.190	-70.310	-8191	255	
3352.446	1	1	0	0	0.14791	0.18516	0.11009	0.12359	0.25655	0.15917	0.21478	0.045526	0.057752	0.18611	0.13455	0.29535	0.048245	0.15744	0.021073	0.28653	-2.3625	-2.3917	-3.25	-2.5771	-2.8271	-3.1833	-2.4542	-3.1125	-2.8937	-2.5354	-3.4729	-2.4854	-2.7875	-3.0375	-2.6333	-3.0958	230.549	177.290	123.056	195.062	203.565	-68.019	-94.829	18.934	100.836	-8.102	197.321	234.408	82.318	-64.058	115.304	234.915	0.00013823	0.00027197	0.00011514	1160.7	3.9472e-06	2.5565e-06	1248.3	243.27	3.9326e-06	3.02e-06	309.85	84.593	67.571	19.473	2.6695e-06	26.882	0.0006685	0.00097393	0.00027008	1145.6	1.0388e-05	1.0767e-05	1236.2	243.07	9.6573e-06	1.1348e-05	307.67	85.661	68.423	19.922	1.0866e-05	27.536	-50.979	32.635	8.994	-91.209	50.948	59.288	-90.983	-83.528	24.658	89.179	-83.944	-77.308	-76.226	-69.744	97.382	-70.087	-8191	255	
3352.542	1	1	0	0	0.15121	0.30508	0.22804	0.16071	0.091772	0.18339	0.32796	0.12601	0.25296	0.052228	0.39186	0.11678	0.15379	0.22527	0.076229	0.12693	-2.4083	-2.375	-3.1333	-2.7438	-2.7333	-3.2083	-2.7	-3.1396	-2.7687	-2.4521	-3.4062	-2.6937	-2.7687	-3.1333	-2.4938	-3.1708	159.356	50.482	49.797	132.433	27.018	75.209	211.023	14.120	61.194	53.969	214.973	239.813	-89.275	-24.685	-73.427	216.991	0.00017795	0.00032082	9.7751e-05	1160.1	1.6383e-06	8.2478e-07	1255.2	243.36	1.7284e-06	2.441e-06	309.6	84.381	68.227	19.608	7.5959e-07	27.109	0.00066028	0.00098625	0.00028814	1145	9.9865e-06	1.0949e-05	1237.1	243.04	9.7762e-06	1.1471e-05	307.79	85.448	68.58	19.936	1.0934e-05	27.513	-36.719	25.338	-31.330	-91.030	96.846	136.389	-91.252	-83.531	87.041	30.640	-83.705	-77.175	-76.769	-69.428	118.948	-70.458	-8191	255	
3352.638	1	1	0	0	0.11225	0.14479	0.17848	0.0095835	0.051476	0.070016	0.098824	0.11784	0.097834	0.038038	0.11344	0.21474	0.11279	0.28733	0.22042	0.096219	-2.7125	-2.2208	-3.1312	-2.6688	-2.8	-3.3042	-2.7146	-2.9979	-3.0125	-2.3771	-3.35	-2.8021	-2.75	-3.2125	-2.4021	-2.9479	-55.629	77.891	153.658	19.274	217.385	199.354	-92.800	196.394	-72.951	-95.791	189.571	249.147	32.558	118.896	49.322	-84.492	0.00011979	0.00041419	5.9964e-05	1165.5	3.8561e-06	5.7132e-06	1252.5	244.05	3.946e-06	6.129e-07	308.11	84.914	68.407	19.576	6.9848e-06	27.109	0.00064443	0.0010366	0.00028176	1145.3	9.8306e-06	1.1415e-05	1235.2	243.38	9.6759e-06	1.149e-05	307.71	85.565	68.742	19.949	1.0974e-05	27.547	-45.613	-44.908	-13.152	-91.336	67.703	42.239	-90.927	-83.416	36.982	24.124	-83.747	-77.247	-76.892	-69.421	47.884	-70.220	-8191	255	
3352.734	1	1	0	0	0.17387	0.31489	0.12272	0.12559	0.23171	0.23041	0.1544	0.32622	0.10921	0.17308	0.13252	0.13146	0.19062	0.20219	0.14115	0.20235	-2.675	-2.3688	-3.0312	-2.8667	-2.5042	-3.1542	-2.5854	-2.9229	-3.1312	-2.5417	-3.2229	-2.8937	-2.5104	-3.4292	-2.5146	-2.925	206.430	55.076	-93.233	150.237	-83.324	-33.693	-65.116	192.070	135.768	-77.889	211.194	94.275	-77.570	51.724	31.936	62.365	0.00017694	0.00019084	0.00014417	1165.4	6.6089e-07	4.5708e-06	1253.8	243.52	2.6833e-06	1.9837e-06	307.7	84.418	67.344	19.58	3.8644e-06	26.994	0.00067456	0.0010037	0.00029182	1146.5	1.0199e-05	1.1729e-05	1236.9	242.62	9.7475e-06	1.1624e-05	307.04	85.434	68.333	19.949	1.0694e-05	27.551	-51.057	-0.092	-4.182	-91.215	-65.303	56.179	-91.193	-83.547	65.113	38.090	-83.947	-77.148	-76.520	-69.780	43.382	-70.043	-8191	255	
3352.830	1	1	0	0	0.057623	0.077636	0.077053	0.13185	0.11166	0.21907	0.30668	0.084444	0.08704	0.26843	0.17138	0.047588	0.09755	0.012004	0.16774	0.20576	-2.9188	-2.1937	-3.05	-3.1479	-2.5896	-3.3396	-2.5187	-2.7417	-3.2708	-2.4458	-3.2	-2.9708	-2.3854	-3.3438	-2.7417	-2.7271	208.805	110.245	208.356	163.409	-37.429	189.272	221.561	-80.174	24.157	26.982	-78.066	37.851	119.357	171.566	202.643	176.188	0.00013913	0.00026918	0.00014717	1157.4	2.4396e-06	2.5069e-06	1253.9	243.59	3.0321e-06	1.8833e-06	308.14	84.521	67.751	19.62	7.5031e-07	26.883	0.00067676	0.0010169	0.00027989	1145.6	1.059e-05	1.1459e-05	1236.5	243.07	1.0321e-05	1.16e-05	306.83	85.452	68.546	19.922	1.0383e-05	27.448	-61.334	-14.988	0.421	-91.073	87.907	106.199	-91.269	-83.455	81.320	80.905	-83.961	-77.004	-76.657	-69.511	-89.863	-70.088	-8191	255	
3352.927	1	1	0	0	0.24011	0.28083	0.1684	0.48171	0.12708	0.057871	0.26408	0.21305	0.20908	0.21792	0.20918	0.1266	0.13645	0.22851	0.065997	0.20772	-3.0458	-2.5958	-2.9313	-3.1312	-2.4833	-2.9167	-2.8208	-2.8271	-3.3063	-2.5083	-3.0312	-3.0229	-2.4646	-3.2542	-2.6417	-2.6792	0.678	52.506	-84.163	232.048	154.903	141.076	230.108	-42.656	92.404	180.453	199.514	151.808	254.978	245.631	19.256	-100.052	0.0001023	0.00029571	7.8158e-05	1164.2	3.3953e-06	1.0104e-06	1255.5	243.91	3.1477e-06	1.2094e-06	307.85	84.24	67.342	19.604	2.1412e-06	26.934	0.00069225	0.0010242	0.00027822	1146.9	1.0784e-05	1.1262e-05	1238.5	242.72	1.0258e-05	1.1079e-05	307.69	85.38	68.368	19.964	9.7668e-06	27.5	-25.067	-8.267	26.893	-90.994	60.211	15.684	-91.336	-83.486	51.479	55.927	-84.054	-77.324	-76.282	-69.667	49.970	-70.173	-8191	255	
3353.045	1	1	0	0	0.11422	0.063109	0.14031	0.20028	0.12538	0.09964	0.18465	0.11146	0.18357	0.12329	0.070163	0.072479	0.0062169	0.081629	0.10026	0.080224	-3.0667	-2.5104	-2.7125	-3.3563	-2.5062	-3.2042	-2.9354	-2.5021	-3.2542	-2.6792	-2.7417	-3.1396	-2.2896	-3.1667	-2.8688	-2.5396	181.313	150.822	125.414	-98.704	-0.725	184.377	216.718	-13.404	165.728	162.120	-68.741	205.159	190.897	50.937	132.599	-56.693	0.0001639	0.00046987	6.4683e-05	1162.5	5.5284e-06	3.1593e-06	1251.2	243.42	1.6811e-06	4.7647e-06	305.78	84.684	67.949	19.58	1.1749e-06	26.824	0.00068534	0.0010294	0.0002785	1146.4	1.0519e-05	1.1338e-05	1236	242.37	1.0024e-05	1.1426e-05	306.79	85.626	68.559	19.879	9.8732e-06	27.433	-45.494	-10.743	3.584	-91.041	56.541	11.115	-91.065	-83.437	50.151	29.039	-83.617	-77.174	-76.993	-69.431	140.727	-69.810	-8191	255	
3353.142	1	1	0	0	0.21408	0.12531	0.10119	0.070135	0.18623	0.17062	0.052232	0.15962	0.10145	0.18694	0.026759	0.14435	0.12707	0.093243	0.22203	0.24809	-2.875	-2.6542	-2.7417	-3.1604	-2.5646	-3.1854	-3.4021	-2.4271	-3.3875	-2.7833	-2.6333	-3.2271	-2.5104	-3.0146	-3.0667	-2.3104	-92.720	159.617	88.600	25.345	164.584	57.330	232.406	177.725	-67.639	40.836	23.287	9.679	82.809	26.960	101.657	118.858	0.00019366	0.00035992	7.9516e-05	1162.1	1.9392e-06	1.8639e-06	1253.7	243.18	3.4014e-06	3.27e-06	308.27	84.797	67.736	19.493	5.111e-07	26.94	0.00068303	0.00097932	0.00028251	1146.3	1.0451e-05	1.0844e-05	1235.3	242.5	9.9888e-06	1.0859e-05	307.51	85.515	68.429	19.894	1.0109e-05	27.493	-43.855	-14.752	-24.635	-90.983	67.474	60.215	-91.052	-83.813	47.144	70.203	-83.753	-76.925	-76.336	-69.197	13.006	-70.453	-8191	255	
#DATA ENDS
