BOXY.EXE: ISS Imagent and Oximeter Data Acquisition Program Version 0.80
Ascii Record File

#ACQ INFORMATION
2  Detector Channels 
16  External MUX Channels 
1  Auxiliary Channels 
5000  Waveform (CCF) Frequency (Hz)
1  Waveforms Skipped 
30  Waveforms Averaged 
1  Cycles Averaged 
16  Acquisitions per Waveform 
10.0806  Updata Rate (Hz) 

#FILE INFORMATION
TRUE -- External MUX Channel results are PARSED.
FALSE -- AC DC and Phase are NOT grouped.
TRUE -- Companion Program Settings File CREATED.
FALSE -- AC data not excluded
FALSE -- DC data not excluded
FALSE -- Phase data not excluded
FALSE -- Auxillary Chn. data not excluded
Tab delimiters

#CALIBRATION STATE
TRUE -- Waveform Calibration Values APPLIED.


#AUX CALIBRATION VALUES
Val Type	aux-1	

Term	1.0000e+00	
Factor	0.0000e+00	


#WF CALIBRATION VALUES
A = Detector Channel
Val Type	A-AC1	A-AC2	A-AC3	A-AC4	A-AC5	A-AC6	A-AC7	A-AC8	A-AC9	A-AC10	A-AC11	A-AC12	A-AC13	A-AC14	A-AC15	A-AC16	A-DC1	A-DC2	A-DC3	A-DC4	A-DC5	A-DC6	A-DC7	A-DC8	A-DC9	A-DC10	A-DC11	A-DC12	A-DC13	A-DC14	A-DC15	A-DC16	A-Ph1	A-Ph2	A-Ph3	A-Ph4	A-Ph5	A-Ph6	A-Ph7	A-Ph8	A-Ph9	A-Ph10	A-Ph11	A-Ph12	A-Ph13	A-Ph14	A-Ph15	A-Ph16	

Term	0.00000e+00	0.00000e+00	0.00000e+00	0.00000e+00	0.00000e+00	0.00000e+00	0.00000e+00	0.00000e+00	0.00000e+00	0.00000e+00	0.00000e+00	0.00000e+00	0.00000e+00	0.00000e+00	0.00000e+00	0.00000e+00	0.00000e+00	0.00000e+00	0.00000e+00	0.00000e+00	0.00000e+00	0.00000e+00	0.00000e+00	0.00000e+00	0.00000e+00	0.00000e+00	0.00000e+00	0.00000e+00	0.00000e+00	0.00000e+00	0.00000e+00	0.00000e+00	0.00000e+00	0.00000e+00	0.00000e+00	0.00000e+00	0.00000e+00	0.00000e+00	0.00000e+00	0.00000e+00	0.00000e+00	0.00000e+00	0.00000e+00	0.00000e+00	0.00000e+00	0.00000e+00	0.00000e+00	0.00000e+00	
Factor	1.00000e+00	1.00000e+00	1.00000e+00	1.00000e+00	1.00000e+00	1.00000e+00	1.00000e+00	1.00000e+00	1.00000e+00	1.00000e+00	1.00000e+00	1.00000e+00	1.00000e+00	1.00000e+00	1.00000e+00	1.00000e+00	1.00000e+00	1.00000e+00	1.00000e+00	1.00000e+00	1.00000e+00	1.00000e+00	1.00000e+00	1.00000e+00	1.00000e+00	1.00000e+00	1.00000e+00	1.00000e+00	1.00000e+00	1.00000e+00	1.00000e+00	1.00000e+00	X	X	X	X	X	X	X	X	X	X	X	X	X	X	X	X	

B = Detector Channel
Val Type	B-AC1	B-AC2	B-AC3	B-AC4	B-AC5	B-AC6	B-AC7	B-AC8	B-AC9	B-AC10	B-AC11	B-AC12	B-AC13	B-AC14	B-AC15	B-AC16	B-DC1	B-DC2	B-DC3	B-DC4	B-DC5	B-DC6	B-DC7	B-DC8	B-DC9	B-DC10	B-DC11	B-DC12	B-DC13	B-DC14	B-DC15	B-DC16	B-Ph1	B-Ph2	B-Ph3	B-Ph4	B-Ph5	B-Ph6	B-Ph7	B-Ph8	B-Ph9	B-Ph10	B-Ph11	B-Ph12	B-Ph13	B-Ph14	B-Ph15	B-Ph16	

Term	0.00000e+00	0.00000e+00	0.00000e+00	0.00000e+00	0.00000e+00	0.00000e+00	0.00000e+00	0.00000e+00	0.00000e+00	0.00000e+00	0.00000e+00	0.00000e+00	0.00000e+00	0.00000e+00	0.00000e+00	0.00000e+00	0.00000e+00	0.00000e+00	0.00000e+00	0.00000e+00	0.00000e+00	0.00000e+00	0.00000e+00	0.00000e+00	0.00000e+00	0.00000e+00	0.00000e+00	0.00000e+00	0.00000e+00	0.00000e+00	0.00000e+00	0.00000e+00	-5.89530e+01	-1.44325e+02	-1.41559e+02	-1.84369e+02	-4.86945e+01	-5.85597e+01	-1.57614e+02	-1.62015e+02	-4.53572e+01	-6.62197e+01	-1.71602e+02	-1.75721e+02	-1.84363e+02	-1.78174e+02	-3.82637e+01	-1.51058e+02	
Factor	1.74409e-05	1.37167e-04	4.48531e-05	1.56697e-01	1.36677e-06	1.62039e-06	1.61842e-01	5.41531e-02	1.20590e-06	1.56273e-06	1.95242e-01	3.23254e-02	2.24676e-02	8.29018e-03	1.30207e-06	1.20306e-02	2.34633e-06	2.56913e-06	7.14760e-07	8.26814e-02	2.78632e-08	2.81195e-08	8.00935e-02	2.86359e-02	2.76972e-08	2.79876e-08	9.66539e-02	1.63464e-02	1.19456e-02	4.40738e-03	2.77585e-08	6.14047e-03	X	X	X	X	X	X	X	X	X	X	X	X	X	X	X	X	



#DISTANCE SETTINGS
A = Detector Channel
A-1	A-2	A-3	A-4	A-5	A-6	A-7	A-8	A-9	A-10	A-11	A-12	A-13	A-14	A-15	A-16	

2.5000e+00	3.0000e+00	2.5000e+00	3.0000e+00	2.0000e+00	3.0000e+00	1.5000e+00	3.0000e+00	3.0000e+00	3.0000e+00	3.0000e+00	3.0000e+00	3.0000e+00	3.0000e+00	1.5000e+00	3.0000e+00	

B = Detector Channel
B-1	B-2	B-3	B-4	B-5	B-6	B-7	B-8	B-9	B-10	B-11	B-12	B-13	B-14	B-15	B-16	

1.0000e+01	1.0000e+01	1.0000e+01	1.4400e+00	1.0000e+01	1.0000e+01	1.5100e+00	1.9400e+00	1.0000e+01	1.0000e+01	1.9900e+00	2.4900e+00	2.4100e+00	2.9000e+00	1.0000e+01	2.9800e+00	




#DATA BEGINS
time	group	step	mark	flag	A-AC1	A-AC2	A-AC3	A-AC4	A-AC5	A-AC6	A-AC7	A-AC8	A-AC9	A-AC10	A-AC11	A-AC12	A-AC13	A-AC14	A-AC15	A-AC16	A-DC1	A-DC2	A-DC3	A-DC4	A-DC5	A-DC6	A-DC7	A-DC8	A-DC9	A-DC10	A-DC11	A-DC12	A-DC13	A-DC14	A-DC15	A-DC16	A-Ph1	A-Ph2	A-Ph3	A-Ph4	A-Ph5	A-Ph6	A-Ph7	A-Ph8	A-Ph9	A-Ph10	A-Ph11	A-Ph12	A-Ph13	A-Ph14	A-Ph15	A-Ph16	B-AC1	B-AC2	B-AC3	B-AC4	B-AC5	B-AC6	B-AC7	B-AC8	B-AC9	B-AC10	B-AC11	B-AC12	B-AC13	B-AC14	B-AC15	B-AC16	B-DC1	B-DC2	B-DC3	B-DC4	B-DC5	B-DC6	B-DC7	B-DC8	B-DC9	B-DC10	B-DC11	B-DC12	B-DC13	B-DC14	B-DC15	B-DC16	B-Ph1	B-Ph2	B-Ph3	B-Ph4	B-Ph5	B-Ph6	B-Ph7	B-Ph8	B-Ph9	B-Ph10	B-Ph11	B-Ph12	B-Ph13	B-Ph14	B-Ph15	B-Ph16	aux-1	digaux	

2020.220	1	1	0	256	0.42053	0.20344	0.02545	0.25982	0.053385	0.076204	0.13511	0.223	0.27593	0.16243	0.31314	0.13047	0.072232	0.19209	0.091046	0.16004	-2.6729	-2.9167	-3.6146	-3.0542	-3.3958	-3.5083	-2.8896	-3.5708	-2.9583	-2.8479	-3.5875	-3.0208	-3.3521	-3.5812	-2.7604	-3.6312	152.993	154.184	298.029	344.460	86.177	204.986	334.011	323.126	179.946	286.822	359.398	61.240	343.129	68.000	46.794	37.894	0.00058358	0.00083404	0.00025386	1230.9	3.5193e-06	5.5925e-06	1635.2	428.22	7.688e-06	4.9339e-06	642.97	216.84	127.53	39.591	3.6156e-06	78.355	0.00024546	0.00019865	5.4789e-05	1126.9	2.1759e-06	2.0271e-06	1506.6	393.21	2.1292e-06	2.0833e-06	577.83	199.15	117.21	36.615	2.1209e-06	72.48	217.678	120.338	116.005	49.011	226.130	157.426	49.078	53.090	228.571	211.629	52.301	57.332	57.347	62.226	235.371	61.949	-8191	255	
2020.317	1	1	0	0	0.10304	0.22499	0.056895	0.20098	0.27515	0.18062	0.26138	0.21467	0.17659	0.26168	0.050602	0.2661	0.072206	0.11438	0.082302	0.1837	-2.8646	-2.8438	-3.5771	-3.1208	-3.1729	-3.5208	-3.1562	-3.5563	-3.3375	-2.7792	-3.7438	-3.225	-3.2708	-3.6	-2.825	-3.4708	329.181	390.770	368.437	374.192	375.309	376.031	317.323	385.940	192.271	135.369	236.018	36.468	117.597	293.739	381.800	321.205	0.0005656	0.00088951	0.00016111	1219.1	8.3898e-06	1.1722e-05	1630.1	424.41	4.732e-06	1.0779e-05	647.99	215.89	126.49	39.64	3.5813e-06	79.224	0.00024141	0.00019413	5.3407e-05	1117.9	2.1281e-06	2.083e-06	1496.5	390.78	2.0991e-06	2.0357e-06	577.31	199.21	116.86	36.746	2.0221e-06	73.101	217.981	91.663	84.187	48.637	228.202	198.021	48.936	52.748	207.655	205.480	52.193	57.331	57.354	62.748	236.656	62.120	-8191	255	
2020.436	1	1	0	0	0.027827	0.057713	0.066186	0.028205	0.11073	0.25388	0.32274	0.097782	0.098763	0.1365	0.18259	0.44975	0.086796	0.15874	0.15565	0.024258	-3.0958	-2.8458	-3.5979	-3.1604	-2.9271	-3.7125	-2.9958	-3.575	-3.3875	-2.8208	-3.5771	-3.2125	-3.1604	-3.675	-2.7979	-3.4479	330.623	302.841	289.934	372.691	278.976	62.788	380.860	112.968	327.822	45.417	363.468	327.926	58.239	336.544	356.681	122.833	0.00057176	0.00063122	0.00016401	1201.2	6.5474e-06	6.8682e-06	1633.2	425.17	5.5128e-06	6.3589e-06	651.27	220.81	130.39	40.928	9.9085e-06	82.599	0.00024002	0.00019501	5.3891e-05	1105.4	2.1696e-06	2.0879e-06	1491.5	391.01	2.2072e-06	2.1364e-06	583.82	202.92	119.82	37.995	2.2458e-06	75.858	217.370	111.588	101.322	48.750	208.987	221.465	48.937	52.997	204.359	226.063	52.280	57.379	57.521	62.683	228.345	61.897	-8191	255	
2020.532	1	1	0	0	0.11985	0.18886	0.097503	0.11162	0.026337	0.21959	0.23933	0.27271	0.19682	0.16331	0.14754	0.37279	0.13805	0.33536	0.29665	0.36312	-3.0083	-2.6792	-3.4813	-3.1604	-2.8542	-3.475	-3.1458	-3.4062	-3.4917	-2.8063	-3.5583	-3.4104	-3.0479	-3.4646	-2.8604	-3.1896	178.582	226.759	122.239	98.360	105.079	49.296	282.410	394.514	382.892	235.030	310.853	370.828	386.528	344.955	165.951	395.083	0.00060218	0.00069042	0.0002204	1220.6	5.2551e-06	9.2301e-06	1644	433.43	5.9563e-06	7.7127e-06	660.01	225.64	132.2	41.971	7.7214e-06	82.764	0.00024389	0.00019832	5.6027e-05	1119.3	2.2453e-06	2.1232e-06	1507	399.8	2.207e-06	2.1406e-06	592.56	206.75	122.06	38.804	2.2831e-06	76.088	220.610	112.051	96.170	48.940	214.763	230.168	49.236	53.158	223.822	159.656	52.719	57.141	57.489	62.746	218.890	62.254	-8191	255	
2020.629	1	1	0	0	0.22629	0.070678	0.17561	0.17533	0.27427	0.077709	0.29558	0.22647	0.06535	0.1391	0.061682	0.14846	0.24137	0.21022	0.061128	0.33034	-3.075	-2.7313	-3.3438	-3.3354	-2.9062	-3.4875	-3.1562	-3.2042	-3.5896	-2.8667	-3.4729	-3.6458	-2.9229	-3.7188	-3.0792	-3.2812	247.060	314.094	124.083	308.544	318.463	246.687	363.816	364.110	250.500	293.283	311.856	377.950	62.106	322.928	137.603	297.816	0.0005374	0.00056403	0.0002	1209.1	4.7379e-06	1.2376e-05	1616.9	424.25	5.2443e-06	7.0341e-06	644.62	219.39	127.97	41.082	5.6724e-06	80.574	0.00024056	0.00019628	5.3996e-05	1110.3	2.1325e-06	2.136e-06	1483.6	390.65	2.0861e-06	2.0574e-06	577.49	201.64	118.5	37.826	2.1098e-06	74.355	221.597	81.124	100.176	49.045	224.206	168.857	49.275	53.174	242.539	175.196	52.743	57.302	57.592	62.691	175.305	62.229	-8191	255	
2020.749	1	1	0	0	0.21567	0.11618	0.20643	0.37967	0.30454	0.15292	0.2502	0.36313	0.27675	0.19088	0.32225	0.060536	0.061062	0.005678	0.19554	0.21396	-3.0458	-2.6813	-3.1458	-3.5354	-2.8479	-3.4833	-3.2417	-3.0667	-3.4833	-2.8792	-3.4354	-3.4	-2.8937	-3.6729	-3.2354	-2.8833	299.249	369.658	297.951	331.376	266.767	393.152	315.702	371.379	349.909	69.028	291.495	333.316	354.253	363.419	243.813	327.611	0.00058272	0.00092109	0.00021438	1189.8	5.233e-06	1.5076e-06	1611.2	425.71	7.8282e-06	5.6028e-06	647.21	219	129.62	41.13	4.1096e-06	81.476	0.00023091	0.00019068	5.2355e-05	1093.3	2.0714e-06	2.0414e-06	1473.6	391.17	1.9955e-06	2.0302e-06	576.8	201.29	118.87	38.043	2.0083e-06	75.085	220.331	110.964	128.524	49.294	222.266	139.079	49.674	53.488	229.169	184.595	52.914	57.621	57.480	62.678	253.725	61.977	-8191	255	
2020.821	1	1	0	0	0.31328	0.43724	0.093292	0.040903	0.17346	0.15634	0.13757	0.1831	0.11985	0.32223	0.31246	0.13306	0.24952	0.10712	0.28084	0.47426	-3.4375	-2.9437	-3.2083	-3.5667	-2.825	-3.5458	-3.6521	-2.9771	-3.7333	-2.9813	-3.1417	-3.6375	-2.9646	-3.4938	-3.3646	-3.0354	194.951	55.790	313.197	323.498	106.613	298.587	299.356	375.004	177.572	362.423	64.545	350.078	364.046	106.250	136.590	338.433	0.00060007	0.00065471	0.00017068	1198.9	4.1042e-06	8.1446e-06	1596.5	414.83	5.8202e-06	6.9008e-06	627.41	216.16	125.93	40.712	4.948e-06	81.619	0.00023541	0.00018436	5.1746e-05	1096	2.0955e-06	2.0483e-06	1465.3	382.91	2.152e-06	2.0914e-06	564.92	198.78	115.92	37.75	2.1206e-06	75.236	221.074	126.122	109.215	49.208	230.740	233.732	49.055	53.093	217.601	172.117	52.197	57.573	57.239	62.855	212.992	61.910	-8191	255	
2020.917	1	1	0	0	0.2003	0.19403	0.1962	0.17353	0.067064	0.039909	0.23012	0.31714	0.15882	0.027275	0.13037	0.12342	0.10309	0.20002	0.11233	0.18138	-3.1375	-3.0062	-2.9979	-3.7958	-2.7896	-3.4083	-3.425	-2.8583	-3.5583	-3.0521	-3.1542	-3.8167	-2.9667	-3.3417	-3.4521	-2.8854	306.206	155.506	289.562	38.937	178.384	283.413	345.333	330.782	330.988	375.771	175.391	357.370	93.561	241.208	361.226	359.987	0.00054353	0.00057695	0.00016128	1190.6	6.1794e-06	3.4945e-06	1604.7	414.77	2.7476e-06	9.3375e-06	629.01	215.64	125.2	40.265	2.6395e-06	80.11	0.00023798	0.00019448	5.4788e-05	1094.5	2.1462e-06	2.0741e-06	1472.6	381.02	2.1088e-06	2.1271e-06	561.67	198	115.57	37.247	2.1012e-06	73.714	215.185	121.162	121.039	48.946	215.250	204.885	48.945	52.944	218.056	182.599	52.243	57.605	57.248	62.565	187.838	61.716	-8191	255	
2021.038	1	1	0	0	0.10911	0.16043	0.11127	0.059329	0.28267	0.15062	0.33044	0.20032	0.043966	0.44733	0.34038	0.034318	0.27174	0.29858	0.2797	0.2008	-3.0375	-3.075	-2.7938	-3.6063	-2.9229	-3.1771	-3.7188	-2.8458	-3.4521	-3.2646	-2.9521	-3.7917	-3.0729	-3.1375	-3.5542	-2.95	351.248	332.233	379.689	369.866	212.476	254.594	333.038	57.081	141.722	227.771	120.780	368.416	341.971	334.009	131.220	339.045	0.00060589	0.00059786	0.00032862	1198.1	8.5365e-06	7.9384e-06	1626.1	416.73	5.9602e-06	7.4677e-06	636.77	215.21	126.57	39.791	5.9597e-06	77.977	0.00023597	0.0001962	5.4682e-05	1104.4	2.205e-06	2.0881e-06	1489.2	384.12	2.1289e-06	2.0694e-06	569.8	197.3	116.96	36.738	2.0787e-06	71.513	221.809	108.744	100.829	48.845	216.312	198.366	48.843	52.528	222.487	211.782	52.517	57.200	56.895	62.551	204.031	62.139	-8191	255	
2021.132	1	1	0	0	0.15358	0.076883	0.29585	0.20961	0.21351	0.19489	0.096034	0.059102	0.15861	0.13669	0.27713	0.1335	0.15924	0.096859	0.25967	0.19469	-3.0833	-3.175	-2.9167	-3.8375	-2.9854	-3.1458	-3.8854	-3.0333	-3.2396	-3.4146	-2.9583	-3.7875	-3.2292	-3.0917	-3.5875	-3.0625	363.065	116.570	215.694	45.276	234.478	273.505	228.550	356.635	287.188	383.203	52.627	72.729	266.816	394.667	90.632	362.399	0.0005844	0.00070306	0.00021258	1234	3.505e-06	7.9793e-06	1645.7	428.47	5.17e-06	7.4982e-06	646.23	215.8	128.62	39.544	6.9793e-06	77.007	0.00023082	0.00019254	5.2401e-05	1132.5	2.0966e-06	2.0636e-06	1512.6	393	2.1156e-06	1.9831e-06	578.04	198.25	118.28	36.558	2.0231e-06	70.925	219.631	79.923	148.724	49.108	201.058	212.779	49.107	52.686	212.244	203.815	52.317	57.282	56.783	62.229	214.029	61.739	-8191	255	
2021.228	1	1	0	0	0.26618	0.10702	0.24861	0.35147	0.1356	0.01454	0.20456	0.28639	0.077045	0.091728	0.11547	0.12516	0.213	0.095965	0.053458	0.16458	-3.0604	-3.3833	-2.7333	-3.7979	-3.0833	-2.9146	-3.8729	-3.1437	-3.2896	-3.5042	-2.9292	-3.6	-3.2771	-3.1312	-3.6437	-3.0563	190.658	367.494	94.145	334.202	250.763	317.782	336.070	285.809	72.899	371.379	246.053	235.233	344.703	370.879	156.543	345.664	0.00058463	0.00070895	0.0002429	1244.4	6.7594e-06	3.4311e-06	1659.7	432.34	7.8061e-06	5.7523e-06	641.92	216.42	127.89	39.707	7.6439e-06	78.191	0.00023432	0.00018474	5.112e-05	1146.1	2.0798e-06	1.9975e-06	1525	397.16	2.1599e-06	2.0536e-06	578.99	199.02	118.11	36.742	2.0703e-06	71.873	218.514	94.294	120.943	48.931	197.518	150.974	49.200	52.594	208.125	196.150	52.381	57.148	56.835	62.436	243.052	61.982	-8191	255	
2021.349	1	1	0	0	0.085891	0.10684	0.13387	0.12868	0.30423	0.17407	0.2635	0.076183	0.27758	0.30428	0.35401	0.31907	0.16866	0.27049	0.13213	0.16136	-2.7958	-3.5396	-2.9167	-3.5792	-3.3396	-2.8229	-3.8667	-3.1437	-3.1417	-3.5021	-3.0333	-3.5417	-3.4542	-2.9396	-3.575	-3.2062	287.230	67.377	359.821	302.706	41.122	146.266	342.315	389.702	165.408	166.835	347.486	382.457	56.256	56.531	345.884	58.652	0.00052688	0.00068835	0.00017365	1250.8	5.1451e-06	6.4344e-06	1673.6	434.39	4.5942e-06	3.7506e-06	655.23	218.84	129.47	39.903	5.2119e-06	77.613	0.00023483	0.00019851	5.3247e-05	1148.6	2.0892e-06	2.1343e-06	1531.2	398.83	2.1325e-06	2.0427e-06	585.74	200.22	118.9	36.982	2.1345e-06	71.484	222.631	137.242	121.112	49.272	223.318	188.604	49.361	52.947	212.748	136.890	52.819	57.951	57.574	63.215	212.504	62.066	-8191	255	
2021.421	1	1	0	0	0.20528	0.12736	0.10182	0.38075	0.26628	0.21467	0.29234	0.24837	0.041752	0.26836	0.16909	0.21817	0.18089	0.25719	0.14932	0.2466	-2.6146	-3.6417	-2.7979	-3.6063	-3.4667	-2.8583	-3.875	-2.9917	-3.1125	-3.7458	-2.7542	-3.5208	-3.5271	-2.7812	-3.4729	-3.2854	219.830	110.338	67.218	382.314	50.858	39.652	290.577	300.968	394.125	184.145	285.636	44.086	358.808	83.667	351.430	355.116	0.00054286	0.00060854	0.0003072	1249.6	6.0656e-06	3.9548e-06	1667.5	436.18	3.232e-06	1.1956e-05	647.44	217.86	129.68	39.919	4.8519e-06	77.311	0.00023881	0.00018859	5.3284e-05	1149.7	2.0771e-06	2.091e-06	1530.2	400.71	2.1127e-06	2.0599e-06	582.96	200.28	119.29	36.869	2.0853e-06	71.105	221.401	124.109	125.476	49.178	191.539	216.905	49.266	52.817	217.788	167.485	52.408	57.381	57.152	62.618	196.452	62.013	-8191	255	
2021.517	1	1	0	0	0.11585	0.19451	0.392	0.1525	0.16584	0.082657	0.084186	0.18913	0.058348	0.29842	0.19249	0.3078	0.13802	0.022899	0.15582	0.061501	-2.6417	-3.5875	-2.9646	-3.4521	-3.5354	-2.875	-3.6542	-3.3812	-2.9	-3.6479	-3.0146	-3.4021	-3.6333	-3.0146	-3.575	-3.5604	57.800	347.562	42.055	339.420	80.681	269.610	175.689	357.992	393.956	230.715	284.987	88.992	326.865	318.447	220.339	382.140	0.00051674	0.00086045	0.00014022	1244.7	5.3281e-06	6.7202e-06	1658.8	432.16	9.913e-06	8.4593e-06	643.29	217.09	127.47	39.239	2.634e-06	76.639	0.00023495	0.00019058	5.2965e-05	1143.1	2.1325e-06	2.0347e-06	1519.1	396.62	2.0851e-06	2.0686e-06	577.63	198.23	117.6	36.344	2.0474e-06	70.784	216.856	109.351	116.068	49.470	224.978	187.738	49.662	54.039	202.142	173.452	52.331	57.250	57.213	62.022	227.097	61.697	-8191	255	
2021.613	1	1	0	0	0.14026	0.068117	0.090836	0.28833	0.23612	0.10025	0.45178	0.22396	0.14644	0.089449	0.20052	0.18747	0.20027	0.15999	0.24029	0.34183	-2.5771	-3.6312	-3.1458	-3.1896	-3.4229	-2.8292	-3.8688	-3.5042	-2.8667	-3.5604	-3.0958	-3.1354	-3.8521	-3.0896	-3.2771	-3.5021	279.349	160.203	310.560	384.616	43.018	380.074	345.187	366.807	56.499	346.087	163.960	360.974	345.833	100.715	248.577	319.660	0.0005705	0.00098364	0.00027108	1235	9.579e-06	1.2467e-05	1647.4	427.54	4.7372e-06	8.0856e-06	643.71	217.03	128.06	39.731	9.6036e-06	78.511	0.00023581	0.00019097	5.3208e-05	1133.9	2.1925e-06	2.0739e-06	1509.9	392.86	2.1481e-06	2.1146e-06	576.83	198.93	117.86	36.878	2.15e-06	72.313	217.285	118.963	84.541	49.339	220.155	202.066	49.417	53.093	228.826	207.802	52.570	57.479	57.219	62.699	225.564	61.935	-8191	255	
2021.734	1	1	0	0	0.19439	0.06389	0.20882	0.31209	0.19037	0.23313	0.46769	0.034096	0.11544	0.072506	0.22084	0.28812	0.1232	0.30615	0.16943	0.068479	-2.3396	-3.6396	-3.0521	-2.9729	-3.6104	-2.8646	-3.6042	-3.5875	-2.575	-3.4875	-3.4042	-3.0792	-3.775	-3.0708	-3.2104	-3.5458	186.730	306.943	386.413	368.283	363.329	257.344	325.602	35.439	391.130	123.183	71.618	50.785	315.724	345.512	72.432	349.442	0.00052939	0.00070333	0.000198	1236.4	9.7573e-06	4.9054e-06	1658	432.45	4.1111e-06	7.1993e-06	650.77	218.9	129.43	39.758	5.0892e-06	78.753	0.00023981	0.00019159	5.4701e-05	1133.1	2.1506e-06	2.0994e-06	1513.7	397.02	2.1827e-06	2.0759e-06	581.69	201.13	119.03	37.1	2.0924e-06	72.388	214.105	92.941	141.647	49.604	199.609	186.631	49.662	53.062	212.126	161.412	52.907	57.374	57.231	62.752	225.676	61.790	-8191	255	
2021.830	1	1	0	0	0.18762	0.12151	0.10698	0.18885	0.06844	0.1755	0.078058	0.45033	0.074256	0.13059	0.14418	0.30719	0.37948	0.20503	0.10124	0.26884	-2.5167	-3.5333	-3.3979	-2.9375	-3.5563	-3.0125	-3.2417	-3.5771	-2.6667	-3.6167	-3.4125	-2.9313	-3.6542	-3	-3.1229	-3.5792	290.336	202.946	243.498	320.274	66.839	305.537	385.841	350.271	369.568	36.311	40.112	363.801	51.955	113.722	186.989	389.392	0.00058627	0.0008681	0.00024291	1226.9	3.638e-06	4.0726e-06	1646.2	430.88	8.7686e-06	4.5639e-06	654.37	217.28	129.03	40.124	9.9538e-06	78.83	0.00023801	0.0001915	5.2785e-05	1126.9	2.1131e-06	2.0934e-06	1509	395.62	2.2032e-06	2.0523e-06	581.46	199.77	118.71	37.091	2.0851e-06	72.159	214.091	123.134	110.120	49.245	254.335	187.895	49.377	52.807	191.481	197.408	52.796	57.726	57.285	62.423	205.964	61.977	-8191	255	
2021.924	1	1	0	0	0.035635	0.21224	0.048321	0.15035	0.077014	0.18109	0.08732	0.25773	0.098229	0.070275	0.16385	0.29494	0.022637	0.15206	0.021472	0.077161	-2.5458	-3.3167	-3.2812	-3.1167	-3.5667	-2.95	-3.1417	-3.5896	-3.0167	-3.5458	-3.4708	-2.975	-3.7458	-3.0417	-3.0083	-3.7667	320.841	69.648	290.343	292.061	324.655	236.084	373.298	63.342	286.873	76.571	370.273	54.751	383.229	264.615	53.774	362.389	0.00058467	0.00069637	0.00026811	1227.6	3.4264e-06	1.1546e-05	1642.1	428.79	6.1035e-06	7.3649e-06	640.65	216.76	128.26	40.29	7.6667e-06	79.073	0.00023813	0.00019231	5.4018e-05	1129.9	2.1892e-06	2.0716e-06	1510.3	394.4	2.1546e-06	2.0666e-06	577.02	199.81	118.64	37.309	2.0999e-06	72.703	215.262	115.315	109.013	49.286	230.113	173.430	49.355	52.854	206.962	197.537	52.382	57.558	57.563	62.929	213.710	62.349	-8191	255	
2022.020	1	1	0	0	0.32096	0.13483	0.12086	0.33164	0.047922	0.094141	0.19765	0.30632	0.30386	0.073692	0.15163	0.28236	0.057849	0.24817	0.1694	0.086958	-2.6208	-3.2125	-3.5292	-2.9542	-3.5271	-3.2083	-3.1375	-3.7062	-2.9083	-3.3333	-3.6521	-3.0479	-3.6437	-3.5563	-2.8771	-3.6583	133.340	185.419	198.534	368.027	302.643	232.702	296.945	341.294	49.792	57.737	367.481	386.380	369.461	349.071	84.010	171.475	0.00058165	0.00074494	0.00028192	1233.8	8.2684e-06	1.0732e-05	1655.6	430.17	2.9309e-06	6.2575e-06	653.22	219.3	130.66	40.365	7.1985e-06	79.33	0.00023636	0.00018731	5.4529e-05	1133.4	2.1501e-06	2.0436e-06	1517.8	395.97	2.1741e-06	2.1247e-06	582.62	201.41	119.84	37.637	2.1696e-06	73.427	221.858	105.538	103.592	48.689	226.254	194.409	49.441	53.235	202.501	193.308	53.386	57.546	57.257	61.758	217.187	60.989	-8191	255	
2022.116	1	1	0	0	0.25408	0.2694	0.065296	0.017944	0.10392	0.090657	0.20434	0.12607	0.08135	0.16789	0.13884	0.10443	0.31246	0.24846	0.23027	0.18102	-2.6333	-3.0896	-3.5458	-2.85	-3.3896	-3.3792	-3.0417	-3.7625	-3.0854	-3.2146	-3.6583	-2.975	-3.475	-3.4375	-2.75	-3.5667	129.904	84.165	136.044	252.743	338.893	208.892	78.421	371.741	258.752	306.830	202.557	273.429	380.514	266.401	217.077	339.612	0.00060903	0.0010118	0.00027193	1234.1	3.8345e-06	6.6313e-06	1656	432.45	4.9657e-06	6.419e-06	650.86	216.72	128.63	40.057	5.3538e-06	77.727	0.00023655	0.00018902	5.3735e-05	1138.3	2.1822e-06	2.0808e-06	1519.6	397.51	2.1521e-06	2.1234e-06	578.95	200.23	118.74	37.022	2.0592e-06	71.7	217.221	108.489	128.570	48.487	186.903	215.131	48.341	52.037	249.385	168.965	51.641	56.250	56.337	61.282	264.036	60.736	-8191	255	
2022.213	1	1	0	0	0.13509	0.15723	0.12044	0.12862	0.14426	0.05195	0.20011	0.19511	0.041408	0.13076	0.18	0.22544	0.21281	0.2704	0.172	0.2084	-2.6229	-2.9271	-3.6875	-3.2896	-3.3625	-3.3604	-3.0458	-3.7521	-3.25	-2.8292	-3.8833	-3	-3.3458	-3.5583	-2.775	-3.7062	366.694	185.199	198.915	36.598	122.482	189.840	361.016	349.165	286.500	353.514	351.751	340.975	279.109	345.461	58.066	331.218	0.00059118	0.00053477	0.00019633	1228.4	8.33e-06	8.4271e-06	1651	430.18	6.4178e-07	1.3134e-06	648.94	216.27	127.72	39.386	8.8771e-06	77.584	0.00024051	0.00019168	5.2565e-05	1130.6	2.0763e-06	2.0628e-06	1510.7	394.48	2.1316e-06	2.0752e-06	578.86	199.19	118.19	36.58	2.0747e-06	71.306	220.530	102.073	86.841	48.042	205.055	177.064	48.116	52.141	126.681	179.667	51.256	56.537	56.235	61.394	216.044	60.642	-8191	255	
2022.309	1	1	0	0	0.13637	0.10517	0.074898	0.14631	0.24754	0.074642	0.10058	0.12985	0.087739	0.21015	0.15706	0.17616	0.13239	0.1602	0.24076	0.24919	-2.825	-2.9521	-3.4958	-2.9521	-3.1208	-3.4125	-3.0792	-3.7562	-3.3042	-2.8146	-3.6292	-3.2417	-3.3542	-3.6521	-2.7208	-3.6	190.617	35.375	94.012	300.512	124.630	248.461	349.759	305.353	225.385	351.510	344.330	389.798	248.083	46.293	202.336	363.918	0.00063979	0.00063294	0.00015866	1230.6	7.574e-06	5.3093e-06	1639.1	426.5	3.1853e-06	5.9237e-06	636.41	214.58	127.63	39.205	6.8868e-06	77.458	0.00024058	0.00019297	5.1831e-05	1130.6	2.1147e-06	2.0538e-06	1507.1	392.64	2.1557e-06	2.0436e-06	571.74	197.84	117.55	36.418	2.0767e-06	71.419	218.315	122.413	103.891	47.831	206.541	235.966	48.023	51.819	189.363	169.235	51.192	56.442	56.528	61.240	248.371	60.973	-8191	255	
2022.429	1	1	0	0	0.14384	0.11214	0.17649	0.29907	0.13864	0.03756	0.15441	0.15039	0.10782	0.14813	0.22786	0.070152	0.09498	0.087428	0.2683	0.20059	-2.8979	-2.8292	-3.6813	-3.1562	-3.1937	-3.6604	-3.1708	-3.4229	-3.525	-2.9125	-3.6688	-3.0708	-2.9917	-3.6396	-2.8146	-3.4792	288.759	284.474	265.168	367.563	279.819	305.022	359.916	331.795	121.522	36.617	337.513	170.855	305.388	307.444	335.900	365.598	0.00054547	0.00069652	0.00020975	1220.9	9.5274e-06	1.3988e-05	1631.4	423.37	5.2757e-06	8.0617e-06	643.19	215	127.25	39.398	5.4377e-06	77.937	0.00023281	0.00019258	5.2242e-05	1124.4	2.1634e-06	2.0858e-06	1500.5	390.63	2.1445e-06	2.069e-06	573.66	198.04	117.31	36.648	2.1294e-06	71.843	224.789	89.435	133.455	47.733	212.291	162.771	48.049	52.035	227.258	169.313	51.470	56.272	56.003	61.744	252.616	61.013	-8191	255	
2022.525	1	1	0	0	0.1981	0.17802	0.26389	0.18334	0.20651	0.21227	0.13992	0.32544	0.12821	0.21258	0.15355	0.16362	0.063069	0.19402	0.18529	0.26174	-3.0938	-2.7146	-3.5292	-3.4625	-2.9354	-3.6021	-3.1125	-3.2729	-3.5604	-2.7875	-3.525	-3.3146	-3.0854	-3.8271	-2.9917	-3.3146	160.542	200.619	310.461	298.738	77.909	294.955	296.902	334.159	391.456	58.506	258.849	376.870	360.652	317.585	287.799	290.570	0.00060648	0.00060481	0.0001871	1218.5	1.0013e-05	6.5524e-06	1633.1	421.32	3.148e-06	4.7681e-06	626.75	212.68	125.37	38.807	2.9542e-06	76.336	0.00023588	0.00019657	5.2261e-05	1123.5	2.1051e-06	2.0238e-06	1498.4	387.84	2.0592e-06	2.0161e-06	565.77	196.15	115.56	36.039	2.0869e-06	70.446	219.755	136.861	133.617	47.993	208.502	193.369	47.995	51.793	182.263	183.574	51.374	56.114	56.155	61.226	184.107	60.884	-8191	255	
2022.622	1	1	0	0	0.11665	0.053934	0.064374	0.35676	0.24982	0.26188	0.22807	0.17264	0.077203	0.26898	0.20773	0.25712	0.22296	0.091234	0.17943	0.10712	-3.2208	-2.8729	-3.5167	-3.3563	-2.7854	-3.3688	-3.1625	-3.2562	-3.5187	-2.8979	-3.4083	-3.5771	-2.9958	-3.6708	-3.0333	-3.15	158.105	294.469	180.344	391.474	75.065	300.426	343.635	301.447	211.050	342.304	371.885	360.038	233.245	50.170	272.656	41.111	0.00056779	0.00091288	0.00018472	1209.2	7.6722e-06	1.1842e-05	1618.4	415.19	5.9515e-06	5.4893e-06	631.01	213.45	124.65	38.866	3.8868e-06	76.476	0.00023535	0.00019209	5.1277e-05	1111	2.1646e-06	2.0085e-06	1486.7	382.42	2.144e-06	2.1073e-06	565.61	195.62	114.82	36.018	2.0892e-06	70.613	216.440	103.532	118.525	48.029	216.014	192.993	48.399	51.885	203.662	167.105	51.930	56.220	56.302	61.550	169.540	61.250	-8191	255	
2022.718	1	1	0	0	0.11741	0.04599	0.095125	0.30076	0.15056	0.09672	0.34803	0.29561	0.19119	0.13528	0.20985	0.25558	0.33946	0.11372	0.19215	0.20393	-3.2229	-2.8833	-3.3167	-3.6729	-2.7417	-3.5396	-3.2938	-3.1083	-3.5729	-2.8542	-3.3104	-3.5625	-2.8958	-3.6	-3.1437	-3.15	147.332	165.626	339.708	336.723	293.687	222.726	346.593	293.375	58.666	150.355	161.249	342.065	370.537	260.744	363.857	343.289	0.00050906	0.00042435	0.00028468	1208.6	1.0524e-05	3.3878e-06	1622.9	416.03	5.7134e-06	7.7079e-06	633.3	213.42	126.35	39.334	7.0582e-06	77.289	0.00023226	0.00018772	5.3196e-05	1113	2.0908e-06	2.0276e-06	1490.3	383.9	2.108e-06	2.052e-06	565.65	196.53	116.17	36.398	2.109e-06	71.437	220.129	121.803	112.702	48.077	193.892	170.146	47.956	52.052	197.689	205.335	51.749	56.297	56.188	61.363	245.093	61.302	-8191	255	
2022.814	1	1	0	0	0.17912	0.13883	0.1606	0.2683	0.12584	0.050488	0.23351	0.1724	0.12646	0.21703	0.18652	0.053432	0.14872	0.18416	0.11346	0.43563	-3.4479	-2.9896	-3.1708	-3.5917	-2.9104	-3.6063	-3.5583	-3.1333	-3.8021	-2.9958	-3.1437	-3.8312	-3.0583	-3.5854	-3.3292	-2.8125	228.158	371.819	351.726	350.920	208.612	67.735	300.788	310.643	140.664	42.795	66.654	56.900	317.172	235.524	391.455	336.076	0.00050011	0.00069743	0.00017662	1223	5.0348e-06	6.3714e-06	1633.2	423.16	6.7198e-06	6.9646e-06	634.37	216.34	127.38	40.171	8.9862e-06	78.718	0.00022777	0.00018948	5.3355e-05	1122	2.0731e-06	2.0391e-06	1498.8	389.37	2.1189e-06	2.063e-06	572.88	199.36	117.53	37.22	2.0807e-06	72.68	216.487	103.188	123.991	48.028	228.082	180.453	48.145	52.080	253.285	178.361	51.845	56.474	56.178	61.804	213.203	61.020	-8191	255	
2022.910	1	1	0	0	0.059183	0.15232	0.16707	0.054065	0.12618	0.1519	0.096607	0.15225	0.19683	0.23953	0.10925	0.19873	0.34536	0.097775	0.1415	0.2318	-3.0792	-2.85	-3.1312	-3.8583	-2.7583	-3.3875	-3.65	-3.0333	-3.5083	-3.0438	-2.9313	-3.7521	-2.9062	-3.3708	-3.2646	-3.0896	191.063	378.127	215.784	44.513	275.225	178.652	320.951	321.572	292.392	167.321	284.680	36.397	374.744	270.217	309.578	250.326	0.00056452	0.00025824	0.00020319	1203.9	8.9584e-06	4.3701e-06	1608.4	415.78	9.1473e-06	7.0985e-06	628.75	212.1	124.23	39.071	3.4566e-06	77.793	0.00023834	0.00018947	5.3202e-05	1111.3	2.2036e-06	2.0734e-06	1477.9	383.34	2.1693e-06	2.0261e-06	562.51	195.66	114.49	36.344	2.1048e-06	71.943	216.568	102.555	90.689	48.210	214.059	181.062	48.402	52.105	204.490	211.360	51.466	56.460	56.794	61.878	212.662	61.055	-8191	255	
2023.029	1	1	0	0	0.17944	0.26939	0.058131	0.37955	0.15318	0.28116	0.092082	0.17059	0.11417	0.086613	0.28771	0.32667	0.065533	0.24873	0.13111	0.29939	-3.0896	-2.9417	-2.8042	-3.7979	-2.9854	-3.2896	-3.6396	-2.8479	-3.4938	-3.0854	-2.8104	-3.7313	-3.0563	-3.2208	-3.55	-2.9938	365.260	389.867	291.395	385.381	72.549	93.935	349.709	297.512	379.553	320.965	232.523	42.366	374.345	310.488	245.817	334.387	0.00056445	0.00052294	0.00023571	1157.9	2.0225e-06	5.9411e-06	1558	402.83	5.8126e-06	9.3801e-06	612	211.49	123.1	39.644	6.8108e-06	78.937	0.00023474	0.00019277	5.389e-05	1068.4	2.1723e-06	2.082e-06	1433.9	370.96	2.1807e-06	2.0043e-06	553	194.86	113.77	36.649	2.1886e-06	72.772	216.212	85.371	100.735	48.041	231.171	198.155	48.686	52.262	217.985	219.165	52.332	56.765	56.944	62.080	239.026	61.184	-8191	255	
2023.125	1	1	0	0	0.18487	0.070957	0.21134	0.24166	0.12637	0.1959	0.19307	0.2829	0.2713	0.24729	0.18864	0.1162	0.093017	0.14462	0.27818	0.19889	-3.1729	-3.1708	-2.9313	-3.8521	-2.9104	-3.1042	-3.8833	-2.9562	-3.3708	-3.3292	-2.8771	-3.8812	-3.1167	-3.2292	-3.65	-2.9667	112.868	82.397	231.035	44.123	276.622	44.627	300.020	355.399	312.057	389.193	45.875	376.934	72.805	362.775	308.825	393.658	0.00061783	0.00063492	8.6255e-05	1167.6	5.4873e-06	5.6976e-06	1582.2	402.67	7.3287e-06	3.5064e-06	620.17	213.31	123.25	39.049	7.4977e-06	77.891	0.00024274	0.00020344	5.5494e-05	1074.6	2.2058e-06	2.106e-06	1446.9	372.03	2.1515e-06	2.1837e-06	556.84	195.37	113.99	36.399	2.2213e-06	72.073	218.537	115.369	148.928	48.275	219.479	202.802	48.125	52.242	221.324	162.192	52.092	56.639	56.601	62.237	222.918	60.926	-8191	255	
2023.221	1	1	0	0	0.26905	0.1494	0.16718	0.17673	0.20946	0.10818	0.10845	0.25069	0.18902	0.077476	0.44511	0.1358	0.21367	0.15513	0.01441	0.42521	-2.9313	-3.3479	-2.7854	-3.8125	-2.8542	-3.1333	-3.8312	-2.9854	-3.3271	-3.5	-2.7896	-3.7458	-3.2479	-3.1542	-3.8	-3.0187	209.708	266.412	297.395	366.737	60.027	130.043	302.018	309.451	155.755	269.322	363.024	376.468	287.578	340.556	235.993	37.211	0.00057762	0.00085862	0.00016481	1200.3	2.3344e-06	5.9322e-06	1606.1	420.02	6.4515e-06	6.4394e-06	634.81	216.67	127.8	40.252	6.3514e-06	79.092	0.0002498	0.00019915	5.7072e-05	1100.8	2.1997e-06	2.2391e-06	1476.4	386.45	2.1959e-06	2.1588e-06	571.91	199.53	118	37.231	2.1994e-06	72.999	215.921	144.107	132.854	48.148	270.122	222.960	48.209	52.199	211.871	198.676	51.752	56.674	56.251	61.827	201.217	61.084	-8191	255	
2023.293	1	1	0	0	0.25144	0.16405	0.11143	0.34099	0.17961	0.25124	0.20191	0.16869	0.090419	0.16937	0.086599	0.14464	0.29533	0.29	0.07566	0.21806	-2.8125	-3.4354	-2.7021	-3.6208	-3.0958	-3.0146	-3.8167	-3.1562	-3.2354	-3.5854	-2.8396	-3.7271	-3.2646	-3.0729	-3.6792	-3.1667	370.756	346.417	110.689	310.755	283.244	270.748	338.032	325.039	53.266	52.082	82.412	91.232	390.138	368.983	149.557	342.024	0.00046319	0.00089801	0.00017574	1208.4	8.7146e-06	5.8003e-06	1610.5	421.67	8.21e-06	5.9974e-06	636.16	216.27	127.63	39.708	1.9656e-06	78.411	0.00024328	0.00020185	5.6468e-05	1111.4	2.2544e-06	2.203e-06	1479.4	387.92	2.1479e-06	2.1213e-06	570.58	198.38	117.18	36.868	2.122e-06	72.258	222.780	91.405	106.182	48.022	226.208	195.482	48.311	52.133	256.015	157.550	52.015	56.786	56.246	61.709	187.923	60.972	-8191	255	
2023.414	1	1	0	0	0.19877	0.059088	0.14039	0.12468	0.20455	0.13738	0.40121	0.09073	0.21621	0.17053	0.10317	0.18164	0.11862	0.27254	0.10867	0.35712	-2.6667	-3.5875	-2.8958	-3.4604	-3.4583	-2.9896	-3.8042	-3.1917	-2.9583	-3.6333	-2.9417	-3.4917	-3.4708	-3.0312	-3.5104	-3.1333	130.506	122.407	371.419	364.281	386.593	231.281	357.234	349.980	390.178	334.538	275.194	386.503	115.546	380.148	304.112	311.769	0.00050205	0.00056717	0.00017259	1191.7	6.712e-06	6.2721e-06	1598.9	417.36	7.2927e-06	5.6186e-06	626.11	214.77	125.13	39.308	6.3267e-06	78.487	0.00023971	0.00019621	5.3564e-05	1098	2.1534e-06	2.1622e-06	1465.7	382.56	2.163e-06	2.1138e-06	563.75	197.19	115.82	36.686	2.0876e-06	72.594	212.762	134.359	119.543	48.173	215.745	200.906	48.330	52.106	198.016	211.239	51.722	56.804	56.626	61.806	194.263	60.968	-8191	255	
2023.510	1	1	0	0	0.053917	0.13507	0.11306	0.14409	0.13781	0.26805	0.3586	0.20481	0.23078	0.13875	0.2239	0.2153	0.20657	0.22457	0.17842	0.20939	-2.7229	-3.6375	-2.9917	-3.5062	-3.4521	-2.7854	-3.7396	-3.3271	-3.0021	-3.5375	-2.9167	-3.2854	-3.5521	-2.9062	-3.4542	-3.2938	88.294	384.042	44.941	37.988	164.495	138.366	351.297	299.164	390.525	151.132	353.700	374.389	383.795	324.109	117.617	307.899	0.00056308	0.00068124	0.00023398	1191.5	5.0122e-06	6.4371e-06	1590.2	416.31	5.829e-06	2.4143e-06	631.28	216.3	126.89	39.762	6.8255e-06	79.74	0.00024433	0.00019697	5.3762e-05	1095.3	2.1641e-06	2.2028e-06	1464.3	383.7	2.2159e-06	2.1279e-06	567.41	199.1	116.89	37.172	2.0832e-06	73.671	224.242	114.259	106.648	48.460	170.680	229.076	48.367	51.889	254.724	240.808	51.970	56.864	56.721	61.702	207.415	61.133	-8191	255	
2023.606	1	1	0	0	0.33119	0.11996	0.11816	0.099005	0.16849	0.12071	0.24281	0.26141	0.11482	0.14371	0.014893	0.19864	0.11142	0.24931	0.19429	0.16648	-2.2708	-3.6083	-2.9146	-3.2896	-3.6	-2.6667	-3.7167	-3.2667	-3.1042	-3.6021	-3.0271	-3.1646	-3.7188	-2.8375	-3.3625	-3.5125	287.904	328.979	189.743	41.315	210.358	215.906	341.016	354.586	331.129	61.391	37.738	351.169	308.695	387.730	321.741	346.555	0.00058412	0.00047443	0.00021341	1191.7	6.4405e-06	4.441e-06	1591	415.82	7.6705e-06	1.0986e-05	628.88	214.95	126.72	39.982	7.0489e-06	78.799	0.00024468	0.00019368	5.4305e-05	1094.1	2.2013e-06	2.1341e-06	1463.8	383.36	2.1651e-06	2.1025e-06	565.18	198.39	116.78	37.064	2.1246e-06	72.632	212.059	96.397	105.965	47.880	207.546	183.365	48.779	51.996	208.014	181.348	52.113	56.857	56.329	61.522	237.882	60.870	-8191	255	
2023.702	1	1	0	0	0.092179	0.32807	0.14863	0.12551	0.20829	0.11717	0.25865	0.26439	0.091584	0.093017	0.056068	0.22542	0.043867	0.26929	0.18649	0.29282	-2.4208	-3.4875	-2.7771	-3.1813	-3.5708	-2.8458	-3.3708	-3.6375	-3.0042	-3.5646	-3.3292	-3.0333	-3.7	-3.1521	-3.3021	-3.5583	75.636	39.284	107.961	321.418	308.507	208.941	329.205	358.213	49.155	342.879	372.531	314.268	385.401	44.280	257.777	360.017	0.00052815	0.00082975	8.4477e-05	1201	8.2984e-06	4.4073e-06	1608.7	422.83	6.2588e-06	3.5423e-06	638.62	215.96	128.29	39.274	7.1977e-06	76.551	0.00024043	0.00019163	5.4813e-05	1106.5	2.1521e-06	2.0845e-06	1478.7	388.87	2.1281e-06	2.0157e-06	571.92	198.13	117.97	36.52	2.063e-06	70.79	217.463	128.023	59.846	48.287	223.937	196.865	48.318	52.007	212.232	192.537	51.940	56.738	56.458	60.948	242.995	61.127	-8191	255	
2023.823	1	1	0	0	0.25299	0.063763	0.096058	0.18755	0.16521	0.19579	0.25973	0.19012	0.0417	0.11272	0.083225	0.12661	0.15643	0.14228	0.087093	0.31242	-2.3979	-3.5604	-3.1958	-2.9062	-3.6208	-3.0438	-3.3438	-3.6583	-2.7896	-3.6333	-3.2896	-3.0375	-3.8396	-3.1083	-3.15	-3.7458	87.495	249.223	356.672	329.355	263.096	262.913	345.868	279.878	387.792	85.360	165.386	364.703	51.763	392.830	296.674	380.561	0.00047995	0.00034498	9.3519e-05	1224.3	3.4577e-06	9.4249e-06	1624.1	431.63	4.5301e-06	7.724e-06	643.31	215.52	128.18	39.091	8.0453e-06	75.803	0.0002282	0.00019313	5.2463e-05	1127.5	2.1122e-06	2.0898e-06	1498.4	396.56	2.1273e-06	2.002e-06	577.35	197.77	118.29	36.28	2.0562e-06	70.046	219.677	103.758	91.115	48.334	224.280	227.758	48.186	51.674	210.635	191.064	51.436	56.168	56.140	61.520	246.723	60.543	-8191	255	
2023.917	1	1	0	0	0.30002	0.083983	0.091609	0.47904	0.22213	0.062742	0.14649	0.25788	0.14839	0.12004	0.21322	0.28528	0.38561	0.11505	0.10962	0.22449	-2.3563	-3.3167	-3.2167	-3.0708	-3.5958	-3.1042	-3.0729	-3.8146	-2.9208	-3.4	-3.4396	-2.9396	-3.6437	-3.1063	-3.0542	-3.6688	278.083	124.339	137.747	382.683	352.062	382.265	328.821	43.330	245.717	113.132	359.657	319.982	304.222	175.912	62.598	364.853	0.00045571	0.00045578	0.00015153	1227	5.9208e-06	1.23e-05	1632.8	428.15	3.7206e-06	1.0077e-05	644.77	214.01	127.65	39.171	5.5744e-06	77.484	0.00023151	0.00019105	5.2107e-05	1130.1	2.0841e-06	2.1087e-06	1498.9	393.48	2.1159e-06	2.0785e-06	574.23	197	117.42	36.405	2.1227e-06	71.262	222.420	100.406	71.219	48.022	215.639	181.191	48.135	51.891	237.817	183.305	51.742	56.385	56.297	61.567	182.428	60.723	-8191	255	
2023.990	1	1	0	0	0.20401	0.11261	0.21323	0.30436	0.028184	0.060063	0.015142	0.23929	0.072014	0.15129	0.058556	0.1767	0.18585	0.24821	0.11891	0.24025	-2.4833	-3.2	-3.5771	-2.9771	-3.4813	-3.1146	-3.1896	-3.7917	-3.0396	-3.3917	-3.4979	-3.0979	-3.5875	-3.2958	-3.0979	-3.8688	322.200	194.157	193.837	323.630	137.194	166.534	207.637	329.996	122.923	36.271	41.798	59.847	59.473	49.249	143.156	314.229	0.00059627	0.00077725	0.00030153	1222.2	4.9335e-06	5.0763e-06	1631	429.5	5.8902e-06	9.5651e-06	644.84	219	129.53	40.424	6.0381e-06	78.862	0.00024031	0.00019191	5.425e-05	1122	2.1831e-06	2.1377e-06	1497.1	395.31	2.1219e-06	2.1387e-06	579.83	201.02	119.55	37.459	2.1375e-06	72.902	217.270	75.495	98.641	47.950	217.738	183.083	48.356	51.894	202.074	196.200	51.530	56.514	56.453	61.382	194.731	61.072	-8191	255	
2024.111	1	1	0	0	0.13746	0.033108	0.15178	0.37551	0.25171	0.20631	0.12892	0.24046	0.28032	0.14337	0.12914	0.18154	0.11339	0.23622	0.32789	0.24969	-2.6521	-3.2354	-3.3583	-3.1125	-3.4813	-3.1562	-3.0229	-3.7479	-2.7938	-3.0792	-3.5563	-2.7792	-3.4896	-3.4729	-2.9604	-3.6292	358.717	325.177	217.604	334.255	105.584	375.152	384.561	308.374	79.857	300.216	243.094	54.360	381.395	45.854	387.787	327.548	0.00056073	0.00051541	0.00026274	1215.1	7.6157e-06	6.6668e-06	1618.1	425.86	8.7463e-06	7.7028e-06	637.28	215.99	128.64	39.908	5.9578e-06	78.294	0.00024314	0.0001953	5.5525e-05	1115	2.1105e-06	2.135e-06	1483.6	391.79	2.1028e-06	2.12e-06	573.93	198.66	118.28	37.146	2.2255e-06	72.171	218.203	119.190	132.797	48.221	205.427	158.515	48.470	52.429	201.611	178.803	51.595	56.506	56.727	61.652	252.012	61.190	-8191	255	
2024.205	1	1	0	0	0.24633	0.10467	0.11363	0.30303	0.17239	0.15723	0.41667	0.3347	0.10065	0.052645	0.27539	0.24765	0.10161	0.22156	0.18989	0.21161	-2.5458	-2.9375	-3.8104	-2.9833	-3.2104	-3.5208	-2.9667	-3.6458	-3.1792	-3.0792	-3.6813	-2.9396	-3.5667	-3.4771	-2.6167	-3.7562	234.258	380.216	252.410	39.266	308.655	388.100	293.642	336.148	379.346	88.158	354.395	384.666	366.755	331.278	82.820	227.780	0.00056197	0.0004626	0.00023987	1206	2.8869e-06	4.5246e-06	1619.3	426.18	7.5727e-06	2.9893e-06	642.15	216.5	128.51	40.034	4.2514e-06	78.805	0.00023379	0.00019571	5.3952e-05	1111.4	2.144e-06	2.0338e-06	1484.4	392.2	2.0663e-06	2.1455e-06	575.18	199.05	118.69	37.149	2.1213e-06	72.4	221.157	92.290	104.329	48.151	223.245	199.867	48.237	52.217	163.583	149.755	51.825	56.639	56.654	61.801	202.174	61.005	-8191	255	
2024.302	1	1	0	0	0.20952	0.18196	0.32837	0.19931	0.17668	0.30203	0.13128	0.058392	0.075731	0.17146	0.21685	0.40132	0.36498	0.19971	0.113	0.18811	-2.6854	-2.9646	-3.7021	-3.0667	-3.25	-3.4229	-2.9646	-3.5771	-3.175	-2.8937	-3.7417	-3.2417	-3.3917	-3.4958	-2.8333	-3.5604	282.385	270.424	326.405	388.151	153.835	253.360	283.143	356.454	373.180	368.756	288.419	325.704	391.779	309.413	52.819	264.685	0.0005541	0.00057783	0.00030744	1215.3	9.7375e-06	7.8927e-06	1626.9	430.79	6.0854e-06	5.2187e-06	648.48	218.85	129.24	40.5	8.9921e-06	79.66	0.00023553	0.00019361	5.4663e-05	1118.8	2.1144e-06	2.1142e-06	1490.3	396.51	2.1743e-06	2.1448e-06	580.3	200.37	119.75	37.581	2.166e-06	73.228	219.308	71.440	97.038	48.207	209.429	216.551	48.499	52.072	220.409	210.573	51.728	56.358	56.631	61.528	206.932	61.154	-8191	255	
2024.398	1	1	0	0	0.10516	0.1407	0.063232	0.22218	0.060416	0.11028	0.14005	0.30709	0.10334	0.14771	0.20715	0.2066	0.13766	0.36994	0.25273	0.3383	-3.0667	-2.8604	-3.6521	-3.1354	-3.0417	-3.5187	-3.0979	-3.5167	-3.3146	-2.8396	-3.6354	-3.0896	-3.0792	-3.6146	-2.8042	-3.5771	384.290	248.099	35.096	370.509	256.350	306.187	375.694	366.737	370.914	269.037	344.341	51.558	310.308	378.332	41.555	299.230	0.00052954	0.0009504	0.00019337	1210.8	7.2439e-06	1.0474e-05	1606.4	422.86	6.1188e-06	8.0116e-06	632.24	214.96	127.07	40.073	7.2556e-06	78.77	0.00024083	0.00019943	5.2909e-05	1114.9	2.1956e-06	2.0936e-06	1477.4	390.25	2.2094e-06	2.0793e-06	569.19	197.97	117.24	37.127	2.2039e-06	72.379	216.522	111.001	152.032	48.396	235.367	208.580	48.422	52.191	214.183	220.422	52.003	56.609	56.544	61.790	195.126	61.350	-8191	255	
2024.518	1	1	0	0	0.064914	0.14201	0.16684	0.3472	0.16986	0.09667	0.31249	0.43741	0.051628	0.21085	0.12273	0.1843	0.1645	0.014111	0.094994	0.24897	-3.1333	-2.9833	-3.5708	-3.1667	-2.9104	-3.6521	-2.9479	-3.4854	-3.3854	-2.6813	-3.5667	-3.3146	-3.0833	-3.7333	-2.9813	-3.0958	380.174	123.842	294.281	340.203	212.360	72.174	356.318	384.102	130.685	390.762	201.520	320.745	79.645	266.564	140.868	321.363	0.00053325	0.0010327	0.00019736	1185.7	1.2186e-05	1.2755e-05	1589.4	417.22	6.9749e-06	7.6423e-06	634.8	215.49	126.76	40.025	8.9155e-06	79.364	0.00024117	0.00018965	5.1886e-05	1091.4	2.1332e-06	2.0672e-06	1457.1	385.29	2.1689e-06	2.0646e-06	566.08	197.93	117.34	37.182	2.0932e-06	73.295	214.489	93.231	151.739	48.382	191.313	185.767	48.394	52.305	230.032	180.289	52.212	56.789	56.764	61.931	224.307	61.311	-8191	255	
2024.590	1	1	0	0	0.065844	0.1288	0.075947	0.28116	0.19108	0.22499	0.18607	0.24916	0.18552	0.17125	0.25045	0.076537	0.10934	0.27724	0.13048	0.15376	-3.0208	-2.7146	-3.3479	-3.4646	-2.775	-3.7	-2.9562	-3.3646	-3.3792	-2.8375	-3.5	-3.3875	-2.8083	-3.7583	-2.8333	-3.3104	284.591	338.904	149.635	353.954	375.116	141.277	358.657	334.722	326.747	277.637	269.366	176.901	366.701	306.885	205.175	56.339	0.00050929	0.0010069	0.00021973	1173.5	3.2785e-06	5.7036e-06	1566.7	420.23	7.9313e-06	7.8423e-06	629.3	217.39	128.31	40.868	2.4343e-06	80.684	0.00023107	0.00019123	5.1259e-05	1081.3	2.1127e-06	2.0722e-06	1441.3	385.68	2.0874e-06	2.0964e-06	566.59	198.96	117.9	37.787	2.0855e-06	74.556	216.390	123.548	117.754	48.226	203.032	215.231	48.531	52.523	203.964	165.339	51.787	56.391	56.641	62.057	231.900	61.589	-8191	255	
2024.711	1	1	0	0	0.074292	0.11509	0.082942	0.24786	0.15212	0.23012	0.36128	0.22172	0.089225	0.077283	0.20731	0.12814	0.21675	0.24435	0.055812	0.18924	-3.275	-2.7229	-3.2354	-3.5458	-2.9188	-3.4729	-3.1167	-3.3042	-3.5438	-2.7458	-3.2833	-3.6104	-3.0604	-3.5646	-3.1375	-3.0771	207.355	201.671	219.591	357.780	241.307	347.603	363.629	384.896	259.442	75.286	339.303	351.403	239.244	332.409	67.525	334.527	0.00058248	0.00054901	8.0676e-05	1166	9.8983e-06	8.6415e-06	1559.9	420.15	6.6035e-06	6.8015e-06	632.65	219.14	129.74	41.275	8.4019e-06	81.962	0.00023606	0.00018928	5.2915e-05	1075.3	2.1714e-06	2.0815e-06	1438.4	386.45	2.1497e-06	2.07e-06	569.49	201.44	119.57	38.408	2.18e-06	75.811	218.340	150.374	39.187	48.468	230.306	185.629	48.421	52.551	217.668	227.313	52.324	56.810	56.826	62.161	216.187	61.481	-8191	255	
2024.807	1	1	0	0	0.25626	0.03408	0.0664	0.27613	0.12889	0.13059	0.13333	0.065986	0.1587	0.18919	0.21766	0.19182	0.40629	0.25449	0.093024	0.24498	-3.1937	-2.8812	-3.2271	-3.5354	-2.8542	-3.2958	-3.325	-3.1354	-3.6562	-2.9854	-3.3646	-3.6396	-2.8854	-3.4583	-3.1479	-3.0479	211.866	154.636	109.012	333.825	120.483	227.362	312.508	276.040	362.902	111.990	253.601	362.057	369.540	347.005	384.717	353.622	0.00060065	0.00081336	0.00030165	1178.4	5.5174e-06	9.2216e-06	1582.3	418.28	5.5671e-06	8.2265e-06	631.36	217.67	127.66	40.754	5.816e-06	79.565	0.00024234	0.00020353	5.3266e-05	1084.8	2.157e-06	2.1057e-06	1447.9	385.06	2.1361e-06	2.1067e-06	566.16	199.6	117.58	37.696	2.1136e-06	73.342	215.700	89.757	112.203	48.448	176.235	182.141	48.349	52.253	244.994	185.666	52.348	56.997	56.806	62.246	222.301	61.253	-8191	255	
2024.903	1	1	0	0	0.3575	0.14903	0.22329	0.11485	0.19973	0.15695	0.19491	0.21074	0.17528	0.15123	0.099703	0.33935	0.16308	0.25224	0.065716	0.2281	-3.1833	-2.8812	-3.1792	-3.7542	-2.675	-3.5146	-3.4583	-2.9104	-3.7083	-3.0167	-3.1417	-3.8479	-2.9646	-3.3729	-3.3458	-2.9771	176.643	58.807	128.912	214.089	330.795	96.695	357.570	62.078	143.037	319.420	309.437	355.745	69.907	289.955	208.533	288.304	0.00059946	0.00078908	0.00015054	1185.5	4.2543e-06	9.9387e-06	1580	415.86	1.0718e-05	4.5034e-06	627.79	213.62	125.73	39.983	5.4403e-06	77.766	0.00023959	0.00019666	5.2286e-05	1087.2	2.1364e-06	2.0596e-06	1449.8	382.23	2.0829e-06	2.0334e-06	562.65	196.38	115.89	36.931	2.0841e-06	71.651	219.599	98.268	78.210	48.420	238.088	193.434	48.568	52.347	201.715	151.276	52.011	56.826	56.732	62.089	229.849	61.674	-8191	255	
2024.997	1	1	0	0	0.15108	0.25721	0.0099753	0.2356	0.11886	0.048075	0.25898	0.097228	0.1507	0.23846	0.15619	0.28647	0.10546	0.048587	0.092125	0.31171	-3.0438	-3.2313	-3.075	-3.9375	-2.9646	-3.3146	-3.7479	-3.0521	-3.5021	-3.1562	-3.0104	-3.7313	-3.1125	-3.2062	-3.4125	-3.1583	300.969	308.762	231.335	386.817	206.157	372.997	313.209	63.288	295.421	346.300	329.729	362.031	355.073	132.298	219.359	365.697	0.0005608	0.00038993	0.00029024	1191.3	5.5621e-06	1.047e-05	1593	417.89	3.0557e-06	1.6856e-06	631.22	212.19	126.17	39.374	7.2703e-06	77.37	0.00022768	0.00018393	5.295e-05	1095.9	2.0838e-06	2.0279e-06	1461.7	384.18	2.0638e-06	2.0464e-06	564.78	195.52	116	36.562	2.0145e-06	71.389	210.487	84.701	117.152	48.542	205.083	204.916	48.490	52.305	190.593	183.597	52.570	56.767	56.420	62.250	221.813	60.966	-8191	255	
2025.095	1	1	0	0	0.17746	0.049856	0.3568	0.19279	0.091778	0.088241	0.14172	0.19341	0.20182	0.18732	0.35351	0.11148	0.087164	0.22314	0.21434	0.1714	-3.1375	-3.2396	-2.95	-3.7812	-2.9604	-3.3708	-3.95	-3.0375	-3.475	-3.4479	-2.8312	-3.7938	-3.1208	-3.2292	-3.6333	-2.9771	167.177	282.735	381.896	368.246	225.330	175.291	382.239	63.292	113.474	213.176	272.535	152.558	343.366	355.634	223.745	387.542	0.00054832	0.00069145	0.00025244	1201.9	6.3417e-06	4.6821e-06	1607.6	422.78	5.5556e-06	4.1415e-06	635.56	214.41	127.83	39.635	7.8822e-06	78.325	0.00022696	0.00018255	5.2641e-05	1104.7	2.056e-06	1.9899e-06	1477.5	388.36	2.0651e-06	1.9975e-06	569.41	197.67	117.69	36.939	2.1015e-06	72.114	219.417	112.494	107.813	48.329	170.191	212.227	48.354	52.317	232.746	214.003	51.811	56.867	56.863	61.905	226.371	61.243	-8191	255	
2025.214	1	1	0	0	0.21269	0.27939	0.14046	0.33755	0.19213	0.097188	0.12123	0.16443	0.13533	0.21031	0.25568	0.21005	0.17379	0.1563	0.064431	0.20285	-3.0021	-3.2021	-2.9521	-3.6792	-3.1417	-3.0417	-3.8167	-3.0438	-3.2125	-3.4396	-3	-3.6562	-3.2167	-3.0229	-3.6	-3.0312	182.201	145.078	277.768	328.890	41.298	298.707	318.778	330.313	313.339	60.334	331.093	329.208	362.636	326.246	64.899	330.242	0.00056912	0.00078985	0.00026023	1213.6	6.0419e-06	7.7349e-06	1629.5	426.22	6.6713e-06	6.7343e-06	641.1	217.01	128.54	40.213	6.3781e-06	78.712	0.00023165	0.00019106	5.3918e-05	1115.8	2.0886e-06	1.9801e-06	1492.4	390.96	2.0877e-06	2.0409e-06	575.19	200.02	118.43	37.426	2.0889e-06	72.395	215.546	122.711	108.691	48.209	175.835	250.625	48.512	52.625	203.206	195.850	51.918	56.784	56.902	62.239	212.402	61.633	-8191	255	
2025.286	1	1	0	0	0.16543	0.073595	0.10172	0.045952	0.14949	0.094321	0.21602	0.10224	0.36441	0.31475	0.26762	0.30254	0.18353	0.057268	0.22623	0.28901	-2.8042	-3.4229	-2.7438	-3.6146	-3.2604	-3.0312	-3.7854	-3.1917	-3.1917	-3.4229	-2.7438	-3.7896	-3.3792	-2.9313	-3.5417	-3.1333	329.107	147.314	253.624	266.550	216.338	139.185	334.150	380.013	342.927	157.870	378.617	43.252	34.925	314.495	360.043	52.708	0.00056324	0.0007719	0.00015911	1208.7	7.0163e-06	1.0007e-05	1617.4	421.82	7.2756e-06	6.9041e-06	640.65	216.51	127.84	40.27	9.8974e-06	78.607	0.00023759	0.00019549	5.4882e-05	1113.1	2.1334e-06	2.1106e-06	1485	389.33	2.1136e-06	2.0539e-06	573.62	199.4	117.94	37.387	2.0735e-06	72.624	219.239	102.533	102.769	48.528	205.208	164.488	48.807	52.526	230.899	232.402	52.244	57.234	56.655	62.219	214.083	61.231	-8191	255	
2025.382	1	1	0	0	0.27879	0.17306	0.25972	0.39933	0.20692	0.16068	0.27124	0.31381	0.02795	0.18541	0.23088	0.24079	0.15745	0.29477	0.10638	0.1574	-2.8333	-3.5979	-2.925	-3.7625	-3.3542	-2.825	-3.9896	-3.1708	-3.0729	-3.5125	-3.0312	-3.3958	-3.4562	-2.8792	-3.5563	-3.2146	144.826	262.051	88.789	317.075	347.706	344.533	287.599	264.950	188.514	337.358	143.671	331.427	392.158	388.942	69.742	247.554	0.00056962	0.0011358	0.0002013	1205	9.0608e-06	9.7258e-06	1605.9	417.11	3.5755e-06	5.4057e-06	633.82	215.59	127.47	40.232	5.5298e-06	79.174	0.00023449	0.00019027	5.3617e-05	1104.9	2.0181e-06	2.1016e-06	1472.5	384.68	2.126e-06	1.9943e-06	567.22	198.43	117.29	37.267	1.9619e-06	73.107	218.049	106.258	96.659	48.416	196.969	197.082	48.354	52.431	229.899	166.378	51.850	56.922	56.723	62.158	186.889	61.095	-8191	255	
2025.478	1	1	0	0	0.066989	0.16369	0.1952	0.20587	0.2315	0.26059	0.16959	0.16568	0.17378	0.17545	0.30499	0.24381	0.27702	0.18071	0.14399	0.24527	-2.5146	-3.5729	-2.8396	-3.6021	-3.5229	-2.7313	-3.7479	-3.275	-3.0062	-3.5479	-2.8563	-3.4938	-3.5542	-2.7687	-3.4083	-3.2229	188.349	137.066	36.789	354.831	94.654	155.267	334.275	40.633	120.379	379.652	379.480	247.352	374.384	102.542	155.572	354.957	0.00052004	0.0010574	0.00018783	1193.1	6.6473e-06	4.9643e-06	1608.3	421.1	5.7219e-06	6.3105e-06	637.81	217.6	128.3	40.575	8.1393e-06	80.694	0.00023004	0.0001865	5.244e-05	1098.5	2.0012e-06	2.0185e-06	1471.1	385.91	2.0892e-06	2.0041e-06	571.43	200.09	118.39	37.734	2.0218e-06	74.173	218.774	130.925	134.253	48.263	188.989	182.225	48.770	52.389	189.856	225.247	51.509	57.037	56.901	62.013	215.535	61.166	-8191	255	
2025.599	1	1	0	0	0.041368	0.069515	0.22228	0.33986	0.1243	0.10781	0.3156	0.27569	0.13616	0.18601	0.28819	0.17991	0.12034	0.20328	0.11306	0.097524	-2.5187	-3.5167	-2.9021	-3.2729	-3.5438	-2.9417	-3.5917	-3.4313	-2.8187	-3.6542	-3.2292	-3.1792	-3.5792	-2.9938	-3.3896	-3.6312	238.349	387.847	129.624	38.338	219.419	50.055	336.437	306.176	113.838	273.565	371.242	58.377	383.260	78.861	301.977	339.833	0.00057926	0.00077268	0.00015652	1197	8.0062e-06	8.8582e-06	1599	419.2	8.8e-06	8.2643e-06	634.29	219.26	128.2	40.833	4.8876e-06	80.226	0.00023375	0.00018445	5.1232e-05	1100.2	2.0488e-06	1.9378e-06	1469.7	386.41	2.0941e-06	1.9974e-06	569.51	200.95	118.3	37.85	1.9806e-06	73.889	215.928	88.800	104.145	48.343	196.911	187.602	48.596	52.581	217.489	170.238	51.903	57.042	56.631	62.128	223.342	61.610	-8191	255	
2025.695	1	1	0	0	0.13909	0.13853	0.22736	0.085344	0.31246	0.072912	0.23832	0.19506	0.050214	0.06037	0.17948	0.24556	0.17364	0.089851	0.14529	0.20284	-2.5833	-3.4458	-2.925	-3.3688	-3.575	-2.9833	-3.6979	-3.6292	-2.8	-3.4813	-3.2125	-3.0271	-3.7208	-2.9313	-3.3542	-3.4896	189.047	206.950	63.681	364.051	158.918	134.497	376.843	343.880	56.881	212.401	346.637	376.516	97.285	343.980	201.200	324.485	0.00057946	0.0012915	0.00020886	1187.7	5.7229e-06	6.6228e-06	1591.2	419.13	3.7143e-06	7.8535e-06	639.79	218.65	127.96	41.048	6.3655e-06	80.013	0.0002377	0.00018211	5.1372e-05	1092	2.0845e-06	1.9689e-06	1461	385.26	2.0753e-06	1.9328e-06	571.43	200.69	118.16	37.984	2.021e-06	74.153	219.730	128.953	99.738	48.783	190.629	177.007	48.679	52.681	232.675	189.019	51.870	57.309	56.807	61.946	201.162	61.310	-8191	255	
2025.791	1	1	0	0	0.30067	0.0079835	0.19797	0.16428	0.12882	0.036339	0.33364	0.22701	0.18692	0.11603	0.066908	0.17679	0.32618	0.31559	0.29336	0.12802	-2.2875	-3.4521	-3.05	-3.0312	-3.5438	-2.9083	-3.3917	-3.6854	-2.725	-3.5438	-3.275	-2.8688	-3.6479	-3.1562	-3.1813	-3.725	357.423	262.659	385.366	345.506	225.556	290.796	355.657	321.374	274.160	283.056	99.070	42.793	336.146	294.416	330.611	316.438	0.00056732	0.00065134	0.00014367	1181.3	7.795e-06	8.1735e-06	1586.5	419.61	5.882e-06	3.8727e-06	642.43	218.19	128.69	41.35	5.2809e-06	81.68	0.00022673	0.00018367	5.2026e-05	1084.6	1.945e-06	1.957e-06	1454.3	385.08	2.0196e-06	1.9518e-06	572.17	200.83	118.82	38.375	1.987e-06	75.136	220.303	81.695	95.907	48.307	199.189	202.703	48.767	52.335	202.057	210.172	52.004	57.097	56.413	62.238	216.664	61.231	-8191	255	
2025.887	1	1	0	0	0.087843	0.076364	0.26562	0.076098	0.042637	0.27186	0.059934	0.034022	0.02365	0.10287	0.18447	0.20577	0.24703	0.14298	0.2269	0.32343	-2.5146	-3.5083	-3.2375	-3.0875	-3.6167	-3.1	-3.3896	-3.625	-2.7667	-3.55	-3.2729	-2.9333	-3.7062	-3.1583	-3.0062	-3.65	159.561	374.805	75.063	242.998	230.218	106.839	344.138	381.169	138.184	363.220	170.095	361.506	391.322	94.472	57.427	343.300	0.0005576	0.00062453	0.00022147	1168.7	7.2623e-06	9.8289e-06	1578.8	415.96	7.8967e-06	7.7231e-06	630.01	216.96	129.12	41.42	6.7855e-06	81.09	0.00022387	0.00018225	5.0432e-05	1080.2	1.9628e-06	1.9499e-06	1448.8	382.75	1.9731e-06	1.9098e-06	564.67	200.05	118.64	38.269	1.9502e-06	74.698	215.952	119.420	116.168	48.564	269.219	185.415	48.842	52.441	206.350	195.980	51.819	56.930	56.676	62.227	223.489	61.351	-8191	255	
2025.983	1	1	0	0	0.17015	0.18083	0.086119	0.16665	0.084089	0.17139	0.16272	0.34006	0.055241	0.15634	0.11865	0.39147	0.11644	0.25096	0.10449	0.16444	-2.4562	-3.2583	-3.3646	-2.8854	-3.4125	-3.1521	-3.15	-3.8104	-2.8187	-3.2792	-3.6271	-2.8896	-3.4562	-3.1583	-2.975	-3.6667	348.705	156.939	234.426	285.516	313.322	301.830	303.884	299.140	314.264	241.091	44.973	329.953	165.722	328.984	191.364	342.826	0.00059726	0.00071314	0.00023534	1180.5	8.5406e-06	7.2054e-06	1582.1	415.77	6.1466e-06	7.6247e-06	627.27	215.27	127.59	40.058	6.3263e-06	78.516	0.00022329	0.00017092	4.9649e-05	1086.1	1.9272e-06	1.8895e-06	1453.3	382.38	1.9319e-06	1.8824e-06	564.03	197.78	117.48	37.407	1.9396e-06	72.702	224.324	120.392	93.998	48.524	212.329	188.477	48.804	52.384	226.178	184.716	51.768	56.476	56.955	61.638	233.156	61.419	-8191	255	
2026.079	1	1	0	0	0.1303	0.10755	0.04015	0.20507	0.21617	0.12349	0.2825	0.15314	0.21356	0.12056	0.13021	0.17802	0.23982	0.10079	0.058773	0.22953	-2.4396	-3.1896	-3.5104	-3.0125	-3.4833	-3.2	-3.0229	-3.8646	-3.1208	-3.1021	-3.7083	-2.9917	-3.5604	-3.4583	-2.8146	-3.65	38.012	131.377	102.105	315.727	375.965	343.003	315.525	385.491	317.841	361.638	94.275	277.188	64.856	57.026	188.333	58.925	0.00056839	0.0008572	0.00019673	1185.8	6.9626e-06	7.8507e-06	1585.4	414.99	6.4716e-06	6.8074e-06	627.38	213.98	126.74	39.754	6.5762e-06	77.795	0.00021965	0.00017577	5.0163e-05	1091.3	1.9932e-06	1.9351e-06	1456	381.64	1.9471e-06	1.8992e-06	563	196.31	116.53	36.9	1.9737e-06	71.961	221.337	123.124	94.335	48.501	223.569	181.055	48.668	52.582	222.425	198.265	52.233	57.090	56.981	62.015	231.036	61.594	-8191	255	
2026.198	1	1	0	0	0.12985	0.25338	0.15236	0.20938	0.17576	0.155	0.25001	0.091078	0.2265	0.11302	0.45294	0.27215	0.25149	0.20655	0.20396	0.16977	-2.7	-2.9521	-3.7875	-2.9062	-3.375	-3.5208	-2.9562	-3.7438	-3.1979	-3.025	-3.6792	-2.9854	-3.4875	-3.4542	-2.7417	-3.8292	234.115	337.030	285.370	318.058	352.785	382.902	324.621	353.725	99.212	347.202	382.680	37.451	377.549	389.283	354.951	55.372	0.00060781	0.00064784	0.00022158	1175.9	1.0087e-05	9.8156e-06	1573.4	412.08	6.7611e-06	3.6797e-06	624.72	212.17	125.39	40.004	8.7392e-06	78.076	0.00022357	0.00017862	5.0248e-05	1081.3	1.9568e-06	1.9258e-06	1442.3	379.02	2.0073e-06	1.9199e-06	557.77	195.22	115.86	36.953	2.0002e-06	71.954	219.519	111.516	120.482	48.638	219.639	185.193	48.674	52.315	207.892	172.545	52.170	57.159	57.039	62.196	243.374	61.563	-8191	255	
2026.295	1	1	0	0	0.15547	0.23593	0.24887	0.038272	0.198	0.1772	0.17484	0.22803	0.12541	0.24395	0.050335	0.18779	0.082591	0.045091	0.060463	0.1263	-2.7687	-2.8958	-3.6437	-2.8979	-3.1813	-3.2375	-2.9396	-3.5896	-3.1396	-2.9042	-3.6375	-3.1417	-3.3667	-3.6813	-2.7667	-3.6604	176.701	54.916	66.179	364.973	65.804	250.277	318.676	311.528	121.843	363.577	342.201	43.624	74.619	70.212	132.292	302.099	0.00053674	0.00084789	0.00022905	1179.3	6.1369e-06	2.9931e-06	1591.4	415.05	8.879e-06	8.5189e-06	625.87	213.67	126.95	40.049	6.2476e-06	77.902	0.00022009	0.00017921	4.9652e-05	1086.6	2.0319e-06	2.0009e-06	1457.5	381.02	2.0113e-06	2.0094e-06	562.95	196.09	116.95	36.956	1.9385e-06	71.748	220.415	126.699	99.743	48.454	218.942	155.402	48.680	52.482	215.357	226.987	51.779	57.126	56.876	61.671	212.949	61.425	-8191	255	
2026.391	1	1	0	0	0.11391	0.23403	0.17658	0.16318	0.14751	0.23751	0.16316	0.18623	0.055958	0.13484	0.30568	0.1066	0.045863	0.13208	0.023142	0.19073	-2.9625	-2.6542	-3.6188	-3.0208	-3.0438	-3.5812	-2.7896	-3.4458	-3.4417	-2.7125	-3.5375	-3.15	-2.9292	-3.6167	-2.7438	-3.3729	226.451	301.407	365.762	335.891	366.673	54.219	375.155	292.010	390.635	314.167	382.478	144.540	358.307	45.285	56.615	242.932	0.00058988	0.00055149	0.00019802	1191.3	2.7065e-06	5.9548e-06	1593.2	422.15	1.3052e-06	7.5182e-06	631.64	213.7	127.46	39.864	6.7036e-06	77.151	0.00022526	0.00018291	4.922e-05	1098.6	2.0037e-06	1.9488e-06	1467.9	386.31	1.9921e-06	1.9401e-06	565.44	196.79	117.4	36.838	1.9505e-06	71.053	219.854	89.317	76.703	48.312	247.846	185.767	48.465	52.275	237.443	194.270	52.239	56.458	56.468	61.626	208.399	61.057	-8191	255	
2026.487	1	1	0	0	0.21459	0.09983	0.14804	0.29151	0.024833	0.23585	0.099245	0.38398	0.15726	0.041285	0.23524	0.36105	0.057922	0.033813	0.30791	0.3954	-2.9521	-2.7646	-3.6375	-3.2208	-2.8708	-3.6229	-3.1667	-3.5167	-3.4	-2.8667	-3.7646	-3.2646	-3.0875	-3.675	-3.0083	-3.2062	317.007	303.484	355.335	393.774	285.716	63.205	300.987	335.447	83.744	35.354	282.771	365.286	122.893	327.816	392.767	330.711	0.00050279	0.00042168	0.00013479	1195.4	7.6923e-06	9.0557e-06	1595.1	420.87	7.0523e-06	1.6717e-06	635.84	215.2	128.51	40.178	4.8262e-06	78.259	0.00021964	0.00017662	4.7445e-05	1098.5	1.9925e-06	1.9941e-06	1464.1	387.63	1.9619e-06	1.9292e-06	568.11	197.82	118.14	37.188	1.957e-06	71.9	215.621	108.562	151.122	48.165	190.311	170.864	48.592	52.254	206.227	249.754	51.590	56.361	56.488	61.994	191.450	61.041	-8191	255	
2026.583	1	1	0	0	0.22373	0.10446	0.10095	0.15653	0.071867	0.25332	0.055613	0.2559	0.043804	0.24082	0.23375	0.099538	0.15003	0.10227	0.14046	0.36251	-3.1167	-2.7042	-3.5417	-3.3542	-2.9062	-3.4979	-3.2125	-3.2812	-3.3083	-2.8292	-3.6417	-3.55	-2.9896	-3.5625	-3.1146	-3.1604	227.793	122.769	318.711	327.515	196.351	127.896	334.347	331.201	217.239	374.412	286.077	318.767	299.703	75.345	165.432	326.614	0.00054197	0.00045282	0.00027175	1189.2	5.1813e-06	2.367e-06	1591.1	420.55	3.4527e-06	8.5419e-06	638.91	217.87	128.58	40.747	7.3978e-06	79.688	0.00022062	0.00017896	4.8888e-05	1093.3	2.0366e-06	1.9145e-06	1463.8	387.33	1.9634e-06	1.9211e-06	571.57	199.96	118.69	37.782	1.9113e-06	73.474	224.193	87.333	104.820	48.388	211.814	102.430	48.467	52.068	224.962	173.208	52.001	56.829	56.649	62.127	240.876	61.297	-8191	255	
2026.679	1	1	0	0	0.15524	0.27777	0.014151	0.23034	0.16473	0.14913	0.021052	0.19662	0.22949	0.2179	0.11707	0.20165	0.3501	0.14889	0.040322	0.24624	-3.2021	-2.7667	-3.3063	-3.6167	-2.7625	-3.6271	-3.2979	-3.1083	-3.4896	-2.8833	-3.5563	-3.4833	-3.0208	-3.7542	-3.1271	-3.2417	245.987	220.205	302.992	295.685	135.925	54.552	306.152	324.119	162.261	165.708	58.719	369.534	383.778	325.572	137.524	320.604	0.00062408	0.00030085	0.00023424	1188.6	4.4438e-06	4.0134e-06	1588.4	422.18	7.751e-06	7.4788e-06	642.59	218.08	129.5	41.114	4.0582e-06	79.572	0.00022406	0.00017896	5.0504e-05	1091.5	1.9927e-06	1.89e-06	1465.4	388.77	1.9307e-06	1.85e-06	572.98	201.2	119.65	38.143	1.9251e-06	73.385	217.085	109.730	128.734	48.526	220.720	201.839	48.671	52.355	204.126	204.490	52.105	56.515	56.442	61.685	210.209	61.356	-8191	255	
2026.800	1	1	0	0	0.12596	0.081959	0.027609	0.18998	0.063811	0.039014	0.24946	0.22687	0.15239	0.078947	0.14427	0.092054	0.22988	0.017369	0.20577	0.12638	-3.0646	-2.7646	-3.2562	-3.5792	-2.7375	-3.6104	-3.5083	-3.0042	-3.8521	-2.9083	-3.1937	-3.5938	-2.725	-3.4521	-3.2125	-3.025	375.472	148.370	362.740	356.564	142.815	88.054	59.114	34.300	280.064	264.369	97.493	73.513	46.450	382.399	349.545	129.021	0.00060937	0.00059101	0.0001908	1190.1	7.9183e-06	5.9897e-06	1597	421.52	2.7702e-06	5.3264e-06	641.24	216	128.49	40.181	1.0449e-05	77.838	0.00022871	0.00017694	4.905e-05	1096.1	1.9346e-06	1.9272e-06	1465.4	387.82	1.8256e-06	1.867e-06	568.91	198.09	118.17	37.275	1.8703e-06	71.792	214.243	99.184	93.953	48.291	222.900	186.340	48.450	52.128	226.298	130.530	51.590	56.344	56.708	61.777	191.700	60.966	-8191	255	
2026.894	1	1	0	0	0.28814	0.11072	0.087979	0.1494	0.055695	0.20528	0.34152	0.20593	0.073112	0.025683	0.08691	0.3149	0.18483	0.19342	0.16469	0.23496	-3.2333	-2.9583	-3.1292	-3.7604	-2.8167	-3.4521	-3.4208	-3.0312	-3.5458	-3.1042	-3.1042	-3.6188	-2.9708	-3.5479	-3.3021	-3.1271	318.498	299.840	394.005	390.022	285.848	105.851	317.996	137.800	144.629	159.392	226.184	388.817	322.673	283.022	369.641	363.232	0.00053462	0.00072477	0.0001514	1189.2	6.6143e-06	1.0018e-05	1591.1	420.33	3.9879e-06	5.0001e-06	635.79	213.99	127.4	40.185	6.7633e-06	77.512	0.00020774	0.00017289	4.8179e-05	1093.6	1.8634e-06	1.8331e-06	1458.2	385.21	1.8177e-06	1.7862e-06	566.82	197.13	117.53	37.111	1.8373e-06	71.665	216.594	135.929	82.407	48.328	196.805	224.111	48.468	52.205	223.013	165.317	52.312	56.448	56.504	61.845	225.289	60.990	-8191	255	
2026.990	1	1	0	0	0.1531	0.19717	0.10468	0.45249	0.11685	0.18589	0.15208	0.21526	0.13284	0.050441	0.071351	0.14742	0.07982	0.32101	0.17843	0.33181	-3.1937	-2.9896	-2.9479	-3.7625	-2.8917	-3.2854	-3.7208	-2.8979	-3.5521	-3.0917	-2.9625	-3.7792	-2.8667	-3.2354	-3.3646	-2.8583	115.334	181.075	111.409	384.429	324.157	375.341	353.806	314.225	164.280	244.585	284.753	365.022	91.899	37.866	121.635	340.669	0.00054108	0.00013238	0.00015901	1183	8.0183e-06	6.6367e-06	1582.1	417.98	6.6132e-06	8.9912e-06	626.82	215.31	127.41	39.958	4.2359e-06	78.148	0.00021341	0.0001692	4.7104e-05	1088.6	1.8962e-06	1.8258e-06	1454	382.83	1.9183e-06	1.8341e-06	563.14	197.17	117.25	37.112	1.8547e-06	71.911	220.530	37.284	101.547	48.604	220.772	212.554	48.345	52.324	221.282	203.549	51.952	56.785	56.671	61.649	220.466	61.109	-8191	255	
2027.086	1	1	0	0	0.22601	0.071351	0.005863	0.11134	0.018262	0.13743	0.15373	0.21845	0.25613	0.37164	0.091109	0.087514	0.18334	0.23189	0.22666	0.1945	-3.1146	-3.0542	-3.0375	-3.7062	-2.8625	-3.2271	-3.6354	-2.8708	-3.4917	-3.2812	-2.8542	-3.7125	-3.1854	-3.2958	-3.6479	-2.9354	369.607	160.093	120.541	103.343	154.064	393.946	320.534	297.019	324.709	376.824	34.516	81.382	392.695	388.024	353.186	356.724	0.00056943	0.00064702	0.00022178	1184.6	9.346e-06	8.5164e-06	1592.6	419.36	4.8632e-06	6.6247e-06	633.52	216.27	128.63	40.221	3.0258e-06	77.837	0.00021453	0.00017477	4.8281e-05	1094.1	1.9284e-06	1.9028e-06	1464.9	385.46	1.9325e-06	1.8643e-06	567.09	198.12	118.08	37.39	1.9053e-06	71.895	214.503	101.513	118.898	48.365	221.258	221.263	48.501	52.317	221.067	241.555	52.105	56.920	56.858	61.769	234.178	60.864	-8191	255	
2027.160	1	1	0	0	0.097521	0.15816	0.32407	0.26013	0.19749	0.091758	0.21562	0.051024	0.1886	0.039822	0.079082	0.21837	0.20295	0.24628	0.1558	0.27231	-3.0875	-3.3604	-2.825	-3.7667	-3.075	-3.125	-3.9292	-3.0312	-3.3854	-3.4375	-2.9083	-3.7354	-3.1875	-3.1521	-3.5604	-2.9875	186.761	347.726	71.612	386.694	175.455	188.416	328.804	118.155	55.386	120.432	182.889	344.384	368.496	49.496	161.711	264.474	0.00051814	0.00080412	0.00015692	1196.2	8.1493e-06	8.4131e-06	1595.3	420.06	3.8172e-06	9.0225e-06	632.46	213.89	127.65	39.768	6.7872e-07	76.826	0.0002193	0.00017686	4.8785e-05	1098.4	1.9828e-06	1.9615e-06	1462.9	385.83	1.9184e-06	1.8483e-06	565.98	196.01	117.49	36.815	1.929e-06	70.808	219.969	104.222	96.680	48.625	230.094	203.212	48.559	52.550	196.158	156.669	52.238	56.819	56.309	61.799	194.554	61.366	-8191	255	
2027.279	1	1	0	0	0.1581	0.23959	0.14652	0.32643	0.097207	0.25845	0.29897	0.026651	0.19789	0.090233	0.22675	0.26742	0.072712	0.044488	0.12596	0.064812	-2.7333	-3.4188	-2.6521	-3.6229	-3.1542	-3.0021	-3.9167	-3.0271	-3.2313	-3.5896	-2.7687	-3.6646	-3.2708	-2.9437	-3.6833	-3.1521	138.245	265.199	262.238	363.617	166.900	210.420	392.721	203.712	239.248	198.699	283.012	297.146	154.491	376.640	213.631	48.291	0.00055534	0.00050483	6.2773e-05	1189.1	9.0439e-06	7.1086e-06	1588.3	419.2	6.1045e-06	3.4391e-06	632.17	212.92	127.61	40.128	5.1726e-06	77.267	0.00021873	0.00017852	4.9113e-05	1095.6	1.9575e-06	1.9018e-06	1456.8	385.11	1.9561e-06	1.8843e-06	565.15	196.29	117.57	37.172	1.9113e-06	71.525	216.278	150.034	120.410	48.395	199.585	180.577	48.466	52.014	226.669	168.805	51.617	56.726	56.430	61.886	215.977	60.964	-8191	255	
2027.375	1	1	0	0	0.15774	0.070526	0.19933	0.091447	0.13035	0.080283	0.18795	0.14767	0.057945	0.33655	0.25147	0.34973	0.1297	0.075073	0.078573	0.14974	-2.7812	-3.5958	-2.8063	-3.7271	-3.2812	-2.9708	-3.8729	-3.2583	-3.2104	-3.7938	-2.9354	-3.3833	-3.3833	-2.9875	-3.7979	-3.2438	196.736	367.055	238.190	373.139	153.163	115.975	381.460	334.776	290.669	301.294	76.779	346.234	266.260	141.919	333.689	97.284	0.00057738	0.00038612	0.00028223	1178	5.5222e-06	8.3705e-06	1577.4	413.99	7.2583e-06	1.9381e-06	629.32	215.09	127.94	40.481	5.3851e-06	79.057	0.00022645	0.00017881	4.9284e-05	1086.3	1.9449e-06	1.9259e-06	1452.7	382.41	2.0098e-06	1.9599e-06	562.68	197.32	117.65	37.474	1.967e-06	72.631	216.889	77.909	123.932	48.422	199.353	172.120	48.482	52.053	208.232	207.378	51.557	56.745	56.800	61.766	192.907	61.434	-8191	255	
2027.471	1	1	0	0	0.069235	0.14614	0.093902	0.11906	0.10144	0.08589	0.24661	0.22981	0.080282	0.10441	0.13456	0.34649	0.16991	0.04376	0.12926	0.12148	-2.6708	-3.5083	-2.9104	-3.5125	-3.3479	-2.7708	-3.7229	-3.2375	-3.0125	-3.6271	-2.8688	-3.4625	-3.5062	-2.8563	-3.6146	-3.0958	206.057	192.734	284.804	378.546	219.572	340.023	304.792	306.136	285.695	218.060	103.564	372.427	327.632	106.665	194.788	256.219	0.00055289	0.00054776	0.00023943	1181.4	7.594e-06	1.4763e-06	1584.3	418.52	1.3209e-06	1.2153e-05	630.77	214.98	128.77	40.676	6.3057e-06	78.214	0.00022514	0.00017503	5.0297e-05	1088.4	2.0143e-06	2.0054e-06	1456.8	385.12	2.0752e-06	1.925e-06	564.62	197.96	118.37	37.604	1.8849e-06	72.096	213.813	110.338	118.028	48.737	218.474	160.644	48.645	52.314	215.714	198.598	51.773	56.752	56.597	61.860	212.009	61.244	-8191	255	
2027.592	1	1	0	0	0.1027	0.073737	0.18675	0.27558	0.077144	0.23233	0.12102	0.20206	0.059488	0.15935	0.078019	0.35797	0.18395	0.13549	0.1588	0.032979	-2.4833	-3.6437	-2.8917	-3.3979	-3.4167	-2.8042	-3.7062	-3.3812	-2.7958	-3.6708	-2.9479	-3.2479	-3.6813	-2.8854	-3.5563	-3.3958	304.101	187.911	135.109	333.650	287.060	203.939	370.219	389.292	312.826	275.752	138.656	348.510	371.803	339.961	261.977	158.916	0.00052761	0.00089523	0.00019401	1185.1	6.5305e-06	6.3433e-06	1578.9	415.51	9.5631e-06	9.0301e-06	625.31	212.98	126.89	40.152	5.3211e-06	77.473	0.00022633	0.00017932	4.9377e-05	1092	1.9943e-06	1.9769e-06	1450.1	382.34	1.9832e-06	1.8446e-06	559.98	196.1	116.96	37.192	1.9384e-06	71.462	219.661	122.021	115.233	48.674	223.091	203.091	48.858	52.593	211.398	196.450	51.839	56.755	56.491	61.823	225.638	60.840	-8191	255	
2027.688	1	1	0	0	0.10273	0.059476	0.18126	0.27362	0.24438	0.23959	0.13716	0.17984	0.071665	0.10051	0.3012	0.27724	0.23626	0.24849	0.051088	0.12739	-2.5333	-3.5812	-3.1188	-3.3438	-3.5438	-2.9333	-3.7146	-3.6208	-2.7458	-3.5604	-3.225	-3.3167	-3.7562	-2.9396	-3.4062	-3.7062	182.898	232.830	287.377	351.233	357.743	52.257	393.296	368.838	111.116	170.344	333.083	281.199	377.790	375.224	137.483	342.353	0.00052186	0.00089224	0.00019413	1178.5	8.4246e-06	2.9285e-06	1573.8	413.17	6.384e-06	7.6983e-06	619.44	212.59	126.45	40.029	4.4401e-06	77.976	0.00022083	0.00017049	4.8205e-05	1084	1.9997e-06	1.9143e-06	1445.4	378.98	1.9281e-06	1.8235e-06	557.03	195.14	116.37	37.201	1.9467e-06	71.946	216.905	121.524	106.698	48.241	195.905	233.886	48.672	52.398	216.353	163.361	52.158	56.873	56.596	61.927	209.229	61.670	-8191	255	
2027.760	1	1	0	0	0.27583	0.2162	0.16303	0.33627	0.042799	0.25034	0.38753	0.086067	0.084162	0.12382	0.1124	0.26047	0.25124	0.079393	0.059612	0.25258	-2.4417	-3.5021	-3.0438	-3.1458	-3.6792	-2.9813	-3.4667	-3.6146	-2.6958	-3.5563	-3.2458	-2.9396	-3.6854	-3.1771	-3.2333	-3.6354	309.386	127.857	74.558	50.164	187.590	89.168	330.490	243.430	304.189	198.297	210.165	352.563	60.263	379.993	48.238	306.565	0.0005516	0.00083386	0.0002174	1182.7	7.0612e-06	9.0193e-06	1580	414.11	6.3318e-06	5.2241e-06	624.73	212.93	127.06	40.547	6.0527e-06	78.859	0.00022797	0.0001794	4.8653e-05	1086.6	1.9742e-06	1.9643e-06	1448.8	380.43	2.0313e-06	1.9712e-06	559.39	196.27	117.4	37.526	2.0021e-06	72.758	218.921	106.020	118.627	48.802	243.096	168.156	48.858	52.433	224.037	167.683	52.172	56.896	56.910	61.925	212.281	61.422	-8191	255	
2027.880	1	1	0	0	0.052303	0.17406	0.067079	0.31888	0.12256	0.17756	0.39119	0.2547	0.151	0.072038	0.23008	0.31961	0.32973	0.47844	0.12655	0.17594	-2.3604	-3.2667	-3.2604	-3.0917	-3.5854	-2.8625	-3.3521	-3.6646	-2.8271	-3.3438	-3.375	-2.8937	-3.6583	-3.0646	-2.9437	-3.7083	138.365	256.578	330.551	345.616	204.686	291.740	310.995	337.990	378.908	204.369	358.474	389.413	44.492	387.699	230.056	316.274	0.0005672	0.00058515	0.00019252	1191.9	4.8622e-06	9.4973e-06	1592.6	420.85	8.1376e-06	8.9853e-06	633.11	216.45	128.81	40.798	2.7954e-06	78.819	0.0002285	0.00017497	4.9272e-05	1095.8	2.0011e-06	1.9228e-06	1461.1	387.03	1.9731e-06	1.9684e-06	566.84	198.28	118.85	37.798	1.9374e-06	72.445	216.277	103.969	166.252	48.677	209.734	211.341	48.897	52.324	212.044	180.304	52.137	56.917	56.640	61.937	221.181	61.197	-8191	255	
2027.976	1	1	0	0	0.23463	0.29348	0.16111	0.30552	0.22802	0.030804	0.3443	0.23897	0.20979	0.028796	0.15174	0.22685	0.17521	0.11448	0.19198	0.17136	-2.5396	-3.4333	-3.4479	-3.1188	-3.5396	-3.2708	-3.4062	-3.8125	-3.0708	-3.2083	-3.3354	-3.0062	-3.8229	-3.3292	-3.0479	-3.7062	178.336	42.033	135.311	367.111	110.403	101.405	343.054	313.246	222.367	351.245	341.382	353.442	365.644	314.156	365.569	366.170	0.0005142	0.00096869	0.00022293	1195.2	8.1691e-06	8.4144e-06	1583.8	421.47	8.0541e-06	6.6221e-06	637.05	213.1	129.14	40.441	6.6816e-06	76.912	0.00022161	0.00017337	5.0164e-05	1098.6	1.9404e-06	1.9678e-06	1458.3	387.67	1.9832e-06	1.9383e-06	567.75	196.48	118.92	37.325	2.0939e-06	71.123	217.588	108.999	122.001	48.508	225.726	202.133	48.415	52.017	235.659	181.606	51.539	56.491	56.487	61.564	214.212	61.106	-8191	255	
2028.071	1	1	0	0	0.16804	0.035618	0.082049	0.37208	0.21056	0.089031	0.13878	0.37343	0.055217	0.10437	0.17674	0.16344	0.13442	0.089915	0.13386	0.22439	-2.5833	-3.1083	-3.4313	-3.0708	-3.4208	-3.0563	-3.1937	-3.75	-3.0292	-3.0917	-3.675	-2.8792	-3.5021	-3.5333	-2.8229	-3.8208	285.897	240.869	361.848	341.753	375.766	354.393	357.647	329.380	170.369	349.300	351.704	328.128	394.145	60.503	216.143	63.238	0.00056825	0.00042735	0.00026982	1184.4	7.8915e-06	9.4121e-06	1590.9	417.22	5.8512e-06	6.4677e-06	628.21	212.32	127.02	39.749	5.8347e-06	75.474	0.00022176	0.00018592	5.0898e-05	1095.5	2.0773e-06	2.0293e-06	1456	384.73	2.0486e-06	1.9648e-06	562.1	194.43	117.24	36.868	2.0414e-06	69.797	215.017	144.695	71.829	48.739	229.290	225.486	48.527	52.435	198.607	185.366	51.743	56.534	56.582	61.485	207.544	61.018	-8191	255	
2028.191	1	1	0	0	0.10287	0.13783	0.050708	0.27571	0.12357	0.17772	0.52355	0.1407	0.18645	0.08911	0.3733	0.087003	0.13603	0.071057	0.32632	0.097577	-2.7062	-3.15	-3.5396	-3.0396	-3.3688	-3.3896	-3.0083	-3.7542	-3.1729	-3.0229	-3.5521	-3.0187	-3.4562	-3.5896	-2.775	-3.7417	301.435	310.106	72.243	327.263	112.307	211.409	332.833	361.807	279.372	308.090	42.804	54.210	129.018	226.582	130.261	299.142	0.00049767	0.00071903	0.00018222	1185.4	7.2211e-06	9.55e-06	1582.7	414.26	7.3609e-06	2.9711e-06	620.87	210.9	126.54	39.43	5.411e-06	75.945	0.00022674	0.00018475	5.139e-05	1090.3	2.0872e-06	1.952e-06	1451	382.57	1.9731e-06	1.9001e-06	559.03	193.13	116.25	36.585	1.9772e-06	70.146	216.848	107.436	127.329	48.283	200.076	186.266	48.660	51.997	224.693	130.988	52.197	56.451	56.673	61.738	249.868	61.146	-8191	255	
2028.287	1	1	0	0	0.21977	0.20514	0.14028	0.21622	0.1018	0.28851	0.083437	0.29295	0.2063	0.095968	0.195	0.21443	0.30456	0.18999	0.2257	0.32967	-2.6417	-3.0708	-3.5333	-3.025	-3.2438	-3.4479	-3.0083	-3.7062	-3.2229	-3.1562	-3.6562	-2.9813	-3.35	-3.5375	-2.7812	-3.5521	73.983	324.175	167.462	291.520	199.639	376.010	333.704	362.646	385.114	383.958	84.241	61.442	371.036	352.995	126.874	375.387	0.00056145	0.00076306	0.0001683	1178.4	5.4018e-06	6.7296e-06	1567.6	410.66	7.5362e-06	7.4192e-06	620.19	206.4	123.98	38.804	8.9068e-06	74.666	0.00022266	0.00018085	5.0362e-05	1087.4	2.0293e-06	1.9897e-06	1441	379.1	2.0672e-06	2.005e-06	553.84	189.93	114.83	36.085	1.9878e-06	68.872	218.467	101.507	113.450	48.661	259.178	204.485	48.255	51.986	210.883	202.185	52.097	56.869	56.518	61.616	200.680	61.011	-8191	255	
2028.384	1	1	0	0	0.1756	0.32243	0.19128	0.10889	0.041869	0.16935	0.24126	0.14833	0.087809	0.10651	0.12534	0.12764	0.17382	0.20248	0.042997	0.1298	-2.8667	-2.9771	-3.5187	-3.1188	-3.275	-3.5521	-2.9292	-3.5563	-3.1396	-2.9375	-3.5146	-3.1604	-3.3229	-3.6583	-2.7729	-3.6479	188.655	249.319	145.587	340.592	195.960	79.402	333.990	317.176	329.679	203.520	291.982	141.327	287.322	386.059	365.255	297.786	0.00053268	0.00064637	0.00011491	1174	9.273e-06	5.0689e-06	1569.3	411.3	4.8736e-06	7.359e-06	617.59	205.71	125.02	38.805	3.1962e-06	74.292	0.00022632	0.00018552	5.0131e-05	1084.4	2.0959e-06	1.9312e-06	1438.8	378.83	2.1236e-06	1.9938e-06	553.47	188.91	114.85	35.872	1.9949e-06	68.297	216.813	141.785	88.580	48.341	232.237	204.013	48.620	51.926	213.316	197.934	51.680	56.416	56.315	61.903	210.707	60.970	-8191	255	
2028.455	1	1	0	0	0.21471	0.12416	0.24143	0.12084	0.19897	0.19852	0.23786	0.1203	0.1619	0.10939	0.30178	0.25062	0.1504	0.14979	0.3206	0.28438	-2.9208	-2.7896	-3.6042	-3.1979	-2.975	-3.3458	-3.0271	-3.2938	-3.2896	-2.7938	-3.575	-3.1083	-3.05	-3.6542	-2.8271	-3.5021	167.411	356.268	90.568	36.316	330.662	200.162	304.341	327.379	246.188	95.329	330.666	86.110	350.537	233.961	40.266	303.670	0.00050918	0.0004299	0.0002024	1173.6	9.1218e-06	4.2377e-06	1555	411.89	6.0331e-06	2.2966e-06	621.41	206.65	125.32	38.888	4.2867e-06	75.331	0.00022834	0.00019065	5.3157e-05	1080.2	2.0282e-06	1.9301e-06	1431.8	378.67	2.0783e-06	1.9785e-06	555.25	189.66	115.4	36.235	2.0264e-06	69.287	215.064	154.388	190.175	48.417	185.426	204.981	48.602	52.171	206.523	171.520	51.803	56.354	56.639	61.896	204.478	61.063	-8191	255	
2028.576	1	1	0	0	0.35426	0.22779	0.24398	0.13574	0.10855	0.16963	0.39195	0.13761	0.086784	0.15696	0.10547	0.076916	0.11434	0.22773	0.095259	0.049627	-3.0458	-2.7958	-3.3979	-3.3083	-2.7917	-3.5687	-3.1104	-3.3	-3.2729	-2.6146	-3.7479	-3.4875	-2.8521	-3.6021	-2.9188	-3.2396	351.975	388.608	366.769	67.725	318.603	186.377	331.669	117.879	361.611	359.410	320.674	40.428	350.396	43.722	106.499	102.327	0.00051706	0.00050715	0.00018094	1173.6	6.6711e-06	1.1019e-05	1568.2	412.07	7.704e-06	5.8832e-06	622.02	209.28	126.55	39.909	8.4638e-06	76.006	0.00022379	0.00017645	4.9926e-05	1077.7	2.0298e-06	1.9641e-06	1434.8	380	1.97e-06	2.0381e-06	557.58	192.1	116.31	36.776	2.0603e-06	70.007	222.664	124.157	86.943	48.242	193.749	189.419	48.671	52.228	229.805	195.261	51.856	56.623	56.303	61.830	183.351	61.140	-8191	255	
2028.672	1	1	0	0	0.14624	0.17585	0.084923	0.1345	0.017241	0.11978	0.34994	0.28494	0.18615	0.15754	0.27227	0.33938	0.11616	0.25544	0.13426	0.22281	-3.1458	-2.7646	-3.2396	-3.4979	-2.7542	-3.5896	-3.2021	-3.075	-3.3917	-2.8646	-3.45	-3.5208	-2.9229	-3.6792	-3.0792	-3.1375	246.402	133.262	247.722	377.752	127.912	163.215	326.855	337.203	283.021	235.132	312.579	308.213	47.732	389.115	250.411	302.959	0.00062709	0.00070032	0.00010589	1177.1	7.401e-06	7.7455e-06	1555.5	412.28	4.5574e-06	6.3107e-06	616.87	207.11	125.13	39.085	5.0581e-06	74.814	0.00022669	0.00018833	5.1274e-05	1081.3	2.0307e-06	1.9943e-06	1431	379.74	2.0169e-06	2.0094e-06	553.21	190.39	115.04	36.312	2.058e-06	69.017	219.224	126.858	144.065	47.902	199.183	211.161	48.270	52.291	237.236	194.762	51.818	56.637	56.495	61.690	216.047	61.063	-8191	255	
2028.768	1	1	0	0	0.14918	0.21135	0.16945	0.31607	0.1143	0.21951	0.039818	0.34256	0.084871	0.2616	0.10818	0.19312	0.087696	0.084416	0.18204	0.14019	-3.2521	-2.7917	-3.3354	-3.7521	-2.7646	-3.5396	-3.2917	-2.8812	-3.5917	-2.8563	-3.2479	-3.4313	-3.0375	-3.6	-3.0062	-2.9	315.098	63.445	134.442	374.281	307.334	126.763	257.513	356.189	110.356	359.033	323.232	393.301	232.811	127.593	137.081	282.342	0.00053785	0.00062468	0.00023254	1165.6	8.6217e-06	6.0063e-06	1559.6	411.81	8.1939e-06	9.2552e-06	620.17	207.15	125.87	39.102	6.8266e-06	74.478	0.00021875	0.00018057	4.9473e-05	1076.1	2.0297e-06	2.0078e-06	1432.4	379.61	2.0709e-06	2.0308e-06	554.88	190.21	115.73	36.247	2.0512e-06	68.572	223.949	101.291	98.684	48.278	219.938	204.765	48.353	52.106	192.458	187.473	51.783	56.553	56.158	61.736	239.395	61.135	-8191	255	
2028.864	1	1	0	0	0.18812	0.21172	0.077661	0.10404	0.2876	0.074929	0.13755	0.15055	0.23168	0.025636	0.28928	0.34397	0.10896	0.04829	0.093006	0.026515	-3.1312	-2.8792	-3.2021	-3.6125	-2.7875	-3.4208	-3.5479	-2.9875	-3.6125	-3.0938	-3.3042	-3.6667	-2.85	-3.5333	-3.1479	-2.9417	333.188	37.472	36.433	383.907	44.966	282.982	330.482	261.539	338.770	111.919	196.741	330.422	278.938	54.489	256.036	250.556	0.00056664	0.0009144	0.00012228	1174.2	4.3232e-06	3.6205e-06	1557.1	412.91	7.3202e-06	6.4807e-06	615.32	206.31	125.12	39.155	4.9506e-06	74.969	0.00022593	0.0001868	5.0684e-05	1079.2	2.0299e-06	2.0333e-06	1426.5	379.91	2.0217e-06	2.0638e-06	552.44	190.03	115.21	36.276	2.009e-06	69.043	219.330	105.913	119.078	48.023	173.202	163.654	48.389	52.313	199.252	192.233	51.769	56.544	56.838	61.749	211.757	60.858	-8191	255	
2028.983	1	1	0	0	0.094032	0.080763	0.077467	0.084056	0.10619	0.055324	0.25767	0.15211	0.19166	0.15441	0.32497	0.33281	0.1986	0.28492	0.27485	0.21032	-3.0417	-3.0792	-3.0229	-3.7396	-2.8854	-3.4021	-3.6146	-3.0104	-3.4583	-2.9646	-3.0917	-3.6896	-2.7646	-3.4146	-3.325	-2.7396	267.598	319.739	99.092	377.770	108.324	232.601	330.873	309.196	362.881	332.068	330.913	44.532	71.200	73.445	224.503	110.835	0.00056353	0.00073105	0.00014762	1161.7	2.1101e-06	9.4895e-06	1545.7	407.93	3.9493e-06	5.6008e-06	615.87	208.57	125.42	40.254	5.3085e-06	76.774	0.00023086	0.00018572	5.0076e-05	1067.3	1.9653e-06	1.9613e-06	1420.9	375.98	2.0295e-06	1.9004e-06	551.86	191.89	115.64	37.143	1.9829e-06	70.937	214.264	97.877	99.374	48.355	195.273	197.643	48.275	52.090	237.974	148.606	51.811	56.640	56.624	61.574	235.474	61.054	-8191	255	
2029.057	1	1	0	0	0.073768	0.26351	0.12372	0.26922	0.12524	0.055634	0.3153	0.29215	0.11458	0.14158	0.16197	0.21783	0.13418	0.094802	0.050106	0.3785	-2.9958	-2.9583	-2.8979	-3.5125	-2.7313	-3.0875	-3.75	-2.9292	-3.5104	-3.2625	-2.8125	-3.6333	-2.9396	-3.2396	-3.525	-3.0042	45.101	69.633	136.652	347.983	297.067	247.595	313.210	299.600	332.690	358.648	291.634	54.235	391.983	382.540	317.864	318.781	0.00050273	0.001015	0.0002979	1177.4	8.8825e-06	8.3426e-06	1560.6	417.22	6.5685e-06	6.1018e-06	621.93	209.71	127.2	39.953	4.494e-06	75.691	0.000227	0.00018395	5.0522e-05	1081.4	2.0628e-06	1.9848e-06	1431.1	382.32	2.1337e-06	2.0089e-06	558.6	192.76	117.19	37.051	2.0182e-06	70.085	221.478	82.824	130.572	48.443	200.733	194.746	48.187	52.143	180.126	187.889	51.548	56.249	56.445	61.650	219.047	61.078	-8191	255	
2029.153	1	1	0	0	0.27392	0.201	0.13461	0.094655	0.096058	0.22126	0.20038	0.26633	0.15196	0.14159	0.082932	0.1318	0.032641	0.25813	0.13683	0.25802	-2.9271	-3.2188	-2.875	-3.6333	-2.8917	-3.0917	-3.7229	-2.9104	-3.4229	-3.3667	-2.7021	-3.5417	-3.0896	-3.2812	-3.525	-2.9708	278.896	273.377	152.710	68.844	137.746	379.273	34.833	340.656	384.711	368.437	370.472	355.276	361.207	357.878	393.084	262.224	0.00059289	0.00074323	0.00029439	1176	8.501e-06	6.5216e-06	1563.8	415.46	3.8939e-06	1.2052e-06	625.85	208.8	127.11	39.644	5.3494e-06	75.118	0.00022963	0.00018662	5.2172e-05	1082.2	2.1022e-06	1.9881e-06	1431.2	382.36	1.994e-06	2.028e-06	557.93	192.01	117.18	36.79	1.9713e-06	69.53	217.936	109.883	120.186	48.038	230.069	167.888	48.502	52.084	221.124	155.770	51.930	56.539	56.302	61.572	200.559	60.949	-8191	255	
2029.272	1	1	0	0	0.31131	0.093119	0.20632	0.2901	0.038727	0.14722	0.21074	0.11564	0.20395	0.062606	0.01891	0.26734	0.11169	0.25123	0.12914	0.21101	-2.875	-3.4437	-2.9	-3.7292	-2.9979	-3.0833	-3.9021	-3.0042	-3.3042	-3.5167	-2.9042	-3.5792	-3.0646	-3.0271	-3.7875	-2.9792	146.020	163.778	124.380	349.213	325.173	217.393	327.414	335.808	250.740	252.663	292.598	357.846	295.949	358.311	375.487	272.863	0.00052809	0.00067695	0.00016283	1168.5	8.8892e-06	6.5581e-06	1543	411.84	8.0698e-06	3.9519e-06	620.46	208.77	126.35	39.793	8.0064e-06	76.371	0.00021916	0.00018504	5.1151e-05	1075.3	2.0326e-06	1.9659e-06	1421.9	379.24	2.008e-06	1.9531e-06	555.38	192.38	116.27	36.922	1.9503e-06	70.114	219.664	108.830	109.301	48.364	181.907	219.162	48.185	52.041	206.976	144.022	51.912	56.744	56.243	61.602	238.787	60.712	-8191	255	
2029.368	1	1	0	0	0.20493	0.20278	0.11252	0.24146	0.16485	0.072016	0.22026	0.17172	0.42302	0.30635	0.16119	0.29787	0.06253	0.28177	0.18967	0.1033	-2.9042	-3.5521	-2.8333	-3.675	-3.2729	-2.8417	-3.8354	-3.1	-3.0042	-3.5	-2.7521	-3.4125	-3.4062	-2.9125	-3.6167	-3.0833	257.301	209.599	229.460	341.579	194.848	87.253	54.243	286.866	355.429	170.925	35.766	66.188	275.148	358.279	178.137	335.565	0.00051039	0.00031599	0.00028095	1179.1	6.9798e-06	1.125e-05	1561.7	416.58	5.7649e-06	4.5887e-06	619.58	209.22	127.77	40.323	5.6863e-06	76.51	0.00022062	0.00018165	5.1207e-05	1082.1	2.0435e-06	1.9772e-06	1434.5	382.64	1.982e-06	1.969e-06	558.36	192.88	117.3	37.207	2.0065e-06	70.113	219.113	137.001	109.358	48.250	193.917	205.204	48.262	51.910	203.637	176.130	51.809	56.587	56.112	61.432	237.737	61.257	-8191	255	
2029.464	1	1	0	0	0.078748	0.059764	0.042073	0.17421	0.11873	0.16041	0.055316	0.23112	0.10397	0.13903	0.11603	0.16205	0.18332	0.21352	0.21305	0.13356	-2.5708	-3.6188	-2.7958	-3.3792	-3.4688	-2.7875	-3.6396	-3.1104	-3.0271	-3.375	-2.8354	-3.4667	-3.4521	-2.7687	-3.5417	-3.3958	238.848	87.949	276.012	294.162	81.344	225.518	360.077	360.665	371.591	309.852	317.119	113.552	196.944	323.104	169.582	103.588	0.00049918	0.00023308	0.0002331	1171.4	2.2106e-06	7.2365e-06	1558.6	413.45	7.3445e-06	1.0179e-05	614.34	208.55	124.88	39.262	3.2377e-06	74.963	0.00022329	0.00018626	5.0039e-05	1079.2	1.9984e-06	1.9721e-06	1428.4	380.02	2.0226e-06	1.9464e-06	551.71	191.26	115.53	36.336	1.953e-06	68.988	217.189	72.975	97.259	47.908	235.117	180.218	48.621	52.007	220.180	188.541	51.598	56.583	56.236	61.844	204.951	60.561	-8191	255	
2029.560	1	1	0	0	0.27739	0.080949	0.32346	0.26455	0.26362	0.27841	0.28329	0.30966	0.19167	0.22351	0.076937	0.27478	0.22788	0.069558	0.13467	0.2578	-2.4292	-3.3417	-2.7687	-3.3542	-3.2646	-2.8167	-3.6104	-3.2812	-2.8917	-3.6125	-3.0979	-3.1667	-3.675	-2.8979	-3.325	-3.4021	85.078	232.759	196.362	353.218	359.722	205.486	374.020	353.241	111.169	212.043	293.447	348.825	291.929	139.491	131.002	339.220	0.00049376	0.00068205	0.00020059	1165.6	5.2214e-06	2.6542e-06	1554.5	412.48	3.4176e-06	6.6394e-06	610.82	206.92	125.19	38.962	3.9333e-06	74.079	0.00021838	0.00017898	4.9353e-05	1072.3	1.9594e-06	1.9253e-06	1425.1	379.1	2.0569e-06	1.9168e-06	550.14	190.03	115.57	36.129	1.9578e-06	68.381	215.902	99.852	71.541	48.313	235.544	204.456	48.360	51.750	188.818	213.195	51.478	56.246	56.128	61.530	236.322	60.686	-8191	255	
2029.656	1	1	0	0	0.086542	0.088243	0.061878	0.2174	0.46175	0.27614	0.15867	0.24493	0.20644	0.21268	0.18058	0.16016	0.19795	0.15801	0.14895	0.23734	-2.3458	-3.5604	-2.9375	-3.2083	-3.5021	-2.6125	-3.5646	-3.3396	-2.8792	-3.5583	-2.9229	-3.1583	-3.7854	-2.8583	-3.3958	-3.3708	154.001	111.480	302.111	358.742	108.641	38.613	286.236	376.902	278.407	34.742	373.770	129.156	71.746	104.728	35.431	354.537	0.00047818	0.00043856	0.00026626	1167.5	6.9616e-06	2.2407e-06	1556.7	413.55	1.0587e-05	2.9701e-06	617.58	207.29	125.6	39.509	5.4092e-06	75.193	0.00022291	0.00017873	5.1357e-05	1079.4	2.0462e-06	1.9426e-06	1427.4	380.37	2.0225e-06	1.8928e-06	552.37	190.85	116.09	36.568	2.0312e-06	69.282	216.815	121.542	105.147	48.128	220.510	203.805	48.551	51.859	219.476	203.067	51.622	56.768	56.338	61.456	226.304	60.673	-8191	255	
2029.752	1	1	0	0	0.32799	0.13867	0.25643	0.095546	0.44834	0.030885	0.25925	0.11355	0.14586	0.2528	0.13343	0.17464	0.16669	0.2652	0.07917	0.38441	-2.275	-3.4437	-3.075	-3.1979	-3.4667	-2.8854	-3.4521	-3.5271	-2.7792	-3.4083	-3.0458	-3.1125	-3.6708	-3.1167	-3.175	-3.6521	381.424	163.757	222.331	325.101	297.567	35.603	326.545	143.212	200.354	112.502	92.379	362.664	95.632	376.414	377.295	345.201	0.00055867	0.00054648	9.7729e-05	1176.7	6.0547e-06	7.4701e-06	1559.9	414.29	5.7688e-06	6.9265e-06	628.19	210.11	127.95	39.834	2.1314e-06	76.231	0.00022398	0.00017793	5.0127e-05	1081.3	2.0291e-06	1.9644e-06	1434.2	381.88	2.026e-06	1.9749e-06	559.1	193.06	117.57	37.112	2.0306e-06	70.256	214.216	137.834	195.929	48.296	196.814	201.593	48.675	52.069	232.856	179.187	51.209	56.729	56.592	61.209	216.995	60.660	-8191	255	
2029.873	1	1	0	0	0.16203	0.11897	0.19385	0.26275	0.10998	0.31079	0.097129	0.24705	0.21358	0.15081	0.10163	0.34243	0.18916	0.076814	0.094348	0.029271	-2.3896	-3.4688	-3.275	-3.0229	-3.5062	-3.0687	-3.2812	-3.6458	-2.7667	-3.4958	-3.1958	-3.0333	-3.7042	-2.9792	-3.0792	-3.6667	297.349	262.285	375.416	379.248	189.284	323.480	35.327	282.745	261.956	103.091	313.626	345.137	391.019	65.410	348.634	159.587	0.00054054	0.00035768	0.00019201	1179.7	4.9457e-06	9.1998e-06	1556.4	415.98	8.4099e-06	9.6738e-06	620.39	208.92	126.68	39.688	6.1308e-06	75.407	0.00022961	0.00018183	5.0608e-05	1083.6	1.9897e-06	2.0196e-06	1430.5	382.81	2.0453e-06	1.9668e-06	556.79	191.65	116.82	36.728	1.9828e-06	69.464	225.389	135.143	43.770	48.256	179.565	210.823	48.823	51.666	223.811	202.212	51.432	56.700	56.236	61.675	224.929	60.728	-8191	255	
2029.967	1	1	0	0	0.12397	0.14408	0.27592	0.15143	0.19397	0.15043	0.19291	0.34884	0.13946	0.25932	0.20002	0.23239	0.20465	0.39516	0.12513	0.08275	-2.4813	-3.1708	-3.225	-3.0708	-3.5938	-3.1333	-3.3	-3.6604	-2.8854	-3.2854	-3.4437	-2.9354	-3.6312	-3.0896	-3.125	-3.6083	380.464	224.888	123.882	350.334	42.523	247.906	305.885	365.444	191.956	299.968	392.602	373.353	341.573	359.387	191.014	358.698	0.00051868	0.00058749	0.00023816	1167.8	8.7164e-06	5.9534e-06	1549.5	415.82	6.6367e-06	5.3048e-06	620.79	207.74	126.76	39.589	9.2249e-06	75.03	0.0002235	0.00018044	5.1253e-05	1076.2	2.0794e-06	1.9057e-06	1424.6	382.02	2.0682e-06	1.944e-06	553.61	190.99	116.53	36.5	1.9777e-06	69.185	219.962	106.621	124.031	48.300	183.963	225.828	48.473	52.110	226.339	169.230	51.732	56.318	56.493	61.253	208.939	60.879	-8191	255	
2030.064	1	1	0	0	0.23086	0.33053	0.080097	0.12594	0.39371	0.20953	0.27113	0.13408	0.17001	0.2554	0.10637	0.10951	0.035423	0.17701	0.052674	0.2905	-2.5021	-3.1521	-3.3292	-2.9062	-3.6625	-3.3521	-2.9521	-3.6458	-2.8604	-3.1583	-3.5458	-2.9396	-3.3979	-3.2792	-2.8604	-3.6937	105.019	301.208	384.838	129.897	358.099	125.884	311.258	365.633	123.273	392.787	276.844	344.272	348.944	70.729	213.436	303.702	0.00053469	0.00046984	0.00027428	1175.7	7.0764e-06	4.0626e-06	1553.8	414.35	3.3889e-06	8.0913e-06	619.2	208.65	126.2	39.513	3.6253e-06	75.231	0.00022346	0.00017988	5.1135e-05	1079.1	2.0287e-06	1.98e-06	1427.1	381.06	2.0266e-06	1.9931e-06	554.99	191.52	116.08	36.676	2.0724e-06	69.483	219.651	152.003	97.936	48.459	196.358	190.016	48.585	51.906	280.804	210.334	51.851	56.454	56.395	61.436	192.256	60.827	-8191	255	
#DATA ENDS
