BOXY.EXE: ISS Imagent and Oximeter Data Acquisition Program Version 0.80
Ascii Record File

#ACQ INFORMATION
2  Detector Channels 
16  External MUX Channels 
1  Auxiliary Channels 
5000  Waveform (CCF) Frequency (Hz)
1  Waveforms Skipped 
30  Waveforms Averaged 
1  Cycles Averaged 
16  Acquisitions per Waveform 
10.0806  Updata Rate (Hz) 

#FILE INFORMATION
TRUE -- External MUX Channel results are PARSED.
FALSE -- AC DC and Phase are NOT grouped.
TRUE -- Companion Program Settings File CREATED.
FALSE -- AC data not excluded
FALSE -- DC data not excluded
FALSE -- Phase data not excluded
FALSE -- Auxillary Chn. data not excluded
Tab delimiters

#CALIBRATION STATE
TRUE -- Waveform Calibration Values APPLIED.


#AUX CALIBRATION VALUES
Val Type	aux-1	

Term	1.0000e+00	
Factor	0.0000e+00	


#WF CALIBRATION VALUES
A = Detector Channel
Val Type	A-AC1	A-AC2	A-AC3	A-AC4	A-AC5	A-AC6	A-AC7	A-AC8	A-AC9	A-AC10	A-AC11	A-AC12	A-AC13	A-AC14	A-AC15	A-AC16	A-DC1	A-DC2	A-DC3	A-DC4	A-DC5	A-DC6	A-DC7	A-DC8	A-DC9	A-DC10	A-DC11	A-DC12	A-DC13	A-DC14	A-DC15	A-DC16	A-Ph1	A-Ph2	A-Ph3	A-Ph4	A-Ph5	A-Ph6	A-Ph7	A-Ph8	A-Ph9	A-Ph10	A-Ph11	A-Ph12	A-Ph13	A-Ph14	A-Ph15	A-Ph16	

Term	0.00000e+00	0.00000e+00	0.00000e+00	0.00000e+00	0.00000e+00	0.00000e+00	0.00000e+00	0.00000e+00	0.00000e+00	0.00000e+00	0.00000e+00	0.00000e+00	0.00000e+00	0.00000e+00	0.00000e+00	0.00000e+00	0.00000e+00	0.00000e+00	0.00000e+00	0.00000e+00	0.00000e+00	0.00000e+00	0.00000e+00	0.00000e+00	0.00000e+00	0.00000e+00	0.00000e+00	0.00000e+00	0.00000e+00	0.00000e+00	0.00000e+00	0.00000e+00	0.00000e+00	0.00000e+00	0.00000e+00	0.00000e+00	0.00000e+00	0.00000e+00	0.00000e+00	0.00000e+00	0.00000e+00	0.00000e+00	0.00000e+00	0.00000e+00	0.00000e+00	0.00000e+00	0.00000e+00	0.00000e+00	
Factor	1.00000e+00	1.00000e+00	1.00000e+00	1.00000e+00	1.00000e+00	1.00000e+00	1.00000e+00	1.00000e+00	1.00000e+00	1.00000e+00	1.00000e+00	1.00000e+00	1.00000e+00	1.00000e+00	1.00000e+00	1.00000e+00	1.00000e+00	1.00000e+00	1.00000e+00	1.00000e+00	1.00000e+00	1.00000e+00	1.00000e+00	1.00000e+00	1.00000e+00	1.00000e+00	1.00000e+00	1.00000e+00	1.00000e+00	1.00000e+00	1.00000e+00	1.00000e+00	X	X	X	X	X	X	X	X	X	X	X	X	X	X	X	X	

B = Detector Channel
Val Type	B-AC1	B-AC2	B-AC3	B-AC4	B-AC5	B-AC6	B-AC7	B-AC8	B-AC9	B-AC10	B-AC11	B-AC12	B-AC13	B-AC14	B-AC15	B-AC16	B-DC1	B-DC2	B-DC3	B-DC4	B-DC5	B-DC6	B-DC7	B-DC8	B-DC9	B-DC10	B-DC11	B-DC12	B-DC13	B-DC14	B-DC15	B-DC16	B-Ph1	B-Ph2	B-Ph3	B-Ph4	B-Ph5	B-Ph6	B-Ph7	B-Ph8	B-Ph9	B-Ph10	B-Ph11	B-Ph12	B-Ph13	B-Ph14	B-Ph15	B-Ph16	

Term	0.00000e+00	0.00000e+00	0.00000e+00	0.00000e+00	0.00000e+00	0.00000e+00	0.00000e+00	0.00000e+00	0.00000e+00	0.00000e+00	0.00000e+00	0.00000e+00	0.00000e+00	0.00000e+00	0.00000e+00	0.00000e+00	0.00000e+00	0.00000e+00	0.00000e+00	0.00000e+00	0.00000e+00	0.00000e+00	0.00000e+00	0.00000e+00	0.00000e+00	0.00000e+00	0.00000e+00	0.00000e+00	0.00000e+00	0.00000e+00	0.00000e+00	0.00000e+00	-8.19620e+01	-1.31387e+02	-1.23947e+02	-1.82180e+02	-6.73124e+01	-7.06461e+01	-1.57453e+02	-1.62015e+02	-5.26248e+01	-5.03545e+01	-1.74207e+02	-1.70246e+02	-1.81558e+02	-1.76604e+02	-6.38946e+01	-1.49731e+02	
Factor	1.74277e-05	1.42447e-04	4.46277e-05	1.46431e-01	1.15311e-06	1.52853e-06	1.67333e-01	5.49476e-02	1.18619e-06	1.77604e-06	9.88515e-02	2.93754e-02	2.77491e-02	9.55186e-03	1.29905e-06	1.36949e-02	3.85813e-06	4.49126e-06	1.24776e-06	7.72237e-02	4.81768e-08	4.92794e-08	8.25847e-02	2.90232e-02	4.80511e-08	4.91379e-08	5.01668e-02	1.50227e-02	1.47801e-02	5.06767e-03	4.82509e-08	7.00746e-03	X	X	X	X	X	X	X	X	X	X	X	X	X	X	X	X	



#DISTANCE SETTINGS
A = Detector Channel
A-1	A-2	A-3	A-4	A-5	A-6	A-7	A-8	A-9	A-10	A-11	A-12	A-13	A-14	A-15	A-16	

2.5000e+00	3.0000e+00	2.5000e+00	3.0000e+00	2.0000e+00	3.0000e+00	1.5000e+00	3.0000e+00	3.0000e+00	3.0000e+00	3.0000e+00	3.0000e+00	3.0000e+00	3.0000e+00	1.5000e+00	3.0000e+00	

B = Detector Channel
B-1	B-2	B-3	B-4	B-5	B-6	B-7	B-8	B-9	B-10	B-11	B-12	B-13	B-14	B-15	B-16	

1.0000e+01	1.0000e+01	1.0000e+01	1.4400e+00	1.0000e+01	1.0000e+01	1.5100e+00	1.9400e+00	1.0000e+01	1.0000e+01	1.9900e+00	2.4900e+00	2.4100e+00	2.9000e+00	1.0000e+01	2.9800e+00	




#DATA BEGINS
time	group	step	mark	flag	A-AC1	A-AC2	A-AC3	A-AC4	A-AC5	A-AC6	A-AC7	A-AC8	A-AC9	A-AC10	A-AC11	A-AC12	A-AC13	A-AC14	A-AC15	A-AC16	A-DC1	A-DC2	A-DC3	A-DC4	A-DC5	A-DC6	A-DC7	A-DC8	A-DC9	A-DC10	A-DC11	A-DC12	A-DC13	A-DC14	A-DC15	A-DC16	A-Ph1	A-Ph2	A-Ph3	A-Ph4	A-Ph5	A-Ph6	A-Ph7	A-Ph8	A-Ph9	A-Ph10	A-Ph11	A-Ph12	A-Ph13	A-Ph14	A-Ph15	A-Ph16	B-AC1	B-AC2	B-AC3	B-AC4	B-AC5	B-AC6	B-AC7	B-AC8	B-AC9	B-AC10	B-AC11	B-AC12	B-AC13	B-AC14	B-AC15	B-AC16	B-DC1	B-DC2	B-DC3	B-DC4	B-DC5	B-DC6	B-DC7	B-DC8	B-DC9	B-DC10	B-DC11	B-DC12	B-DC13	B-DC14	B-DC15	B-DC16	B-Ph1	B-Ph2	B-Ph3	B-Ph4	B-Ph5	B-Ph6	B-Ph7	B-Ph8	B-Ph9	B-Ph10	B-Ph11	B-Ph12	B-Ph13	B-Ph14	B-Ph15	B-Ph16	aux-1	digaux	

1474.390	1	1	0	768	0.10657	0.032637	0.20657	0.092538	0.32707	0.11568	0.15349	0.34425	0.066191	0.071545	0.18591	0.23279	0.11857	0.13856	0.23491	0.16918	-0.67917	-1.8792	-1.5438	-1.4667	-2.175	-1.1833	-1.5271	-2.1417	-1.0104	-1.9333	-1.7646	-1.4271	-2.0583	-1.3188	-1.4792	-2.0687	8.942	155.246	111.555	-105.704	-131.781	2.079	164.814	145.672	130.674	127.092	153.079	-135.342	90.531	-12.414	-27.924	211.909	0.00033126	0.0010026	9.586e-05	1388.6	2.4782e-06	1.3154e-06	1384.5	370.93	3.0698e-06	5.8016e-06	423.34	140.8	122.5	42.346	4.7366e-06	52.284	0.00080973	0.00087704	0.00024251	1406	9.5196e-06	9.5267e-06	1402.5	378.31	9.4539e-06	9.3326e-06	432.73	144.84	126.32	43.569	9.0277e-06	53.916	-112.562	-62.294	-30.003	-128.856	-57.632	-28.777	-128.981	-124.340	45.440	27.601	-124.815	-120.267	-120.079	-115.671	23.750	-116.026	-8191	255	
1474.485	1	1	0	0	0.089853	0.48934	0.27001	0.25814	0.15302	0.26864	0.34515	0.086986	0.2164	0.24057	0.13316	0.23817	0.068434	0.068471	0.082392	0.25955	-0.56875	-1.8896	-1.4813	-1.4667	-2.0396	-1.4229	-1.5979	-2.1167	-0.93333	-1.5979	-1.8396	-1.1875	-2.1229	-1.2646	-1.2604	-2.125	66.341	-4.487	191.382	213.843	-91.414	23.461	170.233	12.458	-21.145	132.763	-117.853	-127.743	191.041	154.672	25.160	104.902	0.00030881	0.00069921	0.00012606	1396.7	4.7546e-06	3.2195e-06	1388.8	371.71	2.7214e-06	2.4603e-06	423.25	141.26	122.28	42.301	4.6796e-06	52.264	0.00077393	0.00081937	0.00022707	1408.9	8.7977e-06	8.5519e-06	1407.1	378.33	8.2765e-06	8.2028e-06	432.03	144.85	126.05	43.466	8.0616e-06	53.719	-112.505	-60.993	20.707	-128.879	2.906	52.974	-128.702	-124.191	15.178	-138.021	-124.807	-120.395	-119.815	-115.530	17.134	-116.031	-8191	255	
1474.581	1	1	0	0	0.16029	0.07062	0.17676	0.38795	0.082628	0.17931	0.18868	0.1832	0.052002	0.16107	0.14908	0.15404	0.16135	0.17447	0.072017	0.13712	-0.82708	-1.6792	-1.8	-1.3979	-1.9417	-1.3896	-1.4521	-2.2271	-1.1292	-1.5542	-1.9521	-1.2125	-2.0854	-1.7437	-1.3563	-1.9625	86.078	66.762	156.852	200.753	-138.779	-129.877	124.809	162.701	204.816	194.016	-110.017	-43.379	147.936	200.605	54.439	111.944	0.0003672	0.0005469	0.00014044	1391.7	1.1819e-06	3.0822e-06	1387.6	371.34	5.0134e-06	5.2129e-06	425.4	140.73	122.99	42.399	4.027e-06	52.296	0.00070594	0.00074928	0.00020549	1406.6	8.0185e-06	8.1315e-06	1402.3	378.14	8.0785e-06	7.9408e-06	432.9	144.65	126.05	43.452	7.7482e-06	53.674	-109.005	-27.858	-72.872	-128.866	-2.722	16.262	-128.917	-124.294	-21.623	101.817	-124.602	-120.410	-119.994	-115.471	19.758	-116.100	-8191	255	
1474.677	1	1	0	0	0.050876	0.30489	0.26299	0.48632	0.17696	0.19197	0.28465	0.090211	0.27222	0.14083	0.091331	0.048209	0.29041	0.28214	0.015112	0.10999	-0.67083	-1.5604	-2.0521	-1.375	-1.85	-1.5896	-1.5146	-2.0875	-1.2646	-1.7042	-2.2438	-1.2021	-1.9375	-1.6667	-1.1583	-2.0667	-115.980	27.907	187.993	166.983	47.149	36.765	162.367	158.760	206.933	-12.279	155.512	-126.057	-94.487	167.800	81.803	-105.434	0.00033203	0.00051952	0.00022759	1391.3	2.2076e-06	2.8925e-06	1386.2	371.33	4.1035e-06	6.7634e-06	423.34	140.98	122.25	42.485	3.8841e-06	52.314	0.00066337	0.00070198	0.00019561	1404.2	7.5975e-06	7.57e-06	1399.3	377.55	7.6082e-06	7.4113e-06	429.8	144.43	125.64	43.44	7.7222e-06	53.687	-112.720	-63.841	-33.145	-129.008	51.428	-49.732	-128.848	-124.457	-27.775	-22.684	-124.893	-120.407	-119.793	-115.381	-68.488	-116.086	-8191	255	
1474.773	1	1	0	0	0.16749	0.25812	0.077264	0.24058	0.12141	0.035567	0.24572	0.37213	0.24813	0.34283	0.19023	0.21207	0.20599	0.22483	0.06276	0.35589	-0.95417	-1.4875	-1.8875	-1.3188	-1.6875	-1.8042	-1.2771	-2.1437	-1.3875	-1.45	-2.1208	-0.94792	-1.8687	-1.8667	-1.2833	-1.8979	-49.936	-13.645	92.283	111.114	-50.295	-137.636	124.562	181.788	124.501	75.786	-127.498	161.323	48.881	163.338	16.861	203.817	0.00033826	0.00060411	0.00014712	1390	2.5436e-06	4.7778e-07	1381.6	369.93	7.1311e-06	7.5051e-06	425.34	140.11	122.61	42.258	3.8463e-06	52.54	0.00068192	0.00072409	0.00020014	1401.7	7.7899e-06	7.9183e-06	1396.6	376.9	7.7242e-06	7.8351e-06	430.84	144.33	125.65	43.373	7.3866e-06	53.716	-113.495	-34.767	-3.884	-128.887	8.015	40.436	-128.757	-124.238	-18.081	74.038	-124.651	-120.427	-119.943	-115.582	27.454	-115.935	-8191	255	
1474.869	1	1	0	0	0.25544	0.24144	0.086134	0.37574	0.33478	0.37366	0.1468	0.31696	0.097932	0.17404	0.2318	0.29316	0.28051	0.17185	0.073116	0.23898	-0.94792	-1.2875	-1.9312	-1.3729	-1.4833	-1.6896	-1.2167	-2.2417	-1.4292	-1.4479	-2.075	-1.2354	-1.6333	-1.925	-0.84792	-2.0062	163.316	167.362	185.016	192.250	186.427	159.903	154.078	-138.151	70.187	-124.151	181.918	137.569	188.772	184.418	-70.449	-58.964	0.00026304	0.00030602	0.00028468	1388.3	1.5935e-06	4.7459e-06	1376.9	370.66	4.9847e-06	9.3096e-06	423.48	140.48	121.75	42.435	5.2578e-06	52.534	0.00064555	0.0006711	0.00018519	1400.3	7.2434e-06	7.1827e-06	1394.3	376.2	7.1549e-06	7.0592e-06	430.09	144.17	125.19	43.371	7.1099e-06	53.669	-111.948	-67.398	-28.043	-129.019	-13.427	-13.234	-128.739	-124.481	-3.712	38.478	-124.685	-120.408	-120.064	-115.307	-26.317	-116.104	-8191	255	
1474.990	1	1	0	0	0.17415	0.38509	0.078252	0.18981	0.035888	0.070351	0.047178	0.21184	0.1285	0.13714	0.24834	0.18382	0.11828	0.17431	0.078874	0.38889	-1.1562	-1.1812	-2.0771	-1.3937	-1.625	-1.7771	-1.2167	-2.0563	-1.3979	-1.0854	-2.0812	-1.2375	-1.5562	-2.0292	-1.0125	-1.7583	188.698	-142.072	43.766	166.362	9.118	-17.654	139.651	115.035	-19.495	128.148	193.326	94.758	-55.993	170.872	-64.631	140.153	0.00031648	0.00058708	7.1856e-05	1385	2.8824e-06	6.2342e-06	1377.1	369.85	1.2999e-06	7.5595e-06	422.82	140.64	122.45	42.431	3.6201e-06	52.335	0.00061167	0.00064836	0.00018058	1397.5	7.0151e-06	7.013e-06	1391.1	375.91	6.8998e-06	6.8669e-06	429.1	143.8	125.49	43.369	6.927e-06	53.494	-113.584	-53.572	-38.373	-128.947	1.732	16.530	-128.858	-124.224	-70.725	36.306	-125.054	-120.242	-119.873	-115.451	-19.107	-116.466	-8191	255	
1475.086	1	1	0	0	0.24162	0.18965	0.34672	0.34848	0.083347	0.075014	0.42682	0.34052	0.20771	0.039046	0.17882	0.18893	0.31709	0.24035	0.079642	0.14648	-1.2812	-1.0583	-1.9854	-1.6833	-1.45	-1.9792	-1.4479	-1.9729	-1.7104	-1.1396	-2.1083	-1.3146	-1.4479	-2.0812	-1.2646	-1.8083	-68.009	-3.219	158.093	146.924	5.404	96.155	158.269	183.240	-121.187	-75.488	173.828	135.010	-103.332	-107.827	-84.180	118.691	0.00032462	0.00060479	2.9641e-05	1383.5	1.0668e-06	3.2078e-06	1376.9	369.95	4.0666e-06	4.0077e-06	424.14	140.7	121.86	42.142	6.9559e-06	52.223	0.00060543	0.00065101	0.00017755	1393.9	6.9753e-06	6.9253e-06	1391.6	375.87	6.9965e-06	6.9999e-06	429.76	143.92	125.13	43.206	7.1248e-06	53.602	-101.576	-45.172	-89.668	-128.968	-136.259	7.310	-128.788	-124.095	-16.915	45.036	-124.574	-120.621	-120.186	-115.339	7.210	-116.088	-8191	255	
1475.182	1	1	0	0	0.21578	0.11735	0.22636	0.2668	0.098	0.26355	0.11737	0.13794	0.16031	0.083289	0.15769	0.094103	0.4325	0.14824	0.12449	0.22266	-1.2667	-0.88542	-1.9562	-1.675	-1.325	-2.0479	-1.275	-1.8729	-1.7229	-0.95625	-2.1813	-1.6958	-1.3875	-1.9188	-1.2771	-1.6375	72.652	164.640	-78.214	-86.133	216.150	200.050	147.610	-99.672	59.246	137.867	110.775	24.234	203.129	176.648	-135.202	-96.277	0.00038081	0.00059964	0.00029403	1383.3	5.111e-06	4.5954e-06	1376.7	368.92	4.4604e-06	2.4159e-06	423.67	139.98	122.22	42.295	4.109e-06	52.037	0.00062943	0.00066461	0.00018068	1394.8	7.1979e-06	7.2686e-06	1392.3	375.36	7.1955e-06	7.2986e-06	429.4	143.83	125.22	43.345	7.2444e-06	53.557	-110.969	-20.493	-57.927	-128.826	10.180	5.806	-128.992	-124.202	-26.967	23.045	-124.503	-120.196	-119.893	-115.619	0.825	-115.878	-8191	255	
1475.279	1	1	0	0	0.10077	0.13609	0.41124	0.21145	0.38204	0.14636	0.20856	0.092238	0.30675	0.38324	0.27211	0.065866	0.2015	0.21338	0.21776	0.16573	-1.3854	-1.1	-1.8188	-1.7125	-1.2021	-1.8854	-1.5875	-1.425	-1.9188	-1.2313	-1.9479	-1.7333	-1.2792	-2.0479	-1.175	-1.4312	-94.029	98.656	-71.175	82.637	41.124	-119.082	132.520	101.500	-18.482	-36.021	174.088	-133.895	46.722	103.134	91.300	157.514	0.0003244	0.00044125	0.00016251	1380.6	3.1431e-06	9.5824e-06	1372.9	368.63	5.8668e-06	8.3706e-06	421.62	140.13	121.53	42.091	2.2273e-06	51.717	0.00063869	0.00067496	0.00018786	1393.6	7.4523e-06	7.5034e-06	1389.8	374.97	7.3869e-06	7.4952e-06	428.73	143.53	124.82	43.186	7.2548e-06	53.35	-114.357	-50.933	-66.239	-129.058	-6.672	10.878	-128.840	-124.189	-11.743	15.027	-124.807	-120.149	-119.766	-115.259	-30.006	-115.753	-8191	255	
1475.375	1	1	0	0	0.11786	0.15231	0.15991	0.32149	0.14765	0.083696	0.11167	0.10841	0.30733	0.28502	0.25215	0.45533	0.17982	0.16752	0.3861	0.027982	-1.5604	-1.075	-1.7437	-1.9813	-1.0146	-1.9271	-1.4458	-1.6333	-2.0396	-1.1521	-1.8271	-1.9167	-1	-2.2229	-1.1562	-1.3896	-64.071	122.547	-80.917	147.089	21.536	128.230	-137.279	91.124	-85.464	-10.822	-135.068	181.566	213.445	120.328	72.819	-55.238	0.00034394	0.00061321	0.00018784	1372.2	4.1118e-06	2.8384e-06	1373.2	367.4	1.8709e-06	4.6772e-06	422.59	139.59	121.34	42.075	1.5318e-06	52.022	0.00063599	0.00067197	0.00018691	1387.9	7.2999e-06	7.3323e-06	1387.9	374.19	7.2618e-06	7.3558e-06	428.08	143.24	124.65	43.126	7.2151e-06	53.333	-114.002	-88.979	-46.702	-128.749	53.586	-44.163	-128.794	-124.036	-39.244	62.999	-124.574	-120.690	-119.870	-115.402	102.128	-115.812	-8191	255	
1475.469	1	1	0	0	0.13586	0.07395	0.031473	0.26393	0.35344	0.13966	0.1226	0.21265	0.11467	0.03516	0.20643	0.1643	0.10703	0.17722	0.20882	0.075796	-1.8	-1.1229	-1.7437	-1.9479	-0.96667	-1.9354	-1.7188	-1.3438	-2.0229	-1.1667	-1.75	-1.7979	-1.1479	-1.9875	-1.55	-1.3583	-1.022	13.419	-41.406	202.936	-93.962	137.948	-59.661	82.774	-103.343	216.293	105.743	-96.444	-13.188	179.800	190.278	-35.052	0.00029458	0.00056564	0.00024114	1372.1	1.6123e-06	3.9808e-06	1368	368.69	4.2788e-06	6.6889e-06	421.59	140.31	121.66	42.125	4.272e-06	52.038	0.00062992	0.00067481	0.0001858	1387.2	7.4724e-06	7.2728e-06	1384.7	375.19	7.3548e-06	7.4848e-06	428.16	143.46	124.83	43.147	7.2825e-06	53.431	-105.060	-60.089	-44.143	-128.775	199.182	-46.830	-129.000	-124.187	7.867	37.752	-124.537	-120.299	-119.866	-115.333	7.221	-115.791	-8191	255	
1475.565	1	1	0	0	0.12194	0.25064	0.044544	0.29116	0.22292	0.21703	0.25743	0.17326	0.24618	0.15187	0.16468	0.2933	0.046512	0.04521	0.13768	0.24089	-1.6229	-1.0646	-1.3438	-1.9688	-1.1396	-1.8542	-1.95	-1.4625	-1.9042	-1.4417	-1.5333	-1.9896	-1.1667	-2.1	-1.4771	-1.2208	-68.644	215.901	-136.141	-115.968	-101.671	-46.586	165.390	-107.614	130.199	166.978	-51.582	123.862	29.072	157.913	57.548	95.468	0.00031862	0.00056532	0.00014327	1375.6	3.2765e-06	5.6775e-06	1368.2	369.11	8.9665e-07	1.1752e-05	421.56	140.04	121.51	42.23	4.445e-06	52.008	0.00063751	0.00066944	0.00018675	1388.2	7.4274e-06	7.4014e-06	1384.5	374.42	7.3674e-06	7.5037e-06	428.3	143.33	124.76	43.114	7.3411e-06	53.327	-105.597	-9.799	-57.925	-128.804	-18.498	29.595	-128.896	-124.002	124.123	44.847	-124.567	-120.491	-120.078	-115.393	36.982	-115.917	-8191	255	
1475.686	1	1	0	0	0.080575	0.20269	0.13979	0.33273	0.052028	0.073864	0.06952	0.24372	0.11849	0.11513	0.1812	0.20197	0.2139	0.034175	0.15284	0.25819	-1.5042	-1.3625	-1.3188	-2.1292	-0.81042	-1.7062	-2.0604	-1.2417	-1.95	-1.2938	-1.4104	-2.0854	-1.1771	-1.9083	-1.6708	-1.1104	25.576	1.572	-138.604	214.100	-91.291	-131.158	166.837	-102.907	-55.149	-103.992	148.121	-71.695	107.755	197.013	-104.743	8.803	0.00034337	0.00072741	0.00030794	1377.3	4.4279e-06	6.4474e-06	1365.9	368	1.8855e-06	6.5899e-06	420.61	140.36	121.58	42.028	4.2993e-06	52.107	0.00064313	0.00068377	0.0001884	1390.5	7.4157e-06	7.3929e-06	1384.4	374.54	7.3532e-06	7.3778e-06	427.92	143.55	124.85	43.053	7.1725e-06	53.44	-109.463	-75.730	-42.496	-128.853	17.255	0.127	-128.778	-124.239	-23.411	15.516	-124.807	-120.547	-119.765	-115.458	26.206	-115.847	-8191	255	
1475.782	1	1	0	0	0.065642	0.24619	0.34137	0.19024	0.16866	0.38859	0.13834	0.26286	0.024878	0.067896	0.12943	0.19114	0.22125	0.36815	0.079526	0.10918	-1.7	-1.4354	-1.1833	-2.3667	-1.1604	-1.8937	-2.0375	-1.15	-1.8438	-1.4875	-1.2729	-2.1375	-1.3875	-1.6771	-1.9333	-1.2708	127.752	-41.301	153.599	190.711	-136.066	-75.841	102.517	124.945	-46.625	-15.965	-37.368	202.839	215.598	-105.458	-95.740	-43.052	0.00031882	0.00015895	0.00016893	1377.9	1.8017e-06	6.5581e-06	1366.8	367.05	2.4129e-06	4.224e-06	421.61	139.34	121.83	42.219	4.5891e-06	52.114	0.00063123	0.00066932	0.00018908	1390.1	7.4155e-06	7.2641e-06	1385.2	374.54	7.3239e-06	7.3255e-06	428.29	143.24	124.71	43.207	7.1967e-06	53.389	-104.532	-101.715	-41.935	-128.695	-80.499	-19.566	-128.800	-124.190	-21.399	56.398	-124.438	-120.317	-120.070	-115.257	11.701	-116.048	-8191	255	
1475.878	1	1	0	0	0.06439	0.20873	0.040609	0.20315	0.24341	0.20604	0.01626	0.24176	0.12035	0.076113	0.16503	0.13434	0.21724	0.13504	0.18325	0.056128	-1.4958	-1.6063	-1.0688	-2.225	-1.2521	-1.3667	-2.2021	-1.1542	-1.8375	-1.5729	-1.1167	-2.0854	-1.4604	-1.3833	-1.9292	-1.0938	164.884	182.423	28.261	201.390	30.019	-83.668	94.207	196.383	49.938	32.988	193.233	145.330	39.206	-113.539	-40.975	-82.588	0.00030389	0.0003421	0.00022143	1378.6	5.2025e-06	3.0106e-06	1367.6	367.34	4.7105e-06	6.7611e-06	422.17	139.51	122.25	42.032	4.2417e-06	52.149	0.0006325	0.00066687	0.00018517	1390	7.2962e-06	7.3883e-06	1383.8	374.65	7.3029e-06	7.1928e-06	428.45	143.31	124.94	43.118	7.2973e-06	53.439	-112.257	13.788	-53.991	-128.754	24.927	-7.208	-128.810	-124.171	31.226	-19.070	-124.496	-120.345	-119.854	-115.450	-8.706	-116.234	-8191	255	
1475.950	1	1	0	0	0.095008	0.27105	0.20118	0.27895	0.072962	0.1935	0.30261	0.061407	0.27458	0.17318	0.087327	0.22171	0.081174	0.43587	0.11007	0.059223	-1.2729	-1.6167	-1.1458	-2.1354	-1.3188	-1.2104	-2.1937	-1.3146	-1.6458	-1.9021	-1.1979	-2.0312	-1.5729	-1.4062	-2.1542	-1.4	63.262	-11.630	-67.347	211.064	154.674	-93.868	159.945	116.927	203.551	50.062	-106.722	179.411	-52.257	137.315	-76.424	210.659	0.00031601	0.00040853	0.0001386	1377.5	3.8854e-06	6.5577e-06	1375.7	367.73	2.484e-06	8.489e-06	421.71	139.35	121.8	41.958	3.9034e-06	51.977	0.0006357	0.00067264	0.00019162	1390.7	7.6279e-06	7.5258e-06	1388.9	374.79	7.4746e-06	7.6448e-06	428.79	143.48	124.95	43.197	7.696e-06	53.407	-106.276	-39.857	-69.512	-128.735	4.265	45.984	-128.872	-124.088	-43.805	26.862	-124.783	-120.437	-119.926	-115.184	-24.882	-115.875	-8191	255	
1476.070	1	1	0	0	0.10147	0.053416	0.29795	0.13862	0.29195	0.094812	0.073447	0.38002	0.28473	0.33122	0.10775	0.29676	0.34034	0.26166	0.1088	0.14271	-1.225	-1.8729	-1.1208	-2.2646	-1.35	-1.3062	-2.2396	-1.4292	-1.6479	-1.9312	-1.1625	-2.05	-1.6875	-1.1708	-1.9833	-1.2792	173.338	102.945	-138.880	-130.984	-61.200	196.622	74.569	174.178	39.317	28.791	124.939	-113.925	141.298	-20.072	-122.589	140.075	0.00033922	0.00047882	0.00017837	1380.4	1.0598e-06	5.6676e-06	1373.5	369.12	2.769e-06	1.0842e-05	420.96	140.25	121.83	42.108	2.8944e-06	52.106	0.00067664	0.00072383	0.0002031	1395	7.9109e-06	8.0264e-06	1390	375.57	7.9071e-06	7.9587e-06	429.34	143.9	125.24	43.235	7.9058e-06	53.528	-108.187	-46.583	-69.489	-128.608	117.119	2.466	-128.777	-124.114	-53.741	8.134	-124.596	-120.375	-119.831	-115.106	13.674	-115.770	-8191	255	
1476.167	1	1	0	0	0.18082	0.13638	0.221	0.33499	0.11232	0.18042	0.35866	0.13077	0.18267	0.13104	0.17048	0.22089	0.075176	0.21277	0.099151	0.21384	-0.96458	-1.8083	-1.1354	-2.1	-1.8292	-1.2	-2.0396	-1.35	-1.4958	-1.825	-1.1104	-1.7979	-1.7812	-1.1083	-2.0021	-1.3	-50.706	4.909	-82.354	-131.689	130.324	-94.469	150.708	158.393	-118.763	-117.071	152.747	203.492	106.495	-126.946	100.774	-80.307	0.00030799	0.00051163	0.00015613	1382.2	3.6185e-06	6.546e-06	1375.4	368.76	1.0988e-06	4.7834e-06	423.53	139.18	121.64	42.273	2.0652e-06	52.228	0.00068483	0.00072365	0.00020516	1395.2	8.0297e-06	8.0867e-06	1393	375.69	8.0763e-06	8.0559e-06	430	143.76	125.31	43.42	8.0539e-06	53.565	-106.478	-12.885	-62.935	-128.546	-11.883	34.135	-128.733	-124.097	-5.544	89.986	-124.764	-120.460	-119.806	-115.356	10.789	-116.051	-8191	255	
1476.263	1	1	0	0	0.28963	0.34427	0.080538	0.18458	0.27318	0.26109	0.24294	0.32961	0.12598	0.037931	0.20651	0.17958	0.25363	0.54177	0.079088	0.19755	-0.9	-2.2104	-1.0479	-2.0271	-1.65	-1.1	-2.275	-1.5771	-1.3375	-2.0938	-1.2104	-1.8417	-1.85	-1.1021	-1.8	-1.5417	-112.955	214.629	-11.554	121.838	142.259	-90.712	67.747	188.597	-75.150	21.986	208.552	169.300	-137.505	-140.346	-54.358	-55.641	0.00033472	0.00047225	0.00028055	1390.7	2.8887e-06	5.9498e-06	1376.9	367.71	5.0475e-06	3.2345e-06	423.91	140.31	122.06	42.291	2.5508e-06	52.181	0.00068274	0.00071985	0.00020017	1402.3	7.6597e-06	7.6668e-06	1393.7	375.12	7.5099e-06	7.383e-06	429.86	143.55	125.13	43.319	7.4366e-06	53.588	-105.008	-77.763	-41.882	-128.585	11.874	25.976	-128.809	-124.102	-7.359	28.033	-124.752	-120.187	-119.858	-115.374	-75.790	-115.815	-8191	255	
1476.359	1	1	0	0	0.30138	0.18005	0.21386	0.22595	0.12964	0.14465	0.13722	0.15801	0.12117	0.144	0.10124	0.12435	0.098687	0.18175	0.11412	0.22998	-0.81458	-2.0979	-1.1979	-1.6979	-1.8917	-1.1083	-2.0292	-1.5333	-1.3375	-1.9937	-1.2812	-1.5312	-1.9312	-1.2583	-1.6812	-1.7292	83.561	214.291	16.805	-90.102	169.693	-78.519	26.272	193.636	-54.361	108.282	210.795	-78.258	138.846	-49.904	186.622	108.479	0.00030135	0.0003833	0.00023577	1385.7	2.1027e-06	1.3111e-06	1376.5	369.86	7.0678e-06	8.5315e-06	422.15	140.77	121.85	42.343	3.3755e-06	52.239	0.00064975	0.00068568	0.00018851	1397.7	7.3298e-06	7.4541e-06	1395.1	375.81	7.4509e-06	7.4334e-06	428.99	143.94	125.3	43.345	7.4666e-06	53.594	-102.525	-13.982	-21.722	-128.643	-42.050	21.114	-128.591	-123.970	14.829	19.412	-124.609	-120.247	-119.975	-115.254	-84.252	-115.832	-8191	255	
1476.478	1	1	0	0	0.12918	0.11832	0.22667	0.32887	0.179	0.23382	0.3207	0.10575	0.41464	0.31023	0.32359	0.31858	0.14352	0.13426	0.20594	0.10745	-0.58958	-1.9312	-1.1917	-1.6708	-1.9438	-1.1208	-2.2687	-1.7146	-1.1542	-2.0583	-1.3875	-1.6708	-2.0271	-1.0646	-1.8104	-1.7604	-133.736	200.684	80.318	215.747	123.235	-72.515	143.655	126.839	-48.968	-110.926	144.192	108.976	193.445	157.939	43.309	215.556	0.00030787	0.00045877	0.000151	1385.5	3.8268e-06	4.0979e-06	1380.1	371.37	2.4581e-06	6.9072e-06	423.77	140.52	121.94	42.247	3.0361e-06	52.51	0.00066567	0.00069192	0.00019782	1399	7.7532e-06	7.8811e-06	1395.7	376.62	7.911e-06	7.8721e-06	430.43	143.99	125.3	43.33	7.7769e-06	53.74	-116.936	-34.286	-60.455	-128.512	46.256	-4.381	-128.603	-124.099	-14.406	12.844	-124.719	-120.238	-119.818	-115.105	-49.979	-116.129	-8191	255	
1476.551	1	1	0	0	0.25127	0.085669	0.15574	0.3656	0.061069	0.13529	0.23055	0.065293	0.27541	0.14629	0.19809	0.14531	0.24004	0.1627	0.22503	0.12323	-0.68542	-1.9167	-1.4417	-1.4104	-2.0479	-1.1562	-1.8542	-1.9292	-0.85625	-1.8875	-1.6938	-1.3208	-2.0583	-1.1333	-1.7417	-2.1625	67.676	-106.688	149.971	189.172	137.789	194.667	195.533	74.082	197.122	154.684	-123.950	175.548	174.122	-48.563	-56.462	-122.848	0.00033006	0.00047441	0.0001803	1392.2	1.5737e-06	7.8346e-06	1380.8	369.24	2.653e-06	6.8883e-06	421.99	140.9	121.66	42.356	4.2031e-06	52.488	0.00069085	0.00073427	0.00020291	1404.2	7.9364e-06	8.037e-06	1399.8	376.31	7.9398e-06	7.8763e-06	429.81	144.12	125.32	43.403	7.7492e-06	53.77	-110.677	-62.158	-42.419	-128.554	212.054	3.496	-128.442	-124.027	6.675	7.400	-124.757	-120.386	-119.917	-115.369	5.079	-115.873	-8191	255	
1476.670	1	1	0	0	0.15572	0.15705	0.098105	0.43462	0.21071	0.18718	0.16559	0.1419	0.11171	0.14886	0.20814	0.099511	0.2316	0.33887	0.044026	0.16158	-0.64583	-1.925	-1.4813	-1.5417	-2.1417	-1.3354	-1.7729	-2.1125	-1.0646	-1.8438	-1.7188	-1.2542	-2.0792	-1.4937	-1.45	-2.0375	150.644	191.702	31.635	199.169	-83.047	24.727	172.105	128.638	70.200	158.140	-135.648	-53.254	-73.619	164.639	181.892	168.603	0.00037012	0.00051962	0.00028146	1390.3	5.8847e-06	4.2996e-06	1380.1	370.28	2.1976e-06	3.6061e-06	423.02	140.92	122.3	42.314	3.7287e-06	52.278	0.0006859	0.00070821	0.00019992	1402	7.8132e-06	7.7545e-06	1397.2	376.32	7.4637e-06	7.353e-06	430.11	144.19	125.44	43.303	7.3864e-06	53.525	-113.502	-10.474	-41.166	-128.774	4.377	-1.316	-128.779	-124.237	-25.708	18.286	-124.681	-120.238	-119.947	-115.356	32.793	-115.892	-8191	255	
1476.766	1	1	0	0	0.17181	0.058144	0.27257	0.5346	0.12734	0.22012	0.22077	0.3019	0.40717	0.1589	0.41829	0.23918	0.40934	0.36146	0.13682	0.42997	-0.84792	-1.8354	-1.5979	-1.2875	-2.0458	-1.3083	-1.5438	-2.2188	-1.075	-1.7188	-1.8125	-1.1521	-2.0521	-1.4021	-1.4833	-2.2792	141.511	122.423	122.059	217.443	188.101	190.834	119.847	146.852	41.754	-100.106	125.454	199.074	83.155	188.792	127.301	100.065	0.00031603	0.00071267	2.0737e-05	1383.1	2.4911e-06	3.8694e-06	1376.8	369.17	5.997e-06	3.6103e-06	422.91	140.52	122.75	42.306	4.5868e-06	52.332	0.00064	0.00068266	0.00018834	1396.3	7.4642e-06	7.3576e-06	1393.9	375.86	7.5071e-06	7.4871e-06	429.3	144.12	125.43	43.292	7.5413e-06	53.618	-111.910	-39.682	55.809	-128.643	-6.698	25.490	-128.842	-124.195	-24.687	-8.481	-124.956	-120.439	-120.092	-115.507	-44.320	-116.149	-8191	255	
1476.862	1	1	0	0	0.098553	0.18573	0.12057	0.094966	0.13402	0.14249	0.16061	0.30409	0.081233	0.17204	0.097464	0.094675	0.048602	0.11406	0.3133	0.052989	-0.79792	-1.5562	-1.7229	-1.3604	-1.9167	-1.4667	-1.4042	-2.275	-1.0521	-1.7208	-2.1063	-1.0271	-1.8625	-1.2771	-1.1354	-2.2479	148.765	43.142	28.311	-109.452	188.316	181.330	121.811	143.291	79.090	-78.188	146.171	84.176	116.821	114.374	189.873	-137.818	0.00028944	0.00042538	4.6773e-05	1389.2	4.7949e-06	4.1164e-06	1375.1	369.65	5.0393e-06	1.5611e-06	424.18	140.57	122.15	42.366	5.6874e-06	52.327	0.00066351	0.00070409	0.0001936	1400.3	7.5521e-06	7.7416e-06	1396.3	376.16	7.5842e-06	7.6814e-06	429.93	144.22	125.23	43.324	7.4362e-06	53.693	-103.869	-55.937	-89.578	-128.865	-7.429	-35.179	-128.804	-124.323	-13.904	-12.219	-124.657	-120.386	-119.915	-115.449	-13.373	-115.951	-8191	255	
1476.959	1	1	0	0	0.12593	0.36771	0.096682	0.48719	0.072109	0.19966	0.53176	0.13288	0.086462	0.29283	0.15414	0.22214	0.051062	0.14029	0.28984	0.27422	-0.58542	-1.3708	-1.8438	-1.2396	-1.7917	-1.4917	-1.2458	-2.175	-1.1333	-1.5187	-2.1854	-1.1479	-1.9667	-1.7208	-1.2167	-2.2229	177.050	33.069	-82.697	151.336	-129.907	-122.850	155.090	-115.718	5.802	163.255	-139.135	181.264	155.973	186.447	-10.932	101.243	0.00032562	7.842e-05	7.9755e-05	1386.9	5.7134e-06	4.6972e-06	1378.9	369.72	6.7104e-06	5.0887e-06	423.08	140.56	122.58	42.219	2.0935e-06	52.481	0.0006691	0.00069248	0.00019221	1400.8	7.5049e-06	7.4937e-06	1398	376.14	7.547e-06	7.5679e-06	430.09	144.26	125.49	43.402	7.6257e-06	53.758	-110.186	200.602	-50.896	-128.739	1.988	-63.683	-128.667	-124.197	28.865	6.204	-124.706	-120.277	-119.916	-115.595	41.939	-116.171	-8191	255	
1477.079	1	1	0	0	0.1883	0.174	0.29697	0.23893	0.21418	0.35649	0.049635	0.4118	0.18802	0.28382	0.1347	0.24184	0.25431	0.25843	0.17833	0.15035	-0.90625	-1.3604	-1.9167	-1.2146	-1.7396	-1.5583	-1.2167	-2.1521	-1.1187	-1.4062	-2.1562	-1.125	-1.7729	-1.9104	-0.99375	-1.925	86.309	-86.940	-55.535	120.747	48.987	191.619	213.020	215.725	-68.576	212.540	-38.891	160.570	210.050	-136.242	-38.258	119.918	0.00037586	0.00052542	0.00020771	1389.7	5.3128e-06	3.5805e-06	1382.2	368.64	2.4948e-06	9.3308e-06	421.66	140.42	122.43	42.256	6.4584e-06	52.169	0.00067588	0.00070401	0.00019819	1401.1	7.7575e-06	7.8318e-06	1395.9	375.71	7.7263e-06	7.7127e-06	429.72	144.03	125.48	43.345	7.4692e-06	53.672	-113.056	-49.350	-47.461	-128.867	-19.086	-42.249	-128.776	-124.297	-26.553	-13.301	-124.698	-120.727	-119.946	-115.572	-2.899	-116.105	-8191	255	
1477.175	1	1	0	0	0.15432	0.26902	0.14299	0.055946	0.19593	0.21957	0.2595	0.20342	0.32898	0.25094	0.36211	0.24116	0.25819	0.20461	0.06658	0.10863	-0.97292	-1.1417	-1.9312	-1.1271	-1.4042	-1.7354	-1.2229	-2.0062	-1.4667	-1.1812	-2.3354	-1.2729	-1.6125	-1.8417	-1.1458	-2.1271	-141.295	-116.974	56.672	84.788	-91.800	33.434	46.994	170.126	-2.693	-135.870	173.384	149.042	-33.467	208.762	-64.628	132.244	0.00032226	0.00038443	3.7372e-05	1389.4	4.9194e-06	2.2072e-06	1380.3	369.61	5.3677e-06	4.4044e-06	425.18	140.83	122.74	42.485	3.0736e-06	52.134	0.00065549	0.00068371	0.00019059	1399.1	7.4779e-06	7.4044e-06	1397	376.19	7.3749e-06	7.4927e-06	430.47	144.31	125.53	43.394	7.3982e-06	53.683	-107.462	-65.931	-72.608	-128.934	10.255	53.148	-129.120	-124.463	-0.762	4.057	-125.008	-120.428	-119.940	-115.423	18.335	-115.918	-8191	255	
1477.247	1	1	0	0	0.072515	0.082518	0.026056	0.16585	0.11027	0.052789	0.28268	0.27379	0.070729	0.13499	0.21274	0.20774	0.086682	0.078747	0.24203	0.18573	-1.1417	-1.2333	-1.8292	-1.2146	-1.3667	-1.7458	-1.3771	-1.9917	-1.5562	-1.1167	-1.9604	-1.1542	-1.5354	-2.0604	-1.1479	-1.7021	58.510	-96.198	94.989	164.722	53.595	53.742	196.122	178.114	17.274	91.876	-112.571	143.295	120.416	2.845	-100.009	-73.174	0.00031231	0.00088641	0.00012331	1386.5	3.6467e-06	4.6884e-06	1373.6	369.52	1.3907e-06	6.4199e-06	424.07	140.2	122.05	42.212	7.5028e-06	52.14	0.00063652	0.00068635	0.00019056	1398.8	7.3052e-06	7.4218e-06	1393.8	375.79	7.3139e-06	7.3271e-06	430.19	143.99	125.29	43.293	7.4551e-06	53.53	-111.688	-68.616	-42.831	-128.869	-21.115	-34.084	-129.022	-124.270	17.549	19.198	-124.913	-120.316	-119.903	-115.427	-11.248	-116.242	-8191	255	
1477.368	1	1	0	0	0.14389	0.077342	0.22934	0.22633	0.27317	0.12889	0.20875	0.19416	0.12014	0.076724	0.084267	0.2514	0.26	0.32105	0.26799	0.058573	-1.1125	-1.0271	-1.8458	-1.4604	-1.3312	-1.9896	-1.2313	-1.7292	-1.6958	-0.91667	-2.0521	-1.3917	-1.2583	-2.1354	-0.90833	-1.7687	-99.077	138.950	46.564	-139.141	6.776	39.068	190.155	-114.900	131.212	-50.992	63.532	129.954	204.970	134.965	195.188	-137.177	0.00029622	0.00054238	0.00016892	1384.6	2.2611e-06	7.7721e-06	1377.3	370.14	1.9169e-06	2.3459e-06	423.19	139.82	122.24	42.332	3.5196e-06	52.233	0.00064522	0.00068468	0.00018872	1396.9	7.4891e-06	7.5256e-06	1394.2	376.17	7.423e-06	7.6617e-06	430	144.01	125.25	43.425	7.6113e-06	53.752	-110.165	-23.875	-78.260	-129.034	-9.776	-2.114	-128.845	-124.258	9.191	-37.042	-124.607	-120.755	-119.719	-115.588	36.603	-116.148	-8191	255	
1477.462	1	1	0	0	0.15188	0.27167	0.14424	0.11576	0.13322	0.066295	0.11623	0.029361	0.17123	0.18275	0.19541	0.16888	0.25593	0.24269	0.38041	0.1591	-1.3813	-1.0667	-1.9354	-1.5542	-1.1875	-1.9396	-1.35	-1.925	-1.6542	-1	-2.1063	-1.4542	-1.1146	-1.8583	-1.1083	-1.5562	-61.042	25.885	41.055	84.737	-99.844	-120.568	74.565	2.499	26.502	-38.134	-68.761	167.228	115.222	-128.204	96.770	161.418	0.00030123	0.00064835	0.00015917	1386.9	1.9295e-06	5.789e-06	1381.5	369.02	3.7494e-06	5.8516e-06	423.5	140.86	122.21	42.521	1.2228e-06	52.493	0.0006553	0.00069303	0.00019346	1398	7.527e-06	7.4999e-06	1396.7	376.41	7.2988e-06	7.4625e-06	429.75	144.1	125.43	43.394	7.3856e-06	53.748	-110.295	-74.555	-22.153	-129.000	37.348	-7.475	-129.055	-124.198	-8.612	16.124	-124.657	-120.522	-120.055	-115.538	-29.867	-115.982	-8191	255	
1477.558	1	1	0	0	0.21544	0.063659	0.33219	0.26586	0.060936	0.26019	0.3613	0.29085	0.17875	0.10093	0.14716	0.084094	0.16563	0.17147	0.13643	0.20727	-1.4375	-1.0875	-1.775	-1.6063	-1.1313	-1.9208	-1.3292	-1.4688	-1.8146	-0.89583	-1.7146	-1.8604	-1.0187	-1.9917	-1.275	-1.4479	26.289	-50.661	-97.873	-140.953	-139.854	-7.061	199.591	167.448	-75.296	34.234	135.668	165.220	164.101	16.551	-58.224	89.619	0.00029832	0.00041846	0.00015708	1384.6	2.8207e-06	2.9846e-06	1374.3	371.02	3.9914e-06	4.3684e-06	423.21	140.3	122.25	42.322	4.6271e-06	52.277	0.00063766	0.00067065	0.00018544	1396.1	7.3267e-06	7.2941e-06	1392.2	376.32	7.2053e-06	7.288e-06	429.5	143.64	125.27	43.33	7.2709e-06	53.64	-98.930	-71.756	-28.595	-129.059	-1.756	-61.605	-129.001	-124.286	-9.177	47.803	-125.008	-120.723	-120.084	-115.454	-55.284	-116.213	-8191	255	
1477.654	1	1	0	0	0.15517	0.15321	0.11791	0.2543	0.21084	0.029464	0.21917	0.30099	0.28342	0.24046	0.25536	0.044787	0.20489	0.13629	0.12425	0.19811	-1.5229	-1.0854	-1.6583	-1.7708	-1.2271	-2.1208	-1.35	-1.3042	-1.8146	-1.0583	-1.8708	-2.0729	-0.97083	-1.9937	-1.3438	-1.3042	35.193	-93.805	199.241	-136.560	196.023	168.429	211.133	181.111	217.124	187.874	119.840	58.861	-135.007	-5.299	203.585	-112.166	0.00034091	0.00049235	0.00018542	1383.9	2.4354e-06	3.4022e-06	1375.7	368.89	5.5478e-06	7.5655e-06	424.01	140.16	122.04	42.202	4.7532e-06	52.083	0.00063471	0.0006729	0.00018608	1397.8	7.4229e-06	7.3191e-06	1393.2	376.09	7.3658e-06	7.4845e-06	430.25	143.68	125.26	43.301	7.3626e-06	53.604	-110.919	-69.983	-17.676	-129.073	8.646	-27.911	-129.071	-124.315	-7.586	57.252	-124.588	-120.853	-119.913	-115.607	-9.097	-116.122	-8191	255	
1477.775	1	1	0	0	0.13237	0.090862	0.23036	0.45109	0.085887	0.13092	0.35369	0.18371	0.14487	0.24371	0.47448	0.15995	0.12045	0.22682	0.087161	0.035818	-1.3792	-1.125	-1.6167	-2.0354	-0.925	-1.9458	-1.7125	-1.2333	-1.9625	-1.1187	-1.4854	-2.1729	-1.1208	-1.825	-1.4521	-1.2417	-10.956	80.021	101.398	165.076	213.550	-122.792	159.969	-120.600	17.614	171.193	-94.683	83.104	139.686	191.093	143.803	-139.266	0.00033649	0.00057053	0.00018953	1382.9	4.023e-06	4.7877e-06	1370.4	369.91	4.6115e-06	6.2748e-06	423.6	140.62	122.36	42.414	3.9184e-06	52.372	0.00064527	0.000682	0.00018864	1397.3	7.4825e-06	7.3867e-06	1391.4	376.61	7.4055e-06	7.3768e-06	429.66	144.23	125.26	43.411	7.475e-06	53.713	-112.249	-21.775	-54.381	-129.048	4.824	1.615	-129.179	-124.435	45.328	31.589	-124.881	-120.644	-120.145	-115.497	-30.986	-116.038	-8191	255	
1477.847	1	1	0	0	0.10399	0.086598	0.27634	0.12086	0.18091	0.24114	0.31692	0.28847	0.085078	0.09984	0.22656	0.3658	0.15467	0.11271	0.035419	0.22232	-1.4688	-1.3104	-1.2104	-2.1042	-0.98542	-1.8229	-1.8042	-1.2	-2.0958	-1.1542	-1.4958	-1.9271	-1.1604	-2.0229	-1.5417	-1.0812	-79.174	59.269	-120.225	184.402	188.151	200.873	181.969	-115.614	188.712	22.243	192.458	165.808	216.827	192.269	99.463	75.488	0.00032273	0.00042363	6.5517e-05	1388.6	6.8506e-06	7.1398e-06	1380.6	370.77	2.8802e-06	2.3757e-06	423.54	140.92	122.14	42.364	6.0985e-06	52.313	0.00064305	0.0006853	0.00019053	1399.4	7.4606e-06	7.4835e-06	1396.7	376.65	7.5032e-06	7.5266e-06	430.29	144.26	125.41	43.387	7.5364e-06	53.771	-112.097	-64.253	-30.434	-128.981	-13.379	23.714	-129.026	-124.503	-36.988	79.430	-124.563	-120.536	-120.330	-115.525	52.102	-116.049	-8191	255	
1477.943	1	1	0	0	0.18838	0.16347	0.10112	0.31838	0.21606	0.24748	0.11874	0.21278	0.13332	0.23121	0.23496	0.29118	0.18998	0.12952	0.20259	0.23122	-1.5792	-1.1167	-1.3375	-2.2	-1.0917	-1.7167	-1.9042	-1.3125	-1.8	-1.3542	-1.3438	-2.2417	-1.3021	-1.8042	-1.75	-1.225	-29.009	92.282	3.884	198.685	55.316	-48.573	163.290	182.854	143.639	-72.360	204.136	157.063	146.916	215.952	54.739	186.562	0.00031796	0.00074616	0.00029571	1382.7	3.2417e-06	5.4834e-06	1377.6	370.41	2.2294e-06	6.216e-06	423.81	140.77	121.72	42.341	6.3373e-06	52.497	0.00065886	0.00070333	0.00019589	1399.4	7.7972e-06	7.7103e-06	1397.2	376.73	7.7167e-06	7.8002e-06	430.83	144.44	125.43	43.428	7.7519e-06	53.778	-114.714	-27.713	-43.358	-129.107	-52.536	0.404	-129.222	-124.328	-12.628	-21.067	-124.820	-120.746	-120.346	-115.684	-13.345	-116.187	-8191	255	
1478.039	1	1	0	0	0.18826	0.1269	0.1012	0.37656	0.26195	0.31761	0.13147	0.42965	0.12181	0.11739	0.24983	0.1908	0.21724	0.099658	0.183	0.23826	-1.5688	-1.6437	-1.2042	-2.1854	-1.2062	-1.6187	-2.1167	-1.4271	-1.8875	-1.5042	-1.4708	-2.0833	-1.3417	-1.825	-1.9708	-1.0812	95.371	-136.725	116.766	169.182	176.746	208.096	-43.243	204.979	58.308	217.362	166.179	132.970	20.910	-10.097	138.403	93.912	0.00029801	0.00052283	0.00018552	1385.6	1.5699e-06	2.8905e-06	1382.5	370.81	3.0828e-06	9.5419e-06	422.23	140.47	122.33	42.27	2.945e-06	52.453	0.00067211	0.00072617	0.00020049	1400.3	7.7868e-06	7.7835e-06	1398.2	376.99	7.7263e-06	7.8066e-06	430.18	144.14	125.71	43.41	7.6146e-06	53.708	-105.471	11.878	4.305	-128.934	42.339	45.829	-128.939	-124.431	4.802	44.404	-124.783	-120.554	-120.194	-115.384	-10.233	-116.314	-8191	255	
1478.160	1	1	0	0	0.1722	0.29245	0.053807	0.41247	0.093057	0.03533	0.35382	0.27112	0.18603	0.14583	0.14591	0.1995	0.15771	0.34878	0.33218	0.27807	-1.5271	-1.5667	-1.1667	-2.0958	-1.2042	-1.1917	-2.1354	-1.2958	-1.7062	-1.7458	-1.1708	-2.0187	-1.5	-1.4813	-1.9375	-1.1104	-5.893	130.876	95.850	161.030	13.695	-39.575	109.538	214.379	178.136	191.253	178.398	180.154	178.860	215.047	194.683	151.362	0.0002936	0.00051744	0.0002022	1389.3	3.1018e-06	4.8449e-06	1376.6	371.18	2.68e-06	4.0195e-06	425.2	140.52	121.96	42.418	1.3354e-06	52.359	0.00066391	0.00071409	0.00019506	1400.1	7.7187e-06	7.6171e-06	1396.1	376.8	7.5041e-06	7.6231e-06	430.87	144.07	125.29	43.421	7.6036e-06	53.747	-115.553	-92.645	-31.588	-128.958	27.801	26.390	-129.300	-124.503	-7.551	2.192	-125.034	-120.601	-120.409	-115.550	88.830	-116.189	-8191	255	
1478.256	1	1	0	0	0.13387	0.3075	0.1488	0.25752	0.063132	0.29435	0.35023	0.24499	0.12873	0.11867	0.40879	0.31684	0.063006	0.22868	0.12185	0.091652	-1.3104	-1.9021	-1.0688	-2.2646	-1.3917	-1.3896	-2.2417	-1.0833	-1.8417	-1.8083	-1.3604	-1.9958	-1.3542	-1.3417	-1.9854	-1.0688	159.551	149.364	177.621	207.976	49.625	86.744	192.583	163.731	216.219	-90.057	-126.726	129.645	127.332	-62.728	-120.073	100.773	0.00031512	0.00047866	0.0001702	1382.2	6.0527e-06	4.5943e-06	1374.1	370.95	5.4439e-06	4.9302e-06	423.88	140.2	122.46	42.413	7.4332e-06	52.355	0.00065686	0.00069971	0.00019737	1399.4	7.6924e-06	7.7608e-06	1394.1	377.05	7.5346e-06	7.6152e-06	430.74	144.04	125.47	43.391	7.5117e-06	53.635	-110.922	-50.608	-43.194	-128.954	31.630	12.860	-129.016	-124.407	-4.808	-20.576	-124.838	-120.677	-120.016	-115.706	5.225	-116.476	-8191	255	
1478.352	1	1	0	0	0.16117	0.21717	0.1994	0.22725	0.34023	0.1127	0.26966	0.18493	0.063364	0.08261	0.23149	0.10471	0.14971	0.12934	0.14848	0.34104	-1.2104	-1.7437	-1.0562	-2.0312	-1.5604	-1.2271	-2.1979	-1.3417	-1.6708	-2.0542	-0.96042	-2.1583	-1.6792	-1.2646	-1.7958	-1.3583	187.632	199.171	88.986	172.292	97.749	-141.964	151.880	-138.729	-27.926	125.981	164.317	-22.831	173.636	-62.330	34.243	128.994	0.00036237	0.00059401	0.00011162	1388	2.9892e-06	5.6363e-06	1377.5	368.75	1.4974e-06	3.4901e-06	425.26	139.92	121.47	42.45	4.8866e-06	52.198	0.00065555	0.00069096	0.00019362	1399.6	7.621e-06	7.6484e-06	1394.6	375.94	7.5471e-06	7.667e-06	430.44	143.91	125.16	43.435	7.5183e-06	53.617	-112.428	-51.590	-41.161	-128.892	-6.910	64.211	-128.980	-124.448	64.756	-35.038	-124.996	-120.633	-120.168	-115.484	-34.399	-115.949	-8191	255	
1478.448	1	1	0	0	0.19598	0.19811	0.092365	0.36726	0.090854	0.11929	0.21012	0.28311	0.049469	0.086229	0.18498	0.084528	0.31527	0.11392	0.10453	0.26125	-1.0167	-1.8438	-0.97708	-2.0229	-1.5667	-0.94792	-2.125	-1.675	-1.4729	-1.9479	-1.1521	-1.7958	-1.7792	-1.1458	-1.9813	-1.4854	191.383	-137.747	104.021	151.227	168.273	185.433	83.375	72.939	-25.376	14.672	165.511	183.334	115.012	177.734	-18.849	-109.986	0.00033237	0.00056399	9.5487e-05	1386.7	3.978e-06	3.5733e-06	1376.2	368.71	5.433e-06	2.8528e-06	425.72	140.14	121.65	42.34	5.6188e-06	52.352	0.00065904	0.00069668	0.00019321	1398.8	7.6544e-06	7.5668e-06	1393.7	375.57	7.6588e-06	7.6071e-06	430.2	144.04	125.29	43.386	7.467e-06	53.616	-110.274	-58.406	-13.650	-129.066	-34.803	-5.402	-128.889	-124.254	-5.623	-37.922	-124.844	-120.377	-120.189	-115.705	-36.079	-116.070	-8191	255	
1478.542	1	1	0	0	0.28984	0.19643	0.15999	0.10791	0.16502	0.21834	0.25791	0.17218	0.1371	0.26896	0.20913	0.19781	0.12608	0.13805	0.17003	0.18492	-0.92708	-1.7833	-0.95	-1.8583	-1.9375	-1.0771	-2.2167	-1.6771	-1.3917	-2.0187	-1.2271	-1.6292	-1.8563	-1.0771	-1.8375	-1.5812	-114.444	45.617	-126.719	-68.094	97.558	175.433	-127.522	-106.507	195.940	73.766	136.438	201.233	-139.840	95.387	-21.381	176.455	0.00031484	0.00055574	7.1048e-05	1389.3	4.1137e-06	2.9734e-06	1375.7	370.49	4.3528e-06	5.6472e-06	424.73	140.42	122.06	42.56	3.3701e-06	52.253	0.00065016	0.00068945	0.0001932	1398.6	7.5156e-06	7.4491e-06	1394	376.16	7.507e-06	7.5302e-06	430.36	144.16	125.43	43.422	7.2826e-06	53.642	-105.481	-83.233	-110.297	-128.856	-17.584	-28.934	-128.763	-124.604	20.020	-10.893	-124.600	-120.319	-119.947	-115.385	-19.026	-116.026	-8191	255	
1478.640	1	1	0	0	0.19503	0.18094	0.078736	0.20462	0.10265	0.27898	0.049551	0.2478	0.27424	0.1623	0.020079	0.36831	0.025276	0.2153	0.19014	0.3459	-0.96875	-1.8979	-1.0688	-1.7437	-1.725	-1.0167	-2.1375	-1.7958	-1.1604	-1.9875	-1.3229	-1.5604	-1.9479	-0.92708	-1.7021	-1.6333	-117.646	-38.162	-25.641	160.799	94.806	-19.120	151.796	102.456	205.083	89.758	-66.265	158.752	-111.269	-61.118	-24.858	164.489	0.00030696	0.00040056	6.339e-05	1387	4.4263e-06	5.6081e-06	1380.4	369.57	3.5394e-06	2.013e-06	422.78	141.08	121.52	42.28	3.2069e-06	52.328	0.00064569	0.00067932	0.00018865	1398.7	7.4427e-06	7.4988e-06	1395.6	375.99	7.4713e-06	7.5243e-06	429.74	144.14	125.06	43.348	7.3254e-06	53.624	-114.785	-123.089	5.360	-128.888	-7.048	-34.181	-128.709	-124.422	9.023	13.277	-125.094	-120.586	-120.336	-115.259	50.189	-116.001	-8191	255	
1478.759	1	1	0	0	0.24091	0.12103	0.21137	0.38311	0.091867	0.1781	0.28298	0.34058	0.16135	0.17659	0.11164	0.3079	0.050184	0.17274	0.027382	0.12013	-0.51875	-1.8854	-1.0875	-1.7062	-2.0438	-1.1292	-1.925	-1.6917	-1.0458	-2.0667	-1.3375	-1.4333	-2.05	-1.3083	-1.8354	-1.6562	201.427	22.258	15.001	200.179	-125.072	7.244	89.536	138.731	144.535	53.893	-115.234	78.466	103.713	170.987	165.513	-16.026	0.00031086	0.0002455	0.0001143	1389.2	2.4761e-06	2.6228e-06	1381.8	369.65	2.8048e-06	2.6678e-06	424.56	140.73	122.01	42.509	3.6375e-06	52.268	0.00064108	0.00068013	0.00018788	1400.5	7.277e-06	7.424e-06	1395.4	376.38	7.3887e-06	7.2969e-06	430	144.09	125.26	43.379	7.1724e-06	53.563	-100.461	-83.744	-41.375	-128.764	-38.186	5.385	-128.898	-124.530	-106.682	108.233	-124.982	-120.653	-120.182	-115.277	-56.338	-116.185	-8191	255	
1478.855	1	1	0	0	0.21651	0.17444	0.17293	0.1864	0.31467	0.15378	0.11122	0.10282	0.13905	0.24842	0.046047	0.10666	0.13214	0.2568	0.11362	0.14623	-0.63542	-1.8354	-1.3271	-1.3188	-1.8417	-1.1333	-1.9125	-1.8771	-0.85	-1.7437	-1.6875	-1.3604	-2.0167	-1.0958	-1.4312	-1.9583	88.677	-87.045	27.899	-91.938	72.134	74.949	106.949	-86.294	216.159	108.617	38.576	-6.217	-81.332	158.848	199.822	179.555	0.00033867	0.00023843	0.00015746	1388	2.0346e-06	6.5521e-06	1381.3	370.27	3.679e-06	4.4527e-06	423.65	140.96	122.14	42.468	6.6955e-06	52.508	0.00063647	0.00066032	0.00018596	1399.1	7.2211e-06	7.2593e-06	1394.2	375.97	7.0778e-06	7.1151e-06	429.47	144.07	125.48	43.372	7.1726e-06	53.684	-114.431	-12.218	-42.401	-128.921	0.572	4.414	-128.768	-124.396	-10.835	-73.798	-124.924	-120.539	-120.083	-115.628	3.915	-116.243	-8191	255	
1478.951	1	1	0	0	0.088063	0.12736	0.27552	0.45159	0.19409	0.29225	0.26921	0.19649	0.15228	0.11364	0.3917	0.064655	0.44545	0.08681	0.11485	0.21853	-0.7125	-1.5979	-1.6125	-1.3604	-1.8958	-1.2833	-1.5375	-1.7792	-1.1479	-1.6042	-1.4271	-1.0792	-1.9854	-1.2792	-1.4813	-1.9354	-107.268	60.686	-47.934	205.320	-3.448	22.375	97.716	146.168	-52.160	-14.286	-138.034	152.034	-108.624	-115.087	165.804	55.274	0.00029754	0.00047227	0.00016276	1385	5.176e-06	1.6431e-06	1383.8	369.67	6.883e-06	5.4815e-06	423.65	140.26	121.88	42.356	4.5089e-06	52.508	0.00062205	0.00065149	0.00018589	1400	7.2109e-06	7.199e-06	1395.3	376.22	7.2085e-06	7.1843e-06	429.47	143.98	125.37	43.394	7.1502e-06	53.695	-107.327	-22.161	-43.314	-128.795	-6.019	56.629	-129.002	-124.528	-29.508	31.856	-124.748	-120.388	-119.880	-115.484	25.338	-116.255	-8191	255	
1479.072	1	1	0	0	0.13919	0.19748	0.3192	0.20857	0.27677	0.32964	0.46718	0.39023	0.28081	0.32651	0.064889	0.27277	0.17937	0.11055	0.27894	0.30294	-0.7	-1.9979	-1.5208	-1.4708	-1.9396	-1.3312	-1.5458	-1.925	-1.0458	-1.6437	-1.8	-1.125	-1.9271	-1.3792	-1.1896	-2.1417	39.644	180.336	177.549	122.521	143.000	210.800	159.287	174.698	-82.443	168.161	-68.232	-124.094	105.725	-141.919	-91.126	-88.442	0.00034473	0.00029055	0.00010579	1390.2	1.5827e-06	1.4214e-06	1376.9	368.99	4.8169e-06	4.4071e-06	423.55	140.71	122.62	42.293	1.8642e-06	52.368	0.00062733	0.00064563	0.00018339	1398.8	7.1789e-06	7.2399e-06	1393.9	376.24	7.2788e-06	7.198e-06	430.29	144.09	125.52	43.319	7.0897e-06	53.659	-111.084	-89.128	-71.299	-128.899	-78.033	-31.713	-128.750	-124.284	-40.782	88.358	-124.695	-120.436	-120.196	-115.683	34.282	-116.185	-8191	255	
1479.144	1	1	0	0	0.28958	0.37445	0.20988	0.48051	0.17603	0.098197	0.29476	0.13135	0.29329	0.13392	0.054313	0.31747	0.069827	0.14436	0.1476	0.1112	-0.58333	-1.6208	-1.7917	-1.2563	-1.9062	-1.4667	-1.4021	-2.15	-0.82917	-1.4271	-1.8229	-1.3188	-1.9979	-1.6583	-1.3042	-2.1167	95.548	-53.331	-14.822	181.086	-86.459	173.508	-131.484	-119.622	0.867	-43.469	-80.895	193.460	101.381	214.187	-107.687	216.903	0.00029807	0.00073139	8.5217e-05	1384.8	3.3899e-06	8.4266e-07	1378	368.74	4.6445e-06	1.7446e-06	424.05	140.38	121.72	42.249	4.2619e-06	52.276	0.00063017	0.00066077	0.00018465	1396.6	7.1703e-06	7.1705e-06	1395.1	376.13	7.1588e-06	7.0924e-06	430.49	144.02	125.19	43.331	7.1488e-06	53.596	-111.190	-34.150	-25.630	-128.770	5.652	53.177	-129.043	-124.473	26.434	-6.775	-124.988	-120.810	-120.165	-115.820	3.820	-116.562	-8191	255	
1479.240	1	1	0	0	0.065164	0.11105	0.22406	0.19896	0.24683	0.10538	0.51182	0.1041	0.11533	0.16347	0.15407	0.15711	0.1414	0.16958	0.12587	0.19525	-0.86042	-1.5667	-1.8563	-1.2542	-1.9	-1.5812	-1.1437	-2.0208	-1.3104	-1.45	-1.7646	-1.0417	-1.7167	-1.6583	-1.2062	-1.9979	30.365	16.845	53.712	205.891	-104.829	-53.615	122.456	54.454	18.711	-60.457	121.322	-41.580	-98.193	180.610	192.419	-11.262	0.00033859	0.00033671	9.6347e-05	1383.4	6.8313e-06	8.6581e-06	1378.3	370.19	5.0382e-06	2.1378e-06	421.99	140.63	122.57	42.185	2.2839e-06	52.272	0.00062651	0.00065962	0.00017928	1398	7.056e-06	7.1801e-06	1395	376.47	7.096e-06	7.0482e-06	429.31	144.02	125.23	43.251	7.018e-06	53.704	-107.709	-71.425	48.128	-129.107	-5.398	24.561	-129.022	-124.711	-41.923	29.170	-124.882	-120.851	-120.027	-115.872	16.926	-116.380	-8191	255	
1479.336	1	1	0	0	0.10033	0.25592	0.048134	0.23616	0.076718	0.21957	0.065953	0.26529	0.21888	0.40955	0.20446	0.35792	0.17667	0.38716	0.079341	0.062657	-0.83333	-1.25	-2.0563	-1.2083	-1.7083	-1.6688	-1.3604	-2.1771	-1.4583	-1.2604	-2.1562	-1.1208	-1.7042	-1.8583	-1.0958	-2.0625	116.832	-41.277	193.445	167.724	-60.590	-20.238	-64.979	122.701	138.419	-74.315	24.617	211.530	58.141	165.095	37.717	126.346	0.00030519	0.00046662	0.00022625	1383.4	4.3138e-06	8.1767e-06	1380.9	370.5	5.0284e-06	5.038e-06	423.24	140.83	122.52	42.254	3.0495e-06	52.173	0.00061694	0.00064404	0.00017637	1396.9	6.9161e-06	6.8915e-06	1395	376.27	6.7822e-06	6.817e-06	429.7	143.95	125.33	43.366	6.7344e-06	53.529	-113.565	-61.128	-51.457	-129.234	-9.362	14.172	-128.934	-124.407	-22.648	30.811	-124.877	-120.512	-120.378	-115.778	1.990	-116.542	-8191	255	
1479.455	1	1	0	0	0.10332	0.21985	0.19172	0.18925	0.24639	0.11611	0.37726	0.23569	0.082762	0.21312	0.13628	0.20599	0.27462	0.12894	0.25254	0.2345	-0.8375	-1.3813	-1.8729	-1.0625	-1.5354	-1.8937	-1.3854	-2.1542	-1.4625	-1.3125	-2.2604	-1.2354	-1.6583	-2	-1.1167	-2.1	-7.523	214.693	-89.351	165.367	115.253	17.518	127.267	184.690	112.256	-96.416	-1.934	191.500	-82.718	103.713	24.537	-61.650	0.00033892	0.00053753	0.00017636	1391.4	2.2603e-06	6.5237e-06	1375.7	371.03	5.5673e-06	4.8842e-06	424.63	140.54	122.4	42.428	4.1597e-06	52.241	0.00058193	0.00061463	0.00016964	1398.8	6.5781e-06	6.503e-06	1391.9	376.06	6.4711e-06	6.494e-06	429.25	144	125.26	43.305	6.5424e-06	53.568	-115.490	-84.987	-110.700	-129.215	-12.687	21.849	-129.250	-124.347	-40.202	0.713	-124.989	-120.763	-120.163	-115.834	58.221	-116.218	-8191	255	
1479.551	1	1	0	0	0.24369	0.095382	0.17153	0.27559	0.25235	0.13048	0.37061	0.14725	0.1937	0.051819	0.17377	0.20813	0.17778	0.080498	0.13608	0.19819	-1.1146	-1.0917	-2.0729	-1.4438	-1.5979	-1.9958	-1.1542	-2.0438	-1.7479	-1.1229	-1.9896	-1.2979	-1.4375	-2.0729	-1.1792	-1.7792	-54.131	81.163	67.240	137.525	-118.505	19.649	134.008	166.687	-25.968	191.502	124.284	112.446	-94.794	175.891	-0.588	-15.749	0.00035326	0.00068513	9.7214e-05	1388.2	1.9343e-06	1.1506e-06	1374.7	369.74	2.4785e-06	6.2993e-06	423.09	140.58	122.44	42.2	3.0964e-06	52.26	0.00057549	0.00060524	0.00016632	1397.7	6.5439e-06	6.5355e-06	1391.2	375.8	6.485e-06	6.4377e-06	429.32	143.82	125.34	43.224	6.4799e-06	53.412	-116.703	-21.639	-38.724	-129.179	-32.775	-22.129	-129.243	-124.500	-38.714	47.879	-125.073	-120.895	-120.349	-115.841	42.509	-116.272	-8191	255	
1479.647	1	1	0	0	0.2685	0.14171	0.11398	0.26617	0.06276	0.22507	0.2113	0.045587	0.19498	0.098245	0.20755	0.087201	0.1315	0.18086	0.27012	0.086605	-1.2479	-0.91042	-1.8875	-1.45	-1.2417	-2.0438	-1.4458	-1.9708	-1.6854	-1.0271	-2.0187	-1.5458	-1.225	-2.1792	-1.1479	-1.7917	121.310	23.476	-139.787	-139.680	208.839	106.951	1.367	35.707	104.693	14.581	-92.243	-35.077	-84.388	-88.202	-37.755	82.833	0.00034456	0.0004307	0.00015181	1383.2	2.9054e-06	4.7093e-06	1374.4	369.91	5.7226e-06	9.6196e-06	421.76	139.91	122.53	42.317	3.9861e-06	52.462	0.00057512	0.00059999	0.0001635	1395.3	6.4571e-06	6.4497e-06	1391	375.47	6.487e-06	6.6e-06	429.26	143.79	125.32	43.249	6.6346e-06	53.572	-106.111	-88.525	-29.622	-129.299	-0.631	-23.488	-129.224	-124.696	-8.563	59.619	-125.038	-120.886	-120.096	-115.556	-27.585	-116.200	-8191	255	
1479.721	1	1	0	0	0.1354	0.14469	0.057151	0.19066	0.34042	0.12979	0.4262	0.099954	0.23951	0.17045	0.26349	0.26769	0.40203	0.21026	0.25966	0.044804	-1.3271	-0.99792	-1.8792	-1.6562	-1.0583	-1.9854	-1.3583	-1.6396	-1.7521	-1.1417	-1.9312	-1.5708	-1.4208	-2.2104	-0.96458	-1.5479	86.326	32.800	150.324	-117.760	175.762	-93.657	138.636	129.074	-66.718	-5.272	145.325	119.193	160.385	-109.717	-116.802	134.703	0.00034642	0.00024514	0.00021562	1388.6	4.6567e-06	6.5715e-06	1377.7	369.9	2.6238e-06	2.5643e-06	422.02	140.62	121.99	42.199	6.4003e-06	52.52	0.00058145	0.00060691	0.00016862	1396.2	6.6206e-06	6.6717e-06	1394.5	375.99	6.7279e-06	6.6787e-06	428.87	143.52	125.13	43.311	6.6566e-06	53.617	-107.589	-75.155	-23.201	-129.453	0.574	-30.399	-129.200	-124.323	0.123	95.225	-125.007	-120.779	-120.316	-115.457	6.578	-116.281	-8191	255	
1479.840	1	1	0	0	0.21892	0.15988	0.24864	0.091767	0.20871	0.13911	0.17344	0.1708	0.18438	0.073239	0.16173	0.36925	0.11987	0.13697	0.078529	0.082772	-1.4937	-0.84375	-1.6896	-1.8125	-0.9375	-1.9688	-1.3375	-1.5833	-1.8312	-1.0646	-1.8813	-1.6771	-1.2125	-1.9708	-1.0771	-1.4875	74.564	-128.249	-126.035	205.547	-138.141	-100.911	73.228	182.422	24.851	155.384	16.450	164.907	116.535	200.248	-2.552	194.411	0.00034451	0.00059788	0.00019988	1384.3	5.6167e-06	1.7977e-06	1380.7	370.07	5.885e-06	1.4738e-06	425.13	140.45	121.95	42.286	2.2788e-06	52.151	0.00058422	0.00060626	0.00016819	1397.7	6.6885e-06	6.602e-06	1393.5	376	6.7743e-06	6.6602e-06	429.56	143.82	125.05	43.288	6.6886e-06	53.507	-105.154	-77.866	-28.880	-129.488	-17.795	34.519	-129.214	-124.685	-4.289	-33.951	-125.105	-120.925	-120.251	-115.587	14.345	-116.037	-8191	255	
1479.936	1	1	0	0	0.057032	0.052206	0.10757	0.30044	0.038535	0.087461	0.21215	0.10082	0.20377	0.10779	0.14409	0.099239	0.12238	0.31518	0.061669	0.37215	-1.4292	-0.84375	-1.8021	-1.9583	-1.0396	-1.9562	-1.5125	-1.5521	-1.85	-1.2146	-1.7292	-1.7729	-1.1667	-1.9333	-1.3896	-1.3021	14.887	122.307	-121.929	199.001	216.457	21.362	155.695	186.262	12.416	126.034	123.302	143.678	-113.220	169.058	81.133	115.951	0.00032019	0.00060797	9.2412e-05	1387.7	2.8745e-06	2.851e-06	1372.5	370.75	5.3781e-06	3.08e-06	425.51	140.57	122.26	42.272	6.5294e-06	52.252	0.00058664	0.00061896	0.00017112	1397.8	6.8438e-06	6.7627e-06	1392.3	376.28	6.716e-06	6.7541e-06	430.42	143.94	125.26	43.255	6.7394e-06	53.54	-109.037	-47.015	-56.560	-129.298	29.200	-47.198	-129.321	-124.396	-2.196	-18.715	-125.031	-120.773	-120.176	-115.854	-35.862	-116.398	-8191	255	
1480.032	1	1	0	0	0.14361	0.12865	0.25652	0.21933	0.33842	0.23975	0.20813	0.31861	0.15377	0.24444	0.24432	0.15485	0.22872	0.10723	0.0029069	0.25843	-1.5312	-1.1792	-1.6229	-2.0333	-1.0479	-1.8542	-1.7042	-1.4438	-2	-1.1625	-1.5625	-1.8917	-1.2542	-2	-1.5417	-1.1604	-29.823	28.957	77.961	213.623	127.545	-61.239	167.909	160.538	9.618	23.607	152.055	183.133	170.118	167.772	88.960	-127.480	0.00034497	0.00041883	0.0001205	1380.8	1.5576e-06	4.7893e-06	1379.6	370.86	5.5257e-06	8.7934e-07	423.51	140.8	121.92	42.379	5.5735e-06	52.032	0.00059234	0.00061853	0.0001721	1396.2	6.786e-06	6.7715e-06	1394	376.16	6.7226e-06	6.6782e-06	430.3	143.95	125.06	43.36	6.7031e-06	53.526	-106.698	-14.149	-26.960	-129.388	81.478	-16.047	-129.200	-124.465	-9.295	11.136	-125.075	-120.912	-120.416	-115.734	-43.331	-116.097	-8191	255	
1480.152	1	1	0	0	0.16474	0.14745	0.24048	0.34496	0.015321	0.21474	0.52991	0.21891	0.20645	0.20824	0.2199	0.14423	0.30563	0.097767	0.10989	0.10701	-1.6146	-1.1354	-1.3875	-2.0958	-1.0562	-1.7	-1.8312	-1.0458	-2.125	-1.3146	-1.3646	-2.0583	-1.1	-1.8438	-1.7938	-1.0958	-134.509	4.356	-14.335	196.987	162.206	-141.430	108.434	-129.022	-115.016	-139.096	200.124	188.111	-125.731	183.253	99.679	-84.628	0.00034395	0.00058937	0.00019729	1390.8	4.5131e-06	6.0668e-06	1379.9	370.9	5.7675e-06	5.4742e-06	425.5	140.09	122.38	42.468	4.7982e-06	52.371	0.00060518	0.00063024	0.00017149	1399.6	6.9052e-06	6.7211e-06	1392.8	376.25	6.7766e-06	6.8363e-06	430.98	143.9	125.37	43.371	6.8641e-06	53.729	-109.334	-65.299	-28.388	-129.313	29.392	10.201	-129.274	-124.686	-5.446	5.629	-125.302	-120.557	-120.488	-115.715	-21.134	-116.291	-8191	255	
1480.249	1	1	0	0	0.046325	0.12668	0.080227	0.28032	0.30691	0.13643	0.17221	0.20947	0.29699	0.088118	0.24266	0.21824	0.24195	0.17121	0.096955	0.29126	-1.6417	-1.2792	-1.3271	-2.2354	-1.0333	-1.6771	-1.8792	-1.1708	-1.875	-1.4583	-1.4479	-1.9479	-1.2437	-1.7042	-1.7833	-1.1625	69.263	208.990	83.106	197.566	211.758	148.853	-108.939	159.749	70.940	87.654	60.945	156.478	190.613	153.103	-43.268	159.809	0.00032817	0.00051542	0.00015907	1390.9	4.3294e-06	4.7184e-06	1378.6	370.7	1.3562e-06	5.7889e-06	424.22	141.07	121.78	42.384	4.0723e-06	52.275	0.00060557	0.00062868	0.00017682	1400.5	6.931e-06	7.0474e-06	1392.3	376.29	6.938e-06	6.8874e-06	429.65	144.3	125.03	43.341	6.8874e-06	53.557	-111.722	-75.107	-71.509	-129.231	-35.216	-37.071	-129.320	-124.507	-42.054	49.725	-125.110	-120.960	-120.383	-115.669	27.630	-116.462	-8191	255	
1480.345	1	1	0	0	0.14022	0.090373	0.019812	0.17837	0.013902	0.10362	0.42829	0.29154	0.17715	0.23402	0.021496	0.22491	0.24569	0.18592	0.031654	0.20673	-1.4042	-1.3667	-1.0479	-2.2833	-1.2542	-1.5042	-2.0667	-1.2583	-1.7771	-1.4958	-1.35	-1.9417	-1.2687	-1.4604	-1.8271	-1.1396	197.584	75.709	117.825	-88.045	143.865	156.706	139.832	131.726	16.527	152.534	-63.910	202.590	-131.515	100.693	61.465	-81.863	0.00029149	0.00057241	0.00022781	1387.3	4.5972e-06	3.3644e-06	1376.9	370.91	3.4424e-06	2.9618e-06	423.44	140.34	121.94	42.336	1.7884e-06	52.221	0.00061323	0.00065046	0.00017982	1399.1	7.0866e-06	7.0661e-06	1393.5	376.71	7.0043e-06	7.1107e-06	429.61	144.01	125.22	43.36	7.13e-06	53.572	-113.416	-49.281	-41.156	-129.109	11.551	-14.562	-129.361	-124.704	-70.725	161.276	-125.198	-120.790	-120.294	-115.782	-0.432	-116.499	-8191	255	
1480.441	1	1	0	0	0.088294	0.12032	0.17428	0.29829	0.10731	0.12489	0.059161	0.25389	0.079556	0.11467	0.11873	0.095391	0.16235	0.16788	0.23029	0.11723	-1.4771	-1.5396	-1.1042	-2.0979	-1.25	-1.1854	-2.0875	-1.2563	-1.8312	-1.5438	-1.2146	-2.1	-1.3229	-1.4542	-1.85	-1.1521	217.210	84.716	-69.725	123.719	-26.215	-39.086	125.269	153.225	118.110	119.687	207.985	91.970	157.221	-99.951	-28.104	147.625	0.00032298	0.00058113	8.8855e-05	1386.1	4.1103e-06	2.383e-06	1382.3	370	6.5507e-06	6.5709e-06	424.51	140.82	122.47	42.37	8.3819e-07	52.453	0.00061532	0.00065489	0.0001824	1398.4	7.151e-06	7.0463e-06	1396.2	375.89	7.1338e-06	7.1614e-06	430.5	144.01	125.29	43.397	7.0881e-06	53.688	-105.379	-38.165	-95.596	-129.148	-51.059	30.035	-129.132	-124.518	-11.382	54.632	-125.169	-120.677	-120.654	-115.693	77.732	-116.571	-8191	255	
1480.535	1	1	0	0	0.069568	0.26016	0.044514	0.40917	0.092795	0.29167	0.1915	0.092994	0.074588	0.13515	0.38537	0.095478	0.15837	0.10503	0.29559	0.33359	-1.2583	-1.6479	-0.95625	-2.1813	-1.4062	-1.3958	-2.2583	-1.5083	-1.7375	-1.8188	-1.2042	-1.9979	-1.5729	-1.2167	-2.0104	-1.2	5.813	3.001	60.884	192.516	95.674	32.528	86.345	76.822	88.930	-64.999	158.607	185.855	155.637	-136.053	4.459	-117.958	0.00030719	0.00030059	7.3969e-05	1384.7	3.3674e-06	2.7135e-06	1383	369.97	3.99e-06	2.9384e-06	424.15	140.36	122.18	42.534	1.6538e-06	52.292	0.00061853	0.00064636	0.00018403	1397.6	7.18e-06	7.1998e-06	1395.8	376.41	7.2939e-06	7.3731e-06	429.89	144.24	125.41	43.408	7.356e-06	53.567	-112.508	-50.104	-41.316	-129.058	17.064	73.803	-129.254	-124.543	2.743	31.704	-124.994	-120.878	-120.397	-115.927	-20.066	-116.382	-8191	255	
1480.631	1	1	0	0	0.19268	0.0811	0.11542	0.19413	0.20242	0.041796	0.24629	0.17375	0.1717	0.13547	0.15248	0.12275	0.13823	0.076708	0.080583	0.041951	-1.1	-1.7667	-1	-1.9083	-1.6479	-1.125	-2.05	-1.3375	-1.4292	-1.8625	-1.2146	-1.7167	-1.6417	-0.98125	-1.9937	-1.5292	78.636	0.376	117.695	120.821	80.635	-135.703	186.879	85.134	-28.881	-94.379	152.290	-109.052	199.969	144.155	27.566	15.465	0.0003439	0.00062656	0.0002563	1385.2	2.8104e-06	3.1185e-06	1379.7	370.98	3.0512e-06	3.1386e-06	424.73	140.69	121.69	42.303	5.8626e-06	52.028	0.00063362	0.00068201	0.00018917	1400	7.4377e-06	7.4685e-06	1396.5	377.18	7.4322e-06	7.4602e-06	430.83	144.41	125.32	43.467	7.4464e-06	53.599	-109.472	-68.118	-30.769	-129.022	-12.169	32.992	-129.421	-124.448	-29.422	26.872	-125.372	-120.722	-120.373	-115.505	37.239	-116.578	-8191	255	
1480.752	1	1	0	0	0.23705	0.20197	0.33025	0.48838	0.096579	0.14266	0.32219	0.04755	0.23243	0.19897	0.13105	0.2513	0.15801	0.27039	0.032117	0.1004	-0.85	-1.8042	-0.95417	-1.9146	-1.5812	-1.1479	-1.9729	-1.3396	-1.2146	-1.8792	-1.0167	-1.7271	-1.7458	-1.0229	-1.9417	-1.5417	119.963	-25.820	24.236	208.768	-140.560	113.116	159.409	122.327	143.147	-23.732	-116.007	200.275	124.464	35.370	121.709	146.348	0.00031986	0.00048334	0.00020148	1390.1	2.3676e-06	4.7138e-06	1376.7	371.54	3.4362e-06	8.014e-06	422.65	140.61	122.68	42.433	4.7632e-06	52.068	0.00065205	0.00069379	0.0001917	1400.7	7.4858e-06	7.5767e-06	1396.5	377.32	7.5188e-06	7.5903e-06	430.78	144.21	125.51	43.485	7.4134e-06	53.589	-104.686	-82.613	-44.747	-129.159	-21.600	-18.085	-129.156	-124.848	13.858	20.940	-125.172	-120.580	-120.403	-115.838	17.723	-116.400	-8191	255	
1480.848	1	1	0	0	0.086213	0.18554	0.019666	0.3466	0.20689	0.18272	0.18257	0.23735	0.22792	0.31661	0.16955	0.083716	0.098586	0.067393	0.063728	0.26625	-0.79375	-1.9125	-0.99583	-1.8229	-1.5417	-1.1792	-2.1333	-1.5646	-1.3	-1.9521	-1.0875	-1.6646	-2.0438	-1.1688	-1.8042	-1.5354	17.307	-72.228	164.695	207.938	-96.860	163.969	174.253	216.516	152.056	-117.682	-109.902	92.038	-123.910	194.823	-100.131	95.979	0.00034222	0.00044319	0.0001206	1390.2	3.6277e-06	3.1299e-06	1382.5	371.07	4.8896e-06	7.1827e-06	422.52	140.6	122.19	42.413	5.7559e-06	52.215	0.0006591	0.00069337	0.00019343	1403	7.6203e-06	7.668e-06	1397.6	377	7.5531e-06	7.6051e-06	430.09	144.3	125.43	43.463	7.4445e-06	53.615	-104.156	-34.907	-13.105	-129.025	-7.107	-11.425	-129.122	-124.566	-20.045	24.791	-125.331	-120.639	-120.298	-115.581	7.578	-116.623	-8191	255	
1480.944	1	1	0	0	0.21995	0.065937	0.2054	0.26879	0.20522	0.3033	0.14634	0.46745	0.1181	0.21761	0.48192	0.25025	0.022091	0.09288	0.20845	0.13394	-0.67708	-1.925	-1.0208	-1.9062	-1.6792	-1.075	-1.9979	-1.6104	-0.99167	-2.0083	-1.1479	-1.6042	-1.9875	-1.2	-1.8021	-1.7042	-52.948	-60.397	124.052	200.819	44.484	120.876	154.279	179.086	-80.202	91.677	190.005	202.974	160.054	-53.572	-129.652	202.527	0.00036277	0.00011688	0.00020494	1387	5.7621e-06	5.1266e-06	1381.8	372.32	3.4388e-06	6.2946e-06	424.29	140.7	122.86	42.406	4.5838e-06	52.213	0.00066191	0.00069642	0.00019067	1400.4	7.6078e-06	7.6635e-06	1397.5	377.61	7.5916e-06	7.5694e-06	430.53	144.15	125.48	43.45	7.4934e-06	53.592	-118.438	164.837	-44.542	-129.095	3.973	23.845	-129.318	-124.694	-35.076	18.945	-125.073	-120.819	-120.526	-115.637	29.356	-116.549	-8191	255	
1481.016	1	1	0	0	0.10866	0.27062	0.10413	0.18507	0.2402	0.19718	0.30015	0.49356	0.23384	0.21271	0.10785	0.33273	0.077081	0.1353	0.30828	0.077473	-0.66667	-2.1188	-1.2354	-1.6104	-1.7979	-1.0042	-1.7896	-1.75	-1.0958	-1.875	-1.2958	-1.2687	-2.0542	-1.2271	-1.7125	-1.9562	28.809	-43.699	66.962	-117.666	-83.828	-98.648	135.729	-132.050	-124.263	-119.435	-70.971	199.853	151.204	174.556	79.746	39.597	0.00026063	0.0008653	0.0001062	1391.6	2.4963e-06	1.3675e-06	1383	369.18	3.0279e-06	6.9575e-06	421.69	140.25	122.38	42.328	4.8869e-06	52.154	0.00065647	0.00069222	0.00019465	1401.3	7.6322e-06	7.6206e-06	1398.5	376.56	7.6765e-06	7.5776e-06	430.43	144.23	125.65	43.389	7.4853e-06	53.739	-105.090	-51.722	-65.205	-128.871	-34.513	72.638	-129.082	-124.410	-3.911	-15.162	-125.120	-120.599	-120.206	-115.521	-27.946	-116.225	-8191	255	
1481.112	1	1	0	0	0.072447	0.27096	0.13449	0.41883	0.19508	0.078398	0.40388	0.25159	0.13653	0.049331	0.40278	0.27901	0.097607	0.1212	0.17058	0.10159	-0.59583	-1.8917	-1.4438	-1.3813	-1.9583	-1.0646	-1.7979	-1.8521	-1.1396	-1.9854	-1.5833	-1.3958	-2.1667	-1.3833	-1.5562	-1.8354	173.634	163.755	141.260	183.992	131.523	172.522	133.702	165.749	-75.263	-77.859	181.677	159.155	211.544	163.333	-76.201	216.554	0.00034962	0.00066281	0.00013299	1390.5	4.7648e-06	5.1217e-06	1383.3	371.88	2.7218e-06	9.1472e-06	422.54	140.86	122.19	42.195	7.8088e-06	52.164	0.00066329	0.00069831	0.00019521	1401	7.5441e-06	7.545e-06	1397.8	377.01	7.5364e-06	7.4662e-06	430.23	144.18	125.29	43.405	7.5623e-06	53.702	-104.621	-65.353	-73.657	-129.187	21.721	-43.381	-129.128	-124.525	36.999	14.299	-125.175	-120.420	-120.355	-115.917	-7.549	-116.016	-8191	255	
1481.233	1	1	0	0	0.27939	0.24927	0.11608	0.26602	0.090732	0.22304	0.20467	0.1129	0.10151	0.31924	0.11386	0.28528	0.097698	0.024088	0.062404	0.26475	-0.65417	-1.8083	-1.3729	-1.3896	-1.9917	-1.3604	-1.5542	-2.0708	-0.86875	-1.6729	-1.6	-1.1125	-2.2229	-1.3104	-1.3479	-2.2313	189.601	-47.550	89.688	159.595	201.683	-2.305	120.753	192.883	16.631	59.542	86.866	-140.403	-121.081	58.083	128.963	145.959	0.0002893	0.00065806	0.00014667	1390.8	1.3816e-06	3.9559e-06	1379.8	369.41	3.4273e-06	8.2829e-06	423.03	140.68	122.3	42.246	5.4574e-06	52.015	0.00066458	0.00068854	0.0001926	1400.4	7.5013e-06	7.5651e-06	1396.5	376.47	7.5089e-06	7.5571e-06	430.52	144.23	125.4	43.344	7.5611e-06	53.566	-98.170	-66.414	-66.996	-128.971	37.503	61.847	-129.168	-124.601	-33.764	11.677	-125.069	-120.742	-120.205	-115.863	17.086	-116.729	-8191	255	
1481.329	1	1	0	0	0.1529	0.21974	0.12451	0.284	0.33061	0.11067	0.2252	0.18873	0.17717	0.41127	0.10481	0.128	0.25113	0.16855	0.25692	0.1111	-0.7375	-1.7208	-1.5979	-1.2812	-2.0333	-1.1417	-1.4708	-1.9833	-1.2104	-1.7667	-1.7687	-1.0812	-2.0438	-1.3646	-1.3604	-2.1542	-28.991	-93.388	-20.491	216.334	68.697	-117.472	148.417	99.069	181.336	-8.249	-68.291	170.577	107.664	-141.979	97.960	163.474	0.00035236	0.0004428	0.00022266	1389.2	2.441e-06	5.8205e-06	1378.2	370.38	5.6677e-06	3.9079e-06	424.28	140.98	122.32	42.367	3.8063e-06	52.103	0.00066635	0.0006908	0.00019406	1401	7.4768e-06	7.6193e-06	1395.1	376.53	7.6491e-06	7.6087e-06	430.98	144.42	125.62	43.434	7.5088e-06	53.681	-108.663	-34.735	-56.436	-129.130	5.641	-29.723	-129.045	-124.498	-23.762	92.671	-125.041	-120.452	-120.289	-115.739	17.190	-116.387	-8191	255	
1481.425	1	1	0	0	0.19711	0.2524	0.38575	0.21246	0.24765	0.10551	0.31945	0.34432	0.11481	0.39314	0.37294	0.15288	0.36665	0.12732	0.19801	0.17111	-0.74167	-1.6562	-1.7437	-1.1604	-1.8	-1.6	-1.4875	-2.2438	-1.1375	-1.6208	-1.8438	-1.2188	-2.0875	-1.6104	-0.975	-1.8042	187.260	-53.995	49.173	202.528	-72.441	-20.327	152.308	162.403	49.374	-120.231	203.792	-79.250	142.318	164.869	187.435	-70.702	0.0003393	0.00039209	0.00025194	1389.9	3.6039e-06	3.3162e-06	1377.6	368.71	4.9799e-06	9.5851e-06	425.39	140.66	123.07	42.326	6.3719e-06	52.475	0.00065692	0.00069389	0.00019058	1401.1	7.4989e-06	7.5167e-06	1395.5	376.6	7.5207e-06	7.4613e-06	430.96	144.31	125.77	43.392	7.485e-06	53.717	-98.926	-61.239	-53.094	-128.969	-48.326	-36.497	-129.061	-124.538	-11.970	0.802	-125.180	-120.481	-120.112	-116.049	41.076	-116.249	-8191	255	
1481.521	1	1	0	0	0.10657	0.084047	0.085982	0.28386	0.15974	0.23779	0.12822	0.027404	0.08512	0.12195	0.34823	0.086719	0.076016	0.24432	0.076058	0.13162	-0.7	-1.4937	-1.7896	-1.2188	-1.7292	-1.7708	-1.2229	-2.05	-1.1667	-1.2979	-1.9312	-1.2729	-1.7979	-1.8021	-0.99583	-2.0958	142.976	-128.687	44.740	196.627	154.600	-112.372	177.320	-61.654	-8.991	94.974	149.806	-58.780	126.117	-138.418	195.400	145.936	0.00030654	0.00038788	0.00016221	1386.2	3.9278e-06	4.4715e-06	1377	370.89	3.9153e-06	3.2275e-06	422.45	141.27	121.47	42.238	5.2317e-06	52.05	0.00064709	0.00068611	0.00018829	1399	7.4284e-06	7.4586e-06	1396.2	377.6	7.4688e-06	7.5421e-06	429.73	144.34	125.16	43.48	7.4734e-06	53.679	-108.854	-51.646	-44.450	-129.149	21.931	-4.196	-129.058	-124.610	-16.211	51.033	-124.844	-120.564	-120.172	-115.729	31.025	-116.229	-8191	255	
1481.616	1	1	0	0	0.099364	0.19892	0.10135	0.27879	0.060704	0.1757	0.13141	0.41457	0.076195	0.0053761	0.30755	0.024962	0.14135	0.24969	0.36018	0.17948	-0.91458	-1.2458	-1.8333	-1.2729	-1.7292	-1.8042	-1.2625	-2.2188	-1.1458	-1.3	-2.0875	-1.2542	-1.7458	-1.9125	-1.0208	-2.1792	172.692	118.057	-50.969	217.031	149.804	191.417	-96.531	155.135	23.256	103.433	129.909	151.551	-39.957	199.740	-20.537	134.035	0.00034414	0.00069032	0.00019633	1383.5	4.3881e-06	8.952e-06	1375.9	370.52	4.1078e-06	3.2942e-06	423.14	140.39	122.73	42.553	3.5241e-06	52.26	0.00064068	0.00068287	0.00018895	1399.1	7.5267e-06	7.4609e-06	1395.6	376.6	7.5058e-06	7.4565e-06	430.74	144.23	125.76	43.493	7.4401e-06	53.733	-107.509	-38.733	-49.410	-129.145	3.546	11.255	-129.205	-124.536	-9.245	-0.695	-124.729	-120.514	-120.190	-115.449	5.965	-116.266	-8191	255	
1481.714	1	1	0	0	0.082483	0.14276	0.28119	0.21079	0.090023	0.15696	0.19454	0.47759	0.25457	0.16033	0.14066	0.26465	0.10497	0.16399	0.12355	0.12895	-1.0396	-1.1479	-1.9542	-1.3792	-1.5167	-1.8042	-1.1208	-1.9125	-1.4188	-1.3542	-2.0083	-1.3312	-1.5979	-1.8604	-1.125	-1.8958	57.809	-70.549	93.136	204.787	30.527	-123.064	162.944	160.982	71.618	-126.748	-106.686	-108.955	86.349	-105.057	10.246	-81.322	0.00034291	0.00085556	0.00022929	1384.6	4.4685e-06	2.8801e-06	1380	370.01	3.2953e-06	7.2551e-06	424.96	140.39	122.08	42.529	3.2847e-06	52.603	0.00064734	0.00068707	0.00018885	1400.2	7.3759e-06	7.3881e-06	1395.5	377.17	7.3964e-06	7.3769e-06	430.34	144.23	125.47	43.426	7.3313e-06	53.755	-108.172	-40.285	-16.833	-129.138	-35.690	29.520	-129.223	-124.024	-5.287	55.431	-125.085	-120.763	-120.184	-115.733	4.939	-115.853	-8191	255	
1481.832	1	1	0	0	0.068854	0.10407	0.15739	0.13902	0.19701	0.20452	0.1064	0.059399	0.409	0.094527	0.10256	0.25826	0.1458	0.2566	0.33619	0.073696	-0.9	-1.2021	-1.95	-1.3875	-1.5	-1.925	-1.1625	-1.8708	-1.6542	-1.1771	-1.9104	-1.4292	-1.4104	-1.7896	-0.925	-1.7604	159.383	-21.096	-119.381	-106.476	36.024	0.687	55.101	8.560	207.034	-89.254	95.927	164.852	208.680	73.689	100.048	156.743	0.00028461	0.0005818	0.00019381	1384.2	3.1811e-06	8.2687e-06	1380.3	370.77	4.1038e-06	5.4365e-06	422.48	141.5	123.03	42.394	2.4069e-06	52.315	0.00065149	0.00067082	0.00018644	1398.7	7.3737e-06	7.5061e-06	1396.4	377.22	7.409e-06	7.5745e-06	430.51	144.57	125.75	43.358	7.4177e-06	53.594	-101.820	-33.350	-41.899	-129.135	26.014	14.423	-129.141	-124.225	-3.312	-1.573	-124.956	-120.908	-120.004	-115.716	11.133	-116.079	-8191	255	
1481.929	1	1	0	0	0.1945	0.16885	0.18169	0.28414	0.20846	0.121	0.32348	0.15259	0.083596	0.20177	0.077153	0.41278	0.10154	0.11269	0.17011	0.2058	-1.2604	-1.1396	-1.9375	-1.4167	-1.2625	-1.9021	-1.2958	-1.7354	-1.7062	-1.0354	-1.9333	-1.4708	-1.3188	-2.0708	-1.1562	-1.5354	77.755	177.712	183.905	182.631	91.363	146.738	84.857	-67.857	-12.135	75.952	185.313	198.180	-52.860	172.196	159.560	146.196	0.00031822	0.00027079	0.00014815	1387.4	2.9146e-06	3.8801e-06	1384.1	371.11	3.3285e-06	7.7106e-06	424.27	140.92	122.49	42.379	3.5964e-06	52.295	0.00065177	0.00068489	0.00018971	1399.7	7.4826e-06	7.4825e-06	1398.5	377.79	7.3797e-06	7.5096e-06	430.72	144.34	125.68	43.419	7.302e-06	53.615	-102.469	175.787	-30.313	-129.012	21.191	-45.275	-129.042	-124.127	-1.312	8.870	-124.646	-120.472	-120.035	-115.477	-22.700	-116.182	-8191	255	
1482.025	1	1	0	0	0.43344	0.025876	0.099374	0.29729	0.29296	0.098743	0.074552	0.24213	0.16672	0.1045	0.33826	0.031287	0.057277	0.17573	0.14286	0.18156	-1.2229	-0.975	-1.725	-1.7583	-1.2583	-2.0854	-1.2271	-1.4708	-1.6771	-0.91458	-1.8813	-1.7354	-1.3125	-1.9813	-1.1083	-1.4708	116.429	-131.281	-81.972	158.136	82.990	150.445	-68.661	175.934	142.403	119.813	176.676	173.170	165.493	-72.230	-84.025	-129.369	0.00032506	0.00090896	0.00021747	1388.9	4.1953e-06	4.6214e-06	1382.8	370.39	4.7946e-06	1.1859e-05	424.29	140.94	122.64	42.347	1.2748e-06	52.395	0.00064787	0.00067614	0.00018712	1399.7	7.4205e-06	7.357e-06	1399.2	376.71	7.3606e-06	7.4385e-06	430.02	144.24	125.38	43.42	7.4289e-06	53.729	-103.657	-78.280	-78.364	-128.830	-24.760	-5.637	-129.110	-124.436	35.687	11.268	-124.798	-120.548	-120.046	-115.469	-19.069	-116.119	-8191	255	
1482.121	1	1	0	0	0.2516	0.29128	0.09776	0.17169	0.13936	0.096181	0.13795	0.073463	0.048743	0.20097	0.1111	0.095951	0.086376	0.30509	0.1163	0.19643	-1.4125	-1.0438	-1.6396	-1.8083	-1.1021	-1.9042	-1.5167	-1.3833	-2.0563	-0.99375	-1.6771	-1.5979	-1.0646	-2.0729	-1.1604	-1.3438	-14.699	182.670	16.452	157.531	41.205	42.978	78.817	146.927	119.090	-68.125	89.337	-89.645	70.764	-139.504	185.709	185.577	0.00037517	0.00036523	0.00013	1386	4.328e-06	2.694e-06	1373.1	370.45	5.6492e-06	5.889e-06	424.01	139.93	122.39	42.541	3.9452e-06	52.343	0.00063826	0.00067227	0.00018728	1398.9	7.345e-06	7.3154e-06	1396.8	376.66	7.2643e-06	7.4446e-06	430.44	144.14	125.75	43.496	7.2444e-06	53.702	-115.144	-70.139	-60.135	-128.941	-41.748	-25.663	-128.974	-124.288	-11.912	27.845	-124.695	-120.433	-120.084	-115.466	6.992	-115.976	-8191	255	
1482.242	1	1	0	0	0.31532	0.18713	0.1173	0.24521	0.21253	0.22909	0.33962	0.2329	0.25805	0.075722	0.31035	0.21363	0.17611	0.27493	0.010973	0.081892	-1.4729	-1.1875	-1.7625	-1.7417	-0.99375	-1.9146	-1.4042	-1.3188	-1.925	-0.96458	-1.7604	-1.8083	-1.0104	-1.9271	-1.4417	-1.3563	-127.296	-98.735	-9.744	165.559	-36.477	1.792	174.810	146.823	59.642	-106.468	211.247	195.793	-119.025	194.200	-30.535	-92.241	0.00031277	0.00040453	0.0002127	1385.8	4.3893e-06	2.4951e-06	1379.3	370.59	2.8396e-06	8.8563e-06	424.6	141.34	122.23	42.487	6.0581e-06	52.429	0.00063093	0.00068007	0.00018665	1399	7.3127e-06	7.3179e-06	1395.3	376.86	7.241e-06	7.2574e-06	429.96	144.55	125.56	43.44	7.2571e-06	53.591	-112.949	-97.389	-14.977	-128.962	24.040	-57.170	-128.969	-124.109	16.578	39.776	-124.948	-120.644	-119.993	-115.452	63.363	-115.927	-8191	255	
1482.313	1	1	0	0	0.25994	0.30051	0.15329	0.1393	0.34808	0.028044	0.12913	0.23109	0.17783	0.12719	0.29283	0.41822	0.22717	0.33311	0.36337	0.20241	-1.6792	-1.0042	-1.7354	-1.9375	-0.98333	-1.7646	-1.6833	-1.2083	-1.8875	-1.2333	-1.5396	-1.9292	-1.0917	-1.9229	-1.5187	-1.2854	-29.315	90.835	7.321	183.980	124.321	158.852	52.819	207.988	75.445	178.568	191.661	179.102	143.763	-134.804	8.127	203.472	0.00034767	0.00055677	0.00014732	1388.1	2.5197e-06	5.7978e-06	1373.3	370.69	4.1449e-06	7.2911e-06	424.81	140.74	122.39	42.641	3.2776e-06	52.193	0.00062766	0.00066034	0.00018487	1400.6	7.3736e-06	7.3159e-06	1395	376.94	7.2325e-06	7.3665e-06	430.76	144.31	125.6	43.494	7.2821e-06	53.663	-108.357	-33.892	-54.077	-129.006	-35.642	6.117	-128.969	-124.315	-2.188	44.394	-125.047	-120.555	-120.187	-115.080	-40.300	-116.257	-8191	255	
1482.434	1	1	0	0	0.045357	0.32292	0.25636	0.34656	0.09137	0.043887	0.31443	0.030534	0.083313	0.50203	0.18017	0.1898	0.29079	0.2024	0.17491	0.35018	-1.7354	-0.97083	-1.2042	-2.0375	-0.97917	-1.7375	-1.7646	-1.25	-1.7104	-1.2042	-1.2854	-2.1271	-1.1854	-1.5417	-1.6458	-1.3646	3.761	-90.050	-99.456	192.287	22.609	76.832	93.571	-26.351	188.780	67.014	-109.578	146.705	217.134	150.498	159.978	163.579	0.0003212	0.00094288	0.00016756	1383.9	2.5538e-06	7.7261e-06	1377.2	370.68	5.0406e-06	8.9736e-06	425.1	141.6	122.05	42.342	4.8956e-06	52.357	0.00063369	0.00066545	0.00018447	1400.9	7.2002e-06	7.3273e-06	1395.3	376.7	7.2328e-06	7.266e-06	431.09	144.39	125.49	43.343	7.1153e-06	53.682	-106.022	-60.010	-16.533	-128.883	4.371	37.219	-128.736	-124.077	-29.841	3.820	-124.441	-120.399	-119.826	-115.523	-43.157	-116.090	-8191	255	
1482.528	1	1	0	0	0.15176	0.12133	0.25407	0.39666	0.18639	0.11742	0.17174	0.090343	0.067891	0.1035	0.26161	0.1896	0.35515	0.27542	0.14253	0.18036	-1.5854	-1.1979	-1.4417	-2.1542	-1.0688	-1.6583	-1.9125	-1.2521	-1.8208	-1.3062	-1.3396	-2.0083	-1.0438	-1.6458	-1.5958	-1.0708	-91.590	-14.655	-69.566	102.010	46.681	-22.507	-110.993	-97.783	125.729	162.231	-130.661	38.392	107.566	-26.573	-119.142	-117.791	0.00033478	0.00053258	0.00015778	1390	3.0113e-06	3.7843e-06	1380.8	371.02	4.8986e-06	4.2065e-06	425.16	141.72	122.15	42.452	3.3468e-06	51.963	0.00062237	0.00065866	0.00018123	1399.8	7.2324e-06	7.1716e-06	1395.5	376.67	7.1228e-06	7.0823e-06	430.79	144.41	125.5	43.393	6.9141e-06	53.583	-102.344	-48.331	-19.693	-128.771	61.395	-17.484	-128.970	-124.125	-20.479	-5.788	-124.581	-120.394	-120.151	-115.255	64.120	-116.213	-8191	255	
1482.624	1	1	0	0	0.089054	0.23209	0.21552	0.12195	0.05332	0.033431	0.12585	0.087706	0.21837	0.13816	0.23216	0.28258	0.054627	0.26794	0.18451	0.083584	-1.5146	-1.4375	-1.2417	-2.1521	-1.1917	-1.5375	-2.1188	-1.2563	-1.8646	-1.4688	-1.2708	-2.1833	-1.1875	-1.3687	-1.8854	-1.2437	198.253	174.578	157.420	209.607	186.487	-79.915	213.530	-104.513	27.835	34.549	-74.277	-124.119	216.858	118.157	-9.172	160.188	0.00038066	0.0008256	0.00021737	1386.9	4.0856e-06	2.0076e-06	1378.6	372.37	3.438e-06	4.1673e-06	423.78	140.97	122.51	42.749	7.5213e-06	52.208	0.00060618	0.00064557	0.0001809	1399.4	7.1533e-06	6.9945e-06	1396.7	377.38	7.055e-06	7.0207e-06	430.42	144.65	125.5	43.466	7.1174e-06	53.644	-104.171	-48.208	-84.431	-128.721	-52.082	-29.462	-129.031	-124.129	-48.122	-16.114	-124.684	-120.468	-119.912	-115.229	34.985	-116.011	-8191	255	
1482.721	1	1	0	0	0.20889	0.062144	0.1085	0.17944	0.37198	0.17035	0.43179	0.32636	0.13798	0.14129	0.10313	0.38577	0.16383	0.179	0.14498	0.098787	-1.3792	-1.4125	-1.0708	-2.1833	-1.225	-1.4104	-2.0792	-1.0979	-1.8729	-1.6688	-1.1979	-2.0354	-1.6646	-1.5125	-1.9312	-1.05	-90.394	145.040	108.137	200.577	-110.253	-134.508	159.429	116.775	2.495	152.983	160.786	190.600	98.139	17.969	14.658	-21.684	0.00033486	0.00021425	0.00016877	1385.8	4.3305e-06	1.8607e-06	1377	369.91	4.1806e-06	7.8728e-06	427.1	140.31	122.31	42.495	2.2735e-06	52.409	0.0006196	0.00065126	0.00018389	1399.2	7.2766e-06	7.1476e-06	1394.5	376.59	7.0366e-06	7.1667e-06	431.21	143.91	125.5	43.443	7.0523e-06	53.654	-111.439	13.856	-70.421	-128.707	15.273	40.590	-128.657	-124.120	-22.405	12.579	-124.862	-120.315	-119.970	-115.078	69.116	-115.888	-8191	255	
1482.817	1	1	0	0	0.1647	0.092929	0.20771	0.16343	0.023808	0.11903	0.2471	0.41424	0.12835	0.040493	0.092174	0.29926	0.12615	0.36879	0.1794	0.30856	-1.2938	-1.6854	-1.0771	-2.1188	-1.1167	-1.2479	-2.2188	-1.4083	-1.6812	-1.6917	-1.0396	-2.0896	-1.4167	-1.2917	-1.9625	-1.2854	127.832	-37.116	198.243	144.732	35.566	217.234	184.085	175.301	-118.904	-15.338	168.241	208.435	188.815	90.243	186.346	118.562	0.00031355	0.00045406	0.00026031	1388.2	4.6238e-06	3.9865e-06	1380.4	369.85	4.5742e-06	5.7722e-06	423.37	140.92	122.44	42.67	5.4542e-06	52.481	0.00062033	0.00065202	0.00018354	1401.2	7.1371e-06	7.1498e-06	1395.5	376.41	7.1196e-06	7.0679e-06	429.87	144.12	125.54	43.541	7.1368e-06	53.648	-103.195	-50.070	-14.091	-128.619	-9.575	32.931	-128.477	-124.037	-62.937	42.226	-124.603	-119.836	-120.268	-115.057	-1.553	-116.007	-8191	255	
1482.913	1	1	0	0	0.28634	0.068613	0.087348	0.25102	0.17365	0.16539	0.21278	0.25884	0.085658	0.11093	0.46103	0.15618	0.23896	0.13205	0.088599	0.22358	-1.2333	-2.025	-0.93125	-2.0938	-1.3667	-0.99167	-2.1917	-1.05	-1.3833	-1.8854	-1.0771	-2.0604	-1.8937	-1.0271	-1.8917	-1.1729	23.321	144.195	171.265	182.582	-126.480	197.912	195.862	158.931	-35.529	159.223	173.906	58.269	171.858	211.875	-104.179	84.650	0.00030114	0.00029974	0.00018889	1391.8	3.1548e-06	3.5876e-06	1376.9	372.2	2.4025e-06	6.8379e-06	424.4	140.99	122.73	42.542	2.0831e-06	52.421	0.00061481	0.00065663	0.00018381	1401.6	7.0422e-06	7.0671e-06	1395.9	377.31	7.0125e-06	7.1261e-06	429.73	144.44	125.71	43.46	7.0108e-06	53.667	-104.040	-76.711	-71.762	-128.352	-34.486	-15.984	-128.781	-124.133	-2.853	18.089	-124.477	-120.378	-119.809	-115.228	-51.428	-115.901	-8191	255	
1483.009	1	1	0	0	0.28252	0.021871	0.1924	0.23613	0.13068	0.12831	0.25578	0.20845	0.086119	0.19226	0.36471	0.30957	0.17485	0.13254	0.076702	0.14609	-1.1167	-1.8729	-0.90417	-1.8167	-1.7979	-0.91458	-2.3083	-1.5354	-1.2667	-2.0646	-1.2729	-1.7125	-1.6979	-0.84583	-1.7062	-1.3146	-14.733	-12.880	-116.955	149.314	-119.914	-101.522	188.275	-135.066	67.316	126.139	106.382	136.138	-141.852	-130.084	-35.903	-136.056	0.00036034	0.00057306	0.00024414	1386.6	3.0167e-06	5.6765e-06	1381	370.3	3.8227e-06	3.1878e-06	424.22	140.85	122.8	42.341	1.7611e-06	52.475	0.00062237	0.0006484	0.0001831	1399.6	7.0872e-06	7.2336e-06	1397.6	376.74	7.1236e-06	7.1163e-06	430.23	144.37	125.74	43.474	7.2633e-06	53.615	-107.374	-74.720	-35.548	-128.656	-7.939	-58.532	-128.840	-124.349	14.389	74.742	-124.721	-120.261	-120.183	-115.173	30.030	-115.938	-8191	255	
1483.105	1	1	0	0	0.067183	0.17443	0.28384	0.14549	0.1529	0.11983	0.26259	0.1659	0.20215	0.1262	0.29645	0.11607	0.21895	0.25892	0.19587	0.27628	-0.74792	-1.95	-1.0292	-1.7375	-1.7417	-0.93542	-2.0604	-1.5396	-1.1187	-2.0812	-1.3396	-1.7458	-1.9042	-1.2687	-1.7854	-1.5292	211.320	217.684	-29.840	-130.955	142.664	-32.616	124.486	188.938	37.481	186.263	169.769	69.067	167.660	-124.106	156.229	115.601	0.00033891	0.00070569	0.00024496	1391.3	3.9729e-06	4.584e-06	1383.7	371.2	3.8108e-07	6.1846e-06	422.89	141.76	122.27	42.312	2.6e-06	52.26	0.00062449	0.00065533	0.00018289	1403.2	7.2545e-06	7.2428e-06	1397	376.94	7.2146e-06	7.3435e-06	429.97	144.69	125.42	43.399	7.1595e-06	53.64	-110.523	-34.933	-68.830	-128.564	9.552	-11.439	-128.626	-124.076	108.500	82.902	-124.602	-120.334	-119.968	-115.163	-6.316	-116.118	-8191	255	
1483.201	1	1	0	0	0.17691	0.0979	0.11107	0.19362	0.020282	0.23756	0.24857	0.051379	0.167	0.14112	0.15379	0.29779	0.27409	0.21391	0.24138	0.27544	-0.47292	-1.8958	-1.2729	-1.7188	-1.8188	-1.0375	-2.2771	-1.4583	-1.0667	-1.8896	-1.3479	-1.5354	-2.0875	-1.05	-1.6396	-1.6854	89.590	114.290	118.495	201.737	48.980	136.967	195.785	37.120	54.964	47.234	-105.505	168.027	143.639	-126.315	164.074	101.445	0.00036728	0.00049354	0.00018504	1389	3.53e-06	7.1698e-06	1381.2	369.99	4.7851e-06	6.5712e-06	424.31	141.71	122.9	42.483	4.1027e-06	52.217	0.00062558	0.00066231	0.00018446	1401.5	7.2003e-06	7.2587e-06	1395.2	376.48	7.2452e-06	7.2901e-06	429.65	144.49	125.67	43.349	7.161e-06	53.622	-113.391	-73.909	-65.107	-128.737	-30.650	-18.997	-128.762	-124.205	-32.250	38.281	-124.751	-120.142	-119.912	-115.513	28.151	-115.654	-8191	255	
1483.322	1	1	0	0	0.25691	0.069249	0.045945	0.2312	0.15286	0.25562	0.25801	0.29378	0.16987	0.16088	0.15146	0.11146	0.22466	0.10076	0.14707	0.10993	-0.71875	-1.8542	-1.3937	-1.6042	-1.9979	-1.0104	-2.1104	-1.7604	-1.25	-1.9958	-1.6313	-1.4562	-2.1354	-1.0063	-1.6667	-1.7167	190.731	-86.814	46.105	180.334	171.428	-38.758	168.093	192.451	141.804	-29.947	43.720	-37.528	-105.489	-115.476	211.630	165.624	0.00032373	0.00030691	0.00010903	1383.9	3.6729e-06	8.0204e-06	1381.4	371.11	3.9396e-06	4.107e-06	423.4	140.63	122.06	42.429	1.8544e-06	52.606	0.00062533	0.00066546	0.00018408	1398.7	7.1721e-06	7.2794e-06	1396.3	377.02	7.3087e-06	7.164e-06	430.38	144.13	125.42	43.438	7.1751e-06	53.779	-102.553	-51.179	-30.234	-128.503	-25.761	-2.465	-128.390	-124.008	-19.264	-26.753	-124.798	-119.991	-119.629	-115.033	75.360	-115.826	-8191	255	
1483.416	1	1	0	0	0.1189	0.073627	0.18468	0.22056	0.28724	0.083827	0.15819	0.38262	0.078242	0.03578	0.21608	0.35101	0.086281	0.17099	0.12904	0.27245	-0.69792	-1.8625	-1.35	-1.4188	-2.0479	-1.2938	-1.8646	-1.9833	-1.1292	-1.9792	-1.4625	-1.3292	-1.9625	-1.1875	-1.4667	-1.8896	13.990	-57.285	-76.481	189.447	28.933	-87.678	105.002	204.475	144.210	-46.146	192.407	162.750	-96.764	-63.384	-134.343	164.747	0.00032469	0.00074019	0.00030213	1387.4	2.2319e-06	5.7708e-06	1378.7	370.11	4.1557e-06	8.8775e-06	422.68	141.09	122.83	42.501	1.547e-06	52.365	0.00063768	0.00065506	0.00018617	1400	7.3018e-06	7.3488e-06	1396.9	376.8	7.2659e-06	7.2945e-06	430.28	144.64	125.64	43.436	7.1833e-06	53.639	-107.939	-58.887	-62.591	-128.406	-6.787	-6.304	-128.427	-123.885	-13.278	21.202	-124.333	-120.122	-120.017	-115.552	26.657	-115.920	-8191	255	
1483.514	1	1	0	0	0.16775	0.11619	0.2552	0.34489	0.13525	0.094189	0.16476	0.35625	0.18063	0.1776	0.1514	0.21499	0.22725	0.16974	0.21068	0.2348	-0.64792	-1.7542	-1.3458	-1.3479	-1.9833	-1.1458	-1.8687	-2.0521	-0.94375	-1.7687	-1.7417	-1.2583	-2.0333	-1.3354	-1.3	-1.9833	213.641	-61.162	69.269	189.501	81.803	98.805	163.746	198.250	67.074	35.240	202.593	173.974	-83.595	135.391	-94.376	166.246	0.00028727	0.0004009	0.00016097	1387.3	6.1433e-06	5.7791e-06	1376.4	370.68	2.362e-06	8.6112e-06	423.32	140.23	122.14	42.403	4.079e-06	52.283	0.00064196	0.00066511	0.0001844	1401.1	7.1607e-06	7.2454e-06	1395.6	376.5	7.2475e-06	7.1378e-06	429.66	144.16	125.45	43.421	7.25e-06	53.538	-116.452	-62.836	-58.032	-128.679	-1.388	22.127	-128.614	-124.279	-28.176	3.431	-124.677	-120.111	-120.118	-115.315	-5.282	-115.955	-8191	255	
1483.609	1	1	0	0	0.35129	0.13371	0.13416	0.30136	0.11449	0.039196	0.081137	0.15943	0.28504	0.10065	0.23876	0.32594	0.19177	0.21131	0.16013	0.20366	-0.73542	-1.7437	-1.6688	-1.2646	-1.9042	-1.2375	-1.5083	-2.2062	-1.1708	-1.7333	-1.8521	-1.1979	-1.9542	-1.5396	-1.1833	-2.1521	-102.512	11.364	77.732	-131.591	-140.760	53.400	21.694	214.376	96.993	193.045	161.092	186.501	-103.428	-91.255	74.768	161.869	0.000314	0.00073838	0.00018592	1389.2	1.8064e-06	8.8905e-06	1384.8	370.04	1.4205e-06	3.9366e-06	425.26	141.58	122.4	42.353	1.2896e-06	52.389	0.00063763	0.00065695	0.00018329	1400.3	7.1254e-06	7.3314e-06	1397.2	376.08	7.3973e-06	7.1758e-06	430.79	144.27	125.32	43.333	7.1577e-06	53.695	-106.326	-93.894	-91.188	-128.671	-51.890	19.662	-128.690	-124.078	-54.322	102.285	-125.111	-120.227	-119.954	-115.260	27.864	-116.086	-8191	255	
1483.705	1	1	0	0	0.093751	0.099156	0.19437	0.072544	0.31638	0.24794	0.16332	0.12717	0.24192	0.097963	0.25332	0.058225	0.12262	0.11931	0.073487	0.18834	-0.74375	-1.5833	-1.7437	-1.1417	-1.9396	-1.3813	-1.3021	-2.225	-1.2458	-1.3708	-1.8354	-1.3438	-1.9604	-1.7104	-1.325	-2.0583	180.299	-136.812	52.331	-20.513	64.250	69.844	113.580	107.141	143.930	-110.349	207.888	-24.281	113.558	193.844	-115.366	84.492	0.00033271	0.00038266	0.00012009	1384.4	9.8905e-07	4.591e-06	1380.4	370.97	5.3107e-06	2.7833e-06	424.09	140.73	122.7	42.355	2.4163e-06	52.439	0.00062165	0.00065528	0.00018584	1398	7.1647e-06	7.218e-06	1396.7	376.43	7.2032e-06	7.2209e-06	430.03	144.26	125.59	43.389	7.1243e-06	53.768	-110.074	-60.672	-71.035	-128.798	-67.115	34.129	-128.580	-124.178	-61.074	2.889	-124.501	-120.241	-119.808	-115.339	46.424	-115.997	-8191	255	
1483.801	1	1	0	0	0.1348	0.30917	0.11468	0.47453	0.28095	0.13418	0.40342	0.22749	0.20818	0.09575	0.19483	0.20723	0.15651	0.27922	0.13314	0.1442	-0.88542	-1.3708	-2.05	-1.1688	-1.8521	-1.5271	-1.4813	-2.1208	-1.3375	-1.3729	-1.9646	-1.2208	-1.7854	-1.7542	-0.9125	-1.925	196.257	-89.933	68.977	199.206	129.381	19.959	190.887	163.006	46.919	117.185	162.187	176.156	-8.157	-68.238	157.683	86.354	0.00028392	0.00027058	4.3713e-05	1386.8	5.3239e-06	5.5423e-06	1380.3	370.45	4.4773e-06	3.6613e-06	422.46	140.6	122.52	42.397	4.6232e-06	52.676	0.00062972	0.00066204	0.00018251	1398.8	7.1069e-06	7.242e-06	1395.5	376.54	7.0467e-06	7.118e-06	429.55	144.25	125.62	43.37	7.1806e-06	53.749	-109.320	-48.780	-79.899	-128.743	-42.166	-20.960	-128.611	-123.886	-3.342	32.380	-124.661	-120.244	-119.925	-115.368	-15.353	-115.781	-8191	255	
1483.922	1	1	0	0	0.087097	0.23026	0.085763	0.36908	0.26407	0.17124	0.29604	0.036293	0.12282	0.08051	0.23842	0.32695	0.15689	0.28902	0.14518	0.16987	-0.94583	-1.2188	-1.9438	-1.4646	-1.7646	-1.7646	-1.2104	-1.9688	-1.5667	-1.2833	-2.1688	-1.1792	-1.8188	-1.8937	-0.99375	-2.1292	48.574	70.980	-141.511	170.113	3.785	114.905	170.852	46.519	112.612	-100.692	108.878	168.528	143.143	122.050	-67.825	84.939	0.00032323	0.00068558	0.00013923	1388.2	2.2908e-06	9.9823e-06	1375.8	370.46	7.1786e-06	7.7246e-06	423.63	140.86	122.75	42.559	3.9881e-06	52.421	0.00062274	0.00065941	0.00018153	1399.2	7.0686e-06	7.1993e-06	1393.5	376.27	7.0439e-06	7.0987e-06	430.53	144.38	125.46	43.43	6.8504e-06	53.68	-106.879	-20.355	-44.823	-128.622	-82.530	2.564	-128.477	-124.172	13.683	-15.342	-124.537	-120.353	-119.758	-115.418	-11.763	-115.517	-8191	255	
1484.018	1	1	0	0	0.17716	0.24977	0.11147	0.34817	0.1599	0.24614	0.16653	0.20186	0.12807	0.11945	0.025721	0.24569	0.25509	0.14246	0.21474	0.10723	-1.0354	-1.0979	-1.9292	-1.3354	-1.3438	-1.7667	-1.5146	-2.0479	-1.675	-1.2146	-2.1958	-1.225	-1.575	-2.0771	-1.0229	-1.8646	-10.631	-67.711	211.710	122.580	144.716	-9.841	131.838	133.830	43.641	-92.627	197.846	-76.981	173.005	60.507	96.559	141.499	0.00030423	0.00031493	0.00022708	1387.1	4.5522e-06	7.2635e-06	1380.9	371.16	6.3427e-06	5.9015e-06	423.96	141.31	122.41	42.405	6.0702e-06	52.459	0.00060783	0.00063806	0.00017568	1399.2	6.8925e-06	6.8591e-06	1394.8	376.93	6.8104e-06	6.77e-06	429.72	144.16	125.46	43.316	6.7147e-06	53.563	-113.772	-55.795	-34.325	-128.717	-22.056	11.835	-128.642	-124.227	-53.591	-6.407	-124.553	-120.428	-119.819	-115.219	34.212	-115.740	-8191	255	
1484.114	1	1	0	0	0.16091	0.16095	0.25091	0.47075	0.071536	0.041012	0.35151	0.30374	0.086838	0.071881	0.22627	0.31405	0.030096	0.22546	0.3516	0.15399	-1.1083	-0.92292	-1.9875	-1.1063	-1.5187	-1.8792	-1.4208	-2.0125	-1.7062	-1.0583	-2.0563	-1.25	-1.4042	-2.0771	-0.98125	-1.6688	62.092	-132.847	27.550	190.987	51.167	-110.807	84.064	196.888	-109.068	64.351	51.194	176.147	-138.652	212.745	154.327	114.115	0.00025927	0.00036236	0.00013229	1384.6	4.2322e-06	4.6839e-06	1379.8	370.3	3.2849e-06	8.4794e-06	425.04	141.25	122.29	42.434	5.7031e-06	52.296	0.00058927	0.00062298	0.00017162	1395.3	6.6654e-06	6.689e-06	1391.9	375.93	6.6106e-06	6.7417e-06	430.44	144.14	125.3	43.356	6.6781e-06	53.609	-98.944	-31.671	-72.097	-128.789	-31.626	-21.644	-128.657	-124.026	-24.358	10.878	-124.702	-120.071	-119.653	-115.454	18.982	-115.549	-8191	255	
1484.210	1	1	0	0	0.34941	0.13284	0.093061	0.068489	0.15245	0.076116	0.17806	0.40482	0.11626	0.17834	0.12452	0.057632	0.34236	0.26435	0.27883	0.086267	-1.2458	-1.0083	-2.0646	-1.6146	-1.0646	-2.2021	-1.1708	-1.7	-1.6313	-0.99167	-1.9479	-1.3021	-1.3188	-2.0187	-1.0625	-1.7958	-93.910	-118.185	-26.363	90.928	196.006	60.565	160.172	134.593	-33.346	13.246	-132.025	81.952	181.429	-69.797	3.485	-9.597	0.00032774	0.00080083	8.7817e-05	1385.1	1.9669e-06	5.2685e-06	1378.1	370.08	1.4037e-06	7.1311e-06	425.05	141.06	122.6	42.39	4.3023e-06	52.354	0.0005773	0.00060986	0.00016829	1396.3	6.6504e-06	6.6025e-06	1392	375.79	6.6051e-06	6.6237e-06	429.92	144.22	125.37	43.293	6.6266e-06	53.488	-110.243	-15.077	-30.104	-128.846	5.942	-23.642	-128.477	-124.057	-51.541	17.989	-124.765	-120.381	-119.756	-115.130	24.766	-116.025	-8191	255	
#DATA ENDS
