BOXY.EXE: ISS Imagent and Oximeter Data Acquisition Program Version 0.80
Ascii Record File

#ACQ INFORMATION
2  Detector Channels 
16  External MUX Channels 
1  Auxiliary Channels 
5000  Waveform (CCF) Frequency (Hz)
1  Waveforms Skipped 
30  Waveforms Averaged 
1  Cycles Averaged 
16  Acquisitions per Waveform 
10.0806  Updata Rate (Hz) 

#FILE INFORMATION
TRUE -- External MUX Channel results are PARSED.
FALSE -- AC DC and Phase are NOT grouped.
TRUE -- Companion Program Settings File CREATED.
FALSE -- AC data not excluded
FALSE -- DC data not excluded
FALSE -- Phase data not excluded
FALSE -- Auxillary Chn. data not excluded
Tab delimiters

#CALIBRATION STATE
TRUE -- Waveform Calibration Values APPLIED.


#AUX CALIBRATION VALUES
Val Type	aux-1	

Term	1.0000e+00	
Factor	0.0000e+00	


#WF CALIBRATION VALUES
A = Detector Channel
Val Type	A-AC1	A-AC2	A-AC3	A-AC4	A-AC5	A-AC6	A-AC7	A-AC8	A-AC9	A-AC10	A-AC11	A-AC12	A-AC13	A-AC14	A-AC15	A-AC16	A-DC1	A-DC2	A-DC3	A-DC4	A-DC5	A-DC6	A-DC7	A-DC8	A-DC9	A-DC10	A-DC11	A-DC12	A-DC13	A-DC14	A-DC15	A-DC16	A-Ph1	A-Ph2	A-Ph3	A-Ph4	A-Ph5	A-Ph6	A-Ph7	A-Ph8	A-Ph9	A-Ph10	A-Ph11	A-Ph12	A-Ph13	A-Ph14	A-Ph15	A-Ph16	

Term	0.00000e+00	0.00000e+00	0.00000e+00	0.00000e+00	0.00000e+00	0.00000e+00	0.00000e+00	0.00000e+00	0.00000e+00	0.00000e+00	0.00000e+00	0.00000e+00	0.00000e+00	0.00000e+00	0.00000e+00	0.00000e+00	0.00000e+00	0.00000e+00	0.00000e+00	0.00000e+00	0.00000e+00	0.00000e+00	0.00000e+00	0.00000e+00	0.00000e+00	0.00000e+00	0.00000e+00	0.00000e+00	0.00000e+00	0.00000e+00	0.00000e+00	0.00000e+00	0.00000e+00	0.00000e+00	0.00000e+00	0.00000e+00	0.00000e+00	0.00000e+00	0.00000e+00	0.00000e+00	0.00000e+00	0.00000e+00	0.00000e+00	0.00000e+00	0.00000e+00	0.00000e+00	0.00000e+00	0.00000e+00	
Factor	1.00000e+00	1.00000e+00	1.00000e+00	1.00000e+00	1.00000e+00	1.00000e+00	1.00000e+00	1.00000e+00	1.00000e+00	1.00000e+00	1.00000e+00	1.00000e+00	1.00000e+00	1.00000e+00	1.00000e+00	1.00000e+00	1.00000e+00	1.00000e+00	1.00000e+00	1.00000e+00	1.00000e+00	1.00000e+00	1.00000e+00	1.00000e+00	1.00000e+00	1.00000e+00	1.00000e+00	1.00000e+00	1.00000e+00	1.00000e+00	1.00000e+00	1.00000e+00	X	X	X	X	X	X	X	X	X	X	X	X	X	X	X	X	

B = Detector Channel
Val Type	B-AC1	B-AC2	B-AC3	B-AC4	B-AC5	B-AC6	B-AC7	B-AC8	B-AC9	B-AC10	B-AC11	B-AC12	B-AC13	B-AC14	B-AC15	B-AC16	B-DC1	B-DC2	B-DC3	B-DC4	B-DC5	B-DC6	B-DC7	B-DC8	B-DC9	B-DC10	B-DC11	B-DC12	B-DC13	B-DC14	B-DC15	B-DC16	B-Ph1	B-Ph2	B-Ph3	B-Ph4	B-Ph5	B-Ph6	B-Ph7	B-Ph8	B-Ph9	B-Ph10	B-Ph11	B-Ph12	B-Ph13	B-Ph14	B-Ph15	B-Ph16	

Term	0.00000e+00	0.00000e+00	0.00000e+00	0.00000e+00	0.00000e+00	0.00000e+00	0.00000e+00	0.00000e+00	0.00000e+00	0.00000e+00	0.00000e+00	0.00000e+00	0.00000e+00	0.00000e+00	0.00000e+00	0.00000e+00	0.00000e+00	0.00000e+00	0.00000e+00	0.00000e+00	0.00000e+00	0.00000e+00	0.00000e+00	0.00000e+00	0.00000e+00	0.00000e+00	0.00000e+00	0.00000e+00	0.00000e+00	0.00000e+00	0.00000e+00	0.00000e+00	-2.36295e+02	-1.26358e+02	-1.26122e+02	-1.84352e+02	-7.43156e+01	-6.85797e+01	-1.62008e+02	-1.62015e+02	-7.18578e+01	-6.29640e+01	-1.80050e+02	-1.70314e+02	-1.79883e+02	-1.76694e+02	-7.79053e+01	-1.49338e+02	
Factor	5.48273e-05	1.42809e-04	4.33729e-05	1.64603e-01	1.74334e-06	1.73504e-06	1.78629e-01	4.25379e-02	2.29001e-06	1.56306e-06	6.49495e-01	2.52864e-02	2.46878e-02	8.09108e-03	1.65514e-06	1.13705e-02	7.25772e-06	8.82615e-06	2.46127e-06	8.91634e-02	9.29681e-08	9.73902e-08	9.04586e-02	2.32296e-02	9.25378e-08	9.72273e-08	3.24706e-01	1.33849e-02	1.36041e-02	4.45422e-03	9.46605e-08	6.04742e-03	X	X	X	X	X	X	X	X	X	X	X	X	X	X	X	X	



#DISTANCE SETTINGS
A = Detector Channel
A-1	A-2	A-3	A-4	A-5	A-6	A-7	A-8	A-9	A-10	A-11	A-12	A-13	A-14	A-15	A-16	

2.5000e+00	3.0000e+00	2.5000e+00	3.0000e+00	2.0000e+00	3.0000e+00	1.5000e+00	3.0000e+00	3.0000e+00	3.0000e+00	3.0000e+00	3.0000e+00	3.0000e+00	3.0000e+00	1.5000e+00	3.0000e+00	

B = Detector Channel
B-1	B-2	B-3	B-4	B-5	B-6	B-7	B-8	B-9	B-10	B-11	B-12	B-13	B-14	B-15	B-16	

1.0000e+01	1.0000e+01	1.0000e+01	1.4400e+00	1.0000e+01	1.0000e+01	1.5100e+00	1.9400e+00	1.0000e+01	1.0000e+01	1.9900e+00	2.4900e+00	2.4100e+00	2.9000e+00	1.0000e+01	2.9800e+00	




#DATA BEGINS
time	group	step	mark	flag	A-AC1	A-AC2	A-AC3	A-AC4	A-AC5	A-AC6	A-AC7	A-AC8	A-AC9	A-AC10	A-AC11	A-AC12	A-AC13	A-AC14	A-AC15	A-AC16	A-DC1	A-DC2	A-DC3	A-DC4	A-DC5	A-DC6	A-DC7	A-DC8	A-DC9	A-DC10	A-DC11	A-DC12	A-DC13	A-DC14	A-DC15	A-DC16	A-Ph1	A-Ph2	A-Ph3	A-Ph4	A-Ph5	A-Ph6	A-Ph7	A-Ph8	A-Ph9	A-Ph10	A-Ph11	A-Ph12	A-Ph13	A-Ph14	A-Ph15	A-Ph16	B-AC1	B-AC2	B-AC3	B-AC4	B-AC5	B-AC6	B-AC7	B-AC8	B-AC9	B-AC10	B-AC11	B-AC12	B-AC13	B-AC14	B-AC15	B-AC16	B-DC1	B-DC2	B-DC3	B-DC4	B-DC5	B-DC6	B-DC7	B-DC8	B-DC9	B-DC10	B-DC11	B-DC12	B-DC13	B-DC14	B-DC15	B-DC16	B-Ph1	B-Ph2	B-Ph3	B-Ph4	B-Ph5	B-Ph6	B-Ph7	B-Ph8	B-Ph9	B-Ph10	B-Ph11	B-Ph12	B-Ph13	B-Ph14	B-Ph15	B-Ph16	aux-1	digaux	

1565.086	1	1	0	512	0.22565	0.043615	0.2092	0.16646	0.095196	0.086814	0.17803	0.18719	0.068545	0.090322	0.15491	0.12897	0.035885	0.1143	0.16436	0.47903	-3.2542	-3.7542	-3.1792	-4.0667	-3.2729	-3.4771	-4.2312	-3.3458	-3.7062	-3.8417	-3.2042	-4.1458	-3.6125	-3.3333	-4.1083	-3.4833	487.339	485.615	154.226	469.100	350.767	396.324	374.727	393.462	481.502	383.996	388.850	471.911	477.800	449.642	155.870	459.985	0.0036682	0.00064073	0.00019699	598.42	1.1204e-05	5.7933e-06	898.49	207.16	1.8188e-05	1.3078e-05	376.03	177.35	89.442	49.203	1.0319e-05	105.4	0.001389	0.0013006	0.00037101	583.26	1.3476e-05	1.4666e-05	869.37	201.64	1.3686e-05	1.4253e-05	393.07	172.45	87.449	48.283	1.4123e-05	103.17	443.470	228.160	263.160	158.570	296.526	234.846	157.879	163.713	304.533	298.539	162.479	166.644	167.268	171.649	243.958	169.411	-8191	255	
1565.182	1	1	0	0	0.3999	0.053435	0.2134	0.1318	0.22822	0.15697	0.22167	0.11007	0.23189	0.13574	0.33143	0.17279	0.32189	0.1945	0.097459	0.44585	-3.4417	-3.9437	-3.2875	-4.0958	-3.5958	-3.4062	-4.0938	-3.5604	-3.5646	-3.9021	-2.9854	-4.0875	-3.6708	-3.4083	-4.1271	-3.6896	179.113	470.631	266.494	460.145	487.482	148.233	307.345	489.323	156.423	401.215	339.441	485.789	439.575	488.324	229.967	412.017	0.0035394	0.00059246	0.00030245	604.24	3.8975e-06	5.7764e-06	905.33	208.42	6.589e-06	3.6116e-06	382.56	179.28	91.069	50.097	7.5231e-07	107.59	0.0013753	0.0013187	0.0003703	586.39	1.3959e-05	1.4349e-05	876.44	203.58	1.37e-05	1.4231e-05	398.07	174.78	88.205	48.945	1.4032e-05	104.82	440.277	224.783	232.340	158.725	342.498	239.136	158.569	163.131	317.078	281.802	162.558	166.728	167.493	171.743	209.073	169.307	-8191	255	
1565.277	1	1	0	0	0.057703	0.32777	0.28459	0.1716	0.03777	0.13519	0.090523	0.13053	0.21044	0.10863	0.13132	0.26621	0.13343	0.12251	0.085933	0.46168	-3.1646	-3.9604	-3.0812	-3.9625	-3.7354	-3.2062	-4.1271	-3.5771	-3.3792	-4.1958	-3.2438	-3.9083	-3.8542	-3.3063	-3.8792	-3.8312	401.278	363.033	249.439	281.107	436.498	426.934	382.994	440.873	319.239	303.828	481.320	461.999	446.287	489.975	305.021	491.642	0.0037014	0.00059908	0.00014241	611.98	1.1688e-05	1.0502e-05	909.47	214.5	2.1193e-05	8.6933e-06	393.28	181.62	91.345	50.744	1.4172e-05	108.85	0.0014244	0.0013106	0.00036919	595.16	1.3723e-05	1.4574e-05	884.76	207.77	1.396e-05	1.4734e-05	403.65	177.26	89.17	49.538	1.4596e-05	105.64	440.818	281.401	259.819	158.137	264.400	317.348	158.223	163.394	277.511	286.350	161.458	166.484	167.114	171.467	260.285	169.583	-8191	255	
1565.375	1	1	0	0	0.13039	0.15855	0.1156	0.21028	0.058836	0.21792	0.069241	0.19564	0.11548	0.084802	0.081444	0.11746	0.15979	0.15106	0.14404	0.10839	-3.0312	-3.8896	-3.2687	-3.7792	-3.9042	-3.0604	-4.0521	-3.6312	-3.3021	-3.925	-3.2667	-3.7333	-3.9292	-3.2333	-3.9146	-3.7583	184.043	377.662	273.667	415.645	462.098	291.375	409.881	493.743	286.918	304.272	411.918	423.745	251.375	445.513	239.689	430.072	0.0038418	0.00098678	0.00015056	608.65	7.8285e-06	5.4076e-06	904.25	209.56	1.8149e-05	1.0816e-05	374.66	178.09	89.247	49.004	6.2514e-06	105.16	0.0014775	0.0013222	0.00036424	591.88	1.4085e-05	1.4458e-05	876.39	203.85	1.409e-05	1.4736e-05	395.31	172.96	86.774	48.135	1.4515e-05	102.53	440.366	238.924	240.637	158.701	314.162	277.445	158.043	163.382	276.183	327.322	161.823	166.836	167.152	171.564	268.261	169.326	-8191	255	
1565.469	1	1	0	0	0.30495	0.017358	0.20899	0.15721	0.039324	0.095329	0.14449	0.18574	0.22764	0.10972	0.28138	0.29852	0.26932	0.10707	0.11765	0.091376	-2.6854	-4.0729	-3.4104	-3.5438	-3.9833	-3.3583	-4.0104	-3.7979	-3.3417	-4.0208	-3.6437	-3.7188	-4.1833	-3.2667	-3.7687	-4.0021	310.545	226.379	474.565	157.972	463.434	168.758	327.130	472.366	472.000	274.805	258.338	400.134	479.534	459.173	154.488	242.815	0.0036954	0.00038513	0.00020653	595.69	9.6246e-06	6.2474e-06	890.51	204.63	1.0476e-05	7.8585e-06	367.39	176.13	88.057	48.571	4.6261e-06	104.02	0.0014625	0.0013411	0.00037374	580.16	1.4406e-05	1.4866e-05	864.16	199.35	1.4237e-05	1.4823e-05	388.69	170.75	85.798	47.476	1.4909e-05	101.28	439.140	256.566	252.148	158.588	305.159	348.338	158.092	163.419	284.053	268.970	161.035	166.663	167.232	171.510	252.466	169.369	-8191	255	
1565.565	1	1	0	0	0.21778	0.043128	0.048575	0.21083	0.16716	0.05911	0.11519	0.064922	0.21047	0.1255	0.087908	0.16285	0.0574	0.082143	0.057777	0.40895	-2.7687	-3.7875	-3.4792	-3.4	-3.9167	-3.3312	-3.8146	-4	-3.2687	-4.1104	-3.5479	-3.6063	-4.1479	-3.4521	-3.7417	-4.075	182.019	385.784	216.555	200.530	271.935	179.768	190.112	407.885	450.748	455.167	307.152	457.829	156.576	182.839	468.085	476.363	0.0036839	0.00082484	0.00026222	597.07	1.3565e-05	2.2005e-06	893.73	205.11	1.5434e-05	6.2928e-06	373.51	176.34	88.323	48.134	9.0813e-06	103.61	0.0014565	0.0013649	0.00037624	581.68	1.4284e-05	1.506e-05	867.44	199.87	1.4398e-05	1.5151e-05	393.61	170.87	85.927	47.187	1.523e-05	101.25	445.509	216.496	166.765	158.434	237.136	239.339	158.067	163.332	308.490	324.302	163.096	166.659	167.402	171.426	220.815	169.746	-8191	255	
1565.686	1	1	0	0	0.10392	0.15064	0.10561	0.29005	0.095144	0.30782	0.31523	0.25744	0.19896	0.041741	0.15927	0.28837	0.27572	0.15936	0.0972	0.35114	-2.7812	-4.0188	-3.6063	-3.45	-4.0604	-3.35	-3.8292	-4.0354	-3.1917	-3.7313	-3.7979	-3.5208	-4.0896	-3.4583	-3.5083	-4.1646	190.000	278.691	203.706	433.255	255.191	239.693	235.564	149.959	202.373	407.130	405.173	493.826	477.094	486.008	149.339	435.650	0.0037778	0.00053527	0.00028579	594.47	8.9128e-06	1.1708e-05	896.27	206.59	5.2696e-06	7.2426e-06	375.09	176.68	89.583	48.388	9.1606e-06	104.11	0.0014752	0.001402	0.00038454	581.32	1.4805e-05	1.5374e-05	869.95	200.55	1.4711e-05	1.5353e-05	395.03	172.19	86.817	47.573	1.538e-05	101.56	442.171	261.039	249.919	158.798	294.252	310.911	158.019	163.221	267.639	270.434	161.545	166.604	167.241	171.296	283.517	169.238	-8191	255	
1565.782	1	1	0	0	0.15071	0.14319	0.074812	0.048894	0.074048	0.093834	0.41759	0.058542	0.14004	0.1295	0.14218	0.056911	0.073002	0.19139	0.11598	0.28041	-2.8187	-3.8375	-3.8333	-3.2875	-4.1125	-3.4125	-3.5	-4.1375	-3.2146	-3.8458	-3.8583	-3.3333	-4	-3.6375	-3.25	-4.3208	433.105	337.798	282.178	146.154	173.586	248.620	494.738	416.416	397.559	363.518	441.949	174.894	282.487	397.683	457.129	432.057	0.003688	0.001351	0.00020942	595.47	1.0577e-05	1.0069e-05	889.74	204.38	1.6419e-05	7.5657e-06	374.85	172.3	87.161	47.614	1.075e-05	101.26	0.0015019	0.0013893	0.00038776	582.76	1.4361e-05	1.5107e-05	866.3	198.78	1.4793e-05	1.5655e-05	391.51	168.69	84.935	46.47	1.5218e-05	98.943	441.800	242.342	218.123	158.266	314.262	290.925	158.106	163.131	251.430	312.760	162.173	166.470	167.137	171.209	290.697	169.323	-8191	255	
1565.878	1	1	0	0	0.1821	0.24693	0.19517	0.16799	0.18107	0.094176	0.2035	0.19076	0.11056	0.13001	0.20059	0.4145	0.18697	0.10474	0.18891	0.29965	-2.7521	-3.6208	-3.8312	-3.3187	-3.8896	-3.5708	-3.4562	-4.0521	-3.4521	-3.7167	-3.9313	-3.4146	-4.075	-3.8271	-3.0854	-4.3854	172.529	480.049	203.349	185.511	147.373	349.909	385.578	165.317	443.494	455.032	365.129	149.015	376.758	398.069	499.868	434.163	0.0040076	0.00097361	0.00015092	590.06	5.7623e-06	1.2374e-05	888.05	201.86	8.1009e-06	1.5271e-06	364.6	173.21	86.91	47.245	1.1754e-05	101.98	0.0014807	0.0013864	0.00038513	578.49	1.4564e-05	1.5603e-05	861.47	196.7	1.4603e-05	1.5202e-05	386.68	168.04	84.79	46.301	1.5144e-05	99.618	439.845	198.197	190.791	158.361	292.821	286.274	158.103	163.367	267.614	256.377	162.368	166.720	167.424	171.338	278.348	169.441	-8191	255	
1565.950	1	1	0	0	0.077115	0.12293	0.047805	0.14502	0.064762	0.19392	0.12752	0.16746	0.27576	0.17014	0.21211	0.23211	0.10991	0.24281	0.24278	0.11314	-3.1063	-3.4938	-3.9208	-3.2771	-3.9167	-3.8375	-3.3479	-4.0292	-3.4708	-3.5125	-4.0542	-3.4021	-3.95	-3.8937	-3.2146	-4.3187	212.386	227.849	196.759	146.789	496.862	239.686	361.578	471.802	152.372	349.821	247.724	465.002	225.062	470.115	326.252	438.904	0.0033973	0.00072719	0.00021908	597.9	1.3728e-05	5.8912e-06	893.96	204.82	9.1429e-06	8.3038e-06	377.12	175.38	88.848	48.51	6.365e-06	104.99	0.0014821	0.0013798	0.00038281	582.08	1.4716e-05	1.5072e-05	868.68	199.62	1.461e-05	1.5001e-05	393.49	170.99	86.388	47.571	1.4906e-05	102.48	440.472	218.469	263.954	158.298	278.714	281.866	158.256	163.209	314.131	327.049	161.855	166.638	167.334	171.642	293.604	169.375	-8191	255	
1566.071	1	1	0	0	0.087721	0.15179	0.082717	0.18382	0.31503	0.13522	0.042999	0.01709	0.072377	0.10521	0.10577	0.2145	0.11104	0.14517	0.29295	0.1911	-3.0625	-3.4042	-3.8812	-3.075	-3.675	-3.9333	-3.5583	-4.0396	-3.4646	-3.3229	-4	-3.3021	-3.7375	-3.9458	-3.2083	-4.1604	432.252	229.213	313.489	404.142	304.837	403.165	451.833	234.458	261.863	181.161	473.761	399.551	479.741	427.021	240.038	439.157	0.0035329	0.00076835	0.00034975	604.27	8.3932e-06	1.1522e-05	898.9	210.1	1.5026e-05	4.1212e-06	384.22	179.12	90.288	49.325	8.1563e-06	106.33	0.0014635	0.0013654	0.00037776	587.56	1.4158e-05	1.5144e-05	874.32	204.25	1.4409e-05	1.5006e-05	402.11	174.44	87.854	48.332	1.4427e-05	103.75	442.753	218.327	235.124	158.347	258.943	317.777	157.815	163.547	236.134	246.997	161.953	166.591	167.345	171.270	221.864	169.421	-8191	255	
1566.167	1	1	0	0	0.21928	0.18994	0.091068	0.24224	0.10202	0.096105	0.20007	0.15492	0.05903	0.1973	0.084803	0.24155	0.23947	0.30855	0.15818	0.28571	-3.0979	-3.2667	-4.1854	-3.4229	-3.7417	-3.9042	-3.4875	-3.9917	-3.725	-3.3729	-4.1208	-3.5708	-3.5854	-4.15	-3.1229	-4.0667	442.275	154.001	300.508	155.988	188.050	146.314	403.675	424.996	501.079	309.018	257.002	152.967	477.228	471.863	368.738	444.311	0.0038275	0.00060424	0.00012213	600.7	5.4054e-06	7.6521e-06	898.3	207.33	1.6256e-05	1.0127e-05	371.64	174.52	88.098	48.278	9.1543e-06	103.69	0.0014723	0.0013492	0.00038131	587.15	1.4228e-05	1.4931e-05	872.71	201.64	1.4682e-05	1.4998e-05	394.22	170.49	85.969	47.197	1.4843e-05	101.07	439.125	202.947	178.287	158.384	266.723	312.021	157.997	163.385	343.486	309.848	162.272	166.355	167.433	171.390	247.207	169.423	-8191	255	
1566.263	1	1	0	0	0.18766	0.14573	0.1016	0.30187	0.083188	0.05676	0.090518	0.29232	0.042878	0.16739	0.054884	0.073875	0.16708	0.24891	0.27862	0.33552	-3.3312	-3.1708	-3.9792	-3.6958	-3.5021	-3.9646	-3.4313	-3.8646	-3.8937	-3.2417	-3.9813	-3.6625	-3.4333	-4.1167	-3.2396	-3.8958	467.733	223.845	154.416	490.594	213.191	281.975	415.423	428.220	418.704	482.518	194.143	151.726	477.222	181.981	473.794	459.653	0.0037868	0.0011397	0.00014585	591.39	1.3653e-05	7.9643e-06	884.59	202.35	1.4728e-05	6.3178e-06	371.06	174.92	88.122	48.506	1.1671e-05	104.1	0.0014738	0.0013974	0.00038538	574.21	1.4531e-05	1.498e-05	855.37	197.35	1.4471e-05	1.5306e-05	388.59	170	85.801	47.338	1.483e-05	101.7	435.248	270.833	202.930	158.456	292.541	241.992	158.023	163.384	247.257	298.221	162.149	166.377	167.520	171.559	246.806	169.113	-8191	255	
1566.359	1	1	0	0	0.26764	0.08839	0.092731	0.22605	0.028224	0.058344	0.16908	0.093077	0.13173	0.059759	0.11205	0.08541	0.14546	0.079668	0.054237	0.33178	-3.4708	-3.0125	-3.8563	-3.6375	-3.1604	-4.0292	-3.4271	-3.7542	-3.9458	-3.2646	-3.8729	-3.7833	-3.5146	-4.1146	-3.3438	-3.6667	304.106	156.347	462.845	149.907	310.204	345.083	336.430	435.553	363.636	159.493	161.554	499.077	499.824	446.177	209.027	440.854	0.0034702	0.00047945	0.00014017	584.18	7.0217e-06	1.3656e-05	877.22	202.73	1.6664e-05	8.1725e-06	373.68	174.65	87.199	48.281	5.4715e-06	103.09	0.001472	0.0013636	0.00038715	569.99	1.4645e-05	1.5421e-05	851.93	197.45	1.4778e-05	1.5502e-05	391.69	169.99	85.578	47.254	1.5123e-05	100.92	436.470	282.531	240.948	158.276	264.991	303.078	158.065	163.085	309.691	311.980	161.887	166.126	167.404	171.580	310.402	169.327	-8191	255	
1566.478	1	1	0	0	0.071504	0.10708	0.093013	0.050029	0.12916	0.062292	0.15223	0.040095	0.22723	0.097467	0.17149	0.18873	0.178	0.15948	0.23529	0.080517	-3.575	-3.1458	-3.825	-3.7313	-3.2521	-4.0208	-3.3271	-3.5375	-4.15	-3.2313	-3.7438	-3.9437	-3.2438	-4.0771	-3.4792	-3.5333	155.921	325.646	427.632	406.823	166.933	424.580	159.542	425.939	474.357	146.682	367.636	402.676	466.109	450.707	209.491	367.291	0.0035402	0.00084899	0.00017936	588.44	1.2116e-05	5.3934e-06	890.89	204.33	9.938e-06	7.0081e-06	377.12	175.68	87.414	48.353	3.1804e-06	103.98	0.0015054	0.0013881	0.00039614	575.91	1.5166e-05	1.5447e-05	862.35	198.63	1.4949e-05	1.5783e-05	394.72	170.94	85.791	47.333	1.5252e-05	101.4	440.995	204.322	290.961	158.546	251.249	366.372	158.010	163.369	247.523	259.491	162.267	166.483	167.531	171.487	218.721	169.567	-8191	255	
1566.574	1	1	0	0	0.22369	0.32093	0.32757	0.24153	0.13778	0.23877	0.11484	0.13052	0.19848	0.2483	0.057789	0.1339	0.21216	0.073009	0.16672	0.16267	-3.6417	-3.2854	-3.5167	-3.9646	-3.1875	-3.9396	-3.6708	-3.5771	-4.0083	-3.2792	-3.7833	-4.0563	-3.2396	-3.9417	-3.5438	-3.5938	167.733	223.121	208.277	159.908	164.711	354.362	441.124	415.553	440.536	297.458	289.992	444.408	200.586	412.749	391.803	436.652	0.0035834	0.00075493	0.00011952	591.78	8.5196e-06	4.8241e-06	885.54	203.26	2.0512e-05	1.2235e-05	363.52	174.01	86.618	47.625	1.5386e-05	101.54	0.0015183	0.0014243	0.00039974	577.06	1.5083e-05	1.5347e-05	858.71	197.27	1.4961e-05	1.5662e-05	388.98	168.92	84.574	46.611	1.5054e-05	99.392	442.323	225.741	253.826	158.546	289.896	399.450	158.142	163.574	267.124	268.295	162.367	166.400	167.421	171.402	305.245	169.653	-8191	255	
1566.646	1	1	0	0	0.14179	0.19814	0.10731	0.31482	0.11385	0.14938	0.097132	0.17693	0.26283	0.08139	0.31527	0.17771	0.096379	0.19666	0.18092	0.35321	-3.6208	-3.175	-3.6208	-4.0792	-3.1	-3.9229	-3.8333	-3.1729	-3.975	-3.2167	-3.5187	-4.1167	-3.3479	-3.9958	-3.9458	-3.5604	353.374	329.565	238.000	172.728	412.899	348.128	483.521	431.873	148.194	148.600	442.225	481.573	479.913	404.218	276.608	463.441	0.003662	0.00041267	0.00016459	589.22	4.1473e-06	3.7596e-06	879.46	201.45	9.4782e-06	1.0409e-05	358.99	171.99	87.115	47.52	9.5132e-06	102.29	0.0014766	0.001376	0.0003923	571.38	1.4894e-05	1.5718e-05	851.66	195.8	1.5144e-05	1.5845e-05	387.35	167.82	84.493	46.4	1.5182e-05	99.882	443.781	145.689	249.889	158.319	207.421	282.325	158.282	163.151	282.580	321.401	162.349	166.525	167.319	171.455	283.236	169.236	-8191	255	
1566.766	1	1	0	0	0.27836	0.2746	0.055172	0.057092	0.1177	0.18957	0.13295	0.16059	0.16656	0.10678	0.14952	0.085332	0.3024	0.12737	0.13584	0.31404	-3.8104	-3.4437	-3.35	-4.0938	-3.1437	-3.8646	-3.8417	-3.2375	-3.9854	-3.5312	-3.3396	-4.1729	-3.4021	-3.8563	-3.9521	-3.3875	329.004	206.144	267.277	153.451	192.997	327.916	326.269	337.626	158.961	424.520	493.095	364.044	505.320	387.198	306.616	441.496	0.0037357	0.00065747	0.00027731	586.03	6.8345e-06	1.0037e-05	887.27	202.21	1.7741e-05	4.6359e-06	364.99	174.13	87.643	47.986	9.2098e-06	104.42	0.0014866	0.0014139	0.00039402	573.42	1.4834e-05	1.525e-05	856.85	196.95	1.4725e-05	1.5463e-05	388.01	170.1	85.406	47.049	1.5183e-05	101.4	443.669	226.596	242.984	158.318	317.738	256.859	158.216	163.558	260.077	321.616	161.844	166.355	167.394	171.403	336.088	169.205	-8191	255	
1566.862	1	1	0	0	0.16882	0.14586	0.15336	0.15202	0.15455	0.14793	0.2874	0.19917	0.15868	0.19949	0.11631	0.18971	0.19468	0.19863	0.14936	0.37384	-3.6854	-3.5104	-3.2354	-4.0896	-3.4	-3.5875	-3.9729	-3.3875	-4.0229	-3.7313	-3.3458	-4.2708	-3.6437	-3.5833	-3.9979	-3.4292	228.896	151.128	368.456	218.792	400.611	194.790	486.033	212.338	291.876	180.936	340.727	484.793	313.239	360.143	304.588	452.817	0.0037357	0.00048912	0.00020547	596.36	6.7039e-06	9.7021e-06	894.61	206.62	1.0172e-05	7.0809e-06	372.16	177.75	89.802	48.906	1.1644e-05	106.17	0.0015172	0.0013939	0.00038473	580.88	1.4804e-05	1.546e-05	869	201.57	1.4791e-05	1.5342e-05	393.77	173.09	87.191	48.01	1.508e-05	103.3	436.014	236.374	239.111	158.339	315.265	307.219	158.337	163.458	259.586	311.884	162.020	166.405	167.394	171.510	251.581	169.594	-8191	255	
1566.959	1	1	0	0	0.012719	0.078299	0.023327	0.028263	0.072293	0.2316	0.26312	0.2204	0.14457	0.051276	0.17475	0.33286	0.10683	0.20078	0.10779	0.20374	-3.5	-3.5646	-3.0583	-4.0563	-3.4167	-3.6229	-4.3479	-3.4062	-3.7625	-3.7792	-3.3917	-4.1271	-3.4229	-3.5563	-3.9458	-3.4333	486.443	345.384	188.832	288.454	166.532	387.848	410.706	449.458	243.214	477.335	259.346	163.138	493.285	447.005	362.176	432.614	0.0037872	0.00064651	0.00012265	592.84	4.466e-06	1.1918e-05	887.32	205.22	1.3184e-05	6.3771e-06	377.53	174.76	87.124	47.996	1.081e-05	102.58	0.0014991	0.0013987	0.000394	581.39	1.5072e-05	1.5527e-05	864.56	199.32	1.4701e-05	1.5603e-05	394.48	170.15	85.288	46.939	1.5053e-05	100.22	439.943	240.662	310.076	158.430	248.739	335.184	158.084	163.691	266.494	326.623	162.680	166.694	167.152	171.654	278.776	169.268	-8191	255	
1567.055	1	1	0	0	0.14134	0.063831	0.1019	0.065417	0.34841	0.30155	0.14054	0.29967	0.3228	0.16218	0.17231	0.14697	0.02211	0.19954	0.086623	0.34864	-3.1292	-3.8542	-3.0375	-4.0521	-3.6396	-3.3042	-4.1271	-3.3729	-3.6354	-4.0854	-3.2583	-4.0792	-3.6813	-3.3792	-4.0062	-3.65	327.415	392.048	248.678	378.187	359.301	262.598	225.482	435.546	365.451	268.093	412.919	438.953	359.264	161.241	164.226	367.802	0.0033824	0.00052816	0.00032882	587.57	1.2369e-05	1.155e-05	878.28	201.25	1.175e-05	8.242e-06	369.05	172.42	85.929	46.98	9.9283e-06	101.37	0.0014796	0.0013969	0.00038576	572.7	1.4777e-05	1.5399e-05	854.07	195.18	1.4555e-05	1.5397e-05	389.8	167.69	83.922	46.208	1.5024e-05	98.988	441.377	211.371	230.269	158.215	259.760	350.609	157.777	163.381	270.153	202.080	162.012	166.368	167.353	171.757	288.724	169.465	-8191	255	
1567.175	1	1	0	0	0.13744	0.05964	0.17939	0.069661	0.1536	0.04417	0.080477	0.25808	0.02564	0.094561	0.050406	0.13244	0.24755	0.1101	0.12801	0.14308	-3.1354	-3.8375	-3.2	-3.7917	-3.4625	-3.3667	-3.9125	-3.3708	-3.5271	-3.9479	-3.2271	-4.0271	-3.8917	-3.4333	-3.9562	-3.6521	216.259	364.431	446.624	200.196	396.672	332.712	284.957	478.976	400.078	263.955	276.747	174.354	148.531	436.512	163.325	399.887	0.0031974	0.0011057	0.00023666	587.35	4.2883e-06	7.9532e-06	878.49	200.24	1.5543e-05	7.194e-06	363.93	173.55	86.796	47.37	1.2551e-06	102.61	0.0014858	0.0014059	0.00038807	571.25	1.4812e-05	1.5773e-05	854.9	195.37	1.4644e-05	1.5508e-05	387.6	168.77	84.624	46.478	1.4797e-05	100.11	440.053	274.425	270.639	158.060	322.601	270.728	158.399	162.998	269.747	317.157	161.811	166.403	167.290	171.700	300.831	169.364	-8191	255	
1567.247	1	1	0	0	0.34511	0.21559	0.1449	0.40399	0.15023	0.014623	0.17922	0.19439	0.2801	0.1749	0.16163	0.20721	0.10525	0.13031	0.30107	0.3182	-3.0208	-4.0271	-3.1875	-3.7604	-3.7375	-3.2625	-4.0792	-3.4521	-3.2771	-3.9375	-3.3375	-3.7438	-3.9958	-3.4458	-3.9938	-3.7646	201.922	324.191	482.578	464.746	337.923	426.796	180.331	378.921	271.540	296.783	367.196	447.249	188.819	161.474	477.944	394.642	0.003696	0.00061049	0.00027328	584.47	8.8806e-06	6.0631e-06	878.18	203.08	1.2608e-05	4.6131e-06	369.4	176.87	88.523	48.618	5.4083e-06	105.29	0.0015071	0.001385	0.0003891	571.89	1.4634e-05	1.5553e-05	855.88	197.76	1.4864e-05	1.5557e-05	392.59	172.12	86.145	47.699	1.4995e-05	102.88	438.526	240.981	228.110	158.664	291.890	322.906	157.665	163.325	312.556	251.471	161.533	166.341	167.445	171.174	245.722	169.295	-8191	255	
1567.366	1	1	0	0	0.22252	0.19632	0.17494	0.021818	0.14707	0.089112	0.096472	0.11895	0.1084	0.18345	0.080768	0.21279	0.18591	0.060576	0.076702	0.09148	-3.0354	-4.0333	-3.1813	-3.8146	-3.9417	-3.2625	-4.1542	-3.8063	-3.2458	-4.075	-3.3646	-3.5417	-3.9521	-3.2438	-3.8479	-3.8521	185.667	410.139	316.713	497.130	400.711	146.423	154.669	429.366	292.953	373.620	266.995	425.568	487.440	290.144	500.293	178.993	0.0037298	0.0009057	0.00015368	575.09	1.0403e-05	7.4242e-06	867.03	201.47	1.8354e-05	1.773e-06	365.38	176.16	87.854	48.388	1.1054e-05	103.96	0.00152	0.0014045	0.00038874	563.76	1.4975e-05	1.5531e-05	845.96	195.36	1.4796e-05	1.5444e-05	389.57	171.57	85.548	47.479	1.5414e-05	101.48	442.742	234.183	187.519	158.837	326.537	331.851	158.525	163.192	294.514	495.380	161.457	166.562	167.149	171.661	249.593	169.143	-8191	255	
1567.462	1	1	0	0	0.3055	0.091043	0.29333	0.071104	0.069929	0.051691	0.15544	0.058852	0.12453	0.091932	0.15655	0.27702	0.11573	0.1774	0.14546	0.1545	-2.8083	-3.9229	-3.4146	-3.575	-4.0854	-3.1667	-3.9354	-3.95	-3.0708	-4.15	-3.5563	-3.5292	-3.9875	-3.3438	-3.7458	-4.0312	417.750	168.025	220.338	164.911	146.150	371.566	476.049	329.127	219.590	288.556	354.445	490.662	376.994	178.044	308.571	458.438	0.0038741	0.00087772	0.0002622	568.58	6.1673e-06	4.5569e-06	856.41	196.9	1.2054e-05	2.4632e-06	368.54	174.85	87.387	48.108	7.1676e-06	104.02	0.0015386	0.0014573	0.00039894	554.73	1.4979e-05	1.5896e-05	835.79	191.98	1.542e-05	1.5523e-05	386.26	169.99	84.898	47.2	1.5527e-05	101.42	442.540	221.478	212.867	158.727	324.812	370.811	158.244	163.355	277.972	344.437	162.006	166.695	167.629	171.227	293.235	169.431	-8191	255	
1567.558	1	1	0	0	0.027643	0.20803	0.065945	0.041962	0.14125	0.10109	0.11831	0.055497	0.1362	0.33266	0.079294	0.082736	0.32849	0.31205	0.068352	0.11595	-2.7083	-3.9479	-3.5917	-3.4167	-4.1229	-3.3292	-3.8438	-4.1729	-3.0792	-4.075	-3.6854	-3.3792	-4.2333	-3.4729	-3.5646	-4.1771	348.686	397.886	499.063	421.959	497.731	493.728	365.275	426.810	279.542	174.932	195.884	459.374	481.321	487.358	476.698	449.406	0.0038346	0.0013167	0.0002219	568.59	5.7653e-06	1.074e-05	862.01	198.74	9.1131e-06	6.5039e-06	368.75	174.36	87.12	48.364	1.2707e-05	104.55	0.0015335	0.0014211	0.00040486	554.85	1.4843e-05	1.5972e-05	838.77	192.99	1.483e-05	1.5638e-05	387.02	170.77	85.189	47.577	1.4897e-05	102.32	437.319	242.835	282.247	158.825	291.960	276.762	158.143	163.425	264.713	264.684	162.081	166.859	167.079	171.423	273.825	169.389	-8191	255	
1567.654	1	1	0	0	0.060989	0.19193	0.15852	0.20335	0.23359	0.023349	0.051157	0.29023	0.27727	0.016039	0.11506	0.2503	0.21487	0.16794	0.074351	0.21938	-2.7917	-3.7833	-3.7292	-3.2708	-4.0271	-3.3417	-3.6333	-4.0563	-3.15	-4.0312	-3.7604	-3.3688	-3.9938	-3.6021	-3.4083	-4.1104	438.606	389.205	470.087	393.096	231.680	448.575	439.144	498.291	307.922	273.991	395.368	477.734	157.407	458.080	202.437	471.384	0.0037724	0.00075044	0.00018803	571.47	8.9952e-06	4.8951e-06	874.74	199.71	1.7207e-05	1.1811e-05	368.36	176.82	89.099	49.138	9.6194e-06	105.84	0.0015167	0.0014089	0.00039489	561.02	1.4796e-05	1.5492e-05	845.11	195.26	1.516e-05	1.557e-05	389.49	172.69	86.629	48.084	1.5226e-05	103.24	438.223	225.626	255.546	158.821	260.200	259.118	158.348	163.488	292.445	314.311	162.271	166.766	167.624	171.425	272.690	169.676	-8191	255	
1567.775	1	1	0	0	0.13423	0.10926	0.19235	0.21179	0.0503	0.20677	0.24054	0.14884	0.15158	0.20839	0.20258	0.076011	0.27453	0.23916	0.22498	0.18463	-2.8125	-3.8563	-3.6917	-3.275	-3.9792	-3.4688	-3.5812	-4.1292	-3.3104	-3.6292	-3.8479	-3.5854	-4.0917	-3.775	-3.3563	-4.1021	238.087	383.950	231.880	460.949	407.165	175.099	463.077	335.113	494.079	487.896	469.261	306.912	166.648	166.941	362.494	373.559	0.0038345	0.00061247	0.00041981	584.02	1.2079e-05	3.1719e-06	875.04	202.29	1.0989e-05	7.6204e-06	360.56	175.37	87.145	47.961	3.0796e-06	102.92	0.0015108	0.0013985	0.00039492	568.48	1.4791e-05	1.5378e-05	850.67	196.37	1.4763e-05	1.5398e-05	387.08	170.56	84.957	46.889	1.5201e-05	100.51	441.055	250.513	254.367	158.539	270.648	243.947	158.493	163.713	317.797	269.216	162.701	166.661	168.004	171.598	302.925	169.661	-8191	255	
1567.847	1	1	0	0	0.12948	0.33017	0.19797	0.33469	0.18887	0.21555	0.19701	0.17726	0.088569	0.12025	0.055127	0.39378	0.26775	0.10229	0.37864	0.33769	-2.8792	-3.5438	-3.8604	-3.4521	-4.0062	-3.6417	-3.4333	-4.1396	-3.3042	-3.5667	-4.0396	-3.2729	-3.9375	-3.8146	-3.175	-4.0813	491.074	415.617	364.158	146.297	192.039	413.095	441.310	456.587	388.301	481.867	293.958	438.745	472.033	430.274	389.310	465.578	0.0034842	0.00063325	0.00022258	572.72	2.5867e-06	1.0523e-05	859.01	193.86	3.5335e-06	6.4214e-06	361.84	171.53	84.879	46.944	3.3391e-06	101.59	0.0014689	0.0013983	0.00038446	556.72	1.4799e-05	1.5497e-05	834.91	189.96	1.4923e-05	1.528e-05	378.81	166.98	83.267	46.014	1.5441e-05	98.944	443.263	246.511	229.265	158.443	182.991	272.047	158.568	163.705	257.991	300.029	161.398	166.423	167.566	171.810	245.617	169.721	-8191	255	
1567.943	1	1	0	0	0.03531	0.23803	0.03769	0.16513	0.13253	0.14729	0.22269	0.20994	0.098091	0.014171	0.20747	0.052591	0.29051	0.28492	0.13144	0.19298	-2.9958	-3.3521	-3.9521	-3.3417	-3.8146	-3.7125	-3.2458	-4.0896	-3.5375	-3.4979	-4.2167	-3.4938	-3.7854	-3.9646	-3.3083	-4.2396	344.932	306.004	213.383	451.798	353.469	257.856	383.131	467.694	218.703	440.559	311.727	347.942	476.924	488.417	378.282	398.409	0.0034994	0.00088009	0.00021987	564.37	8.8005e-06	7.4768e-06	863.11	196.59	6.6664e-06	9.0153e-06	362.51	173.57	86.455	47.789	1.0971e-05	103.05	0.0014905	0.0014288	0.0003866	554.01	1.4846e-05	1.5247e-05	838.34	191.88	1.4624e-05	1.5429e-05	382.26	168.2	84.08	46.704	1.4865e-05	100.8	439.893	207.663	238.925	158.795	248.140	268.127	158.236	163.738	320.856	260.663	162.263	166.888	167.521	171.899	257.340	169.782	-8191	255	
1568.039	1	1	0	0	0.11392	0.023022	0.10386	0.12371	0.22425	0.15545	0.22717	0.071292	0.21889	0.15364	0.2911	0.19676	0.10532	0.12061	0.075447	0.14004	-3.0354	-3.4333	-4.0167	-3.3438	-3.7292	-3.9354	-3.3708	-3.9979	-3.4833	-3.2292	-4.075	-3.4479	-3.6771	-3.9146	-3.175	-4.0833	429.667	402.245	232.065	469.701	205.967	253.442	416.443	496.201	415.443	228.375	429.880	505.090	177.221	308.665	223.715	432.862	0.0038623	0.00070344	0.00023978	570.22	8.6677e-06	1.3392e-05	869.92	199.94	2.0452e-05	1.0304e-05	367.75	176.51	87.98	49.12	6.2238e-06	106.99	0.0014672	0.0013726	0.00037488	556.15	1.468e-05	1.4891e-05	839.9	194.53	1.4401e-05	1.4961e-05	388.94	172.54	86.076	48.108	1.4342e-05	104.15	442.716	247.912	198.702	158.954	259.119	279.555	158.629	163.855	282.089	271.303	161.785	166.822	168.119	171.866	324.050	169.871	-8191	255	
1568.158	1	1	0	0	0.08376	0.17035	0.094693	0.071143	0.14579	0.16137	0.19031	0.1645	0.085612	0.12638	0.12856	0.051825	0.23921	0.12008	0.27159	0.29628	-3.3854	-3.125	-4.0208	-3.4188	-3.6271	-4.0792	-3.3187	-3.8875	-3.8333	-3.4062	-4.0104	-3.5229	-3.45	-4.1917	-3.3229	-3.8708	482.034	406.240	380.928	488.574	232.092	301.812	461.954	483.760	234.724	162.859	162.746	487.219	481.162	433.273	255.403	467.493	0.0038197	0.00050663	0.00020624	580.31	8.6907e-06	4.2602e-06	873.62	201.42	1.336e-05	7.3133e-06	365.84	176.85	88.228	48.843	7.3322e-06	104.68	0.0014637	0.0013408	0.00037848	564.15	1.4223e-05	1.4587e-05	847.9	196.44	1.4312e-05	1.4983e-05	384.13	171.34	85.842	47.634	1.4519e-05	101.92	439.059	236.355	240.048	159.092	279.949	356.504	158.648	163.985	264.251	325.045	162.223	166.717	167.969	171.892	263.731	169.968	-8191	255	
1568.254	1	1	0	0	0.13337	0.27642	0.14133	0.10364	0.07643	0.24476	0.14917	0.059613	0.18405	0.054176	0.29117	0.16501	0.23054	0.036047	0.054018	0.068334	-3.2313	-3.1958	-3.8937	-3.5646	-3.4354	-4.2146	-3.3937	-3.8771	-3.9521	-3.2062	-3.9104	-3.7104	-3.4333	-4.2271	-3.2875	-3.8667	383.834	215.464	258.825	475.319	323.854	213.313	464.659	147.093	416.784	208.621	274.470	420.829	418.094	440.062	319.386	189.364	0.0039023	0.00077117	0.0001993	569.69	8.1381e-06	6.5138e-06	864.08	199.03	1.2038e-05	7.4186e-06	360.63	173.99	86.685	47.959	8.2384e-06	103.56	0.0014582	0.001319	0.00036567	557.93	1.4243e-05	1.4304e-05	840.8	194.18	1.3658e-05	1.4226e-05	382.55	169.08	84.513	46.894	1.404e-05	100.97	440.550	224.006	219.574	158.592	277.504	307.953	158.305	163.582	290.151	308.634	162.340	166.516	167.762	171.644	283.257	169.723	-8191	255	
1568.350	1	1	0	0	0.092129	0.26786	0.24869	0.18528	0.20436	0.05069	0.0379	0.24928	0.15685	0.032634	0.027859	0.0099737	0.20877	0.18603	0.044617	0.26218	-3.6917	-3.0958	-3.8917	-3.8	-3.2771	-4.0625	-3.6271	-3.8271	-4.0979	-3.2938	-3.8333	-3.9062	-3.1292	-4.1188	-3.4417	-3.6688	488.219	312.632	249.993	468.618	360.728	158.886	393.164	388.617	209.063	482.748	171.815	336.299	449.717	441.332	317.125	478.750	0.0036139	0.00097938	0.00017598	581.28	1.0176e-05	3.4145e-06	875.83	200.93	1.1249e-05	6.4717e-06	372.13	173.96	87.675	48.155	1.351e-05	104.25	0.0013999	0.0013006	0.00036002	564.76	1.3513e-05	1.4089e-05	849.11	195.59	1.346e-05	1.4035e-05	386.88	169.79	85.197	47.128	1.4113e-05	101.43	443.347	205.158	252.293	158.940	251.928	286.275	158.345	164.036	252.141	281.550	162.823	167.033	167.765	171.897	289.406	169.962	-8191	255	
1568.446	1	1	0	0	0.2188	0.043093	0.31089	0.059366	0.32709	0.37386	0.29275	0.22245	0.093675	0.056529	0.14417	0.12257	0.15097	0.24265	0.13984	0.39187	-3.6083	-3.1083	-3.75	-3.8042	-3.1688	-4.0479	-3.5417	-3.7292	-4.0667	-3.0375	-3.6958	-3.9542	-3.2458	-4.1729	-3.5458	-3.5229	482.648	371.056	307.495	393.980	210.573	369.818	496.923	372.641	409.775	203.270	439.257	252.061	448.444	205.890	277.335	450.647	0.0039321	0.00047584	0.00018478	586.18	7.2275e-06	9.2614e-06	887.64	204.9	7.5385e-06	1.3437e-05	373.5	177.29	88.305	48.678	7.2239e-06	105.23	0.001411	0.0012843	0.0003593	571.38	1.3523e-05	1.4027e-05	859.72	198.9	1.3329e-05	1.4143e-05	388.83	171.66	85.854	47.541	1.4091e-05	102.24	443.119	220.378	202.682	158.475	255.921	290.509	158.433	163.491	276.394	323.058	163.196	166.898	167.824	172.251	312.743	169.764	-8191	255	
1568.542	1	1	0	0	0.35433	0.17229	0.055988	0.20925	0.25508	0.18382	0.06139	0.18578	0.11996	0.20551	0.17474	0.1779	0.076347	0.14808	0.065402	0.32985	-3.6542	-3.2083	-3.5917	-3.9667	-3.1208	-4.0333	-3.85	-3.4854	-4.0979	-3.4625	-3.5687	-4.1542	-3.1604	-4.0979	-3.7958	-3.3646	188.551	446.277	232.261	425.801	302.593	280.731	460.874	427.676	479.590	472.080	269.618	455.251	161.204	147.797	457.264	462.081	0.0040288	0.00041234	0.00023554	595.03	9.3162e-06	5.4294e-06	888.91	205.89	1.4318e-05	6.7685e-06	372.84	174.74	87.343	47.597	1.3891e-05	103.06	0.0014289	0.001286	0.00035471	578.28	1.3609e-05	1.3995e-05	863.1	199.71	1.3168e-05	1.4032e-05	386.3	170.53	85.073	46.69	1.3481e-05	100.34	442.464	193.882	245.037	159.188	343.117	326.504	158.423	163.889	319.307	299.531	163.260	166.519	167.521	171.837	270.063	169.366	-8191	255	
1568.639	1	1	0	0	0.059243	0.18673	0.13636	0.19867	0.12717	0.03527	0.26312	0.16616	0.087792	0.14656	0.1609	0.16668	0.26349	0.12301	0.15919	0.28337	-3.5771	-3.3479	-3.5542	-4.0542	-3.1958	-3.6375	-3.9125	-3.3937	-4.1104	-3.2646	-3.5417	-4.0708	-3.2854	-4.0083	-3.8667	-3.3958	428.118	383.676	343.383	476.601	357.882	329.947	457.300	439.433	250.814	197.123	356.079	460.041	433.021	487.838	181.504	468.215	0.0033794	0.00054398	0.00030424	587.57	4.3342e-06	6.0263e-06	879.16	201.79	9.5869e-06	7.0902e-06	368.16	172.3	86.693	47.282	1.1118e-05	101.65	0.0013335	0.0012505	0.00034627	570.32	1.3006e-05	1.3481e-05	850.42	195.97	1.2569e-05	1.3244e-05	381.32	167.78	83.839	46.118	1.3264e-05	99.124	439.546	282.590	244.995	158.755	285.682	298.473	158.283	163.126	319.795	274.621	162.731	166.494	167.386	171.865	275.948	169.525	-8191	255	
1568.735	1	1	0	0	0.24658	0.17638	0.097953	0.20693	0.094729	0.12986	0.33187	0.2512	0.17947	0.20144	0.24743	0.28633	0.29615	0.42301	0.081728	0.030856	-3.8063	-3.4313	-3.2854	-3.9667	-3.2146	-3.8292	-3.9708	-3.2188	-4.0396	-3.5458	-3.3229	-3.9604	-3.4667	-3.7625	-3.9396	-3.2417	328.030	178.981	313.196	447.129	384.701	151.306	460.377	450.291	314.054	355.734	208.427	423.206	474.468	168.205	465.803	403.419	0.0036197	0.00051741	0.00019102	585.88	4.5565e-06	1.0684e-05	875.13	202.9	1.6948e-05	1.1872e-06	371.6	173.71	86.611	47.324	5.2717e-06	102.21	0.0013181	0.0012284	0.00034195	569.05	1.2852e-05	1.3386e-05	850.72	197.19	1.2792e-05	1.3422e-05	384.14	168.67	84.432	46.328	1.3292e-05	100.1	440.522	243.322	223.097	158.132	227.829	247.683	157.768	163.505	289.233	391.525	163.156	166.411	166.850	171.444	217.647	169.099	-8191	255	
1568.854	1	1	0	0	0.11092	0.16556	0.085985	0.14495	0.09273	0.13056	0.41979	0.171	0.087173	0.26512	0.21446	0.086452	0.097467	0.19332	0.18063	0.21305	-3.5292	-3.5625	-3.325	-4.0625	-3.1542	-3.4604	-4.0208	-3.375	-3.8979	-3.7396	-3.0687	-4.1917	-3.4604	-3.5438	-4.0604	-3.5292	389.480	310.903	260.013	420.198	203.764	292.783	431.573	427.327	209.361	428.954	473.802	464.051	168.121	380.050	235.544	422.126	0.0037263	0.00089526	0.00030516	586.14	3.8252e-06	1.2314e-05	881.74	204.73	8.1347e-06	3.7373e-06	378.74	176.48	88.087	48.032	9.5921e-06	104.56	0.0013509	0.0012336	0.00034714	570.6	1.3e-05	1.3463e-05	856.54	199.67	1.3084e-05	1.3638e-05	387.85	171.94	85.674	47.235	1.3647e-05	101.99	436.996	243.169	249.193	158.291	311.404	305.942	157.373	163.468	299.527	267.891	162.518	166.334	167.171	171.546	210.748	169.512	-8191	255	
1568.950	1	1	0	0	0.16211	0.053711	0.12873	0.33151	0.14941	0.11467	0.077513	0.28658	0.13512	0.11405	0.11669	0.1655	0.13035	0.19834	0.1914	0.12149	-3.4229	-3.7708	-3.0938	-4.1021	-3.5438	-3.375	-4.1042	-3.2521	-3.925	-3.9667	-3.2333	-4.175	-3.5938	-3.4646	-3.9146	-3.5208	199.664	253.508	364.842	476.134	186.596	262.671	497.021	148.036	337.005	246.624	443.423	464.354	368.014	174.532	225.302	180.882	0.0038276	0.00059227	7.8761e-05	592.96	4.8043e-06	4.8089e-06	889.48	205.39	1.2252e-05	8.882e-06	380.53	174.87	88.002	47.988	6.1005e-06	103.51	0.0013649	0.0012214	0.00035376	578.15	1.3104e-05	1.3682e-05	863.79	200.17	1.3186e-05	1.3506e-05	387.73	170.76	85.397	46.985	1.3202e-05	100.99	443.142	234.609	264.572	158.135	194.514	303.609	157.689	163.155	291.760	280.368	162.611	166.255	167.208	171.274	265.636	169.013	-8191	255	
1569.046	1	1	0	0	0.03498	0.15175	0.12068	0.19176	0.091871	0.28016	0.13618	0.21205	0.1219	0.086783	0.34825	0.18813	0.20783	0.082524	0.17996	0.49665	-3.1854	-3.8521	-3.0583	-4.0271	-3.5833	-3.2479	-4.0729	-3.3979	-3.6083	-3.9979	-3.3083	-3.9875	-3.7667	-3.3688	-4.0021	-3.5312	301.092	384.145	259.178	152.843	466.141	298.733	477.981	359.232	388.667	474.607	202.879	164.691	247.414	310.556	202.501	498.600	0.0037081	0.00068165	0.00017547	587.28	1.4994e-05	7.8276e-06	877.38	202.92	9.5596e-06	7.1947e-06	361.81	172.98	86.567	47.205	1.4515e-05	101.87	0.0013611	0.0012448	0.00033812	570.32	1.3296e-05	1.3383e-05	851.1	196.53	1.3267e-05	1.3384e-05	380.57	167.88	84.163	46.18	1.3209e-05	99.428	443.510	255.105	237.401	158.237	263.070	284.021	157.848	163.234	231.061	349.687	162.149	166.238	167.008	171.858	273.230	169.360	-8191	255	
1569.142	1	1	0	0	0.14923	0.19217	0.16567	0.11973	0.32044	0.086135	0.20965	0.18957	0.22016	0.28694	0.21741	0.32752	0.016125	0.25824	0.10416	0.37971	-3.0563	-4.0312	-3.125	-3.9875	-3.8812	-3.2062	-4.2083	-3.6083	-3.4833	-3.9375	-3.1396	-3.8354	-3.8708	-3.3063	-4.1062	-3.7417	483.509	311.993	419.954	502.158	324.508	163.381	416.127	153.227	321.718	206.580	205.664	474.790	162.272	460.230	483.355	451.700	0.0036421	0.00055817	0.00010582	588.22	1.2347e-05	7.8854e-06	879.03	203.41	1.8688e-05	4.3691e-06	366.24	172.78	86.68	47.623	1.2388e-05	102.64	0.001324	0.0011946	0.00033713	571.1	1.2678e-05	1.3516e-05	854.91	197.43	1.2735e-05	1.3058e-05	384.42	168.66	84.592	46.514	1.3289e-05	100.03	439.347	273.617	317.111	158.598	262.206	277.328	158.033	163.148	245.699	283.532	161.213	166.466	166.762	171.452	255.236	169.239	-8191	255	
1569.238	1	1	0	0	0.22899	0.067991	0.062122	0.026287	0.15947	0.11448	0.23181	0.12499	0.2674	0.074207	0.056524	0.025003	0.19214	0.20957	0.12766	0.11283	-2.9354	-3.9271	-3.3812	-3.7687	-3.8104	-3.2771	-4.15	-3.6708	-3.4771	-4.1583	-3.4313	-3.6646	-3.8167	-3.3021	-3.7333	-3.7375	177.085	475.166	157.445	482.365	465.772	467.495	367.486	459.702	442.343	327.867	299.975	263.091	161.498	160.178	299.027	467.082	0.0034741	0.00042519	9.0748e-05	594.5	7.6199e-06	4.7222e-06	890.75	205.84	1.3559e-05	4.4016e-06	374.99	175.56	87.862	48.188	5.629e-06	104.22	0.0013431	0.0012143	0.00034142	576.47	1.3081e-05	1.3724e-05	860.71	199.73	1.3168e-05	1.3321e-05	390.07	170.91	85.479	47.032	1.3163e-05	101.58	437.097	220.949	313.925	158.671	262.124	376.572	158.035	163.090	257.874	254.023	161.966	166.391	167.132	171.534	302.019	169.293	-8191	255	
1569.334	1	1	0	0	0.24609	0.046492	0.50708	0.11221	0.24985	0.26917	0.43534	0.22194	0.22561	0.10705	0.23091	0.077526	0.11975	0.26361	0.10205	0.23028	-2.8583	-4.1292	-3.4979	-3.6354	-4.0208	-3.1667	-3.9125	-3.8271	-3.1896	-3.8417	-3.5187	-3.5646	-4.0563	-3.3583	-3.7208	-3.8771	219.684	402.695	270.436	500.659	351.679	236.156	453.595	426.955	436.960	491.836	231.936	315.627	496.404	416.144	348.847	410.789	0.0037326	0.00023768	0.00027162	591.14	3.3461e-06	6.3053e-06	890.66	207.15	1.4774e-05	2.5647e-06	375.99	175.55	88.602	47.864	9.7194e-06	103.03	0.0013768	0.0012249	0.00034639	578.63	1.2995e-05	1.3636e-05	865.06	201.31	1.3153e-05	1.3412e-05	390.81	170.57	85.77	46.877	1.3476e-05	100.61	436.583	293.818	237.774	158.488	248.514	259.180	157.998	163.491	319.434	331.248	162.154	166.421	167.450	171.541	285.405	169.401	-8191	255	
1569.455	1	1	0	0	0.22587	0.25166	0.10857	0.14573	0.13586	0.10787	0.12958	0.30241	0.14104	0.19023	0.12456	0.32174	0.23793	0.14679	0.12998	0.30282	-2.8729	-4.0333	-3.4354	-3.4521	-4.0458	-3.1458	-3.9104	-3.9938	-3.2646	-3.9688	-3.6146	-3.5542	-4.0729	-3.3667	-3.6417	-4.0646	293.095	180.151	193.164	369.673	165.987	348.746	150.685	449.725	391.824	384.649	332.619	473.224	431.034	217.995	419.344	426.503	0.0035572	0.0010343	0.00027885	586.54	3.6655e-06	5.9284e-06	876.4	201.99	8.0839e-06	1.0268e-05	369.19	172.3	86.161	47.117	6.3171e-06	101.13	0.0013328	0.0012286	0.0003471	569.04	1.2872e-05	1.3785e-05	851.8	196.35	1.3067e-05	1.372e-05	382.03	167.09	83.615	45.932	1.3406e-05	98.883	440.785	215.663	259.171	157.975	253.711	306.314	157.910	163.431	294.756	254.692	162.281	166.250	167.082	171.245	305.453	169.145	-8191	255	
1569.551	1	1	0	0	0.017067	0.11086	0.14775	0.096981	0.099517	0.23929	0.11669	0.17916	0.18202	0.10488	0.21905	0.10428	0.07053	0.23783	0.23376	0.087442	-2.7812	-3.9271	-3.7083	-3.4146	-4.1479	-3.3958	-3.8229	-3.9938	-3.1979	-3.9396	-3.8083	-3.4396	-4.2542	-3.5271	-3.3958	-4.1542	246.010	282.381	228.495	471.625	452.223	291.671	474.017	490.917	240.150	369.808	445.380	168.834	155.100	422.361	248.036	325.856	0.0037835	0.0002229	4.3509e-05	586.25	6.5388e-06	7.3827e-06	873.25	200.96	9.0169e-06	3.9047e-06	366.03	172.54	86.193	46.88	4.3974e-06	101.59	0.0013488	0.0012259	0.00034659	568.68	1.3032e-05	1.3616e-05	849.26	195.8	1.2887e-05	1.3688e-05	382.13	167.28	83.841	45.898	1.3556e-05	98.867	439.118	232.167	149.060	158.496	285.837	277.860	158.105	163.393	255.902	279.787	161.771	166.463	167.377	171.655	247.817	169.441	-8191	255	
1569.646	1	1	0	0	0.22597	0.14331	0.19221	0.12321	0.11245	0.15404	0.083344	0.25087	0.024467	0.11912	0.27183	0.041805	0.12393	0.11014	0.32422	0.14075	-2.7375	-3.9521	-3.6333	-3.3583	-4.0917	-3.4417	-3.5917	-4.0417	-3.3333	-3.8104	-3.8	-3.2792	-4	-3.6375	-3.2667	-4.2688	184.515	353.476	465.132	486.653	406.659	399.462	469.368	413.715	183.393	169.227	501.466	476.967	251.045	274.011	416.787	364.108	0.0035699	0.00041464	0.00019352	585.19	9.4407e-06	3.9926e-06	885.59	203.44	7.747e-06	7.571e-06	363.26	172.02	86.901	46.967	6.5629e-06	101.91	0.0013609	0.0012512	0.00034448	570.18	1.3191e-05	1.3918e-05	855.44	197.29	1.3151e-05	1.3729e-05	382.35	167.88	84.311	46.019	1.3371e-05	99.236	436.323	255.138	180.526	158.736	230.320	345.287	158.077	163.298	304.332	322.212	163.314	166.383	167.206	171.560	243.689	169.319	-8191	255	
1569.742	1	1	0	0	0.09943	0.14216	0.064937	0.12174	0.24862	0.096348	0.25264	0.23174	0.19959	0.15239	0.20112	0.11933	0.10884	0.13455	0.079717	0.20669	-2.9	-3.7188	-3.8	-3.2958	-3.9208	-3.4771	-3.35	-4.1521	-3.1312	-3.4458	-3.9875	-3.3521	-3.8063	-3.6854	-3.2292	-4.0563	192.393	153.023	495.852	408.875	417.326	176.586	403.404	372.729	157.542	437.031	471.302	481.378	149.187	375.940	419.818	413.601	0.0035007	0.00066361	6.8716e-05	596.57	2.6294e-06	6.8643e-06	897.77	205.98	1.2581e-05	2.9691e-06	374.61	173.6	86.642	47.028	8.1176e-06	101.81	0.0013407	0.0012398	0.00035169	577.31	1.3098e-05	1.3721e-05	866.44	200.03	1.3035e-05	1.3673e-05	386.14	168.74	84.565	45.986	1.3215e-05	98.948	441.478	232.238	475.921	158.485	241.527	253.003	158.242	163.314	273.392	297.167	162.394	166.317	167.330	171.342	292.413	169.594	-8191	255	
1569.815	1	1	0	0	0.098958	0.27922	0.077678	0.23348	0.043346	0.16142	0.2405	0.27477	0.19134	0.044985	0.037793	0.24591	0.18001	0.25554	0.073745	0.25845	-3.0458	-3.5396	-3.7833	-3.3667	-3.7646	-3.6312	-3.4313	-4.0833	-3.5833	-3.5042	-3.9958	-3.25	-3.9271	-3.8104	-3.3208	-4.1375	313.543	235.847	335.620	397.839	254.774	320.523	428.138	417.738	251.426	436.874	278.147	482.507	176.054	154.360	428.065	433.752	0.0035988	0.00039655	0.00029268	590.96	9.5639e-06	5.9269e-06	885.86	201.93	1.0291e-05	8.6831e-06	367.6	170.54	85.591	46.176	4.2147e-06	100.32	0.0013393	0.0012754	0.00035229	573.35	1.2802e-05	1.3763e-05	856.51	195.99	1.3233e-05	1.3629e-05	381.73	165.87	83.12	45.373	1.3341e-05	97.979	441.164	176.707	228.082	158.307	275.728	264.970	158.200	163.323	279.950	304.814	161.300	166.158	167.476	171.629	289.280	169.696	-8191	255	
1569.934	1	1	0	0	0.092213	0.10857	0.27677	0.097397	0.23156	0.070997	0.40565	0.25795	0.037556	0.082051	0.17547	0.31311	0.12092	0.076651	0.086371	0.35827	-3.0604	-3.45	-4.1458	-3.4479	-3.9125	-4.0167	-3.3021	-4.1125	-3.5396	-3.3583	-4.0083	-3.4646	-3.6417	-4.0687	-3.1917	-4.1208	312.279	146.281	451.727	448.243	232.788	439.640	429.403	445.194	396.527	316.771	332.019	408.321	163.833	485.480	191.722	437.338	0.0037286	0.00082064	0.000177	587.3	4.9525e-06	5.549e-06	883.7	202.19	1.6813e-05	6.7933e-06	365.45	170.79	86.173	46.584	6.2384e-06	101.43	0.0013478	0.0012308	0.00034467	571.46	1.3123e-05	1.3642e-05	855.99	196.48	1.342e-05	1.407e-05	383.04	167	83.759	45.731	1.3608e-05	98.878	440.082	266.746	187.262	158.576	317.488	278.084	157.875	163.315	274.193	363.182	161.634	166.661	167.330	171.641	248.076	169.499	-8191	255	
1570.030	1	1	0	0	0.21093	0.25025	0.092015	0.10297	0.067483	0.044165	0.13917	0.20665	0.14093	0.24543	0.10874	0.05052	0.11592	0.29742	0.15068	0.18227	-3.3833	-3.2771	-4.0271	-3.3729	-3.5833	-3.9292	-3.2062	-3.9979	-3.8021	-3.1937	-4.1542	-3.6875	-3.7771	-4.0458	-3.2562	-3.9458	418.635	261.003	431.192	443.735	365.822	266.007	489.828	470.700	492.966	443.816	195.057	379.644	462.221	489.767	277.882	166.505	0.0035449	0.00024819	0.00022826	587.24	5.8332e-06	6.0291e-06	891.6	204.31	1.1195e-05	4.5258e-06	369.94	172.97	87.01	47.406	6.2898e-06	103.28	0.0013745	0.0012578	0.00035117	573.13	1.3429e-05	1.3932e-05	862.13	198.22	1.3705e-05	1.3952e-05	385.81	168.49	84.746	46.378	1.3943e-05	100.61	438.382	252.602	236.256	158.657	294.797	324.206	158.345	163.711	280.602	261.144	162.667	166.563	167.156	171.712	287.959	169.639	-8191	255	
1570.126	1	1	0	0	0.20846	0.22152	0.16322	0.19311	0.14595	0.20646	0.096264	0.2459	0.18219	0.31674	0.028857	0.35812	0.072503	0.18728	0.14785	0.20071	-3.2687	-3.2667	-3.75	-3.5271	-3.2771	-3.9375	-3.3271	-3.8604	-3.9583	-3.3083	-3.8708	-3.5917	-3.4479	-4.1729	-3.2125	-3.8792	440.789	233.711	231.530	445.931	291.941	484.585	440.625	503.446	186.380	460.635	493.521	453.189	409.850	474.138	478.057	447.720	0.0035264	0.00032305	0.0002499	588.41	1.3178e-05	1.0682e-05	892.23	206.4	8.1109e-06	3.5559e-06	368.78	174.01	87.056	47.214	8.1234e-06	102.63	0.0013794	0.0012796	0.00035648	576.49	1.3728e-05	1.3927e-05	864.53	199.87	1.3642e-05	1.4192e-05	389.44	169.25	84.567	46.399	1.4089e-05	99.94	442.927	228.760	264.975	158.573	284.632	293.827	158.413	163.239	293.754	285.230	161.927	166.774	167.343	171.734	294.319	169.485	-8191	255	
1570.247	1	1	0	0	0.17045	0.14638	0.16226	0.06787	0.2095	0.065732	0.16801	0.19253	0.23648	0.07213	0.060741	0.38034	0.12098	0.16037	0.15996	0.33311	-3.5208	-3.1208	-3.9542	-3.5708	-3.4021	-4.0521	-3.4604	-3.7479	-3.9896	-3.375	-3.8417	-3.7458	-3.4042	-4.2042	-3.3792	-3.7417	480.894	257.366	188.910	443.191	159.883	297.112	421.065	419.975	266.598	238.758	361.962	455.552	473.017	162.112	170.127	435.242	0.0036229	0.000488	0.00017606	585.3	3.7377e-06	1.0705e-06	877.17	200.31	1.4582e-05	1.0854e-05	356.92	169.22	84.631	46.25	7.3991e-06	99.929	0.0013951	0.0013021	0.00035533	570.05	1.3622e-05	1.4155e-05	850.64	194.53	1.3657e-05	1.398e-05	376.5	165.13	82.36	45.292	1.3956e-05	97.61	440.159	243.816	235.720	158.770	315.636	191.525	158.229	163.366	305.732	314.295	161.433	166.540	167.637	171.683	265.611	169.486	-8191	255	
1570.343	1	1	0	0	0.1311	0.29875	0.049998	0.28245	0.19192	0.17801	0.31778	0.028895	0.10296	0.11835	0.15585	0.2549	0.11932	0.17413	0.18279	0.25086	-3.6188	-3.2958	-3.9708	-3.8104	-3.2021	-3.9813	-3.5563	-3.5375	-4.0021	-3.1875	-4.0146	-3.8063	-3.3104	-4.0792	-3.4229	-3.45	417.446	269.434	416.499	459.241	408.194	286.917	463.058	380.818	195.989	178.670	242.972	431.194	496.159	479.583	191.119	422.053	0.0035024	0.0006892	4.1093e-05	582.47	7.5148e-07	8.4233e-06	873.75	198.35	1.9828e-05	5.78e-06	363.87	169.58	84.626	46.312	9.6834e-06	100.7	0.0013808	0.0012787	0.00035476	564.91	1.3334e-05	1.4121e-05	847.23	192.96	1.3696e-05	1.4126e-05	380.55	164.88	82.536	45.393	1.3874e-05	98.054	439.663	225.912	173.331	158.682	327.209	332.284	158.229	163.468	273.356	300.226	162.036	166.640	167.387	171.444	305.737	169.452	-8191	255	
1570.415	1	1	0	0	0.16906	0.074076	0.055874	0.07566	0.086327	0.17319	0.24799	0.079992	0.1224	0.25589	0.11683	0.28409	0.41008	0.32359	0.072467	0.28855	-3.6625	-3.2104	-3.8063	-3.8771	-3.3271	-3.8875	-3.6604	-3.4229	-3.9188	-3.2562	-3.8146	-3.8792	-3.1625	-4.1438	-3.4188	-3.4729	378.364	421.073	333.757	209.913	168.997	386.161	488.565	349.784	380.819	335.066	455.824	449.885	490.512	189.776	457.440	439.659	0.0037751	0.0010551	0.00036133	580.07	5.3942e-06	8.3513e-06	877.24	200.21	1.3082e-05	5.2069e-06	368.22	170.8	85.842	47.006	6.0464e-06	101.43	0.001368	0.0012865	0.00036447	565.75	1.3494e-05	1.38e-05	849.44	194.7	1.3378e-05	1.4066e-05	383.18	166.46	83.404	45.849	1.391e-05	98.911	441.348	232.727	261.207	158.474	277.508	226.574	158.482	163.643	259.744	262.825	162.516	166.347	167.321	171.558	262.508	169.539	-8191	255	
1570.535	1	1	0	0	0.11885	0.078348	0.17828	0.226	0.1019	0.1494	0.011854	0.079412	0.16891	0.22761	0.13693	0.34215	0.16827	0.083134	0.20794	0.1349	-3.5438	-3.3979	-3.5667	-4.1	-2.9979	-3.8917	-3.7812	-3.3208	-4.15	-3.3063	-3.5625	-4.1312	-3.2167	-3.8396	-3.6854	-3.5333	295.427	286.746	366.790	387.476	308.754	331.832	220.209	148.680	446.791	318.263	177.597	444.290	325.883	251.107	450.945	485.046	0.0036754	0.00012664	0.00010245	583.52	4.6247e-06	5.4889e-06	879.2	200.11	1.6487e-05	5.1477e-06	363.68	171.86	85.844	46.712	1.2548e-05	101.34	0.0014033	0.0013144	0.00036531	570.27	1.3791e-05	1.4275e-05	854.49	195.69	1.3594e-05	1.3904e-05	382.53	166.87	83.282	45.736	1.3878e-05	98.992	440.868	237.961	205.583	158.570	330.211	274.353	158.190	163.641	286.529	420.978	162.942	166.586	167.565	171.628	272.521	169.411	-8191	255	
1570.632	1	1	0	0	0.15268	0.39948	0.080652	0.32409	0.010704	0.28371	0.058377	0.30167	0.071481	0.094976	0.15935	0.095355	0.1187	0.11974	0.23273	0.065632	-3.5146	-3.3312	-3.4125	-3.9646	-3.1854	-3.7875	-3.9021	-3.2875	-3.8542	-3.6	-3.5479	-4.2542	-3.225	-3.8563	-3.9958	-3.4021	244.505	469.874	234.723	157.096	204.782	403.838	460.698	170.285	436.662	501.882	382.055	486.994	389.835	396.777	423.604	393.448	0.0034124	0.00059181	0.00029402	576.54	1.1813e-05	7.2778e-06	873.38	198.58	1.3679e-05	5.4147e-06	360.92	169.57	84.361	45.89	4.6902e-06	99.997	0.0013889	0.001273	0.0003613	564.68	1.3456e-05	1.4082e-05	846.69	192.87	1.36e-05	1.4442e-05	377.65	164.33	82.277	45.099	1.4033e-05	97.649	443.740	223.500	221.918	158.601	306.202	294.183	158.074	163.254	287.967	295.580	162.285	166.367	167.087	171.857	204.675	169.491	-8191	255	
1570.728	1	1	0	0	0.042707	0.12158	0.12854	0.13992	0.12996	0.13334	0.1199	0.23422	0.19291	0.12756	0.10987	0.23747	0.10049	0.22166	0.17397	0.29173	-3.5333	-3.5	-3.3292	-3.9979	-3.3542	-3.8125	-4.1479	-3.3146	-3.8521	-3.6437	-3.3271	-4.2271	-3.5187	-3.5542	-3.8146	-3.3125	460.020	487.318	227.596	212.407	452.263	179.557	502.304	160.612	334.536	432.485	469.344	505.644	379.033	429.028	192.849	432.114	0.0033877	0.00047799	0.00026628	579.59	7.774e-06	7.2872e-06	868.98	197.89	1.7657e-05	7.0178e-06	364.93	170.81	85.455	46.95	9.1744e-06	101.6	0.0013792	0.0012969	0.00035654	562.18	1.3756e-05	1.4017e-05	841.43	192.65	1.3666e-05	1.4463e-05	382.58	166.09	83.022	45.917	1.43e-05	99.355	438.819	229.328	180.242	158.794	279.674	322.989	158.138	163.741	306.854	306.997	162.629	166.644	167.375	172.084	265.380	169.374	-8191	255	
1570.847	1	1	0	0	0.044817	0.15108	0.095177	0.26779	0.12057	0.15346	0.12121	0.21679	0.22267	0.099268	0.14376	0.20787	0.18856	0.32495	0.23476	0.11276	-3.5271	-3.6292	-3.3063	-4.0896	-3.3771	-3.5375	-4.1813	-3.375	-3.8104	-3.7313	-3.2583	-4.0854	-3.4896	-3.4313	-4.1104	-3.5708	319.171	419.222	379.886	504.061	456.476	225.497	465.473	407.917	281.554	254.742	435.574	495.584	185.561	151.207	441.294	392.707	0.0037141	0.00089897	2.6083e-05	574.03	9.9172e-06	1.1001e-05	873.04	199.92	9.3196e-06	5.478e-06	363.91	172.86	86.229	47.56	6.4074e-06	103.62	0.0014047	0.0013021	0.00036468	560.58	1.4106e-05	1.4384e-05	846.44	193.93	1.3972e-05	1.4331e-05	383.32	168.2	84.181	46.692	1.3936e-05	101.22	441.392	279.247	175.934	158.233	294.543	285.424	158.269	163.253	291.990	307.615	162.137	165.714	166.878	171.271	277.248	169.072	-8191	255	
1570.943	1	1	0	0	0.047076	0.12665	0.21968	0.20253	0.14809	0.13481	0.15428	0.10874	0.11693	0.068467	0.19553	0.1099	0.30996	0.052454	0.16443	0.3347	-3.3688	-3.7083	-3.2062	-4.0979	-3.5896	-3.3792	-4.0792	-3.3396	-3.6542	-3.7812	-3.2833	-4.0583	-3.8688	-3.3229	-4.1021	-3.6167	367.319	406.227	415.151	224.588	415.779	386.741	460.579	460.605	249.467	203.265	350.736	364.627	493.100	188.880	245.334	455.166	0.0038797	0.00060201	0.00033479	584.32	9.9555e-06	5.0837e-06	882.9	201.92	1.0305e-05	1.1213e-05	374.03	174.11	86.502	47.59	1.1521e-05	102.76	0.0014045	0.0012955	0.00035931	569.1	1.4015e-05	1.4697e-05	857.5	196.47	1.3412e-05	1.4166e-05	388.2	169.51	84.365	46.691	1.3951e-05	100.51	439.311	163.227	253.105	158.045	264.156	274.009	157.740	162.965	283.507	300.029	161.866	166.331	166.865	171.157	258.770	169.167	-8191	255	
1571.014	1	1	0	0	0.16505	0.085249	0.11494	0.25316	0.066227	0.074586	0.080287	0.24431	0.012757	0.23331	0.10355	0.14427	0.061421	0.096675	0.13544	0.22938	-3.3208	-3.8979	-3.1104	-3.8208	-3.8229	-3.3021	-4.1687	-3.4271	-3.5687	-4.0729	-3.1229	-3.9854	-3.8729	-3.3333	-3.9708	-3.4688	292.611	297.423	270.452	190.508	150.015	404.763	208.664	409.222	290.376	468.700	394.743	438.257	430.082	203.341	322.857	459.999	0.0038672	0.00047957	0.00038733	577.72	1.0262e-05	1.2157e-05	867.24	197.54	1.6942e-05	7.2424e-06	366.08	168.43	84.218	46.459	7.237e-06	99.953	0.0014111	0.0012706	0.0003677	564.32	1.3803e-05	1.3917e-05	843.95	192.58	1.3436e-05	1.3937e-05	379.24	164.73	82.017	45.336	1.3957e-05	97.697	439.906	225.955	227.177	157.959	286.083	295.765	157.648	163.253	288.171	309.917	162.926	166.305	167.111	171.552	262.982	168.924	-8191	255	
1571.135	1	1	0	0	0.11215	0.14634	0.20532	0.055757	0.10895	0.22754	0.065372	0.22623	0.1859	0.12803	0.24794	0.28349	0.22321	0.1676	0.22492	0.21839	-3.0583	-4.1687	-3.3812	-3.7021	-3.9146	-3.2646	-4.1708	-3.5542	-3.4708	-4.0687	-3.4417	-3.8875	-3.9271	-3.1854	-3.8708	-3.5917	376.683	456.666	148.049	499.757	342.171	185.848	325.766	375.453	457.317	240.343	415.249	491.445	485.725	328.043	362.236	473.166	0.0034494	0.00065759	0.0003426	576.69	1.503e-05	6.1691e-06	866.42	196.44	1.1142e-05	9.2017e-06	357.97	169.55	83.883	46.206	9.3123e-06	100.85	0.0013782	0.001283	0.00035945	559.64	1.374e-05	1.4191e-05	842.4	191.3	1.3531e-05	1.3761e-05	376.5	165.46	82.225	45.383	1.3738e-05	98.527	443.847	245.764	257.117	158.283	264.343	293.279	157.964	162.884	307.879	280.694	161.654	165.900	166.862	170.938	304.318	168.839	-8191	255	
1571.231	1	1	0	0	0.16269	0.29574	0.19155	0.24482	0.044843	0.12731	0.2554	0.20879	0.041951	0.14115	0.26744	0.04983	0.25269	0.37918	0.1422	0.28488	-2.8771	-3.8896	-3.1396	-3.7188	-3.8854	-3.1	-4.0729	-3.7729	-3.2938	-4.1104	-3.1979	-3.6104	-4.0375	-3.2583	-3.8479	-3.85	183.050	298.337	481.718	483.171	360.007	431.645	374.406	247.332	261.121	431.051	373.165	407.950	445.655	423.270	180.045	476.413	0.0036639	0.00089068	0.00011612	573.16	2.9521e-06	7.7278e-06	867.16	198.49	8.6069e-06	4.7533e-06	364.06	171.46	84.691	46.918	1.459e-05	102.33	0.0013986	0.0012636	0.00035357	560.51	1.3343e-05	1.4082e-05	845.25	193.27	1.3646e-05	1.3782e-05	381.42	167.05	82.911	46.115	1.4039e-05	99.537	439.284	253.085	168.812	158.227	161.258	269.253	157.483	163.160	299.450	330.799	161.620	166.158	166.779	171.078	278.641	168.899	-8191	255	
1571.327	1	1	0	0	0.17045	0.17154	0.1619	0.090239	0.11703	0.02729	0.33307	0.10706	0.10536	0.084967	0.13722	0.30302	0.27188	0.12962	0.11591	0.33764	-2.8604	-3.9042	-3.3625	-3.5479	-4.0062	-3.2125	-3.8646	-3.775	-3.2313	-4.0437	-3.3896	-3.5042	-4.1854	-3.4375	-3.6937	-4.1125	452.684	438.031	453.229	446.861	175.694	226.981	159.826	405.321	391.116	234.882	398.653	494.754	280.470	172.241	163.946	458.888	0.0036074	0.00077829	0.00025203	580.08	1.0789e-05	4.8729e-06	876.16	199.55	1.5485e-05	6.7172e-06	361.6	172.42	85.748	47.327	1.0617e-05	102.61	0.0013777	0.0012942	0.00036075	566.23	1.3752e-05	1.4284e-05	852.25	194.62	1.367e-05	1.417e-05	384.98	167.88	83.628	46.279	1.4118e-05	99.957	438.491	212.240	238.396	158.295	296.887	327.175	157.198	163.089	275.060	260.136	161.692	166.191	167.116	171.193	274.654	168.747	-8191	255	
1571.423	1	1	0	0	0.082577	0.10306	0.19745	0.17904	0.057483	0.23362	0.19369	0.30068	0.20902	0.10698	0.15013	0.15608	0.35671	0.040884	0.18262	0.57157	-2.9062	-3.9542	-3.5542	-3.3771	-3.9437	-3.2875	-3.9229	-4.0813	-3.1417	-4.1312	-3.4375	-3.5208	-4.1625	-3.4771	-3.5771	-4.25	169.349	474.121	377.087	474.220	466.038	240.400	432.382	370.956	472.225	223.271	411.414	281.704	368.894	153.944	221.514	458.113	0.0033177	0.00060501	0.00020571	576.21	1.229e-05	9.3432e-06	868.51	198.07	1.5993e-05	9.5116e-06	361.38	169.54	84.544	46.417	4.9224e-06	101.31	0.001401	0.0013139	0.00036628	561.18	1.3858e-05	1.4477e-05	844.18	191.81	1.401e-05	1.4312e-05	379.26	165.16	82.307	45.392	1.4279e-05	98.503	441.635	217.739	216.940	158.177	258.037	282.227	157.671	163.128	281.803	309.736	162.216	166.020	167.415	171.251	234.051	168.782	-8191	255	
1571.520	1	1	0	0	0.13452	0.13483	0.16491	0.14362	0.016284	0.19268	0.22172	0.25777	0.084633	0.10326	0.088177	0.30697	0.12811	0.29623	0.29471	0.26594	-2.9313	-3.8271	-3.7083	-3.2208	-3.9833	-3.4146	-3.6208	-4.1083	-3.2583	-3.9188	-3.6354	-3.3104	-4.0896	-3.6	-3.3896	-4.2458	275.766	401.959	295.332	336.455	206.602	404.129	404.073	445.647	389.750	226.659	173.719	494.533	385.781	410.267	247.361	483.550	0.0037165	0.00068317	0.00013054	571.67	6.8492e-06	7.4845e-06	865.44	196.13	8.0865e-06	7.3953e-06	364.35	170.03	85.144	46.634	4.5125e-06	101.99	0.0014155	0.0013247	0.00036602	558.28	1.3636e-05	1.4475e-05	840.43	190.84	1.3944e-05	1.4452e-05	376.83	165.58	82.632	45.81	1.424e-05	99.203	442.248	203.144	240.246	158.117	262.883	299.000	157.603	163.188	271.116	313.800	161.640	166.161	167.254	171.247	250.258	168.998	-8191	255	
1571.639	1	1	0	0	0.17848	0.090795	0.13902	0.10315	0.17678	0.15445	0.089608	0.079032	0.20217	0.16801	0.097413	0.27288	0.12149	0.083175	0.12857	0.34366	-2.9229	-3.7188	-3.8438	-3.2188	-3.9604	-3.4583	-3.3646	-4.1854	-3.2375	-3.6729	-4.025	-3.4167	-4.075	-3.7146	-3.4021	-4.1625	211.345	250.946	310.573	410.795	274.164	502.886	449.498	445.968	223.779	264.568	278.148	479.393	487.324	308.226	261.232	446.632	0.0034216	0.0010696	0.00036754	577.22	9.862e-06	5.6759e-06	869.41	198.9	1.0611e-05	9.5738e-06	358.38	171.95	85.374	47.012	1.4344e-05	102.79	0.0013905	0.0013013	0.00035972	562.14	1.3528e-05	1.423e-05	844.41	192.84	1.4032e-05	1.419e-05	379.37	167.12	83.281	46.134	1.3892e-05	100.37	439.834	205.854	228.010	158.055	290.505	314.232	158.121	163.453	243.956	298.900	162.054	166.176	167.020	171.182	251.788	169.061	-8191	255	
1571.712	1	1	0	0	0.43076	0.11757	0.11366	0.19195	0.11158	0.23116	0.15558	0.017295	0.20553	0.23406	0.12195	0.18819	0.26112	0.14138	0.048492	0.29731	-2.8958	-3.5375	-3.8708	-2.9813	-3.9792	-3.5583	-3.5625	-4.1625	-3.275	-3.5	-3.9729	-3.3333	-4.0062	-3.8812	-3.3104	-4.2688	194.073	157.411	317.835	423.780	273.006	229.768	176.922	499.296	422.321	302.486	482.028	162.308	442.610	471.342	361.740	485.627	0.0038182	0.00066449	4.3032e-05	579.45	8.63e-06	2.9034e-06	885.33	200.53	1.4209e-05	9.9968e-06	363.96	172.38	86.109	47.183	4.5547e-06	102.85	0.0014146	0.0013267	0.0003569	565	1.3931e-05	1.4057e-05	855.12	195.36	1.3763e-05	1.4055e-05	381.73	167.86	83.925	46.309	1.4282e-05	100.09	446.278	256.703	299.408	158.056	228.410	165.154	158.235	162.894	273.779	300.507	161.845	165.888	167.123	171.091	217.876	168.920	-8191	255	
1571.808	1	1	0	0	0.02206	0.23925	0.10074	0.12422	0.2827	0.23396	0.13071	0.11975	0.11946	0.19531	0.20155	0.18706	0.18424	0.24329	0.058997	0.18864	-2.9146	-3.4313	-3.9604	-3.1937	-3.8312	-3.7438	-3.4188	-4.1312	-3.6104	-3.3187	-4.0417	-3.4271	-3.7875	-3.9042	-3.1167	-4.1167	245.250	228.099	173.498	310.896	155.141	345.842	156.242	200.616	478.767	495.231	423.903	461.249	467.117	496.583	180.643	386.476	0.0036897	0.00092723	0.00021673	571.69	8.4365e-06	5.7758e-06	865.52	196.14	8.5454e-06	9.2892e-06	358.02	168.96	84.315	46.226	3.6891e-06	100.62	0.0014314	0.0012911	0.00036545	558.22	1.3889e-05	1.4325e-05	841.48	190.91	1.4094e-05	1.4422e-05	378.46	164.6	82.088	45.38	1.4344e-05	98.151	440.498	232.120	221.475	158.380	261.082	321.623	157.580	163.258	240.470	308.944	161.100	165.905	167.020	171.086	286.438	169.041	-8191	255	
1571.927	1	1	0	0	0.077046	0.11691	0.1566	0.12365	0.12472	0.14884	0.23436	0.18063	0.048853	0.23685	0.22493	0.33193	0.16394	0.12274	0.044985	0.20575	-3.2875	-3.5146	-4.0458	-3.3187	-3.6875	-3.7396	-3.3312	-4.0396	-3.6854	-3.3125	-3.9938	-3.325	-3.6375	-4.0563	-3.1875	-4.0583	295.759	183.714	314.609	273.525	416.673	294.964	392.838	216.421	370.626	455.654	203.279	492.571	213.870	456.648	209.856	441.490	0.0035278	0.00074672	0.00035006	566.86	6.7183e-06	7.9573e-06	862.86	194.14	8.6204e-06	5.3165e-06	363.98	168.57	83.887	46.281	1.0183e-05	100.76	0.0014058	0.0013362	0.00036749	553.32	1.3782e-05	1.4369e-05	836.79	189.46	1.3952e-05	1.434e-05	377.28	164.11	81.652	45.324	1.433e-05	98.204	443.371	268.078	215.937	157.828	294.874	306.428	157.800	163.314	302.444	336.308	160.975	165.774	167.208	171.137	249.410	169.207	-8191	255	
1572.023	1	1	0	0	0.23827	0.1044	0.36531	0.092677	0.23852	0.14169	0.36556	0.1156	0.21525	0.016141	0.17113	0.25307	0.065695	0.26347	0.05772	0.14676	-3.2854	-3.2062	-3.8979	-3.2542	-3.4208	-3.9521	-3.4208	-3.9833	-3.6958	-3.3688	-4.1646	-3.5312	-3.5312	-4.0667	-3.3458	-4.0167	305.253	158.947	451.681	364.530	388.585	279.628	410.983	476.145	148.231	410.180	191.557	426.616	350.370	178.228	298.440	422.753	0.0033482	0.00063613	0.00027583	565	8.6171e-06	8.3383e-06	863.32	195.54	2.0966e-05	9.5682e-06	356.21	169.66	84.047	46.61	6.0957e-06	101.51	0.0014154	0.0013295	0.00036978	554.87	1.367e-05	1.4139e-05	839.24	190.42	1.4007e-05	1.4895e-05	377.8	164.98	82.035	45.518	1.4573e-05	98.992	441.984	238.155	227.300	158.476	285.235	272.097	157.883	163.308	274.429	294.849	162.460	166.078	167.091	171.217	245.476	169.285	-8191	255	
1572.119	1	1	0	0	0.028733	0.063439	0.17416	0.1858	0.20568	0.056531	0.097361	0.30067	0.1641	0.15212	0.18944	0.061091	0.22922	0.095776	0.18785	0.16875	-3.3688	-3.3312	-3.9667	-3.5563	-3.4021	-4.1687	-3.2792	-3.9	-3.9146	-3.2896	-3.9	-3.7625	-3.2875	-4.1937	-3.2021	-3.5896	327.380	379.674	456.081	145.779	186.582	394.410	443.803	417.955	149.355	499.269	249.222	450.153	309.358	464.596	179.198	446.267	0.0037322	0.00038782	0.00011099	574.54	8.7393e-06	1.1502e-05	869.93	199.93	1.5097e-05	8.1928e-06	358.31	170.99	84.583	46.897	1.1283e-05	101.51	0.0014261	0.0013179	0.00036893	560.31	1.3855e-05	1.4547e-05	844.84	193.5	1.3861e-05	1.474e-05	380.69	166.45	82.813	45.893	1.465e-05	98.951	439.086	284.875	420.037	158.131	280.744	298.806	157.764	163.561	297.027	295.434	161.120	165.702	167.170	171.485	310.268	169.416	-8191	255	
1572.215	1	1	0	0	0.18064	0.0976	0.18357	0.02245	0.14812	0.17386	0.26354	0.33036	0.15348	0.092021	0.18029	0.21364	0.2065	0.3673	0.15488	0.30073	-3.3979	-3.2021	-3.9437	-3.8021	-3.2854	-4.125	-3.4896	-3.6667	-4.1479	-3.2333	-4.0375	-3.9125	-3.275	-4.1708	-3.4188	-3.7146	462.642	204.916	485.153	503.643	443.921	232.596	167.926	395.710	490.576	182.289	332.065	435.649	460.313	151.419	471.523	497.132	0.0035692	0.00067558	0.0002303	565.12	5.3172e-06	7.4311e-06	862.98	195.31	9.8866e-06	6.2108e-06	360.57	167.48	82.868	45.668	1.0411e-05	99.158	0.0014448	0.0013455	0.00038134	556.44	1.4633e-05	1.4962e-05	837.73	189.54	1.4259e-05	1.4918e-05	374.12	162.57	81.147	44.731	1.4574e-05	96.716	439.897	250.752	202.738	158.499	246.797	230.511	157.809	163.242	278.087	304.653	162.968	166.265	167.329	171.190	281.458	169.083	-8191	255	
1572.312	1	1	0	0	0.17329	0.068707	0.21185	0.030209	0.18038	0.24849	0.11747	0.18621	0.065748	0.14222	0.091322	0.10127	0.10354	0.15814	0.020455	0.32471	-3.6188	-3.2042	-3.8688	-3.9083	-3.0604	-4.0312	-3.8417	-3.4729	-3.9708	-3.3083	-3.5563	-3.875	-3.2333	-4.1542	-3.7271	-3.4854	232.359	377.606	446.113	243.110	306.571	280.381	258.896	430.555	218.092	173.680	244.582	390.646	392.676	181.326	386.428	450.716	0.0035456	0.00046233	0.00018883	567.48	6.0192e-06	7.1409e-06	866.35	192.93	1.668e-05	6.9812e-06	346.97	166.42	83.33	45.648	7.1836e-06	99.46	0.0014314	0.0013559	0.00038026	555.26	1.4582e-05	1.4608e-05	836.42	188.51	1.3949e-05	1.4609e-05	372.64	162.63	81.055	44.667	1.4441e-05	96.808	442.787	304.120	233.627	158.155	195.359	289.781	157.862	163.407	291.964	270.397	162.827	166.385	167.271	171.350	293.076	169.483	-8191	255	
1572.408	1	1	0	0	0.30296	0.23068	0.27814	0.18214	0.11076	0.20558	0.11028	0.23654	0.32083	0.26245	0.13181	0.15442	0.38212	0.074141	0.21057	0.30829	-3.6917	-3.2354	-3.7979	-3.9375	-3.3729	-3.9625	-3.8771	-3.5438	-4.0958	-3.4396	-3.5417	-4.1958	-3.2125	-4	-3.8875	-3.3	237.592	383.171	302.305	181.837	176.564	328.767	209.151	487.692	375.424	433.619	333.844	458.833	419.976	397.881	165.194	484.982	0.0035917	0.00071784	0.00023293	570.56	4.262e-06	4.8809e-06	870.65	194.67	1.4379e-05	6.055e-06	357.13	167.75	83.433	45.974	3.7116e-06	99.847	0.0013948	0.0013263	0.00037012	555.93	1.412e-05	1.4458e-05	841.91	189.82	1.4176e-05	1.4719e-05	374.47	163.28	81.585	44.847	1.4408e-05	97.192	439.155	249.268	250.353	157.943	302.992	325.805	158.160	163.224	293.387	327.989	162.986	166.665	167.653	172.019	294.033	169.283	-8191	255	
1572.528	1	1	0	0	0.16893	0.056067	0.24044	0.31963	0.071254	0.13136	0.15214	0.046768	0.075489	0.18024	0.16489	0.058976	0.34212	0.10115	0.092294	0.24069	-3.8812	-3.45	-3.6771	-4.1771	-3.2229	-3.8063	-3.9458	-3.3292	-3.95	-3.5083	-3.4396	-4.0771	-3.3125	-4.0042	-3.6958	-3.3688	476.596	357.975	256.359	501.073	209.921	501.959	484.652	262.719	329.657	343.934	152.440	392.311	500.553	486.896	286.290	505.384	0.0037358	0.00064435	0.00011148	572.65	1.2665e-05	1.4802e-05	871.03	196.59	1.5478e-05	8.2075e-06	356.03	170.05	84.197	46.161	1.4226e-05	99.595	0.0014499	0.0013399	0.00038059	561.29	1.4353e-05	1.4886e-05	844.66	191.86	1.3991e-05	1.4947e-05	378.42	165.26	82.069	45.189	1.3906e-05	97.34	440.133	258.173	178.302	158.484	267.533	263.851	157.713	163.433	216.364	294.205	162.333	166.469	167.373	171.449	240.761	169.165	-8191	255	
1572.624	1	1	0	0	0.22132	0.10452	0.067457	0.17838	0.14804	0.0049005	0.20013	0.11202	0.30291	0.064009	0.062193	0.16304	0.15977	0.18969	0.12487	0.20453	-3.6583	-3.4813	-3.3271	-4.2292	-3.3083	-3.6333	-4.0813	-3.2958	-4.0292	-3.6021	-3.3125	-4.0583	-3.1437	-3.7104	-3.8417	-3.2917	268.356	208.023	401.446	462.995	196.550	199.068	389.059	450.022	160.398	155.016	233.703	491.155	464.021	205.293	278.279	465.136	0.0033997	0.00064311	0.0001604	569.31	6.8383e-06	6.5519e-06	866.9	194.08	1.3343e-05	5.5706e-06	349.2	165.43	82.32	44.81	1.0156e-05	96.627	0.0014344	0.0012872	0.0003719	557.29	1.4124e-05	1.4683e-05	836.66	188.55	1.3839e-05	1.4255e-05	371.63	160.87	80.127	43.858	1.4306e-05	94.39	444.267	211.426	309.902	158.288	308.164	289.945	157.919	163.331	281.522	281.982	162.557	166.499	167.666	171.634	286.864	169.516	-8191	255	
1572.719	1	1	0	0	0.081519	0.092783	0.16708	0.14506	0.090787	0.12422	0.024342	0.23556	0.065372	0.22649	0.19146	0.14276	0.13478	0.07155	0.067584	0.28708	-3.5125	-3.7375	-3.3292	-4.0729	-3.3979	-3.7188	-4.1104	-3.2896	-3.9729	-3.7042	-3.3063	-4.1813	-3.6292	-3.6167	-3.9562	-3.5458	319.609	463.639	300.493	430.402	156.323	422.990	483.949	217.453	153.210	293.590	257.782	494.535	182.306	214.479	366.936	427.874	0.0035459	0.00054348	0.00010517	567.41	5.3605e-06	5.2571e-06	854.72	192.45	1.8478e-05	5.0327e-06	352.85	164.87	82.199	44.624	1.1981e-05	97.157	0.0014046	0.0013108	0.00036289	552.77	1.3998e-05	1.4503e-05	831.25	186.71	1.373e-05	1.4374e-05	370.47	160.58	79.866	43.787	1.4207e-05	94.578	440.645	278.950	223.926	158.237	270.460	301.361	157.984	163.435	283.044	325.222	162.474	166.434	167.173	171.727	279.496	169.374	-8191	255	
1572.817	1	1	0	0	0.11654	0.13783	0.11864	0.15355	0.14785	0.11811	0.23185	0.13709	0.15469	0.1999	0.13902	0.17098	0.063752	0.13498	0.155	0.070647	-3.4813	-3.9688	-3.1021	-4.175	-3.5583	-3.5208	-4.2417	-3.3792	-3.7771	-3.9917	-3.2125	-4.1604	-3.5729	-3.6271	-4.1792	-3.4958	307.130	197.830	360.634	416.090	379.323	197.289	408.938	252.406	397.007	371.371	331.454	204.466	402.022	477.088	191.007	464.705	0.0035739	0.00038565	0.00015893	567.61	1.0246e-05	6.8732e-06	865.23	192.66	1.0433e-05	3.927e-06	354.22	165.51	82.229	44.574	3.3574e-06	98.178	0.001419	0.0013195	0.00037131	554.3	1.3928e-05	1.4492e-05	836.38	187.52	1.4009e-05	1.4333e-05	373.29	161.19	80.307	43.853	1.4552e-05	95.547	440.993	186.358	256.750	158.683	292.072	331.608	158.271	163.700	261.704	323.836	163.057	166.680	167.659	171.753	284.248	169.475	-8191	255	
1572.936	1	1	0	0	0.055015	0.044295	0.089763	0.46167	0.17669	0.2302	0.26685	0.28277	0.25817	0.18545	0.080166	0.052503	0.17712	0.2235	0.065929	0.43275	-3.3667	-3.9333	-3.2292	-3.9021	-3.5208	-3.4271	-4.3292	-3.6188	-3.5938	-3.9667	-3.3958	-3.8979	-3.9146	-3.4646	-4.0542	-3.6	148.034	190.953	161.748	503.386	413.228	275.229	498.077	501.477	392.769	437.130	411.740	391.579	484.476	490.198	429.628	435.299	0.0036218	0.00038235	0.00028299	572.94	8.9931e-06	4.2251e-06	862.05	195.27	1.7163e-05	5.1255e-06	358.68	167.82	82.759	45.381	1.4754e-05	98.259	0.0014236	0.0013361	0.00036591	558.3	1.4035e-05	1.4546e-05	839.22	190.52	1.4138e-05	1.4346e-05	375.6	163.54	81.171	44.521	1.431e-05	96.223	441.394	475.903	216.852	158.882	283.700	353.354	158.224	163.649	265.417	369.730	162.132	166.324	167.538	171.900	265.478	169.492	-8191	255	
1573.007	1	1	0	0	0.26598	0.14031	0.35832	0.083732	0.1675	0.13683	0.25396	0.21376	0.17937	0.095306	0.24883	0.10731	0.20955	0.23341	0.18117	0.060629	-3.0521	-3.8333	-3.3333	-3.9458	-3.9125	-3.4021	-4.2729	-3.6229	-3.45	-4.0125	-3.2104	-3.9938	-3.9562	-3.1521	-4.0333	-3.8167	184.567	289.317	459.952	464.245	335.540	180.151	429.147	146.760	172.211	202.417	191.711	212.049	214.458	498.061	361.190	430.910	0.0034992	0.00051475	0.00015433	572.4	7.8627e-06	2.6427e-06	862.84	194.04	1.2167e-05	5.3609e-06	355.07	165.68	82.794	44.925	8.1943e-06	97.791	0.0014049	0.0013254	0.00036714	558.49	1.3592e-05	1.424e-05	838.42	188.4	1.3693e-05	1.4028e-05	372.39	161.61	80.51	44.074	1.3741e-05	95.351	442.338	217.299	169.359	158.643	280.426	254.387	158.016	163.448	309.334	272.532	162.491	166.399	167.238	171.649	267.806	169.239	-8191	255	
1573.104	1	1	0	0	0.086893	0.27027	0.25653	0.076023	0.084117	0.07627	0.16684	0.28967	0.077775	0.099933	0.228	0.13141	0.29715	0.047293	0.079666	0.12479	-2.9896	-4.0021	-3.3854	-3.8354	-3.8292	-3.2687	-4.125	-3.5792	-3.1688	-4.1	-3.1417	-3.8792	-3.9625	-3.3937	-3.8854	-3.9188	284.866	158.966	181.516	273.978	260.895	405.392	482.518	420.678	452.566	354.319	493.768	458.186	503.879	484.503	306.742	360.793	0.0035592	0.00047078	0.00021878	567.6	8.8713e-06	4.7795e-06	861.92	193.61	5.7732e-06	6.7054e-06	351.97	167.2	82.601	45.316	1.3876e-05	98.191	0.0013869	0.0013065	0.00035595	553.07	1.3528e-05	1.4434e-05	834.02	188.11	1.3377e-05	1.373e-05	370.96	162.35	80.493	44.354	1.3973e-05	96.018	439.041	265.991	219.000	158.899	303.952	277.685	158.129	163.674	352.233	301.989	162.500	166.531	167.231	171.649	265.090	169.454	-8191	255	
1573.200	1	1	0	0	0.076745	0.085213	0.26223	0.11602	0.30807	0.056077	0.083549	0.41934	0.16555	0.030215	0.33476	0.11978	0.17234	0.025767	0.1735	0.31688	-2.8292	-3.9708	-3.3417	-3.5792	-3.8958	-3.1375	-4.1312	-3.6896	-3.2938	-4.1479	-3.5104	-3.6188	-4.1333	-3.3688	-3.9625	-4.0479	488.385	365.172	147.483	175.513	182.656	224.077	477.364	483.300	457.079	412.173	379.299	152.419	442.082	456.099	168.864	431.379	0.0036141	0.00074685	0.00030564	568.67	9.7453e-06	2.4221e-06	857.31	195.85	8.13e-06	4.0699e-06	356.95	167.62	83.602	45.799	7.8198e-06	99.418	0.0013873	0.0012878	0.0003585	554.65	1.3224e-05	1.3853e-05	834.45	190.11	1.358e-05	1.3992e-05	373	163.45	81.303	44.764	1.352e-05	96.965	442.026	263.891	243.206	158.804	273.762	285.906	158.445	163.511	258.758	306.002	162.041	166.919	167.782	171.808	280.882	169.537	-8191	255	
1573.320	1	1	0	0	0.060363	0.13513	0.039978	0.18593	0.17099	0.18265	0.28557	0.22757	0.26243	0.24064	0.071626	0.23009	0.18167	0.25536	0.15176	0.24926	-3.0062	-4.1792	-3.4292	-3.5312	-4.0479	-3.2667	-3.9229	-3.9875	-3.2708	-3.9917	-3.5	-3.4229	-4.0417	-3.4875	-3.7417	-4.1729	340.445	503.740	168.442	428.280	293.431	305.510	370.018	436.927	491.762	246.312	478.670	434.222	412.894	197.395	275.280	445.794	0.0032751	0.00033631	0.00019023	577.54	7.8319e-06	5.0733e-06	869.31	197.94	7.2183e-06	8.1408e-06	363.79	168.61	83.099	45.952	9.739e-06	99.656	0.0013819	0.0012809	0.00035721	558.8	1.3469e-05	1.4012e-05	843.05	191.42	1.4118e-05	1.4219e-05	379.09	164.17	81.526	44.901	1.3877e-05	97.118	444.366	217.401	235.744	158.473	272.825	267.654	157.998	163.749	275.022	294.754	162.583	166.734	167.635	171.752	276.931	169.348	-8191	255	
1573.416	1	1	0	0	0.094712	0.24098	0.17273	0.14626	0.021503	0.22428	0.22057	0.046086	0.1826	0.098992	0.1381	0.1592	0.065036	0.20168	0.16625	0.36813	-2.9896	-3.9667	-3.7667	-3.55	-4.1875	-3.5583	-3.95	-4.0208	-3.3021	-4.0813	-3.7417	-3.4708	-4.0354	-3.5479	-3.55	-4.2	176.881	405.490	286.016	238.345	221.628	258.364	405.905	204.483	344.643	466.867	190.724	377.077	389.606	449.040	257.420	473.034	0.0035398	0.00047618	0.00020249	577.12	1.2009e-05	5.5739e-06	865.47	194.79	1.0042e-05	2.4665e-06	348.41	165.83	82.148	44.645	7.7365e-06	96.972	0.001394	0.0012745	0.00035975	559.55	1.3787e-05	1.4124e-05	839.26	188.81	1.3671e-05	1.3717e-05	370.45	161.15	80.178	43.714	1.372e-05	94.629	441.700	262.896	226.634	158.586	251.373	334.175	158.222	163.207	303.604	386.523	162.143	166.791	167.368	171.499	283.588	169.162	-8191	255	
1573.513	1	1	0	0	0.079208	0.11056	0.044597	0.066798	0.17921	0.10551	0.1475	0.069811	0.059219	0.026358	0.177	0.26477	0.20228	0.22409	0.22441	0.17722	-2.7917	-3.8875	-3.8229	-3.4292	-4.1021	-3.6146	-3.6104	-4.1813	-3.2292	-3.8854	-3.7438	-3.4333	-4.0458	-3.7417	-3.4417	-4.2396	497.407	448.109	159.951	158.856	355.517	499.741	310.014	383.618	385.486	219.137	481.704	499.736	446.430	188.529	441.751	408.641	0.0033717	0.00028806	0.00020968	565.89	5.1707e-06	1.7148e-06	858.89	193.22	1.2266e-05	3.9752e-06	357.83	164.88	81.956	44.67	8.9436e-06	97.616	0.0013594	0.0012642	0.00035955	552.86	1.3617e-05	1.4014e-05	832.65	187.63	1.371e-05	1.3975e-05	371.04	160.52	79.756	43.726	1.3909e-05	95.179	442.757	172.470	221.446	158.725	296.116	192.323	158.057	163.481	266.634	303.201	162.009	166.719	167.822	171.899	261.780	169.620	-8191	255	
1573.609	1	1	0	0	0.025982	0.13523	0.14709	0.29017	0.17333	0.18254	0.098488	0.052602	0.071474	0.17186	0.10289	0.071651	0.18637	0.16843	0.087143	0.25245	-2.9062	-3.7979	-3.9375	-3.3688	-4.1083	-3.4167	-3.5333	-4.1562	-3.4604	-3.6542	-3.8896	-3.0479	-4.0396	-3.8354	-3.2708	-4.1667	302.802	202.582	487.056	419.718	209.802	483.397	485.139	478.613	216.609	152.345	417.727	385.672	468.226	423.964	212.846	394.558	0.0033873	0.0011196	5.8179e-05	569.18	5.0091e-06	7.8116e-06	868.9	194.31	1.5179e-05	5.4911e-06	350.88	166.56	82.488	45.204	4.8456e-06	98.61	0.0013464	0.0012651	0.00035014	555.11	1.3114e-05	1.3784e-05	840.55	189.35	1.3526e-05	1.405e-05	370.39	162.16	80.444	44.242	1.3677e-05	96.152	443.750	239.486	306.805	159.227	292.060	268.921	158.879	163.667	259.959	304.097	163.154	167.121	168.178	171.813	243.807	169.780	-8191	255	
1573.705	1	1	0	0	0.1515	0.25496	0.16714	0.065286	0.1046	0.26043	0.19201	0.12754	0.13357	0.11603	0.14001	0.25462	0.17915	0.19849	0.13566	0.12022	-2.9146	-3.45	-3.9396	-3.25	-3.9062	-3.6188	-3.3979	-4.0896	-3.4208	-3.7	-4.0437	-3.4125	-4	-3.9375	-3.2438	-4.2021	422.711	477.788	153.025	321.955	370.221	458.615	390.039	464.401	424.441	257.881	234.851	477.059	334.483	489.746	216.575	499.917	0.0033416	0.00075133	0.00012072	578.36	7.8301e-06	6.1457e-06	876.16	197.81	1.6428e-05	1.0394e-05	354.37	169.99	84.17	46.13	7.9791e-06	99.601	0.0013665	0.0012672	0.00035312	562.84	1.3354e-05	1.3685e-05	849.85	192.24	1.2979e-05	1.3789e-05	375.53	165.26	82.141	45.029	1.3532e-05	97.537	445.841	240.439	187.419	159.297	312.585	226.271	158.257	164.153	266.780	303.646	161.634	167.031	168.001	172.215	262.426	169.678	-8191	255	
1573.799	1	1	0	0	0.10426	0.13705	0.17578	0.025338	0.22231	0.097049	0.092037	0.070793	0.047374	0.18551	0.10993	0.34488	0.084817	0.27567	0.03238	0.55945	-3.0146	-3.3063	-4.075	-3.3271	-3.7771	-3.8854	-3.2938	-3.9688	-3.5875	-3.4292	-3.9625	-3.5563	-3.8583	-4.0167	-3.4104	-4.1583	251.830	273.885	233.129	207.527	414.220	182.608	503.054	188.754	341.300	350.352	361.174	172.209	403.156	503.745	339.277	416.505	0.0033968	0.00090082	8.6598e-05	576.95	8.6413e-06	6.1201e-06	869.26	197.04	9.0818e-06	3.8946e-06	354.61	167.71	82.957	45.478	1.2992e-05	98.854	0.0013316	0.0012274	0.00035065	561.41	1.3307e-05	1.3715e-05	843.65	191.06	1.3227e-05	1.3709e-05	372.56	162.88	80.877	44.351	1.3931e-05	96.139	440.332	270.923	246.275	159.066	271.084	275.656	158.500	164.437	281.848	282.662	162.765	167.231	167.918	172.363	247.390	169.893	-8191	255	
1573.897	1	1	0	0	0.074958	0.048845	0.26781	0.081032	0.035469	0.07245	0.20799	0.2704	0.12829	0.22646	0.077284	0.2482	0.15682	0.1797	0.053145	0.20325	-3.2188	-3.3271	-4.0542	-3.5187	-3.6271	-3.8792	-3.3563	-4.0042	-3.8771	-3.35	-4.0583	-3.55	-3.5312	-4.0896	-3.2062	-4.0479	315.460	324.626	217.507	422.051	457.868	365.640	339.409	429.586	347.063	402.328	385.512	411.981	486.652	478.242	425.973	477.645	0.0034762	0.0010204	0.00016068	566.53	8.5364e-06	8.0657e-06	864.68	195.02	1.889e-05	1.0621e-05	355.41	167.11	83.131	45.465	6.0575e-06	98.192	0.0013577	0.0012449	0.00034237	553.69	1.3322e-05	1.3909e-05	835.71	189.14	1.3106e-05	1.3673e-05	371.09	162.17	80.708	44.338	1.3624e-05	95.969	441.230	226.336	203.786	158.708	316.006	273.710	158.539	164.223	240.152	289.207	163.162	166.632	167.850	172.009	269.849	169.876	-8191	255	
1574.016	1	1	0	0	0.1043	0.31238	0.10486	0.17768	0.27574	0.043356	0.30886	0.30839	0.26474	0.054169	0.15043	0.14937	0.14449	0.12409	0.13892	0.15878	-3.3271	-3.2188	-3.9875	-3.5521	-3.4875	-4.0083	-3.4625	-3.8312	-3.6521	-3.1771	-3.8833	-3.5875	-3.4333	-4.3396	-3.3875	-3.9896	227.351	281.589	416.387	411.964	459.873	379.821	413.060	487.833	370.819	203.111	392.033	431.870	153.560	388.741	277.938	381.727	0.003538	0.00038907	0.00025108	568.24	8.4018e-06	6.2391e-06	864.06	194.6	7.62e-06	4.4722e-06	353.72	167.94	83.688	45.787	1.1733e-05	98.941	0.0013652	0.0012685	0.00034948	554.59	1.3214e-05	1.3715e-05	836.8	190.25	1.3348e-05	1.3729e-05	372.61	162.89	81.481	44.712	1.3468e-05	96.899	438.723	241.008	236.292	159.045	285.310	325.807	158.567	163.806	321.426	271.078	162.550	166.460	167.486	171.730	247.094	169.530	-8191	255	
1574.112	1	1	0	0	0.14375	0.14101	0.21118	0.30773	0.080457	0.19812	0.10847	0.071851	0.15034	0.14434	0.17235	0.16279	0.10412	0.16989	0.11617	0.27295	-3.5646	-3.2604	-4.0542	-3.7229	-3.3542	-4.0854	-3.4021	-3.6937	-3.9542	-3.2271	-4.0583	-3.8	-3.3896	-4.0604	-3.4313	-3.7729	325.634	321.174	229.442	496.189	208.774	298.747	452.371	395.947	235.696	182.782	266.952	148.159	229.673	353.109	193.794	405.293	0.0034904	0.00027125	0.00027483	570.99	5.4854e-07	1.0365e-05	866.58	196.9	1.206e-05	7.5708e-06	365.78	168.87	84.167	45.686	4.4705e-06	99.7	0.0013643	0.001268	0.00035425	557.51	1.3396e-05	1.3906e-05	843.2	191.71	1.3292e-05	1.386e-05	378.04	164.55	82.006	44.798	1.3756e-05	97.207	441.452	402.497	221.224	158.693	354.060	334.629	158.082	163.279	296.210	262.303	161.708	166.029	167.451	171.511	301.794	169.313	-8191	255	
1574.208	1	1	0	0	0.076571	0.030294	0.084853	0.1754	0.16913	0.18811	0.10062	0.089053	0.072846	0.010667	0.31372	0.091013	0.18568	0.11001	0.065748	0.41062	-3.5354	-3.375	-3.8896	-3.5646	-3.2875	-4.0062	-3.4542	-3.5417	-4.0375	-3.3958	-3.8208	-3.8792	-3.3458	-4.1188	-3.4	-3.6813	197.601	156.990	192.997	325.586	245.926	282.308	503.664	480.426	151.146	385.528	231.335	353.580	178.063	466.336	479.382	495.392	0.0036152	0.00040907	0.00022619	574.61	6.8375e-06	8.9423e-06	867.42	195.78	1.3145e-05	5.3875e-06	350.17	166.25	82.71	44.94	7.0239e-06	97.966	0.0013668	0.0012843	0.00035723	558.98	1.3157e-05	1.3922e-05	841.13	189.69	1.3223e-05	1.3919e-05	372.36	161.89	80.605	44.112	1.3349e-05	95.547	443.001	209.184	222.419	158.115	298.081	338.019	157.457	163.388	268.411	285.486	161.861	166.098	166.801	171.417	272.372	169.113	-8191	255	
1574.305	1	1	0	0	0.17506	0.051136	0.11821	0.069493	0.26561	0.10208	0.11929	0.16067	0.077976	0.14453	0.14022	0.20706	0.14365	0.11474	0.11317	0.39866	-3.8	-3.2229	-3.85	-3.8688	-3.3063	-4.1125	-3.7646	-3.4521	-4.1979	-3.5125	-3.7313	-4.1271	-3.2104	-4.1083	-3.5812	-3.4979	392.818	275.932	350.477	235.951	441.983	174.887	410.902	381.588	257.752	148.197	322.998	456.311	194.870	436.148	170.916	416.987	0.0034574	0.00056324	0.00022382	569.61	8.1623e-06	8.8965e-06	858.93	192.98	9.825e-06	7.5545e-06	352.32	165.31	82.591	44.881	7.4222e-06	97.966	0.0013512	0.0012575	0.00034047	552.7	1.3176e-05	1.3874e-05	834.22	188.15	1.3359e-05	1.3913e-05	370.01	161.09	80.425	44.015	1.3259e-05	95.679	444.043	223.552	240.961	158.277	293.484	314.237	157.571	162.992	297.344	292.629	161.650	166.106	166.748	171.211	268.832	169.110	-8191	255	
1574.401	1	1	0	0	0.088648	0.12089	0.080377	0.084872	0.15364	0.092226	0.23485	0.2104	0.084516	0.05701	0.20638	0.2278	0.098792	0.07627	0.31381	0.27526	-3.6229	-3.5125	-3.5604	-4.0354	-3.0583	-3.9604	-3.9146	-3.4583	-4.0292	-3.3417	-3.6042	-4.2229	-3.1979	-3.7854	-3.6688	-3.5563	255.546	382.706	465.025	502.973	494.246	328.237	397.770	148.577	377.812	193.058	270.306	434.939	483.390	276.753	369.237	452.499	0.003583	0.00035398	0.00011713	569.71	6.1248e-06	7.0947e-06	863.46	194.64	9.6821e-06	3.6124e-06	353.8	167.28	83.919	45.415	9.2045e-06	99.041	0.0013515	0.0012667	0.00034289	554.32	1.3062e-05	1.3596e-05	836.3	189.77	1.3371e-05	1.355e-05	370.3	163.15	81.231	44.652	1.3405e-05	96.753	444.788	297.719	198.185	158.057	246.219	310.829	157.886	163.038	286.659	304.961	162.307	165.893	167.421	171.225	287.755	169.259	-8191	255	
1574.497	1	1	0	0	0.09675	0.16197	0.24938	0.15	0.15948	0.064908	0.039042	0.11229	0.2418	0.085637	0.15903	0.28905	0.1747	0.14892	0.10818	0.36307	-3.7438	-3.5	-3.5521	-4.0813	-3.2479	-3.8146	-3.9167	-3.3479	-4.1292	-3.6104	-3.4813	-4.1646	-3.5125	-3.9979	-3.9313	-3.3063	237.636	473.605	270.512	173.950	454.652	483.064	419.027	476.605	459.440	473.216	360.838	454.081	203.624	454.797	329.518	439.067	0.0035904	0.00064492	0.00028926	573.7	6.7254e-06	1.2668e-05	872.87	197.33	1.0712e-05	3.4783e-06	353.08	169.21	84.549	45.894	3.3364e-06	100.35	0.0013617	0.0012584	0.00034536	559.92	1.3575e-05	1.3682e-05	845.59	191.73	1.3396e-05	1.3815e-05	375.18	165.04	82.333	45.05	1.3478e-05	97.808	441.911	299.594	218.466	158.488	284.272	310.777	158.096	163.093	265.313	308.493	161.796	166.359	167.030	171.517	203.651	169.010	-8191	255	
1574.617	1	1	0	0	0.1963	0.057604	0.1067	0.12207	0.092392	0.21171	0.13775	0.15561	0.268	0.31561	0.13975	0.18061	0.23845	0.11517	0.30924	0.43185	-3.6688	-3.6042	-3.3812	-4.15	-3.1813	-3.7687	-4.1438	-3.4188	-3.9625	-3.8438	-3.2	-4.1438	-3.4333	-3.7438	-4.0521	-3.4125	362.606	404.832	219.578	232.232	151.825	432.501	481.233	487.810	217.174	258.762	278.573	477.893	453.031	382.274	417.237	449.519	0.0035094	7.4589e-05	0.00012484	576.71	8.8712e-06	1.4923e-05	871.45	195.86	1.291e-05	9.6623e-06	354.07	167.22	83.102	45.217	1.4023e-05	97.819	0.0013614	0.0012444	0.00034893	560.47	1.3472e-05	1.3405e-05	845.08	191.19	1.3063e-05	1.3501e-05	373.72	163.01	80.877	44.24	1.3498e-05	95.844	444.737	330.657	258.022	158.454	283.890	302.205	157.760	163.031	307.220	275.543	162.294	166.086	166.957	171.408	276.073	169.163	-8191	255	
1574.712	1	1	0	0	0.070199	0.20658	0.092381	0.3784	0.2101	0.080971	0.29666	0.20964	0.14406	0.11891	0.12708	0.135	0.18156	0.17321	0.11765	0.3874	-3.375	-3.7208	-3.3042	-4.1021	-3.4771	-3.4437	-4.2438	-3.3792	-3.8583	-3.8521	-3.4542	-4.0896	-3.4729	-3.5271	-4.1167	-3.5208	165.669	316.567	367.672	405.190	407.530	385.423	385.570	495.547	199.400	295.708	226.972	465.943	268.396	172.223	448.589	458.222	0.003389	0.00056594	0.00026821	566.92	8.3167e-06	6.0531e-06	861.95	194.43	8.8017e-06	8.1967e-06	349.29	166.52	83.404	45.43	5.5415e-06	98.758	0.00131	0.0012293	0.00034665	555.91	1.3153e-05	1.3451e-05	837.91	189.17	1.3312e-05	1.3369e-05	370.16	162.53	80.827	44.338	1.3216e-05	96.258	442.773	196.600	251.277	158.366	326.198	319.697	157.395	163.277	285.473	293.322	161.853	166.275	167.125	171.253	249.699	169.004	-8191	255	
1574.808	1	1	0	0	0.12367	0.040249	0.254	0.12268	0.12187	0.15155	0.22606	0.056759	0.26414	0.04126	0.277	0.16789	0.11485	0.23015	0.11781	0.042923	-3.1917	-3.7938	-3.3563	-3.9688	-3.6229	-3.4104	-4.2125	-3.2938	-3.6042	-3.7396	-3.2083	-4.3063	-3.7479	-3.4958	-4.0604	-3.4813	450.765	386.090	325.650	276.725	372.918	310.789	427.842	488.699	278.918	246.349	464.159	490.055	453.974	505.030	457.974	473.581	0.0034633	0.00084355	0.00017684	568.56	4.5421e-06	4.2811e-06	871.3	195.08	1.4493e-05	7.3429e-06	351.2	167.87	83.815	45.533	1.3639e-05	99.393	0.0013317	0.0012429	0.0003422	556.83	1.3119e-05	1.3438e-05	842.67	190.21	1.304e-05	1.335e-05	372.35	163.27	81.369	44.488	1.3337e-05	97.087	440.036	235.270	227.761	158.618	237.180	259.257	157.821	163.440	270.893	343.652	162.311	166.374	167.190	171.552	245.308	169.105	-8191	255	
1574.881	1	1	0	0	0.26377	0.14161	0.23326	0.19295	0.15675	0.20881	0.25747	0.20884	0.12572	0.16186	0.098487	0.31548	0.084288	0.17704	0.12298	0.21756	-3.2271	-4.0958	-3.3042	-3.9271	-3.7021	-3.4104	-4.1146	-3.5479	-3.6479	-4.0458	-3.25	-4.0875	-3.7729	-3.2313	-4.0583	-3.7521	444.942	486.961	298.031	469.836	283.809	195.062	480.666	456.162	386.537	443.331	359.511	485.289	491.591	486.244	192.625	466.088	0.0035404	0.00070148	0.00018004	573.18	1.5199e-05	2.2272e-06	874.12	197.8	1.0591e-05	8.7526e-06	362.26	171.22	84.294	46.046	2.1274e-06	100.47	0.0013411	0.001226	0.00033509	558.89	1.2955e-05	1.3409e-05	845.74	192.28	1.2886e-05	1.3221e-05	376.68	165.75	82.246	45.111	1.332e-05	97.934	442.540	247.111	205.189	158.569	275.451	319.041	157.876	163.428	232.458	328.981	161.643	166.308	167.182	171.498	320.552	169.187	-8191	255	
#DATA ENDS
