BOXY.EXE: ISS Imagent and Oximeter Data Acquisition Program Version 0.80
Ascii Record File

#ACQ INFORMATION
2  Detector Channels 
16  External MUX Channels 
1  Auxiliary Channels 
5000  Waveform (CCF) Frequency (Hz)
1  Waveforms Skipped 
30  Waveforms Averaged 
1  Cycles Averaged 
16  Acquisitions per Waveform 
10.0806  Updata Rate (Hz) 

#FILE INFORMATION
TRUE -- External MUX Channel results are PARSED.
FALSE -- AC DC and Phase are NOT grouped.
TRUE -- Companion Program Settings File CREATED.
FALSE -- AC data not excluded
FALSE -- DC data not excluded
FALSE -- Phase data not excluded
FALSE -- Auxillary Chn. data not excluded
Tab delimiters

#CALIBRATION STATE
TRUE -- Waveform Calibration Values APPLIED.


#AUX CALIBRATION VALUES
Val Type	aux-1	

Term	1.0000e+00	
Factor	0.0000e+00	


#WF CALIBRATION VALUES
A = Detector Channel
Val Type	A-AC1	A-AC2	A-AC3	A-AC4	A-AC5	A-AC6	A-AC7	A-AC8	A-AC9	A-AC10	A-AC11	A-AC12	A-AC13	A-AC14	A-AC15	A-AC16	A-DC1	A-DC2	A-DC3	A-DC4	A-DC5	A-DC6	A-DC7	A-DC8	A-DC9	A-DC10	A-DC11	A-DC12	A-DC13	A-DC14	A-DC15	A-DC16	A-Ph1	A-Ph2	A-Ph3	A-Ph4	A-Ph5	A-Ph6	A-Ph7	A-Ph8	A-Ph9	A-Ph10	A-Ph11	A-Ph12	A-Ph13	A-Ph14	A-Ph15	A-Ph16	

Term	0.00000e+00	0.00000e+00	0.00000e+00	0.00000e+00	0.00000e+00	0.00000e+00	0.00000e+00	0.00000e+00	0.00000e+00	0.00000e+00	0.00000e+00	0.00000e+00	0.00000e+00	0.00000e+00	0.00000e+00	0.00000e+00	0.00000e+00	0.00000e+00	0.00000e+00	0.00000e+00	0.00000e+00	0.00000e+00	0.00000e+00	0.00000e+00	0.00000e+00	0.00000e+00	0.00000e+00	0.00000e+00	0.00000e+00	0.00000e+00	0.00000e+00	0.00000e+00	0.00000e+00	0.00000e+00	0.00000e+00	0.00000e+00	0.00000e+00	0.00000e+00	0.00000e+00	0.00000e+00	0.00000e+00	0.00000e+00	0.00000e+00	0.00000e+00	0.00000e+00	0.00000e+00	0.00000e+00	0.00000e+00	
Factor	1.00000e+00	1.00000e+00	1.00000e+00	1.00000e+00	1.00000e+00	1.00000e+00	1.00000e+00	1.00000e+00	1.00000e+00	1.00000e+00	1.00000e+00	1.00000e+00	1.00000e+00	1.00000e+00	1.00000e+00	1.00000e+00	1.00000e+00	1.00000e+00	1.00000e+00	1.00000e+00	1.00000e+00	1.00000e+00	1.00000e+00	1.00000e+00	1.00000e+00	1.00000e+00	1.00000e+00	1.00000e+00	1.00000e+00	1.00000e+00	1.00000e+00	1.00000e+00	X	X	X	X	X	X	X	X	X	X	X	X	X	X	X	X	

B = Detector Channel
Val Type	B-AC1	B-AC2	B-AC3	B-AC4	B-AC5	B-AC6	B-AC7	B-AC8	B-AC9	B-AC10	B-AC11	B-AC12	B-AC13	B-AC14	B-AC15	B-AC16	B-DC1	B-DC2	B-DC3	B-DC4	B-DC5	B-DC6	B-DC7	B-DC8	B-DC9	B-DC10	B-DC11	B-DC12	B-DC13	B-DC14	B-DC15	B-DC16	B-Ph1	B-Ph2	B-Ph3	B-Ph4	B-Ph5	B-Ph6	B-Ph7	B-Ph8	B-Ph9	B-Ph10	B-Ph11	B-Ph12	B-Ph13	B-Ph14	B-Ph15	B-Ph16	

Term	0.00000e+00	0.00000e+00	0.00000e+00	0.00000e+00	0.00000e+00	0.00000e+00	0.00000e+00	0.00000e+00	0.00000e+00	0.00000e+00	0.00000e+00	0.00000e+00	0.00000e+00	0.00000e+00	0.00000e+00	0.00000e+00	0.00000e+00	0.00000e+00	0.00000e+00	0.00000e+00	0.00000e+00	0.00000e+00	0.00000e+00	0.00000e+00	0.00000e+00	0.00000e+00	0.00000e+00	0.00000e+00	0.00000e+00	0.00000e+00	0.00000e+00	0.00000e+00	-1.64601e+02	-1.43031e+02	-1.08939e+02	-1.81279e+02	-7.94495e+01	-8.46190e+01	-1.58018e+02	-1.62015e+02	-8.74992e+01	-7.39045e+01	-1.73297e+02	-1.71406e+02	-1.83593e+02	-1.75090e+02	-8.31467e+01	-1.48659e+02	
Factor	2.32867e-05	1.47304e-04	4.10904e-05	1.66285e-01	1.15774e-06	1.40833e-06	1.77592e-01	4.95686e-02	1.33556e-06	1.35093e-06	9.76530e-02	2.68067e-02	5.58447e-02	7.64443e-03	1.23860e-06	1.14460e-02	2.33889e-06	2.54744e-06	7.06929e-07	8.53354e-02	2.76220e-08	2.79912e-08	8.56402e-02	2.55246e-02	2.75898e-08	2.79186e-08	4.79808e-02	1.33265e-02	2.79674e-02	3.95974e-03	2.75777e-08	5.71527e-03	X	X	X	X	X	X	X	X	X	X	X	X	X	X	X	X	



#DISTANCE SETTINGS
A = Detector Channel
A-1	A-2	A-3	A-4	A-5	A-6	A-7	A-8	A-9	A-10	A-11	A-12	A-13	A-14	A-15	A-16	

2.5000e+00	3.0000e+00	2.5000e+00	3.0000e+00	2.0000e+00	3.0000e+00	1.5000e+00	3.0000e+00	3.0000e+00	3.0000e+00	3.0000e+00	3.0000e+00	3.0000e+00	3.0000e+00	1.5000e+00	3.0000e+00	

B = Detector Channel
B-1	B-2	B-3	B-4	B-5	B-6	B-7	B-8	B-9	B-10	B-11	B-12	B-13	B-14	B-15	B-16	

1.0000e+01	1.0000e+01	1.0000e+01	1.4400e+00	1.0000e+01	1.0000e+01	1.5100e+00	1.9400e+00	1.0000e+01	1.0000e+01	1.9900e+00	2.4900e+00	2.4100e+00	2.9000e+00	1.0000e+01	2.9800e+00	




#DATA BEGINS
time	group	step	mark	flag	A-AC1	A-AC2	A-AC3	A-AC4	A-AC5	A-AC6	A-AC7	A-AC8	A-AC9	A-AC10	A-AC11	A-AC12	A-AC13	A-AC14	A-AC15	A-AC16	A-DC1	A-DC2	A-DC3	A-DC4	A-DC5	A-DC6	A-DC7	A-DC8	A-DC9	A-DC10	A-DC11	A-DC12	A-DC13	A-DC14	A-DC15	A-DC16	A-Ph1	A-Ph2	A-Ph3	A-Ph4	A-Ph5	A-Ph6	A-Ph7	A-Ph8	A-Ph9	A-Ph10	A-Ph11	A-Ph12	A-Ph13	A-Ph14	A-Ph15	A-Ph16	B-AC1	B-AC2	B-AC3	B-AC4	B-AC5	B-AC6	B-AC7	B-AC8	B-AC9	B-AC10	B-AC11	B-AC12	B-AC13	B-AC14	B-AC15	B-AC16	B-DC1	B-DC2	B-DC3	B-DC4	B-DC5	B-DC6	B-DC7	B-DC8	B-DC9	B-DC10	B-DC11	B-DC12	B-DC13	B-DC14	B-DC15	B-DC16	B-Ph1	B-Ph2	B-Ph3	B-Ph4	B-Ph5	B-Ph6	B-Ph7	B-Ph8	B-Ph9	B-Ph10	B-Ph11	B-Ph12	B-Ph13	B-Ph14	B-Ph15	B-Ph16	aux-1	digaux	

7530.135	1	1	0	768	0.17283	0.091429	0.23154	0.20367	0.065048	0.24887	0.17841	0.17025	0.041628	0.1299	0.083821	0.32839	0.19142	0.1855	0.24689	0.25244	-1.9021	-1.6729	-1.6375	-2.4271	-1.3833	-1.9396	-2.1167	-1.5312	-2.2083	-1.6979	-1.6833	-2.3354	-1.4125	-2.0375	-1.8042	-1.5167	104.713	102.922	253.737	-69.393	171.334	-42.009	-81.246	214.717	-74.631	122.005	93.838	-19.099	-33.246	-91.102	172.301	156.102	0.00039608	0.00075091	0.00015037	1356.7	5.1565e-06	4.57e-06	1348.9	363.35	2.5384e-06	5.8257e-06	415.55	136.4	118.28	40.693	3.2953e-06	50.117	0.00058063	0.00063108	0.00016161	1372.4	6.5408e-06	6.8171e-06	1370	369.04	6.6721e-06	6.7891e-06	422.93	139.65	122.34	41.598	6.1506e-06	51.581	146.321	-82.574	-18.952	-90.143	87.945	-6.388	-90.526	-85.583	-8.990	50.638	-86.367	-81.853	-81.670	-76.419	13.041	-76.952	-8191	255	
7530.231	1	1	0	0	0.23994	0.17403	0.12	0.47683	0.09689	0.17703	0.051545	0.2587	0.15213	0.44612	0.084369	0.17968	0.22723	0.068105	0.22418	0.23922	-1.7792	-1.7167	-1.5708	-2.3063	-1.4208	-1.8062	-2.2562	-1.4688	-2.0771	-1.6979	-1.5688	-2.3937	-1.4646	-1.725	-2.0729	-1.3958	239.318	144.554	17.750	229.482	83.832	132.589	190.349	220.801	-76.452	184.966	51.565	191.552	-103.141	-18.686	60.613	78.342	0.00027346	0.00033704	0.00017463	1362.2	3.2016e-06	6.6643e-06	1351.3	364.26	1.2694e-06	6.4643e-06	415.6	136.26	118.76	40.686	4.6872e-06	50.449	0.00060787	0.00060776	0.00015709	1373.7	6.8104e-06	6.5562e-06	1368.9	369.47	6.8483e-06	6.507e-06	422.59	139.68	122.68	41.741	5.9937e-06	51.814	163.449	-25.897	31.531	-90.024	72.332	26.415	-90.265	-85.763	194.477	38.637	-86.018	-81.974	-82.303	-76.218	35.067	-77.302	-8191	255	
7530.327	1	1	0	0	0.21145	0.062363	0.2147	0.21957	0.14899	0.14964	0.14624	0.20333	0.10569	0.085398	0.19053	0.064381	0.10002	0.16085	0.14104	0.016662	-1.6063	-2.0042	-1.4604	-2.1667	-1.3813	-1.8229	-2.3833	-1.5271	-1.8729	-1.8583	-1.3479	-2.425	-1.6354	-1.8104	-2.2292	-1.4417	-43.227	214.314	-100.836	-8.281	174.067	-25.719	195.846	233.525	65.600	0.468	-65.241	-37.312	181.966	255.574	-21.080	234.446	0.00029363	0.00087348	0.00018381	1357.7	5.7338e-06	6.3221e-06	1347.5	363.91	2.8268e-06	3.4264e-06	417.07	137.1	118.52	40.817	3.687e-06	50.266	0.00060439	0.00056721	0.00014567	1372.6	6.666e-06	6.2317e-06	1369.8	370.13	6.6932e-06	6.1454e-06	422.61	140.12	122.09	41.668	5.7307e-06	51.769	166.204	-4.122	-14.138	-89.947	46.001	84.524	-90.545	-85.723	-5.685	51.468	-85.862	-81.859	-81.956	-76.348	-43.018	-77.251	-8191	255	
7530.423	1	1	0	0	0.18203	0.14742	0.075863	0.1073	0.077724	0.26614	0.20819	0.26002	0.078099	0.22687	0.26459	0.22727	0.22731	0.09166	0.25528	0.022473	-1.5938	-1.9896	-1.2208	-2.3708	-1.5458	-1.6229	-2.5625	-1.4854	-1.55	-1.9	-1.5229	-2.2729	-1.6875	-1.4604	-2.3187	-1.6063	212.789	-72.636	74.928	168.288	181.288	226.374	203.268	203.778	241.388	217.515	244.399	244.273	-1.023	255.931	184.917	143.693	0.00029627	0.00065278	0.00012251	1359.4	5.0997e-06	3.9974e-06	1347.9	363.1	3.0337e-06	2.5478e-06	417.62	136.49	117.59	40.769	3.6851e-07	50.317	0.00058738	0.00056396	0.00014601	1373.6	6.5249e-06	6.0835e-06	1367.4	369.67	6.4025e-06	5.9225e-06	422.5	140.39	121.78	41.651	5.7288e-06	51.872	160.359	26.980	97.764	-90.024	27.623	-19.433	-90.361	-85.698	-56.490	81.100	-86.210	-81.930	-81.832	-76.527	251.360	-77.105	-8191	255	
7530.520	1	1	0	0	0.25663	0.26658	0.25173	0.017451	0.1451	0.029663	0.27645	0.24615	0.17272	0.091573	0.39163	0.34326	0.19933	0.20941	0.059593	0.13548	-1.5521	-2.2687	-1.2625	-2.3875	-1.9354	-1.3062	-2.6042	-1.4792	-1.7292	-2.0563	-1.5854	-2.0875	-1.7917	-1.7125	-2.0417	-1.6854	179.609	-30.083	148.687	124.949	207.475	-86.112	194.838	164.148	212.175	74.767	158.543	225.243	-94.442	206.424	145.573	97.129	0.00020478	0.00054139	0.00012508	1356.3	3.252e-06	6.1498e-06	1344.9	363.63	4.1172e-06	5.4494e-06	417.75	137.3	118.12	40.662	3.1057e-06	50.463	0.00056027	0.00053111	0.0001456	1372.7	6.0839e-06	5.7117e-06	1366.2	370.03	5.961e-06	5.59e-06	423.1	140.51	121.61	41.577	5.9472e-06	51.948	142.568	-36.705	41.620	-90.011	-40.133	23.648	-90.290	-85.629	-20.998	28.571	-86.054	-81.944	-81.964	-76.581	-8.964	-77.267	-8191	255	
7530.616	1	1	0	0	0.081265	0.22778	0.28545	0.25786	0.16469	0.17974	0.11553	0.23425	0.086696	0.22804	0.064984	0.35098	0.19533	0.27944	0.16536	0.34402	-1.4	-2.0729	-1.3917	-2.2292	-1.9292	-1.5771	-2.4333	-1.9729	-1.5229	-2.2	-1.6562	-2.1625	-2.0021	-1.3062	-2.1333	-1.9	-68.322	141.366	-72.126	171.869	-15.205	-88.615	150.515	165.869	46.712	108.969	164.124	-45.128	240.894	178.580	66.788	193.436	0.00025505	0.00075903	9.0397e-05	1357.1	4.3116e-06	5.8883e-06	1351	363.94	5.6119e-06	8.7671e-06	416.53	137.15	117.67	40.761	2.4844e-06	50.35	0.00053565	0.00051371	0.00015359	1371.5	5.9729e-06	5.5879e-06	1367.9	370	5.8626e-06	5.6008e-06	422.68	140.13	121.38	41.621	6.2292e-06	51.868	140.692	-30.197	-31.386	-90.115	46.957	52.449	-90.385	-85.651	-27.329	73.590	-86.236	-81.822	-81.420	-76.661	107.605	-77.109	-8191	255	
7530.736	1	1	0	0	0.10105	0.1355	0.19074	0.16392	0.094894	0.11755	0.19487	0.2221	0.32308	0.094648	0.17373	0.29588	0.014255	0.19748	0.35106	0.24598	-1.1375	-2.25	-1.3021	-2.1271	-2.0417	-1.2854	-2.3625	-2.0146	-1.5146	-2.2313	-1.5604	-1.9125	-2.0771	-1.3563	-2.1625	-1.7812	114.857	197.662	162.308	-59.316	93.338	159.688	190.642	211.082	-5.446	129.138	134.653	198.061	99.008	-98.577	-98.537	-72.170	0.00033862	0.00087856	6.5972e-05	1359.6	1.3976e-06	3.2933e-06	1343.9	364.46	3.5806e-06	5.0393e-06	417.22	136.42	117.65	40.765	4.699e-06	50.729	0.0005124	0.00050905	0.00015894	1369.9	5.6988e-06	5.5526e-06	1366.3	369.96	5.6325e-06	5.6937e-06	423.3	139.87	121.28	41.644	6.4494e-06	51.699	164.692	-20.534	61.340	-90.145	42.330	21.046	-90.326	-85.833	-32.575	9.542	-86.027	-81.900	-81.813	-76.775	30.357	-77.286	-8191	255	
7530.831	1	1	0	0	0.12272	0.096023	0.076659	0.22828	0.011364	0.13835	0.089638	0.1341	0.43067	0.036439	0.18113	0.17766	0.17985	0.21044	0.14695	0.1678	-1.0708	-2.1958	-1.5771	-1.7563	-2.0563	-1.1646	-2.2708	-2.0396	-1.1917	-2.2604	-1.5688	-1.7146	-2.1396	-1.5625	-1.8708	-1.9167	164.535	108.585	104.726	193.953	52.294	215.691	158.809	210.998	179.903	185.352	218.266	214.115	10.509	123.638	240.268	214.832	0.00030179	0.00038095	0.00022214	1351.5	4.0217e-06	6.72e-06	1340.6	362.67	1.5365e-06	7.19e-06	415.42	135.83	117.35	40.596	3.2704e-06	50.133	0.00050895	0.00053298	0.00016505	1365.6	5.6289e-06	5.9257e-06	1365.3	368.51	5.6365e-06	6.0506e-06	422.07	139.48	120.8	41.448	6.3494e-06	51.478	159.516	255.958	-7.813	-89.954	27.520	21.743	-90.399	-85.799	-98.172	112.416	-86.115	-81.666	-81.863	-76.285	23.008	-77.307	-8191	255	
7530.927	1	1	0	0	0.33494	0.31021	0.034039	0.26209	0.2186	0.013275	0.35757	0.19442	0.36752	0.061782	0.21413	0.3497	0.19129	0.18204	0.33029	0.17234	-0.97917	-2.275	-1.7958	-1.7083	-2.2271	-1.4937	-2.0396	-2.2458	-1.4458	-2.1458	-1.7542	-1.5021	-2.3771	-1.575	-1.8958	-2.2354	-101.570	192.039	41.773	195.152	210.985	33.532	170.594	164.492	196.613	-52.586	193.910	204.976	250.842	193.445	225.743	-5.952	0.00030238	0.00026562	0.00019595	1346.9	3.7725e-06	4.4424e-06	1348.3	361.86	1.8397e-06	5.7547e-06	413.68	135.73	117.3	40.353	2.7146e-06	49.993	0.00050281	0.00056237	0.00015954	1363.1	5.5332e-06	6.235e-06	1364.2	367.7	5.5072e-06	6.2594e-06	420.93	139.03	120.44	41.383	6.0843e-06	51.31	154.609	-57.764	-17.154	-90.167	-23.362	4.512	-90.308	-85.675	-5.717	23.255	-86.113	-81.809	-82.019	-76.454	-40.898	-77.093	-8191	255	
7531.023	1	1	0	0	0.1093	0.071104	0.030235	0.32687	0.53993	0.11991	0.28224	0.14495	0.16228	0.1724	0.14458	0.076035	0.15229	0.062866	0.02253	0.11695	-0.8	-1.9521	-1.6583	-1.7667	-2.0896	-1.375	-1.8771	-2.275	-1.3708	-2.1083	-1.8	-1.5208	-2.1417	-1.6208	-1.8312	-2.0667	-23.966	215.159	-23.974	208.306	21.755	113.632	173.254	116.699	-82.533	33.171	123.829	229.192	88.606	114.811	-80.324	147.937	0.00025574	0.00072323	9.4513e-05	1349.4	2.845e-06	1.7953e-06	1346	361.84	5.3534e-06	4.2593e-06	412.91	135.81	116.73	40.331	4.1299e-06	49.936	0.0005065	0.00059058	0.0001557	1362.4	5.7148e-06	6.4617e-06	1362.8	367.56	5.7984e-06	6.5369e-06	420.33	138.8	120.68	41.308	5.8727e-06	51.228	167.262	-3.265	-13.506	-89.946	41.758	-64.515	-90.204	-85.540	-35.238	45.922	-86.124	-82.055	-81.839	-76.562	-17.361	-77.018	-8191	255	
7531.119	1	1	0	0	0.06135	0.086552	0.18328	0.091819	0.061983	0.2575	0.27927	0.0834	0.31622	0.12102	0.28673	0.096306	0.15194	0.21142	0.36446	0.078809	-0.98125	-2.0167	-1.8354	-1.5875	-2.2354	-1.5583	-1.7625	-2.1833	-1.3396	-2.0104	-2.1833	-1.4771	-2.1042	-1.7062	-1.5042	-2.3354	-56.157	-12.595	46.535	226.109	-8.315	216.051	179.590	-95.820	166.754	124.689	196.518	212.676	118.338	186.980	57.188	-80.809	0.00035374	0.00070351	0.00016402	1346.3	3.984e-06	4.5668e-06	1342.4	361.94	2.9999e-06	8.2928e-06	413.64	135.8	116.99	40.447	5.2822e-06	49.931	0.00053801	0.00058763	0.00014744	1361.8	6.0429e-06	6.4277e-06	1360.3	366.77	6.0762e-06	6.3182e-06	419.95	138.63	120.88	41.281	5.8164e-06	51.16	147.982	-47.802	-4.285	-90.091	85.005	36.304	-90.699	-85.788	-45.184	31.595	-86.489	-82.019	-82.120	-76.800	17.447	-77.368	-8191	255	
7531.215	1	1	0	0	0.13995	0.17794	0.12129	0.15472	0.044788	0.095991	0.31288	0.3557	0.15336	0.10526	0.070629	0.065377	0.25076	0.19273	0.20609	0.074474	-0.94792	-1.5312	-1.8021	-1.6604	-2.0333	-1.775	-1.5333	-2.4354	-1.5667	-1.8	-2.3292	-1.4083	-1.9062	-1.7042	-1.55	-2.4167	88.172	-32.923	-48.396	240.311	210.001	-4.789	189.658	193.613	157.763	-64.506	121.231	237.533	-34.060	150.904	-96.877	220.179	0.00029191	0.00056332	0.00030601	1349.9	3.2431e-06	3.1904e-06	1341.6	362.21	4.2263e-06	6.2588e-06	416.23	135.51	116.4	40.226	4.106e-06	49.966	0.00056313	0.00057209	0.00014783	1361.1	6.4279e-06	6.2683e-06	1360	366.68	6.4086e-06	6.0707e-06	419.83	138.44	121.09	41.173	5.5556e-06	51.216	156.155	-42.290	-2.558	-90.343	-37.975	45.407	-90.624	-85.830	11.377	63.151	-86.575	-82.382	-81.879	-76.688	38.558	-77.259	-8191	255	
7531.336	1	1	0	0	0.23038	0.064272	0.15683	0.49771	0.15883	0.32126	0.26519	0.27844	0.21045	0.10798	0.13442	0.27621	0.1789	0.2447	0.03165	0.27695	-1.0333	-1.6542	-1.9583	-1.5438	-2.0062	-1.8958	-1.7625	-2.1312	-1.5083	-1.6812	-2.2313	-1.5917	-2.1208	-1.9458	-1.3917	-2.3354	162.499	76.758	31.495	246.688	130.311	-66.562	196.828	219.515	180.567	-45.582	245.935	208.001	158.248	253.601	-77.956	226.630	0.00031485	0.00022981	0.00019589	1349.2	5.4944e-06	7.4105e-06	1341	361.17	3.2662e-06	2.5844e-06	411.7	135.15	116.45	39.999	6.06e-06	49.863	0.00057531	0.00054551	0.00014297	1362.2	6.472e-06	6.0302e-06	1357.3	367.3	6.471e-06	5.9346e-06	419.01	138.58	121.08	41.033	5.5376e-06	51.197	159.644	20.009	-2.004	-90.285	74.425	-8.897	-90.613	-85.949	6.796	83.839	-86.370	-82.282	-81.938	-76.860	13.512	-77.140	-8191	255	
7531.432	1	1	0	0	0.42934	0.15261	0.020861	0.1229	0.082643	0.36317	0.045266	0.13503	0.31435	0.24411	0.17479	0.055536	0.25688	0.073085	0.14868	0.088912	-1.2542	-1.6021	-2.15	-1.575	-1.8563	-1.9854	-1.5375	-2.3583	-1.6833	-1.5896	-2.4562	-1.4146	-1.975	-2.3167	-1.1437	-2.4167	109.147	39.808	184.109	-87.098	-85.274	-54.738	171.743	160.519	72.906	-98.318	103.714	118.452	214.228	243.143	-70.921	-15.602	0.00028537	0.00020279	9.9656e-05	1343.8	3.5442e-06	4.2869e-06	1341.6	361	6.7627e-06	4.5588e-06	413.79	135.47	117.29	40.339	5.2336e-06	49.958	0.00058281	0.00053902	0.00014254	1361.6	6.3699e-06	5.8438e-06	1357.1	367.56	6.3232e-06	5.841e-06	419.13	138.83	121.04	41.227	5.5863e-06	51.416	153.026	184.884	26.342	-90.521	91.009	-55.354	-90.589	-85.797	-41.690	28.568	-86.310	-82.144	-81.832	-76.807	48.488	-77.364	-8191	255	
7531.528	1	1	0	0	0.093781	0.25544	0.20676	0.26939	0.029831	0.025106	0.19387	0.14813	0.061088	0.29442	0.058085	0.095292	0.15685	0.11533	0.19703	0.10005	-1.1292	-1.425	-2.1792	-1.6167	-1.7417	-2.1792	-1.5146	-2.2958	-1.725	-1.3542	-2.2438	-1.5729	-1.7833	-2.2938	-1.3125	-2.2833	112.864	14.075	213.116	226.290	-6.869	173.632	171.130	52.164	116.518	-47.552	121.823	208.972	-94.496	18.216	174.025	-87.242	0.00024012	0.00066731	0.00018522	1350.9	4.5318e-06	5.2584e-07	1336	362.2	5.3282e-06	5.0774e-06	413.76	135.57	116.86	40.229	1.0154e-06	49.79	0.0005547	0.00052874	0.00014592	1364.5	6.1716e-06	5.7295e-06	1357.2	367.8	6.1159e-06	5.7045e-06	419.74	138.96	120.68	41.196	5.9117e-06	51.337	149.560	-42.605	-17.619	-90.351	-78.958	56.031	-90.441	-85.708	-27.368	11.324	-86.643	-82.241	-81.489	-76.523	130.988	-77.246	-8191	255	
7531.623	1	1	0	0	0.17463	0.11806	0.15809	0.22334	0.2974	0.14802	0.1633	0.13259	0.21595	0.070164	0.10177	0.2294	0.50511	0.24747	0.10696	0.049424	-1.4979	-1.4333	-2.1729	-1.85	-1.7021	-2.2125	-1.6208	-2.1167	-1.7417	-1.1938	-2.1917	-1.6604	-1.6896	-2.2458	-1.4208	-1.8771	177.129	-53.814	-74.025	239.658	45.042	49.615	148.621	-70.268	205.393	13.269	83.889	138.422	-82.120	208.875	201.703	-70.769	0.00026616	0.00090701	5.7762e-05	1347.1	1.2998e-06	3.3836e-06	1335.7	361.3	2.7921e-06	3.4651e-06	414.19	135.24	116.8	40.288	5.7434e-07	50.093	0.00053839	0.0005146	0.0001538	1363.2	5.8786e-06	5.6645e-06	1358.7	367.85	5.9943e-06	5.5431e-06	421.03	139.04	120.71	41.161	6.3116e-06	51.284	148.229	-43.309	-49.740	-90.229	175.151	13.906	-90.469	-85.904	-43.270	60.899	-86.040	-82.161	-81.922	-76.454	100.673	-77.091	-8191	255	
7531.696	1	1	0	0	0.10588	0.14603	0.15774	0.39034	0.15432	0.17221	0.21167	0.18082	0.18091	0.09031	0.13558	0.19323	0.088304	0.2141	0.11002	0.41152	-1.5125	-1.3146	-2.0479	-1.775	-1.6083	-2.0708	-1.6396	-1.8417	-2.0167	-1.3646	-2.175	-1.8729	-1.3167	-2.4313	-1.4813	-1.7125	139.139	156.325	230.897	249.258	162.190	41.027	235.993	223.734	191.563	-69.878	-29.649	207.395	246.290	41.473	194.825	172.715	0.00028161	0.00039494	9.928e-05	1350.2	2.945e-06	4.5601e-06	1341.2	359.46	2.0426e-06	5.8437e-07	412.24	134.35	116.25	40.211	3.7825e-06	49.752	0.00054044	0.0005248	0.00016497	1362.6	5.9516e-06	5.8063e-06	1360.4	366.33	5.9472e-06	5.8115e-06	420.08	138.17	119.73	40.982	6.58e-06	51.056	163.331	20.496	62.529	-90.510	2.184	123.026	-90.598	-85.586	-76.431	63.345	-86.164	-82.195	-81.517	-76.446	51.734	-77.108	-8191	255	
7531.815	1	1	0	0	0.1621	0.098168	0.1179	0.15331	0.14851	0.1763	0.15659	0.38397	0.2228	0.41106	0.13305	0.25605	0.097157	0.030739	0.14888	0.26492	-1.725	-1.3625	-1.9083	-2.1271	-1.4083	-2.2438	-1.5625	-1.8062	-2.1833	-1.2417	-2.0854	-1.7521	-1.1854	-2.2604	-1.5875	-1.7812	201.859	147.796	50.995	194.985	236.827	-66.280	-80.204	232.898	44.281	245.411	-43.041	164.814	-72.425	-15.412	217.578	246.663	0.00026346	0.00056055	0.00016634	1345	4.3471e-06	6.886e-06	1335	359.14	3.5102e-06	4.7842e-06	411.41	134.53	116.33	39.889	4.4119e-06	49.527	0.00052673	0.00054388	0.00016841	1359	5.8115e-06	6.0739e-06	1358.3	365.8	5.8583e-06	6.1351e-06	419.35	137.92	119.88	40.936	6.6743e-06	50.871	160.034	-46.156	-12.194	-90.201	16.996	4.997	-90.508	-85.524	-1.531	53.840	-86.029	-82.180	-82.015	-76.538	45.736	-77.080	-8191	255	
7531.911	1	1	0	0	0.2708	0.093581	0.39456	0.18229	0.2513	0.10302	0.1275	0.43597	0.17406	0.19515	0.071822	0.14103	0.45417	0.10975	0.11496	0.33927	-1.8417	-1.3479	-1.9125	-2.0042	-1.2208	-2.0812	-1.7958	-1.7812	-2.1312	-1.5083	-1.8417	-1.9167	-1.2917	-2.3104	-1.7188	-1.6812	92.785	-60.364	-77.313	-86.129	-26.795	-29.253	195.361	248.689	192.946	68.340	157.559	136.152	-82.057	203.830	-53.128	216.172	0.00025574	0.00051858	0.00010097	1344.8	4.2346e-06	3.0986e-06	1341.1	359.77	7.1144e-06	3.764e-06	411.88	135.49	116.94	40.295	5.5649e-06	49.698	0.00052691	0.00058654	0.00016795	1359.9	5.7929e-06	6.4611e-06	1362.1	366.03	5.7937e-06	6.5634e-06	419.68	138.8	120.4	41.344	6.4678e-06	51.166	148.661	41.746	50.152	-90.260	65.156	50.105	-90.394	-85.733	-26.769	-11.765	-86.065	-81.986	-81.742	-76.502	22.631	-77.300	-8191	255	
7532.007	1	1	0	0	0.0089095	0.10612	0.20112	0.089527	0.11598	0.22595	0.27863	0.21119	0.084378	0.26944	0.091393	0.33856	0.07861	0.20834	0.11568	0.18436	-1.6562	-1.3542	-1.8354	-2.1688	-1.1833	-2.1083	-1.8583	-1.7979	-2.1583	-1.4833	-1.9208	-2.3187	-1.2771	-2.1229	-1.7375	-1.6354	97.670	-77.863	157.489	-70.290	-61.044	174.322	216.825	214.404	91.168	149.040	-91.076	231.488	186.244	148.304	-18.123	229.814	0.00032863	0.00056831	0.00013508	1350.3	2.8168e-06	3.8472e-06	1340.4	361.07	3.4371e-06	4.5787e-06	413.77	135.16	116.62	40.189	3.3305e-06	49.908	0.00052569	0.00060172	0.00016106	1361.7	5.8372e-06	6.6309e-06	1362.7	366.86	5.9734e-06	6.7013e-06	420.43	138.51	120.45	41.298	6.1548e-06	51.148	150.682	13.949	22.975	-90.124	-41.040	18.696	-90.526	-85.516	7.628	46.648	-86.368	-82.037	-81.753	-76.378	8.149	-77.351	-8191	255	
7532.103	1	1	0	0	0.30125	0.19856	0.17679	0.24338	0.039417	0.064065	0.28525	0.10335	0.12463	0.077025	0.19841	0.32258	0.15146	0.31782	0.18348	0.34755	-1.7292	-1.3292	-1.6896	-2.3688	-1.1896	-2.1292	-1.9917	-1.6542	-2.1396	-1.7563	-1.7396	-2.3354	-1.4792	-2.1854	-2.0146	-1.5083	172.762	11.466	200.895	222.533	-19.116	110.005	187.010	160.227	154.365	-10.833	169.021	253.137	187.945	230.364	178.944	244.308	0.00030111	0.00046404	9.9721e-05	1346	3.5847e-06	5.9574e-06	1340.9	359.92	1.7196e-06	4.9695e-06	412.65	134.86	116.13	40.118	7.1614e-06	49.776	0.00054732	0.00059889	0.00015419	1361.6	6.239e-06	6.6061e-06	1359.4	365.86	6.2676e-06	6.6099e-06	419.56	138.14	120.48	41.166	6.1067e-06	51.057	149.494	-64.628	19.044	-90.155	66.247	67.683	-90.423	-85.629	199.726	53.904	-86.036	-81.905	-81.711	-76.330	3.776	-77.180	-8191	255	
7532.224	1	1	0	0	0.12882	0.15254	0.22463	0.20553	0.070651	0.24897	0.10665	0.48765	0.13924	0.33572	0.21908	0.21168	0.25341	0.32448	0.20384	0.13371	-1.9104	-1.6229	-1.2021	-2.5958	-1.375	-1.9188	-2.2646	-1.4062	-2.175	-1.5396	-1.65	-2.3625	-1.5938	-2.0208	-2.1521	-1.3375	98.087	202.431	226.370	127.313	53.929	76.673	201.841	215.148	170.205	98.113	221.113	182.811	-86.939	116.056	141.273	253.494	0.00034389	0.00071972	0.00018457	1349.6	1.5221e-06	6.6077e-06	1338.6	361.49	2.7515e-06	3.2759e-06	413.03	135.13	116.65	40.589	1.4688e-06	50.106	0.00057345	0.00059776	0.0001533	1361.6	6.5286e-06	6.4954e-06	1359.2	366.57	6.5942e-06	6.3059e-06	419.3	138.66	121.26	41.442	5.8098e-06	51.387	170.878	-9.122	35.661	-90.199	125.253	13.816	-90.573	-85.718	-40.190	66.324	-86.151	-82.149	-81.654	-76.373	82.658	-77.153	-8191	255	
7532.296	1	1	0	0	0.29716	0.17184	0.10755	0.29031	0.084598	0.18123	0.26361	0.26156	0.16618	0.11485	0.13245	0.33798	0.24234	0.22195	0.11629	0.045851	-1.5917	-1.8104	-1.4375	-2.4354	-1.5292	-1.8354	-2.3292	-1.4542	-2.1479	-1.7667	-1.4417	-2.3479	-1.675	-1.7563	-2.1729	-1.4562	234.442	114.800	27.761	221.347	196.076	-83.686	249.862	166.946	-1.431	20.224	158.377	136.964	209.703	239.503	115.761	237.732	0.00025745	0.00068493	0.0002214	1349.1	4.8169e-06	4.9719e-06	1343.9	360.32	3.4084e-06	5.1883e-06	413.83	135.69	116.84	40.334	3.9375e-06	50.009	0.00059666	0.00057973	0.00014695	1362.8	6.6494e-06	6.2438e-06	1361.1	366.58	6.6552e-06	6.1491e-06	419.24	139.12	121.43	41.371	5.7082e-06	51.388	172.234	-37.846	35.953	-89.984	17.806	48.976	-90.318	-85.577	29.352	75.591	-86.314	-81.867	-81.750	-76.373	35.881	-76.879	-8191	255	
7532.416	1	1	0	0	0.23507	0.21401	0.069337	0.20466	0.063807	0.054117	0.14706	0.46666	0.18886	0.19747	0.27096	0.17065	0.26253	0.28435	0.10717	0.31364	-1.6187	-2.0125	-1.275	-2.5187	-1.6562	-1.8146	-2.4083	-1.5708	-2.0312	-2.1104	-1.6583	-2.1104	-1.6375	-1.7687	-2.1521	-1.4604	89.608	133.304	-9.707	-81.569	-18.376	194.369	-34.950	207.640	-93.427	172.099	213.560	-18.933	232.767	218.981	28.714	99.493	0.00027496	0.00023766	0.00016846	1354.8	3.58e-06	9.2377e-06	1337.3	360.56	5.3721e-06	4.5768e-07	412.32	135.48	116.02	40.252	2.9231e-06	49.736	0.00058746	0.00055411	0.00014624	1366.6	6.5668e-06	6.0468e-06	1358.5	367.45	6.5067e-06	6.0492e-06	419.5	138.98	121.03	41.221	5.7515e-06	51.276	170.708	-87.565	37.244	-90.008	4.733	43.779	-90.263	-85.622	-43.847	49.995	-86.098	-82.040	-81.619	-76.259	-25.149	-77.105	-8191	255	
7532.513	1	1	0	0	0.25529	0.11422	0.098402	0.067173	0.11396	0.11172	0.44262	0.17213	0.17312	0.20554	0.15187	0.20775	0.14727	0.13895	0.18201	0.30148	-1.4042	-1.9542	-1.3729	-2.15	-1.8583	-1.1458	-2.1958	-1.4396	-1.6354	-2.1479	-1.3146	-2.2479	-1.7771	-1.4458	-2.0479	-1.6063	19.778	149.195	48.484	256.499	205.412	-72.881	218.664	237.549	-44.267	-56.626	176.001	227.406	243.613	147.130	-26.379	153.218	0.00022639	0.00053773	0.00015163	1350.5	5.1603e-06	4.7322e-06	1340.4	360.32	3.8006e-06	3.8361e-06	414.17	135.77	116.71	40.324	3.3295e-06	49.864	0.00057536	0.00054377	0.00014683	1366.5	6.3204e-06	5.9491e-06	1360.1	367.22	6.2668e-06	5.8536e-06	419.81	139.26	120.86	41.205	6.0044e-06	51.348	139.904	-31.848	9.689	-89.897	78.242	-12.705	-90.315	-85.410	5.514	19.030	-85.958	-81.745	-81.836	-76.351	86.738	-77.063	-8191	255	
7532.609	1	1	0	0	0.13931	0.068161	0.14695	0.19373	0.17841	0.33914	0.17019	0.34244	0.21494	0.10793	0.30785	0.080842	0.048988	0.19255	0.34605	0.20532	-1.2938	-2.1021	-1.2896	-2.2708	-1.7708	-1.3958	-2.3583	-1.6437	-1.5625	-2.0333	-1.4208	-2.0854	-2.0292	-1.3604	-1.975	-1.6313	57.296	224.657	-42.014	224.167	36.046	-35.064	116.742	-93.851	-84.441	-34.280	209.327	127.018	-92.649	217.586	-65.126	155.785	0.00027536	0.00065932	9.2823e-05	1348.3	2.2133e-06	3.154e-06	1347.1	360.39	2.8431e-06	4.9857e-06	413.4	135.39	116.41	40.389	5.3432e-06	50.103	0.00055471	0.00053801	0.00015677	1366.2	6.2216e-06	5.8069e-06	1364.7	367.36	6.1787e-06	5.8149e-06	420.31	139.16	120.47	41.218	6.5334e-06	51.412	169.149	-41.801	27.099	-89.903	-37.627	59.574	-90.150	-85.599	113.423	51.043	-85.950	-81.762	-81.832	-76.337	9.172	-76.828	-8191	255	
7532.705	1	1	0	0	0.22533	0.11746	0.11888	0.14148	0.45534	0.27254	0.1547	0.3428	0.1886	0.11624	0.33875	0.11778	0.13554	0.078809	0.40553	0.07822	-1.2437	-2.225	-1.4667	-2.1042	-2.1021	-1.2792	-2.3563	-1.6688	-1.6	-2.2833	-1.3854	-1.7083	-2.0375	-1.2646	-2.1875	-1.9104	-18.648	-58.783	36.493	-48.804	-6.367	207.520	175.202	185.870	154.328	195.247	238.345	-53.133	199.700	3.508	176.848	-67.650	0.00031883	0.00072997	0.00013953	1347.8	2.2807e-06	6.8652e-06	1348.1	360.47	5.65e-06	4.7167e-06	411.71	135.38	115.9	40.151	1.5907e-06	49.595	0.00055534	0.00053549	0.00016969	1366.2	6.2435e-06	5.9691e-06	1367.2	367.55	6.1586e-06	5.9758e-06	421.67	138.74	120.58	41.121	6.9169e-06	51.199	143.728	-55.618	24.761	-89.967	37.862	17.058	-90.131	-85.526	-30.036	76.434	-86.071	-81.637	-81.856	-76.266	-100.090	-77.002	-8191	255	
7532.824	1	1	0	0	0.18491	0.15661	0.16244	0.19036	0.053451	0.18336	0.38482	0.21885	0.39362	0.15404	0.11718	0.21028	0.32434	0.29324	0.24965	0.29558	-0.90208	-2.3833	-1.2563	-1.9146	-1.7938	-1.2687	-2.2583	-2.0646	-1.3979	-2.0438	-1.5604	-1.7542	-2.0104	-1.3333	-1.9354	-1.9292	230.360	-33.204	-103.417	144.967	-50.200	120.179	-96.803	243.749	-29.846	222.338	-90.828	128.065	-43.601	214.892	-59.424	104.571	0.000262	0.00048012	1.5566e-05	1352.9	1.4963e-06	2.9821e-06	1343.8	361.24	6.4664e-06	3.8694e-06	414.77	135.75	116.73	40.335	2.9092e-06	50.03	0.00054848	0.00056622	0.00017526	1367.5	6.1555e-06	6.2055e-06	1365	367.57	6.0567e-06	6.3561e-06	421.46	138.84	120.65	41.233	6.8294e-06	51.244	168.889	21.268	168.625	-89.894	-83.456	-36.982	-90.355	-85.458	224.006	53.233	-86.339	-81.630	-81.851	-76.237	44.610	-76.813	-8191	255	
7532.920	1	1	0	0	0.19577	0.13921	0.031991	0.37076	0.15636	0.31326	0.14722	0.10436	0.12059	0.26475	0.073084	0.21997	0.20753	0.090575	0.065723	0.1176	-0.91667	-2.1854	-1.4562	-1.8458	-2.0792	-1.3875	-1.9188	-2.3167	-1.1688	-2.1813	-1.7313	-1.5729	-2.2958	-1.6271	-1.8646	-2.025	-31.147	88.129	72.560	248.057	79.249	119.539	229.414	179.853	69.446	83.182	-23.072	-101.315	148.376	140.700	223.668	-60.926	0.00020319	0.00069765	0.00021548	1351.1	2.6076e-06	6.2416e-06	1350.8	360.18	3.6928e-06	1.2581e-06	413.14	135.64	116.6	40.394	4.6115e-06	49.76	0.00054035	0.00059555	0.00017564	1366.7	5.9869e-06	6.6278e-06	1367.8	367.51	5.9785e-06	6.7141e-06	420.96	138.74	120.37	41.329	6.6705e-06	51.157	161.006	-37.947	15.839	-89.951	15.369	15.387	-90.174	-85.655	-48.211	41.275	-86.132	-81.604	-81.354	-76.111	20.853	-76.797	-8191	255	
7532.992	1	1	0	0	0.13227	0.13806	0.055042	0.34517	0.10279	0.26548	0.13324	0.27509	0.16841	0.17205	0.21712	0.42198	0.25048	0.10877	0.042561	0.16972	-0.94375	-1.9458	-1.6146	-1.6458	-2.1354	-1.3479	-1.7958	-1.8833	-1.25	-2.1146	-1.7625	-1.4979	-2.3063	-1.475	-1.6437	-2.2771	221.789	27.023	149.950	191.265	105.953	190.885	-48.141	212.966	213.726	130.972	237.799	194.563	-71.417	214.625	200.922	180.482	0.00030024	0.00085034	0.00017174	1358.5	2.7557e-06	3.1133e-06	1342.5	361.85	3.8168e-06	1.1283e-06	414.13	135.48	116.7	40.466	2.6161e-06	50.276	0.00054789	0.00062568	0.00016844	1368.5	6.0613e-06	6.8863e-06	1365.8	367.67	6.1347e-06	6.9543e-06	421.78	138.95	120.99	41.519	6.4817e-06	51.48	164.199	6.460	14.707	-89.929	87.904	-98.308	-90.191	-85.650	-11.016	-12.213	-85.778	-81.637	-81.504	-76.376	-6.644	-76.809	-8191	255	
7533.112	1	1	0	0	0.18569	0.064046	0.039346	0.36664	0.15454	0.22708	0.31108	0.15319	0.29102	0.05132	0.11458	0.17489	0.18992	0.18197	0.087266	0.20886	-0.83333	-1.9729	-1.7979	-1.5875	-2.2604	-1.4479	-2.0125	-2.2188	-1.3896	-2.0667	-1.8	-1.3146	-2.1542	-1.7	-1.7646	-2.1646	108.426	36.257	-54.219	-88.390	-62.572	102.654	173.319	116.312	-39.272	-31.832	42.891	-99.344	184.451	216.286	55.815	215.589	0.00027467	0.0004999	0.00021657	1356.7	2.8525e-06	3.5571e-06	1344.5	360.95	4.8664e-06	4.9415e-06	413.69	136.17	116.66	40.369	4.2534e-06	50.098	0.00056072	0.000629	0.00016297	1368.3	6.323e-06	6.8589e-06	1366.1	367.46	6.4211e-06	6.7957e-06	421.02	138.95	121.2	41.381	6.2171e-06	51.36	166.158	-17.513	-12.787	-89.824	96.980	42.445	-90.303	-85.480	233.976	74.637	-85.909	-81.828	-81.909	-76.397	92.838	-77.252	-8191	255	
7533.208	1	1	0	0	0.022776	0.22528	0.25241	0.4343	0.023873	0.16806	0.27716	0.1288	0.071727	0.14991	0.17403	0.44218	0.067698	0.24075	0.28767	0.17456	-1.0312	-1.8104	-1.9396	-1.3979	-2.1125	-1.6042	-1.5625	-2.3312	-1.3563	-1.8167	-2.2125	-1.4417	-2.1146	-1.7833	-1.4292	-2.1188	-17.780	32.684	126.972	248.562	-38.043	-7.206	178.009	209.685	-79.598	43.473	183.014	185.265	190.381	239.357	-93.729	188.134	0.00024912	0.00068801	0.00027211	1353.1	3.2517e-06	5.8994e-06	1340.9	362.32	2.2135e-06	4.1087e-06	414.69	135.82	117.75	40.384	4.8567e-06	50.186	0.00058843	0.00061298	0.00015876	1366.5	6.7194e-06	6.7389e-06	1363.2	368.35	6.7345e-06	6.6085e-06	420.77	138.71	121.51	41.332	6.0578e-06	51.331	137.809	-28.149	22.982	-89.836	18.953	27.677	-89.946	-85.346	5.632	88.568	-85.730	-81.536	-81.480	-76.363	51.619	-76.778	-8191	255	
7533.304	1	1	0	0	0.32341	0.25214	0.20346	0.11876	0.075528	0.22588	0.41275	0.42481	0.06168	0.21017	0.15151	0.36779	0.16928	0.19364	0.27194	0.32158	-0.87292	-1.425	-2.1417	-1.6833	-1.8479	-1.8542	-1.6729	-2.1521	-1.2104	-1.7167	-1.9958	-1.4646	-1.8854	-2.05	-1.3604	-2.3104	-26.472	-47.689	19.891	215.370	53.181	244.566	131.803	219.557	176.133	-81.574	178.978	-56.891	169.392	-73.282	77.736	219.345	0.00023282	0.0004843	0.00018478	1353	6.1867e-06	2.1876e-06	1347.3	361.67	4.2085e-06	5.2351e-06	413.33	135.55	116.99	40.224	3.9946e-06	49.983	0.0006098	0.00058949	0.00015371	1366	6.784e-06	6.4209e-06	1363.7	367.92	6.8208e-06	6.2952e-06	419.58	138.84	121.43	41.284	5.7767e-06	51.363	145.850	-41.806	-12.837	-89.675	12.061	-10.924	-89.941	-85.189	13.346	39.173	-85.767	-81.652	-81.299	-76.300	40.060	-77.102	-8191	255	
7533.401	1	1	0	0	0.11032	0.38611	0.17072	0.15524	0.12874	0.13023	0.15554	0.18744	0.14061	0.10237	0.27287	0.26131	0.14934	0.31525	0.080504	0.044198	-1.0229	-1.7	-2.1771	-1.3958	-2.0062	-2.0271	-1.7167	-2.1854	-1.5833	-1.5292	-2.1437	-1.3667	-2.0792	-2.1437	-1.3458	-2.4	58.996	215.078	-59.648	193.055	-21.110	-71.320	201.623	252.293	56.233	73.980	-74.194	199.802	224.262	207.609	74.002	161.561	0.00020957	0.00034476	0.00018524	1355.5	4.0061e-06	1.6637e-06	1341.5	360.58	5.1355e-06	4.2544e-06	414.83	136.17	117.1	40.483	3.2724e-06	50.174	0.00059771	0.00056687	0.00014684	1365.1	6.5925e-06	6.1048e-06	1360.9	367.33	6.4504e-06	6.0447e-06	420.03	139.29	121.48	41.372	5.7047e-06	51.648	150.566	20.569	-9.570	-89.766	32.011	-22.439	-90.035	-85.147	13.496	70.096	-85.598	-81.716	-81.334	-76.273	84.836	-76.746	-8191	255	
7533.519	1	1	0	0	0.05373	0.19899	0.16539	0.3157	0.098455	0.1045	0.15039	0.17901	0.11546	0.020012	0.1484	0.20898	0.028901	0.2395	0.14457	0.13267	-1.0438	-1.4771	-2.3333	-1.4167	-1.9521	-2.0604	-1.4688	-2.2625	-1.7125	-1.2875	-2.2917	-1.6917	-1.7917	-2.1083	-1.5917	-2.3271	153.881	78.736	59.447	166.022	-39.272	-28.632	154.878	89.649	215.750	202.398	210.412	-90.767	-80.957	-102.127	76.956	123.027	0.00029496	0.00082812	8.4843e-05	1345.2	3.7237e-06	5.8722e-06	1341.7	361.16	4.1852e-06	3.6569e-06	416.1	136.15	117.12	40.465	2.7038e-06	50.207	0.00057845	0.00053848	0.00014456	1364.7	6.403e-06	5.9773e-06	1361.4	367.99	6.3227e-06	5.8816e-06	420.76	139.47	121.16	41.355	5.9455e-06	51.635	150.528	-60.658	5.268	-89.724	30.097	-8.699	-89.923	-85.099	-12.215	99.632	-85.671	-81.618	-81.464	-76.135	111.565	-76.700	-8191	255	
7533.593	1	1	0	0	0.11313	0.2678	0.27619	0.16435	0.26386	0.18547	0.26515	0.21683	0.066603	0.079184	0.18964	0.21086	0.36777	0.15405	0.18619	0.059078	-1.2958	-1.3604	-2.25	-1.7563	-1.4625	-2.0333	-1.7375	-2.1813	-1.7667	-1.5625	-2.3792	-1.7771	-1.6896	-2.4042	-1.3146	-1.9188	147.243	-26.402	256.452	194.569	35.081	-68.201	190.646	236.587	-102.392	25.165	246.144	210.972	129.408	212.798	-25.111	238.929	0.00034769	0.00029492	6.9042e-05	1351.5	4.62e-06	4.5231e-06	1342.1	362.62	4.232e-06	3.9541e-06	414.01	136.46	117.18	40.483	4.4497e-06	50.28	0.00055639	0.00053304	0.00015191	1367.4	6.1193e-06	5.7874e-06	1361.5	367.84	6.1365e-06	5.7747e-06	420.87	139.61	120.94	41.408	6.2466e-06	51.648	161.268	-34.849	-33.155	-89.842	-9.511	28.249	-90.158	-85.163	-31.506	119.288	-85.524	-81.747	-81.330	-75.931	-59.213	-76.752	-8191	255	
7533.689	1	1	0	0	0.040109	0.13893	0.078194	0.17922	0.047091	0.1426	0.39626	0.22081	0.15954	0.16449	0.16768	0.046794	0.32993	0.15204	0.22842	0.21307	-1.7062	-1.2104	-2.2979	-1.6979	-1.4729	-2.2042	-1.5708	-2.0375	-2.0833	-1.3958	-2.1792	-1.8292	-1.6021	-2.1813	-1.4438	-1.6458	-15.925	-10.610	32.822	251.139	-88.014	203.331	187.637	209.037	184.228	-64.310	252.859	-88.934	222.961	185.300	1.645	208.627	0.00032277	0.00051397	0.00013025	1356.4	4.1813e-06	3.9496e-06	1345.2	361.31	1.918e-06	5.2967e-06	416.07	136.28	118.07	40.513	3.4661e-06	50.087	0.00053985	0.00051236	0.00016243	1367.8	5.9721e-06	5.6702e-06	1365.1	367.86	5.9771e-06	5.6299e-06	421.98	139.63	121.01	41.419	6.5105e-06	51.603	160.701	-29.117	33.646	-89.837	-21.613	74.566	-90.048	-85.111	0.800	23.908	-85.690	-81.375	-81.314	-76.266	-39.440	-76.825	-8191	255	
7533.785	1	1	0	0	0.08195	0.10964	0.14191	0.37123	0.1323	0.10624	0.21086	0.24249	0.26824	0.34318	0.14339	0.27655	0.036819	0.16537	0.029232	0.18523	-1.7292	-1.3375	-2.0604	-2.0104	-1.4396	-2.1354	-1.7146	-1.8375	-2.2271	-1.4854	-2.0104	-1.9833	-1.4229	-2.3375	-1.2271	-1.625	22.997	-65.764	-18.376	229.952	-81.311	144.898	223.435	181.234	-101.366	135.464	186.876	223.034	-25.817	183.938	158.338	222.120	0.00026552	0.00029731	4.864e-05	1352.7	1.9044e-06	5.2467e-06	1344.3	361.73	5.4485e-07	2.0522e-06	415.56	136.06	117.22	40.355	6.3699e-06	50.193	0.0005302	0.00052908	0.00016607	1366.7	5.795e-06	5.9242e-06	1364.4	367.63	5.8856e-06	5.9726e-06	422.75	139.43	120.88	41.357	6.5773e-06	51.432	157.294	65.784	-8.682	-89.621	66.480	24.801	-89.958	-85.057	-54.444	68.688	-85.570	-81.856	-81.273	-76.066	22.223	-76.875	-8191	255	
7533.904	1	1	0	0	0.056459	0.35934	0.13046	0.23362	0.18033	0.18716	0.45387	0.28557	0.081872	0.19052	0.13279	0.115	0.24626	0.081643	0.15206	0.10972	-1.7667	-1.125	-1.9292	-1.9604	-1.1521	-2.2979	-1.8875	-1.6	-2.1833	-1.5083	-1.975	-2.1771	-1.4146	-2.1771	-1.6854	-1.4937	219.068	177.179	142.027	-96.820	225.269	256.439	212.181	188.181	-88.430	-9.181	79.798	150.582	220.389	162.522	175.299	253.281	0.00022266	0.0003981	0.00013271	1352	5.1621e-06	2.7666e-06	1341.5	362.59	3.5013e-06	2.888e-06	412.77	135.38	117.22	40.3	4.2131e-06	50.037	0.00052298	0.00056434	0.00017009	1364.9	5.7874e-06	6.3776e-06	1362.5	367.88	5.8155e-06	6.4678e-06	421.17	139.14	120.6	41.427	6.568e-06	51.365	157.082	-6.426	11.927	-89.703	3.140	38.162	-89.899	-85.112	-23.906	-7.637	-86.354	-82.133	-82.063	-76.568	2.406	-77.251	-8191	255	
7534.000	1	1	0	0	0.23124	0.17341	0.28444	0.11062	0.13629	0.16993	0.43101	0.20391	0.3033	0.16287	0.38238	0.18263	0.12309	0.18015	0.191	0.056312	-1.7687	-1.4396	-1.7812	-2.1063	-1.2646	-2.2313	-1.9792	-1.6688	-2.1917	-1.4292	-2.0167	-2.2417	-1.2833	-2.2708	-1.8333	-1.6104	210.431	13.321	170.487	89.214	222.528	228.117	218.981	236.261	91.335	-56.382	-80.214	252.390	31.889	196.449	54.117	-39.118	0.00034537	0.00029269	0.00023356	1352.1	3.1012e-06	3.2616e-06	1341.1	360.7	2.8904e-06	3.7994e-06	413.14	135.46	116.49	40.24	5.4552e-06	49.576	0.00053121	0.00060075	0.00016548	1363.5	5.8838e-06	6.7521e-06	1364.3	366.74	5.9935e-06	6.7854e-06	420.44	138.62	120.31	41.322	6.3551e-06	51.12	158.818	-85.047	-39.063	-90.629	139.254	10.086	-90.805	-85.800	-45.038	54.657	-86.225	-82.400	-82.261	-76.793	33.820	-77.388	-8191	255	
7534.096	1	1	0	0	0.13369	0.20205	0.3422	0.28305	0.024711	0.11107	0.37559	0.20653	0.13443	0.2666	0.062612	0.07799	0.097883	0.13621	0.23106	0.15599	-1.8146	-1.3875	-1.6083	-2.1958	-1.2437	-2.1083	-1.9438	-1.4625	-2.1271	-1.3417	-1.8312	-2.2708	-1.5063	-2.0833	-1.8417	-1.5	101.249	-18.204	131.385	223.704	-58.985	72.106	204.451	244.969	-82.517	24.060	-18.275	-48.149	70.021	-98.255	-4.334	245.497	0.00033714	0.00016119	0.00013735	1342.1	1.4143e-06	1.5497e-06	1340.9	359.86	7.4711e-06	6.3524e-06	414.16	135.73	116.26	40.198	3.1609e-06	49.831	0.00055783	0.00062844	0.00016079	1361.2	6.2493e-06	6.8518e-06	1361.9	366.71	6.3122e-06	6.7884e-06	420.19	138.97	120.94	41.377	6.1961e-06	51.272	154.212	5.135	-36.661	-90.351	0.290	8.049	-90.877	-86.024	-86.643	29.987	-86.312	-82.362	-81.997	-76.706	40.141	-77.388	-8191	255	
7534.193	1	1	0	0	0.18995	0.16194	0.21129	0.32161	0.18529	0.20852	0.12697	0.30456	0.22337	0.17005	0.11323	0.15089	0.31399	0.30761	0.26544	0.43201	-1.8854	-1.5229	-1.3333	-2.2938	-1.2646	-1.7917	-2.0625	-1.4333	-2.0146	-1.7542	-1.4521	-2.2458	-1.1917	-1.8875	-1.8062	-1.4167	124.934	133.238	91.076	203.156	-31.057	-77.732	204.757	237.307	91.299	-41.596	-23.131	-60.648	177.833	-98.683	218.031	-85.441	0.00040203	0.00064527	0.00020683	1351.2	3.3842e-06	3.5083e-06	1342.5	360.4	3.8346e-06	4.6266e-06	413.69	135.75	116.46	40.329	3.4956e-06	49.983	0.0005819	0.00060764	0.00015635	1365.7	6.6039e-06	6.6614e-06	1362.4	366.73	6.624e-06	6.622e-06	420.15	138.9	120.89	41.284	6.0264e-06	51.273	156.597	-61.291	6.006	-90.325	41.358	39.941	-90.740	-85.957	24.227	52.214	-86.244	-82.231	-82.029	-76.649	-5.241	-77.355	-8191	255	
7534.289	1	1	0	0	0.18783	0.1124	0.36017	0.08402	0.058208	0.31596	0.05169	0.29898	0.086995	0.1632	0.27082	0.25031	0.084394	0.23574	0.35305	0.22636	-1.65	-1.7292	-1.2729	-2.3083	-1.3813	-1.7021	-2.2	-1.5438	-1.975	-1.725	-1.3875	-2.175	-1.3833	-1.7812	-2.0229	-1.4062	5.290	48.429	73.482	249.378	112.738	-75.557	246.120	240.976	-91.127	243.013	-98.071	150.431	79.856	224.840	236.402	167.950	0.00029028	0.0016606	9.2655e-05	1348.9	4.8411e-06	1.5023e-06	1339	360.54	4.1232e-06	4.437e-06	414.07	135.23	115.64	40.241	6.4548e-06	49.651	0.00060562	0.00058484	0.0001508	1363.2	6.7631e-06	6.2512e-06	1361	366.89	6.7941e-06	6.2424e-06	419.57	138.92	120.96	41.251	5.8974e-06	51.162	148.893	-38.176	49.286	-90.490	-21.111	115.888	-90.670	-85.954	-28.695	24.812	-86.359	-82.033	-82.331	-76.521	32.860	-77.624	-8191	255	
7534.385	1	1	0	0	0.34843	0.20718	0.21501	0.24251	0.296	0.18773	0.14131	0.11563	0.2197	0.26962	0.23226	0.050354	0.15807	0.27659	0.21266	0.24479	-1.4062	-1.7333	-1.3937	-2.5292	-1.6313	-1.7042	-2.2604	-1.4271	-2.0292	-1.7792	-1.4104	-2.3021	-1.5917	-1.5479	-2.2375	-1.2833	87.310	-52.334	-98.779	191.968	-94.541	235.051	217.708	209.711	87.232	183.379	210.441	234.410	200.800	244.674	231.904	194.722	0.00026854	0.00065509	9.5842e-05	1350.8	3.1099e-06	2.7989e-06	1344.6	359.79	2.9025e-06	6.0493e-06	413.38	135.39	116.63	40.134	1.3087e-06	49.777	0.0006072	0.00057458	0.00015013	1364.6	6.8004e-06	6.2873e-06	1361	366.41	6.7511e-06	6.2492e-06	419.04	138.76	121.11	41.115	5.9705e-06	51.249	159.660	-25.363	25.160	-90.473	7.864	43.063	-90.640	-86.043	17.001	45.152	-86.218	-82.150	-81.871	-76.652	-73.154	-77.380	-8191	255	
7534.505	1	1	0	0	0.13597	0.25252	0.20037	0.048414	0.20459	0.21252	0.13206	0.21693	0.059939	0.32378	0.023646	0.25002	0.16993	0.19852	0.16819	0.065581	-1.3188	-1.95	-1.2875	-2.3292	-1.4688	-1.4375	-2.4313	-1.775	-1.7271	-1.7958	-1.0875	-2.2542	-1.7188	-1.4875	-2.0312	-1.5187	66.295	155.890	135.927	0.076	-21.142	-82.945	181.136	215.245	86.758	217.861	249.185	209.028	228.779	-64.777	49.729	186.852	0.00029406	0.00044142	0.00012076	1354.4	1.1306e-06	5.4753e-06	1343.5	359.54	2.6903e-06	6.2102e-06	411.15	135.37	116.61	40.227	5.6777e-06	49.716	0.00059177	0.00056554	0.00015152	1368	6.6957e-06	6.1969e-06	1361.7	366.94	6.5528e-06	6.2407e-06	418.64	138.96	120.94	41.069	6.1749e-06	51.225	157.353	13.805	-39.196	-90.443	2.321	14.128	-90.537	-85.800	-41.508	58.339	-86.134	-82.128	-82.241	-76.824	45.213	-77.361	-8191	255	
7534.602	1	1	0	0	0.15919	0.15251	0.2435	0.33106	0.17362	0.25887	0.31517	0.23758	0.23346	0.047808	0.20538	0.34996	0.22394	0.10015	0.070864	0.2831	-1.4208	-2.0021	-1.0896	-2.2687	-1.7875	-1.425	-2.2917	-1.4062	-1.7812	-2.1354	-1.35	-2.0979	-1.8542	-1.4813	-2.0833	-1.6167	66.711	41.289	52.028	228.775	149.807	1.971	223.083	192.238	24.310	123.442	-6.481	-87.021	-50.319	198.120	69.850	212.062	0.00025386	0.00016734	0.00013439	1350.5	4.8035e-06	9.6118e-06	1342.5	360.54	5.2059e-06	2.025e-06	412.89	134.8	116.38	40.132	1.4484e-06	49.732	0.00058431	0.00055636	0.00015956	1368.2	6.4694e-06	6.0744e-06	1363.8	367.72	6.4517e-06	6.0567e-06	420.15	138.63	120.35	41.068	6.5488e-06	51.159	161.195	-32.692	-13.430	-90.288	45.976	16.374	-90.589	-85.819	-32.937	28.871	-86.442	-81.957	-82.254	-76.723	121.394	-77.307	-8191	255	
7534.696	1	1	0	0	0.14223	0.23437	0.158	0.038141	0.10212	0.19152	0.12936	0.2406	0.09481	0.023944	0.15424	0.15034	0.26299	0.33494	0.21078	0.17062	-1.0958	-2.0667	-1.325	-2.275	-1.9396	-1.2771	-2.3333	-1.7354	-1.5333	-2.15	-1.3854	-1.8792	-2.175	-1.3604	-2.2479	-1.7146	-22.320	41.601	67.361	-39.753	55.734	-10.097	-48.459	237.938	79.420	-32.355	-70.902	216.869	-17.585	-84.693	17.809	211.620	0.0002784	0.00042507	0.00012169	1357.5	9.5532e-07	6.229e-06	1344.3	360.28	6.4594e-06	4.2032e-06	412.16	135.28	116.82	40.112	5.6286e-06	50.028	0.00056654	0.00055312	0.0001678	1369.4	6.3216e-06	5.9318e-06	1364	367.26	6.2773e-06	5.9968e-06	420.78	138.93	120.48	41.098	6.7333e-06	51.444	165.514	-19.738	-23.318	-90.156	61.194	24.308	-90.615	-85.927	21.873	74.245	-86.409	-82.174	-81.786	-76.518	-3.765	-77.428	-8191	255	
7534.817	1	1	0	0	0.13178	0.20836	0.35648	0.11026	0.12174	0.12963	0.24478	0.20854	0.33418	0.10899	0.23462	0.12537	0.27929	0.21779	0.12413	0.1306	-1.0708	-2.2208	-1.3083	-1.9312	-2.0687	-1.2833	-2.2854	-1.8146	-1.2583	-2.0771	-1.5729	-1.7437	-2.15	-1.3833	-1.8979	-1.8354	148.617	-29.393	172.931	27.369	-70.548	98.833	167.093	161.034	32.897	-88.843	217.767	212.072	-103.063	38.823	46.157	109.428	0.00032794	0.00041608	0.0001232	1353.8	2.9018e-06	3.5017e-06	1346.1	362.31	5.5219e-06	4.973e-06	415.89	136.19	116.99	40.468	4.3267e-06	49.97	0.00055459	0.00054885	0.00017184	1368.1	6.1153e-06	6.0824e-06	1367.6	367.74	5.9804e-06	6.0438e-06	422.33	139.57	120.98	41.491	6.6978e-06	51.542	161.583	-18.554	-19.071	-90.380	68.338	61.319	-90.611	-85.927	-14.548	-2.294	-86.460	-81.847	-81.546	-76.653	61.214	-77.719	-8191	255	
7534.888	1	1	0	0	0.31203	0.23643	0.1227	0.26962	0.17683	0.14317	0.16495	0.2163	0.37306	0.12472	0.23273	0.18403	0.30726	0.075926	0.19414	0.16156	-1.0875	-2.1875	-1.3021	-2.0521	-2.2646	-1.2604	-2.0875	-2.0396	-1.1917	-2.2458	-1.6979	-1.8104	-2.1271	-1.575	-1.8771	-2.0917	-1.822	211.818	229.016	215.168	-37.393	62.535	-66.314	241.450	45.960	2.847	135.854	112.795	241.029	218.168	179.858	205.507	0.00033992	0.00029652	0.00027955	1355.3	3.5333e-06	1.4282e-06	1347.4	362.67	6.585e-06	4.1145e-06	414.71	137.18	117.52	40.617	4.6904e-06	50.321	0.00052297	0.00056943	0.00016994	1369	5.8151e-06	6.3077e-06	1368.5	368.36	5.7501e-06	6.3883e-06	422.45	140.1	121.42	41.646	6.4817e-06	51.713	170.487	-89.245	-23.297	-90.363	38.723	-65.544	-90.471	-85.909	13.062	50.986	-86.572	-82.237	-81.648	-76.640	46.416	-77.291	-8191	255	
7534.984	1	1	0	0	0.023629	0.10558	0.24593	0.296	0.13364	0.14706	0.10719	0.33809	0.081544	0.11871	0.257	0.27141	0.087829	0.24326	0.12164	0.10102	-0.78958	-2.0312	-1.5125	-1.7125	-2.0979	-1.3625	-1.9146	-2.1708	-1.3312	-1.95	-1.8188	-1.5187	-2.3167	-1.4146	-1.5604	-2.2417	199.489	151.516	73.313	231.563	158.292	209.480	160.676	151.544	164.004	234.970	174.872	230.378	-94.706	112.833	99.183	-93.063	0.00024283	0.00061351	3.2291e-05	1359.4	2.6225e-06	2.9391e-06	1353.8	362.83	4.6294e-06	7.0776e-06	414.6	136.14	117.19	40.629	4.3668e-06	50.228	0.00052321	0.00060453	0.00016523	1369.4	5.8444e-06	6.6947e-06	1370.4	368.3	5.921e-06	6.7765e-06	421.44	139.66	121.29	41.639	6.3828e-06	51.624	159.367	-30.206	-6.179	-90.219	43.447	-27.078	-90.361	-85.956	-61.755	6.802	-86.293	-81.991	-81.829	-76.788	28.559	-77.305	-8191	255	
7535.081	1	1	0	0	0.16748	0.15692	0.22957	0.32982	0.15268	0.098921	0.086101	0.27526	0.11239	0.10566	0.17766	0.074676	0.22053	0.39852	0.10439	0.16468	-0.80833	-1.7771	-1.7292	-1.5917	-2.2167	-1.3229	-1.6979	-2.1521	-1.4083	-2.1896	-1.7479	-1.5854	-2.3729	-1.5854	-1.3646	-2.1229	-10.409	147.601	72.273	-89.865	75.552	-5.365	183.846	221.759	6.257	226.176	-28.302	153.474	169.629	255.030	-4.678	122.070	0.00030668	0.00065565	0.00021012	1355.9	3.8859e-06	4.3346e-06	1343.5	361.87	2.0166e-06	8.0632e-06	414.78	136.14	117.69	40.416	2.7732e-06	50.145	0.00054663	0.0006287	0.00016202	1370	6.2476e-06	6.8556e-06	1367	368.36	6.297e-06	6.8615e-06	421.44	139.5	121.63	41.567	6.2326e-06	51.473	165.443	-27.810	-17.871	-90.557	46.568	30.228	-90.485	-86.058	41.966	17.469	-86.432	-82.260	-81.892	-76.842	39.532	-77.760	-8191	255	
7535.201	1	1	0	0	0.12946	0.23459	0.1973	0.045675	0.13371	0.15386	0.13706	0.076952	0.1755	0.13199	0.14121	0.12393	0.27387	0.29675	0.064264	0.26398	-0.74167	-1.7833	-1.8042	-1.4146	-2.0854	-1.4937	-1.6042	-2.3354	-1.3792	-1.7188	-2.1521	-1.3792	-2.1063	-1.6771	-1.4917	-2.3354	202.395	236.462	228.614	-86.178	203.282	116.822	244.779	198.032	159.917	-47.835	252.013	-52.194	-83.128	252.417	-54.256	-99.219	0.00025849	0.00042909	0.00012252	1352.7	8.0843e-07	3.1927e-06	1347.8	363.23	5.064e-06	9.6074e-06	414.1	136.14	116.93	40.573	3.0444e-06	50.253	0.00057146	0.00061131	0.00015806	1365.7	6.4968e-06	6.66e-06	1364.5	368.16	6.5387e-06	6.5324e-06	420.49	139.23	121.74	41.521	5.9694e-06	51.523	164.764	-18.349	-31.758	-90.442	-66.641	70.323	-90.724	-86.032	-29.327	63.329	-86.395	-82.052	-82.465	-76.681	107.829	-77.521	-8191	255	
7535.297	1	1	0	0	0.16582	0.19637	0.1836	0.22989	0.14071	0.16683	0.33424	0.25717	0.25293	0.14006	0.15036	0.20239	0.30611	0.30623	0.042425	0.12277	-0.91458	-1.8937	-1.9875	-1.5958	-2.1083	-1.6792	-1.4833	-2.3271	-1.2021	-1.6042	-2.2562	-1.2646	-2.0438	-1.8625	-1.3542	-2.2125	187.849	-60.613	253.525	242.577	194.140	-70.290	211.339	234.175	206.004	5.716	10.585	153.442	243.332	232.210	-40.488	24.656	0.00027428	0.00070895	0.000138	1351.4	9.8769e-07	4.2709e-06	1345.8	362.03	1.5881e-06	3.7071e-06	416.26	136.19	117.42	40.408	2.5e-06	50.309	0.00059302	0.00058163	0.00015004	1364.7	6.6442e-06	6.2717e-06	1361.4	367.72	6.6304e-06	6.1779e-06	420.76	139.49	121.8	41.459	5.7203e-06	51.577	167.142	-12.366	56.058	-90.389	87.303	53.442	-90.717	-85.810	29.522	5.498	-86.583	-82.205	-81.740	-76.671	0.312	-77.292	-8191	255	
7535.394	1	1	0	0	0.15038	0.061839	0.14844	0.24113	0.14546	0.24714	0.48391	0.065873	0.28333	0.25311	0.22289	0.25054	0.16697	0.16506	0.077629	0.18015	-1.1063	-1.5167	-2.0542	-1.5646	-1.9708	-1.7687	-1.5583	-2.0833	-1.3396	-1.5875	-2.1896	-1.4813	-1.9417	-2.0104	-1.3083	-2.3125	53.150	6.418	141.257	205.349	17.065	236.848	213.691	249.633	-93.214	-24.737	229.896	246.735	-82.794	247.827	196.833	232.768	0.00022557	0.00065087	7.8982e-05	1349.5	1.5405e-06	4.3941e-06	1341	360.4	4.1124e-06	6.0006e-06	412.08	135.25	116.09	40.015	2.1765e-06	49.85	0.00059772	0.00056891	0.00014583	1364.6	6.6769e-06	6.1755e-06	1358.7	366.82	6.6528e-06	6.118e-06	418.48	138.75	120.64	41.075	5.6846e-06	51.266	158.730	-22.774	7.766	-90.287	-56.561	6.102	-90.679	-85.717	-38.115	27.747	-86.311	-82.162	-81.975	-76.688	199.974	-77.481	-8191	255	
7535.465	1	1	0	0	0.18529	0.08319	0.16457	0.23654	0.33994	0.17365	0.41675	0.25617	0.25941	0.086801	0.14405	0.19096	0.2457	0.15662	0.20107	0.061482	-1.0521	-1.2208	-2.1833	-1.4062	-1.6938	-1.8771	-1.5104	-2.1854	-1.6187	-1.3667	-2.2979	-1.4771	-1.6271	-2.1479	-1.3062	-2.3375	98.465	27.479	-42.728	72.412	202.850	-7.133	191.900	179.712	14.444	-43.167	156.063	234.705	194.670	-26.161	241.715	-56.088	0.00029345	0.00054051	8.5139e-05	1347.8	7.1059e-06	5.4034e-06	1342.4	359.69	2.5307e-06	8.2442e-07	413.94	134.59	116.83	40.05	3.1104e-06	49.776	0.00058192	0.00054757	0.00014686	1363	6.3791e-06	5.923e-06	1356.8	366.44	6.2726e-06	5.7962e-06	419.27	138.65	120.67	41.059	5.737e-06	51.295	161.239	-37.054	-29.973	-90.240	32.085	-34.779	-90.607	-85.579	-36.510	91.909	-86.278	-82.149	-82.150	-76.405	70.698	-77.394	-8191	255	
7535.586	1	1	0	0	0.23118	0.26061	0.33238	0.21675	0.14297	0.078543	0.19243	0.1685	0.041597	0.25518	0.21119	0.17133	0.066423	0.10524	0.17575	0.19638	-1.3583	-1.4896	-2.1146	-1.4896	-1.6458	-2.0812	-1.5042	-2.2208	-1.8771	-1.4458	-2.0229	-1.6125	-1.8062	-2.2938	-1.2146	-2.0271	154.634	142.490	222.097	141.791	248.113	88.091	182.340	-70.188	217.028	-40.394	-73.497	-35.146	245.277	226.821	181.921	237.867	0.00025438	0.00018796	8.6816e-05	1344.9	8.1993e-06	8.4538e-06	1334.5	360.73	5.473e-06	5.0057e-06	414.08	135.51	116.25	40.178	2.2699e-06	49.889	0.00055634	0.00052201	0.0001501	1361.8	6.1029e-06	5.7317e-06	1355.1	366.84	6.0642e-06	5.5756e-06	419.59	138.6	119.81	41.107	6.0948e-06	51.344	163.064	-14.957	2.774	-90.153	25.096	53.928	-90.509	-85.709	-41.196	35.120	-86.282	-81.984	-81.954	-76.638	243.118	-77.448	-8191	255	
7535.682	1	1	0	0	0.045043	0.10547	0.20439	0.080192	0.0098707	0.24731	0.27336	0.10877	0.32092	0.29049	0.2116	0.21959	0.20675	0.41922	0.14036	0.015091	-1.5063	-1.2708	-2.2438	-1.8146	-1.4771	-2.175	-1.5354	-2.0229	-1.9813	-1.3	-2.425	-1.7812	-1.5729	-2.3833	-1.4354	-2.15	-70.412	-14.730	63.862	218.101	234.684	-22.887	213.030	248.571	-35.826	253.186	179.162	162.255	188.793	223.675	173.253	-75.621	0.00027257	0.00058982	0.00016321	1346.1	6.235e-06	4.5537e-06	1336.8	359.61	2.7588e-06	4.459e-06	411.55	135.17	117.47	40.291	2.7922e-06	49.976	0.00054315	0.00051364	0.00015772	1361.7	5.9146e-06	5.5806e-06	1358.4	366.8	5.926e-06	5.6143e-06	419.36	138.81	120.52	41.237	6.397e-06	51.367	166.664	-24.812	61.453	-90.261	32.535	56.648	-90.601	-85.843	-1.980	26.090	-85.941	-82.018	-81.755	-76.736	36.106	-77.099	-8191	255	
7535.778	1	1	0	0	0.22331	0.22749	0.12589	0.3042	0.19181	0.14444	0.05524	0.36748	0.27311	0.13397	0.16554	0.24665	0.10974	0.20698	0.18868	0.33952	-1.5562	-1.1187	-2.0146	-1.775	-1.5271	-2.0729	-1.5938	-1.8521	-2.05	-1.5542	-2.1917	-1.8438	-1.2437	-2.2708	-1.2417	-1.7708	231.306	189.385	151.375	217.144	240.389	48.255	223.265	195.377	201.751	-69.508	239.913	-96.670	205.925	178.127	-48.823	190.311	0.0002841	0.00039795	8.0517e-05	1345.5	2.3438e-06	5.4054e-06	1338.1	360.39	1.7755e-06	6.3995e-06	412.03	135.98	116.83	40.266	2.6081e-06	50.126	0.00052401	0.00051908	0.00016246	1360.5	5.7788e-06	5.7886e-06	1357.4	366.92	5.7124e-06	5.7409e-06	420.63	139.02	120.38	41.288	6.3887e-06	51.415	154.243	2.872	0.720	-90.384	4.681	34.383	-90.872	-85.749	49.814	79.988	-86.114	-82.174	-81.594	-76.555	-18.599	-77.208	-8191	255	
7535.897	1	1	0	0	0.22267	0.069504	0.29098	0.56889	0.13146	0.39682	0.16676	0.38439	0.13382	0.39613	0.35295	0.12132	0.19684	0.1879	0.17425	0.040694	-1.6625	-1.3771	-1.9958	-2.1417	-1.3229	-2.2417	-1.7521	-1.6854	-2.2292	-1.2333	-2.1333	-2.1208	-1.5083	-2.2687	-1.6313	-1.775	8.280	71.235	201.264	219.797	250.979	155.184	156.506	173.109	-60.559	-73.172	159.118	154.162	239.863	198.850	86.420	-78.292	0.00027982	0.00019807	0.00010577	1347.8	2.6417e-06	1.1094e-06	1341.1	360.83	2.7319e-06	2.4595e-06	413.75	136.11	117.18	40.614	3.7589e-06	50.465	0.00050743	0.0005323	0.00016204	1360.2	5.5955e-06	6.0267e-06	1358.9	366.84	5.5308e-06	6.1083e-06	420.68	139.52	120.72	41.58	6.2157e-06	51.563	167.838	-7.090	-37.248	-90.372	-81.055	-19.686	-90.653	-85.705	-29.506	79.281	-85.968	-82.239	-81.886	-76.639	4.786	-76.975	-8191	255	
7535.993	1	1	0	0	0.35684	0.049796	0.099457	0.064695	0.19235	0.16325	0.075356	0.16355	0.099351	0.1041	0.17525	0.26532	0.039905	0.20983	0.28005	0.42399	-1.7938	-1.2521	-1.9854	-2.0854	-1.3375	-2.3042	-1.9146	-1.6646	-2.1667	-1.4479	-2.1042	-2.1625	-1.35	-2.0438	-1.6812	-1.4083	-36.225	204.890	222.725	111.848	62.240	70.039	105.496	-90.605	-26.971	-76.525	255.590	192.043	12.675	202.410	-68.196	230.317	0.00032944	0.00047763	8.963e-05	1346	3.0075e-06	5.9892e-06	1344.3	359.71	6.133e-06	3.0073e-06	414.92	136.41	117.07	41.07	5.4181e-06	50.404	0.00050611	0.00056655	0.00015574	1359.9	5.5328e-06	6.3382e-06	1359.5	366.84	5.5782e-06	6.3631e-06	421.07	139.63	120.96	41.835	5.9871e-06	51.678	167.640	20.304	10.750	-90.222	15.383	46.337	-90.496	-85.670	-20.764	44.894	-85.952	-82.016	-82.096	-76.557	37.312	-77.379	-8191	255	
7536.089	1	1	0	0	0.12427	0.39956	0.16397	0.1327	0.30657	0.18229	0.16447	0.1597	0.27664	0.059496	0.37174	0.32559	0.19658	0.055971	0.024203	0.055369	-1.8646	-1.4375	-1.8458	-2.3896	-1.4021	-2	-1.9667	-1.6458	-2.1375	-1.4458	-1.8458	-2.1333	-1.6729	-2.0354	-1.7396	-1.4458	204.011	94.242	171.855	-71.936	4.057	-63.034	207.237	50.825	-25.470	172.893	188.342	176.347	101.055	189.782	246.458	-7.944	0.0002761	0.00048745	0.00015759	1347.8	6.4575e-06	6.1476e-06	1345.4	361.37	2.3496e-06	1.3751e-06	415.88	136.18	117.48	40.839	5.1593e-06	50.473	0.0005098	0.00058779	0.00015152	1360.6	5.7628e-06	6.3557e-06	1359.9	367.18	5.7919e-06	6.3705e-06	421.21	139.73	121.55	41.801	5.8068e-06	51.79	150.922	-40.328	-5.042	-90.229	17.385	61.165	-90.503	-85.770	22.878	25.807	-86.075	-81.835	-81.849	-76.635	24.282	-77.103	-8191	255	
7536.185	1	1	0	0	0.1712	0.22345	0.15311	0.16073	0.15958	0.083608	0.14545	0.1712	0.11743	0.21558	0.2141	0.11829	0.092027	0.22795	0.20837	0.16778	-1.7979	-1.4625	-1.7333	-2.2188	-1.2354	-1.9312	-2.075	-1.4771	-1.9979	-1.6042	-1.5854	-2.175	-1.3646	-1.9813	-1.8	-1.5542	250.344	100.811	119.710	119.247	13.643	182.076	109.704	203.656	91.486	160.366	164.366	158.326	253.050	250.853	-68.924	-68.574	0.00029675	0.00011294	0.00035312	1350.8	2.2501e-06	2.4969e-06	1346.7	361.44	5.8145e-06	5.3763e-06	415.25	137.36	118.28	41.035	4.1211e-06	50.889	0.00053928	0.00057741	0.00014706	1360.9	6.0643e-06	6.2357e-06	1360.5	367.68	6.1675e-06	6.2181e-06	421.54	140.39	122.19	42.075	5.6378e-06	52.054	151.198	246.626	-3.575	-90.057	110.276	18.072	-90.505	-85.571	-4.320	15.412	-86.198	-82.031	-82.491	-76.654	50.804	-77.573	-8191	255	
7536.282	1	1	0	0	0.20563	0.21192	0.27498	0.083902	0.27511	0.049464	0.07372	0.11958	0.19597	0.36182	0.22157	0.29786	0.2241	0.33368	0.0075712	0.27401	-1.6688	-1.5125	-1.3979	-2.4896	-1.2375	-1.8563	-2.2062	-1.3479	-2.0812	-1.7646	-1.6	-2.2125	-1.6042	-1.8062	-2.1167	-1.5187	167.254	-77.806	254.765	162.943	-85.081	87.997	232.374	131.892	65.504	91.651	-64.316	190.634	-90.137	232.684	37.398	122.033	0.00029408	0.00052004	0.0001847	1347.9	5.254e-06	5.3909e-06	1339.7	362.5	4.434e-06	2.6792e-06	413.7	136.92	118.26	41.014	6.4556e-06	50.594	0.00056058	0.00055036	0.00014117	1362.5	6.2705e-06	5.9355e-06	1358.9	367.95	6.3169e-06	5.88e-06	419.98	140.19	122.52	41.954	5.5019e-06	51.931	150.834	-52.941	-21.435	-90.187	33.768	13.184	-90.554	-85.729	-49.180	27.610	-86.202	-82.020	-81.958	-76.667	-5.490	-77.334	-8191	255	
7536.378	1	1	0	0	0.090595	0.16461	0.17332	0.21142	0.20574	0.082971	0.29943	0.18866	0.21284	0.20251	0.15056	0.16102	0.17413	0.26206	0.08165	0.20126	-1.6479	-1.6708	-1.4479	-2.1167	-1.5021	-1.6938	-2.1354	-1.5	-1.9188	-1.8312	-1.35	-2.3396	-1.7021	-2.0208	-2.1729	-1.3208	73.518	223.808	-78.749	-73.046	112.454	242.656	144.483	175.572	-38.924	168.843	226.632	147.690	248.176	217.599	160.795	249.101	0.0002732	0.00031443	0.0001273	1343.6	5.8747e-06	3.8107e-06	1342.8	362.54	2.9323e-06	3.0878e-06	415.18	137.35	117.96	40.919	4.1155e-06	50.817	0.00056402	0.00053119	0.00013699	1361.3	6.315e-06	5.7794e-06	1359.8	368.45	6.1661e-06	5.7885e-06	420.52	140.75	122.18	41.986	5.3755e-06	52.278	151.072	34.726	-5.221	-90.145	36.879	35.527	-90.555	-85.851	-0.075	37.040	-86.042	-82.146	-82.331	-76.561	23.641	-77.399	-8191	255	
7536.498	1	1	0	0	0.2715	0.12261	0.11201	0.30857	0.30288	0.43105	0.23502	0.22614	0.052523	0.1189	0.11662	0.23577	0.1725	0.14804	0.22048	0.20045	-1.725	-2.0396	-1.2833	-2.4354	-1.6354	-1.5875	-2.2	-1.3979	-1.8729	-2.0375	-1.4688	-2.2604	-1.7833	-1.4667	-2.0062	-1.5854	128.703	216.114	-70.205	-98.523	-59.999	219.447	211.734	197.621	-48.681	252.170	165.257	130.349	202.622	243.155	170.988	-28.030	0.00026333	0.00055399	0.00017739	1344.5	6.5851e-06	2.5401e-06	1342	361.11	2.4554e-06	7.2655e-06	414.51	137.16	118.43	40.851	2.3803e-06	50.764	0.00055004	0.0005186	0.00013547	1363.3	5.9793e-06	5.6217e-06	1361.2	368.39	6.049e-06	5.6429e-06	420.37	140.66	121.95	41.812	5.4696e-06	52.069	162.960	-19.757	15.367	-90.101	43.960	41.565	-90.578	-85.768	-26.005	-16.766	-86.066	-81.915	-82.169	-76.426	53.807	-77.427	-8191	255	
7536.595	1	1	0	0	0.14596	0.17193	0.10066	0.29014	0.12385	0.24581	0.21093	0.22948	0.18293	0.13169	0.11553	0.21184	0.30783	0.23433	0.25393	0.18327	-1.3625	-1.8542	-1.3292	-2.2646	-1.6688	-1.3896	-2.3187	-1.6333	-1.5542	-2.2042	-1.3396	-1.9937	-1.8292	-1.4125	-2.0667	-1.5646	205.677	-90.585	-29.108	230.665	-102.091	200.975	202.568	209.945	62.609	132.904	190.710	-11.209	-73.354	-92.895	218.798	155.811	0.000282	0.00068718	5.8191e-05	1350.9	3.7719e-06	5.2649e-06	1341.1	360.78	3.4449e-06	3.2916e-06	415.15	137.68	118.38	40.817	2.4154e-06	50.511	0.00053066	0.00050171	0.00014129	1363.6	5.8595e-06	5.4285e-06	1358.1	367.47	5.786e-06	5.4214e-06	420.47	140.53	121.8	41.685	5.8376e-06	51.982	152.073	-69.506	57.231	-90.149	17.728	68.642	-90.551	-85.843	58.626	29.498	-86.227	-82.109	-82.234	-76.524	-12.497	-77.677	-8191	255	
7536.689	1	1	0	0	0.16859	0.22246	0.10469	0.312	0.1228	0.067799	0.24651	0.18723	0.11384	0.20508	0.26247	0.32662	0.21948	0.28676	0.15975	0.24139	-1.0771	-1.9896	-1.2812	-2.1354	-1.7083	-1.3167	-2.3771	-1.8667	-1.2313	-2.1562	-1.4667	-1.8708	-1.9708	-1.45	-2.0625	-1.7604	93.362	154.100	-33.361	217.459	94.425	103.490	142.215	208.799	26.654	241.389	176.121	223.600	220.589	238.200	99.550	119.952	0.00034518	0.00060979	7.8497e-05	1346.6	3.493e-06	6.3859e-06	1340.1	361.63	1.8958e-06	5.1578e-06	413.41	137.21	117.98	40.818	2.4609e-06	50.558	0.00052294	0.00049649	0.0001519	1361.8	5.7206e-06	5.3931e-06	1360.1	367.6	5.7329e-06	5.4274e-06	421.16	140.25	121.5	41.761	6.1568e-06	51.949	157.237	-20.845	25.710	-90.124	22.726	-2.145	-90.492	-85.923	235.308	50.132	-86.168	-82.179	-82.122	-76.629	-7.038	-77.558	-8191	255	
7536.762	1	1	0	0	0.084489	0.26964	0.14775	0.28039	0.12051	0.14235	0.29674	0.11693	0.025033	0.057648	0.21076	0.26062	0.026597	0.27454	0.16623	0.056025	-1.2313	-2.25	-1.3292	-2.0292	-2.0854	-1.3687	-2.1562	-1.9688	-1.3229	-2.1312	-1.5771	-1.8958	-2.05	-1.3875	-2.0896	-2	32.830	61.429	146.360	233.935	-77.603	170.341	216.409	79.196	92.074	192.293	243.518	-53.663	-31.569	-99.553	173.323	-14.595	0.00025895	0.00026876	4.775e-05	1347.7	4.752e-06	5.9451e-06	1338.3	361.89	2.4465e-06	4.7475e-06	412.9	137.25	117.76	40.757	1.6424e-06	50.665	0.00050741	0.00050548	0.00015993	1362.7	5.6847e-06	5.5108e-06	1360.7	367.75	5.5698e-06	5.699e-06	420.7	140.16	121.29	41.705	6.2959e-06	51.875	174.024	-1.464	180.038	-90.199	21.161	-16.231	-90.420	-85.858	-19.588	74.241	-86.457	-82.165	-81.932	-76.699	32.271	-77.543	-8191	255	
7536.881	1	1	0	0	0.16198	0.14956	0.050554	0.15404	0.11312	0.16581	0.19632	0.13001	0.36752	0.1402	0.081576	0.2113	0.28327	0.12136	0.43399	0.32123	-1.1562	-2.0208	-1.3042	-1.9604	-1.9438	-1.2729	-2.1979	-2.0417	-1.2896	-2.1167	-1.4292	-1.7271	-2.2208	-1.3104	-1.7333	-2.1833	-103.947	-53.170	-27.481	-63.712	-36.094	131.975	148.100	90.275	121.987	157.909	210.204	200.042	143.359	91.476	243.641	130.475	0.00031363	0.00050792	0.0001174	1348.9	3.9671e-06	2.8572e-06	1345.1	361.37	2.3106e-06	1.9466e-06	415.68	136.34	117.67	40.852	5.0564e-06	50.63	0.00049842	0.00053479	0.0001616	1360.4	5.4815e-06	5.8397e-06	1359.4	367.66	5.3792e-06	5.9271e-06	421.02	139.67	121.11	41.736	6.0923e-06	51.802	161.077	10.352	-31.498	-90.230	-25.654	43.167	-90.508	-85.994	-35.911	61.676	-86.303	-82.023	-81.999	-76.589	22.753	-77.128	-8191	255	
7536.977	1	1	0	0	0.14075	0.12946	0.14792	0.34185	0.15029	0.086197	0.38922	0.16367	0.10793	0.21582	0.048029	0.27342	0.32659	0.22014	0.23178	0.21315	-1.0146	-2.0312	-1.575	-1.7437	-2.0208	-1.4271	-2	-2.2021	-1.2479	-2.1021	-1.8083	-1.5646	-2.0875	-1.2812	-1.7354	-2.2	59.724	240.088	248.225	250.036	2.169	161.174	231.405	162.110	211.638	202.969	12.106	162.855	128.911	-83.872	-55.779	193.220	0.00030219	0.00061921	0.00021516	1344.1	1.501e-06	2.0484e-06	1340.7	362.5	2.2167e-06	3.3712e-06	411.84	136.68	118.45	40.824	2.8408e-06	50.569	0.00049116	0.00055659	0.00015549	1358.8	5.4034e-06	6.1442e-06	1359.5	367.44	5.4626e-06	6.1903e-06	419.4	139.82	121.12	41.802	5.8958e-06	51.737	162.999	-11.720	35.345	-90.225	253.052	38.645	-90.465	-85.680	36.720	99.526	-86.156	-81.984	-81.795	-76.600	27.971	-77.492	-8191	255	
7537.074	1	1	0	0	0.17768	0.26605	0.3252	0.01817	0.25614	0.20825	0.076863	0.27182	0.2825	0.10105	0.31906	0.26258	0.14504	0.055625	0.10662	0.2986	-1.0562	-1.9167	-1.6771	-1.6854	-2.2583	-1.4333	-1.8583	-2.0438	-1.1688	-2.0333	-1.85	-1.5979	-1.9312	-1.5229	-1.4625	-2.2146	-47.357	112.145	123.775	-1.337	-6.414	124.124	-28.671	238.633	201.758	-5.906	173.219	254.693	168.693	-74.780	187.900	192.966	0.00036735	0.00026956	0.00022752	1349	2.805e-06	7.5345e-06	1340.4	363.15	4.7056e-06	8.7519e-06	413.21	136.93	118.26	40.818	3.0641e-06	50.573	0.00050054	0.00057218	0.00014892	1360.1	5.6945e-06	6.3906e-06	1357.8	367.26	5.7039e-06	6.3207e-06	419.43	139.73	121.33	41.785	5.7104e-06	51.772	158.717	-50.526	36.613	-90.032	30.904	39.438	-90.197	-85.539	-52.191	18.808	-86.140	-81.949	-81.846	-76.619	-15.285	-77.226	-8191	255	
7537.170	1	1	0	0	0.084433	0.080321	0.16158	0.30792	0.3676	0.081513	0.11403	0.19019	0.22074	0.11691	0.24695	0.084192	0.17994	0.10872	0.23615	0.084206	-1.0583	-1.8687	-1.7104	-1.4333	-2.1042	-1.3458	-1.8312	-2.15	-1.2271	-2.0438	-2.0729	-1.3021	-2.2271	-1.8188	-1.1417	-2.3333	196.273	225.864	128.862	169.019	28.222	176.627	210.786	186.176	10.948	19.703	196.775	229.388	-89.158	7.133	-71.868	117.385	0.00037442	0.00051529	0.0001336	1346	1.9081e-06	6.3534e-06	1344.6	362.25	2.7892e-06	5.8205e-06	412.95	136.57	117.52	40.74	1.1073e-06	50.46	0.00052974	0.00056784	0.00014586	1357.7	5.9996e-06	6.2355e-06	1358.2	367.5	6.0859e-06	6.1387e-06	419.68	139.81	121.69	41.772	5.6217e-06	51.815	155.305	2.825	2.788	-90.180	4.929	-9.238	-90.304	-85.540	156.486	42.214	-86.294	-82.432	-81.976	-76.816	64.948	-77.723	-8191	255	
7537.266	1	1	0	0	0.0218	0.13759	0.28508	0.40063	0.04841	0.13437	0.068017	0.30661	0.1137	0.21	0.27308	0.22788	0.3177	0.11378	0.19489	0.15909	-1.0854	-1.8833	-2.1208	-1.5146	-2.1	-1.7021	-1.6771	-2.3229	-1.2833	-1.8208	-2.1021	-1.5812	-2.0375	-1.9042	-1.4312	-2.2896	-90.645	103.923	176.088	201.920	-66.269	3.336	209.937	212.333	-37.508	12.344	119.097	208.542	145.182	0.870	-97.798	183.348	0.00026118	0.00042052	0.00013849	1349	2.9287e-06	8.7231e-06	1339.9	362.09	6.2458e-06	8.1016e-06	415.02	137.23	117.68	40.592	3.248e-06	50.558	0.00056107	0.00054566	0.00014286	1360	6.2254e-06	5.9792e-06	1358.1	367.53	6.3372e-06	5.9325e-06	420.39	139.84	121.77	41.592	5.4682e-06	51.629	162.982	-54.799	-10.915	-90.420	17.056	32.481	-90.586	-85.877	-26.934	70.933	-86.439	-82.128	-82.096	-76.915	3.396	-77.397	-8191	255	
7537.362	1	1	0	0	0.0095112	0.22983	0.043364	0.21277	0.17093	0.09813	0.17077	0.18155	0.2134	0.19785	0.032044	0.15321	0.49852	0.036922	0.17261	0.14705	-1.1208	-1.6896	-2.2062	-1.4771	-1.9646	-1.8479	-1.4062	-2.2875	-1.3771	-1.65	-2.3583	-1.5938	-2.0271	-1.8458	-1.3813	-2.2083	29.619	-88.149	9.211	224.567	-46.155	119.454	-65.482	-88.393	-56.586	-84.033	170.804	150.779	217.491	148.418	-52.086	163.340	0.00029225	0.00054171	0.00020857	1341.9	2.8494e-06	5.8729e-06	1338.7	360.91	4.3138e-06	4.2686e-06	412.01	135.38	117.55	40.381	8.7316e-07	50.033	0.00057301	0.00053954	0.00014299	1358.6	6.3949e-06	5.9479e-06	1356.3	366.92	6.4272e-06	5.9004e-06	418.34	138.95	120.88	41.265	5.5161e-06	51.432	153.279	-74.741	6.724	-90.182	-24.808	69.268	-90.394	-85.855	251.832	-16.743	-86.385	-82.259	-82.133	-76.797	138.074	-77.486	-8191	255	
7537.458	1	1	0	0	0.17766	0.19124	0.25093	0.06336	0.056116	0.12783	0.33716	0.30077	0.19519	0.32646	0.1362	0.29159	0.30774	0.2647	0.086123	0.33555	-1.0125	-1.4979	-2.1521	-1.5917	-1.8583	-2.1958	-1.5312	-2.3104	-1.6646	-1.6375	-2.2438	-1.4479	-1.775	-1.9417	-1.3125	-2.0854	129.987	-96.917	-25.155	209.798	176.169	235.978	221.542	244.191	-1.453	60.347	212.642	-83.320	-96.755	-16.979	27.950	241.661	0.00029031	0.00049191	4.3711e-05	1345.3	2.4692e-06	6.1027e-06	1335.1	360.29	6.3288e-06	5.567e-06	412.9	135.54	116.99	40.432	4.222e-06	50.19	0.00056466	0.00053504	0.00013981	1360.8	6.2555e-06	5.8694e-06	1355.3	367.1	6.1505e-06	5.7625e-06	418.64	139	120.88	41.253	5.6529e-06	51.5	155.143	-97.555	-1.055	-90.084	9.702	-3.082	-90.489	-85.681	-8.307	16.610	-86.046	-82.206	-81.975	-76.597	61.054	-77.304	-8191	255	
7537.579	1	1	0	0	0.20574	0.39431	0.048534	0.27974	0.12152	0.22318	0.41207	0.40939	0.1498	0.030898	0.15097	0.16978	0.2244	0.17727	0.30217	0.34171	-1.4542	-1.4646	-2.3917	-1.675	-1.6063	-2.0062	-1.525	-2.1729	-1.7208	-1.4312	-2.3396	-1.5063	-1.6313	-2.2438	-1.2812	-2.0896	-37.253	219.011	144.481	213.578	193.821	39.873	209.322	-90.849	90.672	68.365	251.188	126.630	-98.579	170.776	-50.121	200.146	0.00024768	0.00057229	0.000153	1346.3	6.0729e-06	5.8281e-06	1338.7	361.11	4.1511e-06	5.7025e-06	413.96	135.61	116.32	40.196	5.8901e-07	49.948	0.0005459	0.0005186	0.0001443	1361.6	6.0167e-06	5.6648e-06	1357.3	367.06	5.9341e-06	5.6465e-06	419.74	139.25	120.43	41.158	5.9657e-06	51.33	167.711	-23.508	-24.938	-90.368	35.473	41.266	-90.305	-85.612	-54.034	-7.057	-86.239	-82.057	-81.437	-76.457	61.570	-77.339	-8191	255	
7537.675	1	1	0	0	0.1451	0.046099	0.21734	0.15909	0.050879	0.25442	0.13596	0.10453	0.095878	0.27672	0.29115	0.24832	0.34861	0.22219	0.16674	0.034669	-1.475	-1.3917	-2.0104	-1.7417	-1.7292	-2.0583	-1.2938	-2.1667	-1.8583	-1.3354	-2.1813	-1.5708	-1.2833	-2.3271	-1.3937	-2.0125	18.072	-21.629	83.335	188.782	-14.730	223.679	138.369	-77.252	-63.437	255.149	230.045	118.316	35.098	164.170	212.169	100.035	0.00018388	0.00061225	0.00010459	1345.5	4.6118e-06	6.1734e-06	1335.2	359.67	5.2735e-06	8.1275e-06	412.12	134.94	116.99	40.177	1.2024e-06	50.012	0.00054336	0.00051612	0.00015763	1361.2	5.9725e-06	5.706e-06	1357	366.14	6.106e-06	5.6601e-06	419.59	138.62	120.29	41.1	6.4033e-06	51.352	143.874	-20.413	-12.863	-90.080	20.484	-7.003	-90.289	-85.614	-36.132	29.840	-86.150	-81.891	-81.722	-76.604	-7.541	-76.919	-8191	255	
7537.769	1	1	0	0	0.23141	0.45401	0.10896	0.14867	0.35385	0.30166	0.29504	0.32932	0.16355	0.16716	0.14991	0.13939	0.22341	0.10555	0.17292	0.2184	-1.5417	-1.3125	-2.1917	-1.9875	-1.3188	-2.0771	-1.5083	-1.9625	-1.9062	-1.3188	-2.3	-1.7083	-1.2708	-2.1167	-1.3188	-1.7979	115.638	137.739	-52.389	129.074	194.214	15.751	194.814	203.900	121.583	196.061	204.235	201.315	254.446	186.913	153.151	163.940	0.00024134	0.00059645	0.00014913	1347.4	1.1539e-06	2.9059e-06	1342.5	360.26	5.6327e-06	2.8712e-06	412.47	136.06	117.08	40.366	5.7199e-06	50.063	0.0005345	0.00052123	0.00016358	1361.3	5.8559e-06	5.7471e-06	1360.2	366.92	5.8668e-06	5.7699e-06	420.32	139.24	120.53	41.39	6.4974e-06	51.458	152.056	-75.326	10.108	-90.300	-7.261	22.556	-90.352	-85.629	0.573	15.985	-86.336	-82.052	-81.542	-76.431	39.646	-77.223	-8191	255	
7537.867	1	1	0	0	0.15078	0.22654	0.085023	0.22403	0.087615	0.18625	0.40026	0.26115	0.18299	0.1479	0.094241	0.17506	0.099567	0.116	0.19995	0.070114	-1.6542	-1.2625	-1.9937	-2.0229	-1.3208	-2.0062	-1.6542	-1.8396	-1.9854	-1.4438	-2.1458	-2.0083	-1.2146	-2.3375	-1.4604	-1.6125	41.569	76.416	215.149	208.540	34.756	92.842	197.321	228.436	8.549	-76.131	236.998	216.967	-15.626	-67.680	236.744	151.702	0.00028449	0.00059683	0.00026325	1349.1	2.7277e-06	2.7704e-06	1346.8	361.68	3.6965e-06	3.213e-06	416.07	136.57	118.1	40.748	2.3644e-06	50.578	0.0005192	0.00054619	0.00016647	1362.6	5.637e-06	6.0733e-06	1362.1	367.97	5.6699e-06	6.1207e-06	422.38	140.1	121.42	41.758	6.3588e-06	51.802	158.069	-30.362	-5.830	-90.351	12.744	2.294	-90.485	-85.647	-77.426	76.028	-85.981	-82.193	-82.116	-76.551	13.545	-77.244	-8191	255	
7537.986	1	1	0	0	0.22194	0.21435	0.16544	0.37497	0.42061	0.038524	0.15795	0.34833	0.23127	0.13287	0.063528	0.36381	0.16335	0.086504	0.17208	0.16631	-1.8833	-1.1417	-1.8438	-2.0646	-1.1437	-2.0375	-1.7854	-1.5104	-2.1	-1.4104	-1.7792	-1.9958	-1.3687	-2.1688	-1.7708	-1.6729	142.162	237.411	-36.962	-88.550	-4.678	67.662	225.890	211.508	34.069	103.520	72.396	214.753	204.514	86.150	37.670	-43.661	0.00025381	0.00044543	0.00020866	1352.1	3.9422e-06	4.1244e-06	1338.2	360.75	4.1104e-06	3.7527e-06	414.18	136.69	118.02	40.758	4.2895e-06	50.415	0.00050362	0.00057527	0.00016185	1362.7	5.6913e-06	6.3729e-06	1361.1	367.4	5.6538e-06	6.4896e-06	421.09	139.91	121.28	41.766	6.2424e-06	51.628	148.231	-61.406	-21.111	-90.040	18.210	55.728	-90.397	-85.515	7.879	142.156	-86.171	-82.002	-81.856	-76.572	6.256	-77.296	-8191	255	
7538.058	1	1	0	0	0.027002	0.083153	0.04495	0.21941	0.19274	0.29416	0.15065	0.21893	0.23613	0.17865	0.19655	0.26309	0.39427	0.06325	0.10731	0.051746	-1.6917	-1.4875	-1.7	-2.2917	-1.25	-1.9083	-2.0271	-1.5812	-2.0438	-1.3083	-1.7062	-2.2771	-1.5667	-2.1167	-1.6125	-1.5625	141.170	48.496	201.744	224.198	-82.626	191.693	191.131	207.682	71.419	-99.201	202.463	226.141	206.576	-56.674	185.079	197.014	0.00032062	0.00055897	0.00019286	1355.8	9.06e-07	5.5674e-06	1341.7	361.49	4.2433e-06	1.9436e-06	413.72	136.7	117.45	40.486	3.9043e-06	50.341	0.00051556	0.00059775	0.00015676	1365.2	5.8537e-06	6.6004e-06	1360.9	367.43	5.8939e-06	6.5835e-06	420.75	139.69	121.55	41.678	6.0848e-06	51.614	160.193	-45.195	-22.278	-90.117	-81.866	36.940	-90.193	-85.704	-51.737	72.842	-86.198	-81.895	-81.602	-76.451	-3.479	-77.009	-8191	255	
7538.178	1	1	0	0	0.26648	0.25499	0.23577	0.20338	0.099274	0.14302	0.30271	0.25244	0.14287	0.077316	0.042387	0.23349	0.28188	0.33891	0.24261	0.3174	-1.6542	-1.4042	-1.5167	-2.3125	-1.1792	-1.7625	-2.1083	-1.4479	-2.0187	-1.4604	-1.6729	-2.1729	-1.3167	-1.8542	-1.8896	-1.4396	240.458	35.731	-5.958	122.382	-28.837	251.215	235.680	255.705	66.750	51.091	64.006	187.629	37.984	-35.105	-5.520	197.889	0.00033815	0.00069656	0.0001602	1348.1	1.639e-06	9.6861e-06	1345.9	361.43	5.4482e-06	2.7687e-06	413.77	136.02	118	40.656	3.6957e-06	50.443	0.00055051	0.00059875	0.00015241	1361.9	6.2274e-06	6.5165e-06	1362.4	366.92	6.3345e-06	6.5049e-06	420.08	139.33	121.84	41.583	5.9964e-06	51.454	156.961	-16.829	-29.293	-90.034	27.275	64.245	-90.374	-85.538	-45.192	48.254	-85.863	-81.940	-81.603	-76.277	51.092	-77.067	-8191	255	
7538.275	1	1	0	0	0.30987	0.33106	0.12804	0.45822	0.27559	0.26715	0.16017	0.044163	0.34859	0.097606	0.27149	0.17745	0.091479	0.24949	0.17751	0.18283	-1.6708	-1.4896	-1.5729	-2.3875	-1.3625	-1.7896	-2.3979	-1.3583	-1.9813	-1.7396	-1.375	-2.15	-1.2833	-1.6375	-1.9917	-1.3521	250.672	10.526	-26.989	227.264	56.127	35.717	205.189	-86.822	254.926	169.274	-56.290	-51.264	8.556	194.715	54.600	-69.227	0.00034107	0.00022027	0.0001384	1346.4	1.7914e-06	2.2175e-06	1342.1	360.4	6.2678e-08	4.4449e-06	411.56	136.1	117.31	40.376	6.5154e-07	50.266	0.00058698	0.00059518	0.000152	1362.7	6.641e-06	6.385e-06	1359.7	366.51	6.7645e-06	6.4569e-06	418.98	139.26	121.61	41.412	5.8855e-06	51.483	162.248	27.560	-30.402	-90.019	72.620	12.956	-90.280	-85.551	111.228	16.979	-85.839	-81.798	-81.648	-75.957	90.003	-77.017	-8191	255	
7538.371	1	1	0	0	0.067596	0.23535	0.18673	0.19016	0.33742	0.026322	0.38657	0.5214	0.34178	0.37087	0.068035	0.031888	0.24052	0.26124	0.25889	0.28167	-1.5896	-1.6562	-1.1437	-2.2917	-1.4937	-1.5354	-2.3417	-1.4688	-2.0292	-1.8208	-1.5063	-2.3229	-1.7354	-1.6375	-2.2583	-1.6104	35.446	100.855	203.123	211.029	187.149	-34.426	163.117	181.078	237.065	35.917	-2.518	89.226	12.112	177.141	159.939	-53.153	0.00032339	0.00074932	0.00013789	1346.7	3.0454e-06	5.373e-06	1345.9	360	7.6122e-06	4.3036e-06	413.68	135.07	116.44	40.273	3.0123e-06	49.697	0.00060899	0.00058787	0.00015159	1364.8	6.7752e-06	6.2831e-06	1361.8	366.54	6.8821e-06	6.3574e-06	418.69	138.89	121.38	41.241	5.9472e-06	51.299	157.731	-52.969	-5.597	-90.029	23.844	23.977	-90.280	-85.668	-0.932	24.673	-86.106	-81.636	-81.608	-76.262	56.039	-76.839	-8191	255	
7538.467	1	1	0	0	0.16323	0.21703	0.084621	0.11254	0.1434	0.1522	0.056285	0.1628	0.23767	0.061794	0.10781	0.41274	0.23656	0.41973	0.097084	0.11349	-1.5104	-1.85	-1.1042	-2.4896	-1.6354	-1.375	-2.4083	-1.5438	-1.7812	-1.7729	-1.5438	-2.2438	-1.7146	-1.35	-2.1646	-1.4021	-94.098	-21.143	138.522	-94.163	44.155	63.897	-99.602	212.295	242.394	-70.231	-63.520	241.519	11.894	149.030	106.514	143.420	0.00024765	0.00016259	0.00013879	1351.2	1.5197e-06	8.1495e-06	1338.3	359.73	2.6794e-06	5.974e-06	413.42	135.2	116.17	40.127	4.2779e-06	49.775	0.00059939	0.00057303	0.00015166	1365.9	6.7917e-06	6.2423e-06	1357.6	366.39	6.6986e-06	6.2239e-06	418.67	138.74	120.84	41.071	6.033e-06	51.238	162.305	-31.520	61.995	-89.914	-41.598	44.828	-90.170	-85.248	51.913	21.941	-85.855	-81.823	-82.007	-76.312	13.602	-76.878	-8191	255	
7538.587	1	1	0	0	0.17535	0.084309	0.17764	0.34001	0.21183	0.12452	0.23366	0.12304	0.12343	0.16318	0.20863	0.33017	0.076899	0.11642	0.16525	0.15416	-1.5021	-2.0979	-1.4375	-2.4417	-1.4771	-1.3208	-2.2146	-1.4896	-1.5812	-2.1729	-1.3375	-2.0833	-1.6	-1.3104	-2.05	-1.3813	91.188	-81.748	32.225	161.493	162.975	118.295	171.631	103.124	166.088	210.679	-18.680	225.379	-75.130	185.406	196.184	118.597	0.00028844	0.00035242	4.2213e-05	1352.1	3.5043e-06	7.2784e-06	1340.8	360.24	6.285e-06	5.3203e-06	413.31	135	115.81	40.205	2.0669e-06	49.492	0.00058345	0.00056702	0.00015374	1365.4	6.5118e-06	6.1359e-06	1359.3	366.55	6.4295e-06	6.053e-06	419.12	138.5	120.41	41.028	6.309e-06	51.191	163.668	-43.175	88.325	-89.854	28.402	67.812	-90.220	-85.366	11.260	30.027	-86.055	-81.770	-81.726	-76.420	11.905	-76.682	-8191	255	
7538.659	1	1	0	0	0.29865	0.13894	0.10532	0.21676	0.090691	0.21062	0.24222	0.12468	0.084933	0.088486	0.10446	0.23277	0.22137	0.67293	0.20551	0.060555	-0.95625	-2.2479	-1.3396	-2.1125	-1.6812	-1.1187	-2.4917	-1.5396	-1.5354	-1.9229	-1.3833	-2.0021	-1.9042	-1.5042	-1.9958	-1.8167	190.334	142.564	93.632	212.469	101.227	180.582	94.527	144.817	-0.963	11.686	-65.331	219.537	222.057	244.162	81.033	60.194	0.00030415	0.00048426	0.00016881	1351.3	3.7643e-06	2.2615e-06	1336.9	361.04	1.1507e-06	3.2351e-06	412.19	135.96	117.09	40.142	4.4973e-06	49.81	0.00056889	0.00054712	0.00016635	1367.5	6.3079e-06	5.8141e-06	1359.3	367	6.2103e-06	5.9411e-06	419.46	138.87	120.51	41.015	6.6926e-06	51.22	166.518	-36.409	32.522	-89.835	62.209	-22.059	-90.299	-85.499	-74.118	-28.062	-85.836	-81.992	-81.414	-76.320	77.654	-76.934	-8191	255	
7538.755	1	1	0	0	0.13981	0.2192	0.27064	0.10311	0.22927	0.17008	0.19158	0.35367	0.20498	0.20958	0.081999	0.42332	0.1238	0.06122	0.091313	0.087252	-1.1521	-2.1646	-1.3333	-1.9	-2.0146	-1.1708	-2.2458	-1.8875	-1.3833	-2.2729	-1.5333	-1.8687	-1.9083	-1.3708	-2.05	-1.9229	126.743	1.381	119.419	194.583	123.779	-100.749	122.459	220.755	142.276	185.612	-67.967	215.749	239.831	183.191	130.177	88.256	0.0003234	9.8868e-05	9.2759e-05	1353.9	1.6421e-06	5.2686e-06	1341.8	359.72	1.9619e-06	1.2203e-06	413.31	135	116.45	40.169	2.5422e-06	49.736	0.00054935	0.0005427	0.00017101	1367.6	6.2079e-06	6.0067e-06	1363.9	366.41	6.0724e-06	6.0695e-06	420.7	138.49	120.21	41.133	6.8142e-06	51.194	146.447	-4.367	50.420	-90.025	20.144	10.506	-90.198	-85.479	7.381	30.943	-85.903	-81.630	-81.388	-76.380	-72.649	-77.079	-8191	255	
7538.851	1	1	0	0	0.049131	0.099686	0.23986	0.27326	0.064336	0.18099	0.14892	0.49237	0.11877	0.15916	0.22019	0.2457	0.15302	0.16633	0.11129	0.14475	-0.82708	-2.2354	-1.4062	-1.8167	-2.1479	-1.3271	-2.2354	-2.0312	-1.3583	-2.2125	-1.5979	-1.8208	-2.2583	-1.2125	-2.05	-2.1146	3.688	52.569	66.726	196.994	143.627	193.228	249.252	207.385	183.021	166.531	160.876	183.160	146.166	216.668	-46.225	57.860	0.00022681	0.00016453	0.00018597	1351.3	5.8077e-06	4.8982e-06	1341.5	359.68	5.3512e-06	2.1783e-06	411.85	135.51	115.29	40.163	4.3024e-06	49.505	0.00054163	0.00057246	0.00017359	1367.3	6.0402e-06	6.3908e-06	1363.8	366.16	5.9542e-06	6.5047e-06	420.24	138.57	120.03	41.124	6.8512e-06	51.03	169.403	-38.692	23.132	-89.653	52.860	-12.151	-90.081	-85.361	14.519	43.351	-85.931	-81.526	-81.537	-76.254	-29.565	-77.205	-8191	255	
7538.948	1	1	0	0	0.093365	0.087146	0.16213	0.15005	0.14774	0.10285	0.14611	0.11996	0.082805	0.45948	0.19075	0.15665	0.18109	0.080246	0.026037	0.13073	-0.89375	-2.0771	-1.5292	-1.7563	-2.1167	-1.3146	-1.8583	-2.0667	-1.2479	-2.1333	-1.6979	-1.5021	-2.2062	-1.425	-1.8292	-2.2271	-78.335	-3.304	86.483	203.243	24.982	202.262	228.329	190.993	138.189	203.520	204.619	28.408	-90.797	53.512	155.525	-50.710	0.00030412	0.0005249	0.00017947	1355.9	4.9253e-06	1.3891e-06	1342.7	361.69	5.4835e-06	2.1795e-07	413.28	135.22	116.61	40.078	3.31e-06	49.453	0.00053843	0.00061419	0.00017335	1366.7	6.0291e-06	6.6488e-06	1365.2	366.81	6.0092e-06	6.8009e-06	419.95	138.46	120.32	41.17	6.5703e-06	51.029	155.041	74.293	-17.861	-89.668	37.640	250.275	-90.167	-85.702	-55.159	167.694	-86.030	-81.823	-81.701	-76.392	40.962	-77.102	-8191	255	
7539.066	1	1	0	0	0.16615	0.055959	0.11191	0.12841	0.11908	0.09084	0.38766	0.44933	0.13231	0.17972	0.17387	0.40061	0.2128	0.17068	0.12715	0.05812	-0.65625	-2.2562	-1.6021	-1.6667	-2.0667	-1.4438	-1.8375	-2.1375	-1.1583	-2.0792	-1.8771	-1.5604	-2.2167	-1.6792	-1.6792	-2.3542	238.682	41.281	236.780	-97.078	-24.402	2.233	215.031	218.959	16.342	-5.344	246.645	238.135	143.525	-97.191	154.688	133.685	0.00025521	0.00038584	0.00010459	1354.6	3.208e-06	5.0695e-06	1346.3	359.73	1.3325e-06	4.4057e-06	413.38	134.87	116.6	40.074	2.791e-06	49.69	0.00055033	0.00063105	0.00016714	1366.5	6.2461e-06	6.9871e-06	1363.3	366.13	6.1877e-06	6.8981e-06	419.38	138.21	120.35	41.146	6.3034e-06	51.026	159.903	-43.191	-26.754	-89.916	10.783	-38.807	-90.048	-85.556	0.685	10.002	-86.216	-81.834	-81.506	-76.099	252.008	-76.958	-8191	255	
7539.163	1	1	0	0	0.21552	0.034827	0.097628	0.23459	0.24468	0.048115	0.25179	0.40697	0.020122	0.079	0.097718	0.057781	0.1806	0.18434	0.36176	0.21756	-0.9125	-1.8729	-1.9208	-1.3146	-2.2021	-1.5042	-1.8354	-2.3187	-1.3542	-1.8146	-2.0021	-1.4104	-2.125	-1.6771	-1.6667	-2.3792	79.483	-83.628	18.590	-98.695	-40.854	44.026	187.489	203.393	-40.204	-24.534	163.156	219.453	49.296	-36.358	194.988	206.940	0.00033879	0.00065901	0.00032325	1349.3	3.3026e-07	1.653e-06	1342	361.04	2.9413e-06	4.2656e-06	413.01	135.65	116.91	40.022	5.0132e-06	49.783	0.00057325	0.00062519	0.00016267	1363.5	6.5302e-06	6.868e-06	1363.1	366.25	6.5531e-06	6.8199e-06	419.77	138.25	120.9	41.11	6.2339e-06	51.008	159.591	-21.019	16.253	-89.964	95.076	70.865	-90.055	-85.305	-81.127	5.985	-85.862	-81.362	-81.399	-76.316	49.475	-76.900	-8191	255	
7539.259	1	1	0	0	0.4092	0.025385	0.14633	0.13041	0.11967	0.066137	0.17626	0.066749	0.25213	0.30559	0.092936	0.19443	0.11273	0.13271	0.19368	0.17335	-0.98333	-1.7167	-2.1042	-1.3458	-2.0875	-1.6375	-1.7417	-2.2917	-1.2792	-1.6604	-1.9	-1.3438	-2.2333	-1.775	-1.4792	-2.2021	34.864	116.044	-70.289	178.705	254.833	121.247	103.212	132.746	55.755	6.271	-18.653	176.092	-50.938	-22.624	90.410	233.865	0.00033654	0.00098776	0.00012018	1354.2	7.8685e-07	9.2116e-06	1347.5	361.18	3.4112e-06	6.175e-06	413.54	135.39	116.41	40.16	2.2077e-06	49.816	0.00060254	0.0006081	0.00015713	1365.3	6.7775e-06	6.6651e-06	1361.5	367.21	6.7797e-06	6.5184e-06	419.68	138.41	121.3	41.165	5.967e-06	51.203	156.207	-22.710	29.863	-89.904	201.998	26.671	-89.934	-85.044	167.212	44.592	-85.826	-81.375	-81.175	-76.132	62.225	-76.878	-8191	255	
7539.355	1	1	0	0	0.10718	0.25062	0.13742	0.11669	0.11392	0.2503	0.093215	0.32102	0.087824	0.13616	0.067846	0.072858	0.23874	0.22619	0.22018	0.053394	-1.0688	-1.5958	-2.0521	-1.5167	-2.0563	-1.5917	-1.5042	-2.4042	-1.4458	-1.5875	-2.3979	-1.3583	-1.8792	-1.9771	-1.2062	-2.2167	153.858	151.805	224.697	234.448	-8.047	-94.065	-74.225	-95.222	26.668	-24.449	-41.660	-27.602	-64.792	-72.315	-56.768	243.456	0.00030141	0.00065154	0.00017535	1349.9	4.9243e-06	7.3427e-06	1346.7	360.3	8.1751e-06	9.7931e-07	412.92	134.71	115.73	40.129	5.6434e-06	49.794	0.00061255	0.00058328	0.00015297	1365.4	6.8174e-06	6.3721e-06	1361.3	366.47	6.8783e-06	6.3213e-06	419.23	138.27	120.8	41.101	5.8237e-06	51.15	165.903	-55.722	15.343	-89.837	6.973	30.832	-89.769	-85.075	-12.908	-4.792	-85.715	-81.540	-81.281	-75.746	-0.269	-76.839	-8191	255	
7539.451	1	1	0	0	0.25651	0.22786	0.3609	0.30414	0.2325	0.18827	0.15684	0.36346	0.30653	0.20007	0.20242	0.12898	0.052796	0.37765	0.092785	0.24616	-1.0104	-1.425	-1.9188	-1.3625	-1.8813	-1.7521	-1.6375	-2.2833	-1.7292	-1.4188	-2.3896	-1.3312	-1.6208	-2.1771	-1.425	-2.1292	49.210	-60.458	123.516	211.068	212.727	-91.358	162.566	-98.309	19.037	-64.714	68.332	74.370	191.862	217.840	220.648	226.522	0.00025264	0.00062122	0.00014407	1353.8	3.891e-06	4.8736e-06	1344.2	360.31	5.5865e-06	3.1933e-06	413.58	135.21	116.24	40.074	3.8271e-06	49.908	0.00060505	0.00056728	0.00014975	1365.7	6.675e-06	6.2942e-06	1359.4	366.81	6.575e-06	6.085e-06	419.22	138.7	120.8	41.069	5.88e-06	51.338	179.742	-38.062	11.358	-89.642	5.276	19.598	-89.637	-85.004	17.574	-41.458	-85.557	-81.212	-81.112	-75.926	16.363	-76.676	-8191	255	
7539.547	1	1	0	0	0.19684	0.10255	0.21574	0.29844	0.24884	0.14716	0.2614	0.32205	0.14853	0.28105	0.60561	0.23409	0.13308	0.083112	0.24535	0.22345	-1.5312	-1.3188	-2.0292	-1.425	-1.8229	-1.9958	-1.375	-2.3563	-1.7146	-1.1583	-2.4792	-1.6375	-1.6646	-2.1479	-1.4312	-2.2	125.157	72.287	-60.523	-100.924	-15.301	218.176	-22.385	213.014	148.780	-63.071	-98.854	185.305	168.127	129.134	1.291	-77.534	0.00036012	0.0010661	8.6586e-05	1348.6	1.4152e-06	6.3573e-06	1341.2	361.73	4.1532e-06	2.1155e-06	414.25	135.73	116.13	40.348	1.4022e-06	49.724	0.00058719	0.00055899	0.00015347	1366.8	6.3499e-06	6.061e-06	1360.4	367.74	6.3431e-06	5.9494e-06	419.95	138.97	120.47	41.114	6.2172e-06	51.29	152.759	-44.785	-59.932	-89.693	210.936	12.093	-90.064	-85.113	-39.896	53.575	-85.773	-81.526	-81.327	-75.906	-43.986	-76.480	-8191	255	
7539.668	1	1	0	0	0.18778	0.10321	0.073433	0.279	0.13355	0.091017	0.47052	0.13877	0.078685	0.1915	0.10829	0.12336	0.28427	0.28418	0.22482	0.12114	-1.3458	-1.3667	-2.1042	-1.6792	-1.4271	-2.1771	-1.5333	-1.9667	-1.8021	-1.2646	-2.2	-1.5625	-1.4188	-2.0854	-1.3917	-2.0583	247.927	249.988	94.082	157.163	233.954	230.479	211.289	21.212	164.869	5.966	220.402	217.709	-43.815	201.815	149.433	241.071	0.00035185	0.00064606	9.8898e-05	1353.5	3.2618e-06	1.62e-06	1344.1	361.15	6.3374e-06	4.1642e-06	413.9	135.96	116.27	40.117	3.5884e-06	50.189	0.0005656	0.00053713	0.00016275	1365.3	6.2286e-06	5.9593e-06	1361.1	367.42	6.2802e-06	5.7917e-06	420.24	138.99	120.47	41.117	6.5656e-06	51.382	161.420	-40.490	-22.263	-89.834	47.205	34.578	-89.957	-85.048	-12.799	104.154	-85.673	-81.529	-81.524	-75.957	21.588	-76.897	-8191	255	
7539.762	1	1	0	0	0.14899	0.21069	0.16629	0.45572	0.21393	0.12433	0.1663	0.28186	0.04109	0.33366	0.25025	0.18484	0.25248	0.25987	0.22336	0.085637	-1.45	-1.1771	-2.2417	-1.725	-1.2167	-2.1417	-1.5521	-1.8104	-2.1958	-1.3833	-2.0708	-1.75	-1.5208	-2.0958	-1.3646	-1.9188	51.533	207.771	57.235	-100.614	-27.882	63.338	216.506	242.453	-80.058	227.970	-72.013	137.452	57.798	125.459	43.296	45.484	0.0002686	0.00047355	8.8086e-05	1354.3	7.6922e-06	5.7202e-06	1342.6	360.41	5.5986e-06	1.0294e-06	414.13	135.02	116.38	40.244	5.2801e-06	50.005	0.00056062	0.00054082	0.00017008	1366.4	6.1164e-06	5.9397e-06	1361.8	366.38	6.1827e-06	5.9724e-06	420.68	138.79	120.32	41.231	6.7915e-06	51.28	149.133	-50.253	-18.260	-89.543	4.920	20.636	-89.851	-85.005	8.054	184.272	-85.684	-81.359	-81.405	-75.970	83.408	-76.674	-8191	255	
7539.858	1	1	0	0	0.18698	0.32999	0.052502	0.11846	0.23028	0.35276	0.14333	0.14105	0.20929	0.17939	0.16058	0.31038	0.288	0.1337	0.026988	0.11008	-1.7146	-1.2687	-1.8813	-1.8333	-1.2292	-2.2438	-1.65	-1.7062	-2.1396	-1.3146	-2.1437	-1.9937	-1.3438	-2.3208	-1.3417	-1.6833	-83.355	-10.041	5.770	-68.344	102.178	-27.702	194.524	212.861	127.093	180.393	-38.593	179.030	238.082	224.648	-37.527	184.305	0.0002181	0.00039578	7.0023e-05	1352.9	3.2286e-06	1.2762e-06	1344.4	362.55	3.2736e-06	2.4042e-06	413.65	135.21	116.8	40.507	5.8141e-06	50.162	0.00053858	0.00055706	0.00017245	1365.1	5.8794e-06	6.1863e-06	1363.2	367.52	5.9498e-06	6.3072e-06	420.54	138.8	120.34	41.363	6.7108e-06	51.354	160.020	0.990	17.456	-89.310	-76.793	-1.899	-89.697	-84.822	-14.662	-27.029	-85.583	-81.455	-81.090	-75.858	-43.985	-76.371	-8191	255	
7539.955	1	1	0	0	0.18027	0.21288	0.21783	0.1934	0.097252	0.15374	0.24249	0.3884	0.088084	0.1239	0.15499	0.085797	0.096751	0.30074	0.14276	0.25608	-1.8438	-1.3667	-1.9396	-1.9875	-1.1792	-2.0542	-1.7188	-1.5271	-2.0229	-1.2604	-1.9021	-2.0854	-1.275	-2.2438	-1.6771	-1.3875	3.824	148.269	253.704	200.378	44.785	-23.014	-96.401	212.125	-78.952	-59.797	-94.759	-39.828	136.852	240.556	232.787	136.197	0.00033846	0.00026205	0.00013219	1351.6	2.8353e-06	2.7283e-06	1344.3	361.24	1.1775e-06	5.2333e-06	414.57	135.8	116.9	40.406	5.7148e-06	50.281	0.00052984	0.00059362	0.00016905	1363.1	5.8989e-06	6.6157e-06	1365.2	366.74	5.9178e-06	6.6648e-06	420.44	138.81	120.24	41.324	6.4317e-06	51.379	172.985	-91.514	67.993	-89.663	56.794	105.493	-89.865	-84.881	-46.421	57.140	-85.183	-81.588	-81.199	-75.887	-0.567	-76.808	-8191	255	
#DATA ENDS
