BOXY.EXE: ISS Imagent and Oximeter Data Acquisition Program Version 0.80
Ascii Record File

#ACQ INFORMATION
2  Detector Channels 
16  External MUX Channels 
1  Auxiliary Channels 
5000  Waveform (CCF) Frequency (Hz)
1  Waveforms Skipped 
30  Waveforms Averaged 
1  Cycles Averaged 
16  Acquisitions per Waveform 
10.0806  Updata Rate (Hz) 

#FILE INFORMATION
TRUE -- External MUX Channel results are PARSED.
FALSE -- AC DC and Phase are NOT grouped.
TRUE -- Companion Program Settings File CREATED.
FALSE -- AC data not excluded
FALSE -- DC data not excluded
FALSE -- Phase data not excluded
FALSE -- Auxillary Chn. data not excluded
Tab delimiters

#CALIBRATION STATE
TRUE -- Waveform Calibration Values APPLIED.


#AUX CALIBRATION VALUES
Val Type	aux-1	

Term	1.0000e+00	
Factor	0.0000e+00	


#WF CALIBRATION VALUES
A = Detector Channel
Val Type	A-AC1	A-AC2	A-AC3	A-AC4	A-AC5	A-AC6	A-AC7	A-AC8	A-AC9	A-AC10	A-AC11	A-AC12	A-AC13	A-AC14	A-AC15	A-AC16	A-DC1	A-DC2	A-DC3	A-DC4	A-DC5	A-DC6	A-DC7	A-DC8	A-DC9	A-DC10	A-DC11	A-DC12	A-DC13	A-DC14	A-DC15	A-DC16	A-Ph1	A-Ph2	A-Ph3	A-Ph4	A-Ph5	A-Ph6	A-Ph7	A-Ph8	A-Ph9	A-Ph10	A-Ph11	A-Ph12	A-Ph13	A-Ph14	A-Ph15	A-Ph16	

Term	0.00000e+00	0.00000e+00	0.00000e+00	0.00000e+00	0.00000e+00	0.00000e+00	0.00000e+00	0.00000e+00	0.00000e+00	0.00000e+00	0.00000e+00	0.00000e+00	0.00000e+00	0.00000e+00	0.00000e+00	0.00000e+00	0.00000e+00	0.00000e+00	0.00000e+00	0.00000e+00	0.00000e+00	0.00000e+00	0.00000e+00	0.00000e+00	0.00000e+00	0.00000e+00	0.00000e+00	0.00000e+00	0.00000e+00	0.00000e+00	0.00000e+00	0.00000e+00	0.00000e+00	0.00000e+00	0.00000e+00	0.00000e+00	0.00000e+00	0.00000e+00	0.00000e+00	0.00000e+00	0.00000e+00	0.00000e+00	0.00000e+00	0.00000e+00	0.00000e+00	0.00000e+00	0.00000e+00	0.00000e+00	
Factor	1.00000e+00	1.00000e+00	1.00000e+00	1.00000e+00	1.00000e+00	1.00000e+00	1.00000e+00	1.00000e+00	1.00000e+00	1.00000e+00	1.00000e+00	1.00000e+00	1.00000e+00	1.00000e+00	1.00000e+00	1.00000e+00	1.00000e+00	1.00000e+00	1.00000e+00	1.00000e+00	1.00000e+00	1.00000e+00	1.00000e+00	1.00000e+00	1.00000e+00	1.00000e+00	1.00000e+00	1.00000e+00	1.00000e+00	1.00000e+00	1.00000e+00	1.00000e+00	X	X	X	X	X	X	X	X	X	X	X	X	X	X	X	X	

B = Detector Channel
Val Type	B-AC1	B-AC2	B-AC3	B-AC4	B-AC5	B-AC6	B-AC7	B-AC8	B-AC9	B-AC10	B-AC11	B-AC12	B-AC13	B-AC14	B-AC15	B-AC16	B-DC1	B-DC2	B-DC3	B-DC4	B-DC5	B-DC6	B-DC7	B-DC8	B-DC9	B-DC10	B-DC11	B-DC12	B-DC13	B-DC14	B-DC15	B-DC16	B-Ph1	B-Ph2	B-Ph3	B-Ph4	B-Ph5	B-Ph6	B-Ph7	B-Ph8	B-Ph9	B-Ph10	B-Ph11	B-Ph12	B-Ph13	B-Ph14	B-Ph15	B-Ph16	

Term	0.00000e+00	0.00000e+00	0.00000e+00	0.00000e+00	0.00000e+00	0.00000e+00	0.00000e+00	0.00000e+00	0.00000e+00	0.00000e+00	0.00000e+00	0.00000e+00	0.00000e+00	0.00000e+00	0.00000e+00	0.00000e+00	0.00000e+00	0.00000e+00	0.00000e+00	0.00000e+00	0.00000e+00	0.00000e+00	0.00000e+00	0.00000e+00	0.00000e+00	0.00000e+00	0.00000e+00	0.00000e+00	0.00000e+00	0.00000e+00	0.00000e+00	0.00000e+00	-1.03147e+02	-1.27696e+02	-1.26040e+02	-1.81176e+02	-6.23970e+01	-6.75592e+01	-1.58780e+02	-1.62015e+02	-5.65277e+01	-6.22897e+01	-1.72992e+02	-1.70125e+02	-1.79834e+02	-1.76748e+02	-6.70119e+01	-1.49179e+02	
Factor	1.55199e-05	1.44807e-04	4.06336e-05	1.55882e-01	1.24127e-06	1.48260e-06	1.50087e-01	4.62077e-02	1.01788e-06	1.60599e-06	9.62183e-02	2.73408e-02	4.09599e-02	8.78388e-03	1.32503e-06	1.25402e-02	7.43530e-06	1.06435e-05	2.98820e-06	8.29155e-02	1.11264e-07	1.18464e-07	7.49576e-02	2.47378e-02	1.11329e-07	1.17809e-07	4.95847e-02	1.42385e-02	2.21954e-02	4.73677e-03	1.13755e-07	6.51851e-03	X	X	X	X	X	X	X	X	X	X	X	X	X	X	X	X	



#DISTANCE SETTINGS
A = Detector Channel
A-1	A-2	A-3	A-4	A-5	A-6	A-7	A-8	A-9	A-10	A-11	A-12	A-13	A-14	A-15	A-16	

2.5000e+00	3.0000e+00	2.5000e+00	3.0000e+00	2.0000e+00	3.0000e+00	1.5000e+00	3.0000e+00	3.0000e+00	3.0000e+00	3.0000e+00	3.0000e+00	3.0000e+00	3.0000e+00	1.5000e+00	3.0000e+00	

B = Detector Channel
B-1	B-2	B-3	B-4	B-5	B-6	B-7	B-8	B-9	B-10	B-11	B-12	B-13	B-14	B-15	B-16	

1.0000e+01	1.0000e+01	1.0000e+01	1.4400e+00	1.0000e+01	1.0000e+01	1.5100e+00	1.9400e+00	1.0000e+01	1.0000e+01	1.9900e+00	2.4900e+00	2.4100e+00	2.9000e+00	1.0000e+01	2.9800e+00	




#DATA BEGINS
time	group	step	mark	flag	A-AC1	A-AC2	A-AC3	A-AC4	A-AC5	A-AC6	A-AC7	A-AC8	A-AC9	A-AC10	A-AC11	A-AC12	A-AC13	A-AC14	A-AC15	A-AC16	A-DC1	A-DC2	A-DC3	A-DC4	A-DC5	A-DC6	A-DC7	A-DC8	A-DC9	A-DC10	A-DC11	A-DC12	A-DC13	A-DC14	A-DC15	A-DC16	A-Ph1	A-Ph2	A-Ph3	A-Ph4	A-Ph5	A-Ph6	A-Ph7	A-Ph8	A-Ph9	A-Ph10	A-Ph11	A-Ph12	A-Ph13	A-Ph14	A-Ph15	A-Ph16	B-AC1	B-AC2	B-AC3	B-AC4	B-AC5	B-AC6	B-AC7	B-AC8	B-AC9	B-AC10	B-AC11	B-AC12	B-AC13	B-AC14	B-AC15	B-AC16	B-DC1	B-DC2	B-DC3	B-DC4	B-DC5	B-DC6	B-DC7	B-DC8	B-DC9	B-DC10	B-DC11	B-DC12	B-DC13	B-DC14	B-DC15	B-DC16	B-Ph1	B-Ph2	B-Ph3	B-Ph4	B-Ph5	B-Ph6	B-Ph7	B-Ph8	B-Ph9	B-Ph10	B-Ph11	B-Ph12	B-Ph13	B-Ph14	B-Ph15	B-Ph16	aux-1	digaux	

1361.227	1	1	0	512	0.13073	0.16013	0.17295	0.06458	0.22258	0.076819	0.27434	0.13387	0.12098	0.17495	0.23301	0.11471	0.15386	0.052492	0.33728	0.18989	-2.2667	-1.7417	-2.1354	-2.6958	-1.8042	-2.3542	-2.5521	-1.6667	-2.6063	-1.9188	-2.0208	-2.6646	-1.9979	-2.3208	-2.4875	-1.7062	216.981	182.021	-67.781	122.550	214.259	132.022	76.206	119.660	-54.089	113.556	140.006	231.541	159.449	-35.659	200.301	157.902	9.8211e-05	0.00031454	7.2783e-05	1003.8	1.3748e-06	2.0269e-06	1083.7	214.77	1.5576e-06	2.3345e-06	270.42	75.906	59.304	17.041	1.9449e-06	24.246	0.00013099	0.00013475	3.4769e-05	984.16	1.4979e-06	1.3295e-06	1070	212.61	1.4429e-06	1.3045e-06	266.99	76.032	59.349	17.097	1.3113e-06	24.298	234.698	-29.798	-26.780	-101.692	19.054	19.775	-101.832	-94.978	22.374	79.383	-94.866	-89.050	-88.659	-80.799	26.255	-80.969	-8191	255	
1361.323	1	1	0	0	0.077523	0.13971	0.12894	0.39873	0.15779	0.14342	0.28347	0.1453	0.069334	0.18527	0.14703	0.17551	0.30546	0.10826	0.20346	0.055631	-1.9917	-1.9729	-1.6854	-2.6979	-1.9062	-2.1063	-2.7917	-1.7313	-2.4917	-2.1021	-1.9208	-2.6729	-1.8667	-2.1917	-2.4688	-1.6354	-71.529	-46.943	235.443	245.298	145.512	192.784	219.407	-65.690	-97.281	26.835	200.456	142.680	-65.444	217.660	101.446	79.357	8.5223e-05	0.00027383	6.5844e-05	1005.4	1.1939e-06	2.0858e-06	1086.1	214.25	1.1322e-06	3.7153e-06	270.67	75.865	58.901	17.069	2.2656e-06	24.197	0.00013362	0.00012566	3.4993e-05	984.77	1.5127e-06	1.3754e-06	1070.8	212.17	1.4941e-06	1.3752e-06	266.62	76.148	59.17	17.06	1.2904e-06	24.311	230.178	-21.977	-8.000	-102.697	20.366	29.352	-102.041	-95.107	12.654	39.965	-95.310	-88.476	-88.057	-81.543	30.112	-81.571	-8191	255	
1361.419	1	1	0	0	0.29015	0.2052	0.084953	0.15934	0.14934	0.22339	0.32818	0.18897	0.14843	0.094877	0.16002	0.17736	0.066099	0.2067	0.31446	0.18114	-1.9875	-2.1854	-1.7833	-2.5771	-1.9312	-1.9521	-2.7625	-1.8104	-2.3438	-2.3125	-1.9542	-2.7042	-2.0604	-2.0208	-2.5875	-1.7458	-12.862	-16.259	-0.511	228.686	229.188	140.222	170.224	197.107	-96.315	-37.688	141.754	171.072	207.907	53.882	81.450	34.792	8.506e-05	0.00041377	6.3918e-05	1006	1.5898e-06	2.9589e-06	1088.7	213.02	1.7105e-06	2.8028e-06	271.08	75.723	58.931	16.988	2.0249e-06	24.222	0.00013374	0.00012233	3.6524e-05	986	1.5243e-06	1.4223e-06	1070.1	211.69	1.4514e-06	1.3384e-06	267.02	76.025	59.183	17.056	1.3411e-06	24.3	238.023	-14.678	-28.343	-102.791	-19.342	43.818	-102.704	-95.360	-8.649	38.081	-95.709	-89.266	-89.254	-81.400	37.955	-81.716	-8191	255	
1361.540	1	1	0	0	0.24442	0.1842	0.018331	0.35693	0.13863	0.064023	0.13519	0.26637	0.085513	0.3019	0.059663	0.075413	0.084389	0.19548	0.073764	0.06474	-1.8229	-2.3208	-1.8854	-2.5854	-2.0062	-1.8687	-2.7583	-1.6417	-2.2188	-2.4	-1.7646	-2.4833	-2.1833	-1.7646	-2.5104	-1.7896	-63.963	157.157	64.872	181.551	79.611	159.108	242.146	219.908	226.016	-89.726	236.142	102.012	222.927	-64.636	-10.820	5.987	7.339e-05	0.00035628	6.9681e-05	1008.4	1.8565e-06	2.5753e-06	1085.9	213.07	6.3013e-07	4.3284e-06	269.25	75.591	58.517	17.019	2.092e-06	24.125	0.00013027	0.00012338	3.5597e-05	986.1	1.5347e-06	1.4031e-06	1071.8	211.72	1.5727e-06	1.2537e-06	265.63	75.98	59.143	17.045	1.3196e-06	24.246	228.808	5.051	-7.257	-102.814	37.936	37.918	-102.739	-95.562	19.348	48.624	-96.151	-89.191	-89.205	-81.876	43.231	-81.780	-8191	255	
1361.611	1	1	0	0	0.10346	0.031862	0.24666	0.21755	0.16844	0.16477	0.20183	0.23253	0.14499	0.17914	0.078732	0.18052	0.047485	0.28266	0.2284	0.20398	-1.8312	-2.5187	-1.5729	-2.4375	-2.2	-1.8771	-2.7146	-1.7875	-2.1312	-2.4375	-1.6229	-2.5021	-2.0854	-1.65	-2.5167	-1.7646	70.264	106.632	223.131	213.802	-91.590	84.202	80.776	-93.785	-100.702	229.010	69.345	174.951	-67.691	-107.206	218.430	178.221	9.3376e-05	0.00015631	0.00010129	1010	1.3747e-06	1.4492e-06	1091.5	213.96	1.1624e-06	3.6888e-06	269.82	75.209	58.867	16.988	1.5292e-06	24.252	0.00013718	0.00011856	3.6543e-05	986.33	1.4909e-06	1.4467e-06	1071.9	211.8	1.5076e-06	1.2689e-06	266.67	75.781	59.472	17.081	1.2935e-06	24.299	234.743	-9.772	-31.441	-102.734	57.736	80.578	-102.741	-95.689	38.947	50.012	-96.448	-89.150	-89.391	-81.416	83.638	-81.469	-8191	255	
1361.708	1	1	0	0	0.087871	0.11638	0.11454	0.16179	0.056074	0.50789	0.19888	0.15839	0.054933	0.11393	0.10546	0.11571	0.41311	0.32151	0.044041	0.087674	-1.4042	-2.5271	-1.6396	-2.4125	-2.325	-1.8375	-2.4958	-1.875	-1.8792	-2.6937	-1.7167	-2.3396	-2.4104	-1.6812	-2.6229	-1.8708	176.132	-32.014	39.735	-73.055	-91.069	243.419	187.136	238.915	13.721	193.192	-68.502	-108.139	213.753	217.092	56.790	-29.030	7.2365e-05	0.00034813	6.6625e-05	1005.2	1.8963e-06	2.7031e-06	1092	214.05	6.8963e-07	3.2669e-06	268.76	75.427	58.894	17.029	7.8405e-07	24.452	0.00013571	0.00011646	3.4862e-05	986.5	1.4793e-06	1.3868e-06	1072.2	212.02	1.4944e-06	1.3771e-06	266.06	75.932	59.31	17.093	1.2726e-06	24.431	223.460	-33.258	-35.969	-103.032	28.285	25.307	-102.734	-95.453	-14.052	25.228	-95.736	-89.313	-88.668	-81.617	52.138	-82.715	-8191	255	
1361.828	1	1	0	0	0.092832	0.14645	0.036024	0.13033	0.10256	0.1328	0.27145	0.29794	0.34422	0.14925	0.21143	0.24403	0.14988	0.21222	0.12521	0.033111	-1.2833	-2.5	-1.85	-2.0812	-2.5854	-1.5021	-2.6813	-2.0833	-1.7	-2.6292	-1.7896	-2.2542	-2.6521	-1.7687	-2.5167	-2.175	-60.939	-110.502	198.532	68.136	213.150	-35.693	235.955	207.066	-102.113	51.674	214.052	238.007	155.451	201.298	-16.528	127.636	9.8936e-05	0.00022819	0.00010473	1005.7	1.309e-06	2.2831e-06	1092.8	214.26	9.802e-07	3.1465e-06	269.61	75.994	58.46	16.915	1.7076e-06	24.185	0.00013839	0.00012484	3.5877e-05	985.16	1.4165e-06	1.4038e-06	1072.3	212.19	1.5507e-06	1.2593e-06	266.5	76.023	59.318	17.023	1.3843e-06	24.273	227.702	-34.152	-18.758	-102.952	6.067	67.543	-102.668	-95.495	-33.253	29.417	-96.211	-89.439	-88.832	-81.521	47.092	-81.867	-8191	255	
1361.923	1	1	0	0	0.18328	0.12067	0.16677	0.12675	0.20963	0.054401	0.014499	0.31647	0.10044	0.16311	0.054355	0.13912	0.1125	0.13903	0.098247	0.11339	-1.5271	-2.525	-1.8979	-2.3625	-2.3875	-1.8146	-2.7229	-2.3229	-1.6583	-2.5604	-1.9292	-2.0563	-2.5625	-1.6667	-2.4167	-2.3937	197.665	-108.877	35.866	206.694	-61.846	88.356	137.238	212.326	206.674	-21.075	46.595	168.796	-7.865	218.066	86.708	-113.460	8.1884e-05	0.00032417	8.5605e-05	1010.7	9.1704e-07	2.3859e-06	1085.9	214.34	1.0806e-06	1.3193e-06	267.93	75.359	58.798	16.909	1.7684e-06	24.27	0.00014201	0.00012373	3.65e-05	988.46	1.5243e-06	1.3705e-06	1071.2	212.17	1.5141e-06	1.276e-06	265.63	76.023	59.187	17.063	1.347e-06	24.255	236.080	-39.887	-7.696	-102.866	24.009	19.761	-102.857	-95.958	13.221	73.815	-95.750	-89.447	-89.022	-81.616	36.475	-81.811	-8191	255	
1362.019	1	1	0	0	0.19202	0.054236	0.17096	0.32669	0.11678	0.2626	0.31751	0.19486	0.1742	0.31981	0.22712	0.10327	0.26026	0.21162	0.20095	0.24135	-1.1896	-2.6417	-1.8896	-1.9854	-2.5042	-1.5854	-2.575	-2.4562	-1.525	-2.5375	-2.0667	-2.0396	-2.5542	-1.9417	-2.2896	-2.5438	76.764	80.688	-37.341	242.406	-42.546	182.007	164.008	182.339	-105.700	57.034	55.831	-44.374	-105.064	202.394	102.713	182.446	9.3296e-05	0.0004265	4.1521e-05	1008.2	1.8282e-06	1.6645e-06	1088.5	214.02	1.0492e-06	3.1332e-06	269.5	75.283	58.713	16.975	1.7163e-06	24.046	0.00014136	0.00012176	3.5373e-05	986.13	1.4724e-06	1.3542e-06	1070.9	211.99	1.5201e-06	1.328e-06	265.96	75.955	59.01	17.04	1.3707e-06	24.288	232.530	-45.686	-3.899	-103.095	30.931	31.274	-102.728	-95.630	0.400	45.857	-95.990	-88.899	-88.683	-81.678	10.639	-82.066	-8191	255	
1362.115	1	1	0	0	0.030471	0.19874	0.066745	0.35159	0.086072	0.074892	0.52068	0.26025	0.23118	0.028023	0.19718	0.14105	0.22696	0.43174	0.17396	0.21439	-1.2896	-2.4167	-2.175	-1.9604	-2.5771	-1.6938	-2.2417	-2.5729	-1.6354	-2.425	-2.1583	-1.9333	-2.6875	-1.8042	-2.0375	-2.6854	155.481	220.129	124.556	208.227	-79.480	208.320	202.539	195.947	131.578	42.691	235.862	-36.656	-34.127	-50.338	203.246	-62.873	8.7165e-05	0.00034591	9.4736e-05	1006.2	1.4108e-06	2.4566e-06	1090.4	214.67	1.9928e-06	2.7274e-06	272.33	75.5	58.872	16.875	1.5599e-06	23.973	0.00013701	0.00012885	3.3879e-05	984.44	1.4705e-06	1.3589e-06	1071	212.19	1.6066e-06	1.303e-06	267.41	75.949	59.212	17.013	1.3378e-06	24.277	239.050	-22.675	1.704	-102.967	1.307	50.904	-102.507	-95.811	14.555	24.254	-95.804	-89.207	-88.981	-81.820	45.654	-81.987	-8191	255	
1362.211	1	1	0	0	0.066816	0.36424	0.04384	0.072382	0.28984	0.14053	0.38162	0.26166	0.27306	0.13382	0.16461	0.2085	0.027387	0.17494	0.26811	0.23048	-1.1458	-2.625	-2.3208	-1.6833	-2.3833	-2.0042	-2.3479	-2.6667	-1.7896	-2.5146	-2.3271	-1.9458	-2.5667	-2.0146	-1.8875	-2.6312	-12.737	-91.847	142.390	-63.184	212.963	224.176	192.790	233.064	68.503	170.937	177.856	-52.673	-13.936	-101.379	-68.585	-48.962	7.651e-05	0.00024304	9.792e-05	1008.7	1.759e-06	1.7617e-06	1085.4	214.67	1.5814e-06	3.7479e-06	269.09	74.981	59.596	17.004	1.3865e-06	24.159	0.00013388	0.00012723	3.5061e-05	985.05	1.436e-06	1.3498e-06	1070	212.36	1.5983e-06	1.3418e-06	265.84	75.789	59.501	17.022	1.3921e-06	24.315	234.148	-14.574	-10.683	-103.237	29.026	40.490	-102.675	-95.441	16.811	42.715	-96.338	-89.220	-88.687	-82.234	52.688	-82.290	-8191	255	
1362.307	1	1	0	0	0.080091	0.10075	0.10395	0.36467	0.078396	0.059041	0.092269	0.13595	0.071723	0.056288	0.36669	0.26561	0.098471	0.1313	0.35721	0.31088	-1.4271	-2.3312	-2.3396	-1.6208	-2.5833	-2.0333	-2.0625	-2.9229	-1.7896	-2.1229	-2.5167	-1.4396	-2.4083	-2.0563	-1.7812	-2.4854	169.476	-32.122	161.063	-111.622	-22.126	206.497	237.410	-58.026	186.302	-73.394	195.172	164.617	130.954	38.799	-94.020	150.460	9.0659e-05	0.00028116	8.3871e-05	1005	1.0153e-06	2.769e-06	1083.7	214.17	2.4801e-06	3.6079e-06	267.57	75.702	59.099	16.91	2.5564e-06	24.329	0.00013839	0.00012792	3.4694e-05	984.15	1.4441e-06	1.3601e-06	1069.6	212.33	1.5475e-06	1.2488e-06	265.52	75.998	59.307	16.988	1.4537e-06	24.278	228.639	-30.754	-37.696	-102.918	4.098	41.007	-102.760	-95.449	-3.587	52.829	-95.797	-89.051	-89.019	-81.471	3.606	-82.040	-8191	255	
1362.428	1	1	0	0	0.045929	0.15242	0.099381	0.25469	0.11613	0.22286	0.079166	0.39949	0.13532	0.31471	0.29488	0.40065	0.093833	0.061718	0.17716	0.18493	-1.2729	-2.1063	-2.3229	-1.7479	-2.2604	-2.0312	-1.7271	-2.6354	-1.75	-2.1521	-2.4521	-1.6708	-2.475	-2.3	-1.5979	-2.4313	65.207	245.804	95.643	144.749	196.083	139.736	-77.471	242.145	219.480	-72.829	220.723	-75.104	66.632	163.933	80.610	-5.320	7.4197e-05	0.00037519	8.8843e-05	1001.4	2.5626e-06	1.9637e-06	1088.2	214.3	1.0841e-06	2.9443e-06	267.98	75.551	58.627	16.945	1.1652e-06	24.105	0.00013735	0.00012322	3.1818e-05	982.17	1.531e-06	1.2029e-06	1071.4	212.13	1.4686e-06	1.3521e-06	266.02	75.84	59.18	17.014	1.3456e-06	24.257	238.292	-28.126	-15.414	-102.961	43.058	26.463	-102.789	-95.819	-4.600	57.723	-96.036	-89.324	-89.125	-81.670	13.615	-81.445	-8191	255	
1362.524	1	1	0	0	0.084614	0.2705	0.08247	0.16343	0.2247	0.15048	0.12046	0.18072	0.12515	0.098304	0.20206	0.3484	0.16647	0.065929	0.37237	0.1409	-1.5396	-1.8208	-2.5625	-1.7896	-2.3729	-2.3354	-1.9438	-2.4104	-1.8563	-2.0625	-2.8417	-1.6896	-2.375	-2.2979	-1.6417	-2.5292	-27.425	-88.102	222.399	214.306	-52.585	4.316	46.859	126.593	59.549	-25.156	212.626	147.103	-4.266	240.454	-19.244	195.026	8.6e-05	0.00026117	6.8482e-05	1008.4	1.2835e-06	3.4519e-06	1095.2	215.3	1.8144e-06	1.7868e-06	270.15	75.856	58.616	16.868	2.5298e-06	24.276	0.00013272	0.00012606	3.155e-05	985.36	1.5445e-06	1.3216e-06	1072.6	212.5	1.4888e-06	1.4058e-06	266.35	76.068	59.235	16.998	1.3771e-06	24.278	223.241	-36.825	-7.192	-103.091	60.305	31.144	-102.681	-95.531	-20.911	78.548	-95.734	-89.348	-88.495	-81.428	38.889	-81.906	-8191	255	
1362.620	1	1	0	0	0.23066	0.042182	0.048656	0.28959	0.050529	0.12941	0.30275	0.22249	0.067727	0.12989	0.030892	0.2259	0.22934	0.2666	0.1341	0.24012	-1.5896	-1.8	-2.6604	-1.8417	-2.2562	-2.3625	-1.7667	-2.4708	-1.875	-1.7479	-2.7854	-1.8312	-2.0563	-2.3542	-1.6479	-2.425	141.397	93.893	-110.252	-106.691	-79.987	214.581	244.656	209.732	133.344	-51.580	-94.359	-101.379	-5.320	-79.873	68.947	-57.689	7.2055e-05	0.00029271	0.00010162	1007	1.5913e-06	2.2793e-06	1088	214.28	1.0508e-06	3.965e-06	270.23	75.961	59.077	16.913	2.6561e-06	24.064	0.00013343	0.00013016	3.3518e-05	985.38	1.4469e-06	1.2942e-06	1070.5	211.99	1.4654e-06	1.3683e-06	266.83	76.06	59.341	16.995	1.4942e-06	24.262	227.047	-16.781	-27.890	-102.907	64.354	45.085	-102.764	-95.529	22.238	4.667	-95.740	-89.141	-88.800	-81.509	14.581	-81.609	-8191	255	
1362.715	1	1	0	0	0.17095	0.32367	0.32288	0.27481	0.15728	0.10706	0.20388	0.17794	0.18341	0.21422	0.0956	0.15429	0.34137	0.23371	0.22685	0.091095	-1.6854	-1.7188	-2.5521	-1.9125	-2.0625	-2.5208	-1.9688	-2.4646	-2.0542	-1.6521	-2.6729	-2.0542	-1.8438	-2.55	-1.6333	-2.4188	132.478	-106.488	-46.757	218.505	12.063	45.732	226.253	183.659	187.886	-1.540	174.286	-104.028	245.775	-25.434	242.265	-11.198	7.6872e-05	0.00030055	0.0001048	1011.4	1.0811e-06	3.7e-06	1089.1	214.13	2.0789e-06	1.6479e-06	269.6	75.186	59.117	16.988	2.4495e-06	24.045	0.00013323	0.00012777	3.254e-05	986.45	1.4798e-06	1.2088e-06	1071.6	212.16	1.4886e-06	1.4711e-06	266.09	75.689	59.251	17.02	1.4627e-06	24.242	219.145	-21.618	-11.903	-103.023	49.343	45.776	-102.824	-95.392	28.864	45.294	-95.870	-89.241	-88.870	-81.564	26.475	-81.478	-8191	255	
1362.835	1	1	0	0	0.32966	0.21149	0.14331	0.32223	0.11213	0.12889	0.2312	0.13147	0.14778	0.19492	0.24056	0.18489	0.12753	0.24343	0.27799	0.27414	-1.8083	-1.6583	-2.5667	-1.8625	-1.9479	-2.5271	-1.8479	-2.3042	-2.3375	-1.6333	-2.5771	-2.0396	-1.8312	-2.3104	-1.8	-2.3229	72.539	-106.565	41.955	-97.582	91.903	119.408	221.462	136.312	13.179	108.695	188.661	47.838	239.584	-77.316	-100.302	-43.130	8.9132e-05	0.00019292	7.7807e-05	1001.7	1.5993e-06	2.4373e-06	1083.1	213.68	2.6683e-07	2.6762e-06	269.01	75.467	59.063	16.848	1.0823e-06	23.988	0.00013086	0.00012868	3.2104e-05	983.35	1.4814e-06	1.254e-06	1068.1	212.16	1.3921e-06	1.3222e-06	266.41	75.759	59.105	17.004	1.4198e-06	24.251	219.684	-31.800	-10.057	-102.795	-9.174	70.027	-102.585	-95.433	179.773	44.908	-95.713	-89.362	-88.498	-81.196	52.371	-81.621	-8191	255	
1362.907	1	1	0	0	0.053978	0.19447	0.32037	0.070757	0.15199	0.13225	0.25937	0.23189	0.064726	0.13877	0.1602	0.26834	0.023725	0.24319	0.064189	0.19984	-1.9021	-1.4583	-2.4375	-2.1146	-1.9	-2.4854	-1.9188	-2.2042	-2.2979	-1.4708	-2.325	-2.1042	-1.6271	-2.5	-1.7146	-1.9937	116.006	-99.647	130.182	198.452	95.393	185.937	141.215	189.075	-24.031	214.873	220.617	-38.700	212.277	-7.204	-42.660	-36.221	8.3998e-05	0.0001316	5.9308e-05	1007.5	1.963e-06	3.1353e-06	1085.4	214.94	1.9326e-06	3.8418e-06	271.05	75.552	59.048	16.837	1.9207e-06	24.021	0.00012536	0.00012544	3.1837e-05	984.82	1.5716e-06	1.1839e-06	1069.1	211.87	1.4341e-06	1.4301e-06	266.36	75.751	59.326	17.022	1.3286e-06	24.294	220.608	-46.792	-38.796	-102.969	35.119	33.716	-102.497	-95.349	4.299	36.980	-95.609	-89.215	-88.685	-81.117	24.320	-81.478	-8191	255	
1363.003	1	1	0	0	0.095742	0.13734	0.33453	0.19512	0.022893	0.060204	0.23378	0.33751	0.038326	0.084636	0.32344	0.06427	0.17979	0.10833	0.13973	0.030437	-1.9646	-1.4458	-2.275	-2.3479	-1.7646	-2.7333	-2.0396	-1.9042	-2.3271	-1.6417	-2.4396	-2.3375	-1.8229	-2.6542	-2.0771	-1.9375	-51.164	-16.929	-99.419	224.884	74.385	52.386	210.199	159.744	41.920	21.865	172.210	-108.670	-26.541	83.987	76.717	25.994	8.8811e-05	0.0002434	7.7757e-05	1002.5	7.4494e-07	2.064e-06	1087.7	214.76	1.2718e-06	2.9655e-06	267.16	75.206	58.984	16.92	1.9883e-06	23.93	0.00013229	0.00012899	3.0946e-05	983.81	1.5269e-06	1.2918e-06	1070	212.54	1.4744e-06	1.4127e-06	266.47	75.747	59.272	17.031	1.3653e-06	24.206	239.428	-55.042	-0.466	-102.881	18.837	52.493	-102.787	-95.328	5.967	39.516	-95.896	-89.363	-88.700	-81.602	59.257	-82.225	-8191	255	
1363.099	1	1	0	0	0.18493	0.075605	0.07621	0.25604	0.16954	0.23008	0.21507	0.18999	0.13898	0.21189	0.19517	0.25838	0.066746	0.10647	0.2786	0.093719	-2.3688	-1.7375	-2.2583	-2.3125	-1.4188	-2.4521	-2.1271	-1.8583	-2.3604	-1.8396	-2.2229	-2.3833	-1.775	-2.3292	-1.8479	-1.7542	246.105	-107.445	-12.789	210.406	0.133	188.745	169.035	203.102	101.923	-51.111	177.388	232.161	213.894	138.534	-84.972	-76.931	8.0173e-05	0.00018877	7.3914e-05	1009.1	2.2482e-06	1.6924e-06	1084.4	215.09	1.917e-06	3.6139e-06	268	75.192	58.46	17.045	1.8454e-06	24.015	0.00012911	0.0001191	3.2553e-05	985.66	1.5255e-06	1.274e-06	1068.8	212.39	1.4389e-06	1.3244e-06	265.6	75.894	58.908	17.014	1.3539e-06	24.21	227.414	-27.322	-37.583	-102.970	46.929	24.096	-102.465	-95.403	28.431	59.022	-95.858	-88.859	-88.752	-81.397	43.852	-81.583	-8191	255	
1363.220	1	1	0	0	0.25237	0.22783	0.18056	0.16839	0.1265	0.21049	0.51526	0.23339	0.17186	0.23675	0.1304	0.13926	0.35437	0.078617	0.15681	0.33403	-2.2104	-1.5625	-2.0667	-2.6167	-1.825	-2.4271	-2.25	-2.0354	-2.5312	-1.675	-2.2604	-2.6292	-1.6042	-2.5187	-2.0417	-1.8062	166.777	35.425	80.861	201.901	-25.205	68.159	164.910	-50.578	-39.043	7.905	218.113	121.935	-95.220	211.153	7.324	122.357	8.7269e-05	0.00034017	8.1219e-05	1000.4	1.0447e-06	2.0255e-06	1085.4	214.51	1.3027e-06	3.189e-06	269.6	75.273	58.777	16.801	1.3305e-06	24.242	0.00013469	0.00012686	3.3275e-05	983.09	1.4988e-06	1.1822e-06	1069	211.76	1.4565e-06	1.2765e-06	266.84	75.876	59.109	16.923	1.3013e-06	24.338	233.112	-12.405	-26.492	-102.979	47.763	36.642	-102.683	-95.438	1.204	26.526	-95.895	-88.826	-88.718	-81.682	32.820	-81.528	-8191	255	
1363.316	1	1	0	0	0.1556	0.15061	0.12877	0.47319	0.15688	0.067516	0.3627	0.082717	0.10479	0.37102	0.20139	0.19498	0.3572	0.18181	0.12118	0.02403	-2.1625	-1.5625	-1.8937	-2.6792	-1.7021	-2.4646	-2.3	-1.8021	-2.5125	-1.8062	-2.05	-2.7604	-1.8042	-2.4062	-2.2125	-1.7437	93.116	-0.763	86.721	222.896	22.358	166.289	148.962	68.216	230.105	202.349	85.160	165.187	216.554	-69.977	-110.404	213.868	9.2089e-05	0.00027071	9.2255e-05	1008.9	1.7202e-06	2.0383e-06	1084	213.52	1.3209e-06	2.9998e-06	267.88	75.915	58.548	16.891	2.1005e-06	23.974	0.00011977	0.00012542	3.2571e-05	984.76	1.5206e-06	1.2125e-06	1068.7	211.92	1.3747e-06	1.2723e-06	265.98	76.047	59.078	16.967	1.3359e-06	24.241	229.691	-46.515	-24.373	-102.897	1.774	23.379	-102.555	-95.314	31.920	57.923	-95.795	-88.973	-88.270	-81.274	41.446	-81.226	-8191	255	
1363.412	1	1	0	0	0.41699	0.096988	0.14727	0.21936	0.13983	0.26113	0.2888	0.23916	0.13562	0.1188	0.11217	0.13158	0.21088	0.1141	0.10635	0.17664	-2.1583	-1.9646	-1.8708	-2.6583	-1.5917	-2.1292	-2.5917	-1.8	-2.4583	-1.9729	-1.6917	-2.4458	-1.6875	-2	-2.1917	-1.8687	168.570	173.943	139.219	-93.863	17.575	-98.774	221.744	-17.565	14.776	2.485	34.105	245.975	54.210	15.365	76.195	218.027	8.2202e-05	0.00043484	0.00011193	1008	1.5153e-06	2.1549e-06	1084.4	213.72	1.7115e-06	2.8769e-06	269.83	75.047	58.932	16.944	1.6268e-06	24.173	0.00012335	0.00012429	3.2528e-05	985.32	1.5735e-06	1.2402e-06	1069	211.74	1.4385e-06	1.3131e-06	266.77	75.803	59.203	16.954	1.3556e-06	24.303	227.200	-15.068	-28.704	-102.885	42.199	57.331	-102.665	-95.264	4.651	62.457	-95.602	-89.031	-88.394	-80.862	57.701	-81.583	-8191	255	
1363.508	1	1	0	0	0.057642	0.25727	0.11292	0.33993	0.20533	0.15137	0.061993	0.1997	0.26717	0.17144	0.2631	0.14732	0.28131	0.16259	0.14655	0.11276	-2.0708	-1.8833	-1.7083	-2.6437	-1.5688	-1.9729	-2.6021	-1.8146	-2.3708	-2.3625	-1.9667	-2.6625	-1.6187	-1.9062	-2.3271	-1.8604	231.415	60.285	63.909	218.879	49.637	-86.104	107.573	117.562	158.152	217.212	177.509	214.623	230.595	-64.609	125.004	84.551	8.028e-05	0.0003636	0.00011397	1007.3	2.3757e-06	1.8401e-06	1092.8	214.03	1.0315e-06	3.5999e-06	269.53	75.23	58.886	16.928	3.2211e-06	24.106	0.00013458	0.00012289	3.5472e-05	985.05	1.5918e-06	1.3752e-06	1071.5	211.7	1.4436e-06	1.2507e-06	266.38	75.777	58.992	17.034	1.3103e-06	24.264	222.007	-24.645	-15.570	-102.684	46.051	32.819	-102.492	-95.156	38.316	37.411	-95.924	-88.954	-88.423	-81.279	19.918	-81.276	-8191	255	
1363.604	1	1	0	0	0.05772	0.18238	0.12235	0.067405	0.074152	0.17253	0.24281	0.14865	0.21893	0.022375	0.3197	0.16994	0.15637	0.16224	0.1099	0.11615	-2.0208	-2.3063	-1.85	-2.7292	-1.7437	-1.8646	-2.8271	-1.825	-2.075	-2.5062	-1.6917	-2.4833	-1.9375	-1.8896	-2.3604	-1.8625	186.873	-24.082	-23.241	90.625	104.456	-65.274	148.393	160.567	189.732	-42.296	197.768	25.705	163.163	242.513	62.535	-34.396	9.085e-05	0.0003519	0.0001335	1006	2.0461e-06	1.6754e-06	1088.2	213.23	1.4621e-06	2.2617e-06	269.16	75.118	59.038	17.022	1.2089e-06	23.816	0.00012592	0.00012293	3.6867e-05	984.25	1.5343e-06	1.2834e-06	1069.9	211.84	1.5166e-06	1.2721e-06	265.65	75.786	59.237	17.07	1.2575e-06	24.137	221.093	-31.696	-18.804	-102.587	51.641	36.882	-102.498	-95.472	15.352	46.601	-95.228	-89.069	-88.443	-81.195	45.336	-81.186	-8191	255	
1363.701	1	1	0	0	0.021242	0.15978	0.070582	0.29205	0.096982	0.07644	0.034276	0.2206	0.13617	0.21771	0.17507	0.19524	0.16774	0.032627	0.24301	0.087504	-1.7646	-2.4604	-1.5938	-2.5792	-1.9562	-1.7417	-2.6437	-1.7396	-1.9208	-2.3187	-1.6875	-2.5083	-2.1937	-1.8708	-2.6917	-1.7979	89.234	-57.499	242.148	224.814	78.050	198.914	135.188	188.564	-22.095	60.605	-19.477	-111.487	20.722	141.040	-68.074	26.696	9.0753e-05	0.0003298	9.7903e-05	1002.4	1.0184e-06	4.2461e-06	1089.7	213.78	1.4579e-06	1.395e-06	270.22	75.12	59.248	17.024	3.0752e-06	24.208	0.00013631	0.00011668	3.579e-05	984.34	1.4263e-06	1.4421e-06	1072.1	211.5	1.4774e-06	1.2885e-06	266.85	75.805	59.244	17.068	1.3527e-06	24.271	227.308	-13.783	-26.861	-102.675	46.437	17.173	-102.440	-95.515	-0.691	61.812	-95.210	-88.473	-88.447	-81.150	37.602	-81.860	-8191	255	
1363.797	1	1	0	0	0.25799	0.08035	0.045735	0.20897	0.091872	0.072549	0.058387	0.13838	0.076605	0.21487	0.28767	0.17461	0.276	0.291	0.08981	0.13215	-1.5333	-2.5146	-1.625	-2.6333	-2.0854	-1.6458	-2.6667	-2.1188	-1.6063	-2.5854	-1.7354	-2.4542	-2.0271	-1.7313	-2.575	-1.7687	-54.029	193.182	39.668	242.821	186.766	16.075	144.185	39.146	122.572	118.948	-66.187	-70.309	-79.399	-93.909	127.397	205.354	7.8815e-05	0.00017724	6.0676e-05	1010.5	3.4589e-06	3.0436e-06	1084.1	213.76	1.5609e-06	2.4324e-06	266.48	75.888	59.115	16.939	1.414e-06	24.292	0.00013013	0.00010885	3.5609e-05	984.22	1.5044e-06	1.3475e-06	1069.8	211.9	1.5046e-06	1.3452e-06	265.29	75.962	59.256	16.959	1.3039e-06	24.259	228.646	-22.222	-4.217	-102.497	28.031	25.789	-102.386	-95.441	16.066	28.679	-95.755	-88.991	-89.140	-81.155	-0.258	-81.402	-8191	255	
1363.916	1	1	0	0	0.3117	0.15041	0.15838	0.2017	0.12475	0.13323	0.19659	0.3405	0.20734	0.13738	0.23464	0.14406	0.14639	0.042686	0.044383	0.11959	-1.5688	-2.4375	-1.7021	-2.3271	-2.3333	-1.5125	-2.6917	-2.1896	-1.8	-2.6312	-1.8062	-2.1854	-2.3042	-1.7583	-2.3583	-1.9937	-59.862	-17.449	-31.314	-59.558	-43.794	157.839	184.511	136.026	97.504	-42.686	-69.712	-43.358	-86.960	74.150	-101.509	-78.120	8.0929e-05	0.0001944	0.00010723	1003.6	3.0335e-06	2.4204e-06	1087	213.71	1.0621e-06	2.8198e-06	269.06	75.068	58.371	17.037	9.681e-07	23.9	0.00013193	0.00011743	3.3623e-05	984.23	1.4494e-06	1.3122e-06	1069.6	211.56	1.5162e-06	1.2821e-06	266.03	75.78	59.011	17.027	1.2681e-06	24.176	222.985	26.844	-18.455	-102.674	21.981	34.626	-102.494	-95.362	-10.807	56.136	-95.264	-88.841	-88.840	-81.397	9.925	-81.605	-8191	255	
1364.012	1	1	0	0	0.23614	0.18592	0.20229	0.40101	0.020702	0.2587	0.21259	0.031126	0.011958	0.087644	0.16846	0.14534	0.14651	0.18178	0.20899	0.16694	-1.2208	-2.4562	-1.65	-2.4458	-2.4979	-1.6688	-2.5979	-2.1396	-1.5771	-2.5667	-1.8062	-1.9792	-2.2062	-1.7896	-2.5938	-2.1562	208.901	161.320	-75.850	244.366	80.882	111.401	213.339	-95.492	63.898	103.389	32.027	191.727	162.720	90.737	-15.879	241.248	7.9337e-05	0.00025684	0.00011451	1010.1	1.2694e-06	1.9772e-06	1084.8	213.53	1.0211e-06	2.043e-06	269.24	75.334	58.619	16.989	1.5152e-06	24.166	0.0001286	0.00011158	3.4676e-05	986.75	1.455e-06	1.3075e-06	1070.1	211.96	1.5064e-06	1.2961e-06	265.85	75.821	58.855	16.987	1.3435e-06	24.222	230.020	-26.342	27.657	-102.459	44.787	21.864	-102.490	-95.437	17.697	54.632	-95.628	-88.799	-88.279	-80.633	67.766	-81.663	-8191	255	
1364.108	1	1	0	0	0.26365	0.34679	0.22618	0.29924	0.12272	0.15316	0.10116	0.056896	0.031182	0.16298	0.17358	0.10635	0.19286	0.17935	0.028003	0.20158	-1.3604	-2.5792	-1.9062	-2.0875	-2.4104	-1.7	-2.3229	-2.3104	-1.6771	-2.3292	-1.9937	-1.9583	-2.4875	-1.6375	-2.3104	-2.3688	206.049	165.695	-100.050	210.162	74.951	-13.835	-43.968	-111.321	108.056	176.504	230.651	88.616	59.145	220.735	214.280	186.756	7.9039e-05	0.00032729	9.865e-05	1008.3	2.8252e-06	2.7328e-06	1089.5	214.83	1.4177e-06	1.8364e-06	269.86	75.187	58.58	16.864	2.0308e-06	24.083	0.00013295	0.00010364	3.4819e-05	985.15	1.4508e-06	1.4068e-06	1070	211.99	1.5131e-06	1.1955e-06	265.92	75.792	59.014	16.969	1.2876e-06	24.254	223.781	-18.269	-27.979	-102.505	7.073	34.645	-102.302	-95.335	-4.115	34.019	-95.780	-88.981	-88.685	-81.343	39.687	-81.924	-8191	255	
1364.204	1	1	0	0	0.14742	0.15332	0.32721	0.64347	0.067349	0.24076	0.24436	0.033237	0.12326	0.058774	0.086277	0.14507	0.25025	0.24184	0.1037	0.1014	-1.2188	-2.5354	-1.9625	-2.1958	-2.4875	-1.6521	-2.2708	-2.5458	-1.5979	-2.5187	-2.1312	-2.0083	-2.6521	-1.7687	-2.2542	-2.4188	110.254	-25.596	161.224	193.444	54.384	-24.775	201.541	194.634	115.803	225.881	57.067	141.178	198.082	209.546	63.982	-88.647	7.4094e-05	0.00026968	7.8503e-05	1006.6	1.8958e-06	2.7791e-06	1087	213.47	1.0924e-06	2.8861e-06	267.5	75.067	59.15	16.84	2.7042e-06	24.159	0.00013551	0.00011511	3.3785e-05	982.85	1.3931e-06	1.2873e-06	1069.7	211.34	1.5329e-06	1.2682e-06	265.37	75.709	59.196	16.955	1.2499e-06	24.236	226.823	-6.694	6.827	-102.444	35.640	44.574	-102.454	-95.125	11.547	35.161	-95.489	-88.986	-88.655	-81.265	3.637	-81.743	-8191	255	
1364.300	1	1	0	0	0.097132	0.08462	0.11141	0.14001	0.092704	0.24945	0.33681	0.27674	0.13519	0.23413	0.30802	0.29782	0.34869	0.38666	0.33527	0.15236	-1.2271	-2.3396	-2.225	-1.9979	-2.6	-1.8167	-2.2458	-2.6229	-1.5875	-2.2812	-2.2542	-1.7458	-2.7104	-1.8062	-2.0646	-2.4521	118.067	35.952	-47.036	212.182	-45.420	-103.408	196.307	-108.750	99.768	168.065	198.062	240.854	196.800	-28.055	-31.896	-24.033	8.423e-05	0.00022923	8.4827e-05	1007.4	2.5377e-06	2.185e-06	1084.6	212.98	4.4815e-07	3.3408e-06	269.61	75.42	58.639	17.019	1.9072e-06	23.913	0.00013385	0.0001226	3.297e-05	983.4	1.4237e-06	1.2903e-06	1069.7	211.59	1.463e-06	1.2171e-06	265.55	75.701	59.09	16.996	1.3511e-06	24.2	222.752	-8.650	-18.259	-102.579	10.168	26.865	-102.218	-95.294	-24.482	57.187	-95.172	-88.864	-88.116	-81.300	37.061	-81.431	-8191	255	
1364.396	1	1	0	0	0.21545	0.15246	0.23405	0.27838	0.10337	0.076049	0.084108	0.085016	0.1638	0.37746	0.12391	0.29345	0.3588	0.090226	0.17463	0.2458	-1.2792	-2.1479	-2.2375	-1.8771	-2.7375	-1.9375	-2.0438	-2.6833	-1.5042	-2.2604	-2.4562	-1.8458	-2.6542	-2.0979	-1.8292	-2.6813	-56.581	-38.045	-83.471	160.073	97.173	37.200	170.799	114.602	-70.572	128.876	5.972	-66.078	55.503	-94.271	127.234	234.838	7.9185e-05	0.00026552	8.8979e-05	1005	2.2264e-06	3.1383e-06	1084.6	212.82	1.3065e-06	3.8775e-06	268.9	74.913	58.536	16.91	2.6612e-06	24.158	0.00013777	0.0001075	3.2385e-05	983.4	1.449e-06	1.3009e-06	1068.6	211.39	1.4649e-06	1.2772e-06	266.4	75.701	58.996	16.98	1.366e-06	24.249	231.868	-42.510	-41.279	-102.547	66.082	25.150	-102.034	-95.511	36.976	50.217	-95.390	-88.875	-89.055	-81.550	10.740	-81.533	-8191	255	
1364.517	1	1	0	0	0.02716	0.33891	0.26036	0.22807	0.18003	0.17635	0.14664	0.2111	0.3341	0.11837	0.24155	0.31505	0.10045	0.02398	0.19218	0.22424	-1.2542	-2.2313	-2.3854	-1.8708	-2.4354	-2.0187	-1.9792	-2.5792	-1.8188	-2.2396	-2.3604	-1.7292	-2.4146	-2.2313	-1.8146	-2.5125	-80.374	-62.966	114.439	203.775	-85.463	-93.930	184.067	184.317	39.404	-84.069	11.245	200.384	53.784	-56.782	154.748	140.713	8.5777e-05	0.0002043	9.1036e-05	1007.5	1.8673e-06	1.8196e-06	1089.1	213.95	1.9097e-06	2.4111e-06	269.76	74.581	58.455	16.916	1.76e-06	24.156	0.00012976	0.00011249	2.9714e-05	983.71	1.4536e-06	1.2969e-06	1069.2	211.63	1.5134e-06	1.2682e-06	265.86	75.608	59.075	16.972	1.2819e-06	24.22	230.846	-34.494	-20.366	-102.680	39.165	51.538	-102.186	-95.237	38.656	57.550	-95.295	-88.988	-87.977	-81.370	23.209	-80.887	-8191	255	
1364.613	1	1	0	0	0.09579	0.050417	0.20727	0.2293	0.066177	0.046044	0.1254	0.17296	0.28417	0.14339	0.22873	0.043925	0.22153	0.14592	0.077333	0.25378	-1.2854	-2.1188	-2.4854	-1.9312	-2.3292	-2.1604	-1.9375	-2.6083	-1.7917	-2.05	-2.6312	-1.8292	-2.4917	-2.2146	-1.5833	-2.7396	143.156	-1.399	168.047	203.199	-43.610	-52.325	-103.218	157.460	167.160	239.999	116.607	237.372	167.428	-72.496	0.912	117.853	7.147e-05	0.00036415	7.8577e-05	1000.2	1.4672e-06	3.4904e-06	1084.2	212.41	1.3583e-06	3.2715e-06	269.05	75.656	58.346	16.778	1.8546e-06	23.962	0.00013342	0.0001187	3.2447e-05	980.84	1.4647e-06	1.2621e-06	1068.2	211.08	1.4823e-06	1.2078e-06	266.03	75.628	58.922	16.935	1.3324e-06	24.181	235.875	-39.070	-10.309	-102.279	5.545	35.488	-102.429	-95.534	57.402	46.250	-95.480	-88.789	-88.121	-81.328	40.345	-81.061	-8191	255	
1364.707	1	1	0	0	0.31738	0.22382	0.22732	0.068267	0.25282	0.10651	0.17812	0.19855	0.19248	0.22316	0.20267	0.070746	0.10348	0.049865	0.16959	0.066011	-1.6042	-2.0792	-2.4646	-1.8854	-2.2958	-2.3292	-1.8813	-2.5333	-1.8188	-1.9667	-2.6083	-1.7396	-2.3	-2.4125	-1.6333	-2.6396	83.846	212.766	207.664	191.857	-85.127	140.885	192.278	148.685	102.344	-14.607	83.901	-103.540	33.592	207.958	29.663	-79.998	7.4276e-05	0.00033766	8.5203e-05	1008.4	1.0443e-06	2.8618e-06	1086.8	214.54	2.1097e-06	3.1982e-06	267.23	75.705	59.361	16.744	2.5649e-06	23.991	0.00012995	0.00012258	3.2914e-05	984.74	1.3681e-06	1.2271e-06	1068.1	211.98	1.4071e-06	1.212e-06	265.73	75.713	59.174	16.933	1.4016e-06	24.215	229.841	-2.365	-6.019	-102.577	50.630	49.245	-102.210	-95.210	16.800	56.263	-95.501	-88.920	-88.616	-81.087	32.103	-81.817	-8191	255	
1364.781	1	1	0	0	0.24574	0.37442	0.17714	0.17481	0.073475	0.073755	0.27808	0.076016	0.13655	0.055077	0.12593	0.26579	0.096485	0.25935	0.043657	0.032301	-1.65	-1.9	-2.575	-1.9104	-2.1896	-2.3542	-1.8167	-2.5563	-2.1292	-1.9062	-2.4979	-1.8687	-2.0958	-2.4688	-1.7708	-2.3604	-91.666	-98.400	241.747	167.348	-88.564	129.475	213.754	190.249	-10.039	240.218	140.399	-93.686	167.918	-42.429	-21.367	154.997	8.1876e-05	0.00030789	5.2729e-05	1006.7	2.0742e-06	1.6331e-06	1087.6	214.21	1.557e-06	2.2126e-06	267.84	75.421	58.738	16.882	1.8768e-06	24.311	0.00012401	0.00011444	3.0841e-05	984.65	1.3697e-06	1.173e-06	1068.9	211.9	1.3756e-06	1.3182e-06	265.67	75.727	59.18	16.967	1.3622e-06	24.354	227.931	-26.573	-20.620	-102.430	16.100	25.600	-102.322	-95.244	48.477	71.383	-95.208	-88.979	-88.183	-80.858	43.414	-81.445	-8191	255	
1364.877	1	1	0	0	0.052492	0.17708	0.21147	0.31784	0.10177	0.16827	0.093363	0.19365	0.016795	0.082876	0.096879	0.19499	0.17313	0.083445	0.28492	0.19282	-1.7792	-1.6458	-2.575	-1.8979	-2.0771	-2.5271	-1.7875	-2.425	-2.2167	-1.5917	-2.6792	-1.8542	-2.0563	-2.5812	-1.7042	-2.4229	159.736	228.493	202.823	243.834	64.132	25.597	245.306	-103.151	32.147	80.439	35.721	108.863	182.971	-22.146	156.538	45.461	8.244e-05	0.00027545	8.7399e-05	1007	1.5425e-06	2.0012e-06	1082.8	214.16	2.1834e-06	3.1368e-06	269.08	75.413	58.374	16.887	3.0859e-06	24.288	0.00013006	0.0001261	3.0436e-05	982.42	1.3815e-06	1.2224e-06	1068.7	211.52	1.3726e-06	1.3361e-06	265.8	75.769	58.852	17.005	1.2845e-06	24.318	231.624	-31.145	-23.428	-102.585	11.308	7.431	-102.177	-95.265	-21.710	37.849	-95.655	-88.644	-88.212	-81.055	53.068	-81.425	-8191	255	
1364.996	1	1	0	0	0.1809	0.11706	0.098102	0.38825	0.045115	0.067792	0.18799	0.29694	0.13922	0.22441	0.14792	0.086447	0.2097	0.25307	0.06266	0.15228	-2.0229	-1.6333	-2.4583	-2.1354	-1.8104	-2.4833	-1.7708	-2.5208	-2.4688	-1.6271	-2.6729	-2.2146	-1.9062	-2.5771	-1.9104	-2.2833	82.240	167.072	-6.522	245.412	201.665	158.539	142.792	140.181	155.777	140.049	111.028	-23.524	-105.176	107.171	200.114	165.812	5.951e-05	0.00027882	9.3644e-05	1007.3	2.1015e-06	2.2411e-06	1085.2	214.12	7.9177e-07	1.8028e-06	269.99	75.103	58.157	16.855	2.3779e-06	24.194	0.00012414	0.00012648	3.1146e-05	983.97	1.4759e-06	1.2098e-06	1067.9	211.31	1.4088e-06	1.2593e-06	265.87	75.664	58.986	16.962	1.3103e-06	24.332	227.726	-0.385	-5.659	-102.480	37.378	31.350	-102.368	-95.034	-1.286	16.032	-95.473	-89.185	-88.479	-80.890	47.890	-81.490	-8191	255	
1365.092	1	1	0	0	0.2027	0.1095	0.11521	0.25073	0.031484	0.31241	0.12346	0.089102	0.055558	0.19996	0.2528	0.21648	0.26529	0.17772	0.10014	0.21141	-2.0979	-1.6063	-2.3979	-2.1375	-1.8062	-2.5896	-1.8896	-2.2062	-2.2333	-1.5896	-2.5292	-2.2083	-1.7271	-2.7438	-2.0104	-2.125	55.663	23.512	55.071	202.702	-66.429	18.045	165.081	124.071	161.243	-107.536	-88.108	75.920	179.256	234.952	208.089	182.990	8.9341e-05	0.00029241	4.5156e-05	1010.8	1.6095e-06	2.5597e-06	1088.8	214.47	1.3392e-06	4.1829e-06	267.53	75.377	58.615	16.885	1.0983e-06	24.017	0.00013221	0.00012127	3.1065e-05	984	1.5343e-06	1.3088e-06	1068.9	212.06	1.3793e-06	1.225e-06	265.34	75.706	58.999	17.045	1.3207e-06	24.28	232.407	-20.879	-12.061	-102.762	47.319	31.732	-102.311	-95.058	4.256	40.901	-95.400	-89.011	-88.588	-81.082	21.677	-81.012	-8191	255	
1365.188	1	1	0	0	0.20028	0.082947	0.084834	0.20242	0.157	0.13536	0.14071	0.097395	0.047907	0.38311	0.27261	0.058414	0.14319	0.33406	0.35815	0.10613	-2.1604	-1.6	-2.3229	-2.3542	-1.7104	-2.5708	-1.9562	-2.1333	-2.5563	-1.6875	-2.1979	-2.4229	-1.5625	-2.4229	-1.7271	-2.0583	149.481	-38.820	10.362	-44.514	225.471	84.844	-44.130	-18.668	-73.423	202.582	-91.053	-105.312	227.346	242.479	-92.773	143.661	7.4006e-05	0.00028892	3.6702e-05	1001.1	1.7956e-06	3.2778e-06	1085	213.57	1.0566e-06	1.8828e-06	268.58	74.945	58.455	16.894	1.5126e-06	24.3	0.00013125	0.00011679	3.1631e-05	983.29	1.5227e-06	1.2557e-06	1069.3	211.88	1.444e-06	1.2858e-06	265.46	75.69	58.966	16.972	1.2769e-06	24.339	224.876	-35.711	-55.650	-102.431	2.099	55.237	-102.367	-94.876	2.024	52.237	-95.056	-88.857	-88.475	-81.414	-7.625	-81.536	-8191	255	
1365.309	1	1	0	0	0.15958	0.064137	0.16295	0.086618	0.17806	0.27315	0.099524	0.24056	0.26675	0.11916	0.17664	0.16455	0.063154	0.11901	0.13834	0.13321	-2.0583	-1.6938	-2.2833	-2.5729	-1.4521	-2.375	-1.9062	-1.9417	-2.4792	-1.6771	-2.2562	-2.5396	-1.5312	-2.6146	-2.1333	-1.7521	109.588	-87.103	-74.755	136.477	-9.508	233.411	-53.834	174.698	135.592	-88.452	223.508	174.895	138.964	165.624	63.318	-86.858	9.047e-05	0.00024612	9.0836e-05	1002.2	1.2436e-06	2.7997e-06	1081.7	213.73	1.3761e-06	3.4226e-06	268.67	75.202	59.097	16.828	1.3685e-06	24.008	0.00012132	0.00012318	3.005e-05	983.05	1.4979e-06	1.2666e-06	1068.8	211.42	1.3362e-06	1.3546e-06	265.92	75.723	59.068	17.002	1.2978e-06	24.265	232.403	-12.487	-19.056	-102.608	27.328	12.417	-102.260	-94.905	21.420	26.289	-95.454	-89.195	-88.330	-81.310	14.181	-81.601	-8191	255	
1365.381	1	1	0	0	0.0096615	0.27667	0.19936	0.33699	0.12542	0.16243	0.37015	0.34915	0.15105	0.076122	0.081881	0.15368	0.081765	0.22993	0.19085	0.47325	-2.0687	-1.7479	-2.025	-2.4958	-1.575	-2.3542	-2.3208	-1.7062	-2.6646	-1.8208	-2.1542	-2.5333	-1.5312	-2.3583	-2.1312	-1.7125	235.219	-2.117	-14.827	208.230	108.695	50.524	175.199	-78.757	236.005	72.825	180.642	-50.874	-18.525	143.818	53.964	219.741	8.3928e-05	0.00029764	8.2979e-05	1004.3	2.5174e-06	1.1727e-06	1084.9	213.81	1.7353e-06	3.3185e-06	270.86	75.224	58.452	16.946	2.9116e-06	24.078	0.00011917	0.00012276	3.2609e-05	981.33	1.4525e-06	1.27e-06	1066.9	211.48	1.3805e-06	1.2831e-06	265.78	75.663	58.904	16.982	1.1947e-06	24.314	223.671	-6.274	-20.631	-102.459	45.698	39.682	-102.293	-95.013	10.260	33.258	-95.120	-88.441	-88.322	-80.636	31.492	-81.044	-8191	255	
1365.477	1	1	0	0	0.12415	0.17578	0.25602	0.19188	0.19186	0.1088	0.15195	0.22977	0.32005	0.14877	0.033207	0.048764	0.21014	0.10634	0.18782	0.030132	-2.0479	-1.7792	-1.7208	-2.6542	-1.6146	-2.1646	-2.4542	-1.8438	-2.2271	-1.9583	-1.9792	-2.4667	-1.7875	-2.2917	-2.1312	-1.6771	173.923	-46.514	-86.998	200.174	155.897	146.480	152.453	105.144	35.651	126.876	-110.400	241.869	128.919	24.739	150.648	242.167	7.9855e-05	0.00029696	0.00010657	1000.5	1.687e-06	3.1489e-06	1083.5	212.48	1.3946e-06	2.9545e-06	268	75.495	58.184	16.843	2.7337e-06	24.305	0.00012205	0.00012315	3.3206e-05	979.86	1.5141e-06	1.2152e-06	1064.8	211.05	1.2963e-06	1.2596e-06	264.63	75.533	58.705	16.976	1.2551e-06	24.304	229.549	-27.234	-28.292	-102.276	-7.556	33.301	-102.206	-94.743	1.160	22.038	-95.082	-88.635	-87.992	-80.773	59.612	-80.962	-8191	255	
1365.597	1	1	0	0	0.059301	0.23831	0.071423	0.3208	0.36719	0.097928	0.1244	0.19179	0.1083	0.16695	0.10695	0.03389	0.22036	0.26485	0.12938	0.21614	-2.0583	-2.3021	-1.8479	-2.65	-1.6708	-2.3292	-2.3646	-1.7833	-2.5271	-1.9688	-1.9458	-2.7667	-1.9792	-2.1292	-2.4708	-1.7604	186.325	87.684	221.178	205.232	83.815	143.590	199.935	-78.388	158.134	93.155	188.485	228.403	125.759	189.359	-92.777	148.572	9.1253e-05	0.0003606	7.2117e-05	1003.4	2.7584e-06	2.759e-06	1086.5	212.56	1.3264e-06	2.0817e-06	267.34	74.843	58.342	16.81	2.4372e-06	24.201	0.00012685	0.00011522	3.0666e-05	978.15	1.3954e-06	1.1879e-06	1066.3	210.66	1.2522e-06	1.2122e-06	264.79	75.396	58.759	16.976	1.261e-06	24.271	233.267	-21.429	-31.078	-102.034	35.142	53.183	-102.245	-94.728	-21.264	30.315	-95.216	-88.434	-88.356	-80.413	26.224	-81.098	-8191	255	
1365.693	1	1	0	0	0.014668	0.11515	0.21301	0.13659	0.17742	0.10979	0.14394	0.30876	0.28076	0.052909	0.12905	0.20409	0.071294	0.1501	0.186	0.07874	-2.1146	-1.9167	-1.6667	-2.5	-1.7875	-2.1167	-2.6146	-1.8563	-2.3354	-2.1625	-1.725	-2.6375	-1.8937	-1.9062	-2.4188	-1.8021	-17.225	124.139	-33.925	143.410	131.141	35.223	207.324	-98.614	-110.091	199.498	151.755	199.666	121.237	148.493	210.926	174.398	7.7147e-05	0.00020536	5.9035e-05	1000.6	1.5163e-06	3.5323e-06	1078.9	212.52	1.0978e-06	3.3405e-06	267.7	75.467	58.238	16.815	1.6457e-06	24.396	0.00012888	0.00011397	3.1606e-05	977.92	1.4346e-06	1.2745e-06	1064.4	210.9	1.2603e-06	1.1955e-06	265.26	75.645	58.855	16.95	1.2236e-06	24.341	228.406	-35.221	-11.437	-101.976	20.558	53.101	-102.256	-94.689	33.844	32.648	-94.686	-88.827	-88.348	-80.678	36.989	-81.083	-8191	255	
1365.790	1	1	0	0	0.14208	0.31845	0.043131	0.14049	0.13923	0.24432	0.054111	0.24717	0.31422	0.25701	0.21305	0.028728	0.14227	0.21537	0.13711	0.31376	-2.0854	-2.3542	-1.6625	-2.65	-1.7167	-1.8292	-2.5708	-1.6083	-2.2854	-2.35	-1.8167	-2.4229	-2.1063	-2.0146	-2.6167	-1.7396	-61.777	94.616	16.741	-81.660	143.144	55.090	87.304	192.763	-68.136	101.607	11.005	164.721	24.747	144.259	-76.087	234.899	7.3076e-05	0.00043296	9.2381e-05	1002.5	1.6116e-06	2.5573e-06	1082.5	211.94	1.4996e-06	2.9569e-06	267.72	75.201	58.293	16.982	2.4743e-06	24.118	0.00013139	0.0001142	3.3169e-05	979.67	1.3437e-06	1.2725e-06	1065.5	210.45	1.4032e-06	1.1548e-06	265	75.51	58.885	17.043	1.1617e-06	24.307	216.914	-22.836	-39.625	-102.234	34.054	32.771	-102.266	-94.924	16.494	21.610	-95.117	-88.938	-88.030	-81.029	26.763	-81.154	-8191	255	
1365.908	1	1	0	0	0.21611	0.1559	0.1142	0.27577	0.051183	0.093228	0.22251	0.22002	0.17334	0.24009	0.16392	0.32104	0.44757	0.29274	0.19261	0.099981	-1.6854	-2.5271	-1.8083	-2.7104	-2.0896	-1.8146	-2.6646	-1.7875	-2.0729	-2.4125	-1.6917	-2.4521	-2.2104	-1.8708	-2.6083	-1.8125	242.200	245.965	122.109	160.333	209.785	-85.926	131.490	135.004	-51.876	46.863	-84.841	-11.281	95.922	103.376	-105.367	-26.630	8.2042e-05	0.00024634	5.297e-05	1006.7	1.4903e-06	3.2312e-06	1084.3	212.96	7.1478e-07	3.8117e-06	268.01	75.937	58.294	17.042	2.0876e-06	24.224	0.00012923	0.00010861	3.0287e-05	981.39	1.4107e-06	1.292e-06	1064.2	210.64	1.3408e-06	1.1589e-06	264.98	75.755	58.795	17.047	1.2485e-06	24.362	231.277	0.143	16.246	-102.377	8.609	24.812	-102.021	-95.199	40.510	59.597	-95.210	-88.614	-88.576	-80.719	20.745	-80.868	-8191	255	
1366.005	1	1	0	0	0.13821	0.16746	0.18315	0.22492	0.25053	0.060028	0.10372	0.13122	0.018401	0.17985	0.19719	0.1132	0.056524	0.29798	0.4166	0.25562	-1.6313	-2.5479	-1.6271	-2.325	-2.2083	-1.6979	-2.6875	-1.8104	-1.9708	-2.4042	-1.6562	-2.3812	-2.3396	-1.6625	-2.2208	-2.1396	-102.904	8.335	-35.741	132.995	232.144	-95.193	-27.338	156.253	139.152	162.609	121.182	175.360	31.781	158.809	-99.354	-34.878	7.3546e-05	0.00031248	6.3993e-05	1001.9	9.4046e-07	3.6279e-06	1082.1	212.37	2.0018e-06	1.787e-06	269.3	74.796	58.039	17.036	9.8816e-07	24.333	0.00012796	0.00010743	3.1924e-05	978.87	1.4311e-06	1.2328e-06	1067.1	210.57	1.4732e-06	1.1506e-06	265.68	75.587	58.746	17.074	1.1584e-06	24.345	231.826	-38.048	-27.990	-101.878	30.525	31.395	-101.968	-94.888	0.205	30.284	-95.187	-88.449	-88.106	-80.419	7.629	-80.853	-8191	255	
1366.076	1	1	0	0	0.12997	0.17632	0.35374	0.10522	0.2184	0.053849	0.32066	0.24916	0.11877	0.29745	0.17787	0.053512	0.25653	0.17734	0.076058	0.29375	-1.4833	-2.5542	-1.7563	-2.275	-2.4458	-1.3146	-2.575	-1.8958	-1.7	-2.4188	-1.9875	-2.1292	-2.3667	-1.6125	-2.3583	-1.9771	60.082	77.791	19.188	-14.547	-51.748	-90.361	172.106	161.460	221.062	157.024	121.421	34.041	220.527	58.721	39.748	93.725	7.8226e-05	0.00027256	6.5068e-05	1000.6	1.0341e-06	2.1917e-06	1084.7	211.38	5.5522e-07	3.9784e-06	269.45	74.836	58.236	16.965	3.6196e-06	24.243	0.00012793	0.00010455	3.353e-05	979.73	1.3945e-06	1.2266e-06	1066.4	210.38	1.4477e-06	1.114e-06	265.38	75.626	58.816	17.038	1.2323e-06	24.357	231.825	-43.566	-17.341	-101.969	42.912	24.502	-102.000	-94.899	0.654	59.309	-95.408	-88.399	-87.986	-80.771	57.217	-81.521	-8191	255	
1366.197	1	1	0	0	0.35087	0.2153	0.036945	0.17099	0.12399	0.059813	0.1467	0.22269	0.10604	0.083864	0.10252	0.02665	0.27357	0.094406	0.08707	0.046138	-1.2167	-2.4938	-1.7208	-2.2958	-2.4479	-1.4875	-2.3812	-2.2417	-1.5646	-2.4896	-1.9021	-1.9458	-2.4688	-1.6271	-2.2438	-2.2646	56.444	194.002	-4.431	222.723	-51.530	59.788	219.128	-106.617	-20.290	131.484	47.471	29.744	-94.434	-105.661	208.394	228.052	7.6583e-05	0.0002554	6.808e-05	1005.7	1.4021e-06	2.845e-06	1083.9	212.11	7.3871e-07	2.6147e-06	269.85	75.41	58.895	16.906	2.3802e-06	24.213	0.00013642	0.0001093	3.1177e-05	981.47	1.3952e-06	1.3315e-06	1066.1	210.36	1.371e-06	1.2755e-06	265.45	75.501	59.047	17.072	1.2167e-06	24.37	223.586	-12.881	-22.987	-102.176	-3.852	38.855	-101.947	-94.798	20.328	25.011	-95.151	-88.517	-88.087	-80.638	37.699	-81.026	-8191	255	
1366.293	1	1	0	0	0.29111	0.051807	0.085954	0.17353	0.1726	0.13487	0.0036589	0.22899	0.11304	0.15398	0.15548	0.22808	0.18895	0.30715	0.20784	0.1092	-1.1562	-2.4458	-1.8604	-2.1583	-2.6146	-1.7458	-2.3958	-2.4125	-1.6125	-2.4042	-1.9083	-1.8375	-2.5708	-1.7563	-2.1479	-2.4208	10.235	209.877	202.404	202.902	15.560	-87.838	-64.869	192.644	-25.577	163.849	-10.930	115.639	119.453	-70.318	-108.466	141.022	7.0655e-05	0.00025241	0.00010383	1004.4	1.7057e-06	3.4591e-06	1083.5	212.39	1.3443e-06	3.1432e-06	267.74	74.993	58.152	16.924	2.2511e-06	24.345	0.00013478	0.00010324	3.3922e-05	980.25	1.299e-06	1.254e-06	1064.7	210.57	1.3805e-06	1.1403e-06	264.93	75.373	58.608	17.03	1.2084e-06	24.399	231.656	-0.724	-34.264	-101.855	20.267	49.097	-101.971	-94.828	12.608	62.767	-95.337	-88.742	-88.362	-80.978	45.876	-81.310	-8191	255	
1366.389	1	1	0	0	0.36373	0.26478	0.14112	0.34351	0.25964	0.34029	0.065482	0.24046	0.2608	0.21097	0.090299	0.088027	0.11726	0.13969	0.17284	0.12885	-1.2167	-2.5229	-1.9312	-1.875	-2.5958	-1.5375	-2.3771	-2.5208	-1.7042	-2.3229	-2.1958	-1.8312	-2.5729	-1.7208	-2.0563	-2.6292	-94.468	-48.494	30.405	-108.083	-59.092	55.371	189.323	207.601	84.568	-69.886	110.301	222.640	-27.904	171.297	211.099	191.251	7.7691e-05	0.00027023	6.7794e-05	1000.5	1.6179e-06	2.7745e-06	1083.2	213.06	1.6222e-06	2.449e-06	269.61	75.782	58.559	17.111	1.966e-06	24.357	0.00012976	0.00011366	3.1463e-05	979.68	1.3131e-06	1.2555e-06	1064.9	210.59	1.4322e-06	1.1692e-06	264.74	75.89	58.948	17.101	1.2222e-06	24.403	223.031	-37.732	-5.986	-102.258	8.247	11.295	-102.003	-94.766	10.036	32.993	-95.265	-88.254	-87.981	-80.979	45.779	-81.186	-8191	255	
1366.485	1	1	0	0	0.26039	0.22983	0.10281	0.13176	0.094277	0.33026	0.29503	0.40643	0.15384	0.18374	0.14971	0.10834	0.076949	0.16248	0.22541	0.27194	-1.1562	-2.2188	-2.1042	-1.7708	-2.4667	-1.8896	-1.8458	-2.4292	-1.6979	-2.35	-2.2979	-1.6625	-2.5521	-1.6187	-1.75	-2.4917	24.222	148.634	107.011	195.377	177.917	-92.704	229.347	157.104	66.319	-110.732	160.315	232.036	79.560	152.280	72.568	-42.417	8.0388e-05	0.00036986	9.3102e-05	999.08	1.4626e-06	2.1368e-06	1087.3	212.38	1.0025e-06	1.5653e-06	269.04	75.1	58.857	16.989	2.3615e-06	24.288	0.0001321	0.00010965	2.9533e-05	978.53	1.4003e-06	1.274e-06	1064	210.56	1.4693e-06	1.1754e-06	265.42	75.671	59.122	17.105	1.2259e-06	24.381	229.636	-17.143	-20.953	-102.118	47.231	33.185	-102.198	-95.167	21.616	59.647	-95.629	-88.594	-88.343	-81.038	43.621	-81.532	-8191	255	
1366.606	1	1	0	0	0.077105	0.14723	0.074104	0.23495	0.17067	0.13216	0.43261	0.1661	0.054533	0.14661	0.098259	0.075076	0.18138	0.20925	0.19562	0.051408	-1.2979	-2.2417	-2.0792	-1.7563	-2.3417	-1.75	-2.0396	-2.55	-1.5792	-2.1458	-2.3917	-1.7083	-2.4	-1.9667	-1.6854	-2.8563	105.813	-98.718	99.450	223.053	-54.972	24.698	164.233	130.919	-7.112	-101.808	219.398	99.300	140.561	178.837	-91.121	148.771	7.1515e-05	0.00029271	7.3058e-05	1002.6	2.3495e-06	1.6961e-06	1082.7	212.3	1.7253e-06	2.941e-06	267.67	75.225	59.035	16.967	1.8066e-06	24.093	0.00013159	0.00010278	2.9571e-05	980.46	1.3887e-06	1.1681e-06	1064.2	210.32	1.4007e-06	1.2839e-06	264.89	75.848	59	17.106	1.2876e-06	24.327	224.012	-7.496	8.880	-102.018	34.587	55.651	-102.056	-94.935	41.795	42.437	-95.123	-88.460	-88.370	-81.221	41.304	-81.287	-8191	255	
1366.678	1	1	0	0	0.1193	0.033626	0.17301	0.069608	0.29861	0.32498	0.21836	0.066358	0.2073	0.33259	0.099764	0.30434	0.064304	0.088135	0.10552	0.052501	-1.325	-2.0646	-2.2917	-1.7583	-2.3563	-1.85	-1.9667	-2.7146	-1.525	-1.9917	-2.5	-1.5938	-2.4542	-2.1729	-1.75	-2.45	-75.270	105.122	-7.694	-32.203	124.000	168.417	159.582	-27.495	-99.781	-81.605	208.541	241.567	46.241	163.239	100.486	215.502	9.4736e-05	0.00023044	3.944e-05	1002	7.9994e-07	3.0754e-06	1081	213.19	2.1821e-06	2.6269e-06	265.99	75.241	58.597	16.958	1.7355e-06	24.392	0.00012854	0.00010666	3.0847e-05	979.66	1.3498e-06	1.237e-06	1063.6	210.85	1.4521e-06	1.2652e-06	264.51	75.6	58.85	17.101	1.2828e-06	24.436	232.812	-12.504	-25.914	-102.441	41.477	8.713	-102.271	-94.789	5.567	18.824	-95.275	-89.003	-88.424	-81.433	24.947	-81.481	-8191	255	
1366.774	1	1	0	0	0.22999	0.27374	0.13055	0.3047	0.062991	0.19032	0.29379	0.13937	0.27794	0.41304	0.087857	0.31366	0.10788	0.044268	0.1652	0.18602	-1.375	-1.8167	-2.3875	-1.6375	-2.4062	-2.1583	-1.7417	-2.575	-1.7958	-1.7875	-2.4875	-1.6313	-2.3604	-2.1917	-1.5333	-2.3479	205.255	-100.875	154.317	-107.577	213.402	-27.408	237.181	244.961	213.344	120.376	215.641	169.610	240.748	9.947	-18.225	73.856	8.1239e-05	0.00040133	9.0757e-05	1001.1	1.4549e-06	2.4479e-06	1082.3	211.99	6.8626e-07	2.0766e-06	267.63	75.013	58.688	17.127	8.428e-07	24.12	0.00012586	0.00010921	3.2447e-05	978.6	1.3857e-06	1.1669e-06	1064.7	210.61	1.4039e-06	1.2853e-06	264.74	75.313	58.914	17.147	1.3437e-06	24.349	229.359	-14.873	-8.290	-102.189	29.568	37.925	-102.084	-95.037	21.555	36.446	-95.125	-88.594	-88.476	-80.894	107.267	-81.168	-8191	255	
1366.870	1	1	0	0	0.2348	0.1888	0.22236	0.35242	0.21226	0.13948	0.18452	0.087441	0.24422	0.28789	0.18135	0.13722	0.085407	0.13999	0.23168	0.13085	-1.4375	-1.7708	-2.3167	-1.7146	-2.0708	-2.3208	-1.6458	-2.5583	-1.8375	-1.6896	-2.6	-1.6688	-2.0062	-2.4292	-1.3542	-2.5229	80.199	-59.886	207.656	245.338	201.033	88.068	174.177	175.934	138.865	234.706	217.685	191.620	130.370	55.783	93.430	192.817	8.0012e-05	0.0002737	9.1164e-05	998.1	1.8832e-06	2.5839e-06	1082.1	212.26	2.0649e-06	3.111e-06	267.21	75.704	58.917	17.059	1.9738e-06	24.317	0.00013024	0.00011378	2.7466e-05	976.83	1.3834e-06	1.2157e-06	1063.1	210.48	1.3923e-06	1.2831e-06	264.66	75.751	59.113	17.149	1.3281e-06	24.345	223.233	-20.384	-9.272	-102.229	39.031	36.324	-101.958	-94.788	15.667	54.247	-94.733	-88.755	-87.851	-81.106	24.554	-81.465	-8191	255	
1366.989	1	1	0	0	0.09694	0.1054	0.22221	0.35924	0.084691	0.19779	0.13466	0.10182	0.15513	0.21117	0.21782	0.16926	0.11038	0.16424	0.13466	0.3207	-1.7062	-1.7083	-2.525	-1.7417	-2.0312	-2.3896	-1.7062	-2.3792	-2.1312	-1.7396	-2.5729	-1.875	-1.9146	-2.4271	-1.6354	-2.4375	199.068	-76.214	-63.558	186.298	54.097	113.530	-17.535	194.859	119.662	-59.279	218.704	245.160	225.517	121.605	159.636	241.629	7.1316e-05	0.00020689	8.3388e-05	1000.1	1.206e-06	2.3894e-06	1082.8	213.24	2.0905e-06	3.1655e-06	269.38	75.139	58.326	17.144	1.8473e-06	24.213	0.00012621	0.00012165	3.0318e-05	978.77	1.423e-06	1.1067e-06	1063.6	210.98	1.3649e-06	1.2917e-06	265.55	75.489	58.958	17.169	1.357e-06	24.403	221.515	-29.885	-21.314	-102.267	-7.040	49.433	-101.967	-94.853	-9.874	40.571	-94.826	-88.647	-88.275	-81.263	10.602	-80.993	-8191	255	
1367.085	1	1	0	0	0.22481	0.3285	0.27702	0.2203	0.087967	0.11313	0.26449	0.37315	0.20643	0.080474	0.24825	0.18193	0.33087	0.22789	0.088136	0.16325	-1.9229	-1.6437	-2.4062	-1.8813	-1.9438	-2.45	-1.8854	-2.4396	-2.1792	-1.5771	-2.5021	-1.8521	-1.8521	-2.6312	-1.4792	-2.2146	-22.813	-7.229	65.375	215.763	129.583	-19.368	176.323	215.507	-26.061	140.603	-87.490	145.994	149.085	161.536	105.614	-91.321	8.3724e-05	0.00028588	6.8383e-05	999.92	1.8457e-06	2.6153e-06	1079.4	212.44	1.354e-06	2.3049e-06	269.83	74.598	58.641	17.108	1.7131e-06	24.266	0.00012806	0.00011799	3.0175e-05	977.46	1.3704e-06	1.1022e-06	1063.3	210.61	1.3457e-06	1.2696e-06	265.14	75.456	59.003	17.177	1.3366e-06	24.391	216.689	-37.932	-23.855	-102.138	36.966	38.594	-101.816	-94.879	20.217	29.548	-95.304	-88.615	-87.940	-80.814	41.795	-80.980	-8191	255	
1367.181	1	1	0	0	0.34398	0.10268	0.19365	0.079203	0.17098	0.20023	0.10512	0.078119	0.01079	0.18269	0.16613	0.048698	0.19163	0.2183	0.11403	0.093745	-1.8813	-1.6625	-2.35	-2.1542	-1.6875	-2.4146	-1.7375	-2.1	-2.4771	-1.5542	-2.5354	-2.0417	-1.6896	-2.6167	-1.8479	-2.0458	-70.690	-39.654	50.577	115.225	198.285	144.541	131.085	200.221	1.034	88.613	146.163	-38.604	-81.640	198.567	-77.502	-85.440	7.4122e-05	0.00025457	8.6933e-05	1001.9	2.6152e-06	2.1877e-06	1078.6	213.48	1.1305e-06	2.4862e-06	270.13	75.192	58.469	17.144	2.0135e-06	24.391	0.0001251	0.00011158	3.3567e-05	980.16	1.4916e-06	1.1795e-06	1064.2	210.82	1.3596e-06	1.301e-06	265.68	75.501	58.925	17.194	1.2136e-06	24.35	223.146	-20.357	-49.495	-102.540	35.192	25.511	-102.320	-94.408	-5.797	24.225	-94.836	-88.297	-87.824	-80.982	29.288	-80.846	-8191	255	
1367.277	1	1	0	0	0.10656	0.36858	0.14029	0.28728	0.19117	0.065738	0.21296	0.23116	0.22162	0.09044	0.34909	0.051632	0.095792	0.26707	0.19335	0.10073	-1.875	-1.5187	-2.3146	-2.0708	-1.5896	-2.6229	-1.8521	-1.9083	-2.4979	-1.4417	-2.3146	-2.3833	-1.5854	-2.5	-1.825	-2.0938	94.740	1.557	19.437	168.740	240.198	-55.675	152.918	165.411	214.636	51.472	-54.656	46.788	233.818	159.385	59.612	180.220	6.6596e-05	0.00029303	3.2801e-05	1000.1	1.6235e-06	2.238e-06	1087	213.79	8.8241e-07	3.5955e-06	265.85	75.001	58.615	17.097	2.1671e-06	24.261	0.00012457	0.00011805	2.8587e-05	978.29	1.449e-06	1.1841e-06	1064.4	210.95	1.3267e-06	1.2377e-06	264.91	75.515	58.87	17.188	1.362e-06	24.359	225.993	9.741	-46.536	-102.010	8.295	75.407	-101.940	-94.544	17.700	32.381	-94.741	-88.384	-88.652	-81.003	35.166	-81.522	-8191	255	
1367.373	1	1	0	0	0.075045	0.1342	0.05483	0.18528	0.30683	0.15744	0.4822	0.43193	0.097893	0.23176	0.054761	0.21659	0.11195	0.12948	0.14568	0.15522	-2.1521	-1.6125	-2.3312	-2.4875	-1.4792	-2.3396	-2.1312	-2.0167	-2.5021	-1.65	-2.2687	-2.2292	-1.875	-2.5396	-2.0375	-2.0687	75.097	138.683	-49.732	131.829	61.754	170.099	210.392	195.425	107.144	-29.177	96.772	-112.563	238.229	169.540	148.455	233.519	8.4442e-05	0.00034183	5.1679e-05	993.44	2.1259e-06	1.579e-06	1085.9	212.68	1.276e-06	4.035e-06	268.25	75.186	58.786	17.119	2.43e-06	24.434	0.00012748	0.00011916	2.9241e-05	976.78	1.5113e-06	1.2424e-06	1065.6	210.78	1.4065e-06	1.2478e-06	264.64	75.552	59.005	17.175	1.3082e-06	24.452	228.888	-48.892	-14.239	-102.317	52.218	27.919	-102.137	-94.890	12.827	35.836	-94.707	-88.649	-88.506	-81.078	31.532	-81.159	-8191	255	
1367.470	1	1	0	0	0.10596	0.099407	0.17358	0.24822	0.077095	0.18697	0.24544	0.36475	0.37504	0.053318	0.14475	0.11693	0.13366	0.18259	0.073143	0.1706	-2.3063	-1.8312	-2.1104	-2.5062	-1.5646	-2.425	-2.3604	-1.9562	-2.3812	-1.6229	-2.2	-2.5667	-1.6938	-2.4521	-2.0271	-1.6958	123.868	167.741	122.576	185.196	178.235	-70.862	205.949	245.576	5.094	-31.473	121.249	164.683	236.807	105.834	187.439	-110.402	8.6148e-05	0.00022524	9.2346e-05	1002.9	1.2597e-06	2.2441e-06	1086.1	213.56	1.47e-06	3.1329e-06	267.36	75.265	58.499	17.088	1.9797e-06	24.493	0.00012618	0.00012373	3.2086e-05	979.74	1.4717e-06	1.1555e-06	1065.7	211.33	1.4167e-06	1.2596e-06	265.41	75.498	58.846	17.198	1.2847e-06	24.433	230.735	-4.089	-9.795	-102.518	24.136	35.133	-102.300	-95.128	31.372	26.176	-95.109	-88.667	-88.776	-81.113	26.823	-81.467	-8191	255	
1367.590	1	1	0	0	0.18601	0.1557	0.11202	0.21251	0.24522	0.15192	0.23329	0.10191	0.28209	0.096156	0.17306	0.067089	0.16899	0.11318	0.049001	0.34899	-2.1188	-1.7812	-1.9083	-2.6792	-1.7437	-2.2417	-2.3625	-1.7437	-2.4708	-1.8312	-2.0083	-2.5292	-1.7854	-2.2833	-2.2458	-1.8729	-90.117	-80.549	227.658	99.726	198.078	-61.354	170.142	139.499	234.966	109.372	219.169	50.187	-73.851	-41.579	56.489	-23.737	8.7464e-05	0.00025056	7.8291e-05	1002.5	1.3089e-06	2.0192e-06	1088.2	212.93	2.0037e-06	2.4225e-06	266.93	75.832	58.731	17.101	2.1541e-06	24.197	0.00012087	0.00011535	3.5516e-05	980.99	1.5018e-06	1.2224e-06	1067	210.58	1.4097e-06	1.3553e-06	264.5	75.707	58.901	17.15	1.171e-06	24.453	227.795	-10.897	-42.302	-102.523	51.874	40.671	-101.896	-94.950	-6.249	32.502	-94.865	-88.530	-88.333	-80.781	20.756	-81.451	-8191	255	
1367.686	1	1	0	0	0.33553	0.34395	0.18848	0.21127	0.16376	0.12315	0.35653	0.10213	0.051184	0.2315	0.37577	0.16663	0.042046	0.11837	0.11869	0.10213	-1.9813	-1.9146	-1.8	-2.7188	-1.6917	-2.3354	-2.7167	-1.6792	-2.2979	-1.8396	-1.8292	-2.6271	-1.7604	-2.1104	-2.2604	-1.6437	37.182	56.476	-31.752	161.954	-56.550	-77.116	162.670	-37.558	5.408	-111.212	179.734	187.414	144.963	9.602	-107.189	164.609	7.6605e-05	0.00026837	6.6728e-05	1004.1	1.6364e-06	1.9391e-06	1081.4	212.87	1.539e-06	2.1726e-06	269.43	75.234	58.568	17.175	2.5482e-06	24.51	0.00012758	0.00011652	3.2335e-05	979.48	1.49e-06	1.2471e-06	1065	211.02	1.438e-06	1.1216e-06	265.14	75.539	58.87	17.252	1.2838e-06	24.491	230.943	1.401	-23.671	-102.451	9.766	39.219	-101.966	-94.450	14.002	36.335	-94.362	-88.229	-87.879	-80.744	57.530	-80.722	-8191	255	
1367.781	1	1	0	0	0.052793	0.11611	0.19893	0.16622	0.11702	0.39706	0.11487	0.10207	0.11059	0.10176	0.30289	0.24053	0.021658	0.24358	0.04293	0.081875	-2.0667	-1.9729	-1.6375	-2.6208	-1.5792	-2.2292	-2.4396	-1.6938	-2.3458	-2.1792	-1.6854	-2.7521	-1.7604	-1.9896	-2.3542	-1.6208	-33.736	-49.411	-24.330	221.712	-77.215	202.378	223.995	-71.206	202.753	245.284	220.905	179.717	-26.488	219.403	165.164	-46.108	8.0066e-05	0.00025114	0.00011552	1009	2.5842e-06	3.2332e-06	1086.3	212.84	1.5184e-06	3.0818e-06	267.26	75.305	58.533	17.2	2.0909e-06	24.464	0.00012654	0.00012278	3.4109e-05	981.27	1.42e-06	1.2318e-06	1064.7	210.71	1.3693e-06	1.2355e-06	265.35	75.732	58.752	17.241	1.1615e-06	24.516	238.897	-34.801	-34.421	-101.772	31.279	38.585	-101.678	-94.327	-10.766	34.748	-94.842	-88.482	-88.415	-80.400	31.510	-80.831	-8191	255	
1367.877	1	1	0	0	0.31903	0.16255	0.06022	0.18871	0.19479	0.092146	0.2369	0.099444	0.2575	0.070753	0.1847	0.18858	0.32431	0.27244	0.16565	0.20446	-1.8417	-2.1917	-1.6771	-2.7896	-1.9958	-1.9104	-2.6083	-1.5562	-2.375	-2.3042	-1.5833	-2.5979	-1.9062	-1.8	-2.4021	-1.7333	206.218	-46.599	212.598	226.776	238.347	-9.037	229.455	208.511	72.394	24.820	146.920	-51.549	213.146	141.691	-13.835	197.306	8.7507e-05	0.0002502	9.7221e-05	1000.7	1.3622e-06	3.3244e-06	1084.4	212.79	6.6355e-07	2.6601e-06	267.31	75.099	58.665	17.12	2.5884e-06	24.383	0.00012626	0.00011105	3.4352e-05	979.65	1.3845e-06	1.2843e-06	1067.2	210.93	1.399e-06	1.1027e-06	264.89	75.55	58.977	17.266	1.3032e-06	24.432	228.274	-17.887	-13.287	-102.867	9.269	3.990	-102.448	-95.263	23.087	-2.059	-95.544	-88.850	-88.398	-81.134	44.482	-81.227	-8191	255	
1367.973	1	1	0	0	0.080769	0.03863	0.068715	0.089273	0.26257	0.032773	0.18821	0.16158	0.11585	0.14306	0.22755	0.12679	0.14343	0.10624	0.085872	0.17828	-1.6042	-2.275	-1.6417	-2.7542	-1.8104	-1.8	-2.6646	-1.9333	-2.0521	-2.2604	-1.7917	-2.5542	-2.1292	-1.8188	-2.475	-1.7125	86.125	-77.759	24.798	-55.581	-50.663	-81.748	-68.461	207.818	101.330	-68.764	-54.933	151.874	-96.399	233.474	-62.658	-4.386	8.3724e-05	0.00023901	9.4503e-05	1003.6	1.1123e-06	2.0781e-06	1084.7	213.31	6.0255e-07	3.2287e-06	269.66	75.167	58.845	17.185	2.073e-06	24.299	0.0001257	0.00011814	3.1034e-05	980.98	1.3859e-06	1.2537e-06	1065.4	210.83	1.4517e-06	1.1683e-06	265.57	75.78	59.046	17.229	1.2411e-06	24.403	226.441	-0.371	-22.764	-102.332	29.664	62.337	-102.202	-94.840	-1.935	42.288	-95.099	-88.361	-88.151	-80.371	29.126	-81.357	-8191	255	
1368.069	1	1	0	0	0.064274	0.035153	0.070394	0.16736	0.10128	0.17942	0.3143	0.18006	0.22882	0.0191	0.21972	0.1657	0.28913	0.19012	0.13897	0.1354	-1.7104	-2.3937	-1.6792	-2.5104	-2.1688	-1.5854	-2.45	-1.9646	-2.0708	-2.475	-1.6333	-2.5521	-2.2438	-1.5979	-2.5833	-1.8979	216.339	-37.791	139.740	-109.562	74.536	-0.346	140.641	136.944	126.917	28.529	187.024	81.602	80.154	192.230	-1.222	-25.257	6.9762e-05	0.00027116	6.5375e-05	1005	1.2938e-06	3.5433e-06	1083.7	213.32	1.5e-06	3.0028e-06	270.14	75.043	59.126	17.282	1.3536e-06	24.252	0.00012976	0.00010355	3.2503e-05	980.69	1.3352e-06	1.3177e-06	1065.2	211.07	1.3619e-06	1.1354e-06	266.45	75.767	58.88	17.336	1.1456e-06	24.41	226.749	-43.492	-3.164	-102.070	32.308	30.720	-102.376	-94.893	-26.313	63.232	-94.660	-88.211	-88.074	-81.043	-1.841	-81.330	-8191	255	
1368.165	1	1	0	0	0.14854	0.082627	0.2165	0.28422	0.15375	0.049667	0.2978	0.31814	0.34752	0.20945	0.34947	0.060231	0.071864	0.37736	0.16816	0.06832	-1.4167	-2.4542	-1.6938	-2.3563	-2.1604	-1.7021	-2.5583	-2.0792	-1.6854	-2.4375	-1.7104	-2.3354	-2.3083	-1.6479	-2.5167	-2.2	-81.704	212.983	109.903	-108.087	142.261	53.490	235.254	220.648	68.464	112.815	74.696	205.461	-71.702	-101.048	204.474	3.732	7.7612e-05	0.00020475	9.3381e-05	1004.1	5.9706e-07	4.0518e-06	1083.4	213.12	9.6209e-07	2.9212e-06	267.95	75.293	58.824	17.109	2.2743e-06	24.425	0.00012758	0.00011162	3.2322e-05	982.18	1.3456e-06	1.2873e-06	1065.3	210.94	1.4519e-06	1.1187e-06	264.94	75.786	58.925	17.291	1.1831e-06	24.473	231.270	-34.920	-25.904	-102.394	42.830	63.716	-102.287	-94.973	-1.440	50.646	-95.297	-88.916	-88.679	-80.552	13.347	-81.528	-8191	255	
1368.262	1	1	0	0	0.22488	0.25767	0.068306	0.15947	0.084587	0.17012	0.1372	0.14434	0.050198	0.16097	0.077155	0.16589	0.17384	0.098286	0.19599	0.18666	-1.4833	-2.5521	-1.525	-2.3125	-2.2188	-1.7833	-2.6979	-2.1104	-1.7875	-2.5042	-1.8229	-2.1333	-2.4146	-1.5896	-2.2979	-2.2375	108.468	138.621	246.596	-73.664	-84.547	125.190	125.642	139.832	174.537	8.664	121.167	224.680	155.791	-9.503	126.379	-12.552	7.3916e-05	0.00033494	7.0842e-05	1002	1.0829e-06	1.9648e-06	1083.6	213.1	1.3445e-06	3.4928e-06	268.45	75.036	58.017	17.173	2.6733e-06	24.268	0.00012724	0.00010848	3.2229e-05	981.16	1.3709e-06	1.2984e-06	1066.9	211.05	1.4313e-06	1.1486e-06	265.63	75.771	58.879	17.283	1.2736e-06	24.462	236.198	-34.104	0.545	-102.572	17.203	46.151	-102.262	-94.621	35.385	35.594	-94.911	-88.110	-88.118	-81.233	59.301	-81.223	-8191	255	
1368.382	1	1	0	0	0.15102	0.29663	0.094858	0.22835	0.1765	0.16291	0.20255	0.055008	0.15405	0.22808	0.16728	0.14553	0.17103	0.25942	0.096009	0.14222	-1.0875	-2.4271	-1.6208	-1.9958	-2.4396	-1.6625	-2.7562	-2.175	-1.625	-2.4958	-2.0292	-1.8667	-2.4229	-1.6167	-2.4	-2.4083	226.396	162.990	51.854	237.471	-58.831	149.336	136.752	-57.611	226.329	215.960	182.820	28.601	131.611	209.728	-77.553	197.635	7.9537e-05	0.00028325	7.9286e-05	1003.7	1.4887e-06	2.1014e-06	1083.7	212.77	1.8942e-06	8.9097e-07	269.04	75.674	58.991	17.34	2.053e-06	24.366	0.00012668	0.00010371	3.3648e-05	981.46	1.3398e-06	1.2661e-06	1067.4	210.75	1.3468e-06	1.1319e-06	265.55	76.014	59.16	17.316	1.3385e-06	24.462	220.013	-24.861	-18.015	-102.335	53.643	39.865	-101.954	-95.040	44.960	32.020	-95.311	-88.826	-88.191	-80.888	24.430	-81.109	-8191	255	
1368.478	1	1	0	0	0.18503	0.14309	0.20597	0.13572	0.1574	0.17733	0.171	0.31339	0.10216	0.16603	0.087209	0.28869	0.097824	0.20904	0.1416	0.2706	-1.4062	-2.4375	-1.8583	-2.0583	-2.4979	-1.5562	-2.3208	-2.1542	-1.6479	-2.6063	-2.1958	-1.7083	-2.6562	-1.8167	-2.2125	-2.2708	120.245	-45.478	160.615	220.209	238.356	62.694	112.702	178.788	216.938	-64.957	-42.594	238.609	-92.000	-19.384	-100.799	-11.625	8.2908e-05	0.00024793	8.7385e-05	1004.5	1.5033e-06	2.0178e-06	1091.4	213.3	1.2549e-06	2.0826e-06	268.56	75.451	58.438	17.355	1.9879e-06	24.204	0.00012989	0.00010974	3.0691e-05	982.96	1.3122e-06	1.2491e-06	1069.7	211.42	1.3793e-06	1.1506e-06	265.33	75.762	58.995	17.359	1.2155e-06	24.441	225.840	-1.409	-16.467	-101.730	43.888	45.993	-101.183	-94.047	-8.967	24.721	-94.381	-87.824	-87.644	-80.619	49.547	-80.878	-8191	255	
1368.550	1	1	0	0	0.1156	0.023431	0.24338	0.14938	0.12511	0.08824	0.12548	0.24412	0.25934	0.082237	0.16019	0.07265	0.16232	0.12951	0.21688	0.20708	-1.2458	-2.4917	-1.8417	-1.9792	-2.5896	-1.6229	-2.0729	-2.5187	-1.5917	-2.3333	-2.2854	-1.7729	-2.525	-1.7104	-2.0396	-2.5687	200.017	-24.732	145.785	149.720	-67.540	246.777	113.064	116.486	144.212	53.917	-86.303	149.635	-14.885	58.944	201.370	97.453	8.0783e-05	0.00019328	8.8859e-05	1002.9	2.1544e-06	2.9031e-06	1081.2	212.57	5.689e-07	2.3095e-06	265.96	74.92	58.497	17.27	1.685e-06	24.364	0.00012968	0.00011273	2.9982e-05	981.06	1.3173e-06	1.2631e-06	1063.2	210.22	1.4431e-06	1.1791e-06	263.52	75.418	58.592	17.275	1.2245e-06	24.373	231.067	-52.890	-27.900	-102.216	40.260	6.897	-102.138	-94.848	66.291	28.881	-95.529	-88.190	-88.136	-80.924	24.671	-81.478	-8191	255	
1368.671	1	1	0	0	0.1254	0.20658	0.16743	0.1181	0.16263	0.22013	0.36368	0.26065	0.069292	0.12682	0.25346	0.086757	0.18473	0.41909	0.32712	0.16493	-1.1396	-2.3	-2.325	-1.6958	-2.5646	-1.8667	-1.9354	-2.5729	-1.6542	-2.2229	-2.2792	-1.5312	-2.6875	-1.9583	-1.8167	-2.6167	59.437	-74.745	184.900	164.634	67.616	-46.357	225.017	170.613	54.499	153.762	135.167	160.707	186.389	139.897	101.259	118.063	6.4464e-05	0.00028067	8.4898e-05	996.15	1.6197e-06	1.8418e-06	1080	212.65	1.4158e-06	2.6675e-06	268.13	75.528	58.802	17.184	1.8985e-06	24.22	0.00012996	0.00011118	2.9154e-05	973.4	1.4214e-06	1.1617e-06	1061.8	210.19	1.4375e-06	1.1172e-06	263.89	75.534	58.716	17.27	1.3098e-06	24.403	224.823	-49.326	-20.948	-102.485	18.023	28.119	-102.462	-95.250	25.263	44.823	-95.954	-88.972	-88.677	-81.593	9.413	-81.871	-8191	255	
1368.767	1	1	0	0	0.11862	0.24117	0.18034	0.10734	0.2181	0.088779	0.16724	0.28584	0.092232	0.20724	0.11246	0.010493	0.08916	0.055487	0.16871	0.13891	-1.4062	-2.2188	-2.3333	-1.7375	-2.475	-1.9792	-1.9833	-2.7896	-1.7646	-1.9479	-2.3979	-1.4729	-2.3229	-2.0917	-1.85	-2.6396	114.309	-9.115	194.048	141.945	101.510	183.678	42.149	182.820	87.328	16.794	229.523	70.628	60.458	165.772	12.017	208.667	8.6798e-05	0.00027861	7.4366e-05	997.85	1.5698e-06	3.0908e-06	1079.9	211.65	1.3418e-06	2.3453e-06	265.29	75.598	58.302	17.323	3.2982e-06	24.308	0.00013077	0.00011065	3.1339e-05	975.19	1.3143e-06	1.3298e-06	1062.4	209.85	1.3909e-06	1.3013e-06	263.86	75.641	58.764	17.301	1.3172e-06	24.369	229.707	-15.669	-13.191	-102.754	70.213	35.005	-102.627	-95.461	36.997	54.369	-95.704	-89.143	-88.827	-81.933	35.749	-81.551	-8191	255	
1368.861	1	1	0	0	0.25146	0.025376	0.24518	0.074636	0.087896	0.24213	0.20794	0.14427	0.097553	0.090022	0.15859	0.27718	0.38402	0.17123	0.30863	0.03987	-1.2875	-1.8708	-2.2229	-1.5625	-2.2229	-2.1333	-1.8854	-2.6021	-1.8479	-2.0333	-2.5208	-1.6854	-2.2479	-2.2375	-1.5521	-2.5438	156.917	-9.094	66.193	238.295	-107.404	28.041	134.148	29.551	48.001	209.753	225.996	223.002	197.319	11.662	-38.223	-73.562	8.9484e-05	0.00031297	8.0983e-05	1001.3	1.6482e-06	3.3351e-06	1083.5	212.53	9.4272e-07	2.9648e-06	268.41	75.166	57.995	17.103	3.6163e-06	24.509	0.00013286	0.00011604	3.1737e-05	978.31	1.3609e-06	1.2244e-06	1064.2	210.6	1.4269e-06	1.2934e-06	264.62	75.438	58.807	17.241	1.2942e-06	24.501	237.656	-12.097	-7.499	-102.989	41.214	34.267	-102.596	-95.439	-49.252	59.008	-95.497	-89.331	-88.935	-81.581	36.392	-81.991	-8191	255	
1368.959	1	1	0	0	0.13306	0.24592	0.17253	0.17724	0.12126	0.1553	0.16076	0.11772	0.14957	0.47184	0.12323	0.15349	0.088032	0.11686	0.23716	0.40726	-1.5396	-1.8542	-2.4313	-1.6583	-2.1	-2.1833	-1.8083	-2.6	-1.9083	-1.8604	-2.6937	-1.7188	-2.2271	-2.4917	-1.6812	-2.6188	38.760	65.038	-38.155	118.914	85.190	40.928	9.574	220.492	-9.032	92.549	109.172	224.924	-81.881	159.852	138.960	167.967	9.7991e-05	0.00025761	4.385e-05	994.9	1.9589e-06	1.121e-06	1077.7	212.98	9.8067e-07	1.8426e-06	266.84	75.133	58.251	17.234	2.0247e-06	24.271	0.00013267	0.00012207	3.0704e-05	976	1.449e-06	1.2069e-06	1062.7	210.5	1.441e-06	1.2633e-06	264.23	75.5	58.705	17.278	1.3622e-06	24.422	230.961	-5.447	-30.357	-102.709	30.710	61.670	-102.389	-95.608	37.678	66.591	-95.780	-88.824	-88.765	-81.767	35.769	-81.788	-8191	255	
1369.078	1	1	0	0	0.23737	0.30788	0.17129	0.2176	0.1928	0.082194	0.29676	0.21543	0.062919	0.27099	0.090283	0.13901	0.081044	0.16144	0.082205	0.29163	-1.6521	-1.8062	-2.4875	-1.6771	-2.0208	-2.3354	-1.8625	-2.3292	-1.9958	-1.7979	-2.625	-1.725	-2.0146	-2.3563	-1.6063	-2.4125	54.246	136.400	192.200	207.439	-49.351	216.717	132.252	136.803	171.471	-91.547	148.053	213.386	231.720	10.070	-36.667	-112.303	8.3738e-05	0.00036344	8.1175e-05	996.85	2.0337e-06	3.364e-06	1080	213.19	1.7074e-06	4.4556e-06	269.35	75.418	58.764	17.213	1.6795e-06	23.996	0.00012824	0.00012005	3.1625e-05	976.33	1.4355e-06	1.2328e-06	1062.7	210.66	1.4508e-06	1.2902e-06	264.89	75.486	58.997	17.307	1.3648e-06	24.364	236.246	-32.423	-41.095	-103.036	36.380	33.929	-102.584	-95.278	11.900	42.967	-95.433	-88.816	-88.511	-81.661	6.115	-81.363	-8191	255	
1369.174	1	1	0	0	0.32687	0.1592	0.20553	0.31928	0.10103	0.048811	0.12794	0.12078	0.031825	0.18922	0.16739	0.098629	0.11548	0.20307	0.16385	0.16435	-1.8333	-1.7354	-2.4354	-1.9771	-1.8375	-2.4771	-1.9229	-2.3812	-2.3063	-1.4729	-2.5229	-1.8687	-1.8104	-2.55	-1.6271	-2.2208	175.347	-69.681	29.723	221.764	133.560	214.610	-94.953	211.879	23.966	166.260	193.643	158.415	-42.293	191.566	86.327	107.547	9.6717e-05	0.00024662	8.7931e-05	1000.5	9.9178e-07	2.0727e-06	1079.3	214.15	2.032e-06	3.376e-06	267.09	74.871	58.7	17.286	2.3994e-06	24.357	0.00013046	0.00011834	3.1675e-05	980.29	1.5174e-06	1.175e-06	1065.7	211.45	1.4007e-06	1.3629e-06	265.56	75.802	58.981	17.277	1.3383e-06	24.437	235.854	-10.063	-17.057	-102.820	27.039	28.719	-102.681	-95.314	17.194	32.890	-95.632	-88.948	-89.430	-81.324	26.727	-81.417	-8191	255	
1369.270	1	1	0	0	0.083796	0.12485	0.21187	0.21763	0.30932	0.13604	0.19859	0.38692	0.13633	0.17554	0.16962	0.079166	0.14471	0.21667	0.094997	0.039408	-1.8917	-1.5583	-2.5646	-1.9813	-1.8687	-2.4938	-1.7271	-2.2521	-2.4333	-1.6229	-2.5875	-2.1833	-1.7625	-2.5146	-1.6896	-2.0333	-48.393	-56.755	-18.970	84.666	-58.288	225.404	219.454	-91.119	-3.855	130.362	75.436	130.851	115.990	73.298	-35.088	165.706	9.2005e-05	0.0002948	9.1679e-05	998.84	2.4212e-06	2.9559e-06	1088.8	212.64	1.2772e-06	4.0007e-06	267.98	75.12	58.644	17.161	2.1172e-06	24.152	0.00013343	0.0001273	3.2727e-05	980.47	1.525e-06	1.2426e-06	1067.4	211.2	1.3524e-06	1.2895e-06	265.85	75.595	59.042	17.226	1.403e-06	24.327	230.293	10.150	-36.703	-103.062	9.660	66.394	-102.688	-95.231	21.349	50.876	-95.351	-89.053	-88.533	-81.628	14.643	-81.993	-8191	255	
1369.366	1	1	0	0	0.24919	0.10114	0.13581	0.23841	0.17523	0.11873	0.097993	0.071787	0.11388	0.11793	0.15231	0.0095517	0.11774	0.087882	0.16137	0.16247	-1.8229	-1.6708	-2.4333	-2.15	-1.8	-2.4104	-1.8333	-2.1625	-2.3083	-1.5646	-2.4354	-2.1833	-1.7687	-2.4333	-1.675	-1.85	114.161	11.964	209.106	-76.143	13.090	48.061	121.157	-79.679	-99.160	-32.591	-87.747	159.470	66.849	58.624	-2.451	180.533	8.143e-05	0.0002518	0.0001194	1002	1.4329e-06	2.5705e-06	1081.1	212.52	1.5266e-06	2.704e-06	268.43	74.846	58.665	17.124	1.8285e-06	24.254	0.00012765	0.00012375	3.3848e-05	980.14	1.5371e-06	1.1844e-06	1064.7	210.94	1.4431e-06	1.3258e-06	265.17	75.608	58.891	17.241	1.439e-06	24.39	228.673	-36.815	-30.810	-102.831	44.458	-9.077	-102.630	-95.083	35.368	44.880	-95.372	-89.106	-89.003	-81.534	46.875	-81.706	-8191	255	
1369.463	1	1	0	0	0.2087	0.096434	0.23305	0.23447	0.073393	0.18562	0.22982	0.44196	0.058745	0.294	0.25161	0.11419	0.10326	0.058177	0.28186	0.023803	-2.0979	-1.4438	-2.2354	-2.1896	-1.6729	-2.6417	-1.9188	-2.0479	-2.6042	-1.5833	-2.2396	-2.175	-1.3563	-2.4896	-1.8729	-1.9646	-49.443	-56.069	-22.917	101.218	246.046	136.928	231.877	-83.845	47.431	4.445	-82.849	-68.422	-18.073	-109.967	30.452	93.155	7.1256e-05	0.00024309	5.213e-05	999.22	7.7275e-07	2.7906e-06	1081.9	213.12	2.3152e-06	2.3314e-06	267.84	75.048	58.362	17.253	1.7103e-06	24.286	0.00012724	0.0001289	3.208e-05	979.79	1.4471e-06	1.2429e-06	1066	211.06	1.3717e-06	1.2645e-06	265.12	75.763	58.983	17.31	1.2904e-06	24.427	224.701	-10.731	-22.361	-102.873	49.089	44.157	-102.490	-95.410	34.945	44.901	-95.236	-88.594	-88.974	-81.351	4.146	-81.587	-8191	255	
1369.559	1	1	0	0	0.23114	0.056425	0.033325	0.17734	0.11318	0.18953	0.17708	0.20743	0.089688	0.082558	0.31416	0.12656	0.12598	0.2938	0.1091	0.086288	-2.2479	-1.5708	-2.2313	-2.6333	-1.6958	-2.3604	-2.1562	-1.9167	-2.3979	-1.8667	-2.1271	-2.3604	-1.2396	-2.5208	-1.9438	-1.8604	-110.224	-3.332	85.914	174.011	4.444	115.130	233.214	-96.972	-55.136	44.257	-98.456	-4.524	208.055	215.011	123.041	-71.247	7.2661e-05	0.00028704	7.8326e-05	1005	1.2114e-06	3.4903e-06	1083.2	213.22	1.6438e-06	2.4619e-06	270.11	75.007	58.228	17.175	1.407e-06	24.188	0.00012917	0.0001165	3.429e-05	981.2	1.4854e-06	1.2041e-06	1064.7	211.1	1.4058e-06	1.3226e-06	265.31	75.633	58.789	17.227	1.3376e-06	24.431	224.465	-51.201	-38.808	-102.688	48.373	30.243	-102.638	-95.227	32.768	25.520	-95.184	-88.852	-88.970	-81.409	48.904	-81.435	-8191	255	
1369.679	1	1	0	0	0.2038	0.0027669	0.18909	0.33775	0.24491	0.046499	0.098596	0.35665	0.19012	0.11093	0.37247	0.14728	0.060815	0.32693	0.086125	0.16618	-2.2562	-1.6646	-2.0312	-2.4729	-1.6542	-2.2979	-2.3292	-1.6958	-2.4375	-1.8479	-2.0312	-2.4708	-1.4562	-2.3146	-2.1292	-1.5562	227.547	180.000	18.620	229.438	-27.404	225.076	209.159	-68.875	122.206	62.328	233.504	193.167	104.695	205.951	-65.718	-40.378	6.8191e-05	0.00033113	0.00011505	1005.5	2.3288e-06	2.2188e-06	1086.4	213.15	2.1845e-06	1.8714e-06	268.32	75.29	58.275	17.247	1.3499e-06	24.459	0.00012084	0.00012429	3.3437e-05	981.16	1.4882e-06	1.3078e-06	1066.8	211.3	1.4118e-06	1.2885e-06	265.28	75.829	58.977	17.269	1.2541e-06	24.446	226.611	-24.147	-2.090	-102.755	25.080	26.806	-102.714	-95.196	4.252	45.643	-95.297	-89.157	-88.201	-81.538	34.218	-81.511	-8191	255	
1369.774	1	1	0	0	0.048838	0.33035	0.25389	0.17235	0.17752	0.068825	0.18683	0.15404	0.27194	0.16621	0.13164	0.20047	0.040382	0.14978	0.20622	0.14461	-2.1958	-1.8625	-1.9583	-2.5625	-1.5396	-2.1771	-2.575	-1.7021	-2.4958	-1.8917	-1.8396	-2.6458	-1.7542	-2.1396	-2.2979	-1.5125	227.086	92.946	198.003	172.693	135.219	-57.158	92.773	191.392	63.104	201.675	153.963	-107.521	200.522	179.906	83.744	-95.130	7.8522e-05	0.00034533	6.1883e-05	999.29	1.4612e-06	1.4994e-06	1087.7	212.92	1.9179e-06	3.8553e-06	269.96	75.565	57.758	17.301	2.1265e-06	24.236	0.00013402	0.00011546	3.4931e-05	981.54	1.465e-06	1.294e-06	1067.5	211.04	1.4524e-06	1.235e-06	266.41	75.826	58.73	17.311	1.3162e-06	24.473	230.022	-36.651	-11.764	-102.680	38.003	95.157	-102.235	-95.341	35.237	45.787	-95.460	-88.871	-88.347	-81.402	22.798	-81.619	-8191	255	
1369.847	1	1	0	0	0.16886	0.18862	0.14031	0.25142	0.18639	0.093549	0.16388	0.51856	0.23389	0.19968	0.05064	0.1626	0.22097	0.075666	0.10215	0.27891	-2.0833	-2.0062	-1.7146	-2.5625	-1.8729	-2.2083	-2.5292	-1.6479	-2.3937	-2.0667	-1.6667	-2.6083	-1.8708	-2.0021	-2.5083	-1.7583	-84.728	-58.948	-98.489	179.417	-16.537	-89.797	206.782	223.292	179.625	138.979	-103.635	206.084	-6.871	15.344	-30.708	130.948	8.0034e-05	0.00035897	0.0001044	1006.8	8.377e-07	1.892e-06	1087.9	213.2	1.8597e-06	3.1714e-06	269	75.963	59.033	17.252	2.898e-06	24.562	0.00013026	0.00012049	3.6026e-05	983.33	1.5104e-06	1.2656e-06	1069.4	211.19	1.4347e-06	1.2475e-06	266.72	76.067	59.28	17.335	1.3324e-06	24.619	227.948	-15.591	-22.862	-102.478	55.977	31.400	-102.366	-95.233	3.947	59.247	-95.264	-88.944	-88.944	-81.170	-4.824	-81.672	-8191	255	
1369.942	1	1	0	0	0.24657	0.093655	0.077286	0.15719	0.19573	0.041045	0.13998	0.24663	0.12113	0.15591	0.15756	0.11207	0.12181	0.10705	0.33513	0.14005	-1.9729	-1.9792	-1.6208	-2.6958	-1.8937	-2.025	-2.575	-1.7563	-2.1542	-2.3063	-1.5292	-2.5667	-1.7333	-1.9438	-2.2812	-1.5333	-110.842	77.876	66.273	144.232	-42.365	37.974	240.728	188.558	77.721	37.224	83.548	-2.811	-24.794	167.344	99.205	218.875	7.5002e-05	0.00027198	9.3925e-05	1014.4	1.0212e-06	3.4364e-06	1093.1	214.14	1.3554e-06	3.0627e-06	269.52	75.956	60.249	17.386	2.2656e-06	24.516	0.00013974	0.00012016	3.4794e-05	991.78	1.471e-06	1.3404e-06	1075.9	212.37	1.425e-06	1.2439e-06	267	76.262	59.705	17.467	1.2835e-06	24.647	236.852	-47.570	-22.841	-102.670	91.801	55.070	-102.344	-95.026	-21.188	38.587	-95.416	-89.111	-88.851	-81.227	50.174	-81.407	-8191	255	
1370.039	1	1	0	0	0.036925	0.30244	0.13728	0.24995	0.28089	0.2303	0.33879	0.11577	0.15025	0.35549	0.2428	0.20921	0.11477	0.064591	0.1896	0.16025	-1.8813	-2.1896	-1.7563	-2.6	-1.9917	-1.8062	-2.6583	-1.6875	-2.1188	-2.3354	-1.5583	-2.5458	-1.8896	-1.6354	-2.5396	-1.7646	-111.176	-18.841	81.386	150.241	121.505	-78.388	186.480	-69.891	174.849	71.116	190.815	15.730	146.517	121.654	7.077	130.427	8.5144e-05	0.0001895	7.0449e-05	1012.9	2.1515e-06	2.3347e-06	1097.2	214.35	1.1761e-06	3.4814e-06	272.04	75.555	58.851	17.314	2.0672e-06	24.292	0.0001343	0.0001161	3.442e-05	991.2	1.4089e-06	1.3211e-06	1078	212.4	1.3853e-06	1.2674e-06	268.32	76.26	59.373	17.399	1.3004e-06	24.551	236.297	-26.947	-31.917	-102.508	58.222	38.839	-102.489	-95.125	45.249	55.983	-95.659	-88.720	-88.436	-81.444	11.720	-81.486	-8191	255	
1370.158	1	1	0	0	0.11203	0.15585	0.36041	0.064367	0.35353	0.11273	0.14306	0.21846	0.23211	0.30176	0.13326	0.093955	0.21895	0.089866	0.37219	0.42475	-1.7417	-2.4417	-1.5021	-2.4229	-2.1125	-1.8354	-2.5479	-1.7667	-2.0083	-2.4458	-1.6833	-2.3583	-2.2438	-1.8104	-2.5521	-1.8375	70.737	11.187	-65.139	-33.449	59.410	168.742	204.794	98.288	-18.689	-41.009	53.829	108.381	-53.410	90.471	160.433	180.235	7.8555e-05	0.00025035	7.8744e-05	1012.6	1.217e-06	3.7085e-06	1099.1	213.46	9.6088e-07	1.4854e-06	267.97	75.864	59.465	17.211	2.5767e-06	24.568	0.00013318	0.00011783	3.5223e-05	990.28	1.4126e-06	1.4527e-06	1077.5	211.91	1.4572e-06	1.1945e-06	266.44	76.134	59.341	17.379	1.32e-06	24.622	221.504	-33.739	-5.441	-102.639	56.925	25.390	-102.438	-95.295	-4.225	34.773	-95.431	-88.919	-88.334	-80.860	33.965	-81.643	-8191	255	
1370.254	1	1	0	0	0.16998	0.25243	0.15361	0.1662	0.10478	0.22831	0.30964	0.13097	0.1596	0.057707	0.084738	0.11077	0.0827	0.22602	0.16077	0.14278	-1.6354	-2.3521	-1.6917	-2.5729	-2.2917	-1.5562	-2.6729	-1.8479	-1.9562	-2.4667	-1.6854	-2.3063	-2.5917	-1.6875	-2.6479	-1.9083	58.002	214.746	157.635	152.318	233.041	6.037	242.689	238.496	1.776	14.154	78.753	217.861	23.593	244.864	184.793	-112.313	7.1633e-05	0.00046475	8.5768e-05	1010.5	1.2092e-06	2.6447e-06	1093.7	214.22	1.0391e-06	2.7315e-06	272.09	75.718	59.118	17.295	1.607e-06	24.372	0.00012896	0.00011364	3.3748e-05	989.97	1.4086e-06	1.4006e-06	1076.5	212.45	1.4677e-06	1.1246e-06	267.35	76.145	59.361	17.405	1.2177e-06	24.574	226.013	-33.870	-1.939	-102.532	58.984	63.908	-102.173	-95.217	65.307	70.893	-95.636	-88.611	-88.106	-81.378	32.976	-81.316	-8191	255	
1370.351	1	1	0	0	0.067234	0.24433	0.25752	0.10711	0.089203	0.19986	0.34652	0.09959	0.30038	0.23841	0.20773	0.16873	0.15842	0.26841	0.04306	0.15592	-1.5938	-2.3438	-1.6667	-2.3	-2.4125	-1.6854	-2.7667	-2.0479	-1.8042	-2.4521	-1.7687	-2.1229	-2.4917	-1.6229	-2.3729	-1.9937	79.345	-1.381	33.876	102.392	86.321	62.612	234.669	228.977	-96.736	236.676	-74.894	3.653	-25.599	-6.721	-39.629	-94.815	9.3454e-05	0.00028303	5.6573e-05	1015.1	1.768e-06	2.436e-06	1094.5	214.27	1.0882e-06	3.0929e-06	267.63	76.453	59.027	17.232	1.7083e-06	24.154	0.00013388	0.00011182	3.302e-05	991.4	1.376e-06	1.2523e-06	1075.7	212.17	1.4668e-06	1.2407e-06	265.85	76.4	59.265	17.32	1.2333e-06	24.469	227.382	-51.311	-1.167	-102.239	-4.624	52.646	-102.405	-95.159	-35.195	46.278	-95.535	-88.412	-88.015	-80.884	55.817	-81.162	-8191	255	
1370.471	1	1	0	0	0.066022	0.17222	0.055133	0.42826	0.22393	0.03579	0.20461	0.17518	0.15378	0.30435	0.023852	0.19741	0.1576	0.14525	0.24469	0.11002	-1.2563	-2.5625	-1.7188	-2.1792	-2.4854	-1.6854	-2.6958	-2.2687	-1.4854	-2.5521	-1.8188	-2.1063	-2.6063	-1.6604	-2.1125	-2.2667	70.375	51.585	-84.892	123.276	25.661	-85.628	35.063	113.817	-20.535	232.635	140.479	152.168	-35.622	-59.342	-13.054	-102.931	7.9114e-05	0.00033182	5.7154e-05	1014.4	1.8422e-06	2.3672e-06	1091.6	214.71	1.4985e-06	1.6557e-06	269.93	75.424	58.349	17.384	1.8348e-06	24.543	0.00013097	0.00010974	3.3904e-05	992.03	1.4119e-06	1.2826e-06	1075.5	212.05	1.4839e-06	1.1781e-06	267.02	76.173	59.034	17.392	1.2338e-06	24.578	227.700	-21.434	-23.608	-102.434	17.761	49.515	-102.150	-95.162	-3.038	34.179	-95.426	-89.102	-88.730	-81.064	35.279	-81.561	-8191	255	
1370.543	1	1	0	0	0.15702	0.13582	0.28279	0.29075	0.28071	0.084345	0.28128	0.22827	0.082889	0.015913	0.28823	0.27818	0.22705	0.012207	0.18888	0.10831	-1.2896	-2.4521	-1.9125	-2.0125	-2.4604	-1.7375	-2.45	-2.2521	-1.65	-2.3896	-2.0604	-1.7437	-2.3563	-1.5875	-2.0667	-2.3458	103.891	7.703	199.735	210.956	213.578	6.186	209.721	-53.765	-45.476	-68.349	186.316	18.896	149.031	90.046	170.041	141.191	7.5528e-05	0.00019593	7.6332e-05	1013.6	2.0791e-06	3.5423e-06	1096.8	214.12	1.2796e-06	1.6711e-06	268.95	75.397	58.97	17.396	5.1053e-07	24.512	0.00013497	0.00011236	3.2422e-05	990.35	1.4003e-06	1.4026e-06	1076.1	212.01	1.4347e-06	1.1852e-06	266.09	76.196	59.272	17.404	1.2992e-06	24.604	234.411	-44.557	-35.155	-102.663	30.325	42.687	-102.029	-95.246	14.575	51.022	-95.772	-88.941	-88.681	-81.348	118.212	-81.598	-8191	255	
1370.639	1	1	0	0	0.18247	0.31713	0.41561	0.21977	0.18631	0.11122	0.15327	0.0094606	0.10109	0.08299	0.095484	0.23863	0.13201	0.21664	0.30635	0.23275	-1.1583	-2.3667	-1.8646	-1.8708	-2.5083	-1.7062	-2.1896	-2.35	-1.6042	-2.2792	-2.0875	-1.8104	-2.5146	-1.6521	-2.05	-2.3729	146.330	0.655	231.461	135.113	-78.755	211.802	205.952	129.173	200.183	102.709	-70.183	239.475	-51.230	-110.000	54.350	117.871	7.0476e-05	0.00024718	6.2361e-05	1009.6	2.5454e-06	2.5865e-06	1088.3	213.94	1.1942e-06	1.3447e-06	269.96	74.874	58.762	17.232	1.217e-06	24.262	0.00013314	0.00011837	3.2204e-05	988.89	1.3978e-06	1.289e-06	1073.6	212.22	1.5134e-06	1.2488e-06	266.75	75.935	59.295	17.373	1.3288e-06	24.484	231.137	-41.584	9.256	-102.713	27.399	38.975	-102.235	-95.324	1.322	83.950	-95.638	-88.789	-89.062	-81.439	16.202	-81.339	-8191	255	
1370.760	1	1	0	0	0.11517	0.043572	0.048631	0.044706	0.076364	0.053366	0.053871	0.149	0.13288	0.13295	0.36739	0.11181	0.21358	0.089986	0.29245	0.073683	-1.2938	-2.1854	-2.2271	-1.8771	-2.525	-1.7979	-1.9771	-2.5729	-1.5688	-2.3083	-2.2375	-1.5667	-2.6167	-1.9354	-1.8271	-2.6	8.299	240.327	-5.580	181.646	33.269	89.373	115.629	-37.592	33.314	-108.322	215.207	221.252	246.119	-5.813	221.653	-44.183	7.8453e-05	3.6717e-05	6.9662e-05	1011.9	2.2007e-06	3.1893e-06	1088.6	213.79	1.5809e-06	2.5285e-06	269.39	75.775	59.156	17.314	1.5193e-06	24.518	0.00013548	0.00011528	3.3219e-05	988.42	1.4321e-06	1.2254e-06	1073.6	211.98	1.3951e-06	1.264e-06	266.36	76.178	59.372	17.362	1.3215e-06	24.603	221.434	-27.957	-28.529	-102.309	51.830	26.245	-102.290	-95.024	14.854	34.224	-95.423	-88.444	-88.506	-80.915	-6.125	-81.588	-8191	255	
1370.854	1	1	0	0	0.21877	0.118	0.16048	0.2551	0.26185	0.11442	0.28977	0.1393	0.13784	0.047501	0.25864	0.10767	0.10946	0.087375	0.073472	0.12245	-1.2479	-2.4021	-2.3458	-1.8521	-2.4875	-1.8979	-2.0667	-2.6771	-1.7479	-2.2542	-2.4229	-1.7062	-2.3583	-1.8417	-1.8292	-2.5167	240.160	241.994	-41.518	152.891	154.746	176.735	188.296	218.645	214.812	-45.696	-93.456	-1.694	243.926	2.917	114.827	-98.701	8.339e-05	0.00025943	9.0735e-05	1004.4	1.8649e-06	2.7528e-06	1081.5	213.18	1.1457e-06	2.6657e-06	267.61	75.441	58.409	17.267	2.6715e-06	24.378	0.00012738	0.00010748	3.259e-05	984.1	1.427e-06	1.215e-06	1068.1	211.09	1.4037e-06	1.2358e-06	264.88	75.719	59.032	17.282	1.3103e-06	24.461	235.587	-38.407	-22.844	-102.413	2.013	18.370	-102.339	-95.174	-7.599	45.194	-95.475	-88.853	-88.710	-80.741	70.345	-81.735	-8191	255	
1370.952	1	1	0	0	0.18363	0.35872	0.17731	0.1372	0.082275	0.19193	0.19947	0.17343	0.33459	0.50025	0.15049	0.44801	0.1177	0.18192	0.10054	0.061644	-1.3375	-2.175	-2.3458	-1.6583	-2.5125	-2.1396	-1.9042	-2.6	-1.7625	-2.0583	-2.5187	-1.5958	-2.3583	-2.1479	-1.5042	-2.6229	126.396	-19.486	148.804	203.657	111.457	118.322	201.291	231.302	-67.464	229.436	36.911	-110.747	-95.212	207.992	38.163	232.798	8.4152e-05	0.00027328	7.2772e-05	997.78	1.8809e-06	3.394e-06	1086.2	213.83	1.5811e-06	2.7598e-06	268.96	75.539	58.366	17.378	2.3239e-06	24.454	0.00012668	0.00011757	2.8519e-05	979.51	1.4181e-06	1.1871e-06	1067.3	211.47	1.4888e-06	1.234e-06	266.24	76.021	59.05	17.471	1.2759e-06	24.595	218.788	1.196	-8.156	-102.494	44.077	26.868	-101.998	-95.159	6.754	25.006	-95.232	-88.653	-88.248	-81.123	20.562	-81.240	-8191	255	
1371.071	1	1	0	0	0.016321	0.10236	0.09724	0.15563	0.17189	0.12924	0.19759	0.21311	0.1442	0.11542	0.082666	0.27958	0.13634	0.099482	0.41009	0.077849	-1.3667	-1.9333	-2.5833	-1.8979	-2.2396	-2.2792	-1.6187	-2.6229	-1.8479	-2.0687	-2.7125	-1.8062	-2.2396	-2.2792	-1.6479	-2.4417	-88.217	199.395	85.652	145.815	-97.161	-47.333	175.354	202.163	234.728	60.324	-71.433	154.695	-71.850	97.008	101.975	-36.251	8.2985e-05	0.00019533	5.8102e-05	1003.6	1.4417e-06	2.2493e-06	1084.7	214.44	1.2543e-06	1.9975e-06	269.3	75.591	59.382	17.465	2.2435e-06	24.218	0.00012928	0.00011196	3.0411e-05	983.42	1.4084e-06	1.2182e-06	1067.2	211.97	1.3902e-06	1.184e-06	265.83	75.897	59.342	17.418	1.2776e-06	24.6	227.325	-7.538	-24.076	-102.370	91.772	23.048	-102.121	-95.040	6.161	82.079	-95.304	-88.707	-88.604	-80.484	49.667	-81.752	-8191	255	
#DATA ENDS
