BOXY.EXE: ISS Imagent and Oximeter Data Acquisition Program Version 0.80
Ascii Record File

#ACQ INFORMATION
2  Detector Channels 
16  External MUX Channels 
1  Auxiliary Channels 
5000  Waveform (CCF) Frequency (Hz)
1  Waveforms Skipped 
30  Waveforms Averaged 
1  Cycles Averaged 
16  Acquisitions per Waveform 
10.0806  Updata Rate (Hz) 

#FILE INFORMATION
TRUE -- External MUX Channel results are PARSED.
FALSE -- AC DC and Phase are NOT grouped.
TRUE -- Companion Program Settings File CREATED.
FALSE -- AC data not excluded
FALSE -- DC data not excluded
FALSE -- Phase data not excluded
FALSE -- Auxillary Chn. data not excluded
Tab delimiters

#CALIBRATION STATE
TRUE -- Waveform Calibration Values APPLIED.


#AUX CALIBRATION VALUES
Val Type	aux-1	

Term	1.0000e+00	
Factor	0.0000e+00	


#WF CALIBRATION VALUES
A = Detector Channel
Val Type	A-AC1	A-AC2	A-AC3	A-AC4	A-AC5	A-AC6	A-AC7	A-AC8	A-AC9	A-AC10	A-AC11	A-AC12	A-AC13	A-AC14	A-AC15	A-AC16	A-DC1	A-DC2	A-DC3	A-DC4	A-DC5	A-DC6	A-DC7	A-DC8	A-DC9	A-DC10	A-DC11	A-DC12	A-DC13	A-DC14	A-DC15	A-DC16	A-Ph1	A-Ph2	A-Ph3	A-Ph4	A-Ph5	A-Ph6	A-Ph7	A-Ph8	A-Ph9	A-Ph10	A-Ph11	A-Ph12	A-Ph13	A-Ph14	A-Ph15	A-Ph16	

Term	0.00000e+00	0.00000e+00	0.00000e+00	0.00000e+00	0.00000e+00	0.00000e+00	0.00000e+00	0.00000e+00	0.00000e+00	0.00000e+00	0.00000e+00	0.00000e+00	0.00000e+00	0.00000e+00	0.00000e+00	0.00000e+00	0.00000e+00	0.00000e+00	0.00000e+00	0.00000e+00	0.00000e+00	0.00000e+00	0.00000e+00	0.00000e+00	0.00000e+00	0.00000e+00	0.00000e+00	0.00000e+00	0.00000e+00	0.00000e+00	0.00000e+00	0.00000e+00	0.00000e+00	0.00000e+00	0.00000e+00	0.00000e+00	0.00000e+00	0.00000e+00	0.00000e+00	0.00000e+00	0.00000e+00	0.00000e+00	0.00000e+00	0.00000e+00	0.00000e+00	0.00000e+00	0.00000e+00	0.00000e+00	
Factor	1.00000e+00	1.00000e+00	1.00000e+00	1.00000e+00	1.00000e+00	1.00000e+00	1.00000e+00	1.00000e+00	1.00000e+00	1.00000e+00	1.00000e+00	1.00000e+00	1.00000e+00	1.00000e+00	1.00000e+00	1.00000e+00	1.00000e+00	1.00000e+00	1.00000e+00	1.00000e+00	1.00000e+00	1.00000e+00	1.00000e+00	1.00000e+00	1.00000e+00	1.00000e+00	1.00000e+00	1.00000e+00	1.00000e+00	1.00000e+00	1.00000e+00	1.00000e+00	X	X	X	X	X	X	X	X	X	X	X	X	X	X	X	X	

B = Detector Channel
Val Type	B-AC1	B-AC2	B-AC3	B-AC4	B-AC5	B-AC6	B-AC7	B-AC8	B-AC9	B-AC10	B-AC11	B-AC12	B-AC13	B-AC14	B-AC15	B-AC16	B-DC1	B-DC2	B-DC3	B-DC4	B-DC5	B-DC6	B-DC7	B-DC8	B-DC9	B-DC10	B-DC11	B-DC12	B-DC13	B-DC14	B-DC15	B-DC16	B-Ph1	B-Ph2	B-Ph3	B-Ph4	B-Ph5	B-Ph6	B-Ph7	B-Ph8	B-Ph9	B-Ph10	B-Ph11	B-Ph12	B-Ph13	B-Ph14	B-Ph15	B-Ph16	

Term	0.00000e+00	0.00000e+00	0.00000e+00	0.00000e+00	0.00000e+00	0.00000e+00	0.00000e+00	0.00000e+00	0.00000e+00	0.00000e+00	0.00000e+00	0.00000e+00	0.00000e+00	0.00000e+00	0.00000e+00	0.00000e+00	0.00000e+00	0.00000e+00	0.00000e+00	0.00000e+00	0.00000e+00	0.00000e+00	0.00000e+00	0.00000e+00	0.00000e+00	0.00000e+00	0.00000e+00	0.00000e+00	0.00000e+00	0.00000e+00	0.00000e+00	0.00000e+00	-8.82690e+01	-1.42635e+02	-1.12445e+02	-1.85681e+02	-9.37183e+01	-9.60728e+01	-1.59412e+02	-1.62015e+02	-5.53355e+01	-8.96295e+01	-1.71360e+02	-1.68986e+02	-1.86800e+02	-1.77307e+02	-7.11187e+01	-1.50303e+02	
Factor	1.93732e-05	8.66701e-05	2.97722e-05	2.31231e-01	9.98951e-07	9.22260e-07	1.78994e-01	5.92349e-02	7.36728e-07	8.49038e-07	9.96673e-02	3.36700e-02	2.71889e-02	1.07909e-02	1.08767e-06	1.56297e-02	4.79868e-07	4.86975e-07	1.35843e-07	1.08386e-01	5.37163e-09	5.38858e-09	8.09458e-02	2.81770e-02	5.43546e-09	5.43929e-09	4.42687e-02	1.50702e-02	1.26050e-02	4.94180e-03	5.45345e-09	6.78308e-03	X	X	X	X	X	X	X	X	X	X	X	X	X	X	X	X	



#DISTANCE SETTINGS
A = Detector Channel
A-1	A-2	A-3	A-4	A-5	A-6	A-7	A-8	A-9	A-10	A-11	A-12	A-13	A-14	A-15	A-16	

2.5000e+00	3.0000e+00	2.5000e+00	3.0000e+00	2.0000e+00	3.0000e+00	1.5000e+00	3.0000e+00	3.0000e+00	3.0000e+00	3.0000e+00	3.0000e+00	3.0000e+00	3.0000e+00	1.5000e+00	3.0000e+00	

B = Detector Channel
B-1	B-2	B-3	B-4	B-5	B-6	B-7	B-8	B-9	B-10	B-11	B-12	B-13	B-14	B-15	B-16	

1.0000e+01	1.0000e+01	1.0000e+01	1.4400e+00	1.0000e+01	1.0000e+01	1.5100e+00	1.9400e+00	1.0000e+01	1.0000e+01	1.9900e+00	2.4900e+00	2.4100e+00	2.9000e+00	1.0000e+01	2.9800e+00	




#DATA BEGINS
time	group	step	mark	flag	A-AC1	A-AC2	A-AC3	A-AC4	A-AC5	A-AC6	A-AC7	A-AC8	A-AC9	A-AC10	A-AC11	A-AC12	A-AC13	A-AC14	A-AC15	A-AC16	A-DC1	A-DC2	A-DC3	A-DC4	A-DC5	A-DC6	A-DC7	A-DC8	A-DC9	A-DC10	A-DC11	A-DC12	A-DC13	A-DC14	A-DC15	A-DC16	A-Ph1	A-Ph2	A-Ph3	A-Ph4	A-Ph5	A-Ph6	A-Ph7	A-Ph8	A-Ph9	A-Ph10	A-Ph11	A-Ph12	A-Ph13	A-Ph14	A-Ph15	A-Ph16	B-AC1	B-AC2	B-AC3	B-AC4	B-AC5	B-AC6	B-AC7	B-AC8	B-AC9	B-AC10	B-AC11	B-AC12	B-AC13	B-AC14	B-AC15	B-AC16	B-DC1	B-DC2	B-DC3	B-DC4	B-DC5	B-DC6	B-DC7	B-DC8	B-DC9	B-DC10	B-DC11	B-DC12	B-DC13	B-DC14	B-DC15	B-DC16	B-Ph1	B-Ph2	B-Ph3	B-Ph4	B-Ph5	B-Ph6	B-Ph7	B-Ph8	B-Ph9	B-Ph10	B-Ph11	B-Ph12	B-Ph13	B-Ph14	B-Ph15	B-Ph16	aux-1	digaux	

1714.236	1	1	0	768	0.1289	0.14967	0.17875	0.20021	0.12566	0.15167	0.14733	0.16385	0.1523	0.1448	0.15469	0.0755	0.18233	0.22048	0.11882	0.13684	-3.3958	-3.4417	-4.1667	-3.7125	-3.5458	-4.3208	-3.475	-4.0333	-4.0125	-3.225	-4.2042	-3.825	-3.6792	-4.2146	-3.4042	-4.0146	184.257	159.514	265.800	288.305	55.417	160.397	249.520	267.313	155.527	300.287	280.473	69.855	302.251	295.985	-6.466	74.353	0.00018117	0.00026001	4.2277e-05	1408.5	3.0119e-06	3.0412e-06	1403.6	376.82	1.9076e-06	4.2362e-06	433.41	143.36	126.38	43.982	2.5153e-06	54.454	6.0352e-05	5.6189e-05	1.5632e-05	1313.5	6.2272e-07	6.1328e-07	1336.6	357.35	6.341e-07	6.1624e-07	396.76	132.89	117.17	40.107	6.2625e-07	48.725	179.593	58.378	-6.421	-24.163	65.203	92.156	-24.148	-19.626	133.904	132.722	-20.304	-15.585	-15.144	-11.250	121.166	-11.374	-8191	255	
1714.332	1	1	0	0	0.23019	0.18267	0.30357	0.11879	0.26911	0.069561	0.30381	0.15731	0.26538	0.13992	0.24361	0.12946	0.25408	0.38068	0.0093544	0.21482	-3.6104	-3.3667	-4.0083	-3.6583	-3.5583	-4.0396	-3.6042	-3.9354	-3.9854	-3.2833	-4.2708	-3.6625	-3.5958	-4.2125	-3.3375	-3.9562	62.773	201.017	203.924	322.374	-26.154	6.007	252.854	288.516	76.648	145.565	318.695	248.128	17.979	291.328	3.142	188.900	0.00016301	0.00018688	0.00013568	1413.6	2.8871e-06	3.7997e-06	1408.8	380.33	2.1e-06	2.7225e-06	440.46	144.54	127.67	44.377	2.1876e-06	54.82	6.0748e-05	5.5957e-05	1.5263e-05	1315.5	6.2838e-07	6.1691e-07	1339.3	357.87	6.3354e-07	6.1829e-07	398.65	133.3	117.51	40.166	6.3681e-07	48.758	170.258	31.158	71.669	-24.464	80.864	83.275	-24.134	-19.583	177.448	83.615	-20.280	-15.566	-14.828	-10.852	131.513	-11.495	-8191	255	
1714.429	1	1	0	0	0.063574	0.20128	0.24527	0.19618	0.2224	0.26853	0.376	0.10358	0.11151	0.14238	0.099781	0.11847	0.10898	0.13555	0.040689	0.15159	-3.7188	-3.3812	-4.0771	-3.9021	-3.3229	-4.1271	-3.5833	-3.9375	-4.1958	-3.3104	-4.1021	-4.0167	-3.4208	-4.1937	-3.4062	-3.6375	213.763	124.367	52.482	272.886	230.369	111.488	291.185	190.606	79.505	46.888	61.828	310.345	-21.133	262.085	124.881	317.593	0.00017058	0.00031513	0.00011432	1405.6	4.248e-06	3.0773e-06	1402.3	379.2	2.9016e-06	3.8758e-06	437.84	144.23	126.74	44.204	3.6852e-06	54.539	6.0616e-05	5.5241e-05	1.5529e-05	1312.3	6.2836e-07	6.2229e-07	1338.7	357.59	6.2928e-07	6.2176e-07	398.46	133.08	117.37	40.249	6.3028e-07	48.833	166.111	39.018	80.960	-24.278	100.686	89.008	-24.043	-19.653	177.477	90.841	-20.249	-15.948	-15.531	-11.050	145.768	-11.553	-8191	255	
1714.525	1	1	0	0	0.11194	0.1442	0.092816	0.10264	0.14039	0.33716	0.0042167	0.38862	0.084162	0.22103	0.092181	0.09119	0.20053	0.41608	0.22506	0.066026	-3.7896	-3.1458	-3.8979	-3.9833	-3.5729	-4.1042	-3.7021	-3.6167	-4.1417	-3.2979	-3.9771	-3.8896	-3.3792	-4.2	-3.7375	-3.6771	158.496	165.886	250.682	309.922	77.610	-18.954	87.741	248.282	190.109	92.478	2.364	196.298	-35.121	282.546	32.289	136.230	0.00016898	0.00032622	0.00014059	1412.4	3.0529e-06	2.3525e-06	1408.3	378.77	1.1036e-06	2.1834e-06	437.58	144.7	126.58	44.162	3.4469e-06	54.735	5.9912e-05	5.6324e-05	1.564e-05	1314.5	6.3193e-07	6.1496e-07	1339.2	357.53	6.427e-07	6.1734e-07	397.85	133.15	117.28	40.143	6.3708e-07	48.786	169.091	44.918	72.584	-24.630	53.549	106.604	-24.039	-19.569	187.167	112.431	-20.459	-15.990	-15.491	-11.431	107.423	-11.864	-8191	255	
1714.621	1	1	0	0	0.11529	0.2492	0.11387	0.14229	0.2564	0.22453	0.19762	0.13365	0.13269	0.06365	0.14407	0.2819	0.16354	0.17864	0.08084	0.23191	-3.7479	-3.2167	-3.7708	-4.2625	-3.2687	-4.0042	-3.9979	-3.6417	-4.1646	-3.2896	-3.8208	-4.1354	-3.3833	-4.1667	-3.6688	-3.4458	276.604	6.158	62.885	315.419	160.445	155.018	246.765	256.418	224.874	6.412	299.443	283.217	-25.264	239.827	5.267	280.209	0.00013228	0.00028923	8.0693e-05	1411.2	3.018e-06	3.5103e-06	1406.9	379.26	3.6637e-06	1.9057e-06	437.49	143.9	127.52	44.372	3.3282e-06	54.837	5.9168e-05	5.6416e-05	1.5639e-05	1314.8	6.4007e-07	6.2263e-07	1338.2	357.49	6.3357e-07	6.1949e-07	398.59	133.02	117.2	40.221	6.3414e-07	48.722	180.185	29.178	120.408	-24.758	119.110	80.890	-24.528	-19.854	115.045	40.720	-20.375	-15.737	-15.472	-11.098	127.469	-11.558	-8191	255	
1714.717	1	1	0	0	0.24366	0.090932	0.10184	0.28983	0.16191	0.024141	0.14159	0.24969	0.10484	0.13391	0.19317	0.087617	0.1291	0.17895	0.19016	0.056482	-3.9146	-3.3604	-3.5604	-4.3479	-3.2667	-4.2396	-4.0542	-3.5875	-4.0437	-3.3917	-3.7687	-4.2354	-3.3208	-4.0375	-3.9771	-3.3729	317.306	58.229	191.942	290.942	44.876	49.977	54.308	194.215	33.289	14.161	249.239	232.497	305.558	115.917	209.495	289.810	0.00017225	0.00038231	0.00011507	1413.7	4.2709e-06	3.1436e-06	1406.2	378.95	1.957e-06	1.8087e-06	436.96	144.49	127.27	44.242	4.3779e-06	54.774	6.0914e-05	5.6722e-05	1.5579e-05	1315.2	6.2072e-07	6.0507e-07	1339.8	357.29	6.3798e-07	6.2043e-07	398.61	133.33	117.17	40.183	6.3417e-07	48.781	170.161	29.831	78.872	-24.646	132.201	103.154	-24.319	-19.701	199.218	84.902	-20.128	-15.619	-14.972	-10.739	148.508	-11.898	-8191	255	
1714.838	1	1	0	0	0.070486	0.28201	0.26549	0.23503	0.21683	0.080548	0.17814	0.22255	0.07722	0.014237	0.25384	0.31689	0.078621	0.25932	0.15783	0.18536	-3.6208	-3.5104	-3.4854	-4.2333	-3.4229	-3.95	-3.9958	-3.4146	-4.0771	-3.7208	-3.65	-4.3271	-3.5062	-3.9104	-4.1021	-3.4125	284.625	71.463	225.854	286.142	268.205	27.084	191.944	319.677	90.937	284.659	296.552	307.322	-0.498	81.879	152.495	311.319	0.00017249	0.00049188	3.7726e-05	1415.6	3.6961e-06	1.0249e-06	1407.1	380.1	3.0837e-06	2.3722e-06	438.45	144.99	127.81	44.13	1.4214e-06	54.482	6.1677e-05	5.6613e-05	1.5701e-05	1315.6	6.2765e-07	6.2802e-07	1338.6	357.65	6.3277e-07	6.3529e-07	398.71	133.19	117.49	40.173	6.277e-07	48.723	170.288	22.047	78.018	-24.273	122.438	98.293	-24.088	-19.423	140.761	105.037	-20.006	-15.707	-15.466	-11.014	69.530	-12.007	-8191	255	
1714.934	1	1	0	0	0.15156	0.13803	0.14053	0.12771	0.025849	0.10007	0.12632	0.1747	0.4093	0.25419	0.2063	0.1816	0.24819	0.36597	0.18058	0.28666	-3.75	-3.7167	-3.3021	-4.2958	-3.5625	-3.7667	-4.2458	-3.3187	-4.0312	-4.0104	-3.4729	-4.5042	-3.7042	-3.7188	-4.1271	-3.4875	126.186	139.982	109.474	254.273	88.562	-30.490	-20.759	245.583	303.705	142.874	190.446	287.836	54.446	321.786	-2.152	-11.372	0.00017995	0.00026008	0.00011568	1410.1	9.9459e-07	8.4752e-07	1407.8	378.37	1.0834e-06	2.9944e-06	438.73	145.58	127.32	44.463	1.7608e-06	54.462	6.1179e-05	5.6716e-05	1.575e-05	1313.5	6.3669e-07	6.2157e-07	1339.6	357.34	6.4725e-07	6.2442e-07	398.29	133.46	117.41	40.268	6.367e-07	48.735	177.046	31.601	82.212	-24.715	139.170	56.996	-24.388	-19.608	1.763	62.948	-19.800	-15.425	-15.356	-10.512	113.768	-11.830	-8191	255	
1715.028	1	1	0	0	0.27705	0.13414	0.13388	0.14281	0.12867	0.049891	0.1395	0.31539	0.18735	0.16974	0.14442	0.2479	0.10813	0.18787	0.083335	0.041011	-3.6	-3.8708	-3.4354	-4.3187	-3.4021	-3.4979	-4.3667	-3.5542	-3.8479	-3.9292	-3.35	-4.2771	-3.7146	-3.4396	-4.0875	-3.4813	264.528	154.005	31.806	204.810	128.412	204.803	259.407	320.453	104.075	79.839	182.808	124.344	178.497	189.594	64.204	-0.995	0.00021247	0.00039732	8.71e-05	1413.1	3.4211e-06	1.3091e-06	1403.5	379.86	2.8503e-06	4.118e-06	437.6	144.74	126.99	44.117	2.2672e-06	54.491	6.1549e-05	5.6306e-05	1.5912e-05	1312.8	6.3264e-07	6.2201e-07	1338.3	357.76	6.3671e-07	6.2099e-07	398.35	133.4	117.4	40.164	6.2702e-07	48.687	176.936	48.555	43.144	-24.506	107.217	234.329	-24.291	-19.695	135.237	69.995	-20.558	-15.935	-15.660	-11.335	88.045	-11.956	-8191	255	
1715.126	1	1	0	0	0.11872	0.25652	0.2532	0.26618	0.20089	0.10336	0.060951	0.10216	0.090962	0.32001	0.12723	0.21795	0.096058	0.15753	0.056756	0.11002	-3.3271	-3.9479	-3.3208	-4.3438	-3.5958	-3.2708	-4.3646	-3.3979	-3.8229	-4.0542	-3.6042	-4.2271	-3.8396	-3.525	-4.0792	-3.5792	39.978	58.454	35.162	251.295	121.175	193.552	25.021	277.239	287.901	24.949	-30.986	232.026	229.206	-6.599	44.830	87.126	0.00019112	0.00025754	8.5173e-05	1411.2	2.0102e-06	3.2151e-06	1405.8	378.96	1.9466e-06	4.1036e-06	436.22	144.02	126.57	44.093	2.7338e-06	54.466	6.1369e-05	5.6744e-05	1.6063e-05	1314.1	6.2887e-07	6.2605e-07	1339.5	357.7	6.4152e-07	6.1489e-07	397.88	133.05	117.06	40.126	6.3552e-07	48.601	180.354	-12.866	18.750	-24.801	128.298	49.167	-24.738	-20.005	125.730	88.414	-20.825	-15.916	-15.882	-11.347	112.890	-12.019	-8191	255	
1715.222	1	1	0	0	0.13289	0.047619	0.098391	0.13212	0.15272	0.20331	0.20076	0.080148	0.15255	0.1823	0.26913	0.0099127	0.12365	0.075553	0.20339	0.10709	-3.3896	-4.1271	-3.2271	-4.1687	-3.7562	-3.525	-4.35	-3.5854	-3.6	-4.2021	-3.4062	-4.0083	-3.9271	-3.4208	-4.1958	-3.5396	34.044	92.725	97.475	239.514	57.592	143.206	306.193	50.702	188.432	177.070	285.104	260.931	282.362	253.395	5.794	65.245	0.00018005	0.00017023	0.00017052	1407.9	2.6287e-06	2.3252e-06	1402.7	377.3	1.6037e-06	1.4231e-06	436.24	143.71	126.39	44.035	3.2327e-06	53.962	6.132e-05	5.6594e-05	1.5521e-05	1313.5	6.237e-07	6.2728e-07	1337.9	356.54	6.4752e-07	6.2085e-07	397.28	133.01	117.14	40.067	6.3885e-07	48.57	172.600	45.281	68.612	-24.710	80.737	104.918	-24.654	-19.995	139.900	93.438	-20.684	-15.885	-15.713	-11.352	132.550	-11.973	-8191	255	
1715.317	1	1	0	0	0.13262	0.10105	0.13541	0.293	0.19456	0.10372	0.18344	0.083441	0.077535	0.27307	0.099097	0.082077	0.19929	0.29121	0.21324	0.091352	-3.0396	-3.9938	-3.2792	-4.0229	-3.9229	-3.4208	-4.2438	-3.8688	-3.4646	-4.2042	-3.3729	-3.6833	-4.1479	-3.375	-4.1625	-3.8292	111.508	318.384	15.042	276.542	139.656	59.846	256.072	211.233	-10.345	197.457	-7.409	209.293	295.731	265.479	-6.037	-28.686	0.00015043	0.00036038	9.7954e-05	1397.3	1.1735e-06	4.1852e-06	1398.2	376.77	1.6106e-06	7.2415e-07	436.57	144.56	126.74	44.056	2.9029e-06	54.504	6.1298e-05	5.6809e-05	1.5523e-05	1309.6	6.2529e-07	6.2281e-07	1336.1	356.6	6.4313e-07	6.2579e-07	397.45	133.18	117.09	40.067	6.3894e-07	48.655	176.477	55.960	79.331	-24.862	313.471	52.332	-24.564	-20.000	163.871	176.560	-20.577	-15.739	-15.451	-11.445	159.447	-11.964	-8191	255	
1715.437	1	1	0	0	0.029939	0.12625	0.14778	0.33065	0.14311	0.17488	0.32854	0.18321	0.11697	0.062054	0.21484	0.16318	0.10734	0.23905	0.2785	0.13138	-3.1896	-4.0625	-3.4604	-3.8708	-3.9979	-3.4083	-4.1417	-3.9583	-3.2125	-3.9917	-3.5729	-3.7979	-4.1083	-3.3333	-4	-3.9229	251.459	-30.654	14.647	274.539	8.138	82.108	246.577	274.339	308.710	164.075	256.070	-27.454	298.514	293.847	-36.253	232.418	0.00018221	0.00035055	9.9994e-05	1421.1	1.4416e-06	4.2329e-06	1413.7	379.97	2.7436e-06	2.7872e-06	437.94	145.29	127.59	44.154	1.4457e-06	54.536	6.1281e-05	5.7428e-05	1.6028e-05	1315.3	6.3645e-07	6.4013e-07	1339.8	357.48	6.5101e-07	6.3073e-07	397.66	133.23	117.27	40.121	6.456e-07	48.614	184.550	23.746	49.488	-24.381	144.233	110.273	-24.371	-19.789	152.907	107.231	-20.674	-15.765	-15.442	-11.185	129.682	-11.893	-8191	255	
1715.533	1	1	0	0	0.11442	0.090477	0.26204	0.34512	0.22807	0.23966	0.19455	0.18938	0.20791	0.49252	0.20303	0.25702	0.31515	0.22046	0.23331	0.20388	-2.8812	-4.0312	-3.6521	-3.6437	-4.0542	-3.1562	-4.0458	-4.0396	-3.3333	-4.1167	-3.5521	-3.5979	-4.1854	-3.5208	-3.8354	-3.8958	78.189	167.819	301.274	316.062	45.917	77.230	262.918	294.563	101.490	-12.157	278.690	301.364	-17.904	191.310	79.282	305.021	0.00018801	0.00022126	6.8758e-05	1415.4	3.1426e-06	2.4517e-06	1409.9	378.88	1.9812e-06	2.0758e-06	437.77	144.71	127.77	44.097	4.7433e-06	54.563	6.1391e-05	5.6816e-05	1.5937e-05	1314.5	6.3216e-07	6.3673e-07	1339.4	357.19	6.5735e-07	6.44e-07	397.74	133.28	117.47	40.101	6.5215e-07	48.664	175.551	35.933	79.485	-24.294	91.435	61.217	-24.220	-19.759	147.274	21.896	-20.395	-16.083	-15.402	-11.220	128.569	-12.120	-8191	255	
1715.630	1	1	0	0	0.15422	0.21402	0.10086	0.14522	0.1567	0.075423	0.20888	0.11775	0.30077	0.13754	0.14993	0.075814	0.1687	0.094454	0.16204	0.14189	-3.1208	-4.1167	-3.5563	-3.7771	-4.0208	-3.2542	-3.9833	-4.0875	-3.0687	-4.0417	-3.7062	-3.3958	-4.3042	-3.4938	-3.6854	-4.1771	120.746	23.826	249.628	243.535	-34.408	297.311	286.350	-6.976	260.998	109.253	274.660	235.487	171.973	67.920	243.805	-12.795	0.00016494	0.00039354	7.5171e-05	1408.1	2.979e-06	4.2434e-06	1403.5	378.39	1.431e-06	3.4253e-06	437.28	144.69	127.32	44.009	1.9439e-06	54.541	6.1492e-05	5.7348e-05	1.6141e-05	1313.7	6.411e-07	6.2448e-07	1338.7	357.12	6.5349e-07	6.284e-07	397.53	133.17	117.32	40.076	6.3926e-07	48.658	178.949	30.725	62.846	-24.550	124.551	87.659	-24.284	-19.605	150.279	96.038	-20.723	-15.460	-15.417	-10.753	159.819	-11.705	-8191	255	
1715.726	1	1	0	0	0.23112	0.19454	0.1651	0.17246	0.077428	0.11757	0.28942	0.098113	0.18804	0.078676	0.091353	0.082237	0.059634	0.10913	0.1758	0.10405	-3.0896	-3.9125	-3.7375	-3.5438	-4.1979	-3.5167	-3.8083	-4.2375	-3.3583	-3.8229	-4.0396	-3.4604	-4.1	-3.7604	-3.5021	-4.2063	193.423	169.754	14.595	267.017	27.034	104.458	248.384	284.661	171.728	-12.906	232.921	275.897	210.911	246.409	232.824	157.902	0.00019108	0.00040765	0.00011838	1406.1	3.5323e-06	3.2914e-06	1401.1	377.75	2.7202e-06	3.7943e-06	437.1	144.68	127.02	44.074	1.7849e-06	54.131	6.1472e-05	5.6835e-05	1.5762e-05	1311.2	6.3612e-07	6.2053e-07	1338.2	356.9	6.4335e-07	6.3344e-07	397.31	133.19	117.26	40.132	6.3805e-07	48.595	175.795	72.504	33.514	-24.234	106.573	137.677	-24.358	-19.951	149.779	78.179	-20.448	-15.458	-15.050	-11.059	158.134	-11.813	-8191	255	
1715.822	1	1	0	0	0.11422	0.016933	0.15056	0.066467	0.18903	0.37219	0.034245	0.21947	0.10521	0.21869	0.034536	0.070581	0.25325	0.10531	0.18202	0.14326	-3.1354	-3.8875	-3.8792	-3.4437	-4.0396	-3.7083	-3.7104	-4.2417	-3.4292	-3.7729	-3.9208	-3.5875	-4.2208	-3.8792	-3.4479	-4.1792	203.415	46.438	320.420	109.277	210.585	100.277	22.428	272.816	56.271	58.078	294.032	295.551	289.771	94.442	302.655	121.291	0.00018345	0.00027041	8.8846e-05	1411.5	1.7217e-06	3.0093e-06	1408.2	380.29	2.3805e-06	4.4011e-06	436.95	144.06	127.33	44.036	2.0851e-06	54.575	6.2091e-05	5.6809e-05	1.5813e-05	1312.6	6.2867e-07	6.2186e-07	1338	358.02	6.4032e-07	6.2689e-07	397.43	133.05	117.24	40.085	6.3922e-07	48.693	166.125	20.603	81.025	-24.595	131.765	94.817	-24.251	-19.799	141.162	81.404	-20.433	-15.593	-15.425	-11.097	143.853	-11.601	-8191	255	
1715.918	1	1	0	0	0.23833	0.21653	0.12155	0.29381	0.1917	0.24156	0.13428	0.04105	0.10725	0.10162	0.125	0.25051	0.21604	0.029111	0.055289	0.23089	-2.8667	-3.7229	-4.0542	-3.5208	-4.0271	-3.8417	-3.6208	-4.4187	-3.45	-3.7125	-4.1229	-3.5146	-4.125	-3.8771	-3.1708	-4.1771	272.312	74.468	190.460	240.848	144.787	222.778	209.949	131.949	-12.236	217.305	43.631	302.726	321.084	75.109	235.548	296.958	0.00021899	0.00026594	0.00010691	1413.5	3.7437e-06	3.4958e-06	1402.6	379.25	1.7364e-06	1.3122e-06	438.47	144.42	127.03	44.235	3.6043e-06	54.578	6.1417e-05	5.7323e-05	1.5643e-05	1312.4	6.3982e-07	6.2721e-07	1337.8	357.06	6.4512e-07	6.2478e-07	397.73	133.02	117.22	40.096	6.4537e-07	48.627	179.659	40.603	63.579	-24.292	105.302	112.964	-24.121	-19.851	138.165	171.482	-20.356	-15.609	-15.079	-10.803	153.789	-11.282	-8191	255	
1716.014	1	1	0	0	0.1635	0.15041	0.2307	0.19789	0.043376	0.25828	0.27471	0.35434	0.15357	0.22433	0.22295	0.17139	0.17323	0.1013	0.10273	0.12864	-3.0792	-3.7812	-4.0333	-3.4417	-3.9146	-3.8083	-3.4667	-4.1813	-3.5021	-3.45	-4.1687	-3.4021	-4.0375	-4.05	-3.4646	-4.1687	67.405	200.165	83.213	274.682	267.967	-28.273	270.496	245.416	-30.081	107.151	163.920	235.902	243.237	259.969	241.317	230.958	0.00021547	0.00019591	8.6063e-05	1412.3	5.476e-06	3.6431e-06	1403.6	378.57	1.4502e-06	9.8173e-07	437.15	144.97	127.4	44.306	3.2433e-06	54.478	6.1632e-05	5.6684e-05	1.5841e-05	1313.2	6.3043e-07	6.2078e-07	1337.8	356.64	6.3912e-07	6.3347e-07	397.54	133.15	117.34	40.155	6.3746e-07	48.581	170.008	322.029	37.450	-23.845	107.291	89.407	-24.127	-19.884	149.420	21.035	-20.561	-15.846	-15.406	-11.274	126.551	-11.782	-8191	255	
1716.110	1	1	0	0	0.1751	0.1337	0.17568	0.28637	0.17368	0.11725	0.16321	0.2592	0.19157	0.11216	0.2672	0.1458	0.20864	0.029466	0.20101	0.18387	-3.25	-3.5979	-4.0312	-3.5375	-3.7562	-3.9167	-3.4292	-4.2417	-3.875	-3.5167	-4.2292	-3.3625	-3.8167	-4.1062	-3.4146	-4.0646	270.310	321.283	174.134	284.156	-9.979	143.913	282.586	281.058	151.801	49.571	215.824	313.365	288.471	-6.211	226.376	321.535	0.00015763	0.00024057	0.00011642	1405.5	4.4473e-06	2.2404e-06	1400.5	376.7	6.2645e-07	9.7683e-07	429.77	141.39	126.11	43.809	5.2e-06	54.598	6.1018e-05	5.7058e-05	1.5637e-05	1311.9	6.3934e-07	6.1861e-07	1334.3	356.91	6.3642e-07	6.231e-07	396.25	132.22	117.01	40.015	6.4426e-07	48.714	187.425	26.175	110.051	-24.535	121.474	88.734	-24.507	-19.824	153.633	79.250	-20.569	-16.040	-15.365	-11.209	129.561	-11.834	-8191	255	
1716.207	1	1	0	0	0.13067	0.11804	0.1225	0.23547	0.22484	0.043319	0.11184	0.31789	0.055127	0.1776	0.31545	0.089213	0.28328	0.2831	0.18696	0.13654	-3.3625	-3.1792	-4.175	-3.7458	-3.5563	-3.9458	-3.4708	-4.1708	-3.9188	-3.3104	-4.2354	-3.6188	-3.5312	-4.1979	-3.3625	-3.9917	203.673	220.967	118.607	274.858	-32.264	283.391	281.810	287.812	131.823	214.458	278.035	9.083	255.910	309.546	271.694	240.412	0.00019205	0.0004851	7.311e-05	1416.4	1.6956e-06	3.2611e-06	1411.4	380.57	2.3755e-06	2.6304e-06	438.69	144.91	127.94	44.219	2.4896e-06	54.943	6.0713e-05	5.6008e-05	1.5651e-05	1313.1	6.3121e-07	6.1535e-07	1338.3	357.19	6.4632e-07	6.3268e-07	397.87	133.18	117.36	40.081	6.4898e-07	48.752	173.134	56.445	38.149	-24.539	74.163	8.223	-24.128	-19.539	126.899	68.384	-20.175	-15.406	-15.124	-10.984	105.930	-11.616	-8191	255	
1716.325	1	1	0	0	0.11711	0.32832	0.086103	0.10222	0.037055	0.12076	0.17047	0.25748	0.08803	0.094465	0.27782	0.12298	0.11729	0.12346	0.12978	0.087688	-3.5938	-3.3396	-4.2271	-3.7292	-3.6583	-4.3042	-3.675	-3.9562	-3.9229	-3.1896	-4.1375	-3.6208	-3.5187	-4.2896	-3.2896	-3.9583	-10.461	270.907	222.640	293.680	114.547	83.005	297.966	269.576	131.543	299.108	265.082	18.212	225.897	49.323	94.919	124.725	0.00018371	0.00028994	0.00010286	1418.2	5.1454e-06	2.7225e-06	1416.4	380.75	2.332e-06	2.1184e-06	438.13	145.14	127.77	44.635	4.6387e-06	55.207	6.1366e-05	5.696e-05	1.5536e-05	1314.5	6.3123e-07	6.262e-07	1339.8	357.6	6.5668e-07	6.325e-07	397.55	133.19	117.2	40.154	6.4201e-07	48.841	174.576	36.115	84.786	-24.248	100.897	90.821	-24.137	-19.485	156.704	96.035	-19.977	-15.726	-14.903	-11.026	140.603	-11.238	-8191	255	
1716.399	1	1	0	0	0.25389	0.25104	0.070501	0.29756	0.10536	0.10374	0.14503	0.17496	0.19039	0.026659	0.050357	0.10402	0.1913	0.2091	0.10165	0.19083	-3.6354	-3.2812	-4.2125	-3.7521	-3.4792	-4.1583	-3.5438	-3.775	-4.2271	-3.4313	-4.1792	-3.925	-3.3896	-4.4875	-3.5646	-3.6771	75.383	67.278	238.899	307.610	17.502	113.884	98.365	290.427	260.719	224.105	98.916	247.502	183.303	200.151	309.014	-22.842	0.00017356	0.00058777	0.00016497	1423.2	3.3551e-06	3.6284e-06	1411.9	381.7	2.1647e-06	3.1844e-06	440.3	145.12	128.02	44.457	4.3726e-06	54.752	6.066e-05	5.6788e-05	1.5663e-05	1314.7	6.3959e-07	6.2928e-07	1337.9	357.29	6.3958e-07	6.3559e-07	398.28	132.93	117.33	40.167	6.3888e-07	48.743	179.359	26.131	67.037	-24.393	112.863	81.025	-24.048	-19.225	158.896	117.669	-20.126	-15.493	-14.879	-10.734	79.586	-11.138	-8191	255	
1716.518	1	1	0	0	0.21912	0.20448	0.16475	0.23653	0.090031	0.10572	0.17074	0.21931	0.085322	0.032798	0.14412	0.19202	0.31341	0.017188	0.061154	0.19143	-3.6937	-3.2833	-3.8646	-4	-3.3333	-4.1667	-3.6542	-3.8271	-4.1396	-3.4396	-3.9146	-3.9938	-3.5167	-4.1188	-3.5833	-3.5083	172.598	292.228	25.732	288.657	234.929	13.261	143.095	267.056	178.198	241.061	5.446	5.596	-19.057	-11.246	195.378	305.609	0.00018723	0.000299	8.5808e-05	1425.2	4.2445e-06	2.3281e-06	1416.6	382.02	1.8903e-06	3.5309e-06	441.76	145.69	128.25	44.608	1.611e-06	54.984	6.136e-05	5.7608e-05	1.5959e-05	1315.5	6.4934e-07	6.2952e-07	1339.3	357.38	6.4939e-07	6.4101e-07	398.32	132.9	117.36	40.21	6.3793e-07	48.781	172.922	18.641	55.266	-24.157	114.429	73.033	-24.132	-19.270	103.382	60.026	-20.005	-15.226	-14.681	-10.697	127.710	-11.226	-8191	255	
1716.614	1	1	0	0	0.22804	0.11772	0.2299	0.26951	0.032986	0.029857	0.2516	0.37953	0.34692	0.094614	0.20103	0.25822	0.14258	0.11685	0.099812	0.16752	-3.7438	-3.3542	-3.8104	-4.1375	-3.2812	-4.2292	-3.7604	-3.6646	-4.1396	-3.4062	-3.7958	-4.0375	-3.3104	-4.375	-3.8875	-3.525	223.683	277.323	139.441	304.950	208.732	57.352	273.335	266.260	196.825	298.279	318.935	197.710	220.646	144.529	62.095	187.709	0.00020391	0.00037982	0.00010987	1427.3	4.3912e-06	3.3145e-06	1417	383.1	2.9055e-06	8.9457e-07	441.02	145.7	128.09	44.563	3.4786e-06	55.043	6.1082e-05	5.741e-05	1.5931e-05	1315.9	6.4734e-07	6.2465e-07	1339.1	357.7	6.5262e-07	6.3164e-07	398.49	133.37	117.37	40.172	6.408e-07	48.679	180.704	36.979	64.210	-23.885	72.712	44.361	-23.774	-18.865	155.064	86.767	-19.574	-14.974	-14.352	-10.319	89.308	-10.900	-8191	255	
1716.710	1	1	0	0	0.11493	0.060312	0.13773	0.25617	0.34005	0.098274	0.087941	0.14147	0.20687	0.16353	0.15786	0.25357	0.17984	0.151	0.10164	0.24117	-3.7729	-3.4979	-3.6417	-4.225	-3.2208	-4.0729	-3.9813	-3.5062	-4.1667	-3.4062	-3.8187	-4.2146	-3.2521	-4.0729	-3.8312	-3.5667	258.526	199.854	111.228	-22.522	177.715	40.276	172.020	-11.619	120.450	151.662	300.781	258.870	16.195	281.992	-19.962	316.155	0.00020043	0.0002413	0.00013226	1422.9	4.6712e-06	4.0102e-06	1419.6	381.55	5.3662e-07	3.7277e-06	440.66	145.78	127.86	44.656	4.184e-06	55.051	6.1642e-05	5.7183e-05	1.5788e-05	1314.3	6.4201e-07	6.303e-07	1340.3	357.27	6.4466e-07	6.3854e-07	398.7	133.03	117.25	40.199	6.4204e-07	48.791	171.904	42.399	67.041	-23.843	90.358	116.694	-23.883	-18.979	161.845	80.197	-19.934	-15.241	-14.954	-10.423	111.531	-11.350	-8191	255	
1716.806	1	1	0	0	0.20868	0.2313	0.23576	0.11541	0.14481	0.05018	0.16203	0.13035	0.090713	0.027919	0.11188	0.018641	0.12047	0.14529	0.085739	0.1732	-3.6542	-3.3438	-3.375	-4.2208	-3.5187	-3.9167	-4.0938	-3.3625	-4.0396	-3.6146	-3.5417	-4.0792	-3.3104	-3.7646	-4.1083	-3.3354	211.917	264.171	71.507	170.247	180.746	189.190	297.209	71.484	51.667	120.038	101.700	32.227	54.457	318.682	302.773	260.180	0.00018574	0.00041443	0.00013629	1424.7	4.4466e-06	1.525e-06	1422.9	383.44	1.9987e-06	3.2269e-06	441.94	145.66	128.65	44.624	2.7795e-06	54.832	6.1717e-05	5.6506e-05	1.6295e-05	1317.2	6.3782e-07	6.2246e-07	1339.6	357.82	6.4561e-07	6.3988e-07	398.89	133.19	117.4	40.236	6.4176e-07	48.674	172.009	41.347	84.059	-23.833	149.159	100.771	-23.889	-19.310	182.366	84.162	-19.742	-15.112	-14.911	-10.583	137.758	-11.155	-8191	255	
1716.927	1	1	0	0	0.25775	0.28848	0.19351	0.25309	0.11829	0.14547	0.18849	0.15399	0.045034	0.13035	0.16561	0.14946	0.077683	0.16022	0.032675	0.38545	-3.7646	-3.6958	-3.2896	-4.375	-3.3167	-3.7042	-4.2792	-3.5208	-4.075	-3.8333	-3.5625	-4.2583	-3.55	-3.7083	-4.0417	-3.3458	248.444	101.523	24.315	-19.859	136.298	25.808	252.235	271.176	90.551	178.913	313.534	290.648	190.773	320.577	63.036	281.873	0.00014564	0.00033504	0.00010259	1423.6	2.7954e-06	3.6955e-06	1415.5	382.31	3.0504e-06	2.3742e-06	442.05	146.14	127.79	44.671	3.1743e-06	54.993	6.1902e-05	5.7231e-05	1.5901e-05	1314.5	6.2827e-07	6.2861e-07	1337.4	357.5	6.3953e-07	6.3127e-07	398.37	133.14	117.13	40.211	6.3571e-07	48.706	175.693	15.564	72.776	-23.863	92.055	88.751	-23.781	-19.086	130.523	22.679	-19.965	-15.020	-14.626	-10.340	122.970	-11.043	-8191	255	
1717.023	1	1	0	0	0.087328	0.20669	0.12189	0.42682	0.19136	0.12136	0.036171	0.053957	0.124	0.21188	0.075179	0.21257	0.11489	0.13289	0.18782	0.20806	-3.4667	-3.7146	-3.3479	-4.3854	-3.4708	-3.4646	-4.3896	-3.375	-3.6979	-3.9271	-3.4896	-4.1583	-3.7146	-3.5	-4.1167	-3.5083	58.665	27.617	-3.659	-23.745	186.113	279.059	190.848	266.321	305.153	229.914	310.486	314.135	322.216	266.490	66.947	-33.776	0.00022095	8.572e-05	8.0252e-05	1430.2	1.8203e-06	3.154e-06	1425.8	384.14	1.4794e-06	2.1408e-06	442.13	145.87	128.24	44.46	3.3774e-06	55.057	6.1245e-05	5.7098e-05	1.5736e-05	1316.8	6.3843e-07	6.2223e-07	1341.3	357.99	6.3668e-07	6.2789e-07	398.72	133.22	117.12	40.207	6.4037e-07	48.636	184.183	-6.199	59.544	-23.561	117.537	84.795	-23.618	-18.888	122.548	54.008	-19.694	-14.698	-14.342	-10.033	109.198	-11.029	-8191	255	
1717.095	1	1	0	0	0.10916	0.22073	0.18718	0.0861	0.086421	0.13637	0.3259	0.20994	0.10705	0.064457	0.23769	0.21023	0.26461	0.20282	0.14394	0.043103	-3.5438	-4.0271	-3.2646	-4.2646	-3.5167	-3.3458	-4.2312	-3.2917	-3.9083	-3.9167	-3.2875	-4.0958	-3.875	-3.5354	-4.0938	-3.5479	2.082	226.757	29.697	300.847	28.320	22.015	273.764	252.820	288.876	96.331	-2.449	-20.535	275.523	23.302	11.680	60.556	0.00015001	0.00042635	7.1945e-05	1432.6	4.3138e-06	1.8943e-06	1425.1	382.55	2.0568e-06	2.5272e-06	441.13	145.9	128.15	44.643	3.6154e-06	55.171	6.2257e-05	5.848e-05	1.5836e-05	1318.4	6.3692e-07	6.3454e-07	1341.4	357.34	6.4153e-07	6.314e-07	398.67	133.24	117.25	40.189	6.4645e-07	48.748	167.608	42.572	61.111	-23.643	98.767	73.501	-23.323	-18.843	143.905	136.970	-19.255	-14.716	-14.461	-9.998	100.167	-10.522	-8191	255	
1717.213	1	1	0	0	0.2129	0.091629	0.16197	0.22773	0.077693	0.23863	0.173	0.14656	0.11299	0.070659	0.20212	0.14018	0.11978	0.086687	0.31808	0.042985	-3.2208	-4.0917	-3.1667	-4.1583	-3.8063	-3.3146	-4.3917	-3.4521	-3.5646	-4.0958	-3.2833	-4.0021	-3.9292	-3.3563	-4.0708	-3.5375	131.384	43.539	284.738	272.102	100.197	-32.789	279.071	205.873	282.864	103.960	272.765	10.884	33.743	262.209	143.460	-2.320	0.00020095	0.00020192	0.00011601	1434.6	2.8748e-06	2.413e-06	1426.5	382.74	1.643e-06	4.1214e-06	438.41	145.58	128.53	44.512	3.1243e-06	55.374	6.2667e-05	5.7181e-05	1.6105e-05	1318.8	6.4099e-07	6.4539e-07	1342.4	357.13	6.5693e-07	6.4412e-07	397.33	133.35	117.42	40.205	6.4245e-07	48.797	177.787	13.969	71.723	-23.395	131.308	74.227	-23.508	-19.106	158.565	106.307	-20.405	-15.777	-15.390	-10.851	120.142	-11.655	-8191	255	
1717.310	1	1	0	0	0.1727	0.079149	0.19641	0.17966	0.24076	0.095984	0.23217	0.045457	0.0064373	0.14413	0.1562	0.20482	0.082892	0.15027	0.080392	0.18738	-3.0875	-4.0146	-3.2917	-3.9542	-3.9437	-3.2146	-4.3479	-3.7604	-3.3667	-4.125	-3.4104	-3.9271	-4.1521	-3.3896	-3.9792	-3.6354	219.180	136.454	-21.525	-17.257	30.166	75.339	250.819	287.968	306.218	10.458	285.920	235.868	31.108	-15.300	98.181	292.353	0.00014378	0.00026779	7.5141e-05	1434.6	1.8895e-06	2.6254e-06	1428.7	382.37	7.6616e-07	3.2089e-06	440.88	145.87	128.54	44.713	7.989e-07	55.238	6.2044e-05	5.7598e-05	1.608e-05	1318.8	6.3419e-07	6.3887e-07	1343.8	357.28	6.4929e-07	6.3469e-07	398.08	133.07	117.42	40.252	6.4819e-07	48.703	177.434	32.787	101.350	-24.642	77.713	53.444	-24.412	-19.463	144.816	122.945	-20.311	-15.769	-14.878	-11.086	104.372	-11.790	-8191	255	
1717.406	1	1	0	0	0.15226	0.069659	0.16424	0.31961	0.30256	0.08363	0.29172	0.14523	0.15255	0.064747	0.13705	0.12995	0.088052	0.18923	0.12023	0.23236	-3.0354	-3.9562	-3.3937	-3.8854	-3.95	-3.1042	-4.2979	-3.8729	-3.2604	-4.0563	-3.4562	-3.6542	-4.075	-3.4021	-4.05	-3.8646	92.667	160.859	-12.911	11.916	41.857	128.098	230.507	293.657	55.749	193.422	274.806	198.606	-12.904	313.653	202.159	-23.979	0.0001744	0.00027886	0.00013446	1434	3.729e-06	2.4886e-06	1420.3	383.93	2.679e-06	3.1163e-06	440.75	145.44	128.92	44.755	1.7374e-06	55.075	6.2469e-05	5.7625e-05	1.6117e-05	1319.8	6.3778e-07	6.3381e-07	1341.6	358.05	6.5161e-07	6.3758e-07	397.94	132.85	117.52	40.199	6.4983e-07	48.683	173.342	23.288	60.267	-24.140	68.283	76.993	-24.130	-19.880	136.147	62.153	-20.336	-15.484	-15.324	-11.024	141.818	-11.662	-8191	255	
1717.502	1	1	0	0	0.079391	0.08991	0.17479	0.19269	0.1244	0.1589	0.077936	0.18746	0.037708	0.18801	0.23213	0.24471	0.11148	0.2456	0.050127	0.093871	-2.7771	-4.1479	-3.5271	-3.5187	-4.0375	-3.2583	-4.0021	-3.9542	-3.3	-3.9437	-3.6167	-3.4854	-4.1562	-3.375	-3.8042	-3.9583	109.583	312.159	288.091	-24.241	9.760	34.505	291.904	263.816	287.841	105.063	292.102	292.993	181.655	-18.356	157.754	255.787	0.00017044	0.00026629	0.00012596	1428.5	1.8606e-06	1.2845e-06	1420.2	381.01	1.6639e-06	2.2999e-06	440.71	145.77	128.39	44.459	3.7466e-06	55.232	6.1764e-05	5.7204e-05	1.5559e-05	1317.4	6.3818e-07	6.312e-07	1341.7	357.15	6.4192e-07	6.3217e-07	397.88	133.19	117.37	40.153	6.5103e-07	48.728	170.956	45.850	57.218	-24.086	87.371	97.276	-24.008	-19.767	152.058	80.224	-20.481	-15.490	-15.147	-10.832	89.618	-11.583	-8191	255	
1717.623	1	1	0	0	0.21716	0.069932	0.11396	0.29223	0.064331	0.22379	0.1444	0.31776	0.20629	0.16314	0.11541	0.26544	0.12896	0.29466	0.23389	0.17025	-2.7646	-4.0563	-3.6417	-3.425	-4.1354	-3.3063	-3.9188	-3.9417	-3.2188	-3.8417	-3.6979	-3.3125	-4.2688	-3.5542	-3.6542	-4.125	171.714	95.198	-19.657	276.635	-19.479	240.003	263.544	310.316	309.484	258.228	-29.937	247.731	157.307	195.618	271.488	229.681	0.00017091	0.00030428	8.947e-05	1432.7	1.5445e-06	3.444e-06	1422.8	383.25	2.0954e-06	2.0479e-06	440.9	146	128.22	44.638	6.1636e-06	54.92	6.1886e-05	5.5941e-05	1.5703e-05	1316.5	6.3803e-07	6.3434e-07	1341.9	357.71	6.5326e-07	6.284e-07	397.42	133.22	117.15	40.202	6.4507e-07	48.633	166.430	48.216	85.594	-24.166	131.684	53.900	-24.085	-19.599	121.933	71.517	-20.247	-15.463	-14.884	-10.934	138.589	-11.338	-8191	255	
1717.694	1	1	0	0	0.36071	0.19977	0.22624	0.36285	0.33948	0.35407	0.26139	0.10011	0.10133	0.022645	0.19673	0.22862	0.2217	0.23025	0.060175	0.14852	-2.8083	-4.1271	-3.5354	-3.3729	-4.1458	-3.4167	-3.7792	-4.1542	-3.4313	-4.0333	-3.8479	-3.2438	-4.1937	-3.5917	-3.5271	-4.0708	306.869	144.514	81.057	216.449	202.165	224.566	-32.551	289.371	15.390	202.619	237.485	-20.623	302.934	321.697	55.309	36.702	0.00019172	0.00025819	0.00011689	1433.7	3.3537e-06	2.4895e-06	1421.7	382.24	1.9729e-06	3.1211e-06	440.94	145.81	128.57	44.628	6.2803e-06	54.966	6.0389e-05	5.6653e-05	1.5684e-05	1318.7	6.2334e-07	6.2872e-07	1340.4	357.3	6.5917e-07	6.3509e-07	397.95	133.16	117.21	40.16	6.3795e-07	48.7	188.488	35.473	69.341	-24.168	87.594	100.052	-24.035	-19.760	127.019	96.501	-20.208	-15.476	-15.303	-10.966	116.048	-11.728	-8191	255	
1717.790	1	1	0	0	0.079798	0.13386	0.13005	0.10165	0.15582	0.26371	0.17191	0.4299	0.044456	0.25273	0.079487	0.24116	0.077599	0.081826	0.13132	0.06468	-2.7854	-3.9688	-3.875	-3.4938	-4.0312	-3.5938	-3.6583	-4.2146	-3.2562	-3.8042	-4.0813	-3.4458	-4.2021	-3.6167	-3.4875	-4.2188	220.226	107.441	267.360	271.412	295.990	249.112	-29.614	279.747	246.499	-6.520	270.010	306.446	110.890	66.224	141.129	73.962	0.00020129	0.00030837	0.00014309	1427.8	1.1775e-06	2.6299e-06	1422.7	383.32	2.7525e-06	2.3682e-06	440.31	146.01	128.47	44.55	6.4637e-06	55.001	6.1708e-05	5.6286e-05	1.5955e-05	1317.5	6.3608e-07	6.1991e-07	1340.4	357.4	6.321e-07	6.2919e-07	398.05	133.12	117.13	40.09	6.3602e-07	48.677	171.921	50.957	95.108	-24.390	124.186	52.634	-23.802	-19.489	163.518	140.675	-20.167	-15.464	-14.987	-10.833	137.596	-11.783	-8191	255	
1717.887	1	1	0	0	0.15603	0.11035	0.014693	0.091075	0.15476	0.34286	0.21764	0.084351	0.074979	0.10626	0.15767	0.15542	0.19916	0.12436	0.09785	0.10413	-3.0833	-3.6937	-4.1937	-3.4437	-4.025	-3.7792	-3.6396	-4.3125	-3.5812	-3.6292	-4.1562	-3.575	-4.0646	-3.925	-3.5	-4.15	78.488	-22.550	286.641	320.820	23.721	-30.322	-33.741	253.355	186.882	223.500	288.596	320.666	262.263	122.500	41.972	13.774	0.00017876	0.00011988	8.1168e-05	1425.7	2.1205e-06	5.7649e-07	1419.8	382.9	1.0487e-06	5.128e-06	441.06	145.56	128.77	44.535	3.5012e-06	55.066	6.112e-05	5.6215e-05	1.5759e-05	1315.3	6.2675e-07	6.1661e-07	1340.3	357.26	6.3497e-07	6.3833e-07	397.54	133.08	117.27	40.07	6.343e-07	48.704	179.733	34.715	77.463	-24.478	45.990	110.080	-23.863	-19.504	75.684	98.126	-19.817	-15.255	-15.283	-11.253	115.165	-11.873	-8191	255	
1718.007	1	1	0	0	0.18325	0.14691	0.15602	0.084308	0.055278	0.13171	0.26738	0.30123	0.15155	0.078444	0.13215	0.23477	0.087845	0.27901	0.072808	0.10029	-3.2417	-3.6333	-3.8604	-3.3667	-3.9083	-3.9375	-3.3812	-4.0979	-3.4896	-3.3125	-4.2354	-3.4188	-3.875	-3.9958	-3.2146	-4.15	176.855	139.333	303.858	-13.275	267.102	97.647	272.230	257.930	192.744	-32.153	28.923	301.761	31.655	320.342	129.985	-3.277	0.00016418	0.00025297	7.2516e-05	1425.5	3.5255e-06	4.3313e-06	1417.1	381.8	2.4444e-06	2.3815e-06	442.2	145.81	127.91	44.406	2.0425e-06	55.361	6.0314e-05	5.6955e-05	1.5535e-05	1316.1	6.261e-07	6.2356e-07	1340	357.1	6.476e-07	6.1922e-07	398.31	132.95	117.18	40.065	6.4497e-07	48.809	178.962	58.429	31.302	-24.787	113.300	90.009	-24.529	-19.881	138.743	71.827	-20.328	-15.879	-15.669	-11.232	109.641	-11.991	-8191	255	
1718.103	1	1	0	0	0.088207	0.15814	0.13279	0.224	0.25135	0.19266	0.06574	0.039965	0.031972	0.036003	0.096999	0.054796	0.085655	0.19237	0.085477	0.11555	-3.3208	-3.5667	-3.9313	-3.3854	-3.7146	-3.9104	-3.45	-4.2521	-3.5583	-3.2875	-4.3271	-3.5458	-3.8187	-4.1354	-3.4062	-4.1875	236.037	125.259	114.623	315.444	207.378	137.207	134.665	-33.358	23.904	224.879	251.894	195.330	298.248	271.568	105.479	286.551	0.00019006	0.00021927	0.00010515	1427.8	2.9274e-06	2.2852e-06	1422.9	382.55	2.0434e-06	2.4989e-06	443.28	145.4	128.37	44.584	3.5095e-06	55.178	6.1124e-05	5.6835e-05	1.5584e-05	1317.9	6.2924e-07	6.166e-07	1340.2	357.44	6.4371e-07	6.3795e-07	398.63	133.12	117.25	40.136	6.4135e-07	48.738	182.701	67.869	56.298	-24.761	101.488	66.585	-24.529	-19.966	93.147	76.923	-20.540	-15.889	-15.449	-11.462	158.796	-11.481	-8191	255	
1718.199	1	1	0	0	0.13644	0.1869	0.25586	0.060241	0.21382	0.080208	0.14304	0.15226	0.11361	0.093945	0.24929	0.2063	0.14767	0.055323	0.23055	0.054465	-3.2917	-3.3396	-4	-3.5438	-3.7208	-4.1333	-3.5229	-4.2521	-3.6896	-3.4854	-4.2396	-3.5271	-3.7167	-4.05	-3.2479	-4.0271	85.940	136.871	138.834	17.012	189.874	-31.580	270.811	46.430	251.822	279.331	288.737	321.468	278.631	10.086	63.651	291.421	0.00017174	0.00032501	0.00016258	1429.5	2.1825e-06	5.0911e-06	1423.8	382.15	4.9337e-07	2.916e-06	441.2	145.68	128.08	44.478	2.8004e-06	54.942	6.1996e-05	5.6082e-05	1.5594e-05	1314.6	6.2567e-07	6.0598e-07	1340.1	356.98	6.4526e-07	6.2675e-07	397.7	133.16	117.28	40.111	6.4386e-07	48.608	178.094	33.245	93.803	-24.684	104.853	111.774	-24.611	-19.751	253.325	64.858	-20.405	-15.826	-15.355	-11.280	158.332	-11.715	-8191	255	
1718.294	1	1	0	0	0.18637	0.11201	0.30173	0.114	0.07946	0.17537	0.24702	0.14401	0.14014	0.17405	0.12175	0.1385	0.18556	0.20941	0.21379	0.20544	-3.5146	-3.4771	-4.0875	-3.6833	-3.4292	-4.0667	-3.4354	-3.9646	-4.0125	-3.2979	-4.15	-3.7854	-3.5167	-4.2	-3.3333	-3.8479	214.603	279.279	116.354	256.909	303.819	311.844	262.039	245.255	-13.567	238.264	81.635	248.327	23.482	299.200	143.032	291.128	0.00013738	0.00060256	0.00013742	1424.7	4.1854e-06	4.4751e-06	1422.9	382.84	2.1391e-06	2.8219e-06	438.85	145.86	128.46	44.458	3.3832e-06	55.271	5.9871e-05	5.5961e-05	1.5617e-05	1315.1	6.2905e-07	6.1307e-07	1341.1	357.46	6.4076e-07	6.2981e-07	396.83	132.87	117.23	40.09	6.3127e-07	48.686	183.499	-2.131	78.000	-24.598	112.970	88.494	-24.417	-19.815	138.222	84.235	-20.674	-16.077	-15.371	-11.043	158.197	-11.702	-8191	255	
1718.390	1	1	0	0	0.19929	0.052301	0.17366	0.33832	0.12119	0.11566	0.1415	0.072623	0.092726	0.25492	0.19959	0.062182	0.073015	0.22097	0.14569	0.081825	-3.6479	-2.9979	-3.9313	-3.7062	-3.2938	-4.0813	-3.6917	-3.9771	-4.0333	-3.1625	-4.0979	-3.9125	-3.3896	-4.1604	-3.4125	-3.7188	1.716	259.610	-29.972	236.444	250.070	199.104	273.375	180.497	109.819	9.966	-25.119	128.547	174.713	288.434	139.118	104.361	0.00015827	0.0003099	0.00013911	1432.8	2.3601e-06	3.4789e-06	1417.3	382.23	2.6936e-06	2.081e-06	440.63	145.84	128.34	44.486	4.0518e-06	54.907	6.0047e-05	5.6064e-05	1.5493e-05	1315.8	6.2191e-07	6.0876e-07	1338.8	357.28	6.2424e-07	6.1036e-07	397.14	132.82	117.21	40.016	6.2566e-07	48.594	177.316	28.537	53.157	-24.573	69.338	47.112	-24.457	-19.815	171.756	75.641	-20.270	-15.633	-15.311	-11.206	96.194	-11.537	-8191	255	
1718.486	1	1	0	0	0.19442	0.20941	0.12037	0.40858	0.18122	0.17621	0.18338	0.16518	0.10911	0.294	0.3021	0.11377	0.15729	0.048562	0.078705	0.15345	-3.7375	-3.2708	-3.9896	-3.8208	-3.3438	-4.1271	-3.6792	-3.7313	-4.2458	-3.3917	-4.0104	-3.9521	-3.5292	-4.1958	-3.5625	-3.5354	137.457	98.329	-2.796	-32.066	286.771	-13.992	162.467	261.842	170.658	91.205	251.981	73.697	224.400	48.881	202.319	137.779	0.00016336	0.00037986	2.9232e-05	1422.6	2.0084e-06	2.799e-06	1421.9	382.96	2.3612e-06	1.7936e-06	439.89	146.27	127.98	44.575	2.532e-06	55.255	5.9622e-05	5.5241e-05	1.5406e-05	1313.8	6.2819e-07	6.0339e-07	1339.6	357.15	6.2842e-07	6.259e-07	397.04	132.97	117.19	40.091	6.1917e-07	48.656	167.603	45.925	144.175	-24.698	59.354	91.085	-24.154	-19.787	120.698	84.934	-20.229	-15.637	-15.239	-10.924	80.116	-11.532	-8191	255	
1718.607	1	1	0	0	0.15921	0.080747	0.10988	0.13027	0.25712	0.37645	0.18058	0.20794	0.1969	0.15029	0.18458	0.1819	0.09027	0.24208	0.20357	0.16178	-3.9104	-3.2625	-3.7958	-4.0625	-3.1917	-3.9917	-3.6875	-3.5062	-4.1521	-3.3458	-3.8771	-4.175	-3.4875	-4.1729	-3.6729	-3.3937	88.295	6.530	203.909	285.958	197.925	140.484	-23.117	-26.166	-36.690	59.904	287.279	-9.623	250.230	-6.596	-16.575	159.728	0.0001652	0.0004692	9.3876e-05	1421.5	5.413e-06	2.5792e-06	1422.4	382.45	2.1702e-06	4.0438e-06	439.96	145.34	128.15	44.577	5.4632e-06	54.911	5.9554e-05	5.5238e-05	1.5431e-05	1312.8	6.1731e-07	6.0741e-07	1337.4	357.23	6.2307e-07	6.1904e-07	397.64	132.77	117.02	40.037	6.2158e-07	48.587	183.326	37.601	107.953	-24.385	96.147	78.501	-24.194	-19.725	157.167	68.592	-20.125	-15.657	-15.120	-11.030	125.384	-11.580	-8191	255	
1718.703	1	1	0	0	0.047466	0.23127	0.065715	0.25502	0.15079	0.060761	0.074908	0.41988	0.072807	0.032079	0.30344	0.18458	0.13576	0.097102	0.076887	0.21371	-3.8187	-3.4896	-3.6208	-4.1417	-3.2687	-3.9958	-4.0042	-3.4042	-4.1729	-3.4562	-3.6208	-4.2125	-3.4437	-3.9896	-3.7625	-3.3333	63.143	-27.593	48.509	279.706	47.927	266.462	222.679	289.541	145.302	245.387	297.410	265.414	20.478	9.360	305.289	98.935	0.00019173	0.00042934	0.00012655	1425.7	4.6121e-06	1.6317e-06	1419.9	382.01	1.2471e-06	2.5473e-06	441.58	145.76	128.03	44.708	2.5212e-06	54.941	5.9828e-05	5.3697e-05	1.518e-05	1313.2	6.0608e-07	5.9329e-07	1336.9	356.77	6.113e-07	5.9865e-07	397.37	132.8	116.85	40.154	6.1496e-07	48.606	188.196	47.205	95.157	-24.418	84.626	134.205	-24.113	-19.383	156.727	98.823	-19.998	-15.493	-15.243	-10.955	93.105	-11.387	-8191	255	
1718.799	1	1	0	0	0.019369	0.15092	0.16004	0.12978	0.17629	0.079237	0.29645	0.26875	0.083232	0.23273	0.10258	0.14011	0.35583	0.16825	0.051421	0.27595	-3.9083	-3.4625	-3.5875	-4.3125	-3.2188	-3.7104	-4.0417	-3.2146	-4.0917	-3.4938	-3.6167	-4.2312	-3.4542	-3.8312	-3.8563	-3.5375	253.380	-8.680	-19.367	244.996	-18.612	21.584	263.717	288.166	78.174	255.160	287.992	41.792	296.582	-23.453	191.016	303.315	0.00018918	0.00031143	8.6167e-05	1426.4	2.6844e-06	4.7822e-06	1414.1	381.65	1.0153e-06	8.5494e-07	440.13	145.47	127.98	44.756	3.074e-06	55.155	5.9917e-05	5.5141e-05	1.5275e-05	1313.2	6.1448e-07	6.043e-07	1336.4	356.92	6.0237e-07	6.0464e-07	397.09	132.9	116.97	40.131	6.0595e-07	48.611	175.609	45.726	81.220	-24.218	66.709	92.439	-24.040	-19.431	46.663	204.700	-20.339	-15.418	-15.272	-10.964	155.740	-11.531	-8191	255	
1718.920	1	1	0	0	0.18922	0.070455	0.070348	0.10818	0.10475	0.20487	0.29474	0.42772	0.087299	0.1277	0.12901	0.126	0.096794	0.10308	0.040462	0.15058	-3.7021	-3.7104	-3.3146	-4.1979	-3.375	-3.7167	-4.2729	-3.375	-4.0896	-3.7396	-3.6042	-4.2792	-3.7146	-3.6063	-4.0667	-3.2354	107.269	101.130	76.210	223.512	289.660	23.238	243.944	286.849	-23.203	92.789	142.387	181.126	166.070	169.456	63.307	-13.219	0.0001499	0.00041694	0.00016984	1426.3	3.3425e-06	5.2335e-06	1421.6	381.87	2.7804e-06	2.9395e-06	440.29	145.69	128.05	44.448	3.5298e-06	55.001	5.8604e-05	5.3407e-05	1.5163e-05	1312.5	6.0335e-07	5.8749e-07	1338.8	356.58	6.1965e-07	6.0833e-07	396.88	132.78	116.88	40.051	6.0685e-07	48.611	176.463	40.673	68.279	-23.962	121.170	64.974	-24.010	-19.488	175.908	35.278	-19.944	-15.161	-15.195	-10.720	93.911	-11.268	-8191	255	
1718.991	1	1	0	0	0.24075	0.21888	0.23779	0.2368	0.1747	0.21296	0.22	0.06546	0.28543	0.1511	0.065235	0.074407	0.25849	0.10486	0.22741	0.23417	-3.5563	-3.8208	-3.3354	-4.1937	-3.5187	-3.6229	-4.2438	-3.4813	-3.7562	-3.975	-3.3458	-4.0729	-3.7583	-3.6063	-4.1646	-3.3333	182.060	214.637	168.127	221.704	106.844	215.945	241.517	87.470	40.460	84.656	283.211	278.854	287.332	231.512	300.798	99.303	0.00018399	0.00039215	1.1542e-05	1420.3	3.2207e-06	3.2611e-06	1421.1	381.14	1.6864e-06	4.2499e-06	440.32	145.92	128.69	44.446	3.3603e-06	54.795	5.8612e-05	5.3657e-05	1.5184e-05	1312.6	6.0222e-07	6.0165e-07	1339	356.28	6.1049e-07	6.0267e-07	396.63	132.96	117.16	40.05	6.084e-07	48.56	169.277	10.836	48.706	-24.204	93.303	67.953	-24.092	-19.544	145.907	80.534	-20.082	-15.308	-14.880	-10.882	126.677	-11.200	-8191	255	
1719.088	1	1	0	0	0.1083	0.16565	0.11981	0.079486	0.24248	0.22321	0.11359	0.22796	0.33827	0.22762	0.13251	0.14592	0.22969	0.034865	0.10932	0.28439	-3.5312	-4.0292	-3.4	-4.1333	-3.6333	-3.4729	-4.2937	-3.3708	-3.875	-4.1104	-3.4042	-4.2438	-3.8354	-3.3563	-4.1375	-3.6437	127.088	111.885	66.970	-8.668	19.246	280.736	240.448	280.851	-5.140	201.745	255.678	250.014	247.094	148.181	149.990	282.777	0.0001975	0.00025976	6.6607e-05	1423.7	2.3118e-06	2.0023e-06	1422	380.8	1.721e-06	3.2237e-06	440.55	146.02	128.43	44.22	2.2955e-06	54.862	5.8983e-05	5.3592e-05	1.5002e-05	1311.3	6.0932e-07	6.0308e-07	1339.1	355.98	6.0884e-07	5.9354e-07	396.28	133.09	117.04	40.005	6.0934e-07	48.577	178.930	36.887	54.127	-24.355	139.098	103.918	-23.707	-18.997	168.041	83.785	-20.350	-15.707	-15.726	-11.274	118.533	-11.973	-8191	255	
1719.184	1	1	0	0	0.078474	0.12202	0.20206	0.074989	0.091815	0.22546	0.26918	0.20487	0.19602	0.2202	0.18305	0.19839	0.17206	0.1384	0.16993	0.21384	-3.3042	-4.0521	-3.1437	-4.0396	-3.7438	-3.4979	-4.2708	-3.5896	-3.5062	-4.1583	-3.3729	-3.9729	-4.0542	-3.4604	-4.1188	-3.6021	281.710	248.000	9.802	229.643	139.030	-31.708	276.394	303.045	251.249	307.129	12.038	312.626	312.886	209.847	9.895	196.816	0.00017683	0.00023198	6.2346e-05	1423.7	3.4755e-06	1.6409e-06	1413.3	380.3	1.9736e-06	2.6869e-06	438.4	144.74	127.75	44.341	4.1822e-06	54.873	5.9273e-05	5.4223e-05	1.5096e-05	1312.7	6.1495e-07	5.9448e-07	1334.6	355.79	6.2473e-07	5.9986e-07	396.21	132.84	117.07	40.01	6.1577e-07	48.5	172.918	63.968	76.272	-24.687	110.890	78.136	-24.609	-19.961	143.240	54.925	-20.590	-15.799	-15.645	-11.382	92.385	-11.896	-8191	255	
1719.303	1	1	0	0	0.19189	0.10663	0.15154	0.12718	0.05097	0.16477	0.16843	0.17847	0.16773	0.13844	0.26991	0.36589	0.18127	0.12343	0.020503	0.13869	-3.0687	-4.0813	-3.4333	-4.0896	-3.9146	-3.3708	-4.2167	-3.7042	-3.3812	-4.1208	-3.4229	-3.9896	-4.0583	-3.3854	-4.0833	-3.7208	43.412	270.959	124.442	-9.858	70.139	228.590	81.171	1.234	304.937	154.031	306.875	87.760	298.679	182.615	-26.480	201.052	0.00016943	0.00031812	4.9218e-05	1423.5	2.9854e-06	1.9463e-06	1421.9	380.8	1.1039e-06	4.2006e-06	439.26	146.17	127.15	44.6	3.8665e-06	54.869	5.9235e-05	5.4644e-05	1.5431e-05	1313.3	6.1e-07	6.0827e-07	1338	356.34	6.2492e-07	6.094e-07	396.59	133.11	116.73	40.077	6.1047e-07	48.595	171.116	87.740	-2.161	-24.509	92.774	71.401	-24.454	-19.893	166.606	103.943	-20.368	-15.810	-15.666	-10.954	53.248	-11.837	-8191	255	
1719.399	1	1	0	0	0.089052	0.075318	0.079995	0.15683	0.14817	0.19263	0.11803	0.19528	0.11129	0.14386	0.11522	0.18876	0.20419	0.048644	0.15274	0.11879	-3.0229	-3.9896	-3.2833	-3.7958	-3.9896	-3.2771	-4.1792	-3.9021	-3.3833	-4.0375	-3.4542	-3.7042	-4.0979	-3.3479	-3.9146	-3.9354	227.919	74.693	320.404	-14.568	-13.939	89.090	31.924	312.140	310.520	9.765	179.601	-31.421	18.604	89.627	287.724	210.361	0.00020186	0.00024752	0.00010034	1428.2	2.6372e-06	2.027e-06	1417.3	381.37	2.7976e-06	4.1255e-06	439.54	145.46	127.96	44.272	3.0219e-06	54.749	5.9495e-05	5.4715e-05	1.5289e-05	1314.6	6.0601e-07	6.0595e-07	1337.5	356.31	6.1414e-07	6.0783e-07	396.74	132.83	117.01	39.978	6.1457e-07	48.595	169.888	31.328	95.537	-24.478	153.203	137.601	-24.612	-19.798	133.044	77.085	-20.514	-15.662	-15.689	-11.260	154.380	-12.049	-8191	255	
1719.495	1	1	0	0	0.26186	0.23721	0.15094	0.12085	0.20761	0.076158	0.19798	0.10277	0.33481	0.12966	0.27211	0.17807	0.038691	0.23178	0.062397	0.20806	-2.8917	-3.9917	-3.4583	-3.6729	-4.0813	-3.3542	-4.1396	-4.05	-3.4813	-4.1	-3.6292	-3.5208	-4.3229	-3.3979	-3.8333	-3.9646	151.083	123.034	251.586	251.375	159.558	83.806	260.837	62.533	159.331	258.158	244.295	293.975	184.015	291.437	285.122	143.801	0.00015613	0.00023128	0.00016227	1427.5	3.899e-06	1.0212e-06	1414.4	382.07	2.0103e-06	3.0088e-06	439.41	145.91	127.8	44.636	3.2358e-06	54.819	5.962e-05	5.4127e-05	1.5317e-05	1314.7	5.9702e-07	5.9912e-07	1336.3	356.63	6.2586e-07	5.9408e-07	396.49	132.89	116.71	40.093	6.1157e-07	48.481	184.511	59.679	68.783	-24.342	121.501	143.817	-24.270	-19.719	107.403	67.692	-20.510	-15.667	-15.240	-11.075	119.603	-11.429	-8191	255	
1719.568	1	1	0	0	0.15646	0.18835	0.073181	0.36866	0.069016	0.28079	0.20271	0.18286	0.15377	0.28885	0.17108	0.22566	0.14689	0.090607	0.19507	0.0934	-2.9	-4.0917	-3.6646	-3.5771	-4.1542	-3.2521	-4.2	-4.1875	-3.3187	-4.0729	-3.7604	-3.5583	-4.0979	-3.3458	-3.6229	-4.1479	165.717	45.841	176.238	322.398	59.201	-13.979	287.300	246.822	95.015	-5.008	273.184	-12.213	282.745	13.682	220.788	54.493	0.00020009	0.00032388	6.8163e-05	1418.9	1.8895e-06	2.1424e-06	1415.6	381	7.9816e-07	2.8717e-06	436.51	145.73	127.23	44.462	6.0369e-06	54.587	5.8873e-05	5.4919e-05	1.5033e-05	1311.4	6.0192e-07	6.0031e-07	1336.4	356.32	6.2075e-07	6.065e-07	396.05	132.88	116.82	40.019	6.215e-07	48.5	182.612	52.389	59.020	-24.235	101.722	96.101	-24.204	-19.471	137.750	111.420	-20.241	-15.473	-15.075	-11.321	146.935	-11.858	-8191	255	
1719.687	1	1	0	0	0.23428	0.16846	0.064121	0.062981	0.10979	0.27475	0.087981	0.24565	0.13633	0.067877	0.24721	0.039674	0.19824	0.065281	0.12719	0.15822	-2.8438	-3.975	-3.7646	-3.4979	-3.9604	-3.3417	-3.9083	-4.0458	-3.1479	-4.0646	-3.9542	-3.3583	-4.0917	-3.4833	-3.3167	-4.2333	54.688	82.464	59.247	254.136	196.346	82.127	190.618	293.607	222.591	50.919	289.237	204.504	-5.493	312.349	260.320	308.140	0.00014119	0.00041531	8.1731e-05	1419.9	2.8941e-06	3.1922e-06	1414	380.79	1.4425e-06	3.6439e-06	439.36	145.46	127.89	44.192	4.1546e-06	54.814	5.9411e-05	5.4367e-05	1.5403e-05	1310.6	6.1309e-07	6.0159e-07	1336.4	356.36	6.194e-07	6.1184e-07	397.41	132.89	117.14	40.003	6.4694e-07	48.616	183.039	33.475	115.524	-24.427	47.695	94.596	-24.105	-19.948	163.362	96.727	-20.345	-15.804	-15.193	-10.802	123.920	-11.767	-8191	255	
1719.783	1	1	0	0	0.23452	0.030256	0.074636	0.1354	0.22328	0.28824	0.14465	0.062837	0.17369	0.1409	0.31611	0.23987	0.091029	0.10214	0.26917	0.11992	-2.9083	-3.9583	-3.8875	-3.4646	-4.0625	-3.4583	-3.5917	-4.1229	-3.3521	-3.7167	-3.9667	-3.3125	-4.0563	-3.7396	-3.4062	-4.2396	84.243	308.412	-34.530	31.266	39.773	287.272	301.940	222.151	134.202	301.932	-2.956	283.454	62.500	44.426	239.138	171.370	0.00016722	0.00018196	2.7748e-05	1421.3	3.4566e-06	2.6155e-06	1419.3	380.76	4.6369e-07	2.7561e-06	440.12	145.06	127.18	44.282	4.2759e-06	55.085	6.104e-05	5.6761e-05	1.5818e-05	1313.5	6.2945e-07	6.272e-07	1338.5	356.69	6.4433e-07	6.3226e-07	397.23	132.96	116.93	40.055	6.4798e-07	48.648	161.429	35.229	82.755	-24.746	80.921	102.171	-24.530	-19.999	87.859	72.131	-20.631	-15.772	-15.490	-11.198	140.047	-11.731	-8191	255	
1719.879	1	1	0	0	0.067863	0.098872	0.13516	0.12306	0.10861	0.085635	0.17214	0.17905	0.12089	0.12803	0.35171	0.32592	0.17928	0.20196	0.39686	0.149	-3.1042	-3.5729	-3.8812	-3.3125	-3.8729	-3.5646	-3.4667	-4.2458	-3.3333	-3.6979	-4.0396	-3.3937	-4.1708	-3.7292	-3.2396	-4.2229	100.037	25.238	47.917	247.696	23.879	75.627	278.798	254.307	50.821	6.513	174.329	237.923	14.179	87.802	124.091	-29.890	0.00019219	0.00035581	0.00014116	1425.5	2.4184e-06	1.0075e-06	1410.7	381.57	2.4845e-06	2.425e-06	438.72	145.29	128.27	44.319	3.0382e-06	54.958	6.3796e-05	5.9362e-05	1.6256e-05	1315.3	6.5686e-07	6.5019e-07	1338.5	357.03	6.7403e-07	6.6007e-07	397.23	132.97	117.31	40.014	6.5973e-07	48.654	180.900	37.032	39.978	-24.640	54.773	107.960	-24.335	-19.902	147.730	91.537	-20.509	-15.662	-15.584	-11.149	165.305	-11.644	-8191	255	
1720.000	1	1	0	0	0.1312	0.072913	0.21412	0.19341	0.26512	0.23204	0.44827	0.19145	0.10992	0.13059	0.27682	0.034962	0.054243	0.071812	0.23331	0.15841	-3.0542	-3.4958	-4.075	-3.3146	-3.7896	-3.9479	-3.5104	-4.0583	-3.3854	-3.3833	-4.2583	-3.3563	-3.8542	-4.0208	-3.1063	-4.2958	60.054	16.914	43.519	269.438	150.864	211.036	245.857	285.032	49.740	290.678	301.821	313.596	233.635	236.925	104.436	269.615	0.00015758	0.00031072	8.2092e-05	1427.1	5.159e-07	3.5374e-06	1416.7	380.56	1.0069e-06	1.5702e-06	438.69	145.38	127.9	44.501	7.6286e-06	54.882	6.3527e-05	5.8109e-05	1.6212e-05	1315.3	6.416e-07	6.348e-07	1339.3	356.77	6.5686e-07	6.5448e-07	396.69	133.06	117.27	40.096	6.6796e-07	48.648	181.299	87.706	85.662	-24.505	36.123	84.641	-24.382	-19.840	193.863	107.795	-20.324	-15.837	-15.334	-11.068	129.974	-11.583	-8191	255	
1720.096	1	1	0	0	0.22303	0.15205	0.21898	0.17212	0.17023	0.093472	0.10065	0.084459	0.15482	0.10136	0.28918	0.41153	0.10139	0.13754	0.14166	0.14511	-3.0729	-3.25	-4.0646	-3.2188	-3.7938	-4.0167	-3.4667	-4.1042	-3.6396	-3.3292	-4.1125	-3.4958	-3.8167	-4.0458	-3.1271	-3.9875	239.764	82.142	266.512	179.549	205.225	5.170	198.070	258.767	40.407	38.051	113.216	289.701	283.364	301.377	73.556	291.814	0.00019883	0.00011913	7.3938e-05	1422.8	3.6976e-06	2.5545e-06	1416.1	379.89	1.8316e-06	2.6464e-06	438.12	144.97	127.83	44.282	4.9356e-06	54.855	6.2085e-05	5.8392e-05	1.6111e-05	1316.2	6.56e-07	6.4775e-07	1340.3	356.87	6.6997e-07	6.5617e-07	396.75	132.87	117.18	40.067	6.676e-07	48.635	195.546	15.255	42.728	-24.444	102.785	103.082	-24.156	-19.708	118.574	79.079	-20.217	-15.909	-15.185	-11.189	104.568	-11.872	-8191	255	
1720.191	1	1	0	0	0.26418	0.14753	0.23268	0.17265	0.15259	0.151	0.17372	0.15074	0.28388	0.21707	0.29177	0.11863	0.16554	0.12805	0.11889	0.1052	-3.1813	-3.2438	-4.1083	-3.4708	-3.6604	-3.9271	-3.4479	-4.0396	-3.8021	-3.4562	-4.2	-3.4896	-3.5854	-4.1375	-3.2833	-3.9667	274.149	304.707	-9.944	70.480	64.071	180.990	215.471	209.232	240.919	286.392	302.114	166.395	245.124	-32.559	290.230	192.522	0.00020224	0.00056211	5.8621e-05	1422.2	2.2045e-06	2.7046e-06	1419.3	381.3	1.3768e-06	2.3091e-06	438.42	146.1	128.25	44.496	4.8441e-06	55.038	6.3967e-05	5.9289e-05	1.6403e-05	1315.7	6.6835e-07	6.5429e-07	1342	357.12	6.7533e-07	6.663e-07	396.89	133.03	117.37	40.142	6.9652e-07	48.75	172.096	39.985	62.001	-24.626	164.043	16.432	-24.181	-19.875	186.485	103.112	-20.367	-15.964	-15.296	-11.070	89.993	-11.649	-8191	255	
1720.289	1	1	0	0	0.17658	0.1412	0.10283	0.12804	0.11146	0.018755	0.036438	0.19351	0.15419	0.17836	0.1071	0.18768	0.10858	0.18632	0.13457	0.14469	-3.3792	-3.3854	-4.0208	-3.625	-3.5208	-4.075	-3.3438	-3.8729	-4.0062	-3.3312	-3.9896	-3.6333	-3.4333	-4.3146	-3.3333	-3.8833	30.055	-15.456	-26.886	-16.196	290.180	155.786	89.722	242.898	266.813	44.414	272.865	227.492	-29.005	184.362	123.671	91.382	0.00016305	0.00026188	8.289e-05	1422.7	1.9318e-06	3.4361e-06	1417.9	381.1	1.1488e-06	2.9443e-06	439.64	145.38	127.55	44.296	2.6668e-06	54.9	6.5275e-05	6.0787e-05	1.6715e-05	1316.8	6.7639e-07	6.6121e-07	1339.9	356.7	6.8299e-07	6.7357e-07	397.35	132.88	117.18	40.064	6.8496e-07	48.636	158.420	58.365	54.965	-24.270	99.423	97.718	-24.324	-19.833	82.665	99.357	-20.738	-15.760	-15.572	-11.230	96.618	-11.679	-8191	255	
1720.383	1	1	0	0	0.1111	0.048653	0.12896	0.18669	0.17306	0.0318	0.20537	0.060805	0.15292	0.098675	0.086163	0.15011	0.2022	0.16389	0.13496	0.37523	-3.7542	-3.1979	-4.0104	-3.8917	-3.3312	-4.0792	-3.5167	-3.7333	-3.9333	-3.2146	-4.075	-3.8021	-3.2062	-4.2604	-3.4417	-3.7479	313.045	-22.927	104.627	257.072	209.019	220.841	208.746	-9.247	250.148	146.391	245.172	21.846	289.644	-9.024	5.409	238.018	0.00019553	0.00034481	0.00012043	1422.2	2.7278e-06	4.2591e-06	1419.5	381.23	2.5389e-06	3.5399e-06	441.12	145.05	127.48	44.225	1.9756e-06	54.792	6.4559e-05	6.0333e-05	1.6557e-05	1316.1	6.8007e-07	6.6587e-07	1340.9	357.13	6.8321e-07	6.6403e-07	397.63	132.9	117.21	40.069	6.7476e-07	48.634	174.276	47.540	64.787	-24.891	109.330	96.981	-24.879	-19.814	95.102	122.328	-20.717	-15.933	-15.437	-11.527	149.513	-11.813	-8191	255	
1720.479	1	1	0	0	0.13896	0.14934	0.061719	0.10222	0.12543	0.18114	0.36896	0.43611	0.13809	0.21055	0.10232	0.23938	0.26377	0.40473	0.051019	0.09672	-3.5563	-3.1729	-3.8937	-3.9104	-3.2938	-4.075	-3.6083	-3.4833	-4.1271	-3.1937	-4.05	-3.9792	-3.1792	-4.2771	-3.5458	-3.5208	-32.373	301.289	145.971	306.308	34.724	104.055	279.036	252.055	51.171	13.238	132.413	228.020	301.014	312.938	23.292	194.958	0.00018599	0.00042697	7.3535e-05	1425.6	3.8041e-06	2.3053e-06	1411.9	382.29	1.7482e-06	1.1905e-06	438.92	144.68	127.89	44.474	1.7178e-06	54.675	6.4636e-05	6.09e-05	1.6605e-05	1317.2	6.8184e-07	6.5085e-07	1339.4	357.1	6.6385e-07	6.7235e-07	397.22	132.82	117.25	40.123	6.6416e-07	48.54	175.657	46.170	39.671	-24.570	78.930	60.882	-24.515	-19.684	151.019	111.031	-20.353	-15.985	-15.225	-11.041	68.049	-11.661	-8191	255	
1720.600	1	1	0	0	0.064451	0.14658	0.32913	0.31599	0.057638	0.22506	0.22801	0.14893	0.23929	0.10236	0.39296	0.41037	0.16463	0.10328	0.18924	0.11102	-3.6125	-3.2229	-3.7354	-4.1062	-3.2542	-4.0979	-3.8229	-3.6792	-4.2125	-3.4146	-3.9875	-4.0479	-3.5646	-3.9479	-3.6813	-3.4521	123.836	268.394	93.734	296.256	84.228	247.123	241.385	201.864	30.069	95.017	310.323	271.062	152.573	-3.868	123.423	145.237	0.00016173	0.00024493	7.9787e-05	1427.1	4.4124e-06	2.2128e-06	1419.8	381.51	2.7822e-06	3.5385e-06	438.37	145.84	128.03	44.364	1.6692e-06	54.791	6.4606e-05	5.994e-05	1.6539e-05	1317.3	6.6667e-07	6.6011e-07	1340.7	357.06	6.7097e-07	6.577e-07	397.86	133.05	117.24	40.069	6.6907e-07	48.596	174.504	62.580	80.714	-24.526	150.600	101.894	-24.414	-19.482	104.107	78.146	-20.172	-15.579	-15.383	-11.230	92.944	-11.932	-8191	255	
1720.696	1	1	0	0	0.23509	0.37701	0.034638	0.3387	0.28576	0.097818	0.08327	0.18667	0.1916	0.057891	0.11432	0.11316	0.13392	0.17609	0.10443	0.12467	-3.8563	-3.2958	-3.5854	-4.2979	-3.3875	-3.9792	-3.75	-3.3625	-4.0062	-3.4042	-3.6792	-4.1479	-3.3667	-4	-3.7917	-3.3958	190.424	283.352	91.604	268.781	39.802	-6.866	289.669	198.660	-30.902	141.482	248.336	247.269	259.618	318.617	87.470	47.837	0.00015226	0.00022723	0.00012005	1424.3	2.0679e-06	4.8561e-06	1414.1	380.44	1.5902e-06	3.5204e-06	437.09	144.19	127.43	44.472	2.5944e-06	54.576	6.36e-05	5.8327e-05	1.6327e-05	1316.7	6.7319e-07	6.592e-07	1339	356.55	6.7204e-07	6.6297e-07	396.81	132.68	117.04	40.097	6.7214e-07	48.564	195.341	36.161	88.776	-24.708	139.869	97.788	-24.342	-19.909	103.603	94.495	-20.469	-16.153	-15.858	-11.235	117.023	-11.694	-8191	255	
1720.792	1	1	0	0	0.069385	0.037589	0.25569	0.18716	0.21773	0.19461	0.44667	0.14918	0.25022	0.052231	0.19837	0.12144	0.2958	0.11368	0.051162	0.15351	-3.6521	-3.4938	-3.7438	-4.1667	-3.2833	-3.7708	-4.0312	-3.2708	-4.0062	-3.4708	-3.5563	-4.2083	-3.2979	-3.8667	-3.9437	-3.4521	187.629	301.228	291.913	-33.484	291.926	255.271	263.524	-22.971	-5.771	175.058	-27.096	-4.118	295.923	10.299	177.614	49.366	0.00018868	0.00042528	0.00016834	1425.8	3.6981e-06	3.3154e-06	1414.8	381.19	7.655e-07	2.6659e-06	437.59	145.36	127.56	44.357	3.1389e-06	54.707	6.2683e-05	6.0467e-05	1.6537e-05	1316.8	6.6387e-07	6.5673e-07	1339.8	356.7	6.7359e-07	6.6771e-07	396.94	132.8	116.93	40.058	6.6963e-07	48.522	185.305	40.515	64.690	-24.773	132.394	65.072	-24.476	-19.953	147.862	83.232	-20.329	-15.807	-15.593	-10.984	108.969	-11.874	-8191	255	
1720.864	1	1	0	0	0.060083	0.1306	0.14535	0.21609	0.067814	0.38945	0.087169	0.18524	0.22295	0.29966	0.051698	0.10158	0.2141	0.23187	0.12008	0.054163	-3.5979	-3.6813	-3.2229	-4.1604	-3.2958	-3.7292	-4.1896	-3.3646	-3.9188	-3.6979	-3.4562	-4.2354	-3.5417	-3.7042	-4.0729	-3.2521	87.826	83.299	221.362	195.303	183.430	21.406	151.118	255.567	163.103	244.588	133.336	-11.792	275.714	281.117	210.839	192.846	0.00018366	0.00016546	0.00012481	1419.6	2.6507e-06	5.8163e-07	1414.8	379.96	2.2233e-06	2.0934e-06	437.99	144.69	126.96	44.22	4.3099e-06	54.617	6.3297e-05	5.9533e-05	1.6773e-05	1314	6.6955e-07	6.5274e-07	1339.3	356.36	6.6683e-07	6.6256e-07	396.84	132.71	116.66	39.949	6.7213e-07	48.526	176.114	61.808	77.678	-24.677	121.578	93.409	-24.598	-19.824	137.870	83.505	-20.396	-15.689	-15.616	-11.146	128.355	-12.044	-8191	255	
1720.984	1	1	0	0	0.23183	0.1223	0.062838	0.17382	0.25068	0.30871	0.16256	0.18998	0.093298	0.17734	0.047458	0.14932	0.24601	0.21643	0.26417	0.15564	-3.4292	-3.6292	-3.25	-4.1292	-3.4042	-3.6479	-4.2729	-3.1	-3.725	-3.8625	-3.2875	-4.1708	-3.7042	-3.6	-4.1646	-3.2104	224.284	158.982	265.646	13.010	234.055	167.579	264.413	281.258	95.205	165.878	313.591	38.040	276.077	292.435	314.494	302.518	0.00018945	0.00025551	5.7171e-05	1418.5	4.8684e-06	2.7845e-06	1414.2	380.79	1.8813e-06	1.1324e-06	438.43	144.69	127.17	44.133	2.3638e-06	54.717	6.4258e-05	6.0073e-05	1.6759e-05	1316.1	6.6163e-07	6.6152e-07	1339.2	356.21	6.691e-07	6.6603e-07	396.52	132.47	116.97	40.02	6.6006e-07	48.544	168.445	64.110	114.882	-24.868	89.592	139.411	-24.712	-20.208	112.658	29.624	-20.851	-15.860	-16.078	-11.555	127.374	-12.367	-8191	255	
1721.080	1	1	0	0	0.22399	0.020332	0.13951	0.16348	0.18919	0.13454	0.045253	0.023131	0.15729	0.10556	0.085492	0.25686	0.20607	0.1869	0.24401	0.07969	-3.2208	-3.9771	-3.1	-4.2188	-3.6063	-3.3812	-4.4187	-3.4479	-3.6625	-3.9271	-3.3937	-4.1167	-3.7062	-3.5208	-4.1229	-3.3896	141.982	58.003	118.651	187.760	112.164	38.704	278.441	259.947	92.795	312.514	17.172	310.956	235.759	179.554	93.452	143.840	0.00017356	0.0002464	5.7623e-05	1418.8	1.8766e-06	3.7942e-06	1409.5	380.92	1.6506e-06	1.507e-06	435.73	144.37	127.46	44.252	2.01e-06	54.522	6.3393e-05	5.8144e-05	1.6409e-05	1315.5	6.562e-07	6.5833e-07	1337.7	356.68	6.7581e-07	6.4389e-07	395.82	132.63	116.82	40.02	6.6009e-07	48.542	166.405	23.984	13.320	-24.740	49.760	94.245	-24.665	-20.096	65.784	95.714	-20.606	-16.030	-15.537	-11.256	147.357	-12.093	-8191	255	
1721.177	1	1	0	0	0.32748	0.21734	0.13323	0.067426	0.14679	0.13893	0.061139	0.2497	0.16421	0.26785	0.11638	0.037439	0.29153	0.28865	0.1567	0.20881	-3.2125	-4.1354	-3.2583	-4.1188	-3.5854	-3.4292	-4.3958	-3.7438	-3.5708	-4	-3.2458	-4.0479	-3.9167	-3.3646	-4.2479	-3.6146	263.628	-26.653	245.667	300.010	89.835	272.983	156.876	-28.359	38.340	152.034	301.997	242.511	69.665	196.210	307.359	172.296	0.00013938	0.00058968	3.8941e-05	1419.9	3.8477e-06	2.154e-06	1414.7	378.88	2.3472e-06	3.9347e-06	440.6	145.21	127.49	44.028	3.4094e-06	54.619	6.4079e-05	5.8137e-05	1.6342e-05	1315.2	6.4298e-07	6.3921e-07	1337.5	355.92	6.6506e-07	6.5844e-07	397.23	132.78	116.94	39.992	6.685e-07	48.477	185.433	27.218	113.777	-24.630	72.492	106.581	-24.433	-19.924	93.374	127.150	-20.434	-15.774	-15.537	-10.939	121.257	-11.636	-8191	255	
1721.273	1	1	0	0	0.096316	0.1133	0.075471	0.32131	0.084608	0.12298	0.21397	0.46018	0.093245	0.19089	0.15776	0.19206	0.22886	0.034103	0.19767	0.10134	-3.1396	-4.0042	-3.3375	-3.8146	-3.8771	-3.2667	-4.1354	-3.8	-3.3375	-4.1687	-3.5438	-3.8208	-4.0062	-3.2854	-4.1	-3.7	224.176	100.077	149.879	313.505	132.068	133.807	282.853	260.615	-30.014	134.465	-1.606	123.712	231.694	227.373	306.470	235.837	0.00022232	0.00033888	0.0001012	1415.9	1.6833e-06	4.484e-06	1413.1	378.24	2.1687e-06	4.4363e-06	437.85	145.34	127.49	44.272	3.0083e-06	54.52	6.4105e-05	5.7914e-05	1.6319e-05	1313.9	6.604e-07	6.4748e-07	1338.7	355.97	6.6408e-07	6.4626e-07	396.25	132.83	117.03	40.008	6.5798e-07	48.438	188.502	26.694	49.508	-24.346	59.663	107.475	-24.396	-19.653	136.339	131.337	-20.315	-15.816	-15.475	-10.980	117.853	-11.958	-8191	255	
1721.369	1	1	0	0	0.19816	0.11263	0.088057	0.19474	0.17694	0.13953	0.09803	0.29335	0.33116	0.29032	0.16432	0.074111	0.17236	0.088582	0.074145	0.2468	-2.9938	-4.1896	-3.225	-3.7188	-3.975	-3.2438	-4.1438	-4.0542	-3.4354	-4.2208	-3.4583	-3.8	-4.1354	-3.3083	-3.9792	-3.6917	6.034	202.179	86.770	296.307	310.987	2.988	318.053	288.189	138.650	222.575	244.849	218.744	270.107	82.824	240.046	283.951	0.00019029	0.00035113	8.5709e-05	1420.8	2.8532e-06	1.9531e-06	1413.5	379.42	1.9566e-06	1.4482e-06	439.67	144.69	127.31	43.965	4.3128e-06	54.43	6.3638e-05	5.8643e-05	1.6271e-05	1314.9	6.4821e-07	6.4733e-07	1338.5	356.1	6.6528e-07	6.444e-07	396.87	132.68	116.84	39.923	6.598e-07	48.439	176.929	42.961	62.125	-24.789	51.288	49.326	-24.731	-20.337	155.541	64.069	-20.796	-15.943	-15.432	-11.698	111.002	-12.288	-8191	255	
1721.463	1	1	0	0	0.085236	0.25825	0.062054	0.1447	0.13027	0.14802	0.28038	0.13534	0.18746	0.13033	0.21182	0.15824	0.21962	0.16112	0.21936	0.17064	-2.9396	-4.0813	-3.4333	-3.5417	-4.0667	-3.2667	-3.9625	-3.8688	-3.2833	-4.0687	-3.5333	-3.5708	-4.1104	-3.4271	-3.7542	-4.025	221.516	-20.224	249.771	297.376	260.659	-14.017	254.334	52.482	201.118	36.424	249.937	115.119	274.055	23.219	69.975	245.363	0.00022421	0.0001912	9.7284e-05	1419.8	2.9887e-06	2.7645e-06	1412.6	379.61	2.1481e-06	2.6729e-06	436.11	144.53	127.05	43.93	4.5505e-06	54.59	6.2589e-05	5.8462e-05	1.6323e-05	1314.4	6.5167e-07	6.4538e-07	1337.9	356.03	6.4825e-07	6.4105e-07	395.61	132.55	116.75	39.828	6.6712e-07	48.505	189.985	57.004	76.651	-24.969	116.500	125.322	-24.710	-20.240	128.592	89.056	-21.031	-16.217	-15.948	-11.499	128.085	-11.838	-8191	255	
1721.559	1	1	0	0	0.081719	0.19796	0.1794	0.13423	0.20594	0.29307	0.2025	0.12549	0.1626	0.18304	0.15884	0.23065	0.26313	0.041663	0.066761	0.10531	-2.9708	-3.9583	-3.6979	-3.4688	-4.0437	-3.3792	-3.9604	-4.0563	-3.1833	-3.9604	-3.8083	-3.5167	-4.1375	-3.4062	-3.6292	-4.1646	55.386	113.579	111.816	198.534	-36.051	195.387	302.260	33.454	291.665	3.026	269.453	320.663	320.616	84.177	36.932	217.765	0.00021722	0.00045527	0.00010683	1414.2	3.1958e-06	3.4058e-06	1409.2	377.33	2.2895e-06	1.6777e-06	435.27	143.99	126.6	44.063	2.1546e-06	54.407	6.2936e-05	5.8107e-05	1.6236e-05	1312.5	6.4639e-07	6.481e-07	1338.1	355.56	6.5462e-07	6.4571e-07	395.97	132.42	116.62	39.905	6.5779e-07	48.475	177.744	10.063	99.514	-24.840	98.735	131.397	-24.664	-20.318	115.695	100.532	-20.791	-16.098	-15.641	-11.651	93.284	-12.085	-8191	255	
1721.680	1	1	0	0	0.089304	0.24083	0.14738	0.15201	0.065333	0.10605	0.10665	0.10882	0.082467	0.067456	0.12143	0.26143	0.12612	0.027726	0.19049	0.2012	-2.775	-3.9	-3.7021	-3.4104	-4.1562	-3.5417	-3.7812	-4.2125	-3.2521	-3.8875	-3.9313	-3.3667	-4.3208	-3.5771	-3.5396	-4.075	243.523	246.285	30.673	296.666	55.117	221.635	275.883	214.221	315.510	218.500	198.640	294.393	111.215	187.766	221.759	219.928	0.00017113	0.00029917	0.00015819	1411.5	2.8115e-06	2.745e-06	1410	377.71	1.6573e-06	1.7634e-06	434.19	143.85	126.25	44.014	3.6428e-06	53.981	6.2341e-05	5.7883e-05	1.6324e-05	1312.3	6.4071e-07	6.2914e-07	1338	356.01	6.5228e-07	6.4054e-07	395.63	132.64	116.52	39.913	6.5232e-07	48.252	169.317	74.109	71.530	-24.846	117.325	44.801	-24.657	-20.288	31.443	123.426	-21.017	-16.154	-15.813	-11.597	121.206	-12.200	-8191	255	
1721.776	1	1	0	0	0.054589	0.0069771	0.12048	0.16543	0.16384	0.33825	0.090208	0.15394	0.19909	0.25631	0.29172	0.21912	0.053826	0.34532	0.067196	0.18167	-2.7979	-3.8187	-3.7354	-3.4396	-4.0542	-3.6208	-3.7729	-4.3438	-3.0896	-3.9042	-4.0667	-3.3042	-4.1771	-3.6562	-3.4458	-4.2771	-8.534	295.834	96.175	167.042	1.032	68.529	272.633	277.642	251.885	230.257	266.440	-7.147	257.934	287.526	41.555	170.946	0.00013657	0.00026659	0.00012132	1407.5	1.1237e-06	2.5241e-06	1395.6	376.49	8.346e-07	2.615e-06	437.37	143.53	126.09	43.81	3.6619e-06	53.652	6.2716e-05	5.8276e-05	1.6254e-05	1311.5	6.4142e-07	6.4653e-07	1335.3	355.63	6.6357e-07	6.4006e-07	396.85	132.52	116.75	39.878	6.6973e-07	48.33	178.949	41.810	47.039	-24.876	89.783	69.714	-24.732	-20.179	166.858	117.316	-20.901	-16.007	-15.820	-11.614	102.187	-12.338	-8191	255	
1721.872	1	1	0	0	0.013641	0.094725	0.17238	0.11523	0.079867	0.16492	0.1326	0.19946	0.093541	0.098027	0.11182	0.035302	0.13241	0.18425	0.25935	0.062119	-2.9333	-3.5729	-3.9708	-3.3667	-3.9229	-3.6875	-3.5979	-4.175	-3.4958	-3.7	-4.0687	-3.3104	-4.1813	-3.7271	-3.2708	-4.0917	110.512	126.583	52.516	-19.777	310.033	170.940	283.587	260.910	91.904	-12.593	199.295	242.310	-33.287	297.105	105.056	204.213	0.00014765	4.5026e-05	6.5775e-05	1408	2.1136e-06	1.3524e-06	1394.4	375.82	8.3239e-07	3.4623e-06	433.81	142.61	126.26	43.857	1.7673e-06	54.403	6.3473e-05	5.8841e-05	1.6396e-05	1312.6	6.5882e-07	6.4414e-07	1333.6	355.65	6.701e-07	6.6281e-07	395.89	132.07	116.69	39.899	6.6743e-07	48.485	163.004	41.596	58.704	-24.742	175.345	85.259	-24.603	-20.265	88.917	52.813	-21.167	-16.319	-16.036	-11.782	125.517	-11.996	-8191	255	
1721.969	1	1	0	0	0.1302	0.051198	0.1634	0.15472	0.042917	0.23648	0.066678	0.27655	0.11237	0.2201	0.1568	0.22664	0.11051	0.070535	0.24089	0.061897	-3.0729	-3.4167	-3.9292	-3.5042	-3.8438	-3.7687	-3.5021	-4.3021	-3.3937	-3.5896	-4.2042	-3.5333	-3.8833	-3.9125	-3.2062	-4.0458	70.498	138.268	54.759	307.788	129.881	139.141	267.526	311.005	118.455	252.614	260.049	266.658	231.489	41.045	206.937	196.569	0.0001651	0.00030514	9.0778e-05	1419.6	4.27e-06	1.6361e-06	1407.8	379.5	1.8127e-06	1.8259e-06	435.91	144.64	127.45	44.076	4.4871e-06	54.491	6.36e-05	5.8919e-05	1.6243e-05	1314.1	6.5062e-07	6.47e-07	1336.9	356.37	6.6815e-07	6.5188e-07	396.08	132.54	116.97	39.942	6.645e-07	48.51	174.651	31.273	95.594	-24.978	57.813	101.964	-24.579	-19.962	113.913	84.249	-20.730	-15.850	-15.851	-11.278	76.457	-12.058	-8191	255	
1722.089	1	1	0	0	0.07402	0.15321	0.037675	0.084536	0.1063	0.20481	0.17297	0.16904	0.20533	0.20648	0.063607	0.1675	0.12052	0.10393	0.1872	0.029712	-3.2521	-3.4458	-3.975	-3.2708	-3.7771	-3.9833	-3.4875	-4.2292	-3.5729	-3.4188	-4.3146	-3.4333	-3.8042	-4.1167	-3.2042	-3.8812	146.243	270.271	24.251	-29.131	299.803	67.604	243.784	27.960	37.411	13.584	267.388	-33.184	30.307	236.888	215.330	262.548	0.00017447	0.00031553	6.6354e-05	1416	4.4311e-06	3.8726e-06	1401.2	377.58	1.6877e-06	2.358e-06	434.13	143.13	126.21	44.211	2.7272e-06	54.299	6.3273e-05	5.8604e-05	1.6067e-05	1312.9	6.5965e-07	6.3744e-07	1334.8	356.15	6.5615e-07	6.4979e-07	396.25	132.53	116.74	39.961	6.6031e-07	48.436	179.800	52.941	106.967	-25.029	118.223	95.337	-24.586	-20.274	160.630	110.427	-20.764	-16.194	-15.705	-11.517	169.487	-12.021	-8191	255	
1722.161	1	1	0	0	0.052521	0.15018	0.034885	0.2247	0.22893	0.15487	0.16654	0.20979	0.082092	0.22656	0.023806	0.20983	0.2119	0.21089	0.23538	0.16446	-3.275	-3.3583	-3.9562	-3.5021	-3.4292	-3.8958	-3.35	-3.9562	-3.7938	-3.3937	-4.0875	-3.3667	-3.5438	-4.1062	-3.3063	-3.8812	150.807	106.544	138.592	280.507	-4.153	-0.485	-5.437	277.099	177.707	22.381	56.570	302.975	310.832	235.425	211.013	193.942	0.00018243	0.00023837	3.6922e-05	1421.1	7.3852e-07	1.4872e-06	1409.2	380.76	7.1679e-07	4.3737e-06	438.08	144.2	126.95	44.162	3.5826e-06	54.46	6.2338e-05	5.8532e-05	1.5922e-05	1314.1	6.5469e-07	6.2685e-07	1338.1	356.45	6.6378e-07	6.5384e-07	396.23	132.58	116.94	39.93	6.579e-07	48.512	179.072	44.851	69.419	-24.903	122.141	100.104	-24.770	-20.086	185.865	120.827	-20.563	-16.099	-15.444	-11.387	103.810	-11.964	-8191	255	
1722.281	1	1	0	0	0.061933	0.29178	0.19501	0.06791	0.13901	0.41963	0.05239	0.14242	0.049204	0.087184	0.086666	0.093821	0.13498	0.195	0.093508	0.20112	-3.5062	-3.3417	-4.0708	-3.4979	-3.1792	-4.0437	-3.35	-3.9042	-3.9313	-3.1292	-4.1833	-3.5354	-3.5833	-4.1229	-3.2708	-3.95	57.249	87.158	62.469	101.449	13.943	31.326	207.058	281.004	295.515	246.173	264.234	262.509	239.137	319.831	308.956	12.942	0.00017976	0.00023267	0.00014372	1416.8	2.2942e-06	3.6108e-06	1409.6	377.47	3.4878e-06	3.8914e-06	437.38	144.37	127.33	44.121	1.7151e-06	54.722	6.2369e-05	5.84e-05	1.6277e-05	1314.3	6.5745e-07	6.3238e-07	1336.9	355.57	6.6301e-07	6.4762e-07	396.61	132.55	116.98	39.933	6.5273e-07	48.559	167.024	56.297	53.877	-24.860	121.867	93.319	-24.460	-20.058	132.752	116.026	-20.247	-15.938	-15.405	-11.425	41.213	-11.996	-8191	255	
1722.376	1	1	0	0	0.099762	0.19438	0.27859	0.2144	0.31791	0.073185	0.29162	0.30593	0.18858	0.26509	0.30885	0.235	0.14352	0.094986	0.22453	0.19373	-3.5187	-3.2438	-3.7562	-3.85	-3.3021	-4.0813	-3.5479	-3.7854	-3.9396	-3.1417	-4.1104	-3.6979	-3.2458	-4.1021	-3.3896	-3.5542	28.524	238.476	117.370	49.517	105.177	300.882	221.744	277.455	244.505	-6.494	-13.636	311.138	-11.598	171.694	19.319	152.413	0.00022936	0.00026215	0.00011431	1418.3	2.7211e-06	2.236e-06	1407.9	378.62	2.032e-06	2.6094e-06	440	144.71	127.02	44.342	2.1548e-06	54.746	6.2464e-05	5.786e-05	1.6163e-05	1312.2	6.4117e-07	6.3236e-07	1336.6	356.26	6.5735e-07	6.4474e-07	397.14	132.55	116.86	40.018	6.5348e-07	48.568	177.036	26.070	27.179	-24.747	75.019	55.137	-24.523	-19.922	134.766	45.351	-20.551	-15.836	-15.437	-11.033	112.102	-11.867	-8191	255	
1722.472	1	1	0	0	0.038825	0.068501	0.0834	0.16518	0.06188	0.048068	0.18842	0.16682	0.096938	0.077786	0.28119	0.19	0.087744	0.13713	0.20322	0.076235	-3.4938	-3.2979	-3.9021	-3.9854	-3.2938	-3.9396	-3.6604	-3.6854	-4.1208	-3.3646	-3.9271	-3.8583	-3.3292	-3.9938	-3.4771	-3.5979	156.973	296.456	-17.166	236.241	10.870	309.243	301.321	320.209	180.454	314.119	256.844	247.794	115.392	242.288	-0.392	102.346	0.00017865	0.00036395	0.00011632	1418.7	1.6232e-06	3.8652e-06	1413.6	379.74	3.3361e-06	4.0735e-06	437.57	144.53	126.99	44.086	3.4841e-06	54.264	6.2181e-05	5.7184e-05	1.5982e-05	1314.4	6.5778e-07	6.4161e-07	1338.5	356.54	6.754e-07	6.4665e-07	396.64	132.5	116.77	39.972	6.6822e-07	48.401	162.571	47.360	41.789	-24.501	44.396	62.029	-24.478	-19.644	174.280	82.429	-20.190	-16.015	-15.588	-10.802	119.670	-11.883	-8191	255	
1722.568	1	1	0	0	0.087637	0.30212	0.18382	0.19045	0.26553	0.1205	0.074493	0.36537	0.1671	0.076747	0.014272	0.076442	0.18171	0.20257	0.16914	0.17485	-3.7667	-3.25	-3.7417	-3.9708	-3.2271	-3.975	-3.7938	-3.5375	-4.1083	-3.4458	-3.9604	-3.9833	-3.5687	-4.1083	-3.7625	-3.2375	255.007	109.818	39.746	278.274	180.605	116.649	292.766	283.447	270.325	156.916	310.622	286.969	291.787	-15.699	-19.445	138.851	0.0001834	0.00043615	8.3548e-05	1421.4	2.3826e-06	1.8931e-06	1413.3	379.95	2.0959e-06	3.0109e-06	436.83	144.72	127.01	44.435	4.8833e-06	54.632	6.3992e-05	5.8902e-05	1.623e-05	1312.7	6.5927e-07	6.4376e-07	1338.3	356.39	6.6597e-07	6.5682e-07	396.3	132.71	116.96	40.099	6.6948e-07	48.528	175.357	52.815	87.392	-24.833	87.037	98.098	-24.524	-19.811	177.594	108.050	-20.303	-15.792	-15.442	-10.838	75.346	-11.774	-8191	255	
1722.689	1	1	0	0	0.086271	0.0084201	0.08272	0.13578	0.2444	0.062205	0.15513	0.15236	0.11238	0.21435	0.20083	0.091326	0.28416	0.24555	0.16943	0.082952	-3.6625	-3.4646	-3.5354	-4.1521	-3.2792	-3.9062	-3.8917	-3.4708	-4.1062	-3.4188	-3.6396	-4.1167	-3.3167	-3.8375	-3.7438	-3.2313	83.291	-7.194	-19.697	230.818	76.829	248.854	265.283	7.176	162.678	149.856	126.186	240.823	271.960	297.944	148.436	302.244	0.0001878	0.00047491	8.2424e-05	1420.1	1.2889e-06	4.8613e-06	1413.2	380.75	2.0079e-06	2.2812e-06	441.85	145.31	127.46	44.42	1.5766e-06	54.749	6.321e-05	5.9271e-05	1.6426e-05	1314.6	6.651e-07	6.5139e-07	1336.9	356.2	6.7135e-07	6.5741e-07	397.73	132.84	116.96	40.027	6.637e-07	48.514	172.598	52.641	78.556	-24.405	40.277	74.162	-24.409	-19.806	164.457	86.990	-20.204	-15.744	-15.055	-11.124	147.488	-11.754	-8191	255	
1722.760	1	1	0	0	0.12501	0.14731	0.11191	0.084337	0.36038	0.14593	0.032655	0.10316	0.18513	0.047008	0.17129	0.20694	0.063736	0.047277	0.14036	0.25311	-3.7125	-3.3417	-3.6104	-4.225	-3.3854	-3.8312	-3.9083	-3.3042	-4.025	-3.5917	-3.675	-4.1229	-3.3	-3.8958	-3.8771	-3.3208	212.676	142.571	104.157	-34.215	253.774	70.243	37.296	243.848	301.188	258.835	25.727	-5.904	153.539	-34.529	102.279	56.594	0.00015195	0.00029733	0.00010852	1422.3	4.4793e-06	2.0959e-06	1415.8	380.56	1.7996e-06	3.9137e-06	438.81	144.77	127.35	44.365	2.9165e-06	54.984	6.3303e-05	5.8006e-05	1.6608e-05	1314.7	6.6458e-07	6.5664e-07	1339.1	356.13	6.671e-07	6.6217e-07	397	132.56	116.95	40.073	6.6023e-07	48.578	170.778	99.233	31.802	-24.577	99.352	124.909	-24.485	-19.698	67.322	93.120	-20.429	-15.649	-15.514	-10.773	120.356	-11.538	-8191	255	
1722.857	1	1	0	0	0.10671	0.26325	0.093456	0.091157	0.16764	0.080256	0.085885	0.11151	0.067853	0.13006	0.12516	0.17389	0.087407	0.1278	0.095422	0.15263	-3.8354	-3.7021	-3.3417	-4.4292	-3.3771	-3.7229	-4.2146	-3.2125	-3.9208	-3.5333	-3.4917	-4.075	-3.4813	-3.6083	-4.075	-3.3417	-25.776	123.612	-7.417	66.342	245.901	158.256	260.967	279.664	185.698	154.072	43.806	202.956	162.691	-36.092	195.706	-11.705	0.00014612	0.00019011	0.00014413	1423.8	2.8248e-06	2.2774e-06	1414.9	380.16	1.9534e-06	1.101e-06	436.77	144.27	127.3	44.237	4.3133e-06	54.365	6.358e-05	5.8805e-05	1.6643e-05	1316.7	6.6663e-07	6.5297e-07	1338.5	356.33	6.6819e-07	6.5721e-07	396.53	132.59	116.9	40.034	6.6507e-07	48.369	162.234	108.165	66.757	-24.475	112.866	74.836	-24.484	-19.859	147.235	118.857	-20.414	-15.580	-15.210	-11.039	116.742	-11.880	-8191	255	
1722.953	1	1	0	0	0.1355	0.050246	0.37897	0.17009	0.16777	0.063132	0.20176	0.18839	0.13341	0.077394	0.27129	0.19617	0.27468	0.10351	0.076876	0.18457	-3.6771	-3.7812	-3.2583	-4.1146	-3.5687	-3.4062	-4.2417	-3.3208	-3.8458	-3.8771	-3.2375	-4.2542	-3.5062	-3.5687	-4.0771	-3.3958	298.861	20.984	262.808	283.000	170.320	289.987	227.434	188.249	111.375	149.594	255.258	224.096	312.097	315.826	30.302	272.146	0.00018602	0.00043561	8.3758e-05	1424.9	3.1284e-06	4.7738e-07	1411.1	378.74	1.3231e-06	3.5137e-06	437.28	144.85	127.43	44.155	2.4175e-06	54.433	6.3706e-05	5.8688e-05	1.6452e-05	1317.3	6.6097e-07	6.4959e-07	1339.6	355.68	6.6609e-07	6.62e-07	396.35	132.74	117.16	40.005	6.6948e-07	48.455	169.883	30.686	77.797	-24.417	107.935	75.808	-24.315	-19.693	133.835	77.916	-20.433	-15.749	-15.317	-11.034	88.157	-11.870	-8191	255	
1723.049	1	1	0	0	0.26729	0.15798	0.13533	0.26925	0.26564	0.18982	0.1211	0.21914	0.12187	0.18587	0.12572	0.090941	0.068849	0.042513	0.19222	0.049489	-3.2958	-3.7479	-3.1083	-4.2021	-3.5167	-3.3833	-4.3125	-3.4542	-3.8312	-4.1229	-3.3396	-3.9979	-3.6667	-3.5708	-4.0667	-3.3125	246.273	197.769	75.032	271.109	219.120	36.315	154.354	182.578	266.410	126.872	35.369	99.598	65.668	256.764	80.850	-20.086	0.00016767	0.00024797	0.00010875	1412.5	7.6433e-07	5.4778e-06	1407.1	378.41	2.3846e-06	5.1095e-06	435.73	144.08	126.9	43.89	3.5937e-06	54.181	6.3208e-05	5.8723e-05	1.6474e-05	1312.9	6.5729e-07	6.5604e-07	1338.7	356.09	6.6474e-07	6.6586e-07	396.5	132.71	116.73	39.983	6.6671e-07	48.356	182.942	10.035	56.810	-24.493	149.797	65.942	-24.361	-19.991	98.595	81.996	-20.537	-15.726	-15.312	-10.984	121.531	-11.619	-8191	255	
1723.170	1	1	0	0	0.1019	0.13455	0.085482	0.19709	0.044593	0.15775	0.30888	0.14326	0.20464	0.066636	0.034688	0.16664	0.12595	0.12509	0.10554	0.28878	-3.1854	-3.9375	-3.2188	-4.2042	-3.6167	-3.2167	-4.2438	-3.5625	-3.5792	-4.1146	-3.325	-3.7979	-3.8896	-3.3521	-4.2583	-3.7313	169.650	54.904	235.671	204.285	122.008	184.217	270.269	187.021	267.271	130.451	-15.774	-13.359	81.967	19.806	291.376	-29.972	0.0001666	0.00028979	0.0001719	1416.1	1.2475e-06	3.1396e-06	1405	378.44	1.9047e-06	2.4265e-06	434.59	143.71	126.77	44.268	3.7357e-06	54.695	6.4101e-05	5.8761e-05	1.6463e-05	1315.7	6.6252e-07	6.441e-07	1337.9	355.94	6.665e-07	6.462e-07	395.93	132.53	116.78	39.988	6.6656e-07	48.462	177.513	14.675	72.902	-24.445	129.786	84.379	-24.124	-19.797	140.873	118.011	-20.217	-15.784	-15.402	-10.975	59.887	-11.783	-8191	255	
1723.264	1	1	0	0	0.24358	0.16404	0.17399	0.15656	0.20273	0.12133	0.29471	0.19688	0.18644	0.0077118	0.19373	0.23995	0.17832	0.20972	0.14851	0.17477	-3.0833	-4.0354	-3.35	-3.8729	-3.7854	-3.35	-4.4437	-3.7958	-3.3896	-4.075	-3.4458	-3.7417	-4.1271	-3.4146	-3.9479	-3.7479	214.050	199.812	48.809	241.830	236.699	-5.196	261.908	276.739	5.885	226.511	313.611	251.989	310.703	187.052	109.200	227.071	0.00019747	0.00045058	0.00010093	1427.9	1.7721e-06	2.0701e-06	1418	379.67	2.018e-06	2.2543e-06	437.69	144.96	127.59	44.471	3.9943e-06	54.755	6.3196e-05	5.8025e-05	1.6657e-05	1318.8	6.6825e-07	6.5995e-07	1340.9	356.19	6.6177e-07	6.5671e-07	396.73	132.92	116.93	40.09	6.6342e-07	48.541	169.233	3.405	51.086	-24.248	86.134	101.406	-23.883	-19.623	126.206	124.919	-20.209	-15.535	-15.481	-11.115	85.819	-11.908	-8191	255	
1723.362	1	1	0	0	0.15407	0.13472	0.013062	0.26597	0.23637	0.22564	0.218	0.15454	0.039454	0.19303	0.099258	0.16724	0.20754	0.29088	0.03516	0.07766	-3.1063	-3.9979	-3.25	-3.8271	-3.9333	-3.2604	-4.3021	-3.8833	-3.3667	-4.0312	-3.5167	-3.6813	-4.05	-3.5083	-3.9833	-3.8187	126.028	182.780	107.554	283.347	143.348	32.940	321.476	315.742	174.365	234.267	277.545	37.259	-27.288	245.589	95.417	-17.005	0.0001449	0.00010974	7.8151e-05	1416.6	2.1119e-06	3.3574e-06	1409.7	379.5	1.7494e-06	3.7929e-06	436.14	145.32	127.51	44.404	3.4168e-06	54.673	6.3e-05	5.815e-05	1.6555e-05	1312.9	6.598e-07	6.5105e-07	1339.2	355.69	6.7609e-07	6.4717e-07	396.76	132.92	117.05	40.04	6.6296e-07	48.497	183.558	34.440	87.488	-24.628	127.314	68.354	-24.435	-20.097	116.652	80.021	-20.548	-16.101	-15.679	-11.258	129.815	-11.887	-8191	255	
1723.456	1	1	0	0	0.16706	0.020508	0.12975	0.10376	0.14505	0.13785	0.23819	0.16226	0.25312	0.28187	0.2102	0.18992	0.23171	0.12837	0.15269	0.23125	-2.9396	-4.1792	-3.4062	-3.6646	-4.0333	-3.2167	-4.2083	-4.0375	-3.3979	-3.9917	-3.7292	-3.5229	-4.0167	-3.35	-3.6417	-3.9875	290.371	-36.762	302.326	264.332	202.664	179.710	256.369	-6.008	158.224	34.074	277.472	306.851	167.416	73.390	277.137	300.877	0.00014236	0.0003343	9.8745e-05	1414.5	2.9691e-06	5.1692e-06	1409.5	378.28	1.173e-06	1.8414e-06	431.86	142.44	126.38	44.022	2.8677e-06	54.132	6.3453e-05	5.8293e-05	1.6495e-05	1316.7	6.6535e-07	6.4336e-07	1338.8	355.89	6.6824e-07	6.4537e-07	395.9	132.23	116.76	39.994	6.51e-07	48.435	167.614	35.249	72.445	-24.529	159.188	74.828	-24.668	-19.997	198.507	82.663	-20.901	-15.937	-15.549	-11.294	132.542	-12.061	-8191	255	
1723.552	1	1	0	0	0.114	0.16272	0.23582	0.23566	0.1486	0.12806	0.18424	0.19777	0.14604	0.033486	0.1361	0.16545	0.14141	0.20408	0.095548	0.057469	-2.8417	-3.9083	-3.5396	-3.6021	-4.0375	-3.1833	-3.8708	-4.0062	-3.1917	-4.1229	-3.6458	-3.3604	-4.2792	-3.3854	-3.9062	-4.0208	197.338	82.945	35.321	258.509	284.484	29.269	297.477	-11.373	221.051	289.505	200.856	138.353	293.413	251.595	71.887	-34.231	0.00021372	0.00032712	0.00011402	1420.3	1.7927e-06	3.2082e-06	1418.9	379.81	2.4534e-06	1.6617e-06	438.59	145.41	127.15	44.236	1.9943e-06	54.748	6.4161e-05	5.8899e-05	1.6376e-05	1316.5	6.5805e-07	6.4936e-07	1341.5	356.26	6.6917e-07	6.5664e-07	396.53	133.06	117.06	39.986	6.6379e-07	48.523	165.679	38.002	110.247	-24.434	82.914	55.612	-24.310	-19.775	82.554	76.189	-20.269	-15.643	-15.498	-11.015	131.600	-11.823	-8191	255	
1723.649	1	1	0	0	0.17479	0.030065	0.02058	0.30312	0.13884	0.35347	0.26656	0.0090073	0.14933	0.183	0.087851	0.19349	0.20491	0.082557	0.094701	0.21194	-2.8396	-3.9688	-3.5104	-3.3458	-3.9396	-3.5	-3.7104	-3.9437	-3.225	-3.9479	-4.05	-3.2562	-4.1625	-3.5812	-3.3688	-4.1687	207.363	162.726	304.639	278.715	10.796	-0.776	-23.896	295.646	221.535	-32.686	-5.116	246.264	305.790	152.452	292.364	2.349	0.00019104	0.00042756	7.2423e-05	1423.7	2.6273e-06	2.6336e-07	1414.8	378.75	2.0324e-06	2.3056e-06	437.65	144.8	127.65	44.4	3.3968e-06	54.735	6.4872e-05	5.8959e-05	1.6707e-05	1314.2	6.5879e-07	6.4948e-07	1340.2	356.1	6.7418e-07	6.6001e-07	397.06	132.72	117.1	40.015	6.642e-07	48.487	178.840	48.356	84.181	-24.714	102.843	110.645	-24.519	-20.223	115.900	101.142	-20.762	-16.003	-15.669	-11.095	142.595	-12.075	-8191	255	
1723.769	1	1	0	0	0.10994	0.33037	0.10576	0.1782	0.079179	0.068156	0.11192	0.24529	0.22408	0.093319	0.063474	0.21175	0.078671	0.071096	0.12949	0.026992	-2.8396	-3.8646	-3.8563	-3.3146	-4.1188	-3.5646	-3.575	-4.35	-3.2812	-3.8333	-3.9729	-3.3083	-4.0708	-3.8104	-3.3688	-4.0312	211.332	173.184	21.037	229.595	34.774	253.316	298.948	316.754	202.328	213.355	301.215	-3.775	57.163	111.287	167.719	58.003	0.000214	0.00037687	4.3586e-05	1427.3	5.1334e-06	2.3979e-06	1422.3	380.71	2.4536e-06	1.9303e-06	439.34	144.98	127.68	44.374	2.6216e-06	54.72	6.2941e-05	5.9094e-05	1.6336e-05	1315.9	6.5182e-07	6.4918e-07	1341.5	356.33	6.7204e-07	6.509e-07	396.76	132.92	117.06	40.077	6.6132e-07	48.533	172.766	63.119	36.535	-24.653	77.343	51.545	-24.357	-20.174	135.087	40.813	-20.607	-15.702	-15.596	-11.402	148.639	-11.672	-8191	255	
1723.865	1	1	0	0	0.094704	0.089082	0.096233	0.19422	0.11499	0.21543	0.22644	0.22096	0.12527	0.10125	0.059593	0.11648	0.088112	0.30262	0.1535	0.17703	-2.8375	-3.7229	-3.8729	-3.1958	-4.1042	-3.8021	-3.5292	-4.3583	-3.3125	-3.5083	-4.1	-3.3292	-4.0188	-3.8375	-3.4521	-4.2104	317.848	44.248	157.160	279.033	190.251	88.831	243.222	226.174	119.739	203.211	-14.552	302.460	256.162	320.883	7.309	235.649	0.00014738	0.00026649	9.9691e-05	1422.4	3.0903e-06	3.2938e-06	1417.3	380.25	8.9288e-07	3.7715e-06	439.11	145.08	127.92	44.304	2.5253e-06	55.032	6.3277e-05	5.8848e-05	1.6399e-05	1313.6	6.5847e-07	6.4059e-07	1339.1	356.56	6.6566e-07	6.4891e-07	396.82	132.71	117.26	40.088	6.7015e-07	48.574	176.790	26.739	67.610	-24.645	120.963	107.777	-24.360	-19.928	142.286	76.241	-20.588	-15.880	-15.358	-11.183	93.111	-11.538	-8191	255	
1723.961	1	1	0	0	0.17038	0.099405	0.19771	0.066661	0.05975	0.068131	0.16805	0.13013	0.0784	0.20925	0.056772	0.085681	0.12678	0.29056	0.062554	0.17601	-2.9979	-3.5083	-4.0542	-3.425	-3.9583	-3.7771	-3.4437	-4.0729	-3.4375	-3.575	-4.325	-3.5208	-3.9521	-3.8812	-3.2583	-4.0563	5.808	240.572	7.615	216.689	54.246	96.595	226.620	209.159	-21.916	261.019	286.453	234.895	293.027	300.522	101.969	253.138	0.00019923	0.00028819	0.0001157	1428.8	3.5293e-06	3.185e-06	1417.3	380.13	3.1087e-06	2.136e-06	440.3	145.33	127.5	44.342	3.8546e-06	54.705	6.3303e-05	5.8285e-05	1.6495e-05	1316.9	6.5319e-07	6.4625e-07	1341.5	356.97	6.5723e-07	6.5213e-07	397.39	132.85	117.11	40.03	6.664e-07	48.668	192.546	1.216	88.514	-24.351	125.016	117.698	-24.277	-19.808	182.888	100.457	-20.478	-15.863	-15.227	-11.296	100.347	-11.747	-8191	255	
1724.058	1	1	0	0	0.16278	0.19747	0.20092	0.11162	0.17438	0.2909	0.21074	0.1238	0.20398	0.10005	0.075704	0.088307	0.27822	0.22961	0.088862	0.10249	-3.2104	-3.5	-4.2417	-3.5042	-3.7792	-3.9896	-3.45	-4.1813	-3.5062	-3.3146	-4.2958	-3.3875	-3.8083	-4.2104	-3.2438	-4.0604	182.649	291.957	261.980	153.440	96.561	26.433	286.606	295.558	280.708	179.332	261.561	300.792	-24.471	289.309	20.305	64.631	0.00015028	0.00020637	0.00010003	1421.6	1.5532e-06	2.6145e-06	1414.1	381.05	2.1477e-06	4.7714e-06	438.27	144.14	127.17	44.222	3.5107e-06	54.682	6.2681e-05	5.9086e-05	1.6341e-05	1315.6	6.5759e-07	6.4846e-07	1339.2	356.94	6.6288e-07	6.5814e-07	397.33	132.63	117.02	40.039	6.7098e-07	48.551	178.289	43.900	78.090	-24.442	138.871	74.908	-24.388	-19.450	140.241	148.349	-20.694	-15.681	-15.156	-11.168	41.102	-12.061	-8191	255	
#DATA ENDS
