BOXY.EXE: ISS Imagent and Oximeter Data Acquisition Program Version 0.80
Ascii Record File

#ACQ INFORMATION
2  Detector Channels 
16  External MUX Channels 
1  Auxiliary Channels 
5000  Waveform (CCF) Frequency (Hz)
1  Waveforms Skipped 
30  Waveforms Averaged 
1  Cycles Averaged 
16  Acquisitions per Waveform 
10.0806  Updata Rate (Hz) 

#FILE INFORMATION
TRUE -- External MUX Channel results are PARSED.
FALSE -- AC DC and Phase are NOT grouped.
TRUE -- Companion Program Settings File CREATED.
FALSE -- AC data not excluded
FALSE -- DC data not excluded
FALSE -- Phase data not excluded
FALSE -- Auxillary Chn. data not excluded
Tab delimiters

#CALIBRATION STATE
TRUE -- Waveform Calibration Values APPLIED.


#AUX CALIBRATION VALUES
Val Type	aux-1	

Term	1.0000e+00	
Factor	0.0000e+00	


#WF CALIBRATION VALUES
A = Detector Channel
Val Type	A-AC1	A-AC2	A-AC3	A-AC4	A-AC5	A-AC6	A-AC7	A-AC8	A-AC9	A-AC10	A-AC11	A-AC12	A-AC13	A-AC14	A-AC15	A-AC16	A-DC1	A-DC2	A-DC3	A-DC4	A-DC5	A-DC6	A-DC7	A-DC8	A-DC9	A-DC10	A-DC11	A-DC12	A-DC13	A-DC14	A-DC15	A-DC16	A-Ph1	A-Ph2	A-Ph3	A-Ph4	A-Ph5	A-Ph6	A-Ph7	A-Ph8	A-Ph9	A-Ph10	A-Ph11	A-Ph12	A-Ph13	A-Ph14	A-Ph15	A-Ph16	

Term	0.00000e+00	0.00000e+00	0.00000e+00	0.00000e+00	0.00000e+00	0.00000e+00	0.00000e+00	0.00000e+00	0.00000e+00	0.00000e+00	0.00000e+00	0.00000e+00	0.00000e+00	0.00000e+00	0.00000e+00	0.00000e+00	0.00000e+00	0.00000e+00	0.00000e+00	0.00000e+00	0.00000e+00	0.00000e+00	0.00000e+00	0.00000e+00	0.00000e+00	0.00000e+00	0.00000e+00	0.00000e+00	0.00000e+00	0.00000e+00	0.00000e+00	0.00000e+00	0.00000e+00	0.00000e+00	0.00000e+00	0.00000e+00	0.00000e+00	0.00000e+00	0.00000e+00	0.00000e+00	0.00000e+00	0.00000e+00	0.00000e+00	0.00000e+00	0.00000e+00	0.00000e+00	0.00000e+00	0.00000e+00	
Factor	1.00000e+00	1.00000e+00	1.00000e+00	1.00000e+00	1.00000e+00	1.00000e+00	1.00000e+00	1.00000e+00	1.00000e+00	1.00000e+00	1.00000e+00	1.00000e+00	1.00000e+00	1.00000e+00	1.00000e+00	1.00000e+00	1.00000e+00	1.00000e+00	1.00000e+00	1.00000e+00	1.00000e+00	1.00000e+00	1.00000e+00	1.00000e+00	1.00000e+00	1.00000e+00	1.00000e+00	1.00000e+00	1.00000e+00	1.00000e+00	1.00000e+00	1.00000e+00	X	X	X	X	X	X	X	X	X	X	X	X	X	X	X	X	

B = Detector Channel
Val Type	B-AC1	B-AC2	B-AC3	B-AC4	B-AC5	B-AC6	B-AC7	B-AC8	B-AC9	B-AC10	B-AC11	B-AC12	B-AC13	B-AC14	B-AC15	B-AC16	B-DC1	B-DC2	B-DC3	B-DC4	B-DC5	B-DC6	B-DC7	B-DC8	B-DC9	B-DC10	B-DC11	B-DC12	B-DC13	B-DC14	B-DC15	B-DC16	B-Ph1	B-Ph2	B-Ph3	B-Ph4	B-Ph5	B-Ph6	B-Ph7	B-Ph8	B-Ph9	B-Ph10	B-Ph11	B-Ph12	B-Ph13	B-Ph14	B-Ph15	B-Ph16	

Term	0.00000e+00	0.00000e+00	0.00000e+00	0.00000e+00	0.00000e+00	0.00000e+00	0.00000e+00	0.00000e+00	0.00000e+00	0.00000e+00	0.00000e+00	0.00000e+00	0.00000e+00	0.00000e+00	0.00000e+00	0.00000e+00	0.00000e+00	0.00000e+00	0.00000e+00	0.00000e+00	0.00000e+00	0.00000e+00	0.00000e+00	0.00000e+00	0.00000e+00	0.00000e+00	0.00000e+00	0.00000e+00	0.00000e+00	0.00000e+00	0.00000e+00	0.00000e+00	-1.17792e+02	-1.43843e+02	-1.22546e+02	-1.82203e+02	-6.11667e+01	-7.34980e+01	-1.58195e+02	-1.62015e+02	-5.91422e+01	-6.39027e+01	-1.73093e+02	-1.71855e+02	-1.81390e+02	-1.76301e+02	-7.35693e+01	-1.49454e+02	
Factor	1.69170e-05	1.23924e-04	3.36262e-05	1.80272e-01	1.08088e-06	1.50264e-06	1.68832e-01	4.61094e-02	9.30486e-07	1.40809e-06	1.02341e-01	2.97290e-02	2.73267e-02	8.85118e-03	1.28260e-06	1.26478e-02	2.60707e-06	2.90429e-06	8.06884e-07	9.53293e-02	3.13924e-08	3.17865e-08	8.41259e-02	2.45373e-02	3.13704e-08	3.17759e-08	5.20466e-02	1.52571e-02	1.46120e-02	4.71344e-03	3.16051e-08	6.50126e-03	X	X	X	X	X	X	X	X	X	X	X	X	X	X	X	X	



#DISTANCE SETTINGS
A = Detector Channel
A-1	A-2	A-3	A-4	A-5	A-6	A-7	A-8	A-9	A-10	A-11	A-12	A-13	A-14	A-15	A-16	

2.5000e+00	3.0000e+00	2.5000e+00	3.0000e+00	2.0000e+00	3.0000e+00	1.5000e+00	3.0000e+00	3.0000e+00	3.0000e+00	3.0000e+00	3.0000e+00	3.0000e+00	3.0000e+00	1.5000e+00	3.0000e+00	

B = Detector Channel
B-1	B-2	B-3	B-4	B-5	B-6	B-7	B-8	B-9	B-10	B-11	B-12	B-13	B-14	B-15	B-16	

1.0000e+01	1.0000e+01	1.0000e+01	1.4400e+00	1.0000e+01	1.0000e+01	1.5100e+00	1.9400e+00	1.0000e+01	1.0000e+01	1.9900e+00	2.4900e+00	2.4100e+00	2.9000e+00	1.0000e+01	2.9800e+00	




#DATA BEGINS
time	group	step	mark	flag	A-AC1	A-AC2	A-AC3	A-AC4	A-AC5	A-AC6	A-AC7	A-AC8	A-AC9	A-AC10	A-AC11	A-AC12	A-AC13	A-AC14	A-AC15	A-AC16	A-DC1	A-DC2	A-DC3	A-DC4	A-DC5	A-DC6	A-DC7	A-DC8	A-DC9	A-DC10	A-DC11	A-DC12	A-DC13	A-DC14	A-DC15	A-DC16	A-Ph1	A-Ph2	A-Ph3	A-Ph4	A-Ph5	A-Ph6	A-Ph7	A-Ph8	A-Ph9	A-Ph10	A-Ph11	A-Ph12	A-Ph13	A-Ph14	A-Ph15	A-Ph16	B-AC1	B-AC2	B-AC3	B-AC4	B-AC5	B-AC6	B-AC7	B-AC8	B-AC9	B-AC10	B-AC11	B-AC12	B-AC13	B-AC14	B-AC15	B-AC16	B-DC1	B-DC2	B-DC3	B-DC4	B-DC5	B-DC6	B-DC7	B-DC8	B-DC9	B-DC10	B-DC11	B-DC12	B-DC13	B-DC14	B-DC15	B-DC16	B-Ph1	B-Ph2	B-Ph3	B-Ph4	B-Ph5	B-Ph6	B-Ph7	B-Ph8	B-Ph9	B-Ph10	B-Ph11	B-Ph12	B-Ph13	B-Ph14	B-Ph15	B-Ph16	aux-1	digaux	

28538.658	1	1	0	256	0.22054	0.048161	0.2175	0.2125	0.14482	0.19615	0.031327	0.063012	0.13028	0.089816	0.14183	0.20291	0.10636	0.13801	0.10107	0.31512	-1.4667	-2.2771	-1.5438	-2.1896	-2.1813	-1.3438	-2.5125	-1.8875	-1.6646	-2.5229	-1.75	-2.0771	-2.1021	-1.4479	-2.3438	-1.9188	246.382	114.294	24.283	288.459	259.068	52.453	18.097	-35.725	-40.758	-31.191	233.387	259.569	110.515	287.731	142.152	184.338	0.00058846	0.0034084	0.00065022	619.12	1.5065e-05	1.2115e-05	1156.8	215.55	1.4159e-05	2.9016e-05	520.73	218.73	86.025	41.05	3.7102e-05	108.54	0.014235	0.015738	0.0043547	1006.1	0.00016897	0.00016961	1371.2	301	0.0001666	0.00016792	691.19	256.75	146.34	58.131	0.00016696	121.24	176.817	224.743	4.793	-51.778	66.287	189.396	-51.017	-46.317	131.670	12.777	-46.815	-43.306	-42.371	-39.017	210.951	-39.958	-8191	255	
28538.756	1	1	0	0	0.14383	0.083428	0.12624	0.069599	0.23868	0.27196	0.34843	0.15632	0.13551	0.059963	0.21647	0.18444	0.37991	0.25853	0.09657	0.29409	-1.3687	-2.2771	-1.7938	-1.8958	-2.075	-1.3708	-2.3563	-1.95	-1.6375	-2.2917	-1.8104	-2.0146	-2.0958	-1.6562	-2.2833	-2.0771	285.455	-50.840	282.705	282.779	13.342	179.299	271.534	270.326	0.849	291.691	205.088	144.373	-59.514	-36.015	281.830	238.956	0.00058934	0.0046061	0.0015533	621.28	2.8408e-05	2.5804e-05	1169.8	214.65	3.6972e-05	5.0455e-05	525.17	218.54	86.631	41.563	1.3883e-05	109.23	0.013889	0.015248	0.0042491	989.5	0.00016329	0.00016263	1354.9	295.12	0.00015772	0.00016049	678.23	252.98	142.41	56.557	0.00015605	119.46	105.759	177.296	12.224	-51.516	233.568	134.086	-51.065	-45.816	199.587	251.026	-47.157	-43.060	-42.617	-38.349	49.726	-39.716	-8191	255	
28538.873	1	1	0	0	0.067339	0.099661	0.15898	0.33256	0.052689	0.19256	0.24771	0.048931	0.20698	0.15736	0.065472	0.22437	0.2722	0.23963	0.16411	0.083722	-1.2646	-2.5375	-1.7021	-1.7146	-2.3792	-1.6229	-2.2812	-2.175	-1.3396	-2.2208	-1.8646	-1.7875	-2.45	-1.625	-1.9271	-2.3896	282.663	151.535	44.591	267.103	-61.358	155.620	211.777	192.092	103.466	213.638	51.618	265.196	230.773	208.653	227.044	215.092	0.00047382	0.0035379	0.00035754	632.51	1.081e-05	1.3527e-05	1176.5	214.23	2.6891e-05	2.4459e-05	530.21	220.21	86.483	41.636	6.1286e-05	109.96	0.012904	0.014186	0.0039621	963.91	0.00015356	0.00015421	1345.8	289.98	0.00015049	0.00014991	666.08	249.85	139.13	55.686	0.00014997	119.14	289.242	-15.915	84.034	-51.674	-28.452	135.808	-51.329	-46.610	244.771	9.842	-47.255	-43.099	-42.046	-38.312	-4.131	-39.941	-8191	255	
28538.971	1	1	0	0	0.1188	0.12126	0.28031	0.16032	0.33444	0.17589	0.21849	0.14333	0.11301	0.093974	0.27469	0.12596	0.075124	0.24387	0.2998	0.22422	-1.2292	-2.1729	-1.6896	-1.7229	-2.2396	-1.6458	-1.9875	-2.1583	-1.2104	-2.375	-2.0708	-1.7417	-2.3604	-1.6875	-1.9792	-2.3271	-30.937	-55.735	0.630	289.942	191.993	66.697	262.411	-14.170	86.703	67.790	246.442	-9.724	134.583	-32.059	-56.769	246.049	0.00046349	0.005918	0.00087663	630.67	7.3255e-06	3.5189e-05	1175.4	218.07	3.6654e-05	3.5582e-05	526.07	223.14	86.922	42.613	2.6124e-05	111.43	0.012419	0.013779	0.0038732	958.25	0.0001497	0.00015113	1346.2	291.6	0.00014835	0.00015004	669.35	252.64	139.76	56.578	0.00015242	120.65	21.668	-48.487	206.371	-51.486	83.199	55.123	-50.791	-46.355	203.192	90.093	-47.250	-42.964	-42.316	-38.607	69.308	-40.151	-8191	255	
28539.043	1	1	0	0	0.19162	0.11431	0.064831	0.371	0.11557	0.338	0.13838	0.048587	0.2527	0.2728	0.19572	0.4098	0.28084	0.13799	0.11291	0.21817	-1.0583	-2.1604	-1.9438	-1.6875	-2.2938	-1.6646	-2.0104	-2.4479	-1.4979	-2.1375	-2.175	-1.5354	-2.3187	-1.775	-1.8083	-2.6437	-41.420	0.770	16.661	247.718	35.824	153.765	-64.215	169.893	55.083	-41.929	295.052	224.080	-55.651	271.153	50.901	-59.776	0.00084981	0.0016441	0.00031454	642.29	2.7121e-05	5.3417e-05	1196.4	219.36	2.9635e-05	2.7234e-05	529.97	222.12	86.74	42.71	3.6302e-05	111.2	0.012658	0.014104	0.0039541	974.72	0.00015348	0.00015537	1361.8	295.61	0.00015378	0.000156	677.19	254.79	142	57.23	0.00015616	121.04	158.023	4.863	79.034	-52.022	85.512	222.733	-51.033	-46.366	195.042	84.402	-46.781	-43.193	-42.497	-38.281	111.756	-39.864	-8191	255	
28539.162	1	1	0	0	0.046772	0.077473	0.20548	0.20974	0.13931	0.013379	0.11525	0.11606	0.1724	0.016089	0.11693	0.13069	0.097024	0.09572	0.022693	0.22379	-1.1771	-2.1125	-2.0604	-1.4792	-2.2938	-1.8854	-1.7417	-2.5187	-1.6479	-2.1479	-2.4229	-1.7021	-2.4667	-1.775	-1.7979	-2.6458	139.218	-47.357	16.345	172.157	276.239	115.941	180.018	263.190	244.511	-4.168	190.484	191.207	242.843	288.363	119.017	217.317	0.00032955	0.0023942	0.0012729	633.62	3.2075e-05	3.6969e-05	1182.6	218.64	2.4464e-05	3.9528e-05	536.56	223.3	88.68	42.521	1.5554e-05	111.04	0.012943	0.014318	0.0040328	978.37	0.00015441	0.00015633	1359.5	294.66	0.00015337	0.00015438	673.79	253.16	140.58	56.698	0.00015241	119.88	202.744	160.612	162.037	-51.391	51.617	68.138	-51.446	-46.251	57.752	245.554	-47.407	-42.992	-42.004	-38.121	170.536	-39.704	-8191	255	
28539.258	1	1	0	0	0.24621	0.13955	0.13991	0.024159	0.050955	0.23851	0.021874	0.07137	0.30829	0.1435	0.27362	0.068965	0.34501	0.22414	0.20085	0.34193	-1.1042	-2.1188	-2.2083	-1.5375	-2.3354	-1.9271	-1.7083	-2.4021	-1.8479	-1.8771	-2.3563	-1.5354	-2.3042	-2.1875	-1.5625	-2.5208	24.517	65.822	160.201	251.649	132.358	119.060	1.492	248.058	7.066	137.091	256.538	272.497	-60.780	252.571	22.545	242.169	0.00046115	0.00080318	0.00051786	645.86	1.2784e-05	8.4513e-05	1182.2	220.92	2.3195e-05	5.7159e-06	535.9	224.57	87.958	42.911	4.426e-05	110.99	0.012423	0.013699	0.0038255	959.53	0.00014673	0.00014848	1343.1	290.57	0.00014695	0.00014901	667.59	251.09	138.32	56.047	0.00014658	118.55	216.900	53.220	-51.002	-51.350	13.619	169.455	-51.441	-45.568	122.777	137.304	-47.533	-43.255	-42.643	-38.341	83.299	-39.452	-8191	255	
28539.355	1	1	0	0	0.17037	0.29333	0.033243	0.25246	0.24648	0.12802	0.14985	0.13631	0.17361	0.23434	0.16562	0.097069	0.18176	0.16203	0.089258	0.23559	-1.4937	-1.8854	-2.2146	-1.6104	-2.0521	-2.1604	-1.8271	-2.4	-1.7333	-1.5646	-2.3729	-1.8125	-2.0646	-2.1979	-1.4208	-2.5625	-23.043	-15.453	227.014	159.394	134.992	118.310	291.905	99.410	134.980	-26.293	-60.920	292.972	190.545	59.824	31.339	128.769	0.00032848	0.0034899	0.0013964	644.17	3.6257e-05	4.4718e-05	1198.5	221.73	1.6464e-05	5.2265e-05	546.16	227.99	89.787	43.513	2.0533e-05	112.79	0.011977	0.013298	0.0037026	946.55	0.00014174	0.00014402	1341.5	287.5	0.00014054	0.00014204	663.98	250.24	136.22	55.443	0.00013796	118.83	208.690	34.979	0.449	-50.655	-19.472	-62.824	-50.917	-46.521	128.272	14.688	-47.329	-43.172	-42.269	-38.458	105.986	-39.828	-8191	255	
28539.475	1	1	0	0	0.17506	0.16373	0.084647	0.3136	0.05221	0.33444	0.37734	0.32479	0.080231	0.23098	0.32322	0.28057	0.31376	0.24594	0.22284	0.35392	-1.4562	-1.7625	-2.3563	-1.6	-2.1312	-2.3312	-1.8896	-2.3563	-2.0146	-1.625	-2.3375	-1.9479	-2.0187	-2.4208	-1.55	-2.4875	85.626	210.726	197.521	-59.101	176.581	112.864	251.914	87.227	-31.155	165.157	-20.903	234.189	260.074	-39.028	91.464	-60.738	0.00041303	0.00061203	0.001778	660.45	9.6763e-06	1.3734e-05	1214.7	224.58	2.0548e-05	2.6501e-05	545.15	228.59	90.055	42.948	6.7279e-05	114.37	0.011496	0.012596	0.0035014	932.51	0.00013539	0.00013767	1331.6	285.2	0.00013411	0.00013616	654.94	248.91	134.73	55.036	0.0001346	118.6	271.506	137.638	-36.450	-50.742	133.874	88.650	-51.130	-46.027	133.659	24.911	-46.444	-42.670	-42.688	-38.718	55.489	-39.379	-8191	255	
28539.570	1	1	0	0	0.11115	0.2204	0.22474	0.27849	0.17039	0.094317	0.17892	0.23794	0.47118	0.080361	0.07354	0.23686	0.3047	0.28429	0.21328	0.31056	-1.4854	-1.4792	-2.2271	-1.7708	-1.9062	-2.3	-1.7396	-2.1146	-2.1521	-1.4188	-2.5104	-1.9271	-1.9875	-2.5354	-1.5042	-2.1604	270.008	265.199	-60.924	-48.714	113.549	63.312	-26.277	197.739	262.160	53.396	63.934	259.919	228.308	-26.804	163.369	230.805	0.00066594	0.0016208	0.00068364	661.35	2.8642e-05	3.2928e-05	1211.4	224.88	1.097e-05	3.098e-05	542.01	228.93	89.18	43.491	2.7799e-05	112.71	0.011234	0.01248	0.0034337	932.4	0.00013424	0.00013672	1323	283.67	0.00013403	0.00013585	650.4	247.5	134.15	54.589	0.00013225	117.42	107.876	-7.350	34.189	-51.728	284.811	212.482	-51.008	-46.288	96.232	136.906	-46.602	-43.345	-42.221	-37.906	137.521	-40.005	-8191	255	
28539.643	1	1	0	0	0.098329	0.14105	0.18636	0.034985	0.052433	0.074852	0.0060239	0.077943	0.13321	0.091055	0.35616	0.29799	0.059668	0.21456	0.37338	0.076187	-2.0021	-1.4917	-2.1396	-1.8312	-1.7104	-2.325	-1.7167	-2.0958	-2.4375	-1.5208	-2.3312	-2.0271	-1.7354	-2.4375	-1.8292	-2.3771	-14.810	275.782	-18.868	20.759	-44.853	-58.170	167.958	248.861	-5.049	113.044	278.687	-57.614	-10.830	-38.799	36.914	186.598	0.00039855	0.0047206	0.00056376	656.59	1.1808e-05	1.1065e-05	1203.2	227.2	7.1032e-06	1.4384e-05	551.63	228.28	91.316	43.804	5.342e-05	113.03	0.011062	0.012174	0.0033565	914.83	0.00012879	0.00012968	1309.1	280.18	0.00012707	0.00012782	640.79	244.79	131.45	53.683	0.00012569	116.75	160.858	49.187	118.309	-51.757	1.503	136.843	-50.927	-46.717	284.302	-42.332	-47.155	-43.230	-41.973	-38.637	26.587	-39.814	-8191	255	
28539.764	1	1	0	0	0.19014	0.37968	0.07928	0.11582	0.11534	0.090914	0.30863	0.016564	0.20197	0.060686	0.05494	0.24374	0.20049	0.061076	0.15283	0.34081	-1.8646	-1.4917	-2.0208	-1.7729	-1.3375	-2.4979	-1.8917	-1.9729	-2.3083	-1.5208	-2.125	-2.175	-1.4521	-2.3542	-1.7833	-2.0062	275.494	37.099	36.607	-58.809	161.251	199.395	-54.103	93.814	289.794	141.725	-24.576	250.153	276.645	26.536	-57.473	291.548	0.00046911	0.0010885	0.0011045	671.32	2.1102e-05	4.8898e-05	1211.2	225.39	2.409e-05	1.6726e-05	547.58	230.62	91.38	44.315	3.729e-05	113.46	0.010507	0.011642	0.0032089	909.83	0.00012582	0.00012714	1306.6	279.54	0.00012702	0.00012853	648.08	247.66	132.56	54.532	0.00012991	118.45	182.138	106.380	45.927	-51.180	176.671	53.799	-51.217	-46.113	131.810	264.983	-46.820	-42.579	-42.197	-38.410	282.704	-39.645	-8191	255	
28539.859	1	1	0	0	0.21624	0.090486	0.067597	0.02128	0.076816	0.16431	0.16983	0.30374	0.076363	0.19074	0.13374	0.35484	0.16687	0.20913	0.062694	0.052106	-2.0333	-1.3104	-2.1521	-2.1708	-1.5333	-2.3979	-1.8979	-1.8	-2.4938	-1.4354	-2.2354	-2.3896	-1.5583	-2.3896	-1.9354	-1.8792	94.140	213.654	-61.758	-45.405	-62.161	235.387	234.900	292.591	66.790	259.949	170.369	232.669	223.327	-58.646	171.374	3.578	0.00011728	0.00084884	0.00096113	671.24	2.5133e-05	1.8626e-05	1224.3	226.76	2.4417e-05	2.5531e-05	545.59	229.19	91.228	43.611	8.6226e-05	112.84	0.010943	0.01227	0.0034013	936.85	0.00013388	0.00013572	1338.7	287.04	0.00013577	0.00013747	661.35	251.33	137.09	55.408	0.00013763	119.32	178.790	39.340	188.456	-52.133	289.482	113.692	-51.434	-46.397	168.897	61.418	-46.821	-43.051	-41.910	-38.628	84.344	-39.789	-8191	255	
28539.955	1	1	0	0	0.056821	0.15827	0.38539	0.13	0.13255	0.23535	0.28643	0.29092	0.1578	0.14189	0.21482	0.51002	0.11264	0.056859	0.1578	0.40633	-1.9542	-1.4333	-2.0625	-2.2792	-1.5708	-2.4437	-1.9708	-1.5583	-2.2438	-1.6104	-2.0708	-2.4417	-1.7062	-2.2438	-2.1625	-1.7062	176.699	140.461	87.124	169.650	3.218	237.396	276.070	195.276	138.586	121.128	289.504	262.659	197.221	-26.910	35.452	286.203	0.00079937	0.0032168	0.00030705	663.46	1.8249e-05	4.0461e-05	1222.4	226.02	2.8118e-05	3.3786e-05	544.99	227.54	89.492	42.828	3.5337e-05	109.69	0.011392	0.012661	0.0035294	943.73	0.00013744	0.00013848	1344.4	288.94	0.00013812	0.00014101	662.76	251.31	136.34	55.199	0.00014227	118.03	170.677	-28.803	232.785	-51.790	85.433	292.889	-51.612	-46.025	-51.999	156.675	-46.890	-42.746	-42.144	-38.405	18.143	-39.610	-8191	255	
28540.051	1	1	0	0	0.081875	0.21161	0.010007	0.01985	0.23451	0.050314	0.15534	0.072249	0.32188	0.18057	0.20254	0.038244	0.12245	0.13327	0.29064	0.2061	-1.8917	-1.5688	-1.8771	-2.6104	-1.45	-2.2646	-2.125	-1.7021	-2.275	-1.7583	-1.9479	-2.5146	-1.3896	-2.1354	-1.9875	-1.7833	21.019	-11.219	45.222	49.420	83.743	-20.210	216.498	189.392	208.540	0.733	198.135	225.565	28.490	276.229	118.155	220.071	0.00026944	0.002569	0.00059181	655.55	2.8055e-05	2.7573e-05	1195	222.24	2.0585e-05	3.108e-05	535.53	225.5	87.398	41.188	1.0202e-05	107.43	0.011931	0.013404	0.0037828	972.46	0.00014829	0.00015306	1368.3	297.38	0.00015398	0.00015829	686.38	256.77	143.84	57.263	0.00016625	120.26	178.122	126.105	85.812	-51.233	211.589	-52.579	-51.172	-46.762	-31.789	100.350	-46.368	-42.584	-42.087	-38.860	248.965	-39.135	-8191	255	
28540.172	1	1	0	0	0.18785	0.19793	0.097514	0.10222	0.12402	0.022251	0.19982	0.39262	0.16212	0.067749	0.113	0.4855	0.24321	0.096123	0.30176	0.22377	-2.0187	-2.0125	-1.8396	-2.3208	-1.6854	-1.8833	-2.4083	-1.4875	-2.3542	-2.0833	-1.7062	-2.4708	-1.65	-1.9583	-2.1562	-1.6833	51.629	139.092	282.236	194.120	19.380	76.051	260.242	270.552	240.251	94.723	247.126	276.136	89.525	213.469	18.700	257.322	0.000384	0.0031889	0.00061178	652.12	4.7718e-05	2.3012e-05	1192.5	218.61	9.1655e-06	4.3672e-05	534.41	223.73	86.706	41.297	5.4849e-05	108.61	0.013888	0.015702	0.0044071	1042.8	0.00017289	0.00017681	1425	310.7	0.00017162	0.00017356	708.66	261.56	148.98	58.586	0.0001697	121.79	34.910	215.266	133.478	-52.345	256.257	98.407	-51.335	-46.360	211.586	98.183	-47.187	-43.380	-41.600	-37.909	286.857	-39.691	-8191	255	
28540.268	1	1	0	0	0.1771	0.073119	0.063425	0.18001	0.35008	0.24564	0.18779	0.22807	0.11912	0.094618	0.11116	0.2942	0.16936	0.25103	0.068761	0.14115	-1.8354	-2.0167	-1.6	-2.3875	-1.7396	-1.8917	-2.4604	-1.5875	-2.1104	-2.0563	-1.4646	-2.5062	-1.7729	-2.0208	-2.3604	-1.7646	279.692	92.991	59.772	282.906	33.853	84.670	206.769	-30.846	11.910	31.529	210.792	-58.729	177.944	233.772	-5.833	231.422	0.00039642	0.00382	0.0016443	658.67	3.4526e-05	3.6656e-05	1192.2	221.67	3.3924e-05	3.0851e-05	542.9	224.83	88.826	42.929	2.8786e-05	110.45	0.013842	0.015382	0.0042833	1024.8	0.00016639	0.00016748	1402.2	305.54	0.00016385	0.00016707	703.32	260.39	145.92	58.24	0.00015833	120.62	222.276	109.981	-21.694	-50.625	11.844	70.539	-51.389	-46.563	-60.575	207.951	-47.080	-43.167	-42.223	-38.076	135.850	-39.932	-8191	255	
28540.340	1	1	0	0	0.15076	0.11972	0.13881	0.18874	0.3197	0.1595	0.3608	0.31213	0.15251	0.18237	0.067597	0.20006	0.20273	0.15382	0.17732	0.23467	-1.6292	-2.2167	-1.3958	-2.325	-1.8146	-1.7188	-2.5104	-1.5542	-2.1771	-2.05	-1.4958	-2.3792	-2.0146	-1.4417	-2.35	-1.7229	292.993	191.343	-50.545	20.377	-58.929	-19.898	209.847	255.314	79.072	74.300	12.424	47.244	287.820	281.369	178.375	232.021	0.00012532	0.0036249	0.00070417	646.69	3.2761e-05	7.3812e-06	1209.1	224.15	3.6414e-05	2.0401e-05	543.21	228.61	91.26	42.692	8.7093e-06	111.66	0.012571	0.013894	0.0038125	955.88	0.00014329	0.00014396	1334.6	288.38	0.00013736	0.00014041	658.69	248.55	135.93	55.021	0.00013859	117.43	-21.570	-22.834	74.606	-51.390	265.199	70.639	-51.168	-46.109	276.135	288.511	-47.391	-43.183	-41.949	-38.052	24.530	-39.965	-8191	255	
28540.436	1	1	0	0	0.12694	0.22004	0.34919	0.13609	0.086185	0.095677	0.41126	0.13141	0.1595	0.34166	0.17347	0.19631	0.19155	0.30079	0.11439	0.34337	-1.5312	-2.1458	-1.4688	-2.1417	-1.9583	-1.7042	-2.5687	-1.7854	-1.9604	-2.225	-1.6938	-2.1688	-2.0021	-1.65	-2.3812	-1.8229	1.304	93.326	278.147	182.630	73.574	286.384	267.827	202.940	202.189	211.263	199.245	270.411	-1.719	183.145	14.356	196.905	0.00044885	0.0028877	0.00049401	654.43	2.6464e-05	5.059e-05	1189.4	220.86	1.9231e-05	2.938e-05	529.55	221.6	87.09	41.696	2.524e-05	106.65	0.011463	0.012904	0.0035957	938.9	0.00014061	0.00014274	1332.5	287.46	0.00014315	0.0001473	666.8	250.59	140.68	56.257	0.00015822	118.52	127.797	193.793	-60.662	-51.098	112.746	282.366	-51.249	-45.610	142.475	228.794	-47.526	-42.861	-41.676	-38.129	-1.854	-39.355	-8191	255	
28540.557	1	1	0	0	0.15916	0.16575	0.059205	0.21144	0.08762	0.11398	0.35391	0.15671	0.2969	0.16369	0.11694	0.23523	0.14375	0.26904	0.026531	0.29878	-1.3583	-2.2292	-1.6167	-2.1417	-2.0667	-1.6021	-2.45	-1.8312	-1.5167	-2.3271	-1.6688	-2.4708	-2.2354	-1.5625	-2.4354	-1.9542	192.560	109.300	14.174	-61.722	261.117	178.658	232.385	213.142	66.477	109.918	-60.456	262.946	-23.840	192.810	268.505	195.259	0.00036146	0.003329	0.00094465	653.97	2.2172e-05	1.4843e-05	1191.1	216.3	2.5181e-05	4.9238e-05	529.27	220.51	85.793	40.534	4.5833e-05	106.92	0.01358	0.015413	0.0043073	1030	0.00017244	0.00017643	1420.1	309.45	0.00017592	0.00017973	713.61	262.84	151.73	59.21	0.00017745	121.8	96.594	61.815	163.396	-51.091	233.643	252.863	-50.637	-46.384	71.130	182.645	-47.107	-43.327	-42.093	-38.837	73.011	-39.694	-8191	255	
28540.652	1	1	0	0	0.26102	0.4421	0.35862	0.097483	0.18991	0.20436	0.06191	0.13554	0.09358	0.14415	0.27987	0.13293	0.18854	0.067119	0.097742	0.15354	-1.1042	-2.3458	-1.5375	-2.1042	-2.2333	-1.5229	-2.4813	-2.1104	-1.6187	-2.475	-1.7146	-2.1104	-2.0917	-1.6583	-2.1208	-2.1312	211.495	-13.558	55.221	-17.088	271.890	211.370	217.385	148.981	165.227	193.533	215.002	-62.959	185.139	236.237	244.760	200.125	0.00039232	0.00054619	0.00055741	642.32	1.2683e-05	3.8665e-05	1183.5	221.12	6.3483e-06	3.3316e-05	533.07	221.93	85.722	41.205	6.3835e-06	109.35	0.01472	0.016262	0.0045019	1042.3	0.00017568	0.00017703	1419.9	311.9	0.00017498	0.00017571	711.88	262.59	150.12	58.852	0.00017034	122.14	196.287	67.958	-2.405	-50.946	-10.576	28.581	-51.459	-46.682	36.079	-5.248	-47.089	-43.237	-42.478	-38.115	-22.873	-39.596	-8191	255	
28540.748	1	1	0	0	0.13431	0.070785	0.15507	0.20862	0.24002	0.079877	0.36062	0.20913	0.066843	0.26073	0.049835	0.36725	0.18083	0.11164	0.25158	0.17064	-1.0812	-2.3875	-1.5792	-1.9562	-2.0854	-1.5708	-2.3104	-2.1979	-1.5479	-2.4437	-1.7437	-1.8104	-2.2771	-1.5417	-1.9646	-2.35	153.320	128.818	-13.139	268.738	55.443	175.918	262.597	221.651	229.240	111.846	269.597	278.982	-11.462	66.120	183.887	276.240	0.00043691	0.0041937	0.0015305	651.57	1.8101e-05	1.7169e-05	1181	220.99	2.0724e-05	4.0427e-05	536.23	224.7	88.738	42.616	5.996e-05	111.52	0.013898	0.015288	0.0041855	1008.5	0.00016008	0.00015992	1368.4	297.49	0.00015154	0.00015024	671.25	251.92	137.99	55.165	0.00013895	117.83	159.818	169.568	-55.229	-51.820	113.917	244.589	-50.825	-46.470	146.744	21.624	-47.006	-42.857	-42.229	-38.672	27.465	-39.753	-8191	255	
28540.844	1	1	0	0	0.19786	0.2504	0.068228	0.12458	0.14913	0.040607	0.44035	0.21884	0.076075	0.13886	0.23477	0.19304	0.090783	0.26089	0.15279	0.34718	-1.1375	-2.3229	-1.8833	-1.7938	-2.2604	-1.4917	-2.2542	-2.1813	-1.4937	-2.1917	-1.9396	-1.7833	-2.4354	-1.7542	-1.7958	-2.4125	165.850	12.971	-64.274	197.257	229.695	13.972	232.579	223.854	94.106	262.124	-63.848	247.794	150.609	286.793	99.878	282.722	0.00033301	0.0044344	0.00093183	643.66	1.1399e-05	4.1582e-05	1206.6	224.95	2.0242e-05	5.5969e-05	548.28	230.05	90.872	43.526	3.0792e-05	112.84	0.011283	0.012284	0.0034077	915.56	0.00013042	0.00013192	1304.5	280.57	0.00012641	0.0001279	642.49	246.03	131.04	53.404	0.00012523	116.63	26.606	254.260	-22.334	-51.187	128.264	-34.557	-50.340	-47.380	102.829	95.757	-47.345	-43.093	-42.806	-38.867	96.153	-40.001	-8191	255	
28540.939	1	1	0	0	0.13368	0.10309	0.030103	0.043461	0.1254	0.13693	0.15055	0.14676	0.30293	0.26105	0.094859	0.094122	0.28781	0.23825	0.11447	0.30598	-1.1104	-1.9208	-1.775	-1.7	-2.3646	-1.7167	-1.9875	-2.4958	-1.55	-2.1625	-1.9937	-1.7417	-2.3333	-1.7042	-1.9479	-2.5021	-24.946	27.935	35.426	123.853	286.262	251.164	286.792	212.779	40.802	69.768	-57.454	199.052	266.020	-37.657	135.077	231.353	0.00036583	0.0016594	0.0018425	651.95	1.8975e-05	1.4383e-05	1204.6	226.15	1.5291e-05	2.2906e-05	548.83	227.77	90.291	43.236	6.2608e-05	112.05	0.010491	0.011721	0.0032971	907.77	0.0001293	0.00013214	1311.9	283.2	0.00013147	0.0001333	653.68	248.62	134.55	54.751	0.00013453	117.88	131.204	206.387	44.716	-51.839	4.899	217.659	-50.755	-46.799	201.911	88.659	-47.830	-43.494	-42.804	-38.413	228.648	-40.259	-8191	255	
28541.035	1	1	0	0	0.082622	0.18614	0.068143	0.11215	0.127	0.21633	0.20819	0.16547	0.091855	0.16621	0.36114	0.36323	0.41344	0.091952	0.27311	0.31103	-1.1396	-2.2625	-1.975	-1.6333	-2.1937	-1.7729	-1.8042	-2.6479	-1.5979	-2.2313	-2.1958	-1.6375	-2.225	-1.8396	-1.6125	-2.3021	249.053	54.094	134.574	285.697	186.417	-62.116	213.274	281.289	-35.249	-57.646	231.675	266.672	-14.271	36.900	229.680	225.793	0.00081244	0.0013338	0.0011104	647.6	1.4657e-05	2.5873e-05	1206.2	226	1.4319e-05	1.6586e-05	545.9	230.4	91.336	43.937	2.2579e-06	112.1	0.011193	0.012427	0.0034635	927.97	0.00013389	0.00013621	1324	284.52	0.00013216	0.00013348	654.17	248.88	133.63	54.718	0.00013319	117.6	240.972	166.630	29.876	-52.000	214.350	43.775	-51.562	-46.604	218.467	190.769	-47.718	-43.255	-42.415	-39.011	267.679	-40.075	-8191	255	
28541.154	1	1	0	0	0.16125	0.24446	0.21925	0.046002	0.12287	0.19685	0.19033	0.22129	0.2116	0.23358	0.21756	0.14143	0.11409	0.10422	0.12182	0.32209	-1.0958	-1.925	-2.35	-1.5021	-2.0604	-1.9813	-1.6625	-2.3271	-1.3979	-1.9438	-2.375	-1.5354	-2.2521	-1.9521	-1.5083	-2.3917	135.012	-21.652	276.564	56.842	-52.645	227.964	247.354	271.862	204.341	283.564	-41.215	-56.529	168.801	205.777	-5.529	267.505	0.00036866	0.00064384	0.00080412	650.49	1.8648e-05	3.819e-05	1206.3	224.04	1.3205e-05	5.0642e-05	548.26	230.13	91.116	43.449	3.6434e-05	111.99	0.010994	0.012182	0.0034155	916.94	0.00013159	0.00013416	1317.5	283.99	0.0001315	0.00013333	653	248.41	134.03	54.565	0.00013423	117.17	205.809	-6.504	66.120	-51.418	-35.661	-8.567	-51.792	-46.658	32.366	15.396	-47.182	-43.085	-42.537	-39.001	-0.720	-39.937	-8191	255	
28541.252	1	1	0	0	0.14641	0.096175	0.1322	0.15616	0.078234	0.17027	0.33198	0.15376	0.27968	0.15368	0.036139	0.15832	0.16643	0.077005	0.2308	0.15928	-1.325	-1.8583	-2.2229	-1.6458	-2.1562	-2.0271	-1.6458	-2.3979	-1.6229	-1.5583	-2.3646	-1.5896	-2.1021	-2.1646	-1.4813	-2.5396	175.533	128.211	3.627	282.299	143.865	10.838	214.037	-60.122	156.324	68.455	157.964	228.126	271.671	251.417	83.955	175.335	0.00074628	0.006031	0.0013766	649.94	1.1344e-05	2.7994e-05	1199.1	224.38	1.5228e-05	4.1796e-05	537.54	228.21	88.719	42.271	1.9872e-05	110.24	0.011089	0.0124	0.0034701	920.91	0.00013394	0.00013708	1323.2	283.82	0.00013365	0.00013715	653.28	248.39	134.46	54.341	0.000138	116.37	163.939	24.933	126.788	-52.509	257.786	78.480	-51.870	-47.076	-10.691	160.527	-47.060	-43.418	-43.011	-38.291	265.195	-39.635	-8191	255	
28541.348	1	1	0	0	0.40376	0.17407	0.22281	0.22068	0.10035	0.2417	0.28419	0.049305	0.090362	0.18581	0.23793	0.11274	0.11633	0.2182	0.2722	0.20564	-1.4125	-1.6667	-2.2896	-1.5063	-2.0354	-2.2271	-1.7729	-2.2438	-1.9417	-1.6646	-2.3729	-1.9542	-1.8333	-2.3333	-1.5833	-2.3667	-35.444	58.768	138.301	193.105	268.502	142.997	239.094	56.732	144.595	102.672	-5.376	229.283	-11.973	243.815	-32.596	265.953	0.00040544	0.0030799	0.00044761	641.1	3.2904e-05	6.8558e-05	1195.2	220.48	1.7346e-05	1.9317e-05	541.9	220.55	86.691	40.526	1.938e-05	105.67	0.011498	0.012878	0.0036222	941.31	0.00014342	0.00014717	1346.8	290.9	0.00014975	0.00015575	683.32	254.67	143.92	57.104	0.00016576	119.32	236.520	-20.400	275.791	-51.797	291.616	157.034	-51.373	-46.318	192.685	154.868	-47.743	-43.065	-42.399	-38.375	230.822	-39.494	-8191	255	
28541.443	1	1	0	0	0.13789	0.34982	0.24065	0.18695	0.056234	0.27247	0.20335	0.14608	0.22147	0.26166	0.25681	0.12509	0.15748	0.14755	0.072168	0.21501	-1.7375	-1.4333	-2.2542	-1.6354	-1.8271	-2.2708	-1.55	-2.2521	-1.9667	-1.4792	-2.5042	-1.7583	-1.725	-2.3458	-1.6187	-2.2771	260.826	6.358	101.848	201.717	-8.392	278.163	231.560	286.608	-15.953	105.138	256.952	211.041	-52.527	168.742	282.808	241.083	0.00040271	0.0021527	0.00053551	622.54	6.1596e-05	2.2701e-05	1173.6	215.89	1.8706e-05	4.9629e-05	533.66	217.14	84.551	38.433	3.8177e-05	103.23	0.014091	0.015823	0.0044585	1029.9	0.00017976	0.00018436	1434.8	315.75	0.00018644	0.00019042	731.57	265.62	156	59.671	0.00018875	121.37	153.869	198.456	2.896	-51.564	250.490	234.879	-51.531	-46.883	21.560	11.530	-46.666	-42.441	-42.930	-37.420	286.106	-39.159	-8191	255	
28541.564	1	1	0	0	0.13584	0.1349	0.10627	0.10131	0.080622	0.15082	0.229	0.21	0.28267	0.16223	0.10269	0.31107	0.0076557	0.10698	0.12187	0.14219	-1.6333	-1.5458	-2.1896	-1.6979	-1.6521	-2.1458	-1.6125	-2.2083	-2.2167	-1.5688	-2.225	-1.9979	-1.7958	-2.6271	-1.5646	-1.9896	290.849	78.949	33.851	155.423	12.341	-35.815	227.694	162.387	156.686	49.273	212.425	235.488	97.691	212.952	229.269	-63.869	0.0003824	0.0068265	0.00089335	622.1	1.9822e-05	3.2317e-05	1186.5	214.92	2.7747e-05	7.5831e-05	528.88	218.38	85.643	40.271	4.8297e-05	106.79	0.015366	0.017018	0.0046391	1039.5	0.00017597	0.00017683	1403.1	305.12	0.00016608	0.00016573	685.65	252.41	142.37	55.472	0.00015255	116.34	158.863	-59.766	-20.877	-52.091	-53.085	111.063	-51.443	-46.067	59.945	206.246	-47.292	-42.981	-42.391	-37.767	113.991	-39.425	-8191	255	
28541.637	1	1	0	0	0.022424	0.22563	0.1247	0.083627	0.30732	0.21611	0.27178	0.14913	0.070973	0.24759	0.23099	0.31369	0.15194	0.087881	0.1357	0.16192	-1.7437	-1.4417	-2.1917	-1.9813	-1.4167	-2.1458	-1.7542	-1.6229	-2.1208	-1.5375	-2.2792	-2.0604	-1.6875	-2.4396	-1.6729	-1.8833	281.077	271.391	58.590	288.572	268.198	58.619	191.632	240.889	113.298	220.695	178.569	-32.076	248.860	294.327	87.513	-50.655	0.0004688	0.0010754	0.00090348	630.18	1.9238e-05	3.9645e-05	1196.6	218.74	3.9538e-05	2.1362e-05	534.57	220.69	87.46	40.458	2.475e-05	106.62	0.012384	0.013521	0.0037219	939.6	0.00014398	0.00014348	1333.3	284.4	0.00014132	0.00014142	655.84	244.99	134.77	53.357	0.00014056	114.63	95.014	-17.133	70.735	-51.434	-51.057	99.312	-51.290	-46.952	101.214	104.459	-47.107	-43.277	-42.428	-38.229	272.636	-39.492	-8191	255	
28541.732	1	1	0	0	0.16954	0.05291	0.071586	0.11622	0.27315	0.18327	0.051476	0.33023	0.40386	0.17048	0.046255	0.14012	0.11301	0.1817	0.11784	0.15963	-1.7479	-1.3958	-2.1708	-2.1042	-1.5812	-2.2313	-1.7979	-1.7104	-2.425	-1.4937	-2.1458	-2.2833	-1.6875	-2.3312	-1.7396	-1.8646	250.436	231.600	131.410	221.754	222.267	130.383	202.412	293.135	-47.174	27.864	234.204	170.266	42.373	292.707	123.284	290.460	0.00063101	0.0016798	0.00068464	642.11	2.041e-05	4.671e-05	1187.7	217.61	3.3117e-05	4.3226e-05	530.74	217.59	84.163	39.216	1.6852e-05	104.65	0.011821	0.013198	0.0036472	945.2	0.00014615	0.00014778	1348.1	289.91	0.00014923	0.0001515	667.89	248.58	138.92	54.504	0.00015384	115.62	197.974	-38.792	291.007	-51.760	-3.365	225.026	-51.053	-45.495	109.495	130.709	-47.150	-43.158	-42.686	-38.055	127.549	-39.693	-8191	255	
28541.828	1	1	0	0	0.1808	0.25165	0.26166	0.27184	0.049487	0.23118	0.10149	0.1008	0.079072	0.17585	0.058533	0.052123	0.079841	0.30712	0.23809	0.30168	-2.1458	-1.6562	-1.8833	-2.1208	-1.6396	-2.1125	-2.1646	-1.65	-2.225	-1.5896	-2.1271	-2.45	-1.4271	-2.2167	-1.9729	-1.7667	149.134	71.773	91.564	210.045	219.002	8.198	264.663	-17.128	238.281	135.530	-46.482	161.963	-5.880	-42.981	41.816	261.415	7.3007e-05	0.00092273	0.0016142	633.12	2.5963e-05	5.3279e-05	1184.2	212.91	1.9181e-05	8.2918e-05	531.19	217.23	85.329	40.298	4.4433e-05	106.15	0.012734	0.014088	0.0039214	970.42	0.00015337	0.00015445	1359.8	291.16	0.00015214	0.00015313	672.07	249.29	138.13	54.612	0.00015119	116.09	279.819	-60.972	4.645	-51.607	179.048	-57.731	-51.163	-46.810	242.877	7.115	-47.393	-43.203	-42.519	-38.432	46.999	-40.046	-8191	255	
28541.947	1	1	0	0	0.312	0.30296	0.065098	0.10095	0.17199	0.3255	0.18192	0.24769	0.2497	0.26396	0.058982	0.3792	0.25582	0.30496	0.15727	0.55415	-2.0062	-1.6104	-1.9937	-2.3125	-1.4146	-2.0938	-2.0792	-1.7062	-2.3458	-1.5187	-1.8062	-2.4188	-1.7229	-2.1542	-1.9479	-1.5625	187.282	136.052	65.778	-21.527	5.538	147.620	247.532	263.397	-58.898	195.839	124.537	-26.882	-49.012	237.094	170.927	214.940	0.00054823	0.0030588	0.00010335	637.51	2.056e-05	4.1267e-05	1197.7	215.84	5.9662e-06	2.3485e-05	531.59	219.78	85.567	40.182	1.6129e-05	107.11	0.012396	0.013759	0.0038462	962.1	0.00014933	0.00015166	1353.7	290.75	0.00014807	0.00015066	667.6	248.45	137.13	54.285	0.0001469	115.86	172.916	-0.037	227.587	-51.769	44.135	205.587	-51.457	-46.260	-2.032	247.248	-47.541	-43.668	-42.398	-38.416	210.900	-39.565	-8191	255	
28542.043	1	1	0	0	0.187	0.13733	0.25	0.20236	0.055896	0.30288	0.32466	0.1252	0.15746	0.28122	0.26006	0.20222	0.11869	0.18924	0.17953	0.40816	-1.9875	-1.7313	-1.5167	-2.3604	-1.6583	-1.9479	-2.3208	-1.5917	-2.1312	-1.7188	-1.9354	-2.5021	-1.5771	-2.1146	-2.1854	-1.7229	27.173	-42.073	289.089	260.575	130.651	81.516	221.499	-58.224	-21.808	103.788	229.624	293.593	201.660	-36.285	216.587	238.688	0.00083088	0.0091209	0.00071539	634.89	3.4268e-05	4.6376e-05	1178.8	215.6	9.7714e-06	3.3522e-05	533.82	220.58	88.122	42.168	1.5921e-05	108.82	0.011927	0.0132	0.0036622	936.92	0.00013989	0.00014135	1324.4	281	0.00013705	0.0001387	647.68	243.47	132.51	53.293	0.00013542	114.55	2.707	-16.711	82.252	-51.283	73.126	269.430	-50.843	-46.024	172.147	203.549	-46.979	-42.912	-42.306	-37.665	232.551	-39.885	-8191	255	
28542.139	1	1	0	0	0.074855	0.22724	0.067977	0.22461	0.14231	0.21379	0.1318	0.37517	0.19065	0.2122	0.090123	0.21896	0.029121	0.17306	0.25432	0.27091	-1.7521	-1.8937	-1.4292	-2.3375	-1.6375	-2.0104	-2.35	-1.5688	-2.2438	-1.9604	-1.6375	-2.4042	-1.7604	-1.8208	-2.0563	-1.6688	5.706	195.048	167.227	-36.474	16.450	61.371	220.147	187.323	80.890	72.551	-8.672	51.848	180.934	246.804	-11.021	230.580	0.00041134	0.0030831	0.0018933	639.9	9.2021e-06	6.334e-06	1185.3	219.39	1.6281e-05	1.191e-05	541.73	225.23	88.311	42.53	3.7085e-05	110.17	0.010875	0.012156	0.0033585	896.17	0.00012783	0.00012921	1295.1	274.42	0.00012526	0.00012889	636.69	241.5	129.03	52.677	0.0001258	114.12	181.352	223.103	88.978	-51.797	-63.125	266.755	-51.115	-46.922	200.537	190.857	-46.894	-43.419	-42.641	-38.776	56.542	-39.521	-8191	255	
28542.236	1	1	0	0	0.14698	0.18981	0.152	0.21019	0.2127	0.15037	0.20208	0.18825	0.042265	0.22211	0.13477	0.41374	0.29852	0.15293	0.10815	0.28829	-1.7729	-1.7917	-1.5771	-2.2562	-1.7229	-1.8271	-2.425	-1.4688	-2.0958	-1.9458	-1.6042	-2.3229	-1.725	-1.7208	-2.2687	-1.6854	74.372	66.836	58.459	7.110	225.757	-5.720	258.102	197.608	22.636	79.625	220.138	271.031	274.821	288.802	-6.106	288.040	0.00030931	0.0030881	0.0015359	647.32	2.5211e-05	4.0969e-05	1213.4	222.31	1.9611e-05	4.5519e-05	540.75	229.17	89.787	43.369	1.5462e-05	112.55	0.010258	0.011504	0.003172	884.79	0.00012197	0.00012373	1295.2	272.36	0.00011998	0.00012143	630.56	241.18	127.53	52.695	0.00012002	115.22	205.608	85.612	110.918	-51.075	173.552	57.200	-51.211	-45.892	83.996	-47.856	-47.185	-43.102	-42.723	-38.488	225.084	-39.396	-8191	255	
28542.332	1	1	0	0	0.26663	0.14139	0.16438	0.21294	0.082299	0.3886	0.21739	0.065437	0.21049	0.20137	0.016708	0.31622	0.26106	0.15502	0.41505	0.46128	-1.525	-1.9896	-1.4958	-2.2333	-1.7792	-1.725	-2.4667	-1.7417	-1.9833	-2.1271	-1.5104	-2.3563	-1.9	-1.6958	-2.45	-1.5854	235.590	238.290	284.265	211.190	112.121	43.560	232.316	173.761	7.190	59.830	-51.043	263.713	198.482	-35.201	127.257	260.197	0.00017908	0.0038847	0.00049682	658.1	2.5927e-05	9.4065e-06	1206.4	221.56	2.7027e-05	4.1252e-05	544.46	229.08	89.741	43.983	2.0915e-05	112.95	0.0099981	0.011207	0.0030914	887.87	0.00012226	0.00012365	1291.4	273.89	0.00012171	0.00012524	634.87	242.17	128.19	53.106	0.00012157	115.17	240.857	-8.398	179.212	-51.409	172.927	73.616	-51.617	-46.645	280.228	186.950	-46.825	-43.448	-42.987	-37.964	206.958	-39.603	-8191	255	
28542.428	1	1	0	0	0.46411	0.32475	0.1912	0.31506	0.16652	0.10594	0.3923	0.17279	0.17457	0.11738	0.37186	0.04604	0.21503	0.14487	0.34593	0.32328	-1.2521	-2.2271	-1.3708	-2.125	-1.9	-1.4229	-2.4313	-1.7812	-1.7437	-2.425	-1.3583	-2.2104	-1.9458	-1.3729	-2.2875	-1.7271	118.974	256.123	282.364	240.049	57.505	77.691	214.017	259.414	148.945	31.959	232.313	-50.471	275.842	207.953	-34.793	162.621	0.00027039	0.0022614	0.001113	654.31	5.478e-05	2.9135e-05	1205.5	224.61	3.9913e-05	2.2916e-05	541.79	227.16	90.959	43.481	1.8786e-05	113.81	0.0099292	0.010983	0.0030302	866.76	0.00011629	0.00011775	1271.6	268.53	0.00011349	0.00011469	618.77	238.14	125.3	51.873	0.00011249	113.82	31.291	155.468	-58.691	-51.929	-25.300	145.692	-51.371	-46.815	73.718	15.643	-47.233	-42.852	-42.976	-38.135	130.462	-39.969	-8191	255	
28542.523	1	1	0	0	0.23575	0.16409	0.043168	0.17874	0.30953	0.034626	0.53915	0.19097	0.11298	0.14703	0.15717	0.25762	0.072925	0.13821	0.12307	0.38861	-1.4854	-2.1688	-1.4188	-1.9	-2.0062	-1.5083	-2.2583	-1.9167	-1.6313	-2.2833	-1.7396	-2.1125	-2.2833	-1.6271	-2.2167	-2.0292	213.077	93.873	249.791	-34.805	-52.569	209.886	-63.129	150.582	-21.090	77.452	209.306	291.142	22.358	-57.520	281.817	245.757	0.00030484	0.0036228	0.00020536	653.3	9.4724e-06	5.1168e-05	1216.9	224.69	1.3082e-05	3.9084e-05	540.12	228.38	89.862	43.541	3.0466e-05	112.93	0.0093177	0.010295	0.0028667	855.12	0.00011274	0.0001138	1267.5	268.29	0.00011412	0.0001156	621.72	240.26	125.93	52.437	0.00011725	114.53	207.279	-59.617	-55.983	-51.358	66.327	104.443	-51.215	-47.150	242.295	143.142	-47.256	-43.454	-42.581	-38.217	96.091	-40.165	-8191	255	
28542.645	1	1	0	0	0.19789	0.13295	0.22473	0.067363	0.11065	0.19615	0.17327	0.20963	0.21852	0.32467	0.51775	0.20987	0.17199	0.22821	0.2161	0.32272	-1.2188	-2.325	-1.4646	-1.8708	-2.0979	-1.3354	-2.2333	-1.9479	-1.6167	-2.2854	-1.9896	-1.6812	-2.3208	-1.6271	-2.1688	-2.2333	-47.392	135.169	195.907	270.811	152.334	-7.387	258.115	181.306	187.668	184.596	218.903	258.457	191.131	274.321	291.160	240.767	0.00011613	0.0019091	0.00094448	654.08	1.3664e-05	2.3595e-05	1209.8	223.47	4.4721e-05	2.695e-05	549.19	229.67	92.59	43.874	2.2544e-05	113.7	0.0098715	0.010896	0.0030436	876.85	0.00011918	0.00012078	1285.5	273.28	0.00012069	0.00012185	632.54	242.82	128.53	52.816	0.00012021	115.47	100.088	271.553	253.411	-51.716	-25.432	-4.117	-51.047	-46.034	71.806	253.547	-47.402	-43.135	-42.699	-37.986	-58.087	-40.014	-8191	255	
28542.740	1	1	0	0	0.23487	0.066725	0.095437	0.30659	0.22071	0.13385	0.41354	0.17528	0.35607	0.25615	0.3996	0.025306	0.20387	0.29668	0.04115	0.37806	-1.075	-2.3187	-1.6896	-1.7729	-2.325	-1.3771	-2.1604	-2.2229	-1.4937	-2.3375	-1.8979	-1.8813	-2.3104	-1.5667	-1.9458	-2.2146	135.509	218.942	243.926	262.457	256.895	-20.523	215.520	255.632	121.098	248.176	224.168	114.877	224.796	232.634	87.201	280.995	0.00064153	0.0011357	0.00044013	654.54	2.4398e-05	4.6021e-05	1217	228.03	1.0394e-05	1.4943e-05	549.42	233.67	91.115	43.743	1.3159e-05	115.12	0.0099117	0.010964	0.0030096	879.48	0.00011786	0.00011727	1284.5	272.77	0.00011558	0.00011571	625.48	242.15	126.38	52.222	0.00011319	115.35	200.038	262.354	96.711	-51.360	75.658	251.543	-50.815	-46.645	195.319	167.877	-47.479	-43.578	-42.566	-38.133	113.560	-39.834	-8191	255	
28542.838	1	1	0	0	0.273	0.078731	0.22047	0.15875	0.17636	0.28491	0.25811	0.12038	0.12748	0.30024	0.25096	0.21961	0.25522	0.27287	0.13085	0.37297	-1.0562	-2.1937	-1.8771	-1.6833	-2.2	-1.5667	-1.9562	-2.1562	-1.4667	-2.3479	-2.0625	-1.7083	-2.3396	-1.8375	-1.8583	-2.5396	136.122	118.990	-44.605	233.433	6.920	294.684	240.289	130.143	111.363	-28.951	-17.081	265.909	280.897	-58.332	246.905	269.316	0.00049373	0.0047716	0.001008	666.7	1.2824e-05	2.2201e-05	1212.9	225.46	3.3928e-05	4.8083e-05	542.14	230.58	90.874	43.686	1.8927e-05	114.17	0.0092529	0.0102	0.0028342	859.12	0.00010961	0.00011128	1266.9	266.95	0.00010876	0.00010986	618.18	238.83	124.35	51.744	0.0001117	114.18	167.414	279.861	-14.662	-50.943	289.287	-56.690	-51.543	-46.616	181.810	116.200	-47.836	-43.430	-42.602	-39.813	3.235	-40.265	-8191	255	
28542.934	1	1	0	0	0.13497	0.22663	0.20978	0.31082	0.12051	0.1583	0.27378	0.078732	0.32717	0.046622	0.23467	0.34103	0.21038	0.19192	0.16768	0.22817	-1.0604	-2.1437	-1.8813	-1.5562	-2.4396	-1.6583	-1.85	-2.3083	-1.6896	-2.025	-2.2604	-1.6187	-2.2708	-1.7062	-1.6375	-2.5854	238.575	207.772	290.474	246.702	-19.588	-47.223	237.028	28.628	23.508	140.915	176.901	212.786	-58.167	288.536	277.328	247.855	0.00054176	0.0024547	0.00098989	651.38	1.8656e-05	3.0665e-05	1210.2	224.63	1.3979e-05	2.7309e-05	542.24	227.04	90.135	43.194	2.5367e-05	111.25	0.0092542	0.010246	0.0028795	860.45	0.00011142	0.00011289	1270.9	269.05	0.00011244	0.00011492	620.37	239.38	125.52	52.013	0.00011915	114.17	191.597	39.834	-3.204	-52.191	165.382	76.401	-51.708	-46.632	-23.807	215.803	-47.908	-43.771	-42.549	-38.935	-16.282	-40.524	-8191	255	
28543.027	1	1	0	0	0.20982	0.082139	0.037625	0.10415	0.10277	0.13253	0.45998	0.045295	0.099143	0.03083	0.33816	0.10821	0.1732	0.33551	0.24629	0.3913	-1.0479	-2.0708	-2.0021	-1.5333	-2.1437	-1.8646	-1.8646	-2.325	-1.6812	-1.9646	-2.3042	-1.5292	-2.1562	-1.9583	-1.4729	-2.4979	208.051	220.413	200.521	234.271	80.463	29.756	-47.047	143.628	22.643	247.116	243.630	280.221	239.307	178.425	199.406	264.557	0.0002206	0.0029732	0.00025027	638.11	2.9181e-05	3.8614e-05	1194.3	219.8	1.8259e-05	2.6179e-05	536.18	223.82	88.196	42.674	3.284e-05	110.27	0.0099008	0.011156	0.003128	883.77	0.00012165	0.00012606	1294.6	274.55	0.00012688	0.0001291	639.99	242.99	130.87	53.552	0.00013205	115.37	-21.957	65.669	25.215	-52.113	77.726	48.811	-51.748	-47.851	175.048	-44.557	-47.909	-44.241	-43.080	-39.195	-20.893	-39.769	-8191	255	
28543.123	1	1	0	0	0.084031	0.13828	0.02525	0.094303	0.11216	0.10546	0.086342	0.23252	0.24391	0.39146	0.17281	0.24241	0.098712	0.3873	0.18822	0.12546	-1.1083	-1.8958	-2.0354	-1.675	-2.1	-2.0917	-1.6708	-2.4479	-1.6938	-1.8958	-2.4604	-1.5479	-2.2958	-2.1521	-1.6021	-2.5438	4.112	211.978	41.099	-29.928	134.096	244.316	143.653	5.130	55.987	262.902	-40.570	259.122	-64.911	168.428	248.751	229.083	0.00027994	0.0030648	0.00080252	644.56	2.0512e-05	4.2996e-05	1195.8	218.79	2.7125e-05	5.3152e-05	539.42	223.57	89.156	42.625	2.2137e-05	109.71	0.011004	0.012308	0.0034207	921.03	0.00013298	0.00013651	1315.7	280.08	0.00013382	0.00013717	651.1	245.83	132.93	53.98	0.00013583	115.56	-37.035	239.787	36.320	-51.580	216.730	275.949	-52.124	-47.144	26.821	89.993	-47.522	-43.418	-41.302	-39.175	238.524	-39.533	-8191	255	
28543.244	1	1	0	0	0.36205	0.15377	0.40618	0.31669	0.088612	0.27296	0.11574	0.20006	0.16834	0.24816	0.11183	0.080423	0.037278	0.11261	0.20364	0.24932	-1.375	-1.4813	-2.1854	-1.6479	-2.075	-2.1	-1.6417	-2.4042	-1.6187	-1.5604	-2.4271	-1.6229	-2.2167	-2.1979	-1.5271	-2.5042	89.976	237.382	200.284	280.585	132.218	282.485	223.932	194.206	-10.412	230.682	277.340	-45.380	-15.375	207.679	256.713	222.430	0.00034709	0.00704	0.00068831	639.37	1.8253e-05	1.172e-05	1193.4	217.37	2.9118e-05	2.0336e-05	536.2	224.77	87.527	42.26	4.0169e-05	109.12	0.011094	0.012253	0.003445	910.54	0.00013076	0.00013483	1305	276.58	0.00013036	0.00013404	642.3	243.48	131.44	53.325	0.00013241	114.03	133.308	-40.998	-59.840	-51.899	64.543	97.657	-51.365	-46.771	139.899	180.834	-47.588	-43.080	-41.844	-38.915	158.386	-39.945	-8191	255	
28543.340	1	1	0	0	0.040273	0.26622	0.1702	0.2599	0.18477	0.23139	0.1272	0.12882	0.21058	0.079793	0.14178	0.16095	0.18414	0.269	0.086084	0.33573	-1.5354	-1.4833	-2.3812	-1.5312	-1.8583	-2.1896	-1.6125	-2.2313	-2.0396	-1.6417	-2.4146	-1.8583	-1.8917	-2.1479	-1.6271	-2.2687	85.643	-52.553	157.930	32.434	40.043	278.705	176.843	242.135	-48.241	219.956	-56.978	210.684	163.915	282.030	185.697	265.595	0.00018245	0.0037818	0.0011637	642.91	1.9541e-05	5.2815e-05	1193.9	220.12	1.4965e-05	2.0226e-05	530.72	224.63	87.744	42.479	1.6558e-05	108.54	0.010887	0.012131	0.0033629	901.56	0.00012827	0.0001316	1290.9	274.73	0.00012808	0.00012933	630.32	240.34	129.65	52.532	0.00012744	113.05	240.176	180.962	227.319	-52.066	51.121	144.374	-51.298	-46.200	-4.089	73.576	-47.564	-43.069	-42.661	-37.939	-63.931	-40.093	-8191	255	
28543.438	1	1	0	0	0.052483	0.14097	0.18193	0.22094	0.11903	0.18232	0.3622	0.30138	0.076462	0.067737	0.15037	0.11528	0.12162	0.24264	0.21753	0.11461	-1.5083	-1.6354	-2.3417	-1.8625	-1.7167	-2.3042	-1.5667	-2.25	-2.2396	-1.5104	-2.4604	-1.8833	-1.5896	-2.5125	-1.6354	-2.1375	42.739	57.357	262.172	220.106	88.873	172.168	281.893	231.891	7.458	-50.219	-44.583	252.532	276.408	22.811	279.138	246.324	0.00062841	0.0018069	0.0010703	655.72	1.7493e-05	7.9748e-05	1190.2	217.54	1.335e-05	2.1494e-05	534.51	221.43	88.462	41.815	4.3164e-05	107.35	0.010718	0.011899	0.0033122	903.4	0.00013004	0.00013165	1297.3	275.46	0.00013166	0.00013322	640.12	242.77	131.97	53.231	0.00013445	114.16	190.015	2.629	26.115	-51.976	27.856	43.821	-51.120	-46.918	188.532	197.737	-47.294	-42.939	-41.765	-38.468	264.377	-39.522	-8191	255	
28543.508	1	1	0	0	0.3227	0.33119	0.23317	0.13467	0.18354	0.22406	0.078538	0.13005	0.25547	0.055818	0.10683	0.153	0.33218	0.12922	0.072139	0.35919	-1.8104	-1.5812	-2.2938	-1.875	-1.6854	-2.3333	-1.7	-2.1229	-2.3542	-1.5458	-2.2375	-2.0292	-1.6479	-2.3417	-1.4125	-2.1042	12.084	183.338	196.917	1.092	279.438	-4.556	135.547	-36.780	25.023	-3.486	284.239	210.030	210.115	127.381	54.646	255.319	0.00034958	0.0026733	0.00066504	641.89	6.6352e-06	3.9926e-05	1191.2	216.69	4.9641e-05	1.6563e-05	530.36	218.56	86.774	41.014	1.5217e-05	107.1	0.011281	0.012626	0.0035148	928.88	0.00013917	0.00014167	1327.7	284.06	0.00014325	0.00014564	658.93	247.98	137.97	54.766	0.00014744	115.97	-56.213	43.175	15.119	-51.715	45.529	163.875	-50.965	-45.920	184.935	103.058	-46.842	-42.674	-41.943	-38.406	-23.488	-39.980	-8191	255	
28543.629	1	1	0	0	0.11872	0.33275	0.15737	0.11857	0.15869	0.061036	0.2248	0.13206	0.11479	0.17451	0.31833	0.19975	0.11261	0.055735	0.1443	0.099984	-1.9354	-1.4688	-2.2021	-2.0375	-1.6979	-2.2604	-1.7167	-1.7854	-2.2583	-1.6146	-2.0604	-2.0687	-1.5375	-2.3583	-1.8021	-1.8083	129.830	212.561	173.830	206.822	53.931	260.072	209.901	67.410	289.297	102.098	234.291	243.272	272.968	168.735	239.996	-26.995	0.00032492	0.0040567	0.0010892	639.18	1.6787e-05	3.604e-05	1184.2	217.87	1.4477e-05	1.7254e-05	523.33	218.6	85.281	40.917	1.3811e-05	106.04	0.012212	0.013598	0.0037467	948.4	0.00014352	0.00014376	1323.5	284.38	0.00013985	0.00014035	646.16	242.8	132.91	53.177	0.00013723	113.15	141.372	43.288	204.054	-51.227	34.115	49.425	-51.512	-46.893	217.105	115.496	-47.318	-43.848	-42.627	-38.272	275.655	-39.673	-8191	255	
28543.725	1	1	0	0	0.14636	0.059995	0.070042	0.066551	0.11881	0.047289	0.10527	0.081969	0.10213	0.1014	0.33916	0.30994	0.13138	0.17443	0.063928	0.26098	-1.7938	-1.5562	-2.1125	-2.2083	-1.5354	-2.2521	-2.0812	-1.6688	-2.3438	-1.5479	-2.1604	-2.1771	-1.5042	-2.5042	-1.8917	-1.7437	146.993	114.146	31.723	291.453	18.945	262.436	154.115	293.073	-23.436	254.527	268.528	-23.236	268.077	158.200	262.088	204.890	0.00024459	0.0041843	0.00022771	640.31	1.9124e-05	5.3578e-05	1180.6	214.64	8.9579e-06	4.2975e-05	527.01	218.08	84.618	40.427	2.4636e-05	105.55	0.011341	0.012532	0.0034795	919.64	0.00013539	0.00013794	1310.8	280.34	0.00013694	0.00013863	643.95	241.62	132.8	53.107	0.000138	113	174.636	-27.820	132.807	-51.963	1.006	164.821	-50.646	-46.435	145.225	54.209	-46.861	-43.154	-41.174	-38.439	224.257	-39.060	-8191	255	
28543.820	1	1	0	0	0.18197	0.13469	0.25527	0.13072	0.091611	0.055191	0.22663	0.25906	0.12853	0.070661	0.30132	0.056932	0.15103	0.31607	0.24385	0.21028	-1.8583	-1.6167	-1.9021	-2.1646	-1.3146	-2.3292	-2.0646	-1.5958	-2.3104	-1.6104	-1.9375	-2.4271	-1.5396	-2.1854	-2.0354	-1.5	204.682	187.850	277.858	-42.681	-12.231	61.548	258.649	-6.141	218.181	120.375	293.015	41.047	241.352	63.226	154.630	220.104	0.00025566	0.0078517	0.00060085	645.85	3.9534e-06	3.2025e-05	1167	216.36	3.5589e-05	3.5677e-05	528.08	216.05	86.234	40.853	2.8491e-05	104.98	0.011506	0.012792	0.0035524	928.92	0.00013804	0.0001398	1315.2	280.66	0.00013895	0.00014025	649.33	242.28	133.34	53.496	0.00013895	113.76	222.492	168.702	240.883	-51.243	151.920	31.957	-51.033	-46.400	287.018	69.075	-46.599	-43.477	-42.614	-38.685	164.630	-39.540	-8191	255	
28543.918	1	1	0	0	0.17871	0.1833	0.44544	0.20377	0.18976	0.28867	0.13464	0.2764	0.12794	0.039509	0.179	0.3641	0.38352	0.1745	0.079176	0.22475	-1.7021	-1.5917	-1.8375	-2.3479	-1.3896	-2.225	-2.2062	-1.6187	-2.3187	-1.8917	-1.7437	-2.4458	-1.7792	-2.1521	-2.1458	-1.575	-47.204	200.778	51.728	230.145	240.874	17.605	200.150	228.222	-13.250	-32.385	0.305	287.620	-25.760	-53.858	198.666	214.118	0.00038334	0.0013505	0.00069129	640.67	1.1034e-05	1.4724e-05	1196.7	216.56	2.0682e-05	4.4622e-05	532.51	222.19	86.498	41.659	2.6585e-05	108.08	0.011403	0.012608	0.0035322	923.8	0.00013543	0.0001363	1310.2	279.25	0.00013231	0.00013405	642.33	241.97	131.23	53.149	0.00013289	113.69	181.003	91.153	245.057	-51.870	176.916	30.552	-51.796	-46.146	92.321	79.243	-47.092	-43.351	-41.986	-38.519	101.279	-39.905	-8191	255	
28544.035	1	1	0	0	0.10195	0.050841	0.2414	0.22032	0.20295	0.052284	0.45455	0.18104	0.18687	0.1213	0.08197	0.18928	0.11522	0.23646	0.23549	0.41158	-1.7437	-1.7146	-1.5896	-2.1833	-1.4813	-1.9062	-2.2917	-1.6354	-2.1604	-1.9396	-1.5875	-2.2771	-1.7313	-1.9604	-2.1688	-1.6625	-14.346	256.141	234.034	-49.943	252.612	188.770	250.158	173.565	278.527	158.670	235.485	238.795	222.247	266.514	-19.272	199.066	0.00043518	0.0036321	0.0001903	638.36	4.3347e-05	6.3742e-06	1181	216.95	2.1645e-05	2.0363e-05	532.94	219.81	87.099	41.41	3.2544e-05	106.48	0.010937	0.012277	0.003427	909.61	0.00013279	0.00013415	1305.2	279	0.00013378	0.00013621	645.46	242.98	133.25	53.562	0.00013799	114.06	278.417	-15.607	91.307	-51.003	23.003	229.723	-50.834	-46.666	232.029	-41.187	-47.136	-43.153	-42.509	-38.473	56.213	-39.515	-8191	255	
28544.109	1	1	0	0	0.2823	0.1834	0.25334	0.18027	0.17023	0.13539	0.37742	0.1099	0.023744	0.20923	0.28427	0.22438	0.26085	0.074583	0.19566	0.14034	-1.8563	-1.8979	-1.5292	-2.2604	-1.6333	-1.7563	-2.4333	-1.6583	-2.1521	-2.1521	-1.6146	-2.3333	-1.7146	-1.8917	-2.3792	-1.5417	64.336	251.949	53.445	105.587	208.530	244.801	254.443	-19.204	53.418	84.885	267.763	249.716	-56.697	288.401	253.456	186.013	0.00027192	0.0035244	0.00074455	638.48	7.4091e-06	1.45e-05	1163.2	215.79	1.2203e-05	3.1753e-05	526.22	217.07	86.801	41.143	4.0351e-05	106.61	0.011405	0.012713	0.003519	914.55	0.00013575	0.00013778	1295	278.2	0.00013415	0.00013631	636.7	240.04	131.66	53.071	0.0001333	112.46	84.040	-24.584	211.092	-51.428	215.738	-40.851	-51.544	-45.831	-14.589	186.987	-47.510	-42.764	-42.523	-38.129	240.520	-39.898	-8191	255	
28544.205	1	1	0	0	0.23969	0.19146	0.25155	0.18391	0.19062	0.053546	0.23515	0.3914	0.065637	0.28286	0.30022	0.094663	0.06882	0.19272	0.11897	0.33472	-1.6667	-2.0542	-1.4875	-2.1542	-1.8771	-1.7167	-2.6021	-1.7729	-1.8	-2.0563	-1.3813	-2.2021	-1.7083	-1.7417	-2.3875	-1.6771	186.675	-7.742	18.506	245.463	26.741	239.598	226.800	272.263	173.522	215.859	270.400	174.754	35.174	199.941	279.238	190.587	0.00025676	0.0030278	0.00026323	631.17	1.701e-05	3.5363e-05	1175.7	217.58	1.6366e-05	2.7016e-05	530.14	219.14	86.336	41.375	3.8402e-05	105.98	0.011086	0.012322	0.0034247	900.34	0.00013279	0.00013513	1294.2	276.38	0.00013243	0.0001353	637.32	240.32	131.27	52.859	0.00013224	112.47	-23.659	109.410	29.224	-51.361	145.901	126.609	-51.182	-46.402	196.914	-8.088	-47.480	-43.291	-42.738	-38.643	7.746	-39.815	-8191	255	
28544.324	1	1	0	0	0.15945	0.16968	0.25016	0.35174	0.26866	0.14493	0.094245	0.32917	0.010138	0.15153	0.19198	0.33208	0.067062	0.22258	0.16248	0.29348	-1.425	-2.1042	-1.3708	-2.3937	-2.05	-1.5312	-2.5396	-1.6792	-1.8875	-2.2354	-1.6104	-2.25	-2.0646	-1.7	-2.3229	-1.8833	113.359	98.466	-13.152	-22.990	122.470	163.858	17.175	295.514	283.067	48.593	-55.969	289.713	174.022	-35.289	243.511	221.429	0.00011084	0.0033671	0.0012815	628.54	1.9181e-05	3.455e-05	1171.5	215.22	2.2128e-05	2.0586e-05	528.12	220.29	85.535	41.256	3.6472e-06	106.67	0.011058	0.012293	0.0034105	899.49	0.00013343	0.00013588	1289.5	276.74	0.00013389	0.00013671	639.22	241.79	131.51	53.176	0.00013362	113.31	106.129	94.135	48.204	-52.195	161.957	-37.054	-51.163	-45.959	-48.146	9.680	-47.186	-42.932	-42.946	-37.851	60.352	-40.091	-8191	255	
28544.422	1	1	0	0	0.1257	0.17482	0.19757	0.16073	0.084375	0.20712	0.31176	0.26959	0.15757	0.25281	0.097141	0.097232	0.17754	0.11565	0.096853	0.049251	-1.3917	-2.3792	-1.5063	-2.1792	-2.1167	-1.5625	-2.2604	-1.8604	-1.5958	-2.4813	-1.5521	-2.2104	-2.2562	-1.5021	-2.3187	-1.9104	228.273	108.994	247.885	125.807	295.393	163.240	139.120	209.643	-35.947	112.275	-57.435	211.539	109.827	188.667	261.253	287.227	0.00052019	0.0025838	0.001002	622.49	3.4941e-05	3.3546e-05	1158.2	211.93	1.0666e-05	3.3667e-05	525.83	218.03	86.069	40.701	5.2187e-05	106.23	0.01119	0.012343	0.0034088	894.73	0.00013344	0.00013383	1281.5	273.48	0.00013098	0.0001317	627.97	236.95	128.81	51.912	0.00012823	111.35	226.917	114.398	-26.246	-51.913	63.920	39.558	-51.217	-45.264	-0.102	2.945	-46.683	-42.953	-42.962	-38.568	103.948	-39.197	-8191	255	
28544.518	1	1	0	0	0.12001	0.088921	0.25959	0.22727	0.10441	0.17513	0.15367	0.16986	0.053722	0.13837	0.078641	0.33013	0.036672	0.33487	0.14872	0.20285	-1.1	-2.1771	-1.5438	-2.1063	-1.9458	-1.4688	-2.4708	-1.8646	-1.7437	-2.3688	-1.9	-2.0625	-2.4188	-1.5667	-2.1583	-2.2021	1.933	117.748	163.061	196.101	170.358	-63.813	246.698	207.894	83.307	121.080	0.182	-34.339	94.722	193.035	279.494	267.813	0.00037133	0.0029766	0.00080191	622.62	4.3041e-05	4.2234e-05	1149.7	211.42	3.8874e-05	4.2164e-05	519.71	214.17	83.999	40.406	3.2874e-05	104.44	0.010585	0.011684	0.0032447	872.42	0.00012535	0.00012599	1253.2	266.4	0.00012443	0.00012436	614.4	233.65	125.68	50.763	0.00012394	109.52	231.997	-49.667	-36.674	-51.329	230.522	100.349	-50.900	-46.093	64.113	58.466	-46.429	-43.092	-42.896	-38.260	-0.106	-40.102	-8191	255	
28544.639	1	1	0	0	0.14378	0.38853	0.21498	0.029108	0.13469	0.31727	0.23484	0.11002	0.1638	0.30298	0.18234	0.37366	0.062727	0.36934	0.28631	0.38494	-1.0708	-2.275	-1.5187	-2.0042	-2.4292	-1.4333	-2.3125	-2.2542	-1.525	-2.1917	-1.8333	-1.9688	-2.3104	-1.575	-2.0396	-2.4083	30.480	131.715	282.882	235.955	3.408	206.111	242.436	-34.236	255.545	106.022	292.321	241.883	254.330	261.241	142.212	237.926	0.00063921	0.0050402	0.00049701	611.54	1.1027e-05	4.0916e-05	1144.9	209.52	9.4784e-06	4.6075e-05	513.6	211.43	85.262	39.823	3.7384e-05	104.36	0.010341	0.011433	0.0031866	863.76	0.0001247	0.00012536	1242.2	263.99	0.00012412	0.00012502	612.86	231.04	124.66	50.236	0.00012164	107.97	164.264	255.111	119.766	-51.122	-19.313	135.906	-51.033	-47.404	183.410	278.385	-46.551	-42.727	-41.138	-38.483	20.854	-39.744	-8191	255	
28544.734	1	1	0	0	0.15967	0.16322	0.13261	0.2548	0.12289	0.046703	0.34588	0.20005	0.28624	0.051005	0.09775	0.36583	0.075009	0.13247	0.42956	0.38887	-0.99583	-2.4208	-1.6354	-1.8083	-2.4021	-1.5583	-2.1813	-2.2917	-1.6313	-2.1958	-2.0396	-1.9667	-2.475	-1.7563	-1.8813	-2.35	92.478	-5.437	-40.779	242.270	-53.051	-24.397	-33.565	242.597	108.594	-43.875	149.288	-51.572	11.125	283.682	-54.096	232.807	0.00054137	0.0042506	0.00029587	609.43	2.5116e-05	7.9689e-06	1129.3	210.23	1.3252e-05	3.5296e-05	515.97	215.41	83.395	39.606	5.1764e-05	104.46	0.0099999	0.011118	0.0030976	849.42	0.00012101	0.00012251	1233.3	263.7	0.00012284	0.00012459	609.99	231.95	124.08	50.075	0.00012236	108.49	170.117	13.499	271.392	-50.985	289.006	102.639	-51.271	-46.574	79.404	118.366	-46.874	-43.263	-42.166	-37.957	15.727	-39.595	-8191	255	
28544.805	1	1	0	0	0.16177	0.27643	0.24987	0.070623	0.28922	0.15757	0.29263	0.3154	0.1193	0.29903	0.050404	0.40144	0.14539	0.29493	0.47429	0.3249	-1.15	-2.1042	-1.9625	-1.5583	-2.3146	-1.7042	-2.0792	-2.2792	-1.3958	-2.2542	-2.0125	-1.6979	-2.3646	-1.8813	-1.6313	-2.6396	71.414	-20.629	63.243	249.526	103.417	36.399	243.967	14.360	271.802	173.671	64.738	215.797	166.943	-53.720	-58.408	220.054	0.00022664	0.0012827	0.00088758	614.39	1.968e-05	2.2344e-05	1137	208.3	3.925e-05	2.835e-05	519.44	213.02	84.697	40.107	1.587e-05	104.11	0.010024	0.010993	0.0030755	842.36	0.00011744	0.00011836	1218.1	256.45	0.00011397	0.00011351	590.9	225.87	118.03	48.472	0.00010906	105.75	55.586	273.134	-13.377	-50.884	29.948	92.630	-51.203	-46.420	85.064	62.713	-47.213	-43.068	-41.613	-38.751	42.835	-39.648	-8191	255	
28544.926	1	1	0	0	0.11198	0.13004	0.11389	0.17223	0.28304	0.21502	0.07558	0.13477	0.20819	0.084716	0.13848	0.34778	0.22867	0.14362	0.26646	0.052765	-1.0896	-2.1688	-2.2458	-1.4854	-2.2021	-1.9562	-1.8271	-2.3396	-1.6208	-2.1021	-2.2896	-1.6708	-2.3521	-1.7729	-1.7333	-2.5167	195.487	200.740	97.969	157.090	-8.895	171.800	108.556	205.011	142.832	271.085	200.069	60.621	293.941	234.647	130.831	265.336	0.00044715	0.0033672	0.0016868	615.63	3.4556e-05	1.5295e-05	1125.3	211.79	2.1363e-05	1.9508e-05	506.61	214.4	83.71	40.544	2.8981e-05	103.98	0.0088772	0.0097278	0.0027059	800.78	0.00010344	0.00010554	1181.9	248.52	0.00010326	0.00010485	578.78	223.27	116.15	47.985	0.00010835	105.63	133.831	278.004	-35.093	-51.701	78.745	146.361	-50.813	-46.291	130.932	-19.491	-46.947	-43.131	-41.910	-38.238	217.859	-39.048	-8191	255	
28545.021	1	1	0	0	0.11001	0.084573	0.189	0.3471	0.15399	0.21454	0.12042	0.16643	0.25652	0.1018	0.035387	0.20679	0.24812	0.086623	0.12577	0.43473	-1.2583	-1.9729	-2.075	-1.5979	-2.1562	-1.9583	-1.9312	-2.3812	-1.7563	-1.9417	-2.4313	-1.4312	-2.325	-2.0896	-1.5938	-2.5979	113.140	246.022	-29.285	254.005	203.040	49.942	152.010	229.106	128.999	-47.228	117.424	-59.021	294.449	12.313	-53.535	181.435	0.00042782	0.0025655	0.0003612	598.49	2.4412e-05	1.1607e-05	1122.7	210.48	2.1072e-05	9.0317e-06	502.91	212.91	84.364	39.285	2.1745e-05	104.21	0.0091379	0.010254	0.0028688	813.66	0.00011201	0.00011383	1202	254.5	0.00011331	0.0001158	593.15	226.34	119.9	48.906	0.00011661	106.58	225.143	38.456	95.416	-50.994	47.478	196.510	-51.206	-45.981	209.751	-27.398	-47.184	-42.876	-42.363	-38.606	256.090	-39.532	-8191	255	
28545.117	1	1	0	0	0.25147	0.19605	0.16141	0.12287	0.12059	0.1015	0.38526	0.11527	0.19789	0.054803	0.21496	0.19771	0.12476	0.055707	0.064409	0.40509	-1.0354	-1.8125	-2.1833	-1.5729	-2.1875	-2.0333	-1.5125	-2.2646	-1.85	-1.7271	-2.4229	-1.5271	-2.1271	-2.2271	-1.3937	-2.3187	-2.771	-43.337	238.104	267.728	263.826	10.253	270.042	265.802	235.208	211.087	-43.219	222.202	-63.129	289.848	59.362	245.643	0.00046383	0.0030597	0.00082934	595.54	2.2691e-05	1.77e-05	1116.9	205.71	1.8108e-05	5.3368e-05	511.07	213.75	84.086	40.521	3.8087e-05	105.1	0.009541	0.010662	0.0029633	821.15	0.00011446	0.00011699	1203.4	255.38	0.00011486	0.0001173	597.07	227.61	120.89	49.63	0.00011604	107.59	136.218	280.241	-20.003	-51.815	79.008	256.904	-51.023	-46.475	215.465	-22.763	-47.172	-43.195	-42.270	-38.017	127.228	-39.437	-8191	255	
28545.213	1	1	0	0	0.26501	0.37002	0.075882	0.030665	0.17122	0.38568	0.26135	0.28706	0.45716	0.17475	0.25131	0.16234	0.027555	0.13165	0.11804	0.45726	-1.4833	-1.7917	-2.2354	-1.6042	-2.0812	-2.1729	-1.5792	-2.3854	-2.0312	-1.5521	-2.6	-1.7542	-1.7875	-2.1813	-1.4604	-2.3479	18.839	30.641	80.372	-17.307	-32.628	-3.893	252.388	126.810	220.291	5.657	261.905	7.293	32.130	281.834	224.876	248.234	0.00035681	0.0029011	0.00014049	602.61	2.1672e-05	4.6005e-05	1125.5	210.33	2.6523e-05	6.4467e-05	510.89	214.05	83.567	40.398	4.4767e-05	104.94	0.0095728	0.010668	0.0029894	821.37	0.0001159	0.00011855	1212.3	258.6	0.00011877	0.00012065	601.36	230.65	123.31	50.402	0.0001211	108.55	116.745	25.244	-39.066	-51.512	73.734	24.435	-50.560	-46.263	-40.335	254.733	-46.139	-42.647	-42.146	-38.000	148.496	-39.115	-8191	255	
28545.332	1	1	0	0	0.2317	0.27784	0.14547	0.38416	0.20308	0.15148	0.062378	0.24076	0.17382	0.268	0.072942	0.20692	0.14838	0.27483	0.086109	0.19096	-1.65	-1.2896	-2.4208	-1.5979	-1.9875	-2.3688	-1.5958	-2.2042	-2.1063	-1.5438	-2.3063	-1.9917	-1.8229	-2.3896	-1.3438	-2.25	179.400	46.010	140.640	263.046	185.886	-15.175	137.028	172.952	166.955	85.496	122.396	260.566	212.122	216.861	199.885	169.880	0.00020176	0.0033897	0.00061407	596.67	3.5964e-05	2.2984e-05	1106	206.85	2.1038e-05	2.5646e-05	513.02	211.68	83.469	40.347	1.4074e-05	102.85	0.0099783	0.011033	0.0030776	834.19	0.00011994	0.00012213	1208.1	259.94	0.00012092	0.00012341	604.15	229.14	124.19	50.567	0.00012513	107.97	101.871	-21.582	132.249	-51.056	35.079	287.860	-50.667	-45.670	67.772	95.627	-47.102	-43.069	-42.154	-37.855	201.508	-39.038	-8191	255	
28545.404	1	1	0	0	0.23051	0.20941	0.11034	0.18413	0.094548	0.33568	0.032639	0.079811	0.14789	0.048768	0.19166	0.032354	0.20823	0.25576	0.12725	0.24785	-1.55	-1.4021	-2.3604	-1.7958	-1.5167	-2.3583	-1.6958	-2.1229	-2.1292	-1.5333	-2.1396	-1.925	-1.5604	-2.4521	-1.5896	-2.1083	258.941	-13.602	274.790	177.138	189.781	-33.519	133.094	180.176	69.393	264.991	206.480	-34.970	251.729	-62.455	185.345	262.942	0.00030829	0.0025394	0.00054744	580.87	3.574e-05	2.6604e-05	1104.5	205.08	2.5317e-05	9.0817e-06	506.22	209.07	83.778	39.72	9.1116e-06	102.16	0.010619	0.011734	0.0032551	848.43	0.00012835	0.00013031	1230.6	264.69	0.00013066	0.00013263	615.3	232.34	128.03	51.405	0.00013352	108.92	-24.085	234.990	73.303	-51.977	56.830	264.036	-50.547	-45.370	-40.605	-34.596	-46.446	-42.652	-42.103	-37.810	129.227	-38.901	-8191	255	
28545.502	1	1	0	0	0.034177	0.10741	0.23673	0.46958	0.06819	0.34777	0.11071	0.29578	0.051818	0.18645	0.12496	0.20752	0.097321	0.031598	0.31134	0.20795	-1.8667	-1.3896	-2.1021	-1.7417	-1.4333	-2.4021	-1.7437	-2.0083	-2.1542	-1.7625	-2.2917	-2.2208	-1.6333	-2.2917	-1.8021	-1.9625	120.821	114.195	-31.378	-63.347	28.933	127.705	251.379	-20.998	139.694	26.827	35.028	211.120	24.529	186.478	103.583	219.911	0.00027031	0.0030506	0.00094429	581.47	1.3134e-05	2.4407e-05	1110.7	203.63	4.892e-05	2.7341e-05	508.57	208.83	82.81	39.322	2.3737e-05	102.14	0.011049	0.012308	0.0033906	865.77	0.00013271	0.00013378	1237.2	266.61	0.00013224	0.00013407	620.19	232.99	128.64	51.258	0.00013366	108.91	89.116	236.421	74.118	-50.786	128.749	284.571	-50.670	-46.129	95.136	249.721	-46.536	-42.949	-42.007	-37.632	265.474	-39.160	-8191	255	
28545.598	1	1	0	0	0.10299	0.12218	0.20012	0.097938	0.061886	0.057539	0.2072	0.15889	0.1608	0.29247	0.26934	0.093732	0.3184	0.14697	0.14167	0.33009	-1.8917	-1.3104	-2.0958	-2.2125	-1.4646	-2.4396	-1.9917	-1.8771	-2.4125	-1.4917	-2.0604	-2.25	-1.5854	-2.425	-1.7771	-1.9521	76.771	-33.103	22.093	-20.777	44.102	171.928	81.056	-14.062	90.228	-60.186	208.118	-62.991	-41.472	260.406	219.225	266.550	0.00050443	0.0028964	0.001498	585.46	2.4976e-05	1.7731e-05	1108.9	206.64	2.628e-05	7.9178e-06	511.78	210.99	82.91	39.423	4.3352e-05	102.06	0.011055	0.01223	0.00341	867.94	0.0001329	0.00013544	1249.6	270.81	0.00013496	0.00013678	626.19	235.36	129.94	51.957	0.00013624	109.56	51.326	243.100	-52.719	-50.889	31.839	75.290	-50.361	-46.144	105.465	276.076	-46.912	-43.020	-40.914	-38.539	105.080	-39.422	-8191	255	
28545.719	1	1	0	0	0.18269	0.28447	0.23275	0.24121	0.22774	0.12092	0.49743	0.27442	0.18287	0.12472	0.25734	0.431	0.12801	0.22972	0.20525	0.2993	-1.925	-1.325	-2	-2.2812	-1.5375	-2.3208	-1.9917	-1.6271	-2.2708	-1.6229	-2.125	-2.3146	-1.6917	-2.1312	-1.9312	-1.775	146.039	176.549	266.115	-61.054	15.571	70.022	225.450	2.481	66.835	65.479	284.130	247.092	248.996	217.736	157.893	209.145	0.00063368	0.002238	0.00083686	581.7	1.8489e-05	2.147e-05	1107	205.56	3.5917e-05	2.9848e-05	502.45	209.34	82.886	38.837	2.3286e-05	100.57	0.011207	0.012369	0.0034364	872.62	0.00013348	0.0001342	1241.9	268.38	0.00013213	0.00013406	618.07	232.44	128.73	50.977	0.00013517	108.3	226.112	75.854	289.038	-51.313	20.750	254.977	-51.107	-45.944	25.881	140.214	-46.907	-42.882	-41.977	-38.226	109.527	-39.071	-8191	255	
28545.814	1	1	0	0	0.15707	0.22629	0.093107	0.28759	0.13575	0.086141	0.40719	0.25775	0.029081	0.1753	0.16956	0.30063	0.099917	0.30351	0.25793	0.37344	-2.075	-1.6521	-1.5938	-2.2896	-1.5292	-2.1833	-2.1604	-1.65	-2.3292	-1.6688	-1.9146	-2.4479	-1.4979	-2.2271	-1.975	-1.4188	176.334	277.518	104.196	3.233	55.904	105.968	271.797	-14.391	231.249	235.002	253.669	242.165	276.184	217.014	51.325	268.127	0.00037748	0.0027888	0.0001705	589.59	3.4929e-05	1.7109e-05	1100.1	205.48	3.3408e-05	4.5161e-05	499.8	207.54	82.2	37.931	4.6204e-05	98.969	0.011144	0.012366	0.0034474	869.57	0.00013355	0.00013511	1238.9	267.55	0.00013258	0.00013339	615.94	230.57	128.01	50.693	0.00013613	107.11	201.220	-28.309	97.733	-50.645	283.057	-48.423	-51.137	-45.992	258.251	193.533	-46.400	-42.648	-41.817	-37.164	-53.318	-39.377	-8191	255	
28545.910	1	1	0	0	0.058075	0.12964	0.23769	0.43089	0.3372	0.22511	0.16825	0.31864	0.15094	0.11412	0.29454	0.25503	0.31985	0.092412	0.12028	0.34321	-1.7833	-1.9667	-1.5625	-2.2729	-1.4625	-1.9354	-2.3937	-1.6708	-2.1354	-1.7979	-1.6583	-2.375	-1.65	-1.9708	-2.1	-1.6625	275.224	-41.138	-29.255	167.326	57.597	122.435	229.962	-29.678	95.139	255.323	-54.584	274.641	-46.668	-35.208	43.163	-54.296	6.1191e-05	0.0022515	0.0014024	584.1	2.3587e-05	3.6827e-05	1111.9	205.95	9.0262e-06	2.1013e-05	502.68	208.22	82.453	38.348	8.2766e-06	100.46	0.011088	0.012418	0.003484	873.81	0.00013446	0.00013586	1243.5	267.94	0.00013182	0.00013344	616.65	229.3	126.17	50.255	0.00013187	107	122.441	286.055	-21.796	-50.972	-13.222	273.650	-50.921	-46.089	151.442	163.589	-46.870	-42.281	-42.287	-38.097	21.973	-39.195	-8191	255	
28546.006	1	1	0	0	0.20847	0.12954	0.11762	0.29459	0.23088	0.089262	0.16161	0.080213	0.1161	0.12878	0.32449	0.10384	0.2235	0.35167	0.020653	0.060623	-1.7812	-1.9062	-1.5229	-2.1	-1.575	-1.5729	-2.3521	-1.4562	-2.1146	-1.8458	-1.5521	-2.3812	-1.7188	-1.7417	-2.1542	-1.7917	58.053	75.626	-23.395	286.056	31.781	-39.035	282.048	136.002	10.328	135.326	237.373	196.962	90.857	253.992	240.743	288.497	0.00022474	0.0029139	0.00052318	595.67	7.6282e-06	1.0289e-05	1107.5	207.33	4.1786e-06	3.907e-05	499.74	206.77	81.909	38.713	4.7418e-05	100.88	0.010707	0.012046	0.0033614	868.75	0.00013078	0.00013325	1241.7	267.47	0.00012972	0.00013258	615.14	230.56	126.44	50.584	0.0001311	107.12	164.619	240.717	254.526	-51.204	8.947	282.091	-50.720	-46.518	190.167	1.787	-46.150	-42.631	-41.498	-37.404	128.520	-39.430	-8191	255	
28546.102	1	1	0	0	0.16098	0.23153	0.1825	0.16004	0.23154	0.12856	0.038671	0.082097	0.26086	0.27041	0.097355	0.086388	0.11056	0.19712	0.13325	0.1805	-1.8354	-1.9125	-1.5312	-2.4479	-1.7083	-1.7021	-2.4146	-1.5958	-2.0812	-2.1646	-1.7188	-2.3917	-1.6875	-1.4917	-2.3667	-1.7125	181.065	123.251	21.824	2.628	48.622	115.252	193.264	69.135	49.874	137.214	-39.856	256.046	178.343	223.284	2.155	243.634	0.00056377	0.0056712	0.001007	596.88	2.0815e-05	2.8264e-05	1107.3	206.61	3.0189e-05	4.3582e-05	503.34	207.66	81.862	38.898	4.2343e-05	100.15	0.010672	0.011901	0.0032832	853.17	0.00012664	0.00012799	1225	262.65	0.00012446	0.00012733	605.71	227.04	124.26	49.732	0.00012683	105.76	92.027	106.980	-60.916	-51.261	283.658	131.291	-50.245	-46.262	145.628	67.066	-46.606	-42.584	-42.713	-38.006	152.938	-39.354	-8191	255	
28546.199	1	1	0	0	0.14018	0.11354	0.22954	0.15154	0.17958	0.22448	0.20552	0.16952	0.19965	0.0557	0.20067	0.34525	0.053196	0.32314	0.23912	0.25619	-1.6583	-2.2417	-1.3792	-2.3292	-1.7583	-1.4625	-2.4417	-1.4021	-1.9521	-2.3667	-1.6271	-2.4208	-2.0958	-1.5646	-2.4792	-1.8188	30.619	216.613	166.427	254.771	-44.479	-51.304	257.307	-49.561	65.167	200.429	211.445	288.328	-3.809	257.156	17.849	198.613	0.00069382	0.0018793	0.00078809	588.4	4.4039e-06	1.3117e-05	1115	207.77	2.0926e-05	2.6798e-05	500.13	205.14	80.991	38.466	5.2896e-05	98.534	0.010431	0.011685	0.0032369	850.12	0.00012625	0.00012873	1228.1	262.93	0.00012684	0.00012924	608.55	227.29	125.15	49.935	0.00012817	106.03	55.567	76.362	135.936	-51.399	-11.727	-44.004	-51.216	-46.068	-61.097	102.706	-46.562	-42.606	-42.065	-37.774	-1.057	-39.487	-8191	255	
28546.318	1	1	0	0	0.05254	0.25926	0.15969	0.16546	0.14291	0.27731	0.15029	0.3798	0.28942	0.053357	0.1802	0.29893	0.18158	0.30414	0.26548	0.29909	-1.4417	-2.3771	-1.5	-2.35	-1.7396	-1.4646	-2.5604	-1.6104	-1.5417	-2.2875	-1.6521	-2.2167	-2.075	-1.5	-2.3583	-1.8979	-0.244	-43.656	43.252	17.749	29.514	257.358	277.190	278.442	254.870	274.836	144.342	273.141	238.817	1.068	0.441	-26.876	0.00021859	0.0040009	0.00077095	591.02	3.8033e-05	3.2418e-05	1107.8	206.26	2.6712e-05	1.362e-05	497.37	205.63	82.212	38.26	3.3332e-05	98.438	0.010792	0.012046	0.0033872	865.53	0.00013286	0.00013503	1241.5	267.69	0.0001344	0.00013645	618.47	231.86	128.73	50.827	0.00013634	107.04	158.310	293.814	230.583	-51.359	218.592	34.282	-50.822	-46.107	185.289	-17.343	-46.942	-42.826	-42.357	-37.519	-23.124	-39.080	-8191	255	
28546.414	1	1	0	0	0.17957	0.20805	0.18669	0.077683	0.36377	0.16761	0.026996	0.13106	0.057279	0.069881	0.25347	0.13033	0.12422	0.32208	0.17286	0.098463	-1.3208	-2.2729	-1.3625	-2.0771	-2.1083	-1.4667	-2.2729	-1.9208	-1.7146	-2.3	-1.6667	-2.0792	-2.3375	-1.5312	-2.3312	-2.0062	158.725	-57.841	-30.451	203.657	187.376	175.557	92.992	167.348	206.681	291.672	272.189	231.136	273.100	-63.591	9.858	80.775	0.00012359	0.0013329	0.00035269	594.12	1.3026e-05	1.7521e-05	1119.3	206.54	1.6247e-05	5.0223e-05	506.03	207.03	83.263	38.366	5.5589e-05	98.78	0.011475	0.012784	0.0035702	893.68	0.00013888	0.00014031	1262.4	271.97	0.00013791	0.00013846	625.67	232.44	129.43	51.249	0.0001365	107.57	111.180	-50.345	259.758	-51.029	107.494	182.968	-50.397	-45.952	278.988	75.351	-47.403	-42.536	-42.394	-37.799	226.900	-39.092	-8191	255	
28546.510	1	1	0	0	0.42876	0.46999	0.22943	0.19749	0.21732	0.24305	0.13738	0.1718	0.22892	0.38241	0.07663	0.38173	0.22963	0.20099	0.076107	0.32297	-1.3188	-2.5479	-1.7521	-2.0583	-2.3208	-1.5604	-2.3312	-2.175	-1.4417	-2.3875	-1.8188	-2.0271	-2.4917	-1.6375	-2.1437	-1.9271	73.304	287.622	171.129	218.693	287.918	130.943	180.252	-26.358	30.013	-3.012	207.703	267.407	-47.360	-56.750	246.034	274.790	0.00021868	0.0019494	0.0005631	605.85	9.9764e-06	7.6952e-06	1121	205.81	1.9571e-05	4.7053e-05	491.31	203.24	79.628	38.037	2.4184e-05	97.632	0.011397	0.012649	0.0035728	899.58	0.00013981	0.00014037	1266.2	273.6	0.00013925	0.00014096	626.1	232.47	130.64	51.463	0.00014116	107.34	209.773	266.677	3.269	-50.442	49.921	216.274	-50.307	-46.322	254.914	101.344	-46.497	-42.782	-41.696	-38.535	129.727	-39.265	-8191	255	
28546.605	1	1	0	0	0.044619	0.074408	0.16988	0.058313	0.0084258	0.13942	0.33173	0.16002	0.3139	0.21115	0.15202	0.54366	0.19816	0.15343	0.12981	0.058007	-0.91875	-2.175	-1.6854	-1.7104	-2.5396	-1.4062	-2.0792	-2.0896	-1.4833	-2.2	-1.9896	-1.6458	-2.5104	-1.6458	-1.9104	-2.2917	36.025	-37.158	-4.494	223.145	-29.456	36.799	248.328	268.568	225.698	238.079	224.864	254.936	291.688	-13.843	124.977	-63.615	9.5921e-05	0.0018801	0.00038107	595.23	1.5407e-05	6.8483e-05	1102.9	202	1.6915e-05	1.5761e-05	490.74	199.78	79.63	37.138	1.8694e-05	97.022	0.011822	0.013072	0.0036514	904.29	0.00014304	0.0001435	1259.1	273.42	0.00014214	0.00014271	627.25	230.9	130.08	51.158	0.000143	106.9	80.044	-53.259	26.543	-51.252	239.726	68.453	-50.655	-46.237	197.364	188.610	-46.704	-42.913	-41.861	-38.005	-41.291	-39.205	-8191	255	
28546.701	1	1	0	0	0.1604	0.11857	0.27112	0.20267	0.084705	0.18901	0.15892	0.10951	0.28298	0.16244	0.16465	0.31799	0.26071	0.2522	0.15096	0.14398	-1.3125	-2.1937	-1.9604	-1.4833	-2.4271	-1.6688	-1.9521	-2.1958	-1.5708	-2.075	-2.1042	-1.6917	-2.2958	-1.675	-1.5792	-2.4667	141.965	244.612	127.951	224.922	134.088	185.104	256.201	164.089	294.566	-42.067	193.322	289.208	32.605	293.023	290.431	14.584	0.00060903	0.0055992	0.00097877	584.2	2.2945e-05	1.8604e-05	1097	200.75	8.4648e-06	2.6989e-05	492.78	204.62	80.082	37.555	1.9293e-05	97.111	0.011891	0.013179	0.0036558	896.51	0.00014042	0.0001423	1255.5	271.94	0.000139	0.00013946	620.93	229.9	127.7	50.337	0.00013571	105.66	136.325	78.424	170.271	-51.058	13.252	-2.857	-50.711	-45.780	68.998	215.805	-47.043	-42.629	-42.623	-37.979	0.617	-38.777	-8191	255	
28546.799	1	1	0	0	0.16579	0.17634	0.17366	0.10326	0.30043	0.25578	0.28078	0.15368	0.21937	0.13798	0.077249	0.041904	0.35455	0.47925	0.15675	0.26775	-1.0958	-2.0583	-1.9417	-1.5542	-2.2313	-1.6125	-1.9292	-2.3417	-1.4438	-2.1208	-2.1354	-1.6812	-2.3187	-1.6833	-1.6604	-2.425	136.401	12.011	24.571	152.351	-5.387	267.951	281.525	255.170	121.867	-15.905	195.076	253.245	-62.462	249.997	199.470	250.000	0.00086297	0.0026358	0.00050788	594.99	1.474e-05	3.399e-05	1109.6	206.84	1.9352e-05	2.2508e-05	498.09	205.25	80.809	38.768	4.8429e-06	98.092	0.011044	0.012234	0.0034318	876.94	0.000132	0.00013363	1241.9	268.65	0.00013154	0.00013364	614.97	229.1	125.61	50.122	0.00013074	105.56	196.310	236.077	-46.082	-51.020	95.801	109.199	-51.494	-46.393	87.548	265.378	-46.814	-42.755	-41.199	-37.399	98.710	-39.232	-8191	255	
28546.895	1	1	0	0	0.13959	0.17535	0.097322	0.19015	0.12276	0.077415	0.13891	0.18452	0.10142	0.090026	0.10843	0.096237	0.16511	0.16248	0.27369	0.26708	-0.95625	-2.2417	-2.1146	-1.4875	-2.3583	-1.8104	-1.6417	-2.3583	-1.6458	-1.8979	-2.3979	-1.6	-2.3438	-2.0021	-1.6854	-2.4292	-52.367	-29.992	185.312	236.252	107.050	16.878	229.868	205.636	191.949	101.720	193.821	-34.765	239.701	267.102	226.665	225.086	0.00017806	0.0035261	0.00091881	594.98	2.81e-05	5.2802e-05	1120.4	206.29	2.9586e-05	7.727e-06	499.04	207.36	81.378	38.548	2.2315e-05	98.099	0.01059	0.011794	0.0032852	860.19	0.00012553	0.00012826	1231.4	262.57	0.00012549	0.00012681	603.68	225.59	122.7	49.366	0.00012341	104.01	48.945	42.668	44.633	-51.199	-55.319	267.994	-50.947	-46.137	-6.241	274.405	-47.330	-42.908	-41.709	-37.693	-14.138	-39.699	-8191	255	
28547.016	1	1	0	0	0.10448	0.23175	0.26116	0.22163	0.12679	0.14268	0.20349	0.10204	0.24875	0.33017	0.14285	0.052089	0.10164	0.15428	0.10203	0.2187	-1.2083	-1.8125	-2.2167	-1.4458	-2.3521	-2.0125	-1.6521	-2.3167	-1.6229	-1.8271	-2.4208	-1.6021	-2.1667	-2.1646	-1.5021	-2.5646	-39.670	33.238	-29.506	-45.459	182.265	29.099	201.457	241.661	12.395	-35.875	253.207	244.148	293.395	39.005	-6.437	251.776	0.00041251	0.00021375	0.00052488	598.35	4.8525e-05	2.5284e-05	1108.5	205.3	8.749e-06	3.044e-05	503.03	205.33	82.464	38.404	1.9555e-05	98.778	0.010141	0.011263	0.0031299	845.74	0.00012142	0.00012313	1217.4	258.77	0.00012138	0.0001235	597.91	224.27	121.52	48.897	0.00012092	103.55	233.971	229.350	216.307	-50.774	17.980	27.952	-51.322	-46.188	277.109	-17.841	-46.772	-42.606	-41.382	-38.107	-23.305	-39.215	-8191	255	
28547.109	1	1	0	0	0.30918	0.12049	0.18976	0.27367	0.1324	0.22448	0.24244	0.18299	0.1973	0.057879	0.066038	0.26168	0.031405	0.071192	0.31782	0.13968	-1.3229	-1.7521	-2.1792	-1.2646	-2.0062	-2.2104	-1.4771	-2.3208	-1.75	-1.5271	-2.3146	-1.5979	-1.9438	-2.15	-1.2313	-2.3167	78.040	97.510	5.516	210.476	197.343	98.394	197.155	243.735	121.617	49.974	-59.525	278.820	164.996	283.312	103.037	-59.973	0.00052793	0.0017913	0.00057164	608.01	3.9611e-05	2.257e-05	1111.4	209.48	1.8045e-05	4.6975e-06	503.68	208.31	81.89	39.165	2.6615e-05	99.919	0.0098501	0.01092	0.0030306	830.56	0.00011619	0.00011821	1202.7	256.35	0.00011608	0.00011729	590.98	222.37	119.62	48.721	0.00011567	103.8	135.558	87.037	187.503	-51.294	45.256	48.436	-51.103	-45.970	85.760	254.196	-46.443	-42.669	-41.299	-37.887	156.222	-39.242	-8191	255	
28547.205	1	1	0	0	0.15009	0.42381	0.12592	0.2449	0.21046	0.23528	0.14714	0.021274	0.092503	0.26707	0.20969	0.29419	0.23956	0.19931	0.12487	0.34538	-1.3771	-1.5167	-2.3125	-1.5083	-1.8917	-2.2812	-1.5292	-2.2417	-1.9604	-1.4625	-2.45	-1.9146	-1.9167	-2.3312	-1.2333	-2.2042	175.837	279.725	194.124	246.565	153.231	79.686	165.305	67.948	277.729	281.242	117.305	220.457	130.989	251.885	129.721	295.447	0.0004773	0.0019894	0.00096135	605.43	1.9569e-05	3.8997e-05	1129.4	208.73	1.7938e-05	2.3689e-05	506.55	208.74	83.739	39.407	3.6642e-05	99.994	0.0095843	0.010681	0.0029499	829.72	0.00011492	0.00011699	1203.9	257.38	0.00011528	0.0001173	593.11	223.19	120.98	49.039	0.00011843	104.71	81.217	275.630	280.099	-51.110	222.640	233.786	-51.120	-46.027	51.158	189.050	-46.435	-42.933	-41.967	-38.343	-48.816	-39.149	-8191	255	
28547.279	1	1	0	0	0.24492	0.1253	0.30471	0.21765	0.27463	0.2713	0.3216	0.14291	0.28612	0.1512	0.393	0.25524	0.17	0.34263	0.21527	0.20505	-1.3875	-1.3229	-2.1875	-1.7375	-1.7104	-2.3875	-1.6104	-2.0833	-2.05	-1.4833	-2.5125	-1.9542	-1.7979	-2.3917	-1.2125	-2.0667	47.338	-22.736	189.154	202.492	166.464	243.078	240.413	0.629	115.005	130.363	263.583	268.020	12.969	-5.850	225.841	-32.311	0.00094798	0.001973	0.00054877	605.49	1.1977e-05	1.9979e-05	1122.5	210.08	1.465e-05	3.6536e-05	504.95	205.4	83.245	38.561	3.3695e-05	98.749	0.0098778	0.011071	0.0030727	847.64	0.00012166	0.00012371	1221.2	262.99	0.00012396	0.00012528	601.26	226.07	124.18	49.604	0.00012456	104.49	164.954	4.013	-53.865	-52.130	54.461	183.991	-51.101	-46.467	-56.184	49.562	-46.387	-43.221	-41.619	-38.439	255.180	-38.977	-8191	255	
28547.398	1	1	0	0	0.15756	0.0564	0.19944	0.070308	0.23812	0.048777	0.11198	0.23518	0.19682	0.26457	0.25613	0.5277	0.35772	0.078189	0.21708	0.32863	-1.7792	-1.4792	-2.2125	-1.8312	-1.4688	-2.3417	-1.8438	-1.8854	-1.9979	-1.6333	-2.5354	-2.0438	-1.6854	-2.1271	-1.7521	-1.8	157.518	98.988	183.274	-4.104	251.168	175.462	287.759	244.390	143.609	276.819	200.228	279.689	-45.701	178.864	66.362	288.079	0.0001611	0.00010983	0.00036067	609.75	1.6766e-05	4.2622e-05	1110.8	206.73	7.3598e-06	1.9477e-05	493.08	202.84	80.762	38.162	1.5369e-05	97.596	0.010373	0.011449	0.003159	851.06	0.00012269	0.00012516	1213.4	260.1	0.00012311	0.00012424	596.5	223.08	122.76	49.041	0.00012511	103.56	118.624	39.159	72.108	-52.476	186.756	215.550	-50.971	-46.181	104.928	210.737	-46.881	-42.940	-42.132	-37.532	183.365	-39.203	-8191	255	
28547.494	1	1	0	0	0.16975	0.10932	0.064363	0.10636	0.012478	0.36321	0.15542	0.34015	0.17715	0.1391	0.13216	0.17424	0.12457	0.078675	0.049602	0.17441	-1.7938	-1.3208	-2.1562	-2.1562	-1.6333	-2.1937	-1.7542	-1.7062	-2.1917	-1.4229	-2.2562	-2.175	-1.475	-2.2354	-1.6917	-1.8917	148.058	14.546	-21.540	232.538	-52.457	200.524	188.861	289.885	212.420	-10.954	265.868	-23.895	250.608	269.708	244.748	89.747	0.00057031	0.0036329	0.00097928	598.71	1.5568e-05	1.2643e-05	1113.4	205.77	3.8724e-05	1.8754e-05	498.3	201.75	80.453	37.69	3.9093e-05	96.562	0.010381	0.01156	0.0031958	851.74	0.0001252	0.00012611	1218.9	263.47	0.0001276	0.00012931	605	226.46	125.21	49.701	0.000132	104.6	54.343	281.539	-9.658	-51.202	30.754	138.357	-50.994	-46.130	176.577	257.758	-46.441	-42.555	-41.930	-37.618	193.288	-39.794	-8191	255	
28547.590	1	1	0	0	0.05186	0.25214	0.059029	0.11489	0.23433	0.10186	0.29286	0.27965	0.14407	0.063613	0.21428	0.23825	0.20483	0.34296	0.2634	0.38278	-1.9667	-1.6083	-2.0438	-2.0375	-1.4771	-2.4729	-1.9083	-1.6771	-2.1979	-1.4688	-1.9312	-2.4562	-1.5104	-2.2458	-1.8479	-1.6042	287.237	285.780	26.265	-59.036	-53.694	35.828	238.942	-62.546	120.595	278.617	282.652	-44.549	191.335	17.156	210.951	175.124	0.00024405	0.0026238	0.00080789	599.21	4.5418e-05	2.979e-05	1098.6	201.75	8.2825e-06	3.8355e-05	494.08	200.83	81.651	38.04	3.229e-05	96.957	0.01107	0.01225	0.0034182	877.97	0.00013444	0.00013564	1241.1	267.55	0.00013379	0.00013506	612.85	227.37	125.93	49.971	0.00013441	104.85	18.239	45.000	271.043	-51.646	283.964	55.862	-50.965	-45.933	39.116	28.215	-47.249	-42.773	-42.276	-38.220	55.579	-39.588	-8191	255	
28547.686	1	1	0	0	0.24973	0.14296	0.094948	0.17047	0.091551	0.066236	0.3542	0.17225	0.28891	0.032554	0.057757	0.12097	0.11933	0.19562	0.19406	0.34223	-2.0146	-1.5792	-1.8875	-2.4146	-1.4958	-2.4125	-1.9396	-1.6187	-2.2354	-1.7021	-1.9937	-2.4708	-1.6021	-2.2458	-1.9917	-1.8479	175.731	201.367	82.571	-22.618	-18.389	-3.591	164.814	243.232	294.327	277.688	262.973	-15.383	12.994	287.763	134.878	249.143	0.0005505	0.0036234	0.0012353	591.19	3.4947e-05	2.9191e-05	1089.4	201.63	1.6329e-05	4.6173e-05	494.86	201.09	79.958	37.277	3.4409e-05	95.017	0.011059	0.012271	0.0034271	871.54	0.00013301	0.00013374	1233.2	266.73	0.00013191	0.00013524	612.79	226.35	126.12	49.954	0.00013573	104.15	82.774	0.725	152.024	-51.316	23.192	166.951	-51.065	-46.328	116.461	143.773	-47.126	-43.699	-42.653	-37.647	123.000	-39.301	-8191	255	
28547.807	1	1	0	0	0.13146	0.084236	0.13689	0.0065579	0.17185	0.091877	0.15318	0.021768	0.076589	0.10155	0.13953	0.41667	0.091398	0.15813	0.12835	0.14783	-1.9958	-1.7313	-1.8125	-2.3271	-1.4104	-2.0458	-2.2479	-1.6104	-2.2479	-1.8667	-1.7229	-2.4313	-1.5896	-2.2625	-2.1813	-1.6854	118.497	180.433	132.293	27.836	13.708	295.283	-2.956	63.404	77.037	-42.107	274.629	258.921	254.106	269.783	191.981	229.724	0.00020743	0.0063915	0.0004191	585.46	2.7742e-05	2.8328e-05	1091	201.33	1.4155e-05	5.3304e-05	488.82	197.65	80.133	36.475	3.7737e-05	94.873	0.011185	0.012474	0.0034824	879.22	0.00013447	0.00013644	1233.4	266.22	0.00013457	0.00013776	615.57	225.16	127.26	49.975	0.0001392	104.08	264.012	82.434	-55.483	-50.961	101.183	69.925	-51.065	-45.831	234.272	285.671	-46.826	-43.165	-41.404	-38.449	42.440	-39.653	-8191	255	
28547.902	1	1	0	0	0.19097	0.092225	0.13575	0.022375	0.12792	0.25681	0.1221	0.29644	0.087602	0.17948	0.14285	0.11658	0.15991	0.14136	0.31156	0.10744	-1.9583	-1.8583	-1.6167	-2.3292	-1.6063	-1.7938	-2.3979	-1.6875	-2.2687	-1.9062	-1.7271	-2.4917	-1.6729	-1.9708	-2.3563	-1.7062	132.895	146.880	-10.937	255.113	96.123	68.100	159.234	-58.515	36.037	248.703	208.275	-2.486	150.841	93.783	-11.765	-38.430	0.00047324	0.0031779	0.0004947	580.04	2.6981e-05	4.7635e-05	1082.6	196.54	6.6852e-06	4.0101e-05	483.69	195.08	77.904	36.054	1.3174e-05	93.432	0.011464	0.012937	0.0036046	889.28	0.0001411	0.00014294	1244.9	269.8	0.00014209	0.00014634	624.2	228.24	130.76	51.073	0.00014841	105.39	157.738	89.143	79.547	-52.002	237.074	77.838	-51.337	-45.927	152.000	102.586	-47.426	-43.036	-41.667	-37.773	156.909	-39.784	-8191	255	
28547.998	1	1	0	0	0.1803	0.11824	0.10766	0.033073	0.24532	0.23176	0.16169	0.49041	0.13447	0.2898	0.23199	0.1798	0.083061	0.22669	0.050893	0.23145	-1.8333	-2.0083	-1.7479	-2.3792	-1.5708	-1.8271	-2.3604	-1.8438	-2.0417	-2.1146	-1.4917	-2.3917	-1.8521	-1.8438	-2.2854	-1.7292	207.331	12.488	256.465	200.509	-7.329	254.148	-60.514	174.414	173.054	172.551	224.362	-54.234	62.804	291.162	8.908	225.300	0.00026114	0.0037082	0.00051203	582.51	1.866e-05	2.9159e-05	1093.9	198.07	1.5716e-05	3.0666e-05	485.26	198.93	79.046	36.505	9.3156e-06	94.114	0.012329	0.013806	0.0038615	915.95	0.00015141	0.00015452	1278.2	277.15	0.00015323	0.00015703	639.16	234.95	134.67	52.385	0.00015414	107.01	263.875	155.100	-28.146	-51.494	208.594	218.653	-51.436	-45.826	68.919	66.493	-46.924	-43.157	-42.596	-38.326	-8.192	-39.222	-8191	255	
28548.094	1	1	0	0	0.08023	0.061738	0.095535	0.19787	0.30702	0.10679	0.11668	0.14401	0.28684	0.024114	0.29546	0.14831	0.19228	0.39287	0.036321	0.24085	-1.8229	-2.1458	-1.5104	-2.4229	-1.8687	-1.7229	-2.5187	-1.5583	-1.9062	-2.3396	-1.4521	-2.3812	-1.9792	-1.5771	-2.3104	-1.7812	119.214	205.955	121.633	-56.744	77.535	8.050	224.285	-29.157	122.535	-48.334	247.392	-43.147	11.335	-11.915	211.807	280.440	0.00059707	0.0076093	0.0010663	577.89	3.0688e-05	1.652e-05	1082.7	199.96	4.0204e-06	3.4248e-05	486.05	200.43	79.342	37.182	3.4212e-05	95.991	0.012575	0.013971	0.003884	912.54	0.000149	0.00015087	1263.7	275.67	0.00014552	0.00014862	627.38	230.68	130.8	51.274	0.00014185	105.77	47.101	118.049	30.742	-50.881	16.121	252.986	-51.472	-45.591	133.968	219.180	-46.962	-43.126	-42.090	-37.489	163.098	-39.496	-8191	255	
28548.189	1	1	0	0	0.19236	0.092624	0.17635	0.16538	0.17392	0.19529	0.22348	0.26512	0.15382	0.22976	0.1784	0.2812	0.2748	0.14699	0.13238	0.17316	-1.5396	-2.2146	-1.4125	-2.3688	-1.8021	-1.6354	-2.5812	-1.5833	-1.8917	-2.2625	-1.6	-2.4875	-2.1792	-1.4979	-2.2104	-1.8021	157.447	24.898	21.379	-63.758	22.125	285.630	250.655	-33.716	261.514	-41.296	206.608	200.246	-60.332	198.847	263.553	186.633	0.00019755	0.0015502	0.00062795	580.82	3.1564e-05	2.1934e-05	1079.9	202.2	2.056e-05	2.8545e-05	487.76	201.98	79.9	37.565	2.4279e-05	95.574	0.011702	0.012994	0.0035941	880.72	0.00013862	0.00014093	1234.5	268.54	0.0001374	0.00013919	613.51	227.04	127.48	50.328	0.00013578	104.69	237.146	162.230	57.241	-51.538	168.301	19.479	-51.164	-46.742	136.338	74.772	-46.708	-42.935	-42.136	-38.063	146.422	-39.694	-8191	255	
28548.285	1	1	0	0	0.20941	0.33933	0.038041	0.19317	0.22912	0.079609	0.27931	0.192	0.13396	0.217	0.36842	0.16346	0.32784	0.13869	0.37687	0.21581	-1.4271	-2.2146	-1.4708	-2.1083	-2.1417	-1.3521	-2.4125	-1.8875	-1.7313	-2.4146	-1.5625	-2.0792	-2.1937	-1.4354	-2.3125	-1.975	292.183	8.979	77.307	243.958	43.643	17.196	267.460	108.750	45.879	237.926	-60.355	256.469	261.011	183.956	90.674	227.590	0.00031813	0.0041127	0.0010239	582.94	4.3378e-05	4.8655e-05	1089.6	201.34	2.6591e-05	4.2718e-05	489.63	201.89	79.306	37.512	3.3437e-05	95.261	0.011254	0.012499	0.0034442	863.05	0.00013494	0.00013702	1227.4	265.74	0.00013344	0.00013558	611.77	226.72	126.78	50.062	0.00013488	104.84	89.220	-6.980	-2.456	-51.275	115.041	74.803	-50.475	-46.357	126.302	31.857	-46.568	-42.668	-42.465	-37.596	16.857	-39.358	-8191	255	
28548.406	1	1	0	0	0.078058	0.087007	0.076058	0.12917	0.1684	0.32397	0.091687	0.20824	0.047932	0.049357	0.35991	0.17511	0.022117	0.22751	0.30667	0.25579	-1.1833	-2.2438	-1.5917	-1.9646	-2.2979	-1.5375	-2.2208	-2.0438	-1.6979	-2.3771	-1.7437	-2.025	-2.3167	-1.7	-2.0896	-2.2167	130.452	266.274	35.298	42.979	96.310	169.287	24.188	230.683	252.121	145.320	252.463	214.291	57.620	-21.357	274.235	260.465	0.0001526	0.0038128	0.00087877	582.18	4.2161e-05	4.9321e-05	1099.2	203.42	3.6767e-05	1.2905e-05	494.62	202.84	80.441	38.205	5.523e-05	96.992	0.011266	0.012467	0.003473	873.73	0.00013692	0.00013838	1237.6	269.83	0.00013743	0.00013914	618.35	229.48	128.77	50.999	0.00013832	106.04	288.802	31.375	192.181	-51.169	192.665	189.179	-51.223	-46.778	56.769	93.685	-47.065	-42.579	-42.134	-38.479	282.552	-39.688	-8191	255	
28548.504	1	1	0	0	0.17491	0.13085	0.222	0.13142	0.14947	0.14558	0.096314	0.15585	0.054473	0.16813	0.13064	0.3072	0.33732	0.27935	0.24301	0.36216	-1	-2.2229	-1.6375	-1.9125	-2.2292	-1.3958	-2.1583	-2.1042	-1.4833	-2.3396	-1.9875	-1.8271	-2.2896	-1.5875	-2.0833	-2.3604	246.171	190.079	125.736	101.646	242.845	-1.860	206.682	-45.930	264.328	-61.991	-28.227	274.457	164.937	252.401	85.017	234.867	0.00055659	0.0025971	0.00096457	587.24	4.7095e-05	1.5744e-05	1079.7	203.18	2.0676e-05	5.2484e-05	495.83	202.94	81.505	37.928	2.4426e-05	96.868	0.011627	0.012869	0.0035962	893.43	0.00014145	0.00014333	1252.6	276.28	0.00014501	0.0001467	632	234.3	133.22	52.259	0.00014608	107.74	178.561	158.718	-33.765	-52.110	273.180	195.852	-51.051	-46.196	-9.289	-59.401	-46.511	-42.567	-42.202	-38.260	6.956	-39.494	-8191	255	
#DATA ENDS
