BOXY.EXE: ISS Imagent and Oximeter Data Acquisition Program Version 0.80
Ascii Record File

#ACQ INFORMATION
2  Detector Channels 
16  External MUX Channels 
1  Auxiliary Channels 
5000  Waveform (CCF) Frequency (Hz)
1  Waveforms Skipped 
30  Waveforms Averaged 
1  Cycles Averaged 
16  Acquisitions per Waveform 
10.0806  Updata Rate (Hz) 

#FILE INFORMATION
TRUE -- External MUX Channel results are PARSED.
FALSE -- AC DC and Phase are NOT grouped.
TRUE -- Companion Program Settings File CREATED.
FALSE -- AC data not excluded
FALSE -- DC data not excluded
FALSE -- Phase data not excluded
FALSE -- Auxillary Chn. data not excluded
Tab delimiters

#CALIBRATION STATE
TRUE -- Waveform Calibration Values APPLIED.


#AUX CALIBRATION VALUES
Val Type	aux-1	

Term	1.0000e+00	
Factor	0.0000e+00	


#WF CALIBRATION VALUES
A = Detector Channel
Val Type	A-AC1	A-AC2	A-AC3	A-AC4	A-AC5	A-AC6	A-AC7	A-AC8	A-AC9	A-AC10	A-AC11	A-AC12	A-AC13	A-AC14	A-AC15	A-AC16	A-DC1	A-DC2	A-DC3	A-DC4	A-DC5	A-DC6	A-DC7	A-DC8	A-DC9	A-DC10	A-DC11	A-DC12	A-DC13	A-DC14	A-DC15	A-DC16	A-Ph1	A-Ph2	A-Ph3	A-Ph4	A-Ph5	A-Ph6	A-Ph7	A-Ph8	A-Ph9	A-Ph10	A-Ph11	A-Ph12	A-Ph13	A-Ph14	A-Ph15	A-Ph16	

Term	0.00000e+00	0.00000e+00	0.00000e+00	0.00000e+00	0.00000e+00	0.00000e+00	0.00000e+00	0.00000e+00	0.00000e+00	0.00000e+00	0.00000e+00	0.00000e+00	0.00000e+00	0.00000e+00	0.00000e+00	0.00000e+00	0.00000e+00	0.00000e+00	0.00000e+00	0.00000e+00	0.00000e+00	0.00000e+00	0.00000e+00	0.00000e+00	0.00000e+00	0.00000e+00	0.00000e+00	0.00000e+00	0.00000e+00	0.00000e+00	0.00000e+00	0.00000e+00	0.00000e+00	0.00000e+00	0.00000e+00	0.00000e+00	0.00000e+00	0.00000e+00	0.00000e+00	0.00000e+00	0.00000e+00	0.00000e+00	0.00000e+00	0.00000e+00	0.00000e+00	0.00000e+00	0.00000e+00	0.00000e+00	
Factor	1.00000e+00	1.00000e+00	1.00000e+00	1.00000e+00	1.00000e+00	1.00000e+00	1.00000e+00	1.00000e+00	1.00000e+00	1.00000e+00	1.00000e+00	1.00000e+00	1.00000e+00	1.00000e+00	1.00000e+00	1.00000e+00	1.00000e+00	1.00000e+00	1.00000e+00	1.00000e+00	1.00000e+00	1.00000e+00	1.00000e+00	1.00000e+00	1.00000e+00	1.00000e+00	1.00000e+00	1.00000e+00	1.00000e+00	1.00000e+00	1.00000e+00	1.00000e+00	X	X	X	X	X	X	X	X	X	X	X	X	X	X	X	X	

B = Detector Channel
Val Type	B-AC1	B-AC2	B-AC3	B-AC4	B-AC5	B-AC6	B-AC7	B-AC8	B-AC9	B-AC10	B-AC11	B-AC12	B-AC13	B-AC14	B-AC15	B-AC16	B-DC1	B-DC2	B-DC3	B-DC4	B-DC5	B-DC6	B-DC7	B-DC8	B-DC9	B-DC10	B-DC11	B-DC12	B-DC13	B-DC14	B-DC15	B-DC16	B-Ph1	B-Ph2	B-Ph3	B-Ph4	B-Ph5	B-Ph6	B-Ph7	B-Ph8	B-Ph9	B-Ph10	B-Ph11	B-Ph12	B-Ph13	B-Ph14	B-Ph15	B-Ph16	

Term	0.00000e+00	0.00000e+00	0.00000e+00	0.00000e+00	0.00000e+00	0.00000e+00	0.00000e+00	0.00000e+00	0.00000e+00	0.00000e+00	0.00000e+00	0.00000e+00	0.00000e+00	0.00000e+00	0.00000e+00	0.00000e+00	0.00000e+00	0.00000e+00	0.00000e+00	0.00000e+00	0.00000e+00	0.00000e+00	0.00000e+00	0.00000e+00	0.00000e+00	0.00000e+00	0.00000e+00	0.00000e+00	0.00000e+00	0.00000e+00	0.00000e+00	0.00000e+00	-2.23846e+00	-1.31119e+02	-1.35896e+02	-1.81478e+02	-5.32445e+01	-6.29258e+01	-1.58115e+02	-1.62015e+02	-5.21912e+01	-6.51356e+01	-1.73607e+02	-1.71776e+02	-1.83012e+02	-1.76573e+02	-5.74558e+01	-1.49837e+02	
Factor	3.30459e-05	1.49444e-04	4.39707e-05	1.58432e-01	1.72561e-06	1.36174e-06	1.67435e-01	4.77828e-02	1.66550e-06	1.80684e-06	9.40725e-02	2.82132e-02	5.96618e-02	8.24392e-03	1.74084e-06	1.21984e-02	3.04457e-06	3.32303e-06	9.25805e-07	8.43004e-02	3.58660e-08	3.66680e-08	8.32303e-02	2.54810e-02	3.58404e-08	3.65924e-08	4.79435e-02	1.44760e-02	3.08274e-02	4.42958e-03	3.60998e-08	6.29450e-03	X	X	X	X	X	X	X	X	X	X	X	X	X	X	X	X	



#DISTANCE SETTINGS
A = Detector Channel
A-1	A-2	A-3	A-4	A-5	A-6	A-7	A-8	A-9	A-10	A-11	A-12	A-13	A-14	A-15	A-16	

2.5000e+00	3.0000e+00	2.5000e+00	3.0000e+00	2.0000e+00	3.0000e+00	1.5000e+00	3.0000e+00	3.0000e+00	3.0000e+00	3.0000e+00	3.0000e+00	3.0000e+00	3.0000e+00	1.5000e+00	3.0000e+00	

B = Detector Channel
B-1	B-2	B-3	B-4	B-5	B-6	B-7	B-8	B-9	B-10	B-11	B-12	B-13	B-14	B-15	B-16	

1.0000e+01	1.0000e+01	1.0000e+01	1.4400e+00	1.0000e+01	1.0000e+01	1.5100e+00	1.9400e+00	1.0000e+01	1.0000e+01	1.9900e+00	2.4900e+00	2.4100e+00	2.9000e+00	1.0000e+01	2.9800e+00	




#DATA BEGINS
time	group	step	mark	flag	A-AC1	A-AC2	A-AC3	A-AC4	A-AC5	A-AC6	A-AC7	A-AC8	A-AC9	A-AC10	A-AC11	A-AC12	A-AC13	A-AC14	A-AC15	A-AC16	A-DC1	A-DC2	A-DC3	A-DC4	A-DC5	A-DC6	A-DC7	A-DC8	A-DC9	A-DC10	A-DC11	A-DC12	A-DC13	A-DC14	A-DC15	A-DC16	A-Ph1	A-Ph2	A-Ph3	A-Ph4	A-Ph5	A-Ph6	A-Ph7	A-Ph8	A-Ph9	A-Ph10	A-Ph11	A-Ph12	A-Ph13	A-Ph14	A-Ph15	A-Ph16	B-AC1	B-AC2	B-AC3	B-AC4	B-AC5	B-AC6	B-AC7	B-AC8	B-AC9	B-AC10	B-AC11	B-AC12	B-AC13	B-AC14	B-AC15	B-AC16	B-DC1	B-DC2	B-DC3	B-DC4	B-DC5	B-DC6	B-DC7	B-DC8	B-DC9	B-DC10	B-DC11	B-DC12	B-DC13	B-DC14	B-DC15	B-DC16	B-Ph1	B-Ph2	B-Ph3	B-Ph4	B-Ph5	B-Ph6	B-Ph7	B-Ph8	B-Ph9	B-Ph10	B-Ph11	B-Ph12	B-Ph13	B-Ph14	B-Ph15	B-Ph16	aux-1	digaux	

1872.375	1	1	0	256	0.25141	0.34578	0.05152	0.16972	0.085432	0.12414	0.34249	0.26182	0.18032	0.24847	0.34305	0.13234	0.22278	0.34613	0.081868	0.071611	-1.8167	-1.3854	-2.1063	-2.0854	-1.3	-2.2917	-1.8687	-1.9979	-2.375	-1.3375	-2.1854	-2.1063	-1.4271	-2.6063	-1.3771	-1.8896	-111.189	102.583	134.624	188.365	115.512	-94.301	153.456	87.034	95.184	15.910	97.526	79.927	109.431	169.648	21.954	72.721	0.00091507	0.0011979	0.00018361	1085	6.6832e-06	9.8951e-06	1394	369.09	2.0882e-06	1.6159e-05	465.47	175.29	142.5	57.77	2.5673e-06	75.611	0.00065723	0.00063628	0.00017671	928.64	6.8759e-06	6.88e-06	1184.7	315.33	6.8976e-06	7.0662e-06	399.67	150.21	122.84	50.172	6.9434e-06	65.072	-15.849	-51.690	-121.349	-151.586	-29.884	-42.201	-153.447	-145.376	-59.607	15.841	-148.811	-143.954	-140.199	-135.987	-85.033	-140.645	-8191	255	
1872.472	1	1	0	0	0.16563	0.20777	0.17151	0.112	0.25926	0.16538	0.20359	0.3343	0.14156	0.28672	0.12496	0.089935	0.091024	0.36331	0.31146	0.22605	-2.0687	-1.4	-2.0958	-2.4354	-1.1583	-2.2521	-1.8646	-1.8021	-2.4958	-1.5042	-2.0938	-2.1333	-1.6562	-2.3812	-1.9271	-1.5958	-67.097	65.579	179.727	136.584	-90.430	103.783	74.915	142.826	55.630	166.369	161.944	167.914	44.081	-162.649	-89.406	122.967	0.0011348	0.00070321	0.00027226	1073	1.4093e-05	7.3172e-06	1371.2	366.17	2.322e-06	7.811e-06	462.83	178.24	143.01	58.657	6.0064e-06	76.31	0.00067301	0.00063693	0.00017882	918.82	7.093e-06	7.1169e-06	1171.5	315.11	7.0271e-06	7.1069e-06	398.45	152.22	123.85	50.797	7.0075e-06	65.664	-26.048	-104.789	-139.800	-151.163	8.064	-97.703	-153.219	-145.337	8.544	-65.956	-148.630	-143.772	-141.458	-135.850	-14.900	-140.000	-8191	255	
1872.568	1	1	0	0	0.24048	0.11204	0.1643	0.17823	0.16747	0.22278	0.20337	0.28109	0.25139	0.30285	0.52878	0.20875	0.24227	0.14916	0.041133	0.14457	-1.8167	-1.3396	-1.8083	-2.3	-1.4854	-2.2188	-2.2938	-1.7542	-2.25	-1.3813	-2.0646	-2.4562	-1.4521	-2.2062	-2.0354	-1.6646	25.846	118.685	119.449	151.846	-84.271	-39.689	71.491	-141.517	155.133	57.926	-163.500	36.862	177.134	118.678	89.424	107.570	0.0010622	0.00026484	0.00046746	1059.2	1.4502e-05	6.501e-06	1354.5	366.28	5.8153e-06	7.3034e-06	456.62	175.21	143.27	58.438	5.3124e-06	75.408	0.0006747	0.00066199	0.0001807	910.36	7.0864e-06	7.1335e-06	1157.7	314.17	7.0107e-06	7.1866e-06	393.69	150.52	123.98	50.439	7.0896e-06	64.792	-27.343	187.464	-76.566	-151.715	18.568	-46.351	-153.361	-145.789	73.918	-9.317	-148.303	-143.422	-140.759	-135.966	-51.777	-140.016	-8191	255	
1872.664	1	1	0	0	0.064328	0.37089	0.15856	0.10618	0.18707	0.12639	0.41812	0.26801	0.24306	0.18427	0.34262	0.29036	0.24372	0.27256	0.022406	0.16458	-2.1458	-1.4167	-1.8708	-2.3208	-1.2687	-2.0667	-1.9854	-1.4479	-2.2833	-1.6458	-1.8083	-2.2875	-1.0896	-2.2208	-1.9333	-1.5729	45.367	36.081	40.925	-67.073	52.524	-106.662	105.844	135.798	184.076	45.144	136.865	97.336	120.268	98.944	61.056	103.906	0.0010766	0.0013942	0.00019199	1051.7	9.1787e-06	4.9129e-06	1355.6	365.79	2.1835e-05	5.737e-06	460.67	175.67	143.56	58.304	1.5586e-05	75.008	0.00065979	0.00063992	0.000176	900.35	6.9384e-06	7.0513e-06	1153.8	313.25	6.8407e-06	7.0788e-06	393.82	150.71	123.01	50.565	7.1228e-06	64.914	-31.883	-77.945	-57.844	-151.414	22.819	-36.927	-153.341	-145.676	-85.269	14.526	-148.133	-143.970	-140.193	-135.589	-3.443	-140.152	-8191	255	
1872.760	1	1	0	0	0.24766	0.13221	0.13666	0.22889	0.061873	0.35295	0.28527	0.37316	0.23139	0.082395	0.089512	0.24739	0.1385	0.24936	0.22212	0.20252	-2.0625	-1.7687	-1.6896	-2.375	-1.3896	-2.2271	-2.3937	-1.5771	-2.2729	-1.6354	-1.6708	-2.5667	-1.5229	-2.15	-2.5396	-1.5771	26.624	73.248	-138.965	171.160	-64.772	-76.079	112.529	136.927	-56.855	133.682	40.259	175.183	48.064	134.434	12.125	129.136	0.0011759	0.00091468	0.00016866	1062.8	7.2511e-06	1.0027e-05	1361	363.72	2.9631e-06	1.4057e-05	458.87	175.98	143.64	58.29	1.3996e-05	76.655	0.00067818	0.00064728	0.0001853	910.29	7.1499e-06	7.3363e-06	1164.4	313.02	7.1574e-06	7.3122e-06	393.99	150.5	123.44	50.596	7.2138e-06	65.625	-34.471	-42.539	-113.775	-151.547	24.706	-51.872	-153.872	-145.680	25.057	-15.307	-148.231	-143.869	-140.289	-136.215	42.360	-139.777	-8191	255	
1872.856	1	1	0	0	0.083423	0.1943	0.072817	0.12089	0.20907	0.21707	0.13073	0.084647	0.095249	0.15177	0.33668	0.16367	0.33408	0.33248	0.19885	0.25363	-1.8813	-1.8875	-1.4958	-2.5271	-1.6458	-1.9438	-2.4083	-1.4792	-2.0687	-1.8479	-1.5146	-2.55	-1.6667	-2.2062	-2.3146	-1.5458	-41.283	-99.910	-83.547	-93.531	-0.622	-5.741	167.894	133.615	-84.248	-59.174	142.958	84.456	-93.279	162.771	-105.976	77.386	0.0010834	0.00058026	0.00033969	1057.7	1.2403e-05	4.3971e-06	1371.3	362.91	1.0998e-05	1.1038e-05	459.92	175.09	142.31	58.341	6.0565e-06	75.938	0.00068475	0.00066025	0.00018366	908.03	7.1084e-06	7.2086e-06	1169.4	311.22	7.1837e-06	7.2482e-06	393.32	150.51	122.55	50.463	7.2788e-06	65.435	-33.725	-73.450	-121.523	-151.051	-55.092	-74.131	-153.388	-145.391	-51.746	-36.958	-148.415	-143.651	-140.717	-135.488	-19.346	-140.011	-8191	255	
1872.975	1	1	0	0	0.30777	0.28798	0.12297	0.25848	0.10879	0.19218	0.50805	0.23024	0.11773	0.18725	0.13502	0.23142	0.28581	0.1797	0.23469	0.11139	-1.7625	-2.1458	-1.5833	-2.5812	-1.5083	-1.8937	-2.3958	-1.6	-2.0167	-2.0563	-1.3729	-2.4813	-1.9083	-1.6833	-2.5229	-1.4896	106.625	95.373	37.135	188.747	8.387	-141.978	131.030	-48.170	33.199	-10.654	-23.876	-147.631	-159.593	-52.283	-23.381	43.079	0.001018	0.00056669	0.00022669	1060.3	8.4551e-06	9.793e-06	1356.8	360.98	7.5706e-06	1.2389e-05	453.37	173.24	141.73	57.651	3.2856e-06	74.718	0.00067831	0.00066904	0.00018607	906.93	7.286e-06	7.2661e-06	1161.2	309.67	7.1583e-06	7.3099e-06	389.93	149.1	121.9	49.909	7.5153e-06	64.236	-31.283	-20.293	-126.982	-151.598	-77.670	48.042	-153.335	-145.349	-20.653	-25.674	-148.082	-144.201	-140.100	-135.428	-47.803	-139.926	-8191	255	
1873.071	1	1	0	0	0.2212	0.010234	0.24467	0.080536	0.07712	0.11226	0.3289	0.38585	0.11208	0.1381	0.12389	0.036692	0.18889	0.22958	0.16785	0.3341	-1.6646	-1.9479	-1.4146	-2.3271	-1.8021	-1.5208	-2.5229	-1.6896	-2.0042	-2.1833	-1.525	-2.4083	-1.7708	-1.6688	-2.3146	-1.5167	-148.010	85.602	131.409	-103.003	-8.401	146.369	147.851	167.798	111.944	48.337	69.012	173.386	-11.888	153.164	-32.838	175.229	0.0011166	0.0012165	0.00015447	1067.4	5.6303e-06	1.0722e-05	1370.9	356.01	1.4361e-05	7.915e-07	445.73	170.68	138.33	57.029	1.2235e-05	73.482	0.0007039	0.00068807	0.00019137	913.75	7.6737e-06	7.4235e-06	1169.6	305.89	7.5375e-06	7.6643e-06	385.29	146.48	120	49.277	7.6529e-06	63.507	-20.149	-85.783	-154.196	-151.059	5.780	-51.298	-153.231	-145.717	-11.234	191.881	-148.421	-144.035	-141.259	-135.718	-11.775	-140.135	-8191	255	
1873.167	1	1	0	0	0.36539	0.21299	0.11522	0.105	0.27222	0.15689	0.080909	0.37008	0.28778	0.40797	0.17226	0.29763	0.50025	0.33962	0.05138	0.029544	-1.4792	-2.2812	-1.4604	-2.2542	-2.0187	-1.5375	-2.525	-1.7458	-1.9167	-2.3875	-1.6896	-2.3229	-2.0583	-1.7604	-2.3833	-2.2083	163.741	126.090	-152.519	72.447	-102.482	-140.646	104.216	171.376	67.832	63.302	98.808	-118.405	131.009	-132.962	-55.252	-141.484	0.0011114	0.00051843	0.00033199	1063.5	6.0681e-06	7.257e-06	1381	356.6	5.0962e-06	3.4609e-06	446.3	171.83	140.1	57.073	1.5756e-05	74.184	0.00073134	0.00070233	0.00019516	916.19	7.7577e-06	7.7518e-06	1178.6	306.51	7.9197e-06	7.881e-06	385.62	147.63	120.63	49.507	8.015e-06	64.065	-33.317	-141.454	-51.087	-151.663	-147.857	-31.143	-153.394	-145.760	-70.311	182.129	-148.744	-143.910	-140.232	-135.645	41.099	-140.362	-8191	255	
1873.264	1	1	0	0	0.10853	0.17339	0.22674	0.19818	0.25761	0.11507	0.25303	0.34886	0.13796	0.12067	0.1043	0.3923	0.057977	0.19474	0.23541	0.29831	-1.35	-2.2313	-1.3729	-2.1104	-1.9875	-1.4042	-2.5729	-2.0125	-1.6917	-2.45	-1.7437	-2.2771	-2.2125	-1.5479	-2.1813	-1.8208	-162.645	173.222	177.886	104.793	-16.219	-153.880	129.603	191.965	-40.572	58.189	177.187	151.733	-89.681	177.284	-126.561	166.965	0.00098204	0.00098461	0.00027434	1063.8	6.4427e-06	4.3149e-06	1370	356.89	5.1627e-06	1.019e-05	446.97	170.26	138.65	56.884	4.7497e-07	74.475	0.00073717	0.00072311	0.00020179	914.1	7.8734e-06	8.0103e-06	1176.2	306.52	7.8176e-06	7.929e-06	387.25	147.48	120.72	49.482	7.8735e-06	64.33	-35.972	-128.679	-41.887	-151.202	-70.312	54.665	-153.382	-145.662	101.917	139.208	-148.377	-143.907	-140.299	-135.835	-112.104	-140.166	-8191	255	
1873.360	1	1	0	0	0.12823	0.27062	0.13455	0.39726	0.27034	0.37448	0.053449	0.20381	0.19626	0.10076	0.20829	0.14279	0.26809	0.091724	0.17442	0.21284	-1.3875	-2.4833	-1.3438	-2.1333	-2.1562	-1.3979	-2.4396	-2.0771	-1.3708	-2.4104	-1.7687	-2.0896	-2.3542	-1.525	-2.2417	-2.0208	109.843	138.873	-95.073	139.968	60.825	49.534	112.480	149.077	192.795	50.031	-28.948	195.929	-73.314	32.873	-157.177	139.342	0.0011208	0.00068529	0.00015045	1073.2	8.0507e-06	4.9241e-06	1381	354.74	8.2609e-06	1.2573e-05	441.78	168.7	136.09	55.887	9.6463e-06	72.277	0.00073429	0.00073937	0.00020119	920.51	7.9345e-06	7.9261e-06	1180.4	304.06	8.0243e-06	8.0475e-06	380.86	144.77	118.84	48.578	7.8652e-06	62.318	-25.224	194.970	185.998	-151.112	-14.037	-21.887	-153.928	-145.785	-19.459	-36.501	-148.685	-143.891	-139.937	-135.226	-33.846	-140.422	-8191	255	
1873.456	1	1	0	0	0.02195	0.20508	0.044133	0.2032	0.063369	0.096688	0.20594	0.1582	0.21144	0.19247	0.29221	0.17427	0.15039	0.27836	0.1628	0.14806	-1.1854	-2.2271	-1.6521	-1.8771	-2.2542	-1.3813	-2.25	-2.1896	-1.2479	-2.2521	-1.6	-1.9438	-2.4396	-1.7354	-2.1813	-2.4229	-20.974	131.701	78.580	149.999	-127.526	-126.703	96.067	191.573	-119.145	-28.260	141.297	-6.222	-10.890	183.441	-160.461	174.867	0.0011898	0.00089232	0.00046845	1065.8	9.9255e-06	8.9051e-06	1369.1	349.53	1.258e-05	6.5449e-06	441.53	168.65	135.28	55.894	1.1784e-05	72.221	0.00072806	0.00072212	0.00020632	914.67	7.9778e-06	8.2475e-06	1174.1	301.28	8.1935e-06	8.0471e-06	380.21	144.74	118.26	48.615	8.2641e-06	62.492	-28.149	-103.239	-79.463	-151.184	-60.174	-12.156	-153.231	-145.857	-55.298	-71.263	-148.921	-143.993	-140.631	-135.961	0.493	-139.750	-8191	255	
1873.576	1	1	0	0	0.088747	0.17286	0.13856	0.1565	0.050585	0.086931	0.21358	0.030628	0.097036	0.14086	0.27632	0.17697	0.24291	0.50381	0.16979	0.24357	-1.1229	-2.5792	-1.6104	-1.925	-2.5208	-1.475	-2.2979	-2.2625	-1.2062	-2.1229	-1.8896	-1.4438	-2.4646	-1.5854	-1.9417	-2.2812	15.684	-106.210	12.929	109.169	16.374	170.099	28.403	-23.457	118.154	7.406	144.846	196.109	126.231	140.273	115.881	138.953	0.0011886	0.00051615	0.00038755	1069.8	7.4551e-06	3.0583e-06	1374.7	349.6	1.0099e-05	1.1104e-05	439.9	167.72	137.07	55.926	1.1623e-05	72.814	0.00076166	0.00073255	0.0002216	918.62	8.2084e-06	8.1832e-06	1180.3	301.19	8.0729e-06	7.9734e-06	379.22	144.19	118.37	48.412	8.0392e-06	62.836	-25.605	-121.609	-43.758	-151.218	71.001	-7.891	-153.680	-145.756	-57.037	19.176	-148.485	-143.687	-140.320	-135.749	-43.909	-140.661	-8191	255	
1873.673	1	1	0	0	0.081558	0.29725	0.18033	0.2356	0.066671	0.1049	0.20901	0.13321	0.029135	0.12164	0.2683	0.3191	0.23925	0.077949	0.12759	0.28829	-1.1333	-2.1146	-1.8646	-1.5625	-2.2583	-1.5833	-2.1458	-2.2896	-1.3958	-2.1	-2.0271	-1.5104	-2.5417	-1.8188	-1.7854	-2.3646	-141.727	160.545	49.170	160.422	28.757	121.036	110.020	-163.604	20.796	-160.574	25.416	-161.530	-100.467	131.544	47.231	37.529	0.00097574	0.00088441	0.00017017	1068.3	7.5728e-06	4.4606e-06	1392.3	351.35	1.3078e-05	4.2476e-06	441.6	167.85	136.12	55.973	3.8851e-06	73.382	0.00074815	0.00073703	0.00020288	920.34	7.873e-06	8.1861e-06	1189	301.93	7.9936e-06	8.011e-06	382.21	145.01	118.34	48.582	7.9794e-06	63.446	-29.206	-72.239	-99.151	-150.940	16.744	-84.360	-153.437	-145.875	-54.154	-57.196	-148.726	-143.687	-140.038	-135.255	-31.511	-139.423	-8191	255	
1873.769	1	1	0	0	0.19621	0.18288	0.20517	0.10181	0.021436	0.082159	0.054149	0.3234	0.20114	0.20086	0.11189	0.21866	0.17265	0.22256	0.34734	0.22692	-0.77917	-2.3146	-2.0812	-1.5333	-2.5396	-1.6833	-1.7958	-2.4875	-1.4604	-1.8937	-2.3083	-1.2313	-2.2458	-1.975	-1.5333	-2.4813	-21.412	-23.781	66.663	136.939	58.634	131.561	-12.918	143.504	126.449	-114.229	10.628	142.511	148.681	-133.359	-150.538	89.152	0.0010457	0.0008575	0.00046238	1071.2	1.1883e-05	9.0774e-06	1392.4	348.39	4.5761e-06	1.1403e-05	439.72	166.38	135.98	55.008	1.547e-05	71.792	0.00075793	0.00072947	0.00020358	923.42	7.8092e-06	8.1046e-06	1192.1	300.65	8.0414e-06	7.8919e-06	379.02	142.96	117.4	47.926	8.1382e-06	61.898	-37.719	-117.225	-137.874	-151.547	-7.763	13.491	-153.803	-145.991	15.636	29.338	-149.068	-144.466	-140.876	-136.152	-7.292	-140.109	-8191	255	
1873.865	1	1	0	0	0.11233	0.17961	0.15756	0.31809	0.13873	0.12016	0.20344	0.26119	0.24607	0.13379	0.1493	0.14002	0.16975	0.4019	0.27683	0.24802	-1.1063	-1.9688	-2.0458	-1.4021	-2.3042	-1.8208	-1.8833	-2.6437	-1.5708	-1.9833	-2.3812	-1.5812	-2.2417	-1.925	-1.6854	-2.3917	180.667	-36.767	-149.060	164.378	157.951	-20.130	132.758	140.600	-128.708	-26.380	154.808	154.355	-38.024	179.714	-92.475	157.697	0.0010564	0.0015441	0.00021081	1083.2	4.1331e-06	6.9059e-06	1405.6	344.68	1.3561e-05	5.4625e-06	429.77	163.34	133.31	54.383	8.5495e-06	70.903	0.0007505	0.00071558	0.00020573	931.82	8.1036e-06	8.1673e-06	1199.7	297	8.0713e-06	8.0403e-06	373.39	140.9	115.68	47.286	8.2105e-06	61.134	-22.426	-81.203	-78.047	-151.579	-12.441	97.475	-154.095	-146.035	13.177	-59.282	-149.152	-143.974	-141.017	-136.237	-116.852	-140.511	-8191	255	
1873.959	1	1	0	0	0.32519	0.26475	0.17571	0.1384	0.17703	0.32387	0.25766	0.32599	0.038682	0.14775	0.14784	0.15714	0.1844	0.318	0.070156	0.34776	-1.3042	-1.6833	-2.1292	-1.3521	-2.0542	-1.9021	-1.7083	-2.4229	-1.5979	-1.8188	-2.5271	-1.65	-2.1688	-1.9979	-1.4438	-2.5708	114.136	-105.875	24.441	93.452	-90.650	104.155	-152.242	109.345	-83.091	155.943	147.110	158.327	17.642	181.504	-85.616	160.715	0.0011459	0.00059172	0.00019069	1083.9	7.9039e-06	8.0542e-06	1396.7	346.46	8.3915e-06	9.801e-06	434.27	164.23	133.46	55.257	1.1844e-05	70.801	0.00072235	0.0007443	0.00020268	929.57	7.9679e-06	8.1062e-06	1195.6	297.25	7.8466e-06	8.0917e-06	374.08	141.36	116.23	47.725	8.1094e-06	61.498	-35.739	12.822	103.653	-151.657	45.814	-61.334	-153.983	-146.008	-39.507	-67.224	-148.718	-144.157	-141.137	-136.474	36.712	-140.467	-8191	255	
1874.055	1	1	0	0	0.25079	0.15855	0.31102	0.21751	0.21356	0.28543	0.053523	0.27266	0.19095	0.071709	0.18685	0.054188	0.19055	0.27396	0.20905	0.16029	-1.3354	-1.4688	-2.3833	-1.3229	-2.0771	-1.9021	-1.5729	-2.5146	-1.5562	-1.6958	-2.3187	-1.6458	-1.8604	-2.1771	-1.1917	-2.2792	-59.465	-130.468	-51.072	137.503	145.091	-147.935	152.881	146.006	144.020	168.055	-140.270	-90.756	11.394	176.663	76.448	107.536	0.0010458	0.0011345	0.00011036	1080.6	2.7218e-06	4.2301e-06	1408.8	346.97	3.2014e-06	9.7544e-06	435.52	165.47	133.88	54.979	6.8536e-06	71.571	0.00074382	0.00072711	0.00020636	929.78	7.967e-06	8.1058e-06	1204.9	299.36	7.9418e-06	7.9297e-06	375.44	141.87	115.85	47.699	7.9276e-06	62.165	-23.590	1.083	-132.187	-151.900	-29.162	-92.066	-153.826	-146.055	116.795	-19.320	-148.568	-144.289	-140.888	-136.318	-69.877	-140.679	-8191	255	
1874.152	1	1	0	0	0.17474	0.16342	0.27877	0.36623	0.14431	0.19264	0.31173	0.38277	0.23666	0.2383	0.20782	0.068818	0.24768	0.17291	0.19521	0.4277	-1.3729	-1.5146	-2.4771	-1.5604	-1.8958	-2.3896	-1.5646	-2.4813	-1.6187	-1.5	-2.5729	-1.4625	-1.9271	-2.3792	-1.3729	-2.475	124.239	-133.523	182.104	155.680	55.234	-27.269	146.055	159.986	115.314	-62.774	-144.663	-162.346	79.575	156.478	86.995	118.974	0.0013026	0.00044742	9.5031e-05	1080.4	1.0003e-05	9.3212e-06	1401.2	344.51	8.9767e-06	6.9294e-06	430.03	163.62	132.33	55.127	1.0321e-05	71.097	0.00072751	0.00071402	0.00020151	929.61	7.8417e-06	7.9284e-06	1194.7	297.19	7.9286e-06	7.8729e-06	373.1	140.91	115.4	47.537	8.0106e-06	61.363	-40.672	5.298	142.533	-152.028	45.744	-75.835	-153.996	-145.933	-31.805	35.533	-149.032	-144.135	-140.244	-136.228	18.816	-140.130	-8191	255	
1874.272	1	1	0	0	0.19294	0.17022	0.043292	0.097921	0.20123	0.095255	0.20729	0.047599	0.11099	0.12001	0.12313	0.27291	0.12633	0.22173	0.040882	0.26628	-1.35	-1.4083	-2.3708	-1.7583	-1.7563	-2.2562	-1.4396	-2.2833	-2.0042	-1.4479	-2.4792	-1.8021	-1.7313	-2.3146	-1.3979	-2.0438	20.268	-15.191	-16.586	151.254	170.672	-8.750	60.589	123.431	55.858	145.123	65.716	-160.262	-90.231	92.023	127.901	135.741	0.00094136	0.0004178	0.00027473	1085.5	7.868e-06	9.0342e-06	1403.4	345.49	4.0055e-06	5.8237e-06	433.37	163.21	133.7	54.576	1.601e-05	71.297	0.0007261	0.00071293	0.00019643	927.66	7.9123e-06	8.0753e-06	1198.7	298.27	7.8473e-06	7.9446e-06	373.13	140.34	115.68	47.535	7.9006e-06	61.319	-28.554	-85.701	-42.499	-151.625	21.130	51.587	-153.854	-145.948	190.478	103.965	-148.927	-144.469	-140.785	-135.913	-47.614	-140.042	-8191	255	
1874.368	1	1	0	0	0.1831	0.061136	0.24657	0.11607	0.22949	0.18415	0.29195	0.22398	0.27568	0.25762	0.21846	0.26006	0.24327	0.04952	0.2993	0.27899	-1.6167	-1.5479	-2.3792	-1.8625	-1.6812	-2.1375	-1.625	-2.1729	-2.0833	-1.4792	-2.3667	-1.875	-1.675	-2.4792	-1.5542	-2.15	137.752	195.805	161.678	167.479	16.237	127.054	168.804	152.375	164.962	-92.433	69.671	176.184	-125.121	126.377	-113.676	109.208	0.0010298	0.00019433	0.000332	1079.7	4.4117e-06	4.1267e-06	1406.9	346.36	1.4693e-05	2.2639e-06	435.44	164.3	133.52	55.336	1.0356e-05	71.635	0.00074514	0.00072385	0.00020159	929.92	7.9215e-06	7.8266e-06	1199.5	299.06	7.8615e-06	7.8862e-06	374.59	141.29	116.45	48.081	8.0596e-06	62.043	-20.430	-85.270	-107.090	-151.837	-8.225	64.319	-154.054	-145.885	25.703	140.561	-149.019	-144.372	-141.099	-135.951	-81.609	-140.211	-8191	255	
1874.440	1	1	0	0	0.28077	0.20464	0.058125	0.40069	0.20139	0.35676	0.36296	0.18497	0.12745	0.28971	0.15359	0.13305	0.045326	0.10698	0.11977	0.25617	-1.9146	-1.25	-2.3292	-2.0667	-1.5562	-2.2146	-1.5812	-2.0833	-2.1292	-1.1979	-2.3646	-2.0083	-1.3854	-2.65	-1.4354	-1.7687	91.628	177.626	-61.926	160.722	29.804	-46.101	175.108	130.710	-92.568	182.238	150.673	56.839	-146.333	-132.388	-80.552	167.394	0.0010472	0.00053629	0.00034663	1078.5	5.317e-06	5.0547e-06	1401	348.88	1.5049e-05	7.7444e-06	439.87	165.34	133.08	55.557	2.1323e-06	72.306	0.00072861	0.00073277	0.00020481	929.19	7.9469e-06	7.8978e-06	1197.9	300.41	7.9043e-06	8.1629e-06	377.63	142.25	116.42	48.304	8.0462e-06	62.754	-41.241	-14.146	-132.669	-151.769	-122.408	-67.469	-154.207	-145.817	-26.081	-80.655	-148.739	-143.788	-140.343	-136.092	81.889	-139.941	-8191	255	
1874.536	1	1	0	0	0.06001	0.15221	0.49696	0.15786	0.02372	0.15255	0.11833	0.15283	0.2858	0.25143	0.15739	0.34889	0.18019	0.3527	0.29896	0.21608	-1.9062	-1.4542	-2.0979	-2.225	-1.4604	-2.6021	-1.7	-1.7938	-2.2583	-1.2667	-2.1625	-2.1583	-1.3583	-2.3292	-1.7646	-1.5729	105.630	88.189	22.541	62.293	-158.397	61.622	105.054	155.904	153.120	126.976	104.484	-146.522	170.527	173.589	-27.152	46.957	0.0011618	0.0011645	0.00031876	1076.8	4.8287e-06	1.3636e-06	1387.3	349.61	3.6746e-06	1.4942e-05	436.08	164.28	132.86	54.98	9.9704e-06	70.548	0.00074285	0.00072774	0.00020119	924.66	7.8074e-06	7.8746e-06	1190.1	300.1	7.7014e-06	7.8447e-06	375.19	141.47	116.42	47.736	7.7301e-06	61.384	-31.516	-65.134	-4.808	-151.610	48.849	-17.007	-153.832	-145.736	-121.067	-20.106	-149.011	-143.983	-140.414	-135.808	-31.003	-140.150	-8191	255	
1874.657	1	1	0	0	0.13268	0.24106	0.026785	0.070775	0.11624	0.21936	0.27125	0.318	0.24997	0.2643	0.19365	0.29306	0.095006	0.15871	0.24761	0.24927	-1.95	-1.5708	-2.0542	-2.2646	-1.275	-2.2812	-2.0604	-1.6271	-2.2875	-1.4021	-2.0896	-2.2208	-1.3167	-2.2333	-1.8792	-1.7271	-4.785	101.600	26.913	-142.892	20.989	-48.949	151.453	132.551	-161.350	181.226	34.046	-48.561	83.650	107.781	55.123	127.186	0.00096787	0.0016679	0.00028007	1077.2	3.2687e-06	1.7156e-05	1396.3	347.13	1.094e-05	5.536e-06	431.68	162.94	133.52	55.129	1.0668e-05	70.302	0.00071727	0.0007308	0.00020038	930.5	7.8186e-06	7.8124e-06	1196	298.55	7.971e-06	8.105e-06	373.09	140.12	116.2	47.611	7.923e-06	60.988	-26.774	-113.914	-87.872	-151.403	-55.897	-9.486	-153.715	-145.703	-16.924	-126.192	-148.741	-144.106	-140.776	-136.066	21.240	-140.122	-8191	255	
1874.753	1	1	0	0	0.018713	0.21514	0.25464	0.10399	0.090334	0.29963	0.20984	0.089027	0.17851	0.21188	0.18172	0.13847	0.062283	0.18082	0.1165	0.36441	-1.7979	-1.5688	-1.95	-2.2396	-1.2646	-2.1312	-2.1979	-1.6271	-2.3771	-1.5958	-2.0396	-2.4042	-1.5187	-2.3521	-2.0687	-1.7313	39.102	-66.903	-69.935	98.954	-43.279	33.868	94.559	180.265	-80.148	127.292	130.966	164.437	169.616	166.990	106.807	-139.638	0.0010472	0.00058466	0.00025727	1082.1	1.4104e-05	1.2986e-05	1393.5	347.88	1.2649e-05	4.934e-06	438.27	164.18	134.68	55.652	9.2808e-06	71.563	0.00074827	0.00073928	0.00020266	931.4	7.9308e-06	7.9966e-06	1192.5	299.97	7.6397e-06	7.9961e-06	375.76	142	117.12	48.349	7.8477e-06	61.988	-27.289	-110.684	-156.614	-152.122	-119.708	-16.666	-153.737	-145.990	-28.483	148.564	-148.838	-144.250	-140.268	-136.066	-3.284	-140.333	-8191	255	
1874.849	1	1	0	0	0.16291	0.14647	0.2191	0.073195	0.11364	0.074734	0.31395	0.11547	0.23206	0.079824	0.33354	0.223	0.13294	0.28362	0.023651	0.32632	-1.9854	-1.7437	-1.7479	-2.5354	-1.4854	-2.1042	-2.3833	-1.7812	-2.2375	-1.8146	-1.8188	-2.5563	-1.4875	-2.1937	-2.3271	-1.7479	112.465	36.896	-29.255	-159.137	0.466	-119.420	125.450	110.026	-153.545	-115.120	184.846	162.181	27.148	-130.508	-93.835	192.027	0.0013199	0.001231	0.00019866	1063.5	6.9469e-06	1.549e-05	1384.4	351.69	1.4059e-05	1.5247e-05	442.54	168.22	137.86	56.551	1.1961e-05	73.487	0.00073297	0.00073652	0.00020397	920.25	7.7508e-06	7.9201e-06	1182.5	302.67	7.913e-06	7.7538e-06	380.37	144.73	119.67	49.375	7.8683e-06	63.647	-28.265	-77.741	-17.315	-151.849	-111.979	61.036	-153.799	-145.689	40.345	33.250	-148.795	-143.992	-140.619	-135.906	29.560	-140.283	-8191	255	
1874.968	1	1	0	0	0.20383	0.16472	0.17067	0.10493	0.073795	0.10149	0.21813	0.16115	0.1847	0.095194	0.098624	0.16327	0.22547	0.21707	0.14848	0.33345	-2.0187	-1.8917	-1.6812	-2.5438	-1.6979	-1.9854	-2.5667	-1.6771	-2.275	-2.0625	-1.725	-2.6813	-1.6417	-1.8417	-2.2938	-1.7437	-43.159	-90.810	-102.354	120.278	144.109	-34.768	172.268	6.174	-145.971	61.803	-118.269	-110.124	-47.237	-130.116	-12.642	66.813	0.0010639	0.00017617	9.6912e-05	1074.7	9.3833e-06	1.277e-05	1385.1	354.76	1.3161e-05	1.0394e-05	443.08	169.18	139.4	57.84	1.1157e-05	73.913	0.00072267	0.00071057	0.00020317	921.05	7.7644e-06	7.8378e-06	1178.9	305.98	7.7799e-06	7.7265e-06	382.99	146.2	120.91	50.028	7.838e-06	64.012	-34.487	-128.743	-14.885	-151.602	-21.237	39.771	-153.613	-145.607	-57.787	1.482	-148.363	-144.070	-140.342	-135.768	-31.730	-140.123	-8191	255	
1875.064	1	1	0	0	0.18242	0.17458	0.11803	0.12769	0.067309	0.13172	0.36818	0.18116	0.12661	0.1828	0.11466	0.15592	0.30785	0.3024	0.15717	0.26719	-1.9271	-1.825	-1.6313	-2.4979	-1.8229	-1.9167	-2.4583	-1.6083	-2.2292	-1.925	-1.55	-2.5583	-1.6542	-1.8646	-2.4229	-1.5667	35.115	105.116	-69.957	152.651	163.886	-156.537	110.843	149.838	92.767	-134.065	152.332	136.957	156.519	136.732	17.950	181.647	0.0010188	0.00063128	0.00042995	1071.6	1.2497e-05	8.2564e-06	1376	362.26	1.2941e-05	9.726e-06	449.13	172.53	140.97	57.953	2.0099e-05	74.572	0.00072807	0.00069485	0.00020136	922.46	7.7315e-06	7.8706e-06	1173.1	310.5	7.4841e-06	7.5255e-06	385.9	147.85	121.91	50.435	7.6363e-06	64.192	-18.206	-82.157	-31.731	-151.369	-39.668	-40.121	-153.368	-146.018	7.482	-5.187	-148.643	-144.590	-140.849	-135.959	-36.428	-140.177	-8191	255	
1875.138	1	1	0	0	0.13367	0.022899	0.29232	0.19397	0.063852	0.14795	0.40388	0.24813	0.16641	0.13131	0.16417	0.24055	0.092798	0.17455	0.07035	0.07251	-1.8833	-1.9979	-1.3917	-2.5292	-1.7083	-1.6229	-2.6063	-1.6917	-1.9208	-2.0708	-1.4979	-2.6521	-1.8354	-1.6146	-2.3896	-1.6042	-43.725	100.213	74.841	135.141	3.271	122.795	140.951	122.283	29.308	29.476	-158.590	138.105	-102.518	-162.928	173.766	-101.606	0.0012913	0.00031247	0.00021514	1067.9	7.4022e-06	1.0376e-05	1369.9	362.85	7.363e-06	7.5943e-06	448.96	172.73	140.91	58.337	5.1144e-06	74.477	0.00071606	0.00069336	0.00019219	922.79	7.5921e-06	7.6817e-06	1175.2	311.62	7.4856e-06	7.5668e-06	386.1	147.86	121.55	50.597	7.7507e-06	64.411	-36.836	-87.387	-53.005	-151.148	-31.780	-64.724	-153.397	-145.848	-24.432	33.370	-148.600	-144.353	-140.888	-135.984	111.731	-139.962	-8191	255	
1875.256	1	1	0	0	0.19537	0.13624	0.29496	0.11339	0.2249	0.16533	0.21589	0.43454	0.19915	0.097483	0.4604	0.2406	0.3195	0.20194	0.16164	0.40416	-1.6667	-2.2542	-1.3833	-2.4396	-1.8979	-1.4792	-2.5271	-1.7812	-1.7229	-2.2604	-1.5083	-2.2125	-1.8854	-1.6625	-2.3792	-1.7646	-103.903	180.085	73.533	192.970	110.580	49.271	130.255	142.687	19.734	113.754	154.315	122.594	160.397	157.342	-73.189	142.820	0.0011892	0.00020436	5.6258e-05	1084.4	4.0211e-06	1.9203e-06	1390.3	361.42	1.2553e-05	3.7794e-06	449.64	172.64	140.79	58.178	7.9301e-06	76.396	0.00071826	0.00065778	0.00019212	929.36	7.4352e-06	7.5968e-06	1186.3	311.92	7.5421e-06	7.7709e-06	388.67	148.69	122.71	50.841	7.699e-06	65.707	-31.526	-115.038	-91.774	-151.412	32.517	-140.011	-153.687	-145.924	-40.829	-26.413	-148.741	-143.845	-140.851	-135.991	51.284	-140.206	-8191	255	
1875.353	1	1	0	0	0.28822	0.14655	0.19293	0.30209	0.24698	0.20172	0.21292	0.20085	0.14941	0.19344	0.048751	0.016943	0.22296	0.19458	0.3414	0.13346	-1.5125	-2.3812	-1.5229	-2.1521	-1.9	-1.4	-2.5812	-1.6688	-1.6042	-2.4417	-1.6458	-2.0771	-2.2167	-1.6979	-2.3958	-1.9312	49.040	144.268	-98.840	104.825	65.420	-139.297	-141.780	136.299	-98.867	-138.812	-146.289	-30.593	101.666	194.072	23.467	42.864	0.0013365	0.00071429	0.00015738	1078.6	8.9298e-06	1.0482e-05	1382.6	365.3	1.3168e-05	1.3381e-05	451.66	172.62	141.21	58.525	4.4256e-06	75.169	0.00071356	0.00070283	0.00019312	928.36	7.582e-06	7.7167e-06	1184.4	312.8	7.5575e-06	7.5181e-06	387.49	148.67	122.05	50.536	7.5416e-06	64.831	-36.337	-104.982	-1.224	-151.451	63.630	-4.490	-153.453	-145.739	6.353	-52.136	-148.409	-144.355	-140.420	-135.841	-31.036	-140.866	-8191	255	
1875.449	1	1	0	0	0.17578	0.083334	0.18366	0.26759	0.1459	0.15477	0.15897	0.19885	0.099889	0.24711	0.12798	0.28964	0.34325	0.16415	0.07811	0.0443	-1.2229	-2.2875	-1.475	-2.1542	-2.1063	-1.4729	-2.7708	-2.0646	-1.45	-2.4792	-1.5229	-2.1167	-2.2521	-1.6167	-2.1896	-1.9125	142.940	21.263	55.894	192.588	38.631	-81.598	-155.822	155.896	58.759	104.779	51.953	141.103	184.684	152.037	-35.267	-2.092	0.0011508	0.00036277	0.00016108	1078.5	5.3129e-06	6.6303e-06	1390.8	361.61	6.5266e-06	1.7336e-06	450.94	172.41	140.12	58.096	1.6618e-05	74.155	0.0007051	0.00067324	0.00019046	924.95	7.3746e-06	7.3972e-06	1183.6	311.3	7.2493e-06	7.4151e-06	386.96	147.54	121.2	50.273	7.2619e-06	63.886	-29.054	-68.506	-114.267	-151.427	1.018	-30.807	-153.467	-145.890	-57.717	-69.188	-148.677	-144.134	-141.013	-135.761	19.104	-140.118	-8191	255	
1875.569	1	1	0	0	0.12922	0.0646	0.1538	0.36173	0.12802	0.27572	0.22016	0.11933	0.25314	0.16991	0.18328	0.21675	0.16444	0.15237	0.10891	0.19426	-1.225	-2.4792	-1.5812	-1.8646	-2.2708	-1.4188	-2.4375	-2.025	-1.6562	-2.2771	-1.7354	-1.9292	-2.375	-1.6	-2.0604	-2.3083	-73.021	170.876	-137.583	163.790	18.466	-145.659	129.302	36.574	-144.371	-64.860	-123.614	138.522	0.567	187.587	135.443	-41.692	0.00094387	0.00087056	0.00021376	1088	1.3499e-05	1.2693e-05	1392.3	362.34	1.2418e-05	7.6771e-06	455.96	172.68	142.22	57.609	7.9135e-06	74.215	0.00067785	0.00066795	0.00018861	930.62	7.0782e-06	7.3245e-06	1186.4	311.59	7.2549e-06	7.2663e-06	389.06	147.59	121.9	50.067	7.2734e-06	64.118	-30.166	-74.119	-64.359	-151.221	-15.194	4.137	-153.551	-145.608	7.338	21.655	-148.936	-144.277	-139.823	-135.891	-18.832	-140.270	-8191	255	
1875.666	1	1	0	0	0.30119	0.13746	0.27447	0.10826	0.11379	0.19282	0.37037	0.27224	0.26086	0.2203	0.15211	0.11536	0.072998	0.13982	0.19301	0.26881	-0.96875	-2.2521	-1.5542	-1.8125	-2.5	-1.3521	-2.2896	-2.1479	-1.4438	-2.3292	-1.8729	-1.7375	-2.4938	-1.4583	-1.95	-2.2812	-135.768	117.639	40.392	-134.682	81.787	-5.614	141.663	143.944	12.401	171.962	159.737	145.315	-39.511	-145.151	-114.508	130.605	0.0012429	0.00042335	0.00016392	1088.7	1.0865e-05	1.1515e-05	1399.3	361.52	7.1681e-06	4.5411e-06	456.72	172.31	140.18	58.087	2.8883e-06	74.885	0.00067779	0.00068114	0.00018724	934.99	7.1794e-06	7.4328e-06	1196	311.8	7.4415e-06	7.518e-06	389.92	147.54	121.66	50.321	7.4044e-06	64.679	-36.324	-24.727	-105.400	-151.324	42.562	-49.006	-153.338	-145.778	9.627	174.924	-148.616	-143.671	-140.305	-135.746	-46.917	-140.256	-8191	255	
1875.737	1	1	0	0	0.24765	0.12245	0.1365	0.16357	0.17857	0.13323	0.23095	0.18306	0.29373	0.2438	0.053424	0.28117	0.25414	0.29877	0.098835	0.34014	-1.0979	-2.3	-1.7687	-1.6958	-2.2958	-1.4125	-2.1833	-2.3125	-1.4583	-2.2542	-1.6917	-1.75	-2.5	-1.5354	-1.8167	-2.3438	83.443	-35.375	-27.262	-138.974	144.122	61.498	131.469	146.666	125.950	168.331	-158.340	46.440	-55.010	167.484	-160.306	160.492	0.0011495	0.00074645	0.00031492	1090.2	6.2933e-06	7.0606e-06	1406.4	363.78	3.0078e-06	2.2774e-06	452.94	171.37	142.63	57.912	2.8265e-06	73.517	0.00070701	0.00068252	0.00019088	938.45	7.4081e-06	7.52e-06	1200.8	311.91	7.3843e-06	7.4472e-06	388.97	146.9	122.03	49.981	7.319e-06	63.627	-40.517	-59.965	-103.024	-151.110	-22.163	-49.716	-153.620	-145.760	-149.771	-35.036	-148.838	-143.774	-140.609	-135.757	136.642	-139.858	-8191	255	
1875.833	1	1	0	0	0.17461	0.26382	0.20123	0.24052	0.14898	0.029752	0.21658	0.075554	0.20508	0.17458	0.084532	0.016166	0.048506	0.13015	0.052894	0.19495	-0.93125	-2.2479	-1.7646	-1.6271	-2.4167	-1.5854	-1.9542	-2.4604	-1.4333	-2.2354	-2.0896	-1.475	-2.4354	-1.6104	-1.6313	-2.5333	-14.573	172.668	162.604	134.497	104.773	60.793	152.681	150.589	-27.023	-120.193	-19.435	171.821	-102.780	-4.369	-101.474	59.265	0.00093053	0.00053456	0.00036488	1087.2	1.5828e-05	7.6487e-06	1387.6	360.98	7.0304e-06	3.1284e-06	443.9	168.89	139.55	56.696	3.1375e-06	72.334	0.00069271	0.00069147	0.00019394	931.96	7.2618e-06	7.3555e-06	1186.4	309.59	7.3649e-06	7.5396e-06	381.91	144.9	120.02	49.109	7.3811e-06	62.325	-36.121	-97.923	-76.693	-151.592	-25.380	-21.758	-153.523	-145.663	-107.547	-108.150	-149.005	-144.202	-140.394	-135.738	-70.495	-140.171	-8191	255	
1875.954	1	1	0	0	0.10552	0.080988	0.16554	0.3802	0.43057	0.15827	0.15848	0.2426	0.38687	0.065052	0.21	0.20456	0.02708	0.36795	0.10267	0.22622	-1.0125	-2.1167	-2.1771	-1.4417	-2.1521	-1.6812	-1.7375	-2.5208	-1.5583	-1.8354	-2.2729	-1.6313	-2.2396	-2.0187	-1.4146	-2.5583	-38.992	140.364	-2.884	-139.510	-42.170	150.656	105.022	152.889	2.377	104.099	162.456	-81.719	59.503	142.993	4.004	-84.819	0.0012923	0.0006205	0.00026165	1081.9	1.0673e-05	5.906e-06	1375.4	356.87	1.1713e-05	7.5684e-06	450.32	168.48	140.7	57.141	5.2089e-06	72.922	0.00066548	0.00066988	0.00018649	926.78	7.3309e-06	7.318e-06	1175.2	308.13	7.3708e-06	7.2708e-06	385.87	145.38	120.84	49.538	7.3122e-06	62.888	-29.897	-22.641	-60.958	-151.211	92.804	26.865	-153.341	-146.020	-35.514	-24.591	-148.991	-143.928	-140.697	-136.053	-55.990	-140.550	-8191	255	
1876.048	1	1	0	0	0.20401	0.068677	0.12874	0.031929	0.10427	0.28302	0.34667	0.091645	0.19487	0.21955	0.16968	0.23886	0.19005	0.20647	0.17119	0.062124	-1.1	-1.9667	-2.1562	-1.6396	-2.1271	-1.9271	-1.7521	-2.5062	-1.6625	-1.7646	-2.3167	-1.5979	-2.3625	-2.0146	-1.4896	-2.3667	152.544	31.048	-27.632	27.961	-6.101	-130.876	114.610	160.311	-162.449	-20.766	187.834	170.963	111.636	-133.340	-63.208	131.092	0.001215	0.0010327	0.00021357	1079.6	9.7081e-06	4.8764e-06	1389.1	363.62	5.3923e-06	1.3701e-05	452.53	171.18	141.73	57.491	1.2436e-05	72.813	0.000677	0.00067165	0.00018828	928.28	7.1144e-06	7.2806e-06	1185.8	312.64	7.3048e-06	7.3373e-06	388.07	146.72	121.54	49.798	7.1288e-06	63.197	-31.193	-83.032	-74.734	-151.397	-3.855	-22.757	-153.286	-145.745	-52.566	26.237	-148.371	-143.936	-140.479	-135.607	-14.085	-140.389	-8191	255	
1876.145	1	1	0	0	0.11344	0.29721	0.15593	0.28894	0.037824	0.22237	0.34899	0.44359	0.28667	0.045193	0.43388	0.26005	0.30606	0.11917	0.50285	0.17734	-1.2229	-1.6542	-2.2333	-1.3083	-2.1604	-2.2083	-1.6667	-2.4958	-1.5	-1.7062	-2.6333	-1.6375	-1.8937	-2.2292	-1.6396	-2.1708	-60.559	124.247	-92.149	121.701	70.760	11.101	99.356	166.150	-39.374	-1.828	103.591	157.095	-71.313	124.736	-90.628	-132.848	0.00091684	0.00058371	0.00013339	1086.6	8.8793e-06	7.1555e-06	1383.9	364.78	7.425e-06	9.4761e-06	450.45	170.58	139.56	57.318	4.9093e-06	73.274	0.0006695	0.00066429	0.00018069	928.32	7.1525e-06	7.1063e-06	1181.5	313.19	7.2042e-06	7.1435e-06	388.17	146.9	121.31	49.533	7.171e-06	63.104	-17.571	-70.819	-54.529	-151.252	19.023	-39.891	-153.184	-145.846	39.408	-42.505	-148.534	-143.737	-140.404	-136.054	80.293	-140.429	-8191	255	
1876.241	1	1	0	0	0.1873	0.10523	0.095494	0.079813	0.080488	0.10309	0.30517	0.14724	0.14499	0.15544	0.30893	0.11992	0.14025	0.23895	0.14144	0.10804	-1.2875	-1.4167	-2.4021	-1.4125	-2.1	-1.9229	-1.4708	-2.3958	-1.7083	-1.6708	-2.5354	-1.6167	-1.8875	-2.2042	-1.3417	-2.4188	178.416	171.793	28.199	10.588	-55.973	70.134	123.752	115.483	-141.148	64.073	101.470	84.242	-122.286	113.908	130.203	-157.998	0.0010543	0.0011654	0.0002865	1076.5	2.5297e-06	7.6593e-06	1391.1	365.32	1.3131e-05	1.0035e-05	454	170.05	142.37	56.711	8.1527e-06	71.565	0.00066332	0.00064764	0.00018028	924.63	6.9523e-06	7.1199e-06	1186.2	313.1	7.0016e-06	7.0202e-06	387.05	145.52	121.07	48.999	6.9176e-06	61.752	-38.338	-60.197	-49.077	-151.114	-23.611	15.937	-153.550	-145.392	-54.160	-64.045	-148.654	-143.970	-140.407	-135.904	-55.342	-139.771	-8191	255	
1876.337	1	1	0	0	0.30398	0.084793	0.13393	0.075682	0.25253	0.26362	0.26807	0.31976	0.075203	0.14259	0.2149	0.26792	0.18161	0.13226	0.11281	0.22064	-1.4458	-1.5167	-2.2896	-1.5875	-1.7563	-2.2542	-1.6104	-2.3604	-1.8792	-1.4292	-2.2875	-1.7542	-1.7146	-2.4896	-1.3604	-2.2021	-117.362	178.273	174.729	139.979	-10.192	1.527	120.738	-146.484	57.256	-96.122	-81.865	48.670	-48.083	142.908	-162.603	147.761	0.001077	0.00099133	0.00032434	1090.9	1.1755e-05	9.7276e-06	1383	360.73	5.0603e-06	3.72e-06	448.8	168.37	139.8	56.993	6.5559e-06	72.459	0.00063881	0.00063459	0.00017288	930.31	6.8002e-06	6.6529e-06	1181.6	309.51	6.7336e-06	6.6033e-06	384.6	144.68	120.3	49.264	6.5056e-06	62.495	-19.182	-75.921	-79.580	-151.420	-2.595	-38.393	-153.302	-145.316	-40.880	-21.307	-148.521	-143.869	-140.221	-135.750	-24.761	-140.231	-8191	255	
1876.433	1	1	0	0	0.051926	0.097467	0.1675	0.2616	0.03493	0.21345	0.30513	0.30653	0.12922	0.17788	0.22802	0.21887	0.33314	0.15534	0.12553	0.054491	-1.7646	-1.3375	-2.4875	-1.6854	-1.6021	-2.2458	-1.6354	-2.1312	-2.2792	-1.3896	-2.5521	-1.8	-1.3625	-2.4729	-1.4104	-2.0604	-50.957	-53.061	131.318	-150.975	94.531	-161.389	154.208	175.985	-22.994	-12.296	134.538	148.783	187.556	170.376	150.264	150.364	0.0010194	0.0010808	0.0003385	1076.4	1.3855e-05	9.7411e-06	1389.8	362.88	2.3878e-06	7.0416e-06	451.1	171.77	140.46	57.586	1.4314e-05	73.179	0.00063125	0.00059895	0.0001662	921.99	6.5784e-06	6.6245e-06	1174	312.51	6.4883e-06	6.6665e-06	387.69	147.13	121.59	49.741	6.735e-06	63.138	-36.718	-62.214	-147.346	-151.463	4.450	2.113	-153.499	-145.632	179.708	-47.210	-148.449	-144.121	-140.655	-135.949	47.883	-139.873	-8191	255	
1876.529	1	1	0	0	0.078588	0.15535	0.13152	0.24452	0.14698	0.10251	0.31048	0.21525	0.2141	0.081068	0.26391	0.38673	0.34358	0.41833	0.039248	0.12219	-1.8146	-1.3229	-2.1292	-1.9167	-1.3021	-2.2958	-1.7354	-1.7417	-2.3479	-1.4104	-2.4125	-1.9562	-1.4562	-2.4958	-1.65	-2.0604	71.670	-132.687	-28.054	130.335	75.932	-51.090	184.905	132.614	140.486	136.330	105.043	13.453	149.741	173.453	-108.109	110.611	0.0009643	0.00051152	8.6578e-05	1069.9	1.2192e-05	8.4498e-06	1381.6	364.11	4.0887e-06	8.9697e-06	449.83	171.18	141.73	57.447	5.6622e-06	72.021	0.00061106	0.00060643	0.00016805	920.36	6.6427e-06	6.539e-06	1177.7	312.15	6.5911e-06	6.6512e-06	387.78	146.51	121.12	49.522	6.6678e-06	62.5	-30.966	-98.548	87.625	-151.824	3.628	-7.192	-153.288	-145.664	-33.845	2.045	-148.493	-143.781	-140.126	-135.943	42.445	-140.188	-8191	255	
1876.650	1	1	0	0	0.26288	0.066969	0.16846	0.11951	0.3597	0.045139	0.19357	0.26687	0.13059	0.13677	0.22911	0.29475	0.4623	0.41864	0.24508	0.12292	-1.8479	-1.3167	-2.325	-2.025	-1.5125	-2.3563	-1.7812	-1.9958	-2.3729	-1.4625	-2.3417	-2.1688	-1.4979	-2.5042	-1.7313	-1.8729	38.141	160.100	23.414	50.945	139.675	-32.333	159.410	105.185	-136.724	-84.251	111.937	-152.993	192.477	146.984	123.402	139.505	0.0011941	0.0008103	0.00022545	1080.2	6.6041e-06	3.1915e-06	1374.1	361.64	7.6506e-06	1.1729e-05	444.39	170.09	141.49	56.641	1.0839e-05	71.996	0.00063004	0.00058666	0.00016702	923.16	6.6401e-06	6.2971e-06	1172.2	310.38	6.5006e-06	6.5959e-06	383.63	144.96	120.82	49.101	6.576e-06	62.037	-30.669	-147.498	-76.910	-151.549	6.776	-41.796	-153.406	-145.684	28.668	2.701	-148.366	-143.824	-140.326	-136.064	-94.639	-140.013	-8191	255	
1876.746	1	1	0	0	0.1071	0.06912	0.11123	0.2345	0.17669	0.034788	0.51868	0.22617	0.19518	0.34033	0.081354	0.067513	0.16319	0.47636	0.059727	0.20352	-2.15	-1.4771	-2.0396	-2.2125	-1.0958	-2.2354	-1.9208	-1.5438	-2.3229	-1.5562	-1.9062	-2.4417	-1.6271	-2.3396	-1.8479	-1.8542	-43.561	-30.867	146.885	132.514	165.935	157.582	109.936	107.876	101.210	87.082	57.547	134.663	-4.648	186.209	-54.328	118.555	0.0010045	0.00028669	0.00028162	1065.5	1.3722e-05	6.577e-06	1365.5	362.71	6.9482e-06	8.3961e-06	454.74	171.1	140.65	57.517	1.1883e-05	73.131	0.00061434	0.0006009	0.00016956	915.36	6.3783e-06	6.3212e-06	1165.7	311.94	6.5143e-06	6.4842e-06	387.61	145.93	121.21	49.571	6.4316e-06	62.639	-32.096	-132.109	-63.259	-151.385	9.476	68.090	-153.438	-145.466	11.998	-45.383	-148.457	-143.939	-140.861	-135.881	-13.786	-140.439	-8191	255	
1876.842	1	1	0	0	0.15659	0.12138	0.23814	0.49498	0.17517	0.034705	0.34595	0.22373	0.20906	0.085676	0.27253	0.17286	0.23216	0.52283	0.13265	0.29458	-1.7271	-1.4542	-1.8125	-2.3354	-1.3	-2.1875	-1.9729	-1.6938	-2.3542	-1.65	-1.8167	-2.3958	-1.275	-2.2125	-1.8771	-1.7583	20.514	55.764	28.118	170.108	-161.883	-157.275	74.873	-83.903	-91.410	171.106	132.294	164.955	35.304	181.720	-114.868	148.185	0.001029	0.0008717	0.00010757	1066.9	3.0645e-06	8.5102e-07	1356.2	365.46	1.4972e-05	7.7478e-06	457.3	173.11	142.7	58.52	1.2653e-05	74.151	0.00060199	0.00059269	0.00016511	914.05	6.3685e-06	6.5576e-06	1159.2	314.87	6.4528e-06	6.5545e-06	391.7	148.31	123.07	50.395	6.3561e-06	63.977	-31.165	-58.188	-144.990	-151.443	43.333	-142.548	-153.301	-145.448	-39.493	-21.963	-148.422	-143.909	-140.855	-135.694	10.284	-140.044	-8191	255	
1876.938	1	1	0	0	0.069879	0.12129	0.11415	0.1183	0.2823	0.14358	0.3496	0.3239	0.17924	0.14353	0.23371	0.0057932	0.13111	0.068185	0.26599	0.27301	-1.7896	-1.6979	-1.7125	-2.6292	-1.3458	-2.1042	-2.1604	-1.6354	-2.2542	-1.8646	-1.8646	-2.5479	-1.3271	-2.2313	-2.0438	-1.4562	92.661	20.122	193.106	113.736	-117.425	24.281	94.491	80.008	36.122	-160.716	-141.676	101.612	-108.928	129.593	164.422	116.166	0.0012826	0.00064451	0.0001546	1068.5	1.0206e-05	6.4528e-06	1362	369.11	5.8393e-06	3.9719e-06	455.53	174.13	144.26	58.895	1.1849e-05	74.341	0.000603	0.00058618	0.00016374	914.4	6.4538e-06	6.3878e-06	1162.8	316.97	6.4781e-06	6.5385e-06	391.02	149.24	123.49	50.76	6.4148e-06	64	-35.904	-33.433	-43.589	-151.134	43.455	-12.021	-153.148	-145.409	-17.078	-0.043	-148.395	-143.978	-140.167	-135.758	-18.863	-140.255	-8191	255	
1877.033	1	1	0	0	0.18065	0.19731	0.15683	0.17541	0.11022	0.11993	0.29965	0.26034	0.14969	0.086972	0.23614	0.32833	0.20643	0.13895	0.2342	0.13327	-1.7542	-1.9708	-1.4833	-2.4125	-1.2896	-2.125	-2.55	-1.8271	-2.125	-1.8813	-1.7687	-2.5708	-1.5417	-2.0938	-2.3063	-1.5688	63.255	-134.697	-146.053	-145.685	-11.237	-14.073	89.458	68.976	-57.273	54.986	191.691	127.686	147.047	73.351	-28.180	127.734	0.00098705	0.0011861	0.00016854	1059.8	2.1741e-05	4.5465e-06	1360.2	368.01	3.684e-06	6.5648e-06	455.24	173.52	143.7	58.526	1.1667e-06	73.514	0.00059848	0.00057693	0.00016423	908.91	6.2709e-06	6.3966e-06	1156.3	315.82	6.3194e-06	6.4024e-06	391.53	148.38	123.35	50.476	6.3361e-06	63.253	-45.252	-69.826	-116.712	-151.452	34.987	-35.351	-153.248	-145.273	55.795	-67.365	-148.236	-143.888	-140.460	-135.472	-65.562	-140.136	-8191	255	
1877.129	1	1	0	0	0.12502	0.23282	0.12278	0.20438	0.22547	0.10235	0.15051	0.23754	0.17193	0.13193	0.1664	0.10401	0.2892	0.12237	0.24709	0.57898	-1.9188	-2.0187	-1.7833	-2.5146	-1.6187	-1.9438	-2.4646	-1.65	-2.2396	-2.0646	-1.4937	-2.5833	-1.8646	-2.0312	-2.2313	-1.6292	103.311	-73.933	48.494	-137.239	-29.551	64.230	-140.660	164.323	14.595	-95.688	170.214	21.151	84.328	154.222	51.433	137.690	0.0010516	0.00037462	0.00032231	1066.4	1.1496e-05	1.0017e-05	1353.7	370.36	1.4355e-05	1.7042e-05	458.51	174.33	145.35	59.005	5.5361e-06	74.214	0.00061098	0.00057679	0.00016326	913	6.4753e-06	6.2922e-06	1154	317.96	6.4116e-06	6.254e-06	393.3	149	124.16	50.862	6.2271e-06	63.774	-35.781	-74.380	-101.316	-151.509	-4.668	-23.865	-153.354	-145.429	-17.241	-11.953	-148.724	-144.051	-140.157	-135.617	-37.470	-140.339	-8191	255	
1877.249	1	1	0	0	0.23577	0.096249	0.19358	0.22041	0.049919	0.14911	0.022225	0.1452	0.074909	0.026124	0.15466	0.19803	0.14054	0.34407	0.070739	0.21493	-1.7687	-2.1562	-1.3875	-2.5396	-1.8771	-1.6187	-2.4833	-1.6479	-2.175	-2.1271	-1.5833	-2.6417	-1.8354	-1.8687	-2.4146	-1.6417	141.087	108.100	124.897	-119.068	62.627	-119.964	-123.727	96.736	-6.743	-111.938	142.444	-159.997	-50.927	126.626	-21.515	95.152	0.00098779	0.00057093	0.00022246	1069.1	7.7312e-06	2.8359e-06	1351.1	371.88	6.5429e-06	4.923e-06	454.19	173.67	145.37	59.04	1.0123e-05	75.302	0.00061511	0.00058423	0.00016852	914.11	6.5875e-06	6.7679e-06	1157.1	317.41	6.6577e-06	6.7133e-06	391.57	149.6	124.45	50.998	6.6163e-06	64.679	-22.706	-16.220	-68.331	-151.284	-9.698	140.370	-153.330	-145.645	-2.551	31.088	-147.888	-143.971	-140.336	-135.608	77.420	-139.998	-8191	255	
1877.346	1	1	0	0	0.12282	0.19145	0.20067	0.18796	0.18974	0.20936	0.036699	0.24588	0.25821	0.12525	0.32596	0.19282	0.1739	0.43939	0.14752	0.23764	-1.725	-2.2562	-1.5479	-2.5625	-1.8563	-1.5667	-2.5708	-1.7771	-2.0208	-2.3208	-1.6146	-2.2521	-2.0458	-1.6375	-2.3688	-1.775	77.854	74.508	171.864	160.221	82.748	42.086	144.326	172.000	20.894	107.961	131.644	-139.295	0.026	140.669	158.543	55.165	0.0011647	0.0015746	9.7666e-05	1070.9	9.1777e-06	1.1036e-05	1361.9	370.75	1.173e-05	1.0324e-05	459.12	175.73	145.1	59.211	1.5846e-05	74.709	0.00063986	0.00062065	0.00017421	918.68	6.8352e-06	6.873e-06	1163.5	318.34	6.7722e-06	6.6621e-06	394.87	150.67	124.28	51.21	6.6285e-06	64.58	-27.987	-63.406	178.378	-151.220	-8.244	9.197	-153.040	-145.525	-0.154	-4.889	-148.556	-143.767	-140.492	-135.877	-17.321	-140.219	-8191	255	
1877.442	1	1	0	0	0.22319	0.18413	0.21579	0.092064	0.15644	0.075362	0.22563	0.22357	0.12217	0.19041	0.096546	0.093081	0.14309	0.099619	0.30958	0.42367	-1.5375	-2.2313	-1.4104	-2.4021	-2.05	-1.5375	-2.7083	-1.8979	-1.7604	-2.5375	-1.5479	-2.4021	-2.1063	-1.4417	-2.4437	-1.9312	-160.293	-81.816	101.518	-127.168	46.381	-33.789	136.338	114.234	-85.434	-136.659	-152.286	-38.324	-86.897	190.435	-33.661	95.841	0.0010614	0.0011068	2.4717e-05	1073.9	4.8096e-06	1.2367e-05	1365.2	369.25	1.0199e-05	1.0193e-05	452.17	172.13	144.17	58.305	1.5616e-06	73.771	0.00064626	0.00061799	0.00017117	921.43	6.5865e-06	6.748e-06	1163.6	316.96	6.8366e-06	6.8013e-06	389.89	148.02	123.56	50.47	6.5472e-06	63.201	-24.061	-93.691	9.087	-150.581	-53.978	-5.028	-152.913	-145.321	17.710	-44.876	-148.696	-143.491	-140.262	-135.485	-59.203	-140.343	-8191	255	
1877.538	1	1	0	0	0.26867	0.048425	0.12294	0.096929	0.093359	0.14274	0.28632	0.29756	0.084089	0.065738	0.3174	0.27377	0.34878	0.20338	0.16459	0.29144	-1.4292	-2.55	-1.5396	-2.1562	-2.1292	-1.3917	-2.5625	-1.825	-1.7417	-2.4208	-1.6437	-1.9792	-2.25	-1.5875	-2.4167	-2.1125	24.048	91.872	-63.378	154.721	-16.562	-35.486	-110.086	166.014	167.555	40.886	138.878	136.626	189.276	-137.784	-69.640	-158.097	0.0011518	0.0010155	0.00022984	1067.3	1.1817e-05	7.0437e-06	1360	367.28	1.1068e-05	4.9265e-06	454.21	172.54	143.54	58.229	1.2889e-05	73.479	0.00062702	0.00060051	0.0001705	911.29	6.4888e-06	6.6631e-06	1154.6	315.61	6.6426e-06	6.5735e-06	389.49	147.88	123.35	50.467	6.7265e-06	63.493	-23.452	-102.922	158.897	-150.609	-79.123	12.029	-153.269	-145.318	-10.085	-5.282	-148.811	-143.735	-140.350	-135.580	13.481	-140.139	-8191	255	
1877.610	1	1	0	0	0.083157	0.13179	0.1752	0.37992	0.15609	0.28149	0.305	0.29628	0.074444	0.19047	0.17841	0.27261	0.0095816	0.23564	0.26305	0.30715	-1.1979	-2.3583	-1.7125	-2.0833	-2.3	-1.5729	-2.5146	-2.1	-1.5562	-2.5771	-1.4167	-2.075	-2.5542	-1.6875	-2.2125	-2.1792	-76.256	-132.277	-130.816	185.919	-73.632	46.683	142.897	-154.009	-143.261	150.570	121.028	187.365	-83.120	186.539	-107.935	149.381	0.00091393	0.00022474	0.00010782	1073.3	1.2394e-05	7.9747e-06	1355.6	367.95	1.3743e-05	1.366e-05	453.21	173.7	143.8	59.008	3.7325e-06	74.14	0.00063011	0.00060464	0.00016848	917.68	6.6186e-06	6.8348e-06	1163.1	315.77	6.7138e-06	6.7869e-06	390.09	148.2	123.56	50.748	6.78e-06	63.897	-19.050	3.706	-50.632	-151.027	-28.910	-24.910	-152.993	-145.616	-136.405	-56.663	-148.598	-143.734	-140.620	-135.383	-22.991	-140.668	-8191	255	
1877.730	1	1	0	0	0.16942	0.28315	0.15954	0.16757	0.24594	0.040395	0.23971	0.062247	0.25479	0.12372	0.19537	0.17874	0.25686	0.095279	0.24399	0.14481	-0.88125	-2.5583	-1.775	-2.0083	-2.1271	-1.4396	-2.4125	-2.4208	-1.2542	-2.4333	-1.6792	-1.8813	-2.6604	-1.5458	-1.85	-2.3271	4.564	-41.826	-50.194	-77.572	-82.767	82.624	162.850	132.264	-7.872	-7.972	123.959	192.466	-159.152	-163.505	-11.304	24.384	0.0010681	0.00045207	0.00014571	1080.3	9.3512e-06	9.7864e-06	1359.2	366.92	3.3092e-06	6.7791e-06	455.88	174.23	144.18	58.578	1.2484e-05	74.328	0.0006444	0.00061491	0.00017179	921.96	6.4899e-06	6.6637e-06	1161.7	315.44	6.5961e-06	6.525e-06	390.71	148.45	123.26	50.745	6.5371e-06	63.795	-29.728	-131.814	-25.896	-150.842	7.536	-5.601	-152.763	-145.545	-62.116	8.339	-148.528	-143.598	-140.810	-135.642	-11.453	-140.263	-8191	255	
1877.826	1	1	0	0	0.099324	0.16085	0.12674	0.14897	0.25939	0.19652	0.37597	0.051187	0.29461	0.16982	0.18359	0.41689	0.25467	0.31917	0.20369	0.2538	-1.0958	-2.2562	-1.9604	-1.7854	-2.3396	-1.5396	-2.2292	-2.425	-1.5833	-2.325	-1.9583	-1.7583	-2.5042	-1.675	-1.875	-2.3125	164.474	63.977	-88.663	109.186	7.794	-139.096	95.870	40.072	-116.942	-159.764	69.908	115.142	146.456	-152.959	-92.884	185.956	0.0011906	0.00075052	0.00011319	1065.4	2.2939e-05	1.1431e-05	1350.7	365.13	9.2121e-06	7.7888e-06	448.28	169.99	142	58.28	6.3089e-06	72.975	0.00060861	0.00058431	0.00016556	914.48	6.3561e-06	6.458e-06	1152.1	313.1	6.3988e-06	6.4025e-06	385.28	146.41	122.49	50.194	6.3764e-06	62.726	-29.781	-50.569	41.519	-150.836	17.877	34.593	-153.124	-145.308	-5.574	19.123	-148.237	-143.960	-140.239	-135.805	-21.060	-140.003	-8191	255	
1877.922	1	1	0	0	0.28266	0.09546	0.193	0.21174	0.18927	0.14069	0.21884	0.40486	0.15776	0.31323	0.23677	0.24558	0.15769	0.21167	0.10531	0.048341	-1.0917	-2.3083	-2.0583	-1.6688	-2.375	-1.55	-2.1625	-2.4646	-1.6063	-2.2854	-2.1688	-1.55	-2.35	-1.9083	-1.8	-2.5333	-3.459	106.924	-85.612	114.622	191.300	166.082	133.906	73.076	-148.030	12.658	134.775	125.272	-101.516	185.508	59.291	-55.056	0.0011235	0.00042649	0.00017894	1060.1	2.0118e-05	5.8083e-06	1340.4	365.15	8.1266e-06	6.7459e-06	445.52	170.65	141.34	57.587	6.9982e-06	72.022	0.00058884	0.00058506	0.00016417	908.98	6.5327e-06	6.5488e-06	1144.6	313.4	6.5085e-06	6.2315e-06	384.17	145.77	121.67	49.924	6.3963e-06	62.277	-29.558	-142.550	-109.403	-151.280	-22.944	5.606	-152.924	-145.602	54.401	-34.303	-148.651	-143.613	-140.164	-135.678	5.359	-139.966	-8191	255	
1878.019	1	1	0	0	0.045474	0.19789	0.27369	0.29713	0.16139	0.071649	0.0336	0.3978	0.1014	0.033963	0.23887	0.13873	0.27853	0.26766	0.071308	0.092641	-0.89583	-2.1437	-2.1042	-1.5875	-2.4979	-1.9229	-1.8479	-2.4479	-1.5354	-2.1833	-2.2188	-1.7042	-2.4729	-1.9354	-1.675	-2.5458	-20.690	26.541	124.060	144.050	126.944	-81.530	33.675	177.396	186.162	87.587	112.344	-122.056	-101.168	123.903	-134.813	158.198	0.0010681	0.00066158	0.00014839	1069.8	1.2856e-05	4.3574e-06	1345.6	364.83	1.496e-05	9.2306e-06	452.74	171.4	142.94	57.821	4.7156e-06	72.924	0.00062516	0.00059277	0.00016832	913.76	6.4713e-06	6.3549e-06	1149.7	312.57	6.4467e-06	6.5526e-06	386.78	145.95	122.13	49.898	6.6138e-06	62.827	-24.703	-57.173	149.118	-150.890	22.515	71.925	-152.911	-145.565	-1.432	-8.427	-148.514	-143.858	-139.923	-135.338	84.165	-139.965	-8191	255	
1878.137	1	1	0	0	0.055296	0.10416	0.23693	0.39597	0.083778	0.13833	0.22741	0.20893	0.066104	0.22171	0.46361	0.1083	0.16006	0.30339	0.084689	0.16229	-1.2271	-2.1208	-2.0646	-1.5875	-2.3521	-2.0354	-1.8021	-2.4917	-1.5792	-2.0271	-2.5146	-1.6667	-2.2208	-2.1417	-1.5167	-2.525	121.149	-74.742	-157.389	158.985	-120.435	-52.633	-146.334	179.639	-152.522	-46.468	117.089	61.764	-106.020	165.263	38.188	187.677	0.0012025	0.00078708	0.00012968	1061.7	1.283e-05	6.1223e-06	1350.9	363.29	8.2663e-06	5.5105e-06	452.3	170.6	140.61	58.186	2.1776e-05	73.501	0.00061571	0.00059369	0.00017046	912.83	6.474e-06	6.4443e-06	1153.5	312.38	6.2624e-06	6.5979e-06	387.07	145.72	121.03	50.196	6.4179e-06	63.381	-40.488	-72.701	-37.901	-150.940	-83.891	-20.161	-152.752	-145.270	-58.286	18.246	-148.735	-144.035	-140.164	-135.652	-17.040	-139.493	-8191	255	
1878.234	1	1	0	0	0.10343	0.41837	0.19966	0.069409	0.19282	0.097985	0.16842	0.14992	0.055741	0.042373	0.24326	0.23602	0.093755	0.047394	0.050123	0.1698	-1.2667	-1.7979	-2.5479	-1.6542	-2.225	-2.2438	-1.5312	-2.5687	-1.775	-1.5792	-2.3708	-1.7021	-2.0667	-2.1333	-1.3125	-2.4479	99.231	-95.787	-162.731	130.753	196.064	-81.495	-52.042	194.516	154.727	150.141	-96.195	114.070	-94.642	-97.395	49.431	51.676	0.0011497	0.00083592	2.2758e-05	1070.9	1.5904e-05	8.2685e-06	1361.4	364.5	1.0774e-05	3.177e-06	450.28	168.77	140.7	58.317	6.4528e-06	72.284	0.0006059	0.00059028	0.00016041	917.59	6.3806e-06	6.5398e-06	1158.3	312.92	6.2809e-06	6.3567e-06	385.92	144.84	120.73	50.259	6.4012e-06	62.474	-23.550	-122.939	9.019	-151.072	8.666	-46.659	-153.487	-145.733	-26.559	-58.619	-148.749	-143.991	-140.187	-135.715	43.414	-140.649	-8191	255	
1878.330	1	1	0	0	0.063985	0.18757	0.1078	0.48467	0.11717	0.0076718	0.18122	0.2639	0.16512	0.29239	0.12038	0.23914	0.16295	0.1646	0.11086	0.30078	-1.55	-1.6167	-2.2896	-1.5	-2.0333	-2.2875	-1.7854	-2.5896	-1.9479	-1.6958	-2.6458	-1.6229	-2.0625	-2.45	-1.5146	-2.3229	151.243	162.828	-122.389	128.277	-107.529	112.773	97.109	93.404	-43.542	-121.964	-153.965	173.734	115.727	-157.966	148.854	-127.056	0.0010905	0.00092986	0.00043716	1066.1	1.2757e-05	8.3834e-06	1349.2	371.58	3.3342e-06	1.2885e-05	452.95	170.61	140.94	58.54	4.9498e-06	72.619	0.00062311	0.00059579	0.00016133	915.41	6.274e-06	6.4478e-06	1154.9	316.93	6.3028e-06	6.4684e-06	388	145.65	121.06	50.466	6.407e-06	62.724	-29.149	-111.762	-70.404	-151.310	-29.676	67.535	-153.244	-145.584	25.351	-78.075	-148.776	-144.199	-140.396	-135.672	-75.857	-140.019	-8191	255	
1878.426	1	1	0	0	0.15896	0.099177	0.084391	0.34198	0.17079	0.078726	0.20076	0.20161	0.11898	0.11567	0.11183	0.25807	0.25649	0.38455	0.15315	0.15262	-1.4	-1.6083	-2.5458	-1.7896	-1.9458	-2.2979	-1.6063	-2.4104	-2.0021	-1.6625	-2.65	-1.9917	-1.8146	-2.4896	-1.5417	-2.5812	-89.471	174.200	-36.462	188.833	-119.882	-160.301	-148.811	134.121	-78.343	94.984	-87.721	136.247	-136.856	120.006	-39.131	171.379	0.0011663	9.3917e-05	0.0002527	1077.4	4.3529e-06	1.0024e-05	1358.3	371.16	5.327e-06	5.0709e-06	453.32	170.15	142.68	58.856	1.2015e-05	73.572	0.0006106	0.00059061	0.00016091	923.94	6.4315e-06	6.3701e-06	1162.3	317.32	6.3164e-06	6.3872e-06	388.51	145.33	122.09	50.789	6.3921e-06	63.541	-29.178	45.004	-37.198	-151.238	156.302	38.418	-153.177	-145.627	-1.889	64.585	-148.501	-144.076	-140.423	-135.823	-60.543	-139.799	-8191	255	
1878.522	1	1	0	0	0.13533	0.13981	0.28478	0.48276	0.25272	0.10262	0.15633	0.12394	0.19955	0.1585	0.25351	0.36194	0.55	0.17286	0.052134	0.22912	-1.7521	-1.5396	-2.3542	-1.8042	-1.6125	-2.3625	-1.7062	-2.4479	-2.2188	-1.5312	-2.65	-1.8438	-1.8104	-2.6458	-1.3854	-2.3187	-152.673	-96.143	50.531	165.049	-46.550	11.033	118.282	188.538	78.094	-43.494	49.378	178.046	187.530	169.686	-134.185	110.329	0.00099608	0.0008524	0.00017905	1077.6	6.4327e-06	2.8046e-06	1371.1	370.02	3.7302e-06	6.5233e-06	458.52	171.53	142.09	59.684	1.412e-05	75.807	0.00061307	0.00059477	0.00016209	923.04	6.3612e-06	6.3781e-06	1166	317.52	6.1602e-06	6.5728e-06	392.73	147.16	122.42	51.363	6.4702e-06	64.903	-38.810	-53.327	-42.032	-150.985	-33.969	-7.815	-153.141	-145.602	47.142	1.336	-148.158	-143.794	-139.920	-135.774	-17.116	-139.992	-8191	255	
1878.618	1	1	0	0	0.17786	0.18087	0.0695	0.25864	0.16129	0.05339	0.25885	0.35084	0.18555	0.30838	0.20738	0.14283	0.21339	0.31444	0.084834	0.10668	-1.8042	-1.6958	-2.4771	-1.8312	-1.5146	-2.3688	-1.675	-2.2333	-2.3875	-1.3646	-2.5708	-2.0604	-1.5042	-2.6979	-1.5125	-2.1396	-160.706	-72.578	-44.833	108.384	-136.964	-62.881	112.710	125.026	133.748	135.779	94.855	-156.217	-18.347	192.861	-146.269	155.286	0.0011908	0.00073252	0.00018008	1082.7	2.0603e-06	4.2245e-06	1364.1	371.91	6.9911e-06	1.5341e-05	456.86	172.69	143.37	59.063	6.756e-06	73.527	0.00060839	0.00058955	0.0001619	928.42	6.2036e-06	6.4186e-06	1163.6	318.75	6.3686e-06	6.3988e-06	391.85	147.48	122.46	51.027	6.226e-06	63.305	-30.341	-112.332	-86.677	-151.682	144.514	12.987	-153.467	-145.501	-62.098	-14.614	-148.578	-144.279	-140.444	-136.002	-53.756	-139.858	-8191	255	
1878.739	1	1	0	0	0.1603	0.24822	0.022545	0.19085	0.13308	0.3435	0.095902	0.37582	0.19096	0.27977	0.12182	0.28734	0.17952	0.1746	0.18591	0.15478	-1.9271	-1.4271	-2.2875	-2.0604	-1.4896	-2.2708	-1.725	-2.1688	-2.4	-1.6333	-2.3458	-2.4062	-1.4813	-2.6375	-1.6083	-1.7708	-38.332	59.717	-22.171	169.885	161.231	-121.136	164.879	133.716	-56.346	-22.117	-150.285	82.891	-108.238	123.510	-90.015	20.140	0.0012519	0.00078418	0.00033205	1072.3	2.9838e-06	6.2505e-06	1360.8	370.13	2.8195e-06	1.5572e-05	453.97	170.91	144.14	59.015	1.8065e-05	73.322	0.00059833	0.00056904	0.00015984	919.83	6.2381e-06	6.3421e-06	1155.5	317.44	6.3546e-06	6.321e-06	390.14	146.29	122.9	51.019	6.2748e-06	63.171	-32.687	-97.981	-86.873	-151.446	79.443	-92.711	-153.245	-145.518	9.822	41.507	-148.971	-143.861	-140.321	-135.930	35.859	-140.493	-8191	255	
1878.833	1	1	0	0	0.16223	0.061397	0.1249	0.17185	0.19235	0.1455	0.33887	0.10834	0.074103	0.12423	0.02269	0.053277	0.18618	0.116	0.25227	0.22167	-1.9542	-1.3833	-2.1354	-2.0417	-1.4625	-2.4521	-1.9417	-1.8563	-2.2333	-1.5458	-2.2417	-2.2875	-1.5187	-2.55	-1.8	-1.8354	-41.556	-153.091	-61.200	110.548	-86.108	69.822	137.604	93.090	151.793	70.195	-153.924	46.478	166.800	131.598	70.131	28.615	0.0010971	0.00016864	0.00013129	1083.1	3.8756e-06	8.1249e-06	1360.5	372.74	1.4288e-05	5.0708e-06	456.92	171.05	142.13	58.69	6.688e-06	73.455	0.00060161	0.00058376	0.00016534	927.09	6.3077e-06	6.4928e-06	1162.8	318.99	6.423e-06	6.4057e-06	391.09	146.55	121.81	50.81	6.6328e-06	63.397	-35.236	-34.610	-41.084	-151.327	38.289	-40.759	-152.951	-145.653	-42.441	72.460	-148.712	-143.855	-140.133	-135.561	-47.683	-139.481	-8191	255	
1878.907	1	1	0	0	0.10851	0.19041	0.17701	0.077317	0.093752	0.19806	0.30297	0.059833	0.11788	0.17353	0.23549	0.14299	0.37234	0.11731	0.13802	0.15681	-1.9104	-1.6792	-2.0354	-2.4625	-1.5896	-2.2938	-2.1021	-1.9458	-2.3438	-1.5458	-2.2375	-2.2625	-1.6104	-2.5167	-1.825	-1.8771	51.919	-26.294	-5.690	-118.739	-36.637	-77.129	134.019	88.541	196.101	-54.343	-147.168	-91.046	188.643	83.208	-94.456	134.911	0.0011878	0.00075311	0.0002424	1072.9	9.5891e-06	1.5999e-06	1364.6	370.59	1.2228e-05	4.9896e-07	455.34	171.16	141.63	59.316	4.9998e-06	74.441	0.00061882	0.00058102	0.00016847	924.11	6.4904e-06	6.6118e-06	1164.2	318.39	6.609e-06	6.6422e-06	391.79	147.07	122.49	51.199	6.5434e-06	63.997	-29.463	-91.674	-56.485	-151.296	-3.440	11.354	-153.580	-145.579	13.037	-62.207	-148.835	-144.269	-140.772	-135.378	-42.724	-140.090	-8191	255	
1879.027	1	1	0	0	0.38659	0.12206	0.18167	0.076904	0.16242	0.074735	0.34008	0.10439	0.19994	0.060374	0.040117	0.14911	0.23703	0.24124	0.18813	0.14392	-2.1333	-1.6938	-1.9458	-2.4188	-1.6	-2.3563	-2.2646	-1.775	-2.4229	-1.8125	-1.9708	-2.4813	-1.5438	-2.2313	-2.1125	-1.6354	-79.677	1.674	-106.671	167.421	178.871	134.183	108.958	86.125	-134.917	-50.754	154.421	-147.465	99.373	-60.899	156.962	165.313	0.0012725	0.0012595	0.0001756	1078.1	8.1348e-06	1.1436e-05	1367.7	373.35	1.2139e-05	2.1331e-05	455.22	170.45	143.48	59.284	3.2272e-06	73.264	0.00060981	0.00058471	0.00016838	927.25	6.5361e-06	6.2553e-06	1162.5	318.45	6.3647e-06	6.3963e-06	389.1	146.6	122.27	51.028	6.424e-06	63.142	-31.210	-50.141	-131.681	-151.440	-46.495	2.709	-153.294	-145.455	-1.321	-8.655	-148.608	-144.257	-140.694	-135.837	-24.483	-139.537	-8191	255	
1879.122	1	1	0	0	0.27425	0.4208	0.27209	0.25965	0.13017	0.14957	0.31268	0.12754	0.08772	0.13779	0.27382	0.085429	0.080957	0.13903	0.17453	0.2201	-2.1792	-1.8583	-1.4979	-2.7188	-1.7104	-2.0417	-2.2146	-1.7292	-2.2708	-1.8396	-1.8146	-2.3833	-1.7042	-2.3792	-2.1583	-1.5521	-127.334	120.679	-78.889	126.447	123.004	80.184	140.999	175.710	-44.043	47.680	175.985	-26.183	47.445	153.072	-25.593	134.934	0.0012158	0.00047108	0.00032969	1079.7	1.0346e-05	2.4364e-06	1359.4	370.97	4.6948e-06	1.1138e-05	456.26	171.72	143.79	59.12	1.4118e-05	73.677	0.0005908	0.00057427	0.00016007	921.02	6.4069e-06	6.4621e-06	1157	318.79	6.2186e-06	6.3743e-06	391.36	146.93	123.08	51.16	6.4999e-06	63.454	-28.699	-87.743	-129.432	-150.890	-18.249	3.786	-153.212	-145.479	45.751	-46.208	-148.591	-144.068	-140.276	-135.777	27.297	-140.333	-8191	255	
1879.218	1	1	0	0	0.19059	0.16811	0.1385	0.093904	0.32182	0.096366	0.1774	0.18109	0.075318	0.37752	0.065526	0.27455	0.098015	0.32573	0.1553	0.28915	-2.0396	-1.8854	-1.6187	-2.55	-1.5521	-2.05	-2.4854	-1.6437	-2.2979	-2.0583	-1.4833	-2.6271	-1.6521	-1.9375	-2.3854	-1.6187	-136.959	85.895	-43.194	53.407	-47.538	-74.057	192.731	125.228	54.077	95.264	-67.296	83.418	-143.305	129.600	59.984	40.083	0.0010578	0.0013374	0.00020352	1083.5	4.1918e-06	1.5232e-05	1359.6	376.2	6.6879e-06	1.8254e-05	458.22	171.81	145	59.141	1.3251e-05	74.052	0.00060012	0.00058372	0.00015993	928.7	6.3564e-06	6.4812e-06	1160.6	320.64	6.3573e-06	6.4981e-06	391.76	146.94	123.42	51.23	6.2935e-06	63.682	-32.817	-60.826	-131.104	-151.022	-92.754	45.105	-153.139	-145.569	-47.785	-35.572	-148.651	-143.965	-140.545	-135.435	-49.783	-140.372	-8191	255	
1879.314	1	1	0	0	0.1246	0.25197	0.39013	0.25365	0.050137	0.045563	0.18022	0.25224	0.15755	0.044049	0.045636	0.17725	0.10902	0.12835	0.14769	0.44172	-1.7979	-1.9458	-1.3333	-2.4833	-1.6979	-1.6146	-2.7354	-1.6021	-2.3729	-2.3021	-1.6187	-2.4333	-1.6729	-1.8354	-2.3208	-1.6313	85.319	146.042	97.551	171.099	195.729	43.895	96.234	128.236	60.585	-134.815	35.449	96.657	-26.252	170.931	93.998	154.887	0.0012326	0.0013592	0.00042694	1082.9	8.0296e-06	1.8126e-05	1361.2	374.57	1.443e-05	9.6366e-06	457.32	173.26	145.06	59.665	1.9397e-05	75.005	0.00060512	0.00058064	0.00016168	926.22	6.2961e-06	6.4888e-06	1163	320.93	6.3257e-06	6.1696e-06	391.82	148.53	123.85	51.705	6.3452e-06	64.462	-27.255	-83.736	-70.797	-151.163	21.011	-29.456	-153.283	-145.522	-43.937	-9.742	-148.273	-143.532	-140.356	-135.572	-41.040	-140.135	-8191	255	
1879.435	1	1	0	0	0.10009	0.25959	0.075783	0.2356	0.16649	0.16482	0.30826	0.15399	0.11781	0.2505	0.10473	0.040511	0.12789	0.13966	0.2474	0.1803	-1.8833	-2.3479	-1.5625	-2.55	-1.775	-1.7396	-2.7292	-1.8438	-1.9562	-2.3979	-1.5604	-2.525	-1.9604	-1.5479	-2.4479	-1.7708	-75.152	-54.605	-67.272	187.419	156.969	67.799	169.305	97.941	159.758	80.720	-143.497	163.972	-158.180	120.945	-128.500	171.052	0.0012819	0.00052012	0.00019569	1079.9	6.2855e-06	4.8629e-06	1369.4	374.53	1.3949e-05	1.0082e-05	456.03	172.41	140.95	59.19	2.1261e-05	74.233	0.00059162	0.00057061	0.00015945	925.92	6.3352e-06	6.2004e-06	1165.2	319.87	6.1286e-06	6.2529e-06	391.39	147.01	122.45	51.195	6.2712e-06	63.338	-33.137	-119.536	-86.106	-151.000	0.095	47.101	-153.165	-145.431	-45.479	-68.355	-148.563	-144.042	-140.430	-135.692	1.605	-140.234	-8191	255	
1879.531	1	1	0	0	0.30825	0.039442	0.2229	0.25916	0.19882	0.28061	0.20253	0.061596	0.24405	0.22928	0.11306	0.17481	0.11819	0.13009	0.11214	0.1642	-1.5104	-2.3937	-1.4354	-2.5521	-2.0521	-1.6208	-2.6312	-1.8708	-1.775	-2.4042	-1.6375	-2.2854	-2.2521	-1.6146	-2.4875	-2.0792	155.373	166.581	107.746	178.951	-25.046	-97.282	127.752	130.759	129.555	-67.942	49.247	-144.139	89.946	77.229	101.972	109.559	0.0011404	0.00030085	0.0003356	1089.8	1.063e-05	4.3142e-06	1368.8	373.2	1.4934e-05	8.7024e-06	456.92	170.5	143.31	59.164	1.8015e-05	73.031	0.00059948	0.00056729	0.00015892	933.04	6.2565e-06	6.3006e-06	1165.7	319.13	6.0762e-06	6.2498e-06	390.71	145.64	122.9	51.067	6.1888e-06	62.817	-27.919	-105.541	-13.289	-150.808	57.261	36.299	-153.558	-145.502	-10.697	22.341	-148.343	-144.400	-140.182	-135.565	-15.726	-140.340	-8191	255	
1879.602	1	1	0	0	0.28676	0.11423	0.3066	0.23574	0.27796	0.46934	0.31328	0.20651	0.25117	0.1408	0.21456	0.2533	0.20033	0.26718	0.24193	0.15042	-1.6542	-2.2667	-1.4125	-2.25	-2.3042	-1.8375	-2.4479	-1.8417	-1.8687	-2.6208	-1.7021	-2.3604	-2.3958	-1.4688	-2.5187	-2.0187	116.471	118.444	195.258	162.167	136.150	-76.176	135.226	193.807	9.805	187.399	101.803	184.619	124.631	181.943	25.765	191.100	0.0010875	0.00051697	0.00039298	1074.9	5.8914e-06	5.6522e-06	1366.3	372.76	1.4117e-05	6.9101e-06	449.02	171.26	143.87	58.887	5.5492e-06	72.846	0.0005903	0.0005569	0.00016019	924.09	6.2792e-06	6.2868e-06	1163	318.73	6.054e-06	5.9856e-06	387.51	146.03	122.37	50.899	6.1604e-06	62.949	-30.641	-151.549	-1.234	-150.897	-3.276	-45.412	-153.144	-145.862	-28.202	43.884	-148.820	-144.069	-140.547	-135.667	20.846	-140.068	-8191	255	
1879.699	1	1	0	0	0.16217	0.27881	0.0032729	0.24407	0.18045	0.037253	0.33628	0.22624	0.073768	0.18629	0.18437	0.32543	0.16724	0.16382	0.082078	0.33609	-1.2667	-2.2167	-1.6146	-2.2	-2.2062	-1.4625	-2.3854	-2.0938	-1.525	-2.675	-1.7396	-2.0979	-2.3104	-1.8062	-2.3042	-2.2604	146.133	46.808	195.094	-121.758	82.771	27.783	125.976	128.500	128.411	76.804	68.994	-151.246	-127.789	194.900	-89.079	157.907	0.0011573	0.00092769	0.00028509	1081.5	1.1113e-05	9.2089e-06	1368.7	370.91	6.8205e-06	1.3486e-05	454.97	170.8	143.73	59.447	1.2786e-05	73.871	0.00059705	0.00056502	0.00016045	929.94	6.214e-06	6.253e-06	1166.8	318.4	6.1734e-06	6.1497e-06	390.59	146.4	122.51	51.225	6.2276e-06	63.587	-30.265	-142.359	-93.795	-151.311	-43.598	-77.606	-153.511	-145.737	-15.902	-35.469	-148.386	-144.062	-140.636	-136.040	56.890	-140.219	-8191	255	
1879.819	1	1	0	0	0.10389	0.28473	0.083132	0.21051	0.30346	0.14433	0.068893	0.31976	0.17098	0.13587	0.15477	0.16705	0.22863	0.078896	0.20406	0.17752	-1.2354	-2.4771	-1.7271	-2.0062	-2.2333	-1.6313	-2.4188	-2.3083	-1.4854	-2.4583	-1.75	-1.8646	-2.5479	-1.6625	-2.2188	-2.5417	120.474	122.690	61.191	167.430	23.267	107.974	-74.174	141.477	-9.780	-111.952	36.025	118.995	167.580	158.493	146.791	40.097	0.0010142	0.0012447	0.00020843	1089.2	7.6296e-06	3.9442e-06	1365.8	372.12	1.835e-05	1.0977e-05	456.09	170.23	142.98	59.053	7.2667e-06	73.477	0.0005908	0.00056532	0.00015644	929.18	5.9924e-06	6.0468e-06	1165.2	318.28	6.0245e-06	5.8926e-06	389.05	145.57	122.18	50.962	6.2469e-06	62.887	-29.692	-101.605	-77.370	-151.301	-11.309	-13.240	-153.125	-145.872	-27.468	-16.822	-148.593	-143.991	-140.548	-135.990	2.021	-140.278	-8191	255	
1879.914	1	1	0	0	0.22658	0.067576	0.50634	0.25229	0.12332	0.061226	0.20753	0.10615	0.043412	0.041634	0.19962	0.1268	0.22953	0.2506	0.094166	0.19831	-1.2458	-2.5333	-1.7188	-1.9708	-2.5062	-1.3646	-2.2271	-2.2833	-1.6625	-2.5229	-2.2	-1.9771	-2.6417	-1.7917	-2.0646	-2.5333	-63.590	34.818	-161.229	186.302	0.586	146.342	174.859	121.446	-60.787	68.749	76.618	-37.478	-59.739	190.052	14.394	160.719	0.0009134	0.00040114	0.00021324	1076	1.5535e-06	1.0628e-05	1354.1	373.62	8.7531e-06	6.2486e-06	454.93	168.98	141.82	59.393	2.0134e-05	73.211	0.0005924	0.00056066	0.00015648	922.11	6.0824e-06	6.0018e-06	1158.9	319.35	6.0565e-06	6.1654e-06	389.37	145.41	122.09	51.154	5.9833e-06	62.841	-30.384	-36.790	-70.078	-151.022	-93.796	-43.102	-153.358	-145.613	-79.361	-67.674	-148.278	-143.760	-140.215	-135.629	-12.948	-140.344	-8191	255	
1880.012	1	1	0	0	0.094082	0.24127	0.13018	0.23126	0.075935	0.18762	0.2277	0.29049	0.24721	0.20589	0.39122	0.17934	0.062875	0.19215	0.33795	0.35076	-1.2792	-2.2583	-2.0687	-1.7646	-2.375	-1.6729	-2.2667	-2.5687	-1.6354	-2.525	-2.2333	-1.5604	-2.3479	-1.7771	-1.8563	-2.5292	-115.217	-14.694	-82.730	177.741	77.190	15.133	111.764	92.189	138.257	58.282	114.397	-155.884	4.707	139.705	-143.851	116.996	0.001202	0.00020812	0.00023304	1083.2	2.8286e-06	1.1566e-05	1357.8	373.72	1.4584e-05	1.0102e-05	455.52	171.34	144.09	59.854	1.1735e-05	74.107	0.00059478	0.00055405	0.00015285	924.23	6.2014e-06	6.0545e-06	1158	320.44	6.0962e-06	5.9531e-06	390.24	146.7	123.32	51.583	6.0687e-06	63.557	-37.903	181.729	-56.718	-151.174	-89.305	-12.327	-152.880	-145.579	-36.882	28.249	-148.745	-143.900	-140.298	-136.089	-26.173	-140.396	-8191	255	
1880.130	1	1	0	0	0.046318	0.13255	0.15209	0.43243	0.24383	0.043773	0.1216	0.18407	0.166	0.13077	0.1669	0.19424	0.18722	0.23126	0.047066	0.13667	-1.0604	-2.1813	-2.325	-1.6625	-2.4125	-1.6313	-1.7396	-2.5792	-1.3979	-2.2208	-2.375	-1.6792	-2.4125	-2.0062	-1.8875	-2.6604	-47.471	-163.491	21.712	161.045	-28.838	-111.011	82.557	175.925	5.295	-94.905	-123.127	-152.148	-149.687	172.765	63.353	100.181	0.0012164	0.0003656	0.00018134	1075.9	6.8975e-06	6.5634e-06	1376.1	376.65	9.2102e-06	1.1006e-05	459.95	173.08	144.39	60.65	6.9663e-06	75.445	0.00058798	0.00055949	0.000153	923.16	6.0543e-06	6.1656e-06	1167.8	323.02	5.9963e-06	6.1213e-06	393.13	148.22	124.14	52.236	6.2097e-06	64.685	-33.605	-68.824	-135.492	-151.177	-86.252	18.727	-153.327	-145.638	-113.979	-19.900	-148.906	-143.838	-140.750	-136.022	20.012	-140.283	-8191	255	
1880.202	1	1	0	0	0.05357	0.2071	0.082591	0.18482	0.11232	0.16709	0.32325	0.4237	0.15227	0.13734	0.18957	0.04767	0.22074	0.30963	0.11651	0.15919	-1.2979	-2.1875	-2.3063	-1.625	-2.3417	-1.9958	-1.7917	-2.6104	-1.4833	-2.1708	-2.6521	-1.6938	-2.5396	-2.1417	-1.575	-2.8063	110.077	62.490	72.930	-121.731	53.923	132.616	142.858	130.675	120.758	-85.096	100.937	95.265	-39.581	158.341	152.135	134.846	0.001289	0.0010428	0.00018668	1086.4	2.2953e-06	1.1227e-05	1367.3	375.21	1.4251e-05	9.0992e-06	457.02	170.56	144.15	59.414	1.0962e-05	73.528	0.00057372	0.00056101	0.00015673	930.61	5.9111e-06	6.1457e-06	1164.7	321.48	5.8879e-06	6.0643e-06	390.49	146.59	122.89	51.424	5.9505e-06	63.314	-30.814	-128.620	-151.119	-151.050	55.701	-19.797	-153.280	-145.748	14.351	-14.012	-148.450	-144.065	-140.520	-135.702	15.437	-140.216	-8191	255	
1880.298	1	1	0	0	0.074422	0.31624	0.053624	0.18526	0.28417	0.081698	0.16789	0.18249	0.044044	0.096127	0.080628	0.17105	0.061468	0.27333	0.14946	0.34684	-1.3229	-1.9813	-2.4667	-1.6604	-2.3438	-2.1771	-1.95	-2.6604	-1.8167	-1.9021	-2.6042	-1.7313	-2.4083	-2.5187	-1.4562	-2.7313	-99.747	-2.773	-51.175	35.226	17.040	123.209	106.191	193.732	5.689	35.987	-124.459	-144.136	-52.891	173.857	-78.341	163.800	0.0010639	0.00040956	0.00016128	1085.7	7.7067e-06	6.3405e-06	1362.3	372.27	1.2032e-05	8.07e-06	455.05	169.66	142.44	59.236	3.9407e-06	72.57	0.00055587	0.00054511	0.00015311	924.67	5.9388e-06	5.9652e-06	1156	318.32	5.9792e-06	5.952e-06	388.39	144.95	121.88	51.097	5.943e-06	62.347	-34.746	-44.643	-84.640	-151.379	113.632	-14.709	-153.102	-145.689	-44.818	-15.431	-148.617	-144.368	-140.395	-136.105	-18.204	-140.221	-8191	255	
1880.419	1	1	0	0	0.276	0.040485	0.13526	0.1591	0.13858	0.090722	0.24309	0.33055	0.072488	0.28327	0.21468	0.34455	0.044194	0.12062	0.25713	0.025338	-1.3667	-1.8646	-2.3187	-1.8271	-2.3125	-2.1688	-1.8854	-2.6646	-1.9375	-1.6771	-2.7021	-1.6667	-2.1229	-2.4146	-1.5583	-2.5458	-50.794	83.394	41.233	-120.078	-82.103	-63.268	168.441	148.967	138.300	112.062	187.588	-78.102	15.415	-160.263	-112.920	-47.307	0.0012003	0.00024719	9.0614e-05	1079.1	6.5139e-06	8.9649e-06	1360.7	372.28	1.3463e-05	1.419e-05	454.02	169.19	142.93	58.94	1.103e-05	73.317	0.00056262	0.00054164	0.00014971	925.29	5.9077e-06	6.1213e-06	1156.9	318.09	5.8831e-06	5.8353e-06	387.03	144.64	122.01	50.948	5.9183e-06	62.834	-25.944	-71.819	-104.736	-151.135	-11.002	-50.749	-152.958	-145.631	24.488	-43.969	-148.685	-143.765	-139.846	-135.735	-23.143	-140.325	-8191	255	
1880.515	1	1	0	0	0.097941	0.22424	0.11058	0.15448	0.19519	0.17579	0.18807	0.28202	0.07162	0.14895	0.18995	0.31175	0.1383	0.28779	0.080443	0.11168	-1.5792	-1.5688	-2.6479	-1.8125	-1.8729	-2.2687	-1.4292	-2.4437	-2.1104	-1.6771	-2.6	-1.6583	-2.1354	-2.3688	-1.4688	-2.5208	18.187	-136.020	-100.590	186.963	-30.748	160.010	118.846	-154.815	-157.640	-51.958	161.576	-135.615	-84.398	124.783	139.134	179.372	0.00086745	0.00041372	0.0002282	1087.9	5.9787e-06	5.2114e-06	1379	371.06	9.154e-06	5.6935e-06	454.58	171.31	144.22	59.786	7.6226e-06	74.225	0.000575	0.00053641	0.00015105	927.54	6.1124e-06	6.0618e-06	1169.2	318.44	5.8545e-06	5.87e-06	388.73	145.99	122.67	51.435	5.8719e-06	63.615	-17.728	-73.687	-72.903	-151.422	131.349	-16.251	-153.237	-145.783	7.217	34.953	-148.814	-144.470	-140.070	-135.904	-4.004	-140.273	-8191	255	
1880.611	1	1	0	0	0.16769	0.049814	0.25452	0.29116	0.24989	0.050463	0.19708	0.28949	0.10349	0.083224	0.19348	0.43119	0.15553	0.174	0.12147	0.19996	-1.6854	-1.5042	-2.4458	-1.8958	-1.8333	-2.2604	-1.7479	-2.2292	-1.9458	-1.5979	-2.4854	-1.8479	-1.6792	-2.5146	-1.5208	-2.3771	3.215	-2.562	167.553	127.480	116.650	36.818	189.663	-137.198	-71.562	142.957	-55.193	173.701	146.707	-82.086	-60.634	104.624	0.0009779	0.00060183	0.00041186	1087.3	1.3131e-05	9.1544e-06	1365.9	370.77	6.2419e-06	9.5939e-06	453.74	170.29	142.01	59.264	1.4833e-06	72.755	0.00056951	0.00054942	0.00014982	929.85	5.9202e-06	6.058e-06	1163.7	317.88	5.7885e-06	6.0254e-06	387.98	145.11	121.52	51.115	6.0813e-06	62.468	-23.588	-28.796	-66.969	-151.014	-5.782	3.623	-153.681	-145.412	-62.003	-36.675	-148.495	-144.111	-140.193	-135.692	45.774	-139.939	-8191	255	
1880.732	1	1	0	0	0.069899	0.25233	0.18288	0.25211	0.3	0.087413	0.036863	0.13338	0.090486	0.049124	0.28276	0.085863	0.070767	0.28689	0.0187	0.15652	-1.6958	-1.5042	-2.3354	-1.9729	-1.7021	-2.3896	-1.8125	-2.2917	-2.1354	-1.4167	-2.5	-2.0375	-1.725	-2.5208	-1.7125	-2.1667	-4.941	-5.367	86.153	134.926	-7.414	-71.819	131.007	100.535	136.835	89.592	-59.853	147.352	-129.676	-130.444	-32.555	166.780	0.0010058	0.00025724	0.0001826	1074	6.3388e-06	6.7001e-06	1364.1	371.14	8.1668e-06	5.1603e-06	448.52	168.02	141.72	59.244	1.2796e-05	72.145	0.00057042	0.0005644	0.00015071	924	5.9768e-06	6.1373e-06	1160.3	317.6	5.9232e-06	6.013e-06	385.14	143.87	121.1	50.964	5.9107e-06	61.953	-27.083	-123.173	-57.328	-151.127	-29.857	-6.599	-153.408	-145.695	16.428	-19.835	-148.768	-144.249	-141.113	-135.939	43.421	-140.135	-8191	255	
1880.803	1	1	0	0	0.19683	0.13261	0.20717	0.23586	0.12598	0.088777	0.33175	0.19905	0.095042	0.24545	0.2178	0.098964	0.094655	0.13977	0.36298	0.086398	-2.0229	-1.5187	-2.1333	-2.2938	-1.4896	-2.5167	-1.8896	-2.2708	-2.3125	-1.6	-2.4562	-2.0792	-1.6313	-2.6104	-1.6104	-2.1146	121.657	129.161	86.910	142.369	-86.966	174.726	142.706	-125.179	-101.422	185.111	128.798	156.915	103.730	-136.621	54.470	183.705	0.0010866	0.00046681	0.00018127	1082.8	2.5868e-06	1.8857e-05	1363.8	370.62	1.1646e-05	1.0166e-05	453.03	167.61	141.88	59.135	5.0624e-06	72.18	0.00056957	0.00054447	0.00014995	926.63	5.9745e-06	6.0258e-06	1159.9	317.73	5.8811e-06	5.9647e-06	387.04	143.43	121.13	50.917	6.0498e-06	62.224	-34.025	-116.908	-91.187	-151.201	-158.846	-2.616	-153.539	-145.959	-47.135	-39.829	-148.470	-144.302	-140.743	-135.490	-70.656	-139.954	-8191	255	
1880.900	1	1	0	0	0.14015	0.12693	0.091299	0.23312	0.068975	0.11515	0.35536	0.23951	0.13117	0.052182	0.078459	0.17106	0.11446	0.10524	0.028449	0.32621	-2.025	-1.4271	-2.25	-2.0938	-1.6562	-2.4313	-2.2104	-1.9667	-2.3708	-1.6125	-2.3729	-2.2438	-1.875	-2.4958	-1.8312	-2.0708	-7.985	146.439	-35.974	94.428	109.105	163.422	73.066	114.862	-1.539	-135.398	-93.393	-87.625	13.393	-131.554	-134.067	99.659	0.0012201	0.00022348	0.0004092	1084.2	1.0088e-05	9.679e-06	1360.3	368.4	1.5555e-05	7.8171e-06	450.2	166.56	140	58.559	4.0513e-06	71.764	0.00058178	0.00055313	0.00015193	927.14	6.1016e-06	6.0081e-06	1158.3	315.75	6.1346e-06	6.1468e-06	385.02	143.18	120.23	50.425	6.0048e-06	61.936	-29.353	43.891	-44.859	-151.069	5.980	21.851	-153.517	-145.561	-36.426	-15.296	-148.758	-143.483	-140.241	-135.669	-70.453	-140.047	-8191	255	
1880.996	1	1	0	0	0.064415	0.041476	0.092382	0.2769	0.13676	0.10798	0.12165	0.14558	0.14112	0.20799	0.04421	0.032558	0.16111	0.28352	0.31435	0.17234	-2.0375	-1.475	-2.1417	-2.275	-1.6354	-2.4979	-2.1354	-1.825	-2.4688	-1.5104	-2.0604	-2.3563	-1.3167	-2.5146	-1.9937	-1.5354	-137.644	-118.701	-98.920	154.840	167.229	95.397	90.196	124.283	50.032	-31.356	-92.036	167.810	-71.810	87.384	95.545	172.083	0.0010174	0.0011946	6.4304e-05	1073.7	2.0613e-05	7.9243e-06	1365.2	367.41	1.1153e-05	2.1761e-06	454.3	165.46	138.65	58.532	3.8674e-06	71.852	0.00057216	0.00055098	0.00015435	919.73	6.0875e-06	6.0032e-06	1162	314.07	5.9854e-06	6.0423e-06	385.8	142.11	119.58	50.465	6.0212e-06	61.81	-34.516	-77.213	83.652	-150.842	-4.031	1.763	-153.237	-145.723	6.508	20.505	-148.601	-144.313	-140.634	-135.802	48.160	-140.220	-8191	255	
1881.115	1	1	0	0	0.28154	0.1428	0.042183	0.092925	0.21806	0.20199	0.091714	0.28598	0.1127	0.34604	0.14681	0.31061	0.16272	0.12172	0.011156	0.32293	-1.9208	-1.5333	-1.8229	-2.5375	-1.5479	-2.475	-2.3542	-1.6667	-2.4292	-1.6812	-1.8625	-2.3708	-1.4188	-2.1604	-2.1688	-1.65	131.788	-110.150	-66.500	-154.750	-90.278	-50.960	49.499	145.405	-154.859	144.393	-5.477	94.196	40.504	162.396	-66.499	194.834	0.0010456	0.00090134	0.00024695	1073.1	1.3856e-05	5.6736e-07	1365.6	367.05	5.7393e-06	1.4304e-05	449	165.52	140.05	58.566	1.9456e-06	71.531	0.00056811	0.00054725	0.00015265	924.55	6.0321e-06	6.0063e-06	1160.5	314.23	6.131e-06	6.1516e-06	385.4	142.01	120.07	50.388	6.0854e-06	61.364	-40.542	-58.813	-36.743	-151.267	-15.810	170.443	-153.107	-145.594	-134.623	-46.030	-148.526	-144.007	-140.827	-135.807	-18.628	-140.219	-8191	255	
1881.211	1	1	0	0	0.1211	0.16151	0.033398	0.070626	0.1262	0.13402	0.23086	0.040074	0.15236	0.15902	0.16208	0.086099	0.11646	0.29741	0.1449	0.22586	-1.8813	-1.7146	-1.6271	-2.6146	-1.4042	-1.975	-2.4083	-1.775	-2.3021	-1.5688	-1.7167	-2.5042	-1.6125	-2.2771	-2.2167	-1.4646	144.208	-162.147	20.627	-158.737	75.156	-23.652	173.208	195.460	167.266	-147.954	89.836	-113.415	-154.463	-163.420	148.062	142.092	0.00091526	0.00068206	0.00043668	1082.8	7.4299e-06	8.4881e-06	1358	368.79	7.2528e-06	1.4794e-05	450.03	166.03	140.86	58.786	1.6536e-05	71.285	0.00057424	0.00054677	0.00015206	928.56	6.1865e-06	6.0765e-06	1158.2	316	5.9992e-06	6.0361e-06	384.52	142.52	119.99	50.674	6.0532e-06	61.459	-30.635	-3.040	-58.881	-151.252	-32.705	-9.974	-153.336	-145.569	-60.451	51.801	-148.674	-144.075	-140.269	-135.459	-30.422	-140.139	-8191	255	
1881.307	1	1	0	0	0.077933	0.27182	0.12217	0.36112	0.44068	0.31443	0.17462	0.39135	0.16404	0.13282	0.21085	0.072347	0.2915	0.11043	0.078794	0.041402	-2.0167	-1.7958	-1.8083	-2.6021	-1.5479	-1.9396	-2.4896	-1.6729	-2.3229	-1.9688	-1.6771	-2.5062	-1.5812	-1.8104	-2.3063	-1.5312	-106.946	-21.536	-5.143	144.170	73.097	65.412	5.531	115.765	118.288	34.468	176.992	-1.827	79.914	-158.651	-9.692	-129.282	0.00090892	0.00045227	0.00042522	1079.2	1.4001e-05	1.0173e-05	1354.6	371.99	7.6993e-06	8.9013e-06	456.6	168.32	141.82	58.94	9.2217e-06	72.504	0.00056324	0.00054573	0.0001571	924.96	6.0755e-06	6.1134e-06	1157	316.95	6.1029e-06	6.0611e-06	387.53	143.85	120.84	50.877	6.1906e-06	62.413	-43.179	180.907	-38.162	-151.390	45.324	22.129	-153.520	-145.602	-12.627	-32.978	-148.887	-143.915	-140.507	-135.534	-128.533	-140.038	-8191	255	
1881.403	1	1	0	0	0.16805	0.18899	0.32446	0.11842	0.25856	0.26639	0.14498	0.17124	0.39028	0.20069	0.2377	0.080701	0.18641	0.20766	0.10859	0.35525	-1.9688	-1.9667	-1.475	-2.4875	-1.6	-1.8188	-2.4813	-1.6812	-2.3542	-1.9958	-1.5917	-2.6396	-1.625	-1.9438	-2.3812	-1.4562	148.268	8.459	-8.698	-81.509	-135.068	-98.870	-136.516	-146.848	144.381	172.509	165.427	100.514	180.404	135.422	195.584	112.456	0.0011187	0.0011909	0.00015622	1082.2	1.0606e-05	3.1359e-06	1369.9	370.03	6.7261e-06	7.0047e-06	454.85	168.57	142.02	59.042	7.3756e-06	72.824	0.00058613	0.00056286	0.00015937	926.2	6.1705e-06	6.2177e-06	1163.6	318.05	6.0408e-06	6.1167e-06	388.93	144.07	121.12	51.07	6.1055e-06	62.411	-34.317	-51.899	-148.997	-151.259	-154.613	-2.078	-153.128	-145.754	-30.511	-26.001	-148.443	-144.048	-140.080	-135.661	1.946	-140.267	-8191	255	
1881.499	1	1	0	0	0.082588	0.14688	0.14332	0.085755	0.057067	0.13278	0.19665	0.23435	0.30117	0.14714	0.14954	0.031129	0.24568	0.23074	0.27732	0.31617	-1.8604	-2.1021	-1.3229	-2.3958	-1.8188	-1.7292	-2.6354	-1.6167	-2.0312	-2.1146	-1.3979	-2.3167	-1.9771	-1.5521	-2.2875	-1.5979	55.270	147.828	105.792	-143.456	56.191	10.717	156.696	165.237	40.075	-140.953	118.253	151.899	30.240	129.853	-112.461	118.580	0.0012782	0.00093735	0.00019452	1086.3	7.1827e-06	1.1384e-05	1354.3	371.47	9.5175e-06	5.3463e-06	452.26	168.5	142.96	59.377	4.9354e-06	72.027	0.00057769	0.00056044	0.00015628	927.62	6.0627e-06	6.1298e-06	1160.5	318.17	6.0754e-06	6.0328e-06	387.36	144.19	121.74	51.281	5.9445e-06	62.118	-22.336	-51.829	-42.103	-151.248	-155.642	31.090	-153.105	-145.541	-13.761	49.135	-149.013	-144.032	-139.902	-135.642	-82.735	-140.490	-8191	255	
1881.595	1	1	0	0	0.066322	0.15016	0.090282	0.20118	0.18745	0.23255	0.29868	0.14377	0.27157	0.079868	0.31631	0.17151	0.19652	0.1017	0.11851	0.25876	-1.8417	-2.2812	-1.5792	-2.5896	-1.8917	-1.5479	-2.6813	-1.6354	-2.1333	-2.4021	-1.5104	-2.55	-1.9396	-1.6542	-2.4417	-1.6917	2.030	57.898	32.857	-145.841	55.678	14.636	132.077	143.052	194.758	95.431	-127.508	166.466	-115.862	123.203	110.303	102.738	0.0010848	0.0009766	0.00015616	1084.4	4.7484e-06	5.8349e-06	1368	372.16	4.9866e-06	8.7775e-06	449.22	168.04	141.93	59.223	6.0054e-06	72.843	0.00057271	0.0005518	0.00015364	928.99	6.0012e-06	6.0443e-06	1163.4	319.91	6.0346e-06	5.9738e-06	387.94	144.7	121.91	51.119	6.013e-06	62.392	-35.199	-92.904	-8.149	-151.139	-110.522	-7.818	-153.194	-145.828	76.876	6.122	-148.559	-143.845	-140.427	-135.294	-100.415	-140.147	-8191	255	
1881.692	1	1	0	0	0.20793	0.16264	0.3088	0.28371	0.24003	0.21759	0.31744	0.12961	0.23346	0.13069	0.26776	0.099019	0.21089	0.25302	0.21557	0.12666	-1.3542	-2.2208	-1.4896	-2.5	-2.0292	-1.525	-2.6021	-1.9979	-1.8729	-2.5271	-1.575	-2.2417	-2.1708	-1.8292	-2.2354	-2.0792	-143.240	64.824	-5.865	129.169	140.904	78.700	81.594	97.282	35.922	61.475	-147.675	-32.007	120.944	132.350	-48.218	152.498	0.0011745	0.0009736	7.5362e-05	1093.7	6.0423e-06	3.6201e-06	1372.4	374.84	9.4469e-06	1.465e-05	458.77	170.04	142	59.889	4.1059e-06	73.933	0.00057063	0.00055867	0.00015441	933.75	6.0145e-06	6.0961e-06	1168.7	320.83	6.1454e-06	6.0824e-06	392.78	145.81	122.25	51.773	6.0989e-06	63.441	-37.169	-80.847	-20.321	-151.145	19.131	-59.508	-153.283	-145.781	-106.147	12.317	-148.600	-143.428	-140.172	-135.604	86.855	-139.733	-8191	255	
1881.812	1	1	0	0	0.28943	0.094152	0.079123	0.2258	0.014281	0.24873	0.18467	0.076418	0.11607	0.096446	0.16415	0.15488	0.24947	0.34378	0.29544	0.15541	-1.4	-2.1771	-1.4854	-2.0771	-2.2562	-1.4542	-2.5125	-1.9646	-1.5958	-2.4167	-1.9146	-2.0625	-2.4458	-1.6208	-2.2812	-2.1333	148.841	-99.163	35.169	159.314	-61.034	73.121	59.344	-111.344	77.780	9.245	143.696	186.097	154.657	168.512	105.227	-146.840	0.0012901	0.0005486	0.00028353	1093.7	5.1882e-06	7.5092e-06	1378.9	376.97	1.4455e-05	1.5461e-05	461.58	171.27	144.68	60.083	6.8233e-06	74.208	0.00058841	0.00056163	0.00016057	936.64	6.0343e-06	6.1526e-06	1173.3	323.31	6.2158e-06	6.1883e-06	396.17	146.56	123.95	52.065	6.0768e-06	63.677	-28.576	-84.940	-92.620	-151.063	-14.533	-9.631	-153.224	-145.932	-75.026	4.332	-148.872	-144.325	-141.002	-136.193	-12.611	-140.736	-8191	255	
1881.908	1	1	0	0	0.24041	0.080821	0.28013	0.13787	0.094486	0.038508	0.11764	0.28496	0.19825	0.098535	0.24399	0.14015	0.24566	0.41108	0.16521	0.17629	-1.2042	-2.5062	-1.5521	-2.2125	-2.2062	-1.5458	-2.4562	-2.2583	-1.7062	-2.6312	-1.6958	-2.0417	-2.4792	-1.8	-2.2271	-2.3917	-145.777	-23.295	76.537	-92.457	134.549	-46.650	-102.240	178.423	54.795	-24.412	140.000	-125.086	194.631	140.260	161.249	182.504	0.0011163	0.00078555	0.0001487	1094.8	4.8867e-06	5.1878e-06	1361.6	377.41	1.3288e-05	8.65e-06	459.27	172.05	144.6	60.216	1.7343e-05	73.553	0.00059857	0.00056701	0.00015731	934.69	6.012e-06	6.2298e-06	1163.9	323.61	6.1194e-06	6.0636e-06	394.18	147.18	123.99	52.105	5.8955e-06	63.221	-35.861	-91.574	-64.330	-151.712	-13.272	1.887	-153.778	-146.183	25.418	-53.900	-148.998	-144.636	-140.417	-135.792	-9.829	-140.457	-8191	255	
1882.003	1	1	0	0	0.13121	0.13509	0.083324	0.14435	0.01033	0.18819	0.15479	0.18558	0.086685	0.22503	0.25798	0.10218	0.17451	0.14448	0.25351	0.28883	-1.0646	-2.5563	-1.7563	-1.9021	-2.2687	-1.5167	-2.5167	-2.2958	-1.5438	-2.3458	-1.9583	-1.6604	-2.4292	-1.7792	-2.1479	-2.3333	-70.730	132.361	25.469	103.655	-140.837	121.988	124.946	86.200	122.532	77.796	163.921	-68.485	52.780	56.207	-125.595	109.101	0.0011139	0.00029945	0.00012842	1089	9.2202e-06	4.3798e-06	1365.2	379.17	1.2635e-06	2.1047e-06	462.2	171.46	145.77	60.425	4.8886e-06	74.283	0.00057976	0.00055118	0.00015248	931.99	5.8541e-06	6.046e-06	1163.3	324.34	5.8308e-06	5.7811e-06	393.73	147.15	124.78	52.315	5.783e-06	63.896	-27.327	-27.815	-57.045	-151.448	-3.409	8.192	-153.325	-145.967	24.115	5.383	-149.043	-144.637	-140.791	-136.101	-58.944	-140.386	-8191	255	
1882.101	1	1	0	0	0.085695	0.19	0.22523	0.23186	0.18757	0.11352	0.29804	0.32274	0.128	0.15619	0.29777	0.15901	0.18989	0.21293	0.17389	0.13716	-1.1875	-2.4729	-1.9771	-1.8583	-2.3833	-1.6083	-2.4167	-2.4813	-1.5125	-2.4313	-2.2812	-1.8042	-2.4062	-1.9604	-1.9458	-2.65	169.742	164.347	133.654	-154.345	-36.788	-2.259	77.205	174.370	-151.558	107.031	157.370	115.581	-118.497	-129.348	93.185	174.401	0.0011366	0.00063684	0.00025075	1086.6	7.5106e-06	6.4609e-06	1367.3	381.44	5.1551e-06	1.0735e-05	466.24	174.08	146.76	61.504	1.0144e-05	75.308	0.00057379	0.00052846	0.00014886	930.73	5.7827e-06	6.0466e-06	1164.1	326.5	5.9182e-06	6.0648e-06	397.38	149.06	125.68	53.219	5.9368e-06	65.103	-35.478	-97.366	-112.122	-151.450	20.221	17.221	-153.490	-146.046	-21.530	-45.082	-148.982	-144.351	-141.123	-136.010	-72.211	-140.654	-8191	255	
1882.195	1	1	0	0	0.26264	0.38305	0.33978	0.21225	0.029765	0.13408	0.10603	0.088677	0.090837	0.15527	0.10676	0.12288	0.025366	0.32933	0.061351	0.26827	-1.3542	-2.2792	-2.2	-1.6812	-2.3875	-1.8687	-2.0708	-2.6604	-1.5104	-2.2062	-2.4854	-1.525	-2.5	-1.9479	-1.7	-2.5771	122.520	44.353	111.473	139.760	101.061	105.654	-127.527	-18.322	162.855	22.146	-131.244	60.146	-81.156	142.100	-111.847	130.559	0.0010125	0.0001769	0.00015784	1093.5	1.378e-05	8.3679e-06	1376.2	385.46	2.029e-05	8.5034e-06	471.94	176.64	148.2	61.903	1.1982e-05	76.252	0.00057173	0.00053518	0.00014986	935.95	5.932e-06	5.939e-06	1172.6	330.16	5.8309e-06	5.7566e-06	402.07	151.32	126.51	53.635	5.8064e-06	65.627	-31.950	24.566	-67.468	-151.518	25.494	13.177	-153.327	-146.178	-26.421	-66.706	-148.835	-144.400	-140.839	-136.422	29.719	-140.364	-8191	255	
#DATA ENDS
