BOXY.EXE: ISS Imagent and Oximeter Data Acquisition Program Version 0.80
Ascii Record File

#ACQ INFORMATION
2  Detector Channels 
16  External MUX Channels 
1  Auxiliary Channels 
5000  Waveform (CCF) Frequency (Hz)
1  Waveforms Skipped 
30  Waveforms Averaged 
1  Cycles Averaged 
16  Acquisitions per Waveform 
10.0806  Updata Rate (Hz) 

#FILE INFORMATION
TRUE -- External MUX Channel results are PARSED.
FALSE -- AC DC and Phase are NOT grouped.
TRUE -- Companion Program Settings File CREATED.
FALSE -- AC data not excluded
FALSE -- DC data not excluded
FALSE -- Phase data not excluded
FALSE -- Auxillary Chn. data not excluded
Tab delimiters

#CALIBRATION STATE
TRUE -- Waveform Calibration Values APPLIED.


#AUX CALIBRATION VALUES
Val Type	aux-1	

Term	1.0000e+00	
Factor	0.0000e+00	


#WF CALIBRATION VALUES
A = Detector Channel
Val Type	A-AC1	A-AC2	A-AC3	A-AC4	A-AC5	A-AC6	A-AC7	A-AC8	A-AC9	A-AC10	A-AC11	A-AC12	A-AC13	A-AC14	A-AC15	A-AC16	A-DC1	A-DC2	A-DC3	A-DC4	A-DC5	A-DC6	A-DC7	A-DC8	A-DC9	A-DC10	A-DC11	A-DC12	A-DC13	A-DC14	A-DC15	A-DC16	A-Ph1	A-Ph2	A-Ph3	A-Ph4	A-Ph5	A-Ph6	A-Ph7	A-Ph8	A-Ph9	A-Ph10	A-Ph11	A-Ph12	A-Ph13	A-Ph14	A-Ph15	A-Ph16	

Term	0.00000e+00	0.00000e+00	0.00000e+00	0.00000e+00	0.00000e+00	0.00000e+00	0.00000e+00	0.00000e+00	0.00000e+00	0.00000e+00	0.00000e+00	0.00000e+00	0.00000e+00	0.00000e+00	0.00000e+00	0.00000e+00	0.00000e+00	0.00000e+00	0.00000e+00	0.00000e+00	0.00000e+00	0.00000e+00	0.00000e+00	0.00000e+00	0.00000e+00	0.00000e+00	0.00000e+00	0.00000e+00	0.00000e+00	0.00000e+00	0.00000e+00	0.00000e+00	0.00000e+00	0.00000e+00	0.00000e+00	0.00000e+00	0.00000e+00	0.00000e+00	0.00000e+00	0.00000e+00	0.00000e+00	0.00000e+00	0.00000e+00	0.00000e+00	0.00000e+00	0.00000e+00	0.00000e+00	0.00000e+00	
Factor	1.00000e+00	1.00000e+00	1.00000e+00	1.00000e+00	1.00000e+00	1.00000e+00	1.00000e+00	1.00000e+00	1.00000e+00	1.00000e+00	1.00000e+00	1.00000e+00	1.00000e+00	1.00000e+00	1.00000e+00	1.00000e+00	1.00000e+00	1.00000e+00	1.00000e+00	1.00000e+00	1.00000e+00	1.00000e+00	1.00000e+00	1.00000e+00	1.00000e+00	1.00000e+00	1.00000e+00	1.00000e+00	1.00000e+00	1.00000e+00	1.00000e+00	1.00000e+00	X	X	X	X	X	X	X	X	X	X	X	X	X	X	X	X	

B = Detector Channel
Val Type	B-AC1	B-AC2	B-AC3	B-AC4	B-AC5	B-AC6	B-AC7	B-AC8	B-AC9	B-AC10	B-AC11	B-AC12	B-AC13	B-AC14	B-AC15	B-AC16	B-DC1	B-DC2	B-DC3	B-DC4	B-DC5	B-DC6	B-DC7	B-DC8	B-DC9	B-DC10	B-DC11	B-DC12	B-DC13	B-DC14	B-DC15	B-DC16	B-Ph1	B-Ph2	B-Ph3	B-Ph4	B-Ph5	B-Ph6	B-Ph7	B-Ph8	B-Ph9	B-Ph10	B-Ph11	B-Ph12	B-Ph13	B-Ph14	B-Ph15	B-Ph16	

Term	0.00000e+00	0.00000e+00	0.00000e+00	0.00000e+00	0.00000e+00	0.00000e+00	0.00000e+00	0.00000e+00	0.00000e+00	0.00000e+00	0.00000e+00	0.00000e+00	0.00000e+00	0.00000e+00	0.00000e+00	0.00000e+00	0.00000e+00	0.00000e+00	0.00000e+00	0.00000e+00	0.00000e+00	0.00000e+00	0.00000e+00	0.00000e+00	0.00000e+00	0.00000e+00	0.00000e+00	0.00000e+00	0.00000e+00	0.00000e+00	0.00000e+00	0.00000e+00	-1.66846e+02	-1.34632e+02	-1.19075e+02	-1.82224e+02	-8.02325e+01	-6.67277e+01	-1.58170e+02	-1.62015e+02	-8.35788e+01	-7.02546e+01	-1.73109e+02	-1.72004e+02	-1.81804e+02	-1.76196e+02	-7.46956e+01	-1.49552e+02	
Factor	2.54741e-05	1.34827e-04	4.03306e-05	1.71615e-01	1.32729e-06	1.51022e-06	1.60986e-01	4.50902e-02	1.27164e-06	1.50857e-06	1.00538e-01	2.87464e-02	2.61389e-02	8.32530e-03	1.41169e-06	1.19755e-02	1.21615e-05	1.93802e-05	5.39616e-06	9.17612e-02	1.95703e-07	2.18764e-07	8.09249e-02	2.41910e-02	1.92481e-07	2.16306e-07	5.21031e-02	1.49289e-02	1.41790e-02	4.50723e-03	2.02605e-07	6.27252e-03	X	X	X	X	X	X	X	X	X	X	X	X	X	X	X	X	



#DISTANCE SETTINGS
A = Detector Channel
A-1	A-2	A-3	A-4	A-5	A-6	A-7	A-8	A-9	A-10	A-11	A-12	A-13	A-14	A-15	A-16	

2.5000e+00	3.0000e+00	2.5000e+00	3.0000e+00	2.0000e+00	3.0000e+00	1.5000e+00	3.0000e+00	3.0000e+00	3.0000e+00	3.0000e+00	3.0000e+00	3.0000e+00	3.0000e+00	1.5000e+00	3.0000e+00	

B = Detector Channel
B-1	B-2	B-3	B-4	B-5	B-6	B-7	B-8	B-9	B-10	B-11	B-12	B-13	B-14	B-15	B-16	

1.0000e+01	1.0000e+01	1.0000e+01	1.4400e+00	1.0000e+01	1.0000e+01	1.5100e+00	1.9400e+00	1.0000e+01	1.0000e+01	1.9900e+00	2.4900e+00	2.4100e+00	2.9000e+00	1.0000e+01	2.9800e+00	




#DATA BEGINS
time	group	step	mark	flag	A-AC1	A-AC2	A-AC3	A-AC4	A-AC5	A-AC6	A-AC7	A-AC8	A-AC9	A-AC10	A-AC11	A-AC12	A-AC13	A-AC14	A-AC15	A-AC16	A-DC1	A-DC2	A-DC3	A-DC4	A-DC5	A-DC6	A-DC7	A-DC8	A-DC9	A-DC10	A-DC11	A-DC12	A-DC13	A-DC14	A-DC15	A-DC16	A-Ph1	A-Ph2	A-Ph3	A-Ph4	A-Ph5	A-Ph6	A-Ph7	A-Ph8	A-Ph9	A-Ph10	A-Ph11	A-Ph12	A-Ph13	A-Ph14	A-Ph15	A-Ph16	B-AC1	B-AC2	B-AC3	B-AC4	B-AC5	B-AC6	B-AC7	B-AC8	B-AC9	B-AC10	B-AC11	B-AC12	B-AC13	B-AC14	B-AC15	B-AC16	B-DC1	B-DC2	B-DC3	B-DC4	B-DC5	B-DC6	B-DC7	B-DC8	B-DC9	B-DC10	B-DC11	B-DC12	B-DC13	B-DC14	B-DC15	B-DC16	B-Ph1	B-Ph2	B-Ph3	B-Ph4	B-Ph5	B-Ph6	B-Ph7	B-Ph8	B-Ph9	B-Ph10	B-Ph11	B-Ph12	B-Ph13	B-Ph14	B-Ph15	B-Ph16	aux-1	digaux	

21770.469	1	1	0	768	0.46987	0.2417	0.31778	0.082752	0.19548	0.33307	0.28971	0.38451	0.10814	0.33947	0.08328	0.084061	0.15348	0.082857	0.18959	0.34854	-1.1104	-1.5354	-2.0917	-1.2583	-2.3937	-1.7854	-1.6458	-2.2167	-1.7229	-1.6021	-2.2687	-1.4958	-2.1896	-1.8854	-1.3375	-2.4167	-15.166	-136.534	78.703	75.014	177.396	189.379	131.488	145.621	-94.071	170.363	152.623	159.384	205.244	204.323	64.869	140.608	0.00018252	0.00053712	0.00099172	804.11	1.3831e-05	1.7247e-05	1171.3	201.48	9.0045e-06	3.9877e-05	384.53	120.32	45.306	14.728	2.8997e-05	60.467	0.036442	0.057757	0.016277	949	0.00057316	0.00065448	1229.6	239.76	0.00056856	0.00063947	477.46	145.79	79.477	25.833	0.00059655	70.106	-97.118	179.855	145.943	-124.364	117.838	166.652	-124.389	-119.931	-8.278	17.014	-120.286	-117.208	-117.781	-112.196	-96.419	-113.787	-8191	255	
21770.564	1	1	0	0	0.2283	0.14589	0.094452	0.23546	0.16242	0.29223	0.30376	0.089153	0.18899	0.30805	0.13745	0.48583	0.19431	0.078568	0.39932	0.21733	-1.1625	-1.3417	-2.2604	-1.4792	-2.1167	-1.975	-1.4854	-2.2292	-1.6792	-1.5896	-2.3771	-1.3312	-1.8458	-1.9146	-1.4125	-2.3063	-103.355	217.033	72.385	144.090	198.886	3.763	221.716	-116.443	-72.142	67.919	-49.724	207.088	195.826	-57.708	174.016	36.923	0.00043356	0.0007568	0.00051351	809.98	3.4357e-05	2.2205e-05	1177.1	201.75	1.1022e-05	1.5238e-05	391.67	124.07	45.983	15.815	1.114e-05	63.619	0.036053	0.058027	0.016042	947.93	0.0005803	0.00066465	1234.3	240.68	0.00057528	0.00064871	484.76	148.79	80.512	26.617	0.00060176	72.231	160.435	198.726	-71.351	-123.982	-92.149	17.148	-124.284	-120.074	186.228	101.386	-120.029	-117.134	-117.482	-112.684	49.293	-113.633	-8191	255	
21770.660	1	1	0	0	0.24153	0.19422	0.21966	0.22001	0.27229	0.11851	0.27773	0.19497	0.16749	0.17535	0.085479	0.092825	0.15315	0.15493	0.28578	0.31739	-1.4396	-1.4896	-2.1146	-1.7021	-1.6979	-2.0125	-1.7167	-2.2	-1.7062	-1.4979	-2.2938	-1.4604	-1.6417	-2.3563	-1.4688	-2.1083	-9.840	68.250	-69.269	183.747	69.183	126.295	113.445	105.514	210.047	-89.654	-123.224	-62.873	32.903	20.108	-65.992	-122.020	0.00047581	0.0029358	0.00021032	809.98	1.7252e-05	1.4468e-05	1191.4	205.49	1.2067e-05	3.1224e-05	395.41	125.33	46.908	15.767	1.9055e-05	63.601	0.036052	0.057149	0.015774	952.65	0.00056929	0.00064692	1242.5	243.74	0.00056587	0.00064543	485.78	149.64	81.238	26.886	0.00060352	72.558	42.457	-75.753	198.320	-123.681	64.200	-132.791	-123.812	-120.254	185.687	-43.008	-120.392	-117.169	-117.006	-111.948	169.456	-113.541	-8191	255	
21770.758	1	1	0	0	0.15941	0.24349	0.10081	0.19974	0.057635	0.09318	0.1752	0.16364	0.1753	0.20991	0.062501	0.031327	0.13	0.12178	0.034747	0.081795	-1.5292	-1.5	-2.4188	-1.6479	-1.8083	-2.2021	-1.8792	-2.1562	-1.9771	-1.4833	-2.3146	-1.7333	-1.6437	-2.2521	-1.2396	-2.05	184.338	104.776	21.047	-100.676	145.064	-121.854	202.907	-126.158	215.439	102.893	179.448	67.384	58.769	-96.623	-16.309	93.236	0.00072137	0.0016398	0.0007909	801.78	4.1851e-05	2.3848e-05	1178.1	202.76	2.3744e-05	5.5394e-06	386.98	123.73	46.367	15.338	1.7097e-05	62.445	0.03684	0.058382	0.016124	952.15	0.0005877	0.00065918	1239.4	241.98	0.00058001	0.0006468	482.96	149.09	81.599	26.422	0.00060453	71.498	164.323	174.408	-69.957	-124.315	47.780	86.315	-123.753	-120.249	-39.377	-32.280	-120.434	-117.007	-117.621	-112.650	100.890	-113.619	-8191	255	
21770.854	1	1	0	0	0.22881	0.07328	0.24231	0.16415	0.13433	0.13813	0.28234	0.13244	0.11001	0.083322	0.19209	0.18759	0.13105	0.083012	0.1034	0.11176	-1.6292	-1.3021	-2.2167	-1.5625	-1.6396	-2.1833	-1.6125	-1.9167	-2.0958	-1.6437	-2.3458	-1.8458	-1.625	-2.2042	-1.5146	-1.9667	-53.727	33.697	67.686	126.243	-10.027	76.139	134.041	-125.042	-9.515	-137.715	-138.243	-28.134	157.781	-57.433	165.539	110.151	0.00071191	0.00090112	0.00029473	809.3	1.7676e-05	3.5594e-05	1168.9	202.07	8.3387e-06	3.3439e-05	387.79	122.82	46.219	15.666	2.3955e-05	63.004	0.036915	0.058208	0.016113	950.57	0.00058937	0.00066452	1229.2	242.02	0.00058091	0.00065042	483.04	148.84	81.486	26.514	0.00060182	72.121	-131.019	156.352	-35.823	-124.615	138.868	154.708	-124.215	-120.298	37.638	212.710	-120.558	-116.695	-116.426	-112.123	-70.005	-113.013	-8191	255	
21770.949	1	1	0	0	0.25467	0.063279	0.23167	0.36428	0.065376	0.35975	0.46499	0.18574	0.11779	0.099546	0.081805	0.19392	0.16431	0.15541	0.12709	0.21352	-1.7771	-1.3667	-2.1292	-2.1083	-1.3813	-2.2875	-1.7375	-1.7521	-2.3333	-1.6	-2.2833	-1.9833	-1.5875	-2.2021	-1.5708	-1.85	104.814	153.163	-125.819	185.520	-86.850	-58.631	164.157	144.868	8.146	3.442	210.968	29.811	31.399	-118.856	-130.238	111.727	0.00040424	0.0011357	0.00014719	819.19	2.5318e-05	5.3042e-06	1183.2	206.36	9.4365e-06	2.3254e-05	397.53	124.83	47.39	15.549	4.9869e-06	63.34	0.036378	0.0576	0.015922	959.86	0.00058435	0.00064877	1242.6	245.49	0.00058041	0.00065055	486.75	150.43	82.593	26.893	0.00061758	72.854	193.379	-95.332	-65.711	-123.991	-106.918	92.715	-123.783	-120.059	116.339	152.405	-121.178	-116.453	-116.785	-112.200	-95.826	-113.459	-8191	255	
21771.070	1	1	0	0	0.13771	0.19271	0.20313	0.16739	0.26734	0.14401	0.14308	0.4545	0.12916	0.17654	0.15188	0.22986	0.18952	0.084524	0.36817	0.19119	-1.6042	-1.3458	-2.1188	-2.025	-1.45	-2.1542	-1.9625	-1.7396	-2.1813	-1.3875	-2.2375	-2.1937	-1.5021	-2.1208	-1.6313	-1.5854	95.179	39.295	80.553	-87.303	193.478	30.496	163.133	136.122	217.712	-5.059	156.670	166.612	-81.093	66.127	-26.540	201.327	0.0014589	0.0018621	0.00014284	813.63	1.5507e-05	3.3444e-05	1182.5	204.6	2.3226e-05	1.9769e-05	389.87	123.89	45.418	15.895	4.0764e-05	62.898	0.037398	0.05899	0.016262	965.06	0.00059372	0.00066069	1241.2	245.75	0.00058931	0.00065476	488.01	150.31	82.025	26.762	0.00061846	72.772	199.161	154.581	83.750	-123.998	-85.917	201.911	-124.363	-120.415	36.634	45.854	-120.325	-117.147	-116.224	-112.253	-1.486	-113.449	-8191	255	
21771.164	1	1	0	0	0.21907	0.30433	0.11722	0.14252	0.18499	0.25276	0.14021	0.27064	0.028587	0.13141	0.086467	0.23851	0.15853	0.12583	0.24433	0.29211	-1.75	-1.4375	-1.825	-2.2062	-1.5375	-1.9729	-1.9333	-1.7583	-2.2771	-1.5521	-1.8937	-2.2458	-1.6854	-2.1688	-1.7396	-1.6479	188.272	20.489	97.427	74.337	-95.388	-114.459	150.974	132.495	-6.177	-53.763	-113.877	206.037	-23.150	-108.842	36.650	114.517	0.00055769	0.0022131	0.00086143	807.44	7.2284e-06	1.6083e-05	1171.8	201.51	1.8124e-05	9.1734e-06	390.88	122.91	46.558	15.381	5.2101e-05	61.715	0.03702	0.058978	0.016463	955.95	0.00059572	0.0006603	1237.6	243.92	0.00058141	0.00065079	486.59	150.2	81.642	26.685	0.00061011	71.907	126.025	-16.782	19.429	-124.877	215.611	-40.034	-124.571	-120.012	-43.101	146.152	-120.656	-116.842	-117.910	-112.120	79.905	-113.787	-8191	255	
21771.262	1	1	0	0	0.22686	0.012607	0.26474	0.10312	0.16421	0.31242	0.2097	0.21179	0.39762	0.38563	0.14749	0.15321	0.10969	0.066939	0.10342	0.29909	-2.0646	-1.3771	-1.5833	-2.2875	-1.3875	-2.175	-2.0271	-1.5229	-2.0708	-1.6417	-1.8792	-2.2917	-1.5312	-1.9042	-1.8937	-1.5479	-67.223	216.835	195.513	162.580	151.292	-97.711	107.227	209.359	-33.326	135.158	-93.127	-112.778	133.984	146.919	34.700	-2.919	0.00039034	0.00053448	0.00089539	813.35	4.7756e-05	2.2968e-05	1169.7	204.65	2.9813e-05	1.8489e-05	388.42	123.87	45.788	15.622	1.8794e-05	62.713	0.036332	0.058203	0.0163	956.12	0.00058345	0.00065342	1233.9	244.61	0.00057558	0.0006494	485.44	148.62	81.667	26.567	0.00061054	72.238	77.776	-29.862	145.348	-124.349	-35.219	21.392	-124.314	-120.172	-118.631	74.439	-120.906	-117.773	-116.898	-112.331	5.523	-114.344	-8191	255	
21771.357	1	1	0	0	0.13001	0.16537	0.18009	0.15014	0.12177	0.14045	0.13679	0.12386	0.055972	0.13627	0.13512	0.13448	0.066447	0.080213	0.10054	0.34622	-1.9458	-1.6667	-1.4333	-2.3563	-1.5417	-1.9396	-2.1646	-1.2812	-2.1688	-1.6604	-1.6958	-2.3125	-1.35	-1.9438	-2.0979	-1.2521	88.446	38.414	146.846	215.137	192.264	-22.916	191.469	103.565	80.541	119.258	150.135	-62.945	190.538	-88.442	-103.302	210.358	0.00087976	0.0045574	0.00071993	807.06	1.3477e-05	3.9854e-05	1182.9	203.09	2.3927e-05	3.729e-05	392.14	125.67	46.9	15.925	1.5118e-05	64.352	0.036348	0.058232	0.016258	957.25	0.00057906	0.00064906	1240	244.89	0.00056811	0.00064751	488.2	150.27	81.673	26.865	0.00060692	73.263	122.410	-86.577	214.203	-124.603	204.253	72.675	-124.243	-120.431	-47.016	-59.555	-120.357	-116.340	-117.210	-113.313	91.947	-113.674	-8191	255	
21771.453	1	1	0	0	0.11347	0.2333	0.051055	0.34216	0.19262	0.030396	0.23687	0.20584	0.21025	0.23788	0.011557	0.13213	0.16072	0.0466	0.19199	0.30048	-1.7854	-1.6417	-1.5354	-2.1792	-1.2875	-1.8583	-2.2021	-1.2708	-2.1104	-1.8708	-1.575	-2.3083	-1.2667	-1.7396	-2.075	-1.3417	85.670	-32.093	-57.387	170.370	-109.501	-122.841	170.691	175.203	78.758	-36.544	37.918	191.166	51.633	24.205	66.176	151.031	0.00069562	0.00093973	0.0012394	813.72	2.1635e-05	8.0055e-06	1183.9	207.94	1.9566e-05	2.9042e-05	396.92	125.52	47.147	15.995	3.7066e-05	64.11	0.035961	0.058132	0.016019	954.7	0.00057472	0.00065151	1239.5	245.27	0.00056546	0.00064469	486.82	150.13	81.699	26.845	0.00060474	72.626	163.094	16.053	121.242	-124.324	-38.977	-124.327	-124.525	-120.971	177.586	46.332	-121.008	-117.383	-117.119	-112.682	-61.804	-114.010	-8191	255	
21771.549	1	1	0	0	0.093927	0.014043	0.18168	0.18416	0.2161	0.20457	0.064744	0.024615	0.1254	0.096994	0.1455	0.14256	0.24846	0.21868	0.26081	0.033865	-1.7	-1.8896	-1.325	-2.2729	-1.6313	-1.7458	-2.4021	-1.5042	-1.925	-1.7875	-1.6396	-2.275	-1.8188	-1.4646	-2.3771	-1.3646	-47.705	101.350	-27.351	-125.117	-103.711	98.103	212.604	-136.868	156.946	-102.109	76.789	-133.613	199.313	-128.522	98.304	-46.507	0.00055814	0.0022448	0.00048417	805.89	2.0905e-05	1.6961e-05	1179.5	203.45	2.5881e-05	1.1473e-05	388.3	123.46	46.069	15.875	3.1854e-05	62.868	0.035895	0.057822	0.016099	950.01	0.00058376	0.00064942	1235.1	243.73	0.00056901	0.00065313	485.63	148.62	81.391	26.749	0.00060682	71.704	169.882	82.573	-128.098	-123.921	-103.318	-94.795	-124.672	-120.474	-22.557	-48.712	-121.203	-117.386	-117.256	-113.602	141.455	-113.786	-8191	255	
21771.646	1	1	0	0	0.17837	0.30154	0.22558	0.21162	0.17029	0.19419	0.23917	0.2563	0.05448	0.33605	0.073463	0.15262	0.093569	0.41518	0.22495	0.16508	-1.7062	-1.9958	-1.3208	-2.4271	-1.8521	-1.6812	-2.425	-1.4792	-1.9813	-2.0229	-1.4375	-2.1354	-1.9562	-1.6313	-2.3167	-1.7042	-60.584	85.975	-56.062	169.631	42.880	108.150	191.777	34.436	-43.709	6.479	144.026	137.697	165.678	203.479	42.366	166.547	0.00055374	0.0022881	0.00044121	813.52	2.9646e-05	2.0139e-05	1178.6	204.96	7.3204e-06	2.6528e-05	393.37	124.53	46.89	15.689	2.603e-05	62.585	0.036473	0.058566	0.016079	954.99	0.00059086	0.0006577	1236.6	243.83	0.00056938	0.00065387	486.03	149.36	81.788	26.627	0.0006028	72.226	187.114	-134.616	-137.242	-124.592	122.079	10.346	-124.316	-120.583	37.549	198.285	-120.561	-117.205	-117.561	-112.726	21.333	-114.168	-8191	255	
21771.766	1	1	0	0	0.30524	0.024321	0.056879	0.044978	0.1264	0.10959	0.25611	0.33426	0.21856	0.23754	0.30909	0.18165	0.10187	0.14014	0.097658	0.15506	-1.3896	-2.0771	-1.3625	-2.2812	-1.8896	-1.3021	-2.3187	-1.6104	-1.7896	-2.2708	-1.4458	-2.0333	-2.0896	-1.4542	-2.3812	-1.6125	-30.733	-135.696	-120.265	-89.919	-79.294	-124.559	119.026	-136.350	103.234	-131.297	192.042	204.240	101.146	129.638	-88.860	68.133	0.0010789	0.0010262	0.00069044	819.41	8.8043e-06	3.7555e-05	1178	206.26	3.7457e-05	1.9862e-05	395.15	124.26	47.369	15.643	1.4785e-05	63.599	0.03629	0.058703	0.016046	957.79	0.00059122	0.00065697	1238.9	245.17	0.0005742	0.00065416	489.18	149.92	82.737	26.966	0.00060772	72.954	172.828	198.570	161.547	-124.476	-82.904	13.628	-123.850	-120.935	105.538	-63.855	-120.913	-117.353	-117.018	-112.556	-61.667	-113.941	-8191	255	
21771.861	1	1	0	0	0.023842	0.18494	0.082031	0.19987	0.28587	0.18432	0.32577	0.11075	0.23192	0.063004	0.27648	0.15443	0.35313	0.099541	0.20538	0.17121	-1.1042	-2.1896	-1.3458	-2.1729	-1.9562	-1.2875	-2.2521	-1.6958	-1.6667	-2.225	-1.4229	-2.175	-1.9625	-1.3292	-2.1312	-1.7208	-89.977	-54.658	-91.939	128.836	64.672	117.330	141.732	189.584	72.469	130.247	-69.655	137.776	-73.342	61.470	150.744	90.033	0.00024764	0.0027063	0.0013422	817.95	1.3913e-05	3.0663e-05	1183.5	205.13	2.6509e-05	1.4968e-05	390.8	124.1	46.342	15.685	2.8835e-05	62.82	0.037299	0.05931	0.016373	958.86	0.00060067	0.00065944	1238.8	245.78	0.00058401	0.00065742	486.34	149.95	82.233	26.742	0.00060676	72.067	96.230	-57.059	112.832	-124.618	133.520	-22.776	-124.242	-120.766	30.243	42.730	-121.323	-116.811	-117.389	-112.922	117.163	-114.081	-8191	255	
21771.957	1	1	0	0	0.070272	0.017255	0.073971	0.20904	0.22245	0.27972	0.38382	0.11147	0.12861	0.066848	0.1109	0.16962	0.095155	0.089025	0.12176	0.091107	-1.2104	-2.3125	-1.5792	-2.0021	-1.9813	-1.4833	-2.3958	-2.0229	-1.4229	-2.2042	-1.6875	-1.9562	-2.0938	-1.4021	-2.1604	-1.7771	108.927	97.127	56.529	161.720	190.203	-111.571	133.307	211.289	35.266	-19.268	-47.951	123.330	202.693	101.099	22.687	161.942	0.00058181	0.0022965	0.00089816	806.65	8.561e-06	2.6458e-05	1174.6	203.17	2.121e-05	6.8959e-06	391.2	122.18	45.798	15.437	1.1025e-05	61.561	0.037115	0.058213	0.016169	954.9	0.0005924	0.00065645	1232.2	243.88	0.00058206	0.00064683	483.86	148.37	81.371	26.446	0.00060257	71.249	121.098	-24.339	-129.422	-124.521	11.239	-52.999	-124.116	-120.741	-48.615	-1.606	-121.340	-117.083	-116.667	-112.523	-28.987	-114.102	-8191	255	
21772.053	1	1	0	0	0.19257	0.23384	0.32025	0.14041	0.068397	0.097671	0.076376	0.2109	0.26682	0.18281	0.076134	0.21857	0.096505	0.059708	0.092075	0.30612	-1.1333	-2.1167	-1.3458	-1.7396	-2.3208	-1.4021	-2.2146	-1.9875	-1.4208	-2.1708	-1.6688	-1.6521	-2.0563	-1.4708	-2.0125	-2.0125	-79.829	42.932	159.332	-108.407	183.166	-57.641	184.617	-2.448	6.713	-114.431	181.102	151.572	196.089	-100.982	28.658	84.952	0.00084387	0.0011015	0.0013396	812.74	1.8294e-05	4.9853e-05	1177.1	205.28	2.5244e-05	3.3528e-05	384.62	122.1	46.536	15.81	1.0028e-05	61.808	0.036524	0.058006	0.016183	955.74	0.00059222	0.00065733	1232.9	245.5	0.00058021	0.00064627	485.37	148.69	81.573	26.483	0.00060564	71.526	149.731	99.280	-56.432	-124.079	72.468	-40.650	-124.201	-120.486	69.145	-13.765	-120.934	-117.085	-118.148	-112.745	209.234	-114.277	-8191	255	
21772.148	1	1	0	0	0.20945	0.090581	0.33636	0.072556	0.065291	0.17509	0.26947	0.12822	0.11261	0.22323	0.11176	0.13377	0.16997	0.054832	0.13961	0.020534	-0.925	-2.1125	-1.6562	-1.5708	-2.1792	-1.3813	-2.025	-2.225	-1.4062	-2.2229	-1.8167	-1.6958	-2.4146	-1.5667	-1.7083	-2.1562	176.338	23.656	149.096	200.981	-0.003	23.977	-130.664	161.002	-19.692	-10.893	-119.568	82.250	192.987	140.622	4.417	-65.541	5.0658e-05	0.0053221	0.00080881	816.03	2.8025e-05	2.3464e-05	1188.6	205.91	6.8476e-06	1.83e-05	391.65	122.94	45.847	15.402	2.9762e-05	62.726	0.036854	0.057777	0.0164	961.34	0.0005917	0.00065863	1244.7	246.51	0.0005825	0.00065153	489.05	149.81	82.152	26.767	0.00061457	72.541	-88.028	-91.940	216.835	-124.561	208.000	-50.372	-124.604	-120.080	76.701	70.030	-121.081	-117.050	-116.390	-113.106	-89.788	-114.080	-8191	255	
21772.244	1	1	0	0	0.31558	0.23398	0.085054	0.14995	0.15081	0.17885	0.19276	0.34514	0.24655	0.064184	0.037866	0.18441	0.18637	0.31724	0.14115	0.027316	-0.84583	-2.0771	-1.8229	-1.5083	-2.075	-1.4167	-1.9083	-2.1125	-1.3771	-1.8604	-1.8729	-1.4937	-2.2542	-1.775	-1.6521	-2.1896	-72.320	-80.007	44.161	187.358	126.047	-1.897	196.755	98.621	-8.324	62.982	-29.123	-44.733	141.143	55.360	37.845	-119.225	0.00064915	0.00062771	0.00060781	809.86	2.6825e-05	4.3385e-05	1172.1	203.83	4.2189e-05	2.0412e-05	390.45	122.51	46.414	15.407	4.6603e-05	62.09	0.036796	0.058328	0.016479	959.58	0.00058854	0.00066184	1234	244.91	0.00057531	0.00064005	485.82	149.35	80.822	26.481	0.00060798	71.567	197.447	47.095	-66.143	-124.394	-63.579	-45.055	-123.991	-121.365	179.422	-89.780	-120.682	-116.308	-116.258	-112.777	149.785	-114.130	-8191	255	
21772.342	1	1	0	0	0.038853	0.17642	0.083507	0.32133	0.088018	0.10036	0.2281	0.066435	0.27709	0.17619	0.0667	0.24285	0.23712	0.089713	0.1193	0.13232	-0.95208	-2.05	-1.9104	-1.5312	-2.2375	-1.5	-2.1	-2.4208	-1.2854	-2.15	-1.9542	-1.5312	-2.2854	-1.7229	-1.525	-2.0563	71.752	-76.429	160.762	145.228	146.925	-88.603	70.084	-96.946	-123.979	94.282	35.689	-135.095	166.302	55.849	-97.000	-76.825	0.00043353	0.002003	0.00059915	800.73	2.9593e-05	6.257e-06	1179.9	204.26	5.8594e-06	1.3222e-05	390.79	121.69	45.236	15.145	1.9441e-05	61.849	0.03647	0.057577	0.016374	954	0.0005805	0.00065799	1237.3	243.57	0.00057441	0.00064586	483.83	147.96	80.93	26.46	0.0006135	71.259	212.063	8.147	-30.068	-124.842	28.899	39.147	-124.347	-120.213	-120.369	-35.116	-120.380	-117.207	-117.413	-113.446	189.729	-113.654	-8191	255	
21772.438	1	1	0	0	0.21116	0.057948	0.18271	0.093876	0.024209	0.13564	0.081746	0.11016	0.23307	0.053656	0.13135	0.1947	0.13931	0.068347	0.11734	0.38998	-0.75417	-1.7708	-1.9167	-1.4042	-2.2708	-1.6792	-1.7479	-2.3292	-1.4583	-1.8188	-2.0938	-1.5229	-1.9771	-1.575	-1.5125	-2.3438	-87.254	115.227	212.048	73.392	69.204	58.779	164.799	109.377	-90.791	149.154	208.843	-117.412	-120.434	135.079	30.662	203.722	0.00042816	0.0019189	0.001082	812.82	1.6248e-05	2.5369e-05	1169.1	206.47	1.7221e-05	7.4611e-06	392.02	123.86	45.946	15.62	5.483e-06	61.791	0.036693	0.05782	0.016287	956.72	0.00058397	0.00065843	1234.3	244.99	0.00057705	0.00065175	486.46	149.05	81.408	26.668	0.00061491	71.531	153.590	-25.275	184.140	-124.391	-86.394	-31.784	-124.171	-120.774	-88.062	-5.165	-120.952	-117.567	-116.980	-112.360	-34.379	-114.131	-8191	255	
21772.559	1	1	0	0	0.084344	0.075941	0.25361	0.1594	0.23763	0.072499	0.3258	0.24774	0.36823	0.16384	0.10817	0.12824	0.10155	0.26111	0.096001	0.061739	-0.94375	-1.6875	-2.0187	-1.2792	-2.0812	-1.6812	-1.4208	-2.2708	-1.6187	-1.625	-2.0521	-1.4667	-1.9979	-1.925	-1.4542	-2.3312	102.048	-115.540	37.899	62.105	50.701	48.508	168.855	185.719	-106.389	149.338	-124.369	198.880	-118.797	-55.238	-51.008	116.684	0.0010217	0.0027271	0.00065992	810.9	1.3197e-05	3.8541e-05	1181.9	204.64	1.9714e-05	3.1339e-05	390.17	122.57	46.09	15.517	4.112e-05	62.657	0.036834	0.058851	0.01648	957.8	0.00058863	0.00066863	1240.1	244.88	0.00058305	0.0006554	488.43	149.27	81.7	26.762	0.00061488	71.65	161.855	-61.345	135.650	-124.447	-110.044	43.379	-124.509	-120.157	-11.343	-95.339	-120.322	-117.307	-115.846	-112.408	136.177	-113.904	-8191	255	
21772.631	1	1	0	0	0.1271	0.10255	0.055555	0.26319	0.16986	0.21713	0.056123	0.28231	0.17421	0.37306	0.040206	0.37641	0.14724	0.11357	0.050382	0.074333	-1.1583	-1.5792	-2.1417	-1.3458	-2.0729	-2.0062	-1.5854	-2.3021	-1.525	-1.6333	-2.3333	-1.5271	-2.0312	-1.9646	-1.3146	-2.2792	-28.759	90.808	-96.828	74.925	204.392	-54.476	125.454	209.471	-84.637	2.492	112.293	135.591	-84.982	205.763	164.190	167.793	0.00024864	0.0015231	0.0006207	808.32	2.7074e-05	8.3468e-06	1166.4	205.32	4.3663e-05	4.6936e-06	390.65	120.25	45.874	15.468	1.0755e-05	61.284	0.03677	0.058874	0.016312	953.56	0.00058261	0.0006606	1229.4	243.27	0.00057682	0.00064943	483.31	146.81	80.906	26.517	0.00060623	70.574	155.915	94.982	69.048	-124.063	120.982	-4.470	-124.079	-120.588	95.660	186.469	-120.713	-117.369	-117.122	-112.003	58.761	-113.872	-8191	255	
21772.750	1	1	0	0	0.1695	0.22027	0.14762	0.25509	0.10564	0.1029	0.17357	0.18539	0.085846	0.11523	0.12441	0.18088	0.2275	0.28558	0.24005	0.08749	-1.3375	-1.2437	-2.1188	-1.4354	-1.8312	-1.9833	-1.4375	-2.1667	-1.7521	-1.3604	-2.0896	-1.4146	-1.7083	-2.1562	-1.3917	-2.2021	-99.104	-40.129	199.651	1.547	17.197	143.595	216.617	143.938	220.092	161.289	191.415	172.932	-82.187	134.721	-29.113	104.883	0.00076163	0.00099457	0.00059109	805.57	1.8689e-05	2.1678e-05	1162.4	202.38	3.7128e-05	3.0841e-05	385.27	121.14	45.05	15.209	2.6267e-05	60.359	0.036764	0.058487	0.016142	955.1	0.00058456	0.00066154	1229.3	241.84	0.00057696	0.00064821	479.52	146.33	80.465	26.269	0.0006027	70.175	151.558	113.895	203.431	-124.207	-56.943	-93.576	-124.201	-120.016	-81.208	124.321	-121.147	-117.449	-117.278	-112.832	-94.514	-113.565	-8191	255	
21772.848	1	1	0	0	0.05992	0.039515	0.12075	0.2231	0.15719	0.11023	0.39315	0.1352	0.10281	0.05148	0.24946	0.13363	0.15308	0.19243	0.19629	0.19054	-1.6479	-1.425	-2.1375	-1.5542	-1.8271	-2.0667	-1.5604	-2.1167	-2.0667	-1.4646	-2.1896	-1.5396	-1.5729	-2.1937	-1.5063	-1.9896	31.880	-38.869	-118.418	179.206	-21.101	220.977	168.186	152.223	170.880	85.429	96.577	125.292	-84.915	212.331	22.898	79.236	0.0001812	0.0029831	0.00061007	806.36	9.5896e-06	1.0897e-05	1178.1	204.98	1.1003e-05	2.9252e-05	383.09	121.37	46.662	15.064	3.3875e-05	60.272	0.036823	0.05818	0.015974	953.37	0.00058594	0.00064762	1232.2	242	0.00058136	0.0006495	481.71	146.73	81.149	26.255	0.00060456	70.522	173.217	51.379	-21.558	-124.407	17.060	-70.095	-123.566	-119.805	-8.183	71.679	-121.255	-117.330	-117.396	-112.427	-76.259	-113.555	-8191	255	
21772.943	1	1	0	0	0.22916	0.13231	0.22305	0.23936	0.1196	0.078516	0.29153	0.16389	0.16397	0.17278	0.033483	0.10464	0.25211	0.36316	0.20254	0.07923	-1.6938	-1.5167	-2.3792	-1.8875	-1.6688	-2.4437	-1.5562	-1.9813	-1.9917	-1.4729	-2.2875	-1.7625	-1.4813	-2.2333	-1.4771	-2.0458	-72.737	-24.996	-82.612	139.595	164.420	113.748	151.363	199.306	94.499	80.624	124.460	161.745	63.729	202.285	107.195	-74.711	0.00078869	0.0017605	0.00058085	813.24	7.2018e-06	3.5448e-05	1175	205.69	2.6721e-05	9.3512e-06	385.75	120.6	45.44	15.011	1.0046e-05	60.11	0.037027	0.058368	0.016116	956.88	0.00059113	0.00065611	1234.3	243.47	0.00058419	0.00065419	479.84	147.2	81.907	26.119	0.00061338	69.929	153.572	215.644	-126.313	-124.933	29.532	49.514	-124.357	-120.423	-104.203	-68.929	-120.631	-116.837	-116.786	-112.248	-130.969	-113.783	-8191	255	
21773.039	1	1	0	0	0.27712	0.040633	0.14539	0.22512	0.10731	0.32948	0.052058	0.23406	0.27288	0.17618	0.038421	0.39237	0.28517	0.064933	0.13488	0.074803	-1.7208	-1.3354	-2.0667	-1.8146	-1.3479	-2.2646	-1.7083	-1.8354	-2.3583	-1.3062	-2.0687	-2.0354	-1.6333	-2.2167	-1.7167	-1.8417	-80.588	182.601	214.742	106.303	73.457	210.424	-56.121	216.657	183.320	55.517	98.649	-137.469	207.362	-91.201	-126.773	184.708	0.0009372	0.0023712	0.00044772	812.96	3.3267e-05	2.0341e-05	1161.3	200.39	2.6043e-05	2.7132e-05	377.84	118.86	44.398	14.693	3.5842e-05	58.93	0.03707	0.058038	0.016128	955.98	0.00058903	0.00065175	1220.9	241.19	0.00058382	0.00064933	476.59	145.81	80.846	25.911	0.00060835	69.35	185.385	13.415	-31.924	-124.225	-55.449	-29.476	-124.549	-120.274	-77.870	-135.598	-121.267	-117.207	-117.084	-113.666	-19.781	-113.507	-8191	255	
21773.158	1	1	0	0	0.042851	0.19615	0.0534	0.16306	0.29861	0.17606	0.14175	0.11973	0.1354	0.28167	0.13804	0.35922	0.13349	0.14721	0.20193	0.074042	-1.9729	-1.4188	-2.0062	-2.0958	-1.5292	-2.125	-1.8042	-1.7021	-2.125	-1.2812	-1.9771	-2.0938	-1.2396	-2.1979	-1.6271	-1.6292	-94.184	199.821	77.365	152.784	-119.624	-19.084	113.355	143.594	213.309	51.050	41.343	150.940	39.974	-109.674	106.983	-84.592	0.00094811	0.0030493	0.0012906	797.48	1.349e-05	1.4518e-05	1156	201.93	2.5237e-06	9.574e-06	379.44	116.95	44.726	14.272	3.5378e-05	58.809	0.036861	0.058106	0.016169	951.2	0.00059146	0.00065721	1222.4	241.77	0.00058306	0.00065074	475.9	144.95	80.182	25.71	0.00061585	69.249	191.095	-40.575	-62.416	-124.551	36.061	177.732	-123.968	-120.845	-65.857	135.830	-120.981	-116.614	-116.877	-113.081	15.535	-113.464	-8191	255	
21773.254	1	1	0	0	0.062374	0.25858	0.12413	0.18632	0.085096	0.15311	0.10968	0.13311	0.053609	0.12528	0.15312	0.30038	0.10782	0.19427	0.23741	0.22594	-1.8792	-1.2563	-1.8917	-2.1188	-1.2667	-2.0625	-1.7708	-1.5208	-2.275	-1.5562	-1.8229	-2.1458	-1.4833	-2.0438	-1.7313	-1.4771	174.278	95.277	-65.955	162.835	-98.397	-18.670	111.537	193.706	-21.750	84.810	-130.863	123.702	-26.386	107.644	136.778	27.977	0.00048578	0.0011119	0.00020855	793.88	3.2034e-05	2.7047e-05	1164.5	200.22	4.3907e-05	1.4559e-05	381.19	118.65	44.121	14.525	3.8952e-05	58.891	0.036789	0.058504	0.016318	949.3	0.00059056	0.00065225	1228.2	241.73	0.00057642	0.00065003	477.68	145.22	80.104	25.81	0.00061969	69.284	219.705	178.478	-93.087	-124.663	203.416	13.604	-124.319	-120.497	-62.083	-88.604	-120.421	-116.809	-116.931	-112.800	-94.344	-113.994	-8191	255	
21773.326	1	1	0	0	0.13361	0.050285	0.22353	0.30707	0.16723	0.21321	0.20487	0.11625	0.093282	0.31481	0.27878	0.082922	0.17047	0.14389	0.12036	0.18852	-1.5729	-1.5417	-1.575	-2.3208	-1.3458	-2.1292	-2	-1.475	-2.2021	-1.5979	-1.7417	-2.1063	-1.2875	-2.1375	-1.8167	-1.5542	-25.174	55.031	95.772	152.082	-70.980	-105.642	189.963	110.060	206.075	57.601	180.357	-127.045	-56.570	145.094	-94.749	-66.265	0.00079138	0.0029779	0.00084667	799.13	7.1345e-06	3.4467e-05	1161.2	200.59	2.9972e-05	1.0491e-05	375.25	115.46	43.732	14.501	3.4123e-05	57.586	0.036646	0.058686	0.016422	951.5	0.00058859	0.00065984	1228.1	240.71	0.00058016	0.00066222	475.98	144.61	79.949	25.753	0.00062747	68.089	176.803	75.938	-110.508	-124.645	62.716	35.894	-124.424	-120.518	-107.384	-66.642	-119.816	-116.770	-116.811	-112.110	197.574	-113.262	-8191	255	
21773.445	1	1	0	0	0.15872	0.046396	0.22452	0.094265	0.35169	0.20136	0.44474	0.15196	0.30183	0.17775	0.21561	0.15631	0.3188	0.026305	0.24096	0.1599	-1.6625	-1.8312	-1.4479	-2.2583	-1.3062	-1.9333	-2.0563	-1.45	-2.1937	-1.8125	-1.6187	-2.1146	-1.5146	-1.8	-2.0854	-1.4896	206.974	-88.900	-90.146	119.626	108.985	219.726	165.805	-99.670	192.829	-15.466	114.871	130.240	-137.284	27.537	218.271	-123.823	0.00049561	0.0033668	0.00043919	800.76	1.9076e-05	1.1417e-05	1149.7	197.19	4.968e-06	3.4185e-05	376.07	115.57	44.197	14.407	1.8353e-05	57.891	0.036665	0.058759	0.01637	946.05	0.00059045	0.00065836	1221.2	238.86	0.00057159	0.00065746	473.35	142.6	79.655	25.617	0.00061964	67.859	118.067	-84.478	-21.495	-124.464	-69.698	109.437	-124.028	-120.107	12.766	-58.765	-120.979	-116.577	-116.705	-112.088	133.371	-113.237	-8191	255	
21773.543	1	1	0	0	0.24503	0.20172	0.11982	0.25797	0.19875	0.16273	0.28914	0.23945	0.2306	0.12438	0.27046	0.28507	0.065969	0.21064	0.014404	0.22333	-1.7479	-1.7563	-1.4813	-2.2562	-1.4625	-1.7687	-2.25	-1.25	-2.1021	-1.775	-1.5042	-2.1688	-1.5854	-1.8417	-1.8813	-1.5187	-27.106	-38.459	-35.326	190.063	-4.019	-130.741	163.568	-0.558	-24.607	51.316	51.126	81.665	-119.386	155.095	101.449	128.155	0.00076278	0.0007602	0.00026475	799.76	8.1085e-06	3.2044e-05	1145.4	200.66	1.2662e-05	1.3698e-05	376.64	115.51	44.119	14.257	4.6961e-05	57.407	0.036525	0.059279	0.016382	948.03	0.00059557	0.000663	1218.8	239.99	0.00058155	0.00066493	475.31	143.94	80.156	25.823	0.00062287	68.391	201.469	151.634	-22.079	-123.746	-94.714	110.557	-124.453	-121.182	113.732	-36.514	-120.900	-116.845	-117.221	-112.480	158.190	-112.905	-8191	255	
21773.639	1	1	0	0	0.21429	0.21119	0.20412	0.11552	0.067154	0.14144	0.15322	0.16054	0.30129	0.17637	0.19624	0.19292	0.1456	0.13463	0.11726	0.16891	-1.6313	-1.9646	-1.35	-2.2771	-1.7271	-1.6792	-2.4521	-1.5917	-2.0438	-2.05	-1.2583	-2.2104	-1.5583	-1.4979	-2.3021	-1.6667	-131.113	138.964	140.666	40.117	-71.169	147.382	62.551	82.290	73.411	92.989	61.854	129.242	199.452	44.999	80.500	119.224	0.00072282	0.00094173	0.00024584	801.48	8.6394e-06	1.2541e-05	1158.4	201.2	1.4963e-05	2.5605e-05	376.86	118.11	44.938	14.856	1.7628e-05	60.426	0.036856	0.05985	0.016542	949.06	0.00059629	0.00066652	1223.6	241.03	0.00057754	0.00066222	478.36	145.58	80.588	26.083	0.00061583	69.953	120.121	107.111	7.071	-123.975	195.615	73.820	-124.132	-120.435	-21.180	200.611	-121.009	-116.776	-116.782	-111.607	17.952	-113.539	-8191	255	
21773.734	1	1	0	0	0.094942	0.041614	0.3449	0.1105	0.20701	0.20339	0.077352	0.22159	0.1042	0.55427	0.05707	0.14383	0.17718	0.39427	0.23023	0.14523	-1.5583	-1.9979	-1.2646	-2.1104	-1.6938	-1.5729	-2.4708	-1.5708	-1.975	-2.0354	-1.6521	-2.2979	-1.7667	-1.5604	-1.9688	-1.5708	-89.082	-52.776	20.352	-64.136	215.479	-113.065	51.357	124.693	-42.284	148.503	-124.149	152.238	-25.224	205.666	114.112	137.719	0.00054741	0.0015174	0.0001913	806.74	9.1118e-06	1.2642e-05	1170.1	201.14	4.0829e-05	2.5746e-05	382.21	118.88	44.978	14.918	1.6989e-05	59.83	0.036831	0.059153	0.016393	951.5	0.00059587	0.00066628	1226.7	241.46	0.00058428	0.00066583	479.8	145.33	80.888	26.115	0.00061126	69.481	121.934	-114.338	141.609	-124.667	-25.363	-92.541	-124.259	-120.705	129.842	150.947	-120.650	-117.170	-117.822	-113.082	206.688	-113.428	-8191	255	
21773.854	1	1	0	0	0.12359	0.20102	0.06405	0.33804	0.16659	0.2123	0.41449	0.092355	0.40302	0.2361	0.23737	0.1723	0.080207	0.061333	0.29897	0.22313	-1.5688	-1.9854	-1.225	-2.2292	-1.7938	-1.3542	-2.3771	-1.5063	-1.6667	-2.2812	-1.4042	-2.1458	-1.8375	-1.3646	-1.9979	-1.6708	41.513	83.563	4.728	-126.486	51.815	-132.598	161.086	-117.757	195.971	-49.474	171.276	135.778	-0.860	180.723	105.316	106.896	0.00058276	0.0022941	0.00059655	801.74	1.4467e-05	2.0874e-05	1156.6	200.4	3.0583e-05	2.7036e-05	374.7	117.53	43.953	14.463	1.3673e-05	58.724	0.036881	0.058559	0.016264	946.69	0.00059403	0.00066185	1219.6	241.01	0.0005823	0.00065946	475.53	144.54	80.992	25.982	0.00061383	68.91	118.518	172.600	-57.262	-124.149	154.399	12.354	-124.204	-120.398	-120.923	17.010	-120.785	-117.198	-117.787	-111.372	26.737	-113.650	-8191	255	
21773.928	1	1	0	0	0.12173	0.21319	0.12858	0.10543	0.21908	0.11684	0.22785	0.10963	0.14887	0.17291	0.25913	0.12764	0.13353	0.1443	0.23383	0.30954	-1.2875	-2.2917	-1.2771	-2.1562	-2.0271	-1.1313	-2.1437	-1.8083	-1.5604	-2.0146	-1.4458	-2.0208	-2.0146	-1.3167	-2.1333	-1.7	-50.904	54.623	-0.976	33.150	-123.168	187.572	169.928	196.928	-71.933	-94.369	141.912	134.595	-91.473	95.014	166.898	-122.885	0.00073938	0.0012404	0.0010396	798.69	1.4142e-05	5.1093e-05	1167.2	198.68	4.2101e-06	1.211e-05	379.49	116.29	44.069	14.539	2.0675e-06	58.14	0.037413	0.059434	0.016484	949.76	0.00060181	0.00066627	1224.2	240.86	0.00059019	0.00066533	476.1	144.49	80.78	26.09	0.00061613	69.131	123.945	-4.620	-20.434	-124.747	145.065	217.005	-123.836	-121.085	-127.422	209.099	-120.850	-117.073	-116.771	-112.729	16.626	-113.833	-8191	255	
21774.023	1	1	0	0	0.082325	0.25876	0.10636	0.12475	0.35274	0.061272	0.38566	0.17812	0.13504	0.13749	0.14949	0.072032	0.10963	0.17348	0.16239	0.23678	-1.2229	-2.3208	-1.5354	-1.9417	-2.2062	-1.2792	-2.3375	-1.8312	-1.325	-2.2396	-1.3062	-1.9667	-2.1271	-1.3729	-2.0333	-1.9979	43.912	27.305	146.081	172.423	45.439	-7.873	121.751	203.091	87.388	-2.963	-87.180	219.760	62.738	103.639	-121.390	165.123	0.00063755	0.0019831	0.00070854	806.44	2.9382e-05	3.3751e-05	1163.2	199.58	4.1013e-05	1.5891e-05	382.96	118.29	44.474	14.666	3.2766e-05	59.616	0.037553	0.059363	0.016508	956.19	0.00060557	0.00066869	1228.5	243.05	0.00058907	0.0006601	481.12	145.64	81.281	26.174	0.00061529	70.044	110.158	-40.212	119.542	-123.883	-98.101	-26.291	-124.106	-120.248	137.801	-25.370	-120.444	-116.667	-117.555	-112.327	69.091	-113.370	-8191	255	
21774.119	1	1	0	0	0.24838	0.097864	0.21401	0.25458	0.081133	0.039557	0.25899	0.3522	0.08907	0.31198	0.27598	0.21523	0.19635	0.12275	0.14749	0.29554	-0.85417	-2.0896	-1.625	-1.5083	-2.0062	-1.4583	-2.1083	-1.7896	-1.3583	-2.275	-1.6646	-1.4604	-2.0833	-1.4396	-1.9292	-2.1208	151.918	116.202	-23.724	-115.783	68.514	-33.940	170.747	158.372	153.827	196.291	181.532	78.150	89.214	122.018	127.382	115.890	0.00089838	0.00087742	0.00023301	812.22	2.5944e-05	3.7025e-05	1167.9	200.33	3.2752e-05	2.8034e-05	378.43	116.13	43.109	14.539	5.1782e-05	57.996	0.037462	0.058947	0.016626	960.79	0.00060621	0.00067368	1230.6	243.64	0.00059377	0.00066026	478.95	144.79	80.625	25.944	0.00062079	68.937	155.093	12.799	-92.798	-124.125	37.288	-100.662	-124.021	-120.191	-20.215	-128.401	-121.130	-117.210	-116.863	-112.290	79.278	-113.251	-8191	255	
21774.238	1	1	0	0	0.1812	0.052994	0.12184	0.26954	0.30517	0.084998	0.22658	0.24403	0.27908	0.15646	0.20476	0.29541	0.11603	0.15364	0.23268	0.18226	-1.0917	-2.225	-1.6187	-1.6333	-2.1729	-1.5063	-2.0667	-1.9937	-1.3937	-2.0208	-1.8479	-1.4229	-2.1125	-1.5458	-1.8604	-2.3354	-61.084	163.116	180.949	-40.731	186.943	70.426	201.993	197.728	-108.685	-113.824	-108.710	176.259	172.339	54.865	175.472	-26.485	0.00070978	0.0025067	0.00074482	804.8	2.4714e-05	3.3796e-05	1158.7	197.67	1.1323e-05	3.1982e-05	378.46	114.75	43.797	14.061	1.961e-05	56.943	0.037548	0.059116	0.016484	958.01	0.00059996	0.00066781	1223.7	241.47	0.00058442	0.00065111	475.99	143.16	79.133	25.607	0.00061594	67.92	213.461	180.451	1.696	-124.580	-48.592	-86.157	-124.026	-120.263	12.892	-16.714	-120.639	-116.602	-116.578	-112.516	197.075	-113.433	-8191	255	
21774.334	1	1	0	0	0.21447	0.25814	0.040624	0.22262	0.11373	0.24029	0.26133	0.096208	0.18017	0.34988	0.32914	0.16272	0.10531	0.16076	0.073045	0.097158	-0.83958	-2.2521	-1.7146	-1.4729	-2.3167	-1.4229	-1.6875	-2.0958	-1.2271	-2.2083	-1.9271	-1.4583	-2.1979	-1.3438	-1.6146	-2.3417	-73.844	-3.104	-79.915	145.843	-3.339	50.151	-121.865	82.439	59.196	103.351	146.558	-131.488	108.067	134.510	132.217	151.099	0.0006077	0.0022184	0.00084186	809.75	2.522e-05	1.252e-05	1167.1	197.53	2.2758e-05	2.8598e-05	375.6	115.04	43.992	14.138	2.9895e-05	57.501	0.03693	0.058509	0.016466	957.4	0.00059166	0.00066877	1229.3	240.74	0.00058656	0.00065465	477.62	143.54	79.986	25.7	0.00062369	67.925	203.841	-125.562	-70.716	-123.998	-33.014	52.752	-124.372	-120.523	-26.024	-116.653	-120.607	-116.979	-116.789	-112.231	20.679	-113.333	-8191	255	
21774.430	1	1	0	0	0.31864	0.095662	0.11019	0.32847	0.36021	0.17602	0.11257	0.26294	0.27747	0.075491	0.21918	0.08731	0.22436	0.14748	0.11154	0.16526	-0.92917	-1.9396	-1.7938	-1.2458	-2.0417	-1.5708	-1.7104	-2.1292	-1.3125	-1.9479	-2.0354	-1.35	-2.2146	-1.7979	-1.4937	-2.2854	-6.149	-50.870	-7.306	205.549	-44.569	-4.683	71.801	177.486	138.801	29.716	-132.574	-48.836	157.831	183.874	50.366	146.528	0.00057329	0.002855	0.00060477	806.08	2.4186e-05	3.6556e-05	1153.9	201.09	1.5781e-05	2.1693e-05	377.79	116.6	43.322	14.418	8.9878e-06	58.44	0.037377	0.059659	0.016691	956.45	0.0005944	0.00067061	1233.2	241.6	0.00058981	0.00065952	480.01	144.49	80.16	25.855	0.00062288	68.814	132.614	17.790	-36.401	-123.933	143.058	96.888	-124.142	-120.234	64.234	35.949	-121.304	-117.615	-117.075	-112.215	146.572	-113.743	-8191	255	
21774.527	1	1	0	0	0.17817	0.23831	0.17183	0.20435	0.26042	0.083949	0.17415	0.25698	0.1701	0.13683	0.17179	0.21756	0.15906	0.17578	0.15767	0.25445	-0.88542	-1.8125	-1.7354	-1.3667	-2.1833	-1.6271	-1.6542	-2.2354	-1.3167	-1.8896	-2.1604	-1.5063	-2.0604	-1.7833	-1.35	-2.375	-117.178	-78.074	16.909	-119.798	-125.037	-27.000	143.176	-116.995	-11.712	-130.347	212.983	-125.006	-59.194	-21.915	92.375	110.135	0.00064525	0.002211	0.00035071	805.2	1.7657e-05	3.1549e-05	1165.1	200.62	1.8493e-05	2.2248e-05	378.27	116.73	44.47	14.325	1.6137e-05	58.723	0.036984	0.058838	0.016534	953.32	0.00058946	0.00066875	1230.6	241.55	0.0005794	0.00065218	477.15	143.41	79.687	25.754	0.00061444	68.332	147.310	-30.807	24.371	-124.172	34.514	3.895	-124.092	-121.107	-73.687	84.425	-120.591	-117.104	-117.512	-112.281	156.496	-113.855	-8191	255	
21774.623	1	1	0	0	0.096254	0.094881	0.29155	0.3235	0.094185	0.26203	0.22148	0.19328	0.093999	0.31133	0.10282	0.3039	0.031432	0.29132	0.16582	0.28734	-1.1417	-1.4979	-1.9229	-1.3271	-2.1167	-1.7208	-1.6042	-2.2896	-1.4646	-1.8604	-2.2687	-1.55	-2.0667	-2.0083	-1.5812	-2.275	-0.488	136.591	-54.186	-130.483	-3.198	149.873	211.379	30.885	212.736	219.338	-130.490	144.165	-11.151	-17.075	167.880	-137.779	0.00044712	0.0025263	0.00056066	815.43	2.702e-05	4.5668e-06	1166.9	199.41	7.168e-06	1.1596e-05	374.03	115.91	43.92	14.076	4.3111e-05	57.562	0.036586	0.058045	0.016372	955.73	0.00059061	0.00066877	1226.2	239.86	0.00058507	0.0006576	474.69	142.84	79.651	25.671	0.00061363	67.603	-136.453	10.975	110.830	-124.908	142.127	77.615	-124.190	-120.444	145.170	20.802	-120.803	-116.930	-116.882	-112.491	-123.078	-113.716	-8191	255	
21774.719	1	1	0	0	0.22655	0.23292	0.11713	0.22767	0.23362	0.11093	0.09033	0.18866	0.32814	0.31032	0.039986	0.10521	0.11989	0.073444	0.16366	0.28855	-1.1792	-1.6833	-2.0667	-1.3792	-1.9208	-2.1271	-1.4292	-2.2313	-1.5312	-1.4292	-2.325	-1.4937	-1.8563	-2.0312	-1.4333	-2.2479	-67.399	-61.534	94.367	139.880	133.585	160.743	164.802	120.923	-80.141	-35.449	115.239	-31.319	119.366	-127.704	207.930	149.970	0.0006811	0.0009661	0.00090675	807.38	1.7479e-05	3.2359e-05	1156.3	199.52	1.8974e-05	4.6228e-05	376.99	115.25	43.516	14.063	2.3741e-05	58.271	0.037037	0.059104	0.016333	956.59	0.00059153	0.00067659	1226.2	240.5	0.00059267	0.00066504	476.2	143.7	80.331	25.81	0.00061844	68.734	170.275	140.589	-65.772	-124.412	-98.012	174.034	-124.447	-120.107	-96.940	49.018	-120.456	-116.981	-116.130	-113.076	117.866	-114.076	-8191	255	
21774.840	1	1	0	0	0.038689	0.16748	0.041826	0.25416	0.12373	0.060239	0.12415	0.20306	0.074942	0.032478	0.26446	0.40421	0.13604	0.26026	0.08	0.334	-1.3896	-1.4021	-2.175	-1.5167	-1.8646	-2.1354	-1.6458	-2.2146	-1.7687	-1.3771	-2.2687	-1.5063	-1.775	-1.9562	-1.2333	-2.0125	4.919	31.889	-108.058	190.055	-70.182	-19.771	142.400	196.390	65.413	-135.166	-129.437	-56.532	-80.808	-92.187	-96.165	164.143	0.00072078	0.0024311	0.00031987	813.63	2.8116e-05	2.985e-05	1179.2	200.95	2.3436e-05	1.3808e-05	381	117.8	44.432	14.778	4.605e-05	59.098	0.037671	0.059282	0.016483	958.55	0.00059641	0.00066818	1236.9	242.07	0.00058572	0.00065434	476.77	144.99	80.54	26.062	0.00060705	69.158	184.095	117.004	-25.877	-124.426	22.562	176.839	-124.064	-120.375	-109.953	72.507	-120.613	-117.094	-116.801	-112.609	21.802	-113.616	-8191	255	
21774.934	1	1	0	0	0.34153	0.19636	0.23514	0.13917	0.15172	0.11483	0.1131	0.16089	0.43104	0.22254	0.22017	0.12803	0.36374	0.2114	0.26366	0.22628	-1.4438	-1.3458	-2.1521	-1.7375	-1.6729	-2.1667	-1.5688	-1.9604	-1.8958	-1.2938	-2.0875	-1.6375	-1.5042	-2.3563	-1.1479	-1.9458	-52.022	146.436	162.399	159.092	-107.133	27.541	154.752	47.685	163.832	33.656	-135.732	184.009	81.782	19.926	136.928	143.813	0.00031141	0.0025428	0.00057488	807.94	1.3933e-05	2.3674e-05	1177.1	201.26	2.8223e-05	2.9005e-05	378.32	116.95	44.685	14.186	1.9047e-05	57.836	0.03694	0.058466	0.016222	956.92	0.00059417	0.00066478	1230.9	240.97	0.00058716	0.00065423	474.1	143.98	79.988	25.768	0.00061324	68.255	110.137	-27.354	-54.804	-124.347	152.394	-98.359	-123.999	-120.749	-28.183	-99.699	-121.471	-117.042	-117.480	-112.777	-4.081	-113.444	-8191	255	
21775.029	1	1	0	0	0.22017	0.044588	0.32937	0.10746	0.11914	0.23748	0.094582	0.16122	0.2139	0.12155	0.2701	0.29603	0.46448	0.072007	0.23095	0.43423	-1.5271	-1.1708	-2	-1.7729	-1.4188	-2.2	-1.5396	-1.7521	-1.9937	-1.3396	-2.1688	-1.85	-1.5625	-1.9958	-1.5458	-1.8771	130.349	-3.630	-97.354	-2.620	-93.562	-107.953	-31.394	215.379	99.397	139.462	195.201	185.208	-93.065	154.250	63.299	115.248	0.0012373	0.0030576	0.00025173	809.7	1.3261e-05	5.9677e-06	1167.4	198.87	1.7982e-05	3.1106e-05	375.19	116.77	42.157	14.047	1.6212e-05	58.401	0.037484	0.058535	0.01624	958.04	0.00059482	0.00066062	1228.3	239.72	0.0005857	0.00065206	473.39	143.89	79.613	25.596	0.00060561	68.071	162.599	175.536	16.890	-124.416	85.415	-105.167	-124.703	-120.466	-86.887	126.483	-120.573	-117.172	-117.477	-112.252	97.986	-113.946	-8191	255	
21775.150	1	1	0	0	0.30608	0.19396	0.052678	0.28564	0.10924	0.21696	0.15435	0.24801	0.32915	0.13274	0.11107	0.23281	0.1673	0.090921	0.16014	0.038426	-1.7125	-1.2896	-2.0292	-1.7062	-1.2687	-2.4375	-1.5896	-1.8312	-2.2	-1.3458	-2.2875	-2.0979	-1.275	-2.1479	-1.5938	-1.6313	138.224	-102.368	45.198	182.467	195.415	83.042	163.629	217.881	-74.333	-28.217	188.587	61.995	-61.083	70.385	48.203	164.587	0.00061929	0.0026278	0.0014013	809.27	3.1217e-05	9.6679e-06	1163	199.67	2.4508e-05	1.5741e-05	379.73	117.54	44.652	14.294	4.1736e-05	58.653	0.03714	0.058033	0.016196	950.53	0.00059107	0.00065529	1229.3	241.49	0.0005823	0.00064584	475.16	144.76	80.205	25.646	0.00060968	68.679	190.748	25.051	200.752	-124.450	-46.825	100.620	-124.010	-120.392	-81.093	-123.531	-120.366	-117.267	-116.423	-112.169	119.710	-113.327	-8191	255	
21775.223	1	1	0	0	0.16946	0.21646	0.16031	0.10025	0.29693	0.10113	0.21019	0.21151	0.18085	0.17244	0.13287	0.45016	0.085171	0.24937	0.30682	0.30705	-1.8792	-1.3375	-1.9979	-2.125	-1.2875	-2.2438	-1.9438	-1.6521	-2.0854	-1.4104	-2.0563	-1.9854	-1.2729	-2.0583	-1.7917	-1.4771	-73.617	96.270	-78.397	-35.145	-76.349	-94.496	-115.584	94.919	12.973	181.928	-88.754	-12.222	118.978	179.481	218.828	120.993	0.0001349	0.0040952	0.00016736	816.35	3.0045e-05	1.5293e-05	1181.4	198.97	2.845e-05	4.3072e-05	382.43	118.03	44.479	14.316	4.2362e-05	58.365	0.036971	0.058318	0.016147	964.65	0.00059186	0.0006543	1239.4	242.14	0.00057542	0.00064515	476.16	144.02	79.551	25.273	0.00060225	67.964	76.598	131.793	90.344	-124.228	-87.376	-18.568	-124.055	-120.151	-23.455	-69.946	-120.829	-117.382	-116.419	-112.308	-91.173	-113.736	-8191	255	
21775.318	1	1	0	0	0.26283	0.016272	0.21945	0.13831	0.2138	0.28912	0.17388	0.16531	0.37639	0.14418	0.26562	0.27154	0.19549	0.050838	0.044133	0.038863	-1.9521	-1.1812	-1.7646	-2.1146	-1.2437	-1.8458	-1.7104	-1.4	-2.0438	-1.5521	-1.8792	-2.325	-1.2188	-2.0208	-1.8292	-1.5625	-52.496	192.913	73.900	177.294	189.749	160.482	144.785	118.100	209.941	212.891	196.902	-37.535	214.729	180.961	208.167	-41.504	0.00023037	0.0019593	0.00016053	808.24	1.2823e-05	3.3089e-05	1157	200.35	2.2105e-05	2.5715e-05	378.59	114.97	43.505	14.037	1.4867e-05	56.374	0.035877	0.05727	0.015996	951.86	0.00058273	0.00064484	1224	240.73	0.00057279	0.00064747	473.88	142.44	79.316	25.252	0.00061567	66.974	-103.386	204.407	-93.164	-124.596	-70.069	144.543	-124.605	-120.017	8.115	-66.525	-120.910	-117.342	-118.276	-111.848	-86.437	-113.466	-8191	255	
21775.414	1	1	0	0	0.20854	0.14688	0.030163	0.19527	0.28374	0.075311	0.37714	0.21923	0.12273	0.14654	0.1302	0.078955	0.13254	0.10401	0.16089	0.1076	-1.8	-1.6708	-1.6146	-2.0375	-1.4875	-2.0729	-2.1708	-1.4271	-2.0854	-1.5896	-1.6979	-2.1854	-1.3708	-1.8646	-1.9958	-1.5187	152.298	-118.875	-117.484	-108.590	194.058	125.536	151.001	-86.752	-78.063	-124.048	177.098	-116.101	-100.798	-55.792	37.610	-54.891	0.0006364	0.0028484	0.0012443	811.7	1.5722e-05	4.2981e-05	1164.4	201.13	4.3446e-05	2.9915e-05	378.61	115.81	43.638	13.893	2.8066e-05	55.334	0.036516	0.058157	0.016212	952.98	0.00057546	0.00063715	1220.9	238.75	0.00054598	0.0006222	466.13	139.88	76.854	24.287	0.00058079	64.815	183.404	210.504	220.856	-124.493	-122.238	-27.012	-124.203	-120.252	219.274	97.207	-120.766	-117.119	-117.396	-112.409	-103.526	-113.779	-8191	255	
21775.535	1	1	0	0	0.21786	0.062505	0.13381	0.030075	0.19477	0.25593	0.083266	0.19545	0.2489	0.30104	0.070605	0.1963	0.055708	0.21787	0.3765	0.37645	-1.5688	-1.575	-1.4396	-2.2958	-1.3896	-1.9521	-2.1479	-1.3458	-2.2458	-1.7979	-1.4646	-2.0729	-1.3792	-1.7687	-1.8792	-1.4271	18.813	85.867	18.460	126.527	131.009	103.342	207.467	125.823	117.193	-134.777	191.975	200.366	83.716	-52.288	-93.950	150.858	0.00063065	0.001682	0.00027421	814.85	2.33e-05	2.1993e-05	1175	201.24	5.0143e-06	3.4644e-05	379.42	113.85	43.78	13.639	2.3545e-05	56.104	0.034359	0.055325	0.015437	946.98	0.00055838	0.0006256	1224	238.82	0.0005526	0.00063419	467.81	139.72	77.822	24.546	0.00058793	65.566	-132.750	103.654	-133.446	-124.299	61.733	79.096	-123.878	-120.183	-52.127	186.211	-121.074	-117.702	-117.326	-112.223	9.738	-113.332	-8191	255	
21775.631	1	1	0	0	0.036905	0.24272	0.23318	0.15048	0.29004	0.060048	0.24543	0.12828	0.062556	0.10152	0.20545	0.082659	0.077487	0.030038	0.23626	0.18367	-1.6562	-1.6562	-1.2229	-2.275	-1.3792	-1.6396	-2.2062	-1.2792	-1.9104	-1.825	-1.4438	-2.2354	-1.4625	-1.6688	-2.0854	-1.3979	133.930	114.495	-91.885	164.039	-115.473	-40.938	175.459	67.006	47.344	59.033	172.347	61.725	127.643	55.166	-135.491	192.044	0.00062216	0.0013703	0.00099341	818.8	1.5594e-05	9.6968e-06	1171.8	202.15	1.5267e-05	1.0359e-05	382.05	114.44	43.981	13.847	6.1535e-06	56.286	0.034838	0.056312	0.015557	946.54	0.0005643	0.00062508	1222.3	238.64	0.00055155	0.00062282	470.31	140.25	78.019	24.774	0.00059111	65.541	198.369	-33.054	29.481	-124.442	51.333	79.616	-123.841	-120.708	-40.898	-131.722	-121.139	-117.114	-116.782	-112.223	-45.646	-113.134	-8191	255	
21775.729	1	1	0	0	0.041621	0.16443	0.182	0.14403	0.23992	0.15647	0.11345	0.17785	0.286	0.046953	0.36192	0.22005	0.1874	0.13677	0.19416	0.15591	-1.5104	-1.8208	-1.2333	-2.1437	-1.4937	-1.5333	-2.2396	-1.3167	-1.9688	-2.0479	-1.2437	-2.1896	-1.8208	-1.4813	-2.1229	-1.5479	194.871	97.557	113.266	170.293	-4.423	67.292	82.259	-82.218	-28.494	60.350	-131.724	-102.580	8.268	88.140	-35.315	-94.811	0.00069317	0.0027745	0.00068308	823.45	1.5784e-05	3.2593e-05	1168.1	199.25	2.3028e-05	3.557e-05	372.5	112.77	43.142	13.461	3.2227e-05	53.535	0.03507	0.056535	0.015538	946	0.00056242	0.000621	1216.7	237.29	0.00054343	0.00061923	463.25	137.56	76.81	23.932	0.00057349	63.447	177.180	-102.859	-66.611	-123.740	-98.160	136.660	-124.016	-119.448	-107.262	153.073	-120.075	-116.587	-116.623	-112.079	-38.415	-113.758	-8191	255	
21775.799	1	1	0	0	0.057738	0.11653	0.28247	0.085458	0.071296	0.090008	0.10997	0.13627	0.065662	0.25574	0.24412	0.22512	0.10954	0.028608	0.045981	0.11294	-1.4708	-2.0625	-1.075	-2.1917	-1.5938	-1.5063	-2.2583	-1.4062	-1.7458	-1.9875	-1.5021	-2.0938	-1.7792	-1.625	-2.0708	-1.4375	-117.994	177.351	-137.251	107.748	95.453	-38.937	128.684	184.860	-56.117	45.685	173.989	10.209	-82.725	-61.743	161.014	210.571	0.00058385	0.0022369	0.0010043	819.89	1.298e-05	1.5902e-05	1151.3	199.42	1.4083e-05	2.9607e-05	371.58	110.12	42.577	12.87	6.331e-06	52.695	0.034431	0.055278	0.015252	939.81	0.00055464	0.00062244	1208.5	235.61	0.00055096	0.00062351	460.14	136.16	76.726	23.914	0.00057864	62.657	-105.736	44.879	-53.060	-124.679	33.790	173.398	-124.050	-119.940	-11.270	150.522	-120.908	-116.940	-115.863	-111.741	-137.661	-113.694	-8191	255	
21775.920	1	1	0	0	0.099519	0.092744	0.1467	0.30782	0.21726	0.24295	0.46607	0.13148	0.33998	0.11566	0.24095	0.3294	0.081857	0.14309	0.52327	0.19949	-1.1396	-2.1417	-1.2938	-2.0917	-1.8083	-1.3708	-2.4271	-1.6521	-1.4312	-2.1167	-1.2875	-2.2875	-2.0062	-1.4792	-2.0917	-1.7042	-109.048	-85.370	11.130	203.161	-136.814	187.670	119.374	103.126	206.136	-97.379	-88.377	-116.878	-107.123	-87.803	199.503	195.869	0.00095548	0.0014833	0.00090836	814.49	2.0324e-05	1.8868e-05	1167.6	199.99	3.5567e-05	7.6641e-05	369.66	113.16	42.968	12.987	1.4994e-05	52.976	0.034951	0.055827	0.015395	941.98	0.00056332	0.00062784	1212.6	236.2	0.00054806	0.00061286	461.49	136.92	76.597	23.872	0.00056839	62.945	145.428	21.971	111.690	-124.434	41.483	-112.027	-123.965	-120.199	-51.624	83.578	-120.666	-116.834	-116.833	-111.803	0.565	-113.551	-8191	255	
21776.016	1	1	0	0	0.19615	0.033596	0.16029	0.090515	0.26413	0.054077	0.075385	0.24006	0.1762	0.38768	0.14858	0.12788	0.0083013	0.065251	0.23223	0.42634	-1.2146	-1.8917	-1.425	-2.1146	-2.0479	-1.3625	-2.2792	-1.8042	-1.5396	-2.2146	-1.5187	-1.9958	-2.225	-1.4208	-2.1646	-1.7062	-135.737	-87.675	24.150	-85.938	171.935	19.314	207.330	156.436	124.806	-26.000	48.576	-128.373	162.531	145.638	-54.955	121.086	0.00048792	0.0024377	0.00038114	810.82	4.3002e-06	2.174e-05	1172.3	199.99	2.9417e-05	1.661e-05	368.14	111.63	42.997	12.993	3.4817e-05	52.682	0.034685	0.054428	0.015082	937.34	0.00054986	0.0006105	1215.9	235.57	0.00053504	0.00060084	456.53	134.97	75.485	23.364	0.00055409	62.049	-108.877	-14.654	188.740	-123.840	-104.772	-33.869	-124.260	-120.221	-28.877	-54.593	-120.539	-116.616	-116.210	-112.632	94.949	-113.312	-8191	255	
21776.111	1	1	0	0	0.34096	0.21782	0.18131	0.15587	0.14953	0.18425	0.17299	0.23845	0.11666	0.30138	0.05698	0.18265	0.11013	0.19933	0.05885	0.08269	-1.0396	-2.2313	-1.6167	-1.8854	-1.9875	-1.2563	-2.275	-1.6917	-1.3312	-2.3208	-1.6083	-1.7292	-2.0479	-1.4792	-1.8792	-2.0083	6.171	-63.782	151.699	190.203	82.261	161.005	157.270	125.334	215.595	68.427	-28.100	43.954	-38.208	80.800	-35.335	127.028	0.00090158	0.002721	0.00029837	810.61	2.8714e-05	2.8521e-05	1162.9	197.39	3.7129e-05	7.6991e-06	368.5	109.97	42.252	12.683	3.2537e-05	51.625	0.033602	0.053225	0.014915	932.86	0.00054885	0.00060705	1200.6	234.55	0.00053999	0.00059781	456.2	134.38	75.07	23.179	0.00055824	61.966	174.383	-107.868	-76.000	-124.310	16.892	158.027	-124.354	-120.260	20.219	203.773	-121.980	-116.709	-116.116	-111.534	81.321	-113.488	-8191	255	
21776.230	1	1	0	0	0.37697	0.17469	0.24029	0.22747	0.11363	0.25631	0.30005	0.22744	0.1344	0.22029	0.13932	0.20902	0.19852	0.11934	0.38239	0.23607	-0.95417	-2.3042	-1.5896	-1.6583	-2.0729	-1.2771	-2.225	-2.1771	-1.4771	-2.3542	-1.6562	-1.6208	-2.3542	-1.3813	-1.9646	-2.0625	88.376	170.207	25.642	84.158	-71.063	95.329	175.355	186.671	-51.231	137.627	-131.507	157.587	121.959	-44.024	-134.169	131.646	0.00066476	0.00086369	0.00026342	808.63	3.1465e-05	2.4876e-05	1159.6	198.52	5.4474e-05	4.9411e-05	371.36	111.51	43.117	12.777	1.4065e-05	52.805	0.034053	0.05327	0.014978	932.79	0.00054404	0.00059781	1199.9	233	0.00052761	0.0005838	453.81	134.1	74.451	23.069	0.00055176	61.803	173.543	-78.273	-31.248	-123.912	12.315	66.331	-124.301	-119.748	-64.264	-61.006	-120.746	-117.083	-116.982	-112.172	68.409	-113.089	-8191	255	
21776.326	1	1	0	0	0.23235	0.41929	0.23246	0.24758	0.046012	0.18149	0.1386	0.11234	0.29644	0.013182	0.090083	0.091252	0.21936	0.021604	0.099265	0.20589	-1.1604	-2.0833	-1.7146	-1.4708	-2.2229	-1.5458	-1.9667	-2.1833	-1.4229	-2.1	-1.8917	-1.5688	-2.3896	-1.4417	-1.7792	-2.2729	189.186	90.788	213.004	201.065	167.598	25.888	134.118	87.014	184.672	168.642	-17.394	-79.147	147.601	-38.294	162.922	-129.744	0.0004016	0.0043553	0.0012839	802.03	2.5972e-05	4.7659e-05	1157.4	196.54	1.4309e-05	3.084e-05	370.03	109.94	42.891	12.848	1.2471e-05	52.571	0.03333	0.052214	0.014903	929.46	0.00053298	0.00059892	1199.2	232.85	0.00052828	0.00059272	455.71	134.31	74.662	23.094	0.00055701	61.676	175.787	7.248	114.290	-123.877	28.036	123.438	-123.865	-120.542	96.222	88.742	-121.514	-116.315	-116.140	-111.454	-135.207	-113.062	-8191	255	
21776.424	1	1	0	0	0.15969	0.099666	0.2038	0.34549	0.16816	0.13969	0.12836	0.044508	0.20047	0.13863	0.11582	0.36414	0.12496	0.16202	0.23579	0.23879	-1.0562	-2.1021	-1.5688	-1.5562	-1.9958	-1.5792	-1.5146	-2.1146	-1.2229	-1.7687	-1.8312	-1.2542	-2.075	-1.5542	-1.575	-2.1979	192.989	-59.117	192.291	173.882	-50.383	91.749	165.471	32.097	115.962	-8.740	196.899	129.045	144.947	67.141	-89.526	-78.964	0.00035041	0.0047104	0.00036645	809.52	3.6305e-05	4.0485e-05	1163.8	197.44	1.9531e-05	3.5102e-05	365.98	109.78	42.336	12.861	2.6417e-05	51.841	0.033263	0.052943	0.014909	930.22	0.00053589	0.00059999	1201.1	232.31	0.00052997	0.00058887	451.1	133.72	73.62	23.143	0.00055971	61.459	158.479	-73.307	46.038	-124.085	-16.569	182.815	-123.810	-120.166	117.236	179.196	-120.141	-116.899	-116.676	-111.575	-0.708	-113.036	-8191	255	
21776.520	1	1	0	0	0.044007	0.13627	0.10264	0.17508	0.060783	0.074188	0.079736	0.11066	0.17751	0.11029	0.11655	0.24145	0.075494	0.26884	0.072091	0.26568	-0.86458	-1.725	-1.8312	-1.2083	-2.0646	-1.4625	-1.65	-2.0687	-1.1437	-1.8438	-1.9333	-1.1167	-2.0062	-1.4062	-1.3521	-1.9438	55.731	167.520	-70.699	22.739	16.596	7.957	103.852	171.658	110.532	-52.939	-41.360	-123.199	-106.183	21.688	170.243	8.989	0.00039666	0.0015418	0.00039605	805.74	2.5983e-05	2.3203e-05	1153.5	195.25	1.1446e-05	1.7482e-05	371.47	108.62	41.658	12.709	2.6206e-05	51.805	0.033416	0.053201	0.015038	929.84	0.00053503	0.00060891	1196	230.7	0.00052907	0.00059637	453.36	133.2	73.951	23.22	0.00055799	61.363	-130.776	71.694	-27.486	-123.702	203.861	163.027	-123.866	-119.635	14.649	-104.294	-121.067	-116.503	-116.564	-112.678	79.829	-112.850	-8191	255	
21776.615	1	1	0	0	0.10964	0.25981	0.2122	0.25708	0.31919	0.20484	0.28619	0.13941	0.070342	0.1804	0.21941	0.073005	0.20459	0.19649	0.088913	0.08208	-0.97083	-1.6833	-1.9229	-1.3312	-1.8125	-1.6771	-1.5688	-2.1437	-1.3188	-1.6125	-1.9479	-1.2229	-2.0229	-1.6125	-1.0312	-2.0104	212.373	88.179	199.508	194.777	192.804	208.302	158.047	134.417	-53.387	147.787	200.895	208.966	36.041	167.052	147.066	175.990	0.00072099	0.0007198	0.00076774	803.28	1.2316e-05	2.6108e-05	1157.9	198.22	5.0787e-06	4.063e-05	368.23	111.14	42.722	12.96	3.5256e-05	53.84	0.033255	0.05324	0.014887	929.56	0.00053711	0.00060771	1203.2	231.88	0.00052989	0.00059693	456.28	135	74.898	23.535	0.0005647	62.858	130.718	-129.424	-28.536	-123.902	3.131	106.021	-123.675	-120.365	180.770	17.964	-120.730	-116.849	-115.802	-111.362	124.860	-112.683	-8191	255	
21776.713	1	1	0	0	0.28645	0.035043	0.17216	0.12727	0.26848	0.10402	0.36911	0.098635	0.22754	0.09784	0.030817	0.2808	0.058558	0.3475	0.16306	0.099746	-0.95833	-1.5312	-2.0812	-1.2437	-1.8937	-1.7375	-1.4146	-2.1958	-1.3896	-1.5958	-2.1104	-1.2792	-1.8167	-1.6875	-1.1	-2.1667	29.766	73.542	78.913	-129.246	54.143	68.387	154.637	143.289	61.875	-134.395	120.916	198.119	-27.188	218.311	216.719	50.310	0.00065667	0.00099615	0.00022176	805.39	1.6377e-05	1.6038e-05	1170.9	199.46	2.3816e-05	2.3623e-05	372.9	111.9	42.779	13.115	3.0463e-05	54.785	0.033982	0.05411	0.015041	935.24	0.00053957	0.00061453	1207.9	234.78	0.00053158	0.00060402	458.83	136.76	75.547	23.869	0.00056651	63.55	180.192	-59.291	106.514	-124.216	-104.657	44.667	-124.160	-119.712	199.138	103.936	-120.764	-117.138	-116.208	-111.928	-42.461	-113.288	-8191	255	
21776.832	1	1	0	0	0.064806	0.1675	0.26498	0.07711	0.29469	0.088403	0.55556	0.11404	0.26217	0.22546	0.061072	0.088906	0.090773	0.49883	0.24091	0.12503	-1.1146	-1.4417	-2.1562	-1.1208	-1.6063	-1.7729	-1.3979	-2.1167	-1.4854	-1.3042	-2.2854	-1.3771	-1.6479	-1.8833	-1.1458	-2.0708	-42.908	-65.297	-108.131	10.475	20.154	-114.205	198.411	117.547	33.839	19.615	-137.642	-131.398	-135.049	199.898	119.255	34.922	0.00022194	0.003888	0.00063051	809.34	1.3436e-05	1.6207e-05	1155.8	197.76	2.4251e-05	2.5218e-05	370.17	112.31	41.837	13.365	1.6283e-05	54.081	0.03394	0.053946	0.015045	935.35	0.00054332	0.00061691	1206.9	233.06	0.00054046	0.00060774	457.82	136.47	75.543	23.844	0.00056848	63.141	111.619	21.768	133.259	-123.525	-55.032	2.631	-123.510	-119.679	143.334	139.213	-119.830	-117.080	-116.065	-111.289	205.874	-113.266	-8191	255	
21776.928	1	1	0	0	0.21286	0.069507	0.16537	0.17669	0.13997	0.20901	0.26106	0.16101	0.19565	0.24231	0.13774	0.23475	0.060812	0.099466	0.081441	0.18298	-1.1292	-1.5125	-1.9375	-1.3583	-1.5375	-2.0708	-1.3917	-1.7479	-1.7313	-1.2854	-2.2104	-1.6042	-1.5833	-1.7979	-1.1958	-1.9562	168.860	58.086	-64.362	42.887	-37.005	-44.495	107.546	-96.561	124.786	17.955	-43.759	-126.229	65.895	-64.522	92.399	161.185	0.00035283	0.0012503	0.00010901	804.39	1.1297e-05	3.1222e-05	1156.3	198.09	3.1002e-05	2.2428e-05	368.33	110.68	42.523	13.177	2.0385e-05	53.532	0.034411	0.055012	0.015139	936.67	0.00055314	0.00062766	1203.5	234.35	0.00054786	0.0006148	455.84	135.68	75.731	23.743	0.00057421	63.025	-120.304	139.702	-122.813	-124.032	-47.655	-71.212	-124.136	-120.219	175.068	-50.627	-120.772	-116.597	-114.662	-112.060	16.428	-112.793	-8191	255	
21777.023	1	1	0	0	0.11604	0.39705	0.084153	0.26381	0.27221	0.17961	0.17942	0.1338	0.11052	0.087539	0.29731	0.12794	0.054728	0.087341	0.29254	0.052841	-1.4146	-1.3417	-2.1604	-1.4625	-1.4438	-2.1667	-1.3	-1.975	-1.8479	-1.2083	-2	-1.5354	-1.4833	-2.2146	-1.4042	-1.7958	-25.121	169.249	102.489	199.704	-84.256	174.324	220.370	151.131	93.501	124.506	203.903	-109.413	154.368	169.503	-65.624	-69.406	0.0010798	0.0021407	0.00022614	809.8	3.0145e-05	1.5418e-05	1160.8	200.28	4.1906e-06	2.6382e-05	373.76	111.79	43.191	12.904	9.2829e-06	53.692	0.034701	0.054556	0.015098	938.07	0.00054493	0.00061407	1206.7	235.84	0.00054633	0.00061153	458.13	136.74	76.475	23.824	0.0005737	63.501	177.627	67.319	-4.428	-123.933	72.640	0.014	-124.278	-120.403	114.831	113.610	-120.962	-117.158	-116.509	-112.151	28.789	-113.981	-8191	255	
21777.096	1	1	0	0	0.2397	0.16831	0.13919	0.27188	0.16775	0.25894	0.23459	0.15175	0.10904	0.19929	0.037562	0.19691	0.19387	0.10094	0.2414	0.085913	-1.6167	-1.0792	-1.8458	-1.6417	-1.2771	-2.0792	-1.3854	-1.775	-2.0167	-1.15	-2.05	-1.5417	-1.4167	-2.0792	-1.4937	-1.6417	45.852	113.708	-109.276	197.168	-32.433	87.435	-137.920	56.322	71.373	-112.813	48.904	137.104	166.377	204.483	-137.333	191.538	0.00040326	0.0026546	0.00024	821.98	1.0386e-05	3.529e-05	1172.2	200.83	2.9356e-05	1.1569e-05	373.87	113.26	43.204	13.309	3.5531e-06	54.531	0.034694	0.054656	0.015109	946.44	0.00055538	0.00061879	1220.6	237.2	0.0005474	0.00061301	461.41	138.21	76.713	23.871	0.00057785	64.041	-99.634	-90.195	-30.200	-124.138	-65.735	-14.665	-123.982	-120.905	-47.118	56.857	-120.847	-117.599	-116.320	-112.176	170.396	-113.184	-8191	255	
21777.193	1	1	0	0	0.068273	0.027712	0.15227	0.23715	0.36105	0.056306	0.21317	0.18732	0.13842	0.22435	0.20048	0.24386	0.076508	0.2917	0.07513	0.30261	-1.7146	-1.2375	-1.8875	-1.9438	-1.2583	-1.9813	-1.5208	-1.6417	-2.0708	-1.1792	-1.725	-1.8208	-1.2646	-2.0917	-1.4917	-1.4813	-126.434	154.256	-121.480	72.485	200.201	129.336	-133.283	221.361	52.980	91.510	187.955	147.618	217.484	-54.025	38.386	165.336	0.00050072	0.0020752	0.00075689	818.16	1.228e-05	1.7722e-05	1160.2	199.62	3.2298e-05	3.6139e-05	376.22	112.57	43.017	13.256	5.6463e-05	54.095	0.034845	0.054998	0.015135	945.15	0.00055377	0.00061269	1211.3	236.39	0.00053751	0.00060484	459.86	137.42	75.722	23.721	0.00056729	63.338	132.673	-124.131	212.124	-124.377	3.916	115.915	-124.177	-120.292	161.657	-74.949	-120.373	-117.371	-117.188	-112.339	39.603	-112.792	-8191	255	
21777.311	1	1	0	0	0.16556	0.064685	0.15277	0.26912	0.19503	0.074009	0.23028	0.30283	0.20313	0.14522	0.082856	0.17275	0.10844	0.27693	0.11733	0.11863	-1.6708	-1.1562	-1.5979	-1.875	-1.1083	-2.0542	-1.7083	-1.5021	-1.9229	-1.1292	-1.6646	-2.0187	-1.2604	-2.0125	-1.5646	-1.4479	31.653	197.508	85.632	111.609	41.206	-19.087	174.133	145.381	172.810	155.144	1.220	182.361	-1.098	181.380	-121.413	71.321	0.00031005	0.0016392	0.00052009	809.15	1.4231e-05	1.5914e-05	1170	200.25	3.0541e-05	6.0403e-06	369.2	110.48	42.587	13.038	1.1705e-05	53.26	0.034165	0.05397	0.014973	938.32	0.0005471	0.00060257	1210.4	235.31	0.00053156	0.00059571	457.04	135.77	75.287	23.476	0.00056458	62.824	-0.214	-127.747	91.333	-123.585	-49.702	135.750	-123.762	-119.678	-64.370	46.955	-120.243	-116.217	-116.648	-113.196	48.586	-113.249	-8191	255	
21777.408	1	1	0	0	0.2426	0.37641	0.093651	0.13644	0.12789	0.19715	0.29615	0.17318	0.21346	0.095668	0.2553	0.2485	0.19677	0.078286	0.22803	0.080651	-1.6604	-1.2354	-1.6021	-2.1708	-1.3375	-1.75	-1.8937	-1.4	-2.0979	-1.4104	-1.6625	-2.0375	-1.175	-2.1396	-1.6792	-1.3354	-135.065	137.559	203.647	72.404	49.529	182.086	185.477	156.870	-96.937	103.967	201.660	-74.456	70.257	-129.036	-109.429	31.073	0.00044035	0.0019001	0.00033414	812.87	9.2606e-06	7.0359e-06	1176.6	200	3.9491e-05	1.6597e-05	374.91	112.55	43.249	13.138	1.8386e-05	54.728	0.033789	0.053918	0.015028	941.77	0.00054068	0.0006058	1213.5	236.08	0.00052962	0.00059811	459.72	137	75.895	23.579	0.00056675	63.588	135.616	-40.310	-17.412	-124.307	199.367	39.832	-123.979	-119.643	13.770	-64.759	-120.069	-116.818	-115.709	-110.709	-62.839	-112.364	-8191	255	
21777.504	1	1	0	0	0.034786	0.17961	0.039661	0.17458	0.16252	0.17468	0.30447	0.39681	0.076068	0.18695	0.41789	0.12127	0.18486	0.1812	0.16422	0.10523	-1.6708	-1.2812	-1.3396	-2.2229	-1.1688	-1.85	-1.8458	-1.2271	-1.9438	-1.4458	-1.7208	-2.1396	-1.0083	-1.7	-1.8708	-1.2542	105.648	-53.394	-87.032	64.967	-132.458	219.961	161.153	77.680	184.173	-48.534	137.109	122.774	90.540	-56.173	-135.169	143.454	0.001086	0.0012077	0.0010343	819.3	2.2297e-05	2.921e-05	1177.7	203.61	4.4085e-06	1.4601e-05	375.21	114.27	44.034	13.513	2.4172e-05	54.912	0.033558	0.053614	0.014905	942.39	0.00053847	0.00059763	1216.7	237.43	0.00052209	0.00058993	459.89	136.63	75.332	23.643	0.00055789	63.593	120.802	142.176	97.400	-124.059	-41.159	56.035	-123.729	-119.577	-120.138	184.024	-120.320	-116.768	-117.110	-111.604	138.280	-112.738	-8191	255	
21777.600	1	1	0	0	0.22665	0.16259	0.19737	0.21392	0.093122	0.2649	0.037746	0.16828	0.11319	0.15897	0.19365	0.27456	0.093352	0.073083	0.1043	0.11173	-1.7167	-1.3188	-1.3229	-1.9833	-1.2042	-1.6042	-1.8521	-1.1167	-1.9875	-1.7083	-1.3667	-2.3667	-1.4271	-1.7771	-1.9292	-1.35	32.613	-18.283	54.150	181.637	-98.427	31.105	-17.928	-16.708	-122.237	181.035	169.527	149.308	158.088	100.430	-120.632	-60.761	0.00098093	0.002917	0.00067497	821.28	2.0824e-05	1.7434e-05	1172.8	201.21	1.5494e-05	5.4258e-06	378.29	112.16	42.942	13.063	1.3091e-05	53.038	0.032861	0.052944	0.014666	934.29	0.00052816	0.00058891	1204.6	235.06	0.00051586	0.00058754	458.4	135.18	74.919	23.34	0.00055804	62.15	159.451	-107.387	30.764	-124.160	95.086	33.327	-123.911	-119.687	148.826	131.604	-119.815	-116.165	-116.488	-111.814	-88.584	-112.623	-8191	255	
21777.695	1	1	0	0	0.19077	0.18678	0.066708	0.22938	0.17137	0.099874	0.20489	0.17664	0.13686	0.039795	0.30123	0.28508	0.2208	0.19639	0.014906	0.23671	-1.4792	-1.8208	-1.3625	-2.1437	-1.3438	-1.6375	-2.2542	-1.2417	-1.8333	-1.7417	-1.3312	-1.9479	-1.4292	-1.4417	-2.0375	-1.2625	-24.270	-113.021	22.075	123.372	156.740	151.036	101.394	4.216	-82.788	-72.127	-124.567	215.659	174.841	202.935	-113.116	159.855	0.00033354	0.002447	0.0006836	807.86	5.872e-05	2.1236e-05	1158	202.63	1.8204e-05	3.7195e-05	369.42	112.5	42.778	12.911	2.1412e-05	53.758	0.033078	0.052779	0.014668	928.21	0.0005279	0.00058999	1201.5	233.95	0.00051596	0.00058936	454.53	134.64	74.625	23.247	0.00054831	62.066	194.062	48.919	148.820	-123.353	5.539	80.946	-123.675	-120.031	-5.458	105.866	-119.689	-116.460	-116.797	-112.865	-105.047	-113.738	-8191	255	
21777.793	1	1	0	0	0.16144	0.20905	0.15157	0.10724	0.18576	0.18607	0.33041	0.24375	0.13951	0.11512	0.30119	0.032423	0.19085	0.19809	0.13474	0.15129	-1.5292	-1.7271	-1.3396	-2.0396	-1.475	-1.5667	-2.3104	-1.6146	-1.7938	-1.8937	-1.275	-2.1542	-1.5729	-1.4292	-1.9083	-1.4979	154.174	190.416	145.449	-79.502	193.708	-58.708	171.694	137.662	-130.076	-65.049	159.087	-18.983	33.218	60.634	207.234	28.022	0.00055131	0.0016853	0.00022156	822.42	2.9718e-05	1.792e-05	1180.2	201.45	8.6385e-06	1.1402e-05	373.59	113.51	43.226	13.334	4.6231e-05	53.743	0.032735	0.052878	0.014604	932.5	0.00053127	0.0005906	1206.2	234.87	0.00051909	0.00058901	456.29	136	75.206	23.486	0.00055012	62.682	91.561	204.339	-113.152	-123.470	56.365	-69.998	-123.896	-120.528	-34.138	182.021	-120.223	-116.801	-117.652	-111.910	166.809	-113.095	-8191	255	
21777.912	1	1	0	0	0.020662	0.43217	0.27089	0.27397	0.20797	0.057894	0.091807	0.21269	0.10276	0.082905	0.15659	0.27871	0.17888	0.14196	0.19782	0.34836	-1.3333	-1.8625	-1.1667	-2.0083	-1.7417	-1.5021	-2.0625	-1.4583	-1.6313	-2.0542	-1.3521	-1.9375	-1.6708	-1.4521	-2.2062	-1.525	-5.588	67.064	-61.383	218.685	170.013	-74.142	204.581	202.961	-20.622	-45.023	-122.257	189.787	-62.556	120.103	-33.625	96.979	0.00053709	0.0018749	0.00032925	816.12	1.0888e-05	3.9351e-05	1164.5	202.12	1.5008e-05	3.4104e-05	375.84	113.08	44.111	13.161	1.6047e-05	54.377	0.033125	0.053254	0.014708	934.11	0.00053346	0.00059647	1208	235.73	0.0005242	0.00058821	456.93	135.7	75.729	23.456	0.00054497	62.768	-124.633	5.897	140.341	-124.155	70.306	-32.868	-123.898	-120.563	89.092	-86.507	-120.820	-117.384	-118.255	-112.965	-74.993	-113.553	-8191	255	
21778.010	1	1	0	0	0.15707	0.23284	0.10709	0.22793	0.10211	0.21115	0.48454	0.13147	0.13362	0.079175	0.14974	0.12122	0.19008	0.23489	0.34657	0.19628	-1.1896	-1.8208	-1.2229	-1.9771	-1.8479	-1.3479	-2.2979	-1.4312	-1.4333	-2.0354	-1.4271	-1.7625	-1.8646	-1.4875	-2.0167	-1.6042	152.233	-6.703	-99.706	195.636	-40.902	7.016	194.656	120.786	-103.532	-101.488	197.969	63.636	142.849	199.103	180.164	-72.290	0.00079101	0.0031475	0.0005866	824.46	2.2319e-05	3.0312e-05	1168	203.74	4.9582e-06	5.3689e-05	375.25	111.67	43.083	13.272	3.1437e-05	53.066	0.033124	0.05236	0.01447	929.89	0.00052858	0.00058349	1199.8	234.18	0.0005146	0.00057919	455.8	134.93	74.637	23.152	0.00053537	62.321	187.293	-131.306	64.255	-124.255	-112.538	-61.973	-124.112	-120.700	9.724	-7.390	-121.062	-117.200	-117.707	-111.524	-10.086	-113.630	-8191	255	
21778.104	1	1	0	0	0.1595	0.0024364	0.048824	0.23521	0.035005	0.21061	0.18844	0.15443	0.076059	0.29572	0.09935	0.054129	0.19698	0.11633	0.22958	0.081167	-0.89375	-2.1125	-1.1854	-1.7979	-1.8396	-1.2083	-2.1917	-1.7667	-1.5083	-2.0604	-1.4375	-1.9583	-2.0563	-1.175	-1.8458	-1.8042	21.229	180.000	24.449	-125.972	216.773	-32.443	97.373	47.427	-132.244	64.064	164.176	173.653	68.941	-93.787	-32.280	-50.397	0.00079843	0.0021985	8.0633e-05	805.12	1.6996e-05	3.7388e-05	1166.5	200.15	4.369e-06	2.0347e-05	372.33	111.46	42.736	13.052	2.0061e-05	52.853	0.03263	0.051713	0.014332	921.34	0.00052687	0.00058062	1197	233.24	0.00051479	0.00057728	451.57	133.96	74.118	22.965	0.00053181	61.703	192.571	-104.550	-26.071	-124.644	66.648	192.602	-124.236	-120.522	-18.695	145.725	-120.648	-117.620	-117.026	-112.242	135.665	-113.305	-8191	255	
21778.201	1	1	0	0	0.1832	0.08026	0.18287	0.33004	0.23047	0.23615	0.17881	0.21159	0.08339	0.14636	0.09837	0.13625	0.37352	0.36105	0.21249	0.31201	-0.69375	-2.0062	-1.1854	-1.7104	-1.9562	-1.1833	-2.1042	-1.8208	-1.175	-2.1917	-1.5	-1.6313	-2.1521	-1.2896	-2.0187	-1.8687	49.976	-82.534	-75.541	38.601	-98.304	-32.839	114.983	166.767	-126.504	7.087	154.368	-72.627	121.353	-133.682	181.342	101.563	0.00047142	0.0031094	0.00034403	812.95	5.3609e-05	1.7306e-05	1165	200.66	1.6745e-05	2.8091e-05	373.95	113.15	44.021	13.537	8.4867e-06	53.516	0.032523	0.051177	0.014209	926.52	0.00052144	0.00057432	1199.9	233.88	0.00050585	0.00056048	452.28	134.87	74.107	22.864	0.00052557	62.398	-107.224	-90.406	212.245	-124.641	11.725	-13.726	-124.355	-120.344	-17.555	-89.329	-121.143	-117.349	-117.760	-112.482	-131.912	-113.314	-8191	255	
21778.320	1	1	0	0	0.15238	0.15352	0.04753	0.21613	0.077498	0.27353	0.14682	0.099584	0.18217	0.29896	0.072398	0.24729	0.13529	0.25884	0.32084	0.11385	-0.8875	-1.8813	-1.5583	-1.5979	-2.0021	-1.1938	-1.8771	-1.8854	-1.0958	-2.0479	-1.6562	-1.5667	-2.2	-1.175	-1.7792	-2.0604	185.486	18.769	144.934	180.853	-88.959	125.540	103.403	165.191	-92.136	217.742	84.078	97.890	201.681	219.400	167.376	206.151	0.00043376	0.0031202	0.00031932	817.43	4.0631e-05	1.3306e-05	1174.1	205.25	8.8867e-06	4.0629e-05	382.28	112.95	42.446	13.226	4.8888e-06	53.668	0.03177	0.050393	0.014137	925.95	0.00051395	0.00057019	1199.3	234.13	0.00049859	0.00055686	454.34	134.9	73.791	22.924	0.00052946	62.384	-113.363	108.154	8.466	-124.576	-19.946	198.429	-124.137	-120.770	-98.628	206.015	-121.088	-116.770	-117.441	-112.517	80.340	-113.275	-8191	255	
21778.393	1	1	0	0	0.075001	0.14327	0.18061	0.12606	0.18776	0.14126	0.40755	0.39372	0.14943	0.1834	0.21983	0.085415	0.30148	0.27604	0.16135	0.20798	-0.69792	-1.8813	-1.7458	-1.35	-2.0563	-1.3146	-1.7042	-2.0104	-1.2333	-1.8521	-1.7104	-1.3563	-2.1375	-1.4396	-1.4292	-1.9625	185.102	-60.276	119.571	-78.243	-5.654	-131.104	146.554	206.198	19.671	-76.089	200.721	-110.512	153.881	174.440	-134.780	190.671	0.0007095	0.0027136	0.00021563	814.46	2.9379e-05	3.5263e-05	1169.1	200.1	3.0011e-05	9.1378e-06	375.06	113.06	43.61	13.344	2.9728e-05	53.933	0.032047	0.050914	0.014348	926.88	0.00051793	0.00058128	1201.1	233.65	0.00051596	0.00057723	455.72	135.18	74.539	23.19	0.00054021	62.506	203.595	-48.547	88.707	-124.115	32.892	118.770	-124.367	-120.493	15.296	48.941	-120.625	-117.059	-117.702	-112.664	137.782	-113.682	-8191	255	
21778.512	1	1	0	0	0.19285	0.079147	0.17392	0.15685	0.09519	0.16362	0.41704	0.20844	0.13351	0.15091	0.18212	0.18772	0.13127	0.17178	0.15946	0.49192	-0.69167	-1.9229	-1.5812	-1.2729	-1.8958	-1.3396	-1.6333	-2.2104	-1.1146	-1.8354	-1.7313	-1.2062	-1.9667	-1.6437	-1.3146	-1.9688	91.932	-126.157	45.471	-132.877	-5.684	7.616	203.192	160.403	-81.842	36.523	121.733	208.778	-91.671	218.810	-93.916	207.634	0.00020888	0.0014649	0.00047589	812.35	2.2819e-05	1.3704e-05	1170.4	201.07	1.6544e-05	3.5988e-05	374.66	113.48	42.929	13.329	1.5793e-05	54.393	0.032543	0.05142	0.014589	925.22	0.0005197	0.00058305	1202	235.02	0.0005103	0.00057378	458.79	135.97	74.466	23.222	0.00054364	62.748	-129.274	-72.661	11.466	-124.291	65.510	17.790	-124.535	-120.511	24.649	-24.208	-120.612	-116.620	-117.856	-111.752	-81.150	-113.149	-8191	255	
21778.609	1	1	0	0	0.11223	0.036358	0.12326	0.27923	0.14342	0.13801	0.17716	0.13982	0.062947	0.29638	0.20257	0.14595	0.1513	0.21391	0.28169	0.1968	-0.83542	-1.7333	-1.75	-1.2771	-2.0271	-1.6854	-1.6	-2.275	-1.475	-1.6208	-1.9792	-1.1688	-2.1958	-1.5125	-1.2417	-2.1979	-80.323	159.033	17.261	165.777	-105.621	61.255	-108.670	106.860	68.080	161.074	8.464	51.418	86.033	168.830	127.052	73.547	0.00047483	0.0013469	0.00054656	821.93	1.8496e-05	1.2852e-05	1168.1	204.04	1.7051e-05	5.3278e-05	373.92	114.42	44.438	13.378	1.0509e-05	54.21	0.032644	0.051708	0.014633	933.67	0.00052097	0.00059474	1208.7	236	0.00051788	0.00058485	461.54	137.22	75.59	23.535	0.00055061	63.067	195.308	195.127	-123.187	-124.745	-20.416	100.819	-124.027	-120.693	-12.531	-83.376	-121.351	-117.395	-118.187	-111.706	139.481	-113.632	-8191	255	
21778.705	1	1	0	0	0.13397	0.18243	0.12304	0.039506	0.20041	0.097781	0.17692	0.19612	0.081085	0.14836	0.39653	0.3122	0.18947	0.14232	0.14928	0.20426	-0.96875	-1.4708	-1.7542	-1.1521	-1.7542	-1.5833	-1.475	-2.0938	-1.2583	-1.5979	-2.1333	-1.3083	-1.8771	-1.6396	-1.2875	-2.1167	139.414	146.070	-105.897	89.551	191.746	52.642	81.775	-40.692	177.979	218.527	161.855	177.450	-32.240	-118.558	214.626	131.451	0.0010374	0.0015498	0.00093352	826.16	2.4511e-05	4.3639e-05	1168.3	203.66	9.8059e-06	2.6118e-05	375.79	113.65	44.165	13.618	4.5085e-05	53.924	0.033002	0.052228	0.014806	936.61	0.00052555	0.00059538	1207.9	234.46	0.00051513	0.00058054	458.08	135.64	74.249	23.377	0.00053999	62.254	146.271	-13.578	-26.675	-124.427	204.761	72.532	-124.299	-120.595	52.200	5.882	-120.517	-116.946	-117.321	-112.871	27.193	-113.863	-8191	255	
21778.801	1	1	0	0	0.15531	0.30783	0.13129	0.1545	0.11082	0.038338	0.35839	0.016352	0.16817	0.13828	0.20268	0.12077	0.15834	0.066838	0.12497	0.24488	-1.0958	-1.2021	-2.0979	-1.2542	-1.75	-1.9292	-1.4354	-1.9333	-1.4521	-1.4937	-2.175	-1.2771	-1.6458	-1.7271	-1.3563	-2.0271	200.751	-129.304	64.720	219.886	-76.877	-30.712	120.995	-81.447	115.538	151.558	146.616	78.058	184.020	213.822	209.809	-124.973	0.00046435	0.0020373	0.00023556	806.5	2.6588e-05	4.4355e-05	1167	201.96	2.1567e-05	3.1e-05	377.82	113.47	44.556	13.189	7.4946e-06	53.541	0.032345	0.051145	0.014249	923.99	0.00051283	0.00058029	1199	232.8	0.00050999	0.00057155	453.43	134.91	74.026	23.099	0.0005333	61.847	141.998	152.128	157.660	-124.663	36.514	127.182	-123.970	-120.178	-135.420	201.023	-121.292	-117.029	-116.808	-111.876	85.674	-113.213	-8191	255	
21778.922	1	1	0	0	0.14409	0.14957	0.066326	0.22303	0.1662	0.21659	0.32152	0.15355	0.39653	0.1922	0.20222	0.14804	0.28026	0.26231	0.079527	0.083808	-1.2812	-1.2875	-2.0062	-1.3188	-1.7125	-1.8625	-1.3625	-2.0479	-1.4354	-1.4167	-2.1229	-1.1938	-1.6437	-1.9104	-1.1375	-2.0729	-47.467	14.596	-61.838	218.222	-54.335	-46.549	176.510	162.285	167.158	140.352	31.924	149.985	133.392	-0.035	-137.065	9.263	0.00087005	0.0014324	0.00016681	818.22	8.4523e-06	2.7173e-05	1156.8	202.35	8.7636e-06	1.1197e-05	377.42	111.95	42.833	13.179	2.3037e-06	54.363	0.032112	0.05145	0.014173	923.17	0.00051129	0.00057972	1190.3	231.94	0.00050858	0.00057007	452.08	134.29	73.759	23.085	0.00052584	61.937	164.190	78.862	54.644	-124.162	-31.582	-81.769	-124.390	-120.416	170.018	-87.510	-120.876	-117.467	-116.658	-111.438	186.326	-113.266	-8191	255	
21778.992	1	1	0	0	0.10719	0.09969	0.14887	0.15856	0.21658	0.12274	0.16623	0.20788	0.20829	0.40227	0.21985	0.18165	0.052728	0.14581	0.34657	0.1058	-1.3542	-1.1917	-2.1167	-1.4646	-1.35	-2.2042	-1.2875	-1.8083	-1.7979	-1.3	-2.1417	-1.5646	-1.4729	-1.9104	-1.3292	-1.8833	143.013	-19.827	176.339	-8.691	172.298	-16.619	193.735	179.865	-82.541	-112.769	-121.689	174.826	173.449	15.255	77.622	187.945	0.00035914	0.00035339	0.0009565	814.63	2.1413e-05	2.1702e-05	1169.6	202.86	2.7529e-05	1.6245e-05	380.47	114.97	43.667	13.568	2.0094e-05	53.148	0.03202	0.050791	0.013953	921.48	0.00050633	0.00057515	1196.3	233.14	0.00050481	0.0005654	452.99	135.3	73.896	23.112	0.00052713	61.876	152.776	125.837	62.909	-124.721	184.390	84.766	-123.863	-120.354	203.272	56.975	-120.903	-117.721	-116.924	-112.147	37.711	-113.625	-8191	255	
21779.090	1	1	0	0	0.19302	0.12646	0.098301	0.46532	0.21769	0.25126	0.22732	0.11346	0.32317	0.088142	0.17437	0.35196	0.45802	0.16551	0.13687	0.31071	-1.2563	-1.3375	-2.2042	-1.3625	-1.6021	-2.0812	-1.4188	-1.8479	-1.7854	-1.2042	-2.1188	-1.4979	-1.3479	-2.0312	-1.1875	-1.7042	27.379	36.338	-126.799	221.803	71.780	40.982	157.466	198.849	-129.414	20.223	212.646	155.566	130.703	17.829	2.990	122.967	0.0002142	0.00090651	0.00093849	809.54	5.2947e-06	1.6822e-05	1155.3	202.06	7.7008e-06	2.9921e-05	370.58	112.32	44.021	12.908	8.0854e-06	53.023	0.031942	0.050634	0.0139	917.66	0.00051041	0.00056635	1191.2	232.11	0.00050214	0.00056388	447.55	133.88	73.869	22.684	0.00052886	61.345	152.231	147.067	-42.877	-124.496	-97.169	-81.085	-123.989	-120.047	35.734	17.224	-120.500	-117.100	-116.562	-112.112	72.418	-113.648	-8191	255	
21779.184	1	1	0	0	0.25277	0.083336	0.13116	0.087902	0.18565	0.016915	0.294	0.21612	0.084903	0.12305	0.19187	0.093829	0.11724	0.1979	0.20328	0.1881	-1.55	-1.0979	-1.6271	-1.7	-1.2417	-1.8667	-1.6688	-1.8062	-1.8646	-1.2833	-2.0625	-1.8667	-1.2563	-1.9875	-1.3771	-1.6938	95.205	156.412	-28.559	207.153	-82.566	216.204	86.989	191.008	-72.417	162.285	-87.680	-41.581	62.484	185.006	-27.316	175.459	0.00043232	0.0025855	0.00030018	811.14	3.5728e-06	1.5948e-05	1165	198.58	1.7405e-05	3.1273e-05	370.16	110.65	43.927	13.045	2.7969e-05	52.146	0.032199	0.050462	0.013963	919.89	0.00051292	0.00056671	1190.7	230.09	0.00050423	0.00056311	447.71	133.21	73.721	22.619	0.00053029	60.938	189.077	-120.095	-33.184	-124.475	-41.344	130.926	-124.392	-120.524	1.077	162.868	-120.502	-116.881	-116.412	-112.199	15.738	-113.317	-8191	255	
21779.281	1	1	0	0	0.28148	0.15785	0.20036	0.10869	0.2232	0.21755	0.19029	0.26963	0.2013	0.0067481	0.21377	0.18563	0.08496	0.2179	0.16387	0.27549	-1.625	-1.1896	-1.9625	-1.9083	-1.2521	-2.1646	-1.4958	-1.7333	-2.0458	-1.2896	-1.8583	-2.0667	-1.3375	-1.9771	-1.5562	-1.5562	73.433	-69.990	164.069	-125.309	-128.780	220.183	191.544	171.687	48.982	-13.512	48.042	-115.252	175.303	-26.478	143.449	168.926	0.00030904	0.0037476	0.00032796	811.52	2.1402e-05	5.4148e-05	1164	198.75	1.5374e-05	1.3681e-05	369.47	110.82	41.742	13.024	2.2118e-05	52.514	0.032161	0.050499	0.014	919.93	0.00051137	0.00057	1193.8	230.89	0.00050904	0.00056384	447.59	133.58	73.321	22.647	0.00053204	61.28	171.483	-46.993	-14.840	-124.507	93.930	0.008	-124.172	-120.043	-79.361	160.070	-120.917	-117.017	-117.027	-112.475	86.591	-113.294	-8191	255	
21779.400	1	1	0	0	0.090613	0.11981	0.17199	0.18448	0.1511	0.2123	0.31919	0.051963	0.2052	0.1734	0.25162	0.035952	0.24428	0.19074	0.1425	0.25468	-1.6521	-1.3583	-1.6833	-1.8104	-1.1271	-1.8708	-1.7938	-1.35	-2.0646	-1.25	-1.675	-1.9896	-1.2542	-2.0542	-1.5562	-1.3542	-60.507	-44.958	-76.279	139.060	95.715	170.863	177.043	111.665	29.047	-51.684	159.575	177.356	126.719	95.301	2.975	132.955	0.00048141	0.0013948	0.00062663	817.23	1.4091e-05	2.7454e-05	1160.6	197.6	2.6768e-05	1.3575e-05	368.66	111.64	42.181	12.814	7.2955e-06	52.523	0.032273	0.051236	0.014217	925.02	0.00051841	0.00056935	1194.5	230.96	0.00050701	0.00057047	449.47	133.51	72.994	22.487	0.00053771	61.169	134.961	-48.109	-63.014	-124.445	-121.311	109.912	-123.853	-120.391	39.144	37.146	-120.476	-117.552	-117.275	-112.244	-54.076	-113.885	-8191	255	
21779.496	1	1	0	0	0.2573	0.10751	0.087076	0.26831	0.25605	0.181	0.25905	0.22739	0.078239	0.32904	0.33607	0.21864	0.071108	0.10474	0.09257	0.32003	-1.9438	-1.2708	-1.4479	-2.1104	-1.2062	-2.0375	-1.7229	-1.4146	-2.0312	-1.5354	-1.6917	-2.0417	-1.225	-1.9167	-1.7208	-1.3333	2.635	72.012	41.831	124.599	95.473	-42.213	138.547	150.716	-88.926	-76.182	211.972	145.591	124.814	14.606	139.659	194.365	0.00063881	0.0012456	0.00068528	805.1	1.5482e-05	1.5188e-05	1158.5	196.43	3.0728e-05	4.1819e-05	368.42	109.23	42.167	12.585	6.1169e-06	52.59	0.031944	0.051026	0.014219	917.65	0.00051191	0.00056999	1189.7	230.2	0.00050263	0.00056511	447.74	132.66	72.941	22.52	0.00053627	60.963	191.458	-73.598	130.477	-124.739	-1.062	65.864	-124.156	-120.673	182.130	194.488	-120.105	-117.037	-115.948	-111.530	-71.396	-112.967	-8191	255	
21779.594	1	1	0	0	0.10901	0.17391	0.18451	0.16751	0.11638	0.3467	0.056932	0.060302	0.0561	0.22656	0.2498	0.15229	0.23547	0.14787	0.30175	0.079598	-1.6229	-1.2938	-1.3521	-2.1333	-1.0771	-1.8396	-1.9417	-1.1792	-2.0646	-1.4833	-1.5375	-2.0312	-1.2021	-1.6396	-1.75	-1.0625	115.104	105.158	192.738	177.569	-6.255	-131.698	-18.025	-133.358	-84.595	-7.347	-96.357	-73.130	-1.072	-50.167	-104.748	133.248	0.00045188	0.0017105	0.00060464	803.05	1.4833e-05	2.4279e-05	1159.6	198.86	2.5187e-06	1.8129e-05	372.17	111.59	43.105	12.905	1.9325e-05	52.654	0.031825	0.051071	0.014179	915.95	0.00050798	0.00057116	1189.9	229.59	0.00050054	0.00056761	449.15	132.57	73.055	22.705	0.00053137	61.245	-131.733	-119.503	184.237	-124.297	32.154	-100.219	-123.911	-120.117	159.507	22.392	-120.896	-116.980	-117.331	-110.861	74.176	-113.123	-8191	255	
21779.689	1	1	0	0	0.14879	0.17975	0.14982	0.19955	0.080848	0.14403	0.11421	0.13856	0.1067	0.14739	0.21957	0.10981	0.022625	0.13618	0.25578	0.2619	-1.4354	-1.4542	-1.5042	-2.2229	-1.3333	-1.5833	-2.2833	-1.2646	-1.8188	-1.6833	-1.5083	-2.15	-1.3729	-1.6396	-1.9042	-1.4854	177.775	151.413	65.063	-85.441	132.965	-6.075	82.866	-48.256	221.881	-94.025	182.226	101.758	175.313	97.233	-15.731	-102.483	0.00060361	0.0012357	0.0010649	816.34	1.0951e-05	3.4205e-05	1153.2	198.54	2.737e-05	1.8177e-05	369.97	112.83	43.557	13.209	1.7989e-05	53.971	0.031674	0.051739	0.014287	921.93	0.00051831	0.00057958	1192.3	231.72	0.00050954	0.00058348	452.33	134.82	74.411	23.085	0.00054684	62.433	164.900	-15.737	-37.844	-124.523	28.446	171.270	-124.286	-119.961	94.339	182.038	-120.410	-117.028	-117.102	-112.233	126.993	-113.472	-8191	255	
21779.785	1	1	0	0	0.31297	0.071006	0.26194	0.34575	0.092164	0.21939	0.31278	0.20173	0.20493	0.16923	0.14742	0.2363	0.11075	0.22413	0.086976	0.41305	-1.4271	-1.6708	-1.25	-2.1896	-1.5646	-1.4875	-2.2687	-1.3479	-1.9	-1.9312	-1.375	-2.1937	-1.5479	-1.3458	-1.8563	-1.3583	-77.270	-28.762	-46.940	168.647	-48.028	51.778	90.907	154.046	34.045	-0.366	92.684	-15.481	133.725	58.457	217.805	178.270	0.00052552	0.0027514	0.00096823	802.98	3.0264e-05	1.1561e-05	1164.4	199.89	1.0888e-05	5.8743e-06	376.04	113.67	43.914	13.313	3.1926e-05	53.536	0.032396	0.052332	0.014512	924.1	0.00052456	0.00059133	1204.2	233.04	0.00051246	0.00058338	456.55	135.65	74.595	23.175	0.0005433	62.333	118.752	-84.584	-51.146	-124.115	-38.694	82.841	-124.212	-120.145	-110.246	25.024	-120.604	-116.752	-116.501	-111.645	90.750	-113.086	-8191	255	
21779.881	1	1	0	0	0.35648	0.053928	0.17418	0.033367	0.16772	0.2114	0.3067	0.39326	0.17211	0.048177	0.26986	0.21173	0.28201	0.11128	0.18504	0.20412	-1.3333	-1.7458	-1.0667	-2.1063	-1.5375	-1.5208	-2.1896	-1.2833	-1.5417	-1.8833	-1.3146	-2.1479	-1.5896	-1.2708	-2.1188	-1.5083	-66.239	36.124	-26.611	-80.036	6.685	-82.320	200.759	173.278	-12.477	-111.540	216.043	220.390	103.921	-26.717	-14.126	193.100	0.00046884	0.00083832	0.00061676	807.44	1.9038e-05	1.7893e-05	1165.1	199.48	2.2704e-05	2.6878e-05	375.2	111.25	42.671	13.356	1.5723e-05	53.279	0.032091	0.05219	0.014379	918.38	0.00052335	0.00058513	1195.1	232.04	0.00050799	0.00058122	452.06	134.16	74.147	23.215	0.00053883	61.956	112.234	-63.311	50.495	-123.739	-81.079	42.674	-123.860	-120.304	211.392	178.617	-120.822	-117.038	-115.985	-112.167	-22.049	-112.988	-8191	255	
21780.002	1	1	0	0	0.11724	0.11472	0.29961	0.10187	0.082456	0.13143	0.12089	0.1048	0.16413	0.08938	0.14958	0.30535	0.13054	0.072173	0.13103	0.14135	-1.4167	-2.0354	-1.1958	-2.0687	-1.7604	-1.4646	-2.1	-1.3292	-1.6021	-2.025	-1.2792	-2.0042	-1.8583	-0.91875	-1.9792	-1.3958	205.652	110.270	-8.721	-75.825	42.297	64.085	131.346	16.423	199.573	88.658	-104.528	-57.948	192.303	80.026	64.603	151.560	0.00044583	0.0012124	0.00018777	807.74	1.2714e-05	1.7477e-05	1156.1	199.2	3.2886e-06	3.1835e-05	372.67	111.45	43.395	13.333	7.7219e-06	53.801	0.032564	0.052261	0.014415	920.09	0.00052443	0.00058226	1193.3	231.41	0.00051382	0.0005844	453.22	133.87	74.4	23.058	0.00053293	62.101	-117.534	-73.528	-104.689	-124.399	-72.596	66.626	-123.633	-120.334	-23.175	124.922	-120.959	-117.379	-116.681	-112.531	-26.476	-113.109	-8191	255	
21780.096	1	1	0	0	0.14085	0.080012	0.21699	0.24348	0.1502	0.29123	0.17612	0.18677	0.080635	0.15806	0.10028	0.11981	0.047019	0.16367	0.12338	0.15378	-0.95625	-1.7792	-1.1646	-1.7646	-1.4667	-1.2125	-2.15	-1.3937	-1.3333	-2.1208	-1.4	-2.0833	-1.9958	-1.1042	-2.1042	-1.7604	-54.374	-42.826	78.675	-69.278	-65.663	-114.182	200.537	26.180	-90.459	192.219	87.432	218.073	8.205	207.806	-114.137	-27.554	0.00020411	0.0028963	0.00040229	815.73	1.9346e-05	2.6004e-05	1171.2	202.03	1.0805e-05	2.3516e-05	379.97	113.48	44.409	13.456	5.8107e-06	54.086	0.032439	0.051994	0.014248	923.75	0.00051835	0.00057705	1201.8	233.65	0.0005084	0.0005766	458.1	136.07	75.279	23.349	0.00053191	62.851	113.702	131.804	105.933	-123.769	-88.999	16.106	-124.078	-119.960	-9.922	-60.117	-120.591	-116.567	-118.062	-110.781	205.333	-113.502	-8191	255	
21780.191	1	1	0	0	0.0020552	0.098894	0.45375	0.19418	0.042202	0.18234	0.067312	0.23743	0.2051	0.08832	0.21482	0.27698	0.054263	0.28972	0.23307	0.13203	-0.83333	-1.9979	-1.4021	-1.7917	-1.9188	-1.4	-2.0687	-1.6542	-1.2833	-2.0896	-1.4813	-1.7229	-2.0583	-1.3167	-1.8813	-1.8188	180.000	-135.866	68.139	191.093	130.823	50.801	-134.673	196.370	-21.030	-61.682	195.057	200.781	-3.964	116.115	-46.836	210.247	0.00058653	0.0033404	0.00037707	811.63	4.329e-05	1.4331e-05	1177.2	200.88	1.5773e-05	2.7252e-05	376.38	115.37	44.103	13.382	2.4115e-05	54.493	0.032697	0.05138	0.014498	928.52	0.00052685	0.00058077	1205	234.67	0.00051749	0.00057062	455.66	136.41	75.23	23.258	0.00053723	63.109	211.570	-33.897	-35.839	-124.311	76.635	-0.923	-124.155	-120.407	-18.620	27.051	-120.554	-117.156	-116.606	-111.765	199.400	-113.396	-8191	255	
21780.289	1	1	0	0	0.014315	0.19169	0.16159	0.16448	0.20937	0.16325	0.15874	0.2878	0.16882	0.2642	0.28399	0.13802	0.19982	0.22373	0.16565	0.14647	-0.95417	-2.2625	-1.3271	-1.4042	-1.9312	-1.2417	-1.8125	-1.6542	-1.3271	-1.9917	-1.5187	-1.4521	-2.0354	-1.2625	-1.7021	-1.8312	74.076	212.897	60.885	164.770	-81.573	176.906	-113.879	64.118	-63.605	196.960	115.339	216.853	199.252	-85.506	68.404	90.359	0.00061974	0.00081806	0.00051012	808.39	3.4552e-05	1.3507e-05	1167.6	201.18	9.33e-06	3.608e-05	374.22	111.91	42.872	12.933	1.8432e-05	53.078	0.032596	0.051221	0.014376	927.07	0.00052648	0.00058349	1200.9	234.6	0.00051469	0.00057694	455.01	135.72	74.677	23.138	0.00054069	62.53	155.112	72.225	178.721	-124.325	65.201	-117.006	-123.523	-120.357	-6.243	73.169	-121.045	-116.797	-117.122	-112.491	99.917	-113.485	-8191	255	
#DATA ENDS
