BOXY.EXE: ISS Imagent and Oximeter Data Acquisition Program Version 0.80
Ascii Record File

#ACQ INFORMATION
2  Detector Channels 
16  External MUX Channels 
1  Auxiliary Channels 
5000  Waveform (CCF) Frequency (Hz)
1  Waveforms Skipped 
30  Waveforms Averaged 
1  Cycles Averaged 
16  Acquisitions per Waveform 
10.0806  Updata Rate (Hz) 

#FILE INFORMATION
TRUE -- External MUX Channel results are PARSED.
FALSE -- AC DC and Phase are NOT grouped.
TRUE -- Companion Program Settings File CREATED.
FALSE -- AC data not excluded
FALSE -- DC data not excluded
FALSE -- Phase data not excluded
FALSE -- Auxillary Chn. data not excluded
Tab delimiters

#CALIBRATION STATE
TRUE -- Waveform Calibration Values APPLIED.


#AUX CALIBRATION VALUES
Val Type	aux-1	

Term	1.0000e+00	
Factor	0.0000e+00	


#WF CALIBRATION VALUES
A = Detector Channel
Val Type	A-AC1	A-AC2	A-AC3	A-AC4	A-AC5	A-AC6	A-AC7	A-AC8	A-AC9	A-AC10	A-AC11	A-AC12	A-AC13	A-AC14	A-AC15	A-AC16	A-DC1	A-DC2	A-DC3	A-DC4	A-DC5	A-DC6	A-DC7	A-DC8	A-DC9	A-DC10	A-DC11	A-DC12	A-DC13	A-DC14	A-DC15	A-DC16	A-Ph1	A-Ph2	A-Ph3	A-Ph4	A-Ph5	A-Ph6	A-Ph7	A-Ph8	A-Ph9	A-Ph10	A-Ph11	A-Ph12	A-Ph13	A-Ph14	A-Ph15	A-Ph16	

Term	0.00000e+00	0.00000e+00	0.00000e+00	0.00000e+00	0.00000e+00	0.00000e+00	0.00000e+00	0.00000e+00	0.00000e+00	0.00000e+00	0.00000e+00	0.00000e+00	0.00000e+00	0.00000e+00	0.00000e+00	0.00000e+00	0.00000e+00	0.00000e+00	0.00000e+00	0.00000e+00	0.00000e+00	0.00000e+00	0.00000e+00	0.00000e+00	0.00000e+00	0.00000e+00	0.00000e+00	0.00000e+00	0.00000e+00	0.00000e+00	0.00000e+00	0.00000e+00	0.00000e+00	0.00000e+00	0.00000e+00	0.00000e+00	0.00000e+00	0.00000e+00	0.00000e+00	0.00000e+00	0.00000e+00	0.00000e+00	0.00000e+00	0.00000e+00	0.00000e+00	0.00000e+00	0.00000e+00	0.00000e+00	
Factor	1.00000e+00	1.00000e+00	1.00000e+00	1.00000e+00	1.00000e+00	1.00000e+00	1.00000e+00	1.00000e+00	1.00000e+00	1.00000e+00	1.00000e+00	1.00000e+00	1.00000e+00	1.00000e+00	1.00000e+00	1.00000e+00	1.00000e+00	1.00000e+00	1.00000e+00	1.00000e+00	1.00000e+00	1.00000e+00	1.00000e+00	1.00000e+00	1.00000e+00	1.00000e+00	1.00000e+00	1.00000e+00	1.00000e+00	1.00000e+00	1.00000e+00	1.00000e+00	X	X	X	X	X	X	X	X	X	X	X	X	X	X	X	X	

B = Detector Channel
Val Type	B-AC1	B-AC2	B-AC3	B-AC4	B-AC5	B-AC6	B-AC7	B-AC8	B-AC9	B-AC10	B-AC11	B-AC12	B-AC13	B-AC14	B-AC15	B-AC16	B-DC1	B-DC2	B-DC3	B-DC4	B-DC5	B-DC6	B-DC7	B-DC8	B-DC9	B-DC10	B-DC11	B-DC12	B-DC13	B-DC14	B-DC15	B-DC16	B-Ph1	B-Ph2	B-Ph3	B-Ph4	B-Ph5	B-Ph6	B-Ph7	B-Ph8	B-Ph9	B-Ph10	B-Ph11	B-Ph12	B-Ph13	B-Ph14	B-Ph15	B-Ph16	

Term	0.00000e+00	0.00000e+00	0.00000e+00	0.00000e+00	0.00000e+00	0.00000e+00	0.00000e+00	0.00000e+00	0.00000e+00	0.00000e+00	0.00000e+00	0.00000e+00	0.00000e+00	0.00000e+00	0.00000e+00	0.00000e+00	0.00000e+00	0.00000e+00	0.00000e+00	0.00000e+00	0.00000e+00	0.00000e+00	0.00000e+00	0.00000e+00	0.00000e+00	0.00000e+00	0.00000e+00	0.00000e+00	0.00000e+00	0.00000e+00	0.00000e+00	0.00000e+00	-8.82690e+01	-1.42635e+02	-1.12445e+02	-1.85681e+02	-9.37183e+01	-9.60728e+01	-1.59412e+02	-1.62015e+02	-5.53355e+01	-8.96295e+01	-1.71360e+02	-1.68986e+02	-1.86800e+02	-1.77307e+02	-7.11187e+01	-1.50303e+02	
Factor	1.93732e-05	8.66701e-05	2.97722e-05	2.31231e-01	9.98951e-07	9.22260e-07	1.78994e-01	5.92349e-02	7.36728e-07	8.49038e-07	9.96673e-02	3.36700e-02	2.71889e-02	1.07909e-02	1.08767e-06	1.56297e-02	4.79868e-07	4.86975e-07	1.35843e-07	1.08386e-01	5.37163e-09	5.38858e-09	8.09458e-02	2.81770e-02	5.43546e-09	5.43929e-09	4.42687e-02	1.50702e-02	1.26050e-02	4.94180e-03	5.45345e-09	6.78308e-03	X	X	X	X	X	X	X	X	X	X	X	X	X	X	X	X	



#DISTANCE SETTINGS
A = Detector Channel
A-1	A-2	A-3	A-4	A-5	A-6	A-7	A-8	A-9	A-10	A-11	A-12	A-13	A-14	A-15	A-16	

2.5000e+00	3.0000e+00	2.5000e+00	3.0000e+00	2.0000e+00	3.0000e+00	1.5000e+00	3.0000e+00	3.0000e+00	3.0000e+00	3.0000e+00	3.0000e+00	3.0000e+00	3.0000e+00	1.5000e+00	3.0000e+00	

B = Detector Channel
B-1	B-2	B-3	B-4	B-5	B-6	B-7	B-8	B-9	B-10	B-11	B-12	B-13	B-14	B-15	B-16	

1.0000e+01	1.0000e+01	1.0000e+01	1.4400e+00	1.0000e+01	1.0000e+01	1.5100e+00	1.9400e+00	1.0000e+01	1.0000e+01	1.9900e+00	2.4900e+00	2.4100e+00	2.9000e+00	1.0000e+01	2.9800e+00	




#DATA BEGINS
time	group	step	mark	flag	A-AC1	A-AC2	A-AC3	A-AC4	A-AC5	A-AC6	A-AC7	A-AC8	A-AC9	A-AC10	A-AC11	A-AC12	A-AC13	A-AC14	A-AC15	A-AC16	A-DC1	A-DC2	A-DC3	A-DC4	A-DC5	A-DC6	A-DC7	A-DC8	A-DC9	A-DC10	A-DC11	A-DC12	A-DC13	A-DC14	A-DC15	A-DC16	A-Ph1	A-Ph2	A-Ph3	A-Ph4	A-Ph5	A-Ph6	A-Ph7	A-Ph8	A-Ph9	A-Ph10	A-Ph11	A-Ph12	A-Ph13	A-Ph14	A-Ph15	A-Ph16	B-AC1	B-AC2	B-AC3	B-AC4	B-AC5	B-AC6	B-AC7	B-AC8	B-AC9	B-AC10	B-AC11	B-AC12	B-AC13	B-AC14	B-AC15	B-AC16	B-DC1	B-DC2	B-DC3	B-DC4	B-DC5	B-DC6	B-DC7	B-DC8	B-DC9	B-DC10	B-DC11	B-DC12	B-DC13	B-DC14	B-DC15	B-DC16	B-Ph1	B-Ph2	B-Ph3	B-Ph4	B-Ph5	B-Ph6	B-Ph7	B-Ph8	B-Ph9	B-Ph10	B-Ph11	B-Ph12	B-Ph13	B-Ph14	B-Ph15	B-Ph16	aux-1	digaux	

1688.727	1	1	0	768	0.013607	0.16186	0.082079	0.107	0.32232	0.14998	0.17839	0.27628	0.1531	0.23147	0.29346	0.10035	0.040675	0.23993	0.12615	0.15787	-2.8187	-3.9229	-3.8312	-3.1396	-4.0292	-3.7021	-3.5854	-4.4417	-3.3271	-3.7812	-4.15	-3.4542	-4.1312	-3.6854	-3.4437	-4.2229	131.943	210.858	111.699	196.450	59.245	269.292	176.113	-18.589	72.254	-64.273	246.289	262.425	232.556	150.732	53.619	109.586	5.227e-05	0.00013699	8.8792e-06	1093.9	1.9805e-06	2.1335e-06	1202.1	224.2	1.0695e-06	9.8309e-07	285.95	79.155	62.497	17.848	1.1573e-06	24.944	5.3851e-05	5.218e-05	1.4612e-05	994.93	5.8391e-07	5.7772e-07	1113.1	208.02	5.9034e-07	5.8231e-07	256.25	72.677	57.36	16.175	5.9114e-07	22.294	205.416	114.898	-24.643	-64.427	38.729	100.324	-63.935	-56.817	18.824	38.352	-57.276	-50.316	-50.005	-42.711	96.956	-43.136	-8191	255	
1688.823	1	1	0	0	0.13555	0.14211	0.10601	0.20088	0.28636	0.19289	0.29772	0.20002	0.076961	0.086414	0.15874	0.21994	0.19547	0.1701	0.092487	0.26414	-3.2062	-3.6354	-4.2625	-3.5312	-4.0312	-3.7667	-3.525	-4.3375	-3.5875	-3.6562	-4.25	-3.2896	-3.9813	-3.7	-3.3542	-4.0896	-18.234	-59.616	165.809	196.007	279.414	27.382	202.558	119.946	261.312	217.436	281.031	-43.873	-62.003	181.068	1.805	116.199	5.7956e-05	0.00016332	0.00011488	1101.7	4.1846e-06	9.4776e-07	1198.5	225.53	1.5447e-06	2.1395e-06	286.79	79.483	62.427	17.706	4.109e-06	25.053	5.4829e-05	5.1301e-05	1.4221e-05	995.99	5.7494e-07	5.6671e-07	1113	208.26	5.8154e-07	5.752e-07	256.8	72.604	57.301	16.205	5.8721e-07	22.296	168.302	36.793	84.471	-64.304	-25.442	231.791	-63.705	-56.761	42.684	195.825	-57.298	-49.998	-50.047	-43.047	57.278	-42.614	-8191	255	
1688.919	1	1	0	0	0.25052	0.096884	0.27277	0.28992	0.13772	0.075636	0.04831	0.16422	0.13526	0.13712	0.14653	0.1421	0.17946	0.14462	0.13845	0.12698	-3.2479	-3.4792	-4.0938	-3.3563	-4.0188	-4.0833	-3.4646	-4.175	-3.6542	-3.5125	-4.1438	-3.3812	-3.9875	-4.0208	-3.25	-4.0229	21.231	157.398	84.166	246.966	30.980	233.966	-69.318	-31.915	168.215	22.998	284.172	181.282	-20.397	254.379	-44.144	176.063	3.8777e-05	0.00016264	1.8635e-05	1096	2.3075e-06	3.128e-06	1201.9	225.46	1.2515e-06	1.7322e-06	284.54	79.506	62.638	17.649	3.0188e-06	24.643	5.4434e-05	5.2006e-05	1.4263e-05	995.47	5.6872e-07	5.773e-07	1111.8	208.62	5.7774e-07	5.7543e-07	255.79	72.587	57.213	16.143	5.9174e-07	22.277	153.350	72.497	136.864	-64.402	63.580	4.275	-63.919	-56.382	101.561	107.217	-57.192	-50.176	-49.679	-42.663	43.234	-42.904	-8191	255	
1689.015	1	1	0	0	0.14253	0.24478	0.29492	0.29342	0.16366	0.22585	0.090605	0.21371	0.12896	0.15878	0.034599	0.14097	0.16478	0.36859	0.13315	0.17293	-3.3667	-3.2562	-4.1229	-3.3688	-3.7438	-4.2417	-3.6333	-4.1208	-3.6583	-3.4854	-4.3333	-3.575	-3.7208	-4.0875	-3.1646	-4.0458	93.438	34.839	-11.646	255.379	-60.875	9.757	41.576	-59.556	198.374	114.499	185.740	54.292	236.106	204.808	120.546	-13.613	3.3543e-05	0.00013005	0.00012346	1094.6	3.1639e-06	1.4347e-06	1192.7	225.35	2.4559e-06	1.3183e-06	285.61	78.989	62.169	17.742	1.1555e-06	24.801	5.3514e-05	5.2444e-05	1.4423e-05	994.41	5.7968e-07	5.7239e-07	1109.9	208.48	5.8089e-07	5.6574e-07	255.84	72.41	57.038	16.164	5.8266e-07	22.234	138.707	31.863	36.038	-64.247	51.449	86.518	-63.851	-56.607	36.522	103.105	-56.759	-50.293	-49.626	-42.860	67.228	-42.798	-8191	255	
1689.111	1	1	0	0	0.15074	0.26007	0.11	0.30675	0.04488	0.16297	0.36629	0.30743	0.11077	0.19658	0.21017	0.14243	0.16987	0.15474	0.15171	0.36551	-3.4604	-3.2792	-4.0521	-3.6875	-3.6292	-4.3146	-3.4854	-3.9146	-3.825	-3.4792	-4.0958	-3.5146	-3.5021	-4.2896	-3.2229	-3.8854	-42.925	117.193	40.975	246.729	272.125	120.804	194.225	236.067	-43.777	95.794	220.470	171.492	112.209	49.463	254.660	268.533	4.8142e-05	0.00025657	0.0001255	1098	3.1895e-06	2.6443e-06	1190.9	224.27	1.3311e-06	1.9827e-06	287.67	79.399	62.223	17.693	1.6765e-06	24.687	5.1922e-05	5.1018e-05	1.3863e-05	995.26	5.727e-07	5.6445e-07	1108.7	208.07	5.7688e-07	5.6536e-07	256.9	72.493	57.101	16.134	5.8402e-07	22.203	205.246	84.629	-16.258	-64.370	86.924	91.083	-63.928	-56.527	63.503	-20.465	-57.045	-50.187	-49.610	-43.037	128.390	-43.135	-8191	255	
1689.208	1	1	0	0	0.072904	0.057882	0.12884	0.093234	0.083956	0.2063	0.14989	0.17879	0.099709	0.22544	0.087487	0.10687	0.33807	0.13252	0.095385	0.21128	-3.5438	-3.2104	-4.2958	-3.5958	-3.3771	-4.0396	-3.6063	-3.875	-3.8729	-3.2417	-4.1646	-3.6813	-3.5208	-4.2917	-3.5167	-3.7917	-65.650	119.909	113.692	-38.245	-21.631	229.772	272.856	244.714	46.104	-16.545	219.292	61.836	-46.418	-50.014	-66.626	238.652	4.3468e-05	5.0602e-05	7.7754e-05	1099.2	1.4193e-06	1.6768e-06	1193	224.61	6.1621e-07	3.7456e-07	286.97	79.545	62.28	17.711	9.6683e-07	24.752	5.2282e-05	5.0553e-05	1.4292e-05	994.48	5.8014e-07	5.6125e-07	1108.6	207.71	5.7336e-07	5.5518e-07	256.12	72.537	57.129	16.177	5.7242e-07	22.226	148.038	-48.845	8.345	-64.386	20.133	66.954	-63.822	-56.566	102.157	22.655	-56.779	-50.168	-49.753	-42.498	35.251	-42.574	-8191	255	
1689.328	1	1	0	0	0.13137	0.131	0.11325	0.10128	0.25524	0.14319	0.031507	0.13566	0.095991	0.075506	0.12236	0.025176	0.21718	0.33711	0.13879	0.072754	-3.5396	-3.3354	-4.0375	-3.8271	-3.2896	-4.1646	-3.6208	-3.8479	-3.9646	-3.1542	-3.9938	-4.0813	-3.375	-4.0979	-3.4813	-3.475	-35.382	190.007	53.359	280.404	162.786	163.797	249.574	247.271	95.563	26.394	114.806	67.248	27.092	201.162	108.277	-54.249	2.5518e-05	0.00026193	4.3719e-05	1094.5	2.5153e-06	1.755e-06	1191	225.42	1.7315e-06	1.1167e-06	288.16	79.736	62.573	17.771	1.4675e-06	24.849	5.2346e-05	5.0591e-05	1.4088e-05	992.21	5.6478e-07	5.5545e-07	1108.3	208.14	5.6368e-07	5.6512e-07	256.25	72.54	57.027	16.141	5.6047e-07	22.271	66.613	31.945	10.420	-64.166	34.587	20.690	-63.729	-56.714	152.417	96.153	-56.882	-50.080	-49.518	-42.672	184.293	-42.969	-8191	255	
1689.424	1	1	0	0	0.16816	0.093464	0.25691	0.32872	0.2315	0.13427	0.077136	0.086983	0.095153	0.10476	0.12494	0.15955	0.16431	0.083271	0.13893	0.18573	-3.6708	-3.3208	-3.9938	-4.1333	-3.2521	-4.2063	-3.675	-3.5208	-4.2229	-3.3479	-3.8	-3.9125	-3.2125	-4.1604	-3.7229	-3.35	158.586	-38.422	278.820	168.263	-16.191	162.970	247.958	38.708	140.351	268.390	229.763	191.575	-2.909	-62.181	135.632	239.830	2.5569e-05	0.00018195	5.5836e-05	1093.8	1.3248e-06	9.5461e-07	1202.4	224.7	1.7709e-06	3.4299e-07	285.14	79.608	62.455	17.772	1.6394e-06	24.987	5.2847e-05	5.0708e-05	1.4038e-05	993.23	5.7163e-07	5.4745e-07	1109.3	207.7	5.65e-07	5.6429e-07	255.83	72.574	57.037	16.109	5.7195e-07	22.254	205.940	-4.447	-8.077	-64.403	43.069	-37.159	-63.656	-56.496	161.558	48.118	-56.834	-50.322	-49.523	-42.677	-19.195	-43.043	-8191	255	
1689.520	1	1	0	0	0.33286	0.25998	0.13476	0.043337	0.070066	0.034083	0.28267	0.27403	0.30574	0.26984	0.023214	0.23419	0.28206	0.097826	0.17631	0.04339	-3.7146	-3.3812	-3.7833	-3.9771	-3.3292	-4.0208	-3.7958	-3.375	-4.1667	-3.3604	-3.7292	-4.0833	-3.2938	-4.0771	-3.8021	-3.525	123.003	131.637	270.561	216.153	41.392	222.661	219.533	252.025	45.852	-43.420	76.414	140.763	-59.287	208.281	258.125	-2.354	5.2738e-05	6.5196e-05	7.048e-05	1097.9	2.3233e-06	3.7414e-06	1194.6	223.67	1.0332e-06	1.1291e-06	286.1	79.571	62.172	17.658	4.0033e-06	25.176	5.2898e-05	5.003e-05	1.3924e-05	993.28	5.5818e-07	5.5107e-07	1108	207.86	5.746e-07	5.6e-07	256.13	72.457	57.043	16.145	5.6209e-07	22.26	191.309	-42.976	-5.413	-64.353	65.975	45.425	-63.978	-56.385	188.597	42.496	-56.955	-50.069	-49.674	-42.367	86.538	-42.827	-8191	255	
1689.617	1	1	0	0	0.11054	0.084738	0.033109	0.096005	0.077254	0.11378	0.29568	0.040526	0.086453	0.19947	0.066523	0.076881	0.11387	0.10401	0.088891	0.078953	-3.7188	-3.4896	-3.6833	-4.2625	-3.3125	-4	-3.8021	-3.3146	-4.0896	-3.5146	-3.5458	-4.1979	-3.1458	-3.9292	-3.8979	-3.4021	205.950	103.478	115.338	37.669	-18.191	-30.344	253.087	38.728	108.854	83.460	7.535	227.088	251.385	-13.785	191.122	190.603	7.9342e-05	0.00042256	5.5757e-05	1093.3	2.0467e-06	2.9476e-06	1196	224.34	3.2069e-07	2.4937e-06	286.15	79.707	62.083	17.763	2.1396e-06	24.807	5.0889e-05	5.1035e-05	1.394e-05	992.07	5.6367e-07	5.4937e-07	1106.5	207.55	5.6171e-07	5.5246e-07	255.95	72.442	56.861	16.15	5.6353e-07	22.219	222.831	17.884	-29.269	-64.213	53.815	42.125	-63.893	-56.501	15.113	21.560	-56.705	-49.652	-49.377	-42.512	153.025	-42.546	-8191	255	
1689.711	1	1	0	0	0.05624	0.21232	0.16653	0.10493	0.036813	0.072815	0.068428	0.12268	0.14548	0.14282	0.26449	0.21647	0.19918	0.07893	0.14314	0.17215	-3.7792	-3.5729	-3.3604	-4.2417	-3.3646	-3.6604	-4.0646	-3.3438	-4.25	-3.7	-3.4354	-4.1438	-3.3583	-3.7521	-4.0625	-3.4958	-67.285	66.867	83.960	237.582	-69.818	203.827	238.285	221.986	157.170	131.001	-33.235	151.078	-37.037	24.190	33.288	57.858	3.5521e-05	0.00013706	9.7398e-05	1094	2.6146e-06	5.8045e-07	1190.2	223.96	1.0197e-06	1.438e-06	285.2	79.027	62.428	17.544	2.757e-06	24.879	5.0522e-05	5.0918e-05	1.4076e-05	990.48	5.6241e-07	5.4086e-07	1106.2	207.11	5.4622e-07	5.4536e-07	255.69	72.214	57.013	16.056	5.5914e-07	22.223	111.117	2.788	91.580	-63.849	48.434	-2.780	-63.635	-56.210	-43.771	-46.964	-56.574	-49.906	-49.618	-42.679	120.019	-42.475	-8191	255	
1689.807	1	1	0	0	0.094784	0.1903	0.28393	0.14593	0.17407	0.12968	0.13872	0.30411	0.019381	0.29783	0.074382	0.10764	0.16227	0.26568	0.14983	0.12531	-3.75	-3.6312	-3.325	-4.4125	-3.3354	-3.7208	-4.1604	-3.2167	-4.075	-3.7167	-3.3792	-4.1979	-3.5687	-3.6896	-4.2167	-3.45	167.243	174.597	271.235	85.882	91.462	92.900	241.844	270.657	-9.848	245.373	-26.584	276.977	89.467	248.109	77.783	-10.657	4.0941e-05	0.00016118	3.5574e-05	1093	8.4125e-07	2.4574e-06	1192	223.05	1.8985e-06	1.7502e-06	284.83	79.367	62.352	17.622	3.4468e-06	24.684	5.088e-05	4.903e-05	1.4021e-05	991.19	5.6027e-07	5.4044e-07	1105	206.91	5.5796e-07	5.6426e-07	255.59	72.26	57.032	16.101	5.5562e-07	22.195	166.997	66.362	89.722	-63.839	-37.784	15.538	-63.786	-56.403	110.911	48.014	-56.530	-49.661	-49.543	-42.253	45.363	-42.775	-8191	255	
1689.928	1	1	0	0	0.21444	0.13688	0.22225	0.15421	0.095369	0.092745	0.23086	0.037944	0.036026	0.166	0.12329	0.32699	0.12006	0.1999	0.1761	0.17906	-3.6562	-3.925	-3.2875	-4.3125	-3.475	-3.6583	-4.2042	-3.3271	-3.9771	-3.9938	-3.3063	-4.1792	-3.6625	-3.6208	-4.2417	-3.4688	207.611	235.150	-73.711	205.868	6.245	185.034	228.527	-40.285	102.264	16.920	-24.996	18.023	273.358	166.380	-7.657	-57.328	7.0911e-05	0.00025945	1.5257e-05	1093.6	8.4498e-07	1.4417e-06	1192.1	223.8	1.7824e-06	1.8608e-06	283.78	79.171	61.641	17.754	6.826e-07	24.845	5.1763e-05	4.9808e-05	1.395e-05	992.39	5.6005e-07	5.5033e-07	1106.3	207.49	5.7379e-07	5.5736e-07	255.32	72.424	56.733	16.125	5.5252e-07	22.253	189.041	-6.323	236.450	-63.910	130.584	90.049	-63.722	-56.543	269.135	41.956	-56.769	-49.971	-49.733	-42.475	65.762	-42.764	-8191	255	
1690.024	1	1	0	0	0.16039	0.2257	0.091521	0.12393	0.12404	0.067178	0.080078	0.17522	0.32866	0.1633	0.090844	0.12858	0.15384	0.12181	0.24009	0.16935	-3.5729	-3.7812	-3.3292	-4.0833	-3.725	-3.5104	-4.2583	-3.2583	-3.7604	-3.9604	-3.3125	-4.2271	-3.7979	-3.4125	-4.0292	-3.5667	-34.782	-43.338	241.865	212.646	99.192	-42.880	198.432	210.901	262.731	85.605	-39.588	245.420	-23.876	165.448	163.052	-51.768	1.8202e-05	0.00024169	0.00010578	1093.4	7.9448e-07	2.7979e-06	1192.6	223.1	3.0609e-06	3.8246e-06	283.73	77.993	62.055	17.56	9.9987e-07	24.865	5.045e-05	4.8891e-05	1.4152e-05	990.72	5.4847e-07	5.4832e-07	1106.4	206.66	5.6565e-07	5.5379e-07	255.59	72.069	56.834	16.037	5.6408e-07	22.225	167.815	25.675	36.590	-64.093	149.787	25.909	-63.693	-56.694	36.847	6.653	-56.903	-49.653	-49.969	-42.434	103.595	-43.044	-8191	255	
1690.120	1	1	0	0	0.19099	0.153	0.20394	0.29796	0.21851	0.19151	0.17405	0.31459	0.24631	0.19471	0.34339	0.16615	0.082799	0.23069	0.12707	0.1404	-3.4604	-4.0604	-3.3021	-4.1062	-3.9	-3.4354	-4.3562	-3.5396	-3.5917	-4.2083	-3.5125	-4.0333	-3.8563	-3.3354	-4.1562	-3.775	-23.534	-61.045	-9.147	-71.767	-37.035	188.855	232.194	274.392	21.414	166.634	168.725	220.192	74.985	22.488	177.625	-9.931	8.9074e-05	9.4567e-05	9.0396e-05	1087	3.0759e-06	2.0228e-06	1182.2	221.98	2.5804e-06	2.6595e-06	284.8	78.394	61.698	17.537	2.0176e-06	24.839	5.1173e-05	4.9583e-05	1.3663e-05	989.81	5.5862e-07	5.4718e-07	1103.8	206.37	5.6307e-07	5.4834e-07	255.11	72.062	56.806	16.07	5.6432e-07	22.154	171.860	-28.119	-36.880	-63.951	26.244	62.048	-63.523	-56.623	246.252	82.609	-56.580	-49.543	-49.302	-42.536	91.960	-42.781	-8191	255	
1690.216	1	1	0	0	0.19363	0.36318	0.25904	0.092479	0.13565	0.02802	0.20308	0.19379	0.2812	0.038913	0.0095335	0.067952	0.14813	0.23835	0.10837	0.14204	-3.2646	-4.1521	-3.3583	-3.95	-3.9167	-3.2146	-4.2562	-3.6042	-3.5792	-4.2812	-3.5354	-3.9188	-4.025	-3.4875	-4.125	-3.7896	-16.627	241.027	16.835	186.475	63.392	98.390	252.703	252.743	-53.356	169.797	31.904	34.331	246.939	224.086	-16.918	50.657	4.3878e-05	0.00016942	9.6016e-05	1093.1	1.3119e-06	3.0322e-06	1193.2	224.4	1.3265e-06	1.2479e-06	286.53	79.301	62.247	17.848	4.4649e-06	24.71	5.1339e-05	4.8678e-05	1.3956e-05	990.94	5.579e-07	5.4472e-07	1104.8	207.1	5.6276e-07	5.4991e-07	255.46	72.312	56.949	16.116	5.5847e-07	22.148	167.105	24.551	57.765	-64.010	250.448	-21.131	-63.168	-56.287	274.873	11.568	-56.561	-49.117	-49.358	-42.188	42.758	-42.372	-8191	255	
1690.312	1	1	0	0	0.11874	0.10717	0.25443	0.23415	0.29184	0.12046	0.27219	0.088106	0.25205	0.1275	0.099434	0.26925	0.05411	0.11959	0.2582	0.11383	-2.95	-4.1687	-3.35	-3.8	-3.9271	-3.3146	-4.2104	-3.7854	-3.3167	-4.15	-3.5917	-3.6833	-3.9667	-3.3208	-3.8542	-3.8583	116.240	147.045	-71.814	178.210	33.845	109.996	162.721	35.840	5.008	96.214	253.394	275.124	-0.358	63.940	114.450	226.373	7.0686e-05	0.00025633	3.5936e-05	1098	1.7403e-07	4.5486e-06	1193.1	224.46	1.1297e-06	1.7705e-06	287.05	79.314	62.795	17.656	3.112e-06	24.581	5.2358e-05	4.8802e-05	1.3971e-05	992.13	5.5478e-07	5.4019e-07	1106.2	207.08	5.6353e-07	5.6332e-07	255.3	72.23	56.961	16.089	5.6509e-07	22.104	178.848	21.178	-23.180	-63.539	230.823	103.803	-63.012	-56.155	-63.895	54.752	-56.681	-49.154	-49.547	-41.666	87.596	-42.272	-8191	255	
1690.409	1	1	0	0	0.087007	0.17226	0.21055	0.040796	0.1918	0.20431	0.070528	0.05859	0.070822	0.047819	0.060326	0.15675	0.023892	0.13325	0.12621	0.19417	-2.8979	-4.1917	-3.4542	-3.6708	-4.1771	-3.2562	-4.0208	-3.9188	-3.2396	-4.0396	-3.4562	-3.4479	-4.1625	-3.3563	-3.9146	-4	106.565	115.348	8.983	189.768	76.318	-43.767	196.910	-64.301	31.097	199.311	216.087	274.553	204.606	256.430	134.132	231.905	0.00010262	0.00017025	7.3405e-05	1101	1.09e-06	2.1447e-06	1197.3	225.31	1.0014e-06	2.9831e-06	287.68	78.848	62.29	17.646	2.367e-06	24.789	5.181e-05	4.9202e-05	1.4102e-05	992.59	5.633e-07	5.6198e-07	1107.7	207.31	5.7406e-07	5.5891e-07	255.69	72.069	57.049	16.116	5.7572e-07	22.171	195.147	-62.649	85.477	-63.454	-33.946	28.561	-63.074	-56.162	139.184	100.349	-56.332	-49.531	-49.250	-41.761	48.857	-42.191	-8191	255	
1690.505	1	1	0	0	0.11174	0.20076	0.2206	0.20242	0.066056	0.10111	0.30521	0.16264	0.2222	0.11266	0.30777	0.12845	0.024466	0.079113	0.043938	0.20474	-2.8375	-4.0854	-3.5375	-3.6521	-4.2021	-3.4292	-4.0125	-4.175	-3.3979	-4.1479	-3.7458	-3.3812	-4.1729	-3.4083	-3.6979	-4.0125	26.310	194.329	100.544	201.237	-41.322	132.730	241.950	-10.756	241.399	125.550	176.098	223.001	204.971	177.305	-38.191	272.110	2.6552e-05	0.00032633	8.3151e-05	1101.7	3.0449e-06	1.661e-06	1195.7	224.09	2.044e-06	1.2171e-06	286.88	79.229	62.991	17.758	1.2786e-06	24.855	5.21e-05	4.9263e-05	1.413e-05	994.03	5.5594e-07	5.4437e-07	1107.7	206.99	5.6526e-07	5.5527e-07	255.39	72.148	57.202	16.1	5.6464e-07	22.173	223.365	42.069	40.855	-63.654	37.775	40.512	-63.004	-55.994	93.449	131.529	-56.558	-49.258	-49.278	-41.757	106.457	-41.926	-8191	255	
1690.601	1	1	0	0	0.15536	0.10381	0.17275	0.33106	0.061028	0.23967	0.31538	0.14341	0.33837	0.19592	0.18765	0.15822	0.12165	0.15361	0.080685	0.10746	-2.9896	-4.0375	-3.8229	-3.4229	-4.2958	-3.4958	-3.7938	-4.1625	-3.2062	-4.0271	-3.6937	-3.3812	-4.0333	-3.6583	-3.5625	-4.1333	47.142	130.756	-62.689	212.517	-8.832	157.133	266.874	271.918	96.612	214.023	204.616	-32.841	21.972	278.004	140.987	-19.144	5.4331e-05	0.00020909	4.2493e-05	1096.8	1.5559e-06	2.2992e-06	1196.1	223.65	5.4524e-07	2.1889e-06	287.03	79.111	62.755	17.685	3.5579e-06	24.827	5.2179e-05	5.026e-05	1.3991e-05	992.53	5.5473e-07	5.594e-07	1107.3	206.69	5.5368e-07	5.4065e-07	255.92	72.138	57.076	16.106	5.6682e-07	22.245	208.933	28.534	22.763	-63.613	98.407	-27.905	-63.136	-56.207	116.683	9.920	-56.301	-49.535	-49.262	-42.287	99.923	-42.878	-8191	255	
1690.697	1	1	0	0	0.091134	0.14167	0.045252	0.076091	0.13813	0.13489	0.18864	0.20526	0.081557	0.074528	0.1703	0.054827	0.12311	0.19078	0.050803	0.070257	-2.9979	-3.9958	-3.8333	-3.2896	-4.2042	-3.5896	-3.6833	-4.2188	-3.3396	-3.9292	-4.1083	-3.3917	-4.1542	-3.7042	-3.4958	-4.3104	107.610	-45.197	55.708	122.421	37.476	61.528	-13.196	53.601	285.570	60.372	268.367	190.974	0.511	27.048	40.238	195.124	5.429e-05	0.00020807	3.2218e-05	1097.8	4.2561e-06	2.9687e-06	1196	223.84	1.3723e-06	1.6846e-06	286.19	79.265	62.584	17.65	2.4685e-06	24.851	5.2024e-05	5.0141e-05	1.4208e-05	992.7	5.6235e-07	5.5958e-07	1107.9	207.09	5.7054e-07	5.5627e-07	255.21	72.374	57.051	16.102	5.6072e-07	22.133	219.239	9.663	14.612	-63.543	87.077	49.940	-63.252	-56.233	23.371	-20.412	-56.240	-49.061	-49.157	-41.958	72.116	-42.781	-8191	255	
1690.816	1	1	0	0	0.027116	0.24493	0.11151	0.28619	0.201	0.12649	0.040432	0.20179	0.042763	0.156	0.13126	0.044885	0.20499	0.050886	0.14758	0.11879	-3.0604	-3.9375	-4.025	-3.3542	-4.0729	-3.6229	-3.6479	-4.1917	-3.3604	-3.7979	-4.0854	-3.2979	-4.0062	-3.7208	-3.4729	-4.2438	114.456	189.603	160.576	257.323	86.044	-9.771	251.961	174.005	228.161	212.305	30.480	75.492	204.025	184.051	189.766	168.822	6.4953e-05	0.000211	6.5505e-05	1097.3	6.3549e-07	2.8584e-06	1194.1	225.31	1.3993e-06	1.9004e-06	286.1	78.882	62.712	17.629	1.2386e-06	24.708	5.2952e-05	5.0701e-05	1.4057e-05	992.96	5.5985e-07	5.5841e-07	1108	207.73	5.6342e-07	5.6011e-07	255.71	72.337	57.092	16.103	5.4746e-07	22.149	159.590	14.177	61.833	-63.894	96.407	94.872	-64.094	-56.788	-13.046	45.114	-57.293	-50.084	-49.770	-42.277	154.643	-43.404	-8191	255	
1690.889	1	1	0	0	0.057921	0.11404	0.19993	0.27253	0.15173	0.11312	0.1594	0.1451	0.13891	0.082691	0.043552	0.010542	0.23607	0.10203	0.1901	0.27306	-3.0958	-3.7479	-3.9958	-3.2333	-3.9938	-4.0042	-3.4979	-4.2083	-3.4062	-3.6604	-4.2146	-3.525	-3.9	-4.0312	-3.3688	-3.9938	110.619	170.822	-29.613	-74.866	-65.052	133.815	-73.926	-61.340	42.135	271.184	186.287	104.513	122.412	82.785	249.040	-32.260	6.2615e-05	0.00012121	1.0426e-05	1088.3	6.4524e-07	1.3709e-06	1184.3	222.72	3.1926e-06	1.5206e-06	282.23	79.226	62.089	17.697	7.8788e-07	24.847	5.1511e-05	5.0648e-05	1.4004e-05	991.34	5.5055e-07	5.5655e-07	1105.6	207.19	5.6123e-07	5.5568e-07	254.36	72.264	56.903	16.134	5.5901e-07	22.228	236.482	18.681	-73.852	-64.460	80.296	-3.590	-64.024	-57.163	7.388	82.404	-57.255	-50.362	-49.698	-42.889	86.884	-43.305	-8191	255	
1691.008	1	1	0	0	0.080769	0.13873	0.13558	0.23949	0.1352	0.11577	0.22757	0.09392	0.15673	0.20712	0.10856	0.10524	0.2023	0.11528	0.27252	0.21088	-3.1562	-3.5	-4.0104	-3.3646	-3.8646	-3.8937	-3.3937	-4.1146	-3.6729	-3.4208	-4.3521	-3.3125	-3.6813	-4.05	-3.3917	-4.1646	222.311	-49.339	97.412	-68.592	214.533	43.431	194.937	-41.501	250.436	115.870	30.183	102.743	-55.325	-53.137	147.731	255.409	8.6157e-05	0.00011618	5.2901e-05	1087.1	1.0951e-06	1.8875e-06	1186.4	222.65	7.1508e-07	2.942e-06	284.24	78.621	62.006	17.739	2.8749e-06	24.637	5.061e-05	4.9785e-05	1.4056e-05	989.26	5.4589e-07	5.4316e-07	1103.4	207.17	5.5347e-07	5.5039e-07	255.38	72.077	56.896	16.089	5.4924e-07	22.198	192.375	105.827	49.546	-64.703	152.041	28.873	-63.931	-56.773	91.948	68.468	-57.126	-50.530	-49.976	-43.009	27.949	-43.629	-8191	255	
1691.104	1	1	0	0	0.27704	0.12375	0.039267	0.20228	0.081709	0.19341	0.061412	0.12702	0.081673	0.16608	0.20183	0.078593	0.23418	0.1674	0.078921	0.16437	-3.3104	-3.4771	-4.0521	-3.2979	-3.4813	-4.0146	-3.5167	-3.8958	-3.6979	-3.4375	-4.0771	-3.4875	-3.5396	-4.175	-3.1771	-4.0042	183.041	169.060	121.587	259.001	23.510	115.653	209.298	-69.732	280.758	143.267	256.234	61.314	196.134	-52.549	77.060	190.089	6.3855e-05	0.00021268	0.00010177	1093.6	1.4008e-06	1.1874e-06	1185.9	222.38	5.7458e-07	3.6796e-07	283.74	78.638	62.199	17.502	2.5679e-06	24.693	5.1844e-05	4.883e-05	1.3585e-05	990.4	5.5618e-07	5.4721e-07	1104.3	207.1	5.5154e-07	5.4714e-07	254.93	72.098	56.938	16.047	5.4825e-07	22.126	150.879	-22.838	60.952	-64.600	-19.727	92.965	-64.229	-57.028	169.977	118.434	-57.187	-50.526	-50.370	-42.950	66.645	-43.547	-8191	255	
1691.200	1	1	0	0	0.22681	0.16349	0.15027	0.15449	0.28148	0.059647	0.068174	0.15878	0.24815	0.29805	0.25135	0.28358	0.05797	0.089162	0.23405	0.19583	-3.3688	-3.1167	-3.9313	-3.5396	-3.5396	-4.2604	-3.3937	-3.8771	-3.7854	-3.3625	-4.1562	-3.3708	-3.8875	-4.1521	-3.2771	-3.9125	237.201	199.414	59.211	230.348	207.313	82.034	262.189	280.143	214.819	-12.322	-62.285	-25.074	175.242	206.180	-65.945	168.695	5.855e-05	7.7155e-05	4.6396e-05	1089.2	2.2233e-06	1.6365e-06	1181.5	222.24	1.1225e-06	2.3511e-06	282.84	78.924	62.058	17.468	5.4076e-06	24.871	5.1331e-05	4.9491e-05	1.3656e-05	990.68	5.4731e-07	5.3275e-07	1104.2	207.32	5.4851e-07	5.4422e-07	254.71	72.161	56.888	16.026	5.5042e-07	22.238	193.438	75.095	76.491	-64.533	80.046	78.786	-64.297	-56.904	115.512	27.107	-57.194	-50.439	-50.265	-42.973	64.342	-43.437	-8191	255	
1691.297	1	1	0	0	0.26924	0.14672	0.066101	0.14448	0.16658	0.088469	0.26712	0.20159	0.091942	0.11825	0.18434	0.15091	0.093442	0.035952	0.19745	0.23281	-3.7313	-3.225	-4.0458	-3.6458	-3.3646	-4.1021	-3.5125	-3.7438	-4.0667	-3.3833	-4.0146	-3.7375	-3.3896	-4.05	-3.4458	-3.5896	133.554	80.438	268.658	237.710	-51.298	208.756	246.917	229.623	44.106	155.573	264.726	-55.611	10.607	-67.322	204.509	-72.038	4.6248e-05	0.00020518	6.0364e-05	1086.4	2.306e-06	2.4305e-06	1187.2	224.27	1.6196e-06	3.4556e-06	283.78	78.541	62.369	17.717	2.7486e-06	24.485	5.0735e-05	4.8954e-05	1.3465e-05	987.37	5.4183e-07	5.2706e-07	1103.1	206.95	5.5028e-07	5.3935e-07	254.83	72.005	56.962	16.077	5.5298e-07	22.104	251.356	-27.818	64.583	-64.848	36.002	49.978	-64.377	-57.061	71.117	88.264	-57.374	-50.962	-50.745	-42.985	-34.573	-43.636	-8191	255	
1691.417	1	1	0	0	0.013222	0.055192	0.096772	0.36853	0.1179	0.080414	0.20915	0.10541	0.063227	0.16149	0.071586	0.25708	0.10375	0.092952	0.14979	0.21628	-3.675	-3.25	-4.0062	-3.7458	-3.2708	-4.1479	-3.6604	-3.7479	-4.0208	-3.4771	-3.9917	-3.7875	-3.4021	-4.3063	-3.5458	-3.6188	168.567	263.466	269.766	254.686	-49.818	190.092	166.867	132.894	87.365	271.874	231.555	247.623	36.562	209.152	255.428	250.820	4.5832e-05	1.6223e-05	4.2197e-05	1087.5	2.2018e-06	2.0507e-06	1184.1	222.81	1.1635e-06	1.8475e-06	281.47	79.085	62.051	17.796	1.4828e-06	24.687	5.032e-05	4.8253e-05	1.3333e-05	989.05	5.3718e-07	5.3286e-07	1103.1	206.64	5.4518e-07	5.29e-07	254.49	72.064	56.913	16.093	5.4294e-07	22.14	164.636	103.324	-14.408	-64.878	58.029	93.932	-64.560	-57.185	131.153	39.400	-57.365	-50.649	-49.675	-42.730	89.932	-43.447	-8191	255	
1691.513	1	1	0	0	0.22962	0.067792	0.18929	0.18703	0.12206	0.09864	0.22056	0.1716	0.087536	0.13605	0.118	0.19602	0.1206	0.14615	0.054627	0.02732	-3.8021	-3.3375	-3.9104	-3.8812	-3.2458	-4.0479	-3.6292	-3.4917	-4.0729	-3.3708	-3.8479	-4.1292	-3.2917	-4.0312	-3.7313	-3.4854	183.610	272.417	76.667	206.146	270.263	50.167	243.134	203.791	245.892	107.501	83.878	172.255	234.344	20.826	-69.565	51.652	0.00010037	0.00015398	3.9421e-05	1098.5	5.6872e-07	8.5897e-07	1191.2	224.27	2.6444e-06	3.4576e-06	286.23	79.5	62.222	17.679	2.0409e-06	24.616	4.9185e-05	4.8185e-05	1.3299e-05	991.71	5.4899e-07	5.2658e-07	1102.4	207.11	5.4886e-07	5.3154e-07	255.37	72.084	56.968	16.078	5.48e-07	22.176	205.682	61.149	100.077	-64.043	178.404	-7.961	-64.111	-57.145	22.914	60.929	-57.542	-50.440	-49.925	-42.788	-4.234	-43.456	-8191	255	
1691.610	1	1	0	0	0.13313	0.33079	0.17622	0.091043	0.051185	0.11096	0.15313	0.20753	0.12068	0.055745	0.14116	0.2239	0.064409	0.093618	0.032624	0.051994	-3.7625	-3.2417	-3.7333	-4.1042	-3.15	-4.1813	-3.7479	-3.3146	-4.0292	-3.3583	-3.6562	-3.9938	-3.2229	-3.9354	-3.7542	-3.3563	85.785	201.575	281.938	181.396	110.555	33.493	201.183	-48.293	154.334	-51.732	239.927	-72.320	197.444	198.791	254.812	137.005	1.2531e-05	0.00010396	0.00010808	1099.9	1.583e-06	2.1956e-06	1190.5	224.76	1.8654e-06	7.4954e-07	288.05	78.969	62.264	17.774	2.0737e-06	24.816	5.0839e-05	4.9229e-05	1.369e-05	991.02	5.4462e-07	5.2718e-07	1104.7	207.22	5.5217e-07	5.4416e-07	255.4	72.189	56.941	16.119	5.5164e-07	22.136	172.852	-39.275	54.403	-64.665	21.515	33.480	-64.260	-56.809	249.192	110.140	-57.110	-50.785	-50.178	-43.306	44.270	-42.691	-8191	255	
1691.704	1	1	0	0	0.17754	0.20151	0.20168	0.28819	0.13254	0.11535	0.16853	0.18691	0.30847	0.097721	0.35046	0.066987	0.068175	0.31923	0.28482	0.21092	-3.7083	-3.2417	-3.5687	-4.3229	-3.2542	-3.9062	-3.7604	-3.3021	-4.0771	-3.5667	-3.7667	-4.1146	-3.2625	-3.7938	-3.9396	-3.3667	186.408	68.274	-74.189	258.713	233.467	-69.586	223.058	225.835	155.462	-54.917	275.297	-63.574	120.252	-30.817	100.926	112.817	1.9258e-05	0.00031129	5.5823e-05	1098.5	1.8583e-06	4.6025e-07	1189.3	225.04	4.7614e-07	4.3854e-06	285.6	78.555	61.547	17.607	3.0271e-06	24.737	5.0636e-05	4.8604e-05	1.3683e-05	991.41	5.5264e-07	5.3488e-07	1104.6	207.02	5.5382e-07	5.3605e-07	255.26	71.918	56.758	16.061	5.4249e-07	22.13	179.094	5.251	75.941	-64.411	53.853	48.005	-64.207	-56.970	189.703	113.454	-57.090	-50.471	-49.947	-42.805	50.705	-43.097	-8191	255	
1691.800	1	1	0	0	0.23324	0.13739	0.072608	0.29869	0.23248	0.22151	0.043709	0.23963	0.25792	0.11069	0.1461	0.087157	0.033081	0.1586	0.21582	0.099984	-3.7521	-3.6875	-3.5667	-4.1125	-3.275	-3.7604	-4.1937	-3.3458	-3.9333	-3.575	-3.3479	-4.2625	-3.1271	-3.6854	-4.1854	-3.3021	194.249	193.885	259.033	277.252	132.269	94.685	201.828	235.640	189.644	77.474	-47.955	219.262	62.015	199.152	211.342	23.792	6.7851e-05	7.4088e-05	6.0917e-05	1089.2	5.2484e-07	1.3595e-06	1184.9	222.94	2.4837e-06	9.892e-07	286.76	78.129	62.087	17.726	1.1544e-06	24.928	5.0748e-05	4.9101e-05	1.3552e-05	988.46	5.3702e-07	5.3997e-07	1103.1	206.76	5.4724e-07	5.3672e-07	254.96	71.949	56.932	16.106	5.5262e-07	22.191	212.112	-3.068	-2.283	-64.348	7.140	53.750	-64.137	-56.761	53.984	83.555	-57.288	-50.500	-49.947	-42.752	98.593	-43.347	-8191	255	
1691.896	1	1	0	0	0.15268	0.11033	0.15008	0.18466	0.21105	0.092284	0.10984	0.20033	0.02254	0.12002	0.22334	0.12518	0.094031	0.17361	0.19875	0.067333	-3.5812	-3.7083	-3.4104	-4.075	-3.2708	-3.5354	-4.0229	-3.3187	-3.8667	-3.7854	-3.2188	-4.1104	-3.6146	-3.5458	-4.0708	-3.2146	56.207	63.123	222.550	-31.602	-67.837	195.363	176.255	160.049	95.249	174.219	239.879	250.578	191.518	241.007	56.778	256.615	5.6839e-05	0.00010686	5.9236e-05	1091.3	1.901e-06	5.239e-06	1184.5	222.52	1.3658e-06	2.6952e-06	284.87	78.583	61.593	17.492	2.8304e-06	24.714	5.0868e-05	4.8649e-05	1.3613e-05	990.35	5.3642e-07	5.3817e-07	1103.4	206.64	5.4485e-07	5.3799e-07	254.8	72.142	56.671	16.017	5.4213e-07	22.125	161.452	-50.360	61.691	-64.880	35.550	49.986	-64.408	-57.254	59.794	13.417	-57.645	-50.939	-50.503	-43.079	82.864	-43.930	-8191	255	
1691.992	1	1	0	0	0.21919	0.12876	0.1718	0.047501	0.16272	0.18371	0.091623	0.23686	0.20244	0.079868	0.15771	0.28001	0.12004	0.10847	0.10185	0.2428	-3.5479	-4.0583	-3.1042	-4.2167	-3.7062	-3.6396	-4.2188	-3.2875	-3.7125	-3.9146	-3.2167	-4.1417	-3.5	-3.3958	-4.1896	-3.4625	-71.245	236.260	73.174	29.127	149.932	51.556	238.700	254.158	68.759	235.755	235.658	-43.690	200.615	204.148	249.647	265.889	1.5244e-05	0.00023852	6.6243e-05	1090	1.9969e-06	1.5343e-06	1183.9	221.89	8.831e-07	2.1369e-06	283.73	78.189	61.927	17.798	4.6111e-07	24.553	5.0902e-05	4.8812e-05	1.3347e-05	989.67	5.4905e-07	5.358e-07	1102.2	206.37	5.4484e-07	5.4153e-07	254.58	71.873	56.818	16.131	5.449e-07	22.042	135.531	-32.661	78.365	-64.522	-62.816	190.634	-64.848	-57.093	264.508	100.326	-57.698	-50.467	-49.994	-43.061	50.238	-43.642	-8191	255	
1692.113	1	1	0	0	0.088499	0.16685	0.1437	0.12585	0.23106	0.28038	0.21438	0.15367	0.10639	0.23269	0.11302	0.22835	0.16668	0.2071	0.10288	0.11851	-3.3875	-3.9146	-3.3208	-4.2792	-3.6146	-3.4021	-4.3146	-3.5708	-3.7292	-4.1292	-3.4792	-4.0896	-3.6958	-3.325	-4.1542	-3.3563	-63.633	204.015	48.212	264.178	111.892	-25.282	220.852	222.445	179.743	238.975	169.521	-32.691	-24.427	-58.929	-11.053	200.850	1.3583e-05	6.862e-05	6.0724e-05	1087.9	2.1638e-06	8.6745e-07	1184.6	222.64	2.321e-06	1.32e-07	283.43	78.696	61.823	17.567	2.1771e-06	24.703	5.0846e-05	4.9015e-05	1.3522e-05	988.34	5.4238e-07	5.407e-07	1102.6	206.43	5.4797e-07	5.2742e-07	254.56	71.939	56.841	16.087	5.4865e-07	22.15	241.718	29.750	-19.849	-64.323	126.488	-56.169	-64.202	-57.193	47.426	99.923	-57.170	-50.359	-49.918	-42.591	75.414	-43.619	-8191	255	
1692.185	1	1	0	0	0.045258	0.20654	0.10055	0.28107	0.18789	0.088021	0.11524	0.34778	0.090158	0.21789	0.24686	0.17325	0.12458	0.099858	0.078357	0.16454	-3.2188	-4.0083	-3.4042	-3.9896	-3.8104	-3.3187	-4.1937	-3.5542	-3.5062	-4.1417	-3.3958	-3.9458	-3.8583	-3.4458	-4.1708	-3.6375	131.276	53.345	228.046	187.920	107.198	102.789	160.403	173.434	-11.694	159.711	-34.179	184.217	-19.442	75.263	-12.916	245.884	1.5383e-05	0.00012609	5.7503e-05	1090.3	1.5212e-06	1.7311e-06	1181.6	223.01	1.5102e-06	2.7432e-06	285.55	79.031	62.219	17.555	2.3751e-06	24.626	5.0865e-05	4.9046e-05	1.3499e-05	989.13	5.3952e-07	5.4734e-07	1102.7	206.65	5.5381e-07	5.4887e-07	255.24	72.163	56.902	16.04	5.5241e-07	22.092	182.031	35.374	-24.460	-64.519	10.886	89.620	-64.234	-57.034	103.493	83.707	-57.612	-50.160	-50.367	-43.090	31.674	-43.687	-8191	255	
1692.281	1	1	0	0	0.13947	0.14693	0.14575	0.085007	0.23224	0.18856	0.090137	0.12884	0.19752	0.3055	0.15451	0.18742	0.14886	0.092073	0.094589	0.2002	-3.0625	-3.9521	-3.4167	-3.875	-3.9437	-3.3083	-4.1021	-3.7833	-3.5167	-4.2208	-3.3812	-3.7583	-3.9792	-3.4521	-4.0583	-3.7771	21.639	81.503	15.176	226.460	247.657	108.618	211.579	156.164	-39.329	96.448	100.662	230.776	221.360	-63.563	-65.821	-32.863	7.2185e-05	0.00019182	8.0898e-05	1087	4.1581e-07	4.2641e-06	1182.9	222.27	1.8629e-06	2.5354e-06	282.52	78.631	62.2	17.565	3.6742e-06	24.589	5.2145e-05	4.8946e-05	1.3506e-05	989.28	5.3698e-07	5.3693e-07	1102.6	206.44	5.5871e-07	5.4822e-07	254.45	72.005	56.784	16.029	5.5101e-07	22.141	199.712	10.232	48.479	-64.584	79.951	71.183	-64.302	-57.129	78.581	38.613	-57.751	-50.411	-50.214	-43.493	41.343	-43.452	-8191	255	
1692.377	1	1	0	0	0.097127	0.12492	0.089539	0.13188	0.17077	0.11108	0.27697	0.19369	0.10057	0.17607	0.087223	0.13311	0.1821	0.089709	0.24407	0.032762	-2.9146	-4.1854	-3.2667	-3.7812	-4.0542	-3.2104	-4.05	-3.8	-3.3063	-4.2042	-3.6708	-3.6625	-4.075	-3.3375	-3.9333	-3.7812	-54.442	191.850	-67.349	-33.128	87.435	273.193	250.449	-42.643	244.080	78.402	24.189	267.430	-1.616	-70.070	232.681	174.619	7.5776e-05	0.00032804	6.6867e-05	1085.5	1.8432e-06	2.0878e-06	1182.8	221.21	4.6089e-07	1.6088e-06	282.62	78.578	61.977	17.526	1.339e-06	24.481	5.1024e-05	4.9609e-05	1.3606e-05	989.4	5.5237e-07	5.3189e-07	1102.5	206.2	5.454e-07	5.4879e-07	254.01	72.009	56.898	16.01	5.5008e-07	22.061	230.024	4.382	10.942	-64.339	18.496	113.980	-63.976	-56.917	53.633	77.542	-57.485	-50.559	-50.478	-43.129	117.821	-43.693	-8191	255	
1692.498	1	1	0	0	0.22189	0.17482	0.13546	0.23202	0.11671	0.066691	0.28392	0.14571	0.16302	0.074558	0.15755	0.19583	0.11145	0.1061	0.1878	0.24952	-2.8667	-4.1958	-3.5042	-3.5229	-4.0667	-3.4208	-3.9229	-4.1375	-3.3812	-4.1625	-3.5458	-3.4958	-4.1896	-3.3104	-3.7625	-3.9813	139.969	-3.829	138.883	262.559	-4.161	123.471	246.528	268.578	114.492	276.250	135.749	77.281	-12.865	-71.169	186.272	24.679	0.00010249	0.00024219	0.00011437	1082.6	1.3858e-06	2.3035e-06	1184.1	223.64	4.0014e-07	1.7669e-06	284.85	78.974	62.205	17.619	1.6033e-06	24.791	5.0644e-05	4.8493e-05	1.35e-05	987.72	5.4011e-07	5.4605e-07	1102.6	206.68	5.3993e-07	5.3825e-07	254.36	72.154	56.88	16.059	5.4072e-07	22.131	215.171	47.896	1.881	-64.360	86.488	112.145	-64.090	-57.211	223.613	76.069	-56.836	-50.092	-49.959	-43.166	49.948	-43.050	-8191	255	
1692.594	1	1	0	0	0.13927	0.19061	0.13314	0.14855	0.11688	0.25075	0.21773	0.060955	0.17547	0.1338	0.10067	0.15881	0.18672	0.056607	0.1144	0.075627	-2.7542	-4.0271	-3.5521	-3.6208	-4.0792	-3.2875	-3.8354	-4.0417	-3.1646	-4.025	-3.8771	-3.3396	-4.2896	-3.5292	-3.8167	-4.0271	172.443	141.979	271.430	-45.049	120.384	143.420	270.773	150.133	39.146	4.903	-61.722	194.255	278.211	64.755	-16.073	278.288	5.7802e-05	0.00025231	2.9964e-05	1090.9	4.3703e-06	1.3352e-06	1187.8	222.27	1.6e-06	4.1772e-06	285.47	78.558	62.106	17.676	1.9449e-06	24.643	5.0286e-05	4.8563e-05	1.3733e-05	988.99	5.4434e-07	5.3413e-07	1102.6	206.11	5.511e-07	5.3448e-07	254.2	72.06	56.994	16.073	5.4303e-07	22.093	166.830	69.730	-56.480	-64.395	55.690	199.289	-64.049	-57.043	52.666	31.345	-57.404	-50.135	-49.970	-43.267	49.463	-43.011	-8191	255	
1692.690	1	1	0	0	0.10006	0.12344	0.1456	0.074774	0.21249	0.035044	0.17081	0.086218	0.17081	0.1605	0.078656	0.10245	0.18724	0.094129	0.10331	0.25378	-2.9042	-3.9021	-3.8063	-3.375	-4.2146	-3.3292	-3.8229	-4.1708	-3.2771	-4.0062	-3.9708	-3.3625	-4.1687	-3.6	-3.5	-4.2854	171.764	227.920	87.302	135.891	-7.115	99.363	200.517	257.697	159.573	89.641	98.692	83.109	129.407	89.753	123.925	224.202	3.8056e-05	0.0002192	5.7674e-05	1091.2	1.8114e-06	7.3826e-07	1189.1	222.87	7.0744e-07	2.6599e-06	283.27	78.331	61.468	17.655	1.4883e-06	24.499	5.1263e-05	4.8583e-05	1.3594e-05	989.76	5.4427e-07	5.3621e-07	1104.8	206.77	5.5164e-07	5.551e-07	254	71.78	56.737	16.092	5.5587e-07	22.145	175.705	26.423	275.855	-64.528	52.112	118.023	-63.853	-56.971	58.926	88.011	-56.902	-50.235	-49.672	-42.498	83.618	-43.269	-8191	255	
1692.786	1	1	0	0	0.256	0.2998	0.06838	0.040232	0.15088	0.073122	0.13252	0.10251	0.12969	0.039502	0.11848	0.30015	0.26463	0.1116	0.13801	0.18836	-2.9125	-3.8167	-3.9542	-3.3708	-4.2208	-3.6188	-3.5917	-4.1833	-3.1646	-3.7354	-3.8979	-3.2562	-4.1792	-3.6417	-3.4104	-4.0542	63.389	236.133	204.171	-35.109	-34.959	201.571	259.012	284.648	258.535	145.192	272.691	-45.040	-17.134	0.607	-37.477	-40.877	5.8547e-05	0.00018578	2.9188e-05	1100.7	4.4045e-07	7.9443e-07	1191.3	223.53	7.6024e-07	5.7346e-07	286.05	79.449	62.571	17.696	1.1702e-06	25.022	5.0978e-05	4.842e-05	1.3717e-05	990.66	5.3918e-07	5.3228e-07	1102.8	206.67	5.6543e-07	5.5246e-07	254.4	72.224	56.919	16.147	5.5431e-07	22.244	248.304	272.543	186.444	-63.738	119.379	37.539	-63.677	-56.648	-0.050	-0.920	-57.177	-49.999	-49.359	-42.684	270.324	-42.703	-8191	255	
1692.880	1	1	0	0	0.076526	0.099525	0.098672	0.17133	0.080885	0.15708	0.14776	0.11653	0.22532	0.10064	0.095371	0.1445	0.098451	0.054075	0.16339	0.1079	-2.9792	-3.7646	-3.8833	-3.3229	-4.0896	-3.7375	-3.5417	-4.1729	-3.3667	-3.6979	-4.2667	-3.2125	-4.1104	-3.7521	-3.3708	-4.1479	148.281	114.256	29.334	-36.121	152.734	69.510	-40.464	221.920	157.828	-40.151	-40.311	283.502	274.066	-32.637	83.634	139.329	2.5853e-05	2.5477e-05	3.6505e-05	1098.6	1.6963e-06	3.9992e-06	1192.1	223.66	9.4514e-07	2.4527e-06	286.09	79.16	62.767	17.823	3.7735e-06	24.898	5.1286e-05	4.8316e-05	1.3583e-05	990.68	5.4772e-07	5.4172e-07	1104.5	206.73	5.5652e-07	5.5307e-07	254.69	72.243	57.096	16.126	5.6135e-07	22.214	-47.419	35.943	61.947	-64.263	-69.807	85.202	-63.707	-56.534	26.014	11.763	-57.013	-49.681	-49.275	-42.172	21.757	-42.923	-8191	255	
1692.977	1	1	0	0	0.099164	0.10243	0.091578	0.13635	0.13151	0.20988	0.26847	0.13793	0.18959	0.15623	0.12522	0.030499	0.059066	0.12983	0.063658	0.17758	-2.9417	-3.5938	-4.0813	-3.3875	-3.9333	-3.9313	-3.4396	-4.2458	-3.55	-3.6229	-4.1896	-3.2271	-3.8312	-3.8542	-3.3312	-4.2167	125.781	40.402	117.732	177.911	25.623	33.380	176.145	200.276	139.528	-3.193	-34.629	31.694	284.177	191.625	-13.646	249.071	6.9943e-05	0.00039907	8.4261e-05	1093.9	9.4483e-07	1.5405e-06	1193.1	224.35	3.5125e-07	1.3426e-06	284.8	79.261	62.668	17.798	3.7329e-06	24.86	5.0166e-05	5.031e-05	1.3531e-05	989.93	5.388e-07	5.4119e-07	1101.9	206.74	5.5198e-07	5.5139e-07	254.74	71.961	57.014	16.134	5.7052e-07	22.278	160.672	-32.074	-9.680	-64.551	131.797	-69.066	-63.819	-56.539	48.055	44.664	-56.987	-50.314	-49.784	-43.224	4.963	-42.866	-8191	255	
1693.097	1	1	0	0	0.21785	0.27573	0.098375	0.094749	0.28422	0.2528	0.2109	0.11184	0.060252	0.07242	0.077498	0.2107	0.029051	0.10405	0.24849	0.12053	-3.3854	-3.4562	-4.0854	-3.5521	-3.8625	-3.9146	-3.5896	-4.1604	-3.6792	-3.3458	-4.0896	-3.2875	-3.6604	-4.0083	-3.2854	-4.2104	75.661	1.398	-71.362	228.805	-49.097	67.948	203.907	218.679	232.399	7.837	185.670	58.426	69.482	228.396	-13.493	155.563	4.3408e-05	9.866e-05	5.4288e-05	1094.9	1.033e-06	1.7807e-06	1191.3	224.18	1.6162e-06	2.286e-06	284.89	79.215	62.3	17.735	1.901e-06	25.03	5.0183e-05	4.9106e-05	1.3392e-05	988.99	5.3612e-07	5.4663e-07	1102.6	206.89	5.6617e-07	5.5403e-07	254.72	72.265	56.98	16.139	5.4581e-07	22.274	267.176	25.940	36.513	-64.161	178.092	29.220	-64.018	-56.691	77.600	-26.011	-56.965	-49.658	-49.630	-42.301	68.962	-43.127	-8191	255	
1693.193	1	1	0	0	0.13555	0.13025	0.15645	0.16903	0.16307	0.3692	0.3891	0.17988	0.2214	0.25539	0.3033	0.043797	0.12062	0.11185	0.14702	0.16809	-3.6292	-3.3417	-4.0646	-3.5438	-3.4875	-4.0521	-3.3958	-4.0979	-3.7854	-3.3438	-4.2979	-3.4688	-3.5625	-4.1354	-3.3354	-3.9958	279.774	36.643	-67.318	254.747	218.631	215.414	196.723	-46.963	-13.332	-69.179	231.690	-22.278	18.231	107.721	245.392	178.297	1.7437e-05	0.00023595	3.2391e-05	1089.4	2.7005e-06	1.9497e-06	1195.4	223.71	9.9178e-07	8.9569e-07	286.61	79.046	62.699	17.823	1.6088e-06	25.172	5.0835e-05	4.9313e-05	1.374e-05	988.03	5.5943e-07	5.4636e-07	1103.7	207.05	5.6627e-07	5.6577e-07	255.31	72.18	57.111	16.17	5.7609e-07	22.37	139.548	-16.682	27.808	-64.578	35.354	84.871	-63.816	-56.590	59.009	-30.590	-57.468	-50.170	-50.128	-43.069	55.863	-43.696	-8191	255	
1693.290	1	1	0	0	0.1713	0.27908	0.25416	0.079179	0.06441	0.10995	0.15509	0.051576	0.050606	0.20537	0.21518	0.3318	0.14186	0.074252	0.18912	0.27199	-3.4708	-3.175	-3.9958	-3.5938	-3.4208	-4.2229	-3.5354	-3.9646	-3.8458	-3.3708	-4.1687	-3.7167	-3.4917	-4.0792	-3.2792	-3.9417	53.735	134.968	112.267	176.729	-9.542	-37.346	127.883	110.050	267.365	149.309	-28.772	-68.541	-24.385	258.299	99.898	24.429	6.073e-05	0.00021813	5.7762e-05	1097.3	1.2189e-06	1.8019e-06	1187	223.42	9.454e-07	4.7169e-06	285.15	78.682	62.177	17.766	2.5924e-06	24.911	5.1343e-05	5.0868e-05	1.3727e-05	990.56	5.6217e-07	5.4344e-07	1101.2	206.57	5.6849e-07	5.5167e-07	254.63	72.071	57.02	16.182	5.7989e-07	22.425	210.527	5.876	-50.867	-64.465	58.893	88.170	-64.181	-57.150	151.361	62.330	-57.882	-50.203	-49.602	-43.098	163.569	-43.561	-8191	255	
1693.410	1	1	0	0	0.1788	0.08189	0.18391	0.12156	0.15775	0.19119	0.35313	0.22417	0.29448	0.062936	0.074525	0.14614	0.25367	0.14907	0.24388	0.17167	-3.4458	-3.2396	-4.0625	-3.7083	-3.2292	-4.1042	-3.5104	-3.7854	-3.8375	-3.225	-3.9688	-3.6063	-3.4458	-4.1875	-3.5438	-3.75	82.044	247.148	136.389	50.176	29.446	177.954	232.242	169.765	19.480	16.978	-57.823	138.677	244.167	42.376	85.411	160.826	6.628e-05	0.00019633	2.2219e-05	1092.7	2.1241e-06	1.9584e-06	1181.1	223.38	1.1224e-06	1.4445e-06	284.44	79.446	62.151	17.806	1.6042e-06	25.012	5.1739e-05	5.1037e-05	1.4007e-05	988.43	5.6643e-07	5.5014e-07	1100.8	206.78	5.7434e-07	5.6249e-07	254.31	72.331	57.012	16.208	5.6675e-07	22.436	267.361	37.268	180.731	-64.368	48.043	55.782	-64.002	-57.012	59.050	29.219	-57.319	-50.178	-49.981	-43.360	150.327	-43.025	-8191	255	
1693.482	1	1	0	0	0.070063	0.10789	0.059311	0.10591	0.21427	0.21423	0.12315	0.071493	0.039774	0.16383	0.033572	0.098736	0.075909	0.20702	0.030474	0.21412	-3.3979	-3.2062	-3.9208	-3.6854	-3.3521	-4.0167	-3.5833	-3.6813	-3.9	-3.3333	-4.0687	-3.85	-3.1229	-4.1562	-3.3833	-3.7729	117.079	154.941	-13.606	-68.300	269.535	249.944	232.470	-49.672	156.100	148.311	-42.324	251.843	12.532	209.660	67.138	-69.562	6.5794e-05	0.0002865	0.00011449	1089.6	1.4517e-06	1.8761e-06	1187.1	222.81	1.6365e-06	1.3554e-06	282.87	78.771	62.176	17.924	2.2388e-06	25.009	5.2353e-05	5.1553e-05	1.431e-05	988.68	5.6929e-07	5.5351e-07	1102.2	206.87	5.6149e-07	5.6155e-07	254.28	72.025	56.991	16.231	5.6973e-07	22.423	183.430	-28.253	4.223	-64.492	82.552	52.737	-64.010	-56.505	179.270	76.723	-56.970	-50.100	-50.224	-42.479	133.124	-43.227	-8191	255	
1693.578	1	1	0	0	0.037777	0.070574	0.11806	0.16489	0.30901	0.15993	0.031806	0.21037	0.119	0.085315	0.048137	0.15147	0.075792	0.21137	0.051771	0.042601	-3.6354	-3.3042	-3.7313	-4.0396	-3.2333	-3.9479	-3.6479	-3.4688	-4.1625	-3.4896	-3.7104	-3.9688	-3.3708	-4.1042	-3.6188	-3.1833	159.058	232.648	241.690	-60.502	4.396	256.408	263.700	182.448	5.219	48.948	194.401	232.003	34.615	144.662	110.569	-23.317	5.0034e-05	7.1072e-05	7.9265e-05	1091.3	1.204e-06	1.9577e-06	1186.4	222.22	1.3621e-06	2.0288e-06	283.67	78.459	62.581	17.979	2.0139e-06	24.982	5.1602e-05	4.9885e-05	1.3866e-05	987.45	5.6767e-07	5.4821e-07	1101	206.65	5.6842e-07	5.6732e-07	254.53	72.113	57.076	16.3	5.6415e-07	22.523	237.071	-71.234	49.621	-64.504	39.225	40.638	-63.851	-56.696	170.492	57.818	-57.031	-50.372	-50.123	-42.016	134.906	-42.673	-8191	255	
1693.674	1	1	0	0	0.20682	0.1805	0.05912	0.017017	0.24408	0.20558	0.064933	0.15681	0.12578	0.29596	0.22607	0.1207	0.077242	0.097925	0.10144	0.13108	-3.8	-3.2958	-3.6104	-4.0771	-3.3146	-3.9458	-4.0333	-3.3292	-4.0437	-3.5458	-3.6	-4.0979	-3.1688	-4.0687	-3.8812	-3.4333	-68.481	222.042	111.164	235.091	83.642	269.044	271.341	266.551	47.043	61.873	231.999	230.096	-17.375	186.628	24.905	137.357	4.1819e-05	0.00029561	0.00010508	1091.1	3.306e-06	9.3959e-07	1183.8	223.66	1.4698e-06	1.5454e-06	284.37	78.88	62.25	17.81	2.3347e-06	25.281	5.1401e-05	4.9418e-05	1.3757e-05	987.62	5.5769e-07	5.5542e-07	1100	206.85	5.5929e-07	5.5831e-07	254.43	72.248	56.975	16.307	5.6531e-07	22.541	273.701	14.971	94.653	-64.361	68.967	102.255	-64.030	-56.736	118.692	-27.212	-56.785	-49.656	-49.823	-43.058	89.389	-43.534	-8191	255	
1693.793	1	1	0	0	0.10269	0.074999	0.055624	0.091034	0.14234	0.204	0.178	0.068865	0.10342	0.14409	0.077109	0.095211	0.06496	0.16686	0.042469	0.072752	-3.6792	-3.4313	-3.5479	-4.1542	-3.2458	-3.9271	-3.9292	-3.1583	-4.1396	-3.6104	-3.5208	-4.1062	-3.1146	-3.9958	-3.8271	-3.4542	120.588	-0.531	7.368	-4.012	-40.278	69.094	249.186	61.783	27.703	104.395	174.529	254.253	183.894	-14.984	183.598	266.517	4.3264e-05	0.00034446	8.4586e-05	1089.4	1.7556e-06	1.7118e-06	1184.9	223.42	3.7279e-07	1.0823e-06	282.6	78.991	62.627	17.9	1.3973e-06	25.179	5.2065e-05	4.9493e-05	1.3948e-05	988.13	5.5524e-07	5.4327e-07	1100.9	207.06	5.7381e-07	5.5149e-07	254.2	72.277	57.072	16.365	5.8268e-07	22.616	184.237	1.100	34.471	-64.378	55.474	69.642	-63.894	-56.893	114.581	-27.761	-56.807	-50.182	-49.837	-42.674	109.465	-42.866	-8191	255	
1693.889	1	1	0	0	0.041453	0.19122	0.24206	0.053244	0.017745	0.056179	0.31316	0.1253	0.087033	0.10328	0.17805	0.10117	0.26895	0.15727	0.22986	0.27102	-3.7021	-3.6042	-3.3563	-4.1687	-3.3271	-3.6729	-4.1229	-3.1771	-4.0125	-3.7375	-3.2542	-3.9583	-3.4292	-3.65	-4.0979	-3.1312	151.280	220.204	19.489	231.972	226.574	236.171	218.046	243.087	-63.666	129.440	255.701	15.102	219.140	189.609	209.028	194.638	4.2889e-05	0.00018137	2.0026e-05	1084.3	2.0709e-06	3.2088e-06	1183	222.1	1.1428e-06	2.9398e-06	281.22	78.71	61.967	17.892	4.9532e-06	25.344	5.1932e-05	5.1832e-05	1.4497e-05	989.06	5.6827e-07	5.6097e-07	1101.2	206.41	5.7397e-07	5.5661e-07	254.08	72.178	57.009	16.437	5.7073e-07	22.581	173.018	48.365	124.378	-64.370	73.057	52.535	-64.066	-56.571	266.393	112.518	-56.927	-49.907	-49.882	-42.608	81.482	-43.075	-8191	255	
1693.985	1	1	0	0	0.1903	0.10246	0.10334	0.053803	0.105	0.1581	0.02878	0.14317	0.1082	0.18917	0.15042	0.35464	0.20064	0.20215	0.082886	0.14304	-3.4938	-3.7687	-3.1479	-4.0563	-3.6	-3.6729	-4.0854	-3.2896	-3.8438	-3.8458	-3.4042	-4.25	-3.5042	-3.8146	-4.1604	-3.2708	104.417	77.566	23.115	117.718	30.850	111.429	-15.852	-23.464	153.516	167.603	9.087	188.359	-49.292	246.413	258.546	199.214	9.6619e-05	0.00020648	8.9786e-05	1089.5	2.7052e-06	5.1907e-07	1182.4	222.51	1.3539e-06	5.268e-07	283.35	79.205	62.038	17.904	1.5436e-06	25.094	5.2413e-05	5.0643e-05	1.4267e-05	990	5.6975e-07	5.6252e-07	1103	206.39	5.6579e-07	5.6363e-07	254.27	72.25	56.954	16.435	5.7112e-07	22.64	188.684	18.902	44.208	-64.066	63.062	-14.741	-64.093	-57.021	9.110	-2.913	-56.986	-50.100	-49.737	-42.261	22.425	-43.403	-8191	255	
1694.059	1	1	0	0	0.17832	0.12147	0.28471	0.26796	0.17423	0.093765	0.13395	0.24488	0.32791	0.14161	0.070384	0.15307	0.16503	0.076479	0.085404	0.17787	-3.525	-3.8979	-3.0958	-4.1792	-3.5417	-3.7	-4.2146	-3.4375	-4.0333	-3.8375	-3.2667	-4.0938	-3.4958	-3.5708	-4.0542	-3.5229	139.687	106.739	146.416	157.107	-23.892	69.285	-69.731	226.347	117.867	-53.827	98.906	132.513	227.363	223.211	253.494	137.442	6.2669e-05	0.00018176	2.9921e-05	1092.4	2.5443e-06	2.107e-06	1183.5	221.88	1.285e-06	2.7025e-06	282.9	78.697	62.287	17.918	1.7602e-06	25.087	5.2142e-05	5.0998e-05	1.4148e-05	989.95	5.5393e-07	5.5593e-07	1101.7	206.57	5.626e-07	5.7218e-07	254.27	72.183	57.029	16.449	5.7094e-07	22.641	202.507	53.238	-29.409	-64.286	78.264	134.796	-63.964	-56.675	107.460	10.079	-57.751	-50.254	-49.836	-42.601	205.130	-43.199	-8191	255	
1694.178	1	1	0	0	0.15585	0.045763	0.14529	0.27369	0.2003	0.060008	0.23272	0.056196	0.17561	0.17035	0.1952	0.022354	0.076183	0.15277	0.14534	0.14979	-3.2354	-4.0312	-3.3688	-4.1458	-3.7646	-3.3521	-4.3729	-3.4875	-3.5479	-4.2021	-3.3771	-3.9125	-3.8854	-3.4062	-4.2896	-3.4625	69.296	275.019	76.675	249.343	169.183	166.899	165.871	142.354	95.562	33.819	236.776	216.873	-32.623	171.455	232.634	206.912	3.351e-05	7.8971e-05	5.7681e-05	1084.5	5.5592e-07	2.6858e-06	1177.2	221.41	1.0329e-06	5.3308e-07	280.94	78.554	62.181	17.999	1.1021e-06	25.354	5.198e-05	5.0438e-05	1.4183e-05	986.48	5.625e-07	5.5245e-07	1100	206.43	5.7875e-07	5.6275e-07	253.82	72.02	56.971	16.44	5.7049e-07	22.737	124.155	251.186	-1.538	-64.421	-67.166	89.534	-63.764	-56.907	40.197	63.715	-57.022	-49.921	-49.934	-42.098	-50.524	-43.076	-8191	255	
1694.274	1	1	0	0	0.12841	0.2455	0.1081	0.077912	0.19917	0.21498	0.28687	0.031335	0.34238	0.061337	0.20244	0.10453	0.17467	0.30115	0.10801	0.069733	-3.2417	-4.1208	-3.2667	-3.8521	-3.9813	-3.4	-4.3458	-3.4792	-3.6167	-4.2438	-3.2771	-3.8438	-3.9062	-3.4417	-4.2312	-3.6917	131.722	110.899	-13.906	253.315	187.671	270.148	215.003	168.271	273.741	280.754	253.634	76.460	184.958	-10.546	37.197	210.619	7.2656e-05	0.00022169	3.4325e-05	1098.6	4.8279e-06	1.3456e-06	1195.7	223.22	2.0066e-06	1.475e-06	286.27	79.03	62.506	18.221	1.9936e-06	25.712	5.4212e-05	5.0805e-05	1.431e-05	990.82	5.7096e-07	5.6445e-07	1105	206.54	5.8381e-07	5.6549e-07	254.76	72.225	57.064	16.542	5.7574e-07	22.802	210.896	7.632	22.275	-63.781	54.106	108.995	-63.797	-56.737	41.079	65.145	-56.781	-49.696	-49.769	-42.506	100.392	-43.283	-8191	255	
1694.370	1	1	0	0	0.070196	0.082781	0.18688	0.12766	0.14009	0.11184	0.072359	0.017939	0.13929	0.034966	0.17001	0.25613	0.12097	0.25686	0.12648	0.058291	-3.2125	-4.1458	-3.2854	-3.9625	-4.1625	-3.4	-4.2333	-3.7062	-3.4042	-4.2229	-3.4813	-3.7854	-3.9979	-3.3688	-4.175	-3.7333	-54.584	-35.613	9.058	265.714	93.797	23.478	-68.169	81.512	188.172	-40.889	268.041	-43.396	197.312	12.220	-64.367	161.020	2.059e-05	0.0002346	5.5456e-05	1102	1.4151e-06	1.4989e-06	1196.8	224.81	1.1751e-06	2.4775e-06	285.88	79.86	62.595	18.236	3.274e-06	25.418	5.3246e-05	5.0953e-05	1.4161e-05	992.32	5.7461e-07	5.6429e-07	1102.9	206.86	5.8228e-07	5.614e-07	254.59	72.366	57.102	16.521	5.7602e-07	22.77	222.368	32.594	8.624	-63.913	104.951	3.247	-63.597	-56.511	168.927	75.546	-56.591	-49.791	-49.842	-42.658	93.065	-42.639	-8191	255	
1694.491	1	1	0	0	0.28976	0.080212	0.05002	0.26844	0.14805	0.21673	0.30077	0.188	0.12104	0.30793	0.25254	0.12056	0.16524	0.17666	0.074888	0.10287	-2.8604	-4.0229	-3.4688	-3.7958	-4.0292	-3.4667	-4.075	-3.85	-3.2833	-4.2188	-3.6688	-3.6	-4.0417	-3.1708	-4.1042	-3.9625	10.492	127.151	-42.501	267.780	280.438	203.517	242.897	-45.127	77.050	171.403	130.171	215.092	85.096	88.833	207.863	229.378	4.6086e-05	0.00030358	9.6498e-05	1094.8	2.381e-06	2.8798e-06	1195.6	225.8	2.3618e-06	4.9041e-07	284.96	79.237	62.072	18.178	1.9151e-06	25.323	5.3704e-05	4.9989e-05	1.458e-05	990.07	5.6903e-07	5.7967e-07	1103.9	207.12	5.8334e-07	5.7222e-07	254.94	72.131	56.952	16.541	5.8173e-07	22.726	166.864	-5.764	51.894	-63.687	87.067	73.453	-63.592	-56.470	120.876	79.368	-56.296	-49.656	-49.779	-41.959	65.309	-42.254	-8191	255	
1694.587	1	1	0	0	0.054	0.12531	0.12462	0.2616	0.11315	0.43056	0.20798	0.15301	0.15721	0.077126	0.11914	0.20922	0.1607	0.14434	0.17743	0.24862	-2.9979	-4.2063	-3.7125	-3.5	-4.0604	-3.2583	-4.0437	-3.9521	-3.2396	-4.2479	-3.6792	-3.3958	-4.4083	-3.4188	-4.1292	-4.0042	40.124	204.621	42.613	232.113	259.316	-17.625	204.948	167.231	258.436	-69.061	271.292	124.860	277.286	-21.329	183.613	34.311	8.6291e-05	0.00021517	0.00010861	1100.2	8.1313e-07	3.9573e-06	1192.9	225.06	1.1287e-06	2.4813e-06	284.56	78.861	62.661	18.354	1.2344e-06	25.582	5.3847e-05	5.1291e-05	1.4316e-05	991.51	5.6657e-07	5.7767e-07	1104	207.22	5.8702e-07	5.7891e-07	253.93	72.074	57.134	16.565	5.7229e-07	22.747	123.051	-25.615	23.641	-63.802	185.967	-8.141	-63.282	-56.240	6.955	43.896	-56.382	-49.650	-49.609	-42.058	-21.558	-42.664	-8191	255	
1694.681	1	1	0	0	0.075619	0.16112	0.29196	0.1091	0.2091	0.16542	0.062617	0.13419	0.043954	0.18812	0.12835	0.063883	0.092124	0.16952	0.10934	0.21372	-3.1417	-4.0583	-3.7812	-3.3688	-4.1062	-3.5708	-3.8771	-4.0792	-3.35	-4.1083	-3.8563	-3.4313	-4.2604	-3.6063	-3.6312	-4.0917	-10.035	0.100	191.543	248.420	-61.788	84.703	-63.340	-0.812	27.871	228.888	100.855	46.284	162.181	-65.139	283.431	-28.069	3.9937e-05	0.00031062	7.3915e-05	1091.3	4.5151e-06	1.5541e-06	1191.7	222.97	9.3073e-07	1.722e-06	284.32	79.113	62.84	18.25	1.7368e-06	25.209	5.2894e-05	5.1151e-05	1.4227e-05	988.24	5.6992e-07	5.5882e-07	1103.2	206.5	5.7491e-07	5.6065e-07	254	72.17	57.218	16.553	5.6636e-07	22.686	188.552	22.342	55.484	-63.772	51.828	43.248	-63.266	-56.245	97.579	11.602	-56.643	-49.751	-50.004	-42.925	182.174	-42.890	-8191	255	
1694.779	1	1	0	0	0.18523	0.042549	0.08417	0.1879	0.27582	0.23538	0.10653	0.15115	0.26957	0.11028	0.098333	0.10044	0.2387	0.26168	0.17934	0.11678	-2.8146	-4.1125	-3.8167	-3.2271	-4.2063	-3.4896	-3.7854	-4.0833	-3.2479	-3.9583	-3.9479	-3.45	-3.9875	-3.6437	-3.4354	-3.9854	202.847	213.167	153.699	-42.700	182.403	61.475	273.475	264.710	47.969	193.763	-2.596	163.879	67.846	226.510	212.821	157.886	7.8643e-05	0.00016986	1.1545e-05	1089	1.1435e-06	1.0451e-06	1192.6	222.64	8.1687e-07	2.2977e-06	284.03	79.456	62.529	18.103	1.0298e-06	25.305	5.3462e-05	5.0407e-05	1.4294e-05	987.97	5.7842e-07	5.6883e-07	1104.1	206.38	5.8761e-07	5.6132e-07	253.77	72.316	56.989	16.526	5.7938e-07	22.663	205.082	8.205	-7.610	-64.321	222.965	-53.796	-63.470	-56.465	89.437	120.688	-56.961	-49.950	-49.449	-43.414	69.443	-43.141	-8191	255	
1694.873	1	1	0	0	0.12523	0.12192	0.018795	0.28499	0.082084	0.19089	0.15149	0.1569	0.19776	0.16564	0.14125	0.15756	0.21182	0.16313	0.28408	0.12822	-2.9854	-3.8146	-3.8479	-3.3354	-3.9979	-3.4667	-3.6646	-4.3417	-3.3208	-3.8896	-4.0583	-3.4104	-4.1396	-3.7542	-3.4	-4.3833	10.271	194.807	99.536	266.379	220.032	106.112	241.335	-27.159	168.700	20.424	127.236	56.037	161.288	280.633	-24.611	178.736	3.5355e-05	0.00021283	6.7183e-05	1099.8	9.753e-07	3.3586e-06	1195.2	224.67	4.1312e-07	1.8841e-06	285.34	79.51	62.326	18.232	1.5195e-06	25.31	5.2346e-05	5.0971e-05	1.4473e-05	990.86	5.7535e-07	5.5811e-07	1104	206.96	5.8055e-07	5.7355e-07	254.22	72.266	56.967	16.561	5.8127e-07	22.712	267.937	32.737	11.711	-63.675	6.713	-16.230	-63.549	-56.213	174.909	75.939	-56.659	-49.795	-49.080	-42.003	18.937	-42.576	-8191	255	
1694.970	1	1	0	0	0.24254	0.13633	0.12994	0.17746	0.27643	0.070204	0.21313	0.095801	0.15131	0.10474	0.1374	0.057324	0.24606	0.046244	0.09261	0.2001	-3.1104	-3.7167	-4.025	-3.2208	-3.9167	-3.5812	-3.5083	-4.2333	-3.4896	-3.6688	-4.1479	-3.4604	-4.025	-4.1125	-3.3	-4.1438	248.877	148.167	35.873	194.410	201.950	-32.935	185.655	-2.687	209.741	1.452	50.008	-61.360	-56.520	-30.640	-9.370	251.886	5.3901e-05	0.00021206	9.78e-05	1096.7	2.5432e-06	1.2884e-06	1193.5	222.46	1.0272e-06	1.7268e-06	282.94	79.268	62.624	18.438	2.5963e-06	25.494	5.3464e-05	5.1181e-05	1.4089e-05	989.7	5.7212e-07	5.6045e-07	1104.3	206.68	5.7901e-07	5.6905e-07	253.78	72.123	57.112	16.607	5.8059e-07	22.669	179.600	-4.924	-23.178	-63.669	65.500	85.636	-63.463	-56.217	45.033	78.506	-56.456	-49.374	-49.036	-42.365	78.435	-42.826	-8191	255	
1695.090	1	1	0	0	0.15909	0.061993	0.054739	0.079489	0.10239	0.016314	0.28564	0.21733	0.48657	0.060526	0.20022	0.11198	0.1858	0.16407	0.13296	0.13535	-3.1354	-3.5729	-4.0854	-3.2542	-3.8833	-3.8479	-3.3563	-4.2063	-3.5187	-3.4958	-4.1604	-3.5	-3.7354	-3.9458	-3.3063	-4.1542	28.626	116.401	-66.387	-53.875	244.159	-13.178	-59.638	183.449	150.410	-57.219	268.589	-51.993	169.494	250.379	99.243	233.217	2.6752e-05	0.00011868	9.3396e-05	1096.6	1.369e-06	3.0061e-06	1191.8	222.97	1.0989e-06	2.5789e-06	284.57	78.737	62.318	18.106	4.8798e-06	25.429	5.2568e-05	5.2049e-05	1.4085e-05	989.31	5.6903e-07	5.4418e-07	1101.8	206.33	5.7389e-07	5.7105e-07	254.11	72.188	56.924	16.513	5.7838e-07	22.658	176.946	-58.544	29.453	-63.533	48.433	-3.801	-63.441	-56.368	28.253	62.949	-56.774	-49.197	-49.424	-42.798	78.524	-42.692	-8191	255	
1695.186	1	1	0	0	0.27365	0.16653	0.23658	0.13191	0.09943	0.084403	0.12877	0.058186	0.095086	0.083148	0.13559	0.03648	0.16358	0.14854	0.12198	0.17041	-3.1521	-3.3271	-3.9313	-3.475	-3.7875	-3.9646	-3.4042	-4.1542	-3.5875	-3.3479	-4.2104	-3.3333	-3.7833	-3.9208	-3.2646	-4.0417	-72.744	155.013	84.310	196.603	67.957	-45.286	-67.231	59.625	60.492	188.088	53.785	83.173	281.032	-73.374	220.798	256.874	6.1627e-05	0.00032238	0.00011691	1088.6	2.5014e-06	3.5605e-06	1187.3	222.83	1.2482e-06	1.9559e-06	284.18	79.125	62.462	18.168	2.2328e-07	25.338	5.2068e-05	5.0986e-05	1.3909e-05	987.59	5.6054e-07	5.6786e-07	1100.9	206.56	5.6011e-07	5.6153e-07	254.12	72.366	57.139	16.524	5.5406e-07	22.715	213.540	10.526	15.428	-63.493	93.165	120.202	-63.495	-56.335	84.792	179.939	-56.566	-49.848	-49.063	-41.897	111.590	-42.314	-8191	255	
1695.282	1	1	0	0	0.25726	0.1828	0.23379	0.13363	0.11865	0.059207	0.14274	0.071502	0.21817	0.17831	0.17376	0.2566	0.082545	0.10223	0.08576	0.24471	-3.3937	-3.1688	-3.9208	-3.4875	-3.4313	-4.1771	-3.275	-3.8354	-3.7687	-3.3729	-4.1417	-3.2396	-3.5104	-3.9854	-3.2792	-3.825	44.852	48.627	196.452	222.662	48.508	83.200	151.919	88.329	50.472	167.430	-69.718	-56.006	51.978	231.341	22.823	-70.765	9.1761e-05	6.3336e-05	3.3954e-05	1090.4	2.9366e-06	1.5786e-06	1186	224.12	1.2112e-06	1.208e-06	282.29	78.945	61.943	18.102	4.0445e-06	25.382	5.149e-05	4.9614e-05	1.3756e-05	987.32	5.694e-07	5.5315e-07	1100.6	206.59	5.6994e-07	5.5835e-07	253.23	72.066	56.893	16.514	5.732e-07	22.728	205.327	3.396	30.642	-63.786	80.370	-53.474	-63.567	-56.147	238.786	89.726	-56.590	-49.713	-49.340	-42.429	52.410	-43.180	-8191	255	
1695.354	1	1	0	0	0.21282	0.18459	0.13371	0.23138	0.043552	0.12169	0.14171	0.079937	0.39481	0.13318	0.24973	0.064936	0.20797	0.18412	0.085889	0.20927	-3.5042	-3.2979	-3.9021	-3.7354	-3.5167	-4.2229	-3.6021	-3.9875	-3.8604	-3.3312	-4.1333	-3.5312	-3.2958	-4.1229	-3.4333	-3.8292	173.955	121.957	-66.480	193.095	238.321	-47.729	-30.431	268.564	21.008	157.034	127.908	-45.545	-22.478	24.676	113.211	232.931	8.2121e-05	0.00023941	1.7621e-05	1092.7	4.2187e-06	1.8497e-06	1187.6	223.97	1.5665e-06	3.1411e-06	284.71	78.992	62.401	18.194	3.7637e-06	25.438	5.2201e-05	5.0414e-05	1.3823e-05	988.05	5.6617e-07	5.3836e-07	1099.2	206.52	5.567e-07	5.7277e-07	254.43	72.167	56.869	16.522	5.6425e-07	22.708	157.765	1.776	227.909	-63.776	49.671	102.572	-63.284	-56.038	87.312	46.766	-56.594	-49.632	-49.442	-42.428	105.006	-42.437	-8191	255	
1695.450	1	1	0	0	0.080709	0.1074	0.06524	0.094951	0.2811	0.17775	0.26106	0.069361	0.18873	0.088687	0.16908	0.093893	0.15951	0.15927	0.088789	0.18991	-3.5333	-3.2958	-4.0271	-3.85	-3.3083	-4.1438	-3.5625	-3.7479	-4.0708	-3.4313	-3.825	-3.7104	-3.4292	-4.1542	-3.4667	-3.5292	198.173	-73.172	73.722	256.132	-32.133	220.302	196.778	42.847	120.216	-40.338	138.707	137.330	21.656	145.131	274.972	209.764	4.7e-05	0.00014891	0.00013566	1091.1	2.0254e-06	6.6085e-07	1191.8	223.95	1.8575e-06	3.0977e-06	284.8	79.139	62.21	18.189	4.195e-06	25.493	5.2686e-05	4.9641e-05	1.3909e-05	987.03	5.561e-07	5.4081e-07	1101.1	206.71	5.5761e-07	5.4499e-07	253.92	72.098	56.943	16.598	5.6086e-07	22.705	175.644	266.412	24.332	-63.533	18.171	212.392	-63.084	-56.110	87.130	18.000	-56.545	-49.367	-49.432	-42.048	40.190	-42.335	-8191	255	
1695.571	1	1	0	0	0.12924	0.20287	0.20353	0.15919	0.11621	0.10783	0.11143	0.029967	0.086584	0.26852	0.16705	0.071558	0.21491	0.041615	0.054541	0.20243	-3.6708	-3.3063	-3.8667	-3.9396	-3.1875	-4.1333	-3.5333	-3.6875	-4.1208	-3.3479	-3.8542	-3.9625	-3.3833	-3.9938	-3.4479	-3.5917	8.267	159.934	-29.729	-24.919	87.454	-44.615	169.349	185.279	233.159	130.268	163.354	-57.411	-46.971	262.185	143.815	242.791	2.1711e-05	4.6899e-05	4.0297e-05	1088	1.9077e-06	2.202e-06	1180	223.32	2.2237e-06	1.9354e-06	284.19	78.999	62.193	18.175	2.9808e-06	25.313	5.0402e-05	4.9585e-05	1.3984e-05	986.71	5.5092e-07	5.4089e-07	1097.8	206.4	5.557e-07	5.4275e-07	253.43	71.969	56.739	16.508	5.5098e-07	22.687	215.600	118.452	12.371	-64.067	194.573	157.517	-63.709	-56.394	55.016	52.532	-56.216	-49.923	-49.457	-41.800	65.968	-42.393	-8191	255	
1695.667	1	1	0	0	0.10794	0.28846	0.13785	0.20434	0.15544	0.11324	0.20495	0.21673	0.084553	0.17072	0.24026	0.26795	0.16218	0.1104	0.20691	0.12035	-3.7771	-3.375	-3.7333	-3.9562	-3.1125	-3.9625	-3.5875	-3.4417	-4.0625	-3.4146	-3.8312	-3.9521	-3.3479	-4.0354	-3.7083	-3.5	21.065	93.071	213.280	-39.250	247.265	94.295	175.019	243.547	208.525	148.018	-61.832	266.814	84.397	-65.918	2.701	187.955	5.1437e-05	0.00022947	6.8994e-05	1086.8	2.5036e-06	2.8039e-06	1182.6	222.58	6.4601e-07	1.4759e-06	284.88	79.2	62.073	18.13	4.5672e-06	25.017	4.9155e-05	4.8877e-05	1.3633e-05	983.97	5.4795e-07	5.4308e-07	1096.7	205.87	5.5111e-07	5.4297e-07	253.75	71.979	56.711	16.496	5.5314e-07	22.573	182.426	109.448	34.467	-63.765	-55.850	107.644	-63.286	-56.223	59.698	-24.014	-56.229	-49.824	-49.196	-42.222	124.495	-42.706	-8191	255	
1695.761	1	1	0	0	0.2015	0.18809	0.085276	0.040958	0.19509	0.19893	0.24555	0.19035	0.13648	0.021205	0.054762	0.14696	0.23453	0.11579	0.13541	0.10109	-3.6396	-3.3438	-3.6937	-4.0625	-3.3542	-3.9854	-3.9729	-3.3542	-4.1479	-3.4313	-3.6813	-4.1729	-3.2521	-3.9521	-3.8083	-3.2104	160.178	110.521	280.813	62.918	237.951	-16.523	152.026	187.474	128.319	49.513	162.318	85.275	247.005	-28.351	92.647	200.014	0.00010352	0.00012092	6.0905e-05	1084.7	2.8265e-06	1.2138e-06	1179.3	223.58	1.0895e-06	1.3485e-06	282.85	78.818	62.183	18.199	2.8104e-06	25.203	4.9689e-05	4.8258e-05	1.3701e-05	982.7	5.4082e-07	5.3626e-07	1094.8	206.45	5.3481e-07	5.4884e-07	252.56	71.798	56.762	16.473	5.47e-07	22.589	223.850	-25.627	34.062	-63.651	-31.484	10.664	-63.562	-56.069	194.075	59.983	-56.136	-49.371	-49.212	-42.018	12.045	-42.300	-8191	255	
1695.882	1	1	0	0	0.12483	0.091384	0.1172	0.23192	0.14699	0.17993	0.23053	0.027465	0.069585	0.41019	0.12069	0.22361	0.12068	0.21548	0.1353	0.17742	-3.8042	-3.4917	-3.4604	-4.1354	-3.2958	-3.7521	-4.1562	-3.3854	-4.125	-3.5917	-3.3917	-4.2896	-3.2979	-3.7458	-3.9625	-3.2687	-0.108	-17.751	-65.361	183.092	64.071	-41.747	249.580	144.785	154.981	92.768	108.608	132.323	-43.771	143.396	-68.107	23.692	4.7722e-05	0.00013883	6.6858e-05	1086.6	2.2734e-06	2.5528e-06	1183.9	223.66	1.1534e-06	2.1212e-06	283.32	78.777	62.332	18.015	4.0091e-06	25.314	4.9953e-05	4.8168e-05	1.3594e-05	985.19	5.4973e-07	5.2927e-07	1097.8	206.21	5.4205e-07	5.3626e-07	252.76	72.052	56.821	16.492	5.519e-07	22.662	231.950	-23.374	-12.079	-63.553	-23.457	38.323	-63.786	-56.320	232.031	67.545	-56.782	-49.408	-49.555	-43.245	82.158	-43.517	-8191	255	
1695.954	1	1	0	0	0.27257	0.12457	0.15972	0.19635	0.18604	0.2505	0.079794	0.1017	0.11652	0.26783	0.35211	0.24812	0.15535	0.26862	0.13703	0.056731	-3.75	-3.6792	-3.3771	-4.0625	-3.3187	-3.5104	-4.1792	-3.2375	-4.1646	-3.6813	-3.4792	-4.1917	-3.3917	-3.6229	-4.0021	-3.0938	34.263	117.964	121.321	184.220	57.299	32.254	61.523	162.611	168.284	264.101	205.035	161.582	165.680	-42.766	194.407	256.118	1.1981e-05	0.00014954	4.5797e-05	1084.7	2.1638e-06	7.6298e-07	1181.4	221.86	3.6669e-07	4.2062e-06	283.05	78.984	61.797	18.206	2.2355e-06	25.183	4.9484e-05	4.8223e-05	1.3524e-05	983.66	5.4185e-07	5.4166e-07	1095.8	205.9	5.5049e-07	5.4518e-07	253.29	71.899	56.643	16.487	5.482e-07	22.635	159.384	91.885	-17.120	-64.877	111.901	224.613	-64.694	-57.295	250.914	44.055	-57.635	-50.589	-50.766	-42.935	57.810	-43.668	-8191	255	
1696.050	1	1	0	0	0.26946	0.1455	0.12977	0.33242	0.22863	0.043923	0.10887	0.22193	0.19035	0.10614	0.28155	0.064101	0.26195	0.072241	0.17167	0.19293	-3.6688	-3.5979	-3.1854	-4.2438	-3.4271	-3.5896	-4.1729	-3.3208	-3.8354	-3.9021	-3.4	-4.1083	-3.4062	-3.7	-4.2438	-3.5104	-58.490	90.636	-50.544	247.910	-54.375	162.074	-68.721	180.793	186.284	185.152	167.879	45.820	74.124	78.101	-20.354	-42.130	4.1498e-05	0.00022604	0.00010787	1083.1	1.8045e-06	3.4266e-07	1179.4	222.16	2.0463e-06	1.6653e-06	277.5	77.18	60.789	17.989	3.0182e-06	25.275	5.0094e-05	4.8677e-05	1.3428e-05	981.72	5.4597e-07	5.3745e-07	1094.1	205.65	5.4578e-07	5.3732e-07	251.79	71.615	56.376	16.461	5.4521e-07	22.629	244.412	6.935	-15.520	-64.734	88.707	220.330	-64.610	-57.161	83.814	80.447	-57.970	-51.172	-51.325	-43.072	73.040	-43.701	-8191	255	
1696.171	1	1	0	0	0.16031	0.076493	0.14558	0.018138	0.18027	0.20731	0.46105	0.21812	0.23055	0.17269	0.15201	0.13938	0.14044	0.1554	0.18744	0.057107	-3.5042	-3.775	-3.1729	-4.2104	-3.6167	-3.5146	-4.2125	-3.3937	-3.7208	-3.9604	-3.1729	-4.0896	-3.8646	-3.3542	-4.0604	-3.45	223.697	-64.649	-44.592	20.312	254.187	-36.271	226.312	166.812	89.258	124.311	153.704	204.055	204.774	205.853	-7.091	216.004	1.901e-05	0.00012521	1.9797e-05	1086.2	8.2743e-07	1.9886e-06	1179.5	222.09	2.019e-06	2.7455e-06	283.69	78.639	62.211	18.15	1.1598e-06	25.216	5.1232e-05	4.8056e-05	1.3769e-05	982.46	5.3612e-07	5.2853e-07	1094.9	205.57	5.5856e-07	5.4063e-07	253.41	71.924	56.721	16.507	5.5084e-07	22.619	205.992	76.705	101.919	-64.628	136.182	77.541	-64.517	-57.283	45.255	29.040	-57.962	-50.420	-50.497	-43.171	89.570	-43.494	-8191	255	
1696.267	1	1	0	0	0.094506	0.033234	0.16863	0.057477	0.23779	0.12736	0.21079	0.15712	0.38751	0.19661	0.24564	0.072423	0.034907	0.080816	0.25	0.17582	-3.2521	-4.1646	-3.3042	-4.1188	-3.8396	-3.2854	-4.3083	-3.5083	-3.6688	-4.1292	-3.2646	-4.0062	-3.9354	-3.3729	-4.0104	-3.5875	171.395	-25.938	254.488	41.941	6.254	164.618	226.740	283.771	-2.531	278.756	171.267	-35.864	-69.269	-71.715	224.474	172.028	4.8422e-05	0.00019176	3.9141e-05	1087	1.7389e-06	6.402e-07	1181	221.58	1.1089e-06	3.4887e-06	280.3	78.234	61.527	18.007	1.8761e-06	25.226	5.1252e-05	4.9043e-05	1.339e-05	984.26	5.4553e-07	5.3192e-07	1095.9	205.58	5.43e-07	5.3093e-07	252.61	71.84	56.654	16.458	5.4362e-07	22.651	198.277	35.144	27.549	-64.635	69.682	56.069	-64.591	-57.280	67.351	113.313	-57.513	-50.409	-50.848	-43.585	38.528	-43.969	-8191	255	
1696.363	1	1	0	0	0.13054	0.22256	0.17728	0.036393	0.17517	0.084932	0.27375	0.11048	0.14071	0.11803	0.4151	0.072345	0.30414	0.072749	0.18778	0.07473	-3.075	-4.1583	-3.1854	-4.0792	-3.9146	-3.3146	-4.2167	-3.5792	-3.5146	-4.2896	-3.3771	-4.0021	-3.9604	-3.3146	-4.0396	-3.7	64.639	-41.756	280.030	-9.543	145.257	24.822	232.808	169.583	97.111	167.653	233.291	-56.643	43.229	133.126	-9.590	96.433	6.0695e-05	0.0003329	4.5499e-05	1088.8	1.1756e-06	1.5297e-06	1182.1	223.12	1.082e-06	1.2667e-06	285.09	78.958	62.114	18.052	1.0176e-06	25.419	4.9569e-05	4.8092e-05	1.3692e-05	986.69	5.4694e-07	5.4428e-07	1097.6	205.83	5.5191e-07	5.4394e-07	253.22	71.971	56.788	16.472	5.4148e-07	22.694	193.553	-17.003	58.216	-64.683	57.078	43.427	-64.629	-57.529	254.479	94.033	-57.350	-50.737	-50.585	-43.449	170.819	-43.404	-8191	255	
1696.459	1	1	0	0	0.14804	0.23345	0.24923	0.17099	0.15481	0.076343	0.11546	0.1846	0.11524	0.26253	0.24042	0.21249	0.12799	0.10882	0.027194	0.091815	-2.9792	-4.0292	-3.3187	-3.9333	-3.8833	-3.4875	-4.2042	-3.7083	-3.3896	-3.95	-3.4083	-3.8063	-4.1229	-3.2708	-3.9479	-3.7188	244.930	273.652	-13.190	39.503	51.866	64.660	192.529	105.449	225.044	-38.003	223.070	167.083	31.186	225.321	144.171	216.344	6.5898e-05	9.7507e-05	7.8995e-05	1095	5.4022e-07	2.367e-06	1188.1	222.99	2.0555e-06	1.858e-06	282.28	79.457	62.123	18.115	3.244e-06	25.239	5.0202e-05	4.8476e-05	1.3469e-05	986.4	5.5196e-07	5.4362e-07	1098.3	206.32	5.5412e-07	5.3435e-07	252.46	72	56.768	16.506	5.4749e-07	22.585	145.027	-31.456	52.178	-64.598	-30.857	44.523	-64.396	-57.437	98.606	-3.713	-57.669	-50.778	-49.967	-43.151	82.126	-43.485	-8191	255	
1696.580	1	1	0	0	0.44602	0.16242	0.29729	0.18114	0.2192	0.26221	0.16825	0.087547	0.080329	0.27691	0.099191	0.09809	0.19061	0.097772	0.041567	0.13978	-2.8729	-4.2042	-3.3167	-3.6271	-4.1792	-3.0479	-4.0917	-3.7875	-3.1896	-4.05	-3.5021	-3.4062	-4.2958	-3.4437	-3.7562	-3.9479	118.798	30.001	-65.451	257.176	-4.752	-40.676	189.894	210.419	39.127	-27.712	70.370	159.459	62.217	-54.453	163.478	223.322	7.578e-05	0.000292	4.8158e-05	1081.6	1.8162e-06	9.5414e-07	1170.2	221.31	1.6115e-06	1.5735e-06	281.25	77.812	61.675	17.954	1.0363e-06	25.222	5.1688e-05	4.8675e-05	1.3558e-05	981.97	5.4008e-07	5.5108e-07	1095.1	205.09	5.6374e-07	5.4833e-07	252.68	71.817	56.607	16.428	5.415e-07	22.658	199.230	18.740	12.162	-64.858	120.854	74.758	-64.189	-57.221	-53.130	39.178	-57.437	-50.290	-50.453	-43.350	31.552	-43.337	-8191	255	
1696.651	1	1	0	0	0.14594	0.09379	0.14718	0.17763	0.12903	0.02874	0.1685	0.21523	0.15618	0.11465	0.11958	0.11676	0.17692	0.097192	0.12718	0.12787	-2.825	-4.1167	-3.4771	-3.7125	-4.2229	-3.3688	-3.9146	-3.9562	-3.275	-3.9604	-3.5521	-3.4667	-4.2229	-3.2542	-3.6	-4.0667	-52.043	161.320	-53.247	276.395	-57.883	284.153	157.642	280.960	-61.930	47.499	103.793	10.921	-64.166	279.640	262.647	-74.006	5.7395e-05	0.00032562	0.00010924	1078	3.1824e-06	1.0548e-06	1178.2	219.28	9.5822e-07	2.3077e-06	280.09	78.32	61.362	17.949	4.0643e-06	25.212	5.041e-05	4.7139e-05	1.3601e-05	982.72	5.4015e-07	5.3188e-07	1094.7	205.26	5.3993e-07	5.2367e-07	251.61	71.723	56.647	16.437	5.409e-07	22.654	199.252	72.245	12.630	-64.899	58.809	52.413	-64.366	-57.042	-48.658	36.132	-57.662	-50.572	-50.753	-43.485	-35.082	-43.842	-8191	255	
1696.772	1	1	0	0	0.018023	0.043834	0.06116	0.16603	0.16749	0.12234	0.095321	0.17488	0.061888	0.019741	0.15571	0.081179	0.13082	0.084265	0.14751	0.043411	-2.8688	-3.9917	-3.625	-3.3979	-4.1375	-3.3563	-3.9813	-4.0667	-3.2021	-3.975	-3.9083	-3.4354	-4.1708	-3.5104	-3.5292	-4.2521	58.574	-56.881	223.640	273.202	160.614	-27.606	250.560	-45.228	234.146	65.777	-30.288	-17.804	194.590	20.652	186.706	78.869	5.9637e-05	0.00023321	8.3013e-05	1087.8	2.078e-06	1.7631e-06	1179.5	221.62	7.6754e-07	1.6042e-06	281.84	78.672	62.19	18.162	3.9806e-06	25.312	5.09e-05	4.8452e-05	1.3386e-05	984.23	5.4177e-07	5.3138e-07	1094.9	205.07	5.3817e-07	5.3442e-07	252.38	71.773	56.8	16.488	5.4238e-07	22.688	182.854	-15.470	71.669	-64.814	97.770	32.832	-64.397	-57.113	244.637	48.145	-57.843	-50.567	-50.125	-43.220	71.901	-43.367	-8191	255	
1696.866	1	1	0	0	0.13608	0.16072	0.078458	0.089716	0.053204	0.33121	0.22364	0.12649	0.088644	0.1808	0.098565	0.28678	0.17181	0.29052	0.23937	0.20387	-2.8583	-3.8292	-3.7667	-3.4125	-4.075	-3.3896	-3.5312	-4.0375	-3.1854	-3.7687	-3.9854	-3.3292	-4.2354	-3.45	-3.6104	-4.0813	98.654	-59.375	195.837	255.898	174.851	169.752	267.460	273.859	95.499	53.670	120.924	119.036	283.426	143.610	175.113	136.568	6.4936e-05	5.1086e-05	0.00010594	1085.3	2.0922e-06	1.8713e-06	1183.8	224.4	8.5529e-07	2.1128e-06	285.06	79.091	62.421	18.153	1.9577e-06	25.305	4.988e-05	4.87e-05	1.3633e-05	983.11	5.2917e-07	5.2979e-07	1096.6	206.1	5.4583e-07	5.3987e-07	253.75	72.039	56.847	16.485	5.4941e-07	22.584	253.700	135.132	27.360	-64.215	-12.870	27.954	-64.386	-56.872	219.036	51.451	-57.619	-50.541	-50.233	-42.819	179.281	-43.557	-8191	255	
1696.962	1	1	0	0	0.3179	0.20324	0.17737	0.15662	0.10712	0.22675	0.11393	0.2286	0.36336	0.30376	0.10032	0.23022	0.029881	0.23797	0.12983	0.026282	-2.85	-3.8083	-3.9896	-3.3604	-4.1396	-3.5917	-3.5875	-4.3708	-3.2812	-3.5646	-4.1083	-3.2521	-4	-3.7833	-3.1771	-4.0625	81.828	174.058	-70.596	259.987	14.671	-57.726	251.303	216.085	5.151	213.400	193.988	280.646	242.368	182.818	212.511	98.129	7.3012e-05	0.00033958	6.9032e-05	1093.5	2.1562e-06	2.0101e-06	1184.8	223.61	1.6634e-06	7.4904e-07	284.74	78.65	62.164	18.238	1.1648e-06	25.674	4.9876e-05	4.8719e-05	1.3532e-05	985.02	5.3482e-07	5.2973e-07	1095.7	206.05	5.4992e-07	5.4104e-07	253.01	71.942	56.768	16.49	5.4775e-07	22.673	189.487	12.902	37.800	-64.460	80.380	-22.292	-64.385	-56.984	97.523	55.091	-57.623	-50.600	-50.170	-43.352	47.438	-43.315	-8191	255	
1697.059	1	1	0	0	0.21726	0.030189	0.25299	0.060046	0.10923	0.32367	0.32744	0.16876	0.1535	0.16721	0.074515	0.1016	0.093343	0.15727	0.1474	0.11476	-3.0021	-3.7938	-3.8979	-3.3146	-4.0292	-3.8333	-3.3187	-4.2208	-3.4833	-3.6	-4.0625	-3.3479	-3.8729	-3.7729	-3.4083	-4.1375	30.733	26.004	33.946	177.316	231.893	-44.792	263.955	20.417	105.999	183.862	-34.269	162.408	-65.138	232.046	82.179	69.343	4.6631e-05	0.00027553	0.00013098	1089.1	3.0841e-06	7.3626e-07	1186.9	224.28	1.5221e-06	1.8127e-06	282.18	78.56	62.446	18.24	2.9969e-06	25.375	4.9671e-05	4.798e-05	1.3318e-05	984.91	5.4351e-07	5.2906e-07	1096	206.36	5.4402e-07	5.3138e-07	252.47	71.896	56.851	16.485	5.4751e-07	22.639	193.072	-42.798	33.885	-64.661	73.691	60.672	-64.173	-56.922	30.074	62.965	-57.466	-50.593	-50.071	-42.908	140.850	-43.461	-8191	255	
1697.179	1	1	0	0	0.22587	0.32658	0.10109	0.38016	0.11812	0.13806	0.30503	0.16014	0.25083	0.19719	0.17714	0.24794	0.24949	0.15328	0.099974	0.07465	-3.1333	-3.3458	-4.0271	-3.2104	-3.8688	-3.7896	-3.3625	-4.2208	-3.5958	-3.3604	-4.1813	-3.4437	-3.7375	-4.0229	-3.2875	-4.1375	84.597	59.836	196.214	224.599	-6.787	22.314	197.179	256.169	108.078	101.784	230.290	-73.046	39.055	23.251	176.600	7.928	5.6251e-05	0.00010509	3.9022e-05	1088	2.6177e-06	1.3254e-06	1184.7	223.6	1.2e-06	2.6555e-06	281.86	79.078	61.904	18.184	3.3587e-06	25.191	5.0158e-05	4.7849e-05	1.3427e-05	982.71	5.2852e-07	5.2793e-07	1097.8	205.96	5.4221e-07	5.3095e-07	252.89	71.957	56.795	16.517	5.4796e-07	22.569	143.577	29.591	-73.165	-64.588	116.351	108.120	-64.194	-57.343	66.178	87.000	-57.236	-50.706	-50.107	-42.916	80.425	-43.065	-8191	255	
1697.251	1	1	0	0	0.10356	0.032287	0.13708	0.1666	0.051174	0.15997	0.18028	0.17476	0.065288	0.13244	0.16051	0.081512	0.27105	0.39425	0.22179	0.17283	-3.4417	-3.1979	-4.2417	-3.4521	-3.7521	-4.1083	-3.4771	-4.0667	-3.7479	-3.4542	-4.2	-3.4188	-3.7167	-4.0458	-3.1479	-4.0354	217.586	73.540	60.353	203.944	110.674	184.210	189.335	123.632	277.322	131.380	203.527	86.885	266.814	234.489	107.694	-47.447	3.782e-05	0.00036401	3.9369e-05	1090.4	3.718e-06	2.8128e-06	1186.1	222.28	4.9403e-07	2.449e-06	284.75	78.948	62.546	18.266	4.7763e-06	25.364	4.9887e-05	4.7528e-05	1.3166e-05	984.49	5.3909e-07	5.1688e-07	1095.3	205.65	5.323e-07	5.3816e-07	252.58	71.925	56.79	16.477	5.3935e-07	22.606	220.114	30.757	152.105	-64.287	35.051	27.794	-64.003	-56.704	97.090	92.496	-57.248	-50.557	-49.832	-42.930	77.674	-43.160	-8191	255	
1697.347	1	1	0	0	0.024328	0.22388	0.11123	0.3909	0.15126	0.15546	0.20266	0.17191	0.15078	0.17963	0.12602	0.089946	0.093644	0.14286	0.23107	0.18688	-3.5792	-3.5229	-4.2063	-3.7792	-3.6125	-4.2917	-3.4896	-3.825	-4.0021	-3.375	-4.1896	-3.7479	-3.6229	-4.1	-3.1437	-3.9625	42.098	238.742	133.335	182.531	24.899	246.323	235.900	141.568	171.962	284.426	143.486	-71.658	269.860	47.820	41.738	167.366	4.7209e-05	0.00020679	7.2445e-05	1082.5	2.2057e-06	3.0583e-06	1177.7	221.97	2.0439e-06	2.031e-06	281.44	78.049	61.751	18.092	1.0334e-06	25.284	4.9044e-05	4.6788e-05	1.3195e-05	982.59	5.3733e-07	5.2526e-07	1095.2	205.43	5.4146e-07	5.3209e-07	251.86	71.78	56.596	16.49	5.4094e-07	22.628	213.772	6.573	53.646	-64.476	55.029	33.503	-63.898	-56.989	113.836	70.992	-57.499	-50.319	-50.177	-42.983	51.738	-43.462	-8191	255	
1697.443	1	1	0	0	0.22613	0.18482	0.11061	0.078193	0.16014	0.17377	0.14713	0.18956	0.076053	0.1935	0.01894	0.25962	0.14927	0.14577	0.071972	0.23498	-3.6771	-3.4583	-4.0625	-3.6333	-3.4271	-4.2146	-3.5729	-3.9375	-3.9958	-3.1896	-4.0687	-3.7625	-3.3833	-4.0604	-3.4062	-3.6937	132.479	176.017	-1.613	-21.597	282.108	86.707	219.495	220.363	50.145	9.823	-21.408	-20.039	222.925	115.531	22.536	255.849	3.5755e-05	0.0001665	1.8317e-05	1083.7	3.645e-06	1.2753e-06	1179.4	223.07	1.7542e-06	3.4816e-06	282.74	78.778	62.319	18.094	1.2466e-06	25.47	5.0209e-05	4.8838e-05	1.3196e-05	982.87	5.3604e-07	5.3192e-07	1095.4	205.62	5.4419e-07	5.4107e-07	252.76	71.849	56.834	16.463	5.371e-07	22.679	201.689	-46.042	178.794	-64.624	43.916	191.291	-64.019	-56.755	50.280	56.044	-57.632	-50.165	-50.324	-43.114	116.708	-43.577	-8191	255	
1697.539	1	1	0	0	0.076566	0.046906	0.15256	0.17198	0.19356	0.21603	0.11862	0.14738	0.1118	0.19166	0.16951	0.28832	0.026294	0.14707	0.14663	0.10349	-3.4167	-3.2125	-3.8563	-3.7687	-3.1333	-4.0104	-3.6688	-3.5938	-3.9125	-3.2062	-3.9604	-3.8375	-3.4146	-4.1854	-3.5646	-3.6083	-6.474	197.725	61.160	279.292	165.017	279.436	192.815	-63.805	44.436	74.837	206.067	101.894	39.302	173.416	283.112	-22.468	0.00010611	0.0002631	7.032e-05	1089.8	3.9126e-06	1.9425e-07	1177	221.52	1.4279e-06	1.5217e-06	283.06	78.229	62.111	18.078	1.0615e-06	25.497	4.9332e-05	4.7374e-05	1.3326e-05	986.12	5.3499e-07	5.2183e-07	1095.5	205.43	5.4467e-07	5.3582e-07	252.89	71.671	56.75	16.48	5.26e-07	22.762	188.119	-46.446	80.173	-64.846	101.244	136.725	-64.624	-56.886	17.195	127.973	-57.018	-50.731	-50.786	-42.778	101.743	-43.282	-8191	255	
1697.658	1	1	0	0	0.039577	0.10703	0.19293	0.21218	0.22224	0.051151	0.1432	0.2708	0.11677	0.15104	0.22526	0.22316	0.23616	0.15612	0.039	0.24033	-3.6271	-3.2188	-4.0125	-3.9979	-3.3958	-3.9458	-3.6542	-3.5708	-3.9062	-3.2812	-3.9708	-4.1292	-3.4188	-4.1021	-3.7333	-3.4958	194.266	87.093	-15.490	58.059	4.343	270.795	-70.551	140.817	125.506	258.510	153.236	-75.073	-32.162	-15.010	106.015	76.625	7.3916e-05	0.00027397	6.3782e-05	1085.1	1.2941e-06	1.831e-06	1173.2	221.79	1.4585e-06	1.4364e-06	283.07	78.695	62.026	18.037	8.8333e-07	25.365	4.9295e-05	4.8355e-05	1.3301e-05	983.19	5.3842e-07	5.2559e-07	1094	205.59	5.4904e-07	5.4431e-07	252.85	71.913	56.679	16.486	5.4603e-07	22.614	177.538	-31.891	40.986	-64.557	-22.864	61.560	-64.316	-57.098	-0.234	71.520	-57.206	-50.335	-50.202	-43.140	247.984	-43.323	-8191	255	
1697.754	1	1	0	0	0.18538	0.27804	0.16336	0.10709	0.06647	0.19212	0.2193	0.074976	0.12642	0.19466	0.13507	0.083615	0.10904	0.20996	0.12563	0.01322	-3.9229	-3.2271	-3.6375	-3.9146	-3.3187	-4.0312	-3.8583	-3.4792	-4.2083	-3.2958	-3.7354	-4.0417	-3.4271	-3.9875	-3.8438	-3.425	224.356	75.897	14.830	285.028	72.558	-53.962	-54.013	-45.889	152.557	-50.967	172.416	180.298	250.784	128.398	182.309	191.454	6.7802e-05	0.00024899	9.9705e-05	1082.1	1.348e-06	3.1038e-06	1169.8	221.83	3.809e-07	1.8016e-06	280.74	78.364	61.397	18.167	4.8068e-06	25.394	4.9892e-05	4.8465e-05	1.3562e-05	981.31	5.4399e-07	5.3156e-07	1093.5	205.57	5.4865e-07	5.3799e-07	251.94	71.877	56.433	16.531	5.3724e-07	22.638	201.294	40.392	75.549	-64.826	122.985	-2.701	-64.508	-56.987	220.814	23.637	-57.665	-50.757	-50.071	-42.963	78.278	-43.542	-8191	255	
1697.852	1	1	0	0	0.25532	0.08205	0.20162	0.14253	0.13379	0.1108	0.15657	0.016846	0.092621	0.075992	0.23665	0.093432	0.074242	0.16251	0.15619	0.24666	-3.9	-3.4021	-3.5917	-4.2229	-3.2208	-3.8187	-4.0271	-3.2542	-4.1479	-3.4375	-3.6312	-4.2	-3.5125	-3.925	-3.8646	-3.4208	211.800	57.870	19.341	79.675	244.753	220.275	196.609	109.635	67.989	99.134	228.108	-51.973	282.360	-56.805	-59.716	250.368	7.1421e-05	0.00019313	4.7073e-05	1080.5	1.4371e-06	4.3608e-06	1173.7	220.82	2.5538e-06	1.9107e-06	279.21	78.046	61.737	18.107	1.3114e-06	25.447	5.0345e-05	4.8642e-05	1.3368e-05	981.37	5.4275e-07	5.3176e-07	1092.7	205.35	5.5288e-07	5.413e-07	252	71.87	56.596	16.536	5.5016e-07	22.681	197.377	-16.752	110.328	-64.966	40.424	52.216	-64.573	-57.157	67.276	40.545	-57.502	-50.726	-50.514	-43.190	44.230	-43.285	-8191	255	
1697.947	1	1	0	0	0.11995	0.19309	0.1727	0.18413	0.060176	0.16079	0.13942	0.069826	0.055752	0.10263	0.1673	0.12268	0.26418	0.21848	0.11694	0.006833	-3.8271	-3.6188	-3.3667	-4.2583	-3.2125	-3.7792	-4.2688	-3.3333	-4.1708	-3.7458	-3.3667	-4.2229	-3.2687	-3.8979	-3.9771	-3.2521	60.952	190.269	242.617	235.186	159.172	-47.080	239.276	84.056	5.732	25.786	-70.547	31.838	-43.996	-59.841	274.879	213.083	6.2122e-05	0.00022899	2.6247e-05	1082.9	6.7027e-07	2.1538e-06	1173.5	221.27	1.603e-06	1.2045e-06	280.49	78.236	61.773	17.977	3.1865e-06	25.134	4.9666e-05	4.8312e-05	1.3485e-05	982.32	5.4467e-07	5.3685e-07	1093.8	205.14	5.4795e-07	5.4831e-07	252.13	71.653	56.539	16.48	5.5214e-07	22.678	185.445	-44.130	247.577	-64.598	210.140	90.187	-64.576	-57.397	138.671	43.257	-57.426	-50.705	-50.319	-43.570	74.297	-43.739	-8191	255	
1698.043	1	1	0	0	0.22177	0.02116	0.11231	0.17837	0.21544	0.22885	0.2562	0.16582	0.24223	0.091329	0.35434	0.15265	0.19667	0.31437	0.13389	0.14951	-3.6083	-3.7854	-3.3063	-4.35	-3.3271	-3.6083	-4.0771	-3.2625	-3.9292	-3.8229	-3.4146	-4.1667	-3.3917	-3.5875	-4.0917	-3.2479	8.243	143.406	170.621	219.997	255.747	51.384	211.286	179.895	23.864	-51.942	52.509	283.477	55.830	243.021	-65.032	200.829	6.3498e-05	0.00015857	6.2997e-05	1070.9	3.0675e-06	2.6298e-06	1167.2	221.03	2.2222e-06	2.54e-06	280.07	78.795	61.756	18.188	2.7513e-06	25.396	5.1066e-05	4.7956e-05	1.3367e-05	979.9	5.3714e-07	5.2586e-07	1092.3	205.35	5.4462e-07	5.4524e-07	252.22	71.895	56.706	16.488	5.4228e-07	22.666	220.206	124.105	46.223	-64.839	162.564	100.000	-64.678	-57.428	-13.450	-27.496	-57.845	-50.508	-50.600	-43.426	98.517	-42.763	-8191	255	
1698.139	1	1	0	0	0.22657	0.13372	0.22024	0.34982	0.22048	0.20208	0.070017	0.18963	0.13208	0.022119	0.12107	0.1083	0.17934	0.25003	0.054694	0.10886	-3.4104	-3.8937	-3.3625	-4.2958	-3.4521	-3.4875	-4.2292	-3.525	-3.9354	-3.9583	-3.3688	-4.0708	-3.6479	-3.3937	-4.1625	-3.3917	-19.543	269.462	101.591	194.781	223.506	161.364	21.669	122.774	107.590	195.970	108.922	220.758	214.806	168.301	-53.904	134.357	3.6913e-05	9.5109e-05	3.2814e-05	1085	1.3461e-06	3.6933e-06	1183.5	222.04	8.4366e-07	2.6618e-06	283.4	79.017	62.52	18.229	6.5951e-07	25.526	5.0016e-05	4.8129e-05	1.3561e-05	984.45	5.395e-07	5.345e-07	1094.9	205.33	5.483e-07	5.3321e-07	252.65	71.866	56.754	16.445	5.3603e-07	22.667	-60.767	88.415	-13.701	-64.560	63.411	116.037	-64.391	-56.911	77.557	77.064	-57.618	-50.594	-50.244	-43.096	130.989	-43.646	-8191	255	
1698.260	1	1	0	0	0.045751	0.099046	0.12461	0.32433	0.2545	0.054208	0.36388	0.30439	0.13091	0.023317	0.16105	0.040087	0.35983	0.10147	0.13067	0.10886	-3.5333	-3.9583	-3.2646	-4.1062	-3.5208	-3.3792	-4.25	-3.5479	-3.5563	-3.9458	-3.2188	-4.0833	-3.9104	-3.4917	-4.2625	-3.4479	14.610	181.825	98.140	-72.039	-65.446	-4.702	256.124	202.656	72.787	-50.211	36.621	-20.519	-54.055	213.167	177.999	73.367	1.9076e-05	0.00011382	8.0064e-05	1086.7	5.5731e-07	1.702e-06	1181.9	223.18	7.4999e-07	2.1836e-06	283.11	79.524	61.81	18.144	2.5788e-06	25.364	5.0798e-05	4.8354e-05	1.3533e-05	983.55	5.4268e-07	5.4857e-07	1094.8	205.84	5.4948e-07	5.3438e-07	252.52	72.051	56.646	16.513	5.4637e-07	22.588	257.699	-46.335	62.102	-64.800	118.376	54.398	-64.548	-57.060	158.770	28.009	-57.563	-50.692	-50.433	-43.290	166.473	-43.562	-8191	255	
1698.356	1	1	0	0	0.24533	0.046667	0.28031	0.38978	0.052832	0.089373	0.22094	0.12465	0.28782	0.28778	0.22557	0.25079	0.1041	0.23429	0.10606	0.11731	-3.3854	-4.0563	-3.0854	-4.1417	-3.725	-3.1521	-4.2917	-3.55	-3.4896	-3.9625	-3.4479	-3.8042	-3.8896	-3.1542	-4.0687	-3.775	-23.328	122.967	80.124	264.104	34.286	263.449	175.931	218.444	150.086	277.362	185.290	42.224	215.610	278.657	75.194	1.115	6.2394e-05	0.00036	4.5558e-05	1087.8	7.0203e-07	5.9988e-07	1177.7	222.58	1.2265e-06	3.3457e-06	284.78	78.589	62.219	18.239	1.7614e-06	25.6	5.0166e-05	4.7251e-05	1.3505e-05	983.27	5.2699e-07	5.2485e-07	1094.4	205.06	5.5444e-07	5.3134e-07	253.36	71.942	56.73	16.515	5.3577e-07	22.717	201.569	40.377	22.116	-64.589	51.579	-32.721	-64.453	-57.424	123.874	92.525	-57.543	-50.613	-50.575	-43.379	70.625	-43.536	-8191	255	
1698.452	1	1	0	0	0.19977	0.28863	0.12795	0.053468	0.0784	0.043041	0.40175	0.24229	0.12994	0.13691	0.23053	0.19161	0.099263	0.031279	0.027019	0.19406	-3.0938	-4.0625	-3.2479	-3.8646	-4.0083	-3.2375	-4.1188	-3.7687	-3.4896	-4.2063	-3.3875	-3.8917	-3.9458	-3.2708	-4.0813	-3.7313	44.958	0.271	200.575	184.549	215.663	243.023	244.326	-50.257	62.640	187.970	51.577	-19.217	263.167	-52.811	48.942	27.566	4.5529e-05	0.00033053	8.7984e-05	1095.3	2.8041e-06	3.4912e-06	1182.5	223.6	3.2357e-06	1.1858e-06	284.24	78.879	62.4	18.227	2.7599e-06	25.456	4.8478e-05	4.7174e-05	1.3463e-05	985.32	5.2673e-07	5.2612e-07	1094.6	205.81	5.3906e-07	5.1966e-07	252.62	71.87	56.642	16.497	5.2729e-07	22.64	168.360	-32.077	56.333	-64.878	107.648	23.274	-64.187	-56.912	67.680	116.512	-57.346	-50.336	-50.144	-42.905	84.408	-43.488	-8191	255	
1698.548	1	1	0	0	0.27647	0.14636	0.23231	0.10498	0.092173	0.2149	0.15902	0.060947	0.1749	0.096763	0.28741	0.26581	0.24713	0.044562	0.1098	0.17224	-2.9208	-4.1125	-3.3229	-3.6625	-3.9688	-3.2188	-4.0833	-3.8146	-3.2958	-4.1458	-3.4083	-3.4792	-4.0875	-3.3917	-3.8604	-3.8875	277.801	235.369	85.048	-74.382	203.602	60.483	-25.523	218.140	-33.101	59.276	267.667	169.910	-64.887	6.761	278.668	31.246	4.8401e-05	0.00038081	0.00011076	1088.2	2.4258e-06	3.2503e-06	1183.5	222.74	8.9445e-07	2.2053e-06	284.88	79.013	61.985	18.282	3.8339e-06	25.337	5.0299e-05	4.7917e-05	1.3336e-05	983.27	5.196e-07	5.254e-07	1094.9	205.25	5.4914e-07	5.2468e-07	253.05	71.777	56.589	16.488	5.3079e-07	22.595	236.805	7.861	56.923	-64.760	68.423	64.364	-64.296	-57.210	153.477	91.726	-57.743	-50.498	-50.356	-42.903	103.902	-43.645	-8191	255	
#DATA ENDS
