BOXY.EXE: ISS Imagent and Oximeter Data Acquisition Program Version 0.80
Ascii Record File

#ACQ INFORMATION
2  Detector Channels 
16  External MUX Channels 
1  Auxiliary Channels 
5000  Waveform (CCF) Frequency (Hz)
1  Waveforms Skipped 
30  Waveforms Averaged 
1  Cycles Averaged 
16  Acquisitions per Waveform 
10.0806  Updata Rate (Hz) 

#FILE INFORMATION
TRUE -- External MUX Channel results are PARSED.
FALSE -- AC DC and Phase are NOT grouped.
TRUE -- Companion Program Settings File CREATED.
FALSE -- AC data not excluded
FALSE -- DC data not excluded
FALSE -- Phase data not excluded
FALSE -- Auxillary Chn. data not excluded
Tab delimiters

#CALIBRATION STATE
TRUE -- Waveform Calibration Values APPLIED.


#AUX CALIBRATION VALUES
Val Type	aux-1	

Term	1.0000e+00	
Factor	0.0000e+00	


#WF CALIBRATION VALUES
A = Detector Channel
Val Type	A-AC1	A-AC2	A-AC3	A-AC4	A-AC5	A-AC6	A-AC7	A-AC8	A-AC9	A-AC10	A-AC11	A-AC12	A-AC13	A-AC14	A-AC15	A-AC16	A-DC1	A-DC2	A-DC3	A-DC4	A-DC5	A-DC6	A-DC7	A-DC8	A-DC9	A-DC10	A-DC11	A-DC12	A-DC13	A-DC14	A-DC15	A-DC16	A-Ph1	A-Ph2	A-Ph3	A-Ph4	A-Ph5	A-Ph6	A-Ph7	A-Ph8	A-Ph9	A-Ph10	A-Ph11	A-Ph12	A-Ph13	A-Ph14	A-Ph15	A-Ph16	

Term	0.00000e+00	0.00000e+00	0.00000e+00	0.00000e+00	0.00000e+00	0.00000e+00	0.00000e+00	0.00000e+00	0.00000e+00	0.00000e+00	0.00000e+00	0.00000e+00	0.00000e+00	0.00000e+00	0.00000e+00	0.00000e+00	0.00000e+00	0.00000e+00	0.00000e+00	0.00000e+00	0.00000e+00	0.00000e+00	0.00000e+00	0.00000e+00	0.00000e+00	0.00000e+00	0.00000e+00	0.00000e+00	0.00000e+00	0.00000e+00	0.00000e+00	0.00000e+00	0.00000e+00	0.00000e+00	0.00000e+00	0.00000e+00	0.00000e+00	0.00000e+00	0.00000e+00	0.00000e+00	0.00000e+00	0.00000e+00	0.00000e+00	0.00000e+00	0.00000e+00	0.00000e+00	0.00000e+00	0.00000e+00	
Factor	1.00000e+00	1.00000e+00	1.00000e+00	1.00000e+00	1.00000e+00	1.00000e+00	1.00000e+00	1.00000e+00	1.00000e+00	1.00000e+00	1.00000e+00	1.00000e+00	1.00000e+00	1.00000e+00	1.00000e+00	1.00000e+00	1.00000e+00	1.00000e+00	1.00000e+00	1.00000e+00	1.00000e+00	1.00000e+00	1.00000e+00	1.00000e+00	1.00000e+00	1.00000e+00	1.00000e+00	1.00000e+00	1.00000e+00	1.00000e+00	1.00000e+00	1.00000e+00	X	X	X	X	X	X	X	X	X	X	X	X	X	X	X	X	

B = Detector Channel
Val Type	B-AC1	B-AC2	B-AC3	B-AC4	B-AC5	B-AC6	B-AC7	B-AC8	B-AC9	B-AC10	B-AC11	B-AC12	B-AC13	B-AC14	B-AC15	B-AC16	B-DC1	B-DC2	B-DC3	B-DC4	B-DC5	B-DC6	B-DC7	B-DC8	B-DC9	B-DC10	B-DC11	B-DC12	B-DC13	B-DC14	B-DC15	B-DC16	B-Ph1	B-Ph2	B-Ph3	B-Ph4	B-Ph5	B-Ph6	B-Ph7	B-Ph8	B-Ph9	B-Ph10	B-Ph11	B-Ph12	B-Ph13	B-Ph14	B-Ph15	B-Ph16	

Term	0.00000e+00	0.00000e+00	0.00000e+00	0.00000e+00	0.00000e+00	0.00000e+00	0.00000e+00	0.00000e+00	0.00000e+00	0.00000e+00	0.00000e+00	0.00000e+00	0.00000e+00	0.00000e+00	0.00000e+00	0.00000e+00	0.00000e+00	0.00000e+00	0.00000e+00	0.00000e+00	0.00000e+00	0.00000e+00	0.00000e+00	0.00000e+00	0.00000e+00	0.00000e+00	0.00000e+00	0.00000e+00	0.00000e+00	0.00000e+00	0.00000e+00	0.00000e+00	-8.82690e+01	-1.42635e+02	-1.12445e+02	-1.85681e+02	-9.37183e+01	-9.60728e+01	-1.59412e+02	-1.62015e+02	-5.53355e+01	-8.96295e+01	-1.71360e+02	-1.68986e+02	-1.86800e+02	-1.77307e+02	-7.11187e+01	-1.50303e+02	
Factor	1.93732e-05	8.66701e-05	2.97722e-05	2.31231e-01	9.98951e-07	9.22260e-07	1.78994e-01	5.92349e-02	7.36728e-07	8.49038e-07	9.96673e-02	3.36700e-02	2.71889e-02	1.07909e-02	1.08767e-06	1.56297e-02	4.79868e-07	4.86975e-07	1.35843e-07	1.08386e-01	5.37163e-09	5.38858e-09	8.09458e-02	2.81770e-02	5.43546e-09	5.43929e-09	4.42687e-02	1.50702e-02	1.26050e-02	4.94180e-03	5.45345e-09	6.78308e-03	X	X	X	X	X	X	X	X	X	X	X	X	X	X	X	X	



#DISTANCE SETTINGS
A = Detector Channel
A-1	A-2	A-3	A-4	A-5	A-6	A-7	A-8	A-9	A-10	A-11	A-12	A-13	A-14	A-15	A-16	

2.5000e+00	3.0000e+00	2.5000e+00	3.0000e+00	2.0000e+00	3.0000e+00	1.5000e+00	3.0000e+00	3.0000e+00	3.0000e+00	3.0000e+00	3.0000e+00	3.0000e+00	3.0000e+00	1.5000e+00	3.0000e+00	

B = Detector Channel
B-1	B-2	B-3	B-4	B-5	B-6	B-7	B-8	B-9	B-10	B-11	B-12	B-13	B-14	B-15	B-16	

1.0000e+01	1.0000e+01	1.0000e+01	1.4400e+00	1.0000e+01	1.0000e+01	1.5100e+00	1.9400e+00	1.0000e+01	1.0000e+01	1.9900e+00	2.4900e+00	2.4100e+00	2.9000e+00	1.0000e+01	2.9800e+00	




#DATA BEGINS
time	group	step	mark	flag	A-AC1	A-AC2	A-AC3	A-AC4	A-AC5	A-AC6	A-AC7	A-AC8	A-AC9	A-AC10	A-AC11	A-AC12	A-AC13	A-AC14	A-AC15	A-AC16	A-DC1	A-DC2	A-DC3	A-DC4	A-DC5	A-DC6	A-DC7	A-DC8	A-DC9	A-DC10	A-DC11	A-DC12	A-DC13	A-DC14	A-DC15	A-DC16	A-Ph1	A-Ph2	A-Ph3	A-Ph4	A-Ph5	A-Ph6	A-Ph7	A-Ph8	A-Ph9	A-Ph10	A-Ph11	A-Ph12	A-Ph13	A-Ph14	A-Ph15	A-Ph16	B-AC1	B-AC2	B-AC3	B-AC4	B-AC5	B-AC6	B-AC7	B-AC8	B-AC9	B-AC10	B-AC11	B-AC12	B-AC13	B-AC14	B-AC15	B-AC16	B-DC1	B-DC2	B-DC3	B-DC4	B-DC5	B-DC6	B-DC7	B-DC8	B-DC9	B-DC10	B-DC11	B-DC12	B-DC13	B-DC14	B-DC15	B-DC16	B-Ph1	B-Ph2	B-Ph3	B-Ph4	B-Ph5	B-Ph6	B-Ph7	B-Ph8	B-Ph9	B-Ph10	B-Ph11	B-Ph12	B-Ph13	B-Ph14	B-Ph15	B-Ph16	aux-1	digaux	

2422.266	1	1	0	512	0.067526	0.11225	0.15038	0.18429	0.037555	0.12593	0.15826	0.11664	0.10348	0.13901	0.034538	0.15469	0.18407	0.22009	0.093789	0.20511	-3.4833	-3.6042	-3.2708	-4.1667	-3.1688	-3.7917	-4.1062	-3.3625	-3.8917	-3.5292	-3.4333	-4.1708	-3.3979	-3.7625	-3.9021	-3.3708	45.000	252.891	199.308	24.416	260.786	225.318	267.604	84.513	300.988	-0.084	-11.587	234.495	254.329	340.658	57.580	272.896	0.00040176	0.0005512	0.00016252	1004.3	4.3803e-06	9.1579e-06	1441.1	266.32	8.4495e-06	4.0492e-06	497.28	185.81	91.09	39.822	8.8957e-06	98.616	0.00021474	0.00021207	6.0615e-05	843.67	2.528e-06	2.526e-06	1210.6	226.93	2.6567e-06	2.725e-06	407.33	153.57	78.094	33.36	3.0513e-06	78.579	175.413	65.302	261.774	-0.246	88.469	56.865	0.013	4.270	107.915	115.209	4.304	8.919	8.923	13.666	47.660	12.637	-8191	255	
2422.362	1	1	0	0	0.30998	0.14809	0.091005	0.25168	0.069627	0.060065	0.49122	0.10544	0.25506	0.17028	0.18975	0.083404	0.15786	0.20303	0.064831	0.11021	-3.5396	-3.7625	-3.3604	-4.3146	-3.4188	-3.5938	-4.2479	-3.2417	-3.8271	-3.8292	-3.4458	-4.2021	-3.3688	-3.6188	-3.9083	-3.4646	153.872	27.166	331.477	317.377	304.548	54.549	296.793	253.898	168.787	345.648	294.640	249.238	25.413	279.783	238.880	-0.416	0.00049104	0.00088432	0.00024435	1028.1	5.2042e-06	3.618e-06	1466.9	275.08	1.1361e-06	8.3782e-06	513.07	191.14	94.219	40.773	1.0524e-05	101.6	0.00028739	0.00028171	7.7009e-05	876.44	2.9367e-06	2.8602e-06	1237.7	234.94	2.6386e-06	2.52e-06	416.08	156.93	78.935	33.465	2.1512e-06	79.745	175.853	62.661	21.277	-0.885	133.385	156.976	0.127	4.304	15.005	153.578	4.219	8.886	9.262	13.571	174.007	12.334	-8191	255	
2422.458	1	1	0	0	0.11542	0.14241	0.19084	0.31538	0.23622	0.25206	0.1804	0.17094	0.23666	0.094865	0.018184	0.28343	0.081537	0.11311	0.10588	0.072777	-3.4146	-3.8708	-3.2083	-4.1167	-3.5438	-3.3292	-4.2833	-3.4104	-3.7417	-3.95	-3.4125	-4.0896	-3.6792	-3.5521	-4.0229	-3.4021	137.848	244.388	52.171	324.379	39.638	317.624	302.572	255.195	239.584	84.676	110.346	-9.439	265.625	314.169	307.915	286.624	0.00027217	0.0003155	0.00012247	1029.2	6.5763e-06	2.1686e-06	1459.1	276.81	4.0166e-06	1.1135e-06	520.68	196.99	97.265	41.952	7.2496e-06	104.82	0.00018954	0.00017962	4.9078e-05	852.64	1.9005e-06	1.8764e-06	1214.4	231.55	1.8106e-06	1.7869e-06	415.53	158.71	79.601	33.906	1.6265e-06	81.192	164.370	124.510	130.067	-0.566	203.470	279.917	0.110	4.703	78.006	129.145	4.471	8.965	9.343	13.867	183.460	12.174	-8191	255	
2422.552	1	1	0	0	0.2525	0.046231	0.10742	0.2987	0.14075	0.17853	0.086591	0.1729	0.17037	0.26221	0.30114	0.22183	0.08346	0.13389	0.12629	0.11012	-3.0812	-4.0083	-3.0667	-4.0292	-3.7667	-3.2687	-4.2042	-3.4354	-3.6167	-3.9208	-3.4021	-3.9708	-3.7646	-3.1521	-3.9104	-3.5187	124.478	139.288	260.872	38.154	110.592	46.148	31.333	259.550	4.212	132.135	-4.941	37.550	338.824	315.580	274.277	322.551	0.00048985	0.00030382	9.9609e-05	1027.1	7.105e-06	4.4818e-06	1466.3	280.87	3.2749e-06	4.3595e-06	528.67	201.57	98.104	43.232	6.4837e-06	107.19	0.00015118	0.00014261	3.8828e-05	842.9	1.4741e-06	1.4694e-06	1212.1	232.54	1.457e-06	1.4179e-06	419.3	161.82	80.559	34.7	1.4282e-06	82.909	175.564	66.838	15.206	-0.198	105.685	187.040	-0.037	4.773	127.819	165.811	4.377	8.549	8.935	12.607	176.752	11.686	-8191	255	
2422.649	1	1	0	0	0.28233	0.064622	0.35921	0.28804	0.15688	0.17263	0.26101	0.25191	0.1414	0.32263	0.28017	0.089402	0.12735	0.22162	0.10573	0.19976	-3.1063	-4.0563	-3.1583	-3.8937	-3.8771	-3.2396	-4.2042	-3.5812	-3.1688	-4.0917	-3.2958	-3.875	-3.9271	-3.175	-3.8688	-3.7125	64.259	73.171	178.940	77.985	280.264	173.885	319.547	1.626	41.262	195.168	-7.744	262.475	113.278	328.724	55.191	294.088	0.00031534	0.00032776	0.00013066	1035.6	8.3256e-06	7.9336e-07	1484.5	281.79	1.3326e-06	5.5393e-06	528.27	201.88	97.924	43.462	3.392e-06	106.93	0.00013612	0.00012518	3.5324e-05	851.83	1.4388e-06	1.4279e-06	1229.2	234.34	1.4864e-06	1.4819e-06	421.49	162.06	80.479	34.728	1.4924e-06	83.12	168.469	90.666	196.044	-1.216	136.093	275.437	-0.691	2.981	137.080	134.686	3.093	7.730	7.839	12.333	271.942	11.325	-8191	255	
2422.745	1	1	0	0	0.16989	0.069029	0.25555	0.22635	0.16585	0.1756	0.29184	0.24854	0.04814	0.10794	0.19911	0.21144	0.25498	0.13627	0.03823	0.21073	-3.0062	-4.0542	-3.1979	-3.7375	-3.8625	-3.1167	-4.2688	-3.5833	-3.2354	-3.9333	-3.3312	-3.7292	-3.9333	-3.1813	-3.9062	-3.8812	125.007	16.914	310.261	219.097	171.305	260.772	7.477	266.347	176.905	269.135	281.112	344.317	83.558	338.654	235.535	267.462	0.00025486	0.00075962	0.00018451	1041	1.5953e-06	4.6173e-07	1485.1	282.1	4.2725e-06	3.8948e-06	526.71	203.1	99.999	44.039	6.2556e-07	108.67	0.00014186	0.00013311	3.7444e-05	857.38	1.4589e-06	1.4246e-06	1231.7	235.16	1.3742e-06	1.3637e-06	421.44	164.35	81.844	35.357	1.2774e-06	84.81	186.137	17.360	40.309	-1.219	85.894	286.223	-1.177	3.794	77.634	103.262	3.059	7.471	7.842	11.871	209.029	11.169	-8191	255	
2422.841	1	1	0	0	0.19433	0.057951	0.12628	0.057108	0.16434	0.066095	0.33189	0.26075	0.25963	0.21573	0.1633	0.12757	0.089884	0.11485	0.035083	0.13354	-2.8438	-4.0333	-3.3	-3.5229	-3.9208	-3.2062	-4.1229	-3.9771	-3.2729	-3.8708	-3.5396	-3.6375	-4.0563	-3.1771	-3.9271	-3.8667	109.244	66.773	329.317	319.863	143.432	165.166	255.039	238.146	163.974	120.848	301.851	325.589	-9.413	334.369	12.881	275.780	0.00032484	0.00040542	0.00014388	1008.5	1.1497e-06	1.8792e-06	1456.4	279.6	5.9054e-06	7.0364e-06	534.24	208.73	103.05	45.128	6.2816e-06	112.27	0.00011851	0.00010574	3.0087e-05	833.82	1.1485e-06	1.1354e-06	1207.7	233.37	1.1059e-06	1.1297e-06	425.72	167.89	83.871	36.228	1.1641e-06	86.857	168.201	79.585	115.467	-1.518	47.231	123.890	-0.742	3.243	166.647	126.249	3.548	7.590	7.860	11.885	149.107	11.166	-8191	255	
2422.937	1	1	0	0	0.30696	0.12267	0.053128	0.24579	0.078474	0.30563	0.16341	0.22966	0.19096	0.13697	0.20842	0.097507	0.27448	0.14381	0.14353	0.11039	-2.85	-4.0917	-3.3917	-3.4604	-4.0417	-3.3312	-3.9792	-4.0563	-3.0917	-4.0687	-3.7	-3.475	-4.1583	-3.3937	-3.7771	-4.0958	315.255	30.099	274.967	308.027	160.896	267.770	329.682	281.209	131.296	182.234	229.206	237.847	11.910	300.575	177.970	-7.656	0.00036315	0.00043212	0.00014088	1027.7	1.5504e-06	1.8029e-06	1474.9	290.02	4.6821e-06	6.4498e-06	541.74	210.46	103.85	44.821	6.0939e-06	110.28	0.00011293	0.00010439	2.9321e-05	841.97	1.1765e-06	1.1951e-06	1222.8	238.96	1.2681e-06	1.2463e-06	429.86	168.28	84.113	35.822	1.3755e-06	85.269	163.138	85.172	73.868	-1.497	64.902	173.381	-0.797	3.898	225.481	86.500	3.456	7.658	8.502	12.537	126.543	11.462	-8191	255	
2423.058	1	1	0	0	0.32801	0.12878	0.071587	0.14712	0.15429	0.14106	0.4602	0.23241	0.089324	0.18648	0.11082	0.086372	0.13908	0.074962	0.089322	0.19691	-2.8937	-4.1521	-3.475	-3.5042	-4.0021	-3.5125	-3.8292	-4.0458	-3.2938	-3.9979	-3.8271	-3.3771	-4.0062	-3.3917	-3.5708	-4.0208	72.781	239.031	165.247	82.994	118.760	256.103	337.728	339.577	256.446	83.112	77.434	25.448	299.986	95.509	11.224	273.148	0.00036404	0.00031481	0.00020412	1050.2	3.9343e-06	6.7072e-06	1501.3	290.09	2.0982e-06	5.4231e-06	541.67	210.69	103.35	44.614	9.4249e-06	111.31	0.00012853	0.00012047	3.3701e-05	859.37	1.33e-06	1.3401e-06	1240.1	239.35	1.341e-06	1.3443e-06	430.08	168.22	83.981	35.873	1.385e-06	86.174	177.432	60.266	96.240	-1.128	36.110	65.849	-0.815	3.322	168.360	119.127	3.342	7.676	8.538	12.448	139.489	11.407	-8191	255	
2423.154	1	1	0	0	0.2074	0.025377	0.23517	0.31083	0.27103	0.13313	0.26315	0.22599	0.35541	0.23761	0.15705	0.15765	0.15608	0.16954	0.21973	0.073052	-2.9104	-3.7646	-3.8208	-3.4417	-4.0042	-3.4083	-3.725	-4.1208	-3.2396	-3.7417	-3.9833	-3.425	-4.0708	-3.4271	-3.3875	-4.2604	60.078	63.268	116.977	239.170	326.017	53.562	275.852	69.498	0.955	258.046	315.111	3.222	240.479	70.004	169.378	38.709	0.00049398	0.00031413	0.00019558	1042.2	1.0047e-06	4.999e-06	1473.2	287.88	5.0943e-06	3.7832e-06	534.57	206.42	102.52	45.038	3.5952e-06	111.32	0.000132	0.00012521	3.4243e-05	854.33	1.3537e-06	1.3479e-06	1224.2	236.41	1.3476e-06	1.3364e-06	425.47	166.07	83.22	35.827	1.3428e-06	85.762	178.311	20.765	20.280	-0.957	292.451	98.409	-0.623	3.695	168.534	129.294	3.116	8.035	8.399	12.746	148.625	11.607	-8191	255	
2423.225	1	1	0	0	0.18002	0.18138	0.090401	0.24788	0.13613	0.16752	0.34235	0.097731	0.18682	0.074317	0.12675	0.083869	0.14425	0.12291	0.22302	0.1221	-3.0042	-3.5687	-3.9271	-3.3167	-3.925	-3.6271	-3.6729	-4.1771	-3.3625	-3.5729	-3.9688	-3.2854	-3.9667	-3.7354	-3.3479	-4.1188	6.206	264.870	63.820	303.372	284.188	-2.241	279.859	125.426	117.120	10.892	21.323	332.295	294.723	309.552	-3.605	338.355	0.00039498	0.00055526	0.00017707	1035.8	1.0299e-05	5.1172e-06	1485.7	282.97	7.5967e-06	4.7584e-06	532.32	203.45	99.706	43.489	8.4502e-07	107.87	0.00012837	0.00012271	3.4214e-05	849.28	1.4222e-06	1.4434e-06	1225.9	234.55	1.4814e-06	1.4918e-06	422.95	162.95	81.385	34.82	1.4659e-06	83.377	170.221	321.935	78.526	-1.073	121.120	141.142	-0.797	3.386	172.024	126.594	3.356	7.761	8.483	12.293	51.791	11.663	-8191	255	
2423.346	1	1	0	0	0.18376	0.20047	0.18001	0.092869	0.012119	0.25634	0.35535	0.10085	0.11827	0.34068	0.13611	0.21162	0.03784	0.066922	0.14334	0.044393	-2.8417	-3.6312	-3.9313	-3.2896	-4.0125	-3.8146	-3.4917	-4.0563	-3.4333	-3.4354	-4.0417	-3.2938	-3.9167	-3.9458	-3.1625	-4.1583	94.796	228.420	47.325	173.747	90.934	36.745	263.527	89.094	202.488	46.571	111.789	330.308	44.549	206.251	12.144	257.921	0.00038902	0.0010212	0.00016097	1046	5.99e-06	8.183e-06	1499.4	283.75	5.9364e-06	3.9222e-06	529.22	203.91	99.602	43.866	4.9853e-06	108.28	0.00013907	0.00012838	3.567e-05	852.44	1.4147e-06	1.4048e-06	1232.1	234.86	1.4232e-06	1.4153e-06	422.06	163.1	81.257	35.071	1.5354e-06	83.867	184.195	53.375	63.000	-1.451	165.079	114.329	-0.638	3.618	227.600	132.324	3.723	8.144	8.857	12.820	173.602	12.161	-8191	255	
2423.442	1	1	0	0	0.16858	0.062078	0.1029	0.2621	0.038966	0.053329	0.40858	0.15097	0.053498	0.29282	0.13443	0.19428	0.18385	0.17566	0.024386	0.25485	-3.0271	-3.3354	-4.0292	-3.3729	-3.9125	-3.8812	-3.45	-4.1562	-3.6312	-3.2917	-4.2	-3.3521	-3.9313	-3.8958	-3.0875	-3.9583	197.754	248.709	139.462	315.424	300.708	294.572	290.179	287.840	34.583	54.160	260.816	15.798	340.053	342.673	54.197	6.432	0.00037112	0.00040411	0.00019297	1038.3	5.833e-06	4.7145e-06	1484.2	283.38	3.327e-06	7.4702e-06	533.45	203.43	100.28	44.137	6.7279e-06	109.81	0.0001487	0.00014472	4.0523e-05	856.59	1.6185e-06	1.5928e-06	1231.5	234.94	1.5805e-06	1.5577e-06	423.12	164.29	82.242	35.42	1.526e-06	85.127	164.631	88.827	99.321	-1.099	136.892	135.961	-0.581	3.974	301.896	132.872	3.710	8.290	8.993	12.992	101.137	12.241	-8191	255	
2423.538	1	1	0	0	0.17077	0.22978	0.19651	0.175	0.077558	0.018888	0.20555	0.35972	0.17399	0.11035	0.28314	0.12547	0.19602	0.12725	0.062524	0.14038	-3.3396	-3.4167	-3.9708	-3.5146	-3.6479	-3.9583	-3.5667	-3.9562	-3.7188	-3.0979	-4.1979	-3.5271	-3.6417	-4.0479	-3.1708	-4.0167	129.140	185.287	36.243	89.012	-12.553	117.323	187.103	200.930	31.021	131.971	263.102	290.600	339.668	45.636	44.251	266.550	0.00038198	0.00022352	6.9008e-05	1031.8	2.4551e-06	2.2294e-06	1468	281.35	5.1314e-06	1.2373e-06	525.03	203.42	99.843	43.853	5.8989e-06	107.56	0.00013875	0.00013517	3.7161e-05	846.35	1.4941e-06	1.4879e-06	1214.2	233.24	1.5001e-06	1.5058e-06	418.74	162.68	81.151	35.024	1.49e-06	83.489	181.277	301.577	180.593	-0.625	202.584	142.109	-0.089	4.089	207.103	120.968	3.835	8.359	8.870	12.893	177.693	12.421	-8191	255	
2423.657	1	1	0	0	0.070841	0.1002	0.34484	0.1851	0.16485	0.08245	0.1076	0.29623	0.20216	0.16294	0.14839	0.13117	0.18984	0.3089	0.21414	0.073938	-3.5187	-3.1229	-3.85	-3.6833	-3.4708	-4.0354	-3.3625	-3.9917	-3.8646	-3.3021	-4.3646	-3.6688	-3.5042	-4.0833	-3.3187	-3.8187	67.676	113.664	225.332	330.988	3.944	34.015	274.567	293.466	98.663	179.481	292.866	264.243	314.332	310.123	44.415	136.744	0.00043709	0.00018563	0.00033455	1039.1	6.7977e-06	5.2246e-06	1468.6	282.99	3.8786e-06	5.5333e-06	526.01	202.39	99.922	43.456	4.8956e-06	107.29	0.00013751	0.00013295	3.6099e-05	849.21	1.453e-06	1.4334e-06	1221.5	234.04	1.4708e-06	1.4755e-06	419.81	162.92	81.288	35.024	1.5242e-06	83.498	172.176	6.937	102.228	-0.391	101.709	78.434	-0.252	4.077	220.017	114.003	3.867	8.446	9.017	13.069	133.944	12.112	-8191	255	
2423.753	1	1	0	0	0.30832	0.14207	0.22654	0.083742	0.17924	0.051472	0.091464	0.1492	0.13658	0.10978	0.21751	0.28876	0.17318	0.063912	0.199	0.25077	-3.4458	-3.2292	-3.9979	-3.5833	-3.3979	-4.1667	-3.5396	-3.7021	-3.85	-3.0708	-4.0167	-3.8167	-3.2812	-4.2375	-3.3896	-3.6104	295.440	75.277	121.878	-13.055	68.501	-12.535	229.175	215.299	104.034	89.825	17.830	234.750	-12.177	283.047	92.936	308.015	0.00044855	0.00037498	0.00030296	1022.1	6.0605e-06	5.7062e-06	1466.6	278.66	1.622e-06	7.3566e-06	521.45	204.89	99.075	44.078	9.6286e-06	110.71	0.00014593	0.00013924	3.859e-05	848.13	1.5173e-06	1.5047e-06	1220.1	232.49	1.5181e-06	1.493e-06	418.2	163.85	81.158	35.391	1.4531e-06	85.226	162.804	92.704	115.796	-1.291	80.992	39.986	-0.424	4.326	43.186	133.736	3.827	7.869	8.924	12.838	175.735	11.846	-8191	255	
2423.825	1	1	0	0	0.17166	0.080815	0.15811	0.17294	0.084717	0.035025	0.016267	0.13004	0.031368	0.17388	0.15393	0.27377	0.22377	0.063997	0.2588	0.25603	-3.5729	-3.1792	-3.8771	-3.8625	-3.0958	-4.1958	-3.6521	-3.5208	-3.8833	-3.4625	-4.0437	-3.9688	-3.2146	-4.1583	-3.5333	-3.5	288.926	-13.045	144.805	316.214	126.384	104.905	117.771	275.482	296.238	226.873	303.194	4.110	95.826	97.139	170.675	275.077	0.00040491	0.0004884	0.00030516	1032.8	3.231e-06	3.0494e-06	1465.7	279.36	1.587e-06	1.6177e-06	522.69	203.39	99.347	43.753	8.2943e-06	108.14	0.00013516	0.00012748	3.4748e-05	843.15	1.3833e-06	1.3952e-06	1210.5	230.4	1.3974e-06	1.3779e-06	416.86	162.69	80.764	34.985	1.3503e-06	83.764	186.357	43.286	79.139	-1.507	132.482	134.772	-0.881	3.655	186.593	27.870	3.175	7.305	8.330	12.313	156.903	11.178	-8191	255	
2423.946	1	1	0	0	0.1387	0.28083	0.27447	0.12164	0.16496	0.25424	0.16624	0.29472	0.15262	0.18416	0.094594	0.31681	0.082407	0.13582	0.10489	0.22896	-3.8146	-3.3229	-3.8396	-3.8021	-3.1146	-3.8937	-3.6729	-3.4021	-4.0938	-3.2771	-3.8396	-4.1042	-3.4271	-4.0062	-3.6125	-3.5167	124.583	269.774	262.544	260.707	254.096	305.178	214.020	291.774	79.425	179.201	233.745	2.584	337.432	332.475	283.400	269.326	0.00037711	0.00047956	0.00012014	1037.8	6.3104e-06	4.9083e-06	1472.8	278.2	5.2817e-06	5.0458e-06	527.79	202.15	99.161	43.7	3.9866e-06	108.27	0.00012936	0.00012163	3.3336e-05	843.18	1.3361e-06	1.3371e-06	1214.9	229.08	1.3777e-06	1.3497e-06	415.54	160.66	79.949	34.673	1.3589e-06	83.509	173.205	51.502	166.630	-1.838	140.190	78.253	-1.441	3.281	212.195	79.454	3.383	7.839	8.182	12.360	192.176	11.617	-8191	255	
2424.042	1	1	0	0	0.052958	0.10746	0.096026	0.20235	0.22408	0.10049	0.18213	0.2825	0.098281	0.12747	0.11231	0.19348	0.26094	0.22102	0.066253	0.31781	-3.8292	-3.3083	-3.3708	-4.0312	-3.1021	-3.9688	-3.8563	-3.3354	-4.0417	-3.2875	-3.6937	-4.0687	-3.2938	-3.7812	-3.7062	-3.3708	240.129	115.197	99.359	38.886	215.838	-10.363	282.474	302.892	144.812	306.894	170.575	282.854	77.636	243.272	256.732	283.920	0.00038724	0.00079346	0.0001005	1027.8	4.0208e-06	7.7851e-06	1465.1	277.64	5.0171e-06	6.252e-06	522.19	203.48	98.449	44.119	6.8601e-06	110.11	0.00012931	0.00012312	3.3543e-05	842.4	1.3948e-06	1.3934e-06	1213.6	229.09	1.4207e-06	1.4283e-06	415.8	162.28	80.407	35.144	1.3857e-06	85.38	170.025	52.274	48.474	-1.433	76.203	94.785	-0.717	3.395	173.093	109.862	3.253	7.405	8.261	12.298	95.895	11.083	-8191	255	
2424.138	1	1	0	0	0.12346	0.14496	0.1486	0.40305	0.20244	0.22683	0.28951	0.13342	0.2532	0.017852	0.1281	0.078008	0.36297	0.2388	0.09491	0.31176	-3.5563	-3.375	-3.4375	-4.0833	-3.2188	-3.7188	-3.8792	-3.3583	-3.9771	-3.4375	-3.5604	-4.1937	-3.2396	-3.7375	-3.8521	-3.4292	271.233	247.371	204.767	277.078	290.057	332.011	274.661	165.073	201.366	62.076	-12.529	264.351	-12.654	311.253	81.960	258.562	0.00044182	0.00025931	0.00011596	1028	5.9394e-06	2.6677e-06	1462.7	277.58	3.3599e-06	6.3408e-06	524.57	202.27	97.577	43.782	1.2489e-06	108.91	0.00013275	0.00012286	3.4077e-05	841.82	1.3534e-06	1.3695e-06	1213.4	229.56	1.3666e-06	1.4374e-06	416.23	162.58	80.082	35.102	1.4313e-06	84.357	168.791	54.604	150.677	-1.869	101.322	250.630	-1.252	3.181	220.449	125.742	3.192	7.169	7.792	11.765	114.873	10.796	-8191	255	
2424.234	1	1	0	0	0.067563	0.1497	0.14271	0.23978	0.13043	0.21622	0.21986	0.34091	0.19127	0.10214	0.21738	0.068124	0.088354	0.23621	0.086696	0.32703	-3.6896	-3.5687	-3.3604	-4.0979	-3.2708	-3.8167	-3.8375	-3.2917	-4.0583	-3.6125	-3.3937	-4.1479	-3.1604	-3.525	-3.925	-3.2771	81.809	251.100	243.701	230.656	308.744	144.103	310.032	287.444	168.035	287.244	271.928	141.144	118.916	281.538	328.793	290.023	0.00040122	0.0010451	0.00014213	1034.6	6.4373e-06	3.2317e-06	1457.2	275.66	4.0986e-06	1.3803e-06	515.6	197.75	95.158	42.721	3.4107e-06	105.61	0.00013468	0.00012739	3.6563e-05	844.2	1.4314e-06	1.4423e-06	1210.4	227.98	1.5288e-06	1.5061e-06	410.61	159.19	78.772	34.373	1.6622e-06	82.115	160.842	33.127	57.349	-2.209	91.815	128.107	-1.337	3.043	169.298	47.416	2.777	7.615	8.286	12.141	83.044	11.305	-8191	255	
2424.355	1	1	0	0	0.2869	0.20997	0.14106	0.17764	0.081085	0.13425	0.11323	0.23589	0.13615	0.32468	0.16003	0.13339	0.2553	0.19464	0.29654	0.24386	-3.4833	-3.6625	-3.1937	-4.1667	-3.3271	-3.5417	-4.1562	-3.1292	-3.7396	-3.8312	-3.2667	-4.0833	-3.4792	-3.4062	-3.9875	-3.3812	106.245	67.206	-2.501	64.140	220.167	121.552	294.367	277.358	1.388	95.885	297.598	263.278	308.192	-10.433	38.161	247.724	0.00032874	0.00016904	0.00014117	1030.3	6.0764e-06	1.3472e-06	1472.4	273.74	1.1753e-06	5.5085e-06	513.82	197.47	95.53	42.268	1.1921e-05	105.46	0.00016099	0.00015834	4.4559e-05	850.11	1.8308e-06	1.8196e-06	1221.1	229.97	1.9399e-06	1.9669e-06	413.45	159.71	79.424	34.484	1.9373e-06	82.581	170.147	136.411	79.546	-1.691	105.239	23.620	-1.561	3.114	212.914	185.309	3.049	7.377	7.555	11.866	144.678	11.003	-8191	255	
2424.449	1	1	0	0	0.15469	0.138	0.077297	0.32163	0.1804	0.14755	0.078892	0.28796	0.18407	0.082443	0.23242	0.39517	0.15486	0.34846	0.14038	0.13562	-3.4458	-3.8854	-3.2042	-4.1542	-3.5583	-3.325	-4.0188	-3.2771	-3.6167	-3.9375	-3.3083	-4.2104	-3.4979	-3.4167	-4.2479	-3.3708	217.063	194.872	203.667	278.624	186.089	138.408	1.471	288.816	163.323	248.783	3.226	-11.735	15.396	5.338	187.638	315.931	0.00037906	0.00013257	0.00015102	1022.3	6.2716e-06	4.6516e-06	1452.7	271.38	4.1739e-06	5.8413e-06	511.88	199.31	95.393	42.569	7.2064e-06	105.93	0.00017628	0.00016284	4.4849e-05	845.61	1.7663e-06	1.7632e-06	1213.5	227.89	1.7833e-06	1.7839e-06	410.21	160.02	78.375	34.313	1.7546e-06	82.466	194.274	177.460	123.561	-1.607	69.104	323.809	-1.284	2.725	188.522	138.241	3.042	7.686	7.908	11.861	117.611	10.881	-8191	255	
2424.523	1	1	0	0	0.22536	0.17199	0.10917	0.044125	0.24826	0.17231	0.37246	0.20851	0.098658	0.08768	0.37908	0.081437	0.064079	0.083436	0.070504	0.28553	-3.2167	-3.825	-3.2417	-3.9896	-3.7375	-3.3563	-4.0604	-3.5646	-3.4	-3.8937	-3.3542	-3.9958	-3.7021	-3.4833	-4.1	-3.4313	185.583	-7.863	341.319	27.151	153.120	36.908	256.691	245.365	228.427	190.349	303.973	336.143	261.059	329.234	316.937	296.621	0.00041862	0.00048783	0.00019526	1022.2	5.105e-06	5.6542e-06	1452.4	270.44	2.3154e-06	4.081e-06	498.9	190.31	92.269	40.711	1.0821e-05	101.53	0.00016243	0.00015333	4.2767e-05	844.63	1.6667e-06	1.6822e-06	1209.4	225.12	1.6849e-06	1.7136e-06	402.85	154.28	76.048	32.985	1.7887e-06	79.506	182.482	161.355	12.179	-1.855	102.695	101.833	-1.262	3.042	53.793	167.340	2.739	7.278	8.024	12.060	96.302	10.967	-8191	255	
2424.619	1	1	0	0	0.16649	0.15022	0.18057	0.062009	0.0792	0.057845	0.28318	0.34859	0.36352	0.15385	0.3132	0.2549	0.18717	0.099071	0.22385	0.052475	-2.975	-4.025	-3.1271	-3.8875	-3.7875	-3.15	-4.2	-3.5667	-3.3854	-3.9458	-3.4896	-3.7729	-4.0312	-3.3063	-3.925	-3.5729	283.324	164.733	73.999	205.243	77.977	320.080	337.067	273.103	311.149	306.006	328.691	344.951	264.628	252.783	13.496	226.598	0.00034108	0.00053732	0.00013375	1021.5	7.8894e-06	3.2301e-06	1462	269.48	3.4008e-06	2.4902e-06	504.48	191.56	92.56	41.389	5.0209e-06	102.74	0.00016792	0.00015941	4.5207e-05	845.2	1.829e-06	1.9211e-06	1214	226.24	1.9978e-06	2.0175e-06	406.32	155.68	77.101	33.666	1.9705e-06	80.726	184.648	54.082	53.799	-1.896	82.650	210.009	-1.148	2.970	129.549	159.711	2.821	7.965	8.109	12.087	129.447	11.244	-8191	255	
2424.738	1	1	0	0	0.13551	0.10434	0.17852	0.054154	0.24199	0.12549	0.23278	0.1273	0.17917	0.10588	0.23683	0.28734	0.25398	0.1312	0.21713	0.10634	-3.0563	-4.0083	-3.3604	-3.7562	-3.9083	-3.0687	-4.1229	-3.7021	-3.1146	-4.0312	-3.5167	-3.6437	-4.1333	-3.2229	-3.9479	-3.7125	201.807	94.891	48.433	304.374	31.042	239.749	217.226	298.099	199.567	120.640	301.743	313.369	292.110	218.717	251.796	275.901	0.00040923	0.001012	0.00025651	1008.4	1.0318e-05	7.9014e-06	1448.8	267.6	3.6892e-06	1.1112e-05	508.96	197.64	94.737	42.209	8.218e-06	106.45	0.00017967	0.00017487	4.7777e-05	840.6	1.906e-06	1.88e-06	1208.7	225.61	1.9307e-06	1.9331e-06	409.56	159.75	78.73	34.417	2.0035e-06	82.934	174.958	-6.820	65.363	-1.750	169.299	29.190	-1.054	3.284	184.959	138.779	2.977	7.958	8.049	12.190	192.951	11.105	-8191	255	
2424.834	1	1	0	0	0.17288	0.050417	0.038522	0.0958	0.039081	0.16885	0.40628	0.077191	0.13826	0.16094	0.12031	0.042199	0.089753	0.15442	0.21465	0.19631	-2.9729	-4.1146	-3.3083	-3.5125	-4.0062	-3.2833	-3.9646	-3.8354	-3.2708	-3.9271	-3.4167	-3.6521	-3.9625	-3.0729	-3.7542	-3.9583	208.473	337.746	83.367	42.511	231.782	72.963	338.348	308.301	281.280	124.553	169.581	268.214	339.730	193.580	294.827	330.788	0.0003686	0.001047	0.00026289	1030.1	5.8485e-06	7.2723e-06	1465.8	271.25	3.0628e-06	8.9753e-06	508.51	195.85	94.915	42.089	4.6646e-06	104.6	0.0001857	0.00018254	4.946e-05	853.59	1.9729e-06	1.9582e-06	1219.7	227.56	1.9313e-06	1.9193e-06	409.36	158.34	78.472	34.253	1.7393e-06	81.77	166.561	85.546	152.267	-1.516	55.247	144.271	-1.146	3.166	152.745	56.587	3.056	7.773	8.301	12.233	144.236	11.226	-8191	255	
2424.930	1	1	0	0	0.12735	0.27648	0.18719	0.22902	0.040846	0.042438	0.2748	0.17234	0.084381	0.10736	0.27532	0.2485	0.11909	0.058011	0.22689	0.20213	-2.65	-3.7062	-3.3979	-3.3896	-3.9417	-3.275	-3.8833	-3.8812	-3.0667	-3.9958	-3.6208	-3.4208	-3.9208	-3.2771	-3.55	-4.1396	163.876	338.923	133.956	-6.217	88.439	104.218	271.620	310.064	60.076	8.720	29.674	304.048	237.859	34.889	254.455	299.405	0.000267	0.0006828	0.00026994	1012.5	3.8471e-06	6.1437e-06	1435.4	267.08	5.6887e-06	4.2965e-06	504.93	196.14	94.764	42.426	5.6118e-06	106.75	0.00016038	0.00015119	4.196e-05	840.97	1.6559e-06	1.6099e-06	1196.8	222.96	1.6188e-06	1.5901e-06	402.45	157.42	77.832	34.183	1.5152e-06	82.731	177.128	41.601	107.247	-1.151	83.750	101.127	-1.027	3.229	38.313	129.814	3.249	8.079	8.129	11.825	109.773	11.332	-8191	255	
2425.026	1	1	0	0	0.18829	0.062985	0.1068	0.12052	0.1022	0.1614	0.30759	0.25984	0.15252	0.095641	0.20286	0.34974	0.086642	0.08154	0.077903	0.11481	-2.8146	-3.8458	-3.4729	-3.2292	-3.8146	-3.4479	-3.8563	-4.0542	-3.1813	-3.7833	-3.6833	-3.3187	-4.0729	-3.4833	-3.5312	-4.2708	54.026	92.901	-2.860	265.387	54.975	322.159	267.604	333.955	292.200	49.214	329.788	-5.824	64.346	321.192	214.839	-12.160	0.00035947	0.0007476	0.00020219	1012.6	5.2553e-06	1.5836e-06	1444.8	268.7	6.4798e-06	2.4145e-06	509.13	197.58	94.888	42.877	8.5962e-07	106.38	0.00013943	0.00012853	3.5628e-05	828.33	1.4028e-06	1.3937e-06	1191.3	222.83	1.4513e-06	1.4469e-06	406.45	158.46	77.961	34.301	1.5574e-06	82.356	167.343	82.489	71.878	-1.618	104.811	10.181	-0.826	3.193	247.248	281.937	3.101	8.145	8.279	12.819	186.536	11.621	-8191	255	
2425.122	1	1	0	0	0.27239	0.17842	0.26428	0.067578	0.20231	0.1603	0.17848	0.12439	0.18317	0.07766	0.13749	0.31069	0.039296	0.2422	0.25623	0.19668	-2.8604	-3.6354	-3.8083	-3.0979	-4.0021	-3.4188	-3.4583	-3.9729	-3.3271	-3.6396	-3.9542	-3.2167	-4.0729	-3.5021	-3.2958	-4.1521	39.865	143.002	88.889	84.524	251.019	50.601	322.556	323.435	321.464	218.034	317.741	245.352	301.500	81.292	-4.905	312.561	0.00038361	0.00083286	0.00024044	1016.4	2.0733e-06	6.8074e-06	1456.1	269.91	5.8282e-06	5.6025e-06	508.57	191.31	92.299	40.91	1.8571e-06	102.04	0.00015341	0.00014989	4.2895e-05	840.96	1.8175e-06	1.8636e-06	1216.4	226.52	2.0728e-06	2.0449e-06	409.07	155.5	76.943	33.431	2.2429e-06	80.283	192.290	79.502	105.659	-1.340	120.959	74.052	-1.210	3.662	157.193	161.047	3.280	7.628	8.221	12.579	80.457	11.573	-8191	255	
2425.218	1	1	0	0	0.15192	0.13639	0.13828	0.29144	0.20366	0.083117	0.17913	0.30614	0.090744	0.25657	0.22715	0.27262	0.32524	0.13342	0.20851	0.052214	-2.8021	-3.8187	-3.9813	-3.2208	-4.0563	-3.6896	-3.5458	-4.0833	-3.2354	-3.6896	-4.0583	-3.2875	-3.9229	-3.7438	-3.4146	-4.1354	128.144	268.504	224.887	274.092	242.794	243.612	296.065	282.439	308.049	133.127	316.824	13.495	21.483	274.997	35.485	271.680	0.00036528	0.00074454	0.00036109	1028.2	7.5283e-06	2.931e-06	1457.6	264.99	5.7964e-06	4.8948e-06	496.48	186.17	90.565	40.578	2.5136e-06	101.96	0.00020247	0.00019793	5.5527e-05	857.97	2.1862e-06	2.1693e-06	1216.5	224.86	2.1986e-06	2.212e-06	402.11	152.9	75.852	33.225	2.1994e-06	79.912	182.447	62.408	89.019	-1.703	183.295	174.912	-0.775	3.197	86.415	296.822	3.351	7.868	8.072	12.388	111.155	11.310	-8191	255	
2425.339	1	1	0	0	0.33715	0.1059	0.017698	0.15534	0.021717	0.17691	0.2611	0.098318	0.056893	0.21415	0.038795	0.071447	0.091079	0.2451	0.21517	0.23401	-2.9083	-3.6521	-3.9208	-3.2542	-3.8917	-3.7042	-3.2833	-3.9875	-3.4479	-3.3667	-4.1604	-3.3271	-3.8875	-3.9271	-3.1792	-4.2375	162.092	56.210	103.553	282.220	329.414	213.310	286.188	337.851	102.998	227.306	199.693	19.626	244.603	331.698	266.480	312.988	0.00037849	0.00083074	0.00013952	1005.6	2.3906e-06	6.8561e-06	1435.8	264.79	4.125e-06	4.3499e-06	495.81	187.95	91.358	40.63	3.5424e-06	101.39	0.00019812	0.00018947	5.2248e-05	841.9	2.0576e-06	2.0989e-06	1203.6	223.63	2.1964e-06	2.2174e-06	403.3	153.54	76.792	33.517	2.357e-06	80.001	181.210	47.717	333.569	-1.618	-6.031	42.552	-1.012	3.407	68.266	91.347	3.207	8.150	8.559	12.275	49.935	11.663	-8191	255	
2425.435	1	1	0	0	0.11451	0.083248	0.15007	0.19904	0.12813	0.20273	0.026635	0.24023	0.11372	0.18925	0.12659	0.19997	0.09869	0.10301	0.19922	0.046687	-3.125	-3.3917	-4.0271	-3.4396	-3.725	-3.8125	-3.3312	-3.9146	-3.4813	-3.2313	-4.2354	-3.3812	-3.6708	-4.0563	-3.1063	-4.1604	129.121	273.448	343.034	283.028	-2.446	14.309	30.592	274.917	84.045	266.267	227.243	-8.087	126.494	311.451	119.595	307.859	0.00053057	0.00050653	6.3223e-05	1018.4	5.745e-06	5.8243e-06	1451.5	266.28	7.6835e-06	1.1271e-06	499.56	188.88	90.647	40.868	1.163e-05	102.07	0.00021408	0.00021031	5.886e-05	856.03	2.2927e-06	2.2688e-06	1213.7	225.24	2.2728e-06	2.2357e-06	404.27	153.89	76.223	33.407	2.1277e-06	80.188	186.706	72.629	9.030	-1.470	131.659	179.928	-0.833	2.987	182.753	40.812	3.214	7.764	8.065	12.529	124.804	11.724	-8191	255	
2425.531	1	1	0	0	0.1164	0.095719	0.19365	0.16555	0.11943	0.076071	0.42553	0.25977	0.22058	0.23085	0.18007	0.25583	0.21382	0.049272	0.042457	0.19224	-3.0958	-3.1417	-4.0896	-3.3833	-3.5667	-4.0104	-3.3229	-3.9083	-3.7167	-3.1979	-4.0979	-3.5458	-3.7146	-3.9229	-3.2188	-3.9208	237.390	19.493	210.064	273.965	-10.028	46.273	279.693	274.792	331.061	21.695	43.618	309.540	279.168	300.269	165.640	341.906	0.00035465	0.00025068	0.00023685	1032	7.8227e-06	5.9292e-06	1449.8	265.25	5.4822e-06	7.254e-06	493.6	187.84	90.714	40.734	1.384e-05	101.96	0.00019197	0.00018388	5.0542e-05	850.41	1.9435e-06	1.9596e-06	1206.2	222.78	1.8742e-06	1.8746e-06	396.94	151.95	75.229	32.912	1.7685e-06	79.233	165.616	170.412	59.970	-1.614	83.802	73.659	-0.555	3.606	195.797	160.946	3.380	8.171	9.035	12.633	170.250	12.130	-8191	255	
2425.626	1	1	0	0	0.07949	0.18624	0.068135	0.16896	0.12334	0.17197	0.32366	0.20514	0.093882	0.18191	0.070142	0.1568	0.027678	0.21435	0.23419	0.2193	-3.5083	-3.0021	-3.9708	-3.5646	-3.3625	-4.175	-3.425	-3.7562	-3.8625	-3.2188	-4.0292	-3.5125	-3.5563	-4.0646	-3.2354	-3.9146	314.382	88.470	178.718	345.091	127.302	212.053	284.090	297.929	202.419	97.793	198.790	270.702	141.901	329.179	112.198	324.639	0.00035148	0.00032159	0.00025186	1007.7	2.6375e-06	7.4276e-06	1436.1	261.69	2.9825e-06	5.3947e-06	484.93	184.11	88.405	39.966	5.0479e-06	100.24	0.00016195	0.00015446	4.1425e-05	826.63	1.6526e-06	1.6467e-06	1183.8	217.21	1.6113e-06	1.6321e-06	388.92	148.38	72.89	32.144	1.5351e-06	77.666	182.260	15.498	167.621	-1.771	215.353	42.446	-0.860	3.610	57.257	124.787	3.511	7.517	8.905	12.722	141.135	11.695	-8191	255	
2425.746	1	1	0	0	0.10185	0.11239	0.14787	0.11669	0.27331	0.18777	0.24848	0.078752	0.028655	0.24386	0.054296	0.37538	0.15693	0.26655	0.073312	0.10544	-3.5438	-3.1354	-3.7917	-3.6688	-3.3563	-4.0583	-3.5021	-3.7167	-3.8229	-3.1458	-4.0125	-3.7542	-3.3521	-4.1479	-3.3833	-3.8396	321.117	215.427	129.732	267.419	10.064	320.601	321.574	219.918	314.428	141.826	313.654	274.149	10.931	296.396	200.902	227.206	0.00030143	0.00078594	0.00010939	1002.9	7.4153e-06	7.3044e-06	1426.4	261.43	5.4299e-06	2.1285e-06	485.4	183.12	87.857	40.028	5.5361e-06	99.614	0.00014488	0.00013829	3.91e-05	825.36	1.5763e-06	1.5755e-06	1186.9	217.74	1.6158e-06	1.6005e-06	391.38	147.95	72.929	32.243	1.6616e-06	77.492	172.550	71.878	22.495	-1.008	171.041	132.808	-0.841	3.727	133.003	86.287	3.425	8.290	8.647	12.656	37.315	11.901	-8191	255	
2425.818	1	1	0	0	0.13728	0.13021	0.10027	0.21808	0.13282	0.073667	0.18917	0.19946	0.025117	0.16635	0.30914	0.29001	0.079885	0.11475	0.084997	0.37286	-3.5583	-3.2917	-3.8542	-3.85	-3.2354	-3.9292	-3.575	-3.6042	-3.9125	-3.3875	-4	-4	-3.2562	-4.0292	-3.4854	-3.5229	38.248	79.295	194.000	136.620	135.024	81.967	276.372	321.546	97.224	79.477	301.503	252.851	22.514	306.638	280.216	324.264	0.00028013	0.00066165	0.00013969	1008.9	5.1072e-06	5.5968e-06	1431.7	263.22	4.2798e-06	5.8596e-06	488.01	180.51	86.887	39.219	9.4286e-07	96.991	0.00015845	0.00014985	4.2998e-05	836.8	1.7653e-06	1.7698e-06	1202.2	221.33	1.8571e-06	1.9188e-06	395.48	147.85	73.103	32.198	2.1415e-06	76.718	172.460	85.368	99.616	-1.524	106.810	160.317	-1.304	2.947	267.078	74.864	3.188	7.795	8.953	12.426	275.579	11.699	-8191	255	
2425.914	1	1	0	0	0.15931	0.066509	0.096955	0.17765	0.18465	0.17662	0.056332	0.18279	0.075446	0.1633	0.040288	0.15959	0.24102	0.093294	0.27004	0.068172	-3.5896	-3.1979	-3.6958	-3.9437	-3.175	-4.0021	-3.6104	-3.4562	-4.0062	-3.2062	-3.6583	-3.95	-3.1167	-4.0188	-3.5583	-3.4604	99.562	69.564	95.610	-3.054	19.293	270.462	238.335	188.549	2.148	336.490	317.728	307.799	13.175	219.298	51.612	192.647	0.00037496	0.00065628	3.4038e-05	1008.5	1.7921e-06	4.0505e-06	1436.1	260.02	1.3266e-06	6.337e-06	478.7	178.35	85.295	37.952	5.6484e-06	95.089	0.00020546	0.00020302	5.6416e-05	845.23	2.2924e-06	2.2592e-06	1201.5	221.18	2.2801e-06	2.2794e-06	390.45	145.03	71.905	31.231	2.3153e-06	74.659	155.707	262.584	192.885	-1.344	118.864	89.153	-1.202	3.255	242.363	125.375	3.271	7.862	8.369	12.605	147.216	12.193	-8191	255	
2426.010	1	1	0	0	0.23017	0.16942	0.18597	0.13996	0.04813	0.10245	0.038485	0.18365	0.13028	0.15421	0.24541	0.061378	0.059779	0.14268	0.10531	0.1443	-3.5833	-3.4292	-3.7687	-4.1813	-3.0667	-3.9146	-3.9854	-3.45	-4.0813	-3.3875	-3.5187	-4.1708	-3.2583	-3.9125	-3.7833	-3.3896	138.445	29.759	164.612	327.159	110.474	200.483	238.432	301.047	229.522	66.776	218.305	53.324	341.788	164.411	183.946	260.359	0.00032502	0.00077987	0.00015557	1003.8	1.7651e-06	2.8263e-06	1434	261.81	3.2715e-06	4.4755e-06	484.03	175.53	84.952	37.326	9.7316e-06	93.177	0.00021584	0.00021116	5.9363e-05	841.86	2.4011e-06	2.334e-06	1200.4	222.36	2.3618e-06	2.3819e-06	393.01	143.39	71.535	30.871	2.3699e-06	73.547	168.982	87.239	93.937	-1.263	112.763	280.057	-0.759	3.917	166.210	16.233	3.577	8.038	8.206	13.069	132.715	11.813	-8191	255	
2426.131	1	1	0	0	0.1907	0.21116	0.07052	0.13113	0.17954	0.16675	0.17154	0.17357	0.088766	0.32101	0.33244	0.10679	0.035957	0.032582	0.18139	0.24608	-3.6271	-3.4708	-3.3667	-3.9625	-3.2333	-4.0542	-4.1833	-3.2833	-3.8479	-3.5021	-3.6	-4.1729	-3.3542	-3.8146	-4.0542	-3.3042	-4.388	166.976	41.642	330.191	261.264	195.416	-7.002	299.909	69.903	123.254	234.401	319.448	197.191	344.230	73.521	304.196	0.00033024	0.00070765	0.00018502	1014	7.3701e-06	5.0087e-06	1441.1	261.47	2.3596e-06	8.2812e-06	479.69	174.08	84.263	36.879	6.1488e-06	91.63	0.00021437	0.00020839	5.8433e-05	845	2.2548e-06	2.2959e-06	1207.6	223.74	2.3889e-06	2.4108e-06	395.93	144.52	72.221	30.897	2.6645e-06	73.57	146.144	31.757	61.890	-1.235	201.405	126.742	-0.522	3.097	219.999	125.316	2.711	8.053	8.473	12.781	129.854	11.737	-8191	255	
2426.227	1	1	0	0	0.15999	0.096797	0.14488	0.091732	0.15111	0.10619	0.068785	0.071011	0.041852	0.24185	0.18083	0.1139	0.17453	0.12276	0.10301	0.19287	-3.5271	-3.4562	-3.3958	-4.0896	-3.1354	-3.6896	-4.2104	-3.15	-3.8833	-3.7208	-3.5167	-4.1292	-3.4646	-3.6688	-4.1104	-3.3396	169.487	71.085	80.544	44.842	266.427	297.370	287.792	292.086	49.830	146.414	6.086	52.631	169.252	292.452	203.726	307.133	0.00024566	0.00033916	8.9637e-05	1000.3	9.9086e-06	1.7891e-06	1435.8	264.43	3.7238e-06	8.2756e-06	483.69	171.37	83.412	36.037	3.3851e-06	89.725	0.00025069	0.00024805	7.0529e-05	856.82	2.8211e-06	2.8424e-06	1219.1	228.73	2.9481e-06	2.9909e-06	401.89	143.43	72.485	30.635	3.224e-06	72.379	156.304	11.834	62.236	-1.034	137.878	166.204	-1.006	3.074	123.624	170.125	3.200	7.689	7.662	12.387	132.218	11.242	-8191	255	
2426.323	1	1	0	0	0.17727	0.12974	0.14511	0.255	0.11907	0.14534	0.11278	0.20299	0.14191	0.29379	0.15655	0.13583	0.034018	0.17338	0.10138	0.089016	-3.5062	-3.7958	-3.2104	-4.1708	-3.5667	-3.4437	-4.0875	-3.2667	-3.8312	-3.8146	-3.1917	-4.1167	-3.4667	-3.5292	-4.1833	-3.4125	125.905	84.911	332.512	292.761	120.089	313.216	344.819	255.352	161.847	251.796	289.498	95.695	147.787	284.670	328.691	95.428	0.00045126	0.00045542	0.00027564	1001.5	9.0315e-06	6.0289e-06	1426.9	266.01	6.3994e-06	4.7767e-06	487.86	169.7	82.312	34.617	7.8244e-06	87.15	0.00030041	0.0002983	8.4917e-05	867.75	3.4832e-06	3.5323e-06	1226.9	233.89	3.6483e-06	3.6898e-06	407.84	143.46	73.545	30.112	3.7391e-06	70.755	173.783	331.696	138.376	-1.887	188.606	171.281	-0.839	2.998	311.205	166.393	3.043	7.542	7.672	12.769	204.022	12.085	-8191	255	
2426.419	1	1	0	0	0.27138	0.3169	0.14648	0.15755	0.19689	0.051157	0.093957	0.059318	0.17338	0.1936	0.045887	0.12961	0.050265	0.072888	0.19305	0.081946	-3.2708	-3.7208	-3.1958	-4.0563	-3.7	-3.3458	-4.25	-3.4542	-3.8292	-4.0458	-3.4313	-4.1042	-3.7667	-3.3521	-4.0542	-3.5354	314.949	149.730	10.238	62.313	251.893	80.933	248.805	278.828	215.054	109.914	192.451	251.878	100.115	336.188	113.278	325.763	0.00033087	0.00065729	0.00053336	1003.7	1.0878e-05	9.0812e-06	1434.5	268.67	2.8757e-06	5.6427e-06	483.23	169.09	82.243	34.079	8.7073e-06	87.337	0.00033493	0.00033381	9.2302e-05	873.25	3.6708e-06	3.6127e-06	1225.9	234.33	3.5996e-06	3.5858e-06	404.95	142.67	72.821	29.721	3.4198e-06	70.842	144.960	119.948	123.685	-1.648	29.075	133.168	-0.897	2.484	163.731	114.370	2.705	7.946	7.666	12.726	120.249	11.840	-8191	255	
2426.516	1	1	0	0	0.12059	0.11403	0.077834	0.24444	0.16503	0.13609	0.070731	0.068655	0.20764	0.25112	0.17332	0.19265	0.094488	0.21751	0.11421	0.21414	-3.2667	-3.8688	-3.1958	-4.0333	-3.7625	-3.4813	-4.1813	-3.4667	-3.5896	-4.1083	-3.1188	-3.9417	-3.7979	-3.1667	-3.9167	-3.65	221.402	243.122	306.353	291.193	227.185	254.749	257.111	106.040	328.326	329.442	343.448	282.296	309.519	308.003	32.073	318.899	0.00041937	0.00033846	0.00017906	1003.5	2.7536e-06	4.2347e-06	1438.5	263.31	4.582e-06	3.7852e-06	482.4	171.75	81.887	35.017	5.9993e-06	89.112	0.00029896	0.00029133	7.9141e-05	857.73	3.0613e-06	3.0208e-06	1210.2	225.39	2.9094e-06	2.8989e-06	395.28	141.32	70.74	29.741	2.8505e-06	70.882	168.700	57.898	335.432	-1.295	156.819	51.187	-0.713	2.934	24.826	197.026	2.843	7.873	8.067	12.650	145.001	11.845	-8191	255	
2426.612	1	1	0	0	0.03593	0.1517	0.22946	0.13828	0.28174	0.15537	0.34668	0.24731	0.17274	0.14393	0.059345	0.19173	0.1003	0.26498	0.085496	0.29395	-3.0604	-3.9958	-3.2083	-3.6479	-3.7708	-3.2125	-4.2125	-3.4917	-3.4062	-4.0104	-3.4104	-3.6917	-3.8292	-3.0542	-3.9333	-3.8396	277.124	134.849	325.022	60.159	190.769	128.869	342.003	234.811	230.942	275.850	82.338	331.246	149.368	211.059	97.602	274.882	0.00016024	0.00069369	3.4172e-05	1011.7	1.5317e-06	1.1033e-05	1432.3	265	1.0195e-05	4.0805e-06	484.96	169.84	83.61	34.423	5.1983e-06	86.54	0.00025389	0.00024719	6.8655e-05	849.09	2.7325e-06	2.7235e-06	1208.3	226.89	2.9095e-06	3.0104e-06	401	141.6	72.79	29.664	3.6029e-06	69.796	173.384	95.298	50.427	-1.087	195.624	90.998	-1.089	2.425	140.150	148.798	2.544	7.019	7.649	12.814	135.597	11.317	-8191	255	
2426.708	1	1	0	0	0.19345	0.096889	0.10299	0.23262	0.030183	0.23328	0.29727	0.18131	0.077377	0.093827	0.2388	0.23251	0.028421	0.06318	0.21206	0.20366	-3.075	-4.0896	-3.2521	-3.6437	-3.8542	-3.4	-4.15	-3.6646	-3.1937	-3.8708	-3.5479	-3.6333	-3.9896	-3.2583	-3.8542	-3.7646	224.293	15.650	178.758	46.305	236.613	200.163	297.738	326.786	129.486	123.869	241.455	239.400	133.557	297.050	196.526	320.968	0.00030372	0.0011707	4.1782e-05	1014.1	2.6758e-06	7.4249e-06	1450.9	271.12	3.4459e-06	6.0003e-06	494.01	169.63	84.274	34.28	4.7156e-06	86.776	0.00033989	0.00034233	9.5564e-05	877.11	3.7734e-06	3.8178e-06	1235.9	237.46	3.9514e-06	3.8962e-06	411.91	143.66	74.603	29.614	3.7919e-06	70.151	183.985	7.584	-12.512	-1.747	85.658	121.085	-1.037	2.627	52.290	80.429	2.873	7.438	6.997	12.617	276.358	11.914	-8191	255	
2426.827	1	1	0	0	0.21061	0.086607	0.083791	0.11136	0.12049	0.32235	0.15283	0.15832	0.18338	0.22179	0.087602	0.18241	0.13869	0.15683	0.1101	0.081411	-2.7333	-4	-3.2708	-3.6333	-4.0292	-3.1396	-4.1188	-4.0417	-3.3292	-4.0979	-3.6833	-3.5875	-4.1875	-3.3479	-3.7458	-3.9333	221.464	259.703	51.070	-13.759	123.471	69.568	274.750	336.713	151.100	212.556	198.460	326.976	-3.463	118.211	-5.642	208.814	0.00039284	0.00048502	0.0001471	1006.5	5.3154e-06	6.8476e-06	1468.2	268.74	8.5675e-06	3.6136e-06	492.34	172.3	83.351	34.806	9.606e-06	88.042	0.00034888	0.00034059	9.4845e-05	873	3.8122e-06	3.8122e-06	1239.5	235.58	3.9063e-06	4.0544e-06	413.82	145.62	74.721	30.284	3.9508e-06	71.53	159.396	81.208	129.612	-1.512	166.534	27.844	-0.586	2.716	157.218	331.490	2.496	7.529	7.406	12.374	75.021	11.885	-8191	255	
2426.923	1	1	0	0	0.15405	0.1974	0.079971	0.087216	0.088246	0.13697	0.48971	0.10636	0.081541	0.066813	0.17908	0.20068	0.26416	0.12673	0.10418	0.22318	-2.95	-4.0896	-3.5521	-3.3771	-3.9917	-3.3937	-3.7354	-3.7958	-3.2021	-3.9833	-3.6167	-3.4271	-4.0604	-3.3312	-3.4854	-4.0646	134.542	231.411	-4.099	13.590	17.518	216.089	284.509	13.246	237.243	37.840	336.501	255.446	111.166	62.990	213.183	316.323	0.00039678	0.00085877	0.00037406	1029.3	1.3966e-05	1.256e-05	1461.8	273.07	6.5062e-06	8.9209e-06	494.52	170.53	84.472	34.671	1.881e-05	87.217	0.0003593	0.00036062	0.00010426	895.59	4.2443e-06	4.3049e-06	1251.4	241.84	4.4441e-06	4.5144e-06	419.7	146.21	76.719	30.713	4.7307e-06	71.585	169.714	71.544	206.419	-0.844	194.434	92.871	-0.744	2.534	288.455	131.007	2.386	7.613	7.106	12.847	174.766	11.289	-8191	255	
2427.019	1	1	0	0	0.28172	0.059814	0.11153	0.066069	0.20147	0.056	0.13771	0.28482	0.27031	0.26878	0.10549	0.072322	0.14835	0.16539	0.078111	0.075937	-2.8688	-4.0146	-3.7104	-3.2958	-4.1292	-3.4146	-3.7229	-3.9417	-3.3042	-3.9562	-3.8521	-3.4	-4.1375	-3.5604	-3.4437	-4.2625	309.528	314.834	35.444	-5.850	123.209	257.530	11.559	316.025	46.855	92.661	239.044	285.210	33.151	0.451	255.136	308.115	0.00030519	0.00031875	0.00017806	1031.8	4.0977e-06	4.7182e-06	1467.4	278.84	8.8014e-06	7.199e-06	504.26	174.59	85.808	35.011	6.5709e-06	89.161	0.00044031	0.00045535	0.00013214	926.04	5.8466e-06	6.0101e-06	1290.1	256.91	6.6429e-06	6.9101e-06	449.92	156.51	85.031	33.942	7.6217e-06	76.948	135.127	18.736	119.380	-1.494	299.870	45.303	-0.493	2.615	196.213	261.563	2.614	7.628	7.338	12.558	141.365	11.582	-8191	255	
2427.115	1	1	0	0	0.17089	0.17652	0.21457	0.21953	0.064827	0.17484	0.24906	0.11195	0.16948	0.21442	0.13201	0.16866	0.043238	0.12881	0.078459	0.24704	-2.9604	-3.8063	-3.9667	-3.125	-3.9896	-3.4771	-3.7083	-4.0917	-3.2521	-3.7917	-4.0604	-3.4396	-4	-3.6562	-3.4813	-4.1729	53.297	209.041	93.301	303.479	97.015	257.162	259.149	233.584	278.704	332.402	297.951	259.580	318.651	37.368	98.856	257.767	0.00047607	0.00066363	0.0003552	1038.1	6.5227e-06	1.0651e-05	1486.4	283.7	3.1661e-06	4.964e-06	509.75	175.8	88.596	36.174	1.0625e-05	90.958	0.00068067	0.00068708	0.00019311	982.35	7.6052e-06	7.9744e-06	1332	271.93	8.6093e-06	8.7869e-06	469	162.9	91.566	36.635	9.8443e-06	81.02	169.921	91.039	60.308	-1.395	150.826	5.651	-1.218	2.237	281.393	103.790	2.034	7.175	7.665	12.266	-14.420	11.152	-8191	255	
2427.211	1	1	0	0	0.1178	0.11114	0.22436	0.40095	0.13036	0.16916	0.12415	0.078402	0.064728	0.12992	0.12417	0.25098	0.15579	0.084471	0.17817	0.15777	-2.9771	-3.7687	-3.8833	-3.3292	-3.9542	-3.5854	-3.4896	-4.0396	-3.2979	-3.5958	-4.1854	-3.275	-3.8167	-3.8333	-3.3729	-4.2188	74.692	240.948	-5.397	313.243	191.364	316.327	295.890	152.374	82.448	41.925	242.411	269.616	17.395	51.441	66.070	302.817	0.00042294	0.00036481	0.00044124	1069.7	1.2222e-05	1.0366e-05	1521	302.63	1.467e-05	1.1366e-05	529.43	180.04	91.98	35.871	1.5026e-05	89.201	0.00087759	0.00090322	0.00025329	1050.4	1.0204e-05	1.0599e-05	1400.5	299.51	1.0999e-05	1.1206e-05	503.76	171.18	97.835	37.841	1.113e-05	81.713	202.512	125.236	111.686	-1.481	214.340	330.214	-0.911	1.778	25.784	74.730	1.412	6.255	6.554	12.279	215.387	11.486	-8191	255	
2427.307	1	1	0	0	0.096849	0.094023	0.10552	0.16719	0.21007	0.10106	0.23548	0.068388	0.19105	0.06659	0.26395	0.11593	0.19819	0.30773	0.13515	0.35853	-2.9292	-3.5687	-4.0813	-3.2313	-4.0208	-3.7917	-3.4729	-4.0625	-3.5479	-3.425	-4.0917	-3.4938	-3.95	-3.8354	-3.1479	-4.1021	321.472	93.126	158.354	289.319	130.280	327.039	228.766	-5.934	176.118	-2.373	342.152	273.722	263.249	288.262	199.435	322.095	0.00026015	0.0014196	0.00072857	1048.2	1.2102e-06	5.5604e-06	1504.1	299.16	4.8667e-06	1.6259e-05	521.95	176	91.348	35.884	1.319e-05	89.973	0.00097294	0.00098122	0.0002735	1058.1	1.0945e-05	1.1069e-05	1395.3	298.43	1.1365e-05	1.1571e-05	500.87	170.7	99.048	38.739	1.2384e-05	83.947	108.026	325.530	176.972	-1.377	5.796	312.638	-0.863	1.972	55.770	119.500	1.783	6.921	7.120	12.410	76.953	11.567	-8191	255	
2427.428	1	1	0	0	0.31922	0.20655	0.14562	0.23297	0.066433	0.10629	0.32544	0.21916	0.20161	0.14599	0.22403	0.18863	0.06476	0.3275	0.16508	0.16503	-3.075	-3.425	-4.25	-3.4104	-3.7146	-3.8125	-3.4833	-3.9875	-3.6312	-3.4	-4.3208	-3.6437	-3.7521	-4.0062	-3.1437	-4.175	263.145	233.358	252.868	-1.178	195.035	221.105	282.505	329.961	38.925	270.965	-13.916	294.663	252.136	-14.770	-14.715	292.594	0.00045453	0.00026987	0.00057867	1083.6	1.9936e-05	1.917e-05	1528.9	305.77	1.0712e-05	9.2754e-06	538.62	178.97	91.839	36.712	6.4835e-06	90.986	0.0011453	0.001176	0.00032998	1127.3	1.3629e-05	1.3958e-05	1460.4	320.27	1.4489e-05	1.4794e-05	536.88	182.15	107.02	41.855	1.4869e-05	87.883	224.083	23.555	82.727	-1.194	123.208	53.795	-1.211	1.476	69.223	114.380	1.529	6.838	6.915	12.189	40.078	11.432	-8191	255	
2427.522	1	1	0	0	0.33278	0.028745	0.070864	0.21766	0.1072	0.06794	0.23439	0.3013	0.15265	0.092297	0.36528	0.18054	0.33098	0.23786	0.045218	0.16443	-3.3417	-3.0979	-4.0979	-3.55	-3.6312	-3.9062	-3.4875	-4.0771	-3.7521	-3.2729	-4.2583	-3.6583	-3.5521	-4.2562	-3.2708	-4	209.943	19.635	203.543	-9.764	63.052	145.172	288.691	248.630	129.297	214.202	310.448	243.556	329.146	-5.316	271.639	311.869	0.00044127	0.00023632	0.00048652	1081.4	1.8392e-05	1.8482e-05	1522	300.52	1.8483e-05	8.6498e-06	535.25	180.33	92.055	36.611	8.5177e-07	91.396	0.001323	0.0013433	0.00037008	1154.7	1.4793e-05	1.476e-05	1461	319.72	1.5091e-05	1.517e-05	537.73	182.01	106.93	42.046	1.5041e-05	88.589	171.256	65.822	163.776	-1.199	122.375	112.532	-0.806	2.276	139.823	252.914	2.073	7.311	7.354	12.723	60.930	12.037	-8191	255	
2427.619	1	1	0	0	0.43182	0.14676	0.076291	0.12576	0.10876	0.17394	0.20054	0.1291	0.12939	0.22438	0.23734	0.17779	0.20251	0.13423	0.17117	0.30024	-3.3104	-3.2083	-4.0854	-3.5375	-3.4292	-4.0646	-3.2729	-4.0396	-3.9125	-3.3312	-4.1708	-3.6479	-3.6	-4.2812	-3.2167	-3.7396	222.989	277.244	236.204	341.386	41.435	48.824	281.907	277.186	306.392	139.010	282.910	304.136	290.825	24.964	-12.502	310.871	0.00032414	0.00055925	0.00032476	1075.9	1.4734e-05	2.4223e-05	1501	300.26	1.303e-05	9.4975e-06	520.25	174.81	88.374	35.701	1.4903e-05	89.047	0.0013516	0.0013625	0.00038157	1161.2	1.5267e-05	1.5391e-05	1463.3	322.61	1.5373e-05	1.5367e-05	532.06	179.93	104.19	40.861	1.3655e-05	84.375	245.777	207.699	183.994	-1.685	79.247	143.265	-1.034	1.713	56.442	214.250	1.540	6.741	6.755	12.117	107.640	11.387	-8191	255	
2427.692	1	1	0	0	0.1018	0.18816	0.16154	0.18261	0.13635	0.092493	0.12186	0.22066	0.15875	0.11824	0.078629	0.28827	0.24578	0.084049	0.18895	0.319	-3.4229	-3.3646	-3.9917	-3.7083	-3.2542	-4.0625	-3.525	-3.6104	-3.9292	-3.3458	-4.0833	-3.7833	-3.4437	-4.2167	-3.4313	-3.6646	185.952	172.054	87.354	251.340	259.341	227.735	279.913	190.912	255.185	117.963	147.545	324.740	288.355	317.275	79.021	101.082	0.00044678	0.0010783	0.00032715	1018.8	1.9266e-05	6.5279e-06	1427.9	270.15	7.493e-06	7.4663e-06	478.21	168.64	81.947	35.196	7.2425e-06	89.204	0.0010725	0.0010382	0.00027654	1027.2	1.0165e-05	9.7903e-06	1319.7	265.78	8.8408e-06	8.5989e-06	442.48	155.5	83.433	34.528	7.821e-06	77.734	162.054	309.215	262.754	-1.979	154.693	229.384	-1.297	2.135	163.236	177.919	2.032	6.946	7.192	11.683	95.394	11.257	-8191	255	
2427.811	1	1	0	0	0.13537	0.24211	0.081859	0.20679	0.11638	0.063742	0.47332	0.19023	0.20882	0.12614	0.12265	0.14658	0.090524	0.14175	0.013641	0.23579	-3.5563	-3.45	-3.7562	-3.7188	-3.1	-4.0208	-3.5104	-3.4917	-4.175	-3.2292	-3.9896	-4.0354	-3.1688	-3.9958	-3.65	-3.5104	66.673	253.911	153.822	334.294	167.659	17.080	268.365	218.042	112.578	228.050	313.876	251.744	225.197	12.627	188.695	26.059	9.3862e-05	6.3012e-05	0.00036209	1001.4	1.7926e-05	1.054e-05	1418.5	267.99	9.541e-06	7.4863e-06	477.34	168.11	82.095	35.313	8.3068e-06	89.022	0.00067885	0.00066304	0.00018389	945.53	7.1846e-06	7.1333e-06	1274.7	252.85	7.2791e-06	7.2532e-06	434.29	152.89	81.896	33.886	7.2222e-06	77.203	180.483	126.741	326.766	-1.922	72.030	179.204	-1.652	1.853	307.618	55.803	2.352	7.053	6.681	12.384	150.385	11.271	-8191	255	
2427.907	1	1	0	0	0.0059557	0.16725	0.21415	0.22706	0.17275	0.093604	0.28956	0.15845	0.085769	0.11246	0.12585	0.26016	0.056552	0.093636	0.11533	0.0958	-3.6167	-3.2646	-3.7792	-4.0354	-3.1979	-3.9458	-3.9208	-3.2646	-4.1083	-3.3604	-3.7188	-3.9229	-3.2417	-3.825	-3.6708	-3.6042	128.372	45.414	262.952	335.773	182.000	205.602	317.167	269.325	228.767	126.665	280.802	281.055	36.591	331.333	15.082	267.211	0.00042124	0.0007257	0.00043309	998.49	1.3551e-05	1.8492e-05	1421.6	260.35	5.8197e-06	8.0345e-06	478.97	168.88	81.05	35.744	9.6291e-06	90.715	0.00063724	0.00062654	0.00017447	935.18	6.5651e-06	6.4528e-06	1264.1	245.38	6.3435e-06	6.2649e-06	422.17	150.29	78.042	33.242	5.8793e-06	76.634	162.524	29.333	116.509	-2.105	150.229	116.604	-1.416	2.537	334.454	245.996	2.187	7.044	7.807	12.093	109.544	11.505	-8191	255	
2428.003	1	1	0	0	0.23023	0.2723	0.36059	0.21594	0.13209	0.15901	0.25222	0.20837	0.077645	0.21045	0.2085	0.17683	0.15891	0.21941	0.12648	0.22699	-3.5958	-3.2812	-3.55	-3.9875	-3.3542	-3.9417	-3.8833	-3.2917	-4.0083	-3.4521	-3.6854	-4.2125	-3.3438	-3.8688	-3.7667	-3.2396	204.680	133.318	267.910	7.682	25.302	193.089	319.704	253.184	270.503	166.801	1.241	298.986	147.182	340.835	48.435	211.357	5.6795e-06	0.0012974	0.00042821	994.03	4.357e-06	4.996e-06	1392.1	255.18	6.1201e-06	1.8783e-06	467.63	171.8	82.361	37.021	1.5095e-05	93.985	0.00051019	0.00050739	0.00013965	902.32	5.4598e-06	5.4575e-06	1225.1	233.13	5.3783e-06	5.41e-06	406.96	149.93	77.162	33.377	5.2374e-06	77.811	217.561	44.660	115.413	-1.779	-5.849	158.479	-1.403	2.827	182.406	318.046	2.714	7.313	7.960	12.815	145.515	11.727	-8191	255	
2428.099	1	1	0	0	0.14903	0.12908	0.24961	0.22841	0.35484	0.25469	0.31468	0.051953	0.15527	0.1705	0.13299	0.48747	0.19251	0.14569	0.056831	0.12534	-3.6146	-3.3771	-3.2938	-4.0771	-3.2292	-3.7292	-4.0604	-3.3167	-3.9313	-3.4792	-3.5333	-4.1875	-3.2229	-3.7562	-3.8958	-3.4208	82.643	23.221	312.866	323.900	17.302	309.173	219.303	196.151	310.533	61.902	336.129	-12.135	50.464	41.495	55.900	35.490	0.00035987	0.00093674	0.00039025	995.4	1.2729e-06	2.3256e-06	1427.7	257.79	8.6647e-06	1.3268e-05	481.2	176.1	84.396	37.906	9.2812e-06	95.598	0.00046991	0.00047151	0.00013204	893.32	5.2031e-06	5.2456e-06	1230.7	232.71	5.2611e-06	5.1851e-06	407.72	150.7	77.038	33.426	4.854e-06	77.65	178.911	275.274	116.582	-1.263	235.838	-3.134	-1.004	3.702	23.776	58.973	3.318	8.098	8.328	13.181	239.322	12.080	-8191	255	
2428.220	1	1	0	0	0.18672	0.19703	0.12452	0.079432	0.24403	0.052583	0.13047	0.12293	0.10368	0.26062	0.26425	0.27715	0.064549	0.09388	0.080633	0.2774	-3.675	-3.6125	-3.4458	-4.1708	-3.0896	-3.525	-4.1125	-3.2125	-3.8021	-3.7521	-3.2271	-4.125	-3.4875	-3.5812	-3.9292	-3.4062	214.865	125.971	181.862	295.042	24.290	89.774	281.929	319.671	307.063	286.747	-0.999	318.591	297.657	345.420	79.258	38.525	0.00026393	0.00079095	9.831e-05	1000.9	6.428e-06	1.0385e-05	1437.8	260.37	3.245e-06	5.1294e-06	484.17	181.3	85.784	38.643	1.4375e-05	96.906	0.00040645	0.0004009	0.00010911	878.58	4.2168e-06	4.1671e-06	1221	228.44	4.1942e-06	4.2652e-06	404	151.13	76.604	33.407	4.369e-06	78.053	170.951	120.904	93.473	-0.722	251.795	221.059	-0.676	3.587	188.666	194.059	3.681	8.229	8.698	12.844	167.725	12.109	-8191	255	
2428.292	1	1	0	0	0.13488	0.28417	0.047683	0.35054	0.18668	0.19126	0.13528	0.20129	0.14242	0.089202	0.19208	0.15555	0.13839	0.1937	0.14919	0.19612	-3.45	-3.6979	-3.2375	-4.0604	-3.4583	-3.2792	-4.0708	-3.4208	-3.7479	-3.7812	-3.3125	-4.1937	-3.4625	-3.5229	-4.0833	-3.4375	308.013	187.620	221.087	300.651	128.513	236.622	254.248	-10.968	298.565	141.085	334.343	39.358	-4.694	320.310	54.996	294.365	0.00031398	0.00075606	0.00011645	1010.2	7.5475e-06	5.2163e-06	1420.1	257.46	4.9732e-06	3.0605e-06	475.89	181.05	86.847	39.33	1.2597e-05	99.102	0.0004002	0.00039942	0.00011078	880.65	4.3171e-06	4.2384e-06	1206.9	226.23	4.2005e-06	4.0801e-06	396.55	151.76	76.411	33.527	3.9105e-06	79.108	157.089	62.263	50.509	-0.921	98.118	278.195	-0.764	3.829	336.328	100.493	3.738	8.396	8.264	12.824	81.861	12.256	-8191	255	
2428.388	1	1	0	0	0.19453	0.10751	0.15194	0.12077	0.11641	0.27603	0.14075	0.17114	0.12778	0.080227	0.13466	0.075208	0.24602	0.20438	0.058024	0.1444	-3.2021	-3.8646	-3.2729	-4.1417	-3.4917	-3.4083	-4.3375	-3.2938	-3.6875	-3.9854	-3.2958	-4.1104	-3.6688	-3.3271	-3.9792	-3.625	61.505	205.401	114.837	319.655	0.233	136.683	295.074	7.393	183.741	60.119	227.597	338.332	221.851	-7.833	190.864	329.472	0.00031906	0.0001131	0.00024629	1012.6	1.2229e-05	7.0017e-06	1414.1	257.61	4.9738e-06	1.4702e-05	475.07	179.24	86.529	38.477	3.797e-06	96.63	0.00035685	0.00035496	0.0001012	866.63	4.0387e-06	4.1257e-06	1203.8	227.07	4.2918e-06	4.3463e-06	401.04	151.55	76.981	33.479	4.4303e-06	78.099	166.078	196.663	124.862	-0.802	156.139	279.645	-0.620	3.630	288.876	115.311	3.916	8.181	8.955	13.234	177.366	11.946	-8191	255	
2428.508	1	1	0	0	0.24905	0.25804	0.17817	0.17153	0.23103	0.25915	0.10486	0.32935	0.10518	0.28919	0.16348	0.10162	0.092799	0.12192	0.15604	0.23295	-3.1417	-4.0896	-3.2125	-3.8729	-3.5896	-3.3229	-4.1813	-3.4396	-3.4688	-3.9813	-3.3833	-3.775	-3.8708	-3.2687	-4.125	-3.5875	64.350	97.680	13.841	-9.784	134.195	43.217	317.996	314.293	50.823	89.046	-10.133	182.445	57.513	128.833	16.750	202.190	0.00012206	0.00055534	0.00021819	1008.3	9.4573e-06	6.3955e-06	1431.5	259.78	5.5058e-06	4.4646e-06	480.65	181.14	86.486	38.666	1.2508e-06	96.897	0.00039529	0.0003953	0.0001085	875.98	4.3029e-06	4.3699e-06	1216.1	228.86	4.4198e-06	4.4436e-06	404.54	152.41	77.604	33.79	4.6969e-06	78.837	194.614	43.484	267.317	-1.375	97.646	84.634	-0.431	3.420	173.076	218.905	3.399	8.703	8.892	13.241	207.078	12.006	-8191	255	
2428.603	1	1	0	0	0.20124	0.26817	0.15886	0.059727	0.23781	0.14411	0.23391	0.092253	0.08236	0.044677	0.12153	0.062425	0.15296	0.12361	0.0065742	0.28875	-3.0438	-3.9708	-3.1292	-3.8667	-3.9375	-3.3979	-4.275	-3.5958	-3.2896	-4.1	-3.3708	-3.7542	-3.7938	-3.3438	-3.925	-3.7271	232.104	33.268	153.997	-6.690	338.446	93.320	303.435	221.005	67.100	199.792	248.559	229.646	280.884	288.840	93.848	312.486	0.00031349	0.00017335	0.0001636	1017.8	8.5678e-06	6.6728e-07	1430.8	263.48	1.8196e-06	1.0203e-05	480.71	179.66	86.131	38.732	7.7993e-06	97.499	0.00043644	0.00043987	0.00012394	898.14	4.9829e-06	5.0734e-06	1230.6	234.61	5.1496e-06	5.1379e-06	410.28	153.85	78.887	34.244	5.2204e-06	79.526	231.518	113.532	-10.490	-0.702	127.347	151.816	-0.309	3.256	181.065	72.066	3.482	8.448	9.257	12.962	96.809	12.164	-8191	255	
2428.701	1	1	0	0	0.18765	0.17151	0.21355	0.33211	0.061139	0.14861	0.065074	0.22949	0.30309	0.079485	0.18894	0.23095	0.22887	0.11583	0.06862	0.27751	-2.8646	-3.9542	-3.2646	-3.7958	-3.9542	-3.2396	-3.9896	-3.7438	-3.2417	-4.1125	-3.4646	-3.7604	-4.0229	-3.2333	-3.8563	-3.8083	87.026	84.552	181.255	328.699	-5.934	182.948	319.496	254.773	169.701	180.091	332.044	273.229	22.347	338.339	206.131	171.588	0.00036042	0.00094805	9.7827e-05	1002	1.9196e-06	4.4614e-06	1415.5	258.93	9.113e-06	6.6871e-06	477.54	180.08	84.936	38.068	8.4856e-06	95.423	0.00047211	0.00047496	0.00013475	898.25	5.5634e-06	5.5675e-06	1232.4	235.22	5.8451e-06	5.8434e-06	413.15	155.15	79.637	34.296	5.6939e-06	78.521	169.455	277.349	108.326	-1.011	128.835	9.010	-0.272	3.886	196.133	170.183	3.261	8.467	8.965	13.129	136.452	12.133	-8191	255	
2428.820	1	1	0	0	0.14144	0.020947	0.093078	0.26741	0.049341	0.11007	0.161	0.05606	0.067178	0.20776	0.098677	0.094655	0.10701	0.24751	0.18126	0.30792	-2.85	-4.0833	-3.3771	-3.6479	-4.0271	-3.2583	-4	-3.8833	-3.3396	-4.1	-3.5062	-3.4729	-4.0625	-3.3583	-3.6354	-3.9458	212.973	127.778	250.533	337.429	199.642	111.304	257.350	225.800	-13.102	133.404	289.425	309.679	81.458	291.218	263.444	337.017	0.00031763	0.00074777	0.00030673	1007.9	1.1088e-05	3.7674e-06	1430.3	260.57	4.5699e-06	1.7999e-05	480.07	177.04	84.27	37.159	8.8474e-06	93.264	0.00050975	0.00050568	0.00014422	903.88	5.709e-06	5.7532e-06	1239.9	238.36	5.8171e-06	5.8067e-06	413.56	152.49	78.368	33.603	5.718e-06	77.633	209.486	59.968	86.872	-0.316	-6.775	165.601	-0.635	3.412	168.540	49.188	3.264	8.530	9.198	13.293	163.902	11.908	-8191	255	
2428.916	1	1	0	0	0.069913	0.21551	0.084905	0.26926	0.10485	0.096706	0.082679	0.11133	0.055947	0.15385	0.038817	0.26698	0.15792	0.099397	0.081342	0.068197	-2.6188	-3.9458	-3.425	-3.4146	-4.0563	-3.4771	-3.8042	-3.9479	-2.975	-3.9354	-3.6625	-3.2125	-4.0042	-3.2667	-3.4333	-4.1125	43.929	234.053	280.580	205.976	35.033	113.561	154.123	314.786	12.830	252.383	197.929	315.994	205.659	102.201	141.761	25.599	0.00058703	0.00096452	0.00019	1016.1	1.5989e-05	1.5606e-05	1440.1	261.94	7.5378e-06	6.8307e-06	481.12	177.59	83.377	36.933	6.7428e-06	94.4	0.00051052	0.00051525	0.00014504	909.37	5.594e-06	5.6909e-06	1245.5	238.81	5.8418e-06	5.9226e-06	417.22	154.1	79.693	34.326	6.5659e-06	79.053	176.356	133.766	78.802	-0.867	104.415	129.063	-0.572	3.111	157.347	71.158	3.039	7.982	8.330	12.974	100.058	11.614	-8191	255	
2428.987	1	1	0	0	0.074072	0.14363	0.088613	0.32966	0.16434	0.21116	0.07047	0.19688	0.30271	0.17221	0.09605	0.093704	0.20444	0.0085901	0.024844	0.12858	-2.8604	-3.7917	-3.7792	-3.3438	-3.9104	-3.2938	-3.7562	-4.0062	-3.1917	-3.7625	-3.9292	-3.4521	-3.9646	-3.3	-3.3854	-4.1958	232.570	259.231	244.262	212.078	154.298	331.295	240.042	319.768	244.836	245.453	341.294	219.587	200.355	163.867	332.536	64.076	0.00022702	0.00058917	0.00040922	1008.6	1.2419e-05	5.6208e-06	1433.2	262.64	4.7226e-06	1.3892e-05	477.62	172.71	81.83	35.885	1.2566e-06	90.954	0.00060532	0.00061157	0.00017404	932.2	6.956e-06	7.0616e-06	1261.6	245.62	7.1812e-06	7.2394e-06	424.39	153.41	80.727	34.112	7.364e-06	77.511	211.145	340.168	100.283	-1.166	5.771	207.350	-0.740	2.769	184.932	90.276	2.774	7.784	8.118	12.923	-0.545	11.716	-8191	255	
2429.108	1	1	0	0	0.1622	0.12058	0.26858	0.11976	0.15726	0.1522	0.096738	0.12056	0.15435	0.073715	0.091225	0.20822	0.16096	0.12392	0.047793	0.22281	-2.7833	-3.5438	-3.7896	-3.3083	-4.0437	-3.5167	-3.5938	-4.1271	-3.05	-3.7542	-3.9521	-3.3479	-3.8583	-3.6708	-3.3125	-4.0417	188.411	223.184	77.828	2.564	116.541	305.874	263.701	304.537	239.451	324.704	238.206	27.104	120.481	153.539	58.689	308.013	0.00036682	0.00045246	0.00045469	1012.5	9.3883e-06	1.747e-05	1433	267.86	1.3646e-05	6.9021e-06	483.81	167	81.581	35.143	4.7337e-06	89.047	0.00065892	0.00066935	0.00018555	940.02	7.4352e-06	7.5456e-06	1272.3	252.75	7.5654e-06	7.558e-06	434.47	151.39	80.986	33.582	7.3665e-06	76.106	151.605	63.419	161.542	-1.165	154.378	125.966	-0.668	2.543	127.943	208.222	2.725	7.660	7.651	12.374	92.311	11.865	-8191	255	
2429.204	1	1	0	0	0.20642	0.10267	0.18086	0.26208	0.16772	0.032335	0.17062	0.47043	0.12047	0.042425	0.16172	0.25884	0.30902	0.11393	0.18039	0.21552	-2.8354	-3.6646	-3.8187	-3.2062	-3.8979	-3.7729	-3.4271	-4.0167	-3.4854	-3.6813	-4.0167	-3.2583	-3.8854	-3.6437	-3.4396	-4.2	190.237	177.524	36.062	39.954	242.127	174.130	324.263	261.304	143.024	292.680	332.152	265.400	196.265	319.332	332.451	274.442	0.00039463	0.0012818	0.00056532	1014.9	6.6517e-06	7.8377e-06	1442	267.73	3.4595e-06	5.4096e-06	482.12	170.21	81.747	35.687	1.4068e-05	91.856	0.00064054	0.000637	0.00017778	934.56	7.0748e-06	6.9764e-06	1269.4	249.05	7.0975e-06	7.1276e-06	429.14	151.49	79.825	33.824	7.1606e-06	77.513	167.429	203.697	117.291	-1.446	183.603	337.710	-0.644	3.173	340.218	22.436	3.077	7.882	8.585	13.014	108.942	12.221	-8191	255	
2429.300	1	1	0	0	0.073912	0.23624	0.13399	0.17897	0.060654	0.082893	0.23375	0.26932	0.030171	0.32938	0.0061545	0.17009	0.00099801	0.16472	0.13847	0.077633	-3.025	-3.5667	-4.0771	-3.2896	-3.7188	-3.9167	-3.4792	-3.9458	-3.4583	-3.4562	-4.0292	-3.3	-3.7104	-3.8937	-3.3042	-4.1146	59.975	273.723	142.919	335.705	170.645	21.084	198.563	315.174	260.280	280.824	3.484	225.684	180.000	285.378	330.698	45.849	0.00049097	0.00040012	0.00022081	1019.6	8.8796e-06	6.5357e-06	1431.7	261.95	5.8227e-06	2.5327e-06	475.37	168.83	81.208	35.971	9.405e-06	91.037	0.00065193	0.00065605	0.00018103	941.22	7.2046e-06	7.2763e-06	1262.2	245.58	7.3094e-06	7.3633e-06	422.01	151.05	79.619	33.923	7.1834e-06	77.26	209.207	78.679	-2.765	-1.279	207.051	121.411	-0.550	2.873	192.085	-12.000	2.884	7.979	8.424	13.232	157.211	12.275	-8191	255	
2429.397	1	1	0	0	0.14464	0.016163	0.17024	0.233	0.071269	0.15323	0.17441	0.06237	0.20161	0.09169	0.26429	0.25228	0.30975	0.13011	0.063099	0.13299	-3.1	-3.3	-4.1604	-3.2417	-3.5687	-3.8729	-3.3042	-3.8917	-3.5646	-3.2729	-4.1125	-3.4042	-3.5333	-4.0188	-3.3063	-4.1042	129.319	311.765	-5.199	-7.467	125.071	69.712	240.331	231.145	343.046	290.878	320.949	2.419	244.824	301.741	43.218	291.629	0.00040439	0.0014482	0.00058156	1002.5	1.0352e-05	1.0749e-05	1431.3	260.04	8.6956e-06	1.3125e-05	473.21	169.48	81.279	36.168	9.594e-06	92.026	0.00063325	0.00063432	0.00017555	924.62	6.8614e-06	6.8145e-06	1252.2	241.67	6.8949e-06	6.8594e-06	417.93	150.01	78.955	33.591	6.6659e-06	76.959	183.123	92.226	23.680	-0.873	160.616	226.506	-0.549	2.881	330.418	61.015	3.405	8.103	8.339	13.111	235.564	12.247	-8191	255	
2429.517	1	1	0	0	0.20756	0.13104	0.2325	0.13506	0.1025	0.13203	0.30963	0.17311	0.13507	0.20145	0.20926	0.16732	0.2657	0.081415	0.17485	0.15796	-3.2375	-3.3438	-4.0563	-3.5312	-3.6271	-3.8479	-3.4417	-4.0146	-3.8625	-3.2896	-4.1979	-3.5667	-3.6167	-4.0437	-3.3396	-3.9479	187.151	11.477	6.121	25.392	41.657	163.007	262.204	37.056	211.934	121.516	216.499	3.175	336.059	141.549	26.333	322.432	0.00023141	0.0018607	0.00026845	1003.5	8.9487e-06	1.5069e-06	1425.2	258.46	1.1754e-05	7.4997e-06	471.77	172.11	82.138	36.654	1.1093e-05	91.861	0.00059559	0.00059211	0.00016452	918.12	6.4385e-06	6.4612e-06	1246.1	239.98	6.5127e-06	6.5347e-06	415.59	151.15	78.927	33.909	6.7342e-06	77.91	133.637	74.422	101.037	-1.390	265.765	34.519	-0.639	2.939	46.550	139.230	2.968	7.958	8.892	13.420	250.353	12.950	-8191	255	
2429.589	1	1	0	0	0.11558	0.19907	0.21783	0.26617	0.17996	0.040402	0.20969	0.18051	0.029465	0.039847	0.24689	0.17392	0.13277	0.16005	0.16996	0.12506	-3.5479	-3.15	-4.1583	-3.6854	-3.45	-4.0729	-3.6146	-3.9188	-3.8896	-3.2292	-4.0229	-3.6063	-3.4	-4.1	-3.3937	-3.8583	113.061	324.314	40.038	257.523	35.834	303.902	294.786	341.079	-13.382	134.071	303.386	-8.972	328.362	235.793	20.589	268.507	0.00024387	0.00070354	0.00032176	1007.4	4.4857e-06	7.3954e-06	1428.9	262.02	1.9252e-06	5.1378e-06	476.43	171.53	82.705	36.452	6.2276e-06	93.056	0.0006139	0.00060895	0.00017033	929.37	6.7335e-06	6.7345e-06	1257.5	243.03	6.9474e-06	7.0079e-06	421.63	153.45	80.929	34.563	7.4488e-06	78.984	198.212	177.306	110.416	-1.084	246.291	71.993	-0.341	3.076	308.391	204.217	3.171	8.019	8.997	13.110	109.745	12.206	-8191	255	
2429.685	1	1	0	0	0.098495	0.22675	0.10516	0.093697	0.11847	0.10914	0.085936	0.14509	0.074544	0.14913	0.32893	0.30149	0.23035	0.19111	0.13852	0.27357	-3.5479	-3.3375	-4.0625	-3.8146	-3.3	-4.1833	-3.5271	-3.4896	-4.0563	-3.2229	-4.1042	-3.9021	-3.3667	-4.0792	-3.4625	-3.7292	185.049	135.805	221.290	161.059	60.295	315.314	257.605	287.902	70.105	64.013	233.714	324.888	322.089	0.735	125.884	79.527	0.00029565	0.00044985	0.00010954	1008.1	9.5348e-06	8.7012e-06	1424.4	259.39	5.6075e-06	1.092e-05	473.64	169.86	81.635	36.183	7.956e-06	91.529	0.0006686	0.00067429	0.00019042	942.58	7.5339e-06	7.5335e-06	1264.9	245.98	7.5827e-06	7.5595e-06	423.71	152.62	80.281	34.313	7.4879e-06	78.333	165.485	95.961	160.124	-1.028	216.557	96.654	-0.512	3.419	332.037	106.535	3.202	8.146	8.891	13.068	155.677	12.135	-8191	255	
2429.781	1	1	0	0	0.12825	0.20404	0.11766	0.13384	0.19276	0.10639	0.15385	0.35734	0.11156	0.15265	0.047919	0.2246	0.12473	0.17258	0.21568	0.29628	-3.7208	-3.3396	-3.6667	-3.8104	-3.2708	-4	-3.5396	-3.425	-3.9583	-3.1875	-3.7208	-3.8688	-3.3688	-4.1417	-3.4417	-3.4938	194.978	216.366	334.826	257.203	60.550	85.189	5.001	238.896	0.357	311.320	337.069	295.661	167.369	4.060	20.899	308.069	0.00043967	0.00065715	0.00015783	1007.9	8.0035e-06	6.2741e-06	1420.6	260.95	3.4105e-06	1.0931e-05	472.43	171.66	80.758	36.228	4.3611e-06	93.33	0.00065117	0.00064466	0.00018141	931.5	7.0865e-06	7.0749e-06	1253.9	243.69	7.0796e-06	7.1336e-06	421.55	152.72	79.662	34.212	7.2344e-06	78.905	168.755	12.964	185.871	-0.993	310.454	225.667	-0.496	2.978	160.282	85.994	2.799	7.998	8.637	13.227	270.264	12.180	-8191	255	
2429.900	1	1	0	0	0.25418	0.1924	0.22874	0.2296	0.090818	0.20931	0.25248	0.078721	0.24287	0.14686	0.25343	0.058398	0.21284	0.44074	0.12365	0.11871	-3.7229	-3.2208	-3.8458	-4.0104	-3.3667	-4.0208	-3.8333	-3.4125	-4.0708	-3.3271	-3.625	-4.1208	-3.1208	-3.9875	-3.6688	-3.4271	-6.308	132.330	194.516	39.814	289.012	292.732	259.384	205.337	95.801	331.822	271.538	320.593	313.448	317.857	182.650	329.068	9.3442e-05	0.00042135	0.00017262	1010.3	7.625e-06	1.0671e-05	1435.3	260.97	1.1423e-05	1.4192e-05	478.33	176.44	83.735	37.36	6.6157e-06	95.444	0.00064215	0.00065961	0.0001833	939.59	7.1962e-06	7.3369e-06	1265.3	244.84	7.2613e-06	7.3425e-06	425.2	156.14	81.58	35.392	7.4003e-06	80.921	223.369	229.131	23.596	-1.128	287.416	27.623	-0.523	3.338	-10.290	234.168	3.259	8.238	8.306	12.546	20.017	12.046	-8191	255	
2429.996	1	1	0	0	0.13751	0.28966	0.26989	0.15218	0.05663	0.30903	0.23497	0.045164	0.14056	0.15439	0.26605	0.27374	0.13516	0.19233	0.073156	0.2393	-3.625	-3.4646	-3.6292	-3.8396	-3.2479	-3.8417	-3.8521	-3.0854	-4.0479	-3.4729	-3.5896	-4.1146	-3.3771	-4.0271	-3.7792	-3.1146	268.805	30.378	245.640	308.028	101.579	128.764	279.337	297.036	57.331	263.449	314.090	245.763	320.053	9.320	203.675	319.633	0.00028713	0.00090412	0.00029547	1002.4	1.6485e-05	9.639e-06	1418.6	256.58	8.9352e-06	2.7484e-06	471.12	174.07	82.314	36.771	9.7965e-06	93.666	0.00066425	0.00066935	0.0001871	936.76	7.5824e-06	7.713e-06	1264	243.86	7.8789e-06	7.8227e-06	424.42	156.21	82.13	35.227	7.8486e-06	79.949	108.512	141.704	110.598	-1.520	234.551	291.632	-0.853	2.927	161.836	64.527	2.822	7.988	8.347	12.647	75.361	11.939	-8191	255	
2430.092	1	1	0	0	0.15355	0.24075	0.037465	0.093653	0.26185	0.071015	0.17836	0.15633	0.17935	0.11665	0.073516	0.21697	0.19939	0.26705	0.26086	0.23806	-3.6958	-3.3833	-3.4646	-4.1125	-3.2938	-3.7562	-4.125	-3.3708	-4.0687	-3.6875	-3.4375	-4.0417	-3.225	-3.7417	-3.825	-3.2979	125.777	141.278	335.876	150.604	22.457	247.933	274.618	-9.834	19.848	291.989	168.326	-7.949	1.090	315.101	213.665	306.811	0.00047734	0.00095709	0.00028565	1020.7	3.869e-06	7.2847e-06	1441.3	269.39	9.8221e-06	8.8677e-06	485.43	171.61	82.149	36.02	6.1282e-06	90.979	0.00069423	0.00070688	0.00019441	951.46	7.8139e-06	7.8931e-06	1279.5	254.27	8.1665e-06	8.2628e-06	439.63	155.41	82.624	34.961	8.3035e-06	78.628	157.542	-7.985	87.638	-1.754	332.020	315.848	-1.467	2.378	71.801	177.691	2.226	7.136	7.839	12.209	75.301	11.967	-8191	255	
2430.188	1	1	0	0	0.11087	0.061842	0.081553	0.099643	0.062232	0.20424	0.29126	0.39919	0.12559	0.14846	0.080091	0.12861	0.031086	0.28903	0.21147	0.19515	-3.5125	-3.6229	-3.4417	-4.3167	-3.3125	-3.6708	-4.1917	-3.225	-3.8792	-3.8312	-3.5146	-3.9958	-3.7062	-3.4083	-4	-3.4125	26.287	341.793	102.683	167.195	139.698	103.752	299.219	307.530	262.573	47.171	76.734	254.932	284.134	289.601	-9.786	310.838	0.00029257	0.00072098	0.00028283	1022.9	2.3921e-06	1.3745e-05	1445.5	271.48	1.1997e-05	7.749e-06	487.61	171.57	82.45	35.84	5.2653e-06	91.317	0.00073994	0.00074134	0.00020564	967.33	8.1336e-06	8.2978e-06	1294.7	257.98	8.2589e-06	8.1948e-06	440.65	155.49	82.806	34.897	8.1215e-06	78.845	121.701	15.450	265.360	-1.840	309.234	89.990	-1.171	2.553	20.612	319.492	2.623	7.344	7.548	12.892	76.376	11.552	-8191	255	
2430.285	1	1	0	0	0.1042	0.20807	0.24919	0.066271	0.046494	0.041344	0.28921	0.2426	0.15562	0.08865	0.29205	0.14214	0.31357	0.23865	0.034406	0.14379	-3.2021	-3.7521	-3.0583	-4.1188	-3.3896	-3.4417	-4.0437	-3.4188	-3.8042	-3.6875	-3.2938	-4.1813	-3.575	-3.525	-4.0646	-3.4458	158.930	334.321	270.467	2.856	210.986	51.276	311.922	334.844	-8.800	231.610	292.238	343.795	40.475	339.168	138.624	96.360	0.00020671	0.00096744	0.00021169	1014.4	1.3491e-05	3.9873e-06	1451.3	267.99	9.5581e-06	6.3583e-06	482.95	172.9	82.145	35.973	1.6199e-05	92.332	0.00073565	0.00074245	0.00020722	965.8	8.2995e-06	8.4123e-06	1295.7	256.55	8.4894e-06	8.412e-06	437.15	156.41	83.212	35.015	8.2758e-06	79.514	204.765	203.419	14.325	-1.796	231.353	71.114	-1.083	2.547	255.513	202.611	2.197	7.310	7.295	12.434	131.003	11.802	-8191	255	
2430.381	1	1	0	0	0.09943	0.10751	0.15243	0.18773	0.16232	0.19034	0.23674	0.25135	0.12402	0.23826	0.021666	0.36208	0.1211	0.039772	0.2568	0.15275	-3.4083	-3.7625	-3.2708	-4.0333	-3.6229	-3.3063	-4.1396	-3.2854	-3.5917	-3.8812	-3.2979	-4.0625	-3.8917	-3.5396	-4.0542	-3.5771	136.713	205.814	111.459	259.753	6.626	331.997	341.057	314.555	132.234	19.772	306.646	291.871	1.673	219.129	107.864	16.800	0.00033097	0.0012838	8.037e-05	1026	7.9864e-06	1.2139e-05	1435.6	263.56	3.5647e-06	1.0361e-05	478.5	172.34	82.451	36.062	1.3466e-05	91.456	0.00074351	0.00075384	0.00021	970.44	8.32e-06	8.3426e-06	1286.3	253.36	8.5531e-06	8.5143e-06	436.94	156.64	83.727	35.382	8.5748e-06	79.742	152.261	310.276	310.006	-1.375	102.955	84.503	-1.119	2.545	213.592	95.445	2.482	7.429	7.693	12.313	100.655	11.535	-8191	255	
2430.501	1	1	0	0	0.1104	0.14301	0.27398	0.35679	0.1771	0.13564	0.12754	0.11588	0.31125	0.34604	0.17065	0.18161	0.13354	0.18409	0.12509	0.12895	-3.2167	-4.0375	-3.1854	-3.9	-3.6917	-3.2729	-4.1917	-3.3958	-3.4542	-3.8	-3.3438	-4.0083	-3.9562	-3.2396	-3.9604	-3.6604	310.825	328.746	258.959	288.814	115.067	46.564	232.308	28.581	-10.746	241.732	289.537	237.919	336.011	-7.282	165.257	8.611	0.00035802	0.0020177	0.00012147	1026	1.097e-05	1.0458e-05	1443.3	269.52	8.6315e-06	9.1532e-06	485.86	171.79	82.442	35.983	1.5913e-05	91.54	0.00076602	0.00076595	0.00021221	973.5	8.3163e-06	8.3149e-06	1291.3	257.47	8.5099e-06	8.4359e-06	442.43	157.16	84.175	35.361	8.6068e-06	79.737	180.093	123.039	331.438	-1.343	-8.811	65.863	-1.193	2.476	343.909	299.501	2.202	7.637	7.518	12.841	53.403	11.553	-8191	255	
2430.598	1	1	0	0	0.24089	0.1972	0.069683	0.30103	0.13756	0.051814	0.20069	0.19018	0.16227	0.26568	0.18189	0.015468	0.28449	0.12209	0.1096	0.11587	-3.025	-4.0708	-3.2083	-3.9208	-3.8583	-3.2562	-4.025	-3.6708	-3.2021	-4.0833	-3.25	-3.8375	-3.8937	-3.2583	-4.0229	-3.7396	237.804	265.903	267.591	326.777	140.022	339.500	253.550	42.331	314.022	2.172	251.322	277.044	309.761	187.719	202.145	180.013	0.00023209	0.0011033	0.00038954	1023.9	1.4927e-05	4.7439e-06	1453.9	268.54	1.6295e-06	1.0544e-05	486.35	172.77	82.875	36.933	1.3783e-05	92.976	0.00076509	0.0007657	0.00021234	976.52	8.4592e-06	8.5293e-06	1301.1	256.98	8.4448e-06	8.4076e-06	439.42	158.08	83.5	35.506	8.0379e-06	79.85	124.525	45.979	56.405	-1.722	-7.516	42.181	-1.276	2.712	98.172	69.274	3.140	7.770	7.973	12.102	139.259	12.140	-8191	255	
2430.692	1	1	0	0	0.22057	0.10705	0.066614	0.20245	0.13261	0.18964	0.10948	0.17876	0.18599	0.10314	0.1638	0.12026	0.16435	0.1393	0.13726	0.18696	-2.9854	-4.075	-3.3688	-3.5833	-4.0104	-3.3771	-4.0396	-3.5938	-3.2687	-4.0271	-3.5271	-3.7167	-4.1083	-3.3312	-3.9313	-4.0312	74.532	-11.898	255.750	333.545	264.264	38.117	181.491	37.784	131.858	302.115	81.059	318.166	270.771	253.557	-14.863	329.905	0.00050555	0.00076906	0.00023817	1031.5	1.0073e-05	3.0321e-06	1445.1	268.11	6.7928e-06	1.1399e-05	481.88	170.96	83.245	35.757	2.0108e-05	90.435	0.00070333	0.0007107	0.00019949	964.03	7.7337e-06	7.7713e-06	1285.5	254.08	7.7384e-06	7.7373e-06	434.19	153.99	82.296	34.602	7.7763e-06	77.533	164.366	68.846	111.385	-1.453	308.486	45.598	-1.091	2.673	96.396	185.246	2.127	7.439	7.726	12.590	158.010	11.654	-8191	255	
2430.788	1	1	0	0	0.08517	0.050798	0.15713	0.10861	0.1736	0.28493	0.10415	0.17055	0.21295	0.066788	0.22674	0.0046604	0.29168	0.40927	0.20238	0.042981	-2.7083	-4.1021	-3.4583	-3.4417	-4.0708	-3.05	-4.0229	-3.8958	-3.275	-3.975	-3.5187	-3.4854	-3.9667	-3.2917	-3.9271	-4.2167	149.020	336.765	262.506	263.756	30.148	141.655	138.451	276.242	240.961	255.795	294.129	264.010	14.319	334.866	320.483	306.841	0.00040542	0.00051773	0.00020258	1029.3	1.7825e-06	5.1543e-06	1440.9	273.12	2.2268e-06	6.468e-06	486.75	170.23	83.434	35.746	1.2022e-05	90.561	0.00068355	0.00068989	0.00019198	959.52	7.6404e-06	7.7789e-06	1281.9	255.97	7.9104e-06	7.8877e-06	439.47	154.39	83.498	34.744	8.3656e-06	78.338	179.967	98.846	0.501	-1.417	108.745	126.111	-0.821	2.527	101.398	133.318	2.007	7.718	7.087	12.553	311.466	11.896	-8191	255	
2430.884	1	1	0	0	0.27215	0.16105	0.071339	0.33022	0.19123	0.035764	0.24494	0.2746	0.088384	0.13705	0.27427	0.1275	0.020544	0.13448	0.20247	0.23379	-2.7979	-4.15	-3.6417	-3.3542	-4.075	-3.3375	-3.8229	-4.1438	-3.2208	-3.8271	-3.9354	-3.3	-3.8729	-3.3104	-3.6146	-3.9792	272.634	4.420	234.863	260.702	30.966	275.012	315.069	295.286	308.921	68.289	43.693	-12.077	1.745	29.252	220.069	328.696	0.00013381	0.00034334	0.00012189	1036.1	8.799e-06	1.2453e-05	1453.8	271.84	1.2594e-05	1.2326e-05	487.23	173.23	83.203	36.585	1.0999e-05	93.107	0.00074736	0.00075535	0.00021357	977.57	8.5316e-06	8.6159e-06	1300.3	259.78	8.6933e-06	8.8029e-06	443.74	158.4	85.174	35.901	8.9358e-06	80.728	311.313	32.222	126.790	-1.538	209.766	96.627	-1.113	2.462	9.174	74.658	2.385	7.712	7.778	12.313	104.292	11.600	-8191	255	
2430.980	1	1	0	0	0.17262	0.32976	0.077039	0.19512	0.063495	0.11703	0.38694	0.23513	0.0063013	0.068544	0.087227	0.083004	0.19772	0.081963	0.073189	0.31855	-2.5917	-3.7896	-3.7521	-3.35	-3.9292	-3.4917	-3.6562	-3.9125	-3.2833	-3.8104	-3.7125	-3.2896	-3.9979	-3.4354	-3.3604	-4.1375	271.041	245.250	279.371	-14.562	276.036	145.288	306.116	254.984	228.476	167.950	209.731	301.372	15.063	-13.088	271.164	306.856	0.0004285	0.0016672	0.0004618	1039.6	5.6297e-06	9.8889e-06	1458.5	272.56	5.8486e-06	7.6633e-06	486.26	170	82.325	35.79	1.1422e-05	91.273	0.00080476	0.00081513	0.00022717	993.49	8.8882e-06	8.9397e-06	1310.8	262.08	8.6926e-06	8.674e-06	443.04	155.91	83.466	34.9	8.1458e-06	78.711	147.986	44.012	152.178	-1.623	198.023	155.924	-0.878	2.203	182.640	144.586	2.723	8.161	8.473	12.837	167.255	11.694	-8191	255	
2431.077	1	1	0	0	0.43363	0.24979	0.067434	0.19311	0.12443	0.2041	0.22101	0.064015	0.25048	0.14338	0.022392	0.26432	0.074473	0.15914	0.14651	0.080633	-2.9271	-3.6854	-3.5875	-3.1625	-3.9437	-3.6021	-3.5396	-4.1312	-3.3438	-3.5083	-3.8375	-3.3417	-3.9625	-3.5833	-3.1646	-3.9667	59.926	94.409	234.953	29.091	197.039	77.913	269.945	27.266	212.868	306.320	94.108	18.197	211.716	1.910	271.554	234.990	0.00023432	0.00062439	0.00041527	1031.5	7.6665e-06	3.1729e-06	1452	269.34	1.8353e-05	6.42e-06	482.99	171.19	82.659	36.339	1.9248e-05	91.224	0.00071561	0.00071738	0.00019815	962.14	7.702e-06	7.7128e-06	1282.7	252.69	7.5561e-06	7.5575e-06	432.11	153.56	81.647	34.432	7.6023e-06	77.753	185.258	233.604	281.856	-1.221	239.296	-5.581	-0.993	2.216	233.441	315.358	2.341	8.028	8.165	13.049	169.399	12.024	-8191	255	
2431.197	1	1	0	0	0.1188	0.20434	0.074482	0.12921	0.16962	0.061436	0.23664	0.14815	0.20535	0.07584	0.23126	0.28022	0.19974	0.13974	0.068555	0.15569	-2.8958	-3.5167	-3.875	-3.2292	-3.8083	-3.7104	-3.3479	-4.0583	-3.3229	-3.3792	-4.2188	-3.3792	-3.8146	-3.9313	-3.1937	-4.0958	255.796	-11.828	199.931	272.727	214.554	20.760	5.531	249.123	7.436	311.636	0.593	337.853	322.319	327.270	295.490	228.662	0.00031475	0.0012439	0.00030595	1020.6	4.858e-06	1.4374e-05	1454.5	270.63	7.0842e-06	4.9161e-06	483.97	173.31	83.994	36.545	4.0113e-06	92.987	0.00068815	0.00068689	0.00019286	957.36	7.7198e-06	7.7798e-06	1288	254.75	8.0082e-06	7.9604e-06	435.27	156.3	83.362	35.223	7.9875e-06	79.887	123.037	340.026	30.811	-1.463	96.005	7.826	-0.964	3.141	189.589	132.650	3.029	7.486	8.612	12.653	121.819	11.870	-8191	255	
2431.293	1	1	0	0	0.021277	0.057473	0.14726	0.16126	0.20444	0.18994	0.16919	0.23622	0.1301	0.19884	0.097456	0.081237	0.072351	0.19758	0.096811	0.35022	-3.0583	-3.3167	-3.9458	-3.3375	-3.8042	-3.7792	-3.4208	-4.0354	-3.4146	-3.6188	-4.1354	-3.45	-3.8021	-3.8208	-3.1125	-4.0271	203.630	157.567	299.672	291.575	300.359	37.501	41.746	308.725	169.346	143.642	300.094	258.243	186.846	7.671	88.082	273.758	0.00022367	0.0014723	0.00010546	1024.3	1.3314e-05	3.2861e-06	1453.3	270.41	8.8397e-06	1.0879e-05	483.97	174.14	83.566	36.585	1.5726e-05	92.153	0.00071216	0.00071841	0.00020035	966.96	8.1551e-06	8.1908e-06	1294.5	255.81	8.3429e-06	8.3303e-06	440.39	158.74	84.668	35.584	8.4441e-06	80.149	199.399	58.121	27.608	-1.522	124.828	41.006	-0.689	2.928	199.204	83.727	2.793	7.921	8.287	12.592	250.250	11.709	-8191	255	
2431.389	1	1	0	0	0.063725	0.13937	0.06534	0.31022	0.12263	0.1123	0.28843	0.051891	0.35809	0.095993	0.23896	0.36799	0.29048	0.18589	0.096595	0.17495	-3.1813	-3.2958	-3.8208	-3.3167	-3.6167	-3.9813	-3.5354	-4.1125	-3.7583	-3.3708	-4.0938	-3.5	-3.5625	-3.9396	-3.4146	-4.1062	149.585	296.992	172.249	21.624	101.168	110.104	280.432	227.008	227.257	8.710	331.343	322.669	343.895	280.610	319.684	289.957	0.00037808	0.00035337	0.00014713	1026.4	7.6529e-06	2.343e-05	1460.2	271.35	8.1115e-06	1.4602e-06	488.78	173.06	84.213	35.604	6.9941e-06	90.12	0.00076006	0.00076319	0.00021495	979.99	8.5979e-06	8.7076e-06	1301.9	260.05	8.7956e-06	8.901e-06	448.63	159.29	86.877	35.778	9.6168e-06	79.877	168.779	18.692	274.425	-1.222	151.440	198.881	-1.002	2.487	242.111	51.347	2.375	7.849	7.800	13.120	188.850	11.689	-8191	255	
2431.461	1	1	0	0	0.22905	0.12926	0.15082	0.14806	0.12873	0.15842	0.22893	0.18073	0.19796	0.24745	0.059104	0.080858	0.24081	0.20906	0.14535	0.28614	-3.2833	-3.1521	-3.9667	-3.5875	-3.4521	-3.8667	-3.3375	-3.7229	-3.7583	-3.3833	-4.1583	-3.6771	-3.5958	-4.1958	-3.3354	-3.9458	211.938	149.791	286.937	324.465	313.695	133.719	269.422	11.217	284.510	65.413	237.391	344.862	307.066	146.571	40.947	306.499	0.00012289	0.0015025	0.00062337	1042.2	1.0851e-05	1.0192e-05	1475.2	277.66	5.5385e-06	3.1155e-06	495.39	172.79	83.865	35.979	1.311e-05	91.854	0.00087173	0.00089047	0.00024848	1018.2	9.8288e-06	9.7172e-06	1337.7	271.4	9.4611e-06	9.4565e-06	457.13	160.07	86.863	35.941	9.2134e-06	80.553	201.742	177.854	168.088	-1.485	111.569	118.531	-1.212	2.900	168.431	121.174	2.190	7.441	7.452	12.478	77.834	11.852	-8191	255	
2431.582	1	1	0	0	0.073332	0.18923	0.13807	0.2628	0.18316	0.11101	0.0996	0.29041	0.29141	0.21842	0.2655	0.016618	0.22351	0.21514	0.2536	0.091114	-3.4042	-3.2271	-4.0312	-3.7687	-3.4542	-4.15	-3.5229	-3.6417	-4.0875	-3.3	-4.0042	-3.7021	-3.2958	-4.2229	-3.1833	-3.7125	-6.799	86.238	324.605	343.708	32.558	182.915	160.570	279.656	146.713	-4.837	276.832	137.241	328.729	287.489	111.427	254.384	0.00035152	0.0010146	0.00085198	1042.4	7.1252e-06	1.3212e-05	1467.8	269.5	9.091e-06	6.0524e-06	489.35	177.1	84.308	37.041	6.0127e-06	93.338	0.00081083	0.00081631	0.0002293	996.31	8.8295e-06	8.7098e-06	1315.4	260.4	8.6083e-06	8.5761e-06	446.21	160.49	85.872	36.079	8.7653e-06	81.019	168.331	100.886	107.191	-1.585	230.385	94.855	-1.196	3.150	61.304	-8.458	2.881	7.920	8.382	13.007	10.046	11.950	-8191	255	
2431.676	1	1	0	0	0.20761	0.26426	0.10485	0.14656	0.26055	0.27749	0.20743	0.24828	0.034889	0.19377	0.37667	0.11093	0.12735	0.097169	0.056073	0.046594	-3.4437	-3.3688	-3.9583	-3.6125	-3.2333	-4.325	-3.45	-3.6437	-4.0354	-3.2875	-3.9542	-3.9062	-3.2687	-3.9604	-3.4771	-3.4813	167.317	166.886	98.093	300.316	210.108	226.382	24.256	338.418	10.911	191.067	274.105	332.274	262.305	260.549	55.093	299.815	0.00025761	0.00023663	0.00045164	1039	8.0353e-06	1.3531e-05	1460.6	273.63	1.3814e-05	4.4208e-06	489.33	172.87	83.431	36.139	1.2228e-05	92.2	0.00077182	0.00078023	0.00021811	983.93	8.3986e-06	8.3612e-06	1303.8	258.53	8.2883e-06	8.3091e-06	442.99	156.74	83.846	35.235	8.347e-06	79.487	245.190	270.901	121.626	-1.412	311.464	121.532	-1.091	2.714	234.718	224.320	2.387	7.448	7.764	12.125	142.768	11.545	-8191	255	
2431.772	1	1	0	0	0.22618	0.031012	0.15789	0.17333	0.19506	0.12546	0.14859	0.19938	0.12737	0.18806	0.13895	0.18204	0.19385	0.26003	0.1413	0.10889	-3.5042	-3.3688	-3.6583	-3.9854	-3.1688	-3.9604	-3.6354	-3.3917	-3.9771	-3.3458	-3.9417	-4.2188	-3.15	-4.1813	-3.7188	-3.5083	298.436	60.475	221.381	-4.688	167.164	329.492	229.062	284.617	59.421	39.325	259.983	270.541	294.801	275.951	280.848	303.693	0.00048119	0.0011235	0.00054014	1028.1	9.9558e-06	1.746e-05	1457.4	270.01	3.1915e-06	6.0476e-06	486.74	175.05	83.253	36.307	8.233e-06	92.265	0.00073685	0.00075374	0.00020938	972.9	8.382e-06	8.3814e-06	1300.7	257.98	8.4686e-06	8.5834e-06	444.88	158.29	84.754	35.711	8.7706e-06	80.118	168.744	117.899	46.356	-1.724	41.680	132.265	-1.128	2.819	218.234	147.502	3.018	7.504	8.177	12.990	164.233	11.606	-8191	255	
2431.870	1	1	0	0	0.072296	0.13549	0.13445	0.081362	0.17741	0.12119	0.11028	0.081079	0.055761	0.067431	0.071907	0.083667	0.35912	0.12766	0.129	0.13186	-3.7021	-3.3042	-3.4896	-4	-3.2625	-3.925	-3.7062	-3.2896	-3.975	-3.4646	-3.5187	-4.1208	-3.5583	-3.8542	-3.7188	-3.3833	156.597	229.215	304.326	306.837	134.270	81.019	257.463	261.918	77.550	301.105	231.850	150.209	274.269	-13.491	162.341	275.882	0.00039243	0.00057654	0.00063861	1034.5	1.5127e-05	2.0483e-05	1459.3	266.98	1.0127e-05	8.3416e-06	484.36	174.67	83.327	36.552	5.8336e-07	92.381	0.0007976	0.00081856	0.00023316	996.4	9.3525e-06	9.4699e-06	1314.6	261.91	9.6163e-06	9.6211e-06	448.79	161.72	86.943	36.707	9.6613e-06	81.885	180.342	64.124	94.641	-1.771	224.392	297.234	-1.084	2.672	190.006	10.972	3.111	7.843	7.838	12.612	216.106	11.905	-8191	255	
2431.989	1	1	0	0	0.095818	0.24259	0.065383	0.079971	0.17364	0.07823	0.21503	0.25465	0.03837	0.11889	0.10647	0.11445	0.045461	0.34124	0.32936	0.23641	-3.6833	-3.2687	-3.5229	-4.1583	-3.3438	-3.9542	-3.8625	-3.45	-3.875	-3.3146	-3.3833	-4.0979	-3.1354	-3.9333	-3.8271	-3.3688	17.854	273.164	-6.448	316.534	65.069	80.830	299.120	297.281	281.802	122.679	120.699	318.106	235.311	10.673	45.203	264.584	0.00021352	0.0011652	0.00019718	1027.3	3.9073e-06	6.2248e-06	1464	272.61	8.658e-06	3.6429e-06	492.24	172.68	82.879	35.83	8.2124e-06	91.308	0.00087325	0.00088916	0.00025062	1009	9.9998e-06	1.0106e-05	1330.8	268.61	1.0106e-05	1.0017e-05	460.57	160.95	87.114	36.052	9.4319e-06	80.363	140.323	112.753	280.759	-1.520	175.827	46.292	-1.090	2.278	226.003	54.511	2.322	7.280	7.085	12.612	49.228	11.854	-8191	255	
2432.085	1	1	0	0	0.039618	0.088613	0.18369	0.068874	0.20933	0.040786	0.071281	0.19794	0.14756	0.29662	0.18477	0.081013	0.093148	0.06546	0.10969	0.11915	-3.4271	-3.4271	-3.2917	-4.0521	-3.5021	-3.6625	-4.0813	-3.2521	-3.9958	-3.5354	-3.5	-4.0542	-3.2271	-3.6125	-4.0917	-3.3	199.732	126.803	152.379	296.667	-4.268	61.452	321.617	238.648	15.760	307.412	228.093	270.674	297.668	14.492	139.212	53.131	0.00040171	0.0011746	0.00032363	1033.3	7.5368e-06	9.0504e-06	1454.6	275.69	1.0288e-05	7.286e-06	501.04	171.57	83.945	34.909	8.7865e-06	88.833	0.00083191	0.00083155	0.00023165	998.46	9.1836e-06	9.212e-06	1318.2	268.09	9.3658e-06	9.4299e-06	457.53	158.84	86.968	35.2	9.3208e-06	78.607	205.709	65.183	124.290	-1.261	12.086	48.598	-0.717	1.956	129.845	290.596	2.348	7.568	7.115	13.035	43.992	12.019	-8191	255	
#DATA ENDS
