BOXY.EXE: ISS Imagent and Oximeter Data Acquisition Program Version 0.80
Ascii Record File

#ACQ INFORMATION
2  Detector Channels 
16  External MUX Channels 
1  Auxiliary Channels 
5000  Waveform (CCF) Frequency (Hz)
1  Waveforms Skipped 
30  Waveforms Averaged 
1  Cycles Averaged 
16  Acquisitions per Waveform 
10.0806  Updata Rate (Hz) 

#FILE INFORMATION
TRUE -- External MUX Channel results are PARSED.
FALSE -- AC DC and Phase are NOT grouped.
TRUE -- Companion Program Settings File CREATED.
FALSE -- AC data not excluded
FALSE -- DC data not excluded
FALSE -- Phase data not excluded
FALSE -- Auxillary Chn. data not excluded
Tab delimiters

#CALIBRATION STATE
TRUE -- Waveform Calibration Values APPLIED.


#AUX CALIBRATION VALUES
Val Type	aux-1	

Term	1.0000e+00	
Factor	0.0000e+00	


#WF CALIBRATION VALUES
A = Detector Channel
Val Type	A-AC1	A-AC2	A-AC3	A-AC4	A-AC5	A-AC6	A-AC7	A-AC8	A-AC9	A-AC10	A-AC11	A-AC12	A-AC13	A-AC14	A-AC15	A-AC16	A-DC1	A-DC2	A-DC3	A-DC4	A-DC5	A-DC6	A-DC7	A-DC8	A-DC9	A-DC10	A-DC11	A-DC12	A-DC13	A-DC14	A-DC15	A-DC16	A-Ph1	A-Ph2	A-Ph3	A-Ph4	A-Ph5	A-Ph6	A-Ph7	A-Ph8	A-Ph9	A-Ph10	A-Ph11	A-Ph12	A-Ph13	A-Ph14	A-Ph15	A-Ph16	

Term	0.00000e+00	0.00000e+00	0.00000e+00	0.00000e+00	0.00000e+00	0.00000e+00	0.00000e+00	0.00000e+00	0.00000e+00	0.00000e+00	0.00000e+00	0.00000e+00	0.00000e+00	0.00000e+00	0.00000e+00	0.00000e+00	0.00000e+00	0.00000e+00	0.00000e+00	0.00000e+00	0.00000e+00	0.00000e+00	0.00000e+00	0.00000e+00	0.00000e+00	0.00000e+00	0.00000e+00	0.00000e+00	0.00000e+00	0.00000e+00	0.00000e+00	0.00000e+00	0.00000e+00	0.00000e+00	0.00000e+00	0.00000e+00	0.00000e+00	0.00000e+00	0.00000e+00	0.00000e+00	0.00000e+00	0.00000e+00	0.00000e+00	0.00000e+00	0.00000e+00	0.00000e+00	0.00000e+00	0.00000e+00	
Factor	1.00000e+00	1.00000e+00	1.00000e+00	1.00000e+00	1.00000e+00	1.00000e+00	1.00000e+00	1.00000e+00	1.00000e+00	1.00000e+00	1.00000e+00	1.00000e+00	1.00000e+00	1.00000e+00	1.00000e+00	1.00000e+00	1.00000e+00	1.00000e+00	1.00000e+00	1.00000e+00	1.00000e+00	1.00000e+00	1.00000e+00	1.00000e+00	1.00000e+00	1.00000e+00	1.00000e+00	1.00000e+00	1.00000e+00	1.00000e+00	1.00000e+00	1.00000e+00	X	X	X	X	X	X	X	X	X	X	X	X	X	X	X	X	

B = Detector Channel
Val Type	B-AC1	B-AC2	B-AC3	B-AC4	B-AC5	B-AC6	B-AC7	B-AC8	B-AC9	B-AC10	B-AC11	B-AC12	B-AC13	B-AC14	B-AC15	B-AC16	B-DC1	B-DC2	B-DC3	B-DC4	B-DC5	B-DC6	B-DC7	B-DC8	B-DC9	B-DC10	B-DC11	B-DC12	B-DC13	B-DC14	B-DC15	B-DC16	B-Ph1	B-Ph2	B-Ph3	B-Ph4	B-Ph5	B-Ph6	B-Ph7	B-Ph8	B-Ph9	B-Ph10	B-Ph11	B-Ph12	B-Ph13	B-Ph14	B-Ph15	B-Ph16	

Term	0.00000e+00	0.00000e+00	0.00000e+00	0.00000e+00	0.00000e+00	0.00000e+00	0.00000e+00	0.00000e+00	0.00000e+00	0.00000e+00	0.00000e+00	0.00000e+00	0.00000e+00	0.00000e+00	0.00000e+00	0.00000e+00	0.00000e+00	0.00000e+00	0.00000e+00	0.00000e+00	0.00000e+00	0.00000e+00	0.00000e+00	0.00000e+00	0.00000e+00	0.00000e+00	0.00000e+00	0.00000e+00	0.00000e+00	0.00000e+00	0.00000e+00	0.00000e+00	-8.19620e+01	-1.31387e+02	-1.23947e+02	-1.82180e+02	-6.73124e+01	-7.06461e+01	-1.57453e+02	-1.62015e+02	-5.26248e+01	-5.03545e+01	-1.74207e+02	-1.70246e+02	-1.81558e+02	-1.76604e+02	-6.38946e+01	-1.49731e+02	
Factor	1.74277e-05	1.42447e-04	4.46277e-05	1.46431e-01	1.15311e-06	1.52853e-06	1.67333e-01	5.49476e-02	1.18619e-06	1.77604e-06	9.88515e-02	2.93754e-02	2.77491e-02	9.55186e-03	1.29905e-06	1.36949e-02	3.85813e-06	4.49126e-06	1.24776e-06	7.72237e-02	4.81768e-08	4.92794e-08	8.25847e-02	2.90232e-02	4.80511e-08	4.91379e-08	5.01668e-02	1.50227e-02	1.47801e-02	5.06767e-03	4.82509e-08	7.00746e-03	X	X	X	X	X	X	X	X	X	X	X	X	X	X	X	X	



#DISTANCE SETTINGS
A = Detector Channel
A-1	A-2	A-3	A-4	A-5	A-6	A-7	A-8	A-9	A-10	A-11	A-12	A-13	A-14	A-15	A-16	

2.5000e+00	3.0000e+00	2.5000e+00	3.0000e+00	2.0000e+00	3.0000e+00	1.5000e+00	3.0000e+00	3.0000e+00	3.0000e+00	3.0000e+00	3.0000e+00	3.0000e+00	3.0000e+00	1.5000e+00	3.0000e+00	

B = Detector Channel
B-1	B-2	B-3	B-4	B-5	B-6	B-7	B-8	B-9	B-10	B-11	B-12	B-13	B-14	B-15	B-16	

1.0000e+01	1.0000e+01	1.0000e+01	1.4400e+00	1.0000e+01	1.0000e+01	1.5100e+00	1.9400e+00	1.0000e+01	1.0000e+01	1.9900e+00	2.4900e+00	2.4100e+00	2.9000e+00	1.0000e+01	2.9800e+00	




#DATA BEGINS
time	group	step	mark	flag	A-AC1	A-AC2	A-AC3	A-AC4	A-AC5	A-AC6	A-AC7	A-AC8	A-AC9	A-AC10	A-AC11	A-AC12	A-AC13	A-AC14	A-AC15	A-AC16	A-DC1	A-DC2	A-DC3	A-DC4	A-DC5	A-DC6	A-DC7	A-DC8	A-DC9	A-DC10	A-DC11	A-DC12	A-DC13	A-DC14	A-DC15	A-DC16	A-Ph1	A-Ph2	A-Ph3	A-Ph4	A-Ph5	A-Ph6	A-Ph7	A-Ph8	A-Ph9	A-Ph10	A-Ph11	A-Ph12	A-Ph13	A-Ph14	A-Ph15	A-Ph16	B-AC1	B-AC2	B-AC3	B-AC4	B-AC5	B-AC6	B-AC7	B-AC8	B-AC9	B-AC10	B-AC11	B-AC12	B-AC13	B-AC14	B-AC15	B-AC16	B-DC1	B-DC2	B-DC3	B-DC4	B-DC5	B-DC6	B-DC7	B-DC8	B-DC9	B-DC10	B-DC11	B-DC12	B-DC13	B-DC14	B-DC15	B-DC16	B-Ph1	B-Ph2	B-Ph3	B-Ph4	B-Ph5	B-Ph6	B-Ph7	B-Ph8	B-Ph9	B-Ph10	B-Ph11	B-Ph12	B-Ph13	B-Ph14	B-Ph15	B-Ph16	aux-1	digaux	

1535.122	1	1	0	768	0.082951	0.15472	0.18487	0.40497	0.11616	0.25953	0.28968	0.30317	0.1442	0.25727	0.045777	0.24878	0.16362	0.044072	0.11282	0.1404	-1.5042	-2.1792	-1.3292	-2.4562	-2.0917	-1.5396	-2.475	-1.5208	-1.95	-2.2354	-1.4708	-2.1688	-1.9354	-1.675	-2.3229	-1.4854	271.962	-4.302	242.919	313.995	312.869	101.500	295.976	256.617	256.795	292.695	201.874	297.306	323.752	219.762	310.934	242.642	0.00021194	0.00047613	0.00012295	1270.9	2.4042e-06	5.0556e-06	1274.4	356.03	2.8681e-06	8.3432e-06	408.83	134.52	115.85	40.781	5.0722e-06	50.744	0.00030159	0.00030127	8.3579e-05	1275	3.3514e-06	3.2416e-06	1281.5	359.31	3.3071e-06	3.2185e-06	409.25	136.41	117.67	41.294	3.1607e-06	51.212	176.903	76.120	96.309	-6.745	129.840	123.770	-6.767	-2.140	174.629	151.940	-2.584	2.544	2.565	6.823	149.597	6.350	-8191	255	
1535.219	1	1	0	0	0.19802	0.1187	0.18018	0.37788	0.15839	0.24751	0.1174	0.14237	0.18306	0.036374	0.064303	0.3388	0.17779	0.24826	0.23785	0.24426	-1.4083	-2.2021	-1.2812	-2.2625	-1.9438	-1.4125	-2.2021	-1.7646	-1.7208	-2.2438	-1.6	-2.1958	-2.3063	-1.5646	-2.3042	-1.8875	92.835	325.955	223.801	299.800	163.880	110.523	279.261	328.030	120.845	157.421	-5.087	-14.401	152.701	-5.052	195.178	222.071	0.00018054	0.00043743	0.00018722	1267	2.2181e-06	5.2402e-06	1273.1	354.53	2.3624e-06	6.5002e-06	405.25	134.62	116.04	40.746	2.6433e-06	50.776	0.00029535	0.00028651	8.1674e-05	1271.6	3.2452e-06	3.1674e-06	1277.2	358.13	3.2462e-06	3.1967e-06	408	136.5	117.49	41.264	3.2547e-06	51.196	181.763	83.255	75.764	-6.667	149.737	146.610	-6.649	-2.116	139.034	146.897	-2.488	2.314	2.498	6.566	166.122	5.824	-8191	255	
1535.313	1	1	0	0	0.21481	0.13083	0.048023	0.19506	0.13572	0.18266	0.28324	0.12668	0.30504	0.1625	0.23615	0.10214	0.21373	0.15904	0.084411	0.2743	-1.2292	-2.5125	-1.5	-2.2375	-1.8458	-1.3438	-2.3063	-1.8167	-1.5125	-2.3542	-1.5438	-2.25	-2.1771	-1.4396	-2.0687	-1.8979	265.092	50.316	180.037	338.052	204.524	23.367	219.085	-14.804	95.354	108.840	301.147	271.904	336.735	56.200	138.076	230.179	0.00022182	0.00051143	0.00016812	1262.1	3.5707e-06	3.6906e-06	1270.4	354.07	2.6766e-06	4.7136e-06	404.77	134.22	115.5	40.548	3.845e-06	50.642	0.00030671	0.00030044	8.4255e-05	1268.5	3.3808e-06	3.2729e-06	1274.8	357.67	3.3195e-06	3.2123e-06	407.46	136.19	117.44	41.065	3.2434e-06	51.178	179.735	25.474	52.699	-6.709	146.620	128.709	-6.518	-2.122	150.223	142.822	-2.568	2.606	2.735	7.104	126.360	6.377	-8191	255	
1535.409	1	1	0	0	0.1837	0.041676	0.17129	0.29085	0.10933	0.20156	0.13236	0.43806	0.15405	0.041928	0.30653	0.16917	0.11508	0.21089	0.10698	0.2375	-1.1375	-2.3792	-1.4333	-2.0708	-2	-1.45	-2.3854	-2.0396	-1.6063	-2.2729	-1.5542	-1.8271	-2.3646	-1.6521	-2.1458	-2.0229	187.893	262.346	109.428	303.454	292.874	2.318	317.854	320.046	33.044	230.533	229.664	174.520	244.080	242.127	236.894	59.697	0.00022711	0.00078031	0.00016657	1267.5	4.3459e-06	5.6375e-06	1266.7	354.24	1.3526e-06	3.9057e-06	405.14	134.21	115.64	40.677	3.9774e-06	50.663	0.00030574	0.00030307	8.3634e-05	1270.9	3.3151e-06	3.3121e-06	1273.7	357.73	3.3297e-06	3.3064e-06	406.7	136.39	117.44	41.12	3.2326e-06	51.192	180.881	76.619	47.210	-6.086	159.162	151.461	-5.645	-1.263	230.254	158.249	-2.147	2.632	3.072	7.371	158.326	6.480	-8191	255	
1535.505	1	1	0	0	0.24149	0.11607	0.10082	0.24314	0.16549	0.14986	0.4314	0.11309	0.29696	0.19447	0.25035	0.29865	0.1409	0.19956	0.1938	0.17094	-1.1125	-2.3521	-1.4354	-2.0104	-2.3146	-1.3729	-2.3312	-2.0292	-1.3729	-2.3396	-1.8438	-1.8208	-2.15	-1.6104	-2.0396	-2.1604	157.042	53.327	234.110	260.420	311.333	-7.206	306.586	-11.717	203.301	71.380	19.894	321.567	285.249	76.204	187.254	44.601	0.00018828	0.00063206	0.00017541	1263.5	3.6978e-06	5.606e-06	1270	354.39	4.5109e-06	5.4975e-06	405.49	133.03	115.32	40.484	2.7454e-06	50.422	0.0003043	0.00029862	8.2817e-05	1269.6	3.2729e-06	3.1947e-06	1276	357.34	3.2639e-06	3.1844e-06	406.92	135.89	117.03	41.136	3.2309e-06	51.221	185.243	61.134	79.372	-7.134	161.997	164.481	-7.158	-2.537	160.051	165.796	-3.366	1.698	1.917	6.208	158.396	5.415	-8191	255	
1535.601	1	1	0	0	0.12899	0.21068	0.28059	0.14558	0.19753	0.16915	0.39494	0.23496	0.20301	0.16042	0.13672	0.19847	0.17314	0.18665	0.16991	0.20739	-1.0312	-2.3167	-1.6688	-1.7854	-2.4604	-1.2479	-2.2646	-2.2188	-1.2646	-2.2667	-2.0021	-1.7667	-2.375	-1.6187	-1.8458	-2.1063	49.102	141.751	270.824	26.768	281.591	11.569	277.409	268.972	145.993	234.575	252.090	285.255	327.662	276.738	239.899	-18.888	0.00020864	0.00032617	0.00010213	1264.1	3.1488e-06	7.0468e-06	1270.9	354.69	2.5037e-06	3.6618e-06	405.01	134.04	115.46	40.49	3.3238e-06	50.787	0.00030991	0.00029589	8.3735e-05	1268.6	3.308e-06	3.1841e-06	1274.4	358.2	3.3625e-06	3.1689e-06	407.89	136.16	117.35	41.141	3.3244e-06	51.299	181.109	64.406	89.470	-7.373	109.223	155.615	-7.301	-2.951	189.044	152.923	-3.651	1.714	1.599	5.978	121.106	5.499	-8191	255	
1535.722	1	1	0	0	0.14995	0.081132	0.40157	0.23906	0.082723	0.095982	0.34907	0.1133	0.136	0.028797	0.1358	0.23418	0.15712	0.17034	0.24653	0.12362	-0.97292	-2.2792	-1.7479	-1.7437	-2.1729	-1.6042	-2.0875	-2.2812	-1.225	-2.3438	-2.0167	-1.7125	-2.4708	-1.5417	-1.9479	-2.3458	317.891	284.148	123.284	331.561	164.277	79.937	300.590	186.673	135.807	-7.081	26.395	221.356	178.892	265.948	87.879	41.531	0.00021282	0.00053834	0.00022038	1265.7	3.5592e-06	4.702e-06	1268.9	353.79	3.0708e-06	5.5792e-06	405.39	134.22	115.42	40.477	3.9886e-06	50.764	0.00030851	0.00030375	8.3283e-05	1267.7	3.3598e-06	3.2538e-06	1273.2	357.47	3.2905e-06	3.1653e-06	407.59	136.14	117.3	41.052	3.1892e-06	51.321	184.476	95.104	75.427	-7.261	181.757	127.225	-7.404	-2.758	118.665	169.654	-3.495	1.524	2.224	6.156	179.157	5.558	-8191	255	
1535.818	1	1	0	0	0.18399	0.22596	0.12731	0.36435	0.20534	0.2138	0.14201	0.23748	0.15239	0.07912	0.22578	0.15943	0.1634	0.069307	0.18997	0.13692	-1.2292	-2.2604	-2.0229	-1.6562	-2.1958	-1.6333	-1.7687	-2.6458	-1.4667	-2.1646	-2.1042	-1.55	-2.3812	-1.7292	-1.6396	-2.5521	78.100	125.665	202.703	264.578	36.149	-1.993	91.936	306.751	252.332	30.741	247.579	239.109	194.265	40.682	251.364	273.826	0.00019044	0.00042329	0.00016412	1257.8	3.6606e-06	6.2508e-06	1269.9	355.13	3.7209e-06	8.7815e-07	404.16	133.97	115.69	40.425	4.0529e-06	50.419	0.00029864	0.00028652	8.2752e-05	1265.5	3.1944e-06	3.2022e-06	1272.5	357.39	3.2719e-06	3.13e-06	406.81	135.89	117.24	41	3.2157e-06	51.169	174.448	45.076	72.253	-6.748	146.659	112.762	-6.568	-1.951	176.841	101.874	-2.881	1.685	2.282	6.184	127.496	5.626	-8191	255	
1535.914	1	1	0	0	0.088932	0.26417	0.043187	0.46642	0.29938	0.18673	0.46776	0.23265	0.32314	0.074173	0.17336	0.22784	0.074039	0.15279	0.21384	0.019517	-0.92917	-1.9208	-2.1229	-1.7437	-2.2542	-1.7854	-1.775	-2.4708	-1.4354	-1.9958	-2.3208	-1.5	-2.3333	-2.0104	-1.6562	-2.4146	284.925	137.800	199.755	321.339	330.138	260.165	291.958	262.006	78.902	56.323	9.936	62.937	44.064	180.868	309.248	-13.343	0.00021589	0.00053157	0.0001225	1255	2.9473e-06	2.6969e-06	1266.8	354.19	2.9786e-06	6.595e-06	403.74	133.59	115.74	40.652	3.244e-06	50.876	0.00030409	0.00029343	8.242e-05	1261.3	3.2275e-06	3.2457e-06	1270.7	356.88	3.2839e-06	3.1504e-06	406.24	135.86	117.36	41.102	3.1714e-06	51.159	177.451	65.586	62.630	-7.036	137.243	95.417	-6.537	-2.635	123.304	170.038	-2.717	1.822	2.410	6.731	146.893	6.215	-8191	255	
1536.010	1	1	0	0	0.39058	0.23216	0.13412	0.24405	0.12841	0.169	0.2867	0.30497	0.19582	0.085726	0.18317	0.0646	0.31927	0.16611	0.23219	0.23817	-1.1479	-1.7458	-2.0917	-1.6271	-2.1646	-1.8208	-1.5396	-2.5708	-1.5312	-1.6437	-2.35	-1.2792	-2.2958	-1.625	-1.2354	-2.0521	131.644	-12.940	-3.886	250.451	110.884	133.792	283.531	283.265	271.592	153.512	219.039	169.740	261.119	205.226	143.816	250.123	0.00019885	0.00041832	0.00022461	1256.4	3.1316e-06	3.8508e-06	1263.8	351.52	3.1919e-06	4.4455e-06	404.11	133.97	115.39	40.406	4.1434e-06	50.394	0.00029705	0.00028548	7.9823e-05	1261.4	3.128e-06	3.1544e-06	1268.9	355.9	3.168e-06	3.0396e-06	406.42	135.94	117.1	41.003	3.1169e-06	51.162	180.922	41.264	55.986	-7.125	180.488	121.948	-6.833	-2.347	176.196	104.609	-2.726	2.166	2.555	6.454	122.644	5.895	-8191	255	
1536.107	1	1	0	0	0.14077	0.16428	0.21813	0.21547	0.31762	0.23498	0.047697	0.047897	0.20673	0.14966	0.27884	0.18678	0.29219	0.18103	0.24585	0.19194	-1.0167	-1.3729	-1.9792	-1.3229	-1.8396	-1.65	-1.2917	-2.0062	-1.3292	-1.4479	-2.0521	-1.1333	-1.8417	-1.9562	-1.0312	-1.9229	276.029	319.770	238.967	327.281	332.841	142.540	323.840	178.991	26.860	44.538	234.586	254.220	16.197	-18.619	125.466	0.625	0.00023464	0.00059671	0.00011979	1249.6	3.4872e-06	5.8823e-06	1262.4	351.49	1.9018e-06	6.7731e-06	402.68	133.93	115.13	40.482	5.2222e-06	50.561	0.00029766	0.00028304	7.8515e-05	1255.3	3.1579e-06	3.0824e-06	1264.9	355.92	3.1083e-06	3.083e-06	405.61	135.77	116.77	41.01	3.019e-06	51.162	172.480	69.915	58.342	-7.044	168.166	120.884	-6.795	-1.968	148.787	122.966	-2.962	1.992	2.238	6.417	136.397	6.036	-8191	255	
1536.203	1	1	0	0	0.1682	0.10584	0.25233	0.19626	0.12796	0.1149	0.16336	0.26321	0.11153	0.26175	0.11705	0.29374	0.31102	0.24799	0.018998	0.080893	-1.1604	-1.3646	-2.1125	-1.5063	-1.6646	-2.0521	-1.3229	-2.0979	-1.5625	-1.1562	-2.1396	-1.4125	-1.7625	-2.0375	-1.0479	-2.025	199.833	31.419	61.626	299.668	140.352	297.918	-19.018	304.703	210.752	111.173	169.770	334.643	280.029	-11.587	-1.327	259.193	0.00018521	0.00044348	0.00020544	1253.1	3.8314e-06	2.6357e-06	1263.9	353.24	4.4976e-06	6.3578e-06	403.91	133.91	114.64	40.444	3.7598e-06	50.382	0.00028587	0.00027537	7.7821e-05	1258.3	3.062e-06	2.9547e-06	1265.3	356.25	3.0315e-06	2.9516e-06	405.2	135.61	116.92	41.033	2.9485e-06	51.063	178.300	61.707	76.109	-7.195	170.708	145.650	-6.943	-2.431	151.697	143.675	-3.085	1.616	2.096	6.206	163.006	5.757	-8191	255	
1536.322	1	1	0	0	0.29942	0.20953	0.021555	0.075725	0.058535	0.0399	0.22338	0.12953	0.222	0.09537	0.39325	0.13819	0.045817	0.016909	0.18726	0.24379	-1.225	-1.0083	-2.1646	-1.6708	-1.7083	-2.0563	-1.2604	-2.0729	-1.7896	-1.1771	-2.3771	-1.5063	-1.5958	-2.0896	-1.1688	-2.1792	283.683	28.848	320.227	-12.908	185.209	3.075	305.141	257.513	200.703	227.500	281.649	27.105	287.189	-11.601	260.366	155.694	0.00019971	0.00057643	0.00018262	1252.2	3.0385e-06	3.4695e-06	1261.6	354.12	3.9502e-06	5.2407e-06	404.15	133.5	115.2	40.362	2.9032e-06	50.547	0.00028096	0.00026775	7.629e-05	1257.1	2.9914e-06	2.9659e-06	1265.3	356.45	2.9619e-06	2.9764e-06	405.5	135.58	117.01	40.994	2.9924e-06	51.051	171.235	59.161	90.561	-6.973	115.432	114.852	-6.907	-2.333	181.555	140.737	-2.844	1.878	2.577	6.530	146.693	6.041	-8191	255	
1536.418	1	1	0	0	0.13702	0.18516	0.095754	0.33699	0.18596	0.34022	0.50434	0.39749	0.25067	0.13963	0.21063	0.1226	0.37311	0.49056	0.18067	0.10016	-1.2604	-1.1354	-1.9583	-1.6458	-1.4917	-2.1854	-1.3667	-1.9354	-1.7437	-1.3813	-2.0979	-1.4958	-1.6125	-2.3792	-1.1708	-1.8708	139.991	42.814	48.742	284.992	-18.507	278.986	319.752	284.885	302.533	263.613	-5.082	302.234	-12.860	-0.743	333.202	164.744	0.0001848	0.00051162	0.00012925	1253.6	3.445e-06	5.0335e-06	1258.4	352.79	4.0831e-06	6.9594e-06	402.74	133.38	115.47	40.653	4.4622e-06	50.267	0.00027943	0.00026761	7.5302e-05	1257.7	2.9845e-06	2.9326e-06	1266.5	356.1	3.0021e-06	3.0026e-06	405.36	135.67	117.07	40.992	2.9906e-06	51.02	184.492	44.369	80.733	-6.938	137.664	131.518	-6.883	-2.252	189.207	170.567	-2.448	2.190	2.534	6.583	140.327	5.975	-8191	255	
1536.514	1	1	0	0	0.17019	0.35741	0.12006	0.21762	0.20711	0.2061	0.24473	0.29749	0.15287	0.12751	0.18432	0.12019	0.056213	0.21179	0.28884	0.22687	-1.5104	-1.2354	-2.0229	-1.6604	-1.3687	-2.2021	-1.3604	-1.8875	-1.8542	-1.1063	-2.0604	-1.5583	-1.3563	-2.2542	-1.4375	-1.8563	144.503	35.035	9.120	326.398	146.773	326.751	-18.765	320.416	296.151	-20.074	261.070	86.128	312.331	296.542	319.134	295.669	0.00020173	0.00053256	0.00022419	1252.9	3.6598e-06	4.1604e-06	1261	352.29	2.5423e-06	5.0702e-06	404.29	133.69	114.45	40.553	2.7678e-06	50.429	0.00027656	0.00026866	7.3353e-05	1256.5	2.9706e-06	2.9364e-06	1266.5	356.27	2.9474e-06	2.9717e-06	405.55	136.01	116.72	40.927	2.9463e-06	51	185.918	90.904	74.384	-7.115	166.222	149.461	-6.661	-2.621	185.672	145.821	-3.336	1.358	2.046	5.605	116.635	5.289	-8191	255	
1536.610	1	1	0	0	0.26305	0.25869	0.0858	0.35255	0.11108	0.13822	0.12143	0.34297	0.20289	0.20954	0.036534	0.19776	0.2263	0.15757	0.16187	0.36166	-1.6021	-0.91042	-1.9646	-1.8813	-1.0396	-2.0229	-1.5187	-1.5312	-1.8792	-1.1187	-2.025	-1.7	-1.3438	-2.1417	-1.2896	-1.6229	313.803	43.296	17.519	9.012	207.696	-8.870	315.282	269.344	24.332	27.981	169.634	304.830	11.261	308.709	190.569	-8.523	0.0002024	0.00044696	0.00011765	1252.7	3.6846e-06	5.3394e-06	1262.2	351.37	7.1055e-07	6.8018e-06	404.83	133.52	114.74	40.638	1.5353e-06	50.683	0.00027566	0.00027266	7.5606e-05	1256.8	3.0353e-06	2.8821e-06	1265.5	356.01	2.9323e-06	2.8976e-06	406.31	135.74	116.8	41.05	2.9059e-06	51.073	183.941	85.617	1.024	-7.848	160.402	116.443	-7.554	-2.818	197.386	108.465	-3.510	1.042	2.014	5.524	127.471	5.169	-8191	255	
1536.682	1	1	0	0	0.13385	0.25811	0.086607	0.2012	0.12702	0.11979	0.59696	0.28239	0.0034081	0.19367	0.23764	0.26963	0.12058	0.20267	0.15774	0.17032	-1.6625	-1.175	-1.8396	-1.9062	-1.3229	-2.1229	-1.6333	-1.6667	-2.1479	-1.2021	-1.8937	-1.7708	-1.3625	-2.1625	-1.3521	-1.4917	238.998	282.951	72.253	30.666	211.831	114.855	274.030	302.819	21.638	10.160	263.251	234.748	53.559	-12.788	172.992	248.721	0.00022032	0.00052663	8.5926e-05	1253.1	3.5564e-06	3.4091e-06	1256.6	353.27	3.9547e-06	5.9427e-06	403.91	133.28	115.24	40.289	2.7112e-06	50.798	0.00027386	0.00027368	7.3158e-05	1258.2	2.9794e-06	2.8248e-06	1262.9	356.23	2.9731e-06	2.8631e-06	405.77	135.79	117	41.023	2.8888e-06	51.059	177.743	53.257	66.040	-7.660	128.972	141.351	-7.434	-2.905	195.795	159.081	-3.627	0.987	1.738	5.916	160.594	5.232	-8191	255	
1536.802	1	1	0	0	0.28369	0.076212	0.048158	0.36664	0.23179	0.090971	0.067226	0.32258	0.11039	0.25202	0.075043	0.1339	0.17768	0.38665	0.048771	0.1159	-1.5938	-1.3458	-1.6208	-2.0687	-1.1437	-1.9354	-1.7354	-1.3062	-1.9875	-1.2917	-1.7458	-2.2062	-1.1812	-2.0708	-1.5146	-1.575	252.671	159.053	-3.598	298.939	5.274	105.992	230.297	283.651	73.910	13.761	294.122	252.287	327.063	287.246	-0.888	153.230	0.00022375	0.00028439	0.00016731	1250.4	3.1043e-06	4.256e-06	1253.9	352.72	4.5157e-06	4.0859e-06	403.51	133.6	114.94	40.601	3.5177e-06	50.395	0.00026904	0.00026382	7.1702e-05	1255.4	2.9514e-06	2.8083e-06	1261.8	356.25	2.929e-06	2.8369e-06	406	135.46	116.78	41.033	2.9031e-06	50.965	182.457	47.924	72.426	-7.661	132.410	133.879	-7.478	-2.816	137.251	129.305	-3.573	1.268	1.757	5.850	141.773	5.296	-8191	255	
1536.899	1	1	0	0	0.22973	0.1606	0.087337	0.33675	0.18611	0.1379	0.28322	0.059363	0.31699	0.27374	0.3035	0.25609	0.4733	0.27626	0.2632	0.19226	-1.7292	-1.3	-1.5208	-2.2625	-1.225	-2.0312	-1.8667	-1.3417	-2.225	-1.2854	-1.5083	-2.1021	-1.2333	-1.9979	-1.7104	-1.2854	276.843	199.449	305.248	285.267	-15.116	271.384	291.569	314.977	279.730	-6.533	334.178	299.144	225.366	178.810	185.064	128.475	0.00017369	0.00040853	0.00017821	1247.9	3.6377e-06	3.5175e-06	1258	352.42	1.3768e-06	5.015e-06	402.84	133.45	115.15	40.515	5.3855e-06	50.458	0.00026488	0.0002603	7.0223e-05	1254.7	2.8992e-06	2.6974e-06	1262.6	355.36	2.7502e-06	2.6914e-06	405.67	135.55	116.95	41.06	2.7737e-06	51.061	172.791	93.440	72.197	-7.712	144.408	112.150	-7.389	-2.857	147.747	152.958	-3.385	1.260	1.521	5.889	166.162	5.057	-8191	255	
1536.995	1	1	0	0	0.24632	0.2017	0.30744	0.19049	0.33233	0.42549	0.13042	0.41638	0.19628	0.17574	0.060401	0.10239	0.18592	0.20736	0.2053	0.13506	-1.5167	-1.2479	-1.2188	-2.2562	-1.25	-1.5854	-2.0854	-1.0542	-1.925	-1.4146	-1.4104	-2.3125	-1.2563	-1.6917	-1.8854	-1.4042	275.645	81.115	230.062	29.059	260.270	17.264	280.382	310.203	140.625	214.649	114.159	258.165	266.403	183.707	25.801	250.182	0.00020697	0.00057662	0.00013078	1249.2	3.1904e-06	4.8082e-06	1258.8	354.01	4.2648e-06	5.0676e-06	404.46	134.05	114.92	40.396	2.6846e-06	50.448	0.00025759	0.00024723	6.8398e-05	1255.2	2.8007e-06	2.6586e-06	1264.5	356.3	2.8079e-06	2.7439e-06	405.41	135.87	116.64	40.992	2.7605e-06	51.116	180.471	40.530	72.374	-7.841	144.663	108.539	-7.583	-3.009	164.189	136.102	-3.509	1.339	1.639	5.756	142.183	5.291	-8191	255	
1537.091	1	1	0	0	0.21642	0.13438	0.21122	0.059134	0.086988	0.05534	0.18269	0.22428	0.059031	0.11594	0.22742	0.25534	0.12124	0.1263	0.13064	0.10696	-1.65	-1.5438	-1.3625	-2.1521	-1.3229	-1.8375	-2.1271	-1.3917	-2.0229	-1.4542	-1.2042	-2.4333	-1.45	-1.7	-1.7167	-1.1771	-4.510	208.380	25.723	40.733	28.352	157.901	259.529	295.217	144.333	73.725	308.033	62.223	81.081	-6.889	83.379	204.463	0.00021054	0.00048375	0.00015168	1250.7	3.8031e-06	3.7958e-06	1254.2	353.58	3.5445e-06	4.8749e-06	403.33	133.56	114.83	40.374	5.4499e-06	50.538	0.00026689	0.00025902	7.0428e-05	1257.8	2.8616e-06	2.7469e-06	1262.5	356.25	2.7276e-06	2.6907e-06	405.88	135.81	116.85	40.989	2.8157e-06	51.059	173.949	56.601	114.081	-7.553	143.295	108.123	-7.683	-3.011	131.645	144.757	-3.231	1.036	1.521	5.966	143.504	5.128	-8191	255	
1537.210	1	1	0	0	0.074983	0.33055	0.25288	0.14494	0.12741	0.15351	0.1108	0.24947	0.26867	0.2802	0.28361	0.31892	0.14448	0.31778	0.30341	0.17378	-1.525	-1.4521	-1.1646	-2.2083	-1.1271	-1.8083	-2.2792	-1.2188	-1.9688	-1.7021	-1.1187	-2.1792	-1.5354	-1.6875	-2.0812	-1.3979	4.249	133.813	11.980	336.111	3.203	242.648	315.912	1.447	117.402	125.117	238.130	261.366	236.457	317.115	128.734	201.274	0.0002169	0.0006627	0.00016818	1251.5	2.8933e-06	3.3767e-06	1258.2	352.2	3.2082e-06	3.5481e-06	404.36	133.35	114.89	40.417	2.8735e-06	50.288	0.00026836	0.00025639	7.1174e-05	1255.8	2.8804e-06	2.7445e-06	1261	355.6	2.7419e-06	2.6669e-06	406.22	135.58	116.62	40.959	2.7723e-06	51.034	188.414	66.606	82.044	-7.807	174.275	123.808	-7.416	-2.761	172.886	135.059	-3.394	1.147	1.431	5.961	73.570	5.293	-8191	255	
1537.283	1	1	0	0	0.27816	0.12406	0.41917	0.49144	0.24452	0.14768	0.14187	0.2543	0.31244	0.11544	0.16986	0.18222	0.03785	0.019003	0.13524	0.12137	-1.4542	-1.8542	-1.2146	-2.1833	-1.4021	-1.5333	-2.1396	-1.2542	-1.8458	-1.8833	-1.2229	-2.1292	-1.5375	-1.5375	-2.0729	-1.4625	81.619	282.025	-10.334	319.652	76.719	77.687	317.308	32.896	159.456	7.819	212.806	294.921	36.297	309.645	122.438	142.702	0.00020865	0.00027249	0.00016162	1252.2	3.4371e-06	5.0258e-06	1259.4	350.8	1.6985e-06	3.9793e-06	404.48	133.46	114.92	40.457	6.0774e-06	50.444	0.00026184	0.00025344	7.1595e-05	1255.9	2.8237e-06	2.8445e-06	1262.8	355.23	2.7808e-06	2.7885e-06	405.48	135.62	116.69	41.011	2.797e-06	51.041	179.228	95.975	29.689	-7.644	181.059	121.514	-7.437	-2.844	132.876	157.083	-3.680	1.405	1.603	5.995	124.568	5.333	-8191	255	
1537.402	1	1	0	0	0.17921	0.20652	0.14913	0.52526	0.18754	0.19098	0.24964	0.24982	0.24561	0.098806	0.343	0.27055	0.18947	0.05026	0.24111	0.21485	-1.3167	-2.0021	-1.0521	-2.0917	-1.3687	-1.45	-2.2229	-1.5458	-1.6083	-2.0792	-1.3312	-1.9583	-1.7146	-1.3354	-2.0938	-1.2896	219.751	166.127	161.579	295.191	158.309	28.091	285.062	338.049	321.525	222.758	250.162	-3.600	331.186	67.009	111.166	30.866	0.00020202	0.00045849	0.00018363	1251.6	3.8366e-06	5.8231e-06	1257.8	352.91	4.5708e-06	5.4384e-06	404.74	133.44	115.19	40.293	4.7958e-06	50.417	0.00026873	0.00025886	7.2755e-05	1255.8	2.8615e-06	2.7896e-06	1263.6	355.66	2.7709e-06	2.6871e-06	405.71	135.78	116.98	40.909	2.7213e-06	51.062	184.464	77.051	80.472	-7.500	141.600	156.628	-7.566	-2.745	171.632	127.516	-3.368	1.302	1.714	5.909	152.902	5.106	-8191	255	
1537.498	1	1	0	0	0.087505	0.23929	0.22173	0.43845	0.24614	0.14297	0.24135	0.079036	0.13317	0.11768	0.20746	0.34061	0.27258	0.25634	0.12311	0.19601	-1.0729	-1.9458	-1.0708	-2.1229	-1.7354	-1.2292	-2.4708	-1.6646	-1.55	-2.0104	-1.1938	-1.8604	-1.8958	-1.25	-2.1813	-1.3667	303.272	312.607	-11.474	295.369	139.556	83.511	255.037	-18.170	13.875	75.253	36.176	314.299	321.928	-18.878	10.653	289.818	0.00019529	0.0005081	0.00020906	1255.7	3.6681e-06	4.6421e-06	1260.5	353.01	1.9538e-06	4.4089e-06	402.23	133.52	115.1	40.382	5.5e-06	50.763	0.00026217	0.00025378	6.8965e-05	1258	2.7738e-06	2.7134e-06	1266.1	356	2.7868e-06	2.7172e-06	404.72	135.69	117.05	40.913	2.7286e-06	51.229	186.060	80.322	73.283	-7.661	162.192	115.517	-7.437	-2.767	148.952	154.761	-3.510	1.086	1.594	5.766	117.249	5.538	-8191	255	
1537.594	1	1	0	0	0.072081	0.17604	0.29928	0.15674	0.4252	0.22606	0.13906	0.16056	0.19067	0.18049	0.23613	0.35139	0.181	0.095949	0.26321	0.12937	-1.2208	-2.05	-1.2208	-1.9417	-1.8104	-1.1229	-2.0646	-1.6875	-1.4354	-2.0667	-1.4083	-1.8188	-1.8479	-1.1792	-2.0167	-1.6688	116.595	9.142	159.063	108.671	54.020	111.932	269.333	319.569	249.728	149.177	242.139	314.301	153.312	228.621	101.865	320.751	0.00022408	0.00037633	8.6199e-05	1249.1	4.2938e-06	5.4825e-06	1261.6	351.94	4.1886e-06	6.1104e-06	403.73	133.66	115.24	40.346	3.7833e-06	50.312	0.00026397	0.00024677	7.0496e-05	1255.8	2.8286e-06	2.803e-06	1267.8	355.69	2.7919e-06	2.6615e-06	405.98	135.65	117.06	40.969	2.8033e-06	51.032	186.489	88.889	93.643	-7.517	154.734	111.758	-7.440	-3.029	182.666	167.404	-3.275	1.557	1.625	5.774	185.500	5.038	-8191	255	
1537.690	1	1	0	0	0.31393	0.17325	0.13945	0.41852	0.069736	0.32254	0.21508	0.21405	0.11876	0.07815	0.17117	0.21034	0.15706	0.17871	0.36441	0.23768	-0.77917	-1.9979	-1.1792	-2.0646	-1.9333	-1.1646	-2.075	-1.7729	-1.3271	-2.0417	-1.3479	-1.6771	-2.1479	-1.3021	-1.9167	-1.8312	118.991	310.968	257.162	302.274	0.925	-9.696	252.321	216.026	67.854	111.587	98.400	288.672	286.329	312.189	216.692	279.766	0.00018918	0.00046066	0.00014077	1256.6	3.7193e-06	1.848e-06	1259.5	353	2.1834e-06	4.5969e-06	405.34	133.75	114.79	40.576	5.073e-06	50.528	0.000269	0.00024691	6.8057e-05	1258	2.8294e-06	2.7686e-06	1265.3	356.22	2.7432e-06	2.6644e-06	406.16	135.8	116.83	41.039	2.6326e-06	51.123	180.379	32.848	71.731	-7.494	155.486	59.800	-7.442	-3.044	200.588	110.710	-3.388	1.404	1.483	5.731	130.114	5.234	-8191	255	
1537.811	1	1	0	0	0.13363	0.058654	0.072571	0.073115	0.19418	0.22561	0.14752	0.21721	0.28832	0.043647	0.26123	0.13484	0.15773	0.12478	0.25824	0.26216	-0.71667	-2.1792	-1.3583	-1.5521	-1.9729	-1.1938	-2.2333	-1.825	-1.0146	-1.9688	-1.4979	-1.5271	-2.0458	-1.2542	-1.9104	-1.7375	331.552	19.529	128.836	278.360	-4.988	114.740	224.355	302.815	149.337	311.888	36.945	88.222	266.399	324.056	229.681	304.872	0.00019961	0.00053734	0.00014251	1253.1	2.8365e-06	4.7903e-06	1265.2	351.95	3.4125e-06	3.7069e-06	404.27	133.14	114.56	40.509	2.5894e-06	50.347	0.00025362	0.00023626	6.8099e-05	1259.8	2.6591e-06	2.6542e-06	1268.1	355.37	2.6447e-06	2.5795e-06	405.7	135.72	116.95	40.967	2.6057e-06	51.033	176.566	64.518	69.296	-7.629	155.255	145.545	-7.587	-2.752	136.986	157.838	-3.699	1.484	1.820	5.746	178.312	4.936	-8191	255	
1537.907	1	1	0	0	0.2417	0.21745	0.15731	0.2392	0.037935	0.12881	0.29029	0.24084	0.1145	0.04881	0.13433	0.39352	0.12311	0.11948	0.22218	0.16498	-0.78125	-1.9375	-1.4688	-1.5208	-2.2021	-1.2729	-1.8708	-2.0438	-1.025	-2.0708	-1.5479	-1.3146	-2.2625	-1.3229	-1.5958	-1.8396	37.447	163.105	70.201	278.084	78.273	88.413	302.893	338.315	93.553	230.277	241.459	290.239	3.876	75.097	275.074	35.969	0.00017668	0.0004984	0.00015965	1249.7	1.6361e-06	2.6605e-06	1259.2	352.45	2.5864e-06	6.146e-06	404.35	133.44	115.41	40.233	6.1558e-06	50.308	0.00024997	0.00023468	6.6443e-05	1255.6	2.7091e-06	2.6056e-06	1265.2	355.65	2.6418e-06	2.5161e-06	405.06	135.81	116.92	40.939	2.5839e-06	50.958	189.095	46.844	47.719	-7.512	120.478	139.813	-7.543	-2.948	182.871	178.530	-3.880	1.237	1.920	5.721	122.440	5.212	-8191	255	
1537.979	1	1	0	0	0.13931	0.16005	0.30624	0.23103	0.12543	0.23107	0.50072	0.11964	0.14022	0.2021	0.27605	0.16122	0.090857	0.2621	0.13153	0.15353	-0.73542	-2.1708	-1.5604	-1.5896	-2.1833	-1.2833	-1.7458	-2.1771	-1.1729	-1.7771	-1.8	-1.3292	-2.1646	-1.3042	-1.4562	-2.1542	255.497	144.344	176.904	46.377	61.284	62.238	290.338	-11.265	168.602	117.025	17.775	21.598	-13.768	9.635	33.014	329.202	0.0002287	0.00033887	0.00012065	1252.2	2.7848e-06	4.6572e-06	1259.1	353.71	2.4657e-06	3.2008e-06	403.79	133.71	115.58	40.599	3.9722e-06	50.766	0.00025747	0.00023613	6.3838e-05	1257.6	2.4861e-06	2.4857e-06	1265.6	356.57	2.5276e-06	2.4104e-06	406.51	136.05	117.3	41.161	2.3906e-06	51.317	186.387	60.205	77.506	-7.529	127.922	123.333	-7.374	-2.916	136.806	117.909	-3.562	1.419	1.914	5.922	138.380	5.023	-8191	255	
1538.100	1	1	0	0	0.29505	0.092631	0.1438	0.44381	0.0096424	0.15659	0.28641	0.34813	0.081434	0.12722	0.15826	0.27672	0.074707	0.27057	0.18309	0.20774	-0.75833	-1.7958	-1.7188	-1.2792	-2.1146	-1.4062	-1.6875	-1.9813	-1.2708	-1.8792	-1.8563	-1.3188	-2.025	-1.4312	-1.2812	-2.3833	319.541	110.582	40.809	335.357	148.826	298.031	215.051	310.725	37.306	315.573	27.110	268.219	28.837	6.340	311.120	224.217	0.00022405	0.00064792	0.00012922	1255.8	3.3645e-06	6.4836e-06	1260.7	352.28	3.3914e-06	5.8672e-06	405.85	134.98	116.22	40.77	5.4741e-06	51.259	0.00023566	0.00021648	5.8647e-05	1259.8	2.3363e-06	2.3045e-06	1268.5	356.81	2.3704e-06	2.2164e-06	406.7	136.82	117.64	41.261	2.392e-06	51.478	177.892	58.899	60.580	-7.514	167.353	121.962	-7.377	-2.738	166.089	162.148	-3.222	1.493	2.069	6.132	132.551	5.282	-8191	255	
1538.194	1	1	0	0	0.11688	0.39136	0.51867	0.13451	0.12356	0.17351	0.17489	0.050896	0.089001	0.072955	0.057964	0.17137	0.13101	0.040723	0.11568	0.1922	-0.63125	-1.5854	-1.9125	-1.2021	-1.8792	-1.4583	-1.5896	-2.1354	-1.2792	-1.5167	-1.9479	-1.3958	-2.0354	-1.6729	-1.2104	-2.3354	291.284	224.449	92.750	323.710	202.597	108.282	263.915	122.347	244.477	111.231	-14.110	292.595	281.805	-8.966	283.235	214.441	0.00021416	0.00041958	0.00021726	1256.3	3.619e-06	5.7758e-06	1261.9	352.91	2.7349e-06	7.184e-06	406.77	134.79	115.57	40.54	2.8068e-06	50.778	0.00023568	0.00021666	6.0904e-05	1259.2	2.4117e-06	2.3646e-06	1267.3	356.88	2.4047e-06	2.3386e-06	407.52	136.51	117.42	41.248	2.4382e-06	51.322	182.098	62.659	64.054	-7.338	131.004	104.710	-7.360	-2.685	158.149	149.664	-3.184	1.383	1.906	5.817	130.957	5.125	-8191	255	
1538.290	1	1	0	0	0.073794	0.12185	0.11506	0.13334	0.26711	0.1259	0.28946	0.11782	0.21023	0.29951	0.097715	0.16564	0.13866	0.12352	0.10889	0.15211	-0.85417	-1.4875	-1.7771	-1.3104	-1.9167	-1.5187	-1.5063	-2.2104	-1.2458	-1.4146	-2	-1.2146	-2.0708	-1.9792	-1.2104	-2.0833	281.779	94.193	168.441	255.432	165.375	278.518	249.174	320.100	75.656	83.966	104.371	155.296	313.795	284.998	230.353	280.871	0.00018297	0.00042681	0.00016056	1251.8	3.2318e-06	3.5672e-06	1260.4	354.73	2.4551e-06	3.5073e-06	404.43	134.41	115.91	40.948	5.2877e-06	50.877	0.00023505	0.00021854	5.84e-05	1255	2.4131e-06	2.3486e-06	1263.4	356.62	2.4383e-06	2.3217e-06	407.01	136.45	117.62	41.293	2.3819e-06	51.301	184.067	70.578	65.145	-7.327	130.768	125.066	-7.395	-2.590	148.374	165.440	-3.463	1.265	1.949	6.001	124.398	5.435	-8191	255	
1538.386	1	1	0	0	0.13663	0.27041	0.15025	0.15778	0.099763	0.12805	0.19893	0.061992	0.084067	0.036002	0.17848	0.38716	0.054273	0.21568	0.13464	0.082988	-0.94167	-1.3708	-1.8542	-1.3521	-1.8729	-1.6708	-1.4312	-2.1583	-1.45	-1.3021	-2.0125	-1.1	-1.775	-2.1083	-1.0604	-2.2708	268.093	279.763	175.579	311.915	95.050	60.224	315.665	290.033	161.062	30.159	338.486	297.368	318.581	233.274	338.644	244.177	0.00017235	0.00043641	0.00014232	1252.4	2.7378e-06	3.2287e-06	1267.3	353.4	3.1161e-06	7.1351e-06	408.23	134.31	115.91	40.914	3.1091e-06	50.965	0.00023081	0.00021168	5.8359e-05	1256.4	2.352e-06	2.2305e-06	1268.2	356.39	2.4048e-06	2.2499e-06	407.24	136.39	117.73	41.33	2.2178e-06	51.333	187.152	82.054	89.410	-7.437	153.490	149.321	-7.089	-2.726	175.095	146.558	-3.431	1.300	1.771	5.926	138.877	5.538	-8191	255	
1538.507	1	1	0	0	0.15434	0.22551	0.23516	0.38983	0.24936	0.045232	0.2769	0.2625	0.039312	0.11884	0.26235	0.12797	0.1605	0.2217	0.23692	0.27211	-1.0104	-1.4375	-2.0875	-1.3625	-1.5667	-1.8042	-1.2938	-2.0938	-1.5396	-1.2833	-2.1813	-1.2417	-1.7354	-1.9917	-1.1479	-2.1312	151.451	31.546	229.147	294.668	219.796	24.723	275.831	274.278	140.676	-0.438	262.900	233.757	266.422	318.217	132.099	60.294	0.00020231	0.00057529	0.0001463	1252.4	3.4136e-06	3.4882e-06	1261.5	353.51	2.8068e-06	4.6335e-06	408.41	134.38	115.98	40.785	5.2673e-06	50.897	0.00022453	0.00020262	5.6149e-05	1258.7	2.2919e-06	2.2827e-06	1267.5	356.39	2.3091e-06	2.2603e-06	407.84	136.55	117.79	41.26	2.3379e-06	51.333	183.556	48.480	69.553	-7.486	144.911	123.909	-7.131	-2.789	188.682	149.226	-3.448	1.418	2.253	5.970	162.550	5.246	-8191	255	
1538.579	1	1	0	0	0.26835	0.21395	0.15443	0.33382	0.098576	0.38955	0.067486	0.15699	0.14149	0.17442	0.12213	0.25876	0.10709	0.13757	0.28557	0.18215	-1.1688	-1.1271	-1.9875	-1.4	-1.4208	-1.7812	-1.2542	-2.0542	-1.5625	-1.1437	-2.2875	-1.3792	-1.5479	-1.9125	-1.175	-1.8937	47.625	81.867	234.848	307.688	317.113	22.952	121.920	287.348	217.645	107.489	230.967	313.621	-12.511	332.390	332.536	306.756	0.00023318	0.00033969	0.00015477	1251.7	3.6128e-06	2.7907e-06	1260	353.85	2.5454e-06	5.9311e-06	405.47	134.71	116.46	40.837	4.3796e-06	50.537	0.00022476	0.0002112	5.7108e-05	1257.8	2.3538e-06	2.2488e-06	1266.2	356.66	2.4019e-06	2.2896e-06	407.54	136.78	117.78	41.235	2.378e-06	51.285	184.276	54.813	75.556	-7.388	154.791	138.535	-7.224	-2.326	131.110	155.911	-3.125	1.445	1.896	6.014	157.891	5.902	-8191	255	
1538.675	1	1	0	0	0.021701	0.29535	0.080878	0.45052	0.20335	0.067609	0.2887	0.11376	0.41605	0.18378	0.27508	0.1225	0.24579	0.31679	0.052882	0.10505	-1.2146	-1.0625	-1.9896	-1.5479	-1.4854	-2.2625	-1.3604	-1.9833	-1.7229	-1.1021	-2.125	-1.7667	-1.3937	-2.1125	-1.1271	-1.8458	265.281	277.737	33.291	312.950	319.819	23.652	254.490	335.950	116.246	2.917	6.777	104.563	25.772	6.335	-13.126	94.629	0.00023759	0.00033111	0.00014325	1254.9	2.227e-06	6.1508e-06	1262.5	353.14	4.9334e-06	6.0715e-06	406.41	134.94	116.25	40.895	4.8365e-06	50.778	0.00023274	0.000216	5.9281e-05	1259.2	2.4671e-06	2.2995e-06	1268.2	356.49	2.458e-06	2.3894e-06	407.84	136.78	117.7	41.244	2.4134e-06	51.317	177.451	66.851	50.761	-7.532	138.455	122.337	-7.092	-2.607	157.258	149.642	-3.120	1.469	2.145	6.127	153.580	5.565	-8191	255	
1538.771	1	1	0	0	0.33102	0.12422	0.067403	0.096352	0.19757	0.21156	0.31845	0.1294	0.18093	0.18732	0.053401	0.039575	0.15694	0.20008	0.28434	0.25506	-1.4	-1.1125	-1.8896	-1.6917	-1.5271	-1.9833	-1.3	-1.7667	-2.1188	-1.1354	-2.1417	-1.8438	-1.5458	-2.0708	-1.3021	-1.8	105.374	291.450	64.752	39.759	-11.669	65.266	295.690	264.572	46.768	183.236	165.368	43.080	283.923	330.561	153.635	338.650	0.00021989	0.00048946	9.2884e-05	1252.2	3.2336e-06	3.6995e-06	1263.6	353.7	4.4744e-06	4.9778e-06	408.67	134.34	116	40.736	5.0103e-06	50.962	0.00023224	0.00021954	5.9328e-05	1258	2.4644e-06	2.2987e-06	1269.4	356.9	2.3977e-06	2.3707e-06	408.33	136.73	117.67	41.224	2.4343e-06	51.38	187.203	50.848	85.547	-7.634	153.556	124.143	-7.389	-2.451	150.679	128.403	-3.263	1.585	2.029	6.496	123.835	5.847	-8191	255	
1538.891	1	1	0	0	0.18304	0.063638	0.034487	0.20971	0.24958	0.28111	0.22873	0.44288	0.14242	0.35072	0.14809	0.15565	0.50672	0.12034	0.088461	0.060534	-1.6667	-1.1167	-1.9896	-2.1	-1.3104	-2.1354	-1.4021	-1.4438	-1.8687	-1.0271	-2.1375	-1.8083	-1.2125	-1.9521	-1.2521	-1.7146	172.407	135.954	301.816	329.293	91.753	241.680	330.649	-13.250	167.605	204.861	307.430	147.019	299.133	38.064	243.689	199.925	0.00022267	0.00078137	0.00012083	1255.4	2.6249e-06	4.5078e-06	1261.6	352.01	1.9704e-06	5.5572e-06	406.56	134.43	115.62	40.55	4.8737e-06	50.838	0.00023507	0.00021544	6.1572e-05	1258.8	2.4639e-06	2.3515e-06	1267.8	356.45	2.3926e-06	2.3536e-06	408.34	136.59	117.57	41.158	2.3729e-06	51.271	186.568	81.270	105.744	-7.516	146.063	120.256	-7.244	-2.492	162.664	135.238	-2.777	1.361	2.218	6.461	120.367	5.673	-8191	255	
1538.988	1	1	0	0	0.11704	0.064762	0.11931	0.37179	0.064195	0.23553	0.27911	0.33739	0.30234	0.13016	0.26906	0.14614	0.11478	0.066427	0.29773	0.14613	-1.7354	-0.94792	-1.7646	-1.7313	-1.1542	-2.0125	-1.6583	-1.5063	-1.9062	-1.1875	-1.8979	-1.9479	-1.2458	-1.8896	-1.3667	-1.5854	82.402	272.355	14.577	279.343	240.479	54.098	326.318	334.249	8.179	1.362	311.547	267.227	-8.369	38.914	271.463	323.800	0.00019842	0.00057343	9.9421e-05	1253.3	1.6798e-06	4.8618e-06	1262.2	353.19	3.41e-06	2.9858e-06	406.65	134.4	116.21	40.73	3.9635e-06	50.751	0.00022997	0.00021915	5.9874e-05	1258.7	2.4844e-06	2.3453e-06	1269.6	356.6	2.4025e-06	2.3621e-06	408.25	136.63	117.68	41.241	2.3787e-06	51.288	170.136	75.333	78.506	-7.274	122.801	131.774	-7.203	-2.697	174.410	181.896	-3.001	1.621	2.109	6.482	158.751	5.894	-8191	255	
1539.084	1	1	0	0	0.13358	0.1263	0.22111	0.34128	0.16888	0.16767	0.35128	0.32155	0.35113	0.34876	0.25518	0.17079	0.24614	0.18016	0.22796	0.08597	-1.6771	-1.1875	-1.6562	-2.1667	-1.0125	-1.9625	-1.6313	-1.3833	-2.1167	-1.1229	-1.7604	-2.1479	-1.2333	-1.9562	-1.5042	-1.2812	91.109	57.374	113.904	263.092	329.544	-7.738	317.824	260.565	22.706	236.033	324.658	59.959	-10.742	315.044	145.563	-16.487	0.00022383	0.00040445	0.00016693	1257.1	3.6541e-06	2.3535e-06	1261.1	353.36	4.2796e-06	3.5847e-06	408.69	134.65	116.43	40.781	3.8797e-06	51.045	0.00023579	0.00021697	5.9515e-05	1261.2	2.4914e-06	2.3166e-06	1268.5	357.05	2.3755e-06	2.4593e-06	409.03	136.77	117.96	41.237	2.3622e-06	51.431	181.743	69.584	119.233	-7.385	141.716	121.974	-7.076	-2.425	175.615	150.517	-3.066	1.755	2.036	6.367	143.969	5.870	-8191	255	
1539.180	1	1	0	0	0.056015	0.090408	0.1645	0.13772	0.17867	0.084955	0.07373	0.22491	0.28079	0.11009	0.10244	0.21145	0.2544	0.056997	0.26245	0.14605	-1.7625	-1.3146	-1.5875	-2.1708	-1.2479	-1.9604	-1.8875	-1.3521	-1.9667	-1.1854	-1.55	-2.2792	-1.1479	-1.8583	-1.5625	-1.2479	67.122	186.024	192.619	308.157	156.499	309.324	198.451	285.588	46.925	42.095	144.403	3.624	-3.695	113.519	94.679	259.417	0.00018219	0.00047202	0.00013016	1254.8	3.5779e-06	5.3694e-06	1263.5	354.28	3.8861e-06	6.3239e-06	407.14	135.82	116.18	40.75	4.993e-06	50.817	0.00022882	0.00021677	5.86e-05	1260	2.4048e-06	2.2895e-06	1268.3	356.84	2.4411e-06	2.342e-06	408.2	136.99	117.62	41.218	2.3784e-06	51.278	186.523	46.992	65.113	-7.178	157.437	110.722	-7.213	-2.312	162.924	149.080	-3.115	1.466	2.081	6.330	123.261	5.975	-8191	255	
1539.276	1	1	0	0	0.037225	0.26004	0.16496	0.17929	0.13302	0.095175	0.13568	0.17691	0.14407	0.12507	0.060091	0.11301	0.16381	0.20287	0.17845	0.24691	-1.6458	-1.4125	-1.2167	-2.1375	-1.1042	-1.7208	-2.0438	-1.1583	-1.9104	-1.3896	-1.4458	-2	-1.4208	-1.8229	-1.8896	-1.2042	113.288	13.103	160.529	327.693	205.175	288.244	291.371	16.826	275.978	90.700	34.498	126.373	27.090	285.384	231.037	224.063	0.00018567	0.00047355	8.6495e-05	1257.5	2.2412e-06	2.9886e-06	1260.5	354.14	3.3816e-06	5.1369e-06	406.93	134.35	115.97	40.803	3.573e-06	50.566	0.00022939	0.00021922	5.9341e-05	1258.9	2.4504e-06	2.2472e-06	1267.7	356.92	2.318e-06	2.3795e-06	407.49	136.51	117.5	41.189	2.4261e-06	51.193	181.063	62.002	99.893	-7.258	149.671	162.644	-7.029	-2.389	136.132	182.619	-3.096	1.818	2.088	6.360	152.939	5.632	-8191	255	
1539.372	1	1	0	0	0.20757	0.25346	0.15305	0.3745	0.17246	0.19938	0.21948	0.096285	0.107	0.064905	0.059995	0.32532	0.17001	0.24701	0.06427	0.1733	-1.5958	-1.3813	-1.2	-2.2958	-1.2354	-1.65	-2.1188	-1.2062	-1.9083	-1.3792	-1.0979	-2.0625	-1.3563	-1.6146	-2.0812	-1.2125	247.532	71.210	242.928	285.066	116.236	261.325	309.820	243.240	337.590	21.687	286.674	245.444	206.204	233.733	146.394	320.583	0.00019241	0.00033747	0.00018102	1248.5	4.3137e-06	5.6924e-06	1264	353.41	3.9113e-06	2.8138e-06	407.18	135.28	115.53	40.67	3.3058e-06	50.786	0.00023467	0.00021464	6.0698e-05	1257	2.4442e-06	2.3372e-06	1267.7	356.38	2.3985e-06	2.3408e-06	407.33	136.65	117.38	41.217	2.4032e-06	51.174	184.487	63.144	92.075	-7.030	138.982	131.417	-6.976	-2.426	160.102	138.231	-2.956	1.672	2.076	6.496	127.991	5.788	-8191	255	
1539.491	1	1	0	0	0.21155	0.23139	0.32197	0.1093	0.21657	0.21388	0.38306	0.20256	0.075204	0.12447	0.21544	0.33216	0.15881	0.2769	0.17718	0.11675	-1.625	-1.7333	-1.2375	-2.2313	-1.3312	-1.6042	-2.2667	-1.2417	-1.6917	-1.8292	-1.1313	-2.0083	-1.4792	-1.5083	-1.9208	-1.4354	292.222	133.037	214.764	257.281	176.080	12.552	270.112	272.395	142.745	29.673	290.643	335.009	8.669	318.912	146.114	275.592	0.00020069	0.00020327	0.00011603	1254	6.0284e-07	4.7979e-06	1263.6	353.1	2.5695e-06	4.5085e-06	406.7	134.25	115.71	40.598	3.9808e-06	50.693	0.00023488	0.00022423	6.056e-05	1258.6	2.497e-06	2.3506e-06	1265.7	355.83	2.3581e-06	2.3817e-06	407.05	136.12	117.3	41.118	2.354e-06	51.092	181.301	61.280	48.811	-6.997	181.280	94.341	-7.099	-2.240	138.980	147.233	-2.768	1.967	2.479	6.481	122.206	6.018	-8191	255	
1539.587	1	1	0	0	0.083504	0.10953	0.13094	0.15388	0.16496	0.039258	0.45755	0.26569	0.24545	0.27507	0.076213	0.12085	0.16649	0.13635	0.19402	0.26132	-1.5375	-1.7938	-1.0875	-2.1125	-1.3687	-1.3979	-2.1729	-1.3813	-1.6583	-1.9667	-1.2833	-2.1813	-1.6083	-1.3312	-2.075	-1.2979	262.185	210.424	255.089	-5.342	214.780	20.185	250.785	237.975	303.725	99.656	-15.205	272.694	3.510	182.204	281.589	222.240	0.00020899	0.00050223	0.00013593	1251.2	4.6838e-06	5.1486e-06	1261.7	351.14	3.1846e-06	3.8253e-06	406.25	134.19	116.34	40.409	2.4515e-06	50.63	0.00023215	0.00021556	6.0641e-05	1256.9	2.4845e-06	2.3724e-06	1266.3	355.16	2.3535e-06	2.3262e-06	406.82	136.14	117.37	41.025	2.3826e-06	51.079	184.362	61.480	59.105	-7.103	144.527	99.045	-6.935	-2.578	174.236	204.798	-2.881	1.795	2.278	6.591	161.492	5.856	-8191	255	
1539.683	1	1	0	0	0.127	0.17778	0.10154	0.23389	0.14174	0.097615	0.3306	0.11459	0.19052	0.1745	0.13734	0.29975	0.075689	0.043656	0.08417	0.031	-1.3021	-1.7833	-1.0479	-2.0646	-1.8021	-1.2333	-2.3312	-1.6271	-1.6458	-2.1063	-1.5104	-2.0375	-1.7875	-1.2979	-2.175	-1.4208	256.905	40.836	67.622	324.007	84.379	98.562	318.171	330.779	25.373	64.270	210.675	298.730	287.665	47.611	158.880	167.246	0.00020104	0.00041164	0.00012112	1251.4	3.7682e-06	3.9011e-06	1263.4	353.06	1.558e-06	5.4374e-06	406.14	135	115.44	40.658	5.5369e-06	50.636	0.00023922	0.00021703	6.041e-05	1257.3	2.4092e-06	2.3425e-06	1268.3	356.07	2.3724e-06	2.3356e-06	406.89	136.47	116.96	41.039	2.3959e-06	51.119	179.340	91.998	95.778	-7.089	142.242	130.678	-7.029	-2.313	175.571	109.488	-2.975	1.792	2.177	6.660	117.734	5.418	-8191	255	
1539.804	1	1	0	0	0.17824	0.074911	0.18484	0.26303	0.072968	0.23742	0.3659	0.25254	0.10892	0.10523	0.076367	0.14062	0.036728	0.32831	0.030126	0.15978	-1.1333	-1.9333	-1.275	-2.0104	-1.7563	-1.0312	-2.3542	-1.4083	-1.3708	-2.0687	-1.3333	-2.0167	-1.9375	-1.4021	-2.0667	-1.4458	55.659	241.770	68.132	321.852	208.027	301.603	335.073	172.811	130.328	68.498	60.177	187.287	65.757	336.082	188.807	233.889	0.00020802	0.0004362	0.0001132	1256.8	2.1392e-06	5.7505e-06	1262.4	352.59	3.4163e-06	5.2666e-06	406.69	133.77	115.33	40.574	2.2814e-06	50.476	0.00023846	0.00022311	6.0716e-05	1258.6	2.4889e-06	2.3996e-06	1267.9	356.02	2.4352e-06	2.3711e-06	407.15	135.96	117.02	41.075	2.453e-06	51.005	191.268	89.136	56.519	-7.033	126.028	113.705	-6.891	-2.433	133.760	140.373	-3.037	1.813	1.797	6.595	138.244	5.659	-8191	255	
1539.876	1	1	0	0	0.11588	0.12465	0.096321	0.37629	0.36253	0.25456	0.16967	0.092939	0.21473	0.044826	0.11794	0.37783	0.20167	0.26387	0.029947	0.0090202	-0.82292	-1.9396	-1.2563	-1.9104	-1.7979	-1.2188	-2.1042	-1.5583	-1.4083	-1.9958	-1.4354	-1.8854	-1.9646	-1.2854	-2.1396	-1.6313	331.174	31.012	168.720	245.024	200.211	108.642	319.283	326.254	107.499	114.830	215.620	250.338	304.562	321.467	38.477	182.913	0.00019578	0.00041259	0.00024687	1257.2	3.8806e-06	3.8491e-06	1263.3	351.41	2.4407e-06	4.7603e-06	405.12	133.87	115.83	40.512	3.4878e-06	50.452	0.00023775	0.00021669	6.2318e-05	1260.2	2.4605e-06	2.3899e-06	1268.1	355.07	2.4143e-06	2.3755e-06	406.74	136.09	117.4	41.039	2.3716e-06	51.044	183.458	94.518	67.390	-7.083	145.863	111.233	-6.745	-2.520	131.871	161.582	-3.315	1.535	1.949	6.359	139.465	5.500	-8191	255	
1539.972	1	1	0	0	0.13488	0.15656	0.11306	0.39141	0.1311	0.14602	0.34562	0.19351	0.096805	0.050647	0.16967	0.21429	0.26101	0.33445	0.034408	0.078931	-0.81667	-2.0604	-1.2604	-1.9146	-1.9438	-1.1625	-2.1646	-1.6833	-1.3458	-2.15	-1.4354	-1.6187	-1.9979	-1.1146	-1.8271	-1.7417	179.105	59.739	118.134	280.785	101.010	140.045	268.678	-14.592	13.722	296.697	240.177	-9.790	69.839	9.832	228.417	270.217	0.00019836	0.00049937	0.00018145	1253.5	1.695e-06	4.1353e-06	1264.5	352.95	1.9014e-06	5.312e-06	404.42	134.35	114.82	40.571	4.428e-06	50.636	0.00023267	0.00021438	6.1244e-05	1258.5	2.4133e-06	2.309e-06	1267.8	355.99	2.3696e-06	2.3024e-06	406.77	136.12	116.86	41.001	2.3669e-06	51.1	180.276	65.591	75.736	-7.223	142.665	149.983	-7.164	-2.477	150.215	142.974	-3.117	1.507	1.959	6.399	165.498	5.449	-8191	255	
1540.068	1	1	0	0	0.14897	0.26259	0.19587	0.14672	0.24695	0.20576	0.099684	0.17989	0.085632	0.14998	0.35929	0.32058	0.27021	0.24607	0.14727	0.28445	-0.6875	-1.95	-1.2083	-1.6521	-1.9312	-1.0292	-2.0917	-2.0438	-1.0979	-2.0312	-1.4688	-1.725	-2.2042	-1.3271	-2.0417	-1.9396	39.712	205.529	113.204	303.823	216.496	-11.232	274.130	223.732	66.579	114.746	289.692	298.072	230.783	94.984	199.918	280.260	0.00020818	0.00058629	0.0001777	1252.6	3.894e-06	4.1797e-06	1264.9	353.14	3.9742e-06	4.299e-06	405.95	133.63	115.44	40.576	3.3498e-06	50.563	0.00023376	0.00021288	5.9983e-05	1257.6	2.3888e-06	2.4168e-06	1267.6	356.02	2.5004e-06	2.2926e-06	406.8	136.26	117.15	41.018	2.3525e-06	51.116	184.449	68.404	88.371	-7.174	150.346	145.047	-6.952	-2.475	189.684	160.693	-3.282	1.844	1.951	6.397	160.438	5.712	-8191	255	
1540.187	1	1	0	0	0.19508	0.025767	0.1893	0.235	0.10851	0.18527	0.42017	0.20649	0.10593	0.072326	0.25463	0.16225	0.085999	0.095927	0.028904	0.063985	-0.83125	-1.9208	-1.3062	-1.5167	-2.0833	-1.3542	-2.0146	-2.0271	-1.3458	-2.0583	-1.5646	-1.5792	-2.0354	-1.2563	-1.7375	-2.0917	329.294	224.386	297.166	298.637	144.625	152.101	302.211	289.152	29.248	81.499	262.253	22.253	150.323	310.619	157.863	126.845	0.00021468	0.0005928	0.00013394	1252.5	3.2711e-06	2.6226e-06	1262.9	352.9	4.6834e-06	4.5377e-06	405.51	133.96	115.13	40.441	5.1819e-06	50.522	0.00023755	0.00021717	5.7709e-05	1257.7	2.355e-06	2.3823e-06	1268.3	355.88	2.4684e-06	2.2894e-06	406.89	135.91	117.06	40.993	2.3314e-06	51.114	183.593	55.421	61.153	-7.099	149.805	136.983	-6.909	-2.498	159.003	137.307	-3.234	1.831	2.275	6.413	151.313	5.555	-8191	255	
1540.283	1	1	0	0	0.21206	0.1116	0.1347	0.47199	0.21695	0.27193	0.14588	0.11993	0.2801	0.14462	0.16269	0.019887	0.42487	0.21066	0.10303	0.28252	-0.7125	-1.8438	-1.6646	-1.2625	-2.2313	-1.2896	-1.6146	-2.1104	-1.0708	-1.9562	-1.6875	-1.2979	-2.1375	-1.3208	-1.3583	-2.1792	262.794	303.876	123.599	322.140	36.600	10.192	265.401	185.893	231.130	252.333	225.270	185.217	262.373	-17.044	244.408	275.664	0.00020298	0.00063377	7.7965e-05	1256.5	3.582e-06	3.2857e-06	1263.4	353.94	3.2785e-06	4.5111e-06	406.85	134.78	116.17	40.08	3.5281e-06	50.413	0.00023614	0.00021456	5.8798e-05	1259.6	2.4516e-06	2.3503e-06	1267	356.18	2.4113e-06	2.2998e-06	407.03	136.16	117.31	40.825	2.3671e-06	51.064	180.069	51.928	42.154	-7.218	119.579	128.226	-6.938	-2.458	162.169	122.833	-3.206	1.869	2.087	6.332	123.149	5.863	-8191	255	
1540.379	1	1	0	0	0.18057	0.39359	0.1484	0.20753	0.1623	0.23236	0.17903	0.17331	0.067249	0.31349	0.18664	0.29077	0.11154	0.077424	0.13465	0.20675	-0.79583	-1.7417	-1.9438	-1.2188	-2.0979	-1.3271	-1.625	-2.0417	-1.1562	-1.6146	-1.9229	-1.3229	-2.2896	-1.3708	-1.2958	-2	120.346	265.715	80.082	334.120	74.829	136.146	279.784	276.968	334.429	307.107	245.889	69.932	315.079	72.491	167.390	210.377	0.00021657	0.00044433	0.00022304	1258.7	5.4175e-06	1.7294e-06	1265.6	352.95	2.4997e-06	7.0761e-06	404.97	133.18	115.82	40.359	3.893e-06	50.335	0.00023795	0.00021472	6.0061e-05	1259.7	2.4291e-06	2.3503e-06	1268.2	355.62	2.5209e-06	2.243e-06	406	135.65	117.29	40.943	2.363e-06	50.97	181.379	50.711	75.073	-7.352	146.713	142.927	-6.857	-2.307	142.208	146.596	-3.181	1.648	2.306	6.393	147.159	5.539	-8191	255	
1540.453	1	1	0	0	0.088192	0.077203	0.15571	0.22916	0.29919	0.17526	0.2861	0.24881	0.07531	0.090519	0.14538	0.1487	0.32687	0.11357	0.072582	0.14898	-0.72292	-1.5979	-1.8104	-1.45	-1.9833	-1.475	-1.5729	-2.1792	-1.025	-1.9625	-2.0625	-1.0646	-2.0958	-1.6437	-1.3021	-1.9792	209.694	147.196	177.331	291.283	-12.177	241.481	228.900	5.872	215.659	123.950	306.316	328.192	279.698	292.351	287.084	37.748	0.00019868	0.00057975	0.00014672	1254.9	3.3706e-06	4.9139e-06	1264.7	351.59	3.7782e-06	5.1459e-06	405.34	134.68	115.45	40.424	6.0609e-06	50.487	0.00023292	0.00021344	6.1179e-05	1259.2	2.4849e-06	2.3738e-06	1267.8	355	2.5842e-06	2.4191e-06	406.33	136.15	117.2	40.894	2.5059e-06	51.082	184.369	53.828	74.913	-7.062	147.689	119.797	-6.839	-2.161	169.769	136.007	-2.767	1.858	2.332	6.177	125.775	5.427	-8191	255	
1540.572	1	1	0	0	0.17174	0.25292	0.19677	0.42437	0.25443	0.16346	0.34862	0.16178	0.080038	0.32278	0.078114	0.093823	0.080417	0.092782	0.10074	0.17611	-0.85208	-1.4229	-1.8958	-1.3833	-1.7812	-1.8854	-1.4062	-2.2125	-1.1896	-1.475	-2.0417	-1.1792	-1.8792	-1.9833	-1.1208	-2.1375	164.854	121.011	124.032	-13.788	257.864	249.217	269.830	320.277	182.516	339.590	218.594	321.855	274.846	325.517	72.880	307.491	0.00019479	0.00041265	0.00015164	1256.6	3.2238e-06	6.05e-06	1262.9	353.08	1.8454e-06	8.2057e-06	404.85	133.98	115.26	40.325	3.8421e-06	50.531	0.00024007	0.00023067	6.2562e-05	1258.6	2.4671e-06	2.4037e-06	1268.2	355.93	2.5288e-06	2.375e-06	406.13	135.91	116.93	40.882	2.4323e-06	50.988	180.298	61.636	93.825	-7.432	149.181	128.097	-7.169	-2.377	156.986	164.411	-3.411	1.429	2.234	6.211	152.239	5.661	-8191	255	
1540.668	1	1	0	0	0.38217	0.24467	0.36451	0.23035	0.22912	0.18982	0.15427	0.13288	0.0098357	0.33907	0.15384	0.13769	0.14927	0.27949	0.21249	0.054373	-0.85625	-1.4813	-2.1937	-1.3396	-1.725	-1.6271	-1.1083	-2.2042	-1.4667	-1.5854	-2.275	-1.4167	-2.0729	-1.6792	-1.0375	-2.0187	247.951	109.353	278.122	257.833	160.595	322.629	12.633	296.893	223.358	67.332	10.480	245.132	247.969	-12.560	222.478	218.251	0.00018533	0.00064248	0.00020068	1250.2	4.9523e-06	2.6858e-06	1263.1	353.6	2.7309e-06	5.5587e-06	405.17	133.7	115.65	40.349	3.462e-06	50.658	0.00024589	0.00022204	6.1109e-05	1256.3	2.4878e-06	2.3955e-06	1266.1	355.69	2.4518e-06	2.3865e-06	406.07	135.61	117.11	40.931	2.4322e-06	51.046	178.318	30.218	58.908	-7.321	164.217	66.616	-7.028	-2.620	137.100	152.278	-3.112	1.528	2.075	6.422	114.018	5.704	-8191	255	
1540.764	1	1	0	0	0.12931	0.12509	0.14395	0.25112	0.34778	0.16932	0.3773	0.056333	0.21409	0.090754	0.16643	0.1751	0.14917	0.31135	0.1161	0.077615	-1.0458	-1.1542	-2.1188	-1.3854	-1.6479	-1.7708	-1.1521	-2.0896	-1.5063	-1.2708	-2.0563	-1.3979	-1.625	-1.9771	-0.90417	-1.9125	224.468	315.090	154.985	289.569	279.275	240.627	263.006	34.810	24.979	295.566	261.132	-14.846	232.399	229.460	285.858	290.244	0.00021121	0.00045847	0.00016426	1248.7	4.2994e-06	4.0133e-06	1260.4	352.42	5.9765e-06	4.8972e-06	404.6	133.77	115.6	40.511	4.4177e-06	50.374	0.0002322	0.00021984	6.0532e-05	1257	2.4364e-06	2.3859e-06	1266.7	355.39	2.4059e-06	2.3755e-06	406.83	135.95	117.21	40.915	2.439e-06	50.944	186.475	73.131	63.507	-7.234	153.142	152.550	-7.120	-2.500	146.785	180.313	-3.344	1.598	2.195	6.185	151.296	5.862	-8191	255	
1540.884	1	1	0	0	0.03186	0.15889	0.17928	0.32721	0.12145	0.25247	0.13262	0.13193	0.22141	0.14546	0.28751	0.13758	0.07267	0.24188	0.15925	0.19433	-1.1583	-0.93542	-1.9312	-1.6604	-1.5292	-1.7687	-1.4521	-1.9562	-1.7875	-1.3979	-2.2771	-1.3167	-1.4062	-2.0812	-1.1063	-1.8646	337.489	291.109	84.620	302.046	82.261	212.885	220.437	235.234	125.410	-12.129	274.151	255.396	296.746	122.425	57.595	335.328	0.00019121	0.00066586	0.00012446	1250.1	2.9773e-06	3.8296e-06	1257.4	351.91	9.7747e-07	4.5255e-06	405.49	133.52	115.06	40.433	3.141e-06	50.548	0.00023687	0.00022013	5.8975e-05	1256.3	2.4305e-06	2.3523e-06	1264.5	355.53	2.4616e-06	2.3806e-06	406.83	135.6	116.92	40.878	2.4235e-06	51.08	180.932	74.476	91.352	-7.447	121.222	127.949	-7.146	-2.484	204.471	121.339	-2.986	1.576	2.138	6.196	153.989	5.752	-8191	255	
1540.981	1	1	0	0	0.077261	0.17554	0.24379	0.35855	0.3136	0.28093	0.053222	0.29882	0.16874	0.033048	0.20279	0.092583	0.050312	0.23353	0.097821	0.30157	-1.5021	-0.86458	-1.8854	-1.5438	-1.2938	-2.0646	-1.2188	-1.7458	-1.7125	-1.0146	-2.2354	-1.4479	-1.2729	-2.2792	-1.175	-1.6479	-3.542	5.529	253.221	-18.754	1.442	303.837	176.111	-8.675	191.344	32.058	2.833	251.644	328.469	316.339	315.552	281.524	0.00018802	0.0005597	0.00017696	1252.7	2.6391e-06	4.9379e-06	1261.5	352.14	2.264e-06	3.5595e-06	403.59	133.36	115.22	40.569	3.803e-06	50.545	0.00023841	0.00022486	6.0579e-05	1257	2.4428e-06	2.4003e-06	1266.1	355.49	2.4481e-06	2.3403e-06	406.05	135.63	116.75	40.965	2.4082e-06	51.082	173.376	52.502	42.876	-7.370	146.374	122.759	-7.124	-2.635	148.941	170.424	-3.224	1.707	2.253	6.171	129.314	5.731	-8191	255	
1541.077	1	1	0	0	0.049573	0.20599	0.14911	0.1612	0.11472	0.11554	0.1884	0.31637	0.046825	0.2861	0.23867	0.20393	0.067691	0.11758	0.22588	0.18595	-1.3917	-1.0271	-2.0792	-1.6042	-1.0417	-2.1063	-1.4708	-1.7375	-1.7062	-0.91458	-2	-1.6729	-1.2583	-2.1021	-1.3521	-1.6833	286.957	159.690	324.798	300.407	282.528	335.169	251.559	66.220	186.479	275.425	276.424	272.058	318.634	336.740	71.562	11.314	0.00019416	0.00043519	0.00020906	1252.5	3.1644e-06	5.0685e-06	1261.2	353.3	5.1418e-06	6.6558e-06	407.12	133.44	115.37	40.49	3.4282e-06	50.426	0.00023297	0.00022026	6.095e-05	1256.3	2.4972e-06	2.3449e-06	1265	355.63	2.4892e-06	2.4826e-06	407.08	135.52	117.1	40.921	2.472e-06	50.938	176.188	54.345	87.548	-7.372	98.913	147.898	-7.324	-2.387	167.927	130.894	-3.238	1.794	2.228	6.674	191.063	5.772	-8191	255	
1541.173	1	1	0	0	0.24945	0.093979	0.21922	0.15034	0.22259	0.14717	0.28541	0.34467	0.25575	0.16593	0.081146	0.19819	0.020038	0.20981	0.10682	0.16078	-1.4792	-1.2667	-1.8667	-1.9167	-1.2458	-1.8271	-1.5729	-1.6042	-2.0646	-1.0521	-2.1396	-1.7687	-1.3146	-2.0292	-1.2896	-1.3729	90.451	239.781	167.604	327.129	282.746	194.058	312.106	288.379	148.491	199.522	10.773	174.116	5.486	304.938	194.921	165.293	0.0001952	0.00044479	0.00013537	1254.3	3.8976e-06	4.383e-06	1261.8	351.77	1.5277e-06	4.7937e-06	404.97	133.9	115.18	40.528	2.5098e-06	50.327	0.00024054	0.00022933	6.1023e-05	1257.5	2.5411e-06	2.4379e-06	1266	355.51	2.5057e-06	2.4842e-06	406.5	135.9	116.98	40.938	2.4686e-06	50.927	180.812	94.063	51.760	-7.295	138.210	114.434	-7.090	-2.624	144.035	131.878	-3.442	1.604	2.195	6.363	155.943	5.853	-8191	255	
1541.267	1	1	0	0	0.1086	0.23152	0.11301	0.50559	0.11046	0.33986	0.15049	0.15986	0.16342	0.10301	0.21405	0.43665	0.18869	0.052987	0.18086	0.14547	-1.7313	-1.025	-1.7917	-1.9729	-1.0271	-1.9833	-1.6042	-1.7062	-2.1396	-1.2062	-1.9042	-1.8792	-1.35	-1.9771	-1.3833	-1.225	277.619	37.268	149.392	336.323	18.127	121.636	258.050	55.555	192.297	123.506	243.702	17.571	-15.291	221.630	112.236	265.596	0.00018801	0.00042056	0.00012106	1256.9	2.8454e-06	4.5319e-06	1262.7	352.17	3.1721e-06	5.0335e-06	403.32	133.38	114.92	40.424	3.0937e-06	50.481	0.00024534	0.00023591	6.2708e-05	1259.3	2.6308e-06	2.4668e-06	1265	355.67	2.6099e-06	2.553e-06	405.74	135.92	116.83	40.892	2.5464e-06	51.003	177.094	48.364	55.624	-7.276	117.070	108.788	-7.207	-2.425	155.732	114.704	-3.147	1.560	2.189	6.067	111.629	5.900	-8191	255	
1541.363	1	1	0	0	0.1496	0.11093	0.11609	0.23718	0.1336	0.34341	0.33773	0.20732	0.11527	0.47766	0.32704	0.30062	0.19667	0.083762	0.21161	0.27519	-1.7167	-1.075	-1.5312	-2.1042	-1.1208	-2.0396	-1.7854	-1.3646	-1.9896	-1.15	-1.6646	-2.1021	-1.2042	-1.8583	-1.6375	-1.1833	326.614	-13.704	91.608	320.086	284.745	24.599	255.084	211.167	193.335	225.506	292.528	-0.365	310.814	57.736	-4.669	219.738	0.00019781	0.0005407	0.00012875	1252.7	4.0703e-06	5.7652e-06	1257.7	353.28	3.6314e-06	2.3302e-06	405.47	134.02	115.68	40.466	4.2174e-06	50.48	0.00024524	0.00022677	6.3238e-05	1259	2.6174e-06	2.469e-06	1265.4	356.19	2.4837e-06	2.5372e-06	406.15	136.01	117.07	40.986	2.5142e-06	51.03	184.977	65.740	68.096	-7.351	136.629	146.437	-7.111	-2.044	152.463	196.070	-3.136	1.719	1.861	6.410	143.060	5.610	-8191	255	
1541.484	1	1	0	0	0.058989	0.28718	0.060711	0.30603	0.19049	0.21942	0.25399	0.15541	0.10085	0.15949	0.15787	0.14791	0.35016	0.06397	0.14452	0.14659	-1.5083	-1.2646	-1.3708	-2.1583	-1.1	-1.7563	-1.8021	-1.2375	-1.9604	-1.3229	-1.5396	-2.1479	-1.2938	-1.8083	-1.7396	-1.0604	76.261	100.191	277.668	-0.903	88.772	316.361	294.663	199.236	111.010	185.139	-9.114	253.002	287.481	240.160	126.767	226.291	0.00021654	0.00017669	9.9251e-05	1253	3.2883e-06	5.0466e-06	1260.7	352.8	2.1745e-06	3.7446e-06	404.55	134.05	115.33	40.515	3.5399e-06	50.36	0.00024051	0.0002328	6.4675e-05	1256.2	2.5842e-06	2.4938e-06	1265.4	356.21	2.5691e-06	2.5191e-06	406.44	135.75	116.9	40.989	2.4668e-06	51.027	177.126	47.701	70.718	-7.265	149.034	108.241	-7.221	-2.404	194.170	184.585	-2.993	1.583	1.983	6.382	140.859	5.677	-8191	255	
1541.580	1	1	0	0	0.18055	0.10465	0.31708	0.14762	0.15272	0.17804	0.39787	0.052358	0.12609	0.16232	0.32288	0.21992	0.12836	0.28832	0.14256	0.06732	-1.7125	-1.2938	-1.3958	-2.2271	-0.99792	-1.7479	-1.9438	-1.1667	-1.7313	-1.4479	-1.3521	-2.0812	-1.2542	-1.5917	-1.85	-1.1125	162.627	184.340	44.986	281.116	91.034	65.414	254.350	320.494	212.227	78.574	303.447	263.009	25.190	111.854	237.395	19.721	0.00020206	0.00053591	9.513e-05	1255.1	2.605e-06	4.9265e-06	1259.1	351.9	4.2058e-06	3.4766e-06	406.04	133.68	114.77	40.393	4.8684e-06	50.485	0.00024248	0.00023636	6.5845e-05	1258	2.6131e-06	2.5079e-06	1262.3	355.88	2.5893e-06	2.5063e-06	407.04	135.54	116.93	40.915	2.5554e-06	50.996	182.588	61.490	98.924	-7.184	150.126	110.830	-7.175	-2.143	175.369	163.245	-3.133	1.478	2.017	6.397	153.780	5.268	-8191	255	
1541.676	1	1	0	0	0.038146	0.20814	0.1708	0.39884	0.233	0.29078	0.20684	0.28287	0.21084	0.19595	0.14078	0.14961	0.11857	0.075467	0.20717	0.02192	-1.7	-1.4792	-1.2625	-2.3083	-1.1333	-1.6458	-2.1875	-1.2354	-1.8896	-1.5354	-1.4083	-2.2896	-1.4021	-1.7271	-1.9688	-1.2375	-17.634	42.224	322.438	313.661	74.127	41.562	296.756	261.946	103.058	275.865	52.428	307.003	302.107	237.160	216.711	294.986	0.00020416	0.00048132	0.00013881	1251.7	3.699e-06	4.555e-06	1256.9	352.25	3.1805e-06	8.0985e-06	405.76	133.71	115.32	40.491	1.6518e-06	50.698	0.00024928	0.00023603	6.4015e-05	1256.4	2.6292e-06	2.5197e-06	1263	355.49	2.5745e-06	2.4878e-06	406.38	135.66	116.98	40.998	2.5709e-06	51.08	180.902	52.752	61.823	-7.089	150.869	146.327	-7.083	-2.415	185.923	156.442	-3.050	1.902	1.912	6.475	198.410	5.724	-8191	255	
1541.748	1	1	0	0	0.12238	0.063649	0.19209	0.34758	0.27805	0.3095	0.22103	0.32371	0.18985	0.19125	0.058524	0.22717	0.13878	0.089152	0.061624	0.34446	-1.5542	-1.5604	-1.2271	-2.1521	-1.4021	-1.55	-2.1833	-1.1208	-1.7188	-1.7604	-1.3417	-2.1021	-1.4854	-1.5708	-1.9125	-1.1729	99.661	-5.313	238.859	309.449	154.892	100.053	281.144	274.869	98.411	108.619	96.391	321.581	63.160	263.891	25.668	203.953	0.00019588	0.00056053	0.00011664	1254.9	4.1461e-06	5.8283e-06	1258.3	352.77	3.3065e-06	6.6089e-06	404.39	134.48	115.34	40.535	3.3488e-06	50.421	0.00024575	0.00023756	6.6209e-05	1257.2	2.6139e-06	2.5738e-06	1265.6	355.87	2.5871e-06	2.4867e-06	406.05	135.89	117.13	41.069	2.5388e-06	50.954	176.161	66.247	70.232	-7.223	149.860	117.519	-6.974	-2.448	157.008	159.944	-3.138	1.612	2.002	6.641	149.012	5.505	-8191	255	
1541.869	1	1	0	0	0.20023	0.31394	0.1608	0.061587	0.18628	0.11357	0.38036	0.28122	0.33759	0.29012	0.31181	0.13128	0.070943	0.17172	0.18951	0.12688	-1.3604	-1.5979	-1.2563	-2.1562	-1.4167	-1.2042	-2.3021	-1.2625	-1.625	-1.775	-1.1125	-2.225	-1.5187	-1.5688	-1.9896	-1.3854	230.073	197.391	50.318	100.681	162.383	333.972	303.453	305.836	39.475	290.408	210.680	6.879	22.102	31.160	162.260	251.986	0.00018792	0.00060386	0.00016044	1254.2	3.6366e-06	3.6649e-06	1264.1	352.37	2.9578e-06	4.1783e-06	406.51	134.12	114.8	40.457	3.3447e-06	50.666	0.00024299	0.0002257	6.6259e-05	1257.7	2.5859e-06	2.5397e-06	1265.8	355.78	2.5604e-06	2.4966e-06	406.93	135.95	116.98	40.983	2.6097e-06	51.1	177.501	68.659	80.111	-7.148	132.786	126.138	-6.806	-2.492	157.994	143.677	-3.068	1.862	2.262	6.669	121.672	5.759	-8191	255	
1541.965	1	1	0	0	0.18183	0.3066	0.20257	0.39803	0.13398	0.21749	0.2472	0.03658	0.18904	0.012372	0.25175	0.10026	0.23475	0.16966	0.29498	0.17858	-1.1625	-1.8521	-1.125	-2.125	-1.6042	-1.1625	-2.0896	-1.5167	-1.5479	-2.1458	-1.0375	-1.9229	-1.6958	-1.2104	-2.0521	-1.3979	242.339	276.584	309.746	61.179	129.046	190.252	229.901	244.025	177.476	263.003	268.244	212.711	19.572	32.169	15.743	68.467	0.00018868	0.00031362	0.00021377	1251.7	2.6703e-06	2.9974e-06	1259.2	351.14	3.4917e-06	6.8481e-06	406.41	133.67	115.69	40.447	3.0152e-06	50.431	0.00025406	0.00023557	6.7314e-05	1256.3	2.6269e-06	2.5517e-06	1263.6	355.14	2.6253e-06	2.5496e-06	406.46	135.74	117.07	40.963	2.524e-06	50.955	179.219	72.057	61.918	-7.055	121.827	117.485	-6.870	-2.396	155.161	165.878	-2.885	1.820	2.295	6.483	123.019	6.010	-8191	255	
1542.061	1	1	0	0	0.025117	0.16081	0.38381	0.36045	0.17496	0.20256	0.11631	0.056511	0.17909	0.17017	0.16521	0.03322	0.025313	0.18323	0.13844	0.038459	-1.0063	-1.9979	-1.1292	-1.8542	-1.5833	-1.0771	-2.275	-1.3354	-1.4896	-1.9562	-1.3937	-1.9271	-2.0042	-1.3438	-1.9479	-1.3667	339.553	306.928	81.521	297.873	184.020	319.059	271.552	262.935	172.601	107.693	270.155	239.417	140.204	0.945	339.493	-0.874	0.00018398	0.00064485	0.00013942	1251.4	1.2383e-06	6.0655e-06	1263.5	351.55	3.0737e-06	5.0265e-06	405.36	133.98	115.75	40.173	4.2766e-06	50.663	0.00024976	0.00023008	6.5136e-05	1255.8	2.6841e-06	2.512e-06	1267.1	355.18	2.5897e-06	2.4228e-06	406.19	136	117.05	40.882	2.4906e-06	50.974	178.015	59.282	113.168	-6.903	162.470	144.249	-6.930	-2.171	155.213	144.709	-2.908	2.231	2.168	6.459	120.650	5.629	-8191	255	
1542.157	1	1	0	0	0.36108	0.18118	0.10812	0.2487	0.35967	0.14891	0.45936	0.13359	0.15723	0.067689	0.30996	0.13732	0.40216	0.17136	0.054117	0.3088	-1.0271	-2	-1.1167	-1.8417	-1.7896	-1.0646	-2.1937	-1.6229	-1.3417	-1.9688	-1.2563	-2.0479	-2.0396	-1.1396	-1.9667	-1.6271	202.142	266.628	114.930	273.715	23.417	264.225	266.478	9.321	98.709	33.919	294.522	120.709	-20.399	296.018	304.217	241.325	0.00020982	0.00059138	0.00016739	1246.1	2.2239e-06	5.116e-06	1261.3	353.19	1.9658e-06	5.7218e-06	404.16	133.8	115.34	40.343	4.1341e-06	50.35	0.0002453	0.00022979	6.3779e-05	1253.2	2.5807e-06	2.5191e-06	1264.9	356.49	2.5617e-06	2.4427e-06	405.56	135.99	117.09	40.945	2.4791e-06	50.966	184.627	62.353	68.888	-7.071	171.608	113.963	-6.737	-2.422	158.001	116.876	-3.154	2.048	2.336	6.366	108.708	5.729	-8191	255	
1542.253	1	1	0	0	0.11781	0.33198	0.13893	0.16228	0.044437	0.16153	0.16896	0.12252	0.1054	0.13239	0.28438	0.25432	0.33746	0.11358	0.076383	0.024282	-0.725	-2.0292	-1.1896	-1.6167	-1.9646	-0.95833	-2.1396	-1.725	-1.0021	-2.1583	-1.3958	-1.5875	-1.8792	-1.1917	-1.9208	-1.8188	-1.979	73.930	77.111	271.053	5.708	75.265	285.279	-9.396	106.561	290.047	53.520	5.754	324.095	246.961	21.573	100.014	0.00021512	0.00066418	0.00016094	1252	3.8872e-06	5.4346e-06	1257.7	351.09	4.2242e-06	5.1214e-06	404.97	133.73	114.84	40.327	2.3229e-06	50.421	0.00024598	0.00023126	6.447e-05	1254.6	2.5999e-06	2.5177e-06	1263.9	355.2	2.6054e-06	2.4189e-06	406.63	135.89	116.83	40.931	2.4423e-06	50.965	183.087	80.096	63.644	-6.957	154.729	104.856	-6.828	-2.142	197.302	127.123	-3.342	1.859	2.083	6.642	140.216	5.637	-8191	255	
1542.348	1	1	0	0	0.034321	0.26545	0.18789	0.56856	0.052579	0.057135	0.43395	0.12902	0.17003	0.18972	0.1439	0.27055	0.21268	0.25753	0.10794	0.12293	-0.80417	-2.0333	-1.3375	-1.5771	-1.9792	-1.1	-2	-2.0292	-1.2333	-2.1646	-1.4229	-1.3708	-2.15	-1.3417	-1.7604	-1.8625	124.976	52.473	326.202	312.226	173.711	212.735	317.137	19.865	302.765	151.561	334.691	254.226	19.754	326.983	325.054	43.963	0.00021613	0.00054597	9.6072e-05	1253.5	1.0247e-06	3.7369e-06	1260.3	351.72	3.2257e-06	4.5735e-06	404.43	133.79	115.53	40.529	5.4217e-06	50.473	0.00024002	0.00023021	6.2224e-05	1256.5	2.5109e-06	2.5347e-06	1263.7	354.89	2.5369e-06	2.4001e-06	406.08	135.42	116.66	40.981	2.4236e-06	50.931	185.326	70.956	67.963	-6.813	178.299	102.533	-7.081	-2.272	181.995	153.194	-3.087	1.808	2.211	6.295	134.318	5.915	-8191	255	
1542.446	1	1	0	0	0.074667	0.14223	0.30841	0.4161	0.12625	0.12864	0.19009	0.41797	0.19084	0.16523	0.2032	0.36239	0.22678	0.25083	0.24174	0.36672	-0.69583	-1.9417	-1.3438	-1.5583	-1.9375	-1.3958	-1.9479	-2.0646	-1.1187	-1.8396	-1.8188	-1.2979	-2.0187	-1.225	-1.5229	-1.9	189.730	5.255	114.668	306.567	173.033	186.234	304.841	320.129	100.867	-6.660	282.737	310.211	331.321	42.631	70.936	213.532	0.00020845	0.00052789	0.00016927	1248.8	3.8026e-06	6.0183e-06	1253.1	351.61	1.66e-06	6.1481e-06	404.15	133.17	114.59	40.33	4.4746e-06	50.578	0.00024342	0.00022415	6.3246e-05	1253	2.4567e-06	2.4139e-06	1258.8	354.63	2.5127e-06	2.4534e-06	405.7	135.39	116.45	40.905	2.4132e-06	51.021	182.855	65.140	76.283	-6.809	145.327	131.367	-6.887	-2.210	166.455	164.273	-2.928	1.959	2.375	6.395	119.204	5.995	-8191	255	
1542.564	1	1	0	0	0.14028	0.12658	0.30401	0.052075	0.15706	0.22762	0.35738	0.56441	0.20605	0.19599	0.1888	0.23248	0.26653	0.3683	0.26158	0.19865	-0.61875	-1.9188	-1.5438	-1.2583	-1.9542	-1.2104	-1.7896	-2.2208	-1.2021	-1.7521	-1.65	-1.1458	-1.9417	-1.3188	-1.4729	-2.0938	85.187	188.592	64.773	-19.088	5.240	218.357	266.027	294.169	291.906	326.881	29.813	223.344	-9.343	264.154	48.397	291.140	0.00019442	0.00033941	0.00014891	1251.4	3.2505e-06	3.6798e-06	1259.2	350.33	3.4368e-06	4.8918e-06	404.24	134.19	114.82	40.108	4.3227e-06	50.603	0.00024084	0.00022204	6.0316e-05	1252.1	2.4933e-06	2.4072e-06	1260.5	354.18	2.5636e-06	2.4451e-06	405.34	135.83	116.63	40.81	2.5244e-06	50.899	180.250	55.081	97.379	-6.932	160.128	149.371	-6.764	-2.230	175.529	144.736	-3.028	1.981	2.286	6.559	154.188	5.648	-8191	255	
1542.661	1	1	0	0	0.36505	0.12172	0.17351	0.14935	0.17291	0.19934	0.43356	0.15225	0.2159	0.14536	0.1819	0.25782	0.14703	0.07325	0.15793	0.1058	-0.84167	-1.7313	-1.8083	-1.2625	-1.9188	-1.4083	-1.7042	-2.2125	-1.05	-1.8937	-1.9479	-1.2458	-1.9375	-1.5021	-1.2563	-1.9896	229.418	7.587	40.208	247.939	227.760	272.453	300.143	270.806	306.852	229.464	58.209	322.327	139.404	303.346	330.197	300.051	0.00020647	0.00064176	0.00017269	1253.2	3.1082e-06	2.6925e-06	1260.4	352.46	3.9263e-06	3.8008e-06	403.73	133.65	114.97	40.35	2.3504e-06	50.58	0.0002472	0.00022317	6.2791e-05	1255.1	2.5163e-06	2.5159e-06	1262.9	354.95	2.5497e-06	2.432e-06	406.05	135.71	116.84	40.858	2.4883e-06	50.975	185.642	69.618	52.510	-7.031	151.526	94.845	-6.944	-2.478	147.409	149.871	-3.144	1.679	2.064	6.133	168.114	5.921	-8191	255	
1542.757	1	1	0	0	0.17065	0.1772	0.30457	0.28691	0.13886	0.19444	0.22898	0.3196	0.18577	0.12557	0.12784	0.33151	0.14662	0.24371	0.065421	0.13619	-0.76042	-1.7812	-1.6688	-1.3083	-1.9708	-1.4896	-1.3708	-2.1646	-1.2812	-1.7833	-2.0563	-1.15	-2.0833	-1.6958	-1.1771	-2.3812	169.211	184.189	334.087	312.822	2.185	72.734	326.195	314.075	246.451	294.588	8.889	252.142	294.121	267.114	247.265	330.710	0.0002262	0.00047269	0.00014212	1254.5	1.3895e-06	3.9661e-06	1257.5	351.3	3.1925e-06	4.1044e-06	405.1	134.35	115.25	40.308	3.937e-06	50.536	0.0002512	0.00022963	6.3955e-05	1255.8	2.6604e-06	2.5431e-06	1263.9	354.92	2.6237e-06	2.4952e-06	405.67	135.91	116.99	40.852	2.5801e-06	50.927	179.144	49.295	77.858	-7.019	138.469	100.004	-6.603	-2.172	180.925	149.252	-3.003	1.780	2.222	6.311	167.622	5.841	-8191	255	
1542.853	1	1	0	0	0.031272	0.047215	0.12583	0.25926	0.10205	0.11433	0.10768	0.15102	0.16864	0.41377	0.26764	0.2282	0.25148	0.1997	0.092886	0.11531	-0.66458	-1.575	-2.0146	-1.3667	-1.7958	-1.4479	-1.2625	-2.2146	-1.4729	-1.3979	-1.9375	-1.1125	-1.8521	-1.6562	-1.1354	-2.0417	232.858	305.435	224.433	-7.367	57.908	23.027	160.982	232.613	337.245	302.552	-19.500	285.867	-19.654	137.944	325.070	214.815	0.00019388	0.00031728	0.00011222	1252.3	4.1314e-06	3.7365e-06	1264.2	350.82	2.806e-06	6.0055e-06	404.72	133.38	115.52	40.442	3.1314e-06	50.586	0.00025037	0.000229	6.2578e-05	1255.3	2.5453e-06	2.5383e-06	1265.3	355.19	2.6252e-06	2.4342e-06	405.78	135.52	116.87	40.946	2.4823e-06	51.059	180.119	74.820	108.854	-7.056	153.254	132.610	-7.104	-2.243	176.276	152.379	-3.290	1.641	2.225	6.113	141.970	5.954	-8191	255	
1542.974	1	1	0	0	0.21372	0.49334	0.14366	0.20366	0.32305	0.18828	0.31806	0.16262	0.14296	0.091816	0.11716	0.15023	0.2554	0.27409	0.28378	0.071813	-1.0896	-1.4667	-1.9813	-1.5396	-1.6208	-1.8438	-1.2333	-2	-1.3417	-1.3646	-2.0438	-1.3042	-1.625	-1.8792	-0.95417	-2.0292	158.393	145.442	118.643	312.762	37.803	337.036	300.547	223.233	258.611	260.383	324.333	276.298	44.639	268.864	175.290	70.563	0.00019481	0.00040227	0.00010351	1249.4	4.3465e-06	3.3241e-06	1259	352.86	3.6953e-06	2.5748e-06	407.78	134.26	115.3	40.328	3.7489e-06	50.514	0.00024796	0.00022293	6.1839e-05	1253.6	2.5331e-06	2.5125e-06	1264.9	355.95	2.5314e-06	2.4517e-06	407.14	136.15	116.88	40.86	2.4767e-06	50.94	184.625	75.573	74.350	-7.204	145.182	115.811	-6.905	-2.373	151.653	159.545	-3.134	1.424	2.508	6.372	124.027	5.985	-8191	255	
1543.045	1	1	0	0	0.097286	0.22917	0.1165	0.20328	0.087396	0.23747	0.19039	0.20957	0.16537	0.051028	0.10775	0.13125	0.17986	0.10781	0.22479	0.17226	-1.2729	-1.2708	-1.95	-1.4208	-1.6771	-1.9312	-1.3354	-2.0646	-1.5896	-1.0812	-2.15	-1.2229	-1.7125	-2.2812	-1.2479	-2.1542	291.128	304.858	188.518	233.489	180.860	113.070	265.566	288.780	164.632	321.132	173.021	11.213	259.114	127.676	232.153	22.086	0.00020435	0.00040429	0.00018868	1250.6	4.0917e-06	5.9577e-06	1260.1	352.65	2.326e-06	5.1317e-06	406.6	133.57	115.94	40.406	4.8732e-06	50.491	0.00023876	0.00022344	6.3082e-05	1254.3	2.5306e-06	2.3886e-06	1264.6	355.78	2.4793e-06	2.3924e-06	407.3	135.74	117.44	40.958	2.4789e-06	50.993	187.073	74.342	69.687	-7.106	150.199	119.733	-6.848	-2.349	157.883	131.578	-3.044	1.963	2.274	6.447	157.529	5.893	-8191	255	
1543.166	1	1	0	0	0.162	0.23857	0.23426	0.57922	0.20598	0.07315	0.2203	0.1702	0.15693	0.13989	0.25706	0.1841	0.20323	0.21158	0.27084	0.41968	-1.2167	-1.1083	-2.0667	-1.5812	-1.6917	-1.9188	-1.3188	-2.0917	-1.7771	-1.1271	-2.1417	-1.4896	-1.5104	-2.2271	-1.1812	-1.7938	37.911	5.745	85.336	296.890	76.327	239.204	323.947	255.490	156.491	66.662	323.138	337.070	245.686	14.274	51.122	235.130	0.00017277	0.00041526	0.00017867	1251.1	4.8107e-06	5.874e-06	1257.4	352.92	3.1423e-06	5.6437e-06	406.42	133.82	115.39	40.49	4.4514e-06	50.494	0.0002419	0.00022778	6.244e-05	1255.7	2.4916e-06	2.379e-06	1264.1	356.14	2.5179e-06	2.4664e-06	406.09	135.89	117.11	40.918	2.5672e-06	51.033	184.279	63.053	44.063	-7.069	162.258	136.154	-7.020	-1.933	174.554	144.031	-3.097	1.635	2.299	6.454	167.575	5.832	-8191	255	
1543.260	1	1	0	0	0.11308	0.10855	0.16266	0.15584	0.24724	0.063567	0.23553	0.29932	0.046943	0.29265	0.17638	0.017283	0.42214	0.41466	0.16805	0.14195	-1.3354	-1.1208	-2.0354	-1.6125	-1.3375	-2.1125	-1.4396	-2.0979	-1.8229	-1.175	-2.0812	-1.5917	-1.2437	-2.3063	-1.1562	-1.7479	64.386	137.430	-0.737	304.237	233.806	135.981	207.397	328.294	291.998	-0.560	-15.668	224.412	-7.873	282.931	324.982	182.389	0.00020978	0.00059731	0.00010918	1248.5	5.1257e-06	3.761e-06	1259.1	352.04	2.9508e-06	4.1157e-06	403.93	133.81	114.64	40.372	3.7178e-06	50.546	0.00024383	0.00023633	6.3217e-05	1253.8	2.5717e-06	2.4732e-06	1265.7	355.65	2.5193e-06	2.4514e-06	406.15	135.8	116.77	40.88	2.5352e-06	51.007	190.282	43.693	51.957	-7.113	137.110	101.062	-6.924	-2.466	174.088	165.399	-3.008	1.715	1.947	6.299	81.018	5.855	-8191	255	
1543.356	1	1	0	0	0.028597	0.13296	0.19075	0.24579	0.074071	0.11786	0.41273	0.14854	0.04268	0.21215	0.067668	0.34404	0.27324	0.047833	0.16952	0.31223	-1.5896	-1.0292	-1.9813	-1.7292	-1.1979	-2.2	-1.4312	-1.8479	-1.8979	-1.2938	-2.1229	-1.8042	-1.3708	-2.1	-1.4042	-1.6812	111.798	276.324	126.684	299.149	215.233	272.104	275.450	211.881	205.314	22.919	85.744	64.882	256.951	330.907	261.125	318.577	0.00020941	0.0004558	0.00016656	1249.4	1.6572e-06	4.5466e-06	1255.1	351.83	2.8597e-06	5.1112e-06	404.91	133.94	114.93	40.788	4.1427e-06	50.476	0.00024432	0.00023451	6.2643e-05	1254.2	2.5963e-06	2.4459e-06	1262.8	355.91	2.5158e-06	2.5211e-06	406.54	135.9	116.9	41.065	2.5438e-06	51.035	183.760	77.815	47.477	-7.241	156.249	135.467	-7.117	-2.258	165.317	160.184	-2.991	1.515	2.155	6.440	134.474	5.831	-8191	255	
1543.453	1	1	0	0	0.17434	0.18994	0.2	0.34781	0.048825	0.25498	0.21277	0.23619	0.14247	0.25602	0.37353	0.15068	0.54281	0.21873	0.28828	0.157	-1.6146	-1.0917	-1.9896	-1.8583	-1.3417	-1.9417	-1.5812	-1.5229	-1.9937	-1.2146	-1.9958	-2.0104	-1.3792	-2.1083	-1.3687	-1.4875	154.791	266.753	150.933	315.550	335.667	11.874	298.810	265.980	326.613	256.877	50.978	278.182	296.367	285.705	180.044	19.644	0.00020493	0.00040979	0.00019481	1252.3	4.5933e-06	5.2762e-06	1257.3	353.97	3.6132e-06	5.0644e-06	403.93	134.29	115.11	40.401	2.567e-06	50.397	0.00023858	0.00022891	6.1837e-05	1256.6	2.5766e-06	2.4213e-06	1264.1	356.59	2.5063e-06	2.5126e-06	405.93	135.92	116.97	40.958	2.5026e-06	51.069	175.834	54.215	71.740	-7.138	127.944	103.363	-7.085	-2.319	184.993	136.014	-3.084	1.446	2.306	6.264	146.175	5.883	-8191	255	
1543.549	1	1	0	0	0.074437	0.24299	0.23072	0.24312	0.062142	0.15872	0.13248	0.39872	0.3603	0.1348	0.26215	0.34595	0.066436	0.25045	0.14588	0.40644	-1.5458	-1.0438	-1.8917	-2.0104	-1.0979	-2.1229	-1.7917	-1.4875	-2.1312	-1.0958	-1.7771	-2.0792	-1.1896	-2.0125	-1.6896	-1.4458	178.915	58.613	123.007	305.159	246.950	231.920	248.661	-19.476	44.718	207.028	237.273	339.429	118.627	246.409	77.461	282.366	0.00021849	0.00055024	0.00016007	1253.8	3.7155e-06	5.3179e-06	1258.9	352.22	4.2369e-06	4.6838e-06	404.26	134.22	115.58	40.293	2.0547e-06	50.56	0.00024626	0.00023544	6.2791e-05	1257.9	2.5554e-06	2.4809e-06	1266.2	356	2.5851e-06	2.5145e-06	406.41	135.79	117.02	40.884	2.5205e-06	50.972	182.372	48.187	61.474	-7.143	144.447	139.208	-6.853	-2.307	145.999	158.905	-3.160	1.542	1.987	6.489	133.845	5.693	-8191	255	
1543.645	1	1	0	0	0.076086	0.32863	0.28524	0.31365	0.24921	0.086714	0.10902	0.15985	0.16158	0.0077352	0.31946	0.16971	0.10398	0.21026	0.19041	0.13913	-1.7	-1.1729	-1.5021	-2.0667	-0.95417	-1.9312	-1.925	-1.5625	-1.9542	-1.3167	-1.6979	-2.1542	-1.2354	-1.8354	-1.7687	-1.4375	-13.685	222.991	42.084	324.037	104.181	256.937	307.707	294.569	83.777	12.712	-12.140	270.244	274.483	56.506	-5.417	14.102	0.00021149	0.00039749	7.2773e-05	1251.8	4.6737e-06	3.2819e-06	1260.5	352.95	2.416e-06	5.4135e-06	406.53	133.63	115.15	40.458	3.8542e-06	50.59	0.00023767	0.0002412	6.3667e-05	1258.3	2.6407e-06	2.4526e-06	1264.9	355.41	2.5624e-06	2.5072e-06	407.17	135.67	116.99	40.966	2.5452e-06	51.103	183.401	85.026	86.031	-7.138	154.041	130.599	-6.941	-2.558	145.706	166.828	-2.857	1.757	2.453	6.552	146.541	5.893	-8191	255	
1543.741	1	1	0	0	0.076894	0.10063	0.068736	0.24844	0.17931	0.1272	0.2844	0.25392	0.16905	0.082896	0.31816	0.040283	0.2914	0.27258	0.17587	0.25286	-1.675	-1.2521	-1.3875	-1.9937	-0.99375	-1.7938	-2.0729	-1.3062	-1.8583	-1.2875	-1.5562	-1.9958	-1.2167	-1.8354	-1.8146	-1.3583	282.210	-11.388	76.578	275.294	276.952	291.103	267.311	277.540	281.664	72.782	271.893	224.752	338.048	-6.090	308.146	301.645	0.00018101	0.00048058	0.00010302	1252.5	2.0562e-06	4.1335e-06	1256.3	352.43	3.9131e-06	5.4211e-06	404.29	133.62	115.33	40.448	3.1308e-06	50.627	0.00024748	0.0002319	6.4374e-05	1256.2	2.6016e-06	2.4838e-06	1263.8	355.49	2.5365e-06	2.4886e-06	405.98	135.74	116.79	40.862	2.5071e-06	51.03	180.182	74.185	78.768	-7.144	131.354	114.357	-7.065	-2.239	156.847	142.612	-2.926	1.446	2.191	6.448	157.656	5.602	-8191	255	
1543.837	1	1	0	0	0.14268	0.26263	0.16558	0.082086	0.031598	0.089984	0.36219	0.19514	0.09459	0.23061	0.22213	0.10089	0.13928	0.17782	0.13004	0.061106	-1.6313	-1.5271	-1.275	-2.1792	-1.1812	-1.7792	-1.9646	-1.1938	-2.0042	-1.5812	-1.4021	-2.3438	-1.1625	-1.75	-1.8687	-1.2458	259.505	237.411	15.137	-4.393	278.173	-18.728	279.749	285.140	227.150	129.099	310.685	-1.244	139.051	25.482	19.176	218.260	0.00019095	0.000428	0.00016083	1251.4	2.7691e-06	3.0249e-06	1259.3	351.14	3.3242e-06	6.2331e-06	402.96	133.31	115.24	40.537	2.23e-06	50.421	0.00024241	0.00022033	6.4501e-05	1256.4	2.5617e-06	2.4912e-06	1265.6	355.37	2.4526e-06	2.5318e-06	405.27	135.77	116.66	41.036	2.5186e-06	50.973	188.505	54.979	59.564	-7.376	137.057	127.426	-7.390	-2.609	169.996	149.128	-3.289	1.227	1.631	6.172	162.143	5.600	-8191	255	
1543.933	1	1	0	0	0.20847	0.15566	0.02642	0.16371	0.18135	0.21376	0.52036	0.06522	0.17647	0.1281	0.34	0.12214	0.14662	0.22943	0.0879	0.12994	-1.6396	-1.6083	-1.2625	-2.4188	-1.1562	-1.625	-2.2229	-1.0771	-1.8146	-1.6812	-1.275	-2.125	-1.2458	-1.6479	-2.0854	-1.2792	251.469	121.856	24.925	319.641	76.587	269.729	302.648	48.804	237.384	0.450	263.401	317.838	333.400	272.532	305.416	39.668	0.00020202	0.00039976	0.00017503	1252.8	3.1411e-06	4.4675e-06	1264.5	352.8	4.0879e-06	5.566e-06	404.35	133.76	114.93	40.315	5.0493e-06	50.571	0.00024526	0.00023077	6.3958e-05	1257.2	2.5261e-06	2.462e-06	1266.3	355.42	2.5489e-06	2.5347e-06	406.34	135.68	116.96	40.892	2.5135e-06	50.97	187.912	61.184	67.681	-7.326	98.982	120.219	-7.435	-2.826	188.260	140.753	-3.477	1.400	1.614	5.971	143.606	5.234	-8191	255	
1544.054	1	1	0	0	0.26541	0.26942	0.2065	0.12569	0.06684	0.20302	0.333	0.3337	0.13857	0.29285	0.10621	0.11772	0.11879	0.18864	0.069278	0.39947	-1.4937	-1.6229	-1.075	-2.2687	-1.325	-1.5979	-2.2771	-1.4292	-1.9438	-1.7062	-1.125	-2.0729	-1.4875	-1.3813	-2.1188	-1.25	298.380	230.407	229.961	39.549	-7.741	39.689	282.557	3.493	261.210	68.874	209.433	330.047	-2.295	307.149	250.623	315.379	0.00020918	0.00038156	7.3802e-05	1256.2	4.552e-06	5.371e-06	1261.5	352.56	3.1466e-06	8.704e-06	406.64	134.06	115.27	40.465	5.1797e-06	50.501	0.00023699	0.00022951	6.3591e-05	1258	2.5696e-06	2.5218e-06	1265.8	355.31	2.4933e-06	2.4739e-06	406.45	136.08	117.02	40.983	2.5056e-06	50.947	178.024	86.746	69.389	-7.652	170.149	128.520	-7.406	-2.640	178.480	155.950	-3.390	1.232	1.742	5.790	146.980	5.482	-8191	255	
1544.150	1	1	0	0	0.041854	0.19594	0.092144	0.26984	0.15073	0.10662	0.12711	0.26299	0.20999	0.012195	0.11502	0.15611	0.10329	0.1686	0.25354	0.33584	-1.4604	-1.8687	-1.1812	-2.2396	-1.4542	-1.4146	-2.0333	-1.3208	-1.7687	-1.7854	-1.1417	-2.1562	-1.6708	-1.5667	-2.0708	-1.3917	235.334	127.074	219.478	309.389	312.832	194.717	272.465	324.163	160.695	233.096	315.197	71.949	258.937	9.868	69.891	284.658	0.00020997	0.00058547	0.00013303	1256.2	4.4931e-06	3.1346e-06	1267	352.98	2.2133e-06	3.4422e-06	404.01	134.04	115.03	40.49	3.3135e-06	50.268	0.00024634	0.00022918	6.428e-05	1258.5	2.6162e-06	2.5198e-06	1268.5	355.52	2.6282e-06	2.4827e-06	406.05	136.17	116.93	40.919	2.5772e-06	50.947	181.565	91.147	96.942	-7.521	129.138	86.129	-7.365	-2.939	187.634	136.079	-3.653	1.486	1.456	6.147	130.440	5.179	-8191	255	
1544.246	1	1	0	0	0.31847	0.1461	0.11037	0.27762	0.1302	0.14799	0.20272	0.36713	0.20029	0.23965	0.15162	0.12252	0.12441	0.076731	0.10487	0.066891	-1.0292	-1.825	-1.0729	-2.2521	-1.5146	-1.3021	-2.3271	-1.4062	-1.4375	-2.0812	-1.2667	-1.9813	-1.5333	-1.3	-2.1354	-1.4604	74.377	299.453	-9.381	302.178	112.508	223.079	252.262	305.624	204.538	270.685	6.990	157.403	62.578	154.984	169.879	237.171	0.00020597	0.00035499	0.00016629	1251.4	4.4582e-06	2.9765e-06	1262.7	353.34	8.787e-07	5.0869e-06	403.57	133.67	114.74	40.463	3.1176e-06	50.393	0.00024358	0.00023473	6.6204e-05	1258.3	2.6216e-06	2.5639e-06	1267.2	356.19	2.5593e-06	2.5289e-06	406.5	135.76	116.95	40.959	2.5214e-06	50.903	184.412	88.320	77.499	-7.605	156.647	128.700	-7.393	-2.811	129.754	159.356	-3.353	1.202	1.839	6.056	149.372	5.008	-8191	255	
1544.341	1	1	0	0	0.042322	0.14026	0.19891	0.28476	0.14045	0.20132	0.26462	0.31816	0.29987	0.13999	0.34934	0.15185	0.030651	0.17631	0.13702	0.043024	-1.1	-2.0479	-1.025	-1.9417	-1.8292	-1.0812	-2.0417	-1.5083	-1.2313	-1.9104	-1.2458	-1.9375	-1.7458	-1.2646	-2.075	-1.5854	240.209	150.230	29.301	316.214	210.242	297.302	242.221	275.265	164.534	261.406	206.795	233.956	235.025	49.685	89.521	233.129	0.00019277	0.00039494	0.00012562	1249.7	3.3085e-06	4.2697e-06	1259.3	352.84	2.3694e-06	4.2534e-06	406.35	134.1	115.58	40.272	3.9467e-06	50.342	0.00024572	0.00023671	6.6404e-05	1257.5	2.6186e-06	2.5862e-06	1266.9	356.18	2.6089e-06	2.5939e-06	407.09	135.77	117.18	40.897	2.6075e-06	50.993	180.837	70.496	60.852	-7.457	121.311	84.642	-7.429	-2.969	153.899	159.284	-3.432	1.456	1.768	5.884	99.716	5.103	-8191	255	
1544.437	1	1	0	0	0.027643	0.24494	0.34356	0.2942	0.17422	0.078197	0.23083	0.30637	0.19165	0.069949	0.12507	0.089638	0.1693	0.34407	0.27359	0.11847	-0.78958	-2.0333	-1.0229	-2.0875	-1.8875	-1.1354	-2.3021	-1.6146	-1.1958	-1.9854	-1.3229	-1.7812	-1.9542	-1.2938	-1.9229	-1.6958	182.506	263.244	139.549	332.825	155.384	323.227	301.936	299.139	214.214	100.329	227.710	195.632	292.171	275.743	208.512	233.138	0.00021847	0.00048274	0.0001786	1252.2	3.9379e-06	5.0185e-06	1259.9	351.73	8.6418e-07	4.269e-06	404.48	133.69	114.77	40.319	1.1014e-06	50.699	0.00025229	0.0002354	6.5302e-05	1257.9	2.7415e-06	2.5969e-06	1267.1	355.37	2.6784e-06	2.4528e-06	406.14	135.93	116.94	40.901	2.5646e-06	51.043	186.732	65.834	62.152	-7.604	118.673	109.058	-7.202	-2.979	218.008	168.047	-3.585	1.420	2.104	6.070	127.835	5.284	-8191	255	
1544.533	1	1	0	0	0.38129	0.25247	0.20039	0.14177	0.21302	0.15815	0.24271	0.027144	0.018896	0.04461	0.19067	0.17113	0.095835	0.24516	0.2549	0.14692	-0.90417	-1.9833	-1.4146	-1.7167	-1.825	-0.98333	-2.0458	-2.0333	-1.0604	-2.0354	-1.4271	-1.65	-1.8917	-1.0979	-1.8958	-1.8979	144.462	248.234	6.372	284.271	-2.426	299.708	313.342	6.904	252.662	158.145	-5.027	304.845	252.838	312.772	72.388	120.343	0.00022254	0.0003371	0.00012427	1252.8	2.4292e-06	5.0621e-06	1255.9	351.68	2.6611e-06	6.8937e-06	402.84	134.28	115.72	40.347	4.9968e-06	50.478	0.00024973	0.00023426	6.5645e-05	1258.6	2.6672e-06	2.6564e-06	1265.6	355.58	2.6893e-06	2.593e-06	406.03	135.97	117.22	40.978	2.6893e-06	51.036	182.312	78.665	69.508	-7.433	111.023	100.152	-7.367	-2.578	176.740	178.793	-3.339	1.394	1.942	5.876	154.141	5.326	-8191	255	
1544.654	1	1	0	0	0.22075	0.13719	0.1522	0.18177	0.26449	0.15308	0.20229	0.29347	0.26675	0.072492	0.25241	0.30907	0.14871	0.19026	0.11033	0.036422	-0.70833	-2.0021	-1.3417	-1.4375	-1.9792	-1.2354	-2.0812	-1.9271	-1.1375	-2.1854	-1.5729	-1.475	-2.2313	-1.3396	-1.4729	-1.7417	157.621	103.701	327.346	297.332	-20.426	224.833	282.084	323.137	230.258	219.003	-7.569	257.297	25.296	259.795	119.261	141.347	0.00021007	0.00041888	0.0001547	1252.4	4.4586e-06	5.119e-06	1266.4	352.72	4.2466e-06	4.8603e-06	405.63	133.46	114.72	40.384	2.9541e-06	50.695	0.00025442	0.00023865	6.7077e-05	1261.3	2.7265e-06	2.7055e-06	1268.3	356.26	2.7101e-06	2.5617e-06	407.1	136	116.83	41.009	2.5765e-06	51.066	186.760	76.489	58.199	-7.635	152.476	137.330	-7.290	-2.673	189.114	157.838	-3.173	1.653	1.981	6.198	102.472	5.314	-8191	255	
1544.750	1	1	0	0	0.11695	0.13396	0.068049	0.22157	0.23262	0.24434	0.52037	0.1779	0.27862	0.42426	0.11364	0.32234	0.25281	0.3418	0.12866	0.027272	-0.59375	-1.9958	-1.5667	-1.4417	-1.9208	-1.2583	-1.8667	-1.9625	-1.1437	-1.9354	-1.7479	-1.3937	-2.1542	-1.5125	-1.725	-2.1458	220.336	3.524	60.256	306.747	-10.381	284.208	266.994	297.486	229.867	280.649	190.814	199.317	328.596	336.547	10.929	225.546	0.00018366	0.00057408	0.00016321	1254	2.469e-06	3.9927e-06	1263.9	351.76	2.5252e-06	6.9321e-06	403.85	133.67	115.14	40.329	3.9295e-06	50.679	0.00025342	0.00022928	6.6183e-05	1260.5	2.6661e-06	2.59e-06	1269.2	356.32	2.6826e-06	2.5315e-06	406.66	135.98	117.01	40.939	2.6146e-06	51.116	186.388	74.190	76.954	-7.390	157.435	117.909	-7.253	-2.881	161.966	157.725	-3.428	1.528	2.099	5.840	159.010	5.152	-8191	255	
1544.846	1	1	0	0	0.27579	0.16957	0.14739	0.098399	0.2203	0.14117	0.22514	0.28764	0.12242	0.30617	0.097238	0.18583	0.30554	0.17994	0.28935	0.10861	-0.81458	-1.9813	-1.5583	-1.4125	-2.0542	-1.3271	-1.7042	-2.175	-1.0187	-1.8708	-1.7854	-1.1375	-2.1125	-1.3208	-1.2479	-2.0417	271.935	62.677	91.790	304.952	40.810	247.743	331.579	7.254	155.542	322.123	37.853	293.484	292.124	264.955	111.458	-15.889	0.00019354	0.00070362	0.00015711	1256.2	4.7439e-06	5.6654e-06	1263.8	353.71	4.4647e-06	7.3051e-06	404.44	133.96	115.83	40.472	3.1592e-06	50.826	0.00024702	0.00023001	6.4909e-05	1259.8	2.5197e-06	2.5673e-06	1269.2	356.15	2.5555e-06	2.4741e-06	406.77	136.13	117.37	40.999	2.5091e-06	51.132	174.189	62.531	66.534	-7.405	140.521	114.522	-7.381	-2.743	146.203	161.390	-3.481	1.346	1.880	6.073	180.850	5.394	-8191	255	
1544.942	1	1	0	0	0.082029	0.093468	0.25809	0.32864	0.21196	0.058316	0.16589	0.28371	0.13809	0.19106	0.0089042	0.12611	0.16972	0.0902	0.19763	0.14394	-0.64375	-1.8396	-1.8104	-1.3042	-2.0583	-1.7021	-1.7208	-2.2125	-1.3771	-1.925	-2.1104	-1.3	-2.2396	-1.6333	-1.4958	-2.3979	83.817	136.612	69.479	303.088	176.067	-8.992	306.530	207.917	252.907	-12.445	190.338	246.886	42.932	29.603	321.976	254.216	0.00020603	0.00060657	0.00015936	1252.9	5.7087e-06	4.6058e-06	1258	352.01	1.6573e-06	6.1006e-06	405.27	134.36	115.52	40.402	2.76e-06	50.624	0.00024748	0.00022746	6.5242e-05	1257.9	2.5912e-06	2.5112e-06	1266.5	355.53	2.6155e-06	2.5486e-06	407.05	136.33	117.25	41.022	2.5126e-06	51.038	184.921	71.739	95.387	-7.521	139.372	135.941	-7.294	-2.729	127.305	144.528	-3.514	1.430	1.832	5.822	137.381	5.302	-8191	255	
#DATA ENDS
