BOXY.EXE: ISS Imagent and Oximeter Data Acquisition Program Version 0.80
Ascii Record File

#ACQ INFORMATION
2  Detector Channels 
16  External MUX Channels 
1  Auxiliary Channels 
5000  Waveform (CCF) Frequency (Hz)
1  Waveforms Skipped 
30  Waveforms Averaged 
1  Cycles Averaged 
16  Acquisitions per Waveform 
10.0806  Updata Rate (Hz) 

#FILE INFORMATION
TRUE -- External MUX Channel results are PARSED.
FALSE -- AC DC and Phase are NOT grouped.
TRUE -- Companion Program Settings File CREATED.
FALSE -- AC data not excluded
FALSE -- DC data not excluded
FALSE -- Phase data not excluded
FALSE -- Auxillary Chn. data not excluded
Tab delimiters

#CALIBRATION STATE
TRUE -- Waveform Calibration Values APPLIED.


#AUX CALIBRATION VALUES
Val Type	aux-1	

Term	1.0000e+00	
Factor	0.0000e+00	


#WF CALIBRATION VALUES
A = Detector Channel
Val Type	A-AC1	A-AC2	A-AC3	A-AC4	A-AC5	A-AC6	A-AC7	A-AC8	A-AC9	A-AC10	A-AC11	A-AC12	A-AC13	A-AC14	A-AC15	A-AC16	A-DC1	A-DC2	A-DC3	A-DC4	A-DC5	A-DC6	A-DC7	A-DC8	A-DC9	A-DC10	A-DC11	A-DC12	A-DC13	A-DC14	A-DC15	A-DC16	A-Ph1	A-Ph2	A-Ph3	A-Ph4	A-Ph5	A-Ph6	A-Ph7	A-Ph8	A-Ph9	A-Ph10	A-Ph11	A-Ph12	A-Ph13	A-Ph14	A-Ph15	A-Ph16	

Term	0.00000e+00	0.00000e+00	0.00000e+00	0.00000e+00	0.00000e+00	0.00000e+00	0.00000e+00	0.00000e+00	0.00000e+00	0.00000e+00	0.00000e+00	0.00000e+00	0.00000e+00	0.00000e+00	0.00000e+00	0.00000e+00	0.00000e+00	0.00000e+00	0.00000e+00	0.00000e+00	0.00000e+00	0.00000e+00	0.00000e+00	0.00000e+00	0.00000e+00	0.00000e+00	0.00000e+00	0.00000e+00	0.00000e+00	0.00000e+00	0.00000e+00	0.00000e+00	0.00000e+00	0.00000e+00	0.00000e+00	0.00000e+00	0.00000e+00	0.00000e+00	0.00000e+00	0.00000e+00	0.00000e+00	0.00000e+00	0.00000e+00	0.00000e+00	0.00000e+00	0.00000e+00	0.00000e+00	0.00000e+00	
Factor	1.00000e+00	1.00000e+00	1.00000e+00	1.00000e+00	1.00000e+00	1.00000e+00	1.00000e+00	1.00000e+00	1.00000e+00	1.00000e+00	1.00000e+00	1.00000e+00	1.00000e+00	1.00000e+00	1.00000e+00	1.00000e+00	1.00000e+00	1.00000e+00	1.00000e+00	1.00000e+00	1.00000e+00	1.00000e+00	1.00000e+00	1.00000e+00	1.00000e+00	1.00000e+00	1.00000e+00	1.00000e+00	1.00000e+00	1.00000e+00	1.00000e+00	1.00000e+00	X	X	X	X	X	X	X	X	X	X	X	X	X	X	X	X	

B = Detector Channel
Val Type	B-AC1	B-AC2	B-AC3	B-AC4	B-AC5	B-AC6	B-AC7	B-AC8	B-AC9	B-AC10	B-AC11	B-AC12	B-AC13	B-AC14	B-AC15	B-AC16	B-DC1	B-DC2	B-DC3	B-DC4	B-DC5	B-DC6	B-DC7	B-DC8	B-DC9	B-DC10	B-DC11	B-DC12	B-DC13	B-DC14	B-DC15	B-DC16	B-Ph1	B-Ph2	B-Ph3	B-Ph4	B-Ph5	B-Ph6	B-Ph7	B-Ph8	B-Ph9	B-Ph10	B-Ph11	B-Ph12	B-Ph13	B-Ph14	B-Ph15	B-Ph16	

Term	0.00000e+00	0.00000e+00	0.00000e+00	0.00000e+00	0.00000e+00	0.00000e+00	0.00000e+00	0.00000e+00	0.00000e+00	0.00000e+00	0.00000e+00	0.00000e+00	0.00000e+00	0.00000e+00	0.00000e+00	0.00000e+00	0.00000e+00	0.00000e+00	0.00000e+00	0.00000e+00	0.00000e+00	0.00000e+00	0.00000e+00	0.00000e+00	0.00000e+00	0.00000e+00	0.00000e+00	0.00000e+00	0.00000e+00	0.00000e+00	0.00000e+00	0.00000e+00	-2.23846e+00	-1.31119e+02	-1.35896e+02	-1.81478e+02	-5.32445e+01	-6.29258e+01	-1.58115e+02	-1.62015e+02	-5.21912e+01	-6.51356e+01	-1.73607e+02	-1.71776e+02	-1.83012e+02	-1.76573e+02	-5.74558e+01	-1.49837e+02	
Factor	3.30459e-05	1.49444e-04	4.39707e-05	1.58432e-01	1.72561e-06	1.36174e-06	1.67435e-01	4.77828e-02	1.66550e-06	1.80684e-06	9.40725e-02	2.82132e-02	5.96618e-02	8.24392e-03	1.74084e-06	1.21984e-02	3.04457e-06	3.32303e-06	9.25805e-07	8.43004e-02	3.58660e-08	3.66680e-08	8.32303e-02	2.54810e-02	3.58404e-08	3.65924e-08	4.79435e-02	1.44760e-02	3.08274e-02	4.42958e-03	3.60998e-08	6.29450e-03	X	X	X	X	X	X	X	X	X	X	X	X	X	X	X	X	



#DISTANCE SETTINGS
A = Detector Channel
A-1	A-2	A-3	A-4	A-5	A-6	A-7	A-8	A-9	A-10	A-11	A-12	A-13	A-14	A-15	A-16	

2.5000e+00	3.0000e+00	2.5000e+00	3.0000e+00	2.0000e+00	3.0000e+00	1.5000e+00	3.0000e+00	3.0000e+00	3.0000e+00	3.0000e+00	3.0000e+00	3.0000e+00	3.0000e+00	1.5000e+00	3.0000e+00	

B = Detector Channel
B-1	B-2	B-3	B-4	B-5	B-6	B-7	B-8	B-9	B-10	B-11	B-12	B-13	B-14	B-15	B-16	

1.0000e+01	1.0000e+01	1.0000e+01	1.4400e+00	1.0000e+01	1.0000e+01	1.5100e+00	1.9400e+00	1.0000e+01	1.0000e+01	1.9900e+00	2.4900e+00	2.4100e+00	2.9000e+00	1.0000e+01	2.9800e+00	




#DATA BEGINS
time	group	step	mark	flag	A-AC1	A-AC2	A-AC3	A-AC4	A-AC5	A-AC6	A-AC7	A-AC8	A-AC9	A-AC10	A-AC11	A-AC12	A-AC13	A-AC14	A-AC15	A-AC16	A-DC1	A-DC2	A-DC3	A-DC4	A-DC5	A-DC6	A-DC7	A-DC8	A-DC9	A-DC10	A-DC11	A-DC12	A-DC13	A-DC14	A-DC15	A-DC16	A-Ph1	A-Ph2	A-Ph3	A-Ph4	A-Ph5	A-Ph6	A-Ph7	A-Ph8	A-Ph9	A-Ph10	A-Ph11	A-Ph12	A-Ph13	A-Ph14	A-Ph15	A-Ph16	B-AC1	B-AC2	B-AC3	B-AC4	B-AC5	B-AC6	B-AC7	B-AC8	B-AC9	B-AC10	B-AC11	B-AC12	B-AC13	B-AC14	B-AC15	B-AC16	B-DC1	B-DC2	B-DC3	B-DC4	B-DC5	B-DC6	B-DC7	B-DC8	B-DC9	B-DC10	B-DC11	B-DC12	B-DC13	B-DC14	B-DC15	B-DC16	B-Ph1	B-Ph2	B-Ph3	B-Ph4	B-Ph5	B-Ph6	B-Ph7	B-Ph8	B-Ph9	B-Ph10	B-Ph11	B-Ph12	B-Ph13	B-Ph14	B-Ph15	B-Ph16	aux-1	digaux	

1033.181	1	1	0	768	0.098938	0.05383	0.060516	0.13412	0.16343	0.063175	0.1909	0.21015	0.24296	0.19066	0.042842	0.037164	0.07495	0.18567	0.27093	0.20827	-0.73333	-2.0312	-1.6729	-1.4521	-2.1125	-1.2354	-1.8625	-2.2625	-1.3292	-1.9937	-1.9375	-1.0958	-2.2771	-1.5792	-1.4646	-2.2229	105.233	-97.005	-131.216	-101.978	4.341	107.595	-83.758	113.649	102.916	89.686	57.376	-68.918	185.519	97.154	138.533	184.760	0.00092891	0.00066234	0.00020148	1373.5	5.899e-06	3.858e-06	1377.9	368.99	1.1885e-06	1.2387e-06	419.89	141.31	123.66	42.029	5.9226e-06	51.932	0.00060108	0.00058187	0.00016219	1398.9	6.4453e-06	6.3371e-06	1398	377.15	6.4234e-06	6.5042e-06	430.12	144.67	126.03	43.258	6.5516e-06	53.503	-30.813	-74.093	-89.589	-156.744	-18.070	37.188	-157.159	-152.338	-68.051	48.008	-153.027	-148.597	-148.415	-143.469	-7.734	-144.256	-8191	255	
1033.278	1	1	0	0	0.35722	0.278	0.15749	0.0040827	0.24426	0.2433	0.11479	0.31109	0.29806	0.15833	0.13022	0.087223	0.068537	0.34035	0.018956	0.18065	-0.65417	-1.8375	-1.8375	-1.2708	-2.15	-1.1396	-1.6021	-2.2458	-1.3042	-1.9271	-1.8833	-1.2938	-2.1312	-1.6542	-1.325	-2.4958	-116.585	61.311	43.277	135.511	105.542	-98.300	37.318	126.560	122.977	135.239	-145.242	78.561	-123.772	114.129	153.548	168.614	0.00098042	0.00019504	0.00015234	1377.1	6.0193e-06	4.9599e-06	1369.7	369.71	5.418e-06	9.5229e-06	421.82	141.56	123.56	41.945	3.9572e-06	51.92	0.00060281	0.0005943	0.00016213	1399.6	6.3696e-06	6.4326e-06	1395.7	377.17	6.3154e-06	6.3436e-06	430.6	144.54	125.61	43.25	6.2999e-06	53.454	-37.311	17.797	-120.202	-156.741	-34.665	-36.651	-156.894	-152.317	-51.550	-27.025	-152.937	-148.576	-148.178	-143.196	-57.477	-144.260	-8191	255	
1033.374	1	1	0	0	0.24635	0.1606	0.10345	0.42705	0.21372	0.13665	0.30772	0.16212	0.20347	0.33417	0.22437	0.15976	0.027002	0.3208	0.30132	0.16563	-0.6875	-1.8021	-2.0271	-1.3312	-1.8188	-1.5625	-1.5792	-2.1771	-1.0604	-1.8625	-2.1125	-1.0583	-2.0958	-1.6583	-1.3479	-2.2583	-54.535	-146.248	98.437	149.986	-103.553	-85.874	152.380	173.748	183.246	-41.874	-64.258	76.601	88.787	95.463	74.650	104.745	0.00089134	0.00058683	0.00022478	1375.3	8.8775e-06	1.797e-06	1372	370.21	8.4383e-06	9.0665e-06	421.68	141.8	123.5	41.768	7.3417e-06	51.831	0.00059292	0.00057976	0.00016225	1397.4	6.1982e-06	6.2778e-06	1394.6	377.48	6.2004e-06	6.3457e-06	431.28	144.72	126.1	43.17	6.3553e-06	53.577	-37.782	-72.205	181.250	-156.644	-37.645	163.586	-156.869	-152.164	-33.248	-8.687	-152.730	-148.235	-147.415	-143.260	-4.154	-144.046	-8191	255	
1033.470	1	1	0	0	0.084954	0.16483	0.20921	0.15081	0.11659	0.1629	0.35925	0.51668	0.50682	0.1612	0.21027	0.32511	0.088891	0.18654	0.36022	0.1471	-0.88125	-1.5312	-2.0083	-1.3917	-1.8979	-1.6583	-1.5021	-2.3083	-1.3354	-1.7458	-2.1833	-1.3	-1.8958	-1.7771	-1.0187	-2.1979	-4.264	113.800	13.953	154.984	65.208	119.884	169.882	141.688	118.838	20.144	149.793	-156.730	114.713	-141.901	50.579	-10.742	0.00084526	0.00052997	0.00018682	1376.8	8.8878e-06	3.0087e-06	1369.7	369.09	6.4334e-06	4.0162e-06	420.46	140.97	122.42	42.034	3.742e-06	51.542	0.00059356	0.00058674	0.00016143	1397.2	6.3982e-06	6.3331e-06	1396.2	377.01	6.3539e-06	6.3364e-06	430.24	144.49	125.76	43.368	6.4389e-06	53.42	-32.186	-133.543	-77.222	-156.531	-41.939	37.169	-156.953	-152.171	-12.978	19.913	-153.188	-148.455	-148.018	-143.441	35.410	-144.285	-8191	255	
1033.566	1	1	0	0	0.064624	0.12073	0.3925	0.26246	0.17231	0.1465	0.071271	0.50098	0.067169	0.34557	0.23039	0.14176	0.1341	0.22945	0.035975	0.14175	-0.97083	-1.4771	-2.1	-1.5688	-1.6917	-1.7771	-1.3979	-2.2417	-1.5646	-1.4354	-2.1833	-1.4062	-2.0062	-2.0938	-1.3771	-2.1167	148.012	154.391	-0.410	180.825	60.885	147.875	66.538	168.419	-159.554	-78.460	-144.266	127.670	-127.319	131.061	-167.700	148.093	0.00099518	0.00091552	0.00014703	1370	3.4617e-06	2.8751e-06	1370.2	369.34	4.4386e-06	6.4322e-06	421.5	141	123.58	42.007	5.0118e-06	52.007	0.00059344	0.00057461	0.00015919	1397	6.3395e-06	6.3136e-06	1393.8	377.19	6.2682e-06	6.3133e-06	430.89	144.44	125.62	43.284	6.2981e-06	53.665	-31.994	-85.202	-64.067	-156.738	-7.656	-41.375	-156.959	-152.356	-72.144	-27.568	-153.000	-148.443	-148.337	-143.298	-10.709	-144.227	-8191	255	
1033.662	1	1	0	0	0.1264	0.35212	0.14821	0.31564	0.14337	0.10009	0.30783	0.30737	0.10884	0.066447	0.12228	0.091899	0.20629	0.15197	0.0064405	0.19106	-1.1938	-1.1708	-2.1833	-1.4125	-1.6854	-1.9688	-1.275	-2.0917	-1.5208	-1.2625	-2.3208	-1.4479	-1.6125	-2.1375	-1.0083	-1.9875	-155.633	-44.345	-53.210	162.565	-0.085	-59.379	98.215	-159.618	163.833	149.951	-125.639	-53.491	150.742	164.213	105.922	73.557	0.00092863	0.00048975	0.00019174	1372.2	5.4879e-06	4.0475e-06	1378.5	368.79	7.8008e-06	5.4927e-06	419.67	141.22	123.82	41.998	9.6342e-06	52.046	0.00058718	0.00057612	0.0001583	1397.7	6.3072e-06	6.2566e-06	1396.7	376.37	6.1614e-06	6.2872e-06	430.12	144.44	126.04	43.311	6.1962e-06	53.588	-34.515	-43.215	-88.601	-156.875	-65.273	26.775	-157.154	-152.643	-41.092	-53.203	-153.160	-148.836	-147.881	-143.548	-7.519	-144.347	-8191	255	
1033.781	1	1	0	0	0.28595	0.12461	0.06339	0.1602	0.14983	0.1255	0.29394	0.063352	0.081402	0.24794	0.099606	0.33292	0.11123	0.23148	0.11095	0.37357	-1.2625	-1.0542	-2.2021	-1.7479	-1.5729	-2.1312	-1.2354	-2.1667	-1.8875	-0.975	-2.2146	-1.4937	-1.5646	-2.2208	-1.5	-1.9229	121.849	-37.559	-20.604	52.806	-67.967	70.714	131.624	-105.427	103.305	115.674	152.319	128.357	107.280	122.699	31.729	134.369	0.00095617	0.00061067	2.7448e-05	1370.3	6.2784e-06	1.9809e-06	1366.7	369.19	5.6812e-06	4.0068e-06	420.85	141.75	123.52	42.096	5.8686e-06	51.969	0.00057682	0.00056821	0.00015706	1397.5	6.1481e-06	6.1275e-06	1393.5	376.96	6.1226e-06	6.143e-06	431.26	144.67	125.77	43.373	6.1851e-06	53.656	-37.516	-114.028	-8.060	-157.029	-18.474	-98.434	-157.227	-152.412	-79.671	26.125	-152.889	-148.659	-148.349	-143.558	-19.191	-144.272	-8191	255	
1033.877	1	1	0	0	0.20657	0.083579	0.089008	0.23223	0.12411	0.26775	0.26444	0.16103	0.21982	0.13955	0.075179	0.32047	0.043448	0.24075	0.12986	0.15385	-1.4604	-1.025	-2.1354	-1.7188	-1.2667	-1.9312	-1.4292	-1.7771	-1.6375	-1.0083	-2.0875	-1.7313	-1.3354	-2.2958	-1.175	-1.7167	-68.898	-90.725	-62.541	165.749	-94.809	-36.478	153.614	147.600	86.052	-133.942	-106.625	158.309	-54.023	178.330	-151.894	-13.030	0.00081936	0.00050633	0.00014244	1375	5.7439e-06	4.3514e-06	1374.2	369.57	7.8025e-06	4.7986e-06	422.93	140.91	124.2	42.004	3.141e-06	52.056	0.00057698	0.00056293	0.00015412	1397.5	6.127e-06	6.1634e-06	1395.8	377.32	6.2035e-06	6.3098e-06	430.82	144.73	126.37	43.356	6.1626e-06	53.573	-31.698	-85.657	-99.038	-156.730	-17.462	-16.795	-157.130	-152.245	-34.695	-18.766	-152.717	-148.648	-148.064	-143.560	-46.408	-144.024	-8191	255	
1033.973	1	1	0	0	0.072416	0.28191	0.21887	0.30381	0.086734	0.010882	0.078841	0.10845	0.1167	0.088223	0.19152	0.16161	0.29963	0.2264	0.11322	0.091011	-1.7646	-1.1708	-1.9604	-1.6292	-1.2104	-2.2542	-1.5438	-1.7958	-2.0333	-1.1604	-2.0521	-1.8417	-1.2958	-2.0812	-1.2271	-1.5063	2.582	130.143	-92.798	169.458	-69.759	51.732	-152.630	176.223	-98.343	-41.697	114.335	-160.425	147.843	132.340	159.613	-64.788	0.00088703	0.00089598	0.00016938	1378	1.0118e-05	7.5955e-06	1372	369.19	6.5468e-06	3.5959e-06	422.56	141.36	123.59	41.909	6.122e-06	51.948	0.00057755	0.00057845	0.00015855	1399.3	6.2473e-06	6.2322e-06	1397.1	376.85	6.1803e-06	6.2123e-06	432.02	144.78	125.94	43.298	6.0691e-06	53.689	-30.991	-57.336	-53.119	-156.696	-43.351	13.605	-157.086	-152.063	-35.380	-9.475	-152.749	-148.817	-148.355	-143.666	-33.414	-144.379	-8191	255	
1034.070	1	1	0	0	0.04473	0.22227	0.19418	0.27357	0.23841	0.13998	0.31584	0.36962	0.12083	0.2241	0.17646	0.29394	0.17017	0.21407	0.095914	0.049287	-1.5187	-1.1417	-1.9375	-2.0729	-1.1708	-2.1979	-1.6229	-1.5708	-2.1375	-1.1896	-1.9625	-1.8813	-1.1646	-2.1208	-1.3583	-1.4083	70.729	-131.224	-21.235	72.816	152.063	-17.959	81.632	146.281	90.809	5.740	133.386	188.391	-20.628	156.602	61.142	45.330	0.00088717	0.00075913	0.00013231	1377.1	9.7725e-06	2.1123e-06	1375.6	369.2	5.6843e-06	7.6859e-06	422.32	141.62	123.52	42.161	6.1539e-06	51.888	0.00057844	0.00056147	0.0001586	1400.8	6.2662e-06	6.125e-06	1396.9	376.86	6.3438e-06	6.1545e-06	431.18	144.87	125.95	43.444	6.1616e-06	53.598	-34.824	-88.990	-52.659	-157.093	16.503	100.374	-157.416	-152.494	-52.942	-26.834	-153.289	-148.993	-148.257	-143.488	-35.252	-144.559	-8191	255	
1034.166	1	1	0	0	0.14973	0.070021	0.12237	0.14335	0.17896	0.18182	0.14077	0.27589	0.083309	0.27143	0.36109	0.31451	0.069807	0.051958	0.21872	0.17814	-1.7708	-1.225	-1.6792	-2.0625	-1.1479	-2.0646	-1.7604	-1.4479	-2.0646	-1.2604	-1.5646	-2.1396	-0.97708	-2.1333	-1.6562	-1.2188	-60.135	-156.101	132.039	-159.548	-117.804	13.536	103.573	174.120	9.924	160.063	-133.415	111.725	124.386	1.493	177.783	92.887	0.00095356	0.00050592	0.0001977	1375.4	4.4674e-06	2.5265e-06	1370.1	368.86	8.4787e-06	6.1839e-06	420.75	141.48	124.3	42.058	9.4196e-06	51.972	0.00058137	0.00057333	0.00015685	1399.6	6.3002e-06	6.1864e-06	1396.5	377.33	6.1843e-06	6.1938e-06	430.62	144.71	126.25	43.4	6.2051e-06	53.605	-31.105	-82.591	-98.470	-157.238	-26.999	44.172	-157.638	-152.528	-29.487	-12.497	-153.092	-148.769	-148.464	-143.572	-13.257	-144.791	-8191	255	
1034.262	1	1	0	0	0.062733	0.17478	0.1943	0.3034	0.1521	0.075334	0.25215	0.50834	0.070711	0.31596	0.26973	0.30824	0.27862	0.31003	0.063321	0.31911	-1.6896	-1.2458	-1.4625	-2.1688	-1.0312	-2.0687	-1.7542	-1.5042	-1.9417	-1.4438	-1.6604	-2.2458	-1.1625	-2.0729	-1.8188	-1.1812	36.919	33.903	-18.852	146.988	-116.020	99.135	74.061	134.101	-138.230	-0.464	-144.052	182.398	96.095	139.702	-7.002	100.719	0.00088017	0.0002883	0.0001305	1376.6	5.4548e-06	5.8875e-06	1372.2	369.42	8.1997e-06	3.585e-06	421.23	141.81	123.33	42.218	3.6251e-06	51.885	0.00058321	0.00056989	0.00015841	1400.4	6.218e-06	6.2417e-06	1397.1	377.19	6.1953e-06	6.2301e-06	431.06	144.81	125.95	43.369	6.1891e-06	53.517	-39.787	-89.924	-100.721	-157.179	-66.017	-3.973	-157.712	-152.337	-54.583	-7.940	-152.967	-148.682	-148.303	-143.250	-12.412	-144.514	-8191	255	
1034.358	1	1	0	0	0.077469	0.2333	0.17478	0.3878	0.3222	0.32954	0.26308	0.2562	0.05055	0.26386	0.27868	0.2251	0.15338	0.23187	0.35752	0.075027	-1.7479	-1.4292	-1.5333	-2.3208	-1.1021	-1.6042	-2.2167	-1.2542	-2.1542	-1.5208	-1.4042	-2.2979	-1.1125	-1.8167	-1.7271	-1.1688	34.659	57.435	-129.935	152.708	183.911	-123.237	161.501	93.458	109.270	40.624	128.211	-120.204	142.835	-109.631	171.108	154.900	0.00096605	0.00064048	0.0001615	1372.8	5.3408e-06	5.5618e-06	1375.4	370.51	8.8672e-06	3.0769e-06	421.49	142.56	123.82	41.943	6.9132e-06	51.685	0.0005791	0.0005703	0.00016139	1399.2	6.2125e-06	6.2677e-06	1397.4	377.29	6.1374e-06	6.2279e-06	431.3	145.03	126.02	43.305	6.3026e-06	53.599	-38.216	-66.931	-101.495	-157.035	-1.591	5.091	-157.340	-152.396	-62.008	-21.165	-152.797	-148.669	-148.363	-143.175	-43.450	-144.157	-8191	255	
1034.477	1	1	0	0	0.099499	0.1075	0.28294	0.12529	0.17065	0.25526	0.15331	0.43468	0.091651	0.15667	0.082456	0.12956	0.21804	0.1006	0.21277	0.14278	-1.7437	-1.4729	-1.2313	-2.1458	-1.1688	-1.5979	-2.1833	-1.3125	-2.05	-1.4896	-1.4354	-2.1688	-1.3542	-1.8208	-2.0875	-1.2208	-149.396	167.056	-115.794	-71.004	-134.503	-100.528	103.452	151.639	24.144	-78.373	74.007	126.493	144.145	-101.657	-35.016	-110.286	0.00091187	0.00042541	4.8469e-05	1379.8	1.1033e-05	3.9841e-06	1378.6	369.1	1.0502e-05	2.5874e-06	421.68	141.54	123.67	42.017	6.3823e-06	52.104	0.0005887	0.00056827	0.00015978	1402	6.1953e-06	6.2323e-06	1399.5	377.05	6.1789e-06	6.1789e-06	431.13	144.72	125.92	43.42	6.1856e-06	53.618	-36.569	-89.152	-92.616	-156.965	-21.586	19.898	-157.135	-152.295	-39.276	-51.778	-152.839	-148.837	-148.316	-143.434	-122.704	-144.283	-8191	255	
1034.573	1	1	0	0	0.30526	0.17516	0.34704	0.1571	0.24149	0.072761	0.20898	0.32481	0.21447	0.091957	0.34035	0.21881	0.0047764	0.14725	0.25237	0.10767	-1.6604	-1.6458	-1.2542	-2.45	-1.225	-1.4979	-2.3125	-1.3312	-1.7646	-1.8062	-1.3062	-2.2271	-1.4292	-1.5812	-2.1688	-1.3333	-109.883	-120.004	-148.026	89.141	50.781	152.783	79.069	158.884	152.788	-33.116	128.430	-27.894	90.336	-167.358	-57.688	43.522	0.00091643	0.00069068	0.0002323	1375.5	3.3803e-06	3.7164e-06	1377.7	369.94	8.8932e-06	6.5577e-06	421.28	141.11	123.39	42.03	8.2603e-06	52.078	0.00057181	0.00056625	0.00015715	1400.4	6.091e-06	6.2512e-06	1400	377.49	6.0787e-06	6.2026e-06	431.44	144.76	125.71	43.405	6.133e-06	53.698	-26.087	-77.028	-100.107	-156.874	-73.287	27.905	-157.171	-152.332	-23.580	-43.374	-152.909	-148.335	-147.943	-143.170	-44.917	-144.141	-8191	255	
1034.669	1	1	0	0	0.060647	0.27883	0.12478	0.33872	0.057707	0.018756	0.20678	0.06561	0.15779	0.024236	0.37124	0.074925	0.10985	0.31077	0.06849	0.40864	-1.5625	-1.9417	-1.1604	-2.275	-1.3208	-1.4854	-2.3583	-1.275	-1.8042	-1.8958	-1.2146	-2.2292	-1.4688	-1.4604	-2.0229	-1.3104	-82.263	-22.967	-42.546	-159.957	-25.382	-26.015	149.474	48.882	-4.046	-106.965	122.425	109.365	-168.724	158.551	-28.346	116.419	0.00084453	0.00032628	9.48e-05	1375.5	1.0194e-05	5.6136e-06	1377.7	368.89	6.5207e-06	7.0573e-06	422.92	141.26	123.75	42.069	6.0836e-06	51.882	0.00057187	0.00056451	0.00015736	1400.7	6.1359e-06	6.2673e-06	1398.8	377.08	6.1222e-06	6.0632e-06	431.64	144.61	125.81	43.391	6.1656e-06	53.667	-31.049	174.395	-103.938	-156.896	43.599	4.492	-157.140	-152.251	-66.873	-31.453	-152.638	-148.322	-147.904	-143.196	1.929	-144.037	-8191	255	
1034.743	1	1	0	0	0.1376	0.11758	0.21233	0.28426	0.32918	0.12751	0.17778	0.099492	0.19651	0.2112	0.24553	0.21804	0.20144	0.041328	0.16784	0.24915	-1.2917	-2.1583	-1.0167	-2.275	-1.7854	-1.3833	-2.3396	-1.4167	-1.6271	-2.125	-1.2042	-2.1271	-1.7646	-1.1104	-2.3063	-1.4188	108.821	-131.315	33.177	129.149	105.819	60.856	112.287	134.570	31.193	-118.083	160.629	-132.676	136.557	-85.751	28.135	109.971	0.00098171	0.00090077	0.00013162	1374.8	4.0341e-06	3.4766e-06	1377.4	368.63	5.4147e-06	5.9777e-06	422.47	141.59	123.1	42.104	6.1328e-06	51.83	0.00057787	0.00056475	0.00015662	1400.9	6.1697e-06	6.1657e-06	1399	376.91	6.1822e-06	6.193e-06	431.27	144.62	125.67	43.433	6.098e-06	53.539	-29.688	-65.184	-45.615	-156.625	-64.479	-29.484	-157.029	-152.088	-75.901	-23.398	-152.499	-148.504	-148.085	-143.097	-4.310	-144.205	-8191	255	
1034.861	1	1	0	0	0.042551	0.13325	0.053953	0.26452	0.042156	0.21384	0.15424	0.22163	0.044071	0.24854	0.17199	0.13709	0.050623	0.12963	0.26547	0.11422	-1.2062	-2.0812	-1.0896	-2.1437	-1.7458	-1.175	-2.2021	-1.5312	-1.5354	-2.1	-1.2938	-2.0667	-1.9479	-1.2625	-1.8958	-1.6313	59.527	143.148	-18.425	153.133	94.465	133.115	126.810	-123.931	-13.810	-83.670	-163.223	149.813	-109.420	59.953	38.023	-7.029	0.00092641	0.00065508	0.00016394	1378.3	2.7905e-06	3.5679e-06	1371.8	368.82	1.151e-05	4.3194e-06	422.63	141.19	124.33	42.024	8.2178e-06	51.832	0.00057491	0.00055476	0.00015595	1402.7	6.0046e-06	6.1312e-06	1397.9	376.87	6.2045e-06	6.0282e-06	431.38	144.82	125.98	43.383	5.9601e-06	53.564	-30.841	-60.084	-87.865	-156.871	11.260	-28.300	-157.117	-152.225	-34.397	-46.982	-152.587	-148.350	-148.209	-143.421	-57.887	-144.055	-8191	255	
1034.958	1	1	0	0	0.073939	0.12942	0.24372	0.19968	0.059633	0.11537	0.23182	0.11804	0.065452	0.19205	0.17427	0.31845	0.13806	0.21217	0.19429	0.32946	-1.0333	-2.0396	-1.1646	-1.9479	-1.8375	-1.3438	-2.1437	-1.4083	-1.2646	-1.9771	-1.2812	-1.6875	-1.8792	-1.1646	-2.0271	-1.6146	-101.650	-59.851	-30.435	168.678	-109.313	47.114	164.216	-168.811	-169.636	-36.084	97.762	116.049	-15.387	-128.484	111.464	160.927	0.00086072	0.00055637	0.00015242	1371.3	1.2855e-05	5.4223e-06	1374.8	368.96	8.5413e-06	4.2208e-06	422.05	141.25	123.9	42.194	8.2131e-06	52.007	0.00057396	0.00056168	0.00015489	1400.6	6.1102e-06	6.1369e-06	1400.6	376.96	6.1297e-06	6.0758e-06	430.48	144.9	125.99	43.431	6.0902e-06	53.615	-39.044	-48.191	-98.707	-156.812	-33.739	37.604	-157.025	-152.346	-37.822	-22.446	-153.107	-148.677	-148.343	-143.280	-9.006	-144.677	-8191	255	
1035.054	1	1	0	0	0.19532	0.096978	0.074645	0.43637	0.16754	0.14664	0.23061	0.35751	0.13086	0.066873	0.14162	0.22453	0.090085	0.1994	0.051327	0.076896	-0.71667	-1.9896	-1.1104	-2.0292	-1.9562	-1.0271	-2.1979	-1.7667	-1.1479	-2.1729	-1.4188	-1.6958	-2.1063	-1.3458	-1.6708	-1.8229	-7.050	54.387	-50.291	184.214	-162.720	172.639	-156.896	111.535	-145.067	-167.600	52.728	-154.653	89.293	-152.881	84.041	73.258	0.00089716	0.00049629	0.00018251	1379.5	4.4353e-06	2.7433e-06	1384.1	369.07	9.6342e-06	6.4226e-06	420.5	141.59	124.26	42.051	4.4597e-06	52.091	0.00058297	0.0005557	0.00015532	1402.2	6.186e-06	6.1715e-06	1400.7	377.03	6.1988e-06	6.099e-06	431.52	144.88	126.11	43.409	6.0145e-06	53.596	-29.609	-85.745	-97.513	-156.655	-70.951	-4.417	-156.996	-152.267	-44.978	5.305	-152.915	-148.662	-148.200	-143.308	-21.673	-144.280	-8191	255	
1035.174	1	1	0	0	0.23251	0.071806	0.2215	0.432	0.24479	0.073755	0.44516	0.2002	0.033519	0.054537	0.24793	0.12366	0.23122	0.15214	0.18357	0.23227	-1.1021	-2.0208	-1.2792	-1.675	-1.9854	-1.0771	-2.1583	-1.9771	-0.99167	-1.9208	-1.625	-1.2812	-2.1146	-1.2625	-1.7	-1.9396	38.239	-138.145	108.071	173.932	128.944	184.074	119.745	129.120	16.170	-105.947	-155.391	187.446	128.376	154.739	-18.837	97.982	0.00089444	0.00041668	8.5901e-05	1383.8	4.0183e-06	5.7995e-06	1376.8	369.1	7.4322e-06	5.7161e-06	422.5	141.77	124.25	42.169	4.0708e-06	52	0.00058244	0.00055326	0.00015555	1405.5	6.0883e-06	6.0814e-06	1398.7	376.84	6.2228e-06	6.1186e-06	431.63	145.07	126.31	43.406	6.1483e-06	53.638	-37.643	-51.554	-53.444	-156.780	-54.158	30.748	-157.076	-152.227	-22.642	-80.149	-153.041	-148.081	-147.982	-143.174	-56.081	-144.217	-8191	255	
1035.271	1	1	0	0	0.20193	0.34627	0.16326	0.16408	0.015294	0.35194	0.37138	0.11724	0.035836	0.1775	0.12009	0.22036	0.11431	0.14821	0.17075	0.18701	-0.82708	-1.9292	-1.5458	-1.2812	-1.9771	-1.0417	-1.9875	-2.1271	-0.99583	-1.8646	-1.5854	-1.3312	-2.125	-1.25	-1.4958	-2.0187	7.590	30.639	50.931	139.809	-13.266	185.887	177.808	79.188	110.316	-18.219	65.262	99.823	164.188	121.915	47.279	124.878	0.00091073	0.00019837	0.00017916	1380.6	7.9869e-06	4.137e-06	1378.5	368.73	8.9151e-06	2.0612e-06	422.57	142.19	124.17	42.117	6.456e-06	51.992	0.00058723	0.00056498	0.00015672	1404.6	6.1899e-06	6.1973e-06	1401.8	376.99	6.3788e-06	6.2601e-06	432.09	145.25	126.18	43.378	6.3187e-06	53.617	-34.954	-67.594	-83.878	-156.726	-54.526	-35.723	-157.148	-152.410	-28.377	10.879	-152.629	-148.568	-148.023	-143.412	-3.198	-144.318	-8191	255	
1035.342	1	1	0	0	0.10512	0.050369	0.27834	0.07026	0.4009	0.25542	0.096941	0.27623	0.11198	0.34719	0.10452	0.1092	0.10998	0.2557	0.19164	0.35699	-0.94167	-1.9312	-1.5979	-1.4438	-2.0271	-1.1646	-1.7333	-2.1625	-1.2229	-1.9875	-1.8292	-1.2958	-2.0125	-1.4354	-1.4271	-2.0792	-83.250	100.221	100.168	182.615	-19.403	32.919	72.936	153.399	-48.588	95.653	-74.121	83.155	128.150	176.844	82.789	129.332	0.00090441	0.0004237	0.00012678	1380.5	2.4875e-06	3.728e-06	1382.7	368.88	1.1629e-05	3.8017e-06	421.02	141.16	124.48	42.119	6.7282e-06	52.283	0.00057855	0.00056553	0.00015844	1403.6	6.2288e-06	6.3014e-06	1403.3	376.86	6.3284e-06	6.2768e-06	432.07	145.07	126.39	43.399	6.2631e-06	53.792	-25.558	-116.527	-101.363	-156.869	-106.320	13.224	-157.006	-152.343	-54.602	20.368	-153.063	-148.682	-148.339	-143.506	22.026	-144.174	-8191	255	
1035.463	1	1	0	0	0.329	0.15503	0.067009	0.28432	0.12176	0.16548	0.31732	0.3265	0.19092	0.33351	0.027799	0.2315	0.19946	0.38591	0.19728	0.228	-0.69375	-1.8604	-1.8062	-1.3042	-2.0771	-1.2854	-1.5875	-2.3312	-0.98125	-1.7979	-1.8625	-1.1792	-2.1917	-1.7125	-0.98333	-2.0729	-90.798	-39.423	95.084	-126.886	121.593	-95.746	-168.081	137.225	-28.930	103.980	83.603	105.766	143.665	-160.397	100.672	66.248	0.00097991	0.00026825	0.0001414	1382.8	7.4611e-06	6.2509e-06	1381.1	371.51	2.2307e-06	1.7497e-06	423.64	142.12	124.32	42.296	7.8242e-06	51.951	0.00058957	0.00056448	0.00015849	1405.4	6.2651e-06	6.2679e-06	1403.5	377.92	6.3031e-06	6.2584e-06	432.21	145.19	126.63	43.42	6.2501e-06	53.683	-33.484	23.499	-41.085	-157.031	-36.530	-17.632	-156.848	-152.230	-67.345	-32.043	-153.028	-148.479	-148.338	-143.530	-28.979	-144.240	-8191	255	
1035.559	1	1	0	0	0.099482	0.22355	0.14192	0.14536	0.1019	0.22702	0.2559	0.23386	0.18206	0.22687	0.14093	0.33921	0.25155	0.30581	0.11302	0.095049	-0.73333	-1.7062	-1.8438	-1.3417	-1.8083	-1.3979	-1.5104	-2.2562	-1.5083	-1.6083	-2.0667	-1.2958	-1.925	-1.9208	-1.0792	-2.1063	117.135	-121.150	-148.261	-168.471	-15.227	-149.690	144.692	76.884	32.854	-24.512	173.026	101.586	38.097	70.027	-128.078	115.243	0.00087225	0.00063384	0.00011853	1383.6	5.9396e-06	1.9137e-06	1377.5	370.08	7.2973e-06	3.0576e-06	422.5	140.97	123.68	42.226	6.6534e-06	51.973	0.00058298	0.00057288	0.00015758	1405.5	6.1505e-06	6.2468e-06	1401.4	377.81	6.2352e-06	6.2503e-06	431.97	144.94	126.48	43.477	6.1943e-06	53.731	-37.003	-114.332	-89.599	-156.796	-85.255	12.770	-157.211	-152.315	-11.690	45.365	-152.848	-148.625	-148.168	-143.647	-41.487	-144.381	-8191	255	
1035.655	1	1	0	0	0.086652	0.23652	0.34292	0.079512	0.13291	0.27622	0.32623	0.276	0.16968	0.29659	0.069546	0.26201	0.19312	0.075332	0.026092	0.237	-0.85	-1.4646	-2.0833	-1.1583	-1.9021	-1.6437	-1.5063	-2.2604	-1.1688	-1.2583	-1.9917	-1.2229	-1.8083	-1.9688	-0.92708	-2.0229	72.809	-161.628	138.682	-159.755	-163.559	42.099	115.550	116.199	-46.715	-106.914	-130.532	155.353	2.085	157.216	-164.290	65.670	0.00098802	0.00083174	0.00014716	1383	5.5858e-06	1.0535e-05	1376.8	369.43	5.8182e-06	4.0475e-06	422.36	142.34	123.86	42.515	6.2475e-06	52.121	0.00057389	0.00056244	0.00015841	1405.1	6.0788e-06	6.167e-06	1399.7	377.33	6.17e-06	6.1885e-06	431.59	145.25	126.03	43.561	6.1795e-06	53.691	-35.424	-104.547	-3.088	-156.854	24.539	-46.488	-157.206	-152.273	-28.918	11.020	-153.121	-148.391	-147.809	-143.416	-17.216	-144.047	-8191	255	
1035.774	1	1	0	0	0.33066	0.084856	0.13102	0.055963	0.20158	0.13548	0.22295	0.29855	0.18079	0.070403	0.21207	0.15154	0.27574	0.14099	0.026976	0.13646	-1.0604	-1.4167	-2.05	-1.4042	-1.5729	-1.8771	-1.2875	-2.0625	-1.6208	-1.3312	-2.0062	-1.2125	-1.75	-2.0521	-0.96667	-2.1542	121.693	-10.981	134.367	141.906	-99.250	-114.948	126.652	138.089	-51.364	45.155	146.254	28.195	-167.525	146.486	-28.331	105.410	0.00090047	0.00032684	9.6375e-05	1379.3	7.9197e-06	5.7823e-06	1381.1	370.18	1.208e-05	6.1383e-06	420.84	142.48	124.55	42.261	7.5168e-06	51.873	0.00057049	0.00056757	0.00015364	1404.4	6.1051e-06	6.195e-06	1400.1	377.74	6.2076e-06	6.1273e-06	431.21	145.16	126.22	43.462	6.1782e-06	53.716	-30.817	-113.748	-92.924	-156.789	-40.294	29.870	-157.012	-152.186	-29.778	-16.220	-152.631	-148.190	-147.744	-143.244	-23.870	-143.954	-8191	255	
1035.870	1	1	0	0	0.22141	0.088335	0.26739	0.32106	0.19578	0.13875	0.15075	0.35872	0.052192	0.32799	0.034872	0.39486	0.37366	0.17928	0.20769	0.314	-1.05	-0.98333	-2.1312	-1.3104	-1.6646	-1.8333	-1.2167	-2.1458	-1.4688	-1.0187	-2.1292	-1.225	-1.6	-1.9312	-1.0875	-1.9542	112.792	167.868	98.386	133.308	1.793	57.296	137.669	139.387	-20.667	157.799	-10.832	153.836	-87.584	-150.072	-124.720	186.655	0.00087826	0.0005094	0.0001801	1379.7	5.43e-06	3.5106e-06	1375.9	370.37	1.0455e-05	1.2986e-06	423.16	141.95	124.04	42.086	5.715e-06	52.109	0.00056935	0.00055484	0.00015511	1402.3	5.9805e-06	6.1423e-06	1400	377.1	6.0298e-06	6.0114e-06	431.88	145.17	126.29	43.467	6.1068e-06	53.668	-33.191	-90.780	-84.498	-156.691	1.608	-26.621	-156.852	-152.112	-56.051	17.124	-152.649	-148.329	-147.570	-143.202	-27.707	-144.149	-8191	255	
1035.966	1	1	0	0	0.092326	0.10667	0.060915	0.12505	0.10719	0.070301	0.43791	0.011299	0.21671	0.257	0.36	0.11437	0.21242	0.23299	0.094882	0.22696	-1.1917	-1.1521	-2.1208	-1.5042	-1.6458	-2.1312	-1.3458	-2.0792	-1.9104	-1.1729	-2.3812	-1.425	-1.4021	-2.1813	-1.2292	-1.8125	-115.176	128.430	20.593	148.803	-116.403	144.890	118.988	-7.303	114.363	25.203	-168.281	-40.517	-84.787	100.089	143.438	125.419	0.00095731	0.00053497	0.00013474	1382.2	6.1789e-06	4.2158e-06	1378	369.56	4.7427e-06	5.9586e-06	422.03	141.41	123.3	42.199	6.041e-06	52.032	0.00057104	0.00055873	0.00015224	1403.9	6.0156e-06	6.0724e-06	1399.3	377.24	5.9794e-06	6.0702e-06	431.21	144.93	125.91	43.491	5.9787e-06	53.7	-37.610	-67.671	-93.006	-156.987	-66.998	-65.070	-157.140	-152.173	-36.599	-11.254	-152.984	-148.441	-148.370	-143.341	-29.577	-144.218	-8191	255	
1036.038	1	1	0	0	0.209	0.075322	0.18698	0.40073	0.14346	0.078322	0.21803	0.15542	0.43562	0.11317	0.15756	0.25308	0.13182	0.22433	0.33679	0.20618	-1.4854	-1.1708	-2.0958	-1.8042	-1.2125	-2.1375	-1.3604	-1.9604	-1.8521	-1.2	-2.2271	-1.7292	-1.2938	-2.3958	-1.2667	-1.8042	-28.619	16.156	80.820	146.255	-7.279	-6.292	159.398	74.067	180.737	-31.097	131.728	100.854	-165.139	137.915	160.691	31.411	0.00091969	0.00054337	0.00014618	1377.4	4.0079e-06	4.4909e-06	1377.6	370.41	9.529e-06	5.6295e-06	421.91	141.93	123.66	42.002	7.7831e-06	52.02	0.00057122	0.00055154	0.00015279	1400.4	6.1082e-06	6.1387e-06	1399.2	377.17	6.0472e-06	6.0955e-06	431.57	144.95	126.13	43.412	6.0686e-06	53.571	-31.918	-46.364	-71.187	-156.830	-63.969	-45.221	-157.402	-152.227	-17.218	42.019	-152.741	-148.442	-148.296	-143.244	-38.796	-144.302	-8191	255	
1036.159	1	1	0	0	0.24962	0.1315	0.098534	0.25709	0.26951	0.10999	0.098276	0.2443	0.11326	0.18594	0.46889	0.077208	0.16139	0.23488	0.14672	0.17555	-1.3875	-1.1208	-2	-1.8896	-1.325	-2.2417	-1.6208	-1.9604	-2.0187	-1.0958	-2.1083	-1.8354	-1.2333	-2.2375	-1.4833	-1.4833	-94.886	-136.069	-58.792	176.609	-80.728	60.408	128.723	141.344	-78.572	-120.398	162.041	-126.931	-147.475	-117.264	-104.009	134.559	0.00089893	0.00069457	0.00021069	1379.8	8.6504e-06	3.3057e-06	1383.2	369.61	7.6709e-06	7.8007e-06	424.1	142.32	124.87	41.998	7.2926e-06	51.777	0.00056946	0.00055389	0.00015213	1401.5	6.0166e-06	5.9689e-06	1401.4	377.38	6.0711e-06	6.0619e-06	432.04	144.96	126.29	43.339	6.0652e-06	53.647	-34.419	-83.561	-98.921	-156.810	-30.210	18.621	-157.276	-152.275	-83.968	-19.457	-152.858	-148.661	-148.126	-143.336	-41.917	-144.277	-8191	255	
1036.255	1	1	0	0	0.097772	0.22691	0.087644	0.4003	0.059964	0.24062	0.37051	0.28646	0.086363	0.015573	0.25194	0.19959	0.38716	0.21305	0.37746	0.19042	-1.7771	-1.1146	-1.8312	-1.7521	-1.1417	-2	-1.5875	-1.4271	-2.1188	-1.0021	-1.85	-1.8292	-1.1417	-1.9833	-1.4208	-1.2375	21.049	97.249	-155.148	147.231	136.437	86.956	136.262	166.727	119.926	5.954	139.606	-110.969	119.762	166.400	103.222	168.261	0.0010168	0.00081272	0.00018023	1379.6	7.8711e-06	5.6185e-06	1382.6	369.66	8.8073e-06	4.5583e-06	423.45	142.19	124.27	42.255	5.7992e-06	51.958	0.0005701	0.00056028	0.00015111	1402.9	6.1291e-06	6.0764e-06	1402.3	377.81	6.0402e-06	6.0175e-06	432.35	145.14	126.24	43.518	6.0375e-06	53.553	-33.831	-128.659	-83.313	-156.936	-14.499	6.098	-157.558	-152.595	-54.565	-29.764	-153.020	-148.958	-148.363	-143.321	-22.139	-144.259	-8191	255	
1036.351	1	1	0	0	0.084977	0.16356	0.25118	0.28054	0.2673	0.077426	0.20579	0.48075	0.21453	0.011478	0.25053	0.077294	0.26426	0.064603	0.1057	0.44818	-1.5396	-1.1229	-1.7917	-1.925	-1.0792	-1.9104	-1.6417	-1.3792	-1.9917	-1.3917	-1.8146	-1.8083	-1.1812	-2.0771	-1.5646	-1.3042	72.371	129.368	98.336	162.707	120.904	-67.146	99.810	142.733	130.376	163.231	148.461	78.701	-101.500	-158.886	-16.868	152.775	0.00093628	0.00068869	0.00011247	1378.2	7.3418e-06	5.4228e-06	1371.4	370.55	1.0079e-05	8.334e-06	423.89	142.17	123.53	42.482	7.5647e-06	51.964	0.00057249	0.00054613	0.00014975	1402.9	6.0977e-06	6.0577e-06	1398.7	377.71	5.9698e-06	5.972e-06	432.13	145.27	126.3	43.591	6.0113e-06	53.739	-34.006	-77.540	-77.893	-157.201	-13.457	-6.438	-157.188	-152.319	-56.018	-8.437	-152.830	-148.771	-148.790	-143.526	-1.068	-144.344	-8191	255	
1036.447	1	1	0	0	0.28845	0.13953	0.39469	0.47161	0.11034	0.0043732	0.060096	0.28559	0.15976	0.22481	0.12462	0.13048	0.23221	0.074798	0.18219	0.22114	-1.8083	-1.0229	-1.4729	-2.0687	-1.0917	-1.8021	-1.925	-1.1396	-2.0812	-1.4167	-1.4708	-2.3375	-0.89792	-1.8042	-1.6917	-1.0917	43.721	-98.726	-82.769	126.320	-146.308	86.555	-117.486	134.026	107.319	138.525	-133.459	189.500	114.534	152.899	156.437	-117.235	0.00084325	0.00029666	8.1522e-05	1380.5	9.3183e-06	4.8908e-06	1380.3	370.74	4.5439e-06	6.4991e-06	421.02	141.46	123.87	42.281	4.6768e-06	52.209	0.00056374	0.00055097	0.00015339	1401.6	5.9627e-06	5.9088e-06	1400.5	377.7	6.0163e-06	6.0807e-06	431.6	144.94	126.1	43.541	5.9913e-06	53.751	-32.251	-26.253	5.692	-157.017	-73.585	2.169	-157.207	-152.280	-10.019	-1.991	-152.851	-148.768	-147.915	-143.426	-34.410	-144.162	-8191	255	
1036.566	1	1	0	0	0.25347	0.086629	0.097279	0.5215	0.1361	0.17228	0.16194	0.4178	0.14457	0.37308	0.15689	0.32168	0.19066	0.12547	0.093234	0.053087	-1.5979	-1.1812	-1.25	-2.1854	-1.3417	-1.9813	-2.0146	-1.2833	-1.9833	-1.4146	-1.3438	-2.3875	-1.1792	-1.7083	-1.8667	-1.0708	-86.818	144.201	79.967	136.058	72.249	93.667	119.631	171.927	-14.008	91.711	-154.591	169.671	-7.679	163.479	101.596	34.544	0.00091234	0.0005056	0.00011675	1379.4	1.0175e-05	7.8956e-06	1381.7	369.45	8.3511e-06	6.3135e-06	422.99	141.37	123.96	42.225	4.699e-06	51.994	0.00056194	0.00054457	0.00015435	1401.8	5.9638e-06	5.9221e-06	1400.1	377.09	5.9434e-06	5.8831e-06	431.78	145.02	126.08	43.489	5.9218e-06	53.713	-25.799	-99.788	-134.926	-156.871	-57.941	-1.367	-157.086	-152.170	-34.298	12.563	-152.628	-148.538	-148.038	-143.182	-27.492	-144.235	-8191	255	
1036.639	1	1	0	0	0.21154	0.068355	0.059817	0.31944	0.13484	0.042863	0.31126	0.17064	0.07628	0.25461	0.062106	0.56505	0.17444	0.26554	0.25863	0.047228	-1.6875	-1.4688	-1.2833	-2.275	-1.025	-1.6938	-1.9354	-1.2188	-1.8833	-1.6437	-1.2646	-2.1604	-1.2188	-1.5396	-2.0771	-1.1313	90.888	20.689	-102.107	178.396	118.178	58.350	153.471	-166.568	-30.876	-87.551	181.253	153.216	146.310	187.180	39.474	189.218	0.00090811	0.00038603	4.0839e-05	1374.8	4.3773e-06	2.9284e-06	1375.9	371.19	8.3668e-06	3.1165e-06	423.71	141.75	124.44	42.353	7.3465e-06	52.037	0.00055608	0.00054062	0.00015252	1401.4	5.9359e-06	5.9137e-06	1398.1	377.95	5.8386e-06	5.9595e-06	431.93	145.09	126.13	43.531	5.9074e-06	53.679	-33.762	-114.092	-129.272	-157.173	-47.778	176.461	-157.183	-152.234	-14.644	2.961	-152.887	-148.547	-148.222	-143.348	-41.541	-144.328	-8191	255	
1036.736	1	1	0	0	0.16892	0.14547	0.12249	0.40136	0.13007	0.27779	0.33907	0.19752	0.15453	0.25125	0.21012	0.46278	0.12523	0.17641	0.072884	0.040502	-1.5083	-1.5625	-1.1729	-2.1458	-1.3167	-1.4958	-2.2417	-1.3208	-1.9104	-1.8958	-1.2167	-2.1104	-1.1708	-1.5854	-2.0292	-1.3458	-99.684	-9.206	-31.481	113.387	9.230	148.344	126.233	124.402	58.846	76.126	19.230	94.889	-142.932	144.380	27.113	107.508	0.00095236	0.00035246	0.0002125	1374.6	5.2829e-06	4.4939e-06	1372.5	369.5	8.1543e-06	4.0567e-06	423.44	141.67	123.75	42.199	5.7226e-06	51.939	0.00055501	0.00053525	0.00014947	1400.8	5.8755e-06	5.9359e-06	1397.7	377.33	5.9272e-06	5.8797e-06	431.98	144.84	125.78	43.495	5.8909e-06	53.678	-29.828	-79.691	-102.635	-156.954	-63.501	-23.963	-157.520	-152.547	2.380	15.614	-152.815	-148.600	-148.224	-143.284	-14.119	-144.326	-8191	255	
1036.854	1	1	0	0	0.21504	0.11182	0.30689	0.24585	0.024419	0.034339	0.32695	0.34084	0.098236	0.1642	0.40019	0.28196	0.10984	0.062977	0.12337	0.095162	-1.4375	-1.6958	-1.0208	-2.1271	-1.3292	-1.3917	-2.3021	-1.2437	-1.725	-2.075	-1.4354	-2.2604	-1.6938	-1.4229	-2.0396	-1.2479	58.684	-139.989	126.969	171.878	-70.222	-57.838	159.029	121.650	-139.418	70.088	110.257	-123.354	61.478	99.733	-5.730	155.054	0.00091424	0.000571	0.00028867	1381.1	3.4387e-06	4.9696e-06	1374.4	369.49	4.5665e-06	9.9169e-06	422.66	141.73	124.1	42.238	4.2583e-06	52.169	0.00055656	0.0005446	0.00015195	1402.2	5.8916e-06	6.027e-06	1396.9	376.72	5.9643e-06	5.8922e-06	431.9	145.04	126.17	43.431	5.8942e-06	53.666	-35.323	-68.408	-97.612	-156.561	-20.620	-34.909	-156.961	-151.977	-3.378	-42.546	-152.808	-148.302	-148.416	-142.957	-18.777	-144.149	-8191	255	
1036.951	1	1	0	0	0.24548	0.12851	0.084143	0.32554	0.18768	0.27875	0.18865	0.15903	0.15582	0.15583	0.1124	0.15648	0.31057	0.12287	0.0098601	0.051937	-1.3792	-1.8667	-1.1	-2.2146	-1.6938	-1.0187	-2.2188	-1.3833	-1.65	-1.8917	-1.1021	-2.1083	-1.5104	-1.3937	-2.2021	-1.3958	22.951	-58.849	5.446	-52.043	98.796	-156.173	154.407	-102.684	188.185	133.234	-46.923	123.070	103.026	117.790	-25.749	-105.255	0.00089966	8.8199e-05	0.0001304	1371.9	1.1725e-05	6.0553e-06	1382.5	369.07	9.2101e-06	7.1132e-06	422.23	142.18	123.72	42.134	2.5498e-06	52.19	0.00055522	0.00054262	0.00015163	1397.3	5.9015e-06	5.9631e-06	1399.2	377	5.8987e-06	5.9479e-06	431.91	144.88	126.08	43.484	5.8364e-06	53.688	-30.595	-58.677	-76.579	-157.047	-5.340	-25.941	-157.345	-152.502	-28.706	-13.277	-153.186	-148.992	-148.475	-143.541	4.850	-144.685	-8191	255	
1037.047	1	1	0	0	0.099467	0.20913	0.28293	0.31555	0.18307	0.074413	0.14361	0.11765	0.12517	0.10412	0.033832	0.13201	0.03494	0.17576	0.17728	0.074048	-1.2021	-2.1167	-1.2208	-1.9896	-1.7583	-1.2313	-2.3438	-1.5708	-1.4854	-1.9062	-1.1583	-1.9396	-1.7667	-1.2146	-2.0167	-1.5354	-36.133	82.991	20.596	182.118	77.999	-116.556	62.005	50.526	20.918	-157.187	-33.552	154.304	42.657	87.006	-107.743	-133.342	0.00080775	0.00047686	0.0001722	1377.5	2.9662e-06	4.0162e-06	1376	368.98	3.331e-06	6.3003e-06	423.24	141.49	123.57	42.036	3.691e-06	51.928	0.00055459	0.00054028	0.0001495	1400.5	5.8548e-06	5.9861e-06	1399.2	376.75	5.8193e-06	5.8853e-06	431.9	144.99	125.78	43.426	5.7416e-06	53.595	-25.207	-33.380	-109.127	-156.987	54.042	-30.911	-157.731	-152.686	-60.932	-22.961	-153.054	-148.877	-148.571	-143.661	-13.989	-144.646	-8191	255	
1037.143	1	1	0	0	0.12362	0.36416	0.19476	0.34671	0.13467	0.30039	0.21682	0.31751	0.24145	0.079436	0.1778	0.20281	0.27552	0.013693	0.040622	0.22285	-1.0438	-2.0833	-1.1437	-2.0187	-1.7313	-1.3458	-2.1917	-1.7354	-1.3167	-2.0083	-1.4083	-1.7042	-1.9188	-1.3563	-2.025	-1.7687	-72.028	54.644	139.152	112.810	71.150	75.197	7.372	136.688	18.814	116.289	89.987	172.088	165.185	134.553	-125.688	96.057	0.00097894	0.001127	0.00015887	1377.5	1.2894e-05	3.3405e-06	1373.3	369.16	7.6778e-06	6.4248e-06	422.49	141.89	122.9	42.144	6.3537e-06	51.873	0.00054844	0.00052964	0.00014783	1401	5.8824e-06	5.8832e-06	1396.7	377.18	5.9389e-06	5.9698e-06	431.06	144.86	125.54	43.367	5.8725e-06	53.631	-34.911	-98.655	-89.285	-157.060	-14.035	-32.414	-157.616	-152.702	-35.203	-8.730	-153.223	-148.842	-148.720	-143.774	-15.504	-144.667	-8191	255	
1037.239	1	1	0	0	0.11253	0.19744	0.2536	0.37454	0.14566	0.041672	0.14205	0.25367	0.062591	0.22603	0.39722	0.15012	0.13769	0.35105	0.11985	0.35541	-0.79375	-2.0062	-1.2521	-1.7146	-1.9813	-1.0021	-2.1188	-1.7	-1.1	-2.1396	-1.2708	-1.4854	-1.8979	-1.1854	-1.8083	-1.6688	79.652	175.941	182.597	181.988	85.519	88.323	130.669	141.580	-112.655	-105.942	173.794	135.458	-170.621	121.375	-113.268	130.497	0.00093286	0.00045477	0.00017939	1376.9	3.6744e-06	4.4241e-06	1375.6	368.46	4.4744e-06	9.32e-06	424.2	141.62	123.47	42.123	6.9159e-06	51.885	0.00056023	0.00053752	0.00014818	1400.6	5.9201e-06	5.938e-06	1398.4	377.11	5.8869e-06	5.8015e-06	431.18	144.77	125.71	43.394	5.8423e-06	53.56	-31.553	-105.236	-97.982	-157.091	-3.454	31.835	-157.641	-152.675	-40.581	-4.684	-153.375	-148.585	-148.484	-143.811	-44.619	-144.533	-8191	255	
1037.335	1	1	0	0	0.43572	0.039838	0.039875	0.14902	0.17583	0.12939	0.19759	0.39559	0.29063	0.24017	0.39379	0.14607	0.17521	0.30243	0.030612	0.14197	-0.68542	-2.1354	-1.4937	-1.6667	-2.1458	-1.1667	-2.0896	-1.8458	-0.8625	-1.8854	-1.3479	-1.5604	-2.0604	-1.3583	-1.6708	-2.1521	-139.654	-22.900	94.217	89.205	147.394	169.489	102.950	147.346	141.383	17.308	176.844	-159.665	-79.623	-151.632	42.535	150.605	0.0009412	0.00081661	0.00015513	1372.8	3.3447e-06	3.4614e-06	1376.1	368.92	6.4094e-06	5.0097e-06	423.55	141.43	123.32	42.331	7.8974e-06	52.11	0.00056411	0.00053937	0.00014842	1398.9	5.8873e-06	5.8469e-06	1397	376.86	5.8878e-06	5.7407e-06	432.01	144.91	125.97	43.458	5.7992e-06	53.688	-35.487	-99.395	-84.570	-157.030	-78.729	-74.894	-157.457	-152.594	-41.909	6.386	-153.161	-149.138	-148.104	-143.666	4.501	-144.890	-8191	255	
1037.456	1	1	0	0	0.27605	0.08609	0.066113	0.069463	0.19385	0.084987	0.36895	0.18672	0.12269	0.20667	0.1878	0.12206	0.16358	0.2403	0.092103	0.13308	-0.65833	-1.8271	-1.3583	-1.3375	-2.1104	-1.2313	-1.8875	-1.9875	-1.0312	-2.0396	-1.7083	-1.1104	-2.0604	-1.3021	-1.7146	-2.2083	-32.023	-126.275	111.997	61.165	-96.559	-59.082	120.871	139.317	-59.232	65.533	50.412	-141.615	-119.087	111.870	-102.031	163.806	0.00090428	0.00043305	0.00012002	1377.3	2.4688e-06	5.5008e-06	1383	371.01	1.0305e-05	6.8381e-06	423.35	142.03	124.2	42.192	5.4808e-06	51.958	0.00055293	0.00052257	0.00014558	1399.6	5.8346e-06	5.8935e-06	1400.5	377.97	5.8498e-06	5.7684e-06	431.82	144.87	126.04	43.419	5.7468e-06	53.638	-36.166	-87.303	-134.091	-156.971	-92.953	-28.323	-157.283	-152.687	-1.338	12.922	-153.007	-148.766	-148.324	-143.656	-33.707	-144.798	-8191	255	
1037.552	1	1	0	0	0.17176	0.23507	0.22632	0.1146	0.33711	0.068465	0.23531	0.1844	0.21952	0.058387	0.28092	0.27147	0.35426	0.2702	0.089379	0.26733	-0.57708	-1.8833	-1.6167	-1.2583	-2.0938	-1.2354	-1.5979	-2.1833	-1.0375	-1.8312	-1.8146	-1.1354	-2.1646	-1.4562	-1.4688	-2.2708	151.587	186.816	153.950	155.826	14.551	-14.302	159.338	55.545	90.990	-0.866	30.318	-128.659	178.305	37.713	-96.281	104.755	0.00085771	0.00031271	6.742e-05	1378.1	6.4912e-06	5.0146e-06	1371.3	370.83	5.5607e-06	4.7941e-06	421.77	141.98	124.16	41.903	7.9742e-06	52.049	0.00054826	0.0005201	0.00014543	1401	5.7719e-06	5.7758e-06	1396.2	377.87	5.7993e-06	5.7096e-06	430.46	145.2	125.95	43.424	5.8069e-06	53.649	-32.256	-29.201	-132.534	-156.928	-27.100	-44.742	-157.177	-152.522	-28.154	-60.909	-153.155	-148.460	-148.717	-143.461	-15.201	-144.771	-8191	255	
1037.646	1	1	0	0	0.15376	0.2672	0.1847	0.074041	0.11522	0.19006	0.23594	0.26	0.13314	0.29549	0.13869	0.09528	0.20322	0.17271	0.14014	0.087949	-0.69792	-1.7333	-1.7458	-1.2375	-2.1667	-1.3979	-1.4458	-2.2562	-1.2188	-1.775	-1.8687	-1.0417	-2.0687	-1.6854	-1.0083	-2.3146	-87.154	-124.465	113.909	-157.287	1.256	-170.099	73.299	157.459	175.988	-145.702	-166.329	145.535	-124.769	99.098	-42.716	152.371	0.0010116	0.00055825	9.6221e-05	1375.7	8.4167e-06	1.1998e-06	1376.8	369.52	1.3948e-05	4.8777e-06	422.04	141.86	124.29	42.015	1.2229e-05	51.949	0.00054937	0.00053517	0.00014862	1400.6	5.7773e-06	5.7686e-06	1398.1	377.7	5.9161e-06	5.86e-06	431.69	145.13	125.91	43.404	5.8386e-06	53.643	-37.546	-80.332	-40.638	-157.039	-10.303	-44.037	-157.427	-152.630	-30.424	-15.044	-153.301	-148.895	-148.559	-143.878	-26.238	-144.759	-8191	255	
1037.742	1	1	0	0	0.2442	0.25605	0.2196	0.056728	0.080267	0.15032	0.18957	0.050348	0.088268	0.25745	0.19258	0.23552	0.41391	0.14741	0.10959	0.10812	-0.73125	-1.575	-1.8188	-1.1146	-2.0563	-1.4562	-1.2375	-2.15	-1.4146	-1.2563	-2.05	-1.025	-2.0667	-1.7521	-0.99792	-2.1646	-35.326	19.326	-19.778	-13.405	-100.804	-108.217	179.287	91.479	-38.298	-43.976	132.052	157.038	-132.490	85.506	6.454	96.708	0.00094416	0.00064426	0.000107	1375.4	1.3219e-05	3.7645e-06	1378	369.41	7.9391e-06	5.8324e-06	423.6	142.33	124.06	42.211	2.5668e-06	52.059	0.00055022	0.00052641	0.00014792	1398.2	5.8031e-06	5.8657e-06	1398.1	377.01	5.8745e-06	5.8408e-06	431.52	144.95	125.97	43.432	5.7924e-06	53.683	-30.590	-112.428	-75.909	-157.161	-32.728	-3.406	-157.386	-152.518	-67.565	-15.537	-153.383	-148.721	-148.568	-143.589	-22.064	-144.690	-8191	255	
1037.863	1	1	0	0	0.13059	0.13066	0.27209	0.28205	0.053006	0.14471	0.32991	0.063393	0.17783	0.12197	0.2558	0.15305	0.061523	0.31797	0.13877	0.30973	-0.83333	-1.5458	-2.1625	-1.2583	-1.8542	-1.6187	-1.2375	-2.1604	-1.1708	-1.5542	-2.1667	-1.1625	-1.8021	-1.9917	-0.96875	-2.2854	133.780	94.767	60.463	181.614	-5.764	-41.012	-25.220	-155.449	-34.101	1.585	108.134	-7.683	110.871	165.760	6.124	166.329	0.0009597	0.00041097	0.00012539	1372.8	3.3438e-06	4.7807e-06	1369.3	369.9	1.6169e-06	7.7515e-06	423.27	141.64	123.69	42.161	5.374e-06	51.856	0.00054569	0.00053027	0.00014707	1398.4	5.7332e-06	5.7919e-06	1394.5	377.51	5.8161e-06	5.8361e-06	431.33	144.92	125.98	43.395	5.7498e-06	53.665	-33.635	-79.679	-97.450	-157.242	11.766	-14.001	-157.266	-152.611	-33.257	5.723	-153.279	-148.845	-148.588	-143.574	-56.169	-144.498	-8191	255	
1037.935	1	1	0	0	0.2218	0.064334	0.22341	0.29587	0.15726	0.14902	0.11445	0.062736	0.18231	0.26643	0.1977	0.11931	0.27128	0.1725	0.16197	0.2723	-0.90625	-1.2646	-1.9375	-1.3	-1.7042	-2.0604	-1.3125	-2.1042	-1.3542	-1.3062	-2.1771	-1.2542	-1.7854	-2.0583	-1.1313	-2.1229	175.178	-54.958	79.124	108.214	-167.501	94.845	181.197	109.348	-157.073	-86.867	-31.548	-159.883	-42.538	-164.236	143.101	40.469	0.00091843	0.00071977	6.5203e-05	1376.8	2.6908e-06	3.3078e-06	1373.4	370.23	6.5532e-06	3.2374e-06	423.34	141.27	123.69	42.251	4.0746e-06	52.219	0.00054696	0.00052974	0.00014534	1398.6	5.7426e-06	5.7917e-06	1395.7	378.1	5.8208e-06	5.7945e-06	431.11	144.93	125.76	43.434	5.7728e-06	53.731	-37.248	-79.841	-85.275	-157.096	-22.831	-9.987	-157.387	-152.534	-38.894	-54.234	-153.118	-148.814	-147.939	-143.628	-30.750	-144.538	-8191	255	
1038.031	1	1	0	0	0.084903	0.14737	0.37249	0.51101	0.18327	0.17535	0.11216	0.20808	0.24787	0.38282	0.18172	0.083147	0.10598	0.20926	0.16609	0.14864	-1.2479	-1.3125	-2.0271	-1.3167	-1.7396	-2.1354	-1.3896	-1.9646	-1.6667	-1.1479	-2.0979	-1.1771	-1.6708	-2.0333	-1.0021	-1.8292	187.230	-1.052	12.899	163.872	98.430	-67.873	-164.723	151.643	-24.435	-124.981	-154.646	3.159	-116.760	-167.080	50.108	122.068	0.00096345	0.00017555	0.00014794	1375.3	8.4936e-06	5.7691e-06	1370.6	370.24	6.0037e-07	1.1376e-06	423.82	141.75	124.62	42.285	4.8806e-06	52.134	0.00054893	0.00053133	0.00014555	1398.5	5.7455e-06	5.852e-06	1394.1	377.96	5.7747e-06	5.7481e-06	431.72	144.87	125.81	43.437	5.7445e-06	53.692	-31.266	-103.054	-62.840	-157.001	0.504	-24.018	-156.988	-152.293	-62.310	78.833	-152.822	-148.625	-148.152	-143.098	-28.632	-143.914	-8191	255	
1038.127	1	1	0	0	0.045081	0.1795	0.048684	0.39059	0.26185	0.35883	0.11746	0.19854	0.15186	0.16906	0.33318	0.17916	0.05639	0.25741	0.30655	0.1523	-1.2687	-1.1083	-1.9375	-1.4937	-1.4479	-2.0667	-1.2708	-1.925	-1.5979	-1.2542	-2.1125	-1.1833	-1.3417	-2.2333	-1.1375	-1.6979	82.523	170.061	111.875	183.407	-52.357	102.915	83.270	171.488	39.543	91.337	170.859	81.863	-123.955	155.062	146.287	122.935	0.00091468	0.00026412	8.4765e-05	1375.1	9.7387e-06	5.3438e-06	1376.2	370.34	1.1194e-05	7.3275e-06	423.26	142.68	124.67	42.315	1.2943e-05	52.18	0.00054582	0.00051889	0.00014594	1398.8	5.7392e-06	5.7198e-06	1395.8	377.88	5.7253e-06	5.7729e-06	431.48	145.17	125.98	43.539	5.7506e-06	53.727	-37.829	-113.472	-81.058	-156.517	-13.690	-83.077	-156.596	-151.670	-35.333	-24.549	-152.374	-148.227	-147.908	-142.972	-50.886	-143.938	-8191	255	
1038.248	1	1	0	0	0.10225	0.041451	0.07796	0.081666	0.3615	0.019014	0.36655	0.068715	0.047621	0.094894	0.067882	0.16089	0.15781	0.088225	0.113	0.24556	-1.4917	-0.99583	-2.0104	-1.6542	-1.4438	-2.0125	-1.3062	-1.9438	-2.0125	-0.93125	-2.1979	-1.4854	-1.3271	-2.1813	-1.075	-1.6	63.732	122.064	38.753	109.540	121.585	97.530	124.554	-51.561	-96.152	154.947	-144.065	-163.601	-84.949	-14.547	55.395	131.795	0.00094025	0.00050697	0.00022762	1376.5	9.7227e-06	5.0635e-06	1375	372.21	6.0193e-06	6.7647e-06	421.99	142.36	124.27	42.409	5.1106e-06	52.182	0.00054273	0.00052645	0.00014437	1398.8	5.7284e-06	5.733e-06	1395.6	378.15	5.7036e-06	5.7895e-06	431.86	144.98	125.88	43.503	5.7716e-06	53.682	-35.407	-63.002	-88.742	-156.526	5.491	-11.966	-156.821	-151.668	-48.010	-11.210	-152.347	-148.315	-147.749	-143.110	4.140	-143.459	-8191	255	
1038.344	1	1	0	0	0.20103	0.012587	0.41525	0.31801	0.14514	0.20663	0.53726	0.2698	0.17181	0.32977	0.17734	0.38286	0.44815	0.24725	0.11485	0.22087	-1.6313	-1.0688	-1.8563	-1.7917	-1.0625	-2.0042	-1.3354	-1.7604	-1.9458	-1.275	-2.0146	-1.8375	-1.1313	-2.2083	-1.4042	-1.5688	4.499	48.398	123.432	125.193	-10.632	-160.540	119.476	167.664	-67.118	-152.933	174.523	-121.252	-165.404	125.201	-18.184	50.907	0.00096118	0.00026109	0.00020204	1377.7	7.6342e-06	5.0584e-06	1376.5	370.76	9.2015e-06	5.2514e-06	424.35	142.27	124.35	42.27	3.4441e-06	52.128	0.0005446	0.00052632	0.00014612	1399.5	5.7966e-06	5.7919e-06	1397.8	377.87	5.7785e-06	5.7671e-06	432.18	145.28	126.04	43.469	5.7319e-06	53.627	-33.432	-26.682	-99.027	-156.183	-38.958	-16.601	-156.413	-151.636	-22.379	7.991	-152.621	-148.177	-147.961	-142.831	48.307	-143.484	-8191	255	
1038.440	1	1	0	0	0.19999	0.32971	0.099794	0.39829	0.081684	0.10205	0.079194	0.13154	0.18603	0.099766	0.11471	0.21179	0.27006	0.30504	0.13069	0.1444	-1.6688	-1.1417	-1.8771	-1.8958	-0.93125	-1.9125	-1.7417	-1.5	-2.0271	-1.1292	-1.9312	-2.0125	-1.075	-2.1979	-1.5354	-1.2917	181.731	-93.230	-137.257	148.174	44.143	92.731	167.246	57.350	148.417	151.938	183.558	158.700	11.412	162.074	-6.117	-125.609	0.00092098	0.00035623	0.00017993	1381.6	7.5797e-06	3.7264e-06	1380.5	371.69	6.8129e-06	2.8972e-06	425.57	141.99	123.3	42.235	2.5412e-06	52.036	0.00053969	0.00052433	0.00014559	1402.5	5.8625e-06	5.7667e-06	1398.1	378.13	5.7133e-06	5.8083e-06	432.53	145.01	125.82	43.465	5.8533e-06	53.677	-31.388	-77.247	-145.343	-156.232	-11.659	-39.339	-156.630	-151.825	-33.688	-1.064	-152.079	-147.895	-147.441	-142.448	-107.953	-143.444	-8191	255	
1038.536	1	1	0	0	0.068061	0.050443	0.19922	0.40916	0.11645	0.28256	0.052864	0.062565	0.40605	0.3561	0.26192	0.31067	0.054457	0.22452	0.050528	0.031713	-1.7354	-0.88958	-1.6812	-2.0333	-1.1333	-1.8854	-1.7417	-1.4562	-1.9896	-1.0875	-1.8417	-2.0479	-1.3375	-1.9458	-1.6375	-1.3458	-50.389	124.708	-37.963	129.760	183.409	-99.593	-92.640	185.783	49.736	29.570	109.120	-156.797	-20.162	149.819	-103.877	-13.890	0.00093899	0.00056329	0.00016336	1376.8	7.2124e-06	5.0165e-06	1375.2	370.95	4.6124e-06	6.208e-06	420.66	141.87	123.8	42.163	4.5469e-06	51.894	0.0005506	0.00054299	0.00014904	1401.7	5.9371e-06	5.8657e-06	1397.5	378.09	5.913e-06	5.9662e-06	431.56	144.92	125.8	43.372	5.9209e-06	53.676	-31.009	-71.342	-130.974	-156.328	-3.124	-82.077	-156.173	-151.078	-39.592	-129.785	-152.329	-147.850	-147.466	-142.364	-76.127	-143.561	-8191	255	
1038.632	1	1	0	0	0.26774	0.12352	0.13236	0.24221	0.24377	0.024303	0.092159	0.054184	0.35487	0.21616	0.28938	0.40391	0.20782	0.13769	0.22872	0.5951	-1.9604	-1.2625	-1.6229	-2.1167	-1.0438	-2.1125	-1.9833	-1.4062	-2.0542	-1.4583	-1.7042	-2.2542	-1.3	-1.8708	-1.8458	-1.2667	80.594	7.668	-32.988	101.833	138.665	-22.690	76.101	124.890	35.928	-164.972	142.017	170.893	152.641	-34.782	-67.019	108.749	0.00095537	0.00020125	0.0001369	1375.2	4.5969e-06	4.5146e-06	1374.8	370.3	9.7997e-06	4.1738e-06	422.72	142.47	123.99	42.133	7.5858e-06	52.157	0.00056438	0.00054484	0.00015285	1399	6.0655e-06	6.0537e-06	1394.9	377.18	6.0168e-06	5.97e-06	431.42	144.94	125.68	43.391	5.9856e-06	53.723	-32.220	-149.534	-99.931	-156.028	-90.007	-22.493	-156.629	-151.463	-41.329	-14.777	-152.443	-148.295	-148.079	-143.558	-48.197	-144.341	-8191	255	
1038.727	1	1	0	0	0.09924	0.21037	0.14233	0.30402	0.26684	0.15335	0.32894	0.30872	0.1141	0.23893	0.20036	0.11819	0.28311	0.026563	0.38982	0.26303	-1.6458	-1.3396	-1.3083	-2.2604	-1.1708	-1.8708	-1.9562	-1.1375	-1.8687	-1.3854	-1.5104	-2.2771	-1.1542	-1.8188	-1.9667	-1.2208	-30.683	135.029	1.999	180.270	-3.481	-134.155	141.913	134.971	166.453	-160.961	-33.879	111.615	60.736	-38.374	71.054	-168.914	0.00087919	0.0005298	0.00021431	1379.2	3.4008e-06	5.7707e-06	1378.1	369.96	6.306e-06	8.2268e-06	421.43	141.49	123.39	42.274	6.6759e-07	51.897	0.00056092	0.0005423	0.00015207	1399.8	5.8453e-06	5.9682e-06	1397.6	377.89	5.8846e-06	5.8578e-06	431.59	144.89	126.05	43.447	5.8957e-06	53.705	-32.885	-55.912	-92.479	-156.889	13.964	-34.004	-157.560	-152.245	-40.401	-3.029	-153.021	-148.821	-148.307	-143.419	24.015	-144.414	-8191	255	
1038.825	1	1	0	0	0.060752	0.12896	0.16694	0.066074	0.22776	0.10819	0.24158	0.244	0.12393	0.20938	0.39022	0.34513	0.21292	0.21627	0.34451	0.11892	-1.7625	-1.5063	-1.1938	-2.3583	-1.075	-1.4958	-2.0833	-1.3229	-2.0458	-1.7458	-1.2437	-2.0729	-1.4083	-1.8042	-2.0833	-1.0458	13.409	-85.408	-59.955	181.619	84.526	19.800	121.014	72.927	114.720	125.530	166.736	117.384	63.181	68.780	-161.416	3.371	0.00098085	0.00016951	0.00017638	1372.2	7.518e-06	5.4089e-06	1371.7	369.61	1.0465e-05	1.0094e-05	423.64	141.91	123.53	42.259	5.9622e-06	52.122	0.00055187	0.00053718	0.0001519	1398.1	5.9001e-06	5.9449e-06	1394.9	377.39	5.9874e-06	5.9428e-06	432.03	144.92	125.62	43.452	5.9213e-06	53.679	-33.868	-64.251	-84.171	-157.164	-70.308	-25.155	-157.489	-152.462	-21.493	-33.820	-153.195	-148.903	-148.475	-143.761	-1.244	-144.510	-8191	255	
1038.943	1	1	0	0	0.11578	0.12641	0.37043	0.062532	0.12105	0.17782	0.074558	0.3774	0.17607	0.14008	0.12525	0.28525	0.22869	0.12995	0.18108	0.20081	-1.6792	-1.8188	-1.0896	-2.3375	-1.3708	-1.3646	-2.0729	-1.3563	-1.8542	-1.95	-1.2771	-2.1917	-1.5187	-1.6083	-1.9813	-1.2771	-42.744	168.650	174.633	65.786	80.185	-82.377	123.385	123.942	-107.019	-40.053	9.694	104.628	93.990	-51.271	147.642	151.084	0.00088436	0.00066055	3.9321e-05	1378.5	5.5253e-06	1.9538e-06	1374.1	368.97	7.6949e-06	7.4906e-06	423.4	141.52	124.16	42.269	3.4923e-06	51.968	0.00056089	0.00055147	0.00015073	1401	5.9321e-06	5.9987e-06	1397.4	376.79	5.9725e-06	5.9944e-06	431.71	145.11	126.08	43.5	5.9892e-06	53.682	-35.120	-52.828	89.544	-157.154	-23.310	25.964	-157.519	-152.575	-21.255	9.819	-153.106	-148.742	-148.263	-143.491	-16.556	-144.684	-8191	255	
1039.040	1	1	0	0	0.16837	0.38292	0.24392	0.38243	0.24792	0.026635	0.17963	0.29501	0.24265	0.12226	0.34642	0.19865	0.096581	0.30912	0.15688	0.21933	-1.3979	-1.7583	-1.0167	-2.2812	-1.4583	-1.1917	-2.3312	-1.2625	-1.6646	-1.9646	-1.1458	-2.0938	-1.3708	-1.2271	-1.7687	-1.1083	39.388	120.564	-92.309	107.475	149.502	-108.137	160.411	175.234	101.511	-117.520	29.315	119.943	-89.495	103.709	-17.395	183.629	0.00080417	0.00080918	0.00016379	1376.5	7.5342e-06	5.5232e-06	1374.7	371.57	9.2498e-06	7.187e-06	423.78	141.65	124.08	42.162	4.6724e-06	52.162	0.00055515	0.00054573	0.00015324	1402.1	5.9902e-06	6.0641e-06	1399.5	378.24	5.8823e-06	5.9564e-06	432.88	145.02	125.89	43.441	5.9083e-06	53.648	-37.326	-95.301	-86.359	-157.277	-39.728	10.756	-157.525	-152.470	-40.736	-103.186	-153.186	-148.716	-148.415	-143.814	-65.636	-144.602	-8191	255	
1039.136	1	1	0	0	0.11667	0.10294	0.1067	0.27664	0.11328	0.1125	0.13671	0.3232	0.094804	0.18043	0.28003	0.19651	0.3039	0.15963	0.1009	0.1112	-1.0854	-1.8729	-1.1	-1.95	-1.5979	-1.1646	-2.2854	-1.4583	-1.25	-2.025	-1.2021	-2.0375	-1.7687	-1.3438	-2.0458	-1.3229	63.774	-62.505	52.986	-159.592	-90.599	-153.509	101.886	133.616	-61.376	-31.739	173.627	114.096	-132.061	90.565	180.630	-14.572	0.0008847	0.0006823	0.00034504	1374.7	3.4386e-06	1.078e-05	1374.7	369.19	4.5135e-06	5.8243e-06	424.18	142.27	123.63	42.251	9.3244e-06	52.04	0.00055928	0.00054946	0.00015113	1401.4	5.8832e-06	6.0079e-06	1399.3	377.25	5.9479e-06	5.8767e-06	432.84	145.32	125.91	43.523	5.9237e-06	53.666	-30.155	-113.399	-97.134	-157.031	-67.387	42.820	-157.372	-152.813	-42.618	-22.678	-153.188	-148.680	-148.256	-143.636	-71.936	-144.672	-8191	255	
1039.232	1	1	0	0	0.20404	0.043075	0.059969	0.27304	0.06647	0.3291	0.21024	0.10361	0.078917	0.19428	0.17853	0.16802	0.23207	0.063946	0.11469	0.38565	-1	-2.1333	-1.2521	-2.0625	-1.8917	-0.91667	-2.2271	-1.4417	-1.4021	-2.0812	-1.3375	-1.9062	-1.9083	-1.0979	-1.9875	-1.625	-159.408	-82.610	-134.262	131.512	-82.350	72.285	150.137	161.797	132.108	168.500	47.872	153.965	-130.958	32.357	4.478	99.874	0.00094901	0.00026443	6.6807e-05	1378.5	7.5527e-06	7.0008e-06	1371.4	369.48	7.4203e-06	9.2928e-06	424.92	141.69	123.87	42.41	9.4804e-06	52.172	0.00056217	0.00053493	0.00015238	1403.8	6.0017e-06	5.978e-06	1397.6	377.33	5.9656e-06	5.8649e-06	432.85	145.12	126.08	43.489	5.8454e-06	53.762	-33.995	-112.178	-81.649	-157.214	-38.668	-8.808	-157.298	-152.632	-36.649	20.683	-153.180	-148.798	-148.121	-143.660	-29.887	-144.490	-8191	255	
1039.328	1	1	0	0	0.15628	0.3505	0.083163	0.21304	0.151	0.22722	0.15279	0.12667	0.2278	0.19544	0.21719	0.096824	0.2553	0.2573	0.19962	0.048465	-0.75625	-2.1583	-1.2833	-1.9354	-1.8417	-0.99375	-2.0104	-1.6104	-1.325	-2.1625	-1.2313	-1.8042	-2.0146	-1.2563	-1.9125	-1.6292	-122.380	99.214	59.086	181.475	19.634	147.038	120.447	143.814	7.126	121.978	93.257	119.720	-14.288	168.988	-35.794	-98.231	0.00089363	0.00068415	9.9159e-05	1382.1	2.5077e-06	1.7108e-06	1376.4	370.32	7.2879e-06	5.4463e-06	422.37	141.94	124.57	42.234	6.4062e-06	51.858	0.00055958	0.00053136	0.00014824	1403.4	5.8941e-06	5.8687e-06	1400.1	378.06	5.8768e-06	5.853e-06	432.21	145.19	126.44	43.54	5.7317e-06	53.658	-34.830	-97.829	-115.543	-157.096	-74.876	-11.467	-157.483	-152.717	-60.548	-9.522	-152.946	-148.724	-148.624	-143.732	-30.817	-144.739	-8191	255	
1039.424	1	1	0	0	0.10542	0.28145	0.097283	0.47148	0.1045	0.17209	0.19541	0.25577	0.1905	0.038582	0.11771	0.20182	0.1678	0.17969	0.16924	0.28228	-0.85	-2.0771	-1.2104	-1.7833	-2.0563	-1.0438	-2.1146	-1.7771	-1.2104	-2.1396	-1.4354	-1.8292	-2.1417	-1.2833	-1.7375	-1.825	71.447	81.164	-6.042	187.745	123.056	-66.079	104.810	-128.900	-55.792	68.345	-111.883	85.768	118.242	127.827	-46.588	130.930	0.00095768	0.00047246	0.00022467	1377.3	6.3849e-06	3.6449e-06	1378.6	371	8.6364e-06	1.1364e-05	424.48	142.14	124.13	42.294	6.3033e-06	52.264	0.00054882	0.0005324	0.00014748	1401.4	5.8285e-06	5.8323e-06	1399.6	378.47	5.802e-06	5.7493e-06	432.84	145.4	126.09	43.515	5.721e-06	53.813	-33.107	-93.198	-116.358	-157.028	-5.775	18.886	-157.390	-152.681	-73.254	2.567	-153.156	-148.928	-148.142	-143.604	-37.706	-144.348	-8191	255	
1039.545	1	1	0	0	0.095028	0.28024	0.23451	0.25477	0.16376	0.064309	0.10033	0.080084	0.023985	0.25723	0.13199	0.40637	0.3292	0.08689	0.11354	0.072891	-0.7	-2.0729	-1.2583	-1.5812	-2.0375	-0.96042	-2.1813	-2.0021	-1.0729	-2.0938	-1.5125	-1.4062	-2.1875	-1.275	-1.6146	-1.975	-4.199	-95.516	-2.855	159.751	132.810	99.729	91.955	111.736	80.859	-28.928	-88.510	113.243	-116.097	39.876	61.600	-141.334	0.00090565	0.0005442	0.00028304	1377.3	5.5186e-06	5.3808e-06	1375.6	370.98	8.2217e-06	7.7646e-06	423.02	142.1	123.54	42.418	4.1759e-06	51.879	0.00055409	0.0005205	0.0001451	1401.4	5.8975e-06	5.8592e-06	1400	378.04	5.8682e-06	5.7979e-06	431.67	145.19	125.7	43.56	5.7962e-06	53.691	-31.299	-99.846	-95.417	-157.091	-63.563	-27.321	-157.352	-152.528	-40.471	-22.329	-153.494	-148.592	-148.427	-143.850	-37.865	-144.438	-8191	255	
1039.639	1	1	0	0	0.068245	0.23151	0.12085	0.069613	0.039102	0.14739	0.44363	0.17042	0.1125	0.16714	0.10378	0.24964	0.25899	0.42438	0.26557	0.26975	-0.77083	-2.1354	-1.5021	-1.4813	-2.0333	-1.25	-1.7146	-2.2104	-1.0583	-2.1271	-1.6958	-1.3625	-2.1562	-1.3479	-1.625	-2.0729	50.702	-124.247	-55.472	-84.053	-144.735	-55.460	169.922	-45.963	17.047	184.275	69.925	154.839	-151.243	179.269	157.109	71.718	0.00086601	0.00059192	0.00011476	1376	4.864e-06	3.0165e-06	1376.4	372.11	8.9653e-06	6.6396e-06	422.94	142.16	124.52	42.331	5.8094e-06	52.195	0.00054639	0.00052066	0.00014589	1401.1	5.7854e-06	5.7376e-06	1397.9	379	5.6741e-06	5.576e-06	432.2	145.2	126.01	43.483	5.6036e-06	53.75	-36.015	-76.677	-27.867	-157.096	-36.667	-48.885	-157.544	-152.713	-24.753	-66.224	-153.294	-148.619	-148.673	-143.646	-83.393	-144.417	-8191	255	
1039.735	1	1	0	0	0.1994	0.047142	0.23831	0.2331	0.19605	0.2271	0.28719	0.18134	0.18384	0.1726	0.29808	0.29418	0.1542	0.14286	0.17494	0.10236	-0.875	-1.9354	-1.6458	-1.5646	-2.1188	-1.3104	-1.5875	-2.1604	-1.0771	-1.9917	-1.8875	-1.1042	-2.1188	-1.4438	-1.3854	-2.3812	16.630	37.649	35.588	162.678	-9.632	143.794	157.803	171.890	-143.595	-139.590	142.475	159.750	-88.731	-132.958	130.687	119.729	0.00093941	0.00056986	0.00015884	1375.3	1.4307e-06	5.0703e-06	1375.8	369.86	5.7612e-06	3.5338e-06	424.98	142.35	123.84	42.167	5.5288e-06	52.032	0.00053515	0.00050981	0.00014449	1401.1	5.6189e-06	5.6281e-06	1398.3	378.03	5.6631e-06	5.6344e-06	433.06	145.25	126.05	43.464	5.6732e-06	53.761	-27.037	-49.382	-35.162	-157.001	-48.068	22.743	-157.311	-152.475	1.588	-28.907	-153.290	-148.850	-148.441	-143.677	-42.268	-144.426	-8191	255	
1039.807	1	1	0	0	0.19069	0.16641	0.17822	0.22234	0.27208	0.25887	0.32317	0.10351	0.091326	0.28333	0.17429	0.30733	0.30497	0.12862	0.08936	0.26246	-0.78542	-1.7354	-1.6938	-1.3438	-2.2229	-1.4646	-1.6	-2.4521	-1.1021	-1.7375	-2.2	-1.2104	-2.0708	-1.5375	-1.15	-2.1708	165.381	155.477	76.598	-125.482	-133.889	-25.047	170.373	132.709	-110.185	122.193	-125.286	174.024	166.382	-130.564	168.177	154.955	0.0007561	0.00056904	0.00017547	1378.9	3.9715e-06	7.0201e-06	1381.9	371.17	4.4618e-06	2.0449e-06	424.03	141.99	123.9	42.224	4.4779e-06	52.321	0.00053895	0.00051219	0.00014612	1403	5.638e-06	5.711e-06	1401.1	378.75	5.7093e-06	5.7778e-06	432.85	145.24	126.09	43.451	5.7645e-06	53.792	-34.448	-49.355	-71.493	-157.160	-128.947	21.171	-157.305	-152.571	-31.768	-37.045	-153.186	-148.564	-148.448	-143.701	-88.261	-144.767	-8191	255	
1039.905	1	1	0	0	0.032516	0.0923	0.072929	0.1679	0.26442	0.12712	0.10198	0.15588	0.11533	0.15642	0.10565	0.20578	0.16737	0.11421	0.25681	0.20813	-0.71667	-1.5521	-1.9146	-1.0562	-2.1583	-1.425	-1.3292	-2.2646	-1.3167	-1.4146	-2.0875	-1.2563	-1.9625	-1.6417	-1.1292	-2.3063	-96.575	60.467	154.683	108.171	170.871	67.143	140.397	123.187	-140.915	-53.091	21.201	-102.542	113.393	29.575	-42.457	-119.981	0.0008271	0.00066026	0.00017775	1378.2	6.4035e-06	6.7161e-06	1374.9	371.25	7.2157e-06	6.4529e-06	423.37	142.36	124.02	42.213	1.5614e-06	51.865	0.00054119	0.00052449	0.00014651	1402.8	5.7613e-06	5.6712e-06	1400.2	378.82	5.7646e-06	5.7088e-06	432.28	145.36	126.23	43.538	5.8282e-06	53.717	-35.867	-101.556	-75.774	-156.980	-45.986	-35.587	-157.229	-152.622	-47.381	-12.181	-153.148	-148.921	-148.632	-143.766	50.009	-144.442	-8191	255	
1040.024	1	1	0	0	0.096183	0.059768	0.23345	0.24259	0.13511	0.034694	0.56313	0.12856	0.12164	0.26703	0.060238	0.093198	0.086521	0.2085	0.12903	0.15418	-0.63542	-1.4521	-1.9417	-1.3396	-1.7646	-1.7354	-1.2708	-2.1562	-1.3687	-1.5479	-2.2583	-1.4042	-1.9042	-1.9333	-1.2333	-2.1271	-46.136	84.333	-113.162	75.418	115.408	28.329	163.570	134.249	-169.631	-105.016	-152.490	77.386	92.448	45.973	152.172	-82.359	0.0009322	0.00059296	0.00011695	1384	8.4099e-06	3.9984e-06	1376.7	371.45	8.298e-06	4.6279e-06	425.28	142.08	124.42	42.445	4.3423e-06	51.891	0.000538	0.0005231	0.0001474	1404.2	5.7377e-06	5.8434e-06	1400.6	378.83	5.7289e-06	5.6789e-06	433.37	145.18	126.32	43.592	5.7769e-06	53.779	-33.693	-109.586	-134.600	-157.175	-18.769	-35.211	-157.404	-152.515	-20.068	-19.101	-153.048	-148.816	-148.123	-143.994	-17.431	-144.460	-8191	255	
1040.120	1	1	0	0	0.12986	0.070406	0.084274	0.15879	0.088875	0.19458	0.16587	0.074077	0.1906	0.074574	0.1964	0.47273	0.14309	0.16612	0.02108	0.20815	-1	-1.5438	-2.1625	-1.3417	-1.7771	-1.9521	-1.1479	-2.2271	-1.5208	-1.2	-2.0229	-1.2146	-1.6125	-2.1	-1.025	-2	-102.214	95.409	181.442	185.595	167.531	-157.313	67.807	-83.900	148.345	-26.396	49.465	168.253	107.991	-157.313	-10.428	81.182	0.00091023	0.00056532	0.00014263	1376.6	5.3065e-06	4.1931e-06	1385.6	370.33	6.6549e-06	1.194e-05	423.09	142.48	124.17	42.288	7.9894e-06	52.231	0.00055446	0.00053184	0.00014938	1403.2	5.7732e-06	5.867e-06	1403.5	378.8	5.7862e-06	5.8767e-06	432.69	145.27	126.75	43.467	5.8386e-06	53.799	-31.676	-86.388	-95.801	-157.218	-67.112	-26.991	-157.528	-152.469	-47.700	-6.917	-153.160	-148.676	-148.230	-143.646	-14.518	-144.376	-8191	255	
1040.216	1	1	0	0	0.25364	0.076065	0.20707	0.22031	0.22277	0.15649	0.36295	0.26864	0.15204	0.29013	0.073142	0.21702	0.21034	0.16039	0.15716	0.13878	-1.0312	-1.4375	-2.0125	-1.4479	-1.6521	-2.0208	-1.2458	-2.0417	-1.6396	-1.4396	-2.175	-1.6333	-1.4813	-2.1875	-1.1646	-1.8104	-65.305	93.708	109.286	172.542	-46.589	97.172	133.693	117.440	-106.079	-80.837	-130.796	140.132	1.246	146.167	26.209	118.172	0.0008283	0.0001821	9.4595e-05	1378.1	5.6229e-06	6.868e-06	1378.8	371.58	4.007e-06	8.7641e-06	425.02	141.59	124.91	42.227	4.8338e-06	52.174	0.00054705	0.00053351	0.00014615	1404.2	5.7334e-06	5.7668e-06	1400.1	379.04	5.784e-06	5.8489e-06	432.56	145.25	126.39	43.515	5.8045e-06	53.814	-35.819	-88.102	-41.098	-157.190	-28.034	-15.141	-157.332	-152.465	-34.660	-5.473	-153.110	-149.199	-148.614	-143.853	-19.604	-144.414	-8191	255	
1040.337	1	1	0	0	0.12089	0.10568	0.18216	0.22498	0.37462	0.26891	0.18451	0.20959	0.17528	0.11056	0.10021	0.25533	0.091996	0.13532	0.1672	0.10295	-1.4479	-1.2604	-2.15	-1.5792	-1.4	-1.9979	-1.3417	-2.1333	-1.8979	-1.0812	-2.1833	-1.5667	-1.3625	-2.1417	-1.2917	-1.6458	2.812	-38.188	-76.647	114.049	-1.016	-98.240	136.356	79.035	146.422	126.478	120.185	147.752	163.356	-82.207	45.612	127.910	0.0009526	0.00033328	0.00019441	1374.6	2.7385e-06	6.3209e-06	1378.8	371.69	1.0013e-05	9.2841e-06	423.83	142.15	124.3	42.489	6.2032e-06	52.308	0.00054841	0.0005326	0.00014728	1402.3	5.7948e-06	5.8482e-06	1400.1	378.7	5.8182e-06	5.7777e-06	432.82	145.24	126.28	43.658	5.7979e-06	53.847	-35.652	-75.494	-74.849	-157.148	18.025	-39.960	-157.489	-152.652	-35.919	7.327	-153.406	-149.064	-148.503	-143.744	-2.524	-144.405	-8191	255	
1040.408	1	1	0	0	0.29761	0.11424	0.17578	0.12935	0.22524	0.32167	0.33641	0.30309	0.16046	0.17678	0.14859	0.15991	0.22697	0.14511	0.20626	0.47229	-1.6229	-0.98125	-1.9521	-1.6562	-1.2479	-2.1604	-1.4083	-1.9604	-1.9542	-1.1	-2.1583	-1.6187	-1.2792	-2.2417	-1.0958	-1.725	90.566	32.402	-131.881	-123.020	89.116	-92.111	108.257	-164.126	-27.273	72.225	102.999	-83.300	124.549	167.816	-2.534	109.654	0.00088933	0.00043865	0.00022867	1379.5	1.0382e-05	3.9564e-06	1380.5	370.83	8.8798e-06	9.2937e-06	424.95	141.72	123.46	42.359	7.4221e-06	52.174	0.00054857	0.00053834	0.0001466	1404.8	5.7575e-06	5.9197e-06	1401.6	378.86	5.8445e-06	5.8639e-06	433.94	145.34	126.26	43.546	5.7989e-06	53.81	-34.631	-80.110	-58.412	-157.245	-35.471	-6.252	-157.452	-152.713	-3.066	-25.204	-152.950	-149.058	-148.257	-143.782	-55.821	-144.619	-8191	255	
1040.505	1	1	0	0	0.26957	0.031199	0.1425	0.32192	0.14424	0.11552	0.27719	0.18592	0.067687	0.067577	0.26844	0.15606	0.27365	0.15577	0.11826	0.16433	-1.6875	-1.2208	-1.8875	-1.7354	-1.2042	-2.0896	-1.5063	-1.8521	-2.2583	-1.1187	-2.0542	-1.7	-1.2229	-2.3646	-1.2812	-1.5146	-101.591	-103.077	107.444	146.691	-103.141	160.123	-158.651	120.435	-28.676	-13.397	139.424	183.184	20.460	59.253	93.396	-162.187	0.00093201	0.00028619	0.00019899	1377.3	8.8944e-06	8.1487e-06	1381.1	371.66	4.3046e-06	3.0094e-06	423.5	142.15	124.89	42.368	7.2137e-06	52.282	0.00055018	0.00053546	0.00014726	1403.9	5.9204e-06	5.8051e-06	1401.5	378.79	5.8958e-06	5.8449e-06	432.93	145.19	126.71	43.582	5.8498e-06	53.926	-30.333	-37.910	-108.692	-157.277	-17.158	9.038	-157.450	-152.633	-43.906	-87.035	-153.050	-149.119	-148.558	-143.654	-41.095	-144.810	-8191	255	
1040.625	1	1	0	0	0.26688	0.16749	0.17888	0.063308	0.25764	0.082912	0.28938	0.043269	0.023763	0.13275	0.20202	0.17334	0.18846	0.16893	0.054478	0.35778	-1.6729	-0.87917	-1.8188	-1.8333	-1.1688	-1.9958	-1.5875	-1.6229	-2.0104	-1.2021	-1.7458	-2.0771	-1.1146	-2.3312	-1.3646	-1.3583	-62.378	180.283	101.864	88.255	-51.301	-79.281	126.300	-27.578	-45.762	10.583	169.395	144.151	132.781	-150.936	37.087	44.292	0.00089604	0.00041913	0.00019295	1387.3	5.5988e-06	5.7312e-06	1385.6	371.54	7.6818e-06	1.0431e-05	422.84	142.91	124.5	42.373	1.1164e-05	52.185	0.00055394	0.00053235	0.00014812	1407.6	5.8646e-06	5.8114e-06	1404.3	379.42	5.7722e-06	5.7284e-06	433.33	145.72	126.3	43.636	5.6224e-06	53.884	-42.888	-121.023	-72.469	-157.414	-37.076	-37.411	-157.722	-152.641	-59.579	-0.116	-153.245	-148.938	-148.501	-143.605	-20.900	-144.251	-8191	255	
1040.720	1	1	0	0	0.35343	0.087098	0.24604	0.16442	0.27525	0.04337	0.50486	0.24576	0.10306	0.14329	0.10788	0.28979	0.36396	0.25862	0.10411	0.19529	-1.7729	-1.2417	-1.7708	-2.2104	-1.2125	-1.9521	-1.7229	-1.2646	-2.0167	-1.2042	-1.675	-2.3979	-1.1812	-2.0083	-1.6021	-1.3417	91.380	-109.792	166.053	131.694	144.652	-17.796	70.433	183.258	129.584	-111.894	162.900	155.235	-165.310	-106.391	-157.299	95.151	0.00088006	0.00036923	0.00017485	1384.7	3.4971e-06	6.2473e-06	1385.9	371.7	9.1376e-06	3.8025e-06	426.5	142.23	124.13	42.361	2.1601e-06	52.667	0.00054495	0.00051545	0.00014434	1408.1	5.666e-06	5.7163e-06	1405.3	379.63	5.6601e-06	5.6939e-06	434.63	145.57	126.28	43.623	5.6702e-06	54	-33.282	-52.165	-113.445	-157.252	4.482	-6.188	-157.732	-152.503	-26.881	-19.854	-153.029	-148.993	-148.354	-143.702	-59.377	-144.510	-8191	255	
1040.816	1	1	0	0	0.149	0.31504	0.19382	0.52386	0.29407	0.036482	0.3477	0.32275	0.28396	0.19289	0.24283	0.2638	0.17201	0.22781	0.35556	0.17032	-1.5854	-1.3521	-1.7354	-2.1854	-1.1208	-2.0563	-1.9854	-1.2479	-2.1292	-1.3583	-1.6271	-2.2062	-1.2188	-2.0458	-1.8875	-1.15	-94.901	-21.548	-33.095	170.671	-126.293	-36.902	60.315	116.410	-77.410	57.928	-132.584	188.046	101.619	30.656	133.929	63.626	0.0010183	0.00046713	0.00014115	1384	8.2064e-06	6.4139e-06	1380.3	373.48	8.0231e-06	1.1021e-05	425.66	142.76	125.2	42.448	4.8919e-06	52.29	0.00053986	0.00051159	0.00014474	1406.8	5.7521e-06	5.6855e-06	1404.7	380.26	5.6202e-06	5.7205e-06	435	145.79	126.66	43.719	5.7245e-06	53.874	-37.400	-5.890	-61.405	-157.184	-52.455	-7.528	-157.532	-152.601	-52.465	-11.617	-153.187	-148.833	-148.541	-143.652	-117.963	-144.322	-8191	255	
1040.936	1	1	0	0	0.020385	0.23497	0.065387	0.18132	0.041758	0.20333	0.13043	0.27318	0.098315	0.19788	0.2771	0.12316	0.3186	0.27765	0.1229	0.14591	-1.5875	-1.4042	-1.3958	-2.3375	-1.1667	-1.85	-2.0979	-1.3771	-2.0229	-1.4188	-1.3417	-2.1792	-1.3292	-1.9396	-2.1188	-1.225	29.109	149.216	-16.286	-109.935	10.052	-75.501	-168.327	112.044	18.853	66.743	100.366	-166.708	166.287	134.056	43.528	74.278	0.00089353	0.0010968	9.0042e-05	1384.5	5.153e-06	2.9923e-06	1386.6	372.38	3.8236e-06	4.1637e-06	426.47	142.76	125.61	42.514	6.5161e-06	51.918	0.0005356	0.00051661	0.00014455	1409.7	5.6488e-06	5.7606e-06	1406	379.93	5.7133e-06	5.7548e-06	434.89	145.88	126.84	43.715	5.7008e-06	53.811	-33.554	-111.357	-140.830	-157.104	7.442	-3.856	-157.476	-152.561	-36.969	-29.150	-152.999	-148.814	-148.453	-143.351	-40.102	-144.550	-8191	255	
1041.033	1	1	0	0	0.011557	0.17504	0.1771	0.40958	0.19383	0.091212	0.43612	0.09831	0.20924	0.12978	0.18339	0.20399	0.38867	0.18069	0.13539	0.29052	-1.8021	-1.6646	-1.1646	-2.2646	-1.2667	-1.6417	-2.2333	-1.3208	-1.975	-1.7229	-1.3604	-2.3104	-1.2313	-1.5167	-2.1958	-1.3208	-14.228	-104.226	-125.372	-168.981	38.800	168.812	108.124	49.088	97.685	139.325	140.738	28.234	83.670	-169.251	156.247	131.507	0.0008702	0.0003818	0.00010355	1381.3	6.2806e-06	1.6918e-06	1382.5	373.74	7.5273e-06	6.362e-06	425.81	142.01	125.89	42.438	5.3356e-06	52.238	0.00053499	0.00052246	0.00014565	1408.1	5.676e-06	5.7324e-06	1405.9	380.4	5.6259e-06	5.6322e-06	433.81	145.91	127.11	43.707	5.7387e-06	53.862	-31.063	6.555	-76.995	-157.135	-14.067	-39.704	-157.538	-152.613	-24.655	-10.880	-152.971	-148.932	-148.559	-143.465	-20.257	-144.284	-8191	255	
1041.104	1	1	0	0	0.082828	0.10007	0.15093	0.2396	0.1787	0.20198	0.22092	0.23202	0.26323	0.10741	0.35248	0.26161	0.029575	0.064454	0.20462	0.12817	-1.6437	-1.7375	-1.2188	-2.2875	-1.5187	-1.5854	-2.3146	-1.4167	-1.9312	-2.0958	-1.3687	-2.3333	-1.5792	-1.6625	-2.2542	-1.3958	-135.030	-77.039	162.278	154.175	16.762	-127.981	179.739	171.439	-31.518	38.282	154.715	165.882	27.307	129.201	146.041	182.297	0.0010145	0.00053498	0.00010206	1388.6	8.2216e-06	2.5099e-06	1381.3	372.68	1.175e-05	7.4453e-06	429.13	142.27	125.11	42.322	4.3742e-06	52.477	0.00053219	0.00051337	0.00014781	1410.5	5.6382e-06	5.7862e-06	1407	379.8	5.75e-06	5.7443e-06	435.67	145.68	127.09	43.65	5.7136e-06	54.016	-32.456	-66.202	-112.091	-156.847	-61.457	30.162	-157.501	-152.460	-25.524	-31.488	-152.901	-148.775	-148.412	-143.576	-20.653	-144.463	-8191	255	
1041.200	1	1	0	0	0.20338	0.14176	0.15005	0.37759	0.10717	0.022643	0.21001	0.19297	0.037373	0.10792	0.017365	0.22528	0.19904	0.15442	0.1863	0.1039	-1.5625	-2.0312	-1.1292	-2.3854	-1.6771	-1.3729	-2.3625	-1.3875	-1.8708	-2.05	-1.325	-2.1917	-1.55	-1.3396	-2.2083	-1.2625	-79.860	-149.363	-25.711	130.274	-8.929	-72.298	79.447	146.168	-88.360	-147.849	128.656	162.832	-29.705	-80.835	129.679	182.966	0.00096246	0.00031066	0.00021142	1396.2	5.1045e-06	6.6692e-06	1392.1	371.45	4.7015e-06	5.6494e-06	427.07	143.09	126.33	42.563	4.2705e-06	52.655	0.00054514	0.0005253	0.00014653	1416.3	5.6948e-06	5.8353e-06	1409.9	380.19	5.6955e-06	5.7864e-06	435.05	146.21	126.94	43.749	5.7161e-06	54.074	-33.051	-98.418	-70.702	-157.025	19.422	-34.518	-157.336	-152.500	-63.697	-58.126	-153.157	-148.703	-148.279	-143.783	-17.492	-144.534	-8191	255	
1041.321	1	1	0	0	0.16181	0.050462	0.27077	0.33476	0.082301	0.08338	0.13103	0.20759	0.10371	0.16475	0.23413	0.16001	0.35383	0.27384	0.29358	0.29958	-1.0583	-2.0708	-1.1833	-2.1271	-1.4708	-1.5063	-2.4646	-1.4396	-1.5896	-2.0104	-1.2208	-2.2646	-1.7938	-1.3458	-2.0563	-1.4771	27.617	-62.977	8.450	148.290	40.479	152.673	101.140	-86.545	-16.192	-83.563	134.292	-168.025	141.092	165.851	-96.004	131.379	0.00093009	0.00048408	0.0002175	1392.6	6.5822e-06	2.9291e-06	1385.3	373.41	1.2679e-05	4.9372e-06	426.1	143.46	124.78	42.418	8.4751e-06	52.427	0.00054285	0.00052775	0.00014672	1415.1	5.6426e-06	5.7639e-06	1409	380.58	5.7599e-06	5.739e-06	435.4	146.18	126.83	43.709	5.6899e-06	54.079	-36.800	-69.984	-88.982	-156.949	22.677	-52.246	-157.362	-152.568	-48.731	-4.088	-153.187	-148.779	-148.328	-143.574	-14.592	-144.688	-8191	255	
1041.417	1	1	0	0	0.28198	0.19021	0.12161	0.083955	0.17014	0.27185	0.10662	0.32624	0.07982	0.086817	0.38388	0.15366	0.12675	0.021275	0.14821	0.073697	-1.2375	-1.9458	-1.0917	-2.1708	-1.8354	-1.2479	-2.2917	-1.5562	-1.3438	-2.1396	-1.1917	-1.8521	-1.8208	-1.2917	-1.8521	-1.5708	-46.411	-122.364	-26.869	151.722	156.034	-51.613	-154.055	154.361	-64.935	-67.747	124.833	179.330	-165.924	-18.047	184.956	36.383	0.00087006	0.00045962	0.0001365	1391	3.115e-06	5.4532e-06	1385.7	373.18	6.4311e-06	8.1213e-06	425.07	143.47	125.63	42.602	7.3832e-06	52.135	0.00054115	0.00053025	0.00014653	1414.7	5.7912e-06	5.7361e-06	1411.1	380.78	5.8259e-06	5.7561e-06	435.21	146.32	127.22	43.791	5.729e-06	54.004	-33.757	-116.600	-114.057	-156.878	-99.366	-24.715	-157.240	-152.610	-42.054	-18.114	-152.946	-148.775	-148.106	-143.561	-41.219	-144.678	-8191	255	
1041.513	1	1	0	0	0.070415	0.055988	0.11514	0.1021	0.26787	0.081479	0.21862	0.29324	0.24766	0.3354	0.1837	0.13416	0.1412	0.33919	0.1725	0.16654	-0.88958	-2.1979	-1.0896	-2.1083	-1.8854	-0.92292	-2.3771	-1.9354	-1.2375	-2.1417	-1.4375	-1.8375	-2.0896	-1.1583	-2.0396	-1.6479	4.158	-65.759	133.712	-52.124	30.076	66.553	-156.447	167.417	80.970	134.124	165.871	-151.863	-159.654	179.044	-54.642	147.891	0.00080872	0.00089888	0.00013605	1396.9	9.5593e-06	6.2898e-06	1394.4	373.54	6.3539e-06	5.2403e-06	426.44	143.27	125.55	42.379	1.0125e-05	52.232	0.0005413	0.00052683	0.00014526	1416.5	5.7644e-06	5.7081e-06	1413.9	380.92	5.8082e-06	5.7603e-06	435.23	146.28	126.9	43.752	5.7087e-06	53.986	-36.266	-98.201	-81.280	-156.869	-27.289	-13.508	-157.173	-152.607	-36.897	-6.889	-153.215	-148.695	-148.173	-143.559	-20.672	-144.301	-8191	255	
1041.609	1	1	0	0	0.081411	0.11143	0.34813	0.2381	0.11924	0.041913	0.12846	0.14657	0.18852	0.15651	0.14595	0.12555	0.16489	0.28623	0.035501	0.092029	-0.83333	-2.2438	-1.4292	-1.6167	-2.0125	-1.2542	-2.0729	-1.9958	-1.1292	-2.0417	-1.5812	-1.4417	-2.2687	-1.325	-1.85	-1.75	-78.487	-93.421	104.651	138.009	-4.968	-116.667	136.910	92.702	117.781	80.718	-27.657	-23.927	46.859	150.590	118.570	-138.960	0.00077744	0.00066777	6.5883e-05	1391.8	8.2167e-06	8.1231e-06	1394.2	374.54	7.6749e-06	8.8706e-06	427.25	143.4	125.2	42.422	6.7928e-06	52.734	0.00054013	0.00052003	0.00014522	1416.7	5.6898e-06	5.7261e-06	1412.9	381.3	5.7558e-06	5.7767e-06	435.86	146.31	126.82	43.827	5.6996e-06	54.116	-36.721	-97.610	-101.452	-156.979	-40.655	-22.608	-157.299	-152.590	-35.775	-33.810	-153.239	-148.679	-148.523	-143.723	1.949	-144.561	-8191	255	
1041.704	1	1	0	0	0.0253	0.1	0.080111	0.47297	0.21818	0.27201	0.077466	0.26084	0.31274	0.18156	0.37682	0.082168	0.21137	0.26933	0.098946	0.13731	-0.81458	-2.1188	-1.2375	-1.5938	-2.1854	-1.1625	-2.0375	-2.0625	-1.1437	-2.05	-1.5771	-1.2771	-2.1625	-1.4021	-1.7333	-2.0542	-32.668	-129.692	-41.722	-149.025	78.337	126.682	129.335	137.723	93.217	-110.389	-145.524	156.363	38.746	128.343	28.170	-14.590	0.00091206	0.00037047	6.6955e-05	1392.5	7.3891e-06	2.0383e-06	1390.8	373.13	7.7515e-06	8.4382e-06	426.33	142.98	124.45	42.622	2.5034e-06	52.487	0.00054415	0.00051704	0.00014292	1415.7	5.7354e-06	5.7496e-06	1413.1	380.53	5.708e-06	5.6711e-06	435.25	146.14	126.64	43.748	5.7299e-06	54.014	-39.665	-114.082	-36.215	-156.727	-42.567	30.527	-157.282	-152.490	-27.955	32.311	-153.160	-148.432	-148.422	-143.601	2.939	-144.224	-8191	255	
1041.800	1	1	0	0	0.27303	0.18013	0.10964	0.052438	0.22134	0.17714	0.024709	0.41884	0.16864	0.089796	0.21175	0.24558	0.46957	0.099693	0.28592	0.34708	-0.75625	-1.9583	-1.3729	-1.5021	-2.1354	-1.1583	-1.8375	-2.2	-1.0292	-2.0042	-1.7521	-1.3771	-2.2521	-1.3229	-1.5854	-2.1854	-49.740	94.907	-99.009	97.701	-160.070	160.163	-162.950	117.101	143.303	58.994	-170.044	148.004	162.857	-134.828	-0.098	162.398	0.00095487	0.00014148	0.00017249	1393.7	8.3399e-06	6.9857e-06	1393.3	375.26	7.3709e-06	7.439e-06	426.72	143.82	124.52	42.691	1.1974e-05	52.444	0.00054839	0.00051851	0.00014545	1414.8	5.7303e-06	5.6956e-06	1414	381.87	5.7205e-06	5.6785e-06	435.95	146.46	126.85	43.756	5.7028e-06	54.098	-26.693	-48.538	-79.158	-156.874	-13.939	-25.286	-157.175	-152.539	-59.035	-22.884	-153.094	-148.463	-148.052	-143.512	-56.880	-144.577	-8191	255	
1041.898	1	1	0	0	0.044054	0.21739	0.094727	0.28174	0.089683	0.40814	0.22774	0.20142	0.16784	0.16694	0.22187	0.36418	0.19341	0.077546	0.17764	0.11252	-0.80208	-1.8583	-1.7354	-1.4417	-2.1312	-1.325	-1.6812	-2.35	-0.95417	-2.0229	-1.825	-1.2125	-2.1021	-1.3667	-1.0312	-2.0687	105.750	123.724	40.485	172.854	70.779	58.895	123.642	-139.939	163.249	141.592	58.746	116.992	102.966	101.660	139.038	116.262	0.00097998	0.00062733	0.00023282	1394	3.0213e-06	4.6493e-06	1397	373.95	9.1177e-06	7.077e-06	426.52	143.76	125.61	42.479	6.9451e-06	52.372	0.00055114	0.00051954	0.00014653	1416.1	5.7596e-06	5.6763e-06	1415.3	381.33	5.7362e-06	5.6958e-06	434.91	146.37	127.02	43.788	5.6956e-06	54.019	-34.131	-97.287	-99.230	-156.761	-2.637	-36.094	-157.217	-152.566	-53.119	-39.272	-153.226	-148.509	-148.116	-143.408	-23.116	-144.553	-8191	255	
1042.017	1	1	0	0	0.22626	0.13916	0.10181	0.21336	0.065648	0.05488	0.27886	0.30259	0.17408	0.12725	0.20924	0.12016	0.38043	0.34478	0.33191	0.15669	-0.64792	-1.8375	-1.6917	-1.2896	-2.0333	-1.4042	-1.7021	-2.3167	-1.1812	-1.7583	-2.0833	-1.2479	-2.2062	-1.575	-1.1521	-2.0708	156.196	-88.181	-46.098	107.587	-163.028	-87.624	134.478	106.755	43.235	-148.658	159.727	15.903	152.541	182.830	186.963	-99.470	0.00092803	0.00065363	0.00015006	1396.2	5.2673e-06	4.0394e-06	1388.8	372.96	6.4315e-06	2.4909e-06	425.48	143.08	125.58	42.6	6.0516e-06	52.425	0.00054434	0.0005118	0.00014571	1416.8	5.6819e-06	5.6971e-06	1411.5	381.07	5.7194e-06	5.7398e-06	434.79	146.07	126.63	43.744	5.7897e-06	54.048	-32.574	-88.654	-127.001	-156.737	-14.038	-7.123	-157.008	-152.366	-22.473	-96.526	-152.955	-148.507	-148.446	-143.286	-21.326	-144.168	-8191	255	
1042.113	1	1	0	0	0.28729	0.28321	0.29509	0.45792	0.065314	0.19792	0.050451	0.14938	0.1066	0.092147	0.077928	0.1196	0.19044	0.27246	0.053933	0.21991	-0.99792	-1.7021	-1.8917	-1.1729	-1.9146	-1.7042	-1.2792	-2.1667	-1.3458	-1.5938	-2.1521	-1.1313	-1.8667	-1.8479	-1.2	-2.0979	55.343	178.798	125.910	157.632	70.549	114.867	53.055	146.113	-164.829	2.054	85.966	-157.558	100.019	127.390	168.005	119.369	0.00095881	0.00051908	0.00017815	1391.2	5.7343e-06	3.7168e-06	1390.9	373.22	1.238e-05	5.2656e-06	425.46	143.84	124.79	42.784	9.8738e-06	52.655	0.00054834	0.00051516	0.00014605	1414.2	5.6993e-06	5.769e-06	1412	380.75	5.6904e-06	5.7083e-06	435.12	146.37	126.7	43.8	5.8017e-06	54.071	-30.649	-64.114	-89.213	-156.964	-79.440	-16.075	-157.148	-152.362	-27.711	-14.681	-152.927	-148.390	-148.099	-143.504	-29.940	-144.207	-8191	255	
1042.209	1	1	0	0	0.27424	0.14859	0.096359	0.23382	0.051505	0.075473	0.25092	0.3409	0.056084	0.12327	0.26133	0.22027	0.11201	0.14676	0.10986	0.33024	-0.96042	-1.6104	-1.8896	-1.4188	-1.8875	-1.8917	-1.45	-2.3729	-1.2062	-1.4667	-2.2812	-1.2375	-1.8875	-1.9937	-1.0333	-2.1479	147.531	-124.516	-132.083	149.512	-113.112	1.920	86.565	117.745	150.558	-168.878	175.225	70.914	33.494	152.862	-115.261	149.244	0.00099031	0.0007003	2.5759e-05	1386.6	4.9022e-06	1.2957e-06	1393.6	374.37	9.3357e-06	1.0936e-05	427.46	143.01	124.92	42.516	9.6865e-06	52.265	0.00054837	0.00052392	0.00014864	1414.5	5.7603e-06	5.705e-06	1412.6	381.44	5.7192e-06	5.7759e-06	436.17	146.17	126.79	43.729	5.7869e-06	53.985	-35.034	-82.269	32.899	-156.872	-17.130	-17.320	-157.141	-152.342	-65.597	-25.826	-153.456	-148.987	-148.674	-143.854	-27.585	-144.855	-8191	255	
1042.305	1	1	0	0	0.14555	0.2637	0.10293	0.26843	0.15529	0.15731	0.29796	0.17933	0.057125	0.099518	0.16973	0.16223	0.39971	0.10315	0.035684	0.3355	-1.0917	-1.4333	-2.1354	-1.3375	-1.8667	-2.0563	-1.4792	-2.0896	-1.6125	-1.325	-2.1854	-1.3542	-1.5771	-2.1417	-1.1875	-2.0375	-153.793	-41.222	172.662	181.079	117.705	148.344	178.421	179.343	17.755	-87.570	-140.746	-147.633	-138.577	-154.892	-108.372	172.958	0.0008645	0.00086448	0.00014777	1389.8	8.4555e-06	6.0253e-06	1388	374.3	4.1834e-06	4.325e-06	427.09	142.84	124.88	42.49	3.4664e-06	52.484	0.00053777	0.00052476	0.00014436	1415.6	5.6912e-06	5.7914e-06	1411.5	381.64	5.7285e-06	5.7978e-06	435.43	146.16	126.21	43.697	5.7316e-06	54.008	-37.813	-58.461	-91.594	-157.500	-60.878	-7.169	-157.688	-152.791	-54.091	-21.807	-153.411	-149.275	-148.586	-144.073	-43.472	-144.730	-8191	255	
1042.401	1	1	0	0	0.23385	0.14824	0.13037	0.46324	0.1581	0.14304	0.096474	0.18407	0.26406	0.1626	0.055266	0.22663	0.32805	0.064004	0.13053	0.38256	-1.2771	-1.2896	-2.2875	-1.5312	-1.5354	-1.9396	-1.3021	-2.0292	-1.6437	-1.2833	-2.3104	-1.5812	-1.5708	-2.2292	-1.1458	-1.9292	17.019	183.908	-166.581	164.167	-7.495	-111.955	69.450	142.267	61.513	-153.302	-39.098	41.085	-103.430	102.108	-149.278	176.909	0.001007	0.00067835	0.00015351	1392.9	6.5252e-06	2.9274e-06	1388.5	372.93	4.1546e-06	3.0287e-06	426.81	143.04	125.46	42.468	8.697e-06	52.398	0.00053656	0.00052236	0.00014283	1415.2	5.6943e-06	5.7055e-06	1411.1	381.47	5.6399e-06	5.6585e-06	435.45	146.02	126.79	43.744	5.6182e-06	54.049	-33.232	-89.501	-96.578	-157.446	-25.826	-6.614	-157.687	-152.848	-46.531	-57.293	-153.480	-149.238	-148.689	-143.870	-35.742	-144.658	-8191	255	
1042.498	1	1	0	0	0.1241	0.33093	0.19412	0.18644	0.031318	0.16827	0.28441	0.11923	0.18933	0.15653	0.088943	0.26879	0.093897	0.21478	0.051834	0.21607	-1.3083	-1.2667	-2.1063	-1.6979	-1.4958	-1.8875	-1.4125	-1.9146	-1.8583	-1.2771	-2.1021	-1.7292	-1.4854	-2.3354	-1.1979	-1.8438	125.152	-128.685	-33.435	188.673	19.810	37.401	105.294	125.261	-151.363	141.141	-85.052	129.276	77.918	152.888	-122.722	-156.992	0.0008949	0.00075206	0.0001548	1393.1	3.4836e-06	6.8756e-06	1388.8	375.08	4.9242e-06	1.4106e-06	424.82	142.75	125.37	42.688	1.0058e-05	52.187	0.00052972	0.000512	0.00014243	1415	5.6833e-06	5.6476e-06	1410	381.96	5.5498e-06	5.6317e-06	434.99	146.15	126.97	43.814	5.5128e-06	54.044	-33.010	-105.450	-98.360	-157.361	8.281	-5.062	-157.546	-152.879	-66.196	182.014	-153.368	-149.095	-148.314	-143.728	-44.808	-144.706	-8191	255	
1042.618	1	1	0	0	0.25571	0.21216	0.37973	0.10926	0.14356	0.21847	0.086487	0.38392	0.14393	0.20224	0.25627	0.32667	0.30116	0.20468	0.018496	0.13905	-1.8	-1.0896	-2.1354	-1.7646	-1.4208	-2.35	-1.5646	-1.8062	-2.075	-1.4833	-2.1479	-1.5958	-1.325	-2.1292	-1.1229	-1.8375	23.971	187.619	157.810	169.653	181.577	-55.330	147.294	104.362	182.817	165.781	131.552	-152.839	-0.656	159.433	-106.998	114.431	0.00095757	0.00026835	3.4129e-05	1389.9	6.3038e-06	3.145e-06	1387.5	375.19	1.0224e-05	8.2223e-06	427.63	142.52	125.09	42.588	2.7585e-06	52.473	0.00053839	0.00050358	0.00014014	1411.8	5.5151e-06	5.5523e-06	1409.8	382.36	5.5512e-06	5.4529e-06	435.38	146.26	126.9	43.816	5.4642e-06	54.045	-27.724	-7.951	111.395	-157.460	-52.356	35.619	-157.688	-152.775	-64.846	8.910	-153.584	-149.184	-148.642	-143.974	-14.424	-144.674	-8191	255	
1042.714	1	1	0	0	0.38135	0.02131	0.24633	0.19352	0.16057	0.18241	0.26492	0.056776	0.29402	0.24292	0.42187	0.16212	0.17763	0.157	0.36852	0.073334	-1.5646	-1.0063	-1.8208	-1.7958	-1.2188	-2.2583	-1.5396	-1.7958	-1.9937	-1.1354	-1.9958	-1.7896	-1.2354	-2.2042	-1.3375	-1.6396	97.863	-30.410	-112.056	-152.099	-101.740	-102.250	102.186	-122.994	127.809	147.157	-160.210	170.398	-34.968	99.875	114.569	-144.058	0.0009082	0.00072539	0.00011319	1387.2	7.9664e-06	1.6725e-06	1386	374.41	6.1722e-06	6.0044e-06	427.46	142.78	124.95	42.625	6.4173e-06	52.205	0.00052306	0.0005046	0.00013643	1413.7	5.4658e-06	5.4295e-06	1408.7	381.57	5.4586e-06	5.4827e-06	436.13	146.14	126.84	43.77	5.4414e-06	53.967	-33.922	-99.965	-78.819	-157.534	-33.558	21.886	-157.717	-152.709	-31.071	-25.453	-153.596	-149.277	-148.506	-143.736	6.287	-144.634	-8191	255	
1042.809	1	1	0	0	0.31106	0.12237	0.066472	0.19057	0.079247	0.12969	0.26747	0.22727	0.103	0.17853	0.097685	0.13761	0.086941	0.36992	0.33042	0.23061	-1.8167	-1.2687	-1.7771	-2.0146	-1.125	-2.0583	-1.8854	-1.5542	-2.1792	-1.3021	-1.9667	-2.1292	-1.2	-2.2625	-1.5438	-1.4354	151.742	-104.248	0.502	137.639	176.698	-92.393	97.519	-160.407	159.407	157.358	-128.000	182.173	-121.188	-164.083	-154.000	142.912	0.00086725	0.00037051	9.9263e-05	1387.7	5.2269e-06	5.2221e-06	1390.1	375	5.0495e-06	6.0758e-06	429	143.38	125.4	42.558	8.9981e-06	52.321	0.00052233	0.00050615	0.00013819	1412.5	5.5034e-06	5.4782e-06	1409.5	381.99	5.5803e-06	5.4414e-06	436.72	146.16	126.66	43.767	5.4805e-06	54.005	-33.572	-12.364	-61.576	-157.521	-12.977	-73.669	-157.659	-152.856	-53.075	-49.468	-153.592	-149.098	-148.527	-143.816	-43.632	-144.684	-8191	255	
1042.905	1	1	0	0	0.12409	0.23245	0.11955	0.23428	0.33959	0.34771	0.33033	0.44449	0.14264	0.14213	0.29727	0.11187	0.11548	0.047215	0.28356	0.41578	-1.4708	-1.2083	-1.5583	-2.2188	-1.1063	-1.9937	-1.8375	-1.5125	-2.2687	-1.3687	-1.6229	-2.1208	-1.3021	-2.0958	-1.6292	-1.2625	-64.656	147.226	-108.878	145.098	-145.663	153.311	-166.284	187.883	-72.435	178.027	187.392	-21.211	-154.791	88.641	69.905	-142.705	0.00098109	0.00073252	0.00021514	1389.9	8.5985e-06	7.1087e-06	1382.9	374.92	1.1354e-05	6.6906e-06	427.78	143.33	124.17	42.446	3.4167e-06	52.656	0.00052566	0.00051036	0.00014031	1412	5.5441e-06	5.5864e-06	1408.2	382.35	5.5226e-06	5.6324e-06	435.73	146.34	126.48	43.7	5.5741e-06	54.118	-31.558	-47.055	-60.037	-157.496	-7.416	-18.464	-157.955	-152.760	-41.069	-17.135	-153.554	-149.044	-148.680	-143.774	-58.952	-144.596	-8191	255	
1043.001	1	1	0	0	0.18217	0.093769	0.17578	0.042014	0.14875	0.11593	0.22117	0.34492	0.075092	0.090561	0.070354	0.26543	0.078831	0.17992	0.38989	0.19827	-1.8062	-1.1625	-1.4417	-2.1792	-1.1292	-1.9208	-1.9188	-1.2375	-2.1271	-1.2812	-1.6542	-2.1292	-1.4167	-1.9646	-1.8625	-1.1146	-39.331	56.489	25.035	-146.218	83.980	181.953	131.921	116.362	132.599	-86.799	175.564	169.205	76.626	176.793	25.121	181.604	0.00097695	0.00036672	0.00024233	1385.3	4.0302e-06	6.7495e-06	1386.4	374.57	6.5745e-06	2.7259e-06	426.09	143.2	125.05	42.539	6.5837e-06	52.163	0.00052074	0.00050589	0.00014317	1411.2	5.6261e-06	5.5662e-06	1408.6	381.81	5.5761e-06	5.5566e-06	435.45	146.27	126.83	43.745	5.5561e-06	54.019	-36.387	-41.271	-108.885	-157.537	-72.403	-24.208	-157.679	-152.898	-67.162	-10.157	-153.511	-149.055	-148.833	-143.868	-40.174	-144.684	-8191	255	
#DATA ENDS
