BOXY.EXE: ISS Imagent and Oximeter Data Acquisition Program Version 0.80
Ascii Record File

#ACQ INFORMATION
2  Detector Channels 
16  External MUX Channels 
1  Auxiliary Channels 
5000  Waveform (CCF) Frequency (Hz)
1  Waveforms Skipped 
30  Waveforms Averaged 
1  Cycles Averaged 
16  Acquisitions per Waveform 
10.0806  Updata Rate (Hz) 

#FILE INFORMATION
TRUE -- External MUX Channel results are PARSED.
FALSE -- AC DC and Phase are NOT grouped.
TRUE -- Companion Program Settings File CREATED.
FALSE -- AC data not excluded
FALSE -- DC data not excluded
FALSE -- Phase data not excluded
FALSE -- Auxillary Chn. data not excluded
Tab delimiters

#CALIBRATION STATE
TRUE -- Waveform Calibration Values APPLIED.


#AUX CALIBRATION VALUES
Val Type	aux-1	

Term	1.0000e+00	
Factor	0.0000e+00	


#WF CALIBRATION VALUES
A = Detector Channel
Val Type	A-AC1	A-AC2	A-AC3	A-AC4	A-AC5	A-AC6	A-AC7	A-AC8	A-AC9	A-AC10	A-AC11	A-AC12	A-AC13	A-AC14	A-AC15	A-AC16	A-DC1	A-DC2	A-DC3	A-DC4	A-DC5	A-DC6	A-DC7	A-DC8	A-DC9	A-DC10	A-DC11	A-DC12	A-DC13	A-DC14	A-DC15	A-DC16	A-Ph1	A-Ph2	A-Ph3	A-Ph4	A-Ph5	A-Ph6	A-Ph7	A-Ph8	A-Ph9	A-Ph10	A-Ph11	A-Ph12	A-Ph13	A-Ph14	A-Ph15	A-Ph16	

Term	0.00000e+00	0.00000e+00	0.00000e+00	0.00000e+00	0.00000e+00	0.00000e+00	0.00000e+00	0.00000e+00	0.00000e+00	0.00000e+00	0.00000e+00	0.00000e+00	0.00000e+00	0.00000e+00	0.00000e+00	0.00000e+00	0.00000e+00	0.00000e+00	0.00000e+00	0.00000e+00	0.00000e+00	0.00000e+00	0.00000e+00	0.00000e+00	0.00000e+00	0.00000e+00	0.00000e+00	0.00000e+00	0.00000e+00	0.00000e+00	0.00000e+00	0.00000e+00	0.00000e+00	0.00000e+00	0.00000e+00	0.00000e+00	0.00000e+00	0.00000e+00	0.00000e+00	0.00000e+00	0.00000e+00	0.00000e+00	0.00000e+00	0.00000e+00	0.00000e+00	0.00000e+00	0.00000e+00	0.00000e+00	
Factor	1.00000e+00	1.00000e+00	1.00000e+00	1.00000e+00	1.00000e+00	1.00000e+00	1.00000e+00	1.00000e+00	1.00000e+00	1.00000e+00	1.00000e+00	1.00000e+00	1.00000e+00	1.00000e+00	1.00000e+00	1.00000e+00	1.00000e+00	1.00000e+00	1.00000e+00	1.00000e+00	1.00000e+00	1.00000e+00	1.00000e+00	1.00000e+00	1.00000e+00	1.00000e+00	1.00000e+00	1.00000e+00	1.00000e+00	1.00000e+00	1.00000e+00	1.00000e+00	X	X	X	X	X	X	X	X	X	X	X	X	X	X	X	X	

B = Detector Channel
Val Type	B-AC1	B-AC2	B-AC3	B-AC4	B-AC5	B-AC6	B-AC7	B-AC8	B-AC9	B-AC10	B-AC11	B-AC12	B-AC13	B-AC14	B-AC15	B-AC16	B-DC1	B-DC2	B-DC3	B-DC4	B-DC5	B-DC6	B-DC7	B-DC8	B-DC9	B-DC10	B-DC11	B-DC12	B-DC13	B-DC14	B-DC15	B-DC16	B-Ph1	B-Ph2	B-Ph3	B-Ph4	B-Ph5	B-Ph6	B-Ph7	B-Ph8	B-Ph9	B-Ph10	B-Ph11	B-Ph12	B-Ph13	B-Ph14	B-Ph15	B-Ph16	

Term	0.00000e+00	0.00000e+00	0.00000e+00	0.00000e+00	0.00000e+00	0.00000e+00	0.00000e+00	0.00000e+00	0.00000e+00	0.00000e+00	0.00000e+00	0.00000e+00	0.00000e+00	0.00000e+00	0.00000e+00	0.00000e+00	0.00000e+00	0.00000e+00	0.00000e+00	0.00000e+00	0.00000e+00	0.00000e+00	0.00000e+00	0.00000e+00	0.00000e+00	0.00000e+00	0.00000e+00	0.00000e+00	0.00000e+00	0.00000e+00	0.00000e+00	0.00000e+00	-1.67035e+02	-1.31813e+02	-1.18266e+02	-1.82254e+02	-6.73012e+01	-6.35805e+01	-1.58235e+02	-1.62015e+02	-8.21516e+01	-6.64069e+01	-1.73094e+02	-1.71848e+02	-1.81803e+02	-1.76217e+02	-6.66317e+01	-1.49574e+02	
Factor	2.60193e-05	1.31156e-04	3.55713e-05	1.77363e-01	1.14735e-06	1.42536e-06	1.59092e-01	4.36410e-02	1.28641e-06	1.31667e-06	9.75283e-02	2.78767e-02	2.36486e-02	8.18886e-03	1.35331e-06	1.16072e-02	5.50139e-06	6.60625e-06	1.84189e-06	9.54833e-02	7.04423e-08	7.31455e-08	8.05169e-02	2.35997e-02	6.98754e-08	7.28695e-08	5.07794e-02	1.45466e-02	1.29190e-02	4.45731e-03	7.13134e-08	6.10789e-03	X	X	X	X	X	X	X	X	X	X	X	X	X	X	X	X	



#DISTANCE SETTINGS
A = Detector Channel
A-1	A-2	A-3	A-4	A-5	A-6	A-7	A-8	A-9	A-10	A-11	A-12	A-13	A-14	A-15	A-16	

2.5000e+00	3.0000e+00	2.5000e+00	3.0000e+00	2.0000e+00	3.0000e+00	1.5000e+00	3.0000e+00	3.0000e+00	3.0000e+00	3.0000e+00	3.0000e+00	3.0000e+00	3.0000e+00	1.5000e+00	3.0000e+00	

B = Detector Channel
B-1	B-2	B-3	B-4	B-5	B-6	B-7	B-8	B-9	B-10	B-11	B-12	B-13	B-14	B-15	B-16	

1.0000e+01	1.0000e+01	1.0000e+01	1.4400e+00	1.0000e+01	1.0000e+01	1.5100e+00	1.9400e+00	1.0000e+01	1.0000e+01	1.9900e+00	2.4900e+00	2.4100e+00	2.9000e+00	1.0000e+01	2.9800e+00	




#DATA BEGINS
time	group	step	mark	flag	A-AC1	A-AC2	A-AC3	A-AC4	A-AC5	A-AC6	A-AC7	A-AC8	A-AC9	A-AC10	A-AC11	A-AC12	A-AC13	A-AC14	A-AC15	A-AC16	A-DC1	A-DC2	A-DC3	A-DC4	A-DC5	A-DC6	A-DC7	A-DC8	A-DC9	A-DC10	A-DC11	A-DC12	A-DC13	A-DC14	A-DC15	A-DC16	A-Ph1	A-Ph2	A-Ph3	A-Ph4	A-Ph5	A-Ph6	A-Ph7	A-Ph8	A-Ph9	A-Ph10	A-Ph11	A-Ph12	A-Ph13	A-Ph14	A-Ph15	A-Ph16	B-AC1	B-AC2	B-AC3	B-AC4	B-AC5	B-AC6	B-AC7	B-AC8	B-AC9	B-AC10	B-AC11	B-AC12	B-AC13	B-AC14	B-AC15	B-AC16	B-DC1	B-DC2	B-DC3	B-DC4	B-DC5	B-DC6	B-DC7	B-DC8	B-DC9	B-DC10	B-DC11	B-DC12	B-DC13	B-DC14	B-DC15	B-DC16	B-Ph1	B-Ph2	B-Ph3	B-Ph4	B-Ph5	B-Ph6	B-Ph7	B-Ph8	B-Ph9	B-Ph10	B-Ph11	B-Ph12	B-Ph13	B-Ph14	B-Ph15	B-Ph16	aux-1	digaux	

4187.065	1	1	0	256	0.21631	0.17567	0.043631	0.17555	0.062349	0.22441	0.30271	0.25039	0.29918	0.20263	0.082675	0.33152	0.33351	0.10991	0.15895	0.095637	-1.1313	-1.275	-1.775	-1.1958	-1.4104	-1.75	-1.0438	-1.7687	-1.5583	-0.96875	-1.8125	-1.2125	-1.4125	-1.8521	-0.94792	-1.9312	364.496	360.065	189.671	487.897	376.275	384.760	432.128	451.618	418.713	201.874	191.274	200.054	465.503	303.012	205.150	230.599	0.00042853	0.00028035	0.00013231	1088.2	3.6656e-06	4.4497e-06	1188.3	216.86	6.4528e-06	1.0982e-06	284.75	79.445	61.776	17.974	3.0706e-06	25.455	0.00055433	0.00058797	0.00016058	1074.8	6.3508e-06	6.3527e-06	1177.7	215.97	6.3968e-06	6.3853e-06	285.9	80.683	62.528	18.47	6.3876e-06	26.249	166.892	313.876	257.661	171.109	298.209	327.584	171.276	178.747	282.248	181.757	178.384	184.941	185.851	193.000	347.797	192.670	-8191	255	
4187.161	1	1	0	0	0.2098	0.11569	0.19776	0.28342	0.20649	0.085896	0.32248	0.26342	0.12004	0.17113	0.14171	0.049348	0.10405	0.069713	0.23015	0.12809	-1.1208	-1.1083	-1.8	-1.4958	-1.4813	-1.7542	-1.1854	-1.7062	-1.6729	-1.1417	-1.9167	-1.3583	-1.4375	-1.8667	-1.1792	-1.6458	174.914	296.821	488.413	489.065	249.665	226.983	421.905	190.858	516.223	209.651	475.298	166.929	471.377	210.483	399.653	467.635	0.00037973	0.00027972	4.8963e-05	1084.5	3.493e-06	3.0577e-06	1181.7	216.85	4.1612e-06	4.9545e-06	284.96	79.173	61.471	18.097	4.8713e-06	25.43	0.00054876	0.00058619	0.0001614	1072.3	6.2906e-06	6.4402e-06	1172.8	215.62	6.2129e-06	6.2698e-06	285.54	80.299	62.332	18.524	6.2295e-06	26.109	164.367	257.453	256.014	171.374	300.171	326.350	171.210	179.013	261.622	303.897	178.405	184.863	185.300	192.979	279.548	192.466	-8191	255	
4187.255	1	1	0	0	0.094762	0.12955	0.21791	0.072932	0.27783	0.21074	0.2369	0.13263	0.17558	0.20941	0.0095189	0.13081	0.17292	0.075178	0.10407	0.23869	-1.4688	-0.90625	-1.8333	-1.3792	-1.1625	-1.9896	-1.1938	-1.5125	-1.6479	-0.85833	-2.0979	-1.4458	-1.1	-1.9208	-1.0104	-1.5146	519.278	407.134	356.824	391.608	456.313	241.749	410.203	182.423	402.155	505.729	232.100	427.761	182.069	226.750	170.611	315.164	0.00036198	0.00035618	9.2409e-05	1084	3.2431e-06	4.5117e-06	1184	216.51	6.8805e-06	2.2479e-06	283.69	79.721	61.699	17.926	5.7677e-06	25.464	0.00054771	0.00059093	0.00016091	1074.8	6.2768e-06	6.4661e-06	1174.4	215.71	6.3622e-06	6.472e-06	284.8	80.695	62.442	18.485	6.2166e-06	26.107	165.454	223.471	226.793	171.310	323.848	329.169	170.944	178.940	240.283	407.333	178.503	184.814	185.204	193.255	311.888	192.451	-8191	255	
4187.327	1	1	0	0	0.20493	0.10241	0.20707	0.23486	0.13198	0.06347	0.14391	0.10924	0.26803	0.19284	0.281	0.36953	0.14965	0.23664	0.17145	0.3789	-1.3188	-0.81458	-1.9271	-1.6229	-0.99375	-1.9021	-1.4417	-1.4083	-1.8125	-1.0583	-1.8521	-1.6396	-1.4042	-1.8687	-1.35	-1.2667	478.285	390.509	206.298	185.232	201.596	181.836	482.613	196.217	169.909	424.069	377.068	505.990	428.424	485.225	359.011	277.853	0.00039887	0.00053861	7.8447e-05	1077.5	3.3013e-06	3.4602e-06	1175.5	216.1	1.9714e-06	5.2089e-06	283.82	79.923	62.331	18.061	4.2193e-06	25.586	0.00053781	0.00057001	0.00015796	1070.9	6.3885e-06	6.316e-06	1172.8	215.72	6.2649e-06	6.4245e-06	285.19	80.713	62.541	18.502	6.2135e-06	26.245	511.116	216.566	257.172	171.292	272.073	247.305	171.492	179.257	247.159	344.239	178.678	185.188	185.696	193.156	277.883	192.613	-8191	255	
4187.448	1	1	0	0	0.13595	0.13913	0.063621	0.29941	0.077649	0.19589	0.21835	0.053943	0.26053	0.1137	0.18554	0.15725	0.056422	0.12533	0.14963	0.20497	-1.4604	-1.0812	-1.6083	-1.8208	-1.3625	-1.7687	-1.4417	-1.125	-1.9375	-1.175	-1.8333	-1.6104	-1.1042	-1.9979	-1.3125	-1.3729	293.755	395.734	515.827	421.738	285.872	239.049	432.078	190.898	206.860	218.443	517.780	454.088	341.586	406.528	302.212	253.970	0.00043013	0.00012685	8.1325e-06	1082.9	6.9055e-07	1.7797e-06	1183.7	217.92	6.7744e-06	3.7954e-06	283.58	79.972	61.355	18.068	3.9811e-06	25.367	0.00055149	0.00057249	0.00015864	1072.5	6.2553e-06	6.2577e-06	1174.9	216.36	6.1307e-06	6.5197e-06	284.95	80.631	62.325	18.536	6.4377e-06	26.206	518.434	206.120	227.296	171.337	351.297	270.020	171.536	179.027	328.653	218.214	178.830	184.760	185.428	193.081	269.630	192.467	-8191	255	
4187.544	1	1	0	0	0.26039	0.12607	0.19079	0.19748	0.072706	0.28018	0.1927	0.18937	0.055666	0.37685	0.4257	0.3819	0.24939	0.062422	0.26089	0.16583	-1.5354	-1.05	-1.6354	-1.7792	-1.0458	-1.9083	-1.6958	-1.2542	-2.1333	-1.2667	-1.4542	-1.8833	-1.1917	-1.7083	-1.6938	-1.1208	331.415	504.217	163.130	498.995	402.704	354.978	177.854	172.629	201.906	229.425	406.806	482.527	234.853	471.294	378.075	332.528	0.0003972	0.00017378	5.8012e-05	1081.1	2.9075e-06	3.0786e-07	1183.7	216.18	9.5166e-07	4.6377e-06	283.72	79.946	61.508	18.116	2.537e-06	25.593	0.00054316	0.00057897	0.00015508	1071.2	6.219e-06	6.3249e-06	1175	215.77	6.0797e-06	6.2827e-06	284.8	80.447	62.4	18.522	6.2624e-06	26.227	169.196	437.297	303.549	171.522	294.281	217.407	171.420	179.210	296.044	356.889	178.605	184.828	185.507	193.275	295.661	192.119	-8191	255	
4187.640	1	1	0	0	0.15088	0.13183	0.20257	0.20097	0.11663	0.15474	0.25155	0.36346	0.14676	0.064247	0.31508	0.091077	0.18537	0.26592	0.22873	0.25708	-1.55	-1.2104	-1.2854	-1.9729	-1.0958	-1.6354	-1.9792	-1.2437	-1.8854	-1.3625	-1.4208	-1.9292	-1.3646	-1.8062	-1.9042	-1.1979	295.784	186.565	325.409	430.652	259.817	464.179	440.760	439.080	205.729	381.316	315.285	481.241	221.351	417.776	389.662	456.675	0.00041146	0.00041836	0.0001701	1081.6	1.8794e-06	2.3424e-06	1180.9	215.46	3.8221e-06	7.9251e-08	282.31	80.086	61.701	18.134	2.8285e-06	25.345	0.0005359	0.00057004	0.00016021	1071.8	6.3225e-06	6.3644e-06	1174.1	215.98	6.2332e-06	6.1537e-06	284	80.491	62.387	18.537	6.1125e-06	26.149	511.862	247.045	216.721	171.260	281.095	270.579	171.481	179.070	302.018	413.396	179.123	185.289	185.622	193.397	210.120	192.830	-8191	255	
4187.736	1	1	0	0	0.13887	0.19534	0.14032	0.1933	0.16287	0.24534	0.30179	0.084632	0.053343	0.28381	0.065455	0.1651	0.078473	0.26093	0.24163	0.37542	-1.55	-1.3708	-1.1458	-2.0271	-1.1104	-1.7938	-1.8729	-1.0917	-1.8458	-1.3479	-1.2875	-1.8854	-1.1812	-1.5312	-1.8146	-1.2167	356.658	452.444	320.986	509.665	174.124	416.221	388.601	506.435	327.632	179.429	428.609	174.780	329.833	430.041	505.796	471.497	0.00037485	0.00011894	5.9189e-05	1080.4	1.9955e-06	2.5586e-06	1181.2	215.5	5.581e-06	3.9985e-06	286.01	79.613	61.651	18.016	5.809e-06	25.296	0.0005528	0.00058588	0.00016233	1071.3	6.3909e-06	6.5765e-06	1174.5	215.8	6.1854e-06	6.4241e-06	285.68	80.544	62.456	18.517	6.4118e-06	26.116	514.846	297.830	173.533	171.447	375.836	294.845	171.400	178.954	233.979	298.730	178.512	185.525	186.192	193.406	359.862	192.488	-8191	255	
4187.857	1	1	0	0	0.040005	0.13064	0.14472	0.14491	0.10122	0.13318	0.23444	0.22154	0.16222	0.36784	0.073082	0.35399	0.29408	0.10965	0.21082	0.16177	-1.5771	-1.6375	-1.2167	-1.9813	-1.1812	-1.4	-2.2104	-1.0396	-1.775	-1.575	-1.3896	-1.9625	-1.3167	-1.6146	-1.9167	-1.1083	421.818	445.383	484.572	500.250	503.010	256.865	165.230	418.189	458.647	449.684	431.955	205.585	446.631	221.140	486.326	318.964	0.00041527	0.00037997	0.00016458	1078.9	4.1719e-06	1.7466e-06	1186.1	216.48	6.2905e-06	2.3416e-06	284.25	80.325	61.557	17.968	2.1896e-06	25.4	0.00055399	0.00060261	0.00016291	1072.1	6.5297e-06	6.5907e-06	1174.4	216.18	6.4818e-06	6.7432e-06	284.58	80.685	62.445	18.542	6.4549e-06	26.146	510.457	252.791	323.648	171.919	276.843	343.126	171.495	178.957	270.803	377.812	178.976	185.148	185.921	193.531	302.304	192.902	-8191	255	
4187.928	1	1	0	0	0.29885	0.14427	0.13693	0.18119	0.035553	0.19024	0.051688	0.037786	0.20238	0.11555	0.11203	0.056967	0.22444	0.21357	0.071168	0.17098	-1.4458	-1.7271	-0.97708	-2.1	-1.3458	-1.3042	-2.0042	-1.0833	-1.7938	-1.7354	-1.0583	-1.9854	-1.4521	-1.1604	-1.9542	-1.3396	377.069	516.543	251.167	174.830	469.268	268.706	193.799	168.037	269.180	350.389	465.617	443.870	480.316	205.878	490.178	186.842	0.00048442	0.00025682	0.00016116	1084.4	4.5132e-06	5.8249e-06	1183.3	217.11	4.1803e-06	2.9007e-06	284.94	79.895	61.861	18.076	3.745e-06	25.253	0.00055987	0.00060868	0.00017118	1073.6	6.7418e-06	6.7634e-06	1175	216.57	6.5495e-06	6.7609e-06	285.58	80.727	62.49	18.562	6.5577e-06	26.197	514.927	291.851	251.480	171.722	284.986	338.821	171.574	179.264	268.021	296.325	177.959	184.402	184.804	192.591	291.307	191.925	-8191	255	
4188.025	1	1	0	0	0.153	0.23898	0.050768	0.036161	0.10555	0.15236	0.16287	0.16967	0.17021	0.062924	0.14315	0.083577	0.226	0.059688	0.029182	0.080473	-1.1646	-1.775	-1.0479	-1.8021	-1.2812	-1.15	-2.025	-1.1917	-1.5042	-1.8729	-1.0812	-1.6688	-1.5771	-1.0271	-1.8354	-1.4062	341.196	208.390	301.795	225.607	484.503	297.535	475.922	383.820	247.902	322.403	424.785	473.271	431.474	431.318	499.349	264.640	0.00047867	0.00050794	6.4104e-05	1089.7	5.3699e-06	3.5439e-06	1193.9	217.11	4.4862e-06	3.0058e-06	284.02	80.488	61.641	18.029	4.5241e-06	25.406	0.0005736	0.00062397	0.00017088	1078.1	6.8163e-06	6.7582e-06	1181.5	216.99	6.7604e-06	6.9308e-06	286.05	81.237	62.694	18.608	6.9883e-06	26.285	520.382	288.236	269.076	170.736	329.734	168.402	170.838	178.373	237.468	329.646	177.576	184.301	184.756	192.804	275.857	191.816	-8191	255	
4188.145	1	1	0	0	0.19117	0.25834	0.29811	0.33811	0.07793	0.054109	0.28023	0.27769	0.040615	0.058946	0.1578	0.11095	0.31627	0.12614	0.31382	0.21682	-1.0354	-1.7646	-1.1229	-1.9104	-1.5063	-1.0063	-2.2375	-1.5604	-1.3188	-1.775	-1.1458	-1.7062	-1.6354	-1.1646	-1.9333	-1.475	379.820	216.567	218.799	495.230	284.199	401.906	475.907	412.679	301.035	281.921	487.524	509.396	432.092	224.709	446.381	348.132	0.00040752	0.00032385	0.0001153	1095.7	2.6185e-06	9.5107e-06	1194.3	217.81	1.6593e-06	2.0651e-06	286.23	80.456	62.124	18.202	6.2673e-06	25.625	0.00059934	0.00063329	0.00017816	1084	6.8931e-06	7.1763e-06	1186.5	217.68	6.9198e-06	7.0653e-06	288.09	81.475	63.096	18.768	7.014e-06	26.472	515.123	211.071	215.628	170.961	271.797	296.419	170.957	178.300	496.288	297.024	177.791	184.511	185.007	192.693	335.041	191.786	-8191	255	
4188.240	1	1	0	0	0.13736	0.11251	0.22872	0.2688	0.36261	0.28543	0.31867	0.11915	0.23215	0.12228	0.3582	0.11434	0.043137	0.16508	0.10211	0.30039	-0.875	-1.9479	-1.0312	-1.6583	-1.6688	-0.92708	-1.9562	-1.4208	-1.2542	-1.7771	-1.2313	-1.5812	-1.8625	-1.2479	-1.9771	-1.6688	241.119	415.812	483.281	509.942	188.998	160.613	449.486	322.215	399.093	499.754	424.797	243.825	388.290	496.932	379.491	502.132	0.00044412	0.00036974	0.00013456	1100.4	4.8339e-06	1.1397e-06	1198.5	219.24	3.952e-06	5.1806e-06	286.77	81.127	62.432	18.232	7.4325e-06	25.73	0.00060588	0.00066053	0.00018204	1089.7	7.0799e-06	7.265e-06	1191.3	219.06	6.953e-06	7.1977e-06	289.18	81.989	63.355	18.852	6.8055e-06	26.543	160.625	255.664	296.715	170.762	283.877	268.018	170.945	178.477	284.935	308.252	178.079	184.421	184.649	192.591	325.829	191.817	-8191	255	
4188.336	1	1	0	0	0.29248	0.20691	0.11512	0.38939	0.22751	0.28455	0.044842	0.17339	0.22808	0.14075	0.097947	0.14088	0.19445	0.14563	0.076095	0.17447	-0.64375	-1.8417	-1.1854	-1.725	-1.8521	-1.3188	-1.9646	-1.5812	-1.2542	-1.9688	-1.3458	-1.5917	-1.8125	-1.1479	-1.7479	-1.7021	241.417	264.720	167.620	493.573	162.291	233.651	232.863	367.548	345.381	412.046	291.462	276.016	173.625	459.916	447.132	455.726	0.00037108	0.00063535	0.0001003	1103.2	1.9091e-07	2.4709e-06	1208.6	219.83	4.5332e-06	2.163e-06	288.38	81.487	63.101	18.481	1.0345e-06	25.7	0.0006157	0.0006421	0.00018446	1092.1	7.3297e-06	7.2742e-06	1197.5	220.17	7.2395e-06	7.2739e-06	290.31	82.44	63.769	18.996	7.2982e-06	26.72	161.759	246.713	293.440	171.177	437.042	365.990	170.733	178.130	238.073	284.247	178.319	184.492	184.516	192.886	278.946	191.842	-8191	255	
4188.432	1	1	0	0	0.064368	0.14489	0.06961	0.059138	0.18108	0.10763	0.040525	0.15386	0.29334	0.18608	0.45265	0.17891	0.14406	0.1873	0.33518	0.41887	-0.70417	-2.1292	-1.3146	-1.4042	-1.9771	-1.1729	-2.0229	-1.7604	-1.0417	-1.9708	-1.5333	-1.35	-2.0396	-1.1646	-1.5646	-1.7958	466.635	470.775	274.682	424.665	488.955	242.787	373.514	460.250	394.589	327.853	208.331	427.617	431.406	460.976	503.277	378.894	0.00046355	0.00041742	8.7753e-05	1110.2	3.0552e-06	3.7304e-06	1210.2	220.14	7.0571e-06	1.8163e-06	290.46	81.242	63.071	18.354	7.338e-06	26.061	0.00062952	0.00067826	0.00018983	1097.9	7.3699e-06	7.6301e-06	1203.1	221.03	7.6195e-06	7.6187e-06	293	82.386	64.162	18.99	7.8477e-06	26.858	516.067	198.758	236.422	171.142	303.316	309.242	171.019	177.989	286.122	203.233	178.047	184.467	184.821	192.883	300.078	191.854	-8191	255	
4188.528	1	1	0	0	0.1206	0.078886	0.135	0.030233	0.10623	0.26346	0.40466	0.19489	0.38615	0.33028	0.44775	0.17569	0.22553	0.18886	0.085002	0.46925	-0.58125	-1.95	-1.4042	-1.3062	-1.7833	-1.2708	-1.7771	-1.8125	-1.0917	-1.8312	-1.6146	-1.4479	-1.9458	-1.1646	-1.4771	-1.9854	358.580	357.367	412.636	387.823	307.808	354.932	465.598	465.271	310.443	237.764	414.436	350.635	180.775	436.495	518.125	453.417	0.00041375	0.00018253	0.00011154	1115.4	4.1675e-06	4.0311e-06	1225.2	223.46	3.4053e-06	5.4109e-06	293.28	82.055	63.414	18.498	2.3976e-06	26.004	0.00069034	0.00075321	0.00021035	1106.7	8.3279e-06	8.4701e-06	1214.4	224.11	8.0178e-06	8.2974e-06	295.35	83.164	64.459	19.146	7.8186e-06	26.924	519.808	225.766	226.686	170.879	239.934	369.360	170.736	178.226	287.665	375.275	178.083	184.889	185.080	192.588	215.738	191.623	-8191	255	
4188.624	1	1	0	0	0.16795	0.16881	0.083111	0.022559	0.35026	0.080925	0.22547	0.15791	0.21028	0.14481	0.1795	0.27225	0.3139	0.041877	0.2674	0.17826	-0.70417	-1.8146	-1.6187	-1.2167	-1.9	-1.3083	-1.5688	-2.0687	-1.125	-1.8125	-1.8021	-1.15	-1.9958	-1.3813	-1.4979	-2.1	397.539	258.254	490.304	207.063	300.389	222.330	428.051	457.838	343.931	450.266	363.066	362.026	494.998	325.364	423.275	308.018	0.00043327	0.00042083	9.4014e-05	1121.2	3.814e-06	5.0942e-06	1225	223.08	3.61e-06	5.4235e-06	293.78	81.153	63.63	18.645	1.3158e-06	25.951	0.00066445	0.00071021	0.00019337	1112.1	7.6151e-06	7.7236e-06	1214	224.09	7.313e-06	7.632e-06	294.62	82.888	64.324	19.201	7.4173e-06	27.011	517.730	272.189	285.792	171.170	325.613	349.172	170.801	178.338	284.767	292.599	178.171	184.292	185.083	192.268	294.229	191.378	-8191	255	
4188.745	1	1	0	0	0.037414	0.14944	0.11506	0.034713	0.13943	0.11093	0.37993	0.31677	0.25353	0.11343	0.244	0.26752	0.22084	0.07011	0.2287	0.1551	-0.75	-1.4042	-1.5792	-1.0812	-1.9083	-1.375	-1.4083	-2.0687	-1.1854	-1.6083	-1.8917	-1.0333	-1.8917	-1.4792	-1.2875	-2.0729	163.118	248.584	384.797	420.542	172.070	431.537	443.785	462.589	295.128	269.951	486.048	191.556	496.276	303.393	364.895	440.984	0.00044005	0.00021041	0.0001337	1123.3	1.5434e-06	4.9898e-06	1221	224.03	3.0459e-06	2.2073e-06	293.7	82.104	64.058	18.584	4.7585e-07	26.136	0.00064685	0.0006855	0.00019461	1112.2	7.4243e-06	7.76e-06	1213.8	224.33	7.5768e-06	7.4318e-06	294.44	83.294	64.432	19.177	7.506e-06	27.035	161.866	502.374	272.816	170.875	305.706	322.609	171.020	178.178	293.517	399.096	178.028	184.743	184.970	192.405	190.271	191.869	-8191	255	
4188.841	1	1	0	0	0.12274	0.063368	0.053769	0.10005	0.18219	0.18169	0.21712	0.15004	0.078166	0.055624	0.16006	0.048934	0.21481	0.49195	0.14727	0.31328	-0.71458	-1.6875	-1.8458	-1.2104	-1.9104	-1.6667	-1.2354	-2.0729	-1.3062	-1.4854	-1.9417	-1.15	-1.8937	-1.6729	-1.0875	-2.05	471.425	348.545	180.470	507.942	513.537	516.758	477.344	407.031	420.473	497.225	423.627	162.848	261.655	166.949	266.992	388.203	0.00044616	0.000413	7.6944e-05	1117.7	1.9527e-06	3.1579e-06	1227.3	224.75	3.9081e-06	3.2408e-06	291.44	81.726	63.654	18.588	8.2403e-06	25.987	0.00064375	0.0006992	0.00019469	1109.1	7.6675e-06	8.0404e-06	1215.9	224.83	7.8343e-06	7.8241e-06	294.47	83.221	64.757	19.147	8.1487e-06	26.993	520.394	227.581	209.122	170.788	298.913	376.606	170.905	178.394	310.733	390.997	178.113	184.148	185.005	192.113	281.947	191.983	-8191	255	
4188.937	1	1	0	0	0.23783	0.10124	0.15122	0.2931	0.2183	0.2877	0.13765	0.29428	0.13643	0.33284	0.15628	0.11834	0.074122	0.43451	0.16402	0.087501	-0.775	-1.35	-1.7646	-1.325	-1.7958	-1.6646	-1.4104	-2.2562	-1.3229	-1.3229	-1.8771	-1.0688	-1.575	-1.7458	-1.1583	-1.9021	165.150	414.973	440.697	481.630	374.946	346.753	484.520	422.915	465.304	408.201	476.818	363.259	478.961	485.347	293.849	195.622	0.00037773	0.00033811	5.5158e-05	1119.1	3.8131e-06	4.0236e-06	1221.6	224.55	6.2147e-06	4.27e-06	292.44	82.546	63.86	18.793	5.4442e-06	25.922	0.00070017	0.0007502	0.00020236	1112.1	7.83e-06	8.0158e-06	1217	225.19	7.7632e-06	8.0166e-06	295.79	83.328	64.903	19.28	7.8614e-06	26.97	517.242	275.897	475.041	170.931	248.967	398.819	171.086	178.194	321.516	284.372	178.016	184.761	185.262	192.357	325.533	192.290	-8191	255	
4189.033	1	1	0	0	0.094646	0.15263	0.092392	0.25925	0.16676	0.30241	0.1384	0.21473	0.10878	0.37676	0.037387	0.097635	0.19796	0.18768	0.02734	0.02328	-1.0896	-1.2021	-1.7625	-1.2188	-1.7	-1.8271	-1.2208	-1.9958	-1.3271	-1.3854	-2.0187	-1.2917	-1.7604	-1.9417	-1.05	-1.8375	421.958	208.653	241.665	175.318	194.532	406.938	498.326	428.141	321.117	234.181	479.958	464.723	392.894	256.743	379.229	393.414	0.00033556	0.00012012	6.383e-05	1121.3	3.3025e-06	5.6217e-06	1229.1	223.73	4.8371e-06	1.7847e-06	293.24	82.188	63.808	18.597	3.5938e-06	26.13	0.00065754	0.0007286	0.00020131	1113.1	7.8709e-06	8.0469e-06	1218.6	225.14	7.9108e-06	8.1444e-06	296.6	83.361	64.707	19.224	7.8837e-06	27.037	163.309	277.533	320.152	171.092	302.021	272.159	170.928	178.344	261.398	421.027	178.146	184.739	184.921	192.319	303.610	191.744	-8191	255	
4189.152	1	1	0	0	0.28113	0.26897	0.13367	0.30601	0.051534	0.17835	0.26472	0.30029	0.1013	0.12393	0.0071409	0.2424	0.064587	0.12056	0.032951	0.2355	-1.075	-1.1875	-2.0021	-1.3833	-1.4	-1.6521	-1.2771	-1.925	-1.5938	-1.2167	-2.0021	-1.2687	-1.2854	-1.9562	-0.99792	-1.8833	169.981	226.151	331.178	200.531	191.017	452.824	505.156	495.806	359.599	230.781	380.430	430.248	203.100	188.590	244.361	314.812	0.0004371	0.00020144	0.00010559	1123.7	4.2209e-06	4.5171e-06	1221.3	224.63	4.06e-06	1.9641e-06	294.21	81.721	64.068	18.657	1.0649e-06	26.138	0.00069136	0.00073658	0.00020448	1112.8	7.8713e-06	8.1726e-06	1215.1	225.13	7.8186e-06	8.1594e-06	295.67	83.132	64.746	19.229	8.1305e-06	27.011	162.301	213.993	263.453	171.021	362.963	331.767	170.823	178.348	309.207	247.415	178.118	184.525	185.057	192.758	237.002	191.950	-8191	255	
4189.224	1	1	0	0	0.14801	0.13766	0.09034	0.11848	0.12814	0.16378	0.14336	0.10479	0.34701	0.11404	0.10444	0.15624	0.15371	0.27947	0.058022	0.15952	-1.2812	-0.90208	-1.9312	-1.3667	-1.2208	-1.85	-1.25	-1.8542	-1.7313	-1.0396	-2.0396	-1.4729	-1.375	-1.8729	-1.1229	-1.5667	493.287	272.475	515.409	468.967	178.125	497.176	413.994	441.176	455.366	238.739	448.654	171.222	254.492	303.933	262.916	305.416	0.00042747	0.00037434	0.00011144	1120.4	5.8548e-06	5.043e-06	1223.2	224.68	2.6209e-06	2.6535e-06	293.53	82.37	63.529	18.779	6.3308e-06	26.023	0.00068617	0.00073623	0.00020669	1108.5	7.9948e-06	7.9386e-06	1215.6	224.96	7.9461e-06	8.2573e-06	295.58	83.368	64.665	19.261	8.0207e-06	27.064	162.824	276.515	286.992	170.733	275.094	356.848	170.688	178.143	306.952	300.914	178.117	184.344	185.203	192.390	262.163	192.080	-8191	255	
4189.320	1	1	0	0	0.37517	0.22046	0.19212	0.38525	0.033502	0.25427	0.13774	0.23282	0.27071	0.29345	0.31931	0.31944	0.21177	0.061429	0.099435	0.31637	-1.2354	-1.0521	-1.7583	-1.6583	-1.2146	-1.9167	-1.2479	-1.6688	-1.9354	-1.1292	-1.9708	-1.5771	-1.1875	-1.9729	-1.1896	-1.5146	408.737	369.521	182.442	435.745	387.544	455.144	456.663	505.529	506.152	351.462	417.189	462.695	182.677	519.066	357.622	392.707	0.00038979	0.00023424	0.00013216	1117.7	2.1946e-06	4.8356e-06	1222.3	224.31	6.2125e-06	6.149e-06	295.46	82.047	63.626	18.71	1.4902e-06	26.359	0.00067851	0.00074567	0.0002071	1111.7	8.0379e-06	8.3285e-06	1215.1	224.92	8.0772e-06	8.4811e-06	296.34	83.342	64.64	19.253	8.5111e-06	27.084	513.584	331.754	233.203	170.851	286.397	275.498	170.805	178.551	242.977	386.128	178.206	184.743	184.919	192.869	347.989	191.858	-8191	255	
4189.416	1	1	0	0	0.18488	0.20536	0.2133	0.15562	0.14012	0.17842	0.32096	0.2002	0.35464	0.13209	0.24272	0.22384	0.18048	0.047186	0.096616	0.038637	-1.3521	-1.0875	-1.8083	-1.8062	-1.1271	-1.8958	-1.4417	-1.4375	-1.8271	-1.0229	-1.9271	-1.6	-1.2042	-1.9271	-1.4125	-1.4229	449.699	177.966	302.002	426.000	512.785	354.214	425.830	508.241	481.591	511.570	183.952	355.312	232.773	269.280	336.535	313.169	0.00038812	0.00060853	3.9943e-05	1122	5.7235e-06	2.9389e-06	1220.4	224.08	2.5729e-06	1.6927e-06	292.46	82.115	63.942	18.686	5.5964e-06	26.194	0.00069436	0.000776	0.00021478	1113.1	8.2642e-06	8.3497e-06	1215.7	224.94	8.1722e-06	8.3915e-06	295.45	83.272	64.887	19.254	8.3227e-06	27.082	520.416	281.370	346.187	170.874	294.283	464.374	170.780	178.537	267.903	362.497	178.199	184.440	184.614	192.707	358.952	192.076	-8191	255	
4189.537	1	1	0	0	0.23841	0.53627	0.07064	0.22426	0.15575	0.38982	0.24425	0.062699	0.15048	0.20938	0.29162	0.13085	0.19426	0.15481	0.093055	0.31451	-1.4271	-1.0771	-1.6625	-1.8833	-0.99167	-1.9167	-1.575	-1.3896	-1.9958	-1.1437	-1.6792	-1.8521	-1.1021	-2.0708	-1.4104	-1.3125	320.829	479.321	382.046	474.897	219.863	340.837	414.659	167.964	455.739	196.279	187.548	491.919	200.404	367.457	322.454	364.365	0.00047596	0.00014849	8.5975e-05	1124.7	1.3359e-06	6.2888e-06	1224.6	225.83	1.6981e-06	9.2035e-07	292.45	82.032	63.741	18.736	5.4741e-06	26.101	0.00069838	0.00076434	0.0002097	1114.4	8.2928e-06	8.323e-06	1218.2	225.76	8.1968e-06	8.4091e-06	296.1	83.505	64.652	19.233	8.2927e-06	27.036	161.057	388.086	292.969	170.971	340.958	365.170	170.733	178.241	239.679	425.381	177.859	184.327	184.932	192.565	324.377	191.341	-8191	255	
4189.633	1	1	0	0	0.11169	0.24941	0.21871	0.19196	0.25723	0.1019	0.26207	0.18437	0.17205	0.1627	0.10041	0.27028	0.16633	0.19764	0.17797	0.3147	-1.575	-1.3917	-1.5854	-1.9813	-1.2354	-1.825	-1.5771	-1.3062	-1.8896	-1.2958	-1.5042	-1.9146	-1.1688	-1.775	-1.5187	-1.0167	415.819	490.426	401.274	488.858	192.634	485.140	469.267	176.976	269.644	477.295	266.911	194.948	482.107	177.805	432.437	512.477	0.00042925	0.00032339	8.6142e-05	1123	4.9213e-06	4.2545e-06	1225.4	224.12	3.6908e-06	5.7742e-06	295.14	82.317	63.944	18.622	2.0495e-06	25.96	0.00069718	0.00076233	0.00021146	1113.4	8.1544e-06	8.1481e-06	1217.6	224.84	8.1007e-06	8.3088e-06	295.62	83.403	64.872	19.222	8.1936e-06	27.069	167.915	202.879	290.752	170.945	310.606	341.747	171.041	178.682	313.101	329.254	178.102	184.462	184.790	192.647	272.079	192.237	-8191	255	
4189.729	1	1	0	0	0.11378	0.14386	0.29407	0.069162	0.10062	0.23433	0.019694	0.14186	0.15767	0.028167	0.088552	0.075533	0.17296	0.17602	0.15551	0.12634	-1.5958	-1.2604	-1.3563	-1.9479	-1.3208	-1.75	-1.6938	-1.25	-1.925	-1.4042	-1.5271	-1.9312	-1.1812	-1.7542	-1.6688	-1.1583	220.555	395.238	444.393	215.398	433.778	381.732	393.450	170.280	460.921	277.016	253.462	402.969	469.786	344.514	516.236	499.118	0.00042259	0.0002828	0.00010477	1121.4	5.1712e-06	1.7059e-06	1221.4	225.83	2.4235e-06	4.3227e-06	292.69	82.245	63.742	18.612	4.7137e-06	26.12	0.00068669	0.0007577	0.00021043	1114.4	8.2366e-06	8.3578e-06	1217	225.35	8.1345e-06	8.5465e-06	295.53	83.333	64.844	19.2	8.212e-06	27.113	161.084	382.385	274.819	170.907	263.198	357.254	170.963	178.299	226.840	358.223	178.064	184.625	184.946	192.295	316.442	191.929	-8191	255	
4189.825	1	1	0	0	0.19556	0.052112	0.18464	0.20764	0.081651	0.23205	0.37727	0.19755	0.1332	0.30848	0.1786	0.1765	0.10415	0.30569	0.057274	0.15094	-1.525	-1.3396	-1.1354	-2.0083	-1.15	-1.375	-1.8937	-1.0292	-1.9833	-1.5271	-1.2271	-1.9688	-1.1229	-1.6375	-1.8583	-1.1458	494.219	345.335	215.338	485.856	319.680	335.632	507.148	450.908	472.011	355.095	212.490	504.290	172.298	471.584	236.039	227.138	0.00047592	0.00014954	7.8181e-05	1124.4	2.3879e-06	3.3424e-06	1226.8	225.37	4.2958e-06	3.1595e-06	292.63	82.079	63.968	18.623	2.3069e-06	25.924	0.00067849	0.00075538	0.000207	1114.5	8.2589e-06	8.1536e-06	1220.1	225.36	8.182e-06	8.383e-06	295.53	83.373	64.703	19.283	8.1623e-06	26.991	168.609	237.332	297.330	171.232	402.356	265.430	170.891	178.392	283.558	341.203	178.229	184.450	184.969	192.917	377.967	192.348	-8191	255	
4189.921	1	1	0	0	0.1315	0.21358	0.17981	0.32038	0.12601	0.22422	0.016051	0.56775	0.054481	0.2143	0.096036	0.067523	0.17371	0.11256	0.1329	0.30183	-1.3708	-1.5688	-1.2062	-2.2167	-1.3292	-1.6146	-2.1813	-1.1083	-1.8979	-1.5167	-1.2229	-2.0521	-1.3354	-1.5396	-2.025	-1.2687	308.745	373.444	484.490	453.946	509.904	407.583	495.847	510.928	440.458	208.963	179.487	336.597	422.321	487.352	369.775	200.864	0.00043472	0.00032455	5.763e-05	1118.7	3.884e-06	2.7732e-06	1227.4	225.07	1.347e-06	3.2249e-06	295.35	82.344	63.443	18.633	5.2775e-06	25.988	0.00068295	0.00074238	0.00020807	1113.1	8.2178e-06	8.3528e-06	1218.3	225.13	7.962e-06	8.2648e-06	296.65	83.622	64.616	19.232	7.9899e-06	27.036	512.932	266.376	233.081	170.988	299.720	317.316	170.895	178.579	165.381	250.899	178.320	184.403	185.255	192.516	247.219	192.197	-8191	255	
4190.017	1	1	0	0	0.080779	0.15007	0.18579	0.17365	0.23222	0.086573	0.26193	0.18899	0.23243	0.1552	0.13631	0.262	0.11584	0.10999	0.12162	0.24092	-1.5229	-1.7333	-0.9	-1.8625	-1.3458	-1.2771	-2.1104	-1.2854	-1.6688	-1.6229	-1.2417	-1.8563	-1.4646	-1.0958	-1.9	-1.3042	473.495	461.412	335.087	229.522	340.229	271.144	462.466	349.975	229.203	289.342	219.460	479.655	283.709	486.466	202.435	269.003	0.00042354	0.00034696	9.4341e-05	1123.3	3.2846e-06	5.8046e-06	1224.9	224.18	2.5131e-06	1.6308e-06	293.94	82.633	63.765	18.528	4.6865e-06	25.996	0.00069314	0.00074125	0.00020587	1113.7	8.1301e-06	8.323e-06	1219.3	225.14	8.0338e-06	7.9466e-06	295.51	83.316	64.672	19.203	7.9776e-06	27.021	161.869	244.026	417.567	171.443	329.815	326.944	170.979	178.335	297.712	330.979	178.394	184.675	184.961	192.690	305.149	192.335	-8191	255	
4190.114	1	1	0	0	0.2156	0.15693	0.09054	0.051556	0.31234	0.20776	0.16735	0.14317	0.26599	0.1339	0.23013	0.19028	0.29468	0.023169	0.22965	0.15005	-1.0271	-1.7042	-1.1833	-1.6542	-1.4729	-1.1729	-2.1292	-1.1521	-1.2979	-1.9167	-1.0688	-1.7604	-1.3729	-1.0833	-2.0771	-1.3417	346.445	160.228	255.838	398.381	468.518	429.501	453.655	398.386	517.976	496.457	314.170	329.785	243.039	361.441	173.088	258.578	0.00041221	0.00049654	0.00014565	1127.5	4.9309e-06	1.8663e-06	1224.1	224.04	1.3129e-06	5.1924e-06	293.34	82.143	63.791	18.657	3.7251e-06	26.025	0.00067488	0.00073295	0.0002093	1115.2	8.1436e-06	8.1809e-06	1217.5	224.91	7.8942e-06	8.1714e-06	295.46	83.339	64.766	19.176	8.0865e-06	27.031	516.364	269.997	258.476	170.957	263.991	268.113	170.975	178.213	290.069	334.188	178.174	184.893	184.960	192.726	313.939	191.949	-8191	255	
4190.234	1	1	0	0	0.13553	0.19292	0.070308	0.12389	0.055372	0.15222	0.25829	0.077802	0.09798	0.19226	0.40584	0.34419	0.015466	0.089126	0.063095	0.13781	-1.0083	-1.9562	-1.0187	-1.7146	-1.5458	-1.2875	-1.9458	-1.3792	-1.4125	-1.8771	-1.1875	-1.6875	-1.8229	-1.075	-1.7188	-1.3167	487.620	334.560	293.096	488.064	283.060	236.210	482.661	176.680	283.536	368.994	430.409	493.934	479.536	221.548	454.334	406.613	0.00046187	0.00053519	6.0627e-05	1119	3.1472e-06	4.8851e-07	1230.6	223.53	6.6208e-06	2.5197e-06	291.64	81.896	63.367	18.522	1.9798e-06	26.07	0.00069133	0.00073749	0.00021256	1113.8	8.1687e-06	8.2915e-06	1217.5	225.04	8.2347e-06	8.2387e-06	295.03	83.372	64.44	19.177	8.0676e-06	27.057	161.239	266.282	246.206	171.045	276.651	361.626	170.773	178.314	228.767	225.641	177.831	184.670	185.042	192.684	195.385	191.956	-8191	255	
4190.329	1	1	0	0	0.21111	0.24219	0.15181	0.23899	0.091382	0.18728	0.16954	0.39065	0.13349	0.14783	0.19361	0.11205	0.10543	0.082255	0.13703	0.12474	-0.82917	-1.8917	-1.0479	-1.7437	-1.7125	-1.0271	-1.8854	-1.4792	-0.98125	-1.6542	-1.2271	-1.675	-1.6604	-1.0896	-1.975	-1.6875	264.087	264.402	241.674	475.517	424.792	163.622	414.198	470.385	338.417	451.402	355.648	515.547	193.188	434.602	191.912	362.867	0.00043492	0.00046974	5.6987e-05	1123.6	5.1077e-06	1.9973e-06	1225.8	223.67	4.9121e-06	4.8746e-06	293.81	82.055	63.223	18.627	4.5152e-06	26.138	0.00069473	0.00075428	0.00021572	1113.9	8.3449e-06	8.501e-06	1217.5	224.86	8.1186e-06	8.2402e-06	295.17	83.345	64.492	19.201	8.2542e-06	27.074	161.353	205.342	296.290	171.039	302.516	320.049	171.142	178.381	283.244	336.600	177.843	184.645	185.141	192.747	329.373	192.178	-8191	255	
4190.425	1	1	0	0	0.27026	0.083414	0.12119	0.14857	0.23747	0.18717	0.35105	0.061851	0.26088	0.19844	0.053788	0.18163	0.17934	0.24715	0.20692	0.092968	-0.76875	-2.0062	-1.0688	-1.5271	-1.875	-0.96875	-2.0396	-1.6812	-1.0146	-1.95	-1.4354	-1.775	-2.0375	-1.3146	-1.6625	-1.5646	318.023	227.991	436.158	213.719	186.349	440.400	418.429	303.746	301.265	174.711	418.938	470.321	176.609	172.169	330.846	480.154	0.00042049	0.0005623	0.00016395	1117.3	1.2989e-06	4.9629e-06	1221.4	223.6	3.4607e-06	1.7788e-06	291.94	82.277	64.26	18.609	2.3172e-06	26.089	0.00069939	0.00074926	0.00021361	1111.9	8.3879e-06	8.5256e-06	1216.8	224.21	8.2766e-06	8.376e-06	295.55	83.37	64.863	19.163	8.1158e-06	27.055	161.139	255.356	267.659	170.945	328.775	297.874	170.970	178.219	272.793	415.442	178.302	184.470	185.382	192.671	206.350	191.916	-8191	255	
4190.521	1	1	0	0	0.11669	0.018519	0.08591	0.32413	0.083044	0.085716	0.27035	0.23275	0.11721	0.29155	0.29173	0.067561	0.15045	0.026785	0.26724	0.07668	-0.78333	-1.9958	-1.2125	-1.5312	-1.9646	-1.0042	-1.9354	-2.0167	-0.98125	-1.9937	-1.4979	-1.2167	-1.9021	-0.98125	-1.6063	-1.9417	309.518	440.754	269.014	485.814	336.853	307.507	451.727	467.870	208.313	245.425	321.936	509.825	295.704	320.834	331.573	318.080	0.0003898	0.00045311	9.7415e-05	1119.4	3.267e-06	4.7409e-06	1222.1	224.06	5.6529e-06	3.9982e-06	292.83	82.237	63.846	18.621	4.7506e-06	25.676	0.0006843	0.00074322	0.00020873	1114.3	7.9704e-06	8.3209e-06	1217	224.75	7.9167e-06	8.2095e-06	295.02	83.292	64.577	19.148	7.9281e-06	26.924	516.805	289.848	252.163	171.073	330.236	290.962	171.110	178.628	272.620	298.745	178.001	184.774	185.233	193.080	336.778	192.191	-8191	255	
4190.617	1	1	0	0	0.10036	0.16759	0.18765	0.33535	0.29763	0.10029	0.13622	0.30515	0.28047	0.15532	0.14936	0.10932	0.064282	0.23168	0.18531	0.10492	-0.56667	-1.7938	-1.4875	-1.3604	-1.9896	-1.1083	-1.8167	-1.8583	-0.97083	-1.7833	-1.5854	-1.0938	-2.1312	-1.2437	-1.4958	-1.7979	371.491	267.297	222.859	463.000	344.288	247.435	460.460	504.569	286.500	500.597	377.986	373.796	472.908	456.917	218.702	166.335	0.00037503	0.00017472	3.1905e-05	1121.1	2.6611e-06	4.2502e-06	1224.1	224.11	2.083e-06	3.6048e-06	292.69	81.931	63.583	18.452	3.8451e-06	25.992	0.0006864	0.00075353	0.000207	1114.2	8.1172e-06	8.3573e-06	1218.1	224.62	8.1055e-06	8.417e-06	295.5	83.071	64.701	19.154	8.2264e-06	26.968	506.827	343.603	278.492	171.472	249.965	331.616	171.155	178.588	303.064	292.144	178.098	184.498	184.942	192.632	320.220	192.395	-8191	255	
4190.713	1	1	0	0	0.1544	0.18191	0.11556	0.34652	0.20533	0.20163	0.29595	0.24086	0.043539	0.40529	0.17954	0.048226	0.2244	0.021061	0.052657	0.25255	-0.59375	-1.7896	-1.6542	-1.3958	-1.925	-1.4083	-1.4604	-2.0625	-1.1437	-1.8042	-1.9	-1.2604	-2.1437	-1.3542	-1.3833	-2.0042	404.150	288.761	275.893	445.366	489.764	406.702	486.458	478.646	201.659	434.865	516.761	490.979	297.598	399.486	451.488	451.872	0.00034551	0.00062467	2.0227e-05	1119.4	5.1329e-06	3.8535e-06	1222.8	224.12	5.2537e-06	2.0672e-06	289.59	82.519	63.728	18.516	4.0605e-06	26.02	0.00070897	0.00075988	0.00021566	1113.5	8.2052e-06	8.4684e-06	1216.3	224.9	8.2549e-06	8.3381e-06	293.6	83.346	64.483	19.102	8.3982e-06	26.973	518.741	273.083	267.662	171.205	316.486	299.430	171.243	178.743	306.104	517.088	177.901	184.631	185.079	192.630	294.637	192.283	-8191	255	
4190.834	1	1	0	0	0.1431	0.22878	0.19407	0.16217	0.23635	0.23031	0.27956	0.25051	0.39017	0.12328	0.10098	0.2739	0.044395	0.059884	0.20701	0.37092	-0.76042	-1.5583	-1.4417	-1.1313	-1.9062	-1.2896	-1.575	-1.9958	-1.1562	-1.5792	-1.7104	-1.1604	-1.9208	-1.6729	-1.3604	-2.0333	296.840	515.566	506.614	431.402	512.577	415.500	509.795	353.648	175.180	221.706	449.255	190.703	277.718	428.517	195.330	405.322	0.00044332	0.00049206	7.2126e-05	1121.8	2.9734e-06	2.1381e-06	1227.6	223.62	4.6813e-06	3.3952e-06	293.92	81.572	63.513	18.398	1.3341e-06	26.137	0.00070319	0.00076006	0.00021716	1114.6	8.4321e-06	8.6508e-06	1218.8	224.15	8.39e-06	8.3871e-06	295.44	83.225	64.482	19.149	8.3294e-06	27.015	516.268	232.608	201.418	171.309	335.822	337.712	170.958	178.595	258.831	420.765	178.282	184.822	185.071	192.936	336.446	192.340	-8191	255	
4190.930	1	1	0	0	0.10128	0.15718	0.13013	0.27068	0.18351	0.19143	0.14864	0.13987	0.25141	0.21345	0.25088	0.2943	0.28466	0.14926	0.15531	0.10853	-0.74583	-1.3979	-2.0687	-1.2604	-1.9646	-1.5667	-1.4792	-2.3333	-1.2958	-1.4479	-1.9292	-1.2271	-1.8271	-1.7667	-1.1437	-2.2042	186.683	441.129	401.697	502.171	282.235	445.261	446.316	485.718	236.844	174.295	404.112	515.794	191.094	181.108	418.755	211.528	0.00046143	0.00022113	4.9477e-05	1123.5	3.3877e-06	3.1237e-06	1223.1	224.38	8.0273e-06	1.9046e-06	294.82	81.87	63.456	18.418	2.2186e-06	26.003	0.00071071	0.00076778	0.00021786	1113.8	8.3197e-06	8.5886e-06	1216.6	224.67	8.4095e-06	8.5192e-06	295.83	83.101	64.349	19.192	8.4683e-06	26.978	167.086	328.522	285.712	171.313	311.249	303.370	171.017	178.530	263.107	443.779	178.281	184.485	185.244	193.005	314.046	192.046	-8191	255	
4191.026	1	1	0	0	0.32266	0.16075	0.059615	0.27376	0.15254	0.15649	0.22299	0.21016	0.3311	0.1994	0.21043	0.22997	0.089175	0.2641	0.056077	0.14196	-1.0146	-1.3583	-1.9021	-1.2125	-1.6167	-1.7708	-1.2479	-1.9062	-1.0875	-1.3271	-1.9292	-1.2	-1.75	-1.7812	-0.98542	-1.9542	309.768	387.509	231.177	489.623	500.966	254.131	519.097	480.510	440.700	236.094	166.694	499.435	166.718	472.323	517.745	510.689	0.000422	0.00023787	8.2008e-05	1125.3	1.3947e-06	3.3353e-06	1232.8	223.85	3.5917e-06	4.6423e-06	292.3	81.88	63.541	18.585	7.8678e-06	25.957	0.00072013	0.00079373	0.00022342	1115.4	8.3818e-06	8.5248e-06	1220.3	224.69	8.4641e-06	8.5714e-06	295.1	83.134	64.591	19.173	8.5203e-06	26.989	519.036	249.693	249.594	171.021	517.247	328.910	171.138	178.403	226.002	356.450	178.038	184.308	184.824	192.841	327.324	192.187	-8191	255	
4191.098	1	1	0	0	0.11439	0.31358	0.080189	0.15683	0.076312	0.28134	0.13246	0.05566	0.35637	0.14026	0.15601	0.11178	0.11752	0.21191	0.048537	0.20378	-1.0438	-1.0854	-2.0187	-1.4229	-1.3854	-1.8958	-1.3854	-2.0812	-1.5292	-1.1042	-1.9792	-1.1479	-1.5292	-1.8687	-1.075	-1.8521	213.859	431.246	386.073	426.585	357.856	380.955	357.005	454.892	496.113	447.822	303.139	441.292	221.731	337.361	500.042	285.808	0.00045118	0.00015538	0.00011706	1124.3	4.2753e-06	3.2724e-06	1224.6	224.64	4.1344e-06	1.6336e-06	293.15	82.154	63.468	18.645	2.4036e-06	25.982	0.00070314	0.00078013	0.00021601	1115.1	8.3872e-06	8.5234e-06	1219.3	224.7	8.2208e-06	8.4893e-06	295.83	83.249	64.577	19.225	8.408e-06	27.017	163.002	301.027	251.019	170.925	275.266	348.581	171.262	178.741	316.519	354.919	178.665	184.222	185.153	192.414	271.844	192.261	-8191	255	
4191.218	1	1	0	0	0.1499	0.051668	0.20301	0.11868	0.14152	0.14561	0.31621	0.18084	0.13586	0.012324	0.41795	0.087479	0.11533	0.084589	0.131	0.3421	-1.1646	-1.1063	-1.9396	-1.2625	-1.2771	-1.7125	-1.3042	-1.8167	-1.4937	-1.1042	-2.0083	-1.2687	-1.2875	-2.1354	-0.975	-1.7646	244.778	246.191	236.825	192.577	303.730	187.008	427.650	396.809	162.022	200.136	178.405	519.814	212.546	472.362	185.474	258.873	0.00034371	0.000328	8.1207e-05	1118.2	2.2967e-06	3.9595e-06	1236	223.19	3.5036e-06	3.203e-06	293.29	81.541	64.054	18.598	2.6977e-06	25.956	0.00071444	0.00078316	0.0002163	1114	8.4211e-06	8.5643e-06	1222.5	224.61	8.2651e-06	8.5083e-06	295.63	83.057	64.744	19.204	8.5245e-06	26.995	163.342	240.867	166.636	171.060	254.673	328.402	171.049	178.666	281.372	292.567	178.042	184.660	185.046	192.764	385.007	192.473	-8191	255	
4191.313	1	1	0	0	0.36218	0.16312	0.11612	0.098688	0.17331	0.10546	0.24701	0.15754	0.145	0.13299	0.14362	0.17073	0.01975	0.14861	0.14054	0.085322	-1.3771	-1.0625	-1.8312	-1.3792	-1.0458	-2.0271	-1.3229	-1.7271	-1.6646	-0.96875	-2.1125	-1.6187	-1.0833	-1.975	-1.3229	-1.5917	201.728	252.674	500.863	283.838	228.483	406.609	428.335	275.859	168.288	508.981	480.427	446.171	473.259	499.805	371.898	271.855	0.00042503	0.0003021	2.4202e-05	1124.1	2.9433e-06	7.455e-06	1227.5	224.87	1.9538e-06	5.1726e-06	293.47	81.924	63.619	18.677	4.1636e-06	26.036	0.00072332	0.00078129	0.00021498	1114.8	8.3415e-06	8.6994e-06	1220	225.15	8.3114e-06	8.4849e-06	296.44	83.25	64.477	19.257	8.3758e-06	27.047	509.554	248.963	431.313	171.187	346.942	329.804	170.939	178.698	300.628	207.611	178.093	184.716	185.613	192.715	318.650	192.498	-8191	255	
4191.409	1	1	0	0	0.13262	0.053979	0.13798	0.076787	0.13649	0.21593	0.27375	0.094912	0.092693	0.14612	0.16798	0.076542	0.10539	0.088328	0.16601	0.19968	-1.3833	-0.75208	-1.8	-1.5458	-1.1354	-1.8792	-1.2687	-1.4958	-1.8271	-1.0792	-1.8104	-1.4583	-1.0375	-2	-1.4146	-1.4562	336.766	416.147	198.318	247.303	162.629	284.673	509.631	249.577	164.105	443.064	439.805	448.322	419.742	472.511	211.303	477.941	0.00038165	0.00033973	2.1738e-05	1121.6	2.9767e-06	5.9287e-06	1222.8	224.5	5.7036e-06	5.2166e-06	291.89	82.088	63.646	18.625	2.7897e-06	25.955	0.00071339	0.00078258	0.00021859	1115	8.4115e-06	8.4233e-06	1218.1	224.44	8.2243e-06	8.4955e-06	295.09	83.485	64.666	19.222	8.3701e-06	27.061	163.282	273.227	309.039	170.963	271.866	390.113	171.016	178.777	266.424	292.458	178.374	184.568	185.395	192.489	319.339	192.625	-8191	255	
4191.505	1	1	0	0	0.16734	0.097705	0.16156	0.44558	0.15058	0.22257	0.28248	0.13096	0.39375	0.22844	0.29106	0.0461	0.17545	0.12733	0.042912	0.14341	-1.5312	-1.0417	-1.6271	-1.6958	-1.0542	-1.9854	-1.2042	-1.4104	-1.9333	-1.2167	-1.8208	-1.7271	-1.0896	-2	-1.4458	-1.4521	217.324	485.441	340.853	219.399	482.673	351.003	171.384	446.173	189.843	507.268	411.245	196.233	162.735	481.330	378.864	481.061	0.0004404	0.00061665	3.7007e-05	1121.3	4.9689e-06	3.947e-06	1229.2	224.55	2.5924e-06	5.4658e-06	292.05	81.873	63.742	18.686	3.612e-06	26.002	0.00071079	0.00077831	0.00021336	1115	8.6047e-06	8.5358e-06	1219	225.14	8.2184e-06	8.6431e-06	295.59	83.294	64.664	19.211	8.4431e-06	27.077	514.270	202.689	237.077	171.127	315.726	319.981	170.997	178.796	202.225	388.753	178.607	185.206	185.408	192.699	363.095	192.466	-8191	255	
4191.626	1	1	0	0	0.19843	0.095604	0.1292	0.36768	0.041964	0.23411	0.35025	0.30779	0.090649	0.058848	0.2142	0.12299	0.2274	0.11613	0.038344	0.15212	-1.6167	-1.2771	-1.6208	-1.9229	-1.0458	-1.8375	-1.5375	-1.2708	-1.9604	-1.1313	-1.6229	-1.9021	-1.1354	-1.8833	-1.5333	-1.1604	458.268	387.707	215.816	442.700	355.883	354.398	478.263	163.614	236.611	246.567	258.026	205.102	468.057	435.048	338.820	449.743	0.00039975	0.00012555	4.6666e-05	1123.7	7.2333e-07	1.0676e-06	1227	224.58	7.1241e-06	4.9515e-07	294.17	82.007	63.961	18.695	2.7314e-06	26.285	0.00070275	0.00076924	0.00021569	1115.1	8.4724e-06	8.5716e-06	1221	225.42	8.3117e-06	8.6469e-06	295.9	83.463	64.788	19.275	8.6249e-06	27.137	165.387	456.058	190.188	171.301	304.170	195.992	171.049	178.442	285.348	407.989	178.456	184.921	185.496	192.842	275.996	192.424	-8191	255	
4191.697	1	1	0	0	0.15461	0.24157	0.12477	0.27325	0.37453	0.074641	0.18467	0.31156	0.12699	0.037364	0.19814	0.39939	0.083855	0.25827	0.32076	0.17969	-1.5938	-1.225	-1.3229	-1.9479	-1.0438	-1.9562	-1.5458	-1.1792	-1.8521	-1.1688	-1.4521	-1.8021	-1.1021	-1.5729	-1.4104	-1.1187	236.703	174.869	194.918	468.590	352.694	508.059	450.387	176.930	273.124	430.298	195.240	501.766	264.243	402.141	494.574	362.894	0.00037979	0.00037883	0.00019306	1126	1.625e-06	2.3563e-06	1226.8	223.91	3.0703e-06	6.1077e-07	294.84	81.62	63.131	18.757	5.1576e-06	26.193	0.00070082	0.00079012	0.00021538	1116	8.5144e-06	8.3831e-06	1220.2	225	8.3096e-06	8.5245e-06	296.07	83.278	64.55	19.245	8.6569e-06	27.088	510.304	474.048	257.751	171.044	316.690	393.527	170.984	178.584	265.218	331.868	178.624	184.776	185.070	193.077	277.719	192.339	-8191	255	
4191.794	1	1	0	0	0.10387	0.22882	0.11133	0.087349	0.066353	0.10881	0.049934	0.10642	0.13626	0.24984	0.22494	0.098039	0.30559	0.039972	0.19682	0.048751	-1.5625	-1.4229	-1.3188	-1.9729	-0.875	-1.7229	-2.1729	-1.1896	-1.7792	-1.3021	-1.2313	-1.9604	-1.2062	-1.5667	-1.5729	-1.0208	247.639	228.256	357.591	241.279	264.657	445.767	517.081	184.653	331.906	411.575	508.725	444.239	480.351	245.876	352.384	499.232	0.0003902	0.00091201	8.5534e-05	1123.4	6.278e-06	4.2283e-06	1232.6	224.67	2.8251e-06	5.0152e-06	294.39	82.149	63.595	18.657	3.3628e-06	25.883	0.00071614	0.00078616	0.00021999	1116.1	8.5853e-06	8.5868e-06	1221.9	225.15	8.2147e-06	8.6038e-06	296.47	83.599	64.655	19.248	8.4554e-06	27.062	512.979	255.493	316.221	170.954	317.637	291.889	171.044	178.519	297.498	374.249	178.427	185.270	185.250	192.948	290.929	192.236	-8191	255	
4191.914	1	1	0	0	0.051109	0.18584	0.18776	0.27058	0.12083	0.17723	0.087258	0.42232	0.090482	0.13836	0.18058	0.094155	0.1212	0.064772	0.098725	0.1589	-1.6521	-1.4542	-1.3417	-2.0125	-1.3375	-1.3625	-1.8687	-1.2062	-1.8563	-1.4604	-1.0562	-1.8188	-1.2458	-1.4979	-1.8979	-1.2188	308.918	263.958	217.881	502.032	262.873	372.266	173.840	427.169	258.035	193.973	369.263	365.586	297.317	455.858	489.931	488.904	0.00045199	0.00032574	0.00011013	1131.2	3.1881e-06	4.8761e-06	1231.4	225.15	6.2677e-06	1.7658e-06	291.62	82.954	63.716	18.671	6.0864e-06	26.048	0.00070918	0.0007835	0.00021536	1118.2	8.4686e-06	8.3041e-06	1221.5	225.06	8.0959e-06	8.492e-06	295.34	83.516	64.925	19.25	8.2354e-06	27.043	160.868	162.554	246.077	171.148	272.536	318.522	171.164	178.604	278.257	266.308	178.444	184.493	185.318	193.002	315.687	192.494	-8191	255	
4192.010	1	1	0	0	0.045841	0.27595	0.25457	0.15187	0.22202	0.16218	0.0065646	0.18286	0.6381	0.14399	0.28647	0.28175	0.14893	0.13447	0.30253	0.052417	-1.325	-1.5875	-1.1	-2.1188	-1.1562	-1.4146	-2.1562	-1.2313	-1.6521	-1.6875	-1.3833	-2.0104	-1.5125	-1.475	-2.0333	-1.3083	320.220	409.130	377.192	463.176	460.762	435.791	506.288	456.161	227.367	493.342	169.790	417.569	392.538	422.239	277.511	348.610	0.0004767	0.0005282	5.8034e-05	1121.8	2.2765e-06	3.503e-06	1227	224.55	3.5602e-06	1.3396e-06	294.35	82.095	63.906	18.8	2.572e-06	25.952	0.00068769	0.00076968	0.00021774	1117.3	8.3503e-06	8.4579e-06	1220.6	224.62	8.2383e-06	8.5942e-06	296.67	83.285	64.783	19.309	8.2683e-06	26.993	520.230	231.840	254.381	171.121	310.828	325.031	171.160	178.447	293.832	261.727	178.553	184.818	185.286	192.768	301.937	192.432	-8191	255	
4192.107	1	1	0	0	0.18448	0.22142	0.12217	0.091058	0.091716	0.21844	0.35195	0.18192	0.15251	0.11451	0.27038	0.044401	0.095117	0.23616	0.16573	0.36486	-1.2604	-1.8125	-0.9	-1.9688	-1.4896	-1.2354	-2.1521	-1.2333	-1.4771	-1.8396	-1.2229	-2.0979	-1.625	-1.1208	-1.8396	-1.3208	286.369	465.602	469.422	477.459	433.117	274.194	492.301	482.126	448.663	401.439	349.927	382.616	194.676	477.399	320.248	465.047	0.00045519	0.00039421	0.00012801	1123.2	3.9156e-06	4.3554e-06	1227.7	224.76	4.5291e-06	3.8953e-06	292.82	82.034	63.853	18.652	7.8708e-07	26.018	0.00070061	0.00078175	0.00021354	1117.9	8.2941e-06	8.3139e-06	1222.9	225.33	8.298e-06	8.5509e-06	295.9	83.442	64.862	19.221	8.5023e-06	27.048	161.476	287.713	289.874	171.415	300.957	328.315	170.947	178.727	283.579	399.136	178.389	184.720	184.989	192.903	356.409	192.267	-8191	255	
4192.225	1	1	0	0	0.34066	0.10549	0.078768	0.20983	0.025616	0.2731	0.25897	0.32739	0.10322	0.091167	0.31795	0.13458	0.26055	0.19541	0.12451	0.27027	-1.0667	-1.8396	-0.95833	-1.9646	-1.6708	-1.1646	-2.3063	-1.175	-1.3438	-1.875	-1.2104	-1.7292	-1.9479	-1.075	-1.8604	-1.4625	509.078	378.546	512.658	176.051	449.091	200.314	445.506	473.105	284.822	287.106	381.566	290.909	195.003	344.267	250.332	409.201	0.00050839	0.00037498	0.00012442	1128.5	3.5943e-06	5.4909e-06	1226.3	225.74	5.5272e-06	1.1631e-06	293.87	82.413	63.875	18.735	1.5538e-06	26.032	0.00069767	0.0007722	0.00021327	1118.1	8.3913e-06	8.3582e-06	1220.5	225.49	8.155e-06	8.5388e-06	296.71	83.425	64.594	19.253	8.2836e-06	27.067	512.049	268.154	300.487	170.945	288.679	326.347	171.171	178.466	289.452	351.324	178.532	184.983	185.011	192.931	277.469	191.961	-8191	255	
4192.322	1	1	0	0	0.10475	0.19078	0.062403	0.060543	0.12328	0.21858	0.034377	0.30969	0.040769	0.29624	0.11785	0.20055	0.15011	0.13557	0.12929	0.21938	-0.99583	-2.0542	-0.83542	-1.9458	-1.6208	-1.0667	-1.9479	-1.4208	-1.2792	-1.8146	-1.175	-1.7125	-1.9333	-1.2229	-1.825	-1.4521	209.875	382.846	424.211	345.819	266.569	406.607	374.513	435.632	353.310	513.938	495.570	229.049	504.764	163.768	485.817	348.907	0.000439	0.00040053	0.00013742	1128.5	1.7552e-06	3.4158e-06	1230.2	224.51	2.881e-06	6.543e-06	293.61	82.721	63.664	18.704	1.9588e-06	26.11	0.00069616	0.00077206	0.00021595	1118.7	8.1562e-06	8.4096e-06	1221.4	224.96	8.2189e-06	8.4901e-06	296.28	83.422	64.853	19.236	8.2507e-06	26.926	516.643	248.568	277.494	171.345	268.525	286.398	171.195	178.482	277.848	316.192	178.318	184.908	185.212	192.775	334.576	192.333	-8191	255	
4192.393	1	1	0	0	0.32859	0.13367	0.096606	0.1252	0.16495	0.064986	0.4923	0.21179	0.073329	0.042817	0.30662	0.20076	0.22471	0.17939	0.43509	0.12536	-0.68958	-1.9562	-1.1063	-1.7375	-1.9729	-1.0333	-2.0542	-1.4771	-0.9125	-1.9896	-1.2729	-1.475	-1.9458	-1.1167	-1.8229	-1.6208	473.182	165.888	494.659	474.475	225.266	427.337	506.192	430.972	304.724	453.310	495.873	437.178	253.734	398.283	417.034	449.566	0.00039337	0.00025686	3.2405e-05	1125.8	3.7896e-06	4.3549e-06	1234.3	224.43	3.8344e-06	4.421e-06	296.91	82.092	63.842	18.638	6.1173e-06	26.046	0.00069611	0.00076075	0.00021501	1118.6	8.2237e-06	8.3982e-06	1221.7	225.21	8.2674e-06	8.1458e-06	297.3	83.298	64.962	19.236	8.1975e-06	27.061	509.448	217.782	264.688	171.286	299.651	278.363	171.286	178.809	306.571	314.509	178.492	184.916	185.152	192.890	324.358	192.879	-8191	255	
4192.514	1	1	0	0	0.17149	0.40754	0.047931	0.17686	0.056132	0.12068	0.29814	0.19725	0.17012	0.21921	0.031261	0.20515	0.15623	0.17565	0.13587	0.23513	-0.68958	-1.8208	-1.3042	-1.6521	-1.8646	-1.15	-2.0938	-1.7417	-1.0396	-1.9729	-1.5958	-1.4708	-1.9688	-0.98542	-1.7208	-1.6938	182.536	262.168	385.122	186.273	397.646	420.555	506.654	480.736	468.930	517.266	238.698	414.970	394.146	301.297	439.414	388.740	0.00040898	0.00028536	0.00013975	1127.2	4.2455e-06	6.1467e-06	1228.5	225.42	7.9832e-06	1.8493e-06	294.1	81.741	63.557	18.572	6.2098e-06	26.051	0.00070553	0.00074828	0.00021125	1119.4	8.21e-06	8.2726e-06	1221.5	225.1	8.1054e-06	8.3311e-06	296.3	83.379	64.788	19.239	8.1932e-06	27.098	168.654	245.338	258.303	171.359	287.447	371.818	171.101	178.667	282.423	261.126	178.462	185.012	185.302	193.121	274.467	191.758	-8191	255	
4192.610	1	1	0	0	0.16506	0.32729	0.096177	0.18725	0.25337	0.2068	0.33142	0.30605	0.047046	0.21619	0.15793	0.093479	0.15512	0.23117	0.072588	0.27129	-0.44167	-1.8563	-1.4021	-1.2729	-1.8333	-1.1437	-1.8875	-1.9271	-1.0562	-1.8583	-1.4604	-1.3	-2	-1.3958	-1.5063	-1.8354	482.309	410.353	391.492	491.731	467.557	299.859	462.358	502.393	417.333	266.721	452.268	386.149	207.382	486.268	493.092	415.400	0.00044595	0.00015575	0.00014109	1127.9	4.0957e-06	7.5914e-06	1230.4	227.25	4.1613e-06	1.9312e-06	293.3	82.11	64.435	18.612	7.1228e-06	26.059	0.00069825	0.0007654	0.00021842	1119.5	8.2778e-06	8.4468e-06	1224.2	225.87	8.1628e-06	8.3253e-06	296.54	83.423	65.101	19.266	8.3572e-06	27.125	520.733	356.177	261.784	171.407	273.199	351.930	171.254	178.777	249.221	396.883	178.335	184.569	184.978	192.915	381.516	192.069	-8191	255	
4192.706	1	1	0	0	0.15345	0.044126	0.11283	0.26831	0.033793	0.25268	0.31499	0.089741	0.066637	0.10061	0.18528	0.10182	0.050814	0.16791	0.22275	0.21696	-0.60208	-1.8125	-1.5854	-1.35	-1.9479	-1.3042	-1.4271	-1.9917	-1.1667	-1.6771	-1.6021	-0.98125	-1.8542	-1.2	-1.3896	-1.8333	192.813	226.576	253.942	459.459	220.455	305.203	485.276	416.470	235.430	307.554	428.690	511.523	459.465	169.052	310.389	238.419	0.00047059	0.00029147	2.9175e-05	1130.1	6.4729e-06	2.9379e-06	1231.9	226.42	3.5099e-06	2.1557e-07	293.87	82.148	63.772	18.673	2.1915e-06	26.155	0.00069978	0.00074819	0.00020943	1119	8.2125e-06	8.3599e-06	1224.3	225.7	8.1911e-06	8.2836e-06	296.24	83.611	64.934	19.258	8.0702e-06	27.086	516.099	183.485	426.599	171.343	328.348	293.006	171.225	178.798	284.771	273.980	178.273	185.384	185.157	192.856	319.727	192.123	-8191	255	
4192.802	1	1	0	0	0.25337	0.20673	0.24245	0.24713	0.15149	0.29384	0.10591	0.14214	0.25656	0.051123	0.27625	0.11339	0.12495	0.15528	0.26571	0.23562	-0.70625	-1.5104	-1.7146	-1.3542	-2.0917	-1.3687	-1.5688	-2.0229	-0.84583	-1.6958	-1.7833	-1.1437	-1.8208	-1.4771	-1.2979	-2.0479	485.772	431.944	233.737	426.991	423.778	443.296	200.610	292.678	467.666	358.357	427.857	192.712	506.588	292.309	230.336	460.871	0.00039389	0.00066557	4.9858e-05	1127.6	7.2187e-06	3.9308e-06	1237.6	225.91	2.1842e-06	1.9987e-06	294.45	82.324	63.752	18.541	4.75e-06	26.138	0.00068442	0.00076202	0.0002131	1118.6	7.9629e-06	8.4358e-06	1223.9	225.98	8.213e-06	8.2277e-06	296.79	83.572	64.74	19.237	8.166e-06	27.072	519.512	282.130	280.322	171.368	238.097	318.101	171.524	178.678	277.199	274.692	178.471	185.166	185.159	192.574	362.881	192.232	-8191	255	
4192.898	1	1	0	0	0.21827	0.24424	0.017568	0.17406	0.27582	0.29941	0.10392	0.26584	0.045114	0.33859	0.25255	0.11075	0.21342	0.31934	0.29563	0.079528	-0.69792	-1.4562	-1.8021	-1.2208	-1.8104	-1.4167	-1.3271	-2.2417	-1.1313	-1.6562	-1.9146	-0.97917	-1.8792	-1.5917	-1.1688	-1.9688	506.797	500.009	344.814	466.791	292.726	272.264	255.696	501.670	514.948	294.523	356.548	413.260	327.194	246.894	468.915	199.318	0.00055482	0.00044044	0.00012752	1123.4	3.6146e-06	5.7854e-06	1227.4	225.19	4.8609e-06	1.4238e-06	291.3	82.204	63.77	18.489	6.5558e-06	26.092	0.00069714	0.00075069	0.00021714	1115.3	8.062e-06	8.3846e-06	1222	225.43	8.283e-06	8.4691e-06	295.49	83.533	64.88	19.239	8.188e-06	27.099	517.355	262.699	256.156	171.282	279.377	282.211	171.217	178.563	268.232	284.080	178.409	185.257	185.268	192.932	289.897	192.823	-8191	255	
4192.995	1	1	0	0	0.13554	0.19315	0.23882	0.35357	0.16516	0.1672	0.27486	0.13184	0.25737	0.03835	0.12863	0.31829	0.20515	0.077046	0.073406	0.056519	-0.76667	-1.3542	-2.0208	-1.0229	-1.7938	-1.5229	-1.3729	-2.1958	-1.4188	-1.325	-2.0187	-1.1437	-2.0708	-1.5938	-1.1729	-1.9208	188.987	297.334	374.222	191.628	265.961	222.941	176.523	162.188	220.052	290.389	395.233	435.378	240.401	454.133	237.371	344.613	0.00044876	0.00032413	7.5464e-05	1124.8	4.2099e-06	2.2166e-06	1236.8	225.8	3.7313e-06	2.0216e-06	292.39	82.391	63.592	18.626	2.2582e-06	26.143	0.00070476	0.00075174	0.00021271	1117.8	8.2191e-06	8.3304e-06	1223.7	225.96	8.2233e-06	8.3663e-06	295.76	83.589	64.811	19.208	8.0587e-06	27.114	519.326	292.947	233.053	171.054	331.309	378.052	171.122	178.563	372.848	380.796	178.137	184.989	185.224	192.703	274.683	192.240	-8191	255	
4193.091	1	1	0	0	0.16917	0.2194	0.20869	0.49666	0.152	0.27718	0.27378	0.080886	0.18692	0.067454	0.39944	0.13474	0.4411	0.14038	0.12921	0.11488	-1.0125	-1.1063	-1.9979	-1.0604	-1.6521	-1.4271	-1.1458	-2.0563	-1.2708	-1.1208	-2.0375	-1.2979	-1.7354	-1.8062	-1.2687	-1.9292	307.645	438.046	227.831	488.634	200.556	366.004	464.591	260.158	228.452	281.124	233.283	484.679	472.070	438.545	483.803	277.859	0.00040679	0.00033852	0.00011816	1119.4	2.4316e-06	2.2604e-06	1230.4	225.52	7.2792e-06	3.5319e-06	294.77	82.109	63.913	18.589	3.5022e-06	26.166	0.0006771	0.00074374	0.00020443	1115.2	7.9656e-06	8.1714e-06	1223.3	225.49	8.0374e-06	8.108e-06	296.55	83.568	64.837	19.232	8.0596e-06	27.045	517.816	265.462	223.150	171.050	329.088	315.701	171.073	178.458	287.859	380.638	178.075	184.726	185.112	192.482	317.747	192.194	-8191	255	
4193.187	1	1	0	0	0.084793	0.44471	0.062536	0.32758	0.058841	0.21348	0.10339	0.26831	0.11967	0.066564	0.15509	0.13418	0.20574	0.18815	0.19843	0.17218	-1.0958	-1.2062	-1.9875	-1.3458	-1.4312	-1.8083	-1.2646	-1.8917	-1.5562	-1.3333	-2.1521	-1.1896	-1.5771	-1.9625	-1.2062	-1.6896	400.855	209.955	270.426	443.979	346.957	448.960	481.910	489.387	361.278	516.066	474.733	388.375	332.924	214.132	402.359	219.924	0.0004868	9.8602e-05	0.00012266	1121.3	3.5826e-06	1.475e-06	1224.3	225.45	4.6847e-06	3.4325e-06	293.55	81.544	63.735	18.528	2.6483e-06	26.183	0.00067908	0.00073426	0.00020235	1116.3	7.9936e-06	8.08e-06	1219.7	225.54	7.9508e-06	8.0961e-06	295.89	83.129	64.698	19.157	8.029e-06	27.077	506.776	184.185	288.448	170.987	279.656	333.054	171.007	178.589	264.576	286.125	178.373	184.954	184.883	192.610	269.746	192.632	-8191	255	
4193.306	1	1	0	0	0.24771	0.21284	0.17039	0.24816	0.20538	0.016439	0.19299	0.45878	0.38217	0.10965	0.23776	0.11059	0.088631	0.22624	0.13351	0.30866	-1.3563	-0.96458	-1.6479	-1.475	-1.425	-1.85	-1.3	-1.8875	-1.8729	-1.0875	-1.7125	-1.2271	-1.3771	-1.9958	-1.0167	-1.7812	177.444	288.265	462.790	448.616	183.546	185.579	494.542	484.175	406.456	332.508	486.515	438.280	201.947	233.336	211.175	161.136	0.00048886	0.00044869	8.2821e-05	1122.6	1.9947e-06	4.6459e-06	1232.5	225.15	5.9524e-06	4.606e-06	293.16	81.802	63.895	18.656	1.4841e-06	26.08	0.00067792	0.00073562	0.00020054	1115.9	7.9107e-06	8.16e-06	1222.7	224.75	7.9192e-06	8.1547e-06	296.3	83.263	64.76	19.225	8.0131e-06	27.063	517.406	216.859	276.845	171.130	345.541	289.433	171.168	178.287	290.776	429.126	178.533	184.907	184.901	192.692	320.347	192.494	-8191	255	
4193.402	1	1	0	0	0.085091	0.13356	0.1479	0.22517	0.21305	0.070253	0.22908	0.24666	0.090712	0.2703	0.21979	0.15069	0.16126	0.19251	0.16804	0.2761	-1.5333	-1.1021	-1.8125	-1.5	-1.1146	-1.9458	-1.3083	-1.8583	-1.7563	-0.95417	-1.775	-1.5125	-1.1417	-1.9104	-1.1917	-1.6562	467.009	355.357	379.549	485.141	256.172	363.457	437.005	456.710	270.881	384.477	371.038	322.634	488.910	438.236	476.281	478.565	0.00041522	9.8349e-05	0.00010815	1127.7	4.0825e-06	4.8457e-06	1233.4	225.14	4.4649e-06	4.1743e-06	294.65	81.894	63.619	18.574	4.456e-06	25.933	0.00068982	0.00074158	0.00020439	1116.4	8.1433e-06	8.128e-06	1222.6	225.3	7.9894e-06	8.3606e-06	295.77	83.13	64.705	19.157	8.2838e-06	27.016	514.384	178.248	233.716	171.047	313.964	316.812	171.131	178.757	248.481	337.759	178.139	184.311	185.304	192.617	372.085	192.405	-8191	255	
4193.498	1	1	0	0	0.213	0.059964	0.26565	0.34698	0.050761	0.43683	0.33081	0.18773	0.14093	0.25163	0.10367	0.35371	0.28695	0.18432	0.097928	0.22782	-1.4646	-0.95833	-1.7229	-1.5958	-0.96875	-1.8354	-1.1354	-1.3896	-1.9875	-0.84792	-1.8292	-1.7375	-1.1688	-1.7771	-1.4646	-1.35	171.576	419.190	313.989	467.993	484.903	266.861	470.523	356.988	253.281	166.547	427.684	477.971	473.836	216.145	214.345	173.452	0.00042211	0.00034823	5.3939e-05	1124.7	3.0367e-06	3.8127e-06	1230.2	225.04	2.5746e-06	4.8307e-06	295.05	82.411	64.4	18.658	3.5944e-06	26.203	0.00067634	0.00074999	0.00020358	1114.9	8.0213e-06	8.1149e-06	1221.7	225.19	8.0916e-06	8.3053e-06	296.17	83.436	64.866	19.215	8.0497e-06	26.985	517.431	224.296	174.541	171.200	321.568	281.174	171.081	178.884	277.686	296.090	178.288	184.625	185.263	192.662	203.077	192.462	-8191	255	
4193.594	1	1	0	0	0.1412	0.066855	0.081774	0.23725	0.12571	0.3047	0.25993	0.18967	0.19125	0.057318	0.35185	0.13257	0.089482	0.38365	0.15568	0.26372	-1.5479	-1.0646	-1.725	-1.7333	-1.025	-1.7333	-1.5479	-1.3396	-1.9333	-1.1583	-1.7062	-1.8125	-0.99375	-1.775	-1.1917	-1.0646	389.943	490.737	302.584	493.968	478.201	497.298	461.014	391.416	490.593	246.259	468.472	497.092	222.573	249.851	271.555	472.630	0.00043295	0.00024574	6.5491e-05	1122	2.6646e-06	4.1232e-06	1229.7	225.42	3.5034e-06	2.8882e-06	293.89	82.237	63.634	18.593	1.0768e-06	25.965	0.00067737	0.00075313	0.00020559	1116	8.1373e-06	8.1403e-06	1220.5	225.2	7.8138e-06	8.3217e-06	296.05	83.209	64.619	19.181	8.0293e-06	27.035	511.151	278.197	274.489	171.112	290.631	191.273	171.241	178.496	275.931	255.260	178.500	184.748	185.479	193.005	378.320	192.892	-8191	255	
4193.689	1	1	0	0	0.12894	0.17086	0.0848	0.097881	0.06815	0.35358	0.10766	0.14277	0.38809	0.21179	0.1241	0.091048	0.14332	0.32008	0.089626	0.30772	-1.5896	-1.3167	-1.5792	-2.0021	-0.89583	-1.7896	-1.875	-1.1542	-1.9333	-1.0688	-1.5396	-1.9104	-1.1875	-1.8417	-1.7604	-1.2583	234.866	284.027	330.749	449.641	380.745	395.094	465.673	484.530	401.289	228.176	434.185	300.518	335.895	481.239	441.896	432.651	0.00045652	0.00032545	8.729e-05	1126.2	2.0556e-06	5.9296e-06	1227.1	225.05	3.0238e-06	5.7573e-06	294.39	81.868	63.689	18.529	7.59e-06	26.263	0.00068391	0.00073774	0.00020323	1117.5	8.1748e-06	8.0942e-06	1220.6	224.96	7.9189e-06	8.0626e-06	295.84	83.305	64.64	19.2	8.0834e-06	27.058	518.969	237.134	287.259	171.086	267.464	322.527	171.017	178.700	268.869	313.716	178.272	184.498	185.014	192.828	284.852	191.959	-8191	255	
4193.787	1	1	0	0	0.16895	0.24278	0.067918	0.21775	0.29504	0.2786	0.11859	0.32567	0.046926	0.039045	0.061186	0.18775	0.13405	0.15721	0.27628	0.21867	-1.5312	-1.2812	-1.5063	-1.9771	-0.89792	-1.6979	-1.8333	-1.1437	-2.0417	-1.3146	-1.4979	-1.9396	-1.05	-1.7271	-1.675	-1.2167	347.380	455.389	196.865	400.249	466.801	210.882	292.844	389.760	285.890	260.393	254.466	425.016	339.195	251.400	443.940	430.817	0.00049464	0.00039824	6.9504e-05	1121.2	3.3406e-06	3.1802e-06	1226.1	226.31	3.4267e-06	3.9404e-06	293.64	82.371	63.901	18.589	5.3857e-06	26.079	0.00068135	0.00074725	0.00020713	1113.9	7.9472e-06	8.215e-06	1219.7	225.53	8.0146e-06	8.2217e-06	295.52	83.222	64.927	19.242	7.9919e-06	27.026	519.439	258.547	244.539	171.159	255.144	373.677	171.172	178.624	256.340	324.988	178.477	184.462	185.093	192.825	253.337	192.487	-8191	255	
4193.905	1	1	0	0	0.16753	0.056412	0.17358	0.11429	0.12981	0.30181	0.25482	0.21532	0.12698	0.13188	0.13726	0.10822	0.3589	0.16254	0.17089	0.12198	-1.7083	-1.4479	-1.2729	-1.975	-1.0604	-1.65	-1.8479	-1.2021	-1.7563	-1.3104	-1.45	-1.9479	-1.2854	-1.625	-1.8542	-1.0479	164.338	182.502	444.761	480.770	357.028	243.575	447.961	449.005	438.146	186.264	190.275	486.165	449.439	266.699	243.663	408.659	0.00047898	0.00034229	0.00017027	1126.7	3.6619e-06	3.9087e-07	1225.7	223.7	2.1016e-06	3.2931e-06	292.93	81.862	63.677	18.607	4.0252e-06	26.097	0.00068286	0.00075176	0.00020668	1115.6	8.0165e-06	8.151e-06	1220	224.89	7.9453e-06	8.1137e-06	295.34	83.356	64.659	19.176	7.8663e-06	27.089	168.287	293.385	309.498	171.108	297.633	505.487	171.275	178.670	440.791	244.649	178.466	184.902	185.343	192.979	283.527	192.013	-8191	255	
4194.002	1	1	0	0	0.25357	0.23919	0.15646	0.21323	0.18095	0.17167	0.32085	0.23692	0.061358	0.18367	0.076364	0.04522	0.27875	0.16598	0.043236	0.18155	-1.4333	-1.6854	-1.1125	-2.1312	-1.3208	-1.6	-1.9708	-1.1979	-1.5729	-1.7687	-1.1812	-1.8583	-1.2979	-1.4	-1.75	-0.97083	189.752	389.857	261.828	207.702	484.847	394.067	455.247	392.188	405.180	359.688	471.128	305.954	468.258	192.567	165.847	430.126	0.00043953	0.00019567	0.00011653	1121.8	3.6518e-06	5.6833e-06	1230.2	224.83	4.1269e-06	3.1493e-06	295.38	82.466	63.617	18.575	2.3846e-06	26.029	0.00067517	0.00075095	0.00020989	1115.4	8.1744e-06	8.0644e-06	1220.8	224.71	7.8323e-06	8.1918e-06	296.63	83.405	64.782	19.228	7.8509e-06	26.967	510.746	272.835	217.250	171.358	319.355	272.668	170.863	178.584	280.363	307.670	178.626	184.710	185.458	192.646	369.504	192.105	-8191	255	
4194.098	1	1	0	0	0.17588	0.056709	0.32977	0.21375	0.033295	0.15311	0.18842	0.23439	0.32215	0.13459	0.19128	0.17197	0.083783	0.25446	0.1914	0.25204	-1.2917	-1.6958	-1.1688	-1.9604	-1.3708	-1.325	-1.9917	-0.99167	-1.7896	-1.6542	-1.1271	-1.9771	-1.55	-1.4292	-2.0417	-1.1354	417.393	385.136	277.633	167.138	434.065	517.332	448.500	398.254	381.676	346.301	225.831	465.638	480.391	230.876	209.234	442.484	0.00041962	0.00037074	0.00013805	1122.9	6.4516e-06	2.0206e-06	1230.5	224.75	4.4129e-06	1.2817e-06	292.93	82.347	63.497	18.651	2.3764e-06	26.185	0.00068294	0.00076359	0.00021323	1116.3	8.1051e-06	8.3677e-06	1221.6	225.34	7.9917e-06	8.2406e-06	295.75	83.282	64.635	19.24	7.9809e-06	27.043	512.557	224.700	227.173	170.999	272.267	345.022	171.020	178.552	304.244	424.399	178.531	184.892	185.076	192.750	352.760	191.999	-8191	255	
4194.194	1	1	0	0	0.14876	0.25526	0.16448	0.27998	0.22852	0.34633	0.34596	0.13502	0.11089	0.17249	0.166	0.23625	0.13119	0.14469	0.36246	0.15142	-1.2271	-1.8083	-1.0729	-2.0646	-1.6833	-1.125	-2.1437	-1.3563	-1.5625	-1.9188	-1.1479	-1.8021	-1.6063	-1.0396	-1.9833	-1.3625	412.166	192.065	284.801	186.551	509.567	253.919	428.126	208.935	451.107	371.082	421.420	174.059	469.316	161.587	169.422	476.430	0.00047632	0.00034933	0.00012267	1127	5.6238e-06	5.4577e-06	1226.6	224.93	2.0672e-06	9.3436e-07	293.14	82.088	63.08	18.778	1.9757e-06	26.058	0.00068159	0.00075064	0.00020884	1117	7.896e-06	8.4161e-06	1220.3	225.65	7.9897e-06	8.4214e-06	295.74	83.286	64.685	19.226	8.1039e-06	27.038	161.511	161.183	330.520	171.222	295.178	322.098	170.907	178.745	290.238	290.096	178.117	184.755	185.187	193.008	295.589	191.910	-8191	255	
4194.290	1	1	0	0	0.14189	0.17222	0.069177	0.098519	0.1853	0.036757	0.15106	0.06607	0.15553	0.097547	0.10194	0.22853	0.31677	0.22851	0.09159	0.24797	-1.1708	-1.7062	-0.94375	-1.9271	-1.6417	-1.1562	-1.9542	-1.2146	-1.4125	-1.9021	-1.1104	-1.8208	-1.7583	-1.1854	-2	-1.4479	284.387	435.147	268.383	502.348	433.582	221.681	479.102	487.420	397.275	283.213	456.830	364.070	180.413	519.327	221.178	474.241	0.00044088	0.00036911	6.0362e-05	1131.9	9.2014e-07	2.6467e-06	1229.5	225.84	3.1413e-06	2.4022e-06	293.14	82.291	63.815	18.666	4.7697e-06	26.086	0.0006874	0.00074437	0.0002078	1119.6	8.1293e-06	8.2478e-06	1221.4	225.23	8.0904e-06	8.1102e-06	295.98	83.381	64.816	19.179	7.9054e-06	27.024	520.355	343.382	251.592	171.169	295.415	290.208	170.998	178.935	274.501	295.209	178.269	184.488	185.146	192.715	302.464	192.790	-8191	255	
4194.386	1	1	0	0	0.21446	0.12893	0.24265	0.30348	0.18404	0.3869	0.16738	0.26198	0.01547	0.016042	0.014359	0.11348	0.14271	0.12988	0.24996	0.2997	-0.95417	-1.9167	-1.0604	-1.8188	-1.7167	-1.0125	-2.0187	-1.5604	-1.2104	-2.0104	-1.2667	-1.6375	-1.8792	-1.0646	-1.8333	-1.7083	409.242	487.278	413.248	507.666	258.063	313.290	170.638	432.771	288.418	511.723	497.106	396.653	231.267	199.527	287.116	435.017	0.00041572	0.0001515	4.6076e-05	1129.4	1.8163e-06	3.3541e-06	1229.6	225.6	3.8844e-06	2.3044e-06	293.61	81.78	63.771	18.624	2.0071e-06	26.156	0.00068253	0.00074986	0.00020574	1117.5	8.1151e-06	8.1504e-06	1223.6	225.58	7.9933e-06	8.2514e-06	296.72	83.251	64.829	19.216	8.2318e-06	27.071	163.314	300.680	308.611	171.190	254.915	334.229	171.183	178.312	330.911	382.879	178.184	185.279	185.082	192.320	333.236	191.986	-8191	255	
4194.482	1	1	0	0	0.14123	0.22323	0.13307	0.14716	0.20769	0.051135	0.35725	0.30938	0.28672	0.13306	0.13755	0.11948	0.13961	0.13757	0.18463	0.36638	-0.86875	-1.9042	-1.1938	-1.5833	-1.8896	-1.0958	-2.0396	-1.6083	-1.1979	-2.0042	-1.3271	-1.6208	-2.0812	-1.0417	-1.7042	-1.6708	175.417	285.021	275.940	508.711	357.829	224.985	499.439	412.264	444.517	408.673	176.340	321.598	257.307	488.797	279.096	388.835	0.0004737	0.00018367	0.00010707	1129.3	3.75e-06	3.4376e-06	1226.2	225.58	6.8535e-06	5.185e-06	292.45	81.619	64.022	18.68	5.3545e-06	26.334	0.00067147	0.00072827	0.00020704	1120.8	8.0237e-06	8.1621e-06	1221.5	225.64	7.9939e-06	8.1054e-06	296.17	83.182	64.75	19.208	8.2318e-06	27.087	519.687	226.954	263.843	171.444	290.527	303.344	170.989	178.643	286.873	325.147	177.962	185.263	185.197	192.696	333.205	192.315	-8191	255	
4194.578	1	1	0	0	0.15863	0.15611	0.11562	0.07374	0.17978	0.14092	0.22187	0.30231	0.1243	0.16299	0.31078	0.26529	0.25791	0.074946	0.049434	0.028235	-0.64375	-2.0354	-1.2896	-1.2812	-1.8708	-1.0688	-1.9062	-1.7292	-1.125	-1.9083	-1.6083	-1.375	-1.8937	-1.0708	-1.5938	-1.6958	248.950	500.281	515.902	415.891	467.211	392.884	429.790	476.946	389.389	498.283	412.050	170.828	292.391	425.720	436.110	422.205	0.0003475	0.00042904	2.3929e-05	1129.8	2.2228e-06	3.9886e-06	1230.6	225.02	4.8959e-06	3.8667e-06	293.39	82.563	63.347	18.588	4.6572e-06	26.223	0.00069457	0.00075137	0.00021049	1120.2	8.1398e-06	8.2404e-06	1223.9	225.46	8.0269e-06	8.1271e-06	296.22	83.707	64.776	19.144	8.0657e-06	27.149	166.630	207.221	437.246	171.456	280.017	307.978	171.523	178.673	269.356	258.262	178.447	184.832	185.375	192.934	353.391	191.958	-8191	255	
4194.697	1	1	0	0	0.16678	0.1914	0.2697	0.37232	0.13656	0.028977	0.33897	0.20069	0.16557	0.11249	0.10462	0.016586	0.19384	0.25917	0.27454	0.23737	-0.71875	-1.9021	-1.35	-1.2542	-2.1167	-1.1229	-1.7208	-1.8	-1.225	-1.9667	-1.6104	-1.0875	-2.0292	-1.1458	-1.5917	-1.8708	255.683	283.300	502.672	469.272	288.823	351.302	461.517	479.475	506.527	232.251	426.829	452.258	501.197	210.346	224.448	376.583	0.00040317	0.00042772	0.00015402	1130.6	4.7855e-06	3.9579e-06	1227.6	224.93	3.7357e-06	3.3515e-06	294.03	82.175	64.595	18.805	5.2878e-06	26.218	0.00069057	0.00075946	0.00020885	1120.6	8.04e-06	8.2767e-06	1221.3	225.69	8.0948e-06	8.0661e-06	297.32	83.625	65.046	19.277	8.2091e-06	27.123	166.309	249.231	229.005	171.541	281.842	210.334	171.115	178.676	241.138	307.533	178.206	184.905	185.234	192.871	296.905	191.983	-8191	255	
4194.793	1	1	0	0	0.076011	0.075252	0.20867	0.25031	0.13453	0.36125	0.16705	0.27465	0.046942	0.11028	0.12499	0.048489	0.099677	0.19759	0.2884	0.12053	-0.93125	-1.675	-1.6021	-1.2417	-1.8292	-1.3062	-1.5854	-1.9146	-0.95208	-1.8604	-1.5167	-1.3521	-2.1188	-1.3833	-1.3167	-2.1125	459.119	170.037	302.687	491.296	517.393	396.106	396.669	458.863	163.488	228.470	448.928	274.601	172.015	227.634	230.650	362.028	0.00049982	0.00017477	9.7692e-05	1127.4	2.4915e-06	3.1655e-06	1231.2	225.41	3.4345e-06	3.1533e-06	293.96	82.077	63.735	18.732	2.9215e-06	26.157	0.00068571	0.00075064	0.00020856	1118.8	8.1105e-06	8.4291e-06	1223.7	225.71	8.192e-06	8.2428e-06	295.46	83.455	64.895	19.189	8.1112e-06	27.066	514.203	274.850	254.217	171.399	278.127	289.429	171.375	178.603	273.052	367.513	178.709	184.992	185.624	192.656	165.338	192.646	-8191	255	
4194.867	1	1	0	0	0.16316	0.13939	0.15547	0.096691	0.2994	0.10311	0.27289	0.23125	0.13487	0.15966	0.28207	0.17557	0.27305	0.2407	0.12101	0.16723	-0.65833	-1.8438	-1.6771	-1.325	-1.9604	-1.3792	-1.3792	-2.1917	-1.1896	-1.9604	-1.8521	-1.2729	-1.8312	-1.4646	-1.3	-2.0938	245.015	377.618	306.941	354.205	199.512	393.835	438.796	441.357	273.958	360.253	194.904	486.705	215.830	473.744	394.086	378.667	0.00045268	0.00031762	8.9589e-05	1131.9	2.722e-06	4.701e-06	1237.1	225	3.4499e-06	4.236e-07	295.73	82.7	64.028	18.759	7.6305e-06	26.025	0.00069276	0.00074908	0.00020791	1119.6	8.0448e-06	8.4614e-06	1224	225.53	8.1994e-06	8.1823e-06	297.32	83.7	64.822	19.289	8.4423e-06	27.159	516.175	264.628	249.914	171.345	315.367	254.666	171.331	178.622	324.023	518.255	178.439	184.757	185.316	192.959	304.870	192.374	-8191	255	
4194.986	1	1	0	0	0.11338	0.21162	0.13209	0.37279	0.12082	0.16102	0.17841	0.13918	0.020868	0.011855	0.35695	0.058811	0.033826	0.05192	0.087751	0.029379	-0.64792	-1.6688	-1.8479	-1.4521	-1.7229	-1.6792	-1.375	-2.0729	-0.96458	-1.5271	-1.7896	-0.98542	-2.0333	-1.6271	-1.2542	-1.8	175.419	257.339	509.194	515.888	251.383	206.449	420.448	247.236	484.173	388.797	180.159	500.321	500.671	481.270	419.618	411.313	0.00045501	0.00052696	0.00010917	1126.1	5.4177e-06	4.6247e-06	1226.2	225.31	3.3359e-06	1.1469e-06	294.65	81.962	63.95	18.771	7.4311e-07	26.162	0.00069715	0.00075281	0.00021027	1118.9	7.8388e-06	8.272e-06	1222.3	225.65	8.1185e-06	8.2974e-06	296.29	83.447	64.952	19.246	8.2391e-06	27.117	164.758	292.961	284.275	171.242	312.812	258.506	171.232	178.761	249.667	327.371	178.868	184.957	185.369	193.131	273.333	192.186	-8191	255	
4195.082	1	1	0	0	0.032802	0.080628	0.25118	0.34751	0.16061	0.1557	0.16486	0.28194	0.26065	0.32609	0.080671	0.14123	0.24004	0.014432	0.12427	0.057844	-0.87292	-1.3583	-1.9854	-1.2854	-1.7104	-1.5208	-1.1896	-2.0958	-1.2833	-1.3188	-1.6792	-1.175	-1.6	-1.8583	-1.2958	-1.9521	387.646	373.124	329.395	460.399	162.342	424.074	179.189	379.673	234.628	181.908	325.766	380.425	165.355	365.910	375.828	493.845	0.00040882	0.00063807	0.00016154	1126.2	2.3007e-06	3.4735e-06	1234	225.22	4.006e-06	5.0045e-06	293.86	81.941	64.295	18.681	3.1469e-06	26.253	0.00068959	0.00075726	0.00021671	1119.4	8.2026e-06	8.6033e-06	1225.7	225.67	8.1888e-06	8.4518e-06	295.87	83.395	64.829	19.308	8.2839e-06	27.116	512.952	223.109	301.661	171.417	198.094	262.862	171.292	178.701	276.942	303.086	178.132	184.861	185.253	192.721	389.014	192.455	-8191	255	
4195.178	1	1	0	0	0.20106	0.12883	0.24356	0.11906	0.19564	0.28315	0.30331	0.20045	0.079774	0.16568	0.15616	0.28425	0.20793	0.33784	0.27876	0.2464	-1.0479	-1.1021	-1.925	-1.2646	-1.6021	-1.7729	-1.2271	-1.9229	-1.3937	-1.3146	-2.0542	-1.4854	-1.5354	-1.8271	-1.1292	-1.9396	456.338	227.807	380.289	348.283	347.152	176.102	442.411	406.525	288.344	282.535	350.200	452.865	356.568	468.967	307.115	447.710	0.00047477	0.00024887	8.6421e-05	1127.5	2.7178e-06	2.5772e-06	1229.6	225.36	5.3134e-06	2.6498e-06	292.55	81.93	63.9	18.823	3.4451e-06	26.282	0.00070161	0.00076842	0.00021794	1119.1	8.3311e-06	8.3755e-06	1222.2	225.93	8.2874e-06	8.4292e-06	296.47	83.575	65.048	19.244	8.2896e-06	27.19	164.017	224.393	225.438	171.322	345.668	305.152	171.260	178.761	258.017	337.080	178.574	185.249	185.271	193.097	296.531	192.340	-8191	255	
4195.274	1	1	0	0	0.15508	0.16305	0.15954	0.21018	0.092631	0.21548	0.26861	0.21015	0.085524	0.16513	0.16645	0.21779	0.11379	0.12597	0.25526	0.23501	-1.2125	-1.2125	-1.9771	-1.5187	-1.4208	-1.8771	-1.2354	-1.9	-1.6625	-1.1646	-2.0583	-1.3188	-1.4875	-2.0167	-1.0438	-1.775	341.662	336.566	225.234	456.509	356.735	407.213	425.651	455.477	268.819	238.984	354.151	387.910	462.673	484.047	210.784	510.047	0.00036086	0.00038688	6.6968e-05	1126.3	1.1592e-06	6.5553e-06	1231.5	226.68	2.6227e-06	2.3835e-06	293.23	82.429	63.99	18.741	3.1822e-06	26.154	0.00068926	0.00077623	0.00020722	1118.3	8.3267e-06	8.5452e-06	1222.1	226.38	8.2304e-06	8.3862e-06	296.43	83.349	65.024	19.287	8.3575e-06	27.122	168.850	239.431	291.914	171.391	497.001	350.138	171.431	178.866	259.872	254.503	178.497	184.886	185.148	192.433	313.512	192.518	-8191	255	
4195.395	1	1	0	0	0.092064	0.21083	0.084456	0.070091	0.18221	0.1425	0.189	0.39193	0.3255	0.072487	0.20609	0.36371	0.40982	0.21834	0.33176	0.37447	-1.2792	-1.1	-1.7542	-1.4667	-1.1708	-1.9813	-1.1167	-1.7083	-1.75	-1.0667	-1.975	-1.5771	-1.3458	-2.0812	-1.1458	-1.5667	363.045	376.153	228.027	442.573	290.070	499.171	434.569	411.285	215.125	174.116	317.469	501.141	166.807	164.934	382.553	292.082	0.00040037	0.00035621	4.8182e-05	1122.5	5.5019e-06	6.8583e-06	1233.7	225.68	3.8448e-06	3.3769e-06	293.89	82.585	64.173	18.697	5.5827e-06	26.076	0.00069849	0.00075821	0.00021319	1117.8	8.2434e-06	8.338e-06	1224.3	225.64	8.43e-06	8.4354e-06	297.07	83.469	64.954	19.225	8.3854e-06	27.094	520.531	220.681	290.464	171.361	282.166	356.172	171.475	179.072	307.278	298.277	178.790	184.585	185.403	193.103	319.577	192.399	-8191	255	
4195.491	1	1	0	0	0.18075	0.15005	0.21131	0.14881	0.23141	0.24707	0.19166	0.085932	0.046079	0.090896	0.16659	0.12429	0.084259	0.03613	0.1166	0.21565	-1.4146	-0.94792	-1.9688	-1.6562	-1.175	-2.0667	-1.3875	-1.6417	-1.7958	-0.88958	-1.8708	-1.5833	-1.1229	-2.0958	-1.1917	-1.6167	378.630	428.599	462.736	493.437	504.391	174.119	437.841	287.004	406.653	366.727	497.969	332.586	510.627	448.310	241.893	455.385	0.00034369	0.00048161	0.00012735	1131.2	1.2719e-06	6.2597e-06	1237.3	226.68	5.6362e-06	3.3274e-06	295.2	81.786	63.998	18.707	3.7119e-06	26.003	0.00069978	0.00078276	0.0002154	1120.4	8.1854e-06	8.3009e-06	1224.8	226.61	8.2952e-06	8.4782e-06	296.89	83.307	65.088	19.293	8.4104e-06	27.029	517.003	260.030	254.255	171.348	310.954	315.419	171.348	178.841	249.120	270.438	178.477	184.938	185.838	192.851	360.453	192.587	-8191	255	
4195.587	1	1	0	0	0.28139	0.20495	0.13704	0.13242	0.20281	0.058949	0.2092	0.20916	0.38597	0.14259	0.40387	0.10597	0.1302	0.15259	0.031393	0.33466	-1.4104	-1.1854	-1.6792	-1.9542	-1.175	-1.9896	-1.6479	-1.5833	-1.9875	-1.2188	-1.6917	-1.5688	-1.3583	-2.0833	-1.1938	-1.2625	429.174	413.267	350.623	484.799	308.637	279.820	488.719	441.183	174.074	287.195	201.366	507.994	441.271	200.364	186.498	244.305	0.00036553	0.00055933	4.5095e-05	1134.6	4.4799e-06	1.0747e-06	1231	225.02	2.0154e-06	4.0874e-06	297.51	82.572	64.335	18.674	3.6266e-06	26.332	0.0006964	0.00077944	0.00021697	1121.8	8.4748e-06	8.6597e-06	1224.4	225.44	8.229e-06	8.4328e-06	297.97	83.72	65.135	19.271	8.489e-06	27.156	508.196	248.815	230.828	171.556	295.133	509.489	171.352	178.766	238.518	490.843	178.304	184.823	185.565	193.039	282.266	192.454	-8191	255	
4195.682	1	1	0	0	0.16978	0.096458	0.17225	0.111	0.030961	0.060262	0.097813	0.38537	0.089702	0.20405	0.30471	0.027361	0.18778	0.15164	0.060577	0.11219	-1.5083	-1.0438	-1.7938	-1.8729	-1.0521	-1.9229	-1.6833	-1.4688	-1.9875	-1.1417	-1.7833	-1.8979	-1.1104	-1.7979	-1.525	-1.2979	383.091	195.165	216.163	395.541	184.433	394.674	409.885	170.281	316.361	309.651	463.710	488.842	214.126	426.182	504.529	332.172	0.00039741	0.00024774	0.00012925	1128.3	4.448e-06	2.5634e-06	1232.9	226.6	6.2669e-06	1.4352e-06	294.08	82.025	63.723	18.7	3.4315e-06	26.136	0.00070393	0.00077059	0.00021341	1118.2	8.3964e-06	8.5004e-06	1222.4	226.61	8.1955e-06	8.435e-06	297.22	83.364	64.829	19.242	8.2452e-06	27.073	519.764	231.718	288.145	171.167	289.139	365.775	171.408	178.849	295.458	357.843	178.287	185.062	185.114	192.810	302.309	192.634	-8191	255	
4195.778	1	1	0	0	0.35321	0.10724	0.073444	0.13962	0.18437	0.073978	0.37016	0.19289	0.27895	0.10634	0.1839	0.38936	0.24024	0.047312	0.17699	0.10526	-1.7583	-1.075	-1.4396	-1.8937	-1.1375	-1.9583	-1.7938	-1.1708	-1.9708	-1.3833	-1.5979	-1.9542	-1.1625	-1.8625	-1.8417	-1.2771	387.300	200.682	182.007	440.338	209.434	187.061	443.372	473.694	201.612	469.083	246.983	428.315	503.275	260.070	181.353	185.482	0.00042458	0.00048336	0.00014679	1128.2	5.5534e-06	1.1281e-06	1231	225.33	4.7137e-06	3.1348e-06	294.61	82.27	64.149	18.733	1.5459e-06	26.228	0.00070013	0.00075855	0.00021195	1118.3	8.2786e-06	8.2505e-06	1222.8	225.65	7.9927e-06	8.4665e-06	296.44	83.268	64.846	19.278	8.273e-06	27.06	515.595	239.216	274.218	171.340	327.567	480.622	171.207	178.642	314.027	161.645	178.683	184.720	185.584	192.982	295.460	192.541	-8191	255	
4195.874	1	1	0	0	0.13207	0.23223	0.14093	0.12685	0.16941	0.15894	0.14131	0.18149	0.1783	0.1034	0.092801	0.26434	0.11417	0.27688	0.2051	0.09957	-1.5771	-1.4271	-1.3417	-2.1813	-1.1875	-1.8271	-2.0104	-1.4583	-2.0312	-1.5396	-1.4896	-2.1333	-1.2687	-1.7083	-1.9208	-1.2625	298.999	223.228	190.253	471.373	411.570	221.935	433.129	505.378	271.677	421.396	253.263	180.734	250.814	384.215	224.592	449.276	0.00045194	0.00014388	0.0001687	1124.7	2.6268e-06	2.876e-06	1231.9	225.06	6.8977e-06	2.6196e-06	292.89	82.079	63.651	18.641	4.4408e-06	26.139	0.00069007	0.00075854	0.00020819	1116.7	8.2083e-06	8.2548e-06	1220.9	225.54	8.0298e-06	8.3709e-06	296.16	83.426	64.577	19.242	8.095e-06	26.993	162.268	237.454	225.027	171.396	222.388	357.432	171.540	178.751	279.974	293.824	178.790	185.078	185.191	193.034	325.409	192.528	-8191	255	
4195.994	1	1	0	0	0.18615	0.088633	0.22337	0.24833	0.12998	0.28402	0.12788	0.15285	0.11877	0.042446	0.22687	0.25941	0.16187	0.27438	0.16404	0.26822	-1.6083	-1.6125	-1.225	-2.1083	-1.2042	-1.7375	-2.0646	-1.2604	-1.9271	-1.65	-1.3167	-2.2333	-1.4833	-1.7354	-2.0271	-1.3062	302.973	279.173	438.298	172.594	229.471	302.614	177.559	407.019	214.518	483.330	392.340	187.145	340.375	425.067	383.469	290.630	0.00038976	0.00024996	3.7521e-05	1132.2	3.2575e-06	3.6682e-06	1228.5	225.83	5.9964e-06	2.9544e-06	295.66	81.842	63.714	18.592	3.5014e-06	26.136	0.00066381	0.00074029	0.00021126	1118.7	8.1841e-06	8.3319e-06	1221.9	225.35	7.9475e-06	8.4142e-06	297.07	83.529	64.668	19.171	8.3615e-06	27.067	171.090	282.349	409.770	171.295	304.801	346.160	171.292	178.861	255.421	474.183	178.890	184.991	185.555	193.187	343.059	192.549	-8191	255	
4196.091	1	1	0	0	0.11853	0.15376	0.19362	0.15524	0.11874	0.34835	0.38044	0.08351	0.25292	0.12484	0.4486	0.19092	0.38021	0.33562	0.33552	0.15893	-1.5167	-1.7333	-1.25	-2.1813	-1.4604	-1.525	-2.2875	-1.4229	-1.7521	-1.8083	-1.3708	-1.8875	-1.3479	-1.4958	-1.9104	-1.2146	284.928	288.691	510.603	411.922	409.666	212.387	409.780	511.559	449.205	357.158	432.136	230.970	296.549	461.189	249.350	479.237	0.00046229	0.00018198	5.5212e-05	1126.9	6.0678e-06	4.773e-06	1231.1	224.46	4.5451e-06	4.1879e-06	293.25	81.59	64.112	18.597	2.1739e-06	26.08	0.0007022	0.00078236	0.00021639	1118.7	8.4102e-06	8.7029e-06	1223	225.6	8.1479e-06	8.5828e-06	296.33	83.152	64.977	19.211	8.6514e-06	27.134	515.656	232.268	219.695	171.342	326.617	298.479	171.554	178.760	220.671	266.754	178.385	185.054	185.677	193.102	171.427	192.781	-8191	255	
4196.162	1	1	0	0	0.058556	0.27743	0.14996	0.10823	0.17082	0.21131	0.25391	0.23127	0.11426	0.25951	0.25871	0.12833	0.145	0.1242	0.15881	0.24624	-1.4375	-1.5896	-1.1437	-2.1021	-1.3062	-1.4375	-2.2708	-1.3458	-1.7521	-1.6833	-1.1104	-1.9771	-1.3271	-1.2208	-1.9188	-1.3792	423.258	254.264	406.302	339.627	178.722	376.975	442.956	165.832	415.857	340.668	435.471	190.074	224.078	435.024	212.289	449.415	0.00050556	0.0002126	2.6671e-05	1131	3.0979e-06	7.0768e-06	1236.9	226.43	5.0472e-06	4.7061e-06	294.7	82.48	63.595	18.529	2.8885e-06	26.081	0.0007215	0.00081063	0.00021846	1120.8	8.6817e-06	8.9493e-06	1225.6	226	8.6121e-06	8.8439e-06	297.43	83.563	64.746	19.174	8.5714e-06	27.06	162.497	250.415	296.877	171.519	260.867	329.550	171.267	178.647	236.446	235.266	178.942	184.852	185.374	192.793	347.649	192.441	-8191	255	
4196.258	1	1	0	0	0.068694	0.14495	0.10058	0.13624	0.058149	0.31106	0.24465	0.48014	0.13799	0.21412	0.13211	0.25382	0.44417	0.35197	0.22312	0.098491	-1.1771	-1.9292	-1.1604	-2.0771	-1.5104	-1.175	-2.2146	-1.5063	-1.4	-1.9438	-1.3042	-1.7938	-1.8083	-1.2708	-2.1208	-1.4312	398.216	445.954	451.525	201.092	448.613	463.602	198.504	430.954	453.654	445.371	393.799	177.370	448.039	497.565	392.222	516.675	0.00047389	0.00055002	4.068e-05	1132.9	2.3576e-06	3.4587e-06	1232.1	225.19	3.4924e-06	2.1158e-06	293.05	81.685	63.978	18.644	5.5571e-06	26.122	0.00071418	0.00079349	0.00021938	1122.3	8.4268e-06	8.5999e-06	1224.6	225.72	8.561e-06	8.8114e-06	296.78	83.622	64.987	19.272	8.437e-06	27.083	161.572	226.841	300.772	171.480	447.960	275.416	171.360	178.565	290.772	403.038	178.615	185.169	185.364	193.092	301.980	192.703	-8191	255	
4196.379	1	1	0	0	0.26724	0.035259	0.073102	0.16391	0.095668	0.086855	0.16971	0.084503	0.18004	0.13605	0.16077	0.033912	0.26398	0.28556	0.17208	0.10562	-1.1292	-2.0312	-1.1979	-1.9125	-1.7896	-1.2646	-2.2979	-1.4979	-1.5646	-2.1771	-1.1917	-1.7083	-1.9167	-1.3667	-1.9292	-1.3875	284.720	206.512	226.314	451.870	283.485	483.930	353.391	284.968	329.467	332.956	462.914	203.660	380.445	465.304	260.227	236.279	0.00042196	0.00063397	0.00010055	1134.3	5.4918e-06	4.0988e-06	1240.6	225.19	4.2187e-06	1.7135e-06	295.29	82.638	63.738	18.6	3.7002e-06	25.968	0.00071892	0.00079616	0.00022186	1123.6	8.477e-06	8.731e-06	1227.7	225.92	8.5426e-06	8.7846e-06	296.52	83.699	64.847	19.202	8.4355e-06	27.023	171.236	178.011	206.650	171.469	317.696	303.673	171.443	178.686	297.778	277.918	178.700	185.027	185.863	193.023	329.405	192.437	-8191	255	
4196.475	1	1	0	0	0.42388	0.33228	0.064927	0.080895	0.19236	0.1283	0.22365	0.068197	0.34061	0.14289	0.14162	0.070632	0.32269	0.36799	0.05905	0.10809	-0.675	-1.9625	-1.2083	-1.6625	-1.7563	-1.1063	-2.1417	-1.5833	-1.3146	-2.0062	-1.3771	-1.7625	-1.925	-1.1792	-1.8542	-1.6646	346.208	340.633	279.948	487.041	391.259	492.189	468.365	398.616	180.698	395.380	508.080	506.725	349.460	460.280	229.092	211.975	0.00047361	0.00030618	9.6503e-05	1131.4	6.4675e-06	1.4087e-06	1236.9	224.23	4.3583e-06	3.9109e-06	293.49	81.692	63.686	18.642	1.468e-06	26.114	0.00073503	0.00079798	0.00022108	1122.9	8.5533e-06	8.8136e-06	1226.8	225.56	8.475e-06	8.6501e-06	297.14	83.495	64.803	19.243	8.4358e-06	27.053	513.565	248.480	289.935	171.541	330.958	312.182	171.417	178.642	307.559	336.729	178.597	185.060	185.198	193.076	283.179	192.319	-8191	255	
4196.571	1	1	0	0	0.20152	0.19629	0.1928	0.45666	0.048064	0.11495	0.15873	0.13117	0.082933	0.16283	0.11346	0.28191	0.25106	0.11562	0.32253	0.38911	-0.68125	-2.0812	-1.3417	-1.725	-2.0521	-1.0521	-2.05	-1.7458	-1.1542	-2.1021	-1.3896	-1.6229	-1.9854	-1.1542	-1.7771	-1.7417	236.114	164.453	233.656	465.821	182.095	391.689	515.200	269.448	510.268	467.784	182.276	444.081	476.471	377.557	395.584	520.041	0.00046254	0.00023342	0.00014839	1133	2.202e-06	1.0469e-06	1235.4	226.16	4.6823e-06	6.0166e-07	294.42	81.896	63.694	18.534	6.1631e-06	26.132	0.00072063	0.00078012	0.00022212	1122.7	8.6381e-06	8.6857e-06	1226.8	226.3	8.6346e-06	8.6698e-06	297.21	83.417	64.908	19.245	8.3976e-06	27.155	517.318	246.360	293.401	171.281	307.268	354.809	171.359	178.749	301.929	409.205	178.887	184.663	185.532	193.144	351.182	192.092	-8191	255	
4196.668	1	1	0	0	0.11416	0.17441	0.22086	0.2061	0.053645	0.13316	0.31806	0.26203	0.049924	0.17954	0.1221	0.21761	0.30328	0.17156	0.1998	0.13302	-0.725	-1.9354	-1.3542	-1.525	-2.0292	-1.2437	-1.9917	-1.8979	-1.0667	-2.1458	-1.65	-1.3042	-2.25	-1.2521	-1.5187	-1.9917	260.387	178.567	306.181	173.332	252.264	391.195	421.582	484.561	289.118	210.408	395.444	354.047	165.601	382.917	479.574	164.792	0.00033076	0.00054884	8.2436e-05	1134.8	2.015e-06	4.6179e-06	1231.4	225.1	2.139e-06	2.4096e-06	293.96	82.344	63.709	18.7	1.7352e-06	26.249	0.00072254	0.00078656	0.00021901	1123.3	8.4506e-06	8.8434e-06	1226.9	226.24	8.383e-06	8.6605e-06	296.42	83.411	64.824	19.24	8.5249e-06	27.136	161.338	253.952	353.514	171.317	312.465	355.744	171.367	178.696	347.054	193.537	178.454	184.890	185.771	192.837	345.171	192.480	-8191	255	
4196.786	1	1	0	0	0.10249	0.19733	0.12049	0.24026	0.14208	0.18872	0.25277	0.15973	0.10576	0.18076	0.19359	0.25549	0.019684	0.25934	0.10501	0.12325	-0.7375	-2	-1.3875	-1.5792	-2.0542	-1.3021	-1.7417	-2.0708	-1.1812	-2.0021	-1.7042	-1.3104	-2.1229	-1.325	-1.3729	-1.975	269.381	435.309	183.023	430.344	422.857	389.773	459.522	171.608	309.781	260.448	468.584	518.231	290.664	490.959	429.745	429.133	0.00049832	0.00049271	0.00011874	1127.6	8.9751e-07	4.7387e-06	1238.7	226.18	5.3281e-06	4.059e-06	295.74	82.49	64.104	18.791	5.624e-06	26.101	0.00071269	0.00078294	0.00022012	1121.5	8.5366e-06	8.7694e-06	1228.6	226.09	8.4744e-06	8.7547e-06	297.38	83.654	65.12	19.299	8.6447e-06	27.07	161.348	272.270	274.940	171.445	297.592	259.803	171.348	178.590	239.426	335.820	178.830	184.970	185.651	193.237	345.478	192.304	-8191	255	
4196.858	1	1	0	0	0.26185	0.058678	0.11427	0.093718	0.16495	0.098254	0.13105	0.1526	0.27187	0.031867	0.18865	0.14247	0.30914	0.16805	0.13307	0.18051	-0.725	-1.9958	-1.6667	-1.1437	-2.0125	-1.2938	-1.7021	-2.0062	-1.0958	-1.6583	-1.8333	-1.2479	-2.0083	-1.4125	-1.3896	-2.1417	209.465	222.062	513.197	165.347	265.398	265.484	439.890	196.891	269.200	267.689	223.082	364.460	335.238	520.013	206.653	427.005	0.00041848	0.00026281	0.00014462	1131	2.1166e-06	3.9555e-06	1237.1	226.52	3.7374e-06	4.4633e-06	295.74	82.563	63.748	18.696	8.8803e-07	26.176	0.00073212	0.00080124	0.00022463	1123.8	8.8128e-06	9.1267e-06	1229.9	226.49	8.7277e-06	8.85e-06	298.16	83.853	65.054	19.281	8.7075e-06	27.116	168.816	287.181	274.906	171.393	336.486	314.068	171.546	178.643	250.633	347.586	178.520	184.996	185.557	192.458	241.464	192.421	-8191	255	
#DATA ENDS
