BOXY.EXE: ISS Imagent and Oximeter Data Acquisition Program Version 0.80
Ascii Record File

#ACQ INFORMATION
2  Detector Channels 
16  External MUX Channels 
1  Auxiliary Channels 
5000  Waveform (CCF) Frequency (Hz)
1  Waveforms Skipped 
30  Waveforms Averaged 
1  Cycles Averaged 
16  Acquisitions per Waveform 
10.0806  Updata Rate (Hz) 

#FILE INFORMATION
TRUE -- External MUX Channel results are PARSED.
FALSE -- AC DC and Phase are NOT grouped.
TRUE -- Companion Program Settings File CREATED.
FALSE -- AC data not excluded
FALSE -- DC data not excluded
FALSE -- Phase data not excluded
FALSE -- Auxillary Chn. data not excluded
Tab delimiters

#CALIBRATION STATE
TRUE -- Waveform Calibration Values APPLIED.


#AUX CALIBRATION VALUES
Val Type	aux-1	

Term	1.0000e+00	
Factor	0.0000e+00	


#WF CALIBRATION VALUES
A = Detector Channel
Val Type	A-AC1	A-AC2	A-AC3	A-AC4	A-AC5	A-AC6	A-AC7	A-AC8	A-AC9	A-AC10	A-AC11	A-AC12	A-AC13	A-AC14	A-AC15	A-AC16	A-DC1	A-DC2	A-DC3	A-DC4	A-DC5	A-DC6	A-DC7	A-DC8	A-DC9	A-DC10	A-DC11	A-DC12	A-DC13	A-DC14	A-DC15	A-DC16	A-Ph1	A-Ph2	A-Ph3	A-Ph4	A-Ph5	A-Ph6	A-Ph7	A-Ph8	A-Ph9	A-Ph10	A-Ph11	A-Ph12	A-Ph13	A-Ph14	A-Ph15	A-Ph16	

Term	0.00000e+00	0.00000e+00	0.00000e+00	0.00000e+00	0.00000e+00	0.00000e+00	0.00000e+00	0.00000e+00	0.00000e+00	0.00000e+00	0.00000e+00	0.00000e+00	0.00000e+00	0.00000e+00	0.00000e+00	0.00000e+00	0.00000e+00	0.00000e+00	0.00000e+00	0.00000e+00	0.00000e+00	0.00000e+00	0.00000e+00	0.00000e+00	0.00000e+00	0.00000e+00	0.00000e+00	0.00000e+00	0.00000e+00	0.00000e+00	0.00000e+00	0.00000e+00	0.00000e+00	0.00000e+00	0.00000e+00	0.00000e+00	0.00000e+00	0.00000e+00	0.00000e+00	0.00000e+00	0.00000e+00	0.00000e+00	0.00000e+00	0.00000e+00	0.00000e+00	0.00000e+00	0.00000e+00	0.00000e+00	
Factor	1.00000e+00	1.00000e+00	1.00000e+00	1.00000e+00	1.00000e+00	1.00000e+00	1.00000e+00	1.00000e+00	1.00000e+00	1.00000e+00	1.00000e+00	1.00000e+00	1.00000e+00	1.00000e+00	1.00000e+00	1.00000e+00	1.00000e+00	1.00000e+00	1.00000e+00	1.00000e+00	1.00000e+00	1.00000e+00	1.00000e+00	1.00000e+00	1.00000e+00	1.00000e+00	1.00000e+00	1.00000e+00	1.00000e+00	1.00000e+00	1.00000e+00	1.00000e+00	X	X	X	X	X	X	X	X	X	X	X	X	X	X	X	X	

B = Detector Channel
Val Type	B-AC1	B-AC2	B-AC3	B-AC4	B-AC5	B-AC6	B-AC7	B-AC8	B-AC9	B-AC10	B-AC11	B-AC12	B-AC13	B-AC14	B-AC15	B-AC16	B-DC1	B-DC2	B-DC3	B-DC4	B-DC5	B-DC6	B-DC7	B-DC8	B-DC9	B-DC10	B-DC11	B-DC12	B-DC13	B-DC14	B-DC15	B-DC16	B-Ph1	B-Ph2	B-Ph3	B-Ph4	B-Ph5	B-Ph6	B-Ph7	B-Ph8	B-Ph9	B-Ph10	B-Ph11	B-Ph12	B-Ph13	B-Ph14	B-Ph15	B-Ph16	

Term	0.00000e+00	0.00000e+00	0.00000e+00	0.00000e+00	0.00000e+00	0.00000e+00	0.00000e+00	0.00000e+00	0.00000e+00	0.00000e+00	0.00000e+00	0.00000e+00	0.00000e+00	0.00000e+00	0.00000e+00	0.00000e+00	0.00000e+00	0.00000e+00	0.00000e+00	0.00000e+00	0.00000e+00	0.00000e+00	0.00000e+00	0.00000e+00	0.00000e+00	0.00000e+00	0.00000e+00	0.00000e+00	0.00000e+00	0.00000e+00	0.00000e+00	0.00000e+00	-2.44074e+02	-1.38917e+02	-1.23458e+02	-1.83504e+02	-7.80274e+01	-6.98697e+01	-1.57272e+02	-1.62015e+02	-8.48116e+01	-5.88626e+01	-1.72810e+02	-1.70116e+02	-1.79941e+02	-1.76682e+02	-6.23674e+01	-1.49095e+02	
Factor	5.52849e-05	1.45846e-04	3.58442e-05	2.37707e-01	1.66745e-06	1.38744e-06	1.68909e-01	4.60247e-02	2.13902e-06	1.48554e-06	9.57930e-02	2.69634e-02	2.69403e-02	8.48901e-03	1.49846e-06	1.22238e-02	3.61109e-06	3.95243e-06	1.10144e-06	1.23024e-01	4.28733e-08	4.35643e-08	8.25659e-02	2.40976e-02	4.27199e-08	4.34751e-08	4.83216e-02	1.36188e-02	1.41214e-02	4.47111e-03	4.28401e-08	6.21873e-03	X	X	X	X	X	X	X	X	X	X	X	X	X	X	X	X	



#DISTANCE SETTINGS
A = Detector Channel
A-1	A-2	A-3	A-4	A-5	A-6	A-7	A-8	A-9	A-10	A-11	A-12	A-13	A-14	A-15	A-16	

2.5000e+00	3.0000e+00	2.5000e+00	3.0000e+00	2.0000e+00	3.0000e+00	1.5000e+00	3.0000e+00	3.0000e+00	3.0000e+00	3.0000e+00	3.0000e+00	3.0000e+00	3.0000e+00	1.5000e+00	3.0000e+00	

B = Detector Channel
B-1	B-2	B-3	B-4	B-5	B-6	B-7	B-8	B-9	B-10	B-11	B-12	B-13	B-14	B-15	B-16	

1.0000e+01	1.0000e+01	1.0000e+01	1.4400e+00	1.0000e+01	1.0000e+01	1.5100e+00	1.9400e+00	1.0000e+01	1.0000e+01	1.9900e+00	2.4900e+00	2.4100e+00	2.9000e+00	1.0000e+01	2.9800e+00	




#DATA BEGINS
time	group	step	mark	flag	A-AC1	A-AC2	A-AC3	A-AC4	A-AC5	A-AC6	A-AC7	A-AC8	A-AC9	A-AC10	A-AC11	A-AC12	A-AC13	A-AC14	A-AC15	A-AC16	A-DC1	A-DC2	A-DC3	A-DC4	A-DC5	A-DC6	A-DC7	A-DC8	A-DC9	A-DC10	A-DC11	A-DC12	A-DC13	A-DC14	A-DC15	A-DC16	A-Ph1	A-Ph2	A-Ph3	A-Ph4	A-Ph5	A-Ph6	A-Ph7	A-Ph8	A-Ph9	A-Ph10	A-Ph11	A-Ph12	A-Ph13	A-Ph14	A-Ph15	A-Ph16	B-AC1	B-AC2	B-AC3	B-AC4	B-AC5	B-AC6	B-AC7	B-AC8	B-AC9	B-AC10	B-AC11	B-AC12	B-AC13	B-AC14	B-AC15	B-AC16	B-DC1	B-DC2	B-DC3	B-DC4	B-DC5	B-DC6	B-DC7	B-DC8	B-DC9	B-DC10	B-DC11	B-DC12	B-DC13	B-DC14	B-DC15	B-DC16	B-Ph1	B-Ph2	B-Ph3	B-Ph4	B-Ph5	B-Ph6	B-Ph7	B-Ph8	B-Ph9	B-Ph10	B-Ph11	B-Ph12	B-Ph13	B-Ph14	B-Ph15	B-Ph16	aux-1	digaux	

1319.540	1	1	0	256	0.16238	0.15175	0.14427	0.061942	0.19897	0.14004	0.13935	0.11317	0.25569	0.085934	0.23662	0.15224	0.24708	0.23749	0.094964	0.097662	-2.3667	-2.7875	-2.0417	-2.9188	-2.5812	-2.2458	-3.0187	-2.1896	-2.625	-2.9979	-2.2625	-2.7833	-2.4562	-2.2292	-3.0583	-2.4354	327.622	365.330	299.988	394.975	416.568	289.965	471.730	322.493	400.523	145.868	354.581	157.006	234.641	126.025	353.229	137.074	0.00035054	0.00012719	2.0527e-05	186.06	9.432e-07	8.8726e-07	302.98	46.286	2.1587e-06	1.1059e-06	94.387	27.649	12.305	3.3285	1.24e-06	9.2061	2.3179e-05	6.892e-06	2.7192e-06	175.13	9.1016e-08	1.0065e-07	286.28	43.761	1.149e-07	7.3183e-08	88.785	25.983	11.469	3.1426	5.5157e-08	8.7829	433.108	233.765	243.868	136.477	250.200	232.394	135.636	142.486	250.049	293.101	140.015	145.324	144.940	150.974	300.909	148.918	-8191	255	
1319.636	1	1	0	0	0.16058	0.061328	0.10685	0.081852	0.14181	0.41509	0.14285	0.14074	0.19263	0.25112	0.14881	0.25053	0.30234	0.052503	0.097084	0.22462	-2.2229	-2.8042	-2.0729	-2.8292	-2.6896	-2.0021	-3.0146	-2.275	-2.6208	-2.8854	-2.0771	-2.6104	-2.5104	-2.1437	-2.9875	-2.225	272.547	309.864	254.870	376.679	363.379	265.044	471.031	128.441	453.458	219.025	437.520	238.100	175.952	396.729	234.855	201.475	0.00036624	5.7391e-05	1.8255e-05	186.41	6.8787e-07	6.0087e-07	303.64	46.31	1.1093e-06	1.2274e-06	94.914	27.663	12.22	3.3397	1.9203e-06	9.3023	2.5195e-05	6.7438e-06	2.6916e-06	174.83	9.8787e-08	1.0592e-07	285.97	43.746	1.1988e-07	4.5649e-08	89.695	26.037	11.51	3.1737	8.9161e-08	8.9042	424.160	181.625	240.362	136.133	263.478	294.131	135.410	141.718	255.668	275.340	140.038	145.467	146.581	151.834	294.665	149.822	-8191	255	
1319.732	1	1	0	0	0.19402	0.26579	0.20845	0.20545	0.42021	0.31932	0.34763	0.19596	0.1611	0.031114	0.2154	0.051033	0.19593	0.1194	0.17251	0.14226	-2.1521	-2.9417	-2.1063	-2.7833	-2.7042	-2.0833	-3.0542	-2.3646	-2.3187	-3.1229	-1.9125	-2.6208	-2.8896	-1.9771	-2.8771	-2.6813	198.063	436.075	376.843	308.383	251.028	280.418	135.026	426.174	444.954	246.846	154.312	171.460	169.029	473.929	177.164	299.063	0.00031817	9.9251e-05	3.9727e-05	188.57	1.1765e-06	6.8484e-07	308.57	46.891	2.5358e-06	1.2763e-06	96.029	27.897	12.615	3.4354	1.4829e-06	9.5689	2.4623e-05	8.5883e-06	2.5585e-06	177.32	9.1195e-08	1.1917e-07	290.3	44.235	1.3804e-07	7.2277e-08	90.852	26.387	11.745	3.2497	8.7912e-08	8.9708	432.427	185.128	197.906	136.008	240.332	268.560	135.670	141.346	266.079	272.443	140.262	144.678	145.673	151.422	281.067	148.799	-8191	255	
1319.851	1	1	0	0	0.26455	0.28084	0.085101	0.0090212	0.054826	0.2564	0.2341	0.38825	0.092006	0.23387	0.12166	0.092236	0.15551	0.0358	0.0090147	0.22856	-1.7625	-2.9	-2.1937	-2.6917	-2.8667	-2.05	-2.9688	-2.65	-2.1833	-2.8708	-2.3875	-2.4854	-2.8604	-2.0812	-3.0938	-2.8271	236.539	226.776	169.188	189.232	202.465	244.940	456.239	159.874	417.230	368.845	427.284	191.109	291.365	430.981	318.901	260.310	0.000314	5.0463e-05	2.2076e-05	188.73	1.8846e-06	9.2328e-07	308.32	47.312	1.4088e-06	1.3774e-06	95.653	27.912	12.484	3.3519	8.0752e-07	9.3222	2.4759e-05	5.9204e-06	2.4323e-06	178.6	7.3599e-08	1.1808e-07	291.27	44.588	1.3003e-07	8.5863e-08	90.222	26.274	11.626	3.1935	7.6755e-08	8.8705	431.012	203.726	235.932	135.728	292.620	303.975	135.134	141.655	298.393	324.763	139.487	144.914	146.009	151.352	321.881	148.696	-8191	255	
1319.947	1	1	0	0	0.20275	0.16684	0.29469	0.17033	0.10118	0.20553	0.17675	0.23933	0.14834	0.11335	0.13385	0.206	0.14734	0.16465	0.12405	0.22339	-1.6938	-2.9521	-2.3604	-2.2125	-3.0021	-2.1708	-2.7333	-2.6146	-2.0542	-3.05	-2.3833	-2.2625	-2.9854	-2.1646	-2.6979	-2.7938	455.097	236.138	441.784	312.020	451.101	475.965	125.172	425.500	180.131	440.373	436.764	383.169	125.639	387.989	309.048	188.105	0.00033492	0.00012196	2.9816e-05	190.32	2.121e-06	1.0245e-06	305.39	46.842	1.9519e-06	3.6985e-07	93.977	27.729	12.003	3.2972	1.5825e-06	9.2625	2.5368e-05	7.1308e-06	2.4645e-06	179.06	7.083e-08	1.1363e-07	290.87	44.431	1.3208e-07	7.2277e-08	89.698	26.107	11.502	3.1508	1.0567e-07	8.7884	427.237	195.998	165.056	136.828	248.255	239.575	135.616	141.157	258.674	280.834	139.898	144.663	145.775	150.236	291.678	149.425	-8191	255	
1320.020	1	1	0	0	0.14078	0.059386	0.28997	0.067653	0.23325	0.20344	0.084878	0.10673	0.18247	0.1933	0.072588	0.080638	0.10817	0.19126	0.16357	0.15144	-1.6042	-3.0417	-2.4583	-2.175	-3.0625	-2.2708	-2.5458	-3.0062	-2.0542	-3.1021	-2.5542	-2.0292	-3.0458	-2.2583	-2.5792	-2.9125	435.718	127.870	298.695	366.985	218.618	269.857	283.469	156.326	128.384	429.888	300.014	372.943	279.213	356.022	444.693	471.811	0.00031714	0.0001072	2.2816e-05	188.92	1.8694e-06	1.5506e-06	306.66	46.631	1.3335e-06	1.0519e-06	95.292	27.538	12.375	3.2388	1.4265e-06	9.155	2.4533e-05	6.9826e-06	2.0216e-06	176.61	7.7886e-08	1.0129e-07	289.89	44.136	1.3181e-07	6.159e-08	89.501	25.997	11.51	3.1239	1.1031e-07	8.7558	425.942	181.216	239.806	135.897	238.860	298.245	135.662	141.204	250.320	293.502	139.631	144.163	145.172	149.882	296.684	149.680	-8191	255	
1320.116	1	1	0	0	0.19626	0.17328	0.46697	0.19924	0.11647	0.046579	0.1692	0.28783	0.2498	0.19055	0.2555	0.20159	0.037489	0.236	0.033722	0.19956	-1.7542	-2.9938	-2.5958	-2.1292	-2.9271	-2.3083	-2.4562	-3.0354	-1.9792	-2.7208	-2.7521	-2.1229	-2.9729	-2.3979	-2.3271	-3.0042	255.891	196.272	451.406	313.815	196.575	174.047	348.642	387.367	360.878	321.281	445.347	370.828	265.249	179.389	281.198	428.703	0.0003056	0.00011732	1.9745e-05	189.04	1.4877e-06	7.2841e-07	306.77	46.153	1.8261e-06	4.6766e-07	94.419	27.9	12.252	3.2692	9.1914e-07	9.2491	2.4743e-05	8.72e-06	1.9115e-06	177.49	8.7444e-08	8.6584e-08	290.05	43.975	1.2967e-07	7.7349e-08	89.178	25.993	11.471	3.1425	9.7729e-08	8.7858	429.969	209.883	238.596	136.002	245.499	270.092	135.319	141.899	241.623	306.861	139.160	145.399	145.969	151.076	298.969	148.777	-8191	255	
1320.235	1	1	0	0	0.03166	0.11166	0.15882	0.30328	0.042129	0.13784	0.089466	0.16221	0.17126	0.29116	0.32008	0.25112	0.064532	0.2311	0.13187	0.068424	-1.7167	-2.875	-2.6729	-2.1146	-3.0208	-2.5271	-2.3042	-3.1562	-2.1792	-2.5396	-2.6625	-2.1458	-2.9562	-2.5083	-2.3937	-3.025	429.582	415.170	223.890	366.621	178.787	265.540	455.103	411.176	476.029	204.651	323.947	397.717	200.775	190.752	318.539	420.926	0.00030672	0.00015121	3.1491e-05	187.52	1.2073e-06	2.7174e-07	301.33	46.179	2.6193e-06	1.7897e-06	94.043	27.698	11.955	3.2221	5.2077e-07	9.204	2.4254e-05	8.1272e-06	1.464e-06	175.94	7.1991e-08	7.1972e-08	286.53	43.671	1.2682e-07	6.5394e-08	88.668	25.82	11.301	3.1067	9.5319e-08	8.7494	428.367	214.248	219.117	135.362	270.637	266.006	135.751	141.865	245.596	291.074	140.146	145.132	146.124	150.201	303.052	149.376	-8191	255	
1320.332	1	1	0	0	0.32552	0.18512	0.23227	0.17362	0.19539	0.087621	0.13621	0.19353	0.056466	0.022147	0.17602	0.12354	0.21943	0.044425	0.082891	0.18581	-1.6771	-2.7021	-2.9688	-2.1792	-2.9813	-2.5125	-2.1437	-2.8958	-2.2354	-2.4729	-2.9938	-1.9583	-2.8438	-2.5479	-2.0563	-3.0042	233.811	249.046	253.154	141.954	236.495	221.287	178.654	392.930	238.481	129.169	449.689	297.333	239.087	242.890	347.419	365.597	0.00033544	0.00011423	3.4723e-05	185.53	1.8074e-06	8.4003e-07	301.96	46.029	2.5102e-06	9.7275e-07	93.782	26.861	11.988	3.2199	4.1911e-07	8.9705	2.5962e-05	6.4474e-06	1.7325e-06	174.87	8.0119e-08	7.2063e-08	284.78	43.365	1.0991e-07	7.9251e-08	88.13	25.622	11.264	3.0862	9.8889e-08	8.6309	424.016	216.029	214.374	136.612	279.822	318.523	135.944	142.123	281.562	234.370	139.930	144.877	145.625	150.710	259.243	149.166	-8191	255	
1320.428	1	1	0	0	0.10366	0.11044	0.087735	0.14567	0.066107	0.12439	0.15156	0.10206	0.19964	0.12629	0.098606	0.17984	0.18959	0.12546	0.28569	0.273	-1.9479	-2.3479	-2.8646	-2.2208	-2.7229	-2.6479	-2.2292	-3.0563	-2.2708	-2.4333	-3.1625	-2.1979	-2.8792	-2.7042	-2.0854	-2.8833	434.299	294.047	475.976	141.633	172.709	334.156	262.633	347.996	373.901	460.850	317.087	138.392	434.490	124.872	420.157	438.340	0.00031113	8.0275e-05	2.3735e-05	184.39	8.9112e-07	7.0355e-07	304.3	46.298	3.2144e-07	8.4831e-07	94.399	27.448	12.081	3.32	6.4442e-07	9.1084	2.2163e-05	8.2836e-06	1.7095e-06	174.48	7.1455e-08	7.7236e-08	286.17	43.665	1.0591e-07	9.5283e-08	88.8	25.804	11.358	3.1239	1.245e-07	8.7138	432.271	180.682	252.150	136.449	182.224	307.616	135.011	141.838	183.574	208.842	140.551	144.870	145.737	151.421	277.610	149.218	-8191	255	
1320.524	1	1	0	0	0.22977	0.16212	0.086121	0.098586	0.21319	0.20496	0.060838	0.11647	0.14176	0.31395	0.24181	0.084469	0.13775	0.14774	0.29359	0.084206	-2.0146	-2.2354	-3.0187	-2.125	-2.6937	-2.75	-2.1937	-2.9854	-2.475	-2.1937	-3.1063	-2.2125	-2.4688	-2.8854	-2.0875	-2.8063	233.995	317.207	189.824	266.555	295.055	346.094	124.324	171.465	457.719	219.562	142.169	292.338	218.076	478.503	233.495	325.392	0.00034491	0.00011693	2.4447e-05	185.32	1.2859e-06	8.3167e-07	304.18	47.381	1.2301e-06	9.6138e-07	94.618	27.361	12.277	3.3289	9.0178e-07	9.3045	2.4224e-05	9.2059e-06	1.4548e-06	175.97	1.0495e-07	6.6254e-08	288.11	44.479	9.3806e-08	1.0289e-07	90.185	25.982	11.57	3.1796	1.2281e-07	8.8636	428.894	138.550	223.015	135.896	194.267	291.325	135.681	141.526	235.133	295.346	140.928	144.688	145.949	151.608	272.029	149.796	-8191	255	
1320.644	1	1	0	0	0.17366	0.18373	0.15316	0.31531	0.35221	0.30649	0.23074	0.20133	0.15314	0.16477	0.26815	0.17863	0.23298	0.046013	0.30953	0.13346	-2.2167	-2.0792	-3.1729	-2.3792	-2.4437	-3.0375	-2.0958	-2.7167	-2.8396	-2.2229	-2.8125	-2.3646	-2.2333	-3.0458	-1.9646	-2.7812	161.401	140.962	400.812	281.532	463.382	243.209	338.275	477.391	134.882	209.265	250.348	260.333	221.635	280.587	199.184	169.182	0.00033733	0.00013295	1.9688e-05	188.08	5.9891e-07	5.2352e-07	306.49	46.884	1.7244e-06	1.1753e-06	95.381	27.406	12.175	3.2978	1.6581e-06	9.3047	2.2675e-05	9.6752e-06	1.5673e-06	178.54	9.7447e-08	6.344e-08	290.56	44.422	9.5497e-08	1.1385e-07	89.896	25.967	11.517	3.181	1.0665e-07	8.7892	425.907	219.473	237.646	135.531	241.851	185.940	135.839	141.351	272.486	284.189	139.795	145.124	146.266	150.977	265.511	149.316	-8191	255	
1320.716	1	1	0	0	0.092235	0.27942	0.1271	0.095252	0.29433	0.14088	0.20526	0.19156	0.30273	0.17938	0.13974	0.17796	0.14335	0.085734	0.050902	0.16376	-2.3396	-2.0187	-3.1042	-2.4604	-2.2396	-2.9854	-2.2021	-2.8	-2.9833	-2.0479	-2.9667	-2.4521	-2.1646	-2.975	-2.1458	-2.5708	390.480	423.191	171.245	464.862	307.245	475.838	382.460	206.550	353.367	337.878	243.817	435.830	303.319	432.226	233.456	309.265	0.00030459	0.0001275	2.8106e-05	186.51	7.7704e-07	8.8504e-07	304.35	46.504	1.9167e-06	1.1898e-06	93.688	27.095	12.107	3.29	1.1931e-06	9.0644	2.1674e-05	1.007e-05	1.3814e-06	175.77	9.0391e-08	5.2912e-08	286.98	43.841	7.5917e-08	1.134e-07	88.553	25.652	11.395	3.1159	1.0175e-07	8.7088	423.358	198.840	181.075	136.806	285.245	243.417	135.269	141.894	246.031	282.190	139.667	145.096	145.728	150.625	303.631	148.962	-8191	255	
1320.837	1	1	0	0	0.15858	0.095603	0.13723	0.14932	0.044566	0.17006	0.10634	0.056414	0.18667	0.26026	0.027405	0.14304	0.059301	0.17381	0.32371	0.30099	-2.4229	-1.9646	-2.7167	-2.4458	-2.2125	-3.1396	-2.2625	-2.4229	-2.7708	-2.1354	-2.8875	-2.5625	-1.9458	-3.0438	-2.1542	-2.4938	229.318	301.781	249.918	472.711	384.460	162.397	155.617	153.233	444.090	410.303	159.244	341.638	462.711	388.280	255.328	218.288	0.00030213	0.00013136	2.1024e-05	183.43	9.8272e-07	1.0345e-06	302.9	46.229	2.9396e-06	3.0184e-07	93.774	27.236	11.992	3.3142	9.1318e-07	9.2562	2.0147e-05	1.0589e-05	1.5122e-06	174.1	1.0343e-07	4.0388e-08	286.41	43.641	1.0119e-07	1.0244e-07	88.685	25.679	11.346	3.1375	1.1254e-07	8.7839	426.105	205.341	230.303	135.789	246.160	276.785	136.030	141.288	289.925	261.503	140.400	145.068	146.122	150.712	273.397	149.437	-8191	255	
1320.931	1	1	0	0	0.14877	0.10764	0.2269	0.41168	0.38964	0.29513	0.10255	0.15218	0.28731	0.063004	0.053896	0.18711	0.11499	0.10396	0.15364	0.1487	-2.7354	-1.9667	-2.6188	-2.4833	-2.0563	-2.9021	-2.4042	-2.475	-2.9146	-2.2042	-2.6729	-2.8688	-2.1125	-2.8208	-2.4688	-2.2396	379.207	352.951	164.869	355.404	388.558	170.977	147.557	159.945	400.050	222.262	215.624	236.079	440.800	276.197	286.746	432.927	0.00033047	8.6007e-05	2.4305e-05	186.88	1.8257e-06	1.0841e-06	303.17	47.069	2.8204e-06	1.3711e-06	95.722	27.825	12.43	3.3024	1.3472e-06	9.3686	2.2306e-05	1.0128e-05	2.2832e-06	176.42	1.3201e-07	6.453e-08	288.38	44.387	1.1036e-07	9.9449e-08	89.954	26.149	11.591	3.17	1.0844e-07	8.8697	424.541	165.906	208.188	136.250	239.789	275.127	135.323	142.441	245.571	282.300	140.670	144.571	145.412	150.644	305.129	149.746	-8191	255	
1321.027	1	1	0	0	0.055163	0.11474	0.17286	0.050611	0.092169	0.23748	0.16672	0.10768	0.11334	0.26874	0.14708	0.06085	0.25245	0.28459	0.11477	0.31802	-2.7042	-2.1625	-2.5604	-2.7958	-2.2146	-2.9	-2.5625	-2.2521	-2.8583	-2.0958	-2.5312	-3.0208	-2.1271	-2.7917	-2.5875	-2.2521	184.862	140.265	349.155	325.365	445.411	144.630	471.624	474.669	349.459	232.323	232.100	196.442	390.116	144.011	287.765	158.228	0.0003231	8.1158e-05	2.8523e-05	187.28	1.5301e-06	6.2945e-07	306.85	46.458	1.1666e-06	8.6502e-07	95.402	27.519	12.695	3.2939	6.8283e-07	9.3972	2.296e-05	8.4154e-06	2.352e-06	177.34	1.1701e-07	7.5239e-08	290.21	44.367	8.9712e-08	9.483e-08	90.118	26.128	11.748	3.179	1.0139e-07	8.897	426.971	182.542	236.303	136.180	270.010	311.475	135.809	141.866	239.382	238.529	140.540	145.609	145.345	150.663	299.440	149.365	-8191	255	
1321.125	1	1	0	0	0.11294	0.053549	0.25287	0.22298	0.14888	0.16505	0.20226	0.029176	0.24756	0.16477	0.1457	0.2975	0.14791	0.061498	0.10562	0.33959	-2.5104	-2.2417	-2.4333	-2.8271	-1.9542	-2.8854	-2.7229	-2.0292	-3.0479	-2.2479	-2.375	-2.8312	-2.0625	-2.65	-2.625	-2.0625	155.450	187.548	282.309	241.468	193.174	148.782	433.340	329.807	429.927	282.532	471.556	421.781	406.272	256.133	461.595	204.733	0.00032223	0.00015803	1.52e-05	189.72	1.424e-06	1.9713e-06	305.79	47.169	2.0152e-06	1.2799e-07	94.238	27.749	12.529	3.3583	9.6389e-07	9.0376	2.1027e-05	9.4117e-06	1.8679e-06	177.98	1.1442e-07	6.4983e-08	288.34	44.582	9.167e-08	9.9087e-08	89.246	25.904	11.603	3.2008	1.0371e-07	8.7707	427.892	207.192	270.225	136.164	270.568	260.623	135.650	142.147	276.607	155.847	139.757	145.103	145.663	151.585	257.570	148.581	-8191	255	
1321.244	1	1	0	0	0.17324	0.23955	0.17021	0.036841	0.27957	0.3892	0.063823	0.23524	0.46575	0.098507	0.25306	0.28071	0.32874	0.24984	0.37579	0.29051	-2.725	-2.4062	-2.3333	-3.15	-2.1813	-2.7792	-2.9188	-2.2417	-2.9396	-2.4479	-2.2292	-2.9042	-2.1604	-2.7875	-2.9354	-1.9208	388.923	148.207	367.670	361.018	442.354	179.030	156.836	365.859	374.017	435.691	465.975	223.441	195.888	301.029	337.615	303.992	0.0002774	0.00010272	1.7198e-05	188.99	6.9254e-07	1.1196e-06	304.64	47.166	7.6938e-07	9.0031e-07	95.75	27.576	12.339	3.4636	1.2374e-06	9.4369	2.1012e-05	7.2873e-06	2.609e-06	176.92	1.0897e-07	7.3968e-08	287.67	44.368	8.4194e-08	8.541e-08	90.096	26.011	11.603	3.2381	7.0061e-08	8.9575	426.225	232.825	157.518	136.391	320.723	309.695	135.656	142.190	282.836	290.133	140.065	144.960	146.778	151.334	254.642	149.225	-8191	255	
1321.316	1	1	0	0	0.039215	0.194	0.17231	0.15201	0.14497	0.1648	0.28348	0.15074	0.19138	0.17453	0.13769	0.092318	0.1766	0.23764	0.067812	0.09232	-2.7042	-2.4125	-2.2708	-2.8729	-2.1813	-2.5687	-3.0396	-2.125	-2.7958	-2.5687	-2.2896	-2.8312	-2.2479	-2.3917	-2.9854	-2.2458	419.163	438.954	146.938	332.277	437.198	191.608	382.135	412.370	301.544	345.572	176.156	295.420	358.045	204.765	194.085	315.865	0.00033468	9.0525e-05	4.2642e-05	188.56	1.2898e-06	1.0188e-06	307.19	47.639	1.1412e-06	2.1077e-06	96.109	28.157	12.589	3.4789	1.2408e-06	9.4879	2.2509e-05	8.473e-06	2.8385e-06	178.6	1.2657e-07	9.811e-08	290.7	44.946	1.0822e-07	9.8996e-08	90.988	26.535	11.9	3.2948	7.9076e-08	9.1299	429.148	212.409	206.658	136.266	248.573	279.412	135.704	141.850	317.831	275.446	139.688	145.356	145.377	151.584	232.078	149.285	-8191	255	
1321.412	1	1	0	0	0.32164	0.091366	0.15831	0.23416	0.062611	0.18714	0.10109	0.11091	0.3301	0.12876	0.3502	0.10528	0.19953	0.1352	0.12404	0.15832	-2.5729	-2.6417	-2.1792	-2.925	-2.325	-2.4771	-3.1604	-2.0187	-2.5792	-2.6896	-2.1354	-2.95	-2.4333	-2.3083	-2.8312	-2.2708	296.785	131.712	287.390	357.561	227.393	355.209	134.161	291.795	400.610	311.137	127.517	176.579	430.353	354.718	295.096	180.646	0.00036718	0.00010487	4.5801e-05	189.86	1.1155e-06	4.2629e-07	307.75	47.742	2.8022e-06	1.0463e-06	97.167	28.23	12.898	3.4603	3.3386e-07	9.4733	2.3923e-05	6.1757e-06	3.3732e-06	179.71	1.0951e-07	8.6675e-08	292.17	45.372	1.0351e-07	7.4542e-08	92.04	26.773	12.004	3.3011	7.8986e-08	9.1366	426.147	190.208	232.048	135.829	220.697	265.720	136.236	141.407	255.334	248.120	140.390	145.309	146.300	152.671	300.103	149.126	-8191	255	
1321.533	1	1	0	0	0.054755	0.22416	0.10349	0.1852	0.11651	0.13288	0.028998	0.32968	0.21488	0.1767	0.1433	0.19168	0.27302	0.29652	0.037072	0.14186	-2.3396	-2.6833	-2.1333	-2.9167	-2.475	-2.0979	-3.2313	-2.3063	-2.7333	-2.9104	-2.0667	-2.8271	-2.5563	-2.2042	-3.0625	-2.1688	205.910	159.707	263.272	198.164	260.464	157.266	215.969	403.135	433.256	143.690	398.001	418.730	481.777	311.723	324.015	166.523	0.00038207	0.00017651	2.0331e-05	188.33	1.0759e-06	8.0722e-07	304.56	47.16	1.9715e-06	5.2264e-07	96.371	28.181	12.441	3.3787	6.8682e-07	9.3759	2.4029e-05	7.452e-06	3.0955e-06	179.05	1.0147e-07	1.1672e-07	289.22	44.862	1.092e-07	7.6625e-08	90.357	26.339	11.677	3.2323	7.8451e-08	8.8791	423.329	221.217	203.142	137.313	285.863	309.797	136.010	141.641	243.247	217.731	141.009	145.470	145.232	151.836	311.238	149.858	-8191	255	
1321.629	1	1	0	0	0.27322	0.24026	0.056923	0.12493	0.09911	0.19319	0.1855	0.21004	0.076073	0.20356	0.25613	0.12227	0.10195	0.1336	0.17473	0.092818	-2.0771	-2.8333	-2.0833	-2.9771	-2.6437	-2.2792	-2.9229	-2.3792	-2.4229	-2.9729	-2.1771	-2.9625	-2.6667	-2.2292	-2.9083	-2.4917	312.777	394.545	230.254	291.003	324.883	399.170	330.867	177.703	141.940	200.317	401.213	190.467	192.070	197.972	158.806	154.115	0.00034131	0.00011691	1.7694e-05	188.67	1.184e-06	9.6861e-07	305.53	46.684	1.6089e-06	1.6774e-06	94.479	27.65	12.351	3.3615	1.8421e-06	9.2241	2.4992e-05	7.7649e-06	2.6595e-06	177.49	1.0263e-07	1.0755e-07	288	44.395	1.1428e-07	6.2858e-08	89.378	25.867	11.524	3.1701	7.1757e-08	8.7584	431.235	159.694	206.725	136.246	264.137	247.490	135.540	140.826	271.198	253.864	140.442	145.547	145.463	150.416	264.976	149.038	-8191	255	
1321.725	1	1	0	0	0.31756	0.24262	0.067982	0.17186	0.078672	0.16994	0.34244	0.13949	0.15336	0.25063	0.33062	0.028129	0.26859	0.14714	0.25904	0.15385	-1.9792	-3.1542	-1.9625	-2.7958	-2.7	-2.0854	-2.9125	-2.575	-2.3979	-3.1396	-2.2583	-2.4313	-2.95	-2.1688	-2.9188	-2.6417	303.327	220.504	323.614	465.673	273.407	456.175	294.328	319.054	415.717	310.196	337.790	420.399	411.596	386.525	345.085	399.624	0.00031602	0.00025101	2.4603e-05	185.32	8.1924e-07	1.1287e-06	304.83	46.353	2.5845e-06	3.7947e-07	93.899	27.116	12.546	3.3553	1.8505e-06	9.3274	2.3246e-05	5.4264e-06	2.4805e-06	176.52	9.7805e-08	1.0056e-07	286.48	44.147	1.1508e-07	4.5739e-08	88.96	25.856	11.623	3.186	8.0682e-08	8.8358	430.387	218.998	251.844	135.478	238.672	281.673	136.532	142.329	264.345	253.852	140.485	145.797	145.448	151.617	275.123	150.054	-8191	255	
1321.821	1	1	0	0	0.52488	0.23615	0.20445	0.04064	0.057166	0.09208	0.24552	0.2311	0.1344	0.19267	0.24019	0.30479	0.21456	0.34167	0.2241	0.49436	-1.8625	-3.1604	-2.0292	-2.6021	-2.7604	-2.1167	-2.9083	-2.5458	-2.0938	-3.0271	-2.3604	-2.4854	-2.8104	-2.0271	-2.9375	-2.5583	428.927	342.856	134.328	312.320	207.044	238.055	378.987	347.476	223.903	368.146	451.636	456.241	432.960	337.553	289.116	447.018	0.00032296	0.00013192	3.792e-05	185.97	9.6359e-07	1.7662e-06	305.74	47.293	6.7619e-07	1.5848e-07	92.865	27.489	12.341	3.4083	3.6557e-07	9.2759	2.3457e-05	5.5499e-06	2.5815e-06	176.54	7.1813e-08	1.1254e-07	287.98	44.454	1.2709e-07	4.3928e-08	88.592	25.933	11.597	3.2244	6.1226e-08	8.8079	436.573	207.697	253.021	136.513	271.649	257.582	135.600	142.087	215.843	404.868	140.251	144.685	146.109	150.546	248.564	149.493	-8191	255	
1321.915	1	1	0	0	0.12341	0.15143	0.1294	0.2563	0.15681	0.24766	0.085338	0.35117	0.27604	0.15378	0.25214	0.1884	0.045644	0.076742	0.12942	0.44213	-1.8354	-2.9562	-2.3688	-2.3438	-2.9625	-2.0563	-2.8083	-2.7208	-2.0917	-3.0583	-2.5042	-2.3667	-2.8688	-2.2438	-2.7354	-2.7646	261.928	313.665	255.406	416.235	136.724	253.060	179.133	345.189	245.179	201.899	471.081	161.218	363.631	408.966	188.401	348.792	0.0003232	0.00015332	4.104e-05	187.75	9.4136e-07	9.6824e-07	302.37	46.598	6.8071e-07	1.0615e-06	92.458	26.859	12.089	3.2509	8.3995e-07	9.0353	2.3803e-05	4.6523e-06	1.9413e-06	176.21	5.5557e-08	8.6947e-08	285.83	44.011	1.1659e-07	6.485e-08	88.099	25.426	11.368	3.14	6.5777e-08	8.6092	429.491	199.800	218.772	136.096	231.040	289.165	135.743	141.943	308.706	279.511	140.361	144.840	145.365	150.670	262.525	149.172	-8191	255	
1322.012	1	1	0	0	0.13463	0.25128	0.10055	0.125	0.021442	0.094615	0.23961	0.099045	0.32677	0.28421	0.24221	0.25831	0.21698	0.1801	0.13056	0.14582	-1.7792	-2.9729	-2.5458	-2.3958	-3.2625	-2.0833	-2.7417	-2.8667	-2.1396	-2.9062	-2.6458	-2.075	-2.8792	-2.275	-2.4458	-2.7646	365.456	147.236	393.790	453.853	443.913	304.065	368.824	416.344	150.991	279.525	473.867	383.464	169.604	478.036	295.555	213.034	0.00029217	8.0928e-05	1.2417e-05	187.12	1.6736e-06	5.1156e-07	302.51	45.928	6.4252e-07	1.2987e-06	91.726	27.102	12.056	3.1895	1.2849e-06	9.008	2.4992e-05	7.3943e-06	2.0239e-06	174.78	6.1005e-08	9.6114e-08	284.64	43.541	1.0217e-07	5.9416e-08	87.009	25.377	11.209	3.1014	9.9068e-08	8.5905	428.638	205.652	244.002	136.598	233.274	295.404	136.104	141.210	245.414	270.361	139.724	145.321	146.224	151.926	250.460	149.865	-8191	255	
1322.108	1	1	0	0	0.13583	0.0079706	0.053727	0.072435	0.14414	0.013686	0.23017	0.067604	0.084198	0.12966	0.22788	0.19297	0.062918	0.27596	0.034863	0.27771	-1.5979	-2.8625	-2.4083	-2.1937	-3.0187	-2.3229	-2.4292	-2.9125	-2.0229	-2.6896	-2.8146	-2.2062	-3.025	-2.3417	-2.1729	-2.9604	145.318	311.671	198.263	218.163	282.721	465.671	455.014	136.921	474.716	203.029	482.697	371.142	338.378	221.273	440.576	407.267	0.0002908	0.00019271	1.8074e-05	185.71	1.1521e-06	7.0927e-07	302.06	45.9	1.5397e-06	1.0348e-06	91.942	27.16	12.16	3.3064	1.5922e-06	9.1601	2.1862e-05	5.8216e-06	1.9734e-06	175.14	5.386e-08	9.9109e-08	283.76	43.457	1.0644e-07	5.054e-08	87.353	25.572	11.398	3.1416	1.1504e-07	8.716	431.089	170.332	167.031	136.039	295.075	295.614	135.624	141.748	230.263	269.683	140.190	145.123	145.959	151.618	268.421	149.704	-8191	255	
1322.206	1	1	0	0	0.18977	0.18593	0.1831	0.22012	0.23753	0.14203	0.11084	0.10952	0.053548	0.14609	0.28186	0.19824	0.10864	0.12812	0.1575	0.078407	-1.6333	-2.6479	-2.7125	-2.2229	-2.8208	-2.5312	-2.2458	-3.0479	-2.1312	-2.6875	-2.8771	-2.1458	-2.9188	-2.3438	-2.2375	-3.1083	460.452	233.851	345.395	247.937	173.396	444.013	398.487	474.134	338.879	197.607	413.128	205.101	468.634	381.278	302.741	474.080	0.00031778	0.00013471	3.7087e-05	185.57	1.5436e-06	1.4479e-06	303.3	46.503	7.2857e-07	1.698e-06	95.34	27.743	12.453	3.3907	1.3467e-06	9.4445	2.4984e-05	6.1921e-06	1.363e-06	174.82	8.3246e-08	9.2574e-08	285.2	44.066	1.0858e-07	7.5719e-08	88.951	25.949	11.592	3.2118	8.6305e-08	8.9012	431.091	213.061	202.810	136.678	280.967	293.433	136.015	141.686	220.719	254.815	140.826	146.060	147.269	150.443	286.566	149.629	-8191	255	
1322.323	1	1	0	0	0.18023	0.070668	0.10285	0.1139	0.21903	0.3104	0.15408	0.32434	0.17894	0.15201	0.21803	0.11717	0.11935	0.13988	0.34931	0.18744	-1.6333	-2.6917	-2.9	-2.1792	-2.8187	-2.5042	-2.3021	-2.8979	-2.1875	-2.5062	-3.0583	-2.0479	-2.7167	-2.6021	-2.1125	-2.8937	224.618	381.631	407.611	456.192	260.158	196.396	250.073	294.560	281.830	353.793	467.219	453.186	480.960	183.340	448.109	299.612	0.00038382	4.4993e-05	3.3264e-05	188.41	4.2929e-07	9.643e-07	302.55	47.075	1.2546e-06	5.4274e-07	95.121	27.285	12.401	3.3693	7.7982e-07	9.2205	2.5398e-05	8.1931e-06	1.6636e-06	177.67	7.8601e-08	7.3152e-08	287.3	44.26	1.2113e-07	8.0519e-08	89.288	25.849	11.572	3.185	1.1549e-07	8.7482	437.261	153.631	215.010	136.714	260.114	243.203	135.714	142.006	241.235	252.298	139.853	145.145	145.224	150.700	276.672	148.546	-8191	255	
1322.419	1	1	0	0	0.18892	0.15184	0.20439	0.12657	0.36062	0.20635	0.1524	0.11806	0.17505	0.12131	0.20532	0.27762	0.20272	0.088021	0.025175	0.0385	-1.9146	-2.3875	-3.0167	-2.0563	-2.7354	-2.7562	-2.2188	-3.0687	-2.1917	-2.3354	-2.9354	-2.0208	-2.7896	-2.6792	-2.0604	-3.1208	327.755	368.354	316.929	462.130	348.958	424.182	174.756	224.813	459.502	373.792	128.372	125.357	357.547	290.695	366.545	417.804	0.00030646	4.3743e-05	2.4768e-05	189.89	1.7198e-06	1.0322e-06	301.38	46.623	2.4388e-06	8.1635e-07	93.951	27.287	12.328	3.3895	6.6665e-07	9.0885	2.4706e-05	8.9588e-06	1.4502e-06	176.46	7.8333e-08	7.9051e-08	285.62	43.912	1.2006e-07	8.2784e-08	88.592	25.711	11.505	3.1809	1.1442e-07	8.7531	427.962	158.485	154.224	135.997	230.564	279.426	134.900	141.075	270.397	276.652	139.623	144.550	146.063	150.371	316.107	148.055	-8191	255	
1322.517	1	1	0	0	0.038368	0.10376	0.20511	0.17111	0.10974	0.15272	0.17121	0.12672	0.22292	0.071936	0.090576	0.20997	0.19126	0.18488	0.24943	0.066559	-2.1312	-2.2146	-3.0667	-2.2271	-2.6104	-2.8104	-2.0646	-2.7479	-2.4417	-2.3354	-3.2062	-2.2479	-2.7167	-2.825	-2.1458	-2.8729	220.956	362.161	225.156	263.637	289.286	217.031	168.052	320.563	186.697	255.304	349.017	467.777	358.073	209.656	311.416	396.954	0.00032593	0.00012864	3.2003e-05	186.5	1.6362e-06	1.4842e-06	301.01	46.45	1.1703e-06	1.2629e-06	94.572	27.226	12.566	3.3715	1.0577e-06	9.2154	2.4202e-05	9.2059e-06	1.6177e-06	175.86	8.7444e-08	5.4728e-08	286.07	44.148	1.0618e-07	1.1358e-07	88.795	25.689	11.679	3.1809	9.3713e-08	8.7565	432.147	245.453	243.579	135.749	225.082	276.242	135.693	141.987	262.412	293.622	140.312	144.667	146.645	150.675	295.338	148.677	-8191	255	
1322.611	1	1	0	0	0.18284	0.17861	0.044802	0.15514	0.18965	0.023862	0.18288	0.29456	0.075233	0.11903	0.40239	0.025491	0.17104	0.17317	0.2518	0.36406	-2.1063	-2.0958	-2.9521	-2.2625	-2.4125	-2.9625	-2.35	-2.8125	-2.4333	-2.0604	-2.8917	-2.2833	-2.5354	-2.8521	-2.1437	-2.7625	423.739	324.032	352.547	205.506	459.188	321.553	155.080	482.793	478.344	189.347	136.637	167.283	431.164	242.637	399.863	463.047	0.0003642	0.00018613	9.6179e-06	190.74	1.4852e-06	8.8371e-07	304.56	46.837	1.35e-06	4.1286e-07	94.688	27.308	12.661	3.323	7.2761e-07	9.312	2.1832e-05	7.7155e-06	1.0831e-06	178.26	9.45e-08	3.9117e-08	289.18	44.522	1.0066e-07	9.2475e-08	89.599	25.97	11.706	3.1805	1.2727e-07	8.8287	428.741	186.613	248.145	135.195	263.123	287.008	135.699	141.179	274.595	249.146	140.298	144.420	146.261	150.854	312.200	149.621	-8191	255	
1322.707	1	1	0	0	0.30835	0.15772	0.3592	0.28039	0.1434	0.26331	0.16242	0.18359	0.44159	0.16739	0.1061	0.20116	0.17475	0.049938	0.11266	0.26124	-2.2687	-1.9333	-2.7583	-2.3667	-2.2667	-3.1333	-2.3292	-2.6063	-2.9771	-2.1792	-2.9625	-2.4875	-2.2562	-2.8688	-2.1979	-2.6396	203.682	364.504	199.694	480.355	221.558	262.188	363.725	458.896	142.874	324.084	171.657	141.370	404.544	222.719	257.438	416.989	0.00033533	0.00015949	3.6958e-05	187.1	1.4542e-06	8.0461e-07	303.88	47.018	2.4867e-06	5.718e-07	95.121	27.469	12.427	3.3075	1.4193e-06	9.0919	2.4112e-05	1.0499e-05	1.6958e-06	177.75	9.9055e-08	3.6485e-08	288.04	44.423	8.9089e-08	9.5555e-08	89.58	25.725	11.532	3.1622	1.1674e-07	8.7096	435.620	208.533	238.788	136.057	293.898	252.823	135.918	142.422	247.121	228.231	140.577	145.412	145.640	150.879	250.205	149.610	-8191	255	
1322.828	1	1	0	0	0.16476	0.14085	0.18123	0.012473	0.36333	0.11656	0.018227	0.098497	0.2277	0.17551	0.078412	0.24752	0.1291	0.10162	0.0864	0.14467	-2.45	-2.1479	-2.7896	-2.5792	-2.3042	-3.0583	-2.3229	-2.4583	-2.8646	-2.2687	-2.8271	-2.625	-2.1792	-3.0938	-2.2479	-2.6208	461.937	426.452	418.212	364.167	263.584	376.139	130.686	243.225	369.725	350.394	435.981	450.310	137.504	380.435	302.882	380.123	0.00032411	7.071e-05	4.2487e-05	185.09	1.1271e-06	1.1397e-06	303.02	46.772	1.0376e-06	9.3973e-07	93.514	26.902	12.38	3.2693	1.4265e-06	9.2002	2.0297e-05	1.0647e-05	2.1891e-06	175.61	9.8698e-08	5.4092e-08	284.41	43.948	8.7843e-08	1.067e-07	88.202	25.478	11.58	3.1099	6.8633e-08	8.6882	421.256	210.916	201.120	136.473	248.735	313.715	135.510	141.962	293.388	296.166	140.455	145.327	145.568	150.748	295.532	149.781	-8191	255	
1322.924	1	1	0	0	0.090474	0.18052	0.021252	0.041589	0.15663	0.031231	0.20341	0.10539	0.068433	0.10836	0.19824	0.0919	0.13678	0.050803	0.3182	0.16528	-2.5667	-2.1479	-2.8312	-2.6813	-1.9396	-3.0396	-2.6188	-2.4146	-2.8979	-2.1646	-2.8875	-2.6583	-2.2083	-2.7792	-2.3646	-2.2042	450.571	277.503	224.658	362.032	377.798	435.442	146.708	290.585	208.721	419.310	185.041	245.480	466.997	144.528	478.280	420.332	0.00029356	0.00010076	6.9576e-06	186.02	8.8503e-07	1.1198e-06	300.21	46.348	1.291e-06	4.989e-07	93.53	27.389	12.391	3.2397	1.1679e-06	9.0729	1.9846e-05	9.247e-06	1.3906e-06	175.1	1.3041e-07	5.4546e-08	285.04	44.109	8.7487e-08	7.8436e-08	88.444	25.7	11.545	3.1311	9.1214e-08	8.706	426.645	195.263	336.331	136.002	253.658	257.930	135.701	141.395	220.555	272.816	140.312	144.658	146.187	151.989	286.972	150.219	-8191	255	
1323.020	1	1	0	0	0.23954	0.20262	0.21762	0.080929	0.16475	0.36348	0.1266	0.13888	0.19712	0.044546	0.14991	0.26084	0.23065	0.17506	0.30705	0.16514	-2.7104	-2.1083	-2.6333	-2.6917	-1.7854	-3.0375	-2.4979	-2.1833	-3.0312	-2.1729	-2.75	-2.8563	-2.0854	-2.8	-2.575	-2.2062	180.859	324.883	360.116	423.001	421.670	343.549	405.217	454.692	137.911	325.943	291.114	364.305	132.658	401.095	394.852	133.316	0.00031184	0.00013731	4.5608e-05	188.4	1.0841e-06	6.772e-07	305.39	47.007	1.2325e-06	1.7958e-06	95.309	27.273	12.276	3.3378	2.2974e-07	9.3231	2.0576e-05	1.0317e-05	1.6315e-06	178.34	1.0165e-07	5.6271e-08	287.08	44.473	6.4881e-08	9.8181e-08	89.26	25.743	11.511	3.1907	7.8451e-08	8.8399	419.864	206.701	281.909	136.559	249.178	304.991	135.460	141.966	266.909	271.725	141.106	144.911	145.469	151.785	218.578	149.148	-8191	255	
1323.116	1	1	0	0	0.03743	0.06368	0.11701	0.22204	0.11936	0.15894	0.044968	0.20712	0.19716	0.26807	0.1723	0.027006	0.087125	0.21137	0.16345	0.14196	-2.7917	-2.2729	-2.4521	-3.0583	-1.9604	-2.7104	-2.5396	-2.0771	-3.0563	-2.3854	-2.6833	-2.9479	-2.2146	-2.8854	-2.7521	-2.1917	238.525	136.017	387.447	157.249	303.045	321.559	415.294	439.504	185.219	303.842	126.583	170.962	206.029	246.532	289.905	404.551	0.00033359	6.4312e-05	1.1585e-05	187.57	1.0961e-06	9.6144e-07	302.58	46.888	2.1042e-06	1.2921e-06	94.278	27.368	12.166	3.294	1.6411e-06	9.2607	2.0418e-05	7.4602e-06	2.1134e-06	178.12	1.0727e-07	5.1914e-08	286.6	44.496	6.7729e-08	6.1137e-08	89.26	25.758	11.558	3.1814	9.0946e-08	8.7651	426.563	233.098	259.486	135.913	288.389	291.290	135.531	141.715	281.064	281.075	140.362	144.791	146.031	151.530	272.614	148.971	-8191	255	
1323.188	1	1	0	0	0.27906	0.16919	0.24372	0.044693	0.10023	0.19168	0.10967	0.19946	0.10835	0.13233	0.29871	0.069742	0.38795	0.099632	0.15543	0.25357	-2.8125	-2.5042	-2.4229	-3.0667	-2.2062	-2.9729	-3.0146	-2.2375	-3.2042	-2.5396	-2.3042	-3.0917	-2.1396	-2.6229	-2.9458	-2.0792	248.940	453.592	327.214	393.221	162.597	401.278	376.578	483.742	188.997	386.734	243.475	318.430	234.678	276.773	169.429	394.572	0.00030808	0.00015006	3.9331e-05	188.42	1.2477e-06	1.3184e-06	304.74	46.077	2.2973e-06	8.5003e-07	93.818	27.544	12.162	3.2772	1.051e-06	9.1432	2.0124e-05	6.0028e-06	2.5976e-06	176.52	8.9051e-08	6.3803e-08	287.1	43.962	7.7786e-08	7.6987e-08	88.33	25.698	11.451	3.1465	6.7562e-08	8.7514	426.343	197.974	176.397	136.272	256.379	292.443	135.835	141.995	244.784	303.160	139.998	144.855	146.643	151.427	218.249	149.147	-8191	255	
1323.309	1	1	0	0	0.20137	0.5112	0.12868	0.19361	0.17218	0.13096	0.11307	0.29703	0.25937	0.29896	0.15675	0.12456	0.18378	0.11276	0.030011	0.27541	-2.5542	-2.4854	-2.1917	-3.1021	-2.2188	-2.7229	-3.1125	-2.0792	-2.925	-2.6292	-2.2708	-3.0729	-2.1458	-2.4854	-2.8146	-2.1146	327.857	204.341	225.928	299.981	190.659	191.767	233.902	190.034	172.807	376.967	360.770	359.628	358.904	253.851	183.181	272.620	0.00029441	7.4328e-05	2.903e-05	188.08	9.4993e-07	8.2279e-07	301.58	46.31	3.3847e-06	8.6697e-07	94.553	27.543	12.46	3.4116	8.4245e-07	9.3935	2.0628e-05	7.2132e-06	2.3612e-06	177.29	9.057e-08	6.7888e-08	285.13	44.115	1.036e-07	6.5575e-08	89.04	25.942	11.664	3.2475	6.2475e-08	8.9136	429.551	173.612	229.183	135.853	308.970	277.017	135.329	141.783	285.877	266.667	140.199	145.968	146.319	152.562	250.601	148.585	-8191	255	
1323.405	1	1	0	0	0.21188	0.030518	0.17455	0.14844	0.27935	0.21583	0.18571	0.10696	0.13241	0.19511	0.15147	0.097413	0.35712	0.13572	0.095677	0.40022	-2.6688	-2.5792	-2.1562	-3.0187	-2.3729	-2.5083	-3.0021	-2.225	-2.6396	-2.7646	-2.2083	-2.9062	-2.3167	-2.4521	-3.0438	-2.1458	254.955	269.564	141.438	362.031	292.581	466.098	180.782	436.121	295.700	448.171	361.948	353.399	398.496	422.074	422.903	383.113	0.00036398	0.00018196	2.2061e-05	191.35	2.1718e-06	1.455e-06	304.83	47.147	2.1953e-06	8.0448e-07	96.06	28.278	12.734	3.4222	1.3341e-06	9.4052	2.1433e-05	6.5462e-06	2.5356e-06	178.97	8.8426e-08	9.6204e-08	289.14	44.878	8.4639e-08	4.0667e-08	90.938	26.55	11.829	3.2868	6.3814e-08	9.0202	434.142	177.699	222.803	136.073	276.112	266.291	135.350	140.566	237.192	302.646	139.868	144.910	145.878	150.522	263.727	147.657	-8191	255	
1323.499	1	1	0	0	0.12314	0.058902	0.074585	0.078845	0.039477	0.284	0.23612	0.12348	0.20463	0.1626	0.08704	0.16309	0.062492	0.097441	0.15173	0.20035	-2.425	-2.8812	-1.9521	-3.0875	-2.4625	-2.4042	-3.1458	-2.2271	-2.5083	-3.025	-2.1604	-3.075	-2.6437	-2.3104	-3.05	-2.2896	199.221	399.392	210.801	148.093	265.198	167.552	460.688	398.501	453.015	366.229	391.311	312.335	465.817	457.462	353.717	346.637	0.0003658	0.00012843	2.9984e-05	188.32	1.0483e-06	1.1098e-06	307.62	48.066	9.9177e-07	1.4112e-06	96.005	27.82	12.441	3.3896	2.0006e-06	9.2929	2.3818e-05	5.3934e-06	2.1868e-06	179.08	9.3517e-08	8.5495e-08	290.82	45.364	1.1712e-07	7.0104e-08	90.797	26.303	11.757	3.2272	6.3814e-08	8.9063	426.120	183.797	248.961	135.995	266.174	277.308	135.835	141.469	254.737	248.165	139.700	145.703	144.783	151.297	280.577	149.178	-8191	255	
1323.620	1	1	0	0	0.1903	0.2529	0.26628	0.13424	0.33086	0.11249	0.05178	0.053507	0.15526	0.031347	0.1218	0.16842	0.20871	0.19807	0.31269	0.15909	-2.2083	-2.925	-2.1625	-2.7188	-2.6937	-2.1292	-3.2354	-2.3312	-2.5354	-3.0812	-2.0938	-2.825	-2.7375	-2.1583	-3.0208	-2.5125	221.337	431.760	201.341	370.990	171.386	390.660	368.487	361.310	256.425	132.522	278.717	257.505	147.386	244.584	204.182	411.295	0.00031508	0.00014562	3.2861e-05	185.43	1.2817e-06	1.7909e-06	305	47.378	1.039e-06	7.3197e-07	93.381	27.496	12.301	3.3574	7.9682e-07	9.0978	2.3036e-05	6.2004e-06	2.7306e-06	176.98	8.0387e-08	9.5115e-08	288.2	44.561	9.0602e-08	4.112e-08	88.907	25.774	11.602	3.1886	6.5331e-08	8.7224	427.355	264.478	206.982	135.589	214.790	295.179	135.037	141.464	245.252	262.359	140.724	144.565	145.341	151.227	257.140	148.901	-8191	255	
1323.716	1	1	0	0	0.1556	0.13997	0.21802	0.054535	0.16798	0.20379	0.11755	0.12082	0.10941	0.077744	0.16128	0.19624	0.01178	0.12361	0.088519	0.11624	-1.8542	-2.9708	-2.1792	-2.7083	-2.7	-2.3063	-3.0125	-2.3708	-2.4375	-3.1646	-2.2188	-2.5896	-2.9333	-2.0104	-2.8604	-2.4833	397.027	419.454	428.062	173.072	434.948	380.374	446.805	218.819	336.664	462.472	379.898	191.687	197.257	468.131	128.429	169.612	0.00032511	7.7621e-05	6.7657e-06	188.15	4.8595e-07	7.8524e-07	303.53	46.52	1.9946e-06	3.9168e-07	93.354	27.56	12.447	3.3433	1.3942e-06	9.1718	2.3058e-05	4.6194e-06	2.1203e-06	177.07	6.2702e-08	9.8383e-08	286.68	44.215	1.0582e-07	4.4834e-08	88.416	25.796	11.551	3.1908	5.1676e-08	8.7601	425.462	239.606	199.564	135.453	227.351	249.924	135.458	141.310	257.342	261.994	139.930	145.037	145.795	150.657	280.699	148.138	-8191	255	
1323.812	1	1	0	0	0.25913	0.15506	0.18178	0.21968	0.14417	0.16248	0.035629	0.058196	0.46969	0.025224	0.017249	0.14892	0.15335	0.25277	0.1181	0.29259	-1.8271	-3.125	-2.2188	-2.4771	-2.95	-2.0146	-2.8937	-2.7583	-2.2938	-3.0167	-2.4	-2.6437	-2.8167	-2.0771	-2.9417	-2.7771	172.385	231.515	438.613	314.112	391.899	311.295	385.067	235.913	304.470	448.874	359.913	156.640	291.784	383.226	424.167	203.233	0.00030701	0.00010712	1.1675e-05	188.78	6.9017e-07	6.5536e-07	304.93	47.09	2.1576e-06	1.112e-06	95.572	27.199	12.67	3.3531	9.3009e-07	9.2917	2.3367e-05	4.5288e-06	1.9275e-06	177.5	7.3688e-08	9.2846e-08	288.01	44.536	1.1935e-07	4.2388e-08	89.587	25.803	11.719	3.2088	6.426e-08	8.8484	433.267	236.789	218.612	135.813	318.493	325.917	135.932	140.746	234.221	287.748	140.095	144.324	144.297	151.057	310.677	148.876	-8191	255	
1323.908	1	1	0	0	0.27975	0.11227	0.31393	0.094235	0.079619	0.19716	0.19595	0.19313	0.17143	0.066754	0.12983	0.11639	0.20887	0.10985	0.10003	0.18107	-1.7979	-3.0708	-2.3812	-2.6	-2.9583	-2.225	-2.8292	-2.8333	-2.1063	-3.0479	-2.5667	-2.3083	-3.0229	-1.975	-2.7771	-2.8479	154.972	191.300	347.688	241.838	400.137	460.705	307.742	258.977	223.167	149.825	322.825	435.269	124.137	168.926	378.680	360.102	0.00034509	0.00015179	2.6534e-05	186.98	1.4164e-06	1.5827e-06	305.98	47.468	1.109e-06	3.1213e-07	95.328	28.01	12.669	3.4409	5.702e-07	9.4851	2.3449e-05	4.1748e-06	1.6935e-06	177.53	6.297e-08	8.9942e-08	289.89	44.82	1.2068e-07	4.6736e-08	89.822	26.236	11.765	3.2769	7.8362e-08	8.9928	423.299	223.815	257.541	136.476	260.668	290.731	135.617	141.023	194.688	236.650	139.363	144.900	145.687	151.135	280.521	149.071	-8191	255	
1324.004	1	1	0	0	0.076278	0.13518	0.139	0.098469	0.12187	0.18267	0.14973	0.17166	0.098416	0.15352	0.19563	0.049436	0.1133	0.20438	0.15633	0.13866	-1.9104	-2.9604	-2.5396	-2.275	-2.9667	-2.1583	-2.6312	-2.7417	-2.2896	-2.8854	-2.6271	-2.2062	-3.2812	-2.3208	-2.5458	-3.0167	476.123	359.266	140.788	429.437	468.942	199.775	271.517	427.744	465.470	260.611	263.307	359.039	453.307	454.007	299.428	295.827	0.0003062	8.1922e-05	3.802e-05	189.13	5.4575e-07	1.6267e-06	303.84	47.291	2.3655e-06	1.2686e-06	94.845	27.303	12.285	3.2976	1.2039e-06	9.1167	2.2923e-05	6.2251e-06	2.2098e-06	177.73	6.9758e-08	8.4224e-08	286.64	44.539	1.2353e-07	4.5287e-08	89.139	25.728	11.563	3.1643	8.0236e-08	8.587	430.152	168.792	228.294	135.386	238.827	284.519	135.796	141.580	244.352	291.333	140.383	144.235	145.677	150.314	245.326	149.111	-8191	255	
1324.101	1	1	0	0	0.092588	0.10772	0.41878	0.18395	0.15196	0.11349	0.11609	0.13234	0.014272	0.053161	0.077279	0.2888	0.26467	0.29657	0.19525	0.085892	-1.6896	-2.8312	-2.5333	-2.2167	-3.1292	-2.3708	-2.6042	-3.0083	-1.9542	-2.7354	-2.7917	-2.1958	-3.0312	-2.3875	-2.3417	-3.0083	327.084	214.185	354.644	195.818	209.082	187.081	380.377	393.581	215.199	215.515	378.326	202.218	457.575	339.521	264.226	306.021	0.00038926	4.4496e-05	3.2137e-05	189.07	1.682e-06	9.8761e-07	307.22	46.199	1.7103e-06	1.0522e-06	93.662	27.187	12.547	3.2826	1.1988e-06	9.0322	2.4488e-05	3.7877e-06	2.2098e-06	179.16	7.1813e-08	8.0775e-08	289.53	44.38	1.1686e-07	6.4488e-08	89.275	25.499	11.604	3.1863	9.0589e-08	8.6983	430.024	216.030	227.478	135.858	287.933	256.503	135.078	141.420	262.929	284.069	140.266	144.688	145.894	150.572	239.937	149.563	-8191	255	
1324.197	1	1	0	0	0.10495	0.2513	0.18147	0.21975	0.10845	0.076871	0.25752	0.15097	0.22024	0.22659	0.16803	0.24556	0.11374	0.092207	0.088097	0.079937	-1.7375	-2.8125	-2.7271	-2.1208	-2.9979	-2.4396	-2.4021	-2.9771	-2.2292	-2.5854	-2.8812	-2.0917	-2.7979	-2.7188	-2.325	-3.0875	468.687	349.806	337.295	373.640	470.404	349.543	173.596	128.850	305.744	252.074	338.685	374.225	317.625	135.977	349.960	378.249	0.0003246	8.4659e-05	2.4152e-05	191.54	1.6608e-06	8.3146e-07	307.53	47.122	1.3289e-06	1.1948e-06	94.906	27.941	12.698	3.4642	1.0834e-06	9.5225	2.3389e-05	6.9579e-06	2.2327e-06	179.67	7.9316e-08	7.8234e-08	291.53	44.854	1.1748e-07	8.858e-08	90.347	26.371	11.905	3.3264	1.3039e-07	9.1499	430.240	187.608	217.387	136.352	254.722	297.140	135.541	141.392	277.590	255.276	139.707	145.354	144.923	150.667	252.067	149.082	-8191	255	
1324.317	1	1	0	0	0.25209	0.078258	0.27332	0.20914	0.10942	0.10306	0.15835	0.061264	0.067239	0.058346	0.13722	0.32453	0.16545	0.30252	0.2952	0.24756	-1.9104	-2.6083	-2.9437	-2.1521	-3.0229	-2.4667	-2.1417	-2.9708	-2.3771	-2.7083	-2.9688	-1.95	-2.8292	-2.5563	-2.2708	-3.0896	294.180	138.250	216.139	430.222	285.592	457.414	408.139	229.903	134.741	284.190	186.108	333.898	471.792	286.170	349.380	427.368	0.00030875	6.3951e-05	2.8464e-05	194.67	1.8564e-06	5.7372e-07	315.03	48.276	1.5309e-06	9.5513e-07	98.128	28.611	13.306	3.6173	1.298e-06	9.701	2.7038e-05	8.4483e-06	1.822e-06	183.19	1.0325e-07	1.051e-07	297.43	45.854	1.4329e-07	1.0217e-07	92.623	26.996	12.387	3.4689	1.4164e-07	9.3259	430.481	170.078	227.009	135.627	255.627	286.837	135.395	141.838	241.367	295.514	139.755	144.420	145.372	150.694	313.208	149.264	-8191	255	
1324.412	1	1	0	0	0.064073	0.13605	0.38548	0.15607	0.14755	0.14642	0.23176	0.059805	0.23522	0.040482	0.12098	0.097833	0.15255	0.10744	0.1511	0.094361	-2.0062	-2.3979	-2.8979	-2.0854	-2.8854	-2.8688	-2.3354	-3.0687	-2.3792	-2.3208	-3.1417	-2.2313	-2.7104	-2.6729	-2.2396	-3.0521	339.266	156.357	411.764	243.434	220.698	396.746	432.652	267.245	195.739	173.827	294.954	180.629	466.667	174.179	389.481	201.320	0.0003895	0.00015033	9.4985e-06	195.4	8.9623e-07	8.4869e-07	312.72	48.816	2.5556e-06	1.308e-06	96.93	28.521	13.065	3.5963	1.8e-06	9.5829	2.8663e-05	1.1001e-05	2.1226e-06	184.13	1.0397e-07	7.7236e-08	296.29	46.097	1.3928e-07	1.1086e-07	92.065	26.949	12.225	3.3872	1.2727e-07	9.1646	426.703	235.079	261.327	135.750	292.166	314.739	135.686	141.000	260.444	273.805	139.627	144.324	145.501	150.539	267.924	148.330	-8191	255	
1324.508	1	1	0	0	0.27443	0.13968	0.079452	0.12096	0.17575	0.24971	0.052013	0.17409	0.14381	0.060282	0.22775	0.11737	0.1097	0.10585	0.12294	0.046953	-2.0938	-2.3563	-3.0375	-2.1667	-2.5854	-2.9354	-2.1104	-3.0125	-2.675	-2.3417	-2.9875	-2.175	-2.5104	-3.1083	-2.1896	-3.0167	312.463	453.265	330.096	461.864	398.011	301.199	472.734	260.049	415.212	240.540	279.122	329.566	291.719	176.558	432.463	251.452	0.00033125	0.00011594	3.0955e-05	193.74	2.2743e-06	6.1617e-07	312.73	48.08	2.73e-06	1.2991e-06	95.088	27.983	12.829	3.4417	8.1933e-07	9.4222	2.354e-05	9.914e-06	2.0652e-06	182.25	1.0584e-07	7.4967e-08	294.79	45.512	1.1161e-07	1.3568e-07	90.816	26.422	11.948	3.2791	1.3762e-07	8.9998	426.720	219.229	203.680	135.762	258.340	320.808	134.976	140.992	237.590	301.750	139.460	144.642	145.756	151.315	314.363	148.477	-8191	255	
1324.604	1	1	0	0	0.083091	0.20675	0.13148	0.072488	0.18542	0.17603	0.23969	0.030372	0.18108	0.22409	0.091516	0.051532	0.30001	0.11123	0.17327	0.094705	-2.0625	-2.1917	-2.9125	-2.4688	-2.4437	-2.9792	-2.0771	-2.8042	-2.7042	-2.0542	-2.9417	-2.3167	-2.4938	-2.9583	-2.0354	-2.8125	191.291	209.484	251.069	234.138	250.545	174.001	452.535	196.020	242.414	386.400	251.248	347.170	242.442	444.665	364.557	151.996	0.00034695	0.00011507	1.9167e-05	194.08	1.127e-06	7.2719e-07	311.79	48.785	4.2039e-07	1.7866e-06	96.468	28.105	12.942	3.5752	1.2886e-06	9.7231	2.5135e-05	1.0589e-05	2.2373e-06	182.25	1.0647e-07	8.8308e-08	294.93	45.405	1.0146e-07	1.23e-07	91.086	26.638	12.081	3.3986	1.3566e-07	9.3402	430.329	237.137	245.598	135.158	256.771	248.724	135.277	141.396	238.744	266.680	139.590	144.413	145.789	150.584	283.736	148.798	-8191	255	
1324.700	1	1	0	0	0.036888	0.31681	0.12516	0.027229	0.047734	0.14655	0.11245	0.1233	0.12049	0.19294	0.23909	0.095742	0.20969	0.042436	0.067616	0.09304	-2.2542	-2.125	-2.9646	-2.4896	-2.2854	-3.1958	-2.1667	-2.6979	-2.7687	-2.0687	-3.1562	-2.3937	-2.3	-2.9813	-2.1854	-2.7438	432.752	221.624	307.049	402.976	169.707	397.020	151.215	222.622	131.065	424.495	370.633	148.725	300.475	124.907	395.492	233.864	0.00039292	0.00014551	2.2962e-05	193.98	2.1241e-06	1.1938e-06	314.61	48.412	6.7697e-07	9.1962e-07	97.708	28.396	13.031	3.4801	4.3511e-07	9.7351	2.5947e-05	1.1849e-05	1.8472e-06	183.08	1.2005e-07	7.1427e-08	297.07	45.749	1.1588e-07	1.1919e-07	92.114	27.003	12.137	3.3331	1.046e-07	9.3182	427.034	175.815	221.440	134.964	275.444	209.188	134.666	141.117	460.869	280.624	139.207	144.627	145.874	151.562	173.003	149.411	-8191	255	
1324.796	1	1	0	0	0.16399	0.053738	0.23332	0.090276	0.14972	0.05513	0.080898	0.05847	0.10288	0.16941	0.26645	0.078336	0.23646	0.071815	0.16513	0.063388	-2.6188	-2.2125	-2.8042	-2.6229	-2.2125	-2.9062	-2.1125	-2.4792	-2.7604	-2.125	-3.1104	-2.5417	-2.3167	-3.1292	-2.3125	-2.5208	291.353	329.822	359.958	325.663	323.763	386.044	379.357	318.954	223.633	230.880	400.656	189.835	166.460	135.870	337.087	128.675	0.00034715	0.00013391	3.9981e-05	192.76	1.1235e-06	7.473e-07	312.32	48.043	1.4705e-06	1.1877e-06	97.876	28.73	13.328	3.5334	7.2706e-07	9.7764	2.3863e-05	9.7987e-06	2.1455e-06	182.93	1.2782e-07	5.8721e-08	295.55	45.554	1.2291e-07	1.2472e-07	92.917	27.355	12.334	3.4036	1.2308e-07	9.3082	431.097	216.143	185.567	136.316	290.056	361.319	135.040	140.996	232.858	294.215	139.869	144.765	145.623	151.687	244.282	149.450	-8191	255	
1324.893	1	1	0	0	0.14551	0.18042	0.1054	0.10624	0.29969	0.22983	0.25214	0.096419	0.32104	0.18155	0.034152	0.24018	0.22789	0.23278	0.22696	0.37682	-2.7062	-2.1417	-2.7292	-2.5187	-2.225	-3.1104	-2.4854	-2.3354	-3.1021	-2.2875	-2.7625	-2.6813	-2.075	-2.9188	-2.5792	-2.2812	305.298	303.877	323.866	310.880	314.313	330.384	412.577	405.682	136.620	211.567	435.452	151.172	185.895	179.573	145.607	124.721	0.00037309	7.2261e-05	1.2628e-05	193.76	1.325e-06	9.4396e-07	308.47	48.101	1.2441e-06	6.3078e-07	95.871	28.815	12.945	3.5524	1.7152e-06	9.7272	2.5594e-05	1.0219e-05	2.2878e-06	182.11	1.2987e-07	7.061e-08	292.21	45.358	1.2727e-07	1.1494e-07	91.217	27.106	12.154	3.3817	1.1585e-07	9.3341	427.885	228.863	191.006	136.045	307.105	272.311	135.335	141.804	291.781	321.577	139.431	144.543	145.308	150.251	255.902	149.142	-8191	255	
1325.013	1	1	0	0	0.27754	0.23337	0.17278	0.25823	0.099464	0.26906	0.1972	0.033449	0.089974	0.3506	0.17786	0.16701	0.14148	0.042946	0.21074	0.24942	-2.6146	-2.0604	-2.6896	-2.7792	-2.15	-2.8896	-2.5812	-2.3354	-3.1229	-2.1312	-2.4125	-2.9083	-2.2438	-2.7854	-2.7229	-2.1646	156.907	437.210	208.122	314.848	254.459	259.231	472.738	461.223	317.587	279.573	226.549	472.265	188.601	178.296	411.232	423.694	0.00037921	9.6481e-05	3.091e-05	194.21	1.9919e-06	9.3514e-07	308.07	48.763	1.6182e-06	1.2234e-06	98.882	29.11	13.129	3.6219	1.6328e-06	10.097	2.4473e-05	1.1454e-05	2.5815e-06	181.44	1.5086e-07	6.7888e-08	292.78	45.848	9.6387e-08	1.2119e-07	92.769	27.442	12.274	3.4749	1.1219e-07	9.5502	431.626	227.382	226.849	135.955	252.297	270.279	134.724	141.318	279.619	196.843	139.803	145.107	146.154	149.868	287.739	149.008	-8191	255	
1325.085	1	1	0	0	0.1034	0.038681	0.039241	0.04655	0.10045	0.092668	0.17807	0.15103	0.11628	0.19014	0.033016	0.27808	0.14461	0.11448	0.14792	0.14307	-2.6271	-2.2562	-2.45	-2.8958	-2.1188	-2.8521	-2.5792	-2.0208	-3.1146	-2.5542	-2.5292	-3.0563	-1.9833	-2.6521	-2.8063	-2.1667	222.832	274.390	446.351	440.769	197.545	426.908	254.271	130.413	436.564	158.278	437.846	336.435	138.677	159.820	442.554	413.102	0.00039506	0.00010626	2.6756e-06	191.96	1.0932e-06	4.9561e-07	309.49	48.141	2.3879e-06	1.386e-06	97.567	28.938	13.116	3.5513	1.0155e-06	9.6885	2.4435e-05	1.0935e-05	3.0794e-06	180.69	1.2344e-07	9.1485e-08	292.17	46.129	7.5917e-08	1.0842e-07	92.474	27.326	12.35	3.4163	1.1353e-07	9.253	427.613	260.836	254.120	134.941	297.245	262.528	135.493	140.361	238.551	309.546	139.354	144.781	145.399	151.140	315.202	148.484	-8191	255	
1325.181	1	1	0	0	0.21296	0.21577	0.23187	0.16942	0.095512	0.29789	0.097362	0.29889	0.13895	0.27559	0.16051	0.20966	0.27059	0.18468	0.21028	0.057246	-2.4292	-2.4354	-2.3042	-3.1104	-2.2208	-2.8771	-2.7375	-2.0792	-2.9396	-2.4729	-2.2792	-3.1646	-2.275	-2.7083	-2.8729	-2.3167	182.590	423.270	275.171	322.656	337.881	178.217	475.201	165.286	375.559	132.161	372.041	474.960	373.587	470.623	341.799	433.333	0.00035692	0.00010085	2.5852e-05	194.12	1.4238e-06	9.5632e-07	307.36	47.977	2.0044e-06	9.196e-07	97.377	28.581	12.995	3.4658	9.2074e-07	9.4203	2.3374e-05	1.0161e-05	2.8018e-06	181.42	1.3344e-07	6.9703e-08	292.04	45.583	1.0698e-07	1.1294e-07	91.725	26.794	12.123	3.3282	7.497e-08	9.0743	430.359	215.316	234.593	136.061	209.265	295.479	135.234	140.863	248.113	300.702	139.569	144.237	145.384	150.491	207.750	148.696	-8191	255	
1325.277	1	1	0	0	0.20538	0.052996	0.30256	0.13168	0.1678	0.22302	0.29234	0.069887	0.18916	0.16766	0.11885	0.17956	0.14786	0.094654	0.086528	0.47551	-2.3563	-2.5167	-2.3312	-3.0229	-2.3958	-2.6521	-2.9521	-2.1562	-2.9542	-2.6854	-2.1813	-2.9021	-2.2521	-2.4646	-2.8187	-2.1	146.475	416.108	223.842	331.864	185.012	246.356	187.600	240.390	246.480	133.277	247.524	317.026	221.773	358.235	189.926	396.398	0.00036478	6.7408e-05	3.1509e-05	190.35	1.6088e-06	4.0981e-07	306.84	48.558	1.2738e-06	1.8578e-06	97.016	28.484	12.717	3.5593	1.2814e-06	9.4525	2.4646e-05	8.613e-06	3.0748e-06	179.75	1.1683e-07	9.094e-08	289.5	45.557	1.0991e-07	8.8128e-08	91.384	26.705	12	3.3504	7.6487e-08	9.0508	433.143	246.394	174.532	135.532	232.581	326.967	135.587	139.976	243.728	276.575	140.140	144.402	145.005	151.466	271.385	148.706	-8191	255	
1325.396	1	1	0	0	0.01333	0.36433	0.128	0.38091	0.1864	0.056193	0.058381	0.11247	0.17785	0.17874	0.054618	0.29201	0.080901	0.083402	0.29654	0.31188	-2.3979	-2.7458	-2.0021	-3.1042	-2.2729	-2.3333	-3.05	-2.1542	-2.6771	-2.7667	-2.1021	-2.9979	-2.3625	-2.2125	-3.1229	-2.3229	334.118	364.423	417.554	289.588	342.823	315.073	438.007	413.522	136.781	347.259	483.272	268.159	412.091	405.490	394.707	251.950	0.00033459	0.00017102	1.2759e-05	191.91	9.3593e-07	1.0265e-06	308.39	48.144	1.4636e-06	6.388e-07	97.032	28.856	12.835	3.4954	9.76e-07	9.5892	2.3216e-05	8.6377e-06	3.5957e-06	180.2	1.2281e-07	1.1626e-07	291.12	45.528	1.2335e-07	8.1244e-08	91.699	27.049	12.059	3.3553	8.0236e-08	9.1933	429.530	183.031	248.260	135.626	264.803	274.803	135.202	141.519	246.762	264.417	139.390	144.629	145.495	150.264	269.573	148.791	-8191	255	
1325.492	1	1	0	0	0.11236	0.17423	0.073192	0.20217	0.1044	0.083464	0.13926	0.096781	0.098557	0.17944	0.18079	0.16146	0.037907	0.11014	0.065961	0.39156	-2.4688	-2.6479	-2.25	-2.9021	-2.4479	-2.2292	-3.0125	-2.0563	-2.6875	-2.9354	-2.1125	-2.9083	-2.5667	-2.0458	-2.9354	-2.3688	327.447	212.709	310.699	233.445	135.084	287.816	361.816	169.693	164.376	386.957	156.551	424.239	230.632	209.542	149.523	441.480	0.00030562	4.3131e-05	3.0879e-05	191.7	7.2192e-07	1.1773e-06	310.63	48.414	2.5943e-06	1.5187e-06	96.772	28.338	12.844	3.5786	6.4181e-07	9.7245	2.3329e-05	1.0219e-05	3.2928e-06	181.45	1.045e-07	1.3786e-07	293.89	45.717	1.2362e-07	8.7312e-08	91.647	26.908	12.053	3.4128	7.2025e-08	9.3291	427.809	215.637	227.032	136.369	259.123	335.551	135.312	141.160	272.338	282.712	139.633	144.609	145.729	151.305	307.143	148.875	-8191	255	
1325.588	1	1	0	0	0.29514	0.12009	0.047999	0.1388	0.32657	0.27442	0.17833	0.17005	0.095047	0.15705	0.048914	0.24893	0.33472	0.053756	0.1511	0.073717	-2.2	-3.1667	-2.1479	-2.8875	-2.5771	-2.1729	-3.1437	-2.3104	-2.3958	-3.0333	-2.2333	-3.0229	-2.7062	-2.0417	-2.8833	-2.4604	246.754	471.326	472.035	285.280	476.432	148.722	318.453	152.360	472.934	370.449	482.138	434.586	136.861	247.961	353.411	320.633	0.00033478	0.00012523	1.0474e-05	191.84	2.1045e-06	2.6963e-07	306.56	47.719	9.674e-07	1.368e-06	94.73	28.119	12.622	3.5388	1.5619e-06	9.62	2.6135e-05	9.0165e-06	3.4856e-06	181.2	1.0468e-07	1.2588e-07	290.32	45.215	1.2638e-07	8.4505e-08	90.404	26.463	11.906	3.3615	9.523e-08	9.2265	432.256	219.837	263.267	136.085	254.284	228.665	134.917	141.436	244.078	234.483	140.162	144.519	145.698	150.394	282.673	148.758	-8191	255	
1325.709	1	1	0	0	0.44239	0.23966	0.16866	0.048994	0.17358	0.091941	0.24792	0.16118	0.2858	0.16358	0.23832	0.25181	0.1498	0.26439	0.068769	0.065393	-2.0062	-3.0229	-1.9521	-2.8083	-2.775	-2.2583	-3.0479	-2.6562	-2.3896	-3.0396	-2.3333	-2.6479	-2.8104	-2.2417	-2.9354	-2.6396	452.148	126.055	437.491	301.197	332.481	255.865	373.270	279.159	462.766	271.882	341.480	378.587	375.400	189.899	215.355	443.639	0.00034525	0.00013453	2.1346e-05	191.51	1.351e-06	1.3034e-06	305.04	47.417	2.5169e-06	1.2096e-06	95.249	28.145	12.604	3.5958	8.852e-07	9.9386	2.7384e-05	7.8966e-06	2.9119e-06	180.78	1.0968e-07	1.2951e-07	291.05	44.968	1.5762e-07	1.0896e-07	90.272	26.446	11.848	3.4139	9.7194e-08	9.4943	433.449	214.168	263.388	135.283	296.148	314.143	135.143	141.462	280.572	337.350	139.942	145.287	146.275	151.427	262.199	148.901	-8191	255	
1325.781	1	1	0	0	0.15609	0.18181	0.27726	0.12264	0.089507	0.12497	0.43379	0.46836	0.24862	0.089038	0.14527	0.12116	0.076537	0.27286	0.06508	0.10203	-1.7917	-3.0958	-2.2604	-2.5354	-2.9583	-2.25	-3.0333	-2.5229	-2.2125	-2.9896	-2.3125	-2.4771	-3.125	-2.2271	-3	-2.6083	133.884	391.075	451.322	404.012	196.808	199.161	347.844	451.594	301.581	233.490	244.813	336.412	384.532	368.678	234.692	132.723	0.00030649	0.00014488	3.8305e-05	191.97	1.2863e-06	1.5964e-06	313.2	48.132	2.8293e-06	1.5109e-06	97.565	28.525	12.755	3.6419	1.9162e-06	10.241	2.8008e-05	8.6624e-06	3.8803e-06	181.77	1.1504e-07	1.4975e-07	295.4	45.541	1.8147e-07	1.0362e-07	91.719	26.868	12.039	3.5046	1.3263e-07	9.7777	425.112	191.653	212.825	136.112	277.675	324.685	135.294	141.152	254.750	308.727	139.354	144.980	146.462	150.568	279.807	149.448	-8191	255	
1325.877	1	1	0	0	0.18796	0.12949	0.1587	0.21503	0.31401	0.14733	0.22913	0.18231	0.30603	0.053549	0.071642	0.22167	0.23576	0.068448	0.091725	0.028527	-1.8208	-2.8937	-2.3292	-2.4917	-2.9792	-2.0583	-2.6854	-2.7771	-2.1625	-2.9979	-2.4042	-2.2687	-3.0938	-2.0854	-2.5979	-3.0812	223.394	365.831	137.394	186.795	270.892	247.768	433.766	344.470	477.240	194.055	248.039	393.454	395.929	257.444	236.691	422.357	0.00033152	0.00025679	3.5252e-05	198.44	9.7496e-07	6.6842e-07	316.68	48.317	1.9925e-06	1.5004e-06	97.98	28.717	13.144	3.6408	9.3019e-07	10.213	2.9032e-05	1.1034e-05	3.9858e-06	185.6	1.4014e-07	1.4567e-07	299.04	45.694	1.8628e-07	1.2671e-07	92.559	27.181	12.255	3.4919	1.4307e-07	9.6703	424.325	195.815	224.964	135.497	241.478	357.851	135.379	141.069	264.256	303.559	140.358	144.771	146.343	150.410	307.366	148.879	-8191	255	
1325.997	1	1	0	0	0.28302	0.15256	0.12266	0.17683	0.32833	0.14789	0.14143	0.061126	0.094624	0.16593	0.46273	0.071275	0.22838	0.071415	0.094854	0.12423	-1.8792	-2.9729	-2.4417	-2.3167	-3.1521	-2.2687	-2.7271	-2.8	-2.0104	-3.0062	-2.575	-2.0771	-2.9771	-1.9458	-2.4583	-2.9771	347.807	229.871	286.301	447.316	296.919	425.421	284.807	183.878	128.419	266.874	475.807	471.747	366.543	322.464	178.771	471.003	0.00036376	0.00019969	3.6872e-05	197.33	2.1337e-06	1.7308e-06	318.48	48.523	2.8136e-06	1.0673e-06	96.874	28.505	13.034	3.587	5.9016e-07	9.7624	3.1431e-05	1.1511e-05	2.9395e-06	186.95	1.4541e-07	1.6573e-07	299.74	46.113	1.9286e-07	1.1539e-07	91.957	26.83	11.996	3.3878	1.6101e-07	9.3339	436.344	210.129	177.878	135.176	256.016	262.221	135.016	141.427	225.956	293.341	140.007	145.034	146.383	150.970	279.873	149.968	-8191	255	
1326.094	1	1	0	0	0.12652	0.13817	0.058127	0.21602	0.087621	0.034995	0.30706	0.081059	0.16604	0.23769	0.38078	0.015177	0.070928	0.04275	0.1673	0.082793	-1.7708	-2.8854	-2.6875	-2.2708	-2.9396	-2.4188	-2.4583	-3.0875	-2.1625	-2.8312	-2.7375	-2.0417	-3.1354	-2.5479	-2.4896	-3.1271	250.769	254.328	222.179	293.934	128.965	265.035	140.604	138.623	414.395	223.699	344.517	427.191	430.403	125.466	445.409	393.070	0.00030183	0.00016981	2.8908e-05	201.25	1.434e-06	1.4588e-06	319.97	48.769	2.342e-06	6.3767e-07	98.963	28.373	12.784	3.4744	9.792e-07	9.6165	3.0243e-05	1.5036e-05	3.6439e-06	189.55	1.5854e-07	1.6001e-07	302.73	46.278	2.2054e-07	1.4981e-07	93.022	26.745	11.987	3.3311	2.0188e-07	9.2087	426.646	171.800	250.538	135.658	280.782	266.175	135.467	141.372	245.145	334.664	139.903	145.534	145.048	151.264	246.204	148.408	-8191	255	
1326.190	1	1	0	0	0.15319	0.18033	0.12714	0.27669	0.089133	0.22809	0.14493	0.16612	0.21769	0.22172	0.23112	0.080337	0.054263	0.10176	0.19486	0.22364	-1.7333	-2.6937	-2.6104	-1.9167	-3.0104	-2.4021	-2.2417	-2.925	-2.2042	-2.6375	-2.8458	-2.2208	-2.9729	-2.475	-2.3229	-3.1167	300.219	327.649	251.595	244.028	341.316	132.613	441.383	353.929	148.726	372.317	442.267	326.268	413.623	132.360	385.694	411.782	0.0003178	0.00014071	3.1821e-05	204.64	8.4603e-07	1.2155e-06	324	49.204	1.8883e-06	8.6221e-07	99.066	28.174	12.757	3.4945	8.8293e-07	9.7431	3.3719e-05	1.4575e-05	4.6146e-06	192.41	1.6399e-07	1.5493e-07	306.42	46.62	2.0336e-07	1.5814e-07	93.423	26.65	12.044	3.3285	1.7573e-07	9.2427	428.861	179.545	252.866	135.290	228.939	280.597	135.442	141.411	255.709	264.963	140.279	144.760	146.472	152.110	274.008	149.200	-8191	255	
1326.310	1	1	0	0	0.23373	0.15619	0.25809	0.32915	0.10975	0.25295	0.19157	0.088102	0.083898	0.14738	0.1894	0.11932	0.13962	0.22926	0.23959	0.26448	-1.8792	-2.6292	-2.9104	-2.0417	-2.8375	-2.5187	-2.2146	-3.0229	-2.3396	-2.5438	-3.1104	-2.0854	-2.8667	-2.6375	-2.1542	-3.0792	139.994	224.565	325.008	310.745	187.793	393.855	148.015	426.703	242.306	231.441	198.994	256.706	229.559	298.198	206.081	406.026	0.00027341	0.00014426	2.3617e-05	205.41	5.1197e-07	4.2894e-07	322.88	50.419	1.5884e-06	2.797e-07	99.259	28.732	12.896	3.4616	7.8069e-07	9.5435	3.0845e-05	1.6419e-05	3.8068e-06	193.55	1.9606e-07	1.5774e-07	307.39	47.507	2.1146e-07	1.7616e-07	94.256	26.996	12.183	3.3244	2.0429e-07	9.1288	431.520	199.982	175.736	135.875	318.015	127.560	134.950	141.431	254.116	418.490	139.919	145.028	145.808	150.119	296.183	149.602	-8191	255	
1326.382	1	1	0	0	0.22973	0.15656	0.32256	0.060311	0.13962	0.091791	0.081936	0.096713	0.23438	0.18734	0.098119	0.19174	0.11237	0.32754	0.061206	0.10309	-1.7771	-2.4354	-2.9125	-2.1583	-2.7458	-2.8104	-2.3896	-2.9917	-2.3187	-2.4688	-3.0312	-2.1458	-2.7271	-2.825	-2.0354	-3.1167	137.935	230.377	126.505	443.905	310.581	139.865	430.452	215.404	473.866	296.409	295.252	424.747	354.613	292.285	330.286	298.960	0.00034934	0.0001267	2.979e-05	204.93	1.4401e-06	1.5072e-06	326.76	49.687	2.6532e-06	1.3782e-06	99.634	28.221	13.091	3.4136	7.6356e-07	9.6154	3.1838e-05	1.6386e-05	3.2194e-06	194.3	1.4059e-07	1.3115e-07	308.62	47.497	1.699e-07	1.8721e-07	94.235	26.81	12.247	3.2849	2.0403e-07	9.0749	427.652	167.045	202.467	136.479	297.510	290.645	135.134	140.974	235.626	268.764	139.649	144.269	146.613	150.780	241.930	149.142	-8191	255	
1326.478	1	1	0	0	0.33392	0.19115	0.17971	0.10873	0.14632	0.16449	0.16886	0.041406	0.21595	0.22305	0.037062	0.0717	0.26763	0.059304	0.17317	0.18854	-2.1562	-2.2083	-2.9458	-2.1208	-2.5229	-3.0021	-1.95	-2.9771	-2.5125	-2.2146	-3.0646	-2.1063	-2.5542	-2.8354	-2.0812	-2.7375	175.603	190.649	303.763	457.283	181.431	417.591	397.046	335.662	446.379	402.925	225.817	130.767	375.480	153.348	241.482	328.145	0.00029939	8.8906e-05	3.487e-05	204.85	1.2037e-06	2.4805e-07	330.73	51.029	1.7426e-06	1.5572e-06	102.85	29.052	13.275	3.5805	8.1329e-07	9.7247	3.0845e-05	1.8338e-05	3.4879e-06	194.35	2.0133e-07	1.7035e-07	311.97	48.366	2.0959e-07	2.2453e-07	95.914	27.389	12.542	3.4064	2.1929e-07	9.3181	436.164	262.502	243.816	135.585	185.596	210.565	135.366	141.222	239.113	309.749	139.590	145.171	146.837	151.183	270.978	149.756	-8191	255	
1326.597	1	1	0	0	0.25468	0.27997	0.15759	0.035668	0.085326	0.10546	0.15752	0.25355	0.17127	0.0031191	0.068079	0.16613	0.16039	0.062399	0.15185	0.12691	-2.15	-2.0896	-2.8521	-2.5062	-2.6729	-3.0896	-2.1354	-2.8312	-2.7792	-2.05	-3.1854	-2.3896	-2.2542	-3.0312	-2.1708	-2.8688	235.512	200.194	388.348	147.792	166.701	378.798	124.163	326.256	202.619	146.073	431.173	219.285	406.773	195.840	223.050	431.389	0.00036907	9.1048e-05	5.2542e-05	211.96	2.0059e-07	7.3597e-07	343.37	54.389	1.7986e-06	1.2566e-06	107.12	30.126	14.175	3.6955	1.3617e-06	10.056	3.6179e-05	2.1796e-05	5.3259e-06	202.2	2.3107e-07	1.9631e-07	324.79	51.319	2.7901e-07	2.431e-07	101.2	28.586	13.267	3.5427	2.6008e-07	9.5696	429.166	208.953	208.940	135.449	210.419	224.054	135.246	141.328	264.498	264.379	139.984	145.200	145.427	150.499	283.936	148.550	-8191	255	
1326.693	1	1	0	0	0.25915	0.23191	0.1481	0.18721	0.14818	0.19069	0.15223	0.18801	0.21032	0.053157	0.090935	0.093368	0.15349	0.17718	0.062636	0.11845	-2.3667	-2.1667	-3.0896	-2.4	-2.2396	-3.0625	-2.2521	-2.6771	-2.9458	-2.1042	-3.0438	-2.6542	-2.3187	-2.9146	-2.0917	-2.4583	143.674	147.422	222.631	369.685	403.835	380.591	444.521	453.254	144.873	246.521	481.284	259.143	318.737	295.118	195.085	464.747	0.00032512	0.00013244	3.6423e-05	219.73	1.6507e-06	1.1749e-06	342.54	53.842	3.5971e-06	9.2644e-07	106.15	30.039	14.032	3.6612	1.8494e-06	9.8613	3.3922e-05	1.9935e-05	4.8326e-06	206.48	2.199e-07	1.3578e-07	325.93	51.147	1.6198e-07	1.9283e-07	99.784	28.413	13.089	3.5145	1.943e-07	9.4221	426.061	189.718	210.788	135.930	268.833	319.087	135.442	141.502	253.605	275.205	139.939	144.899	145.333	150.534	281.869	149.181	-8191	255	
1326.789	1	1	0	0	0.2571	0.12339	0.13752	0.057598	0.24287	0.20333	0.16217	0.26924	0.25099	0.063377	0.075043	0.14761	0.27507	0.27259	0.12596	0.043383	-2.5167	-2.1125	-2.7979	-2.7208	-2.2417	-3.0229	-2.3333	-2.5104	-3.025	-2.0604	-2.8896	-2.5604	-2.2375	-2.9542	-2.4167	-2.4729	154.150	176.545	451.606	212.567	416.797	268.675	363.488	420.544	343.591	148.674	452.768	129.205	469.080	376.341	187.092	261.725	0.00035601	0.00011544	1.3161e-05	219.11	1.6151e-06	7.7337e-07	340.55	52.93	2.3062e-06	2.0844e-06	104.82	29.936	13.573	3.6225	1.6558e-06	9.613	3.0559e-05	1.6641e-05	4.4815e-06	205.33	1.9284e-07	1.5574e-07	323.98	50.46	2.1004e-07	1.874e-07	99.405	28.06	12.934	3.4475	2.3785e-07	9.2408	432.307	227.743	248.719	136.333	204.930	205.304	135.827	141.138	210.008	260.996	139.310	144.315	145.998	151.374	243.536	148.749	-8191	255	
1326.885	1	1	0	0	0.03836	0.23824	0.16788	0.066706	0.17837	0.29783	0.064397	0.095375	0.10581	0.21823	0.071521	0.23123	0.24574	0.055766	0.18474	0.20182	-2.5708	-2.0396	-2.7062	-2.7125	-1.9875	-2.9604	-2.5479	-2.5083	-3.0083	-2.1479	-2.725	-2.5667	-2.0062	-3.0042	-2.6208	-2.3479	281.085	215.912	380.199	251.539	154.569	252.453	202.906	363.644	280.209	276.658	239.766	461.317	286.171	197.865	453.245	432.684	0.00035194	4.9862e-05	3.2228e-05	221.43	1.4731e-06	4.1272e-07	346.19	53.596	3.3397e-06	1.0287e-06	107.36	29.91	14.009	3.6811	1.2681e-06	9.9162	3.2936e-05	2.0577e-05	5.2708e-06	206.76	2.3241e-07	2.0947e-07	328.34	51.146	2.4021e-07	2.556e-07	100.56	28.242	13.097	3.5174	2.6329e-07	9.3929	430.900	148.068	217.760	136.003	260.978	380.084	135.596	141.232	280.165	275.143	139.833	144.686	145.238	150.803	249.227	149.316	-8191	255	
1326.982	1	1	0	0	0.28263	0.27233	0.13262	0.2311	0.10492	0.082631	0.088294	0.204	0.15453	0.083334	0.11172	0.16826	0.13473	0.12585	0.22286	0.13606	-2.7792	-2.1667	-2.6917	-2.7792	-2.0771	-2.9271	-2.6021	-2.3146	-3.1625	-2.3125	-2.5896	-2.9167	-1.9167	-2.9625	-2.7438	-2.3021	381.940	445.040	470.597	284.109	316.153	309.804	346.324	220.792	336.065	416.575	277.912	190.954	268.098	168.447	374.660	415.516	0.00031463	0.00015824	2.4624e-05	221.55	5.9641e-07	5.2403e-07	353.47	54.341	1.9963e-06	7.3583e-07	107.06	30.232	14.236	3.6911	9.4368e-07	9.9073	3.5268e-05	2.5757e-05	6.6178e-06	209.78	2.7189e-07	2.229e-07	332.94	51.754	2.3282e-07	2.2199e-07	101.33	28.492	13.247	3.5221	2.2714e-07	9.5022	429.549	224.607	219.988	136.060	224.479	318.294	135.501	141.556	253.568	375.948	140.127	144.447	145.557	150.619	246.581	148.569	-8191	255	
1327.078	1	1	0	0	0.11368	0.09749	0.098235	0.10752	0.25496	0.21209	0.073808	0.19464	0.057034	0.23496	0.19079	0.3083	0.1966	0.1172	0.11787	0.082253	-2.7708	-2.3	-2.4479	-2.8063	-1.9271	-2.9708	-2.7083	-2.1458	-2.9896	-2.3354	-2.4375	-2.925	-2.1208	-2.7042	-2.9021	-2.2958	372.627	138.380	143.930	401.625	293.218	157.499	409.408	265.934	171.413	270.928	461.471	135.496	242.730	308.459	406.660	476.582	0.00034359	0.00016623	5.4262e-05	221.66	1.0342e-06	1.878e-06	355.64	55.34	2.8456e-06	1.8595e-06	108.96	30.473	14.064	3.6947	1.4626e-06	10.002	3.5065e-05	2.1318e-05	6.4411e-06	210.71	2.5751e-07	2.4305e-07	335.38	52.397	2.3496e-07	2.498e-07	102.72	28.756	13.375	3.5472	2.3125e-07	9.5486	426.714	188.453	247.648	135.023	285.095	288.456	135.244	141.577	249.609	305.870	139.495	145.063	145.749	150.399	262.940	149.458	-8191	255	
1327.174	1	1	0	0	0.14796	0.25038	0.14214	0.050243	0.14403	0.08787	0.14943	0.086844	0.31757	0.026081	0.10656	0.074996	0.085147	0.2482	0.21825	0.19812	-2.7333	-2.5458	-2.2542	-3.0417	-2.0396	-2.6771	-2.8896	-2.1437	-2.875	-2.4583	-2.2604	-3.2708	-2.0875	-2.6437	-2.9708	-2.2687	242.771	137.539	215.246	202.360	447.811	462.208	139.575	406.674	425.915	338.789	451.376	479.948	279.104	373.840	284.917	345.271	0.00036322	0.0001654	2.1799e-05	225	1.3244e-06	4.6581e-07	354.69	55.798	2.9034e-06	3.9449e-07	107.62	30.176	14.213	3.7087	6.0606e-07	9.8143	3.6412e-05	2.2768e-05	7.4439e-06	212.5	2.7689e-07	2.4133e-07	336.62	52.673	2.5036e-07	2.2172e-07	102.25	28.523	13.382	3.543	2.6552e-07	9.4347	434.907	201.475	293.500	135.748	291.179	357.924	135.110	140.792	257.668	178.441	139.957	144.798	145.431	152.332	338.550	148.985	-8191	255	
1327.270	1	1	0	0	0.14409	0.18498	0.3191	0.20313	0.4962	0.1032	0.19361	0.14005	0.22016	0.1259	0.13717	0.47691	0.079699	0.12277	0.20755	0.28059	-2.5021	-2.5	-2.2062	-3.1208	-2.3417	-2.5354	-2.8375	-2.0438	-2.9604	-2.6188	-2.1958	-2.8479	-2.3458	-2.4229	-2.8771	-2.3187	406.581	457.959	228.763	187.048	419.485	288.618	438.875	140.659	271.649	279.948	130.366	427.676	190.831	347.930	134.792	447.387	0.00038349	9.0602e-05	3.1531e-05	229.62	2.613e-06	1.2061e-06	360.32	56.335	1.5982e-06	1.6368e-06	109.09	30.903	14.456	3.6802	1.0045e-06	9.9176	4.0376e-05	2.5238e-05	7.5563e-06	215.87	3.0118e-07	3.0849e-07	340.84	53.214	2.9486e-07	2.4047e-07	103.85	28.932	13.549	3.5404	2.6766e-07	9.4351	431.368	187.344	221.092	136.064	288.901	299.627	134.880	140.919	235.577	311.718	139.751	144.814	145.473	150.185	289.861	148.487	-8191	255	
1327.391	1	1	0	0	0.15976	0.059863	0.18998	0.14798	0.13188	0.23601	0.30174	0.17469	0.13877	0.17053	0.12282	0.083158	0.17658	0.19082	0.12371	0.19798	-2.4813	-2.825	-2.0208	-3.0396	-2.3063	-2.3917	-2.9917	-2.15	-2.8	-2.6312	-2.3208	-3.1	-2.3083	-2.2938	-3.1042	-2.3271	181.240	124.947	122.671	364.885	151.697	262.883	128.939	122.982	263.824	333.960	155.122	468.062	465.670	247.072	142.263	148.855	0.00036851	0.00013259	1.3951e-05	231.86	1.5316e-06	6.2899e-07	366.16	57.361	2.7132e-06	6.9278e-07	110.91	30.644	14.359	3.6707	5.9401e-07	9.8813	3.9993e-05	2.3072e-05	7.0217e-06	219.25	3.103e-07	2.7645e-07	346.5	54.313	3.172e-07	2.5351e-07	105.28	28.927	13.605	3.5396	1.9698e-07	9.376	431.087	168.858	290.430	135.366	252.029	253.724	135.084	140.630	285.762	213.844	139.698	144.809	145.064	150.102	305.265	148.918	-8191	255	
1327.485	1	1	0	0	0.22762	0.093695	0.1383	0.19563	0.14368	0.28179	0.14418	0.05871	0.18952	0.23629	0.18075	0.057381	0.14838	0.19803	0.13857	0.12669	-2.1771	-2.8854	-2.2062	-3.125	-2.7	-2.2687	-3.0833	-2.3854	-2.7542	-2.9917	-2.1729	-2.8417	-2.6188	-2.2438	-3.0083	-2.2271	271.581	474.897	338.481	195.143	211.780	200.656	172.645	363.180	456.928	371.247	238.998	333.785	398.019	433.723	458.707	401.458	0.00030873	2.5873e-05	4.5441e-05	230.76	7.8816e-07	6.9706e-07	366.71	58.248	3.4478e-06	1.7695e-06	112.54	30.396	14.552	3.7153	8.0449e-07	9.81	3.7841e-05	1.9029e-05	6.6499e-06	219.01	2.2723e-07	2.5812e-07	347.1	54.788	2.492e-07	2.0189e-07	105.42	28.9	13.683	3.5432	2.3464e-07	9.3393	431.644	239.032	202.894	135.396	262.733	246.634	135.285	141.286	235.419	303.192	139.680	144.727	145.985	151.132	325.698	149.565	-8191	255	
1327.581	1	1	0	0	0.35475	0.089844	0.16461	0.068029	0.19932	0.05628	0.18869	0.24297	0.1633	0.11079	0.073711	0.22464	0.13006	0.31744	0.1976	0.04921	-2.1917	-2.9062	-1.7625	-2.7583	-2.6021	-2.0354	-3.0771	-2.2625	-2.4854	-2.9625	-2.2375	-2.7875	-2.6958	-2.1688	-3.0208	-2.3708	361.929	162.746	288.716	337.624	372.409	250.169	217.713	477.621	255.125	318.757	203.063	452.885	418.072	294.036	214.325	271.337	0.00033861	9.0082e-05	3.0769e-05	234.03	1.5857e-06	4.3472e-07	366.5	58.528	2.3532e-06	8.8632e-07	111.64	30.308	14.705	3.6191	5.1229e-07	9.6356	3.6968e-05	1.9927e-05	6.1841e-06	219.64	2.5376e-07	2.4233e-07	346.02	54.955	2.9735e-07	2.7453e-07	105.38	28.761	13.678	3.4957	2.6454e-07	9.2399	427.466	168.439	207.114	135.578	270.605	235.819	135.365	140.531	227.898	256.693	139.806	145.036	144.620	151.010	276.156	148.517	-8191	255	
1327.677	1	1	0	0	0.089808	0.19221	0.16565	0.15887	0.064781	0.18735	0.10639	0.14561	0.17938	0.19227	0.23864	0.0796	0.20821	0.10898	0.076325	0.16478	-2.1896	-2.9646	-2.1625	-2.8354	-2.7708	-2.1562	-2.95	-2.6833	-2.3479	-3.1312	-2.3417	-2.65	-2.8396	-2.0792	-3.0146	-2.4604	263.757	385.263	166.329	252.758	157.549	357.304	470.934	332.712	200.764	197.889	472.635	403.078	201.233	459.959	390.288	469.417	0.00028685	5.9111e-05	2.3987e-05	243.23	1.3883e-06	1.7069e-06	375.65	60.016	2.7631e-06	1.1007e-06	114.88	31.629	15.011	3.8295	2.1913e-06	10.037	4.486e-05	2.4538e-05	8.5729e-06	228.24	3.2485e-07	3.3998e-07	357.21	56.963	4.1839e-07	3.3385e-07	108.81	29.767	14.238	3.689	3.9672e-07	9.5689	435.013	251.099	192.373	135.595	277.594	244.613	135.534	141.262	225.029	327.126	139.603	144.877	145.634	150.717	321.258	149.380	-8191	255	
1327.774	1	1	0	0	0.37167	0.211	0.078096	0.20472	0.17799	0.2172	0.15508	0.032803	0.081283	0.080531	0.21009	0.1522	0.29188	0.29958	0.10356	0.16636	-1.8083	-3.0542	-2.1583	-2.6937	-2.8875	-2.0625	-2.8542	-2.6792	-2.1854	-3.0354	-2.2083	-2.4292	-2.9979	-2.0583	-2.8292	-2.6667	334.297	464.991	433.182	395.156	250.586	320.854	453.394	337.536	322.421	328.390	372.005	267.675	392.831	336.897	144.569	308.977	0.00034964	0.00025286	3.6054e-05	244.5	9.5035e-07	1.1528e-06	382.56	61.312	3.0625e-06	2.5328e-06	115.92	31.909	15.066	3.9356	9.5343e-07	10.363	4.8817e-05	3.437e-05	9.7064e-06	230.83	3.529e-07	3.8745e-07	361.8	57.824	4.045e-07	2.8449e-07	109.52	30.111	14.357	3.7522	2.8042e-07	9.8204	431.876	216.571	203.327	135.316	285.927	440.083	135.537	140.913	238.809	245.140	139.997	145.325	145.676	150.795	287.046	149.113	-8191	255	
1327.870	1	1	0	0	0.37913	0.12059	0.067931	0.11569	0.037081	0.060172	0.12465	0.4649	0.28151	0.07173	0.10997	0.27418	0.12916	0.095692	0.15884	0.23831	-1.8854	-3.1667	-2.15	-2.3917	-2.8854	-2.0896	-2.7646	-2.8479	-2.1437	-3.0729	-2.2542	-2.1688	-3.0125	-2.0833	-2.6688	-2.9062	216.710	435.133	168.224	414.903	124.249	212.666	134.424	138.557	220.521	459.594	136.851	188.151	382.332	472.006	207.346	448.839	0.00039057	0.00010774	2.7984e-05	239.21	1.7266e-06	1.5809e-06	371.99	59.505	1.8044e-06	1.484e-06	113.15	31.858	14.961	3.9421	9.4839e-07	10.56	4.0136e-05	2.3789e-05	7.2052e-06	227.48	2.3527e-07	2.6057e-07	353.26	56.097	2.5632e-07	2.229e-07	107.26	30.184	14.13	3.7457	2.6284e-07	10.113	429.562	182.692	245.303	135.673	271.032	343.301	135.311	141.129	233.511	295.512	140.101	144.708	146.061	150.982	281.213	148.849	-8191	255	
1327.990	1	1	0	0	0.029209	0.13701	0.28728	0.38099	0.12891	0.11493	0.3208	0.10407	0.1152	0.39104	0.038898	0.070849	0.12048	0.049654	0.2084	0.0077305	-1.7271	-2.8688	-2.5375	-2.2104	-3.1312	-2.2812	-2.6792	-2.8667	-1.8521	-3.025	-2.6437	-2.0333	-3.1312	-2.1625	-2.6021	-2.9125	451.653	369.536	350.199	143.010	311.455	138.510	290.386	282.147	354.019	161.807	401.851	358.722	159.242	397.020	410.293	383.008	0.00038012	0.00025844	1.2627e-05	233.95	2.3578e-06	1.4846e-06	367.14	57.831	3.0388e-06	1.1257e-06	111.67	31.776	14.804	3.8742	1.779e-06	10.426	4.1926e-05	2.3863e-05	6.7211e-06	222.15	2.484e-07	2.7255e-07	347.88	54.761	3.1657e-07	2.6764e-07	105.83	30.115	13.915	3.7074	3.0506e-07	9.9584	432.121	177.089	227.121	136.333	247.839	277.471	135.009	141.022	245.135	321.927	139.942	144.923	146.482	151.221	237.059	148.904	-8191	255	
1328.086	1	1	0	0	0.02756	0.15702	0.18998	0.15695	0.22599	0.40324	0.22781	0.18485	0.3149	0.1108	0.19748	0.030309	0.086196	0.096471	0.23068	0.1108	-1.9271	-2.8438	-2.6813	-2.0875	-3.0625	-2.3771	-2.7292	-3.0812	-2.2146	-2.9021	-2.8333	-2.1562	-3.0563	-2.4604	-2.4375	-3.15	180.476	348.071	357.560	464.084	237.308	218.698	371.798	155.790	268.457	208.407	369.472	144.908	377.950	414.955	471.656	429.366	0.00044526	0.00011123	3.5911e-05	235.66	5.9081e-07	1.5542e-06	364.17	57.685	1.8903e-06	8.4664e-07	110.6	31.683	14.87	3.8872	4.6507e-07	10.359	4.9043e-05	2.7889e-05	7.7605e-06	222.58	2.9091e-07	2.9823e-07	346.97	54.6	3.6873e-07	3.1855e-07	105.93	30.116	13.968	3.7042	3.5593e-07	9.937	431.323	181.952	222.402	135.815	231.837	232.482	135.302	141.029	280.495	221.401	139.908	145.107	145.390	151.977	157.204	149.666	-8191	255	
1328.183	1	1	0	0	0.078188	0.22948	0.16514	0.032503	0.073014	0.057981	0.24681	0.077098	0.23543	0.018811	0.06839	0.35333	0.077744	0.12433	0.13032	0.22298	-1.8583	-2.7979	-2.7	-2.1	-3.0104	-2.35	-2.4188	-3.0979	-2.1625	-2.6542	-2.7958	-2.1625	-3.0312	-2.4667	-2.1437	-3.0438	382.526	307.572	143.344	208.116	363.081	418.710	480.833	276.817	208.449	220.217	176.986	133.473	236.641	450.138	221.839	284.865	0.00031311	0.00019637	3.2841e-05	235.89	1.3394e-06	6.1349e-07	373.21	57.903	2.0629e-06	8.3964e-07	114.14	32.216	14.954	3.7734	1.2292e-06	10.451	4.5545e-05	3.1364e-05	7.2924e-06	225.74	3.1869e-07	2.9687e-07	353.6	55.392	3.5182e-07	3.0541e-07	108.02	30.307	14.098	3.6737	3.1702e-07	9.8684	427.137	274.950	214.034	135.743	281.408	188.914	135.535	141.012	196.020	288.514	139.547	145.086	145.513	150.134	247.428	149.804	-8191	255	
1328.254	1	1	0	0	0.090827	0.34435	0.076672	0.32424	0.079949	0.11631	0.045713	0.19051	0.095905	0.051744	0.16345	0.042547	0.24081	0.12223	0.16018	0.093016	-1.7854	-2.6896	-2.9125	-2.0812	-2.9	-2.6917	-2.1729	-2.9938	-2.4896	-2.4042	-3.0104	-2.1188	-2.8667	-2.6021	-2.0958	-3.0438	232.619	261.993	276.572	416.141	173.694	459.668	479.346	447.855	373.930	345.254	368.957	357.244	167.411	394.347	191.884	373.584	0.00042804	0.0001738	2.404e-05	240.33	1.1598e-06	7.482e-07	377.55	60.164	1.7415e-06	2.0888e-06	114.2	32.082	15.087	3.784	5.1353e-07	10.114	4.4176e-05	2.6794e-05	6.9849e-06	228.6	2.7028e-07	2.6338e-07	356.49	56.539	3.1283e-07	2.6819e-07	108.31	30.254	14.187	3.6403	3.0033e-07	9.66	425.629	236.520	223.700	136.019	249.154	382.991	135.841	141.265	209.270	272.596	139.971	144.839	145.949	150.949	290.623	149.521	-8191	255	
1328.373	1	1	0	0	0.033089	0.23501	0.33589	0.17037	0.095449	0.056198	0.088857	0.11455	0.14511	0.20178	0.15307	0.13875	0.15388	0.29208	0.12622	0.11926	-1.7229	-2.4375	-2.9292	-2.1229	-2.7354	-2.7604	-2.075	-2.9125	-2.2687	-2.2792	-2.9333	-2.15	-2.6437	-2.7729	-1.975	-3.0271	416.002	242.644	159.584	448.426	213.857	199.941	418.310	284.136	439.377	366.503	419.699	240.027	191.897	139.333	138.217	283.258	0.0003142	0.00010758	5.5429e-05	243.33	2.1977e-06	1.1087e-06	376.08	59.499	3.8155e-06	7.6161e-07	113.15	31.24	14.854	3.7395	7.82e-07	9.7673	4.2483e-05	2.6769e-05	6.4113e-06	229.62	2.6912e-07	2.6692e-07	356.58	56.356	2.9744e-07	2.9472e-07	107.67	29.716	13.924	3.5668	2.9988e-07	9.4314	430.040	189.936	233.014	135.604	287.227	194.166	135.536	141.551	240.976	195.163	140.185	144.809	145.385	150.489	370.379	149.135	-8191	255	
1328.469	1	1	0	0	0.07324	0.16445	0.12201	0.19181	0.089492	0.23655	0.17772	0.045573	0.21059	0.098753	0.20761	0.26679	0.10232	0.32642	0.087462	0.067125	-2.1958	-2.2417	-2.9125	-2.0917	-2.5333	-3.1063	-2.2167	-2.9521	-2.3771	-2.1625	-3.0083	-2.0646	-2.5604	-2.7271	-2.2479	-2.9479	326.555	205.226	151.118	376.165	419.338	350.454	441.033	399.210	311.555	480.043	474.351	434.562	294.048	128.094	478.586	213.855	0.00034195	0.00019915	4.5194e-05	240.99	1.2995e-06	1.2997e-06	376.47	59.241	1.7519e-06	4.2083e-07	113.02	31.683	14.776	3.7072	1.6738e-06	9.9381	4.0181e-05	2.4983e-05	6.9804e-06	227.3	2.7162e-07	2.3924e-07	354.57	55.843	3.0474e-07	2.7869e-07	106.45	29.615	13.887	3.5456	2.8257e-07	9.4846	429.756	187.752	228.389	136.454	162.089	233.736	135.523	140.922	269.337	402.383	139.753	144.504	144.905	150.973	338.064	149.448	-8191	255	
1328.565	1	1	0	0	0.032897	0.082219	0.27754	0.17019	0.26601	0.055103	0.061799	0.28722	0.1624	0.18579	0.099788	0.044646	0.22354	0.12855	0.20072	0.20179	-2.1958	-2.2125	-2.925	-2.2646	-2.475	-2.9562	-2.2146	-2.9375	-2.7667	-2.2146	-3.1	-2.4562	-2.3375	-3.0354	-2.1813	-2.7771	282.520	202.597	312.438	320.938	225.224	202.913	415.313	355.294	146.812	189.945	232.133	277.715	281.254	450.309	156.377	183.153	0.00033201	0.00015748	3.4023e-05	241.45	2.0485e-06	1.053e-06	372.26	59.312	2.2595e-06	8.7424e-07	113.2	32.14	15.202	3.8203	1.2243e-06	9.9131	3.9368e-05	2.4349e-05	5.8261e-06	227.11	2.5804e-07	2.269e-07	354.03	56.075	2.8569e-07	2.7145e-07	107.77	30.052	14.158	3.6445	2.6766e-07	9.5668	427.926	209.183	204.854	135.877	253.527	277.424	135.402	141.548	223.279	277.460	139.678	145.253	146.346	151.397	334.363	149.758	-8191	255	
1328.662	1	1	0	0	0.05713	0.20853	0.046494	0.12216	0.12227	0.054518	0.10551	0.18324	0.09984	0.042012	0.13403	0.26634	0.38134	0.090903	0.23539	0.082931	-2.1792	-2.1958	-2.9688	-2.3729	-2.3667	-2.9146	-2.2375	-2.7208	-2.5563	-1.9354	-2.9729	-2.3333	-2.2229	-3.0438	-2.1917	-2.6229	409.284	347.061	223.438	174.611	153.996	230.327	438.630	376.061	219.757	367.973	190.383	347.479	351.930	406.443	259.277	278.077	0.00031313	5.2027e-05	4.0067e-05	240.11	2.026e-06	1.0612e-06	372.8	59.149	2.6917e-06	1.3007e-06	115.15	32.311	15.125	3.8263	8.3463e-07	10.162	3.2214e-05	2.504e-05	5.0712e-06	228.38	2.7966e-07	1.6927e-07	353.62	56.278	2.209e-07	2.2879e-07	108.11	30.228	14.127	3.6513	2.2357e-07	9.6719	420.385	186.036	256.299	135.845	259.161	303.966	135.361	141.468	227.873	284.694	139.897	144.598	145.714	150.678	308.457	149.167	-8191	255	
1328.782	1	1	0	0	0.29224	0.10705	0.081354	0.16092	0.25676	0.1155	0.30096	0.027411	0.12478	0.17318	0.10503	0.21899	0.22181	0.16666	0.22733	0.28784	-2.4021	-2.0792	-2.7979	-2.5583	-2.2979	-3.125	-2.4208	-2.675	-2.975	-2.2021	-2.8854	-2.7229	-2.1312	-2.9896	-2.2875	-2.5146	212.369	389.452	333.866	370.497	270.354	223.346	325.229	351.344	192.937	150.883	316.402	385.231	251.152	357.751	219.513	246.033	0.00034023	9.8563e-05	3.5507e-05	237.41	1.6295e-06	1.7208e-06	370.12	59.31	3.1944e-06	8.3261e-07	112.87	31.631	15.042	3.7325	3.7367e-08	10.104	3.1875e-05	2.1343e-05	5.0437e-06	226.27	2.6608e-07	1.7725e-07	350.27	55.848	2.3095e-07	2.3549e-07	106.85	29.875	14.046	3.6286	2.4428e-07	9.6138	423.793	235.647	204.921	135.792	278.400	240.524	135.511	141.496	262.935	292.777	140.141	144.792	145.266	150.153	367.696	148.933	-8191	255	
1328.878	1	1	0	0	0.13773	0.25543	0.098369	0.21448	0.1985	0.1192	0.18339	0.081722	0.080454	0.2252	0.06841	0.1664	0.089007	0.049473	0.16576	0.288	-2.8021	-2.3083	-2.7375	-2.6063	-2.1875	-3.0729	-2.4417	-2.2542	-3.1958	-2.1333	-2.6708	-2.8396	-2.1521	-2.9167	-2.4646	-2.2833	352.706	395.208	141.535	151.596	159.586	292.273	482.156	476.054	247.789	282.859	447.561	246.481	471.077	339.557	253.641	355.590	0.00037159	0.0001028	2.4374e-05	239.64	1.177e-06	2.0418e-06	371.52	59.231	1.4796e-06	1.1513e-06	114.51	31.852	15.051	3.866	1.4445e-06	10.094	3.8142e-05	2.3492e-05	6.4503e-06	225.75	2.8555e-07	2.4568e-07	352.53	55.998	3.0429e-07	3.0505e-07	107.73	30.01	14.109	3.6699	2.9212e-07	9.6544	426.801	477.923	211.968	134.651	266.482	246.397	135.037	140.499	284.149	338.735	139.374	144.679	145.133	150.594	315.648	149.441	-8191	255	
1328.950	1	1	0	0	0.21084	0.21814	0.11547	0.16524	0.10444	0.10554	0.088517	0.088282	0.10195	0.1197	0.22428	0.075417	0.14813	0.10519	0.28423	0.032219	-2.6188	-2.1979	-2.6958	-2.9208	-2.2604	-3.0625	-2.7292	-2.1917	-3.1021	-2.3125	-2.7313	-2.9375	-2.1604	-2.75	-2.5979	-2.3312	312.124	334.246	226.350	136.287	467.957	263.371	344.535	477.477	419.432	174.974	452.874	332.247	141.191	198.641	479.763	409.885	0.00036818	0.00014523	4.0843e-05	239.84	3.4075e-07	1.6354e-06	375.18	59.608	1.7615e-06	1.8011e-06	113.99	32.161	15.059	3.8688	1.5057e-06	10.213	3.8044e-05	2.9108e-05	7.5861e-06	227.52	2.8904e-07	2.7672e-07	354.65	56.459	2.7341e-07	2.9228e-07	107.95	30.41	14.158	3.6829	2.8524e-07	9.78	424.908	251.166	264.489	135.337	219.144	305.952	134.897	140.942	214.526	292.115	139.567	144.970	146.229	151.231	265.278	149.938	-8191	255	
1329.071	1	1	0	0	0.27283	0.30056	0.17759	0.047451	0.16017	0.089187	0.1553	0.10636	0.12225	0.087064	0.06356	0.11188	0.17086	0.10173	0.16599	0.073594	-2.7167	-2.4583	-2.4771	-2.8417	-2.1688	-2.8312	-2.7708	-2.2854	-2.9146	-2.3438	-2.4062	-2.8896	-2.3438	-2.6583	-2.7396	-2.1896	389.034	150.860	246.519	349.715	241.920	355.131	343.003	160.480	343.211	377.018	313.835	269.907	193.846	136.075	217.816	396.236	0.00034005	7.2841e-05	9.3228e-06	244.07	9.3514e-07	9.3386e-07	379.49	60.062	3.7917e-06	9.8788e-07	116.13	32.234	15.385	3.892	2.1581e-06	10.239	3.8661e-05	2.8285e-05	7.6527e-06	230.91	3.4236e-07	2.9687e-07	359.6	57.307	3.3953e-07	3.2742e-07	109.61	30.636	14.457	3.7453	3.5557e-07	9.8211	426.458	223.780	291.559	135.030	413.208	277.424	134.837	140.794	260.983	321.593	139.744	144.484	145.057	150.117	239.954	148.978	-8191	255	
1329.167	1	1	0	0	0.12011	0.13421	0.21067	0.20452	0.14736	0.072321	0.32012	0.23826	0.25594	0.086937	0.087186	0.10651	0.1457	0.11996	0.21387	0.28579	-2.7062	-2.2812	-2.3312	-2.9333	-2.2958	-2.5521	-2.7458	-2.0771	-2.9208	-2.5042	-2.3292	-3.0438	-2.1979	-2.5042	-2.7021	-2.3167	185.713	410.598	238.907	461.054	270.437	282.004	444.964	460.773	290.029	201.515	279.132	145.700	457.603	229.724	373.193	386.301	0.00039936	0.00011385	3.7281e-05	249.04	2.7768e-06	9.4091e-07	382.27	60.157	7.1538e-07	8.945e-07	115.81	32.476	14.96	3.8039	1.9298e-06	10.059	4.5312e-05	3.1825e-05	9.1442e-06	234.46	3.7532e-07	3.5423e-07	362.08	57.308	3.4576e-07	3.2108e-07	108.98	30.396	14.066	3.6774	2.9952e-07	9.6388	426.712	231.532	263.719	135.035	243.873	253.676	134.908	141.370	236.145	216.636	139.150	144.893	145.386	151.101	259.832	149.358	-8191	255	
1329.263	1	1	0	0	0.20492	0.11238	0.13506	0.16726	0.094791	0.16051	0.041261	0.11493	0.15356	0.14399	0.084909	0.15706	0.2734	0.18087	0.084511	0.16141	-2.5625	-2.6854	-2.4042	-3	-2.2042	-2.6396	-2.9875	-2.3812	-3.0187	-2.8104	-2.3604	-3.2687	-2.2354	-2.5417	-3.0104	-2.0812	310.525	156.913	140.140	424.382	167.063	200.855	367.919	407.764	177.944	456.289	183.828	326.529	437.741	421.753	184.943	420.518	0.00037612	0.00015828	4.6102e-05	242.46	1.1362e-06	1.3958e-06	377	58.832	1.5524e-06	2.9592e-07	114.7	32.115	14.818	3.7359	5.9207e-07	10.033	4.4334e-05	2.8877e-05	8.6073e-06	230.39	3.9104e-07	3.0568e-07	356.71	56.222	3.1969e-07	3.0324e-07	107.94	30.13	13.927	3.6472	2.7534e-07	9.6103	426.915	203.553	198.955	135.387	205.395	191.079	134.851	141.009	238.976	313.717	139.687	144.522	145.276	150.853	188.461	148.278	-8191	255	
1329.359	1	1	0	0	0.25624	0.16371	0.087896	0.064119	0.10519	0.083601	0.15469	0.17026	0.070309	0.15798	0.10631	0.13664	0.1565	0.093814	0.16573	0.24158	-2.5083	-2.7604	-2.0083	-3.1229	-2.4458	-2.3729	-3.1542	-2.1167	-2.8979	-2.9979	-2.1458	-3.2021	-2.5979	-2.2562	-3.025	-2.2896	123.292	342.750	143.023	222.393	228.636	257.273	372.881	191.253	476.307	459.518	468.960	257.650	212.211	194.684	290.490	363.770	0.00034144	3.3769e-05	4.3584e-05	245.95	1.5653e-06	1.3418e-06	377.01	58.941	2.2364e-06	1.1518e-06	115.51	31.66	14.867	3.8104	1.6672e-06	9.9535	4.0444e-05	2.4653e-05	7.9487e-06	231.22	3.1932e-07	3.1639e-07	357.08	56.205	3.0527e-07	2.6194e-07	107.71	29.875	13.985	3.61	2.1973e-07	9.5351	427.531	179.814	207.470	135.553	300.244	232.842	134.926	141.074	235.913	246.633	139.717	144.301	145.283	151.404	283.491	148.716	-8191	255	
#DATA ENDS
