BOXY.EXE: ISS Imagent and Oximeter Data Acquisition Program Version 0.80
Ascii Record File

#ACQ INFORMATION
2  Detector Channels 
16  External MUX Channels 
1  Auxiliary Channels 
5000  Waveform (CCF) Frequency (Hz)
1  Waveforms Skipped 
30  Waveforms Averaged 
1  Cycles Averaged 
16  Acquisitions per Waveform 
10.0806  Updata Rate (Hz) 

#FILE INFORMATION
TRUE -- External MUX Channel results are PARSED.
FALSE -- AC DC and Phase are NOT grouped.
TRUE -- Companion Program Settings File CREATED.
FALSE -- AC data not excluded
FALSE -- DC data not excluded
FALSE -- Phase data not excluded
FALSE -- Auxillary Chn. data not excluded
Tab delimiters

#CALIBRATION STATE
TRUE -- Waveform Calibration Values APPLIED.


#AUX CALIBRATION VALUES
Val Type	aux-1	

Term	1.0000e+00	
Factor	0.0000e+00	


#WF CALIBRATION VALUES
A = Detector Channel
Val Type	A-AC1	A-AC2	A-AC3	A-AC4	A-AC5	A-AC6	A-AC7	A-AC8	A-AC9	A-AC10	A-AC11	A-AC12	A-AC13	A-AC14	A-AC15	A-AC16	A-DC1	A-DC2	A-DC3	A-DC4	A-DC5	A-DC6	A-DC7	A-DC8	A-DC9	A-DC10	A-DC11	A-DC12	A-DC13	A-DC14	A-DC15	A-DC16	A-Ph1	A-Ph2	A-Ph3	A-Ph4	A-Ph5	A-Ph6	A-Ph7	A-Ph8	A-Ph9	A-Ph10	A-Ph11	A-Ph12	A-Ph13	A-Ph14	A-Ph15	A-Ph16	

Term	0.00000e+00	0.00000e+00	0.00000e+00	0.00000e+00	0.00000e+00	0.00000e+00	0.00000e+00	0.00000e+00	0.00000e+00	0.00000e+00	0.00000e+00	0.00000e+00	0.00000e+00	0.00000e+00	0.00000e+00	0.00000e+00	0.00000e+00	0.00000e+00	0.00000e+00	0.00000e+00	0.00000e+00	0.00000e+00	0.00000e+00	0.00000e+00	0.00000e+00	0.00000e+00	0.00000e+00	0.00000e+00	0.00000e+00	0.00000e+00	0.00000e+00	0.00000e+00	0.00000e+00	0.00000e+00	0.00000e+00	0.00000e+00	0.00000e+00	0.00000e+00	0.00000e+00	0.00000e+00	0.00000e+00	0.00000e+00	0.00000e+00	0.00000e+00	0.00000e+00	0.00000e+00	0.00000e+00	0.00000e+00	
Factor	1.00000e+00	1.00000e+00	1.00000e+00	1.00000e+00	1.00000e+00	1.00000e+00	1.00000e+00	1.00000e+00	1.00000e+00	1.00000e+00	1.00000e+00	1.00000e+00	1.00000e+00	1.00000e+00	1.00000e+00	1.00000e+00	1.00000e+00	1.00000e+00	1.00000e+00	1.00000e+00	1.00000e+00	1.00000e+00	1.00000e+00	1.00000e+00	1.00000e+00	1.00000e+00	1.00000e+00	1.00000e+00	1.00000e+00	1.00000e+00	1.00000e+00	1.00000e+00	X	X	X	X	X	X	X	X	X	X	X	X	X	X	X	X	

B = Detector Channel
Val Type	B-AC1	B-AC2	B-AC3	B-AC4	B-AC5	B-AC6	B-AC7	B-AC8	B-AC9	B-AC10	B-AC11	B-AC12	B-AC13	B-AC14	B-AC15	B-AC16	B-DC1	B-DC2	B-DC3	B-DC4	B-DC5	B-DC6	B-DC7	B-DC8	B-DC9	B-DC10	B-DC11	B-DC12	B-DC13	B-DC14	B-DC15	B-DC16	B-Ph1	B-Ph2	B-Ph3	B-Ph4	B-Ph5	B-Ph6	B-Ph7	B-Ph8	B-Ph9	B-Ph10	B-Ph11	B-Ph12	B-Ph13	B-Ph14	B-Ph15	B-Ph16	

Term	0.00000e+00	0.00000e+00	0.00000e+00	0.00000e+00	0.00000e+00	0.00000e+00	0.00000e+00	0.00000e+00	0.00000e+00	0.00000e+00	0.00000e+00	0.00000e+00	0.00000e+00	0.00000e+00	0.00000e+00	0.00000e+00	0.00000e+00	0.00000e+00	0.00000e+00	0.00000e+00	0.00000e+00	0.00000e+00	0.00000e+00	0.00000e+00	0.00000e+00	0.00000e+00	0.00000e+00	0.00000e+00	0.00000e+00	0.00000e+00	0.00000e+00	0.00000e+00	4.17717e+01	-1.31162e+02	-1.22911e+02	-1.83922e+02	-6.30644e+01	-7.02209e+01	-1.56404e+02	-1.62015e+02	-4.52563e+01	-6.41764e+01	-1.71598e+02	-1.69061e+02	-1.81176e+02	-1.77209e+02	-6.47185e+01	-1.50023e+02	
Factor	6.40346e-05	1.52600e-04	4.19047e-05	1.76566e-01	1.85982e-06	1.60018e-06	1.66977e-01	5.01798e-02	2.39878e-06	1.62312e-06	8.77349e-02	2.88353e-02	2.63990e-02	9.67641e-03	1.83296e-06	1.35945e-02	1.77045e-05	2.95731e-05	8.28597e-06	9.26155e-02	2.88225e-07	3.32224e-07	8.18985e-02	2.64251e-02	2.79175e-07	3.33486e-07	4.47295e-02	1.46946e-02	1.40515e-02	5.14846e-03	3.03169e-07	6.99069e-03	X	X	X	X	X	X	X	X	X	X	X	X	X	X	X	X	



#DISTANCE SETTINGS
A = Detector Channel
A-1	A-2	A-3	A-4	A-5	A-6	A-7	A-8	A-9	A-10	A-11	A-12	A-13	A-14	A-15	A-16	

2.5000e+00	3.0000e+00	2.5000e+00	3.0000e+00	2.0000e+00	3.0000e+00	1.5000e+00	3.0000e+00	3.0000e+00	3.0000e+00	3.0000e+00	3.0000e+00	3.0000e+00	3.0000e+00	1.5000e+00	3.0000e+00	

B = Detector Channel
B-1	B-2	B-3	B-4	B-5	B-6	B-7	B-8	B-9	B-10	B-11	B-12	B-13	B-14	B-15	B-16	

1.0000e+01	1.0000e+01	1.0000e+01	1.4400e+00	1.0000e+01	1.0000e+01	1.5100e+00	1.9400e+00	1.0000e+01	1.0000e+01	1.9900e+00	2.4900e+00	2.4100e+00	2.9000e+00	1.0000e+01	2.9800e+00	




#DATA BEGINS
time	group	step	mark	flag	A-AC1	A-AC2	A-AC3	A-AC4	A-AC5	A-AC6	A-AC7	A-AC8	A-AC9	A-AC10	A-AC11	A-AC12	A-AC13	A-AC14	A-AC15	A-AC16	A-DC1	A-DC2	A-DC3	A-DC4	A-DC5	A-DC6	A-DC7	A-DC8	A-DC9	A-DC10	A-DC11	A-DC12	A-DC13	A-DC14	A-DC15	A-DC16	A-Ph1	A-Ph2	A-Ph3	A-Ph4	A-Ph5	A-Ph6	A-Ph7	A-Ph8	A-Ph9	A-Ph10	A-Ph11	A-Ph12	A-Ph13	A-Ph14	A-Ph15	A-Ph16	B-AC1	B-AC2	B-AC3	B-AC4	B-AC5	B-AC6	B-AC7	B-AC8	B-AC9	B-AC10	B-AC11	B-AC12	B-AC13	B-AC14	B-AC15	B-AC16	B-DC1	B-DC2	B-DC3	B-DC4	B-DC5	B-DC6	B-DC7	B-DC8	B-DC9	B-DC10	B-DC11	B-DC12	B-DC13	B-DC14	B-DC15	B-DC16	B-Ph1	B-Ph2	B-Ph3	B-Ph4	B-Ph5	B-Ph6	B-Ph7	B-Ph8	B-Ph9	B-Ph10	B-Ph11	B-Ph12	B-Ph13	B-Ph14	B-Ph15	B-Ph16	aux-1	digaux	

1411.964	1	1	0	768	0.17272	0.12334	0.16554	0.16351	0.37429	0.15444	0.32085	0.18531	0.15184	0.17001	0.037224	0.21129	0.16888	0.12037	0.17909	0.099737	-3.5229	-3.0917	-3.3646	-3.8104	-2.9146	-3.5812	-3.5417	-3.2	-3.7125	-3.2417	-3.5625	-3.8333	-3.0167	-3.6771	-3.5104	-3.1479	-2.297	73.513	166.441	196.274	229.416	137.363	217.590	246.233	133.294	-18.954	38.057	197.627	-60.614	-86.719	-13.154	142.650	0.00081137	0.00064586	0.00011638	1483.2	4.3192e-06	1.0373e-06	1464.5	376.88	8.7084e-06	7.3481e-06	431.83	142.37	125.75	42.072	1.2636e-05	52.075	0.011865	0.019325	0.0053935	1573.3	0.00018372	0.00021149	1541	402.48	0.00017355	0.00020503	468.45	155	137.76	46.577	0.0001828	58.017	27.085	-70.833	23.676	-91.497	248.894	22.849	-91.943	-87.092	73.321	123.672	-87.685	-83.527	-82.925	-78.205	-14.024	-78.722	-8191	255	
1412.061	1	1	0	0	0.099406	0.28443	0.14006	0.25113	0.30192	0.17229	0.60835	0.12211	0.17342	0.16216	0.11509	0.14312	0.059803	0.084895	0.024162	0.15512	-3.3917	-3.1667	-3.1854	-4.0062	-3.0208	-3.5083	-3.6292	-3.1646	-3.8125	-3.175	-3.5646	-3.8937	-3.2771	-3.55	-3.6625	-3.2042	163.562	248.004	143.369	230.575	51.719	180.664	181.232	244.334	175.263	-30.409	234.623	226.218	185.598	-66.656	7.687	199.715	0.00042512	0.0009816	0.00023951	1482.1	1.8647e-05	1.0085e-05	1458.3	375.05	9.4267e-06	2.9123e-06	431.84	141.75	125.73	42.036	6.2812e-06	51.948	0.010744	0.017438	0.0048913	1562.7	0.00016851	0.00019601	1535.2	399.79	0.00016451	0.00019618	465.67	154.2	137.08	46.4	0.0001807	57.675	13.994	-39.133	20.388	-91.462	41.209	17.772	-91.873	-86.920	43.245	1.535	-87.678	-83.107	-82.628	-78.092	-41.601	-78.908	-8191	255	
1412.157	1	1	0	0	0.042475	0.12666	0.094689	0.11327	0.23183	0.24804	0.25062	0.20763	0.02126	0.21992	0.065511	0.18653	0.16324	0.11917	0.1092	0.23156	-3.3979	-3.1708	-3.1708	-4.0083	-2.8917	-3.5292	-3.8187	-3.3667	-3.7479	-3.35	-3.2062	-4.0312	-3.1813	-3.4771	-3.8729	-2.9521	122.490	122.041	59.208	110.355	140.926	10.813	165.517	198.704	-65.050	-6.856	-28.394	205.284	-96.020	-63.033	146.175	197.090	0.00055375	0.0013074	0.00030807	1484.5	3.8666e-06	1.5772e-05	1465.3	376.09	1.0434e-05	4.7765e-06	429.95	141.63	124.97	41.865	6.5458e-06	51.876	0.010748	0.017533	0.0049185	1567.2	0.00017241	0.00019824	1539.1	400.53	0.00016537	0.00019748	465.93	154.2	136.98	46.316	0.00017977	57.693	-7.833	-39.537	-41.840	-92.125	46.364	23.201	-92.273	-87.616	73.990	95.496	-88.257	-83.936	-83.346	-78.667	-20.145	-79.595	-8191	255	
1412.253	1	1	0	0	0.16417	0.095028	0.088555	0.218	0.30235	0.17405	0.3766	0.089741	0.11808	0.19575	0.12321	0.19326	0.19823	0.14578	0.1812	0.34717	-3.2271	-3.3063	-3.1792	-3.9146	-2.9896	-3.3479	-3.9313	-3.3146	-3.5625	-3.3333	-3.2313	-3.7271	-3.1771	-3.4792	-3.6937	-2.9396	-8.995	145.478	117.878	225.155	129.273	243.257	212.107	170.438	123.372	68.413	45.685	144.548	185.289	220.993	-76.510	174.446	0.00087497	0.00074906	0.00024461	1485.8	2.6616e-06	7.011e-06	1459.7	376.7	1.2032e-05	4.0199e-06	430.63	141.76	125.21	41.886	9.5812e-06	51.854	0.010741	0.017522	0.0049108	1567.1	0.0001708	0.00019739	1537	400.74	0.00016657	0.00019857	466.78	154.5	137.33	46.397	0.00018205	57.671	20.134	5.934	-4.435	-92.185	179.105	-48.253	-92.507	-87.532	42.475	24.874	-88.145	-83.756	-83.316	-78.383	254.397	-79.544	-8191	255	
1412.349	1	1	0	0	0.34619	0.098544	0.30057	0.15386	0.20631	0.12335	0.054976	0.10772	0.11447	0.12505	0.22642	0.16824	0.18373	0.21225	0.13556	0.16949	-3.075	-3.4625	-3.1771	-3.925	-3.0771	-3.2208	-3.9896	-3.2604	-3.4833	-3.5812	-3.1042	-3.8187	-3.3333	-3.3125	-3.8187	-3.0104	83.099	-15.155	131.600	177.097	38.138	98.555	210.769	181.319	-88.174	145.683	176.765	193.771	150.884	158.857	124.235	196.502	0.00069055	0.00062211	0.00034429	1489.5	4.0711e-06	1.1233e-05	1463.5	376.2	2.3038e-05	3.222e-06	429.18	141.67	125.75	42.139	4.2107e-06	52.125	0.010837	0.017689	0.004957	1571.3	0.00017316	0.00019995	1541.7	401.29	0.00016751	0.00019855	466.09	154.72	137.55	46.601	0.00018453	58.048	26.031	-56.384	6.132	-92.192	112.221	12.572	-92.480	-87.803	40.463	74.515	-88.176	-83.642	-83.615	-78.816	38.785	-79.479	-8191	255	
1412.445	1	1	0	0	0.16638	0.05601	0.19901	0.15683	0.21667	0.23478	0.22312	0.44345	0.1816	0.092454	0.053567	0.20204	0.037006	0.042149	0.14475	0.13097	-3.2313	-3.5146	-2.9708	-3.8937	-3.0833	-3.0875	-4.0333	-3.1771	-3.4771	-3.5729	-3.05	-3.7	-3.6208	-3.1208	-3.7812	-3.2062	173.958	99.382	-0.486	120.261	77.620	-93.742	240.772	190.709	-100.905	6.436	-98.054	221.305	-49.259	-78.097	121.033	-76.966	0.00072962	0.0013081	7.8102e-05	1498.3	4.233e-06	1.3491e-05	1475.7	382.39	9.4234e-06	4.0175e-06	435.17	144.94	127.8	42.672	7.4857e-06	53.003	0.011273	0.018438	0.0052592	1586.8	0.0001857	0.00021649	1560	408.63	0.00018746	0.00022508	476.72	158.54	141.1	47.731	0.00020969	59.553	-18.140	-66.869	28.896	-92.104	20.457	18.650	-92.423	-87.650	-87.672	109.120	-87.993	-84.143	-83.265	-78.576	103.541	-79.498	-8191	255	
1412.566	1	1	0	0	0.08643	0.079446	0.16084	0.20436	0.067348	0.16563	0.23445	0.31053	0.16849	0.32527	0.16842	0.34409	0.19226	0.20249	0.11276	0.36876	-2.9	-3.7604	-2.9167	-3.7479	-3.3917	-3.1375	-3.7792	-3.3063	-3.3896	-3.8292	-3.1708	-3.5583	-3.6229	-3.0687	-3.6521	-3.3229	176.449	136.282	-74.493	175.893	144.072	-50.350	202.829	201.983	-81.647	161.877	-77.531	186.361	-76.184	208.909	230.675	226.488	0.00090971	0.00072335	0.00013358	1510.9	1.0197e-05	7.949e-06	1483.9	386.79	7.3508e-06	6.4085e-06	439.3	145.8	128.8	42.996	1.368e-05	53.165	0.012515	0.020514	0.0057585	1603.3	0.00020076	0.00023019	1571	413.68	0.00019523	0.00023031	481.72	159.65	142.05	47.95	0.00021261	59.704	-1.144	-1.358	157.446	-91.838	93.906	75.409	-92.218	-87.708	-64.263	153.101	-88.299	-83.774	-83.463	-78.728	107.251	-79.482	-8191	255	
1412.662	1	1	0	0	0.07831	0.11841	0.10076	0.24746	0.083061	0.23386	0.15284	0.22111	0.095703	0.16756	0.12946	0.08665	0.04458	0.12232	0.13948	0.39502	-2.875	-3.6229	-2.9167	-3.6688	-3.5812	-3.0021	-3.825	-3.4437	-3.0687	-3.7646	-2.9458	-3.5458	-3.6188	-2.9458	-3.6125	-3.4979	-34.378	154.073	170.262	236.449	-25.108	23.188	205.787	183.047	209.372	212.633	227.306	-61.070	139.786	-42.334	-56.471	171.008	0.0010839	0.00093123	0.00038946	1514.6	1.1059e-05	1.1515e-05	1488.9	386.64	6.6662e-06	7.2081e-06	439.45	144.59	128.61	42.775	6.4575e-06	52.999	0.012609	0.020656	0.0058011	1608.7	0.00020058	0.00023024	1575.2	414.52	0.00019286	0.00023007	481.77	159.09	141.78	47.753	0.00020628	59.376	20.588	3.119	-70.859	-91.774	47.974	99.839	-92.162	-87.591	36.239	49.005	-88.078	-83.497	-83.355	-78.708	37.449	-79.308	-8191	255	
1412.758	1	1	0	0	0.12538	0.10257	0.23862	0.31112	0.18272	0.13546	0.12507	0.11489	0.24234	0.26243	0.11408	0.23204	0.045004	0.24668	0.15332	0.18463	-2.6667	-3.75	-3.2083	-3.4083	-3.5292	-2.8625	-3.7958	-3.5958	-3.0896	-3.8854	-3.1604	-3.3271	-3.9396	-3.0833	-3.65	-3.6479	233.888	149.932	-102.018	175.858	104.231	40.296	181.895	214.806	244.369	15.204	82.960	-34.439	153.413	235.632	-67.240	169.902	0.00096214	0.00037547	0.00033021	1512.3	8.4048e-06	1.1426e-05	1480.6	384.77	9.0835e-06	1.2565e-05	438.82	144.23	127.97	42.626	6.2537e-06	52.86	0.012275	0.020052	0.0056133	1602.9	0.00019344	0.00022239	1567.1	411.53	0.0001864	0.00022065	478.24	158.21	140.72	47.503	0.00020359	59.152	11.988	44.122	1.325	-92.006	216.395	24.952	-92.088	-87.477	38.214	36.234	-88.217	-83.606	-83.430	-78.559	7.328	-79.484	-8191	255	
1412.854	1	1	0	0	0.29758	0.15726	0.20823	0.143	0.10444	0.082318	0.21532	0.28918	0.1082	0.31591	0.15635	0.13009	0.27113	0.11785	0.11984	0.25523	-2.4958	-3.6667	-3.2146	-3.3375	-3.7854	-3.0854	-3.8708	-3.7229	-2.9688	-3.5646	-3.225	-3.3417	-3.8833	-3.1813	-3.6708	-3.6063	230.882	135.820	194.753	212.500	174.388	32.182	170.930	181.484	169.278	-23.382	193.456	242.359	-57.411	166.933	44.209	170.388	0.0008524	0.0008103	0.00026754	1510.8	1.2834e-05	1.1944e-05	1481.8	384.69	1.2147e-05	3.2119e-06	439.79	144.54	127.71	42.422	2.3438e-07	52.586	0.012098	0.019809	0.0055574	1602.9	0.00019445	0.0002235	1567.9	411.75	0.00018737	0.00022325	478.96	157.98	140.85	47.409	0.00020279	58.985	-0.947	25.302	19.936	-91.821	85.562	5.779	-92.107	-87.494	-50.814	69.800	-88.020	-83.641	-82.713	-78.314	-58.666	-78.821	-8191	255	
1412.949	1	1	0	0	0.18001	0.25146	0.17073	0.12086	0.30999	0.21493	0.22306	0.28993	0.073153	0.15052	0.079348	0.16636	0.063834	0.10616	0.20693	0.17818	-2.6229	-3.5271	-3.2896	-3.3875	-3.775	-3.0438	-3.7208	-3.6792	-2.9	-3.7167	-3.5396	-3.0604	-3.9313	-3.1792	-3.3521	-3.7333	172.985	134.166	70.787	-34.564	-36.034	108.068	231.638	201.547	24.688	244.978	228.180	203.122	218.131	165.814	248.127	-102.958	0.00063151	0.00072693	0.00012978	1512.9	4.8449e-06	8.8168e-06	1480.7	385.37	1.3195e-05	6.4835e-06	439.45	144.45	128.04	42.517	1.3234e-05	52.546	0.012048	0.019823	0.0055387	1601.3	0.00019317	0.00022339	1568.2	411.79	0.0001873	0.00022394	478.8	158.09	140.65	47.29	0.00020129	58.96	-9.347	-9.776	31.716	-91.641	200.782	23.783	-91.767	-87.143	66.410	78.382	-87.563	-83.003	-82.563	-77.990	-42.337	-78.951	-8191	255	
1413.045	1	1	0	0	0.32384	0.2054	0.18579	0.1062	0.21612	0.27392	0.22136	0.12027	0.15444	0.050528	0.11002	0.16851	0.14626	0.1254	0.32969	0.11265	-2.5062	-3.6875	-3.3021	-3.1479	-3.5896	-3.125	-3.5187	-3.8729	-3.0875	-3.6375	-3.6604	-3.0708	-3.9375	-3.2729	-3.3542	-3.8312	171.396	-28.885	144.026	178.750	220.802	-18.855	143.189	212.979	-32.608	-72.430	189.467	214.774	189.891	-64.611	111.643	117.903	0.00060907	0.00024368	0.00023759	1506.7	2.3169e-06	5.0833e-06	1483.9	383.47	1.6003e-05	6.3792e-06	435.8	143.77	127.37	42.363	6.6717e-07	52.227	0.011881	0.019392	0.0054588	1596.3	0.00018882	0.00021576	1563.4	409.31	0.00018101	0.0002146	475.45	157.16	139.91	47.098	0.00019581	58.673	16.697	32.959	28.193	-91.641	162.792	6.853	-91.657	-86.987	2.212	24.550	-87.591	-83.024	-82.725	-77.609	217.521	-78.615	-8191	255	
1413.141	1	1	0	0	0.062905	0.22854	0.23117	0.2611	0.072664	0.34029	0.18195	0.18085	0.22933	0.10301	0.084508	0.38623	0.15094	0.056594	0.30291	0.14482	-2.6875	-3.5167	-3.4938	-3.2313	-3.6813	-3.1813	-3.2271	-4.1792	-3.1063	-3.5687	-3.7521	-3.1917	-3.7354	-3.4354	-3.2146	-3.8104	187.800	163.798	16.487	-73.699	129.908	-15.687	205.525	203.689	-37.004	-2.664	87.191	211.577	239.585	-90.012	79.663	-53.167	0.00019995	0.0004895	0.0001271	1501.9	4.343e-07	3.007e-06	1482.1	382.43	1.689e-05	3.7985e-06	435.82	142.9	126.55	42.279	1.1148e-05	52.239	0.011564	0.019108	0.0053208	1591.1	0.00018487	0.00021384	1561.4	408.18	0.00017898	0.00021321	473.68	156.45	139.1	46.819	0.0001923	58.354	37.096	-55.106	63.201	-91.763	62.623	223.741	-91.522	-87.064	73.862	45.193	-87.666	-83.324	-82.474	-78.168	-14.340	-78.501	-8191	255	
1413.262	1	1	0	0	0.27354	0.11378	0.053824	0.20025	0.2085	0.14549	0.18719	0.31458	0.20339	0.25635	0.18351	0.10008	0.16546	0.05865	0.085868	0.23526	-2.5729	-3.4562	-3.5312	-3.075	-3.5375	-3.475	-3.3771	-3.9021	-3.0646	-3.2771	-3.7333	-3.2208	-3.7604	-3.5979	-2.9708	-3.9208	224.345	241.377	148.288	205.715	198.312	90.789	163.668	155.255	-45.852	135.989	210.088	-51.314	248.431	-15.938	-71.401	169.813	0.000698	0.001343	0.00035549	1501.1	4.2222e-06	7.2137e-06	1475.5	382.5	4.8273e-06	8.8017e-06	433.48	143.21	126.45	42.265	1.4011e-05	52.302	0.011435	0.018706	0.0052699	1586.6	0.00018239	0.00021108	1556.8	407.52	0.00017849	0.00021228	472.96	156.23	139.09	46.894	0.00019381	58.374	56.145	-18.699	-68.351	-91.032	128.316	123.849	-90.994	-86.123	53.574	45.184	-87.570	-82.873	-82.465	-77.686	47.216	-78.268	-8191	255	
1413.358	1	1	0	0	0.41512	0.098896	0.1515	0.15165	0.090177	0.20243	0.13563	0.082064	0.19013	0.095953	0.17993	0.31843	0.20981	0.022597	0.020556	0.24793	-2.7708	-3.4375	-3.8042	-3.2354	-3.6146	-3.5417	-3.2646	-3.9083	-3.2021	-3.1729	-3.9188	-3.0625	-3.6354	-3.4708	-2.9688	-3.9479	94.764	104.596	128.718	-55.691	253.966	15.157	115.572	166.032	-6.998	-9.598	-53.199	155.392	235.081	-89.388	99.702	232.625	0.00028113	0.0004965	0.00030343	1495.3	4.7357e-06	8.8719e-06	1477.9	381.78	9.205e-06	1.2663e-05	432.84	143.69	126.91	42.466	5.3348e-06	52.244	0.011578	0.018861	0.0052401	1583.8	0.0001822	0.00020995	1555	406.56	0.0001759	0.00020983	472.03	155.99	138.91	46.825	0.00019075	58.217	-37.861	-29.933	-60.018	-90.800	-55.747	75.275	-90.812	-86.673	223.310	87.036	-86.956	-82.549	-82.191	-77.725	50.613	-78.269	-8191	255	
1413.454	1	1	0	0	0.18131	0.07531	0.099519	0.35586	0.23345	0.34648	0.16742	0.15131	0.049214	0.22545	0.39703	0.084882	0.19066	0.20664	0.15544	0.2305	-2.8896	-3.2125	-3.8312	-3.1833	-3.5438	-3.675	-3.2583	-3.8021	-3.175	-3.0625	-3.8292	-3.1937	-3.3958	-3.475	-2.8667	-3.7833	207.334	74.719	15.278	210.954	-38.102	168.346	201.906	-86.148	-62.728	-72.530	219.152	-9.000	-78.280	209.949	147.141	202.562	0.00099893	0.00078035	0.00022734	1496.1	5.9215e-06	1.2851e-05	1471.3	378.79	1.1042e-05	7.6076e-06	432.78	142.26	126.2	42.239	6.7036e-06	52.256	0.011341	0.018572	0.0051636	1582.2	0.00018062	0.00020597	1551.9	405.16	0.00017194	0.00020285	470.5	155.37	138.14	46.519	0.00018566	57.987	13.977	-82.243	-28.796	-91.789	35.722	84.890	-92.171	-87.366	10.378	53.159	-87.864	-83.710	-83.529	-78.689	41.039	-79.082	-8191	255	
1413.526	1	1	0	0	0.038545	0.099228	0.18248	0.35843	0.029837	0.15719	0.11878	0.1707	0.14299	0.052492	0.17315	0.19114	0.22624	0.19619	0.089512	0.07506	-2.7938	-2.9062	-3.8417	-3.3646	-3.5312	-3.6896	-3.2313	-3.8208	-3.4875	-3.1958	-3.9646	-3.3521	-3.3312	-3.7438	-2.8917	-3.6771	93.283	-56.214	-7.290	231.166	-97.982	155.208	229.425	187.238	224.127	-17.278	162.274	-52.877	205.329	150.053	219.641	206.439	0.00022981	0.00044175	0.00015067	1496.1	5.2488e-06	1.7511e-06	1471.6	378.89	8.8518e-06	5.9044e-06	432.42	141.89	125.76	42.109	6.8997e-06	52.015	0.011043	0.018108	0.0050811	1580.4	0.00017481	0.00020048	1548.6	404.03	0.00017079	0.000202	470.05	154.56	137.73	46.416	0.00018312	57.829	29.569	24.498	-57.356	-92.107	91.244	174.223	-92.109	-87.417	103.468	6.027	-88.066	-83.864	-83.160	-78.319	55.034	-78.948	-8191	255	
1413.646	1	1	0	0	0.12922	0.13371	0.043559	0.19059	0.16775	0.43014	0.13509	0.29404	0.084425	0.025136	0.027183	0.19548	0.34663	0.25481	0.22051	0.13096	-3.0667	-3.1083	-3.7271	-3.3542	-3.2438	-3.7125	-3.2396	-3.5625	-3.625	-3.0896	-3.7792	-3.1792	-3.2146	-3.8438	-2.9146	-3.5792	189.115	23.166	95.400	210.364	116.847	30.457	163.728	190.940	112.888	116.016	-32.476	191.898	246.655	219.236	171.085	-20.213	0.00049718	0.00013764	0.00012603	1483.7	1.3088e-05	6.9961e-06	1459.3	376.67	1.4231e-05	8.2537e-06	427.62	141.39	124.85	41.692	7.8849e-06	51.69	0.010828	0.01773	0.0049362	1571.6	0.00017125	0.00019519	1539.1	401.75	0.00016266	0.0001944	466.01	153.68	136.79	46.067	0.00017634	57.348	44.126	-6.429	-40.898	-92.102	17.688	93.108	-92.291	-87.438	66.989	55.174	-87.911	-83.645	-83.074	-78.404	36.700	-79.056	-8191	255	
1413.742	1	1	0	0	0.18769	0.10682	0.1118	0.28457	0.32326	0.32407	0.24875	0.3418	0.055867	0.045518	0.2727	0.1285	0.15832	0.10289	0.26814	0.031499	-3.1604	-3.0208	-3.7208	-3.3563	-3.1958	-3.8458	-3.2	-3.5271	-3.5771	-3.0146	-3.925	-3.3875	-3.3479	-3.8229	-3.175	-3.4958	40.745	104.675	19.870	250.130	-84.568	135.810	207.866	183.377	69.082	-4.690	-96.413	57.649	254.634	204.659	144.083	2.509	0.00033443	0.00027299	0.00026041	1485.2	6.6694e-06	1.1884e-05	1456.2	376.39	8.9607e-06	9.0078e-07	427	141.03	124.58	41.504	6.9019e-06	51.671	0.010498	0.017168	0.0048076	1566.6	0.00016677	0.00019182	1534.7	399.61	0.00015842	0.00019099	463.41	152.9	135.94	45.745	0.00017162	57.131	35.200	-51.736	-80.269	-92.078	70.068	41.780	-92.134	-87.281	26.637	63.303	-88.086	-83.751	-83.021	-78.453	-4.508	-79.167	-8191	255	
1413.839	1	1	0	0	0.12441	0.24008	0.094791	0.25015	0.04873	0.19521	0.5049	0.17491	0.1182	0.32738	0.22563	0.026918	0.30259	0.26574	0.2012	0.068704	-3.2417	-2.8292	-3.4771	-3.5312	-2.9646	-3.8333	-3.2583	-3.4625	-3.6521	-3.0292	-3.7042	-3.525	-2.9979	-3.9646	-3.0604	-3.4062	-29.825	100.463	124.069	-91.792	69.886	95.933	162.971	166.111	51.141	-89.836	-101.666	175.387	192.741	-88.501	196.766	239.282	0.0004881	0.00096464	0.00011044	1482.8	5.6747e-06	8.7435e-06	1459.9	377.24	4.9169e-06	1.0165e-05	428.57	141.26	124.61	41.682	9.1193e-06	51.549	0.010245	0.017011	0.0047714	1565.1	0.00016825	0.00019325	1536.2	400.5	0.00016491	0.00019853	465.38	153.54	136.54	46.121	0.00018144	57.403	-16.653	-36.144	51.207	-92.093	1.933	-7.696	-92.110	-87.342	8.809	53.348	-88.003	-83.717	-83.172	-78.389	93.735	-79.245	-8191	255	
1413.957	1	1	0	0	0.31846	0.12902	0.026419	0.19198	0.12306	0.26318	0.18564	0.20542	0.10772	0.17644	0.099211	0.193	0.1504	0.19899	0.085171	0.056884	-3.2646	-3.0979	-3.5917	-3.6958	-2.8958	-3.8	-3.4479	-3.4083	-3.7583	-3.0729	-3.675	-3.65	-3.0563	-3.7792	-3.2938	-3.3979	187.697	137.288	144.159	201.535	2.720	28.220	188.892	-75.805	53.471	167.750	244.938	-98.835	-0.455	219.123	-21.006	105.675	0.00064776	0.00055966	0.00026862	1483.6	7.6414e-06	9.9638e-06	1458.7	375.22	8.4986e-07	1.6328e-05	427.79	140.17	124.11	41.449	5.8521e-06	51.727	0.010769	0.017615	0.0049262	1567.3	0.00016946	0.00019473	1535.7	399.47	0.00016156	0.00019317	464.04	153	135.89	45.833	0.00017549	57.202	13.046	69.389	-17.704	-91.987	97.567	29.674	-92.107	-87.437	-92.231	23.095	-87.847	-83.685	-83.237	-78.350	193.608	-78.886	-8191	255	
1414.054	1	1	0	0	0.18715	0.13582	0.17752	0.25395	0.16947	0.030755	0.044103	0.23387	0.073036	0.083783	0.15179	0.14333	0.25901	0.045008	0.19977	0.16068	-3.5042	-3.0417	-3.5271	-3.8812	-3.0083	-3.7812	-3.5208	-3.1667	-3.7667	-3.2938	-3.4771	-3.8917	-3.1333	-3.8833	-3.475	-3.1521	179.436	210.210	29.841	200.901	63.413	-0.970	-97.427	192.151	99.878	-68.063	-30.504	188.520	241.630	-91.196	87.266	244.808	0.00065567	0.0010012	3.4172e-05	1480	1.0228e-05	8.5072e-06	1452.6	373.31	1.0555e-05	8.347e-06	426.79	139.86	124.03	41.378	1.1303e-05	51.43	0.010358	0.016891	0.004719	1562.1	0.00016317	0.00018733	1529.3	397.84	0.00015581	0.00018588	461.17	151.93	134.85	45.558	0.00016709	56.764	-6.941	-7.608	163.972	-91.991	53.907	12.286	-92.231	-87.152	32.806	45.327	-87.890	-83.604	-83.450	-78.368	69.719	-78.943	-8191	255	
1414.127	1	1	0	0	0.17501	0.052604	0.19105	0.3472	0.092107	0.056382	0.15962	0.28205	0.13301	0.092078	0.10632	0.10445	0.24327	0.26443	0.1567	0.088385	-3.3292	-3.125	-3.3271	-4.0104	-2.9833	-3.5125	-3.7146	-3.4	-3.8875	-3.1896	-3.3292	-3.7542	-3.075	-3.7271	-3.4646	-3.0896	214.673	91.778	244.410	248.221	91.113	156.291	172.710	221.729	-82.218	70.294	-0.988	-39.985	-91.726	155.911	-28.929	201.110	0.00043148	0.00073324	0.00013634	1478.6	1.44e-05	5.5894e-06	1448.3	372.7	1.0898e-05	3.5168e-06	425.71	139.41	123.47	41.194	1.1125e-05	51.108	0.010073	0.016398	0.0046344	1556.7	0.00016039	0.00018516	1524.6	396.37	0.00015615	0.00018647	460.32	151.73	134.93	45.485	0.00017021	56.731	-26.127	20.092	-10.519	-91.919	92.880	-10.200	-92.337	-87.460	1.560	29.163	-87.791	-83.827	-83.297	-78.479	41.282	-79.001	-8191	255	
1414.246	1	1	0	0	0.068415	0.20312	0.20925	0.076184	0.18613	0.20034	0.16873	0.39786	0.21277	0.2206	0.2467	0.16822	0.20535	0.20588	0.074168	0.217	-3.4292	-3.3	-3.2438	-3.9208	-3.0083	-3.5083	-3.75	-3.2646	-3.7812	-3.2333	-3.2438	-3.9917	-2.9729	-3.5312	-3.6229	-3.0146	48.137	60.729	244.952	232.884	20.634	139.022	215.549	247.445	-5.703	73.708	-61.979	-104.325	209.808	231.655	48.230	159.020	0.0007906	0.0010237	5.484e-05	1474	5.3836e-06	1.1742e-05	1450.6	371.9	1.0491e-05	9.2413e-06	427.56	139.39	123.87	41.139	1.555e-05	51.272	0.01017	0.016756	0.0046824	1555.8	0.00016424	0.0001893	1525.1	396.89	0.00016081	0.00019267	461.93	152.11	135.17	45.633	0.00017367	56.942	25.785	-54.113	-92.591	-92.087	37.610	68.365	-92.139	-87.534	178.412	39.216	-87.914	-83.520	-82.927	-78.291	20.242	-79.115	-8191	255	
1414.342	1	1	0	0	0.10091	0.12823	0.11957	0.21381	0.032332	0.14592	0.13477	0.21442	0.063126	0.31066	0.044432	0.1298	0.19456	0.3069	0.21278	0.21941	-3.425	-3.2833	-2.9979	-3.725	-3.1604	-3.3625	-3.7729	-2.9333	-3.5875	-3.3583	-3.1896	-3.9292	-3.1104	-3.3604	-3.6688	-2.9771	250.452	122.355	15.752	186.312	220.144	100.214	166.335	208.105	11.940	180.689	-63.254	228.017	216.773	-53.435	91.707	167.791	0.00069515	0.0017233	0.00022603	1474.5	3.6108e-06	2.3397e-06	1447.5	372.58	5.2035e-06	5.8714e-06	425.61	139.43	123.17	41.026	2.2292e-06	51.116	0.010369	0.016991	0.0047731	1554.8	0.00016602	0.00018995	1524.4	396.48	0.00016173	0.0001914	461.08	151.66	134.78	45.423	0.00017072	56.618	25.974	-21.139	10.474	-91.984	-95.237	55.958	-92.282	-87.450	157.010	117.955	-87.851	-83.658	-83.288	-78.223	-50.802	-79.276	-8191	255	
1414.438	1	1	0	0	0.10566	0.1557	0.24891	0.34205	0.098449	0.11629	0.26796	0.29904	0.0073177	0.091659	0.29246	0.14776	0.17004	0.17462	0.29786	0.1576	-3.2542	-3.4646	-2.95	-3.7729	-3.0938	-3.1771	-3.8604	-3.2479	-3.5042	-3.6208	-3.0396	-3.7604	-3.2104	-3.2854	-3.7854	-3.1396	12.269	204.590	111.728	241.039	252.156	233.913	198.939	-85.816	-71.573	-57.177	232.436	-24.125	-90.247	252.879	53.786	27.067	0.00097913	0.00092417	0.00037272	1472.5	8.7408e-06	1.1878e-05	1443.9	370.15	9.7767e-06	8.5379e-06	424.92	139.64	122.69	41.007	5.1405e-06	50.885	0.01018	0.016507	0.0046548	1551.9	0.00015945	0.00018232	1516.7	393.02	0.00015236	0.00018091	457.84	151.1	133.85	45.189	0.00016744	56.457	19.477	-45.374	22.034	-91.845	124.984	82.045	-92.329	-87.364	9.207	83.511	-87.917	-83.558	-83.006	-78.407	-33.187	-78.972	-8191	255	
1414.559	1	1	0	0	0.11703	0.15487	0.19793	0.28439	0.064852	0.13922	0.1563	0.11762	0.16308	0.21513	0.18802	0.14697	0.066185	0.23175	0.24887	0.090587	-2.9646	-3.5896	-2.8271	-3.8021	-3.3792	-3.4083	-4.0333	-3.1854	-3.4292	-3.6021	-3.2375	-3.75	-3.3396	-3.1521	-3.725	-3.1104	-26.584	91.083	-57.805	-78.342	186.093	110.309	173.895	153.111	31.031	-64.196	-64.028	248.869	-30.950	-12.498	162.844	236.343	0.0007285	0.00053122	7.0611e-05	1474.5	5.5912e-06	1.3391e-05	1444.4	371.77	2.9031e-06	5.3201e-06	425	139.08	122.89	41.21	9.9701e-06	51.093	0.010077	0.016442	0.0046662	1550.4	0.00016401	0.00018984	1519.8	394.67	0.00015843	0.00018805	458.72	151.12	134.14	45.408	0.00017097	56.584	-8.967	-1.350	-7.763	-91.972	26.594	51.889	-92.048	-87.321	62.372	-62.239	-87.936	-83.507	-83.165	-78.328	85.281	-79.093	-8191	255	
1414.655	1	1	0	0	0.074997	0.10689	0.10005	0.056819	0.011111	0.21399	0.12797	0.13284	0.13374	0.082798	0.084939	0.49435	0.051262	0.19421	0.22772	0.080781	-2.9979	-3.6688	-2.9396	-3.7208	-3.2479	-2.9771	-4.0229	-3.3292	-3.2958	-3.75	-3.1021	-3.7583	-3.625	-3.2292	-3.7167	-3.2479	27.401	128.548	159.557	52.829	116.368	104.555	140.694	248.982	-12.164	46.283	132.217	222.825	251.806	235.409	251.042	242.428	0.00084642	0.00044338	7.4065e-05	1470.7	3.9132e-06	2.9001e-06	1446	371.03	5.9061e-06	9.6589e-06	422.38	138.98	123.3	41.148	1.7227e-05	50.823	0.010154	0.016592	0.0046294	1546	0.00016106	0.00018582	1516.7	393.78	0.00015744	0.00018736	457.55	151.24	134.36	45.37	0.00017473	56.693	0.195	67.122	190.258	-91.970	172.206	173.282	-92.002	-87.263	61.469	47.914	-87.760	-83.584	-83.163	-78.275	38.348	-79.087	-8191	255	
1414.749	1	1	0	0	0.14535	0.2208	0.15574	0.27583	0.097038	0.16108	0.35999	0.1358	0.20822	0.091097	0.066453	0.27967	0.090362	0.32639	0.2203	0.0904	-2.5896	-3.6729	-3.0125	-3.6833	-3.5792	-3.0792	-4.0271	-3.2583	-3.2146	-3.8167	-3.1083	-3.4396	-3.7708	-3.1688	-3.7458	-3.3958	122.967	-73.305	113.111	151.057	220.764	204.390	201.262	143.103	-29.353	229.842	228.483	241.341	87.820	205.847	45.332	203.758	0.00043872	0.00090194	0.00019569	1473.8	1.7882e-05	1.061e-05	1446.4	370	2.013e-05	2.9106e-06	422.89	139.13	123.07	41.06	1.0939e-05	51.192	0.010488	0.01709	0.0048047	1552.1	0.00016782	0.00019391	1522	395.1	0.00016172	0.00019162	458.8	151.4	134.48	45.208	0.00017165	56.6	29.412	8.775	191.931	-91.975	12.189	65.656	-92.194	-87.395	62.641	-2.246	-87.721	-83.419	-83.183	-78.252	175.784	-79.230	-8191	255	
1414.823	1	1	0	0	0.11502	0.21342	0.035963	0.031256	0.09873	0.14913	0.17481	0.091349	0.12972	0.16934	0.26876	0.25889	0.15201	0.10398	0.30095	0.11535	-2.8646	-3.7833	-3.0979	-3.6688	-3.5396	-2.9854	-3.8875	-3.5333	-3.0958	-3.8396	-3.2687	-3.5292	-3.8167	-3.0458	-3.6271	-3.5021	239.764	-36.181	-93.371	233.496	150.530	138.782	88.203	217.481	5.640	113.863	-81.299	239.131	188.031	252.219	204.038	72.492	0.0006935	0.00061239	0.00014476	1465.1	1.4123e-06	2.4561e-06	1440.4	370.14	2.6432e-05	3.1397e-06	420.71	138.7	122.38	40.879	4.9697e-06	50.657	0.010238	0.016473	0.0046272	1544.1	0.00015976	0.00018416	1515.3	393.03	0.0001539	0.00018143	455.21	150.28	133.1	44.855	0.00016032	56.03	17.353	-86.887	-103.209	-91.924	-19.700	49.239	-92.055	-87.515	37.628	-51.869	-87.564	-83.534	-83.197	-78.290	126.102	-79.263	-8191	255	
1414.942	1	1	0	0	0.17888	0.1766	0.088763	0.12353	0.37676	0.29464	0.20991	0.11937	0.13393	0.046063	0.10799	0.30923	0.20431	0.28449	0.039716	0.17061	-2.7542	-3.8187	-3.1979	-3.4042	-3.9938	-3.0938	-3.8729	-3.5542	-3.1583	-3.9542	-3.4062	-3.4167	-3.9354	-3.1604	-3.5417	-3.6396	1.226	24.202	237.498	155.619	219.570	-89.091	207.123	207.882	30.269	223.093	200.226	203.885	-34.762	157.294	63.911	161.796	0.00061749	0.00039037	0.00010676	1458.5	8.7153e-06	7.8894e-06	1428.1	366.7	8.0802e-06	7.9401e-06	417.99	138.23	121.97	40.693	2.5417e-06	50.269	0.0095621	0.015499	0.0043497	1532.6	0.00014853	0.00017066	1502.6	389.82	0.0001441	0.00017023	451.47	149.22	132.21	44.567	0.00015415	55.616	10.372	-49.130	21.864	-91.787	47.101	58.892	-91.850	-87.375	71.819	22.525	-87.641	-83.450	-83.103	-78.609	106.600	-79.297	-8191	255	
1415.038	1	1	0	0	0.16204	0.16028	0.26391	0.22312	0.043428	0.21765	0.19887	0.05037	0.18923	0.052114	0.36691	0.19608	0.22572	0.082229	0.20857	0.21026	-2.5521	-3.7583	-3.225	-3.3083	-3.6188	-3.0563	-3.8229	-3.8833	-3.0812	-3.8583	-3.3979	-3.3688	-3.6333	-3.1833	-3.5083	-3.7104	-10.893	108.838	214.849	245.857	16.155	82.260	200.232	143.851	225.759	158.685	247.739	241.542	140.698	-45.683	110.810	-96.806	0.00057529	0.00044632	0.00021471	1452.2	6.4279e-06	6.2001e-06	1428.4	367.21	2.9422e-07	8.2332e-06	418.91	137.23	122.07	40.75	3.3875e-06	50.597	0.0093022	0.015284	0.0042684	1528.4	0.00015054	0.00017452	1502.1	390.03	0.00014993	0.00017875	453.75	149.48	132.69	44.791	0.00016271	55.938	4.216	-79.644	-28.517	-91.744	94.177	229.133	-91.998	-87.282	-49.432	-11.803	-87.936	-83.752	-82.762	-78.477	21.033	-78.996	-8191	255	
1415.134	1	1	0	0	0.072526	0.14109	0.051208	0.29966	0.051166	0.15582	0.27917	0.26262	0.23859	0.32004	0.27107	0.26565	0.14591	0.085941	0.1838	0.17855	-2.5833	-3.7562	-3.4271	-3.2542	-3.8208	-3.0875	-3.6708	-3.8396	-2.9188	-3.6854	-3.4104	-3.0583	-3.9271	-3.1125	-3.2271	-3.6333	186.260	198.598	74.550	-91.111	-79.248	-27.802	192.288	168.413	-89.087	86.525	137.334	217.569	-68.500	248.316	71.342	10.196	0.000636	0.0011378	0.00027666	1451.5	9.7274e-06	7.1161e-06	1428.9	367.1	1.6565e-05	3.8902e-06	418.57	137.66	121.4	40.408	7.9103e-06	50.564	0.0097914	0.015901	0.0044068	1530.4	0.00015432	0.00017718	1501.5	390.07	0.00014829	0.00017671	452.11	149.24	132.39	44.659	0.00016053	55.792	26.391	9.513	-71.574	-92.010	25.193	-34.716	-91.998	-87.568	10.572	-4.852	-88.018	-83.379	-82.726	-78.246	-3.746	-78.972	-8191	255	
1415.230	1	1	0	0	0.066255	0.10926	0.1898	0.2673	0.14329	0.19892	0.020504	0.17225	0.10563	0.22757	0.076222	0.27762	0.18216	0.10342	0.055514	0.13171	-2.6896	-3.5	-3.4354	-3.0708	-3.4875	-3.1813	-3.5917	-3.8875	-3.0604	-3.5396	-3.7625	-3.2021	-3.7562	-3.3438	-3.1229	-4.0167	248.398	250.154	34.152	226.967	113.347	235.374	-104.052	223.711	16.473	189.963	14.239	228.501	-97.193	-94.166	203.777	77.064	0.00057148	0.00050404	0.00012742	1453.9	2.6731e-06	3.4976e-06	1435	368.45	7.2404e-06	2.5062e-06	419.96	137.76	122.31	40.739	6.7453e-06	50.548	0.0095918	0.015622	0.0043156	1528.6	0.00015125	0.00017621	1502	389.96	0.00014852	0.00017834	453.46	149.72	133.13	44.9	0.0001697	56.257	21.431	-22.652	-23.588	-91.710	179.330	73.425	-91.983	-87.388	82.057	47.134	-87.866	-83.553	-82.859	-78.517	87.267	-79.352	-8191	255	
1415.351	1	1	0	0	0.15087	0.097822	0.25294	0.24057	0.15403	0.19622	0.25433	0.27228	0.11781	0.10769	0.053268	0.14447	0.11763	0.12471	0.14515	0.064081	-2.6167	-3.4229	-3.4792	-3.0479	-3.6937	-3.2188	-3.4208	-3.8	-3.1083	-3.6021	-3.775	-3.0521	-3.7792	-3.4583	-2.9083	-3.7646	36.579	67.405	132.072	-63.433	-74.001	199.948	184.500	190.470	-71.217	94.040	162.848	-97.390	146.704	155.162	-39.044	-99.055	0.00059072	0.00028218	0.00028873	1454.7	4.549e-06	3.4945e-06	1437.6	368.76	1.4595e-05	6.8787e-06	421.63	138.44	123.06	40.775	3.1633e-06	50.923	0.010304	0.016908	0.004745	1537	0.00016645	0.00019101	1511.4	393.02	0.00016044	0.00019024	457.23	150.64	134.07	45.089	0.0001693	56.491	-13.841	220.836	-52.255	-91.884	8.870	-48.691	-92.153	-87.270	40.989	9.740	-87.799	-83.367	-82.999	-78.078	245.100	-79.123	-8191	255	
1415.422	1	1	0	0	0.24468	0.089048	0.17185	0.31532	0.13362	0.13245	0.29856	0.34458	0.17834	0.17027	0.12096	0.18807	0.023483	0.21901	0.20396	0.1664	-2.6042	-3.3708	-3.6417	-3.2667	-3.5896	-3.4167	-3.2104	-3.9667	-3.1292	-3.4729	-3.9229	-3.2687	-3.8167	-3.5333	-3.2917	-3.9875	-93.715	31.670	104.672	181.701	-23.098	29.427	211.943	219.046	65.559	215.965	81.182	183.511	-33.372	253.549	-86.267	234.698	0.0010162	0.00091614	0.00011667	1457.9	5.376e-06	5.1459e-06	1442	368.88	4.2278e-06	7.683e-06	422.39	138.47	122.99	40.824	1.7794e-06	50.862	0.01017	0.016582	0.0046005	1541.5	0.00016021	0.00018463	1515	393.26	0.00015565	0.00018622	457.15	150.76	134.1	45.233	0.00017281	56.593	19.642	-84.153	29.516	-91.825	116.494	31.370	-92.123	-87.295	148.971	51.450	-87.941	-83.449	-82.978	-78.332	4.116	-79.088	-8191	255	
1415.519	1	1	0	0	0.054868	0.070111	0.1442	0.17237	0.095104	0.026531	0.1093	0.15882	0.1327	0.10955	0.10278	0.34665	0.10441	0.065468	0.18681	0.20451	-2.9667	-3.1104	-3.7167	-3.175	-3.5438	-3.4125	-3.1667	-3.8958	-3.275	-3.2792	-4.0083	-3.1562	-3.5896	-3.6917	-3.0563	-3.8583	159.951	-11.154	214.031	238.386	-65.491	31.075	-59.948	157.383	221.534	215.022	169.144	176.798	-23.992	-88.403	249.045	53.163	0.00080063	0.00050798	0.00021304	1468.6	1.8706e-06	8.8128e-06	1440.6	371.37	7.0737e-06	3.933e-06	423.14	138.42	123.07	41.223	1.2844e-05	50.862	0.010288	0.017053	0.0047727	1549.8	0.00016823	0.0001932	1520.4	395.63	0.00016396	0.00019499	460.58	151.41	134.84	45.529	0.00017678	56.877	-3.189	-5.774	-71.800	-91.972	-52.941	57.072	-91.926	-87.120	96.123	44.727	-88.021	-83.582	-82.956	-78.375	-29.823	-79.087	-8191	255	
1415.639	1	1	0	0	0.12137	0.16453	0.070333	0.28384	0.37751	0.16926	0.23081	0.26583	0.026858	0.083346	0.30666	0.21303	0.14856	0.14465	0.23071	0.24078	-2.8187	-3.0604	-3.8187	-3.2125	-3.4104	-3.575	-3.175	-3.8792	-3.3729	-3.0146	-3.9958	-3.0687	-3.3542	-3.7958	-2.9938	-3.6708	51.438	40.001	-70.336	145.310	149.905	30.041	207.365	209.673	3.554	2.048	-16.203	173.679	-69.978	-82.978	153.255	200.267	0.00086347	0.0010096	0.00021751	1471.8	1.2118e-05	4.1762e-06	1439.4	371.7	7.1368e-06	3.5858e-06	425.19	139.65	123.31	41.3	4.7009e-06	51.042	0.010573	0.017306	0.0048203	1552.6	0.00016799	0.00019344	1521.2	396.2	0.00016341	0.00019513	461.83	152.01	135.2	45.661	0.00017946	57.011	4.830	-79.487	-17.323	-92.130	-0.931	-6.632	-92.183	-87.286	-56.959	64.740	-88.075	-83.502	-83.064	-78.474	180.944	-79.009	-8191	255	
1415.735	1	1	0	0	0.070919	0.05482	0.085451	0.11172	0.12345	0.11895	0.18548	0.041781	0.24221	0.16659	0.074418	0.34212	0.075253	0.24563	0.25089	0.19239	-3.1021	-2.9646	-3.7333	-3.2042	-3.3333	-3.5854	-3.2125	-3.7542	-3.5604	-3.1312	-3.9458	-3.2313	-3.2646	-3.8375	-2.8917	-3.7146	146.944	233.789	214.507	138.085	100.822	-46.439	214.200	103.778	137.289	43.620	-3.603	162.862	194.493	225.481	253.603	168.311	0.00062163	0.00088522	0.00018503	1469.9	7.6562e-06	5.5957e-06	1447.7	373.66	1.7191e-05	6.6784e-06	425.89	139.26	123.46	41.26	7.414e-06	51.326	0.010696	0.017577	0.0048978	1552.8	0.00017213	0.00019523	1525.6	396.75	0.00016473	0.00019616	461.4	151.87	135.07	45.649	0.00017918	57.053	47.346	52.488	6.445	-92.093	39.499	-8.667	-92.114	-87.162	59.723	125.973	-88.053	-83.564	-82.952	-78.459	84.411	-79.160	-8191	255	
1415.830	1	1	0	0	0.19582	0.087215	0.18438	0.25009	0.16301	0.2646	0.26998	0.164	0.17727	0.22147	0.15934	0.21521	0.21715	0.24071	0.17554	0.17173	-3.1354	-3.0604	-3.7062	-3.6	-3.1083	-3.6729	-3.2354	-3.5938	-3.5292	-2.975	-3.9271	-3.2729	-3.2125	-3.7687	-3.0125	-3.5625	-28.472	127.024	-6.890	122.314	95.011	146.660	224.153	231.071	20.843	115.764	35.919	151.037	231.254	188.021	99.614	-45.392	0.00080008	0.00048753	0.00023802	1470.6	1.3742e-05	8.7341e-06	1441	371.86	1.1035e-05	3.7999e-06	424.57	138.85	124.06	41.271	3.6503e-06	51.393	0.010721	0.017508	0.0048972	1554.2	0.00017202	0.00019685	1523.5	396.3	0.00016557	0.00019851	462.41	152.06	135.42	45.669	0.00018096	57.175	4.237	-28.775	-38.183	-91.947	38.422	101.871	-92.067	-87.236	54.350	51.107	-87.814	-83.668	-82.888	-78.345	61.439	-79.039	-8191	255	
1415.928	1	1	0	0	0.1761	0.24334	0.031912	0.18682	0.18816	0.061081	0.1752	0.057689	0.25675	0.05323	0.10715	0.10184	0.07634	0.29055	0.29434	0.035248	-3.2792	-3.0396	-3.7792	-3.5812	-3.0229	-3.7667	-3.4125	-3.4042	-3.5875	-3.025	-3.8083	-3.4	-3.1396	-3.8542	-3.0729	-3.2667	-73.251	64.370	240.781	72.382	233.439	139.932	143.270	158.081	171.298	181.301	159.386	117.964	200.912	-9.963	189.125	76.515	0.00060713	0.0013374	0.00026107	1466.2	9.9806e-06	1.3917e-05	1443.2	371.61	3.4971e-06	8.8295e-06	425.95	139.87	124.36	41.235	1.1689e-05	51.21	0.010767	0.017841	0.0050065	1556.3	0.00017226	0.00019715	1524.4	397.09	0.00016652	0.00020164	462.55	152.51	135.74	45.721	0.00018219	57.258	12.883	-38.560	45.364	-91.754	65.057	36.321	-91.779	-87.094	254.846	75.180	-87.671	-83.416	-82.875	-78.473	87.853	-78.964	-8191	255	
1416.022	1	1	0	0	0.24885	0.083363	0.078675	0.12952	0.16017	0.24774	0.18898	0.28729	0.2047	0.089317	0.35985	0.18719	0.13311	0.32973	0.16476	0.14573	-3.1021	-2.8958	-3.7	-3.7333	-3.0896	-3.6083	-3.4208	-3.3479	-3.6646	-3.1875	-3.7458	-3.6188	-3.0333	-3.8833	-3.3854	-3.3521	10.526	130.253	-87.140	151.644	28.862	242.880	190.661	125.055	115.159	4.305	193.163	240.880	245.099	222.238	63.739	-48.690	0.00065783	0.001267	0.0002538	1474.6	8.5138e-06	5.3794e-06	1450.6	374.17	1.177e-05	1.0357e-05	424.85	139.72	123.53	41.277	9.3082e-06	51.04	0.010926	0.017859	0.0050213	1560.8	0.00017353	0.00019965	1528	398.02	0.00016968	0.00020036	462.66	152.5	135.64	45.763	0.00018217	57.115	-5.249	19.830	12.965	-91.798	125.690	-43.748	-91.865	-87.250	-45.675	45.423	-87.972	-83.677	-82.723	-78.366	52.140	-79.100	-8191	255	
1416.118	1	1	0	0	0.07273	0.12853	0.025447	0.34288	0.24616	0.2541	0.19396	0.042448	0.1099	0.22261	0.15845	0.23665	0.089082	0.11469	0.092642	0.13087	-3.3771	-2.9854	-3.5708	-3.6167	-2.9271	-3.6146	-3.4542	-3.1771	-3.6521	-2.9729	-3.4729	-3.675	-3.1625	-3.65	-3.2896	-3.1917	253.358	-31.647	-105.163	181.859	75.150	159.244	211.094	201.614	135.348	42.165	137.821	128.465	-36.815	188.987	-48.648	56.518	0.00054405	0.00078837	0.00015773	1470.6	1.3317e-05	5.8445e-06	1443.1	372.2	3.8966e-06	8.1092e-06	419.65	138.26	122.63	40.74	6.095e-06	50.826	0.010781	0.017899	0.0049717	1557.6	0.00017353	0.00020005	1526.7	397.61	0.00016715	0.00020011	461.31	152.22	135.43	45.603	0.00018264	57.185	25.972	-95.893	200.204	-92.017	80.035	19.545	-92.192	-87.334	241.490	86.243	-88.079	-84.049	-83.282	-78.642	9.813	-79.446	-8191	255	
1416.239	1	1	0	0	0.11033	0.30664	0.065368	0.2538	0.15655	0.054113	0.39346	0.15397	0.16295	0.092276	0.15762	0.14952	0.089641	0.16755	0.3512	0.25049	-3.3833	-3.0958	-3.2938	-3.9333	-2.9458	-3.5667	-3.4188	-3.2229	-3.8063	-3.2125	-3.3896	-3.7333	-2.9375	-3.75	-3.4583	-3.1521	95.738	-44.147	-79.980	-85.962	186.361	-9.138	221.020	196.618	237.564	154.148	-43.100	-102.630	193.322	170.813	116.200	215.156	0.00094785	0.0012404	2.0646e-05	1469.4	1.3125e-05	3.5048e-06	1441.6	370.7	8.9817e-06	3.2714e-06	421.37	138.76	122.68	41.321	7.1007e-06	51.304	0.010864	0.017821	0.0050281	1558.7	0.00017469	0.00020156	1528.8	397.44	0.00016926	0.00020112	462.16	152.67	135.49	45.904	0.00018289	57.182	12.250	-50.702	48.102	-92.223	51.364	-57.660	-92.318	-87.615	1.159	11.369	-87.988	-83.792	-83.334	-78.689	56.257	-79.102	-8191	255	
1416.335	1	1	0	0	0.069018	0.080945	0.084254	0.14759	0.081345	0.03509	0.12015	0.16272	0.22667	0.20271	0.46858	0.18767	0.16878	0.41703	0.23197	0.21604	-3.3812	-3.0708	-3.1312	-3.9958	-3.0583	-3.55	-3.925	-3.1437	-3.5187	-3.3583	-3.1958	-3.7	-3.2188	-3.4604	-3.5458	-3.2146	232.310	-99.753	243.593	175.261	38.328	13.276	165.755	-101.286	19.021	248.370	187.403	245.323	179.487	254.543	231.521	200.805	0.00080452	0.0011112	4.2447e-05	1472	4.9361e-06	1.218e-05	1454.7	373.89	7.2121e-06	4.856e-06	424.19	139.3	123.57	41.333	5.508e-06	51.19	0.010928	0.017893	0.0049861	1558.8	0.00017405	0.00019983	1530.6	397.95	0.00016797	0.00019931	462.86	152.47	135.41	45.792	0.00018129	57.138	-11.513	34.947	37.646	-92.095	60.878	17.111	-92.321	-87.334	-9.952	-32.161	-88.031	-83.602	-83.244	-78.724	-36.653	-79.237	-8191	255	
1416.431	1	1	0	0	0.16247	0.13639	0.064014	0.16957	0.089561	0.14108	0.15304	0.083113	0.22975	0.17551	0.33897	0.030394	0.20908	0.25499	0.13028	0.20683	-3.1875	-3.2875	-3.1312	-3.8063	-3.0354	-3.2729	-3.8458	-3.2354	-3.7958	-3.3667	-3.0625	-3.7333	-3.0646	-3.4146	-3.8229	-2.9521	48.967	-12.727	-102.776	-102.814	-86.460	97.080	175.828	241.098	99.824	84.709	226.832	222.267	194.566	238.149	253.049	183.451	0.00083829	0.00078263	0.0001976	1476.6	7.7455e-06	1.1204e-05	1449.7	372.8	1.563e-05	6.3408e-06	426.45	139.93	124.5	41.371	1.0392e-05	51.271	0.010886	0.017695	0.0050116	1560.2	0.00017386	0.00019809	1528.6	397.34	0.00016722	0.00019718	463.19	152.5	135.7	45.809	0.00017886	57.045	-5.457	-73.839	-45.424	-91.911	80.406	61.320	-92.175	-87.291	41.793	204.415	-87.758	-83.636	-83.047	-78.353	174.776	-79.087	-8191	255	
1416.527	1	1	0	0	0.11125	0.14586	0.041806	0.35746	0.08242	0.10654	0.26725	0.28095	0.091358	0.10582	0.10071	0.19483	0.30179	0.328	0.32973	0.085822	-3.2083	-3.4583	-2.9604	-3.8	-3.0771	-3.2667	-3.8646	-3.1458	-3.5833	-3.4042	-3.0062	-3.8812	-3.0417	-3.2208	-3.7938	-3.1063	-90.175	-60.636	209.217	238.095	163.817	240.504	176.430	-88.115	129.864	-31.801	-3.004	67.183	232.554	247.828	-9.090	211.503	0.00047263	0.0012941	0.00026271	1479.6	6.5176e-07	1.083e-05	1454	371.93	2.1196e-05	6.5344e-06	426.63	140.14	123.81	41.415	6.6726e-06	51.287	0.010674	0.017498	0.0049367	1560.2	0.00017194	0.00019736	1530.4	397.13	0.0001673	0.00019895	462.81	152.7	135.71	45.785	0.00018152	57.07	1.645	-19.943	-6.704	-91.769	161.123	34.339	-92.184	-87.415	83.236	11.251	-87.825	-83.501	-83.354	-78.425	9.614	-79.321	-8191	255	
1416.648	1	1	0	0	0.18625	0.10314	0.006153	0.22686	0.34411	0.22341	0.12199	0.25385	0.14254	0.19827	0.37397	0.2686	0.09114	0.069392	0.36422	0.15951	-3.1396	-3.3375	-3.1646	-3.9271	-3.2521	-3.1146	-3.9979	-3.1146	-3.575	-3.5146	-3.0042	-3.7833	-3.4771	-3.2083	-3.6792	-3.0625	135.159	89.037	-7.209	222.464	-19.786	220.749	229.959	222.639	-86.817	244.103	214.452	-103.049	-58.737	-70.781	237.885	146.248	0.00072147	0.00065449	0.00015817	1473.6	1.0653e-05	3.2663e-06	1451.3	372.17	1.2743e-05	1.072e-05	422.61	139.27	122.65	41.144	5.3669e-06	50.908	0.010837	0.017631	0.0049584	1559.7	0.00017217	0.00019766	1527.9	397.18	0.00016618	0.00019842	461.21	152.36	135.22	45.711	0.0001799	57.073	2.636	-68.056	-56.151	-91.867	83.764	9.068	-91.940	-87.612	49.784	60.862	-88.052	-83.679	-83.183	-78.538	21.329	-79.363	-8191	255	
1416.720	1	1	0	0	0.14783	0.052579	0.066579	0.22378	0.26355	0.20942	0.39924	0.33855	0.088716	0.24253	0.25897	0.1736	0.11111	0.042322	0.13537	0.044972	-2.975	-3.4688	-2.9833	-3.7771	-3.2979	-3.1458	-3.8771	-3.3417	-3.4229	-3.7083	-3.1625	-3.7146	-3.5604	-3.2021	-3.8979	-3.3167	-85.339	49.888	30.242	169.815	-85.922	60.216	184.501	198.614	-92.189	138.684	193.007	192.845	245.234	73.203	-54.142	45.609	0.00066199	0.00084996	8.3712e-05	1471.7	6.4241e-06	9.9823e-06	1441.3	370.64	1.263e-05	8.8688e-06	427.59	139.1	123.85	41.174	3.2009e-06	50.956	0.010811	0.017744	0.0049565	1558.9	0.00017178	0.00019858	1527.2	396.78	0.00016822	0.00019931	463.08	152.83	135.8	45.899	0.00018301	57.184	12.217	-21.533	-6.811	-91.817	30.770	1.319	-92.219	-87.368	-8.597	58.905	-87.978	-83.726	-83.193	-78.500	65.774	-79.181	-8191	255	
1416.816	1	1	0	0	0.092057	0.091675	0.13118	0.23166	0.13733	0.18326	0.25135	0.17387	0.033524	0.19782	0.14347	0.071127	0.07096	0.18464	0.31577	0.19497	-2.7583	-3.7083	-2.8396	-3.7229	-3.3271	-3.0687	-3.9813	-3.2542	-2.9167	-3.6958	-3.0167	-3.5438	-3.7083	-3.0833	-3.7417	-3.3042	177.745	140.575	230.613	-61.356	-35.979	-105.459	250.591	254.063	-77.786	-11.760	241.127	-98.821	66.965	41.538	-58.957	93.906	0.00094177	0.00036732	0.00024159	1471.6	1.445e-05	7.7747e-06	1443.8	371.44	1.0666e-05	9.2622e-06	424.35	139.48	123.32	41.259	6.3014e-06	51.403	0.010994	0.017949	0.00502	1560.8	0.00017342	0.00020064	1529	397.12	0.00016839	0.00020109	462.3	152.75	135.71	45.853	0.00018176	57.285	14.868	-74.305	-16.342	-91.880	73.715	-23.682	-92.094	-87.555	239.838	10.941	-87.924	-83.360	-83.292	-78.253	31.256	-78.956	-8191	255	
1416.910	1	1	0	0	0.067034	0.13858	0.14519	0.083428	0.15947	0.11552	0.077939	0.082459	0.32929	0.089264	0.12787	0.15925	0.27421	0.30746	0.052587	0.064039	-2.8146	-3.7771	-3.0312	-3.5917	-3.6104	-3.0812	-3.9417	-3.3688	-3.1542	-3.7104	-3.2229	-3.4333	-3.6875	-3.1125	-3.6708	-3.5083	195.896	62.697	120.804	-83.278	-5.031	230.336	77.247	-51.215	79.882	-94.246	242.504	234.353	240.761	244.537	236.113	37.620	0.00049854	0.0010656	0.00011906	1484.5	5.2693e-06	1.136e-05	1459.6	374.01	6.4291e-06	7.2332e-06	428.26	141.12	124.52	41.426	3.3591e-06	51.592	0.011005	0.01775	0.0049998	1563.5	0.00017367	0.000199	1532.4	398.07	0.00016791	0.00019967	464.09	153.09	135.91	45.842	0.00018148	57.235	2.169	-18.504	19.671	-91.811	108.090	33.004	-92.111	-87.464	-99.664	38.481	-87.723	-83.318	-83.251	-78.527	45.190	-79.296	-8191	255	
1417.031	1	1	0	0	0.051952	0.042309	0.03759	0.27402	0.19707	0.1504	0.36994	0.25038	0.37251	0.064678	0.080042	0.17804	0.091519	0.16721	0.30578	0.11471	-2.7542	-3.775	-3.1979	-3.4833	-3.4917	-3.1188	-3.6875	-3.6917	-3.0646	-3.8125	-3.2417	-3.3542	-3.7854	-3.1396	-3.6854	-3.5354	152.250	-14.366	0.289	180.338	-16.682	247.857	181.734	159.379	126.276	106.978	247.656	-93.347	220.519	171.967	116.616	-35.597	0.0007674	0.00079602	0.00016573	1485.6	9.2253e-06	1.1184e-05	1451.9	371.79	1.6158e-05	8.4288e-06	423.07	140.06	123.73	41.341	1.4441e-05	51.248	0.010815	0.017743	0.0049793	1560.6	0.0001727	0.00019893	1531.8	397.53	0.00016701	0.00019875	461.98	152.48	135.54	45.758	0.00018169	57.188	10.372	50.706	-65.659	-91.753	31.697	97.279	-92.090	-87.483	83.013	-2.607	-88.115	-83.382	-83.082	-78.552	35.973	-79.207	-8191	255	
1417.127	1	1	0	0	0.26314	0.099778	0.038648	0.22486	0.11031	0.079266	0.18131	0.21663	0.089045	0.1233	0.29174	0.35648	0.099681	0.1668	0.31483	0.15162	-2.575	-3.6813	-3.1979	-3.3958	-3.6688	-3.1104	-3.5979	-3.7958	-3.0729	-3.7125	-3.3292	-3.2021	-3.9792	-3.1208	-3.3417	-3.7396	190.129	-72.764	123.460	145.392	-64.323	-1.089	196.447	215.967	139.611	-27.075	195.328	-102.257	-101.253	152.502	191.085	160.846	0.00081648	0.0006453	0.00018715	1473.5	7.7587e-06	1.2094e-05	1451.2	372.61	8.5371e-06	6.1518e-06	425.44	140.12	122.96	41.342	1.9178e-06	51.415	0.010873	0.017789	0.0049911	1560.2	0.00017286	0.00019988	1530.8	397.65	0.00016812	0.00019905	462.28	152.57	135.42	45.658	0.00018153	57.218	6.469	-69.194	-27.134	-91.951	13.771	15.188	-92.030	-87.551	56.803	138.555	-87.983	-83.481	-83.280	-78.702	70.382	-79.317	-8191	255	
1417.223	1	1	0	0	0.053086	0.15011	0.044159	0.12702	0.14274	0.23114	0.26798	0.2218	0.16518	0.18247	0.20279	0.24065	0.086786	0.01941	0.058248	0.12863	-2.7083	-3.6354	-3.425	-3.3167	-3.7438	-2.9917	-3.7687	-3.9083	-3.0333	-3.6958	-3.3771	-3.1688	-3.8354	-3.1729	-3.2604	-3.7771	10.277	-82.140	-20.033	122.343	15.872	183.985	160.597	203.167	-65.098	145.626	182.656	4.729	213.943	87.283	39.427	147.096	0.0005819	0.00030671	0.00013913	1475.7	7.7698e-06	1.9855e-06	1453.3	370.91	1.468e-05	6.8451e-06	425.83	140.06	123.98	41.296	1.2343e-05	51.127	0.01076	0.017668	0.0049304	1559.2	0.00017091	0.00019786	1531	396.48	0.0001676	0.00019934	462.9	152.64	135.66	45.784	0.00018177	57.079	-2.182	-87.411	-68.507	-91.844	13.343	215.965	-91.974	-87.388	70.236	52.311	-87.880	-83.727	-82.867	-78.339	40.871	-78.978	-8191	255	
1417.319	1	1	0	0	0.079017	0.20266	0.097635	0.19357	0.16217	0.25349	0.28031	0.14882	0.11907	0.17429	0.22783	0.13747	0.034714	0.18383	0.16284	0.10355	-2.5646	-3.6063	-3.4354	-3.3104	-3.6479	-3.1	-3.4542	-3.7792	-3.0021	-3.4688	-3.4854	-3.1708	-3.6146	-3.3146	-3.3417	-3.9958	179.347	63.827	-27.821	249.627	236.754	57.086	226.287	193.088	-46.673	168.467	165.516	-43.408	-103.325	110.939	248.439	129.712	0.0003377	0.00053774	9.9864e-05	1475.7	3.2927e-06	6.0997e-06	1445	372.48	9.1365e-06	3.3463e-06	424.38	140.33	124.2	41.195	3.2764e-06	51.422	0.010847	0.017619	0.004972	1559.3	0.00017196	0.00019803	1526.8	396.95	0.00016657	0.00019755	462	152.76	135.71	45.71	0.00017947	57.154	2.022	-63.112	76.864	-91.758	-10.421	43.663	-92.074	-87.214	40.704	103.573	-88.106	-83.674	-82.819	-78.352	216.434	-79.035	-8191	255	
1417.415	1	1	0	0	0.28159	0.19418	0.07843	0.21331	0.19363	0.083799	0.29775	0.23855	0.066779	0.1619	0.137	0.35651	0.13823	0.20704	0.031995	0.2568	-2.4896	-3.4437	-3.425	-3.1375	-3.8021	-3.3271	-3.3792	-3.9333	-2.9917	-3.3271	-3.8229	-3.2958	-4.0271	-3.4208	-3.1875	-4.0771	180.796	53.764	39.818	168.894	164.920	246.936	190.673	219.322	154.251	135.583	-98.384	187.210	9.695	-49.312	94.505	-75.110	0.00055519	0.00068827	2.6958e-05	1474.8	6.891e-06	8.2154e-06	1454.3	372.23	9.6674e-06	7.8284e-06	424.43	139.86	123.73	40.988	7.868e-06	51.43	0.01075	0.017656	0.0049631	1558.4	0.0001717	0.00019748	1528.6	396.8	0.00016668	0.0001987	462.12	152.37	135.58	45.639	0.00018163	57.209	12.008	50.417	217.235	-91.589	66.761	52.392	-91.982	-87.335	19.659	114.438	-87.655	-83.471	-83.346	-78.437	142.485	-79.013	-8191	255	
1417.511	1	1	0	0	0.083541	0.11449	0.135	0.14656	0.18995	0.18582	0.12446	0.20013	0.099611	0.21218	0.066737	0.20569	0.14056	0.18909	0.1776	0.17229	-2.7938	-3.45	-3.6188	-3.0958	-3.7208	-3.375	-3.2104	-3.8	-3.2021	-3.1813	-3.7708	-3.0875	-3.6417	-3.45	-2.9542	-3.7917	-6.078	33.982	52.392	-48.598	166.736	67.832	248.496	177.392	-56.536	-76.951	94.139	196.102	187.398	-18.967	-96.057	-34.890	0.00075973	0.00038774	0.00026341	1480.3	5.8351e-06	5.1994e-06	1450.1	373.44	1.6044e-05	6.4593e-06	424.5	140.32	123.62	41.344	4.1577e-06	51.481	0.010753	0.017804	0.0049814	1559.8	0.00017341	0.00019928	1527.9	397.5	0.00016906	0.00020047	462.2	152.43	135.63	45.725	0.00018313	57.142	2.402	-1.565	-6.662	-92.021	-7.432	103.462	-92.080	-87.503	55.338	-3.744	-87.777	-83.508	-83.057	-78.414	85.058	-79.135	-8191	255	
1417.608	1	1	0	0	0.081452	0.090094	0.069817	0.15976	0.15143	0.13898	0.25017	0.3082	0.050038	0.057215	0.30923	0.0711	0.24833	0.034375	0.075084	0.11255	-2.7542	-3.3646	-3.6458	-3.3937	-3.6562	-3.4125	-3.3438	-3.8708	-3.1083	-3.1854	-3.6833	-2.9437	-3.5979	-3.5375	-2.9292	-3.8208	239.012	60.482	-91.456	188.344	132.369	92.987	181.149	-97.340	169.536	-29.349	210.360	-37.013	210.789	-85.039	18.332	-84.916	0.00058421	0.0013232	0.00024218	1472.9	1.5805e-05	3.5856e-06	1448.1	374.25	1.0206e-05	1.0008e-05	427.73	140.55	124	41.492	3.8962e-06	51.383	0.010798	0.017747	0.0049206	1557.2	0.00017126	0.00019822	1526.9	397.85	0.00016794	0.00020037	462.7	152.65	135.72	45.832	0.00018209	57.196	-38.115	25.995	11.417	-92.019	25.798	54.907	-92.008	-87.250	40.566	-20.162	-87.749	-83.482	-82.976	-78.384	-18.813	-79.073	-8191	255	
1417.728	1	1	0	0	0.16608	0.033616	0.13723	0.24002	0.28242	0.038876	0.058009	0.27427	0.13043	0.15281	0.23371	0.14304	0.13453	0.14685	0.33936	0.12564	-2.7333	-3.1	-3.6667	-3.0979	-3.4333	-3.5083	-3.1292	-3.9021	-3.3583	-2.9313	-3.9979	-3.1792	-3.4792	-3.7021	-3.0833	-3.6937	-94.578	-75.233	-32.059	233.644	-83.522	-10.421	90.216	199.162	128.752	199.963	155.841	204.083	234.229	170.166	131.805	218.708	0.00051693	0.00063182	0.0001336	1483.6	8.2693e-06	5.3437e-06	1454	373.09	1.2777e-05	1.1102e-05	427.54	140.7	123.84	41.548	3.5588e-06	51.388	0.010877	0.017605	0.0049517	1560.6	0.00017332	0.00019853	1529	397.64	0.00016745	0.0001999	462.82	152.63	135.6	45.837	0.00018308	57.29	23.705	9.321	25.020	-92.054	52.019	50.460	-92.044	-87.104	96.608	21.348	-87.893	-83.816	-83.065	-78.486	-44.698	-79.033	-8191	255	
1417.823	1	1	0	0	0.12114	0.29231	0.21766	0.26547	0.12493	0.13709	0.25088	0.25978	0.16235	0.18185	0.16343	0.2814	0.16289	0.18115	0.039458	0.11546	-3.0083	-2.9771	-3.7208	-3.3354	-3.4375	-3.5958	-3.2292	-3.7687	-3.3563	-3.15	-3.7104	-3.1875	-3.4083	-3.8979	-3.0771	-3.6083	221.137	-90.981	-73.986	240.374	105.137	85.749	-80.639	-46.702	-10.849	112.431	199.071	210.806	-84.819	237.197	-55.475	250.247	0.00052478	0.00045107	0.00013735	1471.5	3.9933e-06	6.6133e-06	1451.4	373.31	1.1181e-05	6.7518e-06	424.88	139.73	123.74	41.56	7.967e-06	51.257	0.01083	0.017841	0.0049869	1558.2	0.00017397	0.0001991	1529.6	397.71	0.00016803	0.00019972	461.86	152.4	135.61	45.818	0.00017986	57.146	16.391	36.161	-57.657	-91.719	110.977	61.389	-92.005	-87.321	99.688	64.957	-87.666	-83.561	-83.276	-78.382	14.271	-78.847	-8191	255	
1417.921	1	1	0	0	0.14682	0.10587	0.14519	0.15485	0.28189	0.21859	0.26083	0.20722	0.28142	0.18621	0.048424	0.19538	0.17493	0.10288	0.18306	0.087311	-3.1604	-3.0312	-3.7875	-3.3688	-3.1417	-3.9396	-3.2271	-3.6688	-3.6521	-3.0146	-3.8896	-3.2396	-3.2062	-3.7604	-3.2667	-3.5312	-45.200	42.743	188.917	247.240	102.574	-67.934	184.926	-58.529	129.352	189.541	36.803	185.254	-40.862	230.710	18.400	146.727	0.00088477	0.00057097	0.00039172	1475	1.3465e-05	6.3804e-06	1444.2	372.25	4.2455e-06	1.4253e-05	425.97	140.33	123.52	41.598	1.3097e-06	51.233	0.010734	0.017546	0.0049249	1559.2	0.00017158	0.00019597	1527.6	397.35	0.00016654	0.00019851	462.39	152.62	135.65	45.805	0.00018068	57.188	0.361	-5.931	-73.502	-91.944	-20.525	45.890	-91.792	-87.406	-39.438	9.546	-87.932	-83.581	-83.053	-78.290	0.253	-79.105	-8191	255	
1418.015	1	1	0	0	0.14938	0.29037	0.037772	0.19869	0.056959	0.034853	0.30401	0.30452	0.17554	0.21094	0.29358	0.12026	0.31146	0.071326	0.24198	0.19281	-3.1146	-2.925	-3.6833	-3.4625	-3.2083	-3.7792	-3.2833	-3.5042	-3.5396	-3.0563	-3.825	-3.4813	-3.1146	-3.8792	-3.1083	-3.4396	-40.284	248.859	118.072	-87.705	58.113	-39.670	188.306	230.165	-1.386	110.187	184.926	-90.177	181.244	30.084	78.438	148.582	0.00049848	0.00072358	0.00018179	1475.5	1.2842e-05	2.709e-06	1453.8	372.88	5.8961e-06	1.1332e-05	425.05	139.76	124.18	41.451	2.7849e-06	51.631	0.010809	0.017611	0.0049178	1557.7	0.00017183	0.00019604	1527.9	397.16	0.0001668	0.00019718	461.98	152.15	135.71	45.771	0.00017903	57.222	12.398	-82.379	-12.918	-91.950	89.160	68.244	-92.004	-87.133	188.788	134.930	-87.863	-83.364	-83.128	-78.417	143.701	-79.129	-8191	255	
1418.111	1	1	0	0	0.12317	0.14368	0.070364	0.36468	0.21388	0.20308	0.1137	0.13312	0.090444	0.073813	0.17456	0.22962	0.031252	0.14116	0.1181	0.23402	-3.3146	-2.8979	-3.6229	-3.5604	-3.0917	-3.7667	-3.5229	-3.2792	-3.7917	-3.025	-3.5417	-3.5042	-3.3521	-3.7667	-3.1937	-3.3083	121.226	-0.875	-27.228	198.489	-67.141	226.202	178.482	193.421	9.181	193.026	37.915	-83.356	45.917	-102.633	181.721	6.625	0.00050342	0.00051769	0.00030057	1468.5	6.6923e-06	1.2598e-06	1449.2	373.53	8.8876e-06	5.3712e-06	425.35	140.38	123.71	41.244	6.5479e-06	51.306	0.010653	0.017413	0.0048782	1555.3	0.00016962	0.00019541	1526.7	397.04	0.00016332	0.00019507	462.3	152.37	135.3	45.707	0.00017796	57.057	6.466	-42.358	7.719	-91.867	-33.068	37.435	-92.153	-87.298	53.832	15.520	-87.957	-83.183	-82.993	-78.255	41.980	-78.852	-8191	255	
1418.207	1	1	0	0	0.07548	0.25667	0.034439	0.094814	0.053164	0.092988	0.14354	0.201	0.06289	0.29252	0.20723	0.12062	0.16598	0.2469	0.073787	0.12521	-3.4	-3.0438	-3.3708	-3.6937	-3	-3.5792	-3.5187	-3.2833	-3.7396	-2.8667	-3.5896	-3.7667	-2.8812	-3.8354	-3.25	-3.1896	-73.121	-60.536	-49.469	239.059	109.688	128.560	250.516	152.577	190.879	91.700	222.591	83.524	189.776	245.372	162.737	176.973	0.00041824	0.00097138	0.00019138	1480	6.5788e-06	1.4119e-05	1449.2	373.16	8.3674e-06	9.0148e-06	425.48	140.02	123.81	41.317	8.5254e-06	51.318	0.010535	0.017296	0.0048392	1557.9	0.0001693	0.00019486	1526.1	397.24	0.000163	0.00019465	461.45	152.01	135.22	45.651	0.00017586	57.141	10.458	-25.967	7.433	-91.786	161.696	45.562	-91.825	-87.206	65.265	10.295	-87.784	-83.516	-82.777	-78.113	225.854	-79.183	-8191	255	
1418.328	1	1	0	0	0.079242	0.12659	0.18636	0.34691	0.26058	0.20215	0.36597	0.34557	0.33631	0.13634	0.068073	0.15438	0.096483	0.23947	0.16995	0.19628	-3.4229	-2.9562	-3.3146	-3.7229	-3.0479	-3.7333	-3.5958	-3.0521	-3.8604	-3.0792	-3.4896	-3.8583	-3.0292	-3.6229	-3.4354	-3.0896	130.825	57.216	30.552	249.878	54.916	216.110	217.173	205.337	-77.445	166.912	194.353	-104.647	140.981	230.637	124.985	215.270	0.00068252	0.00067867	0.00010501	1475.8	7.5976e-06	2.1016e-06	1454	372.83	1.114e-05	1.4365e-05	427.36	140.24	124.48	41.616	1.1987e-05	51.229	0.010529	0.017191	0.0048636	1556.8	0.00016813	0.0001932	1528.3	396.8	0.00016241	0.00019293	461.83	152.26	135.42	45.763	0.00017735	56.966	4.236	-65.639	-58.272	-91.978	63.179	164.327	-92.119	-87.281	9.871	-13.431	-87.394	-83.424	-82.825	-78.339	113.413	-78.726	-8191	255	
1418.424	1	1	0	0	0.19876	0.058542	0.25503	0.17119	0.1134	0.10539	0.31001	0.209	0.14764	0.058532	0.075255	0.23295	0.25954	0.28051	0.15036	0.19392	-3.3667	-3.2458	-3.3438	-3.9646	-2.8125	-3.5708	-3.6208	-3.2104	-3.6729	-3.0792	-3.4354	-3.9062	-3.0417	-3.5729	-3.5354	-2.9229	186.002	224.071	154.315	176.219	100.109	-21.689	216.356	190.131	215.366	163.954	177.845	223.004	123.720	210.521	244.392	135.405	0.0006874	0.00046698	0.00021631	1476.8	5.6845e-06	1.0154e-05	1454	375.37	8.1372e-06	2.6636e-06	426.07	140.69	124.4	41.588	3.3369e-06	51.671	0.010503	0.017252	0.0048545	1556.4	0.00016829	0.00019245	1526.1	397.27	0.00016092	0.00019352	461.44	152.24	135.15	45.639	0.00017494	57.045	11.085	-58.701	-26.961	-91.713	193.106	33.990	-91.865	-86.990	200.161	-15.551	-87.465	-83.496	-82.920	-78.276	15.274	-78.934	-8191	255	
1418.520	1	1	0	0	0.25534	0.13167	0.2976	0.15773	0.091878	0.095026	0.29308	0.27612	0.032725	0.069734	0.21715	0.12881	0.13802	0.053769	0.15032	0.16879	-3.3042	-3.1125	-3.1208	-3.9521	-2.9625	-3.5125	-3.6958	-3.0708	-3.7333	-3.3771	-3.2375	-3.7687	-3.1208	-3.5333	-3.6479	-3.0875	78.805	-13.924	-69.809	184.026	186.002	12.896	219.138	222.891	247.627	88.439	183.334	127.774	4.651	207.290	84.396	132.862	0.00070637	0.0006778	0.00036815	1483	8.7884e-06	8.7102e-06	1455.6	372.9	1.3906e-05	6.7469e-06	426.35	140.77	124.1	41.608	5.9369e-06	51.881	0.010349	0.017104	0.0047733	1557.6	0.00016685	0.00019207	1529	396.23	0.00016278	0.00019345	462.04	152.19	135.33	45.635	0.00017453	57.118	-6.758	8.517	53.137	-91.679	7.759	51.798	-91.794	-87.128	29.224	82.481	-87.550	-83.278	-82.881	-78.301	27.869	-78.761	-8191	255	
1418.592	1	1	0	0	0.01532	0.17353	0.33771	0.23723	0.19066	0.15936	0.16165	0.20693	0.060932	0.18927	0.30141	0.16177	0.02534	0.089762	0.090827	0.1339	-3.2646	-3.4437	-2.9396	-3.9354	-3.1542	-3.3396	-3.95	-3.1771	-3.5083	-3.375	-3.2479	-3.85	-3.2021	-3.4688	-3.7771	-3.2542	39.621	-63.202	224.257	-80.415	-72.976	168.208	203.387	229.788	243.292	-59.396	-58.153	149.171	210.078	76.986	-29.420	-72.463	0.00046496	0.0011669	0.00027134	1478.6	1.1527e-05	8.5656e-06	1453.8	374	6.1017e-06	7.1331e-07	428.65	140.91	124.32	41.504	6.9903e-06	51.624	0.010445	0.017096	0.0047912	1557.7	0.00016555	0.0001902	1527.2	396.21	0.00016056	0.00019076	461.36	152.13	135.09	45.592	0.00017165	56.937	51.942	-1.208	-36.239	-91.694	162.458	6.957	-91.952	-86.975	2.629	128.478	-87.755	-83.263	-82.777	-78.184	-76.378	-79.078	-8191	255	
1418.688	1	1	0	0	0.19617	0.10809	0.073385	0.25884	0.18104	0.019713	0.092812	0.28905	0.2037	0.1486	0.12755	0.14803	0.24327	0.25067	0.16097	0.2313	-3.25	-3.4	-3.1063	-3.8771	-3.2021	-3.1417	-3.9396	-3.2687	-3.5417	-3.6875	-3.0917	-3.9125	-3.2146	-3.1729	-3.6708	-3.2354	200.030	236.523	42.395	196.577	88.678	154.623	-92.606	183.464	176.865	-50.673	228.645	129.003	-54.423	232.914	234.817	-76.063	0.00072446	0.0010819	0.00025838	1481.9	7.1852e-06	8.1912e-06	1459.5	372.49	2.6332e-06	9.091e-06	428.32	140.02	124.08	41.441	8.6919e-06	51.468	0.010252	0.016728	0.0047119	1554.1	0.00016337	0.00018656	1526	395.54	0.00015724	0.00018618	460.8	152.01	134.98	45.592	0.00017114	56.867	1.752	-41.694	-10.183	-91.601	55.137	-14.620	-91.921	-87.128	185.062	77.432	-87.837	-83.365	-82.837	-78.136	89.871	-78.956	-8191	255	
1418.807	1	1	0	0	0.06239	0.12768	0.20977	0.30358	0.071811	0.21217	0.13065	0.24363	0.33196	0.34161	0.28232	0.18073	0.10358	0.14176	0.24855	0.25261	-3.1521	-3.4708	-3.0187	-3.8229	-3.3625	-3.2542	-4.0208	-3.3125	-3.5667	-3.7542	-2.9146	-3.8479	-3.5042	-3.2125	-3.7687	-3.2896	127.396	137.098	142.874	250.742	-93.948	115.995	145.085	-58.696	182.696	81.259	253.016	49.816	-57.493	184.216	2.626	246.518	0.00051829	0.0010877	9.7655e-05	1482.9	9.7359e-06	1.0964e-05	1455.2	374.34	1.2934e-05	7.4931e-06	425.24	140.81	123.94	41.585	5.7922e-06	51.332	0.010259	0.016784	0.0046748	1555.9	0.00016381	0.00018802	1525.1	396.25	0.00015831	0.00018614	459.72	151.85	134.5	45.592	0.00016948	56.704	10.995	-10.764	-56.509	-91.538	59.426	-8.010	-91.727	-87.154	-19.621	42.600	-87.670	-83.350	-83.113	-78.132	16.555	-78.884	-8191	255	
1418.903	1	1	0	0	0.24895	0.2009	0.024493	0.21635	0.063315	0.22052	0.36391	0.24698	0.11383	0.14608	0.1534	0.19347	0.12451	0.29384	0.34422	0.13056	-2.9625	-3.7833	-2.9958	-3.7479	-3.4917	-3.0396	-3.875	-3.3521	-3.2438	-3.5312	-3.1604	-3.7042	-3.6312	-2.9396	-3.8542	-3.4562	-96.547	-49.723	26.450	158.746	-9.004	-1.123	-67.920	206.581	2.147	-16.687	176.409	211.814	222.481	193.817	-82.775	160.146	0.00073085	0.00020047	8.5059e-05	1477.2	6.5093e-06	6.4133e-06	1452	373.33	1.383e-05	1.034e-05	425.79	139.83	124.02	41.478	5.6887e-06	51.426	0.010099	0.016496	0.0046248	1552.9	0.000162	0.00018639	1522.6	395.04	0.00015728	0.00018492	459.2	151.51	134.62	45.425	0.0001661	56.679	29.565	-11.897	-19.609	-91.661	75.606	70.076	-91.935	-87.137	25.230	39.334	-87.897	-83.234	-83.018	-78.342	68.496	-79.103	-8191	255	
1419.001	1	1	0	0	0.25555	0.24172	0.13549	0.33532	0.25033	0.036385	0.24993	0.029911	0.20877	0.10464	0.22296	0.16138	0.085663	0.20193	0.22027	0.11381	-2.7604	-3.8583	-3.0042	-3.7875	-3.5521	-3.125	-3.9604	-3.2792	-3.2604	-3.8229	-3.2438	-3.5396	-3.7375	-3.1583	-3.7667	-3.5062	228.542	43.366	-62.685	-59.372	101.226	175.399	204.595	14.792	151.117	53.250	224.174	172.512	130.862	243.991	92.696	154.368	0.00062569	0.0007409	0.00012602	1479.7	1.007e-05	2.079e-06	1456.3	372.51	1.2795e-05	9.9415e-06	425.84	139.72	123.12	41.338	3.9679e-06	51.606	0.0099824	0.016196	0.0045566	1551.6	0.00015846	0.00018171	1520.9	394.47	0.00015428	0.00018192	458.94	151.47	134.18	45.361	0.0001652	56.713	3.475	-0.115	-69.937	-91.603	5.950	38.823	-92.026	-87.291	197.776	87.805	-87.887	-83.352	-82.871	-78.569	204.620	-79.131	-8191	255	
1419.120	1	1	0	0	0.24042	0.27621	0.18202	0.18625	0.15554	0.068036	0.13629	0.12506	0.15932	0.11598	0.078847	0.051584	0.026403	0.17546	0.11742	0.061645	-2.5021	-3.6437	-2.9729	-3.5646	-3.5042	-2.9792	-3.9292	-3.4479	-3.1208	-3.9167	-3.2854	-3.5938	-3.7917	-3.0187	-3.6208	-3.6479	-4.908	-29.887	-73.320	250.774	28.921	252.993	178.437	144.137	19.094	-103.288	213.617	62.435	235.051	188.229	-82.908	201.488	0.0004408	0.00085738	0.000193	1474.5	2.9479e-06	9.055e-06	1456.3	373.26	1.2039e-05	1.1728e-05	426	140.4	124.05	41.482	8.0435e-06	51.24	0.0099272	0.016113	0.0044795	1549.8	0.00015704	0.00018046	1521.8	393.96	0.00015153	0.00017889	458.15	151.25	133.9	45.322	0.00016329	56.419	-12.108	38.606	-34.492	-91.665	202.283	34.446	-91.968	-87.400	91.628	39.380	-87.821	-83.253	-82.927	-78.496	22.959	-79.004	-8191	255	
1419.191	1	1	0	0	0.27213	0.2381	0.048583	0.29308	0.04079	0.0688	0.09426	0.43028	0.24132	0.15612	0.31286	0.34067	0.065574	0.091819	0.30838	0.13075	-2.4875	-3.7979	-3.125	-3.4729	-3.7146	-3.1708	-3.7333	-3.5229	-3.025	-3.8438	-3.375	-3.2417	-3.7812	-3.1146	-3.4625	-3.7583	55.410	218.574	126.027	-103.458	-26.819	207.760	182.524	232.466	249.202	39.256	218.104	215.648	4.440	-30.333	-42.650	-86.024	0.0010063	0.0015515	0.00022536	1477.6	9.1612e-06	8.3607e-06	1454.5	372.84	1.1255e-05	8.0404e-06	425.3	140.27	123.54	41.475	9.0718e-06	51.329	0.0096981	0.015686	0.0044005	1549.4	0.00015402	0.00017684	1519.3	393.78	0.00015041	0.00017782	457.21	151.07	134.1	45.272	0.00016219	56.514	16.167	-15.666	0.965	-91.681	-15.716	5.205	-91.799	-87.240	0.832	48.515	-88.001	-83.339	-82.937	-78.665	76.567	-79.198	-8191	255	
1419.288	1	1	0	0	0.11484	0.2102	0.046538	0.29945	0.1992	0.33407	0.2847	0.25927	0.099114	0.12611	0.21689	0.15649	0.22038	0.082269	0.14409	0.097121	-2.6604	-3.6833	-3.2208	-3.5146	-3.8229	-3.0187	-3.6729	-3.7021	-2.9125	-3.7604	-3.4542	-3.35	-4.0312	-3.1833	-3.4271	-3.7667	139.106	42.778	107.334	247.929	204.247	-27.155	128.530	173.532	253.303	101.919	232.723	76.442	-86.428	155.087	38.333	31.781	0.00024786	0.00015095	0.00010068	1477.9	9.4782e-06	9.3474e-06	1452.6	372.26	3.9179e-06	8.7729e-06	424.45	140.33	123.95	41.585	5.234e-06	51.606	0.0097327	0.016048	0.0044363	1548.2	0.00015418	0.00017753	1520.5	394.54	0.00014999	0.00017846	457.97	151.32	134.1	45.315	0.00016208	56.531	20.066	-89.420	150.439	-91.773	51.784	53.801	-91.848	-87.226	84.052	-45.847	-87.655	-83.314	-82.899	-78.401	28.427	-79.199	-8191	255	
1419.408	1	1	0	0	0.11123	0.064132	0.032912	0.16386	0.17653	0.2052	0.31483	0.21972	0.15671	0.22188	0.22463	0.2997	0.17809	0.21397	0.24042	0.046485	-2.4625	-3.6562	-3.5125	-3.3771	-3.6833	-3.2292	-3.6146	-3.7979	-3.1125	-3.6979	-3.4271	-3.2771	-3.8958	-3.4292	-3.3063	-3.8854	108.546	-50.935	239.966	-104.798	85.756	191.285	218.461	110.894	176.898	55.100	141.353	217.437	197.130	181.385	89.813	154.929	0.00063394	0.00072346	0.00012702	1481.3	4.7623e-06	8.6286e-06	1449.8	373.29	1.143e-05	5.3881e-06	425.93	139.61	123.65	41.373	6.4531e-06	51.305	0.0097116	0.015844	0.0044183	1547.5	0.00015441	0.00017792	1517.9	393.76	0.00014878	0.00017662	457.64	150.8	134.09	45.198	0.00016134	56.418	-13.502	-7.126	64.294	-91.865	20.011	23.464	-91.724	-87.273	40.320	97.353	-87.599	-83.296	-83.117	-78.357	73.533	-79.385	-8191	255	
1419.504	1	1	0	0	0.11494	0.097488	0.23456	0.23664	0.14386	0.25027	0.219	0.3136	0.11902	0.25833	0.16562	0.30176	0.11901	0.13872	0.14736	0.1689	-2.6021	-3.7188	-3.5083	-3.3063	-3.675	-3.3063	-3.3	-3.975	-2.9771	-3.5708	-3.6958	-3.0958	-3.8	-3.3292	-3.1646	-3.8125	-26.588	-22.992	-47.346	192.229	46.746	251.420	232.794	238.753	-51.903	53.685	230.438	192.411	114.533	-44.338	118.548	-66.765	0.00043692	0.00083019	0.00016282	1478.2	6.4745e-06	4.9809e-06	1455.7	371.92	1.1545e-05	4.5592e-06	426.15	139.33	123.47	41.401	1.4625e-05	51.346	0.0094958	0.015456	0.0043533	1547.2	0.00015122	0.0001751	1517.4	393.42	0.00014691	0.00017502	457.1	150.26	133.69	45.13	0.00015817	56.376	14.855	13.400	11.737	-91.687	-51.067	-31.244	-91.799	-87.191	-100.366	137.092	-87.728	-83.471	-82.908	-78.032	65.268	-78.890	-8191	255	
1419.601	1	1	0	0	0.078222	0.13648	0.12008	0.3496	0.009721	0.15903	0.30547	0.066534	0.058149	0.22294	0.1019	0.068118	0.14148	0.19462	0.20666	0.16531	-2.7021	-3.4875	-3.6792	-3.25	-3.7333	-3.5771	-3.4146	-4.0271	-3.0292	-3.375	-3.7521	-3.1646	-3.6667	-3.5146	-3.0146	-3.8854	-7.830	-18.117	-91.913	240.280	-0.876	11.686	185.817	221.556	149.371	-24.198	118.077	-91.790	232.552	-42.193	79.192	-56.064	0.00043595	0.0010132	0.00015344	1474.4	1.9431e-05	8.4858e-06	1453	373.09	8.3242e-06	1.1394e-05	425.8	139.99	123.65	41.371	3.1891e-06	51.266	0.0094487	0.015436	0.004349	1544.6	0.00015006	0.00017326	1514.8	393.34	0.0001456	0.00017216	456.42	150.23	133.63	45.093	0.00015563	56.217	-31.530	-67.280	45.343	-91.538	88.095	25.422	-91.687	-87.345	235.743	43.869	-87.936	-83.273	-82.714	-78.316	-24.693	-78.762	-8191	255	
1419.721	1	1	0	0	0.14106	0.087173	0.24103	0.19761	0.11309	0.1668	0.24664	0.15122	0.17692	0.14937	0.039818	0.1872	0.24183	0.09737	0.20414	0.10872	-2.7729	-3.4313	-3.6333	-3.1583	-3.5792	-3.4458	-3.2542	-4.0687	-3.0271	-3.3417	-3.9062	-2.9604	-3.5812	-3.6208	-3	-3.9375	238.333	37.743	16.467	240.412	-21.958	2.164	184.268	-77.882	15.474	190.829	216.656	198.804	210.524	-72.365	-44.687	245.654	0.00052909	0.00039397	0.0002537	1476.7	5.5892e-06	7.2492e-06	1452.5	371.62	1.6344e-05	6.3958e-06	423.85	139.61	123.9	41.38	6.5599e-06	51.331	0.0092916	0.015139	0.0042032	1544.2	0.00014756	0.000169	1513.3	392.43	0.00014361	0.00017031	455.95	150.14	133.63	45.1	0.00015489	56.275	24.044	251.355	-23.286	-91.771	144.839	17.562	-91.882	-87.026	20.967	8.721	-87.756	-83.377	-83.123	-78.198	14.656	-79.031	-8191	255	
1419.816	1	1	0	0	0.22438	0.17992	0.053223	0.38141	0.15078	0.052819	0.26503	0.13389	0.087372	0.060593	0.053973	0.046517	0.10232	0.048373	0.10293	0.17478	-2.95	-3.1979	-4.0146	-3.2208	-3.4813	-3.6354	-3.2208	-3.9875	-3.4521	-3.1604	-3.8521	-3.2604	-3.5062	-3.5958	-2.9104	-3.7938	106.864	46.064	32.125	229.325	240.560	174.964	211.154	171.864	166.397	85.441	-90.750	98.188	-103.888	-77.112	-85.411	141.575	0.00073174	0.00080256	9.8779e-05	1472.7	5.3385e-06	4.6609e-06	1447.9	371.86	1.4417e-05	4.2094e-06	426.16	139.79	123.14	41.273	1.7142e-05	51.341	0.0092164	0.014912	0.0041929	1541.4	0.00014589	0.00016645	1513.4	392.19	0.00014089	0.00016756	455.39	150.18	133.08	44.992	0.00015342	56.205	34.727	-26.410	-91.472	-91.805	20.818	-0.798	-91.937	-87.346	8.118	139.151	-87.979	-83.708	-83.122	-78.306	71.636	-79.123	-8191	255	
1419.889	1	1	0	0	0.12765	0.13339	0.10866	0.2401	0.054909	0.2107	0.42187	0.16266	0.39373	0.057438	0.31866	0.16215	0.24663	0.22131	0.11379	0.2075	-3.0583	-2.9875	-3.7875	-3.2333	-3.3708	-3.6188	-3.2354	-3.6312	-3.4354	-3.05	-3.775	-3.2417	-3.4208	-3.7812	-2.8333	-3.7521	251.056	-60.179	162.785	235.049	53.145	34.713	175.433	-51.925	238.526	-89.014	194.167	185.158	-75.194	121.363	21.101	248.697	0.00087617	0.00080926	0.0001903	1472.1	6.2597e-06	5.3032e-06	1447.6	371.82	3.3527e-06	7.3474e-06	425.21	139.53	123.03	41.325	4.9916e-06	51.368	0.0091817	0.014879	0.0042025	1540.5	0.00014587	0.00016718	1511.5	391.78	0.00014055	0.00016907	455.34	150.03	133.21	44.936	0.0001528	56.173	20.414	-2.515	-40.533	-91.822	79.359	51.128	-91.904	-87.234	147.100	162.448	-87.991	-83.431	-82.864	-78.657	-54.000	-78.837	-8191	255	
1420.008	1	1	0	0	0.11544	0.069033	0.35276	0.20238	0.14972	0.1921	0.39637	0.048387	0.10864	0.041732	0.14621	0.26873	0.258	0.12627	0.10664	0.021672	-2.9813	-2.9042	-3.6854	-3.2667	-3.3542	-3.7583	-3.1063	-3.8542	-3.3812	-2.9792	-3.8542	-3.3854	-3.1833	-3.8375	-3.0667	-3.4021	65.502	-98.056	177.187	148.283	-49.009	195.663	175.633	-14.586	153.988	-93.137	200.533	-92.172	230.743	160.910	109.272	-79.384	0.00083071	0.00042969	0.00019188	1475.3	6.9624e-06	1.4996e-06	1453.1	372.78	1.7689e-05	1.173e-05	424.02	139.69	122.95	41.33	1.0396e-05	51.192	0.0091673	0.01497	0.0041893	1542.3	0.0001467	0.00016625	1514.3	392.31	0.00014148	0.00016806	455.52	150.02	133.15	44.994	0.0001519	56.259	-2.497	8.444	28.509	-92.010	50.576	98.924	-91.788	-87.185	62.841	88.931	-87.505	-83.587	-83.199	-78.119	83.102	-78.980	-8191	255	
1420.104	1	1	0	0	0.068828	0.33776	0.14519	0.051066	0.095968	0.25478	0.16827	0.237	0.31602	0.09312	0.28078	0.15695	0.11341	0.108	0.10685	0.21872	-3.1208	-3.0542	-3.7583	-3.4708	-3.1583	-3.8646	-3.2333	-3.6771	-3.7021	-3.0104	-3.8917	-3.5021	-3.3792	-3.7771	-3.075	-3.5563	25.918	14.432	208.558	-65.467	-1.692	95.881	-84.377	214.279	91.602	205.488	250.371	76.654	90.853	115.481	191.041	-83.063	0.00040705	0.00075192	0.0002383	1470.2	1.7323e-06	8.0916e-06	1449.4	371.68	3.2384e-06	7.9682e-06	423.98	139.61	123.75	41.264	6.923e-06	51.452	0.0090776	0.014821	0.0041678	1539.7	0.00014623	0.00016753	1512.9	392.48	0.00014174	0.00016942	456.25	150.44	133.59	45.148	0.00015679	56.403	22.059	53.492	20.794	-91.997	-55.340	99.309	-92.122	-87.345	-82.956	61.668	-88.412	-83.760	-83.168	-78.207	48.107	-79.006	-8191	255	
1420.200	1	1	0	0	0.052614	0.19751	0.094737	0.3154	0.23049	0.16796	0.42588	0.035392	0.090657	0.0052481	0.11693	0.059315	0.16616	0.14049	0.25241	0.22806	-3.4292	-2.9813	-3.6188	-3.5292	-3.0625	-3.6667	-3.3104	-3.6604	-3.7271	-2.8688	-3.9917	-3.5792	-3.1104	-3.8958	-3.2542	-3.4917	102.567	119.357	80.788	191.148	103.710	127.381	207.443	1.973	-53.328	49.550	218.486	60.526	-60.346	-62.601	-74.471	188.230	0.00063609	0.00043608	4.6854e-05	1473.7	1.0036e-05	1.2539e-06	1454.3	373.98	9.2234e-06	2.839e-06	424.46	140	123.33	41.293	5.7447e-06	51.258	0.0094473	0.015432	0.0043052	1543.6	0.00014962	0.00017157	1516.6	393.26	0.00014365	0.00017304	455.96	150.58	133.3	45.071	0.00015442	56.315	28.900	-25.268	224.798	-91.845	3.300	151.685	-92.087	-87.459	80.179	119.827	-87.595	-83.477	-83.031	-78.437	49.269	-79.136	-8191	255	
1420.296	1	1	0	0	0.089551	0.17519	0.18218	0.16125	0.12878	0.17208	0.10578	0.18136	0.13984	0.067955	0.21894	0.23307	0.13189	0.11705	0.28242	0.079524	-3.3187	-2.8604	-3.7708	-3.7562	-3.0875	-3.7958	-3.4917	-3.4083	-3.8688	-3.0396	-3.5625	-3.7771	-3.0167	-3.9521	-3.3	-3.3187	-77.963	-2.957	-73.654	-60.271	121.906	110.607	240.307	125.781	142.684	109.760	184.136	252.009	197.256	-0.081	69.851	179.884	0.00042649	0.00071582	6.3676e-05	1472.6	9.4689e-06	6.9835e-06	1451.2	373.76	2.3466e-06	1.1478e-05	427.21	139.28	123.74	41.14	4.3552e-06	51.286	0.0092263	0.015024	0.0041745	1541.4	0.00014428	0.00016727	1513	393.06	0.00014048	0.00016718	455.32	150.06	133.45	44.967	0.00015087	56.175	25.547	-5.475	26.784	-92.059	68.259	128.057	-92.169	-87.277	-13.041	28.361	-87.833	-83.662	-83.084	-78.257	81.032	-79.184	-8191	255	
1420.392	1	1	0	0	0.14512	0.072185	0.24345	0.22874	0.12621	0.3219	0.14403	0.28213	0.23532	0.10737	0.13181	0.070494	0.33366	0.038244	0.090592	0.2779	-3.4313	-3.1125	-3.4771	-3.8292	-2.8771	-3.8271	-3.6333	-3.4062	-3.7417	-3.2438	-3.4729	-3.7	-3.175	-3.7521	-3.3333	-3.1104	250.668	133.620	254.390	176.029	-5.326	-57.206	222.457	173.118	116.781	76.046	82.993	159.473	217.227	70.922	21.669	198.119	0.00090143	0.00031463	7.3815e-05	1479.8	1.2523e-05	4.4292e-06	1448.9	371.77	7.3378e-06	6.7761e-06	425.69	139.79	123.49	41.199	1.9489e-06	51.045	0.0089567	0.014725	0.004115	1540.9	0.00014384	0.00016572	1511.5	391.68	0.00013872	0.00016731	455.86	149.99	133.1	44.964	0.00015199	56.014	-12.525	-66.687	126.251	-91.870	89.979	15.897	-92.128	-87.274	125.400	28.014	-87.540	-83.551	-82.980	-78.234	23.295	-79.093	-8191	255	
1420.489	1	1	0	0	0.057103	0.21611	0.18204	0.18938	0.061865	0.2537	0.17116	0.07454	0.055294	0.15925	0.12108	0.11568	0.11143	0.20465	0.16711	0.16155	-3.1833	-3.1188	-3.3958	-3.8625	-2.7938	-3.6042	-3.5604	-3.1104	-3.7229	-3.025	-3.35	-3.8042	-3.1896	-3.6729	-3.6188	-3.1417	39.342	44.867	76.186	177.078	-59.839	117.127	107.079	211.892	217.955	57.582	-25.228	245.508	71.397	-99.975	40.630	-14.453	0.00068908	0.0010746	0.00017707	1471.4	6.9655e-06	1.2893e-05	1452.2	370.5	9.0699e-06	5.7229e-06	425.52	139.8	123.24	41.284	9.6515e-06	51.08	0.0090689	0.014826	0.0041586	1541.1	0.00014377	0.00016613	1512.3	391.69	0.00014052	0.00016735	455.92	150.2	133.43	45.008	0.00015306	56.059	19.166	-20.372	-36.563	-91.719	-11.825	80.861	-92.048	-87.011	126.822	200.398	-87.785	-83.525	-83.073	-78.095	-34.871	-79.053	-8191	255	
1420.585	1	1	0	0	0.09639	0.14603	0.094339	0.21326	0.26188	0.27866	0.027878	0.051229	0.092067	0.075233	0.19076	0.29456	0.12396	0.29125	0.18244	0.13322	-3.1292	-2.9458	-3.0396	-3.7396	-2.8396	-3.4875	-3.7271	-3.0812	-3.5833	-3.2354	-3.1833	-3.6667	-3.0167	-3.5333	-3.5771	-2.9271	185.966	79.244	-22.335	129.545	220.185	217.742	-87.827	219.581	200.007	161.331	170.294	-58.741	-101.871	193.513	245.847	-53.646	0.00074545	0.00059752	0.00019746	1473.7	2.7664e-06	7.1464e-06	1451.1	372.82	1.8826e-05	4.9059e-06	424.91	138.8	122.88	41.351	1.0885e-05	51.194	0.0091189	0.0149	0.0041997	1540.9	0.00014681	0.00016816	1512.9	392.59	0.0001416	0.00016962	455.58	149.71	133.01	44.971	0.0001527	56.26	4.617	-16.438	8.878	-91.909	-89.886	52.010	-92.042	-87.177	-10.625	-81.215	-87.856	-83.609	-83.094	-78.180	-9.176	-79.188	-8191	255	
1420.681	1	1	0	0	0.26505	0.080673	0.069055	0.12736	0.11013	0.05324	0.1269	0.18508	0.13932	0.32833	0.18447	0.13647	0.22998	0.042037	0.044137	0.071718	-3.2188	-3.2333	-2.9604	-3.9333	-3.2396	-3.3438	-3.9062	-3.1937	-3.6063	-3.35	-3.1292	-3.8146	-3.1708	-3.35	-3.45	-3.0312	57.920	171.312	-69.339	-41.244	0.225	109.427	102.902	93.467	36.943	60.230	253.309	245.592	254.363	71.305	33.916	92.325	0.00069177	0.00075558	0.00020818	1480	7.5602e-06	1.1969e-05	1445.3	372.43	5.868e-06	1.1168e-05	424.58	140.09	123.16	41.228	8.2167e-06	51.456	0.0090882	0.014855	0.0041532	1542.8	0.00014472	0.00016549	1510.6	391.76	0.00014079	0.00016654	455.24	150	133.02	44.981	0.00015111	56.156	-2.029	49.543	-74.380	-91.909	100.213	42.956	-92.009	-87.241	107.846	105.122	-87.785	-83.427	-82.954	-78.351	82.513	-78.946	-8191	255	
1420.802	1	1	0	0	0.065896	0.22145	0.13458	0.19134	0.14537	0.016823	0.22241	0.055025	0.15147	0.13793	0.34437	0.14868	0.44851	0.048362	0.05793	0.18097	-3.2625	-3.6021	-2.7646	-3.7875	-3.1	-3.0062	-3.9333	-3	-3.5187	-3.4562	-3.0625	-3.8833	-3.1604	-3.1417	-3.7208	-3.0979	116.504	29.090	133.465	239.742	72.314	-4.976	116.177	183.785	-12.590	150.148	135.346	218.883	215.641	-42.933	32.455	-96.041	0.00089614	0.001018	9.003e-05	1474.1	4.6694e-06	2.5704e-06	1446	371.43	8.3329e-06	1.2591e-05	424.17	139.92	123.09	41.247	7.128e-06	51.275	0.0091498	0.014799	0.0041181	1541.3	0.00014458	0.00016636	1511.4	391.37	0.00014009	0.00016592	454.75	150.13	133.16	44.933	0.00014857	56.097	-4.745	-20.472	57.939	-91.801	53.223	29.365	-91.842	-87.211	57.144	19.281	-87.931	-83.568	-83.024	-78.168	153.326	-79.213	-8191	255	
1420.896	1	1	0	0	0.15733	0.24439	0.10488	0.067691	0.057338	0.14142	0.24338	0.13306	0.17779	0.16047	0.1248	0.044215	0.094508	0.35932	0.027994	0.25685	-3.0583	-3.4708	-2.775	-3.7604	-3.3354	-3.1417	-3.8625	-3.2354	-3.5167	-3.6708	-3.0625	-3.8083	-3.3083	-3.1813	-3.7042	-3.45	-94.180	194.247	-22.295	116.152	126.925	96.720	101.976	190.529	206.915	146.642	-63.940	-85.588	-15.886	-68.407	92.293	222.400	0.00075013	0.001066	8.0196e-05	1476.9	1.1232e-05	8.3797e-06	1442.5	371.89	7.1149e-06	1.1449e-05	426.1	139.16	123.69	41.284	2.6817e-06	51.546	0.0090216	0.014752	0.0040863	1541.2	0.00014414	0.00016507	1508.7	392.02	0.00013824	0.00016428	455.22	149.62	133.09	44.945	0.00014842	56.108	-8.598	-19.276	17.041	-91.931	61.398	-26.699	-91.956	-87.202	180.418	8.717	-88.077	-83.377	-82.917	-78.540	233.975	-79.255	-8191	255	
1420.992	1	1	0	0	0.2796	0.051911	0.014911	0.27329	0.35976	0.33093	0.23745	0.16143	0.11844	0.054755	0.3606	0.19877	0.094857	0.12509	0.27757	0.096339	-3.1896	-3.7021	-3.1083	-4.0583	-3.5938	-3.1167	-4.0667	-3.3854	-3.5646	-3.8563	-3.2396	-3.9125	-3.6479	-3.1958	-3.8729	-3.3229	-99.859	36.189	-76.880	237.904	68.287	9.771	193.378	187.848	210.555	195.242	179.134	181.295	222.119	233.304	28.631	87.070	0.00051064	0.0010931	0.00015085	1471.1	5.8431e-06	4.1534e-06	1448	371	1.4938e-05	5.6621e-06	427.16	139.55	123.36	41.297	9.6884e-06	51.148	0.0089329	0.014498	0.0040711	1539.3	0.00014194	0.00016337	1510.6	391.15	0.00013801	0.00016512	455.21	149.98	133.14	44.966	0.00015059	56.106	2.263	32.825	-14.399	-91.849	72.913	19.795	-91.809	-87.363	19.325	18.680	-87.727	-83.521	-82.952	-78.431	-23.221	-79.097	-8191	255	
1421.088	1	1	0	0	0.25424	0.11791	0.26817	0.55938	0.27192	0.41223	0.29929	0.17686	0.034939	0.032937	0.1271	0.41023	0.091668	0.26975	0.17345	0.28741	-2.9771	-3.7708	-3.15	-3.8563	-3.5729	-3.2104	-4.0167	-3.5083	-3.4917	-3.8542	-3.2875	-3.7396	-3.8458	-3.1979	-3.9646	-3.5	-60.694	15.902	94.533	226.887	22.788	192.355	230.243	193.706	108.276	-87.224	233.412	195.878	-77.706	234.745	29.714	189.074	0.00057464	0.0010242	0.00010233	1471.8	4.5025e-06	8.6701e-06	1448	371.71	1.016e-05	8.3413e-06	423.57	139.92	123.22	41.377	5.4454e-06	51.395	0.0090097	0.014645	0.0041403	1539.9	0.00014387	0.00016457	1510.9	391	0.00013869	0.00016592	454	149.96	132.92	45.039	0.00015169	56.202	2.989	-10.735	25.443	-91.911	-7.962	99.089	-91.915	-87.130	32.728	22.842	-87.757	-83.461	-82.926	-78.187	19.158	-78.917	-8191	255	
1421.184	1	1	0	0	0.24515	0.084482	0.22023	0.17241	0.059784	0.11956	0.17413	0.14169	0.137	0.075493	0.1868	0.11264	0.17738	0.11084	0.2215	0.091428	-2.8479	-3.9083	-3.2354	-3.7771	-3.9021	-3.2271	-4.0896	-3.6312	-3.2479	-3.8146	-3.3021	-3.6771	-3.9583	-3.1188	-3.8229	-3.6188	220.338	164.101	-28.608	144.538	-61.077	-62.188	123.957	-40.180	245.983	239.029	-49.610	-67.955	-67.891	-83.607	86.529	1.642	0.00078282	0.00054562	0.00013611	1471.6	1.3008e-05	5.0367e-06	1451.8	370.88	6.9586e-06	5.8249e-06	423.57	139.67	123.51	41.229	6.1931e-06	51.162	0.0090603	0.014738	0.0041474	1537.8	0.00014345	0.00016526	1511.6	391.51	0.0001383	0.00016514	454.17	149.78	132.88	44.937	0.00015015	56.002	-4.427	8.854	-56.688	-91.834	31.782	75.781	-91.975	-87.270	30.503	37.264	-87.847	-83.342	-83.021	-78.039	63.295	-79.113	-8191	255	
1421.281	1	1	0	0	0.055197	0.33497	0.027609	0.33849	0.20428	0.40409	0.25454	0.34139	0.058611	0.11339	0.27884	0.13455	0.093501	0.083562	0.35272	0.19528	-2.7562	-3.9104	-3.3063	-3.5687	-3.7229	-3.0563	-3.9104	-3.6708	-3.0667	-3.8729	-3.4167	-3.3542	-4.1458	-3.3208	-3.6396	-3.8312	233.842	176.084	35.394	247.090	170.964	133.325	236.481	211.533	130.686	141.058	192.276	246.336	248.681	114.854	-61.132	183.261	0.00067393	0.00020778	0.00032288	1472.3	7.384e-06	5.8796e-06	1452.7	371.52	9.8183e-06	9.5667e-06	423.44	139.41	123.43	41.401	5.6639e-06	51.253	0.0089707	0.014763	0.0041204	1539	0.00014345	0.00016485	1510.6	391.32	0.00013843	0.00016527	454.55	150.01	132.8	44.938	0.00015013	56.055	4.675	11.842	-43.443	-91.633	40.994	9.232	-91.759	-87.231	53.338	49.742	-87.634	-83.272	-82.682	-78.145	-40.448	-79.002	-8191	255	
1421.401	1	1	0	0	0.1399	0.21184	0.14587	0.14451	0.33155	0.17958	0.24198	0.24481	0.19833	0.10388	0.098529	0.16591	0.12388	0.30279	0.12673	0.15253	-2.7729	-3.9479	-3.2958	-3.5354	-4.025	-3.2438	-3.9229	-3.7833	-3.2667	-3.8646	-3.6833	-3.4396	-4.0292	-3.2625	-3.5333	-3.8708	212.587	-9.432	113.689	217.670	23.627	5.448	245.049	168.310	124.742	133.841	-94.834	222.046	-90.541	233.343	101.925	-101.829	0.00077898	0.00061847	0.00025146	1475.4	4.3751e-06	3.76e-06	1451.3	370.04	1.7331e-05	2.2022e-06	425.06	138.99	123.07	41.305	1.2684e-05	51.313	0.0089558	0.014569	0.0040827	1539.5	0.00014292	0.0001633	1511.4	390.25	0.00013726	0.00016167	454.38	149.67	132.57	44.837	0.00014894	55.905	24.547	-46.859	2.711	-91.758	-47.305	-38.215	-91.644	-87.254	62.122	-37.602	-87.792	-83.477	-82.903	-78.367	33.004	-79.220	-8191	255	
1421.497	1	1	0	0	0.10646	0.3776	0.13387	0.31476	0.32303	0.03432	0.3387	0.14557	0.049155	0.12729	0.043175	0.096577	0.24353	0.20789	0.029583	0.079256	-2.7583	-3.7292	-3.6021	-3.2958	-3.9562	-3.1813	-3.7167	-4.0729	-3.1021	-3.6958	-3.55	-3.2021	-3.8875	-3.275	-3.3688	-4.0062	-6.094	111.412	58.309	250.508	222.117	48.563	243.051	190.483	245.136	62.118	121.478	91.476	-93.014	185.185	119.237	-49.641	0.00079662	0.0010344	0.00042457	1477.6	9.8706e-06	6.5514e-06	1447.4	371.16	5.8784e-06	1.1328e-05	423.99	139.23	122.75	41.156	9.3829e-06	50.845	0.0089784	0.014557	0.004106	1538.3	0.00014226	0.00016376	1507.7	391.08	0.00013889	0.00016554	454	149.7	132.81	44.835	0.00014952	55.975	23.212	-15.295	12.092	-91.536	71.886	5.666	-91.631	-87.098	73.795	73.812	-87.949	-83.210	-82.745	-77.997	39.215	-79.039	-8191	255	
1421.593	1	1	0	0	0.036096	0.17754	0.16288	0.10766	0.18251	0.27415	0.21906	0.2681	0.17057	0.081141	0.28806	0.10863	0.056796	0.38155	0.14613	0.10853	-2.7417	-3.4854	-3.4583	-3.3229	-3.7708	-3.2188	-3.4833	-3.9729	-3.0958	-3.7333	-3.8479	-3.2917	-3.9229	-3.3646	-3.3146	-3.8792	146.262	155.763	23.498	-32.607	-13.772	210.570	168.107	203.384	52.446	-5.422	202.761	126.729	99.977	250.996	170.310	187.631	0.00098236	0.00052154	0.00015126	1469.4	3.9528e-06	1.4236e-05	1445.7	370.91	7.8192e-06	9.1169e-06	423.21	139.71	123.27	40.983	4.5469e-07	50.969	0.0090192	0.014533	0.0041016	1536.4	0.00014057	0.00016289	1508.7	390.27	0.00013761	0.00016415	453.82	149.72	132.83	44.76	0.00014962	55.893	-4.931	-54.306	-49.138	-91.637	23.665	80.103	-91.719	-87.140	-27.010	30.683	-87.751	-83.280	-82.930	-78.089	148.341	-78.850	-8191	255	
1421.690	1	1	0	0	0.16388	0.088235	0.075165	0.35472	0.0081028	0.088662	0.2453	0.21732	0.19231	0.11612	0.21234	0.10935	0.2003	0.12313	0.13577	0.1883	-2.7646	-3.525	-3.8563	-3.2562	-3.675	-3.55	-3.5104	-4.1937	-3.1125	-3.5438	-3.8646	-3.225	-4.0104	-3.6813	-3.2104	-4.0563	108.957	-102.705	0.370	167.704	-44.512	-95.817	169.460	197.400	125.441	-78.193	228.782	-99.934	-101.874	-49.068	73.084	158.171	0.00076257	0.00096797	0.00022819	1475.9	5.1001e-06	6.2314e-06	1442.2	370.15	6.8546e-06	1.1345e-05	424.05	139.06	123.04	41.266	3.92e-06	51.183	0.008917	0.014492	0.0040273	1537.4	0.0001405	0.00016236	1506.3	390.53	0.00013703	0.00016247	453.1	149.73	132.69	44.819	0.00014731	55.955	21.466	46.611	36.890	-91.421	106.276	139.677	-91.898	-86.938	102.301	57.507	-87.584	-83.275	-82.809	-77.821	-78.654	-78.576	-8191	255	
1421.786	1	1	0	0	0.20314	0.11404	0.13798	0.21454	0.14249	0.017064	0.49149	0.21479	0.16449	0.19971	0.14049	0.20175	0.16845	0.17091	0.14946	0.16544	-2.8063	-3.6229	-3.8625	-3.2667	-3.8688	-3.6458	-3.3	-4.0854	-3.3479	-3.575	-3.9625	-3.0812	-3.7646	-3.7167	-3.25	-4.0375	220.417	143.826	127.544	204.154	-76.979	196.761	223.843	149.119	11.211	83.908	231.815	205.946	178.442	-51.427	204.587	144.891	0.0007344	0.00098229	8.196e-05	1471.1	1.6673e-06	7.9883e-06	1449.8	369.86	1.0062e-05	7.7958e-06	423.87	139.24	123.08	41.109	2.8945e-07	51.052	0.0088738	0.014503	0.0040334	1535.9	0.00014097	0.0001622	1507.9	389.4	0.00013652	0.00016192	452.83	149.36	132.44	44.736	0.00014695	55.869	-16.939	-69.274	5.936	-91.268	76.189	8.063	-91.608	-86.933	-13.567	13.499	-87.705	-83.015	-82.673	-77.960	184.250	-78.806	-8191	255	
#DATA ENDS
