BOXY.EXE: ISS Imagent and Oximeter Data Acquisition Program Version 0.80
Ascii Record File

#ACQ INFORMATION
2  Detector Channels 
16  External MUX Channels 
1  Auxiliary Channels 
5000  Waveform (CCF) Frequency (Hz)
1  Waveforms Skipped 
30  Waveforms Averaged 
1  Cycles Averaged 
16  Acquisitions per Waveform 
10.0806  Updata Rate (Hz) 

#FILE INFORMATION
TRUE -- External MUX Channel results are PARSED.
FALSE -- AC DC and Phase are NOT grouped.
TRUE -- Companion Program Settings File CREATED.
FALSE -- AC data not excluded
FALSE -- DC data not excluded
FALSE -- Phase data not excluded
FALSE -- Auxillary Chn. data not excluded
Tab delimiters

#CALIBRATION STATE
TRUE -- Waveform Calibration Values APPLIED.


#AUX CALIBRATION VALUES
Val Type	aux-1	

Term	1.0000e+00	
Factor	0.0000e+00	


#WF CALIBRATION VALUES
A = Detector Channel
Val Type	A-AC1	A-AC2	A-AC3	A-AC4	A-AC5	A-AC6	A-AC7	A-AC8	A-AC9	A-AC10	A-AC11	A-AC12	A-AC13	A-AC14	A-AC15	A-AC16	A-DC1	A-DC2	A-DC3	A-DC4	A-DC5	A-DC6	A-DC7	A-DC8	A-DC9	A-DC10	A-DC11	A-DC12	A-DC13	A-DC14	A-DC15	A-DC16	A-Ph1	A-Ph2	A-Ph3	A-Ph4	A-Ph5	A-Ph6	A-Ph7	A-Ph8	A-Ph9	A-Ph10	A-Ph11	A-Ph12	A-Ph13	A-Ph14	A-Ph15	A-Ph16	

Term	0.00000e+00	0.00000e+00	0.00000e+00	0.00000e+00	0.00000e+00	0.00000e+00	0.00000e+00	0.00000e+00	0.00000e+00	0.00000e+00	0.00000e+00	0.00000e+00	0.00000e+00	0.00000e+00	0.00000e+00	0.00000e+00	0.00000e+00	0.00000e+00	0.00000e+00	0.00000e+00	0.00000e+00	0.00000e+00	0.00000e+00	0.00000e+00	0.00000e+00	0.00000e+00	0.00000e+00	0.00000e+00	0.00000e+00	0.00000e+00	0.00000e+00	0.00000e+00	0.00000e+00	0.00000e+00	0.00000e+00	0.00000e+00	0.00000e+00	0.00000e+00	0.00000e+00	0.00000e+00	0.00000e+00	0.00000e+00	0.00000e+00	0.00000e+00	0.00000e+00	0.00000e+00	0.00000e+00	0.00000e+00	
Factor	1.00000e+00	1.00000e+00	1.00000e+00	1.00000e+00	1.00000e+00	1.00000e+00	1.00000e+00	1.00000e+00	1.00000e+00	1.00000e+00	1.00000e+00	1.00000e+00	1.00000e+00	1.00000e+00	1.00000e+00	1.00000e+00	1.00000e+00	1.00000e+00	1.00000e+00	1.00000e+00	1.00000e+00	1.00000e+00	1.00000e+00	1.00000e+00	1.00000e+00	1.00000e+00	1.00000e+00	1.00000e+00	1.00000e+00	1.00000e+00	1.00000e+00	1.00000e+00	X	X	X	X	X	X	X	X	X	X	X	X	X	X	X	X	

B = Detector Channel
Val Type	B-AC1	B-AC2	B-AC3	B-AC4	B-AC5	B-AC6	B-AC7	B-AC8	B-AC9	B-AC10	B-AC11	B-AC12	B-AC13	B-AC14	B-AC15	B-AC16	B-DC1	B-DC2	B-DC3	B-DC4	B-DC5	B-DC6	B-DC7	B-DC8	B-DC9	B-DC10	B-DC11	B-DC12	B-DC13	B-DC14	B-DC15	B-DC16	B-Ph1	B-Ph2	B-Ph3	B-Ph4	B-Ph5	B-Ph6	B-Ph7	B-Ph8	B-Ph9	B-Ph10	B-Ph11	B-Ph12	B-Ph13	B-Ph14	B-Ph15	B-Ph16	

Term	0.00000e+00	0.00000e+00	0.00000e+00	0.00000e+00	0.00000e+00	0.00000e+00	0.00000e+00	0.00000e+00	0.00000e+00	0.00000e+00	0.00000e+00	0.00000e+00	0.00000e+00	0.00000e+00	0.00000e+00	0.00000e+00	0.00000e+00	0.00000e+00	0.00000e+00	0.00000e+00	0.00000e+00	0.00000e+00	0.00000e+00	0.00000e+00	0.00000e+00	0.00000e+00	0.00000e+00	0.00000e+00	0.00000e+00	0.00000e+00	0.00000e+00	0.00000e+00	-1.17792e+02	-1.43843e+02	-1.22546e+02	-1.82203e+02	-6.11667e+01	-7.34980e+01	-1.58195e+02	-1.62015e+02	-5.91422e+01	-6.39027e+01	-1.73093e+02	-1.71855e+02	-1.81390e+02	-1.76301e+02	-7.35693e+01	-1.49454e+02	
Factor	1.69170e-05	1.23924e-04	3.36262e-05	1.80272e-01	1.08088e-06	1.50264e-06	1.68832e-01	4.61094e-02	9.30486e-07	1.40809e-06	1.02341e-01	2.97290e-02	2.73267e-02	8.85118e-03	1.28260e-06	1.26478e-02	2.60707e-06	2.90429e-06	8.06884e-07	9.53293e-02	3.13924e-08	3.17865e-08	8.41259e-02	2.45373e-02	3.13704e-08	3.17759e-08	5.20466e-02	1.52571e-02	1.46120e-02	4.71344e-03	3.16051e-08	6.50126e-03	X	X	X	X	X	X	X	X	X	X	X	X	X	X	X	X	



#DISTANCE SETTINGS
A = Detector Channel
A-1	A-2	A-3	A-4	A-5	A-6	A-7	A-8	A-9	A-10	A-11	A-12	A-13	A-14	A-15	A-16	

2.5000e+00	3.0000e+00	2.5000e+00	3.0000e+00	2.0000e+00	3.0000e+00	1.5000e+00	3.0000e+00	3.0000e+00	3.0000e+00	3.0000e+00	3.0000e+00	3.0000e+00	3.0000e+00	1.5000e+00	3.0000e+00	

B = Detector Channel
B-1	B-2	B-3	B-4	B-5	B-6	B-7	B-8	B-9	B-10	B-11	B-12	B-13	B-14	B-15	B-16	

1.0000e+01	1.0000e+01	1.0000e+01	1.4400e+00	1.0000e+01	1.0000e+01	1.5100e+00	1.9400e+00	1.0000e+01	1.0000e+01	1.9900e+00	2.4900e+00	2.4100e+00	2.9000e+00	1.0000e+01	2.9800e+00	




#DATA BEGINS
time	group	step	mark	flag	A-AC1	A-AC2	A-AC3	A-AC4	A-AC5	A-AC6	A-AC7	A-AC8	A-AC9	A-AC10	A-AC11	A-AC12	A-AC13	A-AC14	A-AC15	A-AC16	A-DC1	A-DC2	A-DC3	A-DC4	A-DC5	A-DC6	A-DC7	A-DC8	A-DC9	A-DC10	A-DC11	A-DC12	A-DC13	A-DC14	A-DC15	A-DC16	A-Ph1	A-Ph2	A-Ph3	A-Ph4	A-Ph5	A-Ph6	A-Ph7	A-Ph8	A-Ph9	A-Ph10	A-Ph11	A-Ph12	A-Ph13	A-Ph14	A-Ph15	A-Ph16	B-AC1	B-AC2	B-AC3	B-AC4	B-AC5	B-AC6	B-AC7	B-AC8	B-AC9	B-AC10	B-AC11	B-AC12	B-AC13	B-AC14	B-AC15	B-AC16	B-DC1	B-DC2	B-DC3	B-DC4	B-DC5	B-DC6	B-DC7	B-DC8	B-DC9	B-DC10	B-DC11	B-DC12	B-DC13	B-DC14	B-DC15	B-DC16	B-Ph1	B-Ph2	B-Ph3	B-Ph4	B-Ph5	B-Ph6	B-Ph7	B-Ph8	B-Ph9	B-Ph10	B-Ph11	B-Ph12	B-Ph13	B-Ph14	B-Ph15	B-Ph16	aux-1	digaux	

28197.918	1	1	0	256	0.10813	0.34977	0.16092	0.34642	0.21632	0.14469	0.22247	0.034359	0.19091	0.15527	0.13652	0.1222	0.27485	0.11188	0.15376	0.32585	-1.6542	-1.7437	-1.3583	-2.3333	-1.5875	-1.6333	-2.4542	-1.3188	-1.8229	-1.95	-1.3229	-2.1333	-1.5646	-1.5063	-2.0687	-1.3188	149.158	362.805	366.786	37.636	137.584	61.791	331.228	253.232	252.339	233.312	28.218	156.521	38.920	310.581	271.677	331.037	0.00018298	0.00017751	0.00014313	1165.8	4.8881e-06	6.1351e-06	1245.2	236.84	2.1273e-06	3.6055e-06	297.03	83.861	66.653	20.038	4.9286e-06	27.307	0.00034625	0.00036706	0.00010187	1141.1	3.9467e-06	4.0049e-06	1226.9	235.78	4.0381e-06	4.0199e-06	295.88	85.205	67.533	20.456	4.2128e-06	28.037	151.990	54.612	118.288	24.846	187.523	68.077	24.926	32.370	216.440	139.313	32.037	38.878	38.992	45.852	138.992	45.823	-8191	255	
28198.014	1	1	0	0	0.25503	0.046546	0.23813	0.090159	0.088363	0.12504	0.28696	0.30107	0.10095	0.19857	0.26093	0.075347	0.13526	0.25407	0.18306	0.18718	-1.5562	-2.0125	-1.3	-2.3875	-1.6042	-1.4521	-2.3708	-1.6083	-1.8979	-1.9188	-1.5125	-2.2687	-1.7292	-1.6833	-2.2687	-1.6792	211.463	268.626	118.079	229.829	56.379	294.677	304.541	299.319	270.518	235.829	278.697	264.393	187.048	107.046	219.299	273.065	0.00018279	0.00055366	3.0456e-05	1159.2	1.2948e-06	6.2378e-06	1247	237.22	1.6904e-06	1.5313e-06	298.36	84.281	67.102	19.903	1.1302e-06	27.577	0.0003739	0.00038952	0.00011059	1139.9	4.3049e-06	4.3489e-06	1228.8	236.52	4.2031e-06	4.233e-06	296.67	85.252	67.498	20.401	4.1204e-06	28.123	163.598	97.304	186.684	24.758	238.774	185.657	24.931	32.439	84.965	146.226	32.120	38.401	39.104	46.635	96.914	45.931	-8191	255	
28198.109	1	1	0	0	0.10276	0.28125	0.10499	0.18948	0.16657	0.11735	0.21555	0.16576	0.2329	0.21899	0.21659	0.28683	0.10974	0.29025	0.33368	0.031596	-1.5063	-2.0146	-1.45	-2.2583	-1.7333	-1.5979	-2.3563	-1.6104	-1.5979	-2.2792	-1.4917	-2.2333	-1.8333	-1.3813	-2.3937	-1.4833	232.963	118.080	340.119	337.368	17.179	236.802	266.653	95.230	279.099	216.226	307.376	36.606	151.065	348.001	108.848	15.618	0.00017252	0.00066199	9.8744e-05	1165.6	2.7267e-06	7.6624e-07	1249.5	236.69	8.3043e-07	5.8106e-07	299.05	84.215	66.532	19.972	1.0236e-06	27.507	0.00035853	0.00037369	0.00010448	1140.7	4.0487e-06	4.0505e-06	1230.1	236	3.9565e-06	3.9691e-06	296.61	85.26	67.44	20.437	3.9027e-06	28.077	150.206	117.613	54.298	25.167	203.347	46.848	25.138	32.352	227.685	124.070	31.773	39.041	39.244	45.974	195.001	45.578	-8191	255	
28198.207	1	1	0	0	0.25009	0.1715	0.38418	0.13934	0.33005	0.084297	0.39354	0.18391	0.1814	0.20115	0.10236	0.13775	0.18037	0.10879	0.21727	0.21565	-1.2083	-2.1542	-1.1354	-2.1042	-2.0521	-1.3792	-2.4354	-1.6771	-1.6417	-2.1771	-1.5667	-2.1	-2.0396	-1.2771	-2.2125	-1.625	93.390	344.459	359.862	40.887	70.047	314.298	330.086	218.323	366.014	86.576	321.613	29.317	110.209	342.740	323.214	286.047	0.00012938	0.00079501	5.5286e-05	1164.6	4.9115e-06	2.4715e-06	1249.4	238.19	3.7627e-06	2.5224e-06	297.89	84.175	66.579	19.933	2.9495e-06	27.466	0.0003578	0.00036777	0.00010255	1139.9	4.0708e-06	4.0681e-06	1228.3	236.23	4.1381e-06	4.0832e-06	295.82	85.123	67.435	20.34	4.1057e-06	27.998	139.017	51.714	48.931	24.857	171.647	150.239	25.246	32.485	217.481	125.652	32.120	38.839	39.310	46.669	96.014	45.916	-8191	255	
28198.303	1	1	0	0	0.23938	0.019681	0.13805	0.025986	0.065923	0.096613	0.40617	0.14609	0.13859	0.26895	0.18668	0.10559	0.091826	0.29479	0.0076155	0.23008	-1.1083	-2.1833	-1.4104	-2.0625	-2.2125	-1.2458	-2.1729	-1.8958	-1.4583	-2.3021	-1.6354	-2.1146	-2.3979	-1.3958	-1.9188	-1.9354	26.347	34.137	99.886	55.962	257.342	60.933	320.191	23.060	356.064	361.420	226.969	91.714	214.397	24.845	253.445	325.969	0.00017782	0.00041194	4.7246e-05	1162.8	3.1417e-06	2.4788e-06	1244.8	236.39	1.5288e-06	2.3508e-06	296.96	84.684	66.632	20.022	2.8818e-06	27.558	0.00035834	0.00037654	0.00010463	1138.8	4.1493e-06	4.0974e-06	1227.5	235.62	4.0552e-06	4.0136e-06	295.22	85.305	67.398	20.356	4.0399e-06	28.02	147.512	73.576	92.989	25.172	230.584	211.062	24.952	32.390	144.724	151.857	31.555	39.079	39.381	46.495	184.452	45.282	-8191	255	
28198.398	1	1	0	0	0.080165	0.074502	0.18389	0.34669	0.08498	0.14846	0.046234	0.1654	0.060393	0.12368	0.052816	0.2767	0.16982	0.17938	0.12882	0.11319	-1.0229	-2.1833	-1.5562	-1.9312	-2.15	-1.5312	-2.2875	-2.0417	-1.6063	-2.1875	-1.775	-1.6458	-2.4	-1.4438	-1.9438	-1.7812	218.588	75.969	59.073	360.274	259.130	264.087	355.308	343.049	234.644	57.802	50.088	305.660	121.330	212.939	299.117	296.693	0.0001879	0.00035081	3.0478e-05	1159.8	4.0886e-06	4.9985e-06	1246.7	236.85	4.9962e-06	4.8999e-06	297.71	84.767	67.132	19.963	3.211e-06	27.58	0.00034963	0.00037004	0.000105	1139.6	4.042e-06	4.0526e-06	1229.3	236.16	4.0673e-06	3.9957e-06	295.79	85.376	67.573	20.357	3.9149e-06	27.992	170.291	81.934	132.196	25.114	182.518	61.789	25.192	32.247	210.804	186.215	32.334	39.003	39.392	46.197	136.244	45.603	-8191	255	
28198.494	1	1	0	0	0.22153	0.11642	0.098	0.14514	0.25531	0.1323	0.39497	0.069336	0.22937	0.045401	0.17905	0.40405	0.25942	0.15549	0.1731	0.18729	-0.95	-2.2	-1.4854	-1.6958	-1.9583	-1.1917	-2.225	-2.1042	-1.4792	-2.0625	-1.8792	-1.5479	-2.2833	-1.5229	-1.7292	-2.0417	332.669	255.896	178.357	315.641	223.316	71.954	331.404	292.051	284.401	317.022	249.397	370.832	224.703	334.426	360.348	361.778	0.0002185	0.00033413	8.3696e-05	1156.4	2.5413e-06	5.0997e-06	1250	236.86	4.074e-06	4.3625e-06	298	83.963	66.405	19.915	3.3762e-06	27.522	0.00034566	0.00036013	9.8563e-05	1136.8	3.9177e-06	3.9119e-06	1227.9	235.78	3.931e-06	3.919e-06	296.3	85.368	67.219	20.332	3.8724e-06	28.042	149.829	153.649	141.910	25.212	177.364	180.239	24.952	32.489	196.669	202.159	31.760	39.220	39.510	46.450	239.333	45.608	-8191	255	
28198.615	1	1	0	0	0.12895	0.19114	0.39236	0.44416	0.17537	0.21539	0.25688	0.17538	0.15509	0.18736	0.052545	0.23364	0.12769	0.091118	0.25165	0.066072	-1.0167	-2.1708	-1.8167	-1.7042	-2.1521	-1.3417	-1.9896	-2.0854	-1.2229	-2.2333	-1.8104	-1.6208	-2.3021	-1.475	-1.6333	-1.9854	42.165	335.628	147.158	322.986	307.835	75.320	312.698	38.765	18.108	45.213	332.751	337.029	34.530	330.958	208.503	259.624	0.00017899	0.00031918	9.6745e-05	1165.9	1.7974e-06	5.5831e-06	1254.2	236.5	2.7343e-06	6.7372e-06	297.22	84.705	66.718	20.006	2.6116e-06	27.373	0.00035533	0.00036586	0.00010173	1140.3	3.9762e-06	3.9433e-06	1230.2	235.87	3.958e-06	3.992e-06	295.79	85.337	67.34	20.38	3.9753e-06	28.002	149.820	54.092	121.317	25.191	244.013	153.901	25.329	32.292	194.803	168.700	32.118	39.526	39.255	45.926	203.313	45.804	-8191	255	
28198.713	1	1	0	0	0.13321	0.20075	0.27649	0.3242	0.18508	0.3096	0.23667	0.39184	0.10659	0.17972	0.092716	0.065205	0.15032	0.20826	0.24137	0.084589	-0.94792	-2.0167	-1.8417	-1.6729	-2.0312	-1.6667	-1.8875	-2.0729	-1.4083	-2.0167	-1.7188	-1.3625	-2.1917	-1.4833	-1.475	-2.2083	59.526	325.799	20.012	342.985	341.092	239.121	314.719	320.376	25.051	293.160	227.426	61.181	22.877	250.204	305.398	294.525	0.000192	0.0005646	0.0001339	1167	1.5414e-06	2.7103e-06	1249.1	236.96	1.5243e-06	1.9169e-06	297.18	84.117	67.048	20.061	9.5532e-07	27.476	0.00034327	0.00035592	0.00010098	1137.7	3.8929e-06	3.8744e-06	1229	236.11	3.9688e-06	3.9498e-06	294.98	85.017	67.364	20.344	3.9733e-06	27.991	158.583	77.243	128.782	25.110	158.300	369.403	25.260	32.547	119.938	201.628	32.187	39.214	39.523	46.364	134.171	45.270	-8191	255	
28198.809	1	1	0	0	0.02473	0.12356	0.26661	0.15606	0.29888	0.14642	0.05909	0.03863	0.13023	0.076814	0.2624	0.14136	0.11563	0.12262	0.13765	0.15177	-1.05	-2.1813	-1.7125	-1.3958	-2.2062	-1.6042	-1.8146	-2.3458	-1.3208	-1.8646	-2.0563	-1.4229	-2.2104	-1.725	-1.6854	-2.3229	15.980	265.648	304.790	327.644	204.299	157.767	190.318	191.780	115.608	218.862	318.990	286.651	244.618	68.809	329.419	164.098	0.00018181	0.00037012	4.8106e-05	1163.1	4.1451e-06	5.0283e-06	1250.7	237.28	9.9784e-07	6.19e-06	300.61	84.877	66.478	20.068	5.5627e-06	27.562	0.00035057	0.00036091	0.00010041	1139.8	3.9828e-06	3.9576e-06	1228.7	236.03	4.0045e-06	4.0035e-06	296.82	85.305	67.386	20.398	3.9855e-06	28.022	153.077	85.084	118.041	25.106	207.600	131.392	25.333	32.473	230.653	77.938	31.907	39.075	39.565	46.274	174.856	45.985	-8191	255	
28198.904	1	1	0	0	0.19397	0.16264	0.12839	0.2749	0.12622	0.20602	0.20535	0.20648	0.19285	0.03966	0.1174	0.25073	0.047554	0.27465	0.25618	0.27459	-0.99792	-1.6688	-2.0687	-1.3625	-1.9937	-1.725	-1.5271	-2.2917	-1.6875	-1.8583	-2.2562	-1.375	-2.05	-1.9792	-1.4417	-2.2979	360.288	356.988	211.715	348.617	55.887	108.879	68.111	356.799	226.116	360.521	76.697	296.689	112.169	227.055	368.407	230.994	0.00019551	0.00048878	4.8994e-05	1160	1.9083e-06	4.4887e-06	1249.3	237.24	4.3457e-06	2.9056e-06	300.19	83.991	66.405	20.115	1.4336e-06	27.398	0.00035	0.00036957	9.8421e-05	1138.8	4.0102e-06	3.9876e-06	1228.6	236.36	3.9579e-06	4.0097e-06	296.8	85.185	67.469	20.376	4.0644e-06	27.973	163.921	90.248	140.839	25.298	277.465	197.183	25.360	32.469	153.758	188.470	32.139	38.539	39.177	46.248	164.176	45.804	-8191	255	
28199.000	1	1	0	0	0.1309	0.31105	0.1773	0.14867	0.047211	0.11076	0.3343	0.075392	0.10542	0.22877	0.1342	0.1524	0.22546	0.22644	0.059619	0.15818	-1.0646	-1.6625	-2.2875	-1.4771	-1.9125	-1.7458	-1.6875	-2.2979	-1.5833	-1.5438	-2.2146	-1.425	-2.0917	-2.05	-1.3625	-2.0771	351.872	96.934	265.003	327.794	168.152	81.243	355.967	202.332	81.304	293.289	360.176	235.777	351.361	322.837	158.882	368.808	0.00019708	0.0005735	0.00015285	1161.8	2.5805e-06	4.3251e-06	1247	235.85	3.5416e-06	7.8855e-06	298.05	84.7	67.239	19.979	8.8246e-07	27.463	0.00034774	0.00037309	0.00010175	1139.3	3.9712e-06	3.9915e-06	1227.8	235.71	4.0214e-06	3.9854e-06	295.53	85.32	67.5	20.399	4.0977e-06	28.026	159.975	132.006	108.899	25.098	184.387	160.075	25.180	32.639	195.732	161.510	32.049	39.337	39.677	46.609	275.102	46.161	-8191	255	
28199.096	1	1	0	0	0.1686	0.29604	0.34262	0.27837	0.14547	0.18653	0.14104	0.20101	0.25905	0.14608	0.079005	0.38953	0.076645	0.21967	0.015079	0.23275	-1.2667	-1.3146	-2.0646	-1.4875	-2.0042	-1.9771	-1.5875	-2.3292	-1.6667	-1.5042	-2.3625	-1.5125	-1.7437	-2.1229	-1.3458	-2.1813	83.000	162.901	324.589	343.194	38.080	214.683	42.192	269.409	343.291	195.535	62.411	67.825	50.476	84.940	237.930	336.004	0.00015437	0.0004989	0.00011532	1168.1	1.04e-06	3.9112e-06	1249.3	237.48	1.5084e-06	2.1821e-06	299.45	84.029	66.807	20.004	4.3051e-06	27.482	0.00035712	0.00037028	0.00010093	1140.5	4.063e-06	4.0142e-06	1226.6	236.39	4.0393e-06	3.9746e-06	296.28	85.004	67.495	20.38	3.9729e-06	28.043	145.637	46.486	110.739	25.067	224.756	148.106	25.552	32.541	133.740	180.719	32.433	39.210	39.332	46.157	131.264	45.885	-8191	255	
28199.215	1	1	0	0	0.10412	0.35662	0.10433	0.27721	0.066728	0.3842	0.25024	0.13121	0.20866	0.14395	0.20041	0.16646	0.085861	0.14364	0.19182	0.29161	-1.3563	-1.4833	-2.3292	-1.6354	-1.9583	-2.1792	-1.4188	-2.2771	-2.0021	-1.4208	-2.4708	-1.5833	-1.9292	-2.3937	-1.4042	-2.0042	222.601	261.308	193.948	278.122	219.689	23.974	313.728	298.630	122.417	119.247	304.448	63.912	32.953	318.769	145.659	310.359	0.00017952	0.00058112	0.00010311	1162.8	2.4712e-06	3.3218e-06	1249.5	238.4	2.9619e-06	1.3443e-06	298.08	84.363	67.139	20.095	2.2213e-06	27.295	0.00034242	0.0003556	9.8872e-05	1139	3.97e-06	3.8113e-06	1229.7	236.34	3.9044e-06	3.922e-06	296.28	85.119	67.48	20.379	4.0162e-06	27.99	155.026	140.345	220.035	25.105	138.487	126.303	25.080	32.994	181.683	134.076	32.151	39.251	39.791	46.018	167.723	46.107	-8191	255	
28199.311	1	1	0	0	0.095964	0.0434	0.26628	0.081403	0.11498	0.20706	0.32221	0.44859	0.27117	0.033071	0.31441	0.27023	0.16201	0.08473	0.16467	0.14727	-1.8479	-1.4458	-2.3042	-1.5875	-1.775	-2.1937	-1.6354	-2.0521	-1.8979	-1.5354	-2.3229	-1.7979	-1.625	-2.3104	-1.325	-2.0583	245.090	23.954	307.291	368.601	262.611	180.363	341.632	330.386	40.661	98.152	44.668	373.011	333.182	270.046	75.927	19.354	0.00019508	0.00028524	6.4542e-05	1164.8	2.8054e-06	4.919e-06	1245.6	236.92	2.249e-06	1.7397e-06	299.8	85.061	66.738	20.033	1.6577e-06	27.472	0.00035684	0.00036906	9.9722e-05	1141	4.0507e-06	4.0201e-06	1229	236.12	3.9598e-06	3.8989e-06	296.67	85.228	67.319	20.358	3.8039e-06	28.021	172.212	122.509	69.148	24.983	181.546	165.479	25.169	32.816	174.996	49.957	32.499	38.936	39.301	46.517	46.954	45.667	-8191	255	
28199.408	1	1	0	0	0.20432	0.12115	0.14729	0.18009	0.14451	0.17197	0.26744	0.19871	0.080733	0.066931	0.09282	0.17652	0.23154	0.11047	0.19337	0.30087	-1.675	-1.325	-2.2458	-1.9083	-1.4396	-2.3479	-1.5521	-2.1458	-2.0583	-1.375	-2.3375	-1.7646	-1.4229	-2.0958	-1.3354	-2.0042	298.950	151.112	225.449	287.686	254.046	256.618	300.565	261.857	252.044	332.480	46.082	278.946	246.073	265.393	162.492	216.886	0.00015884	0.00038968	5.272e-05	1166.6	2.1523e-06	3.3507e-06	1249.6	237.66	2.1367e-06	1.671e-06	299.45	84.001	66.868	20.077	2.2591e-06	27.391	0.00034052	0.00035288	9.8773e-05	1142.4	3.8556e-06	3.8504e-06	1228.5	235.93	3.9276e-06	3.976e-06	295.96	85.153	67.315	20.391	3.8628e-06	27.97	149.293	80.989	106.127	24.931	228.679	175.831	25.534	32.824	261.953	224.571	32.264	39.219	39.534	46.347	202.645	46.158	-8191	255	
28199.504	1	1	0	0	0.17478	0.11516	0.15152	0.10591	0.3866	0.21115	0.25814	0.10825	0.09469	0.13536	0.18339	0.12874	0.15718	0.26371	0.16834	0.074625	-1.7896	-1.275	-1.9771	-2.0646	-1.5229	-2.1063	-1.6771	-1.725	-2.1417	-1.475	-2.0563	-2.0021	-1.5146	-2.2917	-1.775	-1.6583	296.227	154.169	357.070	305.156	334.112	45.548	309.615	69.126	304.165	260.212	288.448	179.691	349.044	59.268	73.338	158.663	0.00012584	0.00042377	0.00012245	1161.2	2.8212e-06	1.4726e-06	1254.1	237.5	2.6116e-06	3.8561e-06	301.53	84.05	67.269	19.917	2.4163e-06	27.585	0.00033555	0.00035153	9.7961e-05	1139.4	3.8018e-06	3.7653e-06	1228.3	236.12	3.7984e-06	3.8231e-06	296.84	85.101	67.633	20.34	3.8107e-06	28.012	148.287	113.322	85.688	25.244	150.659	118.340	25.275	32.914	175.430	168.252	32.538	39.374	39.660	46.207	115.588	45.703	-8191	255	
28199.574	1	1	0	0	0.15119	0.11399	0.13671	0.17817	0.066288	0.12248	0.11443	0.10211	0.14368	0.26687	0.15088	0.18797	0.22232	0.086688	0.12947	0.19721	-1.9292	-1.5812	-2.0271	-2.2313	-1.3542	-2.3604	-1.8062	-1.8729	-2.1646	-1.5854	-2.0167	-2.1271	-1.4854	-2.1063	-1.6625	-1.7104	187.994	244.984	347.255	317.018	127.452	318.305	371.478	83.839	315.140	71.653	338.066	201.776	71.964	128.034	119.997	207.188	0.0001545	0.00049091	0.00012288	1161.3	4.8069e-07	4.6286e-06	1249	238.04	5.6491e-07	3.9409e-06	299.81	84.255	66.922	20.099	2.7864e-06	27.481	0.0003335	0.00035488	9.5562e-05	1136.8	3.7876e-06	3.7741e-06	1229.1	236.17	3.8431e-06	3.84e-06	296.53	84.948	67.475	20.361	3.7429e-06	27.983	159.034	111.365	85.935	25.229	248.806	140.221	25.227	32.714	337.182	136.300	32.445	38.901	39.840	46.289	143.333	46.240	-8191	255	
28199.695	1	1	0	0	0.12378	0.17306	0.16607	0.098479	0.093446	0.15995	0.20834	0.1188	0.2164	0.14611	0.098398	0.19917	0.14762	0.16133	0.16895	0.27259	-1.9146	-1.35	-1.8208	-2.1542	-1.4396	-2.2979	-1.8854	-1.5688	-2.1063	-1.4771	-1.8479	-2.25	-1.3104	-2.0375	-1.75	-1.4125	56.055	79.859	208.606	258.388	319.482	203.856	259.896	187.181	299.620	153.978	48.738	66.838	46.338	266.780	247.213	371.099	0.00013092	0.0003106	0.00013727	1164.2	4.2828e-06	1.652e-07	1249.9	237.41	5.0293e-06	1.5096e-06	298.79	84.868	66.849	20.164	2.2489e-06	27.469	0.00033037	0.00033344	9.4093e-05	1140.2	3.8224e-06	3.7142e-06	1229.9	236.11	3.7205e-06	3.7525e-06	296.21	85.167	67.352	20.378	3.8205e-06	27.946	148.078	68.644	121.124	25.126	233.762	297.237	25.393	32.786	163.691	219.844	32.115	38.934	39.813	46.466	189.070	46.052	-8191	255	
28199.793	1	1	0	0	0.053569	0.21772	0.16464	0.25186	0.059275	0.08403	0.33868	0.39931	0.063234	0.25215	0.146	0.161	0.26724	0.17391	0.20788	0.41329	-1.7542	-1.3021	-1.6625	-2.4271	-1.4562	-2.1312	-1.9292	-1.5396	-2.1	-1.6083	-1.4354	-2.2	-1.3854	-2.0396	-1.975	-1.3333	27.844	19.507	339.204	36.356	57.084	54.022	370.228	320.447	315.086	317.187	265.281	67.230	316.277	17.752	173.505	342.113	0.00015208	0.00034854	9.6515e-05	1160.4	5.2355e-06	4.3258e-06	1252.9	238.32	2.0973e-06	3.0599e-06	297.79	84.324	66.97	19.977	4.9151e-06	27.662	0.00033178	0.00033598	9.665e-05	1139	3.7169e-06	3.6565e-06	1230.2	236.37	3.6025e-06	3.6463e-06	295.69	85.208	67.247	20.321	3.5955e-06	27.963	166.252	93.705	93.413	25.539	213.889	162.283	25.266	32.853	142.102	188.664	32.530	39.292	39.980	46.491	191.944	45.833	-8191	255	
28199.889	1	1	0	0	0.11654	0.055321	0.2844	0.046684	0.14246	0.12416	0.33297	0.22617	0.35006	0.15795	0.29647	0.076281	0.12677	0.17258	0.15372	0.10265	-1.8813	-1.6896	-1.4792	-2.2729	-1.3729	-1.95	-2.2042	-1.4688	-2.0729	-1.5771	-1.4854	-2.3542	-1.4208	-1.8833	-2.0375	-1.4375	335.099	170.024	223.253	316.191	322.065	215.221	365.367	350.066	101.431	171.272	107.294	275.324	69.305	307.861	144.536	254.700	0.00014779	0.0003182	7.7264e-06	1164.1	2.2445e-06	3.4808e-06	1247.5	237.56	1.5228e-06	3.5124e-06	299.53	84.386	66.853	20.025	2.6856e-06	27.413	0.00031867	0.00033333	9.2075e-05	1140.5	3.708e-06	3.5349e-06	1227.9	235.88	3.6052e-06	3.5781e-06	295.98	85.239	67.488	20.348	3.5962e-06	27.93	151.524	69.788	67.002	25.396	173.277	191.095	25.348	32.727	162.928	207.854	32.678	39.144	39.954	46.494	175.376	46.190	-8191	255	
28200.010	1	1	0	0	0.12408	0.14468	0.065764	0.25723	0.11261	0.067927	0.32249	0.043328	0.19723	0.25549	0.11457	0.36291	0.2649	0.20464	0.16092	0.30228	-1.7646	-1.7938	-1.4458	-2.3896	-1.5812	-1.9937	-2.2125	-1.4125	-2.0125	-1.8833	-1.5479	-2.5187	-1.6271	-1.6125	-2.1854	-1.4396	214.360	204.681	284.426	318.935	296.761	254.930	338.987	258.413	359.189	355.031	208.707	283.157	261.306	264.876	74.008	272.989	0.0001849	0.00039506	0.00013264	1165.9	3.2164e-06	2.4051e-06	1244.6	237.05	3.4247e-06	2.7064e-06	297.62	84.407	66.724	20.151	2.6127e-06	27.659	0.00031259	0.00032688	8.8298e-05	1139.5	3.5668e-06	3.4898e-06	1228.3	235.81	3.4919e-06	3.4756e-06	295.32	84.988	67.187	20.41	3.3887e-06	27.938	152.770	101.778	102.890	25.336	171.201	247.227	25.564	32.703	149.656	169.147	32.596	38.903	39.687	46.332	263.159	46.094	-8191	255	
28200.104	1	1	0	0	0.18209	0.12755	0.094704	0.40162	0.077305	0.16939	0.16649	0.029171	0.21579	0.27017	0.18719	0.052982	0.15013	0.11078	0.28405	0.12368	-1.5708	-1.975	-1.225	-2.2188	-1.5146	-1.6583	-2.4042	-1.5229	-1.9083	-1.975	-1.3625	-2.35	-1.7854	-1.6625	-2.2354	-1.4813	45.352	293.950	20.640	288.810	170.320	82.153	279.690	322.566	189.762	205.496	102.786	252.790	46.358	284.207	258.903	234.660	0.00020334	0.00033094	0.00017717	1167.1	4.0196e-06	5.4927e-06	1249.1	237.59	1.715e-06	3.2684e-06	297.59	84.755	67.317	20.05	2.5603e-06	27.469	0.00030782	0.00031267	8.7533e-05	1139.1	3.5535e-06	3.3859e-06	1227.3	235.73	3.3987e-06	3.4217e-06	294.09	84.957	67.304	20.316	3.385e-06	27.894	148.925	103.257	106.069	25.571	204.011	134.997	25.648	32.783	183.033	214.515	32.495	39.678	39.841	47.010	286.273	45.945	-8191	255	
28200.178	1	1	0	0	0.29611	0.30803	0.15276	0.20192	0.19653	0.35196	0.29713	0.09407	0.1255	0.046733	0.16281	0.29378	0.25379	0.087423	0.17925	0.21875	-1.2646	-2.1229	-1.2979	-2.3688	-1.675	-1.4375	-2.4896	-1.5271	-1.7854	-2.175	-1.425	-2.1625	-1.7938	-1.5271	-2.1333	-1.625	358.366	305.202	121.788	42.107	128.474	105.463	297.288	59.882	251.705	196.676	283.824	336.203	222.506	109.758	300.594	270.699	0.00016905	0.00050575	3.6715e-05	1165	3.3811e-06	5.9215e-06	1244.6	237.91	8.5039e-07	2.7809e-06	300.57	84.91	67.183	19.959	1.5537e-06	27.551	0.00030071	0.00031585	8.5824e-05	1138.8	3.3311e-06	3.4078e-06	1226.2	235.81	3.3721e-06	3.3826e-06	296.13	85.071	67.104	20.265	3.3615e-06	27.987	155.215	84.605	67.710	25.528	177.778	144.396	25.678	33.058	228.764	133.521	32.771	39.662	39.855	46.802	179.173	45.939	-8191	255	
28200.297	1	1	0	0	0.25358	0.11971	0.082692	0.23602	0.17209	0.069356	0.4494	0.02669	0.13538	0.11062	0.28233	0.32089	0.17951	0.17898	0.19622	0.12796	-1.3813	-2.2104	-1.3563	-2.2687	-1.9125	-1.5938	-2.3396	-1.7188	-1.6625	-2.1562	-1.5	-1.9271	-2.1771	-1.3458	-2.3688	-1.7	234.592	197.590	279.035	235.993	367.319	68.931	327.988	294.428	185.414	361.102	373.327	22.601	289.181	64.259	216.753	240.948	0.00016527	0.00039824	1.7474e-05	1165.6	3.3359e-06	3.9691e-06	1243.1	236.41	3.1126e-06	4.6787e-06	298.61	84.411	66.827	20.137	5.6105e-07	27.639	0.00029625	0.00030909	8.6333e-05	1136.9	3.3824e-06	3.3122e-06	1226.1	235.14	3.253e-06	3.2687e-06	294.95	84.791	66.974	20.327	3.0785e-06	27.807	152.417	113.108	293.523	25.369	191.599	109.785	25.817	32.904	191.624	209.271	32.836	39.513	39.837	46.651	85.746	45.940	-8191	255	
28200.393	1	1	0	0	0.01056	0.18219	0.16773	0.23409	0.093964	0.15743	0.033574	0.24791	0.21665	0.15207	0.09845	0.23919	0.16531	0.12682	0.058512	0.21664	-1.3292	-2.1625	-1.4333	-2.1042	-1.9792	-1.3458	-2.4625	-1.7563	-1.5187	-2.3042	-1.4417	-1.9229	-2.1813	-1.4708	-2.1396	-1.7708	78.999	294.044	86.488	307.398	219.522	306.133	251.020	216.165	220.270	111.728	42.472	355.328	73.394	275.203	268.419	51.288	0.0001367	0.00055621	9.523e-05	1156.6	3.3187e-06	2.5942e-06	1246.4	238.29	4.8187e-06	5.346e-06	299.43	83.758	67.125	19.866	3.0505e-06	27.466	0.00028186	0.00028513	8.1172e-05	1132.3	3.2693e-06	3.2592e-06	1224.2	235.5	3.2736e-06	3.309e-06	294.69	84.631	67.05	20.224	3.2724e-06	27.851	146.052	70.830	139.395	25.574	185.232	139.510	25.756	32.819	169.461	157.823	32.893	39.686	39.916	47.163	214.859	45.787	-8191	255	
28200.488	1	1	0	0	0.11898	0.11171	0.15975	0.24939	0.27512	0.1056	0.19033	0.14395	0.13602	0.15009	0.19658	0.1845	0.14195	0.12205	0.16836	0.12753	-1.1396	-2.0958	-1.6271	-1.9583	-2.0083	-1.5167	-2.275	-1.875	-1.3438	-2.3833	-1.4771	-1.9167	-2.2708	-1.5688	-2.2083	-1.9479	233.428	370.171	203.092	334.178	234.646	34.681	293.100	212.687	337.951	127.570	370.184	84.038	34.176	138.639	247.797	108.673	0.00013966	0.00053979	0.00012657	1160	4.9799e-06	4.2118e-07	1245.3	236.54	3.9175e-06	8.7411e-06	298.44	84.412	66.805	20.054	3.4282e-06	27.303	0.00028932	0.00030329	8.3835e-05	1132.7	3.2792e-06	3.2393e-06	1223.4	234.86	3.281e-06	3.1638e-06	294.28	84.531	66.813	20.25	3.1038e-06	27.697	171.688	83.432	169.819	25.759	203.876	118.625	25.917	33.135	189.763	187.402	32.707	39.862	39.679	46.670	210.540	46.298	-8191	255	
28200.609	1	1	0	0	0.13423	0.16846	0.11693	0.13552	0.19577	0.29577	0.2314	0.09021	0.10922	0.1129	0.33227	0.11864	0.18284	0.099741	0.084203	0.22484	-0.98958	-2.3438	-1.475	-1.9438	-2.0208	-1.3438	-2.1104	-2.1521	-1.4083	-2.1208	-1.65	-1.9333	-2.1229	-1.6187	-2.1271	-1.9875	272.176	292.055	21.019	285.321	97.151	39.168	228.642	264.976	28.486	302.200	318.391	318.726	86.071	273.053	336.225	295.079	0.00019492	0.00044246	0.00012725	1159.1	2.9705e-06	7.6543e-06	1245.7	236.88	3.6248e-06	5.0706e-06	296.67	84.402	67.211	19.989	3.6186e-06	27.459	0.0002769	0.000286	7.9707e-05	1131.4	3.0681e-06	3.0022e-06	1220.7	234.24	3.0156e-06	2.9875e-06	293.13	84.62	66.652	20.161	3.0209e-06	27.753	160.453	28.675	116.291	25.699	205.938	181.395	26.028	33.101	161.201	92.048	32.729	39.770	39.512	46.918	190.758	46.149	-8191	255	
28200.705	1	1	0	0	0.31378	0.21952	0.12523	0.14041	0.1643	0.10104	0.14525	0.21019	0.073205	0.21106	0.19047	0.091325	0.30611	0.091854	0.096165	0.24592	-0.91667	-2.0458	-1.5583	-1.5812	-2.2	-1.5688	-2.0875	-2.0125	-1.3438	-2.2396	-1.6917	-1.4875	-2.3125	-1.6021	-1.8708	-2.3187	63.932	286.709	191.454	301.176	93.353	86.564	258.656	370.048	175.955	266.237	288.205	260.651	232.034	149.499	166.003	191.549	0.00018111	0.00038957	7.8244e-05	1155.5	2.3004e-06	1.3841e-06	1246.6	236	2.5251e-06	2.1585e-06	297.13	84.027	66.421	19.93	5.11e-06	27.383	0.00027162	0.00028212	7.7252e-05	1129.7	3.0822e-06	3.0569e-06	1221.3	233.94	3.0182e-06	3.001e-06	293.23	84.441	66.609	20.15	2.9719e-06	27.697	144.817	101.171	101.024	25.349	217.199	155.541	25.395	32.645	190.934	199.160	32.112	39.420	39.416	46.585	194.296	45.679	-8191	255	
28200.775	1	1	0	0	0.23954	0.19629	0.13179	0.223	0.22811	0.087612	0.25643	0.19553	0.13546	0.11931	0.17651	0.15434	0.4117	0.15062	0.085063	0.1374	-0.98542	-2.1	-1.8583	-1.425	-2.2687	-1.5208	-2.0687	-2.0979	-1.35	-2.2021	-1.8521	-1.4542	-2.1479	-1.5542	-1.7604	-2.2062	55.135	224.051	287.084	348.302	131.743	249.908	368.930	297.924	358.406	354.523	121.266	122.848	53.507	359.717	154.127	223.671	0.00017368	0.00026961	6.34e-05	1159.6	1.0548e-06	5.9312e-06	1240.3	235.91	2.9986e-06	4.3148e-06	296.52	83.812	66.767	19.899	3.1169e-06	27.164	0.00026752	0.00026551	7.6114e-05	1131.1	2.9699e-06	2.9862e-06	1217.9	233.86	3.022e-06	2.9681e-06	292.95	84.462	66.656	20.173	3.0698e-06	27.713	134.582	70.664	125.524	25.305	356.351	170.434	25.492	32.716	135.246	164.750	32.408	39.182	39.470	45.999	157.679	46.330	-8191	255	
28200.873	1	1	0	0	0.15757	0.13888	0.18946	0.15406	0.045865	0.23811	0.17565	0.061347	0.041983	0.06985	0.1715	0.096256	0.30713	0.045436	0.23008	0.032907	-0.80208	-2.0938	-1.9	-1.5396	-2.2708	-1.8167	-1.6688	-2.2188	-1.3479	-1.9729	-2.075	-1.6938	-2.1396	-1.7604	-1.6021	-2.35	350.289	267.490	26.497	349.703	198.558	135.720	367.201	298.326	212.768	177.655	368.283	333.801	363.365	164.511	211.292	119.315	0.00013687	0.00023287	8.9097e-05	1159.6	3.4567e-06	3.9259e-06	1242.7	236.37	1.6289e-06	3.7659e-06	295.83	83.604	66.5	20.019	2.3606e-06	27.496	0.00026754	0.00026947	7.6762e-05	1130.9	3.0138e-06	2.9999e-06	1220.6	234.3	3.0003e-06	2.8704e-06	292.83	84.19	66.493	20.168	2.929e-06	27.668	140.170	249.992	101.336	25.234	191.118	211.871	25.419	32.840	140.805	151.704	32.539	39.139	39.830	46.488	117.820	45.998	-8191	255	
28200.990	1	1	0	0	0.18245	0.097601	0.03984	0.14188	0.12235	0.13838	0.041118	0.24933	0.12139	0.096804	0.20301	0.25828	0.16856	0.12133	0.15948	0.29111	-1.1146	-1.9937	-2	-1.6104	-2.2417	-1.6625	-1.7125	-2.2812	-1.3813	-1.8563	-2.3771	-1.4083	-2.1229	-1.9146	-1.5333	-2.2146	213.246	191.377	31.386	315.149	319.686	88.378	178.124	312.473	100.690	74.515	76.702	19.222	236.032	360.315	194.724	320.793	0.00015397	0.00063099	5.4365e-05	1156	1.023e-06	4.0323e-06	1239.5	236.56	4.1378e-06	6.1032e-06	297.61	84.093	66.863	20.017	2.4931e-06	27.173	0.00026968	0.00027271	7.4711e-05	1127.7	2.9632e-06	2.966e-06	1217	234.07	3.0124e-06	2.9465e-06	293.56	84.328	66.738	20.169	2.9406e-06	27.639	145.580	86.677	100.649	25.190	212.815	164.362	25.333	32.902	222.113	186.150	32.474	39.652	39.981	46.339	170.002	46.432	-8191	255	
28201.088	1	1	0	0	0.20636	0.21667	0.021148	0.19153	0.049349	0.26883	0.10092	0.006135	0.11882	0.19444	0.27419	0.2867	0.080005	0.26514	0.13227	0.041418	-1.1125	-1.7729	-2.1396	-1.4625	-2.1604	-1.8625	-1.4667	-2.4813	-1.5458	-1.8417	-2.2667	-1.4417	-2.2062	-2.0146	-1.5958	-2.2271	97.690	256.882	43.156	352.832	187.807	110.038	251.767	329.035	356.807	359.835	149.904	361.554	306.795	346.982	197.031	43.619	0.0001792	0.00039795	4.4762e-05	1155.4	3.6299e-06	3.5152e-06	1242.1	236.55	2.7861e-06	2.5993e-06	299.01	83.909	66.031	19.768	4.9288e-06	27.451	0.00026669	0.00026929	7.4729e-05	1128.9	2.8732e-06	2.9027e-06	1217.3	233.85	2.9384e-06	2.8303e-06	293.4	84.257	66.475	20.083	2.9158e-06	27.667	150.437	103.616	35.181	25.545	166.889	121.105	25.771	33.368	214.489	146.976	32.782	39.520	40.217	46.599	171.170	46.230	-8191	255	
28201.184	1	1	0	0	0.059956	0.14518	0.070198	0.18118	0.15879	0.24348	0.12783	0.38252	0.22121	0.15466	0.33548	0.096408	0.17847	0.19047	0.087042	0.23599	-1.0917	-1.5583	-2.3958	-1.6625	-1.8312	-1.9188	-1.5292	-2.4875	-1.6187	-1.6917	-2.2354	-1.4354	-2.0896	-2.2479	-1.3875	-2.2812	165.566	69.624	268.332	264.060	361.332	160.849	330.753	347.305	23.317	221.041	89.503	244.245	343.374	346.662	189.573	53.238	0.00019383	0.00046814	5.6376e-05	1155.3	2.0136e-06	3.8356e-06	1242.5	235.67	1.1274e-06	1.6353e-06	296.88	84.205	66.662	19.928	4.5618e-06	27.412	0.00025641	0.00026288	7.1747e-05	1127.8	2.8375e-06	2.8265e-06	1217	233.69	2.8118e-06	2.7868e-06	292.12	84.158	66.437	20.135	2.7778e-06	27.649	139.195	85.964	114.920	25.907	188.125	196.322	25.710	33.011	190.192	244.032	32.631	39.426	39.976	46.763	212.892	46.187	-8191	255	
28201.279	1	1	0	0	0.18592	0.14052	0.21814	0.16859	0.08965	0.32586	0.19964	0.11369	0.32665	0.19048	0.11602	0.22642	0.26626	0.23525	0.22705	0.13297	-1.2875	-1.6812	-2.0875	-1.5458	-1.7083	-1.9979	-1.3583	-2.4396	-1.7958	-1.5375	-2.3271	-1.4479	-2.0104	-2.2313	-1.3062	-2.225	102.698	142.891	324.385	149.014	97.779	102.647	151.247	373.689	237.914	80.688	299.902	75.377	318.844	302.986	160.206	163.197	0.00014197	0.00021655	8.7374e-05	1151.4	4.6373e-06	5.0163e-06	1240.5	234.98	3.9355e-06	3.1555e-06	296.96	83.514	66.115	19.859	1.7927e-06	27.454	0.00024203	0.00025176	6.9266e-05	1125.4	2.7761e-06	2.7828e-06	1214.3	233.34	2.8785e-06	2.7564e-06	292.77	84.022	66.214	20.061	2.8476e-06	27.64	168.668	83.406	81.479	25.183	204.271	167.130	25.389	32.906	123.286	142.980	32.690	39.365	40.094	46.424	207.059	46.243	-8191	255	
28201.400	1	1	0	0	0.09737	0.09026	0.17757	0.35643	0.078768	0.091948	0.30426	0.21216	0.18481	0.13903	0.080925	0.054913	0.045969	0.14001	0.060812	0.30431	-1.4271	-1.4375	-2.3125	-1.7125	-1.6958	-2.2812	-1.6271	-2.2146	-1.8375	-1.3771	-2.1979	-1.5167	-1.5083	-2.2542	-1.35	-2.0792	366.509	248.372	239.315	337.961	183.404	136.694	344.143	129.080	110.224	67.123	237.859	183.460	365.818	152.878	35.306	203.262	0.0001602	0.000282	0.00012133	1149.3	1.5114e-06	3.9972e-06	1239	236.35	2.1614e-06	1.1467e-06	297.57	83.924	66.279	20.081	3.4194e-06	27.529	0.00024834	0.00025658	7.1091e-05	1123.5	2.7842e-06	2.7491e-06	1215.1	233.47	2.7803e-06	2.6959e-06	291.9	83.818	66.407	20.095	2.676e-06	27.644	149.315	100.002	138.781	25.303	158.236	135.334	25.426	33.004	171.311	244.305	32.896	39.534	40.000	46.574	181.322	46.265	-8191	255	
28201.473	1	1	0	0	0.049983	0.13111	0.1903	0.19379	0.26976	0.22555	0.10972	0.39281	0.14412	0.18361	0.19404	0.054675	0.034953	0.27097	0.19641	0.075012	-1.4333	-1.375	-2.1083	-1.8271	-1.6063	-2.3875	-1.6833	-2.1667	-2.0896	-1.4375	-2.2417	-1.7896	-1.5479	-2.2458	-1.3167	-1.9354	220.374	242.114	120.322	298.223	351.466	316.620	258.195	260.928	64.567	69.356	351.804	78.762	281.215	63.477	60.434	64.260	0.00016424	0.0001553	7.9384e-05	1153.6	1.8623e-06	5.1354e-06	1237.4	235.28	1.4337e-06	3.2664e-06	296.68	83.972	66.511	19.81	3.5403e-06	27.273	0.00024387	0.00025293	6.7111e-05	1126.1	2.7443e-06	2.6564e-06	1213.2	232.91	2.7528e-06	2.7334e-06	291.99	84.052	66.346	20.039	2.6815e-06	27.601	158.830	98.414	131.140	25.420	201.477	176.433	25.487	32.893	153.180	169.195	32.471	39.894	40.386	46.634	134.783	46.756	-8191	255	
28201.568	1	1	0	0	0.23956	0.25607	0.1763	0.49393	0.10781	0.1113	0.15458	0.21491	0.16253	0.030461	0.039645	0.13202	0.22631	0.13677	0.16886	0.11801	-1.5562	-1.2792	-2.2938	-1.8833	-1.3729	-2.2333	-1.8042	-1.9021	-2.3521	-1.4188	-2.0938	-1.9312	-1.4167	-2.1625	-1.4438	-1.7646	209.518	266.725	147.659	357.734	92.975	116.684	371.039	303.120	42.139	63.086	169.815	289.693	54.794	217.829	179.217	272.104	0.00018501	0.00031134	7.0338e-05	1150.5	3.2573e-06	1.8964e-06	1237.2	234.41	3.6099e-06	3.3133e-06	296.41	84.115	66.658	20.025	1.5628e-06	27.394	0.00024762	0.00024461	6.8814e-05	1124.2	2.7403e-06	2.685e-06	1212.5	232.46	2.7186e-06	2.6216e-06	292.22	83.993	66.373	20.065	2.6501e-06	27.594	143.216	123.095	79.829	25.612	186.062	52.503	25.826	33.321	201.537	77.350	33.016	39.796	40.150	46.784	121.418	46.251	-8191	255	
28201.689	1	1	0	0	0.089193	0.18035	0.20421	0.085856	0.12901	0.26709	0.34432	0.096528	0.09428	0.075902	0.11891	0.34382	0.095741	0.16491	0.33297	0.096975	-1.9583	-1.4	-2.1688	-2.0625	-1.3188	-2.25	-1.8792	-1.8667	-2.0917	-1.5812	-2.1229	-2.0354	-1.5146	-2.2417	-1.5854	-1.7333	65.477	69.874	52.796	38.172	320.347	102.384	299.604	271.043	374.176	204.166	37.340	124.253	228.345	20.186	155.791	345.866	0.00016517	0.00039114	8.7631e-05	1147	1.5134e-06	2.7462e-06	1242.1	235.99	2.034e-06	6.2711e-06	296.81	84.265	66.246	19.768	2.6577e-06	27.412	0.00023746	0.00024409	6.6215e-05	1122.6	2.6706e-06	2.6772e-06	1212.7	233.27	2.666e-06	2.6727e-06	291.51	84.039	66.087	20.024	2.6956e-06	27.638	151.906	92.946	98.836	25.560	137.437	153.624	25.822	33.288	287.424	144.588	33.274	39.726	39.363	46.585	201.877	46.175	-8191	255	
28201.785	1	1	0	0	0.055667	0.38467	0.10414	0.16943	0.11785	0.26915	0.2162	0.26838	0.24215	0.12627	0.16031	0.12107	0.14998	0.26904	0.24157	0.071295	-1.7292	-1.4104	-1.9417	-2.1604	-1.1437	-2.2646	-1.8354	-1.5458	-2.1021	-1.5187	-1.9521	-1.9792	-1.4271	-2.1437	-1.8708	-1.4271	366.866	59.064	293.329	365.002	232.141	159.837	62.933	302.958	94.862	56.465	87.263	369.579	37.183	54.491	127.316	365.730	0.00014903	0.00014996	7.8264e-05	1149.7	2.7307e-06	6.1397e-06	1233.2	234.91	7.1071e-07	3.8416e-06	293.97	83.86	66.057	19.75	2.3088e-06	27.299	0.00023827	0.00024019	6.8434e-05	1122.8	2.6941e-06	2.6617e-06	1210.5	232.61	2.7013e-06	2.662e-06	290.73	83.77	66.105	19.987	2.613e-06	27.561	147.622	86.259	113.999	25.533	230.736	136.392	25.024	33.086	262.373	136.681	32.862	39.264	39.841	46.477	127.447	46.223	-8191	255	
28201.881	1	1	0	0	0.19018	0.24298	0.13895	0.26084	0.23648	0.20041	0.19134	0.44305	0.15035	0.052961	0.14039	0.061412	0.15062	0.15322	0.1095	0.042521	-1.8292	-1.5417	-1.7875	-2.2083	-1.325	-2.0854	-1.9833	-1.4625	-2.2146	-1.3917	-1.8771	-2.025	-1.5229	-2.1437	-1.85	-1.4875	58.589	191.372	152.310	340.955	320.158	52.606	166.706	360.352	189.528	158.424	38.884	151.795	371.819	93.038	220.095	105.584	0.00016248	0.00031301	0.00011377	1152.9	1.7576e-06	3.5985e-06	1234.5	233.97	3.3357e-06	2.6703e-06	295.14	83.688	66.27	19.686	5.1219e-06	27.298	0.00023866	0.00024041	6.7802e-05	1122.5	2.7327e-06	2.5732e-06	1211.1	232.78	2.6473e-06	2.6696e-06	291.59	83.895	66.229	19.999	2.6723e-06	27.524	157.630	63.996	126.593	25.360	199.720	118.210	25.585	32.818	209.474	188.592	32.521	39.008	39.791	46.453	181.971	45.976	-8191	255	
28201.977	1	1	0	0	0.063293	0.18812	0.1016	0.23791	0.33681	0.20705	0.32554	0.1178	0.22067	0.18875	0.083708	0.21609	0.1032	0.0071779	0.17195	0.2719	-1.8104	-1.7208	-1.7313	-2.3625	-1.325	-1.9833	-2.1042	-1.5021	-2.1583	-1.5354	-1.6729	-2.3187	-1.4875	-2.0312	-2.0708	-1.4333	217.386	145.819	132.383	84.654	125.843	130.499	285.381	297.172	245.876	334.120	333.721	361.229	344.097	106.764	306.336	357.280	0.00014289	0.00062312	9.5232e-05	1151	4.4511e-06	4.3514e-06	1234.4	233.98	4.4839e-06	4.0128e-06	295.8	83.56	66.001	19.829	1.56e-06	27.403	0.00024027	0.00024497	6.7686e-05	1124.6	2.7476e-06	2.7091e-06	1210.1	232.53	2.7292e-06	2.772e-06	291.85	83.937	66.166	20.085	2.8065e-06	27.604	157.598	110.913	94.537	25.346	158.347	213.107	25.494	32.765	202.187	198.240	32.528	39.378	39.652	46.618	191.096	46.376	-8191	255	
28202.074	1	1	0	0	0.12374	0.085491	0.26543	0.10634	0.43652	0.049207	0.098869	0.076404	0.10501	0.050989	0.27739	0.42141	0.0099411	0.24591	0.14651	0.084936	-1.8292	-1.7542	-1.5688	-2.3479	-1.4583	-2.0312	-2.0542	-1.3375	-2.2417	-1.6	-1.5729	-2.1396	-1.2354	-1.9167	-2.0542	-1.3479	220.457	264.205	189.898	318.868	320.648	286.387	276.398	20.475	232.466	30.951	351.463	336.364	73.851	227.289	96.163	216.360	0.00015642	0.00022159	9.5091e-05	1145.4	2.7131e-06	7.5109e-06	1240	235.13	2.3232e-06	1.9893e-06	296.77	83.85	66.221	19.903	4.2388e-06	27.314	0.00024248	0.00024935	7.0174e-05	1123.3	2.7998e-06	2.7902e-06	1211.7	232.95	2.7256e-06	2.6929e-06	291.88	84.001	66.393	20.094	2.8008e-06	27.548	152.618	52.111	131.825	25.380	204.924	134.624	25.504	32.474	168.828	113.105	32.782	39.472	39.701	46.682	177.222	45.906	-8191	255	
28202.168	1	1	0	0	0.21309	0.024069	0.14467	0.35327	0.058047	0.25199	0.25288	0.33844	0.28069	0.16625	0.078657	0.11425	0.069197	0.28563	0.21415	0.15919	-1.5583	-1.7479	-1.4562	-2.4229	-1.5812	-1.7062	-2.1917	-1.5646	-2.0104	-1.9937	-1.5271	-2.2854	-1.6437	-1.7708	-2.2354	-1.5375	244.332	111.600	166.021	354.074	68.637	328.990	349.214	35.914	18.227	135.155	186.927	279.683	15.183	16.041	131.850	204.200	0.00014055	0.0001548	2.2651e-05	1154.4	2.3585e-06	5.5838e-06	1233.5	235.35	2.6667e-06	4.7132e-06	295.29	83.314	66.043	19.903	3.719e-06	27.236	0.00025519	0.00025346	7.1855e-05	1126	2.7826e-06	2.7358e-06	1213.3	233.01	2.7851e-06	2.7951e-06	292.33	83.892	66.32	20.106	2.8861e-06	27.527	162.053	159.379	103.149	25.243	173.485	227.691	25.585	32.397	156.328	176.108	32.400	39.369	39.631	46.363	164.522	46.363	-8191	255	
28202.289	1	1	0	0	0.14672	0.21016	0.26398	0.22488	0.11542	0.0762	0.2414	0.34956	0.27249	0.27502	0.12767	0.298	0.14626	0.10729	0.14815	0.15025	-1.7229	-1.8146	-1.3375	-2.3854	-1.5667	-1.4542	-2.4333	-1.4792	-2.0021	-2.0083	-1.4188	-2.2396	-1.5479	-1.6	-2.1125	-1.6229	220.629	155.280	73.690	311.613	67.224	87.887	250.597	260.692	324.467	266.483	313.717	256.714	40.484	329.314	39.426	332.262	0.00015569	0.00041778	0.00011523	1151.8	4.9775e-06	1.9022e-06	1236.5	234.83	1.7692e-06	5.6613e-06	297.33	83.713	66.065	19.853	2.21e-06	27.35	0.00024953	0.00025636	7.342e-05	1125.3	2.8648e-06	2.8568e-06	1211.6	233	2.8263e-06	2.8306e-06	292.63	83.981	66.425	20.112	2.8538e-06	27.636	141.180	66.237	125.688	25.178	179.187	151.658	25.392	32.698	216.824	117.593	32.391	39.213	39.640	46.542	191.386	45.983	-8191	255	
28202.385	1	1	0	0	0.2744	0.13848	0.1428	0.17513	0.18271	0.17782	0.099366	0.1124	0.28535	0.29743	0.31404	0.1785	0.24236	0.26142	0.17067	0.30027	-1.4208	-2.0833	-1.3375	-2.3625	-1.6396	-1.4312	-2.6312	-1.5979	-1.7542	-1.8625	-1.3646	-2.1208	-1.9833	-1.4708	-2.3021	-1.5542	299.898	373.428	236.145	24.414	295.904	350.488	218.894	94.536	37.773	315.879	352.651	116.767	184.101	293.633	76.724	246.168	0.00018118	0.00043021	6.9758e-06	1145.2	1.7998e-06	1.4881e-06	1237.9	236.15	1.3289e-06	5.7629e-06	296.34	84.15	66.528	20.007	2.4081e-06	27.203	0.00025646	0.00026117	7.25e-05	1123.2	2.8173e-06	2.8551e-06	1214.2	233.43	2.8099e-06	2.7956e-06	292.07	84.032	66.367	20.069	2.8401e-06	27.568	149.436	96.371	28.710	25.328	240.688	181.570	25.134	32.787	207.975	137.398	32.304	39.158	39.460	46.243	174.376	45.874	-8191	255	
28202.480	1	1	0	0	0.032356	0.18766	0.07953	0.060629	0.11774	0.38307	0.34909	0.17899	0.15471	0.22937	0.075989	0.10185	0.12238	0.13193	0.28385	0.048168	-1.1292	-2.1021	-1.2417	-2.2896	-1.8917	-1.3813	-2.4771	-1.6562	-1.7875	-2.1208	-1.5604	-2.1021	-1.9	-1.6437	-2.0938	-1.6688	187.641	74.011	124.307	158.707	120.816	146.124	369.580	137.430	137.565	21.519	200.461	28.711	134.281	17.146	236.968	164.397	0.00017157	0.00048384	7.4977e-05	1153.2	1.2667e-06	3.068e-06	1236.1	235.37	1.3024e-06	2.0801e-06	297	83.434	65.894	19.721	2.454e-06	27.431	0.00025736	0.00025722	7.2181e-05	1126.6	2.8445e-06	2.8012e-06	1212.9	233.28	2.8685e-06	2.8077e-06	292.25	84.191	66.264	20.089	2.878e-06	27.672	154.760	105.378	89.143	25.313	202.223	172.197	25.437	32.580	165.191	220.025	32.653	39.524	39.952	46.391	109.487	46.163	-8191	255	
28202.576	1	1	0	0	0.24699	0.38563	0.030638	0.13894	0.22415	0.14909	0.27075	0.23029	0.36152	0.11526	0.31323	0.16335	0.05284	0.30407	0.091954	0.32361	-1.3354	-2.45	-1.4479	-2.2458	-2.0354	-1.4583	-2.3229	-1.9188	-1.4708	-2.2917	-1.5833	-2.0729	-2.1479	-1.2979	-2.1208	-1.75	44.644	268.650	298.912	316.958	94.850	132.143	308.493	294.133	330.824	210.489	337.064	257.583	327.149	106.869	195.544	363.664	0.00019853	0.00041031	7.4688e-06	1153.2	1.5109e-06	4.4104e-06	1237.1	236.52	4.3831e-06	8.7895e-07	297.05	83.464	66.085	19.975	1.7743e-06	27.334	0.00025989	0.00026847	7.4798e-05	1125.5	2.9578e-06	2.9559e-06	1213	233.37	2.8756e-06	2.8954e-06	292.8	84.209	66.391	20.096	2.9007e-06	27.654	156.225	137.166	103.271	25.269	223.482	201.937	25.679	32.664	182.578	144.817	32.734	39.331	39.865	47.102	152.776	46.083	-8191	255	
28202.697	1	1	0	0	0.24541	0.16341	0.22318	0.13346	0.091124	0.10261	0.089831	0.20566	0.078685	0.081943	0.36474	0.23915	0.038295	0.30014	0.094995	0.24923	-1.075	-1.9958	-1.3813	-2.0958	-2.0167	-1.2542	-2.2896	-1.9542	-1.35	-2.0771	-1.5854	-1.8521	-2.1937	-1.5792	-2.025	-1.9854	23.203	281.592	322.793	348.961	186.640	25.744	300.367	256.234	80.555	150.824	77.111	356.648	318.099	370.763	171.795	364.005	0.00017272	0.0003452	0.00014179	1148.5	2.7876e-06	4.1871e-06	1237.8	235.19	1.1626e-06	1.0699e-06	295.6	83.941	66.691	19.802	2.3769e-06	27.555	0.00025696	0.00026677	7.3186e-05	1124.7	2.9185e-06	2.9233e-06	1213.5	233.56	2.9376e-06	2.8404e-06	292.01	84.133	66.572	20.083	2.8447e-06	27.709	143.689	125.068	81.302	25.368	141.369	85.576	25.594	32.895	192.002	182.396	32.556	39.429	40.016	46.309	103.114	45.895	-8191	255	
28202.770	1	1	0	0	0.15381	0.10684	0.25147	0.19722	0.037859	0.16249	0.1018	0.18966	0.2525	0.1555	0.12725	0.30796	0.3192	0.27556	0.13112	0.28416	-0.94583	-2.4125	-1.5104	-1.8687	-2.3104	-1.5396	-2.1896	-1.8958	-1.3458	-2.2	-1.9479	-1.7146	-2.2	-1.5521	-2.0208	-2.0271	175.487	329.662	260.654	243.556	176.260	312.717	243.769	293.034	252.544	307.514	149.732	348.801	20.487	187.117	360.370	54.664	0.00021521	0.00034815	4.9183e-05	1153.6	2.9439e-06	2.9994e-06	1242.9	235.44	4.6574e-06	2.85e-06	295.32	83.838	66.295	19.971	1.9186e-06	27.234	0.00026701	0.00026053	7.4016e-05	1126.7	2.9018e-06	2.8926e-06	1216.9	233.54	2.9622e-06	2.9248e-06	292.38	84.251	66.413	20.164	2.9244e-06	27.623	143.441	28.486	77.324	25.142	162.765	133.766	25.438	32.818	187.732	224.425	32.456	39.541	39.805	46.308	69.461	46.022	-8191	255	
28202.865	1	1	0	0	0.063176	0.18978	0.14179	0.21829	0.15029	0.22484	0.21788	0.11145	0.16721	0.044561	0.29668	0.14741	0.049241	0.2397	0.24755	0.31397	-0.87708	-2.3292	-1.6688	-1.7271	-2.1729	-1.5146	-1.8188	-2.225	-1.3667	-1.9583	-1.8604	-1.5063	-2.3292	-1.625	-1.9667	-2.1896	90.328	215.129	37.226	347.118	355.333	56.491	296.257	35.531	352.451	122.557	19.832	314.444	275.301	242.431	154.902	216.134	0.00016219	0.00027022	0.00011309	1153	6.8483e-06	3.7156e-06	1240	235.71	4.1232e-06	2.4214e-06	296.81	83.936	66.067	19.995	1.2348e-06	27.413	0.00026342	0.00026864	7.4082e-05	1125.4	2.9513e-06	2.936e-06	1217.6	233.59	2.9585e-06	2.8884e-06	292.44	84.27	66.191	20.114	2.8892e-06	27.621	160.137	55.414	70.744	25.551	213.571	132.766	25.669	32.713	182.783	240.487	32.807	39.854	39.957	46.859	24.891	46.286	-8191	255	
28202.963	1	1	0	0	0.082191	0.24909	0.10953	0.30582	0.19313	0.11869	0.12664	0.025019	0.020698	0.21101	0.1274	0.17045	0.29568	0.19357	0.074901	0.08137	-1.0917	-2.0854	-1.725	-1.4458	-2.2396	-1.4479	-1.7958	-2.4625	-1.2583	-1.9646	-1.9521	-1.45	-2.2125	-1.6167	-1.7625	-2.1854	175.023	358.507	72.198	308.410	353.553	102.642	252.926	289.090	32.599	275.480	57.828	33.006	20.816	58.431	338.111	155.439	0.00017472	0.00042781	0.00016308	1153.6	5.1242e-06	2.9265e-06	1244.8	236.37	3.0392e-06	2.5607e-06	296.95	84.44	66.172	19.749	1.6161e-06	27.204	0.00026387	0.00026614	7.4302e-05	1125.2	2.9079e-06	2.9522e-06	1214.7	233.72	2.9803e-06	2.8565e-06	292.4	84.233	66.368	20.087	2.9156e-06	27.582	148.939	58.950	144.824	25.519	248.081	101.488	25.767	32.965	170.660	167.958	32.690	39.600	39.893	46.568	183.576	46.511	-8191	255	
28203.080	1	1	0	0	0.12036	0.15719	0.17265	0.11601	0.38698	0.19656	0.36603	0.14029	0.07291	0.33412	0.1762	0.039603	0.11962	0.21589	0.32387	0.10422	-0.84375	-1.9125	-1.9333	-1.4729	-2.0958	-1.625	-2.0292	-2.3312	-1.4396	-1.9375	-2.0542	-1.3792	-2.2667	-1.725	-1.5667	-2.1958	56.566	16.993	89.320	263.705	153.266	321.706	294.912	360.927	290.090	321.135	51.185	265.320	351.672	365.994	264.409	366.338	0.00017126	0.00019042	2.1979e-05	1153.7	6.7389e-06	5.1495e-07	1237.5	235.61	3.1206e-06	3.1455e-06	296.34	83.829	66.312	19.945	1.4771e-06	27.126	0.00026475	0.00026162	7.4131e-05	1127.4	2.9582e-06	2.8682e-06	1215.3	233.4	2.9374e-06	2.8747e-06	292.54	84.376	66.414	20.143	2.9559e-06	27.575	152.948	112.545	218.975	25.523	189.291	113.211	25.720	32.982	201.554	141.850	33.095	39.610	39.701	46.467	259.308	46.485	-8191	255	
28203.178	1	1	0	0	0.12638	0.081238	0.090051	0.16273	0.1239	0.25485	0.21876	0.038818	0.18514	0.31176	0.41178	0.13215	0.28657	0.26352	0.096213	0.1515	-1.1229	-1.9292	-2.0958	-1.3937	-2.0312	-1.6542	-1.7021	-2.2833	-1.2958	-1.7583	-2.2687	-1.5021	-2.1188	-1.7229	-1.3604	-2.4458	187.952	362.769	326.149	109.976	72.523	283.525	198.569	173.790	283.661	147.771	306.358	313.849	353.346	344.970	51.675	281.391	0.00017308	0.00042791	0.00014928	1149	3.0338e-06	3.8606e-06	1238.1	236.38	2.1954e-06	7.1781e-07	296.66	84.352	66.101	19.851	2.7426e-06	27.38	0.00026161	0.00026688	7.3584e-05	1124.8	2.914e-06	2.9825e-06	1215.7	234.03	2.9102e-06	2.8988e-06	292.5	84.303	66.226	20.063	2.9258e-06	27.608	141.866	51.267	117.620	25.540	172.947	217.272	25.912	32.961	198.443	196.254	32.688	39.307	40.050	46.198	224.822	46.463	-8191	255	
28203.273	1	1	0	0	0.16089	0.12372	0.29822	0.24476	0.22043	0.23104	0.15933	0.14933	0.13575	0.36702	0.15438	0.18175	0.077363	0.16991	0.36546	0.030022	-1.4083	-1.7417	-2.1354	-1.5	-2.3042	-1.8312	-1.7	-2.4125	-1.5208	-1.6354	-2.3292	-1.3792	-1.8396	-1.9458	-1.2563	-2.1542	127.315	283.437	107.224	370.376	203.303	242.184	287.345	333.788	85.748	263.999	141.051	340.568	196.672	237.189	20.750	83.826	0.00017977	0.00031315	8.1553e-05	1151.4	2.9667e-06	3.384e-06	1238.4	236.17	2.7704e-06	2.8856e-06	295.88	83.938	66.265	19.867	5.2933e-06	27.445	0.00025903	0.00025889	7.3907e-05	1125.2	2.9484e-06	2.8977e-06	1213.5	233.78	2.947e-06	2.9169e-06	292.06	84.201	66.466	20.056	2.9158e-06	27.716	147.216	72.886	101.993	25.558	172.212	269.964	25.469	33.047	204.752	164.560	32.651	39.713	39.969	46.643	188.969	46.357	-8191	255	
28203.369	1	1	0	0	0.30548	0.077986	0.084653	0.36204	0.14563	0.16898	0.32338	0.16243	0.30498	0.11401	0.047295	0.29379	0.17876	0.21458	0.22064	0.051876	-1.2188	-1.5792	-2.1917	-1.4458	-1.9312	-1.9833	-1.625	-2.0708	-1.6792	-1.5875	-2.4479	-1.6479	-2.0708	-2.0312	-1.3917	-2.2229	333.590	141.828	286.326	342.804	43.637	278.410	322.685	374.207	115.548	100.672	21.613	240.735	93.089	209.714	178.173	294.444	0.00016203	0.00025807	4.523e-05	1154.5	5.6689e-06	1.7736e-06	1236.5	234.5	3.474e-06	5.7059e-06	296.3	83.729	66.171	19.85	2.9487e-06	27.481	0.00026203	0.00026402	7.4265e-05	1125.4	2.9012e-06	2.8762e-06	1213.7	233.33	2.8731e-06	2.851e-06	292.46	83.847	66.414	20.034	2.9534e-06	27.667	143.691	64.743	122.815	25.422	211.646	185.944	25.550	32.995	189.781	159.130	32.524	39.241	39.882	46.330	213.728	46.108	-8191	255	
28203.465	1	1	0	0	0.23272	0.12441	0.26472	0.11979	0.26405	0.14958	0.25188	0.065877	0.044576	0.28345	0.086842	0.022876	0.33732	0.070401	0.14457	0.31596	-1.3438	-1.5688	-2.3292	-1.7188	-1.9396	-2.0958	-1.5375	-2.1625	-1.7458	-1.3708	-2.3021	-1.4917	-2.0167	-2.0583	-1.4688	-2.1813	52.768	32.896	362.123	90.468	281.896	46.623	336.149	95.779	345.876	19.717	29.383	102.190	361.525	67.912	318.009	255.089	0.00018588	4.546e-05	2.4387e-05	1152.2	2.853e-06	2.5359e-06	1240.6	234.89	9.7438e-07	6.562e-06	294.44	84.286	65.953	19.995	5.494e-06	27.38	0.00025475	0.0002683	7.2596e-05	1126.1	2.9234e-06	2.8996e-06	1213.4	233.31	2.8987e-06	2.9047e-06	291.58	84.205	66.253	20.101	2.8894e-06	27.578	161.453	58.507	180.134	25.226	151.436	114.467	25.495	32.913	86.300	171.813	32.720	39.602	39.876	46.821	165.445	46.084	-8191	255	
28203.561	1	1	0	0	0.217	0.19	0.35469	0.24722	0.33817	0.39815	0.19117	0.27454	0.064453	0.12536	0.077963	0.16904	0.098295	0.31276	0.088671	0.055719	-1.6625	-1.3167	-2.0979	-1.5208	-1.7333	-2.2729	-1.6	-2.2396	-1.9146	-1.4229	-2.2167	-1.7854	-1.5583	-2.2125	-1.5042	-1.9792	107.632	313.276	33.546	273.144	292.721	160.458	302.517	15.244	282.250	113.294	83.568	35.669	97.531	15.503	114.989	164.790	0.00012064	0.00024562	0.00011469	1153.5	4.329e-06	1.3394e-06	1238	236.28	2.4796e-06	2.1902e-06	296.13	83.658	66.339	19.964	1.3274e-06	27.273	0.00025345	0.0002614	7.2014e-05	1126.4	2.8945e-06	2.7889e-06	1215	233.62	2.9007e-06	2.8821e-06	292.43	83.919	66.515	20.087	2.8664e-06	27.646	170.281	367.483	127.123	25.296	196.549	172.032	25.335	32.884	221.112	369.709	32.667	39.528	39.729	46.651	165.112	46.238	-8191	255	
28203.656	1	1	0	0	0.088757	0.18264	0.19113	0.21266	0.24732	0.23462	0.23958	0.060491	0.19691	0.14955	0.4055	0.18055	0.20657	0.2274	0.12063	0.215	-1.7354	-1.2479	-2.2188	-1.5917	-1.4896	-2.1937	-1.5021	-1.9083	-2.0167	-1.3833	-2.3375	-1.5688	-1.4583	-2.4396	-1.2812	-1.7896	70.826	107.133	325.438	278.048	202.244	284.812	368.150	58.970	160.596	223.985	47.295	346.255	63.086	348.176	350.876	310.478	0.00015791	0.00028291	9.0846e-05	1147.5	2.2659e-06	4.8379e-06	1232	235.89	4.5278e-06	2.7371e-06	297.08	83.514	66.55	19.798	5.5426e-06	27.28	0.00025119	0.0002577	7.1325e-05	1121.7	2.8427e-06	2.7905e-06	1210.6	233.25	2.8158e-06	2.8822e-06	292.21	83.867	66.488	20.037	2.899e-06	27.52	146.334	81.687	133.851	25.054	223.219	208.659	25.367	32.748	218.779	141.296	32.405	39.088	39.913	46.627	192.173	46.125	-8191	255	
28203.777	1	1	0	0	0.23963	0.14025	0.13992	0.24062	0.19123	0.045748	0.41638	0.017564	0.23413	0.31208	0.03052	0.17879	0.23144	0.26154	0.32579	0.042972	-1.6083	-1.4458	-2.0167	-1.8	-1.4375	-2.2542	-1.65	-1.7646	-2.0375	-1.3667	-2.1208	-1.8375	-1.2833	-2.1458	-1.4104	-1.675	166.830	370.730	140.983	243.629	273.532	43.720	278.697	298.284	147.394	30.843	315.674	32.207	268.113	326.384	39.898	226.089	0.00014366	0.00011028	7.7509e-05	1150.4	2.0781e-06	2.8478e-06	1235.3	235.94	3.5547e-06	3.3142e-06	298.42	82.774	65.817	19.658	3.2181e-06	27.135	0.00025711	0.00026511	7.3277e-05	1124.4	2.882e-06	2.8569e-06	1212.9	233.86	2.8671e-06	2.883e-06	292.47	83.954	66.175	19.992	2.7942e-06	27.456	150.970	139.678	45.797	25.223	191.356	151.212	25.394	33.015	187.175	258.389	32.473	39.173	40.083	46.395	158.286	46.433	-8191	255	
28203.873	1	1	0	0	0.31509	0.10219	0.0098792	0.17004	0.063262	0.19911	0.23931	0.29579	0.074873	0.39863	0.12452	0.25423	0.11527	0.070445	0.19573	0.083353	-1.7437	-1.2062	-2.1208	-1.9479	-1.5063	-2.3104	-1.6958	-1.7979	-2.2646	-1.3771	-1.9146	-1.9688	-1.4354	-2.1208	-1.4958	-1.7729	145.986	257.810	127.447	366.679	75.040	152.050	211.017	328.796	263.699	256.368	71.539	323.323	90.323	348.479	56.259	326.028	0.00016851	0.0002508	9.2736e-05	1150.2	8.9567e-07	1.9633e-06	1236.1	235.99	3.3333e-06	3.0088e-06	295.54	83.488	65.954	19.921	1.9474e-06	27.356	0.00025206	0.00026413	7.154e-05	1122.7	2.8628e-06	2.8124e-06	1213.6	233.38	2.7824e-06	2.8424e-06	291.43	83.862	66.265	20.056	2.8705e-06	27.55	159.938	115.572	90.444	25.332	103.557	100.592	25.222	33.184	245.062	162.451	32.664	39.359	40.211	46.671	196.402	46.172	-8191	255	
28203.971	1	1	0	0	0.13322	0.039617	0.39919	0.26632	0.13712	0.13851	0.28413	0.16046	0.10095	0.10272	0.21512	0.19898	0.16128	0.13315	0.14928	0.33322	-1.8271	-1.3604	-1.8417	-2.2313	-1.2875	-2.1708	-1.7104	-1.3625	-2.25	-1.4188	-1.7396	-1.9354	-1.4271	-2.3125	-1.7208	-1.4854	160.734	30.705	50.748	351.980	56.322	104.679	306.507	345.490	294.043	181.333	101.539	278.734	27.883	305.255	309.582	312.037	0.00020126	0.00010794	6.1877e-05	1148	2.3371e-06	2.2955e-06	1232.8	235.22	3.3621e-06	1.9616e-06	298.23	83.597	65.962	19.909	2.6796e-06	27.304	0.00025251	0.00025887	7.1754e-05	1121.8	2.8908e-06	2.8488e-06	1210.7	233.53	2.9142e-06	2.8449e-06	292.92	83.786	66.17	20.057	2.9014e-06	27.538	147.947	70.443	102.400	25.351	212.295	192.804	25.780	33.023	142.607	115.475	32.159	39.465	39.899	46.574	187.961	46.295	-8191	255	
28204.064	1	1	0	0	0.052903	0.16921	0.11194	0.31505	0.071294	0.16905	0.17973	0.16293	0.082382	0.16196	0.3129	0.22723	0.095033	0.147	0.17768	0.032567	-2.0167	-1.5104	-1.8813	-2.2646	-1.4479	-2.1063	-2.1375	-1.4833	-2.3604	-1.5063	-1.7167	-2.2062	-1.3958	-2.15	-1.9208	-1.4813	330.886	52.928	63.331	361.513	373.633	238.768	293.959	351.640	167.326	324.694	346.782	284.515	40.751	370.345	296.431	265.831	0.00018121	0.00063385	7.6041e-05	1152.5	3.165e-06	1.6839e-06	1239.4	236.13	2.7325e-06	3.1989e-06	298.93	83.062	66.287	19.87	3.6833e-06	27.324	0.00025198	0.0002642	7.1582e-05	1124.4	2.9417e-06	2.8293e-06	1213.8	233.35	2.8494e-06	2.905e-06	292.86	83.767	66.525	20.071	2.9358e-06	27.572	153.505	87.123	93.385	25.320	185.103	356.048	25.703	33.035	233.605	227.927	32.761	39.705	39.914	46.782	132.526	46.350	-8191	255	
28204.160	1	1	0	0	0.30452	0.33586	0.28618	0.14904	0.063497	0.10084	0.17241	0.16168	0.094086	0.11384	0.12884	0.065141	0.18411	0.17293	0.11118	0.06512	-1.85	-1.5562	-1.6271	-2.1312	-1.2583	-2.0896	-2.1708	-1.35	-2.1667	-1.5875	-1.6063	-2.2354	-1.4104	-2.0167	-1.9521	-1.4312	39.660	69.668	227.438	184.798	127.773	118.200	369.224	158.126	348.220	226.304	110.061	339.788	356.709	24.898	202.447	82.322	0.00019055	0.00018646	6.7371e-05	1152.7	1.3998e-06	2.5563e-07	1240.6	235.5	3.2824e-06	2.5456e-06	297.36	83.964	65.67	19.97	2.0179e-06	27.13	0.00026275	0.00026799	7.2374e-05	1126.4	2.9265e-06	2.9181e-06	1217	233.82	2.9431e-06	2.9101e-06	292.5	84.04	66.143	20.109	2.949e-06	27.537	158.414	20.107	100.908	25.229	148.260	31.886	25.240	33.006	191.556	157.159	32.863	39.156	39.843	46.737	179.183	45.733	-8191	255	
28204.258	1	1	0	0	0.27635	0.16715	0.21063	0.24982	0.070418	0.088773	0.3008	0.18979	0.098292	0.2104	0.181	0.13614	0.05154	0.082478	0.062539	0.17908	-1.6729	-1.7792	-1.6437	-2.1458	-1.5354	-1.8042	-2.2938	-1.3917	-2	-1.7354	-1.3875	-2.3208	-1.575	-1.95	-1.9937	-1.3396	206.500	299.296	19.656	363.891	30.320	37.638	282.162	263.674	61.093	102.585	247.798	21.004	171.843	35.540	350.098	260.199	0.00018418	0.00058969	6.071e-05	1147.4	3.92e-06	4.3944e-06	1236.4	236.08	3.765e-06	2.8421e-06	298.57	83.613	66.536	19.817	3.6044e-07	27.136	0.00026526	0.00026277	7.6247e-05	1121	3.0005e-06	2.9811e-06	1212.7	234.03	2.9342e-06	2.958e-06	293.01	83.846	66.329	19.995	2.8802e-06	27.57	164.116	124.616	49.708	25.309	124.768	160.420	25.277	33.023	154.003	197.829	32.692	39.402	39.461	46.779	153.948	46.055	-8191	255	
28204.379	1	1	0	0	0.16934	0.20116	0.089666	0.15384	0.1318	0.2539	0.29298	0.17735	0.28203	0.25	0.34257	0.10763	0.22487	0.25428	0.22048	0.15866	-1.6104	-1.8312	-1.4583	-2.3833	-1.5958	-1.9667	-2.5271	-1.5562	-1.9354	-1.9354	-1.3167	-2.3438	-1.5312	-1.5708	-2.2229	-1.3083	237.811	85.184	317.294	316.040	290.920	202.616	270.826	361.438	317.715	370.412	343.661	276.804	241.447	328.589	164.673	310.067	0.0001747	0.00030825	4.5803e-05	1146.7	1.6869e-06	1.4423e-06	1235.4	235.74	3.5199e-06	2.8731e-06	296.76	83.029	66.152	19.712	2.5575e-06	27.339	0.00025714	0.00026455	7.3546e-05	1122.4	2.9212e-06	2.8144e-06	1209.7	233.17	2.9957e-06	2.8878e-06	292.43	83.601	66.221	19.955	2.9702e-06	27.558	152.574	122.948	141.234	24.923	200.673	143.042	25.438	32.912	218.857	134.654	32.439	39.448	39.584	46.638	169.513	46.134	-8191	255	
28204.475	1	1	0	0	0.094038	0.19517	0.026628	0.19543	0.27346	0.20643	0.1858	0.1048	0.08415	0.22054	0.18107	0.2804	0.12785	0.2332	0.26305	0.047052	-1.5854	-2.0833	-1.4896	-2.1521	-1.6583	-1.4458	-2.35	-1.4813	-1.8438	-2.0312	-1.3625	-2.1083	-1.9021	-1.4792	-2.4167	-1.5521	159.651	219.200	348.589	312.231	172.096	270.925	358.508	284.439	253.545	124.098	341.958	66.529	177.316	318.843	167.618	326.241	0.00016834	0.00034071	1.4194e-05	1146.5	2.2599e-06	4.5441e-06	1234	235.93	3.6102e-06	3.3674e-06	297.45	83.704	65.988	19.776	3.7897e-06	27.294	0.00026242	0.00026853	7.5876e-05	1120.7	2.9795e-06	2.9357e-06	1212.3	233.22	2.9673e-06	2.9503e-06	292.34	83.908	66.292	19.966	2.9463e-06	27.549	134.586	97.544	329.910	25.371	120.529	167.388	25.541	32.717	132.203	195.727	32.403	39.326	39.676	46.623	198.920	46.164	-8191	255	
28204.570	1	1	0	0	0.21941	0.10101	0.14038	0.11364	0.23232	0.15731	0.31622	0.43342	0.18433	0.24163	0.1194	0.048188	0.17571	0.28057	0.27072	0.13322	-1.4521	-1.9292	-1.2313	-2.2125	-1.5833	-1.3958	-2.35	-1.6896	-1.6083	-2.0021	-1.5312	-2.2188	-1.9104	-1.3125	-2.1312	-1.5521	369.180	169.008	103.589	14.780	88.862	19.873	309.301	335.560	236.832	235.038	279.462	147.231	303.973	252.864	367.953	264.164	0.0001518	0.00044681	8.1603e-05	1146.2	3.1545e-06	1.1669e-06	1230.5	235.83	4.9381e-06	1.9796e-06	295.33	83.71	65.725	19.715	3.3908e-06	27.394	0.00026314	0.00026649	7.4173e-05	1121.1	2.9917e-06	2.9414e-06	1209.3	232.55	2.8749e-06	2.9576e-06	291.6	83.888	65.996	19.923	2.8979e-06	27.49	150.371	91.663	202.360	25.216	194.197	119.014	24.995	32.400	191.191	244.262	31.880	38.845	39.111	46.617	194.049	46.032	-8191	255	
28204.643	1	1	0	0	0.19366	0.19194	0.2208	0.16992	0.21141	0.11868	0.20803	0.37486	0.05564	0.21146	0.34833	0.20051	0.10189	0.30405	0.1272	0.18514	-1.0667	-2.1437	-1.4729	-2.1625	-1.8438	-1.3708	-2.2604	-1.6375	-1.6583	-2.0125	-1.2021	-2.2708	-2.0083	-1.3646	-2.1542	-1.7083	343.421	154.585	157.627	27.414	266.043	221.788	41.487	346.361	166.567	287.336	222.075	220.709	190.370	355.490	330.983	61.038	0.00014842	0.00059836	0.00013259	1149.3	2.3556e-06	3.6676e-06	1228.6	235.24	2.5143e-06	1.575e-06	296.82	83.258	65.798	19.687	4.5899e-06	27.073	0.00026069	0.00026551	7.4514e-05	1123	2.8993e-06	2.8903e-06	1206.4	232.66	2.8373e-06	2.7835e-06	291.65	83.563	66.061	19.949	2.768e-06	27.466	137.640	126.137	135.654	24.742	129.813	117.258	25.019	32.205	207.973	157.995	31.922	38.933	38.791	46.495	164.415	45.730	-8191	255	
28204.762	1	1	0	0	0.031761	0.26992	0.074939	0.28349	0.072398	0.074506	0.17983	0.21533	0.055085	0.2151	0.23131	0.072906	0.25481	0.043676	0.10227	0.18583	-1.1667	-2.0729	-1.3042	-2.0521	-1.9458	-1.3833	-2.2542	-1.6812	-1.3958	-2.1813	-1.6646	-1.6646	-2.0438	-1.325	-2.275	-1.6917	163.901	70.912	367.646	265.485	190.903	368.206	28.106	39.517	296.638	157.047	348.248	45.008	317.273	147.217	80.853	270.950	0.00017171	0.00036557	7.1519e-05	1145.1	2.1333e-06	3.0751e-06	1231.1	234.93	2.7903e-06	1.1928e-06	295.5	83.15	65.857	19.789	4.7531e-06	27.116	0.000257	0.00025698	7.2495e-05	1119.5	2.8391e-06	2.7621e-06	1209	232.38	2.8827e-06	2.8079e-06	291.3	83.531	65.88	19.908	2.7855e-06	27.429	151.851	55.459	117.378	24.835	201.415	124.474	25.205	32.475	159.360	75.598	32.258	38.771	39.393	46.251	185.110	45.827	-8191	255	
28204.857	1	1	0	0	0.31491	0.14989	0.31842	0.32028	0.29457	0.16782	0.13478	0.36545	0.29755	0.26837	0.15177	0.10794	0.43983	0.20938	0.25234	0.1697	-1.0979	-2.3271	-1.5854	-1.8438	-2.0729	-1.475	-2.2729	-1.8917	-1.3833	-2.4	-1.5167	-1.9354	-2.2812	-1.4208	-1.9083	-1.8354	146.232	356.499	296.074	361.884	55.017	341.858	305.770	320.143	367.670	267.568	353.171	55.325	363.835	326.217	283.154	190.909	0.00017047	0.00057708	9.733e-05	1147.6	1.6596e-06	1.289e-06	1227.4	234.55	1.1068e-06	2.8684e-06	293.22	83.136	65.692	19.761	2.4838e-06	26.915	0.00024991	0.00025282	7.0021e-05	1119.6	2.8111e-06	2.693e-06	1207.3	232.57	2.8265e-06	2.6754e-06	290.1	83.639	65.67	19.913	2.6705e-06	27.273	153.456	109.530	163.712	25.180	191.058	292.207	24.841	32.321	160.016	141.924	32.015	39.107	39.272	46.402	181.779	45.457	-8191	255	
28204.955	1	1	0	0	0.30612	0.32191	0.12091	0.19589	0.2605	0.16084	0.2837	0.30642	0.065375	0.16954	0.21965	0.079611	0.13654	0.27878	0.20838	0.15863	-0.94375	-2.075	-1.5521	-1.6187	-2.3312	-1.4937	-2.1854	-2.0729	-1.2917	-2.4375	-1.5271	-1.7812	-2.2396	-1.5271	-1.9604	-1.9583	350.114	53.855	51.584	305.142	227.401	245.360	365.991	53.702	218.643	128.239	14.952	22.488	338.292	139.123	102.383	78.936	0.0001888	0.00014662	9.2934e-05	1146.1	2.3282e-06	3.3464e-06	1228.2	233	2.4374e-06	7.8088e-07	294.7	82.927	65.519	19.745	2.0279e-06	27.154	0.00024861	0.00024287	6.9266e-05	1116.5	2.7642e-06	2.716e-06	1204.2	231.83	2.7333e-06	2.657e-06	290.58	83.248	65.687	19.932	2.7066e-06	27.359	153.064	108.781	121.108	25.091	128.697	116.791	25.077	32.561	182.665	279.825	32.294	38.966	39.330	46.040	170.203	45.770	-8191	255	
28205.051	1	1	0	0	0.23505	0.036529	0.24388	0.11636	0.075228	0.21657	0.10361	0.27433	0.10516	0.029886	0.37152	0.031387	0.072324	0.31833	0.12389	0.04652	-0.89792	-1.9521	-1.8083	-1.5375	-2.1688	-1.1917	-1.9854	-2.2167	-1.4417	-2.1583	-1.8125	-1.4479	-2.2604	-1.4542	-1.6917	-2.1542	105.014	116.799	354.656	323.527	278.255	181.836	333.366	145.563	55.420	92.520	372.303	205.493	280.982	320.722	162.001	52.924	0.00020665	0.00052985	7.5391e-05	1141.4	2.7365e-06	7.8048e-07	1221.2	233.4	3.0774e-06	4.698e-06	294.79	83.242	66.002	19.656	3.1768e-06	26.906	0.00024778	0.0002525	7.0681e-05	1115.6	2.7545e-06	2.753e-06	1201.7	231.44	2.7318e-06	2.6607e-06	290.57	83.452	65.74	19.849	2.6654e-06	27.277	148.658	85.774	71.743	25.019	201.497	186.764	25.026	32.311	156.420	146.429	32.275	39.203	39.246	46.381	153.043	45.644	-8191	255	
28205.170	1	1	0	0	0.27399	0.2871	0.2376	0.28804	0.15165	0.36975	0.11867	0.23586	0.086916	0.10834	0.099837	0.17114	0.1711	0.3503	0.19723	0.055881	-1.0208	-2.0729	-1.8875	-1.6021	-2.2604	-1.4417	-1.8167	-2.2708	-1.1979	-2.1625	-1.9375	-1.3167	-2.1875	-1.5375	-1.5375	-2.2625	31.680	174.755	99.211	333.242	351.328	112.946	295.128	366.945	325.381	283.008	225.655	87.681	15.153	367.393	374.220	46.512	0.00018367	0.00024406	2.9059e-05	1138.9	3.3689e-06	2.8579e-06	1222.7	233.15	3.4412e-06	5.6172e-06	294.05	82.413	65.876	19.697	2.2497e-06	26.986	0.00024117	0.00024343	6.7533e-05	1112.8	2.6264e-06	2.6334e-06	1201.5	231.42	2.6514e-06	2.6323e-06	289.8	83.129	65.642	19.843	2.6809e-06	27.282	151.996	91.556	67.292	24.973	166.519	187.118	25.339	32.494	193.235	198.423	31.808	39.164	39.582	46.687	164.356	46.030	-8191	255	
28205.240	1	1	0	0	0.18692	0.044474	0.17828	0.11921	0.073358	0.13226	0.11606	0.18703	0.11502	0.15065	0.28316	0.056035	0.17823	0.12979	0.091389	0.17439	-0.95417	-2.0687	-1.9417	-1.5208	-2.1937	-1.575	-1.7083	-2.2146	-1.4396	-1.7896	-2.1188	-1.2021	-2.175	-1.6896	-1.5438	-2.4083	288.016	324.768	330.556	89.185	96.636	327.300	327.254	246.644	112.504	63.320	348.483	96.211	74.456	372.960	25.788	313.269	0.00016904	0.00058404	9.881e-05	1137.3	3.3849e-06	4.2874e-06	1223.8	233.99	4.7423e-07	3.2993e-06	294.36	83.258	65.279	19.547	3.3535e-06	27.003	0.00024569	0.00025153	6.9135e-05	1113.2	2.8316e-06	2.8003e-06	1202.3	231.68	2.8415e-06	2.8229e-06	290.13	83.15	65.584	19.815	2.811e-06	27.346	159.286	98.745	82.544	25.064	229.637	213.902	25.135	32.607	271.429	176.107	32.027	39.305	39.804	45.835	212.872	45.790	-8191	255	
28205.340	1	1	0	0	0.21059	0.044976	0.22708	0.12424	0.205	0.10555	0.034799	0.16435	0.25721	0.29256	0.20753	0.26038	0.12875	0.12315	0.15956	0.13664	-0.84792	-1.8188	-1.975	-1.6792	-2.2062	-1.5896	-1.7625	-2.2854	-1.4312	-1.7396	-2.2625	-1.3125	-2.0438	-1.95	-1.2646	-2.2958	293.624	96.234	27.380	48.614	167.147	177.385	271.497	26.564	198.363	249.067	301.975	84.920	46.130	86.100	216.729	195.989	0.00021496	0.00027297	0.0001072	1138.7	2.082e-06	3.129e-06	1231.7	233.74	2.9284e-06	5.0707e-06	293.73	82.755	65.768	19.545	2.7384e-06	26.791	0.00025042	0.00025848	7.1261e-05	1114.4	2.8014e-06	2.8065e-06	1203	230.89	2.8586e-06	2.7182e-06	289.77	83.246	65.851	19.824	2.7296e-06	27.322	164.111	46.257	112.342	24.903	239.707	175.954	25.226	32.647	224.111	175.147	31.781	38.875	39.962	46.449	194.904	46.153	-8191	255	
28205.457	1	1	0	0	0.10203	0.13367	0.32719	0.31084	0.14377	0.19811	0.25832	0.02562	0.15543	0.16099	0.17397	0.44558	0.2463	0.066522	0.22448	0.1235	-0.99792	-1.7583	-2	-1.4562	-2.0812	-1.8917	-1.65	-2.1875	-1.4479	-1.3854	-2.1	-1.3521	-1.9646	-2.0521	-1.3375	-2.1583	331.903	325.767	357.984	348.769	239.904	190.379	327.408	286.425	235.003	177.329	36.611	371.869	355.909	368.850	35.608	243.666	0.00018161	0.00016588	0.00011741	1141.7	1.372e-06	4.5009e-06	1225.6	233.85	2.2832e-06	1.7425e-06	295.74	82.804	65.66	19.661	2.8287e-06	27.009	0.00024631	0.00025793	6.8377e-05	1114.3	2.8305e-06	2.8042e-06	1202.7	231.27	2.8685e-06	2.8689e-06	290.58	83.2	65.708	19.858	2.9447e-06	27.37	153.486	138.815	109.105	24.828	193.590	230.794	25.164	32.843	193.099	182.542	32.104	38.956	39.635	46.040	197.434	45.333	-8191	255	
28205.555	1	1	0	0	0.010601	0.30997	0.12786	0.24505	0.080328	0.14306	0.21945	0.14592	0.028297	0.36392	0.27008	0.037524	0.25823	0.1009	0.2717	0.16535	-1.0792	-1.5542	-2.2188	-1.3813	-1.8687	-1.8292	-1.6729	-2.1833	-1.8042	-1.2938	-2.1188	-1.4062	-1.7833	-1.9188	-1.3396	-2.1396	17.976	282.861	363.117	306.320	257.907	281.034	363.133	346.403	190.689	201.284	338.480	58.855	99.629	286.085	246.176	142.313	0.00019903	0.00013838	0.0001239	1134.6	2.7421e-06	2.5039e-06	1225.3	233.9	2.0813e-06	3.69e-06	294.4	83.255	65.78	19.567	8.1711e-07	27.181	0.00026061	0.00026278	7.3601e-05	1113.6	2.8884e-06	2.8855e-06	1203.5	232.23	2.8907e-06	2.8686e-06	290.22	83.412	65.87	19.811	2.8934e-06	27.5	162.236	78.272	126.516	24.998	199.850	271.998	25.080	32.657	119.078	171.162	32.128	39.475	39.460	46.144	252.742	45.894	-8191	255	
28205.650	1	1	0	0	0.11825	0.20116	0.14609	0.084437	0.34262	0.11834	0.035915	0.10407	0.16537	0.18764	0.15864	0.090436	0.23173	0.098482	0.39081	0.12257	-1.1958	-1.2854	-2.1042	-1.7583	-1.7458	-2.1437	-1.3937	-2.1292	-1.7625	-1.4333	-2.3563	-1.5812	-1.8521	-2.2104	-1.3062	-2.0875	223.737	38.222	262.581	370.986	115.132	230.104	15.424	347.394	49.838	15.981	364.159	306.329	17.587	228.961	331.577	160.142	0.00016319	0.00011384	0.00011543	1139.8	2.8547e-06	2.6779e-06	1225.1	234.21	1.8556e-06	1.0645e-06	294.08	82.7	65.524	19.702	2.4471e-06	27.092	0.00026029	0.00026908	7.1633e-05	1114.2	2.9373e-06	2.8959e-06	1203.4	231.65	2.8877e-06	2.8543e-06	290.64	83.214	65.708	19.907	2.8171e-06	27.41	163.386	92.545	99.090	24.964	175.024	155.531	25.296	32.564	271.969	107.971	32.240	39.258	39.641	46.333	186.988	46.487	-8191	255	
28205.771	1	1	0	0	0.30891	0.28603	0.27865	0.11068	0.13342	0.11749	0.088682	0.30336	0.10763	0.050007	0.14893	0.14351	0.23191	0.16777	0.26002	0.16554	-1.3208	-1.2354	-2.0812	-1.6333	-1.6271	-2.2938	-1.4417	-2.0417	-1.8188	-1.2833	-2.1229	-1.7292	-1.6271	-2.1083	-1.4146	-2.0083	321.572	62.949	241.104	320.918	81.666	264.386	372.733	270.732	99.355	356.311	53.539	142.666	308.646	61.170	36.479	280.167	0.00017924	0.00023701	7.0318e-05	1142.6	3.5437e-06	3.5806e-06	1226	234.06	1.0528e-06	2.2955e-06	295.1	83.197	66.005	19.604	1.6326e-06	27.004	0.0002528	0.0002584	7.2406e-05	1112.9	2.7814e-06	2.7955e-06	1201.5	231.73	2.9375e-06	2.8062e-06	290.33	83.35	65.905	19.84	2.9062e-06	27.32	147.262	343.093	117.024	25.052	166.879	158.560	25.071	32.480	148.819	128.624	32.494	39.337	39.543	46.546	149.193	46.175	-8191	255	
28205.867	1	1	0	0	0.27597	0.083325	0.15239	0.15755	0.13236	0.13563	0.28846	0.25051	0.077546	0.09332	0.26815	0.14521	0.16911	0.42926	0.17981	0.25443	-1.6479	-1.4438	-2.1771	-1.9646	-1.3542	-2.3042	-1.5792	-1.95	-1.8396	-1.2083	-2.1167	-1.6083	-1.525	-2.275	-1.3292	-1.6875	119.272	132.862	51.128	368.936	195.303	153.744	259.890	307.514	214.437	373.808	86.881	44.075	337.603	25.797	260.653	244.664	0.00017129	0.00021391	0.00012112	1140.8	2.1056e-06	3.7052e-06	1217.4	232.78	1.8248e-06	1.532e-06	296.22	83.175	65.492	19.53	1.7635e-06	27.187	0.00025699	0.00025923	7.2283e-05	1113.3	3.0193e-06	2.8651e-06	1200	231.36	2.9099e-06	2.9111e-06	290.8	83.288	65.723	19.872	2.8903e-06	27.44	157.954	192.170	108.475	25.040	192.529	125.756	25.288	32.782	189.499	117.135	32.154	39.274	40.080	46.628	219.799	45.934	-8191	255	
28205.939	1	1	0	0	0.26103	0.19838	0.22637	0.14287	0.030593	0.066556	0.2481	0.10171	0.35254	0.02077	0.19259	0.023495	0.099657	0.1847	0.082687	0.22399	-1.6021	-1.3167	-2.0708	-1.8687	-1.4646	-2.1792	-1.7125	-1.7458	-2.0146	-1.5063	-2.1229	-1.9542	-1.3438	-2.3354	-1.4375	-1.7521	81.145	142.062	241.497	55.607	132.050	355.373	315.862	238.492	349.558	354.888	290.648	44.731	271.204	105.841	121.512	205.474	0.00014528	0.00032269	0.00010273	1138.5	1.5147e-06	3.8234e-06	1220.4	233	3.4876e-06	2.8868e-06	295.81	83.271	65.344	19.598	5.6279e-06	27.16	0.0002578	0.0002655	7.2678e-05	1114.1	2.953e-06	2.8666e-06	1201.1	231.56	2.8434e-06	2.8231e-06	290.74	83.372	65.71	19.875	2.8128e-06	27.388	152.444	109.981	101.581	25.012	120.440	141.354	25.046	32.595	246.451	87.472	32.683	38.866	39.536	46.754	158.637	45.743	-8191	255	
28206.059	1	1	0	0	0.13464	0.19774	0.062586	0.31148	0.24131	0.12301	0.2403	0.35958	0.15974	0.22677	0.10506	0.09	0.11512	0.33946	0.20077	0.25524	-1.7104	-1.4229	-1.8563	-1.9896	-1.3729	-1.9875	-1.7125	-1.7458	-2.0292	-1.3771	-1.9833	-1.9062	-1.2875	-2.0625	-1.7979	-1.6771	31.964	68.825	127.761	282.385	191.355	25.601	248.224	354.690	271.756	321.107	20.237	317.564	300.694	280.389	330.036	339.340	0.00013323	0.00048573	8.9396e-05	1136.2	2.1564e-06	3.2517e-06	1225.3	233.23	2.4485e-06	3.0494e-06	293.85	82.79	65.915	19.578	4.8706e-06	26.884	0.00025614	0.0002553	7.1137e-05	1112.9	2.8685e-06	2.864e-06	1200.9	231.64	2.9302e-06	2.9407e-06	290.42	83.069	65.672	19.834	2.8532e-06	27.216	154.046	74.531	66.460	25.199	129.413	206.905	25.283	32.895	213.310	104.645	32.663	39.245	39.878	46.609	142.403	45.566	-8191	255	
28206.154	1	1	0	0	0.048509	0.062957	0.062955	0.12728	0.10479	0.12687	0.3284	0.11696	0.37142	0.1335	0.15762	0.20885	0.17985	0.13192	0.19973	0.10957	-1.7042	-1.5063	-1.8021	-2.1042	-1.3417	-2.0938	-1.9396	-1.5542	-2.0417	-1.5708	-2.0042	-2.2583	-1.3604	-2.0375	-1.6562	-1.5896	297.404	72.234	155.825	181.442	253.290	269.647	303.076	288.538	130.158	234.153	259.074	277.394	350.746	182.675	202.710	267.409	0.00017092	0.00044256	9.9338e-05	1131.9	2.472e-06	1.0437e-06	1221.6	232.26	3.0174e-06	2.3832e-06	293.31	82.445	65.773	19.557	3.0341e-06	26.92	0.00025875	0.00026278	7.0922e-05	1107.9	2.9192e-06	2.8287e-06	1197.1	230.92	2.8203e-06	2.8719e-06	289.05	82.975	65.599	19.809	2.8559e-06	27.231	153.507	78.151	110.372	25.201	156.701	200.005	25.191	32.741	272.076	200.655	32.467	39.000	39.843	46.560	168.360	45.865	-8191	255	
28206.250	1	1	0	0	0.2243	0.17422	0.024691	0.27559	0.23216	0.18473	0.27654	0.16483	0.10584	0.34714	0.058626	0.23667	0.050094	0.21016	0.13829	0.26506	-1.7625	-1.6354	-1.6313	-2.275	-1.3167	-2.1958	-2.0271	-1.3667	-2.2667	-1.4771	-1.7458	-2.4208	-1.3292	-1.9396	-1.8604	-1.4021	305.213	294.575	125.643	28.345	289.813	147.233	326.866	340.294	31.531	137.913	209.382	343.235	358.462	343.480	337.529	103.689	0.00018627	0.00022968	0.00010572	1138.7	1.4798e-06	4.9911e-06	1219.1	233.58	2.3029e-06	4.4045e-06	294.43	82.607	65.428	19.619	3.5862e-06	27.073	0.00024478	0.00025608	7.2261e-05	1111.1	2.8071e-06	2.7762e-06	1195.8	231.03	2.7513e-06	2.7517e-06	289.26	83.027	65.414	19.806	2.7317e-06	27.273	141.822	78.509	118.286	25.196	190.543	149.197	25.422	32.670	228.707	186.426	32.299	39.545	39.747	46.500	126.934	46.291	-8191	255	
28206.346	1	1	0	0	0.19714	0.33772	0.27157	0.24418	0.091753	0.17785	0.2408	0.18204	0.12872	0.27453	0.20705	0.19769	0.20671	0.24957	0.045459	0.17488	-1.7771	-1.6229	-1.4583	-2.0354	-1.3062	-1.9667	-1.9917	-1.4854	-2.0146	-1.6854	-1.6	-2.1271	-1.4104	-2.0104	-1.9438	-1.2521	349.634	43.490	49.204	314.625	189.883	230.595	287.694	304.195	82.431	229.009	23.844	273.682	364.172	26.063	287.386	127.869	0.00017571	0.00038454	0.00014762	1134	2.3576e-06	2.1018e-06	1221.9	231.71	1.2886e-06	1.4806e-06	292.28	82.143	65.337	19.611	7.0576e-06	27.084	0.00024446	0.00025207	6.9239e-05	1109.1	2.7013e-06	2.7751e-06	1199.4	230.21	2.7304e-06	2.774e-06	288.67	82.856	65.434	19.781	2.8051e-06	27.342	156.584	64.966	127.185	25.180	177.514	101.404	25.280	32.833	238.762	205.368	32.498	39.294	39.741	46.955	195.691	46.057	-8191	255	
28206.441	1	1	0	0	0.34011	0.18953	0.33055	0.1684	0.03647	0.21187	0.15466	0.12729	0.11315	0.19962	0.30049	0.083901	0.26572	0.0514	0.26099	0.12635	-1.5688	-1.5625	-1.3542	-2.4542	-1.5979	-1.8104	-2.3937	-1.4604	-2.1	-1.7687	-1.4875	-2.1875	-1.5396	-1.8625	-2.1229	-1.2792	187.620	365.509	252.992	367.638	84.934	295.243	286.846	276.614	126.105	357.640	217.114	263.024	234.841	115.224	57.516	204.416	0.00014431	0.00022292	0.00017882	1131	2.3754e-06	4.8466e-06	1217.7	232.69	1.9115e-06	3.4099e-06	293.43	82.74	65.447	19.758	1.8094e-06	27.094	0.00025711	0.00026376	7.3863e-05	1109.1	2.8721e-06	2.8489e-06	1195.7	230.51	2.8514e-06	2.9039e-06	289.35	83.022	65.537	19.815	2.9108e-06	27.371	156.638	45.383	121.450	25.207	164.277	168.033	25.510	32.638	247.628	348.553	32.309	39.182	39.529	46.871	115.624	46.163	-8191	255	
28206.537	1	1	0	0	0.061129	0.12434	0.16432	0.23031	0.11866	0.058689	0.40356	0.21517	0.15544	0.083101	0.23444	0.018674	0.36424	0.18046	0.069334	0.099143	-1.6979	-1.6729	-1.4854	-2.4667	-1.4958	-1.6917	-2.3458	-1.2771	-1.9396	-1.8708	-1.6042	-2.2208	-1.6667	-1.55	-2.1	-1.4625	67.183	149.396	124.940	255.177	232.450	37.996	351.351	319.796	322.347	83.157	246.636	153.394	52.367	334.255	278.237	108.341	0.00020006	0.00015034	7.5499e-05	1139	6.2182e-06	3.3067e-06	1217.7	232.94	3.4084e-06	4.7314e-06	294.07	83.077	66.047	19.594	4.9597e-06	27.104	0.00025833	0.00025718	7.1281e-05	1111.6	2.9038e-06	2.7801e-06	1200.2	230.52	2.7428e-06	2.7805e-06	289.43	83.077	65.711	19.782	2.7294e-06	27.274	142.874	173.531	132.291	25.005	187.887	186.086	25.254	32.881	174.172	146.439	32.489	39.117	40.148	46.606	170.937	46.053	-8191	255	
28206.635	1	1	0	0	0.13072	0.14801	0.12106	0.32415	0.053993	0.062953	0.16939	0.36844	0.13673	0.10373	0.46262	0.13761	0.1502	0.12303	0.20928	0.11684	-1.7021	-1.8104	-1.3083	-2.2479	-1.6167	-1.3062	-2.4979	-1.475	-1.8	-1.8104	-1.2854	-2.1125	-1.6396	-1.5396	-2.2042	-1.6458	145.424	86.907	139.578	326.224	111.099	317.224	311.283	299.939	270.180	40.240	320.210	41.414	317.197	305.917	42.649	100.811	0.00016165	0.00061542	6.5518e-05	1138.3	2.1889e-06	3.543e-06	1221.3	232.19	2.0129e-06	1.6773e-06	293.66	82.809	65.123	19.586	4.4823e-06	26.911	0.00024875	0.00025408	7.1589e-05	1113.1	2.8046e-06	2.834e-06	1199.7	230.36	2.8101e-06	2.8012e-06	289.7	82.949	65.195	19.781	2.8038e-06	27.228	136.186	84.613	24.882	25.103	264.581	125.484	25.516	32.652	295.683	213.749	32.470	39.580	40.025	46.780	150.194	46.155	-8191	255	
28206.730	1	1	0	0	0.17147	0.27428	0.10252	0.26586	0.16037	0.24349	0.095271	0.11116	0.2186	0.097769	0.27282	0.042069	0.16661	0.12204	0.35065	0.20038	-1.3292	-2.2188	-1.5625	-2.3479	-1.7833	-1.3729	-2.4896	-1.5958	-1.6562	-2.275	-1.3188	-2.0021	-1.9375	-1.5	-2.3167	-1.7333	71.275	109.387	316.337	335.984	348.307	174.310	112.244	295.142	53.257	111.212	39.461	261.591	109.237	143.956	341.342	70.615	0.00019342	0.00017172	0.00010755	1137.5	4.9579e-06	1.1675e-06	1222.3	232.38	1.0196e-06	2.115e-06	293.29	83.27	65.352	19.536	2.8462e-06	26.803	0.00025366	0.00025699	7.0414e-05	1109.6	2.8918e-06	2.8701e-06	1198.9	230.1	2.9494e-06	2.869e-06	288.47	83.173	65.539	19.774	2.8183e-06	27.178	151.617	310.816	129.200	25.222	187.873	49.372	25.417	32.661	168.737	199.215	32.674	39.147	39.532	46.533	220.758	45.864	-8191	255	
28206.852	1	1	0	0	0.18494	0.11614	0.13853	0.40977	0.085661	0.11112	0.21531	0.075762	0.052662	0.30568	0.081156	0.15124	0.079145	0.14582	0.12802	0.075321	-1.2812	-2.2979	-1.5833	-2.1625	-2.0062	-1.5104	-2.2458	-1.7271	-1.6667	-2.2479	-1.5354	-2.1167	-2.0479	-1.4292	-2.1042	-1.6917	81.411	47.742	168.207	331.677	113.327	351.345	288.034	239.649	32.365	215.789	29.278	362.198	111.578	219.227	311.210	253.970	0.00014916	0.00033579	8.8846e-05	1136.2	1.7438e-06	2.5305e-06	1220.4	233.06	3.3403e-07	4.7809e-06	294.83	83.043	65.577	19.56	4.6267e-06	26.85	0.00025141	0.00025218	6.9133e-05	1110.7	2.7725e-06	2.7657e-06	1198.1	230.19	2.7882e-06	2.809e-06	290.03	82.966	65.45	19.778	2.7669e-06	27.239	164.501	75.497	129.679	25.253	151.617	235.719	25.426	32.780	178.376	165.303	32.342	39.392	39.409	46.418	144.365	46.285	-8191	255	
28206.947	1	1	0	0	0.14438	0.18665	0.32036	0.22948	0.13458	0.20928	0.10543	0.28984	0.22464	0.097307	0.21796	0.086422	0.11499	0.11033	0.2777	0.13257	-1.0604	-2.1208	-1.3375	-1.9458	-2.1167	-1.3646	-2.2104	-1.7375	-1.6125	-2.1667	-1.6375	-1.925	-2.2812	-1.3146	-2.1583	-1.8167	201.196	32.701	201.404	372.533	283.993	152.682	366.325	268.750	291.271	356.932	336.320	179.158	98.731	23.982	57.995	345.217	0.00018273	0.00015892	8.1507e-05	1130.5	2.7095e-06	3.036e-06	1223.7	231.35	3.1714e-06	3.8335e-06	292.58	82.93	65.194	19.569	3.2682e-06	26.979	0.00025381	0.00025369	7.1177e-05	1108.5	2.8633e-06	2.8449e-06	1198	229.98	2.8596e-06	2.8345e-06	289.15	82.965	65.509	19.749	2.7244e-06	27.32	146.812	329.503	93.869	25.227	184.737	182.475	25.396	33.023	155.592	168.159	33.013	39.610	39.989	46.824	160.531	46.023	-8191	255	
28207.043	1	1	0	0	0.20465	0.15202	0.10004	0.22409	0.097144	0.11552	0.17455	0.32116	0.39697	0.24354	0.32778	0.070148	0.11357	0.15675	0.16294	0.16098	-0.91875	-2.2812	-1.3979	-1.9167	-2.1417	-1.4458	-2.2125	-1.9604	-1.3188	-2.2438	-1.7771	-1.7104	-2.3271	-1.3083	-2.1146	-2.1063	21.241	303.305	226.581	312.790	120.791	24.634	215.097	294.062	311.909	134.471	20.006	302.338	21.355	324.425	215.790	102.828	0.00016401	0.00045758	0.00010773	1134.7	3.1535e-06	4.7087e-06	1227.2	232.42	6.3371e-06	4.2111e-06	290.09	82.447	65.052	19.47	2.2541e-06	26.707	0.00025384	0.00025547	7.0164e-05	1110.2	2.7782e-06	2.7096e-06	1198.4	229.81	2.7405e-06	2.6534e-06	287.7	82.827	65.328	19.734	2.6512e-06	27.189	153.835	100.933	176.131	25.365	172.960	163.396	25.593	32.681	213.986	142.683	32.231	39.683	39.717	46.385	195.077	46.003	-8191	255	
28207.141	1	1	0	0	0.2376	0.33109	0.058133	0.26949	0.076727	0.17403	0.50618	0.15253	0.33093	0.17795	0.33552	0.043571	0.11974	0.25977	0.10565	0.2319	-1.0458	-2.1437	-1.7292	-1.7646	-2.2	-1.4688	-2.1271	-2.2646	-1.3271	-2.1792	-1.7958	-1.7062	-2.3604	-1.4417	-1.8312	-2.0833	370.942	251.248	319.328	329.151	248.061	55.375	354.218	134.126	186.024	29.077	345.226	226.018	322.498	218.206	205.534	33.342	0.00016354	0.00017183	0.00016064	1137	2.0266e-06	4.1045e-06	1221.6	233.43	2.3985e-07	1.6873e-06	293.51	82.38	65.391	19.573	3.0865e-06	27.129	0.00023881	0.00024071	6.6734e-05	1110.4	2.6925e-06	2.6117e-06	1196.9	230.14	2.7269e-06	2.6237e-06	289.11	82.718	65.36	19.718	2.6823e-06	27.242	153.136	81.906	148.056	25.202	170.103	154.494	25.802	32.812	64.365	113.694	32.446	39.312	39.799	46.623	164.340	45.809	-8191	255	
28207.234	1	1	0	0	0.095285	0.12616	0.045759	0.19942	0.14536	0.11294	0.030766	0.5392	0.13708	0.12371	0.14234	0.085346	0.3442	0.15405	0.14512	0.083641	-1.1708	-2.0354	-1.9	-1.5542	-2.3271	-1.5333	-1.9896	-2.1813	-1.2521	-2.2667	-1.9417	-1.5958	-2.35	-1.7188	-1.85	-2.1	358.555	228.663	41.309	259.472	169.968	169.109	325.065	324.038	57.499	241.342	182.676	30.838	349.157	289.979	189.890	373.187	0.00015883	0.00051526	7.5706e-05	1136.2	3.3987e-06	3.7028e-06	1222.5	231.2	2.2196e-06	6.0061e-06	295.3	82.494	65.358	19.542	1.1111e-06	26.998	0.00024416	0.00024007	6.8281e-05	1110.3	2.7194e-06	2.6607e-06	1198.2	229.91	2.7854e-06	2.7196e-06	289.04	82.877	65.477	19.747	2.7463e-06	27.273	163.411	128.486	127.654	25.163	152.661	143.855	25.610	32.917	169.748	171.350	32.213	39.546	39.390	46.657	39.064	46.212	-8191	255	
28207.330	1	1	0	0	0.15249	0.1513	0.30319	0.32278	0.045208	0.13784	0.20323	0.29656	0.35314	0.28162	0.26589	0.28385	0.10995	0.24536	0.021895	0.12143	-0.975	-1.9979	-1.6875	-1.6917	-2.2438	-1.5479	-1.9979	-2.2896	-1.3146	-2.2062	-1.9146	-1.5667	-2.2333	-1.7271	-1.6792	-2.2917	114.321	268.399	100.453	349.568	208.226	302.711	333.164	84.308	267.397	317.114	301.923	16.223	339.561	102.877	145.437	159.494	0.00015178	0.00026638	8.2182e-05	1131.7	3.6356e-06	5.4746e-06	1218.6	230.88	2.06e-06	4.6677e-06	293.18	82.901	65.387	19.519	3.4206e-06	26.824	0.00025303	0.00025676	7.1534e-05	1107.3	2.8339e-06	2.8193e-06	1196.2	229.71	2.8372e-06	2.7527e-06	288.52	82.704	65.41	19.735	2.7879e-06	27.191	157.268	52.481	121.724	25.479	187.786	147.187	25.713	32.840	183.069	113.451	32.420	39.398	39.747	46.630	182.308	45.924	-8191	255	
28207.451	1	1	0	0	0.25033	0.22715	0.20988	0.35725	0.26197	0.24664	0.32667	0.11808	0.16344	0.3345	0.0661	0.17815	0.34213	0.15508	0.25776	0.032312	-0.95625	-2.1125	-1.8708	-1.7437	-2.1417	-1.6229	-1.7208	-2.275	-1.2958	-2.0125	-2.0917	-1.5375	-2.2562	-1.6833	-1.5396	-2.225	335.015	50.069	276.649	372.111	307.748	334.882	315.381	25.553	364.906	132.132	334.892	346.932	297.375	245.618	168.328	28.609	0.00013737	0.00049115	8.1013e-05	1133.8	9.4694e-07	1.6175e-06	1221.4	233.28	1.0205e-06	3.0677e-06	291.54	82.826	65.819	19.434	4.4286e-06	26.921	0.00025141	0.00025034	7.0438e-05	1109.8	2.738e-06	2.7327e-06	1196.4	230.27	2.7108e-06	2.6067e-06	288.78	82.983	65.408	19.706	2.6392e-06	27.161	160.212	168.075	129.995	25.351	288.539	134.169	25.405	33.111	222.062	225.585	32.330	39.195	40.197	46.514	163.195	46.240	-8191	255	
28207.547	1	1	0	0	0.13642	0.13688	0.31983	0.41016	0.14549	0.1832	0.2824	0.24002	0.13509	0.11454	0.062639	0.35151	0.11036	0.23467	0.10797	0.20929	-1.1292	-1.7833	-1.9896	-1.4188	-1.9479	-1.5688	-1.6479	-2.2354	-1.3312	-1.6979	-2.2667	-1.4021	-2.1437	-1.9062	-1.3188	-2.1729	230.170	133.054	37.268	297.716	79.002	67.241	310.642	23.746	317.629	276.973	255.493	319.932	359.674	37.047	113.507	77.007	0.00021244	0.00052305	5.669e-05	1137.4	2.2857e-06	3.503e-06	1218.4	231.98	3.6339e-06	4.7923e-07	292.53	81.896	65.233	19.642	2.2295e-06	27.026	0.00024143	0.00023914	6.6665e-05	1108.3	2.5964e-06	2.646e-06	1195.8	230.3	2.6871e-06	2.6736e-06	288.44	82.587	65.333	19.739	2.6272e-06	27.231	159.100	83.544	157.182	25.252	187.108	173.055	25.695	32.822	234.262	168.501	32.879	39.291	40.077	46.585	130.251	46.932	-8191	255	
28207.643	1	1	0	0	0.086365	0.21697	0.1948	0.20103	0.35985	0.21002	0.45685	0.19694	0.25259	0.20779	0.030977	0.30614	0.19334	0.40691	0.097331	0.081234	-1.2396	-1.6854	-2.2375	-1.5312	-2.0729	-2.1208	-1.4271	-2.1688	-1.5417	-1.4813	-2.4104	-1.4083	-1.9188	-1.9104	-1.3896	-2.1542	154.628	78.664	127.676	368.727	156.645	167.388	323.623	326.708	116.294	366.313	326.878	33.762	323.078	325.691	321.110	150.276	0.00015111	0.00019738	2.0941e-05	1131.7	3.2049e-06	5.7334e-06	1222.7	232.86	3.7484e-06	2.9182e-06	292.77	82.759	65.513	19.403	3.0179e-06	27.006	0.00023816	0.00023854	6.583e-05	1106.7	2.713e-06	2.6117e-06	1194.7	229.98	2.6773e-06	2.6886e-06	288.68	82.789	65.418	19.736	2.6513e-06	27.189	146.126	23.403	146.514	25.351	164.827	172.514	25.422	32.882	202.045	226.895	32.363	39.544	39.671	46.717	78.251	46.209	-8191	255	
28207.738	1	1	0	0	0.17187	0.388	0.23212	0.2293	0.26652	0.1556	0.49994	0.10753	0.12664	0.08536	0.14859	0.28052	0.15526	0.1769	0.2927	0.18989	-1.3625	-1.6458	-2.1083	-1.6542	-1.9	-2.0271	-1.35	-2.1521	-1.7646	-1.4479	-2.2833	-1.5562	-2.0125	-2.1875	-1.1562	-2.1437	357.404	351.332	81.924	337.133	346.410	171.466	348.305	175.895	320.630	32.270	294.223	61.615	162.150	359.515	114.421	292.145	0.00017948	0.00036782	0.00012956	1132.2	1.6948e-06	2.0801e-06	1218.6	232.05	2.0774e-06	2.582e-06	295.51	82.566	65.384	19.563	3.3274e-06	26.91	0.00024233	0.00024179	6.7442e-05	1108.1	2.6561e-06	2.6054e-06	1195.7	229.88	2.5743e-06	2.4963e-06	288.88	82.585	65.247	19.681	2.4907e-06	27.165	144.324	71.076	78.299	25.104	176.123	171.824	25.512	32.762	191.853	175.677	32.070	39.230	39.890	46.793	77.027	46.196	-8191	255	
#DATA ENDS
