BOXY.EXE: ISS Imagent and Oximeter Data Acquisition Program Version 0.80
Ascii Record File

#ACQ INFORMATION
2  Detector Channels 
16  External MUX Channels 
1  Auxiliary Channels 
5000  Waveform (CCF) Frequency (Hz)
1  Waveforms Skipped 
30  Waveforms Averaged 
1  Cycles Averaged 
16  Acquisitions per Waveform 
10.0806  Updata Rate (Hz) 

#FILE INFORMATION
TRUE -- External MUX Channel results are PARSED.
FALSE -- AC DC and Phase are NOT grouped.
TRUE -- Companion Program Settings File CREATED.
FALSE -- AC data not excluded
FALSE -- DC data not excluded
FALSE -- Phase data not excluded
FALSE -- Auxillary Chn. data not excluded
Tab delimiters

#CALIBRATION STATE
TRUE -- Waveform Calibration Values APPLIED.


#AUX CALIBRATION VALUES
Val Type	aux-1	

Term	1.0000e+00	
Factor	0.0000e+00	


#WF CALIBRATION VALUES
A = Detector Channel
Val Type	A-AC1	A-AC2	A-AC3	A-AC4	A-AC5	A-AC6	A-AC7	A-AC8	A-AC9	A-AC10	A-AC11	A-AC12	A-AC13	A-AC14	A-AC15	A-AC16	A-DC1	A-DC2	A-DC3	A-DC4	A-DC5	A-DC6	A-DC7	A-DC8	A-DC9	A-DC10	A-DC11	A-DC12	A-DC13	A-DC14	A-DC15	A-DC16	A-Ph1	A-Ph2	A-Ph3	A-Ph4	A-Ph5	A-Ph6	A-Ph7	A-Ph8	A-Ph9	A-Ph10	A-Ph11	A-Ph12	A-Ph13	A-Ph14	A-Ph15	A-Ph16	

Term	0.00000e+00	0.00000e+00	0.00000e+00	0.00000e+00	0.00000e+00	0.00000e+00	0.00000e+00	0.00000e+00	0.00000e+00	0.00000e+00	0.00000e+00	0.00000e+00	0.00000e+00	0.00000e+00	0.00000e+00	0.00000e+00	0.00000e+00	0.00000e+00	0.00000e+00	0.00000e+00	0.00000e+00	0.00000e+00	0.00000e+00	0.00000e+00	0.00000e+00	0.00000e+00	0.00000e+00	0.00000e+00	0.00000e+00	0.00000e+00	0.00000e+00	0.00000e+00	0.00000e+00	0.00000e+00	0.00000e+00	0.00000e+00	0.00000e+00	0.00000e+00	0.00000e+00	0.00000e+00	0.00000e+00	0.00000e+00	0.00000e+00	0.00000e+00	0.00000e+00	0.00000e+00	0.00000e+00	0.00000e+00	
Factor	1.00000e+00	1.00000e+00	1.00000e+00	1.00000e+00	1.00000e+00	1.00000e+00	1.00000e+00	1.00000e+00	1.00000e+00	1.00000e+00	1.00000e+00	1.00000e+00	1.00000e+00	1.00000e+00	1.00000e+00	1.00000e+00	1.00000e+00	1.00000e+00	1.00000e+00	1.00000e+00	1.00000e+00	1.00000e+00	1.00000e+00	1.00000e+00	1.00000e+00	1.00000e+00	1.00000e+00	1.00000e+00	1.00000e+00	1.00000e+00	1.00000e+00	1.00000e+00	X	X	X	X	X	X	X	X	X	X	X	X	X	X	X	X	

B = Detector Channel
Val Type	B-AC1	B-AC2	B-AC3	B-AC4	B-AC5	B-AC6	B-AC7	B-AC8	B-AC9	B-AC10	B-AC11	B-AC12	B-AC13	B-AC14	B-AC15	B-AC16	B-DC1	B-DC2	B-DC3	B-DC4	B-DC5	B-DC6	B-DC7	B-DC8	B-DC9	B-DC10	B-DC11	B-DC12	B-DC13	B-DC14	B-DC15	B-DC16	B-Ph1	B-Ph2	B-Ph3	B-Ph4	B-Ph5	B-Ph6	B-Ph7	B-Ph8	B-Ph9	B-Ph10	B-Ph11	B-Ph12	B-Ph13	B-Ph14	B-Ph15	B-Ph16	

Term	0.00000e+00	0.00000e+00	0.00000e+00	0.00000e+00	0.00000e+00	0.00000e+00	0.00000e+00	0.00000e+00	0.00000e+00	0.00000e+00	0.00000e+00	0.00000e+00	0.00000e+00	0.00000e+00	0.00000e+00	0.00000e+00	0.00000e+00	0.00000e+00	0.00000e+00	0.00000e+00	0.00000e+00	0.00000e+00	0.00000e+00	0.00000e+00	0.00000e+00	0.00000e+00	0.00000e+00	0.00000e+00	0.00000e+00	0.00000e+00	0.00000e+00	0.00000e+00	4.17717e+01	-1.31162e+02	-1.22911e+02	-1.83922e+02	-6.30644e+01	-7.02209e+01	-1.56404e+02	-1.62015e+02	-4.52563e+01	-6.41764e+01	-1.71598e+02	-1.69061e+02	-1.81176e+02	-1.77209e+02	-6.47185e+01	-1.50023e+02	
Factor	6.40346e-05	1.52600e-04	4.19047e-05	1.76566e-01	1.85982e-06	1.60018e-06	1.66977e-01	5.01798e-02	2.39878e-06	1.62312e-06	8.77349e-02	2.88353e-02	2.63990e-02	9.67641e-03	1.83296e-06	1.35945e-02	1.77045e-05	2.95731e-05	8.28597e-06	9.26155e-02	2.88225e-07	3.32224e-07	8.18985e-02	2.64251e-02	2.79175e-07	3.33486e-07	4.47295e-02	1.46946e-02	1.40515e-02	5.14846e-03	3.03169e-07	6.99069e-03	X	X	X	X	X	X	X	X	X	X	X	X	X	X	X	X	



#DISTANCE SETTINGS
A = Detector Channel
A-1	A-2	A-3	A-4	A-5	A-6	A-7	A-8	A-9	A-10	A-11	A-12	A-13	A-14	A-15	A-16	

2.5000e+00	3.0000e+00	2.5000e+00	3.0000e+00	2.0000e+00	3.0000e+00	1.5000e+00	3.0000e+00	3.0000e+00	3.0000e+00	3.0000e+00	3.0000e+00	3.0000e+00	3.0000e+00	1.5000e+00	3.0000e+00	

B = Detector Channel
B-1	B-2	B-3	B-4	B-5	B-6	B-7	B-8	B-9	B-10	B-11	B-12	B-13	B-14	B-15	B-16	

1.0000e+01	1.0000e+01	1.0000e+01	1.4400e+00	1.0000e+01	1.0000e+01	1.5100e+00	1.9400e+00	1.0000e+01	1.0000e+01	1.9900e+00	2.4900e+00	2.4100e+00	2.9000e+00	1.0000e+01	2.9800e+00	




#DATA BEGINS
time	group	step	mark	flag	A-AC1	A-AC2	A-AC3	A-AC4	A-AC5	A-AC6	A-AC7	A-AC8	A-AC9	A-AC10	A-AC11	A-AC12	A-AC13	A-AC14	A-AC15	A-AC16	A-DC1	A-DC2	A-DC3	A-DC4	A-DC5	A-DC6	A-DC7	A-DC8	A-DC9	A-DC10	A-DC11	A-DC12	A-DC13	A-DC14	A-DC15	A-DC16	A-Ph1	A-Ph2	A-Ph3	A-Ph4	A-Ph5	A-Ph6	A-Ph7	A-Ph8	A-Ph9	A-Ph10	A-Ph11	A-Ph12	A-Ph13	A-Ph14	A-Ph15	A-Ph16	B-AC1	B-AC2	B-AC3	B-AC4	B-AC5	B-AC6	B-AC7	B-AC8	B-AC9	B-AC10	B-AC11	B-AC12	B-AC13	B-AC14	B-AC15	B-AC16	B-DC1	B-DC2	B-DC3	B-DC4	B-DC5	B-DC6	B-DC7	B-DC8	B-DC9	B-DC10	B-DC11	B-DC12	B-DC13	B-DC14	B-DC15	B-DC16	B-Ph1	B-Ph2	B-Ph3	B-Ph4	B-Ph5	B-Ph6	B-Ph7	B-Ph8	B-Ph9	B-Ph10	B-Ph11	B-Ph12	B-Ph13	B-Ph14	B-Ph15	B-Ph16	aux-1	digaux	

1836.165	1	1	0	512	0.19647	0.034094	0.16512	0.23563	0.27607	0.098605	0.19488	0.047629	0.14034	0.16545	0.08079	0.22121	0.2784	0.14609	0.19242	0.19479	-2.5917	-3.6021	-2.95	-3.65	-3.3312	-3.0271	-4.0146	-3.3708	-3.2687	-3.85	-3.05	-3.5167	-3.5062	-3.0083	-3.5958	-3.3208	-78.152	-124.945	-62.287	161.644	-30.059	-123.280	139.374	-154.658	-126.344	39.230	136.017	173.468	106.605	-104.330	-98.790	30.008	0.0021387	0.00029964	0.00012051	733.41	6.3835e-06	4.9102e-06	1013.7	235.78	6.7841e-06	6.6115e-06	410.22	156.47	82.07	32.372	5.0819e-06	74.183	0.00062733	0.00027207	8.5328e-05	667.29	3.2011e-06	3.0807e-06	924.29	215.05	3.399e-06	2.9166e-06	377.29	143.42	75.253	29.77	3.3267e-06	68.692	9.841	-100.945	-92.287	-165.205	-27.978	-26.983	-165.915	-160.781	-29.037	-29.700	-161.386	-157.212	-157.060	-152.696	-50.749	-154.467	-8191	255	
1836.286	1	1	0	0	0.17801	0.041872	0.29364	0.04135	0.34405	0.049633	0.23201	0.16702	0.050493	0.22761	0.036717	0.23068	0.12306	0.25894	0.21356	0.19152	-2.7146	-3.7396	-3.0271	-3.5396	-3.6	-3.1937	-3.7042	-3.3625	-3.0312	-3.775	-3.0417	-3.4417	-3.7	-2.9792	-3.6292	-3.5104	73.942	-149.915	-143.813	132.802	93.960	-59.141	136.667	177.848	-98.580	97.921	-24.046	111.667	68.942	153.603	12.043	152.003	0.0022062	0.00074181	0.0001603	728.13	8.0038e-06	6.1862e-06	1009.6	237.95	1.0886e-05	4.5481e-06	410.64	156.23	81.815	32.457	4.3911e-06	74.044	0.00060856	0.00030195	9.1405e-05	664.85	3.0468e-06	3.4399e-06	923.6	216.39	3.5223e-06	2.836e-06	377.96	143.84	75.112	29.846	2.9957e-06	68.885	11.002	-103.082	-85.153	-165.493	-21.511	-23.555	-165.412	-160.764	-34.968	-17.774	-161.270	-157.235	-157.099	-152.610	-18.452	-154.155	-8191	255	
1836.380	1	1	0	0	0.13829	0.1059	0.13075	0.25404	0.22607	0.036619	0.06366	0.22959	0.2594	0.23279	0.039229	0.17647	0.25944	0.069194	0.10245	0.27203	-2.5312	-3.7417	-3.0292	-3.3292	-3.6958	-3.0271	-3.6521	-3.5771	-3.0125	-3.6292	-3.1708	-3.2042	-3.7875	-2.9813	-3.4437	-3.6354	-13.364	-69.788	-116.271	-112.447	-42.396	142.465	35.294	-110.880	79.991	-164.857	-14.561	117.049	150.372	77.581	43.259	68.499	0.002268	0.00064688	0.00020423	727.1	6.261e-06	7.7944e-06	1013.6	235.58	9.5549e-06	6.6246e-06	414.69	158.14	82.459	32.387	7.2554e-06	74.247	0.00061881	0.00028895	8.9005e-05	664.46	3.1146e-06	3.5008e-06	926.32	215.41	3.3803e-06	3.1765e-06	381.09	144.84	75.765	29.836	3.2648e-06	68.907	9.380	-92.252	-72.328	-165.445	-13.059	-42.509	-165.451	-160.531	-19.373	-25.927	-161.091	-157.092	-156.897	-152.511	-24.075	-153.761	-8191	255	
1836.478	1	1	0	0	0.065469	0.084402	0.27413	0.17972	0.13767	0.07234	0.32093	0.028864	0.09611	0.13576	0.35801	0.16133	0.11897	0.17595	0.078426	0.099373	-2.3917	-3.825	-3.2208	-3.1	-3.6229	-2.9083	-3.6104	-3.7083	-2.8854	-3.6708	-3.5542	-3.2271	-3.7208	-2.9604	-3.4271	-3.8125	55.667	-147.198	147.637	106.128	43.120	-84.590	126.054	75.202	62.374	-44.876	69.479	-142.134	123.225	68.844	-108.610	138.109	0.0022745	0.0006359	0.00011343	727.97	5.3939e-06	5.6362e-06	1010.5	237.15	1.248e-05	5.9775e-06	413.64	156.44	81.463	31.791	6.6284e-06	72.75	0.00064662	0.00030399	7.9183e-05	665.83	2.8336e-06	3.4122e-06	925.17	216.36	3.3106e-06	2.9354e-06	378.5	143.42	74.658	29.239	3.309e-06	67.592	9.171	-83.501	-95.695	-165.647	-30.118	-31.720	-165.621	-160.278	-26.586	-18.768	-161.149	-156.970	-156.731	-151.906	-36.119	-153.606	-8191	255	
1836.573	1	1	0	0	0.11307	0.14739	0.29321	0.33415	0.22551	0.14251	0.16867	0.29666	0.089815	0.19511	0.2834	0.24969	0.20522	0.19082	0.062066	0.14731	-2.5042	-3.6979	-3.3521	-3.1396	-3.6083	-3.0208	-3.4188	-3.6333	-2.8167	-3.6813	-3.45	-3.2396	-3.7917	-3.2125	-3.1146	-3.8354	14.853	-156.737	76.585	144.593	153.410	103.501	93.195	95.155	-105.496	-3.943	148.953	-34.443	142.029	-165.548	-152.438	-148.362	0.0021263	0.00055989	0.00016543	720.05	5.6593e-06	6.1748e-06	1001.5	233.25	8.9578e-06	4.4164e-06	409.83	154.5	82.057	31.325	8.3295e-06	72.157	0.00060999	0.0002863	8.3481e-05	660.2	3.0264e-06	3.3174e-06	918.21	213.6	3.4647e-06	3.1521e-06	376.38	142.03	74.585	28.874	3.5559e-06	66.951	11.814	-96.442	-83.406	-165.292	-26.563	-39.381	-165.295	-160.148	-31.334	-1.597	-161.046	-156.583	-156.841	-152.582	-18.059	-153.678	-8191	255	
1836.669	1	1	0	0	0.13952	0.23711	0.27676	0.1579	0.15663	0.072635	0.22041	0.22856	0.17241	0.14371	0.15631	0.12152	0.1373	0.01158	0.14781	0.21448	-2.6625	-3.6479	-3.3937	-2.9146	-3.8146	-3.1917	-3.3187	-3.7896	-3.0229	-3.7771	-3.5771	-2.9562	-3.6708	-3.3	-3.2354	-3.8479	-44.396	-177.324	154.766	72.429	101.014	168.289	116.091	140.599	141.013	-6.466	176.704	66.912	164.547	100.296	175.793	-143.723	0.0020266	0.0004177	0.00012935	727.56	5.2512e-06	4.0633e-06	1009	232.4	9.3054e-06	5.1119e-06	410.85	155.97	81.608	31.526	6.1132e-06	72.298	0.0006049	0.0002921	7.5471e-05	662.03	3.0113e-06	3.1582e-06	920.97	213.42	3.1843e-06	3.2953e-06	377.15	142.97	74.811	29.003	3.3829e-06	67.304	11.339	-94.766	-84.312	-165.561	-32.837	-15.761	-165.563	-160.371	-30.753	-13.129	-160.990	-157.038	-156.683	-152.465	-22.861	-153.540	-8191	255	
1836.765	1	1	0	0	0.098076	0.25648	0.2232	0.10629	0.21772	0.095135	0.44272	0.25938	0.15095	0.12768	0.33856	0.065134	0.078278	0.15417	0.089568	0.16815	-2.6833	-3.5812	-3.6396	-2.9167	-3.6958	-3.1813	-3.2625	-3.9771	-3.0854	-3.3896	-3.5479	-3.0187	-3.6375	-3.2792	-3.1958	-3.9646	91.973	100.779	174.201	151.089	103.451	124.797	98.950	145.476	77.934	62.761	147.451	58.927	-63.974	62.486	-93.679	47.208	0.0021846	0.00058801	9.2286e-05	722.88	6.5257e-06	7.4074e-06	1014.1	236.81	7.888e-06	4.1783e-06	413.92	156.91	82.497	31.349	7.4721e-06	72.771	0.0006253	0.00029998	8.0219e-05	661.03	2.9771e-06	3.2198e-06	926.1	215.47	3.3338e-06	3.2306e-06	379.43	144.08	75.282	29.031	3.453e-06	67.574	11.674	-89.650	-97.339	-165.441	-41.425	-19.226	-165.537	-160.056	-25.464	-21.520	-160.814	-157.057	-155.891	-152.040	-49.908	-153.920	-8191	255	
1836.886	1	1	0	0	0.18329	0.12568	0.069365	0.13573	0.15902	0.29703	0.28599	0.1674	0.080272	0.23959	0.19195	0.10724	0.1881	0.080631	0.16389	0.10618	-2.6917	-3.2417	-3.6875	-3.1729	-3.4021	-3.4604	-3.1479	-3.7792	-2.9542	-3.4167	-3.8708	-3.0521	-3.6937	-3.4083	-2.9188	-3.7146	26.467	-154.520	125.731	158.364	178.824	-108.649	150.539	24.700	132.200	-34.847	59.224	-99.417	-144.237	-111.392	155.574	104.309	0.0022947	0.00056097	0.00012418	728.41	5.3086e-06	4.5141e-06	1011.4	235.33	4.1949e-06	5.8352e-06	411.77	155.05	81.597	30.853	7.5948e-06	71.447	0.00063998	0.00032062	8.2756e-05	664.29	3.0186e-06	2.9644e-06	926.19	214.87	3.2018e-06	3.2966e-06	378.02	142.53	74.337	28.479	3.5281e-06	66.125	10.402	-88.420	-70.964	-165.269	-34.664	-39.459	-165.487	-160.362	-27.914	-14.601	-160.813	-156.898	-155.909	-151.923	-38.469	-153.551	-8191	255	
1836.982	1	1	0	0	0.2274	0.063669	0.21965	0.1322	0.23421	0.082756	0.34058	0.075173	0.22869	0.19946	0.22006	0.19665	0.034025	0.045423	0.10277	0.043116	-2.6854	-3.1521	-3.5438	-3.2292	-3.4813	-3.475	-2.9562	-3.7729	-3.3896	-3.3417	-3.7667	-3.0354	-3.3563	-3.6417	-2.9437	-3.7875	-107.251	17.856	-156.390	176.537	-129.711	-99.282	153.631	-90.113	142.906	-135.068	129.571	-130.813	-101.755	132.376	61.876	57.543	0.0020129	0.00054774	0.00019596	721.09	7.3595e-06	4.29e-06	1006.8	233.36	8.4849e-06	4.7747e-06	408.56	154.25	80.625	30.404	5.9684e-06	70.476	0.00059683	0.0003266	8.4154e-05	657.07	3.2239e-06	3.1547e-06	919.95	213.43	3.3047e-06	3.0146e-06	376.17	141.31	73.884	28.247	3.5528e-06	65.426	9.429	-76.830	-94.525	-165.454	-27.982	-22.486	-165.320	-159.838	-25.216	-9.234	-160.960	-156.771	-156.239	-152.155	-26.450	-153.394	-8191	255	
1837.078	1	1	0	0	0.19171	0.1846	0.13554	0.12619	0.11314	0.15606	0.10659	0.30213	0.21403	0.11946	0.29079	0.1605	0.0838	0.059168	0.11137	0.09739	-2.8667	-3.0312	-3.6167	-3.0708	-3.4354	-3.6688	-3.1125	-3.6979	-3.4125	-3.1708	-3.925	-3.3396	-3.4604	-3.825	-2.9625	-3.7	87.800	138.550	62.077	147.921	31.387	113.041	94.868	132.728	-164.706	-163.784	120.022	169.091	-171.475	58.960	-12.657	-26.329	0.002162	0.00040579	0.00016955	719.14	4.9122e-06	4.3321e-06	1017.9	234.82	9.173e-06	3.4368e-06	414.6	154.94	81.105	30.584	4.3745e-06	71.333	0.0006139	0.00029444	7.5903e-05	657.3	3.1158e-06	2.9568e-06	922.38	214.21	3.3391e-06	3.1841e-06	379.56	142.15	74.48	28.26	3.7353e-06	66.019	11.793	-116.192	-88.652	-165.068	-23.200	-31.198	-165.147	-159.837	-22.728	0.921	-160.573	-156.896	-156.032	-152.045	-24.205	-153.541	-8191	255	
1837.150	1	1	0	0	0.15799	0.038917	0.33043	0.13763	0.26441	0.18873	0.094108	0.17801	0.18832	0.080589	0.26655	0.25391	0.24546	0.022921	0.074766	0.25429	-2.7979	-2.9208	-3.6646	-3.0875	-3.1458	-3.6521	-2.9667	-3.5917	-3.4021	-2.9979	-3.7646	-3.2625	-3.3104	-3.85	-2.9333	-3.7875	-25.142	135.629	86.085	102.759	-105.059	58.922	-134.674	-147.318	177.680	85.583	71.515	122.242	-171.243	84.069	147.067	86.212	0.0021234	0.00056333	0.00013941	728.19	5.9925e-06	4.1387e-06	1019	235.6	9.687e-06	5.4447e-06	416.12	156.11	81.744	31.051	4.8892e-06	72.04	0.00060863	0.00031255	7.9424e-05	661.26	3.0282e-06	2.8834e-06	929.4	215.48	3.5287e-06	3.5572e-06	382.03	143.68	74.983	28.657	3.5079e-06	66.693	11.219	-118.575	-80.783	-165.458	-29.516	-52.437	-165.293	-159.813	-29.025	-13.626	-160.917	-156.549	-156.023	-152.042	-3.458	-153.009	-8191	255	
1837.246	1	1	0	0	0.26385	0.13199	0.20618	0.33541	0.23446	0.18848	0.19354	0.158	0.13149	0.20962	0.18875	0.069805	0.10793	0.016898	0.14792	0.19024	-3.0708	-2.8979	-3.6958	-3.1854	-3.1125	-3.7896	-3.2625	-3.6312	-3.5708	-2.9625	-3.6271	-3.4688	-3.2188	-3.8229	-3.0729	-3.5625	55.952	130.587	-122.956	99.231	78.964	77.473	102.486	178.609	56.539	137.296	128.060	108.527	65.701	18.593	-65.506	-172.847	0.0021079	0.00067543	0.0001513	725.15	6.5601e-06	6.2336e-06	1017.2	236.08	1.089e-05	4.403e-06	414.98	154.79	81.307	30.38	8.1317e-06	69.899	0.00059642	0.0003253	8.3136e-05	664.44	3.2155e-06	2.9616e-06	927.57	215.6	2.9982e-06	3.1917e-06	379.94	142.2	74.348	28.063	3.6614e-06	64.647	8.813	-75.923	-81.027	-165.070	-42.072	-17.663	-165.471	-159.456	-23.666	-34.285	-160.164	-156.791	-155.781	-151.880	-40.391	-153.569	-8191	255	
1837.365	1	1	0	0	0.15232	0.19852	0.15618	0.15182	0.072885	0.14766	0.20023	0.1408	0.2119	0.17422	0.070882	0.18993	0.13939	0.046577	0.12881	0.26103	-3.1021	-3.0062	-3.7375	-3.4313	-3.025	-3.8021	-3.1625	-3.5229	-3.5812	-3.0083	-3.675	-3.5167	-2.9042	-3.8854	-3.0917	-3.375	145.961	67.951	-90.319	74.660	49.143	-24.658	113.451	108.191	29.088	29.128	-113.737	148.911	-94.754	71.312	-1.554	40.062	0.0020007	0.00054107	0.0001244	723.46	4.5381e-06	4.8986e-06	1009.3	233.66	1.0525e-05	6.5893e-06	410.4	154.17	80.693	29.922	5.9753e-06	69.286	0.00057717	0.00031181	8.0909e-05	660.41	3.2948e-06	2.9907e-06	921.25	213.37	3.1058e-06	3.3237e-06	376.03	140.68	73.705	27.698	3.3349e-06	64.03	12.736	-88.374	-70.223	-164.825	-38.984	-24.970	-164.960	-159.704	-23.878	-23.769	-160.414	-156.420	-155.623	-151.887	-34.771	-153.516	-8191	255	
1837.461	1	1	0	0	0.03504	0.11283	0.1754	0.12012	0.20411	0.10799	0.14204	0.15812	0.17538	0.19586	0.12496	0.21366	0.17051	0.18943	0.10127	0.18991	-3.4646	-2.9396	-3.6229	-3.5729	-2.9958	-3.8646	-3.2833	-3.3521	-3.7604	-2.8708	-3.5812	-3.5563	-2.9562	-3.7979	-3.1333	-3.3271	150.941	166.210	-95.589	122.136	-122.548	-45.459	156.588	108.162	-11.519	106.737	-56.040	140.470	5.079	140.419	151.061	161.491	0.0020309	0.00050588	0.00012794	723.62	6.6984e-06	6.5845e-06	1010.7	234.8	7.8774e-06	3.5589e-06	411.86	154.25	81.888	30.151	5.4116e-06	69.739	0.00056603	0.00030497	8.2842e-05	660.94	3.0534e-06	3.2676e-06	922.94	214.15	3.1617e-06	3.2696e-06	378.23	141.87	74.455	27.849	3.2054e-06	64.545	11.508	-80.176	-94.741	-164.812	-24.004	-16.663	-165.062	-159.586	-10.352	-35.780	-160.824	-156.637	-156.727	-152.531	-25.874	-153.958	-8191	255	
1837.559	1	1	0	0	0.077349	0.19661	0.4332	0.1574	0.14001	0.036094	0.20814	0.069898	0.077584	0.16573	0.084555	0.18113	0.23196	0.12824	0.17262	0.35821	-3.4104	-3.1042	-3.4188	-3.5792	-2.9167	-3.6292	-3.3604	-3.0646	-3.6375	-3.0396	-3.6437	-3.7125	-3.0208	-3.6896	-3.4042	-3.3	-36.571	-155.190	-92.467	130.173	-122.550	173.592	90.866	-154.217	-79.433	175.867	62.452	113.161	54.309	174.712	68.616	101.232	0.0021789	0.00039786	0.00017751	730.68	5.5083e-06	5.3318e-06	1018.3	234.66	9.521e-06	5.0059e-06	419.51	156.87	81.643	30.636	6.0501e-06	71.072	0.00060656	0.00031816	8.3861e-05	664.77	3.3014e-06	3.1949e-06	929.31	215.14	3.3856e-06	3.2369e-06	383.79	143.84	74.951	28.3	3.3784e-06	65.828	9.037	-89.029	-82.904	-165.567	-27.601	-33.810	-166.050	-160.500	-10.782	-24.790	-161.426	-157.393	-156.690	-152.644	-42.309	-153.869	-8191	255	
1837.677	1	1	0	0	0.28785	0.12016	0.17468	0.19402	0.15432	0.10417	0.073757	0.19992	0.044272	0.13148	0.14955	0.24572	0.29269	0.15997	0.036735	0.29636	-3.3167	-3.0938	-3.4083	-3.7	-2.8312	-3.5062	-3.5625	-3.1146	-3.6854	-3.0458	-3.3812	-3.7646	-2.95	-3.4792	-3.5312	-3.0479	114.179	-13.842	-59.543	147.355	-19.206	20.134	97.859	137.701	28.726	147.318	-138.737	125.724	-151.819	105.418	-72.351	170.162	0.002068	0.00048735	0.00014533	731.19	6.8952e-06	5.2346e-06	1016.4	236.63	6.7098e-06	5.027e-06	415.47	155.86	81.055	30.497	7.1649e-06	70.098	0.00058255	0.00032068	8.5794e-05	666.68	3.4557e-06	3.1104e-06	931.31	216.03	3.2088e-06	3.1959e-06	381.97	142.85	74.493	28.113	3.0475e-06	65.142	8.780	-85.712	-66.130	-166.041	-34.195	-42.330	-165.957	-160.171	-16.030	-23.542	-161.275	-157.234	-156.908	-152.880	-41.486	-153.846	-8191	255	
1837.749	1	1	0	0	0.16225	0.15888	0.32536	0.092239	0.017069	0.089391	0.29912	0.086729	0.044656	0.27635	0.083957	0.30502	0.13722	0.03353	0.23813	0.21461	-3.4792	-3.1437	-3.1083	-3.8187	-2.8833	-3.6708	-3.7458	-3	-3.6813	-3.25	-3.2938	-3.8333	-2.9396	-3.6833	-3.8667	-2.9875	-49.568	-166.837	26.760	131.023	87.735	16.689	-166.675	71.467	-77.781	50.071	135.283	138.425	-121.652	109.783	-118.351	160.355	0.002222	0.00050526	0.00017491	729.19	6.0254e-06	4.2166e-06	1014.1	234.51	1.1472e-05	3.5666e-06	412.35	154.94	81.031	30.464	5.3595e-06	70.35	0.00060361	0.00030848	8.6657e-05	665.45	3.3728e-06	2.8993e-06	924.96	214.59	3.374e-06	3.3001e-06	379.86	142.68	74.409	28.197	3.3027e-06	65.185	9.984	-104.556	-82.109	-165.758	-36.385	-35.638	-165.717	-160.263	-26.451	-14.832	-160.884	-157.248	-156.498	-151.963	-64.242	-153.539	-8191	255	
1837.845	1	1	0	0	0.065854	0.11746	0.11493	0.1452	0.10382	0.23158	0.29179	0.038596	0.1688	0.071491	0.13223	0.43362	0.18463	0.11645	0.24918	0.1039	-3.25	-3.2854	-3.2021	-3.6604	-3.0062	-3.4021	-3.7208	-3.1958	-3.7729	-3.3312	-3.3208	-3.8729	-2.9354	-3.4292	-3.7042	-3.0583	-115.691	-87.710	168.756	114.106	143.513	158.397	117.674	-173.411	-31.937	-176.504	178.904	132.815	181.604	180.716	-148.543	107.808	0.0021272	0.00046173	0.00015194	730.71	7.103e-06	4.6052e-06	1018.5	235.02	1.0296e-05	4.9568e-06	419.67	155.71	82.406	30.798	5.9736e-06	70.703	0.00060653	0.00029801	8.7296e-05	666.09	3.5392e-06	3.0855e-06	927.48	215.53	3.1739e-06	2.9284e-06	382.36	143.02	74.936	28.402	3.0323e-06	65.44	10.056	-90.156	-66.000	-165.388	-46.355	-32.255	-165.436	-160.378	-26.207	-42.998	-161.114	-157.441	-157.173	-152.528	-43.378	-153.456	-8191	255	
1837.966	1	1	0	0	0.091369	0.18093	0.13995	0.19751	0.31521	0.041333	0.078982	0.20889	0.13303	0.14173	0.096186	0.20484	0.19176	0.13277	0.32821	0.3549	-3.2479	-3.5333	-2.8917	-3.6833	-3.2021	-3.375	-3.9271	-3.0229	-3.6646	-3.4354	-2.9167	-3.8771	-3.1708	-3.2333	-3.7521	-3.1917	24.806	113.815	-176.793	146.206	71.293	127.229	-170.656	144.202	77.627	-37.671	-122.748	119.408	-156.740	-129.424	-169.736	118.810	0.0022032	0.00060223	0.00010514	735.09	3.114e-06	6.694e-06	1022.6	235.47	7.3576e-06	4.7506e-06	418.57	156.4	81.565	30.573	5.1697e-06	70.217	0.00059908	0.00030922	8.1617e-05	669.02	3.2155e-06	3.4025e-06	934.8	215.68	3.2384e-06	3.1098e-06	383.8	143.75	74.716	28.196	3.1397e-06	65.266	11.153	-102.835	-74.315	-165.348	-47.782	-41.587	-165.900	-160.538	-33.443	-27.876	-161.244	-157.370	-156.964	-151.825	-41.694	-154.007	-8191	255	
1838.062	1	1	0	0	0.18225	0.14242	0.14281	0.29718	0.03628	0.23743	0.048021	0.25275	0.12587	0.15378	0.21934	0.13063	0.25472	0.25993	0.18739	0.11311	-3.025	-3.6021	-2.8396	-3.7646	-3.1896	-2.9292	-3.7458	-2.9042	-3.4542	-3.5146	-2.9667	-3.8583	-3.2771	-3.0542	-3.7188	-3.3688	-104.486	97.490	175.654	-127.140	-147.367	-94.387	-135.423	81.694	-15.600	-174.210	170.861	127.836	134.427	-66.410	-136.898	44.779	0.0019889	0.00049738	0.00010396	733.97	5.5449e-06	4.9929e-06	1024.7	235.25	1.0157e-05	5.786e-06	411.7	155.08	81.163	30.207	6.9172e-06	68.937	0.0005896	0.00028489	8.4759e-05	667.08	3.4047e-06	3.2849e-06	931.84	215.04	3.2006e-06	3.4099e-06	379.27	141.98	74.03	27.711	2.9262e-06	64.086	11.079	-92.648	-68.612	-165.846	-46.286	-19.332	-165.966	-160.504	-28.121	-31.410	-160.959	-157.039	-156.742	-152.773	-33.976	-153.864	-8191	255	
1838.158	1	1	0	0	0.11474	0.3378	0.079287	0.10248	0.12776	0.19835	0.13945	0.066057	0.080816	0.12269	0.21028	0.14733	0.021169	0.16636	0.10859	0.14941	-3.125	-3.7479	-2.9729	-3.875	-3.2979	-2.9146	-3.8646	-3.1063	-3.275	-3.5812	-3.05	-3.6833	-3.4542	-3.1042	-3.65	-3.3292	-46.095	159.427	61.628	79.195	101.772	24.394	-151.605	167.036	20.396	-5.424	170.651	126.986	-109.410	-134.854	81.346	163.448	0.0021197	0.00053729	0.00015944	724.91	5.2827e-06	5.258e-06	1002	232.65	8.086e-06	4.6513e-06	409.53	153.72	80.037	29.541	8.0493e-06	68.687	0.00060269	0.00026591	9.2941e-05	661.62	3.0564e-06	3.3728e-06	920.89	212.74	3.4327e-06	2.9319e-06	376.41	140.77	73.166	27.449	3.4587e-06	63.557	9.239	-84.583	-74.064	-165.688	-29.941	-39.925	-165.552	-160.508	-20.771	-25.470	-161.176	-157.302	-157.348	-152.130	-48.756	-153.999	-8191	255	
1838.279	1	1	0	0	0.084416	0.26852	0.17666	0.21116	0.23512	0.14275	0.11006	0.097916	0.18409	0.14776	0.37237	0.078654	0.16809	0.26223	0.2104	0.079449	-2.8729	-3.6417	-2.9042	-3.7875	-3.3667	-2.9604	-3.7646	-3.3167	-3.1333	-3.7146	-3.1437	-3.525	-3.6104	-3.0083	-3.7354	-3.3583	161.809	107.951	115.722	163.749	37.360	50.846	-4.954	73.517	80.007	-50.652	-150.446	91.288	-81.721	140.996	148.907	76.596	0.0019683	0.00069255	0.00013009	722.3	6.237e-06	5.6389e-06	1012.8	232.07	9.9902e-06	6.0713e-06	411.41	154.08	80.597	29.594	5.3717e-06	68.107	0.00055957	0.00031773	8.8159e-05	661.06	3.2173e-06	3.2503e-06	924.44	213.37	3.3216e-06	3.1424e-06	377.81	141.29	73.597	27.37	3.0532e-06	63.308	10.424	-114.478	-84.175	-165.511	-30.481	-43.338	-165.525	-160.293	-15.007	-12.177	-161.251	-157.306	-156.977	-152.406	-35.273	-153.990	-8191	255	
1838.351	1	1	0	0	0.12023	0.14413	0.17132	0.28477	0.02821	0.22801	0.094703	0.031824	0.15761	0.22815	0.14929	0.2356	0.11304	0.24798	0.2316	0.30654	-2.6937	-3.7542	-2.8438	-3.5042	-3.5438	-3.0312	-3.6667	-3.3	-3.0458	-3.6333	-3.1917	-3.4229	-3.6708	-2.9479	-3.5854	-3.3146	-178.689	-39.580	134.120	119.312	-6.405	-32.356	87.803	120.898	-34.797	-154.703	-173.279	98.931	-70.652	163.071	114.992	137.718	0.0021284	0.00064784	0.00013358	726.71	8.7341e-06	6.7802e-06	1027.3	232.92	9.0844e-06	3.5193e-06	412.25	154.83	80.969	29.164	7.2135e-06	67.652	0.00061638	0.00030238	8.2981e-05	664.83	3.1158e-06	3.352e-06	933.17	213.55	3.3914e-06	3.1369e-06	378.95	141.9	73.917	26.995	3.5515e-06	62.633	8.853	-108.906	-109.237	-165.048	-37.377	-19.482	-165.644	-160.761	-21.104	-11.781	-161.583	-157.336	-157.051	-152.373	-31.979	-153.627	-8191	255	
1838.447	1	1	0	0	0.23091	0.065699	0.10044	0.23218	0.36937	0.21275	0.10874	0.054339	0.11539	0.11799	0.19668	0.29447	0.19156	0.065976	0.013208	0.16175	-2.5875	-3.6708	-2.95	-3.3479	-3.7083	-2.9854	-3.7792	-3.3958	-2.9729	-3.6979	-3.3854	-3.3125	-3.6875	-3.0104	-3.7146	-3.6208	11.730	110.828	104.688	96.029	-6.570	14.232	84.954	81.357	-53.759	-39.733	-41.733	156.370	134.084	27.310	56.875	155.868	0.0020492	0.00057379	0.00016236	729.58	6.3778e-06	5.3316e-06	1013.7	234.05	6.1981e-06	6.2987e-06	411.2	153.93	80.199	31.4	5.0755e-06	73.676	0.00058141	0.00029863	9.5737e-05	666.92	3.1447e-06	3.2911e-06	930.29	214.07	3.303e-06	3.2098e-06	376.92	141.21	73.375	29.02	2.9919e-06	68.183	10.212	-101.995	-113.006	-165.633	-37.909	-43.609	-165.619	-160.180	-27.910	-20.943	-161.412	-156.744	-156.425	-152.154	-33.676	-153.720	-8191	255	
1838.541	1	1	0	0	0.22392	0.099349	0.16271	0.22146	0.1665	0.096991	0.13324	0.01676	0.15509	0.29352	0.33217	0.20399	0.058424	0.12627	0.15576	0.22007	-2.5833	-3.6396	-3.2625	-3.0187	-3.7167	-3.0667	-3.6833	-3.4479	-2.9708	-3.6625	-3.4604	-3.0333	-3.675	-3.0896	-3.4771	-3.7375	6.853	133.773	101.911	170.569	-151.110	57.990	21.418	109.264	-120.942	-135.446	-165.708	-160.511	89.350	152.515	-13.526	90.234	0.0021834	0.00052784	0.00014498	729.08	4.4538e-06	4.5866e-06	1016.4	232.49	8.6785e-06	5.6963e-06	407.35	154.12	79.936	32.421	4.4511e-06	74.641	0.00061106	0.00029949	7.4988e-05	664.07	3.0071e-06	3.3527e-06	926.03	212.14	3.4304e-06	3.0069e-06	374.55	141.04	73.249	29.829	3.2256e-06	69.434	8.905	-99.348	-65.664	-165.252	-24.094	-1.602	-165.500	-160.364	-8.647	-29.512	-160.918	-156.976	-157.153	-152.989	-40.287	-154.504	-8191	255	
1838.662	1	1	0	0	0.11941	0.10866	0.31056	0.28082	0.21828	0.34731	0.26648	0.22876	0.062118	0.1714	0.16695	0.067479	0.10766	0.1419	0.13178	0.18775	-2.6396	-3.825	-3.2146	-3.0271	-3.5479	-3.0208	-3.4521	-3.5271	-2.7479	-3.5125	-3.4583	-2.95	-3.7188	-3.0771	-3.2229	-3.7521	77.400	68.104	46.085	134.341	135.038	-10.686	137.875	47.337	-44.373	177.496	-162.679	85.656	-135.499	128.561	55.215	140.752	0.0022462	0.0003643	0.00013832	724.17	7.7475e-06	3.7732e-06	1009.9	231.02	9.0211e-06	4.893e-06	408.92	154.64	80.24	31.454	5.6096e-06	72.949	0.00064245	0.00029123	8.1582e-05	664.1	3.2798e-06	3.3319e-06	926.37	212.21	3.4577e-06	3.0514e-06	375.31	141.33	73.439	29.193	3.4984e-06	67.909	9.977	-113.604	-83.251	-165.974	-33.298	-26.851	-166.147	-160.809	-14.076	-32.358	-162.145	-157.668	-157.159	-152.694	-29.773	-154.275	-8191	255	
1838.756	1	1	0	0	0.25726	0.098202	0.19828	0.064246	0.21065	0.12276	0.082066	0.38266	0.039908	0.15025	0.16425	0.25498	0.24108	0.27136	0.15024	0.074242	-2.6125	-3.6042	-3.4437	-2.8187	-3.7396	-3.2583	-3.3563	-3.6813	-3.2354	-3.5354	-3.55	-3.1083	-3.775	-3.2042	-3.0042	-3.7313	-12.407	-160.258	-154.052	161.967	-118.480	169.041	-150.298	124.400	-85.545	-124.948	156.314	68.219	168.148	114.266	173.022	66.098	0.0022137	0.00058099	0.0001173	732.86	4.9472e-06	3.9193e-06	1018.3	232.63	7.8342e-06	3.2235e-06	412.52	155.46	80.412	31.093	6.8851e-06	72.444	0.00062538	0.00030331	7.8924e-05	667.35	2.8985e-06	3.0426e-06	929.63	213.36	3.3844e-06	2.8173e-06	379.32	142.27	73.603	28.826	3.4296e-06	67.106	9.116	-99.400	-91.376	-166.123	-35.259	-44.459	-166.027	-160.665	-30.871	-38.687	-161.682	-157.355	-156.568	-152.745	-27.257	-153.923	-8191	255	
1838.852	1	1	0	0	0.28713	0.2331	0.1451	0.33715	0.090092	0.18279	0.43335	0.12318	0.23503	0.091916	0.13237	0.18946	0.16065	0.11932	0.10538	0.1383	-2.5625	-3.325	-3.5021	-3.0604	-3.6437	-3.15	-3.0542	-3.675	-3.0625	-3.5208	-3.7167	-3.0542	-3.5271	-3.2292	-3.0271	-3.7833	3.908	-67.725	-108.491	-122.311	90.744	38.926	151.886	-44.960	96.695	118.033	-128.554	162.637	108.531	8.711	-12.352	100.897	0.0020574	0.00060523	0.00013504	733.31	7.1482e-06	4.3294e-06	1022.4	233.09	8.9136e-06	4.9914e-06	411.83	153.87	79.729	30.671	6.0407e-06	70.789	0.00061081	0.00032198	8.4016e-05	667.25	3.099e-06	3.2523e-06	932.8	213.51	3.3827e-06	3.2397e-06	378.37	141.19	73.473	28.292	3.2603e-06	65.444	11.882	-97.636	-77.022	-165.665	-13.391	-15.063	-165.826	-160.652	-18.590	-33.857	-161.481	-157.285	-156.699	-152.558	-22.554	-153.862	-8191	255	
1838.950	1	1	0	0	0.23523	0.1284	0.20853	0.04363	0.13435	0.074124	0.14472	0.2514	0.21391	0.072521	0.13388	0.2463	0.11768	0.10007	0.2095	0.2327	-2.5833	-3.3125	-3.6104	-2.8979	-3.6854	-3.3875	-3.0229	-3.7417	-2.9313	-3.0458	-3.6479	-2.9688	-3.5521	-3.4417	-3.0104	-3.8271	164.798	126.736	131.684	121.126	164.693	24.398	69.017	98.913	-28.917	-17.585	124.647	103.521	-92.966	31.322	-165.090	121.538	0.0019816	0.00071226	0.00014042	732.82	5.0023e-06	4.5579e-06	1016.1	233.24	8.5869e-06	5.0482e-06	410.33	155.07	80.128	30.272	6.4822e-06	69.716	0.00059779	0.00032346	7.7388e-05	666	2.9753e-06	3.2316e-06	928.98	212.84	3.5798e-06	3.1584e-06	377.45	141.78	73.456	28.142	3.422e-06	65.184	9.413	-94.661	-74.012	-165.807	-34.245	-27.140	-165.778	-160.553	-22.545	-22.989	-162.165	-158.035	-157.518	-153.443	-32.696	-154.831	-8191	255	
1839.045	1	1	0	0	0.024055	0.22693	0.16711	0.1727	0.12081	0.28174	0.18971	0.093033	0.21244	0.17153	0.028156	0.28085	0.10958	0.08721	0.095292	0.2805	-2.7354	-2.9813	-3.7438	-2.8896	-3.5687	-3.5583	-2.9917	-3.7104	-3.3229	-2.9104	-3.8063	-2.8521	-3.5	-3.6396	-2.8125	-3.6375	73.062	-34.186	67.911	136.443	68.140	-90.153	110.374	169.413	178.681	1.980	141.674	164.670	-155.876	-14.847	-31.950	160.516	0.0020709	0.00061406	0.00015481	726.94	5.6956e-06	2.1556e-06	1021.6	233.45	1.118e-05	6.0825e-06	413.7	155.78	80.737	30.406	5.3205e-06	70.002	0.00060066	0.00032573	8.5518e-05	666.42	3.4323e-06	3.0717e-06	934.12	213.94	3.3734e-06	3.4057e-06	380.08	142.99	73.902	28.078	3.5755e-06	65.117	9.940	-85.695	-76.998	-166.856	-33.227	-56.112	-166.557	-161.111	-23.779	-35.787	-161.893	-157.687	-157.099	-153.598	-28.705	-154.677	-8191	255	
1839.141	1	1	0	0	0.14151	0.20872	0.075074	0.29439	0.17856	0.11488	0.24925	0.20153	0.15709	0.097691	0.1631	0.27897	0.12054	0.14343	0.1312	0.38824	-2.7917	-2.8312	-3.7854	-3.0667	-3.3833	-3.7042	-2.8812	-3.7333	-3.3438	-2.95	-3.75	-3.1063	-3.55	-3.5271	-2.8625	-3.7792	-35.890	68.104	-16.034	-163.398	17.225	176.409	162.688	139.103	130.252	-10.315	-109.272	134.527	158.953	130.138	22.550	120.278	0.0020937	0.00037573	0.00012638	729.64	4.9963e-06	6.6523e-06	1029.2	235.73	1.1287e-05	5.6965e-06	415.62	155.97	80.805	29.994	4.526e-06	68.435	0.00059111	0.00034157	8.3257e-05	667.62	3.0732e-06	3.2745e-06	938.09	215.33	3.378e-06	3.6975e-06	383.09	143.51	74.058	27.63	3.5818e-06	63.627	9.820	-89.461	-99.580	-166.458	-22.943	-35.398	-166.667	-161.009	-31.547	-26.763	-161.879	-157.976	-157.663	-153.068	-31.459	-154.551	-8191	255	
1839.237	1	1	0	0	0.23499	0.3037	0.2011	0.26839	0.13042	0.095565	0.10634	0.17817	0.24027	0.2667	0.099327	0.096525	0.1137	0.19686	0.060268	0.20666	-2.9583	-2.8312	-3.7938	-3.2125	-3.2917	-3.6937	-2.9688	-3.6021	-3.6042	-2.9729	-3.8208	-3.2562	-3.2208	-3.7479	-2.9792	-3.4562	19.236	-43.230	-129.589	-96.141	166.101	121.518	169.879	-155.189	-53.548	-102.862	-85.628	131.369	76.724	131.489	-4.502	175.135	0.00202	0.00063182	0.00010453	736.96	6.9591e-06	6.8758e-06	1023.5	233.12	7.0733e-06	5.443e-06	411.34	152.73	79.785	28.625	4.8489e-06	65.573	0.00059115	0.00033639	8.3826e-05	669.9	3.3752e-06	3.2343e-06	934.14	213.18	3.3245e-06	3.7476e-06	378.36	140.41	73.081	26.456	3.7201e-06	60.958	9.814	-103.120	-98.427	-166.471	-27.764	-32.591	-166.509	-161.538	-3.543	-32.056	-162.036	-158.033	-157.300	-153.334	-25.761	-154.638	-8191	255	
1839.357	1	1	0	0	0.090883	0.16011	0.08517	0.28511	0.24204	0.13803	0.31859	0.17389	0.11273	0.12691	0.13771	0.23264	0.3604	0.20546	0.04552	0.26974	-3.1375	-2.8875	-3.7021	-3.2271	-3.2938	-3.7896	-3.1063	-3.5104	-3.625	-3.0062	-3.7687	-3.375	-2.9646	-3.7938	-3.2333	-3.3667	128.135	-157.190	53.038	91.308	101.137	-138.885	91.075	-4.165	-27.998	55.789	89.034	79.549	11.249	178.254	45.475	70.650	0.0021017	0.00056729	0.00011993	724.96	7.2277e-06	6.2689e-06	1018.1	231.56	7.6378e-06	4.3374e-06	407.97	151.95	78.818	28.051	5.5458e-06	64.939	0.00058683	0.00031686	7.8406e-05	663.4	3.4269e-06	3.3008e-06	927.08	212.06	3.5368e-06	3.2779e-06	375.4	139.27	72.361	25.99	3.4227e-06	60.299	10.556	-70.464	-71.008	-166.280	-49.518	-20.678	-166.589	-161.337	-33.556	-49.118	-161.927	-158.303	-157.211	-153.383	-39.420	-154.514	-8191	255	
1839.454	1	1	0	0	0.17318	0.090675	0.20144	0.28792	0.025695	0.066986	0.24092	0.098752	0.36939	0.24747	0.18885	0.32344	0.26027	0.10468	0.16066	0.056837	-3.2562	-2.8812	-3.4375	-3.3583	-2.9396	-3.6729	-3.2062	-3.3292	-3.4708	-2.8812	-3.5354	-3.3521	-2.9896	-3.8208	-2.9792	-3.2313	-73.201	86.740	-85.221	147.944	-75.608	-171.286	90.636	-178.936	-12.608	-165.848	175.988	89.530	154.081	12.371	-160.156	143.173	0.0019611	0.00057006	0.00013122	730.91	5.421e-06	6.0487e-06	1014.1	232.52	9.9782e-06	6.4351e-06	416.35	154.65	80.086	29.479	6.5499e-06	68.666	0.00055998	0.00031107	7.6507e-05	664.9	3.335e-06	3.4863e-06	928.39	212.7	3.4507e-06	3.3981e-06	380.45	142.16	73.66	27.233	3.0892e-06	63.801	10.817	-98.074	-80.857	-166.347	-45.658	-32.227	-166.179	-161.015	-22.701	-38.132	-161.545	-157.879	-157.438	-153.677	-39.107	-154.011	-8191	255	
1839.550	1	1	0	0	0.18318	0.10651	0.38139	0.18596	0.14536	0.31113	0.22905	0.19639	0.06264	0.21486	0.18708	0.22136	0.036074	0.22879	0.10711	0.16806	-3.3375	-2.8271	-3.4813	-3.4958	-2.7396	-3.5833	-3.2812	-3.0333	-3.8187	-3.0563	-3.4125	-3.5708	-2.9333	-3.6583	-3.3354	-3.4771	-30.179	106.936	5.369	-113.748	107.741	141.672	120.935	141.443	171.507	-155.074	64.461	71.753	-160.492	173.149	-116.562	89.006	0.0021629	0.00062117	0.00015734	730.63	5.6394e-06	5.0177e-06	1026.3	233.66	6.9379e-06	4.5011e-06	415.11	156.49	81.554	30.446	5.8343e-06	69.645	0.00059594	0.00031686	8.0219e-05	667.96	3.5079e-06	2.6792e-06	937.47	214.79	2.8755e-06	3.3126e-06	382.82	144.19	74.316	27.951	3.2439e-06	64.896	8.367	-91.063	-81.850	-166.536	-20.204	-24.028	-166.501	-161.158	-16.572	-19.476	-161.718	-158.147	-157.286	-153.147	-37.528	-154.102	-8191	255	
1839.646	1	1	0	0	0.15424	0.040059	0.16774	0.17873	0.19468	0.13693	0.24733	0.16375	0.14288	0.12443	0.24145	0.15306	0.046158	0.204	0.29736	0.16693	-3.3792	-2.9875	-3.3521	-3.5042	-2.7729	-3.4813	-3.4625	-3.1958	-3.7375	-3.1042	-3.4188	-3.8312	-2.8292	-3.5667	-3.2667	-3.0583	-38.922	-57.509	-152.801	-67.907	28.628	151.185	86.898	103.445	-92.093	126.728	180.069	145.587	127.140	173.279	-62.682	135.216	0.0021165	0.00051773	0.00016891	740.24	5.3313e-06	4.895e-06	1026	233.28	1.0244e-05	4.8681e-06	413.49	155.9	80.531	29.236	5.9633e-06	67.991	0.00059745	0.00028341	8.6174e-05	671.98	3.359e-06	2.9173e-06	937.59	214.81	3.3524e-06	3.4134e-06	381.41	142.91	73.96	27.187	3.4258e-06	62.749	9.870	-94.783	-79.578	-166.302	-44.769	-49.670	-166.841	-161.088	-28.055	-19.961	-162.318	-158.164	-157.307	-153.147	-38.829	-154.587	-8191	255	
1839.742	1	1	0	0	0.0577	0.096667	0.12483	0.15647	0.11143	0.12612	0.195	0.28569	0.12019	0.22065	0.37338	0.078049	0.059954	0.085649	0.13236	0.22413	-3.2771	-2.9771	-3.1188	-3.6917	-2.9042	-3.6083	-3.5938	-2.8625	-3.6958	-2.9875	-3.3	-3.6917	-2.9813	-3.4938	-3.3104	-2.9625	111.689	164.280	-46.964	-123.143	-104.248	31.644	169.767	108.321	122.658	100.385	105.164	-94.836	105.512	-103.523	-33.703	110.712	0.0019622	0.00037895	0.00016265	735.47	5.9809e-06	6.7792e-06	1020.3	233.52	7.8453e-06	4.7921e-06	410.42	155.24	81.1	29.96	6.2083e-06	68.795	0.00056975	0.0002868	8.5e-05	668.72	3.6551e-06	3.343e-06	932.24	214.16	3.043e-06	3.5072e-06	379.86	142.87	74.441	27.56	3.4018e-06	63.936	13.421	-90.948	-85.093	-166.310	-39.457	-31.461	-166.702	-161.183	-27.471	-3.243	-162.094	-157.735	-157.563	-153.265	-16.259	-154.461	-8191	255	
1839.838	1	1	0	0	0.06082	0.033531	0.19746	0.2201	0.1099	0.076569	0.15421	0.10964	0.15444	0.21431	0.36362	0.15397	0.086195	0.063649	0.13419	0.24536	-3.3375	-3.075	-3.1	-3.6625	-3.1813	-3.4437	-3.6667	-3.1104	-3.6583	-3.3521	-3.2771	-3.8417	-3.0312	-3.2917	-3.4646	-3.1354	51.527	151.300	18.674	127.495	-86.834	-158.963	134.780	166.238	171.598	-30.016	154.810	132.178	158.069	-18.687	95.542	144.734	0.002182	0.00075499	0.00010722	734.06	7.899e-06	4.9285e-06	1026.1	236.11	6.5291e-06	5.3733e-06	415.94	157.11	81.538	30.98	4.3259e-06	72.686	0.00058875	0.00032635	7.7785e-05	670.28	3.5037e-06	2.7395e-06	936.6	215.35	3.0959e-06	3.3112e-06	382.28	144.52	74.848	28.738	3.1896e-06	67.374	11.305	-106.525	-84.386	-166.659	-37.878	-41.831	-166.545	-161.053	-30.720	-24.414	-161.758	-157.941	-157.731	-153.022	-45.929	-154.219	-8191	255	
1839.957	1	1	0	0	0.24903	0.10097	0.11083	0.22712	0.2163	0.097645	0.11825	0.13492	0.28994	0.19953	0.24942	0.22315	0.094171	0.21037	0.13327	0.22259	-3.1229	-3.2125	-2.9854	-3.7313	-3.0146	-3.4979	-3.7625	-3.0521	-3.7188	-3.3063	-3.1979	-3.8708	-3.2208	-3.4229	-3.6521	-2.9042	-133.764	96.556	14.413	134.640	-134.981	-55.550	163.049	84.414	42.189	-135.820	109.060	153.068	83.465	-178.738	144.961	165.792	0.0021967	0.00047797	0.00015772	733.65	8.9312e-06	6.73e-06	1031.9	235.36	1.0536e-05	6.4266e-06	416.9	158.95	82.054	31.082	7.9126e-06	72.635	0.00061176	0.00027756	9.648e-05	671.74	3.3062e-06	3.0682e-06	942.2	216.19	3.3995e-06	3.1938e-06	383.72	145.71	75.034	28.866	3.5837e-06	67.286	10.396	-108.553	-68.883	-166.286	-30.760	-35.267	-166.796	-161.021	-50.026	-16.151	-161.700	-157.880	-157.559	-152.509	-40.346	-154.149	-8191	255	
1840.053	1	1	0	0	0.2209	0.15379	0.18834	0.31756	0.27066	0.075217	0.22302	0.20193	0.21305	0.11194	0.21436	0.30928	0.035106	0.13154	0.054257	0.19537	-3.1604	-3.5062	-3	-3.8625	-2.9521	-3.1937	-3.7646	-3.1542	-3.5438	-3.4917	-3.0563	-3.6979	-3.2396	-3.1688	-3.6292	-3.1271	168.873	-84.392	36.633	155.960	119.935	95.412	159.655	145.781	121.521	91.876	158.189	165.544	-119.223	113.623	-9.527	-57.047	0.0021962	0.00049021	0.0001505	738.04	5.6319e-06	4.8032e-06	1023.8	234.16	4.6525e-06	4.2655e-06	415.81	156.99	81.167	30.491	6.0396e-06	71.538	0.00060133	0.00030331	8.9161e-05	672.88	3.3044e-06	3.2087e-06	938.26	214.83	3.2198e-06	3.2536e-06	381.08	143.87	74.438	28.319	3.3096e-06	66.399	9.368	-102.385	-86.425	-166.061	-22.198	-43.040	-166.631	-161.457	-13.103	-18.569	-162.049	-157.924	-157.613	-153.005	-23.227	-154.457	-8191	255	
1840.149	1	1	0	0	0.14477	0.19923	0.028876	0.13431	0.15042	0.039997	0.38159	0.28057	0.22235	0.078661	0.15412	0.22514	0.076598	0.080753	0.029391	0.030886	-3.0771	-3.4	-2.8521	-3.7229	-3.3125	-2.9771	-3.7313	-3.0146	-3.3979	-3.5896	-3.0438	-3.8438	-3.3271	-3.2021	-3.6875	-2.9771	-37.972	47.661	-155.475	73.126	148.430	-130.113	153.230	125.036	72.099	-58.323	63.662	173.555	161.766	-147.015	122.723	-176.811	0.0020438	0.00064498	0.00011101	734.77	5.3349e-06	4.5567e-06	1023.5	234.43	9.2421e-06	6.6853e-06	412.15	156.75	80.684	30.585	6.9803e-06	71.467	0.00059694	0.0003001	8.4137e-05	668.89	3.2203e-06	3.2226e-06	932.74	214.28	3.2652e-06	3.1952e-06	379.1	144.02	74.237	28.317	3.158e-06	66.461	7.954	-83.172	-89.175	-166.141	-25.681	-30.518	-166.494	-161.210	-9.029	-43.719	-162.048	-158.138	-158.002	-153.187	-24.364	-154.620	-8191	255	
1840.246	1	1	0	0	0.018889	0.07466	0.29975	0.10207	0.077457	0.25796	0.23054	0.26962	0.0605	0.17708	0.28115	0.12135	0.061979	0.082775	0.051538	0.22307	-2.7375	-3.6437	-2.9437	-3.7125	-3.4313	-3.1375	-3.9104	-2.9771	-3.1604	-3.6792	-3.0417	-3.5104	-3.3438	-3.075	-3.6833	-3.1042	177.280	26.226	-128.307	-24.287	23.205	177.226	93.196	53.781	137.249	100.502	174.721	-116.467	92.571	7.532	57.031	141.798	0.0021722	0.00045746	0.00012264	736.35	6.2192e-06	4.9919e-06	1026.1	234.68	8.7608e-06	6.2091e-06	418.61	158.26	82.064	30.55	6.0161e-06	71.025	0.00061973	0.00028285	8.3239e-05	669.16	3.2846e-06	3.4717e-06	936.47	214.98	3.1454e-06	3.3349e-06	383.13	145.16	74.864	28.321	3.1081e-06	66.157	10.007	-94.164	-86.179	-166.496	-40.792	-33.469	-166.667	-161.295	-46.352	-24.269	-162.290	-158.113	-157.426	-152.925	-41.086	-154.532	-8191	255	
1840.342	1	1	0	0	0.20548	0.11249	0.081883	0.1198	0.14488	0.10209	0.12531	0.23108	0.2088	0.13514	0.24873	0.097933	0.19392	0.32909	0.14383	0.10991	-2.6604	-3.5917	-2.925	-3.7479	-3.5125	-3.0583	-3.7792	-3.2687	-3.0187	-3.7646	-2.9813	-3.4437	-3.55	-3.0479	-3.6833	-3.4354	140.893	38.368	-94.742	-105.565	-99.763	-137.279	76.037	155.885	-37.368	12.995	138.471	50.977	171.822	127.819	164.427	62.067	0.0021575	0.00070811	0.00013814	736.38	6.971e-06	5.451e-06	1026.3	235.89	9.0637e-06	4.9852e-06	416.56	157.33	81.071	30.126	6.8582e-06	69.493	0.00062545	0.00029068	8.6588e-05	670.61	3.09e-06	3.552e-06	941.82	216.11	3.4647e-06	3.1987e-06	383.57	144.6	74.402	27.767	3.3128e-06	64.686	10.320	-94.473	-88.211	-166.628	-37.584	-41.501	-166.546	-161.390	-25.271	-22.730	-162.195	-158.215	-157.464	-153.222	-42.964	-154.630	-8191	255	
1840.438	1	1	0	0	0.18031	0.21065	0.10906	0.20535	0.29905	0.12311	0.10841	0.21084	0.026234	0.28392	0.28019	0.049228	0.10001	0.24595	0.037849	0.17682	-2.5229	-3.55	-2.8583	-3.4375	-3.4625	-2.7292	-3.8542	-3.2188	-3.0479	-3.6042	-2.9875	-3.3833	-3.6729	-2.8438	-3.4938	-3.4979	-109.881	-0.136	-3.455	148.379	26.575	-178.016	-12.332	164.373	12.804	9.340	-110.767	-145.748	153.495	141.547	51.685	107.449	0.0021083	0.00052412	0.00012138	732.2	8.0979e-06	5.8212e-06	1025.4	233.31	8.4903e-06	5.1432e-06	412.25	156.3	80.568	29.37	5.42e-06	67.928	0.00059111	0.00029056	8.9264e-05	669.87	3.2305e-06	3.4143e-06	934.4	213.95	3.5833e-06	3.2751e-06	379.6	143	73.672	27.155	3.1094e-06	63.02	10.320	-88.128	-89.765	-166.589	-36.884	-40.504	-166.367	-161.331	-28.310	-23.215	-162.387	-157.720	-157.591	-153.016	-42.632	-154.812	-8191	255	
1840.534	1	1	0	0	0.22063	0.10926	0.17075	0.14372	0.042558	0.13232	0.35295	0.18529	0.03785	0.24075	0.2908	0.17526	0.12752	0.19405	0.15003	0.34897	-2.4896	-3.725	-3.225	-3.1708	-3.6896	-3.0083	-3.5375	-3.3979	-2.825	-3.6792	-3.2771	-3.4979	-3.5542	-3.0021	-3.3812	-3.6	-176.037	-34.579	-44.402	47.389	-168.162	-91.991	123.574	97.929	41.893	58.927	118.387	125.713	-30.343	95.109	-161.221	76.637	0.0020041	0.00051146	0.0001707	729.94	6.2308e-06	5.8194e-06	1016.8	231.65	8.8246e-06	4.0502e-06	412.48	155.12	79.982	29.409	6.0418e-06	68.076	0.00058307	0.00029148	8.8159e-05	665.23	3.3308e-06	3.244e-06	928.18	212.19	3.5135e-06	3.0021e-06	378.39	142.18	73.489	27.223	3.3184e-06	63.413	11.550	-102.282	-88.389	-166.415	-36.183	-36.740	-166.402	-161.496	-23.516	-33.411	-162.342	-158.072	-157.472	-153.012	-50.773	-154.751	-8191	255	
1840.630	1	1	0	0	0.31608	0.29619	0.2454	0.30878	0.066235	0.072218	0.33736	0.14627	0.19711	0.21293	0.043663	0.23945	0.1256	0.10219	0.18323	0.28901	-2.3958	-3.7375	-3.1167	-3.3125	-3.6896	-3.0604	-3.6042	-3.7333	-2.9708	-3.6792	-3.3979	-3.2667	-3.8125	-3.0021	-3.4562	-3.7354	164.262	16.107	-97.039	156.287	-49.189	97.517	-147.517	79.316	164.630	91.372	-149.649	125.796	-175.693	-69.127	34.920	-38.050	0.0020985	0.00049863	0.00016099	725.82	8.3259e-06	5.4747e-06	1012.9	233.46	8.1314e-06	5.0375e-06	415.95	156.62	80.625	30.463	6.7391e-06	71.201	0.00061143	0.00027398	8.6519e-05	663.08	3.2425e-06	3.2323e-06	928.27	213.49	3.3885e-06	2.8951e-06	381.79	144.05	74.029	28.097	3.1473e-06	66.288	11.232	-87.492	-84.794	-166.525	-23.493	-50.264	-166.462	-161.559	-33.522	-38.217	-162.312	-157.792	-157.524	-152.951	-36.286	-154.691	-8191	255	
1840.749	1	1	0	0	0.20917	0.11083	0.31111	0.27372	0.093806	0.10432	0.14782	0.23475	0.19144	0.0695	0.17863	0.20221	0.32031	0.272	0.29391	0.24383	-2.5667	-3.4958	-3.1292	-3.1542	-3.7604	-3.1417	-3.3125	-3.6417	-2.95	-3.75	-3.4583	-2.9646	-3.7958	-2.9854	-3.2896	-3.8979	156.911	-45.128	121.562	140.815	4.055	-145.845	59.974	113.399	45.387	-179.241	150.653	131.757	144.446	-168.734	179.377	102.317	0.0020909	0.00033013	0.00014376	730.94	3.8258e-06	4.5227e-06	1023.1	234.8	8.6509e-06	4.6135e-06	418.15	156.82	81.299	29.943	6.9746e-06	69.095	0.00062058	0.00029099	8.1772e-05	665.01	3.0462e-06	3.4794e-06	937.12	214.73	3.6752e-06	3.1945e-06	383.72	144.38	74.333	27.655	3.314e-06	64.338	9.412	-109.272	-83.014	-166.041	-31.991	-20.993	-166.554	-161.579	-28.122	-27.770	-161.705	-158.045	-157.398	-152.892	-32.537	-154.522	-8191	255	
1840.845	1	1	0	0	0.18006	0.036625	0.042045	0.20795	0.17428	0.23794	0.12131	0.33339	0.14043	0.14945	0.19718	0.24651	0.29936	0.2248	0.013671	0.10605	-2.3812	-3.525	-3.4938	-3.0792	-3.6354	-3.0729	-3.2896	-3.6813	-3.1458	-3.4979	-3.6562	-3.0646	-3.8583	-3.2396	-3.1354	-3.6188	180.591	-29.081	155.043	90.212	-0.561	-175.508	-128.219	173.749	118.772	56.801	-170.850	119.098	160.467	103.611	176.363	163.681	0.002023	0.00064956	0.00014517	738.53	8.7993e-06	2.658e-06	1024	230.88	6.9006e-06	6.5294e-06	415.5	155.74	80.305	29.183	2.9819e-06	68.287	0.00059649	0.0003184	8.7452e-05	666.56	3.4287e-06	3.2447e-06	932.74	212.25	3.5566e-06	3.157e-06	380.8	142.89	73.624	27.049	3.4113e-06	63.302	10.877	-94.467	-75.180	-166.006	-26.801	-21.267	-166.495	-160.982	-22.046	-20.119	-162.051	-157.814	-157.414	-152.915	-64.682	-154.584	-8191	255	
1840.919	1	1	0	0	0.06965	0.085288	0.020348	0.16386	0.03971	0.20441	0.1016	0.16651	0.15369	0.066608	0.27392	0.18488	0.02323	0.28104	0.1431	0.061808	-2.7458	-3.4167	-3.4354	-2.8417	-3.7604	-3.2083	-3.0083	-3.6521	-3.0979	-3.4021	-3.6437	-3.1229	-3.5563	-3.4521	-3.1396	-3.7875	11.944	-140.818	1.422	-92.987	170.702	-133.422	175.108	118.596	-83.688	-1.836	-75.096	-174.690	-15.699	161.564	-143.972	130.063	0.0020391	0.00055306	0.00013185	723.31	4.7379e-06	5.0979e-06	1017.6	234.16	8.231e-06	5.8337e-06	412.92	156.19	80.659	29.436	5.8199e-06	69.065	0.00058336	0.00030608	8.3412e-05	662.7	3.0876e-06	3.2966e-06	931.49	213.19	3.6566e-06	3.2411e-06	380.7	143.33	73.935	27.402	3.5673e-06	64.123	9.455	-92.291	-87.773	-166.300	-27.601	-22.622	-166.532	-161.324	-20.267	-36.969	-162.177	-157.465	-157.900	-153.082	-51.184	-154.371	-8191	255	
1841.037	1	1	0	0	0.19352	0.10293	0.10578	0.083676	0.039883	0.17894	0.29991	0.30607	0.25966	0.30769	0.34231	0.24785	0.11131	0.067792	0.081707	0.24905	-2.6729	-3.1333	-3.6125	-3.0208	-3.4396	-3.4	-2.9333	-3.8312	-3.1833	-3.2854	-3.9271	-3.2021	-3.6375	-3.7188	-2.9167	-3.8708	62.937	-90.849	-103.276	-162.774	169.831	-55.622	175.160	159.813	144.305	21.777	-154.084	-143.756	-90.654	167.876	116.897	117.727	0.0020311	0.00044819	0.00016516	733.13	4.2661e-06	4.1426e-06	1024.9	233.7	9.9279e-06	4.9831e-06	418.51	157.85	81.069	30.344	5.2666e-06	71.658	0.00058078	0.00029062	8.3412e-05	667.51	3.3266e-06	3.2918e-06	934.85	214.38	3.5182e-06	3.4446e-06	383.49	144.93	74.502	28.044	3.3898e-06	66.391	10.572	-96.469	-91.967	-166.253	-19.824	-35.576	-166.221	-160.898	-15.886	-17.377	-161.920	-157.958	-157.776	-153.055	-21.630	-154.351	-8191	255	
1841.134	1	1	0	0	0.17342	0.082316	0.20758	0.41122	0.1722	0.10911	0.26145	0.2312	0.36614	0.26903	0.15494	0.22283	0.096457	0.27557	0.12191	0.092846	-2.7396	-3.2396	-3.8542	-2.9271	-3.4208	-3.3708	-3.1771	-3.9021	-3.4604	-3.1208	-3.8854	-3.1833	-3.4104	-3.6854	-2.9333	-3.8	6.730	-60.400	-132.343	110.251	-31.396	135.897	169.116	135.855	-62.333	29.615	87.649	175.678	-145.208	134.234	-146.230	-90.449	0.002243	0.00058826	0.00014282	725.96	4.8716e-06	5.7833e-06	1026	236.64	9.425e-06	5.7748e-06	418.72	158.07	81.788	30.451	4.6076e-06	71.003	0.00062076	0.00030208	7.9822e-05	667.68	3.3482e-06	3.2067e-06	939.91	215.83	3.4123e-06	3.38e-06	385.68	145.43	75.12	28.17	3.4864e-06	66.16	10.147	-94.731	-81.964	-166.304	-43.383	-40.685	-166.117	-161.219	-21.017	-19.155	-162.055	-157.838	-157.584	-153.079	-45.829	-154.178	-8191	255	
1841.230	1	1	0	0	0.20542	0.15648	0.044911	0.13553	0.36888	0.12993	0.10295	0.10858	0.059131	0.1432	0.1864	0.18083	0.13675	0.17015	0.13097	0.18398	-2.9479	-3.0021	-3.7354	-2.9167	-3.375	-3.4437	-2.8896	-3.6354	-3.3708	-2.9271	-3.8229	-3.2104	-3.3	-3.625	-2.9729	-3.6521	-80.992	112.364	-62.884	109.085	-51.729	-123.520	128.046	144.117	95.772	-113.105	-163.053	127.700	-141.046	-124.835	-29.740	162.234	0.0022214	0.00041309	0.0001524	730.71	7.4766e-06	6.2683e-06	1017.8	234.68	1.0539e-05	5.2018e-06	415.42	156.78	81.389	30.426	6.8638e-06	70.446	0.00061918	0.00029474	7.8458e-05	667.31	3.2077e-06	3.0509e-06	933.33	214.25	3.3507e-06	3.4849e-06	381.3	143.91	74.133	28.001	3.5086e-06	65.662	9.365	-109.836	-80.628	-166.425	-41.323	-51.445	-166.403	-161.230	-20.271	-17.955	-161.643	-158.080	-157.704	-153.313	-44.394	-154.830	-8191	255	
1841.350	1	1	0	0	0.14788	0.14497	0.16757	0.053591	0.18941	0.10205	0.38878	0.12968	0.10774	0.065391	0.31126	0.06229	0.15034	0.16649	0.20071	0.25718	-3.0625	-2.8812	-3.4875	-3.225	-3.2521	-3.6396	-2.9021	-3.4646	-3.3771	-3.1063	-3.7812	-3.1708	-3.2729	-3.8042	-2.9271	-3.6771	163.878	124.316	172.561	148.733	116.878	-149.680	146.317	76.808	-45.416	20.821	79.334	-157.510	-158.233	-173.985	112.632	164.838	0.0021944	0.00048495	0.0001199	727.37	5.5359e-06	6.5088e-06	1011.2	234.05	8.3846e-06	5.4414e-06	414.55	157.28	81.878	30.843	7.4455e-06	72.371	0.00060328	0.00032549	7.5489e-05	663.34	3.129e-06	3.0606e-06	926.79	214.12	3.4699e-06	3.3314e-06	381.13	144.74	74.614	28.563	3.5856e-06	67.357	10.358	-101.553	-91.070	-166.738	-44.292	-34.397	-166.356	-161.116	-15.993	-10.341	-161.918	-157.775	-157.445	-152.667	-35.352	-154.229	-8191	255	
1841.447	1	1	0	0	0.16204	0.15915	0.18632	0.20838	0.12843	0.13047	0.15681	0.20385	0.12012	0.10936	0.096783	0.11801	0.25278	0.077766	0.25777	0.18216	-3.1833	-2.8833	-3.7396	-3.4146	-3.1021	-3.7	-3.0583	-3.4417	-3.6562	-3.15	-3.6208	-3.4813	-3.1813	-3.7917	-2.9458	-3.5208	106.082	120.377	-126.514	125.378	-22.684	-31.723	151.439	156.788	-69.484	159.797	80.250	66.445	-40.964	134.808	7.698	78.833	0.0022923	0.0005611	0.00014228	727.83	6.5006e-06	5.6083e-06	1017.9	235.02	5.2373e-06	4.3284e-06	416.06	159.54	81.407	31.444	5.8349e-06	74.272	0.00062493	0.0003266	7.9822e-05	662.58	3.4461e-06	3.116e-06	932.37	214.44	3.0448e-06	3.3627e-06	383.87	146.17	74.964	29.091	3.2357e-06	68.957	10.900	-95.706	-92.626	-166.494	-11.174	-21.982	-166.635	-161.263	-41.111	-9.029	-161.912	-157.863	-157.361	-152.698	-24.756	-153.990	-8191	255	
1841.518	1	1	0	0	0.12242	0.041767	0.14006	0.28147	0.034797	0.078319	0.27303	0.060505	0.1679	0.15167	0.063472	0.10337	0.17247	0.065051	0.028661	0.059029	-3.375	-2.8438	-3.6625	-3.425	-3.1125	-3.6688	-3.1896	-3.475	-3.5896	-2.9958	-3.5271	-3.5667	-2.85	-3.6833	-3.1104	-3.3604	-89.141	172.796	-101.929	137.162	145.345	-138.678	-158.930	27.947	-106.699	-141.868	-121.947	149.627	59.713	136.435	-85.827	-159.509	0.0021222	0.00061686	0.00016946	730.55	7.5992e-06	4.6188e-06	1027.7	237.65	7.5028e-06	5.4665e-06	420.64	160.97	82.658	31.902	7.8457e-06	75.478	0.00059129	0.00033091	8.5242e-05	666.83	3.4683e-06	3.0717e-06	938.11	217.19	3.182e-06	3.4905e-06	387.69	147.54	75.411	29.503	3.4353e-06	69.837	8.726	-94.573	-99.302	-166.150	-15.778	-47.642	-166.197	-160.897	-13.412	-43.099	-161.555	-158.244	-157.332	-152.807	-41.774	-154.607	-8191	255	
1841.639	1	1	0	0	0.22288	0.22025	0.12548	0.15164	0.18188	0.11738	0.16052	0.20833	0.21084	0.31799	0.32546	0.080895	0.29517	0.10461	0.27853	0.10182	-3.2938	-2.9313	-3.4708	-3.2958	-2.8896	-3.6333	-3.3729	-3.2375	-3.5438	-3.0062	-3.6688	-3.5646	-2.9792	-3.7208	-3.1583	-3.1333	56.129	17.245	146.112	-73.993	126.408	111.935	92.880	167.873	18.085	59.018	156.339	-135.453	159.155	-122.584	58.575	-79.086	0.0023025	0.00038566	0.000144	738.75	4.1036e-06	5.9842e-06	1022.6	234.48	1.022e-05	6.5101e-06	417.44	159.03	81.359	31.468	5.4552e-06	74.994	0.00062984	0.00031914	9.1025e-05	667.49	3.2473e-06	3.2053e-06	930.45	215.04	3.1018e-06	3.1709e-06	383.67	146.16	74.788	29.236	3.4214e-06	69.502	10.002	-105.861	-73.399	-165.861	-41.345	-28.025	-166.293	-160.923	-18.026	-22.362	-161.795	-157.717	-157.408	-152.620	-30.905	-154.249	-8191	255	
1841.735	1	1	0	0	0.1951	0.21058	0.22248	0.07856	0.1154	0.22446	0.20336	0.21609	0.28513	0.075153	0.17777	0.17244	0.11884	0.17036	0.24569	0.15486	-3.2562	-2.9271	-3.3542	-3.6875	-2.8937	-3.8312	-3.3479	-3.0833	-3.7542	-2.9396	-3.5375	-3.6604	-2.9042	-3.6333	-3.2687	-3.1417	-42.368	-108.016	104.382	-79.685	-122.496	-3.803	151.020	97.714	-121.180	22.135	92.799	160.846	-149.101	72.406	9.470	-138.734	0.0022774	0.00063259	0.00011846	727.78	5.7426e-06	6.2491e-06	1016.2	235.44	1.1492e-05	4.8614e-06	414.7	158.87	82.102	31.741	6.0376e-06	74.882	0.00063017	0.00033652	8.1289e-05	662.94	3.344e-06	3.343e-06	929.75	214.77	3.0192e-06	3.321e-06	383.13	146.12	74.997	29.204	3.3968e-06	69.351	8.816	-94.097	-63.931	-166.137	-11.245	-32.228	-166.594	-160.844	-22.900	-27.123	-161.755	-157.916	-157.487	-152.661	-16.338	-154.666	-8191	255	
1841.829	1	1	0	0	0.23644	0.19015	0.17107	0.2767	0.12838	0.2176	0.046302	0.14641	0.22884	0.12855	0.19712	0.25265	0.15859	0.096861	0.015517	0.24106	-3.3021	-2.9583	-3.2667	-3.7062	-2.8604	-3.4979	-3.4604	-2.9562	-3.6479	-3.1396	-3.2	-3.7958	-2.8521	-3.5104	-3.4792	-2.9479	179.831	178.919	-36.106	143.760	111.568	-22.568	-24.570	-117.299	103.231	56.109	152.628	121.538	-107.631	133.488	-134.605	-147.253	0.0023227	0.00044772	0.00017284	727.63	5.2825e-06	2.8811e-06	1021.3	235	9.5484e-06	4.7473e-06	419.24	160.77	82.612	32.237	6.7245e-06	75.512	0.00061789	0.00034416	8.3447e-05	664.3	3.4221e-06	2.7941e-06	932.08	215.32	3.2413e-06	3.3606e-06	386.74	147.59	75.391	29.732	3.3008e-06	70.283	10.100	-96.732	-81.508	-165.980	-41.118	-70.568	-166.648	-160.772	-16.595	-8.616	-162.004	-157.899	-157.429	-152.731	-36.305	-154.356	-8191	255	
1841.926	1	1	0	0	0.23205	0.088352	0.029837	0.064205	0.055481	0.18085	0.38291	0.31715	0.061897	0.15359	0.16589	0.18413	0.25414	0.028658	0.05114	0.078064	-3.3292	-3.0729	-3.1604	-3.8646	-2.9229	-3.4021	-3.5604	-3.0083	-3.6583	-3.2083	-3.0812	-3.7542	-3.0792	-3.4354	-3.4437	-2.9729	-169.635	96.363	-157.752	36.267	-57.339	57.130	116.563	-158.750	156.571	69.514	-107.974	111.892	145.531	-169.523	-79.940	85.430	0.0022574	0.0006795	0.00016882	735.98	7.8304e-06	5.6687e-06	1022.7	237.51	7.8771e-06	6.6079e-06	422.14	160.92	82.62	32.303	5.5122e-06	75.98	0.00062796	0.00034902	9.5651e-05	668.99	3.4671e-06	3.5119e-06	937.01	216.66	3.3821e-06	3.4662e-06	388.48	147.85	75.648	29.919	3.2704e-06	70.674	9.969	-109.027	-84.600	-166.580	-39.475	-32.795	-166.653	-161.342	-22.808	-31.834	-161.894	-158.175	-157.584	-153.191	-33.654	-154.780	-8191	255	
1842.046	1	1	0	0	0.069839	0.13313	0.027899	0.38871	0.31153	0.20056	0.10679	0.20905	0.095102	0.11223	0.10847	0.15109	0.2535	0.27729	0.38944	0.22691	-3.3521	-3.1833	-3.025	-3.8333	-2.9292	-3.2646	-3.7812	-2.9104	-3.4333	-3.3521	-3.0938	-3.6708	-3.025	-3.2396	-3.5208	-3.0104	-66.850	110.327	9.920	-167.923	-142.558	-155.105	137.623	104.250	90.886	-158.043	-61.165	-174.984	72.140	149.703	167.207	124.908	0.00245	0.00068402	0.00017027	730.83	6.5361e-06	5.9514e-06	1022.4	234.9	9.2479e-06	4.4018e-06	416.63	159.67	81.946	32.16	4.872e-06	75.427	0.00064035	0.00032253	9.137e-05	665.68	3.3338e-06	3.2392e-06	930	215.06	3.3239e-06	3.1904e-06	383.32	146.52	74.996	29.705	3.1492e-06	70.189	8.681	-91.639	-74.626	-166.346	-28.765	-19.821	-166.600	-161.727	-8.167	-17.963	-161.952	-158.121	-157.477	-153.030	-24.232	-154.477	-8191	255	
1842.142	1	1	0	0	0.12512	0.084955	0.29942	0.022253	0.34244	0.11699	0.17859	0.10763	0.14729	0.070206	0.079204	0.21141	0.36231	0.18747	0.18871	0.16057	-3.0896	-3.4	-2.9458	-3.6729	-3.0521	-3.1771	-3.8979	-2.8771	-3.6396	-3.5792	-2.9417	-3.8875	-3.3979	-3.2729	-3.6875	-3.0917	-63.170	-112.240	-174.327	53.299	116.492	-112.444	-167.200	78.837	-105.513	-115.047	64.443	-171.364	178.961	137.897	76.241	49.048	0.0022104	0.00047916	0.00017573	725.52	7.0068e-06	5.363e-06	1013.6	235.39	9.9373e-06	2.9622e-06	417.01	160.14	82.751	32.644	7.2891e-06	76.624	0.00062482	0.00029283	9.0662e-05	662.63	3.4035e-06	3.2586e-06	925.7	214.45	3.3623e-06	2.8416e-06	382.76	147.3	75.617	30.172	3.2439e-06	71.067	11.454	-83.892	-73.217	-166.228	-45.674	-0.763	-166.766	-161.465	-28.172	-16.399	-162.099	-157.909	-157.540	-153.120	-24.325	-154.491	-8191	255	
1842.214	1	1	0	0	0.026108	0.30308	0.14789	0.15039	0.030766	0.072094	0.21982	0.25037	0.068532	0.24539	0.2838	0.16959	0.18997	0.34072	0.15794	0.33465	-3.0833	-3.4854	-2.9458	-3.75	-3.2687	-3.1146	-3.9062	-3.0604	-3.4313	-3.6	-2.9521	-3.7375	-3.4104	-3.0687	-3.8146	-3.2417	169.002	43.660	-61.148	158.140	-3.783	-0.367	96.723	132.853	-49.345	86.883	155.687	166.626	121.907	79.334	115.716	138.511	0.002186	0.00045176	0.00012594	724.96	5.698e-06	5.0513e-06	1016.9	237.21	9.2194e-06	4.5606e-06	420.12	163.23	82.929	33.066	6.3441e-06	78.19	0.00061988	0.00029696	8.1824e-05	662.71	3.2653e-06	3.3818e-06	928.46	215.99	3.3803e-06	2.9402e-06	386.21	149.6	76.23	30.597	3.189e-06	72.669	11.772	-82.292	-73.137	-166.418	-28.225	-37.510	-166.523	-161.231	-31.548	-27.220	-162.274	-158.135	-157.744	-153.269	-36.561	-154.521	-8191	255	
1842.310	1	1	0	0	0.22397	0.051499	0.11359	0.19938	0.074102	0.3453	0.21768	0.061279	0.087582	0.27791	0.17113	0.27103	0.22254	0.079233	0.065701	0.20184	-3.1125	-3.6437	-2.8271	-3.5938	-3.3604	-3.1104	-3.7604	-3.2104	-3.1979	-3.4958	-2.825	-3.65	-3.5354	-2.9792	-3.7313	-3.2396	99.198	61.140	-150.500	158.725	-112.723	-54.274	57.766	-58.803	-86.311	55.800	59.996	84.632	83.401	132.024	14.748	65.772	0.0023366	0.00052299	0.00017257	727.47	7.3416e-06	6.3998e-06	1018.6	237.78	7.7241e-06	6.1638e-06	418.01	163.76	84.333	33.453	7.0518e-06	78.929	0.00067137	0.00031526	8.6606e-05	665.6	3.377e-06	3.6939e-06	931.31	217.06	3.5583e-06	3.1264e-06	386.27	150.51	76.938	31.04	3.3052e-06	73.193	9.075	-101.360	-99.740	-166.226	-31.740	-41.035	-166.643	-161.180	-18.666	-37.622	-161.781	-158.490	-157.789	-153.070	-33.155	-154.593	-8191	255	
1842.431	1	1	0	0	0.052296	0.17665	0.047598	0.095326	0.13291	0.17087	0.16073	0.11026	0.10914	0.22251	0.048263	0.20261	0.18864	0.2011	0.16979	0.29262	-2.7313	-3.6292	-2.9542	-3.4604	-3.4417	-2.9188	-3.7396	-3.2333	-3.2021	-3.6375	-3.0542	-3.4771	-3.5563	-2.9229	-3.6083	-3.3937	139.649	38.270	14.551	42.173	-10.535	-30.560	100.035	131.687	-8.880	-138.367	96.821	161.935	-50.518	88.396	-59.860	109.485	0.0023222	0.00073655	0.00017093	725.64	6.4547e-06	4.1971e-06	1010.6	235.43	7.3946e-06	4.7488e-06	412.74	161.92	82.892	33.063	6.3541e-06	77.7	0.00066126	0.00029407	9.4719e-05	663.39	3.0708e-06	3.098e-06	923.83	215.59	2.9755e-06	3.0083e-06	380.67	148.42	75.87	30.759	3.2237e-06	72.148	9.214	-102.901	-85.419	-166.234	-29.693	-29.516	-166.707	-161.633	-24.848	-20.442	-162.290	-158.192	-157.845	-153.029	-21.535	-154.785	-8191	255	
1842.527	1	1	0	0	0.037314	0.29477	0.24153	0.11663	0.20142	0.18015	0.1377	0.25352	0.068702	0.092219	0.11433	0.17213	0.13948	0.068357	0.15913	0.24226	-2.5646	-3.725	-2.925	-3.3292	-3.5312	-2.7646	-3.6833	-3.3229	-2.8854	-3.6813	-2.9729	-3.4021	-3.7042	-2.8229	-3.5229	-3.5208	-32.338	136.672	70.248	65.213	170.344	-174.032	142.075	129.235	-143.623	19.456	-69.472	146.128	41.290	20.772	88.507	142.465	0.002345	0.00057098	0.00017622	720.62	7.8946e-06	5.8163e-06	1006.2	233.63	9.3622e-06	5.2067e-06	413.76	161.45	82.943	33.264	8.9044e-06	78.228	0.00065212	0.00028396	9.1957e-05	660.15	3.057e-06	3.4531e-06	920.81	213.93	3.3833e-06	2.9229e-06	380.31	148.46	75.851	30.808	3.3601e-06	72.51	10.263	-90.242	-84.666	-166.603	-23.585	-25.778	-166.632	-161.228	-22.782	-35.007	-162.083	-158.219	-157.818	-153.383	-37.912	-155.105	-8191	255	
1842.623	1	1	0	0	0.20434	0.0528	0.068875	0.15996	0.11275	0.11745	0.32376	0.14226	0.24099	0.15273	0.25266	0.06904	0.11314	0.20527	0.056299	0.053702	-2.5187	-3.6583	-2.9417	-3.3125	-3.4896	-2.7917	-3.5917	-3.5	-3.0292	-3.6583	-3.1021	-3.3042	-3.7354	-3.0938	-3.5375	-3.4813	-23.889	75.202	-142.644	108.481	-42.179	36.081	46.806	-169.816	-120.796	175.015	178.708	-155.129	114.957	142.252	-7.504	176.117	0.0022205	0.00042409	0.00010975	726.74	6.7638e-06	3.7864e-06	1002	233.17	1.0153e-05	3.1613e-06	415.71	161.91	83.404	33.502	5.6141e-06	78.531	0.00064961	0.00027903	7.7284e-05	661.42	3.1651e-06	3.1568e-06	921.49	213.73	3.6171e-06	2.8416e-06	381.35	148.84	76.26	30.862	3.5231e-06	72.864	10.619	-110.562	-93.158	-166.438	-30.552	-41.219	-166.135	-161.085	-17.903	-16.947	-161.872	-158.045	-157.535	-152.832	-14.392	-155.036	-8191	255	
1842.719	1	1	0	0	0.33962	0.03678	0.096224	0.14323	0.12203	0.14754	0.19159	0.093333	0.18973	0.11999	0.17111	0.10304	0.074378	0.36283	0.073259	0.1673	-2.5146	-3.7604	-3.1917	-3.2104	-3.6917	-2.9042	-3.4104	-3.6146	-2.7875	-3.7	-3.2	-2.8917	-3.7708	-3.0979	-3.2562	-3.5396	68.459	-172.534	46.246	-76.789	90.469	23.909	4.505	76.343	-133.026	-54.380	-154.678	36.044	103.296	134.841	35.782	151.781	0.0022376	0.00054081	0.00014362	724.62	5.7077e-06	6.4266e-06	1015.1	233.72	1.0701e-05	6.4108e-06	415.84	161.51	82.962	33.476	5.6192e-06	77.844	0.00063629	0.00029783	7.9131e-05	661.11	2.9213e-06	3.2233e-06	926.22	213.92	3.6543e-06	3.4196e-06	382.13	148.73	75.898	30.829	3.6279e-06	72.3	10.130	-103.263	-93.700	-166.144	-40.210	-33.446	-166.536	-161.144	-19.635	-8.205	-162.217	-157.975	-157.523	-153.140	-39.386	-154.930	-8191	255	
1842.815	1	1	0	0	0.19324	0.057572	0.24194	0.36461	0.086839	0.41654	0.25789	0.15936	0.039085	0.11734	0.3921	0.15665	0.15726	0.075288	0.15923	0.11588	-2.4042	-3.5208	-3.2542	-2.8667	-3.5292	-3.0229	-3.375	-3.6542	-2.9021	-3.4292	-3.5771	-2.9167	-3.6646	-3.0521	-3.2125	-3.6896	21.312	-9.571	108.069	134.802	-49.723	83.766	124.304	-58.846	-104.099	8.891	154.480	158.264	108.320	79.502	169.710	130.112	0.0022388	0.00056841	0.00013804	718.9	6.7149e-06	6.1546e-06	1002.7	232.86	1.0877e-05	4.5813e-06	412.69	160.7	82.333	32.93	6.9157e-06	77.988	0.00062416	0.00031175	8.8677e-05	656.4	3.0546e-06	3.0904e-06	919.04	213.23	3.4461e-06	3.189e-06	378.86	147.38	75.409	30.461	3.4138e-06	72.056	9.913	-83.370	-86.868	-165.965	-17.811	-29.605	-166.180	-161.561	-23.143	-11.261	-162.301	-157.820	-157.627	-153.238	-35.771	-154.764	-8191	255	
1842.912	1	1	0	0	0.065186	0.062066	0.2858	0.27062	0.24964	0.082657	0.2274	0.031222	0.10592	0.06892	0.074256	0.14251	0.20719	0.061374	0.081111	0.19994	-2.4021	-3.5458	-3.3167	-2.9333	-3.6083	-3.1646	-3.2708	-3.9562	-2.8771	-3.3917	-3.6021	-2.9833	-3.5708	-3.0979	-2.9604	-3.8208	-164.869	46.566	91.632	171.533	-165.097	-51.440	98.881	-52.931	-60.953	-103.048	134.046	158.093	80.306	111.999	-58.266	-175.883	0.0022982	0.00070209	0.00019986	720.23	6.324e-06	3.5262e-06	1001.1	233.64	8.7181e-06	5.5358e-06	413.59	160.39	82.062	32.96	6.2229e-06	77.561	0.00064323	0.0003131	8.2842e-05	657.38	3.0714e-06	3.1707e-06	918.01	213.49	3.4554e-06	3.3126e-06	379.62	147.59	75.546	30.583	3.4334e-06	71.993	9.698	-90.104	-88.863	-166.156	-50.594	-40.671	-166.418	-161.173	-19.275	-30.144	-162.045	-157.890	-157.187	-153.035	-31.838	-154.360	-8191	255	
1843.030	1	1	0	0	0.1762	0.10262	0.11145	0.25646	0.14675	0.32563	0.07439	0.21917	0.067241	0.096278	0.21358	0.23007	0.23316	0.4165	0.22647	0.20531	-2.3937	-3.4375	-3.4083	-2.7271	-3.35	-3.1562	-3.1312	-3.5458	-2.9354	-3.2938	-3.6542	-2.8875	-3.6354	-3.3583	-2.8833	-3.7958	117.858	-167.193	-64.184	77.146	-87.310	-142.921	-11.185	66.694	3.996	-27.430	168.267	144.002	104.846	139.860	-21.064	160.150	0.0024096	0.00040184	8.3536e-05	717.92	6.6012e-06	4.7306e-06	1009.9	234.07	8.6292e-06	4.0175e-06	413.54	161.54	82.765	32.806	6.3966e-06	77.788	0.00066849	0.00029696	7.699e-05	656.8	3.1633e-06	3.3008e-06	921.47	214.26	3.6258e-06	3.1681e-06	382.03	148.08	75.829	30.314	3.6614e-06	71.862	9.121	-102.780	-68.883	-166.224	-30.230	-24.277	-166.303	-160.987	-12.369	-37.139	-162.007	-157.773	-157.397	-153.465	-35.282	-154.322	-8191	255	
1843.127	1	1	0	0	0.17906	0.20545	0.027972	0.23585	0.098893	0.08211	0.29773	0.27748	0.20822	0.2267	0.028901	0.035085	0.049648	0.084299	0.20058	0.13813	-2.6833	-3.0292	-3.4875	-2.8771	-3.5938	-3.3979	-3.1083	-3.7229	-3.15	-3.1542	-3.8688	-2.85	-3.4479	-3.5917	-3.0062	-3.7771	-21.618	24.190	147.512	40.714	13.819	-32.680	45.424	141.591	133.458	-40.726	-7.831	77.080	-36.627	78.392	131.950	158.115	0.0024255	0.00064042	0.00018007	724.36	5.4362e-06	6.2881e-06	1008.9	234.19	8.1486e-06	4.1688e-06	414.1	160.98	82.645	32.534	4.6149e-06	76.258	0.00066267	0.0003123	8.2532e-05	659.15	3.4119e-06	3.2288e-06	923.54	214.25	3.2419e-06	2.9659e-06	380.78	147.57	75.415	30.03	3.2534e-06	70.958	8.444	-89.802	-98.445	-166.108	-22.182	-37.422	-166.073	-160.842	-28.702	-37.059	-161.625	-157.815	-157.233	-153.085	-12.368	-154.320	-8191	255	
1843.223	1	1	0	0	0.1736	0.16705	0.025026	0.34486	0.31296	0.050784	0.17301	0.1658	0.10108	0.1134	0.15713	0.10868	0.39045	0.12123	0.15432	0.33803	-2.75	-3.1958	-3.5667	-2.9125	-3.4625	-3.4375	-2.9562	-3.6875	-3.2438	-3.0042	-3.625	-3.1167	-3.3146	-3.4167	-2.8063	-3.6188	131.851	-68.834	-65.171	75.524	-108.698	69.788	114.881	80.719	-29.578	-113.132	115.474	99.996	-100.673	102.771	59.233	175.346	0.0022682	0.00042338	0.0001299	717.83	7.6543e-06	4.0897e-06	1006.7	232.08	8.4759e-06	5.306e-06	410.69	159.09	81.698	32.245	7.389e-06	76.052	0.00061354	0.00030306	8.1168e-05	654.8	3.3272e-06	3.0025e-06	916.91	212.57	3.2099e-06	3.1563e-06	377.19	146	74.991	29.851	3.4801e-06	70.629	9.102	-94.222	-101.798	-166.348	-32.110	-21.077	-166.255	-161.258	-40.120	-30.811	-161.783	-157.710	-156.939	-153.004	-23.093	-154.418	-8191	255	
1843.319	1	1	0	0	0.15614	0.21787	0.097766	0.15278	0.11684	0.075585	0.28051	0.036461	0.091948	0.15938	0.07325	0.22205	0.087103	0.13069	0.047933	0.32264	-2.6771	-2.9042	-3.6354	-2.9625	-3.1937	-3.6458	-3.0938	-3.6479	-3.0125	-2.9479	-3.8792	-3.1937	-3.2125	-3.6458	-2.7313	-3.6646	-161.380	135.278	117.535	157.532	112.494	76.923	134.650	-134.791	-118.463	11.267	-113.147	116.626	-29.699	-116.255	-168.418	121.568	0.0023262	0.00042603	0.00015231	714.98	3.9964e-06	4.8767e-06	997.6	231.77	9.4211e-06	4.592e-06	410.83	160.35	81.941	32.357	7.5323e-06	76.38	0.00064194	0.00030639	7.4626e-05	653.37	3.0822e-06	3.1534e-06	915.38	211.98	3.1303e-06	3.4703e-06	378.57	147.04	74.858	29.942	3.5862e-06	71.121	12.474	-88.393	-67.616	-165.968	-43.164	-42.231	-166.251	-160.602	-33.084	-53.241	-161.914	-157.644	-157.661	-152.626	-47.252	-154.203	-8191	255	
1843.440	1	1	0	0	0.048176	0.11722	0.21221	0.27328	0.14009	0.26123	0.04199	0.074375	0.17225	0.11879	0.10921	0.18242	0.25159	0.15094	0.15615	0.36418	-3.0083	-2.8604	-3.5896	-3.1542	-3.1688	-3.6583	-3.0833	-3.5083	-3.3771	-2.9521	-3.6167	-3.2333	-3.2208	-3.5521	-2.8396	-3.6625	105.719	-152.115	21.371	-162.656	-24.567	-160.170	-171.717	143.213	-164.254	130.774	-114.713	75.500	144.779	-120.631	11.810	158.514	0.0022936	0.00066784	0.00014709	717.32	4.4385e-06	3.5255e-06	1007.8	234.67	9.2211e-06	4.4735e-06	417.94	160.91	82.622	33.051	5.4049e-06	77.62	0.0006353	0.00033596	7.9908e-05	654.98	3.1188e-06	3.1804e-06	919.17	214.58	3.089e-06	3.1111e-06	382.86	148.1	75.89	30.537	3.4637e-06	72.177	11.328	-97.025	-82.040	-166.218	-44.237	-15.964	-165.957	-160.748	-21.571	-18.088	-161.406	-157.717	-157.253	-153.173	-36.883	-154.138	-8191	255	
1843.511	1	1	0	0	0.16079	0.089053	0.069399	0.16018	0.081794	0.14689	0.30172	0.1725	0.066743	0.11761	0.12789	0.1506	0.27471	0.12366	0.19587	0.17163	-2.8854	-2.7292	-3.5646	-3.3667	-3.0667	-3.6917	-3.1562	-3.5542	-3.4833	-2.9458	-3.7458	-3.3875	-3.0812	-3.5812	-2.9146	-3.4313	123.653	148.495	-170.608	-136.518	-29.287	-119.922	118.136	144.829	-75.477	-63.884	25.565	116.835	-55.061	126.178	47.954	-74.359	0.0024064	0.00046345	0.0001952	723.77	7.6482e-06	4.46e-06	1010.1	233.64	7.0328e-06	2.956e-06	414.28	160.6	82.342	32.862	7.249e-06	77.456	0.00066241	0.00031428	8.3723e-05	659.49	3.4251e-06	2.8239e-06	922.31	213.98	3.189e-06	3.2702e-06	381.42	147.81	75.391	30.355	3.4201e-06	71.82	10.845	-83.794	-91.991	-165.988	-16.466	-35.571	-166.093	-160.602	-11.873	-49.528	-161.762	-157.745	-157.332	-152.543	-22.293	-154.023	-8191	255	
1843.607	1	1	0	0	0.056909	0.043074	0.3361	0.11668	0.041679	0.17825	0.20468	0.085747	0.21691	0.20885	0.16418	0.12212	0.11857	0.1365	0.15309	0.1393	-3.1583	-3.0604	-3.5312	-3.5187	-2.8875	-3.8083	-3	-3.3167	-3.6979	-3.0167	-3.6229	-3.5833	-3.0292	-3.7	-3.1771	-3.25	121.767	58.863	80.867	-100.273	-15.124	-123.700	95.581	12.916	-17.500	31.011	0.050	159.717	-147.053	176.722	-23.996	-150.596	0.0022391	0.00063514	0.00016468	716.67	8.2145e-06	5.9964e-06	999.5	231.94	9.7111e-06	7.2514e-06	409.16	159.98	81.639	32.721	6.4585e-06	76.897	0.00062903	0.00030041	7.9649e-05	653.55	3.595e-06	2.9125e-06	914.58	212.09	3.2012e-06	3.462e-06	377.55	146.2	75.051	30.156	3.2787e-06	71.287	11.284	-111.447	-100.758	-166.107	-41.782	-25.981	-166.421	-160.979	-16.116	-33.654	-161.793	-157.744	-157.476	-152.629	-36.842	-154.396	-8191	255	
1843.703	1	1	0	0	0.28322	0.23196	0.04226	0.16217	0.089729	0.070269	0.1548	0.37059	0.17603	0.21028	0.068857	0.23798	0.14543	0.21391	0.18729	0.12379	-3.2188	-2.9229	-3.4437	-3.6437	-2.8646	-3.6479	-3.3396	-3.0417	-3.5187	-2.975	-3.4833	-3.6396	-3.0375	-3.6646	-3.2917	-3.1646	146.913	-69.107	165.493	159.668	74.129	136.387	35.042	-165.885	64.213	101.664	-132.070	155.802	165.968	168.281	30.884	140.801	0.0023798	0.00066392	0.00012948	718.5	7.7794e-06	7.0775e-06	998.89	232.01	8.2867e-06	3.9125e-06	410.19	160.24	82.226	32.644	5.579e-06	77.41	0.00064039	0.00036184	7.5937e-05	652.93	3.2473e-06	3.3409e-06	913.86	212.15	2.9697e-06	3.2001e-06	377.82	147.11	75.194	30.267	3.1277e-06	71.672	9.636	-93.245	-86.269	-165.949	-38.655	-19.558	-166.436	-160.516	-41.984	-34.407	-161.645	-157.657	-157.207	-152.908	-24.783	-154.092	-8191	255	
1843.822	1	1	0	0	0.10577	0.16033	0.09822	0.36526	0.16248	0.23708	0.24051	0.11396	0.1279	0.1654	0.13207	0.19247	0.12949	0.12895	0.048932	0.13887	-3.1917	-3.05	-3.1937	-3.5792	-2.9979	-3.6125	-3.2	-2.9375	-3.65	-2.9896	-3.3438	-3.4708	-2.8083	-3.4313	-3.3854	-2.9104	-61.437	-127.055	-122.788	101.226	-39.652	-73.218	79.719	88.145	-23.734	39.248	-157.259	134.377	55.232	173.761	-85.154	-9.914	0.0022598	0.00043278	0.00014686	715.77	3.7258e-06	3.9799e-06	1002.9	232.98	1.0189e-05	6.6012e-06	414.5	161.63	82.434	32.824	4.8371e-06	77.809	0.00063131	0.00033066	8.0063e-05	653.34	3.1963e-06	3.0343e-06	916.84	212.9	3.1361e-06	3.3627e-06	381.35	148.07	75.576	30.411	3.098e-06	72.088	9.532	-99.886	-91.216	-165.984	-24.533	-47.090	-166.198	-160.551	-30.595	-43.624	-161.500	-157.791	-157.042	-152.766	-30.700	-154.685	-8191	255	
1843.919	1	1	0	0	0.37858	0.11878	0.16906	0.099399	0.38221	0.2881	0.35648	0.38604	0.1769	0.21089	0.25307	0.065955	0.14476	0.12019	0.17075	0.12313	-3.1896	-3	-3.3458	-3.6542	-2.8542	-3.525	-3.5062	-2.9271	-3.4958	-3.2708	-3.1667	-3.925	-2.9208	-3.4854	-3.4396	-3.2271	28.845	-102.326	86.702	5.859	162.962	48.639	147.071	26.023	-120.421	73.792	-126.326	-142.636	-42.820	-69.518	-61.868	-122.618	0.0024833	0.00054126	0.00016682	720.44	7.3419e-06	5.5831e-06	1003.4	232.66	8.5787e-06	4.9264e-06	415.47	160.78	82.206	32.406	6.0892e-06	76.861	0.00065754	0.00031237	9.0593e-05	657.23	3.3044e-06	3.0779e-06	917.54	213.01	3.2867e-06	3.5113e-06	379.96	147.6	75.042	30.11	3.1416e-06	71.491	9.659	-78.643	-85.237	-166.186	-44.782	-27.230	-165.923	-160.414	-30.068	-29.935	-161.512	-157.854	-157.191	-152.670	-25.390	-154.236	-8191	255	
1844.015	1	1	0	0	0.15243	0.10572	0.22407	0.070628	0.29622	0.010361	0.28598	0.36684	0.17583	0.031935	0.079899	0.18917	0.033002	0.18806	0.18068	0.1216	-3.3958	-3.0854	-3.1875	-3.8375	-2.9396	-3.2833	-3.6292	-3.0104	-3.6604	-3.2458	-3.0604	-3.8875	-2.8688	-3.3708	-3.5396	-2.8812	-67.817	54.100	119.173	-124.482	3.863	-169.114	82.658	144.881	108.652	-5.702	-137.647	124.034	50.591	137.978	-150.615	115.086	0.0021753	0.00052371	0.00018176	712.19	8.1407e-06	3.9836e-06	994.75	230.47	9.3447e-06	5.6643e-06	410.29	159.21	81.091	32.557	8.1598e-06	76.888	0.00060299	0.00029413	8.0391e-05	651.99	3.4449e-06	3.3472e-06	911.19	211.2	3.1803e-06	3.1633e-06	377.27	145.85	74.639	30.02	3.345e-06	71.016	7.933	-91.926	-80.087	-165.952	-38.316	-16.900	-166.125	-160.722	-19.501	-40.539	-161.477	-157.712	-157.458	-152.516	-27.474	-154.439	-8191	255	
1844.111	1	1	0	0	0.082134	0.15849	0.21253	0.079775	0.10665	0.036168	0.15211	0.16652	0.11631	0.21294	0.14156	0.14714	0.087891	0.10998	0.18117	0.057141	-3.1437	-3.5375	-2.9604	-3.6896	-3.1167	-3.4521	-3.6333	-3.0667	-3.5792	-3.3917	-3.1979	-3.7938	-3.0687	-3.2687	-3.6792	-2.9688	-167.376	73.915	46.400	32.562	74.445	-65.744	142.310	-161.046	137.049	155.227	-94.060	123.342	-19.823	-158.111	174.595	110.808	0.0023285	0.00059362	0.00016204	713.76	5.8109e-06	4.3612e-06	998.99	230.91	5.8353e-06	6.3798e-06	411.04	160.42	82.097	32.753	7.2728e-06	77.032	0.00063172	0.00028674	8.5691e-05	652.9	2.9783e-06	2.8544e-06	911.38	211.35	3.1809e-06	2.8847e-06	377.46	146.64	74.951	30.164	3.2426e-06	71.399	7.533	-104.400	-71.285	-165.989	-28.016	-32.616	-166.109	-160.762	-35.003	-34.229	-161.698	-157.790	-157.753	-152.705	-33.359	-154.572	-8191	255	
1844.207	1	1	0	0	0.13321	0.21663	0.054073	0.09121	0.25139	0.16505	0.061614	0.07833	0.14905	0.094556	0.15931	0.11545	0.15659	0.11359	0.089025	0.064996	-3.1896	-3.3917	-2.8917	-3.6125	-3.1458	-3.1833	-3.7542	-2.775	-3.5521	-3.4125	-3.0438	-3.8792	-3.2208	-2.9354	-3.7042	-3.0708	-30.668	11.760	128.667	2.142	74.880	128.281	85.536	88.114	140.193	53.935	28.756	-161.788	-148.875	124.364	4.923	22.063	0.0023241	0.00045669	0.00019067	715.78	6.5245e-06	5.2972e-06	1002.9	230.22	8.2663e-06	3.3991e-06	411.96	160	81.817	32.593	6.7515e-06	76.571	0.0006405	0.00027392	8.828e-05	652.52	3.2894e-06	3.5326e-06	915.89	212.14	3.3315e-06	3.0368e-06	379.4	147.04	75.061	30.186	3.4157e-06	71.544	11.923	-97.993	-91.376	-165.773	-27.715	-29.205	-166.214	-160.671	-10.966	-20.366	-161.455	-157.472	-157.286	-152.603	-20.763	-154.155	-8191	255	
1844.303	1	1	0	0	0.19316	0.12461	0.037876	0.018154	0.1524	0.28684	0.33821	0.15227	0.13038	0.059993	0.10355	0.19433	0.25308	0.26489	0.21651	0.087287	-3.0354	-3.5104	-3.0521	-3.8021	-3.2	-3.0812	-3.7875	-2.9542	-3.3042	-3.7125	-2.9958	-3.6833	-3.3292	-3.35	-3.7104	-3.3229	-148.726	161.564	100.578	157.505	22.849	-2.733	-168.451	101.723	19.803	-16.373	-68.477	-155.762	106.111	60.756	-61.783	14.520	0.0022802	0.00044286	0.0001647	714.86	7.0736e-06	5.8721e-06	1005.1	232.32	6.8344e-06	6.598e-06	410.66	160.61	82.288	32.801	6.0808e-06	76.599	0.000618	0.0002884	8.6916e-05	655.08	3.4305e-06	3.523e-06	917.77	212.01	3.2094e-06	3.1556e-06	378.3	146.82	74.904	30.099	3.326e-06	71.127	12.280	-101.915	-98.393	-165.321	-14.280	-44.601	-165.801	-160.252	-25.062	-35.253	-161.481	-157.449	-156.969	-152.640	-47.848	-154.121	-8191	255	
1844.399	1	1	0	0	0.064361	0.21849	0.096813	0.059674	0.048281	0.21753	0.14863	0.36021	0.095026	0.22339	0.070697	0.098147	0.22036	0.1396	0.19638	0.23108	-3.0542	-3.575	-2.8937	-3.6479	-3.3292	-3.1458	-3.8458	-3.0958	-3.1688	-3.7	-3.2333	-3.6813	-3.5104	-3.1979	-3.7479	-3.2417	-130.492	-108.187	-92.762	161.934	47.164	14.684	65.283	126.910	61.863	-44.945	-95.622	113.025	105.485	173.818	153.792	100.609	0.0023564	0.00046824	0.00019986	718.28	5.4904e-06	5.1497e-06	999.28	231.06	7.9032e-06	5.7056e-06	409.4	158.99	81.128	32.381	6.0273e-06	76.667	0.00065031	0.00027293	8.8453e-05	652.37	3.2281e-06	3.3243e-06	911.61	210.81	3.0814e-06	3.0847e-06	376.88	145.97	74.52	29.959	3.0349e-06	71.089	11.393	-106.378	-90.030	-165.489	-45.215	-28.168	-165.792	-160.692	-25.972	-32.077	-161.384	-157.110	-157.182	-152.634	-27.360	-154.122	-8191	255	
1844.520	1	1	0	0	0.14085	0.11539	0.29463	0.15049	0.2013	0.027869	0.15474	0.16325	0.10625	0.16348	0.064627	0.17384	0.23568	0.26235	0.036626	0.349	-2.8937	-3.6521	-2.8792	-3.5938	-3.3438	-2.8083	-3.7562	-3.1396	-3.0917	-3.8	-3.1771	-3.4896	-3.6208	-3.1979	-3.6354	-3.25	21.350	-167.008	13.606	169.797	0.189	-120.278	144.964	87.194	-41.737	-147.973	3.849	152.862	150.819	-173.092	-64.078	153.697	0.0022741	0.00056964	0.00015489	717.73	4.3366e-06	7.0328e-06	1002.3	232.09	9.184e-06	4.4251e-06	411.94	159.81	82.161	32.683	6.2758e-06	77.02	0.00065355	0.00028113	8.664e-05	652.88	3.0426e-06	3.624e-06	915.82	211.69	3.4408e-06	3.3633e-06	378.68	146.99	75.179	30.109	3.3216e-06	71.502	11.409	-106.001	-73.842	-165.363	-34.055	-36.090	-165.682	-160.732	-38.698	-23.732	-161.592	-157.509	-156.772	-152.384	-41.636	-154.043	-8191	255	
1844.616	1	1	0	0	0.31671	0.22953	0.11957	0.072556	0.10952	0.18759	0.13851	0.58881	0.094022	0.27463	0.16674	0.033475	0.070966	0.13329	0.11216	0.10172	-2.675	-3.7375	-3.1083	-3.4479	-3.5563	-2.9625	-3.5604	-3.3271	-3.175	-3.7562	-3.2167	-3.5417	-3.7229	-3.0958	-3.55	-3.5771	-98.165	-117.311	-30.102	28.180	-171.111	56.101	91.497	-165.702	32.333	-34.319	-173.416	148.915	65.549	-110.414	-108.904	127.392	0.0023762	0.00070767	0.00015096	716.02	4.9093e-06	5.3904e-06	1007.9	232.83	7.0407e-06	4.0334e-06	413.19	160.26	82.272	32.837	6.2067e-06	77.814	0.00064094	0.00029093	8.7331e-05	653.82	3.0864e-06	3.5562e-06	919.98	212.23	3.3321e-06	2.927e-06	379.56	147.51	75.342	30.327	3.2869e-06	71.979	7.313	-90.530	-79.285	-165.726	-48.934	-38.803	-165.387	-160.573	-21.083	-6.334	-161.119	-156.857	-156.779	-152.655	-42.833	-153.883	-8191	255	
1844.712	1	1	0	0	0.13218	0.14748	0.21079	0.13821	0.16331	0.21031	0.18125	0.15699	0.16006	0.10702	0.2294	0.19578	0.21821	0.077828	0.11369	0.3743	-2.4396	-3.6458	-3.0458	-3.1417	-3.85	-3.1667	-3.5208	-3.5542	-2.8604	-3.6188	-3.1292	-3.2104	-3.6792	-2.8854	-3.3854	-3.525	-82.953	73.079	34.022	179.086	-107.117	116.731	-169.193	133.853	-174.921	-45.292	131.322	176.853	-67.023	-126.752	63.523	143.959	0.0023197	0.00052796	0.00013294	723.82	8.6619e-06	6.5427e-06	1001.4	231.98	1.2749e-05	5.5527e-06	411.85	159.06	81.802	32.49	6.0316e-06	76.504	0.00063316	0.00030571	8.6968e-05	658.26	3.0552e-06	3.2454e-06	920.47	211.86	3.5508e-06	3.3474e-06	377.35	146.17	74.794	30.036	3.1391e-06	71	10.826	-97.981	-83.355	-165.493	-22.563	-29.145	-165.615	-160.572	-14.319	-29.096	-161.390	-157.140	-156.746	-152.556	-25.698	-153.928	-8191	255	
1844.808	1	1	0	0	0.012334	0.16142	0.1768	0.25364	0.10529	0.099622	0.28341	0.26944	0.14872	0.068744	0.23543	0.086289	0.16192	0.21003	0.082715	0.41813	-2.7125	-3.7521	-3.225	-3.1667	-3.6417	-3.0438	-3.5021	-3.6833	-3.0792	-3.6979	-3.3312	-3.1271	-3.7167	-3.1792	-3.3208	-3.7604	-77.806	-165.611	140.304	-134.520	-175.340	-125.071	107.292	95.997	-127.486	162.961	181.103	175.064	175.951	-123.379	127.970	99.442	0.0023707	0.00041481	0.00017117	717.7	7.2524e-06	5.2053e-06	995.74	231.3	7.0397e-06	4.9895e-06	409.05	158.26	81.049	32.217	5.1627e-06	76.428	0.00063578	0.00026252	8.2653e-05	652.81	3.0936e-06	3.3845e-06	912.05	210.86	3.3774e-06	2.8881e-06	375.15	145.02	74.147	29.772	3.4176e-06	70.821	13.228	-112.463	-86.468	-165.606	-28.073	-37.251	-165.860	-160.404	-14.197	-29.057	-161.569	-156.885	-157.036	-152.292	-19.923	-154.252	-8191	255	
1844.903	1	1	0	0	0.054703	0.24559	0.090735	0.1905	0.11942	0.10298	0.34111	0.24185	0.22382	0.19569	0.072324	0.10372	0.13788	0.25836	0.099268	0.14216	-2.4062	-3.5229	-3.4917	-3.075	-3.6979	-3.2479	-3.4646	-3.6479	-2.7062	-3.5229	-3.4458	-3.0667	-3.7375	-3.0708	-3.2771	-3.6979	156.338	-50.595	73.628	105.914	78.944	-39.258	117.165	80.900	-150.134	-158.265	-53.339	141.624	-163.724	93.823	130.767	138.839	0.0022663	0.00054034	0.00021529	714.65	6.7662e-06	5.668e-06	993.43	231.67	8.0689e-06	5.0193e-06	410.38	159.1	81.76	32.541	5.3199e-06	77.435	0.00062903	0.00029678	9.6117e-05	650.72	2.8456e-06	3.2869e-06	908.99	210.61	3.456e-06	2.934e-06	376.79	145.73	74.697	29.92	3.3791e-06	71.321	11.419	-89.823	-84.433	-165.356	-23.620	-14.481	-165.493	-160.549	-19.063	-27.756	-161.345	-156.892	-156.664	-152.185	-50.647	-153.725	-8191	255	
1844.999	1	1	0	0	0.32288	0.034587	0.25596	0.15696	0.15535	0.25663	0.11625	0.26021	0.12243	0.28126	0.18523	0.18588	0.19158	0.030351	0.34418	0.16351	-2.4854	-3.5021	-3.3854	-3.0438	-3.6063	-3.2354	-3.2646	-3.7521	-2.9354	-3.4583	-3.6417	-3.0292	-3.7833	-3.1479	-3.1146	-3.8438	109.928	41.599	-58.806	118.798	166.427	-117.148	48.780	-171.276	-160.469	-5.539	165.665	-136.574	160.002	101.605	-22.221	115.127	0.002344	0.00052328	0.00018516	719.77	6.6471e-06	5.7845e-06	1005	231.84	1.0419e-05	4.3424e-06	412.31	160.37	81.897	32.468	4.7642e-06	77.681	0.00064721	0.00030128	8.1341e-05	652.55	3.1344e-06	3.1741e-06	917.76	211.35	3.6502e-06	3.0264e-06	378.75	147.01	74.933	30	3.5389e-06	71.768	11.088	-94.915	-81.227	-165.125	-29.599	-21.819	-165.462	-159.806	-22.072	-6.474	-160.741	-156.802	-156.261	-152.243	-46.257	-153.886	-8191	255	
1845.120	1	1	0	0	0.20672	0.33528	0.047746	0.19155	0.075995	0.20634	0.06587	0.16406	0.034639	0.015607	0.093046	0.23047	0.07505	0.10897	0.091232	0.29881	-2.525	-3.4229	-3.4792	-3.1208	-3.6396	-3.4	-3.225	-3.8646	-2.9271	-3.2021	-3.7792	-2.8771	-3.5271	-3.3729	-3.0938	-3.7083	151.129	29.835	-29.366	-156.954	-139.625	68.144	95.690	151.962	-0.694	179.030	-157.831	131.785	144.715	131.561	83.429	156.535	0.0024331	0.00059556	0.00011903	720.18	7.3298e-06	4.4855e-06	999.63	230.84	8.3056e-06	5.4094e-06	409.16	158.41	81.22	32.439	7.2013e-06	75.765	0.00066193	0.00029438	8.0685e-05	654.36	3.2047e-06	2.9962e-06	914.91	211.31	3.2791e-06	3.0681e-06	375.04	145.45	74.508	29.813	3.4763e-06	70.53	12.208	-90.700	-78.156	-165.067	-40.402	-37.285	-165.417	-160.267	-9.543	-28.383	-161.101	-156.883	-156.623	-152.088	-38.663	-153.845	-8191	255	
1845.216	1	1	0	0	0.13424	0.23713	0.23238	0.045393	0.049272	0.22219	0.16565	0.064834	0.059777	0.09635	0.22253	0.30989	0.16664	0.27738	0.15366	0.2744	-2.6375	-3.2812	-3.7396	-3.0292	-3.6146	-3.4417	-3.2854	-3.6375	-3.1667	-3.1688	-3.9042	-3.1417	-3.6271	-3.5438	-3.0396	-3.8167	-12.292	-76.950	68.281	49.252	-83.269	100.611	70.681	138.721	83.856	165.207	148.066	104.950	-153.831	103.212	112.335	123.672	0.0021503	0.00047455	0.00015381	713.78	7.1266e-06	4.9363e-06	1000	229.96	7.1258e-06	5.1203e-06	406.2	158.08	81.377	32.207	7.7174e-06	76.537	0.00061291	0.0002953	8.1962e-05	650.83	2.9069e-06	2.9609e-06	911.05	210.06	3.0698e-06	3.4168e-06	374.39	144.66	74.023	29.7	3.4391e-06	70.773	10.912	-90.574	-78.386	-165.663	-19.658	-37.776	-165.803	-160.681	-28.113	-22.326	-161.113	-157.225	-156.929	-152.440	-33.140	-153.689	-8191	255	
1845.312	1	1	0	0	0.076877	0.15442	0.089417	0.10807	0.42102	0.26846	0.10692	0.26611	0.15841	0.21289	0.13124	0.20712	0.11216	0.1402	0.10512	0.14547	-2.65	-2.9062	-3.5646	-2.9437	-3.5208	-3.5021	-3.0687	-3.7438	-3.275	-3.0625	-3.7938	-3	-3.4479	-3.4938	-2.7417	-3.8375	-163.763	142.664	104.027	-117.672	-129.285	110.970	31.620	105.748	-30.081	-23.746	135.755	-22.306	-175.389	153.379	-23.911	133.814	0.00221	0.0006221	0.00017088	713.5	6.5355e-06	3.8686e-06	995.12	229.76	1.1229e-05	5.4119e-06	409.55	158.24	80.535	32.259	5.6116e-06	77.002	0.00062006	0.00032758	7.1743e-05	650.47	3.0984e-06	2.7962e-06	910.01	209.86	3.2262e-06	3.3293e-06	374.45	145.03	73.898	29.775	3.6399e-06	71.036	12.454	-102.336	-83.673	-165.580	-26.173	-37.476	-165.761	-160.374	-20.285	-30.438	-161.225	-156.912	-156.490	-152.276	-37.566	-153.798	-8191	255	
1845.383	1	1	0	0	0.17969	0.097071	0.10553	0.22359	0.16221	0.14596	0.24132	0.17712	0.23495	0.18402	0.084215	0.20856	0.16897	0.26337	0.24032	0.18555	-2.7208	-2.9979	-3.6646	-3.1146	-3.4396	-3.6083	-3.0187	-3.6292	-3.5021	-3.0583	-3.8479	-2.9083	-3.2042	-3.725	-3.0542	-3.6729	-71.620	65.584	-156.484	64.755	119.369	52.326	147.252	115.574	88.415	-91.103	15.113	149.824	-127.107	93.278	-101.924	165.810	0.0022322	0.00047481	0.00011992	715.97	6.3119e-06	4.1541e-06	1000.5	230.23	6.2122e-06	7.2311e-06	411.45	160.22	81.61	32.356	4.9892e-06	76.667	0.00062386	0.0002953	7.5316e-05	651.83	3.4527e-06	2.8495e-06	913.71	210.73	3.0139e-06	3.3585e-06	376.61	146.36	74.417	29.873	3.4353e-06	71.123	9.245	-90.075	-95.325	-165.588	-17.749	-23.961	-165.425	-160.164	-14.732	-23.431	-160.809	-157.098	-156.419	-152.525	-18.941	-153.791	-8191	255	
1845.504	1	1	0	0	0.21697	0.073641	0.28497	0.27984	0.067762	0.036698	0.27386	0.025956	0.18288	0.18368	0.25165	0.34597	0.064624	0.082141	0.24361	0.11043	-3.0438	-2.8667	-3.6542	-3.2646	-3.1	-3.5375	-2.9562	-3.5208	-3.2792	-2.8292	-3.7521	-3.3812	-3.0146	-3.575	-2.8229	-3.4417	-76.484	-66.408	52.661	158.726	73.066	126.181	143.418	-96.345	-168.578	-177.816	-177.293	164.519	132.217	-178.264	45.018	123.481	0.0021848	0.00054287	0.00014478	714.1	6.6694e-06	4.9077e-06	995.35	230.91	1.0374e-05	4.2345e-06	407.24	158.41	80.692	32.09	4.4754e-06	75.863	0.00059513	0.00033023	8.2549e-05	650.77	3.3854e-06	2.8703e-06	911.6	210.38	3.2477e-06	3.3203e-06	374.43	144.63	73.809	29.534	3.4088e-06	70.35	9.959	-100.497	-86.027	-165.773	-30.918	-25.001	-165.496	-160.320	-15.263	-18.774	-161.341	-157.524	-156.931	-152.356	-33.392	-154.062	-8191	255	
1845.600	1	1	0	0	0.078153	0.18844	0.089651	0.15587	0.094622	0.24101	0.19329	0.17533	0.081702	0.26557	0.17534	0.28118	0.017479	0.12322	0.22946	0.14017	-3.2208	-2.7812	-3.6896	-3.3979	-3.0354	-3.7042	-3.2438	-3.2708	-3.5938	-2.8292	-3.5917	-3.2667	-3.1917	-3.6833	-3.0229	-3.5375	-48.087	137.256	154.006	85.388	74.496	-64.679	129.623	117.113	81.877	42.019	177.083	125.494	-160.820	144.776	-145.717	-168.404	0.0022141	0.00055178	0.00018357	709.73	6.6864e-06	4.7319e-06	996.33	228.16	8.9325e-06	5.1247e-06	409.7	158.23	80.834	32.076	7.9866e-06	75.868	0.00063002	0.00031545	8.0823e-05	647.83	3.4155e-06	3.0288e-06	909.62	209.25	3.1541e-06	3.5454e-06	375.23	144.75	73.795	29.542	3.2603e-06	70.411	9.651	-92.696	-84.510	-165.568	-26.894	-30.469	-165.550	-160.396	-20.901	-25.906	-161.341	-157.631	-156.847	-153.243	-33.965	-154.703	-8191	255	
1845.696	1	1	0	0	0.075276	0.10261	0.1859	0.24293	0.18292	0.21836	0.10049	0.23289	0.057468	0.48898	0.16685	0.10823	0.097782	0.19115	0.097358	0.25495	-3.3521	-2.9354	-3.4708	-3.5104	-2.7854	-3.6479	-3.1208	-3.3021	-3.5208	-2.9688	-3.4688	-3.5563	-2.8604	-3.5146	-3.2292	-3.1292	-74.643	-34.984	-31.916	161.109	119.488	54.915	73.805	139.012	12.590	-145.215	-38.439	180.316	-16.369	-55.492	75.623	151.115	0.0023262	0.00060205	0.00014323	708.92	4.7752e-06	5.3112e-06	1000.8	228.81	8.4392e-06	4.911e-06	409.05	159.18	80.76	32.183	6.4851e-06	76.986	0.00062375	0.00031329	7.9666e-05	648.9	3.2708e-06	2.8094e-06	912.6	209.95	3.0541e-06	3.207e-06	375.87	145.77	74.073	29.726	3.4258e-06	71.191	11.942	-86.997	-88.405	-166.088	-18.772	-34.666	-166.330	-160.798	-14.840	-24.995	-161.722	-157.762	-157.658	-152.721	-31.919	-154.039	-8191	255	
1845.793	1	1	0	0	0.11864	0.15075	0.050109	0.26821	0.22864	0.13259	0.24226	0.16801	0.041418	0.046348	0.24825	0.22026	0.12661	0.11622	0.11596	0.17881	-3.3458	-3.0375	-3.5229	-3.5292	-3.0083	-3.7125	-3.1437	-3.2771	-3.5563	-2.9292	-3.4771	-3.7125	-2.925	-3.7833	-3.3354	-3.1396	-139.354	89.837	11.790	147.442	43.619	100.755	129.326	-103.601	-140.267	4.785	164.655	131.062	101.444	125.909	-36.380	-167.091	0.0023066	0.00055216	0.00014204	710.92	5.652e-06	5.5188e-06	1003.7	232.17	1.0519e-05	3.9894e-06	413.17	159.94	81.96	32.261	5.897e-06	76.295	0.0006166	0.00034662	7.7301e-05	651.49	3.353e-06	3.1547e-06	916.92	211.66	3.1611e-06	3.1209e-06	378.3	146.62	74.677	29.771	3.1946e-06	70.997	9.490	-89.949	-94.402	-166.001	-29.108	-3.226	-166.386	-160.723	-30.539	-7.943	-161.669	-157.332	-156.902	-152.455	-35.648	-154.031	-8191	255	
1845.911	1	1	0	0	0.11092	0.20661	0.35781	0.08436	0.013041	0.16129	0.12445	0.13819	0.13182	0.22392	0.25479	0.051595	0.10811	0.028163	0.062843	0.18232	-3.2812	-3.0229	-3.2896	-3.5542	-2.9875	-3.6437	-3.5	-3.1958	-3.5458	-3.0833	-3.3896	-3.6729	-2.9521	-3.45	-3.4604	-3.1208	175.449	151.227	51.103	138.094	72.787	-13.431	179.865	-76.590	76.847	67.256	162.191	70.044	143.513	111.829	-12.672	19.278	0.0021814	0.00043211	9.6473e-05	714.52	6.531e-06	5.4898e-06	999.58	228.84	9.2514e-06	5.8522e-06	407.41	158.06	80.386	31.812	7.863e-06	75.867	0.00060926	0.00028082	7.4988e-05	652.76	3.3722e-06	2.6966e-06	911.52	210.08	3.0663e-06	3.0903e-06	374.66	144.5	73.501	29.376	3.3052e-06	70.33	10.410	-94.131	-87.225	-165.665	-25.872	-44.501	-165.812	-160.550	-31.177	-32.244	-161.145	-157.223	-157.173	-152.607	-25.354	-154.135	-8191	255	
1845.983	1	1	0	0	0.026651	0.19425	0.092646	0.013843	0.2416	0.099955	0.17434	0.28828	0.18769	0.18268	0.20178	0.17481	0.058958	0.096164	0.087498	0.17335	-3.2021	-3.0646	-3.2208	-3.7479	-2.8958	-3.6708	-3.4021	-2.9333	-3.6875	-3.0187	-3.1625	-3.6167	-2.9646	-3.4771	-3.5062	-3.05	157.622	84.664	-119.574	-15.638	117.981	79.972	167.463	-172.505	169.854	-16.784	172.584	34.585	143.902	-170.280	-75.096	137.274	0.0022841	0.00046541	0.00014013	711.02	8.0123e-06	4.6155e-06	994.47	229.81	1.0036e-05	6.0183e-06	406.87	156.97	80.172	31.621	5.4254e-06	74.796	0.00060715	0.00028261	7.3797e-05	648.37	3.3704e-06	3.1049e-06	907.91	209.27	2.9883e-06	3.2911e-06	372.74	143.9	73.32	29.208	3.1909e-06	69.614	10.544	-74.029	-94.267	-166.145	-35.113	-29.649	-166.368	-160.514	-23.216	-26.296	-161.490	-157.423	-157.417	-153.301	-36.946	-154.337	-8191	255	
#DATA ENDS
