BOXY.EXE: ISS Imagent and Oximeter Data Acquisition Program Version 0.80
Ascii Record File

#ACQ INFORMATION
2  Detector Channels 
16  External MUX Channels 
1  Auxiliary Channels 
5000  Waveform (CCF) Frequency (Hz)
1  Waveforms Skipped 
30  Waveforms Averaged 
1  Cycles Averaged 
16  Acquisitions per Waveform 
10.0806  Updata Rate (Hz) 

#FILE INFORMATION
TRUE -- External MUX Channel results are PARSED.
FALSE -- AC DC and Phase are NOT grouped.
TRUE -- Companion Program Settings File CREATED.
FALSE -- AC data not excluded
FALSE -- DC data not excluded
FALSE -- Phase data not excluded
FALSE -- Auxillary Chn. data not excluded
Tab delimiters

#CALIBRATION STATE
TRUE -- Waveform Calibration Values APPLIED.


#AUX CALIBRATION VALUES
Val Type	aux-1	

Term	1.0000e+00	
Factor	0.0000e+00	


#WF CALIBRATION VALUES
A = Detector Channel
Val Type	A-AC1	A-AC2	A-AC3	A-AC4	A-AC5	A-AC6	A-AC7	A-AC8	A-AC9	A-AC10	A-AC11	A-AC12	A-AC13	A-AC14	A-AC15	A-AC16	A-DC1	A-DC2	A-DC3	A-DC4	A-DC5	A-DC6	A-DC7	A-DC8	A-DC9	A-DC10	A-DC11	A-DC12	A-DC13	A-DC14	A-DC15	A-DC16	A-Ph1	A-Ph2	A-Ph3	A-Ph4	A-Ph5	A-Ph6	A-Ph7	A-Ph8	A-Ph9	A-Ph10	A-Ph11	A-Ph12	A-Ph13	A-Ph14	A-Ph15	A-Ph16	

Term	0.00000e+00	0.00000e+00	0.00000e+00	0.00000e+00	0.00000e+00	0.00000e+00	0.00000e+00	0.00000e+00	0.00000e+00	0.00000e+00	0.00000e+00	0.00000e+00	0.00000e+00	0.00000e+00	0.00000e+00	0.00000e+00	0.00000e+00	0.00000e+00	0.00000e+00	0.00000e+00	0.00000e+00	0.00000e+00	0.00000e+00	0.00000e+00	0.00000e+00	0.00000e+00	0.00000e+00	0.00000e+00	0.00000e+00	0.00000e+00	0.00000e+00	0.00000e+00	0.00000e+00	0.00000e+00	0.00000e+00	0.00000e+00	0.00000e+00	0.00000e+00	0.00000e+00	0.00000e+00	0.00000e+00	0.00000e+00	0.00000e+00	0.00000e+00	0.00000e+00	0.00000e+00	0.00000e+00	0.00000e+00	
Factor	1.00000e+00	1.00000e+00	1.00000e+00	1.00000e+00	1.00000e+00	1.00000e+00	1.00000e+00	1.00000e+00	1.00000e+00	1.00000e+00	1.00000e+00	1.00000e+00	1.00000e+00	1.00000e+00	1.00000e+00	1.00000e+00	1.00000e+00	1.00000e+00	1.00000e+00	1.00000e+00	1.00000e+00	1.00000e+00	1.00000e+00	1.00000e+00	1.00000e+00	1.00000e+00	1.00000e+00	1.00000e+00	1.00000e+00	1.00000e+00	1.00000e+00	1.00000e+00	X	X	X	X	X	X	X	X	X	X	X	X	X	X	X	X	

B = Detector Channel
Val Type	B-AC1	B-AC2	B-AC3	B-AC4	B-AC5	B-AC6	B-AC7	B-AC8	B-AC9	B-AC10	B-AC11	B-AC12	B-AC13	B-AC14	B-AC15	B-AC16	B-DC1	B-DC2	B-DC3	B-DC4	B-DC5	B-DC6	B-DC7	B-DC8	B-DC9	B-DC10	B-DC11	B-DC12	B-DC13	B-DC14	B-DC15	B-DC16	B-Ph1	B-Ph2	B-Ph3	B-Ph4	B-Ph5	B-Ph6	B-Ph7	B-Ph8	B-Ph9	B-Ph10	B-Ph11	B-Ph12	B-Ph13	B-Ph14	B-Ph15	B-Ph16	

Term	0.00000e+00	0.00000e+00	0.00000e+00	0.00000e+00	0.00000e+00	0.00000e+00	0.00000e+00	0.00000e+00	0.00000e+00	0.00000e+00	0.00000e+00	0.00000e+00	0.00000e+00	0.00000e+00	0.00000e+00	0.00000e+00	0.00000e+00	0.00000e+00	0.00000e+00	0.00000e+00	0.00000e+00	0.00000e+00	0.00000e+00	0.00000e+00	0.00000e+00	0.00000e+00	0.00000e+00	0.00000e+00	0.00000e+00	0.00000e+00	0.00000e+00	0.00000e+00	-2.36295e+02	-1.26358e+02	-1.26122e+02	-1.84352e+02	-7.43156e+01	-6.85797e+01	-1.62008e+02	-1.62015e+02	-7.18578e+01	-6.29640e+01	-1.80050e+02	-1.70314e+02	-1.79883e+02	-1.76694e+02	-7.79053e+01	-1.49338e+02	
Factor	5.48273e-05	1.42809e-04	4.33729e-05	1.64603e-01	1.74334e-06	1.73504e-06	1.78629e-01	4.25379e-02	2.29001e-06	1.56306e-06	6.49495e-01	2.52864e-02	2.46878e-02	8.09108e-03	1.65514e-06	1.13705e-02	7.25772e-06	8.82615e-06	2.46127e-06	8.91634e-02	9.29681e-08	9.73902e-08	9.04586e-02	2.32296e-02	9.25378e-08	9.72273e-08	3.24706e-01	1.33849e-02	1.36041e-02	4.45422e-03	9.46605e-08	6.04742e-03	X	X	X	X	X	X	X	X	X	X	X	X	X	X	X	X	



#DISTANCE SETTINGS
A = Detector Channel
A-1	A-2	A-3	A-4	A-5	A-6	A-7	A-8	A-9	A-10	A-11	A-12	A-13	A-14	A-15	A-16	

2.5000e+00	3.0000e+00	2.5000e+00	3.0000e+00	2.0000e+00	3.0000e+00	1.5000e+00	3.0000e+00	3.0000e+00	3.0000e+00	3.0000e+00	3.0000e+00	3.0000e+00	3.0000e+00	1.5000e+00	3.0000e+00	

B = Detector Channel
B-1	B-2	B-3	B-4	B-5	B-6	B-7	B-8	B-9	B-10	B-11	B-12	B-13	B-14	B-15	B-16	

1.0000e+01	1.0000e+01	1.0000e+01	1.4400e+00	1.0000e+01	1.0000e+01	1.5100e+00	1.9400e+00	1.0000e+01	1.0000e+01	1.9900e+00	2.4900e+00	2.4100e+00	2.9000e+00	1.0000e+01	2.9800e+00	




#DATA BEGINS
time	group	step	mark	flag	A-AC1	A-AC2	A-AC3	A-AC4	A-AC5	A-AC6	A-AC7	A-AC8	A-AC9	A-AC10	A-AC11	A-AC12	A-AC13	A-AC14	A-AC15	A-AC16	A-DC1	A-DC2	A-DC3	A-DC4	A-DC5	A-DC6	A-DC7	A-DC8	A-DC9	A-DC10	A-DC11	A-DC12	A-DC13	A-DC14	A-DC15	A-DC16	A-Ph1	A-Ph2	A-Ph3	A-Ph4	A-Ph5	A-Ph6	A-Ph7	A-Ph8	A-Ph9	A-Ph10	A-Ph11	A-Ph12	A-Ph13	A-Ph14	A-Ph15	A-Ph16	B-AC1	B-AC2	B-AC3	B-AC4	B-AC5	B-AC6	B-AC7	B-AC8	B-AC9	B-AC10	B-AC11	B-AC12	B-AC13	B-AC14	B-AC15	B-AC16	B-DC1	B-DC2	B-DC3	B-DC4	B-DC5	B-DC6	B-DC7	B-DC8	B-DC9	B-DC10	B-DC11	B-DC12	B-DC13	B-DC14	B-DC15	B-DC16	B-Ph1	B-Ph2	B-Ph3	B-Ph4	B-Ph5	B-Ph6	B-Ph7	B-Ph8	B-Ph9	B-Ph10	B-Ph11	B-Ph12	B-Ph13	B-Ph14	B-Ph15	B-Ph16	aux-1	digaux	

1208.470	1	1	0	256	0.13276	0.090381	0.19513	0.093499	0.18862	0.23804	0.14904	0.35474	0.057762	0.17889	0.16364	0.1524	0.45298	0.1655	0.14918	0.12039	-3.5604	-3.3063	-3.6125	-4.1188	-3.3875	-3.7979	-3.9646	-3.5687	-4.0229	-3.3875	-3.7	-4.1604	-3.425	-3.9938	-3.8521	-3.4396	35.287	73.119	126.415	288.537	168.677	21.618	207.753	264.425	-30.241	120.266	268.625	162.821	257.132	284.288	57.651	257.523	0.00043516	0.00058086	0.00011986	1584.8	4.9275e-06	6.5718e-06	1570.4	409.61	4.7723e-06	4.605e-06	463.02	152.45	134.53	45.509	3.7884e-06	55.903	0.00025213	0.00018925	5.1738e-05	1597.1	2.3174e-06	1.9218e-06	1587.4	415.05	2.2429e-06	2.0183e-06	453	155.41	136.4	46.511	2.1188e-06	57.029	51.109	16.232	35.874	-51.937	78.365	73.126	-52.094	-47.132	92.105	84.175	-47.172	-43.430	-43.326	-38.480	76.543	-39.040	-8191	255	
1208.566	1	1	0	0	0.021416	0.17466	0.19542	0.30238	0.17843	0.16747	0.34057	0.1867	0.092372	0.092082	0.13037	0.13077	0.039548	0.20246	0.075163	0.16471	-3.8125	-3.525	-3.4521	-4.2646	-3.1021	-3.775	-3.9458	-3.5021	-3.9417	-3.5542	-3.3958	-4.1854	-3.3375	-3.8438	-3.7646	-3.3937	-13.712	112.484	97.239	286.627	124.080	-2.453	246.281	250.423	222.365	202.384	-48.423	272.937	202.199	232.690	27.218	190.490	0.00050779	0.00034116	0.00014488	1588.8	2.4059e-06	6.0505e-06	1571.3	409.33	3.18e-06	5.1563e-06	463.58	153.47	133.92	45.484	3.4539e-06	55.719	0.00026518	0.00018675	5.2599e-05	1599.7	2.2574e-06	2.0079e-06	1586.4	415.43	2.325e-06	2.0167e-06	454.49	155.95	136.22	46.424	2.1551e-06	57	42.334	30.409	37.201	-51.950	116.646	81.295	-52.021	-47.256	76.474	80.326	-47.580	-43.243	-42.859	-38.441	74.701	-38.966	-8191	255	
1208.687	1	1	0	0	0.13833	0.3279	0.18401	0.19106	0.047803	0.15463	0.24521	0.10526	0.37546	0.25796	0.18841	0.2463	0.32094	0.25994	0.21357	0.2763	-3.6167	-3.7521	-3.3042	-4.2271	-3.4771	-3.7687	-4.0833	-3.3646	-3.7583	-3.6271	-3.4813	-4.2917	-3.5042	-3.6458	-3.9854	-3.2729	0.619	197.566	104.373	235.394	-27.324	115.484	249.301	252.103	243.225	9.485	231.391	264.448	282.423	-33.875	-38.753	240.938	0.00048753	0.00033668	0.00011988	1585.5	4.6025e-06	5.1482e-06	1570.7	409.65	6.1886e-06	5.8535e-06	457.36	152.42	133.74	45.503	4.8009e-06	55.742	0.00026244	0.00018371	5.3235e-05	1597.5	2.3246e-06	1.9971e-06	1587.7	415.28	2.2824e-06	1.9804e-06	452.68	155.54	136.17	46.448	2.1192e-06	57.002	46.813	31.395	30.476	-52.131	91.918	99.408	-52.123	-47.241	95.345	80.514	-48.085	-43.517	-43.039	-38.450	70.284	-39.094	-8191	255	
1208.783	1	1	0	0	0.084448	0.19678	0.41395	0.22213	0.11645	0.11934	0.2883	0.23668	0.069847	0.047544	0.1513	0.098609	0.11923	0.078535	0.053086	0.1593	-3.4938	-3.7542	-3.2875	-4.0854	-3.4896	-3.4604	-4.2562	-3.4521	-3.7958	-3.7583	-3.0979	-4.0854	-3.575	-3.5146	-3.95	-3.3563	179.667	256.238	237.354	241.542	130.584	282.893	284.361	273.946	55.774	286.235	87.270	211.019	-4.633	245.758	50.952	222.756	0.00049475	0.00059464	0.00021032	1584.4	3.5759e-06	6.4638e-06	1569.6	409.18	4.2587e-06	6.822e-06	459.25	153.68	133.36	45.545	3.5263e-06	55.557	0.0002552	0.00019134	5.4476e-05	1596.4	2.2613e-06	2.0018e-06	1586.1	414.67	2.2579e-06	1.9891e-06	452.21	155.82	136.16	46.383	2.1665e-06	56.921	45.934	22.618	31.002	-51.926	70.398	95.402	-51.942	-47.147	72.930	89.321	-48.334	-43.322	-42.856	-38.546	66.392	-39.145	-8191	255	
1208.855	1	1	0	0	0.10123	0.078579	0.25674	0.19387	0.237	0.20537	0.44239	0.24591	0.042047	0.29933	0.2003	0.20832	0.12464	0.038166	0.049867	0.10728	-3.2792	-3.8708	-3.1708	-4.1813	-3.5229	-3.3958	-4.1125	-3.4562	-3.5708	-3.8187	-3.3187	-4.1083	-3.8479	-3.5104	-4.0354	-3.5583	-14.282	240.247	284.663	284.511	285.581	42.407	262.050	231.112	72.358	186.340	98.739	257.648	123.719	28.335	150.296	28.074	0.00047104	0.00069097	9.3286e-05	1588.4	4.8038e-06	6.5903e-06	1564.7	410.52	5.4239e-06	4.5229e-06	458.52	152.2	134.23	45.543	3.7104e-06	55.769	0.00027003	0.00019193	5.3656e-05	1598	2.3531e-06	2.1253e-06	1586.3	414.93	2.4436e-06	2.0764e-06	455.05	155.46	136.39	46.42	2.2137e-06	56.931	43.670	27.073	40.686	-51.745	88.072	77.634	-51.858	-47.188	75.603	86.177	-47.305	-43.480	-42.995	-38.529	69.440	-39.202	-8191	255	
1208.951	1	1	0	0	0.20673	0.15648	0.031036	0.32444	0.064573	0.1531	0.23859	0.024857	0.10919	0.16741	0.22487	0.17525	0.22676	0.17595	0.13505	0.1792	-3.2479	-3.8583	-3.0812	-4.1292	-3.7625	-3.1896	-4.3021	-3.5583	-3.575	-4.025	-3.275	-3.9521	-3.9729	-3.3458	-4.1021	-3.7146	43.716	50.639	-5.098	263.310	257.315	208.540	265.435	173.725	16.910	-34.613	-51.903	292.160	122.649	4.185	27.892	0.322	0.00046397	0.00050859	0.00018449	1589.1	5.7085e-06	5.3525e-06	1570.6	408.89	4.7477e-06	7.7272e-06	460.93	153.1	134.11	45.561	5.6283e-06	56.019	0.00027333	0.00019668	5.5594e-05	1599.7	2.3079e-06	2.1414e-06	1587.4	414.81	2.3726e-06	2.1151e-06	453.59	155.73	136.37	46.421	2.194e-06	57.014	38.618	29.696	26.810	-51.865	66.776	76.615	-51.927	-47.437	74.993	90.287	-47.629	-43.219	-42.844	-38.473	75.957	-39.171	-8191	255	
1209.047	1	1	0	0	0.11301	0.20204	0.135	0.17673	0.056127	0.1272	0.33183	0.36799	0.32807	0.31034	0.14535	0.17115	0.065477	0.20208	0.18606	0.15249	-3.0583	-4.0229	-3.2396	-3.9604	-3.7625	-3.2208	-4.3021	-3.6917	-3.4667	-4.0708	-3.1979	-3.8937	-4.0437	-3.2687	-3.8708	-3.5604	44.145	-35.439	155.230	249.858	185.942	253.541	215.396	214.154	164.010	260.735	271.578	286.156	120.339	264.869	104.667	198.427	0.00041946	0.00046273	0.00016286	1586.2	4.972e-06	4.7023e-06	1575.1	408.78	3.4571e-06	6.0772e-06	464.88	152.81	134.15	45.608	5.4734e-06	55.688	0.00027463	0.00019686	6.0419e-05	1599.2	2.4238e-06	2.2708e-06	1591.6	414.93	2.4484e-06	2.157e-06	456.04	155.8	136.68	46.533	2.374e-06	56.95	52.083	52.061	24.841	-51.824	104.575	82.096	-52.019	-47.385	126.182	97.249	-47.449	-43.428	-43.071	-38.418	92.451	-39.450	-8191	255	
1209.166	1	1	0	0	0.19841	0.18631	0.174	0.30388	0.13168	0.21228	0.04799	0.16676	0.074774	0.2851	0.19042	0.11146	0.092816	0.15475	0.19889	0.17797	-3.075	-4.1042	-3.1063	-3.9	-4.0333	-3.1625	-4.3979	-3.7562	-3.2833	-4.2604	-3.3042	-3.7167	-4.1104	-3.3187	-3.9958	-3.7979	26.643	44.035	-24.318	191.171	55.818	27.877	186.284	219.247	245.391	171.406	-54.864	136.490	254.057	247.908	86.686	185.620	0.00053722	0.00047561	0.00012171	1589.7	4.9341e-06	5.2818e-06	1572.5	409.16	5.0577e-06	4.2326e-06	451.77	152.95	134.65	45.379	4.3028e-06	55.612	0.00028072	0.0001994	5.7101e-05	1603.1	2.4042e-06	2.2822e-06	1591.9	415.56	2.4642e-06	2.1119e-06	451.41	155.76	136.94	46.457	2.2549e-06	56.968	42.341	18.992	30.911	-51.934	100.872	75.129	-51.904	-47.277	97.770	92.331	-47.278	-43.247	-42.775	-38.475	96.709	-39.244	-8191	255	
1209.262	1	1	0	0	0.152	0.20195	0.10238	0.10985	0.16272	0.10787	0.18772	0.2365	0.38001	0.060904	0.08924	0.28479	0.19702	0.2065	0.049322	0.12593	-2.6833	-3.9646	-3.3479	-3.7042	-4.0021	-3.1875	-4.1396	-3.8396	-3.2271	-4.0167	-3.3771	-3.6646	-4.3208	-3.3521	-3.7604	-3.8896	-43.035	190.811	6.157	286.024	100.690	230.315	211.687	256.568	58.791	165.312	193.058	197.224	255.420	245.792	253.950	253.565	0.00040731	0.00050024	0.00019897	1588.8	4.1377e-06	4.1313e-06	1580.1	409.83	3.6434e-06	5.5767e-06	452.79	152.94	134.59	45.326	5.5963e-06	55.814	0.00027929	0.00020591	5.8383e-05	1601.2	2.3515e-06	2.2071e-06	1591.2	414.99	2.4663e-06	2.1807e-06	453.31	155.83	136.33	46.367	2.2953e-06	57.034	47.713	28.283	13.050	-51.965	67.744	72.169	-51.848	-47.537	92.554	81.238	-48.422	-43.467	-42.965	-38.716	59.404	-39.494	-8191	255	
1209.358	1	1	0	0	0.25484	0.13782	0.14479	0.36449	0.056175	0.119	0.16515	0.28946	0.11157	0.15728	0.10752	0.27626	0.32161	0.060085	0.10595	0.12648	-2.9271	-4.0229	-3.625	-3.4917	-3.9896	-3.3458	-3.9562	-3.9313	-3.2875	-4.025	-3.6354	-3.375	-4.2312	-3.3271	-3.55	-3.9208	12.290	212.255	-53.600	-40.593	165.541	211.355	239.137	218.462	-41.531	-50.211	202.892	-63.220	260.539	263.231	104.076	144.963	0.00046786	0.00050342	0.00015198	1587	5.5252e-06	7.4347e-06	1570.1	409.61	2.4905e-06	4.8911e-06	454.07	153.4	134.26	45.303	4.8863e-06	55.67	0.00027753	0.00020122	5.4563e-05	1599.3	2.3639e-06	2.3297e-06	1586.9	415.05	2.3761e-06	2.1289e-06	451.33	155.71	136.37	46.33	2.2906e-06	56.942	45.089	37.570	15.761	-52.148	78.720	83.445	-52.267	-47.661	112.886	72.598	-48.439	-43.383	-43.225	-38.850	82.952	-39.330	-8191	255	
1209.455	1	1	0	0	0.15583	0.093673	0.17799	0.22474	0.20008	0.068582	0.27484	0.24991	0.15386	0.053456	0.061054	0.087261	0.1812	0.086264	0.12261	0.26759	-2.6437	-4	-3.6375	-3.5333	-4.0375	-3.3583	-3.8479	-4.1896	-3.2229	-3.8792	-3.8146	-3.4979	-4.1937	-3.575	-3.6146	-4.0375	241.988	165.159	81.979	269.052	110.908	282.131	285.377	257.654	125.346	124.995	169.035	291.327	273.265	278.002	-7.406	259.849	0.00043174	0.00057882	0.00016586	1582.9	2.9191e-06	6.4294e-06	1563.3	407.08	4.7914e-06	4.5295e-06	455.31	152.74	134.34	45.199	5.1318e-06	55.251	0.00027055	0.00019061	5.3153e-05	1595.4	2.1956e-06	2.0486e-06	1581.4	413.49	2.2652e-06	1.8581e-06	448.79	155.06	136.02	46.199	2.0656e-06	56.583	46.572	34.482	22.822	-52.267	123.093	85.311	-52.044	-47.505	78.928	86.504	-47.555	-43.605	-43.010	-38.321	78.020	-39.237	-8191	255	
1209.551	1	1	0	0	0.040886	0.086821	0.17005	0.41569	0.048156	0.052231	0.33117	0.032797	0.1248	0.22167	0.039575	0.13531	0.12197	0.15878	0.11476	0.16814	-2.7458	-3.9042	-3.6854	-3.3917	-3.8937	-3.5458	-3.6833	-4.1292	-3.1542	-4.0229	-3.7854	-3.3979	-4.25	-3.6417	-3.4542	-4.1562	208.683	-27.950	-37.234	244.975	291.842	51.408	251.561	187.285	278.060	266.666	51.577	172.121	285.040	135.011	213.587	260.287	0.00049957	0.00053005	0.00016807	1569.8	5.3998e-06	6.344e-06	1562.6	407.38	5.8725e-06	5.0152e-06	451.37	152.8	133.37	45.367	3.7089e-06	55.592	0.00025723	0.00018485	4.801e-05	1588.3	2.1321e-06	1.8999e-06	1577.6	412.7	2.3208e-06	1.9737e-06	446.75	154.94	135.64	46.11	2.1172e-06	56.654	53.816	24.503	21.138	-51.981	89.611	84.809	-52.056	-47.487	98.110	109.515	-47.846	-43.599	-42.869	-38.843	63.468	-39.199	-8191	255	
1209.647	1	1	0	0	0.078639	0.17125	0.1915	0.22449	0.27374	0.011334	0.047284	0.10559	0.20693	0.061199	0.040882	0.22779	0.098413	0.29569	0.23666	0.18863	-2.8625	-3.7792	-3.9	-3.5479	-4.0083	-3.6229	-3.6437	-4.2271	-3.2021	-3.7062	-3.9083	-3.2625	-4.1917	-3.7271	-3.3771	-4.1937	75.484	145.798	282.433	246.174	147.308	-61.212	-52.807	240.564	17.472	293.163	196.312	249.613	292.479	-34.364	218.832	-28.157	0.0004444	0.00048229	0.00014629	1568.2	5.6369e-06	6.72e-06	1555.3	405.62	5.4466e-06	6.8394e-06	457.03	151.63	132.83	44.912	4.3968e-06	55.265	0.00025162	0.00017801	4.7267e-05	1581.8	2.1026e-06	1.9097e-06	1573	412.11	2.0942e-06	1.787e-06	447.11	154.29	134.92	45.968	1.9557e-06	56.369	49.619	20.887	33.174	-52.040	100.571	97.618	-52.114	-47.532	83.830	98.373	-47.709	-43.617	-42.981	-38.557	71.059	-39.339	-8191	255	
1209.767	1	1	0	0	0.11413	0.13541	0.16638	0.15588	0.11811	0.079504	0.35154	0.19989	0.24662	0.13823	0.042261	0.093904	0.29568	0.038774	0.057588	0.20252	-3.0083	-3.4854	-3.8333	-3.4354	-4.0708	-3.8646	-3.5542	-4.4396	-3.3625	-3.5125	-4.0417	-3.375	-3.8583	-3.8417	-3.3396	-4.1521	135.940	16.773	-35.065	45.891	81.979	-52.772	258.575	198.979	185.572	196.031	-50.780	227.915	265.909	125.908	282.699	268.776	0.00052956	0.00047353	0.00013466	1560.8	5.9712e-06	6.941e-06	1543.5	404.18	3.9188e-06	5.6611e-06	454.96	151.26	132.76	44.831	6.1225e-06	55.263	0.00024803	0.00016555	4.4857e-05	1574.1	2.0286e-06	1.8141e-06	1561.9	409.77	2.1037e-06	1.8293e-06	445.77	153.92	134.7	45.811	1.9238e-06	56.357	55.622	45.745	12.231	-52.053	97.829	86.420	-51.995	-47.386	89.183	73.877	-47.632	-43.603	-42.941	-38.800	77.624	-39.041	-8191	255	
1209.864	1	1	0	0	0.26719	0.11044	0.14586	0.32471	0.13132	0.18254	0.298	0.40332	0.13654	0.048055	0.13212	0.25556	0.30809	0.085371	0.018358	0.098615	-3.1354	-3.4979	-3.8896	-3.4125	-3.7146	-3.9062	-3.3625	-4.1917	-3.4771	-3.4146	-4.0021	-3.4354	-3.7854	-4.1604	-3.3479	-4.2521	177.583	61.741	287.123	-60.598	-30.610	-27.233	261.181	276.482	287.438	144.614	-53.081	-52.909	222.485	192.849	80.637	-24.141	0.00046823	0.0005583	0.00019286	1562.5	5.1793e-06	4.731e-06	1548.2	404.93	3.911e-06	4.0695e-06	449.24	151.78	132.83	44.979	4.6241e-06	55.389	0.00024911	0.00017978	4.4908e-05	1574.8	2.0614e-06	1.8492e-06	1563.5	410.19	2.121e-06	1.7815e-06	444.54	154.13	134.68	45.907	2.0644e-06	56.39	44.574	14.783	13.157	-52.056	97.929	70.596	-52.142	-47.171	97.382	92.709	-47.598	-43.809	-42.857	-38.517	79.647	-39.229	-8191	255	
1209.960	1	1	0	0	0.12156	0.17716	0.05627	0.31539	0.12033	0.074153	0.094992	0.32527	0.21524	0.14678	0.14505	0.026712	0.080022	0.32312	0.016621	0.2747	-3.15	-3.3604	-4.1312	-3.6396	-3.5458	-3.8667	-3.4646	-4.0813	-3.6167	-3.4521	-4.1708	-3.4688	-3.7104	-4.1729	-3.2229	-4.0583	233.708	101.646	232.542	-45.540	-61.277	69.756	-55.641	263.512	254.937	135.057	-1.556	275.305	124.583	148.592	-31.056	-20.305	0.00047212	0.00068902	0.00015213	1560	5.113e-06	6.7137e-06	1549.3	403.6	4.2341e-06	4.5632e-06	456.29	151.54	132.27	44.975	4.1774e-06	55.382	0.00024897	0.00017485	4.6128e-05	1576.3	2.0848e-06	1.8054e-06	1566.1	409.96	2.1735e-06	1.9707e-06	446.45	153.78	134.6	46.004	2.0829e-06	56.527	42.737	22.140	18.272	-52.156	92.169	76.297	-52.114	-47.144	69.975	81.237	-47.532	-43.847	-42.986	-38.519	85.636	-39.103	-8191	255	
1210.056	1	1	0	0	0.33171	0.11668	0.05029	0.1594	0.19443	0.019788	0.1419	0.26183	0.12114	0.36415	0.22699	0.11086	0.1961	0.047905	0.20076	0.28289	-3.4771	-3.3729	-3.95	-3.6771	-3.5333	-3.9979	-3.6063	-4.0729	-3.7687	-3.1583	-3.9417	-3.6604	-3.6458	-4.1292	-3.3458	-3.8479	160.587	-31.557	294.648	255.039	123.854	268.121	59.465	216.678	-40.531	50.673	0.814	264.517	-45.062	76.589	-45.373	271.439	0.00048082	0.00064264	0.0002255	1569.5	4.8846e-06	7.5923e-06	1555.5	405.52	3.6437e-06	3.8375e-06	453.02	152.23	132.43	45.141	5.7192e-06	55.343	0.00024327	0.00018469	4.9492e-05	1579.8	2.104e-06	1.8358e-06	1569.2	411.03	2.1818e-06	1.8886e-06	446.87	154.43	135	45.991	2.1395e-06	56.447	43.885	32.078	32.603	-52.238	98.643	81.866	-52.009	-47.242	65.993	97.488	-48.331	-43.538	-42.850	-38.303	79.111	-38.754	-8191	255	
1210.150	1	1	0	0	0.042709	0.036163	0.036807	0.37532	0.1286	0.32251	0.15352	0.1458	0.10699	0.102	0.13969	0.13296	0.12695	0.17979	0.14092	0.073133	-3.4208	-3.1646	-4.0042	-3.7562	-3.3896	-4.0729	-3.4479	-3.8771	-3.9437	-3.1583	-4.0292	-3.5563	-3.5292	-4.2583	-3.3104	-3.775	235.255	96.416	289.337	267.075	70.314	136.359	201.822	-27.362	13.370	23.706	195.029	255.141	273.015	83.134	215.712	11.230	0.00053369	0.00059813	0.00015613	1566.9	5.5672e-06	7.0264e-06	1548.2	403.79	4.3926e-06	4.78e-06	454.37	151.26	132.22	45.052	4.4256e-06	55.47	0.00024927	0.00018568	4.8087e-05	1577.6	2.1284e-06	1.8991e-06	1566.3	410.62	2.1326e-06	1.905e-06	446.42	154.09	134.81	46.016	1.9962e-06	56.564	51.591	23.517	8.334	-52.223	82.940	81.275	-51.985	-47.131	68.226	89.002	-47.011	-43.737	-43.084	-38.517	77.444	-39.073	-8191	255	
1210.247	1	1	0	0	0.15617	0.23122	0.12585	0.36682	0.13999	0.11612	0.1315	0.31976	0.12782	0.083342	0.18933	0.10658	0.25567	0.11916	0.02001	0.113	-3.5667	-3.2292	-3.7354	-3.8958	-3.1958	-3.9229	-3.6562	-3.6854	-3.9875	-3.3208	-3.9688	-3.7417	-3.5958	-4.1521	-3.4729	-3.6688	256.435	58.824	238.651	284.886	146.797	228.910	267.803	210.912	122.307	147.271	-52.965	195.541	141.164	35.890	171.737	-53.094	0.00049475	0.00056168	0.00019716	1571.8	4.5189e-06	5.412e-06	1552.6	404.43	2.2266e-06	4.8995e-06	448.47	151.62	132.49	45.092	3.2316e-06	55.39	0.00024886	0.0001829	5.0333e-05	1583.1	2.2134e-06	1.8309e-06	1569.3	410.8	2.0511e-06	1.9024e-06	446.94	154.29	135.05	46.049	2.1056e-06	56.593	40.784	6.288	22.436	-52.111	89.402	80.644	-52.234	-47.354	86.637	79.502	-47.514	-43.349	-42.995	-38.419	68.884	-39.065	-8191	255	
1210.343	1	1	0	0	0.058598	0.13639	0.079492	0.065878	0.11927	0.14702	0.27606	0.16775	0.10555	0.073365	0.26353	0.13402	0.34036	0.095818	0.067956	0.29789	-3.7583	-3.2083	-3.7562	-4.1458	-3.1854	-3.9104	-3.7208	-3.4917	-4.1354	-3.1604	-3.6833	-3.975	-3.3563	-4.0563	-3.4771	-3.4813	198.759	-41.331	235.668	282.913	84.488	118.910	208.678	179.127	74.901	-9.044	249.632	241.612	-59.350	38.450	267.058	254.445	0.00049162	0.00056518	0.00018442	1564.2	5.3322e-06	6.3812e-06	1553.5	404.77	4.7522e-06	6.3335e-06	462.17	151.31	132.56	45.119	4.6246e-06	55.195	0.00024681	0.00017891	4.782e-05	1580	2.1313e-06	1.8537e-06	1569.3	411.2	2.1419e-06	1.949e-06	449.41	153.97	135.07	46.047	2.1389e-06	56.601	41.897	28.568	14.292	-51.813	104.866	90.001	-52.134	-47.329	98.840	65.797	-47.605	-43.496	-42.787	-38.166	108.054	-39.108	-8191	255	
1210.463	1	1	0	0	0.07459	0.29156	0.15077	0.14554	0.17781	0.055182	0.28225	0.19207	0.027069	0.25761	0.15965	0.18231	0.31953	0.24762	0.17534	0.17804	-3.7271	-3.1604	-3.7167	-4.0646	-3.1833	-3.9542	-3.6688	-3.3375	-3.9313	-3.2	-3.6896	-3.9333	-3.2958	-4.0667	-3.8625	-3.325	116.977	249.079	237.059	280.897	150.839	-53.985	198.700	233.717	171.833	163.131	116.061	-56.477	294.737	283.833	75.168	-47.454	0.0004346	0.00054143	0.00018551	1566.9	5.4033e-06	4.8913e-06	1552.8	404.86	4.9706e-06	3.9591e-06	459.05	151.35	132.95	45.123	4.9532e-06	55.473	0.00025647	0.00019552	5.2251e-05	1580.9	2.2432e-06	1.9194e-06	1567.9	410.55	2.2913e-06	2.0491e-06	449.03	154.05	135.3	46.083	2.2011e-06	56.568	32.522	17.992	25.063	-51.959	70.187	85.357	-52.216	-47.160	109.312	88.254	-48.405	-43.561	-42.813	-39.051	81.684	-39.360	-8191	255	
1210.558	1	1	0	0	0.1089	0.16478	0.023172	0.071319	0.19572	0.1289	0.30869	0.31421	0.14298	0.1416	0.13467	0.11891	0.12194	0.18105	0.19251	0.13469	-3.7	-3.4896	-3.5812	-4.1937	-3.1875	-3.9792	-3.7458	-3.3042	-4.0583	-3.4062	-3.5083	-4	-3.3229	-3.8917	-3.7875	-3.2667	118.626	28.514	10.894	98.497	190.581	123.974	283.473	217.860	150.149	256.734	49.927	271.281	19.041	196.627	156.202	175.787	0.00041062	0.00061038	0.00014339	1571	6.1956e-06	3.5325e-06	1543.2	404.25	2.7328e-06	5.0519e-06	456.51	151.49	133.05	45	6.3965e-06	55.506	0.00025895	0.0001911	5.2784e-05	1581.3	2.2785e-06	1.9297e-06	1566.2	410.21	2.1862e-06	2.0274e-06	446.73	154.05	135.16	45.932	2.2302e-06	56.542	47.492	28.168	10.744	-52.063	79.277	72.006	-52.222	-47.343	100.373	79.132	-48.040	-43.630	-43.023	-38.412	66.248	-39.182	-8191	255	
1210.654	1	1	0	0	0.052802	0.090995	0.0098573	0.25855	0.35531	0.11609	0.35995	0.15006	0.087533	0.17888	0.13638	0.04448	0.31548	0.10575	0.19216	0.2603	-3.5604	-3.4875	-3.3896	-4.1958	-3.1854	-3.5687	-3.9896	-3.2812	-3.9479	-3.5458	-3.4271	-4.2812	-3.2583	-3.6667	-3.9167	-3.2708	242.226	149.715	38.249	289.860	43.582	161.427	234.848	266.332	289.828	291.694	22.450	93.616	225.597	223.903	241.759	254.158	0.0004878	0.00042601	0.00018069	1567.1	2.6181e-06	4.7144e-06	1549.6	406.19	3.6141e-06	6.7709e-06	453.69	151.24	133.03	45.198	4.2607e-06	55.265	0.00026206	0.00018704	5.5922e-05	1579.2	2.3591e-06	2.1919e-06	1567.3	411.32	2.4382e-06	2.2492e-06	449.14	154.25	135.19	46.14	2.2153e-06	56.504	46.398	8.061	25.131	-52.065	102.130	82.617	-52.477	-47.510	66.704	99.465	-48.180	-43.761	-42.943	-38.464	72.986	-39.342	-8191	255	
1210.750	1	1	0	0	0.078544	0.17955	0.16959	0.082657	0.13236	0.053604	0.30837	0.18652	0.063826	0.15871	0.051808	0.1807	0.11885	0.17866	0.1711	0.138	-3.5292	-3.5917	-3.2229	-4.0354	-3.4313	-3.5667	-4.0917	-3.4958	-4.0146	-3.7125	-3.2375	-4.3313	-3.4792	-3.6542	-4.0396	-3.1875	61.475	103.214	101.176	259.420	148.790	-42.602	243.249	278.907	242.743	188.707	229.284	280.972	236.467	260.666	76.998	77.228	0.00052415	0.00054354	0.00016696	1567.3	4.1323e-06	8.3333e-06	1555.7	405.3	4.5844e-06	5.8384e-06	455.31	152.18	132.47	45.024	6.6536e-06	55.433	0.00025248	0.00019162	5.3733e-05	1581.4	2.2086e-06	1.9476e-06	1568.5	410.89	2.2915e-06	1.9869e-06	447.37	154.36	134.76	46.023	2.1028e-06	56.595	49.107	21.680	17.844	-52.076	113.848	83.098	-52.230	-47.441	65.223	102.025	-48.235	-43.893	-43.109	-38.451	70.936	-39.257	-8191	255	
1210.846	1	1	0	0	0.11517	0.14932	0.22422	0.41398	0.1896	0.1827	0.24494	0.26041	0.033806	0.14618	0.097539	0.23798	0.28244	0.25707	0.15057	0.21278	-3.4813	-3.6958	-3.2146	-4.0625	-3.3917	-3.4354	-4.1729	-3.4313	-3.8833	-3.8729	-3.3542	-4.1083	-3.5771	-3.6292	-3.9896	-3.3187	274.997	167.513	-63.270	277.230	168.065	194.574	250.640	278.205	247.719	-16.252	170.657	233.351	0.948	-63.814	146.526	240.163	0.00047126	0.00053845	0.00014241	1574.6	6.2489e-06	5.8081e-06	1543.7	404.87	3.5527e-06	5.6206e-06	451.83	151.09	132.83	45.327	6.6444e-06	55.457	0.00025751	0.00018619	5.2338e-05	1581.9	2.2051e-06	1.9606e-06	1564.5	410.43	2.202e-06	1.8291e-06	446.97	154.14	134.93	46.128	2.0238e-06	56.516	52.039	32.510	30.857	-52.101	81.521	92.516	-52.105	-47.483	75.573	77.901	-48.153	-43.432	-43.210	-38.463	89.329	-39.469	-8191	255	
1210.942	1	1	0	0	0.09937	0.14174	0.3791	0.14158	0.10207	0.11387	0.26356	0.28513	0.043578	0.21622	0.098404	0.18328	0.1009	0.072041	0.13664	0.29079	-3.2729	-3.8375	-3.3792	-4.1083	-3.4688	-3.2875	-4.1896	-3.525	-3.7021	-3.975	-3.2208	-4.0417	-3.6688	-3.55	-4.0687	-3.4167	278.678	109.005	56.062	190.134	262.283	236.433	231.921	238.512	234.753	46.543	63.131	-15.092	208.367	107.358	132.997	234.085	0.00047775	0.00043782	0.00017168	1564.3	5.0603e-06	5.873e-06	1549.6	405.15	3.8885e-06	3.0929e-06	453.8	151.45	132.66	44.988	4.491e-06	55.421	0.00025697	0.00017601	5.0487e-05	1578.6	2.0902e-06	1.9131e-06	1565.6	410.77	2.2595e-06	1.9046e-06	447.52	154.02	135.05	45.991	2.0782e-06	56.513	53.608	13.975	47.971	-52.147	80.404	75.850	-52.211	-47.529	78.249	98.092	-47.575	-43.385	-42.946	-38.602	85.018	-39.206	-8191	255	
1211.038	1	1	0	0	0.086808	0.15182	0.091459	0.24676	0.25769	0.063078	0.10935	0.27576	0.11531	0.075667	0.16247	0.11761	0.16057	0.15342	0.048461	0.1376	-3.4042	-3.7792	-3.275	-4.1833	-3.5563	-3.3708	-4.3208	-3.4771	-3.5375	-3.8271	-3.2313	-3.9125	-3.6479	-3.4146	-3.9104	-3.6021	7.340	288.586	63.727	254.991	-34.678	-59.750	248.979	-58.890	264.343	145.044	23.215	-38.873	252.528	1.330	-23.190	180.435	0.00052393	0.00052389	0.00016715	1563.6	4.6641e-06	5.5803e-06	1555.5	405.17	3.9504e-06	3.7054e-06	460.25	151.22	132.49	45.028	2.8528e-06	55.117	0.00024595	0.00017323	5.0087e-05	1577.7	2.0323e-06	1.9289e-06	1567.2	410.29	2.0935e-06	1.8119e-06	449.06	154.22	134.9	46.032	2.0232e-06	56.426	53.306	27.057	17.625	-52.050	95.514	94.107	-51.971	-47.443	71.381	92.843	-47.260	-43.576	-43.262	-38.447	63.088	-39.306	-8191	255	
1211.159	1	1	0	0	0.097594	0.14005	0.21416	0.23017	0.10233	0.18531	0.16151	0.23223	0.19124	0.20087	0.11286	0.20154	0.070537	0.26309	0.15256	0.1006	-3.0646	-3.8792	-2.9938	-3.9521	-3.6646	-3.3042	-4.2333	-3.7188	-3.25	-3.9292	-3.2333	-3.8104	-4.0083	-3.2667	-4.0833	-3.5625	54.423	222.426	65.547	228.559	265.701	41.938	225.338	282.525	140.827	80.050	262.060	265.293	105.377	250.361	116.607	162.900	0.00046768	0.00047429	0.00013273	1564.9	6.8142e-06	6.343e-06	1554.2	404.16	3.7468e-06	5.6364e-06	449.64	151.5	132.86	45.046	4.2258e-06	55.862	0.00025718	0.0001708	4.9123e-05	1579.5	2.1782e-06	1.8989e-06	1568.6	410.27	2.1741e-06	1.7839e-06	446.57	154.14	134.96	46.078	1.9399e-06	56.595	38.488	25.861	12.592	-51.868	82.902	68.146	-51.929	-47.595	87.595	78.958	-47.621	-43.740	-43.032	-38.502	74.615	-39.358	-8191	255	
1211.255	1	1	0	0	0.18453	0.089317	0.15502	0.14117	0.23793	0.19434	0.22958	0.31459	0.13682	0.095068	0.06693	0.15267	0.16971	0.052826	0.22248	0.097292	-2.8917	-3.8354	-3.1708	-3.8937	-3.8458	-3.2104	-4.275	-3.9521	-3.3438	-3.9625	-3.3979	-3.675	-3.8583	-3.3771	-3.8625	-3.7396	147.982	116.041	109.303	208.966	86.639	228.983	249.375	237.497	8.405	268.915	168.310	168.915	152.425	-8.157	-59.712	287.542	0.00055145	0.00049883	0.0001988	1563.8	5.0586e-06	7.6418e-06	1556.3	404.4	2.9328e-06	6.5145e-06	458.37	151.1	132.45	45.15	4.3628e-06	55.742	0.00025766	0.00017275	4.9718e-05	1579.4	2.1092e-06	1.9551e-06	1568.1	410.26	2.1488e-06	1.851e-06	448.2	154.17	134.85	46.086	2.0666e-06	56.602	45.968	32.076	30.907	-51.987	88.073	70.054	-52.184	-47.337	30.589	91.883	-47.123	-43.385	-43.053	-38.495	46.992	-38.975	-8191	255	
1211.351	1	1	0	0	0.18053	0.0576	0.12487	0.21696	0.31894	0.079913	0.2604	0.16118	0.097646	0.13945	0.29979	0.22907	0.15403	0.095572	0.16072	0.13258	-2.8875	-4.1333	-3.2875	-3.6646	-4.0479	-3.1437	-4.1125	-3.8833	-3.1125	-4.0708	-3.5458	-3.5479	-4.0583	-3.3792	-3.8979	-3.8708	196.643	127.145	-46.910	291.596	48.353	133.120	241.817	221.442	186.880	-63.951	-42.681	211.451	278.241	-40.400	286.033	184.419	0.00050568	0.00056	0.00013044	1564.1	5.9613e-06	5.0403e-06	1552.6	405.37	1.0848e-06	5.4587e-06	453.46	151.55	132.71	45.043	5.2782e-06	55.288	0.00025692	0.00018057	4.9415e-05	1578.6	2.1164e-06	1.8821e-06	1565.6	410.31	2.2411e-06	1.8907e-06	446.83	154.04	134.9	45.997	1.962e-06	56.464	45.497	18.270	11.380	-51.804	85.705	96.438	-51.933	-47.133	206.003	55.178	-47.567	-43.462	-42.923	-38.535	75.133	-39.183	-8191	255	
1211.448	1	1	0	0	0.23164	0.15969	0.17239	0.3473	0.10671	0.0284	0.38712	0.077393	0.13504	0.16256	0.23583	0.03026	0.087622	0.24377	0.043668	0.081534	-2.7771	-4.0417	-3.4646	-3.6583	-3.9562	-3.3125	-3.8396	-3.9354	-3.3187	-3.9125	-3.6396	-3.5375	-4.0375	-3.4021	-3.5708	-3.9833	-36.234	-52.883	126.869	265.860	73.056	144.229	243.278	-58.890	-38.748	51.697	239.682	-60.701	-17.172	259.277	276.792	290.440	0.00047134	0.00056892	0.00017163	1567.6	6.0287e-06	6.0427e-06	1548.1	403.02	6.3597e-07	4.9214e-06	451.87	151.56	132.29	45.105	4.3914e-06	55.412	0.00026246	0.00017568	5.1553e-05	1576.5	2.1181e-06	2.044e-06	1563.9	409.57	2.3034e-06	1.9127e-06	445.2	154.04	134.69	45.997	2.0104e-06	56.441	48.053	28.976	39.219	-52.019	88.343	95.492	-52.176	-47.225	102.924	95.601	-47.900	-43.343	-42.976	-38.667	58.068	-39.047	-8191	255	
1211.542	1	1	0	0	0.043951	0.17789	0.14747	0.28098	0.23693	0.07327	0.26276	0.30004	0.14909	0.089842	0.099379	0.15791	0.21524	0.22563	0.28311	0.22445	-2.8292	-3.7917	-3.6354	-3.5521	-3.9813	-3.4562	-3.7229	-4.1104	-3.2021	-3.9208	-3.775	-3.4479	-4.1896	-3.5292	-3.4688	-4.2312	247.223	245.251	154.507	8.112	134.585	108.899	221.530	252.829	-10.930	259.902	-14.424	154.126	222.092	-32.117	24.142	120.331	0.00045541	0.00049069	0.00015143	1561.6	5.0436e-06	6.8611e-06	1552.5	404.39	1.8844e-06	5.9299e-06	450.36	151.09	132.64	45.027	3.6751e-06	55.118	0.00025574	0.00018097	4.9164e-05	1576.3	2.067e-06	1.888e-06	1564.2	409.67	2.2275e-06	1.8358e-06	447.62	153.71	135.02	45.954	2.0429e-06	56.403	47.649	12.448	21.121	-51.883	96.951	82.502	-51.825	-47.299	6.428	85.404	-47.692	-43.180	-42.933	-38.330	90.781	-38.820	-8191	255	
1211.638	1	1	0	0	0.25831	0.19188	0.1981	0.28391	0.13873	0.14524	0.31076	0.28298	0.15925	0.1347	0.060058	0.15141	0.13099	0.073927	0.15143	0.3388	-2.8521	-3.7854	-3.7208	-3.5104	-3.8229	-3.3917	-3.6708	-4.0542	-3.3604	-3.7875	-3.9667	-3.1437	-4.1896	-3.5667	-3.3917	-4.0458	233.467	55.699	110.696	-54.143	157.401	162.379	214.231	278.616	-26.455	-15.384	-23.704	285.083	181.461	239.444	209.463	160.559	0.00043624	0.00057311	0.00015424	1556.9	5.9533e-06	5.8493e-06	1540.9	403.99	4.3232e-06	6.0155e-06	459.7	150.71	132.4	45.102	6.9159e-06	55.327	0.00025071	0.00016742	4.7144e-05	1571.5	2.0635e-06	1.791e-06	1558.2	409.21	2.1162e-06	1.7742e-06	447.16	153.57	134.6	45.972	2.0123e-06	56.365	45.422	13.813	35.682	-51.932	67.651	75.823	-51.806	-47.097	80.904	90.301	-47.388	-43.194	-43.073	-38.123	84.185	-39.080	-8191	255	
1211.759	1	1	0	0	0.088879	0.040651	0.068172	0.48438	0.11544	0.2845	0.14792	0.11609	0.20657	0.29148	0.051643	0.25414	0.11142	0.13121	0.044135	0.10142	-2.6688	-3.7354	-3.7833	-3.4583	-3.9562	-3.4375	-3.5396	-3.9792	-3.3229	-3.5042	-3.9562	-3.1854	-4.0208	-3.6417	-3.1396	-4.0583	82.564	164.273	215.330	285.785	292.439	135.611	268.519	2.816	122.425	-54.241	266.111	-62.797	243.688	279.029	-49.644	240.214	0.00050215	0.00048064	0.00011116	1558.5	4.4995e-06	5.5259e-06	1543.3	403.69	2.7643e-06	5.3105e-06	451.3	151.55	132.68	44.949	4.7928e-06	55.359	0.00024634	0.00016435	4.3652e-05	1571.6	1.9839e-06	1.7873e-06	1556.4	409.07	2.0518e-06	1.7594e-06	444.26	153.69	134.75	45.905	2.0374e-06	56.426	47.769	28.256	39.010	-51.756	83.987	74.600	-51.853	-47.246	88.163	98.487	-47.854	-43.240	-42.970	-38.360	53.337	-39.124	-8191	255	
1211.855	1	1	0	0	0.056736	0.18836	0.085594	0.15311	0.22157	0.29799	0.28434	0.40914	0.12657	0.12918	0.17417	0.049974	0.25867	0.096746	0.22132	0.10308	-2.6146	-3.4729	-3.95	-3.2417	-3.9167	-3.6083	-3.5292	-4.175	-3.2625	-3.4688	-3.9104	-3.3688	-3.9562	-3.9104	-3.2708	-4.1813	164.138	144.962	-17.190	260.870	270.496	272.898	223.007	259.555	172.519	53.400	261.476	210.900	224.648	-65.019	-36.680	148.445	0.00047621	0.0005408	0.00020692	1559.4	3.2175e-06	7.5834e-06	1545.2	403.45	3.5569e-06	6.7444e-06	452.85	151.35	132	45.117	5.5881e-06	55.409	0.00024756	0.0001665	4.36e-05	1571.1	1.9175e-06	1.7475e-06	1561.1	408.76	1.9938e-06	1.7238e-06	446.29	153.81	134.53	45.963	1.9942e-06	56.494	47.951	35.538	35.994	-51.735	104.598	69.236	-51.875	-47.055	101.439	81.807	-47.224	-43.645	-42.767	-38.741	62.560	-39.241	-8191	255	
1211.951	1	1	0	0	0.095384	0.27206	0.082538	0.32685	0.28944	0.31725	0.09242	0.22813	0.2793	0.039473	0.14978	0.091703	0.042353	0.23143	0.24959	0.3025	-3.0354	-3.4458	-3.9292	-3.4146	-3.7458	-3.9521	-3.3854	-4.1542	-3.5438	-3.4229	-4.1229	-3.4521	-3.7625	-3.9	-3.2271	-4.1937	225.657	206.937	249.944	286.466	285.718	148.898	233.260	255.584	169.834	34.153	240.355	66.021	-56.062	286.707	166.679	-54.981	0.00047795	0.00061044	0.00018774	1560.5	4.7362e-06	5.5761e-06	1542.1	404.45	5.3825e-06	5.104e-06	456.79	151.19	133.18	45.018	4.3267e-06	55.293	0.00024501	0.00016505	4.6231e-05	1572.5	2.0017e-06	1.7293e-06	1559.6	409.99	2.1521e-06	1.8773e-06	446.44	153.81	134.97	45.983	1.9954e-06	56.461	43.095	40.932	31.772	-52.074	92.163	67.747	-52.177	-47.423	52.556	99.008	-48.054	-43.360	-42.713	-38.635	92.194	-38.999	-8191	255	
1212.023	1	1	0	0	0.073667	0.18127	0.1607	0.45728	0.18022	0.041949	0.37036	0.19736	0.17384	0.24109	0.23002	0.064057	0.13948	0.20718	0.20261	0.12623	-3.2417	-3.0708	-3.9167	-3.525	-3.7208	-3.9688	-3.4146	-4.1792	-3.5687	-3.3521	-4.1917	-3.4604	-3.7354	-4.0917	-3.1771	-4.0271	65.150	79.707	184.281	239.423	7.139	24.120	238.205	174.383	40.318	84.973	252.140	185.149	25.930	229.708	112.830	153.020	0.00049532	0.00055442	0.00017712	1557.3	5.8385e-06	3.1554e-06	1549.7	404.03	2.3779e-06	6.318e-06	453.07	151.31	132.31	44.998	4.6766e-06	55.457	0.00023955	0.00017257	4.7133e-05	1571.3	2.0687e-06	1.7557e-06	1560.5	409.5	2.062e-06	1.8441e-06	446.47	153.75	134.76	45.94	2.0636e-06	56.505	49.792	30.605	29.603	-52.067	103.563	79.010	-51.961	-47.334	140.159	69.724	-47.908	-43.897	-42.740	-38.604	69.774	-39.343	-8191	255	
1212.143	1	1	0	0	0.18126	0.12904	0.33413	0.15848	0.17659	0.21704	0.27952	0.27873	0.18056	0.11644	0.1036	0.34465	0.1347	0.13167	0.086119	0.28398	-3.3479	-3.1521	-4.0375	-3.4729	-3.5729	-3.9542	-3.5312	-4.0229	-3.7375	-3.1646	-4.0583	-3.55	-3.5708	-4.1646	-3.4354	-3.8563	88.086	238.317	206.706	247.556	281.220	245.143	216.916	-50.238	-31.274	248.646	138.033	253.998	114.274	20.676	281.318	253.041	0.00048637	0.00045901	0.00018071	1560.1	5.9799e-06	3.7636e-06	1545	403.21	6.3993e-06	4.6606e-06	451.08	150.79	132.27	45.099	4.8341e-06	55.364	0.00023985	0.00017422	4.6031e-05	1574.3	2.0616e-06	1.846e-06	1561.2	409.27	2.1353e-06	1.7912e-06	444.6	153.65	134.55	46.046	2.067e-06	56.518	48.652	29.160	32.877	-52.035	71.604	87.620	-52.239	-47.284	86.965	107.404	-47.649	-43.538	-42.790	-38.653	77.660	-39.175	-8191	255	
1212.239	1	1	0	0	0.13132	0.080517	0.14701	0.072559	0.33914	0.059618	0.015145	0.24062	0.060861	0.20211	0.084831	0.2061	0.42903	0.23391	0.089598	0.1556	-3.5104	-3.1375	-3.8146	-3.525	-3.4688	-4.0833	-3.6125	-3.7938	-4.0979	-3.2167	-3.8979	-3.7792	-3.5563	-4.2021	-3.3771	-3.4729	22.446	124.838	46.647	188.985	144.689	141.724	167.409	244.489	67.084	82.836	25.603	199.558	263.741	272.304	84.254	227.357	0.00045328	0.00044528	0.0001291	1554.4	6.6318e-06	4.3736e-06	1544.4	403.44	3.647e-06	4.5591e-06	450.59	152.01	132.36	44.915	5.1842e-06	55.203	0.00024065	0.00017093	4.5826e-05	1571.1	2.147e-06	1.7396e-06	1561.2	410.07	2.0597e-06	1.9154e-06	444.53	154.08	134.76	45.946	1.9484e-06	56.462	49.429	12.399	37.210	-52.066	74.141	89.824	-51.902	-47.191	71.383	92.282	-47.590	-43.311	-42.661	-38.386	80.482	-38.902	-8191	255	
1212.336	1	1	0	0	0.19836	0.25	0.18869	0.34028	0.1457	0.19222	0.28412	0.12004	0.17333	0.20944	0.28265	0.3373	0.076902	0.057884	0.075323	0.31868	-3.5438	-3.3063	-3.7896	-3.7708	-3.2792	-3.9917	-3.5375	-3.7125	-3.9625	-3.2125	-3.9792	-3.7792	-3.5083	-4.1021	-3.3312	-3.5354	119.063	162.060	248.292	-25.798	127.123	-45.541	250.354	251.309	161.029	-2.365	3.420	-45.111	248.828	92.872	271.568	-56.422	0.00040617	0.00048185	0.00013951	1558.6	5.9952e-06	5.9715e-06	1540.7	402.72	5.2289e-06	4.8276e-06	453.02	151.02	132.5	45.01	4.825e-06	55.614	0.00024455	0.00017097	4.7764e-05	1572.5	2.0796e-06	1.6952e-06	1561.2	408.6	2.1542e-06	1.9792e-06	446.37	153.68	134.88	46.024	1.9752e-06	56.609	46.662	32.230	15.488	-51.912	99.557	81.237	-51.881	-47.111	92.179	71.805	-48.183	-43.525	-42.743	-38.122	63.429	-38.870	-8191	255	
1212.432	1	1	0	0	0.18996	0.20094	0.15341	0.28328	0.027268	0.16837	0.25025	0.22603	0.076882	0.32226	0.18701	0.14252	0.14701	0.23013	0.17522	0.29284	-3.575	-3.225	-3.7167	-3.9604	-3.2021	-4.1562	-3.6292	-3.6271	-4.1292	-3.3333	-3.7583	-4.0938	-3.3187	-3.9688	-3.4417	-3.4229	16.038	186.261	278.945	-58.439	235.029	247.015	226.665	157.473	81.758	271.081	-54.257	-51.340	276.181	268.264	-36.589	270.736	0.00046051	0.00042408	0.000148	1557.6	4.4658e-06	4.936e-06	1540.2	403.85	5.3429e-06	7.4156e-06	460.88	151.44	132.48	45.126	5.2285e-06	55.452	0.00024787	0.00017656	4.762e-05	1574.2	2.0773e-06	1.7936e-06	1560	409.94	2.0781e-06	1.8325e-06	448.39	153.79	134.7	46.063	2.0504e-06	56.54	49.032	19.686	35.309	-52.023	66.762	83.660	-51.906	-47.052	95.027	104.947	-46.996	-43.388	-42.737	-38.432	66.450	-39.170	-8191	255	
1212.551	1	1	0	0	0.20079	0.15108	0.21111	0.23888	0.2781	0.16473	0.2155	0.25071	0.19302	0.10572	0.10592	0.1424	0.097103	0.31403	0.069401	0.092221	-3.7062	-3.0583	-3.6833	-4.1521	-3.2125	-3.9938	-3.8583	-3.6188	-3.9771	-3.4167	-3.6667	-4.0208	-3.4542	-4.1521	-3.7562	-3.4292	-30.320	48.178	227.192	285.939	86.894	161.343	235.469	232.438	-8.372	-50.396	46.306	196.206	260.397	275.379	91.836	198.145	0.00046642	0.00058565	0.00016423	1566	5.8772e-06	5.6088e-06	1544.5	403.34	4.7433e-06	4.8992e-06	463.26	151.01	132.1	45.098	5.1284e-06	55.63	0.00024947	0.00017711	4.9123e-05	1575	2.2328e-06	1.8449e-06	1558.3	409.46	2.1106e-06	1.9081e-06	450.27	153.83	134.81	46.086	2.0739e-06	56.597	48.459	41.943	18.279	-52.032	92.567	104.499	-51.960	-47.008	83.135	88.339	-47.603	-43.219	-42.498	-38.142	67.951	-39.019	-8191	255	
1212.622	1	1	0	0	0.18209	0.080861	0.28645	0.29334	0.18078	0.1924	0.29767	0.26018	0.38622	0.1035	0.080193	0.20586	0.039933	0.31631	0.092122	0.24921	-3.6396	-3.2167	-3.4667	-4.2896	-3.0979	-3.7479	-3.9958	-3.3729	-3.8625	-3.4354	-3.3729	-4.0979	-3.2771	-3.7333	-3.7188	-3.3083	46.072	87.549	147.303	281.522	-20.539	250.588	239.272	215.458	250.453	-12.017	198.988	230.863	-42.255	282.158	-33.059	294.308	0.00047423	0.00055287	0.00020762	1561.5	3.7982e-06	4.9601e-06	1544.7	404.91	4.4969e-06	4.665e-06	455.22	151.15	132.34	44.954	5.2705e-06	55.34	0.00024879	0.00018167	5.0553e-05	1575.1	2.0563e-06	1.8403e-06	1558.4	409.47	2.1667e-06	1.8872e-06	446.16	153.92	134.73	46.005	2.0029e-06	56.511	54.337	22.138	27.949	-51.843	94.972	73.167	-52.116	-47.030	78.519	86.253	-47.183	-43.001	-42.605	-38.177	87.478	-38.892	-8191	255	
1212.720	1	1	0	0	0.066338	0.248	0.29899	0.17906	0.1397	0.14282	0.33752	0.41021	0.18666	0.17973	0.069362	0.16511	0.055241	0.14784	0.084468	0.14085	-3.6125	-3.3729	-3.3521	-4.2125	-3.0958	-3.6437	-4.0167	-3.4271	-3.9646	-3.3458	-3.3792	-4.1083	-3.475	-3.7292	-3.975	-3.3396	-63.359	32.805	70.905	-42.444	210.557	17.431	230.499	219.955	29.735	264.263	216.824	7.065	230.440	201.361	12.684	245.426	0.00044465	0.00069875	0.00015779	1559.8	5.0817e-06	5.5701e-06	1544	402.25	5.9645e-06	4.9594e-06	452.62	150.79	132.16	45.068	4.8752e-06	55.338	0.00025068	0.00018086	4.8959e-05	1571.9	2.1602e-06	1.8813e-06	1557.5	408.68	2.0894e-06	1.8384e-06	447.56	153.61	134.78	46.067	1.9954e-06	56.469	41.015	29.703	11.795	-51.813	78.460	91.415	-51.771	-47.019	97.148	93.149	-47.656	-43.255	-42.722	-38.244	87.733	-39.038	-8191	255	
1212.839	1	1	0	0	0.12314	0.04267	0.061796	0.44478	0.058006	0.04597	0.062332	0.24308	0.072393	0.2525	0.18113	0.078745	0.15678	0.14933	0.047333	0.077894	-3.6229	-3.6146	-3.2292	-4.15	-3.4417	-3.5812	-4.1521	-3.5333	-3.8458	-3.7583	-3.1646	-4.1625	-3.3646	-3.7604	-3.9604	-3.2479	0.924	275.956	32.973	231.456	126.647	34.196	133.486	199.375	285.688	261.097	-14.794	229.172	218.043	-47.554	33.369	128.272	0.00046654	0.00055133	0.0001826	1558	5.9404e-06	5.2625e-06	1545.2	404.08	3.7861e-06	5.7511e-06	458.59	150.5	132.13	45.008	5.363e-06	55.124	0.00024988	0.00018035	5.0102e-05	1573.5	2.1385e-06	1.8533e-06	1560.8	409.23	2.1484e-06	1.9105e-06	448.09	153.79	134.75	46.014	1.9944e-06	56.409	48.044	13.466	21.077	-51.700	110.233	89.699	-51.669	-47.206	66.033	103.042	-46.532	-43.378	-42.763	-38.288	78.033	-38.760	-8191	255	
1212.935	1	1	0	0	0.28456	0.13811	0.20273	0.16927	0.028109	0.1537	0.047526	0.14648	0.092237	0.27134	0.2579	0.34567	0.16025	0.25763	0.12281	0.10521	-3.6146	-3.7	-3.1708	-4.0646	-3.4604	-3.5875	-4.1354	-3.3292	-3.7042	-3.7417	-3.2188	-4.1917	-3.4208	-3.5729	-4.0354	-3.125	289.577	-22.244	62.454	263.427	293.982	140.221	-9.599	171.169	78.648	133.111	270.035	260.011	168.286	-6.053	-23.992	168.250	0.00045461	0.00058412	0.00016539	1560.5	4.7498e-06	5.7337e-06	1544.8	402.44	6.1536e-06	5.3226e-06	454.41	151.35	132.78	45.207	5.849e-06	55.497	0.00024632	0.0001825	5.0918e-05	1574.2	2.1222e-06	1.9582e-06	1562	409.1	2.1609e-06	1.8903e-06	446.08	154.06	134.99	46.119	1.9833e-06	56.487	48.620	22.189	17.316	-51.625	95.668	75.624	-51.860	-47.224	88.405	74.505	-47.717	-43.193	-42.721	-38.109	71.168	-39.151	-8191	255	
1213.031	1	1	0	0	0.10646	0.21637	0.26088	0.22477	0.098408	0.11926	0.32831	0.19049	0.15442	0.19907	0.24582	0.34559	0.18114	0.3155	0.22964	0.33072	-3.2979	-3.8625	-3.2271	-4.1729	-3.4083	-3.2583	-4.2729	-3.3229	-3.4854	-3.8833	-3.1646	-4.0083	-3.7646	-3.4625	-3.8312	-3.2896	4.227	166.639	56.943	201.845	164.820	-56.702	265.903	236.801	67.563	70.445	192.651	255.722	280.442	222.615	51.658	268.672	0.00047265	0.00060458	0.00016028	1561.4	5.7671e-06	5.4774e-06	1544.9	402.56	4.0048e-06	5.1639e-06	454.02	151.55	131.91	45.058	6.3974e-06	55.333	0.00024843	0.00017604	5.083e-05	1574.8	2.0831e-06	1.9314e-06	1561	409.02	2.155e-06	1.8169e-06	445.65	153.93	134.66	45.961	1.9334e-06	56.437	46.537	29.384	36.333	-51.529	64.300	70.479	-51.914	-47.023	84.908	106.957	-48.144	-43.032	-42.847	-38.426	82.828	-38.809	-8191	255	
1213.152	1	1	0	0	0.10358	0.10995	0.084497	0.19578	0.12369	0.26443	0.19677	0.07881	0.23265	0.062809	0.14519	0.30618	0.40195	0.070571	0.18578	0.21655	-3.2583	-3.8208	-3.0833	-4.2562	-3.6458	-3.2146	-4.1729	-3.6292	-3.6771	-3.8771	-3.2542	-3.9604	-3.8479	-3.4104	-4.1229	-3.5625	152.868	-34.930	183.849	226.614	197.191	52.696	207.202	-29.631	64.560	268.567	171.990	230.912	211.391	145.147	168.201	189.018	0.00048664	0.00056209	0.00019057	1559.5	7.1934e-06	6.5558e-06	1550.3	403.84	3.6538e-06	5.6083e-06	454.21	150.92	132.21	44.873	5.6021e-06	55.153	0.00025116	0.000177	4.7441e-05	1571	2.0771e-06	1.9728e-06	1561.7	409.1	2.0877e-06	1.7331e-06	444.23	153.36	134.37	45.86	1.8717e-06	56.302	51.033	18.579	15.373	-51.808	64.705	77.769	-51.996	-47.187	80.150	77.090	-47.517	-43.167	-42.577	-38.102	68.825	-38.935	-8191	255	
1213.224	1	1	0	0	0.21896	0.058891	0.2858	0.12916	0.097245	0.16591	0.045955	0.10589	0.23578	0.25667	0.28708	0.098678	0.090269	0.30461	0.27854	0.073095	-3.1667	-4.0437	-3.2625	-3.9604	-3.8042	-3.1125	-4.2125	-3.6896	-3.4208	-4.1188	-3.2125	-3.9354	-4.0146	-3.3625	-3.7833	-3.6146	110.256	203.608	128.491	267.501	256.337	41.441	257.410	232.000	288.458	-21.621	173.559	256.086	-53.287	271.152	-30.036	231.142	0.00051178	0.00052376	0.00014754	1558.8	3.9078e-06	5.897e-06	1543.3	402.26	4.872e-06	4.6501e-06	451.36	151.07	132.11	45.029	6.0135e-06	55.002	0.00025212	0.00015957	4.5703e-05	1569.8	1.9874e-06	1.7542e-06	1555.3	408.03	2.2338e-06	1.7359e-06	443.18	153.48	134.26	45.94	1.8944e-06	56.286	43.001	21.935	31.758	-51.571	75.062	66.700	-51.652	-46.952	72.574	88.346	-47.571	-43.019	-42.835	-38.232	84.458	-38.963	-8191	255	
1213.320	1	1	0	0	0.33891	0.18403	0.12669	0.2388	0.20881	0.22088	0.15077	0.098799	0.092704	0.19906	0.11766	0.036464	0.12949	0.102	0.24645	0.078916	-2.9062	-4.0188	-3.1771	-3.6458	-3.9146	-3.1104	-4.1021	-3.7521	-3.3292	-4.1208	-3.3688	-3.8604	-4.0437	-3.25	-3.9917	-3.9083	192.195	207.687	96.078	283.003	171.743	251.976	235.651	227.992	31.424	-21.027	200.747	284.550	-62.656	-42.358	225.430	225.631	0.00046898	0.00057084	0.00016675	1556	4.9487e-06	5.8887e-06	1542.9	401.69	3.3157e-06	3.9021e-06	443.9	150.22	132.03	44.88	5.1978e-06	55.062	0.00025219	0.00017018	4.7702e-05	1566.9	1.9932e-06	1.7885e-06	1555.3	407.71	2.1806e-06	1.7807e-06	441.82	152.98	134.36	45.846	1.9472e-06	56.273	36.264	26.897	28.984	-51.772	89.706	92.136	-51.613	-47.108	87.605	109.103	-47.746	-43.238	-42.464	-38.131	77.843	-38.610	-8191	255	
1213.440	1	1	0	0	0.23412	0.035944	0.1201	0.17637	0.19833	0.28134	0.2145	0.18112	0.18052	0.043762	0.10778	0.24236	0.20811	0.15545	0.13484	0.18864	-2.8792	-3.8583	-3.5417	-3.8021	-3.8937	-3.0646	-3.7875	-3.85	-3.2729	-4.0458	-3.4688	-3.675	-4.1	-3.3458	-3.7646	-3.8646	109.319	211.032	244.112	155.787	58.463	-4.045	239.112	291.245	11.053	-43.495	38.021	281.090	281.547	221.014	220.525	289.258	0.0005814	0.00062169	0.00020384	1559	5.6122e-06	5.7397e-06	1538.5	402.23	4.3685e-06	5.3053e-06	455.08	150.95	132.01	44.666	5.1191e-06	55.051	0.00024106	0.00016601	4.7943e-05	1570.4	2.0337e-06	1.8622e-06	1554.8	407.57	2.1382e-06	1.8337e-06	443.14	153.41	134.19	45.734	1.9997e-06	56.223	47.030	28.492	33.611	-51.690	90.783	70.508	-52.180	-47.456	106.331	89.431	-47.936	-43.323	-42.842	-38.422	78.152	-39.106	-8191	255	
1213.535	1	1	0	0	0.071885	0.15748	0.1901	0.10685	0.0766	0.1179	0.17075	0.2606	0.10655	0.1036	0.16728	0.19091	0.063133	0.16289	0.16585	0.11894	-2.8521	-3.9313	-3.5333	-3.4167	-4.1042	-3.3167	-3.9938	-3.8958	-3.3979	-3.8354	-3.65	-3.4	-3.9854	-3.3604	-3.5708	-4.0125	239.950	17.392	243.347	-26.379	91.865	-32.110	214.805	204.233	142.897	135.982	37.583	206.887	231.622	-56.811	134.325	270.061	0.00046059	0.00054703	0.00017725	1558.4	4.836e-06	6.1491e-06	1537.3	400.59	3.4708e-06	6.1111e-06	450.11	150.39	131.95	44.65	2.2799e-06	55.019	0.00025106	0.00016856	4.8728e-05	1568.6	2.0319e-06	1.7918e-06	1555.2	407.13	2.1488e-06	1.7556e-06	444.04	153.21	134.1	45.714	2.0255e-06	56.135	46.855	25.918	34.347	-52.096	72.610	83.895	-52.005	-47.268	87.332	70.692	-47.997	-43.524	-42.825	-38.528	88.677	-39.228	-8191	255	
1213.631	1	1	0	0	0.22039	0.20808	0.29325	0.23441	0.18613	0.27554	0.43988	0.3317	0.23735	0.20309	0.18882	0.22271	0.28804	0.14183	0.2286	0.20818	-2.7167	-3.8292	-3.5792	-3.3583	-3.9167	-3.2542	-3.8812	-4.0917	-3.15	-3.8563	-3.5479	-3.4333	-4.1937	-3.6354	-3.3917	-4.2167	251.937	126.899	110.054	211.022	231.439	46.156	244.289	217.792	26.123	61.963	220.043	278.109	-56.291	192.467	-22.777	254.290	0.00047428	0.00045298	0.00020402	1552.7	5.0253e-06	7.6136e-06	1541.4	402.29	3.7164e-06	4.8414e-06	453.81	150.92	131.91	44.642	6.1324e-06	54.942	0.00025024	0.0001668	4.6682e-05	1565.8	2.0505e-06	1.8591e-06	1556.7	407.82	2.202e-06	1.7851e-06	445.43	153.12	134.34	45.704	2.06e-06	56.13	51.367	28.391	17.736	-51.938	91.786	88.633	-51.881	-47.395	69.281	75.722	-47.161	-43.459	-42.849	-38.357	81.419	-39.205	-8191	255	
1213.727	1	1	0	0	0.15228	0.16637	0.20974	0.39564	0.095122	0.0513	0.26443	0.10411	0.28014	0.21874	0.13495	0.34291	0.052445	0.047096	0.15694	0.15545	-2.925	-3.7354	-3.7375	-3.4396	-4.0292	-3.3021	-3.6229	-4.1417	-3.35	-3.8104	-3.8542	-3.2417	-4.0771	-3.5542	-3.4271	-4.1396	256.477	48.116	39.469	247.142	235.935	-8.005	291.118	-61.619	-14.333	152.169	29.886	209.987	284.322	289.896	-64.879	-54.993	0.00046615	0.00054914	0.00014508	1551.4	6.5335e-06	6.6955e-06	1541.9	402.95	5.0705e-06	5.5713e-06	455	150.65	132.57	44.815	3.5571e-06	55.099	0.00025227	0.00017137	4.6831e-05	1568.6	2.08e-06	1.8679e-06	1556	407.96	2.1502e-06	1.8412e-06	445.98	153.24	134.71	45.721	2.0518e-06	56.292	44.019	17.084	6.033	-51.877	102.346	70.126	-51.808	-47.225	89.182	105.624	-47.872	-43.496	-42.877	-38.198	65.442	-39.086	-8191	255	
1213.848	1	1	0	0	0.11736	0.29594	0.19951	0.034673	0.18965	0.061421	0.4056	0.34164	0.17662	0.33634	0.15814	0.1891	0.22315	0.26833	0.098268	0.15027	-2.9083	-3.5958	-3.775	-3.3125	-3.7375	-3.7458	-3.5021	-4.05	-3.2083	-3.6229	-4.0104	-3.1625	-4.1167	-3.6271	-3.2854	-4.0667	95.109	14.271	172.290	-12.543	-15.058	-21.661	268.376	280.087	53.368	288.916	-59.489	152.135	247.061	178.704	10.302	179.708	0.00040342	0.00058382	0.00021089	1557.4	3.6117e-06	6.9284e-06	1544.2	402.81	3.1961e-06	4.8819e-06	455.99	150.79	131.19	44.87	3.9744e-06	55.408	0.00024983	0.00017921	4.9661e-05	1572.6	1.9963e-06	1.8299e-06	1559.5	407.89	2.1825e-06	1.8218e-06	446.37	153.37	133.99	45.741	2.1531e-06	56.286	47.305	28.344	22.927	-51.812	95.061	59.212	-51.785	-47.156	101.354	84.246	-47.438	-43.032	-42.572	-38.382	74.544	-39.115	-8191	255	
1213.919	1	1	0	0	0.10306	0.10739	0.050429	0.29126	0.29411	0.090233	0.1843	0.15063	0.098159	0.083025	0.031663	0.11858	0.12782	0.16829	0.14915	0.14776	-3.0438	-3.5604	-4.1104	-3.4125	-3.9125	-3.4271	-3.6	-4.0917	-3.4292	-3.4104	-4.0583	-3.4292	-3.9875	-3.8312	-3.275	-4.0563	13.217	-32.541	243.792	244.436	206.129	241.985	257.506	-40.598	84.667	67.136	255.568	263.906	281.599	258.785	283.416	270.174	0.0004353	0.00066959	0.00015311	1557.9	7.2705e-06	6.8699e-06	1544.5	403.2	5.1425e-06	4.6727e-06	454	151.33	131.93	44.876	3.4148e-06	55.23	0.00025308	0.00018125	4.7826e-05	1571.8	2.1462e-06	1.921e-06	1560.5	408.54	2.1987e-06	1.915e-06	444.75	153.69	134.53	45.76	1.9971e-06	56.425	50.602	23.802	23.677	-51.709	76.173	85.155	-51.646	-47.047	84.473	77.764	-47.229	-43.224	-42.789	-38.305	80.353	-39.109	-8191	255	
1214.016	1	1	0	0	0.052035	0.19303	0.10626	0.046515	0.19159	0.081234	0.23566	0.1503	0.10446	0.14983	0.17557	0.14077	0.18008	0.29268	0.085584	0.17432	-3.0479	-3.3812	-4.0146	-3.5312	-3.9875	-3.8292	-3.325	-4.0646	-3.5062	-3.5021	-4.0958	-3.35	-3.7479	-4.2458	-3.4646	-4.15	-24.625	103.157	176.281	276.867	28.309	184.893	215.848	249.023	174.422	16.922	243.613	243.685	-27.937	203.094	287.177	133.455	0.00048514	0.0004413	0.00020867	1561.8	5.9904e-06	4.9893e-06	1540.8	401.66	1.613e-06	7.5013e-06	447.32	150.55	132.33	44.879	4.2796e-06	55.446	0.00025586	0.00018487	4.8261e-05	1573.1	2.1065e-06	1.8646e-06	1559.7	408.22	2.0719e-06	1.9976e-06	443.63	153.01	134.3	45.816	2.0938e-06	56.398	46.095	36.109	24.158	-52.012	83.060	91.228	-52.019	-47.120	5.199	83.210	-47.661	-43.434	-42.663	-38.503	70.631	-38.769	-8191	255	
1214.112	1	1	0	0	0.097995	0.30007	0.20156	0.25779	0.19125	0.09329	0.34019	0.092706	0.14131	0.085486	0.22636	0.19825	0.10928	0.29549	0.18262	0.14474	-3.0583	-3.3417	-4.1729	-3.5438	-3.5854	-3.8521	-3.4208	-3.9833	-3.7271	-3.2292	-4.1813	-3.3937	-3.7083	-3.9417	-3.4125	-3.9688	257.200	-48.895	101.146	273.481	-0.636	56.499	204.750	179.450	181.374	56.429	169.020	-56.260	-51.530	256.225	22.730	198.905	0.00042912	0.00051231	0.00016661	1553.1	5.3021e-06	6.9566e-06	1543.6	402.18	2.4479e-06	5.505e-06	455.69	150.51	132.14	44.782	5.3632e-06	55.299	0.0002547	0.00018507	4.658e-05	1570	2.0989e-06	1.7936e-06	1560.3	408.33	2.1369e-06	1.9776e-06	447.49	153.19	134.46	45.743	2.0926e-06	56.265	47.049	26.923	41.761	-51.899	88.094	81.423	-51.813	-47.166	74.432	75.361	-47.476	-43.564	-42.563	-38.350	71.951	-39.179	-8191	255	
1214.232	1	1	0	0	0.269	0.26017	0.089193	0.23357	0.059814	0.11601	0.40529	0.11389	0.19793	0.1592	0.22162	0.3182	0.16008	0.17946	0.23895	0.14697	-3.3146	-3.1667	-4.0062	-3.4521	-3.5229	-3.8333	-3.4708	-3.9833	-3.725	-3.0896	-3.9125	-3.6271	-3.4688	-4.1625	-3.1937	-3.6792	140.771	186.941	-34.819	220.613	-24.606	278.207	279.101	9.440	108.362	117.249	131.280	233.528	291.970	227.208	143.708	159.275	0.00043344	0.00060788	0.00015031	1553.4	6.7309e-06	6.6289e-06	1540.7	402.94	4.3692e-06	4.9314e-06	456.26	150.02	131.67	44.678	4.3267e-06	55.227	0.00025825	0.0001789	4.5513e-05	1568.8	2.0773e-06	1.7471e-06	1556.2	408.03	2.0649e-06	1.8722e-06	443.52	152.6	134.07	45.683	2.0439e-06	56.225	47.344	33.829	36.100	-51.838	72.680	70.709	-51.847	-47.065	86.618	95.303	-46.953	-43.279	-42.687	-38.311	82.313	-38.815	-8191	255	
1214.329	1	1	0	0	0.072067	0.26541	0.13555	0.30186	0.043923	0.29374	0.10602	0.19999	0.063637	0.12251	0.19736	0.11328	0.23898	0.20807	0.15919	0.12968	-3.4604	-2.9813	-3.8667	-3.6688	-3.225	-3.9146	-3.4479	-3.8708	-3.7812	-3.1604	-4.0062	-3.6646	-3.1896	-4.1521	-3.4313	-3.5438	137.807	173.228	86.680	244.503	42.303	47.843	-23.843	243.073	288.951	-42.971	198.918	235.648	215.007	169.883	43.570	294.332	0.00041671	0.00058037	0.00016426	1556.4	4.9204e-06	5.9273e-06	1545.5	403.38	1.8081e-06	6.1395e-06	452.48	150.4	132.07	45.012	6.5239e-06	55.105	0.00025097	0.0001811	4.7656e-05	1568.8	2.1274e-06	1.8336e-06	1557.5	407.98	2.0823e-06	1.8741e-06	443.27	153.09	134.28	45.772	2.0681e-06	56.211	47.506	23.639	15.340	-51.860	97.021	85.727	-52.063	-46.988	118.463	81.994	-47.129	-43.319	-42.899	-38.180	93.179	-38.912	-8191	255	
1214.425	1	1	0	0	0.20484	0.21983	0.16746	0.12242	0.20564	0.28636	0.22733	0.21111	0.16089	0.16293	0.13634	0.26412	0.51134	0.2695	0.16426	0.19742	-3.5542	-3.1917	-4.0292	-3.7104	-3.2812	-3.9208	-3.5104	-3.7479	-4.0167	-3.2146	-3.8292	-3.8187	-3.4042	-4.1687	-3.3771	-3.5187	204.502	244.596	99.041	290.923	116.522	269.037	127.931	258.968	278.025	-35.107	214.330	266.681	226.275	267.305	111.341	182.630	0.00045656	0.00056759	0.00016611	1556.9	5.8693e-06	5.437e-06	1535.5	402.43	6.5331e-06	4.3105e-06	450.89	150.42	131.67	44.644	4.0948e-06	55.09	0.00025216	0.00017947	4.6964e-05	1568	2.1402e-06	1.8017e-06	1553.3	407.99	2.1085e-06	1.8927e-06	443.96	152.86	133.86	45.726	2.0703e-06	56.232	50.499	40.149	27.220	-51.755	86.035	97.012	-51.995	-46.933	104.189	71.915	-47.939	-43.431	-42.591	-38.118	59.459	-38.963	-8191	255	
1214.521	1	1	0	0	0.084996	0.13293	0.147	0.2701	0.21584	0.15628	0.18818	0.11477	0.18446	0.21327	0.24519	0.44414	0.315	0.33165	0.14797	0.20261	-3.7208	-3.1896	-3.6708	-4.0729	-3.1958	-4.0167	-3.7271	-3.5021	-3.9562	-3.2229	-3.725	-4.0021	-3.1688	-4.1229	-3.3438	-3.4833	293.602	97.995	230.279	273.582	67.894	55.622	263.018	208.299	273.492	146.538	292.048	277.953	259.962	282.722	198.173	220.645	0.00045982	0.00050724	0.00013186	1549.6	3.3723e-06	6.5012e-06	1535	401.18	3.7492e-06	6.6322e-06	450.56	149.8	131.54	44.499	4.6846e-06	55.009	0.00025277	0.00017704	4.8092e-05	1565.6	2.102e-06	1.8608e-06	1552.7	407.69	2.1062e-06	1.8805e-06	445.2	152.78	133.88	45.609	1.98e-06	56.168	57.667	19.951	30.591	-51.845	52.634	88.268	-52.088	-46.904	116.224	88.663	-47.504	-43.605	-42.857	-38.211	63.315	-38.873	-8191	255	
1214.615	1	1	0	0	0.013366	0.17222	0.15552	0.28225	0.025707	0.2431	0.32771	0.25697	0.22334	0.24948	0.23323	0.096652	0.09457	0.2912	0.21629	0.22235	-3.4292	-3.3312	-3.5354	-4.0687	-3.0146	-4.0188	-3.95	-3.4729	-4.1542	-3.1958	-3.7042	-4.0604	-3.2812	-3.9354	-3.5125	-3.2917	205.985	279.032	105.875	279.282	-8.977	7.643	289.040	-29.920	218.088	-14.671	181.380	210.159	239.047	236.536	258.544	265.024	0.00056875	0.00052437	0.00020146	1551.6	4.1576e-06	7.3007e-06	1529.5	400.26	5.7924e-06	5.9033e-06	449.05	150.19	130.97	44.712	5.4278e-06	54.794	0.00024232	0.00018509	4.9846e-05	1563	2.0639e-06	1.8076e-06	1547.3	406.15	2.0588e-06	1.9105e-06	442.44	152.68	133.65	45.616	2.0246e-06	56.081	51.127	24.289	28.209	-51.820	118.222	92.624	-51.974	-46.923	73.342	82.117	-47.414	-43.576	-42.683	-38.232	78.251	-38.965	-8191	255	
1214.713	1	1	0	0	0.13823	0.16836	0.15675	0.39039	0.11711	0.21692	0.2961	0.18736	0.14335	0.18668	0.12487	0.091333	0.16623	0.034952	0.08815	0.058649	-3.6792	-3.3167	-3.5125	-4.3479	-3.0354	-3.8625	-4.0229	-3.4313	-3.9625	-3.5333	-3.5563	-4.2146	-3.3688	-3.9021	-3.7687	-3.1708	125.215	-12.263	33.728	242.031	212.806	-28.380	200.939	-40.471	65.731	227.069	-42.722	224.271	187.877	167.439	202.291	239.236	0.0004951	0.00039932	0.00016485	1548.7	4.8527e-06	5.0748e-06	1533.6	401.71	4.4408e-06	4.8735e-06	450.49	149.37	131.75	44.674	4.7595e-06	55.249	0.00024126	0.00018127	5.1225e-05	1563.3	2.2551e-06	1.8922e-06	1550.6	407.28	2.2456e-06	1.8913e-06	444.24	152.67	133.93	45.747	2.0746e-06	56.114	50.786	40.775	26.847	-51.684	62.652	74.348	-52.039	-47.190	86.701	74.715	-47.339	-43.546	-43.058	-38.572	95.231	-39.180	-8191	255	
1214.832	1	1	0	0	0.29913	0.11014	0.07999	0.2546	0.31022	0.1098	0.15944	0.30251	0.053841	0.024941	0.19819	0.23791	0.015429	0.2255	0.24868	0.13323	-3.5958	-3.3312	-3.3083	-4.1521	-3.225	-3.5604	-3.9771	-3.4771	-3.9167	-3.3708	-3.3604	-4.0729	-3.4062	-3.7188	-3.9	-3.3354	-56.597	81.052	123.839	249.265	239.169	276.684	268.868	269.023	286.447	-1.576	139.618	101.525	34.312	-51.132	13.902	246.711	0.00041211	0.00066595	0.0001411	1557.1	6.5351e-06	6.2769e-06	1537.3	400.44	4.848e-06	4.2791e-06	446.94	149.75	131.4	44.68	2.3164e-06	55.088	0.000251	0.00018471	5.1297e-05	1567.5	2.2175e-06	1.9127e-06	1550.2	406.56	2.1717e-06	1.8441e-06	441.99	152.82	133.82	45.777	2.0257e-06	56.106	46.229	19.910	17.222	-52.040	80.465	79.580	-52.039	-47.530	82.255	96.304	-47.978	-43.580	-43.173	-38.609	56.192	-39.249	-8191	255	
1214.928	1	1	0	0	0.47618	0.21685	0.18667	0.073334	0.065762	0.073427	0.28265	0.08016	0.12905	0.10122	0.063286	0.13587	0.13201	0.25094	0.16303	0.13244	-3.4375	-3.5563	-3.3708	-4.2812	-3.2625	-3.5208	-4.2125	-3.3812	-4.0417	-3.7188	-3.1229	-4.2729	-3.4833	-3.5458	-4.2104	-3.2729	204.604	257.357	275.856	226.053	258.030	165.847	188.551	187.433	65.208	88.093	148.191	181.266	-10.861	-64.218	-3.080	-31.462	0.000469	0.00046356	0.00019782	1552	6.3681e-06	7.3584e-06	1535	400.64	3.42e-06	4.7724e-06	451.79	150.16	130.79	44.932	4.9134e-06	55.215	0.00024688	0.0001814	5.0328e-05	1565.4	2.1367e-06	1.8961e-06	1550.4	406.72	2.1503e-06	1.8813e-06	444.58	152.64	133.49	45.752	2.0019e-06	56.22	50.069	57.745	33.350	-52.121	108.884	89.489	-52.267	-47.541	103.449	87.410	-47.729	-43.640	-43.214	-38.504	86.266	-39.426	-8191	255	
1215.024	1	1	0	0	0.19204	0.17598	0.18092	0.095076	0.10674	0.12324	0.13251	0.039911	0.12285	0.14496	0.18232	0.091544	0.24102	0.18563	0.13062	0.11501	-3.4208	-3.6896	-3.0104	-4.3	-3.4938	-3.4833	-4.1937	-3.3083	-3.85	-3.7667	-3.1604	-4.2208	-3.4521	-3.3646	-4.0083	-3.2167	118.980	17.506	117.998	264.737	-53.501	266.705	-56.243	-32.722	272.838	-27.748	48.423	175.015	265.628	240.315	179.678	-10.007	0.00048249	0.00059086	0.0001876	1551.5	4.6846e-06	7.0917e-06	1534.3	400.6	3.8369e-06	5.1566e-06	454.06	150.33	131.5	44.712	3.9345e-06	55.31	0.00025874	0.00017518	5.2687e-05	1565.9	2.1743e-06	1.9543e-06	1555	407.03	2.0811e-06	1.8086e-06	444.18	153.12	133.98	45.666	1.9112e-06	56.174	41.905	24.373	32.380	-52.265	96.610	90.476	-52.367	-47.310	90.038	74.095	-48.232	-43.368	-43.121	-38.617	76.104	-39.297	-8191	255	
1215.120	1	1	0	0	0.14534	0.16081	0.11324	0.21241	0.11502	0.25465	0.22762	0.34205	0.16363	0.15549	0.28915	0.29674	0.47121	0.11842	0.23264	0.23702	-3.2042	-3.8021	-3.1979	-4.1937	-3.4792	-3.2646	-4.1875	-3.4604	-3.5583	-3.8896	-3.2188	-4.0875	-3.7917	-3.4333	-3.9167	-3.4979	27.104	-22.073	23.098	269.572	95.830	-30.599	262.526	256.180	226.693	219.665	251.801	244.696	255.788	258.580	130.928	273.119	0.00045059	0.00069651	0.00015354	1556.6	4.7306e-06	5.389e-06	1534.8	400.05	4.9851e-06	5.8198e-06	444.79	150.53	131.19	44.724	4.1885e-06	54.902	0.00024536	0.0001636	4.882e-05	1568.2	2.0962e-06	1.8924e-06	1553.2	406.02	2.1966e-06	1.8858e-06	442.45	153.03	133.89	45.742	2.0143e-06	56.146	49.141	27.637	19.688	-52.158	95.198	98.436	-52.261	-47.443	83.018	88.648	-47.558	-43.444	-43.041	-38.402	65.168	-39.322	-8191	255	
1215.217	1	1	0	0	0.072892	0.080272	0.21779	0.34222	0.18464	0.20443	0.22098	0.18869	0.24964	0.12134	0.20038	0.30649	0.11067	0.052907	0.23202	0.15503	-3.0438	-3.9042	-3.0563	-3.9333	-3.55	-3.1708	-4.0771	-3.5521	-3.4875	-3.9146	-3.2333	-3.9708	-3.9062	-3.2896	-3.9813	-3.4729	28.897	176.661	204.402	243.747	232.461	-39.360	253.088	208.573	145.653	212.244	250.406	-49.989	170.478	246.403	212.077	184.081	0.00052873	0.0006734	0.00020648	1551.2	4.05e-06	6.5841e-06	1538.3	399.66	5.7532e-06	3.4783e-06	450.58	149.67	131.21	44.872	4.8774e-06	55.217	0.00025237	0.0001811	5.1123e-05	1565.7	2.1813e-06	2.0306e-06	1554.6	406.72	2.1877e-06	1.8919e-06	442.63	152.8	133.82	45.737	1.978e-06	56.2	49.267	27.029	21.711	-51.954	95.642	84.178	-52.051	-47.324	87.752	84.567	-47.685	-43.184	-43.100	-38.492	90.708	-39.330	-8191	255	
1215.313	1	1	0	0	0.051982	0.32386	0.19323	0.22818	0.23083	0.10547	0.25949	0.33037	0.18038	0.061167	0.071131	0.033462	0.27905	0.15194	0.18082	0.22091	-2.9479	-4.0333	-3.1417	-3.9271	-3.7896	-3.1937	-4.1625	-3.55	-3.3958	-3.9167	-3.3021	-3.8667	-3.9562	-3.3542	-4.0896	-3.5604	15.305	118.404	174.908	250.818	90.412	103.570	262.889	244.985	247.565	-40.337	33.525	68.823	-37.530	-44.198	-24.609	174.211	0.00042731	0.00056539	0.00014941	1555.1	5.761e-06	6.6288e-06	1538.1	400.98	5.7664e-06	4.8907e-06	445.86	149.28	131.48	44.749	5.0544e-06	54.98	0.00025128	0.00017174	4.7877e-05	1567.5	2.1026e-06	1.9032e-06	1553.6	406.69	2.1866e-06	1.7985e-06	442.02	152.36	133.68	45.576	2.0273e-06	56.03	57.389	12.040	42.067	-52.002	76.506	89.661	-52.141	-47.372	103.161	91.976	-48.480	-43.275	-43.041	-38.502	63.571	-39.154	-8191	255	
1215.409	1	1	0	0	0.04978	0.31588	0.13839	0.40377	0.061627	0.17239	0.25571	0.063949	0.20918	0.16018	0.2321	0.23073	0.097214	0.17877	0.13152	0.12483	-3.0021	-3.9958	-3.3563	-3.8167	-3.9146	-3.1792	-4.1521	-3.7042	-3.2875	-4.0833	-3.5312	-3.7833	-4.1	-3.1937	-3.8583	-3.7979	222.271	140.815	63.552	238.321	167.497	226.971	268.206	244.568	116.592	207.402	29.053	263.756	-51.902	184.802	240.147	192.513	0.00048103	0.00058132	0.00014309	1559.4	5.0785e-06	5.3365e-06	1538.3	399.7	3.9352e-06	5.4305e-06	453.72	150.5	131.01	44.62	3.7681e-06	54.785	0.00024985	0.0001791	4.98e-05	1566.9	2.1958e-06	1.8825e-06	1552.7	406.46	2.1906e-06	1.7744e-06	443.98	153	133.64	45.591	2.0031e-06	56.111	51.675	30.042	37.504	-51.984	96.270	75.700	-52.019	-47.617	54.038	94.632	-48.232	-43.620	-42.873	-38.522	88.094	-39.257	-8191	255	
1215.505	1	1	0	0	0.18793	0.079463	0.24014	0.32316	0.13514	0.37586	0.11204	0.26242	0.27019	0.1941	0.20643	0.21664	0.028393	0.25005	0.19154	0.18932	-2.9083	-4.0021	-3.2729	-3.7354	-4.1229	-3.3312	-3.9042	-4.0542	-3.2438	-4.1813	-3.3937	-3.7229	-4.0708	-3.4625	-3.8646	-4.0563	75.490	144.998	136.110	256.871	30.299	-61.166	217.156	259.747	164.572	128.684	189.743	-63.061	103.244	219.272	199.669	72.231	0.00047858	0.00049224	0.00019634	1553.6	3.7553e-06	6.2446e-06	1538.4	400.7	4.4045e-06	4.8529e-06	445.34	150.06	131.38	44.727	4.4944e-06	54.862	0.00025186	0.00016935	4.9784e-05	1568.3	2.0683e-06	1.8634e-06	1552.8	406.77	2.1901e-06	1.7932e-06	440.9	152.59	133.8	45.578	1.9725e-06	56.016	50.567	32.280	23.932	-51.975	97.271	88.579	-52.145	-47.296	108.499	74.771	-47.383	-43.369	-43.147	-38.417	87.134	-39.338	-8191	255	
1215.624	1	1	0	0	0.20123	0.14611	0.22171	0.23762	0.044544	0.11336	0.18039	0.21235	0.21775	0.33101	0.096957	0.29434	0.25142	0.20154	0.20019	0.067168	-2.8125	-3.9417	-3.4313	-3.6667	-4.1042	-3.3646	-3.9854	-4.1042	-3.0687	-3.9917	-3.575	-3.4667	-4.0646	-3.4688	-3.7271	-4.2104	231.508	110.240	222.807	227.419	281.436	272.685	274.731	242.554	126.848	134.678	53.520	216.491	242.172	259.247	275.498	-47.511	0.00048974	0.00043753	0.00018728	1553	6.113e-06	5.7209e-06	1540.5	401.65	3.4567e-06	6.2255e-06	451.76	149.6	131.16	44.843	5.2779e-06	54.968	0.0002519	0.00018274	4.8046e-05	1567.3	2.0957e-06	1.9184e-06	1553.6	406.84	2.2028e-06	1.8556e-06	442.08	152.58	133.66	45.64	2.1543e-06	55.973	41.269	22.148	25.253	-51.984	61.872	73.065	-51.970	-47.414	44.210	94.053	-48.303	-43.676	-42.804	-38.499	73.308	-39.591	-8191	255	
1215.720	1	1	0	0	0.12397	0.094696	0.18283	0.0036572	0.054297	0.13561	0.22472	0.1173	0.055623	0.073965	0.099863	0.098385	0.19727	0.15043	0.20197	0.2499	-2.7896	-3.8625	-3.6125	-3.3354	-3.9104	-3.2625	-3.8063	-4.1167	-3.1542	-3.9958	-3.7313	-3.3396	-4.1229	-3.4354	-3.4583	-4.0146	237.555	117.700	293.531	216.620	111.031	125.000	187.712	200.994	71.544	78.095	168.096	212.516	-57.319	281.492	65.359	163.903	0.00044616	0.00051016	0.00013993	1551	2.9169e-06	5.1923e-06	1529.6	400.45	4.8519e-06	5.32e-06	451.12	149.17	131.89	44.79	4.4443e-06	54.94	0.00024957	0.00017639	4.8954e-05	1565.8	2.085e-06	1.8764e-06	1550.9	406.48	2.1837e-06	1.8163e-06	442.63	152.4	133.76	45.635	2.092e-06	56.053	46.319	12.543	18.937	-51.980	101.626	74.463	-52.263	-47.524	29.981	103.337	-47.964	-43.260	-42.782	-38.307	71.343	-39.425	-8191	255	
1215.793	1	1	0	0	0.071677	0.19149	0.10916	0.28218	0.10488	0.084969	0.25833	0.22488	0.36689	0.12051	0.12213	0.107	0.265	0.1558	0.12161	0.16733	-2.6854	-3.8604	-3.8688	-3.2792	-4.0312	-3.6333	-3.6312	-4.275	-3.3104	-3.9479	-3.9521	-3.5521	-4.0854	-3.5708	-3.3563	-4.075	214.822	134.573	-51.394	217.701	-54.723	31.418	182.887	265.976	74.008	-9.365	227.736	133.915	-36.905	161.069	-27.902	257.460	0.00043885	0.00053962	0.00017688	1548.4	6.6495e-06	5.2825e-06	1535.5	401.03	3.3761e-06	5.9392e-06	443.98	150.23	131.29	44.413	4.5726e-06	54.917	0.00025648	0.00017752	4.7415e-05	1562.9	2.1234e-06	1.8336e-06	1550.1	406.75	2.1604e-06	1.8702e-06	440.43	152.55	133.47	45.495	2.0547e-06	55.999	41.055	19.572	11.134	-51.879	74.424	75.541	-52.006	-47.258	54.658	92.484	-47.599	-43.436	-42.740	-38.315	100.202	-39.158	-8191	255	
1215.912	1	1	0	0	0.22298	0.19478	0.16021	0.276	0.054132	0.14549	0.14343	0.18655	0.013263	0.16083	0.19226	0.1388	0.12188	0.14054	0.078088	0.054564	-3.0021	-3.6417	-3.9208	-3.3625	-3.8729	-3.4688	-3.4771	-4.1896	-3.275	-3.5792	-4.0188	-3.2229	-3.8771	-3.775	-3.2438	-4.1229	86.755	230.108	241.925	263.540	-60.938	4.954	272.961	207.957	38.164	126.292	183.885	262.091	216.851	243.545	120.522	238.125	0.00047737	0.00063033	0.00019158	1549.6	4.1846e-06	6.9538e-06	1539.1	398.8	2.8365e-06	6.2943e-06	450.25	149.73	131.13	44.506	5.5257e-06	55	0.00024932	0.00017836	4.8477e-05	1562.8	2.0226e-06	1.8405e-06	1549.7	405.52	2.1646e-06	1.9036e-06	443.66	152.37	133.24	45.575	2.0336e-06	56.035	42.397	31.925	42.073	-51.909	78.981	76.792	-52.072	-47.285	75.881	95.834	-48.434	-43.456	-42.793	-38.431	87.104	-39.198	-8191	255	
1216.009	1	1	0	0	0.012766	0.094506	0.012134	0.21936	0.12237	0.062877	0.4549	0.059017	0.23636	0.10015	0.22689	0.19715	0.31295	0.057675	0.22774	0.20672	-3.0917	-3.5312	-3.9313	-3.3896	-4.0125	-3.7271	-3.4688	-4.2292	-3.4125	-3.4229	-4.0188	-3.2792	-3.9167	-3.75	-3.1437	-4.0292	226.067	-53.210	-53.196	275.734	236.397	198.259	249.332	277.253	-25.635	165.030	235.524	175.172	267.864	107.527	195.201	248.591	0.00038369	0.00069425	0.0001763	1552.6	6.157e-06	5.2896e-06	1530.5	399.68	5.0666e-06	5.8301e-06	452.34	149.66	131.43	44.464	4.9384e-06	55.185	0.00025089	0.00017741	4.6754e-05	1564.1	2.0933e-06	1.8042e-06	1548.9	406.09	2.17e-06	1.9504e-06	443.12	152.43	133.58	45.456	2.0877e-06	56.061	45.296	13.805	37.425	-51.908	91.835	63.711	-51.797	-47.279	73.944	73.764	-47.154	-43.438	-42.709	-38.365	74.242	-39.306	-8191	255	
1216.105	1	1	0	0	0.29054	0.13171	0.069575	0.23888	0.1793	0.28974	0.12563	0.12114	0.15316	0.030726	0.27123	0.097328	0.26629	0.18538	0.15009	0.14812	-3.0917	-3.3	-3.9583	-3.55	-3.6958	-3.8333	-3.3896	-4.0833	-3.6	-3.5208	-4.0167	-3.4	-3.8375	-3.8625	-3.2104	-4.0271	-35.059	121.490	14.534	280.464	45.654	223.725	-38.770	224.247	260.622	186.760	166.068	251.993	230.524	199.440	127.017	156.831	0.00045127	0.00070281	0.00018774	1547.4	3.5439e-06	5.2046e-06	1532.1	401.42	7.0146e-06	5.9887e-06	448.39	150.38	131.05	44.566	4.4791e-06	54.747	0.00024761	0.00017424	4.7303e-05	1561.6	2.1218e-06	1.8719e-06	1549.5	405.79	2.0966e-06	1.9336e-06	442.69	152.57	133.55	45.518	2.0823e-06	55.925	45.185	27.142	40.744	-51.915	99.665	77.492	-51.720	-47.080	101.579	97.297	-47.296	-43.404	-42.668	-38.210	53.650	-38.853	-8191	255	
1216.201	1	1	0	0	0.11157	0.082261	0.086378	0.040625	0.094604	0.14033	0.22918	0.10647	0.092262	0.20297	0.18609	0.1394	0.12115	0.13549	0.14372	0.16672	-3.2729	-3.3208	-4.0208	-3.5521	-3.6333	-3.9083	-3.4042	-4.2312	-3.6146	-3.3063	-4.1875	-3.4417	-3.7188	-4.05	-3.3125	-3.9437	196.659	257.738	223.887	290.892	294.771	71.376	207.551	271.745	88.567	228.217	25.373	231.537	148.292	55.009	-29.681	222.283	0.00050781	0.00049804	0.00016626	1551.3	4.5863e-06	7.469e-06	1530.7	400.19	4.8592e-06	4.9193e-06	451.5	149.57	131.51	44.601	5.5764e-06	54.877	0.00024687	0.00017763	4.8477e-05	1564	2.0257e-06	1.8336e-06	1547	405.66	2.1478e-06	1.8666e-06	442.87	152.26	133.72	45.536	2.0084e-06	55.936	44.249	19.492	25.208	-51.817	68.709	78.628	-51.746	-46.995	73.707	88.783	-47.635	-43.064	-42.466	-38.288	82.294	-38.839	-8191	255	
1216.321	1	1	0	0	0.16485	0.17761	0.090355	0.44143	0.055957	0.12869	0.2692	0.347	0.04952	0.26947	0.19399	0.11248	0.27166	0.23024	0.15531	0.35766	-3.4958	-3.2354	-3.9896	-3.5771	-3.3292	-3.7458	-3.3	-3.9042	-3.6917	-3.1958	-4.1042	-3.6125	-3.3792	-4.1396	-3.2042	-3.9292	275.782	212.730	227.761	273.556	116.445	214.581	280.031	269.836	78.756	50.942	178.993	-54.203	-60.852	-62.082	257.453	250.566	0.00052344	0.00056593	0.00016516	1545.9	4.3641e-06	4.7826e-06	1530.6	399.54	4.3911e-06	4.9181e-06	450.27	149.91	130.73	44.62	4.9582e-06	54.575	0.00024434	0.00017586	4.6759e-05	1559.8	2.0714e-06	1.8275e-06	1547.4	405.62	2.0607e-06	1.8469e-06	442.14	152.25	133.17	45.508	1.9875e-06	55.921	47.121	17.202	18.496	-51.625	96.101	94.624	-51.893	-46.842	90.293	87.249	-46.969	-43.345	-42.551	-38.029	85.327	-38.920	-8191	255	
1216.393	1	1	0	0	0.13512	0.23809	0.14535	0.13238	0.18529	0.04908	0.36787	0.045255	0.31095	0.41527	0.3823	0.15587	0.24694	0.028774	0.2207	0.19586	-3.4833	-3.2313	-4.0125	-3.6937	-3.1458	-4.0104	-3.4313	-3.8583	-3.9917	-3.2729	-3.9458	-3.5792	-3.3729	-4.2792	-3.3396	-3.8083	218.612	-9.582	272.286	-63.821	196.141	217.022	294.265	-62.493	132.614	171.253	270.530	149.622	267.030	220.747	278.557	214.505	0.0004559	0.00055126	0.00016996	1543.9	3.3988e-06	5.6363e-06	1533.7	398.67	3.7638e-06	5.2237e-06	450.15	149.1	131.24	44.599	4.3463e-06	54.593	0.00024726	0.0001761	4.819e-05	1557	2.0815e-06	1.7189e-06	1546.9	404.78	2.0806e-06	1.9231e-06	442.63	152.04	133.26	45.432	2.0058e-06	55.897	45.581	40.388	23.057	-51.839	86.229	83.552	-51.799	-46.874	99.829	84.595	-47.504	-43.442	-42.555	-38.015	81.502	-38.683	-8191	255	
1216.514	1	1	0	0	0.011122	0.034939	0.090387	0.54005	0.12549	0.12492	0.25925	0.19053	0.12806	0.25071	0.11423	0.14676	0.44755	0.15056	0.19631	0.052627	-3.55	-3.1813	-4.1125	-3.8	-3.1208	-4.0271	-3.7938	-3.6167	-4.0062	-3.3042	-3.95	-3.9417	-3.3042	-4.2625	-3.4313	-3.6542	95.733	11.653	-21.379	-56.370	61.387	154.325	233.033	283.484	263.536	284.470	104.514	-45.060	239.251	249.959	278.963	263.234	0.00046382	0.00056795	0.00018226	1544.6	5.5028e-06	3.9138e-06	1534.5	400.3	2.8032e-06	5.3871e-06	449.29	149.56	131.24	44.503	4.5961e-06	54.676	0.00024335	0.00018261	4.6026e-05	1559.2	2.1108e-06	1.7573e-06	1546.2	405.48	2.0191e-06	1.8378e-06	441.16	152.07	133.28	45.452	1.91e-06	55.869	49.864	23.708	17.642	-51.844	59.511	82.974	-51.825	-46.923	68.355	87.168	-47.495	-43.126	-42.536	-38.093	87.585	-38.610	-8191	255	
1216.610	1	1	0	0	0.11682	0.1008	0.18666	0.20159	0.06265	0.036572	0.37614	0.19694	0.17993	0.16561	0.09132	0.3583	0.11708	0.14543	0.12876	0.096448	-3.5271	-3.2708	-3.7979	-3.8104	-3.3833	-4.0813	-3.5521	-3.625	-4.1	-3.2062	-3.7542	-3.9104	-3.2958	-4.0896	-3.6708	-3.3979	86.450	157.669	113.597	253.497	50.201	-60.768	246.029	248.309	-7.973	1.379	25.455	281.825	96.521	108.675	63.978	227.934	0.00053455	0.00058112	0.00012082	1549	5.3916e-06	4.6067e-06	1529.1	398.92	7.2553e-06	5.6126e-06	449.76	148.28	131.05	44.514	4.929e-06	54.792	0.00023991	0.00017533	4.6918e-05	1558.9	2.0995e-06	1.8216e-06	1543.4	405.25	2.1353e-06	1.8489e-06	441.5	151.75	133.19	45.474	2.0153e-06	55.945	47.871	35.771	30.724	-51.945	88.064	85.791	-52.027	-46.850	94.232	83.445	-47.828	-43.249	-42.620	-38.260	92.022	-39.199	-8191	255	
1216.704	1	1	0	0	0.052769	0.12625	0.059371	0.31524	0.1004	0.13043	0.10936	0.33251	0.14626	0.14823	0.25501	0.21134	0.14803	0.3404	0.20671	0.10254	-3.7292	-3.35	-3.6	-4.1146	-3.0896	-4.0833	-3.7833	-3.4688	-4.075	-3.3875	-3.6604	-4.1125	-3.2625	-4.0604	-3.75	-3.5187	251.123	202.944	248.304	-50.846	201.326	169.087	235.596	261.249	139.997	192.016	56.783	266.953	138.919	244.321	246.934	262.858	0.00050044	0.00070275	0.00012849	1548.9	4.842e-06	6.5503e-06	1526.3	400.04	5.2208e-06	4.7773e-06	444.41	149.38	130.16	44.663	4.3014e-06	54.878	0.00024038	0.00017399	4.5933e-05	1560.3	2.0284e-06	1.7587e-06	1542.9	405.16	2.1241e-06	1.9441e-06	438.43	151.98	132.87	45.531	1.9713e-06	55.932	54.625	3.559	17.296	-51.918	92.418	69.326	-52.123	-46.977	83.529	96.090	-48.091	-43.352	-42.509	-38.281	79.312	-39.050	-8191	255	
1216.800	1	1	0	0	0.02443	0.25171	0.10063	0.28831	0.14321	0.16818	0.27112	0.45963	0.14154	0.11597	0.046729	0.13909	0.3889	0.12343	0.33213	0.073788	-3.7146	-3.4583	-3.5146	-4.2021	-3.1562	-3.9479	-4.0021	-3.4917	-4.0708	-3.3792	-3.4167	-4.1458	-3.2271	-3.9667	-3.8479	-3.2542	227.163	135.728	253.139	260.311	237.623	211.130	-64.063	251.471	53.861	186.403	184.466	261.042	209.160	162.307	209.962	155.653	0.00041001	0.00049367	0.00015994	1546.2	3.8104e-06	5.18e-06	1526.6	398.46	4.2191e-06	3.744e-06	440.14	148.82	130.63	44.532	4.0888e-06	54.662	0.00024077	0.00016944	4.5559e-05	1557.2	2.0501e-06	1.6786e-06	1542.2	405.34	2.1189e-06	1.8086e-06	438.97	152	132.96	45.495	1.9683e-06	55.803	45.245	26.923	36.766	-51.820	65.475	76.779	-52.035	-47.061	55.430	81.772	-46.970	-43.212	-42.636	-38.208	87.719	-39.077	-8191	255	
1216.921	1	1	0	0	0.064162	0.075605	0.22015	0.32789	0.1018	0.077328	0.13592	0.15728	0.22997	0.22276	0.049577	0.30896	0.091886	0.1875	0.24143	0.073474	-3.7375	-3.6229	-3.4167	-4.3	-3.2771	-3.7396	-4.1479	-3.2146	-3.975	-3.6104	-3.3458	-4.2271	-3.4813	-3.8417	-3.8896	-3.35	186.521	28.191	108.140	287.755	106.065	263.101	202.633	203.396	263.723	62.646	174.308	211.601	-36.523	-56.111	29.435	171.079	0.00049739	0.00053746	0.00014776	1542.8	3.9546e-06	6.7694e-06	1525.3	398.73	5.1143e-06	4.0693e-06	445.34	149.57	130.59	44.475	4.1643e-06	54.905	0.00024858	0.00017542	4.742e-05	1557.9	2.1003e-06	1.7786e-06	1544.3	404.44	2.1081e-06	1.7641e-06	440.33	152.01	132.76	45.453	1.8727e-06	55.866	46.924	5.377	22.849	-51.801	69.058	89.347	-51.992	-47.025	74.787	88.938	-47.852	-43.203	-42.930	-38.022	69.013	-39.364	-8191	255	
1217.017	1	1	0	0	0.27671	0.13144	0.034408	0.44545	0.0073493	0.093821	0.21071	0.2655	0.14522	0.15987	0.20452	0.17075	0.13228	0.098453	0.059641	0.18857	-3.5625	-3.6354	-3.2562	-4.2604	-3.4792	-3.6708	-4.2208	-3.3479	-3.825	-3.8104	-3.4021	-4.0896	-3.3854	-3.5854	-4.0417	-3.2604	213.482	38.203	269.736	275.001	87.150	1.597	205.952	221.636	55.941	174.827	239.845	226.066	-60.927	215.194	85.333	272.908	0.00047539	0.00055962	0.00016905	1546.8	5.6833e-06	7.6391e-06	1525.5	398.98	4.478e-06	4.7294e-06	447.79	149.42	130.27	44.41	5.1744e-06	54.831	0.00025459	0.00016613	4.6533e-05	1558.1	2.0195e-06	1.8131e-06	1539.7	404.66	2.0495e-06	1.7452e-06	439.5	151.73	132.95	45.403	1.9423e-06	55.852	44.344	16.316	29.314	-51.995	87.216	84.938	-51.930	-47.219	65.878	75.271	-47.766	-43.282	-42.712	-38.110	77.622	-39.033	-8191	255	
1217.089	1	1	0	0	0.26411	0.33145	0.10975	0.19109	0.20505	0.17219	0.29175	0.30363	0.11625	0.029716	0.2823	0.21992	0.32254	0.21769	0.13875	0.21492	-3.4625	-3.8063	-3.1917	-4.1417	-3.4583	-3.5125	-4.3688	-3.3563	-3.9417	-3.8875	-3.1937	-4.0417	-3.6417	-3.4854	-3.9729	-3.4479	289.119	223.252	-15.107	262.229	119.327	6.969	253.496	235.373	27.728	14.982	274.069	175.511	-50.014	217.763	192.605	184.893	0.00050661	0.00062718	0.00017737	1539.6	5.1717e-06	5.576e-06	1526	397.87	1.5403e-06	6.2182e-06	448.58	148.95	130.72	44.407	6.2399e-06	54.735	0.00024725	0.00016832	4.7636e-05	1553.3	2.0261e-06	1.7889e-06	1539.8	404.24	2.0657e-06	1.7112e-06	439.36	151.7	132.79	45.404	1.9609e-06	55.802	44.955	36.263	27.046	-51.914	84.346	74.807	-52.025	-47.339	86.547	79.281	-47.529	-43.345	-42.800	-38.524	76.975	-39.237	-8191	255	
1217.185	1	1	0	0	0.23838	0.054784	0.15711	0.25047	0.15104	0.048903	0.17139	0.11425	0.11914	0.19373	0.025632	0.26068	0.14231	0.12644	0.03422	0.3016	-3.5062	-3.6708	-3.2438	-4.0521	-3.5542	-3.3229	-4.4083	-3.5458	-3.7375	-4	-3.3125	-4.0813	-3.6375	-3.4771	-4.0833	-3.375	172.831	141.079	76.767	177.342	278.309	-47.978	266.765	174.051	264.135	44.475	248.695	-41.677	232.074	239.899	39.632	239.554	0.00048723	0.00066496	0.00017448	1535.1	4.4501e-06	4.9249e-06	1524.9	398.79	4.6448e-06	5.6698e-06	444.74	149.26	130.04	44.477	4.9461e-06	54.691	0.00024974	0.00016729	4.8031e-05	1553.3	1.9593e-06	1.6956e-06	1538.7	403.68	2.0466e-06	1.6928e-06	438.54	151.75	132.55	45.411	1.8944e-06	55.816	40.328	30.026	11.067	-51.827	102.003	102.632	-52.129	-47.104	95.738	73.625	-47.639	-43.177	-42.855	-38.168	84.868	-38.998	-8191	255	
1217.306	1	1	0	0	0.32339	0.026674	0.20298	0.10877	0.17352	0.15834	0.38632	0.27949	0.081292	0.078859	0.11361	0.34364	0.044579	0.16882	0.1274	0.23621	-3.1	-3.9542	-3.2021	-4.0021	-3.6937	-3.1917	-4.1875	-3.6688	-3.4208	-4.025	-3.2146	-3.9021	-3.9292	-3.2667	-4.0021	-3.4333	169.074	182.472	-25.516	284.003	84.971	-35.565	256.681	252.550	293.584	244.235	-41.012	261.056	9.041	285.081	105.924	-14.372	0.00047369	0.00048802	0.00019176	1540.8	3.5855e-06	5.2729e-06	1529.2	398.02	4.2385e-06	5.4217e-06	447.91	149.14	130.57	44.462	3.739e-06	54.666	0.00025192	0.00016165	4.7861e-05	1552.2	1.9556e-06	1.8539e-06	1539.5	403.92	2.0935e-06	1.7533e-06	442.29	151.75	132.61	45.402	1.9492e-06	55.85	42.672	24.812	18.346	-51.689	86.398	83.769	-51.690	-47.001	105.528	93.077	-47.583	-42.979	-42.832	-38.348	71.771	-38.805	-8191	255	
1217.402	1	1	0	0	0.13768	0.15077	0.24917	0.26721	0.13102	0.36199	0.13503	0.10755	0.13552	0.18187	0.14968	0.22506	0.13166	0.24781	0.1863	0.19055	-3.0438	-4.0479	-3.1542	-3.9417	-3.7354	-3.3917	-4.2312	-3.7	-3.3396	-4.0021	-3.3125	-3.8958	-3.85	-3.3854	-4.0583	-3.7979	23.599	42.650	44.213	270.355	150.030	33.933	234.570	289.076	17.355	71.761	161.113	277.137	27.831	-23.676	82.782	152.382	0.00051916	0.00040182	0.00016454	1542.8	5.7725e-06	6.3296e-06	1526.7	398.95	3.1653e-06	6.169e-06	454.4	149.04	130.91	44.366	4.6248e-06	54.398	0.00025187	0.00016139	4.6749e-05	1552.4	1.9833e-06	1.8715e-06	1539.7	403.69	2.213e-06	1.7859e-06	441.15	151.57	132.87	45.296	1.868e-06	55.691	48.350	19.661	12.363	-51.764	91.607	79.488	-51.793	-47.167	110.946	93.806	-47.283	-43.292	-42.936	-38.310	93.599	-39.048	-8191	255	
1217.498	1	1	0	0	0.16072	0.29227	0.17157	0.23785	0.10862	0.16345	0.2601	0.27443	0.10303	0.18114	0.027133	0.17447	0.058053	0.11107	0.14885	0.16718	-2.8958	-3.9896	-3.225	-3.7458	-3.9083	-3.1521	-4.1271	-3.8458	-3.4833	-4.0979	-3.2604	-3.7479	-3.9313	-3.325	-3.6917	-3.8812	124.087	21.124	126.772	216.952	45.319	19.115	-44.341	227.712	48.997	237.206	10.475	268.464	99.127	19.131	7.001	132.514	0.00047991	0.00059602	0.00014277	1541.1	2.8354e-06	8.7341e-06	1519.3	398.64	3.7632e-06	5.2779e-06	446.63	149.16	130.68	44.295	4.2359e-06	54.594	0.0002427	0.00016871	4.7374e-05	1552.1	1.9936e-06	1.8774e-06	1538	403.71	2.1124e-06	1.7347e-06	440.89	151.63	132.72	45.331	1.9804e-06	55.783	44.934	21.924	18.732	-51.475	54.397	82.178	-51.642	-46.994	66.888	87.459	-47.454	-43.209	-42.594	-37.997	62.441	-38.861	-8191	255	
1217.594	1	1	0	0	0.13388	0.22112	0.10566	0.32003	0.024434	0.20105	0.11974	0.15586	0.11917	0.21844	0.29334	0.2601	0.017954	0.084394	0.24726	0.28094	-2.8458	-3.8937	-3.3312	-3.6104	-3.8792	-3.0687	-4.0125	-4.1729	-3.1104	-3.9104	-3.4229	-3.6833	-4.2063	-3.3167	-3.85	-4.0229	-29.694	241.761	243.531	-61.183	211.633	118.693	201.261	288.629	180.951	158.574	188.085	274.246	157.283	290.888	118.998	170.069	0.00052849	0.00050039	0.00014379	1539.4	5.8802e-06	6.1704e-06	1519.9	398.36	2.9855e-06	4.5519e-06	444.82	148.88	131.09	44.403	5.1309e-06	54.621	0.00024932	0.00016819	4.6539e-05	1551.2	1.9113e-06	1.7861e-06	1537.7	403.52	2.1145e-06	1.6877e-06	438.56	151.6	132.94	45.334	1.9127e-06	55.799	44.433	11.731	7.563	-51.647	96.643	76.224	-51.657	-47.185	129.268	72.136	-47.478	-43.035	-42.813	-38.264	81.862	-38.908	-8191	255	
1217.689	1	1	0	0	0.24629	0.091646	0.062155	0.18786	0.15421	0.094787	0.28031	0.13795	0.2351	0.21598	0.13436	0.29057	0.25682	0.22444	0.055368	0.22373	-2.8542	-3.9396	-3.5854	-3.6021	-4.0146	-3.1771	-3.8917	-4.0396	-3.2104	-3.9417	-3.5854	-3.4521	-4.0938	-3.6	-3.6146	-4.0083	35.390	269.943	249.991	-57.845	-12.455	273.520	250.252	226.151	14.141	274.673	223.013	215.290	294.399	269.730	102.720	237.925	0.000442	0.00042065	0.0001664	1541.3	5.3676e-06	5.2213e-06	1523.9	397.68	4.0684e-06	5.2083e-06	449.25	149.37	130.06	44.209	3.9336e-06	54.666	0.00023693	0.00016589	4.7379e-05	1553.7	1.9707e-06	1.8305e-06	1539.8	403.27	2.0613e-06	1.7122e-06	438.69	151.55	132.6	45.316	1.9366e-06	55.755	46.373	35.939	14.843	-51.324	78.082	85.145	-51.563	-46.835	103.927	90.487	-47.147	-43.299	-42.695	-38.135	73.108	-39.126	-8191	255	
1217.785	1	1	0	0	0.098245	0.28822	0.15121	0.1591	0.12837	0.20632	0.29541	0.21105	0.15028	0.17206	0.35473	0.17572	0.30656	0.080383	0.090952	0.16379	-2.7125	-3.8021	-3.6833	-3.4562	-3.9167	-3.35	-3.8708	-3.975	-3.1312	-3.8521	-3.6958	-3.1854	-4.0667	-3.4313	-3.4958	-4.0771	187.554	154.257	289.426	275.037	221.871	-1.828	286.058	248.451	280.185	33.117	216.882	247.437	235.713	259.982	112.030	278.294	0.00047171	0.00042141	0.00018035	1537.9	4.876e-06	5.6674e-06	1520	397.08	5.9741e-06	6.0473e-06	451.3	149.04	130.74	44.369	4.5912e-06	54.667	0.00024871	0.00016667	4.8338e-05	1552.8	1.9363e-06	1.7577e-06	1537.5	403.65	2.1573e-06	1.7098e-06	438.83	151.74	132.71	45.345	1.9812e-06	55.774	45.649	29.871	21.312	-51.677	90.004	81.445	-51.763	-47.276	80.804	91.666	-47.668	-43.212	-42.828	-38.237	90.411	-39.068	-8191	255	
1217.881	1	1	0	0	0.19524	0.26048	0.27976	0.32156	0.21768	0.12618	0.18808	0.25599	0.046531	0.21339	0.046859	0.28335	0.1011	0.1433	0.12019	0.15948	-2.875	-3.6958	-3.6	-3.4	-4.1458	-3.5312	-3.7708	-4.1667	-3.1562	-3.9104	-3.8229	-3.4729	-4.1146	-3.5396	-3.3604	-4.1167	232.434	-2.912	38.473	271.758	187.624	161.068	266.142	278.763	76.915	50.791	196.819	273.760	265.610	-44.444	-16.119	-61.624	0.00048632	0.00043253	0.00016481	1539.8	6.361e-06	8.0709e-06	1525.2	397.83	4.4406e-06	5.9126e-06	446.59	148.9	130.67	44.48	3.0096e-06	54.585	0.00024286	0.00017071	4.5708e-05	1553	1.9306e-06	1.7615e-06	1540.6	403.63	2.1602e-06	1.8186e-06	438.53	151.19	132.83	45.344	1.9027e-06	55.654	51.515	23.253	27.084	-51.851	84.292	83.067	-51.913	-47.236	98.902	97.130	-47.093	-43.362	-42.843	-38.201	64.758	-38.715	-8191	255	
1218.001	1	1	0	0	0.11537	0.11064	0.16321	0.31502	0.045244	0.084139	0.25256	0.019074	0.10294	0.25613	0.044038	0.28676	0.086264	0.15925	0.2951	0.21546	-2.9417	-3.6208	-3.9042	-3.4708	-3.8896	-3.5438	-3.5833	-4.2292	-3.3167	-3.6917	-4.075	-3.2812	-3.8875	-3.7375	-3.1854	-4.0958	263.895	-64.091	262.769	252.776	-43.677	109.482	288.272	-42.394	88.697	275.953	190.406	270.082	-39.022	-11.348	222.028	272.317	0.00046984	0.00046945	0.00017512	1542.7	6.7385e-06	5.3518e-06	1522.6	397.79	3.4921e-06	5.3267e-06	446.71	149.23	131.13	44.205	4.388e-06	54.711	0.00024442	0.00016606	4.5631e-05	1553.4	2.0405e-06	1.8559e-06	1537.1	403.61	2.0628e-06	1.7699e-06	438.99	151.6	132.8	45.246	1.9551e-06	55.832	40.683	35.869	24.990	-51.633	85.287	77.520	-51.635	-46.887	84.978	99.938	-48.087	-43.058	-42.574	-38.251	73.196	-38.936	-8191	255	
1218.098	1	1	0	0	0.13136	0.066248	0.30288	0.44035	0.08032	0.32656	0.39553	0.18481	0.17831	0.077332	0.12279	0.26396	0.1352	0.22769	0.18534	0.17399	-2.9125	-3.4583	-3.9062	-3.3271	-3.7771	-3.65	-3.3521	-4.1521	-3.325	-3.3729	-3.9896	-3.3333	-3.8042	-4.0417	-3.1417	-4.3021	141.180	191.085	293.936	228.279	-14.144	70.915	224.270	150.365	14.991	267.888	281.793	271.215	147.862	43.136	168.719	228.407	0.00045313	0.00041365	0.0001356	1541.2	4.2028e-06	5.9578e-06	1527.4	398.03	5.5008e-06	3.491e-06	450.03	148.82	129.76	44.308	3.7528e-06	54.455	0.00024985	0.00016829	4.3698e-05	1551.9	2.0186e-06	1.7997e-06	1537.8	403.28	2.0358e-06	1.7335e-06	438.74	151.38	132.27	45.275	1.9938e-06	55.656	43.807	36.167	13.355	-51.798	71.155	99.251	-51.563	-46.815	102.214	123.045	-47.449	-43.382	-42.613	-38.102	104.455	-38.767	-8191	255	
1218.194	1	1	0	0	0.21391	0.080332	0.10935	0.29391	0.16063	0.082282	0.25741	0.41661	0.14966	0.19904	0.065217	0.25196	0.2491	0.23974	0.11551	0.29046	-3.0854	-3.3896	-4.1042	-3.4375	-3.6417	-3.7667	-3.2958	-4.1771	-3.525	-3.3625	-4.0146	-3.2354	-3.8417	-3.9021	-3.3896	-4.1167	195.219	69.349	243.563	-61.341	239.606	201.401	251.595	238.640	21.786	-14.852	49.825	293.264	258.872	213.023	61.072	196.446	0.00043789	0.00042263	0.00011611	1536.6	3.3497e-06	6.608e-06	1517.2	396.96	4.451e-06	4.7422e-06	449.51	148.85	130.76	44.29	4.2537e-06	54.703	0.00024416	0.00016588	4.4052e-05	1549.6	1.9516e-06	1.7269e-06	1536.9	403.07	1.9894e-06	1.7722e-06	439.46	151.43	132.81	45.288	1.9977e-06	55.729	43.871	32.600	17.947	-51.575	89.273	70.098	-51.604	-46.974	105.599	81.092	-47.855	-43.211	-42.419	-38.069	91.979	-38.516	-8191	255	
1218.314	1	1	0	0	0.11616	0.40769	0.15435	0.16943	0.22447	0.30445	0.36509	0.40648	0.23279	0.21956	0.07147	0.18307	0.22857	0.070232	0.033918	0.25839	-3.1688	-3.25	-4.0062	-3.5146	-3.4854	-3.8979	-3.6208	-4.2354	-3.7375	-3.3042	-4.3396	-3.5583	-3.4958	-3.9896	-3.2792	-3.8854	193.930	5.349	132.660	-63.996	97.559	-50.128	221.187	268.883	158.715	-26.380	41.604	282.019	274.456	-54.455	150.655	191.250	0.00046698	0.00042493	0.00015301	1540	5.1011e-06	4.8088e-06	1522.3	398.05	3.0446e-06	4.6709e-06	448.18	148.19	129.97	44.459	4.9959e-06	54.796	0.00024685	0.00016854	4.3057e-05	1550.2	2.0224e-06	1.8121e-06	1537.8	403.75	2.0283e-06	1.8038e-06	438.78	151.22	132.42	45.273	1.9388e-06	55.723	45.500	10.463	20.766	-51.638	85.508	84.854	-51.570	-46.788	65.646	92.730	-47.226	-43.010	-42.660	-38.149	76.429	-38.705	-8191	255	
#DATA ENDS
