BOXY.EXE: ISS Imagent and Oximeter Data Acquisition Program Version 0.80
Ascii Record File

#ACQ INFORMATION
2  Detector Channels 
16  External MUX Channels 
1  Auxiliary Channels 
5000  Waveform (CCF) Frequency (Hz)
1  Waveforms Skipped 
30  Waveforms Averaged 
1  Cycles Averaged 
16  Acquisitions per Waveform 
10.0806  Updata Rate (Hz) 

#FILE INFORMATION
TRUE -- External MUX Channel results are PARSED.
FALSE -- AC DC and Phase are NOT grouped.
TRUE -- Companion Program Settings File CREATED.
FALSE -- AC data not excluded
FALSE -- DC data not excluded
FALSE -- Phase data not excluded
FALSE -- Auxillary Chn. data not excluded
Tab delimiters

#CALIBRATION STATE
TRUE -- Waveform Calibration Values APPLIED.


#AUX CALIBRATION VALUES
Val Type	aux-1	

Term	1.0000e+00	
Factor	0.0000e+00	


#WF CALIBRATION VALUES
A = Detector Channel
Val Type	A-AC1	A-AC2	A-AC3	A-AC4	A-AC5	A-AC6	A-AC7	A-AC8	A-AC9	A-AC10	A-AC11	A-AC12	A-AC13	A-AC14	A-AC15	A-AC16	A-DC1	A-DC2	A-DC3	A-DC4	A-DC5	A-DC6	A-DC7	A-DC8	A-DC9	A-DC10	A-DC11	A-DC12	A-DC13	A-DC14	A-DC15	A-DC16	A-Ph1	A-Ph2	A-Ph3	A-Ph4	A-Ph5	A-Ph6	A-Ph7	A-Ph8	A-Ph9	A-Ph10	A-Ph11	A-Ph12	A-Ph13	A-Ph14	A-Ph15	A-Ph16	

Term	0.00000e+00	0.00000e+00	0.00000e+00	0.00000e+00	0.00000e+00	0.00000e+00	0.00000e+00	0.00000e+00	0.00000e+00	0.00000e+00	0.00000e+00	0.00000e+00	0.00000e+00	0.00000e+00	0.00000e+00	0.00000e+00	0.00000e+00	0.00000e+00	0.00000e+00	0.00000e+00	0.00000e+00	0.00000e+00	0.00000e+00	0.00000e+00	0.00000e+00	0.00000e+00	0.00000e+00	0.00000e+00	0.00000e+00	0.00000e+00	0.00000e+00	0.00000e+00	0.00000e+00	0.00000e+00	0.00000e+00	0.00000e+00	0.00000e+00	0.00000e+00	0.00000e+00	0.00000e+00	0.00000e+00	0.00000e+00	0.00000e+00	0.00000e+00	0.00000e+00	0.00000e+00	0.00000e+00	0.00000e+00	
Factor	1.00000e+00	1.00000e+00	1.00000e+00	1.00000e+00	1.00000e+00	1.00000e+00	1.00000e+00	1.00000e+00	1.00000e+00	1.00000e+00	1.00000e+00	1.00000e+00	1.00000e+00	1.00000e+00	1.00000e+00	1.00000e+00	1.00000e+00	1.00000e+00	1.00000e+00	1.00000e+00	1.00000e+00	1.00000e+00	1.00000e+00	1.00000e+00	1.00000e+00	1.00000e+00	1.00000e+00	1.00000e+00	1.00000e+00	1.00000e+00	1.00000e+00	1.00000e+00	X	X	X	X	X	X	X	X	X	X	X	X	X	X	X	X	

B = Detector Channel
Val Type	B-AC1	B-AC2	B-AC3	B-AC4	B-AC5	B-AC6	B-AC7	B-AC8	B-AC9	B-AC10	B-AC11	B-AC12	B-AC13	B-AC14	B-AC15	B-AC16	B-DC1	B-DC2	B-DC3	B-DC4	B-DC5	B-DC6	B-DC7	B-DC8	B-DC9	B-DC10	B-DC11	B-DC12	B-DC13	B-DC14	B-DC15	B-DC16	B-Ph1	B-Ph2	B-Ph3	B-Ph4	B-Ph5	B-Ph6	B-Ph7	B-Ph8	B-Ph9	B-Ph10	B-Ph11	B-Ph12	B-Ph13	B-Ph14	B-Ph15	B-Ph16	

Term	0.00000e+00	0.00000e+00	0.00000e+00	0.00000e+00	0.00000e+00	0.00000e+00	0.00000e+00	0.00000e+00	0.00000e+00	0.00000e+00	0.00000e+00	0.00000e+00	0.00000e+00	0.00000e+00	0.00000e+00	0.00000e+00	0.00000e+00	0.00000e+00	0.00000e+00	0.00000e+00	0.00000e+00	0.00000e+00	0.00000e+00	0.00000e+00	0.00000e+00	0.00000e+00	0.00000e+00	0.00000e+00	0.00000e+00	0.00000e+00	0.00000e+00	0.00000e+00	-2.62276e+01	-1.15878e+02	-1.08409e+02	-1.83494e+02	-6.33589e+01	-7.54221e+01	-1.57928e+02	-1.62015e+02	-5.48854e+01	-9.11149e+01	-1.72828e+02	-1.71611e+02	-1.77707e+02	-1.75907e+02	-7.81365e+01	-1.49620e+02	
Factor	2.61661e-05	9.26201e-05	2.46974e-05	1.98797e-01	9.62366e-07	8.91135e-07	1.79104e-01	5.14304e-02	1.05170e-06	1.02584e-06	1.02012e-01	2.95886e-02	2.20963e-02	8.96045e-03	1.07712e-06	1.32210e-02	5.86835e-07	5.95880e-07	1.65773e-07	9.66592e-02	6.53574e-09	6.52599e-09	8.24644e-02	2.52020e-02	6.53566e-09	6.54143e-09	4.62961e-02	1.36781e-02	1.07972e-02	4.30996e-03	6.51163e-09	6.04044e-03	X	X	X	X	X	X	X	X	X	X	X	X	X	X	X	X	



#DISTANCE SETTINGS
A = Detector Channel
A-1	A-2	A-3	A-4	A-5	A-6	A-7	A-8	A-9	A-10	A-11	A-12	A-13	A-14	A-15	A-16	

2.5000e+00	3.0000e+00	2.5000e+00	3.0000e+00	2.0000e+00	3.0000e+00	1.5000e+00	3.0000e+00	3.0000e+00	3.0000e+00	3.0000e+00	3.0000e+00	3.0000e+00	3.0000e+00	1.5000e+00	3.0000e+00	

B = Detector Channel
B-1	B-2	B-3	B-4	B-5	B-6	B-7	B-8	B-9	B-10	B-11	B-12	B-13	B-14	B-15	B-16	

1.0000e+01	1.0000e+01	1.0000e+01	1.4400e+00	1.0000e+01	1.0000e+01	1.5100e+00	1.9400e+00	1.0000e+01	1.0000e+01	1.9900e+00	2.4900e+00	2.4100e+00	2.9000e+00	1.0000e+01	2.9800e+00	




#DATA BEGINS
time	group	step	mark	flag	A-AC1	A-AC2	A-AC3	A-AC4	A-AC5	A-AC6	A-AC7	A-AC8	A-AC9	A-AC10	A-AC11	A-AC12	A-AC13	A-AC14	A-AC15	A-AC16	A-DC1	A-DC2	A-DC3	A-DC4	A-DC5	A-DC6	A-DC7	A-DC8	A-DC9	A-DC10	A-DC11	A-DC12	A-DC13	A-DC14	A-DC15	A-DC16	A-Ph1	A-Ph2	A-Ph3	A-Ph4	A-Ph5	A-Ph6	A-Ph7	A-Ph8	A-Ph9	A-Ph10	A-Ph11	A-Ph12	A-Ph13	A-Ph14	A-Ph15	A-Ph16	B-AC1	B-AC2	B-AC3	B-AC4	B-AC5	B-AC6	B-AC7	B-AC8	B-AC9	B-AC10	B-AC11	B-AC12	B-AC13	B-AC14	B-AC15	B-AC16	B-DC1	B-DC2	B-DC3	B-DC4	B-DC5	B-DC6	B-DC7	B-DC8	B-DC9	B-DC10	B-DC11	B-DC12	B-DC13	B-DC14	B-DC15	B-DC16	B-Ph1	B-Ph2	B-Ph3	B-Ph4	B-Ph5	B-Ph6	B-Ph7	B-Ph8	B-Ph9	B-Ph10	B-Ph11	B-Ph12	B-Ph13	B-Ph14	B-Ph15	B-Ph16	aux-1	digaux	

8331.302	1	1	0	256	0.25038	0.058601	0.15688	0.17189	0.17669	0.18123	0.25532	0.12983	0.12433	0.19252	0.33066	0.44758	0.27739	0.032061	0.26698	0.031813	-1.2583	-1.3896	-2.025	-1.4188	-1.6479	-1.9833	-1.2917	-2.2958	-1.6042	-1.3583	-2.1437	-1.5917	-1.7875	-2.2854	-1.0792	-2.2167	146.267	129.468	112.617	338.476	136.820	320.632	296.421	270.441	107.868	285.303	278.424	309.439	286.054	256.037	13.253	61.943	0.00059418	0.0011905	0.00015917	950.25	5.2215e-06	6.4276e-06	1440.9	302.9	4.3718e-06	4.6788e-06	562.9	218.54	103.42	43.205	2.1136e-06	109.27	0.0003519	0.00031602	8.7096e-05	869.75	3.7208e-06	3.4822e-06	1298.4	278.26	3.6867e-06	3.4995e-06	495.48	194.25	94.946	38.839	3.4555e-06	95.067	228.502	68.006	55.754	-5.655	212.233	73.578	-6.057	-0.234	202.729	79.166	-1.082	3.947	5.119	9.559	88.350	7.802	-8191	255	
8331.399	1	1	0	0	0.39785	0.054905	0.0944	0.11117	0.20902	0.13687	0.25564	0.23918	0.084357	0.10004	0.22156	0.14783	0.22897	0.28124	0.17027	0.28339	-1.125	-1.2271	-2.2021	-1.5562	-1.6333	-2.0146	-1.55	-2.3625	-1.8687	-1.2417	-2.0396	-1.7313	-1.6271	-2.2313	-1.1437	-2.0687	34.435	204.337	300.788	248.618	169.991	248.599	294.700	268.261	187.833	125.659	292.934	292.873	309.368	-17.609	230.700	338.344	0.00071635	0.0005402	6.8693e-05	938.36	1.8216e-06	7.7609e-06	1443.8	304.84	1.0532e-05	1.0853e-05	561.98	220.36	103.46	43.414	7.4643e-06	110.16	0.0003423	0.00031733	8.9419e-05	864.5	3.6707e-06	3.4774e-06	1298.6	278.18	3.5935e-06	3.4148e-06	495.63	194.83	94.483	39.056	3.4702e-06	95.542	242.449	33.269	93.369	-5.448	237.300	90.053	-5.957	-0.076	116.393	125.592	-0.944	4.226	4.888	9.729	207.559	7.597	-8191	255	
8331.495	1	1	0	0	0.17396	0.31049	0.29881	0.28743	0.09918	0.19749	0.11609	0.24243	0.12645	0.3499	0.19467	0.17299	0.132	0.2981	0.069724	0.22418	-1.5021	-1.2625	-2.1125	-1.4042	-1.4833	-2.0687	-1.4896	-1.9438	-1.8104	-1.4208	-2.2896	-1.9771	-1.3771	-2.0917	-1.475	-1.975	52.659	292.735	170.419	264.083	14.848	68.032	276.834	243.922	95.070	82.993	307.068	251.717	-12.456	318.280	246.677	326.894	0.0006249	0.00042129	0.00022206	940.42	5.894e-06	1.4154e-06	1440.5	304.57	9.071e-06	7.7484e-06	570.4	220.25	103.79	43.281	6.0339e-06	109.95	0.00032867	0.00030341	8.9554e-05	865.86	3.4344e-06	3.3696e-06	1302.6	278.6	3.5182e-06	3.3929e-06	500.03	195.39	94.915	39.02	3.654e-06	95.854	237.237	98.671	87.352	-5.624	75.789	117.060	-5.973	-0.032	175.607	71.146	-1.136	4.203	4.715	9.559	63.202	7.338	-8191	255	
8331.615	1	1	0	0	0.27729	0.19699	0.26059	0.10121	0.022179	0.15102	0.24352	0.15825	0.066441	0.2717	0.39972	0.1955	0.14954	0.40324	0.26165	0.22684	-1.6458	-1.5229	-2.0146	-1.7396	-1.1	-2.25	-1.9583	-2.0062	-2.0104	-1.0667	-2.2562	-2.0375	-1.4208	-2.2417	-1.5208	-1.9083	133.008	128.450	143.419	8.011	306.392	313.789	292.070	219.797	246.290	61.208	314.518	305.270	40.296	318.935	284.813	-9.945	0.00055596	0.00083429	0.00039987	944.89	5.4393e-06	3.2622e-06	1450.5	307.22	2.0447e-06	9.1505e-07	572.32	220.68	104.33	43.488	4.0894e-06	110.49	0.00033285	0.00031646	9.5415e-05	868.82	3.5459e-06	3.4942e-06	1310.7	280.4	3.5913e-06	3.5393e-06	504.26	196.08	95.429	39.419	3.8668e-06	96.375	241.690	89.299	115.352	-5.773	97.637	156.994	-5.658	-0.297	114.047	-5.266	-0.844	4.063	5.060	9.669	79.868	7.810	-8191	255	
8331.687	1	1	0	0	0.23179	0.12911	0.054484	0.22401	0.12571	0.04503	0.034192	0.14112	0.098559	0.087928	0.16227	0.31954	0.19347	0.073259	0.2628	0.13408	-1.7938	-1.1875	-2	-1.9167	-1.3687	-2.1188	-1.6292	-1.6021	-2.0625	-1.4625	-2.0604	-2.0125	-1.2167	-2.1937	-1.6146	-1.7104	25.751	224.140	-3.650	245.187	222.842	110.335	323.339	327.719	-16.347	247.893	230.781	14.023	299.742	163.431	228.844	102.240	0.00060077	0.0007583	0.00015845	945.28	8.0763e-06	7.6225e-06	1453.1	305.56	5.9429e-06	4.5225e-06	567.2	219.22	103.43	43.303	6.9256e-06	110.03	0.00033592	0.0003328	9.9646e-05	867.72	3.541e-06	3.7017e-06	1312.1	279.34	3.621e-06	3.6808e-06	502.52	195.04	95.03	39.418	3.8613e-06	95.925	221.582	106.858	40.193	-5.625	207.829	122.585	-5.766	-0.050	76.733	182.097	-0.906	4.281	4.968	9.585	168.778	7.635	-8191	255	
8331.783	1	1	0	0	0.16728	0.19947	0.016588	0.1206	0.38926	0.21646	0.25018	0.19969	0.2497	0.13737	0.35482	0.1228	0.18706	0.057539	0.26178	0.13421	-1.725	-1.3021	-1.9438	-2.1271	-1.1292	-2.1688	-1.7354	-1.5354	-2.1208	-1.5083	-2.0312	-2.1688	-1.4146	-2.2708	-1.7875	-1.4271	232.185	46.395	307.899	329.336	234.908	262.575	303.404	326.964	85.020	306.698	315.274	226.270	285.639	161.992	301.749	20.236	0.00069478	0.00068547	0.00022023	943.83	1.1057e-05	1.4322e-06	1443.7	304.87	6.2709e-06	3.0569e-06	568.12	221.3	104.01	43.439	6.661e-06	110.24	0.00033403	0.00034431	9.6369e-05	867.44	3.547e-06	3.7707e-06	1310.5	279.39	3.5002e-06	3.8243e-06	502.27	195.56	95.238	39.455	3.8351e-06	95.82	231.701	80.787	36.388	-6.037	102.622	176.776	-5.870	-0.256	191.815	90.273	-0.810	4.188	4.795	9.610	106.052	7.988	-8191	255	
8331.902	1	1	0	0	0.33343	0.23045	0.086469	0.34914	0.15231	0.27765	0.3292	0.33265	0.096181	0.18964	0.10887	0.079423	0.12845	0.23638	0.24048	0.064333	-1.7437	-1.4958	-1.8354	-2.0292	-1.3875	-2.2458	-2.0187	-1.3188	-1.9146	-1.3417	-1.8479	-2.3542	-1.4417	-1.9	-1.9208	-1.5875	108.508	1.433	241.743	322.728	311.631	179.062	307.556	272.677	207.311	17.849	286.645	104.173	-15.986	282.282	317.116	219.083	0.00064074	0.00068909	0.0002745	944.96	1.0194e-05	6.2662e-06	1445	304.06	5.5306e-06	6.0188e-06	570.9	220.34	104.4	43.232	9.754e-06	111.23	0.00034173	0.00035847	9.6844e-05	870.53	3.6993e-06	3.9963e-06	1307	280.07	3.7118e-06	3.9943e-06	502.21	195.58	95.727	39.572	3.7966e-06	96.223	241.273	113.468	48.989	-5.587	153.910	-16.494	-5.890	-0.186	131.707	275.130	-0.644	4.153	4.637	9.722	144.675	8.048	-8191	255	
8331.998	1	1	0	0	0.14786	0.14499	0.19973	0.041021	0.12262	0.16593	0.20489	0.13541	0.22824	0.12295	0.087443	0.016399	0.38137	0.090552	0.11374	0.25774	-1.7708	-1.2687	-1.5042	-2.2646	-1.2625	-1.9646	-2.1312	-1.5667	-1.7146	-1.4521	-1.6854	-2.5958	-1.5167	-1.8438	-1.9833	-1.425	109.110	13.037	188.240	198.617	236.897	324.677	-4.839	254.508	225.997	157.972	255.909	267.092	193.622	20.718	255.848	291.383	0.00072494	0.00016906	0.00026417	948.8	9.955e-06	6.4415e-06	1442.5	305.77	4.8803e-06	6.3531e-06	568.99	221.79	105.2	43.772	4.854e-06	110.86	0.00035361	0.00036027	9.4067e-05	869.4	3.809e-06	3.9445e-06	1309	280.44	3.8529e-06	3.9707e-06	503.68	196.38	96.265	39.876	3.703e-06	96.681	210.462	129.531	78.120	-5.427	199.416	1.960	-5.668	-0.082	16.116	339.882	-0.749	4.258	4.883	9.560	97.715	7.853	-8191	255	
8332.094	1	1	0	0	0.3684	0.15126	0.1557	0.15355	0.1099	0.039962	0.075421	0.42049	0.11115	0.2682	0.24329	0.095432	0.042995	0.37622	0.15594	0.28367	-1.5979	-1.4875	-1.1979	-2.2708	-1.3708	-1.6417	-2.3792	-1.5979	-2.075	-1.5688	-1.6417	-2.1958	-1.3375	-1.4896	-1.9438	-1.525	271.059	204.263	302.036	340.626	139.850	324.158	322.888	265.448	184.478	191.779	310.448	290.560	66.084	257.972	105.628	303.533	0.0007458	0.00048536	0.00019832	953.87	4.5777e-06	4.952e-06	1454.8	306.93	1.0033e-05	3.3325e-06	569.67	222.1	104.05	43.842	2.7665e-06	111.4	0.00036785	0.00035608	9.3227e-05	871.17	3.9644e-06	3.8128e-06	1311	279.89	3.9834e-06	3.8892e-06	503.53	196.62	96.184	39.791	3.702e-06	96.604	230.138	46.708	53.499	-5.527	165.391	118.405	-5.586	-0.150	134.691	64.550	-0.688	4.464	4.863	10.269	105.376	7.535	-8191	255	
8332.191	1	1	0	0	0.16331	0.14554	0.13685	0.2293	0.23936	0.1069	0.094408	0.23455	0.039615	0.1396	0.097818	0.22033	0.012799	0.34622	0.40945	0.23572	-1.7437	-1.8417	-1.1625	-2.1854	-1.3708	-1.5875	-2.4125	-1.5792	-1.8167	-1.7896	-1.375	-2.2729	-1.6479	-1.7771	-2.0625	-1.3854	-3.272	210.386	-13.364	310.276	89.167	234.790	321.523	272.616	9.675	38.342	338.886	316.669	123.272	305.037	11.448	303.736	0.00048466	0.00055097	4.8495e-05	951.16	7.7071e-06	7.733e-06	1451.3	307.08	2.2559e-06	1.9554e-06	572.27	220.67	104.23	43.646	4.2699e-06	110.69	0.00038166	0.00035294	9.4173e-05	871.84	4.0419e-06	3.8165e-06	1309.8	281.63	4.0593e-06	3.8141e-06	502.62	196.51	96.134	39.572	3.646e-06	96.469	232.363	33.435	148.001	-5.609	153.672	77.974	-5.607	0.046	148.362	193.665	-0.850	4.485	4.891	10.039	215.468	7.911	-8191	255	
8332.287	1	1	0	0	0.09648	0.14314	0.11029	0.18337	0.060378	0.2923	0.53864	0.29156	0.10781	0.17184	0.23497	0.3273	0.2179	0.17018	0.26122	0.12037	-1.3833	-1.7563	-1.375	-2.3146	-1.7875	-1.525	-2.2271	-1.3458	-1.4188	-2.0125	-1.4958	-2.4583	-1.5771	-1.2437	-2.2125	-1.6333	43.747	205.191	311.252	6.379	300.928	336.915	272.571	304.967	194.612	136.128	335.453	331.129	193.794	304.492	-16.054	305.541	0.00059525	0.00049935	8.3821e-05	950.32	2.3194e-06	6.7512e-06	1448.5	307.15	2.5546e-06	8.7667e-06	571.34	222.06	104.05	43.942	9.4857e-06	111.09	0.0003708	0.00034016	9.2658e-05	874.4	3.9305e-06	3.6538e-06	1309.6	281.46	3.8831e-06	3.7557e-06	501.91	196.98	95.958	39.634	3.6675e-06	96.766	234.409	93.879	150.542	-4.957	243.583	111.179	-5.595	-0.192	-17.939	173.998	-0.687	4.377	4.658	9.839	175.010	8.073	-8191	255	
8332.383	1	1	0	0	0.16413	0.1318	0.23848	0.14366	0.35017	0.1222	0.3175	0.32564	0.1825	0.3187	0.044659	0.22918	0.18974	0.15992	0.12139	0.20838	-1.3417	-2.1521	-1.4	-2.0771	-1.5187	-1.3708	-2.4042	-1.5688	-1.5	-1.9792	-1.3292	-2.2104	-1.9521	-1.4354	-2.1083	-1.5667	52.212	142.304	49.367	-9.092	47.210	259.345	220.898	274.296	335.423	231.179	187.097	321.688	218.088	317.380	50.896	337.473	0.0005746	0.00052868	0.00022765	952.06	5.2904e-06	7.9514e-06	1451	307.03	6.3674e-06	7.0141e-06	573.43	221.98	104.72	43.781	8.3835e-06	111.46	0.00036544	0.0003389	9.3753e-05	877.94	3.9357e-06	3.6845e-06	1311.2	282.1	3.8453e-06	3.671e-06	503.83	198.02	95.727	39.771	3.8182e-06	97.19	237.123	45.343	80.738	-5.409	149.173	94.824	-5.534	-0.081	115.474	83.816	-0.467	4.566	4.606	9.985	127.341	7.721	-8191	255	
8332.479	1	1	0	0	0.38716	0.077679	0.051585	0.15567	0.19372	0.19817	0.34121	0.13514	0.25498	0.3072	0.26641	0.37425	0.041073	0.12795	0.24311	0.23037	-1.1875	-2.0333	-1.3438	-1.8458	-1.7479	-1.1729	-2.1875	-1.6313	-1.6917	-2.1979	-1.5438	-1.9646	-1.9292	-1.0208	-2.0312	-1.9604	54.201	6.473	103.895	254.934	281.106	49.222	8.436	72.659	115.861	286.842	332.830	259.805	22.850	332.372	290.658	246.439	0.00068724	0.001228	4.4971e-05	950.34	6.2702e-06	4.48e-06	1458.1	308.96	6.1663e-06	6.9163e-06	571.94	222.21	104.27	43.77	7.9839e-06	111.97	0.00035325	0.00033494	9.5871e-05	876.44	3.7579e-06	3.602e-06	1316.8	282.28	3.74e-06	3.6882e-06	506.33	197.93	95.693	39.739	3.9006e-06	97.295	233.812	6.105	218.818	-5.275	81.311	135.173	-5.546	-0.234	119.732	112.601	-0.782	4.501	4.969	9.994	193.431	8.076	-8191	255	
8332.575	1	1	0	0	0.10756	0.16704	0.102	0.23536	0.033518	0.11167	0.27134	0.44533	0.23442	0.17307	0.22217	0.15773	0.43588	0.2347	0.14613	0.18091	-0.97083	-2.1292	-1.3521	-1.775	-1.8813	-1.3521	-2.2708	-1.7188	-1.0312	-2.0479	-1.5063	-1.8687	-2.3104	-1.2792	-1.9292	-1.975	42.592	321.410	339.177	-15.880	244.064	105.755	292.019	293.869	325.281	109.961	246.367	281.120	285.595	268.422	214.744	264.401	0.00060119	0.00101	9.0146e-05	948.52	1.5173e-06	6.1437e-06	1453.1	306.71	3.3067e-06	3.0679e-06	566.84	222.14	104.01	43.915	7.5624e-06	111	0.00035453	0.0003346	0.00010014	876.91	3.7635e-06	3.6427e-06	1316.7	281.34	3.6977e-06	3.6928e-06	504.8	197.12	95.658	39.691	3.9297e-06	96.505	239.535	72.613	121.748	-5.148	246.401	0.065	-5.315	-0.085	-3.543	126.193	-0.698	4.463	5.315	10.025	133.150	8.148	-8191	255	
8332.694	1	1	0	0	0.332	0.35145	0.079184	0.16426	0.13335	0.27874	0.18973	0.40207	0.11981	0.20738	0.15783	0.14474	0.35285	0.24112	0.092862	0.37494	-0.99375	-2.1437	-1.4062	-1.6708	-2.1458	-1.1812	-2.0667	-1.6812	-1.1354	-2.1208	-1.7042	-1.8792	-2.0229	-1.2188	-1.6479	-1.9729	267.900	77.330	137.194	313.651	102.621	209.060	233.817	5.151	-7.199	70.872	41.783	324.256	-1.507	0.814	249.367	297.992	0.00091985	0.00035012	0.00027074	951.44	3.0934e-07	2.5206e-06	1452.6	307.02	5.5021e-06	6.9439e-06	568	222.17	104.24	43.75	4.3295e-06	110.91	0.00034243	0.00032822	9.9818e-05	873.65	3.5996e-06	3.62e-06	1315.3	281.59	3.587e-06	3.7035e-06	504.12	196.48	95.487	39.596	3.8875e-06	96.513	239.108	307.293	58.914	-4.952	103.828	180.504	-5.323	0.089	-6.593	48.895	-0.410	4.837	5.574	10.035	258.856	7.887	-8191	255	
8332.790	1	1	0	0	0.07966	0.14594	0.24966	0.24477	0.20435	0.32057	0.28622	0.10788	0.15708	0.18056	0.24071	0.37358	0.094313	0.09463	0.14899	0.15034	-0.83125	-1.9708	-1.3208	-1.5396	-2.0812	-1.2542	-1.9729	-1.8479	-0.94167	-2.0875	-1.8312	-1.6979	-2.3354	-1.3104	-1.4646	-2.025	143.175	265.930	234.873	-3.084	311.857	40.694	299.518	80.797	167.157	97.283	264.604	307.260	321.736	319.269	189.328	314.523	0.00073789	0.0014323	6.2751e-05	945.5	5.1042e-06	2.5501e-06	1457.4	306.76	6.5194e-06	6.7873e-06	568.29	222.41	104.29	43.978	5.6817e-06	111	0.00033047	0.00033727	9.7754e-05	869.4	3.5569e-06	3.7704e-06	1315.6	280.99	3.5359e-06	3.8413e-06	504	196.73	95.448	39.826	3.7502e-06	96.637	229.313	93.862	236.029	-4.912	146.016	199.183	-5.191	-0.164	157.806	128.429	-0.841	4.762	5.153	10.236	153.759	8.274	-8191	255	
8332.886	1	1	0	0	0.16656	0.20122	0.3225	0.33295	0.17089	0.15968	0.33247	0.037351	0.16736	0.1024	0.22456	0.10878	0.21182	0.21547	0.34004	0.19766	-0.98542	-1.8854	-1.7563	-1.3604	-2.125	-1.4688	-1.8083	-2.0417	-1.1812	-1.9917	-2.225	-1.6354	-2.3063	-1.6562	-1.4458	-2.1958	199.091	80.324	298.502	294.699	326.757	224.004	264.237	121.232	156.235	47.261	305.643	70.874	-16.208	305.166	-11.494	322.764	0.00061353	0.00016828	5.0348e-05	947.09	6.8954e-06	4.6082e-06	1457.2	308.31	2.9566e-06	3.4498e-06	574.08	223.49	105.64	43.902	5.9752e-06	111.81	0.00033041	0.00034155	9.4935e-05	869.82	3.5241e-06	3.8088e-06	1314.2	280.98	3.5107e-06	3.8107e-06	504.42	197.27	96.142	39.845	3.6157e-06	96.936	231.389	131.490	214.911	-5.112	155.781	215.022	-5.299	0.257	155.698	74.630	-0.530	4.600	5.145	10.293	81.017	8.137	-8191	255	
8332.982	1	1	0	0	0.03956	0.23026	0.064729	0.06037	0.18674	0.34429	0.19216	0.37274	0.11682	0.13537	0.23712	0.066195	0.07531	0.3366	0.14215	0.0786	-0.65625	-1.8875	-1.7792	-1.5833	-2.0833	-1.4396	-1.6	-1.9292	-1.1146	-1.7917	-1.8917	-1.3896	-2.3	-1.8146	-1.6	-2.4208	300.439	240.023	174.531	9.590	304.716	323.995	278.380	336.944	15.363	224.775	314.075	304.904	88.346	-6.422	96.738	271.023	0.0007945	0.00075732	0.00026221	950.09	2.2122e-06	6.1447e-06	1458.5	308.11	1.3328e-05	2.5137e-06	572.17	220.99	104.11	43.641	2.5877e-06	110.85	0.00033745	0.00035222	9.2212e-05	870.1	3.6688e-06	3.8873e-06	1312.1	280.49	3.675e-06	3.8672e-06	502.34	195.68	95.651	39.651	3.5308e-06	95.957	246.108	100.592	97.784	-4.812	106.310	147.401	-5.218	-0.017	150.639	73.556	-0.365	4.541	4.868	10.283	161.234	8.304	-8191	255	
8333.079	1	1	0	0	0.12799	0.14699	0.090602	0.17065	0.16714	0.13001	0.47195	0.13922	0.034042	0.17719	0.15678	0.38019	0.075638	0.11637	0.16332	0.050773	-1.15	-1.8229	-1.9167	-1.3146	-1.9458	-1.7375	-1.6479	-2.275	-1.3792	-1.7146	-2.1958	-1.4229	-2.175	-1.9125	-1.1542	-2.2062	139.574	26.276	339.163	336.131	52.478	247.390	296.915	332.650	74.545	209.987	293.909	-7.314	8.215	199.511	328.170	129.594	0.00056868	0.00048368	0.00019043	952.14	1.5348e-06	3.9874e-06	1440.6	306.55	6.9932e-06	9.1167e-06	567.84	221	103.82	43.514	7.3021e-06	110.89	0.00034856	0.00034281	9.2259e-05	868.36	3.7949e-06	3.7936e-06	1303.6	279.2	3.8051e-06	3.7171e-06	500.64	195.68	95.456	39.493	3.5283e-06	95.898	230.323	45.916	111.605	-5.245	156.108	11.497	-5.696	-0.409	230.908	102.021	-0.963	4.112	4.633	9.634	116.172	7.585	-8191	255	
8333.199	1	1	0	0	0.16135	0.12837	0.17992	0.48105	0.075708	0.037838	0.25065	0.13598	0.23863	0.071583	0.2492	0.63965	0.32066	0.23273	0.23435	0.067101	-0.9875	-1.4458	-2.0417	-1.25	-1.9104	-1.7646	-1.4354	-2.2458	-1.6521	-1.4333	-2.0646	-1.2917	-1.8667	-1.8333	-1.1187	-2.2875	181.263	167.256	142.090	312.769	62.841	114.599	185.926	322.988	25.894	333.855	322.112	317.922	244.869	14.627	250.631	329.583	0.00073652	0.00046134	0.00023764	948.21	3.6897e-06	7.0991e-06	1447.4	306.01	6.2845e-06	1.4973e-05	567.11	221.05	103.73	43.443	4.8815e-06	110.57	0.00035886	0.00033253	8.9344e-05	866.55	3.7862e-06	3.6445e-06	1303.1	279.85	3.7907e-06	3.5674e-06	499.12	195.74	95.54	39.387	3.4183e-06	96.104	225.810	124.540	50.318	-5.726	171.659	119.042	-5.833	-0.370	209.627	149.978	-0.950	4.035	4.425	9.392	66.743	7.516	-8191	255	
8333.295	1	1	0	0	0.32086	0.19887	0.32289	0.19096	0.049523	0.33406	0.32835	0.21701	0.24467	0.27723	0.41019	0.14443	0.10577	0.17584	0.084013	0.4471	-1.1562	-1.4208	-2.1292	-1.4146	-1.9458	-2.0542	-1.2812	-2.1	-1.3312	-1.3	-2.4458	-1.5646	-1.9917	-2.0083	-1.0458	-2.1396	129.992	309.361	162.733	235.259	332.768	67.749	-12.678	282.022	0.442	247.511	288.960	90.158	300.434	102.784	35.810	323.827	0.00060845	0.00083798	0.00010822	946.14	8.0053e-06	9.4535e-06	1444	305.11	9.6414e-06	8.8605e-06	565.59	220.29	103.89	43.483	7.3273e-06	111.46	0.00035886	0.00032226	9.0008e-05	870.28	3.8373e-06	3.5968e-06	1304.6	280.06	3.7861e-06	3.5523e-06	500.43	195.83	95.552	39.376	3.4672e-06	96.683	234.905	65.670	75.860	-5.549	121.050	143.891	-5.970	-0.519	115.024	123.518	-1.194	4.244	4.898	9.506	144.022	7.795	-8191	255	
8333.390	1	1	0	0	0.17175	0.22513	0.15825	0.17074	0.063002	0.072936	0.33523	0.21108	0.034343	0.14272	0.25403	0.13201	0.08859	0.090434	0.071008	0.23634	-1.2292	-1.3417	-2.2583	-1.5646	-1.6437	-2.0271	-1.5583	-2.0417	-1.8354	-1.4562	-2.2417	-1.4958	-1.525	-2.2104	-1.0833	-2.2542	-7.230	319.624	73.216	2.087	209.407	122.486	271.307	311.548	94.380	104.407	312.998	299.736	20.127	196.362	53.669	230.943	0.0006241	0.00099616	8.5032e-05	938.79	1.1041e-05	9.3999e-06	1455.2	304.11	2.4798e-06	4.8215e-06	565.45	220.66	104.13	43.249	6.1476e-06	110.34	0.00035126	0.00032053	8.9948e-05	870.71	3.7109e-06	3.5436e-06	1305.9	279.69	3.7055e-06	3.4842e-06	500.82	195.96	95.431	39.236	3.5514e-06	96.074	258.724	65.050	110.652	-5.806	133.923	81.215	-5.844	-0.259	143.530	150.502	-0.976	3.970	4.510	9.646	112.315	7.875	-8191	255	
8333.486	1	1	0	0	0.084009	0.21669	0.047575	0.14558	0.14103	0.067236	0.39607	0.32796	0.22749	0.10349	0.33045	0.14907	0.29454	0.2067	0.12035	0.25512	-1.6208	-1.3521	-2.1146	-1.6688	-1.6042	-2.1958	-1.3813	-1.9167	-1.9729	-0.9625	-2.0375	-1.6771	-1.4688	-2.2062	-1.1646	-1.7667	161.869	106.609	53.727	63.767	218.724	68.130	244.116	216.308	213.215	299.589	288.227	-7.533	263.636	183.695	204.776	236.307	0.00055064	0.00039285	0.00015765	951.08	3.4465e-06	6.1723e-06	1440.8	302.07	5.0359e-06	1.0721e-05	564.47	219.39	102.79	43.074	2.6127e-06	109.99	0.0003402	0.00031847	9.064e-05	869.19	3.617e-06	3.4989e-06	1302	278.42	3.6515e-06	3.5134e-06	497.65	194.81	94.299	38.953	3.7433e-06	95.428	236.371	158.634	69.846	-5.562	160.514	133.072	-5.979	-0.248	175.590	131.434	-0.810	3.845	5.161	9.203	102.411	7.906	-8191	255	
8333.582	1	1	0	0	0.20282	0.14088	0.025584	0.17234	0.37552	0.28828	0.049861	0.099388	0.19074	0.41017	0.092923	0.31122	0.09266	0.18186	0.23679	0.10655	-1.7	-1.4771	-2.1875	-2.025	-1.3188	-2.0771	-1.5458	-1.8146	-2.0458	-1.2229	-2.3354	-1.8646	-1.7875	-2.4188	-1.2313	-1.6187	234.667	288.563	73.411	308.880	249.845	155.276	181.559	341.403	5.511	309.910	291.387	288.573	1.668	323.883	18.676	-15.460	0.00054989	0.0003703	0.00021271	941.72	4.9664e-06	3.1563e-06	1435.4	302.75	7.6625e-06	6.3101e-06	561.7	218.97	102.68	42.997	3.4113e-06	109.47	0.00034586	0.00032222	9.7609e-05	864.72	3.6145e-06	3.5526e-06	1299.3	277.81	3.6567e-06	3.5553e-06	499.53	194.37	94.127	38.959	3.9192e-06	95.296	251.484	125.271	84.805	-5.692	91.431	114.151	-5.850	-0.035	303.468	99.988	-0.807	4.183	4.903	9.828	75.248	7.826	-8191	255	
8333.678	1	1	0	0	0.25217	0.0834	0.16805	0.26866	0.21694	0.077761	0.1093	0.16665	0.065855	0.050769	0.22784	0.33657	0.15995	0.11865	0.18437	0.19205	-1.5354	-1.2938	-2.025	-1.9167	-1.0938	-2.1562	-1.5667	-1.7146	-1.9708	-1.3604	-1.9729	-1.75	-1.2667	-2.225	-1.5688	-1.5292	149.891	68.279	193.386	315.827	144.213	82.930	38.581	8.498	271.161	16.367	305.795	313.836	121.615	213.501	180.844	305.643	0.00064737	0.00062651	0.00029318	934.31	8.8852e-06	3.3366e-06	1438.8	301.95	1.3802e-05	8.9254e-06	565.81	219.17	103.26	42.811	7.5923e-06	110.03	0.00034183	0.00032912	9.9787e-05	863.39	3.6025e-06	3.6601e-06	1303.6	277.21	3.5893e-06	3.644e-06	499.59	194.25	94.309	38.928	3.9809e-06	95.421	237.233	155.713	88.562	-5.521	173.792	148.025	-5.868	-0.040	233.337	115.125	-0.649	4.244	4.853	9.762	94.767	7.980	-8191	255	
8333.774	1	1	0	0	0.29073	0.10871	0.18816	0.096132	0.16779	0.15891	0.21312	0.023134	0.15651	0.068223	0.26618	0.29718	0.21342	0.33434	0.17572	0.34729	-1.6729	-1.1688	-1.7812	-1.8937	-1.3083	-2.3708	-1.7563	-1.6417	-1.9167	-1.475	-1.9875	-2.325	-1.4042	-2.1813	-1.3542	-1.4479	227.105	275.168	194.655	210.142	261.335	-12.610	314.128	188.154	332.067	312.941	305.979	273.950	-12.352	317.391	334.613	263.184	0.00055599	0.00040614	0.00027018	940.11	4.5405e-06	3.0292e-06	1445.7	301.29	3.7984e-06	1.0847e-05	567.05	218.75	102.21	42.796	8.8742e-06	109.1	0.00034431	0.0003482	0.00010236	864.01	3.6696e-06	3.9045e-06	1305.6	277.02	3.6954e-06	3.9581e-06	502.47	194.15	93.864	38.955	3.9799e-06	95.186	245.420	72.017	54.997	-5.811	188.699	69.079	-5.562	-0.209	214.702	164.983	-0.594	4.506	5.253	10.003	71.770	7.755	-8191	255	
8333.871	1	1	0	0	0.05138	0.11294	0.14338	0.3212	0.08857	0.11709	0.40407	0.13789	0.016866	0.1333	0.2474	0.10252	0.28558	0.28048	0.2104	0.34889	-1.6604	-1.325	-1.8167	-2.2021	-1.3625	-2.1896	-1.8188	-1.4521	-2.2521	-1.3167	-1.6792	-2.2292	-1.1708	-2.0833	-1.5833	-1.3979	320.389	258.875	15.356	-4.939	259.324	-3.115	280.189	260.170	108.784	222.934	326.121	224.938	24.491	330.203	129.734	327.197	0.00052681	0.00041187	8.726e-05	933.73	8.6987e-06	7.7108e-06	1436.4	300.6	3.7269e-06	5.534e-06	559.71	217.92	102.01	42.273	3.3125e-06	108.48	0.00034441	0.00036498	9.9777e-05	861.14	3.6744e-06	4.0278e-06	1298.8	275.88	3.6999e-06	3.9945e-06	496.89	192.85	93.66	38.784	3.9053e-06	94.413	229.816	226.078	50.010	-5.332	121.084	79.632	-5.566	0.227	170.074	46.019	-0.290	4.255	5.036	10.201	73.986	8.061	-8191	255	
8333.991	1	1	0	0	0.042711	0.06589	0.20983	0.13251	0.089592	0.071933	0.13847	0.22793	0.19885	0.0081939	0.30711	0.19148	0.053877	0.17033	0.15878	0.20422	-1.7875	-1.5646	-1.5187	-2.0479	-1.2521	-2.0812	-2.1667	-1.3479	-2.1104	-1.2375	-1.5688	-2.4771	-1.4021	-2.1729	-1.7875	-1.2313	283.029	329.468	41.431	201.306	233.631	278.872	273.851	215.594	57.515	212.916	315.716	190.738	329.216	312.173	-5.264	2.882	0.00055249	0.00065148	0.00031846	933.65	4.193e-06	6.0721e-06	1433.8	300.02	3.9645e-06	5.613e-06	561.14	217.21	101.22	42.666	2.3159e-06	108.41	0.00035077	0.00036878	9.6583e-05	857.39	3.7539e-06	3.9609e-06	1294.7	274.54	3.7799e-06	3.975e-06	496.11	192.87	93.715	38.857	3.7228e-06	94.331	241.886	62.358	101.042	-5.406	167.753	125.792	-5.829	-0.043	216.555	61.600	-0.680	4.127	4.911	10.406	310.513	8.078	-8191	255	
8334.087	1	1	0	0	0.19296	0.32921	0.16079	0.067431	0.20106	0.098384	0.10954	0.35638	0.087653	0.075977	0.11577	0.30572	0.35325	0.14513	0.085281	0.22027	-1.7167	-1.6604	-1.3833	-2.0833	-1.0021	-1.6229	-2.0771	-1.0104	-2.0375	-1.5979	-1.4875	-2.2958	-1.4875	-1.6313	-1.8021	-1.3937	270.434	22.567	40.368	321.198	221.758	154.806	290.494	294.308	61.198	186.802	256.104	295.286	280.874	267.154	167.408	-8.554	0.00066941	0.0006031	4.6775e-05	931.94	6.1939e-06	4.2493e-06	1430.9	300.88	1.335e-05	8.1114e-06	562.9	217.99	101.66	42.669	1.7509e-06	109.47	0.00036494	0.00036403	9.4171e-05	856.25	3.9194e-06	3.9181e-06	1295.5	275.12	3.9389e-06	3.9269e-06	496.28	193.3	94.024	38.873	3.7635e-06	95.028	246.505	84.402	110.949	-5.474	164.974	146.107	-5.759	0.060	161.205	138.187	-0.550	4.102	4.780	9.985	66.706	7.734	-8191	255	
8334.183	1	1	0	0	0.17565	0.19333	0.04934	0.20583	0.079618	0.090379	0.28919	0.32522	0.16264	0.16885	0.10548	0.32758	0.079514	0.16396	0.26007	0.23436	-1.7104	-1.5458	-1.2521	-2.3354	-1.475	-1.6292	-2.3958	-1.2604	-1.8583	-1.7167	-1.3229	-2.2313	-1.625	-1.7833	-1.8188	-1.2917	-6.685	139.030	-16.522	22.536	105.763	322.075	262.650	302.520	62.466	86.188	-13.724	300.550	309.841	144.577	126.172	242.593	0.0005936	0.00086736	0.00018203	937.2	4.6798e-06	1.0172e-05	1439.6	301.95	8.0604e-06	4.1761e-06	566.26	219.52	101.93	42.793	6.1347e-06	110.1	0.00037728	0.00036033	9.3802e-05	858.27	4.0843e-06	3.8493e-06	1299	276.38	4.0777e-06	3.882e-06	498.26	194.7	94.502	38.966	3.6867e-06	95.708	214.277	17.450	156.611	-5.827	332.121	99.353	-5.718	-0.023	188.201	84.671	-0.561	4.446	4.753	9.746	110.948	7.362	-8191	255	
8334.280	1	1	0	0	0.19746	0.13948	0.089754	0.2844	0.28883	0.22792	0.25308	0.49092	0.17706	0.097239	0.23324	0.20002	0.08225	0.041637	0.11955	0.13462	-1.3667	-1.6208	-1.1479	-2.0292	-1.6063	-1.5229	-2.2979	-1.4083	-1.7333	-1.9354	-1.5375	-2.4	-1.8542	-1.7125	-2.1083	-1.5083	146.880	139.991	39.109	320.474	281.557	17.177	219.691	335.317	143.539	114.851	282.366	249.869	223.732	92.479	226.393	221.931	0.00055094	0.00070523	8.5243e-05	935.93	3.4535e-06	3.3575e-06	1435.7	300.57	5.2435e-06	6.8805e-06	563.11	218.51	101.57	42.838	4.632e-06	108.71	0.00037649	0.00035161	9.2685e-05	862.92	4.0729e-06	3.7785e-06	1296.6	276.17	4.065e-06	3.8137e-06	496.22	193.99	94.037	38.927	3.6652e-06	95.139	233.469	41.808	22.837	-5.987	212.601	112.398	-6.184	-0.576	22.259	115.833	-1.114	3.990	4.667	9.361	141.940	7.710	-8191	255	
8334.376	1	1	0	0	0.22104	0.11088	0.26777	0.28779	0.33288	0.42708	0.27829	0.12126	0.19826	0.21229	0.39218	0.35368	0.15407	0.26249	0.29611	0.2654	-1.3354	-2.0667	-1.3583	-2.2625	-1.6646	-1.2771	-2.2417	-1.3646	-1.7146	-2.0854	-1.5896	-2.2354	-1.9813	-1.6625	-2.2771	-1.7812	213.067	224.455	89.357	334.865	299.897	151.963	331.748	200.808	75.190	26.257	290.055	317.768	-15.240	-7.470	47.968	336.351	0.00073498	0.00022857	0.00033835	931.48	8.8049e-06	6.3926e-06	1437.8	300.26	4.7605e-06	8.8672e-06	560.39	217.65	101.48	42.88	8.9833e-06	108.66	0.00037082	0.00034049	9.248e-05	863.99	3.9574e-06	3.7023e-06	1294.9	276.7	3.9007e-06	3.7326e-06	495.33	194.23	93.721	38.81	3.7388e-06	95.219	245.863	63.146	128.655	-5.460	24.999	109.728	-6.076	-0.686	69.229	91.772	-1.218	4.138	4.420	9.608	186.179	7.402	-8191	255	
8334.470	1	1	0	0	0.14414	0.17766	0.084923	0.22451	0.1291	0.13377	0.13613	0.25375	0.11578	0.34705	0.17305	0.16097	0.20423	0.26712	0.072136	0.29271	-1.3833	-1.9125	-1.1583	-2.1271	-2.0354	-1.5146	-2.4854	-1.5479	-1.5917	-1.9312	-1.4937	-2.1958	-2.1146	-1.575	-2.2604	-1.6917	314.021	278.012	46.447	300.498	269.352	14.447	268.611	274.301	54.258	194.943	263.382	287.215	57.559	211.012	178.805	303.730	0.00050328	0.00039016	0.0002743	935.15	2.7917e-06	3.6408e-06	1434.7	300.3	8.5107e-06	3.0578e-06	562.23	218.78	102.16	42.764	1.1536e-05	110.03	0.00036149	0.00033794	9.4751e-05	865.78	3.8812e-06	3.6606e-06	1296.4	276.4	3.819e-06	3.7027e-06	497.06	194.95	93.957	38.899	3.8585e-06	95.887	239.350	154.708	162.535	-5.706	175.789	163.789	-6.100	-0.611	245.053	61.214	-1.131	4.261	4.531	9.341	122.580	7.582	-8191	255	
8334.568	1	1	0	0	0.084184	0.088444	0.29857	0.28498	0.17456	0.064191	0.28723	0.17655	0.18724	0.11854	0.25194	0.23267	0.044475	0.21554	0.1035	0.21928	-1.0667	-2.0125	-1.2875	-2.1854	-1.8604	-1.3458	-2.2167	-1.625	-1.5458	-2.2354	-1.5292	-2.0958	-2.1167	-1.5271	-2.1229	-2.0875	272.298	75.046	62.451	-15.328	305.911	44.140	277.365	219.842	42.469	285.230	289.038	65.343	114.984	234.400	301.604	278.177	0.0007611	0.00017407	0.00026084	934.86	6.7871e-06	4.1895e-06	1441.8	300.75	9.7169e-06	1.881e-06	564.57	219.11	102.1	43.059	8.319e-06	110.61	0.00035425	0.00033376	9.9272e-05	865.82	3.8001e-06	3.639e-06	1304.9	277.01	3.7424e-06	3.7144e-06	500.18	195.62	93.98	39.021	4.0098e-06	96.448	235.743	65.209	106.842	-5.720	181.664	77.298	-5.789	-0.271	153.486	53.321	-0.996	4.327	4.492	9.626	152.833	7.640	-8191	255	
8334.687	1	1	0	0	0.19215	0.27323	0.1001	0.25058	0.23359	0.13851	0.17476	0.1803	0.17262	0.189	0.0058903	0.20616	0.24897	0.17893	0.16965	0.18795	-1.0187	-2.0917	-1.3521	-1.7958	-2.1521	-1.4292	-2.425	-2.0271	-1.4625	-2.2771	-1.6271	-1.7625	-2.3479	-1.4521	-2.1854	-1.9375	-10.394	298.176	37.962	286.264	34.422	2.864	262.132	224.577	114.778	63.986	107.331	239.793	318.483	335.177	-2.135	263.428	0.00075125	0.00036454	0.00016615	939.5	6.7171e-06	3.7547e-06	1432.6	301.54	3.7414e-06	4.9796e-06	564.05	218.58	102.35	43.081	8.8288e-06	110.22	0.00035431	0.00034251	0.00010313	864.86	3.7719e-06	3.6877e-06	1304.7	277.13	3.7132e-06	3.7983e-06	501.12	195.19	94.094	39.16	4.0516e-06	96.028	239.221	181.651	90.598	-5.496	147.421	187.390	-5.826	-0.427	101.690	178.854	-1.181	4.223	4.607	9.740	158.799	7.857	-8191	255	
8334.783	1	1	0	0	0.13097	0.28538	0.13412	0.038765	0.18031	0.029555	0.23039	0.081372	0.13979	0.19762	0.26081	0.12097	0.37251	0.36079	0.15157	0.34253	-0.91042	-2.1979	-1.5229	-1.7938	-1.9833	-1.3125	-2.0958	-2.0875	-1.2708	-2.2146	-1.5438	-1.7188	-2.1729	-1.5063	-1.7875	-1.9021	-2.583	-6.342	194.082	94.648	264.303	227.174	157.059	221.353	-6.797	71.045	263.097	293.253	341.366	257.161	173.633	290.344	0.00065728	0.00070977	4.2051e-05	935	1.4657e-06	1.2137e-06	1437	302.12	4.4445e-06	7.179e-06	563.62	218.24	101.62	42.974	7.1215e-06	109.72	0.00034611	0.00035161	0.00010456	861.19	3.7042e-06	3.7905e-06	1302	276.25	3.6687e-06	3.9178e-06	500.37	194.33	93.755	39.149	4.006e-06	95.633	231.387	143.849	160.376	-5.683	58.215	263.720	-5.737	-0.476	206.035	168.025	-0.891	4.413	4.207	9.669	208.996	7.725	-8191	255	
8334.879	1	1	0	0	0.17381	0.10394	0.02046	0.092353	0.030673	0.098847	0.3175	0.1308	0.21102	0.12338	0.19984	0.24097	0.16629	0.065514	0.20999	0.18694	-0.82708	-2.1167	-1.6833	-1.6208	-2.3396	-1.5	-1.7604	-2.025	-1.3	-2.1708	-1.8854	-1.5125	-2.175	-1.4604	-1.7646	-2.2479	237.642	77.794	332.447	2.462	312.411	212.627	299.831	340.496	56.971	221.235	280.582	257.463	336.638	24.738	170.621	285.086	0.00064967	0.0009202	0.00015685	929.15	1.0416e-06	1.22e-05	1445.8	301.74	5.9115e-06	4.1635e-06	562.45	218.28	101.75	42.893	4.1321e-06	109.8	0.00034555	0.00036637	0.00010305	860.81	3.722e-06	4.0139e-06	1303.2	276.65	3.6902e-06	4.0942e-06	498.88	194.09	93.776	39.195	3.8674e-06	95.679	250.733	105.016	100.456	-5.517	211.431	142.691	-5.671	-0.295	164.747	58.105	-0.982	4.478	4.759	9.796	210.194	7.765	-8191	255	
8334.975	1	1	0	0	0.23978	0.2569	0.099314	0.17059	0.19744	0.07615	0.11645	0.085345	0.21567	0.14948	0.14647	0.18138	0.086031	0.069301	0.10519	0.13142	-0.9125	-1.9438	-1.8687	-1.4167	-2.3208	-1.5542	-1.8438	-2.4521	-1.3208	-2.1271	-1.9646	-1.1604	-2.275	-1.5229	-1.5125	-2.4708	189.666	116.066	85.254	318.067	262.190	207.952	-10.632	192.249	158.634	299.900	43.889	175.388	287.390	242.623	167.862	252.658	0.00074584	0.0013025	6.4918e-05	938.07	1.0865e-05	7.357e-06	1442.7	301.98	1.3356e-05	6.1393e-06	569.03	219.6	102.68	43.1	1.7748e-06	111.1	0.00034873	0.00037403	9.9572e-05	860.97	3.7778e-06	4.0937e-06	1303.5	276.15	3.7995e-06	4.0985e-06	499.04	194.61	94.259	39.353	3.7992e-06	96.201	238.818	33.707	69.193	-5.715	151.379	150.733	-5.384	-0.213	218.265	70.182	-1.055	4.131	4.836	9.253	147.424	7.977	-8191	255	
8335.072	1	1	0	0	0.087736	0.35743	0.11747	0.17971	0.24259	0.16951	0.4739	0.10833	0.27198	0.11242	0.069128	0.136	0.34998	0.094799	0.20179	0.13242	-1.0979	-1.7979	-1.925	-1.3646	-2.0208	-1.7687	-1.6292	-2.2375	-1.225	-1.8375	-2.2292	-1.6833	-2.2146	-1.675	-1.2958	-2.3896	17.942	82.953	-1.746	-5.402	191.252	88.160	310.132	302.924	55.310	176.711	238.395	2.760	309.082	314.849	43.726	283.460	0.00074524	0.00053014	0.00024203	935.96	8.1124e-06	3.0435e-06	1447.2	302.44	8.8552e-06	1.24e-05	566.4	220.69	102.8	43.276	7.2044e-06	110.78	0.00036425	0.0003729	9.724e-05	861.58	3.9795e-06	3.996e-06	1305.2	276.48	4.0134e-06	4.028e-06	499.92	195.77	94.911	39.355	3.7515e-06	96.377	242.459	55.854	122.682	-5.472	215.444	141.916	-5.563	-0.339	178.972	69.751	-0.981	4.505	4.747	9.689	151.550	7.732	-8191	255	
8335.168	1	1	0	0	0.093393	0.14112	0.091894	0.12962	0.12609	0.090567	0.23569	0.29793	0.15491	0.15727	0.16996	0.1607	0.12873	0.16962	0.27985	0.30558	-1.3292	-1.9646	-2.0125	-1.325	-1.85	-1.8125	-1.7958	-2.4188	-1.5604	-1.8958	-2.1063	-1.5521	-2.1021	-1.9667	-1.5312	-2.4708	280.150	16.155	322.718	247.154	243.556	-3.885	180.916	339.034	83.114	341.802	245.724	221.936	335.291	64.024	332.738	283.504	0.00081435	0.00020421	0.00013265	930.97	1.0103e-05	8.4592e-07	1443.9	300.86	4.7131e-06	7.5061e-06	563.01	219.36	102.26	42.873	5.9652e-06	110.14	0.0003786	0.00035924	9.547e-05	859.64	4.0881e-06	3.9027e-06	1300.1	276.25	4.0525e-06	3.8788e-06	497.57	195.02	94.786	39.064	3.6534e-06	96.016	229.289	328.239	113.078	-5.236	127.091	273.018	-5.678	-0.077	167.764	102.798	-0.825	4.410	4.853	9.555	162.591	7.687	-8191	255	
8335.264	1	1	0	0	0.27848	0.17343	0.23079	0.041634	0.33625	0.24477	0.17267	0.2138	0.21098	0.2333	0.069556	0.05198	0.15769	0.16418	0.20211	0.26867	-1.1167	-1.6042	-1.9438	-1.25	-2.05	-1.8792	-1.6146	-2.2958	-1.6875	-1.2354	-2.1854	-1.3937	-1.9562	-2.1354	-1.3563	-2.5062	221.269	168.185	242.130	282.377	254.852	162.058	325.975	158.976	81.706	116.847	2.914	39.525	279.602	-15.801	267.802	224.715	0.00063671	0.00032532	0.00012764	935.36	6.8506e-06	3.6839e-06	1442	300.99	1.5395e-06	1.4472e-05	567.69	219.02	101.95	42.816	8.3967e-06	109.83	0.00038252	0.00034873	9.492e-05	860.96	4.0455e-06	3.7935e-06	1300	276.52	4.0714e-06	3.7771e-06	497.91	195.05	94.378	38.971	3.6533e-06	96.069	219.010	36.380	113.512	-5.475	201.705	206.791	-5.641	-0.102	101.124	125.693	-0.698	4.219	4.692	9.862	45.435	7.942	-8191	255	
8335.383	1	1	0	0	0.1728	0.35924	0.24968	0.30901	0.17106	0.27589	0.21165	0.33335	0.040973	0.19153	0.074501	0.2673	0.10596	0.18152	0.12987	0.31136	-1.1271	-1.5771	-2.2396	-1.2292	-1.55	-1.9958	-1.5146	-2.3937	-1.7729	-1.5333	-2.3646	-1.6292	-1.8312	-2.2146	-1.3208	-2.2438	121.983	241.399	113.611	-14.953	177.857	143.574	304.836	299.165	255.379	279.558	266.700	318.017	297.719	280.831	-6.516	212.292	0.00078784	0.00043143	1.6365e-06	938.96	7.2649e-06	8.9169e-06	1436.7	299.78	5.2153e-06	3.3547e-06	562.36	219.69	103.08	42.967	3.6689e-06	110.62	0.00037438	0.00034491	9.3853e-05	864.36	4.021e-06	3.7895e-06	1299.3	276.36	4.034e-06	3.7184e-06	497.47	195.42	94.558	39.197	3.6967e-06	96.62	250.511	89.336	307.489	-5.502	174.328	262.455	-5.567	-0.271	106.617	148.182	-0.896	4.463	4.941	9.612	281.180	7.916	-8191	255	
8335.454	1	1	0	0	0.28938	0.11664	0.32474	0.061406	0.14084	0.056524	0.22673	0.37598	0.065046	0.15278	0.24192	0.33064	0.31001	0.40959	0.068071	0.23262	-1.4229	-1.3396	-2.0542	-1.5854	-1.6958	-2.1542	-1.4792	-1.9604	-1.775	-1.1313	-2.4458	-1.7167	-1.9604	-2.3146	-1.3521	-2.1	135.364	203.084	184.831	142.721	68.790	270.605	285.822	278.922	154.961	-2.140	287.541	318.601	295.889	274.848	116.964	311.923	0.00072622	0.0010357	0.00031075	934.51	7.7926e-06	4.9819e-06	1443.7	302.18	8.3051e-06	4.0917e-06	568.74	219.51	102.9	43.268	3.5905e-06	111.61	0.00037107	0.00033674	9.5031e-05	866.11	3.8592e-06	3.6957e-06	1303.1	277.53	3.8187e-06	3.6715e-06	500.26	196.15	94.644	39.302	3.8895e-06	97.335	235.473	59.921	99.901	-5.196	109.712	139.573	-5.518	-0.224	161.976	7.016	-0.667	4.361	4.965	10.034	35.510	7.897	-8191	255	
8335.551	1	1	0	0	0.14094	0.10629	0.13737	0.10881	0.55126	0.30493	0.11185	0.30737	0.10445	0.12519	0.15504	0.26377	0.13521	0.28371	0.28892	0.21742	-1.5542	-1.2417	-2.25	-1.7167	-1.3396	-2.3229	-1.6063	-1.9875	-2.0146	-1.1979	-2.35	-1.8083	-1.5333	-2.2479	-1.3625	-1.9979	277.676	178.263	159.549	2.490	284.882	143.153	250.036	288.535	182.277	93.168	250.256	66.998	179.967	72.078	251.358	265.019	0.00054171	0.00055101	0.00020668	935.52	1.7776e-06	3.364e-06	1442.9	300.42	5.3631e-06	1.0884e-05	564.25	220.15	103.15	42.992	9.723e-06	110.98	0.00036273	0.00033505	9.937e-05	866.02	3.8049e-06	3.7387e-06	1305.9	277.06	3.8639e-06	3.7143e-06	501.13	196.05	94.438	39.141	3.9372e-06	96.639	226.098	59.437	141.407	-5.701	210.167	327.873	-5.413	0.036	131.420	58.741	-0.555	4.255	4.834	9.931	205.429	7.905	-8191	255	
8335.648	1	1	0	0	0.23227	0.42091	0.11724	0.11798	0.31136	0.15196	0.22501	0.18902	0.14538	0.066075	0.38626	0.285	0.1333	0.096741	0.16735	0.38155	-1.7979	-1.2854	-2.1375	-1.75	-1.6229	-2.3604	-1.6875	-1.7729	-1.9125	-1.0604	-2.2146	-2.1	-1.3104	-2.2417	-1.4458	-2.0979	84.501	279.709	37.543	253.288	222.083	122.001	277.134	307.127	38.207	272.253	238.731	324.977	215.001	128.652	203.133	236.371	0.00078872	0.00067132	0.00025151	932.84	2.4093e-06	9.1594e-06	1440.3	301.37	2.4408e-06	4.0013e-06	563.37	219.33	102.58	43.283	5.5315e-06	110.27	0.00034911	0.00032351	0.00010044	863.38	3.6255e-06	3.6202e-06	1305.5	276.28	3.644e-06	3.5871e-06	499.75	194.85	93.899	39.157	3.9621e-06	96.085	233.511	77.404	88.293	-5.460	133.027	108.292	-5.331	0.060	56.412	81.324	-0.654	4.189	4.631	10.095	43.857	7.943	-8191	255	
8335.767	1	1	0	0	0.05354	0.023406	0.3432	0.17895	0.27265	0.35039	0.017372	0.20076	0.10687	0.094865	0.16739	0.3059	0.23329	0.1674	0.20529	0.059539	-1.9083	-1.2687	-1.9937	-2.0667	-1.0812	-2.1708	-1.9146	-1.8563	-2.2812	-1.1417	-1.9729	-2.0896	-1.4458	-2.2979	-1.5792	-1.6375	331.136	22.909	178.780	15.847	100.780	236.646	133.075	209.362	224.223	2.974	-9.471	39.026	259.024	315.726	267.239	277.204	0.00060089	0.0001074	0.00019295	940.64	6.2612e-06	6.9541e-06	1436.3	302.06	7.1192e-06	5.8819e-06	565.91	219.58	102.51	43.309	2.4006e-06	110.96	0.00033946	0.00033487	9.921e-05	861.67	3.5379e-06	3.6889e-06	1302.9	276.81	3.5102e-06	3.6616e-06	499.69	194.63	93.73	39.213	3.8709e-06	96.257	237.305	-5.988	83.813	-5.324	139.942	175.737	-5.888	-0.146	87.913	126.848	-0.664	4.115	5.012	9.517	107.837	8.217	-8191	255	
8335.863	1	1	0	0	0.10974	0.25299	0.128	0.15605	0.1404	0.13815	0.28995	0.065821	0.19774	0.23308	0.17831	0.059397	0.21015	0.59017	0.18687	0.066793	-1.7292	-1.3125	-1.8104	-2.1688	-1.0896	-2.2083	-1.9417	-1.5938	-2.0938	-1.4042	-2	-2.3542	-1.4813	-1.9917	-1.975	-1.8604	50.973	39.736	293.771	7.673	81.984	157.710	291.598	243.600	256.558	69.144	5.305	312.504	279.773	327.987	310.720	257.031	0.00074716	0.00095684	0.00011414	935.7	6.1515e-06	3.6261e-06	1441	301.75	2.1073e-06	6.5293e-06	567.09	219.86	103.17	43.718	2.6162e-06	111.37	0.00032777	0.00034217	9.7405e-05	860.14	3.465e-06	3.762e-06	1303.4	276.32	3.4881e-06	3.7531e-06	499.74	195.41	94.092	39.517	3.7051e-06	96.603	252.079	106.733	108.371	-5.083	135.950	175.539	-5.676	0.023	87.937	123.432	-0.720	4.456	5.078	10.026	154.514	7.852	-8191	255	
8335.960	1	1	0	0	0.44352	0.23946	0.23105	0.21984	0.19777	0.1316	0.15041	0.31159	0.27753	0.1854	0.1127	0.080176	0.23002	0.029464	0.15694	0.3477	-1.8833	-1.3	-1.8875	-2.3271	-1.4312	-1.9292	-2.0521	-1.425	-2.2396	-1.4771	-1.5542	-2.2271	-1.4562	-1.9896	-1.7125	-1.5479	48.964	203.755	-7.041	16.589	241.057	284.670	69.247	224.588	111.921	1.991	249.842	278.122	272.324	266.762	188.417	292.545	0.00054218	0.00021339	0.00010008	939.86	9.4674e-06	7.0971e-06	1439.9	303.98	7.7936e-06	5.9092e-06	565.53	219.47	103.11	43.234	8.263e-07	110.35	0.00033291	0.00034847	9.1729e-05	860.03	3.5393e-06	3.8861e-06	1304.7	277.08	3.6048e-06	3.9192e-06	499.77	195.04	94.253	39.329	3.6988e-06	96.133	244.231	265.160	154.335	-5.071	135.206	135.762	-5.965	-0.178	205.253	110.621	-0.396	4.457	5.122	10.331	332.076	8.042	-8191	255	
8336.080	1	1	0	0	0.20047	0.032303	0.12202	0.087661	0.40655	0.27983	0.41486	0.21952	0.10633	0.11003	0.31531	0.26574	0.24832	0.47863	0.26527	0.5405	-1.6625	-1.65	-1.6313	-2.2875	-1.3896	-1.5375	-2.0167	-1.4542	-2.2083	-1.525	-1.7958	-2.4396	-1.4396	-1.8188	-1.9604	-1.5417	40.431	44.962	81.548	21.474	79.139	48.588	290.969	222.083	30.453	121.461	279.757	334.383	302.766	315.057	43.178	292.241	0.00059183	0.0013178	0.0002813	933.71	1.1382e-05	1.0357e-05	1444.8	301.21	1.262e-05	7.4641e-06	565.34	218.51	102.05	42.746	4.1193e-06	109.97	0.00034791	0.0003595	9.313e-05	857.74	3.7552e-06	3.9133e-06	1299.2	275.39	3.7593e-06	3.8362e-06	496.79	193.72	94.118	39.074	3.5834e-06	95.441	245.125	81.600	67.660	-5.382	144.750	104.583	-5.945	-0.225	184.828	82.717	-0.908	4.048	4.652	9.663	109.937	7.888	-8191	255	
8336.152	1	1	0	0	0.28115	0.16847	0.108	0.1003	0.22567	0.11736	0.39798	0.24146	0.20875	0.16929	0.03951	0.18374	0.28563	0.16342	0.18358	0.32072	-1.6771	-1.7208	-1.325	-2.2062	-1.3062	-1.8062	-2.2875	-1.5917	-2	-1.8729	-1.5021	-2.1562	-1.4708	-2.0667	-2.3104	-1.6833	-15.988	262.831	60.373	70.760	295.414	82.824	296.625	258.944	56.692	218.000	249.574	328.247	280.574	17.701	131.875	330.787	0.00074513	0.00052302	2.9491e-05	931.64	8.4591e-06	5.2272e-06	1436.4	299.1	1.4148e-05	1.0951e-05	560.19	218.05	102.01	42.635	8.7705e-06	109.93	0.00035675	0.00034427	9.0445e-05	855.45	3.8651e-06	3.7641e-06	1294.6	274.42	3.8664e-06	3.7369e-06	495.13	193.76	93.753	38.857	3.5288e-06	95.418	239.820	43.831	11.953	-5.890	166.116	-8.704	-5.785	-0.207	234.672	53.679	-0.958	4.558	4.621	9.752	166.402	7.598	-8191	255	
8336.248	1	1	0	0	0.17621	0.25548	0.17044	0.14933	0.15875	0.10649	0.36082	0.49175	0.060564	0.092031	0.12968	0.48883	0.044495	0.31902	0.1374	0.25084	-1.5792	-1.5896	-1.4688	-2.3542	-1.6042	-1.4312	-2.5417	-1.8	-2.0625	-1.9438	-1.3937	-2.3375	-1.8229	-1.5292	-2.3604	-1.7146	251.508	230.325	249.723	76.984	262.549	237.124	312.825	304.550	160.741	127.048	295.515	341.546	282.864	261.426	97.111	339.919	0.00073864	0.00077205	0.00020059	936.32	6.1153e-06	3.2033e-06	1437.7	299.35	8.1829e-06	5.1106e-06	563.78	218.8	101.96	42.894	1.1638e-05	110.15	0.00036723	0.00033559	8.8928e-05	857.85	3.883e-06	3.6583e-06	1294.3	274.3	3.8918e-06	3.6355e-06	495.2	194.18	93.618	38.819	3.5129e-06	95.963	259.679	47.823	104.320	-5.246	139.376	135.214	-5.717	0.004	119.736	224.705	-0.777	4.730	4.708	9.636	107.202	8.194	-8191	255	
8336.369	1	1	0	0	0.25131	0.13371	0.13555	0.25527	0.20844	0.24822	0.24782	0.15793	0.13128	0.11134	0.09426	0.25471	0.055013	0.42451	0.038304	0.20751	-1.6021	-2.0375	-1.0417	-2.2938	-1.8083	-1.5521	-2.3417	-1.5521	-2.0187	-2.15	-1.5312	-2.2167	-2.0146	-1.4792	-2.1188	-1.7333	52.563	1.683	-9.743	335.374	8.946	71.969	314.207	325.793	278.307	312.194	133.927	219.770	77.588	5.866	153.543	69.207	0.00064247	0.00045941	0.00015274	923.72	2.2364e-06	4.7313e-06	1428.4	295.07	6.2783e-06	2.7247e-06	562.39	220.24	100.93	42.905	7.5657e-06	110.62	0.00035937	0.00033676	8.8742e-05	854.74	3.8901e-06	3.6003e-06	1287.5	272.49	3.8421e-06	3.6655e-06	494.76	195.01	92.755	38.869	3.5668e-06	96.057	246.662	45.146	26.425	-5.222	130.340	150.980	-5.817	0.038	185.189	119.552	-0.643	4.318	4.699	10.219	179.541	8.008	-8191	255	
8336.463	1	1	0	0	0.26289	0.19043	0.24763	0.30667	0.32692	0.077967	0.35909	0.33207	0.28943	0.12452	0.073926	0.20615	0.24839	0.19994	0.35129	0.23569	-1.5646	-2.0333	-1.2729	-2.1896	-1.7521	-1.5583	-2.4146	-1.7854	-1.6396	-2.2333	-1.5021	-2.0938	-2.1521	-1.4562	-2.2042	-1.4583	274.732	90.036	292.498	-14.509	10.415	69.798	298.355	238.029	230.005	98.759	9.339	298.001	325.497	299.282	6.289	241.606	0.00062093	0.00059369	0.00026215	915.24	9.0343e-06	2.3193e-06	1421.3	294.58	1.1764e-06	3.3961e-06	558.76	217.18	99.88	42.433	3.8573e-06	108.99	0.00034988	0.00032605	8.9836e-05	850.09	3.7168e-06	3.5212e-06	1285.4	271.81	3.6946e-06	3.5516e-06	492.69	193.15	91.943	38.437	3.6466e-06	95.184	226.764	71.722	87.516	-5.425	99.510	257.869	-5.581	-0.050	38.403	339.510	-0.816	4.533	4.926	10.368	277.400	7.809	-8191	255	
8336.559	1	1	0	0	0.19296	0.25636	0.16643	0.071523	0.11068	0.12136	0.28503	0.33852	0.041014	0.021101	0.23952	0.30307	0.087303	0.25402	0.11427	0.12601	-1.0708	-2.2354	-1.3208	-2.1979	-1.8958	-1.2188	-2.3563	-1.6	-1.4229	-2.2208	-1.6604	-2.1562	-1.825	-1.2812	-2.1792	-1.8813	184.251	275.928	292.277	25.561	72.328	132.663	308.195	282.546	253.256	-12.265	274.580	231.115	284.867	250.432	40.652	301.435	0.00056315	0.00051893	7.5323e-05	919.6	7.3075e-06	1.1371e-05	1418.3	294.31	5.8738e-06	1.239e-05	559.59	216.17	99.975	42.221	1.0819e-05	108.62	0.00033926	0.00032216	9.1325e-05	849.83	3.6238e-06	3.4964e-06	1284.5	271.05	3.5753e-06	3.5274e-06	492.63	192.51	91.963	38.269	3.8316e-06	94.903	238.090	56.534	55.034	-5.076	56.526	56.349	-5.311	-0.087	126.648	114.823	-0.505	4.819	4.849	10.323	128.240	7.821	-8191	255	
8336.680	1	1	0	0	0.18302	0.15802	0.32397	0.090207	0.25008	0.24483	0.1322	0.279	0.18626	0.058272	0.067375	0.23768	0.15494	0.13022	0.090655	0.31036	-0.90833	-2.0854	-1.3917	-2.0563	-1.9521	-1.5458	-2.3521	-1.6333	-1.6292	-2.2125	-1.5417	-1.9438	-2.3792	-1.5458	-1.9708	-1.9542	174.602	212.908	244.683	23.448	69.768	264.528	247.209	208.001	56.786	111.372	230.740	-16.897	228.466	318.068	94.834	246.951	0.00067453	0.00053962	0.00012164	925.15	1.0422e-05	8.4352e-06	1423.7	294.87	1.9053e-06	4.2414e-06	559.17	217.57	100.12	42.027	1.1879e-05	109.4	0.00034024	0.00032754	9.8301e-05	852.97	3.6521e-06	3.5365e-06	1289.5	271.3	3.6313e-06	3.633e-06	494.48	192.76	91.83	38.277	3.908e-06	95.13	221.344	117.357	15.076	-5.199	178.707	171.424	-5.807	0.048	98.859	135.773	-0.462	4.374	4.869	9.727	141.479	7.656	-8191	255	
8336.752	1	1	0	0	0.047722	0.25349	0.23103	0.25882	0.29052	0.15247	0.27348	0.16317	0.081328	0.17741	0.45616	0.15125	0.23409	0.11218	0.228	0.35222	-1.1375	-2.225	-1.6104	-1.8854	-2.0104	-0.99375	-2.2625	-1.9771	-1.2875	-2.3792	-1.6208	-1.9417	-2.1729	-1.5896	-1.9646	-2.0375	171.390	-4.855	53.208	43.668	135.463	2.283	272.646	303.263	107.232	-12.491	223.231	288.944	318.748	266.578	288.355	274.400	0.00058759	0.00059723	0.00011787	913.25	7.562e-06	8.7657e-06	1426.4	297.07	4.9271e-06	8.1083e-06	557.64	216.27	100.44	41.948	2.1101e-06	108.2	0.00033602	0.00032938	9.9502e-05	847.64	3.5746e-06	3.6297e-06	1291.1	271.76	3.5568e-06	3.7286e-06	494.71	192.38	92.052	38.247	4.0752e-06	94.782	253.817	128.557	12.493	-5.444	143.169	121.783	-5.986	-0.968	191.263	137.357	-1.561	3.706	4.135	9.068	63.802	6.968	-8191	255	
8336.848	1	1	0	0	0.23227	0.12598	0.36285	0.1994	0.20354	0.086447	0.36922	0.22448	0.27254	0.13226	0.09857	0.15955	0.1676	0.2416	0.17065	0.2001	-0.97917	-2.2479	-1.4833	-1.3146	-2.1521	-1.0625	-1.7708	-2.2458	-1.3333	-2.0375	-1.7062	-1.5958	-2.2979	-1.2542	-1.7021	-2.2479	275.640	-17.267	206.732	294.637	224.803	134.829	308.021	146.623	88.228	258.616	225.350	197.320	321.535	26.323	152.896	-18.583	0.00073592	0.00062839	0.00017149	923.78	1.6139e-06	6.1099e-06	1427.4	293.89	5.761e-06	4.8928e-06	552.37	214.68	99.93	41.704	6.561e-06	108.4	0.00034868	0.00036471	0.00010657	850.96	3.7876e-06	4.0334e-06	1293.9	270.79	3.7046e-06	4.0342e-06	493.1	191.53	91.975	38.322	3.9667e-06	94.559	236.449	137.885	61.722	-6.260	159.824	113.287	-6.194	-0.754	113.021	61.472	-1.331	3.720	4.234	9.033	102.722	7.011	-8191	255	
8336.968	1	1	0	0	0.2659	0.030236	0.17838	0.11076	0.1385	0.34003	0.29377	0.27522	0.1604	0.08504	0.12873	0.19351	0.11673	0.10799	0.26466	0.06893	-0.66042	-1.9562	-1.8979	-1.3354	-2.1208	-1.4813	-1.9667	-2.1208	-1.2875	-2.2208	-2.1917	-1.3229	-2.2062	-1.5125	-1.5979	-2.2583	33.888	56.037	298.663	227.783	265.544	218.480	280.847	237.096	127.082	16.410	161.369	317.572	130.229	286.841	199.236	177.131	0.00061162	0.00033112	3.1472e-05	921.05	6.7423e-06	1.053e-05	1420.2	294.44	8.2719e-06	3.9055e-06	556.04	215.83	100.12	41.615	4.2638e-06	107.79	0.000348	0.00036907	0.00010153	846.55	3.7721e-06	4.1178e-06	1286.2	270.72	3.7752e-06	4.1382e-06	492.45	191.29	92.063	38.199	3.8661e-06	94.184	248.438	102.056	288.741	-5.898	90.176	117.039	-6.150	-0.891	181.991	193.099	-1.341	3.960	4.306	9.049	164.815	7.092	-8191	255	
8337.064	1	1	0	0	0.24556	0.046882	0.24983	0.30194	0.28033	0.1207	0.25038	0.13015	0.3717	0.096227	0.47267	0.30473	0.14944	0.11397	0.06782	0.38154	-0.76042	-1.9604	-1.8896	-1.5396	-2.3542	-1.5583	-1.5979	-2.3438	-1.2708	-1.9	-2.1271	-1.3979	-2.075	-1.5667	-1.4583	-2.4625	223.753	262.920	210.292	273.657	269.834	197.271	255.066	310.858	107.542	158.991	310.787	334.141	109.304	124.221	185.238	7.698	0.0007395	0.0013892	8.2017e-05	912.78	1.091e-05	3.7167e-06	1417.4	293.22	6.3523e-06	6.0381e-06	553.47	214.82	99.611	41.889	1.16e-05	108.42	0.00036191	0.00037746	9.9535e-05	844.24	3.9523e-06	4.1258e-06	1285.8	269.67	3.952e-06	4.1319e-06	491.35	191.16	92.198	38.316	3.8464e-06	94.494	220.918	68.349	73.497	-5.908	157.123	32.190	-6.080	-0.713	188.531	211.284	-1.381	3.717	4.093	9.244	87.791	7.173	-8191	255	
8337.161	1	1	0	0	0.33642	0.2545	0.11274	0.2725	0.084994	0.055603	0.058632	0.17736	0.39462	0.21631	0.17771	0.19468	0.20989	0.18792	0.1973	0.2353	-0.92083	-1.7083	-1.7875	-1.2875	-2.0417	-1.8646	-1.5479	-2.3354	-1.3479	-1.5417	-2.0729	-1.325	-2.1625	-1.7875	-1.3062	-2.4917	48.207	208.273	31.817	339.002	-5.818	117.727	314.209	340.838	317.113	206.525	170.436	183.590	21.286	274.553	232.689	265.507	0.00071909	0.00047436	0.00020297	917.18	2.5723e-06	2.3261e-06	1426.5	293.36	9.4804e-06	3.4279e-06	559.86	216.16	99.581	42.086	8.132e-06	108.88	0.00037989	0.00036973	9.707e-05	844.84	4.0641e-06	4.0058e-06	1286.7	269.77	4.0705e-06	3.9718e-06	493.17	191.98	92.347	38.453	3.6824e-06	95.155	235.153	91.550	141.438	-5.868	204.984	141.070	-6.064	-0.908	180.400	148.066	-1.591	3.869	4.429	9.170	45.439	7.145	-8191	255	
8337.257	1	1	0	0	0.17457	0.17447	0.28093	0.16123	0.050478	0.037147	0.21744	0.33175	0.097562	0.18557	0.078916	0.39445	0.12065	0.10933	0.094127	0.38524	-0.89583	-1.5125	-2.0021	-1.375	-1.8625	-1.725	-1.4125	-2.1583	-1.5083	-1.5417	-2.1729	-1.5125	-2.0229	-1.9854	-1.25	-2.4083	221.270	101.871	256.643	242.275	175.334	41.541	263.476	286.818	14.748	309.048	-2.778	336.356	244.470	218.771	243.896	321.673	0.00066734	0.00017633	0.00019621	916.59	1.2259e-05	9.6157e-07	1422.3	296.03	4.5981e-06	5.0185e-06	557.83	216.54	100.14	42.136	2.2249e-06	108.77	0.00037941	0.00034908	9.3828e-05	847.18	4.1334e-06	3.9224e-06	1288.6	272.1	4.1712e-06	3.8865e-06	493.34	192.75	92.691	38.303	3.7071e-06	95.176	222.965	1.317	111.430	-6.051	144.234	61.971	-6.290	-0.893	160.698	322.820	-1.248	3.757	4.197	9.213	46.310	7.303	-8191	255	
8337.351	1	1	0	0	0.084205	0.23818	0.18128	0.26373	0.12324	0.088624	0.012133	0.36531	0.097832	0.18539	0.11027	0.34256	0.029803	0.3697	0.42998	0.14903	-1.1229	-1.2521	-1.8917	-1.4042	-2.0062	-1.925	-1.2396	-2.0292	-1.5917	-1.3396	-2.1625	-1.4167	-1.7354	-2.1104	-1.2625	-2.1958	288.625	61.796	297.371	264.024	286.517	-0.707	325.309	294.673	-18.498	14.249	254.807	244.559	336.715	267.675	318.341	282.879	0.00055352	0.0012023	0.00020272	918.87	3.069e-06	3.4156e-06	1419.4	293.52	5.7341e-06	6.4143e-06	556.94	216.24	99.06	42.121	6.0288e-06	108.41	0.00038711	0.0003519	9.7105e-05	848.62	4.1474e-06	3.9491e-06	1284.8	271.21	4.1377e-06	3.8733e-06	492.43	192.76	91.98	38.352	3.7241e-06	95.047	237.861	77.493	111.536	-5.799	9.040	62.294	-6.065	-0.746	131.681	155.424	-1.243	3.912	4.603	9.598	44.439	7.286	-8191	255	
8337.447	1	1	0	0	0.085943	0.22423	0.27853	0.23175	0.094942	0.044232	0.25348	0.10889	0.25752	0.089956	0.21415	0.19358	0.096953	0.34856	0.20604	0.38434	-1.2146	-1.0458	-2.1708	-1.7167	-1.7646	-1.9479	-1.5312	-1.9312	-1.8083	-1.1437	-2.3167	-1.5708	-1.6375	-2.2083	-1.1479	-2.0479	175.473	129.648	71.273	240.362	79.270	341.021	280.633	333.798	210.328	183.660	310.926	326.456	180.000	317.844	93.834	311.393	0.00061464	0.00065286	6.153e-05	910.06	2.8593e-06	3.6345e-06	1419.2	295.18	3.188e-06	1.1488e-05	559.29	215.87	99.745	42.156	4.3156e-06	108.53	0.0003776	0.0003469	9.5984e-05	848.41	3.9111e-06	3.8001e-06	1284.5	271.41	3.8882e-06	3.6952e-06	493.25	192.54	91.923	38.325	3.743e-06	95.181	239.857	147.161	131.242	-6.135	56.771	134.118	-6.228	-0.516	162.903	131.128	-1.520	3.652	4.351	9.492	225.080	7.481	-8191	255	
8337.543	1	1	0	0	0.20852	0.12617	0.27553	0.29016	0.22272	0.11574	0.50357	0.18544	0.32904	0.097565	0.11164	0.18804	0.11541	0.029054	0.14441	0.23309	-1.4479	-1.1458	-2.1375	-1.4708	-1.4937	-2.2521	-1.3229	-2.0229	-1.7375	-1.1208	-2.2958	-1.7396	-1.3625	-2.2083	-1.2729	-2.0938	59.672	118.782	91.743	-7.015	179.728	207.500	235.978	290.725	-9.292	60.582	131.640	261.815	14.706	-13.273	146.815	275.204	0.00067918	7.1519e-05	9.7434e-05	912.29	5.1294e-06	3.3132e-06	1425.2	294.43	2.9257e-06	4.4206e-06	557.72	217.06	99.755	42.421	4.6308e-06	109.46	0.00035814	0.00033499	9.672e-05	847.05	3.7776e-06	3.6755e-06	1288.3	271.35	3.839e-06	3.6348e-06	493.59	193.63	91.738	38.429	3.8955e-06	95.691	240.946	134.674	94.821	-5.632	135.692	172.852	-6.044	-0.637	146.225	168.811	-1.152	3.664	4.484	9.518	163.818	7.373	-8191	255	
8337.640	1	1	0	0	0.16422	0.41529	0.031187	0.37053	0.49214	0.087712	0.26011	0.17029	0.14274	0.096482	0.33094	0.27169	0.30048	0.12871	0.22659	0.32924	-1.5375	-1.4	-2.0229	-1.6229	-1.3833	-2.1271	-1.3083	-1.7125	-1.9583	-1.3708	-1.9833	-1.9771	-1.6229	-2.3917	-1.3396	-1.95	114.976	272.566	26.580	272.835	206.705	63.562	308.911	255.751	216.604	21.451	285.456	244.231	212.702	49.821	179.777	287.875	0.00071066	0.00052813	0.00019466	914.73	4.7024e-06	6.2368e-06	1435.5	293.37	3.3467e-06	6.0056e-06	561.23	217.66	100.03	42.456	1.3045e-05	110.29	0.00035283	0.00032927	9.9414e-05	847.31	3.6944e-06	3.6422e-06	1293.7	271	3.6843e-06	3.6357e-06	497.63	193.71	91.887	38.582	3.955e-06	96.189	250.242	131.042	154.901	-6.117	86.701	134.256	-6.536	-0.693	168.562	121.728	-1.230	3.981	4.207	9.520	137.265	7.260	-8191	255	
8337.760	1	1	0	0	0.1588	0.15121	0.16328	0.21976	0.29969	0.34669	0.042596	0.039265	0.19071	0.27063	0.22525	0.053797	0.31039	0.31152	0.16648	0.18547	-1.6271	-1.1417	-1.8583	-2.0062	-1.2313	-1.9458	-1.5812	-1.4771	-1.9083	-1.3896	-1.9917	-1.9042	-1.2979	-2.0458	-1.4271	-1.6208	42.206	218.949	120.935	17.917	182.042	56.487	276.503	60.203	15.250	7.656	329.951	224.435	317.708	306.068	115.359	189.831	0.00071515	0.00027859	0.00011839	920.14	1.0274e-05	7.2087e-06	1424.1	295.63	6.5068e-06	4.4223e-06	563.98	216.76	100.17	42.344	5.7439e-06	109.34	0.00034553	0.00033238	0.00010135	846.93	3.6047e-06	3.6849e-06	1291.1	271.02	3.6517e-06	3.6963e-06	496.78	193.09	91.682	38.548	4.0152e-06	95.294	248.450	29.614	138.768	-6.162	134.853	126.899	-6.184	-0.433	109.490	104.999	-1.053	3.658	4.363	9.630	176.025	7.459	-8191	255	
8337.856	1	1	0	0	0.27471	0.17617	0.19034	0.061795	0.067031	0.28531	0.13025	0.064398	0.14663	0.15882	0.16194	0.12177	0.18503	0.16577	0.11199	0.18376	-1.9104	-1.3958	-1.8917	-1.9062	-1.1625	-1.9813	-1.6562	-1.4667	-2.2021	-1.4771	-1.9312	-2.2292	-1.1979	-2.0687	-1.55	-1.45	246.932	94.807	150.149	-16.188	-13.101	283.983	313.923	257.437	295.769	329.313	6.140	331.948	-7.331	311.745	10.382	288.835	0.00051515	0.00099856	0.00014891	917.43	3.607e-06	3.8025e-06	1420.5	295.23	6.2595e-06	6.1785e-06	557.86	216.5	99.774	42.033	6.7243e-06	109.86	0.00034541	0.00034788	0.00010136	842.69	3.6031e-06	3.8395e-06	1288.2	270.17	3.6067e-06	3.8383e-06	495.27	192.43	91.382	38.498	3.8344e-06	95.211	243.499	97.586	109.070	-5.872	-1.718	282.346	-6.120	-0.723	152.892	117.387	-1.113	3.903	4.194	9.462	103.241	7.357	-8191	255	
8337.953	1	1	0	0	0.062387	0.30165	0.117	0.34621	0.1789	0.043051	0.19252	0.27136	0.43141	0.048292	0.19831	0.16718	0.075601	0.09448	0.27719	0.23106	-2.0229	-1.3833	-1.6875	-2.0917	-1.2083	-1.9562	-1.7958	-1.3563	-2.3146	-1.5708	-1.8979	-2.2708	-1.3438	-2.1958	-1.7833	-1.3521	-0.199	341.014	265.006	194.074	-18.085	51.131	248.043	267.800	118.819	173.236	326.568	-15.023	97.274	334.478	322.846	315.331	0.00061997	0.0011769	2.2082e-05	924.03	9.3235e-06	4.3238e-06	1423.6	295.83	3.4193e-06	3.9196e-06	562.54	217.47	99.808	42.334	1.0117e-05	109.28	0.00033505	0.00035027	9.6793e-05	846.99	3.5961e-06	3.9348e-06	1287.2	270.52	3.6717e-06	3.9518e-06	496.12	192.86	91.748	38.708	3.7582e-06	95.387	239.051	129.108	113.416	-5.710	130.545	203.404	-6.172	-0.655	200.445	170.489	-1.122	3.753	4.478	9.867	103.006	7.597	-8191	255	
8338.049	1	1	0	0	0.12915	0.11079	0.17502	0.20964	0.10275	0.16419	0.31842	0.11623	0.034311	0.17312	0.36182	0.27118	0.079172	0.22555	0.23128	0.39422	-1.4813	-1.4688	-1.7042	-2.2354	-1.3792	-1.9771	-1.9312	-1.4646	-1.8604	-1.5333	-1.6083	-2.3271	-1.1896	-1.7812	-1.8042	-1.2417	42.121	57.201	66.813	286.938	-14.766	314.642	280.776	252.020	215.689	48.790	320.558	-5.091	312.637	321.752	161.427	250.693	0.0005676	0.0007505	0.00017389	922.28	9.6446e-06	4.1188e-06	1430.1	297.24	9.6639e-06	7.2553e-06	564.26	218.07	100.59	42.486	8.2951e-06	110.23	0.00034296	0.0003598	9.366e-05	846	3.5944e-06	3.8898e-06	1293.8	270.99	3.7493e-06	3.9061e-06	497.21	193.59	92.308	38.792	3.7178e-06	95.893	241.169	46.717	112.751	-6.242	203.597	201.156	-6.304	-0.579	143.846	184.015	-0.891	4.030	4.709	9.565	192.265	7.541	-8191	255	
8338.145	1	1	0	0	0.11906	0.32044	0.2683	0.2156	0.1863	0.18675	0.27221	0.042915	0.20942	0.1296	0.30936	0.53254	0.20903	0.081644	0.25411	0.18177	-1.8521	-1.7646	-1.2812	-2.1375	-1.3271	-1.6125	-2.2708	-1.25	-2.3396	-1.6187	-1.4583	-2.1604	-1.3917	-1.8333	-1.9813	-1.2771	221.578	15.187	50.398	318.529	76.989	273.748	288.496	275.472	218.279	184.191	-9.126	300.881	303.095	264.073	151.676	247.467	0.00066152	0.00054617	0.00018171	920.38	8.0124e-06	7.4387e-06	1423.2	296.19	1.6414e-05	5.6106e-06	563.65	218.81	100.36	42.194	6.8966e-06	109.98	0.00036133	0.00035436	9.2865e-05	845.69	3.855e-06	3.8628e-06	1291.1	271.01	3.913e-06	3.8348e-06	496.63	193.67	92.657	38.517	3.585e-06	95.6	219.412	25.517	95.786	-5.573	163.847	144.373	-6.036	-0.465	200.674	60.515	-1.082	3.830	4.125	9.766	93.219	7.535	-8191	255	
8338.241	1	1	0	0	0.18308	0.12985	0.29844	0.18506	0.14703	0.23899	0.25206	0.3041	0.11295	0.10469	0.19503	0.19317	0.17592	0.26621	0.096381	0.13421	-1.5125	-1.7021	-1.1938	-2.0875	-1.4125	-1.3542	-2.3563	-1.4438	-1.8687	-1.7708	-1.4438	-2.2438	-1.6146	-1.6729	-2.3354	-1.3146	144.797	223.647	185.708	267.069	254.593	145.252	290.856	316.265	-14.336	61.251	327.313	289.036	73.976	334.601	292.253	262.104	0.00068039	0.00017348	0.00021824	925.34	6.8429e-06	7.4665e-06	1426.5	295.27	6.9078e-06	1.0202e-05	557.57	217.65	99.715	42.553	6.9528e-06	109.57	0.00036574	0.00034276	8.935e-05	850.07	3.8762e-06	3.6968e-06	1290.7	271.77	3.9636e-06	3.7552e-06	494.04	193.1	92.592	38.591	3.6345e-06	95.504	232.250	53.495	109.378	-5.957	156.121	73.273	-6.098	-0.519	212.082	107.606	-0.980	4.280	4.995	9.650	229.491	7.468	-8191	255	
8338.362	1	1	0	0	0.067338	0.29189	0.32987	0.17922	0.47584	0.19474	0.33299	0.21248	0.31048	0.19198	0.35947	0.19252	0.38934	0.15963	0.18691	0.14456	-1.4813	-1.8208	-1.1875	-2.1542	-1.6375	-1.5792	-2.2958	-1.3521	-1.8604	-1.7812	-1.2687	-2.3354	-1.6583	-1.5646	-2.0563	-1.5063	172.846	82.590	49.656	47.628	53.682	264.928	274.690	-0.142	137.175	200.392	315.195	-6.942	-6.380	322.646	144.515	255.629	0.00060228	0.00065559	0.00018203	930.36	5.4253e-06	1.2385e-05	1428.3	297.39	4.4341e-06	7.2143e-06	563.31	217.58	100.92	42.251	5.7056e-06	109.76	0.00037157	0.00033945	9.0493e-05	853.22	3.9144e-06	3.6512e-06	1290.5	272.46	3.8642e-06	3.6451e-06	494.55	193.86	92.578	38.545	3.5061e-06	95.701	245.656	-1.459	140.121	-5.710	100.943	116.628	-5.838	-0.620	-8.488	-12.064	-1.300	4.633	4.453	9.885	143.341	7.731	-8191	255	
8338.456	1	1	0	0	0.21851	0.16772	0.051121	0.12014	0.074827	0.30954	0.15886	0.45711	0.17614	0.26877	0.14651	0.23716	0.22661	0.18648	0.15413	0.33497	-1.4917	-2.1646	-1.3062	-2.1229	-1.6354	-1.2104	-2.3167	-1.6021	-1.7292	-2	-1.1625	-2.1458	-1.9521	-1.2583	-2.3021	-1.5625	301.937	0.327	85.737	225.925	123.885	142.933	194.502	305.895	197.343	12.341	333.529	247.719	106.300	17.522	74.739	254.306	0.00059715	0.00051319	0.00017457	926.12	4.568e-06	6.569e-06	1433.3	296.05	5.8436e-06	6.0832e-06	560.19	218.59	100.58	42.359	3.9732e-06	110.02	0.00035453	0.0003268	8.8475e-05	855.46	3.7784e-06	3.5615e-06	1293.6	273.19	3.7682e-06	3.6131e-06	495.11	194.16	92.676	38.576	3.6539e-06	96.058	229.185	70.078	72.599	-5.704	61.659	79.518	-6.054	-0.475	184.045	118.304	-1.176	4.133	4.430	9.437	178.035	7.442	-8191	255	
8338.552	1	1	0	0	0.26186	0.14984	0.18557	0.33417	0.33297	0.24432	0.24227	0.060552	0.17866	0.16633	0.14257	0.3465	0.15593	0.3265	0.062897	0.35726	-1.1896	-1.8583	-1.1729	-2.0146	-1.7417	-1.3708	-2.3625	-1.7354	-1.4583	-2.0625	-1.3167	-1.8854	-1.975	-1.5396	-2.0104	-1.8042	267.557	101.838	7.090	302.054	25.570	272.530	255.357	300.223	-15.305	61.162	331.283	311.957	259.703	287.516	149.506	-10.384	0.000556	0.00062125	0.00011296	930.99	4.147e-06	1.4448e-05	1429.4	297.8	7.0738e-06	3.7403e-06	564.27	218.76	100.69	42.463	8.0096e-06	109.82	0.0003545	0.00033107	9.3566e-05	858.06	3.7926e-06	3.6486e-06	1298.5	273.64	3.7424e-06	3.6839e-06	498.11	194.92	92.741	38.548	3.7989e-06	95.976	236.783	120.052	92.786	-5.247	75.011	146.065	-5.760	-0.444	95.242	219.809	-1.141	4.084	4.488	9.504	127.517	7.700	-8191	255	
8338.624	1	1	0	0	0.050741	0.21487	0.14143	0.13638	0.22013	0.28296	0.32756	0.20192	0.11544	0.11355	0.22052	0.29338	0.2962	0.20532	0.03308	0.37639	-1.2083	-2.3667	-1.1667	-1.8646	-1.7771	-1.2687	-2.2167	-1.7771	-1.6104	-2.1729	-1.4229	-1.8792	-2.0812	-1.3604	-2.0896	-1.9708	197.095	240.902	230.297	74.169	139.636	168.263	264.115	276.367	209.551	226.768	175.737	306.275	-3.969	255.652	213.062	282.601	0.00068098	0.00024955	0.00019494	924.06	4.7665e-06	8.2036e-06	1431.3	296.92	5.04e-06	9.7149e-07	558.29	217.39	100.41	42.388	6.399e-06	109.11	0.00034721	0.00032884	9.7445e-05	853.81	3.6969e-06	3.5562e-06	1298.3	273.17	3.6392e-06	3.618e-06	496.07	193.45	92.286	38.495	3.8951e-06	95.347	239.715	25.108	170.998	-5.613	140.746	121.579	-6.093	-0.319	139.792	300.512	-0.841	4.185	4.806	9.479	202.687	7.661	-8191	255	
8338.744	1	1	0	0	0.032629	0.22027	0.13702	0.15042	0.17865	0.1212	0.34075	0.12098	0.081256	0.0542	0.070081	0.18564	0.13274	0.1497	0.19374	0.52766	-0.94792	-2.275	-1.325	-1.8563	-2.1646	-1.1833	-2.2875	-1.8104	-1.3042	-2.1792	-1.5625	-1.8438	-2.1375	-1.2563	-1.7292	-1.9354	278.142	122.304	4.557	334.430	160.392	67.666	272.073	297.165	152.800	266.327	269.380	7.292	284.214	11.016	32.494	246.834	0.00068232	0.00082986	0.00011108	927.46	8.4589e-06	4.4373e-06	1433.7	296.58	4.4167e-06	7.8265e-06	555.24	218.07	100.01	42.375	2.7e-06	109.4	0.00033918	0.00033096	9.9986e-05	853.84	3.6273e-06	3.5875e-06	1299	272.49	3.6e-06	3.6737e-06	494.75	193.07	91.861	38.379	3.9325e-06	95.343	235.285	60.341	151.501	-5.454	111.285	116.704	-5.932	-0.474	142.141	115.584	-1.202	4.362	4.621	9.630	205.380	7.443	-8191	255	
8338.841	1	1	0	0	0.1738	0.21392	0.20007	0.14263	0.031519	0.40168	0.23313	0.11507	0.29287	0.13706	0.32306	0.48801	0.18446	0.14066	0.1952	0.050023	-0.96667	-1.9896	-1.4771	-1.6667	-2.075	-1.0833	-2.1292	-1.8188	-1.2083	-2.2062	-1.8375	-1.6187	-2.3438	-1.5521	-1.7646	-2.1729	185.337	107.125	87.883	81.498	203.362	52.849	182.952	233.149	336.386	316.151	1.170	306.539	309.396	310.444	38.861	193.042	0.00063066	0.0004417	9.8872e-05	923.43	7.8325e-06	9.4411e-06	1429.1	297.86	5.9404e-06	6.4993e-06	560.65	218.79	100.26	42.304	5.4727e-06	109.75	0.00033182	0.00033705	0.0001002	851.85	3.5935e-06	3.7133e-06	1298.4	272.93	3.4864e-06	3.807e-06	496.45	193.44	92.184	38.509	3.8433e-06	95.453	237.518	148.927	113.092	-5.853	136.327	108.291	-6.151	-0.428	58.088	145.695	-1.182	3.900	4.824	9.484	100.343	7.536	-8191	255	
8338.937	1	1	0	0	0.22491	0.21897	0.01321	0.40119	0.21281	0.22871	0.1133	0.41373	0.2301	0.18163	0.072174	0.2588	0.080429	0.31994	0.32242	0.32428	-0.89375	-2.0062	-1.475	-1.4042	-2.0396	-1.3729	-2.0312	-2.2812	-1.1313	-2.0521	-1.6562	-1.2062	-2.1792	-1.3875	-1.675	-2.3896	109.805	-15.106	-4.112	305.587	316.478	246.792	260.474	274.530	178.582	184.788	289.358	249.990	-6.875	212.994	72.688	305.189	0.00059143	0.00039748	0.00016271	926.28	3.9831e-06	6.4833e-06	1437.9	297.52	7.3534e-06	6.2126e-06	557.78	218.62	99.807	42.119	7.6573e-06	109.43	0.00033254	0.00035357	9.806e-05	852.49	3.5841e-06	3.9138e-06	1298.9	273.32	3.6139e-06	3.9354e-06	495.61	193.55	92.114	38.493	3.7888e-06	95.48	240.369	175.179	1.202	-5.572	82.659	123.022	-5.945	-0.667	210.850	95.292	-0.986	4.277	4.559	9.531	96.344	7.558	-8191	255	
8339.033	1	1	0	0	0.11464	0.42199	0.25286	0.18676	0.2837	0.10308	0.25576	0.21802	0.017759	0.32514	0.15681	0.31377	0.12026	0.11743	0.12969	0.21066	-0.94792	-1.8396	-1.9188	-1.3333	-2.2062	-1.4958	-1.8708	-2.1958	-1.375	-2.075	-2.0333	-1.3167	-2.1042	-1.8021	-1.6583	-2.3646	61.436	155.279	1.477	191.332	64.917	303.979	242.744	208.731	78.317	120.909	20.609	71.205	291.672	272.239	58.557	230.141	0.00082201	0.00051121	6.5785e-05	931.29	1.1197e-05	9.7464e-06	1431	296.71	3.7816e-06	5.8204e-06	558.16	216.13	100.1	42.017	4.3154e-06	108.74	0.00034291	0.0003642	9.5271e-05	851.86	3.7531e-06	3.9797e-06	1294.3	271.46	3.7006e-06	3.9576e-06	493.51	191.7	92.062	38.368	3.629e-06	94.551	232.196	73.279	149.971	-5.449	197.261	106.527	-5.497	-0.350	188.661	50.187	-1.022	4.434	4.621	9.621	97.161	7.602	-8191	255	
8339.154	1	1	0	0	0.088656	0.089568	0.096128	0.19086	0.22598	0.097901	0.20163	0.23903	0.17128	0.1134	0.093788	0.25007	0.1897	0.1771	0.068844	0.35107	-0.89583	-1.8687	-1.9375	-1.3	-2.1	-1.7667	-1.4771	-2.2292	-1.1938	-1.8729	-1.9937	-1.4271	-2.0208	-2.0417	-1.3312	-2.3292	15.471	322.365	232.729	-3.845	330.247	254.027	312.627	2.243	8.482	78.819	7.646	208.175	156.307	139.217	261.070	258.194	0.00076871	0.00032222	0.00012767	926.15	4.2455e-06	9.5011e-06	1427	295.69	1.0679e-05	3.4925e-07	555.79	215.67	100.84	41.904	7.4806e-06	108.51	0.00035257	0.00035404	9.2926e-05	846.5	3.8181e-06	3.8947e-06	1291.7	271.01	3.8444e-06	3.8343e-06	491.43	191.55	92.321	38.164	3.5763e-06	94.453	243.460	32.291	28.615	-5.638	104.238	137.599	-5.686	-0.529	215.977	70.990	-0.758	4.329	5.010	10.027	116.003	7.506	-8191	255	
8339.248	1	1	0	0	0.28865	0.28102	0.0767	0.064607	0.11132	0.20771	0.2421	0.17055	0.076835	0.22779	0.28181	0.069064	0.14403	0.12492	0.053138	0.37849	-0.86667	-1.5312	-1.8875	-1.3687	-2.1125	-1.8833	-1.3708	-2.2896	-1.6125	-1.6792	-2.3063	-1.2313	-1.95	-1.9	-1.1437	-2.2812	280.951	298.348	318.546	-8.275	235.138	290.308	210.785	330.914	76.828	128.449	4.665	244.886	11.417	64.771	318.646	288.992	0.00069388	0.00021563	0.0001997	924.24	1.1534e-05	4.8919e-06	1438.4	295.6	7.8282e-06	9.3681e-06	557.82	216.18	99.709	41.99	4.5332e-06	107.85	0.00036334	0.00034352	9.2055e-05	845.51	3.9219e-06	3.7417e-06	1292.9	271.21	3.9916e-06	3.7257e-06	491.74	191.72	92.098	38.013	3.5677e-06	94.373	215.812	149.460	152.272	-5.544	150.238	147.636	-5.903	-0.487	121.168	42.183	-1.437	4.225	4.912	9.176	172.470	7.402	-8191	255	
8339.321	1	1	0	0	0.12954	0.12777	0.32834	0.16165	0.33374	0.11094	0.21903	0.23515	0.44099	0.11722	0.087067	0.36953	0.014899	0.13066	0.34299	0.22874	-1.1958	-1.3042	-2.1229	-1.6146	-2.05	-1.8563	-1.4958	-2.2125	-1.5562	-1.4875	-2.3229	-1.5646	-1.9604	-1.8937	-1.1271	-2.1188	225.637	117.138	110.797	277.123	299.165	79.700	296.830	299.106	-17.922	338.650	20.569	305.248	195.876	309.062	130.629	263.617	0.00070391	0.00048293	0.00011421	922.53	9.9443e-06	7.9594e-08	1427.9	294.88	9.9813e-06	4.0835e-06	556.4	217.08	99.742	41.772	7.1846e-06	108.7	0.00037024	0.00033413	9.2109e-05	848.04	3.9773e-06	3.7278e-06	1289.4	271.35	3.947e-06	3.6929e-06	491.7	192.28	91.916	37.983	3.5942e-06	94.877	245.996	42.544	34.345	-5.633	84.548	135.103	-5.906	-0.410	131.098	175.062	-1.079	4.127	4.495	9.337	126.953	7.739	-8191	255	
8339.442	1	1	0	0	0.22579	0.14113	0.15436	0.2059	0.16835	0.23057	0.16008	0.2548	0.13444	0.32151	0.042355	0.1701	0.21808	0.30215	0.071484	0.3733	-1.2	-1.3604	-2.3542	-1.7333	-1.7583	-1.7229	-1.4917	-2.2333	-1.6771	-1.1646	-2.1896	-1.5708	-1.5542	-2.0708	-1.2396	-2.2313	153.956	185.404	310.824	317.169	140.841	80.741	296.281	294.529	124.963	209.986	79.754	19.124	228.361	330.127	143.710	253.532	0.00056287	0.00061177	0.00020396	916.99	7.776e-06	1.0652e-06	1425.3	294.35	5.6584e-06	7.3974e-06	555.62	215.05	99.105	41.709	8.6322e-06	108.1	0.00036872	0.00033676	9.2229e-05	849.26	3.9034e-06	3.7057e-06	1289.3	270.68	3.8976e-06	3.6325e-06	491.7	191.63	91.367	37.841	3.6572e-06	94.447	233.703	135.749	150.666	-5.783	139.557	261.805	-5.761	-0.365	143.373	76.447	-1.006	4.181	4.850	9.469	127.433	7.543	-8191	255	
8339.536	1	1	0	0	0.14394	0.14587	0.12266	0.39396	0.2772	0.15516	0.12851	0.26125	0.12084	0.056397	0.18349	0.12634	0.18812	0.34086	0.12037	0.2423	-1.3354	-1.2125	-2.1	-1.6083	-1.7375	-2.3396	-1.5792	-2.0875	-1.7896	-1.2104	-2.3812	-1.7146	-1.6854	-2.3833	-1.4208	-2.1708	23.157	229.351	88.206	277.433	247.243	87.618	-17.215	298.959	265.044	95.580	284.511	-7.414	221.938	7.833	338.140	285.095	0.00046028	0.000176	0.00012897	919.86	5.5293e-06	4.4383e-06	1422.6	293.37	2.0485e-06	2.2065e-06	554.1	214.63	98.741	41.368	7.8404e-06	107.81	0.00035337	0.0003333	9.4415e-05	850.22	3.7614e-06	3.6096e-06	1285.8	269.98	3.798e-06	3.5648e-06	489.29	190.87	90.967	37.516	3.7342e-06	93.902	243.024	72.822	149.484	-5.614	81.235	77.565	-5.883	-0.336	178.726	105.041	-1.386	3.928	4.582	9.627	136.506	7.379	-8191	255	
8339.633	1	1	0	0	0.23133	0.17633	0.24025	0.28703	0.2113	0.13731	0.14715	0.32651	0.12662	0.13501	0.14117	0.084499	0.11206	0.1383	0.1829	0.14332	-1.3583	-1.0438	-2.0125	-1.5812	-1.675	-2.4729	-1.6646	-1.8625	-1.875	-1.1313	-2.2417	-1.9125	-1.7104	-2.2979	-1.2521	-1.7604	278.214	291.306	317.432	55.171	-14.520	229.846	-1.908	323.116	201.697	198.830	272.988	333.468	308.682	308.151	27.440	292.354	0.00066563	0.00064556	8.1098e-05	913.96	6.0788e-06	9.6824e-07	1423.5	291.9	3.1663e-06	7.9134e-06	551.05	213.24	98.95	41.127	4.4241e-06	107.33	0.00034984	0.0003247	9.7259e-05	847.75	3.7155e-06	3.5839e-06	1286.9	269.32	3.6578e-06	3.5797e-06	489.06	190.11	90.688	37.503	3.8731e-06	93.828	238.182	119.911	47.898	-5.815	137.544	55.908	-5.984	-0.097	186.637	45.708	-1.071	3.990	4.844	9.751	144.423	7.641	-8191	255	
8339.729	1	1	0	0	0.12369	0.25081	0.10433	0.20924	0.35731	0.25566	0.25453	0.21846	0.07114	0.04847	0.32861	0.14788	0.35245	0.30636	0.23763	0.2212	-1.55	-1.2062	-2.0417	-1.7125	-1.3833	-2.1458	-1.5063	-1.7625	-1.8583	-1.0688	-2.0396	-1.75	-1.4167	-2.2104	-1.4083	-1.7458	234.814	304.466	252.183	306.899	78.161	136.768	277.469	282.830	187.841	279.839	276.519	253.634	240.009	177.636	114.472	332.680	0.00076265	0.00053929	5.7688e-05	914.62	7.2007e-06	4.5863e-06	1420.3	293.3	5.7418e-06	6.1776e-06	553.57	213.17	98.691	41.483	3.0832e-06	107.99	0.00034672	0.00032747	0.00010159	845.36	3.6517e-06	3.6447e-06	1288.7	269.25	3.6646e-06	3.6845e-06	492.3	190.21	90.596	37.663	3.982e-06	93.997	249.590	106.975	210.193	-5.816	119.928	82.203	-5.857	-0.698	151.495	145.659	-0.769	4.258	4.656	9.807	152.683	7.693	-8191	255	
8339.849	1	1	0	0	0.15236	0.037845	0.11187	0.31891	0.16842	0.089614	0.1571	0.30004	0.15923	0.18414	0.2238	0.15353	0.40649	0.21665	0.27947	0.039609	-1.7	-1.2917	-1.8417	-2.0292	-1.4125	-2.3146	-1.6042	-1.7437	-2.1	-1.2667	-2.0062	-2.0479	-1.3146	-2.1417	-1.7646	-1.5125	262.947	133.023	202.768	334.300	297.997	55.155	230.121	341.579	11.019	163.123	188.267	159.109	297.372	268.687	18.457	274.375	0.0007992	0.00022715	0.00010819	915.7	1.6007e-06	4.8216e-06	1421.8	289.66	4.3332e-06	1.1812e-05	552.49	213.74	98.216	41.209	5.0786e-06	107.15	0.00033954	0.00033687	0.00010248	842.55	3.6829e-06	3.8201e-06	1288	267.89	3.664e-06	3.8512e-06	491.27	190.11	90.347	37.517	3.9933e-06	93.389	233.796	207.016	126.848	-5.314	274.136	145.879	-5.875	-0.227	84.768	103.648	-0.922	4.366	4.433	10.057	52.081	7.291	-8191	255	
8339.921	1	1	0	0	0.3025	0.035498	0.30829	0.28432	0.19627	0.15652	0.20531	0.087693	0.20757	0.21718	0.05192	0.37072	0.19505	0.13265	0.18726	0.18082	-1.7271	-1.2771	-1.8292	-2.2958	-1.2563	-2.2083	-1.7563	-1.3625	-2.0312	-1.2188	-1.6667	-2.3521	-1.4604	-2.2542	-1.6875	-1.4896	233.163	280.374	17.876	306.753	287.945	79.609	318.090	295.536	266.109	290.771	295.015	318.436	274.469	309.242	14.807	306.451	0.00070069	0.00089125	0.00022995	902.18	7.0301e-06	3.0491e-06	1414.8	290.38	6.9444e-06	2.1458e-06	549.76	212.65	97.718	40.758	4.628e-06	106.85	0.00034563	0.00036073	0.00010137	839.15	3.6451e-06	3.9314e-06	1283.8	266.93	3.6929e-06	3.9778e-06	487.15	189.42	90.052	37.44	3.9012e-06	92.934	228.231	26.468	49.150	-6.010	159.715	118.744	-6.512	-0.749	126.608	23.798	-1.164	3.596	4.146	9.681	64.303	7.323	-8191	255	
8340.042	1	1	0	0	0.10969	0.19904	0.4752	0.12036	0.11677	0.092283	0.29664	0.26802	0.092405	0.071891	0.2288	0.15007	0.23189	0.20906	0.12353	0.25953	-1.8021	-1.2417	-1.8021	-2.1896	-1.2354	-1.9333	-1.8687	-1.5542	-2.2188	-1.5083	-1.7604	-2.2375	-1.5208	-2.1562	-1.7021	-1.3625	28.246	-2.740	177.885	69.543	57.623	315.528	304.829	283.250	301.163	-11.407	333.103	160.637	314.646	319.155	221.945	302.234	0.00071177	0.00026517	0.00018493	900.93	5.6353e-06	4.5154e-06	1414.5	290.73	5.0745e-06	1.0282e-05	552.71	212.59	97.647	40.863	7.4947e-06	106.3	0.00034651	0.00036909	9.8819e-05	837.22	3.7105e-06	4.0025e-06	1280.9	266.76	3.7662e-06	4.0428e-06	488.51	189.15	90.175	37.495	3.7932e-06	93.057	229.921	157.078	63.478	-5.700	88.414	198.554	-6.339	-0.708	115.889	119.861	-1.340	3.829	4.313	9.319	97.320	7.177	-8191	255	
8340.138	1	1	0	0	0.016293	0.13266	0.25459	0.19068	0.29294	0.12872	0.32842	0.11672	0.26656	0.098973	0.14671	0.12146	0.066391	0.040872	0.12464	0.099706	-1.5854	-1.7667	-1.4979	-2.2625	-1.2979	-1.775	-2.1104	-1.2958	-2.0958	-1.7687	-1.6938	-2.2917	-1.3667	-1.6625	-2.025	-1.3958	294.414	8.458	-15.803	270.538	120.037	234.028	243.121	210.346	337.269	46.314	324.451	330.266	101.396	76.695	325.197	4.461	0.00061506	0.00022442	0.0002648	915.42	7.7708e-06	9.4611e-06	1421.2	290.99	2.7725e-06	8.825e-06	548.5	214.44	97.609	41.169	5.2356e-06	107.25	0.0003591	0.00036735	9.5228e-05	841.54	3.9437e-06	4.0354e-06	1287	266.63	3.9984e-06	4.0461e-06	488.06	189.97	90.755	37.617	3.757e-06	93.42	243.028	9.609	93.859	-5.847	181.880	102.247	-6.334	-0.406	250.157	117.632	-1.078	4.081	4.087	9.546	102.938	7.189	-8191	255	
8340.234	1	1	0	0	0.26277	0.18166	0.38201	0.17611	0.094317	0.036548	0.27768	0.45088	0.17275	0.33286	0.12585	0.26796	0.1381	0.054384	0.17408	0.20283	-1.6938	-1.4417	-1.3146	-2.2542	-1.1313	-1.7354	-2.2896	-1.4708	-2.1813	-1.7792	-1.5021	-2.2083	-1.4708	-1.9125	-2.1979	-1.5125	-6.932	237.470	217.017	245.049	272.466	7.545	269.197	319.180	339.060	-6.322	140.446	256.272	31.837	47.969	96.158	-16.474	0.00053841	0.00092268	9.2096e-05	910.23	5.7874e-06	1.6088e-06	1416.6	289.46	4.6095e-06	7.0247e-06	555.2	213.78	98.337	41.287	4.8736e-06	107.62	0.00037207	0.00035914	9.4996e-05	838.48	4.0391e-06	3.9319e-06	1287.2	267.11	4.0871e-06	3.932e-06	489.79	190.57	90.919	37.615	3.7151e-06	93.745	226.708	105.058	49.259	-6.030	131.062	336.821	-6.214	-0.609	167.840	97.033	-0.956	3.880	4.357	9.377	20.316	7.336	-8191	255	
8340.328	1	1	0	0	0.13332	0.37155	0.17045	0.086671	0.13159	0.16972	0.32659	0.052694	0.13703	0.23109	0.15968	0.16929	0.1467	0.22058	0.16403	0.12627	-1.4604	-1.5625	-1.3563	-2.2854	-1.2687	-1.4271	-2.1354	-1.3687	-1.85	-1.9167	-1.2542	-2.125	-1.4125	-1.6792	-2.1167	-1.4396	212.982	60.778	-0.859	215.191	30.187	45.810	314.638	239.157	-17.579	300.930	266.734	6.402	277.328	196.562	-5.080	123.422	0.00053466	0.00088053	0.00016244	904.05	2.3821e-06	1.538e-05	1420	289.2	4.8268e-06	6.9263e-06	552.52	214.39	97.658	41.113	1.1112e-05	107.08	0.00038053	0.0003542	9.4211e-05	839.93	4.0842e-06	3.8081e-06	1282.7	266.88	4.018e-06	3.8118e-06	486.65	190.36	90.786	37.391	3.6458e-06	93.506	241.955	65.279	82.680	-5.831	312.392	89.025	-6.193	-0.378	142.458	75.094	-1.212	4.046	4.544	9.519	172.171	7.621	-8191	255	
8340.449	1	1	0	0	0.20398	0.29817	0.20219	0.18664	0.36131	0.24262	0.44138	0.2957	0.16169	0.044963	0.24145	0.20576	0.23071	0.20614	0.20068	0.096864	-1.4667	-1.7646	-1.1542	-2.2729	-1.6521	-1.5771	-2.4813	-1.3792	-1.5417	-1.9375	-1.3729	-2.35	-1.9042	-1.4188	-2.0292	-1.4375	197.541	178.012	157.620	329.897	174.612	335.962	330.124	316.947	268.250	96.771	242.146	60.256	98.442	282.058	216.033	281.081	0.00046618	0.00015981	0.00016164	912.82	4.6238e-06	3.5489e-06	1419.2	290.51	1.0186e-05	4.1629e-06	550.03	213.83	97.728	41.22	1.1672e-05	107.34	0.00037287	0.000342	9.318e-05	841.27	4.015e-06	3.7324e-06	1281.3	267.42	3.9386e-06	3.7729e-06	486.91	190.94	90.603	37.494	3.7087e-06	93.867	236.105	284.365	141.016	-6.296	189.444	102.364	-5.948	-0.835	149.772	156.422	-1.403	3.866	4.555	9.338	117.535	7.338	-8191	255	
8340.545	1	1	0	0	0.18013	0.18514	0.1868	0.13544	0.075956	0.078562	0.26545	0.13761	0.1564	0.12383	0.16296	0.12863	0.04094	0.34453	0.11597	0.35366	-1.3771	-2.1188	-1.2625	-2.1417	-1.8312	-1.425	-2.2896	-1.3937	-1.3958	-2.0979	-1.5187	-2.0646	-1.8958	-1.3396	-2.1937	-1.8167	309.655	294.364	110.888	328.855	30.486	302.044	235.016	37.672	110.115	296.331	311.743	326.042	67.135	-13.065	242.028	326.712	0.00047336	0.00019311	0.00023913	908.81	7.6481e-06	2.8157e-06	1423.8	288.42	4.9071e-06	6.2126e-06	553.68	214.67	98.331	41.238	8.1836e-06	107.67	0.00036176	0.00034426	9.3429e-05	842.17	3.8966e-06	3.6735e-06	1287.5	268.33	3.8509e-06	3.7236e-06	488.76	191.24	90.656	37.468	3.8533e-06	94.438	250.351	-10.301	82.771	-5.888	124.724	187.548	-5.872	-0.604	168.638	108.459	-1.188	4.180	4.503	9.523	76.312	7.460	-8191	255	
8340.617	1	1	0	0	0.083933	0.068111	0.13514	0.2571	0.11853	0.1771	0.16703	0.26228	0.050459	0.11252	0.044073	0.31548	0.085795	0.36139	0.041468	0.15024	-0.97083	-1.9479	-1.1458	-1.9125	-1.8604	-1.1875	-2.1917	-1.5312	-1.3208	-2.0333	-1.4604	-1.6958	-1.9958	-1.3583	-1.9292	-1.8979	149.008	4.023	148.705	338.861	129.297	102.954	339.121	273.533	118.777	233.748	284.634	338.056	79.647	173.645	243.795	272.042	0.00062865	0.00059503	0.00016451	913.26	9.0199e-06	1.5961e-06	1428	290.99	2.0995e-06	8.2583e-06	558.98	215.88	98.82	41.6	6.9204e-06	108.26	0.00035802	0.0003367	9.8684e-05	847.19	3.8565e-06	3.6414e-06	1289.6	269.39	3.8137e-06	3.7415e-06	493.48	192.46	91.25	37.803	4.001e-06	94.803	230.050	61.494	108.520	-5.581	132.265	16.151	-6.097	-0.717	28.060	95.980	-0.972	3.817	4.543	9.148	99.628	7.445	-8191	255	
8340.713	1	1	0	0	0.15531	0.1646	0.07934	0.20786	0.28031	0.13985	0.022956	0.14089	0.13204	0.059553	0.30165	0.12723	0.42483	0.16259	0.2259	0.24859	-1.1875	-2.0083	-1.1437	-1.6479	-1.8937	-1.4188	-2.2292	-1.8771	-1.3417	-1.9937	-1.3833	-1.7188	-2.0958	-1.1396	-1.9292	-2.1021	110.849	196.477	146.421	286.102	287.796	237.576	280.331	240.917	298.907	220.096	306.920	77.029	311.884	182.079	18.980	302.236	0.00084572	0.00057161	0.00038979	918.84	1.9997e-06	3.5116e-06	1421.1	291.1	7.9145e-06	2.9965e-06	550.15	214.65	98.893	41.475	6.6729e-06	108.01	0.00035052	0.00033721	0.00010193	846.19	3.7516e-06	3.6473e-06	1290.8	268.89	3.6957e-06	3.7403e-06	491.3	191.94	91.193	37.808	4.0143e-06	94.316	237.731	303.965	143.996	-5.794	274.642	144.218	-6.005	-0.390	180.829	255.829	-0.969	4.098	4.380	9.939	163.968	7.496	-8191	255	
8340.809	1	1	0	0	0.098665	0.23275	0.29128	0.1894	0.38219	0.11626	0.17458	0.32478	0.13609	0.15271	0.12489	0.10738	0.1035	0.15944	0.081862	0.11482	-0.93542	-2.3167	-1.525	-1.7125	-2.1521	-0.97292	-2.0646	-1.9813	-1.375	-2.1063	-1.6167	-1.6458	-2.275	-1.3604	-1.7792	-2.225	201.682	122.190	286.562	62.853	17.874	121.821	309.091	5.233	26.236	208.196	145.862	66.106	186.687	298.839	33.935	289.240	0.00051108	0.00027488	0.00011765	915.49	2.5384e-06	4.8439e-06	1425.7	293.2	2.2722e-06	8.7622e-06	556.04	216.01	98.432	41.425	4.0234e-06	107.5	0.00034282	0.000343	0.00010253	843.64	3.6531e-06	3.7382e-06	1290.7	268.89	3.593e-06	3.807e-06	493.02	191.34	90.824	37.784	4.0005e-06	94.189	233.765	302.819	339.714	-5.624	205.341	111.423	-5.954	-0.267	181.192	137.156	-1.323	4.319	4.575	9.322	157.429	7.531	-8191	255	
8340.930	1	1	0	0	0.19232	0.32388	0.22004	0.063257	0.10348	0.10283	0.18494	0.40558	0.27751	0.21091	0.18158	0.50995	0.25764	0.20987	0.18555	0.2126	-1.0187	-2.2021	-1.5438	-1.7146	-2.0563	-1.2729	-1.8312	-2.1188	-1.3208	-2.0708	-1.8208	-1.4688	-2.1229	-1.5521	-1.8479	-2.2354	34.662	160.994	113.898	223.666	27.249	45.125	88.037	258.704	130.272	336.514	287.774	-5.810	312.755	320.367	83.951	314.574	0.00068857	0.0009985	0.0001004	915.95	4.3413e-06	3.3391e-06	1423.9	293.47	8.8506e-06	1.0887e-05	554.31	215.71	99.368	41.685	1.0603e-05	108.48	0.0003414	0.00035253	0.00010112	844.45	3.6237e-06	3.8795e-06	1293	269.2	3.5627e-06	3.9715e-06	492.61	191.51	90.988	38.062	3.84e-06	94.452	241.407	93.549	34.981	-5.548	287.172	152.758	-5.771	-0.820	192.320	102.578	-1.022	3.928	4.644	9.471	106.721	7.358	-8191	255	
8341.026	1	1	0	0	0.1312	0.07798	0.29023	0.28138	0.31067	0.10194	0.10124	0.28811	0.14005	0.18591	0.36273	0.30516	0.25091	0.22217	0.28106	0.2346	-0.98542	-2.0521	-2.0167	-1.4646	-2.0938	-1.2292	-1.5979	-2.3396	-1.275	-2.0354	-1.7667	-1.5042	-2.0812	-1.3813	-1.6208	-2.3396	81.731	-5.123	215.144	-14.017	267.465	77.791	251.317	256.429	86.066	263.625	135.060	13.398	324.885	302.054	26.699	322.938	0.00063246	0.00058741	8.4649e-06	920.74	3.2915e-06	2.6614e-06	1428.5	293.33	1.1031e-05	3.4986e-06	554.53	215.68	98.991	41.665	6.8688e-06	109.79	0.00034365	0.00037295	0.00010014	845.09	3.7204e-06	4.0334e-06	1295.1	269.89	3.697e-06	4.1015e-06	492.69	192.36	91.567	38.159	3.8202e-06	95.217	215.597	46.895	55.762	-5.777	145.312	152.669	-5.817	-0.221	122.324	178.511	-1.390	4.132	4.662	9.395	41.922	7.460	-8191	255	
8341.122	1	1	0	0	0.30352	0.09023	0.14691	0.32044	0.27221	0.19408	0.19418	0.0628	0.20317	0.099034	0.19059	0.36562	0.18409	0.092609	0.17801	0.13566	-1.0042	-2.0333	-1.7188	-1.3583	-2.0208	-1.4042	-1.4042	-2.0438	-1.1292	-1.85	-2.0917	-1.4104	-2.1792	-1.625	-1.2625	-2.3229	249.642	233.280	35.242	297.123	174.517	153.095	319.092	266.075	76.282	35.315	321.386	274.296	-9.934	222.057	23.447	261.195	0.00065935	0.0011857	0.00012374	923.26	7.6653e-06	3.5877e-06	1433.3	294.06	9.5511e-06	4.6867e-06	556.46	217.58	99.537	41.476	4.0051e-06	109.17	0.00035791	0.00037321	9.8759e-05	846.5	3.9095e-06	4.0874e-06	1296.7	269.88	3.952e-06	4.0722e-06	492.74	193.09	92.116	38.092	3.7449e-06	95.099	256.643	75.455	306.553	-5.750	183.223	177.707	-5.784	-0.697	163.879	190.712	-1.205	4.052	4.915	9.284	48.077	7.325	-8191	255	
#DATA ENDS
