BOXY.EXE: ISS Imagent and Oximeter Data Acquisition Program Version 0.80
Ascii Record File

#ACQ INFORMATION
2  Detector Channels 
16  External MUX Channels 
1  Auxiliary Channels 
5000  Waveform (CCF) Frequency (Hz)
1  Waveforms Skipped 
30  Waveforms Averaged 
1  Cycles Averaged 
16  Acquisitions per Waveform 
10.0806  Updata Rate (Hz) 

#FILE INFORMATION
TRUE -- External MUX Channel results are PARSED.
FALSE -- AC DC and Phase are NOT grouped.
TRUE -- Companion Program Settings File CREATED.
FALSE -- AC data not excluded
FALSE -- DC data not excluded
FALSE -- Phase data not excluded
FALSE -- Auxillary Chn. data not excluded
Tab delimiters

#CALIBRATION STATE
TRUE -- Waveform Calibration Values APPLIED.


#AUX CALIBRATION VALUES
Val Type	aux-1	

Term	1.0000e+00	
Factor	0.0000e+00	


#WF CALIBRATION VALUES
A = Detector Channel
Val Type	A-AC1	A-AC2	A-AC3	A-AC4	A-AC5	A-AC6	A-AC7	A-AC8	A-AC9	A-AC10	A-AC11	A-AC12	A-AC13	A-AC14	A-AC15	A-AC16	A-DC1	A-DC2	A-DC3	A-DC4	A-DC5	A-DC6	A-DC7	A-DC8	A-DC9	A-DC10	A-DC11	A-DC12	A-DC13	A-DC14	A-DC15	A-DC16	A-Ph1	A-Ph2	A-Ph3	A-Ph4	A-Ph5	A-Ph6	A-Ph7	A-Ph8	A-Ph9	A-Ph10	A-Ph11	A-Ph12	A-Ph13	A-Ph14	A-Ph15	A-Ph16	

Term	0.00000e+00	0.00000e+00	0.00000e+00	0.00000e+00	0.00000e+00	0.00000e+00	0.00000e+00	0.00000e+00	0.00000e+00	0.00000e+00	0.00000e+00	0.00000e+00	0.00000e+00	0.00000e+00	0.00000e+00	0.00000e+00	0.00000e+00	0.00000e+00	0.00000e+00	0.00000e+00	0.00000e+00	0.00000e+00	0.00000e+00	0.00000e+00	0.00000e+00	0.00000e+00	0.00000e+00	0.00000e+00	0.00000e+00	0.00000e+00	0.00000e+00	0.00000e+00	0.00000e+00	0.00000e+00	0.00000e+00	0.00000e+00	0.00000e+00	0.00000e+00	0.00000e+00	0.00000e+00	0.00000e+00	0.00000e+00	0.00000e+00	0.00000e+00	0.00000e+00	0.00000e+00	0.00000e+00	0.00000e+00	
Factor	1.00000e+00	1.00000e+00	1.00000e+00	1.00000e+00	1.00000e+00	1.00000e+00	1.00000e+00	1.00000e+00	1.00000e+00	1.00000e+00	1.00000e+00	1.00000e+00	1.00000e+00	1.00000e+00	1.00000e+00	1.00000e+00	1.00000e+00	1.00000e+00	1.00000e+00	1.00000e+00	1.00000e+00	1.00000e+00	1.00000e+00	1.00000e+00	1.00000e+00	1.00000e+00	1.00000e+00	1.00000e+00	1.00000e+00	1.00000e+00	1.00000e+00	1.00000e+00	X	X	X	X	X	X	X	X	X	X	X	X	X	X	X	X	

B = Detector Channel
Val Type	B-AC1	B-AC2	B-AC3	B-AC4	B-AC5	B-AC6	B-AC7	B-AC8	B-AC9	B-AC10	B-AC11	B-AC12	B-AC13	B-AC14	B-AC15	B-AC16	B-DC1	B-DC2	B-DC3	B-DC4	B-DC5	B-DC6	B-DC7	B-DC8	B-DC9	B-DC10	B-DC11	B-DC12	B-DC13	B-DC14	B-DC15	B-DC16	B-Ph1	B-Ph2	B-Ph3	B-Ph4	B-Ph5	B-Ph6	B-Ph7	B-Ph8	B-Ph9	B-Ph10	B-Ph11	B-Ph12	B-Ph13	B-Ph14	B-Ph15	B-Ph16	

Term	0.00000e+00	0.00000e+00	0.00000e+00	0.00000e+00	0.00000e+00	0.00000e+00	0.00000e+00	0.00000e+00	0.00000e+00	0.00000e+00	0.00000e+00	0.00000e+00	0.00000e+00	0.00000e+00	0.00000e+00	0.00000e+00	0.00000e+00	0.00000e+00	0.00000e+00	0.00000e+00	0.00000e+00	0.00000e+00	0.00000e+00	0.00000e+00	0.00000e+00	0.00000e+00	0.00000e+00	0.00000e+00	0.00000e+00	0.00000e+00	0.00000e+00	0.00000e+00	4.17717e+01	-1.31162e+02	-1.22911e+02	-1.83922e+02	-6.30644e+01	-7.02209e+01	-1.56404e+02	-1.62015e+02	-4.52563e+01	-6.41764e+01	-1.71598e+02	-1.69061e+02	-1.81176e+02	-1.77209e+02	-6.47185e+01	-1.50023e+02	
Factor	6.40346e-05	1.52600e-04	4.19047e-05	1.76566e-01	1.85982e-06	1.60018e-06	1.66977e-01	5.01798e-02	2.39878e-06	1.62312e-06	8.77349e-02	2.88353e-02	2.63990e-02	9.67641e-03	1.83296e-06	1.35945e-02	1.77045e-05	2.95731e-05	8.28597e-06	9.26155e-02	2.88225e-07	3.32224e-07	8.18985e-02	2.64251e-02	2.79175e-07	3.33486e-07	4.47295e-02	1.46946e-02	1.40515e-02	5.14846e-03	3.03169e-07	6.99069e-03	X	X	X	X	X	X	X	X	X	X	X	X	X	X	X	X	



#DISTANCE SETTINGS
A = Detector Channel
A-1	A-2	A-3	A-4	A-5	A-6	A-7	A-8	A-9	A-10	A-11	A-12	A-13	A-14	A-15	A-16	

2.5000e+00	3.0000e+00	2.5000e+00	3.0000e+00	2.0000e+00	3.0000e+00	1.5000e+00	3.0000e+00	3.0000e+00	3.0000e+00	3.0000e+00	3.0000e+00	3.0000e+00	3.0000e+00	1.5000e+00	3.0000e+00	

B = Detector Channel
B-1	B-2	B-3	B-4	B-5	B-6	B-7	B-8	B-9	B-10	B-11	B-12	B-13	B-14	B-15	B-16	

1.0000e+01	1.0000e+01	1.0000e+01	1.4400e+00	1.0000e+01	1.0000e+01	1.5100e+00	1.9400e+00	1.0000e+01	1.0000e+01	1.9900e+00	2.4900e+00	2.4100e+00	2.9000e+00	1.0000e+01	2.9800e+00	




#DATA BEGINS
time	group	step	mark	flag	A-AC1	A-AC2	A-AC3	A-AC4	A-AC5	A-AC6	A-AC7	A-AC8	A-AC9	A-AC10	A-AC11	A-AC12	A-AC13	A-AC14	A-AC15	A-AC16	A-DC1	A-DC2	A-DC3	A-DC4	A-DC5	A-DC6	A-DC7	A-DC8	A-DC9	A-DC10	A-DC11	A-DC12	A-DC13	A-DC14	A-DC15	A-DC16	A-Ph1	A-Ph2	A-Ph3	A-Ph4	A-Ph5	A-Ph6	A-Ph7	A-Ph8	A-Ph9	A-Ph10	A-Ph11	A-Ph12	A-Ph13	A-Ph14	A-Ph15	A-Ph16	B-AC1	B-AC2	B-AC3	B-AC4	B-AC5	B-AC6	B-AC7	B-AC8	B-AC9	B-AC10	B-AC11	B-AC12	B-AC13	B-AC14	B-AC15	B-AC16	B-DC1	B-DC2	B-DC3	B-DC4	B-DC5	B-DC6	B-DC7	B-DC8	B-DC9	B-DC10	B-DC11	B-DC12	B-DC13	B-DC14	B-DC15	B-DC16	B-Ph1	B-Ph2	B-Ph3	B-Ph4	B-Ph5	B-Ph6	B-Ph7	B-Ph8	B-Ph9	B-Ph10	B-Ph11	B-Ph12	B-Ph13	B-Ph14	B-Ph15	B-Ph16	aux-1	digaux	

1324.576	1	1	0	768	0.1659	0.15813	0.039051	0.037902	0.081318	0.16512	0.20145	0.15717	0.14725	0.31793	0.21727	0.3618	0.23872	0.16655	0.14377	0.28399	-3.4583	-3.0667	-3.5438	-4.0208	-3.2854	-3.9625	-3.6979	-3.3354	-3.9271	-3.425	-3.6604	-3.7604	-3.1479	-3.7708	-3.7583	-3.5375	310.652	336.094	440.015	422.539	467.295	263.974	392.923	222.382	398.911	266.020	423.050	171.003	202.282	469.717	225.819	171.097	0.00084829	0.00028205	6.5308e-05	1140.3	5.6149e-06	5.2133e-06	1207.8	227.1	6.403e-06	2.7837e-06	284.63	80.433	64.289	18.764	1.1064e-06	25.79	0.00081677	0.001101	0.00030121	1134	1.1126e-05	1.2224e-05	1203.4	227.27	1.0773e-05	1.224e-05	286.54	80.977	64.817	19.268	1.1489e-05	26.661	371.135	199.384	191.250	170.610	295.857	323.979	170.490	178.009	314.883	320.900	177.415	184.285	184.904	192.124	356.481	191.313	-8191	255	
1324.672	1	1	0	0	0.13632	0.098495	0.25038	0.092997	0.15449	0.14577	0.19538	0.33014	0.082597	0.085867	0.17012	0.19748	0.22858	0.13555	0.097842	0.078113	-3.6625	-3.2271	-3.5646	-4.1104	-3.2708	-3.775	-3.9833	-3.4229	-3.9896	-3.6437	-3.6833	-4.1083	-3.3937	-3.9646	-3.7667	-3.4458	407.131	505.422	519.992	515.618	511.489	290.283	483.768	415.842	337.569	509.152	516.136	213.882	475.114	339.366	329.501	384.934	0.00089273	0.00016596	0.00015509	1137.4	4.9802e-06	2.2164e-06	1212.3	226.46	5.741e-06	3.0425e-06	284.75	80.391	64.264	18.631	2.8579e-06	26.073	0.00082975	0.0010587	0.00030518	1134.5	1.1305e-05	1.1743e-05	1204	226.95	1.0653e-05	1.2056e-05	285.96	80.908	64.695	19.279	1.133e-05	26.726	366.915	265.195	241.444	170.680	317.316	426.941	170.727	178.461	328.603	281.858	177.965	184.616	184.694	192.486	277.944	191.707	-8191	255	
1324.768	1	1	0	0	0.15609	0.10689	0.25028	0.13541	0.056855	0.24884	0.2772	0.1915	0.093338	0.062089	0.071007	0.10099	0.14265	0.10885	0.16014	0.18472	-3.475	-3.2708	-3.4833	-4.0417	-3.2375	-3.9313	-3.9917	-3.5083	-3.7708	-3.5979	-3.4667	-4.0938	-3.3521	-3.7562	-3.9125	-3.2938	363.756	201.140	506.182	484.427	171.869	494.827	506.147	450.344	194.111	191.327	324.994	381.268	235.281	509.967	189.668	409.580	0.00089548	0.00014051	0.00012521	1138.1	1.7039e-06	3.6378e-06	1214.1	227.37	5.2344e-06	4.8014e-06	282.11	79.773	63.838	18.804	3.8437e-06	25.925	0.00080227	0.0010754	0.00029912	1131.9	1.1147e-05	1.222e-05	1204.9	227.05	1.0238e-05	1.1571e-05	285.81	80.681	64.489	19.271	1.0461e-05	26.648	362.647	272.332	289.589	170.995	294.098	331.970	170.761	178.486	338.882	310.586	178.518	185.010	185.126	192.314	297.320	191.632	-8191	255	
1324.865	1	1	0	0	0.21248	0.05871	0.17025	0.035983	0.075666	0.18237	0.36097	0.081908	0.076587	0.084925	0.033417	0.11333	0.13328	0.17668	0.1109	0.30298	-3.55	-3.7562	-3.35	-4.2312	-3.4604	-3.6188	-4.1271	-3.1833	-3.8896	-3.8375	-3.5208	-4.0229	-3.4604	-3.6625	-3.9958	-3.3125	318.203	447.050	488.897	179.165	495.228	464.058	435.458	200.659	472.208	486.607	375.807	421.819	452.389	398.530	398.362	476.543	0.00096773	0.00014615	8.8989e-06	1130.1	4.434e-06	2.7409e-06	1208.4	226.79	6.7551e-06	3.2721e-06	282.42	80.244	63.989	18.76	4.6929e-06	25.869	0.00082201	0.0010683	0.00030446	1129.5	1.1216e-05	1.182e-05	1201.5	226.54	1.0366e-05	1.1754e-05	285.45	80.744	64.584	19.221	1.0481e-05	26.698	371.509	274.112	520.072	170.896	263.656	332.248	170.687	178.209	336.783	344.323	178.353	184.885	185.574	192.348	313.283	192.009	-8191	255	
1324.961	1	1	0	0	0.28393	0.024143	0.19664	0.10915	0.17085	0.1907	0.15411	0.059659	0.098777	0.2035	0.1377	0.066836	0.092075	0.12742	0.16072	0.23362	-3.4562	-3.7792	-3.1458	-4.1125	-3.4042	-3.3125	-3.9958	-3.3375	-3.8812	-3.9083	-3.2938	-4.2083	-3.6688	-3.5812	-4.0833	-3.3167	253.943	330.111	246.655	376.495	322.005	373.462	437.807	395.298	245.795	383.656	224.481	203.064	511.815	185.012	486.814	393.732	0.00094154	0.00040566	0.00011989	1140.1	8.2121e-06	1.5149e-06	1209.3	226.56	9.8033e-06	2.4813e-06	284.07	80.018	64.543	18.654	2.975e-06	25.874	0.00080224	0.0010274	0.00030296	1131	1.0836e-05	1.1854e-05	1201.7	226.27	1.0149e-05	1.161e-05	285.68	80.741	64.756	19.229	1.1015e-05	26.592	371.014	245.061	241.309	171.000	274.288	277.877	170.902	178.358	317.265	302.472	178.486	184.748	185.148	192.426	277.394	191.308	-8191	255	
1325.057	1	1	0	0	0.070608	0.058399	0.11896	0.060885	0.11351	0.16352	0.28442	0.10493	0.13136	0.084695	0.23581	0.019739	0.071331	0.25324	0.049184	0.28393	-3.3563	-3.8208	-3.0667	-4.0167	-3.4229	-3.4	-4.1333	-3.3667	-3.7062	-3.9396	-3.2146	-3.8917	-3.6396	-3.4042	-3.8896	-3.1292	446.801	187.053	242.664	197.290	387.955	161.381	431.964	196.576	484.537	408.947	461.270	339.973	173.385	395.202	404.341	486.106	0.00084727	0.00017108	7.6823e-05	1138.2	2.4483e-06	3.1856e-06	1207	225.96	7.6922e-06	2.7364e-06	284.32	80.066	64.487	18.672	2.5457e-06	25.961	0.00079357	0.0010545	0.00030712	1131.4	1.1157e-05	1.2148e-05	1202.3	226.42	1.0506e-05	1.2115e-05	285.35	80.805	64.675	19.196	1.0896e-05	26.698	367.110	201.010	240.510	171.274	304.794	333.137	170.777	178.307	320.345	235.292	178.089	184.917	185.090	192.488	306.829	191.957	-8191	255	
1325.176	1	1	0	0	0.2773	0.23075	0.039614	0.14096	0.18529	0.048614	0.13599	0.12813	0.12051	0.0085135	0.088324	0.053875	0.03734	0.055252	0.19215	0.44782	-3.1562	-3.9375	-3.2	-3.9354	-3.6333	-3.2146	-4.1479	-3.5062	-3.4417	-4.0021	-3.4479	-3.8688	-3.875	-3.3729	-4.1479	-3.5208	271.902	430.320	460.084	160.387	496.277	504.081	337.335	174.039	362.893	321.132	181.682	277.892	437.903	497.923	501.131	478.515	0.00094534	0.00040691	0.00014715	1131.9	5.3943e-06	3.8434e-06	1207.7	226.14	3.9927e-06	3.8323e-06	284.17	79.987	63.58	18.702	2.4565e-06	25.792	0.00081422	0.0010142	0.00030271	1128.3	1.0926e-05	1.1982e-05	1201.3	226.13	1.0721e-05	1.168e-05	285.05	80.637	64.337	19.184	1.0631e-05	26.653	371.180	232.825	284.231	171.397	316.852	295.802	170.771	178.159	384.355	326.528	178.188	185.130	185.450	193.034	332.586	191.912	-8191	255	
1325.272	1	1	0	0	0.1103	0.25994	0.19657	0.29183	0.24504	0.1546	0.34017	0.24671	0.18977	0.17117	0.21088	0.17069	0.070673	0.24235	0.16108	0.09534	-3.0896	-4.0646	-3.2271	-3.7271	-3.6979	-3.3583	-4.1438	-3.6063	-3.4292	-3.875	-3.4396	-3.8229	-3.8979	-3.1458	-4.0104	-3.575	297.873	392.478	350.287	491.296	176.990	511.869	472.394	195.421	303.088	341.556	509.828	450.094	482.806	258.447	499.146	235.284	0.00089434	0.00026539	5.012e-05	1135	2.7646e-06	3.1882e-06	1205.4	226.01	3.8528e-06	1.6341e-06	282.67	79.9	63.748	18.752	4.4523e-06	25.67	0.00080943	0.0010614	0.00029633	1129.5	1.0435e-05	1.1896e-05	1199.2	226	1.0343e-05	1.1578e-05	284.46	80.644	64.47	19.188	1.0925e-05	26.566	363.937	243.768	269.115	171.066	346.302	288.424	170.827	178.189	326.672	295.130	178.180	184.784	185.515	192.877	283.403	192.272	-8191	255	
1325.368	1	1	0	0	0.26831	0.17238	0.031553	0.31299	0.026201	0.2722	0.24789	0.32071	0.31021	0.19278	0.16603	0.07815	0.19906	0.24189	0.059764	0.27691	-2.9479	-3.975	-3.3146	-3.7458	-3.8458	-3.2979	-4.1667	-3.7188	-3.2646	-4.0813	-3.2583	-3.45	-3.8667	-3.2188	-4	-3.8958	252.352	201.177	447.164	462.648	353.842	382.184	434.613	491.074	345.192	426.050	312.147	246.078	345.216	235.591	319.483	387.708	0.00093267	0.00028545	0.00010044	1133.8	2.3919e-06	4.0581e-06	1203.1	224.48	6.8861e-06	3.5683e-06	282.01	79.761	63.995	18.514	4.999e-06	25.491	0.00081972	0.001041	0.00030523	1127.7	1.0709e-05	1.1784e-05	1197.4	225.7	1.0261e-05	1.1503e-05	284.75	80.493	64.399	19.104	1.0472e-05	26.576	370.945	228.603	249.178	171.100	314.182	311.753	170.841	178.251	339.461	297.567	177.964	184.425	185.071	192.832	299.876	191.302	-8191	255	
1325.464	1	1	0	0	0.22445	0.039146	0.1561	0.21131	0.15789	0.27478	0.1203	0.29236	0.057085	0.21008	0.098704	0.041386	0.04371	0.15907	0.059205	0.18756	-2.9729	-3.875	-3.5229	-3.6958	-4.0312	-3.175	-4.1375	-3.6479	-3.2583	-4.1687	-3.4958	-3.4771	-3.925	-3.1625	-3.8042	-3.7562	367.661	354.142	243.788	513.602	412.448	464.504	174.037	408.537	289.719	310.394	280.884	215.216	444.469	282.513	381.021	431.369	0.00082622	0.00048333	7.5509e-05	1135.2	3.5707e-06	3.4705e-06	1205.6	225.32	9.1068e-06	1.3392e-06	281.36	79.965	63.95	18.524	3.0562e-06	25.831	0.00079799	0.0010206	0.00029933	1128.6	1.0336e-05	1.1612e-05	1198.1	225.73	1.0542e-05	1.1441e-05	284.12	80.508	64.427	19.108	1.041e-05	26.548	364.937	264.616	300.669	171.379	300.099	349.305	170.861	178.343	313.436	257.390	177.938	184.617	185.216	192.459	296.884	191.691	-8191	255	
1325.560	1	1	0	0	0.02281	0.12922	0.24862	0.1685	0.041868	0.078361	0.1641	0.12285	0.23351	0.064082	0.14499	0.11762	0.15181	0.13511	0.24344	0.1591	-2.6083	-3.9042	-3.4021	-3.6521	-3.9896	-3.45	-3.7792	-3.9625	-3.1813	-3.8521	-3.6896	-3.3396	-3.9521	-3.4104	-3.8021	-4.0583	469.232	163.510	517.885	449.438	246.490	201.911	468.125	491.211	439.811	487.431	477.745	460.470	201.223	371.449	428.503	439.886	0.00094908	0.00023152	4.7895e-05	1130.8	3.4759e-06	2.8547e-06	1197.3	224.55	7.1242e-06	2.4514e-06	281.64	79.211	63.839	18.553	3.8903e-06	25.686	0.00082142	0.0010042	0.00029533	1125.4	1.064e-05	1.1843e-05	1195.7	225.51	1.0575e-05	1.1257e-05	284.1	80.351	64.426	19.112	1.0802e-05	26.598	370.914	216.692	322.205	171.327	365.418	338.321	171.053	178.179	323.839	315.211	177.838	184.323	184.842	192.250	317.359	191.704	-8191	255	
1325.657	1	1	0	0	0.26239	0.073291	0.21307	0.52541	0.20495	0.14565	0.044531	0.23917	0.14422	0.12364	0.254	0.10891	0.23902	0.26455	0.13928	0.21251	-2.8146	-3.7188	-3.625	-3.6583	-4	-3.4604	-3.7417	-3.9062	-3.2646	-3.6729	-3.6521	-3.3417	-4.1083	-3.35	-3.525	-3.8563	350.565	506.765	385.774	479.069	424.182	335.624	339.223	415.167	323.200	339.204	454.852	238.292	168.905	486.039	473.605	509.020	0.00092502	0.00022191	9.3937e-05	1128.8	3.8123e-06	3.4543e-06	1203.3	224.15	6.3315e-06	2.3618e-06	282.9	79.694	64.035	18.592	2.0319e-06	25.594	0.00077848	0.0010192	0.00028335	1125.8	1.0205e-05	1.1643e-05	1196.8	225.42	1.0188e-05	1.1441e-05	284.26	80.522	64.268	19.101	1.0745e-05	26.528	364.472	179.165	285.090	170.814	293.354	345.474	170.927	178.073	314.927	306.072	177.669	184.478	184.790	192.080	283.919	191.170	-8191	255	
1325.777	1	1	0	0	0.1495	0.21337	0.32278	0.17493	0.034858	0.060997	0.087116	0.17164	0.064985	0.18532	0.17186	0.47588	0.12386	0.14963	0.10156	0.11547	-2.6729	-3.8208	-3.6083	-3.4313	-3.9917	-3.5896	-3.6375	-4.0125	-3.0625	-3.7896	-3.9167	-3.2729	-4.025	-3.4917	-3.4917	-4.1167	207.935	312.646	471.591	184.034	390.090	446.006	442.626	426.828	399.309	175.794	160.530	499.337	447.348	516.564	196.990	237.310	0.00087562	0.00049148	9.8604e-05	1125.8	4.5709e-06	1.7039e-06	1200.2	226.14	6.2224e-06	2.2702e-06	281.33	80.03	63.689	18.462	3.6421e-06	25.524	0.00081758	0.0010036	0.00028804	1122.8	1.0535e-05	1.1595e-05	1195.6	226.01	1.0608e-05	1.1819e-05	284.07	80.516	64.435	19.047	1.1057e-05	26.535	362.513	237.336	249.597	171.170	294.802	340.594	170.727	178.310	327.453	302.912	177.508	184.813	184.911	192.186	321.681	191.620	-8191	255	
1325.872	1	1	0	0	0.16265	0.43807	0.093206	0.26807	0.16976	0.15595	0.29665	0.38977	0.087311	0.046647	0.038496	0.20992	0.085597	0.22538	0.030115	0.21576	-3.0125	-3.9313	-3.7333	-3.3312	-3.8063	-3.6188	-3.4042	-4.0583	-3.4313	-3.7771	-3.8979	-3.3208	-3.8646	-3.5792	-3.4062	-4.075	349.718	183.398	398.295	192.508	237.880	331.335	362.305	415.114	401.891	276.419	416.264	267.506	514.681	455.095	239.078	500.149	0.00096552	9.5461e-05	9.3559e-05	1126.6	2.5777e-06	4.8509e-06	1192.2	225.29	8.2861e-06	5.1762e-06	282.77	79.224	63.488	18.499	1.7281e-06	25.635	0.00079851	0.0010365	0.00028637	1123.1	1.0437e-05	1.1613e-05	1193	226.11	1.0435e-05	1.1546e-05	284.51	80.427	64.342	19.088	1.1027e-05	26.521	371.378	258.989	244.137	171.010	386.137	311.996	170.836	178.330	310.078	320.635	177.860	184.999	185.382	192.783	335.074	191.258	-8191	255	
1325.968	1	1	0	0	0.244	0.10187	0.2391	0.33938	0.086395	0.062007	0.086269	0.14929	0.21127	0.11849	0.27525	0.1356	0.19747	0.053936	0.14776	0.22518	-2.9854	-3.65	-3.8771	-3.3229	-3.9146	-3.6125	-3.375	-4.0625	-3.4271	-3.6875	-4.1375	-3.2604	-3.875	-3.6771	-3.2646	-4.1396	503.787	312.283	209.200	495.455	380.991	374.227	439.697	176.593	315.119	252.714	169.124	383.792	465.268	287.077	279.350	175.417	0.00086047	0.00035823	0.00017778	1126.7	3.2014e-06	6.6581e-06	1196.3	225.55	5.4884e-06	9.8017e-07	280.8	79.517	62.856	18.509	2.0666e-06	25.55	0.00078796	0.0010303	0.00028894	1123	1.0804e-05	1.1509e-05	1193.6	225.57	9.9834e-06	1.1691e-05	283.98	80.213	64.132	19.108	1.1149e-05	26.556	362.358	248.837	270.262	171.263	309.935	320.909	171.025	178.657	333.249	392.574	178.015	184.512	185.379	192.188	234.161	191.813	-8191	255	
1326.064	1	1	0	0	0.0083515	0.011825	0.050225	0.18096	0.14798	0.16577	0.048385	0.19474	0.15801	0.078201	0.13446	0.15191	0.10036	0.042695	0.028364	0.14874	-3.1729	-3.475	-3.95	-3.3792	-3.8042	-3.7979	-3.3417	-4.1292	-3.4979	-3.4458	-4.1208	-3.5583	-3.7042	-3.7396	-3.15	-4.1792	371.143	278.571	285.855	467.095	445.035	513.096	470.029	227.258	285.244	344.885	486.261	199.907	512.528	452.549	180.718	465.595	0.00077623	0.00039277	9.7478e-05	1122.9	4.1027e-06	4.1181e-06	1193.2	224.7	6.4823e-06	3.7606e-06	281.99	79.399	63.533	18.622	2.8091e-06	25.927	0.00079873	0.0010537	0.00028749	1122.2	1.0743e-05	1.1012e-05	1190.4	225.71	1.0271e-05	1.1365e-05	284.01	80.256	64.166	19.164	1.0828e-05	26.595	367.594	207.559	241.908	170.874	310.797	315.399	171.110	178.424	319.186	300.133	178.339	184.969	185.071	192.619	271.909	191.876	-8191	255	
1326.137	1	1	0	0	0.11367	0.051909	0.062678	0.37136	0.025695	0.078814	0.46176	0.26208	0.10678	0.282	0.070901	0.22583	0.022975	0.24934	0.17351	0.20014	-3.1771	-3.3146	-4.1542	-3.4458	-3.6312	-3.8958	-3.2292	-3.9896	-3.6354	-3.3187	-4.2167	-3.4958	-3.7313	-3.9521	-3.3417	-3.7917	205.180	518.712	398.869	447.643	278.111	473.556	445.579	439.302	310.137	428.669	252.115	182.908	422.759	425.132	414.039	434.332	0.0009284	0.00017921	9.695e-05	1125	2.9406e-06	3.1526e-06	1197.5	223.61	3.8337e-06	3.5821e-06	282.05	79.513	63.407	18.594	5.4637e-06	25.847	0.00078047	0.0010468	0.00027698	1121.6	1.0487e-05	1.1121e-05	1192.9	225.02	1.0361e-05	1.1855e-05	284.13	80.198	64.137	19.092	1.0914e-05	26.552	362.531	207.583	262.639	171.553	306.257	283.791	171.358	178.851	321.354	307.838	178.417	185.192	185.414	192.713	342.038	192.296	-8191	255	
1326.256	1	1	0	0	0.245	0.16823	0.30019	0.28195	0.13507	0.12863	0.18464	0.14804	0.042477	0.21515	0.26514	0.12457	0.14617	0.26062	0.12465	0.15299	-3.2604	-3.1625	-3.8667	-3.4229	-3.4958	-3.9521	-3.4417	-3.9354	-3.7042	-3.3875	-4.125	-3.4729	-3.4938	-4.1646	-3.1229	-3.7438	390.942	213.373	309.897	482.781	319.451	467.380	427.162	474.944	180.395	310.302	432.765	247.104	232.229	422.418	203.731	164.829	0.00085986	0.00050348	0.00010028	1128.4	5.641e-06	4.3979e-06	1194.6	226.01	5.4914e-06	3.5149e-06	281.52	79.1	63.506	18.577	5.4229e-06	25.84	0.00079877	0.0010927	0.00028742	1122.9	1.0552e-05	1.1238e-05	1191.9	225.7	1.0239e-05	1.1896e-05	284.06	80.158	64.302	19.064	1.0717e-05	26.657	369.407	265.413	242.580	171.514	313.704	307.559	171.439	178.757	330.077	342.404	178.389	184.923	185.885	192.621	333.757	191.812	-8191	255	
1326.352	1	1	0	0	0.15751	0.27536	0.28763	0.187	0.16802	0.17584	0.089374	0.065308	0.048998	0.018831	0.094913	0.073802	0.022705	0.20714	0.10182	0.18449	-3.3625	-3.15	-4.0521	-3.4833	-3.3542	-4.0021	-3.5917	-3.8396	-3.8812	-3.1979	-4.0375	-3.5708	-3.6021	-4.2271	-3.325	-3.6646	333.534	210.256	439.097	450.844	226.220	271.214	491.204	170.443	416.663	266.210	235.878	419.843	512.205	497.168	263.393	275.851	0.00088331	0.00022874	6.835e-05	1126.5	4.6624e-06	3.9229e-06	1196.6	225.43	9.6942e-06	4.1851e-06	282.07	79.516	63.42	18.554	5.784e-06	25.738	0.00079065	0.0010505	0.00028345	1122	1.0829e-05	1.1316e-05	1191.1	225.67	1.0154e-05	1.1558e-05	284.18	80.238	64.238	19.069	1.066e-05	26.536	370.377	242.308	273.512	171.319	267.046	292.881	171.292	178.618	309.159	347.844	178.826	185.656	185.770	192.858	305.980	192.306	-8191	255	
1326.448	1	1	0	0	0.12081	0.14287	0.11006	0.19736	0.084619	0.16912	0.33977	0.20058	0.11705	0.19583	0.12824	0.091032	0.071304	0.19241	0.14201	0.078036	-3.3667	-3.3375	-3.7229	-3.6521	-3.1625	-3.9021	-3.5208	-3.8292	-3.8688	-3.1958	-4.1417	-3.9146	-3.3396	-4.05	-3.4688	-3.6229	415.165	350.183	368.367	166.418	450.417	253.867	466.478	442.699	424.509	206.184	245.945	508.805	485.741	432.199	175.078	378.141	0.00099473	0.0005524	2.3419e-05	1125.3	4.0973e-06	1.7505e-06	1195.8	224.63	6.4587e-06	3.668e-06	282.68	79.246	63.394	18.58	4.299e-06	25.79	0.00080983	0.0010678	0.00029098	1122.4	1.0785e-05	1.1125e-05	1191.3	225.54	1.0045e-05	1.1566e-05	284.26	80.201	64.265	19.059	1.1022e-05	26.538	367.721	252.640	231.411	171.195	316.879	285.016	171.211	178.861	306.148	296.037	178.711	184.652	185.178	192.270	339.295	191.383	-8191	255	
1326.545	1	1	0	0	0.31673	0.14444	0.088008	0.079077	0.12037	0.27828	0.19515	0.15088	0.11265	0.10701	0.078398	0.13287	0.10955	0.15908	0.029941	0.1086	-3.6479	-3.0646	-3.8042	-3.9437	-3.3042	-4.125	-3.6125	-3.5875	-3.9479	-3.1583	-3.9375	-3.8	-3.1562	-4.025	-3.5333	-3.5812	365.273	388.721	506.718	488.094	186.477	429.868	516.358	517.549	300.085	515.161	365.832	409.317	347.344	319.841	322.537	405.747	0.00077665	0.00029246	9.8781e-05	1126	6.7973e-06	3.7205e-06	1198.5	224.69	8.6532e-06	3.5961e-06	282.43	79.514	63.799	18.655	3.695e-06	25.858	0.00077992	0.0010445	0.00028972	1120.7	1.0797e-05	1.1433e-05	1194.5	225.16	1.0019e-05	1.1398e-05	284.38	80.23	64.077	19.157	1.0557e-05	26.578	370.854	218.259	277.283	171.067	281.849	317.912	170.656	178.448	320.573	336.254	178.244	184.520	184.756	192.574	304.013	191.653	-8191	255	
1326.665	1	1	0	0	0.172	0.061872	0.15785	0.21135	0.17112	0.14581	0.21176	0.18342	0.20345	0.14472	0.060165	0.10567	0.26073	0.15536	0.30986	0.18854	-3.5917	-3.1021	-3.5938	-3.6292	-3.2667	-4.0167	-3.6833	-3.5167	-4.1021	-3.1167	-3.7854	-3.9479	-3.2812	-3.9562	-3.5521	-3.3396	467.795	161.096	213.734	456.195	502.492	357.423	416.605	368.920	426.004	221.074	274.808	390.481	470.155	179.799	481.175	214.403	0.00095898	0.00020711	7.6067e-05	1118.7	4.6071e-06	4.5322e-06	1188.6	225.37	6.1873e-06	1.4218e-06	279.87	79.163	63.261	18.559	2.5532e-06	25.573	0.00077317	0.0010316	0.00028996	1121.3	1.0774e-05	1.098e-05	1190.9	225.37	9.8194e-06	1.1924e-05	283.37	80.071	64.075	19.089	1.0677e-05	26.498	370.022	277.949	210.543	170.905	326.035	311.426	170.795	178.455	306.501	343.670	177.810	184.297	185.008	192.024	288.650	191.899	-8191	255	
1326.737	1	1	0	0	0.17705	0.15551	0.053454	0.16349	0.16876	0.10053	0.16536	0.052687	0.088123	0.04365	0.19188	0.028777	0.084404	0.18454	0.15757	0.16653	-3.6813	-3.2062	-3.575	-3.9604	-3.2167	-4.0354	-3.8688	-3.3083	-3.9917	-3.3792	-3.7313	-3.9104	-3.2667	-4.0417	-3.6188	-3.3458	419.609	293.912	176.683	485.672	360.340	182.810	425.683	410.832	457.069	182.126	478.287	249.756	456.026	185.024	462.132	423.603	0.00087026	0.00037744	3.8629e-05	1124.6	4.5267e-06	4.0684e-06	1193.7	223.88	3.9873e-06	3.9154e-06	280.09	79.522	62.698	18.563	4.1627e-06	25.573	0.00080083	0.0010481	0.00029193	1120.3	1.0957e-05	1.0916e-05	1190	225.32	9.8537e-06	1.1905e-05	283.41	80.26	63.908	19.105	1.0726e-05	26.518	369.842	254.320	256.755	170.836	309.024	315.128	170.946	178.277	369.801	334.233	177.552	184.256	185.144	192.167	307.953	191.312	-8191	255	
1326.858	1	1	0	0	0.25132	0.22913	0.051561	0.017115	0.087018	0.11743	0.1374	0.12962	0.064016	0.1804	0.17542	0.095804	0.021477	0.23254	0.1352	0.09471	-3.7292	-3.5583	-3.5229	-3.9938	-3.2938	-3.9604	-3.775	-3.3875	-3.9458	-3.5042	-3.5896	-3.9729	-3.1917	-3.9104	-3.6958	-3.3792	220.987	445.819	224.619	336.816	347.794	495.146	390.356	260.077	438.836	261.311	487.206	299.705	518.468	188.798	220.197	411.499	0.001018	0.00044528	0.0001014	1119.3	5.643e-06	1.9272e-06	1194.1	224.41	7.9671e-06	3.7825e-06	280.77	79.427	63.453	18.461	5.3597e-06	25.601	0.00080375	0.0010277	0.00028928	1120.1	1.0692e-05	1.1465e-05	1191.8	225.22	1.0026e-05	1.1227e-05	284.45	80.268	64.264	19.065	1.0513e-05	26.533	368.967	233.577	278.821	170.949	320.841	312.272	170.623	178.110	290.386	317.590	177.794	184.018	184.594	191.647	258.595	191.231	-8191	255	
1326.952	1	1	0	0	0.14219	0.1048	0.23898	0.30162	0.063518	0.16331	0.04429	0.29808	0.09086	0.27905	0.2631	0.10386	0.2633	0.14017	0.070473	0.1477	-3.6125	-3.4958	-3.4479	-4.05	-3.1021	-3.65	-4.0729	-3.2917	-3.9708	-3.7062	-3.6271	-4.0958	-3.4479	-3.6729	-3.9792	-3.4958	492.544	365.480	295.951	432.780	442.882	230.445	292.497	439.852	308.143	183.336	506.952	360.517	517.749	306.377	421.647	468.085	0.00090955	0.00056475	7.1922e-05	1121.9	4.8364e-06	2.9659e-06	1191.5	223.33	4.6175e-06	3.068e-06	279.6	78.759	63.234	18.431	5.2553e-06	25.53	0.00077918	0.0010198	0.00028524	1120.1	1.0618e-05	1.1476e-05	1190.1	225.11	1.0326e-05	1.1339e-05	283.68	80.135	64.013	19.075	1.056e-05	26.518	364.011	225.648	265.191	170.627	303.744	343.992	170.616	177.801	303.222	303.323	177.941	184.000	184.603	191.901	337.739	191.276	-8191	255	
1327.048	1	1	0	0	0.097865	0.028209	0.11039	0.23238	0.19985	0.14932	0.18009	0.22592	0.13155	0.048291	0.0726	0.025391	0.18978	0.11071	0.15977	0.17264	-3.3792	-3.6146	-3.3312	-4.1604	-3.4292	-3.5667	-3.9375	-3.3458	-3.7625	-3.8083	-3.4375	-4.0437	-3.4437	-3.6208	-3.9562	-3.2021	291.495	429.898	452.789	366.747	335.711	384.027	397.783	256.601	460.842	181.880	374.909	210.178	359.447	511.453	351.424	196.703	0.00092417	0.00037534	8.1867e-05	1120.4	4.5235e-06	3.0658e-06	1190.5	223.27	8.245e-06	1.0576e-06	280.63	78.825	63.175	18.387	4.4379e-06	25.56	0.00079239	0.001057	0.00029343	1117.7	1.0751e-05	1.1404e-05	1190.2	224.82	1.0371e-05	1.1248e-05	283.64	80.064	64.169	19.017	1.0308e-05	26.5	366.280	229.035	254.841	170.654	318.704	284.144	170.139	177.925	306.495	342.255	177.251	184.101	184.290	191.732	329.532	190.671	-8191	255	
1327.146	1	1	0	0	0.13169	0.085874	0.21808	0.30176	0.33459	0.086786	0.19318	0.22699	0.11812	0.10218	0.10216	0.1482	0.093437	0.08212	0.069981	0.18074	-3.2229	-3.7458	-3.2979	-4.0167	-3.3646	-3.5354	-4.0687	-3.4167	-3.6625	-3.9208	-3.4667	-4.1792	-3.5271	-3.375	-3.9771	-3.3417	449.199	463.253	512.047	419.120	478.332	494.649	498.249	250.600	198.744	208.759	167.095	463.673	212.908	413.316	208.703	297.207	0.0010228	0.00024001	4.8675e-05	1117.1	4.3312e-06	3.3229e-06	1188.9	223.94	6.951e-06	2.8579e-06	281.38	79.546	62.887	18.444	4.1912e-06	25.747	0.0008105	0.0010176	0.00029489	1117.8	1.0397e-05	1.1307e-05	1190.4	225.21	1.0607e-05	1.1203e-05	283.55	80.425	63.938	19.082	1.0768e-05	26.565	365.109	254.980	232.719	170.470	293.317	303.358	170.083	177.748	328.205	303.879	177.255	184.132	184.235	191.658	280.055	191.026	-8191	255	
1327.265	1	1	0	0	0.23453	0.14826	0.099042	0.20993	0.20214	0.23393	0.26881	0.11546	0.08269	0.0587	0.023741	0.095522	0.11886	0.16237	0.059733	0.11666	-3.3583	-3.9021	-3.15	-4.1708	-3.5146	-3.3937	-4.1062	-3.4854	-3.7854	-3.9813	-3.2167	-3.975	-3.6771	-3.3354	-4.1042	-3.4167	472.890	472.927	491.023	458.397	370.551	160.897	483.875	187.265	260.199	425.319	360.731	191.025	235.019	467.104	417.135	325.850	0.0010048	8.3502e-05	7.0925e-05	1119.9	3.7738e-06	2.8632e-06	1187.2	222.41	5.9046e-06	2.3499e-06	277.53	79.201	63.121	18.485	3.3682e-06	25.475	0.0007974	0.001016	0.0002889	1119.9	1.0254e-05	1.1503e-05	1188.1	224.78	1.0291e-05	1.1083e-05	283.01	80.215	64.128	19.109	1.0487e-05	26.435	370.281	318.552	245.655	170.689	289.035	279.882	170.304	177.901	337.658	305.306	177.594	184.011	184.291	191.648	281.285	191.009	-8191	255	
1327.361	1	1	0	0	0.26494	0.13675	0.068763	0.10973	0.17025	0.18418	0.38361	0.15332	0.077392	0.11094	0.050959	0.34596	0.20541	0.15203	0.20491	0.052097	-3.1188	-3.925	-3.2854	-3.9125	-3.7833	-3.2479	-4.0979	-3.4083	-3.5271	-4.0188	-3.3208	-4.0167	-3.6646	-3.2417	-3.9688	-3.4917	321.143	385.071	495.869	258.065	321.449	286.276	424.923	512.718	470.982	360.500	292.852	220.414	498.160	514.845	517.451	265.530	0.00089133	0.00041485	8.4203e-05	1128.2	3.3958e-06	1.2358e-06	1198.5	223.97	8.1593e-06	2.5008e-06	281.56	79.125	63.245	18.608	4.4448e-06	25.63	0.00078903	0.00096174	0.00029148	1120.8	1.0323e-05	1.1488e-05	1190.7	224.72	1.0128e-05	1.1376e-05	283.67	80.073	64.137	19.128	1.0499e-05	26.524	369.856	256.259	257.691	170.814	296.313	275.189	170.558	177.757	294.466	315.609	177.505	184.016	184.871	192.252	309.284	191.150	-8191	255	
1327.433	1	1	0	0	0.19973	0.11731	0.19756	0.27387	0.11717	0.18188	0.08981	0.15527	0.21048	0.11942	0.14756	0.18862	0.058014	0.14722	0.19003	0.22978	-3.1229	-3.9479	-3.4125	-3.9792	-3.8146	-3.2438	-4.05	-3.4479	-3.425	-3.8771	-3.3729	-3.8021	-3.9562	-3.4229	-4.0687	-3.5292	322.817	421.931	436.234	162.112	391.314	215.879	200.910	451.838	278.755	435.017	292.668	202.265	221.351	201.219	172.867	171.710	0.00094297	0.00033559	0.00015247	1122.6	5.5238e-06	3.309e-06	1194.3	223.39	8.8678e-06	2.765e-06	279.6	79.653	63.481	18.661	1.8292e-06	25.662	0.00079102	0.00096279	0.00029384	1119	1.0521e-05	1.1161e-05	1189.5	224.57	1.007e-05	1.095e-05	283.15	80.237	64.118	19.109	1.0373e-05	26.513	372.449	301.673	259.203	170.403	274.427	351.994	170.207	177.813	308.390	346.158	177.556	184.498	184.362	191.843	388.763	191.087	-8191	255	
1327.553	1	1	0	0	0.1174	0.22455	0.16979	0.25288	0.16254	0.058175	0.18812	0.10183	0.10614	0.068901	0.1427	0.085904	0.12021	0.11372	0.16047	0.13634	-2.9979	-3.9854	-3.3417	-3.7417	-3.9625	-3.2042	-4.0521	-3.7062	-3.1208	-3.9562	-3.6167	-3.7583	-4.1312	-3.425	-3.9042	-3.6437	338.234	224.278	210.575	487.532	444.875	376.148	491.386	305.816	299.651	450.649	477.571	406.515	437.495	440.503	501.798	452.086	0.00087012	0.00027121	8.1266e-05	1123.9	6.3554e-06	2.1982e-06	1191.5	224.78	5.607e-06	5.8788e-06	281.19	79.42	63.377	18.546	3.985e-06	25.716	0.00077572	0.0009976	0.00028733	1118.8	1.0075e-05	1.1089e-05	1187.1	225	1.0277e-05	1.1009e-05	283.39	80.087	63.996	19.078	1.0532e-05	26.524	367.445	278.040	225.624	170.776	283.647	283.055	170.507	177.993	300.422	333.950	177.836	184.013	184.811	191.998	306.018	191.234	-8191	255	
1327.649	1	1	0	0	0.15559	0.091059	0.27162	0.050387	0.13123	0.14862	0.18887	0.25552	0.22645	0.12102	0.18902	0.12903	0.21747	0.085795	0.094398	0.24516	-3.1021	-4.0042	-3.5396	-3.8563	-4.0563	-3.3563	-4.0125	-3.7875	-3.3708	-4.0292	-3.5438	-3.675	-4.0625	-3.2667	-3.7833	-3.8625	239.416	411.736	425.732	441.626	454.639	336.037	464.075	436.719	316.621	428.901	495.318	217.695	383.990	334.136	313.338	196.139	0.0009576	0.00051655	2.859e-05	1119.5	4.3655e-06	3.5067e-06	1189.8	223.52	1.2271e-06	3.4795e-07	279.13	79.472	63.708	18.456	2.7723e-06	25.863	0.00077649	0.00099975	0.0002836	1118	1.007e-05	1.1116e-05	1187	224.24	9.8293e-06	1.1394e-05	282.42	80.059	64.152	19.032	1.0427e-05	26.543	365.649	255.588	330.479	170.460	291.175	318.520	170.563	178.040	319.145	392.920	177.519	183.958	184.341	191.676	324.995	190.908	-8191	255	
1327.746	1	1	0	0	0.12567	0.11272	0.097876	0.16807	0.09341	0.28397	0.18198	0.22463	0.22547	0.075827	0.31917	0.18812	0.22	0.13292	0.070744	0.1143	-2.9292	-4.0479	-3.5208	-3.7271	-4.0021	-3.1667	-3.8	-3.8896	-3.2542	-3.9	-3.8563	-3.3708	-3.9688	-3.4188	-3.6896	-3.9729	367.690	213.255	344.073	191.336	515.881	483.143	394.880	434.906	442.019	367.131	471.086	257.719	475.605	516.094	492.121	464.548	0.0010125	0.00034464	0.00012304	1116.4	2.5711e-06	3.1659e-06	1191.4	222.87	4.9826e-06	2.5159e-06	278.9	78.955	63.239	18.502	4.5737e-06	25.471	0.00079645	0.00093913	0.00027114	1113.6	9.96e-06	1.1143e-05	1185.9	224.07	9.9951e-06	1.1274e-05	282.27	79.73	63.892	18.993	9.9004e-06	26.418	365.902	252.162	240.352	170.804	296.714	314.489	170.428	177.827	306.001	318.547	177.304	183.928	184.379	191.742	327.955	190.844	-8191	255	
1327.842	1	1	0	0	0.30232	0.032759	0.26661	0.11595	0.26279	0.12047	0.18627	0.28544	0.18928	0.19207	0.14233	0.27017	0.13684	0.21571	0.17527	0.15051	-2.8583	-3.9833	-3.5333	-3.3896	-4.0563	-3.3417	-3.9146	-4.0312	-3.1375	-3.9938	-3.925	-3.4583	-4.1729	-3.4792	-3.5229	-3.9625	240.081	307.120	471.554	191.294	449.473	222.217	454.650	385.345	275.464	479.590	184.605	491.476	201.337	225.814	398.744	455.453	0.00088818	0.00026245	9.422e-05	1115.5	3.9346e-06	3.4072e-06	1191.5	223.94	4.9471e-06	3.7643e-06	279.88	79.275	63.333	18.505	3.5628e-06	25.658	0.00076247	0.00097	0.00026859	1113	9.6237e-06	1.1006e-05	1185.5	224.21	1.0057e-05	1.0881e-05	282.84	79.855	63.894	19.037	1.0165e-05	26.52	372.988	279.583	203.861	170.443	321.332	308.843	170.188	177.601	346.552	306.028	177.305	184.059	184.277	191.733	298.256	191.027	-8191	255	
1327.961	1	1	0	0	0.19147	0.22106	0.15676	0.29005	0.045085	0.10385	0.084832	0.30879	0.21698	0.05457	0.22589	0.17123	0.14882	0.12763	0.098148	0.099317	-3.0542	-3.8646	-3.7562	-3.3708	-4.0292	-3.4125	-3.6479	-4.0542	-3.3021	-3.7854	-3.9125	-3.3021	-4.1229	-3.4938	-3.3167	-4.0208	190.042	267.171	479.275	471.368	249.873	501.254	489.815	425.491	386.576	298.610	411.755	479.554	412.746	198.891	386.847	425.031	0.0008741	0.00027157	8.0431e-05	1119.9	6.5415e-06	2.7143e-06	1192.2	223.93	5.5445e-06	2.1223e-06	278.04	78.955	63.114	18.267	1.2609e-06	25.49	0.00076465	0.00094461	0.00026016	1113.6	9.9185e-06	1.0628e-05	1186.8	224.47	9.8415e-06	1.0972e-05	282.01	79.704	63.783	18.965	1.035e-05	26.42	371.791	274.857	288.481	170.626	326.539	329.834	170.358	177.536	295.369	343.958	177.340	184.101	184.662	191.567	300.311	190.841	-8191	255	
1328.034	1	1	0	0	0.23238	0.065867	0.042775	0.16809	0.1887	0.19933	0.10484	0.3384	0.17213	0.19484	0.19525	0.2781	0.17002	0.24444	0.20636	0.26982	-2.8979	-3.6188	-3.7812	-3.2375	-4	-3.5875	-3.5792	-4.2167	-3.3375	-3.6875	-3.9854	-3.2687	-4.1292	-3.5187	-3.5	-4.025	223.935	308.957	383.483	452.823	471.001	433.737	434.380	447.967	422.736	315.741	472.893	481.940	493.749	464.043	370.040	429.094	0.00092104	0.00013571	0.00013801	1119	3.2965e-06	2.7055e-06	1193.9	223.25	6.7325e-06	2.3727e-06	278.63	78.838	63.035	18.507	4.1733e-06	25.489	0.00077122	0.00097443	0.0002657	1114.2	1.0021e-05	1.0929e-05	1186.1	224.26	9.9131e-06	1.0973e-05	281.75	79.87	63.775	18.996	1.0178e-05	26.434	374.152	227.958	244.890	170.549	331.752	338.089	170.385	177.772	297.252	313.494	177.211	183.881	184.309	191.430	318.363	191.018	-8191	255	
1328.128	1	1	0	0	0.14823	0.18102	0.11169	0.34286	0.20154	0.012185	0.28167	0.19588	0.18235	0.15598	0.090921	0.15286	0.060469	0.24007	0.062514	0.010314	-2.9333	-3.4958	-3.9229	-3.3167	-3.9083	-3.7938	-3.3771	-4.0979	-3.6229	-3.7146	-3.9479	-3.2562	-3.8333	-3.7208	-3.2708	-3.9917	470.973	344.480	253.341	426.060	338.429	274.834	438.280	163.398	285.096	184.526	348.612	442.795	432.062	518.353	241.198	243.355	0.0009287	0.00031473	8.3332e-05	1113.9	3.4205e-06	2.3727e-06	1192.4	223.57	6.8415e-06	2.6473e-06	278.77	79.187	62.693	18.337	2.1343e-06	25.556	0.00075041	0.00097751	0.00027207	1111.6	9.9215e-06	1.0275e-05	1184.2	224	9.7473e-06	1.0908e-05	282.29	79.783	63.661	18.961	1.0052e-05	26.339	364.109	234.155	282.135	170.466	309.491	327.206	170.376	177.817	339.709	288.628	177.539	183.948	184.588	191.194	329.376	190.867	-8191	255	
1328.226	1	1	0	0	0.087897	0.1084	0.29094	0.34359	0.11099	0.14725	0.2349	0.084417	0.16667	0.15424	0.046733	0.15315	0.08755	0.11854	0.14232	0.05921	-3.0854	-3.5438	-3.8792	-3.2604	-3.8063	-3.7313	-3.4437	-4.0958	-3.6	-3.4021	-4.0417	-3.3688	-3.8	-3.9104	-3.2833	-3.9729	227.612	504.719	255.987	461.096	197.551	396.254	478.746	263.646	209.634	230.375	494.605	460.294	518.445	433.564	268.974	333.609	0.0010256	0.00031493	7.9065e-05	1111.1	2.2754e-06	9.7287e-07	1181.9	223.84	7.5244e-06	1.3694e-06	279.69	79.209	62.868	18.398	5.5888e-06	25.488	0.00076565	0.00098244	0.00026256	1109.5	1.015e-05	1.0669e-05	1180.7	224.19	9.5199e-06	1.0737e-05	281.49	79.713	63.625	18.931	1.0073e-05	26.374	370.318	265.548	274.595	170.475	250.158	300.508	170.309	177.735	337.894	357.922	177.493	183.980	184.596	191.683	325.902	191.235	-8191	255	
1328.345	1	1	0	0	0.19049	0.33195	0.091969	0.32564	0.26904	0.2255	0.32576	0.20043	0.19412	0.031066	0.16001	0.16342	0.23369	0.07136	0.31271	0.18503	-2.9875	-3.4167	-3.9521	-3.3625	-3.5917	-3.8375	-3.2146	-3.9708	-3.7062	-3.3833	-4.1937	-3.3375	-3.6521	-3.9667	-3.1979	-4.0479	186.857	519.796	443.672	497.484	236.429	182.000	402.201	518.688	451.205	283.846	257.674	169.613	432.606	468.557	328.978	507.293	0.00082887	0.00039777	3.5815e-05	1111.5	2.7994e-06	3.5792e-06	1183.4	223.09	4.0563e-06	4.6632e-06	280.5	78.664	62.978	18.504	3.0657e-06	25.57	0.00073725	0.00097505	0.00026458	1110.9	9.9203e-06	1.0675e-05	1181.3	223.51	9.3326e-06	1.115e-05	282.27	79.505	63.641	18.977	1.0394e-05	26.422	369.002	276.029	283.237	170.407	288.052	344.020	170.335	177.981	310.660	295.755	177.390	184.143	184.650	191.922	358.354	190.890	-8191	255	
1328.441	1	1	0	0	0.17553	0.15501	0.066733	0.13676	0.31511	0.1214	0.18328	0.13192	0.24042	0.20182	0.07933	0.19619	0.054642	0.27951	0.13083	0.11724	-3.3208	-3.3458	-4.1167	-3.4646	-3.5979	-4.0625	-3.4167	-3.8688	-3.6833	-3.3729	-4.1021	-3.4208	-3.3375	-4.0417	-3.2833	-3.7646	442.853	378.943	346.734	473.788	406.734	292.249	440.827	488.897	378.771	316.889	211.922	401.068	377.712	197.648	332.339	389.998	0.00086762	0.00037876	3.839e-05	1111.5	3.905e-06	2.2131e-06	1186.2	222.89	5.8932e-06	4.4432e-06	277.15	78.816	62.93	18.307	3.8628e-06	25.473	0.0007406	0.00093901	0.00026401	1110	9.7138e-06	1.01e-05	1180.4	223.71	9.2483e-06	1.0954e-05	281.58	79.557	63.724	18.869	1.0507e-05	26.376	366.303	245.750	262.928	170.359	299.406	356.351	170.199	177.680	365.700	326.846	177.560	183.918	184.194	191.915	261.874	191.003	-8191	255	
1328.538	1	1	0	0	0.14519	0.018477	0.060296	0.10149	0.187	0.31741	0.035227	0.16457	0.074832	0.08001	0.02719	0.23513	0.079584	0.31761	0.21012	0.12227	-3.3688	-3.2	-4.1104	-3.6188	-3.5104	-3.95	-3.3625	-3.7604	-3.8458	-3.2146	-4.0792	-3.5396	-3.3896	-3.925	-3.2646	-3.625	425.577	260.747	332.623	480.088	176.174	308.677	349.036	171.958	446.277	250.965	315.607	412.665	334.069	428.722	284.568	236.108	0.0010068	0.00033972	5.6503e-05	1111.1	3.4957e-06	3.8836e-06	1180	223.28	9.2709e-06	2.1532e-06	278.36	78.735	62.961	18.402	2.9673e-06	25.464	0.00074813	0.0010047	0.00026166	1107.7	1.0147e-05	1.0421e-05	1178.5	223.41	9.1628e-06	1.0676e-05	281.25	79.439	63.477	18.917	9.8783e-06	26.387	372.738	217.001	230.207	170.571	308.602	347.386	170.382	177.864	301.678	336.645	177.186	183.617	184.996	192.124	292.460	190.790	-8191	255	
1328.634	1	1	0	0	0.16358	0.025511	0.16412	0.23268	0.15096	0.20742	0.25656	0.099865	0.060802	0.15656	0.19134	0.080055	0.11949	0.10709	0.036953	0.15643	-3.4729	-3.2667	-4.0417	-3.9688	-3.3708	-4.0146	-3.4875	-3.6667	-3.9021	-3.3583	-3.925	-3.6417	-3.4729	-4.2188	-3.3854	-3.6229	205.087	455.612	511.040	439.636	379.811	291.303	460.517	276.674	318.177	313.620	195.082	404.573	219.529	172.548	187.462	429.710	0.00091571	0.0004218	7.6657e-05	1104.7	5.8048e-06	9.2346e-07	1185.6	222.1	6.0247e-06	3.0103e-06	278.37	78.551	62.775	18.512	3.6414e-06	25.529	0.00073994	0.00095583	0.00025531	1104.8	9.7168e-06	9.9411e-06	1178.2	223.03	9.1965e-06	1.0953e-05	281.22	79.353	63.521	18.933	9.9724e-06	26.346	368.921	279.291	256.402	170.423	305.291	233.191	170.450	178.018	322.671	281.360	177.534	184.115	184.873	191.614	302.501	190.731	-8191	255	
1328.730	1	1	0	0	0.23329	0.13611	0.14705	0.22838	0.26409	0.14201	0.18526	0.28741	0.11159	0.1976	0.082977	0.15702	0.06581	0.14519	0.18631	0.28212	-3.4375	-3.3312	-3.8333	-3.9021	-3.0812	-3.9938	-3.5667	-3.5125	-3.9208	-3.2896	-3.8542	-3.8292	-3.5146	-4.1479	-3.4313	-3.4375	288.415	415.214	356.513	431.000	484.336	402.296	475.491	199.819	378.389	270.005	397.434	347.848	245.759	342.221	493.473	403.614	0.00085287	0.00018237	0.00010169	1105.2	4.224e-06	2.3965e-06	1173.8	220.3	8.7134e-06	2.8916e-06	277.98	78.254	62.403	18.024	2.7062e-06	25.416	0.00070977	0.00094566	0.00026634	1104.9	9.7066e-06	1.0313e-05	1174.1	222.26	9.2913e-06	1.0667e-05	281.19	79.367	63.418	18.825	9.7621e-06	26.37	369.727	207.491	251.067	170.595	279.372	336.793	170.133	177.620	322.866	321.126	177.471	183.310	184.652	191.479	348.017	190.793	-8191	255	
1328.826	1	1	0	0	0.18142	0.36287	0.16309	0.22659	0.01141	0.040235	0.072386	0.23293	0.17649	0.15735	0.2448	0.024975	0.22684	0.19985	0.23002	0.25089	-3.6229	-3.2458	-3.7833	-3.7313	-3.3146	-3.95	-3.7375	-3.4313	-4.0896	-3.2896	-3.7333	-3.875	-3.1562	-4.0771	-3.7	-3.3458	357.043	493.296	201.806	429.019	430.728	173.160	448.673	499.460	263.171	275.323	207.931	437.374	400.938	471.320	490.667	438.865	0.00090742	0.00025593	9.8953e-05	1099.1	2.9659e-06	2.7543e-06	1175.2	221.66	7.2711e-06	2.0888e-06	277.93	78.703	62.741	18.277	2.3687e-06	25.178	0.00073101	0.00098509	0.00026305	1104.2	9.5835e-06	1.0218e-05	1174.5	222.9	9.0447e-06	1.0897e-05	281.15	79.673	63.481	18.935	9.4532e-06	26.273	370.242	221.668	269.871	170.374	299.389	271.812	170.210	177.941	311.335	327.147	177.445	183.939	184.639	191.762	327.290	191.410	-8191	255	
1328.947	1	1	0	0	0.16456	0.15147	0.14958	0.26545	0.11874	0.11902	0.19731	0.18555	0.25765	0.081928	0.14225	0.15379	0.03918	0.10417	0.15663	0.12869	-3.6562	-3.2896	-3.4646	-3.9688	-3.0979	-3.8104	-3.8167	-3.2917	-3.9729	-3.3812	-3.5604	-3.9875	-3.4729	-3.7896	-3.7146	-3.2938	380.956	308.263	471.243	494.326	166.225	281.034	419.198	458.140	331.303	258.719	240.113	489.455	326.732	321.010	283.822	249.097	0.00092126	0.00018561	7.0902e-05	1106.2	2.9447e-06	3.3373e-06	1176.8	223.58	6.6832e-06	3.0706e-06	278.3	78.363	62.137	18.434	3.947e-06	25.36	0.00071991	0.00090543	0.00026006	1105.3	9.6153e-06	1.0324e-05	1176.5	223.23	9.1808e-06	1.0458e-05	281.21	79.372	63.233	18.933	9.3919e-06	26.286	368.261	235.040	261.344	170.464	353.040	340.876	170.123	177.908	296.251	311.652	177.430	183.964	184.705	191.780	310.130	191.289	-8191	255	
1329.041	1	1	0	0	0.2633	0.052701	0.044239	0.18436	0.053821	0.15968	0.12547	0.34656	0.24596	0.049085	0.076515	0.030755	0.2931	0.19676	0.19685	0.090649	-3.7104	-3.4562	-3.6562	-4.1062	-3.2583	-3.8063	-3.9625	-3.3438	-3.9125	-3.5125	-3.4188	-4.0625	-3.3375	-3.6229	-3.8292	-3.2771	173.433	179.261	300.666	486.959	386.674	435.116	418.339	393.295	481.314	254.196	206.352	274.958	242.168	421.558	335.748	423.697	0.00094718	0.00037595	0.00011534	1107.3	3.5141e-06	1.2515e-06	1173.1	222.01	7.8704e-06	5.7556e-06	277.38	78.713	62.649	18.418	1.4662e-06	25.359	0.00073208	0.0009294	0.00026272	1104	9.8831e-06	1.0401e-05	1172.2	222.99	9.1831e-06	1.0219e-05	281	79.528	63.343	18.934	9.7122e-06	26.315	368.136	236.018	214.224	170.362	305.520	257.505	170.296	177.896	325.375	354.180	177.371	184.125	184.512	191.929	362.563	191.611	-8191	255	
1329.137	1	1	0	0	0.16604	0.11876	0.1426	0.33669	0.1502	0.31257	0.21523	0.22011	0.30661	0.02578	0.09146	0.051907	0.12171	0.0878	0.17095	0.10041	-3.575	-3.5917	-3.3333	-4.0896	-3.3812	-3.6688	-4.2583	-3.3688	-3.9583	-3.4875	-3.4208	-4.0208	-3.4167	-3.7042	-4	-3.2229	419.815	429.933	274.119	165.965	200.585	289.265	478.185	446.015	380.754	292.348	439.025	299.297	377.759	322.797	468.522	433.236	0.00096152	0.00015165	4.6253e-05	1106.6	6.3742e-06	2.5146e-06	1172.2	221.44	3.3327e-06	6.8917e-07	278.2	78.628	62.854	18.162	1.3603e-06	25.463	0.00071722	0.00092576	0.00025783	1105.7	9.6814e-06	9.9113e-06	1171.8	222.77	9.0174e-06	9.792e-06	280.93	79.43	63.421	18.861	9.4039e-06	26.314	367.456	294.111	250.023	170.758	333.079	307.698	170.366	177.771	296.466	365.075	177.718	184.336	184.423	191.763	278.053	190.936	-8191	255	
1329.258	1	1	0	0	0.10162	0.14021	0.28345	0.094564	0.17243	0.1517	0.1681	0.27103	0.18876	0.027122	0.1224	0.18573	0.36376	0.20256	0.25091	0.11168	-3.4021	-3.6854	-3.1958	-4.0792	-3.1729	-3.4062	-4.1375	-3.4646	-3.7521	-3.6521	-3.3125	-3.9083	-3.3229	-3.5521	-3.9875	-3.2417	229.827	388.235	313.712	214.266	185.010	403.094	398.511	488.970	399.498	256.575	181.253	495.074	168.540	223.645	317.369	474.118	0.00099531	0.00018822	9.8159e-05	1101.8	4.1096e-06	1.332e-06	1178	222.34	5.7175e-06	3.9875e-06	278.78	78.069	62.952	18.3	4.3073e-06	25.485	0.00071552	0.00088664	0.00026356	1102.5	9.4376e-06	1.0168e-05	1172.5	222.93	8.8824e-06	1.0127e-05	280.85	79.272	63.426	18.878	9.4355e-06	26.266	368.016	253.832	268.267	170.435	309.777	322.309	170.134	177.872	355.430	288.556	177.339	184.163	184.604	191.849	344.708	191.212	-8191	255	
1329.329	1	1	0	0	0.24892	0.11635	0.20969	0.42595	0.15771	0.30395	0.06707	0.137	0.20891	0.20873	0.12637	0.13687	0.14215	0.17127	0.19576	0.083244	-3.3458	-3.8104	-3.3229	-4.0479	-3.3771	-3.5521	-4.0312	-3.275	-3.7229	-3.8021	-3.2417	-4.1229	-3.5146	-3.4458	-3.9292	-3.1958	362.473	476.758	332.507	510.211	428.341	254.396	443.757	453.863	502.207	485.695	409.204	187.897	285.819	189.765	220.972	455.860	0.00083717	0.00013655	6.0579e-05	1105.7	3.4641e-06	3.5658e-06	1179.5	222.47	5.3377e-06	2.2209e-06	278.11	78.659	62.622	18.381	5.4528e-06	25.574	0.00072743	0.00093346	0.00025826	1104.1	9.3577e-06	1.035e-05	1176.2	223.04	9.0011e-06	1.0483e-05	280.5	79.307	63.37	18.894	9.3199e-06	26.332	372.714	225.812	259.772	170.765	294.554	338.077	170.433	178.007	307.825	270.914	177.556	184.319	184.006	192.012	306.689	191.634	-8191	255	
1329.426	1	1	0	0	0.11108	0.19084	0.32915	0.14076	0.085244	0.13972	0.22361	0.15286	0.17232	0.2824	0.027734	0.10645	0.2912	0.19059	0.10447	0.079602	-3.2167	-3.8396	-3.3208	-4.075	-3.4771	-3.35	-4.1604	-3.4167	-3.7125	-4.0375	-3.3292	-4.0167	-3.7792	-3.2896	-3.9542	-3.45	202.670	177.596	425.320	425.245	286.139	517.503	399.689	464.376	304.296	379.152	263.677	514.377	462.257	235.978	435.786	504.371	0.00085604	0.00021215	0.00011817	1105.6	3.4384e-06	2.2254e-06	1178.1	220.95	7.9363e-06	3.1601e-06	277.09	78.565	62.526	18.23	2.7403e-06	25.23	0.00072223	0.00089391	0.0002685	1102.9	9.4736e-06	1.0215e-05	1174.3	222.57	9.1296e-06	1.0336e-05	280.39	79.263	63.356	18.882	9.3439e-06	26.235	367.910	208.818	254.462	171.068	332.097	292.238	170.553	178.022	318.858	338.111	177.533	184.205	184.607	191.594	257.620	190.941	-8191	255	
1329.522	1	1	0	0	0.074781	0.13911	0.060922	0.10517	0.21021	0.10985	0.38723	0.31219	0.20175	0.050501	0.10147	0.14143	0.25663	0.15756	0.12562	0.1005	-3.1271	-4.0021	-3.2938	-3.9062	-3.7292	-3.2917	-4.0583	-3.5062	-3.3771	-4.0687	-3.3646	-3.9604	-3.8542	-3.35	-3.9104	-3.7854	223.182	480.303	164.922	464.711	303.630	452.740	482.873	185.746	262.046	457.604	311.062	419.267	414.541	496.166	437.966	173.129	0.00089946	0.00038243	4.8967e-05	1100.9	2.9291e-06	3.0728e-06	1169.7	219.61	7.3674e-06	4.3017e-06	277.14	78.03	62.163	18.264	3.3761e-06	25.504	0.00069811	0.00090611	0.00026664	1103.2	9.4195e-06	1.0438e-05	1171.7	222.25	9.1558e-06	1.0088e-05	280.84	79.352	63.223	18.932	9.6572e-06	26.308	367.473	241.591	257.237	170.617	262.250	334.522	170.390	178.155	294.331	306.788	177.521	184.492	184.581	191.870	322.732	190.886	-8191	255	
1329.642	1	1	0	0	0.039857	0.068178	0.15297	0.25038	0.20283	0.24749	0.051819	0.34058	0.026799	0.14525	0.087652	0.20173	0.083301	0.21782	0.16908	0.17661	-3.0208	-4.1625	-3.3333	-3.9042	-3.8479	-3.2417	-4.2021	-3.5854	-3.5062	-3.8896	-3.3771	-3.8229	-3.9292	-3.2375	-3.9562	-3.7521	165.279	207.893	506.818	498.661	280.189	394.022	190.779	511.353	265.514	283.864	478.189	165.798	222.014	178.659	398.731	427.178	0.00090175	0.00022728	8.13e-05	1096.8	4.2122e-06	1.9142e-06	1168.6	220.57	7.7193e-06	4.1844e-06	276.49	78.008	62.747	18.214	5.7494e-06	25.226	0.00071412	0.00086723	0.00025802	1101	9.3793e-06	1.0293e-05	1171.8	222.07	9.1645e-06	1.0191e-05	279.61	79.197	63.405	18.805	9.313e-06	26.256	368.636	263.725	270.480	170.922	300.752	330.935	170.304	178.326	321.620	344.315	177.666	184.673	184.771	192.383	303.977	191.596	-8191	255	
1329.739	1	1	0	0	0.16187	0.081899	0.1942	0.27013	0.044254	0.42898	0.10057	0.46057	0.20354	0.23101	0.087472	0.058088	0.10235	0.071438	0.42535	0.016006	-2.9	-3.9688	-3.4313	-3.7167	-3.9167	-3.4146	-3.9521	-3.8917	-3.3083	-3.9458	-3.5417	-3.7833	-3.9437	-3.3208	-3.7896	-3.775	466.091	349.777	185.195	494.982	354.544	177.586	426.350	503.340	515.980	513.083	420.180	436.993	472.069	444.816	342.405	406.260	0.0009258	6.7597e-05	8.7177e-05	1105.3	3.5559e-06	3.6394e-06	1176.2	220.58	6.7169e-06	4.3592e-06	276.86	78.031	62.711	18.143	2.5712e-06	25.295	0.00074119	0.00091325	0.00026194	1103.2	9.3895e-06	1.0167e-05	1173.1	222.2	9.731e-06	9.9268e-06	280.71	79.34	63.218	18.763	9.3863e-06	26.233	366.794	304.257	245.194	170.942	282.037	313.735	170.713	177.720	335.312	312.841	177.594	184.564	184.686	191.968	253.396	191.528	-8191	255	
1329.835	1	1	0	0	0.18948	0.045618	0.17435	0.22174	0.15242	0.13771	0.16612	0.090231	0.23883	0.15382	0.072869	0.11736	0.22526	0.17138	0.34149	0.084991	-3.0792	-4.0667	-3.4188	-3.65	-3.9979	-3.2917	-3.9688	-3.9792	-3.4083	-4.1	-3.7333	-3.6542	-4.0958	-3.3542	-3.7687	-3.8396	319.829	375.288	281.553	466.300	246.890	349.234	443.754	162.457	364.729	376.577	469.704	161.697	512.220	452.227	238.110	446.711	0.00087021	0.00019868	0.00013542	1100.4	4.0665e-06	3.11e-06	1167	221.88	4.0673e-06	3.1738e-06	276.17	77.881	62.497	18.224	5.4677e-06	25.416	0.00074842	0.00090272	0.00025479	1102.3	9.3709e-06	1.0417e-05	1172	222.93	9.2541e-06	1.0052e-05	279.96	79.174	63.309	18.834	9.4134e-06	26.234	368.609	238.295	236.990	170.841	273.494	279.742	170.461	178.128	328.062	329.799	177.711	184.373	184.781	192.166	306.284	191.307	-8191	255	
1329.906	1	1	0	0	0.079089	0.060294	0.23247	0.13064	0.24853	0.21725	0.13954	0.028622	0.16685	0.029746	0.11796	0.26328	0.068814	0.28459	0.12238	0.16888	-2.9437	-3.9583	-3.4667	-3.5604	-4.0167	-3.2167	-3.9188	-3.9729	-3.3375	-3.8292	-3.625	-3.3937	-4.15	-3.5479	-3.7979	-3.8667	297.703	465.281	418.776	473.891	509.477	499.314	443.862	196.271	235.224	195.410	381.350	160.949	500.735	168.798	336.199	334.295	0.00089822	0.00039298	0.00012232	1098.8	5.706e-06	2.5251e-06	1168.8	222.3	4.5068e-06	3.3381e-06	276.78	78.363	62.498	18.202	5.0528e-06	25.278	0.00072673	0.00087647	0.00025125	1101.5	9.3445e-06	1.0069e-05	1173.3	222.85	9.6601e-06	1.0218e-05	280.14	79.385	63.302	18.874	9.6736e-06	26.306	372.716	256.311	253.378	170.755	284.429	298.186	170.819	178.085	318.653	312.509	177.303	184.691	184.537	191.698	310.868	191.478	-8191	255	
1330.027	1	1	0	0	0.044921	0.19085	0.08187	0.23206	0.073703	0.060139	0.13955	0.11796	0.088541	0.070904	0.14499	0.2176	0.27714	0.063499	0.083227	0.25913	-2.7833	-3.7833	-3.775	-3.3979	-4.0167	-3.4354	-3.6167	-3.9625	-3.3187	-3.7354	-3.825	-3.3104	-4.0312	-3.4396	-3.3375	-3.9833	475.280	236.297	173.762	417.605	209.982	382.212	369.818	515.597	222.913	209.914	242.268	410.914	470.139	167.747	227.591	217.048	0.00089068	0.00018277	6.1152e-05	1100.5	3.7745e-06	2.8897e-06	1170.3	221.15	5.2738e-06	3.0492e-06	277.44	78.55	62.254	18.279	3.5558e-06	25.531	0.00072806	0.00091738	0.00025265	1101.9	9.5012e-06	1.034e-05	1172.4	222.22	9.4041e-06	1.011e-05	280.44	79.29	63.143	18.87	9.6768e-06	26.331	363.450	231.463	259.289	171.159	308.914	306.100	170.864	178.282	280.084	335.557	177.723	184.677	184.969	192.389	335.009	191.589	-8191	255	
1330.121	1	1	0	0	0.044671	0.11052	0.11772	0.080968	0.13747	0.094338	0.10885	0.19272	0.15965	0.047742	0.05995	0.14658	0.065771	0.13062	0.081769	0.23583	-2.7771	-3.725	-3.7521	-3.3958	-3.8958	-3.4229	-3.6729	-4.2042	-3.2021	-3.5812	-3.8542	-3.2646	-4.1042	-3.7687	-3.3333	-4.0875	209.206	401.006	383.127	435.130	475.260	391.968	519.997	482.313	217.078	483.249	174.138	394.337	510.434	428.854	186.477	207.808	0.00092662	0.00028309	7.3393e-05	1105.9	5.6125e-06	2.9901e-06	1171	222.42	3.2358e-06	2.078e-06	277.85	78.104	62.653	18.071	4.8608e-06	25.639	0.00072991	0.00089865	0.00025329	1103.4	9.3661e-06	1.008e-05	1171.8	223.18	9.0278e-06	1.0162e-05	280.67	79.22	63.34	18.799	9.5385e-06	26.323	369.069	223.136	270.399	171.481	296.555	327.597	170.971	178.217	343.061	262.071	177.867	184.989	185.034	192.219	304.882	191.209	-8191	255	
1330.219	1	1	0	0	0.18243	0.19898	0.08933	0.305	0.077646	0.15288	0.27828	0.15707	0.14666	0.088255	0.10374	0.30705	0.39796	0.21586	0.12811	0.25776	-3.0271	-3.5729	-3.8375	-3.3375	-4.2042	-3.5771	-3.4271	-4.1771	-3.3563	-3.6063	-4.05	-3.1917	-3.7146	-3.8542	-3.2271	-4.1813	284.714	426.052	462.193	507.398	335.928	340.604	494.477	470.639	225.902	459.009	376.562	478.702	506.727	388.344	247.025	229.924	0.00090814	0.00027608	0.00010329	1094.9	7.1162e-06	2.4805e-06	1169.4	222.2	6.6466e-06	3.5571e-06	276.87	78.302	62.004	18.209	4.7482e-06	25.33	0.0007136	0.00090629	0.0002452	1099.1	8.9686e-06	1.0073e-05	1171.2	222.64	8.9895e-06	1.0153e-05	279.87	79.278	63.153	18.89	9.817e-06	26.259	365.643	258.664	269.134	170.633	307.814	259.628	170.700	177.834	342.645	302.770	177.539	184.590	184.774	192.087	282.383	191.407	-8191	255	
1330.338	1	1	0	0	0.045984	0.17032	0.27943	0.16694	0.071139	0.25046	0.15393	0.24412	0.12061	0.12738	0.1303	0.17117	0.1938	0.090261	0.15792	0.10724	-3.075	-3.5771	-3.8896	-3.4208	-3.925	-3.8375	-3.375	-3.9958	-3.3625	-3.4854	-4.0813	-3.3292	-3.7271	-3.85	-3.2479	-3.9042	347.273	255.175	357.755	444.134	242.833	411.398	433.833	446.965	404.215	200.832	438.951	465.818	487.358	201.059	354.653	236.119	0.00094059	0.00033	0.00012546	1093.5	6.9224e-06	2.9105e-06	1175.7	220.9	7.1682e-06	4.4811e-06	275.55	78.231	62.316	18.265	4.8811e-06	25.223	0.00072275	0.00089557	0.0002425	1099.4	9.1746e-06	9.8297e-06	1173.1	222.62	8.9342e-06	1.0071e-05	279.87	79.285	63.295	18.853	9.5467e-06	26.265	364.407	232.970	272.798	170.938	278.000	284.447	170.731	178.211	329.955	332.597	177.661	184.459	184.674	192.054	298.978	191.406	-8191	255	
1330.434	1	1	0	0	0.18542	0.18652	0.25438	0.22656	0.18209	0.15477	0.18622	0.18171	0.19025	0.34579	0.1601	0.28229	0.30288	0.070096	0.27779	0.26888	-3.0958	-3.25	-3.8083	-3.3438	-3.7354	-3.5875	-3.2188	-3.9646	-3.4938	-3.2583	-4.1625	-3.2583	-3.8167	-3.8292	-3.2583	-3.8896	377.514	342.892	504.583	177.024	299.195	401.173	453.799	381.025	337.373	206.058	408.254	471.293	498.231	451.789	486.059	382.274	0.00089831	0.00025636	0.00010192	1102.3	4.0662e-06	2.4098e-06	1168.2	221.52	4.5878e-06	4.8293e-06	277.35	77.959	62.471	18.206	5.5704e-06	25.239	0.00072994	0.00089385	0.00023981	1101.8	9.3049e-06	9.4587e-06	1170	222.67	8.7696e-06	9.999e-06	280.74	79.213	63.147	18.853	9.4254e-06	26.211	372.268	232.760	267.895	171.034	271.647	274.646	170.671	178.400	307.038	314.975	177.995	184.476	185.248	192.123	289.249	191.669	-8191	255	
1330.530	1	1	0	0	0.08938	0.24023	0.053793	0.38605	0.26609	0.063151	0.089411	0.185	0.23259	0.21838	0.012748	0.15864	0.18269	0.099125	0.021118	0.22728	-3.1479	-3.4958	-4.0396	-3.4458	-3.6562	-4.0146	-3.3646	-4.0271	-3.5833	-3.125	-3.9896	-3.4	-3.6146	-4.0938	-3.2917	-3.9771	328.029	166.880	463.613	457.873	418.819	342.262	428.997	478.312	446.048	507.339	216.542	337.858	280.763	298.138	511.844	462.111	0.0009656	0.00042371	8.4618e-05	1099.8	4.1809e-06	2.9183e-06	1170.9	222.4	4.7814e-06	2.8928e-06	278.39	77.982	62.45	18.391	5.4911e-06	25.119	0.00069527	0.00089958	0.00023729	1099	9.1902e-06	9.5639e-06	1169.5	222.96	8.7655e-06	9.9261e-06	280.37	79.221	63.231	18.916	9.6452e-06	26.222	365.227	242.632	257.506	171.272	287.297	298.622	171.085	178.386	304.473	327.082	178.194	185.116	185.271	192.911	324.868	191.891	-8191	255	
1330.627	1	1	0	0	0.14344	0.12488	0.12427	0.10495	0.02719	0.078485	0.070116	0.1488	0.082101	0.18961	0.036711	0.14074	0.023579	0.16988	0.23625	0.076386	-3.3833	-3.3792	-4.0521	-3.6125	-3.5	-3.9667	-3.4521	-3.9521	-3.7979	-3.1625	-4.225	-3.4771	-3.7292	-3.9854	-3.3604	-3.8854	260.192	316.214	206.671	261.306	429.522	312.320	391.865	251.939	331.857	386.905	294.423	259.554	202.834	296.707	242.996	468.224	0.00087541	0.00037186	0.00010557	1100.2	3.3526e-06	2.5862e-06	1175.4	221.34	5.1596e-06	1.617e-06	277.41	78.578	62.483	18.434	4.2051e-06	25.368	0.00069092	0.00088651	0.0002386	1100.1	9.1127e-06	9.2068e-06	1170.4	222.3	9.0435e-06	1.0056e-05	280.1	79.199	63.143	18.874	9.0951e-06	26.305	366.466	245.654	273.394	170.822	303.993	296.279	170.882	178.416	318.392	309.135	178.266	184.306	185.030	192.082	283.073	191.345	-8191	255	
1330.723	1	1	0	0	0.079692	0.10072	0.13373	0.31605	0.16293	0.21157	0.36021	0.23393	0.14341	0.24827	0.15499	0.28436	0.27604	0.090865	0.26705	0.074819	-3.475	-3.2583	-3.9833	-3.625	-3.3771	-4.1021	-3.4042	-3.8583	-3.9271	-3.2812	-3.9562	-3.5187	-3.3917	-4.025	-3.3833	-3.6479	167.206	277.788	229.356	500.458	453.262	357.790	457.195	460.316	464.839	200.107	240.841	444.095	274.801	333.121	365.313	300.789	0.00085697	0.00038499	8.1226e-05	1108.3	2.964e-06	2.2315e-06	1169.7	222.79	7.7009e-06	5.2524e-06	276.08	77.888	62.564	18.387	2.7578e-06	25.449	0.00068041	0.00087167	0.00023993	1099	9.3211e-06	9.3043e-06	1166.4	222.18	8.505e-06	9.7308e-06	280.39	79.037	63.21	18.828	9.0382e-06	26.239	362.766	229.713	260.461	171.010	292.937	339.944	171.037	178.639	321.385	302.785	178.228	184.709	185.305	192.742	251.275	191.772	-8191	255	
1330.819	1	1	0	0	0.27588	0.33859	0.088905	0.18975	0.1447	0.031964	0.23952	0.17671	0.2462	0.22353	0.1212	0.063006	0.20002	0.037782	0.1218	0.12536	-3.6396	-3.3396	-3.8688	-3.8333	-3.1917	-4.1292	-3.6312	-3.5938	-3.8917	-3.1917	-4.0833	-3.7	-3.45	-4.1125	-3.375	-3.5521	398.788	437.286	313.151	329.397	356.126	262.751	457.799	415.388	479.684	489.400	442.962	439.078	251.738	264.726	189.938	502.643	0.00081679	0.00031962	0.00010647	1100.6	4.3685e-06	2.5485e-06	1170.3	222.79	4.7557e-06	3.5175e-06	275.56	77.755	62.434	18.358	3.7492e-06	25.248	0.00069837	0.0008769	0.00023589	1098.8	9.0575e-06	9.6047e-06	1165.4	222.51	8.2648e-06	9.5815e-06	279.57	79.028	63.151	18.869	8.7888e-06	26.235	369.191	209.902	275.884	171.227	331.910	278.120	171.142	178.635	289.195	283.806	178.334	184.755	185.176	192.455	282.207	191.596	-8191	255	
1330.940	1	1	0	0	0.11331	0.044203	0.14111	0.06365	0.18637	0.055565	0.062323	0.28723	0.060273	0.14375	0.1508	0.23419	0.25159	0.079748	0.11526	0.0074369	-3.6688	-3.2479	-3.9417	-4.1188	-3.2729	-4.2542	-3.6646	-3.5375	-4.1333	-3.3333	-3.8271	-3.9437	-3.1833	-4.0167	-3.425	-3.6542	179.381	403.204	383.499	213.658	182.392	444.138	321.170	520.343	460.893	399.527	495.061	467.301	337.260	308.653	184.597	220.169	0.00085698	0.00050223	7.3491e-05	1101.7	3.0646e-06	1.5823e-06	1171	221.4	8.8392e-06	4.3931e-06	277.26	77.879	62.744	18.23	3.5972e-06	25.545	0.00066008	0.00083914	0.00023182	1098.7	8.6209e-06	8.3305e-06	1167.9	222.07	8.0542e-06	9.0833e-06	280.11	79.107	63.227	18.797	8.1262e-06	26.31	369.198	264.803	239.185	171.141	274.546	350.273	170.905	178.540	310.004	360.039	178.124	184.875	185.092	192.263	328.495	191.259	-8191	255	
1331.034	1	1	0	0	0.15353	0.12351	0.098819	0.072937	0.17713	0.17595	0.48762	0.12957	0.16135	0.2251	0.11937	0.26825	0.16657	0.18091	0.27346	0.060223	-3.5146	-3.1229	-3.5875	-3.9437	-3.1833	-3.8896	-3.8438	-3.6729	-3.9875	-3.2562	-3.6917	-4.075	-3.2646	-3.9167	-3.725	-3.3812	291.082	214.231	180.473	430.481	434.460	508.251	492.534	199.000	322.471	368.027	467.353	511.336	204.018	428.761	273.289	508.243	0.00091284	0.00013019	0.00012247	1097.1	3.8654e-06	2.8019e-06	1174.2	221.58	5.5924e-06	3.6717e-06	277.09	78.744	62.629	18.547	2.9397e-06	25.351	0.00065433	0.00080402	0.00022545	1096.6	8.5669e-06	8.4842e-06	1169.4	222.26	7.7878e-06	8.3399e-06	280.04	79.151	63.192	18.901	8.1237e-06	26.208	372.832	268.175	256.701	171.067	284.713	285.190	171.009	178.677	316.477	305.461	178.368	184.814	185.369	192.614	287.698	191.744	-8191	255	
1331.130	1	1	0	0	0.13358	0.16066	0.24794	0.3687	0.1358	0.039795	0.42841	0.20794	0.062037	0.12161	0.23109	0.22634	0.16915	0.23294	0.2577	0.29093	-3.8708	-3.4125	-3.4729	-4.1667	-3.2604	-3.8063	-4.0083	-3.425	-4.1542	-3.4625	-3.5708	-4.2146	-3.2771	-3.775	-3.8083	-3.325	449.892	162.014	266.731	479.202	487.165	417.875	514.717	385.139	276.437	514.338	439.178	189.286	498.298	501.467	198.976	368.111	0.00084734	0.00042231	7.313e-05	1097.9	3.3903e-06	2.9651e-06	1166.7	221.39	6.8442e-06	5.0618e-06	277.32	78.337	62.243	18.228	3.3228e-06	25.379	0.00063493	0.00081517	0.00022931	1096	8.8113e-06	8.9119e-06	1167.8	222.09	8.1007e-06	8.9847e-06	280	79.152	63.093	18.807	8.6694e-06	26.175	373.111	237.917	263.835	171.093	276.114	317.066	171.026	178.542	336.216	301.909	178.096	184.536	184.892	192.442	290.091	191.686	-8191	255	
1331.202	1	1	0	0	0.13221	0.21393	0.15179	0.26044	0.21804	0.14796	0.19896	0.49035	0.15804	0.031224	0.34122	0.17589	0.17374	0.18593	0.19534	0.11475	-3.75	-3.4708	-3.5604	-4.0125	-3.3396	-3.6979	-4.0042	-3.4458	-4.1125	-3.4896	-3.5438	-4.0354	-3.4771	-3.6917	-3.9542	-3.3146	391.814	477.031	434.002	456.431	367.583	366.416	506.619	440.915	388.871	219.941	510.778	496.331	182.093	338.392	472.056	341.363	0.00099169	0.00011706	7.7727e-05	1095.5	4.3264e-06	1.7867e-06	1170	220.99	7.033e-06	1.1667e-06	277.49	77.832	62.49	18.251	3.297e-06	25.336	0.00066971	0.00083094	0.0002324	1097.7	8.6636e-06	9.4836e-06	1168.9	222.22	8.2508e-06	9.3793e-06	280	78.984	63.247	18.828	8.7591e-06	26.248	370.556	190.877	225.820	170.952	282.834	261.416	170.561	178.242	354.479	263.482	177.657	184.549	184.658	191.923	312.018	191.410	-8191	255	
1331.322	1	1	0	0	0.26018	0.05266	0.074979	0.076896	0.16675	0.28003	0.064386	0.072809	0.21532	0.030257	0.31029	0.17704	0.22213	0.25111	0.15928	0.1924	-3.4104	-3.6417	-3.5083	-4.225	-3.3	-3.6021	-4.0271	-3.1667	-3.8667	-3.8958	-3.4458	-3.9292	-3.3187	-3.5312	-3.9229	-3.1646	359.319	412.404	174.734	196.386	277.506	194.402	430.492	432.741	432.383	467.299	445.872	205.521	497.533	477.294	284.441	278.318	0.00093997	0.00033839	0.0001558	1097.6	4.3651e-06	5.2226e-06	1168.7	221.27	7.1131e-06	1.6055e-06	275.52	78.156	62.335	18.167	2.1839e-06	25.414	0.00069343	0.00081178	0.00024053	1097.7	9.1157e-06	9.5971e-06	1167.2	222.24	8.4875e-06	9.4502e-06	279.53	79.03	63.032	18.803	8.7376e-06	26.254	366.268	268.982	249.429	170.971	287.336	273.706	170.745	178.178	307.072	349.998	177.954	184.546	185.119	192.472	273.729	191.421	-8191	255	
1331.419	1	1	0	0	0.060933	0.077633	0.042025	0.15567	0.27839	0.10256	0.22006	0.12827	0.044788	0.10096	0.10754	0.072165	0.082996	0.10518	0.06284	0.23844	-3.5604	-3.6042	-3.4396	-4.0521	-3.4729	-3.5146	-4.0583	-3.3812	-3.8333	-3.7562	-3.3979	-3.9646	-3.375	-3.4104	-4.1937	-3.3271	494.729	450.092	199.098	506.602	498.125	459.132	435.306	303.972	168.204	472.664	308.795	468.943	170.395	169.894	165.363	421.307	0.00087641	0.00051256	0.00010875	1099.2	3.2334e-06	4.2142e-06	1170	222.12	3.3766e-06	3.832e-06	277.42	78.248	62.41	18.316	1.6689e-06	25.406	0.00069107	0.00088023	0.00024528	1096.9	9.1704e-06	9.9965e-06	1168.1	222.28	8.6608e-06	9.6398e-06	280.41	79.192	63.025	18.854	9.2385e-06	26.236	373.628	249.427	238.859	171.046	296.211	305.546	171.018	178.732	309.047	312.089	178.185	184.696	185.000	192.615	327.138	191.631	-8191	255	
1331.515	1	1	0	0	0.20195	0.14482	0.13835	0.19811	0.088914	0.10259	0.17965	0.30706	0.1512	0.28386	0.26882	0.10534	0.06937	0.16039	0.078007	0.10145	-3.175	-3.8563	-3.2104	-4.1333	-3.4125	-3.325	-4.1021	-3.3833	-3.6458	-3.8104	-3.4188	-3.9979	-3.725	-3.4479	-3.9083	-3.3667	264.917	175.720	317.572	241.475	465.210	299.616	468.322	442.658	281.196	416.365	433.993	354.303	191.712	457.995	177.765	243.755	0.0010233	0.00016998	0.0001136	1096.6	3.9367e-06	2.1398e-06	1164.9	222.01	4.7777e-06	2.6612e-06	276.05	78.148	62.111	18.355	2.1896e-06	25.398	0.00071165	0.00092145	0.00024939	1097.7	9.0917e-06	9.5798e-06	1165.8	222.67	9.1575e-06	9.7962e-06	279.67	79.205	62.981	18.868	9.2947e-06	26.23	367.714	223.894	260.609	171.201	320.115	332.896	170.981	178.703	325.528	334.643	178.139	184.800	185.284	192.860	267.923	192.208	-8191	255	
1331.611	1	1	0	0	0.075678	0.18364	0.055533	0.15807	0.18025	0.077479	0.17094	0.040134	0.086182	0.26205	0.11758	0.25254	0.18297	0.077919	0.10317	0.18234	-3.3063	-3.9	-3.2646	-4.0188	-3.6042	-3.3667	-4.0708	-3.45	-3.5854	-3.8604	-3.2542	-3.9896	-3.825	-3.3812	-3.8521	-3.5583	461.248	419.285	230.092	409.978	249.672	226.277	490.925	210.172	386.761	376.496	204.613	430.104	452.045	396.067	165.839	317.911	0.00093086	9.29e-05	0.00010674	1102	4.8786e-06	2.6386e-06	1166.9	222.26	6.5873e-06	4.7258e-06	276.8	77.798	62.223	18.273	3.5411e-06	25.333	0.00071515	0.00089841	0.00024892	1096	9.4796e-06	9.7452e-06	1165.1	222.74	9.1308e-06	9.6322e-06	279.57	79.126	62.995	18.806	9.2896e-06	26.18	369.281	260.817	255.340	171.166	289.923	285.465	170.904	178.442	310.424	332.850	178.492	184.884	185.460	192.496	300.443	191.712	-8191	255	
1331.707	1	1	0	0	0.037679	0.10925	0.042586	0.19452	0.1896	0.10781	0.33464	0.083963	0.092098	0.23463	0.26274	0.27435	0.36854	0.12783	0.31222	0.08696	-3.0687	-3.9313	-3.1792	-3.9667	-3.7896	-3.2375	-4.15	-3.8042	-3.3458	-4.0479	-3.4896	-3.8042	-4.0437	-3.375	-3.8937	-3.5417	287.593	415.308	394.046	182.071	403.364	231.422	454.641	272.119	320.010	300.184	437.317	519.297	205.482	209.207	326.833	396.265	0.00099765	0.00058424	0.0001297	1101.2	1.5954e-06	2.5299e-06	1169.9	221.73	7.4608e-06	2.6419e-06	277.45	77.952	62.15	18.287	2.5599e-06	25.331	0.00073157	0.00091566	0.00025466	1097.1	9.5619e-06	1.0019e-05	1166.4	222.66	8.8958e-06	9.8003e-06	280.51	79.05	62.928	18.827	9.0477e-06	26.237	377.385	242.254	229.631	171.391	289.259	286.048	170.743	178.495	326.599	333.509	178.015	184.643	185.021	192.401	302.811	191.745	-8191	255	
1331.803	1	1	0	0	0.25979	0.062399	0.10772	0.20896	0.15486	0.24757	0.074384	0.25781	0.18772	0.21811	0.29459	0.096994	0.13077	0.25414	0.29311	0.27322	-3.0812	-3.9979	-3.3083	-3.8292	-3.9396	-3.2458	-4.1771	-3.8396	-3.4313	-4.1042	-3.3104	-3.7042	-4.075	-3.3688	-4.0208	-3.6729	315.603	178.397	231.118	473.834	164.514	273.849	467.055	428.486	425.200	295.373	431.755	435.989	170.357	457.891	250.021	187.574	0.00090482	0.00043469	2.2522e-05	1098.9	5.1183e-06	3.3281e-06	1170.9	222.26	4.3352e-06	3.1762e-06	279.23	77.572	62.793	18.349	4.9538e-06	25.342	0.00071062	0.00088152	0.00025806	1095.8	9.0827e-06	9.8041e-06	1166.2	222.43	9.1965e-06	1.0199e-05	280.5	78.973	63.141	18.831	9.3793e-06	26.162	370.737	275.806	283.559	171.433	273.771	304.817	171.119	178.531	321.109	337.657	177.745	184.802	185.041	192.510	292.006	191.212	-8191	255	
1331.899	1	1	0	0	0.12818	0.10679	0.12613	0.16516	0.34563	0.2111	0.1447	0.17345	0.10166	0.11496	0.13053	0.045638	0.24626	0.24201	0.22007	0.12322	-2.8063	-4.1458	-3.3854	-3.6458	-3.8417	-3.2875	-4.2708	-3.7917	-3.3104	-4.1792	-3.625	-3.5833	-3.9833	-3.3771	-4.0604	-3.7167	388.535	420.863	502.705	455.181	514.068	487.349	393.819	513.200	246.358	225.352	476.748	419.826	230.883	288.074	255.772	409.682	0.00091451	0.00024492	6.6792e-05	1095.1	2.8293e-06	3.1205e-06	1168.7	221.58	6.3821e-06	3.8056e-06	277.07	78.338	62.431	18.237	5.0378e-06	25.38	0.00072382	0.00085713	0.00025144	1095.6	9.2076e-06	9.9363e-06	1166.3	222.14	9.0982e-06	9.8323e-06	279.8	78.99	63.169	18.77	9.0578e-06	26.201	365.386	219.982	247.206	171.234	380.467	302.750	170.661	178.258	319.120	307.414	177.927	184.504	184.763	192.000	291.966	191.337	-8191	255	
1332.020	1	1	0	0	0.076852	0.1684	0.10816	0.029242	0.062938	0.09655	0.14811	0.1935	0.26529	0.17531	0.20339	0.038982	0.21546	0.095478	0.18906	0.41416	-2.8521	-4.0375	-3.4688	-3.5438	-4.0896	-3.3021	-4.025	-3.7938	-3.3312	-3.975	-3.775	-3.4813	-4.0354	-3.3708	-3.7729	-4.0833	199.020	204.851	429.425	498.895	317.057	451.373	349.257	164.619	198.115	178.345	385.579	206.899	280.185	500.414	365.418	468.465	0.00082913	0.00032542	0.00012932	1104.4	6.497e-06	4.6861e-06	1169.2	221.08	5.5058e-06	3.9578e-06	276.57	77.942	62.227	18.226	3.4883e-06	25.331	0.00071589	0.00085509	0.0002522	1098.2	9.3181e-06	1.0167e-05	1164.6	222.05	8.9016e-06	9.7621e-06	279.85	78.957	62.924	18.774	9.0907e-06	26.149	371.344	256.531	219.386	171.022	301.556	280.781	170.901	178.195	301.944	340.797	177.768	184.886	185.284	191.672	315.269	191.357	-8191	255	
1332.114	1	1	0	0	0.036034	0.091883	0.13807	0.21803	0.15272	0.081343	0.27393	0.22506	0.032768	0.10155	0.16609	0.149	0.21782	0.26889	0.10199	0.1324	-2.925	-3.8833	-3.6042	-3.3833	-4.0292	-3.4313	-4.0292	-3.9333	-3.2146	-3.9833	-3.7854	-3.3167	-4.1146	-3.3167	-3.6312	-4.0604	250.316	312.271	339.868	444.445	362.999	169.253	417.288	363.351	248.899	446.627	431.926	474.873	171.254	205.565	164.406	408.353	0.00089711	0.00022414	0.00010537	1100	5.2153e-06	2.9557e-06	1171.3	221.11	4.8914e-06	2.1595e-06	277.36	77.988	61.933	18.37	3.2743e-06	25.124	0.00071073	0.00090814	0.00025295	1099.5	9.3859e-06	9.8027e-06	1167.9	222.35	9.0575e-06	9.956e-06	279.8	79.094	62.904	18.866	9.4418e-06	26.164	363.321	256.577	260.515	171.208	304.551	263.523	170.912	178.275	295.661	355.329	177.515	184.936	185.111	192.250	284.027	191.189	-8191	255	
1332.210	1	1	0	0	0.10713	0.23245	0.14743	0.092086	0.16709	0.13001	0.077025	0.24007	0.15935	0.28387	0.095205	0.21995	0.14801	0.22693	0.10281	0.065679	-2.9208	-3.9771	-3.6896	-3.4375	-3.9562	-3.4417	-3.6312	-3.9729	-3.2271	-3.9417	-3.8812	-3.1354	-4.1104	-3.5854	-3.4979	-4.1521	178.613	263.631	200.117	469.417	447.813	325.006	405.386	161.895	304.889	342.396	454.032	357.436	396.493	191.706	253.464	392.115	0.00095931	0.0002805	0.00012014	1096.5	6.5463e-06	2.965e-06	1171.5	221.93	9.1552e-06	4.0076e-06	277.41	78.309	62.162	18.18	6.6632e-06	25.379	0.0007077	0.00089083	0.00024773	1095.3	9.1986e-06	1.0044e-05	1166.6	222.16	9.1209e-06	1.0203e-05	280.26	78.936	63.109	18.806	9.3648e-06	26.205	365.051	230.872	236.400	170.872	318.244	288.329	170.600	178.138	314.113	305.032	177.754	184.452	185.470	192.480	273.767	191.510	-8191	255	
1332.307	1	1	0	0	0.093225	0.20553	0.030516	0.10672	0.17936	0.087047	0.16388	0.20078	0.075488	0.12123	0.18003	0.15087	0.27741	0.054744	0.082982	0.099998	-2.825	-3.8208	-3.8312	-3.3667	-3.975	-3.6729	-3.6146	-4.075	-3.4437	-3.7438	-3.9042	-3.3167	-4.0479	-3.5708	-3.4521	-4.1104	254.945	196.600	467.434	288.506	446.617	353.981	490.125	449.956	213.980	304.319	510.521	161.900	351.972	389.109	225.183	328.283	0.00096303	0.00025039	7.2871e-05	1092.6	3.9333e-06	4.2104e-06	1171.2	221.1	7.4672e-06	7.3328e-07	276.34	78.392	62.649	18.13	4.4924e-06	25.578	0.00072175	0.00087308	0.00024385	1094.1	9.1866e-06	1.004e-05	1166.4	221.73	9.0558e-06	9.9525e-06	279.52	79.004	63.062	18.763	9.2334e-06	26.23	368.321	196.780	265.666	171.182	342.781	351.284	171.121	178.486	332.816	290.763	177.736	184.951	185.577	192.175	316.683	191.771	-8191	255	
1332.427	1	1	0	0	0.15833	0.18505	0.10992	0.27998	0.2253	0.3541	0.20094	0.099571	0.10228	0.041086	0.088102	0.081983	0.22667	0.22079	0.11212	0.12783	-2.9083	-3.4958	-3.875	-3.3167	-3.7438	-3.7042	-3.475	-4.1604	-3.4021	-3.7	-4.0083	-3.2979	-3.9437	-3.6375	-3.3333	-3.9896	488.715	369.933	407.026	502.332	229.531	483.945	412.333	401.366	195.623	270.445	319.228	288.767	259.893	237.094	180.906	278.583	0.0009384	0.00038081	9.7494e-05	1094.2	4.0445e-06	4.2702e-06	1169.3	221.95	5.7329e-06	2.4472e-06	276.64	77.92	62	18.403	3.9368e-06	25.516	0.00072629	0.00090259	0.00024457	1093.5	9.0503e-06	9.5078e-06	1165.2	222.36	8.8976e-06	9.678e-06	279.51	78.687	62.905	18.872	9.2448e-06	26.18	370.080	261.114	258.390	171.176	309.373	323.986	170.894	178.539	320.471	293.517	178.211	184.406	184.934	192.940	324.652	191.465	-8191	255	
1332.499	1	1	0	0	0.078699	0.15316	0.049272	0.32174	0.18184	0.032099	0.26266	0.079739	0.023399	0.16076	0.019634	0.2836	0.066599	0.090704	0.021238	0.13958	-2.9833	-3.6042	-3.925	-3.3812	-3.9146	-3.7604	-3.2771	-4.0437	-3.475	-3.2042	-4.1271	-3.275	-3.9313	-3.7979	-3.2229	-4.0917	457.869	450.171	169.044	215.770	400.432	185.389	396.453	466.341	419.707	386.138	450.653	162.098	520.321	163.437	295.011	364.727	0.00085228	0.00029728	7.0001e-05	1102.2	6.509e-06	1.5919e-06	1170.1	220.22	7.1952e-06	4.466e-06	277.05	78.197	62.562	18.359	4.3367e-06	25.178	0.0007177	0.00086403	0.00023727	1097.1	9.2724e-06	9.4947e-06	1165.6	221.71	8.9435e-06	1.0129e-05	279.94	78.835	62.996	18.769	9.114e-06	26.126	367.502	232.281	210.313	171.150	317.020	308.290	171.107	178.524	316.849	334.488	178.188	184.756	185.338	192.588	305.837	191.642	-8191	255	
1332.620	1	1	0	0	0.08776	0.16848	0.20099	0.12	0.25708	0.23273	0.24991	0.10668	0.19464	0.21464	0.17208	0.17019	0.19524	0.19385	0.016569	0.26606	-3.1625	-3.2438	-4.1708	-3.5104	-3.6625	-3.8646	-3.6271	-4.1104	-3.4958	-3.3	-4.1333	-3.4	-3.6021	-3.925	-3.2562	-4.0292	444.313	378.087	474.832	439.422	417.453	458.133	169.158	422.780	505.487	299.347	449.781	498.380	489.828	376.641	382.148	509.717	0.00096198	0.0001486	9.9248e-05	1103	2.6853e-06	3.3183e-06	1164.7	221.76	8.3749e-06	3.4988e-06	276.73	77.892	62.38	18.142	3.992e-06	25.357	0.00069641	0.00086212	0.00023358	1095.7	9.1373e-06	9.7528e-06	1164.5	222.23	8.8958e-06	9.7934e-06	279.25	78.721	63.087	18.728	9.3098e-06	26.196	364.167	219.204	279.731	171.081	289.617	308.192	170.880	178.590	307.426	300.619	178.335	184.753	185.536	192.167	298.655	191.938	-8191	255	
1332.716	1	1	0	0	0.048965	0.12982	0.066005	0.22268	0.31897	0.098606	0.13684	0.10925	0.066832	0.15041	0.17718	0.2546	0.096211	0.10855	0.37731	0.22766	-3.2542	-3.4583	-3.9729	-3.3854	-3.5875	-3.9333	-3.475	-3.8271	-3.6063	-3.2521	-4.0125	-3.4958	-3.5854	-3.9292	-3.1917	-3.9042	253.298	215.142	491.045	421.096	247.557	225.428	481.654	490.368	210.239	169.609	459.591	480.490	416.706	430.404	329.644	227.644	0.0008937	0.00024091	9.0533e-05	1096.4	3.2516e-06	9.0892e-07	1169.5	221.52	8.7655e-06	3.7469e-06	276.45	77.532	62.034	18.23	2.1688e-06	25.27	0.00071275	0.00084074	0.00024737	1094.3	8.9818e-06	9.3528e-06	1164	222.31	8.7045e-06	9.9622e-06	279.27	78.831	62.916	18.762	8.9043e-06	26.167	365.984	209.374	252.886	170.634	319.960	438.034	170.563	177.962	331.762	323.886	177.584	184.083	184.771	192.005	305.825	191.081	-8191	255	
1332.812	1	1	0	0	0.15495	0.088726	0.069216	0.091404	0.25315	0.16636	0.29074	0.083134	0.15129	0.20606	0.26887	0.19623	0.16191	0.19479	0.074377	0.072854	-3.4	-3.2333	-3.8667	-3.6646	-3.3833	-3.9	-3.3708	-3.9917	-3.8542	-3.4062	-4.2042	-3.5833	-3.4729	-4.0333	-3.2333	-3.8146	376.686	497.155	170.518	354.717	304.434	246.897	471.569	193.989	311.713	232.465	504.784	174.116	365.109	474.669	502.234	392.432	0.00098079	0.00025979	0.00011667	1095.1	5.5093e-06	4.9819e-06	1164	221.17	6.1545e-06	2.311e-06	277.87	77.717	62.103	18.111	3.0178e-06	25.357	0.00069062	0.00087302	0.00023765	1093.7	8.8917e-06	9.2538e-06	1163.8	222.29	8.4951e-06	9.6551e-06	279.75	78.836	62.81	18.744	9.265e-06	26.182	367.812	270.566	286.529	170.653	333.962	318.730	170.679	178.103	302.535	359.703	177.904	184.109	185.019	192.328	295.039	191.792	-8191	255	
1332.908	1	1	0	0	0.11353	0.1198	0.098399	0.34876	0.22619	0.12672	0.17006	0.1382	0.1526	0.24081	0.098653	0.086238	0.15949	0.21878	0.30486	0.22696	-3.6042	-3.0875	-4.0396	-3.7271	-3.3729	-4.1229	-3.5042	-3.7125	-3.8312	-3.2188	-4.0563	-3.6979	-3.4083	-4.1188	-3.45	-3.6271	220.322	420.304	417.243	488.513	492.149	238.887	431.567	440.653	398.654	490.599	462.098	172.109	171.687	236.893	388.685	464.986	0.00094426	0.0004197	0.00013906	1094.7	3.2739e-06	3.6096e-06	1162.8	220.82	5.1506e-06	4.3263e-06	276.25	77.883	62.376	18.362	3.6907e-06	25.491	0.00067318	0.00086594	0.00022926	1090.9	8.7662e-06	9.0406e-06	1160.7	221.44	8.3869e-06	9.6454e-06	279.12	78.615	62.758	18.79	8.9283e-06	26.234	365.645	252.026	271.018	171.090	280.833	320.199	170.800	177.874	311.348	354.699	177.937	184.387	185.013	191.682	266.155	191.391	-8191	255	
1333.004	1	1	0	0	0.37572	0.12869	0.17237	0.097945	0.38669	0.1776	0.18595	0.18838	0.1073	0.11742	0.20988	0.053355	0.15157	0.13804	0.16343	0.10174	-3.5792	-3.1479	-3.7896	-3.8875	-3.2271	-4.1104	-3.5229	-3.5083	-3.825	-3.2271	-3.9604	-3.65	-3.2917	-4.1188	-3.4146	-3.625	187.722	228.900	271.538	484.323	289.892	459.922	427.204	175.427	477.203	329.326	421.035	351.661	378.068	486.375	203.971	222.822	0.00083832	0.00037684	0.00011518	1095.6	4.0275e-06	2.2256e-06	1167.7	220.69	5.3617e-06	2.4074e-06	277.47	78.213	62.112	18.204	3.3613e-06	25.135	0.00067288	0.00087592	0.00024188	1090.6	9.1824e-06	9.6303e-06	1162.4	221.69	8.605e-06	9.9365e-06	279.32	78.839	62.708	18.768	9.001e-06	26.131	368.128	259.613	255.828	170.716	342.264	320.651	170.246	177.959	311.657	362.662	177.762	184.292	184.541	191.780	314.767	191.138	-8191	255	
1333.099	1	1	0	0	0.050467	0.12203	0.22435	0.23537	0.18565	0.057655	0.14368	0.14405	0.098703	0.17379	0.14562	0.2897	0.31416	0.18344	0.16807	0.1527	-3.5312	-3.2104	-3.7812	-3.9271	-3.2625	-3.9833	-3.7479	-3.5521	-3.8083	-3.2208	-3.7021	-3.6979	-3.2438	-3.9479	-3.575	-3.4396	378.496	228.721	418.716	516.672	461.100	356.847	180.154	434.846	469.029	210.588	179.542	461.574	241.660	429.186	252.573	381.189	0.00092179	0.00018615	0.00011159	1099.9	3.2447e-06	2.7532e-06	1163.8	220.25	4.0825e-06	2.2445e-06	277.39	78.08	62.34	18.268	6.5691e-06	25.416	0.00069225	0.00088097	0.00024499	1092.8	9.201e-06	9.9702e-06	1160.9	221.4	8.4765e-06	9.9761e-06	279.62	78.742	62.794	18.792	9.1652e-06	26.192	363.649	245.327	234.273	170.689	292.884	288.264	170.383	178.051	298.948	325.677	177.547	184.051	184.561	191.963	312.096	191.224	-8191	255	
1333.195	1	1	0	0	0.10811	0.12582	0.20199	0.20668	0.14223	0.15915	0.026056	0.052304	0.04776	0.12836	0.20196	0.26044	0.10475	0.17302	0.20032	0.25284	-3.6271	-3.3	-3.4958	-3.7479	-3.3187	-3.8104	-3.7646	-3.4125	-4.0396	-3.3312	-3.5146	-4.0354	-3.2021	-3.7333	-3.7229	-3.3104	334.048	510.303	477.497	358.749	373.628	489.376	464.800	313.388	243.166	313.704	438.856	518.029	252.810	274.056	490.629	195.353	0.00088038	0.00019809	5.3976e-05	1094.9	4.1859e-06	2.1062e-06	1161.8	221.8	3.7563e-06	3.1798e-06	278.02	78.481	62.07	18.206	3.0083e-06	25.262	0.00068269	0.0008859	0.00024423	1090.9	9.3613e-06	9.6608e-06	1160.6	221.74	8.6544e-06	9.9879e-06	279.38	78.719	62.757	18.761	8.9473e-06	26.13	368.873	213.888	207.454	170.823	271.936	292.720	170.228	177.954	308.976	313.403	177.544	183.784	184.432	191.629	278.798	190.724	-8191	255	
1333.291	1	1	0	0	0.12732	0.10623	0.061529	0.1198	0.09372	0.22352	0.14242	0.22254	0.1003	0.00027937	0.24518	0.24351	0.22469	0.091904	0.12229	0.27614	-3.6917	-3.2938	-3.3958	-4.0583	-3.2458	-3.8771	-3.9042	-3.3542	-4.0729	-3.3542	-3.5083	-3.9729	-3.1854	-3.8104	-3.7417	-3.4	418.760	402.100	210.405	472.636	346.678	454.534	386.632	446.851	329.880	180.000	492.631	400.278	452.283	159.553	431.832	483.943	0.00083976	0.00035012	8.3617e-05	1091.3	1.1866e-06	2.2861e-06	1160.7	220.83	5.8628e-06	3.4956e-06	276.02	77.815	62.335	18.126	4.504e-06	25.149	0.00071504	0.00085737	0.00024551	1090.9	9.282e-06	9.9231e-06	1159.1	221.59	8.8202e-06	9.817e-06	279	78.789	62.659	18.68	9.2953e-06	26.077	365.854	261.578	253.468	170.146	304.601	337.158	169.859	177.492	309.599	307.806	177.051	183.564	184.001	191.450	284.751	190.741	-8191	255	
1333.387	1	1	0	0	0.14344	0.085467	0.042612	0.1731	0.1451	0.25114	0.049366	0.16311	0.087458	0.15465	0.087313	0.1281	0.15735	0.14688	0.24721	0.057546	-3.5938	-3.5021	-3.3042	-4.2354	-3.1937	-3.5563	-3.9562	-3.1146	-3.9104	-3.5083	-3.35	-4.0229	-3.3521	-3.6208	-3.8625	-3.3729	305.548	242.586	318.478	389.949	518.407	341.450	422.007	407.628	392.163	416.086	447.914	162.269	420.486	413.430	207.612	392.340	0.00095241	2.6448e-05	7.076e-05	1090.8	4.7221e-06	2.1565e-06	1160.7	220.68	8.6882e-06	3.2492e-06	275.67	77.546	61.967	17.927	4.6647e-06	25.192	0.00070501	0.00089107	0.00023986	1090.3	9.0328e-06	1.0018e-05	1158.8	221.23	8.9441e-06	9.7857e-06	278.74	78.548	62.759	18.678	9.0344e-06	26.106	363.846	424.858	281.444	170.061	304.414	303.175	169.802	177.236	299.241	301.933	176.841	183.715	184.196	191.464	308.492	190.397	-8191	255	
1333.508	1	1	0	0	0.13621	0.15025	0.40139	0.39757	0.081563	0.20565	0.2223	0.040869	0.17414	0.19054	0.085074	0.040671	0.26455	0.1087	0.2792	0.12577	-3.5646	-3.6417	-3.2521	-4.0687	-3.2812	-3.6458	-4.1438	-3.2854	-3.8667	-3.6396	-3.2729	-4.0104	-3.2313	-3.5354	-4.1333	-3.1375	184.490	366.583	483.300	190.999	465.002	175.347	455.866	474.979	173.593	292.325	291.967	220.970	175.117	517.878	354.130	464.190	0.00086211	0.00019878	4.3945e-05	1083.9	2.796e-06	3.1782e-06	1159.8	220.01	4.6997e-06	5.5834e-06	274.71	77.986	62.193	18.124	4.9263e-06	25.29	0.0006952	0.00084819	0.00024556	1088	9.1031e-06	9.5452e-06	1160.5	221.33	8.5852e-06	9.7781e-06	278.43	78.689	62.642	18.74	8.8683e-06	26.131	361.421	272.829	232.442	169.903	309.342	320.120	169.605	177.405	322.870	289.607	177.048	183.371	183.545	191.450	313.456	190.592	-8191	255	
1333.604	1	1	0	0	0.038309	0.065141	0.13516	0.14964	0.28904	0.12298	0.034431	0.076016	0.17113	0.097967	0.074926	0.088287	0.13409	0.28097	0.18612	0.061554	-3.4938	-3.6979	-3.1104	-3.8396	-3.4104	-3.5354	-4.0333	-3.3333	-3.8083	-3.7042	-3.3167	-4.0042	-3.5333	-3.3521	-4.0437	-3.1833	220.160	175.703	400.129	244.454	211.120	489.869	495.414	359.068	425.636	425.162	193.583	497.629	349.593	335.480	428.924	410.158	0.00091347	0.00040505	4.9228e-05	1094.6	2.8147e-06	2.3982e-06	1157.8	219.84	7.92e-06	3.0991e-06	274.55	77.818	61.78	18.201	4.0992e-06	25.199	0.0006869	0.00086655	0.00024354	1090.9	9.0262e-06	9.9079e-06	1158.4	221.38	8.8627e-06	9.7892e-06	278.58	78.669	62.701	18.767	9.0477e-06	26.161	370.486	240.789	302.170	170.103	313.716	320.783	169.844	177.338	301.420	259.269	176.701	183.594	184.171	190.935	313.940	190.382	-8191	255	
1333.700	1	1	0	0	0.28439	0.22327	0.12683	0.13815	0.15425	0.32774	0.22953	0.078321	0.035374	0.051391	0.33759	0.21302	0.24768	0.24095	0.16458	0.16117	-3.3125	-3.7812	-3.1688	-3.8271	-3.5771	-3.4896	-4.1625	-3.2687	-3.5729	-3.9708	-3.2083	-3.7417	-3.5917	-3.0083	-3.9542	-3.2292	265.213	301.053	293.972	329.046	257.514	237.003	494.322	513.638	341.495	356.733	190.177	428.477	208.720	469.949	204.758	384.926	0.00085017	0.00051841	0.00013303	1088.1	5.6202e-06	2.5921e-06	1162.3	220.25	4.9886e-06	1.9758e-06	276.08	77.874	62.04	18.229	4.6468e-06	25.14	0.00070718	0.00080864	0.00024684	1088.1	9.0316e-06	9.8823e-06	1158.7	221.04	8.833e-06	9.5634e-06	278.36	78.773	62.892	18.781	8.754e-06	26.117	364.722	232.228	291.960	170.170	283.157	307.261	169.835	177.137	296.085	295.239	177.021	183.376	183.570	191.388	310.620	190.674	-8191	255	
1333.796	1	1	0	0	0.11157	0.25438	0.22566	0.30032	0.031311	0.24396	0.19498	0.27899	0.084069	0.14208	0.12035	0.12158	0.14969	0.30704	0.17293	0.28093	-3.1833	-3.7271	-3.1271	-3.9396	-3.6917	-3.2229	-4.0021	-3.4979	-3.4813	-3.9417	-3.3479	-3.8125	-3.6896	-3.1688	-3.9688	-3.5	160.187	342.334	395.624	478.922	397.913	322.479	188.352	315.297	160.050	430.985	334.186	512.786	275.143	173.637	424.332	190.478	0.00089262	0.00028814	9.4571e-05	1091.1	5.4371e-06	2.816e-06	1161.3	220.13	5.8455e-06	5.8969e-06	275.08	77.874	61.944	18.115	5.1305e-06	24.995	0.0006914	0.00085583	0.00025766	1088.9	9.0665e-06	9.7362e-06	1159.8	221.48	8.7207e-06	9.3279e-06	278.69	78.812	62.572	18.698	9.1488e-06	25.994	364.089	246.067	263.349	170.253	304.553	306.362	169.850	177.265	330.400	306.623	176.973	183.558	183.695	191.353	300.425	189.873	-8191	255	
1333.892	1	1	0	0	0.18237	0.12865	0.11281	0.15559	0.061679	0.28045	0.14533	0.07974	0.15569	0.25176	0.1955	0.26634	0.092474	0.058443	0.063206	0.081705	-2.9458	-3.8937	-3.375	-3.9729	-3.8812	-3.2625	-4.0854	-3.4854	-3.4146	-4.0333	-3.3104	-3.7271	-3.7521	-3.2667	-3.9667	-3.4896	384.112	386.529	476.901	166.162	273.412	402.398	183.333	412.625	510.013	182.764	474.665	455.690	465.909	457.610	247.523	167.057	0.00088823	0.00031675	0.00011768	1090.8	4.2746e-06	3.3673e-06	1159.6	220.77	9.5865e-06	2.8613e-06	276.68	77.598	61.829	18.136	4.2449e-06	25.317	0.00070615	0.00084887	0.00025132	1090.6	9.0184e-06	9.9404e-06	1160.6	221.19	8.4939e-06	9.644e-06	278.67	78.703	62.666	18.724	9.2315e-06	26.102	363.791	271.061	256.753	170.121	296.628	318.629	169.893	177.152	315.930	311.581	176.836	183.605	183.989	191.408	273.937	190.857	-8191	255	
1333.988	1	1	0	0	0.13985	0.043569	0.17809	0.26821	0.2177	0.14776	0.084238	0.15832	0.082221	0.1904	0.020952	0.094749	0.16139	0.11014	0.1995	0.12212	-2.9208	-3.8958	-3.3	-3.7479	-4.0583	-3.075	-3.9771	-3.6083	-3.4188	-4.1583	-3.3667	-3.7208	-3.8771	-3.2188	-3.75	-3.7938	371.934	295.094	403.106	492.243	221.708	344.646	398.765	479.741	200.444	295.557	310.024	424.212	245.254	206.657	341.802	460.304	0.00087003	0.00047582	9.6672e-05	1088	6.5684e-06	3.1596e-06	1158.8	219.4	7.7458e-06	1.458e-06	275.46	77.649	62.079	18.076	4.7225e-06	25.354	0.00071349	0.00083852	0.00024665	1088.7	9.0461e-06	9.5854e-06	1158.3	221.02	8.8824e-06	9.455e-06	278.48	78.614	62.782	18.661	8.8405e-06	26.091	370.960	245.895	179.668	170.008	302.523	291.322	169.911	177.323	305.805	327.114	177.072	183.702	184.108	191.448	274.387	189.877	-8191	255	
1334.107	1	1	0	0	0.073282	0.065728	0.37929	0.22671	0.11163	0.028519	0.066755	0.12916	0.09354	0.080512	0.099063	0.11919	0.025643	0.15581	0.203	0.34475	-2.8771	-3.9479	-3.3563	-3.5521	-3.8979	-3.1292	-3.8083	-3.725	-3.1583	-3.9562	-3.5729	-3.5792	-3.9646	-3.2687	-3.7438	-3.7458	248.370	220.279	306.596	230.050	359.309	207.468	245.785	428.811	181.715	490.924	167.892	230.039	224.885	427.339	515.893	418.906	0.00085723	7.8595e-05	0.000114	1082.4	4.568e-06	5.1879e-06	1153.2	219.88	6.0349e-06	2.9433e-06	274.41	77.457	62.628	18.277	3.073e-06	25.117	0.00069468	0.00084419	0.00024796	1086.4	8.7536e-06	9.9723e-06	1155.8	221.03	8.7237e-06	9.512e-06	278.31	78.611	62.761	18.707	8.7174e-06	26.028	375.392	227.436	251.985	170.258	302.612	303.521	169.792	177.324	288.966	326.806	177.030	183.857	184.286	191.205	309.245	190.375	-8191	255	
1334.203	1	1	0	0	0.16287	0.36463	0.17197	0.24812	0.11969	0.30544	0.1494	0.20534	0.14777	0.1172	0.037497	0.19823	0.14402	0.016597	0.14648	0.15299	-2.8396	-4.0333	-3.5104	-3.3667	-3.9833	-3.3187	-3.8792	-3.9979	-3.2708	-3.9333	-3.6917	-3.4083	-4.05	-3.4229	-3.6729	-3.8146	482.822	196.795	399.301	503.195	472.497	455.519	497.090	187.315	221.012	511.195	409.406	407.918	241.383	167.599	493.247	176.091	0.00094847	0.00039238	5.7827e-05	1085.1	4.2437e-06	3.0811e-06	1158.3	217.91	8.679e-06	3.0104e-06	275.24	77.5	61.604	18.115	1.9529e-06	25.29	0.00070567	0.00085405	0.00024414	1086.9	8.9176e-06	9.604e-06	1156.9	220.02	8.9266e-06	9.5891e-06	277.53	78.622	62.459	18.64	8.9062e-06	26.088	367.155	270.633	295.233	170.066	262.571	323.145	169.865	176.933	322.882	325.456	176.744	183.919	183.913	191.220	320.789	189.914	-8191	255	
1334.300	1	1	0	0	0.078273	0.07236	0.02426	0.037118	0.070428	0.040828	0.036403	0.074445	0.098501	0.10119	0.18125	0.18686	0.21055	0.36269	0.14219	0.16882	-2.8729	-3.7708	-3.7625	-3.4083	-4.0354	-3.4396	-3.6958	-4.0188	-3.1708	-3.9604	-3.6958	-3.2771	-4.1604	-3.4667	-3.4	-4.0667	258.514	217.809	460.143	347.692	483.347	253.385	177.661	308.744	466.634	230.686	280.145	394.958	510.733	464.171	388.570	487.541	0.00086934	0.00026636	5.3597e-05	1086.4	5.2256e-06	3.9943e-06	1155.7	218.87	5.4002e-06	4.6788e-06	274.26	77.394	61.886	18.074	2.3884e-06	25.276	0.00070453	0.0008379	0.00023513	1087.3	8.9716e-06	9.6608e-06	1154.4	220.35	8.8667e-06	9.9566e-06	277.8	78.388	62.487	18.682	9.1178e-06	26.026	368.671	211.508	246.402	170.135	271.759	313.674	169.826	177.223	293.731	299.178	176.820	183.526	184.357	191.417	279.807	190.522	-8191	255	
1334.396	1	1	0	0	0.21771	0.27605	0.30063	0.10208	0.15551	0.21818	0.28152	0.1993	0.071549	0.15045	0.067577	0.19703	0.042118	0.14494	0.20602	0.16794	-2.6167	-3.8354	-3.6458	-3.6104	-3.9146	-3.3563	-3.6333	-3.9833	-3.2667	-3.7	-3.7313	-3.2875	-3.8292	-3.5875	-3.3354	-4.1458	326.899	373.799	283.042	217.887	498.439	493.318	430.810	189.202	347.773	321.717	413.334	511.560	491.794	206.007	449.200	171.392	0.00094172	0.00039648	4.7603e-05	1085.8	5.1043e-06	1.9725e-06	1155.4	220.47	6.5787e-06	1.7694e-06	274.32	76.949	61.858	18.077	2.5177e-06	25.285	0.00071862	0.00085546	0.00023187	1085.4	8.7584e-06	9.5632e-06	1155	220.98	8.6777e-06	9.792e-06	278.01	78.304	62.706	18.686	9.1128e-06	26.079	369.232	231.238	297.397	169.956	243.884	285.924	170.126	177.382	347.546	291.060	177.122	183.373	183.821	191.163	286.386	190.489	-8191	255	
#DATA ENDS
