BOXY.EXE: ISS Imagent and Oximeter Data Acquisition Program Version 0.80
Ascii Record File

#ACQ INFORMATION
2  Detector Channels 
16  External MUX Channels 
1  Auxiliary Channels 
5000  Waveform (CCF) Frequency (Hz)
1  Waveforms Skipped 
30  Waveforms Averaged 
1  Cycles Averaged 
16  Acquisitions per Waveform 
10.0806  Updata Rate (Hz) 

#FILE INFORMATION
TRUE -- External MUX Channel results are PARSED.
FALSE -- AC DC and Phase are NOT grouped.
TRUE -- Companion Program Settings File CREATED.
FALSE -- AC data not excluded
FALSE -- DC data not excluded
FALSE -- Phase data not excluded
FALSE -- Auxillary Chn. data not excluded
Tab delimiters

#CALIBRATION STATE
TRUE -- Waveform Calibration Values APPLIED.


#AUX CALIBRATION VALUES
Val Type	aux-1	

Term	1.0000e+00	
Factor	0.0000e+00	


#WF CALIBRATION VALUES
A = Detector Channel
Val Type	A-AC1	A-AC2	A-AC3	A-AC4	A-AC5	A-AC6	A-AC7	A-AC8	A-AC9	A-AC10	A-AC11	A-AC12	A-AC13	A-AC14	A-AC15	A-AC16	A-DC1	A-DC2	A-DC3	A-DC4	A-DC5	A-DC6	A-DC7	A-DC8	A-DC9	A-DC10	A-DC11	A-DC12	A-DC13	A-DC14	A-DC15	A-DC16	A-Ph1	A-Ph2	A-Ph3	A-Ph4	A-Ph5	A-Ph6	A-Ph7	A-Ph8	A-Ph9	A-Ph10	A-Ph11	A-Ph12	A-Ph13	A-Ph14	A-Ph15	A-Ph16	

Term	0.00000e+00	0.00000e+00	0.00000e+00	0.00000e+00	0.00000e+00	0.00000e+00	0.00000e+00	0.00000e+00	0.00000e+00	0.00000e+00	0.00000e+00	0.00000e+00	0.00000e+00	0.00000e+00	0.00000e+00	0.00000e+00	0.00000e+00	0.00000e+00	0.00000e+00	0.00000e+00	0.00000e+00	0.00000e+00	0.00000e+00	0.00000e+00	0.00000e+00	0.00000e+00	0.00000e+00	0.00000e+00	0.00000e+00	0.00000e+00	0.00000e+00	0.00000e+00	0.00000e+00	0.00000e+00	0.00000e+00	0.00000e+00	0.00000e+00	0.00000e+00	0.00000e+00	0.00000e+00	0.00000e+00	0.00000e+00	0.00000e+00	0.00000e+00	0.00000e+00	0.00000e+00	0.00000e+00	0.00000e+00	
Factor	1.00000e+00	1.00000e+00	1.00000e+00	1.00000e+00	1.00000e+00	1.00000e+00	1.00000e+00	1.00000e+00	1.00000e+00	1.00000e+00	1.00000e+00	1.00000e+00	1.00000e+00	1.00000e+00	1.00000e+00	1.00000e+00	1.00000e+00	1.00000e+00	1.00000e+00	1.00000e+00	1.00000e+00	1.00000e+00	1.00000e+00	1.00000e+00	1.00000e+00	1.00000e+00	1.00000e+00	1.00000e+00	1.00000e+00	1.00000e+00	1.00000e+00	1.00000e+00	X	X	X	X	X	X	X	X	X	X	X	X	X	X	X	X	

B = Detector Channel
Val Type	B-AC1	B-AC2	B-AC3	B-AC4	B-AC5	B-AC6	B-AC7	B-AC8	B-AC9	B-AC10	B-AC11	B-AC12	B-AC13	B-AC14	B-AC15	B-AC16	B-DC1	B-DC2	B-DC3	B-DC4	B-DC5	B-DC6	B-DC7	B-DC8	B-DC9	B-DC10	B-DC11	B-DC12	B-DC13	B-DC14	B-DC15	B-DC16	B-Ph1	B-Ph2	B-Ph3	B-Ph4	B-Ph5	B-Ph6	B-Ph7	B-Ph8	B-Ph9	B-Ph10	B-Ph11	B-Ph12	B-Ph13	B-Ph14	B-Ph15	B-Ph16	

Term	0.00000e+00	0.00000e+00	0.00000e+00	0.00000e+00	0.00000e+00	0.00000e+00	0.00000e+00	0.00000e+00	0.00000e+00	0.00000e+00	0.00000e+00	0.00000e+00	0.00000e+00	0.00000e+00	0.00000e+00	0.00000e+00	0.00000e+00	0.00000e+00	0.00000e+00	0.00000e+00	0.00000e+00	0.00000e+00	0.00000e+00	0.00000e+00	0.00000e+00	0.00000e+00	0.00000e+00	0.00000e+00	0.00000e+00	0.00000e+00	0.00000e+00	0.00000e+00	-1.03147e+02	-1.27696e+02	-1.26040e+02	-1.81176e+02	-6.23970e+01	-6.75592e+01	-1.58780e+02	-1.62015e+02	-5.65277e+01	-6.22897e+01	-1.72992e+02	-1.70125e+02	-1.79834e+02	-1.76748e+02	-6.70119e+01	-1.49179e+02	
Factor	1.55199e-05	1.44807e-04	4.06336e-05	1.55882e-01	1.24127e-06	1.48260e-06	1.50087e-01	4.62077e-02	1.01788e-06	1.60599e-06	9.62183e-02	2.73408e-02	4.09599e-02	8.78388e-03	1.32503e-06	1.25402e-02	7.43530e-06	1.06435e-05	2.98820e-06	8.29155e-02	1.11264e-07	1.18464e-07	7.49576e-02	2.47378e-02	1.11329e-07	1.17809e-07	4.95847e-02	1.42385e-02	2.21954e-02	4.73677e-03	1.13755e-07	6.51851e-03	X	X	X	X	X	X	X	X	X	X	X	X	X	X	X	X	



#DISTANCE SETTINGS
A = Detector Channel
A-1	A-2	A-3	A-4	A-5	A-6	A-7	A-8	A-9	A-10	A-11	A-12	A-13	A-14	A-15	A-16	

2.5000e+00	3.0000e+00	2.5000e+00	3.0000e+00	2.0000e+00	3.0000e+00	1.5000e+00	3.0000e+00	3.0000e+00	3.0000e+00	3.0000e+00	3.0000e+00	3.0000e+00	3.0000e+00	1.5000e+00	3.0000e+00	

B = Detector Channel
B-1	B-2	B-3	B-4	B-5	B-6	B-7	B-8	B-9	B-10	B-11	B-12	B-13	B-14	B-15	B-16	

1.0000e+01	1.0000e+01	1.0000e+01	1.4400e+00	1.0000e+01	1.0000e+01	1.5100e+00	1.9400e+00	1.0000e+01	1.0000e+01	1.9900e+00	2.4900e+00	2.4100e+00	2.9000e+00	1.0000e+01	2.9800e+00	




#DATA BEGINS
time	group	step	mark	flag	A-AC1	A-AC2	A-AC3	A-AC4	A-AC5	A-AC6	A-AC7	A-AC8	A-AC9	A-AC10	A-AC11	A-AC12	A-AC13	A-AC14	A-AC15	A-AC16	A-DC1	A-DC2	A-DC3	A-DC4	A-DC5	A-DC6	A-DC7	A-DC8	A-DC9	A-DC10	A-DC11	A-DC12	A-DC13	A-DC14	A-DC15	A-DC16	A-Ph1	A-Ph2	A-Ph3	A-Ph4	A-Ph5	A-Ph6	A-Ph7	A-Ph8	A-Ph9	A-Ph10	A-Ph11	A-Ph12	A-Ph13	A-Ph14	A-Ph15	A-Ph16	B-AC1	B-AC2	B-AC3	B-AC4	B-AC5	B-AC6	B-AC7	B-AC8	B-AC9	B-AC10	B-AC11	B-AC12	B-AC13	B-AC14	B-AC15	B-AC16	B-DC1	B-DC2	B-DC3	B-DC4	B-DC5	B-DC6	B-DC7	B-DC8	B-DC9	B-DC10	B-DC11	B-DC12	B-DC13	B-DC14	B-DC15	B-DC16	B-Ph1	B-Ph2	B-Ph3	B-Ph4	B-Ph5	B-Ph6	B-Ph7	B-Ph8	B-Ph9	B-Ph10	B-Ph11	B-Ph12	B-Ph13	B-Ph14	B-Ph15	B-Ph16	aux-1	digaux	

1638.732	1	1	0	512	0.21622	0.11165	0.12559	0.17248	0.099661	0.061977	0.26419	0.16552	0.15182	0.20045	0.20456	0.222	0.059122	0.077681	0.25753	0.20133	-2.0792	-2.0375	-1.8062	-2.8083	-1.9583	-2.1979	-2.6854	-1.85	-2.35	-2.1437	-1.8479	-2.6958	-1.85	-2.1396	-2.3833	-1.8792	231.213	-75.571	250.317	253.846	120.638	204.715	-70.154	-56.029	-32.057	-1.375	-61.269	196.729	13.927	140.225	95.412	-83.467	0.00047542	0.0022982	0.00018608	820.94	2.9463e-05	4.1785e-05	1128.3	235.71	1.315e-05	1.2515e-05	418.37	163.56	81.883	30.873	2.1586e-05	71.317	0.023859	0.034108	0.009575	1018	0.00035639	0.00038327	1273.7	297	0.00036106	0.0003834	546.73	198.75	148.57	44.189	0.00036933	86.878	251.181	88.676	141.930	-72.638	76.155	97.879	-73.067	-68.943	171.551	153.351	-68.945	-64.543	-64.172	-60.663	67.687	-60.876	-8191	255	
1638.828	1	1	0	0	0.13775	0.25726	0.17992	0.15113	0.062209	0.18297	0.18435	0.13398	0.24143	0.021493	0.051356	0.17306	0.14929	0.15066	0.15507	0.28649	-2.0354	-2.1937	-1.7437	-2.7208	-1.9708	-1.7458	-2.7958	-1.8083	-2.1437	-2.3396	-1.8208	-2.7812	-2.1146	-1.7458	-2.5292	-1.9583	90.861	70.838	135.273	-81.950	-17.039	253.154	210.730	100.472	-41.195	157.803	-83.599	56.531	27.012	-85.921	39.251	220.174	0.0002563	0.0013057	0.00099142	832.1	8.8333e-06	8.2823e-06	1127.2	235.83	1.2711e-05	2.1423e-05	424.34	164.71	81.965	31.005	1.396e-05	71.024	0.024031	0.034058	0.0095056	1020.1	0.00034704	0.00036907	1268.9	294.31	0.00034356	0.00036324	540.67	196.49	144.46	43.287	0.00034994	86.169	209.738	-45.736	7.525	-73.299	241.935	-55.277	-73.180	-69.042	-63.061	-57.361	-68.637	-64.994	-65.681	-60.750	34.960	-60.958	-8191	255	
1638.924	1	1	0	0	0.29966	0.11149	0.1103	0.029261	0.21529	0.10403	0.34842	0.06698	0.21753	0.20207	0.32013	0.14869	0.10396	0.37144	0.12437	0.487	-1.9521	-2.3875	-1.7	-2.6771	-1.8667	-1.7167	-2.8271	-1.6896	-2.1167	-2.3958	-1.7979	-2.5167	-2.2083	-2.0167	-2.5354	-1.9312	63.166	94.640	82.277	152.598	200.303	111.900	237.636	26.198	41.001	60.697	243.500	76.628	-75.610	233.684	156.535	222.362	0.00022778	0.00098554	0.00029398	836.94	3.1495e-05	4.2378e-05	1142.6	238.87	1.5954e-05	1.9571e-05	424.32	163.61	82.378	31.441	1.8738e-05	70.999	0.023199	0.033328	0.0093999	1024.9	0.00035086	0.00037642	1289.6	299.45	0.00035811	0.00038043	549.88	198.77	147.77	44.071	0.00036546	86.527	189.524	139.325	-71.745	-73.891	90.329	38.318	-73.679	-69.591	-25.726	4.770	-69.049	-64.952	-65.166	-60.901	31.002	-61.277	-8191	255	
1639.021	1	1	0	0	0.071006	0.1469	0.28476	0.28565	0.086259	0.15187	0.22535	0.12288	0.15319	0.24814	0.22151	0.20696	0.1409	0.063303	0.098427	0.057352	-1.7229	-2.4396	-1.6771	-2.5563	-2.2708	-1.9021	-2.7687	-1.9521	-1.9208	-2.6792	-2.0229	-2.4417	-2.4542	-1.7563	-2.5	-2.2417	206.627	-48.886	187.756	155.225	-46.380	220.835	187.130	165.513	221.949	261.043	185.327	96.831	-12.902	101.356	221.901	-16.380	0.00034886	0.0011869	0.0005069	835.86	1.2862e-05	2.0004e-05	1135.4	238.13	7.5111e-06	1.7977e-05	419.11	163.9	81.272	31.156	1.1438e-05	70.879	0.023836	0.033997	0.0095013	1024.3	0.00035351	0.00037462	1278.6	297.32	0.00035312	0.00037481	544.44	197.43	146.66	43.949	0.00036072	86.775	145.987	-85.491	6.920	-72.574	-48.376	29.080	-72.757	-68.632	-43.436	111.582	-69.218	-65.293	-64.804	-60.490	170.742	-61.206	-8191	255	
1639.141	1	1	0	0	0.13497	0.051959	0.14375	0.20429	0.037512	0.16977	0.11972	0.082322	0.092329	0.15775	0.10007	0.10165	0.12634	0.10923	0.02536	0.44647	-1.65	-2.7479	-1.7958	-2.575	-2.4375	-1.8021	-2.7708	-1.875	-1.925	-2.7104	-1.9458	-2.4104	-2.3771	-1.6146	-2.4083	-2.2792	12.158	173.074	24.235	237.506	82.781	177.143	160.545	152.932	-19.540	-32.997	-73.335	-50.619	-41.306	265.017	116.653	184.250	0.00034542	0.001795	0.00040141	837.82	2.5212e-05	2.9132e-05	1135.3	238.69	5.3483e-06	2.0664e-05	424.57	164.24	82.457	31.276	1.6028e-05	71.473	0.023951	0.034479	0.0097433	1034.9	0.00036576	0.00039282	1292.8	302.73	0.00037056	0.00039544	555.87	200.61	151.22	44.985	0.00038548	88.33	213.541	191.169	223.201	-73.624	-39.214	-8.217	-74.312	-69.966	-69.959	209.751	-70.180	-65.947	-65.398	-61.955	269.442	-61.803	-8191	255	
1639.213	1	1	0	0	0.27865	0.19162	0.12993	0.21391	0.12244	0.26358	0.27165	0.14568	0.054663	0.15405	0.19475	0.43886	0.069828	0.12319	0.18246	0.1285	-1.4813	-2.5958	-1.7292	-2.2792	-2.4417	-1.6938	-2.6396	-2.1375	-1.8208	-2.5604	-2.0021	-2.0938	-2.625	-1.7771	-2.2938	-2.2438	-55.774	-36.956	231.242	165.476	-51.587	-32.546	195.152	159.410	131.135	-10.051	269.541	-70.081	197.768	16.990	67.703	96.662	0.00019672	0.0021692	0.00052364	845.13	7.4267e-06	3.9544e-05	1149.7	242.1	1.7568e-05	3.7018e-05	422.98	164.75	81.77	31.145	1.1868e-05	70.84	0.025461	0.036453	0.010291	1056.9	0.00038422	0.00041017	1317.4	308.16	0.00038519	0.00040555	562.95	201.72	152.34	45.235	0.00039199	88.147	208.273	-15.362	57.171	-74.405	-10.347	54.283	-74.132	-69.948	-21.106	185.084	-70.328	-66.208	-65.042	-61.465	92.737	-62.079	-8191	255	
1639.334	1	1	0	0	0.11964	0.25991	0.24712	0.14704	0.22224	0.12969	0.18182	0.26888	0.19352	0.2388	0.20438	0.33365	0.16907	0.10744	0.10353	0.19332	-1.3479	-2.5438	-2.0062	-2.1104	-2.5062	-1.6583	-2.4104	-2.3375	-1.6208	-2.475	-2	-2.0187	-2.4792	-1.5729	-2.2667	-2.3688	84.039	-0.490	1.082	139.029	-18.722	4.904	257.362	238.673	-20.978	138.506	128.668	230.986	25.546	9.133	-88.078	224.112	0.00035757	0.003174	0.0011338	858.85	1.6633e-05	1.3446e-05	1167.9	246.6	2.5273e-05	2.9362e-05	435.78	163.51	82.188	30.94	2.7866e-05	69.767	0.025916	0.03697	0.010426	1073.3	0.00039018	0.00042026	1340.9	313.68	0.00039576	0.00041939	574.1	203.37	156.34	45.397	0.00041196	88.113	-87.136	25.011	-5.244	-74.420	229.800	-86.069	-74.082	-70.401	114.542	80.360	-70.157	-66.254	-65.809	-61.461	124.047	-61.943	-8191	255	
1639.428	1	1	0	0	0.082459	0.17044	0.20116	0.28925	0.062369	0.093686	0.32383	0.16223	0.24053	0.26057	0.21837	0.24672	0.35408	0.22205	0.14812	0.13684	-1.2583	-2.4125	-1.8438	-1.8937	-2.55	-1.55	-2.2646	-2.4813	-1.7437	-2.3896	-2.1312	-2.0062	-2.6146	-2.0417	-2.05	-2.4583	224.127	207.557	36.043	172.032	251.002	89.235	208.069	267.302	-5.915	-57.508	266.636	260.469	230.404	133.632	-74.100	202.994	0.00035182	0.0010507	0.00078034	878.08	1.0694e-05	1.0545e-05	1187.3	249.83	8.2559e-06	2.3588e-05	433.63	161.64	82.719	30.414	1.1583e-05	69.189	0.027204	0.038881	0.010939	1108	0.00040732	0.00043473	1369.9	319.88	0.00040627	0.00043007	581.58	202.92	157.33	45.244	0.00041502	87.889	215.075	235.024	97.272	-74.453	76.195	241.552	-74.258	-70.459	-31.874	199.345	-70.741	-66.007	-66.277	-61.905	137.167	-62.237	-8191	255	
1639.524	1	1	0	0	0.22407	0.056597	0.23802	0.23004	0.16329	0.060471	0.23588	0.11859	0.1528	0.2297	0.073995	0.49929	0.13146	0.12397	0.16475	0.18539	-1.3021	-2.3833	-2.1688	-1.8146	-2.5771	-1.8771	-2.2396	-2.625	-1.5375	-2.4396	-2.2396	-1.8937	-2.4979	-2.0521	-2.0146	-2.5312	34.594	-84.832	183.801	226.106	139.116	175.623	154.809	123.029	211.072	268.743	-11.468	222.231	147.164	-69.057	-54.649	160.181	0.00037428	0.0035526	0.00052739	878.59	4.3848e-06	1.7175e-05	1195.6	248.79	8.0331e-06	1.534e-05	435.82	162.11	81.604	30.377	1.9138e-05	69.43	0.027339	0.038931	0.010981	1109.5	0.00040953	0.00043524	1373.9	319.73	0.00040764	0.0004326	582.9	204.09	157.94	45.59	0.00041973	88.31	199.573	-61.524	256.108	-74.288	57.272	152.663	-74.181	-70.266	188.612	132.561	-70.602	-66.193	-65.536	-61.786	-16.704	-61.914	-8191	255	
1639.620	1	1	0	0	0.13142	0.28696	0.1133	0.14827	0.29931	0.31959	0.13932	0.088753	0.12761	0.24225	0.14341	0.25451	0.13112	0.29272	0.19602	0.20492	-1.3875	-2.2687	-2.0167	-1.9625	-2.3875	-1.7938	-2.1229	-2.6792	-1.6375	-2.275	-2.4688	-1.7313	-2.4083	-1.9833	-2.0083	-2.7729	41.935	-16.207	-27.049	-44.044	189.758	104.799	216.107	171.450	145.488	226.529	131.793	-34.356	166.752	70.783	29.254	177.263	0.00016418	0.0013876	0.0010541	872.96	2.9076e-05	1.0873e-05	1182.4	247.16	1.8992e-05	1.1861e-06	435.46	163	82.98	30.767	2.3272e-05	70.464	0.02748	0.039303	0.011051	1105	0.00041187	0.00043932	1370.3	320.29	0.00041632	0.00044007	584.57	204.84	159.77	46.011	0.00042475	89.284	185.380	267.377	-39.079	-74.335	81.447	82.022	-74.082	-69.792	-73.490	-49.426	-70.308	-66.291	-65.439	-61.354	46.977	-62.119	-8191	255	
1639.741	1	1	0	0	0.10486	0.090996	0.083261	0.040289	0.19052	0.20452	0.1066	0.16943	0.35768	0.080367	0.39223	0.26795	0.11878	0.09012	0.22183	0.064014	-1.325	-2.3854	-2.3271	-1.7938	-2.4396	-2.1729	-2.0687	-2.6375	-1.8292	-2.1979	-2.675	-1.8729	-2.5312	-2.3167	-1.9167	-2.7396	48.161	146.461	196.281	153.979	-80.390	68.608	113.659	143.191	236.158	187.594	-41.354	-52.626	233.723	7.635	52.120	-74.314	0.00020281	0.0009788	0.00065919	864.21	1.0839e-05	2.541e-05	1169	244.92	7.291e-06	4.3698e-05	430.91	164.71	82.293	30.874	2.2747e-05	70.412	0.027725	0.0395	0.011125	1096.5	0.00041773	0.00044517	1362.6	319.9	0.00042144	0.00044737	583.4	206.77	160.23	46.308	0.00042357	89.322	152.963	166.983	120.258	-74.100	149.750	-7.978	-74.086	-70.168	54.655	180.583	-70.146	-66.067	-65.813	-61.300	76.408	-61.863	-8191	255	
1639.837	1	1	0	0	0.11078	0.14891	0.053969	0.16196	0.1655	0.27499	0.46697	0.12708	0.079619	0.23978	0.027981	0.29998	0.22963	0.17633	0.2136	0.27119	-1.3687	-2.1333	-2.7021	-1.6812	-2.3187	-2.375	-1.9125	-2.5625	-2.0687	-1.9271	-2.4562	-1.8208	-2.425	-2.2792	-1.6167	-2.5771	203.950	261.888	162.531	237.908	120.997	-3.491	190.150	230.947	-80.723	-24.502	235.723	228.948	-11.755	228.619	148.468	-57.095	0.00026716	0.0014083	0.00049571	844.63	2.7255e-05	3.095e-05	1146.5	239.92	1.627e-05	3.3659e-05	424.27	163.39	82.946	31.103	1.8391e-05	70.61	0.027234	0.038468	0.010794	1071.1	0.00039635	0.00042108	1320.8	310.04	0.00039818	0.0004242	568.94	202.62	154.97	45.494	0.00040252	88.226	222.698	20.120	-59.217	-74.175	5.374	149.005	-73.994	-70.176	170.292	113.342	-70.284	-66.245	-64.946	-61.454	76.174	-61.700	-8191	255	
1639.909	1	1	0	0	0.088665	0.19497	0.24827	0.11294	0.11896	0.24366	0.33171	0.37337	0.16086	0.1251	0.062148	0.13163	0.22423	0.16996	0.29382	0.26145	-1.7167	-1.8417	-2.4792	-1.8125	-2.4104	-2.3958	-1.8979	-2.6458	-1.85	-1.8958	-2.6312	-1.8042	-2.3417	-2.4333	-1.7396	-2.6458	148.638	208.520	-15.429	252.327	200.120	199.818	172.638	265.165	96.757	196.902	-36.702	-68.958	127.160	269.768	91.829	249.376	0.00017953	0.0015273	0.0009756	843.05	1.5391e-05	1.9559e-05	1148.3	241.79	1.8095e-05	1.8088e-05	426.22	164.47	82.745	31.133	9.924e-06	71.078	0.026208	0.037508	0.010534	1064.8	0.0003931	0.00041735	1317.7	309.46	0.00039098	0.00041076	564.34	202.22	153.77	45.044	0.00038981	88.057	198.872	70.643	-63.879	-74.027	17.631	-27.405	-73.461	-69.958	163.686	72.703	-70.080	-66.258	-65.686	-61.546	-55.545	-61.920	-8191	255	
1640.029	1	1	0	0	0.18005	0.22716	0.1353	0.24441	0.24928	0.20499	0.26448	0.20701	0.24849	0.29271	0.25842	0.16907	0.43072	0.12426	0.10101	0.073406	-1.9229	-1.9354	-2.5208	-1.9562	-2.1083	-2.4625	-1.9083	-2.6646	-2.175	-1.8083	-2.7083	-1.7792	-1.9583	-2.5	-1.8417	-2.6771	-30.584	-73.390	116.157	225.381	108.135	76.197	185.867	-77.353	212.783	-87.604	200.872	-85.123	253.924	237.380	206.354	-11.288	0.00021286	0.0019801	0.0001474	823.93	1.8409e-05	2.7991e-05	1126.2	238.54	1.3939e-05	1.9012e-05	422.42	165.13	82.716	31.403	9.5831e-06	72.162	0.025387	0.036272	0.010204	1038.3	0.00037733	0.0004019	1288.2	303.55	0.00037917	0.000403	557.91	202.25	153.92	45.618	0.00039715	89.873	124.503	15.107	-68.758	-74.032	192.286	52.973	-73.894	-69.764	43.770	71.656	-70.057	-65.965	-65.555	-61.297	-29.889	-61.631	-8191	255	
1640.125	1	1	0	0	0.053673	0.14575	0.19692	0.22335	0.2498	0.20588	0.077623	0.30355	0.23356	0.28651	0.27951	0.21538	0.063043	0.02552	0.23176	0.2876	-1.8	-1.6437	-2.6083	-2.0229	-1.9833	-2.5604	-1.9083	-2.4167	-2.2917	-1.4813	-2.7271	-1.95	-2.0125	-2.7188	-1.7854	-2.5125	11.034	216.843	-82.225	89.707	164.130	153.862	229.809	162.986	-22.563	189.632	-27.208	249.429	200.127	117.521	-7.768	206.541	0.0002234	0.0015015	0.00077377	827.66	3.6423e-05	2.9986e-06	1109.7	238.58	1.8805e-05	8.1436e-06	417.92	164.99	82.383	31.991	8.4743e-06	71.723	0.026223	0.037584	0.010559	1046.4	0.00039148	0.00041685	1291.1	305.13	0.00038732	0.00040949	558.29	202.77	153.5	45.622	0.00038868	89.329	-79.722	68.654	47.199	-74.344	69.988	-9.988	-73.752	-69.418	48.837	136.617	-69.538	-65.840	-66.088	-61.638	21.038	-61.523	-8191	255	
1640.222	1	1	0	0	0.14907	0.31937	0.22027	0.10001	0.10547	0.28755	0.29715	0.18511	0.19046	0.18343	0.26891	0.23786	0.092244	0.14916	0.11862	0.26336	-2.1208	-1.6417	-2.4542	-2.2208	-1.7021	-2.5271	-1.9083	-2.1521	-2.375	-1.7792	-2.5458	-2.1042	-1.9042	-2.6958	-1.8958	-2.3937	245.398	-2.843	167.424	188.118	183.813	-27.051	225.306	-39.764	182.759	-75.113	199.611	197.800	-16.323	140.527	146.383	213.506	0.0002159	0.0050741	0.00057066	823.76	9.0282e-06	1.767e-06	1127.6	238.2	2.1216e-05	3.0155e-05	417.3	164.19	81.318	31.307	1.2072e-05	70.519	0.025412	0.036563	0.01035	1041.5	0.00038707	0.00041384	1296.8	305.47	0.0003872	0.00040886	556.88	201.31	152.21	45.066	0.00038555	87.806	58.857	-22.414	266.859	-73.912	-2.441	25.769	-73.509	-69.602	30.132	-20.871	-69.839	-65.651	-66.005	-61.530	198.319	-61.305	-8191	255	
1640.318	1	1	0	0	0.13097	0.063961	0.1042	0.13536	0.087044	0.073157	0.071797	0.29062	0.10083	0.2306	0.12573	0.36405	0.24096	0.1652	0.15966	0.17286	-2.1312	-1.6854	-2.6604	-2.3979	-1.8292	-2.6312	-2.1646	-1.9937	-2.5771	-1.675	-2.3792	-2.4	-1.8292	-2.6125	-1.9125	-2.1708	94.915	-60.453	13.601	192.111	34.276	52.572	177.975	-33.058	160.239	162.716	230.861	259.340	16.473	-48.120	-81.363	186.876	0.00035682	0.00085662	0.00052278	834.84	2.5358e-05	2.5448e-05	1139.6	239.97	1.918e-05	4.995e-05	426.71	161.93	81.861	31.091	2.7e-05	70.721	0.025422	0.036309	0.010234	1047.9	0.00038506	0.00041369	1312.3	309.7	0.0003997	0.00042837	573.83	204.3	159.74	46.531	0.00042987	90.223	167.680	228.196	108.083	-73.875	75.954	70.481	-74.081	-69.397	47.013	40.566	-69.792	-66.070	-66.231	-61.084	51.828	-61.154	-8191	255	
1640.414	1	1	0	0	0.11269	0.11038	0.10973	0.058031	0.10803	0.20728	0.27653	0.18873	0.15153	0.1716	0.20368	0.21425	0.15012	0.09337	0.11556	0.21025	-2.25	-1.7271	-2.4062	-2.4292	-1.6562	-2.6021	-2.275	-2.1396	-2.5958	-1.8146	-2.4188	-2.6021	-1.6521	-2.6792	-2.1688	-2.0687	106.917	259.374	173.227	212.077	222.976	-68.675	210.392	196.869	166.896	238.285	-46.886	191.228	-63.314	242.580	216.310	229.764	0.000303	0.0011255	0.0010651	860.09	7.9882e-06	1.7811e-05	1163.1	243.4	5.3627e-06	1.2837e-05	428.93	162.44	82.35	30.95	2.3299e-05	70.962	0.028369	0.040633	0.011451	1102.1	0.00042478	0.00045161	1356.4	319.36	0.00042248	0.00044684	581.27	205.41	160.22	46.609	0.0004271	90.121	182.227	-49.781	55.903	-74.139	130.251	224.054	-73.770	-69.625	231.148	-78.223	-70.034	-65.503	-65.456	-61.368	186.401	-61.320	-8191	255	
1640.508	1	1	0	0	0.14323	0.29503	0.091237	0.2176	0.17872	0.30225	0.34188	0.39728	0.087981	0.19202	0.16557	0.087743	0.26867	0.10831	0.14682	0.17017	-2.1229	-1.8042	-2.3167	-2.6312	-1.6333	-2.6021	-2.3146	-1.8167	-2.6917	-1.8062	-2.3812	-2.7271	-1.9042	-2.5479	-2.3208	-1.9438	-0.829	203.315	0.961	244.519	-41.163	179.363	250.201	232.237	-32.086	5.421	236.988	183.604	65.967	217.228	187.891	126.728	0.00030256	0.00031863	0.0002854	863.67	1.8822e-05	9.8485e-06	1154.3	243.25	1.0472e-05	1.4748e-05	425.3	164.1	82.323	31.182	1.5835e-05	70.804	0.027909	0.039756	0.011104	1094.7	0.00041277	0.00044103	1344.4	315.96	0.00041093	0.00043477	575.12	204.66	157.82	46.239	0.00041638	89.847	247.008	-75.555	245.388	-73.794	268.247	44.217	-73.872	-69.533	160.571	93.737	-69.600	-65.756	-65.535	-61.384	236.529	-61.719	-8191	255	
1640.604	1	1	0	0	0.1789	0.028015	0.049695	0.19705	0.19265	0.052243	0.20594	0.11635	0.16255	0.30117	0.080921	0.078967	0.065192	0.21584	0.15954	0.082747	-2.275	-1.8542	-2.0354	-2.6792	-1.9708	-2.5417	-2.55	-1.8583	-2.7042	-2.0125	-2.1188	-2.6229	-1.7062	-2.4062	-2.2917	-1.9396	139.767	-52.622	45.672	251.808	-23.592	71.187	192.830	252.904	166.195	51.894	52.526	-41.127	157.700	218.460	203.365	158.911	0.00015982	0.0026922	0.00077385	838.68	2.3737e-05	2.9646e-06	1131.3	239.69	2.7596e-05	1.6165e-05	418.12	162.35	82.198	31.497	2.1425e-05	72.074	0.027206	0.038736	0.010861	1067.1	0.00040286	0.00042893	1311.2	309.47	0.00040255	0.00042508	566.21	202.91	156.56	46.247	0.00040614	89.835	-40.208	121.084	33.108	-74.032	24.460	-47.008	-73.674	-69.649	89.104	-12.129	-69.459	-65.970	-65.910	-61.450	134.800	-61.726	-8191	255	
1640.702	1	1	0	0	0.21285	0.034668	0.13263	0.13676	0.39282	0.062832	0.21902	0.3326	0.19237	0.10508	0.12636	0.17522	0.14242	0.30973	0.069417	0.26265	-2.1188	-2.0958	-2.0854	-2.725	-1.5833	-2.3854	-2.5938	-1.8021	-2.6375	-1.9688	-2.0667	-2.7417	-1.8708	-2.3458	-2.3521	-1.7167	27.785	204.438	160.244	217.185	205.712	66.977	7.129	8.617	-51.200	56.372	137.092	203.318	121.763	-19.406	66.328	222.863	0.00038494	0.0017212	0.00063944	816.88	2.324e-05	1.8361e-05	1109.3	235.12	1.7822e-05	2.7674e-05	420.84	163.67	82.058	31.928	1.1729e-05	73.02	0.026683	0.037853	0.010601	1040.7	0.0003935	0.00041844	1284.1	303.74	0.00038994	0.00041181	557.47	202.9	153.94	46.17	0.00039365	90.069	269.434	126.405	76.994	-74.157	55.608	18.232	-73.842	-69.516	60.025	36.302	-69.766	-65.582	-65.870	-60.928	55.653	-61.444	-8191	255	
1640.821	1	1	0	0	0.26137	0.17692	0.061238	0.19142	0.24925	0.34992	0.13745	0.13952	0.15357	0.10436	0.16318	0.38118	0.3263	0.022665	0.1023	0.079863	-2.2812	-2.2708	-1.9271	-2.6958	-1.7625	-2.2792	-2.6792	-1.7771	-2.3875	-2.2167	-2.1458	-2.8583	-1.9917	-2.375	-2.4479	-1.9	-60.542	72.517	82.218	-83.565	251.502	177.041	264.998	263.086	75.856	30.265	-69.320	211.646	-87.228	17.376	72.022	159.962	0.00033652	0.00094131	0.00058624	817.41	1.2473e-05	2.8153e-05	1109.6	236.06	7.0733e-06	2.6009e-05	418.21	165.52	83.388	32.146	1.1332e-05	73.115	0.025855	0.036629	0.010326	1031.2	0.00038272	0.00040643	1276.1	303.02	0.00038422	0.00040674	557.35	203.82	154.4	46.137	0.00039315	89.967	253.210	100.446	16.976	-73.642	-27.688	170.670	-73.670	-69.355	-51.895	182.546	-69.601	-65.566	-64.292	-61.094	-50.359	-61.674	-8191	255	
1640.917	1	1	0	0	0.15074	0.093928	0.16301	0.056212	0.31991	0.25136	0.10904	0.1654	0.069951	0.11861	0.2217	0.046152	0.15748	0.22816	0.23898	0.17781	-2.0479	-2.3833	-1.7812	-2.7854	-1.9	-2.15	-2.8146	-1.7542	-2.1271	-2.4667	-1.6854	-2.8896	-2.0771	-2.0042	-2.5208	-1.9125	145.477	-29.019	106.764	229.524	266.041	-5.518	167.690	157.826	162.801	15.763	220.007	-74.985	131.400	210.378	241.299	195.751	7.0895e-05	0.0016061	8.0543e-05	825.65	2.9733e-05	8.7589e-06	1114.2	237.27	1.6014e-05	1.1631e-05	421.61	166.14	82.546	31.867	3.1186e-05	72.727	0.02567	0.036761	0.010248	1035.1	0.00038094	0.00040659	1283.8	303.73	0.00038194	0.00040244	556.83	203.09	153.37	45.897	0.00039175	90.021	-4.229	-43.992	27.858	-74.120	170.889	-56.252	-73.478	-69.303	134.484	114.263	-69.086	-65.078	-64.702	-61.070	-8.272	-61.217	-8191	255	
1641.014	1	1	0	0	0.24933	0.32039	0.26396	0.20038	0.15667	0.20205	0.33891	0.086395	0.17592	0.11761	0.1957	0.21798	0.29051	0.27959	0.02062	0.25567	-1.9625	-2.2396	-1.5271	-2.6125	-2.3	-1.9292	-2.7042	-1.8708	-2.3375	-2.4771	-1.8479	-2.6042	-2.1063	-2.0563	-2.6729	-2.0458	184.034	133.645	240.493	184.233	102.235	243.403	226.105	136.415	-17.578	48.607	235.570	-56.401	-75.533	262.208	-75.891	199.447	0.0002391	0.00038129	0.00050516	815.75	1.3572e-05	2.1405e-05	1107.1	236.12	7.9792e-06	1.7328e-05	415.97	165.31	82.765	31.979	3.1434e-05	72.4	0.025693	0.03674	0.010322	1032.9	0.00038483	0.00040905	1278.9	302.14	0.00038291	0.00040468	553.66	201.8	153.34	45.891	0.00039414	89.645	238.104	-66.131	222.295	-73.774	-33.931	249.288	-73.602	-68.921	62.881	220.627	-69.647	-64.878	-64.979	-60.549	147.063	-60.583	-8191	255	
1641.134	1	1	0	0	0.15756	0.15127	0.19439	0.16215	0.30932	0.28359	0.29749	0.19628	0.14872	0.165	0.28231	0.13362	0.14625	0.24761	0.17739	0.27292	-1.6792	-2.4417	-1.7563	-2.6458	-2.1667	-1.9917	-2.7417	-2.0917	-2.2146	-2.5958	-1.7479	-2.6271	-2.5854	-1.8917	-2.6729	-2.35	221.034	208.002	202.951	-86.649	-66.086	-62.970	144.620	154.170	134.334	-75.186	-33.997	-71.287	156.248	-64.408	-0.060	191.809	0.00043621	0.0035414	0.00068652	818.59	1.9579e-05	1.3672e-05	1115.8	234.17	1.22e-05	1.4511e-05	419.42	162.82	82.559	31.981	4.6047e-05	72.06	0.025976	0.037199	0.010436	1041.4	0.0003881	0.00041324	1289.1	303.27	0.00038923	0.00041345	558.01	202.36	154.16	45.894	0.00039681	89.475	243.140	73.356	-10.589	-73.192	0.919	-19.057	-72.868	-68.687	-6.165	74.514	-68.612	-64.306	-64.259	-59.493	87.353	-59.902	-8191	255	
1641.206	1	1	0	0	0.3392	0.064141	0.17039	0.11082	0.13814	0.24673	0.061676	0.22085	0.20056	0.23001	0.14944	0.18154	0.19185	0.062717	0.29286	0.096079	-1.7667	-2.7812	-1.6812	-2.5687	-2.3521	-1.6562	-2.7687	-2.1688	-2.0854	-2.7333	-1.7708	-2.4792	-2.4167	-1.8896	-2.6771	-2.2917	149.292	208.790	-35.232	78.869	31.736	270.903	86.251	252.669	73.359	190.166	-83.523	-68.060	-30.924	191.124	117.719	127.749	0.00023015	0.0028742	0.00028515	833.12	5.5889e-06	2.2611e-05	1131.4	238.4	4.7557e-06	1.5941e-05	423.17	164.94	81.817	31.899	7.4888e-06	71.978	0.025962	0.037041	0.010448	1049.2	0.00039071	0.00041503	1303	307.57	0.00039707	0.0004246	567.34	204.63	157.69	46.86	0.00042029	91.044	118.881	47.813	154.073	-72.738	-43.308	122.046	-72.677	-67.939	188.983	23.933	-69.522	-65.424	-65.480	-60.202	252.984	-61.110	-8191	255	
1641.302	1	1	0	0	0.2231	0.070389	0.11744	0.15441	0.037585	0.13589	0.22932	0.21811	0.28427	0.095592	0.22496	0.19661	0.18539	0.2571	0.30433	0.22876	-1.5396	-2.6542	-1.7812	-2.4375	-2.5542	-1.8083	-2.7875	-2.1437	-1.9271	-2.7667	-1.8417	-2.3563	-2.6979	-1.9562	-2.6104	-2.3458	202.072	243.515	-10.568	-79.316	45.144	270.964	-84.040	214.085	-52.144	259.103	199.842	236.753	145.788	-5.692	259.430	222.656	8.326e-05	0.00081867	0.00088515	851.95	1.2201e-05	1.5187e-05	1153.4	241.74	1.3301e-05	3.1224e-05	425.99	164.39	83.235	31.529	6.9284e-06	71.59	0.027943	0.040019	0.0113	1092.9	0.00042225	0.00044982	1348	317.48	0.00042512	0.00044958	580.52	206.66	160.43	46.955	0.0004237	90.266	236.697	219.486	84.219	-73.029	-5.596	124.276	-72.699	-68.942	215.542	233.433	-68.944	-64.544	-64.381	-60.051	57.771	-60.420	-8191	255	
1641.423	1	1	0	0	0.2315	0.20541	0.06169	0.20408	0.23463	0.065895	0.23908	0.27342	0.21202	0.21051	0.25215	0.19933	0.19036	0.030866	0.043934	0.2865	-1.4292	-2.7083	-1.8646	-2.1688	-2.5833	-1.7542	-2.6896	-2.3104	-1.8	-2.6583	-2.0833	-2.2146	-2.5729	-1.7354	-2.4771	-2.4833	215.818	20.575	212.789	156.027	63.459	180.455	181.170	-44.531	87.128	264.006	-43.060	215.109	212.331	92.649	140.377	188.230	0.00030185	0.00087485	0.0001271	839	1.6498e-05	1.0365e-05	1134.3	236.36	1.53e-05	3.0532e-05	415.63	162.86	82.445	31.582	2.4012e-05	71.704	0.027258	0.038469	0.010795	1065.3	0.00039525	0.00041818	1305.2	305.17	0.00039025	0.00040944	555.88	201.28	153.77	45.662	0.00039443	89.204	251.574	-52.323	74.416	-73.196	-11.440	145.804	-73.714	-69.787	165.344	12.769	-70.154	-65.512	-66.025	-61.484	20.669	-61.701	-8191	255	
1641.517	1	1	0	0	0.040637	0.18194	0.27768	0.3665	0.36264	0.20594	0.25286	0.17094	0.20077	0.09184	0.17513	0.16535	0.33188	0.20902	0.19387	0.45806	-1.3563	-2.5375	-1.8792	-1.9479	-2.4229	-1.6292	-2.4313	-2.4104	-1.8396	-2.3979	-2.1688	-1.9604	-2.5833	-1.8	-2.2125	-2.725	129.693	62.804	142.786	-85.073	83.742	67.581	254.385	254.286	227.852	-42.370	240.599	211.710	-28.462	91.262	-14.867	180.951	0.00025052	0.0023081	0.00040376	821.29	1.8331e-05	9.9128e-06	1118.7	236.11	5.7016e-06	2.0957e-05	417.49	164.16	82.2	32.016	1.0801e-05	72.687	0.025788	0.037041	0.010382	1044	0.00038679	0.00041192	1289.7	303.37	0.0003884	0.00041165	555.65	202.31	154.69	46.273	0.00039984	90.044	237.366	267.032	47.726	-73.885	24.924	232.697	-73.611	-69.434	87.749	173.602	-69.430	-65.936	-66.056	-61.699	203.778	-61.475	-8191	255	
1641.613	1	1	0	0	0.15814	0.12771	0.14286	0.33289	0.06695	0.090707	0.17274	0.49726	0.2468	0.18613	0.034701	0.2343	0.13556	0.2527	0.080898	0.053123	-1.4125	-2.4833	-2.2271	-1.8792	-2.5896	-1.7646	-2.3937	-2.65	-2.0187	-2.5667	-2.2313	-1.8792	-2.6458	-1.9854	-2.1021	-2.7271	11.745	175.952	-0.584	219.350	29.803	118.637	-25.572	166.505	26.708	142.888	179.302	215.747	150.957	235.775	204.120	112.782	0.00044317	0.0026285	0.00023334	822	2.3281e-05	2.8646e-05	1113.2	235.22	1.1853e-05	2.1832e-05	417.4	165.5	82.965	32.249	2.0091e-05	72.805	0.026341	0.03778	0.010581	1047.7	0.00039615	0.00042186	1294	305.1	0.00039378	0.00041546	557.62	203.15	154.37	46.234	0.00039496	90.056	201.311	222.464	156.715	-74.211	101.840	173.904	-73.558	-69.475	105.499	67.847	-69.928	-65.357	-66.365	-61.272	83.852	-61.509	-8191	255	
1641.709	1	1	0	0	0.097053	0.2826	0.16398	0.091463	0.36425	0.14571	0.25485	0.13345	0.20863	0.14105	0.246	0.22866	0.26522	0.13716	0.075749	0.16003	-1.3667	-2.3167	-2.3312	-1.8417	-2.4292	-1.8479	-2.1271	-2.8896	-1.5792	-2.2438	-2.3583	-1.8479	-2.7875	-2.0312	-1.9021	-2.6312	187.180	139.761	43.962	197.042	-74.654	-32.787	129.355	109.074	33.961	246.245	167.096	208.989	149.944	149.337	160.138	244.108	0.0002682	0.00099295	0.00068954	824.14	1.0174e-05	1.1887e-05	1116.2	237.11	1.1215e-05	4.4588e-05	421.08	165.11	83.728	32	1.4929e-05	72.917	0.025783	0.036918	0.010338	1042.7	0.00038266	0.0004077	1289.6	303.39	0.00037819	0.00040111	555.26	202.55	153.28	45.813	0.00038846	89.768	210.740	-67.686	224.303	-74.010	185.037	78.331	-73.551	-69.288	164.935	155.884	-69.870	-65.784	-65.201	-61.233	45.937	-61.871	-8191	255	
1641.805	1	1	0	0	0.31282	0.1243	0.16221	0.01932	0.15023	0.074427	0.10207	0.079832	0.16276	0.30539	0.086323	0.2905	0.10788	0.25474	0.22964	0.10255	-1.4	-2.2938	-2.3438	-1.7917	-2.5646	-2.0396	-2.0625	-2.5583	-1.7021	-2.2438	-2.7562	-1.8188	-2.6604	-2.3	-1.8375	-2.7708	-24.407	40.733	33.730	-84.696	129.096	158.048	39.723	132.782	110.984	-47.405	271.760	-79.430	253.398	-85.157	20.723	159.092	0.00032977	0.0023608	0.00041266	825.72	1.8817e-05	1.5543e-05	1116.1	238.49	8.1507e-06	8.914e-06	417.35	166.25	83.415	31.933	2.5049e-05	73.187	0.025356	0.036391	0.010196	1034.8	0.00037563	0.00039972	1279.9	302.2	0.00037328	0.00039444	550.52	201.93	151.21	45.277	0.00037428	88.979	194.422	-12.923	36.861	-74.122	88.083	8.529	-73.722	-69.488	103.669	9.494	-69.502	-65.685	-65.593	-61.612	219.565	-61.657	-8191	255	
1641.902	1	1	0	0	0.23966	0.12893	0.16968	0.33073	0.19362	0.19527	0.26552	0.14573	0.31191	0.14182	0.093411	0.12064	0.15472	0.0411	0.16554	0.17099	-1.4208	-2.2542	-2.4542	-1.6854	-2.4417	-2.075	-1.9271	-2.8937	-1.9312	-2.0083	-2.6833	-1.7875	-2.45	-2.2146	-1.7563	-2.7125	248.139	-57.684	120.322	205.383	-83.638	152.269	210.782	253.111	41.607	0.405	232.532	-61.240	3.860	135.276	61.222	192.820	7.0222e-05	0.0018756	0.00017312	811.18	5.9461e-06	2.3256e-05	1095.9	234.28	5.6839e-06	2.608e-05	414.62	166.21	84.232	32.562	1.3644e-05	73.839	0.024493	0.034984	0.0098079	1011.2	0.0003628	0.00038793	1253.4	296.38	0.00036486	0.00038491	543.99	201.43	150.58	45.62	0.00037171	89.748	98.470	23.610	-59.436	-73.874	38.281	212.326	-73.719	-69.560	133.779	160.369	-69.864	-65.569	-65.299	-61.296	80.108	-61.645	-8191	255	
1641.998	1	1	0	0	0.029855	0.057332	0.25451	0.20049	0.14211	0.17823	0.22337	0.051328	0.17446	0.047966	0.26997	0.22773	0.20188	0.044127	0.20065	0.21724	-1.5042	-1.9479	-2.5438	-1.7833	-2.5	-2.3104	-1.8292	-2.7021	-2.2062	-2.0354	-2.6542	-1.8125	-2.3729	-2.525	-1.9396	-2.8375	151.138	78.583	-47.653	255.592	269.751	233.609	272.480	161.289	268.037	90.810	243.955	259.553	166.126	141.536	-32.461	144.186	9.5538e-05	0.0027514	0.00024516	806.75	1.7821e-05	1.397e-05	1095.2	236.36	3.8755e-06	3.8407e-05	418.42	167.83	85.059	32.952	2.4696e-05	74.035	0.024404	0.034805	0.0097782	1008.4	0.0003626	0.00038607	1250.4	296.51	0.00036111	0.00038054	543.13	201.94	150.13	45.768	0.00036891	90.079	225.823	165.843	143.769	-73.692	30.928	-25.069	-73.480	-69.334	30.636	66.672	-69.951	-66.083	-65.166	-61.355	101.331	-61.459	-8191	255	
1642.094	1	1	0	0	0.10274	0.13453	0.073506	0.11101	0.089114	0.11908	0.27244	0.07025	0.2503	0.13578	0.2486	0.17057	0.22321	0.023113	0.22219	0.38151	-1.5917	-2.0646	-2.6146	-2.0917	-2.2708	-2.5271	-1.8375	-2.7313	-2.1188	-1.825	-2.7646	-1.9021	-2.2438	-2.7562	-1.6521	-2.6937	242.420	248.800	-20.641	-77.214	40.333	-21.286	168.413	-55.714	-58.597	4.211	237.369	239.171	158.085	212.285	-36.338	249.461	0.00038674	0.0033095	0.0006398	817.31	1.5891e-05	2.822e-05	1108.3	235.86	4.3108e-06	2.8644e-05	423.16	167.54	83.884	32.65	6.3505e-06	74.208	0.024271	0.034806	0.0098325	1020.7	0.00036914	0.00039601	1271.3	301.93	0.0003754	0.000397	555.86	204.76	154.04	46.524	0.00038703	91.338	267.275	-71.987	-10.177	-73.885	67.058	-43.659	-73.513	-69.246	69.094	229.968	-69.694	-65.771	-65.282	-61.094	212.627	-61.150	-8191	255	
1642.215	1	1	0	0	0.16142	0.11808	0.057945	0.059972	0.093163	0.24246	0.07597	0.15369	0.080868	0.17401	0.1553	0.28997	0.11672	0.083343	0.24715	0.074793	-1.8417	-1.7563	-2.6625	-1.9958	-2.1146	-2.4208	-1.9583	-2.5396	-2.3375	-1.9708	-2.7979	-2.0271	-2.1688	-2.5312	-1.5688	-2.5625	200.385	140.992	160.350	-19.385	-49.956	226.865	252.024	61.138	166.522	131.494	259.308	-62.298	253.631	86.567	-50.037	182.981	8.0814e-05	0.0016517	0.00050685	822.95	1.5995e-05	5.0663e-06	1120.2	239.85	1.6542e-05	1.1164e-05	421.2	165.84	84.459	32.374	1.4684e-05	72.588	0.025597	0.03673	0.01034	1043.2	0.00038715	0.00041693	1296.1	308.61	0.00039494	0.00042158	567.78	205.93	158.77	47.194	0.00041705	91.521	129.969	-48.058	23.313	-73.952	18.517	90.645	-73.687	-69.669	212.517	201.178	-69.645	-65.565	-65.625	-61.021	3.314	-61.186	-8191	255	
1642.311	1	1	0	0	0.14502	0.20166	0.20085	0.054753	0.18607	0.24009	0.12955	0.094187	0.39722	0.12859	0.17284	0.16161	0.093093	0.09044	0.13933	0.21247	-2.1625	-1.7979	-2.7188	-2.2417	-2.0979	-2.8271	-1.7021	-2.6354	-2.3375	-1.8312	-2.7771	-2.25	-1.9708	-2.9604	-1.8146	-2.4188	53.622	-41.493	-83.827	-66.109	37.716	240.327	-26.137	198.732	135.242	69.816	71.584	-29.282	269.194	11.054	116.740	198.355	0.00045605	0.0019089	0.0012731	842.57	2.7481e-05	1.0582e-05	1147.1	243.62	1.5443e-05	2.5069e-05	425.39	165.49	83.853	32.21	2.0741e-05	72.811	0.027476	0.039137	0.011112	1081.2	0.00041444	0.00044192	1338.4	317.03	0.00041596	0.0004412	577.97	207.22	160.64	47.442	0.00041868	91.103	197.993	245.010	177.429	-73.747	248.068	191.565	-73.702	-69.559	185.144	81.814	-69.636	-65.707	-65.412	-60.868	9.425	-61.419	-8191	255	
1642.382	1	1	0	0	0.071208	0.17968	0.034454	0.24861	0.19628	0.15645	0.21032	0.11108	0.23709	0.23259	0.14324	0.15524	0.17576	0.15637	0.047211	0.17069	-2.1125	-1.8854	-2.4688	-2.1688	-1.8771	-2.7208	-1.9521	-2.4	-2.5354	-1.7313	-2.8312	-2.5042	-1.9458	-2.6271	-1.7313	-2.2833	135.131	10.145	234.956	206.929	100.903	-37.913	217.176	216.016	-52.711	-10.322	-76.329	-79.177	164.726	193.381	99.919	259.474	0.00026185	0.0010488	0.00052762	848.56	2.4914e-05	8.1137e-06	1141.7	241.41	6.0881e-06	3.4134e-05	423.77	166.59	83.051	32.473	1.0067e-05	73.061	0.027093	0.038388	0.010771	1074.5	0.00039801	0.0004218	1316.5	309.75	0.00039062	0.00041693	564.42	204.56	156.98	47.052	0.00040796	91.48	264.609	134.514	186.254	-73.846	-11.939	-71.114	-73.617	-69.068	220.325	21.541	-69.752	-65.495	-65.165	-61.025	36.104	-61.405	-8191	255	
1642.503	1	1	0	0	0.13557	0.085122	0.34386	0.12837	0.1509	0.1011	0.44523	0.31575	0.093258	0.14549	0.099746	0.15542	0.082092	0.13434	0.028656	0.16812	-2.275	-1.675	-2.3937	-2.3729	-1.8563	-2.6833	-2.1063	-2.0687	-2.4479	-1.7896	-2.4938	-2.5854	-1.7729	-2.7917	-2.0938	-2.075	34.165	-33.729	-37.591	239.623	246.391	209.822	199.621	229.617	3.720	158.732	210.625	158.727	130.455	231.216	267.774	162.850	0.00030331	0.001357	0.00078561	831.95	1.1314e-05	7.9544e-06	1124.5	240.49	3.8542e-06	3.1053e-05	420.83	167.46	84.413	32.96	1.3027e-05	74.813	0.027011	0.038878	0.010962	1068.1	0.00040804	0.00043526	1314.2	311.83	0.00040691	0.0004305	570.25	208.19	159.34	47.757	0.00041248	92.924	90.315	-17.588	41.030	-73.905	44.651	124.657	-73.455	-69.113	64.418	238.547	-69.424	-65.457	-64.685	-61.078	130.517	-61.123	-8191	255	
1642.597	1	1	0	0	0.13008	0.16717	0.40499	0.074131	0.079835	0.060734	0.27988	0.20083	0.16061	0.064765	0.10752	0.25913	0.20666	0.19216	0.13192	0.20349	-2.3208	-1.75	-2.3125	-2.5042	-1.6208	-2.5729	-2.3271	-1.8604	-2.7292	-1.7833	-2.3708	-2.4708	-1.7333	-2.7333	-2.3021	-1.9771	80.829	199.206	-56.589	8.432	35.107	242.127	200.510	165.538	-37.759	236.952	194.605	226.219	98.697	-79.421	31.605	-85.952	0.00015139	0.0027496	9.9856e-05	817.26	2.9686e-05	1.4512e-05	1112.9	235.93	2.4883e-05	8.1827e-06	416.73	167.66	84.753	33.332	1.0118e-05	75.219	0.027201	0.038769	0.010907	1051.6	0.00040341	0.00042938	1289.9	306.5	0.00039927	0.00042331	561.7	206.94	157.1	47.453	0.00040038	92.368	141.753	241.726	-9.442	-73.764	12.031	177.054	-73.251	-68.611	91.876	88.682	-69.566	-64.999	-64.929	-61.102	25.353	-61.241	-8191	255	
1642.694	1	1	0	0	0.12777	0.099116	0.25397	0.20383	0.098061	0.025443	0.30356	0.32281	0.17939	0.1388	0.14164	0.074925	0.26112	0.16302	0.11877	0.049263	-2.2938	-1.7563	-2.1042	-2.7042	-1.8604	-2.4188	-2.4542	-1.9562	-2.8312	-1.9396	-2.2958	-2.7146	-1.9042	-2.5625	-2.2771	-1.8375	122.877	49.963	-35.269	220.437	33.158	28.445	252.309	68.733	10.286	-39.787	157.218	-33.688	255.864	209.300	-20.596	16.345	0.00017612	0.0029214	0.00077269	808.44	2.9397e-05	1.7252e-05	1093.3	233.98	3.4683e-06	1.2234e-05	416.97	168.07	86.211	33.414	1.6608e-05	75.698	0.025931	0.036862	0.010329	1024.6	0.00037885	0.00040519	1261.3	299.3	0.00037465	0.00039775	550	204.53	154.04	46.833	0.00038215	91.98	190.131	-36.294	59.677	-73.397	65.262	52.593	-72.961	-68.184	225.730	46.043	-69.092	-64.725	-65.010	-59.799	-0.589	-60.873	-8191	255	
1642.814	1	1	0	0	0.17331	0.25942	0.10486	0.19007	0.27244	0.077126	0.35862	0.090054	0.21796	0.14367	0.22047	0.17734	0.2046	0.14412	0.054536	0.45356	-2.1896	-2.0229	-2.1312	-2.6875	-1.6479	-2.4688	-2.6104	-1.9479	-2.5292	-1.9625	-1.9521	-2.7375	-1.8583	-2.3312	-2.4042	-1.8875	-66.941	-2.168	256.234	237.590	218.574	194.364	176.912	22.286	-40.839	137.306	261.503	-78.007	8.725	254.377	-50.660	-77.234	0.0003562	0.0019722	0.00041665	802.14	7.7179e-06	2.8117e-05	1081.7	234.81	3.7677e-06	1.4757e-05	417.41	172.5	85.74	34.296	2.2936e-05	77.922	0.024899	0.035436	0.0098789	1004.5	0.00036503	0.00038564	1239.2	295.13	0.00035249	0.00037022	539.82	204.31	148.79	46.261	0.00034365	91.643	222.000	3.755	-37.043	-73.494	-23.311	-37.390	-73.641	-69.537	-16.286	75.351	-69.193	-65.945	-65.133	-61.129	122.135	-61.553	-8191	255	
1642.910	1	1	0	0	0.24914	0.089882	0.15696	0.12289	0.1127	0.16353	0.1872	0.1565	0.1778	0.07414	0.19111	0.22852	0.07364	0.19876	0.015294	0.37865	-2.1562	-1.7625	-1.8292	-2.6479	-1.6958	-2.2604	-2.7229	-1.7646	-2.45	-2.0625	-1.9167	-2.8937	-1.8937	-2.3438	-2.3604	-1.9396	-3.593	107.359	184.050	238.160	248.011	223.381	113.443	11.010	-18.267	21.190	235.633	251.400	269.885	237.872	22.665	207.747	0.0002571	0.0011682	0.00049472	780.92	3.2025e-05	1.1876e-05	1068.2	233.43	1.4508e-05	1.7776e-05	419.6	174.64	86.836	35.114	2.0797e-05	78.707	0.022293	0.031602	0.0088418	959.29	0.00032619	0.00034642	1202.8	287.75	0.0003248	0.00034329	531.62	204.86	147.23	46.244	0.00033722	92.414	167.321	59.830	244.600	-74.171	148.060	32.229	-73.738	-69.015	171.788	-8.362	-70.022	-65.654	-65.558	-61.793	-0.995	-61.807	-8191	255	
1643.006	1	1	0	0	0.14801	0.14249	0.20679	0.29354	0.22566	0.22246	0.3376	0.2869	0.28058	0.12994	0.20497	0.083129	0.14712	0.048375	0.10249	0.093722	-1.9479	-2.2833	-1.8438	-2.6958	-1.9667	-2.0125	-2.6979	-1.8417	-2.4	-2.3833	-1.9042	-2.7146	-1.9	-2.0396	-2.4104	-1.8333	63.026	36.288	-77.319	-74.317	-76.727	170.472	216.235	251.085	266.730	19.200	-15.478	123.967	-64.224	-86.778	97.901	197.607	0.00018454	0.0023841	0.00061023	795.71	1.6278e-05	2.4242e-05	1084.3	238.75	1.3509e-05	1.4681e-05	423.68	173.55	86.131	34.387	1.7784e-05	76.861	0.022523	0.032312	0.0091269	979.78	0.0003437	0.0003673	1234.2	295.91	0.00034978	0.00037357	547.89	207.38	151.97	47.046	0.00036572	92.551	-78.987	57.441	86.720	-73.689	-39.156	61.859	-73.389	-69.593	165.475	67.456	-69.495	-65.707	-65.523	-61.236	155.226	-61.883	-8191	255	
1643.103	1	1	0	0	0.069895	0.058541	0.17887	0.11827	0.081127	0.29496	0.25606	0.21641	0.078837	0.065331	0.13018	0.22424	0.29058	0.1043	0.34644	0.22263	-2.0812	-2.5667	-1.7958	-2.6875	-1.9125	-2.0104	-2.8583	-1.8417	-2.4833	-2.3792	-1.9792	-2.7	-2.1063	-1.8729	-2.8229	-2.0292	191.758	-76.358	185.362	212.037	54.456	111.653	158.303	131.800	57.521	-37.383	-53.531	228.374	-15.066	-45.035	176.202	259.570	0.00017364	0.00071032	0.00086866	811.68	1.2808e-05	9.6093e-06	1098.6	238.18	2.6511e-05	3.0996e-05	424.19	170.5	85.904	33.52	1.1891e-05	75.651	0.024136	0.034567	0.0097863	1012.6	0.00036348	0.00038762	1260.3	300.56	0.00036377	0.0003846	551.8	205.6	153.14	46.879	0.00037315	91.709	-87.473	202.778	102.564	-73.604	49.673	105.765	-73.624	-69.846	209.348	262.293	-69.192	-65.881	-65.621	-61.125	-30.483	-61.575	-8191	255	
1643.199	1	1	0	0	0.20241	0.28521	0.27865	0.21493	0.16555	0.073513	0.055401	0.22359	0.27021	0.12987	0.19025	0.16366	0.065652	0.056808	0.12907	0.14073	-1.8188	-2.3917	-1.6292	-2.8354	-1.9917	-1.9438	-2.7812	-1.9875	-2.3521	-2.5854	-1.8604	-2.5979	-2.1458	-1.8729	-2.6333	-2.1542	236.707	-46.894	50.935	231.405	-54.853	102.777	140.565	259.337	236.766	31.664	-46.979	224.680	144.648	186.556	162.479	141.997	0.00011193	0.0011262	0.00041369	830.35	2.6197e-05	1.602e-05	1122.8	241.29	1.8543e-05	1.0646e-05	427.21	169.6	85.415	33.189	2.3765e-05	74.595	0.024581	0.035103	0.0098548	1030.8	0.0003674	0.00039209	1278.7	303.45	0.00037106	0.00039534	560.32	206.57	156.9	47.284	0.00040709	92.348	176.671	267.815	-60.467	-74.085	103.878	23.732	-73.813	-69.292	138.746	83.862	-69.471	-65.479	-65.612	-61.460	23.029	-61.710	-8191	255	
1643.295	1	1	0	0	0.28203	0.26847	0.19163	0.21928	0.072418	0.12327	0.35402	0.17111	0.18862	0.017876	0.3447	0.40293	0.22721	0.11277	0.097817	0.13989	-1.8521	-2.7188	-1.5896	-2.5354	-2.4958	-1.6604	-2.9146	-2.1063	-2.05	-2.5563	-1.9417	-2.4688	-2.5292	-2.05	-2.5854	-2.0833	6.436	128.619	-23.298	184.059	128.977	207.273	209.654	229.678	75.971	164.167	180.565	-67.795	-48.475	199.210	48.890	62.329	0.00015545	0.00070733	0.00018924	865.95	3.433e-06	5.7197e-06	1175.2	250.64	2.1712e-06	9.8982e-06	437.58	169.51	85.771	32.532	3.1951e-05	72.801	0.02727	0.039196	0.011146	1107	0.00041777	0.00044867	1369.9	324.78	0.00042279	0.00044701	593.69	212.14	163.63	47.726	0.00042635	92.202	233.765	107.464	4.935	-73.694	250.477	-17.145	-73.855	-69.966	270.260	33.939	-69.687	-65.934	-65.746	-61.153	202.589	-61.819	-8191	255	
1643.391	1	1	0	0	0.30717	0.13514	0.29428	0.051223	0.29862	0.26018	0.49087	0.41756	0.21135	0.22908	0.26082	0.078164	0.28428	0.029493	0.21947	0.21352	-1.6437	-2.6063	-1.8333	-2.5042	-2.4917	-1.875	-2.8708	-2.2792	-1.9688	-2.7896	-1.9583	-2.1917	-2.5812	-1.8021	-2.3917	-2.2917	208.718	179.878	190.992	231.003	83.619	-29.597	-62.308	170.254	-12.312	88.476	123.773	254.264	-3.332	148.107	-37.637	216.188	0.00044368	0.0021795	0.00057408	867.42	1.9312e-05	1.9704e-05	1171.7	246.61	1.8196e-05	2.8298e-05	433.56	168.2	85.105	32.478	1.7078e-05	72.951	0.027815	0.039563	0.01111	1103.4	0.00041156	0.0004373	1355.7	319.03	0.0004099	0.00043263	580.82	209.05	160.95	47.393	0.00041488	91.663	-85.884	116.024	120.331	-74.292	-21.165	155.201	-73.950	-69.543	-44.905	46.283	-69.859	-65.552	-65.279	-61.434	105.291	-61.683	-8191	255	
1643.510	1	1	0	0	0.065058	0.14523	0.16841	0.13422	0.22531	0.14426	0.2049	0.12939	0.2981	0.11467	0.10618	0.17375	0.32933	0.14277	0.031125	0.2073	-1.4562	-2.7562	-1.7979	-2.3083	-2.4458	-1.6271	-2.6292	-2.3042	-1.7938	-2.625	-2.0271	-2.1354	-2.6833	-1.85	-2.3854	-2.4979	-79.971	65.618	-29.028	193.959	240.322	42.264	218.771	165.570	257.608	210.134	-70.155	245.367	228.373	251.512	-55.433	199.248	0.00020883	0.0012769	0.0010713	849.62	3.4089e-05	3.3575e-05	1132.9	242.51	1.4625e-05	1.1215e-05	424.39	166.64	85.23	33.085	2.5444e-05	74.561	0.027036	0.038057	0.01065	1069.3	0.00038786	0.00041259	1302.7	306.52	0.00037777	0.00039764	556.85	203.73	152.2	46.192	0.00037236	90.674	261.873	64.120	44.042	-74.054	221.077	206.250	-73.634	-69.238	12.358	106.979	-69.807	-65.377	-65.925	-60.718	70.465	-61.524	-8191	255	
1643.606	1	1	0	0	0.11658	0.18764	0.20643	0.2999	0.059869	0.25532	0.18875	0.094021	0.062191	0.053555	0.30713	0.10676	0.25527	0.24486	0.10815	0.16187	-1.3792	-2.4708	-1.9583	-2.0563	-2.6479	-1.6979	-2.7083	-2.4729	-1.6542	-2.6583	-1.9729	-2.1604	-2.5938	-1.7958	-2.3438	-2.5771	6.601	246.764	4.772	214.222	25.889	74.709	262.088	-43.446	151.728	137.157	218.661	230.102	-78.564	41.599	-36.443	216.066	0.00028121	0.00093208	0.00040403	825.14	1.1504e-05	2.3829e-05	1117	242.93	1.0074e-05	7.6368e-06	427.31	170.25	85.395	33.137	1.3106e-05	74.651	0.024341	0.034744	0.009789	1025.8	0.00036892	0.0003937	1283.1	306.06	0.00037841	0.00040454	565.31	207.62	157.36	47.188	0.00040251	92.393	187.263	56.224	-1.486	-73.463	113.446	102.527	-73.572	-69.270	-34.080	141.138	-69.428	-65.246	-66.092	-61.247	197.377	-61.139	-8191	255	
1643.678	1	1	0	0	0.32833	0.20211	0.018446	0.18181	0.035397	0.19068	0.29362	0.26907	0.1036	0.28332	0.16756	0.048234	0.30284	0.079984	0.23688	0.19849	-1.4583	-2.6417	-2.1875	-2.1396	-2.5979	-1.8958	-2.3063	-2.6021	-1.7396	-2.4854	-2.1792	-2.1146	-2.6896	-1.9813	-2.1167	-2.6583	-15.691	123.225	97.840	242.325	-44.772	-73.279	225.582	196.070	188.037	114.196	-67.214	186.428	262.933	-60.121	7.027	198.356	9.7974e-05	0.0016423	0.00075539	847.48	1.5481e-05	1.6624e-05	1149.8	246.2	1.2774e-05	1.2903e-05	435.72	169.98	86.774	33.049	1.6332e-05	74.719	0.026608	0.037991	0.010678	1075.1	0.00040048	0.00042858	1330.4	315.56	0.00039952	0.00042211	577.55	209.31	160.05	47.32	0.00040506	92.424	94.745	4.625	20.042	-73.421	-81.728	135.565	-72.992	-69.451	76.424	-59.135	-69.448	-65.325	-64.696	-60.673	266.766	-61.283	-8191	255	
1643.774	1	1	0	0	0.27339	0.18345	0.4923	0.21399	0.28729	0.18353	0.31168	0.26518	0.14595	0.10099	0.10682	0.1464	0.18715	0.12249	0.15524	0.044273	-1.4458	-2.3479	-2.1437	-1.9271	-2.7146	-1.7958	-2.3604	-2.6729	-1.7854	-2.4146	-2.3792	-2.0833	-2.7208	-2.1125	-2.0375	-2.7562	42.657	213.255	-48.671	234.734	112.776	121.161	219.906	269.937	122.545	-8.363	120.167	202.840	123.876	68.802	147.762	233.167	0.00025059	0.00075829	0.00087766	848.1	1.4123e-05	2.975e-05	1150	245.85	2.7938e-05	1.047e-05	430.09	169.61	86.045	32.995	6.7332e-06	74.937	0.026367	0.037579	0.010557	1069.7	0.00039088	0.00041485	1319.3	312.22	0.00038201	0.00040206	564.9	206.04	154.24	46.34	0.00037442	90.903	241.586	271.172	250.595	-73.920	-23.963	113.560	-73.181	-69.274	89.004	71.549	-69.398	-65.551	-65.252	-60.754	-78.078	-61.473	-8191	255	
1643.895	1	1	0	0	0.38961	0.12688	0.10397	0.2596	0.25878	0.16886	0.29583	0.47555	0.24734	0.1722	0.085202	0.34463	0.12549	0.20409	0.23805	0.053145	-1.3354	-2.4521	-2.4125	-1.975	-2.6854	-1.9479	-2.2229	-2.7229	-1.8	-2.3021	-2.5208	-1.8563	-2.7125	-2.0521	-1.9854	-2.8333	242.638	215.667	2.151	-37.444	228.990	173.146	177.555	-78.916	60.661	161.347	67.930	246.712	-65.138	239.332	7.895	166.069	0.00043556	0.0020795	0.00042842	833.71	4.4019e-06	2.306e-05	1121.3	240.22	2.4776e-05	1.2436e-05	425.68	169.47	84.995	33.388	1.4424e-05	75.229	0.024365	0.034581	0.0096705	1032.9	0.00035814	0.00037941	1274.9	301.41	0.00035386	0.00037584	548.87	203.55	150.47	46.049	0.00036058	90.884	213.196	15.073	66.427	-73.834	-51.337	106.315	-73.064	-69.392	104.943	59.287	-69.803	-65.198	-65.518	-61.255	69.825	-61.354	-8191	255	
1643.991	1	1	0	0	0.19838	0.12617	0.12021	0.44363	0.38133	0.26458	0.17267	0.23738	0.063841	0.24325	0.1722	0.23874	0.17462	0.20986	0.2037	0.16762	-1.4854	-2.2062	-2.3146	-1.8354	-2.4458	-2.1625	-1.7208	-2.6354	-1.9417	-2.3104	-2.4917	-1.8625	-2.6562	-2.4437	-2.0563	-2.7687	-25.727	32.743	74.151	-85.803	265.577	216.312	248.215	217.264	-69.142	133.778	192.888	209.783	150.273	252.274	101.528	128.364	6.3012e-05	0.00057677	0.0009641	837.71	2.0749e-05	1.2366e-05	1125.4	243.51	5.3242e-06	1.2238e-05	426.41	170.13	85.639	33.278	1.9086e-05	75.738	0.023769	0.034014	0.0095162	1030	0.00035567	0.0003808	1278.7	303.16	0.00035794	0.00037915	554.26	205.44	152.48	46.413	0.00037072	91.473	246.954	-17.809	10.180	-73.374	-76.943	143.027	-73.048	-68.983	-59.076	119.303	-69.760	-65.297	-65.179	-60.928	132.388	-60.988	-8191	255	
1644.087	1	1	0	0	0.30398	0.12765	0.26631	0.053584	0.10488	0.17069	0.11964	0.10463	0.29982	0.030164	0.23307	0.15066	0.13757	0.11694	0.19582	0.19724	-1.6458	-2.2333	-2.7167	-1.7917	-2.4792	-2.1771	-1.9458	-2.6792	-1.9562	-1.9917	-2.9375	-1.7854	-2.4708	-2.4479	-1.6792	-2.8333	200.086	260.517	-5.754	60.214	95.801	-58.221	-73.969	259.126	66.538	263.358	192.413	170.282	29.760	-72.201	144.784	245.288	0.00016465	0.001285	0.00072938	839.94	2.524e-05	2.2434e-05	1139.5	244.87	1.4171e-05	2.1639e-05	430.96	171.36	86.206	33.513	4.5022e-06	74.921	0.024394	0.03491	0.0097596	1042.2	0.00036514	0.00039053	1300.4	306.9	0.00036893	0.00039218	563.97	206.76	154.63	46.668	0.00038329	91.577	262.123	158.123	253.592	-73.347	255.967	21.728	-72.911	-68.607	63.600	50.977	-68.631	-64.344	-63.977	-60.438	132.843	-60.670	-8191	255	
1644.183	1	1	0	0	0.2842	0.14928	0.23056	0.018268	0.12867	0.12114	0.1866	0.34745	0.047656	0.054591	0.14712	0.3601	0.092288	0.18632	0.19304	0.2655	-1.6333	-2.0938	-2.6021	-1.9854	-2.3063	-2.5667	-1.7792	-2.5417	-2.2729	-1.9979	-2.9479	-2.1188	-2.3688	-2.5312	-1.7958	-2.7896	267.230	168.026	10.025	-47.951	30.557	244.312	230.139	224.916	34.228	200.297	153.778	264.508	122.673	90.272	-30.447	-84.227	0.00036237	0.0020554	0.00058755	864.18	1.214e-05	6.5772e-06	1171.3	249.3	1.706e-05	1.1911e-05	438.11	170.2	86.476	32.823	2.1445e-05	73.781	0.025054	0.035791	0.010113	1069.6	0.00037712	0.0004042	1336.3	315.68	0.00038759	0.00041252	578.15	208.08	158.81	47.127	0.00040677	91.662	235.433	238.679	117.791	-72.903	99.345	38.582	-73.185	-69.388	60.362	-18.731	-69.639	-65.421	-65.275	-60.763	141.150	-60.812	-8191	255	
1644.302	1	1	0	0	0.25083	0.20707	0.21458	0.17654	0.10079	0.22596	0.52414	0.1838	0.14237	0.34985	0.13503	0.35886	0.091961	0.12291	0.31158	0.2903	-1.7396	-1.8375	-2.6417	-1.9562	-2.2833	-2.6875	-1.875	-2.6125	-2.2708	-1.9146	-2.8417	-2.1	-2.2562	-2.6917	-1.6458	-2.65	97.905	250.148	158.615	-36.817	-60.272	-24.836	216.669	198.250	-29.620	223.744	63.223	261.176	178.672	251.701	25.235	271.418	0.00040315	0.0029048	0.00092849	884.21	9.9587e-06	1.8754e-05	1189.3	254.19	1.1431e-05	2.8935e-05	439.1	167.15	85.563	32.241	6.5312e-06	72.562	0.026805	0.038275	0.010788	1110.7	0.00040183	0.00042896	1372	323	0.00040457	0.0004317	585.82	208.18	160.08	46.969	0.00041273	90.613	190.005	-26.789	-36.880	-73.037	13.161	65.043	-73.158	-68.938	269.329	214.576	-68.731	-64.725	-64.613	-60.761	272.378	-61.305	-8191	255	
1644.375	1	1	0	0	0.17369	0.20201	0.1082	0.12175	0.039513	0.084674	0.14755	0.17693	0.20845	0.21184	0.17998	0.41724	0.10112	0.033679	0.088709	0.25417	-1.8583	-1.8646	-2.8	-2.1583	-1.9917	-2.6917	-2.0438	-2.5917	-2.4208	-1.875	-2.7208	-2.2812	-2.0292	-2.5979	-1.75	-2.5375	57.642	244.259	-36.223	272.211	125.630	-42.154	180.408	165.259	251.597	222.898	198.158	243.447	266.542	211.841	82.389	241.887	0.0002924	0.0012141	0.00064707	875.71	2.4149e-05	3.8932e-05	1191.5	251.02	3.9409e-06	2.5525e-05	434.33	166.24	84.081	32.248	2.1506e-05	72.334	0.026808	0.038102	0.010707	1105.8	0.00039544	0.0004208	1362.9	318.95	0.00039251	0.00041624	576.42	205.16	156.27	46.177	0.00039546	89.929	-66.574	81.049	41.987	-73.900	226.569	47.373	-73.583	-69.622	55.046	-84.528	-70.069	-65.329	-65.361	-60.862	104.731	-61.116	-8191	255	
1644.496	1	1	0	0	0.22029	0.23458	0.10009	0.097573	0.055066	0.14729	0.16902	0.11943	0.052934	0.15994	0.15694	0.32814	0.3503	0.078255	0.14618	0.35861	-2.1771	-1.8312	-2.6	-2.2604	-1.9688	-2.6271	-2.1958	-2.2146	-2.3771	-1.8312	-2.8625	-2.1354	-2.0479	-2.6917	-1.8458	-2.2771	179.092	48.956	235.349	-82.832	172.980	256.722	200.983	212.358	1.002	136.896	-73.173	180.591	224.844	202.397	-1.421	251.519	0.00020104	0.0019269	0.00055954	881.62	1.7429e-05	1.06e-05	1182.6	248.14	2.1915e-05	2.3085e-05	437.71	168.08	84.811	32.436	1.1501e-05	73.26	0.025814	0.036942	0.010372	1093.8	0.00038473	0.00041089	1349.2	315.09	0.00038221	0.00040549	573.46	205.27	155.34	46.237	0.00039047	90.64	202.504	-15.889	78.125	-73.917	-77.261	0.251	-73.402	-69.321	87.631	-18.151	-69.521	-65.464	-65.562	-60.743	-39.436	-60.941	-8191	255	
1644.590	1	1	0	0	0.12939	0.17678	0.13412	0.19125	0.11093	0.22578	0.11612	0.1333	0.15993	0.13025	0.18295	0.25092	0.052941	0.25424	0.16274	0.19556	-2.25	-1.9333	-2.6104	-2.4813	-2.0021	-2.7188	-2.1354	-2.325	-2.5979	-1.925	-2.575	-2.6083	-1.9375	-2.7562	-2.0625	-2.2167	119.311	36.501	-24.433	166.424	97.471	11.680	136.060	177.525	205.711	11.887	222.789	187.792	140.883	211.232	158.590	145.907	0.0002109	0.0017855	0.00053717	862.81	2.6071e-05	1.1701e-05	1153.7	245.08	2.8638e-05	1.4966e-05	429.79	169.39	85.722	33.318	1.9757e-05	75.143	0.025669	0.036575	0.01022	1073.4	0.0003782	0.0004019	1317.6	309.67	0.00037355	0.00039426	562.24	205.51	152.92	46.258	0.00037117	90.668	257.633	167.101	-49.681	-73.921	187.836	-84.008	-73.736	-69.438	147.380	-69.493	-69.687	-65.596	-65.445	-61.326	-18.730	-61.317	-8191	255	
1644.686	1	1	0	0	0.074517	0.083736	0.24271	0.17063	0.10748	0.086477	0.19392	0.32659	0.094361	0.15317	0.20333	0.22825	0.2041	0.17782	0.13293	0.16596	-2.3917	-1.7292	-2.3521	-2.55	-1.7167	-2.5792	-2.2313	-2.1021	-2.6771	-1.9583	-2.5563	-2.6104	-1.9625	-2.7875	-2.175	-2.1354	158.385	138.779	124.851	250.210	51.540	24.596	240.803	223.581	209.180	167.508	-57.996	70.706	110.084	178.871	193.110	85.956	0.00024706	0.001981	0.00072863	832.1	1.583e-05	7.5468e-06	1124.1	240.04	1.0221e-05	7.099e-06	424.29	170.02	85.775	33.486	2.1931e-05	75.689	0.023932	0.034222	0.0095556	1028	0.00034941	0.00037244	1272.1	298.35	0.0003417	0.00036292	544.74	201.96	147.58	45.438	0.00034617	90.207	148.668	135.690	28.669	-73.747	-17.902	24.767	-73.931	-69.479	156.124	-40.553	-69.678	-65.577	-65.285	-61.310	228.333	-61.520	-8191	255	
1644.783	1	1	0	0	0.047051	0.21948	0.24261	0.47965	0.076792	0.048549	0.36619	0.089372	0.1006	0.022235	0.045989	0.19672	0.25942	0.23813	0.053218	0.19067	-2.3521	-1.9375	-2.2667	-2.6937	-1.6854	-2.5771	-2.4896	-2.05	-2.7583	-1.9917	-2.4125	-2.7104	-1.925	-2.5604	-2.2875	-2.1521	51.526	32.048	-21.772	245.048	179.467	197.746	191.599	155.687	16.222	104.898	-14.539	229.920	-78.386	-49.958	188.909	-65.788	0.00036762	0.0037744	9.9124e-05	835.4	8.8108e-06	2.5647e-05	1137.3	243.17	1.4583e-05	2.7821e-05	433.7	171.56	87.061	33.893	1.0421e-05	76.051	0.022809	0.032747	0.0092291	1022.4	0.00034895	0.00037159	1281.7	302.53	0.00035059	0.00037234	555.35	206.03	151.73	46.245	0.00036431	91.714	-67.725	-37.539	155.723	-73.988	33.772	196.400	-73.805	-69.302	270.220	147.472	-69.678	-65.702	-65.444	-61.269	70.303	-61.285	-8191	255	
1644.903	1	1	0	0	0.21049	0.10627	0.1476	0.22625	0.36363	0.27189	0.46724	0.3196	0.14379	0.061991	0.27763	0.37637	0.10524	0.18943	0.059516	0.27388	-2.4583	-1.9354	-2.0583	-2.75	-1.9146	-2.5604	-2.5271	-2.025	-2.6583	-2.2042	-2.2417	-2.9	-1.8083	-2.3854	-2.4104	-2.0312	9.961	121.116	178.040	222.478	155.982	22.686	228.562	236.813	-71.093	213.495	202.933	149.687	-41.752	243.335	161.890	203.681	0.00047995	0.0015579	0.0010474	847.13	7.6339e-06	5.698e-06	1155.5	247.14	5.0932e-06	2.8468e-05	439.76	175.22	89.312	33.915	1.4636e-05	76.52	0.024435	0.03489	0.0098896	1051.2	0.00037143	0.00040046	1317.9	313.74	0.00038126	0.00040892	579.43	213.78	161.71	48.443	0.00040882	94.876	224.685	-52.955	-60.342	-74.061	172.591	267.023	-74.008	-69.437	172.149	142.281	-70.022	-65.495	-66.015	-61.349	132.619	-61.130	-8191	255	
1644.975	1	1	0	0	0.21977	0.10016	0.37592	0.072847	0.21054	0.12706	0.09864	0.092678	0.13241	0.097646	0.22005	0.11116	0.1595	0.179	0.059194	0.23978	-2.1896	-2.0875	-1.975	-2.9396	-2.0083	-2.3708	-2.7042	-1.9021	-2.6083	-2.2271	-2.2333	-2.8542	-1.8917	-2.3521	-2.6125	-1.9042	-27.003	-23.739	150.102	168.875	109.571	255.547	64.901	-2.052	98.331	210.995	189.935	130.620	-13.665	173.928	-19.811	-59.789	5.3429e-05	0.0028858	0.00052915	870.73	8.1376e-06	1.3814e-05	1173.1	253.44	1.7584e-05	2.2935e-05	444.09	175.87	88.219	33.857	1.9403e-05	76.369	0.026918	0.038457	0.010798	1092.9	0.00039561	0.00042126	1348.4	320.94	0.00039142	0.00041156	585.33	213.78	159.94	47.989	0.00039978	94.115	269.806	-12.171	132.866	-74.138	98.971	88.029	-74.021	-69.261	125.873	152.292	-69.677	-65.744	-65.844	-61.413	90.315	-61.332	-8191	255	
1645.071	1	1	0	0	0.28234	0.067354	0.13664	0.25649	0.06152	0.28887	0.36669	0.0071695	0.14933	0.22487	0.3017	0.1515	0.16017	0.14356	0.088573	0.27019	-2.0896	-2.1854	-2.0625	-2.9417	-1.8625	-2.1604	-2.6562	-1.7812	-2.4458	-2.5208	-1.7625	-2.7417	-1.8354	-2.1667	-2.7417	-2.0396	182.788	57.678	100.350	253.353	84.919	67.120	233.814	99.354	228.168	188.232	218.653	270.563	-78.672	263.105	179.584	161.215	0.00019466	0.0029156	0.00071638	860.4	2.6786e-05	1.8516e-05	1183.1	255.59	1.5603e-05	2.9778e-05	445.75	174.97	88.314	33.63	4.8337e-06	76.193	0.026213	0.03757	0.010575	1091.7	0.00039678	0.00042569	1358.6	324.24	0.00040605	0.0004299	593.85	215.94	163.81	48.507	0.00041239	94.175	191.493	-21.094	-15.400	-73.704	-55.395	-47.793	-73.722	-69.657	174.782	249.262	-69.745	-65.636	-66.183	-61.010	183.293	-61.458	-8191	255	
1645.192	1	1	0	0	0.022617	0.18137	0.017911	0.19777	0.17454	0.30042	0.24643	0.18235	0.14369	0.10892	0.1919	0.084554	0.20118	0.32244	0.10423	0.38326	-2.0083	-2.2604	-2.0042	-2.675	-1.8771	-2.0271	-2.9313	-1.8875	-2.3208	-2.3146	-1.9042	-2.7958	-1.8167	-1.9937	-2.4437	-1.9333	-40.751	-3.707	83.970	257.089	190.244	-64.190	218.920	172.189	199.725	30.780	245.881	267.171	233.329	226.699	222.127	-78.729	9.1356e-05	0.00021539	0.00099978	867.25	5.0498e-06	1.9982e-05	1174.8	251.29	2.4697e-05	1.3452e-05	444.12	172.54	88.039	33.467	2.2745e-05	75.543	0.026606	0.037763	0.010496	1085.4	0.00038466	0.00040905	1337.9	316.75	0.00037934	0.00040092	577.19	209.71	156.06	47.103	0.00037902	92.305	156.591	112.356	124.543	-73.765	26.733	35.850	-73.410	-69.180	38.730	-76.603	-70.004	-65.479	-65.476	-61.016	-11.241	-61.512	-8191	255	
1645.288	1	1	0	0	0.12636	0.016407	0.093538	0.3837	0.16264	0.11814	0.034089	0.12909	0.14583	0.17338	0.14771	0.27031	0.18502	0.044437	0.18195	0.089294	-1.9458	-2.5521	-1.7875	-2.7521	-2.2896	-2.1375	-2.8688	-1.925	-2.2875	-2.5854	-1.8292	-2.6604	-2.2875	-2.1146	-2.6146	-1.9583	54.896	92.229	182.693	256.389	44.243	154.875	-55.111	266.880	192.206	245.606	-85.677	192.567	-25.325	220.135	212.859	48.510	2.0382e-05	0.00096118	0.00035634	872.13	1.1945e-05	2.0503e-05	1184.7	253.23	1.5015e-05	2.2689e-05	448.63	173.21	89.594	33.446	1.6403e-05	75.526	0.025029	0.035723	0.010068	1079.2	0.00037715	0.00040456	1350.5	318.96	0.00038362	0.00040865	586.19	211.36	159.47	47.404	0.00039663	92.618	10.180	52.219	142.902	-73.516	213.377	82.079	-73.736	-69.676	253.429	38.754	-69.621	-65.816	-65.463	-60.917	44.192	-61.189	-8191	255	
1645.382	1	1	0	0	0.12089	0.031249	0.35121	0.13797	0.046695	0.15112	0.2264	0.37492	0.25198	0.11284	0.32173	0.3308	0.12296	0.40662	0.012951	0.24061	-1.8667	-2.4479	-1.7208	-2.6063	-2.1688	-1.9062	-2.8354	-2.0208	-2.0687	-2.5958	-2.0812	-2.6917	-2.3667	-1.8563	-2.6354	-2.1813	219.474	139.790	-36.993	187.818	264.519	218.051	135.490	241.740	-22.445	92.036	247.686	239.509	92.947	269.164	-4.590	227.372	0.00014402	0.00042169	0.00089974	892.58	1.54e-05	4.9012e-05	1221.5	256.82	1.4532e-05	1.7065e-05	450.41	173.09	87.567	33.132	4.1824e-05	74.276	0.025759	0.036522	0.010266	1100	0.00037621	0.00039878	1369.7	319.83	0.00037408	0.00039452	581.42	209.16	156.92	46.813	0.00038846	91.705	256.935	163.086	60.424	-73.274	186.026	55.683	-73.495	-69.559	133.152	177.635	-70.107	-65.567	-65.654	-60.328	53.341	-61.309	-8191	255	
1645.478	1	1	0	0	0.088897	0.19335	0.20155	0.080631	0.20545	0.11458	0.26042	0.21696	0.21616	0.3298	0.26247	0.1846	0.32332	0.29488	0.29296	0.27661	-1.7687	-2.6	-1.7292	-2.5292	-2.375	-1.8937	-2.7979	-1.9958	-1.9479	-2.7146	-1.9979	-2.45	-2.5312	-1.8771	-2.5625	-2.2812	109.989	211.773	149.271	-30.507	9.375	247.314	178.470	218.674	-29.132	121.855	204.805	228.872	192.140	113.026	190.617	-80.796	0.00024653	0.0027624	0.00036258	910.95	8.6965e-06	3.2122e-05	1231.5	259.97	8.285e-06	1.7835e-05	454.08	174.46	87.423	32.942	1.7892e-05	74.142	0.02578	0.037036	0.010472	1124.5	0.00039118	0.00042169	1400	328.69	0.0004015	0.00042474	597.95	213.58	163.15	47.724	0.00041624	92.796	222.625	76.758	-34.278	-73.613	53.461	13.909	-73.742	-69.541	-12.589	64.591	-69.767	-65.002	-65.382	-61.002	-83.008	-61.500	-8191	255	
1645.575	1	1	0	0	0.14244	0.11844	0.20687	0.10777	0.046449	0.46663	0.31907	0.23212	0.20419	0.1351	0.27092	0.16618	0.20989	0.29158	0.037538	0.33794	-1.5083	-2.6937	-1.8604	-2.3708	-2.4521	-1.7021	-2.75	-2.3083	-1.8896	-2.7979	-2.0771	-2.3312	-2.6646	-1.9333	-2.4396	-2.4062	43.892	238.776	-34.042	215.772	172.746	78.083	197.626	224.952	-77.490	228.767	191.583	217.405	41.241	242.953	-54.955	180.294	0.00030962	0.0015946	0.00091536	901.42	2.2773e-05	1.7016e-05	1219.8	260.41	3.3501e-05	1.7236e-05	452.87	174.87	88.632	33.174	9.0857e-06	75.087	0.027375	0.039218	0.011051	1130.9	0.00040933	0.00043675	1396.2	330.74	0.00041216	0.00044007	602.99	215.45	165.35	48.24	0.00042682	93.648	235.267	99.566	195.055	-73.639	-6.018	87.319	-73.160	-69.161	68.070	35.542	-69.398	-65.062	-65.462	-60.835	241.402	-60.738	-8191	255	
1645.671	1	1	0	0	0.089732	0.069818	0.32718	0.15835	0.17928	0.17132	0.21281	0.12541	0.064519	0.29547	0.22765	0.26621	0.21752	0.15736	0.033598	0.37359	-1.4875	-2.75	-1.8583	-2.2146	-2.7687	-1.6063	-2.5729	-2.5479	-1.8271	-2.6708	-2.0563	-2.1375	-2.7812	-1.9042	-2.3354	-2.5333	160.757	208.773	238.660	266.094	203.740	-38.092	241.780	246.962	-10.358	221.998	220.831	242.787	-3.327	222.809	6.809	176.240	0.00027	0.0023253	0.0003959	900.69	2.5534e-05	2.5822e-05	1208.6	258.79	5.2014e-06	2.5021e-05	452.01	175.12	87.942	33.452	1.0953e-05	76.092	0.027786	0.039604	0.01108	1126.3	0.00040726	0.0004323	1385.5	326.75	0.00039748	0.00041961	590.69	213.42	160.37	47.475	0.00039697	93.37	80.892	267.077	173.505	-73.096	-42.628	-33.001	-73.301	-68.994	264.200	50.195	-69.186	-65.069	-65.354	-60.000	70.042	-60.752	-8191	255	
1645.767	1	1	0	0	0.15705	0.17567	0.22763	0.055139	0.16782	0.069521	0.306	0.21431	0.11608	0.087541	0.17085	0.38815	0.20239	0.092317	0.11841	0.14855	-1.4438	-2.5604	-2.1437	-2.0458	-2.5563	-1.9292	-2.4104	-2.6083	-1.7979	-2.4917	-2.1917	-1.9833	-2.4875	-1.9604	-2.1188	-2.6875	116.881	248.569	123.319	-72.805	-25.059	107.634	-73.057	156.679	-59.642	137.406	261.836	192.108	193.573	-84.904	270.297	193.097	9.1023e-05	0.0011806	0.00086168	885.77	1.6368e-05	4.7503e-06	1192.7	256.74	1.1693e-05	4.1167e-05	454.02	177.09	89.589	34.227	3.4292e-05	76.846	0.025954	0.037095	0.010433	1099.6	0.00038846	0.00041352	1366	323.93	0.00038713	0.00040965	588.92	214.67	160.87	47.786	0.00039276	93.886	151.480	72.783	18.005	-73.531	112.157	64.458	-73.438	-69.399	-1.368	-18.723	-68.984	-65.226	-65.739	-61.037	82.780	-61.009	-8191	255	
1645.863	1	1	0	0	0.14552	0.04051	0.071943	0.18953	0.1655	0.35058	0.10044	0.052855	0.15507	0.11621	0.27454	0.087829	0.15913	0.36489	0.2677	0.22198	-1.2958	-2.4271	-1.9521	-1.6896	-2.6854	-1.7604	-2.3979	-2.7167	-1.7083	-2.3583	-2.4604	-1.9958	-2.6583	-1.9604	-1.9333	-2.7521	48.348	71.947	49.642	241.081	11.906	134.269	-66.770	143.069	243.449	45.304	187.009	244.979	236.631	-72.867	-65.238	198.449	0.0003429	0.0015991	0.00066	871.46	2.7966e-05	1.7252e-05	1167.8	254.49	2.3751e-05	1.2645e-05	445.11	178.16	90.666	34.15	3.0372e-05	77.132	0.025674	0.036627	0.01028	1081.2	0.0003846	0.00041229	1338.8	321.47	0.0003899	0.00041488	587.96	216.41	163.87	48.502	0.00041283	95.28	192.119	2.349	250.144	-73.256	-13.998	93.789	-73.283	-69.057	146.546	77.583	-69.417	-65.175	-65.304	-60.987	106.237	-61.142	-8191	255	
1645.982	1	1	0	0	0.14793	0.072116	0.1554	0.079211	0.14125	0.24118	0.24885	0.2213	0.19966	0.21386	0.30479	0.19137	0.13165	0.25388	0.10681	0.25733	-1.3937	-2.3396	-2.3438	-1.8917	-2.625	-1.9958	-2.2958	-2.8271	-1.9062	-2.5062	-2.4188	-1.7333	-2.6521	-2.2771	-1.9229	-2.8896	50.114	250.174	247.706	234.822	114.175	-20.666	219.704	221.456	203.342	36.017	90.388	164.413	-49.139	179.350	-63.859	127.544	9.0436e-05	0.0020159	0.00071892	866.61	3.7053e-06	2.8588e-05	1173.8	253.35	8.7674e-06	1.7562e-05	444.77	176.07	89.404	33.814	3.1085e-05	76.034	0.027082	0.039211	0.010986	1097.3	0.00041323	0.0004435	1359.1	325.99	0.00041458	0.00044149	595.85	218.11	166.62	49.204	0.0004273	95.85	125.121	-77.291	200.074	-73.284	260.784	63.286	-72.946	-69.328	125.022	6.877	-69.858	-65.047	-65.257	-60.957	163.423	-61.058	-8191	255	
1646.078	1	1	0	0	0.23681	0.033559	0.097434	0.21408	0.15303	0.19209	0.23002	0.11101	0.24539	0.08311	0.22331	0.22336	0.064468	0.17379	0.097987	0.23568	-1.4229	-2.3896	-2.5687	-1.7875	-2.5396	-2.1354	-2.1333	-2.7083	-1.8458	-2.2729	-2.7396	-1.8208	-2.5667	-2.375	-1.8792	-2.7687	8.362	261.299	74.476	187.638	10.243	127.757	130.228	90.631	17.478	116.907	-78.691	223.954	168.006	55.298	31.078	-43.577	0.00012756	0.00057668	0.00083267	871.31	1.0972e-05	2.3633e-05	1181.6	254.29	7.4799e-06	1.6278e-05	448.83	175.94	89.062	33.695	2.6475e-05	76.541	0.028122	0.040745	0.011378	1110.4	0.00042592	0.00045519	1375	330.22	0.000433	0.00046343	608.42	220.69	171.86	50.226	0.00045612	97.685	-84.279	36.632	34.219	-73.358	105.863	236.372	-72.875	-69.148	79.617	179.869	-69.239	-65.294	-64.731	-60.818	-66.458	-61.044	-8191	255	
1646.174	1	1	0	0	0.091247	0.18993	0.11467	0.29062	0.13221	0.25366	0.26547	0.013094	0.30148	0.056833	0.28401	0.17382	0.1735	0.12141	0.085877	0.15796	-1.4396	-2.0917	-2.6146	-1.7437	-2.3875	-2.3208	-1.9875	-2.8854	-2.0021	-2.2167	-2.6854	-1.7938	-2.475	-2.4417	-1.7938	-2.7729	140.581	263.220	204.955	209.355	185.415	-17.181	239.051	174.747	99.630	186.801	268.191	140.023	23.384	208.630	146.480	201.992	7.9576e-05	0.0034405	0.0011424	878.31	5.5211e-06	9.9729e-07	1191.3	255.4	7.1882e-06	1.9678e-05	453.03	176.08	89.676	34.162	1.4388e-05	77.085	0.029747	0.042823	0.011984	1133.3	0.00044359	0.00047095	1394.1	334.48	0.00044507	0.00047187	614.09	221.46	172.26	50.446	0.00045557	97.877	-25.417	196.894	41.183	-72.822	135.929	128.941	-73.140	-68.757	172.982	197.897	-69.421	-65.119	-64.564	-60.666	198.229	-60.974	-8191	255	
1646.270	1	1	0	0	0.30662	0.10148	0.05793	0.2431	0.20024	0.18285	0.23373	0.24973	0.051883	0.2218	0.094349	0.11017	0.070969	0.14279	0.12372	0.26634	-1.625	-1.9396	-2.8104	-1.8958	-2.4	-2.5917	-2.0167	-2.6375	-1.9083	-1.7875	-2.6979	-1.8771	-2.5583	-2.5792	-1.825	-2.6958	-32.293	250.274	201.325	121.366	103.983	18.173	248.113	209.785	100.444	-57.149	220.077	-39.180	-2.193	-64.332	-85.785	173.115	0.00034382	0.0011132	0.00042522	875.72	9.754e-06	2.8566e-05	1192.1	255.98	8.3218e-06	1.6236e-05	445.7	173.45	88.788	33.816	1.6323e-05	76.448	0.029732	0.042839	0.012025	1134.6	0.00044476	0.00047486	1396.8	334.99	0.00043857	0.00046601	608.5	218.95	169.15	49.556	0.00043931	95.764	224.960	104.108	51.568	-72.920	106.434	-19.117	-73.013	-68.854	-4.030	5.444	-69.179	-65.454	-65.936	-61.389	112.672	-61.227	-8191	255	
1646.366	1	1	0	0	0.20794	0.24781	0.10723	0.14822	0.15181	0.24723	0.14079	0.11284	0.088143	0.15516	0.026541	0.21936	0.28036	0.16962	0.26985	0.25919	-1.8667	-1.95	-2.6667	-2.0833	-2.1229	-2.5333	-1.9104	-2.65	-2.0479	-1.9333	-2.65	-1.9375	-2.3833	-2.6292	-1.7729	-2.6	148.411	260.045	198.915	205.836	83.112	244.851	-22.935	252.704	60.301	30.381	216.681	111.649	232.425	-37.096	38.199	249.935	8.8153e-05	0.0024613	0.00055549	879.87	9.7875e-06	2.4187e-05	1188.1	256.15	8.2656e-06	1.3418e-05	446	174.17	87.479	33.332	2.2464e-05	76.703	0.02822	0.040244	0.011261	1111	0.00041254	0.00043824	1371.1	326.55	0.00040864	0.00043094	592.89	214.66	163.12	48.398	0.00041621	94.707	208.653	-42.542	-23.765	-73.590	-78.740	146.124	-73.475	-69.267	-80.744	85.648	-69.529	-65.257	-65.785	-61.316	85.621	-60.736	-8191	255	
1646.487	1	1	0	0	0.22266	0.18137	0.10421	0.22341	0.10816	0.074325	0.21976	0.07854	0.278	0.23855	0.2861	0.1735	0.13582	0.099773	0.040498	0.10183	-2.1167	-1.9125	-2.8375	-2.1937	-2.2396	-2.6979	-1.9875	-2.3625	-2.2979	-1.7938	-2.8125	-2.0396	-2.1417	-2.7875	-1.8937	-2.6104	202.537	201.717	132.118	203.456	114.219	270.013	247.779	166.216	222.735	18.767	114.831	195.607	-34.844	-82.592	-60.178	-32.441	0.0004342	0.00045096	0.00019926	876.98	2.5982e-05	1.3782e-05	1193.7	255.51	9.6048e-06	2.9123e-05	451.45	175.55	89.987	33.624	2.4915e-05	76.561	0.027233	0.038935	0.010866	1103.3	0.00040181	0.0004294	1365.2	325.09	0.00040409	0.00042973	597.15	216.78	166.85	49.121	0.00043561	96.343	205.132	221.761	-40.037	-73.713	243.839	100.559	-73.631	-69.105	116.093	74.336	-69.649	-65.457	-64.694	-61.581	89.635	-60.671	-8191	255	
1646.583	1	1	0	0	0.18742	0.15392	0.074697	0.29528	0.14797	0.1675	0.25673	0.37362	0.17247	0.074043	0.13748	0.076624	0.079095	0.24448	0.17578	0.1652	-2.2333	-1.8042	-2.7292	-2.2854	-1.9125	-2.7167	-2.0833	-2.3875	-2.4938	-1.7812	-2.7708	-2.1542	-2.1	-2.8021	-1.8021	-2.2646	147.552	145.151	266.006	199.787	264.833	89.238	207.802	214.571	-8.212	69.591	247.403	-9.109	252.866	231.831	67.353	176.592	0.00036666	0.003711	0.00049822	886.28	2.0036e-05	8.5647e-06	1206.4	261.04	2.7925e-05	3.4565e-05	457.09	179.69	90.94	33.942	1.7522e-05	77.293	0.028995	0.041816	0.011845	1139.8	0.00044506	0.00047785	1409.8	340.65	0.00045545	0.00048493	623.67	225.73	176.26	50.981	0.00046804	98.482	181.111	-61.737	-27.508	-73.379	60.305	163.440	-73.248	-69.204	67.151	49.990	-69.179	-65.274	-64.443	-60.906	46.997	-61.108	-8191	255	
1646.679	1	1	0	0	0.17566	0.15359	0.17117	0.30008	0.046505	0.25683	0.25209	0.054131	0.38824	0.28883	0.20598	0.1491	0.13141	0.11036	0.098125	0.14982	-2.2958	-1.8042	-2.4625	-2.3396	-1.9312	-2.7583	-2.175	-2.3563	-2.575	-1.8937	-2.6833	-2.6271	-1.9104	-2.5625	-1.9125	-2.2896	240.412	-60.404	51.006	238.466	185.209	80.423	235.578	160.679	-70.443	86.593	234.175	230.878	249.826	12.593	19.904	-0.262	0.00033507	0.0030989	0.00036461	879.87	3.9675e-05	1.1896e-05	1189.5	255.97	2.5228e-05	2.1941e-05	445.16	177.05	87.735	33.938	2.7104e-05	76.724	0.030652	0.043539	0.012159	1145.7	0.00045103	0.00047756	1399.1	336.68	0.00044313	0.00046763	608.05	220.32	169.33	49.821	0.00044067	96.45	57.420	226.124	4.833	-73.905	-27.747	164.965	-73.428	-69.051	44.759	33.256	-69.274	-65.255	-65.796	-60.990	211.870	-61.101	-8191	255	
1646.774	1	1	0	0	0.12351	0.1155	0.11998	0.026475	0.20799	0.10396	0.27444	0.11338	0.24509	0.31594	0.074497	0.35953	0.3988	0.12109	0.25343	0.056087	-2.4146	-1.6917	-2.4875	-2.5708	-1.8563	-2.7	-2.1312	-2.1562	-2.6875	-1.9167	-2.5333	-2.7083	-1.8521	-2.7562	-2.2438	-2.2521	230.070	179.067	21.519	-35.292	165.109	157.486	216.557	-51.331	73.467	96.929	124.819	259.653	-62.422	218.980	129.969	81.056	0.00025327	0.0011092	0.00099408	858.47	3.3289e-05	5.1022e-05	1172.6	251.82	3.4993e-07	3.7192e-05	442.64	175.38	86.568	33.794	3.928e-05	77.477	0.028877	0.041035	0.011535	1105.3	0.00042618	0.00045272	1363.1	325.92	0.00042148	0.00044597	594.47	217.28	165.59	49.298	0.00042712	96.338	258.972	224.662	-25.699	-73.612	24.847	-6.996	-72.963	-69.205	13.025	-14.885	-69.258	-65.549	-65.453	-60.764	105.665	-61.197	-8191	255	
1646.870	1	1	0	0	0.2298	0.085514	0.12503	0.10244	0.30929	0.071957	0.1645	0.15261	0.15393	0.26788	0.098389	0.12218	0.23024	0.042568	0.11363	0.17583	-2.3	-1.6437	-2.2583	-2.5917	-1.7563	-2.7771	-2.5271	-2.0333	-2.7708	-2.0417	-2.3625	-2.7188	-1.9292	-2.8167	-2.4125	-1.9479	197.654	202.038	-40.354	-18.432	17.719	268.629	180.561	29.921	14.894	93.958	57.545	239.378	214.405	-21.718	59.392	166.762	0.00027632	0.0022182	0.00016285	846.7	2.9282e-05	1.118e-05	1146.4	248.15	1.4888e-05	1.8221e-05	441.02	177.74	89.542	34.765	8.8256e-06	79.073	0.027919	0.039824	0.011115	1082.5	0.00040976	0.00043588	1330.6	319.15	0.00040373	0.00042837	586.87	216.35	163.21	49.428	0.00041091	96.763	215.465	17.116	-7.737	-73.563	253.679	131.147	-73.248	-69.219	233.915	53.721	-69.410	-65.802	-65.789	-61.226	-49.864	-61.439	-8191	255	
1646.966	1	1	0	0	0.04598	0.26024	0.045844	0.27177	0.2239	0.28191	0.029227	0.31209	0.31846	0.22809	0.14018	0.12446	0.27527	0.25222	0.30329	0.15451	-2.6083	-1.8667	-2.1208	-2.6792	-1.9104	-2.6833	-2.5542	-1.9479	-2.65	-2.0812	-2.1792	-2.7438	-1.9813	-2.4562	-2.3979	-1.8208	-3.755	-13.838	-16.889	206.535	189.920	149.203	-28.953	218.073	166.698	30.572	200.184	255.814	203.747	232.904	160.950	216.657	0.00019006	0.0014767	9.2839e-05	842.8	1.3374e-05	2.9553e-05	1146.3	249.15	6.17e-06	1.7313e-05	439.97	177.31	89.228	35.253	2.488e-05	79.125	0.026798	0.03824	0.010725	1068	0.00040019	0.00042308	1321.7	317.1	0.00039726	0.00042122	584.27	216.46	162.43	49.606	0.00041041	97.493	236.337	140.863	212.309	-73.937	109.996	175.261	-73.454	-69.117	93.955	-46.182	-69.778	-65.649	-65.279	-61.275	-21.133	-60.662	-8191	255	
1647.062	1	1	0	0	0.086205	0.12545	0.15649	0.14583	0.16377	0.1182	0.4605	0.36246	0.066241	0.15317	0.24655	0.37262	0.141	0.25906	0.045875	0.29063	-2.0958	-1.9667	-1.9771	-2.8354	-1.9271	-2.4104	-2.8167	-1.7854	-2.6813	-2.0312	-2.1292	-2.8521	-2.1854	-2.6021	-2.4833	-2.0312	176.463	164.338	8.119	271.964	-19.764	184.876	240.639	163.536	-7.370	92.428	-66.773	241.193	23.987	-27.537	202.069	221.109	0.00040457	0.0024992	0.0003204	857.77	1.4957e-05	1.1351e-05	1175.8	253.67	1.3143e-05	3.9665e-05	450.53	178.37	90.175	34.446	2.0194e-05	78.268	0.02718	0.039033	0.010906	1091.6	0.00041034	0.00043852	1361.4	327.34	0.00041799	0.00044236	601.23	219.55	167.81	50.176	0.00043472	97.615	226.278	-35.195	25.735	-74.040	-9.392	7.944	-73.771	-69.712	87.136	-8.841	-69.505	-65.307	-66.072	-60.922	-61.133	-61.137	-8191	255	
1647.158	1	1	0	0	0.095934	0.21897	0.082368	0.54202	0.13652	0.20193	0.17166	0.18889	0.081902	0.12548	0.25264	0.17548	0.14789	0.11229	0.17418	0.21871	-2.2938	-2.1312	-1.9333	-2.8229	-1.7854	-2.325	-2.8208	-1.9729	-2.5854	-2.2021	-2.0875	-2.7625	-2.0354	-2.2562	-2.7125	-2.1083	36.929	120.437	173.812	250.937	41.787	40.116	271.723	190.363	62.155	153.716	208.999	223.513	176.777	259.280	159.501	212.506	0.00018281	0.0031345	0.0010486	880.51	1.6237e-05	4.1979e-05	1207.2	261.17	1.761e-05	3.4877e-05	458.28	176.91	89.265	33.636	1.076e-05	76.881	0.029009	0.041794	0.011856	1138	0.00044344	0.00047544	1413.8	341.21	0.00045368	0.00048086	624.31	224.09	175.16	50.967	0.00047069	98.208	257.615	140.708	76.189	-74.106	134.782	147.487	-73.315	-68.933	36.383	203.101	-69.691	-64.767	-65.523	-60.313	15.255	-61.023	-8191	255	
1647.255	1	1	0	0	0.27127	0.19339	0.018895	0.14783	0.28633	0.15156	0.25216	0.28479	0.30545	0.13909	0.094672	0.13654	0.088679	0.045332	0.28461	0.23817	-2.2979	-2.3854	-1.7896	-2.8438	-2.0583	-2.2396	-2.8167	-1.9646	-2.5979	-2.3333	-1.9188	-2.7146	-1.9604	-1.9542	-2.4417	-2.2271	10.727	50.259	168.725	11.444	149.663	82.440	224.716	209.354	36.342	233.417	-24.688	257.941	-19.276	186.634	87.036	217.623	0.00034976	0.00087901	0.0010886	906.46	2.9031e-05	3.1655e-05	1223.8	262.93	8.3254e-06	1.1004e-05	453.51	176.15	88.59	33.867	1.4614e-05	76.445	0.030807	0.044248	0.01234	1170.3	0.00045384	0.00048188	1427.8	340.69	0.0004389	0.00045901	611.95	218.7	167.07	49.151	0.0004222	95.094	212.595	-47.043	-46.747	-73.560	90.098	150.463	-73.293	-69.556	165.264	13.397	-69.088	-65.095	-65.767	-60.897	46.150	-61.577	-8191	255	
1647.375	1	1	0	0	0.11271	0.20183	0.2866	0.096797	0.25995	0.2867	0.21076	0.012332	0.16506	0.16405	0.086361	0.11917	0.29511	0.18377	0.35806	0.18476	-2.0667	-2.4208	-1.7229	-2.4729	-1.9937	-1.8792	-2.8167	-1.9125	-2.2396	-2.6229	-2.0146	-2.6063	-2.1771	-2.0333	-2.6167	-1.9042	204.364	-81.705	114.891	173.407	142.439	193.504	-82.610	-20.863	-31.041	200.455	160.295	265.413	87.584	-82.991	47.653	-58.828	0.00026234	0.0024059	0.00039878	891.62	1.5289e-05	3.037e-05	1196.5	255.4	1.1169e-05	1.8243e-05	447.4	175.61	87.861	34.285	1.3375e-05	78.293	0.027242	0.038541	0.010726	1106.8	0.00039106	0.00041342	1361.4	320.44	0.00038147	0.00040268	579.47	212.06	157.18	47.705	0.00037962	94.259	222.373	18.291	-82.917	-73.651	189.308	181.398	-73.171	-69.271	-26.843	27.482	-69.771	-65.157	-65.922	-60.903	-31.222	-61.693	-8191	255	
1647.471	1	1	0	0	0.080523	0.070978	0.020879	0.29514	0.090008	0.1332	0.081348	0.20084	0.30412	0.19406	0.17301	0.25126	0.12969	0.26068	0.13986	0.052447	-1.9333	-2.4229	-1.8	-2.6333	-2.1813	-1.9771	-2.8604	-1.8833	-2.2938	-2.7375	-1.8208	-2.5708	-2.3083	-1.9562	-2.5875	-2.0187	257.523	14.566	17.132	224.041	27.656	109.147	-47.526	218.546	38.480	227.253	108.765	176.690	151.953	181.119	-28.409	-71.908	0.00020626	0.0019375	0.00053636	859	5.3035e-06	2.5365e-05	1167.8	251.14	1.9658e-05	2.8479e-05	441.63	175.57	88.108	34.57	1.8894e-05	79.215	0.024789	0.035438	0.0099304	1066.1	0.00037294	0.00039823	1329.1	315.42	0.0003815	0.00041	579.51	214.05	160.03	48.902	0.00039947	96.506	175.714	6.587	-39.035	-74.118	59.940	-41.626	-73.558	-69.585	62.305	35.836	-69.436	-65.690	-66.025	-61.689	9.088	-61.747	-8191	255	
1647.567	1	1	0	0	0.14549	0.079964	0.14573	0.23084	0.16265	0.091773	0.24765	0.10028	0.22072	0.091274	0.18355	0.32389	0.065031	0.41056	0.18524	0.16504	-1.5521	-2.5458	-1.8729	-2.725	-2.375	-1.7542	-2.8521	-2.2062	-1.975	-2.7083	-2.0396	-2.4667	-2.5771	-1.8167	-2.5875	-2.1729	-27.123	219.583	1.211	-50.758	224.812	17.159	240.790	222.532	242.809	-60.860	178.994	261.915	-65.010	205.891	182.051	198.026	0.00020858	0.0010623	0.00026002	842.86	7.413e-06	2.8303e-06	1141.2	245.11	2.4471e-05	9.6335e-06	431.39	176.21	87.102	34.911	1.1943e-05	79.395	0.026196	0.037459	0.010459	1062.3	0.00038898	0.00041288	1314.2	311.26	0.00038284	0.00040511	570.36	212.6	157.89	48.378	0.00038256	95.64	207.085	-53.281	-40.815	-73.860	22.597	230.889	-74.026	-69.959	161.864	-4.056	-70.183	-65.861	-65.729	-61.262	-8.321	-62.164	-8191	255	
1647.664	1	1	0	0	0.13478	0.34067	0.15203	0.12639	0.088611	0.23007	0.30342	0.23656	0.13365	0.13561	0.32022	0.35648	0.10108	0.21248	0.41168	0.17226	-1.4188	-2.5917	-1.6938	-2.3354	-2.4062	-1.8333	-2.7271	-2.2146	-1.8771	-2.6333	-2.0021	-2.4167	-2.5104	-1.9854	-2.5792	-2.375	-4.791	29.318	141.131	21.450	186.378	193.755	222.441	243.535	-40.947	198.149	243.504	219.215	142.508	222.065	122.129	227.641	0.00040528	0.0031629	0.00090923	831.56	8.9311e-06	2.5193e-05	1134.2	243.36	1.2697e-05	2.2453e-05	432.33	176.96	88.937	34.85	7.4754e-06	79.882	0.025086	0.035576	0.0099764	1038.6	0.00036794	0.00039087	1291.9	306.12	0.00036267	0.00038371	560.88	210.8	154.35	47.897	0.00037043	95.097	162.920	175.336	34.759	-74.381	188.503	-23.793	-73.998	-69.840	94.204	-24.733	-70.226	-65.830	-65.760	-61.644	21.838	-61.660	-8191	255	
1647.760	1	1	0	0	0.066403	0.21425	0.1584	0.048063	0.068699	0.025389	0.20748	0.2336	0.07679	0.11787	0.066421	0.2576	0.20604	0.17446	0.26997	0.097404	-1.3875	-2.6333	-1.7104	-2.3146	-2.4375	-1.7896	-2.6542	-2.2875	-1.8937	-2.5854	-2.0687	-2.1583	-2.6333	-1.9375	-2.4437	-2.6479	-73.370	83.002	134.225	33.578	-23.151	5.468	240.116	240.443	234.747	-57.807	172.009	257.846	207.477	178.958	105.080	174.125	9.5924e-05	0.0010891	0.00096651	836.81	3.047e-05	2.3111e-05	1146.2	245.72	1.79e-05	1.7063e-05	441.35	176.96	88.212	35.045	1.4384e-05	79.393	0.024346	0.034856	0.0097461	1038.5	0.0003617	0.00038645	1300	308.88	0.00036854	0.00039428	572.68	213.88	158.83	48.778	0.00039614	96.373	8.846	145.733	-71.835	-74.316	117.969	270.875	-73.954	-70.344	28.215	91.781	-70.542	-65.604	-66.249	-61.850	163.506	-61.655	-8191	255	
1647.856	1	1	0	0	0.041924	0.07239	0.23815	0.13057	0.06927	0.38286	0.21527	0.38394	0.27376	0.21013	0.4046	0.19064	0.25493	0.26735	0.24157	0.1229	-1.4042	-2.6146	-1.9479	-2.2333	-2.7167	-1.8354	-2.5896	-2.4208	-1.8958	-2.6312	-2.0604	-2.0958	-2.6417	-1.9229	-2.3708	-2.6667	259.338	231.110	202.460	-84.714	168.706	-50.154	252.640	150.937	158.778	143.884	144.288	-58.825	249.797	190.497	-70.279	117.791	0.00048801	0.0022712	0.00078325	849.55	2.0443e-05	7.4573e-06	1160.2	249.45	2.4422e-05	5.9349e-06	441.71	177.25	88.691	34.706	8.4896e-06	78.941	0.026128	0.037223	0.010442	1068.7	0.00038585	0.00040809	1326.2	315.75	0.00038542	0.00040837	579.15	214.73	159.68	48.514	0.00039176	95.55	210.470	-9.818	162.356	-74.104	73.926	160.215	-73.848	-69.610	21.693	53.874	-69.779	-66.159	-66.486	-61.856	122.931	-62.238	-8191	255	
1647.975	1	1	0	0	0.077051	0.25569	0.090574	0.26119	0.23969	0.067121	0.26459	0.14207	0.1928	0.11564	0.25532	0.1592	0.16594	0.13395	0.18724	0.096328	-1.2396	-2.5271	-2.0479	-1.9813	-2.6146	-2.0521	-2.5292	-2.6437	-1.7625	-2.7188	-2.4417	-1.9354	-2.7687	-1.9833	-2.0708	-2.6792	-4.536	-55.967	76.693	230.441	225.265	31.620	173.025	236.494	222.200	-14.547	179.241	270.114	170.347	149.352	187.079	-17.127	0.00039679	0.0014751	0.0007617	845.24	1.4782e-05	3.6715e-05	1146.9	244.81	5.6542e-06	4.4637e-05	435.81	176.55	87.505	34.428	1.2341e-05	78.428	0.025331	0.035844	0.010059	1051.1	0.00037176	0.00039467	1307.5	309.49	0.00037122	0.0003952	569.16	212.24	157.61	48.117	0.00038788	95.321	220.172	-10.589	-24.908	-74.195	174.334	112.433	-73.900	-69.926	-24.471	-25.857	-70.610	-65.963	-66.690	-61.840	-46.304	-61.963	-8191	255	
1648.071	1	1	0	0	0.10455	0.031935	0.24334	0.34962	0.40621	0.035395	0.22422	0.069921	0.33211	0.18746	0.2396	0.12469	0.22787	0.19143	0.083479	0.12438	-1.3937	-2.4208	-2.225	-1.9375	-2.5375	-1.7646	-2.0375	-2.7521	-1.7104	-2.5854	-2.5604	-1.7812	-2.6146	-2.2354	-1.9062	-2.7521	175.805	23.733	77.163	176.959	132.365	-43.266	233.853	161.904	218.909	-69.909	247.552	125.159	194.901	-87.035	56.411	-77.390	0.00011997	0.0033435	0.00080816	839.13	9.5925e-06	1.6594e-05	1143.8	245.14	4.8356e-06	3.3109e-05	437.49	176.98	88.889	34.916	3.4135e-05	79.65	0.025675	0.03661	0.01029	1056.2	0.00038271	0.00040904	1310.7	312.45	0.00038093	0.00040401	572.42	213.79	157.8	48.326	0.00038433	95.743	-13.152	192.433	-76.777	-74.222	115.068	-18.034	-74.053	-69.899	37.765	87.817	-69.668	-66.038	-66.689	-61.738	207.636	-61.902	-8191	255	
1648.167	1	1	0	0	0.25668	0.15625	0.059832	0.17943	0.25249	0.14262	0.41584	0.19692	0.1322	0.20202	0.25984	0.27353	0.13494	0.15429	0.05308	0.07121	-1.3396	-2.2667	-2.2479	-1.9146	-2.6583	-2.1875	-2.1104	-2.6417	-1.7437	-2.4375	-2.6104	-1.6604	-2.5542	-2.3542	-1.8021	-2.8542	230.888	249.831	196.011	-87.572	260.018	61.313	228.136	222.527	116.789	62.593	209.397	188.792	-69.683	201.470	185.655	182.905	0.00022641	0.0040472	0.00051237	826.68	9.5471e-06	2.8995e-05	1125.7	244.78	1.9494e-05	1.9575e-05	438.31	177.56	89.456	35.573	1.7164e-05	80.444	0.025135	0.035871	0.010063	1040.5	0.00037645	0.00040137	1296.9	308.36	0.00037411	0.00039663	568.55	213.92	156.96	48.394	0.00037439	96.074	175.433	216.639	32.022	-73.993	142.431	-10.596	-73.738	-69.707	159.238	-79.086	-69.898	-66.283	-66.601	-61.918	119.294	-62.032	-8191	255	
1648.263	1	1	0	0	0.21879	0.069624	0.18077	0.23267	0.15899	0.2107	0.15451	0.27409	0.17833	0.092686	0.38597	0.17909	0.080798	0.26905	0.14685	0.20099	-1.5833	-2.1542	-2.6125	-1.975	-2.4958	-2.2	-2.1333	-2.8542	-1.8271	-2.1333	-2.7271	-1.8417	-2.5542	-2.2625	-1.6854	-2.8688	39.683	170.326	175.295	14.261	127.233	86.540	193.048	-9.707	52.750	118.955	253.681	-30.170	147.178	-2.963	234.369	213.406	0.00018654	0.00077737	0.00025718	833.47	1.352e-05	2.9984e-05	1128.1	244.39	2.4247e-05	3.3458e-05	437.53	180.38	89.791	35.439	1.939e-05	80.45	0.024289	0.034797	0.0097777	1029.9	0.00036095	0.00038336	1283.5	305.99	0.00035751	0.00038018	563.63	212.94	155.46	47.935	0.00036648	95.635	184.206	228.450	-32.784	-74.398	149.130	110.064	-73.653	-69.932	-80.450	51.194	-69.917	-66.000	-66.416	-61.953	107.989	-61.789	-8191	255	
1648.359	1	1	0	0	0.064462	0.09092	0.077445	0.29645	0.20898	0.19126	0.30422	0.16282	0.13651	0.21251	0.17126	0.16833	0.24052	0.17849	0.025713	0.33782	-1.4167	-2.0833	-2.6229	-1.8521	-2.3583	-2.4813	-1.9604	-2.6813	-1.9604	-1.9937	-2.8417	-1.7833	-2.4042	-2.5042	-1.8687	-2.7583	58.564	237.417	238.269	-59.520	224.264	-12.491	-65.112	243.995	141.735	262.201	265.648	5.565	-39.917	-11.217	190.551	175.141	0.00030191	0.0016692	0.00029609	836.65	1.0669e-05	1.5052e-05	1140.9	245.72	3.5356e-06	4.3206e-06	441.03	178.57	88.505	34.589	1.7467e-05	78.602	0.024	0.034258	0.0096503	1029.7	0.00036208	0.00038882	1294.5	309.94	0.00037636	0.00040354	577.12	215.63	160.92	48.848	0.00040099	96.377	259.933	-35.877	50.378	-74.239	70.468	-6.052	-73.595	-69.957	237.187	162.446	-69.798	-66.134	-65.444	-62.055	56.247	-61.999	-8191	255	
1648.456	1	1	0	0	0.096396	0.27126	0.18158	0.047671	0.094886	0.13613	0.28663	0.2999	0.0034852	0.13689	0.13606	0.087357	0.29859	0.041274	0.068827	0.33008	-1.6771	-2.1021	-2.5979	-1.7146	-2.3125	-2.4813	-1.8917	-2.7687	-2.3875	-1.8396	-2.7521	-1.975	-2.0208	-2.5833	-1.7292	-2.7438	97.660	29.848	240.942	30.481	146.949	253.854	218.535	-59.167	26.658	-87.128	-82.456	186.137	225.040	269.027	31.847	240.123	0.0001818	0.0010826	0.00020204	847.65	3.3212e-05	1.0974e-05	1159	249.84	1.0588e-05	3.1339e-05	441.31	176.39	88.965	34.012	4.5053e-06	77.615	0.026564	0.038152	0.010765	1075.8	0.00040213	0.00042998	1340.1	321.01	0.00040618	0.00043151	590.05	217.25	164.16	48.991	0.00041571	95.978	203.013	-21.678	228.268	-74.190	0.801	168.518	-74.020	-70.112	124.058	73.460	-70.238	-66.247	-66.491	-62.047	232.875	-62.089	-8191	255	
1648.576	1	1	0	0	0.36407	0.16877	0.191	0.19925	0.22748	0.2039	0.32346	0.14474	0.31749	0.15175	0.075355	0.21783	0.37026	0.19577	0.38284	0.25379	-1.8333	-1.9062	-2.5875	-2.0938	-1.9083	-2.6729	-1.9917	-2.4	-2.3646	-1.8667	-2.8125	-2.0667	-2.1	-2.7167	-1.7437	-2.6146	116.908	32.466	65.749	-78.939	65.627	240.253	-50.370	271.446	262.074	117.469	204.281	-51.970	178.140	215.017	-53.586	179.444	0.00026412	0.0016054	0.001341	863.39	1.0439e-05	1.6634e-05	1175.3	253.08	9.1037e-06	4.0882e-05	448	177.13	88.503	33.901	3.5279e-05	78.005	0.027283	0.039034	0.010957	1093.3	0.00040513	0.00043243	1357.5	323.4	0.00040465	0.00042916	591.48	216.56	163.68	48.635	0.00041039	95.926	216.354	-10.387	66.527	-74.203	270.531	173.788	-74.219	-69.943	9.525	60.520	-70.462	-66.089	-65.390	-61.518	-77.644	-61.867	-8191	255	
#DATA ENDS
