BOXY.EXE: ISS Imagent and Oximeter Data Acquisition Program Version 0.80
Ascii Record File

#ACQ INFORMATION
2  Detector Channels 
16  External MUX Channels 
1  Auxiliary Channels 
5000  Waveform (CCF) Frequency (Hz)
1  Waveforms Skipped 
30  Waveforms Averaged 
1  Cycles Averaged 
16  Acquisitions per Waveform 
10.0806  Updata Rate (Hz) 

#FILE INFORMATION
TRUE -- External MUX Channel results are PARSED.
FALSE -- AC DC and Phase are NOT grouped.
TRUE -- Companion Program Settings File CREATED.
FALSE -- AC data not excluded
FALSE -- DC data not excluded
FALSE -- Phase data not excluded
FALSE -- Auxillary Chn. data not excluded
Tab delimiters

#CALIBRATION STATE
TRUE -- Waveform Calibration Values APPLIED.


#AUX CALIBRATION VALUES
Val Type	aux-1	

Term	1.0000e+00	
Factor	0.0000e+00	


#WF CALIBRATION VALUES
A = Detector Channel
Val Type	A-AC1	A-AC2	A-AC3	A-AC4	A-AC5	A-AC6	A-AC7	A-AC8	A-AC9	A-AC10	A-AC11	A-AC12	A-AC13	A-AC14	A-AC15	A-AC16	A-DC1	A-DC2	A-DC3	A-DC4	A-DC5	A-DC6	A-DC7	A-DC8	A-DC9	A-DC10	A-DC11	A-DC12	A-DC13	A-DC14	A-DC15	A-DC16	A-Ph1	A-Ph2	A-Ph3	A-Ph4	A-Ph5	A-Ph6	A-Ph7	A-Ph8	A-Ph9	A-Ph10	A-Ph11	A-Ph12	A-Ph13	A-Ph14	A-Ph15	A-Ph16	

Term	0.00000e+00	0.00000e+00	0.00000e+00	0.00000e+00	0.00000e+00	0.00000e+00	0.00000e+00	0.00000e+00	0.00000e+00	0.00000e+00	0.00000e+00	0.00000e+00	0.00000e+00	0.00000e+00	0.00000e+00	0.00000e+00	0.00000e+00	0.00000e+00	0.00000e+00	0.00000e+00	0.00000e+00	0.00000e+00	0.00000e+00	0.00000e+00	0.00000e+00	0.00000e+00	0.00000e+00	0.00000e+00	0.00000e+00	0.00000e+00	0.00000e+00	0.00000e+00	0.00000e+00	0.00000e+00	0.00000e+00	0.00000e+00	0.00000e+00	0.00000e+00	0.00000e+00	0.00000e+00	0.00000e+00	0.00000e+00	0.00000e+00	0.00000e+00	0.00000e+00	0.00000e+00	0.00000e+00	0.00000e+00	
Factor	1.00000e+00	1.00000e+00	1.00000e+00	1.00000e+00	1.00000e+00	1.00000e+00	1.00000e+00	1.00000e+00	1.00000e+00	1.00000e+00	1.00000e+00	1.00000e+00	1.00000e+00	1.00000e+00	1.00000e+00	1.00000e+00	1.00000e+00	1.00000e+00	1.00000e+00	1.00000e+00	1.00000e+00	1.00000e+00	1.00000e+00	1.00000e+00	1.00000e+00	1.00000e+00	1.00000e+00	1.00000e+00	1.00000e+00	1.00000e+00	1.00000e+00	1.00000e+00	X	X	X	X	X	X	X	X	X	X	X	X	X	X	X	X	

B = Detector Channel
Val Type	B-AC1	B-AC2	B-AC3	B-AC4	B-AC5	B-AC6	B-AC7	B-AC8	B-AC9	B-AC10	B-AC11	B-AC12	B-AC13	B-AC14	B-AC15	B-AC16	B-DC1	B-DC2	B-DC3	B-DC4	B-DC5	B-DC6	B-DC7	B-DC8	B-DC9	B-DC10	B-DC11	B-DC12	B-DC13	B-DC14	B-DC15	B-DC16	B-Ph1	B-Ph2	B-Ph3	B-Ph4	B-Ph5	B-Ph6	B-Ph7	B-Ph8	B-Ph9	B-Ph10	B-Ph11	B-Ph12	B-Ph13	B-Ph14	B-Ph15	B-Ph16	

Term	0.00000e+00	0.00000e+00	0.00000e+00	0.00000e+00	0.00000e+00	0.00000e+00	0.00000e+00	0.00000e+00	0.00000e+00	0.00000e+00	0.00000e+00	0.00000e+00	0.00000e+00	0.00000e+00	0.00000e+00	0.00000e+00	0.00000e+00	0.00000e+00	0.00000e+00	0.00000e+00	0.00000e+00	0.00000e+00	0.00000e+00	0.00000e+00	0.00000e+00	0.00000e+00	0.00000e+00	0.00000e+00	0.00000e+00	0.00000e+00	0.00000e+00	0.00000e+00	-8.82690e+01	-1.42635e+02	-1.12445e+02	-1.85681e+02	-9.37183e+01	-9.60728e+01	-1.59412e+02	-1.62015e+02	-5.53355e+01	-8.96295e+01	-1.71360e+02	-1.68986e+02	-1.86800e+02	-1.77307e+02	-7.11187e+01	-1.50303e+02	
Factor	1.93732e-05	8.66701e-05	2.97722e-05	2.31231e-01	9.98951e-07	9.22260e-07	1.78994e-01	5.92349e-02	7.36728e-07	8.49038e-07	9.96673e-02	3.36700e-02	2.71889e-02	1.07909e-02	1.08767e-06	1.56297e-02	4.79868e-07	4.86975e-07	1.35843e-07	1.08386e-01	5.37163e-09	5.38858e-09	8.09458e-02	2.81770e-02	5.43546e-09	5.43929e-09	4.42687e-02	1.50702e-02	1.26050e-02	4.94180e-03	5.45345e-09	6.78308e-03	X	X	X	X	X	X	X	X	X	X	X	X	X	X	X	X	



#DISTANCE SETTINGS
A = Detector Channel
A-1	A-2	A-3	A-4	A-5	A-6	A-7	A-8	A-9	A-10	A-11	A-12	A-13	A-14	A-15	A-16	

2.5000e+00	3.0000e+00	2.5000e+00	3.0000e+00	2.0000e+00	3.0000e+00	1.5000e+00	3.0000e+00	3.0000e+00	3.0000e+00	3.0000e+00	3.0000e+00	3.0000e+00	3.0000e+00	1.5000e+00	3.0000e+00	

B = Detector Channel
B-1	B-2	B-3	B-4	B-5	B-6	B-7	B-8	B-9	B-10	B-11	B-12	B-13	B-14	B-15	B-16	

1.0000e+01	1.0000e+01	1.0000e+01	1.4400e+00	1.0000e+01	1.0000e+01	1.5100e+00	1.9400e+00	1.0000e+01	1.0000e+01	1.9900e+00	2.4900e+00	2.4100e+00	2.9000e+00	1.0000e+01	2.9800e+00	




#DATA BEGINS
time	group	step	mark	flag	A-AC1	A-AC2	A-AC3	A-AC4	A-AC5	A-AC6	A-AC7	A-AC8	A-AC9	A-AC10	A-AC11	A-AC12	A-AC13	A-AC14	A-AC15	A-AC16	A-DC1	A-DC2	A-DC3	A-DC4	A-DC5	A-DC6	A-DC7	A-DC8	A-DC9	A-DC10	A-DC11	A-DC12	A-DC13	A-DC14	A-DC15	A-DC16	A-Ph1	A-Ph2	A-Ph3	A-Ph4	A-Ph5	A-Ph6	A-Ph7	A-Ph8	A-Ph9	A-Ph10	A-Ph11	A-Ph12	A-Ph13	A-Ph14	A-Ph15	A-Ph16	B-AC1	B-AC2	B-AC3	B-AC4	B-AC5	B-AC6	B-AC7	B-AC8	B-AC9	B-AC10	B-AC11	B-AC12	B-AC13	B-AC14	B-AC15	B-AC16	B-DC1	B-DC2	B-DC3	B-DC4	B-DC5	B-DC6	B-DC7	B-DC8	B-DC9	B-DC10	B-DC11	B-DC12	B-DC13	B-DC14	B-DC15	B-DC16	B-Ph1	B-Ph2	B-Ph3	B-Ph4	B-Ph5	B-Ph6	B-Ph7	B-Ph8	B-Ph9	B-Ph10	B-Ph11	B-Ph12	B-Ph13	B-Ph14	B-Ph15	B-Ph16	aux-1	digaux	

2691.420	1	1	0	512	0.18006	0.1419	0.086547	0.15783	0.052127	0.10944	0.15667	0.13419	0.13647	0.10005	0.20698	0.30553	0.17877	0.27925	0.28047	0.39666	-3.7833	-4.0208	-3.5333	-4.3292	-3.7021	-3.8	-4.4812	-3.5687	-4.1312	-3.9062	-3.625	-4.3146	-3.9437	-3.8417	-4.2812	-3.6271	54.496	143.266	348.129	121.928	85.328	330.957	291.109	287.760	291.249	101.206	330.062	298.219	203.307	352.800	59.894	303.434	0.00033903	0.00073291	0.00018751	835.78	7.1454e-06	3.5855e-06	1299.9	295.62	2.1634e-06	1.2778e-06	555.2	207.72	104.32	46.821	1.1375e-05	102.76	0.00021085	0.00020183	5.7531e-05	728.36	2.299e-06	2.2894e-06	1124.6	258.14	2.3074e-06	2.2899e-06	464.84	174.91	90.059	39.369	2.3326e-06	83.463	175.985	65.815	111.150	5.946	142.079	130.469	5.834	11.017	180.833	348.043	9.654	14.470	15.614	19.820	177.083	17.724	-8191	255	
2691.516	1	1	0	0	0.10361	0.1456	0.099168	0.18964	0.24413	0.13765	0.10579	0.14765	0.2311	0.22649	0.11974	0.058416	0.2812	0.11013	0.22715	0.18278	-3.6188	-3.9417	-3.4479	-4.2833	-3.75	-3.6188	-4.4396	-3.7292	-3.8417	-4.0979	-3.5979	-4.2729	-3.8042	-3.7167	-4.3604	-3.5938	-6.102	334.377	189.162	296.841	16.641	239.210	126.869	132.334	246.854	118.367	258.156	99.905	316.781	341.425	326.975	258.148	0.00034626	0.00096793	0.00022001	833.79	5.3163e-06	4.1032e-06	1308.5	300.9	1.5305e-06	4.7314e-06	556.87	209.04	105.01	46.652	6.5393e-06	102.53	0.00021197	0.00020397	5.5252e-05	728.14	2.1385e-06	2.0972e-06	1128.6	259.86	2.0644e-06	2.028e-06	464.78	174.62	89.975	39.111	2.0935e-06	82.809	178.700	58.345	94.037	5.477	154.117	74.752	5.542	10.475	137.978	139.005	9.740	14.281	15.340	19.977	163.126	17.575	-8191	255	
2691.635	1	1	0	0	0.17919	0.060771	0.04802	0.37858	0.096608	0.086133	0.21071	0.12154	0.32645	0.15946	0.094223	0.21494	0.09926	0.2616	0.12538	0.18943	-3.4542	-4.1125	-3.3729	-4.1896	-3.7667	-3.5312	-4.5771	-3.8354	-3.8271	-4.125	-3.5187	-4.2021	-3.9604	-3.5812	-4.3104	-3.7854	23.814	328.923	231.255	344.460	58.560	278.543	-3.568	49.607	332.669	99.591	33.493	268.765	53.894	321.267	293.406	220.743	0.00041108	0.00053006	0.00020746	833.69	6.3879e-06	1.9251e-06	1288.4	295.39	5.24e-06	2.4513e-06	553.99	206.43	104.19	45.936	6.421e-06	101.06	0.0001951	0.00018694	5.2457e-05	723.61	2.1038e-06	2.0993e-06	1118.3	257.07	2.1727e-06	2.2151e-06	460.84	172.67	89.419	38.988	2.4381e-06	82.286	178.019	91.085	83.464	5.510	132.430	148.579	5.292	10.529	117.720	233.680	9.592	14.569	15.074	19.457	160.862	17.731	-8191	255	
2691.708	1	1	0	0	0.19356	0.14644	0.041118	0.17768	0.055348	0.1941	0.26885	0.21323	0.1448	0.041466	0.29764	0.22627	0.09451	0.11768	0.096817	0.30166	-3.4792	-4.2375	-3.3812	-4.1271	-3.9271	-3.4917	-4.2979	-3.7896	-3.7021	-4.1958	-3.5083	-4.1375	-4.1542	-3.5792	-4.0792	-3.8604	-0.668	80.309	171.475	298.988	335.843	264.657	285.237	117.990	344.798	-4.906	281.647	240.392	132.615	113.725	17.431	193.663	0.00048181	0.00031606	0.00012628	831.41	1.0894e-05	3.9167e-06	1280	290.92	1.9674e-06	1.4029e-06	543.96	202.01	102.03	45.615	5.0298e-06	100.82	0.00024034	0.0002419	6.8514e-05	733.36	2.8149e-06	2.861e-06	1119.2	256.94	2.9507e-06	2.9407e-06	458.28	171.88	89.247	38.975	2.943e-06	82.569	179.853	159.686	139.058	5.612	85.900	123.971	5.303	10.158	230.675	54.224	9.704	14.522	15.260	19.189	335.891	17.626	-8191	255	
2691.827	1	1	0	0	0.15267	0.15843	0.12997	0.22988	0.053244	0.053025	0.16892	0.070124	0.09573	0.1183	0.23788	0.2178	0.051647	0.093039	0.24985	0.14936	-3.1896	-4.3833	-3.3729	-3.9021	-4.1062	-3.5938	-4.4479	-3.8812	-3.6604	-4.3313	-3.5479	-4.0771	-4.0875	-3.6396	-4.1854	-3.9521	72.481	283.357	171.442	273.328	208.709	92.740	303.523	275.927	199.780	284.938	346.735	6.314	271.624	349.000	117.744	322.044	0.00038527	0.00046795	0.000259	814.63	2.7728e-06	2.0275e-06	1281.4	294.6	1.6609e-06	3.3143e-06	547.88	205.84	103.11	46.081	4.6424e-06	101.58	0.00026615	0.00026108	7.2209e-05	727.67	2.7514e-06	2.7133e-06	1121.6	257.67	2.6508e-06	2.6459e-06	461.58	174.7	89.93	39.309	2.7553e-06	83.353	172.561	33.523	55.370	5.561	120.371	180.889	5.197	10.092	178.123	122.553	8.770	13.900	14.853	18.869	124.013	17.052	-8191	255	
2691.923	1	1	0	0	0.24274	0.28131	0.13824	0.16388	0.045335	0.1739	0.30958	0.10307	0.10179	0.18373	0.19237	0.21723	0.14875	0.25266	0.055474	0.15602	-3.0979	-4.1583	-3.5396	-3.9167	-4.1396	-3.5271	-4.3958	-4.2083	-3.55	-4.3125	-3.8812	-3.9646	-4.3333	-3.5542	-4.15	-3.9896	280.262	286.055	80.309	54.232	103.156	223.682	252.405	171.708	278.003	190.502	345.781	314.206	348.683	280.744	187.495	304.039	0.00037613	0.00079727	0.00015816	821.27	1.1865e-05	6.0696e-06	1270.6	289.87	5.1036e-06	4.0966e-06	541.87	202.05	100.68	45.382	4.2838e-06	99.633	0.00026294	0.00026165	7.4305e-05	731.47	2.9673e-06	2.9214e-06	1117.9	256.5	3.0051e-06	3.0558e-06	456.74	172.04	89.378	39.15	3.2705e-06	82.281	182.639	95.743	72.111	5.205	80.295	186.891	4.938	9.836	310.677	193.380	8.960	13.665	14.691	18.789	111.043	16.951	-8191	255	
2692.020	1	1	0	0	0.15761	0.12426	0.037976	0.22121	0.037007	0.14836	0.31731	0.14562	0.27514	0.093345	0.18771	0.23015	0.12836	0.067824	0.077816	0.18118	-2.9	-4.2646	-3.5625	-3.8125	-4.2167	-3.5333	-4.2542	-4.2792	-3.5812	-4.2312	-3.7313	-3.6479	-4.3667	-3.6063	-3.9583	-4.0917	115.025	133.143	41.385	331.012	197.674	136.297	299.254	268.656	248.630	242.989	-5.412	47.632	-5.599	181.011	225.851	44.314	0.00037266	0.00096718	0.00018536	809.07	2.7059e-06	3.2225e-06	1253.7	282.38	8.9366e-06	3.5428e-06	529.35	201.23	100.16	44.97	1.2952e-05	99.216	0.00030827	0.00030906	8.7728e-05	734.07	3.5441e-06	3.5761e-06	1112.4	255.08	3.6658e-06	3.6326e-06	456.63	171.71	89.665	38.97	3.4836e-06	82.039	183.549	78.317	117.089	4.768	177.327	169.609	4.668	9.941	101.599	112.221	9.112	13.824	14.913	18.354	109.233	16.896	-8191	255	
2692.116	1	1	0	0	0.065555	0.18753	0.27392	0.080277	0.19672	0.29862	0.31663	0.025537	0.19982	0.25317	0.048705	0.20034	0.14088	0.074951	0.051951	0.035549	-3.1104	-4.2812	-3.7313	-3.7021	-4.2417	-3.4771	-4.0563	-4.4479	-3.5083	-4.1729	-4.0292	-3.7646	-4.3521	-3.6688	-4.0583	-4.2833	329.461	57.166	-3.925	260.915	207.471	41.307	324.138	110.335	209.499	95.243	185.719	15.590	290.128	97.664	124.216	112.840	0.00040481	0.00058378	0.00017825	803.77	4.8936e-06	1.1018e-05	1258	285.18	1.8763e-06	2.0359e-06	535.93	201.08	101.24	45.179	4.3159e-06	100.54	0.00030901	0.00030512	8.4092e-05	725.87	3.2757e-06	3.2616e-06	1111.5	254.26	3.2841e-06	3.2871e-06	457.25	172.23	89.754	39.163	3.3337e-06	82.865	193.416	340.929	63.346	5.016	155.894	153.463	5.011	9.637	187.384	73.323	8.790	13.484	14.754	18.182	50.623	16.571	-8191	255	
2692.236	1	1	0	0	0.031749	0.21189	0.26454	0.099139	0.10947	0.17075	0.029779	0.11198	0.33839	0.043235	0.10176	0.096396	0.079575	0.21945	0.29489	0.066492	-2.9708	-4.1542	-3.8083	-3.575	-4.1813	-3.5979	-3.8812	-4.3083	-3.375	-3.975	-4.1667	-3.7562	-4.3771	-3.8667	-3.7438	-4.4917	349.725	107.614	98.471	143.170	264.974	16.716	143.061	319.868	184.144	66.398	104.592	309.246	232.464	337.690	205.003	230.345	0.00036653	0.0011396	0.00033909	818.02	7.4632e-06	1.1677e-05	1271.7	288.47	7.1471e-06	1.0261e-05	537.82	202.94	101.49	45.509	5.3614e-06	100.61	0.00030177	0.00029764	8.2897e-05	733.24	3.2519e-06	3.2621e-06	1121.2	256.88	3.2767e-06	3.2839e-06	460.46	173.79	90.383	39.57	3.4655e-06	83.43	187.609	92.052	117.922	4.519	63.275	162.091	4.929	9.742	59.035	140.718	8.768	13.478	14.432	18.142	188.314	17.163	-8191	255	
2692.308	1	1	0	0	0.19341	0.079327	0.064685	0.10615	0.11164	0.068859	0.18827	0.17013	0.11398	0.19387	0.2431	0.26235	0.16199	0.24571	0.10435	0.18092	-2.975	-3.8729	-3.9479	-3.4313	-4.3708	-3.7875	-3.7875	-4.3583	-3.5062	-3.9729	-4.2312	-3.5938	-4.275	-3.7021	-3.575	-4.375	153.671	130.375	314.472	156.605	229.696	201.035	259.958	293.100	256.491	110.412	257.713	331.350	145.259	54.070	282.172	328.752	0.00041829	0.00031833	0.0001886	809.78	2.8334e-06	1.0874e-05	1257.7	282.86	5.494e-06	9.1176e-06	527.48	197.14	99.003	44.291	1.1704e-05	97.531	0.00032797	0.00032629	9.3031e-05	737.03	3.6938e-06	3.7572e-06	1112.5	255.44	3.7837e-06	3.7502e-06	454.31	170.03	89.01	38.692	3.5689e-06	81.076	200.681	60.485	73.800	4.767	177.162	126.570	4.548	9.588	198.032	109.847	8.781	13.616	14.688	18.239	164.843	16.844	-8191	255	
2692.404	1	1	0	0	0.092063	0.22961	0.20185	0.050623	0.2294	0.087076	0.33645	0.13243	0.082232	0.1568	0.061827	0.1673	0.044896	0.10584	0.22329	0.13425	-3.25	-3.9792	-4.1854	-3.4833	-4.2375	-3.975	-3.675	-4.3688	-3.6562	-3.9521	-4.2479	-3.5812	-4.3375	-3.9708	-3.4	-4.3688	153.979	326.277	48.362	41.725	123.482	199.485	-2.752	27.995	346.296	257.744	94.905	307.078	301.254	262.193	197.745	54.766	0.00026315	0.00090136	0.00034253	795.73	6.2917e-06	4.1092e-06	1243.8	280.36	3.2221e-06	6.7765e-06	530.88	197.88	99.041	44.021	4.5969e-06	97.451	0.00031872	0.00031332	8.6137e-05	721.27	3.3209e-06	3.2805e-06	1101.3	251.57	3.3094e-06	3.2932e-06	451.14	169.37	88.403	38.329	3.3455e-06	80.749	158.713	48.174	53.396	4.722	91.188	226.264	4.842	9.400	117.390	154.941	8.932	13.248	14.642	18.483	217.209	16.761	-8191	255	
2692.525	1	1	0	0	0.15739	0.11363	0.068318	0.068503	0.22458	0.062653	0.084424	0.061677	0.15814	0.091282	0.38291	0.13357	0.099583	0.26271	0.15445	0.14492	-3.3354	-3.8125	-4.0646	-3.5083	-4.2125	-4.0125	-3.6833	-4.2771	-3.6437	-3.7917	-4.325	-3.5812	-4.1312	-4.0312	-3.4104	-4.475	117.056	-0.939	9.757	320.042	45.160	111.747	20.549	337.692	92.121	216.254	299.394	295.879	315.457	333.959	72.140	266.471	0.00048121	0.001071	0.00024836	796.58	5.3004e-06	2.394e-06	1237.5	278.18	2.8681e-06	4.1989e-06	527.38	197.35	98.975	44.387	9.9128e-06	98.471	0.00030539	0.00031132	8.7375e-05	722.83	3.5266e-06	3.5398e-06	1101.7	251.86	3.5867e-06	3.5871e-06	452.12	169.71	88.663	38.727	3.6025e-06	81.617	187.433	111.442	125.355	4.393	243.469	312.596	4.656	9.776	78.102	198.552	8.776	13.646	14.595	18.016	155.230	17.227	-8191	255	
2692.619	1	1	0	0	0.1219	0.21044	0.19263	0.20856	0.25668	0.14571	0.25026	0.14947	0.21429	0.20376	0.063211	0.29149	0.24092	0.034759	0.15634	0.13768	-3.3708	-3.5333	-4.3479	-3.5542	-4.0917	-4.0083	-3.525	-4.2729	-3.7979	-3.7354	-4.3542	-3.6271	-3.9396	-4.2104	-3.4437	-4.4354	260.216	112.873	203.660	210.176	22.749	61.363	273.453	283.939	252.304	338.508	38.312	308.092	323.035	283.285	263.000	295.212	0.00037872	0.00040037	0.00024941	795.9	3.3894e-06	5.6566e-06	1236.6	281.59	4.0974e-06	9.6412e-06	525.25	196.49	98.135	43.964	1.1087e-05	96.559	0.00032686	0.00032419	8.92e-05	726.8	3.5905e-06	3.6787e-06	1106.3	253.9	3.7842e-06	3.8089e-06	452.3	169.73	88.533	38.454	3.7686e-06	80.351	158.527	186.718	156.260	4.894	49.174	189.234	4.771	9.875	233.025	179.761	8.846	13.688	14.370	18.535	69.606	16.840	-8191	255	
2692.715	1	1	0	0	0.1919	0.092014	0.024748	0.28675	0.15875	0.13722	0.26279	0.19905	0.11529	0.30625	0.098229	0.15848	0.11485	0.19081	0.31232	0.221	-3.4271	-3.7146	-4.3958	-3.6312	-3.7958	-4.1896	-3.4708	-4.2229	-3.9417	-3.6437	-4.4271	-3.6813	-3.8646	-4.3354	-3.4979	-4.0604	66.094	147.330	74.130	350.622	243.751	56.506	19.635	281.237	76.189	68.576	344.396	207.217	232.755	295.910	339.984	204.621	0.0004279	0.0011804	9.6147e-05	787.52	7.5266e-06	2.3337e-06	1234.9	277.79	7.2122e-06	3.0491e-06	524.18	195.84	98.279	44.567	1.5504e-05	97.256	0.00032574	0.00031881	8.5521e-05	713.33	3.2938e-06	3.258e-06	1088.8	248.69	3.2006e-06	3.1596e-06	446.84	167.4	87.653	38.33	3.1442e-06	80.507	187.338	86.470	112.436	5.151	109.016	297.896	4.818	9.866	105.128	245.221	8.779	13.417	14.820	18.439	123.254	16.932	-8191	255	
2692.811	1	1	0	0	0.26643	0.18471	0.10733	0.03619	0.15967	0.059882	0.087496	0.18941	0.10047	0.12504	0.061119	0.25709	0.06339	0.12675	0.15572	0.31311	-3.5604	-3.5146	-4.325	-3.9396	-3.7042	-4.2812	-3.5812	-4.1646	-4.175	-3.3521	-4.4417	-3.7583	-3.6958	-4.3396	-3.4979	-4.2375	45.025	129.886	46.382	85.502	162.244	47.470	133.764	196.733	33.995	194.173	315.111	329.827	138.198	215.043	185.209	320.907	0.00039657	0.00050241	0.00022635	791.01	4.4761e-06	1.0435e-05	1243.9	282.5	2.2037e-06	1.2941e-05	528.51	196.87	99.149	44.466	2.8457e-06	97.23	0.00028866	0.00028229	7.8988e-05	714	3.2047e-06	3.2466e-06	1096.6	252.24	3.3892e-06	3.472e-06	452.42	169.75	89.052	38.814	3.8411e-06	81.037	170.806	29.236	87.231	4.137	108.411	148.120	5.015	9.595	53.229	141.875	8.887	13.328	14.980	18.472	222.227	17.043	-8191	255	
2692.908	1	1	0	0	0.12996	0.068514	0.18895	0.21047	0.15835	0.104	0.26751	0.159	0.32571	0.11665	0.2019	0.033156	0.17965	0.057233	0.28129	0.14431	-3.6542	-3.3396	-4.375	-3.7417	-3.7625	-4.2667	-3.6333	-4.0292	-4.1354	-3.5979	-4.4354	-3.975	-3.7646	-4.4062	-3.8208	-4.2312	286.385	339.799	324.251	-7.449	173.794	98.671	308.423	293.492	11.579	139.535	325.466	14.236	337.073	71.271	36.404	309.596	0.00038169	0.00050601	0.00033156	791.47	2.4567e-06	2.8784e-06	1230.1	277.78	4.9196e-06	4.3201e-06	526.44	196.49	98.659	43.934	1.0035e-05	95.873	0.000369	0.0003688	0.00010573	737.32	4.2986e-06	4.3623e-06	1107.4	255.18	4.3846e-06	4.3738e-06	456.15	171.1	90.196	39.046	4.2749e-06	81.344	204.586	48.662	32.037	4.141	69.916	169.882	4.756	9.563	220.769	135.360	9.208	13.513	15.029	18.238	70.314	17.093	-8191	255	
2693.002	1	1	0	0	0.18433	0.014232	0.14983	0.21478	0.15455	0.1343	0.22927	0.22514	0.041765	0.1366	0.1428	0.29879	0.12038	0.2796	0.28688	0.10472	-3.8667	-3.5417	-4.0875	-3.9771	-3.6146	-4.2292	-3.6437	-3.9583	-4.1729	-3.5271	-4.3271	-4.1104	-3.5167	-4.2583	-3.7438	-3.9104	120.690	342.110	336.246	298.300	172.188	177.187	290.116	329.735	6.272	260.494	8.478	304.297	115.606	124.452	10.414	345.943	0.00039509	0.00030543	0.00025296	798.25	8.9431e-06	7.0035e-06	1244.4	280.34	1.5674e-06	2.1306e-06	527.23	195.85	98.368	44.352	1.2243e-05	96.661	0.00037389	0.00037395	0.00010363	738.55	4.1126e-06	4.0797e-06	1109.4	254.99	4.0751e-06	4.0489e-06	455.28	169.89	89.508	39.07	4.0077e-06	80.786	180.360	67.340	124.974	4.422	58.662	111.698	4.655	9.564	272.114	172.572	9.133	13.430	14.962	18.508	105.069	17.134	-8191	255	
2693.098	1	1	0	0	0.023132	0.2337	0.085119	0.10794	0.14556	0.2326	0.17722	0.12219	0.20996	0.1824	0.19644	0.18385	0.30461	0.2632	0.19108	0.20577	-3.8563	-3.5021	-4	-4.1687	-3.6021	-4.3917	-3.9146	-3.7938	-4.2625	-3.3625	-4.2417	-4.2438	-3.5563	-4.3187	-3.7333	-3.5479	77.796	150.932	243.702	279.272	68.579	333.293	238.479	292.771	42.172	99.631	340.451	233.944	325.720	303.841	314.112	203.877	0.00052659	0.00074423	0.00016078	801.19	3.3411e-06	3.9394e-06	1237.7	279.23	3.6377e-06	6.1292e-06	519.73	194.21	98.935	44.474	8.7357e-06	96.284	0.00036028	0.00035903	0.00010039	738.41	3.9881e-06	4.0058e-06	1108	254.01	4.1529e-06	4.1165e-06	453.11	170.11	90.043	39.332	4.3333e-06	80.999	174.917	78.925	157.414	4.493	133.098	62.626	4.401	9.945	155.439	196.711	9.188	13.504	14.767	18.571	144.818	17.263	-8191	255	
2693.196	1	1	0	0	0.097235	0.079085	0.12908	0.20664	0.058565	0.041301	0.1161	0.18205	0.22522	0.21284	0.1875	0.045363	0.14444	0.18802	0.14262	0.095025	-3.8312	-3.4417	-3.9396	-4.1687	-3.5542	-4.1708	-4.0021	-3.6021	-4.1438	-3.5896	-3.9042	-4.3208	-3.4917	-4.2958	-3.9188	-3.6833	85.236	31.381	-6.628	325.355	120.924	235.264	34.139	24.710	93.757	206.994	235.967	275.053	336.251	301.493	218.609	41.295	0.00048432	0.0010904	0.00013408	800.76	3.656e-06	6.3727e-06	1231.7	278.19	3.2728e-06	5.5963e-06	522.88	195.27	98.065	44.849	1.1178e-05	97.151	0.0003889	0.00038703	0.00010698	742.38	4.2233e-06	4.1579e-06	1102.8	253.12	4.0801e-06	4.0222e-06	450.88	169.08	88.688	39.072	3.6777e-06	80.811	178.439	17.394	16.363	4.585	173.573	66.153	4.723	10.172	89.221	143.695	9.135	13.810	14.818	18.424	146.633	17.298	-8191	255	
2693.315	1	1	0	0	0.11824	0.055889	0.26097	0.20145	0.11422	0.0094462	0.093218	0.18995	0.024178	0.12748	0.010725	0.16887	0.11511	0.040544	0.080278	0.29357	-3.7729	-3.4729	-3.8042	-4.3938	-3.3958	-4.1583	-4.0396	-3.5021	-4.2771	-3.6354	-3.6688	-4.4187	-3.6188	-4.2396	-3.9188	-3.6167	54.294	342.784	302.188	316.090	132.563	161.243	245.758	234.579	243.693	279.866	349.139	302.821	96.055	35.745	115.309	311.214	0.00043234	0.00048326	0.00019686	802.4	6.6097e-06	8.8437e-06	1257.5	285.66	2.9644e-06	5.5863e-06	531.23	197.39	99.732	45.218	9.413e-06	97.501	0.00031529	0.0003095	8.5832e-05	727.78	3.304e-06	3.3159e-06	1109.3	254.39	3.4136e-06	3.3933e-06	454.33	169.8	89.253	39.257	3.6118e-06	81.062	156.433	21.398	115.056	4.941	75.900	101.495	5.203	10.395	194.698	70.442	9.340	13.971	14.770	18.948	124.457	17.250	-8191	255	
2693.411	1	1	0	0	0.086269	0.16379	0.17879	0.40466	0.30604	0.23591	0.37379	0.058021	0.24734	0.15198	0.33065	0.34942	0.14485	0.095934	0.0047584	0.13113	-3.8583	-3.6167	-3.5563	-4.2271	-3.3542	-3.9375	-4.2292	-3.5438	-4.4313	-3.9313	-3.7375	-4.3812	-3.5354	-4.0854	-4.0062	-3.7396	92.778	248.326	291.575	341.497	57.577	119.524	283.039	149.117	243.260	322.285	305.979	324.660	-4.118	189.384	87.607	59.845	0.00031995	0.00022367	0.00012038	802.38	5.7482e-06	1.021e-05	1232.8	277.96	2.8389e-06	8.2709e-06	520	192.54	97.63	43.825	1.0097e-05	94.468	0.00032712	0.00032532	9.0739e-05	731.4	3.5333e-06	3.4793e-06	1096.7	250.47	3.5569e-06	3.5531e-06	447.55	166.72	87.713	38.466	3.8314e-06	79.008	187.936	214.466	317.408	4.891	56.154	64.500	4.932	9.963	80.794	165.503	9.101	13.789	15.317	18.749	110.038	17.502	-8191	255	
2693.507	1	1	0	0	0.13853	0.075251	0.17557	0.14241	0.091593	0.12773	0.20363	0.15375	0.12542	0.18297	0.22984	0.075438	0.053041	0.2561	0.12358	0.16947	-3.8396	-3.8479	-3.6875	-4.2146	-3.5875	-3.9542	-4.3438	-3.6146	-4.1167	-3.9437	-3.8438	-4.3604	-3.7313	-3.9917	-4.3792	-3.5187	249.182	65.445	232.475	346.630	145.699	78.221	311.205	231.638	294.342	273.767	311.351	291.862	332.818	69.724	57.897	63.190	0.00034648	0.00035014	0.00011274	794.11	4.3098e-06	6.4588e-06	1221.6	275.68	9.6321e-06	7.7246e-06	512.42	189.39	95.603	43.009	7.9835e-06	94.561	0.00036837	0.00037116	0.00010477	734.19	4.1403e-06	4.1833e-06	1091.1	250.31	4.1135e-06	4.0569e-06	443.74	164.49	86.591	37.947	3.7054e-06	78.443	181.332	246.063	248.764	4.633	230.892	153.836	4.794	9.838	203.706	273.053	9.330	14.409	14.893	18.688	20.762	17.582	-8191	255	
2693.603	1	1	0	0	0.21618	0.17882	0.066734	0.20492	0.20939	0.14303	0.30785	0.18805	0.13329	0.039316	0.16798	0.017653	0.165	0.16303	0.14975	0.39501	-3.7042	-3.9854	-3.4979	-4.2979	-3.7021	-3.7417	-4.3958	-3.5812	-4.1229	-4.0958	-3.6375	-4.3083	-3.7271	-3.9021	-4.3042	-3.6917	224.360	253.869	159.568	265.725	53.135	190.816	256.013	324.152	93.843	270.357	302.437	342.417	210.077	218.359	149.316	237.881	0.0005993	0.0010023	4.9792e-05	789.47	6.9427e-06	8.9104e-06	1236.3	278.32	4.0602e-06	7.7623e-06	523	193.13	97.513	44.001	3.8436e-06	95.837	0.00033494	0.00032907	9.1965e-05	720.38	3.5546e-06	3.6237e-06	1090.1	250.8	3.6801e-06	3.7074e-06	447.74	167.06	87.946	38.573	3.7761e-06	79.5	169.978	323.600	187.541	5.341	43.830	93.438	5.023	10.237	13.740	96.687	9.241	14.062	15.287	18.930	75.700	17.510	-8191	255	
2693.700	1	1	0	0	0.078281	0.038417	0.36818	0.14889	0.1523	0.15763	0.094897	0.22396	0.1805	0.15004	0.19176	0.26213	0.10774	0.12031	0.091826	0.22115	-3.5708	-4.0938	-3.4729	-4.1312	-3.8083	-3.6437	-4.5354	-3.5708	-3.9396	-3.9292	-3.4792	-4.1625	-4.0083	-3.6854	-4.3583	-3.7188	148.507	213.423	264.713	204.249	3.497	294.108	276.989	293.586	149.454	245.909	-6.784	266.390	103.911	144.736	147.279	294.886	0.00041326	0.00067255	8.9875e-05	793.91	5.543e-06	6.7963e-06	1232	279.14	4.0588e-06	4.605e-06	514.62	192.21	96.595	43.603	3.81e-06	94.515	0.00034877	0.0003458	9.7812e-05	730.25	3.9632e-06	3.997e-06	1097.7	251.6	4.078e-06	4.1395e-06	449.24	168.57	89.252	39.1	4.8301e-06	80.065	167.412	78.061	53.849	5.123	170.942	80.613	5.025	10.052	299.316	134.208	9.233	13.714	15.350	19.258	162.990	17.806	-8191	255	
2693.796	1	1	0	0	0.14329	0.09309	0.078154	0.25179	0.17443	0.079613	0.28202	0.060505	0.16312	0.12131	0.41197	0.19739	0.094868	0.01644	0.25275	0.090049	-3.5062	-4.25	-3.4938	-4.2812	-3.8125	-3.5812	-4.4417	-3.7313	-3.8354	-4.1771	-3.5146	-4.0521	-3.9771	-3.5167	-4.45	-3.6979	89.077	255.538	117.829	328.764	192.132	122.555	286.800	122.666	32.311	103.430	305.678	279.982	41.223	157.587	96.779	144.392	0.00026085	0.00048699	0.00041442	788.97	1.297e-05	9.1246e-07	1219.3	271.18	1.468e-06	8.1274e-06	509.71	189.01	95.705	43.036	2.932e-06	93.361	0.00044196	0.00044025	0.00012191	742.56	4.6626e-06	4.6458e-06	1093.4	250.38	4.5734e-06	4.5477e-06	444.36	165.61	87.969	38.356	4.5049e-06	78.517	144.927	269.530	121.668	5.022	187.762	83.538	5.198	10.137	297.174	186.904	9.530	14.003	14.979	19.983	58.331	17.681	-8191	255	
2693.916	1	1	0	0	0.055881	0.033966	0.16904	0.31219	0.027965	0.11103	0.34777	0.13713	0.28287	0.14075	0.038498	0.46611	0.2055	0.20575	0.054336	0.13788	-3.4333	-4.2688	-3.5375	-4.2021	-4.0542	-3.4813	-4.3958	-3.8521	-3.5708	-4.1729	-3.5854	-4.2208	-4.1583	-3.4688	-4.0833	-3.8458	87.753	1.825	190.896	289.182	80.058	216.106	270.111	253.277	63.049	171.860	340.951	222.259	295.704	3.307	90.195	37.282	0.00039435	0.00054746	0.00018112	787.48	1.3655e-05	9.2456e-06	1216.9	274.35	6.8572e-06	7.6242e-06	514	191.51	96.008	42.998	9.3918e-06	92.615	0.00039896	0.00039424	0.00011151	735.62	4.4312e-06	4.4574e-06	1093.1	251.26	4.6116e-06	4.636e-06	448.78	167.69	89.19	38.72	5.18e-06	79.488	164.066	47.491	301.411	5.123	170.562	119.938	5.394	10.127	176.624	102.521	9.602	14.444	15.546	19.122	350.203	17.377	-8191	255	
2694.011	1	1	0	0	0.079833	0.03418	0.18154	0.18535	0.33677	0.18155	0.23293	0.057054	0.21703	0.094919	0.05525	0.34997	0.13009	0.10571	0.11821	0.15283	-3.1542	-4.1854	-3.5458	-4	-4.1396	-3.4542	-4.3896	-3.9562	-3.6417	-4.4	-3.7833	-3.9708	-4.2729	-3.6521	-4.0646	-3.95	121.514	109.959	1.395	316.843	341.255	197.999	311.210	309.545	9.315	177.156	325.019	272.311	301.043	285.578	134.475	282.531	0.00017364	0.00062978	0.00032534	784.62	3.6766e-06	1.1604e-05	1212.2	270.41	2.7754e-06	3.8732e-06	512	191.15	96.191	43.291	6.7804e-06	93.944	0.00046826	0.00047089	0.00013162	746.87	5.2146e-06	5.2482e-06	1105.8	254.34	5.3613e-06	5.4058e-06	454.16	169.52	90.422	39.359	5.3833e-06	80.342	175.402	50.659	50.971	5.625	263.853	114.625	5.568	10.535	242.816	36.152	9.543	14.597	15.420	19.056	156.224	17.757	-8191	255	
2694.107	1	1	0	0	0.064232	0.092584	0.2231	0.20643	0.23572	0.18368	0.26542	0.064687	0.30929	0.085143	0.20417	0.20311	0.20716	0.10014	0.076679	0.23468	-3.2979	-4.2458	-3.7896	-3.8104	-4.1104	-3.4083	-4.1979	-3.9396	-3.4771	-4.3104	-3.65	-3.9188	-4.3479	-3.4792	-4.1375	-4.1042	72.400	104.798	242.091	87.336	22.771	215.992	277.059	154.571	119.488	66.449	57.585	281.763	350.484	50.976	150.046	255.871	0.00038173	0.0004881	6.6372e-05	799.26	1.1598e-05	5.2229e-06	1228.9	273.23	4.3572e-06	7.1658e-06	513.77	192.6	97.08	43.705	3.8947e-06	94.892	0.00047095	0.00046239	0.00012671	753.39	4.9181e-06	4.9741e-06	1109	254.16	4.9641e-06	4.9832e-06	452.57	168.98	89.952	39.295	4.8508e-06	80.139	161.561	84.359	35.519	5.481	127.309	235.534	5.711	10.561	209.946	216.583	9.537	14.578	15.219	19.375	14.720	18.014	-8191	255	
2694.179	1	1	0	0	0.191	0.087267	0.15238	0.02203	0.069791	0.082144	0.082	0.20721	0.10226	0.047185	0.14618	0.15949	0.37461	0.0096598	0.17769	0.2448	-3.0458	-4.2792	-3.6625	-3.7646	-4.2771	-3.5792	-4.0188	-4.2229	-3.4354	-4.2854	-3.8583	-3.7313	-4.2792	-3.6	-3.8104	-4.2583	79.797	240.482	166.638	54.656	342.786	117.971	103.715	282.441	157.791	339.043	16.792	4.352	208.825	319.340	175.841	250.064	0.00041456	0.00092323	0.0002347	795.8	3.3139e-06	9.8183e-06	1228.5	273.43	7.7077e-06	4.7084e-06	509.86	190.88	95.341	42.774	6.9619e-06	92.712	0.00042287	0.00042343	0.00011683	746.13	4.6292e-06	4.6251e-06	1102.1	252.76	4.7379e-06	4.7049e-06	446.42	166.63	88.51	38.583	4.8104e-06	78.606	183.569	156.802	91.205	5.709	173.623	344.398	5.392	10.421	203.407	137.503	9.518	14.182	15.423	19.096	224.976	17.696	-8191	255	
2694.299	1	1	0	0	0.059854	0.19066	0.23439	0.04291	0.086303	0.14519	0.11338	0.32776	0.08664	0.15907	0.23167	0.25057	0.13248	0.14611	0.03258	0.045435	-3.0875	-4.2208	-3.9229	-3.6125	-4.3333	-3.6167	-4.0062	-4.1896	-3.4167	-4.3667	-4.0312	-3.7542	-4.2729	-3.7792	-3.7542	-4.3354	164.205	336.698	232.644	38.960	139.018	124.143	308.322	284.735	192.244	195.483	301.531	272.864	-1.704	201.916	143.300	50.240	0.0003708	0.0010098	0.00012626	789.83	6.9749e-06	8.2086e-06	1212.9	270.43	8.8931e-06	7.5685e-06	502.17	185.09	92.619	41.658	1.2413e-05	90.356	0.00043656	0.00043755	0.00012347	749.69	5.0747e-06	5.2428e-06	1104.4	253.73	5.6425e-06	5.6894e-06	448.41	165.96	89.074	38.486	5.8647e-06	78.035	160.677	88.226	123.400	5.478	148.852	190.039	5.784	10.812	66.416	130.249	9.629	14.710	16.268	19.571	156.954	18.192	-8191	255	
2694.395	1	1	0	0	0.069466	0.15371	0.087027	0.19183	0.29335	0.34453	0.17574	0.13531	0.057999	0.091441	0.21653	0.42544	0.074169	0.13493	0.088475	0.25323	-3.2083	-4.1562	-4.0167	-3.6479	-4.2688	-3.6604	-3.9208	-4.3708	-3.3854	-4.1229	-4.1917	-3.6271	-4.1625	-3.6958	-3.5917	-4.4521	139.803	288.741	255.976	295.974	22.578	118.009	284.085	158.355	130.725	20.720	339.800	24.888	108.513	41.301	155.985	283.455	0.0004657	0.00026362	0.00052938	786.06	8.729e-06	4.544e-06	1212.5	266.58	6.2013e-06	1.0751e-05	502.06	186.34	93.789	41.86	6.7244e-07	91.735	0.00052494	0.00052488	0.00014527	761.38	5.6861e-06	5.6139e-06	1104.6	250.8	5.5081e-06	5.4211e-06	444.87	164.61	87.604	37.999	4.9644e-06	77.852	167.687	53.661	91.174	5.451	154.495	306.861	5.571	10.740	169.802	122.051	9.831	14.587	15.743	19.330	231.742	18.169	-8191	255	
2694.491	1	1	0	0	0.11311	0.12658	0.08602	0.23068	0.030684	0.13713	0.38043	0.28007	0.14157	0.12217	0.3495	0.18631	0.15698	0.20205	0.12859	0.1913	-3.1125	-3.9313	-3.8333	-3.5271	-4.1083	-3.6542	-3.7208	-4.3229	-3.375	-3.9688	-4.3187	-3.4667	-4.3146	-3.9313	-3.625	-4.3583	247.473	213.788	338.439	342.945	105.334	177.753	294.211	43.447	45.979	100.811	287.059	326.252	305.198	266.965	119.102	291.544	0.00033739	0.00092486	0.00011518	786.21	2.1059e-06	6.5805e-06	1214.8	267.91	5.5709e-06	1.2025e-05	501.68	185.75	92.504	41.304	1.5293e-06	90.435	0.00044951	0.00045537	0.00012808	751.66	5.2382e-06	5.3529e-06	1103.2	250.88	5.4357e-06	5.397e-06	445.7	164.58	87.687	37.78	5.1243e-06	77.265	182.354	88.452	213.053	5.434	210.225	230.891	6.047	10.685	332.555	104.095	10.158	15.060	15.883	19.538	333.719	18.693	-8191	255	
2694.588	1	1	0	0	0.14438	0.10921	0.29219	0.072956	0.14145	0.082564	0.15524	0.20552	0.17342	0.1042	0.034698	0.21851	0.30307	0.14792	0.11731	0.09774	-3.1979	-3.7125	-4.1729	-3.4458	-4.1521	-3.9938	-3.6333	-4.2937	-3.4708	-3.8979	-4.2771	-3.5458	-4.1312	-4.0417	-3.5312	-4.3812	10.771	158.547	241.506	263.617	111.306	324.408	33.016	268.214	29.433	122.848	241.681	337.250	179.270	308.588	64.209	327.559	0.00025051	0.00046105	0.00054498	776.69	5.3895e-06	7.4573e-06	1204.2	264.57	4.1634e-06	6.5137e-06	498.53	184.07	92.582	40.757	9.4037e-06	89.744	0.00045414	0.00045753	0.00012843	747.56	5.2556e-06	5.3596e-06	1097.2	250.36	5.7731e-06	5.893e-06	446.19	164.37	88.737	37.937	5.7606e-06	77.518	153.982	-0.679	85.284	5.359	130.215	132.633	5.165	10.662	259.590	149.260	9.757	14.716	16.038	19.898	184.834	18.152	-8191	255	
2694.708	1	1	0	0	0.18371	0.15383	0.11383	0.11952	0.051428	0.1111	0.22665	0.029515	0.11284	0.15317	0.17786	0.2919	0.27238	0.13597	0.14037	0.23429	-3.1917	-3.8083	-4.25	-3.5312	-3.9854	-3.9188	-3.5583	-4.3458	-3.5208	-3.8708	-4.2833	-3.5667	-4.1562	-4.0437	-3.475	-4.2854	282.662	136.059	274.904	298.648	177.947	317.815	306.206	222.440	185.444	48.463	285.648	263.063	311.618	320.196	252.432	284.005	0.00051257	0.00032017	0.00035428	786.09	7.2253e-06	4.5178e-06	1206.6	265.49	2.5418e-06	7.9755e-06	499.34	184.87	92.947	41.448	3.9371e-06	90.799	0.00050959	0.00050429	0.00013911	749.6	5.4084e-06	5.3313e-06	1095.3	248.65	5.2685e-06	5.277e-06	442.57	163.93	87.416	37.725	5.0537e-06	77.541	167.454	133.217	42.292	5.471	223.331	191.164	5.581	10.732	91.911	124.897	9.887	14.743	15.806	19.299	217.480	18.261	-8191	255	
2694.804	1	1	0	0	0.24666	0.034119	0.10692	0.2344	0.12163	0.2962	0.041946	0.1365	0.099617	0.24398	0.27369	0.26237	0.083412	0.098383	0.022921	0.18501	-3.4521	-3.5812	-4.3042	-3.5667	-3.9313	-4.0667	-3.3896	-4.3292	-3.6813	-3.6188	-4.3458	-3.6521	-3.8917	-4.2417	-3.5542	-4.2896	264.171	30.036	63.915	29.443	142.759	65.658	133.082	300.787	-6.151	302.687	279.014	304.420	265.475	251.227	262.103	159.553	0.00055335	0.0013484	0.00014835	790.83	1.2403e-05	6.9744e-06	1212.6	270.43	4.048e-06	5.311e-06	502.16	184.97	93.125	40.947	1.1289e-05	89.603	0.00044405	0.00043475	0.00012058	743.94	4.7471e-06	4.762e-06	1095.2	250.31	5.0147e-06	5.0962e-06	444.22	163.72	87.409	37.525	5.0999e-06	76.567	177.176	146.977	236.911	5.756	96.047	95.774	5.443	10.831	82.562	181.213	10.075	14.534	15.842	19.199	190.418	18.139	-8191	255	
2694.876	1	1	0	0	0.23704	0.29166	0.2161	0.099251	0.07955	0.20772	0.14485	0.15901	0.16193	0.15233	0.082463	0.22032	0.13009	0.096984	0.14672	0.28618	-3.4813	-3.5479	-4.4187	-3.7313	-3.7938	-4.1896	-3.7125	-4.0604	-3.9354	-3.5521	-4.2875	-3.6813	-3.6937	-4.4146	-3.5042	-4.0625	20.242	22.118	294.559	306.244	12.522	282.350	333.236	70.011	132.860	150.966	22.158	344.803	19.100	168.209	29.609	162.896	0.00043668	0.00046664	9.6591e-05	787.82	4.873e-06	4.0942e-06	1204.3	266.25	4.5272e-06	1.8121e-06	497.09	182	92.346	40.671	8.8253e-06	88.183	0.00044992	0.00044301	0.00012279	745.42	4.8077e-06	4.8348e-06	1089.7	247.63	4.9008e-06	4.8911e-06	437.9	160.54	85.982	36.828	4.9314e-06	75.493	148.798	348.648	33.744	5.776	153.541	259.276	5.368	10.919	200.782	244.375	9.591	14.604	15.709	19.743	146.342	18.041	-8191	255	
2694.997	1	1	0	0	0.047613	0.066876	0.0898	0.2076	0.26574	0.053217	0.095725	0.13418	0.050848	0.068454	0.23057	0.11632	0.028838	0.11747	0.073587	0.30798	-3.4833	-3.4667	-4.0875	-3.725	-3.5812	-4.2	-3.5771	-4.0083	-4.0646	-3.5146	-4.5625	-3.8646	-3.6729	-4.3667	-3.4188	-4.1625	157.010	338.524	133.424	20.542	167.692	117.044	159.396	304.369	289.527	231.693	-4.720	289.144	79.783	309.663	226.941	328.661	0.0002544	0.00024019	0.00021647	787.08	5.2788e-06	2.1581e-06	1202.9	266.97	4.1109e-06	9.4146e-07	495.2	181.11	91.596	40.793	1.6552e-06	88.732	0.0004424	0.00043931	0.00012331	740.72	4.7835e-06	4.6851e-06	1083.1	245.56	4.5743e-06	4.4711e-06	433.01	158.59	84.267	36.341	4.3257e-06	74.824	176.827	18.699	211.842	5.288	346.389	286.401	5.687	11.123	213.233	208.477	9.809	14.468	16.035	19.814	124.420	18.026	-8191	255	
2695.091	1	1	0	0	0.2619	0.029406	0.27105	0.14565	0.08322	0.18274	0.42098	0.23216	0.098141	0.25767	0.21882	0.18978	0.1415	0.22238	0.18039	0.19411	-3.7958	-3.3771	-4.1708	-3.7958	-3.625	-4.3063	-3.75	-4.0021	-3.975	-3.4062	-4.2667	-3.8833	-3.5958	-4.2229	-3.5438	-3.7667	139.142	159.170	179.314	22.601	2.382	206.159	338.238	334.554	235.872	214.361	295.642	124.553	304.468	112.845	312.254	302.654	0.00036797	0.00070171	0.00023522	786.51	6.1878e-06	4.6615e-06	1203.4	270.04	3.8203e-06	5.411e-06	500.13	184.78	93.315	41.571	5.2075e-06	90.328	0.00037434	0.000365	9.9944e-05	720.88	3.8152e-06	3.7476e-06	1071.8	242.79	3.7301e-06	3.7464e-06	431.83	159.07	84.093	36.395	3.6531e-06	75.202	191.624	5.954	71.746	5.829	157.508	190.506	5.904	10.896	-4.708	104.940	10.171	14.488	16.001	19.742	131.780	18.083	-8191	255	
2695.187	1	1	0	0	0.0065775	0.24174	0.15182	0.158	0.25297	0.08177	0.31114	0.16957	0.17636	0.06951	0.06427	0.14715	0.098715	0.29299	0.11776	0.15337	-3.7438	-3.3688	-3.9771	-3.8417	-3.5646	-4.2917	-3.7271	-3.8333	-4.0854	-3.5271	-4.2229	-4.0125	-3.5333	-4.3562	-3.9313	-3.7667	209.167	160.788	29.869	124.076	201.426	163.770	293.486	191.903	30.380	-2.133	326.899	-3.369	157.687	330.644	166.285	199.212	0.00034646	7.6962e-05	0.00026811	788.94	4.0561e-06	2.6453e-06	1214.2	269.03	9.3484e-06	1.8465e-06	501.61	183.95	93.159	41.139	7.3343e-06	89.495	0.00032779	0.00032902	9.1188e-05	719.1	3.5892e-06	3.556e-06	1074	241.6	3.4523e-06	3.4048e-06	429.82	158.52	83.298	36.045	3.4949e-06	74.568	203.640	335.723	133.811	5.132	25.635	113.408	5.572	10.807	191.384	233.242	9.944	14.228	16.060	19.247	209.766	18.319	-8191	255	
2695.308	1	1	0	0	0.22512	0.097808	0.23532	0.16807	0.1517	0.069382	0.079332	0.28451	0.046807	0.11865	0.16991	0.32242	0.22265	0.13135	0.082559	0.11945	-3.9729	-3.5396	-4.0563	-4.0479	-3.55	-4.2646	-3.9625	-3.7812	-4.2792	-3.5021	-3.9479	-4.1354	-3.6063	-4.1375	-3.6292	-3.7479	55.402	197.160	149.097	210.880	275.963	142.917	280.085	171.848	239.166	142.077	54.311	316.657	86.275	200.764	217.667	247.543	0.00039936	0.00071562	2.9748e-05	780.47	3.411e-06	3.389e-06	1202.5	264.16	4.302e-06	5.7816e-06	495.46	179.15	89.787	40.193	2.2967e-06	87.322	0.00031639	0.00031872	8.8651e-05	710.17	3.5632e-06	3.5337e-06	1063.8	238.56	3.6476e-06	3.7143e-06	424.25	155.68	81.911	35.478	4.0063e-06	73.431	173.701	249.191	270.214	5.285	314.306	170.174	5.533	10.990	160.542	201.810	9.972	14.730	15.553	19.590	273.459	17.914	-8191	255	
2695.404	1	1	0	0	0.20249	0.19695	0.035163	0.21482	0.11521	0.054494	0.17122	0.17663	0.089562	0.19185	0.15131	0.15849	0.11674	0.3299	0.14655	0.21348	-3.9333	-3.6333	-3.9521	-4.2021	-3.2979	-4.1125	-4.0792	-3.5646	-4.1521	-3.7354	-3.9229	-4.2458	-3.4229	-4.0458	-3.9562	-3.7	153.779	27.909	-3.818	72.234	196.021	254.954	289.625	164.679	265.820	111.308	274.900	304.601	340.691	283.237	177.486	308.322	0.00038082	0.00058815	0.0002345	768.56	9.1665e-06	1.1716e-05	1187.4	261.04	8.795e-06	9.6474e-06	488.75	180.3	90.402	40.567	6.0875e-06	88.811	0.00036766	0.00036517	0.00010134	710.02	3.9934e-06	4.0249e-06	1061.7	236.64	3.9212e-06	3.8626e-06	422.4	155.99	82.026	35.815	3.6983e-06	74.221	199.467	-4.027	25.713	5.640	173.000	150.985	5.302	10.827	108.447	51.856	10.240	14.436	16.078	19.454	196.527	18.384	-8191	255	
2695.476	1	1	0	0	0.032969	0.052487	0.081561	0.14173	0.040301	0.12872	0.15496	0.16768	0.20483	0.15815	0.27863	0.26077	0.145	0.14736	0.1536	0.18399	-3.9688	-3.7417	-3.6208	-4.3021	-3.6104	-4.0979	-4.1	-3.7021	-4.2521	-3.8375	-3.8063	-4.325	-3.4708	-4.1375	-4.1958	-3.5729	336.598	233.262	102.649	276.594	312.777	149.735	188.072	106.561	25.198	131.756	263.517	215.742	311.202	182.540	96.638	316.656	0.00045138	0.00049465	0.00011825	764.63	5.2047e-06	1.425e-06	1190.9	263.65	6.1169e-06	6.1334e-06	493.93	183.82	91.883	41.104	6.3995e-06	90.609	0.0003286	0.00032479	8.9707e-05	699.97	3.5298e-06	3.4896e-06	1057.6	236.48	3.4745e-06	3.4272e-06	424.29	157.95	82.618	36.006	3.513e-06	75.151	192.343	89.440	158.928	5.396	117.918	219.962	5.320	10.644	177.640	154.133	10.039	14.357	15.951	19.626	46.743	18.407	-8191	255	
2695.596	1	1	0	0	0.18022	0.31487	0.22787	0.16193	0.26632	0.026904	0.2868	0.13808	0.076948	0.15433	0.15688	0.08178	0.13693	0.18968	0.032945	0.17687	-3.7708	-3.6792	-3.5187	-4.2875	-3.5104	-3.9813	-4.1708	-3.4313	-4.2958	-3.8542	-3.8104	-4.2542	-3.5625	-3.9854	-4.2979	-3.5812	26.824	350.425	181.901	335.406	195.458	177.191	217.191	294.975	208.155	110.795	352.025	90.469	56.774	342.209	180.509	282.927	0.00027301	0.00065921	0.00020368	772.85	4.1058e-06	6.9194e-07	1200.7	262.98	7.7528e-06	1.0344e-05	496.9	183.12	92.607	41.288	7.7331e-07	91.161	0.00031675	0.0003158	8.9339e-05	702.04	3.4878e-06	3.529e-06	1063.6	236.73	3.6142e-06	3.6538e-06	427.62	158.78	83.334	36.318	3.6356e-06	75.709	182.730	17.265	88.970	5.800	36.671	286.729	5.867	10.858	160.533	141.462	10.170	14.506	16.203	20.040	86.794	17.750	-8191	255	
2695.692	1	1	0	0	0.3026	0.13022	0.11093	0.13071	0.21247	0.11736	0.22246	0.10015	0.177	0.27648	0.32085	0.068275	0.12489	0.051805	0.053967	0.20806	-3.7708	-3.7958	-3.5083	-4.3271	-3.5854	-3.9062	-4.2937	-3.5521	-4.1417	-3.9979	-3.6312	-4.3854	-3.6917	-3.7583	-4.0021	-3.5083	195.067	95.293	269.838	252.675	84.130	236.683	352.665	125.092	18.123	222.119	295.824	290.251	183.790	26.495	102.044	271.183	0.00036977	0.0013609	0.00029709	773.14	6.3562e-06	1.3554e-05	1196	261.2	8.4986e-06	7.1839e-07	493.95	183.12	92.075	41.332	5.7656e-06	90.651	0.00032473	0.00032712	9.1141e-05	702.87	3.5803e-06	3.5787e-06	1058.5	235.28	3.6538e-06	3.6082e-06	423.43	157.75	82.442	36.056	3.4732e-06	75.145	182.590	98.782	331.411	5.728	141.684	39.781	5.819	10.920	152.589	66.748	10.285	14.885	15.745	19.764	114.300	18.632	-8191	255	
2695.789	1	1	0	0	0.10088	0.082624	0.074577	0.11453	0.24111	0.21616	0.053818	0.21164	0.073509	0.11022	0.098619	0.042642	0.15164	0.10643	0.080142	0.4001	-3.5333	-4.1125	-3.5146	-4.4271	-3.6813	-3.6063	-4.2542	-3.5792	-4.0062	-4.1167	-3.3979	-4.4417	-3.7875	-3.7167	-4.2167	-3.6125	214.938	78.185	184.387	105.387	153.691	73.575	302.044	315.898	69.871	150.591	233.374	255.258	277.987	277.177	108.812	288.214	0.00029685	0.00046878	0.00017057	778.13	6.9691e-06	8.0146e-06	1198.7	263.67	3.2234e-06	8.5202e-06	494.03	182.29	91.958	41.359	4.1514e-06	90.576	0.00030405	0.00029672	8.2383e-05	700.18	3.2091e-06	3.2188e-06	1056.9	235.62	3.2454e-06	3.2621e-06	422.63	157.35	82.303	35.918	3.2739e-06	75.072	178.770	7.084	108.556	6.254	85.985	97.322	6.083	11.398	331.486	143.862	10.334	15.185	16.368	20.261	179.015	18.573	-8191	255	
2695.885	1	1	0	0	0.054165	0.27563	0.042147	0.22829	0.077027	0.13375	0.19918	0.13235	0.18895	0.028862	0.086429	0.28316	0.2167	0.41335	0.23406	0.13719	-3.6271	-4.0854	-3.5333	-4.1271	-3.7708	-3.6958	-4.4125	-3.675	-4.0042	-4.2063	-3.6042	-4.2729	-3.7125	-3.4188	-4.3542	-3.7625	301.018	290.996	180.674	110.735	202.525	205.032	219.194	336.415	169.118	182.914	336.412	273.998	315.184	299.718	275.991	322.610	0.00020743	0.00073709	0.00010912	793.45	7.2368e-06	5.3777e-06	1211.3	265.36	2.9525e-06	1.2719e-06	496.82	183.49	92.743	41.322	9.7438e-06	89.144	0.00029257	0.00028371	7.9009e-05	708.78	3.0228e-06	2.9909e-06	1065.6	236.11	2.968e-06	2.9102e-06	420.69	156.34	81.142	35.373	2.7308e-06	72.961	180.310	77.754	35.633	6.638	122.858	193.192	6.450	11.165	36.465	200.594	10.790	15.390	16.877	20.530	163.001	18.883	-8191	255	
2696.004	1	1	0	0	0.39825	0.20247	0.17402	0.061331	0.21399	0.19191	0.32912	0.059233	0.060676	0.058072	0.17802	0.16068	0.21071	0.14929	0.064748	0.13101	-3.4583	-3.95	-3.425	-4.2583	-3.8312	-3.4292	-4.3812	-3.7354	-3.8854	-4.1104	-3.2854	-4.0833	-4.0188	-3.5521	-4.2896	-3.8729	313.362	351.068	7.533	332.663	27.911	182.431	296.619	201.256	29.222	315.344	211.653	12.652	319.236	-2.831	247.129	7.794	0.00035146	0.00056219	0.00023391	818.19	3.3561e-06	3.7622e-06	1243	266.91	3.8954e-06	7.1088e-06	490.1	179.01	90.169	40.51	6.7094e-06	86.446	0.00024647	0.0002353	6.4713e-05	721.51	2.4162e-06	2.4038e-06	1077.3	233.59	2.3315e-06	2.3122e-06	411.83	151.52	78.74	34.093	2.1293e-06	70.308	193.472	12.897	66.654	5.730	144.775	66.951	5.675	11.246	102.363	126.064	10.643	15.148	16.020	20.130	129.047	18.883	-8191	255	
2696.100	1	1	0	0	0.068613	0.23773	0.18795	0.30767	0.093317	0.067666	0.10748	0.17295	0.12381	0.16997	0.08839	0.16428	0.035206	0.034249	0.18672	0.11254	-3.0812	-4.1208	-3.4333	-4.1083	-4.0021	-3.4354	-4.35	-3.7208	-3.7375	-4.1167	-3.5625	-3.9521	-4.0729	-3.3958	-4.2438	-3.8396	197.580	237.676	46.504	287.282	141.095	89.521	237.669	256.446	295.325	264.561	301.110	286.129	-5.108	18.556	98.357	289.420	0.00015165	0.0012006	8.3571e-05	851.06	4.369e-06	5.7593e-06	1250.8	271.68	5.7307e-06	5.0463e-06	493.09	179.45	91.081	40.288	2.1621e-06	85.514	0.00018648	0.00017393	4.782e-05	734.65	1.8592e-06	1.8083e-06	1083	234.72	1.8058e-06	1.8206e-06	409.21	149.59	78.451	33.75	1.9185e-06	69.19	174.899	117.614	223.967	5.845	108.676	115.829	6.043	11.175	196.208	51.042	10.394	15.694	16.381	20.276	95.472	18.752	-8191	255	
2696.171	1	1	0	0	0.072558	0.12133	0.3202	0.16454	0.047064	0.20725	0.059201	0.18646	0.13215	0.1657	0.21985	0.12966	0.2893	0.20711	0.20339	0.21422	-3.1771	-4.2063	-3.4083	-3.9688	-4.1771	-3.5625	-4.3229	-3.8375	-3.4479	-4.225	-3.7854	-3.8187	-4.1542	-3.5687	-4.1021	-4.1979	135.146	49.975	150.902	280.405	337.248	-2.775	256.002	302.807	64.862	131.447	-3.190	160.782	32.473	62.735	29.181	266.954	0.00033798	0.00044062	0.00012328	866.02	7.9147e-06	6.1193e-06	1260.8	271.99	4.8789e-06	6.1014e-06	491.2	178.01	91.209	39.664	3.8649e-06	85.235	0.00017553	0.00016716	4.5772e-05	743.55	1.7757e-06	1.7765e-06	1090.4	234.9	1.8082e-06	1.8376e-06	407.55	148.65	78.083	33.352	1.7907e-06	68.627	185.531	93.562	97.756	6.401	132.084	137.647	6.294	10.791	187.268	101.472	10.317	15.280	16.465	19.863	257.767	18.997	-8191	255	
2696.268	1	1	0	0	0.11718	0.090314	0.12543	0.10425	0.072346	0.10059	0.088368	0.25473	0.29876	0.12951	0.028693	0.19613	0.082805	0.22945	0.19587	0.19117	-3.1375	-4.2312	-3.5958	-3.8292	-4.4938	-3.6646	-4.175	-4.0021	-3.3354	-4.2667	-3.6104	-3.7333	-4.1854	-3.4396	-4.0729	-4.2188	323.115	193.086	70.284	229.952	264.059	21.973	306.157	337.100	125.245	-3.345	154.720	338.405	199.603	285.067	136.773	339.919	0.00033245	0.00044353	0.00019459	862.96	8.8008e-06	9.0417e-07	1270.6	271.82	3.6811e-06	2.8398e-06	497.1	180.42	92.714	40.913	5.3472e-06	87.717	0.00016022	0.00015267	4.1607e-05	743.52	1.5996e-06	1.6103e-06	1091.3	234.69	1.6e-06	1.5879e-06	410.47	150.46	78.583	33.927	1.5105e-06	70.512	165.421	90.138	116.186	6.044	107.637	186.648	6.677	11.533	169.702	22.819	10.651	15.955	16.585	20.589	123.094	18.981	-8191	255	
2696.388	1	1	0	0	0.16961	0.21285	0.08031	0.10815	0.08555	0.030273	0.11613	0.18017	0.097565	0.12462	0.29199	0.13986	0.15184	0.24919	0.12074	0.093791	-3.1208	-4.2167	-3.7104	-3.7708	-4.2875	-3.5458	-4.3208	-4.1813	-3.4167	-4.0917	-3.9271	-3.7875	-4.4458	-3.5729	-4.0042	-4.1604	167.325	246.003	351.861	195.163	277.674	258.535	254.291	304.549	215.298	99.843	33.539	267.744	283.608	92.836	165.171	194.841	0.0003561	0.00012399	0.00016931	871.67	8.6741e-06	6.5148e-06	1278.9	277.48	4.1341e-06	4.4419e-06	503.83	184.49	95.012	42.28	1.138e-05	89.25	0.00014127	0.00013448	3.8053e-05	742.73	1.484e-06	1.5198e-06	1098.7	238.24	1.5704e-06	1.5409e-06	416.4	153.23	80.398	34.98	1.5953e-06	71.919	184.797	304.402	115.874	6.497	158.246	120.099	6.519	11.707	217.806	147.937	10.118	14.938	16.099	20.328	153.968	18.198	-8191	255	
2696.484	1	1	0	0	0.1258	0.10882	0.048884	0.13697	0.14546	0.19115	0.065876	0.32425	0.020817	0.1255	0.22346	0.24432	0.26348	0.13321	0.25907	0.5091	-3.1833	-4.0708	-3.875	-3.5729	-4.3688	-3.6625	-3.9521	-4.1917	-3.525	-4.1583	-3.9562	-3.3875	-4.3896	-3.7083	-3.7812	-4.4271	222.447	329.114	342.274	351.036	70.629	145.658	344.087	294.833	13.529	339.174	44.850	310.071	304.357	109.574	344.410	302.916	0.0003637	0.00042719	0.00016077	856.63	4.0864e-06	2.8652e-06	1271.1	281.71	3.8762e-06	5.3736e-06	511.84	188.05	96.127	42.647	3.1916e-06	90.43	0.00015204	0.0001476	4.1361e-05	737.5	1.6944e-06	1.7184e-06	1098.7	242.2	1.8642e-06	1.8795e-06	425.01	156.78	82.373	35.778	2.0105e-06	73.279	186.924	7.626	126.497	5.976	108.309	36.446	5.938	11.078	53.114	35.104	10.409	14.965	15.936	19.390	260.252	18.613	-8191	255	
2696.581	1	1	0	0	0.14631	0.1285	0.010976	0.29762	0.17588	0.16616	0.029762	0.10535	0.066112	0.066575	0.16309	0.19405	0.097907	0.11639	0.14725	0.36219	-2.9292	-4.1979	-4.0583	-3.6188	-4.4062	-3.7188	-3.7896	-4.1958	-3.5375	-4.0687	-4.1438	-3.5396	-4.1	-3.7208	-3.7833	-4.2917	251.546	-1.383	96.966	277.175	26.617	40.234	87.296	218.380	231.002	260.877	333.486	166.418	-3.568	233.514	233.484	288.663	0.00027767	0.00028149	0.00023751	855.12	4.0774e-06	7.6624e-06	1272.9	281	4.3265e-06	6.197e-06	517.81	190.83	97.599	43.718	9.7176e-06	93.024	0.00018399	0.00017678	4.969e-05	740.84	1.9362e-06	1.942e-06	1101.4	242.75	1.9533e-06	1.9603e-06	429.19	159.02	83.379	36.638	1.9612e-06	75.434	185.438	44.166	66.554	5.858	215.663	68.228	5.847	10.790	175.862	99.250	10.228	15.257	16.270	20.036	149.873	18.340	-8191	255	
2696.677	1	1	0	0	0.082529	0.22064	0.17551	0.2041	0.20229	0.35271	0.21172	0.14759	0.33348	0.050659	0.095022	0.26951	0.31452	0.1657	0.064462	0.17476	-3.1729	-3.9958	-4.0729	-3.4417	-4.2438	-3.7292	-3.7583	-4.3396	-3.5146	-3.9313	-4.2125	-3.5333	-4.2104	-3.7667	-3.5563	-4.2937	8.793	172.958	78.556	68.219	212.354	46.993	212.707	302.988	40.292	282.847	2.689	296.598	38.503	167.889	246.212	342.913	0.00038945	0.00022221	0.00011007	862.6	8.3477e-06	3.7565e-06	1274.5	280.74	4.9836e-06	1.783e-06	516.05	189.69	96.38	42.806	5.9303e-06	90.975	0.00017971	0.00017492	4.8469e-05	742.47	1.9502e-06	1.9347e-06	1106	244.66	1.9093e-06	1.932e-06	428.87	158.36	82.464	35.652	1.8012e-06	73.481	176.924	184.233	181.688	5.915	85.329	156.310	5.692	10.719	228.461	153.104	10.098	15.016	16.063	19.897	177.056	18.254	-8191	255	
2696.773	1	1	0	0	0.072234	0.14143	0.25273	0.14446	0.068999	0.13399	0.2405	0.18406	0.16971	0.023857	0.25202	0.11758	0.13012	0.10152	0.087101	0.13415	-2.8312	-3.7479	-4.1583	-3.3292	-4.1062	-3.9896	-3.6312	-4.3292	-3.5979	-3.7417	-4.2542	-3.6583	-4.075	-3.9667	-3.4604	-4.4812	-1.350	83.045	329.109	335.745	100.367	160.098	284.913	281.861	169.811	83.506	297.622	193.585	27.450	335.630	78.722	316.786	0.0003741	0.00031953	0.00015499	859	4.3685e-06	5.0999e-06	1280.3	276.42	5.7316e-06	6.3145e-06	506.61	183.56	94.18	40.785	4.0715e-06	87.985	0.00016129	0.00015549	4.2745e-05	736.24	1.6906e-06	1.6913e-06	1098	238.75	1.6397e-06	1.6333e-06	417.72	152.24	79.652	33.773	1.4968e-06	70.35	185.461	129.567	142.687	5.873	76.921	160.068	5.840	11.145	124.053	99.748	9.760	14.861	15.601	19.540	167.998	18.537	-8191	255	
2696.869	1	1	0	0	0.094602	0.17211	0.21682	0.12731	0.044441	0.16958	0.095606	0.1021	0.082483	0.084255	0.19327	0.173	0.19853	0.29039	0.17536	0.12809	-3.2521	-3.6771	-4.2208	-3.3979	-4.0583	-4.1771	-3.6437	-4.2875	-3.575	-3.5312	-4.3167	-3.4708	-3.8979	-3.9917	-3.4833	-4.25	117.286	221.886	-3.580	318.082	151.184	216.243	340.533	301.908	143.970	3.410	236.882	329.176	25.646	319.122	220.246	59.299	0.00041172	0.00046303	1.0244e-05	847.02	5.8098e-06	5.3153e-06	1257.2	272.73	4.0898e-06	6.8681e-06	503.06	182.53	93.231	40.705	6.5588e-06	89.041	0.00013274	0.0001219	3.3466e-05	718.12	1.2521e-06	1.1878e-06	1078.7	232.96	1.1563e-06	1.1248e-06	412.54	150.04	78.299	33.324	1.0738e-06	70.511	164.547	138.906	256.146	6.084	114.056	114.951	6.258	11.094	198.438	91.758	10.004	14.382	15.752	19.828	172.006	18.666	-8191	255	
2696.990	1	1	0	0	0.15763	0.18972	0.14337	0.3286	0.049638	0.11661	0.37851	0.10237	0.31784	0.10476	0.3582	0.048151	0.11555	0.16852	0.20019	0.19445	-3.4458	-3.6354	-4.1667	-3.5458	-3.8208	-4.0833	-3.5229	-4.2625	-3.8583	-3.6417	-4.2333	-3.5875	-3.7833	-4.0646	-3.4479	-4.3292	349.307	339.089	37.664	46.675	16.689	192.204	301.515	248.559	74.903	68.002	272.210	279.674	228.673	189.817	128.650	183.104	0.000367	0.00047563	0.00010486	835.2	6.6399e-06	4.4598e-06	1264.1	275.34	1.8436e-06	2.8467e-06	504.26	182.5	93.1	39.894	5.973e-06	87.252	0.00010085	9.3984e-05	2.5828e-05	703.8	1.0307e-06	1.0183e-06	1075.1	233.63	1.0229e-06	1.0372e-06	413.11	150.21	77.8	32.885	1.0683e-06	69.701	192.583	89.339	260.705	5.459	124.363	111.007	5.785	11.178	180.044	42.792	9.851	14.638	16.341	19.706	128.344	18.423	-8191	255	
2697.084	1	1	0	0	0.018918	0.20782	0.12239	0.23063	0.23629	0.023672	0.16459	0.14996	0.14549	0.074348	0.10981	0.049771	0.27515	0.13578	0.036333	0.23865	-3.5979	-3.4396	-4.2646	-3.6583	-3.9	-4.2104	-3.5104	-4.2854	-3.8812	-3.4562	-4.3021	-3.625	-3.8417	-4.1562	-3.3833	-4.1729	311.542	42.087	274.263	307.831	331.441	307.788	236.745	274.276	75.897	143.596	266.050	297.786	306.546	335.787	113.463	271.813	0.0004056	0.00030621	0.0002115	830.35	5.3401e-06	3.9309e-06	1254.3	271	5.1815e-06	1.637e-06	498.02	178.19	91.127	38.649	2.8205e-06	85.103	9.9483e-05	9.3693e-05	2.5311e-05	697.45	9.4523e-07	9.3409e-07	1070.9	228.91	9.3434e-07	9.2555e-07	406.34	146.4	75.912	31.61	8.8918e-07	67.466	179.854	3.421	44.278	5.444	91.627	104.420	5.594	11.327	170.442	237.747	10.329	14.904	15.915	19.963	127.347	18.487	-8191	255	
2697.180	1	1	0	0	0.086495	0.22603	0.16097	0.034074	0.11953	0.080586	0.15396	0.22557	0.11128	0.16938	0.091851	0.31757	0.059243	0.23139	0.37369	0.058571	-3.4479	-3.3854	-4.3146	-3.6604	-3.7687	-4.2625	-3.5417	-4.0625	-3.9833	-3.5833	-4.1917	-4	-3.7708	-4.3646	-3.4479	-3.9938	162.335	264.309	174.213	177.281	298.543	186.141	273.015	263.572	270.619	295.525	228.472	291.772	45.655	22.059	156.739	222.253	0.00033574	0.00019328	4.461e-05	820.07	2.2992e-06	3.4855e-06	1240.7	267.54	2.3054e-06	6.369e-06	501.56	180.35	92.398	39.11	4.351e-06	86.508	8.2116e-05	7.5169e-05	2.0622e-05	687.05	8.1928e-07	8.1957e-07	1058.6	226.87	8.3979e-07	8.4053e-07	406.42	147.25	76.346	31.956	7.8558e-07	68.349	165.929	6.823	58.080	5.993	181.167	109.874	5.934	11.382	89.666	110.694	10.275	14.976	16.395	19.945	86.070	18.959	-8191	255	
2697.276	1	1	0	0	0.059528	0.1402	0.12697	0.088679	0.255	0.11603	0.13596	0.16767	0.13805	0.12938	0.12932	0.1113	0.29097	0.1427	0.1706	0.26155	-3.9042	-3.5604	-4.1667	-3.9458	-3.4062	-4.2063	-3.8167	-4	-3.9979	-3.4625	-4.1083	-3.9146	-3.4396	-4.4479	-3.6125	-4.0437	301.584	41.561	192.662	139.369	80.816	299.742	312.899	316.726	201.144	165.244	132.602	87.330	280.099	203.644	130.673	270.560	0.00030608	0.00030718	0.00018715	812.16	5.8247e-06	4.7385e-06	1239.8	269.57	3.287e-06	1.7542e-06	499.19	179.22	91.051	39.743	4.4359e-06	87.949	7.6148e-05	6.9095e-05	1.9238e-05	680.38	7.8427e-07	7.7289e-07	1055.5	227.28	8.0234e-07	8.1007e-07	405.6	147.4	75.975	32.437	8.1933e-07	69.655	181.055	82.234	96.616	6.152	91.199	114.654	5.696	10.715	135.200	140.422	10.248	14.759	16.015	19.624	130.790	18.869	-8191	255	
2697.372	1	1	0	0	0.065671	0.18779	0.13218	0.030949	0.17481	0.21084	0.079147	0.12115	0.017617	0.24963	0.24025	0.059093	0.084934	0.27767	0.14354	0.22413	-3.7208	-3.4167	-3.9583	-3.8375	-3.4833	-4.1479	-3.8187	-3.9208	-4.1479	-3.4979	-4.1417	-4.0521	-3.5062	-4.3896	-3.7083	-3.7292	42.690	23.756	129.656	249.414	139.152	328.272	67.099	286.454	293.954	165.836	315.007	269.366	17.563	304.917	7.094	325.607	0.00033618	0.00042306	0.00012451	813.21	4.9568e-06	3.6644e-06	1255.7	269.61	3.0807e-06	2.8784e-06	506.28	182.92	92.979	40.454	2.7652e-06	88.88	8.0692e-05	7.534e-05	2.119e-05	682.92	8.6096e-07	8.3314e-07	1064.7	228.71	8.9531e-07	9.0501e-07	410.71	150.12	77.43	33.167	9.2453e-07	70.792	171.150	63.150	44.961	5.761	123.155	174.758	5.782	11.159	203.392	8.538	9.988	14.533	15.721	19.419	191.342	17.923	-8191	255	
2697.469	1	1	0	0	0.13956	0.24985	0.088624	0.033826	0.24431	0.28714	0.17407	0.21692	0.17799	0.12753	0.087501	0.35095	0.11387	0.13754	0.17049	0.10189	-3.9917	-3.4104	-4.0208	-4.1188	-3.3667	-4.2396	-3.8104	-3.8312	-4.3583	-3.6646	-4.025	-4.2042	-3.5458	-4.0813	-3.7646	-3.6708	242.471	92.696	352.133	1.923	168.911	30.222	313.723	292.102	-5.718	24.175	3.701	326.731	-2.711	294.913	159.616	255.372	0.0003499	0.00069794	9.3463e-05	818.38	2.6354e-06	6.8881e-06	1245.4	271	3.6914e-06	2.2975e-06	506.48	183.76	93.843	41.303	4.2315e-06	90.65	9.0413e-05	8.187e-05	2.2407e-05	686.02	8.9882e-07	8.8178e-07	1062.8	228.73	9.0744e-07	9.007e-07	411.84	151.38	78.005	33.759	9.4228e-07	72.12	173.055	42.613	94.605	5.336	113.235	122.532	5.178	10.662	106.346	130.983	10.120	14.380	15.161	19.794	217.244	18.307	-8191	255	
2697.565	1	1	0	0	0.18797	0.16237	0.053804	0.1178	0.23268	0.17013	0.098193	0.19708	0.043483	0.013022	0.071938	0.12007	0.15179	0.17417	0.32391	0.030062	-3.9208	-3.5875	-3.7417	-4.1	-3.6604	-3.9875	-4.0625	-3.5542	-4.3833	-3.5625	-3.9562	-4.3542	-3.425	-4.0563	-4.0062	-3.6083	57.674	121.025	186.240	311.381	331.542	70.027	274.869	347.960	254.406	340.952	344.983	75.875	146.760	308.318	133.644	204.520	0.00033995	0.00035947	3.2839e-05	812.7	1.9622e-06	3.0874e-06	1246.2	268.37	7.0132e-06	3.2261e-06	502.76	182.66	92.686	40.795	2.4143e-06	89.202	9.1964e-05	8.5236e-05	2.3815e-05	684.64	9.6641e-07	9.8022e-07	1063.7	229.61	1.0187e-06	1.0092e-06	409.08	150.09	77.475	33.434	1.0482e-06	70.941	180.587	51.600	112.644	5.200	92.319	90.443	5.548	10.998	167.490	152.632	9.932	14.315	15.692	19.466	198.364	18.120	-8191	255	
2697.685	1	1	0	0	0.051328	0.27131	0.041451	0.27786	0.19714	0.13377	0.20112	0.25303	0.009749	0.24685	0.17615	0.024397	0.26578	0.073047	0.094335	0.23573	-3.6479	-3.5625	-3.7979	-4.2833	-3.5875	-4.0875	-4	-3.5729	-4.3375	-3.6625	-3.6875	-4.4	-3.7417	-4.1521	-4.1667	-3.6458	143.122	348.262	100.018	265.916	194.967	67.327	320.178	324.994	257.163	19.947	266.866	80.180	90.019	5.270	185.337	311.561	0.00037411	0.00057241	0.00020319	809.79	4.135e-06	4.5467e-06	1238.8	264.8	4.4903e-06	5.2021e-06	494.21	181.87	92.459	41.208	6.8624e-06	90.348	0.00010251	9.939e-05	2.6769e-05	682.55	1.117e-06	1.1278e-06	1058.1	226.39	1.2001e-06	1.2057e-06	406.53	150.7	77.603	34.022	1.2492e-06	71.983	188.118	116.221	103.825	5.373	92.090	103.247	5.250	10.817	202.322	150.370	9.842	14.763	16.004	19.583	80.234	18.129	-8191	255	
2697.782	1	1	0	0	0.11612	0.19572	0.11837	0.030524	0.14269	0.15679	0.144	0.26267	0.15616	0.13286	0.29814	0.16241	0.21765	0.22502	0.075675	0.18584	-3.7313	-3.6813	-3.6125	-4.275	-3.4354	-3.9583	-4.3646	-3.4271	-4.1562	-3.8729	-3.65	-4.4208	-3.5896	-3.9458	-4.0833	-3.4896	117.266	93.511	59.261	316.091	178.681	222.660	328.458	296.521	311.301	32.037	16.815	13.116	24.605	41.820	81.985	244.538	0.00032999	0.00059202	0.00017457	803.21	5.3415e-06	4.3336e-06	1236.6	265.27	5.7214e-06	3.5265e-06	500.72	185.06	93.526	42.077	8.7836e-06	92.796	0.00011923	0.00011407	3.1435e-05	683.31	1.2491e-06	1.2575e-06	1059.1	227.05	1.3492e-06	1.3344e-06	410.43	153.12	78.935	34.745	1.2925e-06	74.045	175.576	49.425	113.127	4.734	123.987	138.093	5.382	10.846	148.835	160.396	10.118	14.568	15.733	19.920	104.919	18.190	-8191	255	
2697.876	1	1	0	0	0.043404	0.087092	0.1476	0.073009	0.13643	0.20907	0.32285	0.018901	0.065359	0.27471	0.30254	0.071309	0.04061	0.0685	0.15591	0.04914	-3.6646	-3.9458	-3.4896	-4.4542	-3.5417	-3.7896	-4.3438	-3.6604	-4.1167	-3.9813	-3.5938	-4.2438	-3.6083	-3.8271	-4.2167	-3.4562	94.470	94.397	236.031	311.062	211.126	14.706	247.697	260.382	68.587	238.000	254.725	244.459	270.960	288.312	126.131	316.033	0.00035607	0.00040056	7.0317e-05	808.98	4.1945e-06	9.1685e-06	1240.6	265.99	1.5493e-06	2.2318e-06	500.68	187.08	94.029	42.086	3.7461e-06	92.897	0.00012137	0.00011876	3.308e-05	687.86	1.366e-06	1.4093e-06	1068.1	228.66	1.5095e-06	1.5202e-06	412.67	154.53	79.889	35.095	1.5053e-06	74.499	164.536	44.127	31.784	5.783	133.170	69.445	5.462	10.884	159.538	81.529	9.752	14.772	16.105	19.598	115.386	17.651	-8191	255	
2697.972	1	1	0	0	0.16035	0.13441	0.055784	0.31515	0.11248	0.12507	0.12061	0.1257	0.06569	0.18036	0.21819	0.2314	0.071601	0.23341	0.074974	0.079783	-3.6896	-3.9833	-3.4833	-4.1667	-3.7146	-3.7208	-4.5125	-3.3771	-3.9062	-4.0188	-3.6333	-4.2521	-3.7521	-3.7208	-4.0875	-3.6688	242.969	231.667	243.655	285.971	240.847	97.898	350.299	63.417	181.807	184.730	122.322	207.379	218.637	304.154	161.511	203.763	0.00038085	0.00023618	0.00010303	804.7	7.179e-06	5.3131e-06	1241.5	269.72	4.0203e-06	4.9302e-06	502.44	190.1	95.281	43.197	5.866e-06	93.845	0.00014148	0.0001339	3.8401e-05	689.39	1.5639e-06	1.5748e-06	1068.6	231.41	1.6372e-06	1.6462e-06	417.82	157.76	81.377	35.89	1.6844e-06	75.332	160.889	68.492	54.331	5.575	249.429	122.314	5.701	10.577	169.789	71.527	10.177	15.000	16.067	19.760	48.030	18.051	-8191	255	
2698.068	1	1	0	0	0.062909	0.09975	0.1438	0.059994	0.17879	0.15257	0.080573	0.1724	0.14273	0.19482	0.046162	0.20142	0.1133	0.08908	0.20324	0.27867	-3.5479	-3.925	-3.3937	-4.2604	-3.825	-3.5625	-4.4938	-3.6146	-3.8187	-4.0375	-3.5083	-4.2104	-3.9646	-3.5458	-4.2229	-3.7917	337.605	145.669	179.842	14.793	120.028	3.630	118.890	271.919	81.546	103.809	15.706	199.128	351.395	216.437	286.782	7.901	0.00035469	0.00048176	0.00027131	802.12	4.8388e-06	4.7037e-06	1238.6	265.33	3.8032e-06	6.8727e-06	504.23	188.11	94.81	43.085	4.7776e-06	93.98	0.00015422	0.00014714	4.1108e-05	690	1.648e-06	1.6629e-06	1069.1	229.68	1.6784e-06	1.6676e-06	416.78	156.63	81.176	35.872	1.7357e-06	75.792	191.110	135.406	77.053	5.636	131.710	65.918	5.511	10.909	208.947	146.676	9.742	14.333	15.409	19.312	125.047	17.420	-8191	255	
2698.164	1	1	0	0	0.2627	0.21878	0.064918	0.39944	0.34107	0.35049	0.16801	0.06365	0.091621	0.10369	0.05726	0.068096	0.093761	0.1886	0.10878	0.34153	-3.4729	-4.0479	-3.2625	-4.1229	-3.9896	-3.5667	-4.3125	-3.6583	-3.6688	-4.4146	-3.5	-4.1396	-3.8812	-3.5292	-4.2312	-3.8458	50.047	79.123	81.297	249.106	61.568	227.244	245.869	273.391	-0.988	79.842	299.122	317.605	317.599	62.464	81.320	235.845	0.0005101	0.00016414	0.00016502	805.59	6.1154e-06	2.4042e-06	1236.1	264.04	3.659e-06	3.1343e-06	495.24	186.48	93.729	42.462	7.9523e-06	92.701	0.00016406	0.00015835	4.4184e-05	696.82	1.7708e-06	1.7603e-06	1073.7	228.94	1.7566e-06	1.7285e-06	412.15	155.32	79.814	35.413	1.7826e-06	74.905	178.246	107.353	147.847	5.473	129.551	101.554	5.324	10.654	169.266	111.234	9.621	14.474	15.445	19.254	181.342	18.051	-8191	255	
2698.261	1	1	0	0	0.017054	0.2003	0.10654	0.17249	0.12489	0.093591	0.26156	0.16591	0.34551	0.10937	0.11154	0.21011	0.31267	0.1081	0.091746	0.1395	-3.3083	-4.0875	-3.4188	-3.9479	-4.2208	-3.2917	-4.2417	-3.7479	-3.6458	-4.2042	-3.6646	-3.925	-4.0896	-3.5271	-4.3667	-3.9792	297.970	61.333	301.532	28.121	210.677	122.840	264.261	348.673	94.473	93.683	129.973	-5.494	54.073	22.219	316.277	254.782	0.00034824	0.00040744	8.8856e-05	807.74	8.8854e-06	3.2249e-06	1239.7	261.36	2.3165e-06	8.8547e-07	489.59	182.82	92.268	42.011	5.9839e-06	91.613	0.00016922	0.00016253	4.6151e-05	697.84	1.8118e-06	1.8261e-06	1070.9	226.16	1.8536e-06	1.8462e-06	406.07	152.87	78.664	35.108	1.7368e-06	73.984	173.666	50.842	106.105	5.273	54.009	108.653	5.493	10.488	252.050	283.444	9.794	14.768	15.411	19.588	124.669	17.825	-8191	255	
2698.357	1	1	0	0	0.13368	0.18335	0.18483	0.14522	0.048451	0.014599	0.2242	0.059568	0.225	0.26414	0.16415	0.26089	0.1171	0.056738	0.1398	0.051607	-3.15	-4.2792	-3.5583	-3.8917	-3.9833	-3.5042	-4.2937	-3.9417	-3.4729	-4.0896	-3.7604	-3.95	-4.1729	-3.4833	-4.1333	-4.2	84.366	192.040	223.409	269.400	101.529	106.822	252.936	283.362	296.043	210.029	248.920	4.984	252.143	94.198	137.491	91.313	0.00037324	0.00058884	4.5336e-05	805.08	1.7937e-06	5.3763e-06	1233.6	255.9	1.9983e-06	3.1594e-06	485.27	182.32	91.436	41.719	7.5828e-06	91.886	0.00016294	0.00015087	4.2321e-05	691.09	1.612e-06	1.5724e-06	1059.4	220.36	1.516e-06	1.5228e-06	399.22	151.59	77.55	34.8	1.566e-06	73.915	166.045	31.954	115.087	5.733	152.386	89.857	5.569	11.283	176.423	97.109	10.323	15.442	16.069	20.109	211.454	18.341	-8191	255	
2698.477	1	1	0	0	0.14966	0.12849	0.24033	0.10256	0.066686	0.19723	0.30006	0.11766	0.097794	0.32159	0.32623	0.076475	0.064926	0.12623	0.076492	0.10803	-3.0396	-4.3708	-3.7396	-3.8417	-4.3542	-3.4313	-4.3354	-4.1667	-3.4917	-4.2188	-3.8333	-3.7354	-4.2896	-3.6708	-3.9833	-3.975	197.923	345.227	111.329	234.403	214.621	66.626	311.748	280.062	332.138	221.451	313.800	240.359	239.334	335.226	56.784	11.200	0.00035915	0.0003301	0.00021721	803.84	5.1229e-06	4.2755e-06	1232.1	252.29	6.1088e-06	5.1578e-06	479.41	181.11	89.761	41.722	6.5926e-06	92.213	0.00014554	0.00014092	3.969e-05	690.18	1.6381e-06	1.6509e-06	1059.5	218.94	1.7192e-06	1.7256e-06	396.84	150.62	76.876	34.736	1.7112e-06	73.962	160.029	93.403	120.755	5.906	157.142	191.383	6.293	11.101	123.937	142.108	10.152	15.576	16.234	19.789	97.311	18.108	-8191	255	
2698.573	1	1	0	0	0.10157	0.11815	0.048812	0.20709	0.26108	0.10741	0.23486	0.14593	0.27287	0.12094	0.18391	0.10331	0.22382	0.22542	0.025296	0.16857	-3.05	-4.3	-3.5042	-3.6333	-4.225	-3.5646	-4.1021	-4.0771	-3.4083	-4.2458	-3.9354	-3.6854	-4.4187	-3.6708	-3.775	-4.2292	9.966	203.910	177.811	271.791	99.814	226.989	304.060	342.656	299.182	294.619	265.548	311.957	334.551	306.062	209.236	202.157	0.00034008	0.00059465	0.00016911	809.89	8.2209e-07	3.0398e-06	1232.7	253.5	2.3516e-06	2.2136e-06	484.4	183.04	91.693	42.487	3.9746e-06	93.151	0.00015724	0.00015188	4.2295e-05	692.51	1.6418e-06	1.6037e-06	1063.1	219.3	1.6247e-06	1.6058e-06	400.12	152.45	77.725	35.319	1.6016e-06	74.837	165.319	93.558	87.970	6.005	334.436	113.754	5.957	11.358	214.813	221.383	10.002	14.964	15.898	19.742	38.103	18.455	-8191	255	
2698.670	1	1	0	0	0.1391	0.18373	0.050918	0.13198	0.26705	0.084722	0.24504	0.17646	0.22414	0.10965	0.093075	0.065606	0.18787	0.23408	0.15574	0.23285	-3.1583	-3.95	-3.8292	-3.5458	-4.4417	-3.6271	-3.8688	-4.1937	-3.4667	-4.1813	-4.0979	-3.6042	-4.3583	-3.6375	-3.75	-4.25	165.758	215.612	186.178	152.162	317.857	183.750	38.061	328.944	127.448	144.040	104.045	204.874	286.965	239.481	141.297	302.548	0.00031832	0.00078657	0.00014589	801.32	2.9882e-06	1.5258e-06	1227.6	254.32	1.1837e-06	6.4369e-06	481.9	181.45	91.777	42.627	8.7827e-07	93.156	0.00014957	0.00014012	3.8778e-05	686.02	1.5135e-06	1.5172e-06	1053.3	219.27	1.488e-06	1.4787e-06	398.55	151.75	77.972	35.319	1.4939e-06	74.946	168.580	45.981	123.425	5.826	60.839	177.878	5.959	11.251	195.106	70.120	10.044	14.740	15.988	19.347	211.048	17.888	-8191	255	
2698.766	1	1	0	0	0.16745	0.17178	0.092824	0.14146	0.08658	0.036977	0.057047	0.24578	0.09068	0.10112	0.24896	0.22496	0.2661	0.071297	0.10131	0.11341	-3.1646	-4.0208	-3.9688	-3.6	-4.2812	-3.8667	-3.7771	-4.125	-3.4625	-4.1708	-4.2937	-3.5479	-4.3771	-3.7021	-3.6979	-4.2708	303.186	212.825	1.887	348.832	235.561	152.790	288.556	350.951	302.701	350.195	284.277	347.666	335.781	95.984	174.288	309.727	0.00035486	0.00053121	0.0002376	788.69	2.0052e-06	2.8451e-06	1225.5	254.22	3.4148e-06	5.2262e-06	482.85	181.38	91.244	42.241	5.2215e-06	92.972	0.00014444	0.00013913	3.8912e-05	680.87	1.5599e-06	1.5511e-06	1053.4	219.86	1.572e-06	1.573e-06	398.43	151.38	77.906	35.142	1.5729e-06	74.649	181.479	41.266	87.885	5.824	105.867	192.992	5.711	11.117	127.778	147.824	10.134	14.558	15.620	19.749	114.864	18.196	-8191	255	
2698.862	1	1	0	0	0.012891	0.19943	0.29418	0.22596	0.19832	0.2012	0.15827	0.19043	0.1525	0.27434	0.19373	0.1264	0.13338	0.16867	0.089615	0.28926	-3.0312	-3.9938	-4.1479	-3.4562	-4.05	-3.9604	-3.6479	-4.4187	-3.4562	-3.9771	-4.1979	-3.3187	-4.2083	-3.8479	-3.5167	-4.3458	255.040	305.856	118.720	259.172	245.069	70.114	295.784	337.368	224.230	277.323	242.230	174.631	263.834	85.210	12.216	242.635	0.00041563	0.00059335	0.00014237	784.64	4.4737e-06	7.0106e-06	1216.1	255.91	5.7427e-06	4.993e-06	486.51	184.1	92.744	42.91	5.8717e-06	94.903	0.00014766	0.00013883	3.9485e-05	676.13	1.5583e-06	1.5538e-06	1051.2	220.18	1.5211e-06	1.5217e-06	401.17	153.06	78.744	35.599	1.5186e-06	75.936	172.895	75.913	118.749	5.629	81.047	123.579	5.298	10.493	171.445	342.542	9.674	14.879	15.750	19.560	174.190	17.889	-8191	255	
2698.958	1	1	0	0	0.46476	0.26256	0.075813	0.01309	0.11787	0.11296	0.081551	0.15611	0.15777	0.1719	0.065108	0.13051	0.049865	0.19547	0.054695	0.094697	-3.1729	-3.7354	-4.225	-3.6104	-4.1	-3.9896	-3.5917	-4.4688	-3.6396	-3.7792	-4.4479	-3.6688	-4.1771	-4.0417	-3.4729	-4.5208	217.654	146.377	77.891	161.318	158.471	242.328	297.395	1.215	125.599	279.964	341.155	78.729	38.151	38.883	115.957	313.383	0.00033781	0.00026275	0.0001532	793.2	3.7271e-06	1.3016e-06	1228.7	256.57	6.3295e-06	2.6329e-06	485.05	185.84	93.131	43.192	1.2121e-05	94.625	0.00014141	0.00013546	3.7856e-05	678.67	1.4947e-06	1.5064e-06	1053.8	221.37	1.5849e-06	1.6131e-06	403.2	154.57	79.613	35.934	1.7924e-06	76.421	184.370	61.439	109.859	5.658	342.098	330.688	6.227	11.141	159.489	167.447	10.177	14.953	16.106	19.068	168.957	17.817	-8191	255	
2699.077	1	1	0	0	0.14958	0.096343	0.27094	0.12579	0.12171	0.11048	0.18869	0.1801	0.1587	0.1453	0.065269	0.15732	0.082981	0.096144	0.068336	0.027472	-3.3583	-3.5854	-4.3542	-3.6521	-4.0958	-4.0292	-3.5104	-4.1729	-3.7771	-3.7292	-4.3146	-3.5563	-3.9604	-4.0521	-3.5062	-4.1958	21.558	196.592	132.354	228.028	257.033	312.744	302.870	280.925	84.076	-0.186	-4.261	187.649	316.655	309.059	16.681	286.488	0.00033877	6.8836e-05	6.6475e-05	786.89	6.259e-06	8.6374e-06	1209	254.95	1.0872e-06	3.0264e-06	484.72	184.18	92.417	43.014	5.4929e-06	94.819	0.00017208	0.00016466	4.7498e-05	679.54	1.8754e-06	1.8711e-06	1047.1	220.9	1.7314e-06	1.7706e-06	400.71	153.2	78.822	35.633	1.4743e-06	75.973	167.268	77.446	102.992	5.639	136.472	62.005	5.872	11.791	278.920	66.212	10.136	14.806	16.001	19.351	150.148	17.894	-8191	255	
2699.173	1	1	0	0	0.2058	0.090558	0.22421	0.30882	0.09553	0.21849	0.20593	0.15488	0.10724	0.22596	0.1524	0.28701	0.24668	0.038634	0.17118	0.21176	-3.3208	-3.5708	-4.2125	-3.5917	-3.9562	-4.0854	-3.4958	-4.1396	-3.8104	-3.5354	-4.3271	-3.6542	-4.0104	-4.1438	-3.2708	-4.0687	244.996	203.984	215.964	-4.204	125.051	279.685	332.325	286.848	94.783	289.293	308.964	277.555	309.889	234.298	284.561	344.959	0.00028382	0.0003628	0.00019068	782.7	8.6705e-06	3.118e-06	1223.7	258.53	3.7519e-06	6.5177e-06	487.83	185.68	94.705	43.286	2.9602e-06	95.339	0.00013995	0.00013273	3.6876e-05	675.28	1.5794e-06	1.6663e-06	1055.7	225.15	1.9381e-06	2.0487e-06	408.44	156.27	81.404	36.433	2.2408e-06	77.41	183.830	22.620	89.017	5.470	134.518	146.438	5.658	11.128	270.996	97.874	9.830	14.564	15.804	19.179	330.948	17.997	-8191	255	
2699.269	1	1	0	0	0.28065	0.12795	0.11569	0.16479	0.187	0.06136	0.24271	0.19933	0.11443	0.16645	0.1833	0.14118	0.1561	0.14809	0.13108	0.24727	-3.5208	-3.4792	-4.2104	-3.7	-3.9583	-4.1125	-3.6583	-4.1271	-3.9354	-3.5687	-4.1771	-3.7229	-3.8688	-4.3208	-3.3208	-4.1521	135.656	193.900	5.309	23.243	168.035	244.242	299.959	278.615	296.451	167.057	274.173	-3.491	287.477	351.054	16.405	248.546	0.00042675	0.00051303	0.00012406	789.06	2.2873e-06	3.8952e-06	1228.4	261.12	1.1885e-06	2.3469e-06	501.64	189.23	95.781	44.117	1.0188e-05	97.241	0.00019846	0.00018858	5.1014e-05	685.95	1.9302e-06	1.8657e-06	1059.2	226.04	1.7475e-06	1.7317e-06	414.85	158.19	81.863	36.771	1.7799e-06	78.529	163.793	74.998	-3.600	5.937	105.738	344.883	5.716	10.920	183.513	54.159	10.356	15.026	16.090	20.019	101.637	17.824	-8191	255	
2699.365	1	1	0	0	0.10368	0.18779	0.089183	0.11901	0.13515	0.17549	0.1927	0.12867	0.098466	0.066006	0.1452	0.19355	0.042553	0.32558	0.36888	0.17716	-3.6958	-3.2021	-4.1896	-3.8875	-3.7542	-4.3354	-3.6333	-4.0042	-4.0292	-3.3333	-4.325	-3.8521	-3.6312	-4.3979	-3.675	-3.8854	343.049	220.601	165.416	32.918	83.493	42.065	331.430	3.777	263.191	347.485	327.740	308.298	-0.719	274.031	351.485	-4.983	0.00032479	0.00050202	0.00024429	796.44	7.2056e-06	3.0144e-06	1239.8	266.79	4.3274e-06	1.1915e-06	506.03	191.35	97.106	44.619	1.3823e-06	97.652	0.00016837	0.00016877	4.7329e-05	694.18	1.979e-06	1.9865e-06	1074	232.2	1.9983e-06	1.9369e-06	420.37	160.05	82.894	37.172	1.7622e-06	78.684	180.252	285.536	44.903	5.336	71.886	126.410	5.608	11.011	175.271	-0.672	10.089	14.775	16.209	19.687	17.202	18.026	-8191	255	
2699.462	1	1	0	0	0.16908	0.092191	0.021437	0.19505	0.10727	0.15601	0.18939	0.3258	0.17056	0.14847	0.30477	0.2898	0.22074	0.24185	0.082577	0.39242	-3.6521	-3.3125	-4.0687	-3.7333	-3.5646	-4.3146	-3.7917	-3.9625	-4.0479	-3.7604	-4.2167	-3.8375	-3.475	-4.2167	-3.6521	-3.9167	204.098	225.783	323.317	162.900	290.567	352.865	338.225	158.189	221.481	90.790	222.362	331.678	239.830	320.304	250.844	322.749	0.00046223	0.00031824	0.00010556	800.28	3.6941e-06	7.6613e-06	1240.9	270.47	2.677e-06	2.7264e-06	505.03	190.58	96.068	44.658	1.0371e-05	97.346	0.00015792	0.00015311	4.3129e-05	692.69	1.7474e-06	1.77e-06	1072.8	234.55	1.9884e-06	2.0702e-06	423.37	160.55	83.829	37.521	2.4189e-06	79.309	182.151	41.604	154.593	5.216	96.081	119.736	5.446	11.197	205.869	106.502	10.168	14.657	15.537	19.456	153.797	17.826	-8191	255	
2699.558	1	1	0	0	0.21389	0.11953	0.062019	0.11821	0.22798	0.094869	0.21144	0.13968	0.24958	0.10795	0.13416	0.088355	0.04951	0.11832	0.12277	0.11582	-3.7833	-3.4229	-4.0979	-3.9437	-3.3625	-4.1979	-3.8604	-3.8812	-4.1521	-3.4333	-4.1562	-4.0708	-3.3229	-4.2937	-3.7125	-3.6083	213.549	194.675	59.050	334.362	108.133	272.057	292.472	250.534	73.005	32.128	192.345	102.854	349.741	338.608	306.435	273.219	0.00043849	0.00033973	0.00012571	785.48	1.07e-05	6.4651e-06	1231.7	263.92	8.3127e-06	7.8581e-07	503.07	189.92	96.589	44.378	6.0467e-06	97.717	0.00022403	0.00021709	5.9325e-05	693.41	2.3387e-06	2.3289e-06	1071.4	232.14	2.3077e-06	2.3064e-06	420.22	159.96	83.054	37.424	2.2334e-06	79.194	163.296	325.241	141.229	5.468	99.527	207.737	5.894	11.179	155.534	127.372	10.450	15.047	16.335	19.852	114.974	18.459	-8191	255	
2699.654	1	1	0	0	0.050664	0.22841	0.17711	0.072888	0.14413	0.20846	0.2121	0.075357	0.014504	0.11615	0.10796	0.074299	0.12975	0.17249	0.24725	0.34659	-3.8729	-3.4417	-3.9208	-4.1083	-3.3542	-4.1021	-3.8896	-3.5771	-4.1833	-3.4396	-4.1583	-4.15	-3.4896	-4.2229	-3.8667	-3.6792	145.261	181.824	162.469	23.006	182.348	115.359	306.542	330.454	165.056	60.755	335.087	101.931	182.545	353.074	336.837	331.911	0.00043392	0.00098119	0.00020195	792.99	5.2284e-06	4.6855e-06	1233.9	264.62	6.3108e-06	1.015e-06	499.65	189.65	95.064	44.09	9.687e-06	97.287	0.00021378	0.00021499	6.0335e-05	701.81	2.4049e-06	2.3772e-06	1074.6	231.38	2.2523e-06	2.1909e-06	418.76	159.4	82.06	37.126	1.9431e-06	78.341	171.742	51.892	50.872	6.158	97.719	6.296	5.218	11.083	195.709	48.460	9.913	14.283	15.432	19.151	232.167	17.654	-8191	255	
2699.774	1	1	0	0	0.15978	0.11122	0.13952	0.28031	0.29621	0.1964	0.3247	0.095705	0.044696	0.070702	0.30815	0.22781	0.050129	0.22299	0.054669	0.18355	-3.8354	-3.4125	-3.8625	-4.2063	-3.5583	-3.9667	-3.9604	-3.6583	-4.2542	-3.8271	-3.8438	-4.1729	-3.4188	-4.0437	-3.8667	-3.5125	142.626	21.809	166.314	323.385	288.388	305.222	274.318	220.123	295.407	236.861	56.145	279.279	193.601	331.264	37.419	281.544	0.00035751	0.0002788	7.8231e-05	792.94	4.7267e-06	2.9899e-06	1240.5	267.08	3.8368e-06	4.1677e-06	504.17	191.62	97.661	44.432	7.4208e-07	97.496	0.00016937	0.00016015	4.3973e-05	684.95	1.6667e-06	1.6245e-06	1064.3	229.65	1.5998e-06	1.6094e-06	417.42	159.29	82.729	36.95	1.7669e-06	78.401	189.646	183.620	55.652	5.529	142.080	173.779	5.314	10.852	84.761	159.738	10.058	14.733	15.514	19.608	176.783	18.048	-8191	255	
2699.869	1	1	0	0	0.15327	0.10519	0.13301	0.22044	0.20683	0.10121	0.10497	0.19986	0.020984	0.14127	0.011293	0.30502	0.06288	0.20448	0.2698	0.11783	-3.7833	-3.6479	-3.625	-4.3313	-3.5375	-4.1271	-4.1375	-3.3854	-4.25	-3.6354	-3.7896	-4.1813	-3.6188	-4.0146	-4.025	-3.5604	319.515	30.255	216.156	332.701	192.873	326.144	264.454	56.022	15.509	18.881	110.797	3.331	62.434	325.315	132.042	157.329	0.00046311	0.000945	2.2779e-05	786.88	4.6331e-06	3.0036e-06	1226.7	266.7	4.2192e-06	4.4514e-06	504.05	191.71	96.969	44.626	2.179e-06	98.273	0.00017149	0.00016501	4.6966e-05	684.6	1.884e-06	1.8669e-06	1062.2	230.99	1.8539e-06	1.8199e-06	420.37	160.31	82.971	37.32	1.7317e-06	79.132	174.899	56.889	50.905	5.539	55.957	122.607	5.714	10.775	187.458	246.625	9.920	14.445	15.707	19.796	40.318	17.807	-8191	255	
2699.942	1	1	0	0	0.12141	0.096627	0.13451	0.19686	0.15061	0.27169	0.083609	0.13078	0.19686	0.1771	0.3071	0.079259	0.0068675	0.099427	0.14848	0.06701	-3.6792	-3.8042	-3.4521	-4.3167	-3.6354	-3.8667	-4.3083	-3.4583	-4.1583	-3.9167	-3.575	-4.3521	-3.7375	-3.925	-4.2479	-3.6354	166.772	18.199	246.787	285.352	98.790	1.608	-3.301	293.778	320.833	330.290	263.431	147.228	61.380	311.155	306.662	265.404	0.00040047	0.00035153	0.00018583	795.36	3.4933e-06	3.2277e-06	1231	268.51	3.6645e-06	1.579e-06	511.91	195.61	99.051	46.097	2.2483e-06	100.29	0.0001583	0.00014859	4.0529e-05	683.83	1.591e-06	1.5744e-06	1064.5	231.3	1.5896e-06	1.598e-06	423.98	162.8	84.042	38.18	1.7018e-06	80.648	187.090	118.388	81.386	5.459	132.179	20.692	5.474	10.897	188.925	220.226	10.364	14.747	15.575	19.863	195.495	17.934	-8191	255	
2700.038	1	1	0	0	0.11618	0.18987	0.04083	0.072089	0.2375	0.11802	0.11434	0.28187	0.1685	0.10747	0.18266	0.32322	0.14901	0.099381	0.36286	0.21725	-3.6688	-3.8646	-3.5312	-4.3313	-3.6562	-3.7188	-4.4125	-3.5583	-4.075	-4.0354	-3.4917	-4.2917	-3.6208	-3.6958	-4.0563	-3.6188	46.667	294.530	21.024	87.687	186.224	45.620	303.733	267.312	247.660	351.092	32.452	296.251	293.952	283.857	51.427	258.900	0.00041456	5.3445e-05	0.00017206	804.51	3.3495e-06	2.7882e-06	1256	272.2	5.8026e-06	3.2002e-06	518.74	197.86	99.394	46.161	6.68e-06	100.38	0.00016565	0.00015693	4.399e-05	691.35	1.7911e-06	1.7726e-06	1081.2	236.26	1.7807e-06	1.7798e-06	429.45	164.8	84.843	38.393	1.7798e-06	81.097	184.117	75.247	105.309	5.783	9.842	76.523	5.911	11.279	184.635	280.338	9.743	14.441	15.589	19.207	178.485	17.603	-8191	255	
2700.157	1	1	0	0	0.14963	0.06471	0.21311	0.083299	0.29698	0.20736	0.093171	0.043596	0.15113	0.05463	0.13351	0.26016	0.27596	0.36685	0.19447	0.18834	-3.6104	-4.0625	-3.4417	-4.0979	-3.6937	-3.6042	-4.4	-3.5646	-4.0271	-4.125	-3.45	-4.2771	-3.7438	-3.5938	-4.1854	-3.6083	108.040	33.722	298.955	11.874	93.554	14.095	166.272	285.467	271.347	33.539	245.041	343.391	30.505	316.810	333.264	313.410	0.00047728	0.00091359	0.0001834	796.37	4.4986e-06	2.9308e-06	1242.2	270.55	6.0736e-06	6.8434e-06	505.22	192.63	97.252	44.862	5.292e-06	97.85	0.00016799	0.00016469	4.6325e-05	689.68	1.8434e-06	1.8684e-06	1072.4	233.96	1.9294e-06	1.9739e-06	422.54	161.03	83.28	37.505	1.9097e-06	79.049	170.732	37.311	110.860	5.245	192.894	204.776	5.801	11.437	167.335	130.904	10.819	14.660	15.388	19.673	102.427	17.780	-8191	255	
2700.253	1	1	0	0	0.044496	0.29129	0.30885	0.12936	0.072431	0.039905	0.35182	0.35875	0.029513	0.23476	0.29648	0.22403	0.14049	0.1948	0.098303	0.21979	-3.5542	-4.1667	-3.4604	-4.1562	-3.7354	-3.6396	-4.3917	-3.5708	-3.7875	-4.1375	-3.5062	-4.2167	-3.9792	-3.4771	-4.2771	-3.5604	227.114	226.075	236.306	42.072	315.327	351.851	341.758	0.421	173.511	-3.478	293.975	246.954	3.206	34.004	44.685	234.251	0.00042318	0.00022348	0.00014646	794.66	8.2791e-06	6.3915e-06	1238.7	266.32	1.4797e-06	4.6741e-06	511.13	194.99	98.324	45.609	4.3773e-06	99.678	0.00017247	0.00016058	4.4869e-05	686.61	1.7473e-06	1.723e-06	1066.2	230.5	1.7035e-06	1.6701e-06	421.87	161.98	83.352	37.714	1.6482e-06	79.836	155.731	60.207	324.024	5.851	92.486	88.139	5.629	11.641	94.975	271.901	10.373	15.206	16.218	19.363	174.374	18.281	-8191	255	
2700.350	1	1	0	0	0.081044	0.29014	0.19094	0.18145	0.21921	0.30207	0.19184	0.10472	0.10315	0.020341	0.14254	0.25663	0.16111	0.20174	0.18929	0.28117	-3.3417	-4.2333	-3.4042	-4.2042	-3.7917	-3.5	-4.2625	-3.6813	-3.5958	-4.2625	-3.4917	-3.9437	-4.2562	-3.4417	-4.2708	-3.825	34.060	347.909	267.520	240.522	51.292	90.376	316.060	240.562	265.086	43.295	349.850	344.319	257.775	24.945	332.911	250.623	0.00050637	0.000734	0.0001687	799.4	5.3806e-06	5.1382e-06	1247.2	267.22	2.3804e-06	3.9416e-06	508.77	194.16	98.259	45.204	2.8541e-06	99.816	0.00015474	0.0001479	4.1915e-05	689.59	1.6714e-06	1.6725e-06	1073.1	230.96	1.623e-06	1.6392e-06	419.43	161.07	82.918	37.488	1.6794e-06	80.031	178.504	67.657	153.517	6.439	83.545	89.126	5.961	10.988	338.992	153.961	10.204	14.908	15.660	19.690	30.928	18.001	-8191	255	
2700.470	1	1	0	0	0.16762	0.20536	0.17901	0.21006	0.067506	0.093305	0.24544	0.19408	0.16166	0.11128	0.090599	0.10283	0.053336	0.1237	0.13447	0.1633	-3.3333	-4.3812	-3.5042	-4.025	-4.0146	-3.4104	-4.4583	-3.8292	-3.6604	-4.1771	-3.6625	-4.0312	-4.2625	-3.5542	-4.2271	-3.9271	5.810	-4.781	157.857	85.831	324.628	8.544	331.823	3.321	348.649	279.508	351.523	269.075	336.256	176.845	327.319	311.098	0.00045537	0.0004817	0.00024883	813.26	5.1782e-06	3.7127e-06	1259	272.72	7.2047e-07	3.2647e-06	517.8	196.88	99.923	45.602	9.2261e-06	99.899	0.00015414	0.00014676	4.0429e-05	696.91	1.6262e-06	1.6729e-06	1085	235.2	1.7579e-06	1.7181e-06	428.81	163.58	84.778	37.92	1.6797e-06	79.981	189.973	124.295	111.318	5.479	106.870	180.666	5.636	11.442	280.271	120.178	9.926	15.004	15.566	19.512	152.731	17.706	-8191	255	
2700.542	1	1	0	0	0.21637	0.12563	0.14269	0.047945	0.041752	0.21717	0.13725	0.2252	0.11841	0.18012	0.10653	0.2003	0.22928	0.061141	0.3093	0.1577	-3.1063	-4.4146	-3.5854	-3.9771	-4.3104	-3.5312	-4.4375	-3.8979	-3.5771	-4.1958	-3.6042	-4.0042	-4.275	-3.5104	-4.1354	-4.3271	28.192	325.602	145.844	272.155	265.808	205.451	244.758	307.292	335.204	349.257	168.640	17.077	37.295	312.092	102.534	266.201	0.00036044	0.00057055	0.00014645	809.52	2.8736e-06	6.36e-06	1255.3	274.67	1.5989e-06	1.8064e-06	520.46	196.55	100.31	45.508	5.2021e-06	99.904	0.00014941	0.0001379	3.7426e-05	692.24	1.4134e-06	1.4267e-06	1078.2	235.78	1.4443e-06	1.4611e-06	427	163.16	84.795	37.702	1.4356e-06	80.005	176.570	76.655	103.345	5.360	114.758	64.725	5.349	10.521	147.600	187.273	9.712	14.262	15.876	19.376	140.939	17.542	-8191	255	
2700.638	1	1	0	0	0.14745	0.18668	0.20396	0.22305	0.13719	0.10928	0.13278	0.024938	0.16215	0.051098	0.036593	0.12962	0.34582	0.07895	0.22646	0.19264	-3.1167	-4.1896	-3.6771	-3.75	-4.2833	-3.5083	-4.1479	-4.3187	-3.5042	-4.2937	-3.9417	-3.7271	-4.3854	-3.6937	-3.9729	-4.225	104.366	159.396	14.630	36.283	334.739	110.365	348.737	104.311	252.762	313.184	16.965	-7.148	282.625	315.101	316.016	245.629	0.00044351	0.00011865	0.00018226	810.74	8.4447e-06	1.7932e-06	1251.7	273.06	3.3734e-06	4.3649e-06	517.08	196.18	99.518	45.358	3.8293e-06	99.182	0.0001375	0.00012917	3.6069e-05	691.95	1.4236e-06	1.4092e-06	1077.9	235.21	1.4792e-06	1.4684e-06	426.53	162.67	84.284	37.724	1.632e-06	79.704	160.834	140.774	66.476	6.032	142.133	101.755	5.805	10.616	218.393	218.764	9.906	14.516	15.815	19.581	120.173	17.721	-8191	255	
2700.759	1	1	0	0	0.21142	0.16705	0.080946	0.19767	0.060845	0.16121	0.15061	0.098533	0.091894	0.12464	0.044408	0.018513	0.10207	0.24692	0.19838	0.18573	-2.9604	-4.3146	-3.825	-3.6667	-4.2917	-3.5604	-4.0104	-4.1229	-3.4333	-4.2083	-3.8792	-3.5187	-4.375	-3.6792	-3.7958	-4.2229	314.845	96.694	-6.127	223.232	260.262	291.108	261.173	213.398	116.993	303.503	269.062	339.233	264.690	51.656	236.348	74.078	0.00038338	0.0011367	0.00020768	810.21	8.2654e-06	4.7732e-06	1255.4	272.16	5.7815e-07	2.873e-06	516.03	193.64	97.456	45.105	1.9628e-06	98.083	0.00015875	0.00015127	4.2626e-05	695.46	1.6757e-06	1.7116e-06	1078.7	234.37	1.7525e-06	1.7256e-06	424.51	161.76	83.271	37.34	1.6693e-06	79.017	175.860	50.403	90.051	6.048	151.764	139.916	5.684	10.911	182.959	144.337	9.664	14.993	15.910	19.888	216.883	18.338	-8191	255	
2700.855	1	1	0	0	0.056044	0.1045	0.18884	0.083212	0.0050101	0.086991	0.22347	0.089561	0.16931	0.085678	0.093648	0.1391	0.16158	0.087416	0.1824	0.27604	-3.0312	-4.1208	-3.9146	-3.6604	-4.3604	-3.6937	-3.9583	-4.2083	-3.4146	-4.1146	-4.3125	-3.5896	-4.1562	-3.7313	-3.7958	-4.2667	198.326	172.495	39.296	78.498	211.733	104.565	273.228	239.713	307.718	5.332	296.223	240.960	219.800	297.271	190.667	239.985	0.00044856	0.00039333	0.00025951	802.1	4.4004e-06	1.7932e-06	1247.8	269.43	2.2193e-06	3.6671e-06	505.8	191.85	97.051	44.166	7.0265e-06	96.555	0.00015225	0.00014277	3.9795e-05	687.02	1.529e-06	1.5313e-06	1070.5	231.69	1.6322e-06	1.6618e-06	418.57	159.07	82.209	36.7	1.5994e-06	77.438	186.230	129.903	114.432	6.135	121.608	213.166	5.976	11.054	181.170	29.981	10.359	15.151	15.809	19.325	220.571	18.013	-8191	255	
2700.949	1	1	0	0	0.032203	0.12553	0.22505	0.11482	0.068133	0.021381	0.099154	0.37122	0.21597	0.17104	0.2489	0.20833	0.16678	0.078684	0.088184	0.079105	-2.9625	-4.1146	-4.0563	-3.5312	-4.2875	-3.6875	-3.7521	-4.4479	-3.7	-4.0521	-4.2	-3.5625	-4.1875	-3.8729	-3.5542	-4.3542	306.140	3.036	56.962	287.431	129.795	210.780	331.318	330.794	89.335	277.821	310.858	285.216	287.655	32.137	214.952	200.314	0.00043048	0.00015975	0.00025773	790.57	4.0773e-06	4.6924e-06	1225.7	265.07	3.2094e-06	5.9679e-06	498.92	189.26	96.375	43.993	8.4426e-06	96.401	0.0001505	0.00014617	3.972e-05	681.6	1.6188e-06	1.6117e-06	1056.9	229.19	1.643e-06	1.6303e-06	413.57	157.05	81.654	36.489	1.659e-06	77.575	178.141	4.359	29.321	6.055	93.271	51.043	5.882	11.342	132.986	57.989	10.046	15.145	16.393	20.105	187.694	18.488	-8191	255	
2701.045	1	1	0	0	0.13994	0.083993	0.070778	0.17428	0.23644	0.055653	0.055553	0.060192	0.21873	0.05518	0.081139	0.323	0.069186	0.066618	0.21602	0.34669	-3.1146	-3.8792	-4.1479	-3.6688	-4.2375	-3.5979	-3.7708	-4.2083	-3.6958	-3.8208	-4.3375	-3.5417	-4.1375	-3.8167	-3.5396	-4.3708	196.671	4.010	292.664	315.953	112.930	250.791	221.057	142.443	156.333	92.746	71.631	291.761	60.928	195.501	66.905	245.167	0.0003294	0.00022716	0.00011091	788.21	6.2527e-06	2.5943e-06	1224.6	263.71	1.8567e-06	2.8639e-06	496.47	187.71	94.789	43.429	7.2151e-06	96.311	0.00015447	0.00014756	4.1146e-05	680.41	1.6507e-06	1.6728e-06	1055.1	226.58	1.6191e-06	1.583e-06	409.32	155.65	80.292	36.058	1.5198e-06	77.128	189.753	289.404	124.519	6.153	113.587	130.123	6.489	11.272	171.336	214.795	10.270	15.280	16.323	20.400	96.652	18.488	-8191	255	
2701.166	1	1	0	0	0.05877	0.068336	0.15995	0.053464	0.23802	0.091541	0.061787	0.15162	0.097162	0.11546	0.13369	0.15061	0.12077	0.19624	0.20181	0.03332	-3.3104	-3.6917	-4.3063	-3.575	-4.0833	-3.9854	-3.5667	-4.1687	-3.6104	-3.6333	-4.2604	-3.6063	-3.9729	-4.0625	-3.5979	-4.5458	207.173	143.699	60.491	297.876	315.321	257.326	283.698	323.965	144.797	258.392	0.624	32.272	293.108	276.466	98.328	298.084	0.00029441	0.00029876	0.00022719	786.84	6.0096e-06	4.7917e-06	1232.4	263.09	1.6566e-06	7.2651e-06	497.24	188.82	95.247	43.826	6.3606e-06	96.496	0.00014284	0.00013669	3.778e-05	675.27	1.4894e-06	1.4932e-06	1058.4	226.9	1.5458e-06	1.5219e-06	411.77	157.24	81.222	36.417	1.5327e-06	77.519	188.908	21.783	134.288	6.297	163.826	158.644	6.516	11.613	251.014	126.715	10.587	15.251	16.790	20.042	62.570	18.413	-8191	255	
2701.238	1	1	0	0	0.19288	0.065426	0.061587	0.16059	0.077436	0.15794	0.24833	0.23337	0.074935	0.04035	0.12906	0.24738	0.23159	0.39069	0.10656	0.073094	-3.3333	-3.5938	-4.2438	-3.7021	-3.9604	-4.0292	-3.5458	-4.2937	-3.7646	-3.6333	-4.3271	-3.3937	-3.9562	-4.3042	-3.4292	-4.3875	43.965	245.373	47.429	12.956	118.231	312.308	272.093	280.335	-3.976	244.706	78.848	316.851	159.434	276.389	185.696	272.944	0.00042226	0.00058686	0.00019832	788.96	1.6627e-06	5.3782e-06	1226.6	263.77	3.897e-06	2.8199e-06	495.33	188.42	95.195	44.029	3.9348e-06	96.619	0.00014527	0.00013678	3.8361e-05	674.66	1.5141e-06	1.5039e-06	1055	226.38	1.5801e-06	1.5948e-06	411.77	157.33	81.155	36.595	1.6993e-06	77.6	163.455	61.530	125.555	5.920	257.215	109.256	5.936	11.428	144.980	87.743	10.596	14.995	16.463	19.513	25.525	18.332	-8191	255	
#DATA ENDS
