BOXY.EXE: ISS Imagent and Oximeter Data Acquisition Program Version 0.80
Ascii Record File

#ACQ INFORMATION
2  Detector Channels 
16  External MUX Channels 
1  Auxiliary Channels 
5000  Waveform (CCF) Frequency (Hz)
1  Waveforms Skipped 
30  Waveforms Averaged 
1  Cycles Averaged 
16  Acquisitions per Waveform 
10.0806  Updata Rate (Hz) 

#FILE INFORMATION
TRUE -- External MUX Channel results are PARSED.
FALSE -- AC DC and Phase are NOT grouped.
TRUE -- Companion Program Settings File CREATED.
FALSE -- AC data not excluded
FALSE -- DC data not excluded
FALSE -- Phase data not excluded
FALSE -- Auxillary Chn. data not excluded
Tab delimiters

#CALIBRATION STATE
TRUE -- Waveform Calibration Values APPLIED.


#AUX CALIBRATION VALUES
Val Type	aux-1	

Term	1.0000e+00	
Factor	0.0000e+00	


#WF CALIBRATION VALUES
A = Detector Channel
Val Type	A-AC1	A-AC2	A-AC3	A-AC4	A-AC5	A-AC6	A-AC7	A-AC8	A-AC9	A-AC10	A-AC11	A-AC12	A-AC13	A-AC14	A-AC15	A-AC16	A-DC1	A-DC2	A-DC3	A-DC4	A-DC5	A-DC6	A-DC7	A-DC8	A-DC9	A-DC10	A-DC11	A-DC12	A-DC13	A-DC14	A-DC15	A-DC16	A-Ph1	A-Ph2	A-Ph3	A-Ph4	A-Ph5	A-Ph6	A-Ph7	A-Ph8	A-Ph9	A-Ph10	A-Ph11	A-Ph12	A-Ph13	A-Ph14	A-Ph15	A-Ph16	

Term	0.00000e+00	0.00000e+00	0.00000e+00	0.00000e+00	0.00000e+00	0.00000e+00	0.00000e+00	0.00000e+00	0.00000e+00	0.00000e+00	0.00000e+00	0.00000e+00	0.00000e+00	0.00000e+00	0.00000e+00	0.00000e+00	0.00000e+00	0.00000e+00	0.00000e+00	0.00000e+00	0.00000e+00	0.00000e+00	0.00000e+00	0.00000e+00	0.00000e+00	0.00000e+00	0.00000e+00	0.00000e+00	0.00000e+00	0.00000e+00	0.00000e+00	0.00000e+00	0.00000e+00	0.00000e+00	0.00000e+00	0.00000e+00	0.00000e+00	0.00000e+00	0.00000e+00	0.00000e+00	0.00000e+00	0.00000e+00	0.00000e+00	0.00000e+00	0.00000e+00	0.00000e+00	0.00000e+00	0.00000e+00	
Factor	1.00000e+00	1.00000e+00	1.00000e+00	1.00000e+00	1.00000e+00	1.00000e+00	1.00000e+00	1.00000e+00	1.00000e+00	1.00000e+00	1.00000e+00	1.00000e+00	1.00000e+00	1.00000e+00	1.00000e+00	1.00000e+00	1.00000e+00	1.00000e+00	1.00000e+00	1.00000e+00	1.00000e+00	1.00000e+00	1.00000e+00	1.00000e+00	1.00000e+00	1.00000e+00	1.00000e+00	1.00000e+00	1.00000e+00	1.00000e+00	1.00000e+00	1.00000e+00	X	X	X	X	X	X	X	X	X	X	X	X	X	X	X	X	

B = Detector Channel
Val Type	B-AC1	B-AC2	B-AC3	B-AC4	B-AC5	B-AC6	B-AC7	B-AC8	B-AC9	B-AC10	B-AC11	B-AC12	B-AC13	B-AC14	B-AC15	B-AC16	B-DC1	B-DC2	B-DC3	B-DC4	B-DC5	B-DC6	B-DC7	B-DC8	B-DC9	B-DC10	B-DC11	B-DC12	B-DC13	B-DC14	B-DC15	B-DC16	B-Ph1	B-Ph2	B-Ph3	B-Ph4	B-Ph5	B-Ph6	B-Ph7	B-Ph8	B-Ph9	B-Ph10	B-Ph11	B-Ph12	B-Ph13	B-Ph14	B-Ph15	B-Ph16	

Term	0.00000e+00	0.00000e+00	0.00000e+00	0.00000e+00	0.00000e+00	0.00000e+00	0.00000e+00	0.00000e+00	0.00000e+00	0.00000e+00	0.00000e+00	0.00000e+00	0.00000e+00	0.00000e+00	0.00000e+00	0.00000e+00	0.00000e+00	0.00000e+00	0.00000e+00	0.00000e+00	0.00000e+00	0.00000e+00	0.00000e+00	0.00000e+00	0.00000e+00	0.00000e+00	0.00000e+00	0.00000e+00	0.00000e+00	0.00000e+00	0.00000e+00	0.00000e+00	-2.03808e+02	-1.26914e+02	-1.21665e+02	-1.82284e+02	-9.97973e+01	-6.70612e+01	-1.58386e+02	-1.62015e+02	-9.23245e+01	-5.47240e+01	-1.79153e+02	-1.73355e+02	-1.82277e+02	-1.78265e+02	-9.35483e+01	-1.51023e+02	
Factor	4.16203e-05	1.29908e-04	3.88856e-05	1.52783e-01	1.56517e-06	1.40541e-06	1.69293e-01	4.87466e-02	1.56402e-06	1.54847e-06	1.08150e+00	2.87519e-02	2.79038e-02	8.23139e-03	1.38566e-06	1.17084e-02	2.55365e-06	2.72466e-06	7.60423e-07	8.14313e-02	2.95165e-08	3.00081e-08	8.46997e-02	2.60561e-02	2.96002e-08	2.99262e-08	4.46141e-01	1.47748e-02	1.49295e-02	4.41557e-03	2.97076e-08	6.06583e-03	X	X	X	X	X	X	X	X	X	X	X	X	X	X	X	X	



#DISTANCE SETTINGS
A = Detector Channel
A-1	A-2	A-3	A-4	A-5	A-6	A-7	A-8	A-9	A-10	A-11	A-12	A-13	A-14	A-15	A-16	

2.5000e+00	3.0000e+00	2.5000e+00	3.0000e+00	2.0000e+00	3.0000e+00	1.5000e+00	3.0000e+00	3.0000e+00	3.0000e+00	3.0000e+00	3.0000e+00	3.0000e+00	3.0000e+00	1.5000e+00	3.0000e+00	

B = Detector Channel
B-1	B-2	B-3	B-4	B-5	B-6	B-7	B-8	B-9	B-10	B-11	B-12	B-13	B-14	B-15	B-16	

1.0000e+01	1.0000e+01	1.0000e+01	1.4400e+00	1.0000e+01	1.0000e+01	1.5100e+00	1.9400e+00	1.0000e+01	1.0000e+01	1.9900e+00	2.4900e+00	2.4100e+00	2.9000e+00	1.0000e+01	2.9800e+00	




#DATA BEGINS
time	group	step	mark	flag	A-AC1	A-AC2	A-AC3	A-AC4	A-AC5	A-AC6	A-AC7	A-AC8	A-AC9	A-AC10	A-AC11	A-AC12	A-AC13	A-AC14	A-AC15	A-AC16	A-DC1	A-DC2	A-DC3	A-DC4	A-DC5	A-DC6	A-DC7	A-DC8	A-DC9	A-DC10	A-DC11	A-DC12	A-DC13	A-DC14	A-DC15	A-DC16	A-Ph1	A-Ph2	A-Ph3	A-Ph4	A-Ph5	A-Ph6	A-Ph7	A-Ph8	A-Ph9	A-Ph10	A-Ph11	A-Ph12	A-Ph13	A-Ph14	A-Ph15	A-Ph16	B-AC1	B-AC2	B-AC3	B-AC4	B-AC5	B-AC6	B-AC7	B-AC8	B-AC9	B-AC10	B-AC11	B-AC12	B-AC13	B-AC14	B-AC15	B-AC16	B-DC1	B-DC2	B-DC3	B-DC4	B-DC5	B-DC6	B-DC7	B-DC8	B-DC9	B-DC10	B-DC11	B-DC12	B-DC13	B-DC14	B-DC15	B-DC16	B-Ph1	B-Ph2	B-Ph3	B-Ph4	B-Ph5	B-Ph6	B-Ph7	B-Ph8	B-Ph9	B-Ph10	B-Ph11	B-Ph12	B-Ph13	B-Ph14	B-Ph15	B-Ph16	aux-1	digaux	

1466.452	1	1	0	256	0.098366	0.21814	0.28269	0.20661	0.10231	0.097889	0.22923	0.17076	0.030977	0.22089	0.30543	0.30124	0.13224	0.10986	0.36367	0.21069	-0.925	-0.42917	-1.2146	-1.0271	-0.53333	-1.5167	-0.89792	-0.79375	-1.5521	-0.675	-1.1562	-1.0875	-0.56875	-1.4854	-0.81667	-0.55417	383.312	304.886	349.338	295.607	342.383	303.052	150.921	296.259	276.983	357.287	419.598	359.192	467.915	304.855	330.709	337.945	6.5869e-06	2.9785e-05	7.8513e-06	0.029552	3.6848e-07	2.756e-07	0.013139	0.0085148	1.7153e-07	6.4049e-08	0.031779	0.0024244	0.0017498	0.00045882	7.6246e-08	0.0043948	-2.559e-06	-8.7416e-07	-8.6498e-07	-0.089066	-7.4406e-09	-3.8823e-08	-0.052408	-0.011725	-3.7e-08	-1.6958e-08	-0.49819	-0.014159	-0.0051942	-0.0055563	-2.1971e-08	-0.0027296	233.263	241.758	184.652	295.540	205.857	270.935	129.682	130.960	355.647	118.582	129.093	246.319	194.806	427.353	452.777	298.670	-8191	255	
1466.548	1	1	0	0	0.35361	0.082752	0.23606	0.31861	0.075479	0.018553	0.13977	0.12052	0.17831	0.056187	0.41924	0.28364	0.31826	0.22389	0.10638	0.2724	-1.0688	-0.68542	-1.0479	-1.4042	-0.62292	-1.4188	-0.98333	-0.63542	-1.4167	-0.50208	-0.93958	-1.4542	-0.38333	-1.2875	-1.0146	-0.55833	218.739	305.784	276.674	337.831	377.775	304.492	182.330	123.012	168.232	427.577	235.984	394.157	388.996	206.340	314.087	228.801	5.5828e-06	1.1516e-05	7.2981e-06	0.030273	2.5663e-07	8.1016e-08	0.04431	0.0081219	2.8371e-07	1.6218e-07	0.25238	0.0069923	0.014458	0.0023732	9.4278e-08	0.0019286	-2.8729e-06	-1.2431e-06	-6.4478e-07	-0.1174	-7.3176e-09	-3.9386e-08	-0.094228	-0.014494	-3.9529e-08	-1.7021e-08	-0.39781	-0.01813	-0.0046966	-0.0049031	-2.5066e-08	-0.0036395	134.430	170.893	431.700	197.726	287.432	242.987	136.112	119.552	405.779	355.617	254.128	164.343	127.541	408.446	125.970	323.240	-8191	255	
1466.644	1	1	0	0	0.20957	0.12697	0.14727	0.13744	0.10765	0.32561	0.038117	0.16829	0.19265	0.30743	0.2484	0.23804	0.20479	0.12388	0.21509	0.30897	-0.93958	-0.6125	-0.88542	-1.375	-0.39583	-1.2792	-1.1333	-0.58542	-1.4271	-0.65417	-0.88542	-1.2313	-0.55833	-1.0438	-1.0083	-0.47292	251.965	387.033	159.120	201.450	48.643	217.608	296.350	141.657	334.084	234.638	190.653	101.540	179.614	109.787	120.099	366.934	2.8503e-06	2.8435e-05	5.7084e-07	0.012849	2.1583e-07	2.7054e-08	0.039565	0.017177	1.8131e-07	1.3146e-07	0.14556	0.0044564	0.0042471	0.0016788	8.8347e-08	0.0015657	-2.3249e-06	-1.9129e-06	-4.7843e-07	-0.11672	-7.3176e-09	-3.9198e-08	-0.08964	-0.0088482	-3.8295e-08	-1.7395e-08	-0.19983	-0.020931	-0.0043544	-0.0039832	-2.717e-08	-0.0012005	350.723	65.000	133.368	83.975	84.168	309.652	401.462	60.362	178.407	45.701	91.589	189.049	263.326	70.289	316.669	63.550	-8191	255	
1466.740	1	1	0	0	0.24096	0.15218	0.17737	0.20021	0.17895	0.25286	0.048007	0.2029	0.11698	0.10374	0.084338	0.082967	0.1532	0.17951	0.2605	0.22301	-0.75208	-0.76875	-0.7	-1.4292	-0.62292	-1.1292	-1.2854	-0.53333	-1.5021	-0.975	-0.78333	-1.6042	-0.43542	-0.92708	-1.1917	-0.43542	57.974	168.879	125.008	172.601	175.409	-21.748	-48.454	20.299	137.022	208.039	198.082	67.865	51.248	135.004	144.622	57.812	5.0879e-06	8.7532e-06	1.1759e-05	0.016823	3.6215e-07	2.7337e-07	0.017364	0.015875	1.6075e-07	1.2839e-07	0.17633	0.0088186	0.0058122	0.0031303	2.3565e-07	0.0013457	-2.5643e-06	-1.737e-06	-5.2596e-07	-0.10925	-1.1192e-08	-2.9383e-08	-0.1124	-0.0071111	-3.9097e-08	-2.7308e-08	-0.14035	-0.019053	-0.0072781	-0.0040292	-3.6392e-08	-0.0018956	147.827	234.278	96.566	196.564	137.711	235.136	70.538	-67.574	20.080	127.837	-76.555	221.866	227.518	102.175	45.962	145.536	-8191	255	
1466.837	1	1	0	0	0.033836	0.27617	0.11482	0.16414	0.16958	0.14361	0.28371	0.27284	0.07936	0.14833	0.12893	0.451	0.24557	0.27821	0.28068	0.081676	-1.1229	-0.86667	-0.57917	-1.4688	-0.8875	-1.1833	-1.4771	-0.55208	-1.2979	-1.1167	-0.71667	-1.4646	-0.825	-0.99375	-1.3937	-0.73125	61.338	359.289	277.519	236.927	300.354	159.046	329.477	268.676	195.667	192.378	275.606	238.055	55.284	89.485	211.853	103.122	9.9793e-06	2.1573e-05	1.0472e-05	0.03843	1.452e-07	1.4683e-07	0.047107	0.010219	4.0518e-07	1.0897e-07	0.093098	0.0046653	0.0032671	0.0026149	1.8837e-07	0.00083595	-2.6547e-06	-2.4465e-06	-3.2001e-07	-0.10179	-1.7525e-08	-3.0196e-08	-0.11946	-0.012214	-3.5952e-08	-2.6871e-08	-0.17939	-0.021208	-0.010793	-0.0038636	-4.2086e-08	-0.0031214	349.073	263.400	218.352	150.681	55.578	27.982	290.610	20.946	102.984	60.082	350.184	135.473	28.517	100.976	281.476	200.199	-8191	255	
1466.957	1	1	0	0	0.36464	0.13079	0.11107	0.062207	0.13655	0.2409	0.2237	0.064324	0.1681	0.17865	0.16515	0.11604	0.11592	0.30633	0.079024	0.13296	-0.87917	-1.1021	-0.62083	-1.3646	-0.73125	-0.93333	-1.3646	-0.54583	-1.0292	-1.0021	-0.67917	-1.4833	-0.76458	-0.89583	-1.4646	-0.51667	365.824	115.226	320.574	293.690	345.412	65.638	328.497	160.554	17.812	9.477	126.035	193.769	21.801	299.871	223.696	299.843	1.1072e-05	2.3112e-05	6.386e-06	0.041852	1.4974e-07	4.0065e-07	0.02374	0.0047885	2.3495e-07	2.1077e-07	0.56591	0.0069338	0.0033598	0.0016045	1.3827e-07	0.0018149	-1.7982e-06	-3.0255e-06	-3.0575e-07	-0.10976	-1.7402e-08	-2.0255e-08	-0.11734	-0.0063512	-3.0094e-08	-2.8866e-08	-0.19798	-0.021485	-0.0079624	-0.0025849	-4.2271e-08	-0.0021862	66.094	36.121	119.095	25.488	17.763	39.048	257.216	24.235	199.557	351.130	63.005	28.016	252.157	136.640	47.502	349.820	-8191	255	
1467.052	1	1	0	0	0.20416	0.087828	0.32496	0.08207	0.053619	0.14523	0.14335	0.42445	0.27999	0.31029	0.25512	0.13171	0.25072	0.018797	0.12344	0.33698	-0.78125	-1.2708	-0.48958	-1.3687	-0.88125	-0.66042	-1.4396	-0.68125	-0.86875	-1.2417	-0.71875	-1.3937	-0.71458	-0.55625	-1.2771	-0.61875	423.114	296.377	351.837	223.725	361.054	247.247	272.391	423.295	177.510	333.338	194.316	411.224	276.176	182.388	386.207	156.470	9.7252e-06	2.4341e-05	1.5948e-05	0.019701	9.7586e-08	3.1675e-07	0.019458	0.021803	4.385e-07	3.0307e-07	0.20448	0.0029124	0.0035494	0.0010612	3.1048e-07	0.00038624	-1.0374e-06	-3.1504e-06	-8.7132e-08	-0.0967	-3.13e-08	-1.5504e-08	-0.1244	-0.011128	-2.368e-08	-3.5974e-08	-0.16544	-0.020254	-0.011912	-0.0028701	-3.8187e-08	-0.0036016	348.755	408.583	424.991	433.683	377.636	417.519	425.180	174.326	189.847	263.537	259.591	476.395	324.913	508.688	421.876	174.319	-8191	255	
1467.148	1	1	0	0	0.18624	0.093746	0.15125	0.11729	0.26525	0.064925	0.073087	0.13765	0.2589	0.06645	0.087283	0.20446	0.29471	0.061897	0.25719	0.09888	-0.59583	-1.325	-0.35625	-1.1271	-1.0958	-0.56458	-1.5521	-0.5875	-0.82917	-1.5292	-0.79167	-0.91458	-1.1104	-0.64583	-1.4042	-0.7875	57.709	-4.720	167.055	-129.820	-109.235	111.034	-99.194	70.663	-68.082	186.324	43.324	6.836	158.303	83.433	-89.291	41.650	7.7456e-06	2.7108e-05	1.2072e-06	0.033181	2.4392e-07	8.2657e-08	0.027219	0.0084983	1.8974e-07	2.3031e-07	0.25255	0.005308	0.0036348	0.0021687	4.1036e-07	0.0023611	-2.8729e-07	-3.5137e-06	-3.5011e-07	-0.097378	-3.2284e-08	-1.1691e-08	-0.12193	-0.012539	-2.3804e-08	-3.8281e-08	-0.10317	-0.015052	-0.015956	-0.0012971	-3.6949e-08	-0.003867	2.166	-147.368	178.216	20.086	141.906	-119.939	-142.525	-137.598	176.709	140.122	-110.706	27.888	198.702	13.150	113.706	116.599	-8191	255	
1467.268	1	1	0	0	0.24836	0.13323	0.30684	0.066691	0.040285	0.2278	0.070048	0.029327	0.077891	0.2959	0.171	0.24161	0.10293	0.1941	0.18533	0.35157	-0.62292	-1.4667	-0.40625	-1.0833	-1.1938	-0.75625	-1.375	-0.80208	-0.76875	-1.5312	-0.86042	-1.1688	-1.2437	-0.59167	-1.4688	-1.0104	291.301	103.611	383.065	118.921	284.905	184.590	182.643	288.520	320.936	208.319	122.637	294.659	99.156	322.614	223.706	188.733	3.2685e-06	7.2344e-06	2.9554e-06	0.024958	2.9075e-07	2.9955e-07	0.036424	0.0090334	2.5472e-07	2.0348e-07	0.072386	0.0081854	0.0083801	0.00071067	1.6745e-07	0.00051197	-9.0442e-07	-3.877e-06	-4.0714e-07	-0.088217	-3.1853e-08	-6.6893e-09	-0.11629	-0.02231	-2.0967e-08	-4.2645e-08	-0.14035	-0.014036	-0.016889	-0.0014167	-4.0662e-08	-0.0059647	341.226	103.813	98.175	88.562	123.143	279.833	122.769	91.478	229.345	296.414	165.224	411.194	103.003	379.699	430.625	398.941	-8191	255	
1467.340	1	1	0	0	0.27106	0.070959	0.27569	0.2278	0.25574	0.27586	0.15376	0.15207	0.10551	0.2336	0.049098	0.14602	0.20509	0.2732	0.12562	0.33219	-0.28958	-1.5979	-0.575	-1.075	-1.3937	-0.6875	-1.3854	-1.0208	-0.6875	-1.5521	-0.81875	-0.72292	-1.3167	-0.475	-1.4271	-1.0562	239.188	10.566	280.968	109.427	243.896	123.009	283.411	279.210	122.273	273.238	-26.238	-25.514	-25.041	-31.651	-37.516	233.686	1.2586e-06	3.5934e-05	1.6141e-05	0.018602	1.4203e-07	1.3252e-07	0.032039	0.0034664	5.0832e-07	3.6283e-07	0.25218	0.0066489	0.0065988	0.00067309	3.8169e-07	0.00089648	-7.9802e-08	-3.701e-06	-3.4536e-07	-0.058359	-4.0585e-08	-9.6276e-09	-0.10287	-0.022093	-8.2017e-09	-3.9153e-08	-0.27884	-0.0080646	-0.020124	-0.001803	-3.2864e-08	-0.006584	4.152	34.072	35.386	54.106	-19.723	294.618	21.858	-43.823	194.468	72.989	173.868	81.846	177.130	72.030	38.807	218.221	-8191	255	
1467.436	1	1	0	0	0.19513	0.29548	0.089045	0.0562	0.12292	0.15485	0.27752	0.15638	0.30115	0.065512	0.12972	0.19161	0.13603	0.27628	0.16022	0.1875	-0.27708	-1.6125	-0.74167	-1.0792	-1.4396	-0.77708	-1.1833	-1.1187	-0.32917	-1.5771	-0.68333	-0.51458	-1.325	-0.40625	-1.2042	-1.1729	234.205	-22.173	157.058	239.743	221.816	-48.119	13.509	212.841	282.060	-25.029	-30.845	213.731	181.789	38.095	97.870	234.900	9.6678e-06	4.0987e-05	8.2104e-06	0.048291	4.3288e-07	1.6932e-07	0.0086927	0.010106	2.4358e-07	5.0895e-07	0.069733	0.0075279	0.011015	0.00094218	4.7646e-07	0.0031624	5.3201e-08	-4.0586e-06	-4.2457e-07	-0.066163	-3.9171e-08	-9.1275e-09	-0.086464	-0.027359	-8.0784e-09	-3.5413e-08	-0.25095	-0.010404	-0.018973	-0.00067153	-2.6861e-08	-0.0061669	140.120	280.600	231.272	99.256	187.726	249.820	26.030	-37.575	-54.501	286.422	182.380	71.344	221.838	279.995	108.469	169.296	-8191	255	
1467.557	1	1	0	0	0.0104	0.17163	0.15285	0.14483	0.19484	0.055422	0.34339	0.28023	0.058201	0.10371	0.041587	0.064405	0.18525	0.064017	0.15568	0.31346	-0.083333	-1.3271	-0.77708	-0.75833	-1.4813	-0.65833	-0.97083	-1.0958	-0.47292	-1.3042	-0.77708	-0.66667	-1.4333	-0.61042	-0.9625	-1.2417	71.179	233.304	285.078	157.596	101.521	208.060	349.560	183.154	272.612	303.732	286.494	121.734	330.201	197.003	353.176	290.908	5.68e-06	3.4511e-05	2.8577e-06	0.012009	4.2288e-07	2.732e-07	0.016328	0.016311	2.8021e-07	4.6375e-07	0.22941	0.01055	0.0062833	0.003252	3.8796e-07	0.0014366	3.2985e-07	-3.3661e-06	-5.2754e-07	-0.040546	-4.12e-08	-4.5637e-09	-0.070054	-0.03029	-2.0967e-09	-3.5974e-08	-0.29929	-0.0045556	-0.020093	-0.0019778	-2.3642e-08	-0.0076076	40.226	128.330	273.769	96.930	36.678	165.783	156.800	29.424	138.668	260.616	174.767	111.029	328.070	264.416	220.840	332.503	-8191	255	
1467.653	1	1	0	0	0.091953	0.19542	0.33957	0.13512	0.084286	0.15609	0.070511	0.39536	0.13989	0.11704	0.10296	0.208	0.03718	0.086311	0.048598	0.093677	-0.12292	-1.2021	-1.0479	-0.43542	-1.2708	-0.82708	-1.075	-1.2771	-0.45	-1.3771	-0.99583	-0.52917	-1.5771	-0.52083	-0.85208	-1.2542	298.312	-11.141	145.862	176.579	280.181	150.368	263.329	335.284	302.712	236.173	275.074	334.487	301.249	86.460	235.067	279.963	6.0404e-06	7.6885e-06	8.6496e-06	0.011056	1.727e-07	3.1621e-07	0.033646	0.016991	5.1288e-07	2.1553e-07	0.18512	0.005912	0.0046316	0.0033854	3.2792e-07	0.0042218	6.7033e-07	-2.8495e-06	-5.5131e-07	-0.015777	-3.831e-08	-1.7442e-08	-0.05329	-0.033059	-5.2417e-09	-3.6535e-08	-0.44614	-0.0048634	-0.02003	-0.0023826	-1.9186e-08	-0.0067103	107.539	192.008	92.639	224.427	106.462	330.737	163.250	-5.353	7.786	304.405	203.251	161.263	151.883	134.700	166.198	293.457	-8191	255	
1467.749	1	1	0	0	0.3177	0.12037	0.174	0.27255	0.25837	0.13026	0.09416	0.16804	0.24243	0.12819	0.35522	0.20664	0.08567	0.29153	0.069955	0.2992	-0.35625	-1.3	-1.2271	-0.49583	-1.35	-0.725	-0.73125	-1.3771	-0.47292	-1.2979	-1.0896	-0.39375	-1.3771	-0.69375	-0.625	-1.5083	284.617	323.192	357.514	191.262	146.164	364.329	255.658	401.477	304.479	397.685	209.857	238.117	285.936	196.158	309.706	290.142	1.3784e-05	1.7958e-05	2.0126e-06	0.028145	1.5766e-07	2.8327e-07	0.033354	0.0094374	5.4353e-07	1.2154e-07	0.1736	0.0050406	0.0071093	0.0022117	1.2497e-08	0.00062403	9.5762e-08	-3.0766e-06	-8.032e-07	-0.016626	-3.5051e-08	-1.4379e-08	-0.035997	-0.036478	-8.6951e-09	-3.055e-08	-0.47495	-0.0033551	-0.018475	-0.0028517	-1.702e-08	-0.0087828	304.470	470.088	262.675	399.403	261.474	261.633	478.574	151.940	457.527	200.041	380.351	455.234	353.699	330.735	427.948	277.321	-8191	255	
1467.845	1	1	0	0	0.12603	0.048744	0.10235	0.11896	0.26505	0.43246	0.23339	0.05397	0.30831	0.41661	0.24949	0.28527	0.16218	0.30834	0.16547	0.19801	-0.14375	-1.0167	-1.3042	-0.52292	-1.2542	-1.0146	-0.525	-1.1063	-0.65208	-0.88125	-1.3229	-0.5375	-1.3625	-0.98333	-0.55625	-1.3979	255.315	315.948	262.527	226.868	407.289	430.083	161.762	416.676	361.822	159.338	193.181	184.245	459.176	466.180	136.467	241.089	7.8261e-06	1.8701e-05	9.1924e-06	0.019111	3.1159e-07	3.8098e-07	0.048279	0.0014644	1.3729e-07	3.4861e-07	0.35605	0.0025479	0.0084465	0.0018095	2.3167e-07	0.0015399	-3.0857e-07	-2.5033e-06	-8.8082e-07	-0.026465	-2.7856e-08	-2.0756e-08	-0.034762	-0.036641	-1.2148e-08	-2.1572e-08	-0.5995	-0.0031089	-0.016049	-0.0037164	-7.1793e-09	-0.0073422	319.500	353.159	218.655	287.894	211.910	215.447	473.314	154.290	434.891	315.006	341.156	271.580	321.949	197.387	437.293	262.634	-8191	255	
1467.940	1	1	0	0	0.03998	0.25769	0.11404	0.098194	0.24046	0.079257	0.15992	0.08836	0.18977	0.17572	0.050299	0.04294	0.10763	0.15793	0.1571	0.2079	-0.31667	-0.86875	-1.3479	-0.47708	-1.2458	-1.0354	-0.48125	-1.5979	-0.72292	-0.98125	-1.375	-0.66458	-1.3188	-1.2938	-0.59167	-1.4604	-10.653	32.552	-161.383	77.104	140.923	-20.695	185.420	120.345	12.246	117.063	-71.547	104.188	-31.144	140.763	36.178	154.717	5.8919e-06	2.0389e-05	1.2542e-05	0.024925	4.6003e-07	1.6574e-07	0.029155	0.010808	3.7523e-08	1.0377e-07	0.075632	0.0023019	0.0014342	0.0026897	3.8083e-07	0.0027206	-4.5221e-07	-1.9356e-06	-7.8577e-07	-0.021206	-2.9148e-08	-2.3069e-08	-0.014117	-0.032407	-1.4492e-08	-2.2133e-08	-0.61159	-0.0046787	-0.015583	-0.0053079	-1.2131e-08	-0.0076202	176.909	-59.546	-44.489	91.664	-135.957	123.238	-103.738	-156.162	-90.816	-18.549	161.774	5.909	171.628	-150.094	170.954	-26.614	-8191	255	
1468.036	1	1	0	0	0.077337	0.057302	0.11342	0.24684	0.20816	0.080163	0.065943	0.23952	0.05114	0.0893	0.31909	0.052251	0.033357	0.15302	0.14146	0.21346	-0.32917	-0.67917	-1.3479	-0.63333	-1.0063	-1.2833	-0.45208	-1.4875	-0.94583	-0.77708	-1.4271	-0.79792	-1.0042	-1.0938	-0.66458	-1.1646	116.403	-87.950	-34.718	-84.121	-80.553	139.623	34.514	-108.450	-64.213	138.252	-24.512	-163.857	114.301	-37.872	-147.587	-6.045	5.821e-06	2.3943e-05	1.2705e-06	0.058538	1.3114e-07	1.5312e-07	0.038118	0.003515	2.239e-07	2.3474e-07	0.17645	0.0026004	0.0060254	0.001328	2.2268e-07	0.0016405	-7.0758e-07	-1.2261e-06	-1.0424e-06	-0.016117	-2.3367e-08	-3.7823e-08	-0.022234	-0.033493	-2.2879e-08	-1.5088e-08	-0.6469	-0.007295	-0.013934	-0.0055379	-1.2131e-08	-0.0061037	-129.744	-161.758	104.794	-33.335	112.736	177.521	29.000	-146.339	-67.463	129.081	128.726	91.474	5.318	9.444	-103.966	-112.802	-8191	255	
1468.132	1	1	0	0	0.0974	0.31757	0.18767	0.053713	0.11757	0.22233	0.089474	0.18871	0.27344	0.31044	0.1565	0.064824	0.2117	0.36709	0.13509	0.049568	-0.49375	-0.55625	-1.4271	-0.66875	-1.0771	-1.1	-0.375	-1.3042	-1.0646	-0.75833	-1.3937	-0.61667	-0.86667	-1.2021	-0.55	-1.1833	273.777	248.477	194.164	480.855	371.587	499.801	476.151	419.634	498.235	388.294	517.856	206.771	342.669	214.141	506.599	439.218	6.4351e-06	1.9794e-05	4.7589e-06	0.024527	3.0293e-07	7.8902e-08	0.026888	0.00090995	1.6904e-07	2.8431e-07	0.076017	0.0045206	0.0032214	0.00060894	1.1745e-07	0.0027076	-9.1506e-07	-7.3225e-07	-1.0741e-06	-0.031894	-2.1276e-08	-3.9511e-08	-0.018352	-0.029964	-2.5407e-08	-5.9852e-09	-0.55024	-0.0092035	-0.0089577	-0.0059794	-9.2217e-09	-0.0058889	221.970	504.923	325.393	412.214	307.558	412.551	291.036	193.655	385.493	486.544	401.794	412.352	517.999	355.236	178.222	486.306	-8191	255	
1468.230	1	1	0	0	0.14139	0.16826	0.20128	0.1624	0.30726	0.12817	0.33773	0.091411	0.27089	0.40454	0.21825	0.16548	0.16529	0.15163	0.17829	0.15589	-0.64375	-0.6875	-1.2792	-0.66458	-0.84375	-1.2604	-0.62292	-1.3	-1.1854	-0.61042	-1.4854	-0.96667	-0.57292	-1.2521	-0.55833	-1.0458	304.039	125.512	372.647	300.680	310.024	245.844	52.618	238.671	388.470	335.022	332.087	213.293	46.031	202.891	140.144	51.597	5.2853e-06	2.5903e-06	5.3283e-06	0.006246	2.793e-08	1.0955e-07	0.021777	0.014856	9.3102e-08	2.4259e-07	0.12745	0.0091063	0.0031933	0.00044814	4.6544e-07	0.0031369	-9.3634e-07	-8.3443e-07	-1.0662e-06	-0.038171	-1.4635e-08	-4.2136e-08	-0.049232	-0.026707	-3.4657e-08	-9.9131e-09	-0.54745	-0.0085571	-0.0053186	-0.0051055	-5.5702e-09	-0.0040565	165.969	329.157	322.363	303.523	294.088	60.619	172.703	57.737	398.056	293.637	328.336	187.954	145.673	160.272	295.010	104.995	-8191	255	
1468.349	1	1	0	0	0.1012	0.11818	0.23819	0.2165	0.38821	0.1799	0.14034	0.18233	0.039198	0.18619	0.061326	0.14169	0.1976	0.081571	0.25156	0.12385	-0.89167	-0.49583	-1.3479	-1.0417	-0.5875	-1.4542	-0.74375	-1.0333	-1.2208	-0.47708	-1.225	-0.88333	-0.62917	-1.4854	-0.73542	-0.93125	276.825	-14.663	91.455	230.891	209.437	34.343	-12.942	165.855	-2.141	271.466	216.619	6.712	129.643	104.767	-1.848	83.405	5.1486e-07	3.4719e-05	4.0951e-06	0.063142	1.7797e-07	2.4466e-07	0.023351	0.012301	2.8303e-07	2.6867e-07	0.43116	0.0091919	0.001829	0.0007553	1.3774e-07	0.00051567	-1.7716e-06	-9.366e-07	-1.0709e-06	-0.056323	-8.9779e-09	-3.9886e-08	-0.028939	-0.020085	-3.1265e-08	-7.5439e-09	-0.46659	-0.012589	-0.0067183	-0.0064302	-1.5039e-08	-0.0038922	183.344	212.566	-11.907	249.917	187.685	157.429	234.860	-16.966	261.503	100.644	50.296	307.694	165.859	182.498	97.931	27.690	-8191	255	
1468.445	1	1	0	0	0.27953	0.15365	0.14501	0.068989	0.29819	0.34884	0.3418	0.14489	0.12797	0.19486	0.15478	0.2283	0.28981	0.17083	0.03469	0.026155	-0.97917	-0.42917	-1.2812	-1.0958	-0.525	-1.5688	-0.59583	-0.81667	-1.3875	-0.50208	-1.2708	-0.9625	-0.67083	-1.3458	-0.96042	-0.74167	381.278	301.633	418.991	321.741	407.000	268.771	151.990	304.788	265.829	342.238	347.660	267.476	343.809	418.657	130.450	254.449	1.0669e-05	2.9426e-05	3.8616e-06	0.05031	1.6796e-07	2.1902e-07	0.041756	0.0052618	6.6236e-08	2.3068e-07	0.19892	0.0045493	0.0025463	0.00051525	6.2972e-07	0.0013714	-1.7716e-06	-6.1305e-07	-7.224e-07	-0.08228	-8.9779e-09	-4.2512e-08	-0.054349	-0.014005	-3.9714e-08	-4.3019e-09	-0.43034	-0.016929	-0.0045411	-0.0050503	-1.9434e-08	-0.0030329	304.896	274.656	249.225	67.550	356.120	235.617	210.702	85.281	255.426	279.099	247.997	253.034	118.649	175.203	89.646	306.895	-8191	255	
1468.541	1	1	0	0	0.20796	0.016215	0.20936	0.2137	0.19776	0.14235	0.28215	0.15848	0.12371	0.14289	0.14619	0.14528	0.20264	0.18819	0.22804	0.18581	-0.91042	-0.52292	-1.1479	-1.1521	-0.52292	-1.4875	-0.96875	-0.72083	-1.6021	-0.73542	-1.0562	-1.2042	-0.5	-1.5083	-0.90208	-0.73542	-22.321	162.178	-57.560	183.378	30.697	173.081	-46.198	43.209	63.170	60.704	-93.633	-123.053	44.815	73.147	-124.533	42.155	1.0337e-05	2.9761e-05	9.2488e-06	0.019234	5.0185e-07	4.3344e-07	0.0077966	0.015601	3.5609e-07	2.1739e-07	0.38572	0.0065906	0.0032132	0.0016067	2.6052e-07	6.6463e-05	-2.2398e-06	-4.5979e-07	-6.6854e-07	-0.085333	-5.2269e-09	-4.2574e-08	-0.051173	-0.019325	-3.6815e-08	-1.328e-08	-0.42569	-0.017237	-0.0046966	-0.0051791	-2.4942e-08	-0.0029445	-94.145	154.991	137.319	-143.626	202.009	166.132	95.438	-127.237	-139.105	171.476	-127.157	112.479	202.040	163.125	-35.542	184.923	-8191	255	
1468.637	1	1	0	0	0.3434	0.096092	0.17247	0.29909	0.28155	0.20851	0.070424	0.19134	0.10715	0.12833	0.034736	0.052324	0.21394	0.1229	0.13571	0.10759	-0.9	-0.46875	-1.1417	-1.2	-0.62083	-1.3813	-1.0417	-0.51042	-1.5021	-0.65625	-1.025	-1.2979	-0.52292	-1.2375	-0.99792	-0.65417	242.339	164.687	239.462	99.588	286.985	117.148	382.227	435.654	213.135	283.111	121.927	240.482	309.534	431.095	181.992	410.805	8.4767e-06	1.0443e-05	3.4349e-06	0.022029	1.3817e-07	1.6951e-07	0.041961	0.010985	6.2469e-08	3.9809e-07	0.17668	0.011862	0.0063711	0.0022966	1.5391e-07	0.0014946	-2.4898e-06	-1.4361e-06	-6.1784e-07	-0.090592	-3.7511e-09	-3.9386e-08	-0.067936	-0.0079797	-3.6322e-08	-1.1409e-08	-0.28813	-0.015729	-0.00090199	-0.003928	-2.7418e-08	-0.0025401	396.060	319.290	368.166	196.525	272.505	148.554	122.061	117.447	298.149	293.979	141.416	236.773	416.037	221.606	235.869	452.654	-8191	255	
1468.733	1	1	0	0	0.0059429	0.26798	0.01689	0.12575	0.238	0.054304	0.18451	0.39068	0.15351	0.036974	0.09817	0.051828	0.072505	0.22932	0.18742	0.1971	-1.0958	-0.59792	-0.75833	-1.5729	-0.4	-1.1187	-1.0271	-0.6125	-1.4979	-0.74167	-0.79583	-1.4562	-0.60625	-0.9125	-0.95208	-0.62292	216.225	120.822	32.283	42.189	-46.633	108.231	4.655	274.166	123.861	265.706	224.254	-74.077	143.162	41.557	-11.606	-34.368	2.9788e-06	4.5039e-05	9.2595e-06	0.027502	1.3335e-07	3.1116e-07	0.022237	0.018991	3.8877e-07	2.9351e-07	0.22294	0.0047489	0.0021055	0.00079191	3.1385e-07	0.0038823	-2.1759e-06	-1.4021e-06	-5.1804e-07	-0.11078	-1.236e-08	-3.0321e-08	-0.084523	-0.0077625	-3.8974e-08	-1.8143e-08	-0.1199	-0.022439	-0.0063761	-0.0043144	-3.175e-08	-0.00072032	253.391	3.107	-2.514	235.677	242.878	-56.459	31.311	-66.539	275.318	-34.167	111.832	127.629	-69.365	68.158	-79.661	227.028	-8191	255	
1468.829	1	1	0	0	0.11185	0.2002	0.22844	0.46284	0.22443	0.25758	0.30842	0.2397	0.20372	0.25874	0.21276	0.11057	0.38264	0.06848	0.3782	0.28594	-0.96042	-0.88958	-0.73125	-1.4792	-0.61875	-1.0458	-1.1833	-0.525	-1.0854	-1.0167	-0.60625	-1.325	-0.64792	-0.97083	-1.1583	-0.57708	-65.052	18.059	237.909	-52.255	212.963	156.070	123.495	-9.102	61.413	54.346	79.951	106.869	221.854	15.959	35.212	45.148	3.2859e-07	3.443e-05	4.4372e-06	0.0064762	2.1478e-07	1.2396e-07	0.018387	0.013434	2.0462e-07	8.3202e-08	0.071847	0.0029312	0.0050416	0.00025116	5.1011e-08	0.0014761	-2.3408e-06	-2.14e-06	-3.7229e-07	-0.10128	-1.0761e-08	-2.4007e-08	-0.11046	-0.0022256	-3.5335e-08	-2.444e-08	-0.08644	-0.021608	-0.0051631	-0.0039004	-3.2183e-08	-0.0024642	104.371	-47.626	120.621	-17.461	248.174	-24.028	159.522	-55.814	45.970	-14.083	-11.509	119.174	-46.125	267.043	229.788	257.431	-8191	255	
1468.948	1	1	0	0	0.14022	0.1096	0.098555	0.077916	0.26321	0.31115	0.18012	0.069575	0.20138	0.20739	0.14853	0.067853	0.036172	0.13498	0.27782	0.05411	-0.7875	-0.96458	-0.43542	-1.5063	-0.56458	-0.8875	-1.3417	-0.35208	-1.4271	-1.0688	-0.47917	-1.3417	-0.65	-0.975	-1.2979	-0.35208	343.556	358.670	327.710	455.177	388.481	268.265	149.942	352.417	239.139	352.716	229.828	165.268	177.363	342.831	114.129	107.832	8.937e-06	2.4379e-05	7.5169e-06	0.011923	2.3058e-07	5.9034e-07	0.02936	0.0059046	3.1262e-07	2.0814e-07	0.11238	0.0035749	0.0046906	0.0028338	1.3912e-07	0.0014965	-1.9791e-06	-2.4635e-06	-2.4238e-07	-0.097209	-4.4275e-09	-2.0193e-08	-0.1004	-0.0079797	-2.6455e-08	-2.9053e-08	-0.098523	-0.017483	-0.009051	-0.0024102	-3.4164e-08	-0.0015038	338.079	271.245	174.981	179.737	154.295	410.131	254.817	118.630	383.503	218.329	252.210	162.994	169.467	175.182	427.362	129.882	-8191	255	
1469.044	1	1	0	0	0.027797	0.12503	0.2365	0.24472	0.23226	0.2519	0.20001	0.11817	0.34097	0.1707	0.44621	0.16167	0.17464	0.023523	0.13095	0.097976	-0.76667	-1.1646	-0.575	-1.3458	-1.0583	-0.65625	-1.5229	-0.54167	-0.975	-1.1667	-0.39583	-1.2771	-0.78125	-0.69167	-1.5146	-0.61667	127.702	-12.002	212.628	215.268	216.670	264.539	261.782	-15.107	71.988	160.660	-3.022	-5.217	172.871	34.251	256.707	116.087	7.406e-06	2.9292e-05	8.3635e-06	0.019257	1.241e-07	1.1288e-07	0.0085702	0.0098281	2.4167e-07	2.2266e-07	0.20633	0.0031194	0.0033915	0.0012427	3.0236e-07	0.0014362	-1.4737e-06	-2.2592e-06	-2.3763e-07	-0.086351	-1.482e-08	-1.1816e-08	-0.10517	-0.0086854	-2.4359e-08	-3.0924e-08	-0.053909	-0.017699	-0.0084289	-0.0018674	-3.961e-08	-0.0019461	52.395	-27.854	156.609	151.994	-9.587	52.910	197.867	-30.492	-8.335	187.773	114.136	90.424	46.922	17.166	33.393	70.174	-8191	255	
1469.141	1	1	0	0	0.027187	0.086017	0.23837	0.21985	0.15425	0.14524	0.2256	0.087378	0.12098	0.21069	0.22229	0.053908	0.077296	0.13515	0.099536	0.20126	-0.63125	-1.2021	-0.40625	-1.1812	-0.74167	-0.6875	-1.3958	-0.50208	-0.97292	-1.1771	-0.48542	-1.2042	-0.90833	-0.45625	-1.3896	-0.66458	351.026	273.597	71.289	106.976	203.832	338.885	63.569	290.037	123.088	203.902	323.403	330.657	300.278	293.865	251.597	151.138	1.5985e-05	1.5646e-05	3.1214e-06	0.034696	3.6345e-07	8.9718e-08	0.055928	0.0078616	1.458e-07	1.8825e-07	0.34441	0.0020668	0.0054844	0.0015687	9.2238e-08	0.0052756	-9.3634e-07	-3.2072e-06	-2.6298e-07	-0.093646	-2.2137e-08	-1.5879e-08	-0.1034	-0.0082511	-2.1028e-08	-3.0674e-08	-0.040896	-0.015667	-0.011104	-0.00094751	-3.8682e-08	-0.0037153	356.790	156.451	234.605	174.749	309.982	281.262	325.318	58.664	63.118	44.903	262.239	160.287	111.918	89.479	335.556	84.512	-8191	255	
1469.237	1	1	0	0	0.10638	0.048325	0.31025	0.24446	0.10117	0.26171	0.16855	0.18925	0.014466	0.2021	0.18605	0.14999	0.045456	0.067072	0.24474	0.23264	-0.47083	-1.4125	-0.28542	-1.1542	-0.88542	-0.47083	-1.3917	-0.61875	-0.68125	-1.3687	-0.44167	-1.3687	-1.1958	-0.45	-1.5562	-0.59167	116.798	183.451	250.854	124.544	234.436	334.615	200.741	298.711	127.389	398.248	121.863	325.680	244.180	165.154	78.940	160.566	6.7102e-06	3.7008e-05	1.237e-05	0.035619	3.5647e-07	2.2257e-07	0.043808	0.010197	6.3809e-08	2.9092e-07	0.21527	0.004798	0.0018479	0.0014233	2.9704e-07	0.0023454	-6.7565e-07	-3.1844e-06	4.5942e-08	-0.079565	-2.4905e-08	-1.0253e-08	-0.10093	-0.013137	-1.1655e-08	-3.9029e-08	-0.15708	-0.01459	-0.013001	-0.00082792	-3.8991e-08	-0.0040692	83.340	156.582	175.224	378.553	400.250	74.210	137.994	83.505	377.064	218.984	153.712	330.967	147.820	144.545	85.185	113.125	-8191	255	
1469.333	1	1	0	0	0.23289	0.23363	0.31242	0.13624	0.20821	0.11647	0.34775	0.22008	0.19115	0.070143	0.27884	0.18889	0.17978	0.12505	0.15375	0.098837	-0.38958	-1.2625	-0.7	-1.3021	-1.1063	-0.56042	-1.225	-0.96667	-0.69583	-1.5271	-0.49167	-0.92292	-1.3438	-0.53125	-1.4042	-1.0938	152.437	216.566	98.056	379.963	428.917	306.873	306.292	155.102	228.840	440.884	218.899	234.675	346.637	381.086	373.081	279.342	3.2038e-06	2.8662e-05	3.7368e-06	0.010645	3.5306e-07	3.8049e-07	0.035347	0.011825	2.501e-07	5.1414e-07	0.25844	0.0028744	0.0016754	0.0009469	2.9838e-07	0.0022311	-1.1704e-07	-3.5988e-06	-1.9011e-07	-0.076172	-2.9086e-08	-6.4392e-09	-0.099169	-0.019868	-1.3012e-08	-4.4827e-08	-0.10875	-0.010773	-0.01832	-4.5996e-05	-2.9646e-08	-0.0055224	225.798	275.854	378.412	443.520	318.063	311.857	287.925	109.799	319.240	212.538	402.151	427.633	136.382	194.553	102.553	114.513	-8191	255	
1469.429	1	1	0	0	0.056374	0.13421	0.24661	0.28602	0.051339	0.12588	0.18725	0.29924	0.2721	0.30915	0.17654	0.18979	0.48297	0.156	0.13161	0.13657	-0.31458	-1.5542	-0.58958	-0.95	-1.2354	-0.44792	-1.3167	-1.0417	-0.52708	-1.5042	-0.74583	-0.8625	-1.2729	-0.44375	-1.1667	-1.0333	194.436	219.114	261.644	279.320	47.685	40.396	82.862	265.287	92.211	339.733	308.870	333.351	148.794	344.777	46.446	100.054	1.4506e-05	3.0237e-05	4.5898e-06	0.027144	1.2359e-07	1.6432e-07	0.033379	0.021525	3.269e-07	2.4963e-07	0.25937	0.0024189	0.0043009	0.0024048	3.6125e-07	0.0023126	2.128e-08	-3.5931e-06	-4.0239e-07	-0.053439	-3.542e-08	-8.1272e-09	-0.10482	-0.018348	-9.8051e-09	-4.0837e-08	-0.23051	-0.0081877	-0.017138	-0.00074513	-3.0884e-08	-0.0056109	-0.111	53.751	86.236	173.747	189.964	208.962	151.783	9.104	205.754	172.885	271.728	34.660	326.020	323.717	298.685	338.579	-8191	255	
1469.525	1	1	0	0	0.15382	0.25264	0.068008	0.19078	0.12947	0.060987	0.042961	0.20821	0.010149	0.13802	0.19444	0.10883	0.14817	0.33818	0.049508	0.030345	0.025	-1.3188	-0.80625	-0.79167	-1.5646	-0.60625	-1.1917	-1.1875	-0.3875	-1.4937	-0.59167	-0.73125	-1.4438	-0.59167	-1.1771	-1.1625	194.528	326.589	487.456	162.082	157.794	229.384	305.233	320.376	186.389	414.793	211.486	333.566	257.897	378.274	413.825	501.657	2.2371e-06	1.9887e-05	1.1219e-05	0.018089	1.0571e-07	2.405e-07	0.033805	0.0019065	1.6615e-07	6.2585e-08	0.31433	0.00080549	0.0080021	0.0016727	2.8181e-07	0.00096886	-3.1921e-08	-3.5307e-06	-3.7229e-07	-0.054288	-4.0401e-08	-9.5026e-09	-0.085935	-0.027956	-9.5584e-09	-3.2358e-08	-0.22586	-0.0086802	-0.019253	-0.0015454	-3.1441e-08	-0.006546	414.172	501.943	283.031	261.678	409.624	295.929	253.562	173.684	293.553	481.226	271.149	347.557	426.620	239.457	331.508	284.343	-8191	255	
1469.646	1	1	0	0	0.10597	0.13427	0.15639	0.3143	0.1535	0.10077	0.37611	0.087494	0.16317	0.2367	0.17285	0.055079	0.20348	0.17557	0.061603	0.23782	-0.16875	-1.2583	-0.9875	-0.66875	-1.2583	-0.55833	-1.1083	-1.4083	-0.42708	-1.4625	-1.1938	-0.44375	-1.3396	-0.4125	-0.775	-1.1229	270.729	93.154	226.711	51.176	345.634	186.892	289.483	13.723	103.932	303.311	202.269	13.635	256.037	89.057	187.678	323.188	8.8711e-06	4.6294e-05	4.8678e-06	0.020032	3.7299e-07	2.9506e-07	0.054401	0.010279	1.9968e-07	6.1082e-07	0.065037	0.0019356	0.0056034	0.0028611	4.3553e-07	0.0013487	2.8729e-07	-3.0823e-06	-5.2754e-07	-0.020527	-3.7265e-08	-8.6273e-09	-0.073406	-0.031539	-7.4001e-10	-3.7782e-08	-0.33368	-0.0043709	-0.01776	-0.0016282	-2.3457e-08	-0.0062807	283.172	18.327	342.156	33.849	312.316	142.724	239.545	11.060	113.930	246.113	104.661	168.141	296.840	128.838	194.461	71.605	-8191	255	
1469.742	1	1	0	0	0.17137	0.30748	0.20159	0.079553	0.11563	0.1058	0.20484	0.06637	0.19369	0.15042	0.024761	0.071189	0.15003	0.2155	0.30947	0.19046	-0.064583	-1.2917	-1.0125	-0.34375	-1.2875	-0.69375	-0.94583	-1.2958	-0.5	-1.1938	-0.8625	-0.37708	-1.4542	-0.75833	-0.93333	-1.4146	-137.128	58.437	-145.139	121.429	173.809	57.861	-137.873	150.339	-99.637	-119.434	84.055	178.311	37.619	54.506	-27.146	100.050	4.1412e-06	1.7762e-05	2.8451e-06	0.018558	2.2318e-07	4.3013e-07	0.01926	0.0096981	2.506e-07	4.7853e-07	0.30859	0.0065121	0.0048867	0.0010449	1.4271e-07	0.0026042	3.4049e-07	-2.8893e-06	-6.7963e-07	-0.021206	-3.2099e-08	-1.4129e-08	-0.041115	-0.035067	-8.0167e-09	-2.5562e-08	-0.38573	-0.0035706	-0.017418	-0.0024746	-1.4111e-08	-0.007001	53.533	-136.368	9.967	43.972	-53.071	-101.427	53.252	-147.923	119.413	179.993	-152.608	-68.744	176.458	-162.913	121.817	-53.606	-8191	255	
1469.814	1	1	0	0	0.13922	0.35319	0.091584	0.11623	0.103	0.24525	0.19066	0.18983	0.1617	0.28016	0.028396	0.25931	0.028175	0.26145	0.056999	0.24353	-0.1125	-1.0958	-0.94167	-0.65833	-1.3875	-0.75417	-0.69375	-1.3354	-0.52292	-1.1688	-1.25	-0.39792	-1.4937	-0.89792	-0.57292	-1.2396	67.505	172.003	250.165	33.540	22.669	320.073	162.235	261.891	241.035	300.006	59.511	-14.389	139.987	165.951	34.518	249.268	9.1145e-06	2.6258e-05	6.3322e-06	0.045715	2.1042e-07	3.3394e-07	0.026508	0.010158	3.7385e-07	2.1677e-07	0.25729	0.0047403	0.004772	0.0015487	1.7971e-07	0.0014143	2.9793e-07	-2.4919e-06	-7.6042e-07	-0.032064	-3.7757e-08	-1.5692e-08	-0.030174	-0.033981	-1.0422e-08	-2.6622e-08	-0.43778	-0.002955	-0.020124	-0.0031185	-7.4888e-09	-0.0076581	292.193	142.287	178.885	206.285	142.484	198.260	243.066	-6.269	184.888	60.249	203.895	155.124	282.008	331.579	40.338	85.613	-8191	255	
1469.910	1	1	0	0	0.27493	0.17892	0.19067	0.3651	0.077196	0.18518	0.20595	0.19207	0.16599	0.20008	0.080635	0.27072	0.24399	0.083809	0.3407	0.28239	-0.035417	-0.99583	-1.2833	-0.56042	-1.2458	-0.82917	-0.425	-1.4729	-0.43333	-0.92083	-1.2396	-0.52083	-1.2062	-0.99167	-0.60625	-1.3875	335.463	273.509	117.704	289.435	293.538	404.045	174.101	437.041	405.304	380.679	301.609	324.737	361.834	392.438	145.754	131.737	3.5298e-06	7.9757e-06	7.7483e-06	0.041477	3.2255e-07	1.5653e-07	0.014235	0.0083931	4.9568e-07	1.4506e-07	0.095092	0.0072988	0.0064569	0.0018325	1.9074e-07	0.0022521	6.7033e-07	-2.6736e-06	-9.1726e-07	-0.016965	-3.3882e-08	-2.3194e-08	-0.035292	-0.030236	-1.1223e-08	-1.3591e-08	-0.55861	-0.0041246	-0.014898	-0.0041488	-5.4464e-09	-0.0083405	366.019	327.880	184.490	330.930	417.145	85.985	369.698	103.328	160.146	189.706	444.665	336.701	251.484	353.003	432.650	284.565	-8191	255	
1470.029	1	1	0	0	0.21156	0.12866	0.31331	0.34574	0.10912	0.22573	0.29119	0.060388	0.12092	0.058303	0.058281	0.1328	0.22162	0.10402	0.19224	0.39971	-0.16667	-0.93125	-1.3167	-0.44375	-1.1771	-1.2	-0.58958	-1.3771	-0.6375	-0.8	-1.4625	-0.48958	-1.0125	-1.1792	-0.37083	-1.3771	279.729	176.743	237.182	-10.856	63.428	5.102	-15.040	98.336	65.030	151.033	256.869	119.907	0.566	198.355	303.698	76.799	8.1122e-06	5.2885e-06	1.0063e-05	0.041842	2.2812e-07	1.565e-07	0.048627	0.017165	2.3325e-07	2.4048e-07	0.16469	0.0056015	0.0077457	0.0022865	3.7059e-07	0.00077288	-3.7241e-07	-1.4077e-06	-1.0107e-06	-0.021206	-3.1546e-08	-2.7632e-08	-0.01447	-0.032136	-1.4368e-08	-1.1596e-08	-0.5363	-0.0030473	-0.012503	-0.0035233	-8.9742e-09	-0.0066092	320.877	129.604	76.389	-12.303	178.858	302.402	53.735	-8.220	-4.079	89.613	324.494	79.835	27.155	127.898	179.129	232.116	-8191	255	
1470.125	1	1	0	0	0.18869	0.25801	0.074734	0.40231	0.16155	0.34521	0.1635	0.40076	0.21469	0.14951	0.061688	0.37921	0.17791	0.11864	0.025186	0.38188	-0.425	-0.64167	-1.3396	-0.575	-1.1646	-1.2417	-0.44167	-1.1479	-1.0167	-0.63958	-1.375	-0.56875	-0.97917	-1.3979	-0.50417	-1.1958	211.743	442.241	420.764	411.932	484.658	306.442	419.258	403.562	165.501	484.653	320.183	498.325	487.689	470.949	165.681	399.101	6.2672e-06	4.7558e-05	6.6694e-06	0.019854	3.0842e-07	4.4881e-07	0.031918	0.01171	9.8536e-08	4.2732e-07	0.1209	0.0080905	0.00099722	0.0013275	1.1103e-07	0.0025556	-6.1713e-07	-7.4361e-07	-1.0044e-06	-0.0083128	-2.3982e-08	-3.0008e-08	-0.039703	-0.030019	-1.961e-08	-1.4527e-08	-0.53165	-0.005048	-0.0098597	-0.0050135	-3.404e-09	-0.0063691	183.056	313.923	461.745	314.158	511.347	210.103	372.216	180.720	176.186	265.244	304.729	281.225	486.685	374.871	173.032	297.031	-8191	255	
1470.221	1	1	0	0	0.1258	0.11665	0.40326	0.060539	0.1896	0.19634	0.10946	0.26359	0.2642	0.18335	0.039249	0.13342	0.16157	0.14089	0.15233	0.2501	-0.66875	-0.43958	-1.3042	-0.6125	-0.91042	-1.425	-0.47917	-1.1625	-0.98333	-0.57708	-1.2833	-0.73542	-0.81042	-1.3188	-0.60417	-1.2229	185.850	283.593	225.193	173.750	36.395	161.404	258.949	-4.762	-9.246	88.795	170.018	185.020	-25.086	270.310	77.093	275.826	6.9335e-06	1.9938e-05	3.2606e-06	0.015801	2.2511e-07	2.4198e-07	0.039921	0.0047659	2.6743e-07	1.857e-07	0.10534	0.0036654	0.0097091	0.0020027	3.736e-07	0.0002039	-9.2038e-07	-8.8551e-07	-1.0076e-06	-0.034099	-1.7464e-08	-3.7448e-08	-0.026998	-0.026545	-2.5654e-08	-9.1026e-09	-0.61159	-0.0065255	-0.010482	-0.0052067	-7.365e-09	-0.0044862	8.447	294.666	242.327	17.237	211.216	305.309	147.050	-19.883	65.089	14.151	-5.946	-31.547	65.864	213.579	208.513	60.118	-8191	255	
1470.317	1	1	0	0	0.12049	0.060395	0.12989	0.08963	0.10524	0.15475	0.2218	0.099611	0.028665	0.044591	0.21328	0.33341	0.060235	0.022269	0.39833	0.13075	-0.7375	-0.56458	-1.4188	-0.69167	-0.88125	-1.3458	-0.64792	-1.2417	-1.3229	-0.51042	-1.4542	-0.81875	-0.7	-1.2896	-0.725	-1.1479	205.261	129.460	78.606	-92.604	197.196	233.191	218.753	-27.491	151.750	-7.940	151.965	45.584	162.325	63.017	-56.525	-38.679	6.9773e-07	4.6183e-05	1.1068e-05	0.025773	6.8574e-07	2.7117e-07	0.034001	0.010312	1.3135e-07	3.2278e-07	0.079319	0.0015327	0.0031264	0.0025203	2.0225e-07	0.0028486	-1.3939e-06	-5.6196e-07	-9.5528e-07	-0.042412	-1.2422e-08	-3.9948e-08	-0.034233	-0.020356	-2.9292e-08	-7.7309e-09	-0.52515	-0.01105	-0.0059407	-0.0050871	-8.2934e-09	-0.0055224	0.191	-91.281	117.292	-51.739	-67.585	-23.003	231.329	-92.476	222.483	224.627	121.935	47.332	136.204	-22.880	-70.043	-5.459	-8191	255	
1470.438	1	1	0	0	0.19925	0.096108	0.093394	0.16586	0.098329	0.050504	0.055426	0.22562	0.20018	0.23937	0.23026	0.29092	0.12556	0.19837	0.018564	0.17652	-0.86667	-0.38125	-1.2812	-0.74792	-0.66458	-1.3438	-0.61667	-0.99375	-1.3271	-0.54167	-1.2667	-0.98333	-0.44167	-1.4062	-0.78958	-1.1688	153.939	77.350	-64.519	-69.986	-16.581	198.686	12.929	128.052	-78.810	41.854	-132.605	47.310	69.708	36.630	73.338	-72.804	7.7731e-06	1.2411e-05	6.3903e-06	0.018985	4.483e-07	6.7566e-08	0.010649	0.010131	2.1453e-07	3.6736e-07	0.36491	0.0053879	0.0076545	0.0011242	3.0284e-07	0.0018766	-1.7024e-06	-6.4711e-07	-9.537e-07	-0.045805	-8.732e-09	-3.4197e-08	-0.03388	-0.017968	-3.3239e-08	-4.5513e-09	-0.48239	-0.010281	-0.0042922	-0.0049399	-1.2811e-08	-0.0042966	20.632	82.562	151.687	-25.514	11.224	-79.543	-52.781	-140.138	125.352	94.649	157.212	-39.720	148.163	152.978	-25.119	12.555	-8191	255	
1470.509	1	1	0	0	0.40131	0.14155	0.21365	0.1115	0.15722	0.015413	0.16603	0.21159	0.038942	0.090462	0.22415	0.12861	0.28832	0.3973	0.27655	0.24326	-1.0583	-0.46458	-1.3625	-0.90625	-0.4875	-1.5	-0.76458	-0.72917	-1.2583	-0.475	-1.1771	-1.1146	-0.90417	-1.9062	-1.0063	-1.1896	266.860	125.338	359.876	260.054	149.847	311.351	346.092	444.575	157.235	318.212	235.462	201.116	196.456	304.128	104.583	276.098	3.3355e-06	1.5542e-05	9.1635e-06	0.043712	1.7237e-07	3.9995e-07	0.012234	0.012849	2.3387e-07	1.3968e-07	0.25506	0.030336	0.03911	0.011455	1.4568e-06	71.04	-1.7556e-06	-8.2875e-07	-7.7151e-07	-0.064806	-3.997e-09	-4.2824e-08	-0.034409	-0.012431	-3.0464e-08	2.0574e-09	-0.38666	0.61112	2.8562	0.7444	2.2681e-06	54.621	376.013	171.394	248.008	115.454	219.578	287.037	403.159	109.519	218.386	259.843	447.297	289.950	157.794	335.148	184.943	370.890	-8191	255	
1470.630	1	1	0	0	0.20064	0.12997	0.10859	0.1755	0.2389	0.13464	0.21598	0.21812	0.3074	0.10881	0.13095	0.16744	0.19166	0.2662	0.064595	0.46526	-1.2646	-0.74583	-1.1479	-1.4042	-0.65833	-1.6042	-1.2417	-1.025	-1.8625	-0.76042	-1.4708	-1.6771	-0.67292	-1.5104	-1.1417	-0.93542	231.119	55.299	229.939	365.466	50.565	38.284	343.914	373.348	75.376	21.172	329.922	36.612	228.624	338.226	135.065	320.729	0.0011561	0.00074888	9.7246e-05	581.2	4.5503e-06	3.4973e-06	1219.8	213.75	7.0147e-06	4.3716e-06	544.31	235.92	82.511	31.787	5.72e-06	108.61	0.00016849	0.00010976	3.0602e-05	530.84	1.2276e-06	1.1204e-06	1115.4	196.35	1.2059e-06	1.1404e-06	418.3	217.08	75.183	29.132	1.1357e-06	99.983	61.494	98.762	108.152	34.020	143.646	186.424	35.234	38.108	119.682	148.105	38.434	42.603	42.406	46.197	179.796	46.256	-8191	255	
1470.726	1	1	0	0	0.27962	0.093796	0.20848	0.25851	0.19846	0.10075	0.21021	0.35273	0.17128	0.17132	0.13461	0.25447	0.071646	0.24908	0.29146	0.26881	-1.1063	-0.73542	-1.2146	-1.6562	-0.70833	-1.5583	-1.5229	-0.99792	-1.7542	-0.96875	-1.1979	-1.7396	-0.82708	-1.5229	-1.2542	-1.0208	40.853	280.276	133.051	342.000	122.924	337.285	268.681	28.894	187.862	112.090	232.819	373.704	197.160	64.791	32.092	297.445	0.0016462	0.00065062	9.4898e-05	582.34	5.6232e-06	3.0364e-06	1221.5	217.28	6.2226e-06	9.1136e-06	551.36	235.97	83.475	31.341	4.8817e-06	106.85	0.00018452	0.00010519	2.9774e-05	533.54	1.1195e-06	1.0617e-06	1119.6	198	1.0658e-06	1.0477e-06	425.03	216.26	75.359	28.827	1.1235e-06	98.458	66.377	104.954	134.753	35.122	134.953	121.182	35.309	38.654	184.798	188.500	38.959	42.840	42.554	46.767	151.627	46.351	-8191	255	
1470.822	1	1	0	0	0.024537	0.16726	0.098405	0.030133	0.059559	0.2307	0.28155	0.17924	0.064016	0.2566	0.15616	0.20987	0.018904	0.079969	0.2543	0.027358	-1.4312	-1.0229	-1.0312	-1.7437	-0.73333	-1.4062	-1.6146	-0.81458	-1.7021	-1.0958	-1.1583	-1.8083	-0.8375	-1.4646	-1.4167	-0.875	264.944	145.801	138.634	22.785	62.568	309.896	308.120	305.443	81.123	75.422	281.214	308.811	165.300	28.145	168.262	220.639	0.0015955	0.00041363	0.00012898	585.72	8.073e-06	8.7867e-06	1226.9	218.2	5.1568e-06	1.0345e-05	565.86	237.96	83.973	31.586	4.5605e-06	108.35	0.00017901	9.974e-05	2.8216e-05	536.78	1.1197e-06	1.0748e-06	1123.5	199.25	1.0731e-06	1.057e-06	425.15	218.47	76.164	29.104	1.1172e-06	99.535	67.715	129.623	123.139	34.988	112.501	167.407	35.195	38.991	196.943	190.370	39.719	42.852	42.537	46.942	138.938	46.502	-8191	255	
1470.919	1	1	0	0	0.16231	0.27774	0.041836	0.040039	0.0037581	0.14789	0.31049	0.26263	0.1315	0.27674	0.061262	0.19681	0.19569	0.18242	0.088216	0.30609	-1.0187	-0.96667	-0.82292	-1.7062	-0.77708	-1.5083	-1.6021	-0.97083	-1.5021	-1.2125	-0.92917	-1.9333	-0.90833	-1.2021	-1.6125	-0.82917	120.780	379.688	74.758	49.097	348.035	184.014	357.202	294.947	128.832	170.441	37.460	21.241	330.877	357.236	354.389	307.810	0.0015698	0.00087303	0.00016182	593.58	7.5294e-06	9.3535e-06	1238.2	221.55	6.3468e-06	4.9868e-06	553.45	241.27	84.574	32.169	7.804e-06	109.32	0.00017504	0.00010312	2.8171e-05	542.3	1.081e-06	1.1042e-06	1134.7	203.11	1.0402e-06	1.054e-06	427.36	220.93	76.823	29.577	1.084e-06	100.27	65.110	97.625	119.253	35.305	154.052	184.920	35.619	38.732	126.130	168.404	38.970	42.927	42.754	46.724	153.456	46.468	-8191	255	
1471.037	1	1	0	0	0.15481	0.28224	0.2376	0.26817	0.23799	0.11213	0.12272	0.25377	0.074174	0.098361	0.13025	0.26544	0.10736	0.047234	0.1296	0.25969	-1.3167	-1.2062	-0.90833	-1.6583	-1	-1.2458	-1.7833	-0.9125	-1.5	-1.7167	-0.77708	-1.7917	-1.0833	-1.375	-1.6812	-1.0771	30.008	379.241	283.150	281.851	95.774	256.640	319.358	334.983	326.067	324.161	55.186	41.793	127.224	313.894	333.822	315.381	0.001519	0.00071643	0.00015402	588.88	6.1979e-06	7.3722e-06	1233.5	218.65	9.2954e-06	6.7652e-06	568.78	236.43	82.438	31.524	6.4278e-06	107.9	0.00017254	9.7724e-05	2.7652e-05	538.91	1.1174e-06	1.0462e-06	1126.4	200.65	1.1002e-06	1.0316e-06	426.89	217.49	75.33	28.945	1.0932e-06	99.06	66.614	98.317	141.475	35.295	142.472	153.230	35.592	38.724	158.728	177.253	38.605	42.868	43.358	46.730	182.457	46.559	-8191	255	
1471.109	1	1	0	0	0.074218	0.22015	0.41683	0.17863	0.24655	0.20298	0.31196	0.10988	0.11369	0.3177	0.16399	0.17502	0.10777	0.12006	0.13763	0.4856	-1.125	-1.425	-0.825	-1.8167	-1.175	-1.0438	-1.7125	-1	-1.4271	-1.7437	-0.63958	-1.9188	-1.1562	-0.8625	-1.6625	-1.0292	49.857	47.736	234.511	317.836	134.946	195.749	252.711	150.809	292.737	80.034	163.128	28.588	78.178	247.784	288.214	312.705	0.0015566	0.00074357	0.00016747	586.72	8.5051e-06	5.4181e-06	1233.3	220.94	9.478e-06	7.3224e-06	565.85	239.09	84.087	31.821	4.2985e-06	108.3	0.00017144	9.7583e-05	2.712e-05	539.89	1.0938e-06	1.0585e-06	1131.2	202.42	1.1138e-06	1.0705e-06	426.79	218.78	76.491	29.299	1.0578e-06	99.662	70.389	103.532	114.990	35.446	161.359	163.305	35.640	38.837	172.876	191.439	38.548	42.899	42.740	47.050	142.597	46.501	-8191	255	
1471.205	1	1	0	0	0.12877	0.13472	0.11107	0.57294	0.21128	0.24476	0.29034	0.15565	0.14977	0.17491	0.12885	0.16484	0.091135	0.17743	0.21102	0.16643	-0.7875	-1.5979	-0.725	-1.6313	-1.2062	-0.78542	-1.8708	-1.0333	-1.2021	-1.5187	-0.94792	-1.7333	-1.1812	-0.9125	-1.6313	-0.94792	319.131	149.158	218.079	336.593	259.736	284.255	282.717	277.159	302.908	335.410	165.317	301.851	342.774	276.385	297.874	349.887	0.0016701	0.00058685	0.00017431	595.42	8.0558e-06	4.994e-06	1235	223.29	6.2627e-06	8.3404e-06	566.16	240.18	84.102	32.267	3.8418e-06	109.22	0.0001788	9.244e-05	2.6024e-05	543.32	1.0387e-06	1.0915e-06	1134.3	204.08	1.1387e-06	1.05e-06	429.82	220.58	76.824	29.645	1.0415e-06	100.61	69.619	151.065	119.647	35.203	143.249	180.122	35.617	38.932	147.947	160.564	39.031	43.020	43.114	47.056	169.841	46.491	-8191	255	
1471.301	1	1	0	0	0.054858	0.14243	0.22623	0.035203	0.12514	0.28412	0.36493	0.070497	0.094435	0.041532	0.13227	0.27353	0.26489	0.17245	0.25046	0.1688	-0.69375	-1.5042	-0.72917	-1.7042	-1.1688	-0.89792	-1.925	-0.95833	-1.1542	-1.5083	-0.63958	-1.6708	-1.4792	-0.77083	-1.5042	-1.2854	24.502	368.168	304.345	96.497	274.130	192.948	315.210	375.712	221.375	72.002	300.774	336.151	295.933	304.510	122.877	349.391	0.001675	0.00036233	0.00017854	597.72	3.4114e-06	5.8002e-06	1240	222.55	5.3882e-06	6.7194e-06	563.86	239.51	84.807	32.224	5.5793e-06	108.64	0.00018837	9.6061e-05	2.6889e-05	544.58	1.0855e-06	1.0228e-06	1135.5	203.86	1.0764e-06	1.0502e-06	427.58	219.72	77.02	29.474	1.0546e-06	99.885	67.185	116.416	136.282	35.271	127.605	159.448	35.747	38.712	172.856	203.072	38.500	43.010	42.676	46.951	135.661	46.446	-8191	255	
1471.422	1	1	0	0	0.20287	0.22701	0.10447	0.25232	0.28756	0.16689	0.082327	0.39808	0.12708	0.2018	0.12766	0.19538	0.1396	0.26051	0.19977	0.13374	-0.69167	-1.6125	-0.84375	-1.5	-1.4271	-0.92917	-1.7979	-1.3333	-0.81875	-1.8104	-0.90417	-1.5458	-1.5312	-0.80833	-1.7146	-1.5229	223.643	105.029	135.398	294.990	287.194	52.054	249.302	139.449	181.937	335.621	101.858	325.933	363.783	304.471	158.389	266.094	0.0015176	0.00042677	0.00012959	591.44	5.9106e-06	5.4832e-06	1236.4	220.31	4.4802e-06	4.619e-06	556.55	239.1	83.907	32.073	7.328e-06	109.22	0.00017521	9.3694e-05	2.6528e-05	542.76	1.0746e-06	1.0238e-06	1131.9	202.51	1.0852e-06	1.0103e-06	426.91	219.47	76.759	29.567	1.1166e-06	100.47	71.921	114.324	112.960	35.490	134.562	174.423	35.561	38.676	159.207	165.808	38.837	42.983	42.846	46.915	143.836	46.425	-8191	255	
1471.518	1	1	0	0	0.30312	0.19309	0.22211	0.1982	0.36	0.4227	0.31945	0.26908	0.09296	0.1518	0.065307	0.44899	0.25862	0.30057	0.40834	0.37226	-0.51458	-1.6854	-0.9125	-1.3396	-1.6771	-0.65833	-1.6354	-1.1833	-0.78125	-1.7604	-0.95208	-1.2625	-1.5479	-0.84375	-1.4271	-1.6	53.478	219.029	103.467	36.155	351.298	53.327	326.886	369.858	307.596	49.663	271.376	340.417	361.443	311.936	322.977	326.635	0.0015826	0.00041433	0.00014114	599.64	8.4651e-06	4.0345e-06	1228	221.03	4.1534e-06	6.8914e-06	561.95	241.95	85.333	32.844	2.8947e-06	111.76	0.00018203	9.0612e-05	2.8068e-05	546.16	1.035e-06	1.0076e-06	1128.4	203.03	1.1133e-06	1.0003e-06	426.13	221.97	77.709	30.169	1.0894e-06	102.35	69.563	124.555	141.777	34.890	157.781	188.424	35.929	38.872	146.551	228.478	38.621	43.113	42.891	46.950	141.921	46.330	-8191	255	
1471.614	1	1	0	0	0.23508	0.14225	0.29032	0.17424	0.20155	0.12519	0.2776	0.23835	0.11742	0.11151	0.15001	0.33636	0.1645	0.16716	0.33981	0.14101	-0.44583	-1.5521	-0.88958	-1.025	-1.7083	-0.67083	-1.5063	-1.4354	-1.0354	-1.7396	-1.0625	-1.2625	-1.6333	-1.0167	-1.3937	-1.8917	197.320	69.819	318.655	132.842	264.645	303.077	306.814	333.042	54.780	118.368	103.739	303.015	78.438	130.721	326.482	318.860	0.0015291	0.00043102	0.00018795	600.17	7.7403e-06	6.0319e-06	1239.2	221.15	7.6769e-06	8.9086e-06	552.74	241.88	85.672	32.532	2.5504e-06	110.39	0.00018041	9.3865e-05	2.7128e-05	547.18	1.0916e-06	1.0592e-06	1134.1	203.34	1.0951e-06	1.0238e-06	425.09	221.43	77.638	30.029	1.1149e-06	101.57	71.067	141.011	124.193	35.414	140.219	187.557	35.722	38.549	159.195	204.148	38.969	43.107	42.720	46.811	71.682	46.412	-8191	255	
1471.733	1	1	0	0	0.31309	0.12172	0.25558	0.11625	0.2665	0.17454	0.30232	0.099896	0.13229	0.21526	0.20442	0.34831	0.28678	0.2765	0.15919	0.19325	-0.34792	-1.6604	-1.1354	-0.97917	-1.6417	-0.74167	-1.4521	-1.4771	-0.83125	-1.7354	-1.2333	-1.0229	-1.7542	-0.90417	-1.3583	-1.8479	201.034	303.370	216.718	355.299	334.198	330.048	334.365	98.032	110.002	24.436	71.852	349.960	309.848	283.771	217.904	342.002	0.0015623	0.00060831	0.00020164	594.05	5.8191e-06	3.0073e-06	1236.5	219.39	7.4645e-06	7.4265e-06	559.54	240.91	84.85	32.569	6.9887e-06	110.66	0.00018062	9.5278e-05	2.7236e-05	543.65	1.0522e-06	9.8264e-07	1127.6	201.8	1.103e-06	1.0388e-06	424.59	220.46	77.024	29.836	1.1257e-06	101.29	68.928	128.805	115.335	35.314	137.513	201.464	35.718	38.575	160.777	178.823	39.025	42.682	43.243	46.694	151.557	46.267	-8191	255	
1471.805	1	1	0	0	0.28801	0.26586	0.13677	0.2164	0.20475	0.19858	0.2112	0.1365	0.11454	0.085989	0.16236	0.19775	0.061515	0.066694	0.10909	0.34436	-0.30625	-1.5333	-1.2854	-0.96875	-1.7292	-0.95833	-1.2188	-1.8125	-0.88333	-1.4083	-1.3667	-1.0625	-1.5396	-1.0271	-1.1313	-1.9354	379.302	350.429	86.435	311.812	192.685	325.631	322.661	105.267	257.094	31.049	312.745	308.734	362.470	365.035	311.951	313.567	0.0015675	0.00044722	0.00011034	589.34	4.9178e-06	4.5058e-06	1225.6	220.66	4.9083e-06	8.2884e-06	576.4	240.06	83.683	32.381	6.3363e-06	111.05	0.0001756	0.00010044	2.6705e-05	541.34	1.0098e-06	1.077e-06	1127.4	201.83	1.0799e-06	1.1063e-06	427.42	220.26	76.541	29.816	1.0659e-06	101.79	66.986	126.675	80.424	35.487	170.935	179.891	35.278	39.099	194.694	193.874	38.810	43.094	42.984	47.002	134.630	46.369	-8191	255	
1471.901	1	1	0	0	0.30344	0.1711	0.26224	0.10792	0.22154	0.067399	0.11067	0.27703	0.22493	0.025833	0.23325	0.52508	0.20733	0.094267	0.1953	0.30676	-0.30833	-1.3354	-1.4458	-0.75	-1.4542	-1.0292	-1.3417	-1.7229	-0.85	-1.4208	-1.6	-1.1396	-1.7792	-1.2104	-0.88542	-1.8646	354.757	70.739	56.607	30.477	158.475	33.192	53.247	320.270	129.011	362.018	129.324	318.202	317.847	153.518	69.963	339.021	0.001676	0.00046604	0.00019199	591.77	7.1075e-06	5.9685e-06	1227.2	218.51	5.8221e-06	8.7928e-06	553.59	240.48	84.151	32.327	6.3109e-06	110.24	0.00018591	9.9609e-05	2.7557e-05	540.58	1.0996e-06	1.093e-06	1124.9	200.15	1.0974e-06	1.1102e-06	423.31	220.08	76.344	29.823	1.1158e-06	101.4	68.283	115.777	127.830	35.078	160.961	182.389	35.795	38.592	153.944	199.691	38.706	43.146	43.081	46.917	131.798	46.670	-8191	255	
1471.997	1	1	0	0	0.13923	0.14987	0.12169	0.26119	0.054687	0.17307	0.30407	0.15383	0.34639	0.056524	0.25832	0.16202	0.17479	0.18484	0.46682	0.20338	-0.45	-1.3563	-1.3229	-0.84167	-1.6437	-1.1708	-1.1021	-1.7917	-0.95208	-1.225	-1.6688	-0.91667	-1.4937	-1.3479	-0.90833	-1.8479	51.241	341.036	140.445	268.071	304.994	188.772	232.927	286.453	308.062	336.403	329.006	378.927	90.997	310.777	223.179	279.053	0.0016586	0.00044072	0.00016941	583.89	6.9182e-06	8.7621e-06	1217	216.03	6.4978e-06	1.0183e-05	552.46	236.84	82.897	31.59	4.3767e-06	108.83	0.000184	0.00010255	2.6989e-05	535.23	1.0882e-06	1.0924e-06	1115.2	197.95	1.1511e-06	1.1065e-06	418.29	216.32	75.186	29.073	1.0931e-06	99.852	66.866	102.611	113.449	35.550	155.858	180.186	35.943	38.913	159.986	205.159	39.809	43.015	43.107	47.014	120.099	46.505	-8191	255	
1472.118	1	1	0	0	0.082109	0.063466	0.39192	0.57435	0.11172	0.094194	0.48322	0.22525	0.39556	0.12804	0.06873	0.211	0.44748	0.13247	0.092813	0.64935	-0.41875	-1.1083	-1.3917	-0.80417	-1.4917	-1.4021	-0.81667	-1.6583	-0.84167	-1.0271	-1.6208	-0.99583	-1.5083	-1.5208	-0.92292	-1.725	102.710	291.664	152.812	212.835	285.674	211.696	311.927	286.763	139.221	279.073	72.065	316.552	52.569	352.901	221.249	324.423	0.0017266	0.00062957	8.852e-05	588.89	6.7837e-06	5.5948e-06	1220.1	215.64	7.4453e-06	4.6904e-06	556.64	235.71	84.172	31.897	5.5287e-06	108.63	0.00018346	9.8218e-05	2.6577e-05	535.43	1.0438e-06	1.0844e-06	1118.8	198.29	1.0812e-06	1.0644e-06	420.05	216.49	75.716	29.276	1.0303e-06	100.01	66.791	98.485	111.729	35.364	116.962	160.386	35.705	38.955	167.483	159.359	38.701	43.110	43.418	46.972	140.221	46.495	-8191	255	
1472.214	1	1	0	0	0.27278	0.27157	0.05081	0.27995	0.31705	0.23186	0.14057	0.32561	0.082091	0.21874	0.2598	0.23961	0.13747	0.11593	0.058191	0.40557	-0.76667	-1.1021	-1.7542	-1.1271	-1.2792	-1.5917	-1.0604	-1.7375	-1.2521	-0.77708	-1.825	-0.93958	-1.3125	-1.7521	-0.90833	-2	93.410	337.713	35.167	319.178	302.444	99.730	364.064	360.148	226.910	171.899	40.699	355.937	25.228	369.666	107.979	277.536	0.0015845	0.00064645	0.00012653	587.39	7.5732e-06	3.3764e-06	1235.2	217.67	3.443e-06	4.5808e-06	560.13	237.53	83.643	32.374	5.9481e-06	109.65	0.00017763	9.7895e-05	2.6247e-05	537.32	1.1361e-06	1.047e-06	1124.2	199.89	1.1079e-06	1.0984e-06	423.18	217.93	75.935	29.461	1.0794e-06	100.75	69.814	113.977	91.573	35.301	154.912	226.429	35.538	39.148	156.076	187.436	38.609	43.081	42.887	46.695	139.291	46.793	-8191	255	
1472.310	1	1	0	0	0.19514	0.32001	0.16755	0.15691	0.20693	0.26513	0.18743	0.31196	0.19051	0.2541	0.27825	0.21079	0.20253	0.54938	0.34162	0.44945	-0.89375	-0.84375	-1.6417	-1.0646	-1.2521	-1.6417	-1.1187	-1.7708	-1.2979	-0.82917	-1.8021	-1.4062	-1.0854	-1.7458	-0.77292	-1.7271	189.907	254.265	99.868	376.818	307.421	243.699	360.299	375.482	303.305	327.190	67.849	322.255	354.927	320.021	183.651	342.806	0.0015667	0.00052651	0.00020852	583.14	6.2239e-06	5.551e-06	1214	216.04	7.4667e-06	7.2499e-06	550.63	235.25	82.227	31.396	6.5221e-06	107.43	0.00017577	9.689e-05	2.7012e-05	534.6	1.1021e-06	1.0286e-06	1114.6	198.34	1.0578e-06	1.0387e-06	418.51	215.52	75.082	28.923	1.0799e-06	99.031	69.977	98.250	128.511	35.427	147.449	175.192	35.909	38.937	155.808	176.134	39.262	42.891	43.079	46.898	167.929	46.520	-8191	255	
1472.404	1	1	0	0	0.16305	0.12558	0.20199	0.10587	0.25281	0.21016	0.14354	0.11138	0.12583	0.22032	0.057855	0.27859	0.32494	0.052255	0.18419	0.18111	-0.9875	-0.99375	-1.7479	-1.1604	-1.2396	-1.6792	-1.1854	-1.3687	-1.5875	-0.83333	-1.5562	-1.1854	-1.2167	-1.8146	-0.93333	-1.4354	130.490	245.061	157.623	334.605	199.813	338.346	329.737	347.277	288.430	115.964	297.985	340.583	370.191	152.623	220.530	320.341	0.0015786	0.00075336	0.00021456	585.48	2.6974e-06	4.4704e-06	1210.7	215.95	2.9677e-06	3.1212e-06	541.26	233.78	82.05	31.261	7.0054e-06	107.27	0.00017734	9.6867e-05	2.7081e-05	535.56	1.0788e-06	1.0028e-06	1110.2	197.27	1.0799e-06	1.0199e-06	414.99	214.47	74.908	28.855	1.097e-06	98.806	70.472	104.296	133.478	34.888	149.690	201.588	35.429	39.056	173.506	152.595	38.647	43.039	43.060	46.604	158.093	46.575	-8191	255	
1472.501	1	1	0	0	0.37724	0.25266	0.17635	0.09443	0.16704	0.11282	0.27566	0.14655	0.48572	0.11761	0.16062	0.23474	0.1261	0.19786	0.13448	0.39487	-1.1833	-0.82917	-1.5729	-1.3021	-1.0438	-1.7646	-1.0271	-1.2708	-1.6063	-0.99167	-1.6958	-1.4979	-0.92708	-1.9792	-0.86042	-1.3729	368.310	188.233	91.922	105.792	59.515	299.633	314.419	65.069	127.652	226.876	37.560	362.643	114.078	349.497	326.950	333.427	0.0015652	0.0006089	0.0001856	584.57	6.8432e-06	3.8314e-06	1216.4	216	6.2196e-06	5.1768e-06	548.06	234.77	82.788	31.657	6.25e-06	108.39	0.00017872	9.8985e-05	2.7171e-05	534.19	1.0552e-06	1.0253e-06	1113.6	197.61	1.0822e-06	1.0577e-06	418.06	215.82	75.321	29.134	1.1338e-06	99.848	68.521	115.145	145.995	35.057	140.246	199.221	35.636	39.187	152.495	201.005	40.458	42.886	43.074	46.516	174.667	46.325	-8191	255	
1472.599	1	1	0	0	0.10026	0.092327	0.15263	0.051741	0.089062	0.1893	0.32176	0.28288	0.20995	0.10188	0.20348	0.21293	0.20887	0.19991	0.049802	0.37239	-1.175	-0.95833	-1.375	-1.3896	-0.94167	-1.7542	-1.0958	-1.3604	-1.6646	-0.84583	-1.4896	-1.7625	-0.925	-1.6604	-1.1604	-1.2604	106.789	257.144	287.929	377.393	286.723	128.585	334.096	302.849	289.348	269.571	309.018	54.284	250.296	292.690	364.222	27.365	0.0015607	0.00064227	0.00011214	581.85	7.154e-06	4.952e-06	1218.1	215.81	5.5305e-06	5.6452e-06	548.19	233.84	81.72	31.44	6.9204e-06	107.26	0.00017344	9.6305e-05	2.7063e-05	533.73	1.0577e-06	1.0378e-06	1111.8	197.77	1.065e-06	1.0444e-06	420.71	215.16	74.501	28.834	1.1144e-06	98.689	70.768	95.432	106.736	35.234	148.805	195.303	35.429	38.712	173.066	170.820	39.049	42.856	43.792	46.844	152.290	46.630	-8191	255	
1472.717	1	1	0	0	0.034719	0.022515	0.089281	0.25122	0.15169	0.094364	0.022458	0.12432	0.11611	0.093546	0.20993	0.26043	0.28217	0.2284	0.046678	0.24143	-1.2771	-0.95208	-1.4312	-1.6063	-0.76042	-1.7979	-1.2271	-0.95	-1.7021	-0.76042	-1.3417	-1.5438	-0.80833	-1.5688	-1.1604	-1.0708	186.792	227.757	276.300	375.024	95.008	83.431	249.973	112.396	50.356	99.924	173.573	350.801	26.165	333.214	141.587	236.354	0.0016052	0.00065557	9.2634e-05	580.91	5.4928e-06	4.5624e-06	1216	212.99	8.1873e-06	8.3704e-06	551.72	233.12	81.662	31.449	7.6716e-06	106.74	0.00017555	0.00010099	2.7302e-05	530.14	1.049e-06	1.0583e-06	1109.1	195.24	1.0766e-06	1.0917e-06	419.1	213.73	74.363	28.692	1.0591e-06	98.354	68.410	111.759	122.151	35.133	145.382	207.768	35.820	38.951	174.974	177.871	39.395	43.112	43.288	46.642	119.310	46.480	-8191	255	
1472.814	1	1	0	0	0.061514	0.057963	0.19279	0.46382	0.28419	0.029175	0.12783	0.1615	0.058831	0.16656	0.076334	0.27612	0.23252	0.037566	0.087636	0.32898	-1.4479	-0.87292	-1.2146	-1.5417	-0.70208	-1.3896	-1.4854	-0.88542	-1.75	-1.0187	-1.0292	-1.8667	-0.54375	-1.3958	-1.2771	-1.0104	354.855	362.429	32.968	282.011	277.808	139.477	55.205	249.814	97.600	94.627	324.450	378.332	168.178	286.634	51.862	334.824	0.0014612	0.00053049	0.00023161	583.37	7.4495e-06	7.0677e-06	1215.2	213.81	8.0626e-06	6.082e-06	541.68	234.45	82.728	31.4	7.3196e-06	108.22	0.00016814	0.00010308	2.8399e-05	532.17	1.082e-06	1.0714e-06	1110.2	195.92	1.1065e-06	1.0868e-06	413.69	214.99	74.969	28.99	1.1182e-06	99.567	74.843	132.795	110.849	35.414	131.403	176.386	35.580	39.177	139.549	191.966	40.190	42.927	42.934	47.159	136.140	46.608	-8191	255	
1472.910	1	1	0	0	0.1148	0.081864	0.11463	0.12162	0.098782	0.15857	0.26335	0.16721	0.20125	0.047381	0.14846	0.16239	0.26546	0.25009	0.42063	0.29775	-1.3167	-0.89792	-1.1375	-1.7542	-0.76458	-1.4625	-1.5521	-0.78125	-1.5708	-1.0063	-1.1063	-1.7437	-0.925	-1.3604	-1.5167	-1.0875	184.550	151.760	114.355	45.387	311.656	376.883	300.990	36.172	22.446	127.924	165.716	283.992	299.493	344.475	28.358	339.750	0.0015833	0.00080537	0.00019004	582.66	6.3855e-06	6.3207e-06	1216.2	216.78	8.4739e-06	9.5049e-06	551.83	236.96	81.741	31.623	3.7984e-06	107.97	0.00017624	0.00010382	2.8063e-05	533.66	1.0771e-06	1.0764e-06	1114.6	198.39	1.0464e-06	1.0751e-06	420.65	216.53	74.647	29.047	1.0867e-06	99.414	68.341	98.874	95.078	35.072	138.157	177.866	35.678	39.389	156.797	192.921	39.249	42.786	43.020	47.047	147.931	46.802	-8191	255	
1472.981	1	1	0	0	0.0082282	0.29082	0.071297	0.18149	0.11307	0.23223	0.2373	0.13862	0.11402	0.21002	0.28783	0.20557	0.1556	0.15158	0.32399	0.20965	-1.3292	-1.1167	-0.93542	-1.6833	-0.8	-1.2771	-1.7	-0.92917	-1.5375	-1.2417	-0.92917	-1.8104	-1.1146	-1.1104	-1.4854	-0.81667	285.352	134.228	163.582	280.778	241.442	299.948	278.948	288.023	212.105	366.447	368.873	377.229	350.854	373.695	263.200	346.646	0.0015704	0.00050825	7.3784e-05	577.94	8.6146e-06	6.2435e-06	1210.8	212.41	5.9479e-06	6.9828e-06	538.75	233.43	81.877	31.228	3.0322e-06	107.38	0.0001812	9.9734e-05	2.7424e-05	531.52	1.1188e-06	1.116e-06	1108.3	195.06	1.1037e-06	1.0445e-06	412.73	214.21	74.427	28.827	1.0365e-06	98.641	69.419	124.407	115.468	35.113	115.476	168.334	35.706	38.913	153.984	170.662	38.882	43.087	43.031	47.109	180.832	46.585	-8191	255	
1473.102	1	1	0	0	0.39649	0.20402	0.10414	0.16231	0.25662	0.12662	0.27309	0.23551	0.25363	0.343	0.046888	0.17647	0.16014	0.27918	0.14736	0.35333	-0.87917	-1.1	-0.675	-1.8146	-0.84167	-1.1729	-1.7354	-0.82708	-1.3687	-1.4333	-0.81458	-1.9125	-1.0625	-1.1917	-1.6187	-0.94583	308.972	196.735	377.357	251.088	126.843	355.331	353.749	310.177	68.549	45.787	108.099	26.990	370.611	339.127	152.378	328.962	0.001632	0.00050149	0.00026921	579.8	4.1075e-06	4.1673e-06	1207.6	212.8	5.977e-06	4.8687e-06	555.92	235.04	81.656	31.594	4.587e-06	108.49	0.00018335	9.8775e-05	2.7505e-05	530.09	1.1131e-06	1.0477e-06	1107.5	195.58	1.1069e-06	1.0782e-06	418.48	215.37	74.605	28.975	1.0525e-06	99.617	63.682	103.349	101.846	35.194	148.103	129.091	35.713	39.033	152.706	195.453	39.267	43.338	43.291	46.982	150.766	46.340	-8191	255	
1473.198	1	1	0	0	0.10782	0.19543	0.070295	0.096053	0.13896	0.03432	0.059724	0.044145	0.20328	0.3257	0.31286	0.10288	0.30535	0.31047	0.2032	0.42824	-0.99167	-1.3229	-0.67708	-1.8	-0.87917	-0.84583	-1.7646	-0.80625	-1.2958	-1.4333	-0.75	-1.8333	-1.1625	-0.97917	-1.5146	-1.0979	218.640	304.115	168.783	279.930	177.285	213.702	35.388	274.105	155.417	272.420	173.339	350.193	352.811	245.358	287.762	328.210	0.001517	0.00045682	0.00017872	587.15	6.5004e-06	6.5606e-06	1215.7	215.01	7.3765e-06	5.3413e-06	548.72	237.55	82.267	31.893	3.8634e-06	108.56	0.0001863	9.5902e-05	2.722e-05	534.94	1.1222e-06	1.0741e-06	1111.9	197.37	1.1071e-06	1.045e-06	418.94	216.85	74.993	29.232	1.0779e-06	99.791	67.030	108.301	118.105	35.042	129.342	184.203	35.753	39.131	168.109	197.788	39.250	43.113	43.289	46.915	153.361	46.709	-8191	255	
1473.294	1	1	0	0	0.15423	0.11932	0.28673	0.4001	0.22157	0.2203	0.13789	0.12299	0.14258	0.20723	0.37797	0.15134	0.14258	0.084733	0.16426	0.39324	-0.74792	-1.5938	-0.82917	-1.5479	-1.3417	-0.83333	-1.6792	-1.0104	-1.1271	-1.5625	-0.6625	-1.6271	-1.3125	-0.66667	-1.9104	-1.1458	118.848	55.647	179.502	366.304	296.811	206.726	257.987	345.523	91.895	62.412	349.549	299.595	54.495	315.657	21.698	309.378	0.0016136	0.00043397	0.00020412	583.21	7.1199e-06	6.3378e-06	1209.8	213.78	7.1767e-06	7.1395e-06	541.17	234.73	82.187	31.444	6.883e-06	107	0.00018006	9.1622e-05	2.8527e-05	532.07	1.0538e-06	1.0556e-06	1109.6	196.01	1.106e-06	1.0139e-06	414.62	214.73	74.617	28.747	1.135e-06	98.425	69.554	129.784	100.203	35.222	146.215	209.797	36.053	39.099	173.559	168.670	39.829	43.164	43.064	47.294	184.804	46.450	-8191	255	
1473.390	1	1	0	0	0.073665	0.057797	0.17665	0.11771	0.18666	0.20584	0.23116	0.32809	0.23901	0.10566	0.16262	0.25226	0.049905	0.14942	0.1437	0.3147	-0.81042	-1.6917	-0.77708	-1.7458	-1.5625	-0.82292	-1.9521	-1.2229	-0.89792	-1.6104	-0.90625	-1.6521	-1.4979	-0.94167	-1.6729	-1.325	267.695	297.256	52.141	67.009	77.308	124.289	270.512	213.270	31.480	379.640	141.494	338.601	124.739	333.300	142.440	49.311	0.0016021	0.0005264	0.00011723	581.66	6.6113e-06	6.3462e-06	1203.9	214.63	5.874e-06	4.0242e-06	555.82	233.65	82.262	31.273	5.659e-06	107.55	0.00017956	9.2939e-05	2.7309e-05	531.83	1.0736e-06	1.0553e-06	1107.7	196.45	1.0662e-06	9.7952e-07	418.36	214.96	74.779	28.711	1.1018e-06	98.694	66.816	119.979	115.265	35.589	144.240	170.015	35.808	38.866	181.657	178.037	39.255	43.363	43.325	47.444	154.929	46.555	-8191	255	
1473.509	1	1	0	0	0.098503	0.29332	0.16671	0.14837	0.21627	0.14998	0.080094	0.32129	0.19126	0.024858	0.2853	0.18894	0.1896	0.27551	0.23727	0.27085	-0.54375	-1.7167	-0.89792	-1.2771	-1.4	-0.76042	-1.8083	-1.1125	-0.86458	-1.8271	-0.91042	-1.6167	-1.5333	-1.0271	-1.5875	-1.4438	348.363	187.483	131.158	125.785	232.157	248.378	344.070	372.584	141.054	69.585	315.620	255.253	377.241	37.726	369.157	362.404	0.0016791	0.00064832	0.00014703	576.74	5.3143e-06	3.4487e-06	1210.6	215.16	5.0675e-06	7.6288e-06	550.96	236.4	82.599	31.481	6.5693e-06	107.44	0.00018655	9.3138e-05	2.8033e-05	531.99	1.0228e-06	1.1062e-06	1108.3	197.26	1.0919e-06	1.0612e-06	418.39	216.21	74.86	28.874	1.1281e-06	99.244	65.765	114.556	145.007	35.666	157.151	188.539	36.125	39.253	156.068	193.093	39.142	43.237	42.802	47.098	175.638	46.449	-8191	255	
1473.605	1	1	0	0	0.18318	0.26266	0.14566	0.12505	0.10532	0.22269	0.13098	0.17163	0.15091	0.21329	0.15338	0.19872	0.12332	0.25488	0.15064	0.27272	-0.53125	-1.6604	-0.98333	-1.2917	-1.5958	-0.77917	-1.7542	-1.3958	-0.87292	-1.8312	-1.125	-1.4146	-1.8458	-0.89375	-1.4813	-1.5312	99.991	372.832	252.148	297.348	162.637	353.356	378.316	339.925	240.604	164.404	145.803	30.624	51.717	341.403	257.974	33.436	0.001549	0.0006341	0.00018212	580.21	7.6416e-06	6.7741e-06	1208.4	212.18	4.2447e-06	7.5441e-06	548.98	232.81	80.684	30.663	6.1986e-06	106.11	0.00017896	0.00010214	2.7616e-05	530.53	1.0948e-06	1.1079e-06	1106.6	194.81	1.1199e-06	1.1035e-06	417.39	213.76	73.825	28.385	1.1241e-06	97.382	66.759	109.782	129.989	35.708	150.019	139.938	35.857	39.302	175.068	175.900	39.010	43.036	43.399	47.174	147.565	46.742	-8191	255	
1473.679	1	1	0	0	0.040613	0.23224	0.16164	0.25439	0.25838	0.063877	0.33182	0.15788	0.20819	0.055191	0.23343	0.25415	0.17182	0.17496	0.11137	0.28792	-0.35833	-1.7854	-1.0312	-1.2667	-1.7854	-0.8375	-1.7313	-1.7563	-1.0375	-1.7667	-1.2167	-1.1208	-1.7896	-0.85	-1.3833	-1.4562	177.406	207.380	247.528	55.562	138.032	36.078	332.537	282.101	163.466	110.255	360.002	312.810	42.791	298.486	199.558	335.519	0.0015787	0.0006218	0.00013752	584.56	6.6046e-06	7.234e-06	1207.2	213.46	7.5686e-06	7.1549e-06	541.57	232.12	81.225	30.792	6.1956e-06	105.42	0.00017675	9.8718e-05	2.795e-05	530.58	1.0926e-06	1.1218e-06	1104.1	195.6	1.1426e-06	1.1334e-06	416.45	212.93	74.044	28.316	1.1136e-06	97.097	63.995	107.177	103.884	35.555	129.924	192.085	35.805	39.073	176.240	189.306	39.232	43.315	43.468	47.039	148.070	46.712	-8191	255	
1473.798	1	1	0	0	0.16225	0.27434	0.25173	0.17375	0.11153	0.23002	0.42188	0.37829	0.11027	0.36937	0.16045	0.21183	0.25711	0.053823	0.18104	0.26062	-0.33333	-1.5542	-1.0854	-0.96042	-1.7708	-0.77292	-1.4646	-1.6146	-0.89583	-1.4833	-1.1875	-1.0604	-1.6646	-1.0896	-1.1	-1.8229	241.318	197.047	219.872	246.259	30.368	100.796	325.534	58.495	353.968	149.347	295.501	303.976	364.251	218.925	262.621	298.549	0.00139	0.00076875	0.00015254	579.43	4.2551e-06	6.1114e-06	1205.3	215.52	5.6121e-06	4.4558e-06	547.63	234.24	82.576	31.128	7.0134e-06	107.36	0.00017877	0.00010303	2.8199e-05	531.39	1.0551e-06	1.1454e-06	1106.2	197.21	1.1366e-06	1.0957e-06	419.29	214.95	74.844	28.592	1.1013e-06	98.465	65.227	124.313	117.650	35.813	172.097	157.128	36.358	39.206	155.211	200.865	39.782	43.257	43.133	47.108	161.588	46.626	-8191	255	
1473.894	1	1	0	0	0.15615	0.19698	0.16089	0.26712	0.34246	0.14571	0.1726	0.13969	0.25478	0.095932	0.10167	0.15897	0.15682	0.21718	0.14093	0.18819	-0.67708	-1.4083	-1.375	-1.0312	-1.6271	-0.97917	-1.1437	-1.7437	-0.625	-1.3208	-1.3646	-0.85625	-1.6896	-1.1625	-1.1854	-1.7271	148.891	229.307	156.425	364.291	121.378	137.379	74.629	35.379	155.998	360.931	378.542	351.950	208.103	107.378	109.285	218.232	0.0015049	0.00036414	0.00015333	578.88	5.0109e-06	4.1562e-06	1209.7	214.41	8.5459e-06	3.3365e-06	560.35	233.77	81.965	30.853	4.6335e-06	105.74	0.00018519	0.00010267	2.7595e-05	531.64	1.1197e-06	1.1089e-06	1108.4	196.23	1.1749e-06	1.1021e-06	418.74	214.06	74.361	28.399	1.0976e-06	97.212	68.364	107.209	116.476	35.438	123.629	169.786	36.298	39.342	144.409	205.720	39.552	43.518	43.498	47.121	135.701	46.673	-8191	255	
1473.990	1	1	0	0	0.043188	0.15241	0.035277	0.22776	0.19223	0.16633	0.22519	0.25513	0.042954	0.071257	0.1723	0.080522	0.11207	0.22037	0.29135	0.13287	-0.35625	-1.3687	-1.3958	-0.72708	-1.4729	-0.94375	-1.1271	-1.7542	-0.92083	-1.4188	-1.3854	-0.88542	-1.6604	-1.0688	-0.76042	-1.8979	35.242	58.416	201.406	275.790	308.305	200.292	310.787	76.346	309.072	226.129	271.524	276.021	39.771	89.603	32.813	284.922	0.0014613	0.0003893	0.00021461	578.05	8.7712e-06	5.4012e-06	1199.5	211.8	6.2961e-06	4.3155e-06	532.46	231.95	81.812	30.534	4.2949e-06	105.78	0.00018369	0.00010064	2.7681e-05	528.76	1.1026e-06	1.1006e-06	1099.5	194.49	1.1898e-06	1.105e-06	411.28	212.61	74.129	28.158	1.1009e-06	97.065	68.168	99.560	135.537	35.969	140.678	157.035	36.273	39.384	143.901	195.231	40.062	43.596	43.563	46.658	140.252	46.889	-8191	255	
1474.111	1	1	0	0	0.23112	0.37283	0.10168	0.19292	0.12713	0.23608	0.40736	0.11734	0.10265	0.27334	0.38839	0.29025	0.3618	0.2371	0.22199	0.14255	-0.65	-1.1104	-1.4333	-1.0292	-1.5854	-1.1313	-1.075	-1.8062	-0.83125	-1.0938	-1.6958	-1.0229	-1.4708	-1.3958	-0.89167	-1.9917	167.550	21.964	162.096	302.262	108.947	208.726	284.252	90.718	87.038	142.837	234.543	322.307	316.492	360.287	321.058	378.127	0.0015385	0.00051518	9.1091e-05	577.54	8.3168e-06	3.5356e-06	1197.6	213.25	5.2895e-06	3.5201e-06	546.17	232.02	81.3	30.855	5.084e-06	106.14	0.0001834	0.00010357	2.633e-05	529.45	1.1296e-06	1.0505e-06	1101.2	195.43	1.1328e-06	1.0883e-06	414.89	212.73	74.007	28.444	1.1007e-06	97.726	68.271	146.322	110.978	35.563	132.072	145.275	35.912	39.440	134.057	196.049	39.747	43.148	42.926	46.744	155.710	46.887	-8191	255	
1474.207	1	1	0	0	0.13457	0.12976	0.23931	0.21245	0.11	0.24043	0.36635	0.26503	0.19523	0.1526	0.11044	0.18086	0.19623	0.23983	0.13369	0.21668	-0.55208	-1.2625	-1.6917	-0.94792	-1.3271	-1.4708	-0.95	-1.6938	-1.0833	-1.0292	-1.7625	-0.75208	-1.4583	-1.5875	-0.9	-1.8563	35.005	165.679	228.312	301.382	41.416	314.955	309.439	269.795	179.497	254.040	116.267	348.295	379.946	325.470	283.470	348.070	0.0015403	0.0004838	0.00017181	581.93	7.2631e-06	6.0913e-06	1201.9	214.9	7.4715e-06	5.9364e-06	544.01	234.48	82.215	31.242	4.8362e-06	106.35	0.00017885	0.00010093	2.7692e-05	531.75	1.181e-06	1.055e-06	1106.2	196.81	1.1451e-06	1.1143e-06	416.04	214.1	74.801	28.637	1.1291e-06	97.734	70.267	85.340	110.155	35.440	161.232	151.164	36.183	39.202	158.964	182.118	38.208	43.328	43.476	47.206	131.165	46.948	-8191	255	
1474.279	1	1	0	0	0.069461	0.16041	0.36189	0.12578	0.20575	0.18849	0.24761	0.080638	0.15143	0.19943	0.15064	0.34229	0.29348	0.081447	0.11442	0.13286	-0.67083	-0.85208	-1.6854	-1.0729	-1.2125	-1.5271	-1.0104	-1.6292	-1.1646	-1.1271	-1.7333	-1.2854	-1.3167	-1.6167	-0.67708	-1.6812	154.424	69.312	75.535	354.793	179.070	88.930	282.851	79.218	201.582	276.145	62.007	298.567	309.334	112.289	181.981	283.553	0.0015438	0.00048337	0.00014961	579.3	5.6569e-06	4.029e-06	1210.5	212.41	7.3943e-06	5.0572e-06	543.21	229.66	81.429	30.286	6.695e-06	105.33	0.00018037	0.00010194	2.8953e-05	529.98	1.1213e-06	1.1009e-06	1101.7	194.43	1.1412e-06	1.1263e-06	413.29	211.12	73.777	28.049	1.2087e-06	96.604	70.331	117.489	116.711	35.351	159.703	163.821	35.852	39.214	164.072	194.211	38.652	43.316	42.991	47.352	163.836	46.963	-8191	255	
1474.399	1	1	0	0	0.11006	0.13827	0.1992	0.31431	0.24545	0.10399	0.17808	0.13051	0.36145	0.096923	0.11061	0.30672	0.14508	0.25791	0.16915	0.31428	-0.89167	-0.85417	-1.6979	-0.95625	-1.1375	-1.7042	-0.83542	-1.5333	-1.2687	-1.1375	-1.5938	-1.1271	-1.0229	-1.6292	-0.84583	-1.6167	152.314	301.594	330.993	326.688	343.631	272.866	320.638	341.035	40.677	324.853	40.272	292.203	86.495	70.618	372.116	308.943	0.0015079	0.00062327	0.00013611	577.67	9.189e-06	7.2505e-06	1199.3	210.05	8.7208e-06	8.5386e-06	533.35	229.76	80.187	30.545	5.4651e-06	105.1	0.00017775	0.00010101	2.9145e-05	528.07	1.0881e-06	1.0677e-06	1096.4	193.03	1.1239e-06	1.1355e-06	410.09	210.83	73.363	28.144	1.1848e-06	96.617	69.156	110.858	110.919	35.554	144.720	190.191	36.384	39.339	148.918	188.746	39.482	43.287	43.734	47.549	104.810	47.105	-8191	255	
1474.494	1	1	0	0	0.08163	0.14288	0.055595	0.30077	0.16643	0.17251	0.17925	0.34901	0.20714	0.27135	0.16877	0.29962	0.20292	0.24686	0.15069	0.22299	-0.9375	-0.775	-1.6146	-1.0917	-1.1083	-1.7729	-0.78958	-1.4583	-1.4417	-0.81875	-1.7	-1.4021	-1.0271	-1.825	-0.90417	-1.5333	102.935	196.590	288.225	335.178	77.844	125.309	378.601	344.675	320.220	315.164	365.238	314.942	305.867	363.560	380.113	373.441	0.0015231	0.00057254	8.6971e-05	579.83	3.8523e-06	8.2099e-06	1201.3	211.54	5.4703e-06	5.6561e-06	537.38	231.4	81.298	31.072	6.6089e-06	105.46	0.00017577	0.00010179	2.9563e-05	527.29	1.1449e-06	1.1609e-06	1101.1	194.12	1.1341e-06	1.1181e-06	415.03	212.6	73.796	28.491	1.2167e-06	97.328	71.682	118.804	126.500	35.398	157.331	200.006	36.197	39.291	176.261	175.662	39.524	43.562	43.052	47.361	163.262	47.149	-8191	255	
1474.590	1	1	0	0	0.076102	0.13495	0.20152	0.19879	0.16225	0.1634	0.20512	0.27263	0.18903	0.23945	0.099276	0.55043	0.19543	0.1532	0.25518	0.4658	-1.2292	-0.77292	-1.6625	-1.2292	-0.99583	-1.6375	-1.0333	-1.3458	-1.4333	-0.66042	-1.6208	-1.4833	-0.89375	-1.7729	-0.94167	-1.225	298.756	108.390	322.337	37.183	373.050	83.087	378.031	363.906	329.251	199.824	247.341	372.335	303.881	171.855	376.515	315.957	0.0014966	0.00060764	0.00017536	571.82	7.9479e-06	6.9986e-06	1190.2	211.26	5.8989e-06	6.8358e-06	541.18	229.1	80.179	30.438	7.1908e-06	104.64	0.00017606	0.00010854	2.8292e-05	525.52	1.1075e-06	1.1576e-06	1094.6	193.13	1.14e-06	1.1353e-06	413.34	210.43	73.061	28.03	1.1741e-06	96.151	62.610	120.956	97.889	35.667	161.316	165.605	36.158	39.950	148.748	170.295	40.473	43.342	43.540	47.832	164.409	46.949	-8191	255	
1474.686	1	1	0	0	0.30907	0.23816	0.13682	0.074049	0.24388	0.096693	0.14474	0.22174	0.15508	0.053429	0.11034	0.36522	0.11289	0.12655	0.20155	0.14129	-1.3292	-0.8625	-1.575	-1.5125	-0.82292	-1.7375	-1.1875	-1.1	-1.6125	-0.77917	-1.4958	-1.5583	-0.9	-1.8208	-1.1458	-1.2104	294.314	244.898	379.297	376.856	35.023	296.508	261.392	360.311	177.889	111.215	291.209	293.230	260.107	276.909	109.578	335.933	0.0015947	0.00062919	0.0001624	573.76	5.3009e-06	6.3804e-06	1187.6	207.59	7.0414e-06	6.3649e-06	526.74	227.81	79.94	30.356	5.9678e-06	104.79	0.0001815	0.00011192	3.0252e-05	523.33	1.1427e-06	1.1026e-06	1091.4	190.88	1.1848e-06	1.183e-06	405.38	209.52	72.786	28.03	1.1434e-06	96.346	66.550	112.413	119.144	35.343	146.971	176.715	36.054	39.564	136.833	173.676	38.249	43.453	43.139	47.183	161.735	46.895	-8191	255	
1474.806	1	1	0	0	0.055607	0.096708	0.24494	0.16218	0.25909	0.058281	0.2403	0.18976	0.17302	0.14129	0.066967	0.33406	0.15405	0.13373	0.28854	0.30235	-1.3229	-0.98958	-1.325	-1.6354	-0.77083	-1.6833	-1.3875	-1.0333	-1.7208	-1	-1.1896	-1.6437	-0.7	-1.5604	-1.225	-1.1021	342.811	341.817	141.020	297.331	172.050	199.931	39.351	338.480	53.334	101.164	181.811	356.170	320.937	51.427	107.609	351.719	0.0015462	0.00071773	9.4683e-05	571.29	7.0819e-06	6.5185e-06	1192.2	209.04	6.9701e-06	6.3218e-06	540.74	228.48	80.081	30.719	6.8357e-06	105.64	0.00017986	0.00010651	2.7974e-05	525.12	1.1548e-06	1.122e-06	1092	192.59	1.1613e-06	1.1795e-06	411.52	210.8	72.835	28.272	1.1011e-06	97.297	69.582	99.484	111.034	35.140	117.222	196.278	35.732	39.294	131.038	189.824	39.891	43.243	43.101	47.530	141.448	47.192	-8191	255	
1474.903	1	1	0	0	0.20467	0.21457	0.17984	0.13319	0.27679	0.13063	0.27578	0.17809	0.093865	0.25921	0.17817	0.24784	0.32493	0.29394	0.18294	0.53645	-1.1729	-0.81667	-1.0979	-1.625	-0.56875	-1.4375	-1.3854	-0.82917	-1.6292	-0.91458	-1.2938	-1.7104	-0.81458	-1.5542	-1.2979	-1.1104	298.614	212.975	174.920	358.406	62.842	284.850	348.280	378.808	105.600	171.259	39.871	344.276	38.424	278.899	268.065	330.221	0.0014455	0.00054197	0.00014005	569.82	7.5212e-06	4.0982e-06	1191	209.06	7.4184e-06	6.3255e-06	550.75	228.64	79.599	30.399	7.4858e-06	104.44	0.0001821	0.0001067	2.9091e-05	523.81	1.1867e-06	1.1141e-06	1092	191.38	1.154e-06	1.1252e-06	412.26	209.43	72.467	27.983	1.1303e-06	96.229	69.029	147.218	109.466	35.561	139.880	179.964	36.341	39.236	138.358	186.152	39.632	43.209	43.433	47.174	143.846	46.824	-8191	255	
1474.974	1	1	0	0	0.15877	0.26054	0.29715	0.16792	0.19021	0.10129	0.090934	0.018809	0.079631	0.37456	0.14519	0.10183	0.19145	0.046519	0.016261	0.29103	-1.2396	-1.025	-1.0812	-1.8479	-0.88333	-1.425	-1.6646	-0.81458	-1.8021	-1.2812	-1.0562	-1.7292	-0.99375	-1.5938	-1.4292	-1	299.798	67.200	239.216	111.420	366.811	286.538	218.965	249.989	172.919	63.686	30.763	300.952	344.722	100.391	34.930	325.764	0.0016305	0.00045195	3.2881e-05	570.38	4.6205e-06	2.4616e-06	1185.3	207.92	9.3883e-06	6.3018e-06	537.6	228.27	79.498	30.304	5.8294e-06	104.54	0.00018239	0.00010345	2.7283e-05	521.73	1.173e-06	1.1146e-06	1089.7	191.34	1.1831e-06	1.1431e-06	408.88	209.2	72.219	27.945	1.1808e-06	95.948	72.871	112.160	100.718	35.666	162.753	161.175	35.660	39.222	130.279	194.912	39.071	43.396	43.265	47.443	118.004	47.189	-8191	255	
1475.070	1	1	0	0	0.10766	0.23913	0.41012	0.16126	0.34114	0.22102	0.29157	0.21572	0.17297	0.24996	0.13961	0.29523	0.12979	0.096168	0.19455	0.32675	-1.3229	-1.15	-0.71667	-1.8458	-0.90833	-1.3167	-1.7771	-0.96875	-1.55	-1.4062	-0.89583	-1.8271	-0.96458	-1.3	-1.6792	-0.95	182.966	108.039	103.958	325.939	374.827	41.227	269.632	26.706	337.400	231.315	100.796	370.210	266.985	138.322	282.301	357.447	0.0016119	0.00052524	0.00020678	569.3	6.1308e-06	5.1715e-06	1192.2	209.01	7.8022e-06	6.691e-06	535.6	230.36	79.58	30.81	4.8592e-06	105.92	0.00018084	0.00010305	3.022e-05	521.18	1.1744e-06	1.1264e-06	1089.5	191.84	1.1726e-06	1.0941e-06	410.49	210.68	72.742	28.249	1.1083e-06	96.983	69.099	96.368	132.625	35.593	117.176	185.620	35.985	39.819	137.093	195.469	38.975	43.196	43.833	47.290	152.471	46.748	-8191	255	
1475.191	1	1	0	0	0.14354	0.23805	0.23065	0.21149	0.1724	0.15576	0.42664	0.056769	0.069042	0.096585	0.03148	0.14645	0.22624	0.13861	0.16648	0.36328	-1.2792	-1.3479	-0.77292	-1.5854	-0.94792	-0.94375	-1.9333	-0.95625	-1.5438	-1.3729	-0.9375	-2.0479	-1.2479	-1.1542	-1.8042	-1.1208	125.194	128.162	242.361	370.693	187.905	346.976	316.872	100.763	270.661	357.501	196.492	89.589	73.298	322.730	137.753	294.501	0.001467	0.00035596	0.0002189	577.62	6.7198e-06	4.1967e-06	1190.8	211.78	3.7108e-06	6.1601e-06	541.59	231.76	80.582	30.732	3.6539e-06	105.64	0.00018376	0.00010539	3.013e-05	527.71	1.2465e-06	1.1181e-06	1098.4	194.39	1.1888e-06	1.137e-06	411.98	212.24	73.237	28.341	1.1468e-06	96.797	68.595	102.032	130.687	35.656	125.822	152.627	36.129	39.057	160.973	178.357	38.876	43.650	43.504	47.277	107.718	46.883	-8191	255	
1475.287	1	1	0	0	0.091368	0.1544	0.077454	0.10328	0.22319	0.085034	0.070101	0.17828	0.21408	0.16705	0.20638	0.37163	0.081166	0.34105	0.14102	0.31644	-1.1542	-1.4062	-0.6625	-1.6	-1.1271	-0.93125	-1.7542	-0.79583	-1.3708	-1.4937	-0.88958	-1.8125	-1.2229	-1.0229	-1.8854	-1.3042	257.476	228.010	245.793	82.436	162.564	219.572	349.521	333.063	286.982	176.690	275.653	377.080	90.747	362.803	95.474	290.614	0.0014886	0.00075238	0.00020598	570.15	1.0891e-05	6.1162e-06	1186.4	208.3	5.5804e-06	6.1993e-06	538.48	229.38	80.426	30.418	8.3056e-06	104.3	0.00017915	0.00010211	3.0841e-05	524.77	1.1582e-06	1.1523e-06	1091.1	191.46	1.2257e-06	1.1083e-06	410.91	210.01	72.571	28.011	1.1609e-06	95.992	70.267	100.180	133.444	35.464	155.615	195.926	36.228	39.141	130.312	177.108	40.196	43.410	43.534	47.486	169.377	47.149	-8191	255	
1475.382	1	1	0	0	0.32758	0.054941	0.1013	0.090159	0.33451	0.31845	0.31694	0.24251	0.030338	0.22851	0.25437	0.37001	0.12473	0.15848	0.29693	0.31001	-0.99375	-1.5542	-0.97708	-1.4042	-1.2479	-0.84792	-2	-1	-1.0917	-1.4937	-0.81042	-1.7792	-1.3604	-0.68542	-1.7167	-1.2417	318.983	244.641	272.049	72.035	233.134	330.370	308.895	199.420	191.823	122.294	122.637	364.073	79.995	266.087	380.162	315.826	0.0013972	0.00066535	0.00018552	567.33	5.9825e-06	2.3391e-06	1193.5	208.71	6.3356e-06	7.3552e-06	539.07	229.29	80.152	30.89	6.52e-06	106.17	0.00017925	0.00010339	3.0575e-05	522.98	1.1307e-06	1.1269e-06	1093.2	191.46	1.139e-06	1.1207e-06	411.78	210.31	73.122	28.345	1.2093e-06	97.536	68.366	102.569	137.124	36.152	96.550	184.750	36.251	39.517	136.251	176.920	39.342	43.981	43.405	47.066	155.703	46.951	-8191	255	
1475.480	1	1	0	0	0.13889	0.12657	0.017874	0.10208	0.2365	0.19105	0.064057	0.2853	0.024064	0.26449	0.17556	0.27421	0.41053	0.38654	0.33268	0.24397	-0.79375	-1.65	-0.77917	-1.5542	-1.3646	-0.88542	-1.8208	-1.0854	-1.0042	-1.5792	-0.825	-1.4521	-1.5542	-1.0021	-1.6771	-1.3792	66.152	201.937	353.298	66.125	95.825	352.397	356.545	345.628	327.312	97.405	116.798	74.134	273.334	355.998	277.796	315.967	0.0016677	0.00051158	6.6224e-05	576.46	6.9384e-06	9.5808e-06	1194.7	211.86	7.4431e-06	3.8405e-06	544.85	231.5	80.653	31.361	4.7779e-06	106.64	0.00018214	0.00010715	2.966e-05	526.83	1.0809e-06	1.1543e-06	1096.4	194.12	1.1955e-06	1.1658e-06	413.11	212.63	73.653	28.811	1.1734e-06	98.099	66.339	123.509	165.036	35.957	112.752	163.452	36.306	39.328	152.274	147.320	40.048	43.708	43.645	47.862	150.023	46.931	-8191	255	
1475.574	1	1	0	0	0.20783	0.1248	0.024247	0.1941	0.24453	0.11484	0.16362	0.087117	0.21993	0.30227	0.21511	0.1214	0.034751	0.1677	0.23659	0.14433	-0.60833	-1.6396	-0.95833	-1.4125	-1.5396	-0.89583	-1.8	-1.3375	-0.97292	-1.6812	-1.0917	-1.5479	-1.8292	-1.0708	-1.4771	-1.4979	296.642	72.480	253.082	113.336	136.345	345.352	310.230	34.696	189.848	145.137	291.047	38.014	192.341	161.190	223.817	343.725	0.0014863	0.00048897	0.00023625	573.42	6.2206e-06	6.2594e-06	1194.4	208	5.6832e-06	5.2596e-06	529.47	230.61	80.666	30.764	5.845e-06	105.9	0.00018518	0.00010887	2.9604e-05	524.35	1.1335e-06	1.2002e-06	1090.2	192	1.2145e-06	1.179e-06	405.96	210.91	73.177	28.399	1.1877e-06	97.316	69.733	115.767	102.759	36.226	141.696	184.023	36.467	39.479	119.210	172.044	38.579	43.423	43.093	47.654	145.273	46.718	-8191	255	
1475.672	1	1	0	0	0.20823	0.10513	0.050713	0.068836	0.079325	0.10525	0.22141	0.24944	0.032064	0.062186	0.22001	0.34061	0.044392	0.36158	0.21945	0.25912	-0.4625	-1.7333	-0.81667	-1.2708	-1.6333	-0.63125	-1.4958	-1.4	-0.79792	-1.6979	-1.2083	-1.35	-1.7771	-0.78542	-1.4333	-1.5583	250.743	79.610	219.707	370.597	281.208	79.826	337.072	372.089	102.555	302.322	225.200	279.460	336.488	359.534	287.130	279.355	0.0015108	0.00058857	0.00022509	573.25	3.0338e-06	3.0001e-06	1192.3	209.82	7.1727e-06	5.3704e-06	545.48	230.54	80.994	31.006	3.0997e-06	107.08	0.00018721	0.00010597	3.0159e-05	525.16	1.2147e-06	1.1607e-06	1093.9	191.95	1.2252e-06	1.1495e-06	410.94	211.98	73.601	28.624	1.1532e-06	98.349	66.439	123.269	90.085	35.668	161.337	157.898	36.321	39.597	126.589	199.077	40.059	43.335	42.978	47.060	105.503	46.673	-8191	255	
1475.791	1	1	0	0	0.12291	0.14825	0.15331	0.039651	0.08282	0.12696	0.18185	0.12223	0.11872	0.32603	0.047852	0.20641	0.22563	0.19296	0.19567	0.34724	-0.34583	-1.5375	-0.98333	-1.1333	-1.6	-0.86042	-1.4458	-1.7375	-0.775	-1.5625	-1.1542	-0.95417	-1.6875	-1.1354	-1.3208	-1.7375	299.744	44.573	143.024	353.379	168.543	329.447	59.173	207.916	293.605	172.981	254.523	339.077	215.662	71.281	333.170	266.644	0.001613	0.00047631	0.00011922	579.31	4.778e-06	6.4378e-06	1192.1	213.42	5.5249e-06	6.0648e-06	548.36	232.54	81.678	31.594	7.4626e-06	108.49	0.00019456	0.00010309	2.8285e-05	528.59	1.1416e-06	1.1846e-06	1097.2	194.91	1.2406e-06	1.1444e-06	415.57	213.59	74.397	29.026	1.1562e-06	99.483	66.526	119.725	111.382	35.610	152.880	179.014	36.117	39.072	155.346	167.598	39.574	43.763	43.595	47.247	137.262	46.717	-8191	255	
1475.887	1	1	0	0	0.079659	0.10611	0.076949	0.18366	0.16441	0.15933	0.21711	0.1626	0.21645	0.27626	0.31076	0.4452	0.24449	0.2573	0.098009	0.1016	-0.50833	-1.5333	-1.0771	-0.82083	-1.7	-0.78333	-1.5708	-1.6437	-0.93542	-1.7333	-1.3125	-1.1542	-1.7375	-1.0292	-1.0729	-1.9813	257.359	314.006	120.893	341.032	198.473	321.125	333.436	327.491	370.650	158.504	176.112	300.430	374.715	77.058	184.159	290.320	0.0015928	0.00069279	0.00017031	579.12	7.7032e-06	6.5655e-06	1204.8	210.75	1.0148e-05	5.4603e-06	537.68	231.05	80.796	31.176	5.46e-06	106.67	0.00018804	0.00010534	2.8454e-05	528.11	1.1821e-06	1.1235e-06	1098	193.37	1.2185e-06	1.1262e-06	412.49	212.49	73.506	28.616	1.1515e-06	98.016	66.766	108.104	104.775	35.567	153.682	186.500	36.614	39.317	140.605	165.070	39.393	43.445	43.557	47.591	157.567	46.860	-8191	255	
1475.983	1	1	0	0	0.061431	0.22941	0.26889	0.073788	0.20916	0.14032	0.29024	0.27547	0.29168	0.30844	0.095724	0.16754	0.24396	0.14922	0.11207	0.23145	-0.63958	-1.4771	-1.4417	-0.95833	-1.9438	-0.98958	-1.2563	-1.7792	-0.84583	-1.4729	-1.4	-1.225	-1.8896	-1.1875	-1.0479	-1.9167	119.792	43.376	352.762	96.732	189.637	31.181	358.373	24.944	129.537	288.907	31.538	347.334	29.456	377.022	316.350	368.163	0.0015535	0.00068127	0.00012899	571.17	7.2929e-06	3.978e-06	1188.6	212.07	5.5324e-06	7.6241e-06	531.88	231.28	81.312	31.095	3.1457e-06	107.45	0.00018524	9.7299e-05	2.8094e-05	524.48	1.1737e-06	1.1281e-06	1092.8	193.55	1.1742e-06	1.1134e-06	407.02	212.28	73.636	28.543	1.1482e-06	98.507	65.972	104.627	133.945	35.835	137.623	142.763	36.156	39.515	172.909	191.819	40.703	43.924	43.465	47.409	95.847	47.002	-8191	255	
1476.079	1	1	0	0	0.15284	0.123	0.075148	0.11979	0.47964	0.36231	0.41943	0.024937	0.34353	0.21724	0.034818	0.40112	0.35293	0.18503	0.015934	0.18274	-0.32708	-1.4896	-1.4521	-0.95417	-1.6917	-1.1729	-1.1146	-1.7146	-1.1479	-1.5312	-1.6708	-0.9	-1.7646	-1.1604	-0.95208	-1.8312	151.787	249.491	258.360	298.726	49.860	199.602	334.665	113.122	104.127	160.266	176.154	338.446	56.623	320.687	118.711	333.037	0.0015845	0.00048467	0.00012091	578.15	6.7798e-06	4.932e-06	1194.8	210.95	6.3432e-06	6.6255e-06	531.91	231.66	80.629	31.011	4.1057e-06	107.77	0.00018326	0.00010108	2.9107e-05	526.14	1.1462e-06	1.1069e-06	1097.1	193.59	1.1846e-06	1.1028e-06	408.19	212.32	73.389	28.7	1.207e-06	99.064	66.769	117.108	133.133	35.662	170.867	207.701	36.263	39.746	136.997	201.933	40.320	43.766	43.430	47.471	158.495	46.759	-8191	255	
1476.175	1	1	0	0	0.11165	0.081746	0.28265	0.015485	0.27012	0.20985	0.28204	0.036628	0.24248	0.2623	0.070669	0.165	0.17401	0.15032	0.010035	0.16756	-0.52083	-1.3583	-1.5104	-0.87708	-1.4917	-1.3479	-1.0625	-1.8833	-0.99583	-1.1521	-1.5625	-0.99167	-1.5396	-1.5375	-0.99792	-2.0062	301.895	41.064	368.652	193.781	314.597	109.375	351.874	154.213	22.923	341.024	255.521	333.039	360.153	271.495	155.130	327.683	0.0015118	0.00035138	0.00019213	573.24	9.1534e-06	5.1311e-06	1190.1	207.91	7.752e-06	7.0192e-06	526.34	229.52	79.824	30.905	4.268e-06	106.1	0.00018562	0.00010652	2.9379e-05	524.14	1.1092e-06	1.132e-06	1093.9	191.3	1.1841e-06	1.1546e-06	407.77	211.2	72.734	28.35	1.2228e-06	97.458	67.459	120.097	102.749	35.948	134.688	197.915	36.472	39.292	166.654	178.631	39.501	43.746	43.718	47.616	169.630	47.042	-8191	255	
1476.271	1	1	0	0	0.11647	0.27345	0.25088	0.18687	0.040841	0.21166	0.19051	0.20346	0.16167	0.27247	0.2492	0.15994	0.019846	0.3298	0.20603	0.29005	-0.70833	-1.0771	-1.7188	-0.8375	-1.4562	-1.4271	-0.92917	-1.7437	-0.99792	-0.81667	-1.5896	-1.125	-1.5187	-1.3354	-0.82917	-1.7917	358.513	212.617	279.575	262.241	265.685	348.811	306.851	315.560	158.804	195.480	258.842	60.733	377.396	24.343	93.352	333.018	0.0015997	0.00057381	0.00012808	569.35	6.0319e-06	4.7997e-06	1189.2	205.67	6.5735e-06	5.2713e-06	525.31	228.17	79.239	30.535	5.2382e-06	105.25	0.00018449	0.00010717	2.9748e-05	520.88	1.146e-06	1.1465e-06	1088.4	189.27	1.1632e-06	1.2631e-06	405.39	209.6	72.102	28.074	1.2537e-06	96.805	67.511	109.221	101.263	35.927	188.957	160.246	36.365	39.398	174.567	168.187	39.944	43.434	43.846	47.423	165.521	47.375	-8191	255	
#DATA ENDS
