BOXY.EXE: ISS Imagent and Oximeter Data Acquisition Program Version 0.80
Ascii Record File

#ACQ INFORMATION
2  Detector Channels 
16  External MUX Channels 
1  Auxiliary Channels 
5000  Waveform (CCF) Frequency (Hz)
1  Waveforms Skipped 
30  Waveforms Averaged 
1  Cycles Averaged 
16  Acquisitions per Waveform 
10.0806  Updata Rate (Hz) 

#FILE INFORMATION
TRUE -- External MUX Channel results are PARSED.
FALSE -- AC DC and Phase are NOT grouped.
TRUE -- Companion Program Settings File CREATED.
FALSE -- AC data not excluded
FALSE -- DC data not excluded
FALSE -- Phase data not excluded
FALSE -- Auxillary Chn. data not excluded
Tab delimiters

#CALIBRATION STATE
TRUE -- Waveform Calibration Values APPLIED.


#AUX CALIBRATION VALUES
Val Type	aux-1	

Term	1.0000e+00	
Factor	0.0000e+00	


#WF CALIBRATION VALUES
A = Detector Channel
Val Type	A-AC1	A-AC2	A-AC3	A-AC4	A-AC5	A-AC6	A-AC7	A-AC8	A-AC9	A-AC10	A-AC11	A-AC12	A-AC13	A-AC14	A-AC15	A-AC16	A-DC1	A-DC2	A-DC3	A-DC4	A-DC5	A-DC6	A-DC7	A-DC8	A-DC9	A-DC10	A-DC11	A-DC12	A-DC13	A-DC14	A-DC15	A-DC16	A-Ph1	A-Ph2	A-Ph3	A-Ph4	A-Ph5	A-Ph6	A-Ph7	A-Ph8	A-Ph9	A-Ph10	A-Ph11	A-Ph12	A-Ph13	A-Ph14	A-Ph15	A-Ph16	

Term	0.00000e+00	0.00000e+00	0.00000e+00	0.00000e+00	0.00000e+00	0.00000e+00	0.00000e+00	0.00000e+00	0.00000e+00	0.00000e+00	0.00000e+00	0.00000e+00	0.00000e+00	0.00000e+00	0.00000e+00	0.00000e+00	0.00000e+00	0.00000e+00	0.00000e+00	0.00000e+00	0.00000e+00	0.00000e+00	0.00000e+00	0.00000e+00	0.00000e+00	0.00000e+00	0.00000e+00	0.00000e+00	0.00000e+00	0.00000e+00	0.00000e+00	0.00000e+00	0.00000e+00	0.00000e+00	0.00000e+00	0.00000e+00	0.00000e+00	0.00000e+00	0.00000e+00	0.00000e+00	0.00000e+00	0.00000e+00	0.00000e+00	0.00000e+00	0.00000e+00	0.00000e+00	0.00000e+00	0.00000e+00	
Factor	1.00000e+00	1.00000e+00	1.00000e+00	1.00000e+00	1.00000e+00	1.00000e+00	1.00000e+00	1.00000e+00	1.00000e+00	1.00000e+00	1.00000e+00	1.00000e+00	1.00000e+00	1.00000e+00	1.00000e+00	1.00000e+00	1.00000e+00	1.00000e+00	1.00000e+00	1.00000e+00	1.00000e+00	1.00000e+00	1.00000e+00	1.00000e+00	1.00000e+00	1.00000e+00	1.00000e+00	1.00000e+00	1.00000e+00	1.00000e+00	1.00000e+00	1.00000e+00	X	X	X	X	X	X	X	X	X	X	X	X	X	X	X	X	

B = Detector Channel
Val Type	B-AC1	B-AC2	B-AC3	B-AC4	B-AC5	B-AC6	B-AC7	B-AC8	B-AC9	B-AC10	B-AC11	B-AC12	B-AC13	B-AC14	B-AC15	B-AC16	B-DC1	B-DC2	B-DC3	B-DC4	B-DC5	B-DC6	B-DC7	B-DC8	B-DC9	B-DC10	B-DC11	B-DC12	B-DC13	B-DC14	B-DC15	B-DC16	B-Ph1	B-Ph2	B-Ph3	B-Ph4	B-Ph5	B-Ph6	B-Ph7	B-Ph8	B-Ph9	B-Ph10	B-Ph11	B-Ph12	B-Ph13	B-Ph14	B-Ph15	B-Ph16	

Term	0.00000e+00	0.00000e+00	0.00000e+00	0.00000e+00	0.00000e+00	0.00000e+00	0.00000e+00	0.00000e+00	0.00000e+00	0.00000e+00	0.00000e+00	0.00000e+00	0.00000e+00	0.00000e+00	0.00000e+00	0.00000e+00	0.00000e+00	0.00000e+00	0.00000e+00	0.00000e+00	0.00000e+00	0.00000e+00	0.00000e+00	0.00000e+00	0.00000e+00	0.00000e+00	0.00000e+00	0.00000e+00	0.00000e+00	0.00000e+00	0.00000e+00	0.00000e+00	-2.23846e+00	-1.31119e+02	-1.35896e+02	-1.81478e+02	-5.32445e+01	-6.29258e+01	-1.58115e+02	-1.62015e+02	-5.21912e+01	-6.51356e+01	-1.73607e+02	-1.71776e+02	-1.83012e+02	-1.76573e+02	-5.74558e+01	-1.49837e+02	
Factor	3.30459e-05	1.49444e-04	4.39707e-05	1.58432e-01	1.72561e-06	1.36174e-06	1.67435e-01	4.77828e-02	1.66550e-06	1.80684e-06	9.40725e-02	2.82132e-02	5.96618e-02	8.24392e-03	1.74084e-06	1.21984e-02	3.04457e-06	3.32303e-06	9.25805e-07	8.43004e-02	3.58660e-08	3.66680e-08	8.32303e-02	2.54810e-02	3.58404e-08	3.65924e-08	4.79435e-02	1.44760e-02	3.08274e-02	4.42958e-03	3.60998e-08	6.29450e-03	X	X	X	X	X	X	X	X	X	X	X	X	X	X	X	X	



#DISTANCE SETTINGS
A = Detector Channel
A-1	A-2	A-3	A-4	A-5	A-6	A-7	A-8	A-9	A-10	A-11	A-12	A-13	A-14	A-15	A-16	

2.5000e+00	3.0000e+00	2.5000e+00	3.0000e+00	2.0000e+00	3.0000e+00	1.5000e+00	3.0000e+00	3.0000e+00	3.0000e+00	3.0000e+00	3.0000e+00	3.0000e+00	3.0000e+00	1.5000e+00	3.0000e+00	

B = Detector Channel
B-1	B-2	B-3	B-4	B-5	B-6	B-7	B-8	B-9	B-10	B-11	B-12	B-13	B-14	B-15	B-16	

1.0000e+01	1.0000e+01	1.0000e+01	1.4400e+00	1.0000e+01	1.0000e+01	1.5100e+00	1.9400e+00	1.0000e+01	1.0000e+01	1.9900e+00	2.4900e+00	2.4100e+00	2.9000e+00	1.0000e+01	2.9800e+00	




#DATA BEGINS
time	group	step	mark	flag	A-AC1	A-AC2	A-AC3	A-AC4	A-AC5	A-AC6	A-AC7	A-AC8	A-AC9	A-AC10	A-AC11	A-AC12	A-AC13	A-AC14	A-AC15	A-AC16	A-DC1	A-DC2	A-DC3	A-DC4	A-DC5	A-DC6	A-DC7	A-DC8	A-DC9	A-DC10	A-DC11	A-DC12	A-DC13	A-DC14	A-DC15	A-DC16	A-Ph1	A-Ph2	A-Ph3	A-Ph4	A-Ph5	A-Ph6	A-Ph7	A-Ph8	A-Ph9	A-Ph10	A-Ph11	A-Ph12	A-Ph13	A-Ph14	A-Ph15	A-Ph16	B-AC1	B-AC2	B-AC3	B-AC4	B-AC5	B-AC6	B-AC7	B-AC8	B-AC9	B-AC10	B-AC11	B-AC12	B-AC13	B-AC14	B-AC15	B-AC16	B-DC1	B-DC2	B-DC3	B-DC4	B-DC5	B-DC6	B-DC7	B-DC8	B-DC9	B-DC10	B-DC11	B-DC12	B-DC13	B-DC14	B-DC15	B-DC16	B-Ph1	B-Ph2	B-Ph3	B-Ph4	B-Ph5	B-Ph6	B-Ph7	B-Ph8	B-Ph9	B-Ph10	B-Ph11	B-Ph12	B-Ph13	B-Ph14	B-Ph15	B-Ph16	aux-1	digaux	

1859.075	1	1	0	256	0.39899	0.059009	0.24188	0.10338	0.21622	0.037587	0.17078	0.21472	0.23818	0.17329	0.13299	0.21257	0.13507	0.089521	0.29846	0.18638	-1.0438	-2.0104	-2.1354	-1.4896	-2.2604	-1.6708	-1.6583	-2.5563	-1.3917	-1.9688	-2.2833	-1.4292	-2.2667	-2.0875	-1.5146	-2.3292	-134.469	-25.765	-155.437	47.566	54.502	-58.549	105.999	139.962	98.721	47.336	145.267	14.358	-133.321	-15.801	183.040	88.580	0.00082872	0.0006112	0.00028299	956.08	8.2568e-06	7.0521e-06	1262.6	281.44	8.2778e-06	5.3844e-06	375.32	134.62	103.84	42.774	1.2059e-05	58.16	0.00076113	0.00078036	0.00021292	822.21	8.3087e-06	8.3251e-06	1082.7	243.26	8.3787e-06	8.5664e-06	325.56	116.85	92.038	37.143	8.4407e-06	50.297	-39.456	-139.175	-69.247	-152.532	-125.645	31.982	-154.382	-146.086	-42.883	79.981	-148.766	-144.056	-140.082	-135.508	-38.764	-140.202	-8191	255	
1859.171	1	1	0	0	0.2733	0.058835	0.10878	0.21919	0.23573	0.10985	0.29126	0.20943	0.14752	0.024802	0.096445	0.17772	0.36579	0.14763	0.03208	0.33258	-1.2167	-1.9042	-2.3646	-1.5604	-2.2917	-1.8771	-1.625	-2.4542	-1.5271	-1.8021	-2.3854	-1.4375	-1.9979	-2.0563	-1.2729	-2.4229	135.901	-141.402	-160.275	86.298	-148.455	-103.225	116.088	94.345	-89.027	-155.481	192.938	68.040	184.132	-42.799	195.944	173.077	0.00076312	0.00025406	8.1476e-05	956.14	6.3134e-06	6.2525e-06	1269.6	282.21	2.1931e-06	2.353e-06	376.51	134.43	103.52	42.181	4.8991e-06	57.864	0.00078516	0.00079906	0.00022026	824.93	8.8456e-06	8.8333e-06	1088.7	244.85	8.8147e-06	8.9546e-06	326.68	116.38	91.904	37.012	9.1967e-06	50.416	-27.027	10.898	45.882	-151.973	-39.330	-118.003	-154.235	-145.853	-52.055	-43.699	-149.025	-143.941	-139.862	-135.344	44.451	-139.312	-8191	255	
1859.268	1	1	0	0	0.086444	0.22566	0.13338	0.23555	0.16383	0.1438	0.29782	0.60098	0.16387	0.18512	0.18245	0.0097858	0.40657	0.071187	0.045428	0.33331	-1.2521	-1.6104	-2.3937	-1.3458	-2.1583	-1.9521	-1.5083	-2.4375	-1.675	-1.7146	-2.3729	-1.4021	-2.1625	-2.4021	-1.2	-2.4021	154.052	-136.229	65.829	120.106	-8.378	74.883	-160.586	122.866	-95.507	-49.564	95.161	11.909	-87.026	-93.945	14.994	94.194	0.00084529	0.00042464	0.00051246	945.87	6.7339e-06	1.4635e-05	1245.9	285.37	1.4638e-06	5.6943e-06	374.19	135.01	104.29	42.378	8.7433e-06	57.206	0.00082312	0.0008483	0.00023139	817.84	9.0767e-06	9.2288e-06	1070.3	246.79	9.1514e-06	9.233e-06	325.63	116.8	93.091	37.213	9.3507e-06	50.082	-26.800	-88.559	-143.081	-151.602	-14.284	-15.810	-154.232	-145.905	82.750	117.688	-148.716	-143.668	-140.115	-135.093	97.452	-139.397	-8191	255	
1859.364	1	1	0	0	0.22729	0.06962	0.26472	0.099919	0.1473	0.14292	0.32424	0.040966	0.089897	0.10321	0.10096	0.096122	0.2066	0.22859	0.083664	0.22571	-1.3479	-1.7375	-2.4521	-1.5333	-1.7437	-2.2021	-1.4833	-2.3521	-1.8188	-1.5583	-2.4458	-1.6354	-1.875	-2.5062	-1.3375	-2.1688	40.408	-100.732	-79.422	-139.205	-100.123	80.631	127.182	-95.399	19.131	-45.907	140.942	-0.116	23.835	117.605	154.058	124.734	0.00095087	0.0021188	7.5249e-05	951.36	5.9975e-06	1.0933e-05	1247.6	285.88	4.4132e-06	5.3072e-06	375.88	132.76	102.93	41.532	1.1057e-05	56.066	0.00082945	0.00084096	0.00023786	818.14	8.8456e-06	9.262e-06	1067.2	246.6	8.9259e-06	9.0665e-06	324.79	115.45	91.916	36.358	9.0488e-06	48.862	-19.912	-147.746	32.836	-151.578	-60.152	-15.854	-153.998	-146.028	-27.823	14.029	-148.655	-143.621	-140.310	-135.284	-47.641	-139.815	-8191	255	
1859.460	1	1	0	0	0.024051	0.38385	0.097842	0.28967	0.25104	0.23636	0.20392	0.079977	0.12957	0.11959	0.17869	0.25741	0.20448	0.18856	0.083342	0.041429	-1.6604	-1.7292	-2.2812	-1.6521	-1.8708	-2.3063	-1.4979	-2.1208	-2.1125	-1.4396	-2.3312	-1.7188	-1.7125	-2.35	-1.2479	-2.2271	83.755	145.764	103.807	138.237	-74.507	26.465	124.168	104.003	-72.701	124.314	67.037	121.843	-67.369	180.797	69.841	-159.085	0.00091991	0.00089345	0.00023434	944.18	9.3978e-06	5.9282e-06	1242.5	277.32	1.0225e-05	9.9223e-06	367.68	129.75	99.801	40.804	1.3097e-06	54.79	0.00082595	0.00083352	0.00023792	815.16	8.84e-06	9.1132e-06	1066.6	240.12	9.1e-06	9.2052e-06	320.01	112.36	88.531	35.456	9.1219e-06	47.932	-23.707	174.971	-17.867	-152.185	-27.465	74.854	-154.169	-145.805	-83.471	15.357	-148.634	-143.669	-140.820	-134.659	-159.430	-139.957	-8191	255	
1859.579	1	1	0	0	0.15956	0.11811	0.28918	0.080323	0.21347	0.39224	0.34643	0.18862	0.24784	0.25181	0.0987	0.2168	0.3524	0.30201	0.31277	0.19402	-1.8417	-1.1729	-2.1792	-1.9813	-1.4771	-2.45	-1.4188	-2.0438	-2.0438	-1.4896	-2.4833	-1.9	-1.6208	-2.2812	-1.5667	-2.0542	4.086	55.084	33.724	-80.983	157.611	-88.274	119.955	174.503	115.200	-137.444	81.778	184.329	12.653	-150.457	145.091	24.988	0.00083229	0.00018672	5.942e-05	958.09	8.4767e-06	9.5253e-06	1262.5	279.74	4.149e-06	2.5993e-06	370.86	131.52	100.39	40.77	4.7841e-06	56.018	0.00082585	0.00083549	0.00023245	826.48	9.1931e-06	9.3016e-06	1087.7	241.83	8.9469e-06	9.013e-06	323.19	113.77	89.749	35.913	8.7686e-06	48.82	-35.022	189.917	-98.299	-151.684	-162.174	25.548	-154.098	-145.506	-85.207	84.276	-148.722	-143.454	-139.999	-134.707	-18.038	-139.448	-8191	255	
1859.675	1	1	0	0	0.17276	0.014442	0.1178	0.10082	0.08992	0.12421	0.14455	0.032463	0.075365	0.13044	0.11036	0.08999	0.12919	0.11049	0.047883	0.10876	-1.8458	-1.55	-2.2833	-2.1708	-1.4583	-2.4229	-1.6917	-1.9458	-2.1875	-1.5812	-2.3812	-1.9125	-1.4792	-2.3604	-1.5458	-1.8062	-49.091	70.251	-123.439	-68.682	63.224	-70.083	63.239	-125.562	107.459	-113.058	-84.037	187.282	-38.483	82.293	-101.210	-135.214	0.00073919	0.00065559	0.00039978	978.02	6.2746e-06	8.9186e-06	1277.1	279.63	1.5619e-05	3.4779e-06	370.13	130.13	100.47	41.203	1.4919e-05	54.881	0.0007751	0.00078699	0.00022022	841.09	8.437e-06	8.5213e-06	1096.8	242.14	8.4353e-06	8.3894e-06	322.14	112.58	89.052	35.848	8.2156e-06	47.807	-42.515	109.801	-132.889	-152.110	118.290	169.119	-154.206	-145.778	46.188	-106.386	-148.523	-143.548	-139.813	-135.121	11.513	-139.524	-8191	255	
1859.771	1	1	0	0	0.18038	0.079619	0.093751	0.12095	0.26696	0.086772	0.25039	0.25485	0.12141	0.082976	0.13792	0.24158	0.10758	0.32163	0.19891	0.24607	-1.9104	-1.2167	-2.0187	-2.1792	-1.1938	-2.4208	-1.7521	-1.7313	-2.2854	-1.4896	-2.125	-2.2292	-1.3042	-2.2917	-1.7188	-1.7333	114.940	24.751	-83.143	-144.919	-38.231	150.132	-131.379	192.929	8.161	-133.221	79.449	159.357	113.214	-132.111	93.402	146.561	0.00091433	0.00041799	0.00010657	982.46	5.1037e-06	4.6008e-06	1282	276.82	8.633e-06	5.0835e-06	367.77	129.07	100.1	40.83	1.4601e-05	55.309	0.00073085	0.00073255	0.00020006	842.45	7.9614e-06	8.3534e-06	1092.7	240.15	7.8376e-06	7.9838e-06	318.02	111.74	88.938	35.73	7.6267e-06	48.009	-32.920	-142.034	-75.505	-152.134	62.002	-99.662	-154.126	-145.664	9.891	-105.241	-148.523	-143.501	-140.050	-135.020	-69.587	-139.380	-8191	255	
1859.867	1	1	0	0	0.2467	0.052348	0.29698	0.33078	0.23246	0.096178	0.1081	0.14015	0.18741	0.17166	0.24131	0.11445	0.20917	0.19313	0.16203	0.25462	-2.0208	-1.5	-1.9104	-2.2542	-1.3042	-2.3979	-2.2104	-1.8792	-2.325	-1.4438	-1.9729	-2.3896	-1.4542	-2.3146	-1.8146	-1.7167	53.466	-2.837	-35.045	-147.796	56.076	2.777	65.730	162.252	-67.014	99.931	172.844	176.078	190.143	92.894	152.968	61.395	0.00070056	0.00044792	0.00035274	962.41	1.0348e-05	2.2681e-06	1272.3	276.49	8.5644e-06	4.9087e-06	367.81	129.34	100.7	40.966	9.3109e-06	55.964	0.00068909	0.00067251	0.00019861	828.66	7.5246e-06	7.4247e-06	1091.1	238.95	7.3101e-06	7.5874e-06	317.14	111.96	88.453	35.597	7.4249e-06	48.371	-33.447	-44.587	-110.828	-152.038	-13.446	70.186	-154.161	-145.836	-77.981	4.628	-148.663	-143.773	-139.989	-134.989	-19.165	-139.250	-8191	255	
1859.963	1	1	0	0	0.095135	0.28259	0.43358	0.054229	0.10641	0.18486	0.20088	0.21265	0.10125	0.096932	0.2098	0.19741	0.23518	0.22164	0.053356	0.18623	-2.1562	-1.5583	-1.9021	-2.35	-1.3083	-2.3083	-2.1604	-1.4688	-2.3083	-1.6771	-1.9562	-2.4833	-1.3125	-2.2979	-2.025	-1.6896	-59.177	127.538	-139.407	-140.107	-71.989	-99.967	100.333	154.388	140.995	1.775	129.472	-141.847	16.319	185.329	-81.824	-128.599	0.00082594	0.00027507	9.4245e-05	957.63	6.1294e-06	2.7418e-07	1282.1	282.09	1.0436e-05	1.0864e-05	375.15	131.32	100.97	42.227	1.4046e-05	56.89	0.00068079	0.00066794	0.00018782	829.61	7.2332e-06	7.3469e-06	1095.8	243.08	7.0935e-06	7.2763e-06	323.28	114.13	89.073	36.6	7.1681e-06	49.378	-36.140	-95.223	-113.523	-151.624	18.356	25.297	-154.056	-146.006	-74.374	-96.294	-148.852	-143.470	-140.194	-134.739	-80.132	-139.427	-8191	255	
1860.060	1	1	0	0	0.20529	0.13736	0.0161	0.11948	0.13942	0.095387	0.14803	0.26758	0.093483	0.095785	0.076095	0.074416	0.10228	0.19117	0.12463	0.25548	-2.0458	-1.7833	-1.9854	-2.4375	-1.3458	-2.2271	-2.3312	-1.6125	-2.5104	-1.7896	-1.7563	-2.375	-1.5438	-2.1042	-2.0771	-1.5229	153.148	-23.805	122.703	-140.933	144.490	155.595	85.919	138.282	-59.698	-133.667	174.967	-43.552	-163.784	78.829	80.723	164.105	0.00087703	0.00036897	0.00018547	980.71	1.3769e-05	7.3978e-06	1282.5	282.41	9.4625e-06	6.6135e-06	371.64	130.82	101.52	40.861	6.405e-06	55.262	0.00066244	0.00066124	0.00018561	841.19	7.278e-06	7.3374e-06	1101.3	243.83	7.2133e-06	7.3794e-06	322.35	112.67	88.866	35.645	7.2877e-06	48.022	-28.902	-111.757	-36.824	-152.282	-16.184	32.577	-154.236	-146.003	-100.638	-19.842	-148.708	-143.529	-140.204	-134.547	42.213	-139.534	-8191	255	
1860.180	1	1	0	0	0.023432	0.079824	0.1345	0.34569	0.093538	0.23217	0.24401	0.36123	0.072651	0.13309	0.22438	0.070662	0.10939	0.16706	0.1477	0.41954	-1.9792	-1.8458	-1.6958	-2.7062	-1.4604	-2.1708	-2.425	-1.7167	-2.1437	-1.7896	-1.7125	-2.375	-1.5583	-2.0208	-2.3167	-1.6063	90.116	-43.488	-94.211	158.762	-67.138	84.586	118.734	186.303	156.352	-113.513	6.011	150.327	126.544	154.679	39.743	169.997	0.00090562	0.00039276	0.00013997	997.89	9.4794e-06	5.1271e-06	1307.4	280.99	1.2019e-05	5.0832e-06	373.1	130.1	101.81	41.546	2.2355e-06	55.815	0.0006699	0.00067116	0.0001892	852.57	7.4333e-06	7.3037e-06	1117.5	243.01	7.2966e-06	7.5369e-06	322.4	112.28	89.293	36.089	7.397e-06	48.365	-18.974	-92.271	-81.711	-151.969	84.769	13.603	-154.048	-145.632	-6.797	118.518	-148.636	-143.282	-140.416	-134.827	9.003	-139.417	-8191	255	
1860.276	1	1	0	0	0.20118	0.34659	0.075247	0.15851	0.11447	0.17577	0.0978	0.13933	0.28341	0.070639	0.42058	0.15057	0.12986	0.3713	0.078952	0.17153	-1.7729	-2.0271	-1.4667	-2.5333	-1.6208	-1.9854	-2.7708	-1.5229	-2.2438	-2.1312	-1.7521	-2.5396	-1.9479	-1.875	-2.2354	-1.9688	61.487	55.324	-28.986	165.271	42.388	76.140	127.486	187.198	156.700	-122.969	82.842	114.409	101.121	182.556	149.077	118.323	0.00075133	0.00082395	0.000317	1000	1.2898e-05	6.6445e-06	1312.6	282.39	1.2761e-05	1.3057e-05	371.96	131.31	101.46	41.472	1.1436e-05	56.137	0.00067356	0.00066169	0.00019023	859.47	7.3407e-06	7.4758e-06	1123.9	243.02	7.5525e-06	7.512e-06	320.88	112.98	89.006	36.108	7.6544e-06	48.582	-34.986	-109.365	-49.831	-151.644	18.858	1.577	-154.516	-146.137	11.668	-40.011	-148.603	-143.798	-139.538	-134.982	-53.796	-139.531	-8191	255	
1860.372	1	1	0	0	0.21596	0.31144	0.090924	0.16332	0.1539	0.42957	0.20006	0.2778	0.11427	0.2104	0.22401	0.20651	0.082071	0.061353	0.21813	0.32854	-1.8188	-2.2354	-1.55	-2.4771	-1.8125	-1.7708	-2.5812	-1.5958	-2.1271	-2.125	-1.5396	-2.6063	-1.875	-1.85	-2.4458	-1.5042	138.167	-25.940	-156.574	135.105	-64.113	118.203	104.335	-125.553	-44.379	-90.899	81.401	164.431	-69.015	1.114	-16.085	141.057	0.00089069	0.000871	4.4123e-05	992.59	1.0789e-05	9.8801e-06	1309.9	278.18	3.2331e-06	4.8539e-06	370.32	131.13	100.58	42.081	2.0684e-05	56.616	0.00069279	0.0006964	0.00019758	855.45	7.4258e-06	7.5942e-06	1119	240.09	7.5426e-06	7.7971e-06	320.44	113.66	89.453	36.583	7.7573e-06	49.202	-20.561	-15.410	41.218	-151.791	-115.041	-58.577	-154.522	-145.597	-25.056	46.180	-148.502	-143.209	-140.164	-134.962	-8.389	-139.402	-8191	255	
1860.467	1	1	0	0	0.20667	0.12344	0.1812	0.054627	0.16247	0.31283	0.31794	0.13428	0.12901	0.085365	0.073343	0.16006	0.20126	0.16488	0.044975	0.44312	-1.9667	-2.2	-1.4	-2.5021	-2.2667	-1.4521	-2.7188	-1.5667	-1.8188	-2.3021	-1.4042	-2.4917	-1.9688	-1.7792	-2.5292	-1.8417	41.780	131.892	-42.170	65.838	-36.915	47.325	119.783	189.050	-162.532	142.810	166.488	173.317	99.752	-140.683	-99.269	141.921	0.00076942	0.00032975	0.00040606	989.97	4.2921e-06	2.7143e-06	1300.6	276.38	3.7499e-06	1.5488e-05	366.6	129.87	99.534	41.198	1.784e-05	55.66	0.00073193	0.00072389	0.00020011	854.3	7.9954e-06	8.1347e-06	1113.3	239.99	8.1426e-06	8.1558e-06	317.08	112.28	88.676	36.101	8.614e-06	48.274	-28.427	35.119	-122.553	-152.137	-109.845	-71.508	-154.499	-145.870	-101.901	36.548	-148.638	-143.830	-140.604	-134.737	-3.386	-139.618	-8191	255	
1860.563	1	1	0	0	0.23023	0.074003	0.19923	0.32292	0.049246	0.26646	0.19406	0.27512	0.17198	0.088882	0.15652	0.10227	0.24794	0.093573	0.14574	0.10266	-1.3896	-2.2313	-1.5875	-2.2792	-2.0708	-1.4979	-2.7604	-1.9021	-1.8625	-2.3604	-1.6521	-2.2875	-1.9562	-1.4833	-2.1813	-1.9833	191.821	47.858	-159.345	-157.235	170.081	-7.929	-162.608	147.315	-17.661	108.450	-137.821	55.051	-135.665	-150.852	-112.966	-128.846	0.00072641	0.00035461	0.00016642	991.89	7.4381e-06	9.9607e-06	1289.5	276.2	4.7221e-06	3.1635e-06	361.05	129.67	101.22	41.762	3.0262e-06	56.47	0.00074607	0.00078082	0.00021866	853.42	8.4625e-06	8.6882e-06	1109.7	237.9	8.6578e-06	8.6738e-06	315.97	112.2	90.214	36.544	8.6695e-06	49.18	-33.659	-86.188	144.888	-151.864	3.083	22.979	-154.443	-146.012	-92.288	195.557	-148.430	-143.296	-139.783	-134.956	-15.376	-139.372	-8191	255	
1860.659	1	1	0	0	0.28273	0.16892	0.28438	0.27927	0.079395	0.23339	0.26786	0.10382	0.12167	0.22868	0.023665	0.064692	0.2054	0.44238	0.071034	0.29786	-1.4354	-2.3104	-1.5063	-2.0854	-2.1479	-1.4667	-2.5521	-1.875	-1.6187	-2.35	-1.825	-1.9875	-2.1396	-1.3021	-2.1583	-1.9521	60.557	90.890	43.986	-163.241	98.401	119.739	124.048	182.772	108.762	-31.371	166.763	111.192	-93.030	-157.299	154.770	131.045	0.00073169	0.00044204	0.00018498	981.6	1.1322e-05	1.0865e-05	1284	281.06	1.151e-06	1.804e-05	366.6	133.71	103.43	42.827	2.7019e-06	57.708	0.00081027	0.00080528	0.00021727	851.35	8.7311e-06	8.7119e-06	1105.7	242.62	8.47e-06	8.4718e-06	319.27	115.34	91.37	37.358	8.7365e-06	50.246	-34.603	45.473	-120.642	-151.928	-14.203	7.275	-153.960	-145.889	-9.958	-26.091	-148.392	-143.503	-140.359	-134.929	-20.411	-139.691	-8191	255	
1860.755	1	1	0	0	0.24097	0.10997	0.1437	0.27041	0.14125	0.258	0.17338	0.29035	0.10557	0.053047	0.1374	0.04987	0.10086	0.26882	0.24584	0.36235	-1.1771	-2.3604	-1.5604	-1.9542	-2.3917	-1.4146	-2.3896	-2.0104	-1.5146	-2.3	-1.675	-1.7146	-2.3021	-1.6688	-2	-2.325	150.661	-51.776	-79.781	166.462	140.981	90.316	-150.003	175.493	110.860	57.525	112.558	36.512	132.272	132.493	26.434	138.825	0.00071032	0.00074991	0.0002936	984.27	1.9327e-05	4.2063e-06	1285.9	282.39	1.639e-05	1.2405e-05	371.32	136.5	103.52	43.479	7.8456e-06	59.788	0.00078274	0.00076886	0.00021786	849.41	8.4246e-06	8.8287e-06	1103.3	244.43	8.3519e-06	8.6353e-06	323.39	117.71	92.706	38.075	8.7611e-06	51.835	-26.075	-0.225	-93.046	-151.800	-52.589	86.718	-154.175	-145.676	-10.938	-66.081	-148.458	-143.176	-139.401	-134.650	8.690	-139.516	-8191	255	
1860.851	1	1	0	0	0.16417	0.13801	0.12568	0.11636	0.095831	0.22218	0.41423	0.33059	0.036533	0.23352	0.08863	0.27797	0.067338	0.27906	0.13194	0.17404	-0.87917	-2.3771	-1.6688	-1.8083	-2.3667	-1.3083	-2.2292	-2.2167	-1.2687	-2.4604	-1.6042	-1.8146	-2.3875	-1.6187	-2.0687	-2.4271	41.079	68.283	111.380	-15.889	-157.180	20.847	88.501	149.472	-145.754	-133.512	7.566	189.550	-97.803	175.727	162.885	160.579	0.00080688	0.00076331	0.00028756	993.36	7.9513e-06	7.9584e-07	1297.6	284.47	4.1081e-06	1.0743e-05	374.2	137.15	105.4	43.944	9.6686e-06	58.648	0.00079978	0.00078631	0.00021934	856.94	8.6358e-06	8.9747e-06	1116.1	247.15	8.9359e-06	8.9794e-06	325.49	118.18	93.75	38.468	9.0696e-06	51.228	-8.186	-147.930	-93.339	-152.259	-44.733	35.392	-153.963	-145.790	2.638	-36.862	-148.718	-143.486	-139.361	-134.711	26.145	-139.773	-8191	255	
1860.972	1	1	0	0	0.080777	0.414	0.10985	0.087062	0.026758	0.29287	0.065037	0.053322	0.36958	0.12969	0.2583	0.081616	0.10752	0.25428	0.4051	0.26066	-1.0375	-2.3771	-1.7854	-1.6688	-2.45	-1.4813	-2.0979	-2.3729	-1.5229	-2.2625	-2.1458	-1.5729	-2.3896	-1.9083	-1.7271	-2.5167	-113.021	-54.559	14.160	176.008	78.925	53.231	12.820	153.206	43.025	88.787	165.018	143.152	-65.984	138.404	-128.052	169.587	0.00092107	0.0009529	0.00039933	988.92	7.0073e-06	1.4344e-05	1290.7	284.66	2.0306e-06	5.4392e-06	370.11	134.38	105.19	43.546	4.9244e-06	58.908	0.00080342	0.00081971	0.00023205	854.57	9.0242e-06	9.1061e-06	1110.5	245.3	8.9433e-06	8.8113e-06	322.74	116.44	93.392	38.175	8.8005e-06	51.093	-34.209	-153.758	166.884	-151.610	126.165	-13.356	-153.864	-145.606	68.967	-48.822	-148.868	-143.379	-140.362	-134.808	35.305	-139.536	-8191	255	
1861.068	1	1	0	0	0.21952	0.15646	0.062575	0.20864	0.34401	0.2915	0.191	0.27061	0.18767	0.15704	0.27052	0.093166	0.16957	0.15247	0.21773	0.19957	-0.85417	-2.0729	-2.0958	-1.7188	-2.3958	-1.75	-1.8563	-2.5146	-1.4333	-2.1458	-2.1875	-1.4479	-2.3333	-1.8271	-1.4958	-2.5792	9.401	-9.791	48.486	162.113	-126.474	12.777	156.321	153.602	-23.537	-54.116	149.072	86.459	98.047	-123.350	34.796	92.968	0.00072834	0.00086798	8.7036e-05	990.56	1.6033e-05	2.6625e-06	1291.5	283.34	5.0748e-06	4.1731e-06	371.43	136.21	106.07	43.716	1.658e-05	59.086	0.00079104	0.00078715	0.00022116	851.97	8.6805e-06	8.5916e-06	1105.5	244.94	8.4508e-06	8.7911e-06	323.26	117.7	94.028	38.406	8.3994e-06	51.523	-35.907	-108.822	-25.496	-151.423	-15.560	183.434	-153.744	-145.739	-6.276	-50.978	-148.300	-143.496	-140.097	-134.725	54.931	-139.299	-8191	255	
1861.140	1	1	0	0	0.19531	0.27181	0.11157	0.29577	0.076262	0.13237	0.22351	0.16704	0.091359	0.22699	0.11763	0.27539	0.067644	0.14619	0.35419	0.26547	-1.0917	-2.0208	-2.1271	-1.6604	-2.3521	-1.875	-1.7667	-2.4479	-1.8104	-1.8542	-2.1917	-1.5354	-2.4375	-1.8625	-1.4771	-2.5042	-91.462	118.771	145.393	165.690	-52.931	-146.426	143.786	130.349	13.922	87.997	-60.501	178.523	122.040	122.052	-77.629	81.465	0.00092733	0.0015748	0.00040304	986.71	1.2434e-05	3.7672e-06	1280.5	286.03	2.0368e-06	8.548e-06	372.35	137.11	105.64	44.447	1.4433e-05	59.483	0.00075502	0.00077985	0.00021746	850.67	8.2451e-06	8.594e-06	1103.4	246.26	8.2337e-06	8.3783e-06	324.01	118.28	93.385	38.585	8.2004e-06	51.831	-21.702	-31.504	-49.455	-151.694	-84.990	-66.166	-153.829	-145.587	-46.657	56.623	-148.414	-143.261	-139.818	-134.500	-14.391	-139.166	-8191	255	
1861.261	1	1	0	0	0.23239	0.086281	0.16339	0.25079	0.14236	0.21733	0.11969	0.32382	0.34625	0.16336	0.099884	0.096869	0.2148	0.13682	0.045781	0.40821	-1.2625	-1.8062	-2.2896	-1.4771	-2.2875	-2.0708	-1.5896	-2.5687	-1.4458	-1.875	-2.5021	-1.3687	-2.1521	-2.0771	-1.6042	-2.6458	93.155	-56.513	15.683	181.269	151.000	-27.217	114.093	172.401	184.411	-29.246	105.794	-54.500	139.941	107.645	-72.777	96.689	0.00084421	0.001365	0.00018862	989.47	3.6386e-06	1.0179e-05	1286.4	284.42	1.1842e-05	6.6528e-06	369.21	135.86	108.02	44.346	5.6753e-06	59.607	0.00076031	0.00075909	0.00020988	849.19	8.2415e-06	8.2579e-06	1102.2	245.42	7.9381e-06	8.1156e-06	321.81	117.82	94.804	38.671	8.1935e-06	51.548	-35.185	-98.796	-66.377	-152.008	-119.809	89.753	-153.944	-145.311	-35.440	25.447	-148.194	-143.073	-139.211	-134.584	-23.156	-138.720	-8191	255	
1861.357	1	1	0	0	0.19612	0.043837	0.22426	0.41476	0.22557	0.28572	0.36554	0.31837	0.02174	0.25337	0.13609	0.25993	0.25929	0.10969	0.1889	0.26175	-1.3458	-1.8687	-2.3979	-1.4708	-2.2083	-2.0958	-1.7375	-2.45	-1.6396	-1.8167	-2.3563	-1.5333	-2.1833	-2.3187	-1.7417	-2.4333	88.987	64.162	169.595	151.010	191.174	101.049	83.802	144.108	-46.005	-30.586	140.061	120.439	-72.311	176.149	34.386	150.582	0.0008852	0.00071251	0.00018646	980.11	6.6234e-06	3.8751e-06	1269.1	285.99	8.5074e-06	2.9021e-06	374.2	138.51	108.94	44.921	6.5418e-06	59.982	0.00073939	0.00075618	0.00020679	841.59	8.0166e-06	8.2126e-06	1089.3	247.28	8.03e-06	8.0419e-06	324.31	119.26	95.07	39.068	8.1938e-06	52.149	-28.790	-66.144	-18.106	-151.620	36.632	-83.232	-154.813	-146.103	-46.755	-20.680	-148.951	-144.211	-139.941	-135.513	-32.252	-139.959	-8191	255	
1861.453	1	1	0	0	0.10943	0.19424	0.25889	0.15595	0.084284	0.14209	0.53211	0.34551	0.20985	0.21628	0.099217	0.34182	0.19827	0.33645	0.18146	0.21408	-1.4292	-1.7292	-2.6458	-1.4729	-1.9208	-2.325	-1.5771	-2.4562	-1.75	-1.5708	-2.1729	-1.5229	-1.825	-2.4	-1.475	-2.3688	107.276	88.420	132.775	108.465	7.916	188.261	111.281	144.962	78.153	73.402	173.495	135.095	11.837	112.086	-49.392	159.955	0.0010007	0.00072238	0.00017197	973.07	1.4096e-05	1.2159e-05	1267.6	288.24	1.2985e-05	6.2836e-06	378.99	140.69	108.36	45.893	6.7898e-06	60.833	0.00072283	0.00073928	0.00020581	841.85	7.9756e-06	8.0823e-06	1091.1	249.98	7.5992e-06	7.9582e-06	327.81	120.86	96.313	39.929	7.6258e-06	53.08	-27.264	-65.910	-72.707	-152.594	4.621	-19.648	-154.839	-146.290	-28.303	-54.538	-148.721	-144.291	-140.433	-135.487	6.869	-139.858	-8191	255	
1861.572	1	1	0	0	0.23797	0.17025	0.18348	0.14633	0.13173	0.10366	0.30098	0.20298	0.070143	0.17766	0.035965	0.098913	0.25805	0.27677	0.2994	0.29327	-1.6479	-1.5063	-2.3708	-1.5854	-1.7563	-2.3208	-1.5979	-2.2583	-2.0271	-1.4438	-2.5125	-1.9688	-1.6854	-2.5271	-1.5458	-2.2771	135.590	-150.043	-52.093	-139.261	55.168	-157.869	181.458	111.970	132.750	-60.745	-142.812	88.510	-14.848	-163.809	96.805	167.558	0.0010703	0.00042301	0.00023359	981.55	9.5753e-06	6.4606e-06	1276.9	296.06	5.1614e-06	9.7837e-07	382.76	144.56	110.84	46.63	6.0979e-06	62.386	0.00071895	0.00071705	0.00019999	843.19	7.7812e-06	7.8888e-06	1093.2	254.77	7.6068e-06	7.8763e-06	333.17	124.18	98.132	40.536	8.0093e-06	54.156	-32.955	118.531	-76.529	-152.274	17.585	52.465	-154.352	-145.991	16.798	-77.052	-149.159	-143.993	-140.781	-135.683	-126.882	-140.305	-8191	255	
1861.668	1	1	0	0	0.069678	0.0042924	0.21969	0.028412	0.19984	0.20428	0.27344	0.10898	0.10331	0.14622	0.22811	0.37481	0.047338	0.052414	0.28468	0.26833	-1.8521	-1.2521	-2.5021	-1.8729	-1.6958	-2.4313	-1.7167	-2.1562	-2.0958	-1.4104	-2.3083	-1.8188	-1.6729	-2.3229	-1.5292	-2.0875	163.747	-131.092	74.976	22.518	-57.446	48.339	171.512	90.920	-36.455	16.630	11.404	150.174	89.444	-151.739	-28.496	167.110	0.00092864	0.0018284	0.00024919	978.47	1.1863e-05	9.2977e-06	1285.2	291.75	3.1588e-06	4.9373e-06	379.06	141.55	109.45	45.641	2.2754e-06	60.743	0.00072394	0.00075742	0.0002002	846.75	7.8414e-06	7.8842e-06	1100.2	252.91	7.7107e-06	7.9563e-06	330.08	121.79	96.556	39.831	7.8916e-06	52.692	-36.634	-41.890	-55.370	-152.358	-118.108	21.110	-154.490	-146.107	-94.808	176.901	-149.067	-144.146	-140.890	-135.478	-7.793	-139.628	-8191	255	
1861.740	1	1	0	0	0.21665	0.23551	0.10246	0.14846	0.22307	0.15485	0.46366	0.30304	0.18701	0.21893	0.018011	0.26264	0.091372	0.28967	0.1551	0.063368	-1.85	-1.4729	-2.2229	-2.2771	-1.4625	-2.375	-1.5896	-1.8146	-2.3271	-1.3604	-2.4896	-2.0708	-1.5063	-2.6729	-1.5812	-2.0646	32.103	-99.995	-130.483	47.037	-86.000	-6.114	63.888	66.920	2.860	165.476	-64.307	-134.516	-55.620	118.332	145.309	161.169	0.001017	0.00035917	0.00010738	992.53	7.9118e-06	7.7197e-07	1280	294.39	1.1564e-05	8.8532e-06	380.96	138.43	111.17	45.758	7.183e-06	60.766	0.00072043	0.00071098	0.00019925	852.22	7.7944e-06	7.9091e-06	1098.6	252.84	7.699e-06	7.8621e-06	329.79	120.93	96.732	39.893	7.8272e-06	52.428	-36.507	-101.944	-65.774	-152.415	0.753	41.260	-154.974	-145.994	0.975	-30.746	-148.916	-144.459	-139.831	-135.535	-31.143	-140.173	-8191	255	
1861.860	1	1	0	0	0.092297	0.16081	0.095739	0.45152	0.09575	0.13986	0.16576	0.25354	0.17304	0.22639	0.26416	0.079733	0.16031	0.055553	0.19879	0.22665	-2.1708	-1.2375	-2.2146	-2.0958	-1.4875	-2.5125	-1.9417	-1.725	-2.4813	-1.4125	-2.2417	-2.0604	-1.4604	-2.2938	-1.8021	-1.7667	105.585	61.307	-30.626	128.334	44.791	-18.336	105.966	115.554	-119.563	50.403	166.399	79.370	-16.824	191.443	169.023	69.691	0.00088399	0.00058677	0.00010651	986.52	1.177e-05	1.1059e-05	1286.6	292.16	8.497e-06	1.1651e-05	381.77	140.23	112.46	45.717	1.0068e-05	60.777	0.0007117	0.00069883	0.00019516	850.15	7.5813e-06	7.6139e-06	1101.8	252.7	7.6182e-06	7.6559e-06	329.94	121.53	97.65	39.898	7.6376e-06	52.75	-27.365	-112.371	75.694	-152.363	-38.597	-7.096	-154.841	-145.848	-71.644	22.230	-149.177	-144.053	-140.453	-135.707	15.230	-140.020	-8191	255	
1861.956	1	1	0	0	0.16083	0.14973	0.19413	0.2771	0.15303	0.24968	0.23834	0.27343	0.036612	0.12758	0.28243	0.14594	0.16852	0.34979	0.098424	0.22028	-2.1125	-1.3458	-1.9667	-1.9833	-1.3833	-2.3833	-2.1562	-1.8312	-2.4688	-1.8167	-2.1396	-2.4917	-1.4375	-2.3979	-1.6354	-1.65	-80.941	129.918	-93.996	119.704	-98.270	109.450	118.673	97.391	-113.121	-122.946	87.859	49.892	-75.559	98.176	177.260	-47.350	0.00089322	0.0011993	0.0004124	985.29	1.947e-05	4.9815e-06	1289.5	294.55	7.889e-06	8.0089e-06	382.72	139.87	109.38	46.139	8.5949e-06	61.604	0.00070022	0.00070317	0.0001963	849.97	7.6528e-06	7.5152e-06	1102.1	253.47	7.5197e-06	7.6102e-06	330.94	121.41	96.56	40.182	7.5386e-06	53.249	-19.748	-94.954	-29.222	-152.453	-27.206	-160.674	-154.592	-146.033	-69.502	-34.452	-149.119	-143.823	-140.107	-135.268	-17.405	-140.025	-8191	255	
1862.052	1	1	0	0	0.21432	0.18678	0.11438	0.23567	0.2108	0.22835	0.16853	0.10509	0.14129	0.12234	0.1203	0.16914	0.18324	0.1824	0.11685	0.10556	-1.9562	-1.4188	-2.0583	-2.3292	-1.4646	-2.2625	-2.1229	-1.6458	-2.3729	-1.5458	-1.8937	-2.325	-1.4375	-2.4146	-1.8604	-1.5875	-133.689	-26.899	-13.514	-160.406	186.852	80.845	140.691	153.468	128.829	28.366	105.053	126.955	172.986	139.964	-71.975	139.672	0.000951	0.00075451	0.0001253	986.57	8.5013e-06	4.7896e-06	1282.6	295.98	1.8363e-05	9.407e-06	379.65	140.28	111.07	45.953	5.8839e-06	61.015	0.00070766	0.00071746	0.00019754	852.94	7.7637e-06	7.647e-06	1103.1	254.53	7.5229e-06	7.6426e-06	330.48	121.27	96.658	39.969	7.4878e-06	52.764	-28.917	-104.712	-95.730	-152.537	-51.616	189.887	-154.766	-146.080	-32.314	21.202	-148.880	-144.221	-140.332	-135.243	33.288	-139.970	-8191	255	
1862.149	1	1	0	0	0.22731	0.24341	0.11889	0.23381	0.041662	0.23427	0.35335	0.14285	0.098901	0.099748	0.081245	0.12565	0.26069	0.45398	0.12427	0.4157	-1.975	-1.6688	-1.8292	-2.4062	-1.5271	-2.0625	-2.1604	-1.4062	-2.3646	-1.6437	-1.7938	-2.5229	-1.4625	-2.1479	-2.125	-1.2542	85.607	176.712	26.402	162.903	4.543	-92.870	122.306	117.147	170.191	-26.232	-140.303	150.912	-149.534	110.122	108.025	163.362	0.0011196	0.0014721	0.00017349	984.14	4.1517e-06	5.514e-06	1270	293.46	1.0151e-05	3.672e-06	381.82	141.4	111.41	45.704	9.743e-06	60.299	0.00071216	0.00071645	0.00019988	844.77	7.7161e-06	7.5914e-06	1091.3	253.63	7.5694e-06	7.5617e-06	330.05	121.69	97.196	40.07	7.4157e-06	52.317	-26.854	-84.743	177.959	-152.615	8.328	-65.099	-154.846	-146.023	8.426	-12.686	-148.741	-144.186	-139.713	-135.412	-135.831	-139.737	-8191	255	
1862.269	1	1	0	0	0.36039	0.15237	0.18442	0.16839	0.078575	0.17755	0.35707	0.058099	0.25529	0.071823	0.19584	0.40277	0.14892	0.2667	0.076048	0.1068	-2.1708	-1.8083	-1.7042	-2.5229	-1.4729	-2.2646	-2.4667	-1.5875	-2.3458	-1.8208	-1.6542	-2.55	-1.7021	-2.175	-2.125	-1.4104	43.368	-98.529	-133.481	177.568	-24.288	138.929	67.755	-10.529	141.654	83.167	164.522	156.365	-117.041	145.322	138.978	113.704	0.00094914	0.00068135	0.00014008	984.99	1.3339e-05	7.2199e-06	1270.5	294.25	1.1342e-05	1.4004e-05	380.83	142.25	111.5	46.42	1.2349e-05	61.27	0.00068712	0.0006697	0.00018608	845.75	7.4024e-06	7.5859e-06	1091.2	252.87	7.2513e-06	7.3895e-06	330.67	122.28	97.056	40.262	7.2306e-06	53.204	-23.576	-99.739	2.236	-152.580	-33.583	122.339	-155.037	-145.741	-51.421	12.957	-148.965	-143.813	-140.764	-135.733	-49.876	-140.000	-8191	255	
1862.364	1	1	0	0	0.32525	0.36374	0.21562	0.2225	0.10267	0.25239	0.1569	0.13666	0.1083	0.17658	0.15439	0.1686	0.44719	0.28903	0.31319	0.24806	-1.95	-1.8667	-1.7167	-2.3937	-1.7188	-1.7917	-2.4562	-1.5271	-2.1917	-1.9625	-1.725	-2.5187	-1.7083	-1.9688	-2.3937	-1.7083	-2.646	80.748	189.269	147.532	-73.204	-69.049	101.304	115.739	15.425	66.516	118.387	58.296	-30.141	-153.862	174.524	112.536	0.00090777	0.0011768	0.00021879	978.4	1.6155e-06	1.2078e-05	1279	296.59	3.0894e-06	7.7124e-06	385.24	142.62	112.27	46.654	7.0158e-06	62.075	0.00069004	0.00066157	0.00018704	844.61	7.3744e-06	7.4063e-06	1092.9	255.17	7.2268e-06	7.296e-06	333.25	123.41	98.365	40.729	7.3434e-06	53.982	-28.989	-121.536	-143.156	-151.910	-0.187	-1.716	-154.856	-145.974	3.620	15.495	-149.281	-143.760	-140.565	-135.125	26.197	-139.986	-8191	255	
1862.437	1	1	0	0	0.27049	0.18017	0.15748	0.22145	0.14693	0.16595	0.35442	0.35346	0.1969	0.13123	0.25868	0.097039	0.26083	0.15548	0.11995	0.23273	-1.8521	-2.0354	-1.3271	-2.5333	-1.5958	-1.6875	-2.5479	-1.6333	-2.0896	-2.0021	-1.3521	-2.4313	-1.8396	-1.6583	-2.2958	-1.4833	-88.464	146.541	180.265	-136.342	-12.197	91.345	145.342	163.234	-152.702	50.979	-157.002	-143.419	-63.288	-105.499	-71.490	156.198	0.00083582	0.00044728	0.00033426	991.05	5.8854e-06	2.7334e-06	1280.9	297.39	8.4868e-06	8.3082e-06	384.36	143.44	112	46.511	1.3172e-05	61.285	0.00069811	0.000677	0.00019291	850.69	7.4793e-06	7.5059e-06	1099.9	255.37	7.4007e-06	7.3885e-06	331.96	123.19	98.127	40.471	7.399e-06	53.241	-32.855	-128.602	-82.965	-152.146	37.021	-85.917	-154.510	-145.474	48.668	-54.817	-149.053	-143.467	-140.655	-135.315	-27.555	-140.003	-8191	255	
1862.533	1	1	0	0	0.13517	0.14599	0.08813	0.017206	0.15046	0.049849	0.21485	0.22653	0.22066	0.076753	0.36187	0.18067	0.11049	0.11321	0.034965	0.25259	-1.6375	-2.3187	-1.3833	-2.3229	-1.5312	-1.5063	-2.4958	-1.6125	-1.6667	-2.4354	-1.4854	-2.3604	-2.0958	-1.4958	-2.2938	-1.6604	-145.335	78.376	106.378	173.436	193.918	22.795	155.546	54.764	-95.122	133.500	-162.576	185.738	9.583	128.217	-21.910	16.732	0.00085322	0.00055101	4.3127e-05	992.93	3.2492e-06	8.3078e-06	1295.1	292	1.3168e-05	1.9859e-05	382.75	139.58	112.76	46.001	1.7637e-05	60.709	0.0006872	0.00067732	0.00019186	853.34	7.3159e-06	7.7722e-06	1102.5	252.97	7.5363e-06	7.4359e-06	328.79	120.9	97.042	39.99	7.5276e-06	52.431	-33.512	5.361	-104.740	-152.358	-44.741	9.085	-154.465	-145.808	-10.379	-44.551	-149.027	-143.578	-140.565	-135.452	3.165	-140.193	-8191	255	
1862.652	1	1	0	0	0.30053	0.23997	0.20956	0.1282	0.18386	0.24368	0.35854	0.16889	0.27817	0.1474	0.07421	0.20097	0.24331	0.11895	0.10803	0.34101	-1.4062	-2.1583	-1.3083	-1.975	-1.8667	-1.3917	-2.4333	-1.7583	-1.7563	-2.2958	-1.6229	-2.3563	-2.0896	-1.425	-2.4583	-1.9021	73.184	13.559	-61.755	109.562	-97.333	-146.390	120.928	-57.717	134.217	-34.304	-76.608	-87.585	-161.337	168.611	-86.225	87.523	0.0011233	0.00060749	0.00022281	997.86	9.1072e-06	7.2556e-06	1277.5	294.27	6.1706e-06	7.5217e-06	381.28	140.89	111.96	46.342	5.0131e-06	61.46	0.00067422	0.00066992	0.00019116	855.01	7.3008e-06	7.3487e-06	1100.7	253.6	7.1921e-06	7.3944e-06	328.81	121.59	97.468	40.202	7.3905e-06	53.025	-18.235	-63.465	-0.653	-152.042	-27.931	-15.071	-154.402	-146.069	-5.540	-72.577	-148.852	-143.571	-139.793	-135.508	-121.991	-139.741	-8191	255	
1862.748	1	1	0	0	0.18938	0.18718	0.33456	0.10807	0.2183	0.089307	0.11746	0.42389	0.12378	0.14026	0.23245	0.025579	0.20154	0.30311	0.15849	0.21055	-1.2437	-2.3417	-1.5354	-2.2208	-2.1729	-1.3083	-2.4417	-1.8042	-1.5479	-2.2896	-1.5542	-2.0667	-2.35	-1.3958	-2.3417	-1.9208	126.220	68.102	39.349	-152.063	40.588	51.763	141.133	83.341	55.757	-24.321	-105.927	193.068	28.579	68.013	42.621	92.026	0.00091883	0.00041852	8.801e-05	994.22	9.2913e-06	7.6938e-06	1281.7	296.16	7.8872e-06	3.3658e-07	384.52	143.37	112.15	46.81	9.5245e-06	61.473	0.0006743	0.00066347	0.0001823	855.12	7.3484e-06	7.3268e-06	1100.1	255.61	7.3159e-06	7.5027e-06	332.37	123.13	98.482	40.607	7.3981e-06	53.357	-31.713	-49.038	-34.448	-152.418	-5.744	-55.553	-154.427	-146.119	125.915	8.761	-148.909	-144.147	-140.118	-135.461	-34.164	-140.190	-8191	255	
1862.844	1	1	0	0	0.10933	0.089092	0.10752	0.49361	0.16055	0.092361	0.18274	0.23655	0.14341	0.13885	0.20823	0.12215	0.10235	0.41879	0.23552	0.141	-1.1375	-2.3375	-1.4167	-1.8875	-2.2438	-1.2729	-2.3312	-2.1792	-1.3062	-2.4479	-1.6417	-1.8396	-2.4354	-1.4917	-2.1417	-2.1188	88.948	-138.595	3.696	-148.398	164.541	5.227	144.817	150.070	79.015	-0.315	141.787	169.822	24.026	-78.547	39.877	-24.115	0.00097715	0.001324	7.7024e-05	999.84	1.1941e-05	6.2382e-06	1306.3	295.24	6.1584e-06	9.691e-06	386.41	142.86	112.44	46.777	7.4077e-06	61.778	0.00067035	0.00069152	0.00018994	860.09	7.1857e-06	7.2407e-06	1112.2	255.94	7.1038e-06	7.2826e-06	332.8	123.38	97.938	40.714	7.3074e-06	53.66	-37.877	-27.509	4.944	-152.235	-57.706	4.183	-154.551	-145.846	-4.776	87.911	-148.531	-143.784	-140.560	-135.453	1.141	-140.097	-8191	255	
1862.941	1	1	0	0	0.27687	0.10222	0.31137	0.24996	0.27841	0.10442	0.055461	0.1257	0.20094	0.43851	0.30781	0.090358	0.31137	0.18258	0.19914	0.16207	-0.91458	-2.4083	-1.6958	-1.6437	-2.4313	-1.3125	-2.1688	-2.2021	-1.5104	-2.2729	-1.9604	-1.6979	-2.2917	-1.4333	-1.9396	-2.225	-101.102	130.076	-52.238	149.221	107.465	138.442	-54.289	173.471	73.050	-40.914	163.962	35.929	34.796	-91.558	-155.319	113.060	0.00086592	0.00048463	0.00039013	985.82	8.2476e-06	9.426e-06	1289.9	297.85	1.2043e-05	1.6754e-05	384.97	143.12	111.64	47.088	1.3026e-05	61.47	0.00068151	0.00067662	0.00018824	846.92	7.2954e-06	7.382e-06	1099	256.18	7.0918e-06	7.2996e-06	331.37	123.08	97.848	40.69	7.126e-06	53.16	-46.585	-105.515	-130.928	-152.277	-72.721	58.850	-154.358	-146.013	-22.871	25.692	-149.148	-143.974	-140.741	-135.669	-5.793	-140.581	-8191	255	
1863.037	1	1	0	0	0.19067	0.11769	0.15005	0.28502	0.24764	0.18358	0.37148	0.24077	0.16716	0.18857	0.20656	0.04009	0.14966	0.14404	0.036001	0.22493	-1.0542	-2.5333	-1.8438	-1.4271	-2.3167	-1.5479	-2.0729	-2.3854	-1.3188	-2.1937	-2.0312	-1.8312	-2.4125	-1.6292	-1.7687	-2.4813	-68.691	101.860	-101.030	167.719	88.595	67.965	130.841	192.828	139.168	-129.836	92.673	153.026	99.089	-147.280	84.175	129.946	0.00094463	0.0015076	0.00023805	984.04	1.2106e-05	2.9724e-06	1274.1	300.41	6.5058e-06	7.3419e-06	382.97	143.2	114.54	47.113	6.9144e-06	62.108	0.00065903	0.0006538	0.00018043	847.49	6.8775e-06	7.1288e-06	1093.4	257.38	7.0319e-06	6.8705e-06	332.09	123.35	99.279	40.82	6.9214e-06	53.679	-28.079	-118.975	163.618	-152.155	-1.617	-49.765	-154.355	-145.860	3.823	64.082	-149.216	-144.060	-140.351	-135.442	-152.390	-140.690	-8191	255	
1863.133	1	1	0	0	0.074584	0.050917	0.14726	0.16309	0.14772	0.14861	0.19882	0.15017	0.12689	0.074256	0.22228	0.31008	0.073769	0.16331	0.09444	0.21264	-0.87917	-2.0021	-1.8646	-1.5438	-2.2	-1.5604	-2.1437	-2.2042	-1.3333	-2.1312	-2.15	-1.4	-2.4667	-1.5979	-1.6958	-2.3979	-67.241	162.619	35.069	187.404	129.712	37.989	83.209	110.588	-142.458	-40.781	4.141	-155.692	-72.174	94.445	193.094	147.686	0.0010118	0.0010434	0.00036728	986.2	7.5513e-06	7.9488e-06	1272.2	297.83	9.8509e-06	7.7899e-06	392.57	145.43	114.16	47.808	8.1206e-06	62.907	0.00064471	0.00062618	0.00017426	846.35	6.6485e-06	7.0093e-06	1092.5	257.85	6.7547e-06	6.8281e-06	335.95	124.67	99.524	41.247	6.9379e-06	54.495	-35.073	-5.284	-25.791	-152.481	35.836	32.374	-154.440	-146.031	51.136	-23.689	-148.712	-143.768	-140.561	-135.508	22.595	-139.513	-8191	255	
1863.253	1	1	0	0	0.17323	0.16578	0.094483	0.14929	0.21582	0.11724	0.19318	0.075274	0.058268	0.22775	0.37651	0.22145	0.082756	0.078578	0.10307	0.20113	-1.0521	-2.025	-2.0104	-1.4375	-2.2438	-1.6771	-1.7417	-2.3229	-1.4875	-1.9875	-2.0396	-1.2854	-2.2958	-1.8438	-1.4125	-2.6521	42.411	-128.091	58.298	-155.237	-55.501	122.762	22.679	84.020	-76.557	88.472	108.802	101.949	-153.517	-98.262	123.675	154.071	0.0010039	0.00035939	0.00020402	995.21	4.0982e-06	8.6921e-06	1294.4	301.59	1.9907e-05	1.6042e-05	387.49	145.43	114.7	46.906	1.5935e-05	62.497	0.00063856	0.00063895	0.0001752	853.2	6.7723e-06	6.7995e-06	1103.7	259.49	6.793e-06	6.8339e-06	335.24	124.84	99.011	40.834	6.9779e-06	53.924	-22.543	-30.703	-108.040	-152.224	-12.552	-3.970	-154.325	-145.929	-38.928	21.042	-148.959	-143.644	-140.293	-135.756	-32.285	-139.693	-8191	255	
1863.350	1	1	0	0	0.27117	0.12329	0.050447	0.10432	0.13527	0.10163	0.22869	0.036443	0.19747	0.1097	0.17189	0.22438	0.21411	0.17689	0.19618	0.10354	-1.1354	-2.0438	-2.0292	-1.4438	-2.375	-1.8354	-1.7167	-2.4979	-1.525	-1.825	-2.1688	-1.4917	-2.2458	-1.9688	-1.4208	-2.3875	176.218	-150.932	-59.062	21.864	-100.691	-124.425	162.932	133.648	191.339	118.184	52.875	-78.187	-93.796	156.261	84.885	179.030	0.0010317	0.00086144	0.00033229	990.75	1.2987e-05	4.2533e-06	1285.8	300.07	6.5935e-06	1.616e-05	386.39	142.93	113.48	47.088	8.8252e-06	61.439	0.00064494	0.00063351	0.0001774	852.83	6.9042e-06	6.9835e-06	1101	257.97	6.8434e-06	6.8598e-06	332.73	123.33	98.146	40.825	6.9921e-06	53.262	-37.377	-80.062	-146.776	-152.413	21.776	68.328	-154.712	-145.895	-91.449	-6.723	-148.862	-143.711	-139.828	-135.912	-80.518	-139.916	-8191	255	
1863.444	1	1	0	0	0.086422	0.14942	0.20363	0.43941	0.28205	0.14811	0.096588	0.1442	0.27731	0.19977	0.13723	0.32956	0.12444	0.12006	0.42919	0.15763	-1.3458	-1.5604	-2.1083	-1.6	-1.9896	-1.9521	-1.4667	-2.6521	-1.6812	-1.7792	-2.3063	-1.4	-2.2188	-2.1896	-1.4042	-2.4562	-143.197	129.400	-83.692	143.764	177.161	-68.143	51.270	-94.735	54.810	165.210	125.232	163.401	77.431	-162.570	-84.027	-141.860	0.0009642	0.00083509	0.00028199	995.54	6.0599e-06	3.9239e-06	1294	299.77	9.5473e-06	6.8178e-06	386.34	143.46	115.48	47.005	5.4323e-06	61.949	0.00063611	0.00063151	0.00017481	856.49	6.829e-06	6.8399e-06	1103.8	257.32	6.6639e-06	6.8628e-06	333.94	123.76	99.057	40.915	6.7293e-06	53.502	-35.146	-60.885	-98.452	-152.286	-69.173	-52.635	-154.231	-145.641	-20.384	-66.114	-148.726	-144.051	-140.615	-135.752	-43.140	-139.544	-8191	255	
1863.540	1	1	0	0	0.095254	0.09296	0.14803	0.36159	0.097432	0.10075	0.16199	0.23037	0.21254	0.26286	0.13496	0.24581	0.12315	0.1962	0.086138	0.20152	-1.3813	-1.6437	-2.3146	-1.7979	-1.85	-2.2042	-1.6646	-2.1833	-1.8042	-1.6792	-2.6167	-1.4896	-2.0458	-2.4958	-1.4062	-2.4542	-88.590	74.898	-97.113	129.124	-99.367	-59.835	136.941	-127.254	120.940	-6.957	65.478	-96.777	52.917	77.546	-69.880	-145.223	0.0010216	0.00053979	0.00030853	988.8	9.6162e-06	5.3132e-06	1275.5	303.75	1.1958e-05	1.315e-05	389.97	146.65	115.73	48.459	1.1854e-05	64.01	0.0006411	0.00063643	0.00017512	849.7	6.8616e-06	6.9927e-06	1091.1	261.81	6.6553e-06	6.8453e-06	338.29	126.46	101.23	42.073	6.7983e-06	55.305	-35.205	-95.156	-88.583	-152.230	-48.746	-50.525	-154.321	-145.466	-73.983	-7.222	-148.486	-143.601	-140.080	-135.499	5.446	-140.005	-8191	255	
1863.661	1	1	0	0	0.25131	0.19585	0.03626	0.14099	0.011077	0.17625	0.20762	0.23658	0.29201	0.15661	0.065952	0.06414	0.098604	0.40804	0.10892	0.27779	-1.5146	-1.5917	-2.2354	-1.5312	-1.9312	-2.2896	-1.5312	-2.4	-1.9438	-1.3729	-2.4292	-1.8062	-1.8479	-2.4833	-1.2646	-2.2958	57.397	-158.504	127.800	70.647	114.127	149.375	178.715	95.636	-132.942	156.299	-128.543	79.970	138.105	-126.740	-29.314	165.776	0.00092813	0.00055948	0.00038575	987.69	1.271e-05	2.3423e-06	1278	307.65	1.2415e-05	5.7575e-06	397.68	148.17	118.13	48.779	7.5994e-06	64.727	0.00061749	0.00060872	0.00017067	846.78	6.5046e-06	6.63e-06	1092.9	264.14	6.5164e-06	6.8677e-06	342.22	127.99	102.05	42.292	6.506e-06	55.823	-33.245	-13.251	-84.934	-152.239	-17.258	-23.508	-154.309	-145.822	-9.476	-15.755	-148.195	-143.634	-139.881	-135.383	25.960	-139.972	-8191	255	
1863.732	1	1	0	0	0.2035	0.27611	0.13288	0.18078	0.11672	0.15055	0.31994	0.18819	0.090484	0.094525	0.19916	0.14489	0.082929	0.14122	0.028471	0.38707	-1.7375	-1.4937	-2.2583	-1.8292	-1.7125	-2.1917	-1.4438	-2.0812	-2.1417	-1.5	-2.1771	-1.6729	-1.6187	-2.525	-1.3458	-1.9646	138.400	-152.343	119.939	78.411	145.522	116.503	103.306	137.279	-22.151	73.097	186.586	-10.016	-141.173	-149.626	6.666	170.962	0.00093895	0.00098655	0.00018057	985.83	1.0989e-05	4.2142e-06	1275.9	309.84	7.4473e-06	7.9612e-06	398.88	149.22	121.07	49.067	1.1284e-05	64.901	0.00062033	0.00060476	0.00017112	847.19	6.5258e-06	6.7268e-06	1087.8	266.61	6.7735e-06	6.6563e-06	343.92	128.55	104.11	42.56	6.64e-06	55.853	-28.980	-92.649	-102.384	-152.437	-10.623	15.066	-154.502	-145.638	17.681	-43.326	-148.933	-143.923	-140.860	-135.508	-17.763	-139.763	-8191	255	
1863.829	1	1	0	0	0.16499	0.035904	0.20211	0.20875	0.12907	0.085524	0.11923	0.30656	0.14418	0.14282	0.24467	0.19202	0.15109	0.22062	0.089681	0.25946	-1.8917	-1.2521	-2.325	-1.7979	-1.6521	-2.4083	-1.7917	-2.0229	-2.1521	-1.2333	-2.2729	-2.025	-1.2396	-2.6333	-1.525	-2.0958	154.618	60.725	-158.660	171.511	32.177	43.204	162.273	158.367	-36.634	124.413	168.145	177.881	55.450	125.611	41.067	183.313	0.0010911	0.00082968	0.00036773	986.44	1.7813e-05	6.377e-06	1281.3	310.43	6.2768e-06	3.9113e-07	399.35	149.7	118.53	49.074	4.9109e-06	64.252	0.00063041	0.00063313	0.00017236	848.21	6.8877e-06	6.9221e-06	1093.2	267.39	6.8524e-06	6.8037e-06	344.98	128.44	103.6	42.612	7.0202e-06	55.609	-27.177	-79.058	-153.215	-151.805	-14.142	-6.700	-154.479	-145.791	-17.431	-63.855	-148.585	-143.482	-140.785	-135.607	-50.558	-139.456	-8191	255	
1863.925	1	1	0	0	0.10084	0.025936	0.29749	0.14596	0.11264	0.26337	0.16355	0.1853	0.16712	0.11638	0.12203	0.18286	0.36899	0.25959	0.1002	0.092801	-1.7479	-1.4104	-2.1312	-2.1583	-1.5167	-2.3375	-1.7896	-1.6729	-2.3812	-1.5458	-2.4417	-2.2188	-1.5938	-2.5521	-1.9271	-1.8167	99.706	154.052	27.010	-158.534	-19.405	-60.237	-144.731	-163.710	43.840	-3.892	82.515	-158.042	-107.275	-90.446	-3.369	-18.276	0.00082612	0.00099942	0.00034022	991.72	3.1577e-06	7.7625e-06	1275.4	310.14	1.014e-05	8.2432e-06	399.04	150.44	118.99	49.042	8.6556e-06	64.608	0.00063724	0.00062794	0.00017669	852.34	6.9872e-06	6.9397e-06	1093.7	267.73	6.9704e-06	7.0177e-06	344.5	128.82	103.25	42.656	7.0626e-06	55.872	-41.772	-33.735	-28.961	-152.438	-24.844	-5.550	-154.242	-145.967	16.938	-38.543	-148.250	-143.875	-140.004	-135.398	-4.794	-140.111	-8191	255	
1864.045	1	1	0	0	0.10342	0.11571	0.35301	0.23695	0.1572	0.1265	0.19221	0.28493	0.2088	0.1063	0.14512	0.21885	0.1511	0.27061	0.083691	0.20731	-1.8333	-1.4792	-1.9688	-2.1646	-1.3792	-2.2583	-2.0187	-1.6729	-2.3458	-1.4062	-2.1604	-2.2042	-1.5854	-2.3979	-1.7708	-1.5729	-139.987	157.423	151.068	-153.526	51.658	96.260	109.805	142.697	-79.675	117.432	157.314	-100.001	-146.805	-141.380	108.469	171.108	0.0010071	0.00039268	0.00012139	999.37	1.1582e-05	5.4443e-06	1293.2	310.77	8.5817e-06	1.271e-05	397.59	150.34	118.41	48.926	5.0438e-06	64.923	0.00065507	0.00064602	0.00017957	852.76	6.9077e-06	6.9257e-06	1102	267.53	6.779e-06	6.8198e-06	343.79	128.78	102.77	42.396	6.7633e-06	56.001	-24.055	-160.423	-72.589	-151.825	-48.681	-93.551	-154.518	-145.460	16.990	-8.660	-148.157	-144.190	-139.638	-135.115	-89.482	-139.754	-8191	255	
1864.142	1	1	0	0	0.24592	0.099435	0.060294	0.2309	0.2964	0.088386	0.40793	0.10019	0.25049	0.062952	0.096596	0.31131	0.27447	0.35309	0.19099	0.34736	-2.0938	-1.5042	-1.7375	-2.6458	-1.3542	-2.2708	-2.0812	-1.5479	-2.4479	-1.5146	-1.8062	-2.2062	-1.3917	-2.1188	-1.8604	-1.3917	191.296	42.451	-88.570	193.467	-30.569	-25.550	126.226	-138.836	-118.039	-105.330	70.229	180.129	96.662	171.597	186.454	177.119	0.00092438	0.0010092	0.00010419	997.15	5.5484e-06	3.5746e-06	1281.2	308.75	7.1508e-06	1.1109e-05	397.41	147.7	118.56	48.139	5.4556e-06	63.766	0.00064131	0.00062048	0.00017178	852.86	6.9088e-06	6.9242e-06	1096.7	264.83	6.8711e-06	6.7795e-06	341.5	127.07	102.26	41.89	6.6676e-06	54.918	-44.640	-48.495	-108.472	-151.752	-20.119	-68.542	-154.386	-145.723	88.675	-1.741	-148.345	-143.479	-140.426	-135.749	115.687	-139.968	-8191	255	
1864.238	1	1	0	0	0.08979	0.24937	0.1244	0.063108	0.037622	0.19557	0.25451	0.20664	0.1865	0.20044	0.11466	0.12403	0.09663	0.35409	0.070421	0.12006	-1.9521	-1.6021	-1.6938	-2.3771	-1.1271	-2.2417	-2.1271	-1.4312	-2.35	-1.75	-1.6708	-2.3458	-1.4146	-2.0333	-2.0083	-1.6208	1.433	-21.084	-141.838	191.548	-31.803	-18.799	123.358	103.309	-148.250	127.475	59.287	195.300	-114.012	-94.264	36.132	-59.223	0.0011266	0.00075281	6.5403e-05	1005.7	3.5587e-06	4.7004e-06	1281.5	314.67	2.4047e-06	4.8816e-06	396.5	149.37	117.49	48.91	4.9676e-06	64.214	0.00062818	0.00062888	0.00017292	859.38	6.5577e-06	6.6405e-06	1096.2	268.65	6.5787e-06	6.7629e-06	342.98	128.15	102.85	42.537	6.7647e-06	55.863	-28.206	-5.596	64.181	-152.271	182.109	-140.023	-154.430	-145.906	-66.756	-21.384	-148.461	-143.993	-139.892	-135.075	30.250	-139.721	-8191	255	
1864.334	1	1	0	0	0.1258	0.13776	0.025664	0.2296	0.16002	0.079766	0.23009	0.32585	0.21682	0.21322	0.1674	0.39471	0.15535	0.15703	0.19003	0.15867	-2.0479	-1.55	-1.7271	-2.3875	-1.5771	-2.0708	-2.2979	-1.6437	-2.1771	-1.8896	-1.7313	-2.5333	-1.5354	-1.9458	-2.4458	-1.4188	-77.593	-17.890	-85.565	162.823	-152.357	144.642	139.773	-146.014	33.789	172.654	161.134	156.524	-123.184	-151.504	-77.508	-117.604	0.00092074	0.00051439	0.00033543	996.79	1.7196e-05	1.0058e-05	1284.2	313.74	4.4817e-06	6.1523e-06	404.11	151.73	120.43	49.666	1.163e-05	65.609	0.00062936	0.00061834	0.00017053	852.75	6.4445e-06	6.6673e-06	1096.5	269.89	6.4142e-06	6.5808e-06	346.69	130.17	103.99	42.961	6.5751e-06	56.644	-30.834	-27.928	-78.787	-151.764	-33.005	-50.026	-154.042	-145.553	59.108	23.059	-148.655	-144.033	-139.694	-135.087	-49.162	-140.027	-8191	255	
1864.430	1	1	0	0	0.16309	0.17232	0.010645	0.091176	0.16904	0.21251	0.20184	0.16488	0.14502	0.24826	0.070491	0.23655	0.30669	0.2553	0.11933	0.12498	-1.7521	-1.9979	-1.4583	-2.3375	-1.475	-1.8333	-2.4021	-1.4854	-2.1146	-1.9479	-1.6313	-2.3146	-1.55	-1.9688	-2.2083	-1.5187	42.385	-50.355	-22.952	-156.673	14.869	-44.250	39.824	56.198	-124.844	-16.228	-88.948	135.374	76.014	169.535	90.263	-151.197	0.00095137	0.00076349	0.00021975	996.82	9.2386e-06	6.5397e-06	1280.6	315.32	1.0535e-05	1.2157e-05	408.77	152.45	121.35	50.364	4.7101e-06	66.278	0.00060326	0.00059462	0.00016677	853.04	6.4292e-06	6.4116e-06	1092.7	271.5	6.4241e-06	6.554e-06	348.97	131.12	104.88	43.522	6.289e-06	57.079	-24.830	-56.110	-81.484	-151.753	50.295	14.436	-154.361	-145.839	-159.509	-17.608	-147.908	-143.433	-140.418	-135.287	20.014	-139.991	-8191	255	
1864.524	1	1	0	0	0.24542	0.24313	0.15313	0.2136	0.13533	0.17332	0.19573	0.11066	0.10205	0.02384	0.048553	0.23889	0.22206	0.24867	0.049704	0.07467	-1.7125	-2.0354	-1.35	-2.4333	-1.6271	-1.6792	-2.6708	-1.5125	-1.9625	-2.0146	-1.4333	-2.3042	-1.6479	-1.6104	-2.3917	-1.5688	106.884	59.487	90.985	135.293	58.631	110.703	161.609	153.455	-84.871	36.565	-106.120	136.563	-159.794	195.699	149.426	-31.002	0.0010938	0.00068527	0.00011033	995.32	1.3037e-05	3.2725e-06	1270.7	318.93	8.513e-06	5.4808e-06	405.77	151.31	119	49.726	4.6812e-06	64.808	0.00060782	0.00058223	0.00016776	852.84	6.4602e-06	6.6992e-06	1089.2	273.32	6.4598e-06	6.4373e-06	347.65	130.33	103.72	43.057	6.5368e-06	56.021	-28.524	-30.048	-44.284	-151.661	-4.792	114.777	-153.977	-145.448	-7.485	2.628	-148.705	-143.898	-140.182	-134.939	2.393	-139.859	-8191	255	
1864.622	1	1	0	0	0.21473	0.17337	0.104	0.14369	0.10003	0.25482	0.31389	0.025091	0.34397	0.40997	0.25431	0.33494	0.1741	0.3586	0.10796	0.21647	-1.6021	-2.3125	-1.3563	-2.1958	-1.975	-1.4104	-2.5687	-1.5625	-1.7792	-2.25	-1.3625	-2.3854	-1.8396	-1.5792	-2.3917	-1.5167	136.992	-10.828	-138.709	165.206	-33.162	3.225	118.833	89.094	134.032	-113.390	69.848	164.857	-117.965	143.742	-69.489	171.586	0.00084748	0.00089173	0.0003512	990.92	7.5403e-06	7.3927e-06	1283.4	311.9	8.4221e-06	1.0553e-05	398.57	150.32	118.46	49.054	6.7298e-06	64.203	0.00059533	0.0005929	0.00016624	852.65	6.5089e-06	6.6313e-06	1094.6	267.91	6.5478e-06	6.4653e-06	343.09	128.68	102.85	42.477	6.3001e-06	55.357	-27.197	-71.786	-68.140	-151.994	-123.611	9.989	-154.153	-145.823	40.575	39.321	-148.261	-143.603	-140.711	-135.141	162.369	-139.680	-8191	255	
1864.741	1	1	0	0	0.44081	0.191	0.25269	0.35773	0.35915	0.26337	0.31751	0.17534	0.057583	0.12919	0.1799	0.070964	0.11421	0.24476	0.2287	0.13108	-1.4583	-2.0417	-1.2125	-2.2104	-1.7708	-1.3937	-2.5625	-1.8	-1.7208	-2.2208	-1.3542	-2.3896	-2.0375	-1.5854	-2.4292	-1.7396	-95.358	-112.692	195.508	123.769	81.944	36.215	119.954	77.357	91.836	-141.793	-0.439	2.849	125.081	144.747	-76.509	54.524	0.00087347	0.00077887	0.00030308	993.91	4.2683e-06	5.933e-06	1288.3	312.7	1.1626e-05	3.0877e-06	399.19	150.23	118.14	49.158	8.7761e-06	64.804	0.00061924	0.00057981	0.00016375	851.88	6.3061e-06	6.5724e-06	1097.1	268.28	6.5105e-06	6.4089e-06	344.41	129.07	102.41	42.596	6.3635e-06	55.876	-34.272	-105.226	-99.845	-151.718	-32.866	-20.461	-154.311	-145.992	-42.030	-0.308	-148.483	-143.469	-140.449	-135.001	18.507	-139.848	-8191	255	
1864.837	1	1	0	0	0.39143	0.32799	0.21556	0.30478	0.12413	0.11401	0.24217	0.042758	0.021394	0.25199	0.1726	0.20167	0.30229	0.11842	0.25896	0.33371	-1.4479	-2.4833	-1.2792	-2.25	-2.1521	-1.3021	-2.6688	-1.8396	-1.6417	-2.3792	-1.6146	-2.1104	-2.1979	-1.6104	-2.1771	-1.9375	61.942	-113.449	169.264	143.788	47.946	37.859	123.383	-101.185	109.594	-128.013	75.330	192.568	154.014	-64.134	150.120	136.696	0.00099742	0.00056205	0.00018522	997.74	9.0298e-06	9.4608e-06	1284.3	313.49	7.3343e-06	9.1762e-06	401.57	151.49	120.66	49.463	6.209e-06	65.035	0.00059978	0.00057961	0.00016498	853.48	6.2812e-06	6.5322e-06	1095.4	268.77	6.3225e-06	6.3385e-06	345.1	129.85	103.43	42.814	6.1768e-06	55.991	-31.977	80.121	-22.119	-151.753	-81.141	10.294	-153.829	-145.701	-89.292	-65.180	-148.144	-143.736	-140.454	-135.138	-23.787	-140.165	-8191	255	
1864.933	1	1	0	0	0.099705	0.12351	0.035335	0.15046	0.29431	0.10914	0.026196	0.19725	0.11625	0.15818	0.074748	0.37616	0.20949	0.13151	0.06352	0.089739	-1.3083	-2.2208	-1.5208	-1.9958	-2.2146	-1.4271	-2.3625	-2.0271	-1.5104	-2.4583	-1.4354	-1.9208	-2.0604	-1.5479	-2.2292	-2.0875	-127.054	1.470	-31.515	142.914	-14.091	45.627	-109.149	132.444	186.956	0.909	142.667	121.207	146.972	100.630	-83.670	146.003	0.00093917	0.00010853	0.00023946	984.3	1.0845e-05	7.1091e-06	1278.1	309.33	1.1861e-05	1.2253e-05	395.26	149.76	117.81	48.783	9.3543e-06	63.864	0.00060105	0.00058429	0.00016159	843.35	6.4367e-06	6.4144e-06	1088.1	266.2	6.2385e-06	6.3046e-06	340.36	127.93	102.07	42.339	6.4186e-06	55.085	-30.977	-87.475	-130.923	-151.589	4.845	-42.125	-153.656	-145.298	-53.116	51.308	-148.279	-143.633	-140.068	-135.260	3.854	-139.563	-8191	255	
1865.030	1	1	0	0	0.024919	0.21933	0.063553	0.1319	0.097031	0.020801	0.16932	0.1702	0.1505	0.082335	0.21135	0.28147	0.093936	0.098915	0.15296	0.069049	-1.1542	-2.4396	-1.5833	-1.9792	-2.2458	-1.5562	-2.3396	-2.2375	-1.5958	-2.4875	-1.7271	-1.7062	-2.2375	-1.5042	-2.0021	-2.0708	-115.349	-88.857	93.882	164.548	-63.384	-0.602	139.107	-13.524	-91.934	168.783	64.195	-33.489	-72.146	-75.977	-150.494	131.373	0.00095286	0.00044973	0.00023804	990.31	1.8838e-05	8.2353e-06	1268.2	310.51	9.7924e-06	2.0262e-05	394.52	148.61	119.06	48.777	6.4947e-06	63.551	0.00060362	0.000571	0.00015831	847.24	6.5345e-06	6.521e-06	1081.8	266.38	6.3267e-06	6.5173e-06	340.25	127.47	102.51	42.251	6.4065e-06	55.136	-34.024	-93.253	-9.803	-151.776	44.411	-58.085	-153.885	-145.640	-30.616	-59.326	-148.336	-143.427	-140.456	-135.602	-132.955	-139.398	-8191	255	
1865.126	1	1	0	0	0.2435	0.12336	0.22618	0.14494	0.13718	0.27207	0.23637	0.25063	0.098107	0.1083	0.11602	0.23472	0.18602	0.2158	0.14412	0.20209	-1.0771	-2.2583	-1.6417	-1.9688	-2.3292	-1.6208	-2.2354	-2.3312	-1.4062	-2.2354	-1.7229	-1.6979	-2.4292	-1.5417	-1.9479	-2.3292	45.962	111.538	-139.941	172.371	101.179	89.937	77.555	-90.321	-0.943	28.514	163.742	109.726	24.371	167.844	-41.337	-127.205	0.00089658	0.00045019	0.00024934	987.11	8.8132e-06	8.162e-06	1275.8	310.57	7.1738e-06	8.3904e-06	397.19	148.03	119.4	48.971	1.3864e-05	64.874	0.00060506	0.00059032	0.00016316	846.2	6.3203e-06	6.4828e-06	1087.2	266.89	6.4087e-06	6.4761e-06	342.78	127.57	103.03	42.573	6.586e-06	55.905	-22.326	-23.225	-101.714	-151.533	-18.619	-15.987	-153.814	-145.795	21.651	74.078	-148.416	-143.717	-140.336	-134.975	3.556	-139.453	-8191	255	
1865.222	1	1	0	0	0.082934	0.091703	0.19935	0.12834	0.14011	0.2095	0.07425	0.13089	0.20479	0.10126	0.54769	0.32276	0.10733	0.15091	0.16114	0.229	-0.99583	-2.2875	-1.8563	-1.6146	-2.3583	-1.475	-2.0625	-2.3688	-1.5625	-2.1312	-2.1375	-1.7062	-2.3896	-1.6771	-1.7542	-2.5479	-1.007	-1.010	103.649	141.639	171.966	63.931	8.267	117.332	-56.201	15.620	153.517	153.174	-123.431	165.387	-116.762	100.536	0.00099847	0.00013568	0.00025092	990.28	1.1994e-05	1.1357e-05	1285.6	311.23	6.0061e-06	7.5589e-06	399.34	149.81	118.48	49.372	6.9318e-06	65.352	0.00060847	0.00060324	0.00016563	849.79	6.3807e-06	6.4845e-06	1092.2	267.51	6.4406e-06	6.5303e-06	343.48	128.66	102.81	42.778	6.4016e-06	56.1	-27.205	-98.319	-69.932	-152.134	-20.964	-9.766	-153.448	-145.427	-14.393	9.763	-148.065	-143.441	-139.627	-135.150	-47.186	-140.045	-8191	255	
1865.343	1	1	0	0	0.18217	0.30288	0.088593	0.19061	0.22531	0.050269	0.15774	0.32498	0.16797	0.14806	0.24555	0.13534	0.27445	0.16384	0.12577	0.20508	-0.96042	-2.2021	-2.1042	-1.5542	-2.2875	-1.5854	-1.8958	-2.5417	-1.5021	-2.1333	-2.2208	-1.5521	-2.3875	-1.6833	-1.6333	-2.4167	72.428	158.076	-139.188	-117.218	-134.779	34.127	181.820	135.472	133.126	-38.755	149.036	105.986	-11.758	145.373	-155.456	90.084	0.0010572	0.00056864	0.00015092	985.18	5.3633e-06	1.0685e-05	1270.9	311.41	1.0606e-05	6.0118e-06	397.93	149.16	118.12	49.35	3.8213e-06	64.574	0.00059162	0.00058005	0.00016239	845.59	6.3082e-06	6.4899e-06	1086.9	267.43	6.3456e-06	6.3326e-06	341.49	128.29	102.77	42.592	6.3846e-06	55.503	-25.765	-116.641	-77.567	-151.629	176.061	-10.179	-153.944	-145.603	7.182	27.782	-148.456	-143.561	-139.966	-135.480	32.793	-139.434	-8191	255	
1865.437	1	1	0	0	0.056526	0.14508	0.18296	0.17233	0.19237	0.1207	0.034628	0.21686	0.19977	0.095852	0.098802	0.1838	0.13028	0.16592	0.16249	0.049927	-1.0104	-2.1937	-2.0938	-1.5271	-2.3208	-1.7396	-1.65	-2.4854	-1.5875	-1.9208	-2.4125	-1.3646	-2.2687	-2.0438	-1.6021	-2.4938	-35.798	81.909	-88.411	182.458	-154.357	-33.869	-46.846	99.138	101.929	1.222	94.601	-128.499	-108.427	124.272	34.551	-133.245	0.00068438	0.00035712	8.5795e-05	982.7	1.0775e-05	5.9309e-06	1262.1	313.71	1.1897e-05	1.1941e-05	404.03	151.17	122.45	50.312	8.7362e-06	65.017	0.00059622	0.00060082	0.00016259	843.79	6.3838e-06	6.3982e-06	1081.4	269.87	6.3194e-06	6.4859e-06	345.24	130.09	105.07	43.322	6.53e-06	56.39	-28.170	-75.030	46.232	-151.428	-79.381	73.302	-153.613	-145.421	6.174	-15.752	-147.755	-143.829	-140.689	-135.166	-77.202	-139.627	-8191	255	
1865.533	1	1	0	0	0.17808	0.21218	0.093784	0.28303	0.16308	0.19593	0.17591	0.15036	0.12313	0.089944	0.080802	0.24157	0.074543	0.13123	0.12904	0.38158	-1.25	-1.7979	-2.5187	-1.575	-2.1771	-2.1625	-1.5708	-2.2167	-1.5458	-1.7375	-2.4583	-1.5479	-1.9479	-2.3729	-1.4771	-2.3667	-22.108	-127.597	-145.629	128.379	-130.803	-78.185	16.724	122.991	1.823	106.197	76.479	112.177	177.522	63.698	-41.924	194.634	0.0010994	0.0010454	0.00038045	990.75	2.2459e-06	8.5348e-06	1273.1	317.84	3.9775e-06	8.7677e-06	406.76	153.57	123.18	50.448	9.057e-06	66.332	0.00061077	0.00058188	0.00016628	845.67	6.3159e-06	6.4551e-06	1088.8	273.96	6.4264e-06	6.571e-06	349.26	131.99	106.36	43.693	6.4775e-06	57.275	-32.743	-18.706	-95.077	-151.859	-139.256	-32.910	-153.511	-145.286	124.626	21.632	-147.974	-143.326	-139.488	-135.488	-50.724	-139.426	-8191	255	
1865.607	1	1	0	0	0.095709	0.2433	0.2507	0.28128	0.07756	0.27966	0.18356	0.18046	0.069875	0.16223	0.23144	0.34479	0.23886	0.15775	0.19196	0.036754	-1.4521	-1.6354	-2.4979	-1.4833	-2.0417	-2.05	-1.6271	-2.2854	-1.8208	-1.5521	-2.4021	-1.4833	-2.05	-2.1437	-1.4688	-2.4854	66.621	149.310	-125.596	174.735	-84.539	179.958	149.164	97.407	191.541	155.855	99.430	156.289	-154.069	60.636	-132.986	166.168	0.0011571	0.00037267	0.00025444	982.52	1.341e-05	9.3025e-06	1278.1	320.01	9.995e-06	1.081e-05	407.97	154.96	123.08	51.315	1.3229e-05	67.745	0.00060138	0.00058723	0.0001628	844.05	6.4052e-06	6.5722e-06	1086.3	275.17	6.4434e-06	6.5444e-06	351.61	133.05	106.97	44.226	6.4398e-06	58.338	-32.776	105.319	-42.703	-151.491	-42.252	16.430	-153.890	-145.102	5.527	-16.966	-148.862	-143.570	-139.920	-135.055	-56.382	-139.697	-8191	255	
1865.725	1	1	0	0	0.035337	0.13957	0.19307	0.20322	0.021021	0.071184	0.36661	0.27744	0.12867	0.10136	0.23852	0.37752	0.19023	0.28115	0.27927	0.10611	-1.4937	-1.3479	-2.3417	-1.6542	-1.7792	-2.1188	-1.6688	-2.3458	-1.8958	-1.5708	-2.55	-1.7542	-1.8146	-2.4833	-1.4521	-2.2958	134.783	-119.771	16.007	142.264	-125.648	-126.342	90.568	80.365	117.824	101.877	-154.943	-56.572	18.762	-84.163	38.385	162.896	0.0010152	0.00098701	0.00019741	980.1	6.315e-06	1.6305e-06	1262.7	319.12	1.0138e-05	1.0023e-05	409.72	154.18	123.13	50.537	1.3824e-05	66.057	0.00059805	0.0006087	0.00016282	841.2	6.4498e-06	6.4743e-06	1081.5	274.79	6.5483e-06	6.6768e-06	350.95	132.41	106.18	43.775	6.6139e-06	57.147	-26.053	-39.763	-11.613	-151.173	-11.253	139.548	-153.607	-145.257	-44.948	79.039	-148.511	-143.745	-140.267	-135.255	7.395	-139.321	-8191	255	
1865.822	1	1	0	0	0.23936	0.10768	0.14408	0.38925	0.12509	0.19758	0.14963	0.10203	0.21732	0.094655	0.080064	0.19251	0.14591	0.074058	0.11541	0.10408	-1.6625	-1.7125	-2.3333	-1.5354	-1.8563	-2.2271	-1.6417	-2.2938	-2.2042	-1.3854	-2.4167	-1.9708	-1.5396	-2.5312	-1.4	-2.1479	2.576	-44.077	24.650	153.736	93.939	45.167	189.681	159.586	63.207	-143.573	153.642	-146.075	-128.044	183.929	-82.099	-145.297	0.0011401	0.00031868	0.00049151	983.14	5.0352e-06	1.161e-06	1273.2	319.77	7.2901e-06	7.0616e-06	401.93	151.74	122.31	50.488	4.9952e-06	66	0.00060867	0.00060577	0.00016621	844.33	6.5187e-06	6.5428e-06	1085.3	274.38	6.5909e-06	6.6182e-06	347.12	130.69	105.58	43.641	6.6493e-06	56.892	-26.995	-95.278	-98.254	-151.620	-23.731	-65.553	-153.959	-145.103	-14.962	2.040	-148.063	-143.321	-139.978	-135.364	45.103	-139.660	-8191	255	
1865.918	1	1	0	0	0.045136	0.22258	0.1082	0.25755	0.07967	0.16052	0.15274	0.084814	0.12521	0.18468	0.085533	0.1758	0.10429	0.19209	0.21194	0.1763	-2	-1.4625	-2.1875	-2.0583	-1.725	-2.3833	-1.6625	-2.0042	-2.3104	-1.4042	-2.3438	-2.0396	-1.4937	-2.4542	-1.4333	-1.8729	179.038	-62.724	-72.318	142.448	68.724	-31.512	170.525	159.227	90.237	148.754	-93.185	155.219	34.021	158.358	-6.991	157.533	0.00094943	0.00069902	0.00029358	980.29	8.1515e-06	6.1885e-06	1263.9	321.49	1.18e-05	8.7583e-06	404.33	153.32	121.3	50.704	1.9502e-05	66.857	0.00063257	0.00060587	0.00017115	842.24	6.6484e-06	6.6666e-06	1079.6	274.84	6.8633e-06	6.7864e-06	348.98	131.53	105.96	43.852	6.6949e-06	57.359	-28.700	-161.682	-64.206	-151.737	1.578	-28.632	-153.143	-145.536	30.465	20.993	-147.550	-143.280	-139.737	-135.392	-26.831	-139.606	-8191	255	
1866.014	1	1	0	0	0.23838	0.11073	0.089942	0.23967	0.23335	0.27157	0.078752	0.32851	0.098816	0.20265	0.16546	0.44736	0.23848	0.28645	0.18889	0.17905	-1.7229	-1.5	-1.9813	-2.1417	-1.3583	-2.5812	-1.6396	-1.8146	-2.1688	-1.5104	-2.3229	-2.0167	-1.5438	-2.525	-1.5208	-1.9083	18.081	-6.572	-53.345	-156.697	129.961	-15.460	-53.124	183.335	191.553	-47.518	99.196	124.706	-97.966	178.993	129.475	133.420	0.0010118	0.0011368	0.00044379	985.33	8.5832e-06	1.0811e-05	1271.3	321.09	1.2987e-05	2.7428e-06	409.55	153.82	122.88	50.57	3.1375e-06	67.055	0.00064171	0.00061819	0.00017027	844.11	6.6647e-06	6.7697e-06	1083.1	275.34	6.9324e-06	6.9918e-06	351.73	131.98	106.43	43.936	6.7741e-06	57.808	-29.428	-106.992	-87.417	-151.659	61.149	2.524	-153.878	-145.059	-26.285	64.361	-148.493	-143.688	-139.953	-134.654	-134.432	-139.579	-8191	255	
1866.134	1	1	0	0	0.35997	0.030954	0.11123	0.31927	0.25126	0.24751	0.26095	0.054844	0.13156	0.18918	0.12096	0.27614	0.092195	0.060527	0.38102	0.20062	-2.0292	-1.3062	-2.0792	-2.2417	-1.5562	-2.2729	-1.7375	-1.6708	-2.4813	-1.3667	-2.2771	-2.2583	-1.4229	-2.4479	-1.8167	-1.5208	14.702	-57.818	-56.600	140.621	117.975	-155.803	79.720	159.612	153.199	-108.420	33.005	65.329	191.831	-159.712	129.726	156.827	0.00074769	0.00070509	0.00023291	976	8.7546e-06	1.1769e-05	1257	318.62	9.1621e-06	1.2517e-05	407	152.81	122.16	50.719	1.0635e-05	65.724	0.00061856	0.00060782	0.00016664	838.77	6.7235e-06	6.72e-06	1075.2	274.56	6.6598e-06	6.9503e-06	349.29	131.66	105.75	43.816	6.8913e-06	56.728	-23.870	-10.672	-122.578	-151.437	88.906	3.024	-153.416	-145.194	-69.824	-73.995	-148.218	-143.150	-139.636	-135.019	-46.002	-139.229	-8191	255	
1866.206	1	1	0	0	0.11559	0.25663	0.14721	0.31281	0.044956	0.085428	0.10718	0.24192	0.051956	0.44764	0.24372	0.013795	0.13723	0.14454	0.27094	0.16438	-2.0542	-1.35	-1.9271	-2.3333	-1.3354	-2.3854	-1.9792	-1.6208	-2.3458	-1.5375	-1.9729	-2.3958	-1.2896	-2.4021	-1.9146	-1.4604	75.487	47.055	13.330	118.302	22.619	3.763	148.484	143.897	65.470	89.019	99.310	26.276	160.501	74.374	102.265	67.229	0.00095728	0.00014951	0.00015428	973.99	2.02e-05	6.7583e-06	1258	322.23	1.2627e-05	8.8193e-06	404.76	152.14	123.63	50.656	1.9344e-05	65.806	0.00063079	0.00062267	0.00017325	835.72	6.7556e-06	6.8759e-06	1073.5	275.25	6.7375e-06	6.7702e-06	348.46	131.35	105.97	43.766	6.9243e-06	56.774	-37.865	146.673	-23.803	-151.561	-80.447	7.326	-153.638	-145.331	-5.417	25.327	-148.059	-143.511	-140.161	-135.108	-10.583	-139.142	-8191	255	
1866.302	1	1	0	0	0.15268	0.22442	0.27409	0.19717	0.23648	0.28048	0.25008	0.24236	0.068934	0.28048	0.12907	0.16276	0.05723	0.10178	0.12739	0.22428	-2.1146	-1.5583	-1.7146	-2.4667	-1.4125	-2.4125	-2.15	-1.5375	-2.4	-1.7375	-1.8146	-2.4062	-1.6688	-2.2396	-2.0958	-1.4646	-100.527	-73.657	136.652	122.674	-48.600	109.198	192.053	73.586	-92.816	15.467	80.462	142.150	43.789	-149.156	-62.343	171.429	0.0010495	0.0012351	0.00027762	981.75	3.6805e-06	5.6684e-06	1260.6	321.24	6.2249e-06	3.8663e-06	407.2	154.22	124.03	50.39	7.1597e-06	66.367	0.00064096	0.00061795	0.00017119	839.25	6.7381e-06	6.8287e-06	1076.7	275.15	6.7122e-06	6.7679e-06	348.82	132.17	106.95	43.781	6.9392e-06	57.141	-22.603	-57.002	192.385	-151.305	1.062	-61.869	-153.259	-145.163	14.236	26.634	-147.915	-143.554	-139.475	-135.220	11.267	-139.400	-8191	255	
1866.423	1	1	0	0	0.12534	0.23427	0.19805	0.14531	0.25922	0.11468	0.2521	0.34729	0.27005	0.086413	0.099526	0.1481	0.030968	0.12461	0.11238	0.047012	-1.8687	-1.8146	-1.6583	-2.6146	-1.4625	-2.1583	-2.225	-1.5438	-2.2562	-1.875	-1.5792	-2.6063	-1.3917	-2.1896	-2.0542	-1.6271	-23.394	13.380	125.160	103.003	91.837	-75.117	86.088	158.045	67.934	74.342	178.256	185.219	87.611	168.325	151.326	-77.029	0.00091504	0.00047067	0.00041596	980.95	8.6835e-06	6.0204e-06	1259.3	320.23	1.1716e-05	7.8509e-07	407.25	154.8	124.11	50.817	2.7663e-07	67	0.0006352	0.00061043	0.00017751	841.12	6.8079e-06	6.8198e-06	1080.2	274.43	6.6936e-06	6.9513e-06	350.4	132.84	106.59	43.983	6.8517e-06	57.977	-31.303	-48.210	-40.262	-151.701	-33.418	36.205	-153.336	-145.217	-37.329	20.100	-147.888	-143.280	-140.048	-134.971	144.451	-139.236	-8191	255	
1866.517	1	1	0	0	0.12403	0.092399	0.29226	0.17059	0.15445	0.21583	0.27288	0.33638	0.19709	0.10452	0.30536	0.040337	0.14378	0.11362	0.11581	0.26737	-1.9604	-1.7	-1.5521	-2.4292	-1.575	-1.8542	-2.3104	-1.55	-2.1	-1.9833	-1.4562	-2.4854	-1.6042	-1.8646	-2.3042	-1.5271	88.190	29.655	-133.859	86.942	-70.449	65.396	148.349	130.437	188.046	-157.528	100.256	26.673	151.500	-92.550	174.426	161.643	0.0011458	0.0010278	0.00062084	979.84	7.6482e-06	6.7579e-06	1261.3	320.09	6.3286e-06	1.0064e-05	404.75	153.9	123.28	50.613	9.8246e-06	66.231	0.00062877	0.000616	0.00017782	842.46	6.8688e-06	6.8748e-06	1080.6	274.57	6.749e-06	6.9207e-06	349.11	132.23	106.7	43.868	6.851e-06	56.943	-33.342	-2.745	-113.161	-151.802	8.355	-31.783	-154.405	-145.653	6.001	10.597	-148.262	-143.658	-140.197	-135.609	-13.753	-139.747	-8191	255	
1866.615	1	1	0	0	0.31609	0.14158	0.092836	0.04958	0.26724	0.13277	0.079187	0.31962	0.29843	0.32105	0.48249	0.074453	0.071244	0.18641	0.11603	0.27671	-1.8917	-2.0646	-1.375	-2.4562	-1.7271	-1.6938	-2.3833	-1.6042	-2.0854	-2.2125	-1.4896	-2.4188	-1.6333	-1.8708	-2.475	-1.5417	-115.312	185.798	187.585	68.074	170.138	-134.873	126.323	162.278	180.216	156.712	137.020	133.430	-21.415	154.712	-138.105	116.352	0.00085886	0.0009807	0.00023318	985.26	8.09e-06	2.4854e-06	1264.2	320.39	1.1832e-05	1.4318e-06	408.37	154.76	123.44	50.756	1.2486e-05	66.446	0.00063891	0.00062483	0.00017408	844.16	6.7019e-06	6.8131e-06	1077.8	275.87	6.6044e-06	6.8663e-06	351.85	132.54	107.12	43.993	6.7612e-06	57.526	-28.795	-96.925	-37.087	-152.081	-45.378	43.653	-154.246	-145.965	-14.548	167.719	-148.114	-144.153	-140.595	-135.546	9.015	-140.049	-8191	255	
1866.734	1	1	0	0	0.19662	0.29673	0.059023	0.041377	0.15218	0.11914	0.33979	0.39037	0.054046	0.059376	0.21268	0.26474	0.031831	0.28578	0.020352	0.1447	-1.6854	-2.0833	-1.4438	-2.5479	-1.7313	-1.6521	-2.3917	-1.5688	-1.8542	-2.0271	-1.4188	-2.2375	-1.9146	-1.5042	-2.1813	-1.6063	32.552	-142.669	166.047	-4.191	38.255	-31.435	147.960	120.674	123.651	2.078	177.043	104.178	-26.713	6.879	-128.835	-124.619	0.00093632	0.0016175	0.00029964	973.17	6.0332e-06	7.3221e-06	1247.9	323.64	1.1606e-05	6.6648e-06	411.47	157.49	126.13	51.656	4.0154e-06	68.676	0.00063527	0.00060861	0.00017345	835.02	6.7451e-06	6.9212e-06	1069.7	278.96	6.8581e-06	6.895e-06	355.32	135.46	109.23	44.804	6.9153e-06	58.893	-23.900	-94.531	-139.523	-151.785	-7.858	-71.565	-153.963	-145.541	-64.578	-78.668	-148.562	-143.795	-140.251	-135.876	-11.644	-139.937	-8191	255	
1866.830	1	1	0	0	0.25741	0.15399	0.31842	0.20899	0.10696	0.056767	0.21305	0.047231	0.15947	0.058469	0.11888	0.1971	0.14067	0.16551	0.10025	0.25888	-1.4937	-2.1896	-1.2375	-2.3979	-1.9188	-1.4021	-2.4	-1.5917	-1.7521	-2.3708	-1.5938	-2.1521	-2.0375	-1.7021	-2.2917	-1.7792	-82.012	25.914	155.350	156.038	-18.030	-9.048	133.876	89.846	-47.800	-16.263	171.020	165.964	25.521	75.113	191.193	146.866	0.00097985	0.0004367	0.00013296	978.89	3.3869e-06	4.4152e-06	1263.8	331.46	9.3847e-06	1.4951e-05	417.87	160.27	130.43	53.043	8.8782e-06	69.937	0.00062584	0.00061632	0.00017355	839.12	6.8559e-06	6.7277e-06	1079.3	284.07	6.6771e-06	6.8602e-06	362.46	137.92	111.64	45.717	6.8745e-06	60.075	-35.173	-74.511	-113.046	-151.548	-63.582	-108.442	-153.822	-145.655	28.040	-75.916	-148.367	-144.293	-140.124	-135.587	-10.933	-139.961	-8191	255	
1866.902	1	1	0	0	0.1768	0.11037	0.31515	0.32618	0.042966	0.20726	0.34456	0.19237	0.12392	0.13251	0.048106	0.24504	0.26856	0.25711	0.151	0.26102	-1.2667	-2.1771	-1.3396	-2.1583	-2.2104	-1.5167	-2.2542	-2.0187	-1.6396	-2.5187	-1.5875	-2.2625	-2.1312	-1.2542	-2.2875	-1.8479	53.947	-45.508	158.011	174.246	171.661	-29.447	134.825	115.020	-111.603	117.285	52.827	192.229	172.110	-160.085	19.745	-141.280	0.0010194	0.00015791	0.00013439	987.73	4.9121e-06	7.7623e-06	1273.5	335.49	8.8703e-06	1.2375e-05	427.81	161.31	128.69	52.741	6.3092e-06	68.735	0.00064786	0.00061158	0.00017004	848.04	6.6178e-06	6.6885e-06	1087.3	288.26	6.7122e-06	6.7208e-06	367.1	138.73	111.3	45.709	6.714e-06	59.558	-35.030	5.231	-24.536	-151.514	28.268	-19.716	-153.861	-145.842	-25.349	-46.243	-148.404	-143.932	-140.470	-135.898	9.928	-140.212	-8191	255	
1867.023	1	1	0	0	0.4412	0.20538	0.19766	0.1404	0.13467	0.21392	0.28562	0.21992	0.21376	0.12138	0.18758	0.18481	0.17513	0.18661	0.14114	0.032781	-1.0167	-2.3563	-1.3375	-2.1646	-2.0854	-1.3167	-2.5292	-1.9729	-1.5271	-2.1917	-1.6354	-1.9104	-2.3125	-1.6313	-2.25	-2.1937	-64.774	-80.728	-78.106	7.496	141.465	-63.467	167.461	110.775	44.295	30.318	-67.974	83.107	-126.701	165.862	-9.631	39.175	0.00098962	0.00050521	0.00042171	992.13	1.0133e-05	3.3196e-06	1275.6	331.17	2.2876e-06	6.808e-06	417.59	157.91	128.23	51.617	1.4292e-05	67.64	0.0006219	0.00061262	0.00016512	851.1	6.4169e-06	6.6421e-06	1085.4	284.28	6.5312e-06	6.5699e-06	360.3	135.85	109.76	44.816	6.5666e-06	58.291	-23.458	-113.604	-18.992	-151.853	-12.245	-115.252	-154.074	-145.441	47.865	-40.146	-148.721	-143.843	-140.580	-135.401	1.172	-140.237	-8191	255	
1867.119	1	1	0	0	0.25627	0.099467	0.12186	0.34977	0.25785	0.11513	0.32812	0.19952	0.31008	0.076615	0.094461	0.34468	0.0063121	0.056786	0.29078	0.21088	-0.99583	-2.4333	-1.5792	-2.0708	-2.1979	-1.3833	-2.4688	-2.0708	-1.4813	-2.3042	-1.7208	-1.7125	-2.1854	-1.6167	-2.1458	-2.0375	157.116	12.418	-52.204	161.840	-72.000	38.545	156.372	98.976	82.400	-120.358	-109.998	145.433	-58.834	-162.770	-5.678	40.788	0.0010121	0.00089009	0.00027724	991.49	1.3334e-05	3.54e-06	1269.2	328.06	1.1232e-05	3.8096e-06	420.64	158.91	126.79	52.002	3.6696e-06	68.163	0.00058986	0.00060119	0.00016414	845.71	6.519e-06	6.5131e-06	1080.7	282.85	6.4848e-06	6.3088e-06	361.17	136.34	109.42	44.975	6.322e-06	58.806	-27.390	-117.632	-108.941	-151.491	-17.073	80.603	-153.643	-145.394	-20.028	-57.673	-148.680	-143.478	-140.711	-135.837	-65.398	-140.049	-8191	255	
1867.215	1	1	0	0	0.30557	0.31031	0.10104	0.20566	0.15806	0.1813	0.32734	0.064773	0.26857	0.23465	0.11007	0.090793	0.090971	0.22319	0.2519	0.021678	-0.92292	-2.3875	-1.5917	-1.6938	-2.525	-1.3458	-2.1958	-2.0604	-1.3771	-2.2375	-1.8833	-1.6708	-2.3812	-1.4792	-1.9062	-2.4396	-62.128	111.347	11.823	163.000	138.484	147.574	131.625	24.940	-38.281	151.398	81.999	-63.179	-128.784	158.358	-100.125	-80.038	0.00094816	0.00096086	0.00011749	991.76	3.2277e-06	1.0105e-05	1278.5	331.34	8.0884e-06	9.6209e-06	425.85	159.82	129.5	52.203	7.5874e-06	68.845	0.00061417	0.00057702	0.00016565	849.06	6.4426e-06	6.4799e-06	1088.2	284.75	6.4931e-06	6.496e-06	363.13	137.29	111.12	45.423	6.651e-06	59.591	-28.927	-107.866	-94.531	-151.273	-123.408	-40.624	-153.731	-145.341	-107.562	5.438	-148.313	-143.987	-140.724	-135.704	-55.327	-139.733	-8191	255	
1867.311	1	1	0	0	0.088664	0.069603	0.13365	0.15619	0.068957	0.2336	0.16973	0.46399	0.41083	0.092428	0.040797	0.15322	0.29234	0.060675	0.28592	0.10207	-0.79375	-2.2458	-1.725	-1.6271	-2.4167	-1.6792	-2.0479	-2.3563	-1.4083	-2.2896	-2.225	-1.5104	-2.3812	-1.7938	-1.7646	-2.4	130.923	-102.199	53.642	43.021	-133.093	-63.292	102.681	95.366	-22.478	-113.831	-103.644	186.398	181.818	162.078	44.718	84.562	0.00085561	0.0010991	0.00024434	996.94	8.0882e-06	1.1525e-05	1285.7	335.76	8.1118e-06	6.268e-06	423.68	160.39	129.76	52.62	1.0508e-05	68.712	0.00061351	0.00059781	0.00016665	852.77	6.504e-06	6.4968e-06	1094.6	287.39	6.527e-06	6.6042e-06	364.62	138.41	111.75	45.57	6.451e-06	59.341	-20.602	193.307	-109.137	-151.608	-19.261	-12.314	-154.045	-145.803	-19.393	-138.191	-148.133	-143.794	-139.999	-135.478	9.770	-139.815	-8191	255	
1867.430	1	1	0	0	0.22154	0.22429	0.23139	0.16809	0.05257	0.081618	0.14521	0.11852	0.15882	0.17717	0.079022	0.24054	0.20913	0.38948	0.088021	0.060255	-1.0396	-1.8646	-1.9937	-1.475	-2.3187	-1.6125	-1.8813	-2.5417	-1.4062	-2.1271	-2.0583	-1.5125	-2.1937	-1.8375	-1.6313	-2.5042	-44.014	-119.997	75.907	95.861	100.313	37.203	150.268	146.080	134.251	-133.029	71.967	-139.317	-89.493	133.658	-131.838	85.582	0.0010639	0.00047972	0.00011144	990.69	1.422e-05	1.7436e-05	1273.4	333.89	3.6321e-06	1.5534e-05	424.04	160.49	129.06	52.806	7.3897e-06	68.601	0.00061854	0.00060281	0.0001679	852.68	6.7112e-06	6.6866e-06	1088.2	287.55	6.7649e-06	6.6178e-06	363.96	137.78	111.2	45.569	6.5844e-06	59.126	-30.754	-72.490	-127.878	-151.678	-76.112	-9.509	-153.575	-145.869	4.967	3.239	-148.345	-143.991	-140.358	-135.794	-51.249	-139.882	-8191	255	
1867.503	1	1	0	0	0.052687	0.096641	0.11393	0.07063	0.15018	0.29416	0.35801	0.17726	0.18833	0.040795	0.086767	0.28358	0.068726	0.047537	0.056325	0.12927	-1.1625	-2.0125	-2.2729	-1.4021	-2.2687	-1.7292	-1.775	-2.3792	-1.425	-2.1333	-2.1854	-1.4833	-2.3583	-1.9896	-1.6646	-2.4437	71.051	75.158	110.085	121.751	-72.242	-133.145	145.023	149.652	3.859	-138.880	-139.175	90.990	136.896	-103.545	13.345	170.286	0.00096565	0.0011503	0.0001797	1000.8	7.4418e-06	1.1008e-05	1280.2	334.54	7.4089e-06	5.3832e-06	424.49	160.16	128.22	52.416	1.0959e-05	68.599	0.00061179	0.00061293	0.00016853	855.66	6.6239e-06	6.6863e-06	1092.1	287.99	6.4878e-06	6.6963e-06	364.89	137.38	110.9	45.398	6.8129e-06	59.066	-36.806	-127.596	129.077	-151.477	-29.651	102.767	-153.678	-145.557	80.868	-38.767	-148.454	-143.890	-140.263	-135.780	-152.061	-139.823	-8191	255	
1867.598	1	1	0	0	0.48206	0.16278	0.093709	0.41489	0.19829	0.16132	0.28571	0.27658	0.31275	0.040141	0.10748	0.24669	0.22205	0.20437	0.10391	0.25922	-1.1812	-1.8583	-2.0896	-1.6313	-2.2438	-2.0604	-1.5521	-2.3688	-1.5875	-1.7146	-2.3458	-1.4771	-2.3896	-1.975	-1.3854	-2.4542	125.260	-30.383	160.486	178.851	-68.632	143.500	183.385	161.207	51.725	-4.892	161.724	119.372	-30.806	143.516	27.514	57.154	0.0010448	0.00097713	0.00035593	992.47	7.3038e-06	1.0484e-05	1280.6	336.49	8.8108e-06	1.1317e-05	425.34	161.17	129.73	52.625	1.1786e-05	68.9	0.00061184	0.00061034	0.00017334	855.2	6.5689e-06	6.6849e-06	1095.1	289.05	6.4256e-06	6.6809e-06	365.58	138.12	111.38	45.528	6.8258e-06	59.516	-27.772	-112.238	-117.359	-151.023	71.331	-6.421	-153.973	-145.196	-28.715	-46.339	-148.628	-144.069	-140.082	-135.873	-2.010	-139.943	-8191	255	
1867.696	1	1	0	0	0.13491	0.08462	0.09207	0.10303	0.11592	0.235	0.19267	0.24167	0.2523	0.35446	0.22193	0.083402	0.15172	0.13598	0.066797	0.13016	-1.2354	-1.7458	-2.3667	-1.3979	-2.2812	-2.125	-1.5667	-2.5583	-1.8646	-1.5375	-2.4	-1.4396	-1.8937	-2.2167	-1.3354	-2.3479	149.672	-27.968	106.519	89.501	177.467	76.546	169.218	150.399	56.082	72.658	-161.860	-127.260	196.012	167.792	-155.319	-155.350	0.0012122	0.00037092	0.00032291	999.06	6.6902e-06	5.4501e-06	1281.2	337.54	1.2339e-05	1.1761e-05	431.28	159.19	129.75	52.298	9.2774e-06	68.132	0.0006337	0.00059863	0.00017028	858.04	6.6343e-06	6.6916e-06	1096.1	289.82	6.768e-06	6.7195e-06	367.99	137.74	111.36	45.15	6.7879e-06	58.709	-22.909	-6.006	-56.819	-151.476	10.092	-23.923	-153.553	-145.679	-159.775	-40.307	-148.323	-143.411	-139.977	-135.190	-5.172	-139.910	-8191	255	
1867.814	1	1	0	0	0.15849	0.018802	0.080727	0.16733	0.11822	0.087136	0.48825	0.053242	0.081634	0.14405	0.10587	0.18444	0.2516	0.18377	0.20709	0.20114	-1.3813	-1.5167	-2.3042	-1.6958	-2.0542	-2.1833	-1.5938	-2.3979	-1.7333	-1.4396	-2.3333	-1.7188	-1.8958	-2.4854	-1.2271	-2.5479	-68.418	-135.459	79.188	115.957	116.639	89.354	114.508	120.436	-15.063	115.597	87.219	85.167	166.991	104.905	82.176	93.776	0.00099356	0.0005352	0.00026666	994.98	1.7949e-05	5.2565e-06	1271.4	336.42	7.849e-06	5.6616e-06	426.67	159.76	128.18	51.861	9.6713e-06	67.64	0.00062459	0.0006069	0.00017181	855.66	6.6322e-06	6.7355e-06	1089.4	288.82	6.6793e-06	6.7862e-06	364.95	137.33	110.87	45.058	6.6969e-06	58.473	-25.748	-153.763	-126.911	-151.434	-19.091	-74.565	-153.563	-145.534	-89.798	36.682	-148.149	-143.583	-140.051	-135.378	-8.229	-140.089	-8191	255	
1867.911	1	1	0	0	0.19255	0.36831	0.31405	0.099346	0.12171	0.12794	0.134	0.20188	0.39539	0.37643	0.11883	0.35523	0.14984	0.0855	0.11354	0.164	-1.5792	-1.4396	-2.5604	-1.7521	-1.7333	-2.25	-1.6708	-2.3292	-2.0812	-1.5271	-2.5854	-1.8375	-1.8188	-2.45	-1.5708	-2.3354	-127.668	22.404	6.109	-63.257	-160.145	-17.687	-154.873	159.876	87.383	181.115	134.020	152.864	111.591	-60.971	-65.568	116.908	0.0010729	0.00019823	0.00010744	999.4	3.6856e-06	1.1689e-05	1282.2	338.25	3.4886e-06	7.4616e-06	426.67	160.66	129.85	52.455	7.7879e-06	67.99	0.00060971	0.00060843	0.00016978	858.24	6.6871e-06	6.5231e-06	1094.4	290.42	6.5034e-06	6.7217e-06	366.17	137.59	111.7	45.233	6.6287e-06	58.684	-30.870	-54.427	-58.957	-151.496	-78.064	37.689	-153.661	-145.531	162.844	41.231	-148.579	-143.876	-139.980	-135.358	94.510	-139.893	-8191	255	
1868.007	1	1	0	0	0.10015	0.15905	0.11008	0.50115	0.33506	0.23237	0.17112	0.31244	0.14792	0.22207	0.19379	0.11595	0.36198	0.13284	0.14316	0.07071	-1.8479	-1.3396	-2.3	-1.8708	-1.5938	-2.4792	-1.6708	-2.1354	-2.025	-1.2792	-2.45	-1.9083	-1.6271	-2.4583	-1.5104	-2.2292	72.876	75.650	-6.239	-149.751	-9.712	39.953	33.499	110.153	108.878	28.494	161.889	56.931	-146.322	194.101	185.321	166.175	0.00093069	0.00041414	0.00019276	1005.5	9.9566e-06	4.8293e-06	1288.6	342.78	4.2278e-06	1.009e-05	436.36	161.97	130.02	52.59	7.6319e-06	68.918	0.00059907	0.00058642	0.00016696	865.6	6.6886e-06	6.5078e-06	1106.6	294.29	6.4564e-06	6.6771e-06	372.77	139.17	112.06	45.669	6.434e-06	59.177	-23.349	-103.636	-91.511	-151.795	19.136	14.322	-153.488	-145.155	-75.882	37.363	-148.273	-143.848	-140.201	-135.466	26.505	-140.038	-8191	255	
1868.103	1	1	0	0	0.26741	0.19481	0.11162	0.3562	0.16	0.080648	0.17335	0.1931	0.14677	0.153	0.36007	0.32843	0.093743	0.11742	0.075203	0.14143	-2.0667	-1.3021	-2.3792	-2.2562	-1.4729	-2.6792	-1.5562	-2.0187	-2.2396	-1.2375	-2.3708	-1.9042	-1.7104	-2.3479	-1.5042	-1.8958	-84.226	158.277	24.360	140.316	146.070	101.287	156.956	149.341	166.005	22.783	-154.367	172.614	106.092	49.811	116.191	30.188	0.0011243	0.0012157	3.6698e-05	1011.2	1.009e-05	7.9237e-06	1308.5	342.4	8.7797e-06	7.7858e-06	433.59	161.07	131.41	52.377	1.3992e-05	68.155	0.00059973	0.00059796	0.00015628	870.94	6.3346e-06	6.5401e-06	1113.4	293.2	6.4276e-06	6.6569e-06	371.9	138.31	112.37	45.374	6.6335e-06	58.854	-26.456	-74.778	-136.782	-151.331	44.154	-41.155	-153.634	-144.907	-43.594	49.845	-148.350	-143.815	-140.097	-134.865	13.533	-139.361	-8191	255	
1868.199	1	1	0	0	0.069991	0.20613	0.34205	0.22965	0.13475	0.13537	0.34415	0.31792	0.054679	0.2218	0.18205	0.19331	0.13588	0.15607	0.068314	0.26019	-1.9438	-1.4375	-2.1271	-2.2604	-1.3604	-2.4104	-1.8813	-1.8417	-2.6271	-1.3708	-2.2146	-2.1667	-1.5667	-2.4083	-1.625	-1.6708	142.399	32.229	29.593	110.387	52.980	-159.889	127.628	129.654	130.031	-132.390	182.074	115.821	74.815	132.849	146.330	151.383	0.0010759	0.00044878	0.00021448	1038.8	6.3652e-06	1.2336e-05	1321.8	342.98	5.6612e-06	6.0709e-06	423.68	159.08	128.09	51.665	8.7704e-06	67.126	0.00061503	0.00059738	0.00017011	888.3	6.5518e-06	6.6179e-06	1129.6	294.02	6.4422e-06	6.4007e-06	367.52	136.39	110.95	44.882	6.4743e-06	58.04	-21.417	-138.423	-77.179	-151.771	-9.891	32.723	-153.638	-145.340	-90.297	-129.671	-147.814	-143.887	-139.955	-135.333	-9.440	-139.944	-8191	255	
1868.295	1	1	0	0	0.073796	0.28236	0.15133	0.31124	0.17385	0.112	0.30449	0.22046	0.01621	0.028107	0.057151	0.088867	0.24106	0.096186	0.057236	0.18659	-2.2	-1.4854	-2.0854	-2.2125	-1.3354	-2.2917	-1.8792	-1.4354	-2.4479	-1.5125	-1.9562	-2.4354	-1.4479	-2.325	-1.8125	-1.7542	78.181	143.989	177.949	159.606	-61.483	-38.607	75.780	115.195	19.108	-43.329	68.189	24.159	-6.709	128.227	178.755	121.543	0.00099815	0.00037298	0.00033622	1049.3	9.6344e-06	3.9185e-06	1337.5	345.18	1.0161e-05	1.1478e-05	433.55	161.51	129.81	52.974	9.9479e-06	68.483	0.0006092	0.0005936	0.00016365	896.04	6.5966e-06	6.4313e-06	1141	296.01	6.2744e-06	6.4224e-06	374.54	138.99	112.43	45.941	6.1366e-06	59.214	-22.945	167.281	-24.895	-151.758	6.319	-93.092	-153.661	-145.486	-33.556	31.277	-148.342	-143.549	-140.479	-135.099	-49.851	-139.620	-8191	255	
1868.416	1	1	0	0	0.23046	0.23558	0.21616	0.092484	0.089438	0.31367	0.19872	0.11644	0.10142	0.12114	0.094966	0.27247	0.096613	0.074871	0.10579	0.24126	-2.0812	-1.5917	-1.7958	-2.2521	-1.6562	-2.2729	-2.1771	-1.5208	-2.4729	-1.7354	-1.9583	-2.4125	-1.475	-2.1312	-2.1458	-1.5708	-36.422	148.933	27.585	-41.271	93.682	-3.277	-134.300	10.045	159.364	-22.383	33.156	163.907	22.639	133.159	121.227	119.732	0.0010798	0.0005054	0.00012199	1050.4	1.8235e-05	6.9141e-06	1332.5	345.37	6.2239e-06	7.9946e-06	437.43	161.36	130.45	53.007	1.0715e-05	68.698	0.00058	0.00056602	0.00015719	901.93	6.058e-06	6.1141e-06	1137	297.7	6.0608e-06	5.8726e-06	375.07	138.33	112.09	45.747	5.9101e-06	59.23	-35.401	26.710	-38.117	-151.552	44.527	-57.442	-153.695	-145.614	-86.945	-19.365	-148.164	-143.870	-140.468	-135.391	-18.258	-139.935	-8191	255	
1868.510	1	1	0	0	0.17076	0.15239	0.24374	0.076131	0.075752	0.31806	0.24611	0.31116	0.091166	0.1686	0.10398	0.03771	0.14592	0.29646	0.19851	0.24481	-1.9104	-1.5438	-1.7125	-2.2542	-1.3375	-2.1396	-2.3563	-1.4375	-2.1312	-1.7812	-1.7396	-2.5958	-1.3771	-2.2771	-2.0979	-1.6417	16.053	109.297	6.628	55.237	183.014	30.727	-150.454	182.321	-131.994	-147.131	94.532	79.772	-91.891	151.546	120.190	160.729	0.0012042	0.00083885	0.00015472	1049.9	1.2611e-05	7.2537e-06	1350.4	354.87	3.2085e-06	5.7756e-06	447.99	164.81	133.33	53.808	1.0557e-05	69.638	0.00055639	0.00052704	0.00015388	900.78	5.9275e-06	5.8713e-06	1154.7	304.17	5.8801e-06	6.0075e-06	383.69	141.49	114.13	46.478	6.0501e-06	59.754	-22.517	-83.408	-134.834	-151.301	4.268	-42.034	-153.499	-145.549	-31.899	-0.847	-148.230	-143.890	-140.621	-135.490	-44.511	-139.657	-8191	255	
1868.606	1	1	0	0	0.12242	0.081406	0.15346	0.15736	0.065054	0.26605	0.25796	0.12373	0.034353	0.29287	0.15243	0.23734	0.27473	0.21694	0.28365	0.29381	-1.9	-1.8396	-1.5938	-2.4521	-1.6375	-1.7625	-2.3312	-1.6521	-2.2667	-1.8125	-1.7042	-2.3708	-1.6208	-1.8687	-2.1729	-1.3937	-1.138	-159.607	-158.359	77.453	182.863	-62.121	149.011	165.295	136.341	-88.973	75.171	153.597	127.654	181.469	-90.299	-122.067	0.0009289	0.00054386	0.00015612	1074.2	2.494e-06	1.6646e-06	1373.1	354.39	8.0426e-06	5.3137e-06	445	163.35	132.3	53.521	1.3719e-05	68.874	0.00057726	0.00055688	0.00015518	918.87	6.2106e-06	6.1478e-06	1168	303.6	6.0421e-06	6.0605e-06	383.07	139.82	113.57	46.118	6.0069e-06	59.265	-31.772	-85.977	-49.648	-151.482	30.220	-56.305	-153.798	-145.729	6.993	31.652	-148.427	-144.000	-140.339	-135.576	-32.654	-139.647	-8191	255	
1868.727	1	1	0	0	0.31404	0.12979	0.20975	0.28309	0.14614	0.12393	0.31209	0.25735	0.14445	0.077889	0.39733	0.093772	0.14677	0.2075	0.21787	0.35676	-1.6646	-2.1437	-1.5104	-2.6021	-1.5646	-1.65	-2.6688	-1.625	-2.2958	-2.1542	-1.3521	-2.55	-1.5562	-1.8958	-2.3312	-1.5771	32.749	105.395	-36.167	164.129	-125.530	14.308	145.821	165.532	-112.123	-163.420	173.640	154.013	110.761	-110.850	129.529	169.588	0.0012018	0.0012553	0.00025774	1094.3	5.1905e-06	3.8428e-06	1383.5	360.58	8.4951e-06	1.33e-05	452.17	164.51	134.52	54.425	7.0126e-06	70.006	0.00058428	0.00054934	0.00015711	932.33	6.0502e-06	6.1781e-06	1182.7	308.34	6.0918e-06	5.9572e-06	387.36	141.16	114.96	46.869	6.0083e-06	60.198	-20.938	-77.541	-96.937	-151.338	-30.281	-55.253	-153.817	-145.699	30.688	-31.034	-148.387	-144.015	-140.385	-135.530	24.829	-139.746	-8191	255	
1868.799	1	1	0	0	0.16364	0.063541	0.10368	0.083858	0.19731	0.1492	0.35284	0.10657	0.13026	0.11339	0.096673	0.17103	0.1575	0.43671	0.14089	0.17086	-1.8563	-2.1917	-1.6021	-2.3229	-1.9833	-1.7875	-2.4896	-1.45	-2.0458	-2.0896	-1.4833	-2.3563	-1.9188	-1.3	-2.5375	-1.7042	176.304	106.797	-2.488	88.549	97.029	14.547	127.996	166.923	12.079	88.943	-7.698	180.221	104.888	172.569	23.866	120.929	0.0010794	0.00076732	1.7321e-05	1089.6	3.3295e-06	4.3748e-06	1383.5	363.82	1.7729e-06	1.1415e-05	458.72	167.47	136.41	54.515	1.3257e-05	70.78	0.00056182	0.00052849	0.00015052	931.79	5.8881e-06	5.8917e-06	1179.4	310.13	5.8694e-06	5.821e-06	390.32	143.09	115.8	47.17	5.7345e-06	60.896	-18.483	-113.676	25.697	-151.146	-53.167	-60.766	-153.321	-145.885	-53.799	38.935	-148.467	-143.965	-140.850	-135.311	21.790	-139.757	-8191	255	
1868.893	1	1	0	0	0.2455	0.13203	0.23523	0.26935	0.12262	0.39492	0.26308	0.16268	0.10708	0.16961	0.21318	0.091204	0.42327	0.18872	0.34342	0.078296	-1.475	-2.2458	-1.3729	-2.3021	-1.8771	-1.675	-2.6167	-1.7708	-1.8687	-2.2708	-1.5729	-2.3771	-1.8521	-1.5771	-2.4979	-1.7667	72.031	-101.660	185.764	81.026	16.253	55.082	189.127	129.979	38.607	117.402	-22.807	-85.766	-159.692	-134.220	107.908	100.506	0.0010875	0.00038757	0.00026559	1093.7	5.3301e-06	3.4974e-06	1378.6	361.9	6.3275e-06	1.0534e-05	453.13	168.21	135.78	54.402	1.158e-05	71.279	0.0005572	0.00052318	0.00015195	930.36	5.7771e-06	5.9389e-06	1177.1	310.75	5.7997e-06	5.8941e-06	389.74	143.93	115.84	47.121	5.6644e-06	61.149	-26.909	-80.682	195.351	-151.343	-18.463	-44.304	-153.216	-145.809	-88.774	-35.719	-148.593	-143.685	-140.435	-135.480	-7.122	-139.936	-8191	255	
#DATA ENDS
