BOXY.EXE: ISS Imagent and Oximeter Data Acquisition Program Version 0.80
Ascii Record File

#ACQ INFORMATION
2  Detector Channels 
16  External MUX Channels 
1  Auxiliary Channels 
5000  Waveform (CCF) Frequency (Hz)
1  Waveforms Skipped 
30  Waveforms Averaged 
1  Cycles Averaged 
16  Acquisitions per Waveform 
10.0806  Updata Rate (Hz) 

#FILE INFORMATION
TRUE -- External MUX Channel results are PARSED.
FALSE -- AC DC and Phase are NOT grouped.
TRUE -- Companion Program Settings File CREATED.
FALSE -- AC data not excluded
FALSE -- DC data not excluded
FALSE -- Phase data not excluded
FALSE -- Auxillary Chn. data not excluded
Tab delimiters

#CALIBRATION STATE
TRUE -- Waveform Calibration Values APPLIED.


#AUX CALIBRATION VALUES
Val Type	aux-1	

Term	1.0000e+00	
Factor	0.0000e+00	


#WF CALIBRATION VALUES
A = Detector Channel
Val Type	A-AC1	A-AC2	A-AC3	A-AC4	A-AC5	A-AC6	A-AC7	A-AC8	A-AC9	A-AC10	A-AC11	A-AC12	A-AC13	A-AC14	A-AC15	A-AC16	A-DC1	A-DC2	A-DC3	A-DC4	A-DC5	A-DC6	A-DC7	A-DC8	A-DC9	A-DC10	A-DC11	A-DC12	A-DC13	A-DC14	A-DC15	A-DC16	A-Ph1	A-Ph2	A-Ph3	A-Ph4	A-Ph5	A-Ph6	A-Ph7	A-Ph8	A-Ph9	A-Ph10	A-Ph11	A-Ph12	A-Ph13	A-Ph14	A-Ph15	A-Ph16	

Term	0.00000e+00	0.00000e+00	0.00000e+00	0.00000e+00	0.00000e+00	0.00000e+00	0.00000e+00	0.00000e+00	0.00000e+00	0.00000e+00	0.00000e+00	0.00000e+00	0.00000e+00	0.00000e+00	0.00000e+00	0.00000e+00	0.00000e+00	0.00000e+00	0.00000e+00	0.00000e+00	0.00000e+00	0.00000e+00	0.00000e+00	0.00000e+00	0.00000e+00	0.00000e+00	0.00000e+00	0.00000e+00	0.00000e+00	0.00000e+00	0.00000e+00	0.00000e+00	0.00000e+00	0.00000e+00	0.00000e+00	0.00000e+00	0.00000e+00	0.00000e+00	0.00000e+00	0.00000e+00	0.00000e+00	0.00000e+00	0.00000e+00	0.00000e+00	0.00000e+00	0.00000e+00	0.00000e+00	0.00000e+00	
Factor	1.00000e+00	1.00000e+00	1.00000e+00	1.00000e+00	1.00000e+00	1.00000e+00	1.00000e+00	1.00000e+00	1.00000e+00	1.00000e+00	1.00000e+00	1.00000e+00	1.00000e+00	1.00000e+00	1.00000e+00	1.00000e+00	1.00000e+00	1.00000e+00	1.00000e+00	1.00000e+00	1.00000e+00	1.00000e+00	1.00000e+00	1.00000e+00	1.00000e+00	1.00000e+00	1.00000e+00	1.00000e+00	1.00000e+00	1.00000e+00	1.00000e+00	1.00000e+00	X	X	X	X	X	X	X	X	X	X	X	X	X	X	X	X	

B = Detector Channel
Val Type	B-AC1	B-AC2	B-AC3	B-AC4	B-AC5	B-AC6	B-AC7	B-AC8	B-AC9	B-AC10	B-AC11	B-AC12	B-AC13	B-AC14	B-AC15	B-AC16	B-DC1	B-DC2	B-DC3	B-DC4	B-DC5	B-DC6	B-DC7	B-DC8	B-DC9	B-DC10	B-DC11	B-DC12	B-DC13	B-DC14	B-DC15	B-DC16	B-Ph1	B-Ph2	B-Ph3	B-Ph4	B-Ph5	B-Ph6	B-Ph7	B-Ph8	B-Ph9	B-Ph10	B-Ph11	B-Ph12	B-Ph13	B-Ph14	B-Ph15	B-Ph16	

Term	0.00000e+00	0.00000e+00	0.00000e+00	0.00000e+00	0.00000e+00	0.00000e+00	0.00000e+00	0.00000e+00	0.00000e+00	0.00000e+00	0.00000e+00	0.00000e+00	0.00000e+00	0.00000e+00	0.00000e+00	0.00000e+00	0.00000e+00	0.00000e+00	0.00000e+00	0.00000e+00	0.00000e+00	0.00000e+00	0.00000e+00	0.00000e+00	0.00000e+00	0.00000e+00	0.00000e+00	0.00000e+00	0.00000e+00	0.00000e+00	0.00000e+00	0.00000e+00	3.99349e+01	-1.27183e+02	-1.30760e+02	-1.82253e+02	-7.82160e+01	-6.87738e+01	-1.58383e+02	-1.62015e+02	-6.51568e+00	-5.86521e+01	-1.73081e+02	-1.71715e+02	-1.81287e+02	-1.76244e+02	-6.42257e+01	-1.49702e+02	
Factor	5.52147e-05	1.09142e-04	2.94109e-05	1.60573e-01	1.55073e-06	1.56155e-06	1.48892e-01	4.20036e-02	1.58478e-06	1.42911e-06	9.25352e-02	2.65785e-02	2.40623e-02	7.73815e-03	1.51428e-06	1.10330e-02	2.94537e-06	3.18182e-06	8.85579e-07	8.69856e-02	3.45660e-08	3.49780e-08	7.56882e-02	2.28152e-02	3.43414e-08	3.49862e-08	4.82752e-02	1.38585e-02	1.31179e-02	4.22409e-03	3.45187e-08	5.81125e-03	X	X	X	X	X	X	X	X	X	X	X	X	X	X	X	X	



#DISTANCE SETTINGS
A = Detector Channel
A-1	A-2	A-3	A-4	A-5	A-6	A-7	A-8	A-9	A-10	A-11	A-12	A-13	A-14	A-15	A-16	

2.5000e+00	3.0000e+00	2.5000e+00	3.0000e+00	2.0000e+00	3.0000e+00	1.5000e+00	3.0000e+00	3.0000e+00	3.0000e+00	3.0000e+00	3.0000e+00	3.0000e+00	3.0000e+00	1.5000e+00	3.0000e+00	

B = Detector Channel
B-1	B-2	B-3	B-4	B-5	B-6	B-7	B-8	B-9	B-10	B-11	B-12	B-13	B-14	B-15	B-16	

1.0000e+01	1.0000e+01	1.0000e+01	1.4400e+00	1.0000e+01	1.0000e+01	1.5100e+00	1.9400e+00	1.0000e+01	1.0000e+01	1.9900e+00	2.4900e+00	2.4100e+00	2.9000e+00	1.0000e+01	2.9800e+00	




#DATA BEGINS
time	group	step	mark	flag	A-AC1	A-AC2	A-AC3	A-AC4	A-AC5	A-AC6	A-AC7	A-AC8	A-AC9	A-AC10	A-AC11	A-AC12	A-AC13	A-AC14	A-AC15	A-AC16	A-DC1	A-DC2	A-DC3	A-DC4	A-DC5	A-DC6	A-DC7	A-DC8	A-DC9	A-DC10	A-DC11	A-DC12	A-DC13	A-DC14	A-DC15	A-DC16	A-Ph1	A-Ph2	A-Ph3	A-Ph4	A-Ph5	A-Ph6	A-Ph7	A-Ph8	A-Ph9	A-Ph10	A-Ph11	A-Ph12	A-Ph13	A-Ph14	A-Ph15	A-Ph16	B-AC1	B-AC2	B-AC3	B-AC4	B-AC5	B-AC6	B-AC7	B-AC8	B-AC9	B-AC10	B-AC11	B-AC12	B-AC13	B-AC14	B-AC15	B-AC16	B-DC1	B-DC2	B-DC3	B-DC4	B-DC5	B-DC6	B-DC7	B-DC8	B-DC9	B-DC10	B-DC11	B-DC12	B-DC13	B-DC14	B-DC15	B-DC16	B-Ph1	B-Ph2	B-Ph3	B-Ph4	B-Ph5	B-Ph6	B-Ph7	B-Ph8	B-Ph9	B-Ph10	B-Ph11	B-Ph12	B-Ph13	B-Ph14	B-Ph15	B-Ph16	aux-1	digaux	

16833.043	1	1	0	768	0.15958	0.29801	0.32293	0.16634	0.07152	0.35887	0.15198	0.27106	0.22258	0.043642	0.15035	0.18757	0.02138	0.21534	0.17544	0.18916	-0.78542	-1.8458	-1.5375	-1.1896	-2.0667	-1.2917	-1.5729	-2.0104	-1.3083	-1.8	-1.9083	-1.1771	-2.0729	-1.4104	-1.1146	-2.1708	-137.171	-19.683	110.423	105.427	-154.580	-101.615	191.025	-146.864	92.960	172.015	-104.148	139.373	108.348	-27.157	9.148	-101.102	0.00068159	0.0015262	9.5442e-05	904.23	8.1012e-06	2.8255e-05	1075.4	208.84	1.4836e-05	1.1873e-05	320.11	85.332	42.475	7.6593	7.6751e-06	26.164	0.0036452	0.0038714	0.0010944	936.09	4.2218e-05	4.2602e-05	1081.2	217.54	4.1051e-05	4.145e-05	351.64	94.599	54.246	12.015	4.0933e-05	30.824	42.263	-68.274	-103.263	-144.357	26.249	-28.240	-144.723	-140.258	-3.917	-45.076	-140.117	-135.250	-135.477	-131.255	-44.395	-130.751	-8191	255	
16833.139	1	1	0	0	0.27298	0.18419	0.1023	0.095218	0.12684	0.095206	0.22502	0.14105	0.059314	0.067494	0.21033	0.17277	0.10331	0.10099	0.14067	0.073232	-0.78125	-1.7146	-1.7583	-1.2583	-1.7167	-1.3604	-1.3813	-2.0104	-1.2875	-1.7167	-1.9125	-1.0792	-1.95	-1.3687	-1.1125	-1.9625	-91.332	-148.766	-121.600	-81.597	129.286	96.308	137.360	197.004	25.148	96.376	152.475	188.398	120.738	110.384	-89.585	-147.492	0.00091058	0.0012076	0.00033144	906.89	9.7762e-06	3.24e-05	1083.2	207.16	2.1808e-05	1.4559e-05	321.35	85.319	42.352	7.6169	1.651e-05	26.142	0.0034788	0.0037476	0.0010587	933.37	4.0438e-05	4.1564e-05	1082.2	217.38	4.0927e-05	4.1496e-05	352.26	94.968	54.229	12.022	4.1248e-05	30.999	-25.102	195.329	-81.400	-144.357	-34.011	-92.462	-144.670	-140.364	112.010	35.709	-140.725	-135.513	-136.126	-130.737	58.935	-130.881	-8191	255	
16833.234	1	1	0	0	0.1548	0.33073	0.14387	0.17862	0.15938	0.13751	0.46469	0.44423	0.23311	0.21118	0.16336	0.06533	0.10126	0.036123	0.25159	0.13718	-0.72292	-1.4875	-1.7271	-1.1125	-1.5312	-1.3896	-1.1938	-1.9688	-0.96875	-1.425	-1.9167	-1.1854	-1.7708	-1.4917	-0.97917	-1.9958	-121.209	100.039	87.340	149.671	-27.936	84.428	127.668	131.051	125.846	128.782	57.997	123.752	-137.559	6.235	13.932	174.062	0.00070831	0.00049126	0.00046069	906.09	1.3206e-05	2.8242e-05	1078.9	206.67	1.5893e-05	6.6664e-06	320.14	85.591	42.485	7.6148	1.6646e-05	25.862	0.0035142	0.003718	0.001048	931.84	4.0588e-05	4.1784e-05	1078.6	217.58	4.0439e-05	4.126e-05	349.15	94.613	53.939	12.018	4.0762e-05	30.629	134.806	-15.275	-108.716	-144.450	-107.646	1.345	-144.623	-140.164	63.315	33.769	-140.266	-135.514	-135.531	-130.361	-28.650	-130.276	-8191	255	
16833.330	1	1	0	0	0.066392	0.063924	0.13075	0.071536	0.12512	0.083236	0.18469	0.085838	0.20353	0.10504	0.2852	0.079576	0.097359	0.092024	0.24013	0.2428	-0.97292	-1.3312	-1.9292	-1.3083	-1.8542	-1.8146	-1.3875	-1.9667	-1.525	-1.2896	-1.9896	-1.0396	-1.5063	-1.9688	-1.1146	-2.0333	-76.622	183.417	123.835	-18.659	20.148	-156.349	134.123	61.543	107.494	155.958	157.563	157.233	-99.282	-61.509	-133.568	-113.315	0.00066179	0.00053809	2.7889e-05	908.54	1.2305e-05	2.4469e-05	1070.9	207.27	1.0392e-05	1.3411e-05	320.72	85.852	43	7.5777	6.5877e-06	25.786	0.0034743	0.0037146	0.0010385	932.55	3.9986e-05	4.0696e-05	1075.6	216.84	3.997e-05	4.0652e-05	349.1	94.067	54.075	11.924	4.0068e-05	30.443	-5.612	-79.787	88.491	-144.667	34.376	175.899	-144.698	-139.926	66.200	93.492	-139.584	-135.619	-135.804	-130.267	-78.091	-130.602	-8191	255	
16833.428	1	1	0	0	0.096253	0.08339	0.37472	0.23872	0.25294	0.1673	0.22098	0.24108	0.030563	0.033132	0.22461	0.22033	0.067628	0.22135	0.098141	0.044403	-0.92708	-1.1542	-1.8917	-1.2479	-1.4604	-1.6104	-1.2417	-1.8479	-1.4771	-1.0042	-2.1042	-1.4167	-1.3417	-1.8875	-0.85417	-1.8146	-82.925	61.504	-81.007	176.307	79.618	-100.173	115.005	126.259	146.153	-136.137	-27.844	176.823	159.290	105.124	-39.853	168.877	0.00080434	0.00093817	0.00022849	900.47	7.2812e-06	1.9309e-05	1067.1	207.92	5.0003e-06	5.8979e-06	318.85	85.927	42.583	7.6215	1.1539e-05	26.044	0.0034318	0.0037048	0.0010183	927.38	3.9691e-05	4.0697e-05	1071.7	216.48	3.9702e-05	4.0482e-05	346.97	93.934	53.597	11.824	4.0031e-05	30.659	102.185	17.205	-115.923	-144.582	-2.595	33.077	-144.577	-139.886	-36.324	-36.758	-140.274	-135.637	-135.475	-129.665	-25.106	-130.874	-8191	255	
16833.523	1	1	0	0	0.18977	0.26274	0.07044	0.19316	0.10964	0.37102	0.080632	0.13411	0.32731	0.083248	0.14331	0.22624	0.039601	0.055524	0.16233	0.14104	-1.0854	-1.0438	-1.925	-1.2896	-1.3604	-1.7188	-1.3062	-1.7437	-1.65	-1.0896	-2.0812	-1.2875	-1.4	-1.9792	-1.0438	-1.8292	-151.243	145.296	-30.618	-151.699	-91.181	-21.696	-140.088	123.135	57.673	32.377	152.957	130.121	-144.604	133.029	143.812	-111.824	0.00073732	0.0005713	0.00031262	903.21	1.0659e-05	5.7027e-06	1077.3	206.84	1.144e-05	1.059e-05	320.53	85.153	42.649	7.6156	2.3119e-05	26.101	0.0034236	0.0036711	0.0010131	925.41	3.9587e-05	4.0612e-05	1070.2	216.28	3.9724e-05	4.0839e-05	348.11	94.215	53.897	11.879	4.0105e-05	30.604	60.688	179.239	-40.962	-144.448	48.515	52.777	-144.604	-140.246	197.613	95.042	-140.318	-135.492	-135.200	-131.765	44.274	-130.435	-8191	255	
16833.645	1	1	0	0	0.086492	0.21497	0.19355	0.15462	0.11991	0.12487	0.085207	0.20049	0.13617	0.073769	0.18558	0.14034	0.16924	0.23792	0.13331	0.26369	-1.1771	-0.90833	-1.9292	-1.5	-1.2792	-2.0146	-1.2271	-1.5708	-1.6917	-0.79167	-1.7667	-1.5333	-1.0375	-1.8937	-1.0542	-1.6229	-76.225	-156.200	180.838	148.019	201.199	-123.096	152.582	7.093	22.103	198.540	79.376	179.526	-94.498	-66.883	110.302	118.837	0.00060691	0.00076006	0.00027833	904.51	2.556e-05	9.9574e-06	1072.6	210	1.5032e-05	1.4254e-05	320.55	84.873	43.144	7.5399	1.2764e-05	25.759	0.0034296	0.0036602	0.0010071	929.52	3.9506e-05	3.9967e-05	1072	217.29	3.9176e-05	3.9735e-05	347.25	93.625	53.766	11.77	3.9356e-05	30.213	36.993	-18.421	138.314	-144.682	74.494	-14.388	-144.793	-140.357	31.531	-27.896	-139.790	-135.228	-136.108	-131.004	162.279	-130.670	-8191	255	
16833.738	1	1	0	0	0.28035	0.31662	0.13085	0.16926	0.08607	0.25104	0.14089	0.29336	0.21428	0.16081	0.15315	0.094731	0.20061	0.061557	0.094521	0.18264	-1.3937	-1.1688	-1.7167	-1.6146	-1.1375	-1.8354	-1.3708	-1.625	-1.8729	-0.9625	-1.7729	-1.6562	-1.2125	-1.9292	-1.3438	-1.4042	187.840	117.283	144.689	5.443	-55.433	195.312	172.320	128.957	107.550	49.316	-81.955	148.308	83.508	-90.815	100.786	87.767	0.00067946	0.001203	0.00020634	904.5	1.8685e-05	1.5297e-05	1070	207.77	1.0784e-05	7.7156e-06	321.59	84.431	42.386	7.521	1.4254e-05	25.609	0.0034324	0.0036636	0.0010146	929.67	3.9417e-05	3.9652e-05	1069.7	217.2	3.9944e-05	4.0409e-05	346.95	93.575	53.797	11.873	4.0452e-05	30.256	22.455	-114.245	26.314	-144.440	-25.737	24.033	-144.474	-139.806	6.429	-132.443	-140.380	-135.669	-135.476	-130.043	8.602	-130.665	-8191	255	
16833.836	1	1	0	0	0.23515	0.1683	0.22521	0.078399	0.1143	0.19606	0.3482	0.20346	0.095077	0.1523	0.05905	0.40388	0.23389	0.15174	0.11532	0.18755	-1.4438	-1.0708	-1.775	-1.7229	-1.0146	-1.7667	-1.4042	-1.3708	-1.7167	-1.1604	-1.9312	-1.9	-0.97292	-1.925	-1.2875	-1.2958	-107.197	-133.702	-53.892	-62.148	22.187	-23.890	182.130	170.898	-17.507	171.588	-59.390	124.553	124.490	188.919	98.343	-122.082	0.0010506	0.00095969	0.00021406	906.05	5.8449e-06	1.476e-05	1059.7	208.07	3.2428e-05	1.0141e-05	319.79	84.356	42.152	7.5817	1.3497e-05	25.307	0.0034963	0.0037351	0.0010357	932.97	4.0409e-05	4.0567e-05	1067.4	216.77	4.0163e-05	4.0612e-05	346.52	93.25	53.495	11.703	4.0022e-05	30.122	24.511	-68.316	-75.320	-144.589	31.878	-79.631	-144.458	-140.180	-39.019	-146.332	-140.251	-135.483	-135.952	-131.674	49.446	-131.044	-8191	255	
16833.932	1	1	0	0	0.063972	0.2808	0.069773	0.099975	0.22579	0.1153	0.12932	0.12826	0.098941	0.37693	0.25598	0.039586	0.21129	0.17558	0.23417	0.10632	-1.2958	-1.1146	-1.6063	-1.8354	-1.1354	-1.9271	-1.6125	-1.2521	-1.8438	-1.1187	-1.5708	-1.8458	-1.0938	-1.7812	-1.4438	-1.2062	117.931	169.153	-106.005	183.311	163.855	-128.128	136.890	65.998	-91.092	177.783	82.489	200.013	68.910	147.909	6.031	18.662	0.00043057	0.00046563	0.00013121	896.9	5.7688e-06	2.1521e-05	1059.8	204.84	1.4603e-05	1.5677e-05	317.62	85.125	41.73	7.4672	2.3663e-05	25.606	0.0034312	0.0036471	0.0010201	921.94	3.9827e-05	4.0084e-05	1061.5	214	3.9428e-05	4.0149e-05	346.04	93.635	53.398	11.705	3.996e-05	30.43	11.927	-15.320	6.758	-144.750	-4.104	180.646	-144.385	-139.946	40.923	-70.686	-139.886	-135.323	-135.194	-130.459	4.058	-130.833	-8191	255	
16834.027	1	1	0	0	0.10382	0.088834	0.30294	0.20452	0.1528	0.27126	0.20413	0.059265	0.096058	0.26081	0.23681	0.31382	0.12861	0.070253	0.1445	0.24869	-1.5625	-1.2229	-1.2771	-2.0708	-0.92083	-1.6625	-1.6271	-1.0417	-1.9417	-1.3729	-1.4125	-1.9688	-1.0146	-1.7583	-1.6333	-1.2812	-111.392	-63.147	149.064	112.675	-151.354	121.651	114.187	-2.668	-53.884	165.930	36.836	123.528	-75.643	-119.075	-139.197	103.320	0.0010147	0.00049652	0.00014106	893.56	2.1911e-05	3.6564e-06	1057.2	202.22	6.595e-06	2.1619e-05	319.75	84.825	41.769	7.5052	6.1871e-06	26.009	0.003422	0.003735	0.0010309	919.24	3.9993e-05	4.0203e-05	1058.8	212.68	3.9334e-05	4.0474e-05	345.58	93.784	53.098	11.683	3.9666e-05	30.439	6.548	-138.503	32.228	-144.457	-103.597	83.971	-144.717	-140.373	77.502	-61.500	-140.206	-135.945	-135.654	-130.796	55.214	-130.751	-8191	255	
16834.123	1	1	0	0	0.14389	0.056229	0.050437	0.29231	0.3137	0.38672	0.41525	0.36849	0.10892	0.25431	0.22525	0.025544	0.14156	0.093477	0.10487	0.32973	-1.6042	-1.1562	-1.3104	-2.1167	-1.0521	-1.5333	-1.8104	-1.1708	-1.8563	-1.3687	-1.2458	-2.0583	-1.1958	-1.6271	-1.6375	-0.96875	61.154	82.244	174.468	160.158	-103.906	7.191	110.487	60.128	-74.648	80.289	147.879	116.639	62.452	-82.073	122.693	-130.380	0.00083473	0.00026268	0.00041757	889.64	1.7735e-05	1.2105e-05	1054.2	203.33	1.3071e-05	4.2963e-06	316.34	84.997	42.11	7.4759	3.2068e-06	25.778	0.0033826	0.0036525	0.0010172	914.78	3.9404e-05	4.0062e-05	1056.1	211.89	3.8836e-05	4.0274e-05	344.14	93.665	53.042	11.647	3.8942e-05	30.373	66.957	197.729	-99.440	-144.108	35.994	-105.499	-144.921	-140.166	-28.695	49.128	-139.725	-135.710	-135.565	-130.626	-155.244	-130.946	-8191	255	
16834.244	1	1	0	0	0.20424	0.19297	0.14632	0.16763	0.14638	0.060788	0.24859	0.24432	0.33369	0.32538	0.26673	0.11941	0.25728	0.2345	0.20549	0.3519	-1.45	-1.5271	-1.2	-2.2167	-1.0896	-1.5521	-2.2271	-1.0417	-1.7771	-1.8042	-1.3396	-2.0604	-1.1583	-1.3854	-1.8208	-0.97292	-121.661	41.729	-21.825	-12.544	157.950	-142.711	141.418	176.824	89.730	91.050	199.115	60.532	32.316	-151.318	102.462	201.245	0.00034952	0.0011093	6.2656e-05	891.67	1.1101e-05	1.0846e-05	1053.2	203.82	7.0273e-06	1.6419e-05	315.32	86.086	42.278	7.6276	1.7673e-05	26.028	0.003295	0.0035825	0.00099642	911.88	3.8968e-05	3.9013e-05	1053.8	211.76	3.8208e-05	3.9398e-05	342.71	93.91	52.848	11.616	3.8796e-05	30.274	-33.721	132.618	-33.091	-144.346	82.535	121.753	-144.623	-139.913	-22.232	-58.036	-140.078	-135.615	-135.556	-131.494	-63.312	-130.482	-8191	255	
16834.340	1	1	0	0	0.20732	0.25969	0.33322	0.12331	0.16379	0.14424	0.3901	0.16545	0.11885	0.14795	0.31073	0.23011	0.16798	0.16104	0.16237	0.45543	-1.5021	-1.6521	-1.0396	-2.0479	-1.275	-1.4125	-2.1688	-1.0375	-1.6021	-1.7875	-1.1562	-1.9521	-1.4521	-1.3875	-1.7979	-0.9625	139.412	-28.466	-43.352	79.491	58.348	149.979	140.839	191.915	101.148	131.427	96.790	-131.508	-5.479	-87.740	85.539	193.662	0.00015864	0.0014802	5.1812e-05	893.59	9.0434e-06	3.4169e-06	1061.4	206.01	1.2684e-05	1.5234e-05	318.76	85.928	42.646	7.5826	1.8437e-05	26.039	0.0032843	0.003558	0.00097831	915.73	3.8211e-05	3.8733e-05	1059.7	213.16	3.7916e-05	3.8297e-05	344.92	93.621	53.225	11.551	3.7914e-05	30.251	-1.450	-103.706	-67.291	-144.470	168.167	-36.255	-144.374	-139.798	-126.056	-84.463	-139.995	-135.579	-135.837	-129.622	-116.843	-131.142	-8191	255	
16834.436	1	1	0	0	0.083801	0.4028	0.092533	0.34764	0.2097	0.11984	0.026525	0.050019	0.081113	0.18444	0.26601	0.056785	0.11458	0.067704	0.16681	0.17613	-1.175	-1.6313	-1.1792	-1.9208	-1.3542	-1.1542	-2.1792	-1.2812	-1.5521	-1.7938	-1.0958	-1.8271	-1.2896	-1.0667	-1.9771	-1.15	-129.899	19.812	77.527	170.936	-35.230	-99.322	158.342	198.577	-98.334	-16.653	123.603	94.954	-116.961	-36.983	195.564	135.856	0.0006185	0.0011828	0.0001215	899.24	1.3063e-05	9.5977e-06	1064.5	206.38	1.3552e-05	4.0748e-06	316.48	85.614	42.283	7.6617	1.3917e-05	25.707	0.0032525	0.0035034	0.00097511	916.04	3.785e-05	3.8113e-05	1058.6	213.48	3.7091e-05	3.7998e-05	342.35	93.09	52.679	11.522	3.7068e-05	29.936	56.268	-138.629	-115.250	-144.573	-27.599	10.559	-144.761	-139.858	4.208	3.317	-139.874	-135.189	-135.964	-129.957	44.695	-130.561	-8191	255	
16834.531	1	1	0	0	0.05065	0.12952	0.068837	0.13077	0.070042	0.26366	0.032721	0.059671	0.18708	0.22995	0.20358	0.32369	0.0609	0.37588	0.078354	0.15715	-1.1792	-1.7083	-1.05	-1.9479	-1.5438	-1.2479	-2.025	-1.3417	-1.4625	-1.8896	-1.0896	-1.7271	-1.725	-1.3167	-1.9438	-1.4604	-119.223	-44.769	-61.867	149.797	-157.088	29.761	30.437	172.136	70.606	42.969	150.808	158.423	161.168	-44.072	-78.918	-82.643	0.00057759	0.0010546	0.0003832	892.41	2.3628e-05	1.2699e-05	1063.7	206.03	2.231e-05	5.5003e-06	319.13	85.901	42.265	7.5253	1.4922e-05	25.93	0.0031571	0.0034131	0.00094717	911.23	3.6765e-05	3.7223e-05	1054.2	212.03	3.6007e-05	3.6762e-05	340.83	92.636	51.986	11.318	3.5618e-05	29.676	-17.547	-18.382	112.644	-144.216	17.603	-151.941	-144.363	-140.181	38.677	141.543	-139.945	-135.841	-135.550	-130.425	35.808	-131.237	-8191	255	
16834.604	1	1	0	0	0.27668	0.40581	0.02446	0.26024	0.13339	0.31344	0.27511	0.29208	0.065648	0.10912	0.1514	0.075496	0.082906	0.048978	0.11152	0.032658	-1.0208	-1.9813	-1.1542	-1.8937	-1.7771	-1.0354	-2.0854	-1.6583	-1.1333	-1.8542	-1.2354	-1.6854	-1.7917	-1.025	-1.9438	-1.4375	-119.226	69.764	-146.044	-94.074	126.962	90.249	61.497	121.922	44.344	-41.979	118.631	194.096	-62.992	-34.858	31.177	-61.027	0.00032953	0.00059049	0.00040008	898.31	1.1254e-05	7.0195e-06	1061.9	206.46	7.6489e-06	6.1795e-06	319.81	85.634	42.549	7.4573	7.0238e-06	25.923	0.0030581	0.0032992	0.00091904	908.53	3.6032e-05	3.6553e-05	1055.4	212.41	3.5536e-05	3.66e-05	340.93	92.962	52.163	11.35	3.5499e-05	29.883	-115.842	-16.267	-55.328	-144.441	-94.642	132.163	-144.404	-140.071	-11.867	153.915	-139.922	-135.634	-135.069	-130.104	-28.414	-130.979	-8191	255	
16834.723	1	1	0	0	0.10058	0.15505	0.06759	0.29911	0.34666	0.20359	0.29546	0.15454	0.053045	0.15973	0.23137	0.21138	0.040951	0.3066	0.10425	0.17422	-0.7125	-2.0667	-1.2021	-1.5854	-1.6313	-1.0625	-1.95	-1.7146	-1.125	-1.9104	-1.3125	-1.6167	-1.8813	-1.1562	-1.7208	-1.375	-66.732	129.687	14.123	116.745	128.356	186.534	125.024	-90.045	-155.401	156.441	-153.948	-104.459	147.399	126.814	150.254	81.527	0.00029751	0.0004092	0.00016554	885.81	1.5167e-05	8.2263e-06	1063.1	204.21	1.7898e-05	1.6023e-05	319.9	86.381	42.226	7.6966	1.1386e-05	26.174	0.0031117	0.0033056	0.00091485	906.31	3.6288e-05	3.6536e-05	1054.2	211.66	3.5e-05	3.5736e-05	340.68	93.118	52.053	11.315	3.4759e-05	29.842	69.341	-19.164	-15.315	-144.364	-132.261	101.681	-144.295	-140.293	29.318	-35.338	-140.552	-135.667	-135.757	-130.328	-47.645	-130.522	-8191	255	
16834.818	1	1	0	0	0.16291	0.17648	0.1124	0.08302	0.14569	0.151	0.2047	0.2407	0.14665	0.32346	0.11513	0.18656	0.08882	0.12953	0.074074	0.11047	-0.71458	-2.0292	-1.2583	-1.4917	-1.8021	-1.1792	-1.8937	-1.6021	-0.9875	-1.9375	-1.3667	-1.4833	-1.9125	-1.2083	-1.5312	-1.7167	-26.108	-85.008	-7.589	-81.622	13.054	-38.732	151.397	138.920	-25.084	178.889	-130.190	126.647	197.646	-61.753	-111.324	37.691	0.00093231	0.0011996	0.00027248	899	1.1843e-05	1.3766e-05	1062.8	208.74	1.0054e-05	2.5118e-05	319.97	85.686	42.931	7.6941	1e-05	25.674	0.0030399	0.0031977	0.0009024	910.75	3.4961e-05	3.5109e-05	1055.4	213.78	3.4187e-05	3.4413e-05	339.49	92.241	51.945	11.18	3.4097e-05	29.448	0.819	-54.716	-112.037	-144.468	114.589	36.497	-144.494	-140.071	174.125	4.865	-140.325	-135.543	-136.323	-129.775	-81.525	-130.868	-8191	255	
16834.918	1	1	0	0	0.21001	0.12884	0.17361	0.15816	0.04496	0.28239	0.038164	0.23992	0.095652	0.062768	0.51674	0.2842	0.11759	0.17779	0.24819	0.19896	-0.89167	-1.8792	-1.3396	-1.5083	-1.8979	-1.0958	-1.6437	-2.0667	-1.1583	-1.8896	-1.4583	-1.4188	-2.1542	-1.0438	-1.4375	-1.9125	139.250	101.290	-47.299	-145.609	5.663	152.570	102.675	139.018	135.219	201.837	-122.086	-130.732	51.190	141.003	193.181	62.399	0.00084071	0.0013651	7.5477e-05	903.26	8.7948e-06	1.3516e-05	1071.7	208.52	7.6377e-06	1.5338e-05	322.48	85.695	42.362	7.5332	1.1052e-05	25.499	0.002931	0.0031182	0.00087063	912.87	3.4236e-05	3.4298e-05	1054.6	213.5	3.3955e-05	3.4542e-05	340.46	91.838	51.59	11.08	3.3314e-05	29.153	30.690	177.195	-126.697	-144.345	-64.489	-70.381	-144.385	-140.005	62.388	-121.442	-140.275	-135.681	-135.084	-130.642	72.572	-131.009	-8191	255	
16835.035	1	1	0	0	0.078835	0.18797	0.1272	0.09048	0.20757	0.46322	0.24148	0.40688	0.27882	0.080297	0.16426	0.11695	0.084596	0.092668	0.21181	0.064983	-0.50833	-1.7729	-1.5	-1.3521	-1.9312	-1.3937	-1.9708	-1.7625	-0.84583	-1.7917	-1.7083	-1.1896	-1.9562	-1.0125	-1.3646	-2	189.675	-77.994	2.210	-94.776	-149.169	-121.431	140.343	174.333	-94.600	24.512	139.451	-15.885	57.264	51.334	125.187	110.592	0.000878	0.00065422	0.00043829	902.35	1.057e-05	1.1554e-05	1068.2	207.2	3.0263e-05	5.762e-06	317.45	85.925	41.994	7.5126	1.8942e-05	25.737	0.0028755	0.0030617	0.00086481	910.38	3.3808e-05	3.4073e-05	1050	212.46	3.3363e-05	3.4318e-05	338.09	91.987	51.407	11.047	3.387e-05	29.282	48.333	135.293	-84.060	-144.182	-74.651	-46.244	-144.792	-140.524	-36.644	102.766	-140.506	-135.533	-135.297	-129.836	146.443	-131.096	-8191	255	
16835.133	1	1	0	0	0.051997	0.077445	0.089338	0.3876	0.19646	0.18402	0.48994	0.23663	0.24689	0.23623	0.07923	0.28042	0.26718	0.047862	0.38273	0.31413	-0.91875	-1.8021	-1.6063	-1.0729	-1.8375	-1.2687	-1.425	-1.9771	-1.0854	-1.7521	-1.8271	-1.1521	-1.8125	-1.375	-1.0562	-2.0062	-146.497	-1.110	10.793	-144.194	-101.374	135.964	142.396	108.312	134.989	-135.988	-90.221	127.371	-137.754	137.028	190.815	81.479	0.00043979	0.00069842	0.00037432	903.43	6.3612e-06	1.827e-05	1068.3	207.28	1.3846e-05	5.1188e-06	321.47	86.579	42.151	7.5848	1.4264e-05	26.11	0.0028962	0.0031341	0.00087358	909.14	3.397e-05	3.4184e-05	1052.4	212.35	3.3316e-05	3.4096e-05	339.43	92.429	51.433	11.06	3.4075e-05	29.639	-14.966	200.762	156.896	-144.272	-15.745	7.822	-144.525	-139.995	121.104	15.901	-140.348	-135.768	-135.781	-130.670	-43.443	-130.357	-8191	255	
16835.203	1	1	0	0	0.061144	0.044991	0.23056	0.23089	0.18923	0.060929	0.055836	0.064568	0.061022	0.15767	0.14471	0.20661	0.17179	0.21322	0.053808	0.092178	-0.71875	-1.7667	-1.7563	-1.3417	-1.7313	-1.4083	-1.2854	-1.9417	-1.0333	-1.4479	-1.8521	-1.2062	-1.9458	-1.5	-1.1042	-1.8854	-137.839	163.642	-117.015	174.122	-128.254	-40.020	167.754	85.206	-57.667	-132.497	159.880	-56.762	74.792	15.765	-5.121	-115.800	0.0009442	0.0003942	0.00036834	900.02	5.7421e-06	7.2181e-06	1056.9	204.83	1.7123e-05	1.215e-05	320.9	85.961	42.066	7.6356	3.3574e-06	26.033	0.0029044	0.0030839	0.00087192	906.88	3.3509e-05	3.4533e-05	1049.2	210.74	3.3643e-05	3.4193e-05	338.85	92.598	51.551	11.081	3.4043e-05	29.566	16.171	76.920	-5.173	-144.432	-65.866	-136.185	-144.583	-140.316	72.168	174.290	-140.456	-135.816	-135.489	-130.767	115.397	-131.080	-8191	255	
16835.324	1	1	0	0	0.064716	0.13791	0.12936	0.17891	0.20211	0.17544	0.25221	0.27442	0.15007	0.16482	0.24978	0.16766	0.18464	0.29068	0.28678	0.20471	-0.84375	-1.4396	-1.9188	-1.2104	-1.9208	-1.4667	-1.3333	-2.0479	-1.2125	-1.4604	-1.9875	-1.0146	-1.7875	-1.4875	-0.98958	-2.0146	136.495	-36.548	-153.821	154.699	-133.243	-158.053	107.820	112.110	46.518	48.327	67.321	160.657	153.237	36.925	-61.651	82.844	0.00086758	0.00024213	0.00016794	891.71	1.0102e-05	1.6755e-05	1057.2	205.86	1.0346e-05	1.2403e-05	320.99	86.05	42.803	7.5394	6.5414e-06	25.727	0.0029058	0.0031098	0.00087544	902.47	3.3282e-05	3.4404e-05	1045.7	211.56	3.3316e-05	3.3707e-05	337.08	91.799	51.451	10.955	3.293e-05	29.146	-8.283	-43.844	-152.160	-144.205	-101.696	-71.237	-144.661	-140.166	101.327	29.394	-140.688	-134.776	-135.657	-131.052	-18.724	-130.633	-8191	255	
16835.420	1	1	0	0	0.060362	0.079125	0.064265	0.44803	0.033156	0.18606	0.077689	0.2798	0.15228	0.15815	0.19583	0.27725	0.088082	0.18581	0.080054	0.17363	-0.74792	-1.2417	-1.9375	-1.1375	-1.6333	-1.6417	-1.3979	-1.8917	-1.3167	-1.2854	-2.1333	-1.1396	-1.4708	-1.8042	-1.1187	-1.875	85.458	6.425	74.097	195.408	-34.821	6.146	-104.247	25.927	109.840	-27.828	-144.746	-151.588	186.014	92.055	-130.727	-68.491	0.00030587	0.00089643	0.000154	904.35	1.6252e-05	1.1323e-05	1057.2	208.15	9.6273e-06	1.7595e-05	319.9	86.398	42.364	7.5607	5.2694e-06	25.438	0.0027996	0.003004	0.00083863	906.61	3.2568e-05	3.3178e-05	1045.1	212.73	3.2638e-05	3.3311e-05	337.75	91.864	51.193	10.977	3.3168e-05	29.002	-41.589	-5.047	12.339	-144.608	5.448	-105.430	-144.493	-140.119	-127.520	45.427	-140.915	-135.721	-135.739	-131.248	130.880	-130.997	-8191	255	
16835.516	1	1	0	0	0.10169	0.074322	0.29677	0.23271	0.11513	0.14922	0.31373	0.13723	0.19767	0.40925	0.23121	0.097314	0.20329	0.28498	0.24665	0.069636	-0.99375	-1.3375	-1.9333	-1.3583	-1.5625	-1.8479	-1.3583	-1.9292	-1.4979	-1.1625	-2.175	-1.25	-1.4625	-1.7979	-0.99583	-1.7292	-4.677	-33.202	110.840	184.728	-36.755	-132.168	122.439	-151.415	-46.801	-140.225	87.966	76.316	188.322	172.935	-145.854	1.117	0.00074689	0.00057944	0.00044594	899.47	2.4366e-05	1.924e-05	1061.4	207.47	8.305e-06	2.485e-05	323.53	86.109	42.885	7.675	2.064e-05	25.854	0.0028125	0.0030526	0.00083899	904.6	3.2333e-05	3.3326e-05	1045.3	211.28	3.2469e-05	3.3129e-05	337.19	91.67	51.26	10.962	3.2551e-05	29.243	24.914	-114.292	-122.176	-144.637	12.971	17.696	-144.709	-139.916	137.743	23.302	-140.269	-135.638	-135.291	-131.473	-60.187	-131.018	-8191	255	
16835.637	1	1	0	0	0.27072	0.23233	0.13666	0.31247	0.30961	0.21094	0.043445	0.15521	0.2382	0.14608	0.25899	0.10563	0.26127	0.29523	0.17303	0.3267	-1.1625	-1.1917	-1.9771	-1.3188	-1.5208	-1.9312	-1.2042	-1.7188	-1.7313	-1.1646	-1.9729	-1.3354	-1.0938	-1.8979	-1.2896	-1.6917	154.721	-88.582	113.509	-126.240	3.460	166.964	167.747	94.269	157.657	-112.053	142.221	130.812	-133.759	-40.591	35.377	134.479	0.00072995	0.0010573	0.00016946	893.87	2.0416e-05	2.1015e-05	1057.4	210.2	1.0798e-05	1.4553e-05	319.99	85.597	43.103	7.7008	7.3526e-06	25.703	0.0028311	0.0029926	0.00082969	903.8	3.261e-05	3.3124e-05	1045.7	211.9	3.1939e-05	3.2592e-05	336.16	91.184	51.169	10.952	3.1929e-05	28.874	11.252	-78.051	124.678	-144.579	-53.116	-44.973	-144.961	-139.930	-91.633	167.713	-140.593	-135.247	-136.136	-130.332	-137.516	-130.199	-8191	255	
16835.730	1	1	0	0	0.1347	0.076562	0.25175	0.25972	0.14869	0.18435	0.10029	0.1754	0.081963	0.28395	0.28318	0.23205	0.1891	0.10271	0.26089	0.16808	-1.4458	-1.0979	-1.8854	-1.5979	-1.3229	-1.9396	-1.2896	-1.7437	-1.7979	-1.0063	-1.8979	-1.5833	-1.2	-2.1292	-1.2667	-1.5979	78.154	37.057	167.431	166.250	59.014	169.591	170.485	171.157	25.642	60.652	112.229	148.570	-105.620	-53.756	193.629	186.543	0.00097173	0.00053916	0.00037386	900.13	1.5582e-05	3.0379e-05	1057.2	208.49	6.7518e-06	8.5232e-06	316.62	85.991	42.712	7.5521	1.5636e-05	25.672	0.0027703	0.002957	0.00081406	903.07	3.2263e-05	3.2509e-05	1041.9	211.99	3.229e-05	3.2934e-05	335.24	91.278	51.194	10.912	3.2044e-05	28.976	44.364	-89.395	95.107	-144.682	-85.720	165.763	-144.913	-140.341	-36.018	-151.260	-140.269	-135.514	-135.343	-130.100	-1.952	-131.119	-8191	255	
16835.826	1	1	0	0	0.19389	0.15464	0.047619	0.10625	0.14793	0.13401	0.33643	0.34254	0.12341	0.090962	0.25527	0.10705	0.14213	0.14286	0.085478	0.17697	-1.525	-0.99792	-1.9292	-1.7583	-1.1437	-1.9542	-1.4792	-1.5271	-1.6792	-0.98542	-1.7938	-1.8438	-1.1938	-1.9167	-1.4021	-1.3667	-50.586	59.576	-95.291	128.319	59.837	-7.324	-157.081	114.081	36.107	-95.411	-100.393	130.123	165.415	170.556	-101.827	35.971	0.00093474	0.001559	0.00034428	896.6	4.692e-06	1.4495e-05	1058.2	205.88	1.0932e-05	6.7435e-06	319.28	86.058	42.306	7.4673	2.1447e-05	25.599	0.0027942	0.0029627	0.00081722	900.22	3.2216e-05	3.2303e-05	1041.5	210.35	3.1788e-05	3.2339e-05	335.47	91.201	50.925	10.8	3.1727e-05	28.88	45.829	-44.476	-38.775	-144.824	-40.462	-22.736	-144.931	-139.987	66.735	150.758	-140.725	-135.705	-135.907	-130.650	172.710	-131.018	-8191	255	
16835.898	1	1	0	0	0.10243	0.32521	0.10068	0.31058	0.14889	0.21769	0.15391	0.14243	0.091025	0.03493	0.39893	0.17568	0.14762	0.19821	0.16616	0.13184	-1.4417	-1.3354	-1.8062	-1.7854	-1.1229	-1.8563	-1.5125	-1.4396	-1.9729	-1.0917	-1.8646	-1.7479	-1.225	-2.0125	-1.6063	-1.4937	138.360	144.756	112.793	163.846	-7.920	145.996	188.517	-134.985	168.445	-136.194	126.508	-106.596	4.829	118.569	-9.243	67.487	0.00084555	0.00031664	0.00014488	898.42	2.2487e-05	6.3463e-06	1059.2	207.8	6.6046e-06	7.7012e-06	321.72	85.248	42.389	7.5157	1.7804e-05	25.433	0.0027451	0.0029168	0.00081443	904.45	3.1865e-05	3.2121e-05	1044.2	212.52	3.2038e-05	3.2589e-05	337.39	91.478	50.987	10.879	3.2413e-05	28.808	43.836	123.449	65.787	-144.741	-20.470	3.695	-144.915	-140.358	146.349	-80.186	-139.938	-135.859	-135.623	-131.927	-35.580	-131.154	-8191	255	
16836.020	1	1	0	0	0.11774	0.23948	0.23462	0.24231	0.21167	0.26729	0.13544	0.18726	0.11613	0.15244	0.24896	0.18767	0.040735	0.05093	0.18111	0.20625	-1.4208	-1.0438	-1.5604	-1.8708	-1.0375	-2.0208	-1.6187	-1.3625	-2	-1.1229	-1.4	-1.9042	-1.2125	-1.7833	-1.5083	-1.1708	74.874	39.254	-69.114	-145.677	-152.774	-0.887	172.091	192.311	-136.888	-117.782	191.431	112.011	179.951	63.993	177.176	-100.038	0.0010524	0.0011715	0.00031097	901.12	5.2356e-06	7.3454e-06	1058.2	209.65	1.1804e-05	1.1179e-05	317.09	85.132	42.656	7.4701	6.5423e-06	24.904	0.0027711	0.002954	0.00081914	905.64	3.2047e-05	3.2102e-05	1043.1	212.54	3.1471e-05	3.1956e-05	333.81	90.423	50.707	10.71	3.1831e-05	28.372	22.275	-56.674	3.974	-144.633	-132.497	113.545	-144.850	-140.004	144.404	-126.679	-140.195	-135.623	-135.906	-130.923	-61.150	-130.939	-8191	255	
16836.115	1	1	0	0	0.1488	0.1446	0.35683	0.069212	0.051869	0.037216	0.3764	0.215	0.082303	0.16085	0.065804	0.27012	0.14572	0.057815	0.091461	0.25697	-1.6458	-1.1875	-1.4813	-1.8896	-1.1708	-1.8333	-1.8292	-1.0271	-1.8479	-1.2833	-1.2271	-1.9417	-1.1479	-1.5938	-1.8	-1.2021	107.520	-44.175	-90.643	50.430	25.937	-41.050	123.067	149.444	158.128	-136.657	-118.839	135.966	184.493	124.072	-34.361	133.873	0.00079481	7.7338e-05	0.00013161	895.22	2.3691e-05	1.7278e-05	1057.6	208.15	1.0324e-05	4.4106e-06	317.4	85.38	42.654	7.5991	1.2845e-05	25.151	0.0026902	0.0029061	0.0008072	902.12	3.1796e-05	3.1907e-05	1040.5	211.47	3.1246e-05	3.1689e-05	332.74	90.295	50.599	10.719	3.1937e-05	28.472	8.111	-57.384	174.637	-144.149	-15.056	25.028	-145.076	-140.404	-55.452	68.322	-140.181	-135.684	-136.278	-131.367	10.041	-131.038	-8191	255	
16836.213	1	1	0	0	0.14719	0.11243	0.19504	0.24966	0.043273	0.025467	0.26631	0.13684	0.13113	0.37455	0.20912	0.098694	0.058839	0.049595	0.25218	0.020861	-1.4604	-1.3188	-1.3479	-1.9771	-1.0167	-1.7062	-2.1417	-1.3292	-1.9521	-1.3958	-1.2917	-2.0917	-1.2104	-1.5958	-1.6729	-1.1313	136.830	-27.173	142.210	130.143	-115.553	-61.881	113.421	-156.512	-11.457	55.028	-144.318	-13.085	6.797	95.120	-133.621	-132.204	0.00055947	0.00051101	0.00028309	904.16	9.6678e-06	1.0454e-05	1052.3	207.37	5.0837e-06	1.4565e-06	317.24	84.349	42.156	7.43	2.2208e-06	24.866	0.0027266	0.0029431	0.00081797	905.65	3.1905e-05	3.2018e-05	1040	211.4	3.1361e-05	3.2285e-05	334.37	90.021	50.784	10.726	3.1968e-05	28.362	-32.467	143.855	41.283	-144.629	52.303	-96.376	-145.295	-140.749	-131.744	-58.123	-140.631	-135.419	-135.636	-131.564	155.985	-130.686	-8191	255	
16836.309	1	1	0	0	0.2416	0.34653	0.25907	0.19011	0.23477	0.058773	0.067193	0.16931	0.13537	0.22831	0.28882	0.17473	0.27823	0.10902	0.24802	0.050617	-1.6646	-1.5417	-1.2208	-2.0583	-1.3021	-1.4292	-2.175	-1.2021	-1.8	-1.5167	-1.3729	-2.0563	-1.3042	-1.5396	-1.9312	-0.97917	4.198	88.663	-120.890	193.683	84.147	123.615	18.358	148.122	16.340	-53.576	-146.973	-114.117	169.085	131.443	-141.036	-4.679	0.00083523	0.00068441	0.00015281	896.48	7.5407e-06	8.1007e-06	1056.2	208.51	9.5179e-06	1.7631e-05	318.02	84.844	41.8	7.3789	1.1268e-05	25.043	0.0027074	0.0029244	0.00081719	901.79	3.1601e-05	3.2125e-05	1041.7	211.14	3.1041e-05	3.2024e-05	333.93	90.24	50.493	10.686	3.2278e-05	28.54	47.144	-112.430	-61.479	-144.542	21.422	4.765	-144.922	-140.427	26.227	21.061	-140.477	-135.647	-135.555	-131.333	189.099	-131.445	-8191	255	
16836.430	1	1	0	0	0.098924	0.18177	0.18456	0.23353	0.048284	0.27826	0.33668	0.25139	0.27966	0.2275	0.34712	0.0040991	0.33822	0.27674	0.2898	0.23372	-1.4479	-1.8375	-1.1021	-2.0604	-1.4	-1.5146	-2.1229	-1.3188	-1.7812	-1.7771	-1.2958	-2.0354	-1.4292	-1.2687	-1.8312	-1.1083	47.031	132.970	135.928	80.068	148.138	60.960	112.786	140.791	120.977	111.002	162.233	-93.457	108.641	-122.546	66.646	-129.926	0.00099998	0.00015979	0.00018273	894.45	3.9798e-06	1.1815e-05	1054.2	205.76	4.4101e-06	3.0113e-06	316.07	84.636	42.08	7.4809	1.2298e-05	24.999	0.0027618	0.0029872	0.00083822	901.91	3.2406e-05	3.2654e-05	1037.4	210.39	3.1826e-05	3.2482e-05	333.42	90.152	50.483	10.751	3.2204e-05	28.31	-12.579	39.546	-35.983	-144.578	127.017	-82.978	-144.743	-140.642	-43.807	106.317	-140.294	-135.805	-136.021	-130.364	125.770	-131.230	-8191	255	
16836.500	1	1	0	0	0.074568	0.23169	0.35628	0.23965	0.24628	0.16827	0.2769	0.39342	0.24558	0.092893	0.13732	0.23752	0.33736	0.041028	0.097197	0.13704	-1.2437	-1.7375	-1.0187	-1.8979	-1.2917	-1.1521	-2.0938	-1.2229	-1.6562	-1.8729	-1.1875	-1.7708	-1.4854	-1.0833	-1.9625	-1.2062	-74.705	85.067	57.774	145.955	-57.953	-68.456	110.169	118.150	-24.537	-94.243	-74.539	119.058	-141.968	167.870	-98.788	143.019	0.00074506	0.00049517	0.00011678	904.85	3.4579e-06	1.724e-05	1051	207.02	1.1701e-05	1.9025e-05	317.82	84.628	42.171	7.3976	4.2316e-06	24.652	0.0027181	0.0029713	0.00082619	904.13	3.2321e-05	3.2372e-05	1035.1	211.31	3.1924e-05	3.3022e-05	333.03	89.902	50.483	10.677	3.1653e-05	28.155	34.561	-73.996	-107.772	-144.612	-50.417	-16.167	-144.592	-140.230	121.789	144.981	-140.162	-136.221	-135.762	-129.814	-106.876	-130.411	-8191	255	
16836.598	1	1	0	0	0.11477	0.22241	0.11441	0.17765	0.20343	0.078981	0.29608	0.10799	0.11712	0.17228	0.25227	0.18271	0.12391	0.11661	0.14523	0.15922	-1.4479	-1.8833	-1.1229	-1.7	-1.4562	-1.1833	-2.0563	-1.3479	-1.2917	-1.8208	-1.1167	-1.6979	-1.7458	-1.0812	-2.125	-1.3521	-97.528	-141.336	-122.973	100.603	4.727	18.465	144.633	113.407	-83.028	90.089	152.638	186.367	-74.568	-131.356	106.291	-43.426	0.00081962	0.00041378	0.00010323	888.69	6.4913e-06	5.4909e-06	1051.8	204.52	2.1922e-05	2.1636e-05	312.36	84.256	41.679	7.3664	1.3624e-05	25.16	0.0027144	0.0029486	0.00081626	895.85	3.232e-05	3.2327e-05	1032.8	208.72	3.1635e-05	3.2076e-05	331.27	89.896	50.002	10.611	3.1035e-05	28.297	0.660	-133.360	-121.341	-144.412	137.036	-36.883	-144.727	-140.560	-1.431	22.591	-140.378	-135.266	-135.873	-129.576	138.689	-131.095	-8191	255	
16836.717	1	1	0	0	0.32056	0.079168	0.069115	0.25839	0.067808	0.096882	0.13542	0.30021	0.081381	0.19121	0.12319	0.33725	0.10908	0.20196	0.36193	0.16483	-0.92083	-1.7687	-0.84167	-1.7771	-1.6625	-1.1333	-1.8771	-1.2833	-1.2146	-1.9375	-1.2104	-1.5396	-1.8	-1.025	-1.6646	-1.425	97.005	132.694	-85.470	150.902	102.410	110.145	136.692	145.532	106.614	113.900	-74.804	130.828	141.195	192.653	-152.098	164.545	0.00028468	0.00071062	0.00015851	897.32	2.7044e-05	2.8012e-06	1055.3	206.79	8.1409e-06	1.0981e-05	318.65	84.664	41.416	7.5188	2.4626e-05	25.144	0.0026899	0.0028481	0.00079466	893.66	3.1389e-05	3.1351e-05	1033.8	208.96	3.0387e-05	3.1313e-05	331.6	89.805	49.792	10.589	3.0045e-05	28.246	-33.367	107.305	18.427	-144.653	-83.155	11.534	-144.749	-140.530	102.055	98.485	-140.120	-135.576	-136.273	-131.015	176.551	-131.376	-8191	255	
16836.812	1	1	0	0	0.10703	0.15413	0.28505	0.1865	0.1429	0.25376	0.1864	0.45091	0.42273	0.24274	0.14335	0.16851	0.36812	0.20641	0.22289	0.11127	-0.82708	-1.8396	-1.3438	-1.5542	-1.6979	-0.95833	-1.8833	-1.625	-1.2042	-1.9771	-1.3104	-1.5729	-1.7271	-1.025	-1.65	-1.5458	35.507	-92.045	144.904	159.479	-108.396	-42.853	125.913	107.809	139.321	138.246	61.778	131.834	-154.901	175.422	47.594	0.507	0.00013567	0.0004848	0.00025534	890.44	1.3466e-05	1.4921e-05	1048.8	205.73	5.851e-06	4.6512e-06	317.24	85.019	41.965	7.4229	3.7176e-06	24.915	0.002616	0.0027743	0.00077443	892.05	3.0407e-05	3.054e-05	1026.8	207.73	3.0513e-05	3.0163e-05	329.91	89.495	49.62	10.365	2.9271e-05	27.946	23.560	189.824	-108.251	-144.263	16.862	-148.434	-144.384	-140.568	114.546	48.416	-140.450	-135.443	-135.172	-130.973	200.451	-131.260	-8191	255	
16836.908	1	1	0	0	0.25785	0.11352	0.088952	0.20962	0.0031133	0.24949	0.386	0.41612	0.05535	0.015088	0.22339	0.24139	0.31938	0.079612	0.29282	0.21928	-0.80417	-1.7188	-1.3167	-1.2563	-1.8833	-0.86667	-2.075	-1.7521	-1.1271	-1.9771	-1.2021	-1.3875	-1.8771	-1.0479	-1.7188	-1.8021	156.682	-53.083	-100.822	-139.777	-123.283	-130.970	156.536	144.662	-57.002	188.003	-116.737	-7.005	0.430	-110.551	96.755	-24.786	0.00060434	0.00062627	0.00010415	881.3	1.9343e-05	5.2179e-06	1039.5	201.55	1.5839e-05	2.1132e-06	315.45	85.17	41.352	7.4215	7.6939e-06	24.712	0.0025229	0.0026952	0.00075129	880.44	2.9081e-05	2.9368e-05	1018.5	204.49	2.8579e-05	2.8905e-05	326.99	89.008	48.846	10.184	2.81e-05	27.68	-26.666	128.018	-153.443	-144.316	-22.698	18.840	-144.322	-140.309	200.391	183.688	-140.333	-135.665	-136.029	-129.653	-22.597	-131.139	-8191	255	
16837.004	1	1	0	0	0.12242	0.14442	0.037542	0.31782	0.084731	0.29951	0.26914	0.22645	0.16589	0.20537	0.073651	0.37384	0.22938	0.17684	0.076782	0.2272	-0.77083	-1.775	-1.3458	-1.2333	-1.7479	-1.0583	-1.8708	-1.9333	-1.0667	-1.8833	-1.4875	-1.2687	-1.7625	-1.0979	-1.5792	-1.875	-104.754	49.830	73.444	-144.996	-40.785	105.321	136.135	134.225	-28.726	158.474	-153.260	-149.612	96.804	52.415	106.409	125.127	0.00041813	0.0012609	0.00035805	877.3	1.6886e-05	6.8081e-06	1032.4	202.58	9.2435e-07	5.2842e-06	312.18	84.655	41.991	7.3682	2.0533e-05	25.013	0.0024163	0.0025805	0.00072667	874.95	2.8043e-05	2.8461e-05	1013.2	203.84	2.8349e-05	2.862e-05	325.1	89.401	48.878	10.225	2.8608e-05	27.995	-53.457	-64.967	-106.661	-144.186	11.422	42.107	-144.267	-140.535	126.785	-69.032	-140.262	-135.428	-135.779	-130.539	185.445	-131.043	-8191	255	
16837.100	1	1	0	0	0.055773	0.045569	0.1056	0.28054	0.10684	0.076281	0.14383	0.17686	0.055868	0.19466	0.13929	0.12687	0.31208	0.15833	0.18018	0.12687	-0.72083	-1.8583	-1.4688	-1.2083	-1.8687	-1.3	-1.5542	-1.8417	-1.2271	-1.7542	-1.6375	-1.15	-2.0354	-1.2354	-1.4	-1.9813	-114.637	11.145	-72.905	-127.434	-123.526	1.022	131.406	187.611	-74.742	170.167	-33.709	128.423	-12.251	84.788	-117.418	200.051	0.0001745	2.7118e-05	2.3192e-05	871.64	2.6411e-05	4.6432e-06	1035.4	199.78	9.5085e-06	5.0482e-06	311.27	87.167	41.968	7.4156	1.5438e-05	25.368	0.0024973	0.0026734	0.00074556	874.72	2.9055e-05	2.9294e-05	1014.7	202.45	2.8507e-05	2.8876e-05	326.02	90.461	48.7	10.274	2.8461e-05	28.057	26.418	198.672	-9.175	-144.592	43.425	-108.713	-144.795	-140.227	140.805	-37.587	-140.419	-135.412	-135.762	-129.499	180.542	-131.109	-8191	255	
16837.195	1	1	0	0	0.14022	0.16446	0.17577	0.19629	0.14764	0.12374	0.26183	0.30681	0.33201	0.12687	0.20092	0.09332	0.24284	0.1569	0.16098	0.1269	-0.63125	-1.7563	-1.7417	-1.2792	-1.8396	-1.2021	-1.6875	-1.8958	-1.2146	-1.5833	-1.8917	-1.2375	-1.9729	-1.4208	-1.3896	-1.8625	-91.348	141.388	197.045	79.926	69.525	-35.402	135.571	155.093	-130.689	-51.778	163.686	122.177	134.090	-146.304	-124.665	89.452	0.00085324	0.00093437	6.4578e-05	882.21	2.1824e-06	4.7404e-06	1038.7	202.24	2.1565e-06	7.6956e-06	314.26	86.322	42.271	7.3055	4.7659e-06	25.124	0.0024198	0.0025934	0.00073478	877.12	2.777e-05	2.8693e-05	1015	203.57	2.7795e-05	2.8373e-05	324.39	89.895	49.001	10.197	2.8278e-05	27.793	7.863	-108.345	-18.142	-144.549	7.424	3.240	-144.610	-140.145	59.262	-10.077	-140.151	-135.936	-135.751	-130.346	-96.921	-131.125	-8191	255	
16837.316	1	1	0	0	0.11887	0.13416	0.15705	0.20744	0.082022	0.14418	0.33135	0.47159	0.098801	0.22781	0.2928	0.35126	0.23092	0.09559	0.084812	0.11431	-0.59583	-1.6792	-1.5292	-1.0708	-1.9229	-1.4625	-1.3229	-1.925	-1.225	-1.5167	-2.0083	-1.1875	-1.8208	-1.6958	-1.1271	-1.9562	134.589	-43.674	12.495	-97.578	-102.362	93.311	178.569	155.484	93.980	0.278	-152.017	1.632	-100.501	94.890	145.674	147.119	0.00031375	0.0010185	0.00018893	870.35	9.4557e-06	1.8527e-05	1027.5	200.4	1.0498e-05	3.9341e-06	310.67	85.601	41.426	7.4134	8.531e-06	25.066	0.002427	0.0025743	0.00072125	868.51	2.7627e-05	2.8208e-05	1006.4	201.63	2.7687e-05	2.7899e-05	323.5	89.182	48.597	10.143	2.7586e-05	27.684	44.084	-5.682	189.640	-144.144	-15.691	170.315	-144.517	-140.214	123.251	40.943	-139.949	-135.483	-135.115	-130.500	121.618	-130.954	-8191	255	
16837.412	1	1	0	0	0.33318	0.30596	0.20871	0.24811	0.1953	0.21846	0.25531	0.30567	0.20778	0.11429	0.34379	0.3162	0.1062	0.16051	0.077	0.10205	-0.92292	-1.4396	-2.0333	-1.325	-1.9083	-1.5708	-1.2583	-1.875	-1.2958	-1.4521	-2.0104	-1.0458	-1.6	-1.7333	-1.1354	-1.8125	-2.548	-74.453	182.939	167.146	67.775	-108.035	107.150	20.636	-8.862	-84.653	-62.795	134.514	169.415	15.112	149.293	-42.261	0.00053939	0.00037421	0.00017119	870.9	2.6517e-05	7.3405e-06	1034.5	200.93	5.9733e-06	1.1505e-05	315.07	85.799	42.035	7.3785	7.1966e-06	25.162	0.0023857	0.0025612	0.00071825	868.73	2.7808e-05	2.8419e-05	1008.7	201.92	2.7949e-05	2.8401e-05	325.13	90.08	48.586	10.216	2.8204e-05	27.815	-26.781	-55.116	-38.979	-144.233	-6.147	-32.281	-144.155	-139.849	169.822	-26.905	-140.101	-135.422	-135.090	-131.096	106.502	-130.509	-8191	255	
16837.510	1	1	0	0	0.4307	0.089679	0.076773	0.052438	0.25704	0.077074	0.16651	0.16768	0.070592	0.14698	0.14845	0.080756	0.03223	0.063041	0.12705	0.2077	-1.025	-1.3875	-1.9417	-1.1229	-1.7542	-1.6833	-1.3167	-1.9958	-1.5458	-1.3646	-1.7875	-1.1833	-1.7021	-1.6646	-1.1625	-1.9937	-11.909	-50.403	-30.387	-65.719	150.277	76.625	91.869	129.778	170.807	182.663	-149.727	-33.133	-8.126	164.235	-124.827	-87.216	0.00058546	0.00070645	0.00021542	876.59	6.116e-06	1.7113e-05	1029.5	200.62	1.1352e-05	1.3299e-05	314	86.521	42.362	7.4308	1.1163e-05	25.357	0.0024141	0.0025623	0.00071791	870.02	2.8009e-05	2.8147e-05	1008	201.3	2.7765e-05	2.8517e-05	324.72	90.327	48.839	10.223	2.7854e-05	28.069	38.337	-141.151	11.781	-144.425	5.880	-53.493	-144.416	-139.753	-13.036	49.633	-139.940	-135.181	-135.572	-130.368	-6.744	-130.870	-8191	255	
16837.605	1	1	0	0	0.097805	0.14255	0.16204	0.27023	0.10451	0.18894	0.20311	0.059693	0.25381	0.14757	0.21796	0.32022	0.16138	0.065928	0.063805	0.13506	-0.95417	-1.0042	-1.8604	-1.0667	-1.4917	-1.9542	-1.2417	-2.1208	-1.4896	-1.1375	-2.2042	-1.4354	-1.1958	-1.7812	-1.0375	-1.8312	-26.267	-109.640	-64.676	201.524	-113.050	-1.966	198.474	-103.943	-133.873	159.463	-112.016	187.042	-105.918	93.159	-70.571	178.655	0.0005155	0.00011071	0.00012062	870.04	1.0768e-05	1.3579e-05	1023.9	197.58	9.1873e-06	3.8062e-06	310.31	86.215	41.812	7.2472	7.1253e-06	25.599	0.0024051	0.0025779	0.00071617	862.65	2.802e-05	2.8572e-05	999.03	198.91	2.7858e-05	2.8237e-05	321.72	90.606	48.38	10.093	2.7483e-05	28.193	-27.649	87.171	-72.471	-143.964	54.355	-32.281	-144.468	-139.879	-145.517	-69.590	-140.376	-135.202	-135.240	-130.908	-44.390	-131.061	-8191	255	
16837.725	1	1	0	0	0.12982	0.082598	0.037627	0.1778	0.071355	0.22276	0.11458	0.23793	0.1214	0.13185	0.20523	0.37692	0.16881	0.12152	0.025535	0.10883	-1.1479	-1.0979	-1.8917	-1.4708	-1.275	-1.8792	-1.15	-1.7812	-1.6313	-1.1042	-1.8833	-1.0521	-1.3813	-1.8583	-1.1792	-1.6562	-119.395	-98.453	-111.033	167.982	171.138	-143.865	182.861	-128.464	117.983	176.491	95.451	188.674	98.685	32.088	124.343	-24.775	0.00096834	0.00077413	0.00036037	849.23	3.4263e-06	3.4089e-06	1010.4	191.16	1.3044e-05	2.0385e-05	308.45	87.091	41.337	7.3415	1.201e-05	25.576	0.002403	0.0025435	0.00070866	843.82	2.8226e-05	2.8704e-05	988.91	194.13	2.8299e-05	2.8715e-05	320.42	90.992	48.494	10.179	2.8378e-05	28.172	14.634	-104.045	-140.191	-144.201	70.350	-113.880	-144.048	-140.197	157.690	-59.199	-140.208	-136.279	-136.103	-130.751	-77.097	-131.867	-8191	255	
16837.797	1	1	0	0	0.24289	0.10808	0.1412	0.35425	0.046315	0.18444	0.0728	0.077517	0.16621	0.16249	0.21043	0.13637	0.14317	0.092396	0.094886	0.15434	-1.4542	-1.1708	-1.8458	-1.4	-1.3042	-1.8354	-1.4458	-1.6896	-1.7854	-1.0875	-1.8167	-1.5417	-1.175	-1.925	-1.0271	-1.5292	-82.299	106.225	148.531	-142.051	108.619	177.484	77.681	84.694	133.523	-34.398	93.152	131.258	165.564	-4.098	-2.886	39.440	0.00043175	0.00072776	0.00010525	855.01	6.0534e-06	2.1065e-05	1016.1	197.49	3.0576e-06	7.2549e-06	309.77	86.347	42.525	7.3596	4.7262e-06	24.969	0.0024537	0.0026034	0.00073653	854.15	2.9061e-05	2.941e-05	997.87	200.52	2.9586e-05	2.969e-05	323.8	90.757	49.772	10.443	2.9767e-05	27.956	18.184	181.016	-22.413	-145.023	179.441	-48.862	-144.805	-140.304	86.397	13.828	-140.275	-135.423	-135.667	-130.755	39.360	-131.511	-8191	255	
16837.893	1	1	0	0	0.1978	0.22183	0.34208	0.239	0.15543	0.15481	0.14802	0.58833	0.22502	0.17906	0.20583	0.1191	0.29965	0.31969	0.18444	0.10143	-1.3687	-1.1167	-1.6812	-1.5625	-1.0479	-1.8937	-1.225	-1.4917	-1.8937	-1.275	-1.8479	-1.6458	-0.9625	-1.8667	-1.1667	-1.4271	136.661	-37.502	103.565	190.345	-139.066	-96.750	178.097	176.567	96.183	149.378	113.203	195.327	-141.343	60.268	-139.503	-56.142	0.00068163	0.00095765	0.00024672	871.9	1.8469e-05	7.0706e-06	1033.3	202.76	1.8545e-05	6.317e-06	311.32	85.325	42.291	7.4027	1.054e-05	24.833	0.0025678	0.0027061	0.00075344	872.01	2.9548e-05	2.9448e-05	1008.2	203.89	2.9191e-05	2.9068e-05	325.2	89.659	49.641	10.383	2.9433e-05	27.617	4.301	40.431	27.723	-144.593	-109.323	90.602	-145.121	-140.538	-65.845	-0.691	-140.461	-136.476	-136.240	-130.589	-91.148	-131.258	-8191	255	
16837.988	1	1	0	0	0.050595	0.1156	0.10173	0.12729	0.18881	0.042713	0.40843	0.074937	0.19846	0.20449	0.11848	0.18104	0.28785	0.15727	0.16729	0.45679	-1.4896	-1.2292	-1.6646	-1.5312	-1.0187	-1.8937	-1.4167	-1.35	-1.9458	-1	-1.7708	-1.7521	-1.025	-1.9125	-1.425	-1.1688	51.477	40.546	-97.897	160.441	66.741	-83.410	145.979	-8.501	-36.597	99.109	-123.571	-23.354	-74.404	167.534	82.021	163.378	0.00062345	0.00034597	3.6259e-05	883.62	1.1756e-05	3.607e-06	1029.3	203.01	6.3983e-06	6.9766e-06	309.88	84.57	41.484	7.2847	2.0697e-05	24.159	0.0025074	0.002677	0.00074457	881.85	2.9124e-05	2.941e-05	1009.6	205.48	2.8992e-05	2.9398e-05	322.44	88.513	49.286	10.236	2.8535e-05	27.069	-13.968	111.903	-133.137	-144.508	32.251	88.366	-145.064	-140.620	-81.143	-101.889	-140.691	-136.180	-135.381	-131.214	56.061	-130.679	-8191	255	
16838.109	1	1	0	0	0.25611	0.1194	0.28028	0.18657	0.072856	0.19355	0.14958	0.16817	0.24781	0.16423	0.13161	0.28792	0.23388	0.20081	0.056971	0.18521	-1.4354	-1.0417	-1.4417	-1.9021	-1.0646	-1.9167	-1.6688	-1.1833	-1.8312	-1.3271	-1.5979	-1.9979	-0.90208	-1.7104	-1.4937	-1.0688	-78.859	-116.006	-58.708	120.928	-83.956	25.267	-119.122	8.383	-91.815	166.368	-128.395	-122.504	143.130	-79.098	-21.386	-113.157	0.00031251	0.00044545	0.00019772	880.5	4.4043e-06	8.148e-06	1024.4	203.19	1.0453e-05	7.4472e-07	311.62	83.479	41.544	7.4295	1.3091e-05	24.022	0.0024201	0.0026142	0.0007292	877.2	2.8333e-05	2.8236e-05	1004.4	204.73	2.8078e-05	2.8546e-05	321.06	87.872	48.709	10.201	2.8512e-05	26.937	-31.691	186.725	146.525	-144.689	-111.043	-24.351	-145.054	-140.642	80.460	76.052	-140.737	-136.096	-136.590	-131.538	178.014	-131.735	-8191	255	
16838.205	1	1	0	0	0.27312	0.34894	0.33192	0.35185	0.12398	0.06688	0.16303	0.14101	0.30162	0.23168	0.12064	0.28295	0.014456	0.17504	0.15016	0.24919	-1.575	-1.1146	-1.2708	-2.0521	-1.025	-1.6521	-1.9229	-1.2417	-1.8479	-1.1833	-1.4396	-2.0687	-1.1208	-1.7604	-1.7146	-1.2146	35.648	173.293	-14.525	152.814	-11.499	-34.647	63.221	-149.773	-157.909	151.000	-96.787	133.148	-107.380	132.126	-10.616	148.001	0.00050791	0.00084332	4.7328e-05	879.96	9.024e-06	5.7343e-06	1027.2	202.47	1.415e-05	1.2284e-05	308.17	82.968	41.511	7.4192	1.104e-05	24.281	0.0023982	0.0025856	0.000714	875.2	2.766e-05	2.7972e-05	1005	204.19	2.7414e-05	2.833e-05	320.58	87.174	48.498	10.155	2.8451e-05	26.967	13.297	-156.221	-103.317	-145.111	127.945	-60.687	-145.314	-140.211	156.543	-34.157	-140.428	-136.154	-136.110	-131.872	-149.268	-131.365	-8191	255	
16838.301	1	1	0	0	0.14296	0.22056	0.12206	0.10829	0.059624	0.11748	0.39166	0.094662	0.080707	0.11182	0.33512	0.20169	0.22868	0.05769	0.39959	0.091673	-1.5167	-1.3521	-1.1896	-1.9979	-1.1104	-1.6729	-1.8	-1.2271	-1.7333	-1.2958	-1.1479	-1.9667	-1.1333	-1.5625	-1.6562	-1.2729	-128.419	-105.102	37.402	162.038	-104.918	199.385	179.815	38.614	123.209	-129.649	99.135	131.947	79.202	167.511	37.746	-133.640	0.00020288	0.00090144	0.00021281	872.21	4.6477e-06	5.9947e-06	1027.7	201.77	1.5297e-05	9.6745e-06	311.29	83.471	41.697	7.2436	4.3861e-06	24.19	0.0023942	0.0025709	0.00072265	871.1	2.7919e-05	2.8351e-05	1003.4	203.17	2.7403e-05	2.8152e-05	321.57	87.489	48.367	10.057	2.7437e-05	26.976	3.365	-151.746	-14.417	-144.950	-68.358	184.097	-144.928	-140.060	-83.269	144.479	-140.241	-135.947	-135.487	-131.146	-5.655	-132.313	-8191	255	
16838.396	1	1	0	0	0.25309	0.058127	0.030043	0.25539	0.21265	0.18048	0.13052	0.02121	0.14386	0.041627	0.2025	0.12958	0.11897	0.18209	0.23264	0.050823	-1.3729	-1.4438	-1.0854	-2.0646	-1.0583	-1.5688	-2.0229	-1.1875	-1.8	-1.7229	-1.3062	-2.1208	-1.2417	-1.3563	-1.8625	-1.1688	-46.180	-86.041	103.602	132.782	87.611	140.579	159.442	191.482	-147.801	-66.752	196.144	169.850	-154.807	88.462	-109.060	-20.863	0.00055785	0.00097048	0.00028186	871.79	1.6141e-05	5.5916e-06	1025.1	200.31	9.1361e-06	9.1158e-06	307.13	83.092	41.155	7.3844	8.4977e-06	23.874	0.0023481	0.0025385	0.00070961	868.5	2.7498e-05	2.767e-05	998.22	202.02	2.6745e-05	2.7253e-05	318.59	86.797	47.896	10.06	2.7041e-05	26.588	24.365	-56.227	-47.939	-145.050	0.899	117.599	-145.036	-140.594	155.292	14.333	-140.590	-136.059	-136.479	-130.592	-101.682	-131.083	-8191	255	
16838.492	1	1	0	0	0.10606	0.25644	0.07203	0.35357	0.19181	0.085005	0.21181	0.53094	0.02444	0.080023	0.31719	0.26687	0.20323	0.16865	0.1871	0.38204	-1.2917	-1.6833	-0.76458	-1.9688	-1.2563	-1.2437	-2.1042	-1.1604	-1.7583	-1.7854	-1.0562	-2.0083	-1.4521	-1.275	-2.0938	-1.2042	97.182	179.569	47.948	146.764	156.939	5.331	166.324	126.493	78.036	-125.416	191.090	160.249	54.740	-57.269	117.528	132.393	0.0006517	0.0010398	0.00020267	874.22	4.9683e-06	3.8092e-06	1007.9	198.08	1.0953e-05	8.4899e-06	304.18	83.49	41.486	7.2093	4.656e-06	23.78	0.0023177	0.0025074	0.000701	867.17	2.7298e-05	2.7645e-05	991.2	200.23	2.6888e-05	2.7819e-05	315.66	86.772	48.026	9.9475	2.7185e-05	26.354	54.254	187.624	152.515	-144.836	34.279	93.550	-144.980	-140.797	-139.397	-4.345	-140.470	-135.876	-136.438	-131.159	-89.310	-131.837	-8191	255	
16838.590	1	1	0	0	0.079441	0.22025	0.11564	0.12585	0.45879	0.35326	0.10458	0.0816	0.16738	0.40079	0.14191	0.096604	0.1832	0.21896	0.23505	0.20768	-1.1708	-1.7917	-1.0333	-1.9208	-1.6292	-1.1771	-2.2167	-1.1521	-1.5104	-1.7188	-1.1479	-1.6958	-1.6562	-1.1792	-2.0271	-1.4125	128.907	166.972	-113.665	190.342	0.744	162.606	-86.686	12.635	109.729	146.936	179.018	-119.128	-127.046	-113.136	3.305	185.816	0.001116	0.0010939	9.7533e-05	866.4	8.0453e-06	9.5972e-06	1013.2	198.23	1.1264e-05	3.3605e-06	304.13	82.737	40.474	7.153	1.8796e-06	23.601	0.002331	0.0024838	0.00069346	860.32	2.7366e-05	2.7838e-05	986.47	199.21	2.6779e-05	2.7624e-05	314.69	86.165	47.178	9.8586	2.6527e-05	26.221	47.246	-27.369	-43.577	-144.698	-154.603	-146.838	-145.061	-140.912	-31.831	79.550	-140.737	-135.949	-135.813	-130.565	-68.156	-131.749	-8191	255	
16838.686	1	1	0	0	0.1766	0.023506	0.2883	0.068605	0.07601	0.50121	0.061978	0.1728	0.182	0.047953	0.28525	0.081945	0.21505	0.085073	0.031981	0.14911	-1.1021	-1.925	-1.0896	-1.9708	-1.6979	-1.2229	-2.1604	-1.2354	-1.1792	-2	-1.0833	-1.7792	-1.7417	-1.0896	-2.0583	-1.4375	169.485	-63.665	94.377	-46.113	-153.146	-92.481	118.327	104.354	-18.833	29.561	140.341	-74.694	11.536	-135.881	139.116	121.473	0.0007582	0.0012116	0.00030068	859.15	8.7979e-06	1.7807e-05	1006.1	193.03	1.235e-05	1.3976e-05	300.83	82.948	40.511	7.1928	1.3598e-05	23.422	0.0023444	0.0025017	0.00069927	853.28	2.7741e-05	2.8184e-05	981.54	195.72	2.7203e-05	2.7782e-05	312.84	86.492	47.108	9.8188	2.6563e-05	26.192	-6.290	-0.283	-12.716	-144.452	84.605	-68.695	-144.941	-140.579	171.197	108.983	-140.710	-135.560	-135.745	-131.134	-58.828	-131.393	-8191	255	
16838.805	1	1	0	0	0.068121	0.13409	0.10312	0.19133	0.17915	0.037093	0.19965	0.1077	0.11183	0.23959	0.17064	0.2355	0.20579	0.20139	0.12809	0.18683	-0.66667	-1.7375	-1.1063	-1.6333	-1.7062	-0.94375	-1.8	-1.5354	-1.1146	-1.7563	-1.3229	-1.4833	-1.7875	-1.0354	-1.7729	-1.5854	63.864	-96.045	52.750	67.238	-80.299	44.271	81.898	76.722	77.713	-139.179	-119.516	-12.717	150.102	162.702	-16.062	165.386	0.00050812	0.00064977	0.00014454	862.43	7.1588e-07	1.3307e-05	1007.2	195.87	1.13e-05	1.993e-05	302.47	81.589	40.456	7.1307	9.4588e-06	23.207	0.0023198	0.0024775	0.00068757	854.43	2.7193e-05	2.755e-05	983.46	196.77	2.6307e-05	2.6953e-05	312	85.651	46.851	9.7521	2.6392e-05	25.83	60.224	-40.369	156.074	-144.564	135.829	98.151	-144.999	-140.476	-11.588	-61.808	-140.557	-135.534	-135.808	-130.743	-42.363	-131.616	-8191	255	
16838.900	1	1	0	0	0.18161	0.26765	0.18367	0.15538	0.11579	0.35167	0.31069	0.21631	0.19365	0.13187	0.14975	0.24156	0.32491	0.29118	0.35148	0.23483	-0.84583	-1.7563	-0.95833	-1.5604	-1.7437	-1.0521	-1.7687	-1.6771	-1.0479	-2.1292	-1.2563	-1.6292	-1.8563	-0.94792	-1.6958	-1.6875	63.255	-96.400	-3.432	198.081	-11.586	8.931	117.621	177.232	-50.522	170.101	172.285	117.494	135.714	-150.696	34.109	186.495	0.00055992	0.00058825	3.8164e-05	855.49	1.4526e-05	1.5811e-05	1003.4	193.57	1.7727e-05	1.0559e-05	300.76	81.713	39.766	7.0184	1.6245e-05	23.477	0.0022698	0.0024508	0.00067716	851.88	2.6617e-05	2.6693e-05	977.62	194.48	2.6236e-05	2.6758e-05	309.76	85.505	46.473	9.6137	2.6081e-05	26.091	43.247	51.324	137.529	-144.669	31.549	163.518	-144.761	-140.368	28.836	17.471	-140.482	-135.956	-135.964	-130.018	70.051	-131.772	-8191	255	
16838.996	1	1	0	0	0.23247	0.036357	0.068498	0.31868	0.24537	0.23863	0.1273	0.20156	0.11341	0.10799	0.085174	0.24757	0.098237	0.12843	0.114	0.18773	-0.54167	-1.8604	-1.1583	-1.4354	-1.7125	-0.96875	-1.8188	-1.6792	-1.0812	-2.0542	-1.425	-1.1458	-1.9667	-1.2125	-1.6708	-1.7375	-41.989	-145.945	70.197	190.293	-111.326	105.708	180.158	131.197	47.272	31.573	-99.952	106.864	-158.523	-107.905	-93.486	120.233	0.00064512	0.00055897	0.00036852	838.22	1.6085e-06	1.5126e-05	993.99	191.05	1.8232e-05	3.2792e-06	300.78	83.251	39.965	7.1575	1.2878e-05	24.008	0.0022828	0.0023994	0.00068105	838.3	2.645e-05	2.6944e-05	970	192.43	2.6681e-05	2.7053e-05	310.91	87.128	46.427	9.7899	2.6941e-05	26.67	28.838	-97.824	-21.094	-144.558	-23.605	-96.119	-144.743	-140.832	56.913	106.909	-140.637	-135.832	-136.536	-131.222	-109.974	-132.184	-8191	255	
16839.094	1	1	0	0	0.2721	0.11118	0.24691	0.35101	0.028806	0.099892	0.20053	0.24733	0.28528	0.018476	0.064819	0.041574	0.32968	0.013847	0.14738	0.31935	-0.7	-1.7708	-1.4229	-1.3958	-1.8917	-0.92083	-1.5333	-1.75	-1.0792	-1.8417	-1.55	-1.2437	-1.95	-1.0688	-1.5292	-1.8292	-111.042	-52.105	-147.790	196.916	74.912	51.603	136.104	125.513	157.329	-23.863	113.821	200.353	173.021	-56.926	17.741	94.274	0.00086114	0.00017661	9.4162e-05	837.35	1.1246e-05	1.4987e-05	996.43	188.96	4.8393e-06	1.0633e-05	300.8	84.501	40.269	7.2016	6.2402e-06	24.134	0.0023495	0.0025006	0.00070209	834.21	2.7297e-05	2.7717e-05	971.79	192.41	2.6934e-05	2.7174e-05	313.28	88.094	46.736	9.7523	2.6951e-05	26.675	8.448	-55.856	-142.456	-144.642	-36.774	-101.906	-144.890	-140.475	183.585	-88.352	-140.561	-135.902	-136.336	-131.102	-111.947	-131.493	-8191	255	
16839.189	1	1	0	0	0.25156	0.089891	0.17855	0.16175	0.12408	0.25128	0.21506	0.30408	0.19037	0.12982	0.21644	0.1157	0.22899	0.082633	0.21512	0.24349	-0.60833	-1.5833	-1.6104	-1.2167	-1.8896	-1.3479	-1.5167	-1.9396	-1.0521	-1.6417	-1.6896	-1.1667	-1.8292	-1.5354	-1.6063	-1.9979	-19.518	-152.431	60.125	-74.652	37.377	49.983	168.962	99.425	138.835	-146.965	164.604	183.291	-125.408	198.155	127.857	150.621	0.00060512	0.00055271	0.00016003	845.9	3.1164e-06	8.1633e-06	997.9	191.29	2.1432e-05	1.576e-06	300.18	83.888	40.73	7.1353	6.592e-06	23.752	0.0022975	0.0024555	0.00068641	838.51	2.6556e-05	2.6827e-05	974.67	193.53	2.6153e-05	2.6477e-05	312.23	87.253	47.169	9.7708	2.6248e-05	26.286	16.057	-58.199	163.066	-144.857	-80.569	70.274	-144.658	-140.376	154.365	101.769	-140.370	-135.827	-135.672	-131.463	120.279	-131.656	-8191	255	
16839.285	1	1	0	0	0.09331	0.26851	0.024923	0.23372	0.14982	0.092592	0.082281	0.081249	0.12752	0.19879	0.088565	0.073208	0.35455	0.31021	0.2492	0.16134	-0.74375	-1.7062	-1.7417	-1.2437	-1.7146	-1.2854	-1.4854	-2.2333	-1.1792	-1.6229	-1.95	-1.2167	-1.8875	-1.6417	-1.3979	-1.9979	175.687	-18.701	12.684	119.709	154.689	21.762	122.143	36.792	-118.298	112.575	122.460	86.054	-79.593	-46.968	172.755	-21.087	0.00083661	0.00046023	0.00010717	848.38	1.0865e-05	7.3528e-06	992.33	191.55	6.559e-06	1.0506e-05	298.66	83.47	40.872	7.0621	7.7701e-07	23.869	0.0022629	0.0024194	0.00068827	843.01	2.625e-05	2.6723e-05	969.73	192.65	2.6347e-05	2.6378e-05	310.56	87.125	47.127	9.7106	2.6113e-05	26.35	35.533	-115.002	-10.867	-144.781	-6.012	-33.247	-144.873	-140.390	60.706	69.796	-140.655	-135.450	-135.900	-131.120	22.059	-131.942	-8191	255	
16839.406	1	1	0	0	0.37014	0.20256	0.26861	0.40504	0.1829	0.19572	0.19706	0.06275	0.03545	0.24647	0.17585	0.15405	0.20072	0.20141	0.099637	0.19071	-0.97292	-1.6458	-1.8792	-1.3083	-2.1104	-1.3937	-1.4583	-2.0229	-1.1146	-1.4833	-1.8687	-1.0938	-1.8854	-1.5271	-1.2104	-2.0438	138.511	-44.870	-150.822	168.075	58.042	-123.202	-144.516	184.121	91.192	-87.505	-90.647	-15.469	-75.575	32.881	-45.711	137.855	0.00077112	0.00045277	0.00012819	838.82	2.3449e-05	1.6337e-05	988.08	189.6	5.4638e-06	1.7724e-05	301.66	83.677	40.049	7.1172	6.63e-06	23.956	0.0022529	0.0024212	0.00067989	833.88	2.5993e-05	2.641e-05	965.83	191.68	2.602e-05	2.6578e-05	311.88	87.655	46.475	9.8503	2.6256e-05	26.435	26.410	135.592	-68.640	-145.013	-43.244	17.753	-144.355	-140.579	129.134	18.479	-140.425	-135.987	-136.001	-131.461	70.287	-131.732	-8191	255	
16839.502	1	1	0	0	0.23035	0.15675	0.32721	0.30687	0.046636	0.031693	0.24741	0.25641	0.077688	0.20474	0.14759	0.15831	0.059004	0.06761	0.035788	0.075834	-0.75208	-1.4146	-2.025	-1.1958	-1.5875	-1.5583	-1.3083	-1.9271	-1.3937	-1.3896	-1.9	-1.0771	-1.7479	-1.6562	-1.2083	-1.8667	-51.390	113.085	-111.553	184.163	-43.192	104.122	103.476	175.291	99.493	-128.395	-23.074	-134.522	154.221	26.720	146.239	-128.843	0.00089884	0.00080007	0.00015908	838.7	5.359e-06	7.5665e-06	993.85	191.09	1.3407e-05	1.1374e-05	300.93	85.453	40.773	7.1484	9.4427e-06	24.059	0.0022907	0.0024319	0.00067757	834.83	2.6014e-05	2.6932e-05	971.53	192.52	2.6423e-05	2.7122e-05	312.66	88.627	47.068	9.9038	2.701e-05	26.851	31.926	52.700	-26.783	-144.607	149.850	116.201	-144.701	-140.389	33.357	34.525	-140.537	-136.056	-135.263	-131.606	-64.025	-131.700	-8191	255	
16839.598	1	1	0	0	0.28881	0.21527	0.046671	0.14524	0.10277	0.12177	0.16745	0.10313	0.30599	0.33058	0.35785	0.080735	0.45605	0.1455	0.25874	0.13883	-0.91458	-1.1292	-1.8708	-1.2417	-1.7083	-1.8771	-1.3125	-1.9937	-1.4312	-1.225	-1.9146	-1.3396	-1.6021	-1.8937	-0.89375	-2.0333	175.317	-18.081	192.364	154.510	-146.338	173.248	-155.814	-127.248	-73.076	4.945	80.484	185.544	148.454	-65.833	171.506	-106.344	0.000808	0.00070267	1.8614e-05	835.65	1.1395e-05	1.6457e-05	988.94	189.37	1.0825e-05	1.4112e-05	303.46	85.109	40.639	7.2898	1.5593e-06	24.438	0.0023339	0.0025161	0.00069404	836.92	2.7039e-05	2.7949e-05	971.06	191.48	2.7351e-05	2.7529e-05	313.94	88.592	47.297	9.9899	2.705e-05	26.829	33.958	-49.486	155.921	-145.051	121.149	24.233	-144.801	-139.949	6.089	8.272	-140.555	-135.850	-135.493	-131.634	85.051	-131.417	-8191	255	
16839.670	1	1	0	0	0.176	0.11393	0.11057	0.35393	0.13143	0.20275	0.19901	0.065533	0.12072	0.059698	0.18192	0.13705	0.10838	0.12329	0.10125	0.087127	-1.1271	-1.0396	-1.7	-1.3833	-1.2812	-1.9208	-1.05	-1.6771	-1.6896	-1.0583	-2.0687	-1.3417	-1.4917	-1.9937	-1.1292	-1.5771	125.475	120.337	-3.526	110.039	139.949	99.929	48.876	-105.767	114.385	117.880	-133.246	199.394	58.778	184.436	157.350	-71.096	0.00099481	0.00072997	0.00042531	837.65	1.5354e-05	1.007e-06	987.46	190.42	1.3269e-05	9.3473e-06	302.72	84.462	40.869	7.1036	6.2999e-06	23.915	0.0023512	0.002484	0.00069832	834.39	2.716e-05	2.7275e-05	964.39	192.01	2.6909e-05	2.7421e-05	311.7	87.991	47.074	9.8525	2.6654e-05	26.484	19.010	-69.888	-73.263	-144.368	-145.692	-19.182	-144.816	-140.114	106.253	37.171	-140.168	-135.994	-135.947	-130.463	13.431	-131.499	-8191	255	
16839.766	1	1	0	0	0.11139	0.0094293	0.16146	0.23703	0.27008	0.10814	0.09706	0.22659	0.13437	0.023939	0.09753	0.21837	0.17497	0.17433	0.2085	0.21738	-1.3937	-1.2104	-1.9771	-1.3875	-1.5438	-1.9479	-1.3646	-1.8333	-1.7313	-1.1146	-2	-1.5583	-1.2521	-1.9542	-1.2062	-1.8792	73.082	-143.510	87.341	58.334	-112.343	176.872	28.846	100.142	77.674	-127.058	160.344	116.422	27.174	61.223	37.863	185.890	0.0010567	0.00047104	0.0001679	843.45	7.3232e-06	1.0301e-05	978.83	189.44	1.8695e-05	6.7111e-06	304.15	85.465	39.793	7.2301	8.5859e-06	24.144	0.002285	0.0024292	0.00067167	834.67	2.6649e-05	2.6578e-05	963.83	192.48	2.6424e-05	2.6928e-05	312.69	88.58	46.679	9.8832	2.6574e-05	26.617	29.253	186.736	-29.627	-144.537	89.985	-114.394	-144.599	-140.223	-11.132	-78.634	-140.127	-136.021	-135.781	-131.694	1.922	-130.826	-8191	255	
16839.885	1	1	0	0	0.1092	0.24647	0.15456	0.13042	0.037876	0.26761	0.030671	0.26946	0.074253	0.30859	0.29772	0.14432	0.11618	0.1199	0.19512	0.10516	-1.4979	-0.925	-1.8438	-1.5458	-1.1792	-1.9104	-1.3646	-1.5604	-1.6521	-0.98333	-1.7521	-1.3479	-1.225	-1.9104	-1.1042	-1.4333	62.393	-75.835	92.196	-124.105	-109.443	77.459	153.601	84.000	-25.176	9.560	147.770	174.747	-61.802	80.100	-61.969	133.774	0.00078225	0.00041696	1.9391e-05	836.53	1.2913e-05	1.8878e-05	987.33	189.86	1.4555e-05	8.2392e-06	303.39	85.38	41.157	7.2884	2.6442e-06	24.493	0.0022923	0.0024447	0.00067878	831.86	2.6803e-05	2.6655e-05	965.36	191.73	2.65e-05	2.6577e-05	314.27	89.109	47.428	9.8744	2.6545e-05	26.893	38.502	92.741	-116.781	-144.947	-105.292	12.003	-144.783	-140.066	43.335	196.122	-140.257	-135.800	-135.760	-130.987	-102.068	-131.013	-8191	255	
16839.980	1	1	0	0	0.026609	0.30082	0.059844	0.25836	0.29146	0.18372	0.26179	0.11595	0.34432	0.20679	0.2125	0.2204	0.12473	0.07621	0.04869	0.079045	-1.45	-1.1104	-1.8	-1.675	-1.0646	-1.7979	-1.5167	-1.4042	-1.7563	-1.1688	-1.75	-1.8271	-1.1313	-1.8771	-1.3271	-1.3687	21.455	10.575	110.705	190.942	-64.058	93.102	94.436	172.891	121.769	-39.920	145.092	-28.957	-46.574	146.987	-11.513	-142.330	0.0010958	0.00053904	0.0001452	838.89	6.4123e-06	7.635e-06	988.58	191.19	1.0629e-06	1.7193e-06	306.16	85.707	40.914	7.3515	1.281e-05	24.321	0.0022745	0.0024313	0.00067212	832.9	2.6193e-05	2.6358e-05	966.04	192.6	2.6103e-05	2.6735e-05	314.17	89.137	47.469	9.8866	2.6387e-05	26.791	12.596	-55.196	-136.253	-144.677	33.359	-51.498	-144.739	-140.087	162.461	-11.532	-140.153	-135.998	-136.522	-131.270	47.560	-131.093	-8191	255	
16840.076	1	1	0	0	0.11508	0.19461	0.34699	0.1416	0.053894	0.11313	0.28983	0.16489	0.16778	0.3492	0.21811	0.23985	0.093509	0.24078	0.38815	0.19047	-1.6187	-0.87292	-1.7	-1.5771	-1	-1.8521	-1.6625	-1.3813	-1.9854	-1.15	-1.6021	-1.9396	-1.0708	-1.9937	-1.3208	-1.3042	101.279	-17.862	-85.071	134.763	118.978	-55.678	178.013	102.674	142.705	84.167	-59.244	-155.361	-148.403	-69.148	87.756	153.446	0.00048491	0.00069632	7.1703e-05	839.23	1.1943e-05	1.5314e-05	985	192.26	2.0263e-05	2.1847e-05	303.13	85.217	41.014	7.3491	8.6265e-06	24.245	0.0022474	0.0024208	0.00066976	835.49	2.6286e-05	2.6146e-05	965.24	193.56	2.568e-05	2.6244e-05	311.97	88.555	47.2	9.7837	2.5612e-05	26.529	42.842	-100.270	-72.097	-144.640	-152.171	72.607	-144.859	-139.934	-38.591	72.992	-140.396	-135.770	-136.171	-130.381	71.193	-131.155	-8191	255	
16840.197	1	1	0	0	0.13589	0.12443	0.18607	0.30438	0.068042	0.063932	0.35734	0.13481	0.26666	0.30568	0.052337	0.18034	0.1736	0.22089	0.12995	0.36871	-1.7479	-1.2167	-1.4542	-2.0042	-1.1479	-1.825	-1.5792	-1.2313	-1.85	-1.1667	-1.4729	-1.9792	-0.95417	-1.6458	-1.6792	-1.1646	173.709	174.912	-129.505	146.724	17.420	175.163	147.837	198.651	87.113	-104.803	-122.986	153.354	163.239	33.097	144.083	163.821	0.00056439	0.00064026	0.00023941	839.78	9.9548e-06	7.5083e-06	988.35	191.83	8.674e-06	1.2541e-05	301.1	85.001	40.718	7.3135	1.1249e-05	23.899	0.0022306	0.002403	0.00066503	835.17	2.5816e-05	2.5875e-05	964.22	192.51	2.5873e-05	2.6037e-05	311.22	88.59	47.039	9.8564	2.6283e-05	26.581	18.113	-121.243	-76.025	-144.627	-12.225	85.838	-144.847	-140.051	11.908	103.944	-140.409	-135.675	-135.557	-131.348	-68.634	-132.048	-8191	255	
16840.270	1	1	0	0	0.19474	0.24612	0.013319	0.10945	0.141	0.14548	0.25559	0.32445	0.012374	0.031927	0.068817	0.15788	0.11778	0.39346	0.28186	0.12526	-1.6688	-1.2708	-1.425	-1.9604	-1.1458	-1.5583	-1.7854	-1.1646	-1.8271	-1.2396	-1.4333	-1.9646	-0.94583	-1.6354	-1.7583	-0.82292	-140.148	-158.465	136.852	84.922	-73.133	-101.465	155.252	157.655	22.799	167.033	197.959	85.826	-57.139	193.146	9.248	71.182	0.0007283	0.0011538	9.0106e-05	832.95	1.3035e-05	4.6556e-06	985.66	190.84	1.7428e-05	1.057e-05	303.89	85.865	40.856	7.2733	1.1037e-05	24.336	0.00223	0.002421	0.0006725	833.82	2.6036e-05	2.6236e-05	965.54	192.14	2.5844e-05	2.6562e-05	313.17	89.018	47.166	9.8615	2.6108e-05	26.778	60.319	-117.477	177.824	-144.544	-35.297	143.192	-144.875	-140.613	12.026	128.608	-139.950	-135.643	-136.101	-130.296	178.135	-131.054	-8191	255	
16840.365	1	1	0	0	0.40325	0.047042	0.10162	0.097231	0.31611	0.30408	0.12542	0.35483	0.22633	0.058837	0.26495	0.27275	0.12905	0.057193	0.26781	0.090927	-1.3729	-1.1792	-1.1562	-1.725	-0.93958	-1.4708	-1.7104	-0.89583	-1.6562	-1.4688	-1.3042	-1.9062	-1.0833	-1.4562	-1.7188	-1.0396	-55.929	157.037	131.348	-70.698	-48.790	60.961	26.934	130.371	-24.261	98.472	197.025	125.933	-101.551	16.247	-112.422	41.794	0.00043179	0.00014785	0.00019425	836.03	1.832e-05	8.4806e-06	986.93	190.96	7.5398e-06	6.2447e-06	303.21	85.966	40.869	7.4399	1.0928e-05	23.993	0.0022362	0.0024114	0.00066725	834.57	2.5962e-05	2.604e-05	965.8	192.49	2.5888e-05	2.6851e-05	313.59	88.981	47.357	9.9698	2.6347e-05	26.71	38.145	110.285	-156.776	-144.272	122.071	-20.383	-144.761	-140.838	11.066	20.835	-140.116	-135.970	-136.159	-131.253	65.244	-131.297	-8191	255	
16840.486	1	1	0	0	0.13634	0.084272	0.29658	0.19574	0.29719	0.23998	0.2475	0.090578	0.086312	0.15452	0.12164	0.14674	0.16359	0.17027	0.074145	0.2758	-1.3667	-1.3604	-0.84375	-2.0104	-1.0938	-1.3208	-1.9062	-1.1833	-1.8312	-1.3979	-1.2458	-1.825	-1.3042	-1.5021	-1.7167	-1.0812	-22.887	8.555	-95.881	-36.414	-77.671	-88.820	131.983	-60.925	39.787	13.751	155.839	152.660	144.101	-77.141	160.722	112.887	0.00086333	0.00039148	0.00040707	838.83	7.1114e-06	9.9976e-06	986.84	190.98	1.5197e-05	1.1273e-05	300.94	85.745	41.26	7.2571	1.739e-06	24.037	0.0022545	0.0024297	0.00067945	834.97	2.6501e-05	2.6542e-05	962.98	192.11	2.6141e-05	2.6583e-05	311.37	88.854	47.598	9.8818	2.6061e-05	26.544	7.309	-132.742	-145.808	-144.652	187.115	129.351	-144.576	-140.132	108.141	78.347	-140.086	-135.555	-136.168	-131.083	-49.398	-130.528	-8191	255	
16840.582	1	1	0	0	0.24058	0.21306	0.16096	0.33068	0.19652	0.084814	0.094771	0.12143	0.17371	0.23431	0.30174	0.22014	0.23107	0.1076	0.062859	0.16983	-1.3375	-1.5292	-1.0375	-1.8896	-1.3479	-1.3875	-2.0375	-1.1	-1.5979	-1.6854	-0.9625	-1.9625	-1.3854	-1.1292	-1.7729	-1.2104	168.161	93.521	115.165	141.558	-99.904	-8.333	77.538	5.120	72.864	126.310	-139.498	132.327	-0.845	148.437	11.553	174.634	0.00092059	0.00071636	8.3225e-05	845.68	7.4564e-06	1.3143e-05	988.7	191.28	1.3915e-05	6.7323e-06	301.91	85.404	41.16	7.2335	1.6894e-05	24.315	0.0022387	0.0023985	0.0006632	836.36	2.5998e-05	2.6247e-05	963.81	192.16	2.5712e-05	2.6598e-05	312.49	88.538	47.339	9.872	2.6244e-05	26.752	9.939	-50.217	148.253	-144.393	125.443	-84.008	-144.892	-140.246	138.373	1.361	-140.281	-135.930	-136.022	-131.258	-7.226	-131.228	-8191	255	
16840.678	1	1	0	0	0.20953	0.13405	0.10962	0.34095	0.21739	0.20141	0.3261	0.304	0.19635	0.089662	0.30712	0.36375	0.17987	0.1029	0.24997	0.14368	-1.075	-1.7625	-0.99167	-1.9688	-1.5042	-1.1708	-1.9042	-1.05	-1.5479	-1.6375	-1.125	-1.8563	-1.45	-1.1396	-2.0083	-1.1958	-123.997	24.679	-132.439	176.200	77.164	190.206	3.103	147.918	-154.813	-15.063	176.465	-92.838	-86.813	-57.029	60.315	-48.113	0.00059165	0.00028862	0.00015879	836.39	8.3913e-06	8.3349e-06	992.69	192.08	4.385e-06	3.5211e-06	302.16	85.91	41.332	7.2876	1.4176e-05	24.296	0.0022612	0.0024222	0.00067585	833.3	2.6206e-05	2.6723e-05	966.3	193	2.6027e-05	2.6616e-05	312.52	88.982	47.605	9.8977	2.5818e-05	26.74	64.117	-101.360	-82.271	-144.276	112.130	98.241	-144.688	-140.317	-128.145	-121.333	-140.118	-135.444	-135.391	-130.697	105.037	-131.668	-8191	255	
16840.799	1	1	0	0	0.14767	0.16539	0.081356	0.23977	0.25325	0.12725	0.09977	0.11151	0.2368	0.22307	0.15827	0.24521	0.14224	0.06886	0.17572	0.14016	-1.0438	-1.8396	-1.1292	-1.8208	-1.6313	-1.1771	-2.0042	-1.2646	-1.3646	-1.7521	-1.1063	-1.8917	-1.6063	-1.0021	-1.8083	-1.3833	-154.569	85.179	-30.569	-127.467	-148.085	13.900	8.549	-157.933	155.127	163.100	123.812	-113.258	-41.450	0.811	-27.449	158.206	0.00039176	0.001401	0.00020734	849.12	8.6199e-06	1.1094e-05	992.85	193.83	1.442e-05	1.6048e-05	302.48	85.727	41.299	7.4138	4.1977e-06	24.083	0.0021954	0.002375	0.00065572	840.03	2.5496e-05	2.584e-05	968.97	193.96	2.521e-05	2.5657e-05	311.65	88.01	47.245	9.8381	2.5112e-05	26.333	-35.219	-46.512	201.767	-144.600	61.962	45.587	-144.370	-140.073	25.996	24.515	-140.402	-135.421	-135.717	-130.810	83.454	-131.293	-8191	255	
16840.895	1	1	0	0	0.071373	0.19302	0.20202	0.29317	0.11658	0.19475	0.40231	0.31248	0.1266	0.087876	0.09132	0.22802	0.24413	0.13533	0.13895	0.20831	-0.9	-2.0312	-1.0854	-1.6167	-1.5104	-1.0854	-2.0646	-1.4375	-1.0875	-1.8229	-1.05	-1.7042	-1.7042	-1.0625	-1.7062	-1.4729	-14.260	-22.646	158.364	154.856	-50.165	-34.146	104.666	149.860	60.290	-42.988	82.235	-50.423	99.476	167.080	181.634	132.146	0.0011737	0.00050675	0.00026101	851.1	1.3563e-05	1.7172e-05	985.72	190.05	3.2839e-06	1.0195e-05	299.64	85.326	40.954	7.3474	6.2387e-06	23.902	0.0021685	0.0023183	0.0006453	838.49	2.569e-05	2.5971e-05	962.55	192.77	2.5154e-05	2.5708e-05	309.5	88.035	47.363	9.8444	2.5287e-05	26.21	-14.281	186.443	-73.859	-144.461	66.337	-98.546	-144.785	-140.473	-14.293	-18.338	-140.284	-135.085	-135.886	-131.066	-69.767	-131.267	-8191	255	
16840.965	1	1	0	0	0.17551	0.058619	0.45815	0.19007	0.18586	0.12207	0.21937	0.15676	0.25519	0.1976	0.39485	0.16023	0.10689	0.075941	0.42608	0.27044	-0.71042	-1.8479	-1.1771	-1.6187	-1.7875	-0.84792	-2.0229	-1.7563	-1.1917	-2.0917	-1.4375	-1.3667	-1.8833	-1.1042	-1.7958	-1.7583	-19.201	124.968	55.860	149.854	-46.595	119.669	67.815	49.302	-114.457	-158.085	155.899	-17.766	102.196	98.087	-80.928	-38.273	0.0008752	0.00087977	0.00012975	848.39	1.3423e-05	1.2723e-05	991.12	192.37	1.5545e-05	6.2175e-06	299.04	84.994	40.52	7.2715	1.2039e-06	24.077	0.0022032	0.0023387	0.00065604	839.64	2.5708e-05	2.5811e-05	964.56	193.08	2.5393e-05	2.6199e-05	309.1	88.123	47.096	9.8959	2.6071e-05	26.497	-16.868	55.477	18.016	-144.397	-107.089	-98.937	-144.518	-140.425	38.577	-74.258	-140.027	-135.827	-136.000	-130.015	28.131	-131.249	-8191	255	
16841.086	1	1	0	0	0.38624	0.2253	0.13419	0.34546	0.18268	0.24981	0.054776	0.31506	0.23389	0.35908	0.10752	0.14132	0.064217	0.12658	0.022214	0.24214	-0.825	-2.0104	-1.0021	-1.2854	-2.0083	-1.1562	-1.6396	-1.4708	-1.1792	-1.7083	-1.4083	-1.0854	-1.9521	-1.1229	-1.6646	-1.6417	13.206	-18.596	173.841	113.255	93.365	3.201	-143.127	116.230	-96.319	-82.512	-138.970	-129.746	-127.976	-147.815	58.056	-56.356	0.00039382	0.001193	9.3088e-05	836.97	5.9575e-06	8.3903e-06	986.75	190.93	8.8895e-06	1.5114e-05	299.53	85.417	40.694	7.2377	2.2025e-06	24.538	0.0022833	0.0024558	0.00068389	836.96	2.7126e-05	2.714e-05	966.4	192.01	2.7524e-05	2.7777e-05	312.35	89.396	47.777	10.175	2.8591e-05	27.248	-25.872	-95.650	129.320	-144.351	-3.136	-21.021	-144.664	-140.167	-51.217	185.185	-140.406	-135.672	-135.541	-130.387	-70.118	-131.772	-8191	255	
16841.182	1	1	0	0	0.024721	0.070865	0.23272	0.13974	0.032605	0.144	0.095952	0.34144	0.085141	0.47253	0.10197	0.024186	0.24324	0.10982	0.15267	0.22529	-0.52083	-1.7917	-1.4208	-1.4146	-1.85	-1.1938	-1.6521	-1.9562	-1.125	-1.7458	-1.4792	-1.1958	-1.9417	-1.3	-1.4312	-1.8646	-106.107	-115.233	-69.702	197.855	189.157	-133.868	112.396	107.580	85.171	-79.039	6.410	-51.685	145.907	-57.092	-155.386	-41.994	0.00079006	0.00048858	7.8713e-05	843.08	1.0681e-05	1.1343e-05	983.15	189	9.1981e-06	1.7362e-06	298.68	85.216	40.853	7.2058	8.9991e-06	24.063	0.0024789	0.0026095	0.00073132	841.89	2.8146e-05	2.8272e-05	963.55	191.26	2.6835e-05	2.6907e-05	309.92	88.795	46.977	9.8742	2.5687e-05	26.566	12.081	57.059	-88.829	-144.532	59.827	57.388	-144.518	-140.334	15.276	-101.797	-140.296	-135.551	-135.813	-131.572	98.265	-130.840	-8191	255	
16841.277	1	1	0	0	0.079434	0.038075	0.31577	0.175	0.26235	0.10069	0.13982	0.28186	0.15459	0.17538	0.1795	0.062488	0.012814	0.10115	0.20465	0.20069	-0.50625	-1.6917	-1.5167	-1.1083	-2.0021	-1.3583	-1.4937	-2.0208	-1.0417	-1.6833	-1.6688	-1.175	-1.9312	-1.2938	-1.3792	-1.9312	183.371	29.262	94.915	147.271	46.934	-98.843	182.095	-136.780	120.500	193.423	-83.884	190.432	-129.353	-154.760	195.510	166.383	0.00032967	0.001282	0.00026673	846.61	1.4251e-05	7.7474e-06	984.15	191.21	6.3377e-06	6.1693e-06	301.18	84.724	40.627	7.2793	3.915e-06	23.905	0.0021884	0.0023409	0.00065341	837.27	2.5383e-05	2.5715e-05	960.19	191.5	2.5326e-05	2.5442e-05	308.67	87.614	46.494	9.7024	2.5013e-05	26.239	-21.578	26.471	-0.730	-144.412	20.637	148.078	-144.637	-140.120	-58.964	50.133	-140.847	-135.881	-136.156	-130.195	-140.091	-131.565	-8191	255	
16841.373	1	1	0	0	0.13043	0.16907	0.32011	0.29534	0.40269	0.28334	0.15086	0.10045	0.089982	0.1132	0.12578	0.17242	0.37004	0.12285	0.15911	0.27618	-0.62917	-1.725	-1.5458	-1.0271	-1.8396	-1.3104	-1.3167	-1.7917	-1.0542	-1.4312	-1.7542	-1.0083	-1.9688	-1.25	-1.2437	-1.8458	-103.157	148.278	87.789	-93.369	-4.271	45.953	197.433	89.238	-104.066	134.979	76.111	-97.183	140.506	201.602	85.458	143.732	0.00072389	0.0005059	0.00016928	847.04	9.2629e-06	9.9339e-06	986.44	192.2	1.1127e-05	1.076e-05	299.3	84.573	40.924	7.2814	1.7505e-05	23.94	0.0021327	0.0023092	0.00064448	838.95	2.4754e-05	2.4895e-05	962.74	192.13	2.449e-05	2.4812e-05	307.31	87.09	46.44	9.6573	2.4578e-05	26.193	-14.108	3.634	-10.577	-145.163	-50.259	-156.125	-144.848	-140.404	-156.423	-16.739	-140.178	-135.464	-136.296	-131.110	190.027	-131.764	-8191	255	
16841.471	1	1	0	0	0.21813	0.16788	0.15553	0.25087	0.1404	0.18512	0.17214	0.011863	0.13832	0.12756	0.24946	0.14078	0.32255	0.24672	0.10346	0.16627	-0.80208	-1.3333	-1.7833	-0.98333	-1.5292	-1.5667	-1.3271	-1.7979	-1.1729	-1.2292	-1.8396	-1.2604	-1.6938	-1.5771	-0.87292	-1.9438	8.204	55.857	107.710	88.140	156.040	-41.691	151.594	-116.387	-88.922	-83.642	-151.833	92.062	-130.738	164.645	-19.408	-135.888	0.00046246	0.00076165	0.00011653	851.33	1.5537e-05	8.6764e-06	998.74	193.81	4.9423e-07	1.1093e-05	301.4	84.739	41.168	7.4451	7.0837e-06	24.138	0.0021063	0.0022407	0.0006318	841.73	2.4585e-05	2.4641e-05	967.06	193.49	2.4336e-05	2.4863e-05	310.06	87.52	46.544	9.7456	2.4484e-05	26.343	-1.872	179.516	-147.634	-145.030	156.256	109.830	-144.662	-140.418	121.105	53.444	-140.574	-135.811	-135.903	-131.535	-30.340	-131.276	-8191	255	
16841.566	1	1	0	0	0.12333	0.17753	0.20881	0.29456	0.23583	0.13497	0.23721	0.0577	0.12495	0.26607	0.10167	0.25809	0.17994	0.091047	0.15672	0.073905	-0.60208	-1.1958	-1.8042	-1.1854	-1.4271	-1.6729	-1.0625	-2.0021	-1.3708	-1.2979	-1.9167	-1.0896	-1.4917	-1.7062	-1.0521	-1.7687	123.685	90.084	143.813	-150.433	129.226	-139.086	161.005	-151.819	-63.105	47.168	197.752	137.368	-57.111	87.331	-93.481	165.636	0.00060736	0.00048698	0.00025155	852.04	1.55e-05	1.7971e-05	993.76	194.11	3.1977e-06	9.2025e-06	301.81	84.925	41.765	7.3701	1.1297e-05	24.539	0.0020947	0.0022313	0.00062293	840.94	2.3929e-05	2.4355e-05	966.6	193.22	2.3605e-05	2.3575e-05	308.89	87.079	46.308	9.5431	2.2364e-05	26.117	36.248	-19.302	157.734	-144.590	-95.839	36.713	-144.864	-140.656	86.161	22.149	-139.681	-135.992	-135.639	-131.393	-53.607	-131.291	-8191	255	
16841.662	1	1	0	0	0.14045	0.15752	0.13569	0.13604	0.31765	0.080215	0.34603	0.24181	0.033291	0.11181	0.13985	0.22949	0.2767	0.24327	0.17004	0.21655	-0.95833	-1.1313	-1.8146	-1.1792	-1.425	-1.5667	-1.0771	-1.9625	-1.3937	-1.2458	-2.0646	-1.1083	-1.4937	-1.7604	-1.0354	-1.9625	16.564	117.095	-108.652	-30.422	-147.966	18.557	164.642	134.738	-155.928	177.216	-57.063	-141.306	71.858	16.980	-12.903	-68.577	0.00070235	0.00032327	8.7454e-05	848.57	1.3024e-05	9.141e-06	991.39	193.24	8.8571e-06	9.1948e-06	302.57	86.374	41.252	7.5323	2.2446e-06	24.971	0.0018961	0.0020045	0.00055252	831.17	2.1119e-05	2.1587e-05	951.67	189.86	2.0286e-05	2.0734e-05	303.91	87.029	45.348	9.3713	1.9792e-05	26.095	-4.441	1.855	-50.959	-144.996	-7.123	-93.537	-144.679	-140.592	-44.646	-2.771	-140.365	-135.923	-135.899	-131.562	103.880	-131.633	-8191	255	
16841.760	1	1	0	0	0.13837	0.1032	0.065128	0.19862	0.41202	0.23767	0.32453	0.10424	0.14856	0.21509	0.24712	0.21359	0.11533	0.42804	0.44369	0.3386	-1.1146	-1.0125	-1.9292	-1.1792	-1.4271	-1.5792	-1.0792	-1.7208	-1.4312	-1	-2.0521	-1.3104	-1.2979	-1.8521	-1.0458	-1.6875	-59.823	-10.979	-141.574	146.640	200.867	79.812	87.920	-129.806	8.923	137.787	74.789	163.805	-142.414	2.242	-19.971	194.973	0.0010197	0.00112	0.00014641	844.67	3.6063e-07	1.5275e-05	991.22	192.97	1.2373e-05	1.2095e-05	302.25	87.512	41.783	7.5796	6.1036e-06	25.077	0.0016799	0.0018198	0.00049281	820.73	1.9192e-05	1.9326e-05	949.58	189.8	1.8856e-05	1.9611e-05	303.42	87.39	45.224	9.2877	1.8984e-05	26.172	19.415	-72.317	119.072	-144.638	61.722	25.044	-144.853	-140.356	-27.335	32.973	-140.441	-136.046	-136.061	-131.308	-44.266	-131.573	-8191	255	
16841.879	1	1	0	0	0.041149	0.35476	0.16983	0.4082	0.095529	0.30647	0.14048	0.16672	0.1337	0.16607	0.25897	0.15877	0.10604	0.13181	0.2765	0.17403	-1.0979	-1.2125	-1.8979	-1.3875	-1.1042	-1.8917	-1.2854	-1.5583	-1.6958	-1.05	-1.9292	-1.2833	-1.1854	-1.9104	-1.1125	-1.575	80.163	47.964	-154.640	169.979	191.472	-52.755	99.940	46.763	168.854	25.598	131.160	132.599	76.590	123.948	-49.729	52.928	0.00047356	0.00096151	0.00020141	838.74	3.368e-06	1.5252e-05	978.29	190.27	7.3586e-06	6.3911e-06	302.28	89.67	41.302	7.6404	1.1595e-05	25.663	0.0016703	0.0017592	0.00048344	815.2	1.886e-05	1.9214e-05	942.26	187.12	1.9148e-05	1.9417e-05	303.93	89.175	45.09	9.4197	1.9648e-05	26.835	-20.793	-114.686	159.395	-144.814	107.466	-39.621	-144.665	-140.025	74.655	-26.813	-140.155	-136.023	-136.050	-130.589	-24.516	-131.355	-8191	255	
16841.975	1	1	0	0	0.11925	0.17475	0.049995	0.40513	0.10183	0.072512	0.12272	0.34243	0.25471	0.32499	0.097191	0.18317	0.24359	0.22768	0.099142	0.17078	-1.4167	-0.94792	-1.6521	-1.4458	-1.1146	-2.0083	-1.1833	-1.6063	-1.7313	-1.0167	-1.8896	-1.5271	-1.1	-1.9312	-1.1646	-1.4813	151.349	-12.868	6.252	-118.274	76.872	38.483	116.621	87.551	-92.222	66.069	64.602	135.271	184.787	-155.197	192.692	-51.320	0.00074294	0.0003795	0.00014997	823.46	6.2016e-06	4.903e-06	966.18	188.04	7.9213e-06	1.4912e-05	304	90.734	41.24	7.6607	6.1167e-06	26.159	0.0016862	0.0017521	0.00048875	803.25	1.8943e-05	1.9344e-05	933.73	184.55	1.9091e-05	1.9556e-05	303.87	90.734	45.247	9.4332	1.9079e-05	27.102	30.217	-95.182	-54.040	-144.792	-91.540	21.124	-144.862	-140.125	73.499	20.756	-140.361	-135.729	-135.812	-131.447	-18.898	-131.784	-8191	255	
16842.070	1	1	0	0	0.076673	0.029046	0.16526	0.1101	0.21533	0.13454	0.17622	0.10734	0.24615	0.15189	0.16233	0.34763	0.13899	0.15532	0.33562	0.20858	-1.5042	-1.0083	-1.5896	-1.6667	-1.1375	-2.0125	-1.4542	-1.3896	-1.775	-1.2021	-1.6917	-1.6792	-0.84375	-1.7563	-1.1938	-1.3104	115.334	-89.003	88.701	200.794	-79.940	-153.092	17.405	169.212	-73.069	73.024	61.921	81.070	189.931	-4.505	173.992	-23.785	0.0010631	0.0010439	0.00037106	813.51	1.5877e-05	1.1398e-05	965.28	184.39	4.4149e-06	1.129e-05	299.66	91.128	41.417	7.66	5.8699e-06	25.429	0.0016784	0.0017689	0.00049489	794.42	1.933e-05	1.9364e-05	930.38	182.05	1.918e-05	1.9361e-05	302.22	90.727	45.06	9.2966	1.9838e-05	26.934	37.645	-38.002	-48.916	-144.856	12.159	153.151	-144.922	-139.979	112.577	-103.312	-139.893	-136.534	-136.094	-131.322	164.402	-131.379	-8191	255	
16842.166	1	1	0	0	0.082636	0.11329	0.054796	0.29395	0.14679	0.047237	0.29509	0.23591	0.16085	0.29595	0.13085	0.22947	0.052469	0.24885	0.10101	0.24875	-1.5417	-1.2771	-1.6938	-1.8729	-0.81458	-1.7125	-1.5375	-1.3146	-1.9646	-1.1167	-1.7604	-1.7188	-1.1021	-1.7875	-1.5104	-1.3	138.607	142.840	117.725	91.046	4.683	-132.659	156.674	113.368	127.730	152.491	185.294	-118.801	35.322	108.123	-98.884	152.174	0.00051459	0.00054672	0.00012507	812.15	4.6444e-06	9.4488e-06	968.03	182.84	1.3387e-05	9.112e-06	302.1	90.36	41.163	7.5267	6.6667e-06	25.766	0.0017272	0.0018284	0.00051053	795.1	2.0335e-05	2.0113e-05	933.36	181.84	2.0275e-05	2.0732e-05	304.05	91.341	45.419	9.4523	2.0752e-05	27.201	36.710	99.539	-58.139	-144.976	43.176	18.280	-144.930	-140.493	124.090	15.955	-140.167	-136.024	-135.465	-130.519	164.527	-131.616	-8191	255	
16842.264	1	1	0	0	0.29436	0.26068	0.23044	0.22964	0.29402	0.12452	0.03626	0.13003	0.13251	0.21796	0.23496	0.14452	0.17183	0.14102	0.22826	0.21641	-1.575	-1.1375	-1.3	-1.8271	-0.96458	-1.9354	-1.8417	-1.125	-1.9208	-1.1812	-1.6729	-1.7625	-1.0396	-1.8667	-1.6313	-1.1771	-109.701	-121.362	-2.412	95.299	51.214	79.348	144.616	134.008	-125.542	-45.205	91.836	14.968	132.267	-104.939	190.693	-106.559	0.001108	0.00020174	9.8825e-05	820.65	8.6098e-06	7.2954e-06	972.42	186.57	1.0938e-05	1.5531e-05	304.6	90.084	41.668	7.6674	7.0667e-06	25.608	0.0018141	0.0019284	0.00054078	804	2.0943e-05	2.1274e-05	941.86	184.77	2.1127e-05	2.1805e-05	308.42	91.372	46.194	9.6583	2.1968e-05	27.24	23.349	196.795	-67.119	-144.506	29.002	-35.986	-144.966	-140.222	191.936	-20.976	-140.633	-135.774	-135.989	-131.351	31.310	-131.744	-8191	255	
16842.359	1	1	0	0	0.054091	0.24205	0.26861	0.066433	0.30747	0.29434	0.076666	0.35259	0.28017	0.025577	0.28739	0.22611	0.096445	0.23707	0.15215	0.17842	-1.4979	-1.2375	-1.4562	-1.9458	-1.0542	-1.5812	-1.775	-1.0146	-1.8479	-1.3021	-1.3	-1.8813	-1.0125	-1.5625	-1.7229	-1.1667	-44.402	5.146	91.035	-149.643	33.869	88.600	-156.519	173.685	187.415	96.363	-114.287	104.840	80.999	79.798	143.368	112.499	0.00057577	0.00084236	0.00025565	830.1	1.0028e-05	1.6271e-05	978.12	187.61	1.323e-05	1.1678e-05	308.69	90.412	41.586	7.7342	1.3533e-05	25.571	0.0019058	0.0020229	0.00056636	812.66	2.1742e-05	2.1963e-05	946.43	185.8	2.1406e-05	2.2054e-05	308.93	91.169	46.26	9.6332	2.1796e-05	27.225	43.474	-30.757	4.952	-144.868	-18.136	-28.186	-144.893	-140.282	77.407	173.175	-140.459	-135.990	-135.935	-130.897	15.005	-131.858	-8191	255	
16842.479	1	1	0	0	0.031265	0.14265	0.096894	0.14198	0.11669	0.076792	0.11286	0.15828	0.11533	0.15047	0.25074	0.24434	0.11841	0.03419	0.17811	0.12744	-1.4312	-1.2958	-1.1417	-2.0292	-1.0625	-1.3625	-1.7375	-1.0792	-1.7229	-1.4042	-1.2896	-1.8687	-1.0187	-1.3854	-1.6833	-0.94167	-6.146	-134.304	71.983	81.273	11.295	-48.872	50.193	62.845	29.326	-44.430	-69.317	71.129	30.250	-132.358	-26.997	170.030	0.00052998	0.00046717	7.2657e-05	824.05	1.2156e-05	9.9082e-06	976.59	185.21	7.5569e-06	1.1896e-05	300.97	90.681	41.355	7.4161	2.8796e-06	25.761	0.0018636	0.0019891	0.00055878	809.22	2.1576e-05	2.1906e-05	940.67	184.13	2.1538e-05	2.2065e-05	308.08	91.567	46.033	9.6273	2.2572e-05	27.499	31.652	-49.928	29.914	-144.803	119.826	-57.476	-145.135	-140.317	12.484	-53.216	-140.031	-136.419	-136.095	-131.861	79.983	-131.784	-8191	255	
16842.574	1	1	0	0	0.13974	0.082896	0.096677	0.23295	0.11523	0.076569	0.33077	0.36066	0.13429	0.30613	0.14021	0.19277	0.24434	0.09354	0.2513	0.33777	-1.3979	-1.35	-1.2083	-1.875	-1.1417	-1.3083	-1.8563	-0.9625	-1.7563	-1.6021	-1.0271	-1.9167	-1.2625	-1.1292	-1.6875	-1.1417	133.905	159.199	196.129	100.343	-152.669	27.111	125.947	168.370	-112.559	83.432	149.187	112.284	128.926	-142.237	-40.547	-58.941	0.00062698	0.00067572	0.00022019	821.8	6.9235e-06	1.3261e-05	972.62	184.74	4.8787e-06	3.9253e-06	306.11	91.025	41.494	7.6489	9.4342e-06	25.005	0.0019341	0.0020823	0.00058917	807.29	2.2767e-05	2.3057e-05	943.02	185.08	2.2847e-05	2.3391e-05	310.75	91.874	47.212	9.9075	2.4068e-05	27.221	13.532	-73.873	-52.501	-145.119	89.900	111.276	-144.652	-140.403	47.493	-70.205	-140.464	-135.711	-135.881	-130.586	-102.702	-131.317	-8191	255	
16842.670	1	1	0	0	0.094987	0.058818	0.17947	0.26694	0.10337	0.23042	0.072349	0.23905	0.16675	0.3264	0.34925	0.040921	0.027315	0.40072	0.13744	0.10934	-1.1938	-1.6521	-1.0292	-1.7938	-1.3458	-1.2375	-1.9688	-1.2021	-1.4042	-1.7542	-1.1917	-1.8979	-1.3604	-1.1542	-1.8292	-1.0979	-90.174	-107.417	-44.807	144.089	27.768	-138.298	145.068	129.850	-75.890	168.638	156.051	80.835	39.845	2.259	32.561	49.440	0.00048441	0.0008557	0.0001262	852.99	1.1996e-05	8.4757e-06	991.52	196.5	1.23e-05	1.0269e-05	307.65	88.343	42.622	7.6912	8.6947e-06	24.653	0.002095	0.0022775	0.00063731	840.08	2.4999e-05	2.5557e-05	966.59	196.15	2.5255e-05	2.5967e-05	315.19	90.528	48.737	10.211	2.6016e-05	26.956	6.685	71.034	40.867	-144.654	31.002	-40.816	-144.811	-140.241	27.993	-73.747	-140.053	-136.180	-136.624	-131.045	36.606	-131.303	-8191	255	
16842.766	1	1	0	0	0.087667	0.080538	0.20776	0.13454	0.15511	0.20365	0.10911	0.1063	0.37852	0.23626	0.29528	0.34222	0.38633	0.024059	0.028986	0.10594	-1.1521	-1.5312	-0.91042	-1.9667	-1.4396	-1.1812	-2.0667	-1.1146	-1.4083	-1.6938	-1.1688	-1.9146	-1.4917	-1.0688	-1.9271	-1.1854	-118.211	131.780	17.520	-134.375	-33.593	21.461	118.460	-104.707	-42.481	120.973	155.937	-132.561	156.130	124.540	-48.416	-45.488	0.00060136	0.00066815	0.00010687	866.99	5.5343e-06	8.9971e-06	997.39	199.07	5.9617e-06	6.3433e-06	305.49	86.767	42.895	7.6223	1.1089e-05	24.334	0.0022011	0.0024074	0.00066276	855.9	2.5932e-05	2.6736e-05	976.72	198.87	2.6195e-05	2.6647e-05	316.66	89.818	48.989	10.309	2.6578e-05	26.836	57.832	-58.616	-84.067	-144.464	-104.071	-42.581	-145.160	-140.653	-88.334	15.357	-139.990	-136.132	-136.249	-131.532	36.296	-131.070	-8191	255	
16842.861	1	1	0	0	0.38089	0.30748	0.13315	0.17008	0.2412	0.16951	0.20826	0.11863	0.2326	0.17616	0.32185	0.14433	0.34322	0.13527	0.035396	0.12014	-0.96458	-1.6292	-1.0083	-1.7396	-1.6042	-1.0667	-2.0229	-1.3229	-1.2208	-1.7896	-1.1125	-1.7521	-1.7521	-0.96458	-1.7687	-1.2521	-123.761	-117.758	-106.722	-123.246	119.213	190.110	138.681	-48.133	101.132	30.103	-115.708	-147.194	191.243	-8.379	191.497	174.396	0.00073588	0.00043228	4.2411e-05	869.07	2.0872e-05	6.389e-06	993.88	195.62	1.5113e-05	6.8683e-06	304.47	85.495	42.327	7.5567	8.1306e-06	24.152	0.0022947	0.0024644	0.00067686	857.98	2.6678e-05	2.7202e-05	971.57	197.19	2.6563e-05	2.7372e-05	313.62	89.018	48.448	10.284	2.6682e-05	26.781	37.676	36.668	117.517	-144.430	-9.372	3.874	-144.678	-140.227	43.101	71.636	-140.406	-135.700	-135.913	-131.783	53.871	-130.991	-8191	255	
#DATA ENDS
