BOXY.EXE: ISS Imagent and Oximeter Data Acquisition Program Version 0.80
Ascii Record File

#ACQ INFORMATION
2  Detector Channels 
16  External MUX Channels 
1  Auxiliary Channels 
5000  Waveform (CCF) Frequency (Hz)
1  Waveforms Skipped 
30  Waveforms Averaged 
1  Cycles Averaged 
16  Acquisitions per Waveform 
10.0806  Updata Rate (Hz) 

#FILE INFORMATION
TRUE -- External MUX Channel results are PARSED.
FALSE -- AC DC and Phase are NOT grouped.
TRUE -- Companion Program Settings File CREATED.
FALSE -- AC data not excluded
FALSE -- DC data not excluded
FALSE -- Phase data not excluded
FALSE -- Auxillary Chn. data not excluded
Tab delimiters

#CALIBRATION STATE
TRUE -- Waveform Calibration Values APPLIED.


#AUX CALIBRATION VALUES
Val Type	aux-1	

Term	1.0000e+00	
Factor	0.0000e+00	


#WF CALIBRATION VALUES
A = Detector Channel
Val Type	A-AC1	A-AC2	A-AC3	A-AC4	A-AC5	A-AC6	A-AC7	A-AC8	A-AC9	A-AC10	A-AC11	A-AC12	A-AC13	A-AC14	A-AC15	A-AC16	A-DC1	A-DC2	A-DC3	A-DC4	A-DC5	A-DC6	A-DC7	A-DC8	A-DC9	A-DC10	A-DC11	A-DC12	A-DC13	A-DC14	A-DC15	A-DC16	A-Ph1	A-Ph2	A-Ph3	A-Ph4	A-Ph5	A-Ph6	A-Ph7	A-Ph8	A-Ph9	A-Ph10	A-Ph11	A-Ph12	A-Ph13	A-Ph14	A-Ph15	A-Ph16	

Term	0.00000e+00	0.00000e+00	0.00000e+00	0.00000e+00	0.00000e+00	0.00000e+00	0.00000e+00	0.00000e+00	0.00000e+00	0.00000e+00	0.00000e+00	0.00000e+00	0.00000e+00	0.00000e+00	0.00000e+00	0.00000e+00	0.00000e+00	0.00000e+00	0.00000e+00	0.00000e+00	0.00000e+00	0.00000e+00	0.00000e+00	0.00000e+00	0.00000e+00	0.00000e+00	0.00000e+00	0.00000e+00	0.00000e+00	0.00000e+00	0.00000e+00	0.00000e+00	0.00000e+00	0.00000e+00	0.00000e+00	0.00000e+00	0.00000e+00	0.00000e+00	0.00000e+00	0.00000e+00	0.00000e+00	0.00000e+00	0.00000e+00	0.00000e+00	0.00000e+00	0.00000e+00	0.00000e+00	0.00000e+00	
Factor	1.00000e+00	1.00000e+00	1.00000e+00	1.00000e+00	1.00000e+00	1.00000e+00	1.00000e+00	1.00000e+00	1.00000e+00	1.00000e+00	1.00000e+00	1.00000e+00	1.00000e+00	1.00000e+00	1.00000e+00	1.00000e+00	1.00000e+00	1.00000e+00	1.00000e+00	1.00000e+00	1.00000e+00	1.00000e+00	1.00000e+00	1.00000e+00	1.00000e+00	1.00000e+00	1.00000e+00	1.00000e+00	1.00000e+00	1.00000e+00	1.00000e+00	1.00000e+00	X	X	X	X	X	X	X	X	X	X	X	X	X	X	X	X	

B = Detector Channel
Val Type	B-AC1	B-AC2	B-AC3	B-AC4	B-AC5	B-AC6	B-AC7	B-AC8	B-AC9	B-AC10	B-AC11	B-AC12	B-AC13	B-AC14	B-AC15	B-AC16	B-DC1	B-DC2	B-DC3	B-DC4	B-DC5	B-DC6	B-DC7	B-DC8	B-DC9	B-DC10	B-DC11	B-DC12	B-DC13	B-DC14	B-DC15	B-DC16	B-Ph1	B-Ph2	B-Ph3	B-Ph4	B-Ph5	B-Ph6	B-Ph7	B-Ph8	B-Ph9	B-Ph10	B-Ph11	B-Ph12	B-Ph13	B-Ph14	B-Ph15	B-Ph16	

Term	0.00000e+00	0.00000e+00	0.00000e+00	0.00000e+00	0.00000e+00	0.00000e+00	0.00000e+00	0.00000e+00	0.00000e+00	0.00000e+00	0.00000e+00	0.00000e+00	0.00000e+00	0.00000e+00	0.00000e+00	0.00000e+00	0.00000e+00	0.00000e+00	0.00000e+00	0.00000e+00	0.00000e+00	0.00000e+00	0.00000e+00	0.00000e+00	0.00000e+00	0.00000e+00	0.00000e+00	0.00000e+00	0.00000e+00	0.00000e+00	0.00000e+00	0.00000e+00	4.17717e+01	-1.31162e+02	-1.22911e+02	-1.83922e+02	-6.30644e+01	-7.02209e+01	-1.56404e+02	-1.62015e+02	-4.52563e+01	-6.41764e+01	-1.71598e+02	-1.69061e+02	-1.81176e+02	-1.77209e+02	-6.47185e+01	-1.50023e+02	
Factor	6.40346e-05	1.52600e-04	4.19047e-05	1.76566e-01	1.85982e-06	1.60018e-06	1.66977e-01	5.01798e-02	2.39878e-06	1.62312e-06	8.77349e-02	2.88353e-02	2.63990e-02	9.67641e-03	1.83296e-06	1.35945e-02	1.77045e-05	2.95731e-05	8.28597e-06	9.26155e-02	2.88225e-07	3.32224e-07	8.18985e-02	2.64251e-02	2.79175e-07	3.33486e-07	4.47295e-02	1.46946e-02	1.40515e-02	5.14846e-03	3.03169e-07	6.99069e-03	X	X	X	X	X	X	X	X	X	X	X	X	X	X	X	X	



#DISTANCE SETTINGS
A = Detector Channel
A-1	A-2	A-3	A-4	A-5	A-6	A-7	A-8	A-9	A-10	A-11	A-12	A-13	A-14	A-15	A-16	

2.5000e+00	3.0000e+00	2.5000e+00	3.0000e+00	2.0000e+00	3.0000e+00	1.5000e+00	3.0000e+00	3.0000e+00	3.0000e+00	3.0000e+00	3.0000e+00	3.0000e+00	3.0000e+00	1.5000e+00	3.0000e+00	

B = Detector Channel
B-1	B-2	B-3	B-4	B-5	B-6	B-7	B-8	B-9	B-10	B-11	B-12	B-13	B-14	B-15	B-16	

1.0000e+01	1.0000e+01	1.0000e+01	1.4400e+00	1.0000e+01	1.0000e+01	1.5100e+00	1.9400e+00	1.0000e+01	1.0000e+01	1.9900e+00	2.4900e+00	2.4100e+00	2.9000e+00	1.0000e+01	2.9800e+00	




#DATA BEGINS
time	group	step	mark	flag	A-AC1	A-AC2	A-AC3	A-AC4	A-AC5	A-AC6	A-AC7	A-AC8	A-AC9	A-AC10	A-AC11	A-AC12	A-AC13	A-AC14	A-AC15	A-AC16	A-DC1	A-DC2	A-DC3	A-DC4	A-DC5	A-DC6	A-DC7	A-DC8	A-DC9	A-DC10	A-DC11	A-DC12	A-DC13	A-DC14	A-DC15	A-DC16	A-Ph1	A-Ph2	A-Ph3	A-Ph4	A-Ph5	A-Ph6	A-Ph7	A-Ph8	A-Ph9	A-Ph10	A-Ph11	A-Ph12	A-Ph13	A-Ph14	A-Ph15	A-Ph16	B-AC1	B-AC2	B-AC3	B-AC4	B-AC5	B-AC6	B-AC7	B-AC8	B-AC9	B-AC10	B-AC11	B-AC12	B-AC13	B-AC14	B-AC15	B-AC16	B-DC1	B-DC2	B-DC3	B-DC4	B-DC5	B-DC6	B-DC7	B-DC8	B-DC9	B-DC10	B-DC11	B-DC12	B-DC13	B-DC14	B-DC15	B-DC16	B-Ph1	B-Ph2	B-Ph3	B-Ph4	B-Ph5	B-Ph6	B-Ph7	B-Ph8	B-Ph9	B-Ph10	B-Ph11	B-Ph12	B-Ph13	B-Ph14	B-Ph15	B-Ph16	aux-1	digaux	

1660.647	1	1	0	512	0.15273	0.089319	0.064439	0.39132	0.23028	0.19649	0.37034	0.089016	0.21556	0.10071	0.18251	0.48321	0.24512	0.29621	0.18168	0.29794	-2.8583	-2.6917	-3.5396	-3.2438	-2.7917	-3.5792	-3.1562	-3.4333	-3.2833	-2.7396	-3.6604	-3.3292	-2.9604	-3.5708	-2.9854	-3.4458	261.854	294.290	295.690	358.116	250.502	244.610	303.286	323.073	137.131	73.656	74.258	320.981	55.739	298.188	186.844	311.499	0.002559	0.00054354	0.0003485	957.99	1.1983e-05	4.2263e-06	1416.4	300.25	1.1505e-05	8.1902e-06	638.46	282.06	125.12	49.651	9.0795e-06	133.3	0.0029491	0.0040235	0.0011244	855.73	4.0079e-05	4.4011e-05	1262.8	268.27	3.7187e-05	4.4856e-05	574.52	252.58	112.9	45.011	4.2596e-05	120.81	312.678	122.041	96.609	34.341	155.757	69.044	34.512	38.989	254.784	178.002	38.077	41.581	41.975	45.037	193.472	45.110	-8191	255	
1660.744	1	1	0	0	0.14535	0.13707	0.088028	0.25333	0.22874	0.11228	0.20757	0.14004	0.074079	0.25838	0.18291	0.3012	0.19124	0.17082	0.068992	0.43612	-3.0667	-2.9667	-3.5938	-3.1354	-2.6875	-3.5896	-3.2167	-3.1375	-3.4542	-2.6667	-3.4667	-3.2792	-2.8479	-3.6917	-2.8187	-3.1875	205.890	315.357	144.512	354.744	297.376	254.303	197.334	37.786	268.893	257.201	330.659	293.113	327.029	381.188	334.532	301.570	0.0026625	0.001425	0.00015171	947.6	1.0202e-05	4.9451e-06	1413.3	299.33	1.6811e-05	6.1385e-06	643.7	282.17	125.85	49.866	1.3913e-05	135.19	0.0030392	0.0040107	0.001124	851.47	3.9683e-05	4.3378e-05	1261.2	268.28	3.8163e-05	4.5818e-05	576.45	252.46	113.11	45.322	4.1504e-05	121.65	307.104	81.349	108.888	34.689	198.428	190.087	35.408	39.235	203.096	167.111	38.645	41.964	42.355	46.077	165.709	45.325	-8191	255	
1660.838	1	1	0	0	0.11862	0.18486	0.096528	0.13527	0.068873	0.38467	0.18123	0.15799	0.049044	0.092605	0.31714	0.28847	0.11783	0.12582	0.050961	0.12012	-3.0187	-2.7375	-3.2729	-3.2167	-2.6562	-3.4667	-3.0271	-3.0583	-3.4229	-2.8542	-3.3875	-3.675	-2.7583	-3.675	-3.0792	-3.1542	360.161	151.995	25.498	114.389	200.563	82.614	353.085	274.450	142.651	72.005	319.437	323.928	316.670	345.622	136.113	55.234	0.0023862	0.00095674	0.00021041	960.13	1.3162e-05	5.2992e-06	1418	301.45	3.8868e-06	9.5238e-06	647.04	283.64	126.73	50.406	1.3669e-05	136.51	0.0029095	0.0040809	0.0011342	858.64	3.9118e-05	4.3343e-05	1268.6	270.07	3.6506e-05	4.4145e-05	580.16	254.44	113.93	45.809	4.1975e-05	123.15	309.176	103.238	138.937	34.571	168.245	146.519	35.056	39.360	78.797	190.641	38.542	41.886	42.269	45.818	211.519	45.314	-8191	255	
1660.911	1	1	0	0	0.19461	0.17669	0.086325	0.15414	0.14965	0.16265	0.34957	0.080321	0.20723	0.28019	0.081727	0.2944	0.29841	0.34245	0.01608	0.10987	-3.1688	-2.9313	-3.1625	-3.5896	-2.9562	-3.4208	-3.2313	-3.0396	-3.5812	-2.6937	-3.3187	-3.5563	-2.8479	-3.4875	-3.0583	-3.1333	164.971	162.089	157.201	103.159	246.132	21.703	316.949	337.621	261.050	198.431	346.741	321.999	284.028	48.302	101.118	335.987	0.0026677	0.00086588	0.00024176	967.79	8.7008e-06	1.1672e-05	1432.8	302.38	1.3432e-05	4.0187e-06	646.75	286.56	127.56	50.322	1.9688e-05	136.94	0.002946	0.0040963	0.0011122	863.61	3.8014e-05	4.4779e-05	1277.3	270.86	3.7638e-05	4.6123e-05	581.94	256.62	114.5	45.919	4.1394e-05	123.57	309.498	112.923	108.190	35.039	185.194	159.657	35.044	39.396	198.756	175.690	38.383	41.620	41.930	45.531	165.341	44.763	-8191	255	
1661.030	1	1	0	0	0.18111	0.075041	0.085122	0.14577	0.22935	0.30364	0.29849	0.059218	0.10138	0.087028	0.19347	0.062799	0.25343	0.134	0.053917	0.061876	-2.8646	-3.0062	-2.9729	-3.5146	-2.5563	-3.3125	-3.4208	-2.9167	-3.45	-2.8438	-3.1604	-3.4667	-2.7812	-3.3979	-3.3542	-2.9062	238.080	30.290	376.513	56.914	117.411	201.092	307.372	309.258	368.293	165.793	327.124	372.801	359.383	67.635	47.651	258.270	0.0028861	0.0011911	0.00029217	971.55	7.7204e-06	8.3698e-06	1431	303.46	1.62e-05	8.4271e-06	646.96	284.82	127.37	50.443	1.1305e-05	135.36	0.0030386	0.0039364	0.0011254	866.63	3.9964e-05	4.4688e-05	1278	271.79	3.7763e-05	4.5604e-05	582.09	255.01	114.16	45.824	4.0756e-05	122.22	309.749	95.727	85.496	34.274	197.282	146.911	34.436	38.738	203.464	184.120	37.887	41.091	41.138	44.885	166.691	44.501	-8191	255	
1661.126	1	1	0	0	0.13043	0.15526	0.19343	0.066084	0.29705	0.077772	0.38222	0.067809	0.14405	0.11222	0.31419	0.079824	0.16636	0.22361	0.22937	0.18352	-3.1396	-2.8396	-2.9104	-3.5563	-2.7625	-3.3	-3.5208	-2.9125	-3.4583	-2.9104	-3.0396	-3.6312	-2.775	-3.1396	-3.4	-2.9875	221.192	109.276	195.495	320.592	341.056	313.811	314.369	329.764	28.386	61.882	351.218	270.299	67.280	302.023	243.244	296.717	0.0023047	0.0009028	0.00017555	956.32	5.4109e-06	1.2415e-05	1417.4	298.65	1.7275e-05	4.4813e-06	640.67	281.88	125.63	49.925	1.2475e-05	134.59	0.0029576	0.004129	0.00112	855.9	4.0599e-05	4.4977e-05	1265.4	268.98	3.761e-05	4.4019e-05	577.74	253.45	113.22	45.5	3.9956e-05	121.96	315.131	178.857	117.769	33.832	153.515	177.362	33.982	38.433	228.463	134.606	37.690	41.065	41.300	44.941	189.225	44.550	-8191	255	
1661.223	1	1	0	0	0.12931	0.063335	0.053889	0.20572	0.251	0.08435	0.22596	0.26685	0.055366	0.31028	0.14434	0.20206	0.24399	0.058826	0.20828	0.3993	-2.9688	-2.9521	-2.9646	-3.5458	-2.8208	-3.2896	-3.6104	-2.9771	-3.3917	-3.2021	-2.8667	-3.7938	-2.9083	-3.2188	-3.6688	-2.9104	30.233	37.185	246.453	282.497	273.151	300.769	365.974	301.157	342.982	331.225	225.747	360.407	126.755	377.484	179.298	324.030	0.0024028	0.00060363	0.00023547	957.98	6.5492e-06	9.0101e-06	1420.9	300.96	1.4446e-05	2.3729e-06	641.96	281.51	126.12	49.708	8.2782e-06	134.57	0.0029804	0.0039929	0.0011132	854.73	3.9639e-05	4.5594e-05	1262.7	268.64	3.8488e-05	4.4482e-05	577.37	252.9	113.23	45.31	4.0453e-05	121.9	316.742	94.498	138.605	33.995	164.861	164.484	34.105	38.583	202.873	131.158	37.836	41.016	41.109	45.003	190.752	44.503	-8191	255	
1661.319	1	1	0	0	0.27136	0.14334	0.32313	0.18817	0.20279	0.15034	0.35075	0.25716	0.11941	0.30274	0.19176	0.1665	0.24924	0.11476	0.068509	0.14721	-3	-3.2854	-2.6979	-3.5292	-2.7375	-3.0333	-3.8417	-2.9313	-3.4958	-3.3833	-2.9271	-3.575	-2.8	-3.1063	-3.6271	-3.125	222.041	183.485	287.865	250.895	202.673	229.951	292.939	298.131	137.622	300.405	332.799	20.222	316.553	278.587	288.049	341.324	0.002365	0.00086257	0.0001976	959.27	6.484e-06	1.0713e-05	1423.4	300.38	1.5524e-05	1.1807e-05	644.16	284.74	125.95	49.948	1.2105e-05	135.22	0.0029383	0.0039736	0.0011373	860.2	3.8945e-05	4.3696e-05	1269.5	269.15	3.7775e-05	4.3381e-05	577.97	254.63	112.85	45.546	4.0785e-05	122.48	307.863	112.073	113.115	34.108	178.719	159.187	34.194	38.149	212.024	162.148	37.812	41.453	41.165	45.277	149.681	44.555	-8191	255	
1661.439	1	1	0	0	0.15061	0.10976	0.11064	0.15312	0.16224	0.10567	0.14386	0.17767	0.14455	0.13433	0.23318	0.1512	0.13325	0.27871	0.07084	0.33777	-2.9375	-3.1792	-2.7354	-3.5625	-2.9792	-3.1	-3.7271	-2.7271	-3.2062	-3.3521	-2.9333	-3.4271	-3.0146	-2.8	-3.6146	-2.9479	80.533	359.396	148.656	365.141	322.393	301.229	124.923	302.106	298.989	31.648	302.785	30.247	33.326	334.980	243.124	306.923	0.0024929	0.00094538	0.00026791	961.23	1.6151e-05	9.2328e-06	1421.3	298.72	4.1354e-06	7.2368e-06	640.47	282.51	124.33	50.071	9.2338e-06	134.23	0.0030464	0.0039213	0.0011448	860.16	3.9427e-05	4.5735e-05	1267.2	268.25	3.8336e-05	4.4636e-05	575.8	253	112.5	45.549	4.2057e-05	121.52	313.038	88.902	120.564	34.461	180.073	177.073	34.077	38.085	188.986	209.142	37.768	41.327	41.142	45.402	147.005	44.338	-8191	255	
1661.535	1	1	0	0	0.13494	0.056133	0.11945	0.20617	0.078481	0.064786	0.22304	0.023189	0.11864	0.14796	0.14641	0.16621	0.46853	0.20933	0.18023	0.22279	-2.7458	-3.4604	-2.8167	-3.3833	-3.2583	-2.9625	-3.7271	-2.9958	-3.1042	-3.3396	-2.9813	-3.5625	-3.2833	-2.9062	-3.4896	-3.075	197.846	340.827	178.083	334.347	263.739	143.192	312.277	273.197	368.113	336.518	21.595	352.005	345.894	339.981	165.484	354.774	0.0026935	0.001059	0.00018002	953.11	1.2323e-05	4.8132e-06	1407.7	296.85	1.0963e-05	6.2535e-06	633.5	280.75	124.24	49.62	7.8356e-06	133.34	0.0030617	0.0039779	0.0011791	854.27	4.0215e-05	4.5661e-05	1257.1	266.66	3.7923e-05	4.5244e-05	570.74	251.11	112.06	45.05	4.2041e-05	120.74	317.807	140.049	64.137	34.042	198.652	97.809	34.549	38.142	190.925	252.707	38.194	41.683	41.624	45.445	189.966	44.694	-8191	255	
1661.607	1	1	0	0	0.16443	0.14031	0.21303	0.1557	0.12599	0.13243	0.23901	0.20748	0.11818	0.14959	0.12451	0.085207	0.29783	0.070562	0.049375	0.28544	-2.4667	-3.3625	-2.6625	-3.4188	-3.225	-2.7542	-3.6208	-3.0062	-2.9917	-3.5312	-2.9667	-3.3833	-3.4229	-2.7708	-3.3917	-3.1083	306.807	298.718	339.544	62.808	328.435	170.121	290.147	128.365	65.430	156.868	76.451	344.070	361.413	264.310	121.365	362.234	0.0021341	0.001504	0.00018794	954.14	1.2077e-05	1.1537e-05	1415.1	297.28	8.0973e-06	6.7733e-06	640.06	280.51	124.97	50.15	1.1241e-05	134.34	0.0030167	0.0039317	0.0011572	856.14	3.9258e-05	4.5789e-05	1260.4	266.38	3.866e-05	4.4708e-05	572.4	251.57	112.33	45.577	4.0696e-05	121.7	316.744	118.004	109.768	34.143	156.054	181.726	34.365	38.574	202.804	128.433	37.940	41.601	41.103	44.922	165.778	44.862	-8191	255	
1661.728	1	1	0	0	0.21829	0.066178	0.083999	0.25106	0.17091	0.15216	0.3861	0.18762	0.26708	0.018222	0.26323	0.24269	0.23196	0.39581	0.082892	0.23364	-2.425	-3.5354	-2.9479	-3.2125	-3.3688	-2.6542	-3.5521	-3.3292	-2.7417	-3.5229	-3.0104	-3.3417	-3.4625	-2.8312	-3.3667	-3.3563	366.341	279.225	250.429	319.606	218.329	48.525	324.489	368.862	249.290	295.416	21.069	26.029	317.670	34.331	122.025	335.544	0.0024366	0.00092299	0.00014535	959.41	1.1382e-05	4.7927e-06	1426.4	300.9	1.084e-05	1.2431e-05	643.9	283.86	125.53	50.958	3.8519e-06	136.81	0.0029879	0.0039189	0.0011559	859.91	3.9523e-05	4.5336e-05	1271.5	269.2	3.8242e-05	4.4053e-05	577.6	254.7	113.32	46.166	4.1619e-05	123.48	315.515	84.594	153.315	34.075	192.901	181.647	34.421	38.382	197.521	230.767	37.996	41.491	41.601	45.150	213.904	44.528	-8191	255	
1661.822	1	1	0	0	0.27123	0.19616	0.08893	0.27977	0.17379	0.29349	0.060818	0.096223	0.16255	0.048498	0.048776	0.26898	0.169	0.13951	0.24901	0.19916	-2.1417	-3.3833	-2.8375	-3.2771	-3.4292	-2.8187	-3.5729	-3.2687	-2.6542	-3.5083	-3.1542	-3.1583	-3.5917	-2.8646	-3.3708	-3.5792	71.479	258.544	368.620	56.929	33.194	41.145	69.498	373.824	128.096	367.258	307.507	285.083	335.120	286.637	253.479	355.162	0.0025903	0.0012303	0.00031646	961.19	9.4687e-06	1.0241e-05	1423.2	298.74	1.2064e-05	1.0551e-05	638.41	282.07	124.25	50.301	1.3381e-05	135.39	0.0029644	0.0038917	0.0011501	863.97	3.9439e-05	4.6157e-05	1270.4	268.23	3.8504e-05	4.4202e-05	573.92	252.4	112.08	45.789	4.138e-05	122.48	316.664	81.453	117.395	34.395	159.040	221.169	34.797	38.375	168.979	183.404	37.961	41.475	41.504	45.285	151.105	44.832	-8191	255	
1661.918	1	1	0	0	0.29265	0.37755	0.12473	0.38598	0.089318	0.10473	0.15229	0.020645	0.11839	0.16562	0.11448	0.52717	0.068915	0.12994	0.20769	0.099121	-2.3479	-3.5604	-3.0083	-2.9688	-3.425	-2.8292	-3.2958	-3.4417	-2.7	-3.5479	-2.9771	-3.1125	-3.5521	-2.8917	-3.0104	-3.6188	316.895	151.072	148.870	43.681	367.856	234.207	28.819	353.395	267.756	245.612	71.014	346.640	208.015	349.390	378.206	274.984	0.0024359	0.001332	0.00036192	957.64	4.3307e-06	3.124e-06	1423.8	299	1.6396e-05	7.2425e-06	637.81	279.81	124.15	50.068	1.4661e-05	134.93	0.0029544	0.0040785	0.0011232	858.1	3.8886e-05	4.4211e-05	1263.7	266.97	3.8383e-05	4.4654e-05	571.46	250.84	111.61	45.586	4.0784e-05	122.17	311.147	98.432	117.784	34.251	155.744	135.561	34.903	38.875	186.722	115.631	38.418	41.755	41.924	45.082	147.619	44.885	-8191	255	
1662.014	1	1	0	0	0.068142	0.17596	0.12838	0.30867	0.10639	0.022929	0.2256	0.29099	0.10912	0.24097	0.25308	0.32299	0.10447	0.17392	0.21586	0.18586	-2.3375	-3.2438	-2.9521	-2.8667	-3.4458	-2.8792	-3.3167	-3.5917	-2.6854	-3.3417	-3.2604	-3.0458	-3.6083	-2.8208	-3.1833	-3.5104	327.585	361.293	24.293	362.830	134.769	138.107	313.559	277.286	318.553	264.108	45.713	370.355	358.653	110.546	96.295	333.658	0.0025599	0.0012069	0.00032343	963.68	1.1153e-05	9.3182e-06	1425.8	296.88	1.3242e-05	6.8158e-06	636.67	280.8	124.68	50.62	1.4204e-05	136.13	0.0029637	0.0039823	0.0011099	864.45	3.9396e-05	4.5186e-05	1268.8	266.47	3.8886e-05	4.4711e-05	571.21	251.82	111.99	45.809	4.1167e-05	122.8	316.505	117.458	105.848	34.620	182.748	135.591	34.769	38.427	242.710	212.579	38.277	41.681	42.093	45.965	193.865	45.134	-8191	255	
1662.135	1	1	0	0	0.17389	0.13409	0.10389	0.22369	0.2472	0.095166	0.26672	0.23907	0.21173	0.17101	0.14841	0.057956	0.13519	0.22134	0.11456	0.32482	-2.2667	-3.4292	-3.0521	-2.8667	-3.4062	-2.9396	-3.1479	-3.5854	-2.8063	-3.4292	-3.4604	-2.9354	-3.6208	-3.0917	-2.8792	-3.7708	339.186	74.455	70.483	332.773	196.129	154.188	323.484	369.706	142.688	129.514	355.136	348.781	355.078	354.152	211.559	374.625	0.0022739	0.00037699	0.00037226	961.5	1.8364e-05	1.3756e-05	1416.6	298.11	5.9903e-06	2.0065e-06	644.36	284.49	126.23	50.682	5.9565e-06	137.19	0.0030092	0.003968	0.001099	862.56	4.0308e-05	4.4254e-05	1269.2	267.98	3.9097e-05	4.5113e-05	576	254.16	112.98	46.038	4.0858e-05	123.72	328.570	149.304	121.954	34.978	197.606	183.101	34.687	38.788	257.695	216.228	38.244	41.841	42.290	45.214	175.309	44.768	-8191	255	
1662.207	1	1	0	0	0.12988	0.057064	0.35466	0.16811	0.20323	0.24041	0.1306	0.15346	0.061179	0.047304	0.37798	0.50829	0.17188	0.11225	0.015809	0.19408	-2.3604	-3.1437	-3.1229	-2.7271	-3.4292	-3.0792	-3.0333	-3.7604	-2.9104	-3.1604	-3.4458	-2.7729	-3.5229	-3.2042	-2.9521	-3.7583	270.765	50.650	151.064	357.559	267.125	267.846	222.698	257.966	280.821	313.331	338.496	339.416	214.004	62.945	286.202	281.918	0.0023493	0.0012519	0.00025081	965.93	1.7327e-05	1.1802e-05	1433.6	299.76	1.8145e-05	6.8866e-06	641.45	283.66	125.34	50.82	1.3276e-05	136.93	0.002984	0.0039998	0.0010852	864.06	3.8909e-05	4.3251e-05	1274.1	268.16	3.8449e-05	4.4488e-05	574.47	253.58	112.95	46.02	4.128e-05	123.23	310.123	68.022	81.655	34.442	159.402	153.750	35.006	39.022	216.010	197.340	38.715	42.029	42.279	45.604	185.728	44.736	-8191	255	
1662.327	1	1	0	0	0.099028	0.27145	0.035268	0.10619	0.052244	0.067197	0.090804	0.064359	0.23489	0.13854	0.10992	0.2466	0.0078118	0.21328	0.15627	0.1249	-2.4604	-3.1292	-3.2458	-2.7708	-3.3604	-3.0896	-3.0292	-3.6437	-2.8688	-2.9583	-3.7062	-3.0667	-3.4813	-3.2167	-2.7333	-3.875	147.870	38.768	343.878	287.639	218.401	360.318	369.260	267.365	101.466	288.328	347.927	250.363	39.594	43.146	262.241	281.653	0.0026579	0.0010011	0.00024634	967.44	1.2753e-05	5.4428e-06	1428.7	298.23	8.4531e-06	1.3333e-05	641.55	282.12	124.57	50.164	9.9636e-06	135.2	0.0029465	0.0040023	0.0011094	864.06	3.8512e-05	4.3579e-05	1271.6	268.06	3.8448e-05	4.4562e-05	575.39	252.94	112.68	45.598	4.2504e-05	122.77	312.847	107.957	116.399	33.894	171.386	84.765	34.674	38.723	239.067	178.566	38.101	41.622	42.079	45.368	162.468	44.678	-8191	255	
1662.424	1	1	0	0	0.034765	0.15155	0.19193	0.26445	0.05846	0.14715	0.076794	0.1129	0.14054	0.12174	0.076635	0.34141	0.089978	0.14294	0.20645	0.10362	-2.4271	-2.8729	-3.4604	-2.8583	-3.3438	-3.2708	-2.9646	-3.4688	-3.0292	-2.8896	-3.6479	-2.8875	-3.25	-3.4042	-2.5917	-3.7667	184.351	285.812	48.179	22.611	337.053	337.739	35.999	222.224	210.283	77.374	276.001	333.893	376.228	156.985	250.024	364.394	0.0028382	0.0013664	0.00014401	959.89	9.9024e-06	1.1937e-05	1430.7	298.68	1.7333e-05	1.0466e-05	643.47	285.28	125.49	50.649	7.7274e-06	136.47	0.0030017	0.00395	0.001113	860.25	4.0218e-05	4.37e-05	1276	269.1	3.7746e-05	4.4147e-05	577.69	255	113.06	45.737	4.1222e-05	123.34	315.728	85.482	70.678	34.033	151.204	197.738	34.798	38.719	212.307	246.496	38.309	41.761	42.039	45.519	151.208	44.942	-8191	255	
1662.520	1	1	0	0	0.12695	0.24414	0.19673	0.36414	0.079897	0.1354	0.44737	0.27552	0.22836	0.10283	0.18662	0.43857	0.15919	0.066188	0.099512	0.41007	-2.7208	-2.75	-3.6188	-2.925	-3.3021	-3.4167	-2.9521	-3.5875	-3.1583	-2.8083	-3.6333	-3.1479	-3.2313	-3.5229	-2.8458	-3.5687	237.379	340.239	194.118	363.544	221.716	111.381	318.430	348.170	141.310	304.873	320.334	300.053	53.237	33.240	150.112	326.134	0.0023561	0.00092034	0.00041169	964.99	8.0756e-06	9.8705e-06	1429.1	297.93	1.6941e-05	1.1393e-05	647.2	283.2	125.15	50.26	1.5385e-05	136.62	0.002991	0.0039645	0.0010996	865.06	3.8885e-05	4.4496e-05	1274.3	268.41	3.8112e-05	4.5844e-05	580.83	254.05	113.15	45.657	4.2345e-05	123.37	315.028	76.138	127.694	34.877	153.137	175.325	35.308	39.693	208.243	178.286	37.913	41.575	41.914	45.214	164.785	45.032	-8191	255	
1662.616	1	1	0	0	0.11823	0.10426	0.035291	0.14683	0.24431	0.10148	0.25611	0.25803	0.21188	0.16603	0.20941	0.27312	0.018453	0.1516	0.089424	0.29579	-2.8	-2.7854	-3.5563	-2.8854	-2.8833	-3.3708	-2.9583	-3.3042	-3.2812	-2.6437	-3.6375	-3.2167	-3.0542	-3.6083	-2.6896	-3.5917	211.545	278.503	354.246	349.082	96.864	284.419	288.019	359.837	250.706	254.248	302.970	335.910	224.921	149.239	248.396	311.012	0.0025513	0.0010809	0.00030144	957.05	1.3053e-05	6.2375e-06	1421.6	298.21	1.3807e-05	1.3327e-05	637.75	281.35	124.22	49.41	1.2689e-05	133.92	0.0030257	0.0040831	0.0011432	859.12	4.0296e-05	4.3404e-05	1268.7	267.55	3.804e-05	4.6212e-05	573.72	252.03	111.8	44.835	4.2646e-05	121.33	307.501	150.952	96.039	34.637	208.569	182.280	34.728	38.898	227.713	181.550	38.268	41.787	42.222	45.424	161.390	44.797	-8191	255	
1662.736	1	1	0	0	0.16793	0.25068	0.1288	0.21896	0.17996	0.15747	0.17425	0.31895	0.1543	0.15604	0.21244	0.010289	0.11508	0.25995	0.13432	0.16607	-2.8396	-2.7979	-3.5021	-3.0396	-2.8583	-3.4667	-2.8396	-3.2687	-3.3187	-2.6937	-3.5438	-3.2479	-2.8854	-3.6896	-2.8583	-3.1542	71.619	190.934	170.945	71.217	129.314	288.769	345.376	334.155	158.420	121.444	375.173	346.172	63.395	372.826	72.926	27.674	0.0023812	0.0012068	0.00018513	955.88	1.0575e-05	9.2176e-06	1411.8	296.55	1.2743e-05	1.3573e-05	636.05	280.3	123.39	49.375	1.1284e-05	134.53	0.0029375	0.0041328	0.0011106	855.07	3.8434e-05	4.4256e-05	1263.5	267.02	3.6852e-05	4.5097e-05	573.92	251.3	111.72	44.908	4.092e-05	121.46	309.761	93.766	104.288	33.979	148.560	142.226	33.625	38.175	217.781	183.746	37.264	40.377	40.981	44.845	192.180	43.900	-8191	255	
1662.808	1	1	0	0	0.32403	0.39378	0.2083	0.099017	0.20777	0.076617	0.10275	0.10064	0.021924	0.31297	0.15984	0.12627	0.12653	0.1611	0.12372	0.058047	-3.0417	-2.6708	-3.3021	-3.2042	-2.9167	-3.5208	-3.0042	-3.2417	-3.5	-2.6542	-3.6333	-3.425	-2.8667	-3.7146	-2.8771	-3.1792	194.898	341.183	148.971	26.157	102.687	89.662	280.054	368.264	362.220	342.342	33.850	275.551	74.694	31.557	183.119	337.961	0.0024899	0.00088796	0.00015134	953	7.4797e-06	6.3887e-06	1426.5	297.18	1.9509e-05	5.6486e-06	640.71	281.19	123.87	49.573	6.9183e-06	133.53	0.002898	0.0040978	0.0011123	856.01	4.057e-05	4.441e-05	1268.6	266.42	3.7729e-05	4.5873e-05	574.39	251.57	111.45	44.954	4.1662e-05	121.58	305.205	93.731	89.719	33.598	140.856	188.717	33.733	38.010	195.994	142.479	37.229	40.814	41.015	44.182	134.866	44.170	-8191	255	
1662.903	1	1	0	0	0.19407	0.12061	0.060019	0.14949	0.10929	0.12201	0.2885	0.050819	0.089701	0.12781	0.27167	0.28363	0.10302	0.2134	0.19102	0.021688	-3.0375	-2.6792	-3.3125	-3.3083	-2.6	-3.4188	-3.0687	-3.125	-3.5729	-2.7771	-3.5042	-3.3812	-2.9271	-3.6604	-3.0396	-3.0417	68.588	140.387	151.822	243.589	326.904	191.831	306.759	179.052	287.072	72.879	354.948	352.170	278.269	320.146	199.811	263.440	0.0023565	0.00068647	0.0002102	966.53	6.0125e-06	1.0219e-05	1421.3	296.9	8.9065e-06	1.4335e-05	638.67	280.21	123.92	49.63	1.1932e-05	134.88	0.0028917	0.0040415	0.0010904	860.78	3.9803e-05	4.4301e-05	1268.1	266.73	3.8222e-05	4.6339e-05	574.85	252.06	111.63	45.081	4.1343e-05	121.98	315.258	96.582	57.953	33.369	219.778	162.647	33.390	38.127	210.274	166.911	37.309	40.475	40.691	44.543	188.457	44.101	-8191	255	
1662.999	1	1	0	0	0.16827	0.15265	0.05161	0.12703	0.10557	0.15638	0.15799	0.20094	0.16968	0.058048	0.42033	0.17205	0.065039	0.085726	0.25866	0.3509	-3.025	-2.8021	-3.1729	-3.4479	-2.6458	-3.4896	-3.3396	-2.8729	-3.4938	-3.0021	-3.225	-3.6458	-2.8417	-3.5083	-3.2	-3.0396	124.179	281.714	314.882	22.958	107.457	226.136	313.956	355.014	109.127	79.898	310.113	349.695	157.140	364.772	298.018	345.682	0.0025953	0.00082592	0.00043852	958.34	7.4016e-06	9.8831e-06	1419.4	298.4	1.4695e-05	4.514e-06	636.5	279.75	123.26	49.215	1.1731e-05	134.06	0.0029777	0.0041489	0.0011251	859.52	3.9568e-05	4.5315e-05	1267.3	267.05	3.9108e-05	4.5476e-05	573.95	251.27	111.12	44.839	3.9756e-05	121.16	311.611	127.415	125.949	33.297	125.947	185.911	33.769	37.961	200.311	213.536	37.320	40.641	41.164	44.609	198.633	44.110	-8191	255	
1663.119	1	1	0	0	0.054676	0.078822	0.25655	0.18475	0.20454	0.10147	0.42236	0.18411	0.11344	0.18601	0.096783	0.090304	0.14983	0.18096	0.14044	0.2106	-3.0833	-2.9146	-3.0542	-3.4708	-2.8125	-3.3438	-3.3708	-2.7562	-3.5396	-2.9875	-3.1063	-3.5896	-2.7229	-3.3542	-3.1833	-3.0187	234.849	90.469	153.923	51.843	337.979	117.190	346.071	301.269	114.497	264.170	253.492	342.797	31.326	122.257	283.961	283.028	0.0024927	0.00067326	0.00036924	956.93	4.557e-06	1.1531e-05	1420.2	296.76	1.4742e-05	8.0965e-06	634.48	280.64	122.37	48.873	1.7042e-05	133.02	0.0029622	0.003928	0.0011206	857.5	3.9788e-05	4.4017e-05	1264.6	266.07	3.8146e-05	4.6159e-05	571.13	250.81	110.75	44.609	4.0313e-05	120.92	317.371	153.420	141.370	33.712	171.352	149.419	33.642	37.853	171.339	106.951	37.534	40.742	40.826	44.505	182.374	44.199	-8191	255	
1663.214	1	1	0	0	0.32624	0.030986	0.26843	0.30682	0.076473	0.16726	0.30589	0.1208	0.15658	0.11914	0.27378	0.1152	0.2904	0.4761	0.0796	0.21752	-2.9292	-2.9771	-3.0146	-3.6063	-2.8229	-3.2979	-3.6562	-2.8479	-3.3146	-3.0917	-3.1771	-3.9	-2.9271	-3.1917	-3.2667	-2.9146	159.938	113.946	135.540	286.379	209.037	179.870	323.108	278.981	115.226	158.222	348.650	269.466	35.736	301.338	62.422	341.759	0.0023108	0.00065581	0.00030877	960.58	1.4014e-05	1.1263e-05	1419.2	296.03	1.088e-05	6.196e-06	638.22	278.86	123.57	49.367	1.3176e-06	134.67	0.0029578	0.0039692	0.001114	859.85	4.0009e-05	4.4805e-05	1264.7	266.13	3.8688e-05	4.4429e-05	573.38	250.69	111.13	44.921	4.0534e-05	121.82	312.319	99.508	96.690	33.345	184.062	177.819	33.984	37.792	186.091	164.397	37.485	40.878	40.700	44.570	247.234	43.930	-8191	255	
1663.310	1	1	0	0	0.1567	0.15189	0.20511	0.088668	0.12763	0.10739	0.27979	0.093731	0.049255	0.20261	0.15752	0.22197	0.1601	0.39517	0.089033	0.19142	-3.0312	-3.0458	-2.8979	-3.5167	-2.7292	-3.0563	-3.6188	-2.9271	-3.3063	-3.2062	-2.8083	-3.6792	-2.7875	-3.3396	-3.5229	-2.9417	255.083	231.758	212.177	296.258	309.511	34.180	316.870	142.204	327.668	193.371	262.414	292.481	234.003	281.418	322.592	350.836	0.0023209	0.00097946	0.00035723	963.05	1.2559e-05	9.5533e-06	1430.4	295.86	1.1707e-05	6.3365e-06	639.9	280.77	122.88	49.369	1.2891e-05	134.87	0.0029411	0.0038735	0.0011176	859.6	3.9139e-05	4.4163e-05	1272.3	266.11	3.7638e-05	4.3225e-05	574.82	251.45	111.15	44.837	4.0308e-05	121.89	309.183	123.599	136.268	33.642	181.604	177.266	33.769	38.013	222.919	122.540	37.615	40.921	41.024	44.705	178.247	44.180	-8191	255	
1663.408	1	1	0	0	0.16141	0.22983	0.12258	0.25474	0.17981	0.25181	0.27056	0.26959	0.08583	0.10823	0.18328	0.10561	0.18942	0.073115	0.15954	0.099786	-2.9583	-2.8708	-2.7438	-3.5333	-3.0312	-2.8271	-3.5687	-2.8792	-3.2417	-3.3021	-2.6104	-3.6562	-3.1146	-3.0375	-3.5354	-3.0354	335.223	192.205	314.749	324.962	227.676	107.054	245.190	340.701	24.209	248.930	340.699	49.107	104.255	345.882	62.175	307.239	0.0026281	0.0012174	0.00043227	959.7	7.7444e-06	6.4891e-06	1417.1	293.92	2.2666e-05	1.0426e-05	634.52	278.61	122.63	48.726	1.5235e-05	133.45	0.0029406	0.0038975	0.0011363	857.4	3.7735e-05	4.4306e-05	1265.7	263.8	3.764e-05	4.3172e-05	569.03	249.52	110.3	44.491	4.1564e-05	120.34	316.687	136.587	127.500	33.400	177.505	154.400	33.738	38.243	193.893	160.187	37.348	40.812	40.997	44.875	197.648	43.959	-8191	255	
1663.502	1	1	0	0	0.037816	0.06755	0.12624	0.22264	0.18765	0.011922	0.33631	0.0506	0.063588	0.16703	0.13374	0.16642	0.20437	0.27879	0.036942	0.2913	-2.9437	-3.2854	-2.5958	-3.5958	-3.075	-2.9	-3.675	-2.9521	-3.1854	-3.5042	-2.8875	-3.5438	-3.175	-2.975	-3.5938	-3.025	233.689	181.968	252.313	347.013	330.753	91.508	303.369	171.368	149.326	338.220	290.126	364.615	210.806	336.261	251.765	312.975	0.002513	0.00073404	0.00023881	951.58	9.7457e-06	1.0054e-05	1408.8	293.34	1.4604e-05	8.7068e-06	630.13	276.66	121.29	48.682	1.1105e-05	132.46	0.0029662	0.0038855	0.0011263	852.15	3.8662e-05	4.4817e-05	1256.7	262.11	3.8577e-05	4.385e-05	564.14	247.81	109.29	44.202	4.1447e-05	119.69	313.865	83.015	93.833	33.257	208.701	170.103	34.135	37.908	179.043	141.382	37.349	40.774	40.654	44.544	156.470	44.094	-8191	255	
1663.598	1	1	0	0	0.1819	0.15054	0.11598	0.079269	0.06401	0.15486	0.21892	0.12744	0.071283	0.095435	0.31578	0.29171	0.4607	0.23224	0.28081	0.28299	-2.6979	-3.5812	-2.6229	-3.5229	-3.2188	-2.7833	-3.85	-2.9938	-2.9188	-3.7604	-2.9354	-3.75	-3.35	-2.975	-3.5396	-3.0104	28.800	266.405	198.550	301.868	360.242	107.963	314.303	329.256	157.864	59.805	329.315	326.384	310.140	265.472	102.108	334.614	0.0022688	0.001058	0.00017405	952.15	8.0013e-06	4.1407e-06	1409	291.89	1.6964e-05	4.7494e-06	630.54	275.37	120.93	48.811	1.4047e-05	132.13	0.0029173	0.0038155	0.0011448	852.29	3.7921e-05	4.4885e-05	1256.7	261.84	3.7284e-05	4.4761e-05	564.32	247.48	108.91	44.101	4.0721e-05	119.78	308.446	132.279	38.607	33.824	182.273	193.492	33.935	37.785	190.926	176.369	37.677	40.893	40.806	44.682	168.696	44.072	-8191	255	
1663.695	1	1	0	0	0.11626	0.13844	0.3561	0.14358	0.19335	0.018559	0.25078	0.18291	0.29802	0.14896	0.28627	0.2793	0.21318	0.14576	0.16724	0.40853	-2.5396	-3.5021	-2.75	-3.3063	-3.2521	-2.7229	-3.6229	-3.0021	-3.0083	-3.4271	-2.9625	-3.3667	-3.5333	-2.7917	-3.4854	-3.4417	376.784	305.962	118.779	269.832	66.511	259.453	328.276	353.499	192.428	105.149	324.297	337.633	282.141	350.044	158.160	27.220	0.0020788	0.0012492	0.00032976	955.92	7.6708e-06	4.9489e-06	1421.1	292.56	4.7266e-06	7.1008e-06	632.17	277.93	121.41	49.164	1.3131e-05	133.63	0.0029375	0.0039056	0.0011414	855.69	3.8561e-05	4.481e-05	1262.1	263.01	3.7578e-05	4.4177e-05	567.33	249.59	109.45	44.541	4.133e-05	120.5	318.191	85.565	84.595	33.610	185.882	136.887	33.486	37.672	152.821	127.929	36.853	40.747	40.794	44.673	170.007	44.272	-8191	255	
1663.815	1	1	0	0	0.17197	0.061926	0.26007	0.046796	0.11993	0.2033	0.21577	0.077314	0.096565	0.10869	0.036843	0.081523	0.15625	0.30437	0.20698	0.1253	-2.5792	-3.4896	-2.7438	-3.3896	-3.4958	-2.7104	-3.5521	-3.1708	-2.8021	-3.4792	-2.8708	-3.3917	-3.3271	-2.7542	-3.3396	-3.6354	33.288	259.706	146.347	155.180	289.377	261.693	316.116	176.351	315.231	329.087	281.261	268.138	366.367	358.820	300.074	348.119	0.002296	0.00092463	0.0002634	952.78	7.3933e-06	1.7869e-05	1414	292.34	1.7735e-05	8.9748e-06	627.9	275.4	120.4	48.227	1.2755e-05	131.25	0.0030257	0.0040092	0.0011221	853.22	3.8577e-05	4.643e-05	1258	261.81	3.8852e-05	4.6346e-05	564.14	247.19	108.59	43.788	4.1364e-05	118.88	317.213	78.390	113.819	33.610	175.153	156.743	33.638	37.731	185.427	143.055	36.929	40.856	40.845	44.138	208.273	43.990	-8191	255	
1663.911	1	1	0	0	0.27235	0.17116	0.15455	0.18288	0.069519	0.10562	0.14623	0.027607	0.29701	0.3614	0.090147	0.15347	0.28974	0.052044	0.073867	0.3529	-2.2083	-3.4833	-2.7458	-3.0771	-3.4813	-2.6479	-3.6354	-3.4646	-2.8167	-3.25	-3.025	-3.1896	-3.5417	-2.9	-3.275	-3.6271	301.064	44.915	127.112	50.574	53.301	338.940	315.644	60.835	287.189	286.138	159.722	250.488	364.305	24.372	351.498	290.486	0.0021737	0.0010042	0.0001701	945.94	1.2396e-05	1.0645e-05	1406.8	289.56	1.3988e-05	1.2476e-05	625.89	274.4	120.26	48.391	1.5839e-05	131.17	0.0030227	0.0040532	0.0011102	848.58	3.9048e-05	4.5184e-05	1250.8	260.19	3.9574e-05	4.5254e-05	561.8	246.47	108.56	44.1	4.0803e-05	118.94	311.248	66.939	172.569	33.654	158.629	131.947	33.975	38.131	216.312	166.409	37.363	40.688	41.035	44.515	192.040	43.683	-8191	255	
1664.007	1	1	0	0	0.14806	0.085385	0.13957	0.16074	0.26915	0.13102	0.13	0.21441	0.28015	0.23998	0.29212	0.33028	0.060333	0.30362	0.047546	0.19345	-2.2729	-3.4583	-2.9083	-3.1646	-3.3146	-2.7646	-3.3958	-3.4604	-2.8354	-3.3125	-3.1188	-3.1188	-3.7396	-2.8833	-3.1875	-3.6708	349.094	189.492	366.879	35.164	330.941	208.666	374.339	291.502	160.126	296.992	337.420	25.462	307.801	359.184	373.313	269.074	0.002358	9.5893e-05	0.00013403	946.3	5.9865e-06	1.1861e-05	1405.9	291.63	7.6162e-06	9.4345e-06	628.96	275.24	120.11	48.747	1.0832e-05	131.99	0.0030595	0.0039285	0.0011118	849.76	3.8555e-05	4.4856e-05	1252.4	261.04	3.8476e-05	4.4965e-05	563.35	247.52	108.69	44.199	4.1096e-05	119.63	319.133	351.101	122.724	33.677	221.463	184.641	34.015	37.783	184.124	168.535	37.085	41.010	40.876	44.289	151.135	43.752	-8191	255	
1664.104	1	1	0	0	0.22763	0.092966	0.084416	0.21524	0.21602	0.36879	0.4078	0.061143	0.1343	0.027554	0.22737	0.37944	0.1488	0.076147	0.12629	0.052234	-2.1854	-3.4354	-3.0417	-3.0312	-3.4917	-2.8667	-3.1708	-3.5021	-2.5979	-3.3375	-3.4188	-3.1292	-3.6854	-3.1875	-3.0271	-3.6854	29.975	144.337	203.475	343.354	320.226	313.544	344.305	257.197	168.626	75.836	330.164	358.172	357.082	90.631	307.031	237.548	0.002541	0.0011025	0.00038744	954.68	1.4647e-05	1.3286e-05	1404.2	289.33	1.869e-05	7.5465e-06	626.68	277.02	120.35	48.845	1.3169e-05	132.77	0.0030238	0.0040616	0.0010939	851.89	4.0083e-05	4.491e-05	1255.8	261.27	3.9125e-05	4.3883e-05	563.06	248.38	108.96	44.247	4.0592e-05	119.66	315.623	139.408	102.774	33.574	158.632	201.637	33.923	37.542	170.196	202.028	37.202	40.568	40.808	44.166	156.364	43.835	-8191	255	
1664.200	1	1	0	0	0.061818	0.099464	0.026623	0.084704	0.15475	0.070995	0.50127	0.22321	0.14458	0.25603	0.23094	0.25811	0.069622	0.11911	0.18751	0.21552	-2.3458	-3.4333	-3.2167	-2.8646	-3.4417	-2.7667	-3.1312	-3.5396	-2.9833	-3.2917	-3.5646	-2.8979	-3.4604	-3.0354	-2.8063	-3.7229	340.792	376.048	269.286	265.069	136.710	244.584	335.549	37.580	39.796	235.844	259.893	335.407	45.409	378.529	355.549	317.171	0.0022566	0.00038891	5.0859e-05	949.89	1.1446e-05	9.3454e-06	1407.5	290.62	2.036e-05	5.2747e-06	620.99	272.93	119.29	47.637	9.0471e-06	130.19	0.0029871	0.0040939	0.0011314	849.58	3.8864e-05	4.5382e-05	1253.6	260.48	3.8065e-05	4.4914e-05	558.73	245.18	108.09	43.295	4.2757e-05	118.04	304.675	142.121	126.556	33.782	179.517	142.641	34.016	38.000	195.640	151.798	37.115	41.005	41.200	44.397	118.696	43.757	-8191	255	
1664.294	1	1	0	0	0.2273	0.15748	0.24928	0.1629	0.21532	0.064628	0.29738	0.15856	0.29558	0.14052	0.12847	0.1788	0.20816	0.18431	0.076473	0.20512	-2.2562	-3.2854	-3.3604	-2.7854	-3.3917	-2.9729	-3.0438	-3.5771	-2.9667	-3.0542	-3.5854	-2.9938	-3.4188	-3.2292	-2.8104	-3.8438	273.422	86.410	191.554	317.054	33.740	70.478	337.833	151.353	335.150	182.035	330.695	287.811	282.822	331.967	271.452	337.684	0.00244	0.00075191	0.0002868	938.07	5.7426e-06	1.0277e-05	1393.2	289.05	1.9511e-05	5.7661e-06	621.7	272.47	119.48	47.744	9.3267e-06	131.12	0.0029723	0.0040548	0.0011395	842.22	3.8399e-05	4.3339e-05	1244	259.21	3.8412e-05	4.5381e-05	558.26	244.88	107.76	43.412	4.1981e-05	118.52	310.073	143.446	159.108	33.250	133.260	163.314	33.611	37.856	227.719	137.156	37.509	40.630	40.788	44.601	113.862	44.090	-8191	255	
1664.415	1	1	0	0	0.14465	0.12533	0.18318	0.17944	0.10039	0.16932	0.04506	0.28314	0.18401	0.22746	0.30152	0.14748	0.082193	0.21746	0.13729	0.32358	-2.4854	-2.9771	-3.4188	-2.8125	-3.2854	-3.3458	-3.0062	-3.3812	-2.9	-3.0354	-3.6688	-2.9688	-3.325	-3.4188	-2.8021	-3.6771	150.459	32.637	179.287	109.167	104.237	79.307	274.103	373.406	173.859	144.160	27.034	263.760	46.588	40.347	240.081	333.511	0.0023793	0.001223	0.00036267	943.62	7.6589e-06	5.3642e-06	1402.3	292.27	1.5718e-05	5.5309e-06	624.84	275.4	120.71	48.136	3.2921e-06	131.46	0.0029637	0.0040932	0.0011021	847	4.0024e-05	4.4144e-05	1250	260.97	3.7773e-05	4.4832e-05	562.08	247.37	108.74	43.586	4.2316e-05	119.21	313.706	149.744	80.222	33.411	153.172	272.007	33.610	37.727	232.678	178.646	37.180	40.631	41.050	44.799	209.369	44.018	-8191	255	
1664.511	1	1	0	0	0.35445	0.083802	0.032929	0.1894	0.13358	0.18253	0.20434	0.23046	0.195	0.054617	0.24925	0.37657	0.17363	0.10196	0.19584	0.031376	-2.4271	-2.8583	-3.3958	-2.9313	-3.0979	-3.3229	-2.75	-3.6854	-3.0396	-2.8396	-3.6229	-2.8812	-3.3333	-3.4375	-2.6729	-3.5104	41.442	39.084	374.747	148.467	287.468	373.741	296.803	374.648	197.080	108.367	378.977	344.125	302.137	264.267	182.563	230.550	0.0026994	0.0015497	0.00044285	949.71	1.1085e-05	6.2199e-06	1401.2	294.18	1.4849e-05	1.2604e-05	629.78	276.85	120.77	47.658	8.2181e-06	132.35	0.0030281	0.004079	0.0011276	849.96	3.9743e-05	4.5791e-05	1256.3	262.99	3.8744e-05	4.5904e-05	566.45	248.09	109.15	43.611	4.2924e-05	119.61	311.378	127.920	110.026	33.774	187.645	109.946	33.866	37.694	212.062	171.612	37.352	41.051	41.105	44.081	171.531	44.027	-8191	255	
1664.607	1	1	0	0	0.27424	0.29845	0.16792	0.15838	0.22246	0.088832	0.23669	0.079093	0.22474	0.096646	0.20293	0.25431	0.20003	0.1422	0.050699	0.42109	-2.5542	-2.825	-3.4771	-3.0396	-3.1667	-3.4313	-2.9562	-3.3521	-3.075	-2.7687	-3.6896	-2.9917	-3.1042	-3.5292	-2.5333	-3.5667	361.790	201.514	61.964	303.639	307.294	242.994	317.048	256.490	190.202	36.614	280.386	340.406	363.798	366.757	39.527	295.480	0.0024385	0.00045712	0.00040579	944.91	1.2399e-05	1.1139e-05	1401.3	288.54	1.4711e-05	1.3109e-05	622.68	273.36	120.57	47.129	1.762e-05	130.19	0.0030135	0.0041664	0.0011193	844.89	4.0658e-05	4.5496e-05	1251.3	260.4	3.9217e-05	4.6314e-05	561.89	245.47	108.52	43.073	4.1725e-05	118.11	316.794	77.101	94.728	33.533	183.688	167.257	34.017	37.811	181.326	195.468	37.270	41.007	41.230	44.211	180.903	44.267	-8191	255	
1664.703	1	1	0	0	0.083929	0.20166	0.094282	0.13437	0.24014	0.15688	0.36522	0.037856	0.15863	0.098356	0.20173	0.16744	0.16815	0.23947	0.15637	0.31212	-2.6479	-2.6604	-3.4229	-2.9792	-2.8812	-3.4833	-2.8854	-3.4437	-3.425	-2.8021	-3.5812	-3.3167	-3.0375	-3.6813	-2.7083	-3.45	23.990	275.872	194.603	297.147	278.883	161.423	293.909	208.117	37.546	227.089	298.602	346.901	262.387	361.106	308.460	304.654	0.0024674	0.00086863	0.00018766	944.3	1.9396e-05	9.1873e-06	1408.5	290.79	3.971e-06	1.2923e-05	625.34	273.69	120.66	47.798	9.329e-06	131.31	0.0029481	0.0041206	0.0011223	843.5	4.0285e-05	4.5341e-05	1251	260.41	3.7676e-05	4.5503e-05	563.05	245.78	108.31	43.548	4.0796e-05	118.77	313.314	104.039	107.272	33.674	169.460	201.373	33.786	38.405	192.232	145.090	37.717	40.726	41.089	44.318	139.239	44.232	-8191	255	
1664.775	1	1	0	0	0.077341	0.12641	0.10045	0.12401	0.069136	0.16588	0.31305	0.35278	0.035411	0.176	0.065734	0.40093	0.22654	0.22119	0.083094	0.31802	-2.7875	-2.5833	-3.4396	-3.0938	-2.8	-3.4333	-3.0479	-3.2375	-3.4167	-2.7396	-3.5521	-3.2958	-2.9458	-3.7042	-2.8917	-3.3375	259.118	107.791	302.886	68.531	143.194	25.622	377.684	323.556	246.820	148.751	231.356	331.329	314.879	345.878	227.220	333.756	0.002357	0.00091214	0.00012875	947.87	8.0196e-06	6.7339e-06	1402.9	289.7	1.0677e-05	1.4736e-05	625.38	275.34	120.56	47.994	8.1557e-06	131.57	0.0029426	0.0040968	0.0011033	845.9	4.0709e-05	4.4627e-05	1251.3	259.65	3.8081e-05	4.6462e-05	562.72	247.02	108.6	43.639	4.071e-05	119.14	312.734	118.979	120.342	33.605	192.555	142.769	34.047	37.683	133.834	183.135	37.564	40.741	40.848	44.493	193.607	44.142	-8191	255	
1664.896	1	1	0	0	0.1184	0.17511	0.29786	0.26316	0.066822	0.14437	0.37063	0.22701	0.15149	0.36544	0.17259	0.28663	0.26461	0.051887	0.11097	0.24324	-2.9292	-2.6667	-3.1417	-3.1292	-2.7667	-3.625	-2.9188	-2.9104	-3.5563	-2.7979	-3.5062	-3.4688	-2.8187	-3.6917	-3.0458	-3.2375	25.121	96.582	134.226	365.928	117.628	352.213	319.006	371.978	326.179	356.701	306.001	329.926	278.211	141.065	67.242	365.683	0.0024732	0.00075588	0.00017248	948.6	8.2374e-06	1.0473e-05	1414.8	291.26	1.8375e-05	1.2514e-05	628.01	277.3	120.74	47.693	1.993e-05	131.75	0.0029254	0.0041426	0.0011228	848.05	4.1367e-05	4.6014e-05	1257.2	261.52	3.7522e-05	4.7003e-05	565.37	248.05	108.45	43.486	4.0658e-05	119.16	323.632	97.204	169.750	33.379	167.340	186.664	34.071	38.253	233.761	185.403	37.357	41.161	40.778	44.786	176.379	44.149	-8191	255	
1664.992	1	1	0	0	0.12341	0.28214	0.25098	0.28492	0.24339	0.17201	0.21242	0.37348	0.25613	0.46724	0.15376	0.28119	0.20605	0.071978	0.23203	0.18024	-3.0062	-2.8083	-3.1125	-3.3833	-2.7208	-3.4875	-3.1354	-3.0083	-3.5271	-2.5563	-3.3542	-3.5021	-2.7833	-3.6021	-3.1083	-3.0354	115.344	65.417	29.934	100.808	40.781	81.596	311.649	373.626	146.338	178.046	309.676	356.465	335.357	49.751	157.908	342.509	0.0023298	0.001231	0.0001872	942.42	1.8195e-05	1.1823e-05	1398.5	288.21	2.2014e-05	1.2417e-05	623.36	273.55	119.5	47.36	1.4173e-05	131.02	0.002983	0.0040216	0.0011302	845.17	4.0138e-05	4.3595e-05	1250	260.21	3.7908e-05	4.4013e-05	561.15	245.49	108.01	43.231	3.9986e-05	118.37	317.464	89.192	144.638	33.938	143.532	121.303	34.087	38.157	214.208	190.283	37.416	40.725	41.366	44.637	168.526	44.301	-8191	255	
1665.088	1	1	0	0	0.10526	0.14797	0.068571	0.24454	0.059539	0.2728	0.10302	0.23375	0.22888	0.21215	0.12128	0.16447	0.36257	0.19274	0.11207	0.28863	-3.0583	-2.7208	-3.0875	-3.2854	-2.5792	-3.3542	-3.4208	-2.9604	-3.5146	-2.8708	-3.1104	-3.6042	-2.8667	-3.3208	-3.2062	-3.0563	351.402	324.276	339.198	39.427	239.076	359.717	51.481	345.421	291.709	339.717	218.828	280.052	311.969	379.317	324.251	364.660	0.0021691	0.00074281	0.00014567	943.6	1.03e-05	1.3404e-05	1415.3	290.32	1.6604e-05	7.2773e-06	628.78	273.96	120.16	47.983	1.0013e-05	130.97	0.0029502	0.0039912	0.0011381	843.98	3.9636e-05	4.4672e-05	1255.5	260.79	3.8199e-05	4.5524e-05	563.83	246.54	108.02	43.462	4.1238e-05	118.74	316.994	103.039	141.878	33.500	186.048	184.829	33.915	38.037	181.547	171.944	37.645	40.847	41.094	44.758	139.189	43.861	-8191	255	
1665.208	1	1	0	0	0.11119	0.068575	0.16661	0.092267	0.11374	0.19562	0.3394	0.083779	0.16408	0.12733	0.22934	0.15222	0.39177	0.061071	0.25024	0.16933	-3.1708	-3.0438	-2.9958	-3.5125	-2.7687	-3.2646	-3.6083	-2.7646	-3.4917	-2.9521	-3.0729	-3.7313	-2.8271	-3.4146	-3.3396	-2.9417	305.378	283.173	50.683	349.051	143.547	283.787	376.592	55.696	378.215	348.130	325.044	319.709	377.159	86.173	22.587	352.500	0.0025972	0.00025238	0.00031947	950.81	1.5573e-05	1.3847e-05	1410	289.97	8.1838e-06	7.6759e-06	630.34	276.96	120.86	48.065	1.1629e-05	131.64	0.0029893	0.0039964	0.0011546	848.76	3.894e-05	4.4944e-05	1256.5	261.36	3.838e-05	4.5536e-05	567.97	248.68	108.9	43.668	4.1092e-05	119.71	313.473	178.099	77.504	33.457	201.518	122.086	33.607	37.722	159.376	163.704	37.343	41.019	40.881	44.734	170.357	44.066	-8191	255	
1665.303	1	1	0	0	0.049159	0.14231	0.30468	0.19423	0.19917	0.011718	0.21867	0.16131	0.060533	0.18169	0.20153	0.059081	0.072721	0.073867	0.27261	0.31284	-3.0271	-3.0708	-3.0271	-3.6583	-2.5875	-3.1437	-3.4062	-2.7438	-3.4292	-3.2042	-3.0792	-3.725	-3.1958	-3.3104	-3.3958	-2.8167	256.901	84.192	362.766	354.194	330.140	91.575	247.206	298.029	341.596	102.674	307.139	337.933	284.255	370.118	90.555	339.997	0.00245	0.00084244	0.00012328	950.85	1.5747e-05	5.69e-06	1427.9	291.77	2.2109e-05	1.2791e-05	637.08	276.7	120.68	47.397	1.0465e-05	131.16	0.0028966	0.0039514	0.0011491	853.04	3.8595e-05	4.4649e-05	1263.8	262.31	3.8866e-05	4.5183e-05	570.1	248.9	108.89	43.366	4.1888e-05	118.9	315.720	82.568	121.365	33.614	186.880	192.494	33.990	38.242	177.193	164.990	37.643	41.137	40.863	44.544	155.923	44.279	-8191	255	
1665.376	1	1	0	0	0.23727	0.038026	0.10086	0.10698	0.18445	0.12941	0.10249	0.18079	0.15986	0.14795	0.1823	0.26944	0.34057	0.066682	0.21635	0.11251	-2.9042	-3.1896	-2.8125	-3.6167	-2.7812	-2.9688	-3.6458	-2.8271	-3.3063	-3.3312	-3.0312	-3.65	-2.9562	-3.0729	-3.5208	-2.9229	297.952	121.835	218.292	293.147	119.746	216.500	61.703	341.167	26.229	350.256	341.452	275.723	275.437	77.453	331.513	375.766	0.0020393	0.0010572	0.00028716	942.57	3.6707e-06	1.455e-05	1404.3	289.93	8.5605e-06	1.1178e-05	627.4	275	119.23	46.791	8.4386e-06	130.01	0.0029749	0.0040714	0.0011361	844.8	3.9364e-05	4.637e-05	1252.3	260.72	3.801e-05	4.5431e-05	564.2	246.51	107.62	42.774	4.2567e-05	117.63	314.262	109.789	116.913	33.813	167.077	175.825	34.028	37.918	199.045	192.976	37.391	41.248	40.930	44.763	166.672	44.324	-8191	255	
1665.495	1	1	0	0	0.18089	0.16843	0.12129	0.22118	0.11928	0.23926	0.33619	0.13611	0.24705	0.1927	0.16902	0.055088	0.37895	0.33615	0.10893	0.14243	-2.7292	-3.1229	-2.8479	-3.6708	-3.0542	-2.8729	-3.7896	-2.9833	-3.1833	-3.3042	-2.9521	-3.7729	-3.1917	-2.9021	-3.4813	-2.9646	349.955	168.349	322.136	331.156	154.274	54.632	327.851	331.021	362.360	83.916	317.767	78.727	24.701	336.293	188.452	321.600	0.002015	0.0010884	0.0002781	935.83	1.2714e-05	8.2843e-06	1399	289.78	1.4472e-05	1.0323e-05	625.2	275.95	118.97	47.519	4.2147e-06	129.87	0.0029945	0.0040368	0.0011362	840.27	3.9659e-05	4.4739e-05	1246.9	259.27	3.7732e-05	4.3792e-05	562.93	246.45	107.58	42.998	4.1479e-05	117.66	309.434	106.853	106.590	33.802	160.924	145.380	34.058	38.355	217.982	188.030	37.485	41.078	40.966	44.727	186.986	44.200	-8191	255	
1665.591	1	1	0	0	0.069078	0.22362	0.058799	0.10664	0.13667	0.10871	0.090241	0.090102	0.12933	0.13307	0.14852	0.22744	0.31982	0.17756	0.22714	0.26723	-2.8104	-3.4229	-2.7625	-3.4083	-3.0917	-2.9167	-3.8125	-3.1333	-3.1521	-3.3521	-2.9042	-3.6646	-3.3438	-2.7687	-3.4479	-3.0687	337.148	372.120	29.064	216.300	142.066	235.789	339.556	343.910	110.614	49.020	43.355	362.655	346.577	51.455	52.580	291.737	0.002222	0.00079252	0.00036196	946.15	1.3209e-05	1.1593e-05	1408	289.18	1.9029e-05	8.3788e-06	629.68	276.01	119.8	47.287	1.3075e-05	130.46	0.0029609	0.0040295	0.0011328	844.76	3.887e-05	4.5279e-05	1252.7	259.47	3.9349e-05	4.36e-05	564.16	246.82	107.81	42.947	4.1018e-05	118.16	307.431	80.005	108.867	33.783	173.659	194.304	33.727	38.257	218.743	204.933	37.650	40.826	41.223	44.670	196.426	44.292	-8191	255	
1665.687	1	1	0	0	0.085297	0.089984	0.15264	0.19591	0.078199	0.13033	0.21717	0.1567	0.12657	0.14778	0.26824	0.27893	0.11981	0.25224	0.1569	0.44511	-2.6917	-3.5125	-2.7083	-3.4292	-3.3646	-2.75	-3.4646	-3.0604	-3.1479	-3.5958	-2.8875	-3.5333	-3.3	-2.7167	-3.5146	-3.1333	113.078	272.350	284.545	306.754	169.392	246.214	319.060	181.996	208.515	258.640	286.733	333.415	41.256	311.937	131.337	329.299	0.0022888	0.00076881	0.00027203	944.74	9.5135e-06	8.0974e-06	1413	289.87	1.2992e-05	3.4896e-06	633.72	278.38	120.88	46.927	1.356e-05	130.49	0.0030413	0.003964	0.001135	845.52	3.8987e-05	4.5684e-05	1257.2	259.74	3.9144e-05	4.4023e-05	568	248.3	108.1	42.823	4.0288e-05	117.9	322.216	80.111	102.206	33.957	134.452	191.197	34.157	37.653	246.013	158.836	37.388	40.967	41.482	44.921	150.950	43.943	-8191	255	
1665.808	1	1	0	0	0.057024	0.068734	0.19675	0.28611	0.10047	0.10369	0.31388	0.22906	0.12027	0.092289	0.15256	0.11284	0.21061	0.15161	0.099004	0.1861	-2.6396	-3.5	-2.5771	-3.2958	-3.1125	-2.775	-3.4062	-3.2125	-2.8542	-3.5354	-2.9583	-3.2125	-3.2812	-3.0312	-3.3729	-3.4188	192.110	290.516	258.717	280.130	310.129	127.733	371.524	364.236	117.403	175.730	23.929	308.879	328.863	272.752	142.120	262.549	0.0024668	0.00071586	0.00036361	946.74	1.0048e-05	1.1375e-05	1408.6	287.67	1.2349e-05	7.2345e-06	624.23	273.32	119	46.776	1.2911e-05	129.7	0.0029841	0.0041039	0.0011018	843.57	3.9433e-05	4.4839e-05	1252.3	258.92	3.8695e-05	4.4243e-05	562.04	245.89	107.18	42.488	4.1418e-05	117.36	315.042	115.015	120.645	33.607	180.552	219.227	34.014	38.322	146.729	121.672	37.228	40.756	40.958	45.093	182.511	44.247	-8191	255	
1665.904	1	1	0	0	0.30181	0.18404	0.064439	0.15503	0.22656	0.10441	0.38372	0.17313	0.12867	0.18214	0.15432	0.33091	0.072644	0.12484	0.16834	0.11992	-2.3958	-3.4188	-2.7417	-3.1125	-3.3833	-2.625	-3.6229	-3.25	-2.9125	-3.55	-3.0875	-3.0542	-3.5687	-2.8042	-3.4021	-3.4146	232.788	357.468	172.650	187.871	309.507	194.211	325.355	345.158	185.096	298.144	360.013	325.912	303.095	321.345	268.374	355.111	0.0022783	0.00090163	0.00024411	946.9	7.0784e-06	1.4498e-05	1398.9	289.67	1.2291e-05	1.4625e-05	625.57	275.39	119.13	47.08	1.2011e-05	130.43	0.0029444	0.0041217	0.001096	846.15	3.9626e-05	4.471e-05	1252.4	259.34	3.8812e-05	4.439e-05	563.54	246.43	107.5	42.685	4.1623e-05	117.7	318.025	97.750	110.486	33.568	189.011	187.390	33.985	37.900	181.335	153.244	37.209	41.174	41.120	44.969	164.399	44.089	-8191	255	
1665.976	1	1	0	0	0.29258	0.045819	0.099603	0.1773	0.12802	0.14684	0.19101	0.073783	0.059649	0.25333	0.24521	0.31993	0.15063	0.12372	0.091862	0.26655	-2.2062	-3.4521	-2.8187	-3.1042	-3.4583	-2.7562	-3.4229	-3.3021	-2.6521	-3.6396	-3.1104	-3.0792	-3.6229	-2.7979	-3.2604	-3.6167	262.076	96.406	101.571	373.939	26.672	102.429	265.246	110.521	347.000	289.050	297.042	291.413	326.215	84.527	264.460	254.253	0.0022803	0.0015598	0.00027433	946.41	1.1444e-05	7.8575e-06	1412.5	290.74	2.7239e-05	7.6212e-06	626.38	275.24	119.21	46.765	1.2912e-05	130.52	0.0030433	0.0039564	0.001143	846.15	3.8208e-05	4.5553e-05	1255.4	260.41	3.8798e-05	4.5037e-05	564.17	246.76	107.72	42.617	4.1601e-05	117.87	309.202	104.633	122.211	33.908	190.803	152.964	34.018	37.813	188.134	211.617	37.508	41.035	41.452	44.580	182.376	44.243	-8191	255	
1666.097	1	1	0	0	0.14303	0.21897	0.017064	0.050791	0.13783	0.038867	0.2095	0.052965	0.16171	0.25256	0.22393	0.23669	0.28102	0.24222	0.072982	0.19909	-2.2729	-3.2917	-2.8646	-2.8042	-3.4813	-2.8708	-3.2188	-3.2875	-2.7354	-3.3563	-3.3625	-2.7938	-3.6188	-2.9271	-3.0833	-3.6333	236.329	44.484	202.927	85.694	359.580	266.845	318.977	231.981	37.166	175.346	275.269	373.443	59.109	325.974	223.826	354.066	0.0022626	0.0019008	0.00028964	945.83	1.5546e-05	4.9079e-06	1407.7	291.42	1.2806e-05	4.3942e-06	627.87	276.6	119.86	46.452	8.0229e-06	128.94	0.0030235	0.0041049	0.0011205	849.67	3.8592e-05	4.5256e-05	1257.6	261.08	3.8228e-05	4.5238e-05	566.13	247.23	107.93	42.513	4.1618e-05	117.14	312.520	119.555	151.526	33.924	155.262	112.795	34.408	37.739	166.924	155.329	37.581	40.854	41.035	44.258	183.182	44.050	-8191	255	
1666.191	1	1	0	0	0.082066	0.3172	0.13109	0.29995	0.2561	0.13826	0.12056	0.072271	0.27226	0.22062	0.2199	0.19501	0.18574	0.2095	0.076316	0.1901	-2.3292	-3.2938	-3.0062	-2.6875	-3.5208	-2.7833	-3.05	-3.4104	-2.6708	-3.2729	-3.3542	-2.9688	-3.525	-3.0146	-3.0979	-3.5792	165.937	331.840	50.706	43.890	187.516	245.156	313.046	302.498	160.159	301.954	344.031	322.177	283.725	320.757	331.895	316.803	0.0023974	0.0012631	0.00035576	949.45	1.8179e-05	1.2246e-05	1408.2	288.28	1.416e-05	4.9081e-06	620.12	272.78	118.19	46.573	1.7712e-05	128.79	0.0030211	0.00392	0.0011105	844.22	3.9307e-05	4.5414e-05	1250.5	259.01	3.8368e-05	4.4884e-05	560.4	244.55	106.74	42.3	4.1415e-05	116.49	313.710	80.167	119.970	33.674	127.298	161.264	34.389	38.075	183.025	183.046	37.833	40.994	41.069	44.561	188.789	43.896	-8191	255	
1666.287	1	1	0	0	0.022153	0.1197	0.32875	0.35386	0.34393	0.18566	0.1985	0.22955	0.11351	0.21648	0.1643	0.19698	0.31066	0.10497	0.15423	0.18771	-2.3583	-3.1396	-3.1375	-2.9146	-3.4521	-2.9729	-3.1521	-3.5167	-2.7042	-3.1292	-3.4104	-3.0021	-3.5979	-3.1937	-2.8396	-3.7771	37.553	120.687	357.666	324.982	88.194	126.762	268.779	339.303	170.402	59.782	22.572	61.971	351.024	53.180	55.873	284.704	0.0022686	0.0015147	7.5086e-05	940.26	5.5795e-06	1.1089e-05	1394.1	285.75	8.8305e-06	1.1307e-05	621.01	272.17	118.45	46.417	5.9816e-06	129.16	0.0029517	0.0040095	0.0011241	840.43	3.8124e-05	4.4452e-05	1245.2	257.41	3.8108e-05	4.6086e-05	559.91	243.8	106.82	42.181	4.1713e-05	116.53	309.026	111.716	124.020	33.386	136.505	168.242	33.631	37.629	147.112	219.152	37.188	40.641	40.890	44.320	98.279	43.647	-8191	255	
1666.383	1	1	0	0	0.047994	0.081872	0.19445	0.28894	0.10968	0.18089	0.20505	0.12204	0.19881	0.21732	0.17949	0.20666	0.28463	0.10421	0.12596	0.13158	-2.4458	-3.1063	-3.2125	-2.9458	-3.425	-3.0771	-3.0146	-3.5375	-2.7646	-3.0146	-3.5375	-2.6625	-3.5542	-3.2042	-2.8	-3.5958	23.952	311.146	371.214	346.312	277.584	289.896	324.828	330.666	148.992	278.922	367.097	80.900	294.003	70.947	276.973	304.598	0.0024279	0.00090678	0.00026336	937.23	8.5063e-06	1.1886e-05	1403.2	286.38	1.0142e-05	1.3446e-05	617.36	273.26	118.5	46.597	1.1381e-05	129.64	0.0029734	0.0040975	0.0011314	841.34	3.9504e-05	4.4856e-05	1248.2	257.42	3.8453e-05	4.592e-05	558.77	244.56	106.73	42.349	4.2017e-05	117.07	319.493	102.248	94.991	33.619	176.163	175.284	33.970	37.872	202.079	153.688	37.031	40.507	41.022	44.402	120.819	43.845	-8191	255	
1666.479	1	1	0	0	0.064353	0.2343	0.18921	0.3564	0.2099	0.13791	0.23668	0.34997	0.18819	0.28774	0.14976	0.485	0.14166	0.10766	0.27744	0.36488	-2.4562	-2.9896	-3.3667	-2.8229	-3.2542	-3.4021	-2.8729	-3.7042	-2.9771	-2.8854	-3.5479	-2.8208	-3.1958	-3.5396	-2.6875	-3.7208	20.577	335.778	358.710	216.249	351.913	174.869	324.401	294.401	35.550	107.416	375.242	350.001	349.324	315.932	29.369	298.888	0.0022556	0.0011196	0.00026115	938.46	5.3388e-06	9.3117e-06	1398.9	289.22	1.3621e-05	8.7151e-06	620.66	271.27	118.23	46.219	1.3973e-05	128.65	0.0029794	0.0040734	0.0011156	841.03	4.0297e-05	4.5035e-05	1249.1	258.37	3.7665e-05	4.5645e-05	560.28	244	106.49	42.053	4.1993e-05	116.7	313.579	93.316	112.762	33.389	165.247	114.663	33.751	37.648	239.132	172.088	37.395	40.651	41.064	44.251	178.584	44.081	-8191	255	
1666.600	1	1	0	0	0.10249	0.13196	0.29828	0.049152	0.2082	0.15989	0.35079	0.097676	0.15987	0.06367	0.082454	0.29081	0.187	0.17683	0.040867	0.18919	-2.6167	-2.8708	-3.4813	-2.7646	-3.1604	-3.4125	-2.9646	-3.4271	-3.075	-2.8042	-3.8063	-2.8646	-3.3083	-3.4437	-2.575	-3.5958	377.342	181.145	341.593	48.471	287.930	289.153	224.312	351.225	345.859	232.098	346.862	311.217	25.501	29.096	120.337	289.132	0.0025688	0.0015138	0.00033164	940.34	1.2417e-05	9.924e-06	1391.9	284.76	1.6576e-05	9.0982e-06	620.18	268.6	117.31	46.411	1.0615e-05	127.43	0.0030683	0.0041904	0.0011339	842.35	3.9457e-05	4.469e-05	1241.6	255.6	3.8346e-05	4.6378e-05	557.07	241.78	105.88	42.093	4.2581e-05	115.6	315.170	107.850	127.500	33.497	178.169	146.288	33.984	37.833	226.148	178.680	36.946	40.636	41.000	44.264	163.213	43.891	-8191	255	
1666.672	1	1	0	0	0.15377	0.18809	0.133	0.15769	0.070515	0.038326	0.23268	0.15633	0.13755	0.060924	0.28112	0.32429	0.29506	0.18644	0.2027	0.30128	-2.8042	-2.7125	-3.5125	-2.8729	-3.0208	-3.4771	-2.8146	-3.4396	-3	-2.7479	-3.6	-3.1208	-2.9708	-3.6042	-2.7188	-3.4396	104.745	340.470	293.299	150.228	260.559	197.447	377.990	295.518	192.147	36.699	379.069	326.072	267.036	302.743	107.495	377.304	0.0021563	0.00037229	0.00024941	934.2	1.6958e-05	1.103e-05	1393.1	284.67	1.1377e-05	8.521e-06	619.31	270.89	117.94	46.483	9.8727e-06	128.61	0.0029865	0.0041076	0.0010685	837.1	4.0208e-05	4.3882e-05	1243.6	256.28	3.8092e-05	4.6036e-05	557.18	242.81	106.08	42.283	4.0437e-05	116.51	317.246	101.220	141.048	33.089	184.535	174.977	33.739	37.832	185.232	245.352	37.107	40.603	40.789	44.122	172.373	43.970	-8191	255	
1666.768	1	1	0	0	0.26109	0.088911	0.1069	0.2502	0.16116	0.21981	0.40472	0.073897	0.17558	0.14868	0.57984	0.26507	0.38708	0.15183	0.050728	0.10767	-2.9104	-2.7521	-3.2646	-2.9125	-2.9646	-3.5563	-2.775	-3.3937	-3.3021	-2.7833	-3.5938	-3.1188	-2.8792	-3.6688	-2.8729	-3.2854	257.363	223.890	96.883	22.258	138.574	78.229	365.303	310.898	360.595	279.148	326.749	366.974	334.339	123.037	195.456	305.521	0.0022903	0.00086147	0.00014217	937.38	4.2358e-06	7.6403e-06	1403.2	287.66	1.1882e-05	4.5442e-06	621.98	270.64	118.11	46.765	1.4306e-05	128.69	0.0029187	0.0041103	0.0011111	839.81	4.0817e-05	4.2746e-05	1249.4	257.84	3.7585e-05	4.5977e-05	560.45	243.59	106.34	42.28	4.1928e-05	116.74	316.792	115.385	134.955	33.642	186.601	105.780	33.895	38.220	183.380	215.246	37.614	40.877	41.346	44.410	154.649	44.069	-8191	255	
1666.888	1	1	0	0	0.12373	0.15479	0.21083	0.18105	0.031648	0.18497	0.25915	0.055463	0.18049	0.15301	0.20123	0.33229	0.15147	0.12242	0.18509	0.18936	-2.9062	-2.5875	-3.2917	-3.1792	-2.7812	-3.5646	-2.8708	-3.0167	-3.5312	-2.8208	-3.5396	-3.3854	-2.8646	-3.5667	-2.8854	-3.3396	79.537	54.297	166.073	25.399	148.257	158.772	342.616	238.280	136.192	363.937	270.199	365.056	359.528	296.942	149.981	304.259	0.002467	0.0013106	0.00020917	936.5	6.2734e-06	6.9649e-07	1388.4	285.26	1.5853e-05	9.9934e-06	618.11	271.11	116.92	46.068	6.8918e-06	127.36	0.002999	0.0040802	0.0011289	841.11	3.9979e-05	4.4494e-05	1244.7	256.66	3.7233e-05	4.5818e-05	556.86	242.57	105.56	41.859	4.282e-05	115.43	318.710	74.197	130.871	33.777	156.196	167.346	33.909	38.288	247.231	143.648	37.581	40.849	40.975	44.511	137.455	44.089	-8191	255	
1666.985	1	1	0	0	0.15457	0.14191	0.12794	0.34088	0.22065	0.086918	0.16074	0.18188	0.20671	0.2372	0.11639	0.096722	0.14452	0.052278	0.25548	0.062881	-2.9125	-2.7229	-3.3146	-3.1813	-2.6375	-3.3688	-3.0604	-2.8542	-3.5625	-2.6958	-3.3625	-3.3854	-2.85	-3.5854	-2.9125	-3.2438	153.201	205.134	208.175	49.606	237.334	359.134	174.705	305.474	293.106	129.326	35.550	292.196	212.858	61.103	310.710	259.917	0.0024296	0.00053614	0.00031158	929.38	9.521e-06	5.1533e-06	1382.7	281.31	1.1293e-05	5.2492e-06	615.5	267.31	115.72	45.878	4.9442e-06	126.74	0.0029827	0.0041269	0.0011268	833.37	4.0036e-05	4.5261e-05	1234	253.84	3.867e-05	4.5518e-05	551.87	239.92	104.36	41.498	4.1362e-05	114.56	315.528	134.978	128.068	33.311	194.137	199.404	33.745	37.809	220.668	164.202	37.409	40.834	40.938	44.540	262.387	43.734	-8191	255	
1667.081	1	1	0	0	0.054022	0.25351	0.13435	0.31485	0.038283	0.037975	0.40668	0.15038	0.18538	0.06987	0.17485	0.299	0.073967	0.087844	0.14659	0.23818	-3.1729	-2.7604	-3.0396	-3.5	-2.7062	-3.4271	-3.1354	-2.8417	-3.5187	-2.6729	-3.1854	-3.5187	-2.9667	-3.4667	-3.0521	-3.1333	212.992	296.615	350.653	303.750	123.431	350.517	337.097	367.165	273.715	109.795	339.353	20.519	204.971	243.674	324.476	296.960	0.0025255	0.00051454	0.00030728	931.22	1.1194e-05	1.3923e-05	1381.1	282.32	1.6092e-05	7.6817e-06	617.33	266.7	116.17	45.578	5.2683e-06	126.36	0.0029063	0.0040202	0.0011578	834	4.0068e-05	4.6261e-05	1233.8	254.21	3.761e-05	4.6139e-05	553.64	240.1	104.69	41.507	4.193e-05	114.7	301.386	147.533	122.494	33.542	143.695	153.978	33.943	37.845	191.116	146.778	37.207	40.673	41.429	44.723	146.009	44.146	-8191	255	
1667.177	1	1	0	0	0.17674	0.038595	0.13793	0.076493	0.16302	0.084085	0.24547	0.18675	0.13676	0.12123	0.086027	0.21812	0.28271	0.22457	0.17488	0.4595	-2.9458	-2.7667	-3.1229	-3.4979	-2.7313	-3.3146	-3.1604	-3.0917	-3.4792	-2.8104	-3.025	-3.8	-2.7083	-3.4688	-3.1688	-2.85	72.072	146.638	375.308	308.778	143.697	179.179	231.869	288.328	295.998	216.325	343.223	284.365	340.620	306.801	348.866	329.699	0.0022121	0.0014087	0.0002425	932.31	1.3738e-05	1.9058e-06	1386.7	282.98	1.454e-05	7.7316e-06	616.61	269.02	116.97	45.779	9.612e-06	127.3	0.0029861	0.004107	0.0011345	833.65	3.9666e-05	4.5297e-05	1236.9	255.04	3.8091e-05	4.6136e-05	555.86	242.09	105.24	41.586	4.1586e-05	115.24	313.606	126.993	125.568	33.379	177.780	324.963	33.815	37.817	189.132	169.181	37.538	40.828	41.182	44.993	169.692	44.734	-8191	255	
1667.273	1	1	0	0	0.090818	0.17083	0.2112	0.12418	0.35324	0.063932	0.098142	0.079303	0.16957	0.12445	0.12212	0.23683	0.16296	0.13264	0.19058	0.23655	-3.15	-2.7896	-2.7104	-3.5938	-2.6958	-3.3833	-3.275	-2.6979	-3.2188	-3.0396	-3.0271	-3.7042	-2.8	-3.1604	-3.4854	-2.8479	354.032	365.131	286.476	321.800	67.755	211.736	332.676	277.031	218.586	108.292	48.230	361.754	375.994	148.017	25.391	318.677	0.0024039	0.0011854	0.00010313	931.26	8.8674e-06	1.6541e-06	1389.8	283.43	1.1126e-05	1.2304e-05	615.14	268.82	115.82	45.781	1.438e-05	126.81	0.0029586	0.0040376	0.0011439	835.34	4.062e-05	4.69e-05	1241.8	255.31	3.9087e-05	4.6517e-05	553.79	240.62	104.6	41.458	4.2017e-05	114.35	311.584	108.310	131.868	33.458	143.112	183.457	33.886	37.906	204.686	156.057	37.480	40.965	41.351	44.504	182.608	44.141	-8191	255	
1667.367	1	1	0	0	0.078861	0.20498	0.071117	0.26691	0.19287	0.15305	0.17107	0.27662	0.31103	0.082085	0.28841	0.17175	0.13438	0.23105	0.09812	0.25633	-3.0438	-3.05	-2.9125	-3.6667	-2.7604	-3.1813	-3.575	-3	-3.4813	-2.9875	-3.0458	-3.6667	-2.8	-3.0833	-3.4562	-2.9229	246.280	197.951	370.188	319.492	267.709	366.133	327.966	28.447	314.267	209.972	20.391	127.110	355.796	358.166	251.346	43.410	0.0022356	0.00096649	0.00037902	927.17	8.0102e-06	3.4798e-06	1381.8	282.33	1.1795e-05	4.075e-06	612.34	265.29	115.46	45.234	1.2446e-05	125.61	0.0029324	0.0040258	0.0011234	832.87	3.9878e-05	4.6118e-05	1232	253.67	3.8887e-05	4.4318e-05	550.35	238.06	103.74	41.159	4.0087e-05	113.85	311.837	108.643	143.789	33.761	188.571	100.803	33.941	38.152	194.355	139.204	37.343	40.660	40.809	44.791	143.607	44.093	-8191	255	
1667.488	1	1	0	0	0.0648	0.061989	0.25438	0.24352	0.12024	0.21389	0.14296	0.28332	0.084929	0.16507	0.11732	0.14789	0.23147	0.30169	0.23102	0.40559	-2.9542	-3.0938	-2.7333	-3.6771	-2.8625	-2.975	-3.675	-2.8812	-3.3312	-3.0708	-2.8979	-3.3917	-2.9292	-2.85	-3.4479	-2.8375	118.780	225.896	255.847	150.268	251.560	61.724	302.827	348.967	288.158	34.329	47.521	324.171	338.380	72.771	47.997	327.129	0.0026001	0.0010172	0.0002191	929.77	1.8712e-05	1.0068e-05	1382.8	282.29	1.7747e-05	5.8832e-06	616.12	266.32	115.3	45.341	1.1039e-05	125.06	0.0029988	0.0041081	0.0011202	834.27	3.9818e-05	4.5615e-05	1233.5	253.61	3.863e-05	4.4484e-05	552.12	238.87	104.08	41.127	3.9845e-05	113.44	314.056	139.086	133.725	33.864	194.568	190.560	34.016	37.878	164.182	200.023	37.518	41.046	41.229	44.614	128.555	44.346	-8191	255	
1667.584	1	1	0	0	0.15715	0.1326	0.062649	0.22877	0.15519	0.15949	0.21657	0.22391	0.1052	0.21097	0.20349	0.25558	0.14276	0.10141	0.0064715	0.13613	-2.9417	-3.2229	-2.8438	-3.5312	-3.0521	-2.875	-3.6167	-2.9	-3.0563	-3.4167	-2.8667	-3.5958	-3.2104	-2.8875	-3.6271	-3.0438	85.409	270.070	161.239	359.518	59.524	143.587	22.376	250.502	120.442	113.809	120.473	291.446	21.646	334.935	175.844	268.017	0.0024907	0.0008505	6.7867e-05	931.35	1.1019e-05	6.6208e-06	1378.3	281.82	1.5034e-05	7.8564e-06	616.06	268.51	115.63	45.409	7.953e-06	126.44	0.0030626	0.0040097	0.0011217	834.53	3.9483e-05	4.3966e-05	1235.3	254.39	3.8574e-05	4.5121e-05	554.2	240.55	104.47	41.124	3.9967e-05	114.21	314.335	61.211	157.056	33.955	187.215	198.686	34.159	37.978	168.990	136.327	37.791	40.974	40.926	44.900	178.349	44.104	-8191	255	
1667.680	1	1	0	0	0.024648	0.073726	0.084111	0.078971	0.13964	0.19948	0.045125	0.18311	0.22476	0.040851	0.1584	0.29043	0.074131	0.18821	0.053576	0.35631	-2.6979	-3.2479	-2.8063	-3.5917	-3.0375	-2.8187	-3.6312	-3.0958	-2.95	-3.4479	-2.7333	-3.4583	-3.3375	-2.9979	-3.5979	-2.9958	119.398	145.303	180.213	21.685	130.923	52.127	35.646	379.331	231.390	271.345	289.808	320.994	288.056	27.710	316.179	349.608	0.0022767	0.00046016	0.00035362	930.84	3.8899e-06	8.8974e-06	1388.7	284.93	1.468e-05	7.6544e-06	619.8	267.54	116.29	44.487	4.2575e-06	124.93	0.0030519	0.0040097	0.0011585	836.39	3.8984e-05	4.4996e-05	1239.9	254.53	3.8962e-05	4.5744e-05	555.54	240.42	104.59	40.63	4.0918e-05	113.12	314.121	82.071	86.847	33.530	230.932	210.352	34.022	37.995	171.728	158.385	37.139	41.134	41.035	44.373	168.312	44.075	-8191	255	
1667.777	1	1	0	0	0.21301	0.081327	0.078223	0.12822	0.15893	0.18993	0.064294	0.36626	0.22063	0.19321	0.065744	0.18799	0.34721	0.17014	0.10185	0.084685	-2.5	-3.3229	-2.7375	-3.3792	-3.1813	-2.6125	-3.7042	-2.9375	-2.9333	-3.6188	-2.9083	-3.4792	-3.5167	-2.8646	-3.3833	-3.2938	20.154	274.047	179.083	318.062	172.771	40.570	90.238	341.555	147.437	234.040	234.083	347.169	354.625	49.495	271.080	346.115	0.0023082	0.00061787	0.00038012	924.18	1.1376e-05	1.0469e-05	1383.5	282.24	9.3671e-06	5.037e-06	612.47	266.37	115.3	45.165	1.3549e-05	125.67	0.0030126	0.0039487	0.0011251	829.62	3.8539e-05	4.4563e-05	1233.6	253.23	3.7416e-05	4.3544e-05	552.03	239.35	103.97	40.975	4.086e-05	113.84	318.802	57.094	112.632	33.308	198.338	197.949	33.639	38.119	232.932	151.214	37.270	40.824	41.131	44.196	173.810	43.899	-8191	255	
1667.897	1	1	0	0	0.20995	0.16201	0.028903	0.16557	0.13372	0.09243	0.12913	0.3033	0.090881	0.13685	0.14912	0.27199	0.071937	0.40008	0.20414	0.159	-2.4479	-3.6375	-2.8521	-3.4396	-3.5583	-2.8187	-3.7354	-3.0708	-2.8146	-3.4292	-3.075	-3.2979	-3.5104	-2.8708	-3.4688	-3.4979	165.616	127.946	332.981	308.329	347.655	153.524	347.039	276.130	308.379	87.858	47.684	346.584	376.666	23.279	76.500	248.077	0.0027404	0.00096813	0.00031017	933.45	1.4793e-05	7.3534e-06	1397	284.43	5.8541e-06	1.077e-05	620.47	270.6	116.57	45.835	2.1346e-06	127.35	0.0029279	0.0038604	0.0011138	835.24	3.7996e-05	4.409e-05	1244.7	255.1	3.7243e-05	4.3926e-05	556.28	241.92	104.85	41.786	4.0888e-05	115.5	308.461	89.571	101.878	33.893	214.374	171.162	34.059	37.830	171.869	123.038	37.148	41.136	41.396	44.421	244.809	44.025	-8191	255	
1667.969	1	1	0	0	0.14516	0.27177	0.14201	0.10736	0.086683	0.052351	0.22141	0.082178	0.077425	0.067346	0.25027	0.29067	0.23044	0.088627	0.15227	0.30473	-2.325	-3.5062	-2.8896	-3.3208	-3.475	-2.6958	-3.5563	-3.3187	-2.7188	-3.6604	-3.0938	-2.95	-3.3292	-2.8312	-3.2583	-3.4375	223.908	134.910	368.837	364.137	291.862	247.990	313.992	312.327	318.672	102.310	312.044	375.127	344.275	259.173	208.751	279.128	0.0022988	0.0010378	0.00017867	947.73	1.224e-05	1.1003e-05	1398.9	284.72	1.6605e-05	4.5529e-06	620.99	270.04	117.17	45.776	1.6197e-05	128.46	0.0029253	0.0039603	0.0011312	843.81	3.7823e-05	4.4875e-05	1249.4	255.9	3.7767e-05	4.4807e-05	559.12	242.69	105.47	41.816	4.2135e-05	116.15	317.285	103.289	168.652	33.783	191.835	156.815	33.905	37.906	169.472	167.122	37.521	41.239	41.520	44.625	187.655	44.191	-8191	255	
1668.065	1	1	0	0	0.13316	0.10048	0.15674	0.21941	0.064583	0.16236	0.25322	0.15903	0.31843	0.080473	0.14168	0.20498	0.1934	0.15447	0.12934	0.24335	-2.4625	-3.4313	-3.1188	-3.1167	-3.4667	-2.6458	-3.325	-3.3208	-2.7771	-3.4562	-3.3458	-3.1979	-3.5271	-2.9958	-3.2208	-3.4771	42.276	49.397	204.815	343.943	49.876	209.479	349.928	302.365	317.104	146.955	75.133	297.502	197.590	315.071	143.991	339.330	0.0021523	0.00037631	0.00017027	936.41	8.5476e-06	1.0613e-05	1401.4	283.84	1.6224e-05	7.5976e-06	621.51	270.49	117.35	45.834	1.4459e-05	127.39	0.0029365	0.0040187	0.0011159	843.13	3.8711e-05	4.3911e-05	1249.8	255.75	3.8623e-05	4.4839e-05	558.02	242.62	105.47	41.705	4.1065e-05	115.25	316.848	43.209	90.606	33.786	163.886	171.110	34.216	37.836	192.965	188.668	37.175	40.949	41.165	44.578	170.257	43.901	-8191	255	
1668.161	1	1	0	0	0.22262	0.3124	0.072817	0.060223	0.25394	0.02298	0.29004	0.14579	0.14285	0.08463	0.074081	0.40892	0.13534	0.26816	0.011209	0.17359	-2.4062	-3.5021	-2.9208	-2.7646	-3.4688	-2.975	-3.3396	-3.5292	-2.7708	-3.3917	-3.3333	-3.2042	-3.7354	-3.0625	-3.075	-3.7354	214.916	213.192	365.252	343.181	202.523	148.260	345.283	317.027	336.549	230.012	353.204	330.832	338.562	48.635	83.751	22.345	0.0024553	0.0012162	9.639e-05	937.3	9.0341e-06	9.2415e-06	1398.4	285.41	1.2959e-05	1.2586e-05	618.55	269.89	116.62	45.781	1.3684e-05	127.5	0.0029519	0.003938	0.0010957	838.47	3.8003e-05	4.3649e-05	1245.9	255.69	3.7306e-05	4.4293e-05	556	241.77	105.05	41.727	4.1132e-05	115.35	318.113	38.797	163.384	34.202	91.929	130.206	34.184	37.920	197.718	168.196	37.227	40.874	41.026	44.291	150.271	43.996	-8191	255	
1668.280	1	1	0	0	0.12855	0.074516	0.0598	0.20518	0.28693	0.20008	0.25532	0.16672	0.10093	0.17437	0.22422	0.3129	0.19902	0.42435	0.11408	0.25121	-2.4167	-3.4583	-3.1354	-2.9771	-3.5062	-2.9625	-3.2396	-3.5875	-2.8646	-3.3312	-3.4646	-2.8979	-3.4042	-2.925	-2.9333	-3.6646	345.676	140.743	144.345	354.698	192.001	55.982	307.300	247.624	357.487	185.906	338.573	329.024	26.448	312.970	127.253	359.066	0.0021769	0.00039806	0.00032998	940.65	8.6944e-06	3.983e-06	1397.4	284.54	1.7775e-05	7.6873e-06	619.69	269.25	116.56	45.778	1.2392e-05	128.43	0.0029281	0.0038478	0.0010725	839.92	3.8628e-05	4.2857e-05	1245.3	255.47	3.7341e-05	4.3425e-05	556.29	242.1	105.22	41.752	4.1547e-05	115.96	316.881	81.988	94.542	34.189	192.275	255.827	34.363	38.187	177.065	171.852	37.379	41.010	41.552	44.456	160.769	43.967	-8191	255	
1668.376	1	1	0	0	0.21861	0.12924	0.10966	0.1291	0.10788	0.14354	0.18239	0.29721	0.19713	0.031562	0.39842	0.42119	0.21385	0.20011	0.27546	0.067649	-2.2896	-3.4125	-3.4729	-2.8542	-3.3229	-3.2	-2.9646	-3.5563	-2.8125	-3.2417	-3.5167	-2.9062	-3.5292	-3.4229	-2.7188	-3.75	170.243	62.965	326.198	272.144	290.332	151.839	20.777	292.546	175.439	304.647	307.624	367.752	351.590	304.653	156.497	360.444	0.002498	0.00028245	0.00017644	941.28	7.2189e-06	9.0137e-06	1401.2	285.62	1.279e-05	4.6463e-06	626.15	271.59	117.67	45.692	6.0339e-06	128.47	0.0028876	0.0039465	0.0010602	841.08	3.8868e-05	4.3585e-05	1250.2	256.69	3.705e-05	4.4188e-05	561.34	243.59	105.55	41.554	4.1012e-05	116	315.789	131.401	69.789	33.932	149.087	141.637	34.059	38.249	220.972	192.259	38.246	41.067	41.602	44.616	186.258	43.868	-8191	255	
1668.472	1	1	0	0	0.26268	0.10315	0.15639	0.17534	0.22824	0.12798	0.43537	0.11335	0.3868	0.1254	0.058467	0.52801	0.12706	0.27876	0.15098	0.17673	-2.4167	-3.1771	-3.4146	-2.8625	-3.3667	-2.9729	-2.9792	-3.4521	-2.975	-3.0396	-3.5375	-2.9583	-3.4	-3.4	-2.6479	-3.725	284.824	231.629	292.754	345.665	339.186	144.682	337.813	300.754	180.498	378.436	350.597	298.996	328.440	354.607	32.384	283.031	0.0022747	0.00021511	0.00035083	948.86	1.2975e-05	2.1587e-06	1400.3	286.43	1.0253e-05	7.2619e-06	621.7	271.45	116.48	45.469	1.0979e-05	127.19	0.0029063	0.0039584	0.0010878	843.34	3.8622e-05	4.3477e-05	1249.7	257.35	3.7705e-05	4.4004e-05	560.02	243.08	105.47	41.298	3.9979e-05	115	315.552	82.910	127.185	33.442	147.139	68.681	33.469	38.137	193.961	147.765	37.321	40.731	41.029	44.328	168.727	43.452	-8191	255	
1668.568	1	1	0	0	0.21142	0.29849	0.11845	0.27544	0.17014	0.079626	0.045022	0.13629	0.17249	0.15282	0.069901	0.39205	0.28263	0.063197	0.088128	0.14741	-2.4479	-2.9625	-3.4521	-2.7292	-3.2562	-3.35	-2.9208	-3.35	-3.0833	-2.9125	-3.7104	-2.975	-3.3438	-3.4188	-2.6771	-3.6104	290.749	307.946	249.729	258.609	307.596	274.167	21.729	339.540	202.085	41.361	28.047	302.807	322.966	218.593	215.127	308.304	0.0025754	0.00033432	0.00016944	936.79	1.2782e-05	1.7889e-06	1403.7	285.54	9.6149e-06	9.6718e-06	626.13	270.4	116.95	45.487	5.289e-06	126.85	0.0028874	0.0039893	0.0010683	839.32	3.8747e-05	4.2467e-05	1251	257.47	3.6559e-05	4.3548e-05	562.76	243.11	105.7	41.241	3.9904e-05	114.95	316.171	99.925	108.010	33.026	153.346	286.817	33.691	37.872	171.848	173.878	36.975	40.352	40.944	44.194	165.420	43.988	-8191	255	
1668.665	1	1	0	0	0.10073	0.17792	0.14877	0.19354	0.14335	0.053874	0.43038	0.056892	0.11646	0.066719	0.066612	0.47457	0.18319	0.1511	0.18595	0.084433	-2.5458	-3.1042	-3.5771	-2.7729	-3.1562	-3.3812	-2.7208	-3.5792	-3.1021	-2.65	-3.6542	-2.8542	-3.1833	-3.6104	-2.7875	-3.4562	214.007	59.786	156.635	26.943	175.992	81.258	279.056	328.957	48.550	64.826	371.793	288.202	342.292	83.166	265.828	326.418	0.0024594	0.00062665	0.00030668	945.03	6.4717e-06	8.3909e-06	1407.1	289.17	1.0274e-05	1.4671e-05	630.05	272.46	117.21	45.073	9.7139e-06	127.59	0.0029148	0.0039948	0.0010788	842.4	3.8297e-05	4.2494e-05	1253.9	259.09	3.6805e-05	4.3628e-05	565.66	244.1	106.09	41.205	4.0966e-05	115.5	314.683	105.755	145.470	33.501	168.911	166.173	33.630	37.474	181.935	175.965	37.007	40.630	41.047	44.470	195.964	44.079	-8191	255	
1668.761	1	1	0	0	0.11489	0.11586	0.31482	0.41574	0.32905	0.23596	0.11194	0.11141	0.24435	0.082767	0.22538	0.36805	0.29505	0.26554	0.16657	0.13631	-2.7292	-2.6292	-3.4313	-2.7042	-3.0563	-3.4396	-2.8896	-3.4875	-3.3688	-2.7125	-3.6292	-2.9229	-3.1146	-3.625	-2.7188	-3.2292	82.462	356.056	151.250	320.118	208.219	67.566	269.150	342.603	289.033	107.380	353.082	321.154	323.690	42.511	103.033	344.016	0.0023876	0.0010905	0.00019187	944.11	1.4723e-05	1.1796e-05	1406.3	290.3	1.3421e-05	8.886e-06	630.42	271.52	116.7	45.439	9.156e-06	127.77	0.0029393	0.0039757	0.001074	844.34	3.9099e-05	4.3682e-05	1255.6	259.47	3.7309e-05	4.4321e-05	566.28	244.47	106.06	41.31	4.0952e-05	115.55	310.813	100.792	67.675	33.356	200.754	139.923	33.629	37.744	187.819	174.520	37.678	40.411	41.062	44.357	189.817	43.837	-8191	255	
1668.857	1	1	0	0	0.2311	0.12048	0.076535	0.05947	0.20989	0.25697	0.23531	0.24437	0.10274	0.073976	0.16782	0.12864	0.1708	0.071607	0.026921	0.42515	-2.8167	-2.4833	-3.3458	-2.975	-2.8396	-3.3708	-2.7646	-3.2833	-3.2979	-2.7313	-3.575	-3.2042	-2.9125	-3.6396	-2.6646	-3.3042	34.433	93.628	69.727	41.453	236.857	262.073	299.673	256.957	338.874	253.767	311.042	309.036	251.013	143.906	375.750	334.741	0.002244	0.00087271	0.00028272	942.48	1.6348e-05	8.6093e-06	1404.4	287.8	1.8048e-05	4.8435e-06	625.4	269.89	117.08	44.703	1.1902e-05	125.47	0.0028903	0.0040061	0.0011326	843.76	3.8091e-05	4.3489e-05	1255.4	258.53	3.6455e-05	4.4843e-05	562.93	241.53	105.17	40.785	4.0472e-05	113.91	305.799	104.765	119.714	33.609	166.875	157.283	33.671	37.996	207.447	143.398	37.321	40.326	41.189	44.655	159.692	44.219	-8191	255	
1668.978	1	1	0	0	0.12376	0.14787	0.14604	0.2531	0.32684	0.060535	0.23945	0.094249	0.070905	0.28396	0.31441	0.083547	0.34687	0.29197	0.12634	0.30324	-2.9437	-2.7833	-3.3125	-3.2625	-2.7458	-3.5271	-3.1729	-3.1333	-3.3833	-2.6625	-3.5833	-3.3917	-3.0187	-3.4313	-2.9542	-3.3167	295.200	83.880	335.413	259.361	338.602	21.625	310.021	286.807	371.758	173.319	326.379	298.577	350.779	346.819	86.610	301.005	0.002269	0.00090913	0.00039003	936.57	1.4386e-05	1.1783e-05	1395.6	285.95	9.0762e-06	1.2905e-05	622.58	268.23	116.11	44.982	1.4252e-05	126.3	0.0028638	0.0039008	0.0011013	838.11	3.8578e-05	4.4076e-05	1245.5	256.92	3.6213e-05	4.4349e-05	559.06	240.98	104.76	40.84	4.0956e-05	113.93	315.325	70.386	104.663	33.662	171.541	173.440	33.945	37.767	174.205	178.199	37.069	40.781	41.119	44.401	169.509	44.223	-8191	255	
1669.074	1	1	0	0	0.12091	0.184	0.14492	0.092772	0.18063	0.11513	0.10081	0.4831	0.035416	0.12207	0.28292	0.14428	0.21637	0.25689	0.039535	0.22321	-3.1292	-2.8354	-3.3917	-3.4167	-2.8771	-3.4292	-3.1479	-2.9479	-3.6813	-2.7229	-3.2562	-3.4188	-2.8083	-3.5292	-3.2271	-3.1104	153.624	156.309	212.934	223.674	284.890	46.688	332.789	297.625	175.348	92.724	36.402	32.622	367.314	370.124	261.957	302.432	0.0024681	0.00079551	0.00027052	941.64	8.8038e-06	4.9109e-06	1397.1	287.73	2.3353e-05	1.1415e-05	626.23	267.67	116.55	44.86	6.1318e-06	125.29	0.0028567	0.0039125	0.0010791	843.06	3.8827e-05	4.2293e-05	1249.3	256.93	3.6848e-05	4.3752e-05	561.33	240.29	104.75	40.855	4.0005e-05	113.65	314.954	91.089	121.529	33.819	151.027	211.029	33.682	38.152	213.533	185.794	37.538	41.259	41.147	45.067	182.699	44.654	-8191	255	
1669.170	1	1	0	0	0.10607	0.15912	0.15949	0.053153	0.18634	0.14219	0.21893	0.24587	0.21326	0.18077	0.10844	0.47384	0.10715	0.17822	0.17124	0.2745	-3.1833	-2.7562	-3.1937	-3.4292	-2.6688	-3.6083	-3.4083	-3.0771	-3.375	-2.8396	-3.2042	-3.6333	-2.8271	-3.4417	-3.2292	-3.0917	283.694	77.695	126.809	257.884	379.480	80.861	309.067	349.872	372.409	318.920	66.310	357.470	35.598	351.290	53.208	332.827	0.0022472	0.0010787	0.00024991	943.09	1.0544e-05	1.2356e-05	1417.3	287.74	1.1987e-05	6.2698e-06	630.2	269.8	116.67	44.787	1.5779e-05	126.84	0.0028294	0.0038443	0.0010666	843.47	3.864e-05	4.2341e-05	1256.1	258.47	3.629e-05	4.4197e-05	565.49	242.06	105.19	40.859	3.9826e-05	114.42	318.374	91.399	125.279	34.030	201.795	187.175	33.934	38.146	191.467	200.447	37.632	41.034	41.495	45.117	186.490	43.998	-8191	255	
1669.264	1	1	0	0	0.071739	0.11228	0.20274	0.070141	0.21633	0.025957	0.025994	0.066389	0.14095	0.072143	0.46672	0.20526	0.23343	0.033482	0.04392	0.10448	-3.1063	-2.9396	-3.1917	-3.5417	-2.6396	-3.2583	-3.3604	-2.8333	-3.4208	-3.0104	-3.0792	-3.6271	-2.8187	-3.4	-3.2562	-2.95	288.661	328.685	273.093	374.130	305.861	81.739	53.614	362.343	311.479	73.078	25.668	363.046	222.670	378.822	62.510	305.096	0.0022409	0.00053077	0.00025204	940.26	1.6117e-05	8.3332e-06	1401.7	289	7.6236e-06	3.5337e-06	623.2	267.01	115.99	43.995	9.4883e-06	124.8	0.0028366	0.0038497	0.0010806	843.6	3.9514e-05	4.4046e-05	1252.4	258.39	3.6571e-05	4.2324e-05	561.31	239.68	104.36	40.371	3.8878e-05	113.01	310.110	94.918	80.567	33.701	195.286	145.018	33.997	37.724	186.832	199.043	37.141	40.842	41.240	44.737	168.454	44.295	-8191	255	
1669.360	1	1	0	0	0.13522	0.12227	0.18802	0.021604	0.19824	0.14632	0.12247	0.19407	0.26679	0.050406	0.44762	0.27875	0.18236	0.049545	0.11823	0.36823	-2.9708	-2.9646	-2.825	-3.65	-2.6562	-3.2979	-3.4479	-2.8625	-3.3667	-3.2021	-2.9792	-3.6354	-2.8063	-3.2604	-3.5083	-3.0625	322.277	251.391	203.001	92.924	43.550	282.465	365.690	60.468	23.359	276.540	309.439	21.772	362.422	55.223	69.146	305.658	0.0021646	0.00085792	0.00031896	943.99	7.118e-06	7.3537e-06	1404.4	285.37	1.4425e-05	9.4814e-06	623.37	265.85	114.42	44.565	1.5882e-05	124.96	0.0028425	0.0038518	0.0010777	843.25	3.8745e-05	4.288e-05	1247.8	256.56	3.6592e-05	4.2303e-05	560.7	238.85	103.75	40.415	3.9128e-05	112.82	318.371	71.520	78.347	33.386	213.986	153.718	33.877	37.991	174.539	202.571	37.533	40.775	40.891	44.807	151.411	43.808	-8191	255	
1669.457	1	1	0	0	0.06533	0.42452	0.11416	0.15705	0.14593	0.24238	0.17839	0.34019	0.11209	0.20506	0.19708	0.17799	0.056632	0.19358	0.10209	0.11361	-3.2521	-2.975	-2.7271	-3.5354	-2.9333	-3.2542	-3.6104	-2.7812	-3.4708	-3.2208	-2.8438	-3.4771	-3.0042	-3.0271	-3.4583	-3.0542	128.144	130.240	113.750	318.845	369.933	78.261	358.278	364.654	352.284	79.454	353.305	255.081	345.211	61.209	138.221	67.876	0.0023874	0.001332	0.00017979	942.65	5.4272e-06	6.8915e-06	1408	286.73	1.6945e-05	9.6976e-06	624.03	266.36	115.49	44.623	1.0693e-05	124.23	0.0028128	0.0037583	0.0011023	843.25	3.8428e-05	4.3717e-05	1251	256.81	3.6397e-05	4.2743e-05	559.36	239.06	103.69	40.422	4.0378e-05	112.66	309.297	64.774	109.048	33.764	199.002	124.694	33.962	37.917	190.378	178.212	37.463	40.932	40.998	44.517	158.890	44.245	-8191	255	
1669.577	1	1	0	0	0.081826	0.18484	0.17796	0.2906	0.21733	0.15919	0.34364	0.17894	0.38776	0.29541	0.12661	0.29972	0.16485	0.21109	0.16972	0.16019	-2.8896	-3.1979	-2.8292	-3.5104	-2.9521	-2.875	-3.5979	-2.6271	-3.2625	-3.2792	-2.8583	-3.4625	-2.9521	-3.0667	-3.425	-2.9708	47.384	142.351	74.527	270.662	339.721	216.651	325.625	174.361	47.277	104.363	309.358	330.354	214.277	265.539	57.114	322.591	0.0021741	0.00069745	0.00029993	949.8	1.3801e-05	1.0705e-05	1398.5	285.23	1.2332e-05	1.3184e-05	626.11	265.95	115.36	44.808	7.1764e-06	125.12	0.0029104	0.0038404	0.0010703	845.5	3.7985e-05	4.3489e-05	1250.2	256.42	3.7809e-05	4.3016e-05	559.37	238.98	103.85	40.709	3.9644e-05	112.84	308.518	103.845	87.877	33.592	187.997	125.423	33.892	37.955	187.593	153.195	37.681	41.162	41.097	45.135	156.114	44.073	-8191	255	
1669.673	1	1	0	0	0.20561	0.22576	0.20307	0.082649	0.17153	0.084002	0.21824	0.30001	0.11315	0.22118	0.26948	0.28321	0.17826	0.046883	0.073138	0.45961	-2.8833	-3.4562	-2.6854	-3.4625	-3.05	-2.8	-3.8208	-2.7979	-3.1396	-3.3521	-3.0583	-3.6063	-3.2708	-2.8625	-3.4125	-3.0854	38.611	29.556	74.232	202.682	195.116	300.024	341.559	323.627	242.077	339.428	371.490	350.361	284.455	106.687	88.407	349.192	0.0022252	0.00056774	0.0002228	939.1	8.8255e-06	1.0832e-05	1402.1	284.32	4.3937e-06	7.2988e-06	616.21	264.32	114.57	44.077	1.3852e-05	123.4	0.0029423	0.0038634	0.0011112	841.53	3.7389e-05	4.3873e-05	1248.2	255.12	3.7426e-05	4.3191e-05	553.07	236.7	102.99	40.359	3.9965e-05	111.77	313.571	107.926	78.695	33.587	170.421	215.485	34.020	38.432	90.935	145.842	38.046	41.186	41.076	44.797	190.810	43.947	-8191	255	
1669.769	1	1	0	0	0.21996	0.12947	0.14635	0.20793	0.11479	0.26574	0.25191	0.25511	0.11937	0.047575	0.40037	0.30747	0.10572	0.39117	0.15656	0.25384	-2.6396	-3.3854	-2.7583	-3.575	-3.3521	-2.8771	-3.7375	-2.8896	-2.8917	-3.4021	-2.8104	-3.4313	-3.3667	-3.0292	-3.3208	-3.0896	156.406	137.159	154.000	265.395	184.256	83.123	339.097	370.786	146.405	157.264	357.552	325.698	94.313	329.087	149.037	300.106	0.002468	0.0013987	0.00031046	934.84	1.0499e-05	8.2241e-06	1398.6	282.13	1.4435e-05	1.1036e-05	613.78	262.26	113.68	44.427	7.9114e-06	124.34	0.002901	0.0038608	0.0011052	836.72	3.7908e-05	4.4582e-05	1242.6	253.69	3.6766e-05	4.3725e-05	551.11	235.63	102.55	40.493	3.8633e-05	112.22	309.211	107.561	145.451	34.187	162.293	226.146	34.095	38.376	196.935	145.450	37.480	41.046	41.603	44.710	150.159	44.195	-8191	255	
1669.841	1	1	0	0	0.047598	0.037891	0.10627	0.37789	0.18189	0.06383	0.20042	0.20755	0.12137	0.061988	0.31436	0.27106	0.27627	0.20484	0.23728	0.22562	-2.5021	-3.4875	-2.6688	-3.5625	-3.3187	-2.8063	-3.6937	-3.2396	-3.0333	-3.6063	-2.9188	-3.5083	-3.5312	-2.9521	-3.4854	-3.3292	355.199	245.897	254.385	20.662	359.056	286.194	346.249	341.843	370.932	170.160	355.490	318.452	58.375	308.381	159.330	310.472	0.0024474	0.0005854	0.0003024	938.85	9.4917e-06	2.6895e-06	1401.9	283.3	1.271e-05	4.633e-06	615.14	262.52	113.31	44.418	1.0452e-05	124.52	0.0028823	0.0037088	0.0010755	840.6	3.8145e-05	4.3132e-05	1244.1	253.48	3.6456e-05	4.15e-05	550.92	236.83	102.62	40.541	3.9653e-05	112.49	307.106	100.979	99.922	34.031	154.714	174.100	34.150	37.728	215.958	183.767	37.475	41.162	41.474	44.666	186.867	44.335	-8191	255	
1669.962	1	1	0	0	0.3407	0.061295	0.19113	0.25341	0.26515	0.096913	0.23042	0.16039	0.064238	0.16463	0.27596	0.24965	0.23884	0.1183	0.090249	0.19111	-2.6042	-3.5062	-2.825	-3.225	-3.3729	-2.6708	-3.5896	-3.2562	-2.8438	-3.575	-3.2313	-3.2167	-3.6063	-2.9604	-3.4667	-3.2958	105.742	354.205	283.904	257.663	271.473	195.923	379.125	281.417	194.459	103.885	241.307	327.702	281.310	326.981	302.710	326.195	0.0022686	0.0012267	0.00027879	949.04	1.3434e-05	1.0541e-05	1407	284.33	8.7677e-06	1.1655e-05	614.39	264.73	114.78	44.634	7.092e-06	124.77	0.0028381	0.0037705	0.0011184	846.51	3.7126e-05	4.3876e-05	1252.3	254.26	3.7344e-05	4.3248e-05	552	237.46	103.25	40.581	4.0843e-05	112.58	313.290	115.244	150.508	34.232	176.390	126.538	34.343	38.131	89.906	147.332	37.582	41.299	41.026	44.926	137.422	44.075	-8191	255	
1670.058	1	1	0	0	0.18348	0.138	0.11998	0.23215	0.20711	0.23794	0.11445	0.12451	0.24092	0.26272	0.29865	0.50927	0.13588	0.23074	0.11696	0.019162	-2.2375	-3.5687	-2.95	-2.9333	-3.4646	-2.8438	-3.5083	-3.4437	-2.6875	-3.5229	-3.2667	-3.0875	-3.5667	-2.9021	-3.2333	-3.3792	321.561	303.951	339.897	309.584	320.159	109.223	350.333	302.946	187.741	150.420	363.803	328.226	311.620	357.835	220.931	64.191	0.002374	0.0010301	0.00012784	947.51	1.1502e-05	6.7869e-06	1399.9	282.89	3.8154e-06	7.3898e-06	614.18	263.64	113.73	44.598	5.869e-06	123.88	0.0028975	0.0039033	0.0010637	844.27	3.7487e-05	4.4887e-05	1246	254.09	3.6795e-05	4.3597e-05	550.38	236.32	102.63	40.53	3.9635e-05	112.07	309.872	109.998	83.760	33.979	193.585	175.725	34.078	38.087	317.149	173.130	37.752	40.963	41.231	44.792	154.655	44.058	-8191	255	
1670.154	1	1	0	0	0.28748	0.19632	0.11309	0.41141	0.079003	0.33101	0.062276	0.34218	0.064846	0.18491	0.39911	0.077548	0.044448	0.20977	0.27601	0.24487	-2.3479	-3.5542	-3.1104	-3.0229	-3.5125	-2.6771	-3.3667	-3.5187	-2.7125	-3.4062	-3.3646	-3.1083	-3.5812	-2.9167	-3.2062	-3.7167	239.958	164.124	268.666	289.618	371.704	191.680	68.440	309.741	189.434	280.154	135.255	332.751	180.697	42.589	234.088	370.136	0.0024448	0.00075198	0.00035814	946.33	8.9708e-06	1.0224e-05	1396.4	285.95	1.2916e-05	7.527e-06	614.5	264.4	115.34	44.435	1.9196e-05	124.28	0.0029146	0.0039132	0.0010894	845.61	3.7695e-05	4.374e-05	1248.1	255.19	3.6364e-05	4.3045e-05	551.07	236.9	103.49	40.396	3.9737e-05	112.1	308.624	115.945	94.913	34.288	169.236	172.462	34.318	37.920	137.575	141.443	37.835	41.334	41.344	44.786	155.718	44.346	-8191	255	
1670.250	1	1	0	0	0.15544	0.2899	0.18768	0.18401	0.15469	0.052602	0.15848	0.13472	0.18711	0.25311	0.19526	0.39519	0.28807	0.20832	0.24083	0.25136	-2.2104	-3.6792	-3.0438	-2.975	-3.675	-3.0396	-3.1604	-3.5125	-2.7792	-3.4042	-3.45	-3.0542	-3.7333	-3.0625	-3.125	-3.8833	134.126	187.481	165.569	340.729	293.333	199.972	322.814	296.347	188.369	189.237	21.108	349.623	342.162	348.515	348.376	308.181	0.0025965	0.00013754	0.00026576	943.58	8.5966e-06	7.267e-06	1391.3	284.07	1.6526e-05	6.8206e-06	617.47	263.55	114.32	44.335	4.314e-06	124.13	0.002864	0.0039391	0.0010935	841.8	3.7291e-05	4.2251e-05	1245.1	255.16	3.7225e-05	4.2545e-05	554.21	236.97	103.2	40.409	4.0116e-05	112.39	313.171	63.251	134.875	33.981	193.747	145.441	34.700	38.171	201.748	151.572	37.810	41.129	41.589	44.766	180.158	44.217	-8191	255	
1670.369	1	1	0	0	0.083997	0.076585	0.20241	0.17638	0.07918	0.14488	0.25265	0.44251	0.23801	0.17419	0.30854	0.34589	0.20072	0.13902	0.21925	0.25633	-2.2375	-3.4042	-3.2562	-3.0812	-3.4542	-2.9792	-2.9646	-3.6875	-2.7979	-3.3438	-3.5938	-2.9125	-3.5833	-3.0875	-3.0021	-3.6813	85.281	350.892	153.481	71.020	205.966	221.583	264.403	322.800	146.119	227.926	349.450	340.846	373.502	236.571	144.322	309.574	0.002297	0.0012858	0.00017477	944.48	8.3195e-06	1.0796e-05	1406.2	284.58	7.3356e-06	8.2435e-06	617.24	265.62	114.83	44.476	1.2416e-05	124.33	0.002874	0.0038539	0.001061	846	3.8264e-05	4.3101e-05	1251.1	255.11	3.7732e-05	4.2903e-05	554.03	238	103.55	40.3	4.0253e-05	112.33	306.522	118.793	84.815	34.279	214.828	176.821	34.205	38.261	204.994	159.274	37.568	41.152	41.327	44.612	214.555	43.910	-8191	255	
1670.441	1	1	0	0	0.16546	0.23296	0.27105	0.063102	0.33909	0.081543	0.26063	0.018722	0.20339	0.068095	0.17461	0.2363	0.1628	0.17384	0.098153	0.38113	-2.3187	-3.1417	-3.3979	-2.7542	-3.4229	-3.1729	-2.9	-3.5146	-2.8458	-3.1292	-3.4667	-3.0542	-3.5062	-3.1104	-2.8729	-3.7896	32.439	60.029	155.689	24.203	97.193	29.287	341.562	50.701	71.411	183.099	45.414	346.939	73.955	38.825	74.953	287.134	0.0022848	0.00088019	0.0002855	943.67	8.5213e-06	5.0711e-06	1399.3	282.79	1.0443e-05	1.1307e-05	608.57	262.95	113.71	44.033	1.4005e-05	123.4	0.0028536	0.0038163	0.0010377	845.07	3.7438e-05	4.1486e-05	1247.7	254.24	3.7137e-05	4.211e-05	548.94	235.33	102.43	40.1	3.931e-05	111.39	314.273	101.671	101.399	33.903	201.652	157.268	34.227	37.829	132.451	146.804	37.719	41.035	41.445	44.733	156.248	43.907	-8191	255	
#DATA ENDS
