BOXY.EXE: ISS Imagent and Oximeter Data Acquisition Program Version 0.80
Ascii Record File

#ACQ INFORMATION
2  Detector Channels 
16  External MUX Channels 
1  Auxiliary Channels 
5000  Waveform (CCF) Frequency (Hz)
1  Waveforms Skipped 
30  Waveforms Averaged 
1  Cycles Averaged 
16  Acquisitions per Waveform 
10.0806  Updata Rate (Hz) 

#FILE INFORMATION
TRUE -- External MUX Channel results are PARSED.
FALSE -- AC DC and Phase are NOT grouped.
TRUE -- Companion Program Settings File CREATED.
FALSE -- AC data not excluded
FALSE -- DC data not excluded
FALSE -- Phase data not excluded
FALSE -- Auxillary Chn. data not excluded
Tab delimiters

#CALIBRATION STATE
TRUE -- Waveform Calibration Values APPLIED.


#AUX CALIBRATION VALUES
Val Type	aux-1	

Term	1.0000e+00	
Factor	0.0000e+00	


#WF CALIBRATION VALUES
A = Detector Channel
Val Type	A-AC1	A-AC2	A-AC3	A-AC4	A-AC5	A-AC6	A-AC7	A-AC8	A-AC9	A-AC10	A-AC11	A-AC12	A-AC13	A-AC14	A-AC15	A-AC16	A-DC1	A-DC2	A-DC3	A-DC4	A-DC5	A-DC6	A-DC7	A-DC8	A-DC9	A-DC10	A-DC11	A-DC12	A-DC13	A-DC14	A-DC15	A-DC16	A-Ph1	A-Ph2	A-Ph3	A-Ph4	A-Ph5	A-Ph6	A-Ph7	A-Ph8	A-Ph9	A-Ph10	A-Ph11	A-Ph12	A-Ph13	A-Ph14	A-Ph15	A-Ph16	

Term	0.00000e+00	0.00000e+00	0.00000e+00	0.00000e+00	0.00000e+00	0.00000e+00	0.00000e+00	0.00000e+00	0.00000e+00	0.00000e+00	0.00000e+00	0.00000e+00	0.00000e+00	0.00000e+00	0.00000e+00	0.00000e+00	0.00000e+00	0.00000e+00	0.00000e+00	0.00000e+00	0.00000e+00	0.00000e+00	0.00000e+00	0.00000e+00	0.00000e+00	0.00000e+00	0.00000e+00	0.00000e+00	0.00000e+00	0.00000e+00	0.00000e+00	0.00000e+00	0.00000e+00	0.00000e+00	0.00000e+00	0.00000e+00	0.00000e+00	0.00000e+00	0.00000e+00	0.00000e+00	0.00000e+00	0.00000e+00	0.00000e+00	0.00000e+00	0.00000e+00	0.00000e+00	0.00000e+00	0.00000e+00	
Factor	1.00000e+00	1.00000e+00	1.00000e+00	1.00000e+00	1.00000e+00	1.00000e+00	1.00000e+00	1.00000e+00	1.00000e+00	1.00000e+00	1.00000e+00	1.00000e+00	1.00000e+00	1.00000e+00	1.00000e+00	1.00000e+00	1.00000e+00	1.00000e+00	1.00000e+00	1.00000e+00	1.00000e+00	1.00000e+00	1.00000e+00	1.00000e+00	1.00000e+00	1.00000e+00	1.00000e+00	1.00000e+00	1.00000e+00	1.00000e+00	1.00000e+00	1.00000e+00	X	X	X	X	X	X	X	X	X	X	X	X	X	X	X	X	

B = Detector Channel
Val Type	B-AC1	B-AC2	B-AC3	B-AC4	B-AC5	B-AC6	B-AC7	B-AC8	B-AC9	B-AC10	B-AC11	B-AC12	B-AC13	B-AC14	B-AC15	B-AC16	B-DC1	B-DC2	B-DC3	B-DC4	B-DC5	B-DC6	B-DC7	B-DC8	B-DC9	B-DC10	B-DC11	B-DC12	B-DC13	B-DC14	B-DC15	B-DC16	B-Ph1	B-Ph2	B-Ph3	B-Ph4	B-Ph5	B-Ph6	B-Ph7	B-Ph8	B-Ph9	B-Ph10	B-Ph11	B-Ph12	B-Ph13	B-Ph14	B-Ph15	B-Ph16	

Term	0.00000e+00	0.00000e+00	0.00000e+00	0.00000e+00	0.00000e+00	0.00000e+00	0.00000e+00	0.00000e+00	0.00000e+00	0.00000e+00	0.00000e+00	0.00000e+00	0.00000e+00	0.00000e+00	0.00000e+00	0.00000e+00	0.00000e+00	0.00000e+00	0.00000e+00	0.00000e+00	0.00000e+00	0.00000e+00	0.00000e+00	0.00000e+00	0.00000e+00	0.00000e+00	0.00000e+00	0.00000e+00	0.00000e+00	0.00000e+00	0.00000e+00	0.00000e+00	3.99349e+01	-1.27183e+02	-1.30760e+02	-1.82253e+02	-7.82160e+01	-6.87738e+01	-1.58383e+02	-1.62015e+02	-6.51568e+00	-5.86521e+01	-1.73081e+02	-1.71715e+02	-1.81287e+02	-1.76244e+02	-6.42257e+01	-1.49702e+02	
Factor	5.52147e-05	1.09142e-04	2.94109e-05	1.60573e-01	1.55073e-06	1.56155e-06	1.48892e-01	4.20036e-02	1.58478e-06	1.42911e-06	9.25352e-02	2.65785e-02	2.40623e-02	7.73815e-03	1.51428e-06	1.10330e-02	2.94537e-06	3.18182e-06	8.85579e-07	8.69856e-02	3.45660e-08	3.49780e-08	7.56882e-02	2.28152e-02	3.43414e-08	3.49862e-08	4.82752e-02	1.38585e-02	1.31179e-02	4.22409e-03	3.45187e-08	5.81125e-03	X	X	X	X	X	X	X	X	X	X	X	X	X	X	X	X	



#DISTANCE SETTINGS
A = Detector Channel
A-1	A-2	A-3	A-4	A-5	A-6	A-7	A-8	A-9	A-10	A-11	A-12	A-13	A-14	A-15	A-16	

2.5000e+00	3.0000e+00	2.5000e+00	3.0000e+00	2.0000e+00	3.0000e+00	1.5000e+00	3.0000e+00	3.0000e+00	3.0000e+00	3.0000e+00	3.0000e+00	3.0000e+00	3.0000e+00	1.5000e+00	3.0000e+00	

B = Detector Channel
B-1	B-2	B-3	B-4	B-5	B-6	B-7	B-8	B-9	B-10	B-11	B-12	B-13	B-14	B-15	B-16	

1.0000e+01	1.0000e+01	1.0000e+01	1.4400e+00	1.0000e+01	1.0000e+01	1.5100e+00	1.9400e+00	1.0000e+01	1.0000e+01	1.9900e+00	2.4900e+00	2.4100e+00	2.9000e+00	1.0000e+01	2.9800e+00	




#DATA BEGINS
time	group	step	mark	flag	A-AC1	A-AC2	A-AC3	A-AC4	A-AC5	A-AC6	A-AC7	A-AC8	A-AC9	A-AC10	A-AC11	A-AC12	A-AC13	A-AC14	A-AC15	A-AC16	A-DC1	A-DC2	A-DC3	A-DC4	A-DC5	A-DC6	A-DC7	A-DC8	A-DC9	A-DC10	A-DC11	A-DC12	A-DC13	A-DC14	A-DC15	A-DC16	A-Ph1	A-Ph2	A-Ph3	A-Ph4	A-Ph5	A-Ph6	A-Ph7	A-Ph8	A-Ph9	A-Ph10	A-Ph11	A-Ph12	A-Ph13	A-Ph14	A-Ph15	A-Ph16	B-AC1	B-AC2	B-AC3	B-AC4	B-AC5	B-AC6	B-AC7	B-AC8	B-AC9	B-AC10	B-AC11	B-AC12	B-AC13	B-AC14	B-AC15	B-AC16	B-DC1	B-DC2	B-DC3	B-DC4	B-DC5	B-DC6	B-DC7	B-DC8	B-DC9	B-DC10	B-DC11	B-DC12	B-DC13	B-DC14	B-DC15	B-DC16	B-Ph1	B-Ph2	B-Ph3	B-Ph4	B-Ph5	B-Ph6	B-Ph7	B-Ph8	B-Ph9	B-Ph10	B-Ph11	B-Ph12	B-Ph13	B-Ph14	B-Ph15	B-Ph16	aux-1	digaux	

16895.850	1	1	0	256	0.32341	0.069323	0.15912	0.16769	0.070684	0.022236	0.18687	0.28253	0.22047	0.18106	0.35143	0.22478	0.18763	0.15497	0.22522	0.030785	-1.4813	-1.0938	-1.6375	-1.85	-0.96875	-1.8312	-1.5875	-1.35	-2.0271	-0.975	-1.7833	-1.9542	-1.2167	-2.0438	-1.5375	-1.4167	-36.136	69.385	172.225	-67.471	-89.011	137.227	132.886	102.961	-145.663	-99.564	92.195	15.605	165.037	-110.859	201.048	188.113	0.0016073	0.00049721	0.00014288	773.55	1.7121e-05	9.2444e-06	1100	197.06	3.4977e-06	1.3577e-05	357.43	103.84	44.014	11.019	6.921e-06	42.999	0.0052086	0.0054768	0.0015039	858.83	5.8826e-05	5.8635e-05	1133.4	219.46	5.6568e-05	5.7174e-05	405	117.77	60.637	16.758	5.4396e-05	48.766	50.743	161.745	164.164	-144.655	-39.473	42.189	-145.436	-140.465	32.642	-83.754	-141.812	-137.773	-137.015	-133.443	-102.746	-134.227	-8191	255	
16895.971	1	1	0	0	0.16979	0.11777	0.18711	0.24174	0.10566	0.10305	0.11522	0.17095	0.24232	0.15599	0.049684	0.25221	0.042244	0.14513	0.2552	0.25303	-1.6688	-0.98125	-1.7229	-1.6792	-0.97292	-1.8375	-1.6583	-1.2687	-1.8687	-1.1104	-1.6375	-1.9604	-1.1812	-1.8896	-1.5083	-1.4646	15.977	-8.983	114.088	75.709	-145.740	37.875	62.195	184.184	-48.890	-89.870	-78.627	179.370	-134.302	28.555	-3.810	166.519	0.00087304	0.001551	8.616e-05	775.23	2.1058e-06	8.908e-06	1101.5	202.29	2.2656e-05	9.2207e-06	362.75	106.28	44.999	11.498	1.4209e-05	43.91	0.004538	0.0048227	0.0013269	845.32	5.1019e-05	5.0226e-05	1124.9	217.7	4.8598e-05	4.9625e-05	398.98	116.52	59.376	16.401	4.8945e-05	48.664	28.734	-139.051	-124.562	-144.880	-158.430	101.533	-145.380	-140.823	58.688	136.564	-141.260	-137.701	-136.435	-133.773	198.633	-133.822	-8191	255	
16896.066	1	1	0	0	0.19173	0.18266	0.20932	0.15065	0.13788	0.17319	0.17191	0.17822	0.38247	0.11009	0.32585	0.11773	0.14546	0.0095803	0.18387	0.30788	-1.4104	-1.1708	-1.4583	-2.0438	-1.0875	-1.6542	-1.9208	-1.2938	-2.1021	-1.3646	-1.3396	-2.0896	-1.1688	-1.8208	-1.7542	-1.1417	57.960	-36.984	190.839	140.352	130.267	-74.715	147.998	-49.360	36.656	-43.272	185.689	-128.476	52.510	-18.260	182.503	46.343	0.0013297	0.00026443	0.00018473	777.97	1.7406e-05	4.7962e-06	1099.3	202.75	7.9466e-06	8.3577e-06	363.25	105.3	44.956	11.284	1.9935e-05	43.484	0.0041185	0.0044147	0.001226	835.42	4.763e-05	4.7769e-05	1117	216.56	4.661e-05	4.8467e-05	395.72	115.37	58.965	16.212	4.9013e-05	47.878	28.441	26.727	48.096	-145.019	86.927	72.110	-145.450	-140.853	-34.464	168.079	-141.614	-138.088	-137.069	-133.055	-145.859	-134.591	-8191	255	
16896.160	1	1	0	0	0.23726	0.20282	0.12235	0.093798	0.068924	0.21426	0.10881	0.082828	0.21967	0.13393	0.14326	0.16221	0.17704	0.21375	0.093062	0.20741	-1.5604	-1.275	-1.3354	-1.925	-1.2812	-1.4958	-2.0104	-1.1979	-1.8229	-1.3312	-1.2667	-2.2854	-1.2188	-1.5208	-1.9688	-1.2146	-49.239	-46.293	-68.156	189.793	-28.717	93.742	152.359	54.398	-70.730	-158.662	149.512	-140.794	23.193	-38.072	-50.681	164.832	0.00057023	0.00056697	0.0001676	788.24	1.2145e-05	2.2672e-05	1097.2	203.66	8.5635e-06	6.6459e-06	358.85	105.26	44.684	10.989	2.1112e-05	42.977	0.0041298	0.0045301	0.0012478	841.53	4.8967e-05	4.9694e-05	1118.1	217.78	4.8661e-05	5.1098e-05	397.9	115.96	59.471	16.381	5.1031e-05	48.021	49.965	-113.576	44.241	-144.676	-149.658	46.000	-145.736	-140.780	-10.095	-111.484	-141.612	-137.831	-136.828	-133.150	-26.154	-134.431	-8191	255	
16896.234	1	1	0	0	0.054734	0.0089326	0.19267	0.31107	0.17102	0.221	0.26561	0.21419	0.13992	0.35201	0.14155	0.094352	0.26063	0.1986	0.076343	0.18294	-1.4896	-1.3229	-1.3479	-1.9958	-1.2729	-1.4833	-2.1625	-1.2417	-1.8875	-1.5667	-1.3396	-1.9771	-1.3625	-1.5396	-1.7667	-1.2687	38.912	-155.078	-22.472	146.216	123.446	176.037	195.561	120.681	-66.352	-76.154	-43.591	-152.305	176.951	-52.601	17.111	34.078	0.0015784	0.0015617	0.00013473	774.78	1.2871e-05	4.6481e-06	1093.7	201.32	2.2469e-06	1.1978e-05	355.03	104.27	43.761	11.021	5.3888e-06	41.921	0.0043327	0.0047623	0.0013234	842.09	5.2217e-05	5.287e-05	1120	218.64	5.1899e-05	5.4708e-05	398.42	116.35	60.535	16.792	5.535e-05	47.858	43.471	-128.215	-21.208	-144.701	98.229	73.849	-145.685	-140.725	-32.466	-75.863	-141.390	-138.252	-137.571	-132.867	-102.627	-134.211	-8191	255	
16896.354	1	1	0	0	0.20154	0.15034	0.11847	0.19951	0.094602	0.11307	0.13634	0.23239	0.25225	0.221	0.17303	0.1962	0.25608	0.28157	0.081354	0.1921	-1.2292	-1.7021	-1.0042	-1.9625	-1.3417	-1.3104	-2.0375	-1.2792	-1.7417	-1.6729	-1.0875	-1.9937	-1.5458	-1.3958	-1.8687	-1.15	92.502	-32.002	26.776	88.630	-151.823	129.108	-140.219	-98.718	-24.022	96.914	58.635	194.617	-79.833	-95.441	83.101	52.226	0.0018259	0.00063784	0.00024859	770.12	1.8381e-05	1.3761e-05	1082.9	197.8	1.5918e-05	1.6793e-05	350.99	100.99	42.642	10.421	2.1628e-05	40.116	0.0047527	0.0051976	0.0014287	844.65	5.6661e-05	5.6873e-05	1117.5	218.39	5.651e-05	5.9162e-05	400.4	115.66	61.437	16.894	5.958e-05	47.09	11.363	32.662	-41.618	-144.889	-96.133	73.220	-145.310	-141.233	27.533	83.989	-141.692	-137.719	-136.727	-133.508	24.008	-134.377	-8191	255	
16896.449	1	1	0	0	0.30622	0.095919	0.40465	0.23688	0.10659	0.030212	0.13756	0.25779	0.25176	0.19847	0.21588	0.29766	0.24117	0.3621	0.080677	0.1479	-1.1479	-1.8292	-1.1187	-2.0729	-1.4125	-1.2812	-2.225	-1.3	-1.6375	-1.9729	-1.125	-2	-1.5042	-1.2792	-1.8375	-1.3458	-149.085	17.888	-58.402	182.564	120.484	148.229	87.618	62.832	-154.255	12.974	87.668	198.664	83.935	155.592	-8.850	-55.038	0.00083349	0.001239	0.000342	759.72	9.4764e-06	3.1529e-05	1067.3	193.36	2.945e-05	1.4515e-05	339.72	98.391	41.864	10.146	2.0068e-05	38.855	0.0051759	0.0056987	0.0015814	851.48	6.3515e-05	6.4305e-05	1118.2	218.95	6.343e-05	6.5702e-05	401.41	115.56	62.681	16.997	6.3277e-05	46.413	33.686	-47.962	23.497	-144.566	23.938	55.765	-145.499	-140.830	116.239	-125.195	-142.187	-137.845	-137.318	-132.774	24.002	-134.296	-8191	255	
16896.545	1	1	0	0	0.11929	0.076234	0.20528	0.097839	0.084937	0.16112	0.13757	0.2549	0.058867	0.17742	0.38497	0.12753	0.13937	0.1079	0.17082	0.13756	-1.2812	-1.8813	-1.1979	-1.925	-1.7938	-1.1771	-2.1063	-1.3	-1.5187	-1.8229	-1.1938	-1.9458	-1.6854	-1.1979	-1.9562	-1.4062	88.860	-106.957	90.143	48.829	122.725	-49.963	170.762	151.732	-26.790	-31.838	175.376	-140.364	-137.737	33.384	-120.903	85.210	0.0013668	0.0013684	0.00044186	754.98	1.1149e-05	3.8369e-06	1067	193.46	3.1056e-05	1.9766e-05	343.72	98.736	42.28	10.221	8.6381e-06	39.181	0.0054313	0.0058608	0.0016038	851.07	6.3625e-05	6.3516e-05	1114.7	218.22	6.0819e-05	6.1995e-05	397.84	114.26	61.476	16.537	5.8223e-05	45.71	33.234	119.704	-86.819	-144.473	-144.410	-96.023	-145.703	-141.077	39.657	61.050	-141.760	-137.961	-137.909	-133.201	-155.523	-134.387	-8191	255	
16896.643	1	1	0	0	0.16992	0.052835	0.1696	0.18331	0.23614	0.31514	0.22953	0.2082	0.11356	0.24161	0.35143	0.075412	0.036232	0.072326	0.21813	0.031862	-0.8875	-1.9479	-1.1354	-1.8729	-1.7167	-1.0375	-2.0917	-1.4104	-1.3146	-2.0604	-1.4188	-1.5938	-1.675	-1.0917	-1.875	-1.7104	171.559	-99.116	152.140	-129.477	122.927	96.159	147.612	123.604	-101.975	-24.148	35.438	106.671	25.515	101.099	159.702	-149.747	0.00069961	0.0017845	0.0002902	765.29	6.4992e-06	2.2968e-05	1073.7	193.24	6.1742e-06	1.4825e-05	344.01	99.658	42.32	10.268	7.8221e-06	38.875	0.0049635	0.0053219	0.0014681	841.47	5.6682e-05	5.6303e-05	1107.8	214.51	5.5118e-05	5.6005e-05	393.06	112.9	59.866	16.127	5.3956e-05	45.283	24.359	-103.376	-102.648	-144.595	157.638	-31.987	-145.301	-140.663	4.198	-83.297	-141.787	-137.973	-136.598	-132.338	-63.994	-134.136	-8191	255	
16896.762	1	1	0	0	0.13078	0.15276	0.04616	0.07858	0.26495	0.046083	0.16593	0.16785	0.17153	0.23532	0.1051	0.25211	0.045668	0.33716	0.22882	0.08625	-0.70833	-1.9271	-1.3292	-1.5646	-1.7563	-1.2333	-2.1271	-1.6458	-1.1521	-1.95	-1.3854	-1.5979	-1.8917	-1.2437	-1.75	-1.6812	-130.365	-18.012	-28.470	-51.789	105.055	-143.165	99.982	87.854	-114.872	166.944	86.582	-120.566	191.408	16.031	12.086	152.861	0.0012997	0.0019782	0.0001267	768.05	9.857e-06	8.3344e-06	1074.2	194.45	2.5568e-05	1.1863e-05	342.93	98.638	41.801	10.019	1.3011e-06	39.145	0.0047121	0.0050024	0.0013908	836.57	5.4572e-05	5.4868e-05	1100.3	213.94	5.401e-05	5.4622e-05	390.76	112.16	58.792	15.805	5.257e-05	44.959	18.560	-69.971	-138.871	-144.883	-62.281	168.876	-145.259	-141.112	34.784	-61.046	-141.514	-137.484	-137.026	-133.242	47.554	-134.213	-8191	255	
16896.834	1	1	0	0	0.22676	0.11815	0.19487	0.22219	0.12412	0.076511	0.33881	0.19988	0.38256	0.1618	0.12688	0.20911	0.081234	0.20404	0.10062	0.29747	-0.74375	-2.0146	-1.3896	-1.6021	-1.8667	-1.0167	-1.8958	-1.6729	-1.0542	-1.925	-1.4833	-1.5604	-2.0729	-1.125	-1.6771	-1.7687	156.703	-125.624	-134.645	156.033	35.031	109.935	93.575	-131.775	-150.782	-47.296	55.511	168.756	186.991	129.485	23.837	185.740	0.00074362	0.0003813	0.00027546	762.37	6.1299e-06	2.4489e-06	1065.6	194.01	2.8225e-05	1.1974e-05	345.73	100.04	42.422	10.314	5.7328e-06	39.494	0.0045546	0.0047907	0.0013616	831.35	5.2382e-05	5.2774e-05	1094.3	212.31	5.1205e-05	5.1476e-05	386.94	111.58	58.021	15.588	5.0129e-05	45.002	75.025	-13.608	-106.051	-144.734	23.412	138.717	-145.551	-141.113	198.285	5.922	-141.307	-137.546	-137.540	-132.458	-109.739	-134.069	-8191	255	
16896.930	1	1	0	0	0.19362	0.047511	0.1302	0.36925	0.16203	0.16722	0.43469	0.08159	0.12567	0.19597	0.31315	0.16336	0.22301	0.15817	0.19788	0.25306	-0.70208	-1.8396	-1.5208	-1.375	-2.0708	-1.2833	-1.8271	-2.0479	-1.2125	-2.0042	-1.6708	-1.3521	-1.9333	-1.3083	-1.5896	-1.9729	95.578	-70.006	10.400	113.558	124.691	38.108	158.260	113.627	-129.401	196.433	101.292	56.325	83.397	100.839	160.546	61.943	0.0014653	0.001161	0.00028282	764.33	1.9926e-05	2.1762e-05	1076.7	196.74	2.4083e-05	1.1266e-05	349.51	101.74	42.465	10.505	4.1875e-06	40.709	0.0043164	0.0045617	0.0013012	825.73	4.9891e-05	5.0675e-05	1098.5	212.79	4.9545e-05	5.0364e-05	388.89	112.84	57.707	15.728	4.932e-05	45.975	7.191	-33.052	6.596	-145.036	0.487	105.763	-145.399	-140.439	59.472	119.544	-141.381	-137.260	-137.066	-132.541	66.561	-134.268	-8191	255	
16897.051	1	1	0	0	0.10321	0.16556	0.12713	0.15872	0.091504	0.33568	0.41319	0.27228	0.34859	0.26716	0.44461	0.50355	0.41124	0.095732	0.14279	0.28198	-0.82292	-1.8708	-1.4375	-1.2542	-1.8583	-1.1792	-1.5771	-2.0312	-1.2083	-1.7938	-2.0312	-1.2292	-1.9896	-1.4604	-1.3937	-1.9688	110.996	-52.699	52.647	-55.423	-121.520	-146.995	146.794	125.610	-143.893	-39.700	144.788	164.550	169.137	126.081	-91.890	-143.947	0.00048903	0.001075	0.00018466	764.81	8.2044e-06	9.3919e-06	1083.7	196.26	1.3605e-05	9.8613e-06	351.06	103.56	44.017	10.982	1.7343e-05	40.836	0.0042021	0.0044455	0.0012785	825.52	4.8761e-05	4.975e-05	1100	213.51	4.8341e-05	4.9218e-05	390.75	113.55	58.063	15.898	4.8782e-05	45.888	62.255	-60.468	-101.999	-144.903	29.051	-50.840	-145.090	-140.675	8.550	62.193	-141.495	-138.125	-137.307	-132.834	-54.939	-134.224	-8191	255	
16897.146	1	1	0	0	0.16641	0.072098	0.080013	0.03245	0.19128	0.06592	0.25428	0.20868	0.15924	0.20992	0.12005	0.35415	0.1266	0.19864	0.20899	0.20905	-0.66042	-1.4875	-1.6104	-1.4708	-1.9833	-1.3729	-1.675	-2.1375	-0.92292	-1.6625	-1.9458	-1.2625	-2.0208	-1.4604	-1.3833	-2.1396	-96.511	-89.236	-85.287	5.279	201.298	77.286	146.124	181.114	0.145	-95.967	140.662	174.758	-127.324	-36.018	139.519	-135.073	0.0012958	0.0010761	5.3324e-05	770.24	1.4362e-05	1.3844e-05	1079.5	198.08	8.5934e-06	1.2095e-05	354.03	103.45	43.992	10.694	7.7781e-06	41.565	0.0041265	0.004387	0.0012427	825.49	4.6906e-05	4.7822e-05	1095.1	212.31	4.6161e-05	4.6687e-05	387.35	112.98	57.431	15.566	4.6209e-05	45.852	-5.249	-43.951	80.409	-144.726	84.859	-60.060	-145.416	-140.684	-89.682	0.143	-142.058	-137.333	-136.674	-132.880	54.381	-133.936	-8191	255	
16897.242	1	1	0	0	0.032346	0.19106	0.090401	0.15108	0.17613	0.13711	0.14557	0.2776	0.019343	0.056652	0.14052	0.13729	0.3228	0.24924	0.081983	0.05098	-0.82292	-1.6313	-1.7958	-1.25	-1.8833	-1.5396	-1.35	-1.9292	-1.0375	-1.6083	-1.9188	-1.1437	-2.025	-1.7417	-1.2083	-2.025	-20.682	55.192	-151.294	-33.316	133.743	-152.060	122.411	162.057	95.968	-116.725	92.527	116.047	169.816	-150.872	-119.909	47.720	0.00090852	0.0010185	0.00075121	765.93	1.239e-05	5.7713e-06	1082.9	199	1.9255e-05	2.7764e-05	352.57	103.59	44.15	10.748	2.3866e-05	41.526	0.0039469	0.0042137	0.0011915	817.54	4.5414e-05	4.6891e-05	1094.5	211.98	4.5106e-05	4.5563e-05	387.37	112.92	57.24	15.51	4.5062e-05	45.827	26.602	32.055	-3.039	-145.376	196.557	-111.815	-145.660	-140.993	24.794	-43.901	-141.870	-137.905	-137.646	-132.955	-90.581	-134.524	-8191	255	
16897.340	1	1	0	0	0.21977	0.075204	0.10533	0.078522	0.022036	0.15728	0.42472	0.23065	0.12508	0.091646	0.27683	0.13993	0.017496	0.071801	0.35071	0.52164	-0.96042	-1.6021	-1.8	-1.1896	-1.8542	-1.6021	-1.4833	-1.925	-1.2938	-1.4625	-2.0396	-1.3729	-1.7292	-1.7812	-1.1812	-2.1063	30.324	83.082	-51.855	63.485	51.819	-0.194	115.330	-85.074	54.502	63.421	97.143	185.635	-112.696	1.297	-137.159	186.255	0.0010359	0.0017272	0.00046923	777.03	1.4215e-05	9.3878e-06	1076.8	200.77	1.1097e-05	1.159e-05	358.23	104.08	44.724	11.04	1.2718e-05	42.434	0.0038705	0.0040936	0.0011438	817.67	4.4375e-05	4.5558e-05	1093.2	212.9	4.4174e-05	4.4818e-05	387.47	113.17	57.299	15.537	4.3208e-05	46.199	23.728	143.424	-85.789	-144.944	-10.234	127.886	-145.274	-140.956	-40.896	83.654	-141.838	-137.657	-137.300	-133.328	-36.612	-134.135	-8191	255	
16897.434	1	1	0	0	0.11551	0.031388	0.07138	0.19394	0.25206	0.30788	0.3344	0.17055	0.29668	0.2277	0.16813	0.11286	0.25201	0.060562	0.15537	0.25068	-0.80208	-1.2021	-1.9229	-1.2833	-1.8	-1.7875	-1.3125	-1.9396	-1.475	-1.2938	-2.0146	-1.4792	-1.4688	-1.8458	-0.92292	-1.9792	181.096	-56.993	-108.674	67.385	-134.109	-21.750	-154.666	151.887	-58.005	-115.603	-47.952	-116.459	-43.653	177.392	-90.543	157.305	0.0014062	0.00092244	0.00046481	775.01	2.8803e-05	1.706e-05	1080.1	201.32	7.0747e-06	1.094e-05	355.68	104.09	44.282	11.026	1.3095e-05	41.866	0.0037665	0.0040444	0.0011211	816.83	4.3467e-05	4.5267e-05	1094.6	212.7	4.4779e-05	4.5245e-05	388.45	113.68	57.674	15.65	4.4959e-05	45.987	-8.017	-85.362	-91.288	-144.860	-65.227	-32.711	-145.316	-141.288	32.820	-148.590	-141.895	-138.117	-137.671	-133.467	39.205	-134.379	-8191	255	
16897.529	1	1	0	0	0.31324	0.18939	0.20557	0.11419	0.12607	0.049876	0.14924	0.23943	0.15729	0.042667	0.14506	0.15681	0.2585	0.025242	0.15095	0.2659	-1.1688	-1.1313	-1.9354	-1.4708	-1.4708	-1.7667	-1.2021	-1.8292	-1.4979	-1.1875	-2.1208	-1.2542	-1.45	-1.9208	-1.0917	-1.8542	-101.591	13.838	-48.082	105.860	-57.985	44.237	162.071	165.611	39.637	-94.039	-133.885	-108.433	188.514	95.482	91.190	-42.984	0.0013589	0.00037986	0.00017343	769.98	2.0178e-05	1.9269e-05	1075.7	199.28	5.6285e-06	2.0996e-05	350.41	102.83	43.187	10.815	8.7277e-06	41.01	0.0039104	0.0041588	0.0011556	817.27	4.5326e-05	4.6904e-05	1086.7	211.93	4.6466e-05	4.7183e-05	384.68	112.39	57.355	15.554	4.5793e-05	45.422	10.626	188.477	-27.205	-144.915	160.979	148.815	-145.375	-140.519	-72.736	16.718	-141.643	-138.092	-137.731	-133.347	51.998	-134.396	-8191	255	
16897.650	1	1	0	0	0.15134	0.18702	0.11112	0.2588	0.11044	0.054195	0.14452	0.066606	0.087789	0.069303	0.019179	0.1158	0.035147	0.10922	0.042345	0.3276	-1.3625	-1.2542	-1.9354	-1.45	-1.4667	-2.0167	-1.3333	-1.8771	-1.7125	-1.2	-2.0563	-1.575	-1.4438	-2.0771	-0.98958	-1.8667	-134.584	168.772	-76.212	49.442	-76.858	-7.124	177.586	-120.750	75.802	47.983	149.823	-127.440	-131.806	79.990	-6.154	129.224	0.0010958	0.0017836	0.00025385	760.61	8.0068e-06	1.7116e-05	1063.5	195.81	1.194e-05	9.367e-06	349.4	101.89	43.899	10.637	1.1147e-05	40.673	0.0040305	0.0042417	0.0011765	814.82	4.6725e-05	4.7899e-05	1083.3	211.41	4.7709e-05	4.823e-05	384.53	112.27	57.794	15.496	4.7166e-05	45.234	9.661	-60.912	-156.265	-145.227	-121.086	19.283	-145.525	-140.879	29.544	-49.250	-142.061	-137.415	-137.375	-133.449	-103.200	-134.247	-8191	255	
16897.746	1	1	0	0	0.22161	0.18094	0.15164	0.19521	0.10164	0.19957	0.17325	0.30017	0.15856	0.16192	0.15381	0.16035	0.2681	0.042784	0.1769	0.18161	-1.3229	-0.92292	-1.7854	-1.4813	-1.2417	-2.1437	-1.3	-1.6625	-1.8375	-0.86667	-1.9021	-1.5562	-1.1646	-2.0208	-1.2583	-1.6229	-91.204	110.942	-26.667	-157.397	-54.248	-58.274	169.651	53.291	56.579	-32.226	-156.413	165.029	96.380	-66.149	35.996	-84.162	0.0012546	0.0010581	0.00034536	757.47	8.8705e-06	1.5884e-05	1074.3	198.53	1.4596e-05	4.0728e-06	351.57	102.53	43.477	10.707	7.7377e-06	40.558	0.0041436	0.0043629	0.0012082	815.2	4.7951e-05	4.7573e-05	1087.5	212.01	4.7433e-05	4.7764e-05	386.97	112.41	57.808	15.511	4.7303e-05	45.516	17.303	-149.857	31.045	-145.337	4.361	52.966	-145.726	-140.810	44.434	77.092	-141.921	-137.563	-137.211	-132.944	19.743	-133.771	-8191	255	
16897.844	1	1	0	0	0.20459	0.22242	0.054063	0.04059	0.26825	0.23367	0.088768	0.26621	0.095009	0.27513	0.3737	0.081925	0.15218	0.1772	0.11934	0.19841	-1.4708	-1.1604	-1.7021	-1.6896	-1	-1.9354	-1.3292	-1.5312	-1.8813	-1.0896	-1.8208	-1.9458	-1.0375	-1.8563	-1.1417	-1.4542	84.392	6.735	100.671	-83.938	-136.196	10.241	138.956	138.620	27.821	53.065	170.518	193.932	62.459	-49.225	28.280	-127.806	0.0013657	0.001046	4.282e-05	762.81	7.5489e-06	1.6761e-05	1065.1	195.96	1.6883e-05	1.8999e-05	352.55	103.01	43.438	10.878	1.0852e-05	41.263	0.0041134	0.0043751	0.0012133	815.85	4.758e-05	4.79e-05	1087	211	4.7041e-05	4.7362e-05	386.24	113.11	57.374	15.396	4.6382e-05	45.631	-26.855	-41.032	126.659	-144.979	141.495	2.212	-145.460	-140.734	81.714	67.134	-141.409	-137.600	-137.497	-133.448	-43.201	-134.271	-8191	255	
16897.939	1	1	0	0	0.13431	0.3735	0.23226	0.33621	0.078967	0.21212	0.33342	0.21968	0.35983	0.19943	0.20138	0.2188	0.29953	0.056039	0.051663	0.22686	-1.5792	-1.3021	-1.8625	-1.7687	-1.0292	-1.8083	-1.3479	-1.3146	-1.7875	-1.2375	-1.8521	-1.8833	-0.83333	-2.0375	-1.4937	-1.3479	14.189	22.751	-34.985	114.850	136.294	110.501	143.294	-111.262	-114.893	93.187	-143.114	56.171	-43.285	-25.848	-23.756	104.525	0.0015114	0.00077435	0.00021766	757.57	6.2896e-06	1.8799e-05	1064.9	194.45	3.0393e-05	3.6524e-06	351.88	101.99	43.053	10.665	2.1902e-05	40.412	0.0039569	0.0041942	0.0011723	811.07	4.5925e-05	4.585e-05	1081.4	209.91	4.566e-05	4.639e-05	383.1	111.89	56.804	15.326	4.6049e-05	45.017	51.581	-11.982	-34.902	-144.827	-14.663	-18.908	-145.701	-140.833	23.051	158.991	-141.572	-138.123	-137.297	-132.869	-67.964	-134.167	-8191	255	
16898.059	1	1	0	0	0.020962	0.25811	0.056199	0.056286	0.21082	0.35191	0.38046	0.07768	0.13443	0.25718	0.22204	0.24711	0.18599	0.21376	0.08574	0.41052	-1.5583	-1.2375	-1.5125	-2.0792	-1.2188	-1.7771	-1.7083	-1.3687	-2.0521	-1.4188	-1.7271	-2.0229	-1.2542	-1.8583	-1.5708	-1.3104	-150.189	-18.788	166.192	-137.161	161.354	97.953	151.817	42.353	-73.281	-106.753	77.070	-89.338	-157.192	-56.779	-6.725	108.333	0.0014481	0.00024969	0.00041716	758.57	1.8577e-05	1.0274e-05	1070.7	195.61	8.4879e-06	1.6096e-05	347.78	102.14	43.31	10.542	8.8942e-06	40.33	0.0039399	0.0042151	0.0011689	809.15	4.5717e-05	4.5925e-05	1080.4	209.49	4.5469e-05	4.6592e-05	382.71	111.68	56.986	15.318	4.6651e-05	44.99	-18.017	-118.339	11.338	-145.125	45.469	-3.354	-145.420	-140.907	20.925	-19.462	-142.035	-137.565	-137.759	-132.934	-23.922	-134.122	-8191	255	
16898.131	1	1	0	0	0.12537	0.23325	0.29913	0.14378	0.22983	0.14587	0.18133	0.3552	0.17429	0.082058	0.10864	0.020105	0.32348	0.2677	0.27396	0.10088	-1.6458	-1.3937	-1.4479	-1.9813	-1.2167	-1.8104	-1.8292	-1.3312	-1.8958	-1.3687	-1.4458	-2.15	-1.2125	-1.6833	-1.8583	-1.2479	129.932	-115.125	-100.982	132.268	28.246	-80.622	158.826	-131.290	-97.854	88.376	30.452	191.866	143.827	95.367	37.255	-82.159	0.00084433	0.0010494	0.00044265	758.71	2.1595e-05	2.2075e-05	1068	195.13	9.0811e-06	1.0243e-05	348.89	102.2	43.494	10.672	1.2202e-05	40.153	0.0039111	0.0042751	0.0011771	808.78	4.5688e-05	4.6176e-05	1081.5	209.42	4.5831e-05	4.7094e-05	382.98	111.91	57.111	15.313	4.6858e-05	45.099	8.331	2.143	-35.471	-145.085	-84.126	-111.583	-145.617	-141.273	-38.590	-53.737	-141.929	-137.624	-137.948	-133.345	99.483	-134.185	-8191	255	
16898.227	1	1	0	0	0.36616	0.19849	0.27133	0.12916	0.13555	0.22369	0.13964	0.26529	0.15028	0.33931	0.090747	0.23782	0.079295	0.1486	0.060024	0.16055	-1.3417	-1.2208	-1.2563	-2.0833	-1.2708	-1.8271	-2.0438	-1.3042	-1.7917	-1.4229	-1.2667	-2.0625	-1.2437	-1.7083	-1.6667	-1.0312	78.723	11.605	-155.331	181.615	22.803	-3.005	191.016	161.622	-25.528	-66.355	-10.610	95.439	-138.681	-124.101	75.665	191.034	0.0012634	0.00012134	0.0001527	753.07	5.0651e-06	2.1388e-05	1067.8	195.21	8.0368e-06	1.8123e-05	348.44	102.61	43.646	10.603	5.8544e-06	40.529	0.003947	0.0042779	0.0011994	808.98	4.6517e-05	4.7327e-05	1084.4	209.82	4.5635e-05	4.7525e-05	384.06	112.38	57.224	15.357	4.739e-05	45.107	-32.883	74.036	150.695	-145.096	-67.053	53.265	-145.563	-141.271	44.761	-64.053	-141.524	-137.816	-137.203	-133.212	32.780	-134.047	-8191	255	
16898.322	1	1	0	0	0.20077	0.051683	0.016303	0.16314	0.095461	0.17676	0.39998	0.037296	0.055425	0.20337	0.0068566	0.1794	0.30394	0.11815	0.14113	0.19492	-1.4167	-1.4937	-1.0688	-1.9583	-1.1521	-1.425	-2.1063	-1.0938	-1.8521	-1.475	-1.3271	-2.1063	-1.4083	-1.5688	-1.8479	-1.1458	74.085	42.138	59.582	125.385	113.680	79.862	180.316	-95.861	24.880	-152.775	-0.490	142.553	48.468	-2.803	181.694	189.244	0.0005901	0.0017268	9.1464e-05	753.7	1.2431e-05	2.6506e-05	1064.4	196.06	1.1174e-05	1.4278e-05	349.68	102.06	43.979	10.636	1.6318e-05	40.033	0.0039854	0.004343	0.0011995	804.93	4.6124e-05	4.6694e-05	1077.7	209.2	4.527e-05	4.7195e-05	382.23	111.31	56.991	15.291	4.5554e-05	44.624	36.048	-147.514	-158.051	-144.892	-99.167	-10.215	-145.639	-140.754	3.582	195.520	-141.460	-138.181	-137.730	-133.438	90.223	-134.491	-8191	255	
16898.441	1	1	0	0	0.14881	0.043912	0.028772	0.20911	0.05705	0.39654	0.29904	0.085327	0.033761	0.14519	0.14309	0.29611	0.10394	0.18104	0.16334	0.15158	-1.5917	-1.6562	-1.2188	-1.9854	-1.4688	-1.3667	-2.3	-1.1417	-1.5625	-1.9	-1.3104	-2.0542	-1.5271	-1.3875	-2.0583	-1.2979	141.161	179.889	-41.593	168.497	104.359	-106.248	143.889	-15.171	-15.262	-49.696	158.690	141.573	197.582	79.540	-108.224	167.702	0.0016043	0.00084481	0.00025283	756.1	1.7436e-05	1.2782e-05	1060.4	196.54	6.3408e-06	1.4817e-05	346.13	101.06	43.03	10.433	3.182e-06	39.915	0.0038884	0.0042483	0.0011729	801.33	4.5947e-05	4.6398e-05	1074.1	208.59	4.5464e-05	4.756e-05	380.15	110.85	57.032	15.249	4.6378e-05	44.392	14.482	-73.205	73.295	-144.650	-103.796	-78.524	-145.890	-140.678	-126.660	-35.015	-141.850	-137.707	-137.126	-132.244	36.871	-134.176	-8191	255	
16898.537	1	1	0	0	0.13337	0.27121	0.2969	0.20627	0.19444	0.23335	0.19605	0.099451	0.26229	0.14292	0.13218	0.1193	0.13647	0.26789	0.086447	0.15127	-1.2479	-1.725	-1.175	-1.8937	-1.4583	-1.3854	-1.9896	-1.3146	-1.5667	-1.8062	-1.2229	-2.0604	-1.6521	-1.2021	-1.9333	-1.2188	-152.196	37.083	99.708	111.915	-17.445	-85.632	126.321	2.307	-13.714	-4.611	-81.693	-104.137	128.917	154.240	-82.913	-49.205	0.0006163	0.00032553	0.00031264	751.73	1.4091e-05	1.4288e-05	1054.9	193.46	1.4851e-05	1.1214e-05	346.86	102.03	43.33	10.504	6.6281e-06	40.116	0.0039583	0.0043037	0.0011762	802.83	4.6349e-05	4.6618e-05	1071.5	208.18	4.5394e-05	4.6879e-05	381.37	111.07	56.907	15.211	4.5917e-05	44.57	23.450	17.871	-20.357	-144.644	-111.798	-65.031	-145.375	-140.885	26.540	25.997	-141.766	-137.927	-138.157	-133.858	105.908	-134.529	-8191	255	
16898.635	1	1	0	0	0.10752	0.082031	0.24479	0.41937	0.13555	0.193	0.34013	0.19511	0.21413	0.17574	0.25976	0.2087	0.21191	0.27436	0.1821	0.12535	-1.1521	-2.1	-1.1479	-1.8958	-1.7062	-1.2687	-1.9208	-1.4292	-1.4271	-1.8917	-1.3125	-1.7521	-1.7437	-1.1417	-2.0125	-1.2521	3.079	-23.027	-70.396	200.795	97.018	-18.153	102.117	75.507	-84.093	-11.491	-149.992	30.788	102.524	194.004	-157.604	73.504	0.00085032	0.0003107	0.00028107	747.76	1.9256e-05	2.0178e-05	1067.6	194.81	7.0048e-06	2.4163e-05	348.74	102.21	42.822	10.433	1.1643e-05	39.495	0.0039665	0.0042651	0.0011834	801.94	4.6396e-05	4.6798e-05	1075.3	208.84	4.5516e-05	4.6378e-05	380.59	110.92	56.801	15.117	4.5203e-05	44.12	24.521	-101.026	69.472	-145.139	-62.413	-127.525	-145.444	-141.086	99.906	-14.892	-141.602	-137.625	-137.312	-133.406	-136.086	-134.560	-8191	255	
16898.730	1	1	0	0	0.062319	0.29655	0.12781	0.084739	0.11199	0.097082	0.090405	0.21383	0.16728	0.20524	0.51054	0.19323	0.1095	0.21902	0.11328	0.14683	-1.0333	-1.9104	-1.0896	-1.6875	-1.7958	-0.95208	-2.075	-1.3563	-1.3292	-1.9562	-1.3062	-1.8125	-1.75	-1.0896	-1.9062	-1.4312	174.649	111.316	-58.716	-116.270	-100.875	75.021	8.769	-61.579	133.045	-50.851	182.769	141.837	160.774	-143.684	105.920	108.060	0.0014446	0.00014463	0.00020242	747.01	1.6332e-05	8.8314e-06	1054.9	192.49	3.3053e-05	1.0192e-05	343.12	100.72	42.79	10.286	6.3485e-06	39.304	0.0039564	0.0042406	0.0011607	800.05	4.671e-05	4.6278e-05	1071.4	207.34	4.5517e-05	4.6153e-05	378.23	109.71	56.372	14.948	4.4727e-05	43.771	-7.657	-106.901	-108.307	-144.764	-8.418	130.518	-145.403	-140.880	-75.648	-49.631	-141.396	-137.464	-136.684	-132.876	-127.035	-134.170	-8191	255	
16898.826	1	1	0	0	0.18895	0.13588	0.13533	0.29756	0.2197	0.2711	0.15838	0.30196	0.21182	0.20744	0.039017	0.17368	0.079467	0.20873	0.34682	0.21154	-0.85417	-1.7875	-1.4125	-1.6667	-1.9271	-1.0667	-1.8354	-1.8208	-0.93125	-2.0146	-1.3646	-1.4646	-1.9646	-1.1271	-1.6167	-1.6958	24.599	72.305	166.140	132.077	6.887	66.648	169.670	152.362	-116.324	-37.689	114.262	163.088	13.632	38.891	161.506	-15.210	0.00040275	0.0018913	0.00018316	745.54	1.5428e-05	1.6397e-05	1052.2	194.04	2.3575e-05	7.145e-06	346.11	99.61	42.405	10.273	1.4107e-05	38.945	0.0039351	0.0042257	0.0011683	797.77	4.6031e-05	4.5954e-05	1067.8	207.32	4.5356e-05	4.5572e-05	377.11	109.19	55.729	14.862	4.4203e-05	43.476	-6.302	-45.140	46.727	-144.409	12.715	-2.973	-145.090	-140.947	46.467	-2.080	-141.668	-137.350	-136.688	-133.477	6.893	-134.255	-8191	255	
16898.924	1	1	0	0	0.25357	0.15413	0.054569	0.23388	0.17788	0.17851	0.2153	0.14451	0.1982	0.33562	0.11003	0.13809	0.050849	0.1516	0.0076802	0.032179	-0.69583	-1.9354	-1.3458	-1.5104	-1.9896	-1.0583	-1.8	-1.7604	-0.89167	-1.9646	-1.4625	-1.2125	-1.8625	-1.2625	-1.8333	-1.8646	23.993	176.936	183.297	-132.484	101.108	22.502	132.294	29.504	-9.774	-14.185	45.708	-86.380	6.554	-53.254	-77.605	-90.742	0.00082131	0.00079037	0.00044879	742.35	1.5965e-05	5.7249e-06	1045	191.82	2.2141e-05	1.8257e-05	340.35	99.921	42.315	9.885	1.4215e-05	38.557	0.0039095	0.0041384	0.0011842	795.09	4.6125e-05	4.6341e-05	1063	206.22	4.5777e-05	4.6473e-05	375.97	109.73	56.179	14.874	4.676e-05	43.477	25.461	31.282	-6.050	-144.705	-119.914	149.225	-145.554	-140.727	-28.167	99.284	-141.501	-137.573	-136.822	-133.119	164.378	-134.215	-8191	255	
16899.020	1	1	0	0	0.12496	0.25301	0.23584	0.10356	0.12072	0.24269	0.098546	0.074009	0.14439	0.19473	0.37787	0.059327	0.23993	0.13021	0.2758	0.17385	-0.6375	-1.8208	-1.35	-1.2521	-1.9813	-1.2708	-1.6354	-1.8333	-1.0458	-1.9688	-1.425	-1.3604	-2.0604	-1.2958	-1.3479	-2.1083	-119.011	79.902	9.676	171.546	174.761	-69.511	-136.038	99.787	82.504	-139.213	-51.787	191.069	-52.770	-78.790	138.136	149.154	0.00071092	0.0010798	2.4294e-05	739.76	1.4661e-05	7.898e-06	1045	188.77	1.0031e-05	1.52e-05	339.45	97.916	41.501	9.9599	1.5706e-05	37.807	0.0040621	0.0043104	0.0012251	797.03	4.7691e-05	4.8899e-05	1066.2	206.37	4.8635e-05	4.9507e-05	379.35	109.34	56.605	15.198	5.0491e-05	43.182	22.913	-25.634	14.485	-143.987	163.309	-68.736	-145.265	-140.604	-38.530	109.783	-141.507	-137.585	-136.960	-132.871	-147.311	-133.786	-8191	255	
16899.141	1	1	0	0	0.050412	0.23791	0.10416	0.10239	0.093518	0.24087	0.098779	0.37945	0.23374	0.044838	0.3437	0.12077	0.23522	0.15475	0.33864	0.20124	-0.75417	-1.9292	-1.5812	-1.3333	-1.9688	-1.3729	-1.7333	-1.9729	-1.2313	-1.9333	-1.7667	-1.1875	-1.9917	-1.3292	-1.3229	-2.275	129.649	-101.404	107.508	-116.411	120.421	56.628	118.888	158.003	-26.295	145.803	158.049	87.282	-39.128	-75.253	160.450	-109.358	0.0011993	0.00084246	0.00012905	732.59	2.4267e-05	1.6175e-05	1048	188.47	1.6204e-05	7.8727e-06	336.49	98.101	40.915	10.068	2.8032e-06	37.67	0.0043018	0.0045259	0.0012904	799.96	4.9465e-05	5.0492e-05	1064.5	205.54	4.8782e-05	4.9823e-05	376.94	109.15	56.065	15.053	4.8225e-05	42.85	5.022	-17.065	194.660	-144.924	58.118	-33.222	-145.341	-140.817	82.494	-36.675	-141.109	-136.892	-136.866	-132.667	-7.114	-133.440	-8191	255	
16899.236	1	1	0	0	0.17356	0.16125	0.38277	0.24302	0.16379	0.20718	0.33633	0.12023	0.1205	0.14874	0.17665	0.15844	0.058788	0.16424	0.24563	0.16909	-0.6375	-1.4729	-1.6167	-1.0208	-1.8854	-1.3667	-1.2208	-1.8583	-1.1167	-1.7083	-1.9979	-1.3354	-1.9958	-1.3333	-1.3146	-1.9021	-118.507	68.900	35.553	192.958	-118.153	155.361	178.600	-88.217	56.818	-37.271	125.238	134.583	-62.786	186.934	-23.813	102.085	0.00066553	0.001237	0.00035143	746.82	2.4793e-05	1.088e-05	1050.4	191.18	5.8214e-06	9.4731e-06	340.16	98.709	42.572	10.287	1.4099e-05	38.692	0.0040968	0.0043881	0.0012325	797.71	4.6375e-05	4.7336e-05	1065	205.73	4.5653e-05	4.6502e-05	377.52	108.76	56.263	15.02	4.6891e-05	43.183	3.899	-102.060	-83.643	-144.379	85.914	-61.776	-145.136	-140.511	-106.987	39.773	-140.825	-137.002	-136.330	-132.267	-86.277	-134.122	-8191	255	
16899.332	1	1	0	0	0.013268	0.22908	0.16666	0.081529	0.20964	0.096437	0.13275	0.14811	0.17132	0.25382	0.26749	0.55915	0.17135	0.16688	0.065324	0.11228	-0.85208	-1.5458	-1.8687	-1.0875	-1.8667	-1.6604	-1.425	-1.9688	-1.0958	-1.6646	-1.8958	-1.0979	-1.7771	-1.6313	-1.0729	-1.9854	28.270	27.661	168.402	-24.193	-92.790	-43.802	-155.615	152.768	106.885	187.788	27.101	122.717	184.502	200.057	68.900	114.550	0.0011926	0.00067816	0.00042986	743.64	9.723e-06	1.2941e-05	1052.4	192.83	1.8462e-05	1.8237e-05	343	99.295	42.428	10.294	1.8121e-05	38.964	0.0040099	0.0042846	0.0012104	800.23	4.6019e-05	4.7582e-05	1066.7	206.92	4.6203e-05	4.6948e-05	378.55	109.81	56.277	15.156	4.6676e-05	43.778	18.477	171.187	-93.986	-144.595	59.756	-80.508	-144.760	-140.209	-78.080	-23.302	-141.412	-137.395	-136.824	-132.081	-90.405	-134.131	-8191	255	
16899.426	1	1	0	0	0.28259	0.15031	0.27003	0.22678	0.052383	0.17659	0.34401	0.26079	0.12956	0.22385	0.08269	0.17057	0.25519	0.06392	0.28434	0.17519	-0.83333	-1.2208	-1.9562	-1.2625	-1.4958	-1.675	-1.1437	-1.9792	-1.1979	-1.1729	-2.125	-1.25	-1.7354	-1.7604	-0.94792	-2.0729	86.819	-28.084	-51.948	-98.324	-144.520	-12.896	98.081	5.973	112.519	-43.961	171.470	-147.212	-139.589	-148.208	-157.418	137.688	0.0009767	0.00055427	0.00030679	749.99	1.1547e-05	4.2988e-06	1055	192.5	5.8008e-06	1.1975e-05	346.63	100.51	42.656	10.094	7.7803e-06	39.516	0.0040337	0.0043085	0.0012021	800.16	4.579e-05	4.7489e-05	1070.2	207.44	4.6135e-05	4.7245e-05	379.79	110.52	56.438	15.186	4.687e-05	44.025	46.804	-33.464	-58.580	-144.555	2.049	63.499	-144.989	-140.431	32.385	183.956	-141.459	-137.613	-137.262	-132.290	-62.936	-133.674	-8191	255	
16899.523	1	1	0	0	0.11688	0.29304	0.21023	0.14079	0.32846	0.19586	0.18182	0.12597	0.095039	0.15792	0.07041	0.20455	0.14404	0.039665	0.22561	0.31443	-0.76875	-1.3354	-1.7792	-1.0625	-1.4813	-1.6167	-1.1396	-1.9396	-1.3854	-1.2271	-2.0417	-1.3354	-1.4896	-1.9167	-0.98958	-1.8896	179.441	-149.321	169.811	-91.015	-96.523	-85.968	164.814	-156.123	123.809	88.811	-10.075	174.408	147.606	176.196	144.051	169.368	0.0020398	0.00037588	0.00020342	740.4	1.533e-05	1.4534e-05	1042.5	190.29	1.1575e-05	8.5535e-06	341.53	98.705	41.925	10.03	2.0672e-05	37.989	0.0040808	0.0043848	0.0012089	796.11	4.7039e-05	4.8772e-05	1063.4	205.4	4.7768e-05	4.8715e-05	376.32	109.61	56.64	15.141	4.8448e-05	43.279	0.274	186.125	188.006	-144.820	201.491	32.007	-145.200	-140.017	60.893	170.956	-141.548	-137.765	-136.379	-132.721	16.014	-134.201	-8191	255	
16899.619	1	1	0	0	0.12548	0.1904	0.03286	0.096179	0.28919	0.16227	0.24012	0.078047	0.088735	0.18346	0.31021	0.098306	0.097073	0.05974	0.1498	0.17369	-1.2313	-1.1375	-1.9417	-1.3208	-1.7437	-1.8917	-1.1104	-1.9458	-1.6854	-1.1854	-1.8125	-1.2854	-1.1271	-1.8021	-1.2167	-1.6208	33.614	88.054	28.244	180.469	36.947	32.074	133.879	-104.190	-99.152	-21.129	173.913	58.253	84.002	-84.878	193.111	-11.432	0.00069362	0.00070152	0.00035881	737.35	1.944e-05	7.1904e-06	1040.3	189.05	2.1153e-05	1.0874e-05	338.22	97.589	41.894	9.9895	1.2341e-05	37.696	0.0042789	0.0045407	0.0012651	799.32	4.9907e-05	5.1904e-05	1065.2	205.6	5.0984e-05	5.1683e-05	377.94	109.37	57.051	15.248	5.0478e-05	42.949	57.870	197.538	-144.877	-145.150	-20.027	-14.759	-145.356	-140.473	194.892	-76.220	-141.174	-138.177	-136.566	-132.732	146.255	-134.218	-8191	255	
16899.738	1	1	0	0	0.19853	0.060651	0.2359	0.2063	0.060356	0.19714	0.33715	0.2909	0.1322	0.14627	0.12338	0.38618	0.25831	0.20512	0.21944	0.45387	-1.2188	-1.0187	-1.8042	-1.3417	-1.2563	-1.9604	-1.2917	-1.6625	-1.7521	-0.98542	-1.9146	-1.4625	-1.4021	-1.9521	-1.1646	-1.6271	-56.338	82.079	-127.191	38.768	179.171	-144.648	134.302	-95.454	194.863	-111.250	28.758	123.569	-59.397	-95.456	162.385	-124.607	0.00057299	0.00079569	0.00050842	733.57	1.1754e-05	1.5045e-05	1037.1	189.79	2.2871e-05	5.7643e-06	337.36	98.002	41.857	9.8813	2.0803e-05	38.118	0.0043805	0.0046214	0.0012758	799.23	4.9976e-05	5.0526e-05	1062.9	206.33	5.0574e-05	5.1058e-05	376.36	109.65	57.311	15.147	4.9218e-05	43.225	85.770	-154.656	177.563	-144.910	100.661	-6.901	-145.449	-140.222	11.569	-137.202	-141.372	-137.622	-137.050	-132.690	-49.389	-133.543	-8191	255	
16899.836	1	1	0	0	0.049967	0.23344	0.17215	0.084839	0.14156	0.090077	0.24906	0.11643	0.27992	0.24128	0.23577	0.29484	0.20528	0.22015	0.20778	0.1772	-1.4667	-1.1604	-1.7208	-1.5812	-1.1292	-1.8729	-1.3625	-1.4854	-1.6979	-1.0312	-1.8146	-1.5042	-1.0271	-1.8687	-1.325	-1.45	-61.245	151.295	-0.285	-23.549	111.107	-6.259	190.043	169.245	22.325	189.979	193.057	-28.411	-149.681	89.872	-150.100	-152.923	0.00067	0.00070269	0.00050354	740.01	1.4283e-05	1.0915e-05	1051.4	190.69	5.2967e-06	7.766e-06	343.65	98.314	41.843	9.9372	1.1886e-05	38.407	0.004268	0.0044907	0.001235	797.96	4.8761e-05	4.8556e-05	1067.4	206.33	4.8861e-05	4.9801e-05	378.34	109.81	57.188	15.173	5.0238e-05	43.688	32.870	50.436	-115.272	-144.810	157.283	54.705	-145.089	-140.232	70.432	0.657	-141.198	-137.013	-137.415	-132.903	182.988	-133.539	-8191	255	
16899.932	1	1	0	0	0.064992	0.19696	0.22979	0.089032	0.26975	0.1467	0.1557	0.17598	0.37101	0.050697	0.12206	0.07871	0.27288	0.19419	0.21245	0.20492	-1.4708	-0.98333	-1.575	-1.8083	-1.1896	-1.8312	-1.35	-1.2646	-1.9688	-0.99167	-1.8979	-1.7854	-1.0938	-1.9958	-1.3729	-1.4792	-38.313	-34.530	173.054	94.760	-93.950	-156.910	-50.543	-110.677	-28.489	140.342	107.018	-155.958	66.024	130.666	-106.637	57.916	0.0014542	0.00045917	0.00014202	735.5	1.0016e-05	8.262e-06	1037.4	189.12	1.9847e-05	1.2984e-05	337.5	97.488	41.427	9.8515	9.2457e-06	37.604	0.0044021	0.0046873	0.001306	802.03	5.1796e-05	5.1791e-05	1066.5	207.29	5.1704e-05	5.242e-05	379.97	110.47	57.584	15.334	5.2211e-05	43.261	-0.863	87.787	49.791	-144.640	-117.244	91.552	-145.171	-140.162	135.747	5.743	-141.109	-137.505	-136.870	-132.604	57.293	-133.561	-8191	255	
16900.004	1	1	0	0	0.21868	0.14359	0.21183	0.067747	0.06063	0.17561	0.29237	0.23062	0.073749	0.037021	0.3827	0.13274	0.13502	0.13154	0.16357	0.14412	-1.4688	-0.92083	-1.7687	-1.7792	-1.05	-1.7896	-1.6667	-1.2625	-1.8479	-1.1771	-1.7188	-1.7875	-1.2146	-1.8146	-1.3312	-1.3854	98.982	-28.564	5.807	-77.940	166.154	-156.467	149.978	-122.154	-144.476	-139.441	127.955	-20.555	82.767	111.537	162.008	-73.170	0.0013415	0.00053211	0.00022518	731.44	2.1359e-06	1.0137e-05	1033.3	188.54	5.4889e-06	1.745e-05	334.83	96.453	40.979	9.7332	4.1893e-06	36.751	0.0044865	0.004747	0.0013195	803.31	5.2119e-05	5.2351e-05	1065.7	207.09	5.1882e-05	5.3029e-05	378.61	109.48	57.389	15.178	5.2852e-05	42.74	17.159	-132.127	192.596	-144.251	97.038	-1.403	-144.854	-139.580	114.653	17.816	-140.537	-137.262	-136.658	-133.077	-131.223	-133.427	-8191	255	
16900.100	1	1	0	0	0.30585	0.11454	0.30045	0.056791	0.29015	0.32332	0.24955	0.37207	0.10864	0.047426	0.095479	0.24454	0.039945	0.035673	0.14996	0.099523	-1.5021	-1.3104	-1.5292	-1.9333	-1.0875	-1.7854	-1.4562	-1.2708	-2.0354	-1.2229	-1.5854	-1.9125	-0.99583	-1.8729	-1.4583	-1.3583	-27.932	-23.631	-6.361	82.905	-79.932	-91.774	166.756	63.173	-93.748	-152.361	108.879	142.683	48.499	126.847	-113.506	197.271	0.0013894	0.00069641	0.00017283	735.52	9.7704e-06	1.3201e-05	1031.2	187.02	5.1624e-07	2.4217e-05	332.84	96.547	40.865	9.6392	2.3013e-05	36.31	0.0044656	0.0048015	0.0013386	803.46	5.2312e-05	5.2683e-05	1066.5	206.23	5.2384e-05	5.4038e-05	379.53	109.86	57.915	15.383	5.5082e-05	42.725	40.592	24.854	200.173	-143.876	-24.780	172.027	-144.966	-140.310	-61.116	-44.854	-141.112	-137.931	-136.516	-133.446	-38.133	-133.273	-8191	255	
16900.221	1	1	0	0	0.12949	0.11133	0.18233	0.21912	0.096211	0.20689	0.30033	0.12387	0.14541	0.10876	0.30405	0.12769	0.14673	0.15864	0.2028	0.12634	-1.6375	-1.2271	-1.3958	-2.0708	-1.2812	-1.375	-1.7625	-1.3104	-1.9438	-1.3646	-1.3208	-1.9021	-1.0187	-1.6521	-1.7208	-1.1437	-118.787	135.091	-79.107	-68.632	-26.739	20.351	125.706	130.941	-89.636	30.377	163.100	-137.083	150.377	-29.502	182.030	101.549	0.0013679	0.0010975	0.00025669	728.58	1.8065e-05	8.6557e-06	1036.1	184.03	1.0556e-05	1.5639e-05	328.47	94.749	40.368	9.3694	1.7641e-05	35.924	0.0046896	0.0051242	0.0014398	810.98	5.6639e-05	5.7905e-05	1075.9	207.68	5.7555e-05	6.0666e-05	384.89	110.8	59.515	15.944	6.101e-05	43.031	4.790	171.456	-34.607	-144.669	-29.812	132.897	-144.962	-140.227	63.008	-14.704	-140.772	-137.302	-136.563	-132.415	103.805	-133.926	-8191	255	
16900.316	1	1	0	0	0.13757	0.26343	0.15446	0.34215	0.16899	0.2079	0.27716	0.22947	0.16498	0.16715	0.208	0.31691	0.090091	0.13071	0.18212	0.065347	-1.3646	-1.2208	-1.3937	-1.9708	-1.0646	-1.4354	-1.9479	-1.1604	-1.9417	-1.4708	-1.325	-1.9521	-1.1729	-1.5146	-1.7271	-1.2125	154.247	-32.061	-126.654	140.759	86.741	167.374	152.964	119.250	-78.073	13.086	59.580	199.461	-121.614	-105.035	105.772	106.720	0.0013289	0.0016511	0.00055654	723.23	1.6158e-05	5.6748e-06	1021	183.99	1.1058e-05	1.6227e-05	326.52	93.844	40.449	9.1448	1.6369e-05	35.493	0.0052265	0.0057353	0.0015992	819.98	6.2322e-05	6.3402e-05	1077	210.19	6.1829e-05	6.48e-05	386.71	110.83	60.326	16.078	6.3257e-05	42.743	39.131	59.731	80.738	-144.633	-71.700	198.842	-145.146	-139.849	53.791	149.651	-141.156	-137.189	-135.830	-132.133	100.595	-132.757	-8191	255	
16900.412	1	1	0	0	0.10675	0.19552	0.095993	0.093462	0.19383	0.081089	0.11813	0.15606	0.1177	0.26803	0.27637	0.10793	0.10052	0.26263	0.30582	0.13337	-1.3062	-1.3646	-1.1542	-2.1271	-1.0938	-1.5312	-2.0563	-1.1187	-1.7521	-1.7854	-1.1604	-2.0354	-1.4521	-1.4396	-1.7292	-1.2062	-54.286	80.203	-64.973	91.413	30.913	130.782	-108.546	85.294	112.278	102.382	158.917	194.397	-16.672	-138.630	-31.954	-17.765	0.00090161	0.001121	0.00035414	728.12	2.9898e-05	1.8362e-05	1023.9	184.74	1.735e-05	1.7311e-05	329.85	95.011	40.008	9.5178	1.7167e-05	35.791	0.0052749	0.0058281	0.0015881	818.97	6.0935e-05	6.1655e-05	1071.9	208.36	5.8097e-05	5.9745e-05	381.9	109.4	58.45	15.638	5.6715e-05	42.492	12.377	-96.230	-70.454	-144.248	-115.352	-83.018	-144.894	-139.899	-73.312	13.832	-140.732	-137.065	-136.995	-132.318	-17.334	-134.301	-8191	255	
16900.531	1	1	0	0	0.076706	0.093564	0.043681	0.030172	0.11167	0.33495	0.17242	0.077304	0.25691	0.30002	0.24821	0.21188	0.19922	0.13754	0.14669	0.15029	-1.5688	-1.4146	-0.99792	-1.7958	-1.3083	-1.1875	-2.1625	-1.2271	-1.6208	-1.7188	-0.96458	-1.7833	-1.2479	-1.3	-1.8188	-1.1187	178.034	-59.751	187.006	44.310	96.763	-34.036	112.731	-90.390	35.981	186.678	-107.084	-35.010	-141.691	-17.460	95.635	-120.414	0.00070579	0.0014248	0.0001873	728.74	1.8474e-05	1.7639e-05	1032.6	184.36	3.4749e-06	9.2176e-06	331.4	95.395	39.902	9.2841	6.8771e-06	35.669	0.0048501	0.0052717	0.0014507	808.59	5.7083e-05	5.7585e-05	1069.6	206.74	5.6372e-05	5.8835e-05	381.89	109.52	58.602	15.667	5.7903e-05	42.621	-54.011	-92.154	74.933	-144.757	-137.195	39.192	-145.892	-140.914	42.778	161.664	-141.492	-137.691	-137.069	-133.649	94.377	-134.275	-8191	255	
16900.604	1	1	0	0	0.18421	0.052528	0.042207	0.34546	0.089792	0.19492	0.16115	0.18451	0.21726	0.2039	0.027989	0.2025	0.1883	0.056664	0.17597	0.18977	-1.0333	-1.8062	-0.93958	-1.7792	-1.4146	-1.3042	-2.0208	-1.3354	-1.6229	-1.8354	-1.3188	-1.9875	-1.3979	-1.2542	-1.8458	-1.5021	15.328	6.608	43.971	100.440	114.289	26.742	172.811	184.768	-85.564	5.151	161.039	-113.712	86.129	161.683	-112.811	170.512	0.0015922	0.00044917	9.9703e-05	726.14	2.2321e-05	5.1018e-06	1025.4	184.2	3.0016e-05	7.431e-06	329.72	93.679	40.264	9.4	1.7494e-05	35.385	0.0050166	0.005443	0.0015053	811.21	6.0194e-05	6.018e-05	1071.8	207.93	5.8978e-05	6.0637e-05	384.01	110.07	59.69	15.903	5.9937e-05	42.779	-17.506	-48.103	-135.413	-145.251	-6.614	141.072	-145.832	-141.538	-46.832	129.432	-141.835	-138.345	-138.053	-133.996	133.076	-134.444	-8191	255	
16900.699	1	1	0	0	0.18996	0.40529	0.1939	0.1441	0.13761	0.23035	0.30343	0.16664	0.31396	0.14105	0.13615	0.2535	0.26975	0.18184	0.22116	0.18722	-1.2208	-1.8604	-1.1125	-1.8021	-1.6896	-1.0167	-1.95	-1.2958	-1.2271	-1.7271	-1.2021	-1.4937	-1.7437	-1.1167	-1.75	-1.3083	126.913	108.219	175.781	148.837	-124.648	-146.594	64.478	73.351	-76.029	21.410	178.721	-155.314	-109.196	177.375	160.117	-71.493	0.001443	0.001262	0.00049953	723.58	6.9326e-06	3.9351e-06	1027.1	184.95	5.4217e-06	1.2127e-05	327.18	94.305	40.043	9.2477	1.4852e-05	34.984	0.0052227	0.0055641	0.001533	813.09	6.1201e-05	6.1391e-05	1072.6	208.88	5.9944e-05	6.1134e-05	383.1	109.97	59.608	15.912	5.9655e-05	42.59	-15.542	88.327	-69.777	-145.456	-58.915	-140.853	-145.768	-141.485	125.010	-35.237	-142.491	-138.365	-137.175	-132.358	-70.138	-134.022	-8191	255	
16900.820	1	1	0	0	0.18831	0.091055	0.10453	0.12007	0.083102	0.06877	0.04598	0.34815	0.31105	0.20535	0.01064	0.063852	0.048547	0.12479	0.078345	0.24366	-0.84167	-1.9667	-1.0979	-1.5938	-1.7667	-1.0812	-1.9083	-1.4604	-1.2229	-1.8646	-1.3208	-1.4604	-1.8646	-1.1167	-1.8104	-1.4312	-120.606	7.958	9.569	85.569	26.452	31.209	-64.598	101.282	-71.239	128.206	127.433	125.383	189.255	13.590	-39.661	191.974	0.0021486	0.00036643	0.00019705	724.58	4.1858e-06	1.5971e-05	1017.1	182.34	2.3292e-05	3.4184e-05	323	91.807	39.112	8.9979	4.073e-06	34.232	0.0052487	0.0056371	0.0015569	820.17	6.2692e-05	6.2917e-05	1071.1	208.98	6.2651e-05	6.3666e-05	384.16	109.89	60.156	15.926	6.2341e-05	42.298	15.519	-106.905	172.659	-145.196	-20.699	-65.202	-145.651	-141.462	42.919	-57.557	-142.325	-138.534	-137.931	-133.918	-18.135	-134.311	-8191	255	
16900.916	1	1	0	0	0.10605	0.058082	0.22008	0.18295	0.18653	0.058009	0.13881	0.067251	0.41922	0.30766	0.079638	0.25168	0.26628	0.16731	0.12542	0.20807	-0.85	-1.7479	-1.0375	-1.4813	-1.8958	-1.1938	-1.9458	-1.5083	-0.9625	-1.7271	-1.3875	-1.3875	-1.8354	-1.0083	-1.525	-1.8937	-129.661	-149.116	77.149	-122.002	-35.071	-23.283	-76.163	180.346	66.462	87.520	122.447	145.233	174.948	143.623	-40.208	156.806	0.00095392	0.00082403	0.00023425	721	2.4358e-05	5.6315e-06	1015.2	181.18	2.3601e-06	2.5016e-05	323.99	90.933	39.645	9.1041	2.8767e-05	34.142	0.0054285	0.005761	0.0016085	818.01	6.3473e-05	6.3536e-05	1068.1	208.66	6.3094e-05	6.3522e-05	383.09	109.65	60.078	15.866	6.3232e-05	42.047	37.181	-71.892	76.517	-145.183	-80.317	64.341	-145.836	-141.540	-137.937	-150.271	-141.507	-138.089	-137.814	-132.599	-27.241	-134.287	-8191	255	
16901.012	1	1	0	0	0.18676	0.14605	0.18693	0.24154	0.24166	0.055288	0.13806	0.091869	0.11476	0.1949	0.31323	0.36616	0.21041	0.22346	0.38037	0.26832	-0.89792	-1.7875	-1.3104	-1.3625	-2.0083	-1.05	-1.9813	-1.8542	-1.0729	-1.875	-1.3604	-1.4021	-2.0396	-1.2625	-1.5292	-1.8583	-123.254	-32.138	188.646	-126.963	105.683	-50.327	75.237	46.533	60.401	-6.089	122.721	101.853	-146.769	134.345	-118.251	158.340	0.0015707	0.0019461	0.00041678	713.74	1.4458e-05	7.2277e-06	1016.9	180.55	2.0477e-05	3.1133e-05	321.27	90.896	38.976	8.7133	1.338e-05	33.466	0.005481	0.0057874	0.0016374	819.25	6.3811e-05	6.4278e-05	1072.3	209.05	6.428e-05	6.5728e-05	386.5	110.12	60.821	16.077	6.6989e-05	42.085	2.965	109.935	-118.143	-145.574	-54.829	21.125	-146.152	-140.913	161.146	-11.537	-142.859	-137.996	-137.868	-132.836	-126.888	-134.380	-8191	255	
16901.133	1	1	0	0	0.1667	0.043497	0.090459	0.078209	0.21421	0.13339	0.093234	0.24404	0.14918	0.076093	0.041828	0.26923	0.16473	0.046659	0.072286	0.10044	-0.60833	-1.7563	-1.4979	-1.1479	-1.9188	-1.2083	-1.6521	-1.7896	-1.3958	-1.8146	-1.4625	-1.2958	-1.8417	-1.1396	-1.3	-1.9125	132.373	134.625	115.307	-97.071	37.470	-16.414	-118.705	175.583	-69.093	-89.690	136.166	-146.659	57.966	-98.501	32.935	-135.900	0.00050767	0.00035546	0.00041759	716.87	6.9396e-06	3.7993e-06	1005	178.1	2.951e-05	1.8882e-05	314.13	89.36	38.172	8.3845	1.4869e-05	32.517	0.0057602	0.0061218	0.0017432	825.43	6.64e-05	6.7772e-05	1072.8	208.86	6.7847e-05	6.8554e-05	385.83	109.4	60.834	16.22	6.8664e-05	41.464	-70.888	-70.593	-151.951	-145.270	94.520	-81.856	-146.075	-141.391	162.970	23.803	-141.793	-138.346	-137.635	-132.747	38.226	-134.563	-8191	255	
16901.227	1	1	0	0	0.19846	0.066446	0.14864	0.27509	0.19562	0.2175	0.25374	0.1327	0.12072	0.28548	0.29349	0.18391	0.19334	0.10215	0.30746	0.13502	-0.625	-1.7146	-1.5771	-1.2417	-1.8937	-1.3771	-1.4042	-1.9542	-1.1375	-1.7042	-1.6875	-1.1437	-1.9937	-1.2458	-1.3271	-2.0375	185.333	-110.049	-86.829	158.981	129.545	-137.320	-158.254	166.159	-53.470	200.711	172.329	79.107	144.627	-67.913	97.810	-143.045	0.000643	0.0024585	0.00053183	715.49	1.7856e-05	4.6627e-06	1004.8	176.56	8.0101e-06	2.8519e-05	317.9	89.63	38.284	8.3198	1.708e-05	32.222	0.0058441	0.0062507	0.0017713	827.66	6.7419e-05	6.9438e-05	1072	207.23	6.7155e-05	6.8477e-05	384.37	108.48	60.05	16.067	6.8488e-05	40.949	-22.737	127.368	-32.049	-145.161	99.512	80.205	-145.921	-141.171	-111.747	-11.533	-141.931	-138.289	-138.043	-132.627	-138.625	-134.418	-8191	255	
16901.301	1	1	0	0	0.098618	0.18045	0.10979	0.10913	0.28063	0.089416	0.12456	0.098754	0.062537	0.083179	0.090101	0.27483	0.059128	0.095662	0.16567	0.13628	-0.58125	-1.5208	-1.8583	-1.1854	-1.7979	-1.3646	-1.4188	-1.8188	-1.0646	-1.7188	-1.725	-1.2104	-1.8396	-1.5021	-1.3979	-2.1146	-4.475	-2.126	122.581	114.498	88.480	149.915	200.113	131.207	74.228	-35.090	68.341	177.855	104.172	-134.963	115.071	34.142	0.00046328	0.00056128	0.00018035	707.66	8.5156e-06	2.545e-05	996.36	177.31	8.2234e-06	3.1091e-05	314.15	86.821	37.966	8.2986	1.9747e-05	32.006	0.0057666	0.006177	0.0017558	820.11	6.6013e-05	6.8689e-05	1068.8	206.88	6.6827e-05	6.9252e-05	382.91	107.48	60.073	15.98	6.8221e-05	40.556	51.364	200.536	130.450	-145.296	-37.518	-42.232	-145.980	-141.412	2.544	-48.677	-142.312	-137.876	-136.838	-133.081	136.210	-134.461	-8191	255	
16901.396	1	1	0	0	0.1077	0.16272	0.24455	0.23205	0.26758	0.11826	0.41961	0.2079	0.13313	0.21724	0.058268	0.17894	0.17025	0.10797	0.041045	0.10578	-0.80625	-1.3563	-1.9729	-1.0375	-1.7687	-1.4562	-1.1812	-1.875	-1.0333	-1.4729	-1.8375	-0.98333	-1.7875	-1.7042	-0.98125	-2.0083	114.781	-97.005	19.844	-115.204	-24.900	113.262	86.579	107.259	-122.395	-88.999	166.677	175.247	98.331	-26.141	-148.088	42.946	0.0013092	0.0014335	0.00026729	708.53	2.6382e-05	2.9154e-05	999.41	176.05	2.3953e-06	9.5475e-06	314.46	88.5	37.825	8.2596	1.6099e-05	31.652	0.0058292	0.0062716	0.0017572	820.31	6.7612e-05	7.005e-05	1066.8	206.01	6.7567e-05	6.9155e-05	382.74	107.62	59.713	15.937	6.7474e-05	40.442	-2.694	130.899	-123.528	-145.163	-133.276	103.341	-145.972	-141.525	81.497	47.106	-142.636	-138.799	-137.840	-133.024	31.626	-134.493	-8191	255	
16901.516	1	1	0	0	0.1962	0.24574	0.22724	0.30684	0.1102	0.19325	0.20304	0.25375	0.19869	0.12108	0.12951	0.29897	0.19795	0.22095	0.2404	0.28485	-0.89583	-1.6229	-1.9479	-1.0812	-1.7396	-1.4729	-1.3687	-2.2146	-1.3729	-1.3188	-1.8958	-1.1437	-1.3792	-1.5812	-1.0562	-1.975	168.926	-132.237	-56.630	-127.797	200.435	141.165	80.037	123.659	-71.664	68.941	107.449	139.500	-6.625	130.702	142.117	-126.822	0.0010194	0.00063539	0.00022619	701.43	2.4147e-05	9.7313e-06	996.31	176.11	2.051e-05	7.5099e-06	314.31	87.309	37.34	7.9781	2.4517e-06	31.487	0.0058136	0.0062811	0.0017386	817.63	6.7413e-05	6.969e-05	1063.4	204.99	6.8394e-05	6.961e-05	381.01	107.09	59.48	15.946	6.7566e-05	40.147	16.450	149.064	-36.990	-145.431	4.998	-147.037	-146.140	-141.445	39.245	32.331	-142.038	-137.712	-137.531	-134.179	-46.943	-134.363	-8191	255	
16901.611	1	1	0	0	0.10405	0.0099955	0.032942	0.30307	0.086288	0.050317	0.32242	0.12388	0.082662	0.21473	0.10931	0.10865	0.044662	0.092615	0.19402	0.40407	-1	-1.2667	-1.9458	-1.1604	-1.5187	-1.6521	-1.0104	-1.7208	-1.4271	-1.1208	-1.9083	-1.2167	-1.4229	-1.7812	-1.1	-1.8208	-123.052	-33.158	165.282	-139.546	-33.876	50.763	159.022	146.959	46.174	-22.057	-19.147	177.118	99.836	-44.123	188.922	141.924	0.0015337	0.00033911	0.00039698	704.56	1.9119e-05	7.8022e-06	998.92	176.62	1.7206e-06	4.8209e-06	313.43	87.101	37.282	8.2752	1.2632e-05	31.478	0.0058128	0.0062275	0.001713	818.17	6.7353e-05	6.9059e-05	1064.1	206.3	6.8663e-05	6.9529e-05	379.98	107.02	59.727	15.852	6.6675e-05	40.015	53.061	22.530	-101.982	-145.731	139.606	194.308	-145.815	-141.133	49.627	-94.580	-142.115	-137.681	-138.098	-133.916	68.310	-134.474	-8191	255	
16901.707	1	1	0	0	0.23879	0.45103	0.21586	0.16499	0.19995	0.083381	0.24801	0.14018	0.23623	0.093285	0.26813	0.18364	0.066172	0.21709	0.23096	0.069092	-1.0896	-1.0812	-1.7563	-1.2812	-1.2708	-2.0542	-1.2271	-1.7208	-1.6229	-1.125	-2.0208	-1.3521	-1.2354	-1.9083	-0.99375	-1.7521	-18.248	56.063	43.817	181.757	132.085	93.020	109.061	184.326	80.518	-85.344	145.851	36.150	41.509	149.148	87.246	-39.792	0.00072938	0.00045767	0.00022242	708.32	2.3405e-05	2.9389e-05	997.83	175.74	1.7857e-05	5.5369e-06	313.91	87.482	37.045	8.2271	1.2165e-05	31.314	0.005793	0.006183	0.0016974	816.6	6.6408e-05	6.7124e-05	1061.9	205.25	6.7026e-05	6.7299e-05	379.48	107.08	59.42	15.755	6.5975e-05	40.097	-9.858	93.065	121.227	-145.651	69.241	-43.354	-145.872	-141.136	-123.048	25.867	-142.226	-137.899	-137.173	-133.312	-152.419	-134.200	-8191	255	
16901.805	1	1	0	0	0.23342	0.28227	0.02815	0.155	0.22339	0.073175	0.12659	0.088437	0.38491	0.15073	0.14169	0.22717	0.091486	0.1548	0.10321	0.086936	-1.3542	-1.1812	-1.8813	-1.4	-1.2	-2.0083	-1.325	-1.6458	-1.7792	-1.1896	-2.1021	-1.5354	-1.2104	-1.8833	-1.1833	-1.5854	112.705	-129.306	-83.797	160.050	-121.917	-129.027	153.598	101.605	25.603	164.019	-144.557	126.918	-117.062	-111.607	-144.385	-111.072	0.00079756	0.00059804	0.00046785	709.73	1.4288e-05	9.2019e-06	1002.4	176.98	1.9955e-05	1.6832e-05	316.29	89.881	38.077	8.4376	5.7586e-06	31.863	0.0057196	0.0060361	0.0016571	815.91	6.5101e-05	6.4731e-05	1060.1	204.28	6.4063e-05	6.4154e-05	376.18	107.21	58.914	15.512	6.3762e-05	40.299	6.875	36.296	-109.004	-145.468	74.878	-137.114	-146.203	-141.243	59.878	56.539	-141.794	-138.191	-137.420	-133.496	35.972	-134.318	-8191	255	
16901.900	1	1	0	0	0.26107	0.034958	0.18882	0.19048	0.19147	0.24743	0.46825	0.11338	0.24084	0.09	0.24544	0.23258	0.097567	0.057815	0.091501	0.25427	-1.5021	-0.92708	-1.9917	-1.6875	-1.1542	-1.8979	-1.3333	-1.4854	-1.8438	-1.125	-1.7667	-1.4854	-1.0708	-1.8958	-1.2083	-1.5354	-57.695	-124.204	62.219	-136.533	-63.044	67.829	122.032	-89.952	112.099	-149.667	153.104	-152.352	-54.779	131.661	149.964	104.211	0.0013659	0.00025415	4.8535e-05	706.33	3.2897e-05	2.1724e-05	991.34	175.56	1.8244e-05	1.5249e-05	313.61	86.619	37.389	8.0431	2.327e-05	31.096	0.0056225	0.0059682	0.0016475	813.88	6.5355e-05	6.5408e-05	1057.3	204.18	6.5165e-05	6.5941e-05	377.02	106.54	59.098	15.532	6.6638e-05	39.712	-10.446	60.368	-150.113	-145.622	35.068	-36.628	-145.893	-141.279	-6.085	-11.626	-142.457	-137.557	-136.985	-134.413	12.010	-133.985	-8191	255	
16901.996	1	1	0	0	0.31416	0.027598	0.03566	0.16627	0.17873	0.25703	0.11225	0.31554	0.17344	0.11061	0.30782	0.11561	0.04819	0.11881	0.15824	0.10996	-1.5542	-1.1042	-1.8896	-1.6646	-1.0125	-2.0083	-1.35	-1.1958	-1.7917	-1.1437	-1.8771	-1.7979	-0.95833	-1.7354	-1.2812	-1.3125	-56.960	-132.124	2.242	181.873	-128.925	-33.731	110.943	170.505	-158.687	170.123	93.586	-101.781	-90.828	11.871	55.658	-136.509	0.00098895	0.00027965	0.00023689	701.22	1.6406e-05	1.2117e-05	986.35	173.38	2.0905e-05	9.4709e-06	311.94	86.546	36.86	8.1088	2.5699e-05	31.206	0.0057335	0.0060571	0.0016833	810.89	6.5966e-05	6.5859e-05	1055.1	202.55	6.4084e-05	6.474e-05	373.29	104.81	57.985	15.119	6.3663e-05	39.368	52.180	145.832	99.047	-145.157	2.105	-97.775	-146.047	-141.183	3.123	-103.244	-141.898	-138.230	-137.749	-134.316	-70.398	-134.172	-8191	255	
16902.092	1	1	0	0	0.21638	0.21347	0.034724	0.15734	0.13657	0.19034	0.23567	0.32856	0.18453	0.17925	0.13791	0.32133	0.062027	0.085852	0.2833	0.21863	-1.6396	-1.2104	-1.4438	-1.8146	-1.2563	-1.9292	-1.5271	-1.2708	-1.9896	-1.2271	-1.6063	-1.9521	-0.97708	-2.0354	-1.55	-1.1083	-26.569	-57.742	192.076	-121.693	-33.866	-90.354	112.397	186.137	181.685	-8.768	-24.763	172.639	87.253	-35.146	-55.912	-115.645	0.00050304	0.0017071	0.00056789	700.62	1.593e-05	1.0236e-05	997.71	175.57	7.6856e-06	7.9385e-06	308.93	87.478	37.01	8.1602	1.0396e-05	30.986	0.0053895	0.0057433	0.0016036	803.29	6.3048e-05	6.355e-05	1054.2	202.57	6.2266e-05	6.3853e-05	373.14	105.4	57.799	15.108	6.4078e-05	39.317	92.153	-92.139	-89.703	-145.190	-75.875	30.994	-145.840	-140.838	-33.221	116.292	-142.116	-138.176	-137.538	-133.419	-118.516	-133.951	-8191	255	
16902.213	1	1	0	0	0.074272	0.1432	0.1163	0.21096	0.030769	0.077482	0.22204	0.18058	0.30435	0.086402	0.027979	0.14477	0.076237	0.06312	0.079255	0.069898	-1.4104	-1.1771	-1.5521	-1.9792	-0.975	-1.5979	-1.7437	-1.2479	-2.0208	-1.3917	-1.425	-2.0875	-1.0021	-1.775	-1.4604	-1.2229	191.022	-9.624	-133.321	166.012	-144.783	-141.789	157.679	-124.010	-134.121	154.149	21.451	53.643	-130.334	177.269	-60.689	122.932	0.0011421	0.00022681	0.0003531	704.39	1.1109e-05	1.0055e-05	1001.3	177.17	3.2772e-05	5.7134e-06	314.49	88.225	37.319	8.2565	1.7032e-05	31.76	0.005357	0.0057719	0.001604	803.66	6.1498e-05	6.1792e-05	1055.5	202.51	6.0135e-05	6.2397e-05	373.51	105.48	57.566	15.155	6.2885e-05	39.591	-20.809	163.651	13.991	-145.800	1.494	-113.563	-146.331	-141.566	-153.611	-23.078	-141.745	-138.232	-137.376	-133.633	149.772	-133.880	-8191	255	
16902.309	1	1	0	0	0.10721	0.061419	0.243	0.083272	0.31842	0.2038	0.32343	0.077722	0.076277	0.11977	0.16308	0.11368	0.14004	0.05559	0.15986	0.29078	-1.4417	-1.2938	-1.1875	-1.825	-0.97708	-1.4958	-1.8583	-1.1333	-1.975	-1.6167	-1.3333	-1.9729	-1.0917	-1.5562	-1.7958	-1.1	165.727	-26.136	127.077	117.182	-43.313	-0.357	120.363	-80.963	-18.341	-135.681	55.248	100.475	150.238	-1.124	191.776	181.688	0.0013128	0.00055124	0.00019982	712	1.7105e-05	2.4604e-05	1006.6	178.53	6.8819e-06	8.4949e-06	318.82	89.16	37.435	8.4014	2.1023e-05	31.966	0.0052312	0.0057569	0.0015877	804.88	6.0327e-05	6.0709e-05	1055.1	201.99	5.8176e-05	6.0373e-05	373.48	104.76	56.589	14.771	5.8658e-05	39.132	43.671	-146.110	135.751	-144.899	-48.969	169.322	-146.355	-141.414	81.801	-41.677	-141.896	-138.267	-138.164	-133.189	191.844	-133.828	-8191	255	
16902.404	1	1	0	0	0.35865	0.12017	0.15908	0.28937	0.23895	0.32707	0.40754	0.13091	0.097159	0.10257	0.14245	0.10884	0.11581	0.13694	0.028404	0.26395	-1.275	-1.525	-1.3312	-1.9958	-1.2771	-1.7375	-1.9167	-1.1854	-1.9042	-1.6229	-1.0438	-1.9542	-1.3729	-1.5063	-1.8604	-1.0333	67.272	-80.354	20.692	-135.675	77.716	-80.005	160.637	198.098	-31.567	128.950	-37.338	-106.747	164.698	135.424	-56.465	-44.338	9.1653e-05	0.00085939	0.00038891	710.55	1.1925e-05	3.0187e-05	1000.8	177.92	1.7239e-05	2.288e-05	319.6	88.634	37.668	8.2424	2.4342e-05	32.026	0.004853	0.0052395	0.001454	792.08	5.5885e-05	5.6589e-05	1045	199.63	5.4615e-05	5.6477e-05	367.99	103.49	55.32	14.39	5.5482e-05	38.589	200.030	37.864	128.779	-145.392	25.494	-9.750	-145.888	-141.163	-158.640	-113.936	-142.012	-137.926	-137.875	-133.037	-61.040	-134.528	-8191	255	
16902.502	1	1	0	0	0.20445	0.11901	0.057222	0.11558	0.16559	0.081588	0.023913	0.082881	0.30289	0.18068	0.16285	0.148	0.20743	0.058885	0.20299	0.21946	-1.3854	-1.5312	-1.225	-1.9479	-1.2417	-1.525	-1.9458	-1.0479	-1.8333	-1.4958	-1.2062	-2.0396	-1.175	-1.3333	-1.9208	-1.3396	-68.219	109.499	-81.714	30.686	181.411	-53.607	-45.198	-151.614	-50.477	-89.807	103.419	183.147	-122.126	-69.168	-15.608	183.427	0.0012443	0.00084624	0.0001756	713.01	1.0116e-05	6.0564e-06	1006.6	178.3	1.9873e-05	1.1913e-05	319.19	89.485	38.719	8.4649	9.0658e-06	32.47	0.0045741	0.0050156	0.0013751	783.57	5.3235e-05	5.4096e-05	1042.6	198.75	5.2375e-05	5.473e-05	364.67	103.14	55.453	14.363	5.3881e-05	38.856	15.807	-95.505	50.969	-145.153	-123.241	-15.644	-145.919	-141.153	111.037	-39.569	-141.968	-138.243	-137.678	-133.568	25.184	-134.126	-8191	255	
16902.596	1	1	0	0	0.10658	0.20713	0.022519	0.26744	0.15475	0.12235	0.35804	0.070011	0.17524	0.2477	0.31831	0.055659	0.097187	0.12705	0.2022	0.16727	-1.3292	-1.7083	-0.95208	-1.8479	-1.3813	-1.5396	-2.0979	-1.2708	-1.6458	-1.6833	-1.1792	-1.7417	-1.4375	-1.2062	-1.8813	-1.4188	-141.599	-125.267	-81.504	-155.052	51.319	-60.488	129.083	108.271	-66.956	-17.319	130.954	73.090	102.688	196.435	161.129	39.158	0.0010371	0.0013008	0.00034121	719.04	6.8614e-06	2.4348e-05	1014.9	179.94	1.4367e-05	3.0103e-06	319.11	90.621	39.021	8.5039	1.6223e-05	32.988	0.0045965	0.005071	0.0013921	788.74	5.3922e-05	5.491e-05	1047.9	200.31	5.3423e-05	5.4915e-05	367.64	104.3	56.058	14.523	5.3783e-05	39.462	45.752	-13.815	-40.399	-145.470	-20.998	-111.505	-145.841	-141.317	-75.228	152.170	-141.752	-137.652	-137.384	-132.848	162.496	-134.129	-8191	255	
16902.691	1	1	0	0	0.3435	0.28935	0.12088	0.50316	0.18719	0.19728	0.097462	0.11206	0.20017	0.24524	0.27321	0.15819	0.19256	0.18945	0.2599	0.28474	-1.1021	-1.8042	-1	-1.6625	-1.6333	-1.0938	-2.0083	-1.1896	-1.4042	-1.7229	-1.1229	-1.7292	-1.6938	-1.2167	-1.9688	-1.4646	-92.473	-108.838	199.171	139.366	99.128	193.056	150.067	179.137	166.558	123.818	-142.617	145.851	58.909	136.771	125.927	150.874	0.0012323	0.0009671	0.00045794	720.15	1.8875e-05	5.3349e-06	1013.7	180.64	2.2479e-05	1.4829e-05	322.09	90.368	39.305	8.6761	2.0813e-05	32.835	0.0046723	0.0050824	0.0014014	794.92	5.5797e-05	5.6209e-05	1051.3	202.03	5.4747e-05	5.6104e-05	370.86	104.75	56.83	14.572	5.3884e-05	39.42	-20.261	-47.077	-133.914	-145.279	39.758	-51.515	-145.960	-141.391	47.862	37.665	-141.765	-137.758	-137.683	-133.948	16.788	-134.299	-8191	255	
16902.811	1	1	0	0	0.049326	0.08232	0.18166	0.31839	0.091088	0.058627	0.14884	0.14124	0.22446	0.040541	0.33303	0.20033	0.12235	0.04922	0.1583	0.083143	-0.96875	-1.8854	-1.2083	-1.6917	-1.5229	-0.9875	-2.1292	-1.3375	-1.1458	-1.8375	-1.3146	-1.6917	-1.7687	-0.99583	-1.8625	-1.4188	-53.577	-103.744	-23.264	-153.257	170.352	34.619	-88.872	-84.258	140.844	-29.712	188.262	78.520	-24.031	143.584	-127.088	104.801	0.0014551	0.00049198	0.00011745	716.07	1.6948e-05	6.8508e-06	1010.6	180.84	2.3839e-05	1.5801e-05	320.48	90.906	38.676	8.6955	1.6366e-05	32.735	0.0046743	0.0050005	0.0013812	792.74	5.469e-05	5.4314e-05	1046.2	201.32	5.2988e-05	5.4052e-05	367.54	104.29	55.99	14.539	5.2584e-05	39.107	5.031	-149.016	-54.712	-145.051	-53.443	18.628	-146.209	-141.338	-148.549	-36.064	-142.565	-138.033	-137.077	-133.469	200.373	-134.265	-8191	255	
16902.906	1	1	0	0	0.055594	0.18169	0.11914	0.17437	0.12878	0.045649	0.19627	0.33066	0.16265	0.25741	0.28696	0.087016	0.042799	0.076811	0.26325	0.1981	-0.70833	-1.5854	-1.1292	-1.7437	-1.9292	-1.1021	-2.0292	-1.3771	-1.1479	-2.0729	-1.1792	-1.5917	-1.7938	-1.1104	-1.9	-1.6125	-132.773	-63.256	193.923	-124.319	-64.896	-38.405	-118.008	96.842	75.246	91.637	-120.399	131.039	-9.459	191.944	-59.110	198.879	0.00044389	0.00040498	0.00024046	721.31	2.7359e-05	9.9444e-06	1015.5	181.95	2.0274e-06	1.268e-05	319.64	91.397	38.503	8.729	1.4202e-05	32.687	0.0045328	0.0048046	0.0013279	789.67	5.2173e-05	5.2176e-05	1042.9	200.52	5.188e-05	5.2721e-05	365.8	104.36	55.867	14.463	5.3217e-05	39.271	-78.196	-86.840	-12.697	-145.052	-149.554	35.023	-145.961	-141.626	126.187	-32.740	-141.939	-138.153	-138.229	-133.381	-83.971	-134.047	-8191	255	
16903.004	1	1	0	0	0.15661	0.073487	0.14537	0.12295	0.05086	0.29859	0.19225	0.14803	0.15945	0.15246	0.29986	0.21974	0.079415	0.10372	0.021996	0.13579	-0.59167	-1.7042	-1.2563	-1.6146	-1.65	-1.0646	-1.7646	-1.4354	-0.96667	-1.9667	-1.4521	-1.3438	-1.7313	-1.175	-1.725	-1.5979	-36.976	10.075	-109.913	86.906	71.116	51.256	155.006	139.932	75.978	37.440	127.062	168.493	33.284	119.796	-56.290	83.567	0.0012442	0.00084125	5.0473e-05	717.27	4.705e-06	2.9811e-06	1005.8	180.18	1.6475e-05	1.2426e-05	320.26	91.608	38.941	8.366	4.2889e-06	32.823	0.0046675	0.004973	0.001405	795.42	5.6132e-05	5.645e-05	1046.8	202.21	5.6282e-05	5.6876e-05	371.49	105.71	56.725	14.724	5.6233e-05	39.693	1.431	185.516	17.407	-145.064	11.710	-3.059	-146.037	-141.226	-147.820	44.037	-142.191	-137.514	-137.658	-132.324	-58.190	-134.750	-8191	255	
16903.100	1	1	0	0	0.17492	0.08744	0.27383	0.056096	0.28819	0.14593	0.27999	0.15118	0.21102	0.14598	0.17641	0.1262	0.18271	0.1136	0.17177	0.13226	-0.74792	-1.9521	-1.4292	-1.3125	-1.9312	-0.99583	-1.75	-1.7271	-1.2521	-2.0687	-1.5333	-1.4125	-2.0646	-1.0167	-1.4375	-1.8854	20.404	-88.637	12.597	-14.599	-127.974	24.561	129.805	87.880	115.038	179.271	159.375	60.335	109.057	-101.970	28.997	94.536	0.0015418	0.00071442	0.00031071	712.2	3.5913e-05	9.0965e-06	1006.7	179.37	1.167e-05	1.8419e-05	317.27	90.01	38.382	8.5905	2.4405e-05	32.289	0.0048718	0.0051699	0.0014822	797.13	5.7714e-05	5.8196e-05	1052.5	202.82	5.7003e-05	5.8109e-05	371.53	105.43	56.811	14.757	5.6815e-05	39.313	13.628	87.811	57.876	-145.043	28.560	61.791	-145.820	-140.873	-62.415	-40.885	-142.400	-138.337	-137.410	-133.607	-113.648	-133.973	-8191	255	
16903.195	1	1	0	0	0.2007	0.18787	0.23379	0.20672	0.23394	0.2619	0.18171	0.16046	0.095883	0.18898	0.2509	0.28925	0.029661	0.19067	0.18204	0.16881	-0.7375	-1.7771	-1.2938	-1.3062	-1.8667	-1.0958	-1.5542	-1.975	-1.2125	-1.7625	-1.7646	-1.0229	-1.9208	-1.3542	-1.3604	-2.0312	70.873	63.656	-12.339	188.851	-37.457	7.666	-3.096	166.063	-94.791	-124.034	144.925	140.502	-65.017	-106.807	196.145	35.359	0.0010147	0.00077087	0.00010644	707.57	1.6974e-05	2.0029e-06	1000.2	178.1	2.0413e-05	1.2932e-05	310.92	87.012	37.445	8.182	1.1143e-05	31.001	0.004827	0.0051419	0.0014542	792.95	5.6494e-05	5.7884e-05	1046.9	201.46	5.8069e-05	5.8918e-05	369.36	104.45	56.825	14.866	6.0485e-05	38.803	-27.229	-59.651	-151.711	-145.217	57.459	30.500	-145.929	-141.287	-121.749	65.995	-142.230	-138.235	-137.090	-133.024	-87.195	-134.495	-8191	255	
16903.293	1	1	0	0	0.19811	0.098963	0.067473	0.16473	0.13798	0.099967	0.10865	0.042507	0.18847	0.096712	0.24452	0.080226	0.10048	0.36478	0.10065	0.13783	-0.79167	-1.7729	-1.4854	-1.2625	-2.0187	-1.3146	-1.3208	-1.8917	-1.1458	-1.7542	-1.6104	-0.95625	-1.9833	-1.2458	-1.2188	-1.875	-43.322	110.290	-156.320	94.763	192.545	66.205	-117.469	-149.763	-48.287	115.029	-48.142	-74.957	-109.459	87.724	91.164	173.369	0.0010286	0.0014397	0.00016821	699.62	1.973e-05	2.2392e-05	990.39	174.37	1.4089e-05	2.5409e-05	312.97	87.453	37.15	8.0669	8.7431e-06	31.284	0.0051559	0.0055369	0.0015751	793.69	6.0004e-05	6.1672e-05	1043.5	200.15	6.0504e-05	6.1361e-05	370.5	104.41	56.783	14.978	6.1305e-05	38.888	6.863	30.999	18.258	-145.682	-38.113	11.680	-146.024	-141.544	169.413	-71.147	-142.256	-138.244	-137.918	-134.412	56.473	-133.968	-8191	255	
16903.389	1	1	0	0	0.2715	0.10514	0.042563	0.18437	0.34009	0.028306	0.28659	0.1703	0.12771	0.33684	0.22484	0.16941	0.14066	0.27466	0.091484	0.24471	-0.64375	-1.5292	-1.7563	-0.98542	-1.8208	-1.2021	-1.1917	-2.0125	-1.2146	-1.4917	-1.8813	-1.0771	-1.7792	-1.6667	-1.25	-1.9375	-113.318	18.847	173.642	-148.374	-13.252	47.897	130.161	198.954	80.986	-71.012	72.733	-1.892	-25.265	86.438	79.591	-154.423	0.00094847	0.00094201	0.00033641	701.2	2.1637e-05	1.2362e-05	988.21	172.68	2.1614e-05	1.2163e-05	313.31	87.954	37.288	8.1114	1.9308e-05	31.317	0.0052566	0.0056749	0.0015953	797.62	6.1493e-05	6.3095e-05	1044.2	199.94	6.1697e-05	6.2888e-05	372.79	104.81	57.367	15.24	6.2866e-05	39.137	-9.034	165.724	-24.214	-145.389	167.962	-52.037	-146.153	-141.381	133.383	-97.748	-141.845	-137.874	-136.985	-132.762	0.195	-134.017	-8191	255	
16903.484	1	1	0	0	0.015338	0.16621	0.077615	0.12659	0.45711	0.1515	0.098077	0.10148	0.016561	0.14379	0.1436	0.30671	0.097869	0.13407	0.40957	0.10632	-0.8	-1.3312	-1.9583	-1.1833	-1.6083	-1.3979	-1.3479	-2.0292	-1.1646	-1.3937	-2.0417	-1.2042	-1.8729	-1.6104	-1.2479	-1.8292	193.917	-51.849	83.350	162.562	120.781	-108.757	177.971	143.807	-122.375	170.488	195.766	149.689	136.524	117.111	66.718	188.686	0.0012561	0.0009776	0.00027711	699.73	2.7449e-05	1.3247e-05	997.1	175.46	2.2731e-05	1.0095e-05	313.17	87.295	38.042	8.1096	7.0286e-06	30.972	0.0053599	0.0057578	0.0016201	800.13	6.243e-05	6.4779e-05	1054.1	202.26	6.3232e-05	6.4434e-05	373.63	104.87	58.119	15.341	6.3067e-05	38.978	-6.465	-44.835	-104.222	-145.749	-122.542	-46.719	-145.565	-141.168	99.392	85.987	-141.882	-138.306	-138.018	-133.680	-76.856	-134.103	-8191	255	
16903.605	1	1	0	0	0.29705	0.16432	0.09106	0.22724	0.099488	0.16805	0.44325	0.1852	0.10359	0.071768	0.12581	0.15397	0.10172	0.2195	0.069207	0.13633	-1.0542	-1.3312	-1.9229	-1.1812	-1.6146	-1.7417	-1.3792	-1.9458	-1.3396	-1.2271	-1.975	-1.0729	-1.55	-1.5812	-0.99375	-1.8229	157.356	-58.212	-23.187	183.909	18.335	191.510	142.367	82.273	-37.867	154.915	185.959	172.642	182.160	115.794	77.093	185.174	0.0015743	0.0014147	7.6978e-05	707.49	2.4469e-05	2.3167e-05	992.95	175.13	2.0904e-05	8.7319e-06	310.19	87.263	37.698	8.0836	4.9099e-06	30.647	0.005427	0.0058454	0.0016088	803.97	6.3071e-05	6.4609e-05	1051.8	201.7	6.2726e-05	6.3964e-05	370.71	104.92	57.591	15.199	6.2541e-05	38.552	28.592	112.267	-70.973	-145.729	6.613	-6.001	-145.695	-141.254	19.418	-2.534	-142.104	-138.351	-136.906	-133.617	-52.972	-133.754	-8191	255	
16903.699	1	1	0	0	0.17019	0.26511	0.16803	0.38198	0.15337	0.12975	0.11225	0.20841	0.19217	0.26666	0.098609	0.091969	0.16782	0.27226	0.2277	0.079948	-0.91458	-1.3333	-2.1063	-1.3229	-1.4708	-1.8458	-1.1771	-1.7625	-1.55	-1.3271	-2.0438	-1.5375	-1.5229	-1.7542	-1.1313	-1.7542	-82.027	-5.284	-72.232	124.584	101.151	72.377	130.169	-55.803	-63.874	31.961	49.507	-29.981	142.660	7.219	-129.104	78.423	0.0012642	0.00068	8.9977e-05	701.48	2.7811e-05	2.3827e-05	994.35	176.21	9.7985e-06	8.4427e-06	311.44	87.027	37.821	8.1465	3.859e-06	31.029	0.0053905	0.0057693	0.0015916	800.95	6.2471e-05	6.3754e-05	1048.3	201.51	6.1565e-05	6.3082e-05	369.73	104.64	57.766	15.035	6.1167e-05	38.498	-8.254	-105.259	31.200	-145.383	-8.528	-86.931	-145.771	-140.987	-22.884	87.151	-142.446	-138.383	-137.741	-132.775	-120.095	-133.707	-8191	255	
16903.771	1	1	0	0	0.029396	0.17887	0.15807	0.13271	0.13465	0.066734	0.35969	0.1266	0.051399	0.10957	0.21571	0.089288	0.053477	0.25861	0.031502	0.33839	-1.0771	-1.0812	-1.8125	-1.4312	-1.2437	-1.9083	-1.3479	-1.7	-1.5187	-1.2333	-1.9771	-1.2188	-1.2146	-1.7875	-0.95625	-1.6083	179.190	-105.127	170.457	-104.828	-60.227	89.436	177.297	-141.713	140.914	47.794	-63.421	62.681	102.580	190.206	-50.311	102.878	0.0012326	0.00064571	0.00015011	709.94	2.8506e-05	9.711e-06	998.44	178.93	1.3621e-05	1.51e-05	316.92	88.569	38.796	8.3899	1.2051e-05	31.566	0.0052546	0.0055984	0.001532	801.34	5.9968e-05	6.1003e-05	1047.4	201.74	5.9263e-05	5.8934e-05	368.1	104.37	56.975	14.717	5.7367e-05	38.817	8.955	22.054	122.871	-145.214	-95.625	-147.780	-146.066	-140.956	100.058	6.829	-141.881	-137.979	-138.087	-132.435	97.523	-134.736	-8191	255	
16903.893	1	1	0	0	0.20684	0.1597	0.033731	0.11793	0.1917	0.14272	0.06703	0.18771	0.41201	0.11874	0.090247	0.15118	0.2492	0.033404	0.17733	0.11783	-1.2938	-0.92917	-1.7812	-1.4062	-1.2292	-1.9771	-1.3354	-1.7	-1.6812	-1.0083	-1.9979	-1.4438	-1.45	-1.9104	-1.2104	-1.4021	176.323	142.579	-79.555	134.487	162.241	-19.944	127.016	37.112	188.953	137.769	152.221	-122.190	-53.350	26.702	1.897	-11.292	0.00069677	0.0016373	0.00027315	707.33	1.9751e-05	1.3196e-05	998.01	176.57	9.6468e-06	1.9822e-05	315.69	88.764	37.959	8.1088	9.2926e-06	31.055	0.0050526	0.0053745	0.0014837	799.98	5.902e-05	5.9524e-05	1047	201.75	5.9187e-05	5.9709e-05	368.76	105.14	57.619	14.797	5.9485e-05	38.576	-25.559	55.310	-12.505	-145.120	28.582	36.069	-145.918	-140.957	-151.542	-3.037	-142.386	-138.318	-137.931	-132.547	-128.242	-134.634	-8191	255	
16903.986	1	1	0	0	0.21575	0.081355	0.18527	0.15654	0.31733	0.34641	0.19708	0.12053	0.027693	0.16438	0.19556	0.24189	0.25947	0.081558	0.19797	0.085787	-1.4167	-1.1437	-1.7708	-1.3667	-1.2104	-1.8875	-1.2292	-1.4875	-1.6833	-1.0979	-1.6938	-1.6396	-1.0708	-1.8937	-1.1458	-1.5125	-126.396	60.868	-15.470	122.289	21.410	113.924	143.243	167.073	169.389	-9.843	141.736	-120.275	-95.940	57.658	-20.570	191.278	0.00078582	0.0013256	0.00033107	708.27	5.9909e-06	1.0388e-05	994.37	177.58	2.8111e-05	2.5443e-05	312.51	87.761	38.042	8.2972	1.1096e-05	30.877	0.005214	0.0055022	0.0015294	801.02	5.976e-05	6.0011e-05	1048.9	201.47	5.9865e-05	6.046e-05	368.28	104.77	57.477	14.807	5.9464e-05	38.521	-97.345	141.803	-94.869	-145.594	13.574	49.920	-145.931	-141.083	33.879	-96.775	-141.708	-138.041	-136.906	-132.120	53.347	-134.569	-8191	255	
16904.084	1	1	0	0	0.1196	0.11022	0.20705	0.20653	0.10249	0.07943	0.35793	0.13497	0.29909	0.20634	0.30036	0.12519	0.13657	0.11836	0.024271	0.14085	-1.5354	-0.98958	-1.6708	-1.6396	-1.1125	-2.0042	-1.4292	-1.2854	-1.6938	-1.0229	-1.6583	-1.8438	-1.1417	-1.9542	-1.2417	-1.2875	-147.545	135.945	-47.074	-70.140	119.720	-110.032	162.432	12.040	168.795	-71.778	-133.459	143.014	-144.001	163.270	-108.251	163.116	0.0007645	2.6278e-05	0.00041932	713.61	9.8844e-06	2.135e-05	1003.5	177.02	2.2904e-05	1.1199e-05	316.04	88.219	38.34	8.3877	1.6493e-05	30.933	0.0050352	0.0053621	0.0014811	801.85	5.764e-05	5.7763e-05	1046.9	201.13	5.7695e-05	5.8682e-05	368.85	104.66	57.346	14.742	5.9971e-05	38.556	-28.085	104.553	-58.131	-145.557	16.826	-121.977	-146.116	-141.467	-45.515	-129.707	-141.719	-138.205	-137.268	-132.879	-62.656	-134.389	-8191	255	
16904.203	1	1	0	0	0.080578	0.08737	0.19488	0.17495	0.23635	0.10528	0.083401	0.078977	0.36765	0.14926	0.19517	0.25824	0.097672	0.059028	0.054682	0.12803	-1.4333	-1.1771	-1.5146	-1.7479	-0.94583	-1.8708	-1.5104	-1.2229	-1.8479	-1.2021	-1.4646	-2.0542	-1.2	-1.6396	-1.6271	-1.1187	-98.656	-14.325	126.514	142.218	125.563	158.565	-35.560	166.031	186.089	68.778	-135.623	-151.324	92.544	-155.928	-90.540	176.298	0.0012097	0.00038156	0.00088125	706.81	1.8555e-05	2.1533e-05	996.01	176.56	2.2919e-05	1.1331e-05	314.36	87.415	37.878	8.3602	1.7475e-05	30.945	0.0050554	0.0054707	0.0015198	802.91	5.9277e-05	6.0089e-05	1049.5	202.88	6.016e-05	6.2335e-05	372.12	105.44	58.367	15.225	6.3916e-05	39.261	34.794	5.559	-60.724	-145.550	167.821	110.060	-146.038	-141.326	82.083	94.184	-142.266	-138.234	-137.938	-132.508	-42.580	-134.256	-8191	255	
16904.301	1	1	0	0	0.31528	0.13392	0.12549	0.10892	0.049621	0.22958	0.19016	0.095638	0.063853	0.10553	0.078576	0.23344	0.20072	0.13081	0.10403	0.17412	-1.5292	-1.3396	-1.2563	-1.7167	-1.1396	-1.6437	-1.85	-1.0187	-2.0979	-1.2146	-1.375	-1.8875	-1.1792	-1.675	-1.4708	-0.99375	-140.981	89.915	-87.317	78.135	99.478	16.522	-141.882	75.145	174.400	38.820	38.013	100.910	174.967	133.863	-54.517	-156.039	0.00036672	0.00073971	0.00025912	713.07	2.7086e-06	9.2164e-06	997.15	177.59	9.1106e-06	1.7963e-05	313.59	88.337	37.948	8.4435	1.1237e-05	31.031	0.0054389	0.0058716	0.0016293	810.98	6.2937e-05	6.2906e-05	1055.4	203.85	6.1723e-05	6.3937e-05	374.48	105.67	58.35	15.355	6.3375e-05	39.087	-0.498	37.467	153.294	-145.423	160.173	-19.935	-146.142	-140.873	147.889	-63.124	-142.009	-138.429	-136.968	-132.811	-40.628	-134.266	-8191	255	
16904.396	1	1	0	0	0.25808	0.027102	0.17666	0.10946	0.26343	0.20097	0.25944	0.42433	0.15285	0.055584	0.32758	0.17647	0.034909	0.22474	0.042739	0.20661	-1.5083	-1.3854	-1.2	-1.9604	-1.1375	-1.7167	-1.7917	-0.93958	-1.7646	-1.3646	-1.4042	-2.025	-1.0917	-1.5479	-1.9208	-1.225	50.025	-108.097	47.261	-82.958	111.094	93.968	133.074	193.860	160.002	35.886	111.235	82.848	-10.247	-75.879	198.609	186.744	0.00074519	0.00078873	0.00015617	710.45	2.5658e-05	7.9433e-06	1001.3	177.85	4.4125e-05	2.1284e-06	315.27	89.51	38.608	8.5407	1.3279e-05	31.348	0.0052896	0.0057966	0.0015996	805.96	6.1645e-05	6.1256e-05	1052.7	202.93	5.9374e-05	6.1748e-05	370.41	105.66	57.979	15.158	6.1075e-05	38.845	35.911	131.546	22.312	-144.908	19.784	89.749	-145.595	-141.037	70.402	-121.255	-142.135	-138.065	-137.243	-132.704	192.060	-134.060	-8191	255	
16904.492	1	1	0	0	0.27812	0.29458	0.069849	0.14442	0.23465	0.149	0.26057	0.29524	0.20589	0.13446	0.022892	0.22461	0.10689	0.10835	0.16661	0.043593	-1.5312	-1.6333	-1.1896	-1.9333	-1.1688	-1.4229	-1.9688	-1.3104	-1.9083	-1.4917	-1.1771	-2.0354	-1.3896	-1.575	-1.7208	-1.1	135.449	-128.206	-34.629	41.153	-142.853	133.236	141.776	-114.652	152.549	-93.703	-151.662	173.664	88.427	-151.085	194.794	-86.296	0.00096634	0.00028545	0.00035124	717.6	3.4574e-06	3.084e-05	997.76	176.4	3.7782e-05	1.5434e-05	310.47	86.642	38.058	8.2195	1.0468e-05	29.921	0.0051531	0.0056607	0.0015736	808.07	6.2082e-05	6.3479e-05	1055	204.37	6.377e-05	6.7376e-05	376.22	106.02	59.837	15.723	6.7265e-05	39	-30.753	48.247	21.369	-144.972	-17.467	10.817	-145.698	-140.587	154.923	123.805	-142.042	-137.979	-137.475	-132.018	6.926	-134.403	-8191	255	
16904.590	1	1	0	0	0.09713	0.13553	0.029279	0.22532	0.024512	0.23225	0.38137	0.12306	0.052652	0.22736	0.21027	0.11753	0.084025	0.057321	0.26053	0.2895	-1.4396	-1.6854	-0.98542	-2.1833	-1.1542	-1.1917	-2.0625	-1.0812	-1.6229	-1.6771	-1.2354	-2.0583	-1.4438	-1.3271	-1.8604	-1.1854	139.292	-151.681	15.517	47.217	77.960	136.524	62.607	131.021	23.102	47.933	91.693	187.341	60.474	-18.261	-30.898	-148.669	0.0017911	0.0019129	0.00029626	712.13	2.9289e-05	2.1725e-05	988.69	178.84	5.1607e-06	9.1708e-06	310.85	87.347	37.81	8.12	8.9553e-06	30.319	0.0056703	0.0061769	0.0016979	817.04	6.6104e-05	6.6785e-05	1056.7	205.89	6.5302e-05	6.7776e-05	376.64	106.28	59.974	15.725	6.6748e-05	39.308	14.835	-9.865	138.025	-144.995	-30.118	-19.633	-145.767	-141.069	140.092	69.178	-141.518	-138.251	-137.744	-131.520	-89.189	-134.163	-8191	255	
16904.686	1	1	0	0	0.050073	0.096528	0.032562	0.21302	0.1349	0.22896	0.10249	0.15445	0.18381	0.28288	0.42949	0.080128	0.21169	0.42667	0.299	0.3275	-1.2667	-1.8292	-1.0979	-1.9438	-1.2188	-1.1667	-1.9271	-1.25	-1.5479	-1.7687	-1.1354	-1.9125	-1.2437	-1.1458	-2	-1.1604	-23.186	-47.243	188.872	152.633	-30.730	-123.782	48.732	197.071	-90.962	8.605	-140.167	151.060	83.125	28.475	156.924	-131.889	0.0010355	0.0018385	0.00059517	709.71	1.2093e-05	7.2362e-06	991.95	176.3	6.6124e-06	1.3618e-05	311.07	88.083	38.113	8.2323	6.4971e-06	30.736	0.0056654	0.0062024	0.0017178	816.64	6.7685e-05	6.8652e-05	1058.8	205.44	6.6907e-05	6.8669e-05	376.31	106.63	60.202	15.702	6.6119e-05	39.27	11.068	-124.023	-3.191	-145.233	-6.213	139.369	-146.123	-141.024	-75.780	-13.703	-142.245	-137.899	-137.103	-133.597	-24.108	-133.774	-8191	255	
16904.781	1	1	0	0	0.072197	0.13313	0.12202	0.10752	0.060552	0.079674	0.26446	0.2155	0.28851	0.053276	0.10465	0.2934	0.093737	0.24631	0.26552	0.30624	-0.99167	-1.7646	-1.0396	-1.8312	-1.4771	-1.1313	-1.9396	-1.2292	-1.3646	-1.9604	-0.99792	-1.7812	-1.6125	-0.89792	-1.8708	-1.275	-98.403	132.682	-140.207	42.730	74.773	-7.849	177.834	122.819	104.943	57.062	104.714	171.195	51.065	-140.499	-67.308	97.735	0.0010823	0.00065834	0.00038042	708.89	1.6953e-05	8.0641e-06	988.88	174.93	5.3151e-06	2.2639e-05	310.61	87.298	37.762	8.3017	1.6553e-06	30.332	0.0056961	0.006134	0.001693	814.64	6.6499e-05	6.7369e-05	1051.3	204.45	6.5384e-05	6.6336e-05	371.91	105.89	59.241	15.447	6.3938e-05	38.912	14.528	115.637	-21.877	-145.056	133.436	169.758	-145.667	-140.874	93.551	103.689	-141.771	-137.638	-137.584	-133.097	55.689	-134.293	-8191	255	
16904.900	1	1	0	0	0.27739	0.11939	0.039209	0.14555	0.21961	0.12223	0.30182	0.18782	0.14546	0.11234	0.3775	0.33696	0.26104	0.19316	0.10194	0.1241	-0.9375	-1.9333	-1.0833	-1.8208	-1.6562	-1.1542	-1.9104	-1.3854	-1.2292	-1.9729	-1.0604	-1.6521	-1.7437	-0.925	-1.725	-1.4417	-36.855	80.249	17.244	78.752	97.887	121.667	161.790	133.645	-113.778	101.940	134.487	169.861	154.722	185.948	115.409	85.326	0.00070214	0.00066216	0.0002696	706.35	1.8486e-05	1.4054e-05	990.12	174.97	1.2095e-05	1.4307e-05	310.05	88.1	37.823	8.0569	2.7656e-05	30.356	0.0055403	0.0059559	0.0016359	808.49	6.453e-05	6.3928e-05	1045.1	202.34	6.3045e-05	6.3644e-05	370.16	105.12	58.277	15.1	6.0763e-05	38.513	18.586	-35.049	-58.752	-144.608	-23.217	105.303	-146.126	-141.140	8.198	-49.122	-141.916	-137.366	-137.397	-132.711	-70.317	-133.549	-8191	255	
16904.996	1	1	0	0	0.32644	0.16251	0.10328	0.19159	0.12069	0.33018	0.42125	0.14466	0.20186	0.22324	0.049461	0.37472	0.11114	0.20193	0.11911	0.044454	-0.87917	-2.0375	-0.93542	-1.6063	-1.7896	-1.1646	-1.8104	-1.6146	-1.4271	-2.0417	-1.225	-1.2833	-1.7875	-1.1583	-1.9354	-1.5187	-78.945	200.548	-51.137	168.463	100.379	3.686	-131.190	-157.207	-86.774	117.051	43.691	134.571	156.690	-142.963	-33.133	163.080	0.00051982	0.00032806	0.00013514	705.79	1.8596e-05	2.1914e-05	999.3	177.44	4.2346e-06	1.889e-05	315.63	89.508	38.548	8.4736	1.2835e-05	32.104	0.0051668	0.0055035	0.0015026	793.2	5.8156e-05	5.786e-05	1037.3	199.32	5.5425e-05	5.5464e-05	362.87	103.46	55.332	14.19	5.1029e-05	38.37	54.527	84.061	53.431	-145.464	58.165	33.671	-145.599	-140.829	174.076	69.994	-141.849	-138.497	-137.239	-133.135	50.569	-133.986	-8191	255	
16905.068	1	1	0	0	0.10512	0.17428	0.069191	0.23796	0.22849	0.11695	0.11022	0.32015	0.066483	0.10531	0.10922	0.13778	0.17152	0.023208	0.14282	0.18472	-0.63958	-1.9875	-1.25	-1.2979	-1.9104	-1.0292	-1.9896	-1.7958	-1.0688	-1.7563	-1.375	-1.3458	-1.9917	-0.98542	-1.5542	-1.5938	-78.440	12.936	69.767	-93.514	164.663	-30.267	137.548	155.101	28.112	65.179	37.151	136.404	185.801	171.389	-63.442	58.669	0.0011201	0.0019852	0.0002275	712.49	1.8129e-05	3.9035e-06	1003.9	179.79	1.1152e-05	7.5081e-06	317.78	90.568	39.636	8.6429	1.419e-05	32.555	0.0043753	0.004659	0.0013025	780.9	5.1133e-05	5.1522e-05	1033.2	199.38	5.1536e-05	5.2133e-05	363.28	103.77	55.541	14.271	5.2104e-05	38.676	14.800	-45.975	-137.092	-145.043	11.858	11.960	-145.644	-141.342	-68.725	49.642	-142.173	-137.645	-136.942	-131.323	148.435	-133.970	-8191	255	
16905.164	1	1	0	0	0.15806	0.14975	0.066651	0.23688	0.28344	0.1118	0.061071	0.081895	0.061727	0.13948	0.082462	0.23847	0.20623	0.23705	0.2045	0.22522	-0.60417	-1.7479	-1.2958	-1.2771	-1.7812	-1.3062	-1.6667	-1.6625	-0.96667	-1.8	-1.5688	-1.1479	-2.0667	-0.85625	-1.3625	-1.9396	-12.454	-151.673	64.279	-128.521	151.211	161.969	171.512	197.191	-31.864	-159.177	159.045	171.248	-37.579	107.742	199.478	-69.534	0.0010103	0.00044226	0.00024862	713.04	1.8106e-05	4.084e-06	999.78	178.61	2.2769e-05	1.7145e-05	317.69	89.149	38.878	8.4364	1.6561e-05	32.164	0.0045324	0.0048114	0.0013851	789.93	5.4398e-05	5.4942e-05	1041	199.94	5.4291e-05	5.486e-05	365.47	103.59	55.644	14.293	5.3019e-05	38.376	11.954	-113.474	-106.878	-145.001	-149.085	190.884	-145.738	-141.301	91.938	26.783	-142.025	-137.792	-137.935	-132.836	18.093	-133.912	-8191	255	
16905.285	1	1	0	0	0.2203	0.36567	0.25864	0.37835	0.25258	0.35663	0.34125	0.1857	0.12801	0.15369	0.30173	0.19136	0.26812	0.21133	0.13606	0.27115	-0.64583	-1.8604	-1.4188	-1.3563	-1.7229	-1.2146	-1.6104	-1.9104	-0.96875	-1.8167	-1.725	-1.1229	-1.8354	-1.2854	-1.5812	-1.9542	-145.398	-76.014	-2.578	147.382	109.908	-90.270	159.810	176.641	180.464	139.416	152.474	-11.195	-151.694	145.676	149.246	-124.919	0.0010649	0.00033318	0.00024083	711.48	6.4695e-06	4.6451e-05	998.2	179.18	2.3764e-05	8.2159e-06	316.01	90.516	38.687	8.5255	5.0053e-06	31.911	0.00445	0.0047565	0.0013456	780.35	5.1139e-05	5.2068e-05	1029.2	197.37	5.0471e-05	5.1056e-05	361.54	103.17	54.542	14.075	5.1846e-05	38.264	4.420	-124.499	-142.706	-145.253	-88.317	-81.369	-145.848	-141.432	38.870	-52.022	-141.972	-137.483	-137.242	-133.706	-7.708	-134.184	-8191	255	
16905.381	1	1	0	0	0.11132	0.27231	0.13712	0.12098	0.29521	0.11085	0.32513	0.078701	0.20003	0.30058	0.29142	0.19726	0.12795	0.16733	0.041182	0.072872	-0.77083	-1.7625	-1.7458	-1.2667	-1.7521	-1.3312	-1.4562	-1.9708	-0.98333	-1.4771	-1.7563	-1.2083	-1.9708	-1.1854	-1.2062	-1.8771	81.734	-55.171	174.978	-132.551	81.246	68.277	133.854	-14.131	173.562	57.353	139.088	-139.215	23.173	103.287	168.354	-33.807	0.00068442	0.00016702	0.00060999	710.45	1.6123e-05	7.3711e-06	997.58	178.5	3.1546e-05	2.0937e-05	313.68	89.472	38.611	8.5211	7.5241e-07	32.194	0.0044803	0.0048096	0.0013687	782.4	5.2222e-05	5.3554e-05	1035.9	198.64	5.2586e-05	5.4301e-05	365.14	103.64	55.462	14.574	5.4897e-05	38.66	5.605	71.417	-6.501	-144.936	47.517	23.019	-145.658	-141.624	-29.542	115.203	-141.976	-137.866	-137.690	-133.510	0.470	-134.025	-8191	255	
16905.477	1	1	0	0	0.045152	0.1027	0.27041	0.11895	0.20472	0.13976	0.27002	0.2557	0.32796	0.31547	0.39755	0.10148	0.11564	0.34338	0.14984	0.095087	-0.72708	-1.5271	-1.8521	-1.0187	-1.8125	-1.3875	-1.3583	-2.0104	-1.1458	-1.475	-1.9083	-1.2021	-1.8021	-1.4958	-1.275	-2.0563	-127.625	-25.742	129.815	164.721	-141.587	-60.444	190.943	-85.732	53.369	-62.817	185.476	-143.652	26.620	148.329	128.724	-156.543	0.00098847	0.0006592	0.00050806	709.03	2.1721e-05	1.2409e-05	1006.6	180.5	2.1551e-05	2.3e-05	318.98	90.942	39.187	8.707	1.047e-05	33.016	0.0046796	0.0050165	0.0014059	786.66	5.3441e-05	5.4654e-05	1041.9	199.47	5.2621e-05	5.3401e-05	365.48	104.43	55.387	14.449	5.2251e-05	39.015	38.585	-0.973	21.987	-145.370	-35.842	179.815	-145.743	-141.286	87.558	-78.256	-142.111	-137.814	-137.456	-133.928	165.289	-134.524	-8191	255	
16905.572	1	1	0	0	0.11231	0.22509	0.17225	0.16926	0.22322	0.12011	0.25103	0.15864	0.19398	0.037962	0.22099	0.28972	0.16122	0.31066	0.17061	0.26798	-0.84167	-1.3563	-2.0125	-1.1042	-1.8312	-1.5854	-1.2354	-1.9813	-1.1729	-1.2958	-1.85	-1.0292	-1.7125	-1.5708	-1.1812	-1.8479	-10.293	199.582	92.493	-151.294	-57.611	101.836	-157.666	184.734	30.584	-9.519	167.189	194.922	167.244	-154.902	74.541	191.337	0.00061379	0.0017505	0.00029751	709.86	1.9216e-05	2.7246e-05	1003.6	179.81	2.8983e-05	7.0006e-06	317.49	90.799	38.889	8.5426	1.9635e-05	32.354	0.0044734	0.0048872	0.0013645	781.75	5.2454e-05	5.4498e-05	1037.5	199.25	5.1828e-05	5.2581e-05	363.22	104.08	55.264	14.331	5.2677e-05	38.428	51.058	-121.712	55.553	-145.544	92.861	-1.968	-145.746	-141.622	-20.062	39.990	-141.703	-138.042	-137.132	-133.613	-4.047	-133.840	-8191	255	
16905.691	1	1	0	0	0.064651	0.12015	0.1037	0.21776	0.10633	0.13621	0.27108	0.3546	0.069817	0.55374	0.31818	0.24929	0.18413	0.16213	0.11339	0.40622	-0.90417	-1.1625	-1.9312	-1.2375	-1.3667	-1.6979	-1.1542	-1.8854	-1.5125	-1.125	-1.9438	-1.1604	-1.5417	-1.8708	-1.0833	-1.9438	20.087	81.564	31.480	-59.208	-146.225	-113.201	16.912	123.589	-35.618	-55.644	200.245	-79.604	68.481	32.824	173.482	192.782	0.00033186	0.00076514	0.0001043	699.39	1.9695e-05	4.267e-06	993.48	174.95	1.6968e-05	6.5501e-06	314.12	89.107	37.045	8.2958	6.0891e-06	31.67	0.0046123	0.0050054	0.001396	777.06	5.4982e-05	5.6927e-05	1032.1	196.84	5.5519e-05	5.6874e-05	363.41	103.46	55.204	14.406	5.4825e-05	38.308	23.818	-1.899	-129.473	-145.309	-117.618	-110.804	-145.777	-140.957	48.262	200.599	-141.991	-137.681	-137.290	-132.956	-130.002	-134.253	-8191	255	
#DATA ENDS
