BOXY.EXE: ISS Imagent and Oximeter Data Acquisition Program Version 0.80
Ascii Record File

#ACQ INFORMATION
2  Detector Channels 
16  External MUX Channels 
1  Auxiliary Channels 
5000  Waveform (CCF) Frequency (Hz)
1  Waveforms Skipped 
30  Waveforms Averaged 
1  Cycles Averaged 
16  Acquisitions per Waveform 
10.0806  Updata Rate (Hz) 

#FILE INFORMATION
TRUE -- External MUX Channel results are PARSED.
FALSE -- AC DC and Phase are NOT grouped.
TRUE -- Companion Program Settings File CREATED.
FALSE -- AC data not excluded
FALSE -- DC data not excluded
FALSE -- Phase data not excluded
FALSE -- Auxillary Chn. data not excluded
Tab delimiters

#CALIBRATION STATE
TRUE -- Waveform Calibration Values APPLIED.


#AUX CALIBRATION VALUES
Val Type	aux-1	

Term	1.0000e+00	
Factor	0.0000e+00	


#WF CALIBRATION VALUES
A = Detector Channel
Val Type	A-AC1	A-AC2	A-AC3	A-AC4	A-AC5	A-AC6	A-AC7	A-AC8	A-AC9	A-AC10	A-AC11	A-AC12	A-AC13	A-AC14	A-AC15	A-AC16	A-DC1	A-DC2	A-DC3	A-DC4	A-DC5	A-DC6	A-DC7	A-DC8	A-DC9	A-DC10	A-DC11	A-DC12	A-DC13	A-DC14	A-DC15	A-DC16	A-Ph1	A-Ph2	A-Ph3	A-Ph4	A-Ph5	A-Ph6	A-Ph7	A-Ph8	A-Ph9	A-Ph10	A-Ph11	A-Ph12	A-Ph13	A-Ph14	A-Ph15	A-Ph16	

Term	0.00000e+00	0.00000e+00	0.00000e+00	0.00000e+00	0.00000e+00	0.00000e+00	0.00000e+00	0.00000e+00	0.00000e+00	0.00000e+00	0.00000e+00	0.00000e+00	0.00000e+00	0.00000e+00	0.00000e+00	0.00000e+00	0.00000e+00	0.00000e+00	0.00000e+00	0.00000e+00	0.00000e+00	0.00000e+00	0.00000e+00	0.00000e+00	0.00000e+00	0.00000e+00	0.00000e+00	0.00000e+00	0.00000e+00	0.00000e+00	0.00000e+00	0.00000e+00	0.00000e+00	0.00000e+00	0.00000e+00	0.00000e+00	0.00000e+00	0.00000e+00	0.00000e+00	0.00000e+00	0.00000e+00	0.00000e+00	0.00000e+00	0.00000e+00	0.00000e+00	0.00000e+00	0.00000e+00	0.00000e+00	
Factor	1.00000e+00	1.00000e+00	1.00000e+00	1.00000e+00	1.00000e+00	1.00000e+00	1.00000e+00	1.00000e+00	1.00000e+00	1.00000e+00	1.00000e+00	1.00000e+00	1.00000e+00	1.00000e+00	1.00000e+00	1.00000e+00	1.00000e+00	1.00000e+00	1.00000e+00	1.00000e+00	1.00000e+00	1.00000e+00	1.00000e+00	1.00000e+00	1.00000e+00	1.00000e+00	1.00000e+00	1.00000e+00	1.00000e+00	1.00000e+00	1.00000e+00	1.00000e+00	X	X	X	X	X	X	X	X	X	X	X	X	X	X	X	X	

B = Detector Channel
Val Type	B-AC1	B-AC2	B-AC3	B-AC4	B-AC5	B-AC6	B-AC7	B-AC8	B-AC9	B-AC10	B-AC11	B-AC12	B-AC13	B-AC14	B-AC15	B-AC16	B-DC1	B-DC2	B-DC3	B-DC4	B-DC5	B-DC6	B-DC7	B-DC8	B-DC9	B-DC10	B-DC11	B-DC12	B-DC13	B-DC14	B-DC15	B-DC16	B-Ph1	B-Ph2	B-Ph3	B-Ph4	B-Ph5	B-Ph6	B-Ph7	B-Ph8	B-Ph9	B-Ph10	B-Ph11	B-Ph12	B-Ph13	B-Ph14	B-Ph15	B-Ph16	

Term	0.00000e+00	0.00000e+00	0.00000e+00	0.00000e+00	0.00000e+00	0.00000e+00	0.00000e+00	0.00000e+00	0.00000e+00	0.00000e+00	0.00000e+00	0.00000e+00	0.00000e+00	0.00000e+00	0.00000e+00	0.00000e+00	0.00000e+00	0.00000e+00	0.00000e+00	0.00000e+00	0.00000e+00	0.00000e+00	0.00000e+00	0.00000e+00	0.00000e+00	0.00000e+00	0.00000e+00	0.00000e+00	0.00000e+00	0.00000e+00	0.00000e+00	0.00000e+00	-2.23846e+00	-1.31119e+02	-1.35896e+02	-1.81478e+02	-5.32445e+01	-6.29258e+01	-1.58115e+02	-1.62015e+02	-5.21912e+01	-6.51356e+01	-1.73607e+02	-1.71776e+02	-1.83012e+02	-1.76573e+02	-5.74558e+01	-1.49837e+02	
Factor	3.30459e-05	1.49444e-04	4.39707e-05	1.58432e-01	1.72561e-06	1.36174e-06	1.67435e-01	4.77828e-02	1.66550e-06	1.80684e-06	9.40725e-02	2.82132e-02	5.96618e-02	8.24392e-03	1.74084e-06	1.21984e-02	3.04457e-06	3.32303e-06	9.25805e-07	8.43004e-02	3.58660e-08	3.66680e-08	8.32303e-02	2.54810e-02	3.58404e-08	3.65924e-08	4.79435e-02	1.44760e-02	3.08274e-02	4.42958e-03	3.60998e-08	6.29450e-03	X	X	X	X	X	X	X	X	X	X	X	X	X	X	X	X	



#DISTANCE SETTINGS
A = Detector Channel
A-1	A-2	A-3	A-4	A-5	A-6	A-7	A-8	A-9	A-10	A-11	A-12	A-13	A-14	A-15	A-16	

2.5000e+00	3.0000e+00	2.5000e+00	3.0000e+00	2.0000e+00	3.0000e+00	1.5000e+00	3.0000e+00	3.0000e+00	3.0000e+00	3.0000e+00	3.0000e+00	3.0000e+00	3.0000e+00	1.5000e+00	3.0000e+00	

B = Detector Channel
B-1	B-2	B-3	B-4	B-5	B-6	B-7	B-8	B-9	B-10	B-11	B-12	B-13	B-14	B-15	B-16	

1.0000e+01	1.0000e+01	1.0000e+01	1.4400e+00	1.0000e+01	1.0000e+01	1.5100e+00	1.9400e+00	1.0000e+01	1.0000e+01	1.9900e+00	2.4900e+00	2.4100e+00	2.9000e+00	1.0000e+01	2.9800e+00	




#DATA BEGINS
time	group	step	mark	flag	A-AC1	A-AC2	A-AC3	A-AC4	A-AC5	A-AC6	A-AC7	A-AC8	A-AC9	A-AC10	A-AC11	A-AC12	A-AC13	A-AC14	A-AC15	A-AC16	A-DC1	A-DC2	A-DC3	A-DC4	A-DC5	A-DC6	A-DC7	A-DC8	A-DC9	A-DC10	A-DC11	A-DC12	A-DC13	A-DC14	A-DC15	A-DC16	A-Ph1	A-Ph2	A-Ph3	A-Ph4	A-Ph5	A-Ph6	A-Ph7	A-Ph8	A-Ph9	A-Ph10	A-Ph11	A-Ph12	A-Ph13	A-Ph14	A-Ph15	A-Ph16	B-AC1	B-AC2	B-AC3	B-AC4	B-AC5	B-AC6	B-AC7	B-AC8	B-AC9	B-AC10	B-AC11	B-AC12	B-AC13	B-AC14	B-AC15	B-AC16	B-DC1	B-DC2	B-DC3	B-DC4	B-DC5	B-DC6	B-DC7	B-DC8	B-DC9	B-DC10	B-DC11	B-DC12	B-DC13	B-DC14	B-DC15	B-DC16	B-Ph1	B-Ph2	B-Ph3	B-Ph4	B-Ph5	B-Ph6	B-Ph7	B-Ph8	B-Ph9	B-Ph10	B-Ph11	B-Ph12	B-Ph13	B-Ph14	B-Ph15	B-Ph16	aux-1	digaux	

1654.062	1	1	0	131328	0.064222	0.22217	0.1696	0.17203	0.26723	0.28221	0.37972	0.1875	0.19504	0.15113	0.048219	0.13839	0.13502	0.42191	0.20503	0.26702	-1.2917	-2.5583	-1.7583	-2.0333	-2.4104	-1.5521	-2.4604	-2.5583	-1.375	-2.6396	-1.8958	-1.8729	-2.6417	-1.7396	-2.2562	-2.4229	449.273	256.155	457.044	453.168	275.725	445.793	392.004	379.179	456.280	184.932	331.609	138.801	409.135	442.853	404.748	454.961	0.0023001	0.0012406	0.00038347	1165.2	1.7132e-05	3.8107e-06	1258	449.29	1.4288e-05	2.0741e-06	508.16	216.71	190.67	94.144	6.3522e-06	116.43	0.0022804	0.0022994	0.00064416	1149.7	2.5274e-05	2.5961e-05	1222.3	438.76	2.5112e-05	2.5062e-05	504.98	211.53	194.04	101.24	2.4677e-05	113.39	313.305	183.983	302.257	150.013	299.158	433.356	148.130	155.453	335.088	181.866	152.374	157.068	160.484	164.073	209.139	159.454	-8191	255	
1654.158	1	1	0	131072	0.32307	0.050641	0.11331	0.10323	0.094894	0.13748	0.14114	0.44991	0.24828	0.2359	0.17448	0.30364	0.17444	0.2857	0.071914	0.25931	-1.3271	-2.5396	-1.8479	-2.0771	-2.5229	-1.6708	-2.4833	-2.4813	-1.3646	-2.4521	-2.2292	-1.7083	-2.4792	-1.9688	-2.1854	-2.4458	365.969	288.236	389.107	361.421	268.910	398.713	442.014	434.769	450.015	216.960	483.658	406.675	484.092	483.680	369.774	374.749	0.0025627	0.0021452	0.00077656	1143.3	1.2049e-05	6.5651e-06	1220.8	443.12	2.6355e-05	1.5033e-05	501.35	213.86	190.47	94.087	1.5604e-05	114.75	0.002261	0.0023655	0.00066076	1133.9	2.6415e-05	2.6621e-05	1201.6	434.43	2.6173e-05	2.6737e-05	500.66	209.96	195.04	100.95	2.6233e-05	112.1	316.460	160.607	225.947	149.893	298.858	311.004	148.467	155.779	271.062	251.890	152.927	156.770	160.227	164.121	301.218	159.413	-8191	255	
1654.254	1	1	0	131072	0.31839	0.17519	0.11982	0.22314	0.32065	0.24261	0.1512	0.24483	0.15575	0.13416	0.28217	0.36174	0.084315	0.37097	0.14163	0.36217	-1.3854	-2.3937	-2.0021	-1.8813	-2.4813	-1.7417	-2.2604	-2.6104	-1.7021	-2.4396	-2.3771	-1.8646	-2.6813	-2.0042	-1.9062	-2.6396	462.987	212.105	415.613	480.750	225.939	394.354	398.925	434.341	206.983	186.493	448.080	447.363	150.828	439.383	339.890	441.670	0.0022217	0.00061729	0.00017976	1147.4	1.4952e-05	6.0447e-06	1239.4	443.63	2.8822e-05	1.1512e-05	503.81	215.9	192.74	94.355	1.4346e-05	114.78	0.002392	0.0024804	0.00069255	1136.9	2.6795e-05	2.7033e-05	1211.7	434.76	2.5994e-05	2.6042e-05	501.77	210.54	195.15	100.67	2.5342e-05	111.82	312.593	257.688	475.548	149.959	313.203	330.796	148.438	155.355	270.986	275.668	152.520	156.829	160.678	163.962	291.741	159.349	-8191	255	
1654.375	1	1	0	131072	0.18795	0.095087	0.287	0.13082	0.11894	0.11468	0.17924	0.24282	0.22267	0.070563	0.14696	0.29875	0.17416	0.23682	0.054359	0.1762	-1.25	-2.2896	-2.5187	-1.8104	-2.4188	-1.925	-2.1458	-2.7542	-1.6917	-2.2687	-2.5271	-1.8708	-2.5687	-2.1521	-1.8375	-2.7188	481.204	264.747	365.074	139.382	346.385	162.340	366.440	454.427	402.218	489.497	469.144	463.195	158.883	422.240	184.623	390.542	0.002322	0.001777	0.00037989	1153.3	1.7109e-05	1.0815e-05	1238.7	445.03	8.6689e-06	1.2508e-05	504.48	216.15	191.36	94.282	1.6363e-05	116.1	0.0022777	0.0023189	0.00065076	1139.7	2.5188e-05	2.5625e-05	1215	434.87	2.5081e-05	2.5601e-05	503.11	211.58	193.78	100.8	2.4544e-05	113.05	311.404	194.061	220.395	150.136	282.724	303.836	147.996	155.755	354.293	258.350	152.701	157.238	160.426	164.112	152.134	159.339	-8191	255	
1654.471	1	1	0	131072	0.16542	0.21533	0.12272	0.33496	0.14698	0.14778	0.13379	0.16261	0.11656	0.12452	0.47832	0.22883	0.22626	0.18324	0.2007	0.20188	-1.2313	-2.0396	-2.2667	-1.8604	-2.4562	-2.0792	-1.975	-2.6542	-1.6771	-2.1104	-2.6458	-1.9188	-2.4333	-2.1979	-1.6667	-2.7833	188.108	195.230	314.304	435.145	204.534	179.410	417.687	431.262	447.407	202.216	471.630	468.295	148.214	408.638	144.299	415.259	0.0022549	0.0021791	0.00024613	1162.2	1.3911e-05	9.5741e-06	1255.6	449.01	1.2293e-05	6.0768e-06	508.93	215.97	193.27	94.246	6.7037e-06	115.09	0.0021886	0.0022007	0.00062023	1145.3	2.3606e-05	2.4234e-05	1222.5	436.95	2.3861e-05	2.4283e-05	503.56	211.44	194.54	100.7	2.417e-05	112.24	312.153	198.424	176.354	149.749	323.420	185.116	148.023	155.574	285.432	244.730	152.782	156.884	160.890	164.137	292.882	159.232	-8191	255	
1654.567	1	1	0	131072	0.077029	0.15133	0.060579	0.35055	0.26549	0.20242	0.12451	0.42322	0.12352	0.13104	0.19192	0.2046	0.14541	0.29487	0.21651	0.223	-1.4979	-2.1792	-2.4958	-1.7625	-2.5187	-2.0667	-2.0167	-2.6312	-1.7896	-1.95	-2.6125	-2.0146	-2.4417	-2.4479	-1.4333	-2.6896	435.220	497.399	451.865	486.917	139.309	290.404	447.161	456.156	162.135	244.613	490.058	412.584	370.381	158.706	405.868	363.399	0.0024146	0.0011718	0.00018701	1163.4	8.4987e-06	8.8808e-06	1249.1	443.05	1.7881e-05	8.0417e-06	501.59	215.4	190.72	94.27	8.8035e-06	114.6	0.0021589	0.002218	0.00062018	1144.7	2.4027e-05	2.4699e-05	1217	433.51	2.4329e-05	2.4506e-05	498.72	209.75	193.3	100.59	2.4385e-05	111.53	311.707	169.421	255.071	149.917	299.898	267.159	147.977	155.636	314.036	210.875	152.506	156.667	160.614	163.803	258.744	159.501	-8191	255	
1654.663	1	1	0	131072	0.12389	0.058952	0.13247	0.23859	0.083678	0.25252	0.49223	0.12831	0.16856	0.1076	0.19785	0.14572	0.25744	0.31595	0.05995	0.16586	-1.3729	-1.7354	-2.6125	-1.8833	-2.2625	-2.3021	-1.8792	-2.4708	-1.9917	-1.7104	-2.5521	-1.7042	-2.1167	-2.6729	-1.5146	-2.65	390.636	487.810	225.658	439.110	184.835	213.127	430.818	447.800	261.605	271.372	462.420	145.105	202.533	455.682	318.848	387.837	0.0025343	0.0010121	0.00037927	1158.2	5.6788e-06	3.2661e-06	1244.8	441.67	5.5346e-06	1.1587e-05	501.02	215.15	192.53	94.355	1.5338e-05	115.29	0.0022059	0.0022606	0.00063125	1140.6	2.4012e-05	2.4758e-05	1213.7	431.94	2.3788e-05	2.4009e-05	496.44	209.53	193.59	100.82	2.3601e-05	112.05	315.597	220.020	163.727	149.683	203.582	361.500	148.192	155.637	356.014	354.455	152.595	156.589	160.906	164.106	305.866	159.545	-8191	255	
1654.758	1	1	0	131072	0.20284	0.17785	0.089796	0.090332	0.23005	0.091536	0.47953	0.4183	0.40294	0.15103	0.16012	0.28956	0.27037	0.26997	0.28051	0.18843	-1.6104	-1.7208	-2.4479	-1.6771	-1.8958	-2.3688	-1.7437	-2.7021	-2.0979	-1.8479	-2.6292	-1.8375	-2.1562	-2.8146	-1.55	-2.525	277.777	167.089	475.091	315.927	354.702	223.095	436.628	425.864	368.549	177.673	153.066	457.116	433.377	451.856	278.717	259.571	0.0021554	0.0026017	0.00010488	1160.9	3.465e-06	1.2527e-05	1245.9	442.19	1.4529e-05	2.0738e-05	501.98	216.37	193.08	94.487	1.2399e-05	114.96	0.0021348	0.0021795	0.00060832	1139.3	2.3625e-05	2.4073e-05	1215	432.12	2.3375e-05	2.4151e-05	498.98	210.94	194.43	100.54	2.3961e-05	111.78	311.343	227.533	158.109	149.960	283.973	301.363	148.065	155.842	260.292	279.998	152.857	156.863	160.319	164.162	267.884	159.663	-8191	255	
1654.856	1	1	0	131072	0.056364	0.18829	0.021609	0.22807	0.049396	0.08889	0.32084	0.11979	0.302	0.30485	0.2029	0.18978	0.14	0.45076	0.10398	0.21166	-1.9542	-1.6479	-2.5396	-1.8604	-1.9062	-2.3583	-2.0187	-2.2938	-2.2375	-1.4458	-2.8063	-2.1937	-1.8375	-2.7188	-1.6229	-2.2792	335.125	163.617	451.211	143.404	258.313	423.643	385.907	484.321	274.400	338.749	454.930	475.283	296.488	478.840	487.661	488.383	0.0021948	0.0020678	0.00044344	1162.8	5.3127e-06	7.5317e-06	1256.5	441.76	2.0879e-05	1.85e-05	503.35	215.93	191.98	94.549	2.1375e-05	114.58	0.0021702	0.0021945	0.00061082	1144.6	2.387e-05	2.4484e-05	1222.7	432.6	2.3955e-05	2.441e-05	500.48	211.26	194.69	100.35	2.3628e-05	111.53	312.292	243.551	215.408	150.181	317.495	346.707	148.217	155.824	250.641	307.879	152.718	156.903	160.504	164.096	285.558	159.580	-8191	255	
1654.950	1	1	0	131072	0.22027	0.060742	0.021271	0.43605	0.097188	0.20744	0.17091	0.3654	0.23437	0.076509	0.31224	0.16983	0.26462	0.32021	0.33883	0.21104	-1.8542	-1.6625	-2.2625	-2.175	-1.9813	-2.4688	-1.9438	-2.4458	-2.2396	-1.6375	-2.5812	-2.2188	-1.7271	-2.6958	-1.8104	-2.3792	243.214	324.437	451.616	456.500	233.116	414.316	335.209	469.270	388.195	219.886	493.418	408.455	469.985	447.805	253.334	463.925	0.002364	0.0009036	0.00043773	1158.7	5.5403e-06	6.598e-06	1238.9	440.14	7.2173e-06	2.5692e-05	501.49	215.03	191.39	94.607	1.1402e-05	113.07	0.0021491	0.0022204	0.0006103	1140	2.3928e-05	2.4346e-05	1208.7	430.5	2.4044e-05	2.4476e-05	497.55	209.55	194.1	100.16	2.4432e-05	110.33	308.548	275.216	181.463	150.027	335.224	320.529	148.501	156.139	363.260	283.044	153.106	156.985	160.497	164.026	344.304	159.958	-8191	255	
1655.048	1	1	0	131072	0.10314	0.22876	0.20163	0.052123	0.25559	0.10711	0.21293	0.21551	0.18204	0.15587	0.14933	0.21445	0.45981	0.49392	0.16982	0.1379	-2.0125	-1.5125	-2.4542	-2.2396	-1.8292	-2.5563	-1.8312	-2.2854	-2.5208	-1.6042	-2.7062	-2.3417	-1.8708	-2.7938	-1.7396	-2.1542	247.479	412.736	173.572	417.732	489.238	331.505	368.522	443.085	165.715	494.393	458.964	464.497	202.343	462.184	400.560	486.567	0.0023541	0.00049567	0.00030668	1156.1	1.6877e-05	9.819e-06	1236.7	436.97	2.5745e-06	1.3066e-05	497.17	212.86	192.71	94.463	1.3933e-05	112.99	0.0022469	0.0022768	0.00063493	1136.8	2.483e-05	2.5018e-05	1208	428.5	2.528e-05	2.5485e-05	495.64	208.47	194.74	99.98	2.4986e-05	110.09	317.535	201.013	190.768	150.017	230.031	331.692	148.274	155.731	165.875	345.739	153.142	156.936	160.510	164.412	298.670	159.556	-8191	255	
1655.167	1	1	0	131072	0.064426	0.086638	0.052983	0.2095	0.0129	0.046157	0.28433	0.21352	0.19622	0.077596	0.12468	0.34042	0.13528	0.19099	0.19936	0.11576	-2.2292	-1.6063	-2.5333	-2.2708	-1.8021	-2.4708	-2.1125	-1.9542	-2.4938	-1.6042	-2.5208	-2.4958	-1.5979	-2.6708	-1.9521	-1.9125	314.582	153.471	480.209	400.214	307.541	175.948	444.166	414.343	484.505	427.761	466.790	453.006	484.646	452.330	480.175	426.053	0.0024826	0.00090987	0.00029016	1150.1	9.101e-06	1.0715e-05	1235.5	438.67	2.0048e-06	8.5502e-06	495.21	213.28	192.58	94.436	2.0147e-05	113.02	0.0022629	0.00234	0.00064782	1138.4	2.5294e-05	2.5858e-05	1206.9	428.42	2.5244e-05	2.5798e-05	494.95	208.96	195.04	100.06	2.5533e-05	110.13	314.691	210.697	239.030	150.123	216.849	329.002	148.360	156.067	363.954	178.402	153.052	157.190	160.590	164.274	246.989	159.640	-8191	255	
1655.263	1	1	0	131072	0.30858	0.19976	0.19454	0.31177	0.1664	0.082383	0.29289	0.050324	0.12799	0.25823	0.13494	0.29644	0.28629	0.41279	0.18097	0.25834	-2.2583	-1.6542	-2.2396	-2.4854	-1.4083	-2.4125	-2.3167	-2.0854	-2.5979	-1.9667	-2.1771	-2.6792	-1.7021	-2.5938	-2.0812	-1.9542	281.217	194.602	186.931	474.674	305.123	291.326	448.694	174.934	492.976	291.134	148.229	473.047	458.799	456.474	143.575	461.296	0.0024362	0.00062144	0.00036633	1149.5	7.602e-06	1.773e-05	1238.6	438.56	2.1108e-05	1.6279e-05	496.25	213.95	191.87	94.513	8.3179e-06	112.37	0.0023297	0.0023798	0.00067048	1139.3	2.6232e-05	2.6622e-05	1212	429.13	2.6102e-05	2.6558e-05	496.81	209.05	194.64	100.07	2.6032e-05	109.84	311.223	224.133	232.969	149.965	275.719	264.368	148.475	156.290	316.847	304.704	153.416	157.453	160.929	164.666	252.927	159.635	-8191	255	
1655.359	1	1	0	131072	0.32557	0.35204	0.33097	0.23975	0.083223	0.19259	0.1897	0.14343	0.1855	0.22743	0.25497	0.23372	0.22182	0.31223	0.3612	0.3128	-2.4083	-1.8854	-1.9708	-2.5354	-1.7417	-2.3229	-2.4333	-2.0125	-2.5604	-1.8104	-2.1604	-2.6333	-1.7354	-2.5583	-2.2667	-1.925	490.172	182.823	199.660	198.989	235.716	282.067	463.531	468.811	270.995	208.502	140.339	446.800	158.612	492.306	479.651	453.164	0.0021111	0.00089992	0.00048693	1149.4	1.8463e-05	5.5279e-06	1218.8	435.39	5.329e-06	3.4105e-06	492.74	211.01	190.08	94.238	1.9216e-05	110.99	0.0023509	0.0024033	0.00067894	1136.1	2.5972e-05	2.633e-05	1197.3	426.75	2.5777e-05	2.6005e-05	490.35	206.61	193.4	99.535	2.5936e-05	108.63	315.348	229.640	192.931	150.293	293.560	185.320	148.663	156.242	280.126	418.163	153.511	157.240	161.083	164.483	295.215	159.919	-8191	255	
1655.455	1	1	0	131072	0.12772	0.13429	0.086964	0.17536	0.30246	0.087101	0.20013	0.14762	0.18841	0.20971	0.36522	0.25115	0.59599	0.29409	0.11882	0.084379	-2.0917	-1.9688	-1.7687	-2.6125	-1.5667	-2.2854	-2.4188	-1.8396	-2.4188	-2.2521	-1.9896	-2.7438	-2.0271	-2.4417	-2.2667	-1.8687	197.672	286.173	392.644	153.297	308.019	374.280	444.182	444.852	298.713	387.734	418.296	149.758	463.977	480.132	418.503	251.190	0.0023687	0.0014008	8.962e-05	1147.8	2.6483e-05	3.0591e-06	1227.5	435.2	8.0812e-06	2.5545e-05	490.08	209.81	188.49	94.335	2.0841e-05	109.51	0.0023171	0.0023941	0.00066858	1133.9	2.5828e-05	2.6462e-05	1199.2	425.12	2.6403e-05	2.7106e-05	490.62	205.94	193.94	98.836	2.7259e-05	107.59	312.259	242.463	378.631	150.539	303.786	360.653	148.763	156.375	276.093	276.540	153.341	157.633	161.207	165.193	259.959	160.063	-8191	255	
1655.551	1	1	0	131072	0.2512	0.20709	0.093043	0.22243	0.25258	0.13484	0.19942	0.12033	0.065409	0.17506	0.31994	0.032964	0.11222	0.22628	0.24937	0.13022	-2.0979	-2.0271	-1.925	-2.5875	-1.7625	-2.15	-2.5625	-1.9438	-2.375	-2.3604	-1.95	-2.875	-1.9458	-2.0729	-2.45	-1.8854	141.350	458.279	445.723	412.631	198.723	463.811	396.455	335.753	420.819	270.860	384.085	426.622	463.329	477.780	248.549	433.216	0.0022989	0.0014959	0.00013304	1146.7	3.5781e-06	3.8344e-06	1224.7	432.75	2.2881e-05	5.8053e-06	490.12	210.65	189.48	94.292	1.5986e-05	110.1	0.0024164	0.0025109	0.00069695	1134.5	2.7112e-05	2.7658e-05	1202.2	425.03	2.7176e-05	2.8109e-05	492.42	206.16	194.69	98.859	2.8043e-05	107.95	310.967	230.256	171.394	150.702	257.411	239.603	148.751	156.462	289.626	390.146	153.788	157.781	161.397	164.982	287.198	160.243	-8191	255	
1655.648	1	1	0	131072	0.12386	0.065491	0.27567	0.26972	0.2372	0.093037	0.14011	0.30087	0.16402	0.13414	0.23888	0.10984	0.1286	0.32237	0.2769	0.20252	-2.1354	-2.0583	-1.7292	-2.7438	-1.8875	-1.8854	-2.5312	-1.7812	-2.3875	-2.4208	-1.6896	-2.7	-2.0021	-2.1333	-2.6375	-1.8125	244.292	238.936	277.908	419.099	234.179	432.250	201.279	436.912	313.331	299.110	446.319	488.169	367.943	153.077	436.366	435.269	0.0024387	0.0013023	0.00034088	1147	1.7612e-05	1.4381e-05	1227.1	429.8	1.6335e-05	8.7602e-06	489.91	211.16	190.48	94.215	1.9465e-05	109.76	0.0024915	0.0025983	0.00071995	1138.7	2.7832e-05	2.8545e-05	1206.5	424.82	2.7874e-05	2.8538e-05	493.88	207.53	195.76	98.624	2.8478e-05	107.69	309.257	192.864	255.704	150.586	288.304	183.091	148.588	156.598	303.870	270.556	154.048	157.692	161.587	164.923	255.147	159.890	-8191	255	
1655.768	1	1	0	131072	0.12694	0.038361	0.032045	0.26217	0.11007	0.28131	0.41184	0.18332	0.05898	0.18774	0.15492	0.051086	0.10216	0.30271	0.21319	0.31866	-2.0333	-2.1312	-1.6146	-2.8583	-1.9854	-1.9417	-2.8333	-2.0458	-2.4292	-2.4667	-1.7354	-2.5958	-2.0729	-2.0375	-2.4542	-1.8604	261.262	388.968	495.490	140.491	145.322	450.083	410.823	444.080	281.194	277.469	407.220	199.376	151.253	481.187	456.536	494.839	0.0021077	0.0013604	0.00035126	1147.2	1.2924e-05	8.4617e-06	1223.1	429.4	1.3765e-05	9.9573e-06	486.61	207.88	188.68	94.141	1.9166e-05	107.82	0.0025524	0.0026174	0.00073269	1134.8	2.8247e-05	2.9114e-05	1201.5	422.31	2.8482e-05	2.9153e-05	490.12	205.08	195.29	97.919	2.8193e-05	105.73	316.331	171.073	484.513	150.669	274.601	422.240	148.502	156.057	301.701	290.518	153.241	157.519	161.029	164.479	314.814	159.723	-8191	255	
1655.863	1	1	0	131072	0.19698	0.13711	0.12949	0.24399	0.2313	0.050285	0.14517	0.45851	0.096234	0.20199	0.095136	0.23073	0.08067	0.37237	0.048836	0.42996	-1.6187	-2.5083	-1.6667	-2.7167	-2.2812	-1.7833	-2.5229	-2.15	-2.0687	-2.4708	-1.6667	-2.7167	-2.1271	-1.7896	-2.4208	-2.0104	462.002	313.580	340.806	451.278	414.347	408.769	205.112	467.863	470.602	417.038	361.173	480.613	426.891	160.934	290.386	485.499	0.0022251	0.0016905	0.00020734	1125.3	8.1116e-06	1.1261e-05	1210.5	425.09	1.1308e-05	1.0626e-05	483.14	207.28	189.48	94.141	8.9616e-06	107.79	0.0024957	0.0025707	0.00071131	1118.9	2.7313e-05	2.7962e-05	1186.1	417.85	2.7106e-05	2.7563e-05	484.6	204.32	193.75	98.186	2.7256e-05	105.88	310.898	243.731	227.339	150.706	263.285	207.973	148.544	156.644	257.098	242.018	153.249	157.585	161.362	164.738	326.658	159.336	-8191	255	
1655.959	1	1	0	131072	0.14728	0.22863	0.12655	0.29677	0.20888	0.22771	0.13872	0.14559	0.16207	0.081663	0.28952	0.22202	0.15565	0.28542	0.28631	0.26728	-1.6437	-2.4792	-1.4688	-2.5229	-2.1625	-1.7167	-2.5812	-2.0396	-2.075	-2.5208	-1.6812	-2.4229	-2.5687	-1.8354	-2.5292	-2.0646	273.446	220.023	343.423	458.524	229.595	419.186	369.379	440.531	398.976	296.013	409.833	483.145	418.009	447.821	167.204	489.116	0.0021912	0.00078104	0.00034604	1124.7	3.9199e-06	7.8864e-06	1208.7	424.06	1.1384e-05	1.3645e-05	482.37	208.57	190.51	94.487	1.915e-05	108.45	0.0024656	0.0025355	0.00071079	1117.3	2.7581e-05	2.8267e-05	1186.6	417.92	2.7223e-05	2.7732e-05	484.84	204.65	193.95	98.324	2.6905e-05	106.28	310.013	328.964	260.858	149.956	172.434	329.147	147.923	155.643	330.899	227.820	152.567	156.542	160.513	163.950	271.231	158.975	-8191	255	
1656.055	1	1	0	131072	0.10373	0.10491	0.35503	0.22657	0.25489	0.056054	0.061368	0.21017	0.05439	0.065638	0.30173	0.081176	0.054886	0.42336	0.27146	0.37814	-1.3583	-2.4646	-1.7396	-2.3167	-2.3375	-1.5812	-2.7062	-2.1417	-1.85	-2.3875	-1.9979	-2.2646	-2.5854	-1.9	-2.3646	-2.2417	169.244	485.675	486.014	480.841	443.201	453.952	369.405	410.763	251.331	274.338	465.954	154.557	162.390	434.893	445.537	421.941	0.0022359	0.0017617	0.00041226	1127.4	1.0821e-05	7.8492e-06	1209	426.69	1.4818e-05	1.7525e-05	483.32	209.61	190.79	94.455	3.057e-06	108.35	0.0024411	0.0024818	0.00068758	1119.5	2.6771e-05	2.7584e-05	1187	418.05	2.7097e-05	2.755e-05	485.08	205.42	194.23	98.487	2.6894e-05	106.6	319.838	170.158	239.620	149.808	226.526	316.440	147.958	155.630	322.070	197.428	152.674	156.733	160.297	163.928	204.234	159.105	-8191	255	
1656.151	1	1	0	131072	0.067565	0.22384	0.23208	0.25035	0.31313	0.34319	0.20509	0.14431	0.24846	0.13832	0.19142	0.26777	0.11629	0.30212	0.11564	0.37322	-1.4104	-2.6542	-1.95	-2.0979	-2.575	-1.6875	-2.5271	-2.5417	-1.5812	-2.375	-1.8396	-1.9625	-2.5875	-1.7333	-2.2021	-2.4771	292.120	374.591	191.364	437.914	230.309	318.855	480.675	411.492	344.199	307.192	438.970	151.586	179.502	474.230	402.581	450.468	0.0020426	0.0012042	0.0004311	1132	1.341e-05	8.1476e-06	1212.5	425.62	3.4215e-06	1.2434e-05	480.68	206.6	189.02	94.383	1.6714e-05	107.43	0.0024125	0.0024823	0.0006887	1119.7	2.6587e-05	2.7079e-05	1188.3	418.01	2.6129e-05	2.6623e-05	482.52	203.48	192.72	97.982	2.6418e-05	105.41	312.396	237.840	176.866	150.225	229.241	290.036	148.053	155.680	497.182	251.043	152.437	156.685	160.601	163.913	294.071	159.195	-8191	255	
1656.247	1	1	0	131072	0.032049	0.13309	0.03479	0.26725	0.28655	0.16546	0.17757	0.20709	0.24727	0.17742	0.23074	0.44854	0.14769	0.55224	0.15824	0.22826	-1.3438	-2.4729	-1.7396	-1.9333	-2.3979	-1.6271	-2.2667	-2.4896	-1.6208	-2.4979	-2.0479	-1.9771	-2.65	-1.9417	-2.0687	-2.5812	185.802	328.581	330.192	462.314	311.568	246.923	379.392	427.887	482.056	273.670	460.502	436.052	142.464	491.580	174.009	426.465	0.002185	0.00031657	0.00042757	1129.7	7.7337e-06	1.376e-05	1207	423.34	1.2863e-05	6.0055e-06	481.82	205.89	188.6	94.152	5.5911e-06	106.79	0.0023845	0.0024616	0.00068651	1117.1	2.6895e-05	2.7251e-05	1185.5	417.66	2.6814e-05	2.7303e-05	483.22	203.24	193.18	97.606	2.6939e-05	104.82	307.656	257.787	191.103	149.761	374.352	251.929	148.185	155.746	294.584	311.238	152.732	157.019	160.606	163.997	244.434	159.406	-8191	255	
1656.343	1	1	0	131072	0.1993	0.18435	0.10781	0.11302	0.16888	0.14663	0.16758	0.12492	0.22851	0.14983	0.34275	0.20225	0.16905	0.54028	0.21381	0.036451	-1.2313	-2.3771	-2.025	-1.8146	-2.6896	-1.8667	-2.3958	-2.4646	-1.6542	-2.4333	-2.2208	-1.8438	-2.5875	-1.9958	-1.9917	-2.6437	146.078	368.062	225.115	295.937	251.748	218.870	471.305	143.110	152.720	313.652	392.569	463.199	481.582	481.106	273.181	294.924	0.0024371	0.00053119	0.00032665	1128.8	2.6946e-05	5.2304e-06	1207.8	425.07	1.0255e-05	2.1151e-05	481.84	206.26	189.11	94.057	1.8911e-05	108.04	0.00238	0.0024677	0.00069003	1122.4	2.6633e-05	2.7153e-05	1185	418.25	2.6533e-05	2.6897e-05	484.19	203.27	193.52	97.791	2.7051e-05	105.89	320.919	388.742	282.897	149.751	291.259	182.462	148.051	155.323	459.776	197.180	151.275	155.766	159.265	162.533	248.977	157.931	-8191	255	
1656.440	1	1	0	131072	0.16892	0.15682	0.050343	0.045446	0.19082	0.023507	0.33266	0.26108	0.1648	0.35083	0.34257	0.2013	0.20688	0.31463	0.034152	0.52167	-1.2396	-2.3792	-2.0354	-1.7854	-2.4229	-1.7146	-2.1208	-2.6063	-1.575	-2.1708	-2.2771	-1.7938	-2.4479	-2.0125	-1.7375	-2.775	280.446	359.167	173.127	162.940	252.239	468.617	431.047	397.093	262.689	296.254	482.757	431.160	455.028	448.486	193.976	461.673	0.0022256	0.0014249	8.2429e-05	1127.6	1.843e-05	4.3216e-06	1211.7	424.26	2.5339e-05	1.9469e-05	486.28	209.13	191.24	94.424	8.2782e-06	108.94	0.0024005	0.0024779	0.0006851	1117	2.673e-05	2.7132e-05	1188.5	418.45	2.6439e-05	2.7067e-05	486.81	204.86	194.77	98.531	2.6703e-05	107.09	307.948	219.622	394.634	148.793	282.448	414.051	147.029	154.627	284.131	296.589	151.663	155.845	159.698	162.663	391.350	158.335	-8191	255	
1656.560	1	1	0	131072	0.20818	0.022605	0.13428	0.34828	0.015776	0.21614	0.20062	0.33021	0.083974	0.24171	0.1399	0.28668	0.24046	0.14484	0.20971	0.23462	-1.2604	-2.0271	-2.125	-1.9104	-2.45	-1.7604	-1.9167	-2.9375	-1.6375	-2.15	-2.4229	-1.7667	-2.5729	-2.2375	-1.4479	-2.5563	181.813	149.200	372.878	139.361	378.586	439.054	363.902	451.789	432.320	303.858	445.942	184.419	473.095	464.514	407.317	254.437	0.0020503	0.0014404	0.00027079	1125.7	2.834e-06	6.4127e-06	1210.1	424.16	8.1767e-06	8.0257e-06	478.31	206.13	188.4	94.128	7.4516e-06	107.78	0.0023716	0.0024356	0.00068652	1117.5	2.6158e-05	2.6983e-05	1185.9	417.35	2.6222e-05	2.7247e-05	482.88	203.02	193.08	98.048	2.6247e-05	105.4	308.529	185.103	263.627	149.008	391.657	245.779	147.125	154.855	296.797	342.242	151.622	155.908	159.189	162.742	260.867	158.172	-8191	255	
1656.632	1	1	0	131072	0.15257	0.13207	0.090655	0.1537	0.15646	0.039335	0.35549	0.30651	0.25598	0.1136	0.22642	0.37265	0.37404	0.2268	0.29178	0.11457	-1.4292	-2.1479	-2.4083	-1.6083	-2.3896	-2.0729	-1.7583	-2.8063	-1.7521	-1.8667	-2.6792	-2.0125	-2.4333	-2.3833	-1.7354	-2.6979	258.750	247.123	484.739	486.368	187.132	344.604	420.263	435.237	477.296	358.491	413.450	487.552	398.990	481.978	394.564	444.341	0.0021968	0.00071033	0.00048762	1113.7	6.0808e-06	1.0269e-05	1193.2	422.5	1.5208e-05	1.1035e-05	474.59	205.81	189.3	94.318	8.5985e-06	106.8	0.0023313	0.0024031	0.00067088	1102	2.5704e-05	2.6177e-05	1170	414.37	2.5625e-05	2.636e-05	477.22	201.97	192.65	97.764	2.635e-05	104.63	319.848	304.090	238.001	148.913	255.149	320.896	147.352	154.977	277.846	257.513	151.707	156.151	159.949	162.955	268.141	158.532	-8191	255	
1656.728	1	1	0	131072	0.19714	0.18061	0.21867	0.39207	0.22621	0.092901	0.40107	0.11959	0.060872	0.29707	0.29525	0.078082	0.053564	0.23042	0.13419	0.29304	-1.4396	-1.8813	-2.4938	-1.6875	-2.2229	-2.1688	-1.6854	-2.5563	-1.9875	-1.8208	-2.7021	-1.8333	-2.3854	-2.5438	-1.6625	-2.9437	249.658	451.790	336.045	345.585	339.100	469.858	417.946	342.466	271.463	401.124	424.879	374.492	378.427	449.299	369.573	396.348	0.0021411	0.00058886	0.00035117	1102.5	1.1903e-05	7.9278e-06	1186.1	419.1	5.6429e-06	1.8511e-05	473.05	205.04	188.68	93.943	9.4739e-06	104.4	0.002356	0.0024281	0.00067724	1096.7	2.6078e-05	2.6589e-05	1165	412.63	2.6076e-05	2.7157e-05	476.81	202.09	194.62	97.042	2.8607e-05	103.22	314.778	304.744	225.022	149.097	245.174	245.524	147.403	154.844	296.521	295.958	151.831	155.821	159.794	163.012	269.384	158.819	-8191	255	
1656.849	1	1	0	131072	0.14972	0.25922	0.070236	0.23905	0.39016	0.046379	0.25426	0.30221	0.084231	0.29997	0.34527	0.35494	0.064325	0.17569	0.15269	0.17334	-1.4146	-1.6562	-2.65	-1.7542	-2.0312	-2.4688	-1.5812	-2.4625	-2.1604	-1.5271	-2.6792	-1.9229	-2.0687	-2.6667	-1.4937	-2.7146	285.826	214.393	291.598	429.208	372.620	361.680	473.974	156.977	227.318	409.007	430.823	431.116	251.560	462.885	312.487	322.332	0.0019549	0.00026135	0.00044229	1105.4	1.501e-05	1.9413e-05	1185.3	420.51	1.4798e-05	3.9035e-06	475.07	204.91	189.46	93.626	6.0421e-06	100.99	0.0026071	0.0027414	0.00076679	1105.2	3.0328e-05	3.123e-05	1177.6	415.8	3.1047e-05	3.2206e-05	484.66	203.63	198.82	95.237	3.3038e-05	100.43	310.236	483.953	200.596	149.136	311.133	286.733	147.335	154.963	322.986	177.094	151.939	155.776	159.980	163.175	275.025	158.774	-8191	255	
1656.943	1	1	0	131072	0.1531	0.21173	0.087872	0.26046	0.10951	0.22898	0.26241	0.15025	0.16932	0.097081	0.20631	0.22679	0.1627	0.41519	0.42293	0.12843	-1.6646	-1.6083	-2.425	-1.9937	-1.9771	-2.5833	-1.7271	-2.4396	-2.0396	-1.6896	-2.5312	-2.0687	-1.8708	-2.8479	-1.4875	-2.55	468.744	183.713	355.961	477.571	252.651	338.848	450.863	197.983	468.340	180.978	376.957	426.317	311.288	436.733	354.172	359.258	0.0021545	0.0012092	0.00078839	1104.7	1.7263e-05	2.1751e-06	1179.5	408.87	1.1633e-05	6.8979e-06	463.13	201.62	187.17	92.355	8.6722e-06	96.588	0.0029915	0.0031689	0.00089025	1118.3	3.5814e-05	3.7072e-05	1185.1	411.04	3.78e-05	3.9389e-05	485.56	203.92	204.51	93.816	4.3908e-05	98.5	316.738	291.021	207.313	148.998	281.380	204.851	147.409	155.115	298.359	199.768	152.598	156.282	159.573	163.242	283.807	159.065	-8191	255	
1657.039	1	1	0	131072	0.19498	0.09975	0.083556	0.13514	0.12941	0.25179	0.42264	0.20342	0.20098	0.3297	0.16689	0.30001	0.13789	0.33908	0.27043	0.44571	-2.0125	-1.55	-2.5146	-2.1896	-1.7042	-2.6146	-1.8375	-2.4042	-2.2938	-1.5417	-2.6792	-2.125	-1.8354	-2.8312	-1.675	-2.5312	196.153	272.393	230.283	465.929	278.256	450.782	487.450	416.463	264.344	224.219	403.665	482.074	493.490	456.889	429.285	417.726	0.0020886	0.0018524	0.00067312	1074.3	1.1578e-06	9.7852e-06	1169	400.01	2.7863e-05	5.3783e-06	476.25	212.14	197.91	92.957	2.279e-05	102.55	0.0040374	0.0043688	0.0012452	1125.1	5.0467e-05	5.2004e-05	1208.2	413.07	4.6556e-05	4.4012e-05	495.83	214.82	213.77	97.663	3.8812e-05	103.01	313.652	148.418	215.641	149.060	152.218	326.397	147.244	155.518	262.840	355.729	152.079	155.735	159.360	163.013	279.338	158.574	-8191	255	
1657.160	1	1	0	131072	0.10157	0.13709	0.17638	0.30972	0.029504	0.22534	0.12528	0.15386	0.29038	0.14319	0.17712	0.37144	0.1924	0.28229	0.12173	0.092331	-2.2208	-1.6479	-2.4729	-2.2771	-1.525	-2.6104	-1.8917	-2.2271	-2.5312	-1.6021	-2.5896	-2.2583	-1.5833	-2.8229	-1.875	-2.1937	361.730	235.680	476.471	463.997	245.921	307.936	377.304	425.034	188.315	373.387	473.812	426.331	413.578	472.366	148.570	251.342	0.0022144	0.00069775	0.00049308	1055.6	1.1311e-05	1.806e-06	1141.3	406.19	1.0783e-05	1.7276e-06	466.12	215.86	199.58	93.71	7.2955e-06	99.67	0.0032872	0.0033374	0.00090419	1072.3	3.3801e-05	3.3713e-05	1132.1	404.32	3.1467e-05	3.1985e-05	474.89	213.64	206.46	95.466	3.1471e-05	99.133	317.166	164.765	223.649	149.207	281.238	142.250	147.438	155.620	320.430	450.792	152.217	155.999	159.832	163.031	400.045	158.548	-8191	255	
1657.231	1	1	0	131072	0.14538	0.25445	0.070943	0.20566	0.21738	0.09749	0.18664	0.14418	0.24625	0.062666	0.33353	0.12033	0.3726	0.28489	0.11702	0.31932	-2.1458	-1.4854	-2.3604	-2.375	-1.5854	-2.5062	-2.075	-1.9396	-2.4604	-1.5896	-2.4562	-2.4354	-1.7146	-2.7458	-1.8729	-2.0729	181.711	394.841	446.211	461.709	411.386	279.787	382.575	432.974	186.388	398.918	415.043	418.244	464.890	456.197	414.119	467.954	0.0021214	0.00049838	0.00048151	1048.6	1.0464e-05	1.0126e-05	1122.6	401.43	1.0168e-05	1.328e-05	471.55	225.98	209.26	93.029	4.9589e-06	94.658	0.002912	0.0030788	0.00086889	1062.5	3.342e-05	3.3908e-05	1124.6	401.35	3.1993e-05	3.2596e-05	481.88	224.15	216.41	92.65	3.3179e-05	94.711	315.853	310.950	185.150	148.756	373.285	237.270	147.139	155.774	258.024	380.508	152.564	155.499	159.447	163.032	362.733	158.365	-8191	255	
1657.328	1	1	0	0	0.082777	0.068351	0.11622	0.23618	0.05829	0.15456	0.34898	0.16718	0.1335	0.23368	0.20961	0.45347	0.15065	0.25224	0.065779	0.1213	-2.2646	-1.8667	-2.0771	-2.3438	-1.3208	-2.4729	-2.1333	-1.9167	-2.6833	-1.7292	-2.2062	-2.5625	-1.7667	-2.4833	-2.0583	-1.8521	397.366	353.208	152.366	482.031	388.227	320.606	395.669	442.519	373.558	250.173	453.839	446.002	333.943	142.772	385.278	406.630	0.0017837	0.0015033	0.00029529	1003.4	1.3926e-05	1.1671e-05	1095.7	430.41	1.1899e-05	8.1077e-06	504.81	236	218.58	83.346	8.994e-07	81.332	0.0029675	0.0030904	0.00085865	1020.9	3.2449e-05	3.2118e-05	1089.9	426.67	3.0705e-05	3.1708e-05	508.68	233.19	224.45	82.975	3.197e-05	81.703	309.908	253.604	182.922	149.313	253.278	298.604	147.465	155.063	302.617	337.606	152.204	155.253	158.872	162.793	149.716	158.700	-8191	255	
1657.448	1	1	0	0	0.17621	0.19275	0.12084	0.17383	0.15013	0.072165	0.35279	0.36151	0.24799	0.16713	0.2145	0.11211	0.029125	0.21374	0.19058	0.4049	-2.1167	-1.7146	-1.8792	-2.5917	-1.6375	-2.4042	-2.3104	-1.825	-2.5	-1.8729	-2.2	-2.7583	-1.7375	-2.5875	-2.3167	-1.8271	347.794	378.842	309.613	460.677	422.374	400.374	367.333	460.682	475.313	348.019	150.573	401.030	417.061	450.551	266.580	415.836	0.0016727	0.00055383	0.00021277	973.62	1.4311e-05	1.5022e-05	1062.2	433.93	1.8699e-05	1.2861e-05	494.02	233.81	215.54	80.366	8.7211e-06	77.676	0.0027372	0.0028663	0.00079131	983.31	2.9572e-05	2.9872e-05	1057	428.24	2.9088e-05	3.0154e-05	500.16	230.18	222.11	79.981	3.2371e-05	78.728	317.649	206.678	207.941	149.616	341.900	256.246	147.685	155.323	262.915	292.302	152.066	154.975	158.962	162.998	192.072	158.701	-8191	255	
1657.544	1	1	0	0	0.001643	0.24437	0.24697	0.097067	0.071207	0.15944	0.17911	0.36031	0.098031	0.19375	0.11359	0.20703	0.25559	0.22371	0.12433	0.19873	-2.2542	-1.9125	-1.9	-2.7229	-1.4292	-2.1396	-2.5542	-1.9062	-2.5875	-2.0333	-2.0187	-2.7938	-1.7521	-2.3146	-2.3521	-1.5583	180.000	250.174	346.665	487.857	345.002	143.620	402.646	432.941	429.804	247.098	357.798	381.044	465.722	176.156	375.927	477.534	0.0018193	0.0010919	0.00032016	950.18	1.0883e-05	2.8297e-06	1013.5	405.82	1.8819e-05	9.1785e-06	456.36	216.54	205.94	74.09	2.0537e-05	70.344	0.0029425	0.0032253	0.00095013	978.05	4.0153e-05	4.3349e-05	1048.9	415.03	4.8475e-05	5.0231e-05	490.79	221.67	224.92	75.804	4.4328e-05	73.77	320.168	215.446	495.363	149.479	158.850	241.198	147.708	155.362	253.207	176.786	152.377	155.377	159.392	163.115	250.408	158.983	-8191	255	
1657.641	1	1	0	0	0.1032	0.087351	0.13103	0.27445	0.067484	0.07799	0.12052	0.39573	0.04437	0.10364	0.11516	0.16974	0.19186	0.30564	0.11736	0.30452	-2.1437	-2.0667	-1.8146	-2.7542	-1.7771	-2.1771	-2.5604	-1.6125	-2.5875	-2.2313	-1.7854	-2.8521	-1.6958	-2.0708	-2.4646	-1.85	179.188	433.522	423.305	154.022	325.695	480.000	493.082	472.136	299.741	468.489	213.890	474.291	475.328	477.467	276.362	467.031	0.0017177	0.0011793	0.00037849	907.67	2.1221e-05	1.9128e-05	975.17	393.58	1.1155e-06	3.2077e-05	453.38	215.25	202.39	67.393	2.2574e-05	63.066	0.0036751	0.003876	0.0010801	946.36	4.19e-05	4.4136e-05	1009.1	401.43	4.488e-05	4.7091e-05	484.95	218.48	222.13	69.504	4.6741e-05	67.154	320.691	360.200	496.369	150.016	267.546	321.191	148.023	155.765	460.785	365.221	151.912	155.363	159.366	163.117	222.760	158.763	-8191	255	
1657.759	1	1	0	0	0.1587	0.093803	0.11455	0.29148	0.25645	0.14557	0.11635	0.39448	0.13456	0.21801	0.25946	0.18259	0.1308	0.20627	0.035718	0.086329	-1.9792	-2.1312	-1.7229	-2.7979	-1.9625	-1.9813	-2.6854	-2.0292	-2.4813	-2.1604	-1.8438	-2.7958	-2.2354	-2.15	-2.6458	-1.8458	333.602	420.348	233.280	472.678	448.949	434.144	176.298	477.127	463.801	495.311	434.103	486.734	400.786	143.500	412.709	280.572	0.0011111	0.0012382	0.00030332	887.8	1.8967e-05	1.7085e-05	948.6	402.54	2.0257e-05	1.0186e-05	455.39	213.57	198.49	62.359	8.9689e-06	60.173	0.0040375	0.0043919	0.0012591	947.01	5.0012e-05	5.2373e-05	1004.8	415.1	5.2465e-05	5.4183e-05	494.29	220.03	224.89	65.486	5.1709e-05	65.152	308.595	257.975	271.671	150.269	336.438	326.570	148.158	155.268	309.160	265.523	152.180	155.351	158.585	163.254	157.393	159.221	-8191	255	
1657.856	1	1	0	0	0.19339	0.078223	0.044457	0.16194	0.027903	0.14095	0.013634	0.16756	0.251	0.20912	0.1175	0.14664	0.32479	0.20482	0.24241	0.14296	-2	-2.6063	-1.45	-2.6854	-1.8229	-1.8271	-2.8187	-1.9979	-2.1104	-2.4125	-1.5833	-2.6813	-2.1292	-1.8937	-2.6437	-1.9042	226.458	351.623	413.461	491.697	487.526	459.436	397.569	467.972	247.591	233.210	230.385	159.696	406.675	435.774	448.138	410.620	0.0010395	0.0010933	0.00057078	896.32	1.2659e-05	4.8259e-06	953.82	381.88	9.6241e-06	2.8243e-05	428.92	213.95	196.19	64.649	8.6448e-06	61.589	0.0043292	0.004647	0.0012713	953.22	4.7906e-05	4.9554e-05	995.44	394.61	4.8035e-05	4.9624e-05	467.31	219.92	221.71	67.905	5.7817e-05	68.27	310.258	226.717	242.562	149.899	363.291	180.944	147.877	155.687	219.236	278.126	151.791	155.084	158.805	163.396	239.187	159.202	-8191	255	
1657.927	1	1	0	131072	0.26	0.3106	0.098674	0.12483	0.2894	0.2065	0.26869	0.20837	0.24541	0.20954	0.11007	0.39738	0.19997	0.11278	0.096702	0.22062	-1.8083	-2.5458	-1.4875	-2.7458	-2.0875	-1.7771	-2.6937	-1.8708	-2.05	-2.5604	-1.7812	-2.5729	-2.4188	-1.9312	-2.8812	-2.1229	250.975	230.489	294.197	322.042	180.148	220.044	424.147	453.623	391.807	225.430	495.610	419.978	395.929	358.990	210.532	440.006	0.0014783	0.00082094	0.00023066	864.57	1.8273e-05	3.6828e-06	913.67	324.32	2.2746e-05	2.6277e-05	361.31	183.21	159.34	62.556	0.00010058	60.236	0.0054783	0.0062284	0.0018209	987.06	7.8598e-05	8.6185e-05	1063.8	379.04	0.00011745	0.000142	564.19	258.4	386.07	107.94	0.00050333	177.3	315.023	219.648	427.320	149.652	345.141	216.534	147.989	155.672	187.994	360.399	152.614	155.642	159.498	163.266	362.459	158.355	-8191	255	
1658.023	1	1	0	131072	0.17396	0.27447	0.085523	0.098632	0.18902	0.133	0.095073	0.28246	0.25882	0.17303	0.12147	0.087092	0.05611	0.16889	0.19967	0.17659	-1.8229	-3.0062	-2.0417	-2.6667	-2.7562	-1.8958	-2.975	-2.1479	-2.2604	-2.875	-1.9354	-2.65	-2.7458	-1.9	-2.9208	-2.4271	359.344	177.611	39.410	13.552	209.292	222.988	28.197	64.177	290.570	27.779	90.775	35.728	162.411	99.703	323.723	64.093	0.0018832	0.0087503	0.00093379	0	0	0	0	0	0	0	0	0	0	0	0	0	0.069609	0.09429	0.030192	2762.3	0.0011752	0.0012015	2727.2	834.94	0.0011744	0.001199	1571	474.34	1010.1	145.14	0.0011829	206.25	8.348	297.559	76.676	358.522	126.756	117.074	21.885	17.985	127.809	114.864	6.393	8.224	356.988	3.427	122.544	30.163	-8191	255	
1658.120	1	1	0	131072	0.18347	0.14541	0.13287	0.11917	0.16552	0.038729	0.35272	0.18721	0.090823	0.17372	0.32613	0.078183	0.23149	0.23144	0.25523	0.24662	-1.8875	-2.9	-2.1125	-2.4042	-2.9021	-2.0312	-2.8438	-2.3604	-2.1167	-3.2458	-2.0417	-2.4875	-2.8875	-1.9562	-2.6562	-2.7083	107.535	263.897	203.922	353.417	55.336	116.252	20.594	344.816	107.171	215.402	82.018	331.395	68.614	141.716	24.283	322.442	0	0	0	0	0	0	0	0	0	0	0	0	0	0	0	0	0.099761	0.10889	0.030336	2762.3	0.0011752	0.0012015	2727.2	834.94	0.0011744	0.001199	1571	474.34	1010.1	145.14	0.0011829	206.25	177.762	48.881	44.104	358.522	126.756	117.074	21.885	17.985	127.809	114.864	6.393	8.224	356.988	3.427	122.544	30.163	-8191	255	
1658.240	1	1	0	131072	0.11529	0.17164	0.028986	0.27035	0.12825	0.27349	0.3741	0.16696	0.1127	0.16976	0.23522	0.077295	0.15773	0.25921	0.21281	0.10769	-1.8208	-2.9813	-2.1958	-2.3563	-2.9333	-1.9021	-2.9208	-2.4313	-2.1271	-3.175	-1.8146	-1.625	-2.1833	-1.3479	-1.9813	-2.0167	252.912	295.692	50.141	22.498	321.413	146.325	21.638	353.788	209.792	132.015	86.272	297.068	94.576	355.203	163.976	229.614	0	0	0	0	0	0	0	0	0	0	65.435	70.235	17.004	0.35226	9.9778e-07	0.058081	0.099761	0.10889	0.030336	2762.3	0.0011752	0.0012015	2727.2	834.94	0.0011744	0.001199	1132.7	183.16	55.054	1.365	6.9176e-07	0.009822	177.762	48.881	44.104	358.522	126.756	117.074	21.885	17.985	127.809	114.864	133.289	191.868	205.740	191.323	253.788	186.232	-8191	255	
1658.336	1	1	0	0	0.19976	0.28355	0.10085	0.26633	0.079645	0.061722	0.213	0.23899	0.092612	0.10525	0.27072	0.31261	0.12337	0.1144	0.20185	0.12379	-0.95	-2.3917	-1.7896	-1.6542	-2.3375	-1.4062	-1.8438	-2.2313	-1.2417	-2.1583	-1.7292	-1.3833	-2.4292	-1.3271	-1.7875	-2.1063	-69.596	-58.686	-14.755	-97.690	-86.200	57.697	192.508	-48.824	-24.442	161.679	67.568	166.275	167.645	20.892	186.815	44.727	1.674e-05	2.041e-05	1.3247e-06	0.030033	8.5105e-08	1.1974e-07	0.048234	0.012344	2.1536e-07	2.7364e-07	0.018174	0.00075758	0.0029773	0.0012578	2.3362e-07	0.0040513	-5.7752e-05	-6.7589e-05	-1.6736e-05	-1.3258	-5.4883e-07	-4.8089e-07	-1.0347	-0.29845	-3.6333e-07	-3.8201e-07	-0.45027	-0.12184	-0.27366	-0.034099	-2.7541e-07	-0.0489	226.983	-0.120	12.508	181.455	-34.412	49.065	-119.854	-103.955	195.252	83.313	126.542	-60.154	210.426	7.351	178.838	54.575	-8191	255	
1658.432	1	1	0	0	0.27988	0.19648	0.22589	0.24163	0.27265	0.28274	0.16732	0.076376	0.17669	0.22427	0.15021	0.082178	0.22552	0.27074	0.097734	0.12605	-1.1271	-2.1562	-1.7375	-1.3979	-2.2104	-1.4208	-1.8937	-2.3625	-1.3979	-2.3	-1.9958	-1.3854	-2.3833	-1.6938	-1.5312	-2.4271	221.481	68.688	179.347	327.663	326.819	269.269	284.371	44.003	234.844	192.916	89.951	105.069	226.449	228.273	123.779	68.922	2.4087e-06	2.3355e-05	3.5527e-06	0.020563	1.1611e-07	1.279e-07	0.027841	0.00096749	2.2465e-07	2.3454e-07	0.015826	0.0073149	0.013022	0.0005766	4.2953e-08	0.0016611	-1.8997e-05	-2.2867e-05	-5.9714e-06	-0.48964	-2.3141e-07	-2.0198e-07	-0.46037	-0.14917	-1.7106e-07	-1.9714e-07	-0.24171	-0.063634	-0.15825	-0.018604	-1.5275e-07	-0.030135	71.610	322.050	40.593	146.802	238.507	63.478	352.246	35.632	325.930	179.387	94.386	115.136	191.078	88.220	109.003	366.862	-8191	255	
1658.529	1	1	0	0	0.26821	0.19859	0.24839	0.10726	0.1541	0.2985	0.1707	0.14777	0.17752	0.2801	0.068873	0.22825	0.21895	0.26947	0.064326	0.13724	-0.91667	-1.9625	-1.8875	-1.2771	-2.2396	-1.4542	-1.6354	-2.3604	-1.5812	-1.95	-2.1271	-1.2875	-2.3375	-1.6063	-1.5667	-2.5083	210.970	177.775	-109.147	131.771	-70.224	-25.701	200.006	5.259	-65.166	196.709	-13.805	23.231	-39.988	-43.606	100.818	-107.169	7.7232e-06	2.0487e-05	6.0483e-06	0.048134	2.7897e-07	9.509e-08	0.0094397	0.005396	3.5687e-07	3.0831e-07	0.0030936	0.0037805	0.0072901	0.001255	3.4747e-07	0.0015704	-1.0358e-05	-1.4434e-05	-3.8807e-06	-0.28346	-1.602e-07	-1.3491e-07	-0.28871	-0.10856	-1.176e-07	-1.3867e-07	-0.18378	-0.042071	-0.11958	-0.014562	-1.0695e-07	-0.024719	213.537	20.732	-83.428	-26.732	155.537	18.232	-119.880	-106.233	-1.006	201.786	-1.314	139.626	113.566	171.600	73.689	94.323	-8191	255	
1658.625	1	1	0	0	0.16568	0.27981	0.1198	0.16225	0.056633	0.12539	0.11914	0.23979	0.20182	0.0025691	0.10492	0.35849	0.28542	0.30505	0.29997	0.11584	-1.1729	-1.8042	-2.1979	-1.3479	-2.1375	-1.7958	-1.1292	-2.3667	-1.2812	-1.8708	-2.3187	-1.2854	-2.0729	-1.7917	-1.3229	-2.2396	338.329	347.606	482.917	374.823	443.737	380.654	300.607	150.675	408.529	444.314	161.635	214.873	183.550	300.740	357.646	287.386	4.667e-06	3.8434e-05	4.2446e-06	0.021701	1.8568e-07	1.8788e-07	0.027357	0.0030099	4.2451e-07	1.6143e-07	0.0166	0.0022736	0.0042547	0.00027519	2.976e-07	0.00076379	-7.4719e-06	-1.0924e-05	-3.3483e-06	-0.21883	-1.2643e-07	-1.2139e-07	-0.21657	-0.088971	-9.6321e-08	-1.1473e-07	-0.16521	-0.03423	-0.10289	-0.013196	-8.7392e-08	-0.022096	388.671	367.760	341.884	424.562	406.624	136.860	371.728	144.733	314.777	404.635	160.596	347.824	296.637	163.828	481.287	374.516	-8191	255	
1658.721	1	1	0	0	0.056244	0.092444	0.38531	0.074158	0.16089	0.19328	0.085855	0.16993	0.10445	0.16154	0.18844	0.1645	0.26234	0.056319	0.074882	0.2016	-1.0646	-1.7333	-2.3125	-1.3604	-2.1146	-1.9958	-1.3854	-2.1813	-1.5771	-1.5167	-2.2188	-1.2625	-2.1583	-2.0167	-1.3292	-2.2479	420.081	142.518	164.499	375.835	361.871	362.212	428.782	248.868	298.806	301.575	229.423	282.782	326.438	268.173	169.457	242.143	3.7769e-06	3.4106e-05	3.8667e-06	0.023785	4.2552e-07	6.824e-08	0.020265	0.0087201	1.2602e-07	8.1853e-08	0.023397	0.002713	0.010259	0.0020393	2.9882e-07	0.0045327	-6.9454e-06	-9.0691e-06	-3.1246e-06	-0.20179	-1.058e-07	-1.045e-07	-0.19143	-0.087219	-9.5649e-08	-9.8647e-08	-0.15931	-0.032843	-0.093831	-0.012984	-8.333e-08	-0.019775	332.512	414.268	99.311	310.670	136.562	376.784	335.921	106.528	341.668	240.607	236.867	446.478	303.856	134.753	428.144	138.388	-8191	255	
1658.842	1	1	0	0	0.014245	0.23049	0.11442	0.082245	0.2143	0.090645	0.10286	0.093987	0.22525	0.20288	0.13222	0.13968	0.27307	0.18626	0.16565	0.20586	-1.3563	-1.6063	-2.2958	-1.0979	-2.1208	-1.9271	-1.3271	-1.9937	-1.6729	-1.4146	-2.35	-1.375	-1.9229	-1.9562	-1.3354	-2.2375	-80.017	-51.637	49.453	63.531	3.605	193.915	206.668	-148.777	143.265	181.337	48.879	2.866	16.774	50.434	30.555	134.423	8.1245e-06	4.8148e-06	5.1798e-06	0.029105	2.9803e-07	1.8323e-07	0.010701	0.0035031	3.8442e-07	2.7761e-07	0.021817	0.0073467	0.018056	0.0032532	9.6449e-08	0.0013847	-6.6283e-06	-7.7122e-06	-2.9105e-06	-0.17159	-1.0401e-07	-1.1207e-07	-0.18016	-0.075328	-8.9377e-08	-8.0503e-08	-0.15392	-0.031787	-0.080858	-0.013409	-7.1222e-08	-0.019251	-80.446	49.559	52.042	-3.014	48.560	136.223	-18.007	-133.785	-85.220	-48.059	-140.474	9.594	-9.245	-50.607	-130.990	140.362	-8191	255	
1658.936	1	1	0	0	0.04273	0.20686	0.2549	0.079192	0.26559	0.11314	0.15732	0.10477	0.17648	0.18429	0.087493	0.24379	0.11342	0.28481	0.13855	0.088653	-1.6562	-1.35	-2.3479	-1.3604	-2.0542	-2.2979	-1.3375	-2.1875	-2.0021	-1.5292	-2.2062	-1.6167	-1.8458	-2.1813	-1.2729	-2.2833	157.397	-60.713	25.444	70.741	-38.133	-115.195	160.554	-21.146	157.347	-80.995	4.293	-78.074	-51.437	-97.520	-46.379	116.364	4.217e-06	5.8292e-06	1.4995e-06	0.048887	1.8325e-07	1.3328e-07	0.044841	0.0087973	4.6282e-07	2.581e-07	0.019431	0.0051517	0.0057789	0.00088796	4.9944e-08	0.0029947	-7.142e-06	-6.5145e-06	-2.8739e-06	-0.17879	-9.4447e-08	-1.1283e-07	-0.16906	-0.077983	-9.2289e-08	-7.5014e-08	-0.14833	-0.031576	-0.068976	-0.012846	-6.686e-08	-0.018726	84.756	183.706	-22.879	35.119	-78.956	174.718	18.212	-97.314	21.528	185.733	52.627	159.576	-26.674	-93.298	58.263	71.906	-8191	255	
1659.032	1	1	0	0	0.12677	0.18103	0.27605	0.11099	0.17002	0.16686	0.2432	0.15598	0.1281	0.33617	0.053196	0.1437	0.18032	0.24295	0.31432	0.10289	-1.6604	-1.4396	-2.1917	-1.7229	-1.6979	-2.4646	-1.2646	-1.9188	-2.1167	-1.4	-2.3083	-1.7396	-1.5125	-2.275	-1.3792	-2.2042	232.800	230.320	254.576	94.497	272.445	37.620	237.060	95.563	321.058	183.787	293.446	36.550	171.088	353.250	96.595	130.955	6.0306e-07	9.3221e-06	8.4425e-06	0.027111	2.2295e-07	4.2136e-07	0.0066302	0.0063541	4.1551e-07	2.2536e-07	0.023086	0.0050192	0.0072418	0.00036534	3.1713e-07	0.0028386	-6.7868e-06	-5.9607e-06	-2.9915e-06	-0.19249	-8.3164e-08	-1.123e-07	-0.16906	-0.073311	-9.1169e-08	-7.3642e-08	-0.14303	-0.034682	-0.066215	-0.013243	-6.6559e-08	-0.016103	125.502	111.495	254.551	150.300	30.417	65.057	344.346	16.821	121.509	86.612	154.912	322.097	56.880	275.103	130.223	179.993	-8191	255	
1659.128	1	1	0	0	0.10159	0.10029	0.15954	0.28416	0.059488	0.16458	0.12006	0.060887	0.047719	0.11558	0.16674	0.18984	0.11954	0.12211	0.17428	0.12944	-1.7458	-1.1063	-2.325	-1.7458	-1.6292	-2.3271	-1.4188	-2.0292	-2.1208	-1.2875	-2.1146	-1.7896	-1.4875	-2.375	-1.4104	-1.7792	17.235	61.132	21.421	28.321	189.363	210.801	40.759	84.941	64.018	30.179	219.985	87.709	199.677	172.751	97.095	119.292	4.1787e-06	3.7917e-05	2.8029e-06	0.021425	2.8294e-07	1.8177e-07	0.035632	0.0065851	3.8857e-07	1.9481e-07	0.0084258	0.0055368	0.0046148	0.00036034	3.1922e-07	0.0026667	-7.2055e-06	-6.3899e-06	-2.7851e-06	-0.19126	-7.1956e-08	-1.1039e-07	-0.17392	-0.064021	-9.1169e-08	-6.6552e-08	-0.12755	-0.034984	-0.059343	-0.012698	-6.4378e-08	-0.01453	81.173	261.193	12.190	31.009	303.721	307.766	64.709	8.767	-3.119	31.620	240.591	302.299	158.331	235.118	229.141	6.678	-8191	255	
1659.224	1	1	0	0	0.047038	0.18797	0.33679	0.10537	0.1244	0.17936	0.19765	0.15527	0.077867	0.073136	0.055924	0.079805	0.1918	0.15772	0.019892	0.23389	-1.8312	-1.2958	-2.1813	-1.7521	-1.3854	-2.2958	-1.4875	-1.6146	-2.2375	-1.2687	-2.0375	-1.8	-1.2271	-2.2438	-1.6604	-1.6271	-150.857	151.407	2.878	9.234	122.824	57.581	46.543	68.917	125.811	-31.374	126.610	97.501	3.830	-45.303	-37.277	149.517	1.4539e-06	1.3131e-05	5.0933e-06	0.028956	3.0648e-07	2.394e-07	0.0021015	0.0076993	3.9916e-07	7.3399e-07	0.0056206	0.0054131	0.0053795	0.00089582	8.2817e-07	0.0023168	-7.8588e-06	-5.8361e-06	-2.3782e-06	-0.20144	-6.6651e-08	-1.0611e-07	-0.17669	-0.056536	-1.0379e-07	-6.3961e-08	-0.12425	-0.035979	-0.055104	-0.012809	-7.957e-08	-0.013022	-170.938	6.799	-20.872	132.955	100.864	-3.596	92.426	-159.618	-154.880	-128.215	126.897	-104.533	-78.137	-126.502	-168.895	44.486	-8191	255	
1659.321	1	1	0	0	0.20978	0.24414	0.15576	0.17909	0.26662	0.27182	0.10092	0.32301	0.14566	0.24224	0.20484	0.081356	0.12935	0.21955	0.24486	0.10765	-1.9271	-1.4042	-1.9188	-2.1208	-1.5375	-2.2687	-1.6833	-1.4458	-2.3208	-1.5208	-1.9979	-2.1604	-1.175	-2.3583	-1.7208	-1.5042	255.968	96.843	158.282	286.308	235.192	344.266	357.034	63.139	133.695	405.938	318.956	298.784	256.661	162.111	214.317	117.511	1.595e-06	2.8967e-05	3.4533e-06	0.024546	1.1105e-07	9.2081e-08	0.046876	0.0068101	2.7402e-07	2.2482e-07	0.0091063	0.0010058	0.0023773	0.0011827	1.2138e-07	0.0027191	-7.8588e-06	-5.9745e-06	-2.3512e-06	-0.23481	-6.1421e-08	-1.0359e-07	-0.1701	-0.049051	-9.7665e-08	-6.0987e-08	-0.11736	-0.038723	-0.05292	-0.012347	-7.8968e-08	-0.013586	350.827	146.256	349.255	327.750	396.698	61.268	397.892	67.772	222.219	209.572	247.868	116.253	143.169	99.636	291.726	113.568	-8191	255	
1659.417	1	1	0	0	0.24687	0.14787	0.22318	0.26171	0.17134	0.23182	0.034078	0.24896	0.20367	0.34021	0.051584	0.21527	0.068425	0.034365	0.20095	0.11287	-2.0396	-1.4521	-2	-2.3083	-1.5479	-2.2833	-1.7833	-1.6521	-2.2271	-1.5271	-1.8333	-2.1979	-1.4229	-2.1917	-1.8833	-1.5479	-35.721	287.352	-6.533	78.483	312.624	207.787	242.973	185.353	46.220	136.156	-23.880	248.120	250.605	52.651	221.059	54.247	9.9116e-06	1.2547e-05	5.2304e-06	0.03483	3.9826e-07	3.316e-07	0.015031	0.0018563	5.935e-07	4.5569e-07	0.009532	0.0024222	0.0098745	0.0018427	3.1172e-07	0.0021143	-8.2838e-06	-6.6391e-06	-2.2277e-06	-0.22691	-6.1794e-08	-9.6406e-08	-0.19334	-0.047299	-9.8337e-08	-6.0606e-08	-0.11486	-0.039568	-0.048232	-0.011674	-8.8745e-08	-0.011776	10.602	131.780	273.219	49.179	262.832	227.248	298.486	-18.803	62.720	92.266	-15.134	204.878	320.627	264.109	85.428	208.003	-8191	255	
1659.537	1	1	0	0	0.3158	0.041537	0.25622	0.078319	0.16628	0.12161	0.070471	0.24137	0.11877	0.12039	0.36133	0.16418	0.074737	0.12723	0.20247	0.030948	-1.8083	-1.7313	-1.7146	-2.1104	-1.3	-2.0521	-2.0833	-1.5146	-2.3708	-1.475	-1.6792	-2.2896	-1.2646	-1.8604	-2.1354	-1.3771	505.924	192.356	249.154	509.900	468.742	327.453	501.580	368.132	262.748	285.781	512.808	187.052	375.295	189.659	449.324	424.585	9.0968e-07	8.0491e-06	1.502e-05	0.034897	1.2665e-07	5.2827e-07	0.017834	0.0049654	1.1777e-07	4.0631e-07	0.0020893	0.0040636	0.0080347	0.0024732	3.2783e-07	0.0022428	-7.4148e-06	-6.293e-06	-1.9538e-06	-0.23516	-6.0076e-08	-9.9538e-08	-0.21917	-0.041513	-9.9681e-08	-7.3795e-08	-0.10048	-0.042282	-0.054269	-0.011231	-9.9651e-08	-0.011317	435.833	352.188	407.067	330.923	427.179	293.153	483.712	173.832	330.653	439.686	309.682	304.716	435.638	197.127	367.877	363.937	-8191	255	
1659.633	1	1	0	0	0.11534	0.13966	0.13796	0.27428	0.19108	0.17144	0.10278	0.085856	0.098238	0.097962	0.18487	0.16226	0.23985	0.17723	0.25262	0.097492	-2.0521	-1.6021	-1.4958	-2.3708	-1.4562	-1.9646	-2.1542	-1.5146	-2.3	-1.6917	-1.5063	-2.2333	-1.5354	-1.7938	-2.1604	-1.2583	183.126	499.444	226.589	238.273	416.597	439.320	473.458	181.806	182.407	405.538	210.972	386.468	380.374	157.073	221.914	312.563	4.929e-07	2.3241e-05	1.7895e-05	0.037704	3.0471e-07	2.1165e-08	0.013832	0.010982	1.8224e-07	2.0079e-07	0.02866	0.0044639	0.0098563	0.0015084	3.0553e-07	0.0028965	-7.0659e-06	-6.4038e-06	-1.6009e-06	-0.22761	-5.9926e-08	-9.0677e-08	-0.20547	-0.040398	-9.438e-08	-8.2104e-08	-0.088296	-0.040201	-0.058444	-0.010299	-9.4236e-08	-0.0098876	244.813	448.190	245.703	253.161	210.424	452.704	490.104	165.322	168.974	264.834	506.261	392.327	256.002	210.745	147.354	251.913	-8191	255	
1659.728	1	1	0	0	0.082816	0.098499	0.26843	0.1476	0.06861	0.064241	0.17186	0.19309	0.069276	0.072196	0.33317	0.25917	0.10154	0.14783	0.11911	0.2003	-1.7625	-1.7208	-1.3229	-2.3292	-1.6688	-1.9208	-2.2583	-1.3813	-2.1188	-1.8604	-1.5396	-2.2792	-1.6917	-1.6104	-2.4375	-1.4354	116.768	399.353	231.795	199.495	445.829	413.138	256.603	329.017	184.095	363.493	438.638	313.634	459.492	117.445	259.812	387.400	4.526e-06	1.5478e-05	1.2224e-05	0.014762	4.9857e-08	1.3288e-07	0.031677	0.0010041	2.0527e-07	1.4117e-07	0.027212	0.00057234	0.0061769	0.0007866	4.6608e-07	0.00081534	-6.8947e-06	-7.2968e-06	-1.6915e-06	-0.23551	-6.9192e-08	-7.5857e-08	-0.22559	-0.044379	-9.3708e-08	-8.3934e-08	-0.086098	-0.038392	-0.061912	-0.0088868	-1.0507e-07	-0.0098876	354.984	253.099	281.204	113.216	241.760	467.882	131.046	129.616	360.942	240.176	250.862	147.925	399.352	464.642	182.588	428.357	-8191	255	
1659.801	1	1	0	0	0.1567	0.19495	0.066646	0.20682	0.035992	0.20719	0.057754	0.19754	0.18825	0.24964	0.39661	0.11461	0.3591	0.21045	0.18871	0.21888	-1.7646	-1.9333	-1.4875	-2.2354	-1.675	-1.7646	-2.3187	-1.4625	-2.0146	-2.1542	-1.3604	-2.2833	-1.6229	-1.6396	-2.3208	-1.4646	86.869	42.825	69.118	43.589	151.341	-34.992	31.041	136.246	274.622	70.712	181.568	180.766	147.186	209.597	28.591	-1.812	3.8705e-06	2.5471e-05	3.8792e-06	0.05451	2.9913e-07	1.0642e-07	0.027972	0.010036	3.914e-07	1.0257e-07	0.006357	0.0041624	0.015852	0.0015719	4.067e-07	0.0015873	-6.7044e-06	-8.093e-06	-1.4003e-06	-0.23657	-7.1209e-08	-7.051e-08	-0.21484	-0.044167	-8.6166e-08	-9.2472e-08	-0.083701	-0.036673	-0.06204	-0.0084439	-1.0206e-07	-0.010753	84.412	97.299	295.211	213.987	320.681	32.240	-6.501	-18.418	251.530	92.358	-20.421	27.061	236.070	62.843	293.619	236.262	-8191	255	
1659.920	1	1	0	0	0.11038	0.069217	0.20047	0.29753	0.042368	0.029281	0.095522	0.033648	0.047084	0.19271	0.091897	0.046134	0.19947	0.12845	0.21093	0.23663	-1.6521	-2.05	-1.4125	-2.2542	-1.8542	-1.6146	-2.3896	-1.5708	-2.0125	-2.225	-1.6104	-2.3625	-2.0229	-1.6458	-2.3063	-1.4875	71.107	166.990	-153.147	-146.809	-156.551	167.941	-95.733	96.162	26.764	99.704	126.875	-152.067	13.513	158.963	110.463	-111.800	5.1366e-06	3.4113e-05	3.2374e-06	0.024511	1.3241e-07	3.3203e-07	0.054132	0.0084191	4.627e-07	3.8573e-07	0.015655	0.0036847	0.017602	0.0016311	2.5483e-07	0.0026623	-6.4887e-06	-8.7853e-06	-1.4311e-06	-0.22638	-7.6365e-08	-6.8829e-08	-0.23443	-0.047087	-7.6385e-08	-9.7427e-08	-0.0851	-0.037065	-0.069683	-0.0065244	-9.2807e-08	-0.011265	94.975	-123.201	-29.443	143.481	76.104	118.099	-139.598	-142.912	111.011	-11.595	-19.686	1.973	14.572	-107.564	-112.040	-39.222	-8191	255	
1660.016	1	1	0	0	0.23944	0.22092	0.13678	0.14415	0.28404	0.068058	0.15618	0.14527	0.2134	0.13373	0.38033	0.11039	0.045281	0.13095	0.086746	0.15803	-1.4458	-2.075	-1.4625	-2.1354	-1.7875	-1.4896	-2.4542	-1.4438	-1.7146	-2.3458	-1.3813	-1.9604	-1.7479	-1.2479	-2.1688	-1.5875	-41.574	113.672	100.173	-103.697	120.261	-124.697	188.876	179.521	202.702	-37.294	74.222	-33.254	-44.301	201.474	37.814	4.185	7.0489e-06	1.3209e-05	5.7957e-06	0.057002	1.6402e-07	2.7813e-07	0.01658	0.0065389	3.2009e-07	4.2222e-07	0.01378	0.0074542	0.00053125	0.00077047	2.4859e-07	0.0012518	-4.6937e-06	-8.8199e-06	-1.3173e-06	-0.2104	-8.4061e-08	-5.4162e-08	-0.22438	-0.039708	-7.4369e-08	-9.8113e-08	-0.088096	-0.036069	-0.07739	-0.0069212	-1.0033e-07	-0.011212	-25.392	-68.764	-74.664	-120.342	-5.472	-9.876	166.929	-127.347	153.338	5.022	182.992	80.830	46.036	54.577	43.263	190.774	-8191	255	
1660.112	1	1	0	0	0.1699	0.25858	0.13385	0.156	0.054096	0.046876	0.061248	0.26982	0.03441	0.037613	0.30775	0.062567	0.066467	0.24064	0.20531	0.17646	-1.3083	-2.3875	-1.4937	-2.2313	-2.0208	-1.4667	-2.1979	-1.7771	-1.3625	-2.3792	-1.55	-2.0312	-2.0646	-1.3104	-2.3583	-1.8896	535.285	289.672	354.099	378.334	447.665	514.077	333.239	196.039	189.392	184.628	345.158	374.339	463.924	503.233	478.733	495.774	3.0434e-06	1.5008e-05	6.1581e-06	0.030389	3.608e-07	2.859e-07	0.015375	0.0024601	2.2477e-07	2.8563e-07	0.014326	0.0046338	0.0035027	0.0012363	3.2092e-07	0.0039184	-5.125e-06	-9.2006e-06	-1.4659e-06	-0.19073	-7.8083e-08	-6.4398e-08	-0.20981	-0.053032	-6.735e-08	-1.0154e-07	-0.080405	-0.035406	-0.072573	-0.0073365	-9.4236e-08	-0.014281	247.134	468.108	422.587	529.029	227.896	442.926	513.702	195.108	243.662	316.153	267.101	400.912	186.125	363.755	325.658	225.657	-8191	255	
1660.209	1	1	0	0	0.1375	0.11414	0.16791	0.22102	0.15173	0.19565	0.11508	0.16849	0.060232	0.056605	0.13901	0.2418	0.077421	0.39238	0.078642	0.21169	-1.2604	-2.3146	-1.3583	-1.9708	-2.2333	-1.325	-2.2875	-1.8813	-1.5562	-2.4396	-1.4458	-2.0479	-2.3	-1.2958	-2.225	-1.9625	209.478	96.784	-26.121	-99.339	173.595	163.825	116.429	185.451	-72.580	-68.001	2.900	-93.525	231.660	48.925	48.640	249.709	1.0054e-05	7.4197e-06	7.6726e-06	0.024126	1.8219e-07	2.1588e-07	0.034181	0.0053327	1.2442e-07	3.7996e-07	0.029924	0.0063468	0.0027986	0.001403	6.7658e-07	0.0023357	-4.1165e-06	-9.1937e-06	-1.3193e-06	-0.19336	-8.9217e-08	-5.3703e-08	-0.21605	-0.058713	-6.1302e-08	-1.0757e-07	-0.086798	-0.030671	-0.080472	-0.0063306	-8.5211e-08	-0.014386	248.557	-60.784	-57.804	38.263	-61.957	105.581	-90.022	-90.270	184.242	200.308	71.197	145.941	-47.654	-48.691	85.583	208.471	-8191	255	
1660.329	1	1	0	0	0.21488	0.1779	0.12238	0.11471	0.16954	0.22061	0.21931	0.13771	0.1238	0.083322	0.30106	0.36638	0.024149	0.10286	0.18407	0.045155	-1.2917	-2.2396	-1.4917	-1.8208	-2.1229	-1.4333	-2.2104	-1.9021	-1.3375	-2.3229	-1.7125	-1.7667	-2.2562	-1.3375	-1.9521	-2.0729	65.856	-42.315	-135.445	11.484	33.187	80.547	30.156	140.647	109.710	25.086	-57.352	118.704	173.231	-127.667	-78.524	158.466	6.3024e-06	6.2609e-06	1.3289e-05	0.044063	3.3276e-07	3.0503e-07	0.016968	0.0073614	8.9586e-08	5.0672e-07	0.0096724	0.0074185	0.012178	0.00099724	4.3297e-08	0.0012594	-3.4759e-06	-8.9583e-06	-1.6857e-06	-0.1484	-9.8183e-08	-5.5078e-08	-0.19212	-0.059403	-5.1894e-08	-1.036e-07	-0.095388	-0.0266	-0.088179	-0.0083331	-8.0698e-08	-0.015002	149.027	-168.086	10.284	138.805	-36.039	-115.091	40.251	-155.684	-71.658	-91.852	120.411	-50.408	-14.041	-40.811	-112.681	176.475	-8191	255	
1660.401	1	1	0	0	0.11981	0.11996	0.53803	0.1589	0.10707	0.13931	0.22162	0.074231	0.22666	0.07378	0.067065	0.052295	0.05054	0.11621	0.23784	0.25602	-0.92917	-2.3625	-1.7646	-1.5	-2.3792	-1.3708	-2.0583	-2.3083	-1.4521	-2.2562	-1.7792	-1.5187	-2.3354	-1.4375	-1.9438	-2.1063	-117.402	83.400	-16.710	94.468	-45.074	-136.587	178.783	-106.858	104.714	-1.576	-38.174	119.147	-55.144	173.887	103.474	-8.528	2.9509e-06	2.5365e-05	4.6733e-06	0.046982	7.93e-08	2.3343e-07	0.009204	0.014638	1.0814e-07	3.1585e-07	0.016572	0.0045791	0.011566	0.0047847	1.7902e-07	0.00039732	-3.6091e-06	-8.903e-06	-1.8728e-06	-0.14366	-9.5419e-08	-6.4016e-08	-0.18883	-0.065348	-5.7569e-08	-9.5293e-08	-0.10468	-0.028349	-0.079637	-0.0070781	-8.2654e-08	-0.014805	212.625	-51.088	-10.043	168.527	55.538	-116.788	128.331	-123.881	168.244	143.134	-96.130	132.496	-20.775	162.758	-138.640	-10.745	-8191	255	
1660.522	1	1	0	0	0.076968	0.36628	0.20039	0.18975	0.19607	0.3134	0.17653	0.019709	0.17572	0.316	0.1132	0.1188	0.11488	0.060596	0.15927	0.30413	-1.0958	-2.1708	-1.8813	-1.5938	-2.3146	-1.5708	-1.7625	-2.3292	-1.5104	-2.3833	-2.0396	-1.6583	-2.3875	-1.5396	-1.9729	-2.2	-72.296	138.403	165.418	13.965	104.375	222.594	-10.441	26.643	-44.106	60.238	89.556	72.401	188.312	184.274	232.556	-42.707	6.7672e-06	1.9703e-05	4.7113e-06	0.020642	5.1298e-07	2.2685e-07	0.031124	0.01063	1.6573e-07	2.4286e-07	0.019451	0.001735	0.013907	0.00095317	1.4812e-07	0.0026727	-3.7677e-06	-8.1691e-06	-2.0271e-06	-0.14436	-9.9977e-08	-7.2801e-08	-0.16941	-0.069011	-5.3686e-08	-8.9956e-08	-0.11177	-0.025816	-0.081949	-0.008407	-7.1598e-08	-0.016969	32.639	180.758	189.583	-92.784	-78.671	119.288	-11.894	-90.371	-51.561	-36.304	-13.549	48.456	195.070	-24.969	-65.725	-96.049	-8191	255	
1660.618	1	1	0	0	0.25754	0.10481	0.23155	0.13114	0.20655	0.13639	0.20555	0.093377	0.27018	0.15389	0.17244	0.19161	0.08022	0.2985	0.09638	0.24662	-0.89167	-2.1354	-2.2625	-1.4375	-2.4875	-1.6917	-1.6292	-2.3	-1.3521	-2.1188	-2.275	-1.475	-2.325	-1.7104	-1.5562	-2.2958	134.106	238.262	290.698	420.955	201.727	206.260	439.513	240.397	457.813	420.944	427.451	347.927	260.273	476.506	441.054	344.893	7.5239e-06	1.1201e-05	3.2844e-06	0.011573	2.0348e-07	1.505e-07	0.038706	0.0069897	3.0971e-07	1.1489e-07	0.017452	0.0012574	0.0065745	0.00033756	2.5598e-07	0.0012379	-3.5013e-06	-7.4837e-06	-2.2316e-06	-0.13348	-9.1683e-08	-7.1503e-08	-0.14479	-0.067365	-6.4438e-08	-8.7669e-08	-0.11656	-0.020749	-0.080023	-0.010105	-5.964e-08	-0.017677	306.592	353.419	419.493	345.211	212.203	177.331	157.968	147.312	292.889	268.498	280.798	332.179	164.693	135.703	303.355	210.853	-8191	255	
1660.714	1	1	0	0	0.24007	0.32569	0.26972	0.091541	0.080497	0.051017	0.12816	0.25153	0.30221	0.12244	0.13401	0.11343	0.12993	0.18137	0.067325	0.28556	-1.0562	-1.9479	-2.1667	-1.3917	-2.2167	-1.8854	-1.5271	-2.4688	-1.6313	-1.8563	-2.3354	-1.4146	-2.3604	-1.7646	-1.3021	-2.1854	32.309	32.435	65.430	203.748	-16.492	-132.575	-83.994	148.525	39.218	-15.698	132.064	-20.476	-95.332	140.582	-50.021	-71.507	8.4545e-06	3.3904e-05	1.1291e-05	0.015938	4.2973e-07	2.6562e-07	0.020676	0.016413	8.4439e-08	2.4717e-07	0.015388	0.00085284	0.0087418	0.00086976	5.553e-07	0.0013263	-3.9262e-06	-6.7222e-06	-2.1371e-06	-0.1203	-9.5643e-08	-8.2121e-08	-0.12623	-0.067843	-5.7195e-08	-8.0732e-08	-0.11996	-0.022378	-0.072187	-0.0092837	-5.7985e-08	-0.017297	-29.342	-22.607	68.855	-105.575	188.285	-89.729	97.214	-120.223	83.293	-125.454	-48.364	67.848	197.882	209.163	-33.270	120.880	-8191	255	
1660.810	1	1	0	0	0.16727	0.14306	0.13279	0.14035	0.26431	0.10371	0.3514	0.12722	0.11257	0.080976	0.14334	0.053468	0.27181	0.29995	0.31411	0.018859	-1.1604	-1.8208	-2.3229	-1.4979	-2.1333	-2.0875	-1.1458	-2.3417	-1.6771	-1.7667	-2.3708	-1.3833	-2.2104	-1.9771	-1.1021	-2.3688	-47.212	169.799	-79.808	145.072	-1.380	-129.219	204.356	-107.804	-90.119	34.816	135.023	46.994	55.568	30.100	-73.443	53.024	8.8785e-06	3.3303e-05	4.4975e-06	0.058025	2.3936e-07	1.6608e-07	0.04615	0.010593	2.2782e-07	4.272e-07	0.0039264	0.0019094	0.010246	0.0023259	2.4432e-07	0.001163	-4.218e-06	-6.7638e-06	-2.3184e-06	-0.13892	-8.4734e-08	-8.2961e-08	-0.12693	-0.068533	-5.9659e-08	-7.1508e-08	-0.12355	-0.022649	-0.068719	-0.011139	-5.3849e-08	-0.016353	48.125	85.840	-74.091	-33.021	74.306	146.491	210.130	-123.493	188.345	10.943	19.127	166.524	102.902	208.800	-139.771	170.248	-8191	255	
1660.929	1	1	0	0	0.022295	0.15428	0.21959	0.16003	0.24198	0.15092	0.18167	0.10074	0.17223	0.088008	0.15884	0.16782	0.17872	0.18524	0.13458	0.27055	-1.4604	-1.6375	-2.2958	-1.3687	-2.0125	-2.1792	-1.4333	-2.4188	-1.6604	-1.5938	-2.2958	-1.475	-2.0042	-2.2229	-1.4021	-2.3604	194.901	205.498	440.978	274.938	321.542	385.965	446.053	382.077	324.515	157.294	186.847	227.035	231.997	386.329	169.778	436.813	4.5718e-06	3.3731e-05	1.5904e-05	0.036032	3.0086e-07	3.5075e-07	0.013195	0.0052875	2.0847e-07	1.9639e-07	0.023435	0.00045718	0.0086625	0.0016089	1.882e-07	0.0031985	-4.3829e-06	-5.8776e-06	-2.3473e-06	-0.13629	-7.8532e-08	-9.1517e-08	-0.12762	-0.066622	-7.6236e-08	-6.4265e-08	-0.13964	-0.024127	-0.066279	-0.010779	-5.4902e-08	-0.015317	462.040	317.142	273.315	172.825	469.197	278.955	315.994	166.098	400.323	174.031	266.439	481.583	402.517	502.629	205.864	244.382	-8191	255	
1661.025	1	1	0	0	0.11007	0.34257	0.23151	0.24014	0.24334	0.28399	0.097975	0.11234	0.23069	0.11083	0.19108	0.13742	0.29052	0.14233	0.25224	0.22989	-1.3667	-1.6708	-2.4125	-1.5146	-1.7417	-2.2729	-1.4188	-2.225	-1.8708	-1.4333	-2.1604	-1.4229	-1.8438	-2.2354	-1.3771	-2.2667	264.940	170.554	343.502	378.981	177.620	118.168	109.430	404.848	395.915	169.621	314.784	372.962	455.838	159.119	388.472	339.671	2.9693e-06	1.0204e-05	1.5362e-05	0.011731	9.8124e-08	2.563e-07	0.03665	0.0044144	4.5255e-07	1.9483e-07	0.024342	0.001593	0.011648	0.00084999	4.1659e-07	0.00077337	-5.144e-06	-4.6176e-06	-2.5691e-06	-0.1412	-7.3002e-08	-9.1441e-08	-0.1382	-0.06434	-7.7206e-08	-5.1229e-08	-0.12855	-0.026087	-0.060499	-0.011212	-5.5503e-08	-0.015553	147.868	332.016	191.444	179.221	258.025	174.774	374.834	126.649	118.611	464.156	271.414	216.374	141.787	172.575	293.954	158.136	-8191	255	
1661.097	1	1	0	0	0.042404	0.161	0.21013	0.19806	0.12665	0.25483	0.19265	0.34211	0.18894	0.31527	0.12445	0.18659	0.14207	0.11746	0.059713	0.19654	-1.7125	-1.3729	-2.3792	-1.6479	-1.6396	-2.45	-1.3896	-2.025	-2.0333	-1.5542	-2.3771	-1.625	-1.6667	-2.2604	-1.2896	-1.9667	442.658	387.896	328.391	229.388	237.088	445.505	259.839	343.359	325.110	504.429	326.410	529.275	317.319	436.639	282.259	388.598	3.0037e-06	2.8972e-05	6.6933e-06	0.039798	3.9724e-07	5.1665e-07	0.02797	0.0041026	3.5875e-07	8.5445e-08	0.021136	0.0074901	0.0082995	0.0010652	1.7687e-07	0.0015435	-5.9179e-06	-5.2892e-06	-2.4283e-06	-0.15578	-6.695e-08	-9.5566e-08	-0.13681	-0.051918	-8.9377e-08	-6.1674e-08	-0.12635	-0.029797	-0.056645	-0.011628	-5.1217e-08	-0.014268	189.469	395.218	429.784	310.880	327.879	493.679	312.923	196.682	359.346	466.629	509.009	491.259	319.325	300.247	466.366	362.439	-8191	255	
1661.217	1	1	0	0	0.10451	0.03975	0.10489	0.1248	0.24151	0.17803	0.082465	0.25123	0.19014	0.26202	0.093008	0.37594	0.15795	0.069759	0.083543	0.11917	-1.7792	-1.2437	-2.2042	-1.7833	-1.5604	-2.5292	-1.4604	-2.0396	-2.4042	-1.3854	-2.4083	-1.7354	-1.4604	-2.3729	-1.6167	-1.8729	236.245	172.270	438.378	208.011	454.132	428.439	326.257	470.122	218.837	239.874	193.800	494.943	212.354	208.406	344.885	330.081	5.3878e-06	3.1464e-05	6.0764e-06	0.042884	3.587e-07	1.9192e-07	0.036327	0.0089095	2.5171e-07	3.0998e-07	0.031167	0.0011296	0.012149	0.00031751	3.7535e-07	0.0013551	-5.4866e-06	-5.3307e-06	-2.2798e-06	-0.17598	-6.1869e-08	-1.0168e-07	-0.14739	-0.050644	-8.2508e-08	-5.7328e-08	-0.12296	-0.032571	-0.050801	-0.012449	-6.0618e-08	-0.013376	287.180	485.477	262.529	284.665	265.549	481.190	291.614	156.070	457.188	457.469	406.008	495.003	476.696	454.697	363.751	267.395	-8191	255	
1661.313	1	1	0	0	0.089002	0.19112	0.24438	0.011901	0.3126	0.086514	0.16556	0.19725	0.072095	0.21032	0.18059	0.03737	0.23711	0.019868	0.10645	0.46933	-1.7687	-1.3646	-2.3271	-1.8917	-1.5771	-2.4229	-1.5333	-1.7875	-2.5146	-1.4958	-2.2021	-1.9042	-1.5063	-2.4229	-1.6375	-1.7313	65.195	252.496	42.055	39.178	222.787	154.258	148.150	153.743	64.064	44.204	152.640	22.354	198.005	177.243	264.989	308.305	4.0354e-06	8.4781e-06	2.2807e-06	0.017922	3.7009e-07	1.1769e-07	0.054347	0.011845	2.7216e-07	1.7175e-07	0.025088	0.0081742	0.011254	0.0017193	5.0086e-07	0.0016679	-6.6854e-06	-4.9569e-06	-2.2837e-06	-0.18493	-5.5368e-08	-9.5108e-08	-0.14739	-0.050962	-9.2065e-08	-6.053e-08	-0.11776	-0.030158	-0.046434	-0.011222	-6.8063e-08	-0.011776	301.762	142.501	323.838	343.893	155.983	85.299	220.924	16.733	265.128	242.145	216.844	113.679	20.082	294.024	201.194	352.648	-8191	255	
1661.410	1	1	0	0	0.27271	0.26467	0.24107	0.16368	0.053786	0.013832	0.12923	0.2345	0.077006	0.11001	0.045769	0.18724	0.075526	0.043083	0.032308	0.13824	-2.1646	-1.5562	-2.275	-2.1188	-1.3583	-2.2208	-1.8333	-1.5771	-2.2812	-1.4104	-1.9167	-2.075	-1.4875	-2.4562	-1.7458	-1.5104	184.309	414.656	264.482	203.630	318.339	202.884	211.059	320.138	270.389	273.420	431.763	131.434	301.229	218.074	457.880	483.803	6.9077e-06	3.0726e-05	6.1549e-06	0.051639	2.8426e-07	3.0691e-07	0.0082353	0.012637	2.174e-07	6.8131e-07	0.015323	0.0033838	0.012875	0.0024657	4.2986e-07	0.0016811	-7.2182e-06	-5.2199e-06	-2.1467e-06	-0.20215	-5.2902e-08	-9.4573e-08	-0.16161	-0.043477	-9.7814e-08	-5.466e-08	-0.095188	-0.036371	-0.042773	-0.011517	-7.2576e-08	-0.011028	467.584	296.739	457.656	238.019	289.041	190.875	259.808	144.546	256.768	140.415	136.747	469.613	464.756	240.287	274.631	479.944	-8191	255	
1661.506	1	1	0	0	0.21076	0.18307	0.071533	0.13363	0.30088	0.16477	0.082731	0.18141	0.23891	0.22119	0.021729	0.15349	0.047416	0.22883	0.13627	0.14481	-2.1021	-1.4813	-2.025	-2.1104	-1.3438	-2.4062	-1.7375	-1.4479	-2.3229	-1.5104	-1.7771	-2.2896	-1.3813	-2.0979	-2.1458	-1.3542	459.069	422.293	187.453	303.426	249.189	296.485	265.754	470.465	395.547	254.866	497.800	159.776	351.256	320.470	476.235	177.111	7.3775e-06	5.0635e-05	1.4058e-05	0.028871	2.2767e-07	3.6681e-07	0.050767	0.0021006	1.4572e-07	2.4159e-07	0.028972	0.0062199	0.0070199	0.0010133	1.3146e-07	0.0053584	-6.8693e-06	-4.6176e-06	-1.9268e-06	-0.1967	-5.0661e-08	-9.0601e-08	-0.1727	-0.040823	-9.9606e-08	-6.5104e-08	-0.089494	-0.036552	-0.044507	-0.011148	-7.8066e-08	-0.0096516	404.687	439.187	211.864	148.319	443.820	210.756	325.506	158.230	147.713	164.031	245.113	438.014	223.528	415.059	446.447	214.860	-8191	255	
1661.602	1	1	0	0	0.13849	0.31992	0.28933	0.14556	0.23507	0.06476	0.17707	0.092748	0.18698	0.075304	0.074501	0.14863	0.12717	0.19318	0.21649	0.284	-2.1188	-1.5479	-1.8708	-2.0875	-1.3292	-2.0396	-2.0312	-1.3083	-2.3729	-1.6896	-1.5812	-2.3417	-1.5312	-2.1583	-1.9771	-1.2625	30.881	-2.542	-22.778	-28.682	-53.864	-2.740	228.633	76.536	49.814	231.908	299.806	229.267	50.649	222.052	58.443	140.128	5.1082e-06	4.805e-05	7.8755e-06	0.013926	1.2153e-07	1.8686e-07	0.026814	0.0056539	3.1147e-07	3.0427e-07	0.014647	0.0033853	0.010325	0.00084301	2.7191e-07	0.0011754	-6.9644e-06	-5.8638e-06	-1.8053e-06	-0.20935	-4.6103e-08	-8.4489e-08	-0.19108	-0.039124	-8.9825e-08	-6.9144e-08	-0.088196	-0.037939	-0.043544	-0.0084531	-7.9871e-08	-0.0094286	217.489	-27.579	172.964	242.952	231.093	158.535	11.504	-37.863	268.378	258.550	126.575	262.623	56.367	3.647	80.639	124.511	-8191	255	
1661.698	1	1	0	0	0.080119	0.11214	0.10738	0.26133	0.15339	0.3505	0.06052	0.025963	0.27631	0.11174	0.13618	0.13893	0.1648	0.12978	0.1071	0.098728	-2.0312	-1.7521	-1.5104	-2.5458	-1.2292	-2.15	-2.1188	-1.3937	-2.3333	-1.8188	-1.4188	-2.4062	-1.5312	-1.9125	-2.3187	-1.3	173.597	-7.382	-103.590	102.634	165.823	54.663	-20.488	-53.501	138.871	-3.754	-56.427	-25.429	149.151	29.844	16.631	130.293	1.202e-06	4.7146e-05	9.4712e-06	0.039218	4.8998e-07	1.4694e-07	0.033648	0.0081574	7.3976e-08	5.088e-07	0.014216	0.0043849	0.0090908	0.0015733	8.6249e-08	0.0030257	-6.8249e-06	-6.5491e-06	-1.7475e-06	-0.23551	-5.5069e-08	-8.2656e-08	-0.19611	-0.037956	-9.1617e-08	-7.7835e-08	-0.07641	-0.036612	-0.05459	-0.0088499	-8.8971e-08	-0.0091532	-107.604	170.641	18.080	61.103	128.122	174.884	-110.114	-134.808	174.961	26.338	19.434	9.569	87.841	-145.143	40.161	-123.339	-8191	255	
1661.794	1	1	0	0	0.071669	0.23328	0.16204	0.051369	0.01586	0.017767	0.085103	0.25456	0.10668	0.14223	0.056384	0.31977	0.13697	0.17211	0.12605	0.096766	-1.9188	-1.8417	-1.3521	-2.4125	-1.4333	-1.8729	-2.4688	-1.45	-2.1333	-2.1229	-1.4646	-2.2812	-1.5479	-1.7917	-2.2479	-1.4	204.904	54.508	129.542	405.994	403.661	356.818	271.380	295.590	275.366	256.239	76.934	360.365	154.808	343.825	320.446	324.915	1.4843e-06	5.0284e-05	8.799e-06	0.044152	2.609e-07	3.8426e-08	0.040235	0.0052457	6.8084e-07	1.1867e-07	0.0068456	0.0016949	0.0077489	0.0012546	1.4027e-07	0.00032294	-6.0574e-06	-6.4868e-06	-1.3617e-06	-0.22269	-6.2541e-08	-7.4406e-08	-0.2164	-0.038646	-8.975e-08	-8.2409e-08	-0.070816	-0.040201	-0.05215	-0.0078717	-8.6564e-08	-0.0099138	387.318	353.965	317.488	120.290	171.251	278.338	254.584	69.186	256.921	107.586	309.350	381.525	113.747	114.846	295.655	361.001	-8191	255	
1661.890	1	1	0	0	0.32886	0.18162	0.08037	0.23383	0.18961	0.27711	0.07397	0.082518	0.097844	0.30301	0.20949	0.37623	0.033395	0.10245	0.11784	0.32291	-1.7396	-2.1437	-1.2396	-2.2562	-1.8687	-1.6646	-2.4458	-1.3229	-2.0687	-1.9458	-1.1063	-2.2896	-1.6646	-1.3875	-2.2479	-1.4438	424.562	150.992	314.194	296.301	397.803	440.438	317.569	324.664	262.965	265.724	298.886	310.592	309.183	372.853	305.314	359.666	3.7321e-06	2.9082e-05	4.8313e-06	0.042208	5.8436e-07	3.3244e-07	0.0027621	0.0015095	2.023e-07	4.8445e-07	0.010218	0.0036174	0.011932	0.00070777	2.218e-08	0.00080373	-5.3978e-06	-7.7191e-06	-1.4504e-06	-0.21795	-7.0014e-08	-5.9968e-08	-0.22108	-0.037425	-7.6833e-08	-8.6678e-08	-0.071216	-0.033174	-0.064288	-0.0071612	-9.777e-08	-0.0090746	345.457	449.265	158.530	415.138	201.931	340.756	222.804	111.913	412.322	97.978	136.725	380.039	301.971	203.968	226.810	364.352	-8191	255	
1662.009	1	1	0	0	0.052325	0.35456	0.14592	0.16537	0.12991	0.043601	0.14967	0.36591	0.16083	0.15749	0.13499	0.018404	0.27038	0.18722	0.16092	0.20456	-1.6771	-2.1542	-1.2125	-2.2062	-1.5833	-1.6021	-2.3021	-1.5208	-1.7854	-2.1688	-1.6021	-2.3187	-1.9167	-1.5375	-2.225	-1.6063	145.583	105.435	50.318	197.979	177.052	85.797	181.508	166.076	-112.452	32.181	-17.971	56.616	164.689	59.338	168.785	212.395	2.0119e-06	2.8452e-05	5.3596e-06	0.038224	3.3461e-07	1.52e-07	0.036727	0.018162	3.1622e-07	2.9958e-07	0.029221	0.0049128	0.016837	0.00067249	2.7498e-07	0.0023027	-5.55e-06	-7.5876e-06	-1.2248e-06	-0.19266	-7.4198e-08	-5.7599e-08	-0.21969	-0.042521	-7.0262e-08	-9.1786e-08	-0.078208	-0.035074	-0.06326	-0.007115	-9.8222e-08	-0.0098483	43.272	217.746	-115.310	13.236	-131.374	82.403	-37.941	-118.527	-4.751	-26.848	186.410	8.532	-128.747	169.423	198.368	137.750	-8191	255	
1662.105	1	1	0	0	0.2773	0.13774	0.22961	0.20517	0.063443	0.077916	0.28515	0.10661	0.14512	0.047679	0.22072	0.15523	0.2597	0.23698	0.1438	0.18109	-1.2938	-2.2438	-1.4771	-2.05	-1.8188	-1.4937	-2.3542	-1.5312	-1.7458	-2.4521	-1.6292	-2.2792	-2.1375	-1.3583	-2.3167	-1.8729	297.212	287.065	287.145	186.970	75.133	285.206	178.641	-42.011	45.205	53.227	69.560	18.763	265.396	-43.001	217.463	111.378	1.4428e-06	1.3608e-05	5.7072e-06	0.027345	2.7205e-07	2.8972e-07	0.02584	0.003617	4.4362e-07	2.7702e-07	0.028159	0.0030066	0.016822	0.00038349	1.592e-07	0.00034541	-4.4907e-06	-8.4876e-06	-1.5256e-06	-0.19846	-7.7037e-08	-5.2863e-08	-0.2105	-0.048308	-6.4811e-08	-9.3539e-08	-0.075311	-0.031877	-0.072187	-0.0067274	-9.0926e-08	-0.012261	121.338	120.539	-2.075	-14.510	83.532	297.301	80.493	-29.712	226.029	210.764	299.938	90.184	229.538	46.839	205.130	-27.873	-8191	255	
1662.202	1	1	0	0	0.47471	0.26653	0.16704	0.075806	0.20128	0.073091	0.036866	0.094441	0.31572	0.18127	0.087121	0.18229	0.11151	0.20122	0.17805	0.057286	-1.3604	-2.3521	-1.4729	-1.8021	-2.0604	-1.4083	-2.2375	-1.7958	-1.5896	-2.5917	-1.5125	-1.8937	-2.2812	-1.55	-2.1833	-2.0417	90.304	293.693	338.021	164.540	169.882	222.717	298.734	298.229	289.322	99.536	101.982	44.795	151.783	68.942	68.624	136.737	4.8456e-06	3.7835e-05	2.5954e-06	0.0087768	1.1807e-07	3.669e-07	0.034402	0.004131	3.2171e-07	3.092e-07	0.0033331	0.0054946	0.014593	0.0017011	4.8126e-07	0.0044709	-4.0277e-06	-8.9099e-06	-1.5527e-06	-0.1888	-8.5705e-08	-5.5231e-08	-0.21484	-0.051758	-5.8091e-08	-9.4226e-08	-0.075711	-0.031274	-0.071417	-0.0064413	-8.4158e-08	-0.01449	153.381	91.422	0.220	261.803	188.010	92.366	350.879	11.427	159.786	267.808	139.483	65.957	98.442	313.050	15.944	279.361	-8191	255	
1662.322	1	1	0	0	0.070615	0.083043	0.2381	0.25371	0.18406	0.20656	0.25271	0.12339	0.36252	0.23296	0.096735	0.13058	0.12551	0.31388	0.33481	0.10396	-1.1604	-2.4875	-1.5042	-2.15	-2.2458	-1.5125	-2.2083	-1.9458	-1.7917	-2.5958	-1.6063	-1.8417	-2.4708	-1.5521	-2.1604	-1.8917	115.172	-113.778	-125.403	36.800	-55.368	21.666	-22.633	91.556	199.888	161.621	141.532	-98.603	-77.659	182.836	-81.612	133.728	8.3284e-06	3.4285e-06	1.2629e-05	0.017242	3.4865e-07	1.5382e-07	0.032927	0.0039043	2.0229e-07	2.6812e-07	0.0095834	0.0059319	0.015711	0.001709	3.2775e-07	0.0021512	-3.6345e-06	-8.5706e-06	-1.6259e-06	-0.18002	-9.1309e-08	-5.2939e-08	-0.21189	-0.053457	-5.6523e-08	-9.2091e-08	-0.09319	-0.026871	-0.077775	-0.0060168	-8.8069e-08	-0.01331	-56.620	-70.520	63.526	210.498	142.597	85.547	54.023	-114.855	46.576	48.236	50.046	41.008	-44.421	57.402	-110.729	-77.556	-8191	255	
1662.394	1	1	0	0	0.026968	0.10442	0.04	0.21369	0.31413	0.11085	0.40692	0.23789	0.18506	0.28891	0.10907	0.17625	0.13531	0.18177	0.061001	0.28205	-1.1292	-2.3896	-1.6479	-1.6771	-2.3104	-1.3458	-2.2562	-1.9542	-1.5167	-2.1729	-1.6729	-1.6729	-2.2146	-1.4229	-2.0958	-2.2667	5.704	234.885	41.536	223.063	73.676	253.332	80.915	69.870	-73.671	71.083	182.330	44.517	-44.922	-2.800	133.848	262.679	1.0109e-05	2.1355e-05	3.5516e-06	0.021236	2.4043e-07	2.4519e-07	0.014691	0.0024595	2.9122e-07	3.5758e-07	0.0044204	0.0043318	0.010493	0.0010911	3.4775e-07	0.0023537	-3.1017e-06	-8.5291e-06	-1.6202e-06	-0.16526	-9.4223e-08	-6.012e-08	-0.19282	-0.05574	-5.9734e-08	-9.5217e-08	-0.0845	-0.02669	-0.078738	-0.0064044	-7.8216e-08	-0.014438	249.919	48.467	143.159	-72.222	254.207	73.549	139.044	-61.326	205.248	121.587	-37.370	1.050	43.234	268.778	-34.917	-67.182	-8191	255	
1662.490	1	1	0	0	0.19719	0.39883	0.3317	0.023507	0.20843	0.12851	0.35481	0.091343	0.2337	0.13604	0.033455	0.13426	0.13427	0.26109	0.11929	0.2491	-1.0458	-2.2438	-1.6625	-1.5812	-2.55	-1.4438	-1.875	-2.0625	-1.2396	-2.3396	-1.8833	-1.4688	-2.2938	-1.5229	-1.9271	-2.2812	51.763	210.253	49.058	98.984	-125.102	193.600	192.501	-31.054	-8.280	92.532	109.491	167.232	112.452	92.930	-91.805	72.918	4.3376e-06	1.2563e-05	3.3431e-06	0.0324	5.2739e-07	8.0841e-08	0.022835	0.012163	1.3228e-07	3.6553e-07	0.014553	0.0052344	0.0060512	0.0010481	6.4093e-08	0.00065518	-3.0319e-06	-7.8091e-06	-1.7995e-06	-0.13752	-9.1981e-08	-5.7676e-08	-0.18467	-0.061473	-5.6299e-08	-8.523e-08	-0.10807	-0.024217	-0.080537	-0.007844	-6.7236e-08	-0.016208	200.344	218.759	-109.531	67.817	22.476	9.873	-109.894	-111.285	90.159	-57.845	-115.096	154.242	-6.250	-123.077	-31.722	140.305	-8191	255	
1662.611	1	1	0	0	0.083631	0.13257	0.25343	0.27492	0.11145	0.25154	0.23853	0.069035	0.011162	0.16895	0.19633	0.17574	0.067268	0.16387	0.28293	0.070979	-0.76458	-2.175	-1.9188	-1.5021	-2.35	-1.5979	-1.9583	-2.1875	-1.3333	-2.2208	-2.0042	-1.6625	-2.3438	-1.7875	-1.7188	-2.4333	298.062	453.123	457.017	509.177	340.228	277.151	491.621	159.484	249.072	486.786	477.950	167.437	247.961	351.276	496.562	190.061	1.0487e-05	3.6041e-05	2.9972e-06	0.036388	3.9212e-07	3.5923e-07	0.03737	0.011345	4.452e-07	4.2585e-07	0.014182	0.0016156	0.007739	0.0021866	4.6843e-07	0.0017705	-3.552e-06	-7.4007e-06	-1.9866e-06	-0.1196	-9.7436e-08	-6.4551e-08	-0.15259	-0.061685	-5.3985e-08	-8.7593e-08	-0.10627	-0.023282	-0.076747	-0.0088776	-6.9567e-08	-0.016615	183.102	428.612	176.750	317.611	396.364	357.704	230.373	172.058	237.678	503.341	254.183	311.368	485.452	285.437	207.831	315.316	-8191	255	
1662.707	1	1	0	0	0.11661	0.4166	0.052573	0.08297	0.12865	0.14775	0.11972	0.041363	0.16744	0.048849	0.33435	0.14243	0.059472	0.25104	0.092987	0.11036	-1.0146	-2.0333	-2.025	-1.3667	-2.1708	-1.6417	-1.7042	-2.1979	-1.5396	-1.9562	-1.9937	-1.2458	-2.4042	-1.7521	-1.5771	-2.2938	241.185	145.225	-47.841	-13.466	-66.587	176.928	266.998	-15.021	-63.089	-12.212	158.249	39.765	108.840	162.510	213.465	-18.640	9.6787e-06	3.8239e-05	1.5343e-06	0.033645	3.5516e-07	3.7817e-07	0.0092984	0.0038722	6.912e-08	5.2061e-07	0.0075992	0.0054735	0.0065654	0.0012431	2.7809e-07	0.0035619	-3.4505e-06	-6.833e-06	-2.1544e-06	-0.11222	-9.101e-08	-6.8905e-08	-0.14583	-0.068958	-5.9585e-08	-7.8521e-08	-0.11666	-0.020146	-0.074756	-0.0089514	-6.4303e-08	-0.01588	-73.147	162.735	74.056	-72.304	167.083	37.835	30.768	-67.246	3.261	217.751	256.821	-39.081	-43.191	-14.376	170.772	194.656	-8191	255	
1662.801	1	1	0	0	0.07431	0.21893	0.30691	0.31265	0.19245	0.035664	0.31751	0.18131	0.069542	0.022697	0.15909	0.32376	0.18128	0.096645	0.27643	0.23855	-1.175	-1.9979	-2.325	-1.4354	-2.3208	-1.8083	-1.5458	-2.4354	-1.6292	-1.7333	-2.2333	-1.4021	-2.2521	-1.9896	-1.575	-2.5229	345.286	438.239	166.000	206.857	206.682	434.190	378.839	379.658	193.306	353.001	261.538	135.068	428.927	155.588	203.836	178.310	4.7836e-06	1.2997e-05	1.5024e-05	0.030419	3.305e-07	3.3315e-07	0.021019	0.0042459	1.6057e-07	3.4985e-07	0.010582	0.0043293	0.005686	0.0016096	1.1543e-07	0.0028246	-3.127e-06	-7.2276e-06	-2.2644e-06	-0.12048	-8.5406e-08	-7.2878e-08	-0.13213	-0.066038	-5.8987e-08	-7.3261e-08	-0.12575	-0.021473	-0.069554	-0.0091268	-5.1141e-08	-0.016471	142.148	168.090	362.073	307.072	190.685	118.684	140.826	103.009	287.629	411.027	429.019	107.391	359.531	207.083	299.913	131.513	-8191	255	
1662.922	1	1	0	0	0.23745	0.1616	0.18281	0.06744	0.1374	0.17447	0.23365	0.049571	0.12041	0.42635	0.42004	0.1798	0.11321	0.20192	0.18085	0.17739	-1.2375	-1.875	-2.2042	-1.4937	-2.2354	-1.9771	-1.4375	-2.2542	-1.6208	-1.6562	-2.35	-1.4229	-2.0542	-2.0938	-1.4854	-2.425	104.427	146.329	137.736	-6.332	-28.506	237.715	309.166	276.614	164.061	39.330	129.029	207.712	257.632	16.106	224.785	139.770	8.619e-06	3.5106e-05	1.3012e-05	0.057927	2.904e-07	1.9788e-07	0.026592	0.0071233	2.4434e-07	1.2191e-07	0.02675	0.0046939	0.012977	0.0013362	2.2069e-07	0.0027155	-4.922e-06	-5.9122e-06	-2.4245e-06	-0.13031	-7.6813e-08	-8.1281e-08	-0.11167	-0.065614	-6.5707e-08	-6.5333e-08	-0.12645	-0.021352	-0.069426	-0.010142	-5.3849e-08	-0.016536	65.723	109.896	38.284	99.188	141.734	224.410	302.082	-28.314	297.336	61.744	69.707	196.159	59.566	101.126	-0.228	277.961	-8191	255	
1662.993	1	1	0	0	0.13471	0.099773	0.23847	0.26288	0.15091	0.1071	0.11821	0.12243	0.062888	0.1535	0.071348	0.16239	0.042184	0.28376	0.10221	0.10784	-1.2021	-1.6875	-2.4167	-1.3979	-2.1854	-2.25	-1.4312	-2.4188	-1.4813	-1.7125	-2.2104	-1.3458	-2.0042	-2.2917	-1.4229	-2.3333	167.617	85.519	284.894	96.104	287.714	432.505	286.170	212.585	203.211	361.194	310.162	242.807	215.581	124.261	294.254	209.965	4.9403e-06	5.4059e-05	5.5956e-06	0.018911	1.2673e-07	2.4289e-07	0.016333	0.015087	5.4072e-07	6.7371e-07	0.018612	0.0033497	0.012187	0.00036417	3.9627e-07	0.0012692	-4.5542e-06	-5.4553e-06	-2.5595e-06	-0.12417	-7.6589e-08	-8.7469e-08	-0.12779	-0.065826	-6.8769e-08	-6.0606e-08	-0.12385	-0.025544	-0.067884	-0.010714	-5.0841e-08	-0.015199	414.665	336.693	82.381	279.535	328.501	216.860	276.576	93.020	160.210	113.983	265.571	92.993	364.530	222.154	201.279	75.419	-8191	255	
1663.090	1	1	0	0	0.25631	0.17416	0.092834	0.28952	0.18181	0.083051	0.2074	0.07154	0.13038	0.15237	0.20224	0.2569	0.13962	0.085599	0.13765	0.094549	-1.4021	-1.4646	-2.4729	-1.4646	-1.9667	-2.3271	-1.325	-2.3479	-1.9042	-1.6104	-2.3792	-1.6354	-1.6875	-2.2729	-1.3312	-2.1833	470.487	140.204	445.286	279.807	194.514	162.803	415.830	401.248	446.239	324.539	399.786	299.487	423.557	457.776	372.481	368.089	6.1094e-06	7.1625e-06	5.34e-06	0.040183	2.9022e-07	4.8409e-08	0.04564	0.0056437	1.6212e-07	2.3596e-07	0.025617	0.0049418	0.012013	0.0011392	3.9135e-07	0.0017687	-5.0679e-06	-5.5315e-06	-2.5749e-06	-0.15806	-7.0686e-08	-9.6712e-08	-0.13057	-0.056483	-7.4444e-08	-5.4355e-08	-0.13274	-0.025333	-0.057673	-0.011582	-5.257e-08	-0.015094	221.226	167.652	268.993	126.835	194.873	212.381	202.734	132.611	341.923	212.188	367.937	276.472	136.219	287.050	245.263	369.680	-8191	255	
1663.186	1	1	0	0	0.070596	0.088355	0.066819	0.14876	0.22864	0.15512	0.13247	0.3482	0.11617	0.37709	0.21144	0.17461	0.10231	0.069241	0.10816	0.075074	-1.6167	-1.4896	-2.2479	-1.6187	-1.7563	-2.3958	-1.4417	-1.9958	-1.9375	-1.5083	-2.3292	-1.6208	-1.575	-2.1854	-1.6562	-1.9896	54.806	-45.007	14.198	243.193	167.325	-42.597	199.053	-39.472	124.214	98.100	-82.130	139.593	-74.223	26.847	178.949	-52.311	1.6431e-06	3.0888e-05	6.7489e-06	0.031612	3.2444e-07	2.1346e-07	0.0068969	0.0074125	6.9872e-07	3.671e-07	0.020773	0.0074676	0.0032553	0.0018294	5.5381e-07	0.0022394	-5.6642e-06	-5.2753e-06	-2.4592e-06	-0.16245	-6.6053e-08	-9.6254e-08	-0.12953	-0.058394	-8.6092e-08	-5.3593e-08	-0.11616	-0.027927	-0.048296	-0.011175	-5.3623e-08	-0.013979	162.566	73.967	102.578	-74.834	217.307	161.618	-67.690	-68.468	136.104	-20.590	73.233	223.775	239.768	225.324	85.583	147.968	-8191	255	
1663.282	1	1	0	0	0.25685	0.12259	0.25095	0.36509	0.14685	0.041175	0.15444	0.089297	0.16515	0.17411	0.11374	0.11156	0.27005	0.24624	0.18005	0.11988	-1.7687	-1.2729	-2.2042	-1.8917	-1.4667	-2.3729	-1.4333	-1.9542	-2.3063	-1.3312	-2.4396	-1.95	-1.5	-2.3854	-1.4729	-1.7	96.459	-44.903	-129.692	163.790	-5.259	11.101	109.635	101.537	97.073	21.666	-72.378	-46.130	185.668	-53.266	108.957	-37.438	1.1106e-06	4.487e-05	8.5388e-06	0.044676	3.3116e-07	7.5936e-08	0.025404	0.016483	1.1895e-07	9.4815e-08	0.0080565	0.0059652	0.018724	0.00092998	3.3967e-07	0.0035603	-6.5585e-06	-5.0399e-06	-2.2702e-06	-0.17299	-5.761e-08	-9.6865e-08	-0.13247	-0.050697	-8.8481e-08	-5.8624e-08	-0.12166	-0.031003	-0.055361	-0.012098	-6.0392e-08	-0.012668	153.925	-77.204	-127.014	-34.427	15.815	-114.652	129.250	-150.143	53.782	99.331	114.965	-62.615	10.161	-25.205	143.498	-89.660	-8191	255	
1663.403	1	1	0	0	0.12402	0.2244	0.083657	0.16961	0.038251	0.24947	0.098322	0.14464	0.15364	0.28143	0.15618	0.12728	0.11765	0.08349	0.22487	0.45085	-1.8312	-1.0833	-2.3937	-2.0104	-1.4729	-2.3833	-1.6417	-1.7646	-2.5042	-1.4792	-2.2917	-1.9896	-1.4479	-2.3521	-1.7167	-1.5417	130.429	236.883	19.325	151.569	278.936	15.135	322.049	125.517	269.348	56.839	225.001	273.916	201.046	210.342	126.274	206.156	5.966e-06	3.1627e-05	9.6646e-06	0.0036575	3.6104e-07	2.1118e-07	0.023077	0.0098434	1.9161e-07	3.2306e-07	0.0093933	0.0018584	0.010309	0.0014748	1.6214e-07	0.0010103	-6.9264e-06	-5.5038e-06	-2.2046e-06	-0.17071	-6.0449e-08	-9.7705e-08	-0.15155	-0.048786	-8.542e-08	-5.4812e-08	-0.10617	-0.032631	-0.047333	-0.010613	-7.2801e-08	-0.010714	121.153	135.981	244.654	323.060	161.077	10.121	158.533	24.965	260.569	195.838	49.488	322.732	115.037	82.981	158.582	51.983	-8191	255	
1663.499	1	1	0	0	0.1178	0.29493	0.30114	0.20561	0.12524	0.11326	0.16587	0.1546	0.23893	0.15552	0.16299	0.090516	0.15122	0.062213	0.067691	0.20254	-2.075	-1.5	-2.0812	-2.0604	-1.5333	-2.5	-1.6396	-1.6146	-2.4125	-1.3771	-1.925	-2.2417	-1.4562	-2.2896	-1.7938	-1.4625	110.812	78.891	371.216	278.487	250.287	356.097	359.847	428.182	148.064	253.735	381.902	107.781	232.852	397.045	86.620	399.379	7.7028e-07	5.158e-05	5.9186e-06	0.034374	3.5954e-07	2.9968e-07	0.02799	0.010909	4.4247e-07	1.4215e-07	0.006934	0.0024763	0.011974	0.001046	2.9465e-07	0.0042098	-6.92e-06	-4.8738e-06	-2.0927e-06	-0.19091	-5.2977e-08	-9.1365e-08	-0.15484	-0.040186	-9.0945e-08	-6.3732e-08	-0.097185	-0.035195	-0.041553	-0.011009	-8.2879e-08	-0.011094	168.724	155.511	115.803	276.391	164.430	397.647	234.149	94.593	225.010	291.889	124.893	358.161	379.090	251.565	317.612	322.570	-8191	255	
1663.570	1	1	0	0	0.07775	0.24688	0.24536	0.24285	0.1	0.20065	0.029308	0.043072	0.10315	0.19135	0.13024	0.19462	0.012121	0.19652	0.24131	0.081424	-1.9771	-1.375	-1.9042	-2.0542	-1.4521	-2.1792	-1.9958	-1.5688	-2.3042	-1.6812	-1.9354	-2.3312	-1.4167	-2.0687	-2.0167	-1.3854	144.581	344.116	205.319	226.840	396.566	206.286	352.827	251.605	203.732	309.363	456.381	232.615	262.246	336.718	282.494	409.077	5.8155e-06	8.147e-06	9.2328e-06	0.053949	6.3067e-08	3.4756e-07	0.023891	0.0072068	1.1242e-07	1.2967e-07	0.019259	0.00019181	0.015086	0.00080675	4.0569e-07	0.00098994	-7.326e-06	-5.6284e-06	-1.9693e-06	-0.2097	-5.5891e-08	-1.0145e-07	-0.18397	-0.037903	-9.8113e-08	-6.175e-08	-0.088496	-0.03812	-0.045149	-0.01136	-8.1751e-08	-0.0083402	236.553	445.155	253.536	261.126	427.736	143.495	225.169	143.382	269.294	443.130	461.218	254.100	130.474	465.661	183.571	450.781	-8191	255	
1663.691	1	1	0	0	0.078438	0.046233	0.15233	0.13796	0.017384	0.11921	0.1856	0.077619	0.26279	0.10438	0.15174	0.019032	0.19139	0.11993	0.21359	0.17181	-2.1542	-1.4917	-1.5854	-2.2604	-1.2625	-2.2146	-2.0833	-1.4146	-2.3187	-1.5958	-1.5667	-2.3667	-1.3458	-1.9042	-2.2979	-1.5167	148.304	285.570	136.792	267.950	379.011	268.436	262.956	461.217	425.903	304.193	297.337	220.780	425.486	378.281	297.944	391.189	4.4286e-06	3.1853e-05	1.0763e-05	0.018379	4.2015e-07	7.2245e-08	0.01542	0.0025081	4.3231e-07	1.7558e-07	0.015001	0.0038163	0.014077	0.001665	3.2139e-07	0.0017459	-7.4782e-06	-6.0507e-06	-1.651e-06	-0.20425	-5.3276e-08	-8.0059e-08	-0.17582	-0.03647	-8.9004e-08	-6.701e-08	-0.070617	-0.037427	-0.04926	-0.0096251	-8.6489e-08	-0.010596	185.191	348.695	240.028	358.983	480.631	151.576	476.575	144.790	189.103	350.433	372.188	451.381	300.037	473.661	254.506	220.769	-8191	255	
1663.787	1	1	0	0	0.067573	0.39094	0.15563	0.096726	0.30015	0.15388	0.12648	0.32847	0.23753	0.20758	0.052411	0.18017	0.143	0.16319	0.037733	0.19839	-1.875	-1.7646	-1.5812	-2.3312	-1.5812	-1.95	-2.1417	-1.4042	-2.3312	-1.9979	-1.6417	-2.3604	-1.3854	-1.9167	-2.2729	-1.4688	130.531	104.372	215.851	348.838	373.431	88.490	115.356	47.294	121.031	240.344	362.881	165.646	215.097	28.794	185.566	348.995	4.6772e-06	4.6521e-05	8.5162e-06	0.027833	2.6035e-07	1.5724e-07	0.018386	0.0057725	3.6895e-07	3.8727e-07	0.0011929	0.0024321	0.0034377	0.0014085	1.6088e-07	0.0032701	-6.4824e-06	-6.5422e-06	-1.5662e-06	-0.22638	-5.6713e-08	-8.1892e-08	-0.19975	-0.034028	-8.527e-08	-8.6297e-08	-0.082902	-0.037035	-0.052599	-0.0092837	-9.1679e-08	-0.0098614	36.437	138.197	106.517	374.003	296.212	153.221	74.701	43.027	72.190	288.783	191.259	199.576	52.992	353.114	235.958	52.832	-8191	255	
1663.883	1	1	0	0	0.015809	0.16147	0.31208	0.10793	0.099858	0.088496	0.18208	0.14361	0.066882	0.048727	0.096935	0.21436	0.23217	0.15491	0.15941	0.33856	-2	-1.8375	-1.6146	-2.3292	-1.6812	-1.8083	-2.3688	-1.3833	-2.1646	-2.0333	-1.6187	-2.3375	-1.6625	-1.8271	-2.3312	-1.5187	28.029	296.369	108.498	139.003	246.207	140.682	155.772	240.455	219.253	372.265	378.097	73.521	322.268	80.711	380.742	301.286	9.6348e-06	2.8808e-05	1.1222e-05	0.012957	2.5716e-07	1.9343e-07	0.023562	0.0076277	1.7225e-07	1.1647e-07	0.0089689	0.0055535	0.0091791	0.0020638	1.3558e-07	0.0019765	-6.2921e-06	-6.9714e-06	-1.462e-06	-0.21321	-6.1495e-08	-6.8218e-08	-0.21987	-0.037638	-7.982e-08	-8.3172e-08	-0.077009	-0.039508	-0.057737	-0.0086469	-9.5289e-08	-0.01032	146.567	60.180	200.047	42.112	92.282	87.112	326.099	40.305	139.466	239.727	263.292	100.978	155.292	59.122	204.889	344.060	-8191	255	
#DATA ENDS
