BOXY.EXE: ISS Imagent and Oximeter Data Acquisition Program Version 0.80
Ascii Record File

#ACQ INFORMATION
2  Detector Channels 
16  External MUX Channels 
1  Auxiliary Channels 
5000  Waveform (CCF) Frequency (Hz)
1  Waveforms Skipped 
30  Waveforms Averaged 
1  Cycles Averaged 
16  Acquisitions per Waveform 
10.0806  Updata Rate (Hz) 

#FILE INFORMATION
TRUE -- External MUX Channel results are PARSED.
FALSE -- AC DC and Phase are NOT grouped.
TRUE -- Companion Program Settings File CREATED.
FALSE -- AC data not excluded
FALSE -- DC data not excluded
FALSE -- Phase data not excluded
FALSE -- Auxillary Chn. data not excluded
Tab delimiters

#CALIBRATION STATE
TRUE -- Waveform Calibration Values APPLIED.


#AUX CALIBRATION VALUES
Val Type	aux-1	

Term	1.0000e+00	
Factor	0.0000e+00	


#WF CALIBRATION VALUES
A = Detector Channel
Val Type	A-AC1	A-AC2	A-AC3	A-AC4	A-AC5	A-AC6	A-AC7	A-AC8	A-AC9	A-AC10	A-AC11	A-AC12	A-AC13	A-AC14	A-AC15	A-AC16	A-DC1	A-DC2	A-DC3	A-DC4	A-DC5	A-DC6	A-DC7	A-DC8	A-DC9	A-DC10	A-DC11	A-DC12	A-DC13	A-DC14	A-DC15	A-DC16	A-Ph1	A-Ph2	A-Ph3	A-Ph4	A-Ph5	A-Ph6	A-Ph7	A-Ph8	A-Ph9	A-Ph10	A-Ph11	A-Ph12	A-Ph13	A-Ph14	A-Ph15	A-Ph16	

Term	0.00000e+00	0.00000e+00	0.00000e+00	0.00000e+00	0.00000e+00	0.00000e+00	0.00000e+00	0.00000e+00	0.00000e+00	0.00000e+00	0.00000e+00	0.00000e+00	0.00000e+00	0.00000e+00	0.00000e+00	0.00000e+00	0.00000e+00	0.00000e+00	0.00000e+00	0.00000e+00	0.00000e+00	0.00000e+00	0.00000e+00	0.00000e+00	0.00000e+00	0.00000e+00	0.00000e+00	0.00000e+00	0.00000e+00	0.00000e+00	0.00000e+00	0.00000e+00	0.00000e+00	0.00000e+00	0.00000e+00	0.00000e+00	0.00000e+00	0.00000e+00	0.00000e+00	0.00000e+00	0.00000e+00	0.00000e+00	0.00000e+00	0.00000e+00	0.00000e+00	0.00000e+00	0.00000e+00	0.00000e+00	
Factor	1.00000e+00	1.00000e+00	1.00000e+00	1.00000e+00	1.00000e+00	1.00000e+00	1.00000e+00	1.00000e+00	1.00000e+00	1.00000e+00	1.00000e+00	1.00000e+00	1.00000e+00	1.00000e+00	1.00000e+00	1.00000e+00	1.00000e+00	1.00000e+00	1.00000e+00	1.00000e+00	1.00000e+00	1.00000e+00	1.00000e+00	1.00000e+00	1.00000e+00	1.00000e+00	1.00000e+00	1.00000e+00	1.00000e+00	1.00000e+00	1.00000e+00	1.00000e+00	X	X	X	X	X	X	X	X	X	X	X	X	X	X	X	X	

B = Detector Channel
Val Type	B-AC1	B-AC2	B-AC3	B-AC4	B-AC5	B-AC6	B-AC7	B-AC8	B-AC9	B-AC10	B-AC11	B-AC12	B-AC13	B-AC14	B-AC15	B-AC16	B-DC1	B-DC2	B-DC3	B-DC4	B-DC5	B-DC6	B-DC7	B-DC8	B-DC9	B-DC10	B-DC11	B-DC12	B-DC13	B-DC14	B-DC15	B-DC16	B-Ph1	B-Ph2	B-Ph3	B-Ph4	B-Ph5	B-Ph6	B-Ph7	B-Ph8	B-Ph9	B-Ph10	B-Ph11	B-Ph12	B-Ph13	B-Ph14	B-Ph15	B-Ph16	

Term	0.00000e+00	0.00000e+00	0.00000e+00	0.00000e+00	0.00000e+00	0.00000e+00	0.00000e+00	0.00000e+00	0.00000e+00	0.00000e+00	0.00000e+00	0.00000e+00	0.00000e+00	0.00000e+00	0.00000e+00	0.00000e+00	0.00000e+00	0.00000e+00	0.00000e+00	0.00000e+00	0.00000e+00	0.00000e+00	0.00000e+00	0.00000e+00	0.00000e+00	0.00000e+00	0.00000e+00	0.00000e+00	0.00000e+00	0.00000e+00	0.00000e+00	0.00000e+00	-5.89530e+01	-1.44325e+02	-1.41559e+02	-1.84369e+02	-4.86945e+01	-5.85597e+01	-1.57614e+02	-1.62015e+02	-4.53572e+01	-6.62197e+01	-1.71602e+02	-1.75721e+02	-1.84363e+02	-1.78174e+02	-3.82637e+01	-1.51058e+02	
Factor	1.74409e-05	1.37167e-04	4.48531e-05	1.56697e-01	1.36677e-06	1.62039e-06	1.61842e-01	5.41531e-02	1.20590e-06	1.56273e-06	1.95242e-01	3.23254e-02	2.24676e-02	8.29018e-03	1.30207e-06	1.20306e-02	2.34633e-06	2.56913e-06	7.14760e-07	8.26814e-02	2.78632e-08	2.81195e-08	8.00935e-02	2.86359e-02	2.76972e-08	2.79876e-08	9.66539e-02	1.63464e-02	1.19456e-02	4.40738e-03	2.77585e-08	6.14047e-03	X	X	X	X	X	X	X	X	X	X	X	X	X	X	X	X	



#DISTANCE SETTINGS
A = Detector Channel
A-1	A-2	A-3	A-4	A-5	A-6	A-7	A-8	A-9	A-10	A-11	A-12	A-13	A-14	A-15	A-16	

2.5000e+00	3.0000e+00	2.5000e+00	3.0000e+00	2.0000e+00	3.0000e+00	1.5000e+00	3.0000e+00	3.0000e+00	3.0000e+00	3.0000e+00	3.0000e+00	3.0000e+00	3.0000e+00	1.5000e+00	3.0000e+00	

B = Detector Channel
B-1	B-2	B-3	B-4	B-5	B-6	B-7	B-8	B-9	B-10	B-11	B-12	B-13	B-14	B-15	B-16	

1.0000e+01	1.0000e+01	1.0000e+01	1.4400e+00	1.0000e+01	1.0000e+01	1.5100e+00	1.9400e+00	1.0000e+01	1.0000e+01	1.9900e+00	2.4900e+00	2.4100e+00	2.9000e+00	1.0000e+01	2.9800e+00	




#DATA BEGINS
time	group	step	mark	flag	A-AC1	A-AC2	A-AC3	A-AC4	A-AC5	A-AC6	A-AC7	A-AC8	A-AC9	A-AC10	A-AC11	A-AC12	A-AC13	A-AC14	A-AC15	A-AC16	A-DC1	A-DC2	A-DC3	A-DC4	A-DC5	A-DC6	A-DC7	A-DC8	A-DC9	A-DC10	A-DC11	A-DC12	A-DC13	A-DC14	A-DC15	A-DC16	A-Ph1	A-Ph2	A-Ph3	A-Ph4	A-Ph5	A-Ph6	A-Ph7	A-Ph8	A-Ph9	A-Ph10	A-Ph11	A-Ph12	A-Ph13	A-Ph14	A-Ph15	A-Ph16	B-AC1	B-AC2	B-AC3	B-AC4	B-AC5	B-AC6	B-AC7	B-AC8	B-AC9	B-AC10	B-AC11	B-AC12	B-AC13	B-AC14	B-AC15	B-AC16	B-DC1	B-DC2	B-DC3	B-DC4	B-DC5	B-DC6	B-DC7	B-DC8	B-DC9	B-DC10	B-DC11	B-DC12	B-DC13	B-DC14	B-DC15	B-DC16	B-Ph1	B-Ph2	B-Ph3	B-Ph4	B-Ph5	B-Ph6	B-Ph7	B-Ph8	B-Ph9	B-Ph10	B-Ph11	B-Ph12	B-Ph13	B-Ph14	B-Ph15	B-Ph16	aux-1	digaux	

2687.390	1	1	0	768	0.12091	0.16391	0.052371	0.17808	0.23639	0.0059454	0.29895	0.10292	0.20414	0.34279	0.15316	0.23611	0.10427	0.30733	0.049738	0.43126	-3.0062	-3.7729	-3.0667	-3.7708	-3.5	-3.0812	-3.8583	-3.4062	-3.3375	-3.9354	-2.9479	-3.7583	-3.6583	-3.2292	-3.8958	-3.4375	318.797	444.290	489.824	384.994	278.805	262.213	483.850	498.744	250.551	362.333	424.872	220.405	402.731	178.500	486.116	456.318	0.00099065	0.00052697	0.00024102	404.52	2.8551e-05	3.0125e-05	811.87	174.46	1.38e-05	2.7785e-05	324.19	170.09	76.032	37.982	1.3234e-05	92.513	0.015631	0.016885	0.0046629	917.7	0.00017985	0.00018123	1273.8	344.01	0.00017368	0.00017479	894.64	258.14	143.13	61.943	0.00016061	122.11	242.351	225.692	171.505	181.331	353.661	185.882	181.227	186.267	334.375	236.424	186.204	189.537	189.040	194.708	440.392	192.653	-8191	255	
2687.486	1	1	0	0	0.13809	0.13299	0.069909	0.061159	0.17055	0.15664	0.13394	0.15974	0.1679	0.060803	0.11642	0.2728	0.045512	0.072216	0.077596	0.15621	-2.9042	-3.8479	-3.0833	-3.7146	-3.5854	-3.1688	-3.9729	-3.4313	-3.1646	-3.7292	-3.2104	-3.6521	-3.6729	-3.1542	-3.8146	-3.6479	445.772	514.060	198.299	516.154	178.040	434.283	316.046	524.715	192.093	313.447	220.728	441.488	434.289	255.644	449.258	477.632	0.0006302	0.0037154	0.00019283	414.81	1.9409e-05	2.3411e-05	820.01	179.17	9.6787e-06	3.2218e-05	341.12	174.09	78.27	39.462	3.0489e-05	95.722	0.013147	0.014007	0.0038058	818.84	0.00014185	0.00013893	1150.1	300.06	0.00012523	0.00012284	714.84	228.81	120.17	53.42	9.7788e-05	110.64	258.599	359.758	238.851	181.189	292.585	328.827	181.386	186.731	217.329	403.891	185.929	190.100	189.948	194.700	303.540	193.181	-8191	255	
2687.583	1	1	0	0	0.056391	0.1523	0.08761	0.17812	0.17211	0.23781	0.12254	0.22823	0.054559	0.16683	0.13189	0.1607	0.29227	0.08763	0.08119	0.18599	-2.6792	-3.7542	-3.2229	-3.4417	-3.6146	-2.9646	-3.9354	-3.4688	-3.1437	-3.8792	-3.0917	-3.5542	-3.7604	-3.2188	-3.7896	-3.6979	496.625	307.661	178.633	439.585	197.032	423.635	430.376	488.961	238.756	381.995	426.620	301.779	504.860	449.748	257.690	512.807	0.0010296	0.0020802	0.00011654	418.21	1.2264e-05	1.2492e-05	817.1	182.87	2.2295e-05	9.3071e-06	347.89	180.71	82.242	42.076	1.3928e-05	99.756	0.0076234	0.0077588	0.002019	606.52	6.9819e-05	6.6817e-05	942.86	232.68	5.6779e-05	5.4665e-05	494.83	197.73	97.299	46.634	4.5298e-05	103.28	274.261	210.984	521.553	182.025	371.815	331.636	181.640	187.218	368.831	349.973	185.909	190.478	190.552	194.955	448.655	193.186	-8191	255	
2687.679	1	1	0	0	0.07874	0.076081	0.18875	0.097353	0.082571	0.21275	0.14981	0.252	0.21892	0.07141	0.23029	0.26065	0.069715	0.21406	0.22006	0.2663	-2.6188	-3.8146	-3.2021	-3.3063	-3.8396	-3.0708	-3.7771	-3.6542	-2.9417	-3.7562	-3.4	-3.2708	-3.9229	-3.2375	-3.6042	-3.8208	193.232	234.557	326.860	186.637	169.834	280.151	480.052	302.203	374.941	354.681	169.931	169.024	202.328	310.800	393.589	174.460	0.00096202	0.0022625	0.00037761	418.31	8.2723e-06	3.1657e-05	826.1	190.86	6.2214e-06	1.513e-05	356.39	185.06	84.587	43.286	1.6837e-06	101.96	0.0037444	0.0038716	0.0010553	508.81	3.9703e-05	3.9395e-05	878.77	216.31	3.7508e-05	3.7632e-05	453.73	194.31	95.072	46.894	4.094e-05	105.35	283.606	261.838	195.234	182.030	407.405	314.920	181.552	187.008	327.883	320.926	185.813	190.908	190.766	195.165	342.148	193.828	-8191	255	
2687.775	1	1	0	0	0.063766	0.23247	0.065811	0.18011	0.090966	0.196	0.16717	0.22796	0.19243	0.11205	0.071656	0.18151	0.062608	0.10236	0.099651	0.27699	-2.5271	-3.8729	-3.4083	-3.1354	-3.6167	-3.1354	-3.5646	-3.8833	-3.1333	-3.8333	-3.3896	-3.3063	-3.9542	-3.2521	-3.5125	-3.9771	272.294	393.780	212.237	498.969	477.436	453.690	519.168	428.556	351.616	433.057	284.769	481.540	489.842	180.048	457.124	440.513	0.00096877	0.0011953	0.00063768	417.45	6.7315e-06	2.481e-05	820.28	187.31	2.1366e-05	2.0573e-05	349.73	181.53	82.973	42.04	5.7395e-06	99.657	0.0038804	0.0043474	0.0012694	540.85	5.2679e-05	5.4156e-05	921.33	231.55	5.5602e-05	5.7244e-05	520.28	204.03	102.75	49.13	6.2895e-05	107.75	269.541	188.601	228.230	181.906	368.037	428.913	182.202	187.426	316.564	355.796	186.379	190.752	190.269	194.783	357.980	193.795	-8191	255	
2687.871	1	1	0	0	0.2172	0.061835	0.16954	0.087424	0.0808	0.092943	0.097403	0.29952	0.20301	0.1245	0.1352	0.19313	0.13107	0.17098	0.096409	0.1661	-2.7188	-3.6729	-3.5104	-3.2812	-3.7771	-3.2167	-3.4042	-3.8542	-3.0438	-3.7313	-3.5104	-3.1521	-3.7812	-3.4188	-3.4042	-3.9146	398.059	382.524	169.851	227.436	503.988	282.640	342.736	485.418	330.644	333.802	182.943	498.917	398.324	176.727	412.954	437.849	0.00095893	0.00019839	0.00049463	422.81	3.5409e-06	1.2898e-05	836.15	187.87	5.871e-06	2.385e-05	358.13	183.72	84.438	42.839	1.5159e-05	102.2	0.0054958	0.0059242	0.0016402	579.99	6.0436e-05	5.9423e-05	947.39	232.7	5.3702e-05	5.1912e-05	495.81	199.3	98.161	46.981	4.2839e-05	104.97	269.433	421.392	357.925	181.571	502.910	235.545	181.937	187.018	252.342	394.222	185.364	190.597	190.370	194.347	245.220	193.397	-8191	255	
2687.992	1	1	0	0	0.198	0.14323	0.11114	0.10937	0.088973	0.041924	0.042387	0.24605	0.15855	0.10229	0.10332	0.069341	0.11008	0.27623	0.20392	0.22972	-2.6333	-3.4833	-3.7521	-3.0208	-3.7417	-3.2417	-3.3167	-3.9479	-3.0521	-3.5271	-3.6333	-3.1458	-3.8083	-3.5687	-3.15	-3.8833	211.076	514.818	407.318	458.476	205.312	260.541	301.742	465.408	302.101	376.989	454.890	389.989	488.210	472.567	173.878	450.926	0.0010471	0.0012587	0.00026476	439.14	2.0545e-05	1.5473e-05	859.89	196.67	1.0519e-05	1.0292e-05	372.4	189.9	88.006	44.538	7.9248e-06	106.74	0.0034882	0.0036117	0.00098602	516.65	3.6662e-05	3.6048e-05	898.77	218.2	3.3121e-05	3.2454e-05	443.43	194.29	93.624	45.867	2.5203e-05	105.15	270.491	500.434	195.419	181.356	313.673	268.843	181.874	186.620	313.647	327.415	185.941	190.248	190.465	194.582	382.918	193.215	-8191	255	
2688.086	1	1	0	0	0.13495	0.14941	0.17638	0.17006	0.084035	0.17879	0.1475	0.34394	0.066889	0.15464	0.11255	0.2235	0.078055	0.15917	0.46489	0.33218	-2.5687	-3.4292	-3.6771	-3.1875	-3.7667	-3.575	-3.2583	-3.8292	-3.1583	-3.3854	-3.8771	-3.3417	-3.725	-3.475	-3.0979	-4.0312	398.286	431.620	183.607	194.580	358.928	392.888	500.297	187.044	445.996	302.858	408.169	515.906	523.934	181.453	430.280	430.620	0.0010813	0.00026954	0.00027393	445.81	7.2358e-06	1.0012e-05	878.73	210.75	8.0327e-07	1.3608e-05	396.81	203.61	93.419	46.905	3.9213e-06	110.83	0.0019237	0.0018644	0.00048983	469.94	1.7275e-05	1.6962e-05	871.97	212.21	1.5587e-05	1.5672e-05	410.78	197.6	93.539	46.191	1.5272e-05	107.06	270.945	329.339	239.489	181.847	342.957	266.699	181.882	187.249	493.764	323.241	186.459	189.966	191.011	194.473	358.681	193.493	-8191	255	
2688.184	1	1	0	0	0.11908	0.20536	0.10777	0.11409	0.25193	0.27511	0.22591	0.1388	0.21235	0.2376	0.052547	0.17207	0.35837	0.087179	0.1902	0.25541	-2.7812	-3.3521	-3.625	-3.1437	-3.4979	-3.6458	-3.2313	-3.8792	-3.2354	-3.3667	-3.9229	-3.1688	-3.7354	-3.7917	-2.9437	-3.7521	282.306	240.183	323.343	422.188	317.166	189.616	465.765	414.227	253.681	287.761	398.215	239.250	489.152	508.428	354.993	444.451	0.0011081	0.0005119	0.0004518	450.49	1.2525e-05	5.3196e-06	893.43	215.16	7.5349e-06	7.7438e-06	403.1	206.89	96.045	47.872	2.6317e-06	113.25	0.0013906	0.0014027	0.00038743	462.98	1.4953e-05	1.4935e-05	875.08	214.92	1.4125e-05	1.4116e-05	411.73	200.34	94.495	46.794	1.3265e-05	108.55	266.357	281.282	234.917	181.703	295.669	227.164	182.181	187.434	224.009	310.287	186.457	190.266	190.553	194.953	222.401	193.379	-8191	255	
2688.278	1	1	0	0	0.25714	0.13122	0.15309	0.10816	0.24744	0.074582	0.19851	0.27187	0.16724	0.22491	0.075354	0.037331	0.23939	0.26	0.23971	0.10644	-2.7604	-3.2667	-3.8292	-3.0187	-3.3479	-3.6646	-3.2396	-3.8917	-3.3229	-3.1917	-3.9042	-3.2938	-3.5167	-3.8708	-2.9042	-3.8792	457.244	475.647	306.946	481.997	260.641	439.098	495.402	430.412	374.765	179.245	461.292	401.751	505.140	201.761	299.299	488.833	0.0011652	0.0011375	0.00022531	457.27	8.3647e-06	1.0487e-05	894.72	215.99	7.69e-06	1.1411e-05	399.11	203.39	93.697	46.681	4.0529e-06	109.54	0.0012163	0.0012364	0.00035385	463.64	1.3997e-05	1.42e-05	874.24	214.84	1.4282e-05	1.4661e-05	410.77	197.37	93.621	46.18	1.5357e-05	105.88	271.828	215.262	281.131	182.624	325.396	299.999	182.381	187.336	333.590	291.378	186.121	190.598	190.711	195.166	381.508	193.793	-8191	255	
2688.375	1	1	0	0	0.028518	0.09892	0.078596	0.035004	0.10125	0.25365	0.13517	0.27368	0.25232	0.22969	0.17813	0.41683	0.044409	0.028329	0.11975	0.18594	-3.0292	-3.0125	-3.5542	-3.1208	-3.5271	-3.7313	-3.2042	-3.8	-3.4292	-3.1188	-3.7938	-3.325	-3.3125	-3.8146	-3.0125	-3.8208	367.085	347.586	448.864	516.319	365.499	208.505	231.579	507.904	477.248	492.545	473.555	504.845	292.628	377.382	255.583	425.236	0.0011067	0.00068861	0.00029623	448.96	6.9507e-06	3.3911e-06	885.55	211.14	1.0437e-06	1.5451e-05	396.67	200.08	92.999	46.064	1.3479e-06	109.49	0.001405	0.0014712	0.00040693	464.42	1.5951e-05	1.6178e-05	870.62	213.24	1.6321e-05	1.6617e-05	413.75	195.64	93.006	45.715	1.5929e-05	105.71	268.392	319.675	521.667	182.396	397.997	323.975	182.400	187.228	238.307	307.740	186.683	190.745	190.520	195.228	439.664	193.875	-8191	255	
2688.471	1	1	0	0	0.19842	0.19554	0.32697	0.18402	0.16591	0.20731	0.38603	0.31809	0.32749	0.32698	0.16551	0.11438	0.21012	0.1167	0.16775	0.14887	-3.1396	-2.8521	-3.7854	-3.1688	-3.1479	-3.8021	-3.2313	-3.6333	-3.5812	-3.0021	-3.8125	-3.4104	-3.3	-3.7292	-3.0792	-3.4813	374.442	397.386	469.124	384.408	239.498	395.976	478.218	517.328	261.715	277.504	433.808	209.888	439.708	235.757	458.283	476.014	0.0012785	0.00095472	0.00021482	446.29	1.5386e-05	1.4052e-05	885.15	213.95	9.1571e-06	1.0652e-05	397.26	202.08	93.288	47.01	9.8373e-06	111.34	0.0014231	0.0014335	0.00039088	462.28	1.4756e-05	1.462e-05	867.37	212.74	1.3927e-05	1.4001e-05	407.54	195.82	92.638	46.209	1.3772e-05	107.2	264.188	229.481	274.445	182.226	329.996	339.041	182.149	187.219	330.581	255.179	186.907	190.686	190.990	195.547	398.346	194.024	-8191	255	
2688.567	1	1	0	0	0.19223	0.18718	0.042253	0.054804	0.16276	0.16337	0.32383	0.13174	0.23088	0.066359	0.060608	0.064375	0.083784	0.15008	0.10032	0.29027	-3.2396	-2.9396	-3.6833	-3.4313	-2.9021	-3.7917	-3.1792	-3.4729	-3.6875	-2.95	-3.7458	-3.4896	-3.1229	-3.9729	-3.2667	-3.5	376.502	319.373	291.336	338.100	281.423	344.017	191.570	297.854	294.085	199.237	194.147	429.098	420.802	180.101	294.881	516.037	0.0010577	0.00076681	0.00014466	450.47	8.4493e-06	9.534e-06	888.72	213.47	6.3167e-06	4.9812e-06	402.44	202.35	93.711	47.632	1.1971e-05	112.68	0.0012718	0.0013007	0.00035726	461.99	1.4201e-05	1.4331e-05	871.08	213.37	1.4205e-05	1.4213e-05	409.39	196.44	93.144	46.756	1.3358e-05	108.35	259.876	339.478	272.925	182.189	283.120	260.606	182.395	187.791	294.930	181.608	187.001	190.880	190.938	195.752	408.419	194.358	-8191	255	
2688.687	1	1	0	0	0.14138	0.207	0.26221	0.16433	0.26121	0.036641	0.085323	0.0629	0.10838	0.16587	0.13282	0.10104	0.29618	0.15255	0.22511	0.18065	-3.5292	-2.9417	-3.7208	-3.5563	-3.175	-3.7542	-3.4688	-3.4979	-3.7917	-3.0687	-3.7708	-3.6458	-3.0563	-3.9188	-3.1396	-3.3771	180.958	303.279	519.791	496.318	215.911	302.218	258.407	470.202	254.874	390.556	415.429	196.682	498.940	506.014	180.277	353.159	0.0010585	0.00036406	0.00035363	454.17	3.3616e-06	1.2027e-05	895.35	216.26	7.7695e-06	1.4316e-05	401.35	203.21	93.692	48.14	4.9771e-06	112.41	0.0012085	0.0012094	0.00032642	459.67	1.2579e-05	1.2408e-05	868.86	213.16	1.196e-05	1.1829e-05	403.15	195.51	92.309	46.843	1.1198e-05	107.84	260.529	426.059	183.982	182.147	293.805	423.487	182.721	187.710	231.564	296.922	186.900	190.852	191.247	195.656	411.662	194.224	-8191	255	
2688.784	1	1	0	0	0.037121	0.16709	0.03743	0.13692	0.18558	0.084579	0.10426	0.013735	0.16222	0.071151	0.052634	0.38188	0.08368	0.21241	0.049278	0.22206	-3.4625	-2.9354	-3.6021	-3.7958	-3.0375	-3.9146	-3.5042	-3.1104	-3.7271	-3.0312	-3.4813	-3.9917	-3.1937	-3.6583	-3.4583	-3.3333	523.156	234.915	396.284	178.471	262.211	172.657	454.526	498.387	197.478	434.047	426.897	479.272	529.393	491.041	295.499	453.000	0.0011342	0.00054963	0.00044975	454.13	1.0976e-05	1.1431e-05	895.31	216.19	1.124e-05	1.7201e-05	402.01	202.59	93.65	48.407	9.4182e-06	113.59	0.0010575	0.0010305	0.00028799	454.91	1.1179e-05	1.1052e-05	864.4	212.24	1.0972e-05	1.088e-05	401.27	195.3	92.35	47.202	1.0764e-05	109.07	264.331	527.524	274.269	182.500	378.393	254.357	182.553	187.639	312.850	320.967	186.940	191.291	190.972	195.623	353.927	194.227	-8191	255	
2688.880	1	1	0	0	0.030859	0.075672	0.36344	0.011051	0.11309	0.18221	0.38479	0.064677	0.14877	0.21513	0.10127	0.19221	0.10263	0.32607	0.17136	0.19912	-3.3083	-3.1188	-3.4125	-3.7125	-3.1437	-3.5917	-3.6562	-3.075	-3.7854	-3.1667	-3.3729	-3.8312	-3.1813	-3.7458	-3.4979	-3.0667	175.956	477.262	350.968	439.144	336.359	529.377	408.799	251.447	175.566	286.146	186.582	486.020	520.041	172.716	413.454	183.930	0.0011235	0.00034441	0.00045082	458.53	5.5115e-06	1.2818e-05	890.83	216.96	1.0207e-05	8.0887e-06	397.73	200.9	93.791	48.174	2.4093e-06	112.24	0.0010109	0.00098243	0.00027439	458.44	1.103e-05	1.1098e-05	867.36	213.98	1.1333e-05	1.1639e-05	403.9	195.29	92.517	47.133	1.271e-05	108.38	268.378	180.589	221.894	182.751	319.011	271.484	182.838	187.840	409.316	286.439	186.609	191.065	190.953	195.610	292.711	194.273	-8191	255	
2688.951	1	1	0	0	0.11783	0.12023	0.31985	0.20742	0.32317	0.11001	0.18046	0.14951	0.19123	0.18169	0.18159	0.071227	0.094584	0.22781	0.1067	0.34284	-3.4646	-3.35	-3.0646	-3.8458	-3.0667	-3.6458	-3.6792	-2.9188	-3.7333	-3.2062	-3.0875	-3.85	-3.05	-3.5104	-3.6354	-3.0771	307.011	404.452	460.829	350.725	428.033	468.051	441.572	421.713	197.916	344.576	462.507	438.542	493.283	412.866	227.066	465.964	0.0010581	0.00062547	0.0002677	454.53	1.4639e-05	7.9259e-06	889.11	209.33	1.1261e-05	1.5485e-05	389.53	196.89	90.899	46.626	1.7416e-05	109	0.0012129	0.0012435	0.00035732	464.1	1.4017e-05	1.4593e-05	872.84	212.46	1.5236e-05	1.5821e-05	410.19	194.24	92.4	46.51	1.7989e-05	106.34	263.844	509.202	224.917	182.355	396.828	316.330	182.406	188.282	280.659	298.567	187.558	191.369	191.355	195.799	309.817	194.083	-8191	255	
2689.072	1	1	0	0	0.15903	0.063396	0.35057	0.16345	0.11309	0.17712	0.40962	0.40429	0.028064	0.12288	0.15646	0.091556	0.32785	0.11656	0.07102	0.017973	-3.3229	-3.3271	-2.9813	-3.7208	-3.0187	-3.6146	-3.6875	-2.9062	-3.7313	-3.4333	-3.0229	-3.9146	-3.0771	-3.4833	-3.7708	-3.275	356.338	508.451	494.943	404.398	169.810	232.610	503.786	451.825	353.451	348.986	506.947	237.254	499.551	499.652	331.238	187.147	0.00096969	0.00089278	8.54e-05	439.87	1.9245e-05	2.179e-05	873.75	204.34	1.1501e-05	1.4394e-05	380.31	190.09	88.124	44.559	3.2915e-06	104.62	0.0017343	0.0018294	0.00052658	474.86	2.121e-05	2.1581e-05	875.09	211.94	2.2158e-05	2.2586e-05	423.13	191.52	92.039	45.264	2.3371e-05	103.34	259.559	374.617	169.400	181.101	339.578	324.103	181.432	186.305	343.936	278.622	186.589	189.676	189.609	193.998	294.525	192.866	-8191	255	
2689.166	1	1	0	0	0.14657	0.13556	0.17963	0.46393	0.10677	0.1748	0.07406	0.27476	0.10193	0.16559	0.28559	0.28619	0.17258	0.15161	0.11277	0.36408	-3.35	-3.5896	-3.0771	-3.825	-3.1583	-3.3729	-3.8917	-2.9854	-3.4396	-3.5354	-2.9417	-3.7812	-3.0771	-3.2646	-3.6583	-3.2562	303.210	281.563	369.939	468.699	464.502	440.888	507.999	506.588	213.443	517.138	220.945	484.131	399.260	249.637	217.044	429.202	0.00099598	0.0014731	0.00013425	436.51	7.0192e-06	1.4665e-05	858.03	200.64	2.0728e-05	1.4762e-05	378.91	189.69	87.386	43.788	8.0167e-06	103.8	0.0020814	0.0021842	0.00061381	476.96	2.4043e-05	2.4491e-05	869.76	211.91	2.4545e-05	2.538e-05	428.55	191.98	92.221	45.019	2.5776e-05	102.92	274.703	212.145	183.939	180.967	260.729	357.152	181.076	186.421	290.312	331.231	185.470	189.681	189.500	194.239	320.799	192.591	-8191	255	
2689.264	1	1	0	0	0.16134	0.039465	0.1176	0.2229	0.11923	0.064071	0.12013	0.12725	0.13336	0.19429	0.1363	0.087702	0.036683	0.14607	0.14581	0.092021	-3.1333	-3.3958	-3.1104	-3.8979	-3.2396	-3.1375	-3.7812	-3.0854	-3.4875	-3.6896	-2.9104	-3.975	-3.3271	-3.1833	-3.6813	-3.2938	411.867	386.912	430.113	210.131	343.256	299.798	493.967	519.324	283.603	358.700	478.289	416.774	378.536	397.271	485.337	498.736	0.0010077	0.00081719	0.00046582	435.62	1.2151e-05	6.7962e-06	856.36	198.68	1.7033e-05	1.013e-05	371.89	187.22	86.487	43.205	1.1252e-05	102.67	0.0022909	0.0024348	0.00067702	483.41	2.6959e-05	2.7787e-05	878.11	213.9	2.803e-05	2.8719e-05	438.42	192.05	93.058	45.257	3.0689e-05	103.06	268.093	365.824	219.017	181.058	321.031	336.480	181.273	186.259	364.078	317.311	186.117	189.784	189.815	194.559	394.707	192.793	-8191	255	
2689.383	1	1	0	0	0.067766	0.069613	0.27603	0.23144	0.079364	0.19493	0.042785	0.36567	0.15222	0.13782	0.20599	0.23898	0.162	0.17502	0.14262	0.24964	-3.0458	-3.6375	-2.9437	-3.6312	-3.4771	-2.9813	-3.8	-3.1896	-3.3521	-3.7104	-3.1	-3.625	-3.5146	-3.3063	-3.7771	-3.4437	336.485	180.306	289.878	437.774	427.511	289.943	333.730	185.727	170.140	215.233	181.029	527.042	498.893	180.111	202.219	434.871	0.0010686	0.0011108	0.00040162	429.22	5.6492e-06	1.5422e-06	848.88	196.92	4.6836e-06	2.6343e-05	375.33	186.17	84.972	42.795	3.8034e-06	102.33	0.0027561	0.002956	0.0008299	495.73	3.2481e-05	3.303e-05	886.34	217.42	3.2196e-05	3.2597e-05	452.31	193.46	93.701	45.598	3.4469e-05	103.4	261.593	201.386	322.584	180.935	414.393	281.611	181.269	186.942	256.285	362.479	185.754	190.244	190.125	194.519	387.886	193.059	-8191	255	
2689.479	1	1	0	0	0.053162	0.22716	0.23254	0.13315	0.093174	0.070493	0.12042	0.05819	0.099789	0.14826	0.14404	0.1484	0.069594	0.0753	0.082027	0.39312	-2.8771	-3.7875	-3.1	-3.6354	-3.5458	-2.9854	-3.925	-3.3563	-3.3146	-3.8104	-2.9417	-3.4875	-3.7792	-3.0187	-3.6604	-3.3688	306.244	493.126	427.486	496.849	199.649	316.793	364.813	416.218	342.610	380.144	432.116	175.395	384.259	172.787	474.581	452.501	0.00092119	0.00088792	0.00043727	425.98	1.2008e-05	2.6183e-05	837.18	193.39	1.327e-05	7.805e-06	368.49	181.78	83.749	42.001	1.9992e-05	99.724	0.0031643	0.0034116	0.00097937	512.25	4.0042e-05	4.103e-05	897.65	222.05	4.1254e-05	4.1605e-05	473.28	193.59	95.24	45.835	4.0886e-05	102.75	267.624	275.571	271.748	181.534	169.713	333.840	182.039	186.783	343.398	267.568	185.806	190.373	190.107	194.817	374.929	193.080	-8191	255	
2689.551	1	1	0	0	0.23802	0.058513	0.37993	0.10092	0.21546	0.15789	0.07977	0.14617	0.15855	0.044058	0.15043	0.27848	0.032609	0.1391	0.08233	0.24077	-2.7458	-3.7917	-3.125	-3.5229	-3.5812	-3.2021	-3.5958	-3.4313	-3.2375	-3.7271	-3.0854	-3.4583	-3.7354	-3.1021	-3.7062	-3.5458	326.926	457.461	239.126	416.063	521.786	236.654	467.054	456.205	519.950	462.181	449.364	481.724	428.737	198.955	422.005	463.383	0.00089428	0.00076202	0.00017184	420.44	6.5349e-06	7.7191e-06	837.21	190.77	8.259e-06	2.1406e-05	364.25	180.28	82.469	42.057	9.6631e-06	100.78	0.0035777	0.0038356	0.001065	514.93	4.2003e-05	4.2885e-05	902.82	222.73	4.3467e-05	4.4389e-05	481.52	195.18	96.46	46.899	4.6277e-05	104.93	266.263	345.968	178.976	181.469	347.252	461.505	181.245	186.636	332.068	401.542	186.909	190.302	190.022	194.871	372.004	193.409	-8191	255	
2689.672	1	1	0	0	0.087803	0.14278	0.23653	0.21238	0.063017	0.15121	0.17475	0.077288	0.30198	0.14575	0.089034	0.077735	0.13618	0.35802	0.10839	0.15097	-2.7396	-3.8688	-3.1667	-3.3271	-3.6271	-3.1604	-3.8708	-3.5979	-3.0833	-3.6813	-3.1104	-3.3396	-3.7062	-3.0208	-3.5521	-3.6896	362.617	413.857	441.709	191.589	297.722	300.201	520.250	407.639	461.083	450.930	299.780	454.052	490.676	450.592	254.356	492.681	0.0010469	0.0023957	0.00051346	431.29	1.18e-05	7.3819e-06	845.74	191.05	1.3629e-05	1.6527e-05	355.57	180.03	82.047	43.911	1.6077e-05	104.75	0.0040396	0.0043293	0.0012198	541.88	4.8586e-05	4.943e-05	931.84	229.55	5.1184e-05	5.2153e-05	507.06	198.76	99.088	49.452	5.13e-05	109.46	265.135	350.867	279.794	181.444	265.694	243.053	181.832	186.894	348.174	351.250	186.002	190.443	190.544	194.749	323.278	193.561	-8191	255	
2689.768	1	1	0	0	0.17351	0.27758	0.21821	0.1966	0.11421	0.027099	0.18087	0.24528	0.21874	0.11415	0.2939	0.46721	0.24132	0.30837	0.067229	0.34977	-2.6063	-3.525	-3.3979	-3.1312	-3.8708	-3.1771	-3.6437	-3.6188	-2.8438	-3.6458	-3.2521	-3.1771	-3.8937	-3.2583	-3.5583	-3.8979	510.924	375.233	208.756	227.994	349.185	297.795	468.561	421.957	526.767	275.672	485.284	513.661	513.120	471.304	361.657	500.676	0.0011016	0.0021439	0.00033064	438.76	1.5405e-05	2.0395e-05	872.52	193.17	1.0542e-05	1.9126e-05	365.07	181.17	83.033	45.809	1.6781e-05	107.48	0.0044574	0.0047653	0.0013235	562.61	4.9977e-05	4.9377e-05	949.81	227.97	4.5423e-05	4.5042e-05	484.8	195.18	96.117	49.999	4.2911e-05	109.83	250.560	183.106	217.963	181.876	178.766	365.891	181.353	187.372	353.732	354.692	186.344	190.798	190.566	194.681	280.965	193.522	-8191	255	
2689.864	1	1	0	0	0.21894	0.34621	0.25546	0.099072	0.036294	0.058857	0.14484	0.23104	0.16115	0.26871	0.010134	0.11833	0.12207	0.1536	0.15394	0.22143	-2.5792	-3.7583	-3.3667	-3.2583	-3.8271	-2.9104	-3.3917	-3.95	-3.0229	-3.6437	-3.5229	-3.2375	-3.8375	-3.1792	-3.4229	-3.9167	459.038	314.037	381.965	272.837	243.258	230.052	396.466	472.067	273.801	384.435	470.858	187.895	194.161	454.702	272.070	458.100	0.00097149	0.00054414	0.0007561	443.75	1.8599e-05	7.0556e-06	866.82	191.34	1.6141e-05	2.8364e-05	360.72	178.34	82.855	46.016	1.4748e-05	107.57	0.0035268	0.0036504	0.0010067	528.74	3.8045e-05	3.8355e-05	923.12	219.14	3.8276e-05	3.8477e-05	459.33	190.16	93.013	49.19	3.821e-05	109.2	262.559	217.475	171.501	181.890	314.871	221.791	180.951	186.237	341.363	387.946	185.221	190.070	189.601	194.123	413.465	192.895	-8191	255	
2689.985	1	1	0	0	0.22145	0.17847	0.11164	0.20799	0.16598	0.17547	0.28072	0.13388	0.26663	0.12572	0.16213	0.19975	0.11484	0.13708	0.12645	0.27209	-2.6188	-3.6083	-3.4979	-3.0438	-3.7167	-3.2104	-3.2583	-3.7979	-2.9333	-3.4646	-3.5667	-3.0208	-3.7625	-3.4833	-3.0354	-3.9813	259.409	484.265	199.230	431.675	506.237	235.736	503.218	432.379	374.623	227.687	491.955	317.638	513.744	466.598	206.481	424.301	0.0012279	0.0010717	0.00032722	437.8	1.515e-05	9.0825e-06	863.38	190.14	7.6104e-06	2.5592e-05	358.87	177.92	81.224	45.125	1.885e-05	105.9	0.0032804	0.0035054	0.00098346	523.28	3.8347e-05	3.9502e-05	920.95	219.58	4.0722e-05	4.1451e-05	467.15	191.18	93.925	48.966	4.1141e-05	108.54	264.107	222.596	273.235	180.935	301.599	259.126	181.140	186.244	415.363	288.140	185.459	190.276	189.910	194.098	389.828	192.780	-8191	255	
2690.081	1	1	0	0	0.1068	0.13291	0.25457	0.085083	0.44175	0.18229	0.091217	0.1366	0.11352	0.20468	0.21818	0.14898	0.022501	0.27347	0.28317	0.082699	-2.5271	-3.4062	-3.4396	-3.0042	-3.7229	-3.4333	-3.2146	-3.7729	-3.0125	-3.3438	-3.5979	-3.1396	-3.6604	-3.5062	-3.1708	-3.9333	380.424	453.180	286.048	508.585	461.136	321.318	466.328	503.966	484.667	527.909	293.998	187.844	238.660	498.428	427.120	382.301	0.001209	0.0012037	3.5897e-05	433.98	7.3832e-06	7.7487e-06	842.06	187.27	8.2357e-06	5.3882e-06	353.33	178.1	80.93	44.842	1.6533e-05	104.84	0.0035755	0.0038558	0.0010885	531.2	4.3604e-05	4.4729e-05	921.47	222.69	4.4852e-05	4.5775e-05	480.69	193.59	95.503	49.327	4.591e-05	108.58	266.412	269.054	186.317	179.813	347.114	256.084	181.758	186.555	267.682	300.841	186.071	190.168	189.953	194.274	277.064	192.921	-8191	255	
2690.175	1	1	0	0	0.24389	0.10827	0.1999	0.33595	0.25202	0.18503	0.22669	0.18353	0.22185	0.11887	0.34564	0.22093	0.20852	0.083177	0.019165	0.17327	-2.6708	-3.3688	-3.55	-3.0062	-3.675	-3.5333	-3.0125	-3.7792	-3.1833	-3.3625	-3.775	-3.0479	-3.5479	-3.6937	-3.1562	-3.8792	251.818	453.667	373.515	484.812	298.442	520.695	476.377	412.497	242.397	316.268	445.896	512.928	254.500	478.721	223.481	503.586	0.001172	0.00075579	0.00019356	429.46	1.4002e-05	1.6712e-05	849.91	189.5	1.1346e-05	9.9717e-06	357.22	180.7	82.501	44.961	1.6322e-05	105.97	0.0038345	0.0040742	0.0011085	525.06	4.1175e-05	4.0957e-05	903.27	216.72	3.8064e-05	3.7925e-05	451.09	189.4	92.072	47.609	3.2867e-05	106.19	263.395	252.064	263.421	181.077	263.981	381.827	181.454	186.628	388.827	295.977	186.645	190.281	190.460	194.515	420.244	192.945	-8191	255	
2690.247	1	1	0	0	0.31367	0.095559	0.049936	0.099972	0.14509	0.11513	0.23731	0.095184	0.15413	0.16494	0.21215	0.10813	0.12406	0.19218	0.17145	0.11488	-2.6625	-3.1729	-3.7687	-3.1583	-3.5479	-3.7583	-3.2292	-3.9625	-3.3812	-3.1854	-3.8792	-3.2542	-3.4771	-3.6354	-2.9	-3.8396	200.530	281.620	331.008	189.073	189.428	383.670	492.239	371.025	321.991	261.316	202.635	384.880	409.075	460.221	388.410	412.103	0.001178	0.00068619	0.00017366	433.02	1.1067e-05	7.8554e-07	843.29	192.59	4.8869e-06	2.5679e-05	359.12	181.79	82.928	45.328	1.414e-05	106.26	0.0027093	0.0028188	0.00076311	485.59	2.8824e-05	2.9248e-05	868.58	208.11	2.8403e-05	2.8815e-05	422.11	185.59	89.409	46.746	2.6954e-05	105.24	263.688	232.407	428.605	180.793	449.381	502.672	181.236	186.575	409.312	351.484	185.846	190.292	190.308	194.596	249.159	193.239	-8191	255	
2690.367	1	1	0	0	0.10081	0.28099	0.14264	0.16043	0.21328	0.10324	0.14749	0.081755	0.27626	0.16392	0.21368	0.21161	0.19157	0.1065	0.10915	0.38294	-2.925	-3.2375	-3.8521	-3.2521	-3.4542	-3.7	-3.1542	-3.8146	-3.3708	-3.1292	-3.7646	-3.2979	-3.3688	-3.8521	-3.1021	-3.6792	241.228	244.797	426.164	477.945	279.961	373.081	267.679	169.523	502.408	308.244	323.520	181.656	527.033	396.656	363.800	456.853	0.00095046	0.0010953	0.00037169	427.79	1.6551e-05	1.286e-06	846.72	193.17	1.2155e-05	1.0502e-05	360.92	182.75	83.647	44.903	2.2998e-05	105.61	0.0023589	0.0024722	0.0006831	476.68	2.664e-05	2.7589e-05	867.44	207.74	2.8269e-05	2.9367e-05	426.22	187.12	90.748	46.868	3.0199e-05	105.71	261.749	236.727	210.787	181.235	316.223	279.818	181.686	186.887	334.684	432.318	186.099	189.831	190.402	194.990	316.105	193.216	-8191	255	
2690.464	1	1	0	0	0.1684	0.18826	0.032965	0.12938	0.17678	0.14268	0.24359	0.26136	0.079308	0.41942	0.19505	0.063332	0.064474	0.22451	0.34806	0.055059	-3.3	-2.9938	-3.5563	-3.1896	-3.1	-3.7188	-3.0396	-3.6146	-3.575	-3.0354	-3.9458	-3.3604	-3.3875	-3.9979	-3.1104	-3.6167	344.524	446.551	513.971	199.838	259.377	513.354	173.707	451.896	297.394	276.382	509.704	171.000	462.575	495.821	420.193	488.253	0.0010536	0.00088762	0.00043406	427.89	1.3946e-05	6.4629e-06	839.03	194.1	1.2918e-05	2.2556e-06	363.52	184.25	85.104	45.353	6.3387e-06	107.11	0.0026455	0.002778	0.000763	485.82	2.9791e-05	2.9999e-05	868.34	210.19	2.8998e-05	2.8796e-05	426.73	188.7	91.108	46.97	2.6915e-05	106.46	262.496	177.048	334.266	181.729	228.508	299.118	181.593	186.768	324.881	247.192	185.984	190.338	190.216	194.421	333.332	193.275	-8191	255	
2690.560	1	1	0	0	0.046387	0.11779	0.1482	0.075561	0.17886	0.10549	0.20702	0.18278	0.10687	0.15372	0.086989	0.1359	0.16696	0.21772	0.068109	0.18191	-3.1125	-2.9333	-3.8625	-3.2938	-3.1	-3.7896	-3.3208	-3.3979	-3.675	-2.9417	-3.5854	-3.2396	-3.1688	-3.8917	-3.1146	-3.65	306.482	501.159	476.797	244.116	336.182	397.914	426.149	434.317	366.849	179.474	184.918	482.355	355.218	520.229	487.457	471.203	0.0011146	0.0010476	0.00019468	428.39	1.6213e-05	1.3941e-05	849.46	196.78	1.0829e-05	4.3291e-06	369.78	186.27	86.325	44.835	3.5123e-06	106.22	0.0023488	0.0024538	0.00068023	478.48	2.6856e-05	2.7183e-05	868.51	211.42	2.7059e-05	2.7662e-05	427.59	189.93	91.857	46.368	2.7212e-05	105.21	266.826	509.857	224.389	181.044	258.373	315.785	181.639	186.469	315.185	518.356	185.644	190.522	190.272	194.573	364.872	193.322	-8191	255	
2690.656	1	1	0	0	0.18891	0.094872	0.14337	0.11855	0.092468	0.070983	0.20277	0.081996	0.1332	0.19535	0.21195	0.15026	0.2355	0.17567	0.2018	0.21871	-3.4354	-2.9875	-3.4896	-3.4771	-2.9188	-3.8	-3.3479	-3.4729	-3.7708	-2.9625	-3.6146	-3.6958	-3.0563	-3.9729	-3.3333	-3.2271	363.506	250.553	217.138	514.723	296.421	204.238	508.196	260.569	462.273	183.404	276.818	519.180	326.126	504.670	177.858	469.275	0.0010075	0.0014154	0.0006229	427.15	1.0254e-05	2.296e-05	846.37	194.75	1.0843e-05	6.5856e-06	364.48	184.43	84.106	43.785	9.6808e-06	103.4	0.0024417	0.0026188	0.00073461	482.78	2.9574e-05	3.0041e-05	870.87	212.11	3.0167e-05	3.0087e-05	431.87	188.53	91.136	45.738	2.98e-05	103.42	263.140	255.609	252.724	181.320	436.238	348.060	181.884	187.345	376.255	490.800	186.181	190.408	190.335	194.770	312.839	193.417	-8191	255	
2690.777	1	1	0	0	0.040279	0.22005	0.33143	0.14777	0.21359	0.16471	0.11696	0.18655	0.13561	0.21432	0.11391	0.17712	0.27895	0.12371	0.14923	0.14219	-3.4313	-2.9125	-3.4854	-3.5333	-2.9688	-3.8667	-3.2354	-3.1833	-3.8271	-3.1917	-3.5354	-3.8229	-2.9688	-3.6562	-3.2792	-3.3542	521.928	378.742	459.606	487.697	358.170	272.208	189.879	440.351	208.998	321.223	338.140	486.732	170.071	200.027	441.434	504.692	0.00098648	0.001052	0.00010243	425.71	4.872e-06	1.1669e-05	837.66	193.49	4.0454e-06	6.9037e-06	364.38	182.94	84.14	43.517	2.0085e-05	103.18	0.0026051	0.0027284	0.00075966	485.18	2.9894e-05	3.0519e-05	868.72	211.12	3.0318e-05	3.057e-05	432.25	187.75	90.948	45.64	3.0211e-05	103.3	267.816	249.620	471.346	181.427	375.235	235.692	181.668	186.871	349.436	267.891	186.517	190.110	190.176	194.947	226.316	193.342	-8191	255	
2690.848	1	1	0	0	0.11934	0.15749	0.24591	0.09334	0.31834	0.28679	0.23161	0.18836	0.1384	0.049677	0.20445	0.27098	0.086575	0.24907	0.090978	0.12461	-3.425	-3.0479	-3.4021	-3.8208	-2.9917	-3.5917	-3.5354	-3.2062	-3.8312	-3.1479	-3.4313	-3.8021	-3.0125	-3.6583	-3.3375	-3.3583	455.862	193.347	421.587	473.254	372.219	296.576	467.092	443.112	463.017	479.304	189.533	491.398	476.850	513.118	351.442	493.590	0.0011304	0.0013684	0.0001841	424.26	9.9145e-06	1.4384e-05	837.9	192.75	1.5652e-05	9.7499e-06	362.6	182.98	84.051	43.886	1.3136e-05	103.97	0.0026474	0.0027937	0.0007906	486.82	3.0536e-05	3.1021e-05	871.98	212.29	3.1194e-05	3.1453e-05	438.63	189.35	91.966	46.139	3.1927e-05	104.48	261.928	527.996	249.464	181.854	289.809	186.106	181.721	186.898	401.961	325.301	186.323	190.466	190.300	195.025	351.143	193.441	-8191	255	
2690.944	1	1	0	0	0.28541	0.12476	0.34308	0.21247	0.16993	0.12622	0.24031	0.36997	0.266	0.23246	0.1591	0.23064	0.049454	0.13193	0.20139	0.17825	-3.5062	-3.0333	-3.25	-3.8937	-2.8729	-3.625	-3.7604	-3.1625	-3.7833	-3.0729	-3.2729	-3.9167	-2.9458	-3.5375	-3.5938	-3.1646	465.857	521.198	423.255	504.490	394.776	240.509	473.731	180.571	366.745	511.953	434.356	455.626	213.374	301.299	236.114	441.086	0.001197	0.00043224	0.00053834	426.54	4.2167e-06	4.0459e-06	837.37	192.31	1.3201e-05	4.386e-06	361.11	181.67	83.358	43.277	5.5467e-06	102.57	0.0027726	0.0029014	0.0008182	493.08	3.2472e-05	3.3114e-05	879.49	214.09	3.3544e-05	3.4068e-05	446.4	190.14	92.202	46.159	3.493e-05	103.68	260.195	211.748	221.720	181.866	406.580	327.853	181.853	186.972	299.163	197.295	186.226	190.592	190.921	195.134	330.971	193.480	-8191	255	
2691.065	1	1	0	0	0.23735	0.084291	0.18639	0.13137	0.33556	0.10319	0.19138	0.12145	0.1355	0.099031	0.10667	0.12995	0.16765	0.066048	0.093455	0.18215	-3.3167	-3.3021	-3.1417	-3.7833	-3.1521	-3.6312	-3.6396	-2.9813	-3.7167	-3.3563	-3.1083	-3.8042	-3.2292	-3.5438	-3.9125	-3.3312	303.306	374.371	222.848	471.333	262.348	344.918	440.005	401.321	433.214	477.369	499.175	476.829	480.431	268.646	518.056	447.963	0.00096019	0.0012037	0.00034567	420.81	1.7057e-05	5.636e-06	825.63	190.71	1.9911e-06	1.883e-05	359.46	179.91	82.461	42.941	9.2104e-06	101.95	0.0030133	0.0031995	0.00090287	497.29	3.5231e-05	3.5637e-05	874.73	213.32	3.5004e-05	3.6199e-05	447.27	188.84	92.249	46.028	3.6735e-05	103.43	260.420	225.636	366.091	182.049	324.049	457.342	181.990	187.336	348.385	327.570	186.501	190.892	190.748	195.381	338.099	193.815	-8191	255	
2691.159	1	1	0	0	0.13643	0.16409	0.24283	0.13583	0.10106	0.12913	0.15586	0.048635	0.23062	0.1325	0.12849	0.41539	0.20686	0.21818	0.15727	0.13855	-3.1979	-3.4271	-3.0854	-3.7208	-3.2146	-3.4	-3.8979	-2.9583	-3.6521	-3.8083	-3.1646	-3.9979	-3.3896	-3.375	-3.7	-3.3604	170.671	455.513	526.330	465.925	473.253	284.913	489.374	456.080	317.302	475.260	203.674	479.984	439.078	409.717	217.063	448.696	0.0008696	0.0018801	0.00021277	422.28	7.3123e-06	1.519e-05	835.8	190.75	1.2708e-05	7.6076e-06	359.54	180.56	82.586	42.364	1.7374e-05	101.41	0.0032016	0.0034719	0.00096426	501.71	3.7615e-05	3.8436e-05	885.94	218.04	3.9469e-05	4.0683e-05	465.37	192.2	94.658	46.505	4.1637e-05	104.05	264.313	196.450	340.149	182.131	520.713	225.126	182.306	187.686	525.341	253.522	186.986	190.448	190.796	194.991	315.249	193.553	-8191	255	
2691.256	1	1	0	0	0.36503	0.12199	0.23796	0.29088	0.1072	0.05289	0.042481	0.17639	0.2507	0.35143	0.2426	0.10382	0.092429	0.14819	0.18034	0.16928	-3.2313	-3.5438	-2.9667	-3.9646	-3.2687	-3.1437	-3.9625	-3.0479	-3.6208	-3.5771	-3.0333	-3.8917	-3.3979	-3.1958	-3.7208	-3.225	184.318	271.945	250.824	230.621	449.524	517.697	394.700	388.699	199.263	253.683	217.324	386.018	243.303	439.072	206.517	413.420	0.0011927	0.00028605	0.00023751	422.17	4.6779e-06	1.5721e-05	833.29	190.46	9.0501e-06	1.3977e-05	361.39	181.75	82.318	42.353	1.5156e-05	101.51	0.0036066	0.0038836	0.0010781	515.38	4.1977e-05	4.2867e-05	896.85	221.28	4.2471e-05	4.3032e-05	474.48	194.51	95.908	46.741	4.3938e-05	104.55	267.868	433.532	494.379	181.393	276.883	369.136	182.147	186.945	297.694	520.302	186.310	190.569	190.827	195.081	483.696	193.703	-8191	255	
2691.352	1	1	0	0	0.092802	0.11569	0.033667	0.29125	0.18975	0.052401	0.16269	0.112	0.076239	0.03361	0.097474	0.19505	0.28828	0.26172	0.13761	0.17476	-3.1833	-3.6896	-2.9896	-3.7917	-3.3979	-3.1521	-3.925	-3.3396	-3.625	-3.8792	-3.1333	-3.8021	-3.5354	-2.9813	-3.7958	-3.2729	434.966	254.780	180.737	465.197	526.652	431.041	489.260	436.021	488.630	314.466	495.636	179.911	471.438	488.660	427.087	519.772	0.0010019	0.0025276	0.00063872	423.01	8.1123e-06	2.6721e-05	835.11	187.99	1.7024e-05	2.0638e-05	359.5	181.41	82.343	41.634	1.3658e-05	99.129	0.0038357	0.0041237	0.0011566	527.02	4.5189e-05	4.6146e-05	910	224.01	4.6178e-05	4.7157e-05	488.59	195.98	97.052	46.566	4.7604e-05	103.37	265.251	226.873	226.893	181.611	388.156	320.608	182.134	187.372	170.814	459.544	186.158	190.576	190.489	194.941	335.459	193.780	-8191	255	
2691.448	1	1	0	0	0.20027	0.022836	0.01112	0.074192	0.10167	0.062873	0.10698	0.017062	0.154	0.08867	0.090675	0.15606	0.1564	0.011122	0.23732	0.31777	-2.9583	-3.7146	-3.0771	-3.7313	-3.6688	-3.0958	-3.9396	-3.2542	-3.3604	-3.8771	-3.1854	-3.5792	-3.6271	-3.1063	-3.8854	-3.5042	407.539	219.622	263.245	362.383	405.584	452.879	307.802	272.170	298.915	493.967	264.630	452.792	451.320	218.810	328.823	518.890	0.00099222	0.00024061	0.00051831	422.91	1.0995e-05	1.6862e-05	832.45	188.13	2.0329e-05	4.5597e-05	356.69	178	81.443	40.833	1.7889e-05	97.812	0.0041771	0.0045491	0.0012614	537.67	4.959e-05	5.0085e-05	914.78	225.89	4.9757e-05	5.0345e-05	496.01	195.65	97.656	46.414	5.2083e-05	103.14	258.839	378.179	182.137	181.828	336.737	353.911	181.908	187.762	366.912	309.854	186.311	190.773	190.845	195.142	421.024	193.680	-8191	255	
2691.544	1	1	0	0	0.11518	0.22926	0.15487	0.21457	0.11146	0.10549	0.14721	0.155	0.1454	0.21167	0.035504	0.029864	0.062442	0.15502	0.12911	0.36492	-2.7687	-3.8667	-2.9437	-3.6208	-3.675	-2.9208	-3.75	-3.3292	-3.0958	-3.7562	-2.9542	-3.6917	-3.7	-2.9833	-3.6167	-3.55	302.242	307.521	500.206	423.921	422.863	505.657	528.093	443.117	286.621	256.298	212.491	432.756	312.622	513.007	481.257	466.173	0.00089396	0.0015159	0.0002964	420.93	2.3458e-05	1.2804e-05	822.42	185.88	7.1921e-06	1.1102e-05	351.48	177.17	80.334	40.53	9.0718e-07	96.886	0.0046148	0.0049753	0.0013713	550.3	5.4564e-05	5.55e-05	926.68	230.94	5.6387e-05	5.745e-05	518.71	199.99	100.51	47.563	6.0401e-05	104.56	278.217	290.186	172.382	182.279	302.061	350.079	182.430	187.710	369.162	342.260	186.853	190.945	191.424	195.049	337.482	193.813	-8191	255	
2691.665	1	1	0	0	0.16969	0.074314	0.26741	0.16091	0.1694	0.18599	0.25777	0.21607	0.28596	0.056249	0.01721	0.20071	0.17944	0.1261	0.0075726	0.15356	-2.6167	-3.8271	-3.1875	-3.3083	-3.6729	-3.0312	-3.8812	-3.4604	-3.0917	-3.8125	-3.3104	-3.4354	-3.7562	-2.9917	-3.5958	-3.7646	390.541	272.690	348.466	245.299	400.640	212.570	435.791	409.456	304.756	184.048	215.644	430.501	184.233	455.246	449.869	403.234	0.0010784	0.00056348	0.00049642	419.39	4.0768e-06	9.3234e-06	827.25	184.53	1.1642e-05	7.9042e-06	352.86	177.07	80.982	40.652	9.511e-06	98.024	0.0053037	0.0056853	0.0015955	575.38	6.2961e-05	6.3007e-05	949.44	237.52	6.3442e-05	6.3664e-05	540.03	202.9	102.4	48.247	6.2737e-05	105.67	253.910	220.275	463.090	182.595	205.851	207.838	182.066	186.949	382.104	347.592	186.239	190.984	190.610	195.056	214.469	193.336	-8191	255	
2691.761	1	1	0	0	0.21919	0.30429	0.020539	0.13031	0.08525	0.09769	0.20871	0.15424	0.153	0.4203	0.26107	0.19094	0.14838	0.23014	0.094041	0.02894	-2.6188	-3.8104	-3.0771	-3.3688	-3.6417	-3.1167	-3.6083	-3.6458	-3.0042	-3.6271	-3.2875	-3.3271	-3.7708	-3.2125	-3.4	-3.7646	518.793	196.132	191.056	496.734	176.610	417.148	405.504	282.425	451.593	346.811	343.733	484.379	233.965	400.922	261.972	500.457	0.0010747	0.0020835	0.00025709	418.46	8.1608e-06	2.3179e-05	822.19	186.44	1.4627e-05	8.4267e-06	348.76	174.46	79.162	40.325	3.3861e-05	96.197	0.0054048	0.0058341	0.0016311	577.81	6.4706e-05	6.5488e-05	952.56	239.98	6.599e-05	6.659e-05	547.03	203.44	103.03	48.516	6.8123e-05	105.71	270.918	472.901	304.789	182.489	225.540	405.946	182.084	187.316	358.882	295.185	186.576	190.600	190.679	195.289	295.617	193.860	-8191	255	
2691.857	1	1	0	0	0.1148	0.10275	0.13364	0.098383	0.17502	0.28135	0.12078	0.084167	0.17316	0.13962	0.26856	0.21929	0.14608	0.19165	0.039948	0.20728	-2.7292	-3.7646	-3.3042	-3.0667	-3.8771	-2.8854	-3.5667	-3.6979	-3.0563	-3.6521	-3.5708	-3.1771	-3.8958	-3.3083	-3.4729	-3.7917	401.917	293.856	382.797	253.455	258.099	267.982	507.036	442.848	411.736	468.767	510.368	480.077	176.192	477.755	197.678	475.743	0.00076917	0.0013951	0.00098233	408.18	6.4251e-06	6.246e-06	812.77	181.59	1.7363e-05	1.3077e-05	350.72	174.35	78.911	40.407	6.1758e-06	96.746	0.005848	0.0063426	0.0017699	589.5	6.8542e-05	6.9668e-05	958.15	240.63	6.7874e-05	6.8357e-05	550.96	202.34	102.5	48.471	6.6635e-05	105.59	271.063	522.542	277.034	182.351	213.492	437.880	182.127	187.181	278.309	218.045	186.988	190.669	190.888	195.020	374.377	193.652	-8191	255	
2691.953	1	1	0	0	0.14399	0.22143	0.20605	0.14868	0.029321	0.10052	0.36597	0.12041	0.26372	0.12679	0.046208	0.10607	0.047852	0.21736	0.10003	0.38333	-2.6562	-3.6271	-3.4354	-3.175	-3.8875	-3.3042	-3.3771	-3.9083	-3.0083	-3.5375	-3.5792	-3.1	-3.8438	-3.2771	-3.1625	-3.9271	244.580	196.007	218.633	487.845	484.013	200.029	473.557	467.979	419.319	469.402	253.209	496.680	357.342	202.328	399.371	490.850	0.00081164	0.0016954	0.00031044	409.67	3.56e-06	1.005e-05	815.88	182.56	1.6837e-05	2.1538e-05	351.51	175.83	79.556	41.105	1.1764e-05	98.736	0.0056268	0.0060924	0.0016861	577.3	6.5044e-05	6.4762e-05	944.99	235.95	6.2243e-05	6.263e-05	531.62	199.99	100.46	48.225	6.034e-05	105.8	257.315	381.140	223.946	181.977	213.493	292.243	182.211	187.714	261.453	247.794	186.503	190.942	191.024	195.333	354.757	193.827	-8191	255	
2692.072	1	1	0	0	0.26855	0.075083	0.1855	0.27786	0.1425	0.15474	0.14241	0.19453	0.21205	0.16533	0.24245	0.1548	0.40151	0.29667	0.18363	0.083045	-2.7812	-3.4042	-3.5812	-2.9833	-3.5792	-3.2062	-3.1208	-3.9292	-2.9229	-3.4896	-3.6417	-3.0729	-3.7896	-3.4167	-2.975	-4.0146	243.835	306.745	394.551	171.705	350.914	329.525	426.469	422.065	180.627	222.841	304.433	276.753	499.629	439.004	247.417	260.540	0.00094289	0.0016199	0.00030599	409.26	2.1706e-05	1.6327e-05	814.52	184.77	6.3621e-06	3.7904e-06	351.9	177.03	80.215	42.021	6.1035e-06	100.16	0.0051306	0.0055167	0.001536	560.55	5.9025e-05	5.959e-05	930.16	233.16	5.7927e-05	5.847e-05	521.78	199.75	99.785	48.546	5.7337e-05	106.65	268.411	183.502	424.469	182.113	306.591	493.319	182.384	187.293	312.860	285.952	186.931	191.035	190.890	195.889	402.309	194.199	-8191	255	
2692.144	1	1	0	0	0.024892	0.092762	0.029789	0.13317	0.12513	0.17201	0.38249	0.136	0.14188	0.051093	0.12543	0.062949	0.079854	0.11983	0.20206	0.13844	-2.6333	-3.3083	-3.5438	-3.1083	-3.6813	-3.425	-3.0375	-3.8812	-3.0729	-3.3854	-3.7938	-3.1813	-3.6604	-3.6521	-2.9917	-4.0646	393.696	512.095	480.349	238.392	213.506	364.673	429.537	481.935	222.846	465.005	183.294	423.593	172.018	365.234	372.224	502.712	0.0010515	0.0015306	0.00030183	412.1	7.955e-06	5.1506e-06	816.8	185.39	3.9789e-06	2.1788e-05	348.53	176.47	80.641	41.645	8.0393e-06	99.641	0.0048667	0.0052778	0.0014625	549.46	5.6214e-05	5.6881e-05	922.66	230.91	5.4856e-05	5.5527e-05	508.19	196.6	97.969	47.718	5.3592e-05	105.25	260.279	259.906	199.150	182.176	323.906	470.364	182.417	187.485	263.150	373.195	185.686	189.823	190.501	194.537	261.027	192.844	-8191	255	
2692.240	1	1	0	0	0.23483	0.23533	0.11255	0.14351	0.12366	0.028436	0.27508	0.057105	0.28834	0.14335	0.065995	0.23756	0.25062	0.07896	0.11627	0.29336	-2.7938	-3.2208	-3.8771	-3.0625	-3.6021	-3.4896	-3.1292	-3.9021	-3.1521	-3.1792	-3.8333	-3.1729	-3.4875	-3.7687	-2.9479	-3.8438	271.688	377.873	179.138	196.038	470.017	314.799	507.363	520.671	355.677	490.414	421.925	468.639	179.378	170.121	433.078	527.598	0.0011971	0.0010263	0.00031996	407.22	2.3188e-05	1.9334e-05	809.38	186.63	5.6908e-06	1.2238e-05	352.25	176.67	80.294	41.635	1.8343e-05	99.993	0.0046036	0.004997	0.0013878	539.22	5.3702e-05	5.372e-05	909.12	228.21	5.2422e-05	5.3264e-05	501.05	195.24	97.426	47.642	5.216e-05	105.09	264.076	215.737	235.945	181.058	271.407	364.912	181.285	186.687	177.524	176.764	185.323	189.722	189.880	194.192	422.133	193.211	-8191	255	
2692.336	1	1	0	0	0.25992	0.056032	0.068901	0.064464	0.26516	0.20787	0.35573	0.23373	0.13197	0.17438	0.20173	0.34265	0.22199	0.16391	0.23341	0.25829	-3.0083	-3.0229	-3.6604	-2.9708	-3.4729	-3.775	-2.9813	-3.7062	-3.4042	-3.1937	-3.8021	-3.2125	-3.2521	-3.8333	-2.9708	-3.8771	333.990	455.525	497.374	360.306	411.350	525.624	502.185	473.360	507.857	216.440	262.125	490.615	177.815	516.702	255.904	492.752	0.00096582	0.0019176	0.00073616	410.54	2.0835e-05	2.5294e-05	814.55	184.09	1.6876e-05	6.1178e-06	352.47	176.68	80.757	42.043	2.7304e-05	100.47	0.004477	0.004874	0.0013617	541.66	5.3978e-05	5.5061e-05	915.26	228.82	5.3267e-05	5.4315e-05	504.77	195.69	98.001	47.95	5.269e-05	105.71	274.724	342.144	223.593	180.958	358.794	401.130	181.538	186.483	361.859	356.989	186.454	189.878	189.870	194.323	338.250	193.330	-8191	255	
2692.457	1	1	0	0	0.12114	0.49858	0.2464	0.19762	0.10278	0.17803	0.075288	0.28613	0.23845	0.065195	0.15941	0.20306	0.35876	0.21604	0.079934	0.29858	-3.0083	-3.0438	-3.8667	-3.2917	-3.2604	-3.7188	-3.1396	-3.7938	-3.5125	-3.225	-3.7938	-3.2417	-3.3146	-3.8438	-3.1229	-3.725	407.829	362.490	353.743	415.815	387.656	277.230	336.916	478.282	470.659	517.692	381.191	456.050	421.231	439.256	401.359	476.082	0.0011285	0.0012096	0.00050292	410.16	1.3559e-05	2.2427e-05	821.06	188.43	1.2452e-05	2.5004e-05	361.46	180.89	82.204	42.368	1.3962e-05	100.9	0.0045222	0.0048611	0.001336	537.12	5.1768e-05	5.1592e-05	912.06	227.64	4.9974e-05	5.0853e-05	498.72	197.25	98.196	47.788	5.0256e-05	106.03	255.508	470.816	257.462	181.321	301.992	290.383	181.569	186.747	328.954	266.038	186.181	189.804	190.348	194.486	437.253	193.622	-8191	255	
2692.553	1	1	0	0	0.21813	0.17858	0.25098	0.2381	0.1364	0.15191	0.13778	0.076743	0.22359	0.14867	0.12144	0.10537	0.030519	0.22327	0.19677	0.31157	-3.3312	-3.0583	-3.7292	-3.3729	-3.2083	-3.8271	-3.1375	-3.4417	-3.6646	-2.8812	-3.5583	-3.4313	-3.1354	-3.9229	-3.2125	-3.7271	266.660	374.649	391.026	411.193	264.976	234.246	210.439	409.486	369.806	452.786	514.828	394.301	251.840	384.658	216.381	460.531	0.0010072	0.0012588	0.00027238	414.14	7.7325e-06	6.381e-06	822.2	188.05	1.5888e-05	1.0491e-05	352.19	178.64	80.53	41.749	7.2796e-06	99.976	0.004433	0.004793	0.0013336	540.53	5.2997e-05	5.3419e-05	917.47	229.53	5.2563e-05	5.3125e-05	503.26	197.46	98.369	47.531	5.3253e-05	105.2	265.470	272.847	373.009	181.103	261.787	177.392	181.642	186.753	335.285	210.976	186.489	190.478	190.470	194.839	514.241	193.349	-8191	255	
2692.649	1	1	0	0	0.15162	0.1178	0.089241	0.13866	0.2456	0.019707	0.16271	0.16184	0.21159	0.060505	0.21018	0.35069	0.064847	0.12297	0.12252	0.30266	-3.2917	-2.9062	-3.6667	-3.6521	-3.1021	-3.8438	-3.2375	-3.4833	-3.7771	-2.9792	-3.6458	-3.5396	-3.0479	-3.8104	-3.2604	-3.4437	341.467	319.677	494.743	467.172	294.056	409.811	265.947	516.875	279.590	195.273	492.440	458.371	353.210	255.946	467.164	468.176	0.0011799	0.0020729	0.00045821	417.19	2.7086e-06	1.1332e-05	810.34	188.39	8.1811e-06	1.155e-05	349.55	177.53	80.394	41.615	1.253e-05	98.993	0.0046559	0.0050037	0.0013978	546.65	5.5066e-05	5.5414e-05	919.63	231.84	5.5277e-05	5.596e-05	513	198.22	99.213	47.745	5.6309e-05	105.18	249.467	195.795	262.163	180.945	187.751	453.620	181.545	187.005	497.170	411.570	186.505	190.164	190.536	195.192	421.931	193.206	-8191	255	
2692.745	1	1	0	0	0.23328	0.066734	0.13763	0.037205	0.091413	0.023685	0.17943	0.20022	0.12273	0.094183	0.052335	0.16774	0.022107	0.14689	0.20664	0.30308	-3.425	-2.9854	-3.5083	-3.625	-3.0917	-3.8417	-3.3792	-3.4104	-3.7667	-3.0542	-3.6917	-3.5792	-3.0438	-3.7771	-3.4458	-3.3479	366.728	192.582	230.283	344.117	250.357	417.588	387.344	423.481	369.297	329.181	214.480	447.598	171.226	464.161	313.722	500.523	0.0010095	0.0020752	0.00029704	412.94	1.702e-05	1.8718e-05	817.2	187.18	1.2353e-05	2.1944e-05	355.46	178.14	81.241	41.299	1.803e-05	99.382	0.0049037	0.0052764	0.0014645	554.92	5.6855e-05	5.7723e-05	927.01	233.77	5.7037e-05	5.7414e-05	519.87	199.35	99.939	47.803	5.6477e-05	105.79	259.664	275.021	190.076	181.455	352.391	327.073	181.723	187.059	269.024	335.824	187.246	190.528	190.408	194.960	280.842	193.554	-8191	255	
2692.841	1	1	0	0	0.19364	0.24644	0.19978	0.10475	0.14122	0.15269	0.059132	0.16009	0.065225	0.16228	0.092228	0.11469	0.20347	0.072797	0.22957	0.11034	-3.1562	-3.0792	-3.4208	-3.7667	-3.1875	-3.9083	-3.5208	-3.1708	-3.8021	-3.0104	-3.3708	-3.7458	-3.0792	-3.7042	-3.3208	-3.0646	376.383	350.382	207.235	411.078	208.367	407.453	319.825	423.396	352.439	474.228	488.234	415.441	468.473	508.682	330.443	512.730	0.0012935	0.0005094	0.00036174	411.57	2.0562e-05	2.2814e-05	818.01	185.7	2.4587e-05	2.1959e-05	358.65	178.02	81.926	41.863	1.2117e-05	98.831	0.0048834	0.0052656	0.0014672	553.68	5.6691e-05	5.7005e-05	927.33	233.15	5.566e-05	5.5896e-05	515.84	199.03	99.973	47.976	5.6154e-05	105.43	252.450	254.039	360.328	181.512	391.646	240.112	181.927	187.379	270.966	341.586	186.641	190.451	190.469	195.038	228.302	193.673	-8191	255	
2692.937	1	1	0	0	0.10729	0.22372	0.13574	0.27413	0.091417	0.037421	0.22147	0.16727	0.065313	0.18376	0.12578	0.12406	0.11848	0.078239	0.2402	0.13743	-3.35	-3.0771	-3.2042	-3.8208	-2.9188	-3.5708	-3.6125	-3.3167	-3.7875	-3.2229	-3.3563	-3.7771	-3.1875	-3.7333	-3.6375	-3.3187	322.012	187.007	215.960	429.308	203.230	415.368	456.367	471.440	332.582	420.800	523.694	177.113	453.609	173.936	371.312	442.933	0.0011587	0.0015148	0.00039899	415.08	1.2857e-05	1.7507e-05	817.01	187.25	4.0213e-06	1.223e-05	352.23	175.95	79.857	40.63	1.382e-05	96.803	0.0048786	0.0052404	0.0014696	557.5	5.8003e-05	5.8613e-05	930.23	234.28	5.8936e-05	6.0426e-05	530.08	200.14	101.14	47.874	6.2677e-05	104.79	250.242	400.736	173.660	181.822	314.094	402.446	182.334	187.642	457.570	486.893	186.674	190.573	190.557	195.329	267.232	193.704	-8191	255	
2693.033	1	1	0	0	0.11453	0.12945	0.16669	0.10427	0.11819	0.18384	0.13903	0.070349	0.16769	0.11691	0.1107	0.17504	0.20879	0.13845	0.13119	0.26377	-3.2396	-3.2896	-3.1979	-3.7917	-2.9292	-3.7083	-3.6063	-2.975	-3.7021	-3.4062	-3.175	-3.9479	-3.05	-3.4938	-3.6479	-3.3875	506.871	338.296	261.401	252.386	215.510	364.243	435.543	366.159	282.380	348.932	244.189	493.534	465.445	290.372	408.364	488.390	0.00087771	0.0024225	0.00049075	412.52	1.5591e-05	2.5051e-05	814.04	183.55	2.6186e-05	1.3284e-05	355.51	174.81	79.794	40.697	1.4851e-05	96.615	0.0054324	0.0059175	0.0016513	575.22	6.4758e-05	6.5335e-05	944.86	238.05	6.4427e-05	6.5052e-05	543.36	201.67	102.06	48.223	6.4711e-05	104.94	272.564	245.067	199.373	181.886	354.089	509.742	182.402	187.613	365.387	276.535	186.864	191.044	190.989	195.675	343.229	193.843	-8191	255	
2693.154	1	1	0	0	0.23055	0.068387	0.098463	0.15015	0.086521	0.055424	0.14325	0.098117	0.05834	0.027748	0.2104	0.080855	0.10274	0.13172	0.14428	0.19511	-3.2438	-3.2458	-3.2708	-3.875	-3.0604	-3.3333	-3.7917	-2.9021	-3.7146	-3.3458	-2.9875	-3.8979	-3.2938	-3.5083	-3.6188	-3.0646	238.271	392.829	514.570	478.783	413.654	301.268	497.280	449.276	384.138	330.719	499.004	222.764	525.301	522.065	413.867	438.501	0.00080101	0.0037259	0.00033876	406.06	6.2767e-06	2.7459e-05	816.04	184.28	1.5411e-05	3.5063e-06	345.85	175.37	79.614	40.355	1.5483e-05	96.488	0.00552	0.0059878	0.0016803	575.36	6.5395e-05	6.6203e-05	948.89	239.74	6.5038e-05	6.6363e-05	547.71	203.27	102.76	48.561	6.8018e-05	105.97	267.456	261.860	181.066	181.999	311.847	400.090	182.019	187.796	238.917	383.065	187.239	190.427	190.573	195.370	406.299	193.654	-8191	255	
2693.248	1	1	0	0	0.18105	0.20849	0.087996	0.19618	0.076015	0.37637	0.18204	0.25137	0.14235	0.22044	0.18889	0.1992	0.053878	0.13254	0.12836	0.30777	-3.2542	-3.4313	-3.05	-3.8937	-3.2146	-3.2646	-3.8604	-3.2083	-3.5812	-3.4917	-3.0875	-3.8896	-3.3125	-3.5375	-3.8396	-3.2333	347.544	232.255	523.606	179.141	437.233	349.015	496.283	408.946	479.546	451.331	277.629	236.533	301.244	470.964	385.368	505.135	0.00093292	0.0019805	0.00060871	412.45	1.4407e-05	2.6751e-05	818.51	183.77	1.4747e-05	3.7675e-06	348.33	176.3	79.295	39.876	9.675e-06	95.527	0.0058882	0.0064429	0.0018061	592.16	7.1099e-05	7.2659e-05	974.1	246.19	7.3046e-05	7.4495e-05	575.13	207.39	105.92	49.347	7.4578e-05	106.08	258.274	191.606	499.743	181.867	375.748	303.516	182.535	187.559	252.726	354.324	186.451	190.709	190.804	195.129	459.852	193.712	-8191	255	
2693.345	1	1	0	0	0.3253	0.19453	0.098923	0.1395	0.11406	0.17829	0.23518	0.31046	0.30493	0.13082	0.032705	0.12067	0.18961	0.27173	0.052228	0.18769	-3.1833	-3.6562	-2.9104	-3.8667	-3.3542	-3.1958	-3.9271	-3.0208	-3.3854	-3.65	-3.2562	-3.8271	-3.4958	-3.2104	-3.9083	-3.3729	471.313	442.811	220.658	495.955	528.455	243.480	481.756	194.511	206.405	510.928	187.101	467.121	518.503	191.175	190.380	471.638	0.0011408	0.00031056	0.00037012	405.95	1.0622e-05	4.4708e-06	815.62	181.24	1.6531e-05	1.1305e-05	344.86	173.14	77.753	39.011	5.3984e-06	94.238	0.0063888	0.0069609	0.0019382	606.88	7.5826e-05	7.6948e-05	978.37	246.44	7.5422e-05	7.6394e-05	576.96	206.04	105.48	48.822	7.5854e-05	105.01	263.485	182.692	319.366	182.631	300.707	269.279	182.429	187.707	388.422	253.101	186.358	190.507	190.477	195.247	377.213	193.548	-8191	255	
2693.441	1	1	0	0	0.23976	0.17858	0.051708	0.39748	0.13147	0.14534	0.20896	0.086021	0.1068	0.11715	0.13261	0.25558	0.26351	0.10149	0.18016	0.41834	-2.9688	-3.7687	-3.175	-3.7833	-3.3896	-3.0333	-3.9646	-3.3083	-3.3292	-3.6083	-3.0875	-3.575	-3.6188	-3.0646	-3.6688	-3.3917	178.193	202.073	414.525	526.710	402.359	235.603	464.763	369.765	236.256	333.742	455.830	507.502	320.384	317.361	482.518	475.064	0.00090702	0.001005	0.001082	412.33	1.9922e-06	3.5549e-05	813.73	180.58	2.3174e-05	3.0872e-05	346.68	173.11	77.957	39.221	5.8414e-06	93.975	0.0065013	0.0070484	0.0019395	606.56	7.4852e-05	7.5859e-05	971.69	244.38	7.3861e-05	7.4243e-05	567.07	204.86	104.26	48.589	7.3353e-05	104.68	255.137	462.058	181.279	181.946	256.454	438.286	182.038	187.194	297.688	388.581	186.102	190.590	190.525	195.464	437.908	193.607	-8191	255	
2693.537	1	1	0	0	0.14575	0.15924	0.20247	0.10973	0.14848	0.21342	0.29735	0.086256	0.12126	0.16298	0.095166	0.21102	0.046019	0.065604	0.096185	0.11034	-2.7333	-3.7875	-2.85	-3.5812	-3.5104	-2.9979	-3.8438	-3.2958	-3.15	-3.9229	-3.1229	-3.6729	-3.8083	-3.0458	-3.7625	-3.625	380.474	429.608	409.459	368.541	353.540	201.829	447.755	193.735	169.971	528.739	230.991	479.175	443.375	524.072	507.294	475.036	0.00067944	0.0021483	0.00014959	412.11	5.9431e-06	3.5641e-05	821.65	180.95	1.3187e-05	2.4291e-05	347.41	174.02	78.028	39.198	2.3041e-05	94.758	0.0063454	0.0068455	0.0019083	605.82	7.4788e-05	7.5331e-05	976.63	245.15	7.4419e-05	7.5107e-05	571.64	205.98	105.31	48.775	7.3749e-05	105.17	274.566	315.078	259.605	182.174	400.362	255.239	181.974	187.303	282.515	340.788	186.279	190.750	190.236	195.083	221.763	193.673	-8191	255	
2693.633	1	1	0	0	0.17159	0.11666	0.19343	0.071035	0.19122	0.17917	0.22469	0.17527	0.052644	0.23584	0.29137	0.16946	0.13474	0.020317	0.079631	0.21867	-2.4208	-3.8292	-3.0604	-3.5146	-3.5583	-3.1146	-3.7271	-3.4958	-3.0375	-3.725	-3.1667	-3.4729	-3.7229	-3.0417	-3.7125	-3.7313	487.737	508.310	205.501	184.066	239.028	445.404	434.525	381.170	335.308	301.512	263.133	514.847	477.436	177.107	331.875	475.013	0.00067571	0.0015633	0.00035014	417.88	7.566e-06	1.342e-05	827.21	180.99	2.2573e-05	2.011e-05	347.11	176.39	79.738	39.734	1.4911e-05	95.603	0.0063114	0.0067308	0.0018549	601.48	7.1233e-05	7.0415e-05	967.72	240.15	6.7264e-05	6.7315e-05	547.74	202.94	102.33	47.766	6.5191e-05	103.72	291.277	234.549	183.752	181.956	510.791	216.541	181.851	187.435	220.455	453.571	185.995	190.904	190.620	194.798	352.277	193.627	-8191	255	
2693.754	1	1	0	0	0.17089	0.178	0.080128	0.32191	0.17021	0.11205	0.16046	0.23753	0.088896	0.13208	0.30021	0.20154	0.11468	0.1315	0.1547	0.14262	-2.5542	-3.6813	-3.0271	-3.2271	-3.7729	-3.0625	-3.8042	-3.6417	-3.0333	-3.8187	-3.1375	-3.3354	-3.7333	-3.1479	-3.4875	-3.6604	425.511	271.486	324.270	344.148	386.436	378.573	184.348	500.126	354.154	520.443	405.030	176.433	230.888	186.544	385.632	281.057	0.00088071	0.0030237	0.00024152	417.75	9.5335e-06	2.1135e-05	823.91	182.48	1.1487e-05	2.182e-05	347.51	175.23	79.669	39.567	6.8535e-06	95.05	0.0054846	0.0058765	0.0016185	575.22	6.2439e-05	6.1709e-05	941.94	232.35	5.956e-05	5.9631e-05	521.25	198.4	99.819	46.732	6.0807e-05	102.68	252.002	519.148	473.313	181.963	520.237	303.134	182.507	187.388	184.275	277.459	186.575	190.874	190.680	195.180	401.790	193.784	-8191	255	
2693.850	1	1	0	0	0.22602	0.10296	0.21287	0.37266	0.088556	0.075397	0.22561	0.15937	0.15359	0.22241	0.16089	0.1456	0.14701	0.14523	0.040946	0.41445	-2.65	-3.6208	-3.2229	-3.1708	-3.6396	-3.1354	-3.7208	-3.7646	-3.0396	-3.7104	-3.4646	-3.0812	-3.775	-3.1292	-3.4396	-3.6917	392.083	301.390	203.840	188.586	395.191	518.583	471.396	494.598	504.311	249.591	451.787	414.897	515.172	450.363	361.096	450.068	0.001095	0.0018344	0.00033434	413.91	8.9544e-06	1.6099e-05	820.85	182.95	1.6448e-05	1.7297e-05	348.26	175.13	79.99	39.281	1.4488e-05	94.43	0.0053578	0.0058329	0.0016388	580.15	6.5914e-05	6.6951e-05	959.34	239.19	6.6639e-05	6.7522e-05	552.78	203.6	103.86	47.645	6.9252e-05	104.06	253.997	407.737	337.205	181.829	327.313	394.598	182.357	187.692	195.769	348.794	187.608	191.234	190.945	195.272	373.901	193.791	-8191	255	
2693.946	1	1	0	0	0.17314	0.27897	0.042673	0.12483	0.21302	0.11463	0.11594	0.087173	0.16497	0.16279	0.17678	0.13721	0.43469	0.1694	0.087014	0.2053	-2.6375	-3.5708	-3.5438	-3.2583	-3.7833	-3.2333	-3.4813	-3.7917	-2.8396	-3.65	-3.3	-3.1104	-3.8292	-3.2396	-3.2833	-3.7687	250.800	374.232	348.337	236.947	363.946	276.838	500.577	207.096	436.502	201.684	479.816	222.795	500.047	464.960	238.543	445.938	0.00086895	0.00072146	0.00015957	412.57	1.3135e-05	1.4105e-05	815.84	183.93	2.5629e-05	1.0118e-05	352.54	176.72	79.689	39.049	4.2307e-06	94.301	0.0060342	0.0065989	0.0018612	604.29	7.3706e-05	7.4336e-05	982.91	248.59	7.5609e-05	7.6905e-05	585.91	210.16	107.77	49.169	7.8712e-05	106.21	274.105	391.015	452.814	182.105	432.782	246.410	182.567	187.927	281.550	408.119	187.632	191.280	190.594	195.102	230.024	194.106	-8191	255	
2694.018	1	1	0	0	0.34404	0.12108	0.027502	0.29413	0.13746	0.093296	0.25394	0.033115	0.45258	0.14513	0.15127	0.23794	0.027344	0.067699	0.16038	0.098174	-2.5458	-3.4146	-3.3979	-3.1583	-3.6688	-3.05	-3.3063	-3.775	-3.0333	-3.5083	-3.7771	-3.0417	-3.7062	-3.3229	-3.1104	-3.9083	478.215	377.925	413.454	198.649	274.313	207.531	180.630	482.101	325.144	268.746	350.701	511.172	278.665	209.347	235.744	464.781	0.0008856	0.00075263	0.00053548	419.34	1.6272e-05	1.2645e-05	829.81	182.92	2.2983e-05	1.6857e-05	354.55	176.16	79.81	39.239	1.3782e-05	94.325	0.0067783	0.0073092	0.0020362	625.56	7.8663e-05	7.8898e-05	997.52	251.53	7.6243e-05	7.6904e-05	582.58	208.68	106.4	48.377	7.2899e-05	104.18	262.151	282.710	286.144	182.479	240.023	277.578	182.458	187.791	399.625	254.878	186.832	190.816	190.778	195.345	310.036	193.871	-8191	255	
2694.137	1	1	0	0	0.1283	0.42066	0.20454	0.28885	0.17934	0.072994	0.13864	0.14215	0.056787	0.12091	0.098441	0.33178	0.21839	0.11765	0.22997	0.085086	-2.4958	-3.4292	-3.6063	-3.0375	-3.5708	-3.4583	-3.2438	-3.8542	-3.0646	-3.4062	-3.7604	-3.0667	-3.7521	-3.3792	-2.9792	-3.9958	288.675	437.008	244.573	293.911	191.507	274.704	424.246	386.085	333.885	388.703	515.142	440.603	498.463	455.628	296.791	420.153	0.00096678	0.0012209	0.00089239	416.89	5.1513e-06	7.7021e-06	818.33	185.46	1.1304e-05	1.4018e-05	352.42	173.88	79.764	38.896	1.304e-05	94.155	0.0060074	0.0063905	0.001761	584.85	6.5578e-05	6.532e-05	946.98	236.66	6.0725e-05	6.0843e-05	526.93	197.46	99.202	45.796	5.7195e-05	101.12	243.912	457.446	522.186	182.419	405.159	301.032	182.701	188.022	281.749	431.275	186.890	190.830	191.246	195.228	238.767	194.372	-8191	255	
2694.233	1	1	0	0	0.13526	0.20097	0.14338	0.093601	0.081464	0.10269	0.084318	0.18452	0.1202	0.074884	0.085857	0.14224	0.20787	0.15231	0.052552	0.16818	-2.7188	-3.2375	-3.6854	-2.8896	-3.4708	-3.4458	-3.1479	-3.8042	-3.2354	-3.3854	-3.7375	-3.1354	-3.725	-3.6542	-3.1396	-3.9833	519.806	286.703	335.504	226.987	256.647	463.510	274.019	477.072	453.147	393.486	500.793	448.245	402.869	487.367	365.704	417.461	0.00097851	0.0021797	0.00094369	412.72	1.4789e-05	1.7133e-05	813.8	186.4	5.1344e-06	7.253e-06	351.05	174.65	79.909	39.18	2.0568e-05	94.351	0.004813	0.0051525	0.0014312	550.32	5.5289e-05	5.5662e-05	921.28	230.09	5.4579e-05	5.5717e-05	511.19	196.14	97.773	45.523	5.441e-05	100.74	278.493	256.832	261.518	182.175	256.607	266.116	182.368	187.798	440.848	183.741	187.063	190.713	190.663	195.668	454.072	194.274	-8191	255	
2694.329	1	1	0	0	0.044701	0.13984	0.081428	0.056807	0.1641	0.23322	0.26606	0.10727	0.17543	0.23988	0.18127	0.10452	0.038654	0.16505	0.077965	0.11695	-3.0771	-3.1667	-3.7917	-2.9625	-3.6375	-3.5479	-3.1104	-3.725	-3.3812	-3.2333	-3.8812	-3.1813	-3.5396	-3.6146	-3.0187	-3.7792	364.266	273.215	379.906	218.284	172.246	409.642	448.656	495.811	175.398	423.865	186.383	514.840	198.670	489.809	305.547	486.959	0.00072916	0.0011332	0.00077384	410.18	1.1479e-05	8.5153e-06	810.98	185.94	1.4517e-06	1.8858e-05	358.44	176.15	79.73	39.37	3.8509e-06	94.874	0.0046384	0.005028	0.0013903	544.34	5.3896e-05	5.4532e-05	917.16	230.19	5.4382e-05	5.5535e-05	514.52	196.76	98.239	45.749	5.5118e-05	101.37	257.649	185.675	296.774	182.469	363.468	318.679	182.729	187.714	262.351	242.501	187.565	191.066	191.267	195.412	187.157	194.288	-8191	255	
2694.425	1	1	0	0	0.30936	0.16108	0.14198	0.1969	0.14289	0.25091	0.32734	0.13552	0.28404	0.14398	0.24277	0.16961	0.24824	0.15778	0.088854	0.22981	-2.9792	-3.0146	-3.6917	-3.1229	-3.3646	-3.7479	-3.1958	-3.7375	-3.4833	-3.1125	-3.9542	-3.2729	-3.3438	-3.8625	-2.9625	-3.5729	337.569	244.928	264.916	177.608	264.030	186.451	464.955	520.393	318.782	452.617	403.594	499.098	198.471	482.615	370.648	463.070	0.00078892	0.00032007	0.000347	410.56	1.343e-05	3.0215e-05	814.74	186.65	3.5445e-06	1.3811e-05	358.11	174.13	79.285	38.943	4.2806e-06	94.177	0.0047422	0.0051204	0.0014224	548.95	5.6138e-05	5.7062e-05	924.32	231.92	5.6473e-05	5.7099e-05	517.02	196.22	98.12	45.503	5.599e-05	100.85	272.271	265.699	483.639	182.233	251.524	251.330	182.803	188.009	277.142	349.468	187.627	191.088	191.369	195.854	312.249	194.383	-8191	255	
2694.546	1	1	0	0	0.14817	0.015323	0.14928	0.19503	0.12664	0.084842	0.048701	0.048815	0.18369	0.025794	0.14535	0.15312	0.12178	0.24701	0.19363	0.16423	-3.0563	-3.0667	-3.6167	-3.3458	-3.1146	-3.7292	-3.1354	-3.6542	-3.6479	-3.0271	-3.6354	-3.2271	-3.3187	-3.7542	-3.0375	-3.6521	219.499	277.823	515.073	353.043	516.126	464.913	500.814	259.659	380.559	458.274	477.444	417.611	482.743	490.800	482.354	376.814	0.0010056	0.0015015	0.00051806	408.53	5.1986e-06	1.7692e-05	801.85	186.26	1.802e-05	9.4351e-06	351.16	173.47	78.164	38.972	1.6255e-05	93.927	0.0048258	0.0052163	0.0014518	548.93	5.636e-05	5.721e-05	912.32	230.82	5.5757e-05	5.6158e-05	510.86	194.66	96.894	45.337	5.4325e-05	100.49	259.527	343.165	528.628	182.213	391.490	465.252	182.667	187.903	448.053	371.228	187.308	191.291	190.987	195.667	437.925	194.365	-8191	255	
2694.617	1	1	0	0	0.16619	0.11969	0.15324	0.15853	0.12466	0.17589	0.044895	0.056126	0.087051	0.0602	0.027624	0.10054	0.20157	0.14597	0.094067	0.32434	-3.3521	-2.95	-3.7979	-3.4104	-3.2438	-3.6437	-3.05	-3.3937	-3.6271	-2.9625	-3.7375	-3.5354	-3.2104	-3.7625	-3.1396	-3.4375	261.022	329.776	335.620	470.219	364.493	369.549	370.942	326.405	170.431	294.875	189.296	269.004	469.654	516.406	204.089	455.141	0.0010239	0.0023145	0.00053966	408.6	1.9925e-05	1.7109e-05	802.65	186.04	1.1135e-05	9.1182e-06	352.64	173.87	78.527	39.542	5.4228e-06	95.408	0.0046535	0.0049897	0.0013706	540.35	5.3248e-05	5.3187e-05	902.35	227.41	5.1173e-05	5.1243e-05	498.08	193.2	96.044	45.447	5.1435e-05	101.23	267.749	279.162	483.136	182.263	317.236	319.319	182.709	187.901	246.222	499.345	186.593	191.201	191.411	195.601	429.511	194.553	-8191	255	
2694.713	1	1	0	0	0.12517	0.077823	0.14967	0.09041	0.38394	0.15952	0.20147	0.0087222	0.20692	0.22874	0.22505	0.14891	0.18486	0.24474	0.16706	0.16953	-3.2646	-3.1312	-3.6042	-3.6021	-2.8417	-3.7354	-3.2792	-3.425	-3.6562	-2.9854	-3.6646	-3.7062	-3.0167	-3.825	-3.2833	-3.4042	263.431	302.527	521.755	196.327	319.890	460.578	530.650	507.346	488.255	241.722	399.425	496.823	499.971	476.214	211.526	171.253	0.0010752	0.001902	0.00027028	406.82	1.5844e-05	2.6511e-05	801.1	186.32	1.1443e-05	1.1379e-05	352.51	174.43	79.422	39.739	2.426e-05	95.897	0.0045432	0.0049396	0.0013868	545.22	5.6015e-05	5.6802e-05	919.23	232.18	5.6231e-05	5.6779e-05	517.56	196.93	98.862	46.458	5.6389e-05	102.98	270.355	263.491	329.793	182.522	316.401	379.958	182.446	188.722	304.860	419.662	186.498	191.199	191.378	195.932	256.940	194.606	-8191	255	
2694.834	1	1	0	0	0.10503	0.22217	0.071232	0.13113	0.18428	0.20823	0.10955	0.15286	0.15431	0.14413	0.090982	0.16157	0.19501	0.21958	0.15331	0.32743	-3.4313	-3.0417	-3.5521	-3.4208	-2.9917	-3.8583	-3.4396	-2.9125	-3.8458	-3.15	-3.5333	-3.7979	-2.9167	-3.7417	-3.4792	-3.2896	225.736	511.561	258.689	488.754	323.752	184.070	463.992	472.256	198.937	476.196	268.147	438.686	194.449	498.650	462.219	503.059	0.0008991	0.00058911	0.00021336	409.61	1.6544e-05	8.8635e-06	810.7	186.02	2.1618e-05	1.3134e-05	357.76	176.04	79.783	39.961	5.0069e-06	94.718	0.0048436	0.005179	0.0014473	549.19	5.6298e-05	5.6486e-05	920.08	232.23	5.5034e-05	5.575e-05	514.83	196.97	98.408	46.208	5.5341e-05	101.7	256.567	380.702	383.807	182.500	357.496	353.051	182.688	188.411	328.197	413.007	187.419	191.162	191.037	195.905	483.662	194.244	-8191	255	
2694.930	1	1	0	0	0.23381	0.24508	0.184	0.095965	0.17519	0.25473	0.21752	0.26651	0.19551	0.11336	0.16916	0.14032	0.086104	0.14643	0.25225	0.31413	-3.5125	-3.075	-3.3875	-3.6521	-2.9542	-3.6625	-3.5062	-3.2125	-3.8083	-3.0146	-3.3563	-3.7646	-2.9208	-3.7021	-3.5438	-3.2812	479.374	272.596	375.125	503.382	434.130	184.147	460.318	407.632	173.097	453.961	506.767	450.794	169.901	181.585	171.621	483.564	0.00089075	0.0016161	0.00047827	408.8	1.0215e-05	1.2458e-05	809.52	185.79	1.6902e-05	9.4961e-06	350.53	174.55	79.573	39.647	4.4537e-06	95.133	0.0047019	0.005063	0.0014063	544.55	5.4417e-05	5.4243e-05	912.92	228.87	5.2834e-05	5.2967e-05	504.91	194.66	96.836	45.536	5.1903e-05	100.69	272.052	279.777	343.753	182.955	373.903	363.447	182.640	187.642	367.087	509.352	187.542	191.134	191.348	195.854	364.172	194.324	-8191	255	
2695.026	1	1	0	0	0.09182	0.23318	0.095952	0.12794	0.10036	0.027755	0.13098	0.13727	0.015207	0.11097	0.090771	0.15428	0.1325	0.13446	0.04964	0.23721	-3.3563	-3.1208	-3.2229	-3.7917	-3.1729	-3.5229	-3.6604	-2.9354	-3.8646	-3.3521	-3.2083	-4.0167	-3.0833	-3.475	-3.5312	-3.2271	431.589	419.342	439.703	275.302	505.630	485.130	470.038	327.524	413.964	278.976	250.001	473.799	227.013	456.247	498.604	495.465	0.00097751	0.0008949	0.00032405	405.37	1.4948e-05	1.4678e-05	807.3	185.77	7.3882e-06	4.2692e-06	359.94	176.47	80.222	40.027	8.6393e-06	95.431	0.0043985	0.0047083	0.0013024	528.12	4.8883e-05	4.8559e-05	895.07	224	4.6245e-05	4.6489e-05	483.93	191.4	94.198	44.853	4.4597e-05	99.943	269.875	272.111	408.022	183.147	305.410	320.835	182.873	187.764	284.883	297.697	187.631	191.408	191.504	195.611	478.256	194.293	-8191	255	
2695.145	1	1	0	0	0.16965	0.061089	0.23713	0.15908	0.19129	0.11738	0.28812	0.30747	0.13121	0.17653	0.38327	0.25461	0.073614	0.31766	0.12885	0.18917	-3.3	-3.2479	-3.1229	-3.8708	-2.9354	-3.3896	-3.6562	-3.15	-3.5312	-3.3104	-3.125	-3.6937	-3.2438	-3.5042	-3.7812	-3.0854	385.739	348.358	212.576	523.575	351.531	392.736	439.568	495.405	430.255	312.260	496.304	491.356	207.547	521.639	398.411	514.521	0.0010122	0.00062909	0.00066919	410.92	1.2279e-05	1.0126e-05	814.27	188.47	8.0996e-06	1.1982e-05	358.05	176.7	81.631	40.268	1.7432e-05	96.416	0.0038294	0.0041351	0.0011668	519.36	4.5279e-05	4.5451e-05	891.44	222.4	4.4237e-05	4.4454e-05	479.16	192.08	94.676	45.032	4.4002e-05	100.81	259.571	513.320	333.809	182.945	296.738	299.674	182.812	188.542	320.067	396.361	187.316	191.220	191.311	196.020	238.051	194.668	-8191	255	
2695.241	1	1	0	0	0.37266	0.11763	0.05518	0.067272	0.099097	0.16893	0.11928	0.29107	0.22538	0.15102	0.21351	0.078168	0.18773	0.36896	0.02894	0.28157	-3.2687	-3.4792	-2.9417	-3.8354	-3.0938	-3.3229	-3.7896	-3.1542	-3.5375	-3.6708	-3.1167	-4.0125	-3.2646	-3.4375	-3.6521	-3.2396	285.639	192.011	370.624	191.655	459.196	421.622	336.604	454.401	486.618	258.306	500.345	313.368	238.640	507.406	296.213	447.702	0.00085038	0.00018476	0.0002274	413.44	8.0376e-06	2.0035e-05	815.89	187.59	9.9013e-06	1.679e-06	357.43	176.81	80.74	39.936	9.1498e-06	94.843	0.0038534	0.0041785	0.0011763	521.77	4.6536e-05	4.7753e-05	897.88	224.51	4.8014e-05	4.8732e-05	492.65	193.71	96.302	45.487	5.1353e-05	100.42	274.366	499.352	496.181	182.280	307.658	283.014	182.936	187.889	182.579	172.412	187.618	191.250	191.016	195.661	302.800	194.258	-8191	255	
2695.313	1	1	0	0	0.28508	0.16532	0.32703	0.15862	0.064329	0.13741	0.15111	0.21268	0.1727	0.035318	0.27784	0.17306	0.27132	0.029176	0.10749	0.14908	-3.0354	-3.4729	-2.8812	-3.7188	-3.2438	-3.1458	-3.9313	-3.1083	-3.6	-3.6417	-3.2667	-3.8729	-3.4125	-3.2687	-4.025	-3.1646	496.049	490.007	529.110	468.038	312.729	218.050	377.176	494.628	296.864	191.334	508.603	271.035	266.330	504.426	434.625	306.799	0.0010251	0.0026094	0.00057481	408.02	3.6739e-06	6.7096e-06	803.73	185.41	1.2223e-05	2.2456e-06	350.09	174.06	79.222	39.216	1.1659e-05	93.397	0.0045005	0.0049439	0.0013964	541.76	5.4875e-05	5.6171e-05	912.72	230.03	5.572e-05	5.6632e-05	514.7	195.46	98.112	46.069	5.7941e-05	100.81	258.992	247.089	265.573	182.951	450.945	476.799	182.735	187.819	471.708	492.608	186.705	191.498	191.518	195.592	387.314	194.254	-8191	255	
2695.434	1	1	0	0	0.15073	0.082003	0.29849	0.16478	0.12292	0.11612	0.028179	0.16235	0.18074	0.041369	0.30157	0.40076	0.14353	0.20806	0.20737	0.26732	-2.9896	-3.6104	-2.9646	-3.8396	-3.3417	-3.1042	-4.1062	-3.3042	-3.3708	-3.7083	-3.0833	-3.7604	-3.4708	-3.0833	-3.8125	-3.4562	239.832	233.031	361.517	210.668	442.845	389.325	399.279	525.820	517.538	207.963	301.397	485.101	367.143	287.338	351.650	487.791	0.00079209	0.00063106	0.00043062	406	1.3409e-05	1.6715e-05	795.95	182.77	7.2836e-06	2.3027e-05	346.45	172.76	78.315	38.906	1.2598e-05	93.971	0.0049971	0.005452	0.0015212	554.53	5.9982e-05	6.0782e-05	921.6	233.7	6.0412e-05	6.1569e-05	531.02	197.62	100.05	46.556	6.1963e-05	101.74	263.479	287.686	302.011	182.369	259.921	358.442	182.852	187.901	211.958	336.192	187.629	191.268	190.798	196.111	385.560	193.853	-8191	255	
2695.530	1	1	0	0	0.016079	0.096315	0.12677	0.18611	0.020696	0.19072	0.087551	0.24931	0.041401	0.06724	0.11108	0.2171	0.12791	0.42965	0.020561	0.144	-2.8792	-3.575	-2.95	-3.7333	-3.4792	-3.1688	-3.8833	-3.2458	-3.3208	-3.9396	-3.125	-3.6792	-3.5667	-3.1833	-3.7354	-3.525	337.423	242.407	481.188	428.658	198.119	221.682	404.231	438.184	204.137	451.482	435.387	477.729	521.839	404.521	256.959	453.522	0.0010482	0.00093402	0.00018939	410.63	5.1352e-06	1.492e-05	807.18	185.05	2.225e-06	1.4563e-05	351.97	173.68	78.95	39.679	1.437e-05	94.702	0.0053169	0.0056905	0.0015814	562.68	6.1328e-05	6.2024e-05	929.84	234	5.994e-05	6.0624e-05	526.62	197.6	99.249	46.68	5.8643e-05	102.01	263.071	528.519	389.689	181.478	274.005	183.318	181.944	186.950	495.114	354.357	185.954	190.545	190.489	194.861	337.109	192.955	-8191	255	
2695.626	1	1	0	0	0.032801	0.14754	0.069472	0.22321	0.15899	0.30136	0.08259	0.24422	0.21307	0.079956	0.087356	0.10976	0.13263	0.19008	0.33075	0.067308	-2.7521	-3.6312	-3.0292	-3.4604	-3.6312	-3.0938	-3.6792	-3.2833	-3.125	-3.8771	-3.2146	-3.5792	-3.7396	-3.2333	-3.8	-3.5083	419.881	275.720	432.676	265.930	354.848	472.496	444.928	524.354	501.876	222.630	495.556	395.530	403.923	473.832	514.378	446.968	0.00095994	0.0013511	0.00060873	411.03	2.6466e-05	1.6313e-05	811.34	185.13	2.1232e-05	1.7943e-05	347.18	174.41	78.473	39.164	1.6867e-05	93.917	0.0050503	0.0054167	0.0015064	555.35	5.9159e-05	5.9854e-05	926.66	234.21	5.9635e-05	6.0455e-05	529.71	198.22	99.874	46.65	6.1757e-05	101.67	255.186	415.489	263.932	181.626	378.420	467.064	181.824	186.517	314.708	500.614	185.608	189.848	189.883	194.454	231.598	192.980	-8191	255	
2695.722	1	1	0	0	0.12653	0.19317	0.37912	0.25386	0.16591	0.31858	0.26455	0.18998	0.24346	0.0075269	0.19646	0.17173	0.10036	0.29191	0.062187	0.25004	-2.6792	-3.75	-3.0542	-3.4562	-3.6875	-2.8542	-3.7062	-3.5854	-3.0354	-3.7333	-3.3208	-3.4188	-3.85	-3	-3.5792	-3.6521	263.704	323.754	500.171	178.968	267.120	429.467	475.473	217.628	348.210	488.626	350.112	478.594	265.591	212.232	528.694	477.167	0.00093952	0.0027127	0.00053899	407.34	8.8004e-06	1.0302e-05	808.13	183.36	1.9674e-05	2.6827e-05	349.83	173.01	78.285	39.043	2.2436e-05	93.237	0.0053709	0.0057963	0.001604	567.13	6.3756e-05	6.4557e-05	935.05	237.39	6.3717e-05	6.4716e-05	542.51	200.09	101.17	46.937	6.4978e-05	102.36	274.674	201.327	351.943	181.468	391.240	251.719	181.843	186.802	281.625	365.963	185.867	189.757	190.214	194.834	418.234	192.999	-8191	255	
2695.818	1	1	0	0	0.22578	0.24954	0.2066	0.046294	0.14394	0.17544	0.11325	0.24608	0.14138	0.035207	0.18048	0.25531	0.06615	0.31959	0.12754	0.39185	-2.5146	-3.6333	-3.0333	-3.3271	-3.8542	-3.1604	-3.725	-3.6521	-3.1208	-3.7083	-3.5042	-3.1312	-3.8917	-3.1729	-3.4688	-3.8146	513.896	284.357	425.517	326.756	459.125	321.284	528.344	495.515	371.289	449.299	506.386	305.595	356.546	423.479	276.721	465.410	0.00078323	0.0029098	0.00071922	407.38	1.1592e-05	9.1045e-06	806.93	182.91	6.457e-06	2.0874e-05	349.96	172.34	78.736	39.007	8.6572e-06	93.808	0.0056252	0.0060681	0.0016983	576.92	6.6915e-05	6.7183e-05	945.57	239.41	6.6226e-05	6.7171e-05	548.59	200.74	102.19	47.117	6.7156e-05	102.77	261.421	361.690	239.102	181.371	242.795	420.165	181.477	187.204	337.408	410.391	186.323	190.294	190.085	194.640	261.620	193.388	-8191	255	
2695.914	1	1	0	0	0.14294	0.15067	0.09356	0.059728	0.06521	0.13221	0.36803	0.20418	0.1545	0.14972	0.058933	0.15388	0.21788	0.060657	0.19562	0.27554	-2.4792	-3.7812	-3.3438	-3.1146	-3.7917	-3.2	-3.5312	-3.7875	-2.8688	-3.7771	-3.4813	-3.1021	-3.8896	-3.225	-3.3646	-3.9667	384.665	477.265	231.018	401.128	281.744	208.472	457.766	481.658	280.803	338.831	176.653	175.782	494.206	312.702	334.622	497.963	0.00075989	0.0022832	0.00018709	409	8.1163e-06	4.0006e-05	809.99	183.46	5.8551e-06	3.3033e-05	352.78	174.85	79.595	38.861	8.3341e-06	93.819	0.0057385	0.0061414	0.0017024	578.88	6.561e-05	6.5771e-05	943.34	239.15	6.4123e-05	6.38e-05	542.16	200.39	101.33	46.55	6.2575e-05	101.51	273.189	200.214	187.955	181.396	525.867	313.420	182.150	187.163	509.733	296.818	185.641	190.633	190.379	194.937	467.469	193.584	-8191	255	
2696.011	1	1	0	0	0.060015	0.21758	0.2323	0.23242	0.1126	0.13723	0.22825	0.30703	0.10248	0.13212	0.15927	0.32948	0.13425	0.32817	0.081556	0.30169	-2.5938	-3.575	-3.4896	-3.1354	-3.7917	-3.1896	-3.4083	-3.8083	-3.0229	-3.3792	-3.5062	-3.1875	-3.9771	-3.2771	-3.2396	-3.9542	350.771	324.251	437.957	512.220	459.346	521.296	464.244	467.878	339.502	296.875	188.540	491.820	527.004	451.528	436.502	480.389	0.00094332	0.00047438	0.00046294	408.98	1.9628e-05	1.9577e-05	814.92	183.25	3.9316e-06	1.9148e-05	352.68	172.53	78.23	38.186	1.1838e-05	91.862	0.0053029	0.005699	0.0015964	566.69	6.176e-05	6.2014e-05	937.31	235.39	6.117e-05	6.2007e-05	533.73	197.61	99.316	45.578	6.0688e-05	99.81	259.741	254.406	199.605	182.023	294.326	505.999	182.022	186.876	351.693	175.674	186.201	190.483	190.309	194.685	201.911	193.466	-8191	255	
2696.107	1	1	0	0	0.15111	0.034169	0.17737	0.3569	0.13253	0.10535	0.30717	0.21379	0.12149	0.11083	0.12036	0.26967	0.25135	0.14853	0.18246	0.13535	-2.4229	-3.4792	-3.5687	-3.0667	-3.75	-3.2104	-3.225	-3.9688	-3.1583	-3.4521	-3.7292	-3.0542	-3.75	-3.3167	-3.1792	-3.9313	457.629	451.484	409.496	528.924	433.257	177.019	479.449	524.399	487.493	300.142	503.366	189.900	520.211	512.942	388.283	505.897	0.001039	0.0012548	8.5453e-05	408.14	2.3989e-05	9.455e-06	805.97	183.91	3.1036e-06	9.0509e-06	350.9	172.84	78.182	38.449	1.9511e-05	92.155	0.0051186	0.0055364	0.001553	560.09	6.0222e-05	6.0866e-05	928.79	233.09	5.9656e-05	6.0592e-05	527.71	196.53	98.775	45.649	6.0592e-05	99.943	250.017	330.328	491.117	181.457	298.488	488.800	182.005	187.408	296.658	426.627	186.563	190.603	190.336	195.001	261.734	193.427	-8191	255	
2696.227	1	1	0	0	0.11966	0.027086	0.0484	0.049717	0.089727	0.23824	0.28522	0.04009	0.13734	0.10154	0.098648	0.20865	0.12458	0.17034	0.13013	0.13261	-2.6729	-3.4083	-3.5708	-3.0792	-3.625	-3.525	-3.1583	-3.7438	-3.1292	-3.3187	-3.8292	-3.1604	-3.5458	-3.5563	-3.0771	-3.9375	235.576	405.982	281.818	334.464	384.805	322.601	473.014	207.720	412.255	176.337	200.700	492.023	303.341	463.133	407.571	502.189	0.00092732	0.0019505	0.00034675	408.54	3.5226e-05	1.4305e-05	803.73	181.56	1.007e-05	3.4153e-06	351.36	171.13	77.111	38.121	5.5405e-06	91.726	0.0052496	0.0056966	0.0016072	568.1	6.3121e-05	6.4502e-05	939.95	235.44	6.4488e-05	6.6016e-05	546.92	198.97	101.18	46.521	6.9274e-05	101.62	255.333	394.645	427.693	181.609	323.802	363.695	182.058	187.842	274.069	409.254	186.847	190.526	190.601	195.032	352.398	193.949	-8191	255	
2696.322	1	1	0	0	0.11268	0.10931	0.13348	0.22595	0.043236	0.22262	0.22149	0.33563	0.15647	0.16484	0.033982	0.18624	0.027111	0.23369	0.26624	0.2451	-2.9083	-3.0938	-3.8063	-2.8521	-3.5354	-3.6521	-3.1312	-3.7375	-3.2104	-3.1771	-3.95	-3.2771	-3.6562	-3.7667	-2.9375	-3.9667	256.710	434.312	173.244	527.708	293.552	346.645	472.070	179.411	311.246	308.083	399.973	210.886	323.215	498.004	383.083	503.001	0.00089027	0.0035744	0.00037747	400.74	1.4904e-05	4.9516e-06	802.46	180.54	1.2553e-05	2.3282e-05	350.24	170.8	77.245	37.672	1.8581e-05	91.289	0.0060876	0.0066893	0.0018702	593.33	7.3311e-05	7.4087e-05	959.98	243.67	7.2027e-05	7.3156e-05	570.45	202.12	103.3	47.172	7.4441e-05	101.99	268.324	192.882	201.305	181.869	486.558	324.450	182.403	187.781	186.544	324.243	186.079	190.926	191.394	195.519	309.001	194.072	-8191	255	
2696.418	1	1	0	0	0.26693	0.19927	0.070689	0.092568	0.28078	0.13931	0.18287	0.14024	0.10412	0.17944	0.25896	0.34695	0.1743	0.29773	0.16372	0.20366	-2.7771	-3.3812	-3.6958	-3.0729	-3.5417	-3.7792	-3.0687	-3.7583	-3.3917	-3.175	-3.7771	-3.1896	-3.5479	-3.8563	-3.0208	-3.7271	476.000	310.367	445.359	453.606	170.711	336.548	303.389	495.112	353.939	359.607	187.796	462.209	504.741	461.108	386.127	451.180	0.00087485	0.00090381	0.00014219	402.65	1.1157e-05	2.1847e-05	798.64	178.57	6.7022e-06	2.2106e-05	347.93	170.22	76.741	37.178	2.022e-05	89.42	0.0063723	0.0069629	0.001948	601.41	7.6093e-05	7.7043e-05	964.07	245.35	7.5777e-05	7.6978e-05	578.45	202.95	103.94	47.028	7.6251e-05	101.08	263.855	263.451	213.816	181.552	420.155	337.103	182.667	187.919	224.279	258.478	187.134	190.803	191.307	195.473	490.518	194.523	-8191	255	
2696.514	1	1	0	0	0.20336	0.24866	0.11228	0.08753	0.22526	0.19581	0.21581	0.098534	0.099748	0.30866	0.048477	0.17509	0.12599	0.36208	0.05717	0.29343	-3.0708	-3.0604	-3.8583	-3.1458	-3.3312	-3.7667	-3.1854	-3.6667	-3.475	-3.0187	-3.7021	-3.3563	-3.2479	-3.7542	-2.9729	-3.7729	478.580	514.974	200.868	187.200	186.681	462.633	490.255	487.208	527.756	461.862	248.227	505.681	488.061	507.855	373.547	457.318	0.00083229	0.00045932	0.00039461	400.69	1.0216e-05	1.9817e-06	797.45	178.41	2.0897e-05	4.6319e-06	341.18	167.8	75.801	36.678	1.574e-05	89.562	0.0065114	0.0070573	0.0019586	601.23	7.7075e-05	7.8171e-05	967.07	246.51	7.7176e-05	7.8743e-05	583.36	203.32	104.8	47.149	7.7638e-05	101.38	249.188	218.059	521.671	182.281	249.953	181.613	182.306	187.930	343.180	362.884	187.064	190.909	191.534	195.606	427.445	194.138	-8191	255	
2696.610	1	1	0	0	0.066118	0.22993	0.25063	0.15584	0.082131	0.22366	0.072407	0.32297	0.054629	0.19255	0.18159	0.13865	0.060491	0.025922	0.3691	0.14905	-3.0625	-2.9792	-3.6979	-3.3604	-3.275	-3.6937	-3.2208	-3.5292	-3.7375	-3.0896	-3.7271	-3.4021	-3.2792	-3.9375	-3.0854	-3.6104	241.850	231.997	216.651	308.975	332.329	447.922	475.029	508.771	254.888	279.516	337.913	520.030	526.249	248.823	483.882	391.757	0.00082147	0.0035363	0.00023848	398.27	2.4757e-05	1.1049e-05	788.35	176.66	8.6533e-06	1.366e-05	345.19	168.24	75.51	36.991	1.4451e-05	89.75	0.0067006	0.0072718	0.0020375	610.89	8.0284e-05	8.0887e-05	971.26	248.1	7.964e-05	8.0181e-05	589.29	204.44	105.26	47.635	7.935e-05	102.53	284.110	267.776	221.646	181.985	462.604	359.418	183.165	187.749	357.540	332.487	186.660	191.064	191.492	195.791	345.860	194.262	-8191	255	
2696.706	1	1	0	0	0.18923	0.076537	0.12647	0.4511	0.18637	0.18874	0.22793	0.24162	0.17106	0.20935	0.21027	0.077748	0.32685	0.19461	0.083765	0.16776	-3.2271	-2.9875	-3.65	-3.4938	-3.0375	-3.8333	-3.1708	-3.3312	-3.7812	-3.1104	-3.7375	-3.5771	-3.1083	-3.9542	-3.1104	-3.4688	339.208	381.557	424.604	478.710	485.539	263.622	431.697	483.911	494.960	330.304	431.910	505.365	500.823	509.617	219.515	417.577	0.00091732	0.0016703	6.0508e-05	400.11	1.8456e-05	2.8785e-05	794.04	178.11	5.6361e-06	1.5223e-05	345.18	168.66	76.066	37.317	1.0664e-05	89.825	0.0068586	0.007426	0.0020589	615.21	8.0668e-05	8.1094e-05	976.72	249.61	7.9389e-05	8.0067e-05	589.71	204.76	105.13	47.587	7.726e-05	102.22	251.484	271.575	354.152	182.446	455.595	266.163	182.708	188.319	281.699	198.340	187.199	191.004	190.882	196.273	300.996	194.692	-8191	255	
2696.827	1	1	0	0	0.072249	0.16974	0.16338	0.31756	0.33571	0.095562	0.21551	0.093898	0.16356	0.02045	0.21025	0.24115	0.022727	0.33897	0.13306	0.18428	-3.4208	-2.8563	-3.6229	-3.7167	-3.0167	-3.8438	-3.5354	-3.1813	-3.9583	-2.9896	-3.6167	-3.7625	-3.1021	-3.7354	-3.2625	-3.1958	367.809	326.827	388.702	424.377	198.227	216.540	322.276	438.032	284.559	412.914	522.578	420.384	232.704	473.762	290.396	495.585	0.00067814	0.001184	0.00038008	401.42	2.688e-05	2.149e-05	787.05	176.74	1.3892e-05	1.1942e-05	339.07	167.14	75.265	37.107	2.6107e-05	90.37	0.0065903	0.0071123	0.0019644	600.79	7.5874e-05	7.6217e-05	957.3	243.78	7.4082e-05	7.4434e-05	567.25	200.26	102.24	46.497	7.1721e-05	100.67	241.274	489.562	269.747	182.311	385.282	214.637	182.763	188.445	472.788	290.805	187.947	191.695	191.336	195.864	294.510	193.850	-8191	255	
2696.923	1	1	0	0	0.20975	0.090718	0.20357	0.18934	0.071059	0.31497	0.1271	0.19239	0.24178	0.17768	0.10384	0.425	0.27789	0.31086	0.13282	0.22555	-3.5438	-2.9625	-3.5979	-3.7562	-3.0646	-3.6854	-3.5708	-3.1542	-3.7375	-2.9771	-3.4979	-3.7687	-3.05	-3.8479	-3.3896	-3.2646	324.608	231.736	455.797	510.554	203.556	330.294	477.197	248.699	192.256	464.014	355.055	207.169	491.154	476.577	329.023	466.627	0.00093987	0.0011624	0.00030517	403.81	7.8117e-07	1.8207e-05	798.01	179.55	1.7082e-05	1.1841e-05	348.75	169.43	76.486	37.744	1.4708e-05	91.554	0.0060849	0.0064992	0.0017958	581.44	6.8854e-05	6.8993e-05	938.14	236.9	6.6251e-05	6.6763e-05	544.49	196.44	99.34	45.734	6.4909e-05	99.969	270.078	400.080	289.653	182.725	295.833	383.106	182.417	187.753	371.042	483.551	186.898	190.917	190.917	195.616	413.142	194.395	-8191	255	
2697.019	1	1	0	0	0.24676	0.10148	0.10587	0.30525	0.34901	0.12019	0.20929	0.079459	0.24382	0.13065	0.18908	0.28175	0.0085407	0.13029	0.20352	0.17748	-3.4437	-3.1375	-3.3063	-3.8187	-2.9958	-3.6063	-3.6208	-3.0521	-3.8563	-3.2104	-3.4646	-3.7646	-3.1771	-3.6708	-3.5896	-3.1979	495.427	509.277	404.989	177.822	352.963	332.425	477.020	468.978	228.680	169.914	519.409	181.928	354.980	459.672	518.339	496.950	0.00097645	0.00060507	0.00057125	402.04	1.3823e-05	1.5884e-05	796.68	180.37	1.3313e-05	7.0165e-06	353.01	170.08	77.029	38.596	1.8199e-05	93.116	0.0055078	0.0059278	0.0016601	565.72	6.4057e-05	6.4314e-05	927.39	233.48	6.1528e-05	6.1219e-05	527.87	194.65	97.551	45.552	5.9207e-05	100.19	257.596	179.669	197.761	181.945	261.240	432.311	182.569	187.719	248.408	455.241	186.549	191.221	191.124	195.846	345.194	194.549	-8191	255	
2697.114	1	1	0	0	0.18879	0.13723	0.042196	0.13048	0.093863	0.15718	0.37739	0.1004	0.25262	0.31085	0.11062	0.056136	0.043077	0.050357	0.35892	0.24027	-3.3542	-3.4021	-3.0646	-3.8854	-3.05	-3.5917	-3.7917	-2.9813	-3.6875	-3.3312	-3.1333	-3.8542	-3.1542	-3.6646	-3.6771	-3.2708	311.252	269.916	432.279	400.906	199.889	409.912	483.212	490.469	420.531	514.119	322.314	446.781	493.440	291.182	494.881	497.656	0.00091008	0.0018051	0.00039056	407.17	1.0785e-05	1.7853e-05	802.45	182.48	1.1428e-05	9.3616e-06	352.48	170.81	77.198	38.883	1.1923e-05	93.846	0.0050152	0.0053589	0.0014972	548.41	5.6885e-05	5.7476e-05	913.43	228.55	5.6462e-05	5.6847e-05	515.08	192.48	96.129	45.155	5.466e-05	99.869	279.225	305.873	202.998	182.342	331.287	270.096	182.986	187.792	470.259	274.367	186.858	191.508	191.203	195.790	363.026	194.372	-8191	255	
2697.210	1	1	0	0	0.31645	0.12033	0.17887	0.13562	0.07245	0.10513	0.1409	0.24292	0.12003	0.20103	0.10172	0.25992	0.27708	0.25667	0.15588	0.245	-3.3563	-3.1958	-3.1583	-3.8563	-3.1021	-3.4458	-3.7292	-3.2229	-3.7792	-3.5333	-3.0479	-3.8688	-3.2833	-3.2188	-3.7604	-3.2625	188.738	184.243	330.925	222.368	295.327	502.679	376.307	375.370	222.635	369.729	188.977	485.637	514.360	200.551	528.425	528.599	0.00087821	0.0015656	0.0006522	406.7	6.7493e-06	6.0101e-06	795.65	182.45	1.6863e-05	1.5457e-05	348.17	170.28	77.729	39.827	8.7315e-06	94.653	0.0045617	0.0048472	0.0013583	532.6	5.1894e-05	5.26e-05	896.65	222.16	5.0807e-05	5.0937e-05	491.34	188.83	93.838	45.467	4.9387e-05	100.2	262.019	234.560	198.127	182.215	464.805	237.556	182.827	187.575	283.596	272.133	187.502	191.235	191.156	195.710	500.988	194.431	-8191	255	
#DATA ENDS
