BOXY.EXE: ISS Imagent and Oximeter Data Acquisition Program Version 0.80
Ascii Record File

#ACQ INFORMATION
2  Detector Channels 
16  External MUX Channels 
1  Auxiliary Channels 
5000  Waveform (CCF) Frequency (Hz)
1  Waveforms Skipped 
30  Waveforms Averaged 
1  Cycles Averaged 
16  Acquisitions per Waveform 
10.0806  Updata Rate (Hz) 

#FILE INFORMATION
TRUE -- External MUX Channel results are PARSED.
FALSE -- AC DC and Phase are NOT grouped.
TRUE -- Companion Program Settings File CREATED.
FALSE -- AC data not excluded
FALSE -- DC data not excluded
FALSE -- Phase data not excluded
FALSE -- Auxillary Chn. data not excluded
Tab delimiters

#CALIBRATION STATE
TRUE -- Waveform Calibration Values APPLIED.


#AUX CALIBRATION VALUES
Val Type	aux-1	

Term	1.0000e+00	
Factor	0.0000e+00	


#WF CALIBRATION VALUES
A = Detector Channel
Val Type	A-AC1	A-AC2	A-AC3	A-AC4	A-AC5	A-AC6	A-AC7	A-AC8	A-AC9	A-AC10	A-AC11	A-AC12	A-AC13	A-AC14	A-AC15	A-AC16	A-DC1	A-DC2	A-DC3	A-DC4	A-DC5	A-DC6	A-DC7	A-DC8	A-DC9	A-DC10	A-DC11	A-DC12	A-DC13	A-DC14	A-DC15	A-DC16	A-Ph1	A-Ph2	A-Ph3	A-Ph4	A-Ph5	A-Ph6	A-Ph7	A-Ph8	A-Ph9	A-Ph10	A-Ph11	A-Ph12	A-Ph13	A-Ph14	A-Ph15	A-Ph16	

Term	0.00000e+00	0.00000e+00	0.00000e+00	0.00000e+00	0.00000e+00	0.00000e+00	0.00000e+00	0.00000e+00	0.00000e+00	0.00000e+00	0.00000e+00	0.00000e+00	0.00000e+00	0.00000e+00	0.00000e+00	0.00000e+00	0.00000e+00	0.00000e+00	0.00000e+00	0.00000e+00	0.00000e+00	0.00000e+00	0.00000e+00	0.00000e+00	0.00000e+00	0.00000e+00	0.00000e+00	0.00000e+00	0.00000e+00	0.00000e+00	0.00000e+00	0.00000e+00	0.00000e+00	0.00000e+00	0.00000e+00	0.00000e+00	0.00000e+00	0.00000e+00	0.00000e+00	0.00000e+00	0.00000e+00	0.00000e+00	0.00000e+00	0.00000e+00	0.00000e+00	0.00000e+00	0.00000e+00	0.00000e+00	
Factor	1.00000e+00	1.00000e+00	1.00000e+00	1.00000e+00	1.00000e+00	1.00000e+00	1.00000e+00	1.00000e+00	1.00000e+00	1.00000e+00	1.00000e+00	1.00000e+00	1.00000e+00	1.00000e+00	1.00000e+00	1.00000e+00	1.00000e+00	1.00000e+00	1.00000e+00	1.00000e+00	1.00000e+00	1.00000e+00	1.00000e+00	1.00000e+00	1.00000e+00	1.00000e+00	1.00000e+00	1.00000e+00	1.00000e+00	1.00000e+00	1.00000e+00	1.00000e+00	X	X	X	X	X	X	X	X	X	X	X	X	X	X	X	X	

B = Detector Channel
Val Type	B-AC1	B-AC2	B-AC3	B-AC4	B-AC5	B-AC6	B-AC7	B-AC8	B-AC9	B-AC10	B-AC11	B-AC12	B-AC13	B-AC14	B-AC15	B-AC16	B-DC1	B-DC2	B-DC3	B-DC4	B-DC5	B-DC6	B-DC7	B-DC8	B-DC9	B-DC10	B-DC11	B-DC12	B-DC13	B-DC14	B-DC15	B-DC16	B-Ph1	B-Ph2	B-Ph3	B-Ph4	B-Ph5	B-Ph6	B-Ph7	B-Ph8	B-Ph9	B-Ph10	B-Ph11	B-Ph12	B-Ph13	B-Ph14	B-Ph15	B-Ph16	

Term	0.00000e+00	0.00000e+00	0.00000e+00	0.00000e+00	0.00000e+00	0.00000e+00	0.00000e+00	0.00000e+00	0.00000e+00	0.00000e+00	0.00000e+00	0.00000e+00	0.00000e+00	0.00000e+00	0.00000e+00	0.00000e+00	0.00000e+00	0.00000e+00	0.00000e+00	0.00000e+00	0.00000e+00	0.00000e+00	0.00000e+00	0.00000e+00	0.00000e+00	0.00000e+00	0.00000e+00	0.00000e+00	0.00000e+00	0.00000e+00	0.00000e+00	0.00000e+00	-2.36295e+02	-1.26358e+02	-1.26122e+02	-1.84352e+02	-7.43156e+01	-6.85797e+01	-1.62008e+02	-1.62015e+02	-7.18578e+01	-6.29640e+01	-1.80050e+02	-1.70314e+02	-1.79883e+02	-1.76694e+02	-7.79053e+01	-1.49338e+02	
Factor	5.48273e-05	1.42809e-04	4.33729e-05	1.64603e-01	1.74334e-06	1.73504e-06	1.78629e-01	4.25379e-02	2.29001e-06	1.56306e-06	6.49495e-01	2.52864e-02	2.46878e-02	8.09108e-03	1.65514e-06	1.13705e-02	7.25772e-06	8.82615e-06	2.46127e-06	8.91634e-02	9.29681e-08	9.73902e-08	9.04586e-02	2.32296e-02	9.25378e-08	9.72273e-08	3.24706e-01	1.33849e-02	1.36041e-02	4.45422e-03	9.46605e-08	6.04742e-03	X	X	X	X	X	X	X	X	X	X	X	X	X	X	X	X	



#DISTANCE SETTINGS
A = Detector Channel
A-1	A-2	A-3	A-4	A-5	A-6	A-7	A-8	A-9	A-10	A-11	A-12	A-13	A-14	A-15	A-16	

2.5000e+00	3.0000e+00	2.5000e+00	3.0000e+00	2.0000e+00	3.0000e+00	1.5000e+00	3.0000e+00	3.0000e+00	3.0000e+00	3.0000e+00	3.0000e+00	3.0000e+00	3.0000e+00	1.5000e+00	3.0000e+00	

B = Detector Channel
B-1	B-2	B-3	B-4	B-5	B-6	B-7	B-8	B-9	B-10	B-11	B-12	B-13	B-14	B-15	B-16	

1.0000e+01	1.0000e+01	1.0000e+01	1.4400e+00	1.0000e+01	1.0000e+01	1.5100e+00	1.9400e+00	1.0000e+01	1.0000e+01	1.9900e+00	2.4900e+00	2.4100e+00	2.9000e+00	1.0000e+01	2.9800e+00	




#DATA BEGINS
time	group	step	mark	flag	A-AC1	A-AC2	A-AC3	A-AC4	A-AC5	A-AC6	A-AC7	A-AC8	A-AC9	A-AC10	A-AC11	A-AC12	A-AC13	A-AC14	A-AC15	A-AC16	A-DC1	A-DC2	A-DC3	A-DC4	A-DC5	A-DC6	A-DC7	A-DC8	A-DC9	A-DC10	A-DC11	A-DC12	A-DC13	A-DC14	A-DC15	A-DC16	A-Ph1	A-Ph2	A-Ph3	A-Ph4	A-Ph5	A-Ph6	A-Ph7	A-Ph8	A-Ph9	A-Ph10	A-Ph11	A-Ph12	A-Ph13	A-Ph14	A-Ph15	A-Ph16	B-AC1	B-AC2	B-AC3	B-AC4	B-AC5	B-AC6	B-AC7	B-AC8	B-AC9	B-AC10	B-AC11	B-AC12	B-AC13	B-AC14	B-AC15	B-AC16	B-DC1	B-DC2	B-DC3	B-DC4	B-DC5	B-DC6	B-DC7	B-DC8	B-DC9	B-DC10	B-DC11	B-DC12	B-DC13	B-DC14	B-DC15	B-DC16	B-Ph1	B-Ph2	B-Ph3	B-Ph4	B-Ph5	B-Ph6	B-Ph7	B-Ph8	B-Ph9	B-Ph10	B-Ph11	B-Ph12	B-Ph13	B-Ph14	B-Ph15	B-Ph16	aux-1	digaux	

1161.220	1	1	0	256	0.14459	0.13865	0.16511	0.12185	0.040624	0.012326	0.088729	0.30853	0.20334	0.032332	0.26258	0.33939	0.16165	0.25915	0.10506	0.24808	-3.5625	-3.6354	-3.4208	-4.4271	-3.5833	-3.5458	-4.1667	-3.4958	-4.0229	-3.8292	-3.2313	-4.2208	-3.5667	-3.5583	-4.075	-3.4521	-64.287	151.855	260.915	274.306	-11.099	262.671	223.785	235.396	182.142	155.699	-3.402	238.600	245.166	286.748	230.873	246.613	0.00049786	0.00051545	0.00016431	1499.6	5.6794e-06	6.715e-06	1489.1	389.3	5.438e-06	5.5358e-06	437.97	149.35	129.44	44.264	5.1636e-06	54.8	0.00020142	0.00011967	3.4837e-05	1511.4	1.5359e-06	1.2839e-06	1504.6	394.87	1.5934e-06	1.2415e-06	433.54	151.52	132	45.345	1.4633e-06	55.832	40.752	29.355	22.933	-52.143	85.686	85.485	-51.975	-47.333	75.023	77.636	-47.732	-43.641	-43.034	-38.376	69.442	-39.074	-8191	255	
1161.317	1	1	0	0	0.14151	0.079058	0.051065	0.30916	0.072545	0.12969	0.20431	0.20769	0.11283	0.2359	0.18409	0.1847	0.055582	0.17366	0.11392	0.12283	-3.3792	-3.85	-3.25	-4.2312	-3.5125	-3.4271	-4.4458	-3.425	-3.7188	-4.1458	-3.3979	-4.2542	-3.65	-3.4604	-4.2021	-3.6125	-54.511	11.909	-35.205	262.075	247.263	232.076	211.392	207.086	232.819	82.600	157.077	-43.422	219.121	36.707	147.187	181.138	0.00044201	0.00053952	0.00016739	1500.9	3.5589e-06	3.9737e-06	1488.7	388.99	6.0933e-06	5.074e-06	436.19	149.07	129.94	44.289	5.0129e-06	54.78	0.00019576	0.00011309	3.2581e-05	1511	1.5423e-06	1.2726e-06	1503.9	394.29	1.5766e-06	1.2631e-06	429.52	151.08	132.13	45.345	1.3925e-06	55.823	52.653	23.438	41.116	-52.170	57.196	84.808	-52.310	-47.432	70.749	80.397	-47.679	-43.411	-42.878	-38.608	89.710	-39.270	-8191	255	
1161.437	1	1	0	0	0.18359	0.086837	0.055407	0.16238	0.31692	0.15529	0.23453	0.084597	0.34999	0.41871	0.15964	0.37796	0.16402	0.21511	0.22507	0.12337	-3.3396	-3.9688	-3.1312	-4.1229	-3.675	-3.3667	-4.4	-3.5229	-3.6813	-4.0437	-3.1562	-4.1021	-3.9896	-3.4583	-4.0854	-3.6583	-12.265	225.219	-49.699	167.357	25.070	232.783	222.794	251.846	21.686	175.137	-7.222	-26.458	251.940	-48.505	152.302	254.998	0.0004452	0.00067759	0.00017554	1494.8	4.0829e-06	5.696e-06	1485.1	389.08	3.5568e-06	4.4914e-06	441.42	148.54	130.01	44.451	3.5987e-06	54.435	0.00020343	0.00012107	3.4427e-05	1508.9	1.4288e-06	1.258e-06	1502	394.59	1.5961e-06	1.1681e-06	434.04	151.29	132.28	45.306	1.3915e-06	55.676	53.453	24.755	11.992	-51.917	98.834	74.593	-52.187	-47.346	59.351	100.795	-47.971	-43.457	-43.008	-38.334	77.137	-39.163	-8191	255	
1161.533	1	1	0	0	0.06373	0.12126	0.057175	0.40435	0.074093	0.14999	0.14897	0.2364	0.046223	0.05815	0.17524	0.026257	0.24763	0.28279	0.074861	0.06674	-3.1667	-4.1708	-3.2583	-3.9458	-3.8438	-3.2854	-4.3604	-3.8708	-3.5625	-4.0583	-3.3229	-4.0292	-4.0833	-3.4042	-4.1583	-3.6875	233.713	42.337	7.617	275.058	274.473	89.725	238.423	267.815	84.687	62.610	57.199	283.001	223.961	266.440	141.729	264.832	0.00052368	0.00054748	0.00019043	1493.6	5.4637e-06	4.9476e-06	1491.8	388.83	4.4037e-06	5.247e-06	440.91	148.56	130.23	44.286	5.8473e-06	54.544	0.00020388	0.00011809	3.353e-05	1507.1	1.4964e-06	1.3174e-06	1503.8	393.98	1.5778e-06	1.1683e-06	432.72	150.77	131.98	45.285	1.3682e-06	55.726	45.894	30.046	22.502	-52.140	91.558	96.795	-51.994	-47.366	72.861	84.049	-47.527	-43.676	-42.935	-38.329	84.680	-39.332	-8191	255	
1161.629	1	1	0	0	0.21521	0.10021	0.061595	0.090214	0.21206	0.15734	0.17918	0.49694	0.13812	0.15077	0.21911	0.53345	0.20386	0.22381	0.22983	0.18913	-2.8604	-4.2271	-3.2313	-3.7125	-3.9021	-3.3167	-4.1396	-3.7458	-3.425	-4.2729	-3.475	-3.8292	-4.1	-3.3854	-3.9938	-3.8042	245.977	54.113	35.237	294.802	48.788	166.494	254.671	288.939	240.229	32.028	45.619	252.325	236.052	182.518	0.541	-27.379	0.00047341	0.00052496	0.0001759	1494.9	5.3368e-06	5.8172e-06	1486.1	388.88	3.6993e-06	4.3455e-06	439.75	148.96	129.29	44.246	5.2908e-06	54.484	0.00020049	0.00011632	3.5073e-05	1506.7	1.4935e-06	1.2868e-06	1502	393.99	1.5215e-06	1.2862e-06	430.83	151.02	131.87	45.285	1.3913e-06	55.649	48.329	12.023	10.071	-51.855	87.315	86.209	-52.135	-47.192	54.417	95.239	-47.555	-43.550	-43.126	-38.425	86.695	-39.443	-8191	255	
1161.750	1	1	0	0	0.35399	0.12685	0.082422	0.30915	0.14174	0.094073	0.16263	0.20184	0.23103	0.27237	0.14976	0.11651	0.028244	0.14025	0.09588	0.061444	-3.0229	-4.1729	-3.575	-3.7375	-4.0938	-3.2667	-4.2292	-3.9729	-3.2042	-4.0813	-3.4417	-3.525	-4.0354	-3.375	-3.7646	-3.9938	281.309	180.184	131.205	221.626	-16.944	50.465	167.433	209.621	112.520	-20.599	-1.844	213.159	1.982	-28.090	23.960	240.654	0.00045957	0.00054414	0.00019247	1494.2	4.7513e-06	4.2993e-06	1482.1	389.21	2.343e-06	4.6843e-06	441.61	148.65	129.82	44.367	5.6481e-06	54.4	0.00020509	0.00011411	3.4745e-05	1506.4	1.4679e-06	1.2257e-06	1500.8	393.88	1.5649e-06	1.1961e-06	431.55	150.94	132.03	45.226	1.3791e-06	55.682	44.529	32.075	24.006	-51.867	90.007	83.311	-52.077	-47.287	116.914	91.272	-48.083	-43.562	-42.857	-38.518	68.605	-39.367	-8191	255	
1161.822	1	1	0	0	0.072666	0.089146	0.11173	0.24089	0.1912	0.13127	0.40397	0.20477	0.15891	0.31843	0.25953	0.16305	0.28398	0.26917	0.12384	0.13414	-2.7188	-3.9292	-3.5604	-3.8167	-4.0563	-3.4958	-3.9583	-3.9896	-3.4146	-4.1937	-3.8167	-3.5646	-4.2167	-3.5646	-3.8375	-4.1229	-42.380	-60.443	127.595	286.453	33.567	268.708	266.790	254.263	87.948	294.175	0.218	207.566	251.483	279.493	145.072	215.325	0.00047338	0.00057061	0.00015189	1492.8	5.2764e-06	6.4209e-06	1487.6	388.09	1.7539e-06	5.9542e-06	448.07	148.91	129.51	44.228	5.1532e-06	54.597	0.00020167	0.00012447	3.3043e-05	1504.9	1.4511e-06	1.2642e-06	1502	393.45	1.5683e-06	1.1639e-06	433.32	151.14	131.82	45.208	1.4836e-06	55.675	53.480	33.996	17.499	-51.863	73.243	98.454	-52.059	-47.307	48.118	100.604	-48.024	-43.261	-42.825	-38.783	76.757	-39.187	-8191	255	
1161.918	1	1	0	0	0.19788	0.21103	0.067884	0.18242	0.080789	0.12151	0.13372	0.25509	0.14695	0.047134	0.18995	0.29204	0.056241	0.39015	0.03763	0.15092	-2.7479	-3.9958	-3.6333	-3.6188	-4.1896	-3.3833	-3.8146	-4.3021	-3.3396	-3.7792	-3.7188	-3.5687	-4.0583	-3.6417	-3.7021	-4.175	159.303	30.567	77.752	209.063	148.051	213.886	237.812	237.253	55.309	289.673	212.808	-64.831	277.493	199.695	30.050	15.591	0.0004371	0.00039591	0.00014269	1498	5.2666e-06	5.2798e-06	1482.5	388.25	4.6352e-06	4.7669e-06	438.19	148.3	129.67	44.304	3.8898e-06	54.69	0.0002029	0.00011305	3.2248e-05	1504.9	1.4251e-06	1.2699e-06	1500.6	393.84	1.5986e-06	1.2322e-06	429.73	150.65	131.76	45.22	1.3933e-06	55.627	55.415	9.904	29.408	-52.009	74.402	74.907	-52.026	-47.172	73.598	81.614	-47.465	-43.431	-42.847	-38.468	69.911	-39.129	-8191	255	
1162.037	1	1	0	0	0.17798	0.17783	0.24462	0.25206	0.073783	0.12666	0.36584	0.32356	0.070474	0.173	0.072232	0.10471	0.10696	0.20415	0.074425	0.28288	-2.8458	-3.8354	-3.8979	-3.5187	-4.2521	-3.475	-3.6896	-4.2646	-3.1312	-3.7479	-3.8854	-3.5104	-4.1479	-3.7521	-3.4729	-4.1917	17.039	111.495	252.681	250.069	-36.634	44.010	226.415	272.383	109.949	224.070	-26.162	271.765	-15.867	262.835	187.158	-21.842	0.00046767	0.00037633	0.00016414	1487	3.9934e-06	7.1145e-06	1483.2	387.96	6.898e-06	4.9834e-06	441.37	148.04	129.36	44.303	4.8829e-06	54.7	0.00020505	0.0001145	3.3468e-05	1502.3	1.4164e-06	1.1492e-06	1496.2	393.11	1.6462e-06	1.2263e-06	430.9	150.55	131.7	45.152	1.4787e-06	55.621	46.480	31.888	33.854	-51.767	80.573	82.895	-52.086	-47.125	70.789	92.078	-47.660	-43.385	-42.539	-38.366	66.101	-39.127	-8191	255	
1162.133	1	1	0	0	0.051029	0.17829	0.2124	0.042417	0.20061	0.052326	0.60138	0.40846	0.046243	0.051199	0.17656	0.18712	0.25608	0.044882	0.15496	0.11299	-3.0354	-3.7771	-3.8479	-3.4708	-3.8854	-3.5396	-3.5146	-4.1438	-3.3875	-3.7625	-4.1021	-3.4	-4.0167	-3.8417	-3.3375	-4.3021	40.043	274.385	57.672	50.218	90.635	283.329	260.034	246.231	2.338	28.500	-40.767	284.442	277.210	-43.379	131.331	-31.356	0.00044707	0.00062877	0.00020814	1488.1	4.3243e-06	4.7476e-06	1481.3	388.39	3.7761e-06	4.1907e-06	439.39	148.4	129.73	44.31	5.7459e-06	54.608	0.00020384	0.00011772	3.333e-05	1502.9	1.4222e-06	1.1626e-06	1496	393.71	1.5323e-06	1.2032e-06	431.58	150.68	131.72	45.188	1.4511e-06	55.693	54.525	18.297	30.750	-52.079	84.992	77.231	-52.078	-47.245	105.846	93.630	-47.273	-43.644	-42.890	-38.569	90.597	-39.249	-8191	255	
1162.229	1	1	0	0	0.20406	0.076392	0.15558	0.43997	0.34166	0.29271	0.1736	0.33973	0.2138	0.11178	0.088755	0.20836	0.29366	0.16244	0.11641	0.069486	-2.9208	-3.45	-3.9979	-3.3604	-3.7417	-3.7667	-3.2104	-4.2896	-3.4854	-3.4083	-4.1729	-3.4521	-4.0583	-3.9917	-3.1958	-4.1354	3.445	62.702	54.317	279.173	250.535	228.623	125.138	227.035	-16.346	46.095	-55.072	210.800	268.572	269.143	91.848	161.228	0.00051329	0.00047571	0.00018669	1487.1	3.3445e-06	5.3419e-06	1481.9	387.06	4.5576e-06	5.5215e-06	443.46	147.86	129.22	44.309	4.5165e-06	54.44	0.00020367	0.00012691	3.1407e-05	1499.8	1.4954e-06	1.1364e-06	1495.2	392.87	1.5392e-06	1.2848e-06	431.84	150.7	131.67	45.23	1.3582e-06	55.614	55.588	10.995	33.024	-52.443	94.662	98.475	-52.484	-47.570	83.413	89.621	-47.853	-43.858	-43.378	-39.030	90.993	-39.380	-8191	255	
1162.325	1	1	0	0	0.22701	0.085573	0.033751	0.22771	0.18248	0.10387	0.037579	0.21563	0.2273	0.012321	0.020135	0.12739	0.095542	0.20925	0.13113	0.23881	-3.1042	-3.4146	-4.2042	-3.5396	-3.7979	-3.7729	-3.3042	-4.2271	-3.6208	-3.3958	-4.1854	-3.4375	-3.7687	-4.0938	-3.2979	-4.0813	14.090	129.642	0.589	261.973	173.720	0.357	91.880	225.696	-1.377	-44.039	-23.713	139.042	-15.540	227.847	-7.039	193.613	0.00043503	0.00054706	0.00013405	1485.9	4.3006e-06	5.5403e-06	1477.6	388.05	5.6922e-06	6.4677e-06	436.08	147.64	129.51	44.134	2.9007e-06	54.691	0.00019443	0.00011792	3.0407e-05	1498	1.4883e-06	1.1951e-06	1493.5	393.09	1.5325e-06	1.3071e-06	431.56	150.3	131.61	45.077	1.4037e-06	55.578	46.644	25.073	14.198	-52.120	75.864	81.547	-52.177	-47.375	80.919	94.951	-48.061	-43.605	-43.088	-38.768	81.089	-39.521	-8191	255	
1162.421	1	1	0	0	0.13629	0.13805	0.13162	0.14111	0.15624	0.25359	0.30043	0.10169	0.23784	0.24288	0.046834	0.038276	0.08249	0.046654	0.11882	0.14959	-3.3229	-3.3854	-4.1208	-3.5	-3.7458	-4.0542	-3.4771	-4.1542	-3.8083	-3.4792	-4.125	-3.6521	-3.6729	-4.1542	-3.3208	-4.1062	228.286	183.323	65.467	256.645	187.418	277.974	207.357	-23.140	-43.267	-10.001	266.351	197.872	-64.848	145.981	275.247	164.512	0.00042045	0.00047414	0.00018272	1483.5	3.8279e-06	5.5548e-06	1482	389.34	3.6222e-06	5.962e-06	441.73	148.61	129.38	44.192	6.6868e-06	54.709	0.00020081	0.00012382	3.2668e-05	1499.1	1.4288e-06	1.1888e-06	1496.3	393.49	1.486e-06	1.2326e-06	430.01	150.94	131.73	45.156	1.4917e-06	55.574	39.219	21.042	24.847	-52.155	82.759	81.352	-52.474	-47.338	79.978	74.719	-47.197	-43.929	-42.881	-38.776	75.451	-38.984	-8191	255	
1162.518	1	1	0	0	0.17007	0.065301	0.058813	0.20379	0.20884	0.083829	0.18972	0.12163	0.17385	0.30768	0.26809	0.41033	0.051828	0.15727	0.37977	0.2013	-3.2604	-3.45	-4.0667	-3.5792	-3.5792	-4.0604	-3.4021	-4.0146	-3.9458	-3.2438	-4.0854	-3.5187	-3.6292	-4.0354	-3.35	-3.9146	41.288	117.854	-17.408	-41.584	4.118	182.860	135.392	208.744	68.354	152.047	160.057	255.762	51.499	-40.649	-55.635	215.796	0.00046719	0.00041955	0.00012269	1490.3	4.5815e-06	5.449e-06	1478.1	387.71	3.6599e-06	4.4811e-06	439.72	147.95	129.6	44.218	3.7645e-06	54.483	0.00020411	0.00011912	2.8597e-05	1499	1.4691e-06	1.2038e-06	1493.2	393.08	1.5161e-06	1.2453e-06	430.34	150.35	131.63	45.198	1.4031e-06	55.578	43.252	28.425	28.751	-52.272	86.661	78.091	-52.296	-47.422	88.445	101.576	-48.459	-43.838	-43.006	-38.671	59.073	-39.239	-8191	255	
1162.614	1	1	0	0	0.13347	0.033927	0.090788	0.12074	0.095789	0.087801	0.39366	0.030958	0.18673	0.24351	0.09654	0.34245	0.046175	0.16197	0.10445	0.19954	-3.4646	-3.3167	-3.9896	-3.7167	-3.375	-4.1813	-3.5062	-4.0271	-3.7938	-3.2917	-4.0813	-3.6417	-3.5146	-4.2333	-3.2812	-3.8021	8.246	273.240	111.324	230.975	163.433	58.073	254.236	268.147	114.963	216.308	217.227	215.368	193.193	221.833	134.817	222.915	0.00045493	0.00045075	0.00014825	1485.2	4.8927e-06	3.966e-06	1476.6	387.33	3.5664e-06	6.0068e-06	436.68	148.26	129.56	44.332	4.2858e-06	54.354	0.00019653	0.00012493	3.0653e-05	1498	1.4602e-06	1.2044e-06	1491.7	392.76	1.4796e-06	1.2469e-06	429.82	150.37	131.45	45.125	1.3339e-06	55.515	39.137	9.200	11.756	-52.155	99.881	82.314	-52.353	-47.246	83.840	78.323	-47.803	-43.706	-43.135	-38.491	80.924	-39.381	-8191	255	
1162.710	1	1	0	0	0.17435	0.17192	0.065316	0.24299	0.059801	0.16905	0.27478	0.24657	0.020002	0.21956	0.24584	0.23031	0.18367	0.079896	0.020053	0.41024	-3.5062	-3.1708	-3.8688	-3.8333	-3.2917	-4.1229	-3.5271	-3.7583	-4.1625	-3.3271	-3.7687	-3.7438	-3.4188	-3.9833	-3.3542	-3.625	-58.885	146.998	-3.212	-54.038	262.630	112.850	152.803	222.935	0.163	202.430	262.435	267.406	-51.043	253.308	-12.256	221.889	0.00048369	0.00046441	0.00014749	1484.2	4.9829e-06	5.2217e-06	1480.1	387.15	4.2298e-06	4.457e-06	439.58	147.54	129.33	44.209	6.0398e-06	54.324	0.00019838	0.00011548	3.0171e-05	1497.7	1.4815e-06	1.1945e-06	1492.4	392.46	1.5284e-06	1.2236e-06	428.71	150.3	131.54	45.057	1.4416e-06	55.493	56.551	25.417	20.628	-52.124	72.718	83.707	-52.420	-47.543	93.558	81.153	-47.650	-43.884	-43.221	-38.590	78.658	-39.204	-8191	255	
1162.830	1	1	0	0	0.27204	0.1669	0.18266	0.19302	0.19627	0.16381	0.07281	0.31497	0.18864	0.14736	0.05326	0.1605	0.18596	0.11933	0.27282	0.028513	-3.7354	-3.1417	-3.7833	-4.125	-3.3833	-4.2146	-3.775	-3.5708	-3.9833	-3.2375	-3.7833	-4.1771	-3.5021	-3.9458	-3.6063	-3.5021	248.466	-0.312	292.942	247.026	231.251	21.501	74.160	264.881	167.791	293.803	102.925	-63.948	261.042	270.524	227.752	104.189	0.00052104	0.00049573	0.00012494	1483	7.0417e-06	4.7237e-06	1474.1	386.95	4.1486e-06	5.765e-06	442.38	147.52	129.15	44.317	4.546e-06	54.762	0.00020547	0.00011136	3.0227e-05	1496.7	1.5175e-06	1.1823e-06	1490.4	392.07	1.4486e-06	1.2516e-06	431.92	150.08	131.3	45.104	1.3505e-06	55.586	42.141	19.740	23.809	-52.387	95.233	82.546	-52.403	-47.426	95.493	93.263	-47.784	-43.468	-43.057	-38.554	68.363	-39.234	-8191	255	
1162.927	1	1	0	0	0.10459	0.026959	0.18446	0.3221	0.16315	0.027242	0.20514	0.08284	0.1752	0.27117	0.18645	0.064252	0.013979	0.13279	0.11138	0.12991	-3.7167	-3.4979	-3.6562	-4.2542	-3.3833	-4.1146	-3.8979	-3.6104	-4.1792	-3.5646	-3.7	-4.0813	-3.4062	-4.1833	-3.7125	-3.4917	-9.617	47.141	163.953	238.937	-42.089	188.330	249.173	196.745	145.422	218.267	49.461	214.545	-12.255	-52.170	27.416	234.517	0.00046042	0.00044886	0.00013944	1482.9	4.4519e-06	5.0247e-06	1474.5	387.42	4.9429e-06	5.0107e-06	439.91	147.5	129.06	44.186	3.9404e-06	54.438	0.00018897	0.00012296	3.2909e-05	1495.6	1.5336e-06	1.1596e-06	1491.5	392.27	1.438e-06	1.1686e-06	430.04	150.18	131.23	45.072	1.2694e-06	55.484	43.253	0.084	30.931	-52.283	67.501	88.457	-52.231	-47.352	107.825	70.989	-48.448	-43.700	-43.044	-38.616	45.036	-39.331	-8191	255	
1163.021	1	1	0	0	0.25971	0.20992	0.094718	0.26078	0.067666	0.029126	0.29844	0.085253	0.30642	0.22168	0.25658	0.18856	0.37059	0.082785	0.14417	0.17997	-3.825	-3.35	-3.4417	-4.2604	-3.2542	-3.8979	-3.975	-3.5667	-4.2625	-3.5021	-3.5521	-4.2854	-3.4729	-3.9146	-3.9146	-3.4229	113.577	52.029	248.152	282.228	251.783	54.754	210.994	89.166	-17.685	145.045	81.599	222.668	270.087	-12.433	92.075	13.378	0.00048495	0.00047154	0.00017048	1480.3	4.7508e-06	5.0642e-06	1470.4	385.79	3.5207e-06	5.1678e-06	441.51	147.95	128.92	44.165	5.8406e-06	54.372	0.00019652	0.00012057	3.1986e-05	1495.6	1.497e-06	1.2716e-06	1488.9	391.33	1.4559e-06	1.1939e-06	429.39	150.33	131.36	45.098	1.3505e-06	55.41	45.076	30.133	32.540	-52.252	67.009	83.946	-52.101	-47.400	53.668	107.058	-47.935	-43.576	-43.133	-38.569	75.240	-39.163	-8191	255	
1163.119	1	1	0	0	0.21678	0.13367	0.050406	0.039827	0.077924	0.11798	0.2301	0.18083	0.18742	0.13075	0.16923	0.33793	0.14633	0.17359	0.10647	0.19772	-3.6479	-3.45	-3.4521	-4.2458	-3.225	-3.9167	-4.2312	-3.4167	-4.0042	-3.675	-3.6521	-4.1875	-3.4979	-3.8979	-3.9625	-3.3021	247.503	-30.913	-39.138	-41.205	130.510	-21.807	255.768	-64.640	171.523	202.155	-61.895	254.359	225.223	-51.012	42.884	229.074	0.00046779	0.00056654	0.000137	1477.9	5.1095e-06	5.2106e-06	1472	385.55	4.3796e-06	5.7352e-06	442.29	148.37	129.06	44.267	6.072e-06	54.503	0.00019938	0.00011601	3.1935e-05	1493.5	1.4753e-06	1.1646e-06	1489	391.64	1.4108e-06	1.1872e-06	430.19	150.35	131.13	45.139	1.3673e-06	55.556	39.077	29.648	27.955	-52.193	106.027	87.949	-52.098	-47.467	118.749	94.580	-47.934	-43.535	-43.115	-38.562	82.402	-39.390	-8191	255	
1163.213	1	1	0	0	0.30176	0.16301	0.15688	0.34853	0.057583	0.16793	0.1538	0.30586	0.28419	0.20374	0.15467	0.16753	0.28976	0.096749	0.27108	0.22472	-3.5979	-3.6271	-3.375	-4.325	-3.5208	-3.7313	-4.3	-3.3104	-3.9333	-3.7917	-3.3333	-4.2	-3.5396	-3.7562	-4.0958	-3.2438	147.327	250.595	54.953	-49.319	-31.768	-55.931	-58.807	224.585	3.791	41.833	57.661	-24.688	-16.055	259.781	28.403	260.239	0.00049254	0.00048384	0.00016007	1477.4	5.5087e-06	4.744e-06	1483.4	387.51	4.3333e-06	5.7519e-06	438.44	147.93	128.77	44.214	4.42e-06	54.581	0.00019198	0.00011765	3.4745e-05	1494.4	1.4732e-06	1.1541e-06	1494.3	392.59	1.4679e-06	1.1655e-06	429.67	150.33	130.98	45.059	1.4055e-06	55.518	51.682	21.143	16.699	-52.097	76.795	88.798	-52.174	-47.310	78.823	83.665	-47.949	-43.618	-43.290	-38.494	80.398	-39.530	-8191	255	
1163.309	1	1	0	0	0.26004	0.084846	0.11454	0.26487	0.2889	0.090656	0.3168	0.27465	0.084141	0.12981	0.12238	0.17156	0.15878	0.29433	0.050835	0.055154	-3.4188	-3.8229	-3.325	-4.2458	-3.5604	-3.5021	-4.4958	-3.5104	-3.9188	-3.8125	-3.1271	-4.15	-3.6937	-3.3771	-4	-3.3583	67.177	97.127	115.915	256.625	207.890	273.296	235.848	-65.183	122.548	82.359	189.042	146.308	264.666	-51.075	71.388	-35.008	0.00047258	0.0006161	0.00014277	1488.7	3.4371e-06	5.5551e-06	1477	386.56	4.5621e-06	5.0823e-06	437.36	148.09	128.42	44.007	4.1913e-06	54.447	0.00020653	0.00011391	3.2802e-05	1496.6	1.4273e-06	1.2665e-06	1488.9	391.21	1.514e-06	1.1744e-06	429.71	150.4	130.95	44.998	1.314e-06	55.366	50.767	30.038	25.276	-51.943	70.846	83.102	-51.971	-47.335	73.365	101.486	-47.464	-43.702	-42.935	-38.391	83.640	-39.183	-8191	255	
1163.430	1	1	0	0	0.26994	0.22985	0.14246	0.294	0.038212	0.010074	0.16731	0.15052	0.23594	0.098325	0.028487	0.20247	0.15842	0.075063	0.15837	0.10024	-3.4146	-3.9646	-3.3583	-4.2083	-3.5625	-3.4583	-4.2896	-3.6146	-3.8187	-4.0563	-3.2375	-4.2312	-3.8875	-3.5354	-3.9521	-3.6104	268.580	95.527	176.439	242.791	-51.787	55.429	264.780	201.324	-26.869	277.155	110.883	-60.049	12.933	-59.375	269.576	-48.960	0.00042808	0.000529	0.00015789	1483.6	4.0722e-06	4.1446e-06	1476.7	387.03	4.1167e-06	3.3917e-06	437.33	148.13	128.67	44.067	4.6739e-06	54.214	0.00020164	0.00011842	3.3848e-05	1493.5	1.4805e-06	1.1993e-06	1490.3	391.47	1.4947e-06	1.076e-06	430.23	150.32	130.99	44.959	1.3274e-06	55.334	50.709	24.400	36.486	-52.109	103.282	87.277	-52.365	-47.472	48.083	94.985	-48.559	-43.746	-43.189	-38.619	71.262	-39.287	-8191	255	
1163.526	1	1	0	0	0.20729	0.076217	0.061304	0.21037	0.045592	0.17948	0.23375	0.046852	0.11086	0.086702	0.05932	0.037984	0.14307	0.21456	0.12402	0.12374	-3.2167	-4.0813	-3.1771	-4.1333	-3.7729	-3.2917	-4.3021	-3.6396	-3.4771	-4	-3.4229	-3.9542	-4.0375	-3.4917	-4.0458	-3.5771	93.104	183.454	196.174	289.843	15.376	294.562	259.614	221.644	102.730	-0.580	276.257	202.145	155.413	248.230	-13.287	154.323	0.00047178	0.00052222	0.00014555	1478.9	5.412e-06	7.3115e-06	1477.8	385.13	4.2819e-06	5.2566e-06	434.26	147.79	128.72	43.994	4.6504e-06	54.311	0.00020427	0.0001131	3.3658e-05	1494.9	1.4654e-06	1.2732e-06	1490.1	390.92	1.5577e-06	1.1686e-06	428.24	150.21	130.94	45.007	1.2874e-06	55.426	47.108	25.849	26.573	-51.758	85.615	74.717	-52.140	-47.426	89.384	90.358	-47.879	-43.561	-43.130	-38.626	95.334	-39.270	-8191	255	
1163.622	1	1	0	0	0.18397	0.15154	0.24069	0.15175	0.23208	0.15292	0.17265	0.20233	0.020721	0.19082	0.099299	0.031697	0.18962	0.2689	0.11247	0.22445	-3.1937	-4.1583	-3.1979	-3.9729	-3.7958	-3.3917	-4.1062	-3.6271	-3.4896	-4.0938	-3.3646	-3.8625	-3.9771	-3.2542	-4.0708	-3.8688	170.285	204.835	77.358	290.966	114.143	-25.264	236.791	272.720	168.471	99.630	225.689	258.953	-42.535	255.628	149.310	207.732	0.00044515	0.00042577	0.00017454	1484.6	3.4267e-06	5.2703e-06	1477.3	386.62	2.9611e-06	3.7686e-06	434.2	147.87	129.34	43.981	5.0505e-06	54.529	0.00019901	0.000112	3.3899e-05	1496.5	1.3998e-06	1.2367e-06	1490.6	391.74	1.5357e-06	1.112e-06	428.2	150.25	131.31	45.009	1.358e-06	55.48	51.078	26.904	25.406	-52.106	89.329	76.369	-52.195	-47.654	55.881	91.359	-48.200	-43.533	-43.055	-38.648	91.788	-39.397	-8191	255	
1163.694	1	1	0	0	0.073439	0.1734	0.21241	0.26142	0.094682	0.054258	0.1443	0.08016	0.1071	0.13989	0.25701	0.20949	0.18299	0.17953	0.081265	0.16188	-2.9688	-4.1937	-3.3104	-3.6375	-3.8792	-3.3854	-4.2083	-3.9521	-3.4125	-4.1333	-3.5167	-3.8625	-4.1896	-3.4104	-4.025	-3.8812	259.745	-19.311	113.271	269.211	267.193	10.777	248.876	188.362	0.275	59.336	172.085	148.049	291.397	245.524	-29.706	-60.872	0.00042373	0.00050539	0.00017878	1484.3	5.5492e-06	5.5054e-06	1479.4	386.56	3.5843e-06	6.1968e-06	437.78	148.25	128.41	44.083	4.9346e-06	54.51	0.00020108	0.00010807	3.2489e-05	1497.5	1.4338e-06	1.2667e-06	1491.7	391.61	1.534e-06	1.1718e-06	431.3	150.22	131.15	45.016	1.3408e-06	55.386	39.790	26.898	20.535	-52.127	81.152	85.663	-52.201	-47.566	102.053	70.698	-47.481	-43.555	-43.068	-38.690	76.278	-39.345	-8191	255	
1163.815	1	1	0	0	0.3262	0.12662	0.25533	0.20684	0.28328	0.23698	0.20711	0.25144	0.14974	0.094297	0.097816	0.31714	0.11145	0.21152	0.18178	0.027002	-3.1521	-4.1917	-3.4521	-3.6333	-3.8896	-3.1208	-4.2188	-3.9646	-3.25	-3.9313	-3.5292	-3.3667	-4.1438	-3.4833	-3.7729	-4.0375	170.540	216.027	-38.723	270.250	71.075	165.786	216.598	231.469	260.842	217.646	93.953	259.113	232.845	2.245	-49.073	218.563	0.00043106	0.00048589	0.00021243	1475.9	2.7853e-06	4.8848e-06	1478.7	387.9	5.4543e-06	4.1885e-06	438	148.33	128.84	44.098	4.8044e-06	54.405	0.00019806	0.00011388	3.2396e-05	1492.5	1.4455e-06	1.2628e-06	1490.6	391.85	1.5344e-06	1.1722e-06	430.17	150.28	131.15	45.014	1.3558e-06	55.461	49.433	43.225	34.190	-51.809	91.325	88.135	-51.973	-47.388	81.941	83.276	-47.988	-43.458	-43.093	-38.388	65.326	-39.253	-8191	255	
1163.911	1	1	0	0	0.12587	0.060634	0.1042	0.1929	0.19191	0.053377	0.41466	0.32884	0.34036	0.038577	0.086324	0.23646	0.18621	0.35003	0.15862	0.26486	-2.7917	-4.1042	-3.65	-3.5708	-4.0854	-3.4042	-3.8375	-3.975	-3.3167	-4.0938	-3.7167	-3.5333	-4.2729	-3.4875	-3.7938	-4.0229	119.655	-46.031	270.047	276.042	98.217	103.488	260.022	252.578	-30.175	201.436	109.542	260.473	3.433	222.671	95.192	268.680	0.00051893	0.00054294	0.00013984	1476.5	5.4974e-06	6.042e-06	1471.9	384.92	5.5388e-06	4.5404e-06	437.47	147.55	128.87	44.005	5.1542e-06	54.308	0.00020228	0.00010904	3.1499e-05	1491.5	1.4247e-06	1.1851e-06	1486.4	390.96	1.5292e-06	1.1088e-06	428.73	150.05	131.36	45.007	1.411e-06	55.368	46.996	-1.766	29.486	-51.987	85.424	83.269	-51.995	-47.450	66.705	82.918	-48.689	-43.414	-42.974	-38.515	78.138	-39.317	-8191	255	
1164.007	1	1	0	0	0.065329	0.06228	0.13576	0.18723	0.09919	0.068189	0.24917	0.16511	0.12389	0.079546	0.23121	0.16747	0.22353	0.37012	0.30684	0.17211	-2.8083	-3.9167	-3.7458	-3.4833	-4.0833	-3.3937	-3.775	-3.9875	-3.3021	-3.9271	-3.675	-3.4354	-4.3042	-3.3146	-3.5542	-3.9625	-35.008	10.531	30.969	-50.083	152.487	81.463	241.033	-12.435	8.422	213.659	-52.046	238.353	239.263	168.339	183.632	225.143	0.00046394	0.00047585	0.0001617	1478.2	4.7302e-06	5.2708e-06	1465	385.74	3.2187e-06	3.6958e-06	434.2	146.96	128.98	44.113	4.6782e-06	54.113	0.00020195	0.00011411	3.1786e-05	1491.8	1.4125e-06	1.2987e-06	1487.3	391.3	1.5452e-06	1.2076e-06	427.82	149.95	131.24	45.104	1.4175e-06	55.321	49.753	18.376	26.727	-52.157	88.300	87.407	-51.931	-47.413	111.656	91.989	-47.439	-43.586	-42.892	-38.481	81.278	-39.288	-8191	255	
1164.101	1	1	0	0	0.076154	0.10827	0.086163	0.088602	0.021377	0.17336	0.063434	0.19997	0.16296	0.12596	0.078409	0.1266	0.099758	0.054958	0.12662	0.10505	-2.9854	-3.7583	-3.8438	-3.4562	-3.9417	-3.5833	-3.5521	-4.15	-3.3208	-3.6813	-3.8104	-3.375	-4.1042	-3.4396	-3.3688	-4.1937	42.073	-24.720	-64.068	-43.913	225.006	124.837	-20.081	272.775	33.789	145.723	253.979	-38.365	206.877	267.865	61.096	152.043	0.00047111	0.00051168	0.00019206	1482.1	4.132e-06	6.7528e-06	1473.1	386.66	2.9321e-06	5.3306e-06	441.04	147.86	129.05	43.945	6.8576e-06	54.436	0.00020332	0.00011682	3.2586e-05	1492.4	1.3848e-06	1.2255e-06	1488.8	391.85	1.4918e-06	1.185e-06	429.22	149.96	131.19	44.942	1.4029e-06	55.451	45.383	9.480	16.052	-51.820	84.098	67.489	-52.076	-47.232	56.592	94.641	-47.816	-43.718	-42.605	-38.615	87.542	-38.919	-8191	255	
1164.222	1	1	0	0	0.1545	0.065924	0.053522	0.13441	0.082999	0.15331	0.14265	0.34543	0.16455	0.15437	0.294	0.13172	0.12211	0.084853	0.12308	0.1712	-2.9271	-3.6854	-3.7854	-3.3125	-4.0292	-3.7	-3.4854	-4.2542	-3.2	-3.5625	-4.1271	-3.3292	-4.0292	-3.8042	-3.1688	-4.0437	21.988	57.918	211.901	289.319	10.061	137.106	125.390	226.698	217.388	280.899	246.887	210.615	261.072	108.775	140.537	-8.019	0.00046787	0.00053243	0.00011445	1478.2	4.1945e-06	5.8766e-06	1469.6	385.16	3.9656e-06	5.5387e-06	443.6	147.39	128.47	43.956	3.376e-06	53.939	0.00019752	0.00011417	3.1602e-05	1494.5	1.3829e-06	1.1553e-06	1486.5	391.42	1.5591e-06	1.1843e-06	432.65	150.08	131.04	44.975	1.4615e-06	55.329	50.181	18.461	32.060	-52.120	83.040	82.356	-52.046	-47.265	65.146	87.360	-47.545	-43.563	-42.676	-38.379	61.267	-39.031	-8191	255	
1164.318	1	1	0	0	0.14859	0.24121	0.13506	0.14237	0.078697	0.057261	0.31048	0.056079	0.082124	0.066162	0.19678	0.16041	0.27846	0.1297	0.15271	0.12156	-2.9208	-3.5979	-4.0312	-3.3167	-3.9354	-3.8771	-3.3521	-4.2083	-3.3875	-3.5312	-4.1	-3.4646	-3.9667	-3.8479	-3.4458	-4.1708	204.812	8.257	266.795	198.147	107.338	268.816	283.516	0.092	178.693	171.040	294.703	287.795	-47.194	-54.993	-4.712	242.557	0.00048033	0.00057288	0.00018023	1479.6	3.8149e-06	6.2074e-06	1470.2	386.11	4.4708e-06	4.6619e-06	440.33	147.35	128.96	44.14	5.2516e-06	54.126	0.00020378	0.00011787	3.294e-05	1491.5	1.4617e-06	1.2034e-06	1485.7	391.46	1.5569e-06	1.1831e-06	429.13	149.94	131.04	45.048	1.4331e-06	55.374	48.148	32.346	24.895	-51.696	93.246	81.296	-51.936	-47.068	86.119	76.078	-47.785	-43.329	-42.861	-38.486	78.491	-39.383	-8191	255	
1164.390	1	1	0	0	0.19735	0.13141	0.24058	0.28018	0.25829	0.050029	0.22044	0.11851	0.072431	0.21143	0.2136	0.092517	0.14927	0.092382	0.057651	0.049904	-2.9792	-3.5021	-3.925	-3.3	-3.6896	-3.8625	-3.3917	-4.0604	-3.5021	-3.4437	-4.025	-3.3375	-3.8104	-4.0792	-3.2687	-4.0125	60.779	175.344	-28.481	258.266	-63.373	-4.677	261.456	-18.014	179.771	-9.246	-59.238	-7.019	204.638	-26.510	88.833	195.041	0.00046449	0.00056992	0.00022455	1480.3	4.5001e-06	5.09e-06	1475.3	386.75	4.243e-06	5.8786e-06	440.9	147.6	128.85	44.108	5.2381e-06	54.282	0.00020845	0.00011733	2.9704e-05	1491.3	1.5098e-06	1.1602e-06	1488.7	391.87	1.5184e-06	1.3061e-06	430.3	149.87	131.08	45.058	1.4663e-06	55.39	45.329	18.078	29.315	-51.917	87.443	77.234	-52.043	-47.388	97.758	76.064	-47.758	-43.733	-42.948	-38.516	75.757	-39.123	-8191	255	
1164.510	1	1	0	0	0.19453	0.15002	0.17833	0.2662	0.13546	0.12713	0.33362	0.34702	0.20258	0.14019	0.0674	0.18018	0.13423	0.034307	0.046791	0.18689	-3.3104	-3.4229	-3.8833	-3.7062	-3.6208	-4.2104	-3.4542	-4.175	-3.5833	-3.3167	-4.1229	-3.5479	-3.7687	-4.1396	-3.1813	-3.9833	266.805	-20.715	46.473	244.060	130.779	94.210	213.233	259.998	69.611	-19.644	-15.919	276.040	-60.511	188.638	177.490	213.367	0.00049029	0.00054115	0.00016139	1479.9	3.2822e-06	5.8252e-06	1474.1	386.67	4.3355e-06	5.0476e-06	444.35	147.16	128.62	43.894	4.8916e-06	54.168	0.00019233	0.00011316	3.1812e-05	1492.7	1.4309e-06	1.1865e-06	1488.2	391.66	1.4604e-06	1.2352e-06	431.44	149.98	131.04	45.009	1.4138e-06	55.329	50.312	28.179	9.773	-51.864	78.420	87.249	-52.083	-47.162	73.420	104.771	-48.008	-43.308	-42.759	-38.371	93.748	-39.034	-8191	255	
1164.607	1	1	0	0	0.11553	0.24117	0.10456	0.078488	0.15221	0.061863	0.14986	0.15987	0.17877	0.12771	0.13624	0.27931	0.30485	0.17377	0.11098	0.10968	-3.3312	-3.2792	-4.0021	-3.6896	-3.5271	-4.1625	-3.4771	-3.9813	-3.7917	-3.15	-4.1271	-3.6958	-3.6229	-3.975	-3.2604	-3.9729	231.803	121.431	162.208	156.440	240.444	-21.300	269.371	292.933	108.832	189.714	271.434	249.792	275.136	179.583	286.211	84.972	0.00051659	0.00057116	0.00017975	1481.6	4.0712e-06	6.3749e-06	1472	385.98	4.6184e-06	6.4399e-06	435.14	146.88	128.92	44.033	5.6814e-06	54.405	0.00019398	0.00011428	3.1227e-05	1492	1.41e-06	1.1277e-06	1488.4	391.22	1.5307e-06	1.2925e-06	430.01	149.57	131.3	44.953	1.4087e-06	55.41	53.411	28.748	19.501	-51.848	90.130	75.372	-51.937	-47.209	75.412	89.384	-48.406	-43.571	-42.790	-38.706	72.440	-39.016	-8191	255	
1164.703	1	1	0	0	0.064403	0.14935	0.15829	0.078802	0.19248	0.38518	0.33406	0.22928	0.12943	0.12847	0.13332	0.1773	0.20111	0.075709	0.19977	0.1002	-3.5667	-3.1146	-4.0646	-3.9125	-3.3958	-4.0333	-3.6937	-3.9292	-3.9958	-3.1083	-4.0042	-3.7208	-3.4021	-4.1	-3.3312	-3.725	109.601	273.745	242.106	263.842	195.221	179.828	261.102	217.519	53.351	248.244	238.175	242.619	-60.013	206.207	3.096	166.122	0.0005242	0.000505	0.00013779	1473.5	4.5906e-06	6.4213e-06	1474.7	385.4	2.8409e-06	3.8074e-06	440.88	147.22	128.55	44.109	5.0731e-06	54.184	0.00019082	0.00012169	2.9669e-05	1490.7	1.5477e-06	1.1362e-06	1488.7	391.46	1.4947e-06	1.1793e-06	429.33	149.79	131.08	45.025	1.3436e-06	55.523	52.468	30.187	22.611	-52.118	92.682	81.781	-52.289	-47.243	61.789	93.043	-47.264	-43.583	-42.997	-38.249	74.926	-39.122	-8191	255	
1164.799	1	1	0	0	0.18473	0.080034	0.14472	0.20886	0.22337	0.065342	0.32617	0.26878	0.19506	0.23163	0.14825	0.20482	0.14761	0.23952	0.15883	0.28909	-3.5896	-3.0792	-3.9729	-3.9625	-3.3521	-4.1771	-3.8417	-3.7729	-4.0563	-3.4292	-3.9875	-4.0104	-3.4938	-4.2583	-3.5646	-3.5521	78.012	21.191	52.965	221.299	274.740	183.810	234.979	264.378	-23.129	257.529	262.056	246.716	239.862	232.794	-47.768	216.184	0.00040214	0.00047518	0.00012588	1484.6	5.1642e-06	6.0706e-06	1466.3	385.77	4.6093e-06	5.1561e-06	438.2	147.6	128.89	44.071	5.1701e-06	54.549	0.00019555	0.00011724	3.0012e-05	1493	1.5256e-06	1.1445e-06	1486	391.7	1.454e-06	1.223e-06	429.93	150.05	131.22	45.021	1.44e-06	55.589	44.197	30.367	30.602	-52.104	90.979	80.677	-52.250	-47.133	68.611	78.763	-48.292	-43.779	-42.860	-38.497	52.922	-39.199	-8191	255	
1164.920	1	1	0	0	0.089168	0.059652	0.13272	0.27252	0.13338	0.14204	0.12566	0.38527	0.073196	0.11039	0.10995	0.059332	0.16103	0.21564	0.096053	0.26269	-3.6542	-3.4167	-3.9833	-4.1042	-3.4583	-3.9979	-3.8104	-3.6979	-4.0938	-3.2938	-3.7771	-4.0417	-3.225	-4.0646	-3.6083	-3.4458	240.558	226.706	26.188	261.550	90.999	203.968	-52.618	257.806	158.794	195.067	207.893	163.555	-40.118	204.464	213.596	268.354	0.00049774	0.00040592	0.00014342	1478.6	4.6873e-06	5.2393e-06	1469.7	384.93	1.5208e-06	5.2072e-06	441.94	147.21	128.58	43.988	3.691e-06	54.432	0.00019458	0.00011029	3.1191e-05	1492.2	1.4313e-06	1.0999e-06	1485.8	390.38	1.4376e-06	1.2664e-06	429.96	149.75	131.16	44.966	1.354e-06	55.38	49.143	18.891	44.691	-51.921	87.485	89.445	-51.877	-47.198	115.666	78.135	-47.616	-43.584	-42.784	-38.167	51.256	-39.220	-8191	255	
1164.991	1	1	0	0	0.21186	0.27975	0.068855	0.09367	0.1375	0.08305	0.19017	0.27798	0.10957	0.16222	0.14012	0.065921	0.20573	0.15435	0.095175	0.1523	-3.6958	-3.4271	-3.6437	-4.2688	-3.3896	-3.9021	-3.8917	-3.4083	-4.0667	-3.3833	-3.6375	-4.1146	-3.2708	-3.9479	-3.7271	-3.3292	171.909	124.357	108.553	273.296	29.152	232.040	235.900	237.482	63.548	198.011	292.018	199.698	-52.169	252.229	273.348	206.495	0.0004128	0.00057608	0.00016446	1480.2	5.1845e-06	6.2462e-06	1470.4	385.7	3.7926e-06	4.8258e-06	444.01	148	129.6	43.881	4.0109e-06	54.485	0.00019609	0.00011934	3.395e-05	1492.6	1.4925e-06	1.2756e-06	1486.8	390.86	1.4767e-06	1.2135e-06	430.33	150.16	131.22	45.002	1.3408e-06	55.414	47.790	25.611	20.828	-51.881	84.262	91.856	-52.111	-47.102	122.603	79.781	-47.901	-43.188	-42.757	-38.253	65.775	-39.047	-8191	255	
1165.110	1	1	0	0	0.094505	0.13528	0.21819	0.28078	0.16575	0.086829	0.025294	0.052819	0.13752	0.01996	0.09965	0.13511	0.19643	0.31247	0.072511	0.22636	-3.6375	-3.5563	-3.5729	-4.2083	-3.2062	-3.9417	-3.9458	-3.475	-4.1229	-3.5208	-3.2042	-4.1646	-3.3354	-3.9354	-3.8125	-3.5229	0.866	196.670	114.152	263.604	281.598	150.190	-60.809	4.465	66.289	225.429	258.772	-53.883	84.862	245.734	73.731	165.457	0.00044977	0.00045716	0.00013279	1478.4	5.9698e-06	5.379e-06	1468.9	384.22	4.6273e-06	3.7203e-06	432.91	147.31	128.89	44.2	3.6998e-06	54.377	0.00019625	0.00011117	3.2868e-05	1492.5	1.5131e-06	1.2559e-06	1485.8	391.13	1.5101e-06	1.1538e-06	426.15	149.81	131.31	45.062	1.3525e-06	55.505	51.300	34.368	24.775	-51.908	93.258	85.094	-51.921	-47.243	88.368	115.205	-47.630	-43.553	-42.908	-38.388	79.206	-38.994	-8191	255	
1165.206	1	1	0	0	0.0929	0.10692	0.10844	0.014299	0.060703	0.072407	0.14837	0.21604	0.009052	0.12036	0.051916	0.14003	0.076248	0.24773	0.31207	0.062806	-3.6104	-3.5729	-3.425	-4.1396	-3.4042	-3.7896	-4.0625	-3.4771	-3.9979	-3.7229	-3.3292	-4.2167	-3.5875	-3.8042	-4.2438	-3.5104	30.157	281.407	143.546	109.192	114.058	60.732	223.382	231.444	238.338	42.643	-17.265	209.701	131.366	206.813	-6.819	75.145	0.00041654	0.00056061	0.00015667	1474.2	6.8716e-06	5.2841e-06	1471.1	384.93	6.0496e-06	5.4089e-06	440.14	148.01	128.94	43.958	3.3182e-06	54.411	0.00019377	0.0001173	3.1207e-05	1490.1	1.4528e-06	1.2066e-06	1486.6	391.09	1.5095e-06	1.1767e-06	429.03	150.42	131.26	44.95	1.2955e-06	55.445	43.993	25.614	24.629	-51.740	99.056	77.746	-51.882	-47.022	64.871	91.283	-47.590	-43.590	-43.021	-38.259	73.905	-39.490	-8191	255	
1165.302	1	1	0	0	0.15597	0.23121	0.13898	0.22784	0.089316	0.27918	0.19605	0.17928	0.10025	0.1265	0.24397	0.15749	0.21157	0.17909	0.11729	0.22546	-3.5458	-3.7417	-3.2979	-4.2208	-3.4354	-3.5417	-4.3479	-3.3354	-3.8854	-3.7354	-3.4146	-4.3187	-3.6583	-3.7083	-4.0958	-3.375	150.271	94.615	-57.055	-55.072	283.066	14.017	-64.916	-64.872	123.243	200.684	24.615	227.200	273.382	-42.013	281.053	278.686	0.0004649	0.00055942	0.00012128	1483.2	3.8436e-06	4.9613e-06	1471.6	384.85	3.7607e-06	4.8086e-06	440.01	147.55	128.27	44.007	5.6831e-06	54.081	0.00020288	0.00011476	3.2935e-05	1493.4	1.4286e-06	1.2042e-06	1487.8	390.58	1.5222e-06	1.185e-06	429.83	149.94	131.09	45.021	1.285e-06	55.245	46.482	33.339	16.432	-51.988	72.707	84.006	-52.112	-47.306	70.220	99.467	-48.690	-43.650	-43.265	-38.655	87.593	-39.527	-8191	255	
1165.399	1	1	0	0	0.122	0.081932	0.2423	0.10445	0.02918	0.039209	0.26281	0.25483	0.063769	0.1707	0.032521	0.19482	0.13628	0.11419	0.083008	0.24387	-3.4396	-3.7708	-3.1125	-4.0958	-3.4938	-3.625	-4.275	-3.4583	-3.7229	-3.9938	-3.2708	-4.1979	-3.5771	-3.5458	-3.975	-3.4542	14.681	120.946	81.093	248.902	157.084	140.266	-57.812	197.834	133.323	74.495	37.007	272.703	275.880	206.268	161.390	277.397	0.00049551	0.00049512	0.00017403	1479.9	3.7554e-06	5.5279e-06	1476.1	385.26	6.0972e-06	6.1429e-06	436.03	147.52	128.23	44.053	4.9334e-06	54.528	0.00020406	0.00012149	3.413e-05	1493.6	1.4741e-06	1.1878e-06	1490.5	390.77	1.5211e-06	1.1481e-06	427.99	150.17	131.12	45.003	1.3584e-06	55.488	41.948	26.633	29.120	-51.922	76.320	80.288	-52.362	-47.503	74.456	83.243	-48.228	-43.399	-43.254	-38.325	68.691	-39.206	-8191	255	
1165.519	1	1	0	0	0.17824	0.053601	0.19156	0.17014	0.21185	0.12786	0.31037	0.24214	0.10618	0.086201	0.13602	0.12918	0.33162	0.069853	0.16938	0.30563	-3.2333	-3.9521	-3.1646	-4.0813	-3.6896	-3.2979	-4.3333	-3.5958	-3.4792	-4.0563	-3.3354	-4.05	-3.8312	-3.3729	-4.0271	-3.5062	23.515	122.845	85.481	292.263	15.995	-57.682	242.833	252.558	165.718	90.376	240.832	-52.307	224.770	-35.145	279.766	239.301	0.00047706	0.0005694	0.00012508	1480	5.6879e-06	6.5384e-06	1469.7	385.46	5.5209e-06	4.8547e-06	437.44	148.13	129.16	44.046	4.1095e-06	54.283	0.00019995	0.00010965	3.1171e-05	1493.9	1.403e-06	1.2241e-06	1486.7	391.14	1.4611e-06	1.1361e-06	428.95	150.33	131.22	44.974	1.3176e-06	55.337	43.682	22.129	22.018	-52.252	88.933	97.607	-52.333	-47.438	62.588	91.776	-48.437	-43.764	-43.083	-38.465	81.019	-39.384	-8191	255	
1165.591	1	1	0	0	0.058524	0.070975	0.078318	0.22751	0.060257	0.068512	0.1556	0.25575	0.17657	0.046206	0.21915	0.12342	0.17209	0.15862	0.033801	0.15762	-3.1729	-4.1646	-3.375	-4.0104	-3.775	-3.325	-4.3229	-3.7167	-3.5021	-4.0583	-3.2375	-3.8	-3.9437	-3.3979	-3.9917	-3.7167	277.951	119.506	126.318	245.539	130.680	20.479	-32.836	260.152	-34.987	-10.014	238.040	218.033	287.498	289.886	266.933	252.686	0.0004614	0.00050444	0.00017831	1485.8	4.8547e-06	5.0562e-06	1469.8	385.35	2.8568e-06	4.2746e-06	437.16	147.89	129.15	44.195	4.2781e-06	53.92	0.00019182	0.00010422	3.2094e-05	1494.6	1.4577e-06	1.2115e-06	1485.7	390.7	1.5062e-06	1.1769e-06	430.26	150.19	131.17	44.981	1.3396e-06	55.241	53.090	34.401	17.947	-52.002	57.481	82.700	-52.046	-47.255	71.872	83.461	-47.995	-43.608	-43.047	-38.647	90.606	-39.374	-8191	255	
1165.687	1	1	0	0	0.21656	0.21095	0.097951	0.25678	0.23047	0.12783	0.41192	0.2547	0.040015	0.090244	0.10909	0.23669	0.072913	0.18497	0.070322	0.14933	-3.1833	-3.9958	-3.3708	-4.05	-3.8396	-3.4417	-4.325	-3.6771	-3.475	-4.3854	-3.3063	-3.8292	-4.05	-3.1729	-3.9021	-3.8979	137.079	193.650	172.117	248.134	210.860	-36.905	258.568	229.887	-32.833	73.638	4.529	-20.169	164.879	278.893	249.334	127.605	0.00048173	0.00043097	0.00016898	1480.1	6.1549e-06	5.3114e-06	1473.1	384.76	2.9019e-06	4.7691e-06	435.88	147.77	128.87	44.231	4.4527e-06	54.404	0.00020001	0.00011079	3.274e-05	1493	1.4121e-06	1.2095e-06	1487.3	390.37	1.5014e-06	1.16e-06	428.36	150.14	131.16	45.072	1.2856e-06	55.381	56.416	29.317	43.017	-51.880	76.764	83.834	-52.050	-47.243	127.288	92.118	-47.883	-43.437	-43.213	-38.508	90.798	-39.046	-8191	255	
1165.783	1	1	0	0	0.25155	0.18871	0.026628	0.13735	0.10567	0.22433	0.26306	0.07816	0.13225	0.084637	0.13084	0.084825	0.15526	0.088707	0.24216	0.16062	-2.9542	-4.1396	-3.4958	-3.7667	-3.975	-3.1896	-4.0396	-3.8833	-3.2271	-3.9771	-3.5875	-3.6875	-4.05	-3.45	-3.8542	-4.0958	195.354	67.281	175.178	236.448	176.230	205.879	221.625	241.821	-62.288	113.350	259.589	127.521	293.773	-45.082	291.280	227.396	0.0004134	0.00048347	0.00019755	1485.5	5.2828e-06	4.1577e-06	1473.8	386.12	2.56e-06	5.2313e-06	439.66	147.38	128.76	44.251	4.0928e-06	54.238	0.00020198	0.00010968	3.1909e-05	1494.1	1.4209e-06	1.1634e-06	1488.5	391.5	1.4926e-06	1.1406e-06	429.06	150.02	131.05	45.092	1.3329e-06	55.43	46.185	29.947	20.232	-52.031	78.989	57.331	-52.065	-47.470	67.499	85.795	-48.378	-43.636	-42.954	-38.418	80.505	-38.906	-8191	255	
1165.902	1	1	0	0	0.39898	0.2813	0.17024	0.18322	0.25938	0.13972	0.2164	0.16367	0.16245	0.10791	0.27863	0.17601	0.26109	0.07921	0.13355	0.11168	-3.0375	-4.1208	-3.5563	-3.6	-3.9479	-3.2854	-4.1396	-3.9896	-3.2333	-3.9437	-3.6167	-3.6417	-4.0229	-3.4083	-3.5854	-4.1458	49.315	194.483	100.383	253.381	37.332	283.125	240.133	200.618	22.517	27.778	230.054	-35.404	-64.054	257.888	170.601	239.158	0.00045609	0.00052481	0.00016734	1480.7	4.9843e-06	5.4965e-06	1470.5	384.9	4.0216e-06	4.0481e-06	438.88	147.93	128.56	44.196	5.8392e-06	54.198	0.00019832	0.00011187	3.2991e-05	1494	1.4085e-06	1.2438e-06	1486.2	390.84	1.5172e-06	1.1374e-06	430.54	150.05	131.1	45.08	1.3655e-06	55.417	47.080	21.484	29.751	-51.942	80.497	74.553	-51.965	-47.481	80.386	113.253	-47.705	-43.482	-42.872	-38.388	68.023	-39.110	-8191	255	
1165.998	1	1	0	0	0.097826	0.096728	0.13771	0.066413	0.0096049	0.23705	0.25063	0.3746	0.28388	0.12361	0.26933	0.10481	0.25639	0.2205	0.22892	0.20235	-2.7646	-3.8979	-3.7542	-3.6375	-4.3146	-3.3167	-3.7917	-4.2729	-3.3438	-4.0167	-3.8208	-3.5021	-4.1458	-3.4354	-3.6167	-4.2521	34.292	176.000	114.249	-46.959	52.264	-42.551	254.034	257.573	-53.486	152.802	208.274	-12.456	286.219	117.351	-65.322	281.735	0.000473	0.00049411	0.00011638	1478	2.2458e-06	5.7656e-06	1471.7	386.11	3.4366e-06	5.1248e-06	434.09	147.27	128.37	44.029	6.6044e-06	54.444	0.00019151	0.00011139	3.0438e-05	1491.3	1.3934e-06	1.1638e-06	1487.7	390.89	1.5138e-06	1.1372e-06	428.53	149.9	131.08	45.007	1.3692e-06	55.386	52.122	29.965	17.425	-51.949	115.830	75.995	-51.942	-47.544	43.701	88.059	-47.738	-43.348	-42.945	-38.801	58.876	-39.439	-8191	255	
1166.094	1	1	0	0	0.29569	0.079876	0.13467	0.22173	0.081288	0.15152	0.36088	0.24458	0.31079	0.12062	0.30005	0.38626	0.1474	0.26367	0.22527	0.42508	-2.8417	-3.8625	-3.675	-3.5	-4.1292	-3.4313	-3.8187	-4.1937	-3.4042	-4.1417	-3.8833	-3.3292	-4.1375	-3.5229	-3.4521	-4.2021	268.887	63.766	268.733	-54.167	242.126	161.018	250.494	287.664	-18.786	278.686	143.070	-34.864	291.260	187.599	253.670	221.492	0.0004497	0.00068656	0.00015801	1477.2	4.4788e-06	5.9207e-06	1467.9	386.07	3.822e-06	5.6701e-06	437.96	148.08	129.02	44.238	4.9792e-06	54.508	0.00019857	0.00012062	3.252e-05	1492.4	1.4567e-06	1.2076e-06	1486.1	391.57	1.5072e-06	1.1809e-06	428.79	150.15	131.36	44.972	1.3923e-06	55.439	52.344	32.156	25.177	-51.898	93.374	77.855	-52.000	-47.162	79.070	89.931	-48.414	-43.515	-42.925	-38.133	87.700	-38.882	-8191	255	
1166.190	1	1	0	0	0.063168	0.11525	0.22963	0.30086	0.080467	0.19948	0.1412	0.21015	0.18947	0.21673	0.040138	0.10643	0.1623	0.20058	0.21013	0.1201	-2.9729	-3.8021	-3.9542	-3.4625	-4.0792	-3.6188	-3.5021	-4.2125	-3.4854	-3.7375	-3.9354	-3.5687	-3.9062	-3.6042	-3.2896	-4.0521	93.037	41.958	181.619	260.309	271.455	2.694	10.279	191.117	83.956	17.864	-47.503	-45.393	292.111	250.165	163.089	228.220	0.00043842	0.00063728	0.00017263	1480.6	5.1263e-06	6.396e-06	1472.9	385.74	4.2375e-06	4.7271e-06	434.56	147.3	129.11	43.974	3.8927e-06	54.479	0.00020499	0.00011833	3.2402e-05	1491.7	1.4489e-06	1.1861e-06	1487.2	390.7	1.5084e-06	1.1831e-06	427.6	149.74	131.2	45.006	1.3807e-06	55.475	46.755	30.475	16.106	-51.867	71.067	90.691	-51.994	-47.260	72.300	89.688	-47.606	-43.338	-42.835	-38.479	68.330	-39.205	-8191	255	
1166.287	1	1	0	0	0.26153	0.11426	0.11688	0.059604	0.17164	0.19723	0.30139	0.19344	0.23499	0.0020666	0.27853	0.34351	0.11728	0.13691	0.24052	0.19803	-2.8583	-3.6333	-3.8375	-3.4833	-3.925	-3.9333	-3.3958	-4.3313	-3.4562	-3.7229	-4.0167	-3.3167	-4.0333	-3.8812	-3.2521	-4.1396	25.412	-4.632	16.785	294.574	178.915	-57.792	218.507	248.535	287.323	180.000	168.871	225.445	-59.250	47.747	238.670	250.432	0.00044755	0.00041156	0.00016822	1479.2	3.459e-06	5.3178e-06	1467.8	386.53	4.6465e-06	5.9991e-06	441.17	147.88	129.15	44.133	4.6786e-06	54.191	0.00020267	0.00011228	3.0571e-05	1492.2	1.3678e-06	1.1441e-06	1485.5	391.33	1.5271e-06	1.2338e-06	428.52	150.12	131.22	44.959	1.3781e-06	55.442	44.929	28.190	23.877	-51.609	79.059	83.703	-51.896	-47.331	84.921	76.430	-47.961	-43.156	-42.910	-38.316	71.266	-39.112	-8191	255	
1166.383	1	1	0	0	0.10915	0.075582	0.086472	0.10563	0.13015	0.14668	0.11447	0.092352	0.059059	0.22757	0.15228	0.17507	0.090237	0.20467	0.17392	0.073665	-3.1	-3.4104	-3.8875	-3.5792	-3.8438	-3.7333	-3.3208	-4.2625	-3.6271	-3.4562	-4.1292	-3.4688	-3.8208	-4.0708	-3.2625	-4.1062	159.873	248.523	286.117	-61.206	-50.865	108.971	247.166	215.866	139.884	115.043	152.550	267.168	220.826	291.514	-21.225	81.716	0.00041737	0.00056028	0.0001651	1478.3	5.0101e-06	3.8708e-06	1468.3	385.15	3.7951e-06	6.6911e-06	439.4	147.48	128.44	44.203	4.2063e-06	54.174	0.00020056	0.00011496	3.1714e-05	1491.5	1.4644e-06	1.1344e-06	1485.8	390.76	1.5334e-06	1.218e-06	429.39	149.81	131.11	45.052	1.3854e-06	55.355	45.059	27.109	25.427	-51.855	92.919	81.428	-51.942	-47.026	86.537	75.090	-47.871	-43.414	-42.725	-38.438	66.187	-39.042	-8191	255	
1166.479	1	1	0	0	0.19972	0.072699	0.14059	0.17627	0.10771	0.16132	0.1997	0.27432	0.06977	0.13448	0.2508	0.059287	0.29118	0.041155	0.10055	0.34457	-3.1937	-3.4062	-3.9667	-3.5229	-3.725	-3.9896	-3.5458	-4.1375	-3.625	-3.3563	-4.2333	-3.2542	-3.7729	-4.2229	-3.1708	-4.0687	105.731	-42.247	69.039	208.392	6.967	89.858	271.166	191.150	227.249	167.210	75.477	38.500	260.341	294.314	41.042	201.954	0.00050874	0.00050464	0.00014387	1482.5	4.9841e-06	8.0727e-06	1470.3	386.51	5.0965e-06	5.7243e-06	432.43	147.33	129.24	44.164	5.8579e-06	54.301	0.00019939	0.00011182	3.1653e-05	1491.6	1.4633e-06	1.1415e-06	1487.6	391.31	1.5136e-06	1.2107e-06	426.87	149.93	131.12	45.07	1.4493e-06	55.443	47.183	32.323	18.916	-51.925	77.910	73.327	-51.750	-47.046	100.311	79.947	-47.227	-43.059	-42.610	-38.343	89.712	-38.814	-8191	255	
1166.600	1	1	0	0	0.059634	0.11251	0.11802	0.18169	0.044002	0.23825	0.23381	0.29363	0.12898	0.24643	0.14801	0.26256	0.1861	0.13382	0.17833	0.26224	-3.325	-3.0604	-3.95	-3.5979	-3.5563	-4.1104	-3.3646	-4.1167	-3.7375	-3.3667	-4.0146	-3.6208	-3.8021	-4.125	-3.2958	-4.0938	-40.021	284.836	155.466	291.237	273.827	135.861	212.448	-51.860	-45.739	231.279	192.690	168.253	110.323	16.659	-60.537	211.648	0.00044668	0.00063864	0.00016554	1473.2	4.4899e-06	5.7419e-06	1468.1	386.73	3.0534e-06	5.1991e-06	432.02	147.73	128.46	43.801	4.9467e-06	54.304	0.00019301	0.00012031	3.1022e-05	1488.7	1.442e-06	1.0701e-06	1483.4	391.3	1.4904e-06	1.1558e-06	427.35	149.79	130.79	44.873	1.4442e-06	55.275	45.692	35.029	30.495	-51.810	101.090	79.101	-51.461	-46.858	60.449	96.753	-47.658	-43.382	-42.733	-38.236	63.922	-38.874	-8191	255	
1166.696	1	1	0	0	0.058076	0.1104	0.1772	0.31328	0.046313	0.1719	0.30434	0.2228	0.07915	0.10793	0.18636	0.16822	0.20456	0.1839	0.36396	0.14855	-3.4813	-3.275	-4.1021	-3.7625	-3.5521	-4.1354	-3.6312	-3.9875	-3.8979	-3.2458	-4.1792	-3.9375	-3.4667	-4.2521	-3.3146	-3.9062	81.526	172.637	101.520	-43.262	-19.322	96.366	214.324	245.257	-63.785	56.481	101.033	251.405	290.530	283.339	273.150	38.288	0.00049874	0.00052502	0.00017141	1472.9	4.6812e-06	5.5055e-06	1466.7	385.41	6.1826e-06	4.7383e-06	436.86	147.09	128.69	44.017	4.212e-06	54.428	0.00019216	0.00012101	3.1279e-05	1488.4	1.4517e-06	1.1409e-06	1482.7	390.46	1.4974e-06	1.2702e-06	427.45	149.72	130.93	44.928	1.3556e-06	55.399	51.293	26.618	17.119	-51.704	97.739	93.612	-51.833	-47.016	58.243	96.113	-47.650	-43.382	-42.909	-38.336	73.249	-38.784	-8191	255	
1166.792	1	1	0	0	0.41843	0.18182	0.070755	0.12498	0.24491	0.097551	0.28199	0.16979	0.11562	0.24351	0.065184	0.2714	0.27312	0.30909	0.35758	0.1553	-3.4875	-3.2375	-4.0687	-3.85	-3.2896	-4.2188	-3.3729	-3.7583	-4.0792	-3.4792	-4.0354	-3.7896	-3.3312	-4.0625	-3.5396	-3.7062	-61.812	13.714	3.912	55.167	-21.794	35.727	272.594	230.793	64.432	-1.194	39.388	192.281	193.945	246.952	-18.098	200.778	0.00048967	0.00055181	0.00012438	1482.3	5.6661e-06	5.0793e-06	1470.2	385.77	5.7787e-06	7.5312e-06	436	146.91	129	44.133	3.5153e-06	54.172	0.00019529	0.00011691	2.872e-05	1493.1	1.4881e-06	1.1411e-06	1485.8	391.22	1.4461e-06	1.2917e-06	427.89	149.71	131.03	44.974	1.3387e-06	55.338	49.271	12.312	44.620	-51.727	95.516	77.829	-51.849	-46.912	88.575	97.390	-47.278	-43.354	-42.663	-38.142	80.010	-38.987	-8191	255	
1166.888	1	1	0	0	0.14616	0.12474	0.06513	0.15149	0.13611	0.12885	0.13507	0.20377	0.19412	0.3321	0.082707	0.40693	0.20574	0.14023	0.087799	0.27904	-3.7729	-3.1792	-3.9854	-4.0354	-3.2188	-4.2375	-3.5708	-3.6104	-4.0542	-3.2917	-3.8771	-4.2937	-3.4313	-4.3083	-3.5167	-3.6104	240.769	127.904	-32.779	214.825	-40.513	-32.487	68.879	-58.911	83.669	129.944	129.073	268.794	-40.320	242.994	112.475	223.225	0.00046899	0.00045442	0.00016637	1476	2.3223e-06	4.716e-06	1470.7	385.95	3.6418e-06	4.4246e-06	434.39	147.21	128.93	44.05	4.8404e-06	54.381	0.00019365	0.00011505	3.1186e-05	1489.2	1.466e-06	1.0918e-06	1486.1	390.62	1.4045e-06	1.2089e-06	428.2	150	131.08	44.988	1.3426e-06	55.417	49.209	31.417	25.925	-51.578	51.518	102.479	-51.746	-46.751	132.815	79.757	-47.441	-43.248	-42.610	-38.091	94.402	-38.834	-8191	255	
1166.984	1	1	0	0	0.055776	0.18537	0.20205	0.051777	0.14166	0.16022	0.20716	0.22801	0.16171	0.073413	0.22893	0.12483	0.19221	0.17035	0.18524	0.19111	-3.7542	-3.3917	-3.7625	-4.1167	-3.0792	-3.9688	-3.9583	-3.7104	-4.0437	-3.3542	-3.6521	-4.1354	-3.4625	-4.1292	-3.7417	-3.5396	106.510	66.641	101.204	-0.341	2.179	288.455	269.383	262.801	44.360	205.336	165.233	-45.607	234.442	-34.586	94.538	269.563	0.00046287	0.00054585	0.00017122	1476.5	4.2428e-06	3.8921e-06	1470.9	385.1	5.1435e-06	7.0337e-06	439.91	147.28	128.65	44.017	3.789e-06	54.38	0.00019445	0.00011693	3.1043e-05	1489.8	1.5222e-06	1.134e-06	1485.5	390.4	1.5199e-06	1.2704e-06	428.86	149.89	130.96	45.011	1.3485e-06	55.445	46.057	39.788	8.480	-51.639	86.076	79.844	-51.652	-46.586	78.979	88.417	-48.127	-42.930	-42.417	-37.980	65.539	-38.881	-8191	255	
1167.079	1	1	0	0	0.076812	0.17831	0.20222	0.22087	0.14675	0.13685	0.19569	0.24369	0.27843	0.079064	0.16139	0.12282	0.16823	0.18309	0.14271	0.10461	-3.7917	-3.4833	-3.5438	-4.2312	-3.075	-3.9396	-3.8646	-3.3688	-4.2104	-3.3792	-3.5229	-4.1562	-3.4188	-4.0542	-3.8208	-3.3979	135.150	93.569	-29.483	255.421	-48.030	49.766	189.609	269.889	208.485	257.002	159.265	247.324	229.894	238.830	72.098	269.822	0.00044971	0.00051713	0.00014422	1487.3	4.648e-06	6.7987e-06	1468.3	384.06	3.9135e-06	4.5444e-06	437.54	147.17	128.64	44.132	5.1373e-06	54.295	0.00019628	0.00011628	3.0181e-05	1491.1	1.4712e-06	1.177e-06	1484.6	390.42	1.4557e-06	1.1922e-06	428.97	149.76	131.02	45.034	1.3136e-06	55.378	46.024	25.527	32.381	-51.469	93.460	94.861	-51.713	-46.699	84.365	100.848	-47.544	-43.204	-42.647	-38.187	81.123	-38.595	-8191	255	
1167.199	1	1	0	0	0.12594	0.034993	0.016948	0.23764	0.065589	0.030616	0.48766	0.29865	0.051675	0.12348	0.055532	0.12794	0.13236	0.076143	0.136	0.27647	-3.8521	-3.5104	-3.3854	-4.3021	-3.3375	-3.9667	-4.1208	-3.4604	-3.9896	-3.6167	-3.5	-4.0354	-3.4042	-3.9667	-3.7687	-3.4917	241.661	86.604	169.001	-10.231	211.022	275.399	241.164	267.237	66.552	216.608	4.799	276.859	268.594	92.309	5.872	272.089	0.00051082	0.00042811	0.0001992	1479.1	5.334e-06	5.7812e-06	1466.5	385.24	1.9378e-06	5.3268e-06	435.51	147.16	128.6	44.029	4.6303e-06	54.16	0.00019782	0.00011456	3.3627e-05	1489.9	1.4761e-06	1.1277e-06	1483.1	390.38	1.4473e-06	1.2627e-06	428.09	149.69	130.91	44.941	1.3292e-06	55.252	46.447	28.349	28.417	-51.477	88.357	75.262	-51.531	-46.610	116.397	91.474	-47.214	-43.377	-42.593	-38.019	96.618	-38.585	-8191	255	
1167.295	1	1	0	0	0.19958	0.13683	0.20683	0.11647	0.40227	0.13969	0.12509	0.23204	0.036976	0.22456	0.2236	0.1736	0.10586	0.13282	0.17955	0.17361	-3.6354	-3.4813	-3.2062	-4.3	-3.3417	-3.5312	-4.1167	-3.4271	-3.8792	-3.7333	-3.3438	-4.2083	-3.5187	-3.7125	-4.0333	-3.3646	-43.540	7.085	-24.351	-43.660	137.133	58.450	256.372	201.404	-63.410	157.819	166.457	285.992	23.404	179.533	252.004	225.558	0.00045979	0.00059704	0.00016885	1486.6	5.5826e-06	5.1295e-06	1468	384.83	6.0768e-06	6.5097e-06	444.38	148.07	127.99	44.276	6.1247e-06	54.309	0.0001949	0.00011356	3.1766e-05	1491.8	1.4152e-06	1.1981e-06	1483.1	390.11	1.5242e-06	1.2176e-06	428.34	149.83	130.75	45.003	1.3663e-06	55.278	48.925	24.311	28.808	-51.210	70.784	80.170	-51.457	-46.619	73.527	99.399	-47.742	-43.107	-42.685	-37.393	83.861	-38.388	-8191	255	
1167.391	1	1	0	0	0.15116	0.10701	0.079066	0.26737	0.32785	0.18179	0.18106	0.26445	0.36906	0.046911	0.16257	0.1573	0.13603	0.34779	0.18178	0.15661	-3.5083	-3.8354	-3.3271	-4.3646	-3.6146	-3.5458	-4.2167	-3.3417	-3.9354	-3.95	-3.2042	-4.2625	-3.6458	-3.4771	-4.0854	-3.325	251.934	258.973	255.492	272.175	52.402	-61.090	152.571	268.283	294.174	39.535	66.604	-52.354	28.110	-52.866	-38.878	251.159	0.0004292	0.00063429	0.00014636	1481.6	4.5319e-06	6.633e-06	1465.9	384.21	3.3012e-06	5.1618e-06	440.05	147.34	128.97	44.272	5.6539e-06	54.04	0.00019576	0.00010946	3.3268e-05	1489.7	1.4127e-06	1.2409e-06	1482.8	389.97	1.4752e-06	1.1461e-06	430.3	149.98	131.02	44.987	1.3233e-06	55.191	37.223	23.493	13.733	-51.242	74.570	78.108	-51.394	-46.792	96.357	95.941	-46.442	-42.660	-42.319	-37.764	86.359	-38.698	-8191	255	
1167.488	1	1	0	0	0.224	0.027371	0.16466	0.10437	0.046678	0.29342	0.2928	0.11485	0.046101	0.20185	0.20675	0.03651	0.14497	0.21603	0.056916	0.27238	-3.4333	-3.825	-3.2354	-4.2292	-3.3854	-3.2542	-4.1708	-3.4229	-3.7917	-3.9313	-3.3187	-4.1625	-3.7792	-3.4917	-4.0583	-3.5604	-11.605	268.182	107.084	289.845	249.670	-47.852	177.682	-55.772	224.060	253.928	278.175	-13.221	-54.952	-41.548	10.633	244.721	0.00046387	0.0005654	0.00014997	1475.9	3.9396e-06	5.9298e-06	1467.2	384.16	3.7458e-06	5.7779e-06	436.1	147.03	128.63	43.727	4.4413e-06	54.096	0.00020111	0.00011411	3.494e-05	1488.7	1.4166e-06	1.2529e-06	1483.4	390.03	1.4945e-06	1.0482e-06	425.95	149.75	130.76	44.829	1.2464e-06	55.297	38.291	28.740	31.395	-51.226	68.104	98.425	-51.169	-46.518	111.899	83.695	-46.654	-42.878	-42.513	-37.852	94.767	-38.453	-8191	255	
1167.559	1	1	0	0	0.02873	0.091932	0.10934	0.10019	0.22603	0.14632	0.20224	0.24038	0.093082	0.087952	0.45798	0.22322	0.11381	0.11019	0.10752	0.21264	-3.2625	-3.8625	-3.0917	-4.225	-3.7229	-3.2771	-4.3812	-3.6417	-3.6875	-4.0729	-3.225	-4.0104	-3.9479	-3.3396	-4.0917	-3.6312	295.039	33.889	12.170	-62.370	224.726	245.576	118.766	248.246	15.281	83.679	258.343	203.011	37.977	-45.212	194.809	208.864	0.00047305	0.00045558	0.00017298	1479.6	4.455e-06	5.4538e-06	1467.7	386.69	4.8083e-06	4.4607e-06	437.95	147.76	129.04	44.204	6.2793e-06	54.426	0.00019508	0.00011299	3.2658e-05	1488.1	1.3819e-06	1.1703e-06	1480.6	391.01	1.5107e-06	1.0628e-06	426.69	149.78	130.9	44.943	1.3258e-06	55.29	53.341	20.071	18.051	-51.017	67.946	76.262	-51.514	-46.357	88.758	89.356	-47.700	-42.986	-41.996	-37.480	72.735	-38.519	-8191	255	
1167.680	1	1	0	0	0.0079136	0.062754	0.12746	0.24849	0.054845	0.062264	0.26433	0.23217	0.36086	0.099786	0.16453	0.25408	0.15911	0.22099	0.2253	0.12795	-3.2917	-3.9229	-3.3646	-3.9354	-3.8292	-3.4146	-4.4583	-3.8667	-3.3417	-4.1604	-3.2854	-4.0083	-3.9958	-3.4938	-4.0458	-3.9229	215.056	246.566	169.746	229.269	-43.626	66.451	253.974	241.009	279.252	-8.662	21.675	225.857	-17.742	-13.800	16.240	237.192	0.00048375	0.00041619	0.00013207	1477.1	5.067e-06	6.5102e-06	1466.3	385.55	5.0125e-06	5.107e-06	439.52	147	128.81	44.177	4.456e-06	54.355	0.00019133	0.00010536	3.2135e-05	1487.3	1.3624e-06	1.217e-06	1481.3	390.09	1.5787e-06	1.1809e-06	428.48	149.71	130.81	44.964	1.3327e-06	55.315	53.618	33.621	27.012	-51.088	108.202	82.304	-51.184	-46.625	72.466	87.709	-46.692	-42.865	-42.253	-37.647	89.676	-38.317	-8191	255	
1167.776	1	1	0	0	0.25909	0.10718	0.13176	0.25913	0.034083	0.23845	0.075821	0.19097	0.046838	0.099133	0.099765	0.17512	0.21578	0.24378	0.12663	0.11552	-3.0667	-4.0062	-3.2938	-3.9958	-4.0104	-3.2313	-4.1292	-3.8979	-3.4167	-4.1	-3.2917	-3.7875	-4.0542	-3.425	-3.8104	-3.7854	-0.124	148.132	177.863	240.584	156.837	179.299	208.842	-55.686	166.305	274.670	-24.113	287.453	214.298	-36.121	91.357	293.059	0.00050681	0.0004908	0.00013047	1477.1	4.9098e-06	5.1877e-06	1472	384.26	3.4986e-06	5.3871e-06	433.26	147.67	128.42	43.955	5.1062e-06	54.296	0.0001955	0.00010606	3.0956e-05	1487.8	1.3695e-06	1.1863e-06	1483.1	389.8	1.4835e-06	1.1183e-06	427.5	149.87	130.68	44.841	1.3235e-06	55.219	49.483	28.576	40.242	-51.160	80.582	85.146	-51.168	-46.245	70.623	82.023	-47.303	-42.197	-42.134	-37.585	78.788	-38.532	-8191	255	
1167.872	1	1	0	0	0.12618	0.074237	0.2752	0.059237	0.090174	0.20339	0.16822	0.27988	0.075446	0.10714	0.073184	0.19862	0.16884	0.12947	0.23394	0.14161	-2.9562	-4.0646	-3.375	-3.6958	-4.0521	-3.2375	-4.2542	-3.8792	-3.2354	-4	-3.6729	-3.575	-4.1771	-3.3833	-3.8563	-4.1417	123.817	-31.262	-15.729	209.352	6.617	277.497	231.403	255.868	38.164	115.920	13.427	222.986	252.031	271.387	225.785	73.072	0.00040302	0.00046262	0.00016818	1475.6	4.1398e-06	5.3694e-06	1462.5	385.46	1.9699e-06	5.9004e-06	435.64	147.63	128.6	43.749	3.6098e-06	54.186	0.00020092	0.00010755	3.0089e-05	1485.8	1.3364e-06	1.2438e-06	1480.3	389.54	1.486e-06	1.1989e-06	427.17	149.71	130.54	44.781	1.341e-06	55.173	47.328	17.845	26.558	-51.165	80.731	91.834	-51.016	-46.544	77.855	74.852	-45.996	-42.404	-42.074	-37.510	64.883	-38.100	-8191	255	
1167.991	1	1	0	0	0.14235	0.28596	0.21718	0.18195	0.091774	0.28058	0.2049	0.061888	0.15238	0.33842	0.19002	0.22269	0.23684	0.24844	0.25869	0.22445	-2.8542	-4.1167	-3.5958	-3.6417	-4.0604	-3.2021	-3.9562	-4.0667	-3.2833	-3.9271	-3.4854	-3.4188	-4.1792	-3.5583	-3.9188	-4.1292	161.049	-14.178	174.939	267.592	87.419	277.712	240.578	16.534	-26.105	-55.057	275.980	286.767	270.952	-32.514	53.845	239.291	0.00047293	0.00057508	0.000154	1471.4	4.9309e-06	5.8936e-06	1473.1	385.69	3.3324e-06	5.577e-06	441.67	147.5	128.76	43.933	3.6793e-06	54.248	0.00019844	0.00010378	3.0361e-05	1485.3	1.3736e-06	1.1882e-06	1484.5	390.23	1.5238e-06	1.0873e-06	427.55	149.78	130.82	44.834	1.3876e-06	55.214	50.088	25.326	31.462	-50.881	83.592	96.373	-51.017	-46.312	110.351	86.570	-46.496	-42.320	-42.192	-37.569	76.529	-38.243	-8191	255	
1168.087	1	1	0	0	0.10782	0.17033	0.11999	0.29118	0.13456	0.12846	0.16604	0.24374	0.17868	0.2955	0.27149	0.071357	0.1962	0.18163	0.096624	0.13308	-2.5771	-3.9667	-3.575	-3.45	-4.1167	-3.3312	-3.6625	-4.2042	-3.3292	-3.9271	-3.7479	-3.4521	-4.1979	-3.4917	-3.5792	-4.3187	169.737	216.899	225.891	294.617	215.186	1.654	285.964	251.039	174.735	223.411	205.175	-54.884	260.430	263.176	217.289	197.998	0.00050501	0.00044393	0.00011489	1473.3	4.0081e-06	6.8791e-06	1465	384.34	4.6442e-06	3.4529e-06	439.13	147.37	128.53	43.964	5.3604e-06	54.144	0.0002017	0.00010555	2.9792e-05	1484.9	1.3606e-06	1.2289e-06	1479.8	390.01	1.5595e-06	1.0956e-06	428.73	149.47	130.88	44.894	1.2919e-06	55.323	44.030	10.883	30.159	-51.098	87.089	83.706	-51.375	-46.640	75.527	74.526	-47.216	-42.723	-42.123	-37.967	84.669	-38.631	-8191	255	
1168.161	1	1	0	0	0.2569	0.059961	0.10623	0.16641	0.22154	0.12893	0.34608	0.11193	0.24994	0.22338	0.085566	0.20561	0.10158	0.20375	0.10219	0.21494	-2.7812	-3.7188	-3.6125	-3.4625	-4.2042	-3.5396	-3.5958	-4.1708	-3.3292	-3.7958	-3.9854	-3.4458	-4.2646	-3.7042	-3.3563	-4.2583	-48.615	-43.249	177.215	-56.578	69.103	255.591	284.423	255.974	159.267	169.281	49.034	-63.357	-58.320	197.343	256.605	-23.254	0.00046179	0.00048424	0.00014378	1478.2	4.5731e-06	5.3983e-06	1469.9	384.65	2.6693e-06	4.6571e-06	440.17	147.09	128.68	44.065	4.5444e-06	54.539	0.00020461	0.00011483	3.0694e-05	1488.2	1.3934e-06	1.1472e-06	1483	389.99	1.5789e-06	1.0839e-06	428.58	149.67	130.97	44.896	1.3473e-06	55.426	39.866	22.222	26.101	-51.348	65.307	81.431	-51.403	-46.694	90.693	86.793	-47.587	-43.009	-42.434	-38.203	69.036	-38.697	-8191	255	
1168.280	1	1	0	0	0.067153	0.23591	0.099226	0.23324	0.01737	0.16435	0.2312	0.42538	0.067521	0.34414	0.063258	0.2585	0.22203	0.2718	0.039321	0.23532	-2.8854	-3.7646	-3.975	-3.3667	-3.9437	-3.7583	-3.4271	-4.3812	-3.425	-3.6771	-4.0042	-3.3208	-4.1583	-3.8646	-3.2917	-4.3958	119.916	61.231	82.988	-60.077	268.272	-1.920	191.934	220.859	183.762	-51.078	-26.488	216.036	6.450	-58.514	-42.883	204.934	0.00048514	0.00041915	0.00015196	1467.3	5.7083e-06	5.9771e-06	1464.5	383.87	4.873e-06	4.5294e-06	440.22	147.25	128.53	43.79	5.0551e-06	54.233	0.00019256	0.00011149	2.9761e-05	1481.1	1.4197e-06	1.2087e-06	1480.3	389.71	1.5373e-06	1.1894e-06	429.92	149.55	130.76	44.739	1.4114e-06	55.313	48.958	37.919	40.555	-51.640	75.338	84.006	-51.790	-47.110	76.288	80.029	-47.158	-43.119	-42.539	-38.258	97.603	-38.812	-8191	255	
1168.376	1	1	0	0	0.17298	0.15639	0.1363	0.14033	0.050716	0.14932	0.36325	0.20187	0.24815	0.0073281	0.15969	0.19966	0.12105	0.097638	0.12863	0.09968	-2.8792	-3.4167	-4.1458	-3.3708	-3.9104	-3.7333	-3.4292	-4.1521	-3.4125	-3.525	-4.1125	-3.4167	-3.9396	-3.9396	-3.2292	-4.075	220.828	-51.872	44.761	175.455	23.244	106.211	290.033	32.751	-48.998	233.038	215.480	-38.285	273.984	261.511	-24.996	283.288	0.00046078	0.00048156	0.00014782	1472.5	5.7811e-06	4.7053e-06	1462.7	385.1	4.7402e-06	4.2103e-06	438.44	147.37	128.52	43.833	2.6763e-06	54.207	0.0001998	0.00011373	2.9951e-05	1485.3	1.4321e-06	1.1137e-06	1479.8	390.72	1.4949e-06	1.1404e-06	428.55	149.5	130.66	44.842	1.3383e-06	55.18	49.449	23.680	28.140	-51.774	86.792	83.703	-51.606	-46.799	65.495	67.443	-47.595	-43.366	-42.874	-38.366	85.749	-38.932	-8191	255	
1168.472	1	1	0	0	0.19976	0.048313	0.030242	0.12539	0.13664	0.1456	0.32795	0.32799	0.23395	0.169	0.20544	0.22362	0.29905	0.19719	0.089331	0.33055	-3.1729	-3.4208	-4.0958	-3.4875	-3.8625	-3.9313	-3.4437	-4.1771	-3.6521	-3.2354	-3.9979	-3.4729	-3.8417	-3.9896	-3.2667	-4.1292	104.106	183.449	137.899	252.490	223.326	-32.145	259.517	262.840	71.266	272.858	181.124	210.454	8.116	258.146	62.274	207.907	0.00046175	0.00054548	0.00015111	1467.8	4.1524e-06	6.5262e-06	1465.7	385.99	4.9216e-06	5.3859e-06	441.3	147.57	128	43.835	3.9935e-06	54.131	0.00020517	0.00011229	3.0612e-05	1484.5	1.4273e-06	1.189e-06	1480.7	390.3	1.496e-06	1.1955e-06	426.89	149.83	130.67	44.776	1.3148e-06	55.212	49.881	26.548	27.052	-51.692	76.654	77.081	-51.961	-46.972	73.504	79.447	-47.469	-43.453	-42.857	-38.282	75.374	-39.077	-8191	255	
1168.592	1	1	0	0	0.13529	0.1382	0.20553	0.24941	0.15482	0.18862	0.23245	0.11664	0.29677	0.21196	0.10116	0.17742	0.10464	0.33425	0.10466	0.20005	-3.2542	-3.3083	-4.1979	-3.5438	-3.7667	-3.9875	-3.3208	-4.0875	-3.6312	-3.3438	-4.1875	-3.5771	-3.6229	-4.1292	-3.3125	-4.1292	137.642	248.054	-58.317	281.522	4.513	90.187	270.400	157.293	141.363	217.837	0.857	253.924	236.988	136.479	74.838	234.748	0.00047979	0.00058441	0.00019175	1473.4	4.6964e-06	6.6734e-06	1465.1	384.63	5.3865e-06	4.7016e-06	437.1	146.77	128.27	43.983	4.4559e-06	54.51	0.00019322	0.00011582	3.2053e-05	1483.3	1.337e-06	1.1311e-06	1480.4	389.82	1.4978e-06	1.2245e-06	427.05	149.51	130.67	44.857	1.3933e-06	55.354	50.086	7.078	17.138	-51.794	64.220	83.406	-51.900	-47.121	87.378	84.508	-47.879	-43.547	-42.755	-38.236	74.224	-38.856	-8191	255	
1168.689	1	1	0	0	0.27066	0.0037457	0.097157	0.45482	0.12476	0.062893	0.16815	0.15096	0.36039	0.10151	0.066598	0.097093	0.18057	0.068023	0.10156	0.12555	-3.4375	-3.4146	-4.0312	-3.5187	-3.4417	-4.0625	-3.3083	-4.0229	-3.8708	-3.3187	-4.0979	-3.8292	-3.6146	-4.1958	-3.2875	-4.0396	115.983	63.152	272.026	269.621	-45.334	204.116	158.388	261.577	-41.686	263.208	29.983	50.797	-40.792	274.917	36.036	-47.962	0.00043473	0.00067085	0.00013975	1470.9	4.0076e-06	5.4118e-06	1464.1	385.56	5.9552e-06	4.4604e-06	436.96	146.66	128.32	44.003	4.8776e-06	54.223	0.00019236	0.00012042	2.9694e-05	1483.7	1.4019e-06	1.095e-06	1477.4	390.23	1.4282e-06	1.1594e-06	426.9	149.36	130.61	44.893	1.413e-06	55.368	45.303	23.208	33.135	-52.046	94.642	83.243	-51.868	-46.985	85.165	83.183	-47.253	-43.516	-42.548	-38.562	74.281	-39.054	-8191	255	
1168.760	1	1	0	0	0.11804	0.12953	0.17776	0.14247	0.12545	0.1099	0.11411	0.1538	0.38827	0.097815	0.15945	0.16062	0.23501	0.1228	0.071995	0.46318	-3.6083	-3.3646	-4.0708	-3.8375	-3.3083	-4.1125	-3.7521	-4.0292	-4.025	-3.1292	-4.0021	-3.7833	-3.4021	-4.2375	-3.3146	-3.6042	-4.375	38.363	58.693	-58.902	163.490	294.371	290.387	26.294	6.156	222.605	124.507	234.361	268.846	-41.930	141.033	175.893	0.00044499	0.00057792	0.00016354	1462.5	4.2733e-06	5.6356e-06	1463.9	384.57	1.103e-06	6.4981e-06	436.39	146.91	128.37	43.872	5.2344e-06	54.095	0.00019446	0.0001195	2.9258e-05	1481.8	1.4431e-06	1.0431e-06	1478.8	389.82	1.4139e-06	1.217e-06	427.58	149.54	130.78	44.869	1.3694e-06	55.264	47.731	29.810	24.585	-51.758	69.222	78.603	-51.944	-47.011	41.923	81.177	-47.025	-43.345	-42.604	-38.127	70.642	-39.165	-8191	255	
1168.881	1	1	0	0	0.040155	0.31459	0.14855	0.20685	0.33434	0.17232	0.18398	0.23265	0.083774	0.37078	0.044517	0.21322	0.17864	0.2854	0.1882	0.23379	-3.6958	-3.4688	-3.9479	-3.8229	-3.3083	-4.125	-3.6042	-3.8292	-4.0188	-3.3312	-3.7646	-3.8104	-3.2208	-4.2438	-3.4792	-3.3792	223.911	-41.933	212.747	277.968	277.118	132.562	281.651	288.722	257.136	-16.573	226.062	291.362	269.190	253.317	24.603	-51.813	0.00042594	0.00064772	0.00016977	1470.6	4.1998e-06	5.9119e-06	1462.3	383.36	2.5621e-06	6.2441e-06	433.71	147.42	128.26	43.886	4.5157e-06	54.212	0.00018763	0.00011766	3.0633e-05	1482.3	1.4606e-06	1.1005e-06	1478.4	389.39	1.4397e-06	1.1607e-06	426.35	149.53	130.58	44.899	1.3718e-06	55.277	46.781	22.298	22.614	-51.970	81.340	85.698	-51.680	-46.932	54.656	79.914	-47.281	-43.237	-42.561	-38.209	65.001	-39.146	-8191	255	
1168.975	1	1	0	0	0.11884	0.11368	0.23448	0.24585	0.28676	0.20647	0.34989	0.29553	0.14852	0.14149	0.1031	0.20184	0.17285	0.085949	0.26263	0.11222	-3.6792	-3.2833	-3.875	-4.0062	-3.1063	-4.2042	-3.6125	-3.6375	-4.0938	-3.3708	-3.8	-3.9688	-3.4333	-4.0563	-3.5583	-3.5583	269.107	232.666	4.002	-57.221	-6.837	-14.350	258.873	239.562	268.403	119.535	33.270	43.926	28.174	252.867	256.367	216.127	0.00055635	0.00042751	0.00015782	1467.2	3.5938e-06	5.5662e-06	1462.1	383.92	4.7469e-06	4.696e-06	438.84	146.55	128.73	44.098	5.4083e-06	54.227	0.00019463	0.00011	3.0479e-05	1480.6	1.4811e-06	1.0486e-06	1477.3	389.13	1.4102e-06	1.1781e-06	426.78	149.48	130.79	44.962	1.3193e-06	55.255	42.413	42.764	33.170	-51.711	70.339	83.122	-51.845	-47.111	103.780	80.745	-47.490	-43.278	-42.502	-38.149	83.949	-38.971	-8191	255	
1169.071	1	1	0	0	0.021249	0.099177	0.073691	0.20956	0.039129	0.18309	0.020884	0.32639	0.34207	0.080661	0.16996	0.021574	0.37277	0.29739	0.10807	0.2656	-3.7042	-3.3667	-3.7979	-4.25	-3.2479	-4.0479	-3.9625	-3.4875	-4.2354	-3.4104	-3.6021	-4.1625	-3.325	-4.0062	-3.625	-3.3208	263.000	89.632	37.551	251.825	65.788	80.301	283.927	210.624	255.622	230.994	261.811	180.129	265.069	242.371	15.285	220.359	0.00050931	0.00053217	0.00012626	1470.2	5.0536e-06	6.512e-06	1465.1	384.74	3.574e-06	5.084e-06	431.51	146.79	128.22	43.792	3.4422e-06	54.214	0.00019712	0.0001207	3.254e-05	1484	1.4761e-06	1.0896e-06	1479.3	389.8	1.3877e-06	1.1201e-06	426.76	149.48	130.49	44.788	1.2862e-06	55.247	50.085	19.732	17.742	-51.824	76.809	75.341	-51.911	-47.138	88.115	91.490	-47.669	-43.351	-42.790	-38.174	78.515	-38.962	-8191	255	
1169.168	1	1	0	0	0.15969	0.31543	0.24273	0.15867	0.26537	0.019664	0.34991	0.24489	0.28025	0.071165	0.1015	0.20485	0.1552	0.27258	0.18032	0.25035	-3.6375	-3.5875	-3.5792	-4.325	-3.3396	-3.9229	-3.9208	-3.4	-4.1646	-3.4083	-3.5833	-4.2208	-3.2583	-4.0271	-3.8792	-3.4396	62.104	117.710	47.058	141.787	-5.355	265.742	232.690	242.458	90.969	254.097	231.626	266.346	212.418	208.555	-48.272	-54.165	0.00046589	0.00047347	0.00016996	1470	5.3688e-06	7.0468e-06	1462.1	384.73	5.4443e-06	5.3935e-06	438.42	147.13	128.53	44.028	2.543e-06	54.46	0.00019826	0.00011568	3.2914e-05	1481.6	1.4619e-06	1.1143e-06	1473.8	389.48	1.432e-06	1.2245e-06	428.13	149.38	130.52	44.911	1.2633e-06	55.351	45.202	40.227	32.696	-51.690	89.384	75.623	-51.631	-46.746	87.771	82.134	-47.343	-43.126	-42.588	-38.186	71.320	-39.006	-8191	255	
1169.264	1	1	0	0	0.15778	0.10536	0.14566	0.23303	0.27763	0.26347	0.12103	0.14899	0.29669	0.18627	0.043438	0.12399	0.27803	0.088677	0.25463	0.20491	-3.8229	-3.5583	-3.4333	-4.3021	-3.3479	-3.9333	-4.025	-3.4958	-4.0521	-3.4729	-3.0938	-4.1875	-3.3771	-3.8958	-4.0271	-3.4917	188.823	171.383	166.266	164.381	252.923	159.957	287.581	-51.325	124.753	48.048	294.801	266.126	-45.941	24.093	239.482	280.278	0.00048186	0.00054005	0.00017685	1466.5	4.0963e-06	7.1082e-06	1459.6	384.13	6.227e-06	5.1321e-06	429.62	147.07	128.39	43.876	5.0443e-06	54.463	0.00018698	0.0001175	3.1438e-05	1480.8	1.4309e-06	1.1464e-06	1475.3	389.05	1.3979e-06	1.19e-06	425.07	149.28	130.54	44.831	1.3249e-06	55.275	52.305	28.579	30.931	-51.779	70.575	85.520	-51.900	-46.871	64.258	87.505	-47.798	-43.096	-42.519	-38.245	67.213	-39.170	-8191	255	
1169.384	1	1	0	0	0.13419	0.070284	0.26737	0.32797	0.22065	0.26624	0.30993	0.19483	0.18141	0.18595	0.46504	0.15975	0.10544	0.099999	0.078881	0.14782	-3.6312	-3.5062	-3.2521	-4.2958	-3.2396	-3.6354	-4.1188	-3.4729	-3.9375	-3.8604	-3.4646	-4.2854	-3.4458	-3.6854	-4.0271	-3.2729	199.751	122.759	181.756	253.088	181.296	174.579	273.413	-40.829	-13.466	188.308	255.675	-52.031	280.122	178.592	177.976	206.588	0.00048984	0.00045409	0.00012002	1466.7	5.626e-06	5.4424e-06	1466.4	383.71	6.8266e-06	5.9496e-06	432	147.14	128.48	43.832	4.8468e-06	54.239	0.00019298	0.00010856	3.1258e-05	1480.6	1.3901e-06	1.2125e-06	1477.3	389.36	1.4386e-06	1.1485e-06	426	149.35	130.59	44.822	1.2714e-06	55.271	43.944	42.129	26.794	-51.752	95.841	86.993	-52.005	-46.877	100.737	82.697	-47.416	-43.406	-42.897	-38.214	63.235	-38.876	-8191	255	
1169.456	1	1	0	0	0.26629	0.045161	0.20952	0.16098	0.14837	0.20942	0.15329	0.094093	0.16418	0.1737	0.17135	0.098371	0.23442	0.13851	0.079691	0.1519	-3.45	-3.8021	-3.3083	-4.2771	-3.5938	-3.4188	-4.1521	-3.3	-3.9208	-3.7	-3.2792	-4.1521	-3.65	-3.5146	-4.1042	-3.3396	-2.896	215.086	208.351	-62.909	223.837	94.317	252.009	-55.496	144.565	253.431	116.285	196.976	275.677	222.345	6.229	232.464	0.00044126	0.00051505	0.0001354	1471.8	5.9896e-06	5.1116e-06	1459	382.88	2.8237e-06	4.3603e-06	437.87	146.49	128.5	43.968	4.2612e-06	54.173	0.00019106	0.00010674	3.1391e-05	1482.6	1.3899e-06	1.2482e-06	1476.3	388.61	1.439e-06	1.0754e-06	427.84	149.25	130.59	44.912	1.3215e-06	55.188	51.153	32.428	39.207	-51.610	82.202	80.797	-51.637	-46.999	102.207	83.286	-47.813	-43.150	-42.681	-38.037	79.548	-39.087	-8191	255	
1169.552	1	1	0	0	0.20918	0.21749	0.26258	0.26629	0.32922	0.14175	0.29102	0.31496	0.078343	0.1775	0.22131	0.072837	0.20436	0.1273	0.049465	0.22873	-3.3438	-3.9896	-3.2104	-4.0375	-3.6271	-3.3438	-4.2479	-3.4875	-3.6479	-4.1062	-3.1021	-4.0333	-3.7729	-3.375	-4.0604	-3.45	123.179	221.855	210.218	278.898	5.051	146.569	248.367	271.513	102.991	16.592	187.891	214.882	229.187	10.310	146.422	229.225	0.00049253	0.00072762	0.00015069	1472.1	5.8554e-06	6.2136e-06	1451.6	384.59	3.1111e-06	4.1088e-06	438.21	146.57	127.82	44.066	4.1797e-06	54.103	0.00020083	0.00011239	3.0607e-05	1483.1	1.4242e-06	1.1809e-06	1475.2	389.36	1.4721e-06	1.1787e-06	427.74	149.45	130.5	44.909	1.2359e-06	55.263	48.463	33.402	42.297	-51.785	73.384	85.118	-51.736	-47.025	74.999	82.750	-47.603	-43.222	-42.913	-38.326	95.356	-39.008	-8191	255	
1169.673	1	1	0	0	0.016196	0.17939	0.10346	0.15603	0.17948	0.083814	0.054897	0.089023	0.085086	0.156	0.24399	0.18925	0.18266	0.25542	0.22307	0.24758	-3.2042	-3.9917	-3.3	-3.9396	-3.9583	-3.2167	-4.0896	-3.6229	-3.5104	-3.925	-3.2042	-4.1208	-3.8812	-3.1375	-4.0375	-3.7	60.986	148.659	-0.483	216.776	153.342	-53.008	213.626	90.456	212.756	236.028	-6.218	198.320	-61.872	220.241	-47.564	103.743	0.00048023	0.00054616	0.00016341	1468.4	3.3281e-06	4.7142e-06	1463.7	383.5	4.3877e-06	6.0295e-06	435.87	147.24	128.56	43.954	5.838e-06	54.47	0.00019492	0.00011121	3.1417e-05	1482.8	1.3719e-06	1.2117e-06	1479.8	388.75	1.4492e-06	1.1165e-06	426.34	149.38	130.87	44.844	1.2899e-06	55.294	47.237	5.676	34.300	-51.653	79.087	93.054	-51.813	-47.027	79.354	91.290	-47.054	-43.425	-42.851	-38.350	78.360	-39.130	-8191	255	
1169.769	1	1	0	0	0.14067	0.064852	0.14541	0.1132	0.10863	0.13435	0.1858	0.48049	0.1643	0.15957	0.13473	0.15342	0.23588	0.20368	0.069078	0.10527	-3.0271	-4.2125	-3.275	-4.0396	-3.8563	-3.3146	-4.0417	-3.725	-3.3688	-4.1062	-3.2812	-3.8187	-4.0771	-3.3771	-3.975	-3.8125	287.638	125.475	199.837	221.060	279.746	165.517	-47.544	226.934	31.460	0.215	210.087	224.415	218.718	-38.570	243.621	-34.552	0.00046285	0.00053053	0.00012698	1469	4.4937e-06	5.4284e-06	1457.2	384.08	4.4252e-06	4.0741e-06	440.31	146.83	128.07	43.713	4.5983e-06	54.303	0.00019866	0.000109	3.0402e-05	1481.5	1.3686e-06	1.1997e-06	1475.7	389.09	1.539e-06	1.0537e-06	428.16	149.47	130.59	44.725	1.3339e-06	55.27	46.469	12.094	25.257	-51.537	81.411	86.078	-51.916	-47.208	115.628	84.978	-48.133	-43.257	-42.721	-38.250	79.168	-39.031	-8191	255	
1169.865	1	1	0	0	0.20642	0.31927	0.16935	0.29723	0.072884	0.16874	0.13815	0.088417	0.072679	0.26993	0.13525	0.18979	0.28378	0.14432	0.1112	0.21004	-3.0375	-4.1146	-3.3646	-3.825	-3.9771	-3.3292	-4.0417	-3.9896	-3.325	-4.0333	-3.3187	-3.6813	-3.975	-3.3229	-3.9479	-3.8333	39.952	62.781	208.018	275.667	53.698	145.551	256.932	185.884	191.961	194.660	125.657	256.127	241.596	198.048	162.767	-51.731	0.00046904	0.00046264	0.00015691	1473.3	4.8228e-06	5.3261e-06	1460.4	382.77	4.5808e-06	5.5659e-06	433.32	147.45	128.44	43.765	4.2125e-06	54.35	0.00019758	0.00010676	3.072e-05	1484.4	1.3891e-06	1.1975e-06	1476.5	388.63	1.5234e-06	1.0618e-06	424.91	149.39	130.57	44.763	1.2582e-06	55.263	47.038	10.459	21.329	-51.766	81.624	86.403	-52.120	-47.346	46.168	83.880	-48.382	-43.415	-42.947	-38.495	72.330	-39.143	-8191	255	
1169.961	1	1	0	0	0.15706	0.049646	0.029965	0.1708	0.035945	0.1043	0.033717	0.32912	0.23989	0.359	0.045531	0.16106	0.24281	0.38209	0.075607	0.35911	-2.7896	-4.05	-3.4625	-3.7562	-4.0604	-3.3271	-4.2167	-4.0875	-3.2438	-4.05	-3.6063	-3.7104	-4.0625	-3.3833	-3.8583	-4.1125	262.136	51.017	6.754	290.232	234.075	157.241	115.677	222.985	64.265	144.219	39.499	249.680	281.917	-44.491	43.191	-32.766	0.00043122	0.00060927	0.00018084	1467.6	4.7647e-06	4.8351e-06	1461.2	384.06	5.682e-06	3.3873e-06	437.01	146.73	128.53	43.771	5.1569e-06	54.05	0.00020122	0.00010018	3.0966e-05	1480.3	1.3095e-06	1.1648e-06	1475.6	388.87	1.5635e-06	1.0551e-06	426.02	149.35	130.73	44.781	1.301e-06	55.265	48.627	34.195	24.451	-51.768	84.284	80.727	-51.947	-47.220	84.186	73.614	-46.601	-43.163	-42.715	-38.483	65.849	-39.061	-8191	255	
1170.056	1	1	0	0	0.16949	0.15747	0.24911	0.32737	0.02369	0.19292	0.15931	0.42129	0.20565	0.035609	0.14413	0.23693	0.12837	0.10658	0.084247	0.049207	-2.8458	-4.1062	-3.5167	-3.45	-3.975	-3.4458	-3.7958	-4.1375	-3.2313	-4.0208	-3.6688	-3.4958	-4.1875	-3.4396	-3.6542	-4.1167	-15.523	-21.551	-64.754	280.956	264.412	31.001	225.396	233.909	29.066	280.416	199.382	231.589	-27.350	-22.475	179.392	196.526	0.0004684	0.00052346	0.00011643	1475.5	4.5616e-06	5.1362e-06	1458.9	382.67	2.7437e-06	4.9881e-06	438.13	147.45	127.67	43.954	3.2218e-06	54.511	0.00020151	0.00010264	3.0725e-05	1482.6	1.3651e-06	1.2115e-06	1474.7	388.82	1.5782e-06	1.0956e-06	426.82	149.56	130.4	44.846	1.3895e-06	55.286	49.112	16.406	15.002	-51.759	94.864	76.897	-52.120	-47.379	36.793	94.649	-47.677	-43.470	-42.632	-38.410	84.771	-39.002	-8191	255	
1170.152	1	1	0	0	0.23196	0.19863	0.069885	0.22195	0.095367	0.04797	0.22345	0.097168	0.16828	0.14118	0.10671	0.33484	0.11444	0.19098	0.16954	0.23784	-2.8396	-3.8312	-3.6875	-3.4354	-3.9896	-3.4458	-3.7271	-4.1979	-3.2667	-3.7729	-3.7812	-3.3729	-4.1417	-3.5021	-3.3792	-4.1958	90.558	205.243	-57.303	193.699	243.349	26.075	232.732	30.879	87.711	108.702	183.875	190.898	51.041	167.159	272.751	273.083	0.00042544	0.00051874	0.00017894	1470	4.8201e-06	6.2028e-06	1464.1	383.06	5.4442e-06	4.0384e-06	429.61	146.6	128.3	43.658	4.0411e-06	54.115	0.00020461	0.00010608	3.2109e-05	1479.2	1.3755e-06	1.2293e-06	1476.9	388.28	1.5074e-06	1.0687e-06	425.83	149.19	130.58	44.768	1.3379e-06	55.133	49.051	28.841	23.991	-51.796	95.313	78.068	-51.727	-46.987	104.120	78.661	-46.945	-42.855	-42.742	-37.975	85.404	-39.000	-8191	255	
1170.272	1	1	0	0	0.28068	0.16674	0.15137	0.35912	0.2724	0.13882	0.46421	0.31258	0.21506	0.14739	0.056057	0.16748	0.10707	0.14107	0.14159	0.03855	-2.7792	-3.75	-3.7396	-3.4583	-4.0354	-3.5	-3.6937	-4.1833	-3.2	-3.7979	-3.8583	-3.2646	-4.1937	-3.6875	-3.2625	-4.15	93.883	121.999	273.254	211.459	174.358	98.746	253.602	226.522	130.556	98.761	165.231	-16.231	187.627	16.865	174.898	32.648	0.00049495	0.00049574	0.00012959	1463.7	3.9606e-06	3.8058e-06	1456	382.97	2.7641e-06	3.9307e-06	437.92	146.69	128.22	43.804	6.5372e-06	54.121	0.00019732	0.0001152	2.9417e-05	1477.8	1.3734e-06	1.1354e-06	1475.3	388.8	1.4434e-06	1.1767e-06	428.12	149.3	130.49	44.786	1.4645e-06	55.196	48.664	17.580	39.481	-51.715	83.433	56.493	-51.654	-47.140	101.284	93.334	-48.233	-43.085	-42.555	-37.884	94.619	-38.733	-8191	255	
1170.369	1	1	0	0	0.089941	0.26585	0.14905	0.19512	0.09234	0.21274	0.20702	0.23197	0.099356	0.13407	0.15798	0.25596	0.13529	0.13955	0.017594	0.17233	-2.9625	-3.6562	-3.8542	-3.2854	-4.0708	-3.7313	-3.5208	-4.1458	-3.5417	-3.7875	-3.9333	-3.2938	-4.0125	-3.8917	-3.4938	-4.2625	188.227	-54.481	13.407	249.421	168.275	102.120	260.091	276.905	138.034	5.733	103.217	290.094	279.965	-52.571	34.447	218.405	0.0004901	0.00048967	0.00018156	1464.6	4.8325e-06	5.7061e-06	1463.1	385.14	2.5878e-06	4.3435e-06	437.51	146.84	128.35	43.809	5.6686e-06	54.203	0.00019606	0.00011404	3.1402e-05	1477.8	1.3697e-06	1.2198e-06	1475.3	389.14	1.4509e-06	1.1742e-06	425.79	149.31	130.47	44.779	1.4386e-06	55.257	47.255	15.162	25.668	-51.528	73.766	65.043	-51.514	-46.880	60.760	88.177	-46.867	-42.854	-42.393	-37.914	88.084	-38.771	-8191	255	
1170.465	1	1	0	0	0.14879	0.13033	0.11279	0.10998	0.050806	0.071616	0.065893	0.32439	0.087409	0.19735	0.1024	0.057255	0.26804	0.20334	0.1264	0.19895	-3.0187	-3.5312	-4.0563	-3.5354	-4.0208	-3.7292	-3.3917	-4.2229	-3.5833	-3.4292	-3.9437	-3.3896	-3.85	-3.8604	-3.1604	-4.1229	139.665	257.067	127.791	-17.749	202.597	294.904	233.449	276.409	70.349	-59.425	38.059	53.108	281.299	229.393	115.879	-21.363	0.00048095	0.00051856	0.00014896	1466.2	5.4747e-06	5.8508e-06	1458.7	383.35	1.8568e-06	5.1767e-06	433.69	146.53	128.5	43.911	4.041e-06	54.001	0.00019941	0.0001099	2.9033e-05	1477	1.373e-06	1.2024e-06	1473.1	388.59	1.5195e-06	1.2334e-06	426.35	149.16	130.78	44.754	1.3627e-06	55.271	41.711	26.771	15.050	-51.765	67.923	85.149	-51.708	-46.787	89.780	86.446	-47.144	-42.793	-42.406	-38.149	70.913	-38.768	-8191	255	
1170.561	1	1	0	0	0.081344	0.13244	0.1994	0.087449	0.18861	0.14923	0.34579	0.046484	0.15211	0.018598	0.0557	0.26778	0.21654	0.1043	0.22647	0.024586	-3.3208	-3.4938	-4.1833	-3.4396	-3.7521	-3.6979	-3.5083	-4.1417	-3.5438	-3.3917	-4.0813	-3.4625	-3.8979	-4.0021	-3.175	-4.1813	19.457	-21.840	215.413	-61.066	207.728	55.473	230.774	189.413	21.401	285.272	251.564	199.523	233.574	25.989	277.341	252.186	0.00045871	0.00055742	0.00014498	1467.2	6.7577e-06	5.1928e-06	1462.4	383.47	2.9141e-06	4.2189e-06	432.32	146.65	128.23	43.805	5.5993e-06	53.949	0.00019824	0.00011934	3.1002e-05	1478.1	1.4371e-06	1.2101e-06	1475.9	388.59	1.4669e-06	1.2151e-06	426.72	149.02	130.43	44.789	1.3621e-06	55.07	50.174	31.549	18.737	-51.374	76.322	91.236	-51.616	-46.822	88.294	90.813	-46.985	-42.991	-42.675	-38.443	49.924	-39.031	-8191	255	
1170.682	1	1	0	0	0.13571	0.092843	0.15821	0.26148	0.18369	0.072655	0.18334	0.15919	0.15979	0.12697	0.20182	0.15675	0.078752	0.018464	0.18368	0.1885	-3.2729	-3.5208	-4.0521	-3.6021	-3.7375	-4.0625	-3.4333	-4.0875	-3.6875	-3.1979	-4.0125	-3.5479	-3.5979	-3.9958	-3.1708	-3.7896	135.606	49.857	21.160	263.474	251.527	291.030	135.647	172.379	80.159	233.402	43.848	234.402	291.098	16.295	85.445	-61.524	0.00046532	0.00049332	0.00015128	1464.6	5.4386e-06	5.9384e-06	1461.4	383.24	5.7728e-06	5.6315e-06	430.24	147.51	128.38	43.615	4.285e-06	54.194	0.00019646	0.00012037	2.9966e-05	1477.4	1.3701e-06	1.1247e-06	1474.6	388.74	1.514e-06	1.2192e-06	424.35	149.52	130.56	44.72	1.4026e-06	55.114	43.711	20.124	29.728	-52.039	78.615	78.268	-52.124	-47.225	101.269	84.643	-48.242	-43.608	-42.739	-38.301	54.141	-39.021	-8191	255	
1170.753	1	1	0	0	0.14709	0.21321	0.077292	0.11475	0.22762	0.072341	0.15614	0.17045	0.30024	0.029703	0.14172	0.38304	0.080888	0.052855	0.12088	0.35084	-3.45	-3.4917	-4.0875	-3.7708	-3.6188	-4.2	-3.4417	-4.0042	-3.8979	-3.2125	-4.1792	-3.55	-3.5125	-4.1937	-3.3958	-3.7792	177.806	207.330	242.175	-36.636	206.593	217.729	176.568	263.655	49.583	88.758	34.084	268.446	257.960	195.745	146.524	226.117	0.00051203	0.00051073	0.00018257	1466.5	5.0537e-06	6.0349e-06	1454.7	383.67	3.7947e-06	5.7816e-06	426.15	147.47	128.49	44.005	5.824e-06	53.95	0.00019564	0.00011481	3.0679e-05	1478.1	1.4449e-06	1.176e-06	1472	389.11	1.4197e-06	1.2609e-06	423.85	149.19	130.42	44.751	1.3649e-06	55.178	47.252	33.068	31.936	-51.867	99.537	89.031	-52.182	-46.996	81.943	79.662	-47.873	-43.155	-42.797	-38.442	76.705	-38.946	-8191	255	
1170.849	1	1	0	0	0.16923	0.1674	0.093427	0.036934	0.17214	0.1478	0.10971	0.36583	0.064856	0.11571	0.13892	0.10541	0.14526	0.16271	0.098824	0.21111	-3.6688	-3.35	-3.9708	-3.8187	-3.4188	-4.0583	-3.3771	-3.8	-4	-3.1479	-3.8917	-3.8312	-3.4208	-4.0813	-3.2687	-3.7875	50.186	237.095	64.806	214.090	155.508	199.338	226.140	230.503	-15.810	76.083	211.008	243.706	282.210	-54.770	36.380	250.585	0.00049275	0.00056502	0.00015399	1463.2	5.5581e-06	5.7295e-06	1462.2	383.54	3.5018e-06	5.3826e-06	431.19	146.75	128.01	43.908	5.0454e-06	54.094	0.00019566	0.00011605	3.0853e-05	1476.9	1.4613e-06	1.0981e-06	1476.3	389.11	1.39e-06	1.2567e-06	426.35	149.2	130.37	44.77	1.3481e-06	55.177	43.279	26.857	15.769	-52.046	84.714	77.435	-51.948	-46.947	41.981	77.643	-46.707	-43.536	-42.378	-38.032	71.135	-38.906	-8191	255	
1170.946	1	1	0	0	0.086295	0.18112	0.26097	0.075462	0.091283	0.16075	0.1667	0.32617	0.12059	0.13752	0.079562	0.29313	0.18087	0.019341	0.029236	0.032051	-3.6042	-3.1958	-4.0188	-3.8729	-3.3	-4.0938	-3.6104	-3.7	-4.0417	-3.2625	-4.0042	-4.0083	-3.4188	-4.2167	-3.6167	-3.6646	-57.494	108.417	47.419	48.470	124.850	236.094	-56.900	254.504	102.642	-13.615	286.599	250.022	165.651	-16.685	266.186	186.456	0.00044489	0.00050572	0.00014079	1466.9	5.2418e-06	6.0357e-06	1461.3	383.47	4.9057e-06	4.766e-06	437.92	146.92	128.91	43.807	4.6576e-06	54.072	0.00019407	0.00011023	2.9212e-05	1478.4	1.4691e-06	1.1141e-06	1474.2	389.02	1.4904e-06	1.2018e-06	426.69	149.12	130.82	44.749	1.3195e-06	55.221	47.685	27.806	17.974	-52.059	86.538	80.363	-52.158	-47.112	104.182	93.623	-47.566	-43.495	-42.488	-38.213	60.277	-38.958	-8191	255	
1171.064	1	1	0	0	0.14408	0.07301	0.088602	0.20924	0.051604	0.19368	0.17665	0.15145	0.081804	0.19541	0.17879	0.1239	0.48368	0.15256	0.051837	0.38884	-3.8458	-3.4688	-3.6688	-3.9688	-3.2542	-3.9792	-3.7417	-3.7458	-4.0646	-3.4188	-3.7167	-4.0563	-3.3792	-4.1146	-3.6	-3.6437	17.267	-44.968	-48.978	224.778	278.026	95.666	265.932	189.787	2.355	187.509	-46.887	252.055	274.912	66.043	288.932	258.967	0.00045761	0.0004993	0.00013506	1464.2	5.4544e-06	6.7018e-06	1456.1	382.93	4.2451e-06	5.5833e-06	438.16	147.04	128.06	43.907	4.3327e-06	54.234	0.00019177	0.00010829	2.9653e-05	1477.7	1.4222e-06	1.0971e-06	1472.6	389.25	1.4361e-06	1.1521e-06	426.17	149.25	130.41	44.806	1.3221e-06	55.213	47.492	23.591	27.685	-51.817	83.680	94.024	-51.894	-46.949	70.726	85.513	-47.671	-43.291	-42.776	-38.312	76.952	-39.088	-8191	255	
#DATA ENDS
