BOXY.EXE: ISS Imagent and Oximeter Data Acquisition Program Version 0.80
Ascii Record File

#ACQ INFORMATION
2  Detector Channels 
16  External MUX Channels 
1  Auxiliary Channels 
5000  Waveform (CCF) Frequency (Hz)
1  Waveforms Skipped 
30  Waveforms Averaged 
1  Cycles Averaged 
16  Acquisitions per Waveform 
10.0806  Updata Rate (Hz) 

#FILE INFORMATION
TRUE -- External MUX Channel results are PARSED.
FALSE -- AC DC and Phase are NOT grouped.
TRUE -- Companion Program Settings File CREATED.
FALSE -- AC data not excluded
FALSE -- DC data not excluded
FALSE -- Phase data not excluded
FALSE -- Auxillary Chn. data not excluded
Tab delimiters

#CALIBRATION STATE
TRUE -- Waveform Calibration Values APPLIED.


#AUX CALIBRATION VALUES
Val Type	aux-1	

Term	1.0000e+00	
Factor	0.0000e+00	


#WF CALIBRATION VALUES
A = Detector Channel
Val Type	A-AC1	A-AC2	A-AC3	A-AC4	A-AC5	A-AC6	A-AC7	A-AC8	A-AC9	A-AC10	A-AC11	A-AC12	A-AC13	A-AC14	A-AC15	A-AC16	A-DC1	A-DC2	A-DC3	A-DC4	A-DC5	A-DC6	A-DC7	A-DC8	A-DC9	A-DC10	A-DC11	A-DC12	A-DC13	A-DC14	A-DC15	A-DC16	A-Ph1	A-Ph2	A-Ph3	A-Ph4	A-Ph5	A-Ph6	A-Ph7	A-Ph8	A-Ph9	A-Ph10	A-Ph11	A-Ph12	A-Ph13	A-Ph14	A-Ph15	A-Ph16	

Term	0.00000e+00	0.00000e+00	0.00000e+00	0.00000e+00	0.00000e+00	0.00000e+00	0.00000e+00	0.00000e+00	0.00000e+00	0.00000e+00	0.00000e+00	0.00000e+00	0.00000e+00	0.00000e+00	0.00000e+00	0.00000e+00	0.00000e+00	0.00000e+00	0.00000e+00	0.00000e+00	0.00000e+00	0.00000e+00	0.00000e+00	0.00000e+00	0.00000e+00	0.00000e+00	0.00000e+00	0.00000e+00	0.00000e+00	0.00000e+00	0.00000e+00	0.00000e+00	0.00000e+00	0.00000e+00	0.00000e+00	0.00000e+00	0.00000e+00	0.00000e+00	0.00000e+00	0.00000e+00	0.00000e+00	0.00000e+00	0.00000e+00	0.00000e+00	0.00000e+00	0.00000e+00	0.00000e+00	0.00000e+00	
Factor	1.00000e+00	1.00000e+00	1.00000e+00	1.00000e+00	1.00000e+00	1.00000e+00	1.00000e+00	1.00000e+00	1.00000e+00	1.00000e+00	1.00000e+00	1.00000e+00	1.00000e+00	1.00000e+00	1.00000e+00	1.00000e+00	1.00000e+00	1.00000e+00	1.00000e+00	1.00000e+00	1.00000e+00	1.00000e+00	1.00000e+00	1.00000e+00	1.00000e+00	1.00000e+00	1.00000e+00	1.00000e+00	1.00000e+00	1.00000e+00	1.00000e+00	1.00000e+00	X	X	X	X	X	X	X	X	X	X	X	X	X	X	X	X	

B = Detector Channel
Val Type	B-AC1	B-AC2	B-AC3	B-AC4	B-AC5	B-AC6	B-AC7	B-AC8	B-AC9	B-AC10	B-AC11	B-AC12	B-AC13	B-AC14	B-AC15	B-AC16	B-DC1	B-DC2	B-DC3	B-DC4	B-DC5	B-DC6	B-DC7	B-DC8	B-DC9	B-DC10	B-DC11	B-DC12	B-DC13	B-DC14	B-DC15	B-DC16	B-Ph1	B-Ph2	B-Ph3	B-Ph4	B-Ph5	B-Ph6	B-Ph7	B-Ph8	B-Ph9	B-Ph10	B-Ph11	B-Ph12	B-Ph13	B-Ph14	B-Ph15	B-Ph16	

Term	0.00000e+00	0.00000e+00	0.00000e+00	0.00000e+00	0.00000e+00	0.00000e+00	0.00000e+00	0.00000e+00	0.00000e+00	0.00000e+00	0.00000e+00	0.00000e+00	0.00000e+00	0.00000e+00	0.00000e+00	0.00000e+00	0.00000e+00	0.00000e+00	0.00000e+00	0.00000e+00	0.00000e+00	0.00000e+00	0.00000e+00	0.00000e+00	0.00000e+00	0.00000e+00	0.00000e+00	0.00000e+00	0.00000e+00	0.00000e+00	0.00000e+00	0.00000e+00	-2.23846e+00	-1.31119e+02	-1.35896e+02	-1.81478e+02	-5.32445e+01	-6.29258e+01	-1.58115e+02	-1.62015e+02	-5.21912e+01	-6.51356e+01	-1.73607e+02	-1.71776e+02	-1.83012e+02	-1.76573e+02	-5.74558e+01	-1.49837e+02	
Factor	3.30459e-05	1.49444e-04	4.39707e-05	1.58432e-01	1.72561e-06	1.36174e-06	1.67435e-01	4.77828e-02	1.66550e-06	1.80684e-06	9.40725e-02	2.82132e-02	5.96618e-02	8.24392e-03	1.74084e-06	1.21984e-02	3.04457e-06	3.32303e-06	9.25805e-07	8.43004e-02	3.58660e-08	3.66680e-08	8.32303e-02	2.54810e-02	3.58404e-08	3.65924e-08	4.79435e-02	1.44760e-02	3.08274e-02	4.42958e-03	3.60998e-08	6.29450e-03	X	X	X	X	X	X	X	X	X	X	X	X	X	X	X	X	



#DISTANCE SETTINGS
A = Detector Channel
A-1	A-2	A-3	A-4	A-5	A-6	A-7	A-8	A-9	A-10	A-11	A-12	A-13	A-14	A-15	A-16	

2.5000e+00	3.0000e+00	2.5000e+00	3.0000e+00	2.0000e+00	3.0000e+00	1.5000e+00	3.0000e+00	3.0000e+00	3.0000e+00	3.0000e+00	3.0000e+00	3.0000e+00	3.0000e+00	1.5000e+00	3.0000e+00	

B = Detector Channel
B-1	B-2	B-3	B-4	B-5	B-6	B-7	B-8	B-9	B-10	B-11	B-12	B-13	B-14	B-15	B-16	

1.0000e+01	1.0000e+01	1.0000e+01	1.4400e+00	1.0000e+01	1.0000e+01	1.5100e+00	1.9400e+00	1.0000e+01	1.0000e+01	1.9900e+00	2.4900e+00	2.4100e+00	2.9000e+00	1.0000e+01	2.9800e+00	




#DATA BEGINS
time	group	step	mark	flag	A-AC1	A-AC2	A-AC3	A-AC4	A-AC5	A-AC6	A-AC7	A-AC8	A-AC9	A-AC10	A-AC11	A-AC12	A-AC13	A-AC14	A-AC15	A-AC16	A-DC1	A-DC2	A-DC3	A-DC4	A-DC5	A-DC6	A-DC7	A-DC8	A-DC9	A-DC10	A-DC11	A-DC12	A-DC13	A-DC14	A-DC15	A-DC16	A-Ph1	A-Ph2	A-Ph3	A-Ph4	A-Ph5	A-Ph6	A-Ph7	A-Ph8	A-Ph9	A-Ph10	A-Ph11	A-Ph12	A-Ph13	A-Ph14	A-Ph15	A-Ph16	B-AC1	B-AC2	B-AC3	B-AC4	B-AC5	B-AC6	B-AC7	B-AC8	B-AC9	B-AC10	B-AC11	B-AC12	B-AC13	B-AC14	B-AC15	B-AC16	B-DC1	B-DC2	B-DC3	B-DC4	B-DC5	B-DC6	B-DC7	B-DC8	B-DC9	B-DC10	B-DC11	B-DC12	B-DC13	B-DC14	B-DC15	B-DC16	B-Ph1	B-Ph2	B-Ph3	B-Ph4	B-Ph5	B-Ph6	B-Ph7	B-Ph8	B-Ph9	B-Ph10	B-Ph11	B-Ph12	B-Ph13	B-Ph14	B-Ph15	B-Ph16	aux-1	digaux	

1140.763	1	1	0	256	0.21711	0.19671	0.17188	0.16987	0.094621	0.11258	0.10549	0.043935	0.020808	0.21261	0.23786	0.22006	0.15328	0.11385	0.37407	0.26528	-0.84583	-2.3333	-1.3271	-1.775	-2.0104	-1.225	-2.3167	-2.0104	-1.3438	-2.2333	-1.5042	-1.8208	-2.5208	-1.3417	-1.9792	-1.9521	44.889	124.871	64.487	167.520	30.321	44.193	147.427	-82.402	84.206	-70.170	-161.946	-120.896	-114.219	-150.340	8.631	141.350	0.00037557	0.00031364	7.4883e-05	964.99	3.1386e-06	1.9045e-06	1062	203.21	3.6398e-06	2.1253e-06	261.45	73.424	57.768	16.683	4.1868e-06	23.53	5.8652e-05	2.763e-05	8.8742e-06	947.21	4.0342e-07	3.5537e-07	1042.1	200.78	4.1791e-07	3.1767e-07	257.61	73.078	55.791	16.641	3.4708e-07	23.514	-30.892	-53.376	-84.102	-153.744	-19.762	-7.052	-153.976	-146.475	-32.386	13.306	-146.999	-139.716	-139.535	-132.348	-2.129	-133.427	-8191	255	
1140.835	1	1	0	0	0.11592	0.13063	0.021513	0.038794	0.12328	0.033398	0.35058	0.070668	0.12962	0.071382	0.15425	0.16717	0.063944	0.10933	0.1018	0.35828	-0.88333	-2.3667	-1.4708	-1.6146	-2.1063	-1.2708	-2.1417	-2.0792	-1.3375	-2.075	-1.525	-1.5333	-2.3417	-1.3604	-1.9646	-1.8333	14.643	96.537	106.468	65.292	-104.148	171.215	92.443	-114.418	-135.556	12.134	118.375	-37.302	112.183	22.676	-105.110	39.101	0.00039537	0.000197	6.8899e-05	964.52	2.5303e-06	2.394e-06	1063.1	203.68	4.2938e-06	1.7325e-06	262.55	73.807	58.208	16.691	3.6023e-06	23.601	5.7542e-05	3.0323e-05	8.5e-06	946.39	3.6987e-07	3.4613e-07	1041	200.88	3.988e-07	2.964e-07	257.37	73.231	55.829	16.687	3.2896e-07	23.537	-35.695	-79.182	-40.176	-154.082	-7.891	-32.061	-153.931	-146.717	-24.698	-32.898	-147.185	-140.464	-140.221	-132.250	-12.644	-133.195	-8191	255	
1140.931	1	1	0	0	0.23296	0.27354	0.30301	0.40921	0.25848	0.10908	0.17075	0.14607	0.14513	0.15709	0.30304	0.072157	0.15928	0.12982	0.054201	0.16702	-0.76667	-2.2458	-1.8146	-1.4688	-2.2333	-1.3687	-1.8146	-2.1979	-1.225	-2.1604	-1.7625	-1.3896	-2.2208	-1.625	-1.7917	-2.2833	-57.018	53.839	22.285	90.103	80.011	-57.278	-149.227	93.079	23.767	95.556	194.678	135.961	168.985	-135.661	111.468	-152.810	0.00035572	0.00034787	6.0451e-05	966.18	1.9269e-06	2.8378e-06	1062.8	203.05	4.5051e-06	3.3396e-06	261.1	73.599	58.577	16.657	2.5031e-06	23.562	5.642e-05	2.9893e-05	8.4827e-06	948.32	3.7719e-07	3.3093e-07	1041.7	200.76	4.0873e-07	3.1111e-07	257.21	73.152	55.993	16.654	3.5318e-07	23.51	-28.988	-94.568	-108.797	-153.918	-15.344	-21.859	-154.065	-146.755	-34.148	10.821	-147.060	-140.743	-140.109	-132.650	27.079	-133.470	-8191	255	
1141.052	1	1	0	0	0.15953	0.13012	0.21887	0.097361	0.042729	0.12028	0.22176	0.14051	0.42637	0.14369	0.23051	0.27909	0.14768	0.099143	0.18089	0.059239	-0.7875	-2.0083	-1.8229	-1.3917	-2.2479	-1.4396	-1.5833	-2.225	-1.4104	-1.9167	-1.9729	-1.3646	-2.0896	-1.5938	-1.4792	-2.3958	-28.328	-83.610	-42.966	3.929	90.836	-145.938	67.733	63.976	48.815	125.320	-95.252	-155.893	-54.072	-133.038	183.953	138.106	0.0004016	0.000369	6.4188e-05	961.8	2.1568e-06	2.1911e-06	1064.6	203.32	2.8354e-06	2.5329e-06	261.88	73.618	58.355	16.754	3.2989e-06	23.567	5.727e-05	3.1804e-05	8.3207e-06	946.28	3.8339e-07	3.556e-07	1043.4	200.98	4.1448e-07	3.0097e-07	258.18	73.096	56.115	16.716	3.7649e-07	23.574	-33.175	-74.162	-75.241	-154.017	-1.518	2.375	-154.030	-146.331	-22.913	-21.606	-147.017	-140.269	-139.873	-132.493	-7.683	-133.127	-8191	255	
1141.148	1	1	0	0	0.10776	0.059669	0.18234	0.19647	0.019268	0.2162	0.26515	0.31506	0.10037	0.22467	0.29622	0.3757	0.085014	0.024942	0.22376	0.30289	-0.98333	-1.95	-1.8625	-1.275	-2.1833	-1.5083	-1.6313	-2.3146	-1.3229	-2	-2.0521	-1.4208	-2.2542	-1.65	-1.2917	-2.4125	84.616	115.780	136.824	139.699	0.355	175.618	149.864	99.423	120.940	-124.606	55.853	103.798	92.195	130.002	185.288	87.222	0.00040431	0.00033338	7.2019e-05	964.62	2.7285e-06	2.2475e-06	1059.3	204.69	2.0947e-06	4.6092e-06	261.51	73.6	58.274	16.636	2.9262e-06	23.385	5.5963e-05	2.9997e-05	7.4045e-06	947.28	3.7928e-07	3.0434e-07	1041.5	201.5	3.8103e-07	3.1104e-07	257.38	73.11	55.826	16.652	3.5528e-07	23.542	-30.860	-71.932	-67.268	-154.063	-50.749	-26.876	-154.049	-146.523	-28.597	9.231	-146.899	-140.315	-139.666	-132.371	-46.432	-132.760	-8191	255	
1141.244	1	1	0	0	0.068923	0.061351	0.19083	0.1561	0.088979	0.040358	0.066519	0.2276	0.30121	0.17219	0.34657	0.16482	0.34434	0.22332	0.32059	0.12261	-0.99583	-1.7625	-1.8896	-1.3333	-1.9896	-1.9062	-1.4542	-2.1562	-1.4604	-1.5167	-2.1146	-1.2854	-2.0292	-1.625	-1.3104	-2.1729	154.154	160.522	90.720	96.545	-95.881	20.399	12.618	66.689	-69.083	-45.995	84.587	-61.420	67.274	86.324	4.089	88.927	0.00036284	0.00028858	4.0335e-05	961.93	3.273e-06	2.1125e-06	1062.1	204.11	2.7707e-06	2.9372e-06	262.71	74.026	58.56	16.523	1.8683e-06	23.459	5.5443e-05	3.0053e-05	7.6803e-06	944.42	4.008e-07	3.0564e-07	1041	201.67	3.7991e-07	3.2239e-07	257.83	73.356	55.761	16.627	3.4859e-07	23.539	-29.848	-67.181	-70.053	-154.045	-51.539	1.215	-153.929	-146.204	-47.711	-18.663	-147.077	-140.424	-139.803	-132.758	-15.740	-132.999	-8191	255	
1141.340	1	1	0	0	0.24229	0.078684	0.17078	0.29249	0.15714	0.13104	0.18861	0.064902	0.20522	0.12208	0.18822	0.11483	0.096628	0.11834	0.081014	0.31705	-1.1021	-1.5646	-2.2479	-1.5292	-1.8438	-1.8854	-1.5312	-2.1979	-1.4479	-1.6104	-2.1625	-1.3958	-1.8958	-2.025	-1.2083	-2.175	173.790	5.344	194.668	123.221	-109.981	-94.758	78.655	27.138	-41.328	-94.826	-141.729	184.419	124.045	-30.632	-148.276	187.568	0.00038159	0.00026688	5.6591e-05	967.08	2.8495e-06	2.7436e-06	1064.6	203.65	3.7813e-06	1.3932e-06	261.63	74.06	57.758	16.76	2.8393e-06	23.374	5.4529e-05	2.6515e-05	7.2483e-06	949.21	3.6337e-07	2.9884e-07	1042.5	201.06	3.7543e-07	3.2232e-07	257.55	73.31	55.913	16.687	3.4859e-07	23.491	-29.442	-43.641	-76.770	-154.049	-7.718	-4.339	-153.987	-146.699	-12.451	-26.581	-146.732	-140.250	-139.803	-132.461	-20.661	-132.710	-8191	255	
1141.436	1	1	0	0	0.14039	0.1696	0.15323	0.278	0.20058	0.11954	0.22144	0.14117	0.25763	0.11657	0.2768	0.2996	0.32544	0.053585	0.22164	0.24855	-1.0688	-1.3	-2.1875	-1.5792	-1.8708	-2.0729	-1.3062	-2.3333	-1.6146	-1.3979	-2.2833	-1.2542	-1.7625	-2.1437	-1.3292	-2.1292	158.778	172.179	-57.290	-24.122	136.141	116.065	128.967	122.506	-149.304	152.889	58.043	131.163	114.569	123.958	111.681	98.340	0.00039755	0.00028138	6.5323e-05	963.39	2.8109e-06	2.717e-06	1064.1	204.71	3.5489e-06	2.0237e-06	261.95	74.069	58.362	16.668	1.668e-06	23.648	5.3407e-05	2.781e-05	7.3409e-06	945.85	3.5492e-07	3.0534e-07	1043.2	201.8	3.7393e-07	2.9381e-07	257.88	73.297	56.027	16.682	3.2873e-07	23.615	-33.920	-71.342	-72.724	-154.246	-33.095	9.515	-153.962	-146.247	-31.356	-7.312	-146.867	-140.202	-139.829	-132.581	-18.329	-132.473	-8191	255	
1141.532	1	1	0	0	0.20546	0.25023	0.21034	0.19963	0.41683	0.039297	0.38072	0.031559	0.099166	0.11402	0.11934	0.12427	0.14086	0.40744	0.16673	0.24056	-1.25	-1.5042	-2.2313	-1.4896	-1.7792	-2.0062	-1.3917	-2.1396	-1.9042	-1.2646	-2.1667	-1.4875	-1.6625	-2.2667	-1.2792	-2.125	-66.437	150.373	-122.991	110.784	136.300	52.478	88.509	25.384	-66.674	-88.201	154.969	-159.551	-128.520	94.336	-99.265	-132.137	0.00036173	0.00024456	8.1473e-05	965.01	1.7907e-06	1.7783e-06	1064.3	204.35	2.4785e-06	2.0571e-06	261.86	73.316	57.887	16.788	3.4349e-06	23.725	5.0977e-05	2.6647e-05	7.2116e-06	947.07	3.6673e-07	2.6454e-07	1042.7	201.76	3.3361e-07	3.1104e-07	258.35	73.069	56.038	16.727	3.452e-07	23.667	-30.794	-80.929	-95.129	-153.640	-42.561	-5.524	-154.085	-146.600	-54.835	-21.820	-146.923	-140.177	-139.732	-132.712	-15.948	-133.461	-8191	255	
1141.628	1	1	0	0	0.1504	0.093151	0.27361	0.27833	0.11497	0.30554	0.24438	0.06512	0.13244	0.098858	0.15632	0.28873	0.27046	0.19684	0.3191	0.048185	-1.4688	-1.4125	-2.0979	-1.7417	-1.4396	-2.4208	-1.3792	-1.9937	-2.1042	-1.1896	-2.1625	-1.5521	-1.3604	-2.3521	-1.325	-1.8333	-90.779	-79.616	-115.459	137.285	128.749	-89.770	186.074	-148.865	75.819	67.965	101.965	142.780	31.015	-117.927	140.139	-20.470	0.00038946	0.00028338	7.2612e-05	967.07	3.8687e-06	2.8612e-06	1060.7	204.61	3.6768e-06	2.4483e-06	262.5	73.972	57.853	16.674	2.7332e-06	23.553	5.236e-05	3.0572e-05	7.1152e-06	947.1	3.872e-07	2.9693e-07	1041.8	201.78	3.7408e-07	3.15e-07	258.75	73.342	55.875	16.732	3.1347e-07	23.594	-28.783	-75.919	-82.067	-153.792	-21.117	4.919	-154.257	-146.752	-31.626	3.131	-146.933	-140.157	-139.771	-133.007	-11.291	-133.244	-8191	255	
1141.749	1	1	0	0	0.29053	0.1973	0.16103	0.21162	0.05799	0.2464	0.01601	0.038687	0.13429	0.095097	0.066028	0.10651	0.17012	0.24129	0.070936	0.21492	-1.5708	-1.3042	-2.3167	-1.5562	-1.3042	-2.2438	-1.5167	-2.0687	-1.9896	-1.225	-2.2417	-1.7125	-1.3854	-2.2375	-1.2771	-1.8125	175.274	158.003	-90.764	184.041	128.442	-23.517	-51.652	-29.930	-52.431	-144.917	-22.595	105.401	144.414	195.704	140.839	100.408	0.00036684	0.00045608	4.9986e-05	959.24	2.6534e-06	2.3961e-06	1056	203.76	2.9285e-06	1.8233e-06	262	73.741	58.296	16.643	2.9189e-06	23.464	5.2176e-05	3.1403e-05	6.9493e-06	944.53	3.7913e-07	2.747e-07	1040.6	201.59	3.5198e-07	3.163e-07	258.69	73.297	55.95	16.7	3.2016e-07	23.566	-26.724	-80.390	-40.462	-153.853	-17.514	-20.853	-154.078	-146.266	-31.694	-22.492	-146.622	-140.371	-139.814	-132.406	-33.356	-132.672	-8191	255	
1141.843	1	1	0	0	0.1924	0.045364	0.33124	0.14077	0.26993	0.41568	0.18821	0.41117	0.25674	0.04391	0.19026	0.18754	0.38692	0.073674	0.10731	0.13973	-1.8646	-1.2625	-2.0292	-1.6875	-1.3333	-2.2229	-1.5729	-1.75	-2.2521	-1.25	-2.1813	-1.8312	-1.3062	-2.3042	-1.6	-1.8146	-27.971	92.580	56.810	-67.693	174.838	-161.874	97.618	141.659	33.342	131.843	-56.827	172.737	-157.723	122.593	-161.706	55.327	0.00034816	0.00012641	8.2165e-05	963.58	3.1987e-06	2.2395e-06	1062.1	204.42	3.3709e-06	2.4131e-06	261.46	74.048	58.133	16.776	3.3951e-06	23.499	5.0565e-05	3.078e-05	7.0458e-06	944.95	3.8705e-07	2.6852e-07	1042.4	201.63	3.4922e-07	3.1012e-07	257.82	73.199	56.201	16.735	3.1933e-07	23.583	-31.834	-132.074	-85.477	-154.191	-34.243	-7.938	-154.144	-146.478	-30.157	-35.272	-147.112	-140.380	-140.133	-132.537	-5.446	-133.678	-8191	255	
1141.940	1	1	0	0	0.15024	0.11231	0.017873	0.28292	0.15372	0.19917	0.18243	0.21365	0.033657	0.071537	0.19399	0.14852	0.33108	0.13963	0.082726	0.19792	-1.9562	-1.2313	-1.9708	-2.0625	-1.2125	-2.3	-1.7104	-1.3813	-2.1875	-1.3458	-2.0687	-2.0187	-1.3854	-2.1333	-1.7458	-1.4312	174.519	-152.758	111.339	115.085	103.704	2.194	139.283	-29.207	-23.828	62.426	-94.824	-104.444	127.178	79.839	-27.338	-159.163	0.00038542	0.00021659	6.6105e-05	965.68	2.7885e-06	3.2297e-06	1060.8	204.13	4.1304e-06	1.4752e-06	262.14	73.897	58.103	16.657	2.6265e-06	23.365	5.1618e-05	2.6937e-05	7.3447e-06	947.1	3.8997e-07	2.5652e-07	1041.7	201.15	3.3332e-07	2.9876e-07	258	73.403	55.821	16.643	3.1971e-07	23.565	-30.191	-46.167	-87.261	-154.251	-24.397	13.655	-154.311	-146.724	-23.575	-11.038	-147.069	-140.408	-140.185	-132.925	-41.479	-133.273	-8191	255	
1142.036	1	1	0	0	0.051488	0.11508	0.23285	0.15607	0.23921	0.019114	0.1953	0.13026	0.068481	0.10797	0.039374	0.031528	0.43689	0.27781	0.10138	0.18154	-1.8417	-1.425	-1.75	-2.0271	-1.2896	-2.1437	-1.8042	-1.45	-2.1688	-1.5375	-1.9208	-2.1646	-1.0312	-2.1833	-1.7542	-1.3646	-0.606	148.049	14.425	138.040	98.951	-40.318	133.950	-152.534	194.917	66.675	104.233	-62.094	-140.803	-130.789	27.209	165.230	0.00039603	0.00026622	6.0161e-05	966.15	2.6286e-06	2.5362e-06	1055.6	204.83	3.3837e-06	3.2547e-06	262.24	73.855	58.07	16.708	2.6252e-06	23.648	5.2994e-05	2.8426e-05	7.2907e-06	945.79	3.689e-07	2.7134e-07	1039.6	201.59	3.5803e-07	2.9297e-07	258.33	73.298	55.997	16.7	3.2099e-07	23.589	-33.160	-79.112	-74.105	-154.141	-21.190	-20.082	-154.422	-146.380	-33.096	-7.560	-147.248	-140.040	-139.964	-132.678	-25.229	-133.107	-8191	255	
1142.132	1	1	0	0	0.29976	0.076146	0.15285	0.24271	0.19761	0.20663	0.30251	0.33954	0.24462	0.26324	0.47629	0.19511	0.24594	0.11475	0.20669	0.09199	-1.9229	-1.2625	-1.5958	-2.3458	-1.1229	-2.0646	-1.8854	-1.35	-2.0917	-1.6063	-1.8	-2.3229	-1.2833	-1.9604	-1.9604	-1.3854	-79.734	36.263	-138.119	168.270	194.725	21.764	140.935	-108.747	-164.445	-107.899	182.916	147.817	131.657	50.403	193.997	-83.010	0.00037059	0.00020878	6.9243e-05	965.89	4.0612e-06	1.4695e-06	1057.8	203.27	4.307e-06	2.3787e-06	262.5	74.331	58.302	16.7	2.8029e-06	23.694	5.3014e-05	2.5885e-05	7.2946e-06	946.25	3.6695e-07	2.7241e-07	1038.9	201.14	3.3877e-07	2.7178e-07	258.06	73.283	56.101	16.698	2.903e-07	23.592	-28.923	-76.286	-78.672	-154.041	-39.893	2.043	-154.277	-146.605	-29.325	-15.937	-147.011	-140.124	-139.506	-132.588	25.948	-133.091	-8191	255	
1142.228	1	1	0	0	0.25844	0.27282	0.098042	0.037722	0.13674	0.50633	0.20726	0.21405	0.13825	0.1834	0.18113	0.23858	0.19318	0.14568	0.061256	0.022516	-1.7729	-1.7771	-1.4167	-2.4437	-1.2729	-1.8417	-2.2292	-1.3979	-1.9708	-1.8375	-1.5604	-2.3625	-1.3188	-1.9062	-1.8875	-1.3083	-159.266	-13.714	120.901	56.300	159.702	-70.033	137.283	133.726	-147.115	14.522	-80.053	138.709	-128.072	-98.497	123.987	-91.339	0.00044591	0.00035499	9.3092e-05	962.28	3.5385e-06	1.5658e-06	1056.5	204.08	3.2454e-06	2.9855e-06	261.29	73.246	58.298	16.723	2.2447e-06	23.593	5.1834e-05	2.7588e-05	7.933e-06	943.68	3.7428e-07	2.7333e-07	1038.1	201.42	3.4452e-07	2.7902e-07	258.13	73.172	55.975	16.684	2.8805e-07	23.553	-29.760	-73.753	-56.728	-154.022	-44.941	-18.554	-154.181	-146.351	-0.493	12.436	-146.941	-140.511	-139.999	-132.687	-20.138	-133.050	-8191	255	
1142.349	1	1	0	0	0.17726	0.078633	0.25581	0.18116	0.20323	0.23444	0.14025	0.22484	0.22741	0.19421	0.15976	0.06746	0.22468	0.093115	0.053233	0.19569	-1.8146	-1.8417	-1.3542	-2.1854	-1.2708	-1.8396	-2.3708	-1.2271	-2.2125	-1.6396	-1.4729	-2.2458	-1.3896	-1.7479	-2.3563	-1.4604	71.159	-17.660	-138.730	145.131	51.350	-0.509	82.945	171.667	175.038	176.405	-138.751	-116.397	-133.364	56.317	-136.230	31.098	0.0003684	0.00022129	7.1232e-05	963.35	2.3126e-06	1.8979e-06	1056.2	203.49	3.3257e-06	1.6568e-06	260.42	74.242	57.153	16.518	4.236e-06	23.576	4.9633e-05	2.6307e-05	7.4759e-06	944.51	3.5634e-07	2.6951e-07	1037.4	200.73	3.3339e-07	2.6918e-07	257.53	73.503	55.425	16.645	2.888e-07	23.555	-30.964	-55.229	-70.263	-153.767	-36.939	10.113	-153.980	-146.335	-40.369	-17.965	-146.603	-140.222	-139.634	-132.180	9.400	-132.908	-8191	255	
1142.445	1	1	0	0	0.14647	0.13686	0.18625	0.22515	0.16876	0.17903	0.27337	0.23449	0.054902	0.08527	0.12576	0.28846	0.21675	0.37993	0.16578	0.051021	-1.6333	-1.95	-1.1833	-2.3229	-1.5083	-1.6458	-2.3563	-1.1958	-2.0333	-1.8896	-1.275	-2.3063	-1.5646	-1.6708	-2.1646	-1.3083	-129.413	61.339	-83.168	135.565	-82.701	-18.601	129.785	42.216	77.066	-16.989	-147.923	-94.481	163.511	-141.027	74.988	89.128	0.00038172	8.5536e-05	7.6228e-05	955.97	2.4026e-06	1.9255e-06	1054.7	203.84	3.2034e-06	2.778e-06	261.01	73.488	57.814	16.608	3.2783e-06	23.605	4.9607e-05	2.4016e-05	7.1499e-06	941.26	3.5014e-07	2.6943e-07	1037.1	200.56	3.4131e-07	2.7147e-07	257.26	73.089	55.795	16.632	2.8895e-07	23.552	-27.952	-44.691	-75.722	-153.796	-53.063	-0.637	-153.982	-146.296	-62.761	22.022	-146.790	-140.201	-140.096	-132.075	-13.644	-133.245	-8191	255	
1142.541	1	1	0	0	0.21445	0.33979	0.21352	0.15041	0.046127	0.23168	0.18876	0.08002	0.35629	0.085036	0.094721	0.074908	0.054306	0.20893	0.13626	0.34301	-1.525	-2.0896	-1.5	-2.3438	-1.6125	-1.3771	-2.3229	-1.3458	-1.6938	-2.0479	-1.4708	-2.1729	-1.7958	-1.35	-2.4	-1.2146	-69.086	-99.897	112.751	161.174	154.016	-5.313	69.204	-160.728	-141.786	182.224	150.519	180.286	-108.676	11.994	85.783	150.973	0.00037695	0.00022775	6.9934e-05	955.8	3.0193e-06	2.1349e-06	1050.4	204.45	2.9226e-06	2.7022e-06	260.93	74.108	57.567	16.611	5.372e-06	23.524	5.0337e-05	2.4175e-05	7.6591e-06	941.37	3.4887e-07	2.9999e-07	1034.5	201.14	3.3705e-07	2.8397e-07	257.61	73.367	55.764	16.615	3.1437e-07	23.497	-32.173	-99.273	-79.752	-153.855	-4.890	-8.896	-154.161	-146.395	-44.856	1.796	-146.701	-139.808	-140.503	-132.402	-16.203	-132.894	-8191	255	
1142.637	1	1	0	0	0.27938	0.1022	0.18544	0.2981	0.11785	0.16732	0.32709	0.21584	0.038182	0.16924	0.013269	0.04248	0.14013	0.33434	0.082486	0.17984	-1.3125	-2.0479	-1.1812	-2.1312	-1.8646	-1.2917	-2.4875	-1.5604	-1.8125	-2.2167	-1.2854	-2.0604	-2.0292	-1.4583	-2.4354	-1.6125	73.928	-74.404	-50.311	100.643	117.605	-54.370	149.403	133.642	-110.038	36.400	181.420	121.461	121.462	-121.653	66.137	16.829	0.00040257	0.00016189	6.1848e-05	959.55	2.2886e-06	1.6164e-06	1050	203.94	3.981e-06	3.5198e-06	259.96	73.738	57.937	16.631	1.718e-06	23.409	5.3584e-05	2.5684e-05	7.6842e-06	940.97	3.5806e-07	2.9961e-07	1035.7	200.62	3.3033e-07	2.7681e-07	256.38	73.023	55.734	16.652	2.8564e-07	23.443	-26.794	-78.008	-70.967	-153.745	-14.031	-7.381	-153.920	-146.224	-33.480	1.134	-146.593	-139.992	-140.354	-132.363	-11.934	-132.728	-8191	255	
1142.732	1	1	0	0	0.066876	0.2891	0.13396	0.33469	0.25793	0.35432	0.060028	0.33005	0.21526	0.087898	0.20707	0.16742	0.16151	0.049181	0.18081	0.31288	-1.1896	-2.3292	-1.4167	-1.85	-2.1083	-1.3958	-2.4521	-1.5562	-1.3521	-2.1583	-1.4354	-1.7896	-2.025	-1.3104	-2.275	-1.5	-69.868	32.602	119.340	80.828	-146.635	52.017	168.090	117.537	-58.994	76.897	96.851	83.974	-29.298	31.132	7.867	165.716	0.00041927	0.00020639	4.4698e-05	961.23	2.8101e-06	2.1497e-06	1056.2	203.51	3.685e-06	2.498e-06	263.4	73.928	57.884	16.609	3.1762e-06	23.527	5.4212e-05	2.2375e-05	6.714e-06	943.73	3.2862e-07	2.9923e-07	1037	200.69	3.7274e-07	2.6263e-07	257.89	73.371	55.737	16.634	2.8963e-07	23.457	-32.393	-75.750	-67.585	-153.690	-17.733	19.312	-153.210	-146.004	-33.645	-1.755	-145.928	-139.052	-138.908	-131.199	-58.005	-131.063	-8191	255	
1142.828	1	1	0	0	0.17742	0.035628	0.22741	0.20953	0.18694	0.13945	0.19831	0.27527	0.015877	0.10921	0.041034	0.06075	0.10322	0.1323	0.053893	0.34801	-1.175	-2.1646	-1.3917	-2.075	-2.1188	-1.3208	-2.3438	-1.9792	-1.3146	-2.2042	-1.3937	-1.9438	-2.1625	-1.3813	-2.0958	-1.7792	-137.305	-69.937	-121.440	-156.836	145.212	-161.239	130.529	156.248	146.582	-129.921	-4.477	20.655	126.201	13.602	-15.889	-47.742	0.00041795	0.00021569	5.8943e-05	965.89	3.0029e-06	1.2216e-06	1053.1	203.78	3.5094e-06	2.9544e-06	261.15	74.403	57.54	16.726	4.236e-06	23.442	5.1231e-05	2.3192e-05	6.905e-06	943.56	3.3393e-07	2.5943e-07	1035.3	201.02	3.3989e-07	2.5051e-07	257.1	73.456	55.79	16.673	2.8782e-07	23.531	-31.723	-82.224	-89.115	-152.562	-9.282	14.439	-152.463	-145.113	-27.275	9.606	-145.092	-138.402	-137.939	-131.326	-33.314	-131.983	-8191	255	
1142.924	1	1	0	0	0.094319	0.089321	0.079572	0.34929	0.037581	0.23883	0.35427	0.21145	0.31299	0.075111	0.27706	0.096068	0.2039	0.20461	0.23689	0.16478	-1.0083	-2.3187	-1.3917	-1.9646	-2.2479	-1.3708	-2.1708	-1.8854	-1.3833	-2.2021	-1.5875	-1.425	-2.1396	-1.3479	-1.9188	-2.175	39.623	164.562	159.385	135.706	96.527	-8.322	146.375	80.572	-147.911	164.671	163.571	-119.932	78.741	-124.510	-119.886	46.263	0.00039003	0.00019725	6.6137e-05	963.98	2.4332e-06	2.7052e-06	1058.5	203.7	3.4709e-06	3.0786e-06	261.27	74.084	58.114	16.761	4.4749e-06	23.536	5.2056e-05	2.333e-05	7.1827e-06	943.21	3.3124e-07	2.8066e-07	1036	201.21	3.3817e-07	2.4837e-07	257.59	73.32	56.026	16.689	3.0534e-07	23.52	-31.214	-64.377	-90.728	-151.523	-37.117	16.699	-152.105	-145.074	-35.309	-9.883	-145.393	-139.312	-138.997	-131.280	-4.185	-131.954	-8191	255	
1143.020	1	1	0	0	0.13487	0.021645	0.073992	0.24556	0.12491	0.13337	0.22184	0.15909	0.16628	0.10297	0.16578	0.15206	0.10281	0.2007	0.27209	0.2113	-0.97292	-2.2313	-1.5479	-1.5854	-2.1479	-1.3375	-2.1708	-1.9854	-1.2812	-2.1437	-1.8125	-1.575	-2.3937	-1.3083	-1.6292	-2.0417	-93.897	195.591	-13.300	75.752	-122.831	-153.878	160.830	116.449	-71.425	162.063	-60.533	-120.337	-60.106	-141.175	-158.952	-32.177	0.00040041	0.00013748	4.6298e-05	959.62	2.4172e-06	1.6672e-06	1056.4	203.82	3.5435e-06	4.4574e-06	262.48	73.728	57.854	16.77	1.6865e-06	23.638	5.2696e-05	2.4909e-05	6.9513e-06	941.35	3.2556e-07	2.6745e-07	1035.6	201	3.4437e-07	2.7757e-07	257.18	73.111	55.693	16.708	2.9143e-07	23.525	-32.543	-70.072	-80.945	-152.434	-39.133	18.498	-152.494	-145.542	-60.706	8.769	-145.863	-138.513	-138.615	-131.579	6.624	-132.119	-8191	255	
1143.141	1	1	0	0	0.16907	0.083658	0.19439	0.13	0.07436	0.23232	0.18799	0.23259	0.14711	0.032518	0.14748	0.2365	0.13289	0.23637	0.25321	0.049732	-0.87708	-2.1104	-1.6208	-1.6417	-2.3333	-1.4792	-2.0667	-2.1688	-1.0938	-2.1	-1.8937	-1.2604	-2.2333	-1.475	-1.7563	-2.2687	-91.130	41.053	110.026	130.185	23.618	27.003	-160.039	-148.510	44.688	75.016	-7.542	-124.716	150.036	21.563	-89.930	135.100	0.00040829	0.00025342	7.3287e-05	954.21	3.627e-06	2.3233e-06	1052.7	202.43	3.3253e-06	1.7392e-06	260.92	74.188	57.722	16.607	3.1059e-06	23.552	5.2506e-05	2.3247e-05	6.9551e-06	939.75	3.4192e-07	2.9159e-07	1034.9	200.1	3.7304e-07	2.8473e-07	257.77	73.167	55.571	16.62	3.2121e-07	23.475	-33.573	-86.038	-89.615	-152.208	-14.785	5.599	-152.748	-145.341	-46.389	-1.914	-145.946	-138.711	-139.144	-131.313	-22.937	-132.296	-8191	255	
1143.237	1	1	0	0	0.11377	0.24021	0.19726	0.33032	0.33213	0.13083	0.073429	0.12638	0.1179	0.046871	0.24075	0.42091	0.12175	0.041958	0.17093	0.090468	-0.79167	-1.8521	-1.7	-1.2208	-2.2542	-1.6167	-1.725	-2.2562	-1.2667	-1.9833	-1.9813	-1.2229	-2.2125	-1.5104	-1.5375	-2.4625	-38.752	19.634	-162.187	179.479	-76.667	-5.973	-93.620	-147.936	160.759	52.437	126.638	-36.958	69.787	185.157	130.678	-18.249	0.00035228	0.00016186	8.7429e-05	959.63	3.2795e-06	2.0402e-06	1054	203.19	4.2629e-06	3.6974e-06	261.27	73.311	57.629	16.644	3.1602e-06	23.36	5.2335e-05	2.3524e-05	7.202e-06	942.2	3.2847e-07	2.7272e-07	1035	200.47	3.7043e-07	2.7391e-07	257.01	72.882	55.653	16.614	2.9873e-07	23.435	-32.629	-85.326	-103.086	-152.925	-14.798	-25.178	-152.880	-145.686	-32.265	-21.402	-145.848	-139.376	-138.519	-131.528	-27.258	-132.393	-8191	255	
1143.308	1	1	0	0	0.19746	0.092816	0.21532	0.09828	0.2152	0.37007	0.089673	0.076528	0.022184	0.13282	0.20139	0.075016	0.18871	0.27258	0.27695	0.064704	-0.925	-1.7083	-1.9854	-1.4354	-2.2792	-1.425	-1.4667	-2.1875	-1.2396	-1.725	-2.2042	-1.1958	-2.1917	-1.6771	-1.3042	-2.1625	-129.730	18.404	-115.422	-88.887	151.494	-76.371	-57.086	119.126	135.917	-156.867	-149.973	124.915	139.828	-162.495	0.835	-131.848	0.0003707	0.00030766	9.4569e-05	957.86	1.7628e-06	3.5366e-06	1054	203.88	4.7082e-06	2.4139e-06	261.08	73.813	58.25	16.751	3.5301e-06	23.456	5.4682e-05	2.6058e-05	6.8471e-06	940.39	3.4977e-07	2.8853e-07	1034.9	200.84	3.6251e-07	2.6705e-07	257.31	73.129	55.846	16.606	3.1294e-07	23.457	-28.054	-70.431	-70.430	-152.724	-23.128	-9.115	-152.740	-144.998	-24.122	-8.553	-145.818	-138.590	-138.971	-130.632	-32.310	-131.872	-8191	255	
1143.429	1	1	0	0	0.22148	0.069387	0.13706	0.18504	0.064073	0.09944	0.21035	0.13454	0.1355	0.17606	0.19257	0.13292	0.080073	0.20721	0.15332	0.42454	-0.97083	-1.6021	-2.0333	-1.2	-2.05	-1.7354	-1.4604	-2.2458	-1.125	-1.5792	-2.2917	-1.4104	-2.1813	-1.8979	-1.4396	-2.2875	-51.921	2.852	87.310	105.164	-53.522	4.086	-147.845	140.650	131.893	-21.208	-57.453	-114.766	-72.758	178.366	151.845	116.872	0.00036825	0.00027998	6.3472e-05	955.38	2.5955e-06	1.9611e-06	1053.4	203.38	2.3582e-06	2.3195e-06	262.42	73.556	58.246	16.619	3.0471e-06	23.534	5.3565e-05	2.5553e-05	6.6118e-06	938.38	3.3886e-07	2.5477e-07	1033.7	200.85	3.3518e-07	2.6613e-07	257.1	73.131	56.052	16.613	3.2054e-07	23.51	-32.604	-76.491	-64.025	-152.444	-21.282	2.837	-152.865	-145.001	-28.951	-52.195	-145.505	-138.529	-138.924	-131.556	-4.111	-132.401	-8191	255	
1143.525	1	1	0	0	0.092667	0.16025	0.078379	0.29273	0.18634	0.15527	0.23177	0.05691	0.22717	0.31006	0.33658	0.045929	0.19979	0.080977	0.19097	0.22306	-1.1479	-1.5812	-2.2375	-1.4396	-1.9604	-1.9521	-1.3042	-2.4125	-1.5979	-1.5792	-2.3333	-1.2417	-1.85	-2.0167	-1.3646	-2.3021	176.767	-81.171	-76.979	170.539	-5.954	63.787	66.007	89.151	82.423	-15.713	-86.409	176.233	-124.030	-138.989	78.397	-13.819	0.00038911	0.00027288	8.641e-05	951.74	4.1578e-06	2.0414e-06	1053.8	204.97	4.0129e-06	2.7602e-06	262.47	73.362	57.451	16.597	2.956e-06	23.539	5.0451e-05	2.6252e-05	6.7468e-06	937.54	3.3774e-07	2.5798e-07	1033.2	201.3	3.5796e-07	2.7223e-07	257.52	73.08	55.756	16.599	2.9895e-07	23.504	-31.532	-82.517	-83.007	-152.464	-21.522	-17.874	-152.798	-144.821	-49.227	11.834	-145.304	-138.497	-138.221	-131.178	-19.772	-131.693	-8191	255	
1143.621	1	1	0	0	0.075012	0.17172	0.10534	0.18031	0.16348	0.18056	0.36018	0.57961	0.11726	0.3055	0.1671	0.039947	0.1125	0.32702	0.023792	0.15354	-1.4583	-1.425	-2.0958	-1.5417	-1.8021	-2.125	-1.4604	-2.0604	-1.6833	-1.4979	-2.3312	-1.5292	-1.7521	-2.1354	-1.2833	-2.1208	79.894	86.695	136.138	140.655	14.066	-11.290	133.464	138.552	71.020	160.016	59.129	-12.820	-16.599	139.619	-146.891	77.731	0.0003374	0.0002124	4.342e-05	959.83	1.8671e-06	2.2341e-06	1054.4	204.61	3.073e-06	3.581e-06	261.8	73.851	57.633	16.674	3.4019e-06	23.497	4.9208e-05	2.6037e-05	6.4768e-06	940.55	3.4028e-07	2.6554e-07	1033.4	200.99	3.1846e-07	2.7925e-07	257.62	73.066	55.724	16.68	2.9812e-07	23.509	-32.314	-79.062	-106.730	-152.411	-40.297	-5.023	-152.626	-145.545	-13.288	1.345	-145.226	-139.014	-139.119	-131.197	-9.655	-131.872	-8191	255	
1143.718	1	1	0	0	0.081395	0.27475	0.24133	0.24396	0.30243	0.19031	0.28135	0.18455	0.079535	0.27636	0.27958	0.12223	0.047876	0.17389	0.28777	0.28625	-1.4188	-1.3479	-2.2854	-1.6125	-1.6437	-2.1729	-1.2542	-2.0354	-1.8042	-1.1208	-2.2	-1.675	-1.5812	-2.175	-1.3229	-1.9354	-100.518	-138.872	-42.534	173.977	-74.965	151.162	155.954	166.810	71.764	54.819	-157.593	90.852	29.193	152.947	188.875	130.961	0.00039212	0.00029128	7.3893e-05	959.53	2.9207e-06	1.9138e-06	1053.4	203.59	3.1721e-06	2.2847e-06	260.81	74.021	57.377	16.602	2.0438e-06	23.583	4.8567e-05	2.513e-05	6.5327e-06	939.34	3.4529e-07	2.4583e-07	1035	201.17	3.095e-07	2.5226e-07	257.55	73.267	55.685	16.621	2.9722e-07	23.575	-32.993	-58.183	-101.258	-153.105	-36.577	3.145	-153.073	-145.593	-47.899	-28.377	-146.269	-139.522	-139.139	-131.564	-15.051	-132.074	-8191	255	
1143.836	1	1	0	0	0.18497	0.15585	0.19955	0.20218	0.16765	0.14927	0.14161	0.42835	0.15098	0.30006	0.20786	0.23297	0.11237	0.14042	0.41999	0.14509	-1.6896	-1.1896	-2.1125	-1.6208	-1.3188	-2.2396	-1.3292	-1.8708	-1.9667	-1.2646	-2.3104	-1.8438	-1.4854	-2.3583	-1.3333	-1.8292	-51.723	67.479	39.639	116.381	-39.796	4.170	101.812	187.482	-142.932	40.426	-117.805	149.810	-137.950	-142.653	9.238	-16.623	0.00036959	0.00029675	8.73e-05	955.74	2.8502e-06	1.8952e-06	1053.4	203.37	3.7996e-06	3.7192e-06	261.6	74.035	58.064	16.665	3.2546e-06	23.565	4.9481e-05	2.4611e-05	6.3707e-06	939.1	3.4768e-07	2.236e-07	1033.5	200.47	3.1681e-07	2.8443e-07	257.5	73.243	55.857	16.646	2.9609e-07	23.455	-29.374	-68.575	-69.551	-153.621	-4.138	-24.560	-153.127	-145.709	-25.506	-9.652	-146.015	-139.500	-138.866	-131.604	-25.975	-132.389	-8191	255	
1143.933	1	1	0	0	0.020547	0.087628	0.14859	0.38981	0.26041	0.167	0.4086	0.25086	0.21072	0.30311	0.12769	0.27124	0.19467	0.10943	0.29203	0.15696	-1.6917	-1.3563	-2.0521	-1.7979	-1.2437	-2.2896	-1.5708	-1.7417	-2.05	-1.1542	-2.1688	-1.9354	-1.1833	-2.2687	-1.4583	-1.7979	-20.254	-71.634	167.594	179.785	-53.519	151.331	107.314	-162.443	7.841	193.653	-137.896	91.889	179.614	-2.531	96.003	-154.255	0.00040989	0.00017862	9.4457e-05	959.46	2.8536e-06	1.8616e-06	1055.6	203.72	3.7903e-06	2.2805e-06	262.35	73.048	57.622	16.614	2.209e-06	23.387	5.0686e-05	2.6827e-05	7.4682e-06	940.31	3.3864e-07	2.362e-07	1034.9	201.02	3.4056e-07	2.8649e-07	257.26	72.71	55.651	16.547	3.0046e-07	23.517	-31.094	-79.749	-83.138	-152.766	-13.797	-23.299	-153.168	-145.075	-37.108	-48.981	-146.047	-139.731	-138.813	-132.014	-30.547	-132.538	-8191	255	
1144.029	1	1	0	0	0.26406	0.11655	0.1702	0.25076	0.22117	0.169	0.21566	0.21959	0.066246	0.22041	0.12952	0.27765	0.31308	0.28484	0.16676	0.14471	-1.6583	-1.025	-2.0062	-1.8979	-1.2271	-2.3333	-1.7979	-1.8125	-2.2417	-1.1729	-2.1083	-1.9458	-1.1688	-2.2208	-1.6417	-1.4625	-112.467	-140.082	14.034	61.109	-44.332	-112.287	147.026	-148.739	-45.767	17.798	170.339	162.134	-44.579	-125.158	-81.481	-162.210	0.00038306	0.00023073	6.225e-05	953.65	4.153e-06	2.2163e-06	1055	203.62	4.1717e-06	3.0487e-06	260.98	73.979	58.235	16.621	2.596e-06	23.484	5.1415e-05	2.5587e-05	7.1441e-06	938.26	3.9087e-07	2.7104e-07	1034.6	200.67	3.2719e-07	2.9442e-07	257.69	73.173	55.663	16.617	2.8541e-07	23.417	-29.296	-58.766	-75.191	-153.584	-27.734	-9.649	-153.799	-146.153	-45.445	-27.725	-146.868	-140.053	-138.894	-131.893	-16.841	-133.024	-8191	255	
1144.125	1	1	0	0	0.054035	0.2347	0.19393	0.17354	0.16198	0.17682	0.28884	0.134	0.030293	0.076642	0.19534	0.12848	0.29074	0.028708	0.24509	0.13996	-1.7625	-1.2583	-1.85	-2.0938	-1.1979	-2.0292	-1.875	-1.6125	-2.2833	-1.2396	-1.9438	-2.1312	-1.1896	-2.2771	-1.5958	-1.4104	88.692	77.073	76.203	-117.785	43.548	53.541	155.227	90.445	-107.760	-82.043	129.111	171.972	-115.566	-113.835	112.270	75.591	0.00037454	0.00025814	8.5909e-05	954.9	2.9024e-06	2.0564e-06	1048.7	202.91	2.9706e-06	2.8828e-06	262.46	73.567	58.169	16.614	2.9689e-06	23.141	4.9385e-05	2.6245e-05	6.5269e-06	937	3.5694e-07	2.5522e-07	1031.5	200.54	3.1375e-07	2.8443e-07	257.64	73.086	55.816	16.656	3.073e-07	23.363	-29.306	-87.083	-75.715	-153.945	-4.716	-32.470	-154.086	-146.103	-30.751	0.718	-146.637	-139.959	-139.472	-132.642	-22.509	-132.483	-8191	255	
1144.221	1	1	0	0	0.31487	0.25797	0.30673	0.11487	0.11934	0.21631	0.12847	0.082514	0.34116	0.33298	0.14092	0.14271	0.11479	0.044765	0.059705	0.30909	-2.0979	-1.225	-1.4146	-2.2458	-1.0438	-2.0292	-2.0312	-1.3354	-2.1875	-1.3208	-1.7708	-2.35	-1.1333	-2.2083	-1.925	-1.2854	135.255	166.753	13.664	135.848	19.152	51.550	2.736	15.912	-40.513	134.715	115.344	75.276	-129.429	-143.368	157.252	26.337	0.0003886	0.00018987	6.3785e-05	960.15	2.9979e-06	2.386e-06	1052.2	202.46	3.4043e-06	3.7627e-06	261.51	73.543	57.573	16.578	1.8375e-06	23.518	5.2868e-05	2.6501e-05	7.0496e-06	938.16	3.828e-07	2.815e-07	1032.4	200.54	3.5049e-07	3.0029e-07	256.76	72.972	55.576	16.621	3.1302e-07	23.423	-30.501	-67.013	-85.557	-153.734	-10.519	-15.877	-154.033	-146.179	-24.116	-31.300	-146.590	-140.013	-139.467	-132.924	31.241	-133.071	-8191	255	
1144.317	1	1	0	0	0.26236	0.23248	0.29526	0.1581	0.15173	0.056509	0.26905	0.10444	0.26884	0.072934	0.5191	0.1722	0.028811	0.32358	0.079053	0.1168	-1.7854	-1.5625	-1.2729	-2.1917	-1.15	-1.9271	-2.2042	-1.3625	-2.2542	-1.7229	-1.5187	-2.0563	-1.3083	-1.9	-2.125	-1.3271	98.371	83.976	-13.227	67.840	151.847	68.215	89.483	-124.888	-54.433	-111.531	76.756	147.240	156.677	123.675	-133.526	-144.182	0.00039678	0.00024469	8.3242e-05	954.68	1.6065e-06	2.7915e-06	1053.1	202.91	1.6076e-06	2.9209e-06	259.99	73.711	57.388	16.564	3.8149e-06	23.459	4.9874e-05	2.738e-05	7.825e-06	937.05	3.7779e-07	2.7921e-07	1031.7	200.3	3.5616e-07	2.9152e-07	256.64	72.941	55.638	16.621	3.0971e-07	23.493	-30.796	-67.073	-79.529	-153.961	-13.809	-16.895	-153.936	-146.235	-21.994	-21.801	-146.750	-140.165	-139.675	-132.223	-20.635	-133.288	-8191	255	
1144.438	1	1	0	0	0.19677	0.099739	0.044588	0.22029	0.096192	0.2136	0.058063	0.18136	0.14942	0.064338	0.15495	0.1047	0.29869	0.23449	0.32958	0.21924	-1.8729	-1.6688	-1.4521	-2.3896	-1.2521	-1.8396	-2.1625	-1.4438	-1.95	-1.7479	-1.4083	-2.2083	-1.3146	-1.7979	-2.0896	-1.3229	-161.379	189.093	0.604	95.754	32.424	143.380	-105.033	193.816	-80.856	3.928	190.037	18.737	-110.799	-110.566	115.327	90.857	0.00038196	0.00028178	7.5573e-05	951.13	2.3619e-06	1.9454e-06	1043.9	201.91	4.0185e-06	2.8806e-06	261.94	73.7	57.594	16.551	3.3409e-06	23.445	5.0229e-05	2.5483e-05	7.3505e-06	936.37	3.6987e-07	2.6798e-07	1028.7	200.07	3.4661e-07	2.762e-07	257.39	72.96	55.486	16.557	3.0497e-07	23.469	-31.976	-96.819	-94.871	-153.611	-26.081	-20.227	-153.617	-146.184	-25.887	-19.648	-147.009	-139.996	-139.458	-131.709	-7.125	-133.107	-8191	255	
1144.534	1	1	0	0	0.074539	0.18701	0.066778	0.079213	0.33795	0.29308	0.41175	0.19889	0.236	0.099442	0.23366	0.24458	0.066145	0.057166	0.1891	0.28922	-1.7479	-1.8167	-1.4188	-2.3875	-1.4875	-1.7563	-2.3521	-1.3458	-1.9521	-1.8896	-1.2771	-2.3271	-1.6229	-1.6562	-2.2438	-1.1417	161.937	42.729	-158.663	158.994	149.358	-7.102	186.935	-24.820	121.245	-150.416	-155.160	185.676	152.335	-98.117	166.045	145.654	0.00037603	0.00017016	5.6782e-05	950.93	2.6767e-06	2.0427e-06	1051.5	201.33	3.0229e-06	3.3206e-06	261.72	73.553	58.176	16.494	2.1283e-06	23.373	5.1891e-05	2.5546e-05	7.4952e-06	937.51	3.7839e-07	2.8494e-07	1031.4	200.13	3.3272e-07	2.8855e-07	256.83	72.878	55.739	16.551	2.7985e-07	23.401	-31.623	-66.707	-97.153	-153.764	-18.178	6.275	-153.988	-146.372	-41.601	-5.166	-146.839	-139.845	-139.766	-132.177	-56.342	-133.209	-8191	255	
1144.606	1	1	0	0	0.14532	0.081819	0.088748	0.27847	0.14804	0.28583	0.18196	0.15473	0.18403	0.08406	0.16463	0.096081	0.11926	0.35569	0.18779	0.2524	-1.5229	-2.0271	-1.2021	-2.3896	-1.6146	-1.3729	-2.4604	-1.325	-1.9521	-2.0896	-1.3021	-2.4167	-1.6208	-1.575	-2.2104	-1.5021	84.870	-47.270	56.610	161.837	74.340	44.946	78.256	123.094	77.301	39.629	140.321	91.823	183.276	162.939	-121.648	11.363	0.00037673	0.00021774	3.7977e-05	951.28	1.3944e-06	2.0325e-06	1049	201.99	3.4915e-06	2.9389e-06	261.75	72.987	57.505	16.619	3.266e-06	23.248	5.1142e-05	2.3386e-05	6.9937e-06	937.14	3.5761e-07	2.951e-07	1031.6	200.21	3.5124e-07	2.4906e-07	256.66	72.795	55.672	16.599	2.9812e-07	23.401	-29.168	-86.783	-89.979	-153.647	-22.385	-17.761	-154.071	-146.301	-37.461	-12.497	-146.407	-139.906	-139.744	-132.086	-18.441	-133.121	-8191	255	
1144.702	1	1	0	0	0.044305	0.1692	0.10615	0.22783	0.17123	0.19768	0.069007	0.17687	0.25321	0.2076	0.14265	0.23708	0.12406	0.15922	0.18288	0.30879	-1.4833	-2	-1.2125	-2.2771	-1.6437	-1.2375	-2.3646	-1.3813	-1.7875	-2.1146	-1.3271	-2.1604	-1.5646	-1.3146	-2.3625	-1.4604	115.207	57.310	169.568	116.080	-22.835	-65.147	125.366	-131.926	192.776	20.351	-133.168	173.455	80.086	20.593	111.306	166.224	0.00044327	0.00026425	3.799e-05	950.71	3.0845e-06	2.1717e-06	1046.2	202.18	3.8603e-06	2.2778e-06	260.37	73.543	57.51	16.694	3.9218e-06	23.323	5.5779e-05	2.385e-05	7.2386e-06	935.56	3.4327e-07	2.7883e-07	1031.3	200.33	3.5348e-07	2.4334e-07	256.95	72.926	55.619	16.665	2.6924e-07	23.368	-30.600	-74.025	-88.090	-153.833	-29.375	-19.128	-154.187	-146.450	-37.731	-31.715	-146.760	-140.494	-140.083	-131.995	-19.262	-132.862	-8191	255	
1144.821	1	1	0	0	0.23393	0.12514	0.53561	0.23056	0.20268	0.084733	0.14771	0.15575	0.17483	0.15501	0.32028	0.19522	0.042221	0.050864	0.26486	0.37307	-1.2292	-2.1542	-1.0375	-2.1604	-1.7958	-1.2417	-2.4271	-1.35	-1.6938	-2.0479	-1.3708	-1.9229	-1.9104	-1.2667	-2.2208	-1.7125	77.449	193.478	-140.772	142.340	-48.073	4.541	91.293	141.889	-39.775	-79.314	110.968	-159.312	-13.370	125.381	-152.857	59.325	0.00035458	0.00020086	6.0175e-05	954.74	3.328e-06	2.6214e-06	1049.8	202.83	3.7865e-06	1.6212e-06	260.62	73.803	57.584	16.686	3.1221e-06	23.443	5.125e-05	2.342e-05	7.2116e-06	937.73	3.3071e-07	2.9441e-07	1031.9	199.88	3.4377e-07	2.3694e-07	256.61	72.918	55.482	16.662	2.6706e-07	23.331	-35.158	-61.768	-108.186	-153.876	-44.206	0.990	-153.811	-146.310	-27.840	2.417	-146.815	-139.765	-139.088	-132.448	-11.117	-133.027	-8191	255	
1144.917	1	1	0	0	0.22528	0.13507	0.072408	0.081256	0.12485	0.23672	0.14761	0.37664	0.25558	0.13788	0.077609	0.25946	0.25519	0.085165	0.13758	0.2464	-0.96458	-2	-1.3667	-1.9729	-1.9042	-1.3354	-2.3104	-1.7062	-1.4771	-2.1646	-1.3396	-1.7729	-2.0208	-1.2771	-1.9917	-1.8813	-10.981	146.273	-145.742	-107.585	-137.519	-134.593	28.871	188.783	53.329	155.255	153.824	39.493	37.332	-13.266	183.237	-127.561	0.0003735	0.00014496	7.6449e-05	952.56	8.7335e-07	3.1928e-06	1047.6	202.42	3.5748e-06	2.0714e-06	261.76	73.335	57.68	16.571	3.2081e-06	23.23	5.3305e-05	2.234e-05	7.2579e-06	935.3	3.3243e-07	2.9495e-07	1031	200.03	3.5176e-07	2.5165e-07	257.09	73.036	55.554	16.591	2.8271e-07	23.438	-30.030	-76.050	-76.823	-153.676	-51.925	0.930	-154.013	-146.744	-41.837	-13.536	-147.134	-139.897	-139.729	-132.061	-29.923	-133.360	-8191	255	
1145.013	1	1	0	0	0.14778	0.092057	0.12964	0.071317	0.18617	0.12563	0.11887	0.3715	0.084056	0.064752	0.1775	0.20139	0.10118	0.10297	0.082873	0.090698	-1.025	-2.35	-1.4458	-1.8375	-2.0646	-1.1021	-2.2333	-1.7833	-1.2563	-2.3396	-1.45	-1.7021	-2.1688	-1.1396	-1.9792	-1.9813	-159.665	-110.985	-139.873	-73.024	156.719	-68.908	75.478	167.685	-64.047	92.934	114.423	185.147	-50.028	77.957	139.625	59.728	0.00037201	0.00026481	4.1203e-05	954.52	3.0336e-06	2.8733e-06	1052.7	202.03	3.6333e-06	2.7236e-06	261.15	73.464	57.531	16.703	2.7033e-06	23.38	5.2525e-05	2.486e-05	6.8587e-06	938.31	3.3751e-07	2.8777e-07	1031.3	199.99	3.5848e-07	2.5058e-07	256.69	72.835	55.442	16.649	2.9594e-07	23.392	-31.339	-52.189	-85.334	-153.597	-36.191	3.165	-153.603	-146.342	-51.669	-8.503	-146.726	-139.996	-139.999	-132.678	-9.565	-132.724	-8191	255	
1145.109	1	1	0	0	0.051846	0.27235	0.15038	0.15819	0.081051	0.28331	0.19944	0.054794	0.18869	0.16251	0.20492	0.24173	0.083092	0.1767	0.24799	0.0979	-0.93542	-2.0104	-1.5625	-1.5125	-2.2917	-1.2396	-2.2083	-1.9167	-1.1146	-2.2583	-1.6771	-1.4458	-2.2313	-1.3708	-1.8604	-2.1854	51.565	67.461	-148.825	138.000	126.056	-12.838	-107.667	-111.875	-43.334	93.724	-28.244	150.122	-69.121	166.035	-27.719	154.753	0.00032322	0.00026896	8.4027e-05	958.21	2.9337e-06	2.0063e-06	1047.7	203.09	4.9447e-06	2.745e-06	260.01	73.698	57.888	16.527	2.8395e-06	23.496	5.1238e-05	2.3178e-05	7.8906e-06	938.63	3.337e-07	2.6714e-07	1030.7	200.29	3.587e-07	2.4265e-07	256.54	72.984	55.469	16.597	2.8226e-07	23.41	-33.100	-103.172	-67.889	-153.593	-50.695	9.464	-153.876	-146.233	-11.743	5.337	-146.818	-140.046	-140.078	-132.250	-6.132	-133.081	-8191	255	
1145.205	1	1	0	0	0.2449	0.080977	0.072352	0.22454	0.11028	0.25813	0.25522	0.2056	0.2044	0.11639	0.069108	0.12481	0.11057	0.22335	0.076275	0.053437	-0.81042	-1.9625	-1.7583	-1.625	-2.1958	-1.3771	-1.9104	-2.1521	-1.3167	-2.25	-1.8542	-1.4604	-2.2604	-1.4021	-1.8146	-2.3	115.623	-70.375	-38.328	-52.477	-68.835	-104.454	181.144	50.044	20.163	19.384	141.307	4.413	-90.878	138.943	-43.649	159.833	0.00033231	0.0002468	7.8805e-05	954.78	2.2205e-06	1.9474e-06	1051.3	203.38	3.7061e-06	3.1454e-06	260.62	73.426	58.1	16.547	2.7462e-06	23.306	4.9557e-05	2.3829e-05	6.9358e-06	936.68	3.3961e-07	2.5706e-07	1029.9	200.29	3.6938e-07	2.4845e-07	256.59	72.905	55.768	16.576	2.9624e-07	23.364	-32.493	-93.531	-75.448	-153.835	-10.056	-12.536	-153.690	-146.148	-2.488	-33.205	-146.426	-139.558	-139.403	-132.141	-16.293	-132.646	-8191	255	
1145.301	1	1	0	0	0.19594	0.12241	0.081397	0.086373	0.14821	0.076313	0.39942	0.26723	0.21696	0.085873	0.1884	0.032264	0.1159	0.41992	0.08387	0.16011	-0.91042	-2.0896	-1.6396	-1.4667	-2.1208	-1.3813	-1.8979	-2.1188	-1.1542	-1.9333	-2	-1.1833	-2.2833	-1.4562	-1.6479	-2.0146	81.757	-73.466	94.114	-121.615	120.142	104.245	133.449	-107.931	188.345	171.883	56.010	-158.737	102.184	166.684	161.427	-79.881	0.00035968	0.0003001	0.00010659	953.73	2.5398e-06	1.3993e-06	1050.3	202.59	5.0938e-06	2.3064e-06	261.16	73.719	57.781	16.689	2.507e-06	23.413	5.0552e-05	2.3552e-05	6.6446e-06	936.67	3.2003e-07	2.8288e-07	1031.5	200.22	3.6281e-07	2.4677e-07	256.45	73.109	55.644	16.652	3.0038e-07	23.407	-28.844	-91.541	-94.330	-153.566	-38.335	-22.334	-153.413	-146.216	-29.943	5.747	-146.852	-139.792	-138.633	-132.583	-23.074	-132.856	-8191	255	
1145.398	1	1	0	0	0.065639	0.060296	0.23935	0.16778	0.11574	0.21052	0.076338	0.013462	0.15364	0.24857	0.13119	0.13002	0.18598	0.24056	0.19848	0.31414	-0.73333	-1.9042	-1.8729	-1.2417	-2.05	-1.5958	-1.5271	-2.4062	-1.3271	-1.7604	-2.1542	-1.1375	-2.1083	-1.6625	-1.4854	-2.2958	-92.268	-103.988	172.417	115.894	-69.503	-86.402	145.611	176.252	104.434	39.966	159.814	105.931	178.359	115.366	-11.256	169.310	0.00036137	0.0001849	5.7598e-05	951.3	2.7212e-06	2.4577e-06	1044.1	202.78	3.8845e-06	2.2197e-06	261.08	74.009	57.531	16.562	2.5507e-06	23.333	5.1624e-05	2.3995e-05	6.5231e-06	935.99	3.2227e-07	2.8204e-07	1029.8	200.12	3.5601e-07	2.4898e-07	256.51	73.127	55.61	16.566	2.9241e-07	23.406	-30.234	-71.177	-95.070	-153.683	-32.634	-3.441	-154.085	-146.324	-22.887	-41.801	-146.755	-140.348	-139.801	-131.687	-30.221	-132.965	-8191	255	
1145.518	1	1	0	0	0.098744	0.42916	0.23629	0.32804	0.13425	0.20161	0.15832	0.053185	0.28442	0.39523	0.26345	0.061088	0.20971	0.26372	0.11149	0.15963	-0.88125	-1.7729	-2.1167	-1.2146	-2.0812	-1.8458	-1.5021	-2.4792	-1.3583	-1.7833	-2.3167	-1.4979	-2.2313	-2.0187	-1.1833	-2.3979	-145.007	58.547	-150.338	-141.975	89.226	-110.368	137.482	13.022	-159.405	-109.746	107.367	95.778	156.327	-25.540	151.587	66.551	0.00038212	0.00032658	7.8511e-05	957.12	1.6044e-06	1.5474e-06	1050.9	204.33	3.1049e-06	3.3198e-06	260.65	73.812	58.013	16.59	3.0244e-06	23.393	5.3502e-05	2.646e-05	6.4826e-06	938.08	3.2504e-07	2.4972e-07	1032.7	200.7	3.4511e-07	2.746e-07	256.76	73.002	55.716	16.619	2.9843e-07	23.416	-31.486	-71.167	-89.142	-153.661	-21.011	7.805	-153.676	-146.111	-30.204	-34.663	-146.867	-139.948	-139.712	-132.370	-11.067	-132.867	-8191	255	
1145.614	1	1	0	0	0.28564	0.040652	0.22146	0.064321	0.074987	0.11191	0.16869	0.01704	0.1289	0.1745	0.20894	0.071862	0.11441	0.28668	0.081297	0.16062	-1.0063	-1.7104	-2.1063	-1.3375	-2.0396	-1.95	-1.6187	-2.5458	-1.5396	-1.5938	-2.1437	-1.4271	-1.9813	-1.875	-1.3729	-2.2417	-74.608	88.068	47.673	152.321	-138.924	-150.961	-146.033	-129.661	74.688	128.460	146.355	-21.285	-121.614	64.626	160.163	139.881	0.00038454	0.00021872	7.863e-05	953.44	3.6123e-06	1.7088e-06	1052.4	201.83	3.1076e-06	2.5287e-06	261.13	73.538	58.239	16.547	2.4011e-06	23.367	5.3432e-05	2.4937e-05	6.5636e-06	937.22	3.3736e-07	2.5966e-07	1031.6	200.07	3.3541e-07	2.685e-07	256.98	73.006	55.699	16.589	2.9482e-07	23.45	-29.362	-76.068	-57.490	-153.648	-17.029	14.533	-153.784	-146.167	-39.545	4.598	-146.312	-140.140	-139.991	-132.882	-10.830	-132.710	-8191	255	
1145.710	1	1	0	0	0.2514	0.13135	0.22999	0.17266	0.23001	0.19406	0.31037	0.033707	0.098425	0.16082	0.35502	0.067375	0.1893	0.061292	0.25436	0.13762	-1.3833	-1.4625	-2.2396	-1.2271	-1.8708	-1.9979	-1.3104	-2.4125	-1.4354	-1.15	-2.3292	-1.5271	-1.7854	-2.2812	-1.1604	-2.1146	50.825	-32.926	58.025	-150.003	130.450	182.981	160.095	-27.815	37.677	11.973	-144.172	71.246	110.559	-31.653	174.036	120.886	0.00032992	0.00023051	5.5574e-05	951.13	3.2111e-06	1.131e-06	1051.3	202.19	3.8227e-06	2.6969e-06	260.39	73.859	57.747	16.669	2.0341e-06	23.49	5.1104e-05	2.4978e-05	6.1932e-06	936.3	3.3527e-07	2.4766e-07	1032.4	200.05	3.3123e-07	2.8153e-07	256.85	72.984	55.613	16.611	3.2437e-07	23.388	-25.364	-60.257	-105.658	-153.613	-28.011	-19.804	-153.978	-146.008	-44.945	-18.421	-146.737	-140.199	-139.754	-132.742	-21.334	-132.638	-8191	255	
1145.829	1	1	0	0	0.31956	0.11082	0.108	0.17336	0.11478	0.19795	0.080711	0.30668	0.11789	0.074905	0.30884	0.15299	0.088867	0.084112	0.14148	0.035527	-1.4312	-1.4542	-2.3563	-1.4125	-1.6771	-2.1771	-1.2104	-2.2146	-1.6125	-1.2646	-2.275	-1.5521	-1.7208	-2.1792	-1.2604	-2.0229	-138.165	118.887	11.762	-139.335	-105.601	116.526	111.980	185.837	-147.927	74.352	125.716	191.800	-38.561	20.393	118.613	115.954	0.00039064	0.00027136	7.7981e-05	956.26	2.8985e-06	1.253e-06	1050.3	203.58	2.1603e-06	2.9172e-06	260.06	73.799	57.872	16.58	2.2205e-06	23.379	5.1415e-05	2.4847e-05	6.4478e-06	936.73	3.337e-07	2.4361e-07	1029.8	200.83	3.2159e-07	2.8664e-07	256.28	73.228	55.671	16.626	2.9331e-07	23.467	-29.194	-64.967	-74.428	-153.648	11.813	0.934	-153.941	-146.083	-7.944	-6.516	-146.958	-139.898	-139.317	-132.106	8.745	-133.074	-8191	255	
1145.901	1	1	0	0	0.23981	0.042524	0.22218	0.11945	0.13421	0.07697	0.37616	0.29995	0.20279	0.26196	0.20231	0.16092	0.14543	0.11188	0.20965	0.030497	-1.5333	-1.2646	-2.2583	-1.5771	-1.7417	-2.2708	-1.3792	-2.1729	-1.9771	-1.2958	-2.3417	-1.65	-1.3979	-2.2333	-1.2917	-1.9979	40.656	37.118	126.896	141.606	20.725	3.145	107.610	191.418	-28.002	183.540	109.201	177.991	-31.414	-106.274	-75.830	-148.586	0.00037997	0.00031815	8.5266e-05	956.63	2.9648e-06	1.7681e-06	1051.5	203.7	3.0836e-06	3.3917e-06	259.89	73.68	57.231	16.748	3.6533e-06	23.483	4.9366e-05	2.484e-05	6.2935e-06	938.24	3.3124e-07	2.4972e-07	1030.7	200.57	3.2212e-07	2.7894e-07	256.06	72.979	55.575	16.68	3.1693e-07	23.468	-31.202	-87.252	-96.240	-153.610	-25.464	-7.769	-153.949	-145.920	-20.567	-19.170	-146.615	-140.216	-139.533	-132.196	-26.272	-132.862	-8191	255	
1145.997	1	1	0	0	0.078235	0.24077	0.070361	0.30895	0.41117	0.062648	0.081776	0.24881	0.18671	0.1981	0.14996	0.15841	0.16065	0.12669	0.19198	0.25205	-1.6521	-1.2062	-2.3812	-1.6896	-1.2229	-2.1771	-1.3875	-1.9271	-1.9708	-1.1208	-2.1208	-1.8	-1.4521	-2.3042	-1.3667	-1.8979	72.002	-72.823	-38.312	160.296	97.958	89.782	-146.121	96.677	58.289	138.107	154.488	152.402	178.036	-152.244	61.711	-106.566	0.00034234	0.0002602	4.8624e-05	952.67	2.342e-06	2.4921e-06	1052.8	202.86	4.462e-06	2.563e-06	262.67	73.164	57.452	16.666	3.0325e-06	23.561	4.8618e-05	2.5539e-05	6.2145e-06	935.58	3.4252e-07	2.5339e-07	1030.4	200.55	3.2913e-07	2.736e-07	257.2	72.948	55.616	16.615	2.9519e-07	23.486	-36.074	-55.055	-45.294	-153.437	-32.974	1.396	-153.919	-146.103	-39.086	-21.048	-146.826	-140.070	-139.332	-132.308	-6.395	-132.505	-8191	255	
1146.118	1	1	0	0	0.32285	0.25656	0.14471	0.11139	0.12555	0.24641	0.11153	0.20665	0.26395	0.12995	0.10545	0.20039	0.082412	0.23612	0.11896	0.15847	-1.7292	-1.2458	-1.9708	-1.9229	-1.3687	-2.4583	-1.4729	-1.7938	-2.0854	-1.1667	-2.3042	-1.9292	-1.3813	-2.1854	-1.4188	-1.7021	86.510	37.277	-103.642	147.749	14.081	-115.677	20.663	19.848	99.831	-81.976	-124.979	-141.138	-70.813	-131.599	-37.319	186.044	0.00036997	0.00023841	8.8358e-05	956.26	2.9657e-06	2.2426e-06	1043.4	203.48	4.2015e-06	2.6387e-06	263.33	73.602	57.897	16.541	3.6545e-06	23.463	4.7635e-05	2.3628e-05	6.7526e-06	936.83	3.5799e-07	2.4888e-07	1029.3	200.67	3.0868e-07	2.5866e-07	257.56	73.053	55.641	16.617	2.8481e-07	23.424	-29.089	-61.762	-68.431	-153.826	-4.460	-4.350	-154.037	-146.079	-41.058	-17.360	-146.900	-140.253	-139.331	-132.386	-15.767	-132.633	-8191	255	
1146.214	1	1	0	0	0.24114	0.176	0.10805	0.27351	0.094113	0.22176	0.23749	0.2116	0.22779	0.26916	0.27285	0.16358	0.20362	0.1004	0.19111	0.32912	-1.7687	-1.3333	-1.8813	-2.0375	-1.2396	-2.1583	-1.6729	-1.6208	-2.3208	-1.3646	-1.9729	-2.0396	-1.3083	-2.2562	-1.5208	-1.4396	132.605	74.011	46.204	191.735	-45.836	156.429	141.420	-124.071	-156.470	-133.722	154.605	47.978	168.838	-30.705	-96.853	48.005	0.00034211	0.00031491	6.4176e-05	952.54	2.8882e-06	1.9592e-06	1051.4	202.43	3.4566e-06	3.3476e-06	262.81	74.067	57.886	16.661	2.6841e-06	23.598	4.6055e-05	2.5297e-05	6.4768e-06	935.84	3.5313e-07	2.3002e-07	1029.6	200.39	3.1121e-07	2.6819e-07	257.59	73.011	56.013	16.636	2.6202e-07	23.508	-32.277	-63.528	-58.669	-153.515	-48.166	-21.683	-153.816	-145.671	-64.907	5.162	-147.072	-139.927	-139.646	-131.993	-29.586	-133.100	-8191	255	
1146.310	1	1	0	0	0.094668	0.21703	0.10309	0.43411	0.29041	0.3488	0.2102	0.051096	0.15628	0.18115	0.21223	0.16626	0.27968	0.26676	0.14332	0.15408	-1.7958	-1.4625	-1.7625	-2.1604	-1.3042	-2.3875	-1.8292	-1.6125	-2.2458	-1.6104	-1.8396	-2.2292	-1.3458	-2.1063	-1.9458	-1.475	-162.373	-85.757	-97.888	171.402	25.186	-136.237	91.868	117.060	-56.354	85.583	136.376	152.800	25.029	79.163	75.669	63.332	0.00036518	0.00027286	9.8064e-05	954.86	1.8798e-06	1.1327e-06	1048.2	202.61	2.8795e-06	2.672e-06	262.25	73.66	57.683	16.704	1.74e-06	23.438	4.7102e-05	2.5054e-05	6.3977e-06	934.7	3.358e-07	2.3651e-07	1027.8	200.1	3.0098e-07	2.4814e-07	256.75	72.891	55.609	16.631	2.5014e-07	23.49	-32.491	-78.229	-78.866	-153.780	-40.825	-6.736	-153.957	-145.867	-37.950	-8.803	-146.819	-139.788	-139.790	-132.011	-14.847	-132.642	-8191	255	
1146.406	1	1	0	0	0.27558	0.10693	0.13024	0.02269	0.10648	0.17879	0.07493	0.24243	0.17747	0.03308	0.091917	0.19264	0.052718	0.33548	0.19501	0.064583	-1.8958	-1.4229	-1.6667	-2.3063	-1.2208	-2.0333	-2.1021	-1.3875	-2.3333	-1.5479	-1.7875	-2.3312	-1.1979	-2.0625	-1.9062	-1.2812	-132.139	126.964	87.310	-75.270	168.547	-12.321	-8.670	130.870	-139.685	-30.435	-23.911	117.901	111.870	-40.164	-134.647	82.962	0.00038712	0.00022762	4.8461e-05	952.02	2.414e-06	1.9125e-06	1054.1	202.29	4.45e-06	1.8381e-06	261.75	73.608	57.784	16.707	1.8349e-06	23.253	4.7356e-05	2.1807e-05	6.2183e-06	935.4	3.3482e-07	2.3231e-07	1031.2	200.26	2.9426e-07	2.348e-07	256.78	72.976	55.771	16.647	2.4518e-07	23.431	-30.011	-89.655	-87.558	-153.750	-26.533	-34.657	-153.835	-146.120	-47.344	-4.528	-146.684	-140.109	-139.472	-132.038	-54.632	-132.543	-8191	255	
1146.478	1	1	0	0	0.078023	0.074525	0.2408	0.16546	0.078221	0.105	0.11403	0.23959	0.18245	0.11767	0.12628	0.12861	0.14254	0.032778	0.13908	0.2978	-1.8229	-1.5521	-1.4937	-2.2583	-1.2292	-1.9354	-2.1104	-1.3271	-2.2	-1.6437	-1.6	-2.3479	-1.2208	-1.9583	-2.0604	-1.1417	-159.848	-20.269	-154.946	119.091	-63.024	-102.526	-140.300	-154.749	18.320	-128.263	195.042	78.352	-86.882	168.579	115.319	-101.722	0.00039482	0.00023636	5.8986e-05	953.32	2.6133e-06	2.2766e-06	1046.7	203.45	3.4735e-06	1.6034e-06	262.28	73.305	57.127	16.633	3.2399e-06	23.412	4.7451e-05	2.2811e-05	6.7102e-06	935.3	3.1555e-07	2.3727e-07	1027.4	200.65	2.8993e-07	2.6019e-07	256.96	72.952	55.472	16.606	2.3826e-07	23.428	-31.660	-73.141	-71.177	-153.642	-22.437	7.922	-153.679	-145.878	-29.791	-4.738	-146.149	-139.467	-139.570	-131.579	-46.609	-132.820	-8191	255	
1146.599	1	1	0	0	0.14465	0.18098	0.46859	0.1927	0.042941	0.083052	0.094137	0.25646	0.31445	0.25491	0.17434	0.095266	0.087875	0.23013	0.080659	0.09034	-1.7625	-1.7271	-1.3833	-2.3667	-1.3708	-1.75	-2.3875	-1.3854	-2.0667	-1.9125	-1.1979	-2.3375	-1.6167	-1.625	-2.1792	-1.3438	156.988	100.263	-28.883	10.716	60.798	105.617	84.003	126.237	-156.719	118.329	-138.559	99.730	31.877	84.020	88.159	-109.717	0.00038265	0.0002191	7.3019e-05	950.01	3.2603e-06	1.8875e-06	1047.3	202.34	2.8103e-06	2.334e-06	261.74	73.667	57.723	16.578	3.5273e-06	23.33	4.9087e-05	2.2188e-05	6.2916e-06	933.77	3.1562e-07	2.1397e-07	1027.8	199.92	2.8889e-07	2.3328e-07	256.97	73.123	55.646	16.627	2.4097e-07	23.336	-30.040	-93.402	-67.459	-153.586	-47.742	2.465	-153.874	-146.096	-40.881	-8.541	-146.736	-139.791	-139.989	-131.832	-27.020	-132.776	-8191	255	
1146.695	1	1	0	0	0.20538	0.18998	0.16476	0.44653	0.050721	0.07416	0.25275	0.22574	0.025576	0.29243	0.26925	0.037914	0.12768	0.34894	0.091928	0.034291	-1.7208	-1.8979	-1.3417	-2.3354	-1.5792	-1.7021	-2.4333	-1.3292	-1.8312	-1.9021	-1.3333	-2.1813	-1.6708	-1.7292	-2.3646	-1.3146	15.721	110.652	26.271	114.880	75.403	-105.981	157.535	108.004	133.374	-111.222	175.514	71.793	-54.894	-76.130	162.630	176.002	0.00037123	0.00032351	8.2752e-05	953.14	2.5335e-06	1.6662e-06	1046.1	203.13	3.4595e-06	3.4725e-06	261.28	73.458	57.35	16.571	2.6063e-06	23.275	4.5675e-05	2.1607e-05	6.4999e-06	933.05	3.0568e-07	2.2276e-07	1028	200.61	2.9986e-07	2.2398e-07	257.01	73.134	55.405	16.629	2.5307e-07	23.431	-32.007	-76.812	-73.386	-153.524	-33.477	13.133	-153.683	-146.347	-54.897	-17.225	-146.469	-139.984	-140.071	-132.246	-22.287	-133.000	-8191	255	
1146.791	1	1	0	0	0.047517	0.0069058	0.19597	0.046572	0.15965	0.027721	0.16259	0.32786	0.0094393	0.090243	0.1478	0.07319	0.12776	0.28312	0.094859	0.24714	-1.7042	-1.9312	-1.3188	-2.2854	-1.6562	-1.4562	-2.4938	-1.2417	-2.0208	-2.2542	-1.4417	-2.3729	-1.8104	-1.4292	-2.1708	-1.4958	-140.903	162.508	112.601	81.249	-154.120	58.768	153.644	185.373	-98.457	-98.408	-57.535	-146.720	109.536	29.567	92.602	113.360	0.00040063	0.00021494	6.8912e-05	955.86	2.0535e-06	1.8345e-06	1045	202.03	4.4823e-06	2.7873e-06	261.66	73.877	58.513	16.697	3.497e-06	23.549	4.7793e-05	1.899e-05	6.6851e-06	934.09	3.0763e-07	2.812e-07	1026.3	199.59	3.1413e-07	2.3099e-07	256.61	73.13	56.042	16.629	2.4202e-07	23.412	-31.308	-66.430	-61.257	-153.393	-45.170	-15.703	-153.606	-145.882	-33.484	-25.709	-146.625	-139.873	-139.800	-131.879	-18.127	-133.160	-8191	255	
1146.910	1	1	0	0	0.12758	0.053665	0.082809	0.28123	0.033091	0.061573	0.26085	0.02519	0.10261	0.20739	0.059422	0.11935	0.15134	0.19912	0.15855	0.091796	-1.3146	-2.1042	-1.1938	-2.3167	-1.8271	-1.2958	-2.3	-1.3729	-1.5542	-1.9792	-1.2458	-1.975	-1.8062	-1.3563	-2.1688	-1.4771	-136.440	33.901	122.723	-137.356	-1.458	147.027	83.372	93.085	-43.577	192.392	150.476	144.390	129.538	-153.294	33.239	172.872	0.00038257	0.0002725	9.6296e-05	952.45	2.3269e-06	2.6185e-06	1051.1	202.35	4.4281e-06	2.8673e-06	261.91	73.569	57.254	16.498	3.2767e-06	23.198	5.1022e-05	2.1904e-05	6.471e-06	936.29	2.9941e-07	2.4682e-07	1028.5	199.99	3.2787e-07	2.194e-07	256.97	73.133	55.511	16.591	2.4585e-07	23.357	-34.205	-65.305	-100.493	-153.566	-26.393	-2.440	-153.749	-145.860	-36.296	-21.010	-146.804	-139.912	-139.657	-131.786	-21.034	-132.917	-8191	255	
1147.006	1	1	0	0	0.51262	0.16029	0.07592	0.18326	0.16594	0.032496	0.27891	0.12099	0.11094	0.1172	0.034727	0.20455	0.26951	0.11555	0.092992	0.11671	-1.0646	-2.0792	-1.1771	-2.0125	-2.0208	-1.3667	-2.25	-1.3104	-1.25	-2.2667	-1.4854	-2.0292	-2.0375	-1.3208	-2.1208	-1.7062	-147.093	121.339	34.372	154.151	66.207	24.242	154.866	28.199	16.891	-13.178	162.011	94.568	64.119	-12.263	165.421	105.782	0.00038826	0.00023937	8.6373e-05	953.25	3.5344e-06	2.532e-06	1051.3	202.57	3.2994e-06	2.9734e-06	262.25	73.77	57.556	16.608	3.2485e-06	23.476	4.7394e-05	1.9578e-05	6.9493e-06	935.62	3.2399e-07	2.5538e-07	1030.9	200.15	3.2443e-07	2.1399e-07	257.33	73.255	55.801	16.62	2.7902e-07	23.428	-32.416	-92.771	-107.606	-153.545	-14.031	23.343	-153.533	-146.332	-35.641	-20.841	-147.276	-140.170	-140.191	-132.617	-9.253	-133.813	-8191	255	
1147.102	1	1	0	0	0.31907	0.18915	0.38136	0.17251	0.13853	0.14447	0.043413	0.090308	0.18592	0.26016	0.12873	0.03962	0.15921	0.29706	0.043721	0.18833	-1.1792	-2.3104	-1.2271	-1.9479	-1.8312	-1.1854	-2.2542	-1.8979	-1.4604	-2.3083	-1.3146	-1.7625	-2.0104	-1.0646	-1.775	-1.8792	-78.040	-160.429	-56.397	128.719	-132.677	135.911	67.701	106.704	-37.248	180.932	-4.424	-124.597	-150.910	151.674	32.868	-110.007	0.00038662	0.000186	0.00010262	953.96	3.0876e-06	2.5714e-06	1045.6	201.86	4.4766e-06	1.9993e-06	260.79	73.417	56.989	16.797	2.1489e-06	23.343	4.9607e-05	1.953e-05	7.0149e-06	933.89	3.1712e-07	2.6493e-07	1027.5	199.68	3.2301e-07	2.2222e-07	256.52	73.171	55.486	16.679	2.6894e-07	23.376	-30.713	-89.530	-77.200	-153.928	-9.702	-7.976	-153.939	-146.610	-18.454	-0.220	-146.792	-140.426	-139.846	-132.494	4.693	-133.356	-8191	255	
1147.198	1	1	0	0	0.33203	0.072076	0.26304	0.30807	0.10897	0.059074	0.35746	0.14555	0.30639	0.21218	0.034139	0.18148	0.22614	0.36241	0.077913	0.097424	-0.77083	-2.1833	-1.4188	-1.8771	-2.2146	-1.1271	-2.2583	-1.9833	-1.2771	-2.0917	-1.3646	-1.7188	-1.9458	-1.2625	-1.9583	-1.9979	-132.218	-142.939	-70.236	156.678	119.564	-114.422	-120.347	119.265	-160.007	-100.739	-50.772	110.562	116.602	-144.596	8.719	98.446	0.00037867	0.00018378	6.6608e-05	950.04	2.8444e-06	1.958e-06	1048.6	203.68	3.3787e-06	1.9323e-06	261.95	73.861	58.255	16.623	2.4352e-06	23.406	4.8098e-05	2.1164e-05	6.444e-06	934.09	2.8954e-07	2.6852e-07	1028.3	200.31	3.4168e-07	2.1689e-07	256.96	73.159	55.712	16.632	2.7105e-07	23.386	-27.016	-81.925	-61.498	-154.151	-29.701	-10.448	-154.200	-146.884	-13.725	13.577	-146.789	-140.255	-140.143	-132.409	-20.948	-132.958	-8191	255	
1147.294	1	1	0	0	0.29171	0.080255	0.078951	0.29012	0.23745	0.05033	0.082475	0.51198	0.1984	0.03192	0.039171	0.15567	0.1555	0.49622	0.23302	0.071769	-1.0583	-2.0104	-1.575	-1.3771	-2.2708	-1.3083	-2.0958	-2.0542	-0.95833	-2.1167	-1.7583	-1.4229	-2.2146	-1.4958	-1.8563	-1.9021	1.865	-91.408	-97.260	164.239	195.243	96.254	58.867	152.530	160.358	-157.965	148.715	22.459	155.810	87.408	129.497	122.362	0.00040789	0.00024841	5.7288e-05	951.38	1.9301e-06	2.1913e-06	1052.7	202.17	4.1874e-06	2.7985e-06	260.3	73.61	57.806	16.622	3.405e-06	23.426	5.1238e-05	1.9841e-05	6.3977e-06	933.34	3.0404e-07	2.5675e-07	1029.1	200.1	3.1301e-07	2.255e-07	256.67	73.058	55.7	16.611	2.8203e-07	23.381	-30.085	-68.396	-81.200	-153.774	-27.705	-0.960	-154.221	-146.506	-27.863	-48.285	-147.108	-140.553	-139.425	-132.781	-30.221	-133.511	-8191	255	
1147.390	1	1	0	0	0.093117	0.15111	0.20908	0.29164	0.10362	0.029	0.21478	0.25308	0.19278	0.063074	0.06076	0.045791	0.13591	0.18102	0.15518	0.34393	-0.70208	-2.0458	-1.7271	-1.5375	-2.3042	-1.3729	-1.7542	-2.1104	-1.2042	-2.1479	-1.8708	-1.1396	-2.1875	-1.3729	-1.7146	-2.0896	-83.087	90.350	152.182	119.841	179.167	109.795	101.486	116.709	116.768	167.411	61.372	-59.519	-117.414	182.345	-96.447	167.381	0.00035198	0.00026303	6.1669e-05	949.02	1.8115e-06	1.6744e-06	1046.5	202.46	5.3763e-06	2.7464e-06	262.8	73.219	57.91	16.532	3.1374e-06	23.349	4.9398e-05	2.0658e-05	6.0409e-06	933.93	2.8357e-07	2.6867e-07	1026.7	200.15	3.2271e-07	2.1948e-07	256.72	73.073	55.782	16.557	2.5631e-07	23.432	-31.134	-66.400	-68.475	-154.028	-60.836	-6.186	-154.002	-146.547	-38.662	-21.186	-147.306	-140.601	-140.749	-132.703	45.767	-133.359	-8191	255	
1147.511	1	1	0	0	0.111	0.16913	0.35661	0.24748	0.17823	0.15187	0.10286	0.10509	0.06129	0.26931	0.14063	0.11857	0.15076	0.16972	0.13714	0.23653	-0.88125	-2.0687	-1.925	-1.3937	-2.2896	-1.3667	-1.8583	-2.4479	-1.1292	-1.9	-1.9583	-1.2646	-2.1292	-1.6333	-1.4312	-2.2062	76.158	55.894	14.205	139.334	142.945	142.702	112.797	135.059	-36.792	71.038	100.916	154.773	-148.971	-3.386	-28.102	104.352	0.00037341	0.00013394	5.5324e-05	949.92	1.5106e-06	2.4942e-06	1049	202.32	3.835e-06	4.014e-06	261.75	73.855	57.994	16.578	4.252e-06	23.321	4.7578e-05	2.1662e-05	5.9618e-06	933.69	2.8947e-07	2.495e-07	1029.4	199.96	3.3242e-07	2.4189e-07	256.86	72.973	55.796	16.569	2.9993e-07	23.36	-29.150	-67.607	-63.781	-154.027	-36.301	3.516	-153.960	-146.810	-13.969	-7.661	-147.560	-140.191	-139.961	-132.498	-16.491	-133.596	-8191	255	
1147.607	1	1	0	0	0.27845	0.22342	0.24303	0.14959	0.19199	0.1013	0.21141	0.15225	0.20697	0.15011	0.072898	0.18772	0.13726	0.25401	0.083159	0.31418	-0.88333	-2.0062	-2.0312	-1.4479	-2.1083	-1.5708	-1.5187	-2.45	-1.3292	-1.925	-2.075	-1.1208	-2.1188	-1.7792	-1.5917	-2.3583	146.623	58.854	142.311	192.832	-90.411	183.033	114.187	159.639	136.161	71.791	-145.185	189.297	-48.182	-98.264	43.698	77.153	0.00038223	0.00026034	0.00010156	947.28	3.5244e-06	2.7303e-06	1051.3	202.29	3.7674e-06	1.1553e-06	260.92	73.792	57.847	16.575	3.4155e-06	23.457	4.8453e-05	2.0804e-05	6.0293e-06	930.05	3.0008e-07	2.3185e-07	1027.7	200.36	3.2085e-07	2.252e-07	256.49	73.024	55.602	16.594	2.6676e-07	23.388	-26.544	-100.026	-91.953	-153.993	-10.013	-11.850	-154.089	-146.910	-37.907	-15.987	-147.416	-140.344	-140.442	-132.478	-8.306	-133.277	-8191	255	
1147.702	1	1	0	0	0.21791	0.13377	0.23585	0.073224	0.10719	0.21474	0.18867	0.071205	0.11322	0.32297	0.02957	0.11905	0.051728	0.30926	0.092822	0.087122	-0.93333	-1.8083	-1.8792	-1.2521	-1.9833	-1.7708	-1.3896	-2.3	-1.4146	-1.7938	-2.2833	-1.5042	-2.0396	-1.9229	-1.1313	-2.2271	111.494	186.637	117.714	101.771	48.284	93.737	115.240	49.736	-95.363	-87.059	-26.814	142.335	193.102	-102.159	-164.086	115.880	0.00037542	0.00021853	9.7832e-05	949.67	2.8456e-06	1.9898e-06	1046.8	202.65	3.5917e-06	2.6923e-06	259.55	73.292	57.7	16.667	3.1338e-06	23.382	4.9094e-05	2.1157e-05	5.821e-06	931.76	3.0352e-07	2.4858e-07	1026.5	200.12	3.1749e-07	2.4593e-07	256.11	72.967	55.682	16.603	2.8481e-07	23.368	-32.540	-74.530	-94.866	-154.128	-7.077	2.246	-153.982	-146.456	-45.649	-32.454	-147.039	-140.118	-139.945	-132.562	-24.907	-133.074	-8191	255	
1147.800	1	1	0	0	0.18373	0.081496	0.15901	0.15685	0.050167	0.032231	0.24534	0.093291	0.16085	0.063195	0.14138	0.086972	0.087691	0.032653	0.05101	0.071786	-0.96458	-1.6667	-2.2542	-1.3979	-2.1271	-1.8062	-1.5021	-2.2562	-1.5938	-1.3979	-2.2021	-1.25	-1.9729	-1.9958	-1.0729	-2.3	-15.576	-141.177	-147.037	195.027	-105.861	-126.935	166.487	73.580	-151.237	-38.665	-140.915	111.528	-107.051	-51.897	70.829	-60.373	0.00036708	0.00027806	9.1308e-05	948.06	2.6315e-06	2.5872e-06	1044.8	203.37	4.6638e-06	1.2043e-06	261.95	73.475	58.264	16.636	3.3569e-06	23.286	4.7013e-05	2.3476e-05	5.3697e-06	932.87	3.0217e-07	2.0931e-07	1027.2	199.83	3.2361e-07	2.6522e-07	256.69	72.837	55.871	16.607	3.1001e-07	23.375	-33.529	-60.747	-112.640	-154.058	-21.381	-35.377	-154.210	-146.743	-41.385	-19.170	-146.934	-140.489	-140.408	-132.648	0.695	-132.892	-8191	255	
1147.894	1	1	0	0	0.15148	0.089491	0.10711	0.20719	0.19224	0.30991	0.31799	0.11968	0.11077	0.22281	0.1163	0.30935	0.078412	0.18183	0.20239	0.15174	-1.3687	-1.3188	-2.0979	-1.4125	-1.8417	-2.0271	-1.4167	-2.0604	-1.5625	-1.3896	-2.3375	-1.4688	-1.7042	-2.0667	-1.2313	-2.0125	-44.799	-61.976	-157.292	62.168	-82.110	177.599	106.840	-82.858	81.102	139.349	-1.281	173.374	44.624	143.473	-106.384	-117.127	0.00034517	0.00025313	8.8491e-05	948.81	2.5336e-06	3.5635e-06	1049.8	203.04	3.257e-06	2.8257e-06	261.21	73.553	58.394	16.618	2.1792e-06	23.309	4.9506e-05	2.2915e-05	5.8943e-06	931.34	3.2257e-07	2.3842e-07	1027.6	200.01	3.0352e-07	2.5554e-07	256.64	72.846	55.611	16.59	2.8233e-07	23.411	-26.460	-80.225	-86.227	-154.072	-14.035	-2.893	-154.040	-146.650	-51.479	-4.618	-147.041	-140.438	-140.425	-132.277	-38.201	-133.103	-8191	255	
1147.990	1	1	0	0	0.18194	0.26397	0.13012	0.16476	0.29358	0.18459	0.23993	0.39679	0.25224	0.34163	0.18051	0.19572	0.22171	0.39499	0.42437	0.13006	-1.5396	-1.3271	-2.2042	-1.4958	-1.6688	-2.2417	-1.3542	-2.0667	-1.5958	-1.2729	-2.2521	-1.4958	-1.6292	-2.1063	-1.3208	-1.9854	-21.711	-63.214	95.039	75.222	-10.705	83.665	99.870	-132.096	18.870	-69.598	120.900	-149.698	163.888	163.054	16.660	147.169	0.00033838	0.00027455	7.3183e-05	948.9	2.6472e-06	2.1222e-06	1043	201.74	3.324e-06	2.5191e-06	261.53	73.554	57.619	16.539	2.2312e-06	23.265	4.9024e-05	2.4687e-05	5.8711e-06	930.97	3.1577e-07	2.44e-07	1025.4	199.68	3.0487e-07	2.8207e-07	256.69	72.777	55.666	16.54	2.8519e-07	23.33	-25.940	-91.483	-93.747	-154.084	-44.486	-2.665	-154.309	-146.619	-38.977	-10.821	-146.996	-140.265	-139.734	-132.485	-26.288	-132.787	-8191	255	
1148.086	1	1	0	0	0.081921	0.22822	0.3493	0.17473	0.24716	0.29579	0.37315	0.12559	0.13507	0.20124	0.1489	0.43255	0.091701	0.050836	0.15811	0.22124	-1.7083	-1.1854	-2.2792	-1.6604	-1.4438	-2.2562	-1.5771	-2.1271	-1.8583	-1.2458	-2.2104	-1.6521	-1.3813	-2.3083	-1.4292	-1.9104	6.246	-36.504	39.519	139.543	-139.429	-64.403	112.862	184.096	93.460	63.153	169.359	-109.859	-151.783	21.294	-103.086	144.093	0.00035283	0.00022875	6.7763e-05	948.88	2.7869e-06	2.2176e-06	1043.7	201.42	3.2742e-06	2.0387e-06	261.44	73.279	57.656	16.611	3.0631e-06	23.274	4.8466e-05	2.5061e-05	5.8287e-06	930.63	3.2496e-07	2.3949e-07	1024.1	199.92	2.9561e-07	2.8413e-07	256.59	72.669	55.453	16.633	2.7601e-07	23.296	-31.685	-78.873	-79.564	-153.958	-30.759	-7.184	-154.210	-146.475	-38.212	-13.904	-146.785	-140.433	-139.686	-132.576	-24.005	-133.167	-8191	255	
1148.182	1	1	0	0	0.23473	0.16361	0.14857	0.052267	0.19506	0.078703	0.14281	0.23422	0.18879	0.32753	0.11763	0.19178	0.29789	0.16454	0.1016	0.30122	-1.7375	-1.4083	-2.2083	-1.8583	-1.3896	-2.0771	-1.3271	-1.675	-2.075	-1.1333	-2.0312	-1.6875	-1.375	-2.0896	-1.4208	-1.7479	71.828	-80.461	167.528	119.100	-135.341	71.994	179.918	53.378	139.373	13.665	-135.462	28.803	171.054	-114.266	-59.445	93.442	0.00035795	0.00026817	4.1252e-05	951.9	3.2486e-06	2.5748e-06	1044.2	201.86	2.7051e-06	2.1512e-06	260.38	73.379	57.425	16.584	2.4881e-06	23.247	4.6893e-05	2.4819e-05	6.1084e-06	931.99	3.2683e-07	2.4957e-07	1024.6	199.58	2.9553e-07	2.8039e-07	256.04	72.955	55.561	16.608	2.6909e-07	23.291	-28.236	-51.292	-97.053	-154.165	-42.462	-2.490	-154.172	-146.407	-33.943	8.199	-146.915	-140.650	-140.101	-132.337	-31.717	-133.238	-8191	255	
1148.303	1	1	0	0	0.072063	0.059229	0.039241	0.29741	0.1997	0.05471	0.2403	0.20893	0.14108	0.15903	0.16665	0.098473	0.44563	0.057519	0.32049	0.15727	-1.8396	-1.3479	-1.9208	-2.1333	-1.1333	-2.3438	-1.775	-1.6042	-2.1125	-1.0271	-2.275	-1.9958	-1.3792	-2.2938	-1.4396	-1.6979	103.306	175.764	141.981	171.254	-83.502	68.202	147.549	134.633	124.333	-147.358	1.730	186.384	168.882	63.987	64.562	88.656	0.0003837	0.00021746	0.00010241	952.45	3.01e-06	2.154e-06	1043.9	203.25	4.1121e-06	2.813e-06	261.08	73.985	58.073	16.677	1.6852e-06	23.384	4.8428e-05	2.4535e-05	5.8403e-06	932.93	3.5575e-07	2.1657e-07	1026.1	200.48	3.1047e-07	2.624e-07	256.28	72.955	55.732	16.619	2.6413e-07	23.425	-30.816	-60.022	-85.260	-154.182	0.290	-32.092	-154.078	-146.448	-35.266	6.353	-146.726	-139.854	-140.026	-132.609	-3.254	-132.682	-8191	255	
1148.375	1	1	0	0	0.097605	0.2354	0.37559	0.45826	0.16152	0.23643	0.39068	0.28616	0.22455	0.30038	0.10582	0.10338	0.14154	0.12404	0.092777	0.16272	-1.9479	-1.3	-1.9	-2.0729	-1.0917	-2.175	-2.0312	-1.5708	-1.9771	-1.3792	-1.7729	-2.1083	-1.2938	-2.0667	-1.7958	-1.3896	51.494	16.489	49.316	136.314	-93.187	-70.060	109.831	130.089	-138.288	156.524	-33.900	88.078	192.624	38.154	55.822	-135.749	0.00038089	0.00025604	7.6985e-05	955.56	2.4866e-06	1.2117e-06	1049	201.07	3.9787e-06	2.4637e-06	260.95	73.273	56.796	16.503	3.6177e-06	23.339	4.6721e-05	2.3988e-05	6.1045e-06	934.8	3.4529e-07	2.2818e-07	1025.9	199.81	2.9247e-07	2.5424e-07	256.15	72.839	55.198	16.547	2.906e-07	23.341	-32.205	-89.643	-79.536	-153.984	5.324	10.579	-154.263	-146.390	-44.472	15.189	-146.892	-140.603	-139.738	-132.446	-16.817	-133.397	-8191	255	
1148.471	1	1	0	0	0.023157	0.31245	0.15968	0.18089	0.16723	0.15541	0.12912	0.16596	0.11875	0.089128	0.17197	0.070685	0.1966	0.12267	0.05909	0.2572	-1.925	-1.3813	-1.7146	-2.1813	-1.2542	-1.9813	-1.7083	-1.4083	-2.1583	-1.5646	-1.7917	-2.1562	-1.3062	-2.0646	-1.7417	-1.3604	-23.963	-16.673	4.297	94.490	-5.864	90.177	63.112	109.556	-98.596	-132.533	138.476	58.936	110.042	145.350	-68.807	137.962	0.00039358	0.00032318	5.0846e-05	944	3.6366e-06	2.8753e-06	1043.6	202.62	4.0739e-06	2.6303e-06	260.03	73.299	57.431	16.624	3.2009e-06	23.304	4.7286e-05	2.3614e-05	6.3746e-06	928.25	3.4543e-07	2.4415e-07	1024.7	200.1	2.8172e-07	2.499e-07	255.91	72.975	55.529	16.576	2.6774e-07	23.329	-33.055	-57.746	-90.934	-153.914	-15.086	-17.757	-154.184	-146.234	-61.478	-9.360	-146.897	-140.243	-139.651	-132.730	-15.951	-133.044	-8191	255	
1148.591	1	1	0	0	0.21187	0.10676	0.11051	0.31802	0.13709	0.27435	0.16802	0.24217	0.0077013	0.069995	0.20278	0.22402	0.18374	0.21645	0.10864	0.082625	-1.8188	-1.3708	-1.5729	-2.3292	-1.3229	-1.8083	-2.0771	-1.3813	-2.0563	-1.4	-1.5396	-2.2708	-1.075	-1.9146	-2.0333	-1.2167	190.523	185.751	86.577	115.542	119.381	3.396	130.636	112.694	185.557	164.831	-97.195	-80.179	115.850	55.811	86.905	194.504	0.00037922	0.00028544	7.0938e-05	947.06	1.9242e-06	2.7611e-06	1046	202.86	3.4324e-06	1.6001e-06	260.62	73.141	57.41	16.72	3.7116e-06	23.486	4.7584e-05	2.4583e-05	6.8683e-06	929.69	3.1629e-07	2.5446e-07	1025.8	200.08	3.1965e-07	2.6369e-07	256.62	72.727	55.5	16.627	2.7143e-07	23.411	-32.054	-86.709	-85.117	-153.997	-39.732	2.056	-154.109	-146.583	-24.698	-5.099	-146.849	-140.431	-139.964	-132.405	-2.060	-133.139	-8191	255	
1148.688	1	1	0	0	0.050136	0.14663	0.32153	0.1935	0.21341	0.18124	0.32465	0.11967	0.11972	0.12281	0.15149	0.085153	0.031159	0.29807	0.084396	0.17035	-1.7396	-1.5708	-1.5354	-2.4604	-1.3771	-1.975	-2.2458	-1.2854	-2.1375	-1.6417	-1.4458	-2.4188	-1.5042	-1.7313	-1.9229	-1.2687	-111.268	180.465	-132.392	82.731	155.279	-69.084	114.324	174.980	133.696	170.951	123.519	37.402	5.152	-72.683	96.149	171.875	0.0003686	0.00019728	5.9745e-05	948.16	2.9538e-06	2.3536e-06	1046.5	203.83	3.3414e-06	3.2241e-06	262.52	73.658	57.686	16.509	2.4049e-06	23.315	4.8542e-05	2.3026e-05	6.6118e-06	932.31	3.3169e-07	2.4927e-07	1026.6	200.66	3.1084e-07	2.4143e-07	257.11	72.925	55.507	16.537	2.4277e-07	23.426	-32.173	-55.813	-92.925	-153.980	-19.028	2.064	-154.188	-146.769	-9.731	-21.713	-146.795	-140.273	-140.304	-132.819	-21.337	-133.143	-8191	255	
1148.782	1	1	0	0	0.19725	0.28271	0.24654	0.032057	0.012486	0.11905	0.40724	0.16836	0.16799	0.25474	0.33731	0.44407	0.075202	0.072203	0.12595	0.13801	-1.6938	-1.9125	-1.4062	-2.3708	-1.2542	-1.7354	-2.1562	-1.4021	-1.9438	-1.8813	-1.2271	-2.3	-1.4479	-1.4438	-2.1667	-1.4813	141.668	167.139	188.879	108.654	-138.438	111.564	135.354	-128.120	-36.328	174.805	170.031	-132.375	-76.915	-112.211	-77.048	-149.434	0.00037078	0.00025653	6.9583e-05	949.15	2.6734e-06	1.425e-06	1041.9	202.94	4.9045e-06	3.0097e-06	259.65	73.406	57.388	16.658	2.2627e-06	23.309	4.7165e-05	2.2008e-05	6.8818e-06	932.22	3.4805e-07	2.5194e-07	1025.4	200.06	3.2734e-07	2.3823e-07	256.37	72.863	55.337	16.58	2.5601e-07	23.378	-34.118	-103.952	-86.239	-153.740	-18.752	-19.169	-154.512	-146.665	-19.743	-12.790	-147.043	-140.296	-140.139	-132.597	-14.421	-133.278	-8191	255	
1148.880	1	1	0	0	0.20879	0.2105	0.24889	0.29002	0.17871	0.077227	0.091666	0.11524	0.23743	0.21272	0.063448	0.22358	0.26192	0.22718	0.31881	0.037752	-1.45	-1.9125	-1.3458	-2.3125	-1.6125	-1.5458	-2.45	-1.4417	-2.0062	-2.0021	-1.4167	-2.2083	-1.6542	-1.5896	-2.175	-1.2604	117.806	97.575	105.786	109.936	-22.529	130.646	153.983	144.913	-0.495	-60.996	153.011	96.750	141.465	91.288	-132.594	32.929	0.0003718	0.00019258	5.1439e-05	949.59	3.0136e-06	2.6341e-06	1044.6	201.95	4.092e-06	3.4095e-06	259.29	73.402	58.018	16.488	2.672e-06	23.37	4.9075e-05	2.1032e-05	6.9648e-06	932.65	3.1405e-07	2.799e-07	1025.3	199.41	3.4944e-07	2.4349e-07	256.23	72.728	55.723	16.585	2.727e-07	23.352	-31.421	-78.396	-98.157	-153.996	-56.965	-13.469	-154.031	-146.837	-22.995	-5.794	-147.009	-140.347	-139.969	-132.448	-32.597	-133.679	-8191	255	
1148.999	1	1	0	0	0.34535	0.15877	0.14603	0.10969	0.044128	0.16374	0.27199	0.15279	0.12378	0.12793	0.068249	0.13724	0.4334	0.056125	0.13573	0.031921	-1.3729	-2.2042	-1.1333	-2.1583	-1.3625	-1.2583	-2.4813	-1.3563	-1.6396	-2.15	-1.3042	-2.2188	-1.6583	-1.3396	-2.2875	-1.3188	79.657	104.377	-58.341	69.259	-44.626	14.888	-155.094	133.548	32.443	-27.508	-130.280	148.793	121.609	-92.089	-12.340	120.165	0.0003841	0.00029253	7.0342e-05	952.17	2.1491e-06	2.214e-06	1047.3	202.1	3.0573e-06	2.3551e-06	260.08	73.253	58.254	16.55	2.9306e-06	23.44	5.0216e-05	2.2777e-05	6.7564e-06	935.31	3.2354e-07	2.7226e-07	1027.6	200.01	3.2533e-07	2.2672e-07	256.01	72.802	55.47	16.55	2.8271e-07	23.393	-30.206	-68.811	-90.543	-153.821	-15.262	-6.822	-154.269	-146.636	-19.098	-18.028	-146.995	-140.540	-140.039	-132.316	-15.880	-133.538	-8191	255	
1149.070	1	1	0	0	0.081212	0.15696	0.33442	0.097797	0.11881	0.26311	0.16398	0.26687	0.035991	0.38611	0.16688	0.14727	0.22538	0.12853	0.089739	0.30382	-1.4	-2.1417	-1.2229	-2.2271	-2.0104	-1.3375	-2.3208	-1.5187	-1.4562	-2.125	-1.2917	-2.0062	-1.7188	-1.1917	-2.0458	-1.5646	77.489	-126.591	15.705	30.443	-83.356	96.338	165.093	-150.808	44.854	48.325	-82.641	87.922	-80.893	168.614	151.449	127.797	0.00038602	0.00018513	6.6709e-05	950.24	2.6132e-06	1.3887e-06	1050.7	202.97	3.4633e-06	1.5747e-06	260.59	73.358	57.421	16.557	3.4876e-06	22.985	4.9335e-05	2.0277e-05	7.2849e-06	932.09	3.473e-07	2.5744e-07	1027.5	199.67	3.0875e-07	2.5965e-07	256.33	72.872	55.462	16.554	2.7015e-07	23.169	-34.255	-72.352	-94.575	-153.857	-38.786	-7.656	-154.125	-146.770	-30.450	-4.505	-146.834	-140.390	-140.525	-132.423	-18.975	-133.095	-8191	255	
1149.191	1	1	0	0	0.26858	0.11068	0.26739	0.10853	0.13034	0.12348	0.18417	0.075676	0.075254	0.21347	0.09023	0.065395	0.042231	0.27694	0.28726	0.027776	-1.3	-2.3021	-1.1792	-2.1125	-1.8479	-1.2833	-2.3708	-1.7417	-1.5375	-2.2229	-1.2313	-1.6854	-1.9854	-1.2417	-2.0167	-1.875	-100.932	120.726	-69.778	145.186	65.523	8.903	175.084	45.531	-64.554	-43.576	170.227	25.911	-93.796	-64.167	122.083	-117.145	0.00036781	0.00014335	8.0915e-05	947.96	2.7357e-06	2.4037e-06	1040.5	203.35	3.0961e-06	1.075e-06	260.2	73.481	57.895	16.647	3.8311e-06	23.212	4.9563e-05	2.3884e-05	7.2328e-06	932.56	3.2989e-07	2.7631e-07	1024	200.33	3.2346e-07	2.242e-07	256.19	73.004	55.503	16.584	2.7616e-07	23.322	-32.589	-107.324	-60.102	-153.743	-18.926	12.649	-153.936	-146.572	-0.942	-15.143	-147.122	-140.043	-139.834	-132.398	-34.874	-133.487	-8191	255	
1149.287	1	1	0	0	0.15697	0.18223	0.1887	0.12127	0.33097	0.13769	0.29701	0.09894	0.24987	0.26666	0.22342	0.070403	0.13948	0.15806	0.12353	0.13184	-0.94792	-2.1792	-1.3521	-1.8104	-2.2	-1.2292	-2.2646	-1.9375	-1.325	-2.2313	-1.475	-1.6708	-2.1708	-1.3687	-2.1813	-1.9104	148.395	47.781	17.900	59.260	-33.399	21.671	-158.759	-75.085	45.045	-64.036	154.962	16.793	193.890	116.542	107.680	30.320	0.00039817	0.00030498	8.1096e-05	946.71	2.9552e-06	2.075e-06	1042	202.12	2.8492e-06	2.3853e-06	259.94	73.108	57.08	16.473	3.2249e-06	23.248	5.2506e-05	2.2977e-05	7.2907e-06	929.88	3.0098e-07	2.8891e-07	1025.1	199.73	3.537e-07	2.3495e-07	256.21	72.64	55.207	16.516	2.694e-07	23.368	-29.572	-60.692	-89.029	-153.871	-16.673	-35.132	-153.954	-146.715	-24.771	-16.721	-147.189	-140.142	-139.886	-132.633	-28.033	-132.941	-8191	255	
1149.383	1	1	0	0	0.20762	0.28211	0.10426	0.32203	0.10031	0.20294	0.21018	0.27755	0.096042	0.13841	0.0088734	0.119	0.065295	0.066494	0.1784	0.13363	-0.87917	-2.1396	-1.5167	-1.8	-2.2604	-1.3687	-2.1562	-2.2229	-1.1854	-2.2896	-1.6667	-1.5958	-2.1917	-1.4333	-1.9292	-2.1146	-42.562	96.203	-76.659	155.862	-158.444	-37.903	117.890	147.252	111.004	-25.366	19.319	160.946	194.757	-81.527	-50.012	-99.320	0.00037613	0.00025016	7.2036e-05	945.45	2.3094e-06	2.4185e-06	1046	202.96	4.1808e-06	2.1403e-06	261.73	73.312	57.482	16.703	3.0646e-06	23.251	5.0927e-05	2.1108e-05	6.4266e-06	930.86	2.9306e-07	2.65e-07	1023.5	200.02	3.3466e-07	2.2352e-07	256.41	72.618	55.299	16.563	2.6473e-07	23.32	-29.714	-47.584	-62.592	-153.844	-48.041	5.704	-154.009	-146.604	-28.495	-16.548	-146.773	-139.979	-139.791	-132.474	-29.496	-132.866	-8191	255	
1149.480	1	1	0	0	0.17611	0.25629	0.20679	0.067981	0.12469	0.23645	0.19866	0.31613	0.097446	0.23945	0.13003	0.18608	0.17767	0.084333	0.19159	0.25291	-0.87708	-2.2708	-1.4979	-1.5667	-2.1875	-1.2146	-1.8667	-2.1833	-1.3667	-2.0354	-1.7687	-1.4333	-2.2979	-1.5625	-1.7917	-2.1937	110.342	121.768	169.230	-65.834	-162.958	-17.864	79.242	168.657	-5.270	82.634	151.680	73.039	127.883	-146.128	5.638	135.736	0.00039401	0.00024785	9.1336e-05	945.97	3.338e-06	2.2908e-06	1039.7	203.07	2.9577e-06	2.9037e-06	261.23	73.564	57.471	16.459	2.4677e-06	23.192	5.0977e-05	2.0693e-05	6.5906e-06	927.91	3.1054e-07	2.7272e-07	1021.1	199.67	3.5504e-07	2.3777e-07	255.96	72.729	55.396	16.465	2.888e-07	23.317	-33.096	-71.069	-94.888	-153.879	-22.622	-24.747	-153.847	-146.262	-34.868	-3.503	-146.923	-140.071	-139.781	-132.210	-5.421	-133.128	-8191	255	
1149.600	1	1	0	0	0.087443	0.10546	0.27162	0.19947	0.097491	0.15266	0.099661	0.20293	0.058532	0.10532	0.30973	0.13401	0.081157	0.32901	0.18929	0.27418	-0.85208	-1.8833	-1.7812	-1.4021	-2.1813	-1.4312	-1.9229	-2.2896	-1.2729	-1.8667	-1.8292	-1.3604	-2.3396	-1.6167	-1.5854	-2.3479	176.982	-133.497	-69.775	120.949	-72.575	151.635	35.536	176.374	154.787	-30.316	192.496	133.666	148.906	90.682	102.661	156.252	0.0003548	0.00018822	5.5663e-05	944.2	3.579e-06	2.2543e-06	1042.4	202.49	3.7263e-06	3.6374e-06	261.2	73.556	57.399	16.381	3.322e-06	23.247	4.9582e-05	2.4611e-05	6.2048e-06	928.57	3.2354e-07	2.6279e-07	1023.5	199.34	3.6998e-07	2.6636e-07	255.59	72.611	55.318	16.467	3.1693e-07	23.307	-32.220	-89.698	-68.801	-153.630	-5.661	-19.110	-154.054	-146.323	-45.228	3.270	-147.174	-139.883	-139.639	-132.318	-16.280	-133.181	-8191	255	
1149.672	1	1	0	0	0.22343	0.20478	0.15539	0.23059	0.20904	0.051643	0.21843	0.28607	0.1056	0.090221	0.39774	0.16653	0.23247	0.11645	0.088294	0.12036	-0.99792	-2.0083	-1.9333	-1.5417	-2.1333	-1.7375	-1.5063	-2.2917	-1.3979	-2.0042	-2.0396	-1.1938	-2.0792	-1.5667	-1.3771	-2.2271	3.552	-144.667	117.825	84.541	-85.298	114.057	148.164	157.183	171.417	188.242	133.284	91.093	-22.763	117.999	-156.433	146.628	0.00037043	0.00025699	7.0743e-05	944.16	3.3228e-06	2.3889e-06	1037.6	201.92	3.8445e-06	2.2868e-06	259.66	72.938	57.833	16.423	2.8264e-06	23.053	5.1929e-05	2.4853e-05	7.5762e-06	928.06	3.281e-07	2.76e-07	1021.9	199.24	3.6356e-07	2.656e-07	255.6	72.399	55.499	16.492	3.3994e-07	23.177	-27.601	-65.507	-89.611	-153.600	-36.728	3.170	-153.817	-146.342	-40.526	11.047	-146.851	-139.799	-139.604	-132.499	-12.841	-132.528	-8191	255	
1149.768	1	1	0	0	0.1834	0.07433	0.104	0.18416	0.09079	0.31049	0.3342	0.024422	0.37743	0.26015	0.2562	0.29023	0.20763	0.17215	0.099879	0.18199	-1.0354	-1.9958	-2.1063	-1.35	-2.1854	-1.5917	-1.6417	-2.3167	-1.45	-1.6771	-2.2812	-1.4896	-2.1625	-1.825	-1.3854	-2.3937	74.435	-124.157	98.746	120.477	144.233	-44.811	-138.902	-16.726	130.637	49.221	152.913	103.002	-101.835	104.227	74.442	142.368	0.00036929	0.00022282	7.0479e-05	947.5	3.1712e-06	1.7388e-06	1046.1	202.77	3.0447e-06	3.1378e-06	261.85	73.231	57.046	16.374	2.0775e-06	23.346	5.2937e-05	2.5373e-05	6.66e-06	930.13	3.281e-07	2.6172e-07	1026.1	199.73	3.4832e-07	2.6522e-07	255.69	72.874	55.31	16.458	2.7263e-07	23.308	-28.924	-53.730	-81.682	-153.498	-22.209	-10.856	-153.610	-146.229	-32.972	-19.803	-146.616	-140.113	-140.155	-132.546	14.129	-132.811	-8191	255	
1149.864	1	1	0	0	0.31609	0.2726	0.27798	0.27292	0.19029	0.12797	0.17883	0.15169	0.086565	0.050335	0.097795	0.14777	0.036183	0.15537	0.30304	0.058008	-1.1708	-1.6917	-2.3063	-1.3958	-1.9896	-1.9875	-1.3687	-2.4333	-1.4146	-1.5604	-2.3292	-1.3104	-1.975	-1.9646	-1.3312	-2.2479	134.924	-125.568	-158.568	170.016	-161.374	35.371	112.708	134.604	133.249	-0.496	194.004	155.543	-24.406	-101.384	186.046	178.506	0.00036545	0.00013377	6.1266e-05	946.98	2.0955e-06	1.5236e-06	1038.8	202.39	3.2439e-06	2.4222e-06	260.56	73.462	57.164	16.463	3.731e-06	23	5.139e-05	2.3185e-05	6.01e-06	930.48	3.1943e-07	2.7669e-07	1022.6	199.6	3.6132e-07	2.7704e-07	256.26	72.664	55.432	16.493	3.3054e-07	23.152	-28.227	-48.722	-55.462	-153.801	-24.192	-28.501	-153.803	-146.019	-35.482	-30.506	-146.903	-140.041	-139.507	-132.503	-22.560	-133.204	-8191	255	
1149.983	1	1	0	0	0.13485	0.092961	0.15644	0.14072	0.15603	0.17627	0.062971	0.22891	0.044214	0.31814	0.18454	0.059736	0.36756	0.26988	0.18374	0.26409	-1.3354	-1.5146	-2.3354	-1.3729	-1.8958	-2.1458	-1.425	-2.2917	-1.5125	-1.3729	-2.2458	-1.4813	-1.7958	-1.8729	-1.325	-2.2292	123.301	54.618	-77.053	124.789	113.426	51.951	46.453	83.835	8.668	-51.322	100.027	119.690	194.821	147.431	-92.395	-135.764	0.00037634	0.00015652	5.4298e-05	950.32	3.8391e-06	2.2237e-06	1040	201.37	3.7931e-06	2.7688e-06	261.03	72.645	56.82	16.479	2.0072e-06	23.224	5.2899e-05	2.9097e-05	7.5125e-06	930.62	3.6113e-07	2.9655e-07	1025.2	199.18	3.7311e-07	3.2476e-07	255.93	72.238	55.23	16.457	3.3798e-07	23.264	-32.657	-49.333	-75.245	-153.829	-28.348	-3.978	-153.856	-146.442	-35.545	-15.261	-146.649	-140.408	-139.306	-132.284	16.592	-133.031	-8191	255	
1150.079	1	1	0	0	0.13936	0.085247	0.08897	0.27398	0.16712	0.29017	0.093645	0.030771	0.20098	0.10844	0.13812	0.13892	0.11062	0.12494	0.090452	0.2037	-1.225	-1.4292	-2.1646	-1.3542	-1.8333	-2.1667	-1.4271	-2.25	-1.7042	-1.5271	-2.2979	-1.4062	-1.7479	-2.2979	-1.275	-2.2667	-156.818	-107.332	155.024	-161.404	167.272	-136.589	78.702	137.675	132.357	152.667	118.986	19.383	-160.266	117.789	61.788	79.022	0.00036966	0.00030575	7.0197e-05	951.64	1.9309e-06	2.8421e-06	1047.3	202.12	3.8461e-06	3.6797e-06	260.08	73.368	56.839	16.525	3.4442e-06	23.476	5.2392e-05	2.8495e-05	6.7603e-06	933.1	3.5963e-07	2.9266e-07	1029.2	199.46	3.5385e-07	3.0113e-07	256.3	72.613	55.074	16.494	3.3453e-07	23.383	-30.384	-112.270	-94.028	-153.571	-1.756	-15.989	-153.923	-146.274	-28.818	15.734	-146.605	-140.148	-139.498	-132.123	-17.209	-132.932	-8191	255	
1150.175	1	1	0	0	0.055583	0.10523	0.10791	0.093836	0.025488	0.15694	0.24007	0.186	0.024234	0.28675	0.13725	0.13284	0.096489	0.22319	0.16611	0.10669	-1.5271	-1.4229	-2.2125	-1.625	-1.5854	-2.3021	-1.5042	-2.1375	-1.9312	-1.3729	-2.3333	-1.7125	-1.4292	-2.4083	-1.1854	-1.9438	183.142	148.558	-49.550	109.102	82.033	-1.532	98.062	162.065	99.001	5.555	170.866	-57.750	77.827	-153.209	-3.278	-122.285	0.00038545	0.00022176	7.4324e-05	948.62	2.3053e-06	1.8732e-06	1042	202.51	3.8875e-06	1.3739e-06	260.28	72.394	57.313	16.523	1.7284e-06	23.322	5.2316e-05	2.9153e-05	7.9812e-06	934.54	3.9864e-07	2.8089e-07	1028.1	199.84	3.864e-07	3.2704e-07	256.63	72.435	55.545	16.544	3.6341e-07	23.375	-31.045	-58.095	-83.610	-153.582	-26.376	-1.240	-153.527	-145.846	-49.480	-10.270	-146.419	-139.630	-139.812	-132.363	-19.589	-132.600	-8191	255	
1150.271	1	1	0	0	0.27603	0.18259	0.18435	0.33218	0.084197	0.28643	0.090347	0.19369	0.020828	0.15078	0.23881	0.1154	0.24707	0.14025	0.21689	0.24377	-1.6396	-1.2542	-2.1417	-1.7167	-1.3083	-2.3187	-1.5187	-1.7646	-1.9208	-1.1458	-2.1104	-1.6521	-1.3479	-2.3646	-1.2417	-1.6354	9.186	72.947	12.186	156.184	-138.872	14.169	-6.892	11.290	-20.932	47.884	6.019	-150.250	21.480	-104.361	135.885	137.974	0.00037786	0.00029293	8.3458e-05	955.87	2.6225e-06	1.4415e-06	1047.6	202.49	4.4406e-06	1.5826e-06	260.29	73.732	57.777	16.464	4.4452e-06	23.313	5.4485e-05	3.4006e-05	8.6408e-06	937.03	4.3144e-07	3.3505e-07	1029.9	200.28	4.2015e-07	3.9306e-07	256.46	72.874	55.665	16.49	4.3523e-07	23.355	-27.639	-76.194	-73.454	-153.623	-9.215	-12.478	-153.481	-146.310	-33.270	-0.543	-146.558	-140.296	-139.623	-132.213	-33.352	-132.997	-8191	255	
1150.368	1	1	0	0	0.28665	0.2851	0.2446	0.12064	0.21631	0.16849	0.30108	0.14949	0.050137	0.13601	0.28396	0.19367	0.12762	0.083014	0.12387	0.2086	-1.5229	-1.1417	-2.0917	-2.0208	-1.0833	-2.2896	-1.5479	-1.8583	-2.2833	-1.125	-1.9667	-1.7625	-1.2354	-2.3167	-1.3042	-1.7771	174.175	-68.159	119.867	168.701	148.823	36.601	99.165	-51.644	83.196	-114.324	156.425	-146.363	60.679	-161.792	181.819	-91.788	0.00034884	0.00022498	5.1628e-05	954.76	3.0871e-06	2.8768e-06	1047.7	203.65	3.3935e-06	3.3422e-06	261.03	73.172	57.361	16.549	2.0151e-06	23.273	5.9052e-05	3.9613e-05	9.5705e-06	937.7	4.963e-07	3.8677e-07	1029.5	200.13	4.7212e-07	4.2691e-07	255.92	72.63	55.289	16.522	4.602e-07	23.337	-31.598	-61.708	-54.124	-153.818	-6.845	19.391	-154.007	-146.025	-35.313	1.860	-146.554	-140.539	-139.117	-132.538	-4.989	-132.745	-8191	255	
1150.464	1	1	0	0	0.10676	0.17632	0.088647	0.39323	0.36816	0.19077	0.29266	0.23671	0.21429	0.089551	0.14021	0.25023	0.12583	0.19325	0.32284	0.072592	-2.0333	-1.1979	-2.1375	-2.1229	-1.2375	-2.175	-1.4937	-1.7667	-2.1271	-1.2146	-2.0479	-1.9458	-1.2354	-2.2604	-1.3708	-1.3125	-70.965	9.731	65.796	-78.365	-1.174	86.736	174.140	-116.319	-60.451	24.091	29.490	101.622	-49.957	123.517	156.803	117.973	0.00036521	0.0002789	6.1215e-05	955.88	3.0855e-06	2.6187e-06	1048.3	202.84	3.9007e-06	2.5762e-06	259.43	72.987	57.27	16.432	3.1616e-06	22.978	6.0929e-05	4.2902e-05	1.0645e-05	937.36	5.2521e-07	4.2191e-07	1030.3	199.87	5.0976e-07	4.6785e-07	255.27	72.438	55.48	16.46	4.6102e-07	23.198	-32.038	-48.437	-87.483	-153.722	-21.893	1.220	-154.114	-146.200	-44.705	-37.098	-146.673	-140.210	-139.504	-132.120	-7.410	-133.027	-8191	255	
1150.560	1	1	0	0	0.19955	0.2249	0.1588	0.21458	0.1678	0.19294	0.12181	0.048247	0.10422	0.27627	0.10015	0.46669	0.087703	0.20733	0.25043	0.055749	-1.8875	-1.1979	-1.8479	-2.1979	-1.0542	-2.175	-1.8021	-1.4771	-2.3917	-1.4229	-1.825	-2.1729	-1.1729	-2.0958	-1.7125	-1.3813	-69.022	184.338	158.221	-155.149	-33.708	0.538	159.239	156.801	-109.058	-126.220	117.793	173.566	107.594	81.145	13.071	-130.029	0.00038292	0.00027826	7.8145e-05	959.24	2.6719e-06	3.5579e-06	1050.6	202.23	3.2184e-06	2.6489e-06	257.77	73.231	57.187	16.524	3.5897e-06	23.296	6.7044e-05	4.6155e-05	1.2385e-05	940.07	5.6444e-07	4.9143e-07	1033	200	5.0281e-07	4.8218e-07	256.59	72.652	55.487	16.557	4.5644e-07	23.327	-36.177	-68.066	-68.368	-153.792	-8.392	-7.416	-154.079	-146.048	-46.727	13.027	-146.636	-139.832	-139.532	-132.405	8.755	-132.723	-8191	255	
#DATA ENDS
