BOXY.EXE: ISS Imagent and Oximeter Data Acquisition Program Version 0.80
Ascii Record File

#ACQ INFORMATION
2  Detector Channels 
16  External MUX Channels 
1  Auxiliary Channels 
5000  Waveform (CCF) Frequency (Hz)
1  Waveforms Skipped 
30  Waveforms Averaged 
1  Cycles Averaged 
16  Acquisitions per Waveform 
10.0806  Updata Rate (Hz) 

#FILE INFORMATION
TRUE -- External MUX Channel results are PARSED.
FALSE -- AC DC and Phase are NOT grouped.
TRUE -- Companion Program Settings File CREATED.
FALSE -- AC data not excluded
FALSE -- DC data not excluded
FALSE -- Phase data not excluded
FALSE -- Auxillary Chn. data not excluded
Tab delimiters

#CALIBRATION STATE
TRUE -- Waveform Calibration Values APPLIED.


#AUX CALIBRATION VALUES
Val Type	aux-1	

Term	1.0000e+00	
Factor	0.0000e+00	


#WF CALIBRATION VALUES
A = Detector Channel
Val Type	A-AC1	A-AC2	A-AC3	A-AC4	A-AC5	A-AC6	A-AC7	A-AC8	A-AC9	A-AC10	A-AC11	A-AC12	A-AC13	A-AC14	A-AC15	A-AC16	A-DC1	A-DC2	A-DC3	A-DC4	A-DC5	A-DC6	A-DC7	A-DC8	A-DC9	A-DC10	A-DC11	A-DC12	A-DC13	A-DC14	A-DC15	A-DC16	A-Ph1	A-Ph2	A-Ph3	A-Ph4	A-Ph5	A-Ph6	A-Ph7	A-Ph8	A-Ph9	A-Ph10	A-Ph11	A-Ph12	A-Ph13	A-Ph14	A-Ph15	A-Ph16	

Term	0.00000e+00	0.00000e+00	0.00000e+00	0.00000e+00	0.00000e+00	0.00000e+00	0.00000e+00	0.00000e+00	0.00000e+00	0.00000e+00	0.00000e+00	0.00000e+00	0.00000e+00	0.00000e+00	0.00000e+00	0.00000e+00	0.00000e+00	0.00000e+00	0.00000e+00	0.00000e+00	0.00000e+00	0.00000e+00	0.00000e+00	0.00000e+00	0.00000e+00	0.00000e+00	0.00000e+00	0.00000e+00	0.00000e+00	0.00000e+00	0.00000e+00	0.00000e+00	0.00000e+00	0.00000e+00	0.00000e+00	0.00000e+00	0.00000e+00	0.00000e+00	0.00000e+00	0.00000e+00	0.00000e+00	0.00000e+00	0.00000e+00	0.00000e+00	0.00000e+00	0.00000e+00	0.00000e+00	0.00000e+00	
Factor	1.00000e+00	1.00000e+00	1.00000e+00	1.00000e+00	1.00000e+00	1.00000e+00	1.00000e+00	1.00000e+00	1.00000e+00	1.00000e+00	1.00000e+00	1.00000e+00	1.00000e+00	1.00000e+00	1.00000e+00	1.00000e+00	1.00000e+00	1.00000e+00	1.00000e+00	1.00000e+00	1.00000e+00	1.00000e+00	1.00000e+00	1.00000e+00	1.00000e+00	1.00000e+00	1.00000e+00	1.00000e+00	1.00000e+00	1.00000e+00	1.00000e+00	1.00000e+00	X	X	X	X	X	X	X	X	X	X	X	X	X	X	X	X	

B = Detector Channel
Val Type	B-AC1	B-AC2	B-AC3	B-AC4	B-AC5	B-AC6	B-AC7	B-AC8	B-AC9	B-AC10	B-AC11	B-AC12	B-AC13	B-AC14	B-AC15	B-AC16	B-DC1	B-DC2	B-DC3	B-DC4	B-DC5	B-DC6	B-DC7	B-DC8	B-DC9	B-DC10	B-DC11	B-DC12	B-DC13	B-DC14	B-DC15	B-DC16	B-Ph1	B-Ph2	B-Ph3	B-Ph4	B-Ph5	B-Ph6	B-Ph7	B-Ph8	B-Ph9	B-Ph10	B-Ph11	B-Ph12	B-Ph13	B-Ph14	B-Ph15	B-Ph16	

Term	0.00000e+00	0.00000e+00	0.00000e+00	0.00000e+00	0.00000e+00	0.00000e+00	0.00000e+00	0.00000e+00	0.00000e+00	0.00000e+00	0.00000e+00	0.00000e+00	0.00000e+00	0.00000e+00	0.00000e+00	0.00000e+00	0.00000e+00	0.00000e+00	0.00000e+00	0.00000e+00	0.00000e+00	0.00000e+00	0.00000e+00	0.00000e+00	0.00000e+00	0.00000e+00	0.00000e+00	0.00000e+00	0.00000e+00	0.00000e+00	0.00000e+00	0.00000e+00	-2.23846e+00	-1.31119e+02	-1.35896e+02	-1.81478e+02	-5.32445e+01	-6.29258e+01	-1.58115e+02	-1.62015e+02	-5.21912e+01	-6.51356e+01	-1.73607e+02	-1.71776e+02	-1.83012e+02	-1.76573e+02	-5.74558e+01	-1.49837e+02	
Factor	3.30459e-05	1.49444e-04	4.39707e-05	1.58432e-01	1.72561e-06	1.36174e-06	1.67435e-01	4.77828e-02	1.66550e-06	1.80684e-06	9.40725e-02	2.82132e-02	5.96618e-02	8.24392e-03	1.74084e-06	1.21984e-02	3.04457e-06	3.32303e-06	9.25805e-07	8.43004e-02	3.58660e-08	3.66680e-08	8.32303e-02	2.54810e-02	3.58404e-08	3.65924e-08	4.79435e-02	1.44760e-02	3.08274e-02	4.42958e-03	3.60998e-08	6.29450e-03	X	X	X	X	X	X	X	X	X	X	X	X	X	X	X	X	



#DISTANCE SETTINGS
A = Detector Channel
A-1	A-2	A-3	A-4	A-5	A-6	A-7	A-8	A-9	A-10	A-11	A-12	A-13	A-14	A-15	A-16	

2.5000e+00	3.0000e+00	2.5000e+00	3.0000e+00	2.0000e+00	3.0000e+00	1.5000e+00	3.0000e+00	3.0000e+00	3.0000e+00	3.0000e+00	3.0000e+00	3.0000e+00	3.0000e+00	1.5000e+00	3.0000e+00	

B = Detector Channel
B-1	B-2	B-3	B-4	B-5	B-6	B-7	B-8	B-9	B-10	B-11	B-12	B-13	B-14	B-15	B-16	

1.0000e+01	1.0000e+01	1.0000e+01	1.4400e+00	1.0000e+01	1.0000e+01	1.5100e+00	1.9400e+00	1.0000e+01	1.0000e+01	1.9900e+00	2.4900e+00	2.4100e+00	2.9000e+00	1.0000e+01	2.9800e+00	




#DATA BEGINS
time	group	step	mark	flag	A-AC1	A-AC2	A-AC3	A-AC4	A-AC5	A-AC6	A-AC7	A-AC8	A-AC9	A-AC10	A-AC11	A-AC12	A-AC13	A-AC14	A-AC15	A-AC16	A-DC1	A-DC2	A-DC3	A-DC4	A-DC5	A-DC6	A-DC7	A-DC8	A-DC9	A-DC10	A-DC11	A-DC12	A-DC13	A-DC14	A-DC15	A-DC16	A-Ph1	A-Ph2	A-Ph3	A-Ph4	A-Ph5	A-Ph6	A-Ph7	A-Ph8	A-Ph9	A-Ph10	A-Ph11	A-Ph12	A-Ph13	A-Ph14	A-Ph15	A-Ph16	B-AC1	B-AC2	B-AC3	B-AC4	B-AC5	B-AC6	B-AC7	B-AC8	B-AC9	B-AC10	B-AC11	B-AC12	B-AC13	B-AC14	B-AC15	B-AC16	B-DC1	B-DC2	B-DC3	B-DC4	B-DC5	B-DC6	B-DC7	B-DC8	B-DC9	B-DC10	B-DC11	B-DC12	B-DC13	B-DC14	B-DC15	B-DC16	B-Ph1	B-Ph2	B-Ph3	B-Ph4	B-Ph5	B-Ph6	B-Ph7	B-Ph8	B-Ph9	B-Ph10	B-Ph11	B-Ph12	B-Ph13	B-Ph14	B-Ph15	B-Ph16	aux-1	digaux	

1099.974	1	1	0	256	0.26056	0.035436	0.32794	0.10874	0.24832	0.20754	0.14082	0.16379	0.041375	0.29186	0.12261	0.17106	0.14443	0.3209	0.3012	0.34965	-0.81667	-2.225	-0.625	-1.5375	-1.8958	-0.92292	-2.0375	-1.625	-1.3521	-1.9667	-1.3271	-1.4271	-1.9292	-1.1292	-1.7292	-1.4667	42.517	147.568	60.091	-85.530	165.778	61.485	130.702	184.112	-57.826	-117.895	45.077	-82.566	188.551	113.459	120.556	129.913	0.00039063	0.00031109	5.8962e-05	1023.8	3.0115e-06	1.9697e-06	1115.6	208.12	4.3999e-06	2.5321e-06	266.4	75.23	59.867	17.081	2.4335e-06	23.958	7.4941e-05	4.7249e-05	1.4288e-05	1005	5.9291e-07	5.776e-07	1092.9	206.22	6.4154e-07	5.2853e-07	262.25	74.878	57.862	17.158	5.6481e-07	24.048	-30.977	-111.832	-90.166	-154.572	-47.327	-24.099	-154.480	-147.215	-26.412	4.696	-147.477	-140.499	-139.760	-132.875	-21.336	-133.698	-8191	255	
1100.071	1	1	0	0	0.17178	0.19742	0.11955	0.22342	0.056129	0.20891	0.13304	0.26671	0.31119	0.14118	0.068998	0.23688	0.17128	0.16946	0.18337	0.13836	-0.61458	-2.025	-1.35	-1.4833	-1.8604	-0.99792	-1.9583	-1.8479	-1.0417	-1.9542	-1.4417	-1.4271	-1.9146	-1.0708	-1.6667	-1.6875	-72.699	147.786	79.833	153.826	-75.096	-69.198	121.484	-142.623	189.416	166.995	82.150	68.486	23.296	98.914	-44.830	-19.164	0.0004239	0.00030429	7.0152e-05	1019.6	3.9521e-06	1.5351e-06	1107.5	208.46	3.2842e-06	2.133e-06	267.08	75.925	60.55	17.21	2.2989e-06	24.157	7.7687e-05	4.6377e-05	1.349e-05	1004.7	6.012e-07	5.4865e-07	1090.2	206.34	6.234e-07	5.267e-07	262.29	75.011	58.192	17.233	5.6075e-07	24.077	-30.747	-84.470	-74.957	-154.127	-40.854	19.296	-154.640	-146.948	-36.792	-25.754	-147.272	-140.874	-140.642	-133.072	5.521	-133.898	-8191	255	
1100.142	1	1	0	0	0.033718	0.050574	0.21515	0.17754	0.12361	0.058665	0.17197	0.34666	0.20848	0.32524	0.084925	0.17778	0.072312	0.1664	0.0066676	0.33632	-0.61875	-1.75	-1.3771	-1.5375	-1.9562	-1.1271	-1.8104	-1.8021	-0.9625	-1.8583	-1.5396	-1.2563	-1.9813	-1.1187	-1.4583	-2.0146	97.295	-95.804	121.406	52.373	-111.356	-133.735	129.349	51.535	81.717	-116.068	66.804	-115.914	-10.764	172.060	127.166	53.256	0.00040374	0.00025475	9.488e-05	1026.1	2.6738e-06	2.7305e-06	1113.8	210.2	4.0338e-06	1.7628e-06	265.16	75.746	59.673	17.174	2.6018e-06	23.897	7.4928e-05	4.5726e-05	1.2668e-05	1005.7	5.5166e-07	5.407e-07	1090.7	206.37	6.2041e-07	4.8851e-07	261.91	74.98	57.612	17.173	5.9264e-07	24.059	-29.024	-68.842	-92.943	-154.456	-27.985	-4.763	-154.439	-146.873	-45.228	-0.037	-147.637	-140.401	-140.441	-132.713	-12.261	-133.254	-8191	255	
1100.238	1	1	0	0	0.1872	0.11835	0.17578	0.15229	0.21237	0.044957	0.30189	0.26756	0.20194	0.08646	0.23786	0.22176	0.17078	0.15865	0.091037	0.030819	-0.53333	-2.1688	-1.4729	-1.4083	-1.9521	-1.2271	-1.6875	-1.9458	-0.89792	-1.8417	-1.6271	-0.9375	-1.9354	-1.2208	-1.5854	-2.0792	109.426	123.521	-46.569	-128.277	-149.592	60.704	91.233	-150.714	-145.616	65.565	163.982	-155.406	-92.567	-146.065	57.650	-73.041	0.00036628	0.00024234	3.0321e-05	1022.1	2.16e-06	1.9345e-06	1105.7	208.78	4.2643e-06	3.6441e-06	266.65	75.441	59.762	17.189	3.0684e-06	23.998	7.7516e-05	4.7692e-05	1.3108e-05	1005.6	6.0472e-07	5.0388e-07	1087	206.44	5.951e-07	5.2571e-07	262.23	74.783	57.854	17.184	5.4729e-07	24.031	-30.392	-108.137	-108.606	-154.335	1.178	-19.925	-154.453	-146.521	-37.810	-17.161	-147.582	-140.486	-140.452	-132.822	-10.460	-133.969	-8191	255	
1100.357	1	1	0	0	0.37189	0.2838	0.058256	0.11746	0.090244	0.13595	0.27613	0.26318	0.211	0.13365	0.25198	0.076735	0.18121	0.063127	0.12096	0.078537	-0.50417	-1.8458	-1.725	-1.0729	-1.9562	-1.2479	-1.3438	-2.0521	-1.0667	-1.7354	-1.7271	-1.0688	-1.8188	-1.4583	-1.2396	-2.0271	117.848	-4.351	-2.739	-144.387	130.374	-132.016	158.489	113.569	129.481	-49.213	-159.835	47.025	-11.476	24.043	-4.151	38.548	0.00040894	0.00030135	5.013e-05	1025.5	2.7297e-06	2.3575e-06	1103.1	208.52	3.0473e-06	2.5555e-06	264.79	75.309	60.367	17.167	1.4981e-06	23.912	7.7008e-05	4.7561e-05	1.3739e-05	1004.1	5.9224e-07	5.1702e-07	1087.2	206.24	6.3438e-07	5.4142e-07	261.52	74.775	57.92	17.186	5.5624e-07	23.993	-30.098	-99.840	-80.970	-154.188	-21.509	-2.550	-154.391	-147.179	-33.844	9.768	-147.370	-140.746	-140.603	-132.883	4.823	-134.019	-8191	255	
1100.453	1	1	0	0	0.12829	0.031786	0.1013	0.47353	0.10508	0.24484	0.22179	0.096854	0.14669	0.28724	0.2267	0.31136	0.15766	0.2742	0.087061	0.12312	-0.55417	-1.4958	-1.9542	-1.025	-1.9208	-1.3917	-1.4271	-2.0208	-1.0438	-1.575	-1.8438	-1.1042	-1.9583	-1.4979	-1.0688	-1.9354	-69.068	4.098	31.333	194.674	-114.918	1.644	97.862	-162.981	33.689	-133.071	45.391	-49.629	-7.442	24.723	-31.021	180.269	0.00040404	0.0002573	0.00010599	1022.5	3.5588e-06	3.1349e-06	1104.1	207.71	3.5415e-06	2.517e-06	266.92	75.222	59.516	17.183	4.2941e-06	23.9	7.3108e-05	4.9721e-05	1.3222e-05	1003.5	5.8484e-07	5.3367e-07	1087.5	205.82	6.1056e-07	5.729e-07	262.1	74.748	57.893	17.174	5.9264e-07	23.971	-33.075	-76.049	-66.381	-154.450	-40.228	-9.925	-154.337	-146.808	-30.735	0.826	-147.210	-140.471	-139.934	-132.754	-23.579	-133.666	-8191	255	
1100.550	1	1	0	0	0.061266	0.17935	0.092248	0.20167	0.16526	0.10574	0.10604	0.22094	0.10753	0.09683	0.28482	0.1523	0.21507	0.345	0.17777	0.29638	-0.96875	-1.7104	-1.9146	-1.0792	-1.9271	-1.575	-1.1354	-2.0396	-1.0812	-1.5083	-2.0438	-0.95417	-1.5958	-1.7771	-0.9375	-1.9375	169.978	-22.366	-92.107	163.889	179.020	93.463	126.430	122.817	130.746	10.043	177.312	183.589	101.923	79.836	45.721	147.603	0.00035371	0.00023198	7.5463e-05	1016.9	4.196e-06	8.1113e-07	1103.8	208.04	4.3201e-06	1.9683e-06	266.89	75.188	59.944	17.086	2.8029e-06	24.008	7.3894e-05	4.7879e-05	1.342e-05	1001	5.9052e-07	5.0915e-07	1086.1	205.87	5.9167e-07	5.3394e-07	261.99	74.827	57.835	17.114	5.7745e-07	24.074	-26.583	-148.971	-93.117	-154.300	-24.646	-12.370	-154.290	-147.013	-37.654	16.613	-147.303	-140.653	-139.942	-132.746	20.863	-133.434	-8191	255	
1100.670	1	1	0	0	0.16414	0.1011	0.19076	0.27088	0.34205	0.11517	0.46564	0.082744	0.23738	0.29095	0.065992	0.23795	0.24388	0.22242	0.23071	0.3051	-0.975	-1.2646	-2.1167	-0.97292	-1.6729	-1.7417	-1.0562	-2.0708	-1.4188	-1.1938	-2.0167	-1.0208	-1.6271	-1.8875	-0.90208	-1.9188	-135.421	-39.231	179.772	-142.352	-14.309	38.547	84.712	-86.523	161.983	-135.384	-142.612	184.402	173.073	37.257	132.472	166.701	0.00038061	0.00016132	5.0401e-05	1023.7	3.0271e-06	1.0796e-06	1108.8	209.86	4.5151e-06	3.3617e-06	264.78	75.181	59.96	17.205	4.3947e-06	23.971	7.6438e-05	5.0275e-05	1.3376e-05	1003.9	6.0389e-07	5.3237e-07	1088.3	206.62	6.3266e-07	5.8472e-07	261.49	74.591	57.999	17.133	5.9324e-07	23.975	-33.306	-55.400	-75.190	-154.345	-46.420	-34.684	-154.359	-146.636	-24.134	-32.504	-147.542	-140.936	-140.097	-133.078	-12.405	-133.480	-8191	255	
1100.742	1	1	0	0	0.1681	0.11381	0.094123	0.12941	0.13608	0.21974	0.18616	0.11734	0.043334	0.22724	0.093536	0.10097	0.14616	0.18307	0.16536	0.13524	-1.2167	-1.2104	-1.9875	-1.2396	-1.3917	-1.9125	-1.0417	-1.9688	-1.5812	-1.1292	-2.3	-1.4062	-1.3292	-1.9646	-1.125	-1.7292	13.863	-163.442	-28.101	170.560	-136.718	191.271	182.470	57.007	87.204	-11.052	191.645	141.941	39.978	112.124	-114.253	60.058	0.00037556	0.00033203	8.9825e-05	1017.8	2.0577e-06	2.6559e-06	1105.5	208.49	4.8638e-06	1.8549e-06	265.73	75.713	59.343	17.114	4.5035e-07	24.013	7.333e-05	5.0759e-05	1.456e-05	1001.4	5.7998e-07	5.313e-07	1087.3	206.15	6.1257e-07	5.7252e-07	262.03	74.917	57.639	17.154	5.7474e-07	24.077	-29.546	-63.836	-49.295	-154.270	-50.114	-13.200	-154.368	-146.759	-12.750	-15.992	-147.363	-140.397	-139.762	-133.531	2.505	-133.347	-8191	255	
1100.838	1	1	0	0	0.10073	0.14337	0.14491	0.37938	0.35805	0.07965	0.13945	0.12604	0.060494	0.32552	0.088801	0.21495	0.096457	0.18955	0.29639	0.20261	-1.4896	-0.9875	-2.0333	-1.3979	-1.4229	-2.0187	-1.2812	-1.8042	-1.8042	-1.1104	-2.0375	-1.4708	-1.3146	-2.1833	-1.2417	-1.7604	-15.625	0.072	164.909	107.007	153.735	65.553	163.281	94.488	15.225	124.175	187.448	111.693	-160.832	63.830	180.471	92.979	0.00034872	0.00031019	0.00011117	1019.2	4.9008e-06	2.2192e-06	1105.8	208.26	3.3436e-06	3.2356e-06	265.84	75.214	60.315	17.157	3.0614e-06	23.745	7.4655e-05	5.4636e-05	1.3021e-05	1002.3	5.962e-07	5.0518e-07	1086.1	206.46	5.9099e-07	5.6307e-07	261.18	74.573	57.946	17.175	5.6917e-07	23.994	-31.227	-77.798	-104.357	-154.509	-22.881	-15.611	-154.600	-146.651	-43.019	-47.736	-147.204	-140.722	-140.447	-132.824	10.288	-133.572	-8191	255	
1100.959	1	1	0	0	0.1425	0.2103	0.19354	0.2608	0.06219	0.23121	0.18725	0.088722	0.27207	0.23469	0.25234	0.23011	0.23789	0.20755	0.071879	0.081093	-1.3646	-1.0104	-1.8458	-1.6187	-1.2167	-2.0187	-1.3438	-1.7146	-1.7292	-1.0208	-2.125	-1.5708	-1.2854	-2.0667	-1.3	-1.6208	-106.147	-93.614	124.663	129.845	-127.823	-83.178	45.082	-89.252	-41.096	67.702	180.789	86.199	-116.271	124.377	32.179	104.151	0.00038239	0.00028864	6.7315e-05	1017	2.6185e-06	1.882e-06	1108.2	208.36	2.7694e-06	3.6635e-06	266.06	75.6	60.508	17.198	3.1163e-06	23.799	7.1249e-05	4.7789e-05	1.3036e-05	1000.3	6.0106e-07	4.8226e-07	1087.2	205.95	5.8472e-07	5.3455e-07	261.08	74.789	57.96	17.2	5.3954e-07	23.95	-30.917	-43.721	-78.798	-154.477	-27.794	-3.900	-154.923	-146.913	-7.046	16.020	-146.926	-140.687	-140.677	-133.407	-32.713	-133.425	-8191	255	
1101.055	1	1	0	0	0.096739	0.096659	0.17077	0.19376	0.28784	0.16578	0.24518	0.050867	0.27316	0.11807	0.20847	0.30003	0.082316	0.26347	0.1871	0.046355	-1.375	-0.84792	-1.825	-1.7625	-0.94583	-1.8854	-1.2167	-1.5167	-1.775	-0.925	-1.8937	-1.6875	-0.93542	-2.0958	-1.3125	-1.4312	-45.535	-111.470	46.715	145.543	184.438	17.171	129.341	98.186	-21.156	59.702	-122.704	109.653	-21.465	18.192	145.175	-110.311	0.00032683	0.00027043	5.2561e-05	1018.2	2.322e-06	1.8686e-06	1109.3	209.11	3.8661e-06	2.374e-06	265.84	75.354	59.652	17.027	3.4243e-06	24.095	6.6803e-05	5.0261e-05	1.32e-05	1001.3	6.1443e-07	4.7837e-07	1085.9	206.33	5.727e-07	5.2388e-07	261.9	74.687	57.621	17.113	5.424e-07	24.079	-32.999	-68.631	-83.351	-154.371	-51.597	-13.459	-154.424	-147.081	-31.793	-31.805	-147.360	-140.796	-140.754	-132.978	-7.430	-133.276	-8191	255	
1101.151	1	1	0	0	0.1021	0.0091242	0.066805	0.15825	0.19466	0.15546	0.13654	0.19347	0.20216	0.16304	0.14255	0.21027	0.16849	0.045408	0.18424	0.24512	-1.55	-0.97917	-1.7604	-1.7896	-1.1167	-2.0521	-1.5479	-1.1812	-1.9396	-0.89583	-1.7458	-1.6667	-0.99167	-2	-1.4813	-1.2375	-62.195	77.559	-14.850	151.847	-162.339	-87.473	146.478	-121.058	71.915	-91.522	-91.017	-41.304	-115.912	-82.173	-48.597	192.648	0.0003997	0.00013683	5.2651e-05	1016.3	1.6457e-06	1.7946e-06	1107.1	209.11	4.5442e-06	2.4914e-06	265.05	75.248	59.314	17.092	1.8496e-06	24.004	7.2264e-05	4.9105e-05	1.2539e-05	1000.5	5.6459e-07	5.0082e-07	1088.2	206.37	5.3387e-07	5.2564e-07	261.56	74.691	57.691	17.164	4.8178e-07	24.014	-26.404	-49.079	-91.264	-154.043	-9.408	20.013	-154.427	-146.913	-9.485	-24.097	-147.359	-140.906	-139.825	-133.003	-28.752	-133.340	-8191	255	
1101.270	1	1	0	0	0.089118	0.04913	0.19236	0.31646	0.1252	0.215	0.17455	0.079738	0.14325	0.11403	0.13531	0.19584	0.25241	0.18171	0.18721	0.034271	-1.5875	-1.0229	-1.6708	-1.8833	-0.99375	-2.0583	-1.5604	-1.1729	-2.0083	-1.1292	-1.7208	-1.8438	-1.0333	-1.9937	-1.6354	-1.3667	-73.005	65.844	-63.973	122.884	-55.222	26.506	150.145	151.230	170.594	-137.814	107.805	96.301	100.656	134.568	119.518	-121.456	0.00036643	0.00031575	4.7958e-05	1019.9	4.5462e-06	1.3659e-06	1106.4	208.98	4.0643e-06	1.7085e-06	264.85	75.214	59.39	17.231	3.0814e-06	24.088	6.5319e-05	4.4162e-05	1.1731e-05	1000.1	5.6414e-07	4.3841e-07	1083.9	206.3	5.005e-07	4.4765e-07	261.55	74.661	57.783	17.201	5.1517e-07	24.044	-32.691	-41.575	-82.849	-154.319	-18.290	5.473	-154.675	-146.821	-34.389	-1.824	-147.264	-140.790	-140.703	-132.821	-30.889	-133.507	-8191	255	
1101.366	1	1	0	0	0.5305	0.25223	0.075959	0.16541	0.032534	0.22304	0.18668	0.19278	0.17076	0.14275	0.18384	0.11206	0.1549	0.072081	0.24721	0.25429	-1.45	-1.125	-1.45	-2.0625	-0.95208	-1.7646	-1.7333	-1.0021	-1.9625	-1.1167	-1.4354	-1.875	-1.1542	-1.7771	-1.7271	-1.2625	52.518	179.429	52.677	72.470	60.852	174.156	-154.264	142.178	163.150	-132.835	-154.798	174.928	167.475	-160.231	118.172	95.067	0.00037203	0.0002084	5.7982e-05	1021.6	3.4886e-06	1.8017e-06	1102.9	207.84	4.8679e-06	3.0318e-06	266.04	75.799	60.31	17.119	2.156e-06	24.129	6.7298e-05	4.4487e-05	1.1567e-05	1001.1	5.6922e-07	4.4674e-07	1086.3	206.21	5.5448e-07	5.1649e-07	261.96	74.897	57.765	17.14	4.7125e-07	24.025	-28.154	-85.680	-89.715	-154.550	-15.139	-30.214	-154.553	-146.674	-37.487	-15.604	-147.278	-140.600	-140.252	-133.295	-33.827	-133.907	-8191	255	
1101.438	1	1	0	0	0.1479	0.2971	0.039164	0.1457	0.17775	0.45762	0.27276	0.26096	0.12385	0.1084	0.13717	0.040004	0.12953	0.24503	0.24552	0.10926	-1.5833	-1.2646	-1.3062	-1.9771	-1.1521	-1.9229	-1.8625	-1.2458	-2.15	-1.5542	-1.3146	-2.3	-1.1792	-1.8125	-1.8125	-1.1313	159.853	16.864	28.439	188.008	143.615	-59.040	133.869	96.017	147.900	-3.885	-79.349	-141.595	135.490	-164.635	51.988	90.778	0.00039306	0.000218	5.4349e-05	1020.4	2.8705e-06	2.4096e-06	1106.1	208.07	3.2579e-06	2.9474e-06	266.47	74.838	59.701	17.05	3.0611e-06	23.865	6.6188e-05	4.3151e-05	1.2255e-05	1002.4	5.5884e-07	4.7745e-07	1086.5	205.77	5.0625e-07	4.8005e-07	261.85	74.669	57.609	17.121	4.8246e-07	23.957	-32.665	-67.531	-109.223	-154.413	-5.658	-14.391	-154.635	-146.976	-48.208	-11.693	-147.388	-140.313	-140.472	-132.533	11.809	-133.639	-8191	255	
1101.534	1	1	0	0	0.10885	0.12724	0.16757	0.29723	0.18531	0.19799	0.24783	0.33364	0.12773	0.0075508	0.19845	0.1431	0.094901	0.34554	0.12849	0.23292	-1.6458	-1.3167	-1.1562	-2.2479	-1.2625	-1.575	-2.1854	-1.0833	-2.1583	-1.4625	-1.3146	-2.1875	-1.1396	-1.6417	-2.0187	-1.0667	-97.345	147.879	110.657	179.305	-98.095	-86.572	152.868	178.732	-74.088	-139.422	-163.496	71.773	-139.149	127.088	-53.157	78.022	0.00038885	0.00033748	5.1146e-05	1014.8	2.8765e-06	2.5743e-06	1107.8	208.84	4.4432e-06	2.3171e-06	266.21	74.797	59.464	17.061	3.5171e-06	23.796	6.6695e-05	4.2784e-05	1.2795e-05	998.02	5.5062e-07	4.624e-07	1085.9	206.01	5.2267e-07	4.5756e-07	262.27	74.48	57.663	17.122	4.8133e-07	23.941	-26.542	-89.677	-71.938	-154.327	-51.212	-19.468	-154.550	-146.955	-25.370	-6.428	-147.405	-140.304	-140.437	-132.458	-24.869	-133.439	-8191	255	
1101.654	1	1	0	0	0.075835	0.16302	0.12862	0.27361	0.15838	0.21427	0.046499	0.406	0.11366	0.27649	0.09638	0.18165	0.10591	0.39825	0.1394	0.11732	-1.4146	-1.6437	-0.86458	-2.1688	-1.1979	-1.2271	-2.1667	-1.1167	-1.8792	-1.7917	-1.2292	-2.0438	-1.1917	-1.3396	-2.1271	-1.1562	-48.550	-15.938	-150.790	-158.829	3.168	167.354	147.164	116.181	28.408	-67.349	138.576	-126.511	22.650	59.059	-1.945	106.023	0.00036427	0.00032561	7.8435e-05	1016.5	2.7513e-06	2.0463e-06	1104.5	209.04	3.0165e-06	1.8154e-06	265.09	75.094	59.658	17.197	2.2917e-06	23.588	6.5388e-05	4.3061e-05	1.2817e-05	1000.3	5.9381e-07	4.6164e-07	1085.6	205.96	5.382e-07	4.847e-07	262.15	74.653	57.733	17.155	4.9607e-07	23.934	-33.725	-83.264	-89.967	-154.420	-2.827	6.337	-154.239	-146.696	-50.393	-10.760	-147.397	-140.686	-140.278	-132.993	-48.734	-133.585	-8191	255	
1101.751	1	1	0	0	0.056788	0.20071	0.12734	0.12675	0.28569	0.22494	0.1269	0.41112	0.2384	0.18122	0.18008	0.37149	0.10688	0.0087385	0.066788	0.090326	-1.275	-1.7271	-0.97708	-2.1646	-1.4937	-1.2896	-2.3167	-1.1333	-1.725	-1.9875	-1.1313	-2.0563	-1.2271	-1.2625	-1.9229	-1.2938	-68.590	22.387	35.284	49.003	157.441	-58.462	155.078	122.374	-120.633	108.889	-124.894	-137.238	145.631	-77.665	4.379	58.711	0.00040821	0.0003115	0.00011123	1021.2	3.569e-06	3.0606e-06	1108.4	210.35	4.2993e-06	1.6444e-06	265.6	75.354	59.968	17.11	2.3471e-06	23.808	6.8414e-05	4.4425e-05	1.3694e-05	1001.8	5.8051e-07	5.0877e-07	1085.4	206.41	5.8017e-07	4.7418e-07	261.8	74.652	57.848	17.154	4.9878e-07	23.975	-32.468	-95.471	-81.511	-154.222	-41.121	-13.717	-154.397	-146.839	-18.445	25.891	-146.989	-140.152	-140.400	-132.556	-13.125	-133.558	-8191	255	
1101.847	1	1	0	0	0.21902	0.11542	0.20464	0.073278	0.11396	0.18559	0.15172	0.046445	0.082693	0.18905	0.25887	0.19732	0.25683	0.18967	0.066773	0.06514	-1.1604	-1.8438	-0.9375	-2.2313	-1.5896	-1.1688	-2.2313	-1.2292	-1.5958	-1.9542	-1.2771	-1.9167	-1.4292	-1.1542	-1.8854	-1.2167	184.826	-52.918	140.454	141.241	151.027	68.232	188.908	64.271	114.932	122.067	-22.999	165.460	176.905	-124.087	-156.135	37.161	0.00037211	0.00027207	6.8127e-05	1017.2	2.1961e-06	2.7762e-06	1098.6	208.48	5.0074e-06	2.8437e-06	265.37	75.16	59.294	17.195	1.6278e-06	23.857	6.7209e-05	4.4709e-05	1.3821e-05	999.96	5.7871e-07	5.242e-07	1082.8	205.73	5.7852e-07	4.9766e-07	261.91	74.562	57.694	17.159	5.4195e-07	23.944	-33.146	-84.769	-99.270	-154.138	-30.038	-25.404	-154.214	-146.569	-34.470	-23.504	-147.427	-140.479	-140.770	-133.016	20.197	-133.625	-8191	255	
1101.943	1	1	0	0	0.13652	0.29285	0.26268	0.25843	0.15276	0.2928	0.30604	0.3564	0.19482	0.22453	0.09792	0.24877	0.137	0.20008	0.13392	0.13429	-0.98125	-2.0604	-0.97083	-1.9	-1.5208	-0.97292	-2.0687	-1.2292	-1.5271	-2.0375	-0.9625	-1.7729	-1.625	-0.99583	-1.9229	-1.3104	162.755	-25.267	-45.795	168.930	-12.085	178.796	125.392	116.510	149.886	136.462	-116.613	-123.397	-28.422	71.806	-16.727	-53.854	0.00036421	0.00021839	6.3896e-05	1018.3	2.8495e-06	2.4665e-06	1104.9	207.41	3.7698e-06	2.8228e-06	265.71	75.238	59.539	17.064	3.6448e-06	23.796	7.4985e-05	4.7339e-05	1.4092e-05	1001.1	6.0778e-07	5.4544e-07	1083.6	205.46	5.9316e-07	5.017e-07	261.33	74.582	57.609	17.115	5.3646e-07	23.94	-30.223	-75.510	-76.009	-154.284	-18.487	-20.127	-154.685	-147.070	-28.188	-50.512	-147.051	-140.958	-140.651	-132.681	6.061	-133.851	-8191	255	
1102.039	1	1	0	0	0.090848	0.13047	0.16543	0.068048	0.27824	0.0752	0.16997	0.24686	0.29014	0.085746	0.47004	0.25468	0.30715	0.10669	0.18739	0.14204	-0.79583	-2.0292	-1.0625	-1.6562	-1.7583	-1.025	-2.1271	-1.5063	-1.0688	-1.8896	-1.1354	-1.675	-1.7854	-1.0542	-1.875	-1.4792	-101.090	181.129	-27.111	121.482	95.822	-128.582	103.304	113.118	101.105	-78.931	170.354	-51.992	110.917	48.056	-149.953	-115.617	0.00043758	0.00040305	7.0822e-05	1014.2	2.6065e-06	3.0969e-06	1104.3	206.8	4.1714e-06	2.2284e-06	265.85	74.809	59.323	16.996	2.763e-06	23.7	7.5277e-05	4.7782e-05	1.3451e-05	997.86	5.8716e-07	5.4078e-07	1083.7	205.47	6.1728e-07	4.9628e-07	261.94	74.488	57.435	17.068	5.1533e-07	23.855	-30.741	-57.087	-80.109	-154.382	-26.374	-25.724	-154.647	-146.911	-39.113	-35.220	-147.394	-140.550	-140.379	-133.100	-36.402	-133.628	-8191	255	
1102.135	1	1	0	0	0.19618	0.15014	0.13509	0.28109	0.18675	0.19747	0.20178	0.15788	0.22472	0.045674	0.24999	0.19183	0.21375	0.16915	0.22355	0.29738	-0.81667	-2.0958	-1.0312	-1.4021	-1.8458	-1.1729	-1.975	-1.675	-1.0104	-2.1646	-1.3667	-1.4646	-2.1229	-0.82292	-1.5708	-1.6	136.097	190.756	184.383	147.385	77.276	-55.737	33.467	-127.281	-26.408	181.749	3.732	146.442	147.985	-93.216	139.843	-89.921	0.00039203	0.00024365	6.6498e-05	1014.9	2.8915e-06	2.0578e-06	1104.1	208.27	6.1723e-06	3.9758e-06	264.62	74.956	60.408	17.08	3.2467e-06	23.771	7.5994e-05	4.6329e-05	1.4065e-05	996.45	5.9388e-07	5.4452e-07	1082.4	205.62	6.2123e-07	5.1946e-07	260.67	74.357	57.862	17.067	5.3044e-07	23.826	-35.435	-88.185	-65.875	-154.058	-18.838	-7.753	-154.388	-146.911	-23.450	-5.309	-147.731	-140.655	-140.669	-132.867	23.971	-133.558	-8191	255	
1102.231	1	1	0	0	0.036382	0.081793	0.26643	0.29866	0.11948	0.10817	0.32115	0.23297	0.28173	0.049328	0.099164	0.30313	0.13972	0.27968	0.21501	0.13286	-0.7375	-1.9521	-1.3312	-1.4146	-2.025	-1.0604	-1.7458	-1.7833	-0.99792	-1.9021	-1.4542	-1.35	-2.2521	-1.0292	-1.6583	-1.8646	15.738	85.543	-24.332	-162.041	193.546	179.345	97.745	130.885	-35.697	31.829	151.183	189.030	-21.539	144.064	104.267	74.645	0.00037922	0.00019664	4.1626e-05	1015.2	1.7068e-06	1.8771e-06	1099.7	207.29	2.4805e-06	2.7333e-06	265.94	74.768	59.81	17.099	1.8213e-06	23.43	7.319e-05	4.4342e-05	1.2973e-05	996.2	5.885e-07	5.3925e-07	1081.3	205.14	6.24e-07	5.1504e-07	261.07	74.239	57.378	17.069	5.4127e-07	23.742	-33.490	-39.718	-61.135	-153.993	-22.587	-13.425	-154.281	-146.813	-33.577	-20.674	-147.225	-140.773	-140.262	-132.828	-4.921	-133.415	-8191	255	
1102.350	1	1	0	0	0.32839	0.11794	0.10794	0.12065	0.15422	0.25205	0.51931	0.18275	0.1428	0.21392	0.39579	0.18834	0.2868	0.25202	0.033137	0.41738	-0.76667	-1.85	-1.4625	-1.1313	-2.0854	-1.1771	-1.8917	-2	-0.96875	-2.1042	-1.4292	-1.2354	-2.1917	-1.3937	-1.4542	-2.0604	33.803	5.776	-0.021	164.043	-125.184	73.492	170.460	113.733	-54.575	-143.823	151.951	142.656	-106.762	144.020	-40.641	106.288	0.00034235	0.00030395	9.0133e-05	1014.1	3.3833e-06	7.0105e-07	1103.1	208.51	4.8111e-06	2.2934e-06	264.62	75.092	59.456	16.932	1.8634e-06	23.771	7.2569e-05	4.6481e-05	1.3825e-05	995.02	5.8574e-07	5.5544e-07	1082.4	205.61	6.6447e-07	5.325e-07	261.05	74.548	57.705	17.032	5.4676e-07	23.852	-35.360	-79.785	-83.327	-154.365	-17.479	-4.281	-154.326	-146.854	-18.077	22.756	-147.268	-140.471	-140.219	-132.615	-7.547	-133.203	-8191	255	
1102.446	1	1	0	0	0.26236	0.27222	0.043016	0.39795	0.072621	0.29739	0.26847	0.036341	0.1504	0.065622	0.1072	0.051228	0.20714	0.31275	0.20221	0.32731	-0.66667	-1.8479	-1.5938	-1.1729	-2	-1.2875	-1.4708	-2.0021	-1.1313	-1.9188	-1.8542	-1.1771	-2.1354	-1.3	-1.2167	-2.0854	-104.677	7.133	9.791	171.207	-109.132	98.986	167.508	175.947	28.178	62.472	-103.888	-139.756	51.869	88.324	-143.944	-10.010	0.00036939	0.00024486	0.00010156	1011.8	3.1964e-06	3.7236e-06	1095	207.81	3.9918e-06	3.7855e-06	265.03	75.063	59.999	17.086	2.2849e-06	23.659	7.6806e-05	4.7159e-05	1.3569e-05	995.78	6.1518e-07	5.4979e-07	1080.3	205.44	6.1929e-07	5.2823e-07	260.61	74.579	57.62	17.055	5.8211e-07	23.83	-26.528	-66.572	-79.803	-154.275	-7.481	-8.611	-154.156	-146.658	-19.464	-38.368	-146.907	-140.383	-139.899	-132.790	-13.278	-133.249	-8191	255	
1102.543	1	1	0	0	0.13088	0.32767	0.28518	0.13464	0.16358	0.058275	0.078847	0.15064	0.21175	0.10041	0.2706	0.097062	0.256	0.060286	0.17433	0.11621	-0.725	-1.6354	-1.5771	-1.1167	-1.8813	-1.3667	-1.3479	-2.0646	-1.1479	-1.7458	-1.7875	-1.0604	-2.0896	-1.5625	-1.0958	-2.1437	-146.461	-3.968	79.691	103.191	-84.467	71.558	48.018	65.838	81.859	-153.316	-98.745	-155.412	-63.115	35.893	-6.272	-151.958	0.00035417	0.00033145	8.6036e-05	1013.7	3.8944e-06	2.9019e-06	1094.8	207.26	3.4506e-06	2.2078e-06	262.81	75.415	59.02	16.905	3.5623e-06	23.809	7.4782e-05	4.7679e-05	1.3187e-05	996.87	5.9814e-07	5.8608e-07	1080.9	205.54	6.0033e-07	5.4553e-07	260.05	74.571	57.396	17.033	5.5759e-07	23.889	-27.804	-78.458	-106.967	-154.220	-39.957	-1.153	-154.215	-146.682	-56.409	15.353	-147.072	-140.392	-139.992	-132.774	-11.250	-133.312	-8191	255	
1102.639	1	1	0	0	0.058828	0.058843	0.05576	0.081976	0.11264	0.13559	0.17862	0.19702	0.1527	0.18571	0.22723	0.38884	0.23798	0.22833	0.16557	0.16153	-0.67917	-1.5417	-1.7125	-1.1792	-2.0875	-1.425	-1.0375	-1.8521	-0.98542	-1.6187	-1.9417	-1.025	-1.8229	-1.5271	-1.1667	-2.0771	-100.377	-26.929	-133.295	175.811	-77.427	15.324	55.998	111.642	1.523	148.414	67.942	165.673	36.536	95.717	15.224	-68.521	0.00034767	0.00026009	7.7053e-05	1015.7	4.1745e-06	2.4047e-06	1102.2	207.81	4.3912e-06	4.6302e-06	267.11	74.965	59.71	17.049	1.3297e-06	23.807	7.5061e-05	5.0912e-05	1.382e-05	998.94	6.024e-07	5.6171e-07	1081.8	205.53	6.3475e-07	5.4805e-07	261.69	74.519	57.641	17.084	5.8835e-07	23.844	-23.744	-83.479	-74.903	-154.363	-2.473	11.811	-153.956	-146.828	-50.923	-4.884	-147.055	-140.350	-140.054	-133.193	3.572	-133.426	-8191	255	
1102.733	1	1	0	0	0.26981	0.11997	0.081163	0.13269	0.13277	0.14118	0.3337	0.11901	0.28058	0.2599	0.10824	0.0229	0.3095	0.10811	0.18905	0.1233	-0.81042	-1.4917	-2.0312	-1.2354	-1.9271	-1.6437	-1.4021	-2.0292	-1.2667	-1.2458	-2.0563	-1.1896	-1.8125	-1.75	-1.1708	-2.0333	183.544	159.928	-22.794	-14.941	-97.841	149.205	-128.367	94.877	-63.576	12.722	69.105	-126.126	68.768	-98.046	66.344	2.729	0.00041226	0.00038484	5.7626e-05	1015.5	3.1706e-06	2.3265e-06	1101.1	208.63	4.0878e-06	3.6008e-06	263.25	74.59	59.45	17.128	1.6934e-06	23.793	7.2588e-05	5.0642e-05	1.2901e-05	997.19	5.7251e-07	5.2107e-07	1081.8	205.58	6.1429e-07	5.5255e-07	260.49	74.279	57.614	17.115	5.5406e-07	23.875	-28.621	-85.889	-87.132	-154.077	-24.178	4.702	-154.161	-146.396	-36.783	8.525	-146.870	-140.422	-140.137	-132.900	5.843	-133.383	-8191	255	
1102.829	1	1	0	0	0.21952	0.21311	0.19122	0.1203	0.23168	0.18721	0.23412	0.066346	0.073631	0.25282	0.27053	0.24971	0.3742	0.1511	0.17026	0.056504	-1.0896	-1.2417	-2.0583	-1.1792	-1.65	-1.8375	-1.2938	-2.0125	-1.4	-1.1583	-2.2396	-1.2625	-1.7271	-2.0125	-0.9625	-1.85	-159.210	186.267	-153.504	143.301	39.999	25.025	-156.179	-157.129	105.772	131.223	-160.584	-40.242	32.143	152.650	-110.897	185.762	0.00036933	0.00030157	7.8001e-05	1011.5	3.86e-06	1.4484e-06	1096.8	208.96	4.4514e-06	3.601e-06	264.11	75.421	59.512	16.958	2.5427e-06	23.575	7.1192e-05	4.8309e-05	1.2986e-05	995.9	5.6459e-07	4.8776e-07	1082.9	205.59	5.8875e-07	5.0299e-07	260.34	74.566	57.495	17.035	5.3127e-07	23.771	-36.666	-79.365	-87.791	-154.243	-25.997	2.508	-154.271	-146.723	-20.493	-26.663	-146.903	-140.645	-139.908	-132.506	-41.050	-133.104	-8191	255	
1102.950	1	1	0	0	0.15698	0.24536	0.119	0.23295	0.044453	0.11313	0.27207	0.0603	0.066582	0.26002	0.28883	0.050029	0.068816	0.065006	0.37612	0.11475	-1.0625	-1.3208	-2.1979	-1.1875	-1.4896	-1.8312	-1.1521	-1.9333	-1.4562	-1.0354	-2.0375	-1.275	-1.3167	-1.9646	-1.1375	-2.0146	43.058	73.338	19.257	-125.330	42.848	-157.248	77.770	23.719	-156.114	38.472	-11.816	-101.369	51.577	-94.941	3.279	15.003	0.00036472	0.00032792	8.8531e-05	1011.8	4.853e-06	2.4618e-06	1098	207.37	2.2142e-06	3.3265e-06	264.77	74.966	59.051	17.128	2.292e-06	23.856	6.9556e-05	4.5809e-05	1.2224e-05	993.07	5.7266e-07	4.7363e-07	1077.8	204.87	5.5261e-07	4.9186e-07	260.37	74.503	57.181	17.072	5.3548e-07	23.875	-25.719	-80.205	-74.497	-154.261	-31.835	23.534	-154.472	-146.780	-23.864	-25.712	-146.998	-140.458	-140.116	-133.079	9.781	-133.372	-8191	255	
1103.046	1	1	0	0	0.19895	0.068367	0.14737	0.44805	0.16143	0.17072	0.10656	0.025622	0.06443	0.053493	0.1703	0.12628	0.32658	0.030138	0.13703	0.28144	-1.2854	-0.99167	-1.9438	-1.4333	-1.2708	-1.9208	-1.3312	-1.8042	-1.6479	-1.2	-1.9604	-1.5146	-1.2896	-1.9833	-1.0354	-1.5979	16.004	51.177	29.814	-137.826	36.871	-12.207	45.258	0.047	-125.774	0.227	-148.775	77.223	152.768	-136.394	124.040	184.132	0.00038796	0.00015291	9.7422e-05	1012.2	3.5267e-06	1.5864e-06	1095.8	207.3	2.611e-06	3.6609e-06	265.16	75.033	59.313	17.159	2.557e-06	23.721	7.0019e-05	4.8108e-05	1.2766e-05	993.53	5.8178e-07	4.7859e-07	1077.5	204.97	5.6172e-07	5.1351e-07	260.5	74.259	57.495	17.096	5.5834e-07	23.828	-30.776	-93.729	-81.464	-154.239	-11.987	-2.005	-154.445	-146.559	-9.822	-2.047	-147.438	-140.491	-140.325	-132.942	-20.986	-133.222	-8191	255	
1103.142	1	1	0	0	0.21837	0.12135	0.38504	0.31129	0.21283	0.32621	0.33132	0.39172	0.20781	0.35015	0.13017	0.41781	0.37375	0.27064	0.030147	0.15674	-1.55	-0.99583	-2.0104	-1.5063	-1.1854	-2.0354	-1.2604	-1.5104	-1.7917	-0.98958	-2.0604	-1.5021	-1.1604	-2.025	-1.0938	-1.5063	-107.295	-46.174	-69.196	119.085	-6.354	136.122	147.563	165.535	116.311	-163.717	-125.847	-105.899	33.810	-56.640	-46.427	-58.527	0.00037131	0.00037351	8.3791e-05	1012	3.5251e-06	2.4463e-06	1095.6	206.77	2.9933e-06	4.0492e-06	263.7	75.097	59.205	17.111	3.8253e-06	23.81	7.208e-05	5.1389e-05	1.326e-05	994.77	5.882e-07	5.0273e-07	1077.8	204.92	5.8308e-07	5.5735e-07	260.48	74.496	57.491	17.046	5.6887e-07	23.876	-30.393	-105.383	-35.850	-154.103	-54.638	-4.697	-154.447	-146.693	-35.406	-18.266	-147.080	-140.927	-139.599	-132.634	-17.017	-133.383	-8191	255	
1103.238	1	1	0	0	0.23382	0.17574	0.099389	0.17198	0.21548	0.16665	0.13345	0.32278	0.14879	0.051784	0.11254	0.08399	0.11471	0.083347	0.079551	0.17704	-1.4125	-1.0833	-1.7479	-1.7583	-0.92917	-2.0646	-1.3792	-1.7354	-1.9167	-1.0833	-1.8729	-1.7271	-0.9875	-2.0812	-1.4229	-1.5583	150.070	90.955	-145.625	73.244	-55.866	34.713	38.110	181.610	-29.905	-32.876	-114.048	-122.089	-92.626	-148.536	145.650	53.081	0.00040198	0.00022084	5.9954e-05	1011.6	3.3691e-06	1.8804e-06	1091.3	208.62	3.6036e-06	2.2804e-06	263.88	75.081	59.547	17.041	5.5025e-07	23.634	7.392e-05	4.9022e-05	1.3355e-05	993.44	6.1563e-07	5.3933e-07	1075.6	205.36	6.0779e-07	5.5537e-07	260.14	74.289	57.45	17.075	5.4586e-07	23.799	-32.883	-64.091	-83.012	-154.541	-18.928	-23.777	-154.637	-146.755	-39.071	9.806	-147.005	-140.832	-140.541	-132.772	84.430	-133.720	-8191	255	
1103.334	1	1	0	0	0.1266	0.087747	0.15461	0.18189	0.30604	0.24925	0.25127	0.086519	0.22446	0.16353	0.29257	0.047116	0.13394	0.16156	0.17821	0.15407	-1.5479	-1.0562	-1.6063	-1.8958	-0.96042	-1.9292	-1.3854	-1.0646	-1.7708	-1.025	-1.7375	-1.6	-1.0167	-1.975	-1.3396	-1.3083	-55.173	141.718	110.958	175.799	-106.570	-111.168	96.236	-93.613	55.856	69.458	160.443	-124.308	143.226	119.324	148.457	189.808	0.00037484	0.00017029	6.613e-05	1010.2	3.7358e-06	2.6337e-06	1094.4	208.59	4.0232e-06	4.3373e-06	264.24	75.059	59.636	17.016	1.901e-06	23.644	7.0735e-05	4.9762e-05	1.3285e-05	992.72	5.9814e-07	5.2244e-07	1076.5	205.54	5.7151e-07	5.7008e-07	259.93	74.218	57.673	17.034	5.2856e-07	23.766	-32.940	-17.739	-85.633	-154.357	3.409	10.523	-154.417	-146.621	-44.476	7.338	-147.101	-140.410	-140.292	-133.235	-42.319	-132.997	-8191	255	
1103.431	1	1	0	0	0.068373	0.17351	0.083025	0.14729	0.16153	0.16788	0.30721	0.057828	0.049297	0.17304	0.22085	0.066811	0.29215	0.10494	0.14962	0.13678	-1.6083	-1.025	-1.4958	-1.8625	-0.62083	-1.8292	-1.475	-1.1938	-2.1771	-1.2042	-1.5833	-2.0583	-1.0229	-1.7333	-1.6583	-0.88542	-41.269	-156.905	145.647	76.304	100.153	-158.343	125.346	105.998	-70.597	150.800	158.798	146.929	187.611	79.865	-33.562	192.739	0.00037611	0.00018891	5.5335e-05	1007.1	3.8325e-06	3.0594e-06	1096.7	207.63	3.8556e-06	1.5247e-06	263.67	74.628	59.549	17.22	2.4382e-06	23.543	7.2175e-05	4.9458e-05	1.2585e-05	991.71	6.3132e-07	4.9051e-07	1076.2	205.32	5.718e-07	5.5521e-07	260.01	74.126	57.435	17.04	5.4616e-07	23.744	-30.309	-71.521	-93.920	-153.955	-28.606	-12.785	-154.464	-146.468	-14.103	-6.652	-146.871	-140.303	-140.414	-132.753	-6.604	-133.635	-8191	255	
1103.527	1	1	0	0	0.099289	0.16764	0.19645	0.34797	0.11758	0.13946	0.17803	0.065768	0.1268	0.03931	0.20527	0.26546	0.048771	0.13764	0.27635	0.07241	-1.6292	-1.1604	-1.4688	-2.0896	-0.96042	-1.7917	-1.7687	-1.0021	-1.85	-1.1187	-1.3708	-1.9292	-0.79792	-1.6667	-1.6833	-1.0583	163.954	-45.960	99.321	186.145	-58.522	-50.504	133.693	145.345	-164.708	117.087	107.858	187.608	-40.813	122.214	29.792	147.130	0.00041134	0.0004478	6.9101e-05	1011.7	1.5496e-06	3.031e-06	1097.2	206.98	2.8531e-06	2.4118e-06	261.44	75.039	59.662	17.028	2.0395e-06	23.606	7.1871e-05	4.8122e-05	1.3478e-05	992.31	6.0741e-07	5.093e-07	1078.6	204.95	5.7793e-07	5.2846e-07	259	74.08	57.468	17.036	5.5534e-07	23.717	-25.703	-73.423	-62.722	-154.336	-39.294	-24.352	-154.389	-146.751	-39.761	-20.967	-147.256	-140.445	-140.678	-133.010	-0.395	-133.689	-8191	255	
1103.623	1	1	0	0	0.2585	0.099416	0.1912	0.089415	0.13529	0.089622	0.16813	0.12273	0.16782	0.2846	0.16099	0.14157	0.044966	0.16279	0.13074	0.092622	-1.5917	-1.4021	-1.1854	-2.1125	-1.1896	-1.6146	-2.0125	-1.1396	-1.8771	-1.4354	-1.1667	-1.9458	-1.0979	-1.7104	-1.8125	-0.85417	10.510	-94.967	-4.179	-67.062	-69.148	45.690	96.849	37.368	106.953	-36.394	142.832	84.254	-2.629	189.902	-108.933	184.289	0.00036698	0.00039392	9.0938e-05	1010.9	2.525e-06	2.1933e-06	1096.6	206.7	2.4264e-06	1.3988e-06	262.83	74.484	59.461	16.969	2.7595e-06	23.558	7.2074e-05	4.4736e-05	1.3272e-05	992.9	6.1563e-07	5.0289e-07	1077.1	204.63	5.7561e-07	5.0345e-07	259.82	74.181	57.523	16.999	5.5195e-07	23.753	-32.310	-98.932	-28.148	-154.356	-13.969	4.815	-154.710	-146.637	-38.277	4.717	-147.300	-140.801	-140.584	-133.058	-33.919	-133.857	-8191	255	
1103.742	1	1	0	0	0.15709	0.17196	0.077769	0.1945	0.18479	0.1815	0.47729	0.11691	0.092249	0.18414	0.40296	0.13717	0.062633	0.038534	0.3443	0.34355	-1.3687	-1.5812	-0.79792	-1.9646	-1.0646	-1.6021	-2.0292	-1.1792	-1.7646	-1.6354	-1.0063	-1.8542	-1.2167	-1.4667	-2.0125	-1.1187	121.831	122.750	154.934	106.119	156.412	-68.058	106.814	134.988	45.948	153.776	151.201	132.496	163.772	-78.335	99.051	158.328	0.0003829	0.00040736	6.7604e-05	1008.7	2.8624e-06	3.1565e-06	1095.6	206.39	3.7777e-06	1.2123e-06	263.32	74.919	59.22	16.99	1.4716e-06	23.587	7.2892e-05	5.0545e-05	1.4331e-05	991.36	6.2362e-07	5.3757e-07	1075	204.56	5.9555e-07	5.3151e-07	259.17	74.172	57.194	17.007	5.3856e-07	23.723	-30.382	-75.239	-112.199	-154.677	-18.486	-13.246	-154.997	-146.861	-11.514	-11.844	-147.392	-141.116	-140.219	-132.905	10.090	-133.760	-8191	255	
1103.838	1	1	0	0	0.25534	0.38823	0.091238	0.21869	0.13422	0.11115	0.07986	0.33318	0.3233	0.12086	0.04624	0.10842	0.28408	0.091552	0.097806	0.093866	-1.4521	-1.6833	-0.84167	-1.9854	-1.2729	-1.4875	-2.075	-1	-1.6938	-1.5396	-1.05	-1.925	-1.4271	-1.1771	-2.0312	-1.2042	31.377	87.037	69.094	106.650	117.378	-70.161	183.739	102.653	81.700	76.642	-127.219	31.837	95.630	-153.865	60.479	68.884	0.000395	0.00023893	7.967e-05	1010.3	3.2027e-06	1.9465e-06	1095.5	206.83	3.2737e-06	2.2548e-06	265.71	74.823	59.668	17.011	2.8643e-06	23.735	7.3774e-05	4.691e-05	1.4335e-05	992.04	6.2825e-07	5.1419e-07	1075.1	204.43	5.9951e-07	5.5872e-07	260.21	74.249	57.29	17.037	5.6045e-07	23.788	-29.817	-95.570	-80.865	-154.445	-9.316	29.054	-154.475	-146.852	-48.749	-12.116	-147.502	-140.730	-140.734	-132.963	-25.222	-133.631	-8191	255	
1103.911	1	1	0	0	0.13661	0.26513	0.29236	0.24598	0.057614	0.23077	0.16662	0.090433	0.27788	0.095639	0.19923	0.13122	0.18398	0.227	0.14755	0.14431	-1.3	-1.7563	-0.93125	-1.9917	-1.3375	-1.0708	-2.1625	-1.1604	-1.5354	-1.7479	-1.1187	-1.9688	-1.5042	-0.96042	-1.9896	-1.075	-113.952	-155.303	11.762	150.114	138.400	179.901	-146.904	-59.944	-18.243	119.117	-84.821	-91.440	-6.566	-127.311	87.786	-90.921	0.00039705	0.00034287	6.077e-05	1010.8	3.5204e-06	1.4285e-06	1098	207.46	3.9622e-06	3.8953e-06	261.47	75.211	59.061	16.902	1.2757e-06	23.601	7.2524e-05	4.8094e-05	1.3987e-05	992.05	6.1906e-07	5.4781e-07	1075.2	205	5.9062e-07	5.2205e-07	259.53	74.119	57.256	16.976	5.424e-07	23.761	-31.892	-110.434	-60.619	-154.314	-42.130	5.884	-154.616	-147.149	1.655	-18.776	-147.553	-141.179	-140.538	-132.877	16.562	-133.232	-8191	255	
1104.030	1	1	0	0	0.30224	0.30964	0.27622	0.1356	0.32685	0.0883	0.30508	0.023058	0.26978	0.10697	0.34098	0.11672	0.29758	0.30646	0.15911	0.13788	-1.05	-1.8083	-0.98958	-1.8104	-1.55	-0.91458	-2.2208	-1.1854	-1.4188	-1.6771	-0.99167	-1.8375	-1.5708	-1.1292	-2.0333	-1.2062	91.030	-106.981	44.912	171.480	-86.386	25.865	92.040	-91.881	-67.481	68.832	64.400	104.407	13.716	-75.495	103.022	43.658	0.00034166	0.00021149	7.8572e-05	1012	2.7619e-06	2.0488e-06	1094.5	207.29	3.2975e-06	3.2556e-06	262.99	74.796	59.44	16.968	2.7288e-06	23.846	7.0945e-05	4.9638e-05	1.4811e-05	994.75	6.2392e-07	5.7431e-07	1077	205.04	6.396e-07	5.309e-07	259.3	74.104	57.283	17.012	5.7504e-07	23.807	-38.469	-52.167	-97.738	-154.488	-19.208	-24.990	-154.839	-147.306	-24.690	-5.755	-147.462	-141.095	-140.674	-133.195	-29.086	-133.568	-8191	255	
1104.126	1	1	0	0	0.098798	0.071201	0.10725	0.29371	0.22496	0.18529	0.1742	0.19668	0.1919	0.03332	0.1747	0.20884	0.20825	0.063039	0.23682	0.078315	-0.87917	-1.9708	-0.96042	-1.7292	-1.5646	-1.0167	-2.0042	-1.4583	-1.2167	-2.125	-1.0438	-1.6604	-1.6	-0.90208	-1.8604	-1.2812	29.670	-8.330	-114.941	147.412	-25.283	-117.956	151.904	140.304	-124.319	-69.048	22.442	52.017	134.641	121.350	58.216	108.461	0.00036381	0.00030251	5.3245e-05	1009.4	3.4893e-06	4.0128e-06	1093.7	206.84	3.5771e-06	2.1914e-06	263.52	74.189	59.214	16.921	2.4237e-06	23.643	7.6736e-05	5.3383e-05	1.5303e-05	992.59	6.2855e-07	5.7347e-07	1077.9	204.54	6.8455e-07	5.3829e-07	259.64	74.102	57.108	16.999	5.7745e-07	23.687	-24.151	-59.467	-50.111	-154.407	-1.021	-27.814	-154.624	-147.099	-22.882	-79.907	-147.282	-140.691	-140.645	-133.096	-27.474	-133.899	-8191	255	
1104.223	1	1	0	0	0.20642	0.20249	0.24184	0.12061	0.24622	0.17733	0.31984	0.1663	0.1706	0.077117	0.2208	0.10958	0.10963	0.12682	0.25287	0.21615	-0.775	-1.9875	-1.0458	-1.5958	-1.7104	-0.8875	-2.0042	-1.4625	-1.0604	-1.9208	-1.1313	-1.5396	-1.9188	-1.0229	-1.7583	-1.475	129.078	-23.103	128.580	187.778	82.835	-57.501	111.163	108.248	-17.615	100.829	-161.060	-109.062	-102.089	119.897	149.576	13.871	0.00040021	0.00027184	3.9273e-05	1015.5	3.8405e-06	1.2601e-06	1099.8	207.29	5.0292e-06	3.9415e-06	264.12	74.429	58.774	16.894	4.0649e-06	23.689	7.893e-05	5.1341e-05	1.4155e-05	994.11	5.8066e-07	5.7408e-07	1077.1	204.44	6.3744e-07	5.1687e-07	259.76	74.002	57.243	16.951	5.6902e-07	23.731	-33.462	-75.263	-51.497	-154.570	-50.956	26.773	-154.704	-147.167	-35.794	-12.555	-147.420	-140.373	-140.570	-133.017	-16.816	-133.560	-8191	255	
1104.343	1	1	0	0	0.099354	0.19398	0.1829	0.15271	0.18366	0.18384	0.46809	0.27979	0.084166	0.054538	0.17542	0.191	0.063968	0.19643	0.047397	0.22861	-0.48125	-1.9458	-1.3292	-1.5833	-2	-0.97083	-1.8208	-1.6313	-0.77917	-1.9188	-1.2625	-1.3229	-1.9562	-0.92083	-1.6417	-1.8854	-24.376	36.540	30.111	192.670	170.720	149.629	117.817	135.842	-124.917	144.188	112.237	70.844	-125.660	184.161	136.315	3.293	0.000426	0.00020253	6.0089e-05	1014.6	3.6865e-06	1.3398e-06	1094.6	207.81	3.5003e-06	3.7907e-06	263.85	74.491	59.668	16.932	2.9783e-06	23.616	7.7846e-05	4.8959e-05	1.4155e-05	994.27	5.885e-07	5.5155e-07	1076.9	204.73	6.1414e-07	5.299e-07	259.87	74.093	57.278	16.981	5.3134e-07	23.759	-25.085	-66.887	-48.738	-154.619	-27.927	-29.448	-154.573	-147.280	-25.660	-26.305	-147.472	-140.644	-140.778	-132.966	-46.434	-133.699	-8191	255	
1104.439	1	1	0	0	0.036542	0.11037	0.13963	0.50428	0.19709	0.12059	0.17323	0.19613	0.12533	0.015173	0.29835	0.076237	0.20442	0.06952	0.11337	0.3125	-0.58958	-1.8521	-1.275	-1.2396	-1.9542	-1.0708	-1.6	-1.6917	-0.85417	-1.8687	-1.2708	-1.1812	-2.1604	-1.1354	-1.5896	-1.8479	191.876	-54.514	-23.808	146.967	-131.240	37.392	143.374	107.518	-49.572	28.891	-92.927	-137.636	-78.064	-120.987	107.075	125.203	0.00037232	0.00013018	5.7692e-05	1014.3	3.2473e-06	4.1303e-07	1094.8	206.49	4.2005e-06	3.7029e-06	261.8	74.837	58.827	16.832	2.4892e-06	23.553	7.619e-05	4.7436e-05	1.3823e-05	994.11	5.8648e-07	5.5644e-07	1076.8	204.39	6.1675e-07	5.1153e-07	258.96	73.992	57.159	16.954	5.4232e-07	23.689	-30.206	-79.209	-107.777	-154.361	-56.207	-34.191	-154.520	-147.026	-42.271	-5.060	-147.712	-141.241	-140.296	-132.751	-40.289	-133.383	-8191	255	
1104.535	1	1	0	0	0.25919	0.10797	0.29053	0.27038	0.12662	0.18848	0.2242	0.049337	0.16754	0.32249	0.16366	0.1345	0.071317	0.33075	0.061283	0.088366	-0.62292	-1.8229	-1.3687	-1.2021	-1.9333	-1.1854	-1.6458	-1.8854	-1.075	-1.8771	-1.5521	-1.1187	-1.9396	-1.3229	-1.35	-1.9875	57.056	-58.899	185.662	48.796	107.495	-67.382	151.721	-122.430	135.549	4.547	37.715	-96.940	123.264	-84.930	56.190	-9.814	0.00041499	0.00019327	6.8281e-05	1009.6	2.0727e-06	2.4444e-06	1098.2	207.01	4.1231e-06	2.3355e-06	264.18	74.988	58.551	16.973	2.3652e-06	23.677	7.3958e-05	4.6841e-05	1.4188e-05	993.54	5.9261e-07	5.6033e-07	1078.1	205.1	5.9353e-07	5.2464e-07	259.96	74.108	57.092	17.006	5.4827e-07	23.77	-30.181	-112.866	-54.701	-154.401	14.596	-20.255	-154.503	-147.017	-37.419	5.604	-147.623	-140.501	-139.887	-133.078	-33.202	-133.942	-8191	255	
1104.632	1	1	0	0	0.31625	0.16944	0.15922	0.36657	0.1661	0.093938	0.18423	0.091687	0.2126	0.18793	0.27746	0.39684	0.067135	0.1718	0.038129	0.18209	-0.65625	-1.5812	-1.5812	-0.93125	-1.9625	-1.225	-1.4438	-1.9271	-0.90417	-1.6521	-1.7938	-1.2146	-2.0875	-1.3146	-1.3	-2.1	184.078	102.597	90.561	141.483	47.672	190.612	-162.571	170.212	-68.330	45.455	-151.233	84.518	53.522	135.745	46.613	139.521	0.00038182	0.00019146	6.3755e-05	1012.5	1.3155e-06	1.9043e-06	1095.5	207.22	4.5511e-06	3.3252e-06	263.78	74.621	59.391	16.974	1.8704e-06	23.755	7.3659e-05	4.8495e-05	1.3567e-05	994.46	5.6594e-07	5.53e-07	1078.6	205.07	6.29e-07	4.8843e-07	259.12	74.048	57.41	16.953	5.5737e-07	23.763	-32.315	-54.146	-103.435	-154.490	-4.936	-30.048	-154.486	-147.144	-52.190	-42.161	-147.339	-140.393	-140.583	-132.897	17.997	-133.147	-8191	255	
1104.726	1	1	0	0	0.21032	0.26683	0.12533	0.45772	0.24436	0.17805	0.23143	0.10425	0.01953	0.17822	0.1649	0.1373	0.18084	0.18396	0.1677	0.2362	-0.525	-1.7292	-1.8729	-1.1667	-1.9438	-1.3167	-1.4167	-2.1042	-1.0271	-1.7417	-1.8687	-0.9375	-2.0292	-1.6917	-1.2687	-2.1104	157.417	33.070	82.706	159.486	57.297	77.572	156.702	155.712	51.059	66.056	154.058	183.112	-161.388	-110.786	-13.167	94.643	0.00042306	0.00024563	0.00010416	1008.8	2.6268e-06	2.0713e-06	1094.6	206.48	2.0532e-06	1.6724e-06	263.73	74.596	59.582	16.925	3.017e-06	23.466	7.3666e-05	5.0109e-05	1.2867e-05	991.81	5.6325e-07	5.1839e-07	1077.4	204.48	5.9114e-07	5.2137e-07	260.12	73.999	57.47	17	5.5624e-07	23.756	-29.616	-78.758	-85.883	-154.509	-10.743	0.687	-154.073	-146.627	-33.399	34.093	-147.269	-139.990	-140.117	-132.811	-19.357	-133.492	-8191	255	
1104.822	1	1	0	0	0.099963	0.212	0.16812	0.19077	0.082863	0.17985	0.19305	0.15979	0.17081	0.025447	0.26152	0.077492	0.12826	0.29391	0.17414	0.25908	-0.73125	-1.4667	-1.7271	-1.1292	-1.9167	-1.5521	-1.1271	-2.1896	-1.1417	-1.4458	-2.1083	-1.1083	-1.7979	-1.575	-1.0396	-2.05	73.857	72.790	80.773	143.139	52.515	-160.960	152.682	-164.641	-4.273	-49.029	3.599	16.296	-73.901	-42.883	115.635	-31.637	0.00036455	9.786e-05	0.00010282	1012.7	1.5218e-06	1.3325e-06	1096	207.6	3.5614e-06	3.0117e-06	263.1	74.716	59.33	17.011	3.8977e-06	23.51	7.1826e-05	4.6723e-05	1.3004e-05	993.88	5.7558e-07	4.9296e-07	1076.8	204.77	6.1362e-07	5.2693e-07	260.01	74.17	57.182	17.006	5.5519e-07	23.675	-30.182	-61.379	-94.384	-154.053	-28.200	19.687	-154.659	-146.727	-33.305	12.101	-147.208	-140.468	-140.168	-133.059	13.157	-133.856	-8191	255	
1104.918	1	1	0	0	0.057981	0.14132	0.093567	0.28241	0.31735	0.20164	0.19744	0.1823	0.083738	0.066889	0.32594	0.13843	0.1796	0.04299	0.20989	0.038457	-0.87292	-1.35	-1.8312	-1.1812	-1.6562	-1.7938	-0.97917	-2.0458	-1.3375	-1.3563	-1.9458	-1.0521	-1.5063	-1.5938	-0.85833	-1.9542	-66.804	-156.947	-19.466	192.854	21.098	173.531	192.037	-3.311	145.345	41.561	166.865	-115.207	191.871	163.527	-93.842	-7.318	0.00040126	0.00016124	6.3523e-05	1013.1	1.623e-06	1.9344e-06	1098.7	207.81	4.681e-06	2.7096e-06	264.54	74.285	59.186	16.983	3.414e-06	23.752	7.3095e-05	5.1805e-05	1.3783e-05	996.51	5.7901e-07	5.2894e-07	1079	205.07	6.3131e-07	5.5864e-07	260.6	74.003	57.279	16.992	6.149e-07	23.79	-31.395	-71.569	-95.157	-154.470	-46.565	-21.139	-154.605	-146.721	-42.780	8.574	-147.174	-140.652	-140.382	-133.239	-14.016	-133.643	-8191	255	
1105.039	1	1	0	0	0.052821	0.078128	0.3632	0.23414	0.31116	0.078314	0.34104	0.038749	0.17619	0.088897	0.21599	0.081369	0.14138	0.15994	0.14482	0.38786	-0.9125	-1.0854	-2.0271	-1.1042	-1.6479	-1.9188	-1.1938	-2.0146	-1.4604	-1.1187	-2.0708	-1.2729	-1.4771	-1.7875	-0.85	-2.0354	43.402	-154.544	-22.579	5.153	-0.884	3.852	148.861	-75.537	47.163	3.113	181.615	-84.979	-101.853	-100.671	-15.408	179.935	0.00037593	0.00031093	8.5833e-05	1009.1	2.9097e-06	1.7952e-06	1096.6	207.9	3.5131e-06	1.0786e-06	262.06	74.434	59.334	17.015	3.0724e-06	23.956	7.5429e-05	5.3258e-05	1.3831e-05	994.26	6.2661e-07	5.3963e-07	1079.6	204.83	6.0496e-07	5.5956e-07	259.61	74.198	57.47	17.015	5.5376e-07	23.888	-28.441	-84.117	-84.018	-154.189	-13.928	-22.235	-154.586	-146.641	-41.911	-34.691	-147.471	-140.563	-140.806	-133.129	-30.934	-133.326	-8191	255	
1105.135	1	1	0	0	0.14492	0.10036	0.23606	0.21523	0.053977	0.081312	0.1006	0.052797	0.049796	0.24752	0.13926	0.16604	0.14087	0.24053	0.11521	0.10634	-1.1771	-1.1396	-2.0938	-1.1917	-1.3583	-1.7479	-1.1125	-1.8979	-1.5604	-1.0688	-2.2146	-1.2563	-1.3687	-1.875	-0.98333	-1.7	60.699	-103.792	5.844	139.146	-8.310	16.268	71.950	167.284	-142.724	148.075	62.593	187.357	40.734	122.404	146.518	187.340	0.00038867	0.00021969	8.0404e-05	1014.4	2.4937e-06	1.5392e-06	1099.6	206.91	3.5561e-06	3.1323e-06	265.45	74.482	58.792	17.021	2.6534e-06	23.727	7.6044e-05	4.8759e-05	1.3416e-05	995.97	6.3901e-07	5.0441e-07	1079.8	204.71	6.178e-07	5.867e-07	259.98	74.194	57.175	17.007	6.252e-07	23.703	-29.633	-57.896	-105.574	-154.341	-18.221	22.847	-154.622	-146.815	-20.124	-9.811	-147.343	-140.688	-140.574	-133.250	-26.454	-133.406	-8191	255	
1105.207	1	1	0	0	0.13186	0.24997	0.18601	0.24107	0.28349	0.23507	0.20265	0.093759	0.099051	0.074225	0.33611	0.15571	0.089528	0.14729	0.14628	0.201	-1.2354	-0.89375	-2.0729	-1.3188	-1.2979	-1.9917	-1.25	-1.8062	-1.6875	-1.1167	-1.8625	-1.5333	-1.3375	-2.15	-1.0812	-1.7125	-158.295	162.957	79.385	193.358	25.696	-138.930	165.681	143.481	-160.819	19.324	-122.276	182.864	-122.303	98.813	-100.640	173.116	0.00039861	0.00018609	6.6667e-05	1011	1.7269e-06	1.6592e-06	1095.6	207.25	5.4851e-06	3.8951e-06	264.83	75.124	59.797	17.045	3.1379e-06	23.544	7.4078e-05	5.3902e-05	1.398e-05	994.18	6.5934e-07	5.4185e-07	1080.7	205.15	6.1466e-07	5.8662e-07	260.08	74.324	57.666	17.079	6.1926e-07	23.734	-35.935	-87.455	-67.065	-154.206	-6.904	-0.640	-154.622	-147.125	-34.205	-2.039	-147.644	-140.859	-139.797	-133.065	-41.469	-133.797	-8191	255	
1105.303	1	1	0	0	0.076146	0.12671	0.14324	0.35924	0.15338	0.24058	0.087689	0.034259	0.059547	0.11392	0.10666	0.30407	0.15465	0.23768	0.19878	0.15157	-1.3604	-0.92083	-1.9625	-1.4354	-1.3042	-1.8875	-1.3083	-1.6792	-1.775	-1.0792	-1.8458	-1.7375	-1.0146	-2.0646	-1.0729	-1.3854	191.067	-84.133	131.320	177.133	185.763	66.079	100.249	16.212	-75.483	40.667	12.460	75.219	-58.694	159.134	30.911	122.732	0.00035707	0.00017677	8.8603e-05	1011.6	4.591e-06	3.8402e-06	1097.2	208.57	3.7749e-06	2.0031e-06	264.77	74.692	59.62	16.975	2.3061e-06	23.649	7.77e-05	5.1618e-05	1.3578e-05	996.54	6.299e-07	5.3665e-07	1081.3	205.55	6.0301e-07	5.4706e-07	260.93	74.23	57.671	17.019	5.7707e-07	23.789	-34.009	-81.180	-66.595	-154.545	-33.252	-10.491	-154.466	-146.670	-32.216	-51.263	-147.132	-140.711	-140.595	-132.966	-37.390	-133.620	-8191	255	
1105.424	1	1	0	0	0.20577	0.37296	0.076892	0.1214	0.038408	0.097357	0.34517	0.17581	0.1942	0.28377	0.20098	0.2168	0.29583	0.16062	0.10215	0.082586	-1.5979	-0.81875	-1.9958	-1.5979	-0.88958	-1.9125	-1.2625	-1.2313	-1.9479	-1.2104	-1.9542	-1.6646	-1.1667	-2.0271	-1.1958	-1.3417	-79.720	-103.060	169.573	171.133	50.664	85.635	94.554	158.055	145.426	57.339	89.357	173.720	-137.038	45.525	-133.152	-16.701	0.0004088	0.00020456	6.5643e-05	1019.7	2.225e-06	2.5002e-06	1100.7	208.35	4.3255e-06	1.7802e-06	265.75	75.257	59.427	17.142	3.6811e-06	23.701	7.0647e-05	5.3418e-05	1.374e-05	999.14	6.346e-07	5.0327e-07	1081	205.37	5.8248e-07	5.7503e-07	260.86	74.319	57.582	17.136	5.5594e-07	23.805	-22.673	-99.909	-53.895	-154.329	-39.474	-40.523	-154.472	-146.433	-54.109	29.128	-147.103	-140.555	-140.279	-133.143	21.696	-133.665	-8191	255	
1105.520	1	1	0	0	0.099692	0.26977	0.078262	0.16796	0.048229	0.31684	0.17278	0.070905	0.086619	0.21082	0.099465	0.21149	0.1489	0.1867	0.10904	0.022919	-1.6958	-1.0625	-1.5583	-1.675	-0.94375	-1.7917	-1.3917	-1.2146	-1.9208	-1.2833	-1.45	-1.9688	-1.0208	-1.8833	-1.4479	-1.2208	45.004	33.641	-59.816	85.683	-106.681	-120.912	-131.761	-127.879	-158.722	107.202	136.039	73.391	84.345	142.332	76.817	-25.045	0.00040501	0.0003678	8.7583e-05	1017.2	1.4948e-06	2.8412e-06	1104	207.75	3.9762e-06	2.391e-06	267.59	74.997	59.73	17.093	1.959e-06	23.707	7.3996e-05	5.2767e-05	1.3721e-05	997.82	6.1914e-07	5.1832e-07	1084.8	205.2	5.7248e-07	5.4805e-07	261.1	74.447	57.615	17.082	5.4797e-07	23.829	-30.305	-88.837	-66.169	-154.302	-86.809	9.624	-154.492	-146.719	-49.253	-6.535	-147.280	-140.625	-140.427	-133.296	4.096	-133.725	-8191	255	
1105.616	1	1	0	0	0.14163	0.24897	0.13649	0.26214	0.15083	0.050176	0.11882	0.34661	0.17996	0.15882	0.27409	0.1634	0.19994	0.19551	0.18568	0.32548	-1.5312	-1.0604	-1.6604	-1.9958	-0.87292	-1.8438	-1.725	-1.2354	-1.8042	-1.0271	-1.6063	-2.0396	-0.97292	-1.7021	-1.7854	-1.0896	-77.460	-21.723	-123.740	134.935	83.164	151.887	-148.436	117.483	-66.270	158.864	56.311	19.432	-79.775	179.083	89.932	177.888	0.00036229	0.00043095	7.4236e-05	1016.6	3.3684e-06	3.0025e-06	1097.4	208.13	3.6682e-06	3.24e-06	264.89	74.87	59.225	16.986	3.4061e-06	23.715	7.1877e-05	4.8987e-05	1.3949e-05	999.24	5.8858e-07	4.9922e-07	1080.7	205.45	5.6187e-07	5.2403e-07	261.09	74.124	57.446	17.067	5.588e-07	23.745	-30.579	-52.077	-77.346	-154.372	-9.123	-18.154	-154.452	-146.917	-12.771	0.846	-147.446	-141.003	-141.459	-133.114	-10.884	-134.174	-8191	255	
1105.712	1	1	0	0	0.042076	0.14106	0.085266	0.13817	0.1813	0.35735	0.11814	0.088147	0.082465	0.15993	0.28659	0.065934	0.23894	0.45716	0.30686	0.09012	-1.5875	-1.3	-1.3708	-2.125	-0.825	-1.7375	-1.7292	-1.1146	-1.9312	-1.275	-1.4312	-2.0979	-1.1271	-1.6292	-1.7604	-1.0583	-78.652	139.367	-118.772	128.237	20.152	-7.139	94.518	113.984	-47.932	-37.790	120.033	-163.319	73.243	-94.903	118.739	-60.726	0.00031634	0.0003771	6.7408e-05	1018.7	2.9176e-06	1.6753e-06	1098.9	208.73	1.2657e-06	3.3157e-06	264.07	75.251	59.003	16.984	1.1594e-06	23.547	7.1687e-05	4.9963e-05	1.2919e-05	998.21	6.3677e-07	5.1297e-07	1081.9	205.55	5.8271e-07	5.5255e-07	260.55	74.221	57.189	17.057	5.1517e-07	23.783	-27.507	-108.994	-104.384	-154.833	-12.610	35.625	-154.477	-146.947	-10.604	-2.112	-147.012	-140.684	-140.899	-132.940	-27.303	-133.566	-8191	255	
1105.831	1	1	0	0	0.093021	0.22815	0.1929	0.033968	0.093569	0.22682	0.2579	0.31324	0.18875	0.19227	0.11297	0.23004	0.27263	0.3353	0.15478	0.30355	-1.6292	-1.3021	-1.3083	-1.9792	-1.0938	-1.5542	-1.9021	-1.1854	-2.0646	-1.6229	-1.0708	-1.8792	-1.0771	-1.6396	-1.9167	-1.1187	-121.996	-119.281	187.634	-126.619	9.028	-160.278	79.647	121.812	32.997	-102.320	99.796	180.557	-116.155	97.006	-38.982	88.329	0.00039269	0.00040181	7.102e-05	1016.9	3.5846e-06	9.5472e-07	1096.1	208.19	3.5335e-06	2.7992e-06	264.06	74.593	59.268	17.108	2.3952e-06	23.677	7.1408e-05	4.9153e-05	1.4132e-05	999.07	6.429e-07	5.5415e-07	1079.5	205.55	5.9069e-07	5.2975e-07	259.9	74.113	57.49	17.095	5.3413e-07	23.841	-32.579	-81.982	-75.058	-154.312	-30.125	-5.900	-154.731	-146.857	-27.136	23.234	-147.207	-140.844	-140.637	-133.255	-4.158	-133.886	-8191	255	
1105.904	1	1	0	0	0.25581	0.013409	0.21211	0.16955	0.25297	0.082866	0.32291	0.022621	0.27934	0.015623	0.19727	0.21697	0.14607	0.21701	0.11689	0.1986	-1.4125	-1.5021	-1.1896	-2.3208	-1.1208	-1.5	-1.9979	-1.3312	-1.875	-1.5125	-1.2437	-2.1104	-1.275	-1.5	-1.9333	-1.1479	-124.636	182.165	-27.960	163.854	94.321	107.059	148.654	-91.877	-163.639	-45.877	76.184	62.417	102.826	-109.943	-118.284	166.695	0.00033365	0.00024646	5.0686e-05	1013.1	1.651e-06	2.0217e-06	1102.1	207.63	4.2768e-06	2.8605e-06	266.15	75.167	59.498	17.084	2.8455e-06	23.747	7.3939e-05	4.925e-05	1.3889e-05	997.18	6.0419e-07	5.666e-07	1081.4	205.3	6.2945e-07	5.3623e-07	260.82	74.362	57.586	17.067	5.4639e-07	23.774	-31.068	-91.797	-79.402	-154.526	22.279	-10.629	-154.572	-146.866	-24.824	20.141	-146.928	-140.858	-140.415	-133.036	-26.595	-133.550	-8191	255	
1106.023	1	1	0	0	0.062582	0.054398	0.33896	0.43182	0.010088	0.11379	0.13383	0.15312	0.084882	0.21661	0.12276	0.17689	0.11767	0.21827	0.24726	0.21631	-1.4021	-1.6938	-1.0583	-1.9604	-1.3312	-1.5187	-2.1583	-1.2062	-1.4271	-1.8	-1.0417	-1.9646	-1.3563	-1.3229	-1.9479	-0.87917	-52.515	184.680	140.963	194.000	-115.554	-108.014	-130.287	40.367	-131.450	-34.323	-8.621	39.697	86.012	-99.350	113.828	-132.191	0.00037685	0.00033213	0.00011197	1013.4	8.7628e-07	1.1969e-06	1100.5	206.85	3.8684e-06	3.8014e-06	263.7	75.007	59.488	17.088	2.1486e-06	23.683	7.2175e-05	4.7291e-05	1.4697e-05	997.76	6.4678e-07	5.737e-07	1082.3	205.19	6.2094e-07	5.1969e-07	260.76	74.156	57.725	17.057	5.3962e-07	23.814	-32.511	-69.393	-110.613	-154.167	7.685	21.514	-154.385	-146.772	-23.982	-13.812	-147.336	-140.825	-139.799	-132.681	-15.518	-133.663	-8191	255	
1106.119	1	1	0	0	0.11103	0.12348	0.073859	0.17568	0.30737	0.22475	0.020626	0.32886	0.29231	0.21974	0.34534	0.045758	0.17266	0.094557	0.1981	0.056453	-1.4062	-1.5479	-0.82708	-2.0687	-1.2958	-1.2167	-2.0354	-1.1833	-1.5521	-1.8042	-1.1521	-2.0062	-1.3875	-1.2167	-1.9229	-1.2437	3.137	159.624	-106.126	167.947	36.334	-153.965	-54.555	135.943	114.117	-106.215	90.244	61.060	-83.281	181.169	-150.789	18.144	0.00041436	0.00029237	8.5579e-05	1015.7	3.6342e-06	1.7592e-06	1100.8	206.71	4.4529e-06	3.8646e-06	264.9	74.705	59.328	17.104	3.9173e-06	23.706	7.5004e-05	4.9569e-05	1.4634e-05	996.89	6.2444e-07	5.7806e-07	1081.5	205.08	6.2878e-07	5.3173e-07	260.72	74.347	57.455	17.078	5.6241e-07	23.829	-30.701	-78.485	-73.791	-154.256	-6.149	-34.044	-154.519	-146.945	-49.440	-13.266	-146.853	-140.037	-140.492	-132.662	-22.279	-133.224	-8191	255	
1106.215	1	1	0	0	0.34392	0.2902	0.028182	0.25653	0.2054	0.3449	0.40396	0.2078	0.18672	0.1799	0.19517	0.23043	0.17799	0.16939	0.028315	0.15883	-1.0458	-1.9292	-1.1583	-1.9813	-1.3813	-1.0958	-2.1771	-1.2333	-1.325	-2.0354	-1.0104	-1.9167	-1.6271	-0.94583	-2.0292	-1.2896	106.363	87.962	167.184	173.719	151.110	-38.590	-159.297	175.221	-128.665	31.714	119.108	-125.115	92.049	192.729	-43.083	21.276	0.00039007	0.00032353	6.7534e-05	1012.6	2.3673e-06	2.8124e-06	1101.1	209.4	3.8605e-06	3.5419e-06	266.15	74.525	59.587	16.996	1.9988e-06	23.619	7.6653e-05	5.1355e-05	1.4487e-05	997.1	6.2287e-07	5.7867e-07	1081.7	205.52	6.1563e-07	5.3013e-07	261.23	74.344	57.676	17.046	5.5331e-07	23.768	-28.452	-103.790	-46.528	-153.942	-19.069	-2.209	-154.377	-146.704	-28.681	-16.505	-146.923	-140.519	-140.112	-132.342	19.050	-133.452	-8191	255	
1106.312	1	1	0	0	0.12709	0.24033	0.23529	0.36915	0.10151	0.13559	0.25786	0.071362	0.1725	0.065041	0.30435	0.29404	0.022461	0.10399	0.16095	0.24109	-0.9125	-1.9542	-1.1083	-1.7542	-1.6875	-1.1167	-2.2271	-1.4813	-1.2917	-2.1896	-0.99583	-1.5875	-1.8208	-1.0438	-1.9625	-1.4625	62.717	172.481	-40.453	123.643	-86.027	144.484	115.688	-8.593	19.053	-37.855	-135.789	-110.835	16.360	5.931	-41.001	-84.232	0.00040106	0.00024252	8.9626e-05	1012.5	2.9981e-06	3.4997e-06	1104	207.3	3.1904e-06	2.487e-06	263.6	74.734	59.389	17.017	1.9852e-06	23.694	7.7326e-05	4.7616e-05	1.4323e-05	997.39	6.1226e-07	5.6003e-07	1080.6	205	6.2459e-07	5.2564e-07	259.97	74.479	57.627	17.051	5.6925e-07	23.866	-28.098	-55.935	-76.233	-153.888	-49.001	-15.856	-154.130	-146.463	-42.549	-4.956	-146.842	-140.479	-140.583	-132.473	19.061	-133.050	-8191	255	
1106.432	1	1	0	0	0.083179	0.10874	0.17888	0.23295	0.18701	0.38133	0.21641	0.050382	0.243	0.07531	0.069978	0.12309	0.14876	0.12839	0.13813	0.27169	-0.84583	-2.1333	-1.1187	-1.5771	-1.7479	-1.0958	-2.0979	-1.6854	-1.2771	-1.9958	-1.2271	-1.4	-2.0062	-0.98125	-1.7792	-1.6521	83.942	164.563	187.435	131.312	67.853	58.029	142.520	96.091	-83.246	82.085	48.666	139.870	2.677	-82.265	7.562	-78.403	0.00039492	0.00025431	8.3593e-05	1015.8	2.849e-06	1.4557e-06	1098.3	207.28	3.9779e-06	2.9044e-07	263.14	74.906	59.398	17.094	1.7415e-06	23.765	7.4275e-05	4.6363e-05	1.4797e-05	999.25	5.9919e-07	5.5797e-07	1080.9	204.85	5.9809e-07	5.0368e-07	260.64	74.309	57.094	17.062	5.4405e-07	23.849	-31.595	-28.991	-104.124	-153.819	-48.296	-49.987	-154.004	-146.308	-60.523	157.732	-146.969	-139.962	-139.896	-132.390	-55.806	-133.588	-8191	255	
1106.504	1	1	0	0	0.14025	0.13348	0.12907	0.11701	0.4637	0.34148	0.27022	0.14179	0.2015	0.17651	0.092884	0.2102	0.050039	0.014603	0.17792	0.17416	-0.76875	-1.8937	-1.1479	-1.5	-2.0333	-1.0938	-2.0958	-1.7896	-1.1708	-1.9562	-1.1646	-1.3188	-1.8833	-1.1688	-1.7354	-1.8729	-14.632	-115.506	-44.577	-47.988	144.807	91.334	110.030	78.854	87.573	-66.237	141.878	-145.269	48.712	20.834	-32.435	59.358	0.00038339	0.00025437	7.098e-05	1013.7	2.1282e-06	2.2242e-06	1099.7	207.56	2.5162e-06	4.0677e-06	264.13	75.035	59.889	17.063	2.8868e-06	23.831	7.3399e-05	4.7021e-05	1.3823e-05	998.39	5.758e-07	5.6171e-07	1080.5	205.29	6.1578e-07	4.9438e-07	260.4	74.39	57.71	17.067	5.3721e-07	23.764	-30.083	-86.345	-88.466	-154.024	-40.257	-28.765	-153.922	-146.725	-2.285	-3.985	-146.840	-140.221	-140.560	-132.474	-6.562	-133.822	-8191	255	
1106.600	1	1	0	0	0.19483	0.093301	0.12389	0.18872	0.2226	0.25104	0.13549	0.19282	0.17748	0.3019	0.39074	0.16496	0.14829	0.2071	0.087324	0.085264	-0.60833	-1.8917	-1.2979	-1.4042	-2.0062	-1.1229	-1.8479	-1.9479	-1.1729	-1.8604	-1.4354	-1.4229	-2.0563	-1.1917	-1.35	-1.9312	-65.298	-43.333	136.973	68.158	57.965	-148.176	183.397	84.460	81.109	148.684	-160.292	-92.992	31.301	99.706	-87.819	-115.760	0.00037246	0.00030942	6.1951e-05	1017.3	2.4089e-06	1.9612e-06	1103.1	207.93	4.424e-06	3.0106e-06	263.9	74.939	59.116	17.002	2.6496e-06	23.753	7.3996e-05	4.6896e-05	1.3976e-05	999.35	5.9351e-07	5.2596e-07	1082.7	205.57	6.1944e-07	4.8935e-07	260.19	74.386	57.422	17.04	5.4315e-07	23.813	-36.090	-84.527	-106.570	-154.101	-49.463	-31.240	-154.214	-146.736	-43.697	-7.957	-147.008	-140.210	-139.921	-133.011	-4.701	-133.527	-8191	255	
1106.721	1	1	0	0	0.23654	0.49723	0.23359	0.095793	0.3494	0.21641	0.33639	0.33194	0.077624	0.10525	0.24564	0.18844	0.08803	0.19752	0.26231	0.13434	-0.725	-2.0083	-1.375	-1.2917	-2	-1.2958	-1.6333	-1.9417	-0.89792	-1.7417	-1.8062	-1.2437	-2.1854	-1.1333	-1.625	-2.1437	133.809	131.169	54.534	-51.351	95.872	80.277	157.528	127.590	-51.372	79.002	114.407	129.328	-74.255	7.484	-113.898	-118.029	0.00036829	0.00026633	3.3334e-05	1017.9	4.2863e-06	2.4206e-06	1101.3	207.59	3.8918e-06	4.8499e-06	263.76	74.898	58.934	16.934	4.0226e-06	23.919	6.9898e-05	4.6474e-05	1.2568e-05	1000.5	5.9082e-07	5.5147e-07	1082.8	205.43	6.2758e-07	5.3044e-07	260.06	74.294	57.368	17.043	5.7639e-07	23.878	-31.039	-87.684	-59.874	-154.124	-35.016	-18.494	-154.347	-146.787	-30.948	-16.074	-147.304	-140.580	-139.940	-132.506	-23.080	-133.759	-8191	255	
1106.815	1	1	0	0	0.056308	0.15643	0.099822	0.11057	0.19744	0.13643	0.19996	0.099306	0.21203	0.30325	0.15165	0.13015	0.17836	0.20458	0.046793	0.087675	-0.76875	-2.0125	-1.6792	-1.2271	-2.0625	-1.5583	-1.6833	-2.3521	-1.1271	-1.7792	-1.8229	-0.95417	-1.9521	-1.4083	-1.3312	-1.9646	-136.414	187.728	-1.658	120.673	-41.905	11.519	111.956	127.308	153.412	-122.458	-67.845	140.409	114.473	63.455	180.185	-7.943	0.00041733	0.00024938	6.072e-05	1016.5	2.7255e-06	3.5089e-06	1103.3	208.35	4.0908e-06	2.713e-06	265.38	75.299	59.895	16.928	3.8277e-06	23.641	7.6171e-05	4.9915e-05	1.4352e-05	998.24	6.0524e-07	5.8134e-07	1083.1	205.8	6.3983e-07	5.3349e-07	261.48	74.252	57.687	17.002	5.6293e-07	23.815	-29.907	-60.217	-63.928	-154.111	-8.634	6.471	-154.170	-146.551	-31.699	-13.241	-147.277	-140.514	-140.641	-132.713	10.585	-133.414	-8191	255	
1106.911	1	1	0	0	0.14237	0.2116	0.19308	0.12214	0.11434	0.21829	0.1256	0.14362	0.16173	0.16251	0.18588	0.3023	0.28938	0.083439	0.23832	0.23229	-0.67292	-1.6562	-1.5917	-1.2146	-1.8396	-1.4208	-1.2812	-2.0292	-0.84167	-1.6021	-1.9333	-1.0875	-1.9604	-1.3188	-1.0063	-2.1188	80.715	56.261	-145.789	189.185	-36.913	100.825	134.104	113.430	61.795	-15.664	133.382	102.309	-146.260	120.859	-56.881	183.252	0.00040263	0.000375	9.6559e-05	1015.5	3.5282e-06	2.8923e-06	1103.6	208.3	3.6434e-06	5.271e-06	265.35	75.184	59.242	17.06	2.909e-06	23.719	7.6545e-05	4.9077e-05	1.3947e-05	997.61	6.169e-07	5.5705e-07	1083.9	205.43	6.5439e-07	5.0688e-07	260.5	74.486	57.65	17.011	5.7226e-07	23.807	-28.896	-65.534	-68.095	-154.141	-31.178	31.509	-154.451	-146.811	-24.817	-25.893	-147.280	-140.681	-140.322	-132.674	-8.296	-133.050	-8191	255	
1107.007	1	1	0	0	0.088153	0.19068	0.14676	0.41359	0.18877	0.11437	0.07402	0.13587	0.059787	0.40533	0.019584	0.096645	0.085258	0.081033	0.20376	0.077481	-0.67083	-1.6021	-1.75	-1.0646	-1.8458	-1.5708	-1.425	-2.1104	-1.2146	-1.575	-1.9667	-1.1354	-1.7542	-1.5187	-0.98125	-2.1542	-14.299	-9.947	-74.257	151.064	-37.005	-74.573	177.546	95.958	-124.892	-10.728	-118.812	-129.431	-54.727	-159.379	169.306	-48.482	0.00042676	0.00018718	6.1513e-05	1018.7	4.6172e-06	2.0439e-06	1102.5	208.06	4.7485e-06	2.338e-06	264.62	74.647	59.659	16.992	3.07e-06	23.851	7.7998e-05	4.9832e-05	1.418e-05	1000.6	6.0666e-07	5.4979e-07	1082.4	205.58	6.3557e-07	5.3943e-07	260.99	74.359	57.52	17.025	6.137e-07	23.831	-27.889	-92.156	-77.253	-154.412	0.053	-18.273	-154.412	-146.878	-12.876	-46.182	-147.137	-140.713	-140.424	-132.856	-9.982	-133.548	-8191	255	
1107.104	1	1	0	0	0.10324	0.23581	0.12501	0.22427	0.10968	0.27232	0.20491	0.19414	0.035855	0.15297	0.10163	0.24017	0.15639	0.14679	0.38104	0.095642	-0.74583	-1.3312	-1.725	-1.0833	-1.6688	-1.725	-1.1708	-2.0604	-1.3333	-1.0729	-2.0396	-1.0229	-1.6583	-1.7708	-1.1104	-1.8792	-15.304	181.429	-160.612	137.824	-38.380	-135.175	-145.292	19.527	10.772	35.493	92.206	129.102	140.570	-2.143	47.899	15.860	0.00039993	0.00037531	9.292e-05	1016.4	4.7358e-06	1.494e-06	1105.6	208.73	4.8848e-06	2.1087e-06	264.36	74.69	58.992	17.088	2.4694e-06	23.729	7.4484e-05	5.0669e-05	1.4688e-05	998.3	6.5859e-07	5.4322e-07	1083.4	205.67	6.3311e-07	5.5849e-07	260.83	74.454	57.464	17.063	6.2295e-07	23.876	-29.037	-93.192	-73.900	-154.124	-38.782	-3.200	-154.121	-146.942	-51.808	-25.831	-147.434	-140.881	-141.105	-132.960	-47.060	-133.469	-8191	255	
1107.200	1	1	0	0	0.081408	0.15577	0.17641	0.30787	0.27666	0.057663	0.39269	0.20723	0.30558	0.097129	0.23045	0.065496	0.25884	0.3887	0.21665	0.10076	-1.0146	-1.2958	-1.8083	-1.4271	-1.5458	-1.8583	-1.0354	-2.05	-1.4646	-1.0917	-2.2479	-1.3146	-1.4083	-1.8917	-0.87708	-1.8979	66.248	-114.009	153.702	183.828	177.549	62.457	167.998	142.795	-84.839	0.330	135.779	142.548	-123.104	-159.823	-137.711	-150.050	0.00035078	0.00024397	8.1388e-05	1015.2	2.4583e-06	2.85e-06	1105.8	208.58	3.736e-06	2.3515e-06	263.88	75.073	59.4	17.042	2.0063e-06	23.823	7.704e-05	5.4006e-05	1.4803e-05	998.53	6.1675e-07	5.5124e-07	1085.1	205.48	6.0227e-07	5.8708e-07	260.28	74.158	57.484	17.035	5.9098e-07	23.852	-28.085	-102.398	-78.484	-154.297	-11.498	23.854	-154.400	-146.665	-31.597	19.366	-147.296	-140.569	-140.448	-133.096	3.514	-133.437	-8191	255	
1107.296	1	1	0	0	0.31601	0.039277	0.50766	0.1571	0.075738	0.13413	0.1932	0.1162	0.058088	0.13678	0.12515	0.12538	0.1035	0.40611	0.17912	0.21881	-1.1187	-1.0063	-1.9479	-1.35	-1.3167	-2.175	-1.2313	-1.8771	-1.575	-1.0625	-2.0604	-1.3646	-1.2708	-2.025	-0.81042	-1.7792	-99.538	85.080	33.351	-95.937	128.453	140.687	170.828	93.677	-57.412	84.711	-127.148	140.142	162.188	167.862	-123.431	78.423	0.00035292	0.00016665	9.5594e-05	1019.4	2.1012e-06	2.0145e-06	1101	207.32	3.3488e-06	1.3785e-06	264.77	74.81	59.973	16.969	4.8931e-06	24.013	7.6577e-05	5.3037e-05	1.3278e-05	1000.1	6.3804e-07	5.3696e-07	1083.3	205.03	6.1593e-07	5.8182e-07	260.59	74.237	57.729	17.064	5.803e-07	23.893	-35.932	-79.550	-92.946	-154.202	-11.102	-30.087	-154.209	-146.723	-21.166	-75.214	-147.412	-140.544	-140.963	-133.546	-27.085	-134.081	-8191	255	
1107.392	1	1	0	0	0.090061	0.026327	0.24814	0.1169	0.11252	0.024081	0.12577	0.061616	0.075722	0.095758	0.22359	0.1331	0.29015	0.26101	0.13404	0.36547	-1.1333	-1.0063	-1.8792	-1.2479	-1.0792	-2.0438	-1.3563	-1.6271	-1.8813	-0.97917	-1.8104	-1.5396	-1.1021	-2.1312	-1.1458	-1.5812	-96.122	-153.645	-38.684	98.570	-155.012	-80.872	111.460	145.858	69.537	-132.172	34.851	-163.734	-74.005	-83.985	-144.527	190.099	0.00043089	0.00026433	6.8177e-05	1016	2.9669e-06	1.6572e-06	1103.1	207.43	1.3529e-06	3.7802e-06	264.31	74.759	60.105	16.986	2.0719e-06	23.83	7.2461e-05	5.4359e-05	1.2697e-05	998.91	6.2497e-07	5.0953e-07	1082.3	205.41	6.1563e-07	5.5773e-07	260.67	74.213	57.818	17.072	5.7293e-07	23.82	-29.083	-90.656	-74.043	-154.193	-6.980	3.280	-154.614	-146.553	-53.104	-0.026	-147.466	-140.620	-140.310	-132.995	-1.820	-133.761	-8191	255	
1107.513	1	1	0	0	0.22294	0.24351	0.091878	0.17645	0.16633	0.39424	0.34536	0.4008	0.049596	0.13852	0.15179	0.14368	0.23069	0.46446	0.085937	0.1343	-1.3521	-1.0229	-1.975	-1.7333	-1.1979	-2.0396	-1.3563	-1.6646	-1.8458	-0.85417	-1.7896	-1.5292	-0.95625	-1.9813	-1.2042	-1.4813	109.259	6.264	151.016	-136.071	-1.111	6.034	183.493	38.311	15.255	76.682	-52.452	78.858	193.922	74.847	-162.827	28.129	0.00039515	0.00034755	6.336e-05	1012.8	3.8332e-06	1.981e-06	1098.6	207.67	3.4795e-06	2.1975e-06	263.84	74.951	59.908	17.036	2.139e-06	23.588	7.0329e-05	5.303e-05	1.3071e-05	996.88	6.0875e-07	5.0877e-07	1081	205.3	5.9913e-07	5.4645e-07	261.04	74.301	57.683	17.046	5.8956e-07	23.771	-29.406	-59.544	-91.399	-154.315	-76.414	-26.322	-154.555	-146.765	-50.021	-50.513	-147.381	-141.014	-140.471	-132.573	-31.758	-133.355	-8191	255	
1107.609	1	1	0	0	0.13903	0.22228	0.40556	0.07942	0.050438	0.20245	0.19273	0.14975	0.19171	0.17215	0.084216	0.11225	0.11736	0.36192	0.19958	0.14284	-1.5854	-0.95833	-1.7313	-1.6333	-0.9625	-2.0958	-1.1812	-1.5479	-1.825	-1.0708	-1.9438	-1.8583	-0.88542	-2.1479	-1.2875	-1.2979	-65.331	143.590	185.186	29.497	166.452	-91.837	57.201	116.110	167.171	-30.129	-101.699	-118.277	-130.619	-99.918	-132.323	123.648	0.00031757	0.00022451	5.5483e-05	1014.4	3.009e-06	3.1752e-06	1100.8	207.66	3.1313e-06	3.2065e-06	263.46	75.179	59.853	16.928	3.7695e-06	23.827	7.1845e-05	5.1472e-05	1.3307e-05	996.25	6.4701e-07	5.1755e-07	1081.5	205.51	5.8509e-07	5.4805e-07	260.72	74.344	57.732	17.03	5.8933e-07	23.828	-29.723	-89.811	-97.607	-154.227	-0.129	-40.372	-154.322	-146.931	-36.263	-13.897	-147.130	-140.702	-140.046	-132.802	-24.440	-134.185	-8191	255	
1107.705	1	1	0	0	0.23254	0.18152	0.12379	0.095529	0.083163	0.229	0.24011	0.12719	0.25751	0.17352	0.28853	0.10835	0.14389	0.18994	0.22524	0.12905	-1.4688	-1.1292	-1.6396	-1.8854	-0.9125	-1.8813	-1.3917	-1.2792	-2.0396	-1.2792	-1.6708	-1.8854	-0.92292	-1.8083	-1.4625	-1.2583	168.094	180.229	39.565	157.785	-17.639	91.679	171.685	188.340	176.398	-150.081	-149.248	55.411	-131.542	139.474	120.024	169.416	0.00038576	0.00028708	7.412e-05	1015	2.8472e-06	1.3492e-06	1101.5	207.83	4.1878e-06	3.4603e-06	265.25	74.941	59.538	17.109	2.9375e-06	23.711	7.2613e-05	5.2919e-05	1.4217e-05	998.4	6.3005e-07	5.2237e-07	1082.1	205.55	6.0346e-07	5.6512e-07	260.55	74.412	57.476	17.074	5.3556e-07	23.836	-23.712	-65.594	-107.524	-154.459	-42.640	-20.489	-154.574	-146.666	-11.456	10.300	-147.254	-140.649	-140.102	-132.956	-43.192	-133.578	-8191	255	
1107.801	1	1	0	0	0.13262	0.1357	0.18713	0.20367	0.30404	0.14803	0.20622	0.32318	0.21631	0.15866	0.18652	0.048769	0.22338	0.10535	0.15773	0.19622	-1.5625	-1.2375	-1.6854	-2.0687	-0.9375	-1.7896	-1.5917	-1.1771	-1.9229	-1.1896	-1.4396	-2.05	-0.83125	-1.8854	-1.7271	-1.025	161.578	114.403	119.083	93.987	14.621	24.961	144.497	131.794	-88.518	-63.263	117.174	49.517	122.541	-75.855	64.347	-83.087	0.00042055	0.00034457	8.7458e-05	1014.3	9.6494e-07	3.7528e-06	1094.5	207.92	3.5659e-06	3.6153e-06	265.05	75.249	60.166	16.952	4.9062e-06	23.752	7.293e-05	5.1154e-05	1.3688e-05	998.41	6.2698e-07	5.3413e-07	1079.9	205.63	5.9958e-07	5.5689e-07	260.76	74.619	57.777	17.021	6.0302e-07	23.768	-30.840	-106.202	-66.494	-154.459	-12.478	-0.436	-154.755	-146.560	-8.784	-10.751	-147.415	-140.779	-140.671	-132.975	-14.497	-134.086	-8191	255	
1107.895	1	1	0	0	0.12314	0.22872	0.40853	0.28565	0.070031	0.20621	0.31783	0.091309	0.10859	0.12912	0.12623	0.043013	0.14869	0.065814	0.18903	0.095892	-1.5667	-1.0938	-1.3854	-2.0104	-0.95208	-1.6708	-1.775	-1.1708	-2.025	-1.3292	-1.5521	-2.1625	-1.2104	-1.7458	-1.7521	-0.8875	-55.059	69.981	99.635	141.976	-157.783	84.806	65.080	-120.749	124.069	-13.337	51.663	130.842	14.429	-23.127	-116.812	101.560	0.00034611	0.00034974	0.00014114	1015.2	2.5676e-06	2.1412e-06	1100.6	207.95	4.9169e-06	2.448e-06	264.01	74.326	59.159	17.14	3.139e-06	23.56	7.2213e-05	5.1265e-05	1.436e-05	997.21	6.6225e-07	5.3642e-07	1082.3	205.46	6.296e-07	5.6192e-07	260.8	74.274	57.414	17.068	5.6602e-07	23.785	-35.414	-74.435	-96.627	-154.209	-17.285	-12.685	-154.234	-146.800	-39.661	-58.518	-147.015	-141.079	-140.957	-132.887	7.456	-133.326	-8191	255	
1107.992	1	1	0	0	0.20498	0.12304	0.28406	0.14056	0.27577	0.046359	0.28492	0.32074	0.1176	0.12858	0.13152	0.28382	0.15331	0.27299	0.077984	0.15023	-1.6958	-1.3687	-1.2542	-2.1063	-1.1458	-1.7812	-1.9354	-1.1229	-1.8583	-1.3208	-1.2708	-2.0125	-1.3625	-1.5146	-1.9521	-1.0854	-30.441	-70.967	-26.564	162.272	189.150	-37.454	111.934	-0.669	-1.114	-71.175	95.815	55.086	-26.688	114.755	-157.694	90.017	0.00039406	0.00028872	6.471e-05	1016.4	2.9203e-06	1.7495e-06	1104.6	208.32	2.9681e-06	2.9543e-06	264.03	74.437	59.538	16.999	2.6259e-06	23.765	7.4046e-05	5.0974e-05	1.3968e-05	999.16	6.2168e-07	5.4666e-07	1082.9	205.55	6.0757e-07	5.5758e-07	260.25	74.373	57.555	17.055	5.3526e-07	23.829	-32.015	-98.938	-73.521	-154.459	-53.686	18.674	-154.656	-146.720	-43.046	32.821	-147.151	-140.729	-140.589	-132.548	-39.599	-133.917	-8191	255	
1108.112	1	1	0	0	0.10771	0.34595	0.27777	0.14344	0.15089	0.2873	0.13994	0.12162	0.21278	0.14854	0.1227	0.18065	0.28752	0.24073	0.24142	0.15693	-1.4958	-1.5562	-1.1437	-2.0896	-1.1938	-1.4688	-1.9833	-1.1396	-1.8104	-1.6104	-1.2229	-2.0833	-1.3188	-1.4708	-1.975	-1.0667	-114.934	31.506	120.279	165.835	135.929	87.772	155.502	78.488	-127.927	19.650	-76.031	-48.481	144.805	-145.079	48.344	175.268	0.00034158	0.00027291	0.00010324	1017.1	2.19e-06	2.8131e-06	1102.6	207.83	4.9286e-06	2.7719e-06	264.52	75.016	59.415	17.088	3.1908e-06	23.756	7.2645e-05	5.114e-05	1.4578e-05	998.41	6.1234e-07	5.5728e-07	1082.6	205.2	6.1489e-07	5.514e-07	260.72	74.185	57.265	17.069	5.6609e-07	23.821	-36.102	-67.146	-59.854	-154.308	-32.560	-3.466	-154.703	-146.510	-62.172	-27.207	-147.120	-140.518	-140.543	-132.890	-20.683	-133.900	-8191	255	
1108.208	1	1	0	0	0.093408	0.12293	0.33725	0.14176	0.11063	0.13067	0.088175	0.2848	0.2123	0.14393	0.30525	0.32083	0.11037	0.050678	0.14284	0.18612	-1.3813	-1.6958	-0.92083	-2.1333	-1.5063	-1.2021	-2.2458	-1.1458	-1.5438	-1.9271	-1.0958	-2.0021	-1.5042	-1.0812	-1.925	-1.0312	-149.448	-98.806	17.712	145.363	135.512	2.997	-73.131	166.024	-26.308	151.150	176.953	-157.603	61.858	13.046	96.247	144.974	0.0003832	0.00017319	7.9737e-05	1018.8	2.6571e-06	2.766e-06	1098	207.88	3.9922e-06	2.0923e-06	264.67	75.024	59.633	17.172	3.4399e-06	23.734	7.3139e-05	5.0829e-05	1.3671e-05	998.56	6.2392e-07	5.6721e-07	1079.9	205.19	6.1534e-07	5.0307e-07	260.75	74.294	57.602	17.158	5.4879e-07	23.775	-35.555	-61.457	-123.278	-154.350	-38.228	-25.191	-154.474	-146.789	-29.901	13.551	-147.060	-140.845	-140.453	-133.182	-25.651	-133.368	-8191	255	
1108.305	1	1	0	0	0.07286	0.092149	0.26976	0.12607	0.088224	0.21763	0.23821	0.067738	0.17692	0.15597	0.28032	0.28635	0.090185	0.14938	0.12226	0.069252	-1.2812	-1.7958	-1.1187	-2.0563	-1.5333	-1.2896	-2.2188	-1.2479	-1.4667	-1.8417	-1.05	-1.8521	-1.5938	-1.0354	-2.0458	-1.1375	-29.030	-132.565	-99.877	-127.039	-46.429	130.168	-23.886	-118.823	105.013	24.182	-96.542	-136.337	-139.213	-115.601	115.708	-163.806	0.00037456	0.00045657	9.0385e-05	1014.1	3.8377e-06	1.3205e-06	1099.6	207.34	5.167e-06	2.5543e-06	263.97	74.742	60.052	17.075	1.7515e-06	23.779	7.1509e-05	5.2047e-05	1.386e-05	998.27	5.888e-07	5.501e-07	1081.1	205.49	6.334e-07	5.2098e-07	260.68	74.413	57.395	17.1	5.4443e-07	23.821	-31.857	-70.268	-101.361	-154.211	-28.721	-30.514	-154.518	-147.219	-32.561	-31.437	-147.331	-140.397	-140.434	-132.856	-55.552	-133.514	-8191	255	
1108.376	1	1	0	0	0.25016	0.080725	0.10956	0.28867	0.078285	0.23172	0.27189	0.013732	0.21423	0.17569	0.34484	0.16931	0.14284	0.2733	0.10204	0.17191	-1.1125	-1.8979	-0.82708	-1.9375	-1.5271	-1.1979	-2.3083	-1.2208	-1.2708	-1.9521	-1.0417	-1.8229	-1.6313	-1.1083	-2.0646	-1.3312	-22.076	0.499	18.268	71.926	113.262	119.990	114.332	13.099	55.170	-137.230	124.974	-36.868	-76.777	189.027	48.638	-127.739	0.000394	0.00035855	6.3009e-05	1013.7	3.3031e-06	2.3986e-06	1102.9	207.6	3.2284e-06	5.7904e-06	263.82	74.803	60.162	16.91	3.4225e-06	23.948	7.5093e-05	4.8315e-05	1.4171e-05	998.3	5.8992e-07	5.4276e-07	1081.4	205.28	5.6531e-07	5.222e-07	260.47	74.199	57.589	17.013	5.5639e-07	23.868	-32.507	-70.575	-71.664	-154.218	-43.045	-18.881	-154.605	-146.890	-33.529	-7.635	-147.179	-140.549	-140.217	-132.934	-15.951	-133.822	-8191	255	
1108.497	1	1	0	0	0.17062	0.15032	0.1265	0.070159	0.078581	0.16278	0.20576	0.17721	0.19642	0.15115	0.085406	0.20201	0.017548	0.09064	0.18342	0.099047	-0.95833	-2.0708	-1.0438	-1.8479	-1.7021	-1.1313	-2.0812	-1.4417	-1.2729	-2.0042	-1.1063	-1.7583	-1.8042	-0.93125	-1.9333	-1.7333	-84.345	157.559	176.773	154.640	-45.960	165.206	105.450	128.911	-146.522	156.607	117.665	-31.415	-130.156	180.927	99.296	155.115	0.0004001	0.0002467	7.9369e-05	1017	3.3861e-06	2.0875e-06	1099.8	207.67	4.6491e-06	1.5809e-06	264.23	75.08	58.706	17.04	3.3827e-06	23.733	7.3634e-05	4.907e-05	1.3656e-05	998.64	5.9627e-07	5.7133e-07	1081.6	205.36	5.8793e-07	5.078e-07	260.71	74.393	57.219	17.077	5.6346e-07	23.802	-32.095	-65.526	-97.939	-154.671	6.407	4.772	-154.761	-147.147	-32.541	38.606	-147.618	-140.656	-139.453	-132.872	-12.821	-133.762	-8191	255	
1108.593	1	1	0	0	0.11241	0.14124	0.16805	0.22788	0.093345	0.42369	0.27299	0.065588	0.26279	0.31863	0.092568	0.35547	0.032422	0.23986	0.19296	0.12358	-0.67917	-1.9396	-0.94375	-1.7188	-1.9813	-1.0917	-1.8604	-1.7146	-1.0604	-2.1792	-1.1542	-1.6479	-1.9	-1.1812	-1.9354	-1.6854	-54.545	92.045	-95.026	-132.804	34.816	-106.236	162.917	103.525	99.135	34.766	49.410	-160.638	167.260	131.144	151.277	56.044	0.00035359	0.00041083	0.00015813	1017.3	2.6209e-06	1.8164e-06	1099.8	207.88	3.4591e-06	2.5769e-06	263.16	75.504	59.5	17.038	2.7162e-06	23.789	7.0374e-05	4.8648e-05	1.3341e-05	996.77	5.7871e-07	5.3749e-07	1080.8	205.58	6.0585e-07	4.8981e-07	260.21	74.547	57.674	17.038	5.3541e-07	23.791	-33.928	-91.370	-82.896	-154.327	-9.952	-48.999	-154.327	-147.104	-18.389	0.293	-147.480	-140.525	-140.397	-133.142	-16.050	-133.438	-8191	255	
1108.689	1	1	0	0	0.10037	0.18833	0.16461	0.22554	0.18768	0.42123	0.23587	0.23332	0.069999	0.11642	0.099165	0.27869	0.21027	0.11595	0.1052	0.023006	-0.80208	-2.175	-1.25	-1.375	-2.1604	-0.87292	-1.7875	-1.7771	-1.1292	-2.0208	-1.2625	-1.3417	-2.1354	-1.3	-1.8	-1.7229	100.056	-101.571	103.086	-155.850	-11.158	124.413	64.619	164.629	-64.178	-63.363	150.479	53.173	143.329	130.497	2.171	123.370	0.00041612	0.00030387	7.0571e-05	1013.1	2.01e-06	1.4774e-06	1097.8	208.3	2.7176e-06	2.8606e-06	263.46	75.099	59.344	17.012	7.2341e-07	23.654	7.3913e-05	4.9202e-05	1.3528e-05	996.28	5.5981e-07	5.5002e-07	1080.8	205.39	6.2489e-07	5.1313e-07	260.88	74.539	57.385	17.033	5.3541e-07	23.768	-27.653	-85.576	-81.509	-154.241	14.873	-10.930	-154.365	-146.975	-19.850	2.016	-147.192	-140.774	-139.886	-133.215	3.990	-133.622	-8191	255	
1108.785	1	1	0	0	0.1636	0.29498	0.15633	0.15899	0.21376	0.20227	0.34512	0.30519	0.13843	0.091888	0.13489	0.093569	0.12949	0.19137	0.042606	0.041482	-0.82708	-1.9167	-1.2667	-1.2979	-1.9417	-0.96042	-1.6063	-1.8292	-1.1063	-1.9208	-1.5833	-1.1854	-2.0438	-1.2792	-1.5708	-2.0187	-117.932	-79.171	50.026	48.532	-158.514	120.066	116.108	178.356	10.474	83.204	171.296	18.151	-53.469	-49.884	-84.081	77.940	0.0003958	0.00027548	7.2978e-05	1019.2	5.5894e-06	2.5916e-06	1101.9	208.17	4.7892e-06	2.385e-06	264.9	74.761	59.347	16.943	3.422e-06	23.522	7.5366e-05	4.8876e-05	1.4188e-05	998.71	5.9851e-07	5.5972e-07	1081.4	205.28	6.1922e-07	5.1938e-07	260.82	74.403	57.63	17.043	5.6391e-07	23.729	-29.163	-108.071	-58.551	-154.266	-20.928	6.783	-154.501	-146.818	-26.043	-73.674	-147.149	-140.078	-140.308	-133.002	-45.934	-133.360	-8191	255	
1108.904	1	1	0	0	0.17007	0.13729	0.14707	0.39378	0.31933	0.23061	0.27435	0.11845	0.11993	0.19246	0.13042	0.29369	0.088403	0.16591	0.20127	0.11119	-0.80625	-1.9125	-1.5792	-1.1604	-1.9542	-1.2854	-1.6333	-2.0375	-0.89583	-1.9312	-1.6729	-1.1063	-2.0208	-1.25	-1.6063	-1.9729	169.057	140.832	-113.103	99.776	138.206	-136.773	35.579	-69.616	130.266	79.319	143.529	178.915	19.012	153.641	140.935	136.199	0.00039584	0.00021426	5.1761e-05	1014.3	2.4746e-06	2.8845e-06	1096.3	208.11	2.4261e-06	2.4707e-06	263.93	75.192	58.807	17.058	1.7466e-06	23.771	7.3894e-05	4.8696e-05	1.3478e-05	995.81	6.03e-07	5.4406e-07	1079.8	205.11	6.06e-07	5.4004e-07	260.28	74.435	57.303	17.041	5.6383e-07	23.796	-34.270	-64.999	-79.010	-154.286	-24.305	-5.313	-154.387	-146.914	-41.651	-12.158	-147.343	-140.955	-140.828	-132.477	53.719	-133.383	-8191	255	
1109.000	1	1	0	0	0.17387	0.14826	0.14083	0.25075	0.12999	0.12659	0.14702	0.19338	0.15065	0.17177	0.10081	0.048013	0.19859	0.26553	0.049519	0.28211	-0.74167	-1.8062	-1.6458	-1.2917	-2.0083	-1.425	-1.3521	-2.2167	-1.1375	-1.7354	-1.9104	-0.98125	-2.025	-1.4333	-1.3854	-1.8917	-17.659	-5.210	-9.889	175.370	-45.582	93.305	106.006	169.937	-93.398	154.288	154.391	-163.305	-26.188	79.358	-137.090	129.763	0.00038661	0.00017201	9.3324e-05	1015.7	1.9616e-06	1.7829e-06	1104.2	208.58	3.2252e-06	1.2522e-06	263.33	75.087	60.049	17.045	3.1392e-06	23.786	7.6216e-05	4.8765e-05	1.3303e-05	998.75	5.8193e-07	5.313e-07	1081.3	205.31	5.8218e-07	5.2769e-07	260.27	74.568	57.601	17.036	5.5376e-07	23.817	-36.144	-74.296	-83.774	-154.269	-22.192	-6.718	-154.215	-146.770	-33.166	-5.016	-147.533	-140.760	-140.486	-132.880	-9.471	-133.358	-8191	255	
1109.074	1	1	0	0	0.044063	0.14578	0.10039	0.22392	0.21337	0.095967	0.3469	0.06767	0.20664	0.28042	0.070861	0.2498	0.10417	0.20447	0.26016	0.075568	-0.75625	-1.5833	-1.7062	-0.97292	-1.8979	-1.6875	-1.3458	-2.0563	-1.0042	-1.5958	-2.0167	-1.0771	-1.8542	-1.6771	-1.1229	-2.1875	50.533	180.073	-128.402	93.115	-100.083	-123.107	135.743	122.921	38.017	48.812	-154.881	-65.926	191.710	-35.489	171.443	25.533	0.00036503	0.00014458	7.6952e-05	1015.9	2.6079e-06	3.6057e-06	1102.3	208.25	4.2864e-06	9.4179e-07	266.18	74.781	59.503	17.072	3.4968e-06	23.787	7.2334e-05	4.5754e-05	1.2604e-05	997.07	5.5973e-07	4.9349e-07	1082.8	205.88	5.948e-07	5.402e-07	261.26	74.331	57.567	17.047	5.6526e-07	23.785	-35.570	-58.443	-75.044	-154.198	-30.452	19.538	-154.348	-146.779	-56.854	-43.258	-147.426	-140.459	-141.444	-132.821	-21.607	-133.335	-8191	255	
1109.193	1	1	0	0	0.2165	0.2835	0.1006	0.18063	0.086057	0.2347	0.099036	0.15127	0.14963	0.23542	0.17727	0.15922	0.12545	0.060259	0.16342	0.13823	-0.81458	-1.5438	-1.7708	-1.1583	-1.8958	-1.5875	-1.3292	-2.275	-1.3854	-1.5667	-2.0896	-1.0729	-1.9542	-1.6	-0.87917	-2.0604	-36.809	131.317	-61.218	106.304	-101.919	165.603	63.913	129.405	45.230	-63.654	57.486	-135.459	141.239	51.709	-65.543	60.672	0.00039477	0.00026308	5.6915e-05	1013.7	3.7277e-06	1.2873e-06	1102.3	207.18	4.2526e-06	3.453e-06	263.8	74.626	59.46	17.009	1.2877e-06	23.522	7.2429e-05	4.9215e-05	1.3472e-05	996.98	5.882e-07	5.1878e-07	1082.2	205.36	6.0391e-07	5.2442e-07	260.14	74.196	57.563	17.028	5.5511e-07	23.723	-28.521	-93.082	-47.441	-154.208	-7.487	-20.739	-154.271	-146.954	-31.129	-5.899	-147.338	-140.371	-140.222	-133.212	-1.791	-133.462	-8191	255	
1109.289	1	1	0	0	0.16526	0.30634	0.17143	0.029373	0.082021	0.28285	0.39641	0.26044	0.11045	0.15162	0.085476	0.12145	0.14297	0.15993	0.32366	0.19122	-0.88958	-1.3896	-1.8896	-1.1458	-1.75	-1.8438	-1.275	-2.1854	-1.4417	-1.3333	-2.0396	-1.1688	-1.6917	-1.6208	-1	-1.9625	0.689	-80.018	167.476	86.621	-98.653	20.608	155.513	121.461	-131.093	159.266	-23.900	21.274	-136.182	-159.889	-80.941	144.472	0.00039405	0.00028397	0.00010185	1010	2.9605e-06	1.7457e-06	1094.6	207.48	4.4016e-06	1.6597e-06	264.63	74.307	59.664	16.813	1.5511e-06	23.678	7.2721e-05	4.9354e-05	1.3204e-05	994.71	5.9358e-07	5.1717e-07	1079.3	205.08	6.0973e-07	5.3272e-07	260.39	74.154	57.405	16.952	5.8918e-07	23.757	-31.421	-95.285	-76.448	-154.616	-31.952	-22.922	-154.308	-146.662	-40.616	-19.775	-147.314	-140.738	-139.938	-133.089	-51.271	-133.652	-8191	255	
1109.385	1	1	0	0	0.17609	0.20274	0.3166	0.18586	0.074814	0.10892	0.39524	0.29844	0.11399	0.094618	0.12891	0.34528	0.15303	0.1473	0.09508	0.11271	-1.1583	-1.1521	-1.8937	-1.2729	-1.6896	-2.0771	-1.1792	-2.0604	-1.5208	-1.175	-2.1479	-1.3208	-1.5833	-2.0563	-1.0229	-1.975	-15.956	160.833	-129.023	-143.455	190.575	-159.778	139.513	191.357	-148.137	-107.990	175.281	168.042	-157.589	-114.599	-0.146	174.406	0.00039287	0.00034709	3.4588e-05	1012.9	2.7695e-06	1.7627e-06	1097.9	206.55	4.7808e-06	3.2614e-06	264.31	74.887	59.651	16.914	3.8406e-06	23.61	7.4998e-05	5.3577e-05	1.3615e-05	995.29	5.8432e-07	5.3222e-07	1078.9	204.92	5.9682e-07	5.7016e-07	260.55	74.333	57.623	17.013	6.1152e-07	23.749	-30.488	-60.564	-124.694	-154.501	-40.926	-37.300	-154.458	-146.809	-44.163	-30.476	-147.236	-140.860	-140.134	-132.720	-21.529	-133.237	-8191	255	
1109.506	1	1	0	0	0.30751	0.30105	0.22641	0.27731	0.14588	0.073377	0.33823	0.29916	0.14885	0.19399	0.23048	0.032764	0.13901	0.24967	0.039271	0.4085	-1.2625	-1.1208	-1.9042	-1.2167	-1.3833	-2.075	-1.2292	-1.7979	-1.6708	-1.0146	-2.0583	-1.4792	-1.4542	-2.0208	-0.90833	-1.7979	-8.187	-114.927	-130.181	156.327	-158.615	130.879	166.445	141.288	127.124	-145.260	-161.334	121.679	-100.789	167.800	-27.201	116.804	0.00038753	0.00011326	8.485e-05	1016.6	3.0406e-06	1.7611e-06	1095.6	207.29	2.7931e-06	2.7716e-06	263.51	74.675	59.813	16.934	3.2711e-06	23.877	7.5892e-05	5.177e-05	1.3901e-05	996.91	6.3879e-07	5.2649e-07	1080.6	205.6	5.9555e-07	5.6284e-07	260.09	74.047	57.649	17.009	6.0204e-07	23.848	-33.308	-49.922	-86.813	-154.459	-11.533	-33.097	-154.364	-147.246	-45.200	10.842	-147.313	-140.784	-139.978	-132.593	-16.295	-133.482	-8191	255	
1109.602	1	1	0	0	0.13901	0.19909	0.081393	0.29695	0.25593	0.22146	0.15253	0.28153	0.10728	0.16333	0.091834	0.14839	0.2669	0.081268	0.21892	0.041867	-1.3729	-1.1292	-1.9	-1.5812	-1.4042	-1.9271	-1.2979	-1.7396	-1.9667	-1.0958	-2.1021	-1.3042	-1.2479	-1.9479	-1.0583	-1.5271	-76.624	78.840	25.374	117.576	-135.138	86.577	-137.276	-149.786	-150.390	176.453	43.125	150.990	186.229	-13.409	-143.568	-92.587	0.00039311	0.00038222	7.589e-05	1012.4	2.8514e-06	1.6293e-06	1102.8	207.65	3.0088e-06	3.1994e-06	266.07	74.687	60.044	16.989	3.4087e-06	23.784	7.2651e-05	5.0891e-05	1.2614e-05	995.22	6.1764e-07	5.297e-07	1080.9	205.39	5.783e-07	5.3859e-07	261.09	74.074	57.453	16.98	5.5503e-07	23.766	-30.302	-83.202	-118.472	-154.447	-24.560	-1.209	-154.401	-146.508	-34.242	17.178	-147.126	-140.560	-140.170	-132.796	-36.752	-133.231	-8191	255	
1109.673	1	1	0	0	0.16037	0.40846	0.12509	0.38683	0.23346	0.070384	0.35002	0.13453	0.3898	0.13748	0.22626	0.080351	0.094248	0.081444	0.11769	0.25201	-1.5729	-1.0646	-1.8521	-1.6125	-1.1042	-2.0917	-1.5042	-1.5792	-2.0271	-1.0604	-2.0896	-1.7812	-1.1771	-2.1667	-1.2938	-1.4771	123.112	72.566	150.704	154.564	-53.888	49.194	140.905	122.434	-10.109	-67.842	41.395	45.844	93.917	-72.754	139.104	142.326	0.00039499	0.00027158	5.9683e-05	1012.8	4.0158e-06	6.6225e-07	1100.4	207.1	4.708e-06	2.0418e-06	264.59	74.881	59.613	17.138	1.9493e-06	23.593	7.2055e-05	4.592e-05	1.3561e-05	995.75	6.1323e-07	4.9853e-07	1079.3	205.13	5.6904e-07	5.065e-07	260.68	74.108	57.578	17.116	5.5391e-07	23.774	-27.461	-73.803	-64.130	-154.429	-12.904	-64.269	-154.406	-146.560	-29.533	-17.224	-147.228	-140.599	-139.760	-132.825	0.586	-133.396	-8191	255	
1109.794	1	1	0	0	0.24402	0.18507	0.25575	0.25472	0.15823	0.088922	0.32337	0.27717	0.067179	0.13687	0.20502	0.30142	0.31159	0.37183	0.14156	0.29738	-1.5604	-1.1146	-1.8312	-1.7917	-1.0958	-1.9813	-1.4208	-1.2917	-1.9083	-1.0854	-1.7229	-1.6292	-1.0812	-2.1167	-1.1562	-1.3937	147.163	7.637	-75.639	182.999	121.090	121.172	179.281	-157.633	8.014	70.409	22.594	-109.786	85.175	101.306	131.712	192.241	0.00036668	0.00015017	6.8914e-05	1014.6	1.9693e-06	1.3383e-06	1097.3	208.46	4.5877e-06	4.8624e-06	264.28	74.443	59.306	17.029	2.255e-06	23.686	7.0133e-05	4.7049e-05	1.2971e-05	995.13	6.3057e-07	4.9616e-07	1080	205.62	5.7375e-07	5.5155e-07	260.6	74.27	57.636	17.048	5.2435e-07	23.79	-31.395	-83.010	-69.189	-154.435	7.496	-30.858	-154.206	-147.007	-44.336	-1.815	-147.666	-141.047	-140.270	-133.172	-9.291	-133.328	-8191	255	
#DATA ENDS
