BOXY.EXE: ISS Imagent and Oximeter Data Acquisition Program Version 0.80
Ascii Record File

#ACQ INFORMATION
2  Detector Channels 
16  External MUX Channels 
1  Auxiliary Channels 
5000  Waveform (CCF) Frequency (Hz)
1  Waveforms Skipped 
30  Waveforms Averaged 
1  Cycles Averaged 
16  Acquisitions per Waveform 
10.0806  Updata Rate (Hz) 

#FILE INFORMATION
TRUE -- External MUX Channel results are PARSED.
FALSE -- AC DC and Phase are NOT grouped.
TRUE -- Companion Program Settings File CREATED.
FALSE -- AC data not excluded
FALSE -- DC data not excluded
FALSE -- Phase data not excluded
FALSE -- Auxillary Chn. data not excluded
Tab delimiters

#CALIBRATION STATE
TRUE -- Waveform Calibration Values APPLIED.


#AUX CALIBRATION VALUES
Val Type	aux-1	

Term	1.0000e+00	
Factor	0.0000e+00	


#WF CALIBRATION VALUES
A = Detector Channel
Val Type	A-AC1	A-AC2	A-AC3	A-AC4	A-AC5	A-AC6	A-AC7	A-AC8	A-AC9	A-AC10	A-AC11	A-AC12	A-AC13	A-AC14	A-AC15	A-AC16	A-DC1	A-DC2	A-DC3	A-DC4	A-DC5	A-DC6	A-DC7	A-DC8	A-DC9	A-DC10	A-DC11	A-DC12	A-DC13	A-DC14	A-DC15	A-DC16	A-Ph1	A-Ph2	A-Ph3	A-Ph4	A-Ph5	A-Ph6	A-Ph7	A-Ph8	A-Ph9	A-Ph10	A-Ph11	A-Ph12	A-Ph13	A-Ph14	A-Ph15	A-Ph16	

Term	0.00000e+00	0.00000e+00	0.00000e+00	0.00000e+00	0.00000e+00	0.00000e+00	0.00000e+00	0.00000e+00	0.00000e+00	0.00000e+00	0.00000e+00	0.00000e+00	0.00000e+00	0.00000e+00	0.00000e+00	0.00000e+00	0.00000e+00	0.00000e+00	0.00000e+00	0.00000e+00	0.00000e+00	0.00000e+00	0.00000e+00	0.00000e+00	0.00000e+00	0.00000e+00	0.00000e+00	0.00000e+00	0.00000e+00	0.00000e+00	0.00000e+00	0.00000e+00	0.00000e+00	0.00000e+00	0.00000e+00	0.00000e+00	0.00000e+00	0.00000e+00	0.00000e+00	0.00000e+00	0.00000e+00	0.00000e+00	0.00000e+00	0.00000e+00	0.00000e+00	0.00000e+00	0.00000e+00	0.00000e+00	
Factor	1.00000e+00	1.00000e+00	1.00000e+00	1.00000e+00	1.00000e+00	1.00000e+00	1.00000e+00	1.00000e+00	1.00000e+00	1.00000e+00	1.00000e+00	1.00000e+00	1.00000e+00	1.00000e+00	1.00000e+00	1.00000e+00	1.00000e+00	1.00000e+00	1.00000e+00	1.00000e+00	1.00000e+00	1.00000e+00	1.00000e+00	1.00000e+00	1.00000e+00	1.00000e+00	1.00000e+00	1.00000e+00	1.00000e+00	1.00000e+00	1.00000e+00	1.00000e+00	X	X	X	X	X	X	X	X	X	X	X	X	X	X	X	X	

B = Detector Channel
Val Type	B-AC1	B-AC2	B-AC3	B-AC4	B-AC5	B-AC6	B-AC7	B-AC8	B-AC9	B-AC10	B-AC11	B-AC12	B-AC13	B-AC14	B-AC15	B-AC16	B-DC1	B-DC2	B-DC3	B-DC4	B-DC5	B-DC6	B-DC7	B-DC8	B-DC9	B-DC10	B-DC11	B-DC12	B-DC13	B-DC14	B-DC15	B-DC16	B-Ph1	B-Ph2	B-Ph3	B-Ph4	B-Ph5	B-Ph6	B-Ph7	B-Ph8	B-Ph9	B-Ph10	B-Ph11	B-Ph12	B-Ph13	B-Ph14	B-Ph15	B-Ph16	

Term	0.00000e+00	0.00000e+00	0.00000e+00	0.00000e+00	0.00000e+00	0.00000e+00	0.00000e+00	0.00000e+00	0.00000e+00	0.00000e+00	0.00000e+00	0.00000e+00	0.00000e+00	0.00000e+00	0.00000e+00	0.00000e+00	0.00000e+00	0.00000e+00	0.00000e+00	0.00000e+00	0.00000e+00	0.00000e+00	0.00000e+00	0.00000e+00	0.00000e+00	0.00000e+00	0.00000e+00	0.00000e+00	0.00000e+00	0.00000e+00	0.00000e+00	0.00000e+00	-2.36295e+02	-1.26358e+02	-1.26122e+02	-1.84352e+02	-7.43156e+01	-6.85797e+01	-1.62008e+02	-1.62015e+02	-7.18578e+01	-6.29640e+01	-1.80050e+02	-1.70314e+02	-1.79883e+02	-1.76694e+02	-7.79053e+01	-1.49338e+02	
Factor	5.48273e-05	1.42809e-04	4.33729e-05	1.64603e-01	1.74334e-06	1.73504e-06	1.78629e-01	4.25379e-02	2.29001e-06	1.56306e-06	6.49495e-01	2.52864e-02	2.46878e-02	8.09108e-03	1.65514e-06	1.13705e-02	7.25772e-06	8.82615e-06	2.46127e-06	8.91634e-02	9.29681e-08	9.73902e-08	9.04586e-02	2.32296e-02	9.25378e-08	9.72273e-08	3.24706e-01	1.33849e-02	1.36041e-02	4.45422e-03	9.46605e-08	6.04742e-03	X	X	X	X	X	X	X	X	X	X	X	X	X	X	X	X	



#DISTANCE SETTINGS
A = Detector Channel
A-1	A-2	A-3	A-4	A-5	A-6	A-7	A-8	A-9	A-10	A-11	A-12	A-13	A-14	A-15	A-16	

2.5000e+00	3.0000e+00	2.5000e+00	3.0000e+00	2.0000e+00	3.0000e+00	1.5000e+00	3.0000e+00	3.0000e+00	3.0000e+00	3.0000e+00	3.0000e+00	3.0000e+00	3.0000e+00	1.5000e+00	3.0000e+00	

B = Detector Channel
B-1	B-2	B-3	B-4	B-5	B-6	B-7	B-8	B-9	B-10	B-11	B-12	B-13	B-14	B-15	B-16	

1.0000e+01	1.0000e+01	1.0000e+01	1.4400e+00	1.0000e+01	1.0000e+01	1.5100e+00	1.9400e+00	1.0000e+01	1.0000e+01	1.9900e+00	2.4900e+00	2.4100e+00	2.9000e+00	1.0000e+01	2.9800e+00	




#DATA BEGINS
time	group	step	mark	flag	A-AC1	A-AC2	A-AC3	A-AC4	A-AC5	A-AC6	A-AC7	A-AC8	A-AC9	A-AC10	A-AC11	A-AC12	A-AC13	A-AC14	A-AC15	A-AC16	A-DC1	A-DC2	A-DC3	A-DC4	A-DC5	A-DC6	A-DC7	A-DC8	A-DC9	A-DC10	A-DC11	A-DC12	A-DC13	A-DC14	A-DC15	A-DC16	A-Ph1	A-Ph2	A-Ph3	A-Ph4	A-Ph5	A-Ph6	A-Ph7	A-Ph8	A-Ph9	A-Ph10	A-Ph11	A-Ph12	A-Ph13	A-Ph14	A-Ph15	A-Ph16	B-AC1	B-AC2	B-AC3	B-AC4	B-AC5	B-AC6	B-AC7	B-AC8	B-AC9	B-AC10	B-AC11	B-AC12	B-AC13	B-AC14	B-AC15	B-AC16	B-DC1	B-DC2	B-DC3	B-DC4	B-DC5	B-DC6	B-DC7	B-DC8	B-DC9	B-DC10	B-DC11	B-DC12	B-DC13	B-DC14	B-DC15	B-DC16	B-Ph1	B-Ph2	B-Ph3	B-Ph4	B-Ph5	B-Ph6	B-Ph7	B-Ph8	B-Ph9	B-Ph10	B-Ph11	B-Ph12	B-Ph13	B-Ph14	B-Ph15	B-Ph16	aux-1	digaux	

1129.386	1	1	0	256	0.038455	0.24091	0.062845	0.1822	0.15405	0.22344	0.054639	0.36384	0.19312	0.12846	0.13053	0.11987	0.18424	0.19501	0.16981	0.056404	-2.9083	-3.8854	-3.5479	-3.2521	-3.9313	-3.3354	-3.7854	-4.0708	-3.2438	-3.9229	-3.6417	-3.2875	-3.9625	-3.2229	-3.5542	-3.9604	187.551	-15.942	128.112	-45.234	114.148	118.835	-2.637	265.516	-8.660	108.640	69.426	-5.083	179.870	279.507	-48.769	212.326	0.0002564	0.00036876	6.6921e-05	1038.3	2.0901e-06	2.0852e-06	1122.2	215.16	2.7922e-06	3.2286e-06	271.1	77.901	60.909	18.162	2.2004e-06	25.37	0.0001004	5.3674e-05	1.447e-05	1020.9	7.1159e-07	5.1272e-07	1106.4	212.48	8.1568e-07	5.1672e-07	258.64	78.209	61.181	18.384	6.0918e-07	25.586	34.998	35.069	45.631	-49.936	111.187	91.701	-49.759	-42.487	102.545	73.259	-42.301	-36.127	-35.290	-28.191	102.131	-29.137	-8191	255	
1129.458	1	1	0	0	0.16206	0.080698	0.10029	0.37466	0.020003	0.28998	0.12442	0.22438	0.079929	0.13419	0.13074	0.15306	0.10443	0.15709	0.10918	0.088788	-2.8542	-3.9375	-3.7812	-3.4208	-4.0792	-3.5125	-3.5854	-3.9958	-3.2438	-3.725	-3.825	-3.2729	-3.7958	-3.4896	-3.4437	-4.0854	186.178	8.648	118.648	243.858	-55.433	-28.912	203.108	231.277	248.480	31.587	187.574	-48.325	10.689	-34.026	276.027	14.045	0.00022475	0.00032113	8.1689e-05	1036.5	2.0766e-06	3.8798e-06	1119.4	213.83	1.8881e-06	4.889e-06	266.05	78.189	61.871	18.248	3.0341e-06	25.383	9.7934e-05	5.52e-05	1.3557e-05	1018.1	6.8486e-07	5.9976e-07	1103.4	212.71	8.124e-07	5.6797e-07	259.7	78.255	61.383	18.389	6.8234e-07	25.61	32.372	35.338	56.047	-49.698	100.135	101.630	-49.491	-42.149	114.065	77.529	-42.407	-36.081	-35.216	-28.201	94.199	-28.772	-8191	255	
1129.578	1	1	0	0	0.19849	0.14726	0.12067	0.17138	0.11219	0.19144	0.27518	0.20089	0.30123	0.11134	0.043103	0.21083	0.18707	0.24912	0.19755	0.061925	-3.075	-3.6562	-3.9208	-3.1333	-3.9792	-3.6146	-3.3875	-4.3187	-3.3604	-3.6583	-3.9396	-3.2896	-4.2083	-3.6792	-3.4542	-4.1188	243.880	51.815	295.950	296.456	164.195	86.359	143.634	282.717	257.492	31.676	34.202	230.498	207.613	56.060	294.326	234.437	0.0001792	0.00028247	0.00010664	1037	3.4529e-06	2.7281e-06	1121.6	214.6	1.9545e-06	1.7619e-06	273.28	78.125	61.055	18.031	1.905e-06	25.255	9.6664e-05	5.5825e-05	1.4639e-05	1018.6	6.9126e-07	5.9185e-07	1104.5	212.41	8.6465e-07	5.4042e-07	259.31	78.112	61.164	18.313	6.3008e-07	25.536	35.925	31.343	24.620	-49.592	71.675	86.166	-49.454	-42.223	55.664	125.408	-42.305	-35.466	-35.343	-28.121	53.236	-29.087	-8191	255	
1129.674	1	1	0	0	0.062654	0.16869	0.16209	0.25161	0.18693	0.24233	0.24534	0.26511	0.027494	0.053262	0.044787	0.090091	0.033342	0.1608	0.13716	0.09463	-2.9313	-3.3937	-4.0792	-3.3083	-3.8438	-3.6646	-3.4437	-4.0813	-3.4917	-3.4958	-3.9229	-3.2333	-3.7917	-3.7417	-3.1604	-4.075	-41.466	-45.753	110.928	289.278	286.982	36.988	126.910	252.268	32.106	137.348	259.694	30.183	28.932	124.731	115.689	-36.885	0.00023698	0.00019425	8.2002e-05	1039.8	4.572e-06	4.0692e-06	1117.2	213.14	1.4268e-06	2.2352e-06	271.05	78.281	60.909	18.167	2.4458e-06	25.484	9.683e-05	5.2277e-05	1.4747e-05	1019.8	8.0127e-07	6.095e-07	1100.8	211.92	7.0811e-07	6.097e-07	259.22	77.99	61.179	18.311	6.8688e-07	25.608	37.196	48.256	39.673	-49.398	100.368	104.599	-49.732	-41.867	97.379	97.490	-42.064	-35.688	-35.212	-27.951	71.559	-28.264	-8191	255	
1129.771	1	1	0	0	0.043742	0.058836	0.099214	0.16571	0.25753	0.086713	0.28962	0.25805	0.19805	0.26341	0.080682	0.05134	0.19858	0.037987	0.14144	0.14083	-2.925	-3.2562	-4.0875	-3.3479	-3.8063	-3.7125	-3.2938	-4.1104	-3.5125	-3.3354	-3.8604	-3.3125	-3.6021	-3.9229	-3.1646	-3.9583	134.407	97.278	-8.829	297.034	221.072	296.542	206.151	-41.732	23.958	295.240	286.207	258.571	79.683	43.766	127.834	245.454	0.00023281	0.00023732	7.6389e-05	1035.4	1.6214e-06	1.9826e-06	1117.2	213.05	2.612e-06	1.9108e-06	272.76	77.756	61.155	18.157	1.6387e-06	25.155	9.5409e-05	5.3049e-05	1.3511e-05	1018.8	6.8099e-07	5.531e-07	1103.5	211.99	7.5033e-07	5.7486e-07	258.92	77.916	61.067	18.274	6.8727e-07	25.501	29.162	37.755	25.052	-49.687	99.235	117.011	-49.525	-42.100	139.217	74.424	-42.590	-35.699	-35.207	-27.962	93.175	-28.764	-8191	255	
1129.867	1	1	0	0	0.38545	0.23971	0.066986	0.20556	0.052475	0.065068	0.21691	0.15597	0.085122	0.23153	0.15617	0.082414	0.16261	0.17585	0.24519	0.24018	-3.0896	-3.2562	-3.9542	-3.3312	-3.5187	-4.0479	-3.3688	-4.0604	-3.6375	-3.2062	-4.0188	-3.6042	-3.3187	-3.9229	-3.0646	-3.9771	143.644	-37.515	192.471	-51.027	-23.951	-11.032	271.727	166.859	287.900	156.862	80.978	-49.832	-0.920	296.806	59.272	271.593	0.00023704	0.00022736	9.5556e-05	1032	2.605e-06	2.5178e-06	1120	213.26	3.3309e-06	2.7627e-06	271.85	78.169	60.829	18.183	2.9612e-06	25.297	8.986e-05	6.0478e-05	1.3173e-05	1017.6	7.4956e-07	5.3118e-07	1102.8	212.19	7.3972e-07	6.2327e-07	259.67	77.893	61.047	18.335	6.8294e-07	25.51	34.540	27.486	40.177	-49.680	112.938	83.751	-49.706	-42.161	53.160	81.904	-42.573	-36.161	-34.785	-28.236	88.632	-28.694	-8191	255	
1129.986	1	1	0	0	0.28122	0.17649	0.16238	0.10904	0.22651	0.1746	0.27564	0.078993	0.13942	0.073213	0.12621	0.23435	0.22076	0.11362	0.055077	0.33726	-3.3187	-3.1583	-4.0062	-3.4542	-3.5833	-3.9271	-3.3625	-3.9333	-3.9313	-3.3458	-4.1	-3.5792	-3.4437	-3.975	-3.1354	-3.7854	78.535	280.734	15.743	49.193	-21.338	231.095	239.015	300.168	-29.340	197.629	262.527	116.548	-34.338	261.448	-56.599	205.091	0.00023356	0.00029419	8.6328e-05	1036	2.2096e-06	2.7854e-06	1123.1	212.47	2.0538e-06	2.3237e-06	271.79	77.379	61.092	18.268	2.7968e-06	25.227	9.429e-05	5.3104e-05	1.4496e-05	1018.4	7.5265e-07	5.1272e-07	1100.8	211.68	7.0213e-07	5.7263e-07	259.59	77.675	60.925	18.343	6.6755e-07	25.503	38.905	23.869	34.926	-49.672	100.387	91.443	-49.669	-41.729	60.931	73.282	-42.183	-35.922	-35.253	-27.694	76.421	-28.456	-8191	255	
1130.057	1	1	0	0	0.041657	0.29555	0.26722	0.098942	0.050927	0.092908	0.28919	0.29879	0.11654	0.16115	0.29356	0.2193	0.10939	0.26397	0.26155	0.15795	-3.5354	-3.1896	-4.0292	-3.6312	-3.3625	-3.9062	-3.6229	-3.75	-3.7854	-3.0542	-3.9521	-3.6771	-3.2979	-4.1125	-3.2562	-3.7292	280.319	203.641	-31.158	-25.706	153.615	115.156	189.484	224.136	13.306	-22.272	289.548	251.849	287.444	259.676	267.005	282.557	0.00020942	0.00022848	9.648e-05	1036.3	2.4345e-06	2.7052e-06	1115.9	214.04	2.9017e-06	2.3473e-06	267.05	77.362	61.18	18.164	3.0215e-06	25.399	8.7592e-05	5.84e-05	1.3547e-05	1018.2	7.3387e-07	4.7336e-07	1101.2	211.97	6.7302e-07	6.2448e-07	257.7	77.88	61.139	18.279	6.1155e-07	25.523	37.530	34.311	43.723	-49.330	56.867	88.583	-49.417	-41.855	72.297	101.930	-41.767	-35.652	-34.781	-27.486	97.834	-28.294	-8191	255	
1130.155	1	1	0	0	0.29923	0.19955	0.16904	0.21805	0.29238	0.23135	0.056798	0.19527	0.12523	0.19546	0.02376	0.19824	0.048948	0.263	0.12329	0.039347	-3.4229	-3.3042	-3.8875	-3.7896	-3.2271	-3.9625	-3.4854	-3.6375	-4.0625	-3.2354	-4.0125	-3.8333	-3.3542	-4.0667	-3.45	-3.5208	232.588	106.520	299.574	271.373	279.258	88.781	196.065	246.518	-22.772	3.984	94.319	236.961	4.576	-52.177	62.874	-19.012	0.00024451	0.00021788	0.00010925	1030.7	2.5022e-06	2.5307e-06	1113.6	213.41	4.1189e-06	1.8847e-06	270.4	77.948	61.415	18.219	1.7386e-06	25.171	8.8212e-05	5.9816e-05	1.344e-05	1014.7	7.7047e-07	4.8573e-07	1098.6	211.95	7.2237e-07	6.5365e-07	258	77.879	61.052	18.351	6.0031e-07	25.512	42.260	21.631	45.117	-49.574	71.770	68.180	-49.567	-41.985	104.412	91.940	-41.896	-35.564	-34.990	-27.968	43.395	-28.296	-8191	255	
1130.274	1	1	0	0	0.1869	0.18575	0.14292	0.037641	0.033699	0.11165	0.14676	0.05145	0.18203	0.2225	0.20023	0.13051	0.11998	0.13548	0.20537	0.051228	-3.5167	-3.2979	-3.8896	-3.8729	-3.3771	-4.1167	-3.4062	-3.6813	-4.0938	-3.1896	-3.6854	-3.9833	-3.2229	-3.9146	-3.4646	-3.3208	298.700	106.832	40.031	225.436	107.859	-33.833	257.329	45.922	-8.143	13.248	64.669	234.871	138.679	-25.270	137.911	258.350	0.00023077	0.00016105	7.1533e-05	1032.4	2.6143e-06	2.1835e-06	1115.1	214.2	2.9881e-06	3.2365e-06	268.96	78.006	60.692	18.252	3.5227e-06	25.398	9.488e-05	5.8142e-05	1.3998e-05	1015.9	7.7183e-07	4.2649e-07	1097.8	212.46	7.2025e-07	5.6635e-07	257.54	77.802	60.953	18.34	6.0031e-07	25.559	29.948	63.845	26.196	-49.648	92.635	113.472	-49.571	-41.864	86.345	122.704	-41.599	-36.170	-35.121	-27.986	79.207	-28.456	-8191	255	
1130.370	1	1	0	0	0.21888	0.093773	0.11545	0.20956	0.088625	0.085688	0.25567	0.26962	0.10691	0.20589	0.34574	0.2165	0.24996	0.23718	0.32645	0.095399	-3.5417	-3.2125	-3.7208	-4	-3.1875	-3.8854	-3.8042	-3.3688	-4.0625	-3.3937	-3.6417	-3.8521	-3.3333	-3.9625	-3.7646	-3.2812	55.426	267.446	-37.089	277.628	70.640	-17.566	254.667	175.469	145.318	75.563	251.453	236.629	191.155	-44.031	183.149	49.945	0.00022594	0.00027696	5.2329e-05	1038.4	4.4565e-06	3.2553e-06	1114.4	213.41	1.5069e-06	3.2963e-06	272.47	77.653	61.203	18.025	2.2056e-06	25.205	8.2269e-05	5.3619e-05	1.5286e-05	1016.9	7.7009e-07	4.5571e-07	1098.5	212.09	6.7167e-07	6.4717e-07	258.32	77.787	61.101	18.262	6.6795e-07	25.487	34.092	17.659	51.595	-49.494	102.080	78.856	-49.390	-41.832	125.054	86.334	-42.043	-35.599	-35.049	-28.035	78.933	-28.190	-8191	255	
1130.466	1	1	0	0	0.050721	0.0691	0.13673	0.27159	0.13896	0.29331	0.15241	0.092373	0.066521	0.071411	0.11727	0.12716	0.42971	0.12847	0.083244	0.21213	-3.6146	-3.425	-3.4562	-4.0687	-3.175	-3.6521	-3.9271	-3.3479	-3.975	-3.35	-3.3583	-4.1937	-3.45	-3.8146	-3.8792	-3.1813	-58.624	78.554	172.544	214.202	52.415	26.689	228.963	203.283	196.484	89.094	24.954	226.748	261.181	191.966	-51.553	251.421	0.00021073	0.00027074	9.2308e-05	1035.9	2.8169e-06	2.8505e-06	1116.8	213.61	2.6592e-06	2.4914e-06	274.76	77.595	60.901	18.032	1.6001e-06	25.354	8.7531e-05	5.7315e-05	1.4163e-05	1015.9	7.6834e-07	5.1921e-07	1097.3	211.84	6.1923e-07	5.2847e-07	258.57	77.623	60.802	18.276	5.3069e-07	25.545	16.940	47.530	26.567	-49.526	69.279	99.516	-49.635	-41.910	88.280	102.352	-42.197	-35.557	-35.068	-27.823	89.560	-28.512	-8191	255	
1130.587	1	1	0	0	0.083088	0.21404	0.081891	0.063492	0.16991	0.18463	0.1219	0.064679	0.10634	0.069991	0.063574	0.17472	0.13292	0.21473	0.22923	0.094398	-3.5979	-3.55	-3.4333	-4.2229	-3.1521	-3.6063	-4.1687	-3.2292	-3.95	-3.5708	-3.3604	-4.0687	-3.3771	-3.7417	-3.975	-3.2583	-7.571	19.890	222.006	-20.873	14.267	33.241	-57.585	115.879	94.894	81.650	205.682	284.559	172.005	212.460	49.780	123.463	0.00022487	0.00022976	9.4718e-05	1035.8	2.1956e-06	3.4827e-06	1113.6	212.48	1.7495e-06	2.4042e-06	270.27	77.425	61.008	18.245	1.5088e-06	25.263	8.4704e-05	5.0861e-05	1.5065e-05	1014.2	7.3735e-07	5.2692e-07	1099	211.24	6.6724e-07	4.9849e-07	259.7	77.694	60.98	18.313	5.5416e-07	25.46	44.008	37.488	46.977	-49.435	92.874	77.126	-49.388	-41.957	74.227	119.189	-41.830	-35.305	-34.963	-27.770	85.122	-28.198	-8191	255	
1130.659	1	1	0	0	0.10393	0.26312	0.13718	0.19239	0.046122	0.13778	0.17054	0.2058	0.13719	0.2066	0.089773	0.15751	0.091838	0.27404	0.12352	0.12051	-3.6521	-3.8125	-3.2146	-4.1188	-3.4229	-3.4667	-4.0854	-3.2417	-3.7333	-3.8708	-3.2917	-3.9292	-3.5312	-3.5438	-3.9938	-3.1437	58.799	219.294	-27.605	-44.785	-10.432	-15.102	295.356	208.973	293.981	253.410	63.734	234.156	143.709	241.277	282.623	211.759	0.0002588	0.00032338	8.0981e-05	1031.1	2.0589e-06	2.766e-06	1113.9	212.68	5.2786e-06	2.6693e-06	266.08	78.035	61.175	18.156	9.6473e-07	25.371	8.6669e-05	5.3417e-05	1.5973e-05	1013.5	7.1353e-07	5.4254e-07	1095.7	211.49	7.27e-07	5.0518e-07	257.15	77.91	60.97	18.324	5.3996e-07	25.463	32.305	54.406	11.907	-49.471	97.813	96.022	-49.479	-41.675	105.748	85.082	-42.377	-35.288	-34.468	-27.254	-27.064	-28.319	-8191	255	
1130.755	1	1	0	0	0.086225	0.13089	0.12991	0.27691	0.11591	0.017954	0.10619	0.053446	0.19273	0.24275	0.15979	0.15327	0.27848	0.18557	0.22735	0.17705	-3.5125	-3.8042	-3.2792	-4.1312	-3.6104	-3.5	-4.2521	-3.3021	-3.8771	-3.8937	-3.2646	-4.1917	-3.55	-3.4396	-4.2146	-3.3354	206.200	131.674	258.628	-55.024	80.728	83.862	36.670	263.267	240.470	226.145	184.701	242.980	247.917	147.716	-4.454	180.426	0.00023662	0.0002836	9.06e-05	1035.1	1.7583e-06	4.4999e-06	1113.2	213.44	2.0484e-06	2.8518e-06	265.06	77.804	60.818	18.285	2.2012e-06	25.194	9.237e-05	4.8617e-05	1.4737e-05	1014.8	7.1004e-07	5.9652e-07	1097.8	211.18	7.1659e-07	4.7277e-07	258.19	77.66	60.877	18.367	5.3108e-07	25.387	29.924	21.134	37.207	-49.100	78.371	73.276	-49.347	-41.760	57.172	94.347	-41.287	-35.781	-34.801	-27.767	80.652	-28.577	-8191	255	
1130.875	1	1	0	0	0.099278	0.093095	0.1071	0.19999	0.032167	0.11652	0.13881	0.057521	0.075724	0.22448	0.19233	0.17312	0.35645	0.22465	0.077356	0.16091	-3.1375	-3.9604	-3.2062	-4.1771	-3.6708	-3.2896	-4.0396	-3.425	-3.4813	-3.9313	-3.1479	-4.1	-3.7354	-3.2042	-3.8958	-3.3542	47.934	181.030	197.496	270.762	101.525	187.864	222.542	182.492	263.808	276.550	-32.421	31.638	279.105	21.715	267.118	253.181	0.00021045	0.00024791	4.9936e-05	1028.2	1.7668e-06	2.1112e-06	1107.2	212.59	1.5903e-06	3.5671e-06	268.91	77.772	60.951	18.243	2.6795e-06	25.288	9.3927e-05	4.4646e-05	1.5286e-05	1012.6	6.7673e-07	5.4356e-07	1094.5	211.46	6.8536e-07	5.3495e-07	257.98	77.925	60.928	18.336	5.3148e-07	25.51	19.970	17.467	14.333	-49.173	89.770	89.571	-49.075	-41.936	137.291	113.134	-42.664	-35.249	-35.442	-27.902	62.380	-28.752	-8191	255	
1130.970	1	1	0	0	0.015588	0.18414	0.21067	0.042319	0.12845	0.13462	0.19766	0.28658	0.15644	0.23768	0.29264	0.20259	0.12189	0.11015	0.16585	0.035287	-3.1312	-3.8979	-3.0979	-3.9479	-3.6688	-3.1667	-4.2562	-3.5625	-3.4688	-4.0771	-3.2646	-3.9708	-3.9625	-3.2542	-3.9167	-3.6083	268.237	203.875	58.327	81.271	83.600	103.002	-50.779	288.867	30.661	34.063	75.127	154.713	297.569	286.718	16.050	237.910	0.00024416	0.00034341	9.0171e-05	1026.9	2.7795e-06	2.6397e-06	1114.1	212.82	1.6968e-07	2.7563e-06	267.3	78.168	60.393	18.262	2.9189e-06	25.23	9.8312e-05	4.6815e-05	1.6044e-05	1012.3	6.8099e-07	5.255e-07	1095.9	211.2	6.4854e-07	5.0882e-07	256.76	77.892	60.638	18.335	5.5495e-07	25.506	29.911	48.410	19.585	-49.078	67.685	101.403	-49.294	-41.826	123.565	91.111	-41.700	-35.564	-35.346	-27.657	78.256	-28.243	-8191	255	
1131.066	1	1	0	0	0.079825	0.050976	0.23802	0.1434	0.080777	0.094885	0.20433	0.096956	0.18315	0.17929	0.18139	0.13899	0.088139	0.12026	0.12376	0.15747	-3.1375	-4.0375	-3.275	-3.7208	-3.8771	-3.3583	-4.1667	-3.675	-3.3771	-3.9292	-3.2521	-3.8417	-3.9708	-3.2896	-4.1479	-3.6396	150.022	-33.152	71.046	-45.845	190.997	51.849	295.697	188.432	258.577	93.716	168.588	-48.942	289.134	-50.929	-41.118	246.025	0.00024155	0.0002836	8.9541e-05	1035.9	3.8338e-06	3.09e-06	1108.5	212.71	1.7215e-06	2.5578e-06	267.4	77.731	61.14	18.143	2.2997e-06	25.03	9.5757e-05	5.36e-05	1.508e-05	1015.4	6.8428e-07	6.2269e-07	1094.6	211.37	7.2873e-07	5.0194e-07	257.24	77.716	60.88	18.281	5.1255e-07	25.389	40.571	36.892	45.683	-49.160	85.169	117.695	-49.168	-41.819	125.161	99.334	-41.368	-35.160	-34.736	-27.512	96.848	-28.250	-8191	255	
1131.162	1	1	0	0	0.1238	0.032906	0.17336	0.058662	0.12239	0.074314	0.20802	0.16935	0.036982	0.072644	0.40238	0.10952	0.011729	0.20883	0.068527	0.15872	-2.9354	-4.0979	-3.3271	-3.7271	-3.9646	-3.2	-4.0896	-3.7521	-3.2458	-4.3146	-3.4021	-3.5958	-4.1146	-3.3229	-3.8833	-3.7687	233.881	56.022	292.406	251.672	105.562	52.941	-58.986	144.700	87.759	79.129	218.987	211.228	42.703	170.205	115.501	-41.301	0.00023715	0.00026193	6.9652e-05	1033.3	2.7057e-06	2.888e-06	1110.4	212.91	3.1218e-06	2.9387e-06	270.33	77.644	60.726	18.126	2.1495e-06	25.515	9.5575e-05	4.5363e-05	1.3614e-05	1014.9	7.0017e-07	5.8738e-07	1096.9	211.37	7.2681e-07	4.8249e-07	259.79	77.826	60.955	18.28	6.362e-07	25.527	45.157	30.010	49.559	-49.319	104.492	98.532	-48.999	-41.840	85.353	94.576	-42.064	-35.388	-34.843	-27.755	75.171	-28.084	-8191	255	
1131.283	1	1	0	0	0.077689	0.12277	0.083155	0.22887	0.076974	0.21833	0.095735	0.090797	0.21469	0.18582	0.19176	0.090427	0.14779	0.097824	0.14865	0.033326	-2.9583	-3.9958	-3.5792	-3.6771	-3.9146	-3.2646	-4.0167	-4.025	-3.1333	-4.0354	-3.5229	-3.5583	-4.0979	-3.3792	-3.6646	-3.8854	103.535	-34.341	241.569	27.660	103.042	-27.186	-59.290	279.679	193.680	104.333	245.781	-38.896	124.920	39.820	155.677	-31.450	0.00022231	0.00027258	7.1554e-05	1034.5	2.0453e-06	2.8873e-06	1110.1	213.29	2.7449e-06	2.8843e-06	271.15	77.767	61.076	18.257	2.3431e-06	25.142	9.3609e-05	4.8654e-05	1.365e-05	1013.7	6.4535e-07	5.8779e-07	1095.7	211.59	7.2237e-07	5.384e-07	257.67	77.759	60.896	18.341	6.1312e-07	25.506	34.011	15.191	20.702	-49.029	99.538	107.707	-48.801	-41.458	122.273	71.986	-41.481	-35.126	-34.762	-27.629	111.118	-28.664	-8191	255	
1131.354	1	1	0	0	0.15051	0.11121	0.15818	0.24929	0.18955	0.22344	0.31998	0.20647	0.21293	0.10347	0.1225	0.20292	0.14575	0.24244	0.17028	0.21164	-2.9021	-3.8458	-3.6188	-3.5792	-3.925	-3.3333	-3.8125	-4.1208	-3.2625	-4.1729	-3.6958	-3.4333	-4.1813	-3.4875	-3.6354	-4.0396	93.494	81.322	40.906	266.722	133.292	110.790	242.054	205.153	223.045	253.749	5.421	-41.356	153.165	198.246	137.812	231.797	0.00020716	0.00017469	8.1667e-05	1031.2	1.77e-06	2.5063e-06	1111.5	213.13	1.2484e-06	1.8332e-06	273.24	77.799	61.189	18.116	1.2807e-06	25.26	9.7752e-05	4.8948e-05	1.6578e-05	1013.7	6.8293e-07	5.7704e-07	1095.6	211.47	7.0174e-07	4.9971e-07	258.98	77.746	60.921	18.297	5.8611e-07	25.424	25.449	42.551	18.860	-49.086	112.772	79.192	-48.894	-41.737	102.167	83.523	-42.024	-35.513	-34.670	-27.526	123.121	-28.478	-8191	255	
1131.451	1	1	0	0	0.24514	0.044751	0.038457	0.31489	0.037329	0.11323	0.29085	0.28456	0.15783	0.16861	0.34407	0.24418	0.15067	0.23038	0.14487	0.23052	-2.8729	-3.9583	-3.8354	-3.1146	-4.1542	-3.4625	-3.6312	-3.975	-3.2708	-4.0292	-3.7083	-3.4542	-4.0875	-3.5375	-3.4188	-4.0667	42.932	136.534	150.463	281.729	264.985	115.156	175.429	107.695	47.937	167.666	30.972	262.699	-15.882	-9.406	136.983	209.796	0.00024573	0.00022474	7.0854e-05	1032.8	1.8696e-06	1.7052e-06	1104.6	212.26	2.1269e-06	1.6591e-06	266.22	77.655	60.788	18.099	2.5504e-06	25.221	9.426e-05	4.6944e-05	1.5578e-05	1012.1	6.9203e-07	5.4762e-07	1094.9	211.42	7.1543e-07	4.8573e-07	255.1	77.617	60.856	18.257	6.3541e-07	25.424	43.233	22.806	46.346	-49.663	96.452	109.055	-49.445	-41.959	130.395	83.080	-43.358	-35.312	-34.780	-27.975	73.538	-28.213	-8191	255	
1131.547	1	1	0	0	0.11206	0.3731	0.043953	0.20628	0.2036	0.13337	0.16972	0.29867	0.072338	0.17692	0.041238	0.070143	0.36853	0.13862	0.17208	0.096566	-2.8563	-3.8708	-3.7938	-3.4021	-3.9146	-3.6813	-3.5833	-4.1042	-3.2125	-3.8229	-3.8792	-3.3812	-4.0854	-3.6854	-3.45	-4.0687	235.675	-16.988	26.847	262.556	229.167	193.891	286.860	-42.766	300.025	289.334	-27.958	-50.714	198.352	75.583	209.663	252.736	0.0002333	0.00026885	7.493e-05	1030	2.0909e-06	4.9197e-06	1116	213.51	2.3548e-06	3.7653e-06	269.88	77.726	60.741	18.121	2.9361e-06	25.376	9.6482e-05	5.303e-05	1.3942e-05	1010.5	6.1475e-07	5.7643e-07	1097.6	211.94	7.4956e-07	5.6574e-07	258.63	77.876	60.799	18.265	6.7603e-07	25.556	29.926	29.045	27.358	-49.620	109.140	105.382	-49.063	-41.880	131.744	123.084	-42.359	-35.127	-34.572	-28.009	107.120	-28.230	-8191	255	
1131.667	1	1	0	0	0.15593	0.12691	0.14316	0.29524	0.18223	0.1648	0.080073	0.31208	0.1815	0.032637	0.10836	0.25765	0.27708	0.14357	0.27751	0.062063	-2.9208	-3.5354	-3.7958	-3.3792	-3.9313	-3.7021	-3.3187	-4.1708	-3.3479	-3.6937	-3.8521	-3.2458	-3.9542	-3.7667	-3.2687	-4.0583	129.175	236.755	94.736	269.005	36.867	260.851	201.593	240.788	262.981	41.554	-45.509	272.296	292.072	235.105	215.664	126.385	0.00019954	0.00028982	9.3092e-05	1031.4	2.5593e-06	2.8348e-06	1106.7	213.13	2.0129e-06	2.1321e-06	271.42	77.862	61.127	18.197	3.3885e-06	25.157	9.7253e-05	4.6631e-05	1.5101e-05	1013	7.2457e-07	5.1739e-07	1094.4	211.48	7.4551e-07	5.386e-07	258.6	77.877	61.122	18.246	7.2632e-07	25.506	41.696	39.826	28.899	-49.485	101.100	101.671	-49.083	-41.415	124.438	93.704	-42.802	-35.271	-34.677	-27.551	87.075	-27.972	-8191	255	
1131.763	1	1	0	0	0.056481	0.14619	0.11227	0.1706	0.28284	0.083165	0.21076	0.26643	0.2499	0.15419	0.36354	0.05527	0.20988	0.090612	0.21234	0.21738	-3.0208	-3.4417	-4.0104	-3.3167	-3.8292	-3.8417	-3.2625	-4.1583	-3.5083	-3.5229	-4.0833	-3.3063	-3.7458	-3.8479	-3.2833	-4.2375	1.982	34.498	116.460	290.215	228.870	178.251	214.270	267.490	35.916	295.811	214.994	98.702	282.680	287.946	28.227	215.926	0.00018957	0.00031602	7.8523e-05	1031.6	1.4643e-06	3.4076e-06	1111.2	213.28	4.2764e-06	2.2052e-06	265.15	76.915	61.456	18.158	1.8045e-06	25.305	9.3897e-05	5.6818e-05	1.3122e-05	1013.5	6.8041e-07	4.9689e-07	1096.6	211.2	7.0367e-07	5.8681e-07	255.95	77.514	61.172	18.228	6.7485e-07	25.479	29.468	35.126	20.992	-49.223	95.925	92.385	-49.042	-41.521	106.632	90.050	-42.357	-35.344	-34.311	-27.418	102.091	-28.183	-8191	255	
1131.860	1	1	0	0	0.10065	0.08993	0.092071	0.30405	0.052477	0.13583	0.14339	0.19163	0.03421	0.25421	0.035667	0.12868	0.077463	0.058747	0.20693	0.11763	-3.1208	-3.4292	-4.0604	-3.4146	-3.5542	-3.9583	-3.5458	-3.9979	-3.55	-3.5	-4.1	-3.4896	-3.7667	-4.0792	-3.4104	-4.0292	15.746	48.129	166.238	237.340	114.233	294.165	223.940	193.958	-32.076	169.226	259.372	-50.241	281.159	-56.874	-4.804	224.228	0.00020471	0.0001782	0.00010144	1031.7	2.9185e-06	3.5801e-06	1108.7	213.72	2.0445e-06	2.1664e-06	269.09	78.157	61.02	18.156	1.945e-06	25.462	0.00010265	5.3361e-05	1.4419e-05	1011.6	7.1217e-07	5.4214e-07	1096.4	211.67	7.4319e-07	5.9592e-07	257.75	77.732	60.848	18.266	6.7229e-07	25.586	23.197	39.271	32.782	-49.344	86.045	103.356	-48.807	-41.433	70.481	78.693	-42.107	-35.489	-34.265	-27.754	72.174	-28.204	-8191	255	
1131.956	1	1	0	0	0.16215	0.22879	0.11999	0.34499	0.18181	0.15536	0.14579	0.16779	0.13724	0.18234	0.11437	0.17024	0.080036	0.1284	0.099875	0.12241	-3.4062	-3.425	-3.9833	-3.5438	-3.7146	-3.9813	-3.4625	-3.9917	-3.8021	-3.4708	-3.9792	-3.3917	-3.5771	-4.1333	-3.2083	-3.8667	100.074	138.255	141.268	227.359	217.035	-42.908	167.247	231.797	265.323	105.630	284.590	163.543	-51.578	273.943	2.910	210.638	0.00021933	0.00029842	0.00010831	1034.8	2.3409e-06	3.7794e-06	1111.9	213.28	2.2458e-06	2.4785e-06	269.59	77.404	60.88	18.216	3.5442e-06	25.21	0.00010053	5.6782e-05	1.3645e-05	1013.7	7.0443e-07	5.397e-07	1095.8	210.96	7.5669e-07	5.6149e-07	257.25	77.664	60.802	18.313	7.139e-07	25.518	21.917	43.934	19.903	-49.164	88.913	86.342	-49.146	-41.670	122.790	75.149	-42.654	-35.264	-34.742	-27.023	77.274	-27.517	-8191	255	
1132.050	1	1	0	0	0.05019	0.28343	0.13093	0.28337	0.10883	0.094147	0.33387	0.15276	0.034045	0.13331	0.20803	0.10068	0.18107	0.057002	0.37876	0.18198	-3.2333	-3.25	-4.0167	-3.5583	-3.5167	-4.0687	-3.3625	-3.8	-3.8292	-3.2938	-4.0167	-3.6292	-3.2938	-4.1604	-3.35	-3.7188	108.119	234.711	200.987	-25.866	256.421	162.986	296.768	230.689	219.127	73.318	20.660	244.506	124.849	32.790	243.238	175.337	0.0002063	0.00030436	0.00011889	1028.9	2.5385e-06	3.1122e-06	1107.1	211.16	8.4165e-07	3.06e-06	271.37	77.675	61.231	18.124	2.2164e-06	25.086	9.1931e-05	5.7278e-05	1.367e-05	1011.6	7.1702e-07	5.3078e-07	1093.2	210.74	6.8362e-07	5.6088e-07	257.97	77.723	60.922	18.269	6.08e-07	25.469	42.214	38.932	30.313	-49.176	118.189	98.088	-49.038	-41.643	121.384	102.877	-42.545	-35.246	-34.674	-27.434	81.814	-27.912	-8191	255	
1132.148	1	1	0	0	0.2645	0.11911	0.078246	0.2431	0.01713	0.2067	0.26341	0.083524	0.15675	0.098189	0.098696	0.19921	0.17972	0.10845	0.032096	0.27564	-3.3646	-3.0979	-3.8688	-3.7958	-3.3229	-4.0729	-3.5354	-3.8104	-3.9854	-3.3187	-3.8688	-3.7646	-3.3958	-4.1937	-3.3521	-3.7146	110.029	151.219	-17.773	-2.326	237.965	198.036	222.150	200.403	35.594	209.811	281.491	279.872	100.310	-22.683	-46.167	251.523	0.0002602	0.00031027	8.2868e-05	1036	3.6229e-06	2.8256e-06	1111	213.04	1.2502e-06	2.5535e-06	268.42	78.041	60.695	18.144	3.5958e-06	25.098	9.057e-05	5.7241e-05	1.4347e-05	1013	8.0049e-07	4.8573e-07	1095.2	211.48	6.8112e-07	5.309e-07	258.27	77.828	60.863	18.299	6.7248e-07	25.48	25.860	30.972	58.232	-49.104	96.490	90.838	-48.902	-41.294	63.876	107.993	-41.435	-35.143	-34.616	-27.230	78.229	-28.074	-8191	255	
1132.267	1	1	0	0	0.099462	0.30383	0.20626	0.1628	0.15444	0.065787	0.41764	0.23048	0.13181	0.18351	0.35031	0.10707	0.15485	0.18666	0.12471	0.12658	-3.6146	-3.1583	-3.825	-3.7687	-3.5062	-3.9771	-3.5958	-3.6042	-4.0083	-3.3104	-3.6771	-3.9104	-3.4479	-4.1562	-3.5792	-3.5875	85.090	-21.479	26.620	-18.482	76.689	243.390	256.341	-54.582	31.403	147.680	22.035	77.737	-23.548	165.698	242.032	-44.365	0.00018681	0.00032944	9.2815e-05	1030.7	1.9763e-06	2.8243e-06	1114.4	213.99	3.1676e-06	2.0398e-06	263.56	77.478	60.695	18.009	2.6894e-06	25.228	8.9421e-05	5.4575e-05	1.2655e-05	1012	7.4975e-07	5.4417e-07	1095.2	211.53	6.6859e-07	5.8033e-07	257.01	77.593	60.827	18.27	5.9774e-07	25.458	28.573	6.757	42.511	-48.744	115.093	115.115	-49.280	-41.280	109.347	90.105	-41.645	-35.170	-34.489	-27.030	77.059	-27.859	-8191	255	
1132.363	1	1	0	0	0.033357	0.14314	0.14364	0.18272	0.24145	0.050863	0.089455	0.26879	0.16682	0.25903	0.14102	0.25632	0.18932	0.069151	0.23304	0.11492	-3.6792	-3.3292	-3.8229	-3.9875	-3.1937	-4.0396	-3.8396	-3.3896	-4.0792	-3.2792	-3.6354	-3.9854	-3.2833	-3.775	-3.7062	-3.4042	233.868	278.917	75.348	259.587	238.498	64.281	218.601	253.140	162.102	177.344	69.272	254.987	185.449	147.213	-20.090	-50.217	0.0002451	0.0002973	8.4482e-05	1036.6	2.1769e-06	3.1618e-06	1118.6	213.11	2.6942e-06	2.955e-06	271.57	77.459	60.863	18.325	2.8313e-06	25.432	9.2732e-05	5.9319e-05	1.3773e-05	1013.3	7.4878e-07	4.6707e-07	1095.8	211.21	6.7688e-07	5.5359e-07	258.73	77.519	60.773	18.384	5.796e-07	25.481	30.758	4.051	9.180	-49.184	106.167	94.715	-48.886	-41.204	95.585	110.590	-41.350	-35.626	-34.539	-27.987	95.963	-28.113	-8191	255	
1132.459	1	1	0	0	0.027151	0.089621	0.15791	0.24435	0.21665	0.17088	0.10333	0.13499	0.069019	0.45187	0.39116	0.32155	0.20645	0.024611	0.065342	0.21537	-3.6	-3.3458	-3.7812	-3.9229	-3.2104	-3.8542	-3.7042	-3.4042	-4.1458	-3.4146	-3.6042	-4.0938	-3.2667	-3.875	-3.7188	-3.3375	68.425	234.796	154.231	217.968	233.825	100.478	247.773	293.470	-15.664	236.658	180.813	-54.021	195.516	32.597	126.569	260.102	0.00022852	0.00031963	8.6205e-05	1027.5	2.3912e-06	3.4662e-06	1109.3	213.36	2.8897e-06	2.2579e-06	266.17	77.311	61.055	18.105	2.1728e-06	25.263	9.2853e-05	5.8253e-05	1.5511e-05	1010	7.757e-07	4.835e-07	1093.8	211.61	7.3066e-07	5.6473e-07	257.34	77.606	60.841	18.266	6.4724e-07	25.5	34.860	38.036	34.608	-49.217	120.393	91.070	-49.146	-41.422	48.558	90.586	-41.841	-35.385	-34.888	-27.580	116.900	-28.314	-8191	255	
1132.555	1	1	0	0	0.13373	0.25299	0.40233	0.30634	0.30127	0.21499	0.2602	0.082546	0.099944	0.032778	0.12637	0.10789	0.084297	0.019485	0.16631	0.092499	-3.7812	-3.4146	-3.4792	-3.9896	-3.0875	-3.7938	-3.7687	-3.3396	-3.9938	-3.4	-3.3896	-4.0208	-3.375	-3.7542	-3.925	-3.2771	184.883	-46.173	240.791	278.341	262.792	205.754	221.766	110.174	-49.509	172.449	66.061	129.539	165.833	11.611	-35.931	15.730	0.00016496	0.00029321	7.9832e-05	1034	3.9799e-06	2.8521e-06	1108.3	212.06	1.3671e-06	2.4279e-06	267.85	77.269	61.112	17.97	1.0124e-06	24.977	9.0389e-05	5.4318e-05	1.6009e-05	1012.9	8.1115e-07	5.5168e-07	1094.1	211.1	6.5528e-07	5.1834e-07	257.62	77.527	61.01	18.282	5.867e-07	25.374	24.105	31.348	21.170	-49.711	101.092	83.759	-49.275	-41.632	120.291	50.573	-41.851	-35.808	-35.439	-27.914	140.120	-29.165	-8191	255	
1132.652	1	1	0	0	0.21411	0.071598	0.12222	0.23162	0.0088769	0.065703	0.27653	0.0042046	0.2064	0.17056	0.082564	0.055518	0.14534	0.098661	0.25579	0.14918	-3.6479	-3.6375	-3.3417	-4.2042	-3.0729	-3.7771	-4.0333	-3.3187	-3.9813	-3.8042	-3.3646	-4.1833	-3.4542	-3.6854	-3.975	-3.2292	-40.042	-21.669	208.823	255.100	61.857	267.785	244.574	68.769	214.058	6.650	-43.716	264.078	275.813	244.233	-58.557	128.075	0.00018605	0.00024285	7.3764e-05	1026.9	3.0513e-06	2.9383e-06	1107.1	212.07	3.4662e-06	3.1234e-06	271.66	77.492	60.923	18.136	4.0086e-06	25.328	8.9164e-05	5.6101e-05	1.7147e-05	1011.3	8.0747e-07	4.9324e-07	1094	210.97	7.4184e-07	4.9505e-07	257.83	77.71	60.899	18.26	5.9163e-07	25.486	39.273	33.388	37.114	-49.331	101.737	85.041	-49.473	-41.690	91.171	85.792	-41.029	-35.501	-34.985	-27.521	81.016	-28.589	-8191	255	
1132.748	1	1	0	0	0.087611	0.054883	0.15649	0.18238	0.16981	0.14675	0.25547	0.38828	0.22407	0.15139	0.18248	0.26023	0.11074	0.25144	0.19795	0.17012	-3.6021	-3.725	-3.2042	-4.3021	-3.3396	-3.5	-4.25	-3.175	-3.7604	-3.7708	-3.3479	-4.1542	-3.4458	-3.5646	-4.1312	-3.4208	-27.844	165.755	57.741	-15.828	257.186	149.778	230.854	267.224	239.878	180.223	28.829	-45.509	94.789	291.620	-47.988	214.598	0.00021262	0.00039952	8.1754e-05	1029.6	3.1829e-06	3.1197e-06	1109.9	212.69	2.0578e-06	2.8438e-06	268.15	77.966	60.951	18.043	2.3184e-06	25.403	9.2309e-05	5.1173e-05	1.5106e-05	1011	7.0094e-07	5.7541e-07	1094.6	210.89	6.8304e-07	5.0842e-07	256.56	77.686	60.927	18.233	5.4469e-07	25.458	36.645	43.759	21.240	-49.174	71.056	91.835	-49.050	-41.754	80.390	90.173	-42.264	-35.417	-34.869	-27.862	69.407	-28.267	-8191	255	
1132.844	1	1	0	0	0.13536	0.30548	0.12706	0.030278	0.13037	0.067238	0.19671	0.086061	0.22595	0.22731	0.098227	0.052534	0.15371	0.16188	0.046022	0.19468	-3.5583	-3.9021	-3.3312	-4.15	-3.6417	-3.4375	-4.3271	-3.3646	-3.8604	-3.7729	-3.4021	-3.9958	-3.4833	-3.4437	-4.1208	-3.5	20.687	95.449	279.730	283.367	-20.861	79.775	17.347	287.644	221.444	63.086	269.033	48.568	32.541	291.062	-10.944	182.164	0.00021987	0.00034344	6.5168e-05	1030.4	2.0772e-06	3.5222e-06	1105.3	212.18	2.3045e-06	2.4531e-06	263.68	77.48	60.637	18.031	2.361e-06	25.185	9.122e-05	5.1192e-05	1.5932e-05	1009.5	7.6466e-07	5.6304e-07	1092.8	210.76	7.189e-07	4.8755e-07	256.17	77.618	60.809	18.242	5.7585e-07	25.421	45.481	40.543	52.009	-49.446	120.763	90.662	-49.247	-41.378	96.124	99.039	-42.123	-35.337	-34.609	-27.392	54.238	-28.501	-8191	255	
1132.963	1	1	0	0	0.11624	0.067782	0.2142	0.1906	0.13252	0.19189	0.095827	0.26935	0.064252	0.17498	0.035591	0.16511	0.072388	0.11703	0.1607	0.14289	-3.3771	-4.1792	-3.3312	-4.1729	-3.5	-3.6	-4.3021	-3.5771	-3.6292	-4.1271	-3.3063	-4.0604	-3.7417	-3.1937	-4.1333	-3.5521	98.258	26.653	53.689	251.166	251.603	-38.160	220.789	228.874	32.161	194.523	9.586	11.639	130.728	82.180	48.929	163.286	0.00023502	0.00030067	5.1414e-05	1029.2	3.0026e-06	3.0208e-06	1112.8	213.66	2.3834e-06	1.8265e-06	266.31	77.6	60.703	18.094	2.3045e-06	25.177	9.1614e-05	4.8838e-05	1.5127e-05	1010.6	6.9629e-07	5.9672e-07	1092	211.09	7.2045e-07	4.4785e-07	257.11	77.629	60.811	18.243	5.7112e-07	25.384	42.046	36.723	13.222	-49.154	93.206	73.456	-48.895	-41.852	69.632	123.579	-42.698	-35.298	-35.321	-28.130	85.490	-28.488	-8191	255	
1133.059	1	1	0	0	0.11952	0.026917	0.1265	0.37201	0.19771	0.26864	0.21265	0.1049	0.19773	0.061799	0.23404	0.23197	0.13345	0.15093	0.19734	0.27428	-3.0583	-3.9271	-3.2958	-3.9375	-3.8625	-3.5417	-4.3063	-3.625	-3.4813	-4.1583	-3.2979	-3.8104	-4.0833	-3.3667	-4.0896	-3.4875	178.196	92.442	129.261	-47.344	295.208	175.259	265.250	173.418	168.299	256.629	24.744	298.156	4.262	-37.517	142.124	200.900	0.00020153	0.00030852	7.8089e-05	1029.6	1.6446e-06	2.3129e-06	1108.1	212.74	3.0347e-07	2.1352e-06	265.56	77.348	61.27	18.063	2.7414e-06	25.228	9.0842e-05	4.9868e-05	1.4716e-05	1010.2	7.6582e-07	5.673e-07	1093.7	211.13	7.6286e-07	4.4583e-07	257.34	77.643	60.891	18.243	5.2103e-07	25.435	36.602	37.108	35.452	-49.335	138.655	73.036	-49.153	-41.676	36.252	102.263	-42.743	-34.836	-35.002	-27.794	97.481	-28.256	-8191	255	
1133.155	1	1	0	0	0.14152	0.048477	0.33132	0.30061	0.15786	0.19132	0.051239	0.11495	0.19674	0.13172	0.362	0.086366	0.019979	0.10377	0.2576	0.1351	-2.9792	-4.2063	-3.1604	-3.9062	-3.8646	-3.2604	-4.1562	-3.5187	-3.325	-4.05	-3.4229	-3.7438	-4.0083	-3.1729	-3.9354	-3.8625	36.971	220.685	-40.607	162.747	220.138	241.851	249.432	4.547	103.362	-9.058	157.169	130.054	248.459	-30.391	39.631	189.488	0.00021004	0.00022387	6.771e-05	1021.1	2.7005e-06	2.9123e-06	1108.2	211.6	4.6732e-06	2.2326e-06	269.72	77.387	60.97	18.118	2.2515e-06	25.19	9.3035e-05	4.6282e-05	1.5219e-05	1008.1	7.083e-07	6.3466e-07	1090.5	210.56	7.2334e-07	4.7155e-07	259.4	77.54	60.836	18.27	5.7072e-07	25.405	28.880	57.209	18.776	-49.130	111.231	91.671	-49.249	-41.969	117.555	66.943	-41.781	-35.491	-35.119	-27.695	106.238	-28.148	-8191	255	
1133.228	1	1	0	0	0.17016	0.15935	0.094647	0.052398	0.13591	0.22729	0.28369	0.062192	0.17344	0.078264	0.20275	0.1475	0.097426	0.15554	0.18523	0.11978	-3.1125	-4.0896	-3.3333	-3.6958	-3.9417	-3.2625	-3.9042	-3.775	-3.05	-4.0687	-3.4646	-3.6208	-4.1833	-3.1354	-3.9229	-3.975	192.578	95.904	66.307	175.394	210.872	69.819	204.707	239.652	208.387	68.682	96.062	275.342	245.034	214.828	185.449	-39.098	0.00024355	0.00016002	6.5924e-05	1031.1	2.2338e-06	4.1684e-06	1103.7	212.19	5.1848e-07	2.5375e-06	270.89	77.684	60.927	18.187	2.5605e-06	25.159	9.8917e-05	4.2696e-05	1.3798e-05	1010.1	6.3548e-07	5.8657e-07	1092.2	211.44	7.1832e-07	4.4198e-07	260.38	77.643	60.756	18.266	6.0109e-07	25.39	20.193	24.294	22.720	-49.202	129.323	82.653	-49.130	-41.466	128.059	95.488	-39.930	-34.651	-34.406	-27.453	63.849	-28.229	-8191	255	
1133.347	1	1	0	0	0.12087	0.11483	0.040736	0.26834	0.098506	0.25154	0.091724	0.085022	0.22945	0.113	0.15852	0.19392	0.044242	0.22839	0.23786	0.18395	-3.0292	-3.9792	-3.6312	-3.4521	-4.0417	-3.3667	-3.875	-3.9146	-3.3604	-4.1521	-3.5438	-3.5958	-4.3063	-3.2292	-3.7812	-4.0229	223.920	114.691	-2.174	-31.654	11.595	105.872	2.282	198.135	161.314	250.746	83.843	-50.093	295.118	270.314	287.654	128.855	0.00020035	0.00019266	6.3891e-05	1027.4	1.6474e-06	3.1741e-06	1108	213.93	1.8189e-06	3.2642e-06	265.44	77.001	60.63	18.087	2.0936e-06	25.112	9.6588e-05	5.0714e-05	1.2619e-05	1009.9	6.4632e-07	5.6973e-07	1093	211.1	7.2816e-07	4.8411e-07	255.19	77.488	60.69	18.226	5.7841e-07	25.35	25.310	41.747	15.797	-48.871	99.463	100.308	-48.787	-41.263	124.547	74.837	-42.256	-35.195	-34.417	-27.989	59.294	-28.159	-8191	255	
1133.443	1	1	0	0	0.26965	0.13451	0.11288	0.31596	0.13052	0.067709	0.11322	0.2708	0.22254	0.084005	0.14164	0.092323	0.20251	0.07694	0.20701	0.090603	-2.8812	-4.1104	-3.6312	-3.4229	-4.0625	-3.4792	-3.5896	-3.9917	-3.2042	-4.0875	-3.7479	-3.4062	-4.2292	-3.5021	-3.4208	-4.1083	164.522	93.918	-56.183	283.366	205.009	252.917	289.436	287.392	-45.427	149.408	22.429	173.456	247.085	195.806	240.003	43.216	0.00022009	0.000271	3.2545e-05	1031.3	1.1766e-06	3.6573e-06	1102.5	212.14	2.0886e-06	1.8532e-06	269.63	77.477	60.982	18.273	2.3196e-06	25.129	9.8176e-05	4.7165e-05	1.205e-05	1008.9	6.469e-07	6.1153e-07	1091.3	210.55	6.9808e-07	4.8917e-07	257.29	77.425	60.796	18.246	6.0642e-07	25.445	31.375	27.593	82.697	-48.947	114.999	79.119	-48.961	-41.570	139.812	133.935	-43.193	-35.207	-35.075	-27.532	90.742	-27.963	-8191	255	
1133.540	1	1	0	0	0.13422	0.21179	0.21072	0.23136	0.1637	0.3406	0.20139	0.074314	0.1312	0.25006	0.22024	0.17199	0.12607	0.037943	0.1937	0.16133	-2.8417	-3.8354	-3.975	-3.4021	-4.0333	-3.5833	-3.7	-4.0021	-3.2854	-3.7438	-3.9104	-3.4167	-4.1375	-3.5521	-3.4854	-4.1146	2.744	47.138	-36.031	-56.058	90.660	69.474	179.429	260.079	-50.164	286.432	157.646	-49.033	197.769	81.265	296.827	160.951	0.00015614	0.00032581	9.8803e-05	1029.5	1.7013e-06	1.9757e-06	1108.2	211.8	3.3258e-06	1.9669e-06	274.64	77.584	60.836	18.158	2.5341e-06	25.266	9.4532e-05	4.4535e-05	1.4439e-05	1009.5	6.225e-07	5.113e-07	1090.7	210.37	7.7925e-07	4.9971e-07	257.93	77.509	60.926	18.25	6.218e-07	25.452	34.473	42.516	58.969	-48.835	92.312	79.675	-48.934	-41.511	120.397	124.940	-42.096	-35.275	-34.467	-27.744	61.448	-28.024	-8191	255	
1133.636	1	1	0	0	0.082598	0.21277	0.11371	0.19517	0.15109	0.27118	0.15307	0.27637	0.19989	0.27699	0.13389	0.14067	0.19113	0.21614	0.15783	0.060592	-2.9729	-3.6542	-3.9688	-3.375	-3.9813	-3.7854	-3.5979	-4.2375	-3.3917	-3.7458	-3.9583	-3.3438	-3.9688	-3.6917	-3.4771	-4.1792	192.687	168.400	115.265	-13.336	110.826	107.393	279.579	239.323	48.643	261.168	-47.242	-23.765	203.834	-42.018	274.433	-43.512	0.00020257	0.0002572	6.4081e-05	1025.7	3.0893e-06	2.4753e-06	1108.4	212.47	2.1337e-06	2.7964e-06	264.3	77.308	60.74	18.216	2.7161e-06	25.352	9.24e-05	5.3398e-05	1.2352e-05	1007.8	7.1198e-07	5.6953e-07	1092.6	210.86	7.4088e-07	5.0821e-07	255.37	77.396	60.752	18.277	6.3324e-07	25.435	21.084	25.774	47.165	-49.246	94.397	86.518	-49.106	-41.213	88.368	93.705	-42.536	-35.455	-34.639	-27.746	108.480	-28.532	-8191	255	
1133.756	1	1	0	0	0.22921	0.13585	0.10651	0.19148	0.023705	0.26315	0.11628	0.24915	0.12105	0.13651	0.18314	0.36903	0.043984	0.21622	0.07925	0.44124	-3.0271	-3.6542	-4.1333	-3.3333	-3.8792	-3.6312	-3.3521	-4.1854	-3.35	-3.5	-4.0521	-3.2604	-3.8688	-3.9188	-3.3	-4.2208	26.671	250.129	286.153	289.510	113.049	73.695	104.369	208.519	247.582	181.516	16.325	198.395	285.097	225.517	275.375	203.855	0.00022645	0.0003272	7.7559e-05	1028.4	3.0388e-06	2.3289e-06	1111.9	212.99	2.3676e-06	2.3347e-06	269.48	77.699	61.285	18.225	3.0702e-06	25.031	9.4426e-05	4.6999e-05	1.4537e-05	1008.8	6.9455e-07	5.4579e-07	1090.6	210.76	7.4107e-07	5.8316e-07	257.26	77.527	60.765	18.331	6.3403e-07	25.324	36.351	38.195	33.346	-48.876	85.149	54.346	-48.762	-41.415	67.069	79.379	-41.838	-35.243	-34.035	-27.752	104.281	-27.651	-8191	255	
1133.828	1	1	0	0	0.046912	0.0767	0.14208	0.16048	0.089363	0.072599	0.27597	0.21396	0.15748	0.10645	0.13135	0.21791	0.049115	0.081106	0.16163	0.054213	-3.25	-3.6562	-4.0625	-3.2562	-3.7854	-3.8021	-3.3208	-4.1417	-3.4854	-3.5604	-4.1146	-3.3646	-3.6188	-4.0875	-3.3917	-4.0229	36.091	-37.292	-23.595	273.386	212.740	235.542	186.448	174.058	221.402	294.946	59.002	170.741	-8.348	45.451	76.144	295.550	0.00027505	0.00031413	7.6592e-05	1022.6	2.5452e-06	2.6887e-06	1105.3	212.45	4.2626e-06	2.6769e-06	264.23	77.338	60.478	18.044	2.2665e-06	25.14	9.119e-05	5.4299e-05	1.2599e-05	1005.5	6.8525e-07	5.0197e-07	1090.6	210.77	7.1023e-07	5.0882e-07	256.57	77.444	60.725	18.173	6.151e-07	25.406	38.320	37.082	38.387	-49.022	84.186	95.479	-48.889	-41.238	83.981	101.699	-41.087	-35.217	-34.156	-27.705	86.976	-28.192	-8191	255	
1133.949	1	1	0	0	0.079176	0.14258	0.19141	0.18198	0.042762	0.13388	0.21824	0.13143	0.24996	0.15588	0.043977	0.052358	0.1275	0.16235	0.19804	0.085129	-3.2354	-3.3375	-4.0292	-3.5208	-3.7042	-3.9292	-3.4313	-3.9917	-3.7438	-3.3063	-3.9042	-3.5021	-3.7438	-4.175	-3.4188	-3.9896	96.100	203.570	18.826	255.755	115.798	-59.757	273.881	215.226	49.247	-42.909	7.642	215.768	177.221	-7.535	48.139	184.620	0.00022198	0.00025585	0.00011904	1024.4	2.219e-06	2.7044e-06	1103.1	211.56	9.1156e-07	2.0732e-06	269.43	77.37	60.788	18.249	2.6935e-06	25.048	8.9134e-05	5.6892e-05	1.3788e-05	1007.2	6.684e-07	4.8269e-07	1089	210.41	7.2893e-07	5.8701e-07	257.36	77.338	60.757	18.293	6.6736e-07	25.351	37.962	48.673	21.787	-49.476	86.869	87.085	-49.368	-41.814	169.973	111.369	-42.224	-35.605	-34.762	-27.584	75.347	-28.479	-8191	255	
1134.043	1	1	0	0	0.19025	0.14529	0.32065	0.25619	0.24126	0.13739	0.066775	0.15829	0.055286	0.086889	0.11415	0.063955	0.13105	0.099914	0.29986	0.052356	-3.475	-3.4167	-4.1146	-3.5396	-3.6396	-3.9292	-3.4708	-3.9208	-3.8729	-3.3729	-4.0083	-3.5687	-3.5021	-4.0979	-3.4479	-3.7667	-40.633	75.890	167.519	-42.291	238.598	190.006	287.385	252.479	11.070	-53.594	75.634	110.619	78.791	112.114	235.869	-58.037	0.00024128	0.00042613	0.00010316	1021.6	1.8659e-06	3.3453e-06	1103.3	211.65	3.6354e-06	2.1819e-06	274.55	77.5	61.07	18.187	9.8838e-07	25.112	8.8771e-05	5.5439e-05	1.3716e-05	1004.4	6.8738e-07	4.6504e-07	1089	210.63	7.0213e-07	4.9647e-07	258.09	77.247	60.802	18.222	6.5809e-07	25.403	35.733	11.950	31.801	-49.633	122.551	94.105	-49.150	-41.306	72.608	91.396	-41.500	-35.388	-34.327	-27.481	86.809	-27.924	-8191	255	
1134.139	1	1	0	0	0.26816	0.13666	0.17029	0.37741	0.074769	0.22854	0.25022	0.09034	0.19961	0.21768	0.014487	0.044629	0.087711	0.086953	0.13297	0.14714	-3.5146	-3.1604	-3.9417	-3.6417	-3.3917	-4.1146	-3.3937	-3.8292	-4.0563	-3.3396	-3.9813	-3.7271	-3.4521	-4.2146	-3.3042	-3.6063	-10.783	174.155	-20.673	254.484	95.212	282.458	290.073	126.340	133.328	80.437	-25.323	94.837	76.981	197.445	176.592	176.248	0.00021807	0.00015624	6.9082e-05	1023.2	1.3053e-06	2.5954e-06	1106.4	213.01	3.5322e-06	3.3838e-06	267.97	77.247	60.761	18.068	2.1219e-06	25.256	8.4991e-05	5.167e-05	1.2676e-05	1005.3	7.2767e-07	4.5915e-07	1089.5	210.76	6.7167e-07	6.1192e-07	256.64	77.4	60.873	18.242	6.3028e-07	25.413	40.838	3.787	22.988	-49.023	89.428	108.622	-48.512	-40.880	107.193	103.743	-41.152	-34.990	-34.374	-27.627	108.574	-27.747	-8191	255	
1134.235	1	1	0	0	0.1555	0.14955	0.16393	0.14575	0.084151	0.17533	0.14961	0.13958	0.1946	0.092345	0.11779	0.093013	0.096412	0.27435	0.077697	0.18865	-3.5729	-3.2729	-3.9104	-3.7354	-3.25	-4.1104	-3.5125	-3.4646	-3.9833	-3.3458	-3.9479	-3.7229	-3.3646	-4.1125	-3.3917	-3.5458	246.523	122.232	47.115	243.488	261.688	179.142	162.465	294.405	286.248	179.923	-6.884	116.439	272.139	-34.917	163.982	199.275	0.00024277	0.00032905	0.00010244	1025.1	3.8861e-06	2.6231e-06	1098.8	211.97	2.3855e-06	2.9682e-06	267.81	77.384	60.711	18.098	2.4661e-06	25.075	9.2264e-05	5.5384e-05	1.2952e-05	1006.4	7.511e-07	5.117e-07	1087.3	210.62	6.7938e-07	5.7911e-07	256.19	77.463	60.638	18.257	5.8177e-07	25.327	43.409	28.349	35.750	-49.629	80.101	94.120	-49.333	-41.684	118.493	82.520	-41.854	-35.754	-34.760	-27.595	85.668	-27.924	-8191	255	
1134.356	1	1	0	0	0.1694	0.1101	0.11206	0.16658	0.065485	0.058526	0.20255	0.025593	0.21058	0.25499	0.14042	0.036556	0.077127	0.12566	0.29171	0.17228	-3.6688	-3.1271	-3.7313	-3.9062	-3.1688	-3.9729	-3.575	-3.5958	-4.1521	-3.3875	-3.7833	-3.85	-3.2229	-3.9437	-3.4229	-3.2958	285.647	-17.898	33.233	266.950	284.165	267.202	205.255	178.230	120.993	117.587	195.787	44.000	111.437	219.420	184.169	244.062	0.00017393	0.0002201	9.0758e-05	1018.9	1.2793e-06	2.3369e-06	1106.6	212.51	3.7774e-06	3.2986e-06	265.64	77.368	60.367	18.033	2.4541e-06	25.026	8.8529e-05	4.9298e-05	1.4306e-05	1004.4	7.0733e-07	5.1231e-07	1087.5	210.69	6.815e-07	5.6432e-07	254.86	77.258	60.602	18.185	6.1174e-07	25.398	29.932	45.929	61.200	-49.385	93.054	104.126	-49.003	-41.808	106.942	83.525	-41.995	-35.346	-34.748	-27.558	118.871	-28.550	-8191	255	
1134.452	1	1	0	0	0.12078	0.13863	0.1988	0.27925	0.032549	0.094578	0.19965	0.13669	0.30407	0.024496	0.056362	0.038677	0.18487	0.098896	0.12378	0.16695	-3.5833	-3.2542	-3.5854	-4	-3.0708	-3.9479	-3.6333	-3.3083	-3.8646	-3.1792	-3.5354	-3.9646	-3.3208	-4.0104	-3.5854	-3.2104	223.373	219.992	-36.495	281.365	130.937	133.482	-31.544	298.022	-56.683	72.495	236.317	150.779	-23.314	68.033	109.985	258.583	0.00024023	0.00016889	0.0001142	1025.3	6.3916e-07	3.6117e-06	1099.8	211.91	3.936e-06	2.8686e-06	270.74	76.893	60.729	17.973	2.8352e-06	25.156	8.6382e-05	5.3619e-05	1.3311e-05	1004.9	7.4897e-07	5.3463e-07	1085.4	210.35	6.6261e-07	5.1713e-07	257.52	77.156	60.594	18.182	5.7802e-07	25.442	51.330	33.132	26.796	-49.645	61.670	87.585	-49.180	-41.542	84.093	107.108	-42.819	-35.914	-34.894	-27.914	96.051	-28.677	-8191	255	
1134.524	1	1	0	0	0.062602	0.098395	0.082969	0.35089	0.14343	0.18697	0.01376	0.10008	0.33865	0.11274	0.20308	0.18369	0.27167	0.13483	0.20506	0.11821	-3.5687	-3.4604	-3.5708	-4.1	-3.2458	-3.9708	-3.7125	-3.275	-3.975	-3.5083	-3.4375	-4.05	-3.3875	-3.7583	-3.8937	-3.3417	188.475	299.271	-15.104	-37.935	122.037	283.913	63.920	-19.160	112.631	-33.552	16.596	249.511	-37.181	185.905	28.203	-30.475	0.0002277	0.00026296	6.0379e-05	1027	2.4677e-06	2.2668e-06	1102.3	211.97	1.8407e-06	2.3856e-06	271.08	76.963	60.601	18.111	2.1939e-06	25.092	8.3691e-05	5.8308e-05	1.5439e-05	1006.2	7.2612e-07	4.9973e-07	1088.5	210.68	6.8092e-07	5.3353e-07	257.42	77.28	60.652	18.268	5.8433e-07	25.374	35.324	38.300	26.480	-49.283	102.852	103.355	-49.598	-41.914	76.865	90.049	-42.508	-35.793	-35.331	-27.948	92.733	-28.132	-8191	255	
1134.644	1	1	0	0	0.1427	0.088379	0.19584	0.29969	0.14782	0.035945	0.12618	0.43589	0.066149	0.10978	0.16637	0.23136	0.31611	0.14246	0.08449	0.15941	-3.6542	-3.5542	-3.5792	-4.2688	-3.3167	-3.8542	-3.9188	-3.1562	-3.7812	-3.5083	-3.4188	-4.2125	-3.4833	-3.6083	-3.85	-3.2812	141.725	21.531	-16.248	-59.734	49.289	-43.800	67.877	258.302	207.078	95.936	167.865	244.113	181.498	-3.352	143.130	210.114	0.00023772	0.00028819	4.6717e-05	1022.3	4.0573e-06	3.8064e-06	1104.7	211.52	2.3662e-06	3.004e-06	271.2	77.79	60.505	18.105	3.3803e-06	24.989	9.0812e-05	5.0107e-05	1.4475e-05	1003.3	8.2219e-07	5.4478e-07	1088.2	210.44	6.5817e-07	5.2908e-07	258.1	77.465	60.522	18.236	5.5278e-07	25.254	43.586	12.478	38.335	-49.435	105.601	67.842	-49.447	-41.921	104.106	89.763	-41.687	-35.561	-34.963	-27.724	59.800	-28.477	-8191	255	
1134.741	1	1	0	0	0.1344	0.10452	0.19123	0.18078	0.031464	0.059729	0.19951	0.15531	0.16938	0.030627	0.096857	0.13464	0.089486	0.20303	0.12433	0.20941	-3.4771	-3.7542	-3.2625	-4.1167	-3.4813	-3.6333	-4.0563	-3.3875	-3.8521	-3.6542	-3.2604	-4.1062	-3.4167	-3.5271	-4.0271	-3.2583	-36.799	178.391	-59.193	228.191	183.618	29.779	298.696	221.942	143.836	232.681	134.118	-38.670	107.661	57.264	127.014	166.568	0.00023458	0.00031948	9.3729e-05	1023.1	1.2389e-06	3.7036e-06	1104.3	212.98	1.7363e-06	3.0302e-06	269.54	77.577	60.596	18.138	2.7339e-06	24.99	8.7924e-05	4.6448e-05	1.4634e-05	1004.5	6.8215e-07	4.831e-07	1088.6	210.59	6.7398e-07	5.1146e-07	256.83	77.336	60.588	18.282	5.8847e-07	25.306	33.741	31.004	34.458	-49.353	82.130	94.427	-49.081	-41.858	103.427	81.739	-41.399	-35.756	-34.940	-27.343	104.053	-28.551	-8191	255	
1134.837	1	1	0	0	0.27099	0.12724	0.2318	0.046879	0.21964	0.15142	0.26696	0.085658	0.17833	0.038506	0.25559	0.25314	0.11343	0.28837	0.15637	0.092103	-3.45	-3.7917	-3.175	-4.025	-3.3125	-3.4396	-4.1646	-3.4708	-3.7333	-3.7188	-3.3708	-4.025	-3.7208	-3.3688	-4	-3.2583	146.330	-55.569	75.390	194.245	194.023	72.616	254.471	166.919	54.038	134.196	20.809	271.431	206.273	-40.023	263.510	262.500	0.0002164	0.00024368	6.1555e-05	1021.8	3.8354e-06	2.0543e-06	1101.8	211.35	2.2279e-06	3.0691e-06	264.15	77.117	60.952	18.002	2.5107e-06	25.042	9.0888e-05	4.9647e-05	1.4516e-05	1003.7	7.8035e-07	5.9692e-07	1087.5	210.05	6.9789e-07	5.4002e-07	255.9	77.096	60.576	18.178	5.7743e-07	25.338	55.268	34.438	30.401	-49.660	80.567	92.533	-49.673	-42.578	44.147	99.002	-42.967	-35.912	-35.790	-28.451	85.439	-29.166	-8191	255	
1134.933	1	1	0	0	0.099791	0.054048	0.1317	0.18476	0.097704	0.18974	0.18932	0.19976	0.13283	0.050243	0.13651	0.19058	0.10897	0.14245	0.21164	0.16944	-3.2167	-3.9625	-3.1312	-4.0021	-3.5854	-3.3917	-4.1542	-3.3458	-3.6958	-3.975	-3.1229	-3.8104	-3.7562	-3.3979	-4.1188	-3.3187	263.911	-4.100	291.176	-48.054	55.400	-37.152	226.184	208.321	47.254	18.865	-51.312	167.940	268.429	30.430	280.165	180.248	0.00022609	0.00027328	7.3831e-05	1018.3	2.9343e-06	3.6336e-06	1099.7	212.87	1.7463e-06	2.7249e-06	274.21	77.083	60.402	17.976	2.1428e-06	25.125	8.9527e-05	4.7441e-05	1.6055e-05	1004.2	6.9184e-07	5.4802e-07	1085	210.69	7.3529e-07	4.8168e-07	257.1	77.338	60.517	18.172	4.8849e-07	25.343	27.270	31.488	24.028	-50.233	100.934	94.632	-49.906	-42.276	97.579	76.739	-42.803	-36.345	-35.519	-28.546	120.321	-28.850	-8191	255	
1135.052	1	1	0	0	0.096534	0.18257	0.091352	0.12692	0.042655	0.036723	0.27341	0.15063	0.044798	0.085618	0.11005	0.20729	0.16899	0.12567	0.20777	0.13694	-3.15	-3.9375	-3.2354	-3.9938	-3.8104	-3.1604	-4.1292	-3.5604	-3.4938	-3.9396	-3.1771	-3.9042	-4.0375	-3.2687	-4.0542	-3.5896	233.436	151.991	298.306	145.749	123.078	-4.368	265.968	253.936	181.011	163.427	-50.213	224.977	85.103	299.125	158.700	66.463	0.00022531	0.00020891	9.6514e-05	1017.6	1.2801e-06	2.2094e-06	1100	210.23	1.2587e-06	2.6339e-06	263.09	77.802	60.461	18.074	2.5572e-06	25.063	8.7743e-05	4.5179e-05	1.5152e-05	1002.7	6.8022e-07	5.2266e-07	1086.4	209.65	6.8169e-07	4.513e-07	257.13	77.301	60.402	18.168	5.514e-07	25.325	34.976	40.420	35.173	-50.147	99.517	91.141	-49.987	-42.369	137.637	98.394	-42.508	-35.810	-35.415	-28.292	115.400	-28.983	-8191	255	
1135.123	1	1	0	0	0.20345	0.064016	0.21477	0.12139	0.12563	0.14074	0.14705	0.11007	0.077651	0.1452	0.22017	0.18079	0.27943	0.098046	0.21542	0.11657	-3.1437	-4.0062	-3.2875	-3.9813	-3.8729	-3.175	-4.0312	-3.5542	-3.3312	-3.9292	-3.2812	-3.7208	-4.0312	-3.425	-3.8271	-3.7333	227.457	225.416	18.015	236.934	207.381	7.369	280.210	210.217	269.288	192.238	-25.564	275.969	287.648	23.585	171.485	223.041	0.00024811	0.0002418	7.8463e-05	1022.1	1.984e-06	2.746e-06	1099.5	212.09	2.0183e-06	2.3387e-06	267.99	77.368	60.683	18.003	1.7382e-06	24.763	9.4381e-05	4.5565e-05	1.4988e-05	1003.2	6.5213e-07	5.4539e-07	1085.8	210.22	6.8285e-07	4.8776e-07	256.24	77.477	60.453	18.177	5.0703e-07	25.234	34.481	25.772	27.365	-50.165	115.017	74.885	-49.870	-42.527	-21.579	92.613	-43.656	-36.012	-35.730	-28.138	122.020	-28.780	-8191	255	
1135.220	1	1	0	0	0.16341	0.18788	0.19964	0.079853	0.04893	0.056006	0.047922	0.1584	0.30583	0.13805	0.049124	0.064554	0.26705	0.14963	0.13597	0.077722	-2.8521	-3.8729	-3.5062	-3.75	-4.025	-3.2333	-4.1417	-3.8937	-3.1417	-4.0854	-3.3063	-3.4729	-4.0167	-3.2646	-3.875	-3.8958	189.079	105.574	280.966	246.184	167.615	145.697	62.248	226.532	-28.368	5.833	260.970	262.781	-13.222	81.658	-53.259	264.264	0.00025162	0.0002426	9.3095e-05	1017.9	2.9893e-06	3.3827e-06	1095.4	212.52	3.82e-06	2.4364e-06	265.7	76.748	60.169	18.035	2.5199e-06	25.376	9.742e-05	4.6815e-05	1.4737e-05	1001.9	6.7324e-07	5.3991e-07	1083.9	210.32	7.617e-07	5.1915e-07	256.01	77.112	60.52	18.187	5.3759e-07	25.446	28.690	25.940	37.700	-49.802	78.504	86.406	-49.877	-42.212	102.717	98.827	-43.602	-36.573	-36.029	-28.262	109.402	-29.146	-8191	255	
1135.316	1	1	0	0	0.24518	0.32451	0.13308	0.10182	0.23728	0.12612	0.1756	0.31718	0.25074	0.2133	0.17167	0.060131	0.2023	0.18454	0.14889	0.1112	-2.9313	-4.0146	-3.4437	-3.7354	-3.9958	-3.1354	-3.8354	-4.0583	-3.325	-4.0563	-3.5021	-3.5229	-4.2292	-3.3812	-3.6625	-3.9938	244.706	281.961	208.598	-6.409	260.074	195.199	207.307	207.277	255.297	-5.187	167.872	238.115	223.673	226.470	173.571	50.417	0.00023344	0.00030365	8.3368e-05	1020.4	2.2641e-06	3.9619e-06	1103.3	211.46	3.3676e-06	3.3126e-06	270.36	76.57	61.079	18.024	1.6254e-06	25.037	9.367e-05	4.5473e-05	1.5542e-05	1003	6.6666e-07	5.6831e-07	1086.4	209.79	6.948e-07	4.6689e-07	257.28	77.105	60.698	18.213	5.8847e-07	25.311	50.727	36.899	29.727	-49.955	99.929	108.207	-50.045	-42.583	80.974	96.170	-42.900	-36.224	-35.999	-28.366	80.020	-29.359	-8191	255	
1135.436	1	1	0	0	0.063411	0.13632	0.25553	0.20581	0.16291	0.21184	0.20924	0.31893	0.16508	0.28051	0.23376	0.10744	0.10945	0.098166	0.12052	0.10827	-2.9083	-3.9729	-3.4854	-3.5083	-3.9396	-3.2	-3.7938	-3.9625	-3.1146	-4.1188	-3.675	-3.4042	-4.025	-3.4417	-3.7562	-4.1625	-12.382	8.142	187.107	-37.607	128.438	248.593	-52.169	237.986	238.675	275.004	122.219	-43.982	279.674	166.815	-47.871	66.092	0.00018133	0.00026538	9.4382e-05	1018.3	4.4607e-07	3.3692e-06	1101.2	211.14	2.7484e-06	2.9256e-06	265.58	77.265	60.251	17.874	1.9581e-06	25.13	9.5741e-05	5.5016e-05	1.4634e-05	1003.7	6.7654e-07	5.606e-07	1084	209.75	7.4011e-07	4.8371e-07	256.88	77.362	60.509	18.095	6.0524e-07	25.392	44.504	25.718	49.436	-50.039	72.124	82.186	-50.200	-42.449	104.551	92.027	-43.937	-36.226	-35.953	-28.531	105.940	-29.135	-8191	255	
1135.533	1	1	0	0	0.23715	0.10444	0.14487	0.27118	0.15386	0.19508	0.41414	0.21664	0.1898	0.25696	0.20337	0.054899	0.20174	0.078818	0.10085	0.27255	-2.75	-3.8646	-3.8312	-3.2958	-4.1125	-3.3333	-3.6667	-4.0292	-3.0042	-3.8958	-3.7875	-3.2687	-4.0437	-3.2583	-3.525	-4.1708	214.429	2.593	57.600	269.164	240.442	-45.574	261.029	217.951	86.906	88.051	-22.257	164.584	171.379	151.488	120.492	227.249	0.00025825	0.00042449	8.4646e-05	1014.2	2.97e-06	3.2955e-06	1095.6	210.9	2.4862e-06	3.1292e-06	269.74	77.193	60.389	17.929	1.6463e-06	25.136	9.6634e-05	4.7202e-05	1.3004e-05	1001.3	6.7576e-07	5.4336e-07	1083.2	209.79	7.4512e-07	5.0295e-07	257.22	77.26	60.61	18.152	5.9419e-07	25.383	43.212	39.052	30.063	-50.184	70.140	87.576	-50.044	-42.798	112.468	91.026	-43.390	-36.248	-35.610	-28.409	62.205	-28.808	-8191	255	
1135.629	1	1	0	0	0.24338	0.12322	0.14153	0.25907	0.13216	0.11459	0.32975	0.16365	0.19786	0.083666	0.44539	0.29597	0.17762	0.29086	0.24677	0.13278	-2.7208	-3.7583	-3.7771	-3.2604	-3.8771	-3.4396	-3.3833	-4.0208	-3.1021	-3.5271	-3.8937	-3.2625	-4.0417	-3.65	-3.4583	-4.0458	251.101	208.695	47.137	261.541	155.282	-6.015	216.190	167.813	293.474	253.804	142.868	176.431	292.850	296.074	41.899	-45.089	0.00019784	0.00025763	8.6682e-05	1022.2	2.6915e-06	3.0723e-06	1097.4	212.39	2.269e-06	2.9005e-06	266.66	77.351	60.467	17.952	1.7072e-06	25.08	9.6588e-05	5.1376e-05	1.3932e-05	1002.3	6.3412e-07	4.7681e-07	1085.6	210.75	7.6729e-07	4.6892e-07	255.4	77.333	60.665	18.153	6.216e-07	25.372	27.087	5.404	30.969	-50.021	94.921	88.479	-49.826	-42.529	115.801	62.832	-43.110	-36.329	-35.888	-28.215	81.257	-29.537	-8191	255	
1135.749	1	1	0	0	0.11644	0.018054	0.13341	0.20285	0.040541	0.18084	0.17891	0.23324	0.034121	0.23335	0.12425	0.12571	0.12294	0.2514	0.13398	0.10326	-2.9188	-3.6063	-3.8479	-3.2042	-3.9938	-3.8583	-3.4792	-4.2396	-3.3354	-3.5604	-3.8979	-3.3229	-3.8208	-3.7458	-3.2479	-3.8646	266.088	-36.478	290.803	270.300	174.868	211.629	227.886	204.991	79.672	218.757	-20.476	13.274	75.935	31.972	86.618	228.921	0.00023081	0.00036708	7.9411e-05	1016.9	3.1593e-06	2.7683e-06	1101.8	211.56	3.6565e-06	2.6851e-06	262.97	77.092	60.06	17.992	2.2411e-06	24.927	9.435e-05	5.292e-05	1.4193e-05	1002.6	6.7441e-07	4.8249e-07	1084.7	209.33	6.8748e-07	5.2969e-07	255.05	77.15	60.344	18.15	6.218e-07	25.311	37.070	44.381	22.047	-50.092	87.537	80.922	-50.031	-42.478	88.946	121.515	-42.849	-36.318	-35.733	-28.799	111.904	-28.861	-8191	255	
1135.821	1	1	0	0	0.23064	0.116	0.062326	0.11477	0.16953	0.072005	0.11629	0.014836	0.12496	0.1082	0.23343	0.15869	0.088318	0.10654	0.20319	0.173	-2.9104	-3.3833	-4.0417	-3.4479	-3.9146	-3.8187	-3.3604	-4.2479	-3.375	-3.4729	-4.1958	-3.3917	-3.7875	-3.6896	-3.175	-4.0083	83.416	16.383	257.884	160.774	208.412	148.515	231.895	61.400	-48.038	83.839	55.791	128.550	205.848	130.677	182.860	162.172	0.00021432	0.00027113	0.00010336	1017	2.9138e-06	1.9726e-06	1101.4	212.21	2.0198e-06	3.4002e-06	261.92	76.697	60.743	18.042	3.2189e-06	25.092	9.0903e-05	5.3178e-05	1.325e-05	1001.6	7.5459e-07	4.3562e-07	1085.9	210.14	6.2212e-07	5.625e-07	255.34	77.129	60.669	18.138	6.4073e-07	25.313	44.959	30.268	18.062	-50.060	97.560	125.349	-50.107	-42.504	113.514	113.737	-43.251	-36.431	-36.084	-28.577	90.941	-29.324	-8191	255	
1135.917	1	1	0	0	0.12297	0.0382	0.22259	0.12346	0.066032	0.14084	0.121	0.3162	0.17943	0.16137	0.12667	0.20457	0.078306	0.15749	0.3338	0.049699	-3.0438	-3.3833	-4.1813	-3.2208	-3.6146	-3.8896	-3.2938	-3.8646	-3.3854	-3.2771	-3.9771	-3.3812	-3.5396	-3.9188	-3.1562	-3.9813	13.053	-31.153	28.661	98.169	-0.170	-21.022	275.152	265.449	-37.505	161.611	271.741	214.526	218.784	77.625	-38.276	2.311	0.00024854	0.00031914	5.967e-05	1015.8	2.5991e-06	2.9127e-06	1099.5	211.46	1.601e-06	3.0128e-06	269.28	77.051	60.445	18.033	2.4275e-06	25.162	9.0464e-05	5.7352e-05	1.1835e-05	1002.2	7.1798e-07	4.4962e-07	1084.9	210.12	7.0174e-07	5.542e-07	257.83	77.37	60.598	18.17	6.4704e-07	25.401	33.675	34.862	27.456	-50.283	107.402	76.083	-50.101	-42.381	96.945	103.874	-42.569	-36.355	-35.685	-28.311	78.299	-29.036	-8191	255	
1136.036	1	1	0	0	0.19529	0.1375	0.19946	0.27832	0.08401	0.099277	0.14136	0.15432	0.25946	0.17826	0.026253	0.10871	0.19526	0.26518	0.14111	0.11522	-3.3958	-3.1625	-3.9646	-3.3896	-3.6042	-3.8271	-3.3292	-3.9167	-3.7792	-3.2667	-3.9813	-3.4354	-3.5708	-4.0792	-3.1771	-3.8458	159.702	117.771	12.329	271.550	105.308	-36.401	217.129	-57.415	-56.940	223.473	238.964	259.724	232.087	-43.890	-17.265	279.602	0.00022825	0.00038049	6.3075e-05	1014.7	1.9588e-06	2.5632e-06	1099.8	211.19	1.7654e-06	2.2493e-06	266.78	77.161	60.519	18.012	3.1343e-06	24.95	9.6437e-05	5.7719e-05	1.0425e-05	1000.3	7.1624e-07	5.3605e-07	1083.3	210.08	7.3664e-07	5.3657e-07	256.42	77.278	60.446	18.153	6.7091e-07	25.269	25.008	59.971	35.245	-50.357	77.459	87.661	-50.340	-42.456	82.477	115.374	-43.405	-35.970	-35.862	-28.528	96.809	-29.484	-8191	255	
1136.132	1	1	0	0	0.11155	0.14708	0.034812	0.059531	0.092954	0.18046	0.27445	0.27966	0.15444	0.11147	0.18372	0.025907	0.15778	0.16097	0.15983	0.30888	-3.3104	-3.1646	-4.1562	-3.6333	-3.2833	-3.9833	-3.2542	-3.8917	-3.8417	-3.3396	-4.0542	-3.5604	-3.4083	-4.0708	-3.1354	-3.5646	-18.754	-59.741	90.843	92.677	3.501	19.101	215.706	-34.975	-43.852	140.311	8.162	217.701	189.238	-41.883	-43.027	267.681	0.00018623	0.00020915	9.9267e-05	1017.2	3.0251e-06	3.3776e-06	1092.4	210.95	3.0756e-06	1.1403e-06	263.65	76.946	60.728	18.017	3.0284e-06	25.302	8.6216e-05	5.1192e-05	1.4188e-05	999.72	7.238e-07	4.5936e-07	1081.1	210.1	6.9153e-07	6.0666e-07	254.94	77.237	60.479	18.181	6.4389e-07	25.445	45.457	13.652	20.455	-50.368	94.136	98.613	-50.199	-42.561	107.672	64.107	-42.737	-36.137	-35.470	-28.797	86.612	-29.015	-8191	255	
1136.228	1	1	0	0	0.042411	0.20931	0.25718	0.14018	0.21059	0.24032	0.16893	0.12543	0.30198	0.18775	0.25168	0.11283	0.10304	0.25525	0.11892	0.15137	-3.5458	-3.2458	-3.8979	-3.6708	-3.4521	-4.0583	-3.5083	-3.7375	-3.8521	-3.1	-3.925	-3.8146	-3.2729	-3.9813	-3.2625	-3.5354	166.747	263.202	148.404	4.611	-20.353	203.848	195.714	271.501	188.700	289.497	-3.268	290.901	49.246	239.002	-15.807	28.974	0.00022092	0.00022768	9.5997e-05	1015.3	3.3577e-06	3.1767e-06	1097.4	210.18	4.4143e-06	1.2908e-06	264.3	76.525	60.667	17.899	3.0931e-06	25.033	8.5717e-05	6.011e-05	1.2609e-05	1001.4	7.3755e-07	4.7782e-07	1084.1	209.5	6.4873e-07	5.8701e-07	255.98	77.055	60.503	18.146	6.3304e-07	25.284	35.143	14.734	17.461	-50.243	96.812	87.563	-49.779	-42.741	91.269	105.184	-43.046	-36.280	-35.572	-28.011	93.613	-29.067	-8191	255	
1136.324	1	1	0	0	0.24932	0.18355	0.33853	0.27124	0.13381	0.10324	0.15866	0.25421	0.11547	0.14795	0.037649	0.17826	0.20095	0.14704	0.24817	0.28716	-3.7354	-3.3021	-3.825	-3.85	-3.3208	-4.0792	-3.6562	-3.7042	-3.975	-3.0542	-3.8167	-3.7292	-3.3021	-4.0813	-3.4	-3.4917	-26.182	281.828	211.960	269.675	70.347	293.042	-52.589	-58.158	284.683	204.957	259.562	289.010	90.558	264.613	152.278	251.943	0.00027883	0.00019081	7.6469e-05	1017.4	3.0258e-06	3.9637e-06	1097.7	210.72	1.1228e-06	1.6385e-06	262.59	76.815	60.484	18.101	2.8173e-06	25.071	8.6881e-05	5.555e-05	1.3316e-05	1003.8	7.6234e-07	4.6443e-07	1082.9	209.8	6.2251e-07	5.9673e-07	255.68	77.222	60.423	18.223	5.7822e-07	25.421	47.218	15.390	25.899	-50.084	82.514	76.573	-50.231	-42.232	110.993	64.799	-41.890	-36.318	-35.602	-28.453	78.533	-29.073	-8191	255	
1136.421	1	1	0	0	0.10328	0.06116	0.11882	0.27074	0.23044	0.10397	0.26402	0.11531	0.067569	0.097756	0.20642	0.21063	0.2588	0.04032	0.18627	0.036344	-3.6896	-3.35	-3.5375	-4.0667	-3.2792	-3.9833	-3.7292	-3.4083	-3.925	-3.2812	-3.5687	-3.9938	-3.1771	-3.9604	-3.6271	-3.4104	23.713	-6.166	183.313	207.715	164.705	197.072	290.219	-47.691	-39.036	128.580	298.209	137.680	247.301	-31.670	-43.803	79.867	0.00020586	0.00024548	9.904e-05	1014.3	3.6891e-06	3.3092e-06	1102.6	211.76	2.1975e-06	2.0503e-06	268.65	76.381	60.368	18.112	2.6809e-06	24.921	8.859e-05	5.3931e-05	1.4029e-05	1000.7	7.4859e-07	4.6423e-07	1085.4	210.28	6.2077e-07	4.9829e-07	257.14	77.028	60.449	18.175	6.1135e-07	25.258	27.730	21.330	24.826	-50.197	132.245	80.639	-50.081	-42.425	84.262	100.664	-43.153	-36.232	-36.169	-28.697	63.892	-28.826	-8191	255	
1136.517	1	1	0	0	0.15424	0.1537	0.22112	0.047005	0.037978	0.1229	0.1267	0.1874	0.31083	0.18437	0.013892	0.24489	0.13965	0.2891	0.01311	0.081768	-3.8937	-3.35	-3.575	-4.125	-3.1646	-4.1083	-3.8063	-3.5271	-4.1104	-3.4167	-3.6188	-3.9792	-3.2687	-3.8146	-3.8167	-3.4021	271.383	138.192	274.704	152.731	88.330	128.972	242.661	248.103	224.532	124.951	10.194	-21.213	58.031	282.638	125.327	247.965	0.00024785	0.00026794	0.00010462	1018.2	2.3671e-06	2.3496e-06	1097.7	210.09	3.9065e-06	2.852e-06	262.77	77.173	60.406	18.053	2.9094e-06	25.224	8.2103e-05	5.3067e-05	1.3793e-05	1000.8	7.1798e-07	4.7437e-07	1082.7	209.69	6.6801e-07	5.6047e-07	254.98	77.303	60.539	18.212	5.8946e-07	25.354	29.636	0.441	30.216	-49.999	100.682	99.300	-50.197	-42.599	92.718	100.930	-43.090	-35.896	-35.877	-28.491	92.975	-28.910	-8191	255	
1136.613	1	1	0	0	0.14673	0.22209	0.16578	0.091411	0.13297	0.07676	0.18661	0.075127	0.041627	0.099615	0.19615	0.10937	0.19062	0.18893	0.084406	0.055785	-3.7208	-3.4333	-3.4062	-4.2125	-3.2792	-3.8875	-3.8646	-3.2625	-4.0271	-3.5187	-3.4417	-4.0979	-3.2792	-3.6271	-3.8187	-3.1958	-40.610	-19.775	93.997	-31.664	88.001	199.722	218.558	269.280	-56.886	73.173	139.587	243.654	-21.490	243.205	104.496	13.111	0.00022646	0.00019358	8.8812e-05	1014.6	2.1963e-06	1.7924e-06	1099.3	211.42	2.7832e-06	2.1599e-06	272.08	77.099	60.732	18.025	3.3708e-06	25.071	9.0404e-05	5.3656e-05	1.4429e-05	1001.7	7.4161e-07	4.9588e-07	1085.4	210.18	6.6916e-07	4.8188e-07	257.67	77.054	60.538	18.169	5.9459e-07	25.26	23.205	-8.047	33.835	-50.050	92.901	95.479	-49.927	-42.294	67.146	89.757	-43.462	-36.045	-35.713	-28.544	70.090	-29.551	-8191	255	
1136.709	1	1	0	0	0.14012	0.12324	0.16433	0.094972	0.29882	0.16224	0.13307	0.14185	0.25607	0.17229	0.14704	0.048939	0.15931	0.15749	0.099605	0.11262	-3.5187	-3.4604	-3.3438	-4.0208	-3.3479	-3.5417	-4.025	-3.1063	-3.9271	-3.5542	-3.2146	-4.0896	-3.2958	-3.4813	-3.85	-3.3583	134.018	125.566	-37.993	229.021	-10.338	156.216	207.635	23.780	163.961	11.723	180.011	-58.420	273.607	259.486	53.392	247.140	0.00021939	0.00021679	9.0054e-05	1018.5	2.581e-06	3.2091e-06	1092.8	210.56	1.7022e-06	2.9231e-06	263.44	76.683	60.18	18.031	1.9745e-06	24.947	8.5702e-05	5.2074e-05	1.3245e-05	1000.9	7.1798e-07	4.975e-07	1083.7	209.68	7.2584e-07	4.9485e-07	256.14	77.251	60.53	18.195	5.581e-07	25.319	31.125	44.143	43.928	-49.850	126.379	74.295	-50.059	-42.339	108.011	97.413	-42.631	-36.266	-35.850	-28.485	89.656	-29.171	-8191	255	
1136.828	1	1	0	0	0.27599	0.020727	0.059759	0.19935	0.093902	0.0099046	0.18265	0.45007	0.13689	0.064134	0.18602	0.20359	0.013203	0.16725	0.15552	0.26259	-3.5542	-3.5708	-3.2375	-4.0354	-3.3396	-3.5396	-4.1458	-3.1417	-3.8646	-3.8417	-3.1854	-4.0792	-3.4479	-3.4313	-3.9437	-3.3708	78.798	202.560	213.355	-15.975	263.565	86.884	203.032	233.983	80.661	136.342	202.434	128.346	15.063	-15.862	146.750	294.980	0.0001713	0.00039797	8.2357e-05	1020.3	1.6773e-06	3.4683e-06	1099	210.41	3.0897e-06	3.0068e-06	273.44	76.178	60.501	18.048	2.4115e-06	24.915	8.1937e-05	5.5733e-05	1.5255e-05	1003.1	6.8409e-07	5.2226e-07	1084.7	209.47	6.5972e-07	4.5879e-07	256.72	77.041	60.534	18.196	5.7999e-07	25.316	36.906	35.011	26.906	-50.084	81.667	102.568	-50.060	-42.453	116.916	91.124	-42.810	-36.149	-35.596	-28.269	94.260	-28.974	-8191	255	
1136.924	1	1	0	0	0.13564	0.13429	0.13328	0.32805	0.17669	0.1365	0.077039	0.19651	0.28994	0.18387	0.1618	0.18862	0.17843	0.1341	0.019974	0.12149	-3.1813	-3.7708	-3.1396	-4.2083	-3.4188	-3.2104	-4.0979	-3.3271	-3.6083	-3.8625	-3.2687	-4.0437	-3.5208	-3.4292	-4.15	-3.4	-30.923	3.683	201.116	213.573	292.224	-40.662	278.760	238.731	287.340	221.507	146.120	231.716	-45.489	116.688	133.978	80.489	0.00023017	0.00027569	8.0283e-05	1017.2	5.5845e-07	3.2033e-06	1105.3	210.7	3.2365e-06	3.0945e-06	266.03	77.37	60.338	17.96	1.8416e-06	25.262	8.7773e-05	5.0309e-05	1.4742e-05	1000.9	7.0152e-07	5.746e-07	1087.2	209.18	6.7051e-07	4.5008e-07	256.44	77.33	60.539	18.209	5.4509e-07	25.385	29.583	40.948	32.922	-50.052	113.869	74.342	-49.888	-42.625	72.881	89.035	-43.512	-35.995	-36.019	-28.350	57.990	-29.185	-8191	255	
1136.998	1	1	0	0	0.12869	0.067883	0.15086	0.16795	0.219	0.099499	0.3265	0.093053	0.07504	0.12536	0.02928	0.19465	0.26917	0.062602	0.18728	0.066907	-3.2854	-3.8458	-3.175	-3.9146	-3.5875	-3.3667	-4.1438	-3.4938	-3.4437	-4.0583	-3.2583	-3.8292	-3.7313	-3.5083	-4.1021	-3.5875	261.247	117.464	-52.612	243.026	129.685	201.234	240.379	201.394	76.658	57.443	-48.639	-10.230	197.975	235.960	19.079	226.500	0.00023028	0.00034561	8.022e-05	1022.3	2.7838e-06	2.1862e-06	1093.3	210.4	4.2245e-06	2.2617e-06	265.62	77.155	60.429	18.065	2.6226e-06	24.894	9.2007e-05	4.9426e-05	1.3922e-05	1002.7	6.7169e-07	5.2712e-07	1083.2	209.51	6.7321e-07	4.5474e-07	255.86	77.309	60.476	18.165	5.1452e-07	25.352	38.604	15.305	32.463	-49.901	110.407	98.373	-50.051	-42.339	105.833	71.503	-43.038	-36.241	-36.150	-28.955	89.969	-29.150	-8191	255	
1137.116	1	1	0	0	0.16605	0.14416	0.13984	0.25096	0.12259	0.13182	0.19345	0.18919	0.036377	0.11701	0.21686	0.060212	0.12774	0.16176	0.097889	0.21012	-3.1417	-4.0417	-3.4042	-4.0062	-3.8187	-3.0521	-4.1396	-3.6167	-3.4104	-4.0458	-3.2021	-3.7896	-3.8833	-3.3187	-3.8146	-3.5438	258.981	192.723	196.633	255.916	160.974	-16.439	3.296	162.294	270.488	108.760	-41.249	-58.333	175.811	260.173	285.832	-30.411	0.00021512	0.00023815	5.8474e-05	1015.1	1.9647e-06	2.1204e-06	1100.9	210.9	1.5433e-06	3.1379e-06	268.52	77.103	60.035	18.01	2.4505e-06	24.93	9.3292e-05	4.3432e-05	1.3711e-05	1000.6	6.9784e-07	4.8513e-07	1085.6	209.93	7.1466e-07	4.1605e-07	256.96	77.22	60.422	18.167	5.5396e-07	25.248	46.617	20.619	50.277	-50.030	120.950	98.716	-49.945	-42.595	106.391	101.882	-42.103	-35.952	-35.717	-28.345	74.383	-29.459	-8191	255	
1137.213	1	1	0	0	0.1364	0.25098	0.11607	0.11716	0.019982	0.070521	0.26519	0.19693	0.2226	0.10908	0.23469	0.11669	0.36525	0.14107	0.10565	0.073861	-3.075	-4	-3.3458	-3.7771	-3.7854	-3.1937	-4.0042	-3.5917	-3.2188	-3.9437	-3.3667	-3.6083	-3.925	-3.1292	-3.9417	-3.8271	-16.755	239.132	137.632	217.923	289.893	-58.901	247.734	241.813	58.471	218.673	189.933	236.843	247.234	284.498	158.418	143.501	0.00023614	0.00019359	8.7318e-05	1016.7	2.0188e-06	2.5319e-06	1100.1	210.82	1.3986e-06	4.1556e-06	264.67	77.406	60.163	17.879	2.9884e-06	25.036	8.8998e-05	4.9279e-05	1.4598e-05	1000	6.9513e-07	5.6385e-07	1085.8	209.54	7.1563e-07	4.8249e-07	255.99	77.271	60.481	18.159	5.8867e-07	25.257	41.695	55.610	33.181	-49.983	107.776	71.094	-49.764	-42.301	12.899	86.472	-43.807	-35.962	-35.248	-28.433	109.005	-28.869	-8191	255	
1137.309	1	1	0	0	0.30341	0.20421	0.33085	0.23248	0.052026	0.15352	0.19031	0.12534	0.15284	0.19526	0.23376	0.27374	0.19732	0.2786	0.19828	0.15581	-2.7042	-4.0604	-3.2604	-3.7604	-3.9208	-3.1354	-3.9521	-3.7667	-3.2875	-3.9479	-3.4604	-3.4042	-4.2021	-3.2792	-3.8083	-3.8646	8.382	257.210	-17.479	235.788	109.402	174.265	258.434	220.129	134.171	41.893	233.090	266.233	197.830	-57.852	-7.947	9.777	0.00022882	0.00018105	9.3781e-05	1019	2.8507e-06	2.6222e-06	1092.2	210.23	1.8876e-06	2.7805e-06	264.91	77.371	60.559	17.895	2.3648e-06	24.833	9.5454e-05	3.9295e-05	1.2522e-05	1001.7	7.0133e-07	5.1881e-07	1083.8	209.14	6.547e-07	4.3023e-07	255.83	77.292	60.654	18.157	5.7763e-07	25.227	49.529	40.263	55.481	-50.111	96.727	74.234	-49.926	-42.508	79.595	108.303	-42.880	-36.200	-35.341	-28.141	74.882	-29.134	-8191	255	
1137.429	1	1	0	0	0.37832	0.10614	0.15216	0.15884	0.076405	0.15459	0.18406	0.090452	0.21485	0.19676	0.11813	0.087179	0.17671	0.0065354	0.46746	0.17109	-2.7479	-4.1458	-3.3333	-3.3458	-4.1042	-3.2396	-3.8083	-3.8729	-3.2396	-4.0542	-3.6833	-3.5625	-4.1312	-3.4104	-3.7438	-3.9396	245.476	33.502	70.724	196.036	201.741	123.582	258.568	216.819	254.318	40.759	209.020	209.132	292.819	88.043	168.205	160.854	0.00021624	0.00029685	4.9848e-05	1019.4	3.6901e-06	2.6811e-06	1095.4	211.58	1.1066e-06	3.2621e-06	263.26	76.747	60.199	18.024	3.2437e-06	25.258	9.0071e-05	4.5694e-05	1.3296e-05	1001.6	6.7654e-07	5.9023e-07	1082.4	209.86	7.1794e-07	5.0457e-07	254.35	77.141	60.351	18.137	6.5671e-07	25.31	31.743	33.835	20.707	-49.927	84.937	81.815	-49.792	-42.337	115.190	93.268	-41.947	-36.025	-35.686	-28.388	91.239	-28.723	-8191	255	
1137.525	1	1	0	0	0.21888	0.1397	0.059191	0.29699	0.24189	0.21531	0.096917	0.28852	0.32042	0.080413	0.05706	0.12183	0.26263	0.16924	0.21627	0.20395	-2.7333	-3.8937	-3.5312	-3.5542	-4.0729	-3.3771	-3.6542	-3.9333	-3.3229	-3.9146	-3.6646	-3.2708	-4.1167	-3.3396	-3.4542	-3.8937	127.997	5.629	-7.692	-16.713	189.432	187.204	284.224	279.875	209.029	223.738	297.842	274.672	-56.203	42.849	-16.299	-45.486	0.0001912	0.00020535	7.1845e-05	1017.8	2.7576e-06	2.7556e-06	1097.2	211.53	2.3357e-06	2.8151e-06	261.17	77.4	60.683	17.943	2.9821e-06	25.086	9.6225e-05	4.7183e-05	1.2465e-05	999.14	6.6569e-07	5.046e-07	1082.9	209.57	7.004e-07	4.8796e-07	253.36	77.156	60.402	18.127	5.8551e-07	25.308	32.067	18.401	20.147	-49.958	97.114	102.629	-50.015	-42.145	66.735	111.063	-42.947	-35.999	-35.748	-28.583	121.570	-29.027	-8191	255	
1137.622	1	1	0	0	0.069852	0.20892	0.039402	0.20332	0.12235	0.036221	0.24701	0.28356	0.17357	0.2001	0.087062	0.25194	0.10074	0.11065	0.086065	0.15344	-2.6521	-3.7896	-3.7062	-3.4437	-3.9313	-3.2875	-3.5667	-3.9958	-3.2812	-3.8229	-3.7729	-3.2313	-3.9396	-3.5062	-3.5187	-3.9625	-6.794	-5.404	245.798	250.088	229.225	199.348	210.308	150.463	188.973	15.035	62.290	-38.912	-4.028	98.828	221.467	288.052	0.00021777	0.00026297	0.00010405	1016.3	3.9003e-06	1.8443e-06	1098.4	210.64	3.3219e-06	2.1876e-06	269.39	77.495	60.569	18.111	2.7454e-06	24.881	9.5167e-05	4.9813e-05	1.4091e-05	997.7	6.7789e-07	4.6139e-07	1082.1	209.18	6.9095e-07	4.7641e-07	256.47	77.306	60.534	18.157	6.3659e-07	25.221	19.660	26.282	40.544	-49.580	93.655	50.172	-49.635	-42.345	125.785	52.079	-43.310	-36.040	-35.662	-28.625	80.181	-29.018	-8191	255	
1137.718	1	1	0	0	0.14163	0.17134	0.15659	0.26507	0.21586	0.064659	0.25799	0.048996	0.24752	0.22243	0.26785	0.11783	0.14436	0.047745	0.18204	0.11332	-2.8563	-3.7229	-3.7812	-3.3667	-3.9	-3.6604	-3.4646	-4.1521	-3.1271	-3.6833	-3.7896	-3.2917	-3.9042	-3.5021	-3.2896	-4.0021	29.217	69.364	144.668	218.038	-31.858	129.419	295.051	276.856	245.328	-57.215	120.438	207.786	236.158	245.736	187.391	290.607	0.00019587	0.00019093	7.339e-05	1015.2	2.5076e-06	3.6778e-06	1096.8	210.66	3.2645e-06	3.1371e-06	262.96	77.029	61.012	17.838	1.7317e-06	25.228	9.0389e-05	4.7532e-05	1.2127e-05	997.64	6.6685e-07	5.2286e-07	1081.7	209.61	7.671e-07	4.9343e-07	253.81	77.161	60.602	18.093	6.0543e-07	25.358	25.816	39.843	2.275	-49.665	102.458	83.418	-49.857	-42.301	116.675	96.164	-42.931	-36.120	-35.460	-28.132	71.213	-28.893	-8191	255	
1137.814	1	1	0	0	0.23646	0.19799	0.043946	0.24419	0.11137	0.11786	0.31814	0.27218	0.17407	0.21155	0.16503	0.16732	0.13899	0.18356	0.33154	0.10518	-2.8542	-3.5479	-3.9938	-3.3104	-3.8542	-3.7812	-3.475	-4.2125	-3.4417	-3.6125	-3.9813	-3.1167	-3.9562	-3.825	-3.2292	-4.2188	244.302	-58.366	-19.724	245.348	36.469	271.347	243.049	271.722	-41.285	-39.770	-0.233	-16.397	10.885	15.550	54.489	227.758	0.00028401	0.00023568	8.9754e-05	1014.8	1.9913e-06	2.7903e-06	1096.4	211.84	1.7337e-06	1.7038e-06	265.99	76.823	60.48	17.983	2.2872e-06	25.114	9.3609e-05	4.722e-05	1.3665e-05	997.06	6.4245e-07	5.1941e-07	1080.6	209.48	7.137e-07	4.8978e-07	255.67	77.066	60.419	18.111	6.0662e-07	25.366	34.140	41.434	16.706	-49.701	85.840	91.308	-49.686	-42.092	109.674	85.866	-43.112	-35.695	-35.129	-28.333	72.434	-28.642	-8191	255	
1137.910	1	1	0	0	0.1594	0.18936	0.22788	0.17274	0.19069	0.1813	0.22133	0.17796	0.11564	0.33981	0.13415	0.039997	0.22033	0.10613	0.20213	0.086701	-3.1312	-3.5292	-3.8979	-3.3167	-3.6896	-3.8646	-3.4458	-3.8438	-3.4375	-3.3729	-4.0229	-3.2771	-3.5687	-3.8917	-3.1208	-4.0604	200.996	166.725	247.088	204.182	103.949	96.688	253.857	-38.060	-43.564	203.760	67.743	-6.796	16.844	197.857	169.196	-26.114	0.00024516	0.0002342	0.00011345	1015.9	2.9595e-06	2.7054e-06	1096.8	211.02	2.1913e-06	2.3141e-06	267.12	77.578	60.429	18.074	2.8121e-06	25.176	8.7788e-05	4.9629e-05	1.3706e-05	997.51	7.5711e-07	4.8188e-07	1081	209.52	6.9018e-07	5.1085e-07	255.61	77.195	60.55	18.211	5.9833e-07	25.411	40.732	34.901	42.676	-49.804	112.960	90.608	-49.535	-42.177	131.160	89.728	-42.568	-35.875	-35.527	-28.339	96.820	-28.733	-8191	255	
1138.029	1	1	0	0	0.17717	0.086701	0.3274	0.216	0.33068	0.10425	0.24739	0.052731	0.23667	0.028422	0.16132	0.10441	0.032123	0.053021	0.27912	0.1101	-3.0729	-3.2354	-4.0563	-3.5042	-3.7687	-4.0125	-3.3729	-3.9688	-3.6146	-3.3083	-3.975	-3.575	-3.625	-4.0312	-3.1542	-3.9625	-24.099	21.930	112.662	283.660	95.590	49.200	220.462	80.922	258.704	-20.102	-23.431	-38.446	34.523	251.194	292.655	276.036	0.00024509	0.00022484	9.5852e-05	1013.9	2.4921e-06	3.2686e-06	1096.1	211.63	1.6787e-06	2.6677e-06	266.24	77.539	59.926	17.869	1.5055e-06	25.133	9.0041e-05	5.0015e-05	1.2886e-05	996.34	6.3954e-07	4.4637e-07	1080.8	209.11	6.2328e-07	5.9248e-07	255.65	77.202	60.276	18.093	6.0819e-07	25.407	27.547	49.671	35.773	-49.653	119.375	63.324	-49.780	-41.910	127.913	75.443	-41.808	-35.810	-35.288	-28.003	72.598	-29.002	-8191	255	
1138.125	1	1	0	0	0.16378	0.085643	0.072819	0.15162	0.17142	0.12968	0.033017	0.11142	0.13885	0.022593	0.20274	0.19189	0.26016	0.1456	0.069551	0.021963	-3.3479	-3.4354	-4.1354	-3.4958	-3.4875	-4.0312	-3.3854	-3.9125	-3.8792	-3.1667	-4.1146	-3.425	-3.5271	-4.1417	-3.425	-3.7667	205.158	-53.413	-16.529	262.828	160.154	125.532	42.391	222.474	123.711	-33.162	21.588	40.672	-34.964	-47.963	49.358	13.780	0.00024514	0.00024846	7.764e-05	1017.9	2.0098e-06	2.8302e-06	1091.2	210.94	3.4227e-06	3.0412e-06	266.58	76.65	60.698	17.887	2.5082e-06	25.091	8.6805e-05	5.3306e-05	1.264e-05	998.42	6.9513e-07	4.9831e-07	1078	209.2	6.173e-07	5.8701e-07	255.74	76.782	60.568	18.088	6.1727e-07	25.403	43.968	38.827	14.433	-49.656	107.139	88.512	-49.776	-42.131	109.426	122.925	-42.748	-35.836	-35.408	-28.405	89.410	-28.648	-8191	255	
1138.221	1	1	0	0	0.19508	0.04122	0.11857	0.10613	0.088248	0.20114	0.22701	0.25918	0.2269	0.084423	0.072111	0.072765	0.18049	0.23888	0.16738	0.1758	-3.5146	-3.0812	-3.9292	-3.5125	-3.3104	-4.1188	-3.4333	-3.8521	-3.9875	-3.3042	-4.0604	-3.7333	-3.3167	-4.2104	-3.3271	-3.6417	105.799	258.554	69.483	73.197	-59.662	172.655	268.453	294.920	282.868	259.310	146.209	211.002	239.536	247.770	-35.840	252.266	0.00019073	0.00025473	5.5519e-05	1009.3	1.6538e-06	1.6308e-06	1099.9	210.49	1.8567e-06	2.4424e-06	260.11	76.774	60.317	18.029	2.2008e-06	25.227	8.304e-05	5.0401e-05	1.2876e-05	995.03	7.2186e-07	4.0336e-07	1079	209.06	6.7938e-07	5.625e-07	253.99	77.277	60.484	18.167	5.8985e-07	25.365	24.361	21.627	35.524	-49.683	131.555	66.466	-49.704	-41.746	98.929	92.235	-42.456	-35.728	-34.763	-28.255	68.558	-28.683	-8191	255	
1138.293	1	1	0	0	0.020164	0.16033	0.16828	0.1068	0.17609	0.12599	0.13834	0.27063	0.16307	0.1856	0.071458	0.16848	0.23658	0.034294	0.37518	0.10225	-3.6646	-3.2083	-3.8125	-3.7854	-3.2812	-4.0667	-3.5021	-3.7188	-4.1208	-3.2854	-3.9708	-3.8812	-3.4	-4.1562	-3.5292	-3.5458	242.572	97.156	289.113	229.358	16.815	206.521	196.745	264.904	202.912	265.311	-38.367	235.911	-21.835	217.080	276.112	59.786	0.0002687	0.00020654	9.5195e-05	1011.7	2.5585e-06	3.1251e-06	1097.8	211	2.8885e-06	1.6292e-06	263.91	76.241	60.417	18.003	3.2957e-06	25.061	8.8e-05	5.11e-05	1.2414e-05	998.06	7.1527e-07	4.4394e-07	1079.1	209.28	6.4719e-07	4.7641e-07	255.16	77.04	60.407	18.159	6.1943e-07	25.311	29.287	66.580	40.337	-49.846	89.905	91.463	-49.777	-41.949	97.719	104.794	-44.244	-35.784	-34.994	-28.290	104.135	-28.112	-8191	255	
1138.389	1	1	0	0	0.21114	0.047305	0.060886	0.092844	0.25302	0.075122	0.060131	0.14505	0.087798	0.11811	0.10207	0.12663	0.017225	0.2534	0.087385	0.066856	-3.4333	-3.1667	-3.95	-4.0979	-3.3542	-3.9167	-3.6583	-3.5792	-4.0521	-3.3312	-3.6708	-3.8604	-3.3646	-4.0354	-3.5563	-3.2771	102.827	89.431	-8.224	284.673	243.560	178.781	297.840	-43.188	76.566	-7.860	28.773	250.873	191.775	285.420	122.227	41.940	0.00021958	0.00025583	0.00010626	1008.1	2.4322e-06	2.8745e-06	1091.5	210.82	1.4241e-06	1.6447e-06	263.29	77.049	59.788	18.081	2.9844e-06	25.182	8.7017e-05	5.338e-05	1.3891e-05	995.17	7.6466e-07	4.7295e-07	1078.6	209.27	6.1094e-07	5.1652e-07	254.3	77.129	60.24	18.182	5.9557e-07	25.386	35.008	38.727	24.732	-49.820	91.077	63.809	-49.770	-42.088	100.064	120.987	-42.239	-35.970	-35.080	-28.084	105.949	-28.946	-8191	255	
1138.510	1	1	0	0	0.099731	0.11138	0.10357	0.20783	0.18933	0.071359	0.058134	0.23233	0.10743	0.087087	0.23207	0.070627	0.14038	0.25155	0.15053	0.19262	-3.8292	-3.4021	-3.6833	-4.0792	-3.1813	-4.1646	-3.7938	-3.4917	-4.0687	-3.3125	-3.6708	-4.025	-3.2812	-4.0563	-3.75	-3.4083	73.546	203.624	180.633	251.335	-48.980	84.008	101.718	262.642	280.403	210.559	223.147	101.824	-3.717	-43.612	9.554	-39.988	0.00026151	0.00028092	5.2759e-05	1014	2.6479e-06	2.3635e-06	1093.9	211.72	2.9707e-06	3.0325e-06	264.76	77.485	60.802	18.055	2.3532e-06	24.94	8.2103e-05	5.2828e-05	1.3475e-05	997.08	7.4181e-07	4.6301e-07	1077.7	209.58	6.1094e-07	5.068e-07	254.33	77.105	60.601	18.179	5.2339e-07	25.262	48.204	18.719	32.196	-49.840	86.937	114.427	-49.641	-41.871	49.264	87.458	-43.491	-35.748	-35.516	-28.142	73.605	-28.400	-8191	255	
1138.606	1	1	0	0	0.10153	0.09539	0.038485	0.087726	0.23917	0.23757	0.23363	0.076745	0.16534	0.10108	0.092978	0.13133	0.1305	0.18444	0.21592	0.20335	-3.6854	-3.4104	-3.4354	-4.1646	-3.2167	-3.8604	-3.9521	-3.2938	-3.9125	-3.5833	-3.3208	-4.1354	-3.3792	-3.8875	-4.0667	-3.1958	-25.949	36.577	171.947	22.580	138.236	59.119	248.949	-37.424	61.109	133.874	218.788	-12.558	205.269	42.617	116.274	140.088	0.00025488	0.00031358	9.6322e-05	1012.4	8.3192e-07	2.6961e-06	1091.4	210.82	3.0988e-06	2.4291e-06	267.08	77.198	60.352	17.983	3.2586e-06	25.139	8.1952e-05	4.4719e-05	1.4619e-05	995.57	6.9513e-07	4.4637e-07	1079.3	209.26	6.3851e-07	4.6264e-07	256.4	77.151	60.243	18.159	5.3187e-07	25.331	30.235	36.706	37.244	-49.967	83.879	98.574	-49.686	-41.854	100.968	98.696	-42.084	-36.002	-35.086	-28.135	111.282	-28.412	-8191	255	
1138.702	1	1	0	0	0.27667	0.31965	0.044448	0.27031	0.18986	0.11209	0.03997	0.13963	0.084139	0.14987	0.12135	0.049241	0.099072	0.15846	0.14347	0.1201	-3.7188	-3.4813	-3.5208	-4.2208	-3.3146	-3.5979	-4.1375	-3.2792	-3.95	-3.6458	-3.0417	-4.125	-3.5146	-3.6542	-3.9979	-3.2875	275.611	26.565	77.285	-42.414	143.221	236.282	258.377	202.068	217.778	176.896	-5.291	210.689	-17.843	215.037	23.056	6.454	0.00026676	0.00026331	8.123e-05	1010	3.7797e-06	2.5026e-06	1091.6	212.09	2.29e-06	3.1626e-06	268.13	77.281	60.391	18.099	2.0592e-06	25.072	9.1175e-05	4.2605e-05	1.3865e-05	995.77	6.6976e-07	4.9243e-07	1077.6	209.43	6.416e-07	5.1065e-07	256.61	77.089	60.311	18.148	5.1196e-07	25.349	29.266	7.607	37.882	-49.687	109.294	80.977	-49.467	-42.271	106.626	98.005	-43.390	-35.811	-35.637	-28.083	78.509	-28.395	-8191	255	
1138.798	1	1	0	0	0.20733	0.092725	0.057268	0.23102	0.18867	0.14149	0.084503	0.23155	0.17371	0.18903	0.091444	0.085601	0.22138	0.094942	0.046377	0.11004	-3.6104	-3.5625	-3.3917	-4.0687	-3.4792	-3.7042	-4.0625	-3.225	-3.9271	-3.7333	-3.2812	-3.9896	-3.4896	-3.5083	-4.0042	-3.3542	258.832	159.429	217.051	265.708	245.555	102.372	240.362	26.820	160.656	105.787	209.095	190.966	97.771	-55.329	95.230	-5.110	0.00021356	0.00018244	8.5543e-05	1012.7	2.7157e-06	3.6983e-06	1098.4	210.01	3.5992e-06	3.1125e-06	271.92	76.855	60.411	18.058	2.3989e-06	25.112	8.0742e-05	4.4848e-05	1.324e-05	997.03	6.6879e-07	4.762e-07	1080.3	209.06	6.7206e-07	4.9323e-07	257.58	76.917	60.297	18.184	5.4449e-07	25.307	40.671	27.008	46.474	-49.488	116.848	84.403	-49.539	-42.051	79.293	92.334	-42.140	-35.731	-35.177	-28.093	89.164	-28.615	-8191	255	
1138.917	1	1	0	0	0.18724	0.22953	0.23845	0.17436	0.20565	0.018332	0.30855	0.10156	0.18079	0.37651	0.18923	0.18026	0.10711	0.093329	0.20266	0.20492	-3.4625	-3.6625	-3.2542	-4.0542	-3.5167	-3.3021	-4.2292	-3.3021	-3.7646	-3.8458	-3.2729	-4.0229	-3.6229	-3.3063	-4.0292	-3.3708	294.152	120.115	133.495	-11.083	-1.216	116.071	170.537	-46.445	91.807	209.077	163.007	233.580	179.783	184.250	143.089	-43.690	0.00020301	0.00030169	4.4372e-05	1014.2	3.2795e-06	2.5168e-06	1094.6	210.55	3.3438e-06	2.6032e-06	267.19	76.973	60.252	18.026	2.2809e-06	25.12	8.6836e-05	5.2368e-05	1.3506e-05	997	7.6369e-07	5.2307e-07	1076.6	209.05	7.1119e-07	4.276e-07	256.19	77.111	60.298	18.201	5.019e-07	25.294	34.695	25.632	1.850	-49.442	101.557	95.650	-49.523	-41.978	100.286	128.739	-42.719	-35.795	-34.837	-27.829	70.071	-28.293	-8191	255	
1138.990	1	1	0	0	0.25468	0.14059	0.068182	0.2266	0.092709	0.34633	0.12512	0.32653	0.083911	0.12151	0.095759	0.10168	0.19802	0.12821	0.047707	0.20279	-3.2958	-4.0062	-3.075	-4.0271	-3.4646	-3.2	-4.2958	-3.6167	-3.5771	-4.1167	-3.1208	-3.9813	-3.7854	-3.2979	-4.1958	-3.3875	86.770	259.346	113.831	-13.050	248.993	263.394	169.736	262.909	203.404	147.869	197.465	291.855	299.359	91.226	14.785	237.045	0.0002139	0.00036067	5.7743e-05	1012	3.7714e-06	1.9463e-06	1091.5	210.2	2.7963e-06	2.4336e-06	263.65	76.933	59.87	17.975	2.4456e-06	25.091	8.924e-05	4.5804e-05	1.4568e-05	996.87	7.1392e-07	5.4741e-07	1078.9	209.12	6.8748e-07	5.0518e-07	254.17	77.215	60.318	18.127	5.4272e-07	25.293	38.676	62.197	16.711	-49.530	108.695	79.696	-49.573	-42.091	77.467	106.965	-42.622	-35.661	-35.306	-28.345	88.498	-28.145	-8191	255	
1139.109	1	1	0	0	0.078331	0.08489	0.13542	0.20558	0.13597	0.15057	0.072791	0.22641	0.11888	0.17066	0.16587	0.14768	0.32789	0.21534	0.1375	0.080462	-3.2208	-3.9646	-3.3042	-4.0042	-3.7521	-3.2479	-4.1479	-3.5	-3.5229	-4.0771	-3.1854	-3.7812	-3.9708	-3.2417	-3.9917	-3.5792	-16.625	91.493	-29.092	-54.179	297.900	287.639	99.493	270.203	-21.622	212.825	16.416	-27.707	-33.458	257.187	132.812	21.501	0.00017478	0.00017099	6.228e-05	1011.2	3.9597e-06	3.5068e-06	1097.5	211.16	1.7959e-06	3.2085e-06	269.42	76.937	59.78	18.025	2.0984e-06	25.116	8.9361e-05	4.5105e-05	1.384e-05	994.91	6.775e-07	5.0683e-07	1080.9	209.26	7.4435e-07	4.2598e-07	257.35	77.096	60.158	18.148	5.1038e-07	25.25	36.950	42.003	41.662	-49.330	83.034	82.928	-49.285	-41.719	107.229	95.798	-43.457	-35.555	-35.002	-27.835	61.712	-28.668	-8191	255	
1139.205	1	1	0	0	0.17518	0.097515	0.071672	0.38039	0.12406	0.27651	0.013974	0.12835	0.082308	0.24448	0.093719	0.096015	0.2427	0.045949	0.13585	0.12054	-3.1146	-4.0833	-3.3542	-3.8292	-4.1792	-3.2333	-4.1354	-3.6958	-3.525	-3.9292	-3.3125	-3.7229	-3.9125	-3.2979	-3.9521	-3.7583	-4.344	235.114	22.062	-54.972	277.833	-9.595	25.360	149.478	-42.500	291.068	69.289	4.177	183.297	-49.041	47.507	137.762	0.00019914	0.00024775	7.0281e-05	1019.9	1.973e-06	3.0086e-06	1096.5	212.08	2.1758e-06	4.2546e-06	262.98	77.345	60.565	18.004	1.3078e-06	25.196	9.3337e-05	3.8872e-05	1.3829e-05	999.89	6.3373e-07	5.0988e-07	1079.2	209.12	7.2912e-07	4.7094e-07	256.48	77.362	60.291	18.165	5.6145e-07	25.427	31.078	27.068	34.622	-49.420	96.800	101.214	-49.105	-41.564	144.521	91.888	-42.122	-35.557	-34.760	-27.677	110.051	-28.500	-8191	255	
#DATA ENDS
