BOXY.EXE: ISS Imagent and Oximeter Data Acquisition Program Version 0.80
Ascii Record File

#ACQ INFORMATION
2  Detector Channels 
16  External MUX Channels 
1  Auxiliary Channels 
5000  Waveform (CCF) Frequency (Hz)
1  Waveforms Skipped 
30  Waveforms Averaged 
1  Cycles Averaged 
16  Acquisitions per Waveform 
10.0806  Updata Rate (Hz) 

#FILE INFORMATION
TRUE -- External MUX Channel results are PARSED.
FALSE -- AC DC and Phase are NOT grouped.
TRUE -- Companion Program Settings File CREATED.
FALSE -- AC data not excluded
FALSE -- DC data not excluded
FALSE -- Phase data not excluded
FALSE -- Auxillary Chn. data not excluded
Tab delimiters

#CALIBRATION STATE
TRUE -- Waveform Calibration Values APPLIED.


#AUX CALIBRATION VALUES
Val Type	aux-1	

Term	1.0000e+00	
Factor	0.0000e+00	


#WF CALIBRATION VALUES
A = Detector Channel
Val Type	A-AC1	A-AC2	A-AC3	A-AC4	A-AC5	A-AC6	A-AC7	A-AC8	A-AC9	A-AC10	A-AC11	A-AC12	A-AC13	A-AC14	A-AC15	A-AC16	A-DC1	A-DC2	A-DC3	A-DC4	A-DC5	A-DC6	A-DC7	A-DC8	A-DC9	A-DC10	A-DC11	A-DC12	A-DC13	A-DC14	A-DC15	A-DC16	A-Ph1	A-Ph2	A-Ph3	A-Ph4	A-Ph5	A-Ph6	A-Ph7	A-Ph8	A-Ph9	A-Ph10	A-Ph11	A-Ph12	A-Ph13	A-Ph14	A-Ph15	A-Ph16	

Term	0.00000e+00	0.00000e+00	0.00000e+00	0.00000e+00	0.00000e+00	0.00000e+00	0.00000e+00	0.00000e+00	0.00000e+00	0.00000e+00	0.00000e+00	0.00000e+00	0.00000e+00	0.00000e+00	0.00000e+00	0.00000e+00	0.00000e+00	0.00000e+00	0.00000e+00	0.00000e+00	0.00000e+00	0.00000e+00	0.00000e+00	0.00000e+00	0.00000e+00	0.00000e+00	0.00000e+00	0.00000e+00	0.00000e+00	0.00000e+00	0.00000e+00	0.00000e+00	0.00000e+00	0.00000e+00	0.00000e+00	0.00000e+00	0.00000e+00	0.00000e+00	0.00000e+00	0.00000e+00	0.00000e+00	0.00000e+00	0.00000e+00	0.00000e+00	0.00000e+00	0.00000e+00	0.00000e+00	0.00000e+00	
Factor	1.00000e+00	1.00000e+00	1.00000e+00	1.00000e+00	1.00000e+00	1.00000e+00	1.00000e+00	1.00000e+00	1.00000e+00	1.00000e+00	1.00000e+00	1.00000e+00	1.00000e+00	1.00000e+00	1.00000e+00	1.00000e+00	1.00000e+00	1.00000e+00	1.00000e+00	1.00000e+00	1.00000e+00	1.00000e+00	1.00000e+00	1.00000e+00	1.00000e+00	1.00000e+00	1.00000e+00	1.00000e+00	1.00000e+00	1.00000e+00	1.00000e+00	1.00000e+00	X	X	X	X	X	X	X	X	X	X	X	X	X	X	X	X	

B = Detector Channel
Val Type	B-AC1	B-AC2	B-AC3	B-AC4	B-AC5	B-AC6	B-AC7	B-AC8	B-AC9	B-AC10	B-AC11	B-AC12	B-AC13	B-AC14	B-AC15	B-AC16	B-DC1	B-DC2	B-DC3	B-DC4	B-DC5	B-DC6	B-DC7	B-DC8	B-DC9	B-DC10	B-DC11	B-DC12	B-DC13	B-DC14	B-DC15	B-DC16	B-Ph1	B-Ph2	B-Ph3	B-Ph4	B-Ph5	B-Ph6	B-Ph7	B-Ph8	B-Ph9	B-Ph10	B-Ph11	B-Ph12	B-Ph13	B-Ph14	B-Ph15	B-Ph16	

Term	0.00000e+00	0.00000e+00	0.00000e+00	0.00000e+00	0.00000e+00	0.00000e+00	0.00000e+00	0.00000e+00	0.00000e+00	0.00000e+00	0.00000e+00	0.00000e+00	0.00000e+00	0.00000e+00	0.00000e+00	0.00000e+00	0.00000e+00	0.00000e+00	0.00000e+00	0.00000e+00	0.00000e+00	0.00000e+00	0.00000e+00	0.00000e+00	0.00000e+00	0.00000e+00	0.00000e+00	0.00000e+00	0.00000e+00	0.00000e+00	0.00000e+00	0.00000e+00	-8.82690e+01	-1.42635e+02	-1.12445e+02	-1.85681e+02	-9.37183e+01	-9.60728e+01	-1.59412e+02	-1.62015e+02	-5.53355e+01	-8.96295e+01	-1.71360e+02	-1.68986e+02	-1.86800e+02	-1.77307e+02	-7.11187e+01	-1.50303e+02	
Factor	1.93732e-05	8.66701e-05	2.97722e-05	2.31231e-01	9.98951e-07	9.22260e-07	1.78994e-01	5.92349e-02	7.36728e-07	8.49038e-07	9.96673e-02	3.36700e-02	2.71889e-02	1.07909e-02	1.08767e-06	1.56297e-02	4.79868e-07	4.86975e-07	1.35843e-07	1.08386e-01	5.37163e-09	5.38858e-09	8.09458e-02	2.81770e-02	5.43546e-09	5.43929e-09	4.42687e-02	1.50702e-02	1.26050e-02	4.94180e-03	5.45345e-09	6.78308e-03	X	X	X	X	X	X	X	X	X	X	X	X	X	X	X	X	



#DISTANCE SETTINGS
A = Detector Channel
A-1	A-2	A-3	A-4	A-5	A-6	A-7	A-8	A-9	A-10	A-11	A-12	A-13	A-14	A-15	A-16	

2.5000e+00	3.0000e+00	2.5000e+00	3.0000e+00	2.0000e+00	3.0000e+00	1.5000e+00	3.0000e+00	3.0000e+00	3.0000e+00	3.0000e+00	3.0000e+00	3.0000e+00	3.0000e+00	1.5000e+00	3.0000e+00	

B = Detector Channel
B-1	B-2	B-3	B-4	B-5	B-6	B-7	B-8	B-9	B-10	B-11	B-12	B-13	B-14	B-15	B-16	

1.0000e+01	1.0000e+01	1.0000e+01	1.4400e+00	1.0000e+01	1.0000e+01	1.5100e+00	1.9400e+00	1.0000e+01	1.0000e+01	1.9900e+00	2.4900e+00	2.4100e+00	2.9000e+00	1.0000e+01	2.9800e+00	




#DATA BEGINS
time	group	step	mark	flag	A-AC1	A-AC2	A-AC3	A-AC4	A-AC5	A-AC6	A-AC7	A-AC8	A-AC9	A-AC10	A-AC11	A-AC12	A-AC13	A-AC14	A-AC15	A-AC16	A-DC1	A-DC2	A-DC3	A-DC4	A-DC5	A-DC6	A-DC7	A-DC8	A-DC9	A-DC10	A-DC11	A-DC12	A-DC13	A-DC14	A-DC15	A-DC16	A-Ph1	A-Ph2	A-Ph3	A-Ph4	A-Ph5	A-Ph6	A-Ph7	A-Ph8	A-Ph9	A-Ph10	A-Ph11	A-Ph12	A-Ph13	A-Ph14	A-Ph15	A-Ph16	B-AC1	B-AC2	B-AC3	B-AC4	B-AC5	B-AC6	B-AC7	B-AC8	B-AC9	B-AC10	B-AC11	B-AC12	B-AC13	B-AC14	B-AC15	B-AC16	B-DC1	B-DC2	B-DC3	B-DC4	B-DC5	B-DC6	B-DC7	B-DC8	B-DC9	B-DC10	B-DC11	B-DC12	B-DC13	B-DC14	B-DC15	B-DC16	B-Ph1	B-Ph2	B-Ph3	B-Ph4	B-Ph5	B-Ph6	B-Ph7	B-Ph8	B-Ph9	B-Ph10	B-Ph11	B-Ph12	B-Ph13	B-Ph14	B-Ph15	B-Ph16	aux-1	digaux	

1746.578	1	1	0	256	0.1095	0.19441	0.14448	0.062229	0.262	0.12397	0.15525	0.45831	0.087079	0.28553	0.15135	0.38309	0.14335	0.31111	0.06964	0.13754	-3.1604	-3.5292	-3.0458	-4.05	-3.2667	-3.5479	-4.1188	-3.1792	-3.7229	-3.6583	-3.1125	-3.8229	-3.4208	-3.2896	-4.0417	-3.175	-22.875	275.110	230.407	135.329	155.688	150.163	271.990	233.479	289.669	218.187	-27.629	52.452	-29.075	173.602	33.933	186.388	7.6284e-05	0.00020196	5.0255e-05	1116.3	2.3415e-06	1.1131e-06	1214.3	228.44	9.6539e-07	1.6954e-06	289.82	81.462	63.807	18.561	1.1598e-06	26.165	3.2659e-05	3.0725e-05	8.6614e-06	996.52	3.4735e-07	3.4498e-07	1112.2	207.71	3.3658e-07	3.379e-07	256.23	72.792	57.058	16.565	3.4557e-07	22.91	192.615	104.179	47.084	-22.059	100.197	8.897	-21.683	-14.440	238.917	88.205	-14.721	-7.718	-7.415	-0.234	123.951	-1.624	-8191	255	
1746.698	1	1	0	0	0.18517	0.093186	0.060829	0.35809	0.10921	0.1359	0.17442	0.062622	0.14763	0.14829	0.23513	0.17831	0.26728	0.037753	0.21583	0.19082	-3.3042	-3.6896	-3.1417	-3.8979	-3.5771	-3.225	-4.0833	-3.1813	-3.5417	-3.8708	-3.2292	-3.8417	-3.4917	-3.3521	-3.9917	-3.2583	274.475	159.105	107.583	239.697	138.034	80.712	259.854	300.387	134.413	-4.766	152.186	63.716	221.639	263.655	257.180	282.311	0.00010045	0.00013992	3.1923e-05	1116.5	2.8829e-06	2.2167e-06	1211.3	227.56	5.8726e-07	2.2244e-06	290.79	81.34	63.351	18.507	2.6414e-06	26.051	3.2681e-05	2.9659e-05	8.5708e-06	994.3	3.4525e-07	3.3885e-07	1111.2	207.49	3.4383e-07	3.308e-07	256.05	72.566	57.012	16.536	3.3895e-07	22.843	156.728	62.626	28.083	-21.914	98.979	154.236	-21.493	-14.735	186.586	130.145	-15.276	-7.543	-7.452	-0.024	130.026	-0.574	-8191	255	
1746.793	1	1	0	0	0.095054	0.11594	0.01646	0.14107	0.32527	0.21058	0.41055	0.033166	0.18602	0.03615	0.10668	0.11088	0.16156	0.1075	0.1715	0.15792	-3.0646	-3.7	-2.9562	-3.9062	-3.4083	-3.175	-4.1083	-3.2479	-3.2687	-3.9938	-3.15	-3.6333	-3.7333	-3.1146	-3.95	-3.5812	204.452	138.602	71.567	220.670	226.419	15.199	261.018	310.974	12.283	18.657	-23.317	-5.505	94.500	140.719	208.657	2.240	9.7968e-05	0.00013412	5.3421e-05	1112.1	2.4836e-06	1.3543e-06	1213.5	229.18	7.0408e-07	6.632e-07	291.15	81.56	63.882	18.363	1.5668e-06	26.177	3.2464e-05	3.0184e-05	8.6424e-06	993.87	3.424e-07	3.4238e-07	1113.6	208.24	3.5153e-07	3.3174e-07	256.3	72.525	57.202	16.474	3.3756e-07	22.935	171.306	120.158	88.262	-22.133	121.226	141.098	-21.598	-14.428	179.743	121.207	-15.050	-7.353	-7.600	-0.617	144.363	-1.186	-8191	255	
1746.866	1	1	0	0	0.06049	0.29114	0.037088	0.07552	0.05977	0.22703	0.18553	0.21545	0.15238	0.16185	0.22505	0.077316	0.24343	0.17352	0.11855	0.243	-2.8208	-3.9479	-3.0792	-3.8563	-3.7021	-3.1771	-3.9083	-3.5354	-3.3063	-4.0375	-3.2521	-3.5875	-3.7229	-2.925	-3.7354	-3.6333	-7.122	257.392	323.627	-27.884	96.118	171.627	267.624	180.918	257.044	295.219	27.519	307.734	0.106	74.612	56.410	161.996	0.00012464	4.7365e-05	5.694e-05	1108.3	2.384e-06	5.2759e-07	1219.9	226.94	1.1714e-06	1.0869e-06	289.6	81.303	63.596	18.565	2.8412e-06	26.006	3.3579e-05	3.0284e-05	8.3246e-06	992.58	3.4365e-07	3.3538e-07	1114.5	207.54	3.4785e-07	3.3685e-07	255.63	72.628	57.041	16.53	3.3909e-07	22.879	165.394	114.348	120.612	-22.103	74.688	63.321	-21.267	-14.787	142.670	47.644	-14.719	-7.384	-7.439	-0.511	120.251	-1.073	-8191	255	
1746.962	1	1	0	0	0.27895	0.071686	0.025341	0.122	0.089125	0.14688	0.19901	0.13271	0.20122	0.047064	0.098399	0.20131	0.13238	0.094565	0.091395	0.13447	-2.7542	-3.9667	-3.1229	-3.4979	-4.0062	-3.0854	-3.9813	-3.6083	-3.1625	-3.8708	-3.2521	-3.3604	-3.9625	-3.1229	-3.7646	-3.7104	298.019	108.094	75.635	257.705	93.373	128.647	-31.911	152.801	181.730	111.985	24.297	263.768	25.449	260.136	195.911	152.000	9.5856e-05	6.9485e-05	4.532e-05	1108.5	1.7088e-06	2.8991e-06	1213.4	227.98	6.6844e-07	1.6285e-06	291.95	81.05	63.492	18.585	3.2238e-06	26.143	3.2598e-05	3.0014e-05	8.4559e-06	993.74	3.3962e-07	3.4064e-07	1111.9	207.76	3.553e-07	3.2934e-07	255.97	72.523	56.949	16.56	3.378e-07	22.893	171.393	323.704	72.960	-21.796	86.574	105.373	-21.619	-14.570	133.534	157.589	-14.728	-7.603	-7.740	-0.566	113.840	-1.178	-8191	255	
1747.081	1	1	0	0	0.13529	0.057895	0.077731	0.023137	0.18088	0.12984	0.12903	0.21552	0.17891	0.20698	0.12687	0.30797	0.18828	0.098302	0.20704	0.028211	-2.6667	-3.9354	-3.3438	-3.3417	-3.9313	-3.2167	-3.85	-3.7375	-3.2812	-4.0208	-3.4	-3.2958	-3.9792	-3.1562	-3.7062	-3.8021	21.380	253.229	169.553	18.780	100.477	292.009	304.412	310.164	251.946	71.595	176.953	318.764	291.294	78.211	262.749	293.852	7.8577e-05	0.00019861	4.699e-05	1116.4	1.8146e-06	1.9689e-06	1211.4	227.09	6.1412e-07	2.1178e-06	291.82	80.853	63.954	18.425	6.087e-07	26.126	3.2485e-05	3.0422e-05	8.3883e-06	994.42	3.3757e-07	3.3335e-07	1111.3	207.89	3.4178e-07	3.3075e-07	256.12	72.5	57.153	16.525	3.3072e-07	22.869	154.565	96.040	99.917	-21.869	122.453	93.731	-21.686	-14.325	116.045	145.667	-14.712	-7.498	-7.255	-0.513	211.139	-0.768	-8191	255	
1747.177	1	1	0	0	0.10996	0.17547	0.21984	0.30118	0.48576	0.020143	0.15472	0.44265	0.25562	0.099352	0.038095	0.203	0.13875	0.02781	0.11078	0.16639	-2.6833	-4.1042	-3.5167	-3.2104	-4.0229	-3.1042	-3.7354	-3.7208	-3.1208	-3.875	-3.5354	-3.3187	-3.9562	-3.225	-3.3688	-3.8521	3.678	90.089	84.922	265.883	211.222	292.648	8.110	170.474	172.819	197.441	240.012	292.091	252.846	277.364	267.743	242.772	9.385e-05	0.00038297	9.2147e-05	1113	1.4992e-06	1.2009e-06	1213.5	227.22	1.47e-06	1.521e-06	289.2	80.48	63.755	18.465	2.881e-06	26.224	3.3097e-05	3.028e-05	8.3467e-06	993.96	3.3612e-07	3.3194e-07	1113.1	207.66	3.4799e-07	3.3549e-07	255.53	72.252	57.121	16.557	3.4409e-07	22.967	165.417	58.144	37.983	-21.804	54.619	36.990	-21.541	-14.836	134.091	98.553	-14.773	-7.341	-7.547	-0.297	192.730	-1.120	-8191	255	
1747.274	1	1	0	0	0.14147	0.14087	0.13634	0.055146	0.18595	0.054627	0.23592	0.11046	0.30477	0.2879	0.26898	0.219	0.11009	0.12558	0.098785	0.22269	-2.7833	-3.7458	-3.5708	-3.2313	-3.8563	-3.3688	-3.6437	-4.0167	-3.0271	-3.7667	-3.8667	-3.1854	-4.0208	-3.4292	-3.2646	-4.0563	-15.194	217.171	261.069	173.290	276.650	286.260	281.786	317.947	132.448	31.071	162.027	251.908	-17.060	9.464	54.025	286.512	0.00010569	0.00014421	2.6095e-05	1113.9	2.3566e-06	1.8449e-06	1214.6	228.79	1.3522e-06	2.3513e-06	288.89	81.068	64.094	18.579	3.2144e-06	26.115	3.3276e-05	3.117e-05	8.3065e-06	994.37	3.4236e-07	3.3636e-07	1113.4	207.98	3.5116e-07	3.3513e-07	255.43	72.482	57.174	16.56	3.4325e-07	22.895	166.003	6.943	-1.487	-21.903	129.124	116.545	-21.453	-14.159	169.750	83.704	-14.860	-7.665	-7.041	-0.667	76.463	-0.615	-8191	255	
1747.370	1	1	0	0	0.031192	0.29361	0.055038	0.24598	0.12689	0.14141	0.23085	0.13953	0.083418	0.2185	0.17025	0.19986	0.16458	0.14463	0.23175	0.087592	-2.7771	-3.6646	-3.9229	-3.2354	-3.9542	-3.75	-3.3563	-4.025	-3.1542	-3.6979	-3.8438	-3.0583	-3.9979	-3.4979	-3.3958	-4.0354	195.447	72.474	270.160	289.414	123.417	327.507	260.170	155.172	31.334	275.007	271.814	232.237	239.251	254.703	283.590	129.149	0.00011173	0.00020617	6.83e-05	1112	2.6849e-06	2.9171e-06	1215.3	228.41	1.0809e-06	1.3347e-06	290.55	81.398	63.54	18.585	3.7435e-06	25.939	3.308e-05	2.9955e-05	8.3056e-06	993.23	3.3808e-07	3.2985e-07	1112.1	207.81	3.4138e-07	3.3441e-07	255.82	72.735	57.05	16.533	3.3726e-07	22.811	177.960	10.425	52.244	-21.676	121.933	90.845	-21.283	-14.310	162.726	45.391	-15.008	-7.797	-7.569	-0.757	174.523	-0.281	-8191	255	
1747.490	1	1	0	0	0.19784	0.32353	0.18944	0.071889	0.055998	0.11146	0.15739	0.24653	0.085129	0.25461	0.081896	0.16145	0.17236	0.020315	0.2827	0.1912	-2.8312	-3.75	-3.8083	-3.1813	-3.8292	-3.4917	-3.2396	-3.9229	-3.3812	-3.3083	-4.0625	-3.1271	-3.85	-3.7438	-3.1562	-4.2208	209.275	299.780	276.569	182.327	79.700	160.803	202.649	-3.426	83.237	138.582	75.858	250.620	22.837	-11.293	295.428	-21.045	8.4108e-05	0.0001452	8.9742e-05	1107.3	2.1359e-06	1.8971e-06	1212.2	227.67	2.3932e-06	1.0311e-06	289.16	81.146	63.765	18.69	1.3794e-06	26.176	3.1898e-05	2.9775e-05	8.2813e-06	993.33	3.3765e-07	3.3552e-07	1110.4	207.78	3.3875e-07	3.3575e-07	255.64	72.6	57.024	16.584	3.373e-07	22.937	175.599	92.606	77.496	-22.447	99.481	116.234	-21.978	-14.746	112.125	86.050	-14.955	-7.469	-7.480	-0.701	66.394	-1.168	-8191	255	
1747.562	1	1	0	0	0.15686	0.1877	0.078902	0.31092	0.087948	0.19552	0.18582	0.18163	0.14489	0.14018	0.20329	0.046785	0.14143	0.085603	0.10022	0.27108	-2.7979	-3.4542	-4.0104	-3.2208	-3.8312	-3.6271	-3.3854	-3.95	-3.3521	-3.3812	-4.2042	-3.2979	-3.6979	-3.9229	-3.1875	-4	142.900	192.776	177.127	-11.522	71.552	105.485	-32.166	284.156	260.855	62.409	125.939	18.342	23.436	30.421	-25.676	307.047	0.00010318	0.00026153	9.5279e-05	1105.6	1.5659e-06	1.8663e-06	1210.3	228.57	1.5068e-06	1.0063e-06	291.51	81.251	63.415	18.472	2.99e-06	25.915	3.2135e-05	3.0601e-05	8.2674e-06	991.6	3.3236e-07	3.2287e-07	1113	207.82	3.3816e-07	3.3265e-07	255.7	72.489	56.993	16.523	3.4325e-07	22.855	174.012	60.230	74.258	-22.262	151.696	77.177	-21.645	-14.385	73.771	62.851	-14.962	-7.514	-7.454	-0.137	100.695	-0.772	-8191	255	
1747.683	1	1	0	0	0.19232	0.026929	0.19092	0.24733	0.27321	0.08808	0.17047	0.14864	0.095599	0.084811	0.12428	0.20138	0.093801	0.029298	0.21119	0.26728	-3.0271	-3.4375	-3.9792	-3.2271	-3.7396	-3.9042	-3.1437	-4.0062	-3.6312	-3.15	-4.1208	-3.4479	-3.5563	-3.9521	-3	-3.8708	44.951	13.912	63.390	319.026	110.838	149.430	-25.961	316.980	53.729	303.200	-18.086	-3.867	316.676	54.172	59.603	232.947	8.6427e-05	0.00014182	4.0392e-05	1108.9	1.8235e-06	2.2405e-06	1210.2	227.51	8.8731e-07	8.8354e-07	290.32	80.814	63.549	18.598	2.0642e-06	26.318	3.1805e-05	2.9562e-05	8.2672e-06	992.66	3.3378e-07	3.2475e-07	1110.6	207.57	3.412e-07	3.3514e-07	255.66	72.344	57.128	16.533	3.2765e-07	22.946	176.314	13.188	90.989	-21.968	100.644	65.378	-21.596	-13.932	135.460	157.282	-14.647	-7.337	-7.002	-0.792	181.165	-0.732	-8191	255	
1747.779	1	1	0	0	0.12115	0.32097	0.18971	0.25025	0.12256	0.28165	0.068605	0.085711	0.12961	0.089748	0.15583	0.17532	0.21541	0.050347	0.12784	0.064164	-3.1708	-3.0292	-4.0833	-3.5062	-3.5125	-3.9354	-3.2604	-3.7917	-3.7021	-3.1271	-4.075	-3.4292	-3.3125	-3.7792	-3.1542	-3.7417	-30.468	319.620	96.480	327.909	0.705	167.370	97.142	321.927	72.762	162.724	155.704	180.987	202.165	272.613	92.571	191.958	0.00010807	8.8021e-05	7.5869e-05	1111.3	3.8267e-06	3.711e-06	1212.7	227.61	2.5538e-06	9.862e-07	288.56	80.653	63.298	18.509	1.3783e-06	26.183	3.1621e-05	3.008e-05	8.204e-06	994.33	3.424e-07	3.286e-07	1110.6	207.86	3.4272e-07	3.3692e-07	255.38	72.315	56.982	16.537	3.4093e-07	22.932	175.611	225.788	71.471	-22.084	132.881	117.568	-21.656	-14.084	136.558	107.125	-14.494	-7.738	-7.422	-0.365	140.660	-0.793	-8191	255	
1747.873	1	1	0	0	0.16583	0.097711	0.1547	0.13903	0.067054	0.21808	0.31287	0.12323	0.084432	0.2031	0.1575	0.23012	0.1472	0.18237	0.18082	0.16508	-3.4333	-3.1333	-4.0563	-3.5021	-3.3563	-3.925	-3.3208	-3.7208	-3.9292	-3.1333	-3.9167	-3.5542	-3.2333	-4.0646	-3.2271	-3.5104	10.268	236.841	8.343	245.208	50.319	170.646	282.024	21.108	269.907	227.034	213.527	67.572	-30.253	153.276	327.238	304.087	0.00012481	8.8049e-05	4.8365e-05	1114.5	7.0437e-07	2.3767e-06	1210	227.99	2.3972e-06	1.5491e-06	293.75	80.551	63.821	18.474	2.8791e-06	26.35	3.2003e-05	2.9917e-05	8.2748e-06	993.87	3.3757e-07	3.2183e-07	1111.2	207.92	3.3296e-07	3.3083e-07	256.28	72.235	57.127	16.531	3.3676e-07	22.911	182.949	30.972	100.550	-22.201	83.586	113.009	-21.748	-14.117	152.157	150.173	-14.620	-7.657	-7.049	-0.110	133.844	-0.566	-8191	255	
1747.969	1	1	0	0	0.050058	0.40074	0.080035	0.13618	0.093416	0.17004	0.27076	0.25817	0.10425	0.025503	0.16007	0.11577	0.18533	0.064728	0.13322	0.20067	-3.4896	-3.1521	-3.8937	-3.6208	-3.1937	-3.9813	-3.4458	-3.7479	-3.9417	-2.9479	-3.7875	-3.6437	-3.2333	-4.15	-3.2812	-3.2812	229.451	1.096	134.250	308.738	58.220	262.061	276.302	37.205	70.251	237.546	43.933	-30.004	293.900	269.850	197.707	95.501	0.00010729	0.00010318	2.604e-05	1108.6	2.8885e-06	8.8294e-07	1205.1	226.96	1.5691e-06	1.2394e-06	289.38	80.586	63.201	18.666	8.4972e-07	26.002	3.1863e-05	2.9856e-05	8.1005e-06	991.23	3.4011e-07	3.2233e-07	1108.4	207.49	3.3575e-07	3.2852e-07	255.91	72.231	56.978	16.53	3.4112e-07	22.841	170.203	113.483	101.633	-21.679	126.604	40.694	-21.418	-14.302	161.806	211.047	-14.447	-7.167	-7.495	0.091	83.776	-0.633	-8191	255	
1748.090	1	1	0	0	0.012523	0.2225	0.094284	0.25011	0.27819	0.10735	0.16094	0.18266	0.16615	0.12441	0.21451	0.11112	0.14283	0.15424	0.15714	0.26409	-3.4625	-3.0896	-3.8187	-3.7396	-3.1167	-3.9896	-3.5563	-3.3958	-3.9896	-3.1688	-3.7625	-3.8292	-3.2687	-4.0167	-3.4521	-3.4875	183.898	269.565	10.980	316.880	167.311	96.431	294.315	139.537	86.497	-24.110	273.274	271.625	138.579	-17.839	23.257	262.527	8.2539e-05	0.0001193	3.0175e-05	1108.7	2.0475e-06	2.6899e-06	1214.8	227.58	1.9764e-06	9.9154e-07	290.05	80.801	63.347	18.505	3.528e-06	26.23	3.1267e-05	2.9753e-05	8.255e-06	991.54	3.3235e-07	3.1644e-07	1111.6	207.45	3.3861e-07	3.3252e-07	256.06	72.46	56.886	16.554	3.3326e-07	22.878	206.486	90.981	101.764	-21.847	130.037	79.825	-21.394	-13.999	123.926	63.425	-14.294	-7.232	-7.174	-0.380	160.489	-0.735	-8191	255	
1748.162	1	1	0	0	0.11377	0.11877	0.29012	0.077023	0.17191	0.19786	0.1587	0.070672	0.11086	0.27014	0.2811	0.19343	0.052005	0.09772	0.10356	0.094571	-3.675	-3.2375	-3.5542	-4.0229	-3.0771	-4	-3.8187	-3.2958	-3.9688	-3.1208	-3.5563	-4.125	-3.2479	-3.7646	-3.6667	-3.3104	109.312	-11.903	82.173	156.011	37.461	94.650	213.990	67.621	315.727	67.072	326.683	156.389	80.474	207.686	225.790	94.182	0.00012912	0.00013267	5.9449e-05	1110.6	1.7209e-06	1.3614e-06	1210.9	228.43	1.5198e-06	2.545e-06	288.85	81.117	63.26	18.39	1.6704e-06	26.312	3.1566e-05	2.8995e-05	8.0761e-06	992.57	3.4054e-07	3.196e-07	1111.1	207.75	3.2956e-07	3.3175e-07	255.38	72.325	56.9	16.512	3.3593e-07	22.944	164.935	50.456	131.850	-21.421	130.033	136.833	-21.182	-14.163	172.160	101.472	-14.398	-7.271	-7.233	-0.192	102.079	-0.275	-8191	255	
1748.258	1	1	0	0	0.071378	0.25047	0.24452	0.11886	0.05489	0.12321	0.46639	0.11998	0.14118	0.070008	0.15379	0.19359	0.02739	0.15396	0.038882	0.091434	-3.5687	-3.3042	-3.2229	-4.0333	-3.2562	-3.8292	-3.8563	-3.2687	-3.925	-3.4896	-3.4854	-4.1292	-3.2521	-3.7313	-3.6521	-3.1854	78.443	146.575	231.022	-29.163	70.428	226.056	236.572	89.116	213.096	95.396	-9.984	85.439	63.349	135.182	-18.152	4.586	0.00010443	0.00019493	9.19e-05	1107.2	2.5085e-06	1.1913e-06	1210	227.62	9.2237e-07	1.8392e-06	290.54	80.689	63.509	18.554	3.0535e-06	26.386	3.1461e-05	3.0269e-05	8.3396e-06	991.65	3.3942e-07	3.1873e-07	1111.3	207.6	3.3729e-07	3.2772e-07	255.31	72.246	56.879	16.529	3.3065e-07	22.933	167.252	25.185	84.682	-21.781	154.904	108.810	-21.414	-13.917	147.057	149.730	-14.176	-7.237	-7.144	0.002	165.048	-0.556	-8191	255	
1748.354	1	1	0	0	0.13282	0.22469	0.13107	0.14898	0.30075	0.1016	0.1856	0.1968	0.070098	0.041697	0.055067	0.11626	0.14887	0.25287	0.098107	0.14556	-3.5812	-3.5521	-3.2125	-4.0521	-3.2812	-3.5958	-3.9771	-3.1125	-3.9958	-3.4583	-3.2458	-4.1208	-3.2479	-3.6625	-3.9729	-3.2	10.201	44.772	117.064	245.017	260.592	297.805	298.964	286.355	321.024	212.913	2.382	224.858	-3.321	285.146	-12.543	190.756	8.6644e-05	8.624e-05	0.00012666	1109.1	2.3577e-06	8.3874e-07	1212.9	227.88	1.2626e-06	1.0727e-06	291.91	81.014	63.409	18.63	3.5774e-06	26.044	3.1052e-05	2.9506e-05	8.5227e-06	993.2	3.3485e-07	3.2672e-07	1110.9	207.6	3.3205e-07	3.2587e-07	255.83	72.541	56.965	16.57	3.245e-07	22.821	183.607	106.916	102.645	-21.503	121.816	105.146	-21.022	-13.770	144.329	116.578	-13.912	-7.170	-6.913	0.197	88.030	-0.351	-8191	255	
1748.475	1	1	0	0	0.21907	0.044019	0.14872	0.16185	0.0335	0.027865	0.38138	0.10953	0.11846	0.074905	0.10381	0.13566	0.19618	0.14279	0.084478	0.043794	-3.3771	-3.5312	-3.1417	-4.0646	-3.2	-3.6625	-4.1958	-3.3958	-3.6979	-3.7104	-3.1937	-4.0687	-3.3583	-3.375	-4.0625	-3.2104	57.467	45.947	249.087	31.742	100.109	19.493	249.935	114.422	59.506	91.393	233.737	307.724	58.588	225.858	40.516	-7.123	6.7099e-05	0.00014977	1.9521e-05	1110.5	1.0996e-06	1.9109e-06	1216	227.93	1.785e-06	1.8163e-06	290.58	80.596	63.202	18.46	1.3742e-06	26.291	3.1129e-05	2.9702e-05	8.4166e-06	993.26	3.4418e-07	3.2858e-07	1112.3	207.72	3.3154e-07	3.2351e-07	255.99	72.188	56.973	16.474	3.2885e-07	22.924	165.728	81.952	79.551	-21.194	124.794	87.377	-20.324	-13.276	179.393	57.910	-13.554	-6.248	-6.322	0.625	81.540	-0.276	-8191	255	
1748.571	1	1	0	0	0.27757	0.20469	0.11227	0.15356	0.095045	0.081638	0.23919	0.056915	0.087483	0.062866	0.17678	0.033407	0.24855	0.090571	0.13593	0.19064	-3.4771	-3.7979	-3.1521	-4.0875	-3.2354	-3.2667	-4.1937	-3.1896	-3.5375	-3.7979	-3.15	-4.0042	-3.4396	-3.2708	-3.9125	-3.2958	213.300	-24.598	290.817	-20.212	91.919	78.872	242.799	-31.127	130.761	274.289	167.698	135.351	318.805	304.947	253.209	85.111	9.9736e-05	0.00014031	4.1159e-05	1107.4	2.4902e-06	9.4873e-07	1209.7	227.72	2.4192e-06	1.5909e-06	289.6	80.521	63.706	18.542	1.6753e-06	25.921	3.1377e-05	3.0231e-05	8.3345e-06	991.84	3.3482e-07	3.2746e-07	1110.3	207.3	3.3775e-07	3.3298e-07	255.18	72.256	57.091	16.552	3.3201e-07	22.799	175.626	-13.789	92.063	-21.400	125.905	118.073	-20.889	-13.323	172.233	202.205	-14.165	-6.851	-6.563	0.566	65.969	-0.248	-8191	255	
1748.667	1	1	0	0	0.21399	0.20689	0.052062	0.15223	0.35437	0.13556	0.050629	0.14091	0.14872	0.081482	0.11033	0.20181	0.061636	0.1207	0.15061	0.18412	-3.2542	-3.8583	-3.2458	-4.1167	-3.5938	-3.2417	-3.9313	-3.3125	-3.6208	-3.9854	-3.0938	-3.8917	-3.6917	-3.0917	-4.0021	-3.2875	171.621	153.721	157.831	221.540	212.474	149.087	5.233	242.547	97.078	214.181	86.504	238.797	95.724	40.949	204.379	192.860	8.6001e-05	0.0002168	6.2885e-05	1112.9	1.7536e-06	2.5163e-06	1209.4	227.07	1.6898e-06	8.3539e-07	290.95	80.692	63.578	18.619	2.7745e-06	26.175	3.2496e-05	2.9559e-05	8.309e-06	993.39	3.3651e-07	3.3146e-07	1109.7	207.09	3.4272e-07	3.2902e-07	256.03	72.292	56.899	16.542	3.4199e-07	22.858	163.608	72.460	56.274	-21.624	59.975	103.640	-21.180	-14.387	169.379	124.085	-14.341	-7.493	-7.092	-0.353	114.089	-0.985	-8191	255	
1748.763	1	1	0	0	0.18243	0.025651	0.18541	0.13339	0.22186	0.18708	0.086715	0.24663	0.19948	0.16369	0.17166	0.28971	0.13399	0.18917	0.093562	0.19283	-3.0833	-3.9354	-3.1562	-3.8438	-3.7812	-3.1937	-4.1708	-3.425	-3.3354	-4.1292	-3.3438	-3.6937	-3.9	-3.2458	-3.9458	-3.4562	95.294	306.419	44.294	-5.515	25.509	224.351	280.185	190.157	276.715	85.574	324.878	258.782	87.633	15.749	270.115	-3.892	9.4629e-05	0.00011658	6.8649e-05	1107.6	1.6995e-06	2.0118e-06	1215	227.17	1.3259e-06	1.7074e-06	288.64	80.829	63.215	18.493	1.9673e-06	26.226	3.2393e-05	3.0026e-05	8.4203e-06	994.51	3.4231e-07	3.3813e-07	1112	207.48	3.4042e-07	3.2535e-07	255.21	72.499	56.801	16.515	3.3488e-07	22.846	209.574	33.367	66.565	-21.745	95.515	63.526	-21.041	-13.816	107.216	138.680	-14.130	-7.075	-7.075	0.240	115.999	-0.650	-8191	255	
1748.857	1	1	0	0	0.22307	0.12479	0.19772	0.18673	0.19116	0.12022	0.30787	0.063973	0.20676	0.10112	0.26268	0.3017	0.11122	0.2664	0.062384	0.16554	-2.9125	-4.0104	-3.1646	-3.7687	-3.7604	-3.1521	-4.0521	-3.5917	-3.2	-4	-3.2417	-3.6937	-3.8604	-2.9979	-3.9062	-3.6458	15.069	69.034	99.022	256.469	4.880	278.595	217.442	78.648	187.325	31.068	13.663	232.338	44.311	308.200	230.162	-20.360	8.9439e-05	8.9421e-05	0.00010317	1111.1	1.2517e-06	2.7031e-06	1210.4	226.49	8.2608e-07	1.9932e-06	289.41	80.622	63.716	18.665	3.4572e-06	26.094	3.202e-05	2.9318e-05	8.347e-06	993.23	3.3877e-07	3.3106e-07	1111.4	207.06	3.487e-07	3.2959e-07	255.5	72.32	56.959	16.576	3.2879e-07	22.912	196.005	-31.499	75.970	-21.330	86.580	113.703	-21.151	-13.616	227.302	129.650	-13.917	-7.191	-7.238	-0.128	106.539	-0.186	-8191	255	
1748.954	1	1	0	0	0.087527	0.17784	0.22458	0.11159	0.19989	0.41717	0.072969	0.33102	0.22757	0.13824	0.24683	0.18739	0.10087	0.060872	0.026106	0.042141	-2.9771	-4.0042	-3.2542	-3.5479	-3.8729	-2.9813	-4.0479	-3.7354	-3.3229	-3.9646	-3.3125	-3.3438	-4.0458	-3.1188	-3.8708	-3.8417	318.638	4.826	259.890	245.186	167.458	220.056	29.564	301.074	205.726	270.109	-6.245	14.231	-11.105	91.225	-29.878	197.000	0.00012598	0.00035237	3.9675e-05	1109.8	1.7591e-06	1.9883e-06	1216	227.53	1.0505e-06	8.8812e-07	289.99	80.505	63.617	18.502	1.3731e-06	26.094	3.2424e-05	2.8973e-05	8.3122e-06	992.66	3.3795e-07	3.3411e-07	1113.4	207.67	3.4774e-07	3.3469e-07	255.4	72.274	56.946	16.551	3.3851e-07	22.89	183.242	10.327	47.488	-21.286	124.784	72.291	-21.294	-14.203	154.516	-2.003	-14.646	-7.118	-7.725	-0.762	137.940	-0.879	-8191	255	
1749.050	1	1	0	0	0.293	0.074067	0.15187	0.037724	0.24649	0.27116	0.053695	0.14805	0.11092	0.061358	0.1708	0.055283	0.050311	0.12148	0.087989	0.11341	-2.8563	-3.975	-3.4458	-3.6292	-3.9417	-3.3292	-3.9375	-3.9292	-3.0292	-3.9437	-3.4229	-3.2396	-4.0188	-3.2125	-3.6729	-3.7438	304.381	289.076	29.023	278.189	309.592	36.545	313.732	-30.098	121.613	99.676	278.063	301.552	58.382	182.725	188.512	282.245	8.4502e-05	0.0001828	0.00010472	1111.4	3.0842e-06	1.4153e-06	1209.3	226.58	1.2252e-06	2.0033e-06	290.86	80.882	63.475	18.477	2.0358e-06	25.826	3.2765e-05	2.9638e-05	8.4058e-06	994.28	3.303e-07	3.4052e-07	1112.1	207.17	3.4247e-07	3.3047e-07	256.16	72.334	56.991	16.54	3.4282e-07	22.783	176.018	77.116	90.577	-21.581	103.099	123.833	-21.376	-14.037	129.151	75.428	-14.203	-7.399	-7.223	-0.313	177.609	-0.417	-8191	255	
1749.170	1	1	0	0	0.067679	0.15139	0.18039	0.15959	0.12314	0.11337	0.049849	0.28262	0.29287	0.20191	0.1789	0.21291	0.10789	0.22826	0.22567	0.18283	-2.7625	-3.8542	-3.3854	-3.2354	-4.0792	-3.2042	-3.6896	-3.9062	-3.2583	-3.7229	-3.6542	-3.2396	-4.1188	-3.4354	-3.4667	-4.1104	265.636	77.563	203.496	320.985	-6.843	67.206	39.823	301.364	171.648	-21.108	151.879	156.971	191.071	311.298	304.066	284.309	0.00010425	9.7754e-05	2.1328e-05	1109.1	2.2672e-06	6.0196e-07	1217.6	226.89	1.0599e-06	6.5425e-07	288.82	80.489	63.255	18.464	2.9587e-06	26.047	3.3424e-05	3.041e-05	8.5284e-06	993.66	3.3772e-07	3.3622e-07	1113.4	207.34	3.4904e-07	3.4466e-07	255.15	72.294	57.032	16.511	3.4358e-07	22.842	165.685	35.043	86.269	-21.450	94.891	108.900	-21.268	-13.996	95.081	112.211	-14.384	-7.083	-7.056	-0.171	124.149	-0.437	-8191	255	
1749.265	1	1	0	0	0.25941	0.19647	0.20448	0.048866	0.122	0.066417	0.10609	0.076141	0.17143	0.21818	0.22874	0.20223	0.31444	0.24203	0.065756	0.068528	-2.5687	-3.775	-3.6646	-3.2854	-3.9562	-3.3729	-3.5604	-4.1521	-3.0021	-3.6937	-3.7146	-3.1667	-3.8708	-3.2854	-3.0833	-4.0396	255.413	223.548	191.061	191.967	305.995	181.474	252.906	298.386	130.924	244.890	271.335	34.322	207.551	-4.970	191.837	134.500	5.7443e-05	0.00016982	0.00011172	1113.7	2.1117e-06	2.3602e-06	1210.9	229.17	9.1327e-07	1.812e-06	290.36	80.185	63.492	18.537	9.2112e-07	26.103	3.3683e-05	3.0561e-05	8.4893e-06	994	3.4583e-07	3.3894e-07	1112.2	208.07	3.5473e-07	3.4967e-07	255.79	72.245	57.002	16.541	3.5301e-07	22.891	182.292	55.474	81.306	-21.666	113.954	123.933	-21.108	-13.789	176.917	64.813	-14.302	-7.120	-6.763	-0.211	73.971	-0.550	-8191	255	
1749.363	1	1	0	0	0.3207	0.16725	0.054802	0.10197	0.15559	0.14637	0.28837	0.26133	0.042579	0.044411	0.1038	0.34804	0.24061	0.1445	0.13286	0.24084	-2.8042	-3.6396	-3.7021	-3.2042	-3.8187	-3.3271	-3.3979	-4.2	-3.3521	-3.6792	-3.8833	-3.1188	-3.8688	-3.5979	-3.175	-4.075	126.316	315.160	34.441	38.212	28.623	215.818	270.286	321.082	301.173	289.064	286.286	115.270	219.409	-29.207	-21.516	243.170	0.00010551	0.00012875	3.2072e-05	1111.7	1.9021e-06	1.184e-06	1214	227.27	2.7858e-06	2.2478e-06	291.15	80.685	63.642	18.598	2.45e-06	26.098	3.4313e-05	3.1717e-05	8.6509e-06	992.85	3.5741e-07	3.4374e-07	1114.2	207.74	3.6012e-07	3.4751e-07	255.64	72.413	57.153	16.528	3.5389e-07	22.904	176.403	59.504	30.308	-21.141	97.308	67.802	-20.830	-13.742	136.780	138.017	-14.070	-6.904	-6.808	-0.765	179.904	-1.111	-8191	255	
1749.457	1	1	0	0	0.063567	0.20986	0.26459	0.19307	0.19495	0.11049	0.26489	0.10114	0.10015	0.25926	0.1343	0.20576	0.083992	0.14463	0.044554	0.081083	-2.8771	-3.4875	-3.7896	-3.0854	-3.7146	-3.4875	-3.0458	-3.9562	-3.1208	-3.3667	-4.1583	-3.0083	-3.7	-3.6833	-3.0917	-4.0208	214.803	124.052	-17.225	307.419	254.712	1.862	263.501	283.908	41.747	-8.122	266.199	20.560	287.364	123.821	129.555	309.155	7.6092e-05	4.4832e-05	3.1353e-05	1111.1	3.2735e-06	1.9008e-07	1217.6	227.66	2.2614e-06	1.9772e-06	290	80.896	63.718	18.633	2.1822e-06	25.97	3.4377e-05	3.0824e-05	8.4607e-06	995.14	3.5395e-07	3.4714e-07	1112.6	208.18	3.5781e-07	3.5296e-07	255.59	72.418	57.175	16.568	3.5811e-07	22.865	150.617	151.040	2.149	-21.580	152.856	166.516	-20.966	-13.509	187.457	98.539	-13.975	-7.155	-6.931	-0.358	96.240	-0.445	-8191	255	
1749.553	1	1	0	0	0.33217	0.069639	0.24377	0.23754	0.093483	0.088959	0.12638	0.13415	0.060055	0.32209	0.19031	0.084373	0.19612	0.11327	0.14214	0.097768	-2.8937	-3.3458	-3.9354	-3.1479	-3.5771	-3.6188	-3.2625	-3.9083	-3.3083	-3.2833	-4.0938	-3.2333	-3.4271	-3.7354	-2.9313	-3.7125	186.893	315.148	96.679	-21.042	137.862	112.933	212.391	92.813	318.882	21.681	324.292	3.544	143.649	34.940	26.440	270.187	0.00010762	0.00019402	8.2577e-05	1114.6	6.1151e-07	1.8146e-06	1215.4	227.53	2.1092e-06	9.1866e-07	289.49	80.421	63.944	18.458	1.5673e-06	25.985	3.3511e-05	3.1311e-05	8.7129e-06	996	3.5382e-07	3.4102e-07	1112.9	207.55	3.477e-07	3.4733e-07	255.38	72.218	57.244	16.529	3.473e-07	22.871	168.824	30.062	92.197	-21.362	93.218	61.619	-20.905	-14.198	136.835	151.858	-14.636	-7.747	-7.090	-0.444	120.594	-0.657	-8191	255	
1749.649	1	1	0	0	0.14595	0.31203	0.068999	0.12891	0.060235	0.14524	0.23315	0.09099	0.25046	0.23577	0.068659	0.09004	0.069823	0.036206	0.13999	0.12394	-3.1646	-3.1667	-3.9313	-3.3646	-3.6146	-3.9167	-3.075	-3.8792	-3.6146	-3.1875	-3.8875	-3.3083	-3.5333	-4.0125	-3.0604	-3.7896	-2.364	316.671	284.377	-31.716	163.458	294.665	261.684	162.729	146.001	288.780	214.645	31.889	144.136	269.842	114.474	78.744	8.5977e-05	0.00014927	6.9121e-05	1115.8	1.1227e-06	9.7828e-07	1214.3	227.03	1.0178e-06	1.5322e-06	291.45	80.48	63.766	18.517	2.9439e-06	26.453	3.4069e-05	3.0508e-05	8.4143e-06	994.54	3.4365e-07	3.3941e-07	1113.3	207.6	3.4998e-07	3.3869e-07	256.32	72.394	57.185	16.555	3.5249e-07	23.022	168.635	38.246	120.910	-22.035	47.989	90.192	-21.580	-13.978	190.383	121.847	-14.386	-7.160	-7.581	-0.039	137.432	-0.703	-8191	255	
1749.770	1	1	0	0	0.15658	0.085494	0.10502	0.16576	0.095355	0.15749	0.11446	0.079106	0.29176	0.089401	0.14666	0.10933	0.12694	0.13001	0.21355	0.032313	-3.2396	-3.2021	-3.9813	-3.375	-3.3167	-4.0167	-3.2083	-3.8417	-3.6937	-3.0146	-4.1396	-3.5542	-3.2625	-4.1125	-3.2125	-3.7229	280.054	69.953	138.243	288.546	141.758	304.267	204.053	123.141	153.814	186.818	300.144	271.040	87.426	157.822	138.440	61.516	0.00010515	0.00027857	4.1871e-05	1111.9	1.0458e-06	8.4605e-07	1205.8	226.79	2.1363e-06	9.6316e-07	291.24	80.659	63.293	18.562	1.4539e-06	26.323	3.3683e-05	3.1344e-05	8.5635e-06	994.71	3.551e-07	3.3873e-07	1110.4	208.05	3.5024e-07	3.4802e-07	255.9	72.322	56.941	16.534	3.5739e-07	22.989	167.458	32.476	28.277	-21.989	108.286	35.854	-21.495	-14.019	169.491	102.112	-14.562	-7.500	-7.587	-0.498	313.758	-0.763	-8191	255	
1749.866	1	1	0	0	0.23469	0.27886	0.15345	0.22779	0.034494	0.10891	0.097954	0.21466	0.16676	0.33486	0.040072	0.11337	0.11794	0.18657	0.11426	0.098601	-3.4417	-2.9896	-3.8646	-3.5229	-3.2417	-4.1146	-3.4125	-3.7208	-3.7167	-3.1771	-4.2208	-3.6083	-3.1417	-3.9375	-3.1458	-3.6521	63.880	127.748	11.287	79.894	33.903	166.224	90.701	318.313	242.848	50.659	-16.116	130.953	211.541	58.717	99.475	287.469	0.00011599	0.00010167	5.5499e-05	1109	1.8954e-06	1.7709e-06	1214.8	226.99	7.5901e-07	1.5357e-06	290.3	81.186	63.411	18.47	1.7335e-06	26.172	3.4423e-05	3.203e-05	8.5881e-06	994.37	3.6252e-07	3.4376e-07	1112.8	207.73	3.5769e-07	3.5594e-07	255.64	72.359	57.105	16.56	3.6665e-07	22.971	153.632	169.077	98.074	-22.027	116.305	74.831	-21.412	-14.024	173.956	161.838	-15.132	-7.526	-7.375	-0.539	141.130	-1.054	-8191	255	
1749.962	1	1	0	0	0.20849	0.12816	0.18632	0.42155	0.14931	0.039578	0.25766	0.0076324	0.12115	0.073748	0.16948	0.28836	0.24924	0.077096	0.036408	0.093156	-3.6125	-2.9813	-3.9479	-3.6979	-3.2833	-3.8	-3.5375	-3.3042	-3.8333	-2.9562	-3.8979	-3.7188	-3.1625	-3.9896	-3.3667	-3.4375	179.889	186.314	72.671	319.182	103.937	255.864	265.644	39.386	45.816	130.010	231.971	50.851	48.800	-30.151	78.541	287.164	7.2799e-05	0.00011423	4.6444e-05	1111.7	1.3192e-06	1.5676e-06	1214.5	228.41	4.9382e-07	2.0748e-06	289.69	80.658	63.459	18.519	2.5748e-06	26.271	3.3445e-05	3.1712e-05	8.7239e-06	995.45	3.625e-07	3.5459e-07	1114.1	207.99	3.5249e-07	3.5601e-07	255.93	72.361	57.005	16.563	3.6446e-07	22.926	153.733	70.061	36.025	-22.005	45.504	52.434	-21.302	-13.822	139.906	301.489	-14.557	-7.748	-6.942	-0.402	152.460	-0.512	-8191	255	
1750.034	1	1	0	0	0.23461	0.1188	0.093609	0.44084	0.10781	0.22715	0.093333	0.29461	0.031905	0.10864	0.21103	0.14479	0.15646	0.090953	0.041337	0.25799	-3.8063	-3.1479	-3.7833	-3.8771	-3.1854	-3.8	-3.575	-3.3646	-3.8833	-3.1937	-3.7313	-3.6937	-3.0875	-3.9854	-3.4458	-3.2708	65.776	49.877	271.069	307.755	301.717	145.584	256.054	275.609	0.862	141.181	-14.973	116.714	140.933	9.083	44.357	316.099	0.00010663	0.00033799	9.537e-05	1113	1.1534e-06	1.5548e-06	1207.5	227.54	7.8485e-07	1.3695e-06	291.43	81.032	63.812	18.688	1.2318e-06	26.032	3.3336e-05	3.1479e-05	8.6786e-06	995.94	3.5329e-07	3.5041e-07	1112.2	207.74	3.6098e-07	3.5369e-07	256.03	72.526	57.133	16.559	3.5704e-07	22.922	133.839	60.679	19.589	-21.696	189.050	114.007	-21.396	-13.756	203.874	119.873	-14.455	-7.675	-6.975	-0.361	110.961	-0.484	-8191	255	
1750.155	1	1	0	0	0.091558	0.22152	0.18969	0.30459	0.10982	0.045749	0.29422	0.32288	0.073181	0.13044	0.12002	0.17172	0.2398	0.17109	0.079935	0.17635	-3.8042	-3.3354	-3.4229	-3.9521	-3.1646	-3.7687	-3.8	-3.2271	-3.9813	-3.3417	-3.575	-3.9333	-3.2729	-3.9833	-3.6625	-3.2854	161.556	248.446	302.649	-13.577	275.723	91.702	290.271	284.329	140.252	71.146	154.453	-14.502	172.082	101.832	50.999	212.428	0.00012872	0.00018279	4.7523e-05	1111.9	1.233e-06	2.3833e-06	1214.8	227.38	3.0414e-07	9.2048e-07	292.24	80.119	63.555	18.538	9.8688e-07	26.228	3.4064e-05	3.1463e-05	8.9084e-06	995.52	3.4933e-07	3.49e-07	1113.1	207.08	3.6288e-07	3.4223e-07	256.51	72.345	57.076	16.561	3.548e-07	22.943	177.564	52.144	118.145	-21.740	55.782	129.580	-21.308	-13.922	187.328	151.201	-14.395	-7.288	-7.021	0.177	97.075	-0.523	-8191	255	
1750.249	1	1	0	0	0.11558	0.10892	0.14821	0.11102	0.14209	0.22312	0.19911	0.25484	0.091602	0.11541	0.042576	0.20047	0.057845	0.18395	0.064355	0.086681	-3.5687	-3.2917	-3.3646	-3.9062	-3.2313	-3.7708	-3.8146	-3.2854	-3.9167	-3.4396	-3.325	-4.0917	-3.0583	-3.4542	-3.6562	-3.0896	301.491	42.694	87.364	129.529	250.154	-3.987	291.055	-3.972	80.207	82.663	275.420	271.168	17.273	98.779	67.855	196.073	0.0001156	0.00024728	7.2644e-05	1109.9	2.3337e-07	1.9346e-06	1208.2	228.21	6.3365e-07	1.2416e-06	289.09	80.667	63.473	18.482	9.4922e-07	26.143	3.2916e-05	3.1761e-05	8.7624e-06	995.19	3.5512e-07	3.416e-07	1113.1	207.97	3.4671e-07	3.4086e-07	255.72	72.345	57.075	16.525	3.4786e-07	22.961	182.386	67.563	81.387	-21.205	326.625	140.658	-21.117	-14.212	176.131	191.568	-14.555	-7.496	-7.482	-0.481	143.478	-0.542	-8191	255	
1750.345	1	1	0	0	0.15454	0.079328	0.22538	0.14575	0.30213	0.16784	0.16476	0.16307	0.15482	0.023803	0.12438	0.22646	0.1899	0.116	0.086488	0.037223	-3.5833	-3.6063	-3.2583	-4.1771	-3.1292	-3.4979	-4.0979	-2.9688	-3.7938	-3.5125	-3.3208	-4.0875	-3.3292	-3.5667	-3.8	-3.3021	78.521	46.320	79.852	206.016	108.764	113.337	114.340	35.471	272.913	327.066	315.672	301.457	-30.548	137.566	268.339	52.125	0.00011975	7.3511e-05	9.3005e-05	1113.1	2.4229e-06	5.5024e-07	1212.7	227.55	1.201e-06	2.5432e-06	288.99	80.635	63.57	18.412	2.3619e-07	26.07	3.274e-05	3.1147e-05	8.8419e-06	995.34	3.518e-07	3.4865e-07	1113.3	207.53	3.5731e-07	3.5128e-07	255.24	72.364	57.12	16.56	3.5487e-07	22.96	167.461	-4.129	98.569	-21.038	81.107	111.122	-20.788	-13.805	156.722	78.547	-14.207	-7.080	-6.833	-0.487	9.546	-0.501	-8191	255	
1750.443	1	1	0	0	0.099796	0.28081	0.16491	0.29741	0.18704	0.16713	0.39409	0.18451	0.24306	0.20393	0.13691	0.12505	0.16423	0.041908	0.32226	0.093234	-3.5271	-3.4938	-3.1958	-4.0792	-3.1292	-3.4896	-4.1312	-3.2521	-3.7708	-3.7	-3.075	-3.7958	-3.2667	-3.325	-3.8812	-3.0854	51.779	67.693	4.080	295.077	7.141	173.977	302.087	-24.708	263.488	253.479	56.921	247.597	77.771	73.414	154.847	232.010	0.00011792	0.00027595	6.4133e-05	1113.7	3.0963e-07	2.3295e-06	1213.3	227.34	3.7478e-08	2.5011e-06	289.91	80.636	63.196	18.625	2.1884e-06	26.213	3.3162e-05	3.1122e-05	8.8807e-06	997.01	3.5651e-07	3.4161e-07	1112.5	207.73	3.5452e-07	3.4628e-07	255.56	72.512	56.847	16.564	3.5272e-07	22.915	176.909	74.753	105.851	-21.817	276.197	61.445	-21.643	-13.961	-7.920	22.993	-14.692	-7.582	-7.194	0.113	72.891	-0.975	-8191	255	
1750.562	1	1	0	0	0.22269	0.089708	0.16603	0.10312	0.13957	0.10181	0.17252	0.12769	0.082808	0.21914	0.092934	0.076555	0.044928	0.29828	0.064376	0.21253	-3.3604	-3.675	-3.0167	-3.9021	-3.3375	-3.45	-3.9938	-3.1792	-3.6417	-3.7146	-3.1	-4.0125	-3.5333	-3.3646	-4.0292	-3.3646	300.372	203.208	279.406	97.972	9.510	-12.058	185.827	-23.627	324.779	264.126	1.884	20.905	160.564	325.699	221.785	147.547	0.00013813	0.00022726	3.4127e-05	1115.7	8.3131e-07	2.0232e-06	1209.6	226.64	1.9939e-06	2.4405e-06	289.65	80.587	63.485	18.713	2.0598e-07	26.178	3.3242e-05	3.064e-05	8.791e-06	997.4	3.5662e-07	3.4347e-07	1111.5	207.49	3.4801e-07	3.4977e-07	255.97	72.51	56.96	16.603	3.5368e-07	22.888	160.128	70.462	-13.582	-21.944	118.071	46.545	-21.379	-14.203	179.679	140.911	-14.419	-7.197	-7.224	-0.529	158.515	-0.430	-8191	255	
1750.658	1	1	0	0	0.17902	0.26525	0.25267	0.1576	0.082326	0.17191	0.12575	0.053675	0.26174	0.070982	0.09648	0.035435	0.11032	0.12869	0.18535	0.042661	-3.2	-3.7188	-3.2271	-3.9167	-3.5042	-3.2062	-4.025	-3.1958	-3.2812	-3.8812	-3.1229	-3.8479	-3.6208	-3.2604	-3.9104	-3.4833	305.220	253.266	171.199	311.821	-21.158	4.543	62.161	35.768	204.150	236.146	112.581	182.863	238.705	187.564	131.840	229.566	0.00010469	0.00019655	4.4969e-05	1111	9.4875e-07	1.3356e-06	1214.6	226	2.9362e-06	1.9674e-06	288.31	79.91	63.208	18.494	1.2456e-06	26.103	3.3659e-05	3.0951e-05	8.6849e-06	995.49	3.4925e-07	3.4297e-07	1113.9	207.14	3.5098e-07	3.4262e-07	255.24	72.22	56.872	16.546	3.5059e-07	22.927	177.664	79.756	66.714	-21.366	247.809	55.585	-21.207	-14.108	158.591	115.640	-14.359	-7.539	-7.160	-0.387	162.323	-0.245	-8191	255	
1750.730	1	1	0	0	0.18594	0.19582	0.14716	0.030421	0.1388	0.1277	0.20117	0.085567	0.22593	0.15015	0.32289	0.1581	0.28107	0.15798	0.033739	0.28123	-2.9708	-4	-3.0792	-3.7146	-3.6729	-3.0583	-3.8771	-3.5208	-3.2792	-3.9917	-3.2104	-3.9271	-3.8521	-3.1229	-3.8875	-3.4125	300.261	175.824	125.449	2.144	306.650	236.392	277.760	281.111	167.427	87.448	268.175	257.929	92.230	98.802	183.351	302.565	6.5715e-05	0.00020656	6.013e-05	1111.9	5.441e-07	2.9238e-06	1215.6	227.64	1.6941e-06	8.1453e-07	289.09	80.636	63.449	18.517	2.76e-06	26.209	3.3586e-05	3.0434e-05	8.6019e-06	995.08	3.4886e-07	3.42e-07	1112.8	207.82	3.5383e-07	3.5071e-07	255.52	72.421	57.26	16.568	3.5687e-07	22.921	188.832	80.829	65.453	-21.792	82.972	70.504	-21.381	-13.591	120.738	171.946	-14.266	-6.778	-6.878	-0.084	126.264	-0.671	-8191	255	
1750.850	1	1	0	0	0.20948	0.066695	0.15645	0.2375	0.01614	0.34308	0.1043	0.15595	0.070571	0.021045	0.15	0.21268	0.085506	0.30592	0.16697	0.063009	-2.8646	-4.0125	-3.2188	-3.6479	-3.7396	-3.0687	-4.1167	-3.5896	-3.1937	-4.0604	-3.2875	-3.5604	-3.9437	-2.8896	-3.7687	-3.6688	-12.625	286.840	280.197	254.461	242.763	193.191	272.361	17.700	73.107	97.259	241.780	289.272	166.985	114.359	208.737	274.464	0.00011587	0.00015767	7.5865e-05	1118.2	1.9933e-06	1.7881e-06	1215.6	227.96	3.9226e-07	1.2435e-06	290.12	80.792	63.336	18.464	6.0584e-07	25.975	3.4102e-05	3.176e-05	8.5884e-06	997.1	3.4892e-07	3.4323e-07	1112.8	207.96	3.5593e-07	3.4596e-07	255.61	72.322	57.046	16.543	3.5275e-07	22.944	179.427	44.780	68.766	-21.737	168.594	72.322	-21.186	-13.542	160.416	78.286	-13.819	-6.921	-6.959	-0.379	255.965	-1.280	-8191	255	
1750.946	1	1	0	0	0.1845	0.25163	0.27443	0.25573	0.090537	0.11535	0.093777	0.034836	0.11149	0.27834	0.16594	0.088691	0.18142	0.11784	0.080635	0.12138	-2.7708	-3.9667	-3.2313	-3.5667	-3.8833	-3.0563	-4.0292	-3.7562	-3.2021	-4.0583	-3.4042	-3.3167	-4.0146	-3.0312	-3.6979	-3.875	267.187	236.991	54.572	252.985	197.624	205.087	241.707	223.336	80.272	88.990	-31.581	199.956	238.977	174.237	45.216	10.294	0.00011003	7.4555e-05	6.9951e-05	1109	1.5505e-06	7.9902e-07	1211.4	225.56	1.1821e-06	7.6323e-07	287.84	80.518	63.512	18.471	4.1397e-06	26.064	3.3693e-05	3.1075e-05	8.8954e-06	995.99	3.4493e-07	3.483e-07	1112.5	207.29	3.5176e-07	3.4347e-07	255.28	72.323	57.099	16.544	3.4599e-07	22.899	183.205	135.667	140.468	-21.918	90.916	47.168	-21.492	-14.183	197.021	23.875	-14.850	-7.439	-7.394	-0.433	136.413	-0.704	-8191	255	
1751.043	1	1	0	0	0.19548	0.14767	0.20353	0.19294	0.10355	0.29374	0.1432	0.084784	0.080222	0.11809	0.20174	0.15997	0.14398	0.2181	0.16684	0.30269	-2.6667	-4.0437	-3.4396	-3.5167	-3.8458	-3.1854	-3.7958	-4.0125	-2.9583	-4.0333	-3.5729	-3.2083	-4.15	-3.1958	-3.6312	-3.8958	250.198	114.187	130.749	190.829	17.901	323.433	-15.141	177.875	126.294	234.354	-8.265	265.346	-4.797	246.015	315.104	224.597	8.4058e-05	0.00015898	5.9135e-05	1109.1	1.5908e-06	2.6098e-06	1213.9	226.88	7.7919e-07	1.0016e-06	288.66	80.473	63.43	18.45	3.5684e-06	26.134	3.3507e-05	3.1084e-05	8.7491e-06	996.8	3.4691e-07	3.4654e-07	1113.7	207.54	3.6037e-07	3.441e-07	255.26	72.22	57.032	16.587	3.5341e-07	22.912	179.243	81.439	125.032	-21.940	153.216	106.615	-21.532	-14.151	121.556	13.388	-14.789	-7.534	-7.355	-0.693	95.410	-1.061	-8191	255	
1751.163	1	1	0	0	0.12818	0.15591	0.097895	0.21075	0.17239	0.1844	0.30384	0.075678	0.15438	0.23172	0.22542	0.17312	0.049244	0.042067	0.17162	0.12619	-2.6167	-3.9083	-3.6729	-3.0958	-4.0625	-3.3417	-3.5687	-3.9104	-3.0896	-3.8958	-3.7542	-3.3354	-4.0167	-3.4188	-3.5208	-4.0958	206.940	92.743	-19.872	319.075	25.299	132.800	312.583	172.577	300.917	257.234	293.719	296.225	282.129	186.337	196.326	243.199	0.00013169	0.00031698	5.8497e-05	1110.7	4.0354e-06	1.8825e-06	1216.4	225.91	4.7058e-07	1.5648e-06	291.06	80.286	63.093	18.397	3.3997e-06	26.004	3.3821e-05	3.1771e-05	8.8329e-06	995.12	3.4728e-07	3.5036e-07	1115.4	207.35	3.5419e-07	3.5164e-07	256.17	72.452	57	16.558	3.5775e-07	22.869	188.510	36.301	75.918	-22.044	94.683	127.025	-21.547	-14.407	154.835	92.137	-14.785	-7.772	-7.711	-0.375	166.267	-0.695	-8191	255	
1751.258	1	1	0	0	0.14612	0.093068	0.12831	0.1803	0.24989	0.3504	0.13098	0.17889	0.043956	0.12101	0.10614	0.14254	0.11356	0.059781	0.17403	0.13258	-2.8438	-3.7583	-3.4917	-3.325	-3.8875	-3.4083	-3.5812	-4.0292	-3.1521	-3.6729	-3.8792	-3.1396	-3.8833	-3.3979	-3.2167	-3.9521	-23.041	76.798	164.875	320.630	242.670	77.275	75.956	246.226	5.803	193.670	62.575	195.713	28.306	20.641	258.398	16.981	9.3811e-05	0.00021653	5.7916e-05	1110.8	1.1903e-06	1.77e-06	1207.8	226.89	2.0648e-07	3.5764e-06	288.09	80.555	63.5	18.539	2.3546e-06	26.119	3.4354e-05	3.1499e-05	8.6823e-06	995.2	3.557e-07	3.5475e-07	1113.3	207.81	3.6057e-07	3.512e-07	255.41	72.397	56.967	16.611	3.506e-07	23.008	192.524	107.939	42.323	-22.005	106.906	139.361	-21.680	-14.250	242.846	90.160	-14.709	-7.704	-7.479	-0.344	200.901	-0.746	-8191	255	
1751.331	1	1	0	0	0.18722	0.13941	0.21421	0.20931	0.039218	0.032337	0.10131	0.29718	0.21729	0.093623	0.19219	0.214	0.1516	0.12867	0.10877	0.13132	-2.8896	-3.4813	-3.85	-3.1333	-3.8792	-3.5146	-3.4146	-4.2063	-3.1875	-3.5125	-4.0208	-3.2687	-3.8917	-3.5979	-3.0646	-4.0833	8.975	210.795	172.184	-31.301	138.952	231.177	247.556	224.581	62.811	186.916	276.560	286.926	288.031	125.597	-20.066	119.582	9.5482e-05	0.00014042	4.1721e-05	1110.5	8.143e-07	2.4012e-06	1212.9	226.03	1.0962e-06	2.6947e-06	289.8	80.307	63.254	18.561	1.2546e-06	26.082	3.3098e-05	3.1441e-05	8.7152e-06	996.97	3.4853e-07	3.3868e-07	1113.9	207.02	3.5238e-07	3.5354e-07	255.95	72.338	57.067	16.586	3.5495e-07	22.921	151.533	71.179	104.358	-22.183	184.330	88.796	-21.679	-14.504	122.954	54.211	-15.183	-7.730	-7.343	-0.716	133.791	-1.134	-8191	255	
1751.450	1	1	0	0	0.099576	0.26864	0.18337	0.12656	0.1971	0.18947	0.20249	0.13552	0.10351	0.23838	0.17886	0.16553	0.28131	0.13915	0.18807	0.33473	-2.8979	-3.4375	-3.8625	-3.25	-3.7458	-3.5021	-3.4292	-4.1146	-3.2896	-3.2875	-3.8542	-3.0646	-3.8208	-3.7979	-3.0375	-3.9417	297.292	296.263	125.258	292.296	308.414	58.798	207.920	249.398	127.068	80.253	232.867	13.666	-10.045	255.706	22.380	1.959	8.1797e-05	0.00016624	9.0997e-05	1106.4	3.6173e-06	3.8381e-07	1208.8	226.15	6.9072e-07	2.3409e-06	290.13	79.87	63.399	18.34	7.2263e-07	26.167	3.3702e-05	3.1745e-05	8.6076e-06	994.8	3.5528e-07	3.4272e-07	1113.7	207.21	3.5446e-07	3.462e-07	255.98	72.321	57.123	16.543	3.56e-07	22.954	184.812	39.580	79.746	-22.315	102.992	51.734	-21.698	-14.732	-25.313	86.115	-14.594	-7.642	-7.594	-0.834	93.019	-0.745	-8191	255	
1751.546	1	1	0	0	0.087553	0.18042	0.28987	0.12883	0.27812	0.26266	0.25862	0.29552	0.10147	0.1633	0.1598	0.13449	0.095424	0.085192	0.18718	0.14327	-3.1208	-3.2917	-3.8708	-3.0104	-3.6854	-3.7854	-3.2896	-3.8604	-3.3812	-3.2833	-3.9625	-3.2917	-3.6521	-4.0479	-3	-3.9667	138.793	263.051	-17.685	311.956	21.192	83.168	-7.158	-20.362	302.459	144.765	277.956	214.104	229.885	-7.867	101.264	221.866	8.0149e-05	0.00013414	1.5221e-05	1111.8	1.2613e-06	1.8802e-06	1208	227.72	7.6222e-07	3.5149e-07	289.44	80.265	62.956	18.452	1.6099e-06	26.246	3.3259e-05	3.1952e-05	8.7485e-06	995.62	3.4648e-07	3.4316e-07	1112.7	207.88	3.511e-07	3.5017e-07	255.16	72.43	57.047	16.489	3.5414e-07	22.971	187.958	14.779	-17.286	-21.902	110.796	78.259	-21.673	-13.932	152.254	118.379	-14.426	-7.692	-7.310	-0.396	118.051	-0.972	-8191	255	
1751.642	1	1	0	0	0.098534	0.12313	0.1269	0.1625	0.15355	0.20346	0.22541	0.061166	0.068463	0.24907	0.11012	0.12027	0.043989	0.090822	0.28798	0.074898	-3.3312	-3.1979	-3.8792	-3.3458	-3.4542	-3.9479	-3.1708	-3.9313	-3.5479	-3.125	-4.0792	-3.2562	-3.4708	-3.925	-2.9479	-3.8979	46.753	21.045	87.016	74.039	148.093	17.767	282.752	304.121	290.576	23.130	216.623	77.638	196.515	77.040	273.805	82.947	0.00011037	0.0001493	6.6435e-05	1108	6.1559e-07	2.2541e-06	1212	225.6	7.9277e-07	1.287e-06	289.96	80.392	63.071	18.519	2.3303e-06	26.188	3.2873e-05	3.1027e-05	8.7675e-06	995.94	3.5172e-07	3.4024e-07	1112.5	207.15	3.5354e-07	3.4265e-07	255.98	72.423	57.144	16.594	3.568e-07	22.963	183.189	177.913	38.267	-22.045	321.299	120.443	-21.582	-14.231	158.782	109.780	-14.871	-7.875	-7.646	-0.520	143.927	-0.821	-8191	255	
1751.738	1	1	0	0	0.20916	0.13542	0.15171	0.035113	0.23424	0.15151	0.31622	0.33829	0.10739	0.16381	0.11513	0.15078	0.078134	0.21741	0.059993	0.067448	-3.2708	-3.2792	-3.9021	-3.4667	-3.2188	-4.0437	-3.2708	-3.6354	-3.7208	-3.0792	-4.0375	-3.4938	-3.1562	-4.0625	-2.9708	-3.6771	160.580	131.617	106.751	43.491	268.000	-19.366	248.390	281.576	75.760	187.187	168.445	206.194	249.799	97.986	208.799	297.693	8.7711e-05	0.00022018	5.8152e-05	1110.8	3.1844e-06	1.3683e-06	1218.2	226.31	1.1738e-06	1.6755e-06	289.25	80.298	63.477	18.603	3.5452e-06	26.281	3.2958e-05	3.1125e-05	8.4537e-06	994.1	3.5012e-07	3.4576e-07	1114.2	207.55	3.4986e-07	3.4411e-07	255.85	72.318	57.111	16.577	3.5205e-07	22.968	189.066	35.691	69.560	-22.148	75.608	12.564	-21.742	-14.527	82.776	32.085	-14.677	-7.612	-7.585	-0.598	139.733	-1.306	-8191	255	
1751.859	1	1	0	0	0.1692	0.14125	0.06363	0.086782	0.17776	0.13731	0.22453	0.31983	0.034223	0.30441	0.13261	0.25307	0.10254	0.36483	0.24457	0.15695	-3.525	-3.2604	-3.9875	-3.5417	-3.175	-3.8521	-3.3521	-3.4729	-3.7458	-2.8542	-3.8083	-3.6146	-3.1188	-4.0479	-3.2583	-3.5646	86.874	27.857	296.555	20.734	55.774	158.221	206.575	219.297	79.179	203.160	99.413	254.939	241.178	-22.583	66.989	35.090	9.9753e-05	0.00026621	6.0535e-05	1105.5	2.2789e-06	3.2192e-06	1204.8	225.97	1.0779e-06	2.444e-06	287.66	79.841	63.069	18.612	1.1222e-06	26.103	3.3554e-05	3.1653e-05	8.4944e-06	992.43	3.5683e-07	3.3894e-07	1109.7	207.7	3.4676e-07	3.4967e-07	255.49	72.247	56.919	16.588	3.4462e-07	22.937	181.948	72.753	56.476	-22.109	100.645	83.320	-21.533	-14.490	239.566	74.361	-14.628	-8.069	-7.356	-1.075	122.054	-1.373	-8191	255	
1751.955	1	1	0	0	0.020834	0.038998	0.21068	0.091908	0.059049	0.48274	0.058016	0.24792	0.15783	0.19657	0.13092	0.090897	0.027121	0.12667	0.1619	0.063532	-3.5125	-3.0167	-3.7917	-3.7812	-3.3167	-3.9354	-3.5187	-3.4667	-3.8604	-3.2188	-3.8833	-3.7687	-3.3021	-3.9583	-3.3812	-3.3917	74.013	35.573	90.570	-29.143	281.784	216.752	217.604	267.057	268.881	241.067	212.588	300.232	-25.519	138.639	169.280	175.270	0.00011061	0.00020499	4.8644e-05	1107.8	1.8769e-06	2.7689e-06	1209	226.46	9.1441e-07	9.8645e-07	289.47	79.885	63.06	18.411	2.4107e-07	25.938	3.2604e-05	3.1287e-05	8.8066e-06	993.86	3.523e-07	3.3823e-07	1112.8	207.67	3.4939e-07	3.5464e-07	255.96	72.343	57.052	16.576	3.5556e-07	22.847	167.717	71.138	90.087	-22.186	60.406	147.526	-21.771	-14.314	165.542	116.552	-14.471	-7.917	-7.375	-0.410	107.118	-1.178	-8191	255	
1752.027	1	1	0	0	0.089178	0.25787	0.076782	0.2878	0.14537	0.1905	0.22896	0.28405	0.028784	0.35544	0.061275	0.032218	0.28497	0.39139	0.1102	0.21336	-3.5979	-3.0792	-3.6396	-4.0667	-3.1542	-3.9375	-3.5729	-3.25	-3.9354	-3.1562	-3.5708	-3.9521	-3.1625	-3.925	-3.5458	-3.2521	142.925	62.375	81.358	-24.660	211.797	218.565	237.417	22.385	118.358	311.495	172.886	199.568	299.481	293.858	301.029	260.670	0.00011777	0.00022463	3.8173e-05	1110.3	1.8452e-06	2.3249e-06	1210.8	226.27	1.3797e-06	1.6626e-06	290.01	80.932	63.211	18.66	4.3705e-07	26.116	3.3585e-05	3.0926e-05	8.6249e-06	996.6	3.6397e-07	3.2784e-07	1112	207.28	3.5737e-07	3.477e-07	255.93	72.496	56.964	16.589	3.4907e-07	22.962	169.918	23.163	10.409	-21.857	111.563	75.428	-21.703	-14.271	146.390	55.646	-14.400	-7.568	-7.612	-0.390	114.559	-1.154	-8191	255	
1752.123	1	1	0	0	0.22427	0.15088	0.12597	0.059192	0.14869	0.15146	0.17864	0.19747	0.26187	0.11169	0.22895	0.25833	0.23976	0.15357	0.18629	0.10322	-3.6229	-3.1813	-3.4521	-3.8937	-3.1958	-3.7313	-3.8958	-3.1208	-4.0458	-3.3792	-3.5187	-4.15	-3.1042	-3.8187	-3.7562	-3.0208	279.519	270.157	101.629	204.067	167.830	143.514	244.541	299.521	176.101	101.785	171.173	319.712	316.159	317.902	39.162	295.192	9.1634e-05	0.00022735	2.175e-05	1109.7	3.8852e-06	1.8447e-06	1212.1	227.05	1.3037e-06	2.6055e-06	291.88	80.581	63.237	18.574	2.2866e-06	26.125	3.2572e-05	3.068e-05	8.6699e-06	993.21	3.555e-07	3.4499e-07	1111.2	207.48	3.5402e-07	3.3488e-07	256.26	72.339	56.997	16.582	3.4733e-07	22.93	155.482	13.986	75.816	-21.632	132.049	56.192	-21.452	-13.894	103.720	74.459	-14.190	-7.248	-6.874	-0.442	105.227	-0.598	-8191	255	
1752.242	1	1	0	0	0.30413	0.033012	0.14007	0.090725	0.019077	0.22923	0.050544	0.069694	0.22766	0.24041	0.18201	0.16077	0.074055	0.10627	0.11748	0.15143	-3.6854	-3.4104	-3.4375	-4.0188	-3.0542	-3.6667	-3.8292	-3.1875	-4.0437	-3.3729	-3.5292	-4.0292	-3.2146	-3.7521	-3.8396	-3.2438	38.557	0.320	220.944	229.950	204.424	225.804	126.240	-20.794	194.633	312.363	319.412	307.096	181.731	210.485	21.012	17.757	7.9531e-05	0.00023786	0.00010716	1110.1	2.9326e-06	2.9249e-06	1207.5	226.99	6.4813e-07	5.569e-07	288.84	80.056	62.932	18.603	1.318e-06	25.99	3.2399e-05	3.0794e-05	8.4047e-06	995.85	3.4287e-07	3.3407e-07	1112.8	207.73	3.4875e-07	3.3224e-07	255.86	72.259	56.946	16.571	3.4006e-07	22.868	163.292	76.172	129.975	-21.722	107.796	101.828	-21.447	-14.253	212.649	135.709	-14.399	-7.462	-6.925	-0.160	-3.925	-1.278	-8191	255	
1752.338	1	1	0	0	0.20226	0.080238	0.19685	0.19641	0.11403	0.10387	0.29157	0.1239	0.12718	0.0934	0.26007	0.14795	0.098863	0.049318	0.047854	0.144	-3.4562	-3.3125	-3.2958	-4.1062	-3.2562	-3.4896	-4.1042	-3.2604	-3.9042	-3.6333	-3.2021	-4.0312	-3.4	-3.4146	-3.9104	-3.2521	285.641	-3.142	192.248	272.529	-26.596	220.904	294.688	284.393	157.098	105.461	27.848	227.353	201.277	313.036	283.152	93.323	0.00011001	8.9906e-05	4.111e-05	1110.6	2.4297e-06	1.8905e-06	1208.4	226.76	4.0294e-07	1.3229e-06	289.65	79.964	63.276	18.516	3.7009e-07	26.195	3.2955e-05	3.0874e-05	8.7395e-06	997.18	3.4881e-07	3.3783e-07	1109.8	207.57	3.4114e-07	3.4025e-07	255.25	72.201	56.977	16.584	3.4433e-07	22.977	181.373	65.731	54.115	-22.400	176.275	139.100	-21.741	-14.669	186.879	113.788	-14.826	-7.730	-7.688	-0.513	229.208	-1.158	-8191	255	
1752.434	1	1	0	0	0.18347	0.076182	0.086672	0.15066	0.1232	0.19152	0.16891	0.16157	0.18828	0.1801	0.19148	0.093817	0.050739	0.21019	0.17751	0.119	-3.5458	-3.7667	-2.9771	-4.1292	-3.525	-3.3854	-4.1417	-3.2208	-3.6729	-3.6917	-3.1042	-3.9333	-3.3312	-3.2042	-4.1021	-3.1646	217.150	142.301	224.356	279.435	226.698	49.488	-12.696	30.166	70.135	202.847	292.053	263.774	-9.168	235.519	166.297	21.510	8.077e-05	9.5814e-05	6.9384e-05	1103.4	2.4021e-06	3.2253e-06	1208.1	226.83	2.281e-06	1.6872e-06	287.71	79.882	63.496	18.66	6.5195e-08	26.044	3.2352e-05	3.0401e-05	8.5969e-06	994.28	3.381e-07	3.4145e-07	1112	207.3	3.4466e-07	3.4277e-07	255.62	72.264	56.967	16.594	3.39e-07	22.889	156.962	45.832	110.443	-22.197	121.616	30.614	-21.938	-14.502	156.359	84.868	-15.064	-7.369	-7.744	-0.800	285.853	-1.004	-8191	255	
1752.530	1	1	0	0	0.32502	0.08298	0.089071	0.1604	0.25186	0.14641	0.26042	0.30941	0.30518	0.29232	0.22258	0.18515	0.13042	0.065036	0.10992	0.22406	-3.4521	-3.7958	-3.1479	-3.8979	-3.3792	-3.275	-4.1542	-3.3187	-3.4333	-3.8896	-3.2167	-3.8771	-3.6208	-3.2646	-3.9417	-3.2188	46.913	210.366	242.552	308.200	114.110	-30.322	225.101	274.742	314.530	183.274	212.863	272.265	238.766	277.372	16.735	302.014	5.6955e-05	3.5533e-05	5.015e-05	1108.6	2.4353e-06	1.0421e-06	1207.4	226.07	3.2513e-07	1.4899e-06	287.69	80.855	63.229	18.686	4.5136e-07	26.112	3.2573e-05	3.0111e-05	8.3871e-06	995.91	3.3654e-07	3.329e-07	1112.7	207.11	3.5132e-07	3.3751e-07	254.88	72.389	56.942	16.595	3.3569e-07	22.935	160.974	54.819	86.991	-22.087	77.138	53.485	-22.058	-14.778	-7.249	57.806	-15.095	-7.698	-7.892	-0.412	26.183	-1.024	-8191	255	
1752.626	1	1	0	0	0.28959	0.14478	0.16847	0.052698	0.069865	0.20358	0.11203	0.043393	0.24506	0.2177	0.19008	0.15476	0.082019	0.19784	0.024287	0.090915	-2.9792	-3.9	-3.1271	-3.6917	-3.5229	-3.0687	-4.0792	-3.3	-3.3771	-3.8917	-3.1271	-3.9083	-3.7604	-3.0771	-3.9188	-3.3812	307.697	305.681	-23.038	288.879	286.237	-23.330	289.402	219.564	305.355	277.977	-13.919	-10.281	-11.451	199.902	16.865	260.032	6.5391e-05	0.00031745	4.4183e-05	1108.7	3.1002e-06	1.4104e-06	1205	226.61	1.9278e-06	1.4321e-06	289.27	80.562	63.248	18.446	1.3504e-06	25.912	3.1898e-05	3.0305e-05	8.4384e-06	995.76	3.3517e-07	3.3466e-07	1110.8	207.13	3.3467e-07	3.3163e-07	255.46	72.302	56.935	16.557	3.3307e-07	22.876	153.385	37.522	87.424	-21.995	93.563	110.749	-21.664	-14.486	205.411	64.131	-14.777	-7.309	-7.522	-0.493	160.084	-1.272	-8191	255	
1752.723	1	1	0	0	0.20045	0.033801	0.25369	0.21061	0.1191	0.15299	0.13198	0.16081	0.30868	0.1357	0.12194	0.11988	0.38087	0.31301	0.23576	0.12115	-3.0417	-4.0479	-3.0375	-3.8229	-3.6708	-3.1104	-4.1917	-3.4604	-3.3	-3.8833	-3.2729	-3.8604	-3.9271	-2.9646	-3.9813	-3.7708	141.152	156.502	-29.098	262.980	88.178	171.815	264.847	204.965	3.587	308.017	252.594	18.458	20.968	274.388	94.599	267.695	8.3003e-05	0.00014488	7.0817e-05	1110.9	1.6265e-06	1.5298e-06	1207	227.05	1.7975e-06	2.2499e-06	288.33	80.45	63.518	18.512	2.6564e-06	26.075	3.2616e-05	2.9655e-05	8.4692e-06	994.43	3.3513e-07	3.3308e-07	1111.5	207.08	3.5011e-07	3.3189e-07	255.31	72.307	57.041	16.546	3.3775e-07	22.941	170.798	58.762	72.205	-22.366	92.154	83.671	-21.655	-14.504	165.253	40.672	-14.841	-7.709	-7.657	-0.623	150.466	-0.902	-8191	255	
1752.843	1	1	0	0	0.10715	0.1312	0.36919	0.15193	0.070797	0.18051	0.064483	0.14807	0.11211	0.17301	0.32489	0.16428	0.11488	0.075315	0.028926	0.19564	-2.8271	-3.8729	-3.1417	-3.525	-3.7479	-3.0812	-3.9583	-3.7792	-3.125	-3.9458	-3.2	-3.6229	-3.7604	-3.1417	-3.7271	-3.7104	32.836	149.819	101.369	-30.483	217.375	299.449	222.118	249.750	163.052	-30.539	289.935	287.225	78.159	202.895	184.131	204.143	8.8924e-05	0.00018608	4.9535e-05	1106.7	2.4718e-06	2.8956e-07	1208.9	227.55	1.277e-06	1.8104e-06	289.73	79.981	63.875	18.534	2.7559e-06	26.131	3.2143e-05	3.022e-05	8.431e-06	994.04	3.3493e-07	3.3411e-07	1111.6	207.52	3.4791e-07	3.2772e-07	255.8	72.182	57.038	16.547	3.3909e-07	22.866	161.555	12.411	41.227	-21.828	51.479	75.862	-21.642	-14.548	188.868	101.761	-14.942	-7.835	-7.677	-0.481	134.900	-1.340	-8191	255	
1752.939	1	1	0	0	0.27231	0.067997	0.13781	0.1341	0.14276	0.095859	0.19824	0.097854	0.37053	0.091042	0.034075	0.087136	0.22999	0.22952	0.19512	0.059053	-2.6167	-4.0104	-3.3458	-3.5062	-3.9208	-3.1396	-3.8375	-3.8312	-3.2417	-4.0521	-3.4021	-3.3604	-4.0729	-3.3438	-3.6042	-3.7812	223.072	223.630	29.719	-18.224	196.618	152.252	243.675	46.716	289.970	64.961	-7.464	87.297	319.907	98.667	255.028	302.098	0.0001111	0.00011349	7.3515e-05	1105.8	2.6603e-06	2.1161e-06	1211.7	226.88	2.0868e-06	2.1601e-06	288.44	79.774	63.412	18.437	2.7493e-06	26.189	3.2277e-05	2.9231e-05	8.3512e-06	993.44	3.3523e-07	3.3609e-07	1112.9	207.29	3.437e-07	3.3541e-07	255.33	72.125	57.054	16.573	3.4361e-07	22.898	196.067	33.597	25.461	-22.354	98.355	102.371	-21.780	-14.559	173.023	118.273	-15.027	-8.031	-7.564	-0.744	108.722	-1.364	-8191	255	
1753.036	1	1	0	0	0.2274	0.031056	0.07149	0.14186	0.05077	0.10366	0.018272	0.20034	0.075639	0.13494	0.15493	0.15763	0.06368	0.22297	0.14817	0.12211	-2.4979	-4.0625	-3.4354	-3.2625	-3.8688	-3.0625	-3.7562	-3.9771	-3.0771	-3.8646	-3.7208	-3.075	-3.9417	-3.2729	-3.6167	-3.8542	238.137	45.526	170.396	282.074	229.727	42.611	131.951	244.906	13.075	311.881	12.519	203.094	250.712	255.101	225.280	147.894	7.9263e-05	0.00024034	7.2807e-05	1107.9	2.0356e-06	2.3315e-06	1207.2	226.46	2.3039e-06	1.1695e-06	288.19	79.72	63.178	18.629	1.3257e-06	26.096	3.3112e-05	2.9836e-05	8.6056e-06	993.18	3.4421e-07	3.3663e-07	1113.7	207.28	3.553e-07	3.3813e-07	254.82	72.292	57.018	16.575	3.4561e-07	22.938	183.043	87.247	116.896	-22.353	114.708	50.353	-21.937	-14.938	169.682	119.435	-15.357	-8.153	-8.121	-1.103	84.181	-1.835	-8191	255	
1753.132	1	1	0	0	0.19162	0.10046	0.13887	0.096564	0.19752	0.084889	0.12622	0.21704	0.022061	0.14187	0.25695	0.20332	0.24153	0.32141	0.31991	0.1087	-2.6437	-3.7021	-3.5708	-3.2521	-3.9417	-3.4875	-3.4854	-4.0542	-3.1167	-3.7229	-3.8521	-3.225	-4.0229	-3.4104	-3.3146	-3.9146	43.799	44.918	99.338	110.753	40.631	24.087	238.838	325.711	10.531	219.724	266.907	188.238	56.647	-7.553	229.897	289.684	0.00010641	0.00026509	0.00012986	1108.7	1.4457e-06	1.7859e-06	1209.4	224.55	1.0232e-06	1.5973e-06	286.59	80.709	63.044	18.459	2.1144e-06	26.117	3.2943e-05	2.9856e-05	8.2807e-06	995.46	3.3278e-07	3.3789e-07	1113.9	206.75	3.4502e-07	3.3619e-07	255.04	72.333	57.057	16.549	3.4356e-07	22.871	186.842	19.479	95.195	-22.537	136.994	152.381	-22.057	-15.367	174.707	102.124	-15.495	-8.146	-7.837	-0.839	111.077	-1.806	-8191	255	
1753.226	1	1	0	0	0.10635	0.23247	0.19054	0.0074149	0.17708	0.15438	0.13539	0.19741	0.23285	0.11584	0.33136	0.18272	0.073045	0.060676	0.19544	0.39392	-2.7458	-3.8937	-3.7479	-3.2729	-4.1042	-3.4938	-3.3417	-3.9813	-3.15	-3.5062	-3.75	-3.0187	-3.9875	-3.5146	-3.3458	-3.9313	63.606	-29.670	209.559	146.492	20.156	99.146	-31.750	257.767	35.454	164.870	321.271	215.820	308.357	-5.122	37.257	212.523	9.3373e-05	7.9788e-05	7.9715e-05	1107.4	2.7962e-06	2.7002e-06	1208.2	226.18	1.7651e-06	6.007e-07	288.37	80.178	63.314	18.478	3.359e-06	26.21	3.2469e-05	2.9156e-05	8.414e-06	994.43	3.4958e-07	3.3204e-07	1111.3	207.18	3.5001e-07	3.4498e-07	255.27	72.268	56.909	16.521	3.459e-07	22.975	151.807	306.778	97.906	-22.489	171.666	104.400	-22.041	-14.998	200.079	18.175	-15.093	-8.098	-8.076	-1.280	106.541	-1.753	-8191	255	
1753.322	1	1	0	0	0.027757	0.087111	0.14413	0.18889	0.23158	0.23175	0.23253	0.24047	0.18834	0.11621	0.18881	0.12757	0.14373	0.19993	0.15091	0.15037	-2.9354	-3.5	-3.7438	-3.3375	-3.7562	-3.65	-3.2146	-3.9917	-3.3229	-3.2354	-4.05	-2.9667	-3.6958	-3.7083	-3.2104	-3.9708	316.336	115.197	231.179	258.000	10.614	-30.966	260.072	261.373	110.270	42.236	260.867	264.491	219.523	181.807	-32.479	51.659	9.0873e-05	0.00012552	6.1654e-05	1106.6	1.2775e-06	2.3124e-06	1208.5	227.07	9.3881e-07	6.5355e-07	288.09	79.969	63.611	18.436	1.7723e-06	26.326	3.3059e-05	3.0452e-05	8.296e-06	993.71	3.3789e-07	3.3429e-07	1110.9	207.74	3.4513e-07	3.3934e-07	255.75	72.138	57.068	16.527	3.5125e-07	22.923	159.056	-13.434	129.166	-22.346	53.321	85.988	-22.151	-15.040	138.354	81.622	-14.940	-7.807	-8.125	-0.922	147.940	-1.227	-8191	255	
1753.420	1	1	0	0	0.1641	0.039485	0.22026	0.099874	0.17081	0.12159	0.14908	0.16341	0.21305	0.048593	0.35157	0.24379	0.22522	0.4096	0.12994	0.17704	-2.8604	-3.2167	-3.8479	-3.1937	-3.675	-3.6708	-3.2062	-3.8104	-3.3167	-3.2729	-4.0667	-3.1354	-3.775	-3.8479	-3.125	-4.0062	106.508	61.788	165.225	156.848	325.126	59.928	272.820	244.068	-4.985	267.496	176.251	263.262	309.627	326.276	20.914	296.994	0.00011202	0.00017443	4.837e-05	1107.5	1.2425e-06	5.4697e-07	1208.7	227.6	1.2722e-06	2.1107e-06	289.45	80.559	63.412	18.652	3.9508e-06	26.055	3.2516e-05	3.0825e-05	8.2589e-06	992.45	3.3644e-07	3.2489e-07	1111	207.95	3.4141e-07	3.399e-07	255.61	72.231	56.969	16.569	3.363e-07	22.899	177.392	-29.897	100.725	-22.473	108.076	95.007	-22.175	-14.841	151.368	141.330	-15.127	-8.007	-7.793	-1.483	100.030	-1.425	-8191	255	
1753.539	1	1	0	0	0.15694	0.11664	0.18508	0.061327	0.14678	0.02252	0.25558	0.23736	0.05838	0.28801	0.18684	0.37644	0.21349	0.21923	0.27018	0.17614	-3.0271	-3.2333	-3.8563	-3.1063	-3.5542	-3.8833	-3.2521	-4.0437	-3.3667	-3.1792	-3.9833	-3.1188	-3.5	-3.8458	-2.8875	-3.775	-16.892	310.806	13.865	131.626	307.333	187.455	262.586	171.248	202.560	105.871	32.295	111.248	313.169	91.357	89.473	268.881	8.9869e-05	0.00012177	8.6586e-05	1100.4	8.0669e-07	1.8712e-06	1208.6	226.39	2.266e-06	2.3236e-06	288.28	80.197	63.531	18.595	2.3849e-06	26.129	3.2001e-05	2.9322e-05	8.3832e-06	992.56	3.3945e-07	3.3125e-07	1111.1	207.25	3.4308e-07	3.3337e-07	255.72	72.18	57.022	16.566	3.4132e-07	22.925	179.367	39.906	77.634	-22.708	110.077	70.894	-22.191	-14.869	99.483	69.216	-15.202	-8.277	-8.154	-1.160	129.884	-1.092	-8191	255	
1753.635	1	1	0	0	0.09598	0.20905	0.26288	0.1793	0.15137	0.02897	0.24792	0.045646	0.19475	0.090345	0.21761	0.23998	0.075418	0.13147	0.16369	0.16364	-3.1	-3.0271	-3.9792	-3.2812	-3.5396	-3.9604	-3.2458	-3.7583	-3.6521	-3.1021	-3.9083	-3.3542	-3.3542	-4.1062	-3.0354	-3.7875	-13.637	-19.188	103.746	-28.843	317.082	204.988	284.636	6.865	141.935	-8.263	313.821	104.617	37.315	-12.934	112.084	77.251	8.1093e-05	0.00014725	5.2004e-05	1107.1	2.3755e-06	7.4951e-07	1208.2	226.45	6.0491e-07	3.4511e-06	289.29	80.278	63.082	18.485	5.5322e-07	26.102	3.2554e-05	3.0214e-05	8.1081e-06	992.98	3.3988e-07	3.3104e-07	1110.9	207.2	3.4547e-07	3.3433e-07	255.29	72.201	56.958	16.581	3.4816e-07	22.937	149.141	34.073	2.483	-22.445	132.974	65.848	-22.196	-14.630	161.410	75.586	-15.107	-7.709	-7.806	-0.696	236.234	-1.042	-8191	255	
1753.731	1	1	0	0	0.068877	0.11748	0.13449	0.30484	0.20302	0.097106	0.18593	0.18941	0.13655	0.14253	0.10425	0.060953	0.31808	0.0074683	0.036434	0.1822	-3.5042	-3.175	-3.7625	-3.3833	-3.3896	-3.9583	-3.2438	-3.6875	-3.7562	-3.1562	-4.0333	-3.6083	-3.2458	-4.0312	-3.1646	-3.4833	274.223	255.027	51.638	256.183	191.237	224.365	304.094	178.047	215.601	51.632	242.712	101.747	202.916	260.888	177.176	253.911	8.8791e-05	0.00021921	6.5761e-05	1106.4	1.5245e-06	1.0009e-06	1209.9	226.84	1.7594e-06	2.8216e-06	290.12	80.046	62.946	18.505	1.1796e-06	26.11	3.2139e-05	3.075e-05	8.326e-06	991.59	3.4353e-07	3.2496e-07	1109.8	207.37	3.4078e-07	3.313e-07	256.09	72.33	56.889	16.53	3.2717e-07	22.878	149.012	108.494	99.337	-22.416	70.800	65.473	-22.262	-14.998	147.152	101.626	-14.938	-7.723	-7.776	-0.849	142.739	-1.375	-8191	255	
1753.827	1	1	0	0	0.223	0.165	0.052039	0.083524	0.042734	0.082889	0.091077	0.17954	0.051332	0.13125	0.14551	0.13978	0.16851	0.34667	0.222	0.097002	-3.5354	-3.0875	-3.8458	-3.6354	-3.1521	-4.0125	-3.3063	-3.3021	-3.8146	-3.1042	-3.8208	-3.6188	-3.175	-3.8042	-3.3104	-3.3583	313.357	302.452	309.114	-5.598	168.387	320.322	179.050	270.110	50.483	-17.970	22.129	131.359	21.543	272.084	196.678	52.760	7.9915e-05	0.00011168	9.105e-05	1103.5	2.5288e-06	1.8285e-06	1202.4	226.1	1.4896e-06	1.6046e-06	288.14	80.57	63.171	18.68	3.5226e-06	26.037	3.2408e-05	2.9914e-05	8.1472e-06	992.21	3.3725e-07	3.2221e-07	1108.4	206.98	3.4047e-07	3.2784e-07	254.81	72.154	56.958	16.59	3.4017e-07	22.923	169.497	26.666	80.933	-22.271	170.322	97.018	-22.219	-14.830	108.687	96.992	-15.279	-7.945	-7.703	-0.972	145.274	-1.512	-8191	255	
1753.924	1	1	0	0	0.063343	0.070769	0.23108	0.26989	0.12652	0.23038	0.18839	0.29859	0.15956	0.26172	0.30277	0.082094	0.11289	0.18304	0.11336	0.18731	-3.6458	-2.9875	-3.7062	-3.7354	-2.9979	-3.9437	-3.4542	-3.3063	-3.8604	-3.1417	-3.7125	-3.8083	-3.1229	-3.9833	-3.4146	-3.2271	323.992	58.265	35.459	235.580	187.321	164.776	232.874	255.914	132.590	65.612	212.355	54.946	277.220	86.125	104.817	249.670	0.0001127	0.0003737	7.9997e-05	1097.7	2.5245e-06	8.8337e-07	1205	227.03	2.6311e-07	1.5327e-06	289.3	80.081	63.063	18.428	2.4401e-06	26.243	3.2277e-05	3.0356e-05	8.2609e-06	989.91	3.4166e-07	3.3279e-07	1108.4	207.58	3.3617e-07	3.3022e-07	255.2	72.111	56.824	16.497	3.3523e-07	22.908	164.011	33.238	31.187	-22.128	128.710	47.250	-22.226	-14.731	172.279	57.326	-15.090	-8.297	-7.978	-0.537	155.436	-1.824	-8191	255	
1754.020	1	1	0	0	0.16422	0.2693	0.1584	0.12405	0.17413	0.13482	0.24185	0.14832	0.10601	0.077137	0.20645	0.14978	0.30339	0.10678	0.11147	0.078897	-3.6125	-3.1479	-3.5104	-3.8958	-2.9771	-3.8438	-3.5396	-3.2854	-3.875	-3.1854	-3.5083	-4.0125	-3.1375	-3.8771	-3.5938	-3.1229	224.943	181.773	55.478	235.599	79.305	104.959	-24.734	212.163	247.658	116.798	286.165	182.491	3.638	128.970	266.203	111.373	0.00014778	6.1131e-05	8.8502e-05	1109.2	2.9831e-06	8.3773e-07	1201.1	226.55	1.8817e-06	1.6816e-06	286.43	80.568	63.042	18.475	8.2029e-07	26.176	3.2794e-05	3.0534e-05	8.4967e-06	992.47	3.4359e-07	3.3103e-07	1107.4	207.34	3.36e-07	3.4008e-07	255	72.359	57.006	16.563	3.4153e-07	22.954	169.743	136.212	73.921	-22.596	88.381	122.650	-22.272	-14.442	71.619	138.250	-14.853	-8.315	-7.633	-1.063	85.654	-1.297	-8191	255	
1754.116	1	1	0	0	0.36859	0.028542	0.12242	0.14889	0.082548	0.17536	0.2371	0.17056	0.085	0.18927	0.022344	0.12578	0.085688	0.28205	0.033408	0.25128	-3.3854	-3.3625	-3.3833	-3.8833	-3.0667	-3.7271	-3.6562	-3.0729	-3.825	-3.2729	-3.4208	-4.0229	-3.1375	-3.7021	-3.7958	-3.0604	184.500	267.366	236.870	223.189	73.885	30.182	279.610	8.438	26.435	131.036	-30.920	134.079	-28.503	297.197	285.575	0.632	9.386e-05	0.00022293	7.4105e-05	1107.3	2.0624e-06	9.4916e-07	1208.7	226.89	7.9077e-07	8.6067e-07	288.09	80.787	62.958	18.49	2.6276e-06	26.021	3.2528e-05	2.9382e-05	8.249e-06	991.21	3.3473e-07	3.2883e-07	1109.9	207.37	3.4575e-07	3.4312e-07	254.55	72.425	56.934	16.55	3.4318e-07	22.854	181.339	23.681	85.583	-22.440	131.596	73.619	-22.141	-14.944	299.748	94.688	-15.091	-8.213	-8.088	-0.772	92.438	-1.339	-8191	255	
1754.212	1	1	0	0	0.21326	0.068342	0.05888	0.17517	0.2039	0.091713	0.20317	0.04595	0.094468	0.29444	0.27983	0.072813	0.17043	0.28267	0.10577	0.095544	-3.5833	-3.6167	-3.3104	-3.925	-3.25	-3.7208	-3.8583	-3.2021	-3.8229	-3.4229	-3.2583	-3.9396	-3.1063	-3.6792	-3.6354	-3.1833	107.915	39.843	136.432	137.861	247.980	306.307	228.988	-7.566	248.080	193.455	-5.967	-21.571	266.749	-9.041	151.959	257.759	0.00014052	0.0002047	8.5793e-05	1110.1	4.3774e-07	3.132e-07	1214.2	226.54	7.2258e-07	2.6756e-06	290.96	80.601	63.094	18.452	2.6173e-06	26.204	3.2082e-05	3.0783e-05	8.4664e-06	993.31	3.4225e-07	3.3068e-07	1112.3	207.36	3.4392e-07	3.3251e-07	255.98	72.356	56.866	16.549	3.4085e-07	22.936	175.695	29.269	47.767	-22.654	67.715	75.960	-22.090	-14.877	133.425	68.363	-14.688	-7.785	-7.898	-0.404	146.156	-1.903	-8191	255	
1754.331	1	1	0	0	0.048034	0.23008	0.15303	0.032799	0.073865	0.032712	0.21084	0.13218	0.077833	0.14235	0.22594	0.068934	0.16811	0.11479	0.22352	0.16726	-3.4813	-3.7021	-3.2021	-4.0854	-3.1479	-3.5563	-3.9646	-3.0187	-3.8604	-3.7229	-2.9396	-3.9146	-3.5083	-3.3917	-3.8479	-3.2208	89.253	319.353	32.123	16.371	0.580	300.250	293.416	222.737	48.443	41.478	218.066	48.344	188.656	98.172	261.701	56.531	9.2103e-05	0.00023532	7.2368e-05	1105.5	3.0478e-06	2.4117e-06	1209.6	226.8	1.2698e-06	6.2447e-07	289.45	80.405	63.316	18.513	1.2722e-06	26.259	3.188e-05	2.9467e-05	8.5691e-06	990.94	3.4292e-07	3.2823e-07	1110.3	207.11	3.4246e-07	3.3318e-07	254.97	72.164	56.982	16.574	3.3581e-07	22.943	160.321	54.869	105.191	-22.179	139.102	62.925	-21.848	-14.952	148.002	42.871	-14.949	-7.867	-7.983	-0.831	87.809	-1.422	-8191	255	
1754.427	1	1	0	0	0.22808	0.29444	0.093814	0.24424	0.084858	0.07799	0.32463	0.1963	0.080643	0.082225	0.14073	0.069275	0.046842	0.21372	0.13996	0.16778	-3.4417	-3.7	-3.1604	-4.0417	-3.3958	-3.3104	-4.025	-3.4229	-3.7562	-3.9042	-3.1688	-3.9771	-3.5104	-3.2354	-4.05	-3.3125	272.625	267.770	33.479	284.188	101.089	251.179	295.901	313.831	12.782	297.281	222.971	13.638	127.320	-10.862	207.518	216.439	0.00010933	0.00032125	7.3578e-05	1108.8	1.1393e-06	1.8486e-06	1209	226.57	1.5364e-06	2.0303e-06	291.08	80.419	63.337	18.603	7.7378e-07	26.179	3.282e-05	3.0161e-05	8.2935e-06	993.45	3.3601e-07	3.293e-07	1109.9	207.18	3.4585e-07	3.2882e-07	255.24	72.408	57.068	16.535	3.3348e-07	22.887	192.609	13.265	73.487	-22.288	33.896	86.326	-21.859	-14.726	131.818	68.353	-15.058	-8.134	-7.783	-0.798	45.771	-1.371	-8191	255	
1754.523	1	1	0	0	0.16536	0.23996	0.20462	0.038555	0.22295	0.31381	0.25798	0.11112	0.37743	0.099007	0.035268	0.082827	0.202	0.4072	0.20175	0.081245	-3.3146	-3.8667	-2.9333	-3.9729	-3.5	-3.1979	-4.0458	-3.2271	-3.3792	-3.7438	-3.1021	-3.9125	-3.6479	-3.0542	-4.0896	-3.2917	251.094	31.054	250.549	108.372	284.827	304.816	283.676	23.987	288.670	156.243	-14.748	159.242	280.630	283.865	-12.513	48.383	0.00011525	0.00019252	4.7035e-05	1110.6	2.5998e-06	2.061e-06	1211.1	226.7	1.3926e-06	3.4183e-06	289.11	80.693	63.49	18.532	1.3833e-06	25.939	3.2682e-05	3.0204e-05	8.6973e-06	994.48	3.3811e-07	3.35e-07	1113.3	207.59	3.4582e-07	3.3437e-07	254.68	72.445	56.993	16.573	3.4194e-07	22.846	174.211	-13.420	37.197	-22.492	155.472	70.111	-21.864	-14.719	193.376	110.754	-14.526	-7.827	-7.753	-0.791	54.001	-1.477	-8191	255	
1754.619	1	1	0	0	0.17676	0.33184	0.1898	0.11433	0.12651	0.099395	0.18552	0.1673	0.15855	0.13551	0.13624	0.1463	0.13379	0.090337	0.21681	0.10269	-3.075	-3.9083	-2.9333	-3.9292	-3.6625	-2.9417	-4.1521	-3.2562	-3.1333	-3.9479	-3.2229	-3.6479	-3.8125	-3.25	-3.9562	-3.4125	69.213	241.914	3.973	321.660	16.424	312.663	275.448	26.723	75.345	163.946	216.985	-23.917	232.984	195.539	198.918	168.660	9.0746e-05	0.00019798	5.0899e-05	1111.6	3.5422e-06	1.4909e-06	1211.9	226.56	1.6303e-06	3.1869e-06	290.37	80.483	63.389	18.463	4.4241e-06	26.154	3.2438e-05	2.995e-05	8.519e-06	994.42	3.4222e-07	3.3695e-07	1111.3	207.36	3.4034e-07	3.3245e-07	255.19	72.253	56.882	16.511	3.4135e-07	22.92	179.786	68.749	27.663	-22.159	71.090	73.163	-21.753	-14.919	153.566	75.163	-15.225	-7.911	-8.182	-0.933	102.343	-1.249	-8191	255	
1754.716	1	1	0	0	0.13396	0.26904	0.42697	0.25978	0.14721	0.11146	0.14459	0.18245	0.17982	0.20982	0.12506	0.20603	0.35526	0.27623	0.12661	0.32488	-2.8563	-3.9729	-3.2292	-3.7729	-3.7083	-2.9917	-4.1125	-3.5167	-3.2396	-3.8146	-3.3375	-3.5563	-3.9062	-3.2208	-3.7854	-3.6479	321.224	254.643	287.364	286.555	171.706	306.237	270.913	298.821	319.983	276.848	205.879	310.136	-10.064	273.021	-26.246	303.640	7.3348e-05	0.00025234	2.7546e-05	1103	1.5649e-06	2.0346e-06	1212.1	225.66	3.5416e-07	2.451e-06	288.89	80.421	63.404	18.342	2.7718e-06	26.023	3.3093e-05	3.0466e-05	8.5366e-06	992.27	3.3598e-07	3.3753e-07	1112.2	206.88	3.4784e-07	3.3458e-07	255.4	72.446	56.931	16.546	3.4023e-07	22.844	184.279	22.521	6.754	-22.215	52.823	113.959	-21.804	-15.023	242.668	44.947	-15.248	-7.822	-8.017	-0.935	-28.560	-1.283	-8191	255	
1754.812	1	1	0	0	0.15882	0.11481	0.082463	0.15009	0.20509	0.11489	0.053578	0.1732	0.089737	0.094382	0.22291	0.045732	0.30704	0.13828	0.22248	0.034698	-2.8021	-4	-3.2938	-3.6896	-3.9208	-2.925	-3.8271	-3.7229	-3.0875	-4.1667	-3.2042	-3.4125	-4.1375	-3.2875	-3.6104	-3.7313	326.299	303.052	17.727	266.167	120.740	157.565	311.136	131.890	302.525	222.636	297.671	298.880	309.388	-20.391	47.862	12.242	0.00011005	0.00015097	1.3821e-05	1107.4	1.9946e-06	2.8662e-06	1203.8	224.67	2.5469e-07	2.8733e-06	289.66	79.802	63.104	18.455	3.2238e-06	25.995	3.2093e-05	2.9853e-05	8.4038e-06	992.36	3.3758e-07	3.3442e-07	1110	206.49	3.4506e-07	3.3994e-07	255.2	72.137	56.895	16.519	3.4229e-07	22.894	167.224	25.913	-10.418	-22.294	56.213	120.961	-21.841	-14.633	200.175	113.450	-15.148	-8.180	-8.078	-0.867	85.475	-1.602	-8191	255	
1754.932	1	1	0	0	0.24888	0.11585	0.11829	0.037581	0.22846	0.23384	0.13269	0.28849	0.015022	0.19471	0.23559	0.070767	0.11803	0.1748	0.1768	0.12068	-2.8375	-4.0813	-3.4583	-3.4146	-4.0146	-3.1167	-3.8396	-4.0146	-3.1792	-3.875	-3.525	-3.3208	-3.9583	-3.2125	-3.5917	-3.875	185.582	42.194	197.169	-6.034	324.474	293.888	2.422	277.283	184.750	20.872	286.535	218.766	170.762	264.758	16.884	257.929	0.00010516	0.00015969	2.8305e-05	1108.7	1.8123e-06	2.502e-06	1208.2	225.54	1.3152e-06	1.6003e-06	288.17	80.251	62.96	18.407	1.9413e-06	26.117	3.4133e-05	3.0739e-05	8.392e-06	994.62	3.3879e-07	3.4081e-07	1113.7	207.23	3.5077e-07	3.3849e-07	255.09	72.189	56.788	16.528	3.4824e-07	22.882	172.507	29.302	-16.390	-22.389	130.370	55.398	-21.865	-14.656	168.293	124.535	-15.137	-8.247	-7.824	-0.925	178.399	-1.305	-8191	255	
1755.028	1	1	0	0	0.11292	0.10053	0.2439	0.29347	0.10735	0.18325	0.31163	0.21446	0.18402	0.057645	0.15853	0.078753	0.17225	0.033065	0.19067	0.022878	-2.7	-3.8271	-3.5625	-3.5062	-4.0958	-3.1792	-3.6771	-3.8833	-2.8708	-3.7125	-3.6729	-3.0563	-3.9542	-3.1125	-3.3812	-3.9667	184.125	129.226	308.653	230.907	3.251	189.769	268.066	282.554	66.366	308.995	319.356	164.072	41.463	202.249	-1.783	38.309	8.64e-05	0.00013071	0.00011137	1108.6	2.0443e-06	1.5581e-06	1207.2	224.98	2.9468e-07	2.7825e-06	289.35	80.066	63.198	18.528	3.2164e-06	26.132	3.3329e-05	3.0989e-05	8.5683e-06	993.58	3.3401e-07	3.3283e-07	1112.1	206.82	3.4358e-07	3.4212e-07	255.36	72.3	56.924	16.536	3.4535e-07	22.943	146.314	51.910	57.956	-22.298	217.309	69.860	-21.803	-14.625	245.432	71.180	-15.064	-8.122	-7.617	-0.802	133.280	-1.304	-8191	255	
1755.125	1	1	0	0	0.088369	0.092866	0.13495	0.12518	0.10441	0.08551	0.23189	0.26081	0.22497	0.26728	0.12011	0.073948	0.19208	0.23126	0.062136	0.10325	-2.8354	-3.7375	-3.8	-3.2042	-3.9979	-3.5021	-3.5875	-4.0375	-3.1396	-3.7375	-3.7875	-3.1125	-4.0146	-3.3708	-3.3521	-3.9333	280.443	311.430	24.798	75.143	277.476	238.662	235.751	281.233	121.239	232.408	212.394	325.585	282.804	318.453	194.166	-32.376	8.1623e-05	0.00016215	6.8554e-05	1108	1.554e-06	8.9831e-07	1205.9	227.78	8.9624e-07	1.8893e-06	289.1	79.774	63.018	18.474	2.0709e-06	26.034	3.3156e-05	3.0589e-05	8.5836e-06	994.34	3.3577e-07	3.3856e-07	1110.5	207.53	3.5341e-07	3.2931e-07	254.87	71.999	56.916	16.551	3.4199e-07	22.917	183.700	67.809	128.306	-22.229	182.316	1.094	-22.093	-14.569	151.344	107.250	-15.124	-7.938	-7.833	-1.113	148.265	-0.481	-8191	255	
1755.221	1	1	0	0	0.42768	0.10842	0.16467	0.10473	0.18001	0.25744	0.33455	0.054205	0.1796	0.15118	0.11498	0.22906	0.14033	0.25806	0.17238	0.038728	-2.8729	-3.6021	-3.8479	-3.0646	-3.9958	-3.5583	-3.375	-3.8104	-3.1625	-3.5229	-3.8125	-3.1813	-3.8583	-3.6792	-3.1896	-3.9854	75.000	296.890	297.338	325.506	202.350	156.866	244.961	261.013	236.197	119.957	146.893	55.321	232.564	250.756	32.983	268.002	0.00013168	7.4169e-05	7.9717e-05	1109.8	1.1838e-06	1.7419e-06	1213.5	226.71	8.3196e-07	1.7073e-06	288.84	80.882	63.615	18.6	1.6738e-06	26.168	3.3065e-05	2.9921e-05	8.4814e-06	993.35	3.4641e-07	3.2528e-07	1112.8	207.61	3.4803e-07	3.4517e-07	254.89	72.209	57.162	16.623	3.4502e-07	22.901	175.870	-16.510	90.448	-22.133	78.210	9.382	-21.861	-14.683	132.288	84.139	-15.388	-7.860	-7.421	-1.070	96.347	-1.444	-8191	255	
1755.315	1	1	0	0	0.14488	0.14624	0.15611	0.15505	0.20222	0.1135	0.086416	0.25219	0.12588	0.10136	0.043572	0.17168	0.054938	0.17965	0.12981	0.21002	-2.9062	-3.45	-3.8104	-3.1167	-3.6042	-3.5083	-3.3375	-3.9562	-3.2938	-3.4479	-4.0229	-3.3104	-3.7438	-3.7375	-2.9979	-4.1125	66.854	21.572	221.717	269.925	218.641	138.823	201.193	306.387	258.051	-8.301	271.795	45.771	266.412	107.379	162.684	258.203	7.7097e-05	0.00018639	2.422e-05	1106.2	2.3927e-06	1.6285e-06	1213.4	226.12	1.1539e-06	1.7854e-07	289.86	81.012	63.343	18.424	1.1321e-06	26.271	3.3462e-05	3.0846e-05	8.6107e-06	992.28	3.4282e-07	3.383e-07	1113.2	207.3	3.5609e-07	3.3849e-07	255.17	72.286	56.949	16.517	3.4841e-07	22.9	197.233	69.551	-12.731	-22.257	180.780	103.730	-21.595	-14.294	134.509	143.587	-14.788	-7.558	-7.413	-0.334	166.769	-0.881	-8191	255	
1755.411	1	1	0	0	0.16475	0.067707	0.073257	0.17389	0.10304	0.053094	0.15139	0.16098	0.24145	0.073084	0.27795	0.044494	0.15147	0.078454	0.088519	0.19049	-2.9062	-3.1208	-3.7	-3.0312	-3.5583	-3.7646	-3.2188	-4.1	-3.2667	-3.1542	-4.0667	-3.2521	-3.6396	-3.9479	-3.0875	-3.7542	3.886	-29.865	199.466	239.276	61.026	146.457	242.363	114.767	158.638	148.691	307.185	310.941	-13.305	40.135	149.463	263.216	7.8925e-05	0.00022264	5.5218e-05	1109.5	1.3834e-06	2.0878e-06	1212.1	227.77	2.0964e-06	1.7357e-06	289.59	80.824	63.736	18.63	2.296e-06	26.099	3.2844e-05	3.078e-05	8.6189e-06	993.37	3.4711e-07	3.378e-07	1111.5	207.59	3.4154e-07	3.3573e-07	255.45	72.298	57.011	16.581	3.4061e-07	22.925	177.039	43.172	85.148	-22.157	121.752	74.495	-21.658	-14.365	87.703	103.804	-14.983	-7.921	-7.334	-0.574	75.751	-1.459	-8191	255	
1755.507	1	1	0	0	0.11733	0.313	0.089991	0.30902	0.10061	0.080335	0.03128	0.040838	0.16871	0.048246	0.17741	0.28355	0.32201	0.072229	0.16605	0.23562	-3.0938	-3.275	-3.9313	-3.2375	-3.6083	-3.9833	-3.3583	-4.0771	-3.6042	-3.0563	-4.0875	-3.2792	-3.4437	-3.9667	-3.1604	-3.8812	306.185	131.949	45.588	304.451	14.154	36.344	102.191	281.307	-28.178	156.268	293.186	252.433	-21.163	153.638	3.499	315.236	0.00011885	0.00016185	0.00011844	1112.6	3.7038e-06	6.6239e-07	1211.1	228.47	1.9354e-06	2.2781e-06	289.17	80.602	63.582	18.558	1.5527e-06	26.061	3.3274e-05	3.0698e-05	8.3416e-06	993.4	3.4598e-07	3.3372e-07	1110.6	208.1	3.4705e-07	3.3945e-07	255.59	72.269	56.979	16.537	3.4264e-07	22.893	183.885	-8.189	84.498	-22.042	103.928	162.477	-21.738	-14.245	182.312	90.231	-14.369	-8.069	-7.211	-0.844	121.379	-0.680	-8191	255	
1755.604	1	1	0	0	0.10865	0.081922	0.063944	0.044509	0.2753	0.15941	0.23595	0.15265	0.16368	0.047304	0.23592	0.074474	0.21219	0.08189	0.18535	0.10258	-3.3646	-3.1708	-3.9479	-3.4667	-3.2313	-4.0104	-3.2646	-3.8563	-3.7125	-3.1458	-4.0042	-3.5042	-3.5104	-3.8917	-3.0792	-3.5604	127.312	101.009	5.697	290.489	54.374	24.040	38.197	-18.011	262.929	172.940	281.631	66.799	255.709	246.673	302.123	212.689	9.0152e-05	0.00025556	6.1828e-05	1103.9	2.2536e-06	8.6373e-07	1209.4	227.46	1.0266e-06	6.8114e-07	288.2	80.167	63.241	18.578	3.4686e-06	26.082	3.2277e-05	3.0978e-05	8.377e-06	993.89	3.4336e-07	3.3405e-07	1110.5	207.55	3.4786e-07	3.4814e-07	255.41	72.205	56.936	16.556	3.5367e-07	22.939	158.389	37.764	90.619	-22.252	131.970	108.802	-21.720	-14.409	8.876	92.015	-14.652	-7.569	-7.852	-0.837	122.702	-0.900	-8191	255	
1755.724	1	1	0	0	0.046961	0.058051	0.17621	0.19915	0.087156	0.34392	0.15496	0.14217	0.13169	0.044814	0.073883	0.13017	0.23997	0.07611	0.24125	0.22803	-3.4292	-3.1979	-3.7771	-3.4604	-3.2292	-3.9458	-3.2833	-3.5396	-3.8083	-3.1083	-3.9062	-3.5833	-3.1375	-3.9896	-3.175	-3.5125	292.297	32.100	299.117	271.309	285.884	179.320	71.858	283.070	241.260	28.548	264.649	261.912	-2.859	278.450	9.299	299.346	8.1485e-05	7.3634e-05	3.8552e-05	1117.5	2.0112e-06	2.6509e-06	1212.6	227.98	2.149e-06	3.5142e-06	287.44	79.981	63.187	18.467	2.0741e-06	26.177	3.3166e-05	3.1438e-05	8.8201e-06	995.76	3.5522e-07	3.5311e-07	1110.3	207.66	3.5207e-07	3.456e-07	255.31	72.286	56.961	16.593	3.512e-07	22.886	178.859	102.962	68.050	-22.043	111.998	103.809	-21.887	-14.291	124.544	113.893	-14.777	-7.510	-7.525	-0.807	101.889	-1.037	-8191	255	
1755.796	1	1	0	0	0.040962	0.20666	0.12988	0.080794	0.10768	0.13168	0.16464	0.032808	0.13959	0.12194	0.10104	0.21245	0.037434	0.10673	0.099727	0.33079	-3.5187	-3.1562	-3.8729	-3.5625	-3.3021	-4.1604	-3.5083	-3.4188	-3.9521	-3.0708	-3.8875	-3.8729	-3.2062	-3.9646	-3.5187	-3.5854	94.447	173.648	-26.919	82.949	27.439	232.741	246.382	5.098	110.697	157.372	57.134	150.001	70.699	183.895	166.575	313.629	9.8748e-05	0.00014272	3.7904e-05	1104.1	1.5617e-06	1.18e-06	1205.8	225.98	8.3341e-07	1.4707e-06	288.31	80.16	63.395	18.393	1.4098e-06	26.121	3.3615e-05	3.2217e-05	8.4587e-06	992.05	3.4913e-07	3.3455e-07	1109.4	206.83	3.4443e-07	3.4263e-07	255.33	72.072	56.941	16.509	3.4006e-07	22.985	169.566	30.660	115.792	-22.048	87.280	184.625	-21.872	-14.306	199.326	106.614	-14.671	-7.685	-7.848	-0.670	200.972	-0.840	-8191	255	
1755.892	1	1	0	0	0.12813	0.16648	0.072292	0.049552	0.1401	0.19072	0.085857	0.074368	0.051093	0.099925	0.34228	0.32849	0.15839	0.20072	0.17305	0.023292	-3.6729	-3.1229	-3.6333	-3.8083	-2.9583	-3.975	-3.7562	-3.3521	-3.9479	-3.1875	-3.6292	-4.0146	-3.3583	-3.8917	-3.5312	-3.3604	13.964	31.331	326.986	316.235	232.608	70.746	301.258	68.766	62.416	1.389	235.341	281.291	2.157	105.334	93.955	61.304	9.4474e-05	1.4998e-05	1.5015e-05	1108.5	2.7752e-06	1.4748e-06	1208.1	227.5	1.7298e-06	1.1364e-06	289.65	80.129	63.232	18.719	3.5654e-06	25.999	3.2295e-05	3.1184e-05	8.5315e-06	993.01	3.459e-07	3.4065e-07	1108.6	207.57	3.4204e-07	3.4308e-07	255.61	72.096	56.905	16.605	3.4506e-07	22.871	150.281	148.720	209.186	-22.343	83.429	322.980	-21.619	-14.314	183.157	63.550	-14.736	-7.455	-7.479	-0.081	109.941	-0.996	-8191	255	
1756.013	1	1	0	0	0.17936	0.10008	0.30265	0.19927	0.036562	0.064104	0.26808	0.15471	0.21201	0.088055	0.27885	0.19393	0.091726	0.22716	0.018994	0.24306	-3.4604	-3.2562	-3.4938	-3.8708	-3.0729	-3.7938	-3.6771	-3.1458	-3.7812	-3.1896	-3.4896	-3.9896	-3.2542	-3.9729	-3.5958	-3.2188	106.154	191.096	-8.508	112.585	159.115	243.733	297.520	306.728	129.873	90.568	114.601	-30.253	245.508	323.348	246.301	302.871	0.00012706	0.00020324	8.3538e-06	1103.7	8.7367e-07	1.2525e-06	1202	226.79	1.1147e-06	1.2409e-06	289.5	80.399	62.927	18.657	1.5753e-06	26.152	3.1995e-05	3.1029e-05	8.523e-06	992.04	3.4786e-07	3.3627e-07	1109.5	207.61	3.4787e-07	3.4816e-07	256.02	72.214	56.812	16.59	3.4427e-07	23	182.622	54.083	111.895	-22.171	167.176	62.834	-21.789	-14.287	102.316	108.725	-14.663	-7.881	-7.567	-0.050	107.909	-1.063	-8191	255	
1756.109	1	1	0	0	0.10733	0.089652	0.25839	0.26009	0.26646	0.084309	0.31755	0.061146	0.060455	0.12282	0.12688	0.11953	0.04906	0.067129	0.21726	0.19821	-3.5479	-3.5125	-3.3312	-3.8042	-3.075	-3.6396	-3.7417	-3.1	-3.8375	-3.4875	-3.275	-3.9729	-3.1292	-3.6104	-3.7	-3.2708	12.411	58.478	180.755	297.938	314.448	166.498	184.417	41.448	104.547	103.756	15.654	234.171	235.885	90.819	136.472	-7.294	0.00012963	0.00016383	8.8972e-05	1110.4	7.0196e-07	2.8526e-06	1206.3	226.69	1.4801e-06	1.1972e-06	290.34	80.746	63.04	18.484	1.7632e-06	26.046	3.2308e-05	3.0634e-05	8.5354e-06	992.51	3.478e-07	3.3965e-07	1109.6	207.41	3.4949e-07	3.508e-07	255.56	72.319	56.856	16.592	3.5742e-07	22.981	154.493	87.296	94.497	-22.097	146.563	64.151	-21.605	-14.413	87.291	0.923	-14.897	-7.727	-7.557	-0.287	78.041	-1.287	-8191	255	
1756.205	1	1	0	0	0.18992	0.11492	0.1767	0.12092	0.22371	0.044693	0.15792	0.28135	0.27308	0.11058	0.10254	0.086123	0.09668	0.11932	0.033487	0.22476	-3.5167	-3.2958	-3.1917	-4.1	-3.1604	-3.6604	-4.125	-3.1896	-3.8229	-3.5167	-3.3125	-4.2271	-3.2687	-3.3167	-3.8729	-3.2833	191.659	183.778	319.248	327.059	23.727	244.048	253.189	296.289	308.391	97.307	170.089	288.224	90.407	209.880	20.216	233.707	0.00010019	0.0003121	7.8053e-05	1102.3	1.8191e-06	3.3586e-06	1209.7	226.09	1.0431e-06	8.9829e-07	289.25	80.233	63.447	18.495	3.768e-06	26.036	3.3347e-05	3.0945e-05	8.7842e-06	992.45	3.4764e-07	3.3981e-07	1111	207.46	3.4927e-07	3.462e-07	255.23	72.286	57.021	16.587	3.4432e-07	22.903	172.899	68.055	68.142	-21.922	138.351	79.468	-21.728	-14.528	213.803	159.770	-14.765	-7.500	-7.387	-0.559	102.852	-0.757	-8191	255	
1756.324	1	1	0	0	0.20931	0.22598	0.019504	0.30555	0.11992	0.087791	0.14939	0.21944	0.069757	0.069113	0.34092	0.097316	0.21212	0.19903	0.19201	0.15277	-3.45	-3.5458	-3.1833	-4.0458	-3.3396	-3.3771	-4.1583	-3.2396	-3.6979	-3.7687	-3.2208	-4.0667	-3.3646	-3.3812	-3.8271	-3.0292	128.815	293.673	305.534	273.268	61.516	163.272	62.532	191.396	171.678	210.047	299.177	46.455	11.150	240.656	66.624	304.258	0.00012519	0.00013771	2.827e-05	1107.4	2.6331e-06	1.5095e-06	1209.2	226.1	1.5039e-06	2.7701e-06	289.49	80.295	63.242	18.595	2.6556e-06	26.045	3.2837e-05	3.0196e-05	8.5083e-06	993.74	3.5774e-07	3.4903e-07	1111.1	207.38	3.4836e-07	3.4712e-07	255.17	72.254	56.893	16.581	3.465e-07	22.948	175.482	27.880	201.213	-21.896	135.431	112.887	-21.841	-14.421	154.429	112.113	-14.495	-7.746	-7.532	-0.661	88.575	-0.786	-8191	255	
1756.396	1	1	0	0	0.069225	0.20022	0.22268	0.19569	0.051933	0.17404	0.10704	0.19516	0.15538	0.023381	0.19037	0.26616	0.066641	0.26787	0.094875	0.10282	-3.2917	-3.775	-3.1188	-4.1354	-3.3312	-3.3104	-4.2229	-3.2604	-3.55	-3.6813	-3.1875	-4.0896	-3.4729	-3.35	-3.8937	-3.1813	133.078	316.264	322.512	303.757	299.429	195.774	152.581	300.018	122.949	9.941	244.941	320.863	-6.071	240.832	326.437	98.292	5.8399e-05	0.00014252	7.7892e-05	1110	1.2562e-06	1.7717e-06	1203.8	226.38	1.4152e-06	1.4038e-06	288.04	80.29	63.041	18.469	2.1646e-06	26.193	3.243e-05	3.1101e-05	8.7106e-06	993.38	3.4232e-07	3.4399e-07	1111.5	207.21	3.5187e-07	3.3869e-07	255.38	72.208	56.915	16.605	3.5041e-07	22.935	182.191	77.200	38.123	-21.893	84.371	62.307	-21.494	-14.444	138.071	107.915	-14.522	-7.295	-7.257	-0.244	129.564	-1.257	-8191	255	
#DATA ENDS
