BOXY.EXE: ISS Imagent and Oximeter Data Acquisition Program Version 0.80
Ascii Record File

#ACQ INFORMATION
2  Detector Channels 
16  External MUX Channels 
1  Auxiliary Channels 
5000  Waveform (CCF) Frequency (Hz)
1  Waveforms Skipped 
30  Waveforms Averaged 
1  Cycles Averaged 
16  Acquisitions per Waveform 
10.0806  Updata Rate (Hz) 

#FILE INFORMATION
TRUE -- External MUX Channel results are PARSED.
FALSE -- AC DC and Phase are NOT grouped.
TRUE -- Companion Program Settings File CREATED.
FALSE -- AC data not excluded
FALSE -- DC data not excluded
FALSE -- Phase data not excluded
FALSE -- Auxillary Chn. data not excluded
Tab delimiters

#CALIBRATION STATE
TRUE -- Waveform Calibration Values APPLIED.


#AUX CALIBRATION VALUES
Val Type	aux-1	

Term	1.0000e+00	
Factor	0.0000e+00	


#WF CALIBRATION VALUES
A = Detector Channel
Val Type	A-AC1	A-AC2	A-AC3	A-AC4	A-AC5	A-AC6	A-AC7	A-AC8	A-AC9	A-AC10	A-AC11	A-AC12	A-AC13	A-AC14	A-AC15	A-AC16	A-DC1	A-DC2	A-DC3	A-DC4	A-DC5	A-DC6	A-DC7	A-DC8	A-DC9	A-DC10	A-DC11	A-DC12	A-DC13	A-DC14	A-DC15	A-DC16	A-Ph1	A-Ph2	A-Ph3	A-Ph4	A-Ph5	A-Ph6	A-Ph7	A-Ph8	A-Ph9	A-Ph10	A-Ph11	A-Ph12	A-Ph13	A-Ph14	A-Ph15	A-Ph16	

Term	0.00000e+00	0.00000e+00	0.00000e+00	0.00000e+00	0.00000e+00	0.00000e+00	0.00000e+00	0.00000e+00	0.00000e+00	0.00000e+00	0.00000e+00	0.00000e+00	0.00000e+00	0.00000e+00	0.00000e+00	0.00000e+00	0.00000e+00	0.00000e+00	0.00000e+00	0.00000e+00	0.00000e+00	0.00000e+00	0.00000e+00	0.00000e+00	0.00000e+00	0.00000e+00	0.00000e+00	0.00000e+00	0.00000e+00	0.00000e+00	0.00000e+00	0.00000e+00	0.00000e+00	0.00000e+00	0.00000e+00	0.00000e+00	0.00000e+00	0.00000e+00	0.00000e+00	0.00000e+00	0.00000e+00	0.00000e+00	0.00000e+00	0.00000e+00	0.00000e+00	0.00000e+00	0.00000e+00	0.00000e+00	
Factor	1.00000e+00	1.00000e+00	1.00000e+00	1.00000e+00	1.00000e+00	1.00000e+00	1.00000e+00	1.00000e+00	1.00000e+00	1.00000e+00	1.00000e+00	1.00000e+00	1.00000e+00	1.00000e+00	1.00000e+00	1.00000e+00	1.00000e+00	1.00000e+00	1.00000e+00	1.00000e+00	1.00000e+00	1.00000e+00	1.00000e+00	1.00000e+00	1.00000e+00	1.00000e+00	1.00000e+00	1.00000e+00	1.00000e+00	1.00000e+00	1.00000e+00	1.00000e+00	X	X	X	X	X	X	X	X	X	X	X	X	X	X	X	X	

B = Detector Channel
Val Type	B-AC1	B-AC2	B-AC3	B-AC4	B-AC5	B-AC6	B-AC7	B-AC8	B-AC9	B-AC10	B-AC11	B-AC12	B-AC13	B-AC14	B-AC15	B-AC16	B-DC1	B-DC2	B-DC3	B-DC4	B-DC5	B-DC6	B-DC7	B-DC8	B-DC9	B-DC10	B-DC11	B-DC12	B-DC13	B-DC14	B-DC15	B-DC16	B-Ph1	B-Ph2	B-Ph3	B-Ph4	B-Ph5	B-Ph6	B-Ph7	B-Ph8	B-Ph9	B-Ph10	B-Ph11	B-Ph12	B-Ph13	B-Ph14	B-Ph15	B-Ph16	

Term	0.00000e+00	0.00000e+00	0.00000e+00	0.00000e+00	0.00000e+00	0.00000e+00	0.00000e+00	0.00000e+00	0.00000e+00	0.00000e+00	0.00000e+00	0.00000e+00	0.00000e+00	0.00000e+00	0.00000e+00	0.00000e+00	0.00000e+00	0.00000e+00	0.00000e+00	0.00000e+00	0.00000e+00	0.00000e+00	0.00000e+00	0.00000e+00	0.00000e+00	0.00000e+00	0.00000e+00	0.00000e+00	0.00000e+00	0.00000e+00	0.00000e+00	0.00000e+00	-2.44074e+02	-1.38917e+02	-1.23458e+02	-1.83504e+02	-7.80274e+01	-6.98697e+01	-1.57272e+02	-1.62015e+02	-8.48116e+01	-5.88626e+01	-1.72810e+02	-1.70116e+02	-1.79941e+02	-1.76682e+02	-6.23674e+01	-1.49095e+02	
Factor	5.52849e-05	1.45846e-04	3.58442e-05	2.37707e-01	1.66745e-06	1.38744e-06	1.68909e-01	4.60247e-02	2.13902e-06	1.48554e-06	9.57930e-02	2.69634e-02	2.69403e-02	8.48901e-03	1.49846e-06	1.22238e-02	3.61109e-06	3.95243e-06	1.10144e-06	1.23024e-01	4.28733e-08	4.35643e-08	8.25659e-02	2.40976e-02	4.27199e-08	4.34751e-08	4.83216e-02	1.36188e-02	1.41214e-02	4.47111e-03	4.28401e-08	6.21873e-03	X	X	X	X	X	X	X	X	X	X	X	X	X	X	X	X	



#DISTANCE SETTINGS
A = Detector Channel
A-1	A-2	A-3	A-4	A-5	A-6	A-7	A-8	A-9	A-10	A-11	A-12	A-13	A-14	A-15	A-16	

2.5000e+00	3.0000e+00	2.5000e+00	3.0000e+00	2.0000e+00	3.0000e+00	1.5000e+00	3.0000e+00	3.0000e+00	3.0000e+00	3.0000e+00	3.0000e+00	3.0000e+00	3.0000e+00	1.5000e+00	3.0000e+00	

B = Detector Channel
B-1	B-2	B-3	B-4	B-5	B-6	B-7	B-8	B-9	B-10	B-11	B-12	B-13	B-14	B-15	B-16	

1.0000e+01	1.0000e+01	1.0000e+01	1.4400e+00	1.0000e+01	1.0000e+01	1.5100e+00	1.9400e+00	1.0000e+01	1.0000e+01	1.9900e+00	2.4900e+00	2.4100e+00	2.9000e+00	1.0000e+01	2.9800e+00	




#DATA BEGINS
time	group	step	mark	flag	A-AC1	A-AC2	A-AC3	A-AC4	A-AC5	A-AC6	A-AC7	A-AC8	A-AC9	A-AC10	A-AC11	A-AC12	A-AC13	A-AC14	A-AC15	A-AC16	A-DC1	A-DC2	A-DC3	A-DC4	A-DC5	A-DC6	A-DC7	A-DC8	A-DC9	A-DC10	A-DC11	A-DC12	A-DC13	A-DC14	A-DC15	A-DC16	A-Ph1	A-Ph2	A-Ph3	A-Ph4	A-Ph5	A-Ph6	A-Ph7	A-Ph8	A-Ph9	A-Ph10	A-Ph11	A-Ph12	A-Ph13	A-Ph14	A-Ph15	A-Ph16	B-AC1	B-AC2	B-AC3	B-AC4	B-AC5	B-AC6	B-AC7	B-AC8	B-AC9	B-AC10	B-AC11	B-AC12	B-AC13	B-AC14	B-AC15	B-AC16	B-DC1	B-DC2	B-DC3	B-DC4	B-DC5	B-DC6	B-DC7	B-DC8	B-DC9	B-DC10	B-DC11	B-DC12	B-DC13	B-DC14	B-DC15	B-DC16	B-Ph1	B-Ph2	B-Ph3	B-Ph4	B-Ph5	B-Ph6	B-Ph7	B-Ph8	B-Ph9	B-Ph10	B-Ph11	B-Ph12	B-Ph13	B-Ph14	B-Ph15	B-Ph16	aux-1	digaux	

710.237	1	1	0	768	0.28548	0.20956	0.15294	0.23984	0.34492	0.22808	0.376	0.41612	0.11216	0.12656	0.20123	0.34406	0.027574	0.083766	0.10005	0.17624	-3.0979	-2.4396	-3.075	-2.9792	-2.35	-3.2938	-2.9437	-2.6958	-3.4208	-2.6188	-3.025	-3.3167	-2.5083	-3.3083	-2.7708	-2.6021	79.498	6.731	262.575	146.881	-68.636	95.880	250.619	209.206	224.657	268.266	206.977	217.497	-18.313	-62.969	256.634	32.173	0.00047531	0.000279	0.00017715	1355.9	7.618e-06	3.4934e-06	1358.3	367.41	9.6695e-06	4.4997e-06	418.94	139.91	121.27	41.642	2.8133e-06	51.878	0.0004913	0.00048937	0.00013745	1373.1	5.4576e-06	5.3766e-06	1372.7	373.26	5.4624e-06	5.4377e-06	426.13	142.78	123.92	42.82	5.4668e-06	53.043	59.770	9.959	13.464	-65.703	87.940	94.351	-65.867	-60.982	67.119	86.479	-61.455	-56.998	-56.785	-51.876	50.440	-52.742	-8191	255	
710.333	1	1	0	0	0.077287	0.12066	0.23706	0.21458	0.27418	0.19231	0.19444	0.055266	0.18253	0.16922	0.11477	0.22049	0.02287	0.21749	0.21322	0.43345	-2.9313	-2.4542	-2.7896	-3.5563	-2.3167	-3.1063	-3.1646	-2.7958	-3.175	-2.6354	-2.775	-3.4854	-2.6854	-3.1479	-2.8417	-2.5438	71.125	-42.187	97.371	242.173	209.993	-52.382	167.131	-63.050	274.686	39.627	204.182	236.500	219.656	238.736	188.007	216.504	0.00033597	0.00068415	0.00012165	1360.6	8.8644e-06	6.1293e-06	1356.6	366.24	5.2247e-06	6.1216e-06	417.73	139.58	121.25	41.731	4.3402e-06	51.549	0.00050708	0.00050451	0.00013782	1376	5.6288e-06	5.5323e-06	1373.7	372.81	5.6397e-06	5.5201e-06	425.47	142.83	123.95	42.804	5.5069e-06	53.019	56.604	29.731	60.355	-65.506	58.404	69.828	-65.467	-60.681	27.077	81.331	-60.938	-56.806	-56.429	-51.398	58.533	-52.737	-8191	255	
710.430	1	1	0	0	0.14623	0.20522	0.10027	0.10771	0.096826	0.091179	0.24717	0.1162	0.072626	0.096099	0.12714	0.049232	0.094685	0.10945	0.34593	0.097023	-2.8646	-2.8021	-2.8771	-3.4458	-2.4875	-3.0667	-3.2792	-2.7458	-3.3708	-2.85	-2.5479	-3.4417	-2.6813	-2.875	-3.1958	-2.5979	-75.879	154.854	229.781	223.014	105.347	-27.545	218.268	-61.924	114.215	131.887	219.454	74.680	200.554	15.683	92.343	248.217	0.00051728	0.00085049	9.5871e-05	1357.7	9.895e-07	3.8085e-06	1359.7	365.97	8.0749e-06	5.0044e-06	419.06	139.87	120.97	41.749	2.0397e-06	51.627	0.00050489	0.00050994	0.00014256	1374.4	5.5923e-06	5.4488e-06	1373.2	372.65	5.617e-06	5.5475e-06	425.77	142.51	124.02	42.831	5.4291e-06	52.994	50.868	-7.560	-8.845	-65.894	-22.961	81.306	-65.981	-60.977	42.568	75.909	-61.428	-57.454	-56.487	-52.020	26.050	-52.598	-8191	255	
710.526	1	1	0	0	0.14925	0.10346	0.077821	0.31065	0.24873	0.21776	0.1009	0.36289	0.0095664	0.092577	0.11056	0.18089	0.23965	0.25464	0.1375	0.25738	-2.8083	-2.8542	-2.5438	-3.3292	-2.4146	-3.2333	-3.275	-2.7792	-3.0729	-2.9625	-2.5812	-3.4771	-2.7313	-2.75	-3.3104	-2.4688	204.139	-66.709	18.071	-23.895	87.548	111.846	-72.331	211.920	69.187	261.670	250.827	232.759	-63.589	-22.890	127.694	225.658	0.00063029	0.00053906	0.00022241	1355.9	6.5473e-06	5.6009e-06	1354.4	365.49	6.069e-06	5.207e-06	417.71	139.9	121.43	41.576	3.7834e-06	51.632	0.00050879	0.00049638	0.00013906	1372.9	5.5381e-06	5.4905e-06	1372.2	372.37	5.5723e-06	5.4089e-06	424.81	142.66	123.94	42.784	5.4063e-06	52.948	59.739	27.908	26.597	-65.517	73.891	111.873	-66.000	-61.240	38.807	102.811	-61.656	-57.378	-56.936	-52.079	97.214	-53.033	-8191	255	
710.622	1	1	0	0	0.15952	0.19443	0.35228	0.15383	0.048946	0.19973	0.13597	0.15833	0.28113	0.12832	0.10533	0.078004	0.18286	0.24191	0.10671	0.28988	-2.7104	-2.7833	-2.5021	-3.325	-2.7687	-2.5708	-3.4167	-2.7854	-3.1188	-3.0708	-2.625	-3.3021	-2.8167	-2.8417	-3.4021	-2.5854	261.179	90.095	255.374	180.055	-47.281	271.403	-60.872	226.038	142.862	221.309	241.712	171.559	271.266	141.594	138.011	221.081	0.0003643	0.00060967	0.00010278	1359.9	3.6526e-06	6.5698e-06	1355.2	367.93	1.4238e-06	3.9821e-06	418.1	139.36	120.76	41.859	1.0798e-06	51.543	0.00050528	0.00050014	0.0001385	1376.3	5.4646e-06	5.4617e-06	1373	373.36	5.4702e-06	5.3703e-06	425.46	142.58	123.7	42.878	5.4518e-06	53.004	50.731	-34.482	9.574	-65.562	67.328	83.531	-65.906	-61.038	108.796	106.792	-61.370	-57.204	-56.726	-52.007	-45.489	-52.581	-8191	255	
710.718	1	1	0	0	0.20304	0.091775	0.25668	0.23329	0.16066	0.02317	0.19545	0.22556	0.20273	0.26731	0.12157	0.13096	0.23654	0.20693	0.17402	0.028207	-2.7396	-3.0625	-2.4833	-3.5771	-2.7042	-2.6167	-3.4125	-2.6979	-2.8	-3.0375	-2.6583	-3.3354	-2.9479	-2.5354	-3.3937	-2.6875	141.167	272.928	103.451	-46.244	-61.415	-5.470	201.219	233.672	260.092	206.078	-21.992	122.956	-29.837	209.994	-12.364	230.934	0.00046576	0.00049149	0.00011029	1360.8	7.1152e-06	3.9473e-06	1352.1	368.3	6.0991e-06	1.3554e-06	416.27	140.08	120.92	41.771	2.6306e-06	51.589	0.0004961	0.00048904	0.00013982	1376.2	5.3868e-06	5.4293e-06	1372.8	373.23	5.4288e-06	5.3405e-06	424.71	142.71	123.7	42.768	5.3849e-06	53.012	44.747	-49.130	18.798	-65.630	83.512	54.487	-65.717	-61.021	-36.648	77.953	-61.509	-57.106	-56.593	-52.253	99.477	-52.844	-8191	255	
710.837	1	1	0	0	0.19052	0.11888	0.10013	0.13335	0.17585	0.060776	0.28014	0.36333	0.075646	0.10953	0.2695	0.073232	0.10731	0.18839	0.25327	0.10653	-2.4271	-3.1479	-2.275	-3.3063	-2.8563	-2.4875	-3.4625	-2.7354	-2.8333	-3.1042	-2.3854	-3.3229	-3.0792	-2.8042	-3.3	-2.8125	-1.137	-1.504	-65.702	200.589	118.854	-29.002	238.101	218.874	-13.851	60.097	203.815	199.119	-71.486	-31.736	116.500	58.485	0.00048098	0.00054532	5.8302e-05	1355	3.0066e-06	5.2508e-06	1356.3	365.41	9.0133e-06	5.8509e-06	420.2	139.94	121.51	41.862	5.1616e-06	51.579	0.00050445	0.00049555	0.00013869	1374.1	5.4169e-06	5.3942e-06	1373	372.32	5.479e-06	5.3883e-06	425.43	142.86	124.06	42.82	5.4331e-06	53.003	61.134	13.579	-21.275	-65.576	71.250	73.937	-65.844	-61.007	52.434	116.453	-61.265	-57.124	-56.839	-51.803	42.648	-52.707	-8191	255	
710.933	1	1	0	0	0.36446	0.16928	0.26777	0.12352	0.13952	0.20646	0.38406	0.09265	0.11613	0.065249	0.22015	0.34336	0.23468	0.19965	0.095645	0.097237	-2.2979	-3.3208	-2.5792	-3.2167	-3.0771	-2.6354	-3.4313	-2.7604	-2.7833	-3.3667	-2.8125	-3.1729	-3.3312	-2.6562	-3.1917	-2.8812	59.164	14.938	-62.036	-22.116	-68.049	-14.008	265.678	244.709	146.802	-18.173	157.792	-6.319	238.773	259.356	174.721	178.562	0.00036052	0.0005867	0.00016745	1361.1	5.8946e-06	6.4466e-06	1360.5	365.65	3.6275e-06	5.3155e-06	418.12	139.57	121.55	41.733	3.319e-06	51.722	0.0005015	0.00049648	0.00013791	1376.1	5.3765e-06	5.4757e-06	1374.7	372.48	5.4746e-06	5.3684e-06	424.87	142.57	124.08	42.823	5.4122e-06	52.965	39.871	1.087	39.139	-65.481	48.954	57.904	-65.650	-60.916	53.315	75.389	-61.730	-57.317	-56.996	-52.321	90.775	-53.207	-8191	255	
711.029	1	1	0	0	0.20199	0.10408	0.30272	0.27311	0.058871	0.077055	0.17997	0.40016	0.056715	0.18658	0.067763	0.32702	0.15989	0.31703	0.081061	0.21164	-2.2146	-3.4896	-2.3375	-3.1146	-3.1708	-2.4646	-3.4833	-3.0438	-2.5458	-3.3083	-2.6479	-2.8604	-3.4083	-2.4396	-3.2562	-2.9938	176.543	24.619	41.689	269.315	-3.542	87.251	226.992	204.919	-35.291	173.404	23.487	216.862	23.149	275.469	234.077	206.388	0.00043547	0.00074366	0.00015085	1357	3.8788e-06	2.295e-06	1354.5	367.21	2.3496e-06	4.9913e-06	418.84	140.04	121.12	41.621	4.0688e-06	51.435	0.00049823	0.00049637	0.00013741	1373.2	5.4541e-06	5.3371e-06	1374.1	372.8	5.4517e-06	5.3949e-06	425.87	142.81	123.84	42.716	5.4473e-06	52.896	37.603	-5.545	-17.506	-65.795	37.146	24.466	-66.026	-61.054	63.102	20.209	-61.759	-57.393	-57.127	-52.528	45.452	-53.176	-8191	255	
711.125	1	1	0	0	0.054409	0.12354	0.17453	0.13083	0.14518	0.15965	0.10337	0.26601	0.21988	0.34064	0.19308	0.55998	0.19945	0.24354	0.1181	0.063883	-2.2	-3.2854	-2.5583	-2.8958	-3.3312	-2.2667	-3.3396	-3.0563	-2.4167	-3.2167	-2.7083	-2.7917	-3.1708	-2.4062	-3.0187	-3.2729	196.121	27.404	95.997	20.384	0.784	273.512	241.658	249.319	263.684	260.808	223.068	279.778	232.303	279.089	260.144	35.654	0.00042474	0.00084923	0.0001443	1357	7.3581e-06	6.2867e-06	1354.2	367.73	3.0327e-06	7.0637e-06	419.48	140.13	120.72	41.664	4.0762e-06	51.827	0.00049861	0.00049092	0.00013859	1373.4	5.4268e-06	5.4685e-06	1373	373.1	5.5353e-06	5.4075e-06	425.57	142.7	123.74	42.779	5.4771e-06	53.008	47.491	-5.037	38.140	-65.483	46.257	100.391	-65.767	-61.126	-32.995	95.298	-62.087	-57.184	-56.924	-52.185	59.581	-53.076	-8191	255	
711.222	1	1	0	0	0.083183	0.33203	0.16833	0.1458	0.14094	0.17271	0.23958	0.25124	0.083465	0.12439	0.20848	0.049761	0.18275	0.20991	0.14578	0.13534	-2.0333	-3.4813	-2.7208	-2.8729	-3.2313	-2.1917	-3.325	-3.1292	-2.3563	-3.3542	-2.9958	-2.5146	-3.3604	-2.625	-2.8083	-3.2125	261.453	218.832	31.522	16.941	144.892	-26.125	271.857	240.808	94.156	268.244	222.830	244.187	264.685	258.210	98.573	253.085	0.00047287	0.00045931	0.00017505	1356.9	6.1973e-06	4.4058e-06	1354.5	366.17	3.5998e-06	4.5177e-06	419.01	139.72	121.38	41.607	6.0872e-06	51.38	0.00049964	0.00049374	0.00013773	1374.4	5.3668e-06	5.4718e-06	1373.5	372.27	5.4361e-06	5.5378e-06	425.68	142.64	124.13	42.71	5.4641e-06	52.888	61.894	-39.696	8.660	-65.701	-7.552	73.422	-65.830	-61.245	18.005	89.069	-61.645	-57.433	-56.770	-52.288	93.150	-53.106	-8191	255	
711.318	1	1	0	0	0.35533	0.27167	0.43005	0.27228	0.10071	0.22762	0.34255	0.19216	0.27366	0.12358	0.24105	0.043716	0.14075	0.33346	0.16353	0.33347	-1.8021	-3.1521	-2.8354	-2.5062	-3.2917	-2.3854	-3.1646	-3.2208	-2.4146	-3.0062	-3.0604	-2.3292	-3.4208	-2.6083	-2.5833	-3.2354	248.658	53.731	80.722	215.199	162.913	128.820	252.523	209.615	155.289	269.566	223.099	110.930	259.314	274.462	29.581	260.350	0.00050352	0.00046291	9.4947e-05	1359.4	7.8403e-06	4.0699e-06	1357.5	364.92	3.3745e-06	5.7355e-06	419.33	139.85	121.72	41.57	2.2118e-06	51.509	0.00051086	0.00049866	0.00013674	1374.3	5.4561e-06	5.5349e-06	1373	372.7	5.5501e-06	5.4651e-06	425.08	142.61	124.03	42.714	5.3937e-06	52.947	49.536	13.190	17.312	-65.754	67.012	92.520	-65.937	-61.316	70.728	26.235	-61.714	-57.228	-56.696	-52.261	40.255	-53.116	-8191	255	
711.438	1	1	0	0	0.15264	0.079013	0.15196	0.081092	0.18802	0.048673	0.35099	0.2374	0.21225	0.044091	0.29276	0.057127	0.2529	0.12815	0.2676	0.1172	-1.9396	-3.0542	-2.7646	-2.7687	-3.0854	-2.7271	-2.8021	-3.5417	-2.3917	-3.0563	-3.0604	-2.4833	-3.4875	-2.8458	-2.5271	-3.4771	4.933	226.147	-7.846	-49.493	-64.302	161.022	203.276	-66.793	-36.843	217.420	184.059	-10.021	277.639	-42.437	213.920	243.118	0.00036611	0.00035977	0.0001168	1353.5	4.6789e-06	6.2189e-06	1355.5	366.12	7.4562e-06	5.4881e-06	417.59	139.54	121.12	41.64	4.847e-06	51.642	0.00050544	0.00049577	0.00013898	1372.8	5.4286e-06	5.4442e-06	1373.2	372.39	5.5466e-06	5.4545e-06	425.15	142.59	123.97	42.73	5.4882e-06	53.042	41.830	20.102	9.284	-65.792	65.111	72.120	-65.778	-61.268	54.665	69.118	-61.742	-57.320	-56.837	-52.146	103.999	-53.013	-8191	255	
711.533	1	1	0	0	0.36407	0.16461	0.26516	0.1213	0.034885	0.2443	0.19546	0.11006	0.14472	0.1192	0.13165	0.10468	0.28457	0.20807	0.11186	0.16058	-1.975	-2.8771	-3.2292	-2.6667	-3.1583	-2.8708	-2.7687	-3.5375	-2.6437	-2.7812	-3.2792	-2.5312	-3.3604	-2.9188	-2.4833	-3.4625	1.400	31.814	171.568	261.979	51.478	142.503	190.531	234.723	136.746	69.466	-52.706	248.748	236.067	-40.758	-43.092	182.372	0.00054782	0.00067907	0.00014105	1359.2	4.0491e-06	7.3687e-06	1350.5	366.88	3.2091e-06	4.0892e-06	419.29	139.83	121.21	41.719	1.9604e-06	51.525	0.00050359	0.00050026	0.00013656	1374.5	5.495e-06	5.4901e-06	1372.2	372.95	5.5152e-06	5.5123e-06	425.71	142.82	123.93	42.723	5.458e-06	53.007	48.600	-9.143	26.874	-65.751	24.988	64.982	-66.253	-61.141	2.255	72.059	-61.737	-57.693	-56.794	-52.352	70.664	-53.172	-8191	255	
711.629	1	1	0	0	0.10939	0.08371	0.15817	0.19062	0.098114	0.16379	0.27249	0.093497	0.061952	0.12798	0.35088	0.15816	0.32579	0.26784	0.17735	0.15126	-2.1562	-2.8604	-3.2771	-2.5229	-3.0583	-3.0729	-2.65	-3.5521	-2.7271	-2.9083	-3.2562	-2.5542	-3.0354	-3.1625	-2.4479	-3.3979	28.073	19.327	83.756	263.878	159.007	219.884	105.505	121.540	216.074	143.210	240.233	255.919	273.054	-49.736	-55.005	205.579	0.00041289	0.00021887	0.00010293	1355	4.5231e-06	5.9767e-06	1353.3	366.22	7.9931e-06	7.49e-06	419.19	139.6	121.39	41.485	3.8485e-06	51.72	0.00050126	0.00049772	0.00013788	1371.9	5.3313e-06	5.3965e-06	1371.9	372.48	5.4761e-06	5.3424e-06	425.22	142.64	123.94	42.696	5.3896e-06	52.996	50.535	17.495	1.001	-65.653	56.845	58.859	-65.832	-61.329	69.497	48.700	-62.061	-57.627	-57.155	-52.376	100.060	-53.008	-8191	255	
711.725	1	1	0	0	0.066799	0.09136	0.19194	0.090704	0.13227	0.2339	0.2738	0.29644	0.082647	0.092152	0.167	0.24244	0.019658	0.24531	0.20033	0.10784	-2.1833	-2.675	-3.3688	-2.7354	-3.1	-2.9771	-2.7958	-3.4271	-2.625	-2.4688	-3.3604	-2.7062	-3.1542	-3.1562	-2.2062	-3.2771	25.216	-36.004	165.900	-66.964	263.712	134.197	232.097	-76.063	196.284	188.050	174.660	249.905	171.545	88.388	-63.788	146.889	0.00030949	0.00065695	9.4257e-05	1359.2	3.1712e-06	4.7636e-06	1354.8	365.26	1.0104e-05	4.6238e-06	416.88	139.57	121.47	41.555	2.4069e-06	51.51	0.00049485	0.00049049	0.00013392	1375.1	5.4431e-06	5.3775e-06	1372	372.56	5.4188e-06	5.3912e-06	424.76	142.52	123.88	42.761	5.453e-06	52.887	67.065	2.108	15.275	-65.894	59.502	106.248	-65.942	-61.119	30.722	87.683	-61.826	-57.472	-57.045	-52.403	28.976	-53.078	-8191	255	
711.798	1	1	0	0	0.17332	0.16106	0.1688	0.074235	0.23651	0.12536	0.2514	0.081305	0.07401	0.16084	0.33473	0.19297	0.19701	0.16695	0.12355	0.10212	-2.4771	-2.4292	-3.3021	-2.5875	-2.9562	-3.1583	-2.6542	-3.3333	-2.8521	-2.6667	-3.4875	-2.7854	-2.8229	-3.225	-2.3854	-3.3167	-6.044	-33.587	142.198	234.941	216.243	218.007	241.116	-69.502	-60.861	-47.603	254.844	244.578	-1.012	215.659	-51.463	-44.891	0.00056961	0.00083354	5.3415e-05	1359.3	4.6467e-06	5.1012e-06	1355.1	364.66	4.2489e-06	4.3054e-06	417.5	139.86	120.91	41.62	7.6186e-06	51.688	0.00050163	0.00050363	0.00013887	1373.5	5.4738e-06	5.4056e-06	1372	371.94	5.4554e-06	5.4875e-06	424.09	142.64	123.86	42.695	5.4555e-06	52.947	60.528	13.665	5.708	-66.035	35.320	77.433	-66.042	-61.192	27.902	61.885	-61.942	-57.478	-56.908	-52.518	88.068	-52.921	-8191	255	
711.917	1	1	0	0	0.31038	0.097043	0.20681	0.043871	0.18945	0.1727	0.18955	0.16817	0.010061	0.21088	0.34301	0.35434	0.051265	0.11246	0.1448	0.16214	-2.7604	-2.4625	-3.2833	-2.6542	-2.6063	-3.3833	-2.7792	-3.1875	-3.0792	-2.3479	-3.4021	-2.7354	-2.7417	-3.4104	-2.5	-3.0042	190.850	-13.511	168.297	243.057	31.715	1.339	-45.345	228.337	28.762	-72.206	248.588	200.682	-53.615	210.760	275.469	170.917	0.00043021	0.00037976	6.4043e-05	1358	7.9291e-07	2.8658e-06	1356.2	365.56	3.8047e-06	6.246e-06	417.55	139.49	121.57	41.545	6.9801e-06	51.548	0.00049814	0.00049713	0.00013766	1372.7	5.3919e-06	5.427e-06	1374.2	372.45	5.5549e-06	5.4916e-06	424.94	142.43	123.79	42.662	5.4726e-06	52.935	48.401	-4.787	21.506	-66.035	32.548	28.791	-66.203	-61.263	71.219	77.321	-61.864	-57.639	-56.972	-52.039	64.532	-53.017	-8191	255	
712.013	1	1	0	0	0.13326	0.17232	0.1375	0.13791	0.2046	0.15013	0.27714	0.28665	0.075115	0.31561	0.30032	0.21131	0.21182	0.27326	0.25013	0.25317	-2.5875	-2.2542	-3.2313	-2.9542	-2.5208	-3.4458	-2.4938	-3.1292	-3.0146	-2.4583	-3.3458	-2.9146	-2.6229	-3.3	-2.6271	-2.9854	96.927	263.449	216.937	254.906	216.796	155.701	250.667	272.087	96.834	221.698	-64.000	-59.415	225.709	-70.667	64.211	223.714	0.00038829	0.00064382	0.0001005	1353.6	6.7809e-06	2.5908e-06	1348	365.72	2.9704e-06	7.2422e-06	419.02	139.71	120.81	41.589	3.6826e-06	51.518	0.00051029	0.00049894	0.00013853	1373.8	5.4868e-06	5.4097e-06	1370.6	371.98	5.4811e-06	5.4525e-06	425.13	142.64	123.54	42.673	5.3937e-06	52.87	41.819	-14.730	62.782	-65.936	49.493	48.916	-66.052	-61.163	4.062	104.533	-61.956	-57.667	-56.995	-52.340	91.467	-53.147	-8191	255	
712.110	1	1	0	0	0.04433	0.11398	0.11397	0.13615	0.30255	0.24765	0.073835	0.22943	0.23971	0.16994	0.10361	0.18976	0.16023	0.28344	0.064507	0.2017	-2.8979	-2.2812	-3.1083	-2.8792	-2.6229	-3.0646	-2.7708	-2.8854	-3.2375	-2.3229	-3.1104	-2.9792	-2.6667	-3.2313	-2.675	-2.7125	264.389	255.277	192.541	108.125	264.178	241.723	247.140	219.058	-20.219	87.749	188.965	-42.180	244.188	271.568	274.369	-19.923	0.00039067	0.0001983	0.00011593	1354.7	3.7528e-06	3.7843e-06	1353.3	365.53	9.4829e-07	4.9045e-06	416.93	139.32	121.05	41.643	5.8633e-06	51.529	0.00049839	0.00049277	0.00013885	1372.5	5.4101e-06	5.4123e-06	1372.4	372.16	5.3923e-06	5.3871e-06	424.11	142.31	123.74	42.667	5.3111e-06	52.925	51.397	-9.347	-14.186	-65.995	108.559	61.146	-66.031	-61.113	4.422	68.222	-61.705	-57.704	-56.857	-52.250	62.050	-52.890	-8191	255	
712.206	1	1	0	0	0.23386	0.12617	0.12226	0.17173	0.097509	0.13331	0.35361	0.2626	0.20876	0.056594	0.22092	0.081951	0.09723	0.084391	0.23037	0.11165	-2.9792	-2.3396	-2.8292	-3.1292	-2.3812	-3.2729	-2.65	-2.7167	-3.2979	-2.3563	-3.1188	-3.1562	-2.4583	-3.2521	-2.7146	-2.2917	233.819	50.128	29.398	16.232	35.741	244.611	-7.426	255.953	70.159	247.618	138.251	229.033	272.910	206.841	-58.279	88.659	0.00038866	0.00065579	9.0344e-05	1359.4	5.2274e-06	3.5042e-06	1344.1	366.14	2.7141e-06	7.9701e-06	416.68	139.65	121.24	41.6	5.7832e-06	51.626	0.00049796	0.00049546	0.00013461	1372.5	5.3857e-06	5.4592e-06	1368.2	371.6	5.3953e-06	5.3998e-06	424.39	142.52	123.44	42.688	5.3685e-06	52.921	59.651	-14.385	-18.659	-65.927	43.552	61.425	-66.194	-61.196	-61.563	64.672	-61.918	-57.648	-56.840	-52.356	62.491	-53.198	-8191	255	
712.326	1	1	0	0	0.15014	0.056255	0.050368	0.27333	0.094352	0.23471	0.08282	0.33501	0.28289	0.14721	0.20102	0.15939	0.29221	0.11221	0.11737	0.14975	-2.7771	-2.4958	-2.8125	-3.1354	-2.4583	-3.1479	-3.0438	-2.475	-3.2146	-2.4625	-2.8292	-3.3937	-2.5563	-3.2313	-2.7458	-2.5458	131.439	81.560	-18.674	-39.752	45.008	181.703	235.795	202.743	161.039	-19.605	234.257	257.165	254.098	-56.754	17.059	163.243	0.0003942	0.00049478	9.2957e-05	1356.1	5.8606e-06	3.6193e-06	1355.2	365.61	8.4754e-06	5.8325e-06	418.11	139.31	121.47	41.613	3.5138e-06	51.348	0.0005008	0.00049242	0.00013579	1370.2	5.4189e-06	5.4356e-06	1370.2	371.83	5.4054e-06	5.4053e-06	424.34	142.25	123.58	42.667	5.2494e-06	52.78	73.140	-71.681	5.805	-65.837	40.614	24.650	-66.062	-61.213	91.126	94.476	-61.739	-57.527	-56.837	-52.351	113.179	-52.929	-8191	255	
712.398	1	1	0	0	0.30729	0.15829	0.078486	0.22965	0.11172	0.36833	0.29628	0.35637	0.29966	0.26896	0.23081	0.24543	0.32592	0.068542	0.26691	0.17595	-2.8729	-2.3187	-2.7354	-3.1229	-2.325	-3.0896	-3.1208	-2.6417	-3.3	-2.7313	-2.7854	-3.2833	-2.5396	-3.1604	-3.1208	-2.3688	226.218	-13.340	24.749	204.192	94.172	-12.241	220.624	231.486	133.246	-49.151	92.286	-51.754	-41.346	-0.727	114.256	239.651	0.00059894	0.00053631	9.4516e-05	1353.7	3.2653e-06	5.2691e-06	1348.6	365.28	6.524e-06	9.9685e-06	416.97	139.59	120.53	41.526	2.9792e-06	51.606	0.00050194	0.0004903	0.00013619	1370.5	5.2924e-06	5.3495e-06	1367.8	371.02	5.2477e-06	5.3286e-06	423.81	142.3	123.32	42.589	5.1864e-06	52.802	51.225	-22.639	25.259	-65.721	73.430	91.004	-66.214	-61.245	-20.448	83.623	-61.694	-57.429	-57.156	-52.387	67.912	-53.167	-8191	255	
712.519	1	1	0	0	0.22514	0.27701	0.22955	0.16226	0.49319	0.13811	0.18978	0.16622	0.29656	0.051744	0.2024	0.069835	0.17487	0.15624	0.22325	0.2135	-2.9229	-2.5125	-2.4979	-3.3771	-2.4917	-2.8792	-3.2313	-2.5396	-3.0375	-2.7396	-2.7271	-3.4146	-2.3521	-2.9604	-2.8271	-2.5167	18.525	-17.954	45.090	233.778	-9.030	38.163	200.264	9.279	237.083	-36.571	219.514	241.127	204.844	249.425	35.188	-74.354	0.00044821	0.00056747	0.00011084	1352.4	6.1095e-06	3.6116e-06	1351.1	364.27	1.7187e-06	3.4923e-06	415.57	139.55	120.74	41.401	6.8272e-06	51.196	0.00048913	0.00047839	0.00013248	1368.7	5.2373e-06	5.2953e-06	1369.2	370.6	5.2662e-06	5.2671e-06	423.48	142.29	123.21	42.585	5.2958e-06	52.691	60.284	20.485	14.597	-65.990	18.824	134.372	-65.850	-61.045	23.829	29.293	-61.667	-57.257	-56.912	-52.228	79.210	-53.037	-8191	255	
712.615	1	1	0	0	0.14716	0.16332	0.087664	0.43177	0.080603	0.19372	0.11286	0.20327	0.2756	0.17327	0.18217	0.17637	0.13162	0.029893	0.066502	0.3394	-2.7479	-2.8604	-2.4083	-3.3167	-2.4437	-2.7938	-3.2333	-2.6292	-2.9417	-2.8812	-2.4771	-3.3542	-2.5583	-2.8979	-3.0125	-2.6521	217.243	149.070	222.398	213.104	-75.900	41.062	146.138	256.995	42.788	-12.314	-69.890	-29.666	-72.892	258.370	-33.803	202.329	0.00043325	0.00083352	0.00020926	1352.5	4.8365e-06	4.0477e-06	1352	364.1	3.3218e-06	5.4597e-06	419.01	138.94	121.09	41.611	6.9735e-06	51.442	0.00048279	0.00048274	0.00013481	1369.2	5.3858e-06	5.2698e-06	1369.3	370.45	5.3784e-06	5.2787e-06	424.07	142.25	123.47	42.674	5.365e-06	52.766	40.291	7.103	32.840	-65.902	34.112	45.986	-65.994	-61.127	133.039	111.265	-61.606	-57.353	-57.176	-52.188	136.702	-52.869	-8191	255	
712.709	1	1	0	0	0.092349	0.039648	0.088373	0.12047	0.13631	0.16303	0.088199	0.18386	0.10593	0.21878	0.27093	0.34455	0.24018	0.2464	0.15917	0.21372	-2.6708	-2.8729	-2.3521	-3.3458	-2.6854	-2.6875	-3.3958	-2.4792	-3.0667	-3.0021	-2.7229	-3.1396	-2.85	-2.5563	-3.15	-2.3417	41.557	-12.811	143.486	145.003	280.061	122.666	-76.156	224.716	26.288	-19.787	-76.051	170.701	239.181	-32.686	-39.963	0.321	0.00034374	0.00036085	0.00015777	1353	8.2766e-06	4.4992e-06	1352.8	364.93	9.1891e-06	6.4586e-06	416.69	139.41	120.89	41.703	2.5932e-06	51.38	0.00049217	0.00048607	0.00013686	1369.4	5.3506e-06	5.29e-06	1369	371.05	5.4526e-06	5.3621e-06	423.33	142.15	123.43	42.626	5.3355e-06	52.796	54.049	-28.028	36.804	-65.851	62.513	93.441	-65.974	-61.153	51.130	69.979	-61.669	-57.415	-56.957	-52.139	120.099	-53.253	-8191	255	
712.807	1	1	0	0	0.15407	0.18499	0.21873	0.31266	0.064915	0.05392	0.15839	0.14263	0.20121	0.18911	0.056809	0.26861	0.17047	0.15128	0.24447	0.030468	-2.5896	-3.1208	-2.3896	-3.125	-2.6354	-2.55	-3.3708	-2.5479	-3.0958	-3.1667	-2.5229	-3.3167	-2.8167	-2.5729	-3.3833	-2.6542	-68.587	211.297	55.667	-68.743	127.507	247.469	121.499	264.643	128.578	191.207	100.667	257.971	214.064	238.923	135.984	127.292	0.00048782	0.0004141	9.0728e-05	1355.4	4.3782e-06	5.2021e-06	1354	365.12	5.3156e-06	7.7174e-06	415.59	139.24	120.75	41.468	2.966e-06	51.578	0.00049531	0.00049628	0.0001381	1370	5.3822e-06	5.3795e-06	1368.3	371.5	5.4111e-06	5.4159e-06	423.76	142.18	123.41	42.602	5.3689e-06	52.846	63.716	-27.945	-12.464	-66.057	77.490	110.734	-66.140	-61.236	-28.157	93.159	-61.875	-57.315	-56.693	-52.361	2.110	-53.062	-8191	255	
712.926	1	1	0	0	0.20648	0.14016	0.16507	0.079661	0.21647	0.044345	0.21708	0.42446	0.13447	0.20264	0.23423	0.18922	0.17252	0.19618	0.089767	0.061505	-2.3458	-3.4021	-2.2125	-3.3604	-2.7208	-2.6292	-3.3187	-2.6813	-2.625	-3.1562	-2.7167	-3.15	-3.0646	-2.2729	-3.2667	-2.5896	139.221	-71.507	265.196	114.453	-29.508	67.175	174.649	225.849	96.861	17.356	-58.785	-41.229	238.555	187.727	34.769	243.243	0.00049193	0.0004614	0.00019048	1355.6	7.2055e-06	7.0045e-06	1348	365.1	5.0589e-06	5.3002e-06	415.39	139.02	120.88	41.448	4.5148e-06	51.513	0.00051004	0.00049512	0.00014023	1370.8	5.5069e-06	5.3911e-06	1369.1	371.21	5.4246e-06	5.402e-06	423.17	142.05	123.23	42.573	5.3991e-06	52.756	58.445	2.298	2.291	-65.849	34.662	89.728	-65.741	-61.198	30.045	78.454	-61.972	-57.331	-56.768	-52.301	61.609	-53.102	-8191	255	
713.022	1	1	0	0	0.36922	0.31206	0.30026	0.046484	0.22821	0.097111	0.27619	0.093799	0.10805	0.16898	0.22638	0.14665	0.16801	0.13369	0.045815	0.16022	-1.9292	-3.3125	-2.3417	-3.0187	-3.0521	-2.3771	-3.5083	-2.7521	-2.7938	-3.275	-2.5125	-3.0062	-3.2125	-2.6437	-3.1521	-2.9708	168.064	121.193	0.476	252.624	203.373	-13.021	229.694	-8.433	70.966	126.028	201.238	232.037	246.498	220.161	-11.373	152.148	0.00036659	0.00042848	0.00018214	1356.2	3.3573e-06	2.6396e-06	1352.8	364.79	9.2358e-06	5.369e-06	416.24	139.01	120.69	41.326	5.5224e-06	51.49	0.00049502	0.00048505	0.00013721	1370.3	5.3381e-06	5.4978e-06	1370.7	370.83	5.5213e-06	5.4857e-06	423.85	142.08	123.14	42.622	5.4676e-06	52.732	63.845	-10.402	7.669	-65.822	24.186	63.761	-65.928	-61.120	57.990	96.557	-61.634	-57.267	-56.836	-52.448	108.876	-53.157	-8191	255	
713.118	1	1	0	0	0.10657	0.27017	0.035246	0.23876	0.27475	0.27144	0.30088	0.28185	0.17015	0.31944	0.17672	0.16893	0.13728	0.30731	0.27154	0.27937	-2.1937	-3.2625	-2.575	-2.9042	-3.1958	-2.3083	-3.3396	-3.1	-2.4917	-3.4458	-2.7354	-2.9708	-3.3479	-2.6021	-3.1875	-3.0479	89.370	24.854	75.031	208.228	103.511	45.236	231.277	-71.595	180.269	176.817	-77.695	-76.686	132.526	248.972	181.124	231.609	0.00038892	0.00043403	0.0001485	1354.7	3.009e-06	3.543e-06	1355	366.05	6.5358e-06	5.4309e-06	417.11	138.68	121.15	41.68	4.7829e-06	51.331	0.00051087	0.00049834	0.0001415	1371	5.5276e-06	5.4877e-06	1370.2	371.48	5.6138e-06	5.5658e-06	424.08	142.12	123.54	42.628	5.4976e-06	52.754	65.707	13.834	3.317	-65.877	93.375	64.434	-66.031	-61.176	42.566	72.375	-61.814	-57.362	-56.963	-52.208	66.102	-53.233	-8191	255	
713.214	1	1	0	0	0.0072918	0.22605	0.066721	0.090067	0.13556	0.11007	0.083457	0.15955	0.096703	0.35875	0.044484	0.21125	0.32984	0.28558	0.061382	0.20098	-2.0083	-3.3375	-2.5729	-2.8812	-3.2583	-2.2729	-3.3708	-3.2687	-2.3479	-3.2896	-2.7313	-2.6583	-3.3125	-2.5083	-2.9625	-3.075	64.676	157.498	70.519	253.653	-19.929	-31.369	189.500	252.639	134.754	-42.085	111.206	-62.818	273.347	255.827	273.565	260.939	0.00044133	0.00023862	0.00010231	1352.9	5.4146e-06	3.3151e-06	1349.8	365.42	9.4629e-06	8.1319e-06	415.17	139.17	120.73	41.377	5.8059e-06	51.369	0.00050483	0.00049605	0.00013921	1370.3	5.4024e-06	5.4952e-06	1369.5	371.55	5.5065e-06	5.4e-06	423.87	142.24	123.71	42.58	5.3711e-06	52.8	67.763	-70.971	-24.043	-65.874	56.638	58.675	-65.993	-61.229	32.588	85.630	-61.686	-57.375	-56.850	-52.329	92.831	-53.209	-8191	255	
713.311	1	1	0	0	0.16328	0.14093	0.11792	0.097156	0.16732	0.19478	0.26339	0.16374	0.14936	0.1488	0.18067	0.16355	0.11886	0.13894	0.13177	0.1189	-2.05	-3.35	-2.8083	-2.7333	-3.3458	-2.5	-3.0896	-3.1833	-2.475	-3.3958	-2.8417	-2.5229	-3.3312	-2.5083	-2.8167	-3.2896	129.567	40.986	147.749	256.126	41.098	183.794	225.032	248.644	204.504	96.321	183.771	-5.988	196.036	-50.644	-24.890	139.372	0.00043973	0.00035243	0.00014579	1353.2	2.8045e-06	3.634e-06	1355.1	365.6	4.4064e-06	5.8771e-06	415.33	138.83	121.02	41.44	7.4031e-07	51.457	0.00050752	0.00049908	0.00013888	1369.9	5.5639e-06	5.5148e-06	1371.3	371.66	5.5249e-06	5.4823e-06	423.63	142.17	123.71	42.552	5.4241e-06	52.835	62.879	-9.508	11.664	-65.969	-32.016	63.965	-66.071	-61.362	70.559	89.050	-61.721	-57.336	-56.873	-52.457	69.670	-52.922	-8191	255	
713.407	1	1	0	0	0.15767	0.093267	0.15667	0.024929	0.080064	0.16136	0.22618	0.1581	0.15193	0.21505	0.095205	0.34553	0.17134	0.13741	0.030579	0.11313	-1.9646	-3.15	-2.9	-2.5938	-3.1625	-2.5917	-2.8979	-3.1937	-2.4938	-3.0583	-2.9313	-2.5938	-3.2938	-2.5375	-2.8187	-3.3729	-55.345	24.891	61.509	217.356	15.553	241.642	185.516	184.799	269.922	210.225	175.720	231.966	-30.068	256.668	-55.112	-68.458	0.00051446	0.00080954	0.00017367	1356.8	3.3425e-06	4.4894e-06	1356.8	364.97	5.957e-06	4.6035e-06	417.04	139.54	120.98	41.756	4.4734e-06	51.686	0.00051355	0.00050284	0.00014046	1373.7	5.5159e-06	5.5565e-06	1372.7	371.63	5.5518e-06	5.4686e-06	423.95	142.16	123.49	42.719	5.418e-06	52.92	55.428	-22.584	3.884	-66.011	61.910	62.101	-65.816	-61.382	39.744	87.409	-61.744	-57.433	-57.092	-52.241	95.791	-52.987	-8191	255	
713.503	1	1	0	0	0.16063	0.24758	0.27333	0.21931	0.056821	0.064058	0.37029	0.18365	0.15107	0.095472	0.15322	0.19316	0.17271	0.20567	0.072558	0.20717	-1.8813	-3.0146	-2.9604	-2.2833	-3.3042	-2.5812	-2.7542	-3.4417	-2.3438	-2.9188	-3.2167	-2.4062	-3.2479	-3.15	-2.4792	-3.3542	277.948	226.203	58.248	236.382	213.185	91.195	260.631	218.657	14.463	272.496	-37.388	-45.566	-41.085	183.479	-66.511	-66.950	0.00044035	0.00028409	0.00012655	1353.1	4.5183e-06	4.0589e-06	1353.7	364.96	4.172e-06	5.1629e-06	418.55	139.01	121.23	41.507	3.4717e-06	51.492	0.00050378	0.00049037	0.00013771	1371.3	5.5626e-06	5.4285e-06	1370.8	371.94	5.4309e-06	5.4402e-06	424.53	142.2	123.53	42.633	5.4771e-06	52.82	56.930	-10.624	11.039	-65.749	33.366	42.364	-65.882	-61.098	34.415	90.499	-61.777	-57.358	-56.885	-52.190	49.340	-52.942	-8191	255	
713.622	1	1	0	0	0.22802	0.24579	0.1597	0.079112	0.10333	0.049899	0.20912	0.24107	0.095233	0.29993	0.22142	0.16255	0.32607	0.11179	0.15621	0.23612	-1.9854	-2.8479	-3.1604	-2.7062	-2.9813	-2.7958	-2.6667	-3.4938	-2.5083	-2.7458	-3.2604	-2.5312	-3.2396	-2.8042	-2.3667	-3.4104	171.150	66.670	189.179	-3.719	144.751	204.159	253.847	218.053	-61.668	260.881	151.093	-68.250	271.433	250.077	171.576	243.184	0.00027442	0.00063321	0.00024199	1355.5	4.2714e-06	5.1474e-06	1351.9	365.67	7.2145e-06	4.7032e-06	416.13	139.1	120.86	41.483	4.1116e-06	51.615	0.00050725	0.00049681	0.00013827	1371.4	5.4642e-06	5.4351e-06	1368.9	371.66	5.4891e-06	5.3908e-06	424.36	142.13	123.39	42.585	5.3514e-06	52.852	57.243	-3.717	18.150	-65.824	89.267	78.932	-65.908	-61.139	72.259	83.286	-61.953	-57.574	-56.690	-52.443	47.988	-52.740	-8191	255	
713.695	1	1	0	0	0.071396	0.12768	0.2316	0.19265	0.4046	0.10545	0.30926	0.18754	0.057057	0.11464	0.14336	0.3371	0.14883	0.18541	0.095418	0.23953	-2.2271	-2.8458	-3.1125	-2.4667	-2.9625	-2.9646	-2.5812	-3.4542	-2.6833	-2.8646	-3.3187	-2.4854	-3.2771	-3.0917	-2.3083	-3.3792	1.196	117.973	122.080	258.857	171.726	175.668	213.595	197.823	275.395	28.585	277.101	197.221	216.673	166.298	126.840	272.549	0.00046582	0.00058809	0.00015962	1352.2	3.0343e-06	6.8772e-06	1353.4	365.59	2.6061e-06	4.5025e-06	415.65	138.9	121.03	41.664	8.3848e-06	51.501	0.00050291	0.00048104	0.00013547	1370.9	5.3646e-06	5.3598e-06	1369.1	371.99	5.4747e-06	5.3232e-06	423.17	142.05	123.64	42.624	5.3754e-06	52.969	76.081	-0.297	6.719	-65.825	27.100	85.364	-65.876	-61.037	56.234	45.373	-61.692	-57.323	-56.807	-52.057	73.054	-53.010	-8191	255	
713.790	1	1	0	0	0.063188	0.24655	0.17377	0.25774	0.23052	0.16125	0.12062	0.10909	0.094289	0.37984	0.14383	0.040652	0.27802	0.1739	0.22159	0.29507	-2.3417	-2.4542	-3.3187	-2.5542	-3.0479	-2.975	-2.8292	-3.4833	-2.5687	-2.3958	-3.5958	-2.675	-2.8	-3.2354	-2.5167	-3.2729	87.783	-19.363	221.050	144.143	210.586	36.649	-74.931	137.949	136.286	279.768	125.339	267.946	-62.937	34.355	247.950	230.698	0.00048539	0.0005766	0.00014884	1354.6	3.963e-06	3.3096e-06	1351.8	364.52	5.1068e-06	5.5719e-07	418.14	139.01	120.9	41.547	7.0056e-06	51.408	0.00049321	0.00049552	0.00013599	1371.5	5.4404e-06	5.2656e-06	1370.3	371.44	5.4299e-06	5.3622e-06	424.73	141.99	123.61	42.619	5.4295e-06	52.81	62.968	8.452	-8.698	-66.047	65.595	79.631	-66.134	-61.120	-31.784	107.153	-61.573	-57.410	-56.686	-52.542	79.826	-52.672	-8191	255	
713.888	1	1	0	0	0.34346	0.043819	0.2006	0.19541	0.068455	0.099311	0.19547	0.064278	0.11731	0.12376	0.08608	0.12235	0.21336	0.11299	0.18333	0.13918	-2.2562	-2.6	-3.275	-2.4229	-2.8937	-3.2188	-2.5792	-3.4062	-2.9146	-2.2917	-3.3958	-2.625	-2.7292	-3.4083	-2.2792	-3.0833	142.363	155.441	-47.150	151.938	263.182	3.373	233.895	191.557	-38.958	-54.382	274.744	117.581	50.780	-6.783	148.766	178.875	0.00061206	0.00066294	8.9145e-05	1353.5	4.9198e-06	2.5332e-06	1347.1	364.52	5.7419e-06	4.6524e-06	415.93	139.77	121.18	41.431	5.2247e-06	51.611	0.00048846	0.0004918	0.00013593	1369.3	5.3274e-06	5.2792e-06	1369.3	371.28	5.2881e-06	5.3636e-06	423.52	142.19	123.45	42.563	5.2729e-06	52.751	72.407	35.535	-23.392	-65.922	-0.779	15.271	-65.937	-60.971	23.654	64.523	-61.705	-57.271	-56.682	-52.406	69.063	-52.760	-8191	255	
714.006	1	1	0	0	0.13048	0.21971	0.091894	0.19318	0.33392	0.16848	0.2458	0.077535	0.3186	0.1828	0.053588	0.17648	0.18266	0.17278	0.080552	0.1883	-2.4708	-2.5646	-3.0958	-2.4875	-2.5438	-3.4042	-2.6458	-3.1604	-3.0958	-2.2229	-3.4542	-2.8063	-2.7313	-3.3563	-2.4333	-3.1562	266.768	145.574	25.235	222.480	188.759	-20.127	224.978	250.702	-35.795	-59.347	-74.472	208.238	-77.825	27.402	84.423	168.432	0.00044015	0.00078324	0.00017554	1355	4.5332e-06	6.0456e-06	1348	365.06	4.4728e-06	4.0586e-06	416.67	139.05	120.83	41.513	6.9139e-06	51.401	0.00048395	0.00048347	0.00013168	1369.1	5.327e-06	5.3041e-06	1367.5	371.52	5.2846e-06	5.2789e-06	424	142.03	123.28	42.577	5.2518e-06	52.889	53.991	35.223	17.977	-65.874	49.508	23.262	-65.994	-61.118	28.220	87.982	-61.586	-57.384	-57.051	-52.017	88.096	-52.683	-8191	255	
714.103	1	1	0	0	0.25781	0.17791	0.086219	0.076594	0.12205	0.23876	0.17035	0.28743	0.22386	0.21462	0.29793	0.15677	0.08751	0.11415	0.19182	0.055061	-2.6875	-2.2354	-3.1125	-2.8625	-2.5333	-3.2375	-2.7625	-3.0812	-3.1104	-2.3958	-3.3625	-2.9771	-2.3417	-3.3667	-2.6813	-2.6667	-70.775	29.180	2.350	55.401	131.844	88.796	226.149	261.748	232.772	177.832	266.462	242.779	86.580	64.440	211.680	178.096	0.00058944	0.00053114	0.00012909	1348.8	3.5917e-06	5.521e-06	1351.5	364.76	9.201e-07	8.6995e-06	416.38	139.52	120.44	41.574	6.6879e-06	51.406	0.00048198	0.00048009	0.0001319	1367.4	5.28e-06	5.2047e-06	1367.3	371.13	5.2186e-06	5.3349e-06	423.68	142.07	123.34	42.571	5.2057e-06	52.769	55.693	15.526	9.957	-65.743	63.495	73.902	-66.080	-61.205	58.195	77.225	-61.881	-57.525	-56.840	-52.313	50.694	-52.717	-8191	255	
714.199	1	1	0	0	0.1897	0.19555	0.21696	0.18219	0.22795	0.28837	0.17778	0.2388	0.10587	0.18437	0.20185	0.25334	0.11298	0.18126	0.18651	0.073153	-2.9542	-2.5542	-3.075	-2.9792	-2.4813	-3.2313	-2.7875	-2.8896	-3.225	-2.3083	-3.1042	-2.7917	-2.6021	-3.2479	-2.4167	-2.6625	4.869	57.081	249.138	265.558	253.730	-22.962	165.567	229.647	106.885	119.219	230.185	245.792	200.873	-12.998	233.933	-62.491	0.00047071	0.00049139	0.00019206	1347.1	7.2263e-06	7.1958e-06	1348.4	365.12	7.8516e-06	6.3762e-06	415.71	138.44	120.65	41.341	3.4091e-06	51.367	0.00048941	0.00047817	0.00013274	1364.3	5.2427e-06	5.1827e-06	1365.6	370.71	5.2385e-06	5.1479e-06	423.37	141.64	123.03	42.541	5.3044e-06	52.676	63.953	-36.354	5.744	-65.850	28.397	60.523	-66.016	-60.947	60.988	109.743	-61.559	-57.393	-56.692	-52.175	70.342	-52.911	-8191	255	
714.295	1	1	0	0	0.20172	0.26842	0.32071	0.14542	0.11762	0.058745	0.28704	0.051079	0.21251	0.17471	0.17328	0.17558	0.10532	0.20651	0.15251	0.45368	-2.8604	-2.375	-2.9521	-3.0771	-2.1917	-3.1833	-2.9896	-2.7896	-3.1667	-2.5708	-2.9917	-3.1396	-2.4292	-3.1729	-2.7708	-2.5333	82.461	12.757	43.524	-75.711	160.161	187.295	268.616	167.025	16.768	105.730	-10.117	235.758	-77.637	214.737	-21.762	191.263	0.00049175	0.00061541	0.00026581	1356.9	8.5668e-06	4.4709e-06	1350.6	364.34	5.9272e-06	3.6798e-06	416.13	138.44	121.07	41.519	1.0992e-06	51.55	0.00048862	0.00048856	0.00013633	1369.4	5.3989e-06	5.2978e-06	1367.6	370.71	5.3846e-06	5.5451e-06	423.18	141.73	123.41	42.567	5.4879e-06	52.912	64.649	33.429	2.903	-66.075	42.840	78.488	-65.996	-61.157	45.834	57.407	-61.632	-57.619	-56.824	-52.452	49.593	-52.738	-8191	255	
714.391	1	1	0	0	0.27582	0.14481	0.082078	0.2148	0.16793	0.206	0.16769	0.18219	0.2447	0.13115	0.27473	0.098195	0.14187	0.3247	0.1942	0.17876	-2.7583	-2.3792	-2.7146	-3.0771	-2.2438	-3.1271	-3.0563	-2.5312	-3.2062	-2.5687	-2.7125	-3.1562	-2.5104	-3.1688	-2.875	-2.7438	206.869	11.876	86.467	257.162	-28.245	5.255	-75.403	-68.479	186.450	125.378	256.546	174.724	249.198	218.412	101.911	237.782	0.00042284	0.00040504	0.00016805	1349.3	5.421e-06	6.8642e-06	1347	363.85	3.4408e-06	5.264e-06	418.06	139.14	120.55	41.485	4.634e-06	51.623	0.00051288	0.0005023	0.0001417	1368.5	5.5658e-06	5.5465e-06	1367.8	370.36	5.6777e-06	5.6064e-06	424.47	142.11	123.5	42.652	5.5964e-06	52.848	52.028	19.328	11.993	-65.965	29.922	73.039	-66.012	-61.158	-16.143	72.077	-61.953	-57.261	-57.254	-52.095	77.669	-53.071	-8191	255	
714.487	1	1	0	0	0.12382	0.16992	0.37247	0.25129	0.27174	0.24767	0.20101	0.33291	0.098366	0.069477	0.26913	0.14784	0.10031	0.20655	0.11969	0.26169	-2.9813	-2.5958	-2.7167	-3.3083	-2.3812	-2.8688	-3.2	-2.4521	-3.2125	-2.7438	-2.6083	-3.3042	-2.3896	-2.9792	-3.0896	-2.5479	137.576	234.631	216.475	-54.646	171.867	99.894	274.092	247.081	215.913	-15.511	223.851	214.777	-67.348	10.188	41.135	239.860	0.00048977	0.0004064	0.00013199	1350.7	1.0454e-06	6.5102e-06	1345.6	365.82	7.8381e-06	6.7677e-06	418.65	139.42	120.63	41.556	5.4008e-06	51.517	0.00051504	0.0005148	0.00014362	1367.8	5.6846e-06	5.6888e-06	1367	371.26	5.6883e-06	5.7171e-06	425.34	142.41	123.59	42.698	5.6477e-06	52.828	48.059	-18.736	25.872	-65.842	95.585	94.256	-65.928	-61.246	44.178	77.344	-61.812	-57.262	-56.888	-52.248	81.805	-53.073	-8191	255	
714.608	1	1	0	0	0.25334	0.015309	0.069925	0.077684	0.0679	0.17082	0.2528	0.31166	0.21022	0.14101	0.16171	0.20602	0.22787	0.16289	0.17702	0.19371	-2.9437	-2.6	-2.5479	-3.475	-2.2604	-3.1583	-3.275	-2.6646	-3.1042	-2.6708	-2.5292	-3.2875	-2.6063	-2.6958	-3.2396	-2.4479	-46.213	-21.341	210.575	-76.589	159.304	30.610	191.909	230.174	127.346	-58.222	-77.215	267.689	198.877	233.287	193.565	157.996	0.00044131	0.00016221	0.00010466	1356.3	7.1033e-06	4.7806e-06	1350.4	365.83	1.7271e-06	1.8e-06	417.4	138.71	120.6	41.568	3.6727e-06	51.357	0.00051903	0.00051522	0.00014415	1370.2	5.5692e-06	5.5424e-06	1369.4	371.49	5.6073e-06	5.5176e-06	424.05	142.07	123.39	42.638	5.5417e-06	52.811	62.261	50.923	31.917	-66.052	75.819	90.229	-66.338	-61.255	50.994	118.693	-62.002	-57.715	-57.303	-52.257	49.998	-53.029	-8191	255	
714.702	1	1	0	0	0.2829	0.3061	0.18121	0.18741	0.20924	0.09267	0.20063	0.2127	0.28812	0.088808	0.16137	0.0058507	0.20283	0.071751	0.085146	0.24545	-2.8604	-2.7188	-2.2958	-3.3604	-2.3708	-2.7146	-3.4208	-2.4917	-3.0417	-2.9354	-2.4167	-3.3021	-2.7	-2.7833	-3.1729	-2.4042	160.944	13.236	118.048	174.106	232.042	29.804	275.453	270.132	25.584	272.724	123.397	-74.740	76.056	274.674	133.709	-74.725	0.00040722	0.0007684	0.00017355	1356	3.0008e-06	5.5111e-06	1351.1	364.63	2.4708e-06	4.2589e-06	416.35	138.86	120.85	41.48	4.7487e-06	51.395	0.00051274	0.00051303	0.0001427	1371.4	5.6059e-06	5.7125e-06	1369.2	370.84	5.7028e-06	5.658e-06	423.15	142.12	123.59	42.716	5.6287e-06	52.823	45.168	-0.902	15.030	-65.965	70.432	104.353	-66.109	-61.162	103.339	74.439	-62.059	-57.965	-57.033	-52.263	49.083	-53.225	-8191	255	
714.798	1	1	0	0	0.23764	0.25279	0.11555	0.33551	0.28074	0.10085	0.10674	0.37963	0.073099	0.10586	0.29974	0.12297	0.25827	0.25908	0.1869	0.023007	-2.7125	-2.8438	-2.2938	-3.1958	-2.5104	-2.7042	-3.3917	-2.4458	-3.0479	-2.9625	-2.3667	-3.4667	-2.7438	-2.4896	-3.1708	-2.4938	0.459	-15.642	178.450	238.161	9.563	-42.508	105.862	223.253	3.582	216.292	-27.906	266.586	211.401	-76.371	-57.786	-65.239	0.00030754	0.0004711	4.4898e-05	1352.3	1.6537e-06	1.455e-06	1351.5	365.04	5.5969e-06	3.473e-06	415.7	139.49	120.96	41.796	2.2457e-06	51.422	0.00052062	0.00051886	0.0001447	1369.5	5.6697e-06	5.6712e-06	1370.7	371.41	5.7089e-06	5.6141e-06	424.27	142.34	123.55	42.687	5.4678e-06	52.803	67.484	-9.655	-6.306	-66.104	42.082	118.929	-66.197	-61.359	22.489	47.219	-61.775	-57.553	-56.984	-52.322	-74.590	-53.146	-8191	255	
714.919	1	1	0	0	0.11113	0.080769	0.06787	0.28561	0.13198	0.084044	0.070486	0.051887	0.15791	0.10702	0.26135	0.19626	0.12276	0.11236	0.11554	0.24687	-2.425	-2.9917	-2.4354	-3.1021	-2.6042	-2.3563	-3.3271	-2.6354	-2.8104	-3.0125	-2.4208	-3.2625	-2.725	-2.4833	-3.1521	-2.6333	177.151	168.878	232.229	228.014	161.696	33.867	184.753	-27.585	104.039	127.627	135.197	163.904	-50.050	275.645	215.386	240.172	0.00036246	0.00050316	0.00012678	1350.4	6.7355e-06	3.8451e-06	1357.6	365.64	7.2391e-06	3.7189e-06	416	138.5	120.8	41.466	5.7207e-06	51.65	0.00050675	0.00050034	0.00014114	1368.8	5.542e-06	5.5889e-06	1370	371.1	5.5724e-06	5.5577e-06	423.51	141.85	123.48	42.64	5.6109e-06	52.947	70.523	-15.091	11.474	-65.748	108.449	107.584	-65.944	-61.461	65.792	89.989	-62.219	-57.433	-57.145	-52.758	73.370	-53.193	-8191	255	
714.991	1	1	0	0	0.16874	0.16091	0.18433	0.41003	0.11925	0.13802	0.42958	0.29447	0.18183	0.086136	0.1175	0.17458	0.25745	0.18835	0.069503	0.15765	-2.4688	-3.3479	-2.275	-3.0563	-3.025	-2.2271	-3.6	-2.7958	-2.5854	-3.2542	-2.4875	-3.1188	-2.9125	-2.5021	-3.2104	-2.7208	62.472	125.281	203.401	228.229	138.829	-70.889	206.331	223.278	-52.617	71.768	-42.631	225.440	239.256	264.234	144.959	191.402	0.00044652	0.00028146	0.00015653	1353.8	5.2024e-06	7.3123e-06	1348.7	363.23	8.2248e-06	2.7937e-06	414.18	138.78	120.69	41.511	2.5115e-06	51.564	0.000519	0.00050981	0.00014365	1369.8	5.7317e-06	5.6924e-06	1369.9	370.86	5.73e-06	5.7071e-06	423.65	142.2	123.56	42.646	5.6364e-06	52.817	65.235	-48.775	26.088	-65.935	54.174	84.146	-66.014	-61.430	74.462	92.051	-61.847	-57.436	-57.092	-52.655	64.073	-53.196	-8191	255	
715.087	1	1	0	0	0.073576	0.14725	0.062071	0.10298	0.19294	0.16097	0.17491	0.15731	0.22359	0.20775	0.2278	0.14009	0.35146	0.057678	0.25268	0.23412	-2.2438	-3.2458	-2.1	-3.0396	-2.9562	-2.2708	-3.3417	-2.7229	-2.2042	-3.4437	-2.5438	-2.9604	-3.1333	-2.4958	-3.2583	-2.7354	10.525	138.481	115.799	248.777	24.483	22.791	217.089	185.026	-59.572	207.138	142.478	214.680	232.251	73.373	128.709	268.611	0.00052657	0.00037526	0.00013942	1353.3	3.9164e-06	7.6113e-06	1352.1	364.99	1.1186e-06	8.3969e-06	417.53	139.23	120.65	41.492	4.2476e-06	51.418	0.00051992	0.00051693	0.00014232	1368.6	5.5895e-06	5.6427e-06	1369.4	370.96	5.5674e-06	5.5673e-06	424.15	142.13	123.57	42.568	5.6742e-06	52.773	55.715	-11.716	49.993	-65.892	133.036	72.456	-66.108	-61.225	120.267	81.606	-61.836	-57.621	-56.889	-52.111	54.893	-53.223	-8191	255	
715.183	1	1	0	0	0.12779	0.11136	0.16032	0.10877	0.21718	0.25562	0.041012	0.095652	0.16344	0.22705	0.073216	0.29345	0.020047	0.28362	0.095966	0.034839	-2.2313	-3.2167	-2.475	-3.0312	-3	-2.375	-3.2604	-3.0792	-2.6271	-3.2396	-2.6688	-2.7042	-3.2958	-2.4104	-2.9938	-3.2417	183.375	146.136	-33.421	218.323	96.344	256.218	178.108	-26.341	209.091	-41.972	28.185	252.717	139.358	270.712	19.012	-7.435	0.00052073	0.00033281	0.00018592	1352.4	4.4553e-06	5.639e-06	1354.2	365.27	2.7491e-06	4.4131e-06	416.57	139.07	120.75	41.486	4.5444e-06	51.391	0.0005219	0.0005203	0.00014737	1368.5	5.7423e-06	5.8626e-06	1371.7	371.31	5.9705e-06	5.8397e-06	424.5	142.18	123.76	42.673	5.9269e-06	52.838	61.240	5.521	8.005	-65.803	33.430	52.806	-65.930	-61.319	-75.481	74.324	-61.942	-57.369	-57.117	-52.322	78.517	-53.338	-8191	255	
715.304	1	1	0	0	0.17985	0.032626	0.086285	0.1908	0.11359	0.16773	0.44137	0.19779	0.052566	0.21913	0.25585	0.11453	0.11958	0.20483	0.13581	0.24342	-1.9875	-3.2188	-2.7667	-2.8	-3.0979	-2.3479	-3.4021	-3.0167	-2.425	-3.2896	-2.7938	-2.7021	-3.2062	-2.5458	-2.8396	-3.0563	208.454	-39.257	-17.245	214.940	-68.537	106.084	227.875	202.536	220.778	92.099	208.003	-7.473	61.952	266.731	276.935	-3.781	0.00036671	0.00063599	0.00010549	1358.6	9.085e-06	7.4343e-06	1350	364.54	4.5967e-06	5.9731e-06	418.15	139.31	120.72	41.655	2.1769e-06	51.603	0.0005481	0.00054724	0.00015242	1372.8	6.0062e-06	6.0704e-06	1369.1	371.25	6.0382e-06	6.0121e-06	424.42	142.3	123.75	42.812	6.0546e-06	52.982	62.054	-31.244	14.289	-65.884	69.251	60.802	-66.053	-61.409	85.237	80.489	-62.013	-57.408	-57.166	-52.352	130.996	-53.227	-8191	255	
715.400	1	1	0	0	0.15104	0.16368	0.22153	0.19456	0.22688	0.19924	0.23473	0.34646	0.10943	0.11771	0.14756	0.17876	0.020895	0.11224	0.050764	0.15217	-2.0083	-3.0208	-2.5812	-2.6208	-3.0604	-2.2188	-3.3896	-3.2021	-2.4979	-3.0229	-2.9146	-2.4437	-3.2458	-2.4333	-2.9688	-3.1917	94.814	-20.148	144.876	-75.906	148.486	74.408	208.271	256.446	58.958	58.190	142.607	236.736	36.492	130.242	-41.784	16.093	0.00051688	0.00039756	0.00017596	1351.7	2.7558e-06	5.1091e-06	1356.1	365.2	4.0983e-06	2.2209e-06	416.9	139.18	120.63	41.718	8.8639e-06	51.642	0.00055821	0.00055378	0.00015539	1373.5	6.1392e-06	6.1506e-06	1373.6	371.9	6.1351e-06	6.1606e-06	424.95	142.46	123.87	42.861	6.2173e-06	53.053	54.679	7.443	50.461	-65.773	32.805	71.832	-65.759	-61.454	78.646	127.510	-61.839	-57.256	-57.008	-52.341	77.157	-53.036	-8191	255	
715.496	1	1	0	0	0.07122	0.12173	0.02429	0.13629	0.19245	0.10574	0.29878	0.1036	0.24198	0.14538	0.045854	0.1223	0.1644	0.2467	0.41272	0.26307	-1.7396	-3.1354	-2.8521	-2.6312	-3.2729	-2.6688	-2.7125	-3.3604	-2.4125	-2.9917	-2.9667	-2.6396	-3.3104	-2.825	-2.5042	-3.4375	251.600	-64.251	-47.719	255.508	-33.230	2.385	213.547	197.222	234.982	215.181	68.338	280.710	274.921	278.940	28.171	188.066	0.00053596	0.00046787	0.00014405	1355.4	7.961e-06	7.5756e-06	1354.3	365.85	5.9412e-06	6.8582e-06	416.35	139.31	121.43	41.651	1.8539e-06	51.521	0.0005741	0.00057398	0.00015753	1376.4	6.2574e-06	6.2095e-06	1374.5	372.21	6.279e-06	6.1262e-06	424.92	142.68	124.13	42.793	6.1825e-06	53.021	59.939	-6.700	6.706	-65.912	57.184	38.522	-65.838	-61.236	65.102	73.558	-61.848	-57.750	-56.828	-52.386	38.741	-53.196	-8191	255	
715.568	1	1	0	0	0.15276	0.27918	0.034452	0.13327	0.20281	0.15329	0.19796	0.0953	0.07982	0.33776	0.2474	0.18812	0.12391	0.26166	0.08078	0.12246	-1.875	-3.0229	-3.0646	-2.4625	-3.3979	-2.6521	-2.7917	-3.6063	-2.45	-3.0271	-3.1667	-2.2062	-3.325	-3.0125	-2.4313	-3.2104	-5.376	3.519	-45.447	-77.601	87.898	122.767	240.291	171.810	-33.007	257.724	213.645	204.961	200.021	-3.278	229.607	253.008	0.00047076	0.00072689	0.00012254	1354.8	1.5198e-06	6.2311e-06	1352.8	365.32	9.1506e-07	1.0431e-05	415.92	139.8	121.37	41.647	5.5772e-06	51.505	0.00056198	0.0005637	0.00015441	1373.6	6.1169e-06	6.1446e-06	1372.6	372.41	6.0875e-06	6.0724e-06	425.21	142.72	124.01	42.844	6.1252e-06	53.027	56.822	-12.417	53.672	-65.989	154.642	85.761	-66.159	-61.203	56.757	55.803	-61.663	-57.389	-56.942	-52.341	74.781	-53.298	-8191	255	
715.686	1	1	0	0	0.28176	0.10664	0.13377	0.22194	0.16299	0.069951	0.34899	0.24585	0.20286	0.063316	0.17772	0.24208	0.069653	0.20549	0.050812	0.15065	-1.9708	-2.7458	-3.0354	-2.5917	-3.3292	-2.7896	-2.6729	-3.5229	-2.4271	-2.5958	-3.2521	-2.6437	-3.1688	-3.1208	-2.3021	-3.4188	280.205	-78.395	99.073	138.321	173.450	262.294	208.859	251.794	62.082	170.535	-34.540	215.624	149.074	203.998	-64.515	228.154	0.0004551	0.00039934	9.664e-05	1353.6	8.7076e-06	3.6322e-06	1353.6	365.3	3.8091e-06	3.999e-06	416.46	139.11	121.04	41.644	4.4061e-06	51.84	0.00056227	0.000566	0.00016061	1373.6	6.181e-06	6.2055e-06	1372.4	372.28	6.2366e-06	6.2858e-06	425.07	142.64	123.94	42.83	6.1904e-06	53.126	50.972	33.148	51.897	-65.895	83.109	83.570	-65.985	-61.237	107.053	114.156	-61.708	-57.574	-56.809	-52.050	115.061	-53.095	-8191	255	
715.783	1	1	0	0	0.16723	0.22634	0.061319	0.44976	0.24932	0.021259	0.13524	0.13086	0.25746	0.22489	0.051817	0.23198	0.18335	0.078777	0.15177	0.20485	-2.0625	-2.6167	-3.2104	-2.5812	-3.0312	-2.7875	-2.6229	-3.4313	-2.5396	-2.6896	-3.3354	-2.5021	-3.2083	-3.1396	-2.2812	-3.4521	224.240	-59.805	65.964	-52.044	4.673	249.923	206.405	211.849	82.102	24.276	21.135	138.626	72.199	23.402	207.453	194.956	0.00048846	0.00046512	0.00021375	1357.8	2.604e-06	5.158e-06	1352.9	366.08	5.4987e-06	7.7383e-06	418.23	139.51	121.28	41.584	2.5592e-06	51.722	0.0005637	0.00055455	0.00015511	1375.7	6.0009e-06	5.9983e-06	1372	372.42	6.0186e-06	5.9286e-06	424.64	142.57	124.01	42.757	5.9618e-06	53.01	58.525	23.381	9.173	-65.890	81.339	63.033	-65.937	-61.131	24.207	57.147	-61.469	-57.701	-56.853	-52.530	57.718	-53.166	-8191	255	
715.880	1	1	0	0	0.36195	0.11204	0.19112	0.24804	0.12774	0.33617	0.10873	0.17603	0.16025	0.30093	0.11122	0.10822	0.041768	0.17679	0.24876	0.09314	-2.2562	-2.6312	-3.4583	-2.525	-3.1229	-2.9396	-2.4646	-3.5229	-2.8979	-2.4104	-3.4375	-2.7021	-3.0104	-3.0563	-2.2104	-3.3271	-22.533	79.916	-57.475	252.374	-77.311	-26.831	156.378	244.874	69.089	249.421	144.722	235.134	-35.384	-21.887	111.494	263.003	0.00037812	0.00043542	0.00013811	1356.4	4.2372e-06	4.9511e-06	1352.2	365.24	3.3855e-06	4.3311e-06	415.45	138.98	120.8	41.597	8.5841e-06	51.475	0.00053744	0.0005352	0.00014812	1375.8	5.7739e-06	5.8345e-06	1371.5	371.97	5.855e-06	5.8329e-06	424.67	142.21	123.78	42.717	5.8417e-06	52.985	61.808	-34.634	14.582	-65.887	31.212	29.011	-65.847	-61.109	82.703	76.480	-61.511	-57.616	-56.755	-52.162	68.550	-52.823	-8191	255	
715.999	1	1	0	0	0.083099	0.20885	0.10468	0.30712	0.21656	0.090441	0.093907	0.038064	0.1473	0.34261	0.26435	0.23291	0.41424	0.071499	0.16817	0.49771	-2.3937	-2.6292	-3.0875	-2.6458	-2.8104	-3.1979	-2.5438	-3.3292	-3.0187	-2.4562	-3.3979	-2.5833	-2.6979	-3.4833	-2.2208	-3.0979	182.384	-58.236	211.592	-18.941	61.459	-6.532	200.514	264.684	221.132	179.340	226.769	201.635	243.846	117.521	123.839	-70.461	0.00039833	0.00011572	0.00016567	1357.5	7.4477e-06	5.9459e-06	1350.5	366.19	2.3169e-06	5.1767e-06	416.81	139.29	121.14	41.686	6.2714e-06	51.503	0.00053712	0.00053639	0.00014818	1375.6	5.8627e-06	5.7955e-06	1371.9	372.38	5.9263e-06	5.8455e-06	423.97	142.22	123.73	42.754	5.8335e-06	52.902	73.633	-13.804	27.158	-65.769	62.929	63.212	-65.838	-60.960	65.074	72.089	-61.554	-57.324	-56.912	-52.240	112.480	-52.899	-8191	255	
716.095	1	1	0	0	0.067498	0.19015	0.21811	0.082125	0.1194	0.068947	0.081656	0.32301	0.1948	0.15062	0.20998	0.20193	0.20854	0.14341	0.077738	0.33147	-2.8292	-2.3937	-3.3854	-2.7542	-2.7313	-3.4708	-2.7417	-3.0229	-3.1729	-2.4229	-3.3792	-3.0917	-2.8125	-3.3021	-2.4958	-3.0875	56.980	254.894	216.517	227.009	154.175	240.493	118.049	243.003	4.641	0.770	-78.707	241.134	276.945	61.063	-45.198	241.390	0.00056051	0.00055652	0.00017356	1355.4	7.3851e-06	5.3509e-06	1349.5	365.39	4.3684e-06	4.0883e-06	418.8	138.79	120.65	41.581	5.948e-06	51.515	0.00053252	0.00052452	0.00014477	1374.5	5.7825e-06	5.7028e-06	1370.4	371.85	5.6778e-06	5.6955e-06	424.49	141.99	123.72	42.599	5.6405e-06	52.935	46.336	-33.824	16.210	-65.894	48.096	90.370	-65.797	-60.820	24.650	64.676	-61.716	-57.272	-56.952	-52.442	84.868	-52.863	-8191	255	
716.192	1	1	0	0	0.22993	0.058058	0.059074	0.21078	0.13388	0.27	0.22426	0.17668	0.080185	0.21291	0.18813	0.26709	0.37565	0.11272	0.3376	0.3083	-2.4938	-2.2667	-3.0708	-2.6813	-2.4021	-3.4167	-2.6083	-3.0292	-3.0542	-2.4458	-3.4062	-2.8667	-2.4396	-3.3438	-2.2917	-2.9292	231.800	61.571	222.233	262.750	73.552	277.330	222.179	208.165	37.688	250.789	-22.150	232.087	267.978	182.940	204.321	214.544	0.00035697	0.0002101	0.00011879	1358.8	6.761e-06	3.8783e-06	1349.3	365.11	2.4343e-06	2.953e-06	415.82	139.42	121.45	41.713	5.6484e-06	51.611	0.0005149	0.00051283	0.00014352	1375	5.6914e-06	5.6097e-06	1369.5	371.36	5.6937e-06	5.636e-06	424.56	142.33	123.93	42.702	5.7612e-06	52.959	83.250	6.518	25.062	-65.665	42.823	44.991	-65.917	-61.021	41.234	78.732	-61.505	-57.356	-56.735	-52.307	47.377	-52.841	-8191	255	
716.288	1	1	0	0	0.062016	0.32005	0.093036	0.1019	0.052058	0.059658	0.17645	0.38151	0.24919	0.079776	0.19942	0.35087	0.36874	0.21294	0.29421	0.11056	-2.8833	-2.3563	-2.7792	-3.0354	-2.6042	-3.2729	-2.5833	-2.7521	-3.3937	-2.4437	-2.9417	-2.9688	-2.4125	-3.325	-2.625	-2.7208	67.446	245.833	-44.648	246.949	-31.966	258.509	266.793	212.279	0.790	185.359	-68.535	256.269	-15.241	228.496	218.527	-54.256	0.00047632	0.00063548	0.00017187	1357.1	5.0979e-06	2.6926e-06	1353.8	366.03	2.9472e-06	4.8856e-06	416.43	139.45	121.24	41.661	4.2856e-06	51.473	0.00051734	0.0005216	0.00014502	1372.9	5.6385e-06	5.7359e-06	1371.6	371.76	5.7292e-06	5.7008e-06	424.29	142.52	123.75	42.746	5.6709e-06	52.868	61.946	-5.657	37.443	-65.982	37.373	41.134	-65.854	-60.947	2.493	87.510	-61.482	-57.290	-56.674	-51.940	56.254	-52.896	-8191	255	
716.384	1	1	0	0	0.16047	0.1549	0.12379	0.2029	0.23093	0.17309	0.29394	0.3019	0.24751	0.098097	0.25257	0.07598	0.042066	0.13672	0.046596	0.21872	-2.9938	-2.2562	-3.0708	-3.1375	-2.0896	-3.3583	-2.7875	-2.6729	-3.2458	-2.6021	-2.7958	-3.1688	-2.3063	-3.2646	-2.75	-2.5062	188.271	269.896	187.974	-17.052	158.545	-33.738	179.375	217.906	-23.188	35.422	-55.521	206.838	-64.140	187.861	49.399	185.766	0.00046051	0.00057936	0.00010387	1352.6	6.5752e-06	4.4181e-06	1349	364.24	5.4513e-06	4.6546e-06	417.76	138.99	120.67	41.552	3.1725e-06	51.393	0.00051939	0.00051788	0.00014353	1372.6	5.6251e-06	5.656e-06	1369.4	371.11	5.6928e-06	5.5481e-06	424.56	142.25	123.56	42.669	5.4979e-06	52.948	58.444	6.374	-9.662	-65.536	58.822	83.338	-66.035	-60.889	13.206	41.007	-61.468	-57.432	-56.690	-51.967	111.597	-52.797	-8191	255	
716.480	1	1	0	0	0.14519	0.26334	0.26417	0.092634	0.092327	0.057387	0.2892	0.19757	0.050667	0.14061	0.23518	0.24398	0.20109	0.19942	0.12263	0.16206	-2.8146	-2.5271	-2.6292	-3.3896	-2.3438	-3.0333	-2.9792	-2.575	-3.2687	-2.5687	-2.9562	-3.4062	-2.1917	-3.2083	-3.1521	-2.4729	42.469	42.961	66.853	146.081	38.424	14.717	204.411	201.028	141.650	230.975	-59.196	-64.933	-60.373	129.714	221.914	159.048	0.0003732	0.00056366	0.00016903	1354.9	2.8748e-06	5.1778e-06	1352.9	365.52	2.5381e-06	2.1342e-06	416.04	139.99	120.71	41.535	1.8308e-06	51.473	0.00050864	0.00050355	0.00014094	1374	5.5252e-06	5.5902e-06	1370.2	372.05	5.6005e-06	5.5811e-06	424.68	142.57	123.67	42.675	5.5511e-06	52.86	61.874	-16.878	30.494	-65.777	81.883	97.576	-65.755	-60.803	128.191	148.987	-61.705	-57.215	-56.579	-52.118	47.760	-52.986	-8191	255	
716.601	1	1	0	0	0.21161	0.18972	0.16163	0.26294	0.13133	0.30203	0.20124	0.38003	0.017244	0.14109	0.20502	0.11282	0.25172	0.17332	0.13926	0.13451	-2.7542	-2.5938	-2.7125	-3.3083	-2.3438	-3.0146	-3.1667	-2.2792	-3.2479	-2.7313	-2.5042	-3.425	-2.5187	-2.9271	-3.1063	-2.4271	-1.737	192.815	227.039	198.470	35.047	171.173	243.445	-76.262	15.076	209.978	252.108	-63.858	225.471	224.261	112.731	105.463	0.00042283	0.00058572	6.7048e-05	1358.9	4.2345e-06	1.7608e-06	1350.9	364.76	3.6764e-06	2.4174e-06	416.75	139.54	120.89	41.745	2.7348e-06	51.456	0.00051423	0.00051323	0.00014246	1374.6	5.6057e-06	5.573e-06	1370.5	371.45	5.5752e-06	5.5857e-06	424.56	142.47	123.38	42.657	5.4951e-06	52.852	73.865	3.167	17.467	-65.654	93.779	72.801	-65.872	-60.755	-35.020	59.809	-61.624	-57.318	-56.861	-52.264	117.112	-53.068	-8191	255	
716.695	1	1	0	0	0.18696	0.39895	0.15396	0.1578	0.049274	0.17735	0.067637	0.33541	0.19962	0.018547	0.26179	0.36988	0.075001	0.156	0.25826	0.30573	-2.7687	-2.7667	-2.3688	-3.35	-2.4688	-2.7771	-3.15	-2.5	-3.0417	-2.8729	-2.4667	-3.3563	-2.3771	-3.0167	-3.2708	-2.3667	33.436	122.692	202.522	-50.009	-69.587	-74.687	-56.237	236.326	116.727	123.865	-68.350	223.820	-11.794	227.872	90.546	115.213	0.00055586	0.00041381	0.00017747	1358.8	5.3527e-06	2.2125e-06	1356.5	365.47	4.323e-06	2.8174e-06	417.32	139.56	120.84	41.669	2.8862e-06	51.468	0.00050232	0.00050002	0.00014006	1372.9	5.5032e-06	5.4277e-06	1370.9	370.98	5.48e-06	5.5019e-06	424.51	142.21	123.45	42.678	5.3629e-06	52.751	52.600	-15.540	37.467	-65.840	68.627	62.989	-65.973	-61.107	105.342	59.618	-61.458	-57.129	-56.913	-51.850	35.446	-52.989	-8191	255	
716.791	1	1	0	0	0.10696	0.078403	0.28985	0.17365	0.18831	0.099715	0.056515	0.066011	0.086594	0.23102	0.16859	0.14209	0.14491	0.17891	0.26107	0.13196	-2.7833	-2.7792	-2.6583	-3.1437	-2.6208	-2.9938	-3.275	-2.7667	-2.9542	-2.9688	-2.5687	-3.1771	-2.8	-2.6	-3.2542	-2.5271	122.835	265.019	-51.091	183.247	18.224	178.347	250.479	248.691	277.234	73.242	179.782	239.192	246.526	252.249	77.514	187.565	0.00043009	0.00062858	0.00016395	1357.3	8.1925e-06	2.6574e-06	1348.3	365.48	4.684e-06	6.7153e-06	416.08	138.68	121.16	41.564	6.9975e-06	51.427	0.00049399	0.00048776	0.00013538	1372.8	5.3838e-06	5.3213e-06	1370	371.23	5.3573e-06	5.3534e-06	423.23	141.8	123.34	42.609	5.3108e-06	52.718	36.815	17.556	24.651	-65.906	62.039	60.425	-65.958	-61.134	76.222	112.489	-61.325	-57.034	-56.648	-52.029	87.987	-52.922	-8191	255	
716.863	1	1	0	0	0.070893	0.17418	0.067186	0.13937	0.16534	0.072348	0.23275	0.28341	0.12001	0.16834	0.17837	0.13298	0.17808	0.31758	0.26657	0.1472	-2.5938	-2.9896	-2.0708	-3.4104	-2.6063	-2.6583	-3.5229	-2.4229	-2.9167	-2.9417	-2.4562	-3.2687	-2.8792	-2.4708	-3.3146	-2.4542	196.144	134.718	-66.161	184.612	166.051	-18.147	190.949	192.139	250.835	-14.046	252.281	-40.963	191.636	258.429	58.947	169.205	0.00050885	0.00041048	0.00013556	1353.5	4.4368e-06	7.0505e-06	1351.2	364.61	3.0866e-06	6.6459e-06	416.23	138.28	120.87	41.21	4.4365e-06	51.327	0.0004969	0.00047987	0.00013328	1370.9	5.3311e-06	5.3457e-06	1368.2	370.44	5.2966e-06	5.248e-06	422.79	141.64	123.18	42.485	5.2348e-06	52.685	42.472	-37.682	15.160	-65.599	57.044	98.641	-65.858	-61.157	56.048	66.085	-61.471	-57.202	-56.927	-51.992	70.967	-52.995	-8191	255	
716.984	1	1	0	0	0.16835	0.082818	0.039511	0.083855	0.064687	0.33519	0.27016	0.15582	0.098339	0.16136	0.27581	0.27461	0.23029	0.22036	0.1139	0.073625	-2.3021	-3.0687	-2.4229	-3.0792	-2.6667	-2.6208	-3.4833	-2.5417	-2.925	-3.2979	-2.3812	-3.2562	-2.8063	-2.4708	-3.3604	-2.4458	279.138	29.330	-72.234	29.730	115.894	200.466	275.932	-0.828	210.449	-71.257	236.207	276.116	241.297	240.413	156.421	-50.890	0.00053717	0.00046204	0.00015305	1354.7	3.0395e-06	6.0324e-06	1351.2	363.25	5.7318e-06	7.5028e-06	415.97	138.57	120.46	41.544	5.1003e-06	51.361	0.00048556	0.00047938	0.00013547	1369.8	5.2029e-06	5.2675e-06	1367.9	370.09	5.3455e-06	5.2167e-06	423.46	141.64	123.12	42.542	5.3117e-06	52.8	53.038	33.551	6.511	-65.596	7.968	56.210	-65.818	-60.972	107.150	63.943	-61.469	-57.364	-56.691	-52.254	72.007	-53.056	-8191	255	
717.080	1	1	0	0	0.16976	0.055878	0.034549	0.09346	0.22602	0.10439	0.046602	0.32161	0.18757	0.061526	0.23648	0.19689	0.15065	0.27327	0.12021	0.1141	-2.425	-3.1188	-2.1792	-3.3417	-2.9	-2.2313	-3.3021	-2.6813	-2.4125	-3.4562	-2.6354	-3.0917	-3.2146	-2.3417	-3.2875	-2.7938	26.416	43.424	190.393	-62.743	-54.739	13.758	-52.585	-78.100	-37.470	-36.306	268.858	223.411	63.342	263.308	248.540	93.860	0.00050242	0.00077856	0.0001239	1355.2	9.1072e-06	6.9602e-06	1349.4	363.79	5.9223e-06	4.4649e-06	415.19	139.13	120.64	41.573	6.1842e-06	51.458	0.00049089	0.00047271	0.0001336	1371	5.265e-06	5.2045e-06	1368.5	370.26	5.2725e-06	5.1314e-06	422.57	141.93	123.1	42.464	5.0991e-06	52.697	55.794	-12.035	16.569	-65.605	86.316	72.020	-65.889	-60.968	63.157	118.146	-61.856	-57.121	-56.887	-52.096	105.891	-52.901	-8191	255	
717.176	1	1	0	0	0.2393	0.014849	0.35935	0.068812	0.10037	0.13549	0.3588	0.062052	0.1174	0.18592	0.1923	0.14423	0.16133	0.21427	0.0844	0.19368	-2.1229	-3.4958	-2.2604	-3.0729	-2.9354	-2.1833	-3.3396	-2.8896	-2.5771	-3.1583	-2.7062	-3.0271	-3.0125	-2.4333	-3.1958	-2.8458	158.197	106.953	68.771	180.683	200.540	76.269	248.355	-12.694	36.097	198.498	225.988	246.717	224.995	138.980	-56.642	189.500	0.00041775	0.00033101	0.00012261	1356	8.4935e-06	4.2414e-06	1351.8	362.96	5.2593e-06	8.0516e-06	416.42	138.81	120.67	41.449	4.49e-06	51.493	0.00047493	0.00046951	0.00013024	1369.1	5.0331e-06	5.2356e-06	1368.3	370.22	5.2513e-06	5.1564e-06	422.68	141.95	123.13	42.591	5.3742e-06	52.784	61.142	3.373	-5.714	-65.711	52.963	80.520	-65.730	-61.005	57.319	86.259	-61.397	-57.190	-56.595	-52.012	107.546	-53.098	-8191	255	
717.272	1	1	0	0	0.42986	0.07967	0.16393	0.23038	0.1281	0.15231	0.29632	0.34709	0.23916	0.17811	0.07438	0.29379	0.19271	0.21895	0.30566	0.18587	-2.1188	-3.2062	-2.3208	-2.9104	-3.0062	-2.2854	-3.2833	-3.0021	-2.3833	-3.2542	-2.8333	-2.6896	-3.3	-2.7021	-2.8625	-3.1146	273.905	193.911	92.679	217.553	247.139	94.593	180.738	263.913	0.398	199.943	57.941	179.433	237.378	204.736	-70.010	225.155	0.00050866	0.00043348	0.00011874	1354.6	6.3285e-06	4.4927e-06	1350.3	364.79	2.3845e-06	3.6997e-06	415.71	139.62	120.7	41.473	2.6531e-06	51.46	0.00049569	0.00048701	0.00013654	1369.6	5.3344e-06	5.4884e-06	1369.9	370.58	5.3989e-06	5.2443e-06	422.99	142.14	123.19	42.591	5.3755e-06	52.764	61.398	16.520	13.300	-65.395	111.400	92.039	-65.613	-60.985	56.547	33.798	-61.469	-56.947	-56.919	-52.009	106.668	-52.714	-8191	255	
717.393	1	1	0	0	0.27871	0.13756	0.33755	0.13217	0.027295	0.031884	0.17097	0.12273	0.23282	0.089785	0.32081	0.064914	0.096449	0.18748	0.14962	0.14944	-2.1625	-3.2438	-2.5542	-2.7812	-3.1688	-2.4875	-3.0729	-3.2583	-2.15	-3.2104	-3.0563	-2.7	-3.3646	-2.5979	-2.9354	-3.3521	102.973	76.320	-76.932	-43.416	271.460	-8.649	213.082	-54.809	-17.316	-24.091	-18.673	145.393	139.551	-77.947	-11.693	-73.919	0.00050835	0.00076676	0.0001592	1355	8.5146e-06	6.6232e-06	1351	364.63	7.2013e-06	4.4339e-06	416.51	138.95	120.36	41.462	2.7678e-06	51.353	0.00049252	0.00049498	0.00013709	1372.5	5.4259e-06	5.4169e-06	1369	370.35	5.3856e-06	5.3114e-06	423.08	142.13	123.19	42.548	5.4127e-06	52.78	48.199	-19.616	6.403	-65.261	40.229	80.537	-65.568	-60.968	56.643	46.167	-61.504	-57.256	-56.774	-51.887	63.164	-52.614	-8191	255	
717.464	1	1	0	0	0.17045	0.17882	0.32997	0.35556	0.03267	0.12195	0.15909	0.19982	0.060734	0.11643	0.21667	0.21788	0.31129	0.071679	0.25517	0.11143	-1.7271	-3.3438	-2.9083	-2.4604	-3.2542	-2.3625	-3.1646	-3.2125	-2.3042	-3.1125	-2.7604	-2.65	-3.2583	-2.4792	-2.7375	-3.2646	25.131	62.436	-1.485	243.348	122.221	205.010	153.224	247.531	114.172	52.615	49.734	157.010	276.950	48.036	275.366	221.997	0.00051771	0.00070621	0.00014256	1354	3.3444e-06	7.4815e-06	1353.8	364.53	3.2697e-06	4.4374e-06	417.61	139.01	120.73	41.556	4.786e-06	51.66	0.00050295	0.00048253	0.00013896	1369.6	5.3713e-06	5.4074e-06	1369.3	370.36	5.4749e-06	5.5773e-06	423.86	141.99	123.43	42.679	5.4862e-06	52.779	51.506	10.470	3.423	-65.543	72.456	75.234	-65.251	-60.926	-22.336	90.010	-61.684	-56.887	-56.360	-51.580	46.463	-52.717	-8191	255	
717.560	1	1	0	0	0.19784	0.22573	0.38889	0.22356	0.24462	0.38862	0.3557	0.070545	0.074616	0.16289	0.39747	0.13065	0.04284	0.12317	0.047243	0.11145	-1.8583	-3.2396	-2.8479	-2.5875	-3.3375	-2.6208	-2.9646	-3.3354	-2.1875	-3.1146	-3.0375	-2.4667	-3.3104	-2.6562	-2.5833	-3.4229	274.861	137.007	-18.084	233.988	185.480	34.046	199.136	183.731	35.255	227.279	272.099	-13.970	244.860	259.799	-12.869	22.397	0.00043551	0.00062848	0.00020553	1350.9	6.2086e-06	2.9637e-06	1351.8	364.57	5.7849e-06	2.8375e-06	416.51	139.11	120.81	41.586	1.585e-06	51.535	0.00051289	0.0004937	0.00013795	1369.7	5.4891e-06	5.4602e-06	1369	371.11	5.5169e-06	5.4846e-06	422.77	142.11	123.39	42.622	5.3842e-06	52.753	61.868	17.310	40.536	-65.371	38.029	26.896	-65.303	-60.714	98.755	103.866	-61.048	-56.905	-56.365	-51.866	179.388	-52.675	-8191	255	
717.681	1	1	0	0	0.13082	0.056074	0.087828	0.19885	0.21832	0.061264	0.30632	0.37151	0.15621	0.042072	0.030476	0.31771	0.19277	0.32663	0.025832	0.21341	-1.9438	-2.9042	-2.8812	-2.4021	-2.9021	-2.4917	-2.7521	-3.425	-2.5125	-2.925	-3.175	-2.4229	-3.2792	-2.8646	-2.425	-3.4229	268.122	-56.337	245.310	-40.263	174.206	146.845	204.190	208.635	-55.249	219.101	246.977	267.898	173.716	247.555	120.618	-30.453	0.00042133	0.00042465	0.00013128	1356.6	3.9493e-06	2.3602e-06	1348.7	364.94	3.0632e-06	4.1541e-06	415.61	138.46	121.3	41.691	3.8077e-06	51.758	0.00050318	0.00049366	0.00013681	1369.6	5.389e-06	5.4576e-06	1368.4	370.75	5.4336e-06	5.4623e-06	422.64	141.73	123.42	42.626	5.4266e-06	52.874	57.744	12.684	33.763	-65.201	97.343	90.684	-65.321	-60.821	43.363	105.734	-61.332	-56.792	-56.196	-51.584	107.593	-52.386	-8191	255	
717.775	1	1	0	0	0.03676	0.043852	0.12096	0.10587	0.0077383	0.0652	0.11784	0.11348	0.056231	0.11094	0.1494	0.14994	0.15669	0.26394	0.25166	0.056537	-1.9438	-2.825	-3.1646	-2.45	-3.0896	-2.8479	-2.6583	-3.4708	-2.5542	-2.6104	-3.1229	-2.2562	-3.2188	-3.0646	-2.4625	-3.4458	-16.378	269.807	78.841	138.115	249.582	184.415	159.412	279.138	93.169	174.008	-71.765	124.261	-58.767	-10.862	97.041	106.478	0.0004153	0.00055109	0.00019159	1360	4.4074e-06	6.7868e-06	1352.2	365.72	4.7767e-06	6.6324e-06	418.86	138.94	121.25	41.393	1.6398e-06	51.537	0.00050873	0.00050368	0.00013918	1372.6	5.5984e-06	5.6018e-06	1369	371.44	5.6166e-06	5.5615e-06	423.65	142.06	123.65	42.576	5.5581e-06	52.9	62.817	4.951	7.230	-65.182	53.400	59.860	-65.410	-60.525	112.202	74.711	-60.828	-56.779	-56.191	-51.573	110.670	-52.294	-8191	255	
717.872	1	1	0	0	0.1146	0.18169	0.1113	0.054102	0.29306	0.26267	0.096399	0.036228	0.2135	0.090367	0.11989	0.17656	0.11192	0.25193	0.26081	0.32886	-2.3479	-2.6083	-3.15	-2.5792	-2.8625	-3.0792	-2.3979	-3.3937	-2.5438	-2.5812	-3.4021	-2.3708	-3.1479	-3.0396	-2.3792	-3.4708	-68.679	46.503	-53.113	73.897	132.025	32.521	197.750	-76.093	38.577	14.595	183.144	208.362	240.446	21.460	30.416	221.613	0.00054393	0.00073134	0.00016475	1351.8	3.5878e-06	3.7866e-06	1347.4	364.78	5.0508e-06	5.7047e-06	415.89	138.88	120.94	41.593	3.3646e-06	51.668	0.00050733	0.00050128	0.00013902	1370.3	5.4744e-06	5.4493e-06	1367.8	370.77	5.5329e-06	5.4347e-06	423.59	141.91	123.37	42.527	5.3236e-06	52.744	63.248	31.819	31.141	-65.289	74.941	64.642	-65.184	-60.232	76.459	91.234	-61.067	-56.894	-55.925	-51.531	77.297	-52.487	-8191	255	
717.968	1	1	0	0	0.13604	0.2725	0.17017	0.24731	0.19629	0.1969	0.16716	0.30664	0.30764	0.23498	0.29268	0.080736	0.019291	0.11512	0.026347	0.068142	-2.1917	-2.5146	-3.1875	-2.5896	-2.9667	-3.1042	-2.6333	-3.2333	-2.8021	-2.35	-3.2896	-2.5979	-2.7438	-3.3312	-2.5687	-3.3312	243.389	105.559	194.659	222.570	28.163	126.367	193.006	238.750	178.859	224.808	245.644	227.486	249.712	238.124	94.248	203.009	0.0003478	0.000627	0.00013471	1355.7	3.0646e-06	5.8441e-06	1350.7	364.76	2.7599e-06	8.5236e-06	415.46	138.9	120.93	41.592	4.8895e-06	51.292	0.00049252	0.00048801	0.00013418	1369.6	5.2767e-06	5.2832e-06	1368.4	370.77	5.3356e-06	5.2771e-06	422.41	141.87	123.32	42.542	5.3306e-06	52.709	56.351	20.570	18.069	-65.689	53.614	71.476	-65.624	-60.701	-3.203	111.256	-61.428	-57.114	-56.331	-51.945	95.712	-52.320	-8191	255	
718.088	1	1	0	0	0.16889	0.012444	0.11891	0.12639	0.073325	0.24425	0.40669	0.26397	0.10827	0.17088	0.18596	0.068534	0.10498	0.22917	0.056241	0.072662	-2.3167	-2.4167	-3.2021	-2.825	-2.7125	-3.0521	-2.6063	-3.3729	-2.8937	-2.4104	-3.3583	-2.5625	-2.6792	-3.1583	-2.4729	-3.0792	225.470	71.592	53.169	232.773	31.137	117.422	218.248	199.322	136.760	127.279	200.187	276.306	163.238	260.753	75.059	227.802	0.00041738	0.00077527	9.4429e-05	1357.7	7.7688e-06	5.7614e-06	1355.3	364.66	6.4231e-06	4.6888e-06	416.81	138.41	120.86	41.551	5.6522e-06	51.462	0.0004916	0.00048102	0.00013431	1370.9	5.3361e-06	5.3048e-06	1369.2	370.58	5.3484e-06	5.4008e-06	423.31	141.85	123.24	42.523	5.3051e-06	52.794	62.741	-13.257	51.085	-65.181	15.532	71.586	-65.537	-60.535	14.836	65.994	-61.157	-56.822	-56.426	-52.024	81.644	-52.451	-8191	255	
718.160	1	1	0	0	0.18112	0.14491	0.24222	0.24913	0.048456	0.086705	0.34504	0.23461	0.092972	0.24167	0.31645	0.13261	0.28553	0.059684	0.12722	0.086144	-2.6375	-2.425	-3.1479	-2.9521	-2.6188	-3.1167	-2.6854	-3.1646	-2.9333	-2.6771	-3.3542	-2.7771	-3.0208	-3.3021	-2.4604	-3.0396	236.919	211.563	-17.237	207.893	-55.454	-60.193	205.787	213.999	275.034	-26.632	228.647	35.736	245.625	44.029	60.590	-44.661	0.0005233	0.00037799	0.00017397	1355	5.4259e-06	6.7718e-06	1349.6	365.32	3.3285e-06	7.51e-06	415.99	139.33	120.64	41.616	4.1457e-06	51.529	0.00049176	0.00048894	0.00013327	1369	5.351e-06	5.3269e-06	1368.8	370.88	5.3173e-06	5.2854e-06	422.57	141.76	123.11	42.572	5.2534e-06	52.727	50.311	33.524	32.514	-65.236	73.157	64.317	-65.542	-60.527	69.192	108.131	-61.179	-56.897	-56.199	-51.795	32.369	-52.587	-8191	255	
718.281	1	1	0	0	0.037633	0.11906	0.091434	0.11452	0.21958	0.19401	0.24549	0.087446	0.17783	0.21707	0.055981	0.044858	0.26378	0.11377	0.088394	0.2683	-2.7375	-2.1729	-3.1896	-3.0229	-2.3333	-3.3396	-2.6583	-2.8042	-3.1354	-2.125	-3.2479	-3.0812	-2.4833	-3.1729	-2.6604	-2.8625	167.486	92.371	114.199	256.761	-56.134	-49.472	158.418	-7.876	87.810	31.739	93.803	128.669	176.044	193.718	253.845	222.890	0.00049647	0.00051066	3.1918e-05	1350.9	2.2294e-06	5.7928e-06	1350.5	364.78	6.9295e-06	7.3462e-06	416.12	139.06	121.13	41.297	4.3217e-06	51.483	0.00048596	0.00049003	0.00013264	1367.3	5.3277e-06	5.1614e-06	1369.1	370.6	5.2538e-06	5.2322e-06	422.97	141.65	123.24	42.431	5.2205e-06	52.667	61.232	2.285	-19.995	-65.500	62.497	42.502	-65.477	-60.612	48.252	64.699	-61.114	-56.800	-56.428	-51.623	81.515	-52.489	-8191	255	
718.377	1	1	0	0	0.15936	0.2738	0.14094	0.20167	0.090963	0.16431	0.24	0.22504	0.046721	0.23722	0.17442	0.1852	0.20905	0.16299	0.20779	0.28513	-2.8354	-2.2604	-2.9646	-3.0583	-2.3396	-3.2125	-2.6	-2.7833	-3.1896	-2.4667	-3.1333	-3.0208	-2.3604	-3.1979	-2.7292	-2.6833	120.267	214.577	-77.238	176.397	27.931	-53.189	224.599	-69.967	162.410	268.658	221.927	185.846	192.667	-21.205	80.091	151.029	0.00047385	0.00058747	8.3827e-05	1356.4	5.5859e-06	5.932e-06	1348.9	364.88	3.0467e-06	5.4951e-06	415.92	138.83	120.37	41.436	4.0469e-06	51.533	0.00048136	0.00048873	0.0001323	1367.8	5.1907e-06	5.2197e-06	1366.9	370.4	5.1429e-06	5.2662e-06	422.32	141.79	122.9	42.515	5.0964e-06	52.688	49.871	0.348	36.816	-65.215	67.541	94.223	-65.388	-60.464	118.707	47.297	-61.051	-56.905	-56.235	-51.755	115.761	-52.303	-8191	255	
718.473	1	1	0	0	0.044183	0.12011	0.074924	0.1083	0.17637	0.062073	0.17627	0.28011	0.17421	0.30005	0.1272	0.27949	0.25918	0.043354	0.15913	0.24492	-2.8229	-2.4479	-2.7417	-3.1354	-2.4562	-3.2812	-2.95	-2.9021	-3.1188	-2.3979	-2.9083	-3.1979	-2.5479	-3.1083	-2.8187	-2.6708	48.554	-28.342	16.351	265.272	-57.493	-18.045	122.585	246.547	217.183	202.644	-71.015	126.498	-56.087	244.297	-52.506	244.549	0.00037734	0.00064306	0.00025349	1353	5.48e-07	6.0102e-06	1349.4	363.5	5.4614e-06	4.295e-06	416.24	138.5	120.39	41.66	2.8675e-06	51.471	0.00047826	0.00047959	0.00013018	1365.5	5.2326e-06	5.1443e-06	1365.2	370.25	5.1788e-06	5.2204e-06	423.21	141.74	122.85	42.52	5.1397e-06	52.655	70.235	18.928	20.113	-65.410	277.881	72.717	-65.594	-60.480	45.714	54.647	-61.268	-56.692	-56.143	-51.786	102.809	-52.238	-8191	255	
718.569	1	1	0	0	0.26471	0.23609	0.18739	0.15619	0.20463	0.25665	0.21523	0.28839	0.18786	0.1809	0.19359	0.19879	0.21679	0.38684	0.16708	0.054768	-2.7458	-2.4104	-2.6667	-3.2292	-2.3521	-3.0625	-2.8438	-2.575	-3.2896	-2.6167	-2.7604	-3.2687	-2.5667	-3.0062	-2.7854	-2.5312	165.725	-54.406	48.196	-71.305	277.128	-36.624	189.613	-71.902	-16.859	276.753	258.485	-42.154	-33.568	266.742	44.023	-29.575	0.00039855	0.00060056	0.00013783	1356.3	5.8296e-06	3.98e-06	1350.5	364.67	2.4413e-06	3.9966e-06	416.64	138.87	121.04	41.478	5.7028e-06	51.346	0.00048283	0.0004718	0.00013097	1369.2	5.1712e-06	5.2003e-06	1367	369.93	5.2198e-06	5.139e-06	423	141.58	123.3	42.542	5.1056e-06	52.623	48.645	8.650	18.685	-65.191	53.097	63.387	-65.154	-60.375	258.599	65.776	-60.878	-56.787	-56.087	-51.504	89.253	-52.213	-8191	255	
718.664	1	1	0	0	0.10561	0.15273	0.12073	0.051853	0.11813	0.032574	0.1397	0.28167	0.249	0.27463	0.050093	0.10293	0.32475	0.18221	0.15076	0.20666	-2.8083	-2.7521	-2.5792	-3.4292	-2.4417	-2.9625	-3.1021	-2.4958	-2.9604	-2.8458	-2.5667	-3.2792	-2.4458	-2.9062	-3.0604	-2.4854	277.539	75.445	66.757	266.510	-56.779	269.394	189.750	210.456	243.909	-36.490	137.755	-29.430	254.839	261.473	-14.507	-59.672	0.00039192	0.00048677	0.00016884	1354.6	5.6416e-06	3.8815e-06	1351.5	364.11	6.5634e-06	6.8643e-06	415.85	139.02	120.67	41.481	2.8832e-06	51.194	0.00047968	0.00047325	0.00013323	1367.8	5.2463e-06	5.1359e-06	1366.2	370.26	5.2811e-06	5.1579e-06	422.53	141.64	123.2	42.506	5.0776e-06	52.691	63.623	17.211	27.574	-64.893	52.052	2.000	-65.170	-60.402	42.059	43.552	-61.142	-56.460	-56.145	-51.613	102.840	-52.233	-8191	255	
718.760	1	1	0	0	0.31565	0.078888	0.016175	0.13598	0.16476	0.13934	0.28843	0.14195	0.17929	0.20987	0.17868	0.35416	0.07697	0.2227	0.14661	0.10447	-2.95	-2.7271	-2.4417	-3.2854	-2.3896	-2.7917	-3.3208	-2.4417	-3.0792	-2.8812	-2.3917	-3.2938	-2.5771	-2.6813	-3.2896	-2.2958	-2.931	-14.999	-5.105	37.976	194.622	100.579	230.257	-22.544	165.350	24.377	-42.483	219.879	-53.816	-76.986	103.146	213.786	0.00036229	0.00050862	0.00015502	1352.2	5.358e-06	5.7356e-06	1354.6	363.86	7.4766e-06	6.5284e-06	415.68	139.47	121.05	41.478	2.8141e-06	51.54	0.00048544	0.00047986	0.00013383	1369.3	5.261e-06	5.1429e-06	1368.8	370.44	5.2381e-06	5.2785e-06	423.06	141.83	123.39	42.524	5.1814e-06	52.763	59.583	-52.911	46.444	-65.012	70.971	66.711	-65.389	-60.282	45.271	44.314	-61.062	-56.692	-56.209	-51.064	78.448	-52.218	-8191	255	
718.856	1	1	0	0	0.24085	0.28035	0.19833	0.15998	0.1513	0.17931	0.10954	0.14287	0.14846	0.098565	0.32161	0.15271	0.12316	0.30284	0.1013	0.079225	-2.6521	-2.9417	-2.3271	-3.2792	-2.4688	-2.6562	-3.4562	-2.575	-3.0938	-3.0104	-2.3042	-3.3646	-2.7583	-2.675	-3.225	-2.3875	280.216	183.187	132.482	-25.083	134.301	88.292	-31.591	199.590	36.813	79.739	256.902	245.875	-12.609	268.326	28.490	185.344	0.00050574	0.00057427	0.00013659	1359.8	6.4264e-06	4.9148e-06	1352.5	364.08	1.0967e-06	5.5737e-06	415.32	139.19	120.53	41.65	9.3829e-06	51.403	0.00048377	0.00047633	0.00013429	1372.2	5.3315e-06	5.316e-06	1367.9	370.17	5.3585e-06	5.2466e-06	422.96	141.81	122.96	42.547	5.224e-06	52.662	62.283	-13.031	29.149	-65.045	48.573	79.491	-65.278	-60.566	10.083	97.767	-60.953	-56.582	-56.306	-51.537	89.287	-52.358	-8191	255	
718.952	1	1	0	0	0.23828	0.28143	0.051594	0.12537	0.15167	0.096135	0.20871	0.052189	0.11161	0.13158	0.24347	0.081864	0.17241	0.15451	0.16081	0.33642	-2.65	-3.1021	-2.4083	-3.4938	-2.6167	-2.4375	-3.5646	-2.5917	-2.8937	-3.2646	-2.3375	-3.3625	-2.7292	-2.8083	-3.4	-2.7458	172.747	43.564	-62.709	280.644	188.944	30.049	251.783	215.766	160.949	71.432	214.056	118.549	160.633	273.688	268.032	245.512	0.00042593	0.00053198	0.00017829	1353.8	5.2758e-06	5.5369e-06	1354.6	363.34	4.8287e-06	5.2419e-06	416.53	138.7	121.18	41.475	1.3828e-06	51.509	0.0004865	0.00047606	0.00013346	1369.6	5.2852e-06	5.3045e-06	1369.6	370.05	5.3176e-06	5.2369e-06	422.83	141.5	123.15	42.527	5.2862e-06	52.724	57.267	11.487	60.180	-65.091	45.234	53.947	-65.216	-60.580	36.434	101.278	-60.843	-56.837	-56.277	-51.234	156.184	-52.309	-8191	255	
719.048	1	1	0	0	0.34743	0.24303	0.20382	0.26252	0.16413	0.039796	0.33191	0.26597	0.01234	0.1322	0.2134	0.18132	0.10096	0.14447	0.10879	0.0995	-2.4625	-2.9667	-2.3271	-3.2396	-2.8187	-2.3083	-3.4688	-2.6063	-2.7	-3.2812	-2.2687	-3.3312	-2.8396	-2.5563	-3.1896	-2.7375	-47.353	131.009	230.622	281.262	115.228	48.381	202.723	246.716	-36.642	122.086	274.455	-48.566	175.649	-74.572	98.376	145.520	0.00034769	0.00047829	0.00015561	1352.1	3.5457e-06	5.7459e-06	1355.3	364.16	3.2333e-06	4.1486e-06	416.06	139.45	120.65	41.53	5.7633e-06	51.411	0.00048712	0.00047611	0.00013426	1369	5.2137e-06	5.3432e-06	1369	369.87	5.3284e-06	5.2374e-06	423.21	141.88	123.06	42.56	5.2651e-06	52.716	59.129	-20.093	25.775	-65.224	23.775	67.554	-65.159	-60.309	72.017	68.094	-60.851	-56.567	-56.257	-51.434	109.436	-51.959	-8191	255	
719.169	1	1	0	0	0.13794	0.054647	0.032079	0.58191	0.11	0.19713	0.21173	0.095959	0.10351	0.18345	0.18225	0.33396	0.50079	0.015647	0.22313	0.19757	-2.3021	-3.2708	-2.1625	-3.2021	-2.9646	-2.4271	-3.4625	-2.8833	-2.6771	-3.2833	-2.4125	-3.0438	-3.0854	-2.5542	-3.15	-2.7833	153.997	214.315	63.603	194.307	219.084	162.098	252.227	277.796	15.065	103.394	244.015	274.688	266.541	-38.302	-58.881	225.645	0.00043903	0.00052132	8.4278e-05	1353.4	4.3383e-06	7.4125e-06	1350.5	363.38	1.9132e-06	5.7407e-06	416.74	139.08	120.88	41.579	1.5036e-06	51.452	0.00048442	0.00047469	0.0001346	1368.6	5.2165e-06	5.2676e-06	1368.3	369.66	5.2823e-06	5.1455e-06	422.69	141.79	123.23	42.545	5.1928e-06	52.745	71.624	-33.012	32.970	-65.124	59.935	81.399	-65.046	-60.358	151.209	43.314	-61.003	-56.471	-56.071	-51.442	126.424	-52.268	-8191	255	
719.265	1	1	0	0	0.17909	0.12054	0.089427	0.33663	0.16724	0.22349	0.30425	0.18776	0.069659	0.18494	0.094026	0.15436	0.33967	0.13182	0.056545	0.14968	-1.95	-3.0438	-2.4229	-2.9708	-3.0729	-2.4271	-3.3042	-2.9188	-2.3375	-3.1542	-2.6312	-2.6604	-3.2229	-2.4604	-3.0042	-2.825	279.039	269.006	227.245	208.022	132.767	143.565	222.538	165.164	183.940	153.586	23.106	197.468	232.281	-77.086	42.038	223.568	0.00046087	0.0006361	6.6511e-05	1357.6	3.0866e-06	3.2623e-06	1348.8	364.34	5.6927e-06	5.9326e-06	415.99	138.7	120.46	41.466	3.7456e-06	51.23	0.00048518	0.00047372	0.0001346	1370.8	5.2465e-06	5.1512e-06	1367.4	370.18	5.3434e-06	5.2032e-06	422.79	141.64	123.09	42.512	5.1878e-06	52.652	52.944	-20.272	6.394	-64.945	75.621	104.529	-64.956	-60.336	76.392	96.102	-61.061	-56.681	-56.225	-51.390	23.960	-52.355	-8191	255	
719.361	1	1	0	0	0.25242	0.2096	0.1266	0.17136	0.23388	0.16394	0.13283	0.34057	0.11862	0.14165	0.032094	0.16738	0.15179	0.10279	0.097644	0.18181	-2.1292	-3.1792	-2.3917	-2.9979	-2.9792	-2.3646	-3.3458	-2.9771	-2.4583	-3.125	-2.6208	-2.9042	-3.3083	-2.5542	-3.0687	-3.1479	201.965	-28.462	92.196	-63.828	252.698	222.152	236.762	223.317	42.316	97.910	-24.894	89.130	-77.334	237.661	-24.349	257.604	0.00047966	0.00051104	0.00016405	1355.6	7.9488e-06	4.8418e-06	1347.4	364.38	6.1703e-06	4.9952e-06	416.02	138.81	120.34	41.47	3.1256e-06	51.375	0.00048033	0.00048267	0.0001342	1370.3	5.2716e-06	5.3159e-06	1366.5	370.25	5.3079e-06	5.2377e-06	422.25	141.81	122.97	42.524	5.2461e-06	52.656	59.313	-29.010	-0.479	-65.034	58.858	60.868	-65.035	-60.322	32.511	86.876	-61.168	-56.260	-56.180	-51.548	50.775	-52.141	-8191	255	
719.457	1	1	0	0	0.13938	0.055128	0.063487	0.091123	0.028255	0.19585	0.22386	0.0872	0.13836	0.037268	0.35724	0.30302	0.2436	0.24747	0.1776	0.15466	-2.0292	-3.3438	-2.5625	-2.7917	-3.1562	-2.4833	-3.3833	-3.0812	-2.3063	-3.3271	-2.8083	-2.5583	-3.3542	-2.5417	-2.9667	-3.2979	207.874	21.133	78.271	204.789	60.383	-19.845	273.078	215.660	43.136	33.098	218.701	245.771	-17.033	205.335	-3.582	-74.595	0.00037722	0.00083511	0.00013014	1359.5	3.994e-06	3.653e-06	1349.2	365.24	7.8937e-06	5.1838e-06	414.82	139.27	120.84	41.498	6.7705e-06	51.382	0.00049	0.00047707	0.00013515	1368.5	5.3018e-06	5.2998e-06	1366	369.92	5.3468e-06	5.2861e-06	421.53	141.82	123.19	42.531	5.3409e-06	52.697	61.392	-9.368	14.242	-65.100	80.337	110.699	-65.066	-60.231	44.798	43.484	-60.904	-56.289	-56.156	-51.458	77.958	-52.108	-8191	255	
719.553	1	1	0	0	0.17082	0.16888	0.1785	0.1717	0.047476	0.20938	0.21777	0.31051	0.16771	0.080437	0.067927	0.15313	0.22441	0.21139	0.042494	0.25521	-1.9146	-3.0312	-2.9229	-2.4479	-3.2625	-2.4583	-2.9479	-3.2292	-2.3542	-3.2396	-2.9562	-2.6542	-3.2729	-2.6354	-2.875	-3.1688	129.680	204.768	47.673	-77.754	-59.108	-9.599	223.427	251.647	219.802	179.727	241.376	-45.795	195.985	-11.048	253.144	-76.980	0.00049719	0.00067104	0.00013215	1355.7	6.1686e-06	7.2742e-06	1357.3	363.51	5.1572e-06	2.8776e-06	413.95	138.93	120.62	41.445	5.6591e-06	51.39	0.00049816	0.00048551	0.00013712	1369.8	5.3765e-06	5.4412e-06	1370.3	369.74	5.4006e-06	5.3943e-06	422.2	141.88	123.18	42.486	5.4059e-06	52.701	65.166	0.912	-10.579	-65.049	18.986	66.906	-65.101	-60.300	59.977	127.356	-60.772	-56.486	-55.964	-51.128	99.506	-52.077	-8191	255	
719.650	1	1	0	0	0.42996	0.066953	0.1605	0.19044	0.18677	0.1167	0.13341	0.10511	0.1429	0.038717	0.20557	0.10919	0.32436	0.15205	0.077613	0.24544	-1.9625	-3.1417	-3.0125	-2.6188	-3.3583	-2.5521	-2.9229	-3.2687	-2.2875	-3	-2.8854	-2.5458	-3.2562	-2.7521	-2.4938	-3.1729	244.134	250.197	59.220	245.059	241.972	135.936	260.115	209.466	131.962	265.458	-16.940	-33.278	263.463	-43.572	127.462	6.854	0.00046679	0.00057262	0.00015255	1350.3	6.3923e-06	7.8921e-06	1349.4	365.09	5.6957e-06	1.0253e-05	416.11	138.97	120.57	41.601	5.0205e-06	51.244	0.00050185	0.00048815	0.00013523	1368.6	5.3475e-06	5.359e-06	1368.1	370.58	5.4268e-06	5.2109e-06	422.95	141.83	123.17	42.54	5.3328e-06	52.58	73.244	21.983	8.415	-64.921	40.775	62.296	-64.851	-60.114	122.422	69.210	-60.857	-56.350	-55.866	-51.350	101.678	-51.816	-8191	255	
719.768	1	1	0	0	0.19251	0.10256	0.19099	0.18477	0.12457	0.21115	0.15971	0.064711	0.4017	0.23907	0.21775	0.15226	0.09782	0.21913	0.18823	0.079038	-2.1542	-3.0104	-3.0875	-2.4792	-3.1729	-2.7125	-2.7625	-3.6646	-2.3958	-2.9333	-3.5229	-2.4938	-3.3	-2.8729	-2.4979	-3.5938	-32.904	234.251	100.170	156.311	191.231	265.642	260.913	11.972	73.325	27.899	231.132	253.905	79.354	-67.546	144.643	268.811	0.00039007	0.0005003	0.00016135	1352.6	4.6002e-06	4.1168e-06	1353.5	365.28	3.2435e-06	7.7213e-06	414.48	138.86	120.32	41.441	5.8337e-06	51.583	0.00049732	0.00048719	0.00013476	1366.8	5.447e-06	5.4161e-06	1368.5	370.56	5.4695e-06	5.4094e-06	422.65	141.74	123.06	42.52	5.4109e-06	52.786	70.823	-10.168	12.447	-64.895	69.753	62.606	-64.807	-60.379	116.149	93.383	-60.700	-56.340	-55.790	-51.249	88.765	-51.871	-8191	255	
719.865	1	1	0	0	0.23153	0.11013	0.067254	0.086786	0.14722	0.05129	0.062798	0.28371	0.1345	0.20203	0.10769	0.14918	0.20927	0.22484	0.18815	0.1598	-1.9562	-2.775	-3.1	-2.6667	-3.1896	-2.9062	-2.8979	-3.3729	-2.6479	-2.8208	-3.3563	-2.6604	-3.1271	-3.1208	-2.3937	-3.4583	136.371	22.842	200.134	-49.249	-72.890	262.032	275.802	99.850	-48.307	172.397	-73.275	65.570	-33.330	-42.424	-13.614	-38.060	0.00055488	0.00042915	6.0726e-05	1353.4	4.824e-06	4.6497e-06	1352.6	364.73	3.4574e-06	3.7323e-06	414.96	139.21	120.96	41.555	7.4567e-06	51.376	0.00050178	0.00048971	0.00013752	1369.6	5.4847e-06	5.4029e-06	1368.6	370.85	5.4581e-06	5.3742e-06	422.47	141.86	123.14	42.517	5.4178e-06	52.732	60.177	2.588	-10.732	-64.605	61.748	107.615	-65.007	-60.056	131.520	84.035	-60.612	-56.211	-55.632	-51.521	73.783	-51.720	-8191	255	
719.961	1	1	0	0	0.182	0.04637	0.18413	0.28627	0.017485	0.12003	0.12327	0.13379	0.18862	0.1457	0.16623	0.080658	0.12712	0.23985	0.1831	0.053899	-2.2667	-2.7729	-3.2375	-2.4062	-3.1229	-3.0083	-2.6271	-3.4792	-2.625	-2.5312	-3.4062	-2.5625	-2.9813	-3.1542	-2.3812	-3.3	202.063	250.943	116.709	-21.805	18.734	96.896	18.709	149.819	280.138	-76.761	155.358	213.651	274.167	268.183	99.209	-54.543	0.00049603	0.00060677	0.00014751	1354.1	8.3134e-06	2.4667e-06	1352.3	364.43	4.1039e-06	5.0134e-06	415.48	139.08	120.7	41.468	2.586e-06	51.645	0.00049908	0.00049172	0.00013666	1367.8	5.4228e-06	5.3767e-06	1368.7	370.46	5.4536e-06	5.3951e-06	422.66	141.88	123.38	42.519	5.4229e-06	52.85	73.718	-29.798	-39.638	-64.816	100.145	74.597	-64.937	-60.020	150.776	77.086	-60.586	-56.219	-55.884	-51.497	90.344	-52.181	-8191	255	
720.057	1	1	0	0	0.26718	0.16697	0.18713	0.035	0.25436	0.087016	0.18818	0.24986	0.1757	0.14826	0.1155	0.35102	0.10147	0.082569	0.24533	0.098944	-2.4479	-2.7229	-3.2271	-2.5729	-2.7875	-2.9667	-2.5229	-3.4083	-2.6396	-2.5583	-3.4271	-2.65	-3.0312	-3.3542	-2.4708	-3.2521	251.900	35.503	215.559	181.669	32.775	84.182	213.348	262.131	-71.203	166.569	-8.293	247.319	272.029	35.448	-24.326	-2.402	0.00047129	0.00045634	0.00011126	1355.5	2.9571e-06	4.7085e-06	1351.1	365.3	7.3596e-06	6.6712e-06	415.05	138.09	120.56	41.533	5.0665e-06	51.492	0.00050358	0.0005093	0.00014027	1369.3	5.4979e-06	5.5401e-06	1368.4	370.82	5.5764e-06	5.5942e-06	422.72	141.7	123.3	42.58	5.6853e-06	52.825	61.575	4.078	16.943	-64.777	54.462	107.213	-65.023	-60.164	51.616	102.107	-60.954	-56.490	-55.917	-51.251	57.155	-52.017	-8191	255	
#DATA ENDS
