BOXY.EXE: ISS Imagent and Oximeter Data Acquisition Program Version 0.80
Ascii Record File

#ACQ INFORMATION
2  Detector Channels 
16  External MUX Channels 
1  Auxiliary Channels 
5000  Waveform (CCF) Frequency (Hz)
1  Waveforms Skipped 
30  Waveforms Averaged 
1  Cycles Averaged 
16  Acquisitions per Waveform 
10.0806  Updata Rate (Hz) 

#FILE INFORMATION
TRUE -- External MUX Channel results are PARSED.
FALSE -- AC DC and Phase are NOT grouped.
TRUE -- Companion Program Settings File CREATED.
FALSE -- AC data not excluded
FALSE -- DC data not excluded
FALSE -- Phase data not excluded
FALSE -- Auxillary Chn. data not excluded
Tab delimiters

#CALIBRATION STATE
TRUE -- Waveform Calibration Values APPLIED.


#AUX CALIBRATION VALUES
Val Type	aux-1	

Term	1.0000e+00	
Factor	0.0000e+00	


#WF CALIBRATION VALUES
A = Detector Channel
Val Type	A-AC1	A-AC2	A-AC3	A-AC4	A-AC5	A-AC6	A-AC7	A-AC8	A-AC9	A-AC10	A-AC11	A-AC12	A-AC13	A-AC14	A-AC15	A-AC16	A-DC1	A-DC2	A-DC3	A-DC4	A-DC5	A-DC6	A-DC7	A-DC8	A-DC9	A-DC10	A-DC11	A-DC12	A-DC13	A-DC14	A-DC15	A-DC16	A-Ph1	A-Ph2	A-Ph3	A-Ph4	A-Ph5	A-Ph6	A-Ph7	A-Ph8	A-Ph9	A-Ph10	A-Ph11	A-Ph12	A-Ph13	A-Ph14	A-Ph15	A-Ph16	

Term	0.00000e+00	0.00000e+00	0.00000e+00	0.00000e+00	0.00000e+00	0.00000e+00	0.00000e+00	0.00000e+00	0.00000e+00	0.00000e+00	0.00000e+00	0.00000e+00	0.00000e+00	0.00000e+00	0.00000e+00	0.00000e+00	0.00000e+00	0.00000e+00	0.00000e+00	0.00000e+00	0.00000e+00	0.00000e+00	0.00000e+00	0.00000e+00	0.00000e+00	0.00000e+00	0.00000e+00	0.00000e+00	0.00000e+00	0.00000e+00	0.00000e+00	0.00000e+00	0.00000e+00	0.00000e+00	0.00000e+00	0.00000e+00	0.00000e+00	0.00000e+00	0.00000e+00	0.00000e+00	0.00000e+00	0.00000e+00	0.00000e+00	0.00000e+00	0.00000e+00	0.00000e+00	0.00000e+00	0.00000e+00	
Factor	1.00000e+00	1.00000e+00	1.00000e+00	1.00000e+00	1.00000e+00	1.00000e+00	1.00000e+00	1.00000e+00	1.00000e+00	1.00000e+00	1.00000e+00	1.00000e+00	1.00000e+00	1.00000e+00	1.00000e+00	1.00000e+00	1.00000e+00	1.00000e+00	1.00000e+00	1.00000e+00	1.00000e+00	1.00000e+00	1.00000e+00	1.00000e+00	1.00000e+00	1.00000e+00	1.00000e+00	1.00000e+00	1.00000e+00	1.00000e+00	1.00000e+00	1.00000e+00	X	X	X	X	X	X	X	X	X	X	X	X	X	X	X	X	

B = Detector Channel
Val Type	B-AC1	B-AC2	B-AC3	B-AC4	B-AC5	B-AC6	B-AC7	B-AC8	B-AC9	B-AC10	B-AC11	B-AC12	B-AC13	B-AC14	B-AC15	B-AC16	B-DC1	B-DC2	B-DC3	B-DC4	B-DC5	B-DC6	B-DC7	B-DC8	B-DC9	B-DC10	B-DC11	B-DC12	B-DC13	B-DC14	B-DC15	B-DC16	B-Ph1	B-Ph2	B-Ph3	B-Ph4	B-Ph5	B-Ph6	B-Ph7	B-Ph8	B-Ph9	B-Ph10	B-Ph11	B-Ph12	B-Ph13	B-Ph14	B-Ph15	B-Ph16	

Term	0.00000e+00	0.00000e+00	0.00000e+00	0.00000e+00	0.00000e+00	0.00000e+00	0.00000e+00	0.00000e+00	0.00000e+00	0.00000e+00	0.00000e+00	0.00000e+00	0.00000e+00	0.00000e+00	0.00000e+00	0.00000e+00	0.00000e+00	0.00000e+00	0.00000e+00	0.00000e+00	0.00000e+00	0.00000e+00	0.00000e+00	0.00000e+00	0.00000e+00	0.00000e+00	0.00000e+00	0.00000e+00	0.00000e+00	0.00000e+00	0.00000e+00	0.00000e+00	-1.03147e+02	-1.27696e+02	-1.26040e+02	-1.81176e+02	-6.23970e+01	-6.75592e+01	-1.58780e+02	-1.62015e+02	-5.65277e+01	-6.22897e+01	-1.72992e+02	-1.70125e+02	-1.79834e+02	-1.76748e+02	-6.70119e+01	-1.49179e+02	
Factor	1.55199e-05	1.44807e-04	4.06336e-05	1.55882e-01	1.24127e-06	1.48260e-06	1.50087e-01	4.62077e-02	1.01788e-06	1.60599e-06	9.62183e-02	2.73408e-02	4.09599e-02	8.78388e-03	1.32503e-06	1.25402e-02	7.43530e-06	1.06435e-05	2.98820e-06	8.29155e-02	1.11264e-07	1.18464e-07	7.49576e-02	2.47378e-02	1.11329e-07	1.17809e-07	4.95847e-02	1.42385e-02	2.21954e-02	4.73677e-03	1.13755e-07	6.51851e-03	X	X	X	X	X	X	X	X	X	X	X	X	X	X	X	X	



#DISTANCE SETTINGS
A = Detector Channel
A-1	A-2	A-3	A-4	A-5	A-6	A-7	A-8	A-9	A-10	A-11	A-12	A-13	A-14	A-15	A-16	

2.5000e+00	3.0000e+00	2.5000e+00	3.0000e+00	2.0000e+00	3.0000e+00	1.5000e+00	3.0000e+00	3.0000e+00	3.0000e+00	3.0000e+00	3.0000e+00	3.0000e+00	3.0000e+00	1.5000e+00	3.0000e+00	

B = Detector Channel
B-1	B-2	B-3	B-4	B-5	B-6	B-7	B-8	B-9	B-10	B-11	B-12	B-13	B-14	B-15	B-16	

1.0000e+01	1.0000e+01	1.0000e+01	1.4400e+00	1.0000e+01	1.0000e+01	1.5100e+00	1.9400e+00	1.0000e+01	1.0000e+01	1.9900e+00	2.4900e+00	2.4100e+00	2.9000e+00	1.0000e+01	2.9800e+00	




#DATA BEGINS
time	group	step	mark	flag	A-AC1	A-AC2	A-AC3	A-AC4	A-AC5	A-AC6	A-AC7	A-AC8	A-AC9	A-AC10	A-AC11	A-AC12	A-AC13	A-AC14	A-AC15	A-AC16	A-DC1	A-DC2	A-DC3	A-DC4	A-DC5	A-DC6	A-DC7	A-DC8	A-DC9	A-DC10	A-DC11	A-DC12	A-DC13	A-DC14	A-DC15	A-DC16	A-Ph1	A-Ph2	A-Ph3	A-Ph4	A-Ph5	A-Ph6	A-Ph7	A-Ph8	A-Ph9	A-Ph10	A-Ph11	A-Ph12	A-Ph13	A-Ph14	A-Ph15	A-Ph16	B-AC1	B-AC2	B-AC3	B-AC4	B-AC5	B-AC6	B-AC7	B-AC8	B-AC9	B-AC10	B-AC11	B-AC12	B-AC13	B-AC14	B-AC15	B-AC16	B-DC1	B-DC2	B-DC3	B-DC4	B-DC5	B-DC6	B-DC7	B-DC8	B-DC9	B-DC10	B-DC11	B-DC12	B-DC13	B-DC14	B-DC15	B-DC16	B-Ph1	B-Ph2	B-Ph3	B-Ph4	B-Ph5	B-Ph6	B-Ph7	B-Ph8	B-Ph9	B-Ph10	B-Ph11	B-Ph12	B-Ph13	B-Ph14	B-Ph15	B-Ph16	aux-1	digaux	

1918.989	1	1	0	256	0.063186	0.05521	0.16575	0.12209	0.18168	0.14134	0.25751	0.094045	0.048083	0.26155	0.18395	0.26123	0.14005	0.18628	0.026767	0.18149	-1.7396	-2.2479	-1.4667	-2.3688	-1.9042	-1.5167	-2.7208	-1.6375	-2.0458	-2.2354	-1.3	-2.3396	-1.95	-1.6833	-2.4667	-1.6771	3.378	45.210	-82.846	199.247	135.125	254.626	207.680	214.088	256.341	52.038	246.469	118.295	250.919	112.835	-34.428	206.213	0.00010177	0.00030463	7.5306e-05	538.56	2.3455e-06	2.3297e-06	925.9	116	1.3363e-06	2.4351e-06	247.99	84.516	29.703	12.149	1.4964e-06	40.189	0.00015602	0.00011692	3.5391e-05	514.43	1.2932e-06	1.2579e-06	890.47	111.83	1.2255e-06	1.2124e-06	237.38	82.421	29.341	11.729	1.2496e-06	38.79	208.012	0.054	2.867	-75.109	49.135	56.712	-74.898	-70.816	85.881	62.426	-70.958	-65.151	-64.871	-60.828	68.267	-61.471	-8191	255	
1919.085	1	1	0	0	0.072382	0.045813	0.13553	0.226	0.26408	0.1696	0.092512	0.15161	0.11596	0.22672	0.03613	0.18229	0.1516	0.14098	0.19786	0.16035	-1.3104	-2.2938	-1.5312	-2.3792	-2.0438	-1.4833	-2.4708	-1.7563	-1.85	-2.3979	-1.5917	-2.3083	-2.1937	-1.4667	-2.225	-1.6458	190.336	-65.643	101.525	251.842	110.561	166.511	230.186	-83.513	102.960	39.755	188.690	257.105	-3.508	153.078	22.692	-44.398	0.00010301	0.00036211	5.0239e-05	537.34	1.4612e-06	1.8056e-06	922.68	115.07	1.3397e-06	3.8131e-06	244.23	84.364	29.384	12.056	1.6227e-06	39.76	0.00015036	0.00011315	3.3879e-05	514.69	1.2589e-06	1.2927e-06	885.99	110.61	1.3357e-06	1.2333e-06	233.9	81.886	29.191	11.696	1.1989e-06	38.611	216.089	-0.161	29.396	-75.406	61.058	71.866	-74.707	-70.647	57.204	72.856	-70.227	-65.093	-64.879	-60.765	92.449	-61.305	-8191	255	
1919.181	1	1	0	0	0.28338	0.05492	0.0546	0.1642	0.19853	0.15495	0.22522	0.16308	0.092811	0.2716	0.13381	0.24692	0.018952	0.11464	0.11426	0.20211	-1.4875	-2.4	-1.3354	-2.0979	-2.1146	-1.4521	-2.3917	-1.8167	-1.7729	-2.4458	-1.6958	-2.2875	-2.1667	-1.3396	-2.3083	-1.9854	199.692	68.412	201.188	-13.643	136.440	-75.283	225.113	146.166	259.164	-67.384	29.971	252.942	139.770	220.353	176.906	185.569	0.00010802	0.0003679	5.9954e-05	532.71	1.1565e-06	4.5253e-06	908.74	111.86	1.575e-06	2.9818e-06	241.44	84.194	28.957	11.912	1.9627e-06	39.805	0.00015675	0.0001085	3.2883e-05	507.56	1.2735e-06	1.2967e-06	873.4	108.09	1.3315e-06	1.2807e-06	232.66	81.854	28.805	11.594	1.1501e-06	38.478	219.973	7.658	-5.471	-75.061	56.892	68.619	-75.061	-70.351	65.013	49.082	-70.327	-64.777	-64.698	-61.037	51.778	-60.906	-8191	255	
1919.302	1	1	0	0	0.1117	0.30692	0.18762	0.21006	0.058883	0.26651	0.286	0.098719	0.11874	0.2065	0.33193	0.074183	0.18549	0.22296	0.15936	0.43435	-1.2521	-2.3542	-1.5208	-2.1792	-2.3521	-1.4438	-2.3312	-2.1396	-1.4562	-2.2812	-1.7625	-1.9167	-2.4958	-1.3917	-2.3583	-2.2062	90.687	95.582	155.621	-84.210	101.293	-38.879	234.566	-71.508	58.494	143.380	-88.137	133.479	-0.522	-47.618	87.972	143.685	0.00010505	0.00032619	7.6615e-05	527.81	2.0658e-06	1.7518e-06	905.92	112.09	1.3431e-06	3.3262e-06	239.7	84.183	29.39	11.96	1.2441e-06	39.716	0.00016063	0.00011504	3.2503e-05	504.21	1.2816e-06	1.2429e-06	869.39	107.69	1.3598e-06	1.2205e-06	230.31	82.098	29.066	11.61	1.2328e-06	38.469	213.322	-25.653	10.795	-75.043	71.240	82.375	-75.544	-71.513	28.873	59.234	-70.660	-65.573	-65.830	-60.621	105.818	-61.474	-8191	255	
1919.398	1	1	0	0	0.23852	0.36273	0.33355	0.18355	0.036994	0.11838	0.15155	0.26866	0.1451	0.25485	0.090313	0.40163	0.3632	0.14192	0.20952	0.18817	-1.1125	-2.3	-1.7708	-1.8146	-2.525	-1.5458	-2.2417	-2.1021	-1.3354	-2.3292	-1.8167	-1.9479	-2.3333	-1.5417	-1.9625	-2.3937	-32.851	122.258	196.142	185.397	42.431	-59.228	198.577	-77.949	1.149	-0.511	228.339	255.330	46.486	76.875	230.441	154.958	0.00010422	0.00019876	6.4798e-05	517.51	1.6979e-06	3.4331e-06	893.74	110	2.5531e-06	2.3126e-06	233.1	83.789	29.323	11.913	1.2948e-06	39.061	0.00015004	0.00010256	3.0486e-05	494.94	1.2067e-06	1.2542e-06	857.1	105.77	1.4308e-06	1.1197e-06	226.18	81.466	28.784	11.45	1.2423e-06	37.771	213.619	-3.300	-13.750	-75.482	88.332	68.653	-75.051	-70.849	65.058	72.740	-70.694	-65.231	-65.218	-60.984	59.942	-61.471	-8191	255	
1919.494	1	1	0	0	0.13256	0.13701	0.23502	0.13227	0.11826	0.22085	0.23862	0.10413	0.12214	0.13263	0.039678	0.095215	0.26953	0.18697	0.071951	0.10132	-1.0896	-2.3375	-1.7479	-1.6542	-2.3	-1.525	-2.1479	-2.2438	-1.3958	-2.1958	-1.9104	-1.6271	-2.3333	-1.7313	-1.9583	-2.4917	163.625	266.248	115.722	-83.975	56.891	126.784	233.052	88.235	31.719	90.082	83.865	124.678	37.526	192.542	50.818	-7.162	8.2778e-05	0.00019307	7.1911e-05	508.45	2.5539e-06	2.674e-06	874.54	106.83	1.1597e-06	1.9749e-06	229.39	82.424	29.256	11.611	2.8061e-06	38.638	0.00014945	0.00010275	3.061e-05	487.19	1.2223e-06	1.1165e-06	838.39	103.13	1.2768e-06	1.1562e-06	221.71	80.369	28.486	11.246	1.1894e-06	37.337	212.238	-32.390	2.084	-75.807	56.716	79.615	-75.095	-71.005	62.611	72.224	-70.961	-65.360	-65.205	-60.163	67.779	-61.105	-8191	255	
1919.590	1	1	0	0	0.038644	0.14621	0.26914	0.13515	0.134	0.36253	0.26096	0.16714	0.085019	0.078353	0.17969	0.18445	0.17154	0.1473	0.14531	0.19087	-1.0708	-2.2417	-2.0271	-1.6271	-2.3667	-1.5938	-1.75	-2.3792	-1.3875	-2.1604	-2.0938	-1.5375	-2.1937	-1.6083	-1.8417	-2.4958	-73.746	68.882	-23.618	-74.611	7.054	-31.496	205.994	256.653	93.784	-29.519	24.589	257.486	153.522	218.865	-66.512	-32.528	0.0001047	0.00028443	8.3507e-05	510.82	1.668e-06	2.2761e-06	861.31	106.21	1.0265e-06	2.6772e-06	228.41	81.855	28.445	11.574	2.6302e-06	37.874	0.00014414	0.00010346	3.0604e-05	486.24	1.1965e-06	1.1817e-06	831.49	102.67	1.2392e-06	1.1189e-06	219.66	79.87	28.116	11.119	1.2304e-06	36.724	206.975	-11.006	-8.035	-75.406	49.158	78.901	-74.995	-70.940	60.048	60.793	-70.463	-65.015	-64.226	-60.962	54.358	-61.054	-8191	255	
1919.687	1	1	0	0	0.17295	0.15216	0.29775	0.20915	0.066508	0.2909	0.2168	0.27525	0.12665	0.23407	0.12493	0.055425	0.030882	0.047301	0.30313	0.33333	-1.1854	-2.0208	-2.0104	-1.3687	-2.3417	-1.7812	-1.8958	-2.375	-1.7042	-2.1583	-2.2062	-1.3625	-2.2938	-1.7104	-1.6292	-2.3333	233.266	222.620	142.357	20.563	99.514	193.938	238.044	8.907	77.933	165.532	138.272	146.798	10.487	262.195	211.318	-59.140	8.7897e-05	0.00036089	9.8709e-05	502.75	2.0098e-06	2.1719e-06	860.76	105.75	2.275e-06	3.373e-06	230.27	82.512	28.789	11.557	3.2662e-06	38.445	0.00014122	0.00010737	3.0598e-05	480.92	1.1891e-06	1.1355e-06	826.86	102.59	1.2817e-06	1.1467e-06	221.09	80.302	28.413	11.175	1.2679e-06	37.174	209.594	7.439	6.318	-75.638	46.850	69.862	-75.167	-70.660	72.336	85.248	-70.493	-65.135	-65.558	-61.149	49.233	-61.272	-8191	255	
1919.783	1	1	0	0	0.12726	0.18825	0.12559	0.26123	0.081252	0.29936	0.1946	0.094233	0.21132	0.094261	0.067904	0.1368	0.074369	0.098795	0.2104	0.21612	-1.1583	-1.875	-2.2188	-1.4021	-2.1063	-2.0146	-1.5958	-2.1813	-1.5271	-1.9604	-2.2792	-1.4771	-2.025	-1.85	-1.4896	-2.4917	255.536	164.400	168.877	3.429	97.773	-82.483	120.846	-76.597	-46.009	194.101	264.729	268.606	242.126	-32.666	209.056	212.317	9.0534e-05	0.00025033	6.7215e-05	516.28	1.3645e-06	3.5752e-06	878.7	108.02	1.3709e-06	2.8895e-06	232.21	83.432	29.08	11.686	2.6352e-06	39.078	0.00014133	0.00010271	2.751e-05	493	1.2086e-06	1.2439e-06	844.43	104.49	1.2923e-06	1.1805e-06	223.5	81.425	28.869	11.37	1.2501e-06	37.578	208.515	-23.267	-6.055	-75.555	70.459	41.684	-75.185	-70.680	70.909	64.796	-70.618	-65.420	-65.147	-60.520	79.817	-61.375	-8191	255	
1919.879	1	1	0	0	0.10542	0.23017	0.27923	0.21957	0.049057	0.33996	0.32766	0.17061	0.10769	0.36199	0.15872	0.07733	0.35973	0.20599	0.31934	0.072834	-1.2208	-1.7229	-2.1042	-1.6021	-1.9167	-2.1458	-1.6708	-2.2479	-1.8021	-1.6479	-2.4562	-1.6521	-2.1521	-2.2188	-1.4479	-2.3187	143.341	146.816	252.912	-55.199	-27.627	175.343	173.741	-22.866	-55.650	76.452	107.145	-36.744	239.046	-20.494	19.652	211.672	9.1376e-05	0.00035392	5.779e-05	513.7	2.4915e-06	2.6428e-06	875.78	108.16	1.455e-06	2.2892e-06	231.61	82.949	29.41	11.547	2.3856e-06	38.327	0.00014301	0.00010428	2.9247e-05	490.08	1.1662e-06	1.083e-06	837.45	104.45	1.1778e-06	1.1491e-06	222.94	80.889	28.792	11.266	1.2487e-06	37.213	217.691	9.333	-4.449	-75.485	84.525	60.561	-75.199	-71.016	76.868	62.305	-70.453	-65.486	-65.770	-60.580	47.955	-61.147	-8191	255	
1919.975	1	1	0	0	0.030607	0.13038	0.27722	0.24335	0.10791	0.3155	0.11997	0.18863	0.21223	0.10074	0.22359	0.067418	0.23839	0.2321	0.15855	0.17873	-1.5104	-1.7667	-2.2687	-1.6167	-2.0479	-2.2146	-1.5042	-2.1958	-1.8542	-1.6208	-2.3292	-1.7479	-1.8854	-2.2771	-1.7313	-2.2646	-71.327	-54.718	91.920	246.161	-51.952	187.076	-63.045	-79.147	227.481	-16.528	255.963	193.603	-79.391	198.729	147.102	209.260	0.00010572	0.00040262	0.00010905	510.91	1.8472e-06	2.1761e-06	865.08	108.49	1.0015e-06	3.9175e-06	234.12	83.036	29.255	11.692	1.8407e-06	38.408	0.00013176	0.00011027	2.8942e-05	489.48	1.2761e-06	1.0422e-06	835.8	104.8	1.1615e-06	1.131e-06	223.44	80.996	28.823	11.341	1.2091e-06	37.344	203.982	23.989	-4.556	-75.915	61.957	60.439	-75.090	-70.779	16.842	78.544	-70.279	-65.677	-66.596	-60.714	25.741	-61.414	-8191	255	
1920.094	1	1	0	0	0.14051	0.13171	0.24725	0.14699	0.21377	0.29629	0.037345	0.17968	0.1394	0.23827	0.23223	0.047281	0.21225	0.18776	0.15851	0.24227	-1.4667	-1.6125	-2.3896	-1.6063	-1.7354	-2.1042	-1.6583	-2.3708	-2.0125	-1.4396	-2.2521	-1.7708	-1.8729	-2.325	-1.325	-2.1562	233.410	254.076	126.085	204.856	-65.746	7.771	142.831	5.620	51.950	-42.486	-22.913	48.079	-11.187	233.932	194.781	231.881	9.629e-05	0.00026027	8.6445e-05	518.06	1.8685e-06	1.7601e-06	879.89	110.69	1.4986e-06	2.0278e-06	236.09	84.769	29.944	11.964	3.088e-06	39.686	0.00013779	0.00011198	2.6383e-05	494.88	1.1384e-06	1.0909e-06	848.54	106.6	1.171e-06	1.1003e-06	226.82	82.627	29.423	11.667	1.1456e-06	38.455	210.156	-13.048	-8.433	-75.713	63.803	101.805	-75.136	-70.677	81.074	86.258	-70.810	-65.087	-66.082	-60.936	68.235	-61.238	-8191	255	
1920.190	1	1	0	0	0.25401	0.060183	0.10631	0.018278	0.057781	0.16282	0.10022	0.10562	0.077713	0.19655	0.097843	0.065446	0.19901	0.20497	0.13384	0.059134	-1.8292	-1.2667	-2.2687	-1.7938	-1.5542	-2.4333	-1.6396	-2.0187	-2.2125	-1.3729	-2.1813	-1.9521	-1.6271	-2.3396	-1.5542	-2.075	-16.226	63.091	195.236	-86.292	150.261	71.553	189.256	-66.696	132.512	-17.297	255.992	217.905	69.052	45.793	-43.672	57.496	0.00010278	0.0002247	6.6943e-05	524.98	1.4181e-06	2.6488e-06	886.02	111.76	1.6023e-06	3.0147e-06	238.3	86.689	30.248	12.266	2.4381e-06	40.387	0.00014002	0.00010715	2.6856e-05	500.61	1.2457e-06	9.8473e-07	853.35	107.61	1.1061e-06	1.2129e-06	228.88	83.965	30.062	11.899	1.1146e-06	39.062	207.182	-10.364	24.421	-75.666	36.277	63.515	-75.085	-70.718	41.399	64.797	-70.556	-65.307	-64.912	-60.584	63.517	-61.615	-8191	255	
1920.286	1	1	0	0	0.29375	0.20974	0.15239	0.12942	0.1409	0.25127	0.18436	0.16306	0.083806	0.08472	0.068803	0.26351	0.10898	0.082929	0.18774	0.30575	-1.8	-1.3917	-2.2208	-1.8958	-1.5729	-2.2812	-1.7729	-1.9125	-2.2083	-1.4854	-2.1562	-2.0375	-1.4188	-2.3625	-1.6271	-1.7521	116.764	-37.478	238.064	153.341	125.671	85.596	145.783	235.533	-31.611	193.883	269.930	198.084	4.117	211.948	102.065	221.021	0.00010812	0.00032997	6.9743e-05	522.59	1.7208e-06	3.147e-06	887.49	111.68	1.1586e-06	2.5952e-06	238.04	86.844	30.619	12.215	2.4124e-06	40.248	0.00013243	0.00010537	2.6389e-05	500.71	1.2383e-06	1.1382e-06	854.06	107.8	1.1012e-06	1.169e-06	229.28	84.234	30.346	11.933	1.1075e-06	39.082	216.165	9.075	-29.069	-75.986	76.791	47.975	-75.376	-70.505	37.902	77.563	-70.302	-65.243	-65.291	-60.829	94.029	-61.386	-8191	255	
1920.382	1	1	0	0	0.45087	0.22414	0.1227	0.077366	0.21937	0.33889	0.3116	0.27095	0.15526	0.012197	0.19522	0.1397	0.085577	0.1381	0.11699	0.066131	-1.95	-1.3729	-2.2188	-1.975	-1.5229	-2.4104	-1.8833	-1.8833	-2.325	-1.5312	-2.1625	-2.0812	-1.4667	-2.1	-1.9229	-1.9729	205.094	139.639	88.344	59.066	-87.573	155.357	201.541	-76.032	74.465	182.443	131.309	251.966	49.858	65.748	80.454	268.358	9.6263e-05	0.0004082	6.15e-05	526.98	1.5604e-06	2.5032e-06	895.3	112.35	2.6049e-06	2.1254e-06	240.16	87.372	31.173	12.541	1.7586e-06	40.898	0.00013507	0.00010515	3.028e-05	504.44	1.1775e-06	1.0462e-06	860.17	108.94	1.1351e-06	1.1462e-06	231.8	84.935	30.566	12.128	1.1079e-06	39.71	215.744	-7.202	-3.055	-75.268	53.424	51.651	-75.319	-70.786	70.245	76.081	-70.716	-65.802	-65.664	-60.800	70.218	-61.517	-8191	255	
1920.479	1	1	0	0	0.12522	0.12596	0.10866	0.10347	0.11439	0.038275	0.0971	0.23827	0.18679	0.15727	0.10738	0.16297	0.21709	0.086044	0.16964	0.27236	-1.8625	-1.4354	-1.9729	-2.0958	-1.4292	-2.1771	-2.0417	-1.5187	-2.4062	-1.4979	-2.0979	-2.1854	-1.3062	-2.3354	-1.9188	-1.55	131.663	-81.396	219.603	135.742	42.683	245.829	79.725	144.992	222.636	73.626	257.060	170.370	149.913	132.045	241.214	258.408	0.00011792	0.00020474	5.6194e-05	526.1	2.3955e-06	3.2149e-06	895.54	113.05	2.0721e-06	2.9013e-06	242.87	88.046	31.2	12.753	1.5564e-06	41.643	0.00014455	0.00011178	2.7056e-05	505.97	1.2295e-06	1.0247e-06	863.31	109.57	1.1179e-06	1.1388e-06	234.12	85.782	30.83	12.392	1.1724e-06	40.383	218.492	-0.466	6.416	-75.820	62.491	55.622	-75.490	-70.628	39.970	90.116	-70.770	-65.478	-65.206	-60.596	63.678	-61.472	-8191	255	
1920.575	1	1	0	0	0.031485	0.18095	0.30622	0.1145	0.30934	0.18787	0.3014	0.21114	0.072837	0.029708	0.28923	0.36365	0.12744	0.23184	0.15892	0.1598	-1.8458	-1.5625	-1.7563	-2.3125	-1.3312	-2.1333	-2.2583	-1.4458	-2.4146	-1.6688	-1.8292	-2.4042	-1.3563	-2.1917	-2.0646	-1.5833	129.720	61.608	-24.105	172.753	128.370	47.582	162.490	164.562	143.557	-14.352	-80.401	151.506	204.171	-80.186	-43.380	247.682	0.00011839	0.00030405	9.7394e-05	531.48	2.5602e-06	3.7686e-06	903.33	114.05	1.5142e-06	3.0218e-06	244.89	88.597	31.201	12.833	2.3821e-06	41.892	0.00013902	0.00011519	3.015e-05	509.5	1.1968e-06	1.0645e-06	867.2	110.57	1.1747e-06	1.1273e-06	235.18	86.592	31.051	12.462	1.1546e-06	40.494	205.895	16.125	-2.961	-75.397	76.388	62.894	-75.284	-71.005	71.910	47.105	-70.546	-65.442	-65.868	-60.431	66.978	-61.300	-8191	255	
1920.695	1	1	0	0	0.084842	0.0060323	0.15346	0.20469	0.13004	0.34929	0.24651	0.30448	0.23317	0.048328	0.12276	0.20307	0.26348	0.19046	0.17447	0.14832	-2.0938	-1.6604	-1.6063	-2.4437	-1.3563	-1.9708	-2.3146	-1.4771	-2.3854	-1.775	-1.7062	-2.5125	-1.6417	-1.9604	-2.1208	-1.5417	187.482	23.015	-7.105	168.062	161.290	187.367	210.537	223.569	175.748	-69.928	110.500	184.922	151.972	268.436	90.509	229.314	0.00010338	0.00023246	3.6876e-05	531.58	2.8994e-06	2.4585e-06	899.92	114.85	2.0638e-06	3.4618e-06	244.93	88.195	31.584	12.809	2.3916e-06	41.907	0.00014093	0.00010351	2.7933e-05	509.27	1.1989e-06	1.0287e-06	864.33	110.49	1.094e-06	1.1675e-06	234.45	86.219	31.041	12.423	1.0759e-06	40.394	202.768	-38.306	4.024	-75.442	69.886	65.173	-75.278	-70.828	50.153	50.084	-70.401	-65.398	-65.504	-60.641	74.835	-61.435	-8191	255	
1920.791	1	1	0	0	0.081855	0.1103	0.18569	0.12552	0.22407	0.055235	0.29579	0.31391	0.22321	0.19015	0.31944	0.06131	0.14983	0.3636	0.055323	0.099265	-1.9667	-1.7938	-1.6625	-2.4292	-1.4542	-1.8625	-2.4021	-1.3875	-2.1229	-1.8458	-1.5312	-2.4813	-1.4833	-1.7229	-2.2271	-1.5896	160.756	128.585	-59.116	98.011	123.290	95.113	142.895	225.243	260.909	109.220	256.318	255.405	99.591	269.031	-22.386	133.008	0.00011592	0.00027415	4.7067e-05	535.33	1.2393e-06	2.4024e-06	905.04	114.95	1.3193e-06	2.3815e-06	245.67	89.504	32.154	12.951	1.4542e-06	41.901	0.00014033	0.00010222	2.9465e-05	512.87	1.13e-06	1.0965e-06	869.98	111.23	1.1205e-06	9.9303e-07	235.46	86.959	31.389	12.554	1.0617e-06	40.638	210.863	4.910	3.118	-75.796	55.227	33.849	-75.297	-70.681	62.283	92.557	-70.477	-65.151	-65.338	-60.044	59.483	-61.043	-8191	255	
1920.863	1	1	0	0	0.12107	0.076093	0.15865	0.27597	0.10162	0.29332	0.19756	0.2943	0.22052	0.15867	0.23418	0.19728	0.088695	0.19078	0.17664	0.21269	-1.9292	-2.0083	-1.3604	-2.4167	-1.7792	-1.8354	-2.6125	-1.4625	-2.2125	-2.2021	-1.4042	-2.4396	-1.4917	-1.6187	-2.4521	-1.5604	48.953	258.272	21.480	259.672	215.349	-74.804	182.955	263.970	164.131	150.253	174.050	228.388	215.566	153.475	233.717	173.575	0.00011727	0.00027686	8.3046e-05	540.99	1.4946e-06	2.6256e-06	913.69	115.83	1.945e-06	1.9362e-06	246.1	89.476	32.235	12.914	1.628e-06	41.945	0.0001409	9.5105e-05	2.9888e-05	518.31	1.1634e-06	1.1229e-06	878.09	111.96	1.1518e-06	1.0289e-06	236.87	86.843	31.511	12.512	1.0148e-06	40.697	221.482	3.215	-6.423	-75.585	70.362	78.138	-75.157	-70.269	44.987	76.887	-70.631	-65.341	-65.545	-60.765	81.908	-61.113	-8191	255	
1920.984	1	1	0	0	0.20139	0.23389	0.062325	0.27079	0.18482	0.19619	0.13184	0.11907	0.10837	0.31186	0.25848	0.32741	0.15823	0.051513	0.17066	0.077997	-1.6875	-2.0875	-1.425	-2.4021	-1.6875	-1.6354	-2.5062	-1.5896	-1.9521	-2.0917	-1.4021	-2.2792	-1.8271	-1.7875	-2.5229	-1.5521	80.669	-24.779	196.000	243.702	-9.756	155.511	137.797	149.509	66.985	218.468	164.529	268.771	0.136	166.085	206.886	143.406	0.00011487	0.00027044	8.1085e-05	545.75	3.1222e-06	3.2419e-06	914.69	115.93	1.2226e-06	3.7846e-06	247	89.663	32.481	12.926	2.3642e-06	42.475	0.00014198	9.6856e-05	2.9309e-05	521.03	1.1778e-06	1.1025e-06	876.22	112.04	1.1497e-06	1.0411e-06	236.84	87.121	31.492	12.635	1.0629e-06	40.923	204.867	21.425	9.058	-75.362	60.507	53.866	-75.145	-70.368	26.021	81.535	-70.866	-65.182	-64.856	-60.517	83.188	-61.287	-8191	255	
1921.078	1	1	0	0	0.22694	0.12896	0.19911	0.15641	0.21796	0.16016	0.18445	0.086844	0.055412	0.13005	0.057976	0.23698	0.12764	0.14777	0.20204	0.10659	-1.4667	-2.2792	-1.4771	-2.2125	-1.8417	-1.5292	-2.55	-1.5396	-1.8854	-2.3542	-1.5375	-2.2646	-2.1354	-1.4521	-2.3354	-1.7833	-7.658	13.185	-22.219	175.712	226.934	247.670	221.752	222.418	211.844	15.776	269.166	-60.417	36.213	253.669	221.649	133.087	0.00011028	0.000307	6.7697e-05	550.4	2.3256e-06	2.071e-06	908.41	116.78	2.075e-06	2.4278e-06	246.27	89.141	32.078	13.102	2.7948e-06	42.088	0.00014363	9.7965e-05	2.9235e-05	521.58	1.1639e-06	1.0514e-06	874.07	112.35	1.1191e-06	9.3363e-07	235.77	87.238	31.621	12.714	1.0693e-06	40.719	201.209	-1.649	2.355	-74.905	58.659	74.204	-75.079	-70.319	55.314	66.397	-70.734	-64.990	-64.516	-60.398	80.851	-61.184	-8191	255	
1921.174	1	1	0	0	0.16546	0.23304	0.1529	0.23486	0.055267	0.16757	0.11915	0.24765	0.19724	0.23119	0.12218	0.23599	0.1625	0.19009	0.028331	0.085323	-1.4062	-2.3	-1.4021	-2.3083	-2.0854	-1.3875	-2.4688	-1.8354	-1.7375	-2.2938	-1.5917	-2.1292	-2.1375	-1.5167	-2.2833	-1.8188	-86.409	87.066	205.428	214.657	138.273	202.186	-9.602	204.250	86.109	219.903	-17.809	188.477	255.266	168.263	-82.536	115.815	0.00010824	0.00021494	9.0583e-05	546.4	1.8472e-06	2.8652e-06	908.3	117.43	1.7927e-06	2.5669e-06	246.23	90.217	32.18	13.103	2.7358e-06	42.444	0.00014059	9.3929e-05	3.0517e-05	522.1	1.0758e-06	1.1173e-06	872.24	112.86	1.2207e-06	9.621e-07	236.73	87.678	31.836	12.792	1.0553e-06	41.128	208.877	15.433	5.666	-75.623	75.886	64.409	-75.054	-70.657	47.968	93.136	-70.306	-64.869	-64.961	-60.676	41.872	-61.295	-8191	255	
1921.270	1	1	0	0	0.28097	0.31797	0.26111	0.21836	0.056243	0.28277	0.33632	0.083081	0.23607	0.088752	0.1297	0.18874	0.12815	0.1385	0.27684	0.18096	-1.2104	-2.4167	-1.5875	-2.2333	-2.3229	-1.5042	-2.375	-2.2104	-1.5417	-2.3792	-1.6167	-2.1417	-2.1542	-1.6292	-2.2812	-2.0729	265.321	199.756	169.221	-85.632	180.902	-77.301	102.729	67.702	-2.004	39.551	249.920	197.209	6.117	182.240	4.490	185.933	0.00011569	0.00023929	7.7381e-05	546.6	1.66e-06	2.8485e-06	914.28	117.06	8.4943e-07	3.3768e-06	247.19	89.715	32.94	13.267	1.7579e-06	42.557	0.00013997	9.6679e-05	2.8487e-05	521.81	1.1585e-06	1.0652e-06	876.54	112.99	1.1474e-06	1.0497e-06	237.37	88.265	32.108	12.896	1.0316e-06	41.256	211.968	10.926	15.138	-74.995	46.984	77.572	-74.910	-70.322	77.294	43.765	-70.227	-65.217	-64.762	-60.781	51.674	-61.097	-8191	255	
1921.367	1	1	0	0	0.30991	0.16957	0.077674	0.18859	0.17386	0.15214	0.072316	0.16633	0.055889	0.093164	0.0087693	0.36723	0.16668	0.11931	0.12838	0.17341	-1.1229	-2.3208	-1.7062	-1.8563	-2.2833	-1.6063	-2.2896	-2.1146	-1.3438	-2.6312	-1.7979	-1.9708	-2.4667	-1.7812	-2.2083	-2.0687	237.792	-70.311	37.899	-67.363	123.273	256.104	-3.168	177.376	110.453	-20.819	-33.415	245.370	-81.863	143.698	33.616	89.198	0.0001058	0.00026418	6.6928e-05	550.6	2.1109e-06	1.3536e-06	914.24	117.55	1.8047e-06	2.318e-06	246.45	91.081	32.369	13.346	2.0451e-06	42.607	0.00014242	9.6878e-05	2.6713e-05	524.33	9.9952e-07	1.1037e-06	876.7	113.34	1.2276e-06	1.0075e-06	237.76	88.377	31.983	12.862	1.0816e-06	41.184	206.462	5.805	6.209	-75.174	43.787	91.124	-74.777	-70.610	81.897	76.401	-70.327	-65.044	-65.710	-60.413	93.011	-61.073	-8191	255	
1921.487	1	1	0	0	0.025419	0.18686	0.25276	0.19969	0.26579	0.10634	0.19947	0.23157	0.19777	0.24022	0.10379	0.021632	0.055784	0.20041	0.19188	0.18728	-1.1	-2.4667	-1.9688	-1.9146	-2.5146	-1.5438	-2.2271	-2.2188	-1.4479	-2.5104	-1.9417	-1.8604	-2.6042	-1.7125	-2.0771	-2.3771	167.553	-31.655	196.823	229.880	121.787	100.711	210.715	-52.061	252.857	-52.767	188.306	113.501	225.227	18.215	78.288	143.015	0.00011011	0.00028102	6.9886e-05	550	2.2799e-06	3.3068e-06	910.35	118.32	1.2831e-06	1.6855e-06	246.76	89.41	32.019	12.999	2.0136e-06	42.084	0.00014714	9.9406e-05	2.9104e-05	525.05	1.0447e-06	1.0709e-06	875.9	113.56	1.1444e-06	1.0227e-06	237.2	87.463	31.654	12.637	1.0759e-06	40.514	208.137	-11.895	-18.241	-75.163	63.550	72.604	-74.623	-70.265	62.784	64.750	-69.732	-64.658	-64.630	-60.034	56.038	-61.291	-8191	255	
1921.559	1	1	0	0	0.15399	0.21415	0.066532	0.16564	0.16459	0.27587	0.20673	0.31812	0.075177	0.26054	0.26908	0.27943	0.128	0.083007	0.13156	0.084607	-1.05	-2.1771	-2.0875	-1.675	-2.4437	-1.6625	-2.1167	-2.3688	-1.7417	-2.3958	-2.0021	-1.8271	-2.5083	-1.8062	-1.8521	-2.3292	162.083	-22.513	59.223	-57.414	149.072	114.224	207.082	199.069	64.517	124.630	-79.828	-61.536	86.197	193.125	168.889	-72.129	0.00010414	0.00029247	9.4451e-05	546.68	2.8714e-06	2.8665e-06	910.23	116.26	1.5822e-06	3.9948e-06	246.94	89.636	32.259	12.97	2.4787e-06	41.554	0.00014479	0.00010045	2.6676e-05	524.4	1.0772e-06	1.119e-06	874.93	112.88	1.1873e-06	9.5474e-07	236.33	86.931	31.554	12.577	1.1013e-06	40.177	216.885	-1.605	-3.809	-74.909	27.367	79.980	-74.796	-70.419	121.780	73.650	-70.096	-65.047	-64.843	-60.328	67.390	-61.011	-8191	255	
1921.655	1	1	0	0	0.18983	0.26019	0.14687	0.17302	0.32519	0.081962	0.311	0.19159	0.24362	0.14121	0.060191	0.081621	0.051047	0.027707	0.20795	0.14149	-1.1708	-2.2896	-2.0333	-1.6396	-2.4417	-1.7917	-1.9167	-2.4125	-1.6167	-2.0667	-2.3021	-1.5438	-2.1	-1.9167	-1.6396	-2.4354	-36.709	217.680	237.599	270.159	252.349	-40.379	198.705	-76.395	88.534	-52.495	75.037	61.958	102.221	-12.596	134.896	104.956	0.00011042	0.000348	6.8145e-05	553.49	2.446e-06	1.9678e-06	915.51	118.06	1.7108e-06	2.5807e-06	245.54	88.792	32.177	12.978	1.5991e-06	41.312	0.00014279	9.6679e-05	2.573e-05	528.69	1.0607e-06	1.0538e-06	878.02	114.04	1.1277e-06	1.0335e-06	235.7	86.721	31.585	12.569	1.1264e-06	40.151	211.174	-11.804	17.733	-75.153	77.303	54.250	-74.669	-70.146	56.879	87.057	-70.456	-64.571	-64.815	-60.130	30.078	-60.913	-8191	255	
1921.776	1	1	0	0	0.13885	0.15806	0.26059	0.070381	0.19943	0.14955	0.48679	0.19081	0.17109	0.11504	0.23377	0.12505	0.20481	0.42763	0.36763	0.28087	-1.1125	-1.9896	-2.1417	-1.5125	-2.1917	-1.8021	-1.6521	-2.4292	-1.7792	-2.1542	-2.3146	-1.4104	-2.2292	-2.0771	-1.6625	-2.6146	-39.736	-55.156	60.132	124.278	263.500	-86.992	150.045	3.325	-71.257	-25.166	-0.537	180.591	-87.657	3.031	21.933	256.064	0.00011223	0.00029496	8.0686e-05	554.08	2.5185e-06	3.5297e-06	920.85	118.3	1.5752e-06	2.8907e-06	247.44	88.643	32.444	12.883	1.8636e-06	41.193	0.00014037	9.9251e-05	2.4186e-05	530.48	1.0387e-06	1.1027e-06	884.78	114.26	1.1358e-06	1.0387e-06	236.76	86.357	31.629	12.447	1.12e-06	39.811	207.079	-6.118	0.458	-74.992	71.365	75.441	-74.344	-70.491	19.807	90.546	-70.412	-64.644	-64.829	-60.459	83.252	-60.705	-8191	255	
1921.872	1	1	0	0	0.14668	0.2751	0.27338	0.08419	0.19497	0.094401	0.078769	0.25191	0.1795	0.11905	0.17303	0.12882	0.18579	0.13141	0.088812	0.032044	-1.3438	-1.8458	-2.2229	-1.4854	-2.2042	-2.0354	-1.7167	-2.4271	-1.6333	-1.875	-2.5125	-1.525	-2.3333	-2.1104	-1.5625	-2.5083	187.579	-5.101	200.106	-31.026	96.575	-0.922	126.574	189.990	188.914	142.243	133.360	-31.039	242.371	-51.206	115.075	237.218	0.00010538	0.00021435	5.5032e-05	556.38	1.5456e-06	2.2211e-06	922.36	118.2	1.4451e-06	4.0976e-06	247.62	87.911	31.985	12.745	2.4326e-06	41.01	0.00014135	0.00010027	2.6172e-05	532.76	1.1272e-06	1.0082e-06	887.41	114.06	1.1696e-06	1.0674e-06	236.96	85.455	31.195	12.315	1.143e-06	39.496	203.499	-19.877	10.654	-75.020	65.562	61.325	-74.691	-70.319	64.600	73.493	-70.253	-64.923	-64.751	-60.270	63.818	-61.090	-8191	255	
1921.968	1	1	0	0	0.18156	0.12717	0.11077	0.25825	0.077447	0.09603	0.30445	0.32848	0.2003	0.17467	0.12724	0.099957	0.17637	0.054761	0.26384	0.25986	-1.3646	-1.8104	-2.6583	-1.6604	-2.1396	-2.1042	-1.7812	-2.3604	-1.9375	-1.6063	-2.5292	-1.7542	-2.0854	-2.175	-1.3625	-2.3646	-80.717	73.202	122.513	178.453	138.637	238.461	183.572	-64.057	96.997	20.037	-88.408	227.730	193.507	136.977	53.573	152.422	0.00010838	0.00025054	8.2484e-05	564.72	2.1649e-06	3.484e-06	937.06	119.52	6.5257e-07	3.9361e-06	247.83	87.917	30.802	12.725	2.2243e-06	40.756	0.00013895	9.4883e-05	2.6601e-05	538.75	1.0454e-06	9.8547e-07	896.75	114.88	1.136e-06	1.0723e-06	237.91	85.269	31.057	12.305	1.165e-06	39.368	205.899	7.825	-11.292	-74.982	94.067	37.286	-74.635	-70.459	80.258	68.659	-69.825	-65.007	-63.992	-60.741	53.827	-60.776	-8191	255	
1922.087	1	1	0	0	0.16294	0.058964	0.17225	0.42135	0.29304	0.30488	0.2317	0.17969	0.087551	0.15895	0.19942	0.03319	0.16918	0.19687	0.23538	0.25358	-1.6042	-1.6292	-2.3646	-1.7313	-1.9	-2.2917	-1.6979	-2.3417	-1.9083	-1.5812	-2.6437	-1.6042	-1.8083	-2.3771	-1.5	-2.1896	-48.743	-52.096	14.710	225.972	-16.589	146.102	-57.583	229.972	158.505	256.213	214.005	180.840	208.959	-1.125	87.909	-85.567	0.00011154	0.00030237	3.9065e-05	570.13	1.4864e-06	2.4462e-06	946.95	120.05	1.4881e-06	2.8578e-06	247.4	86.818	31.251	12.665	1.4609e-06	40.751	0.00013971	0.00010071	2.6203e-05	545.34	1.1344e-06	1.044e-06	908.93	116.22	1.1177e-06	1.1207e-06	239.51	84.678	30.85	12.259	1.1011e-06	39.291	207.484	25.823	-2.446	-75.032	94.937	58.950	-74.578	-70.512	87.984	65.513	-70.180	-64.928	-64.957	-59.869	52.685	-61.037	-8191	255	
1922.159	1	1	0	0	0.067695	0.18428	0.30456	0.091245	0.27793	0.25585	0.21721	0.11001	0.094424	0.018591	0.20975	0.1653	0.21702	0.053289	0.042563	0.22895	-1.6208	-1.4771	-2.4813	-1.8271	-1.65	-2.3812	-1.7542	-2.2583	-2.1	-1.5875	-2.4083	-1.8042	-1.8083	-2.3354	-1.5625	-2.0958	132.315	64.697	-10.211	98.004	-31.585	229.494	20.658	-55.459	102.151	236.327	269.770	-25.826	110.706	200.845	185.233	249.402	0.00011713	0.00028481	8.0123e-05	577.41	1.964e-06	1.5311e-06	950.22	121.22	9.1601e-07	2.6918e-06	249.11	85.261	30.545	12.432	2.7161e-06	39.899	0.00013972	0.00010326	2.3775e-05	551.05	1.1342e-06	9.4401e-07	914.1	116.79	1.1008e-06	1.1756e-06	239.34	82.881	30.085	12.024	1.1274e-06	38.525	213.062	-15.996	-4.023	-75.147	94.399	49.534	-74.468	-70.361	86.505	81.107	-70.570	-65.428	-65.457	-60.339	50.470	-60.854	-8191	255	
1922.255	1	1	0	0	0.12446	0.19667	0.33084	0.11923	0.067383	0.06659	0.06619	0.071799	0.11452	0.41192	0.41865	0.24907	0.086543	0.19464	0.17377	0.17035	-1.7708	-1.525	-2.4354	-1.9396	-1.6708	-2.3646	-1.675	-2.1417	-2.2417	-1.7125	-2.4229	-2.0021	-1.7292	-2.4062	-1.725	-2.0354	137.533	-75.531	-70.676	149.375	-6.960	159.422	161.644	-72.707	237.605	176.662	249.301	220.201	-42.343	218.080	178.484	-17.809	0.00011542	0.00030105	3.6761e-05	575.44	1.7123e-06	3.08e-06	942.56	119.55	1.3216e-06	3.1318e-06	245.87	83.191	29.86	12.132	3.3775e-06	38.9	0.00013416	0.00010424	2.4292e-05	549.68	1.0939e-06	9.7832e-07	905.19	115.39	1.0541e-06	1.0971e-06	235.99	81.054	29.535	11.686	1.0937e-06	37.492	209.651	-30.334	13.306	-75.487	62.864	69.181	-74.712	-70.480	66.534	57.471	-70.594	-65.040	-64.857	-60.661	60.489	-60.696	-8191	255	
1922.375	1	1	0	0	0.15786	0.15117	0.02893	0.041348	0.22783	0.23543	0.17525	0.19118	0.28695	0.22979	0.14067	0.035081	0.13492	0.10521	0.081345	0.099771	-1.9479	-1.5271	-2.4729	-2.0187	-1.4083	-2.4437	-1.7792	-1.8104	-2.3583	-1.3438	-2.2792	-2.2438	-1.3937	-2.3271	-1.7667	-1.8771	17.198	-18.198	33.968	217.333	85.772	129.439	201.869	192.513	-30.341	125.181	188.762	253.203	208.812	61.101	173.418	125.241	7.5128e-05	0.00019778	5.8872e-05	567.79	1.5306e-06	2.6248e-06	928.81	118.59	1.3875e-06	1.619e-06	242.5	81.914	29.597	11.894	1.99e-06	37.87	0.00013413	9.1867e-05	2.4889e-05	541.94	1.1479e-06	9.0181e-07	891.7	113.68	1.0168e-06	1.0561e-06	232.4	79.559	29.02	11.463	1.0534e-06	36.617	210.188	5.271	25.569	-75.173	61.783	65.392	-74.599	-70.753	49.955	68.237	-70.150	-65.085	-65.289	-59.663	31.921	-60.842	-8191	255	
1922.471	1	1	0	0	0.48982	0.21764	0.32565	0.11555	0.19675	0.25409	0.21503	0.2466	0.2828	0.15357	0.22499	0.073848	0.24092	0.069494	0.25554	0.27826	-1.9021	-1.5417	-2.175	-2.1437	-1.5271	-2.2667	-1.7833	-1.7208	-2.3667	-1.575	-2.2417	-2.1979	-1.4688	-2.4479	-1.8354	-1.7687	-38.805	255.192	101.155	138.787	-34.075	148.288	255.988	169.914	112.473	139.474	105.421	-16.795	240.430	-29.957	17.228	265.623	0.00010057	0.00027567	8.2293e-05	565.62	1.9362e-06	2.8298e-06	928.22	118.18	1.7822e-06	1.8959e-06	243.14	80.934	28.567	11.67	3.0844e-06	37.411	0.00012586	9.149e-05	2.4404e-05	541.48	1.1071e-06	9.2155e-07	890.83	113.57	1.0671e-06	1.0811e-06	232.95	78.819	28.597	11.322	1.0733e-06	36.361	203.730	-2.338	-9.099	-75.091	69.741	68.208	-74.671	-70.429	100.400	84.298	-70.096	-65.120	-64.699	-60.504	45.126	-60.177	-8191	255	
1922.568	1	1	0	0	0.15872	0.18756	0.23311	0.30359	0.20443	0.23622	0.13091	0.22155	0.21641	0.043023	0.02711	0.069176	0.10904	0.10374	0.24204	0.23494	-2.0167	-1.5042	-1.975	-2.3417	-1.2687	-2.3458	-2.2125	-1.725	-2.4292	-1.5854	-1.95	-2.3563	-1.6396	-2.0542	-2.0563	-1.6812	268.232	-88.288	148.182	238.762	186.093	-34.605	170.119	197.748	53.739	186.718	253.465	73.743	-76.730	40.047	46.483	18.301	9.3552e-05	0.00021165	9.7023e-05	566.05	1.8341e-06	2.6756e-06	935.11	117.84	1.0902e-06	1.2913e-06	245.42	79.72	29.039	11.673	1.9106e-06	37.646	0.00012721	9.4062e-05	2.7354e-05	542.65	1.1407e-06	9.3019e-07	897.51	114.23	1.0033e-06	9.7806e-07	235.37	78.133	28.672	11.318	9.5957e-07	36.427	210.321	23.506	7.387	-74.836	57.326	59.384	-74.674	-70.400	52.616	44.939	-70.325	-65.276	-65.164	-59.996	45.549	-60.705	-8191	255	
1922.664	1	1	0	0	0.082879	0.23877	0.23869	0.059829	0.19812	0.18259	0.34273	0.10541	0.27354	0.21986	0.20809	0.084328	0.37898	0.039971	0.060675	0.067294	-1.9208	-1.5187	-1.7771	-2.4437	-1.2833	-2.2271	-2.2875	-1.5667	-2.3375	-1.7333	-2.0458	-2.4833	-1.3125	-2.125	-2.0542	-1.7354	182.648	36.334	140.053	244.678	140.256	-70.515	221.572	245.911	87.047	260.594	240.151	177.305	7.088	92.368	34.088	-29.333	8.7662e-05	0.00038363	7.7852e-05	571.83	1.5543e-06	1.5469e-06	940.54	119.26	9.1939e-07	2.9035e-06	246.86	78.308	28.798	11.396	2.5565e-06	36.644	0.00012704	9.7255e-05	2.5505e-05	549.35	1.1101e-06	9.6474e-07	902.97	115.02	9.7575e-07	9.4001e-07	236.53	76.491	28.149	11.064	9.181e-07	35.356	208.600	-26.414	8.472	-75.177	77.243	46.789	-74.791	-70.555	61.007	66.094	-70.226	-65.188	-64.848	-60.214	42.465	-60.765	-8191	255	
1922.784	1	1	0	0	0.18666	0.27276	0.12992	0.21401	0.07305	0.32608	0.2007	0.24204	0.050476	0.12888	0.15992	0.20685	0.26924	0.027543	0.21069	0.11469	-1.8667	-1.9083	-1.7729	-2.4479	-1.5896	-1.9958	-2.4125	-1.4229	-2.4542	-1.8417	-1.7479	-2.2875	-1.4583	-1.8833	-2.3208	-1.5646	198.176	-30.815	124.278	-53.212	47.288	-84.416	178.384	269.005	108.284	-63.673	20.786	197.607	-10.907	244.823	84.895	129.816	8.225e-05	0.00023405	7.4208e-05	587.1	2.4185e-06	1.2545e-06	958.37	122.99	8.1303e-07	1.8295e-06	248.02	74.123	26.837	10.743	2.2126e-06	33.225	0.00012304	9.3952e-05	2.6421e-05	559.44	1.0519e-06	9.2032e-07	919.29	117.89	1.062e-06	9.3805e-07	238.39	71.855	26.599	10.31	9.1146e-07	32.37	203.792	16.136	4.664	-75.031	79.807	53.632	-74.961	-70.792	45.463	37.047	-70.421	-65.231	-65.399	-60.172	50.490	-60.301	-8191	255	
1922.856	1	1	0	0	0.057023	0.14536	0.038955	0.14589	0.22438	0.26548	0.094133	0.16069	0.044121	0.24058	0.34538	0.22526	0.10806	0.33302	0.30531	0.17757	-1.85	-1.9333	-1.6208	-2.4208	-1.7542	-1.8146	-2.3208	-1.5542	-2.2687	-1.8813	-1.65	-2.4021	-1.5833	-1.7188	-2.2583	-1.7	26.605	121.499	49.900	221.658	133.818	45.057	268.177	-21.225	219.238	222.035	142.321	120.585	-13.354	145.314	156.082	211.483	7.9418e-05	0.00021553	5.4312e-05	601.97	1.4225e-06	2.9097e-06	955.82	127.53	1.0162e-06	2.1822e-06	257.33	65.759	23.829	9.0773	1.4146e-06	28.982	0.0001144	8.4638e-05	2.3837e-05	573.23	1.0704e-06	9.6227e-07	919.64	122.81	1.0221e-06	9.0393e-07	245.7	64.408	23.516	8.8073	8.8515e-07	28.007	210.700	12.374	-20.268	-74.855	94.630	58.793	-74.898	-70.931	119.700	46.812	-70.926	-65.569	-65.792	-59.643	36.767	-60.388	-8191	255	
1922.952	1	1	0	0	0.11007	0.19097	0.19706	0.18776	0.19907	0.1918	0.12252	0.073684	0.24742	0.14832	0.43086	0.23397	0.21559	0.1944	0.009264	0.35093	-1.6104	-2.175	-1.1458	-2.1937	-1.7708	-1.7146	-2.3896	-1.4438	-2.1625	-2.2	-1.4562	-2.3146	-1.7667	-1.7229	-2.2896	-1.4354	224.106	13.434	167.345	-34.022	262.260	241.087	235.265	-65.910	171.600	84.569	253.794	240.912	-32.545	252.509	-43.601	144.243	7.941e-05	0.00020673	9.5219e-05	596.95	1.1218e-06	3.0624e-06	941.69	137.01	1.1295e-06	1.7139e-06	268.38	64.379	26.696	8.0545	2.5858e-06	25.728	0.00010574	8.4616e-05	2.5063e-05	569.33	1.0206e-06	9.529e-07	904.8	131.83	1.0314e-06	8.9731e-07	258.48	62.693	26.272	7.8061	9.2592e-07	24.831	217.635	15.109	-4.890	-75.617	45.989	76.012	-74.996	-71.100	49.480	15.556	-71.109	-66.139	-67.022	-60.962	66.446	-61.107	-8191	255	
1923.048	1	1	0	0	0.10509	0.17867	0.078071	0.20431	0.11228	0.099588	0.22232	0.13498	0.043411	0.12234	0.17108	0.19913	0.087811	0.15892	0.14385	0.27253	-1.7521	-2.2521	-1.5063	-2.4083	-1.8771	-1.5521	-2.5521	-1.6771	-2.0104	-2.275	-1.4083	-2.3104	-2.0687	-1.4646	-2.3625	-1.7	222.343	-31.594	229.846	-57.252	124.358	135.083	251.032	138.960	35.778	177.062	153.265	-77.803	-40.254	185.283	96.830	61.078	6.5772e-05	0.00024982	4.6466e-05	595.19	2.5667e-06	1.9839e-06	938.19	149.5	1.1203e-06	1.5245e-06	288.13	74.955	32.778	8.1135	3.465e-06	25.096	0.0001056	8.6656e-05	2.7666e-05	569.21	1.1078e-06	1.0385e-06	901.35	143.52	1.1147e-06	9.9303e-07	276.21	72.723	32.297	7.9113	1.1302e-06	24.435	207.921	3.862	-18.266	-75.489	61.324	80.678	-75.211	-71.332	59.051	61.068	-71.484	-67.100	-67.854	-61.825	60.206	-61.895	-8191	255	
1923.167	1	1	0	0	0.32964	0.17072	0.1113	0.14158	0.26763	0.13138	0.29917	0.14958	0.21653	0.097019	0.038106	0.21085	0.014074	0.26359	0.27158	0.3843	-1.525	-2.1437	-1.6417	-2.1979	-2.0542	-1.5187	-2.4958	-1.6979	-1.7833	-2.1667	-1.6042	-2.25	-2.2229	-1.3146	-2.3208	-1.7854	57.350	184.982	134.178	-37.098	176.046	135.554	169.993	79.697	231.750	-33.870	99.020	-73.252	185.415	121.396	116.952	115.106	6.3362e-05	0.0003176	9.328e-05	601.4	6.7693e-07	1.9885e-06	934.62	156.77	8.2364e-07	6.0944e-07	297.45	80.73	35.971	8.3302	1.9608e-06	24.709	0.00012191	0.00010548	3.315e-05	575.06	1.2023e-06	1.2241e-06	897.54	151.04	1.2017e-06	1.2345e-06	285.29	78.728	35.099	8.0896	1.1269e-06	23.866	222.805	1.163	-30.205	-75.430	65.917	42.366	-75.107	-71.375	58.119	78.375	-71.798	-67.269	-68.170	-62.820	69.890	-62.227	-8191	255	
1923.263	1	1	0	0	0.19192	0.12431	0.28996	0.49579	0.36303	0.078942	0.063177	0.34502	0.16907	0.075549	0.18262	0.158	0.083437	0.18897	0.16774	0.14069	-1.3208	-2.1333	-1.475	-2.0833	-2.0229	-1.4625	-2.5521	-1.9729	-1.6875	-2.2938	-1.6479	-1.9146	-2.1229	-1.4937	-2.2313	-1.9688	29.894	261.498	48.302	237.106	-30.481	-33.630	257.679	194.733	49.912	174.098	-45.345	248.389	-63.435	79.085	39.843	-83.544	6.4328e-05	0.0002885	7.4645e-05	597.58	1.775e-06	2.7691e-06	926.66	158.67	1.3705e-06	2.7312e-06	298.78	80.428	35.522	7.8041	2.0254e-06	23.852	0.00011769	0.00011233	3.0679e-05	570.43	1.2452e-06	1.2463e-06	891.26	152.42	1.2487e-06	1.1415e-06	285.26	78.348	35.027	7.5896	1.1795e-06	23.031	218.271	2.915	19.819	-75.288	66.779	53.305	-75.199	-71.629	90.135	102.465	-71.719	-67.508	-68.004	-62.691	69.575	-62.018	-8191	255	
1923.360	1	1	0	0	0.16079	0.099415	0.17749	0.22926	0.036432	0.2406	0.28486	0.17691	0.25834	0.050388	0.043013	0.16171	0.18998	0.23651	0.1611	0.27589	-1.2812	-2.1896	-1.4312	-2.0292	-2.1729	-1.3312	-2.5292	-2.1021	-1.5542	-2.4667	-1.8104	-1.8188	-2.3271	-1.5083	-2.1958	-2.2083	110.739	121.502	11.849	-79.462	147.959	151.482	190.636	225.530	-21.295	-61.676	171.506	178.439	147.385	109.402	-29.422	193.144	5.4575e-05	0.00026666	9.5451e-05	598.28	1.5157e-06	2.5364e-06	925.27	158.43	1.0248e-06	1.6726e-06	297.33	79.628	36.052	7.5634	1.3563e-06	23.162	0.00011819	0.00010632	2.8736e-05	570.2	1.1875e-06	1.2281e-06	890.29	153.15	1.3046e-06	1.1221e-06	286.35	77.157	34.908	7.2944	1.124e-06	22.385	225.475	-7.759	12.065	-75.324	76.348	61.574	-75.261	-71.926	60.051	40.823	-71.911	-67.704	-67.867	-62.652	66.026	-61.736	-8191	255	
1923.456	1	1	0	0	0.19014	0.084973	0.1119	0.083125	0.17662	0.070269	0.15824	0.053264	0.17624	0.12563	0.098987	0.045511	0.14809	0.063457	0.044355	0.29345	-1.0812	-2.1854	-1.5875	-1.925	-2.3375	-1.5833	-2.3167	-2.3688	-1.5292	-2.1854	-1.8354	-1.9229	-2.2333	-1.5938	-1.95	-2.1125	216.757	77.618	-23.330	211.966	228.987	79.807	245.921	172.534	237.649	55.104	-44.843	76.043	174.380	167.669	12.838	118.188	5.3621e-05	0.00024161	6.001e-05	596.04	2.7669e-06	1.9316e-06	934.68	161.15	1.4752e-06	1.5231e-06	302.39	80.85	36.391	7.517	1.9741e-06	22.753	0.00012539	0.00010575	3.2939e-05	568.42	1.2466e-06	1.3135e-06	896.56	155.51	1.496e-06	1.2436e-06	289.62	78.734	35.58	7.2801	1.2364e-06	22.076	197.110	-12.942	3.688	-75.626	99.090	45.297	-75.080	-71.790	83.172	108.685	-71.701	-68.086	-68.371	-62.522	46.944	-62.409	-8191	255	
1923.552	1	1	0	0	0.12908	0.18762	0.13263	0.030122	0.22372	0.24039	0.29201	0.2715	0.11189	0.065149	0.23591	0.097648	0.16059	0.15185	0.14908	0.22881	-1.1021	-2.2917	-1.8042	-1.9208	-2.3875	-1.5271	-2.1521	-2.4542	-1.3146	-2.2896	-2.1708	-1.6333	-2.4375	-1.6	-1.875	-2.3563	-1.614	146.532	196.148	-39.379	86.616	1.230	225.610	-70.614	9.180	233.025	235.667	126.727	-77.907	232.356	176.192	172.558	5.1727e-05	0.00017979	7.8297e-05	586.21	1.2067e-06	3.1882e-06	923.67	158.51	1.3506e-06	2.0785e-06	297.26	74.929	33.482	6.8843	5.2444e-07	20.977	0.00012389	0.00011502	3.0828e-05	560.53	1.2642e-06	1.2666e-06	883.67	152.86	1.3109e-06	1.1442e-06	283.65	73.238	32.84	6.5977	9.9275e-07	20.405	212.234	3.101	21.604	-75.480	19.163	53.597	-74.888	-71.835	47.236	106.538	-72.097	-67.874	-67.808	-61.576	73.355	-61.575	-8191	255	
1923.648	1	1	0	0	0.094202	0.28852	0.12351	0.25017	0.1175	0.15125	0.17453	0.32299	0.13658	0.09133	0.21316	0.084162	0.072524	0.18152	0.069533	0.12883	-1.1437	-2.1813	-1.9979	-1.4937	-2.2896	-1.5312	-1.9958	-2.2896	-1.4042	-2.3104	-2.2854	-1.4688	-2.3521	-1.9062	-1.8875	-2.2979	-73.477	169.802	186.058	242.797	174.498	18.597	191.220	187.359	-6.776	243.125	226.343	220.073	72.950	135.249	-67.733	260.079	3.7069e-05	0.00017519	8.9857e-05	572.23	2.265e-06	9.1193e-07	900.21	155.21	1.1397e-06	3.5493e-06	289.82	69.234	30.516	6.6477	2.5496e-06	21.161	0.00011031	8.4638e-05	2.512e-05	545.65	1.0725e-06	1.0361e-06	861.83	149.17	1.0664e-06	9.2112e-07	276.83	67.144	30.067	6.4442	9.7782e-07	20.463	216.338	7.949	-7.896	-75.278	66.628	61.497	-75.280	-72.059	58.957	48.148	-71.934	-67.524	-67.870	-61.706	69.289	-61.733	-8191	255	
1923.769	1	1	0	0	0.13782	0.096391	0.14984	0.23528	0.21907	0.1675	0.22131	0.15966	0.13865	0.1418	0.04206	0.028348	0.072054	0.16831	0.16682	0.072629	-0.99375	-2.1771	-2.275	-1.3917	-2.2125	-1.6896	-1.8417	-2.1354	-1.5917	-1.9208	-2.2792	-1.5375	-2.3312	-2.0396	-1.7188	-2.5958	-77.319	220.905	146.691	150.034	-22.176	-62.291	190.508	196.054	143.589	-78.807	-9.201	68.653	-10.442	51.960	127.407	-35.173	5.5733e-05	0.00025687	5.4226e-05	562.01	9.4731e-07	3.2746e-06	883.28	153.98	1.3002e-06	1.9224e-06	285.74	67.11	29.652	6.7471	2.3105e-06	21.753	0.00010426	8.9118e-05	2.1559e-05	534.94	9.6544e-07	9.4623e-07	846.88	147.79	1.0017e-06	9.0983e-07	273.58	65.264	29.073	6.5352	8.88e-07	20.871	223.500	7.068	-13.923	-75.411	99.860	62.731	-75.347	-71.390	47.546	60.983	-72.050	-67.147	-67.393	-61.599	76.523	-61.295	-8191	255	
1923.865	1	1	0	0	0.086323	0.092996	0.17402	0.14914	0.2418	0.16039	0.04874	0.44674	0.27937	0.1105	0.029948	0.27426	0.14021	0.31056	0.16035	0.10317	-1.3125	-1.8625	-2.1792	-1.6271	-2.3646	-1.9979	-1.525	-2.3042	-1.7083	-1.925	-2.3917	-1.6063	-2.2625	-1.9583	-1.4083	-2.45	28.575	-0.610	99.763	268.932	210.865	174.401	226.174	218.141	249.144	159.309	-49.674	6.182	232.724	105.984	121.102	89.668	5.3509e-05	0.00030298	8.4695e-05	560.41	2.2161e-06	1.5215e-06	876.68	153.27	1.4551e-06	1.9335e-06	288.33	67.675	30.02	6.8991	1.7353e-06	21.749	9.1408e-05	7.1888e-05	2.0656e-05	532.72	9.6823e-07	7.9198e-07	840.54	147.36	9.6925e-07	8.3889e-07	275	65.35	29.32	6.6572	9.3492e-07	20.943	219.376	-11.136	20.361	-75.467	58.520	66.538	-75.424	-71.771	62.330	31.301	-71.797	-67.198	-67.067	-61.716	45.296	-62.031	-8191	255	
1923.959	1	1	0	0	0.28003	0.058076	0.14451	0.19114	0.12526	0.19562	0.25521	0.20377	0.20233	0.15552	0.2207	0.15872	0.24823	0.36527	0.18758	0.17417	-1.2604	-1.6375	-2.2708	-1.4937	-1.9542	-2.0521	-1.55	-2.4458	-1.6833	-1.7125	-2.4458	-1.7146	-1.9771	-2.0396	-1.4854	-2.3854	-54.747	-80.993	-51.861	-81.382	239.929	160.434	178.913	-89.388	-8.280	-24.749	-86.168	-18.399	242.846	152.582	220.270	223.077	5.4158e-05	0.00029341	8.6884e-05	559.25	4.8659e-08	2.7251e-06	875.31	155.16	5.7704e-07	1.7048e-06	287.68	67.716	30.301	6.9145	2.4419e-06	21.838	9.2833e-05	8.0004e-05	2.1951e-05	532.85	8.4769e-07	8.8034e-07	840.5	148.83	1.0235e-06	8.5043e-07	275.01	65.862	29.632	6.7096	9.6099e-07	21.095	228.289	-6.105	10.018	-75.594	-53.198	84.666	-75.437	-71.592	42.282	65.909	-71.592	-67.589	-67.720	-62.819	54.223	-61.654	-8191	255	
1924.057	1	1	0	0	0.22933	0.14636	0.28814	0.1474	0.19863	0.05207	0.056566	0.165	0.27617	0.074901	0.1024	0.15543	0.12044	0.20888	0.13069	0.33033	-1.2708	-1.4958	-2.3812	-1.6208	-1.8062	-2.1729	-1.5875	-2.2438	-1.8854	-1.5812	-2.4583	-1.45	-1.7833	-2.2	-1.3188	-2.3979	50.782	169.081	126.418	214.724	124.371	-49.295	139.397	215.941	-19.003	208.500	143.737	127.048	24.582	-20.509	226.450	223.885	3.8251e-05	0.00025605	9.495e-05	554.66	7.184e-07	2.7656e-06	873	155.44	2.1548e-06	3.0367e-06	291.17	68.837	30.355	7.0951	1.4471e-06	22.41	9.4754e-05	7.9915e-05	1.9679e-05	529.62	9.0355e-07	7.8532e-07	839.17	149.61	9.3933e-07	8.5877e-07	278.55	66.358	30	6.8158	8.0482e-07	21.587	230.737	-6.129	-13.331	-75.717	74.981	51.884	-75.427	-71.329	52.064	82.918	-71.981	-67.913	-67.753	-61.909	50.393	-61.965	-8191	255	
1924.152	1	1	0	0	0.34938	0.19159	0.11294	0.17717	0.12433	0.084365	0.26543	0.084476	0.084165	0.32625	0.13201	0.078364	0.091735	0.041737	0.058829	0.23575	-1.425	-1.3729	-2.2625	-1.6063	-1.9271	-2.2771	-1.6688	-2.1188	-1.9438	-1.6375	-2.5104	-1.6229	-1.6583	-2.3333	-1.3521	-2.1667	44.557	66.183	268.886	238.879	-7.068	20.332	-57.975	-65.790	78.218	172.876	-82.651	-13.631	91.217	74.039	227.552	-69.296	4.558e-05	0.0001779	6.8154e-05	559	1.5375e-06	1.825e-06	884.12	157.21	3.3749e-07	2.4419e-06	293.6	69.137	31.066	7.2356	1.6606e-06	22.958	9.7464e-05	7.6722e-05	2.0363e-05	533.69	9.6081e-07	6.9376e-07	844.77	151.08	9.1475e-07	8.7006e-07	280.55	67.351	30.441	7.0198	8.9061e-07	22.115	228.075	-4.602	17.865	-75.681	45.782	36.996	-75.246	-71.930	93.419	48.210	-72.145	-67.466	-66.977	-62.051	76.093	-62.078	-8191	255	
1924.248	1	1	0	0	0.14131	0.077248	0.024335	0.10991	0.23219	0.25874	0.22618	0.029668	0.046142	0.07303	0.11287	0.060931	0.11986	0.064779	0.050079	0.15281	-1.5333	-1.4625	-2.2292	-1.8854	-1.6562	-2.2646	-1.5688	-2.0979	-2.1083	-1.5312	-2.2271	-1.8937	-1.6562	-2.3417	-1.4438	-1.9396	43.709	127.889	102.988	-53.156	216.305	239.591	211.865	66.648	187.228	267.738	-31.983	28.014	-66.416	29.152	136.451	42.641	4.9826e-05	0.00027018	5.0643e-05	568.87	1.7448e-06	2.0979e-06	890.81	161.67	1.0408e-06	3.0027e-06	303.89	71.735	32.894	7.4882	1.9208e-06	23.413	8.9348e-05	8.486e-05	2.0793e-05	541.2	9.8492e-07	7.9223e-07	855.07	155.39	9.6438e-07	9.1449e-07	289.49	69.999	31.986	7.2138	8.7496e-07	22.545	212.103	6.755	12.747	-75.725	82.672	38.468	-75.134	-71.989	89.499	67.117	-71.602	-68.045	-67.243	-61.947	75.616	-62.423	-8191	255	
1924.344	1	1	0	0	0.1321	0.063091	0.16763	0.37324	0.095703	0.16628	0.15695	0.16792	0.24291	0.1873	0.13439	0.076294	0.22159	0.20468	0.058252	0.16121	-1.8396	-1.5146	-2.15	-1.9958	-1.5771	-2.4771	-1.6771	-2.0312	-2.2938	-1.55	-2.3187	-1.9562	-1.6021	-2.2479	-1.6292	-2.1	46.985	-56.114	-88.050	264.417	89.133	-0.982	213.024	91.756	189.916	136.124	253.827	171.383	-66.144	22.854	6.859	267.330	4.5832e-05	0.00021478	4.9233e-05	575.42	1.3664e-06	1.4241e-06	890.4	164.48	1.0441e-06	1.8824e-06	304.76	72.689	33.132	7.5203	2.3168e-06	23.538	9.3112e-05	8.098e-05	1.9249e-05	546.1	9.5965e-07	8.0136e-07	854.98	157.96	8.6117e-07	8.4258e-07	291.07	70.535	32.491	7.2828	9.0032e-07	22.668	203.933	-1.392	20.196	-75.863	52.447	38.513	-75.371	-72.067	6.774	64.238	-72.076	-67.855	-67.642	-62.498	30.959	-62.068	-8191	255	
1924.464	1	1	0	0	0.12294	0.33095	0.18137	0.047592	0.12182	0.17752	0.21549	0.1615	0.21853	0.044424	0.23585	0.085774	0.22255	0.20933	0.24316	0.25793	-1.7687	-1.4833	-2.1646	-2.1188	-1.5146	-2.4062	-1.9312	-1.8479	-2.3229	-1.4333	-2.2271	-2.2083	-1.5438	-2.4375	-1.7729	-1.7604	-34.320	25.685	-47.523	183.460	169.490	132.937	185.788	160.825	63.819	155.511	-40.176	99.549	-77.563	47.662	159.252	51.911	5.0856e-05	0.00025639	5.0531e-05	570.95	1.8616e-06	1.2841e-06	895.87	167.1	1.9049e-06	2.8e-06	307.89	74.004	34.091	7.5253	2.0534e-06	23.75	9.0169e-05	7.3884e-05	2.0594e-05	545.55	9.8283e-07	7.4706e-07	860.73	159.95	9.2959e-07	8.6712e-07	294.39	72.169	33.433	7.3416	8.451e-07	22.951	201.405	-1.375	7.300	-75.556	66.452	77.631	-75.440	-71.712	71.372	69.378	-72.250	-68.006	-67.628	-61.640	79.394	-61.744	-8191	255	
1924.561	1	1	0	0	0.22098	0.22595	0.082724	0.17007	0.21533	0.13507	0.2486	0.036873	0.11591	0.19488	0.22209	0.083974	0.29535	0.056817	0.2101	0.25661	-2.0979	-1.4625	-1.9813	-2.2792	-1.5729	-2.4292	-2.1875	-1.6521	-2.3521	-1.5896	-1.9979	-2.2562	-1.4479	-2.2313	-1.8937	-1.4188	119.615	9.573	76.110	-85.301	3.297	-81.010	203.642	-56.903	-19.808	-86.681	242.373	-65.032	71.246	179.778	5.835	195.541	5.6407e-05	0.00026693	5.1893e-05	577.57	2.1558e-06	2.3124e-06	901.27	169.2	1.244e-06	3.0231e-06	310.89	75.489	34.711	7.8015	1.5183e-06	24.069	9.5079e-05	8.2088e-05	2.0861e-05	550.39	1.0378e-06	8.137e-07	865.13	161.97	9.449e-07	8.843e-07	298.41	73.437	33.961	7.4791	8.2923e-07	23.239	219.775	-2.741	19.216	-75.543	69.150	76.329	-75.357	-71.699	34.617	76.390	-71.857	-67.546	-67.279	-62.697	43.160	-62.022	-8191	255	
1924.657	1	1	0	0	0.11953	0.13064	0.31421	0.23405	0.31235	0.22282	0.17521	0.20366	0.15518	0.073697	0.053659	0.17929	0.11388	0.42199	0.11929	0.18261	-2.05	-1.4813	-1.7646	-2.4229	-1.4646	-2.2354	-2.1354	-1.5333	-2.5812	-1.6896	-1.975	-2.4542	-1.6208	-2.0771	-2.1667	-1.5521	83.596	179.730	154.336	208.183	158.697	166.285	189.842	254.596	-68.453	59.765	-45.514	265.621	-13.753	-75.517	-43.435	-50.887	6.0059e-05	0.00021736	5.0155e-05	582.39	2.0235e-06	1.9209e-06	910.04	171.27	1.2818e-06	2.1467e-06	317.16	76.511	35.715	7.9041	1.5914e-06	24.34	9.1795e-05	8.0581e-05	2.2218e-05	555.93	1.0218e-06	7.9741e-07	872.98	164.56	9.398e-07	8.8307e-07	302.37	74.598	34.929	7.6064	7.4604e-07	23.445	218.196	12.514	-9.531	-75.153	54.913	66.281	-75.093	-71.578	70.306	79.102	-71.899	-67.834	-67.923	-61.340	87.588	-61.944	-8191	255	
1924.728	1	1	0	0	0.041549	0.26526	0.063707	0.23452	0.16041	0.35866	0.2676	0.15453	0.13147	0.21157	0.068683	0.10144	0.34137	0.25906	0.11035	0.10296	-2.1271	-1.7729	-1.7833	-2.3625	-1.6146	-2.0771	-2.4104	-1.4729	-2.525	-1.9167	-1.6958	-2.4542	-1.6583	-2.0062	-2.1479	-1.4667	141.607	156.285	86.774	258.002	171.713	-15.094	210.263	248.033	142.224	-37.246	170.973	160.506	158.167	83.487	228.970	232.764	4.0085e-05	0.00026201	6.5638e-05	584.41	1.7631e-06	2.8419e-06	911.44	173.59	1.8606e-06	2.9099e-06	315.34	78.422	35.987	7.8607	1.7985e-06	24.27	9.8905e-05	7.9827e-05	2.1198e-05	558.19	9.6892e-07	8.1444e-07	874.65	166.25	9.2704e-07	8.4503e-07	303.17	75.944	35.419	7.6307	8.6857e-07	23.439	198.185	-6.829	12.921	-75.132	76.443	71.932	-75.250	-71.668	52.952	75.545	-72.024	-67.499	-68.113	-61.912	50.155	-61.950	-8191	255	
1924.849	1	1	0	0	0.087926	0.061344	0.11549	0.14798	0.26761	0.20435	0.16208	0.15261	0.096333	0.21734	0.27057	0.26386	0.20244	0.18148	0.023382	0.18764	-1.8792	-1.7563	-1.5583	-2.5563	-1.6646	-1.9292	-2.4333	-1.4688	-2.3917	-1.8563	-1.5792	-2.4729	-1.6667	-1.8021	-2.2917	-1.4583	-76.648	215.048	220.085	-26.891	-11.457	112.497	142.743	126.198	-80.424	266.852	-79.850	69.852	140.963	218.225	176.412	220.687	5.3867e-05	0.00031058	7.3739e-05	583.26	1.1288e-06	1.7155e-06	908.95	172.38	5.6301e-07	3.2583e-06	316.96	78.82	36.682	7.9403	2.3751e-06	24.616	9.2833e-05	8.231e-05	2.3345e-05	557.14	9.4018e-07	7.441e-07	869.77	166	9.1173e-07	7.9324e-07	303.65	76.275	35.696	7.6889	7.714e-07	23.732	218.154	-8.959	-4.768	-75.296	80.297	47.809	-75.226	-71.484	64.331	85.216	-72.054	-67.719	-68.049	-61.969	62.144	-61.822	-8191	255	
1924.945	1	1	0	0	0.25465	0.10654	0.20053	0.16823	0.20435	0.19759	0.11894	0.32594	0.31419	0.20655	0.11219	0.14477	0.10558	0.12593	0.16051	0.1972	-1.925	-1.9708	-1.3646	-2.4437	-1.6187	-1.9062	-2.6354	-1.5042	-2.1521	-2.0604	-1.5854	-2.6375	-1.7646	-1.7771	-2.3271	-1.5667	12.768	226.391	-16.346	-37.438	40.179	-58.124	170.532	154.447	-1.093	-78.088	-32.755	199.542	253.813	181.900	215.809	260.502	6.2048e-05	0.00033882	8.4588e-05	587.28	1.145e-06	1.6182e-06	908.1	174.46	2.5251e-07	2.3437e-06	318.55	79.582	36.453	8.012	1.2599e-06	24.529	9.8208e-05	7.8407e-05	2.3202e-05	558.49	9.1259e-07	7.8532e-07	870.84	167.05	9.3702e-07	8.2417e-07	305.13	76.743	35.722	7.71	8.2235e-07	23.765	205.989	1.600	22.724	-75.211	55.736	36.030	-75.174	-71.773	75.911	41.508	-71.688	-67.481	-67.952	-62.414	48.066	-61.853	-8191	255	
1925.041	1	1	0	0	0.11301	0.26145	0.16406	0.071525	0.044233	0.14356	0.19461	0.34339	0.41656	0.031143	0.16155	0.16087	0.12443	0.16849	0.038533	0.22336	-1.7292	-2.2271	-1.4458	-2.5167	-1.9979	-1.7188	-2.475	-1.6938	-1.9792	-2.3167	-1.675	-2.4896	-1.7792	-1.6021	-2.2313	-1.7479	174.900	-25.901	-3.082	252.803	29.717	-10.202	226.278	253.091	240.937	59.937	96.326	-7.513	-2.863	-22.534	166.505	164.016	6.5999e-05	0.00030176	0.00010809	584.93	1.9472e-06	2.1296e-06	912.18	174.69	1.7638e-06	2.1289e-06	323.28	79.506	36.582	8.009	1.7639e-06	24.94	9.9013e-05	7.415e-05	2.3949e-05	558.53	9.0193e-07	8.1222e-07	873.47	167.72	9.6624e-07	8.1018e-07	306.89	77.256	35.982	7.717	8.1524e-07	23.886	220.155	-9.768	8.741	-75.185	53.204	55.535	-75.069	-71.549	69.052	83.027	-71.914	-67.525	-67.723	-61.556	68.285	-61.894	-8191	255	
1925.137	1	1	0	0	0.23652	0.16308	0.27119	0.27383	0.25346	0.1341	0.32167	0.092832	0.19097	0.19277	0.17835	0.35466	0.16689	0.064518	0.34017	0.062352	-1.7333	-2.2583	-1.5708	-2.4688	-2.0333	-1.6688	-2.5354	-1.9146	-1.9937	-2.4958	-1.65	-2.3896	-2.1688	-1.5833	-2.4167	-1.8604	177.179	-65.360	190.875	-57.606	22.127	172.971	259.287	231.891	-6.908	58.384	-77.796	-30.846	57.638	-44.497	7.568	157.903	6.0299e-05	0.00026518	5.6927e-05	584.66	2.7997e-06	1.5327e-06	913.44	173.31	1.8256e-06	2.0874e-06	316.68	78.574	37.116	7.9918	1.0116e-06	24.543	0.00010454	7.6589e-05	2.2941e-05	558.46	9.0889e-07	8.2209e-07	871.55	166.75	1.0268e-06	7.9938e-07	303.54	76.544	36.056	7.7185	7.8325e-07	23.628	228.177	13.909	-2.238	-75.083	72.361	45.106	-74.810	-71.469	46.819	71.090	-71.698	-67.510	-68.270	-61.450	93.054	-61.590	-8191	255	
1925.256	1	1	0	0	0.16066	0.25962	0.1261	0.2222	0.031269	0.2319	0.16438	0.37744	0.16029	0.29446	0.19427	0.21832	0.1221	0.23519	0.23301	0.10128	-1.5438	-2.275	-1.5125	-2.3021	-2.1667	-1.4896	-2.6625	-1.8229	-1.8271	-2.4062	-1.7521	-2.3167	-2.2771	-1.5438	-2.4062	-1.8854	-74.806	-27.076	-72.932	-63.431	231.221	198.891	268.333	235.342	-17.875	233.497	-84.033	238.019	224.245	-67.829	88.676	12.807	4.2212e-05	0.00025544	8.1359e-05	583.22	1.7205e-06	2.943e-06	908.86	173.73	1.5736e-06	2.5617e-06	317	79.23	37.371	7.9568	3.5378e-06	24.602	0.00010135	6.6456e-05	2.1696e-05	555.97	9.4667e-07	8.3443e-07	869.92	166.67	1.0154e-06	8.1116e-07	303.96	76.812	36.052	7.705	8.1714e-07	23.641	200.695	0.926	-3.090	-74.927	79.030	63.397	-74.935	-71.651	50.940	39.900	-71.683	-67.632	-67.954	-62.087	76.856	-62.731	-8191	255	
1925.330	1	1	0	0	0.11268	0.33317	0.1237	0.1038	0.16262	0.16578	0.26632	0.31135	0.13107	0.22065	0.027129	0.13979	0.080657	0.07113	0.11299	0.055916	-1.325	-2.3312	-1.5521	-2.2083	-2.2583	-1.5187	-2.5667	-1.7771	-1.5521	-2.3979	-1.6604	-2.1063	-2.4583	-1.5771	-2.2042	-1.9896	239.131	142.678	181.016	142.317	235.876	37.200	188.275	-75.978	239.345	258.365	-80.452	250.715	103.778	-19.917	173.856	-80.248	6.5357e-05	0.00027232	8.5959e-05	586.11	2.3207e-06	2.3629e-06	906.65	173.7	1.2024e-06	3.9106e-06	318.81	80.068	37.394	8.0055	1.6124e-06	24.769	9.5776e-05	7.721e-05	2.2891e-05	557.9	9.4157e-07	8.527e-07	868.71	167.41	1.0191e-06	8.0944e-07	305.59	77.627	36.384	7.7375	8.2851e-07	23.788	213.651	-14.248	1.438	-75.315	53.711	50.754	-75.558	-71.987	81.751	71.053	-72.355	-67.899	-67.636	-62.465	62.437	-62.312	-8191	255	
1925.449	1	1	0	0	0.33999	0.19126	0.11524	0.099614	0.23703	0.29305	0.25898	0.26132	0.19955	0.07968	0.096475	0.095835	0.085741	0.26936	0.26093	0.13655	-1.2812	-2.4062	-1.7083	-1.85	-2.2958	-1.4792	-2.425	-2.2458	-1.5104	-2.1729	-1.8563	-1.6562	-2.3479	-1.5229	-2.0438	-2.1458	148.131	29.261	-38.146	38.113	229.419	47.275	-32.991	-7.555	168.821	85.695	148.390	-82.295	-63.086	-6.908	79.186	110.584	6.5116e-05	0.00032717	6.909e-05	583.38	1.035e-06	2.2865e-06	906.6	174.82	1.9705e-06	2.0759e-06	320.05	80.355	37.546	8.0845	2.6682e-06	24.785	0.00010138	7.231e-05	2.2474e-05	557.35	8.973e-07	8.6898e-07	869.52	168.5	1.0797e-06	8.6368e-07	306.79	77.86	36.658	7.7954	8.5766e-07	23.838	220.911	8.635	21.476	-75.503	90.247	69.361	-75.196	-71.958	48.585	100.596	-72.099	-67.849	-68.329	-62.693	48.940	-62.230	-8191	255	
1925.545	1	1	0	0	0.25254	0.2769	0.13068	0.14211	0.15023	0.10598	0.52581	0.30643	0.27583	0.1544	0.26522	0.1329	0.1832	0.20962	0.20051	0.035089	-1.1187	-2.2146	-1.7104	-1.8354	-2.3146	-1.4354	-2.2604	-2.1708	-1.7	-2.6	-1.9083	-1.7271	-2.4271	-1.5583	-2.0458	-2.1667	-25.818	31.979	106.097	15.010	39.652	-74.850	206.035	231.813	161.978	249.134	203.808	-87.604	92.409	98.740	-30.861	-54.441	6.0211e-05	0.0001648	4.6974e-05	584.64	1.7939e-06	2.3218e-06	905.7	174.48	8.5774e-07	3.2571e-06	319.52	80.331	37.342	8.025	1.8515e-06	24.328	0.00010188	7.5946e-05	2.1509e-05	557.55	8.9266e-07	8.6528e-07	866.46	167.89	1.0611e-06	8.2564e-07	305.68	77.852	36.474	7.7424	8.3799e-07	23.508	208.237	8.064	-34.210	-75.213	86.977	43.996	-74.917	-72.183	21.742	49.332	-72.268	-67.680	-68.342	-62.346	47.357	-62.212	-8191	255	
1925.641	1	1	0	0	0.19357	0.27183	0.10424	0.039566	0.22963	0.26497	0.41346	0.15768	0.072019	0.22727	0.15161	0.10805	0.067636	0.01067	0.17771	0.13677	-1.1146	-2.3688	-2.0521	-1.7146	-2.5417	-1.6812	-2.1583	-2.5542	-1.5562	-2.425	-2.0146	-1.6792	-2.275	-1.8167	-1.875	-2.5083	-47.374	36.035	70.648	178.520	-10.083	17.390	226.758	2.745	-17.241	136.643	254.817	206.720	70.928	198.963	32.179	179.738	5.2252e-05	0.00032344	7.9817e-05	581.46	2.1123e-06	2.1523e-06	897.93	174.21	1.1368e-06	2.906e-06	317.78	80.13	37.052	7.9842	1.5345e-06	24.518	9.9633e-05	7.9583e-05	2.1023e-05	554.87	8.5117e-07	8.1568e-07	862.64	168.04	1.0528e-06	8.4675e-07	304.81	77.673	36.486	7.6994	8.8824e-07	23.544	201.241	-4.589	-5.323	-75.346	94.829	47.048	-74.904	-71.661	69.346	76.072	-72.219	-68.143	-67.732	-63.242	66.000	-62.220	-8191	255	
1925.737	1	1	0	0	0.18123	0.16661	0.18199	0.30304	0.17463	0.096941	0.17247	0.27136	0.2577	0.21064	0.12939	0.22736	0.11716	0.0527	0.3452	0.26677	-1.1417	-2.1229	-2.25	-1.5708	-2.2938	-1.9729	-1.6771	-2.3792	-1.5292	-2.1521	-2.2083	-1.6104	-2.2625	-1.875	-1.4625	-2.5167	188.243	22.662	185.786	-82.021	123.167	137.199	194.123	251.367	-59.226	55.266	9.429	239.868	-40.079	42.496	-56.339	136.481	5.6864e-05	0.00021218	6.9396e-05	580.37	1.5257e-06	2.7585e-06	897.74	175.29	1.6663e-06	2.9364e-06	316.98	80.398	37.633	7.947	2.4406e-06	24.481	0.00010378	7.5946e-05	2.2063e-05	556.52	8.7412e-07	9.0847e-07	863.61	167.93	1.0667e-06	8.8111e-07	304.33	78.081	36.758	7.727	8.5079e-07	23.666	210.449	-5.285	-0.201	-76.132	64.859	54.848	-75.330	-72.063	27.027	61.094	-72.646	-67.841	-67.853	-62.402	79.787	-62.409	-8191	255	
1925.858	1	1	0	0	0.38786	0.23661	0.12246	0.09858	0.18201	0.29305	0.16583	0.077057	0.21264	0.27419	0.064144	0.18363	0.097015	0.29668	0.28713	0.10122	-1.0542	-1.9062	-2.3875	-1.4521	-2.4292	-1.9625	-1.8396	-2.55	-1.4521	-2.0375	-2.5021	-1.5417	-2.2958	-1.9604	-1.6021	-2.3833	-19.671	243.001	224.725	246.474	163.979	226.967	221.408	118.407	-61.774	16.418	173.059	18.315	16.045	219.236	236.681	118.380	6.6178e-05	0.00025648	7.1873e-05	584.23	9.9854e-07	2.7908e-06	901.79	176.13	1.1295e-06	3.2244e-06	320.45	80.432	37.51	8.2066	2.8029e-06	24.728	0.00010075	7.9383e-05	2.2368e-05	556.46	9.2859e-07	9.5314e-07	863.26	168.87	1.0031e-06	8.2638e-07	306.45	77.943	36.71	7.8354	8.2923e-07	23.881	205.584	-12.061	-8.834	-75.600	63.546	58.637	-75.343	-71.992	42.810	54.204	-72.065	-67.587	-67.725	-62.433	65.803	-61.998	-8191	255	
1925.952	1	1	0	0	0.067735	0.23091	0.15392	0.088398	0.055703	0.082869	0.15567	0.22944	0.12596	0.1194	0.13096	0.39793	0.10996	0.34135	0.19177	0.18998	-1.2812	-1.9958	-2.3792	-1.5417	-2.1437	-2.2021	-1.9333	-2.2708	-1.675	-1.6958	-2.5021	-1.6875	-2.0917	-2.1604	-1.5917	-2.2917	125.076	268.550	127.527	9.792	-75.146	-7.642	236.307	192.035	-76.840	128.010	93.879	190.799	130.035	-6.610	-41.829	135.867	6.4241e-05	0.00019999	6.2094e-05	578.68	1.4779e-06	3.2073e-06	899.57	174.9	8.6721e-07	3.2068e-06	318.23	79.565	37.28	8.0864	3.2139e-06	24.756	9.5017e-05	7.6545e-05	1.8633e-05	554.73	8.8478e-07	8.3098e-07	861.58	168.07	1.0054e-06	8.7792e-07	305.34	77.101	36.384	7.7883	9.3421e-07	23.817	215.489	10.013	10.520	-75.326	67.968	59.883	-75.244	-71.885	13.660	59.621	-72.394	-67.862	-67.928	-62.366	32.499	-62.381	-8191	255	
1926.026	1	1	0	0	0.15474	0.16409	0.12359	0.082394	0.30676	0.35151	0.24171	0.2963	0.12935	0.29871	0.088596	0.14635	0.17416	0.11806	0.046333	0.47056	-1.4021	-1.7896	-2.3812	-1.7167	-2.2104	-2.2292	-1.6771	-2.45	-1.9021	-1.8375	-2.4292	-1.7833	-1.9917	-2.2271	-1.4271	-2.4583	93.986	177.000	14.855	-2.942	61.085	184.814	251.009	169.215	-49.018	156.972	-82.253	244.308	263.523	244.939	160.481	236.827	5.5952e-05	0.00028813	7.2667e-05	579.61	9.0039e-07	3.3982e-06	886.03	174.67	1.2796e-06	1.8057e-06	317.86	78.506	37.01	8.0765	2.1572e-06	24.619	9.9246e-05	7.8962e-05	2.0295e-05	552.53	8.5905e-07	8.0728e-07	854.28	167.4	9.4119e-07	8.7252e-07	303.93	76.515	36.23	7.7989	8.4226e-07	23.881	204.874	-12.261	7.098	-75.650	61.939	60.581	-75.629	-72.212	65.190	91.992	-72.405	-67.987	-68.070	-62.889	54.087	-62.358	-8191	255	
1926.144	1	1	0	0	0.10972	0.055154	0.13853	0.19323	0.12575	0.21882	0.063953	0.13024	0.21091	0.16485	0.1081	0.097051	0.13517	0.25641	0.17592	0.067421	-1.5604	-1.4813	-2.4604	-1.6063	-1.7896	-2.2313	-1.5812	-2.275	-1.9167	-1.6021	-2.4854	-1.5938	-1.7354	-2.2021	-1.4375	-2.3438	-11.051	193.845	180.783	259.852	266.639	6.356	221.291	145.679	211.317	-49.688	45.994	82.805	265.123	129.288	87.735	157.971	5.3944e-05	0.00026005	7.885e-05	581.67	1.8453e-06	3.8741e-06	892.12	172.93	1.3558e-06	2.5558e-06	317.15	78.749	36.997	8.175	1.8843e-06	25.066	9.6101e-05	8.7521e-05	2.0027e-05	552.54	9.2743e-07	7.6952e-07	856.88	167.11	9.885e-07	7.7606e-07	304.06	76.542	36.187	7.8357	8.9985e-07	24.033	206.309	15.872	-6.039	-75.465	71.458	86.387	-75.224	-71.803	80.849	55.312	-72.391	-68.278	-67.933	-63.186	65.331	-62.316	-8191	255	
1926.241	1	1	0	0	0.13076	0.24773	0.10762	0.14174	0.091564	0.18118	0.32743	0.25196	0.08722	0.16069	0.27953	0.19942	0.2382	0.15676	0.11268	0.34502	-1.7146	-1.5583	-2.4646	-1.8646	-1.7104	-2.3271	-1.5625	-2.2938	-2.0625	-1.5063	-2.5396	-1.8438	-1.6125	-2.4521	-1.4583	-2.0312	75.526	-54.612	0.350	120.720	161.556	115.237	204.110	228.184	85.369	-49.009	214.736	145.004	229.770	-57.424	101.101	-13.331	5.6334e-05	0.00019331	7.3149e-05	577.03	1.7509e-06	3.0616e-06	895.22	174.88	1.3962e-06	2.5082e-06	318.72	79.113	37.572	8.176	1.7378e-06	24.84	9.9788e-05	8.6368e-05	2.0127e-05	552.97	9.3832e-07	7.4558e-07	858.57	167.94	9.6995e-07	8.8258e-07	305.63	76.765	36.397	7.9024	8.6335e-07	24.103	206.644	33.897	-9.723	-75.646	64.012	31.112	-75.526	-72.158	13.149	87.313	-72.315	-68.157	-68.121	-62.839	43.508	-62.217	-8191	255	
1926.337	1	1	0	0	0.16994	0.22058	0.040775	0.17624	0.21128	0.30532	0.28119	0.11861	0.044568	0.11641	0.23997	0.29993	0.090223	0.068982	0.087366	0.18329	-1.7271	-1.3563	-2.3708	-1.9667	-1.5396	-2.4833	-1.6625	-2.0875	-2.25	-1.5625	-2.3438	-1.9792	-1.7604	-2.3833	-1.7708	-2.1375	58.563	90.185	111.118	-75.429	148.104	-52.370	192.504	203.592	-52.181	-26.135	247.256	188.524	248.614	3.028	66.872	149.236	6.4316e-05	0.00034948	8.3095e-05	580.47	2.4129e-06	2.6449e-06	897.08	175.73	8.6366e-07	1.1892e-06	319.05	78.97	37.408	8.2507	1.4158e-06	24.782	9.8688e-05	8.0492e-05	2.1023e-05	554.4	1.0426e-06	7.7249e-07	856.4	168.38	9.5418e-07	8.1092e-07	305.04	76.886	36.434	7.8993	8.3207e-07	24.027	218.347	-12.612	10.125	-75.795	74.732	53.251	-75.279	-71.747	67.672	46.717	-72.544	-68.091	-67.570	-62.286	56.333	-62.532	-8191	255	
1926.433	1	1	0	0	0.24858	0.10355	0.025401	0.15675	0.13659	0.30757	0.18666	0.18462	0.21205	0.22086	0.071079	0.0433	0.28097	0.093761	0.058968	0.27543	-1.9458	-1.5875	-2.1646	-1.9813	-1.5833	-2.5021	-1.6917	-1.8333	-2.4604	-1.4604	-2.2625	-2.3208	-1.5812	-2.4417	-1.8854	-2.0271	36.980	-88.194	106.726	92.760	242.702	-26.521	233.682	178.558	62.714	256.553	197.053	174.428	231.929	116.145	-19.256	95.611	6.6162e-05	0.00025857	6.0218e-05	578.89	1.8736e-06	2.5671e-06	888.06	176.12	9.8478e-07	2.7481e-06	316.69	78.956	37.615	8.1782	2.7804e-06	24.881	9.5466e-05	8.2665e-05	2.1154e-05	552.99	8.9127e-07	8.2135e-07	851.36	168.61	9.5325e-07	8.7301e-07	304.32	76.856	36.551	7.8563	9.271e-07	23.879	218.568	4.432	14.320	-75.504	54.329	37.023	-75.692	-72.361	61.722	47.760	-72.301	-68.143	-67.670	-62.450	66.256	-62.327	-8191	255	
1926.554	1	1	0	0	0.33887	0.15764	0.085654	0.23846	0.27162	0.15962	0.18808	0.22578	0.29088	0.25827	0.27298	0.21247	0.33214	0.14502	0.18246	0.27455	-1.9188	-1.4542	-1.9729	-2.5208	-1.3792	-2.3125	-1.8208	-1.6729	-2.4313	-1.6333	-2.1854	-2.2854	-1.4188	-2.3792	-1.7292	-1.625	-43.960	148.194	230.003	185.727	-88.147	53.769	137.573	5.782	-80.167	253.029	40.176	233.171	-51.393	214.771	264.584	206.527	5.6198e-05	0.00033475	8.1225e-05	580.2	2.0669e-06	2.9115e-06	891.14	177.2	1.8419e-06	1.2754e-06	320.64	79.985	37.815	8.227	2.8513e-06	24.796	9.8007e-05	7.9937e-05	2.0973e-05	553.06	1.0452e-06	8.5245e-07	854.47	169.94	9.4861e-07	9.0516e-07	306.29	77.417	36.823	7.9209	8.8302e-07	24.025	218.542	13.410	-0.950	-75.604	66.132	41.905	-75.564	-72.098	70.702	49.773	-71.838	-67.965	-68.448	-62.598	66.216	-62.408	-8191	255	
1926.625	1	1	0	0	0.2746	0.058186	0.10394	0.13463	0.096107	0.27838	0.12512	0.20738	0.1496	0.10124	0.22962	0.13589	0.18735	0.18855	0.093018	0.11673	-1.8958	-1.5604	-1.9208	-2.5958	-1.4417	-2.2146	-2.1667	-1.6125	-2.3708	-1.6688	-1.9667	-2.4229	-1.4792	-2.2438	-1.9542	-1.4937	-57.512	-71.801	167.403	209.621	164.296	34.394	195.760	187.947	-73.807	-47.016	66.399	236.902	96.918	-40.779	178.523	-61.941	4.4855e-05	0.00023118	6.7902e-05	583.52	2.1753e-06	3.0439e-06	892.37	177.78	1.8176e-06	3.4464e-06	321.26	80.175	37.963	8.1905	1.6954e-06	24.797	9.9044e-05	8.0337e-05	2.164e-05	556.33	1.0127e-06	8.754e-07	856.83	170.81	9.5928e-07	8.7866e-07	307.65	77.808	37.095	7.9391	9.0601e-07	24.152	203.769	11.986	21.563	-75.929	74.483	65.682	-75.247	-71.836	35.617	71.038	-71.763	-68.025	-68.117	-62.016	55.472	-62.093	-8191	255	
1926.721	1	1	0	0	0.42042	0.23476	0.089446	0.19335	0.10213	0.11874	0.044197	0.27735	0.057916	0.099372	0.23916	0.13245	0.086739	0.14228	0.11577	0.14883	-2.0875	-1.725	-1.825	-2.3917	-1.5312	-2.3396	-2.3167	-1.6104	-2.3646	-1.9229	-1.6833	-2.3042	-1.5958	-2.275	-2.1083	-1.6875	232.588	-27.991	40.140	215.780	51.270	193.728	198.924	-59.184	82.584	270.205	89.947	-26.225	46.279	223.977	33.373	196.071	4.9841e-05	0.00018845	0.00010604	584.46	1.4618e-06	2.6843e-06	896.28	177.31	1.8892e-06	2.658e-06	321.13	80.465	38.051	8.2165	2.8065e-06	24.864	9.5172e-05	7.9206e-05	2.1328e-05	558.64	1.0762e-06	8.5047e-07	858.51	171.17	9.4606e-07	8.9952e-07	307.75	77.915	37.086	7.9202	9.1667e-07	23.965	207.670	8.261	4.078	-75.406	67.217	45.561	-75.438	-71.744	86.163	59.510	-72.033	-67.729	-68.232	-62.202	48.016	-62.055	-8191	255	
1926.817	1	1	0	0	0.025265	0.26545	0.05394	0.17145	0.1692	0.16703	0.14803	0.2086	0.010486	0.098069	0.16682	0.078782	0.12725	0.27128	0.24936	0.1483	-1.9937	-1.6917	-1.6146	-2.5396	-1.6167	-2.0729	-2.5104	-1.6979	-2.4646	-2.0146	-1.5104	-2.4938	-1.6729	-2.1271	-2.3	-1.6187	39.377	15.593	68.348	70.319	176.086	75.177	110.750	170.971	23.865	-71.789	51.253	0.430	20.862	176.981	-80.122	-62.951	5.8313e-05	0.0002583	7.2058e-05	584.96	1.8854e-06	3.2408e-06	892.82	177.34	8.0339e-07	2.5541e-06	316.91	79.385	37.494	8.1316	2.1898e-06	24.812	9.1795e-05	8.0292e-05	2.2461e-05	556.93	1.0016e-06	8.0432e-07	854.71	170.03	9.057e-07	8.1705e-07	305.26	77.26	36.798	7.8673	8.47e-07	23.907	205.290	-22.174	16.623	-75.591	64.155	35.301	-75.225	-71.970	87.689	77.400	-71.956	-67.691	-68.074	-61.772	50.919	-62.006	-8191	255	
1926.938	1	1	0	0	0.11523	0.18075	0.42994	0.19635	0.049286	0.27971	0.06789	0.2184	0.0096612	0.1511	0.11635	0.18058	0.17452	0.16455	0.0861	0.24748	-1.9667	-1.9646	-1.4292	-2.55	-1.775	-2.0229	-2.5333	-1.5854	-2.1	-2.0687	-1.6396	-2.5167	-1.6792	-1.5083	-2.3896	-1.6625	-83.411	20.251	127.570	196.988	216.224	120.313	-61.768	187.087	207.547	-31.017	147.065	241.567	49.700	18.279	178.070	-67.985	5.3939e-05	0.00028117	8.4165e-05	584.7	2.6653e-06	2.8149e-06	891.51	177.42	1.2926e-06	1.9082e-06	319.68	79.924	37.636	8.2115	1.7561e-06	24.819	9.401e-05	7.4261e-05	2.1054e-05	556.88	9.578e-07	8.4702e-07	856.31	170.08	9.3957e-07	8.0453e-07	306.71	77.538	36.709	7.9453	8.4842e-07	24.051	208.105	-23.167	-10.777	-75.922	73.871	68.750	-75.156	-71.966	58.428	62.699	-71.933	-68.110	-68.074	-62.259	79.099	-62.353	-8191	255	
1927.033	1	1	0	0	0.19315	0.18463	0.1214	0.14478	0.061322	0.15011	0.20541	0.33933	0.071685	0.23731	0.094606	0.24733	0.13253	0.33345	0.060795	0.10133	-1.8062	-1.9937	-1.3521	-2.4021	-1.7958	-1.6375	-2.6625	-1.4958	-2.0021	-2.0396	-1.7292	-2.475	-1.8646	-1.7833	-2.4167	-1.7146	4.691	15.345	176.724	128.540	-83.187	-71.499	268.636	168.422	83.726	176.280	-2.305	-11.200	113.886	177.616	37.157	118.187	4.3959e-05	0.00028585	9.2321e-05	587.04	1.9415e-06	2.9407e-06	894.37	178.28	9.2728e-07	2.7972e-06	321.95	79.872	37.731	8.3106	2.3121e-06	25.388	9.4893e-05	7.3152e-05	2.3594e-05	559.1	9.017e-07	8.9366e-07	859.46	170.89	9.2449e-07	7.6649e-07	308.09	77.604	36.823	8.0155	8.0861e-07	24.291	213.304	2.372	10.112	-75.698	44.202	52.991	-75.386	-72.205	40.199	67.110	-72.204	-67.903	-68.311	-62.035	39.979	-62.050	-8191	255	
1927.130	1	1	0	0	0.1633	0.057458	0.20215	0.28307	0.22653	0.098594	0.011624	0.17056	0.056355	0.049733	0.16194	0.14602	0.2516	0.13408	0.53841	0.079226	-1.7583	-2.3042	-1.5312	-2.4188	-1.8792	-1.5729	-2.6104	-1.7042	-2.0708	-2.4208	-1.5438	-2.3937	-2.0958	-1.4771	-2.4396	-1.7396	183.764	136.167	125.139	237.520	157.560	201.409	152.002	-55.666	98.965	34.222	259.805	164.628	46.701	135.240	191.204	185.995	4.0615e-05	0.00029291	7.8229e-05	587.62	1.5747e-06	3.4588e-06	899.45	178.53	1.2167e-06	3.5857e-06	321.1	80.231	37.848	8.2083	3.1998e-06	24.832	9.9354e-05	6.8873e-05	2.3775e-05	560.68	9.7448e-07	8.5689e-07	861.72	171.5	9.4583e-07	8.0404e-07	306.96	77.614	36.967	7.9368	8.0126e-07	24.027	220.382	-10.340	-9.729	-75.407	61.513	50.862	-75.299	-72.192	83.136	44.168	-72.254	-67.851	-67.950	-62.167	54.425	-62.329	-8191	255	
1927.227	1	1	0	0	0.13879	0.23948	0.21671	0.079421	0.34508	0.061358	0.21949	0.22956	0.10229	0.068105	0.20499	0.22189	0.31752	0.16976	0.38614	0.27204	-1.3937	-2.3021	-1.3646	-2.4625	-2.2146	-1.7437	-2.5812	-1.8771	-1.8521	-2.4667	-1.65	-2.2333	-2.325	-1.6313	-2.4688	-1.7604	121.516	-2.419	-51.519	222.038	0.424	216.614	196.026	263.779	195.109	206.112	16.809	61.196	-49.874	0.400	-19.980	231.227	6.4439e-05	0.00023201	6.1537e-05	587.74	2.179e-06	3.2817e-06	895.05	176.84	6.5879e-07	2.8314e-06	320.31	79.509	37.474	8.3014	2.7265e-06	24.629	0.00010465	7.1356e-05	2.3208e-05	560.36	9.3183e-07	9.5018e-07	857.09	170.16	9.9871e-07	7.1299e-07	306.26	77.218	36.753	7.9469	8.4273e-07	23.914	220.428	11.311	-33.484	-75.352	71.618	47.562	-75.175	-71.725	39.142	66.321	-71.962	-67.495	-67.496	-62.639	78.289	-62.228	-8191	255	
1927.321	1	1	0	0	0.23234	0.0308	0.14527	0.1117	0.16777	0.31754	0.40007	0.24949	0.093842	0.045082	0.084345	0.20092	0.22263	0.27387	0.2355	0.075017	-1.3188	-2.3771	-1.5625	-1.9646	-2.1708	-1.5583	-2.4375	-2.0104	-1.6958	-2.6417	-1.6771	-1.85	-2.2271	-1.5063	-2.2667	-1.9813	75.403	-19.568	10.675	234.501	250.611	-39.941	176.540	200.279	93.071	125.175	2.530	237.243	237.575	213.536	176.950	20.055	5.2885e-05	0.00027905	9.5571e-05	588.92	2.0079e-06	3.2796e-06	895.79	177.53	1.5842e-06	2.8119e-06	318	79.451	37.5	8.1764	2.5931e-06	24.715	0.0001005	7.517e-05	2.3532e-05	560.64	9.4876e-07	8.8034e-07	858.54	170.45	1.0379e-06	7.7214e-07	305.79	77.202	36.697	7.9035	8.2401e-07	23.95	201.715	6.778	-19.580	-75.013	73.789	47.753	-74.927	-71.577	71.609	57.474	-71.969	-67.544	-67.724	-61.716	58.664	-62.647	-8191	255	
1927.417	1	1	0	0	0.18582	0.15101	0.0442	0.089338	0.12316	0.22623	0.23881	0.0739	0.26703	0.13387	0.25383	0.167	0.17602	0.087422	0.019823	0.18181	-1.0979	-2.4646	-1.6833	-1.7979	-2.1063	-1.4937	-2.1854	-2.0229	-1.4042	-2.3375	-1.4792	-1.9521	-2.3479	-1.6104	-2.2146	-2.1979	149.609	156.398	-73.435	227.618	127.817	-26.153	256.335	-60.250	167.570	147.497	86.974	264.773	79.496	-18.669	89.528	-0.970	6.408e-05	0.00033626	5.3745e-05	589.39	1.2841e-06	2.9555e-06	897.47	178.6	1.748e-06	2.2285e-06	321.98	80.147	37.94	8.1988	2.6957e-06	25.055	0.0001022	7.5614e-05	2.1932e-05	561.35	8.7041e-07	9.26e-07	859.88	171.37	1.1135e-06	7.6207e-07	307.79	77.432	36.918	7.9316	8.4818e-07	24.216	220.112	9.248	21.973	-75.118	28.238	52.616	-75.020	-71.734	63.275	68.030	-71.851	-67.569	-68.276	-62.202	87.118	-61.888	-8191	255	
1927.538	1	1	0	0	0.15535	0.23003	0.10222	0.1974	0.14897	0.14883	0.064964	0.082947	0.49955	0.27254	0.19529	0.23877	0.17772	0.084864	0.19289	0.2499	-1.1938	-2.4875	-1.6667	-1.7958	-2.3146	-1.6604	-2.3625	-2.0938	-1.525	-2.2917	-1.9854	-1.7667	-2.3312	-1.6479	-2.0333	-2.1437	75.544	113.853	-5.808	203.375	-58.433	131.487	243.588	167.595	41.468	213.048	197.285	197.005	-77.123	-69.311	249.092	178.437	4.4612e-05	0.00027743	0.00010223	588.72	1.857e-06	3.134e-06	897.04	179.12	6.123e-07	1.7934e-06	319.42	79.682	37.492	8.1783	1.8753e-06	24.807	0.00010079	7.4128e-05	2.2231e-05	561.93	8.1083e-07	9.408e-07	861.49	171.45	1.0047e-06	7.8809e-07	306.1	77.099	36.715	7.9333	8.5198e-07	24.041	206.425	28.050	9.773	-75.253	92.525	61.102	-74.969	-71.700	70.326	66.340	-71.736	-67.180	-67.076	-62.335	49.580	-61.716	-8191	255	
1927.632	1	1	0	0	0.11442	0.18447	0.22501	0.0042918	0.081486	0.13736	0.34291	0.21633	0.07546	0.11785	0.26248	0.17189	0.18836	0.3634	0.19879	0.20099	-0.97708	-2.4125	-1.9375	-1.7479	-2.2792	-1.5438	-2.1479	-2.2896	-1.3875	-2.4854	-2.2146	-1.7062	-2.3146	-1.5792	-1.775	-2.4583	13.122	53.895	-78.077	-49.358	225.265	166.531	192.796	27.311	-22.873	-46.568	126.945	15.798	-27.844	-61.626	254.398	141.125	6.1582e-05	0.00030976	8.1031e-05	587.78	1.1486e-06	2.5285e-06	897.85	176.95	1.8111e-06	2.1842e-06	319.19	78.596	36.848	8.1502	1.8721e-06	25.098	0.00010124	8.0137e-05	2.2405e-05	560.66	9.3044e-07	9.2205e-07	858.34	169.88	1.0831e-06	7.9766e-07	304.39	76.445	36.24	7.8966	9.2165e-07	24.096	221.996	12.931	-1.001	-75.370	74.679	66.250	-75.125	-71.831	60.346	72.937	-72.222	-67.539	-67.352	-61.592	71.462	-61.435	-8191	255	
1927.728	1	1	0	0	0.097176	0.10815	0.20563	0.15814	0.38226	0.092804	0.22022	0.090795	0.17124	0.17153	0.022889	0.13275	0.20422	0.20912	0.089377	0.20768	-1.0792	-2.4062	-1.9271	-1.6083	-2.3708	-1.5917	-1.8542	-2.4625	-1.4688	-2.275	-2.1979	-1.375	-2.3875	-1.7708	-1.7812	-2.4125	-3.531	244.883	220.456	-87.570	-78.826	201.385	246.187	259.315	127.454	253.935	7.370	108.750	101.515	62.774	113.725	155.340	5.6968e-05	0.00027089	5.0905e-05	587.35	2.96e-06	2.0446e-06	895.15	177.47	1.8231e-06	2.5854e-06	319.53	79.102	37.488	8.2544	1.7263e-06	25.308	0.00010066	7.7742e-05	2.154e-05	560.18	8.8084e-07	7.8038e-07	857.11	170.2	1.0574e-06	8.492e-07	305.21	76.522	36.548	7.9895	8.5292e-07	24.445	215.182	2.184	24.916	-75.340	95.335	75.499	-75.058	-71.551	91.984	48.480	-72.073	-67.717	-67.933	-61.340	72.682	-62.090	-8191	255	
1927.849	1	1	0	0	0.10192	0.19509	0.22465	0.1251	0.2232	0.11849	0.26165	0.18732	0.044734	0.022634	0.18076	0.25807	0.31409	0.26657	0.2119	0.099552	-1.0688	-2.0438	-2.0542	-1.5271	-2.6188	-1.8771	-1.6854	-2.5563	-1.6417	-1.975	-2.3479	-1.6063	-2.3479	-1.9854	-1.5021	-2.5542	78.146	170.073	35.799	-60.372	210.967	12.612	-79.141	256.647	-47.944	207.953	-82.016	109.427	-61.290	-66.544	-13.123	265.985	5.179e-05	0.00023149	7.9488e-05	592.68	2.3e-06	1.5396e-06	903.05	179.18	1.8133e-06	3.0108e-06	320.3	79.342	37.218	8.3407	2.0774e-06	25.586	0.00010425	7.4904e-05	1.956e-05	564.95	9.4481e-07	8.7293e-07	863.58	171.84	1.1267e-06	8.2859e-07	308	77.199	36.579	8.0836	8.4984e-07	24.667	207.232	-5.839	16.859	-75.521	60.890	79.247	-74.863	-71.936	70.340	62.295	-71.945	-67.818	-68.171	-62.388	56.960	-61.485	-8191	255	
1927.921	1	1	0	0	0.086902	0.058235	0.19246	0.055672	0.14295	0.2448	0.18929	0.20348	0.076635	0.076534	0.15357	0.19981	0.3251	0.11874	0.18746	0.064616	-1.2396	-1.9625	-2.1688	-1.5958	-2.2313	-1.9813	-1.8042	-2.3937	-1.6583	-2.0521	-2.4688	-1.5312	-2.2229	-2.0021	-1.6708	-2.525	83.573	256.935	57.039	-87.120	16.171	88.660	211.947	247.844	191.748	34.505	172.159	192.800	128.722	55.736	-80.051	159.173	4.8808e-05	0.00036938	6.0292e-05	595.03	1.9146e-06	2.8119e-06	899.84	180.1	1.445e-06	3.0498e-06	323.75	79.806	37.749	8.3094	2.9139e-06	25.592	0.00010609	8.4106e-05	2.0002e-05	567.61	8.8988e-07	8.021e-07	864.09	172.88	1.0212e-06	8.897e-07	308.99	77.366	36.782	8.0764	9.1881e-07	24.627	215.709	2.107	8.982	-75.399	30.272	60.742	-74.843	-71.800	94.816	69.342	-72.072	-67.673	-67.751	-62.541	49.835	-62.223	-8191	255	
1928.017	1	1	0	0	0.31084	0.14692	0.11957	0.18757	0.12637	0.21742	0.12574	0.22165	0.23899	0.26555	0.10211	0.17209	0.046569	0.27335	0.15884	0.16462	-1.2938	-1.7083	-2.2729	-1.6229	-2.0542	-2.2313	-1.675	-2.4167	-1.8188	-1.8021	-2.525	-1.4896	-2.1312	-2.1562	-1.5604	-2.3833	191.171	-61.205	121.828	158.321	-35.239	156.987	9.123	74.843	43.551	126.103	8.658	126.427	-63.141	49.857	172.926	182.263	4.7902e-05	0.00020929	7.8576e-05	597.76	2.0207e-06	1.4077e-06	900.84	181.4	1.6291e-06	1.8868e-06	319.62	79.739	37.775	8.3384	2.1124e-06	25.401	9.9323e-05	7.9849e-05	2.0724e-05	568.24	8.7087e-07	7.4781e-07	865.03	173.5	9.6949e-07	8.2638e-07	307.36	77.262	36.78	8.0633	9.3089e-07	24.509	219.452	17.211	21.234	-75.415	70.456	62.732	-75.174	-71.809	98.486	72.095	-72.196	-67.658	-68.149	-62.406	58.123	-62.500	-8191	255	
1928.113	1	1	0	0	0.17144	0.22767	0.078475	0.241	0.10966	0.20597	0.42418	0.18552	0.2004	0.11269	0.091569	0.059338	0.19295	0.15417	0.23723	0.26558	-1.6792	-1.6354	-2.3937	-1.7875	-1.9937	-2.1875	-1.6667	-2.3083	-2.0875	-1.6417	-2.4292	-1.7812	-1.9708	-2.4875	-1.625	-2.3125	105.273	30.340	67.829	230.717	159.056	63.125	209.116	203.450	-46.100	-17.641	-5.914	165.037	9.147	60.474	44.174	-18.505	5.1714e-05	0.00032097	6.3953e-05	594.18	1.841e-06	2.6299e-06	899.93	180.28	1.5673e-06	3.3543e-06	324.08	79.752	38.039	8.361	2.731e-06	25.388	9.9323e-05	8.0026e-05	1.9535e-05	567.26	1.0171e-06	7.557e-07	864.38	172.69	9.1591e-07	9.5474e-07	309.03	77.419	37.037	8.0494	9.5554e-07	24.444	221.578	-11.219	-2.104	-75.480	92.627	68.883	-75.065	-71.495	10.963	57.694	-71.898	-67.852	-68.165	-62.388	55.729	-61.873	-8191	255	
1928.209	1	1	0	0	0.041117	0.26112	0.14172	0.054085	0.16277	0.23824	0.2004	0.11691	0.039328	0.15804	0.063041	0.18413	0.1422	0.22666	0.09405	0.15334	-1.5708	-1.5042	-2.4104	-1.75	-2.0312	-2.3063	-1.6875	-2.3125	-2.0854	-1.6979	-2.7417	-1.6688	-1.9208	-2.3937	-1.6375	-2.225	48.897	231.399	88.770	243.922	150.569	117.028	7.967	89.685	-72.214	254.785	242.114	-71.126	-10.750	158.567	43.620	219.026	6.2258e-05	0.00025162	7.5607e-05	595.5	1.0638e-06	3.2542e-06	903.54	181.02	2.3276e-06	2.5416e-06	326.13	79.928	38.219	8.4127	1.492e-06	25.495	9.892e-05	8.0514e-05	2.126e-05	568.09	9.8862e-07	8.1494e-07	865.88	172.97	9.6786e-07	9.2357e-07	310.12	77.697	37.418	8.0611	8.6999e-07	24.46	222.686	-13.915	6.057	-75.312	71.365	68.392	-75.123	-71.433	65.484	61.923	-71.633	-67.623	-67.018	-61.613	74.305	-61.979	-8191	255	
1928.328	1	1	0	0	0.21459	0.043778	0.08089	0.34537	0.072162	0.17724	0.16213	0.22043	0.22335	0.078264	0.22852	0.14687	0.039584	0.27206	0.14457	0.1666	-1.8354	-1.5438	-2.5187	-1.9271	-1.8458	-2.4771	-1.8354	-2.1104	-2.1021	-1.4583	-2.3292	-2.0104	-1.6396	-2.4562	-1.4813	-2.0625	176.415	94.199	4.661	-34.221	224.268	-66.536	161.605	113.372	113.593	15.252	221.431	257.732	141.941	-58.971	139.323	205.728	4.8231e-05	0.00029314	7.0794e-05	592.29	2.0675e-06	2.5738e-06	904.03	182.14	7.8886e-07	2.1521e-06	325.06	80.054	38.556	8.4497	1.8814e-06	25.295	0.00010179	8.5126e-05	2.1683e-05	567.9	1.0118e-06	7.7347e-07	868.83	174.74	9.8804e-07	8.6933e-07	311.35	78.311	37.619	8.1314	9.2686e-07	24.492	207.451	11.942	-6.404	-75.496	61.089	66.989	-74.591	-71.496	72.356	81.293	-71.710	-67.586	-67.269	-61.706	73.719	-61.853	-8191	255	
1928.426	1	1	0	0	0.12399	0.23601	0.18776	0.16938	0.14077	0.26233	0.13075	0.18165	0.063752	0.035056	0.31756	0.22446	0.11972	0.23209	0.21894	0.3293	-1.8104	-1.4167	-2.1542	-2.0667	-1.5708	-2.5083	-1.6917	-2.0521	-2.3688	-1.6437	-2.425	-1.9833	-1.45	-2.3292	-1.5833	-1.7479	247.718	150.005	25.746	240.751	-23.640	21.838	133.361	-35.462	136.654	-56.653	266.943	131.390	132.205	201.693	30.807	163.190	4.9491e-05	0.00024703	6.864e-05	602.49	8.4915e-07	2.8147e-06	905.59	183.32	9.8186e-07	3.3581e-06	327.5	80.984	39.315	8.4051	1.9515e-06	25.484	9.9075e-05	8.2931e-05	2.0699e-05	574.15	9.8886e-07	8.0111e-07	870.38	175.84	9.2264e-07	9.3216e-07	312.59	78.369	38.077	8.1241	8.0031e-07	24.593	209.124	-0.949	7.160	-75.060	99.796	53.338	-75.107	-71.504	75.926	57.085	-71.685	-67.586	-67.700	-60.688	56.192	-61.671	-8191	255	
1928.497	1	1	0	0	0.14801	0.17722	0.13291	0.30906	0.20333	0.13345	0.16485	0.19953	0.436	0.28186	0.12908	0.27631	0.13783	0.11657	0.083731	0.16363	-2.1854	-1.6229	-2.25	-2.2792	-1.4771	-2.5354	-1.9979	-1.8625	-2.4958	-1.6521	-2.3	-2.3	-1.4917	-2.3417	-1.8958	-1.7479	189.623	-50.192	60.039	168.923	-4.784	163.450	226.040	254.343	228.846	268.218	182.648	137.956	4.763	223.591	-12.203	-21.653	4.3257e-05	0.00030092	7.1376e-05	604.68	2.0268e-06	3.5022e-06	911.06	185.4	1.1358e-06	2.7326e-06	328.09	81.24	39.112	8.4623	1.3028e-06	25.62	0.00010021	8.1113e-05	2.1005e-05	577.39	9.7356e-07	7.4978e-07	872.34	177.71	8.7347e-07	8.5951e-07	313.44	78.71	38.161	8.2187	8.5885e-07	24.656	208.251	-2.040	17.197	-74.650	76.820	72.454	-74.967	-71.510	56.616	66.285	-71.322	-66.701	-67.308	-61.734	99.174	-61.849	-8191	255	
1928.618	1	1	0	0	0.20454	0.089606	0.40161	0.19126	0.22719	0.11571	0.10835	0.35895	0.13722	0.03843	0.12933	0.12093	0.20964	0.1522	0.040959	0.12711	-2.1208	-1.4979	-2.075	-2.3187	-1.4417	-2.3396	-1.9917	-1.7667	-2.5979	-1.5833	-2.0729	-2.325	-1.5021	-2.3208	-2.1521	-1.6938	24.906	214.441	55.012	217.073	-77.665	205.602	149.433	227.928	10.801	-1.874	163.954	42.769	-62.038	-4.903	49.177	182.879	6.4911e-05	0.0002356	7.7707e-05	607.78	2.3473e-06	2.2821e-06	905.16	185.47	1.1159e-06	3.1724e-06	327.17	81.58	39.461	8.559	1.8342e-06	25.82	9.6938e-05	7.9627e-05	2.2872e-05	577.06	1.0174e-06	8.1568e-07	871.62	177.17	9.6021e-07	9.3388e-07	312.93	79.016	38.286	8.22	8.5482e-07	24.816	212.197	-5.084	-5.302	-75.455	71.604	81.820	-75.182	-71.292	76.004	39.069	-71.774	-67.496	-67.616	-61.650	72.001	-61.678	-8191	255	
1928.713	1	1	0	0	0.15397	0.075313	0.20638	0.30723	0.28707	0.16961	0.34543	0.14591	0.14442	0.12113	0.23819	0.33261	0.042447	0.12448	0.078464	0.15774	-1.9396	-1.5042	-1.8208	-2.3792	-1.6958	-2.0812	-2.1979	-1.7229	-2.3375	-1.8438	-1.8438	-2.5104	-1.5854	-2.3312	-2.0167	-1.5292	207.604	-36.639	162.192	43.810	202.807	197.738	264.781	187.630	2.649	200.992	171.913	210.499	159.659	-83.277	66.758	209.841	5.1214e-05	0.00026305	8.6206e-05	607.14	2.1119e-06	2.6701e-06	913.13	184.56	1.4517e-06	2.1294e-06	328.12	81.47	39.383	8.5368	1.6503e-06	25.597	9.4552e-05	8.537e-05	2.2816e-05	577.99	9.87e-07	8.021e-07	874.33	176.99	9.6415e-07	8.3718e-07	314.55	79.262	38.3	8.2254	7.9462e-07	24.789	208.866	9.736	5.610	-75.041	66.669	80.007	-74.776	-71.230	40.212	49.883	-71.886	-67.523	-67.524	-61.881	67.255	-62.031	-8191	255	
1928.809	1	1	0	0	0.17103	0.010168	0.18274	0.26727	0.14544	0.36541	0.17685	0.17041	0.061069	0.20814	0.29065	0.23254	0.16012	0.22725	0.085181	0.1401	-2.1458	-1.7188	-1.6229	-2.3042	-1.4229	-1.9792	-2.4875	-1.6208	-2.0896	-1.9292	-1.6521	-2.4646	-1.6229	-2.075	-2.1167	-1.6688	-1.383	26.441	-41.126	158.663	36.375	190.894	214.613	149.017	237.042	-23.709	265.372	255.537	-27.102	236.510	-87.117	-43.028	5.4688e-05	0.00031468	6.2175e-05	604.37	2.6582e-06	2.7686e-06	908.9	183.07	1.7477e-06	3.0831e-06	325.94	81.008	38.933	8.4482	3.3854e-06	25.356	9.5946e-05	8.2864e-05	2.3233e-05	576.29	1.0176e-06	8.5196e-07	869.77	176.13	9.9709e-07	8.9289e-07	312.07	78.774	38.071	8.1918	8.4013e-07	24.595	215.741	-10.867	-14.030	-75.274	82.241	55.944	-75.207	-71.825	75.852	51.422	-71.740	-67.907	-68.112	-62.198	53.449	-61.839	-8191	255	
#DATA ENDS
