BOXY.EXE: ISS Imagent and Oximeter Data Acquisition Program Version 0.80
Ascii Record File

#ACQ INFORMATION
2  Detector Channels 
16  External MUX Channels 
1  Auxiliary Channels 
5000  Waveform (CCF) Frequency (Hz)
1  Waveforms Skipped 
30  Waveforms Averaged 
1  Cycles Averaged 
16  Acquisitions per Waveform 
10.0806  Updata Rate (Hz) 

#FILE INFORMATION
TRUE -- External MUX Channel results are PARSED.
FALSE -- AC DC and Phase are NOT grouped.
TRUE -- Companion Program Settings File CREATED.
FALSE -- AC data not excluded
FALSE -- DC data not excluded
FALSE -- Phase data not excluded
FALSE -- Auxillary Chn. data not excluded
Tab delimiters

#CALIBRATION STATE
TRUE -- Waveform Calibration Values APPLIED.


#AUX CALIBRATION VALUES
Val Type	aux-1	

Term	1.0000e+00	
Factor	0.0000e+00	


#WF CALIBRATION VALUES
A = Detector Channel
Val Type	A-AC1	A-AC2	A-AC3	A-AC4	A-AC5	A-AC6	A-AC7	A-AC8	A-AC9	A-AC10	A-AC11	A-AC12	A-AC13	A-AC14	A-AC15	A-AC16	A-DC1	A-DC2	A-DC3	A-DC4	A-DC5	A-DC6	A-DC7	A-DC8	A-DC9	A-DC10	A-DC11	A-DC12	A-DC13	A-DC14	A-DC15	A-DC16	A-Ph1	A-Ph2	A-Ph3	A-Ph4	A-Ph5	A-Ph6	A-Ph7	A-Ph8	A-Ph9	A-Ph10	A-Ph11	A-Ph12	A-Ph13	A-Ph14	A-Ph15	A-Ph16	

Term	0.00000e+00	0.00000e+00	0.00000e+00	0.00000e+00	0.00000e+00	0.00000e+00	0.00000e+00	0.00000e+00	0.00000e+00	0.00000e+00	0.00000e+00	0.00000e+00	0.00000e+00	0.00000e+00	0.00000e+00	0.00000e+00	0.00000e+00	0.00000e+00	0.00000e+00	0.00000e+00	0.00000e+00	0.00000e+00	0.00000e+00	0.00000e+00	0.00000e+00	0.00000e+00	0.00000e+00	0.00000e+00	0.00000e+00	0.00000e+00	0.00000e+00	0.00000e+00	0.00000e+00	0.00000e+00	0.00000e+00	0.00000e+00	0.00000e+00	0.00000e+00	0.00000e+00	0.00000e+00	0.00000e+00	0.00000e+00	0.00000e+00	0.00000e+00	0.00000e+00	0.00000e+00	0.00000e+00	0.00000e+00	
Factor	1.00000e+00	1.00000e+00	1.00000e+00	1.00000e+00	1.00000e+00	1.00000e+00	1.00000e+00	1.00000e+00	1.00000e+00	1.00000e+00	1.00000e+00	1.00000e+00	1.00000e+00	1.00000e+00	1.00000e+00	1.00000e+00	1.00000e+00	1.00000e+00	1.00000e+00	1.00000e+00	1.00000e+00	1.00000e+00	1.00000e+00	1.00000e+00	1.00000e+00	1.00000e+00	1.00000e+00	1.00000e+00	1.00000e+00	1.00000e+00	1.00000e+00	1.00000e+00	X	X	X	X	X	X	X	X	X	X	X	X	X	X	X	X	

B = Detector Channel
Val Type	B-AC1	B-AC2	B-AC3	B-AC4	B-AC5	B-AC6	B-AC7	B-AC8	B-AC9	B-AC10	B-AC11	B-AC12	B-AC13	B-AC14	B-AC15	B-AC16	B-DC1	B-DC2	B-DC3	B-DC4	B-DC5	B-DC6	B-DC7	B-DC8	B-DC9	B-DC10	B-DC11	B-DC12	B-DC13	B-DC14	B-DC15	B-DC16	B-Ph1	B-Ph2	B-Ph3	B-Ph4	B-Ph5	B-Ph6	B-Ph7	B-Ph8	B-Ph9	B-Ph10	B-Ph11	B-Ph12	B-Ph13	B-Ph14	B-Ph15	B-Ph16	

Term	0.00000e+00	0.00000e+00	0.00000e+00	0.00000e+00	0.00000e+00	0.00000e+00	0.00000e+00	0.00000e+00	0.00000e+00	0.00000e+00	0.00000e+00	0.00000e+00	0.00000e+00	0.00000e+00	0.00000e+00	0.00000e+00	0.00000e+00	0.00000e+00	0.00000e+00	0.00000e+00	0.00000e+00	0.00000e+00	0.00000e+00	0.00000e+00	0.00000e+00	0.00000e+00	0.00000e+00	0.00000e+00	0.00000e+00	0.00000e+00	0.00000e+00	0.00000e+00	-2.23846e+00	-1.31119e+02	-1.35896e+02	-1.81478e+02	-5.32445e+01	-6.29258e+01	-1.58115e+02	-1.62015e+02	-5.21912e+01	-6.51356e+01	-1.73607e+02	-1.71776e+02	-1.83012e+02	-1.76573e+02	-5.74558e+01	-1.49837e+02	
Factor	3.30459e-05	1.49444e-04	4.39707e-05	1.58432e-01	1.72561e-06	1.36174e-06	1.67435e-01	4.77828e-02	1.66550e-06	1.80684e-06	9.40725e-02	2.82132e-02	5.96618e-02	8.24392e-03	1.74084e-06	1.21984e-02	3.04457e-06	3.32303e-06	9.25805e-07	8.43004e-02	3.58660e-08	3.66680e-08	8.32303e-02	2.54810e-02	3.58404e-08	3.65924e-08	4.79435e-02	1.44760e-02	3.08274e-02	4.42958e-03	3.60998e-08	6.29450e-03	X	X	X	X	X	X	X	X	X	X	X	X	X	X	X	X	



#DISTANCE SETTINGS
A = Detector Channel
A-1	A-2	A-3	A-4	A-5	A-6	A-7	A-8	A-9	A-10	A-11	A-12	A-13	A-14	A-15	A-16	

2.5000e+00	3.0000e+00	2.5000e+00	3.0000e+00	2.0000e+00	3.0000e+00	1.5000e+00	3.0000e+00	3.0000e+00	3.0000e+00	3.0000e+00	3.0000e+00	3.0000e+00	3.0000e+00	1.5000e+00	3.0000e+00	

B = Detector Channel
B-1	B-2	B-3	B-4	B-5	B-6	B-7	B-8	B-9	B-10	B-11	B-12	B-13	B-14	B-15	B-16	

1.0000e+01	1.0000e+01	1.0000e+01	1.4400e+00	1.0000e+01	1.0000e+01	1.5100e+00	1.9400e+00	1.0000e+01	1.0000e+01	1.9900e+00	2.4900e+00	2.4100e+00	2.9000e+00	1.0000e+01	2.9800e+00	




#DATA BEGINS
time	group	step	mark	flag	A-AC1	A-AC2	A-AC3	A-AC4	A-AC5	A-AC6	A-AC7	A-AC8	A-AC9	A-AC10	A-AC11	A-AC12	A-AC13	A-AC14	A-AC15	A-AC16	A-DC1	A-DC2	A-DC3	A-DC4	A-DC5	A-DC6	A-DC7	A-DC8	A-DC9	A-DC10	A-DC11	A-DC12	A-DC13	A-DC14	A-DC15	A-DC16	A-Ph1	A-Ph2	A-Ph3	A-Ph4	A-Ph5	A-Ph6	A-Ph7	A-Ph8	A-Ph9	A-Ph10	A-Ph11	A-Ph12	A-Ph13	A-Ph14	A-Ph15	A-Ph16	B-AC1	B-AC2	B-AC3	B-AC4	B-AC5	B-AC6	B-AC7	B-AC8	B-AC9	B-AC10	B-AC11	B-AC12	B-AC13	B-AC14	B-AC15	B-AC16	B-DC1	B-DC2	B-DC3	B-DC4	B-DC5	B-DC6	B-DC7	B-DC8	B-DC9	B-DC10	B-DC11	B-DC12	B-DC13	B-DC14	B-DC15	B-DC16	B-Ph1	B-Ph2	B-Ph3	B-Ph4	B-Ph5	B-Ph6	B-Ph7	B-Ph8	B-Ph9	B-Ph10	B-Ph11	B-Ph12	B-Ph13	B-Ph14	B-Ph15	B-Ph16	aux-1	digaux	

1076.949	1	1	0	256	0.10634	0.10612	0.15329	0.19878	0.090467	0.23001	0.443	0.3747	0.064476	0.22178	0.19408	0.099933	0.20247	0.27756	0.19797	0.17817	-1.1729	-1.45	-2.0229	-1.4771	-1.5146	-1.8833	-1.2958	-2.1479	-1.5146	-1.1792	-1.9792	-1.3687	-1.5021	-1.9729	-1.1542	-2.0583	127.940	-112.644	-101.219	137.382	162.481	95.923	141.955	176.520	65.533	-96.537	73.497	154.860	-167.839	68.278	179.978	-130.242	0.00088364	0.00035012	0.00015788	1385.7	5.9966e-06	6.851e-06	1393.7	374.24	4.3854e-06	3.276e-06	428.48	143.44	125.42	42.625	8.3942e-06	52.63	0.00050651	0.00048808	0.00013509	1407.9	5.3003e-06	5.3036e-06	1410.1	382.16	5.318e-06	5.2921e-06	437.71	146.97	127.28	43.743	5.3187e-06	54.138	-38.049	-137.580	-97.816	-156.694	-17.905	-7.090	-156.874	-152.153	-33.547	-48.970	-152.447	-148.506	-148.016	-143.280	-42.483	-144.272	-8191	255	
1077.045	1	1	0	0	0.22745	0.0097269	0.15787	0.51336	0.17264	0.02281	0.18726	0.25579	0.20414	0.07396	0.38019	0.12693	0.18775	0.36671	0.18016	0.12819	-1.1063	-1.1333	-1.875	-1.4	-1.3875	-1.9333	-1.2979	-1.8625	-1.55	-0.79167	-2.1437	-1.0792	-1.3542	-2.0271	-0.93333	-1.8958	131.796	80.975	155.895	185.184	177.373	32.566	182.655	72.292	52.630	20.876	138.686	171.688	115.653	174.560	3.821	23.849	0.00088996	0.00051132	8.201e-05	1384.1	5.3022e-06	2.2508e-06	1390.3	374.25	5.7422e-06	5.6128e-06	430.58	144.3	126.03	42.704	7.3841e-06	52.568	0.00050005	0.0004862	0.00013255	1407.6	5.2828e-06	5.2502e-06	1410.6	382.02	5.288e-06	5.3189e-06	438.2	147.13	127.6	43.747	5.3347e-06	54.134	-28.837	-60.616	-74.961	-156.734	-24.783	23.254	-157.052	-151.880	29.889	-3.326	-152.878	-148.146	-148.107	-143.152	-17.173	-143.999	-8191	255	
1077.141	1	1	0	0	0.14486	0.079608	0.096912	0.010849	0.27111	0.053063	0.39318	0.2029	0.11338	0.12467	0.1499	0.13098	0.14699	0.12203	0.27613	0.27692	-1.2313	-0.93125	-2.0083	-1.4708	-1.35	-1.9771	-1.3854	-1.9542	-1.7333	-0.89167	-2.1521	-1.5063	-1.4062	-2.2417	-1.0646	-1.8396	136.068	41.739	-102.495	164.635	-31.734	-12.118	109.825	167.008	66.334	131.543	-133.946	102.775	-10.003	-4.948	-113.483	152.866	0.00090704	0.00045737	0.00017306	1387.1	5.9385e-06	4.5438e-06	1389.7	376.17	1.0175e-05	7.0687e-06	430.68	144.66	125.91	42.624	8.0941e-06	52.669	0.00050508	0.00049265	0.00013517	1410.1	5.3629e-06	5.2807e-06	1410.9	382.85	5.3601e-06	5.3072e-06	439.28	147.33	127.57	43.723	5.2424e-06	54.237	-39.973	-66.127	-77.841	-156.895	-47.729	-27.613	-157.161	-152.192	-24.158	-34.001	-152.646	-148.381	-148.141	-143.497	-29.713	-143.847	-8191	255	
1077.262	1	1	0	0	0.056892	0.21901	0.075595	0.31331	0.089027	0.069779	0.31416	0.21828	0.07318	0.22945	0.11797	0.11761	0.081696	0.22916	0.19233	0.13599	-1.5167	-1.0833	-1.9146	-1.7604	-1.2375	-1.9458	-1.5688	-1.6437	-1.9917	-1.0042	-2.0917	-1.5583	-1.0417	-2.1729	-1.2708	-1.3833	135.700	-45.643	174.807	-163.692	57.380	-147.086	157.492	145.668	-56.146	85.987	-21.510	81.811	-141.822	122.994	93.065	89.955	0.00092368	0.00079275	3.607e-05	1392.2	7.0523e-06	4.9588e-06	1391.8	376.23	5.5752e-06	9.2469e-06	432.21	143.77	126.77	42.645	4.427e-06	52.719	0.00050258	0.00048269	0.00013271	1410.9	5.3611e-06	5.2131e-06	1412.4	383.32	5.218e-06	5.1083e-06	438.69	147.09	127.62	43.754	5.1255e-06	54.168	-31.978	-101.170	-55.753	-156.950	-42.474	-31.818	-157.103	-152.096	-26.983	-2.533	-152.890	-148.475	-147.979	-143.429	16.179	-143.992	-8191	255	
1077.334	1	1	0	0	0.23972	0.24104	0.20462	0.36696	0.11266	0.14881	0.28173	0.1281	0.2509	0.10461	0.10421	0.055073	0.32822	0.3508	0.12842	0.27567	-1.55	-1.0917	-1.7458	-1.6667	-0.98542	-2.0917	-1.5146	-1.4125	-1.9646	-1.1333	-2.05	-1.8875	-1.1667	-2.1813	-1.4979	-1.5979	-142.809	38.520	3.190	116.235	166.775	-51.781	-166.310	157.538	13.668	55.717	127.828	140.425	-122.341	-127.725	48.964	82.850	0.00088899	0.00042342	0.00014946	1384.9	6.7192e-06	4.114e-06	1393.9	376.37	5.7255e-06	6.5604e-06	430.31	144.85	126.56	42.53	8.788e-06	52.769	0.00049639	0.0004643	0.00012931	1408.3	5.1179e-06	5.0716e-06	1411.5	382.96	5.0345e-06	5.0246e-06	438.21	147.4	127.61	43.754	5.0261e-06	54.238	-36.293	-139.729	-50.978	-156.701	-16.362	56.892	-156.899	-152.062	-22.264	-45.273	-152.504	-148.754	-147.896	-143.055	-9.117	-144.163	-8191	255	
1077.430	1	1	0	0	0.12346	0.19111	0.094595	0.25406	0.17184	0.22055	0.43561	0.39179	0.12476	0.199	0.26144	0.027937	0.11882	0.077753	0.17935	0.099242	-1.6667	-0.93958	-1.6229	-2.1188	-1.0187	-1.9125	-1.5	-1.4292	-2.0104	-1.2125	-1.7958	-1.7646	-1.1521	-2.0354	-1.2792	-1.1875	-15.990	177.393	-143.432	152.612	13.693	183.922	140.746	158.855	120.421	173.080	146.375	126.061	166.470	-137.901	-23.397	114.008	0.00092201	0.00079134	0.00010252	1387.9	7.6302e-06	2.9055e-06	1391.4	375.85	5.2908e-06	5.9653e-06	431.15	144.52	126.39	42.642	8.6529e-06	52.68	0.00048563	0.00045688	0.00012584	1407.5	5.0196e-06	5.0473e-06	1411.1	382.64	5.0608e-06	4.9726e-06	438.66	147.2	127.74	43.786	5.0207e-06	54.219	-33.739	-99.933	-64.037	-156.775	-17.009	-6.065	-156.920	-151.866	-59.616	-65.405	-152.637	-148.166	-148.153	-143.037	-22.211	-144.148	-8191	255	
1077.526	1	1	0	0	0.42366	0.18119	0.37036	0.08339	0.13287	0.19827	0.34712	0.42069	0.090936	0.1083	0.20483	0.098124	0.17722	0.09088	0.22198	0.16909	-1.7854	-1.0854	-1.6313	-2.1188	-0.86667	-1.8896	-1.8146	-1.2479	-2.1813	-1.3	-1.6542	-2.1063	-1.1875	-1.9708	-1.6167	-1.0229	-89.041	-94.194	180.061	30.365	95.750	-141.654	134.775	146.799	85.599	-139.138	148.168	150.875	59.897	-114.012	46.280	125.723	0.00097043	0.0008493	7.405e-05	1384.6	9.7974e-06	4.1542e-06	1394.1	375.14	8.1034e-06	2.9021e-06	429.28	144.71	125.94	42.463	1.1271e-05	52.702	0.0004803	0.00045949	0.00012928	1408.4	5.0707e-06	5.0436e-06	1409.7	382.09	4.9746e-06	4.975e-06	438.31	147.31	127.38	43.772	5.0102e-06	54.145	-28.855	-69.642	-130.398	-156.491	-12.882	-25.214	-157.002	-152.318	-18.824	-48.892	-152.411	-148.235	-147.933	-142.965	-17.305	-143.769	-8191	255	
1077.645	1	1	0	0	0.16966	0.20182	0.16648	0.054148	0.21251	0.13408	0.032396	0.31782	0.17608	0.31125	0.34912	0.20792	0.14342	0.049699	0.26246	0.23132	-1.6208	-1.3583	-1.3833	-2.1896	-0.92917	-1.75	-1.9104	-1.1583	-2.0229	-1.3563	-1.5312	-2.2375	-1.1708	-1.7104	-1.8708	-1.3271	174.731	12.407	-71.205	179.646	173.439	35.212	46.947	154.524	177.854	-112.965	188.274	137.933	159.215	95.852	15.790	110.075	0.00091088	0.00051823	9.94e-05	1382.1	9.5675e-06	1.9824e-06	1390.5	375.17	5.9309e-06	5.6818e-06	431.71	144.18	126.31	42.725	7.9881e-06	52.862	0.00047583	0.00046015	0.00012685	1408	4.963e-06	4.9262e-06	1408.1	382.71	4.9787e-06	4.8963e-06	438.62	147.21	127.28	43.769	4.9714e-06	54.199	-38.671	-82.435	-94.798	-156.538	-34.050	-2.046	-156.793	-151.632	-51.560	-23.568	-152.327	-147.775	-147.866	-143.385	-26.505	-143.614	-8191	255	
1077.741	1	1	0	0	0.078842	0.17885	0.34616	0.14235	0.09934	0.11769	0.38757	0.13673	0.25746	0.25024	0.1745	0.075901	0.25983	0.1831	0.10946	0.31281	-1.5104	-1.3167	-1.175	-2.2062	-1.1437	-1.6604	-2.0187	-1.1437	-1.8167	-1.5792	-1.3813	-2.0687	-1.1333	-1.6771	-1.8292	-1.0562	-5.727	71.004	-81.144	67.657	113.617	170.958	129.086	151.639	-138.760	-86.879	-114.692	77.691	-135.911	127.223	-2.480	12.452	0.00089164	0.000506	5.1305e-05	1390.8	7.3397e-06	4.7285e-06	1384.6	375.92	5.4577e-06	9.6736e-06	430.74	145.02	127.01	42.665	7.919e-06	52.775	0.00046821	0.00044752	0.00012593	1409.1	4.9414e-06	5.0103e-06	1407.9	382.49	4.8733e-06	5.0402e-06	437.95	147.11	127.07	43.719	4.942e-06	54.09	-35.749	-106.184	-135.645	-156.137	-51.354	-18.427	-156.612	-151.500	-10.837	-44.796	-152.299	-147.990	-147.694	-142.793	-40.849	-144.017	-8191	255	
1077.837	1	1	0	0	0.1695	0.13609	0.15484	0.3383	0.20633	0.10359	0.17054	0.14108	0.21177	0.23808	0.10065	0.1625	0.26289	0.069975	0.096453	0.26582	-1.3625	-1.1688	-0.99583	-2.2896	-1.3188	-1.5	-2.1167	-1.2938	-1.9208	-1.7938	-1.2854	-2.2438	-1.3354	-1.2979	-2.0125	-1.2	-110.513	150.905	-81.597	166.270	-41.347	-61.876	119.658	-136.405	147.719	174.958	57.930	-116.400	183.476	93.200	86.590	-114.844	0.00089729	0.00066302	0.00012547	1386.7	7.1976e-06	3.9442e-06	1390.3	372.81	9.4766e-06	7.6635e-06	428.88	144.68	125.95	42.481	6.8153e-06	52.739	0.00047287	0.00045463	0.00012555	1407.1	4.9459e-06	5.0118e-06	1406.7	381.37	5.0035e-06	4.9752e-06	437.19	147.01	127.02	43.697	4.9675e-06	54.126	-32.464	-69.837	-108.138	-156.511	-55.459	-13.787	-156.982	-151.820	-44.579	-2.822	-152.457	-148.222	-147.649	-142.809	-31.138	-143.949	-8191	255	
1077.911	1	1	0	0	0.24264	0.10856	0.14552	0.30974	0.090899	0.15017	0.067254	0.33891	0.12239	0.12619	0.1745	0.12373	0.28737	0.41719	0.13494	0.092558	-1.1958	-1.7958	-0.89583	-2.4104	-1.325	-1.5458	-2.2417	-1.3771	-1.7458	-1.8958	-1.2875	-1.9688	-1.7104	-1.5729	-2.0312	-1.1812	-117.268	-103.755	172.056	-124.355	-9.595	-20.447	168.527	159.708	41.221	1.216	26.680	-152.200	-122.406	89.109	-21.930	45.978	0.0009549	0.00051024	0.00018676	1385.1	7.8397e-06	2.0777e-06	1391.2	374.62	5.8575e-06	7.9491e-06	430.32	144.05	126.73	42.464	6.1775e-06	52.32	0.00047471	0.00044768	0.00012613	1406.7	4.8818e-06	4.9201e-06	1406.2	381.66	4.989e-06	4.8693e-06	437.25	146.78	127.11	43.646	4.8058e-06	53.958	-28.681	-119.460	-97.714	-156.405	-14.327	-16.703	-156.702	-151.795	-72.902	-27.689	-152.242	-147.773	-147.983	-142.960	-65.242	-144.017	-8191	255	
1078.029	1	1	0	0	0.083558	0.16664	0.25356	0.34529	0.10268	0.086163	0.19081	0.29336	0.052365	0.096053	0.13475	0.14606	0.15968	0.22522	0.20703	0.15471	-1.2625	-1.9312	-0.80417	-2.1354	-1.5958	-1.1625	-2.1562	-1.2979	-1.6063	-1.8625	-1.1479	-2.0021	-1.6833	-1.2938	-1.9438	-1.3854	70.271	37.839	95.736	-123.014	-130.137	-92.225	126.443	170.750	-149.711	76.219	67.915	183.186	153.959	-42.879	-123.699	135.462	0.00087094	0.00029595	0.00017947	1379.8	4.7434e-06	4.3333e-06	1390.1	375.72	8.7156e-06	6.5489e-06	429.95	144.66	125.89	42.531	5.8195e-06	52.733	0.00047845	0.00044085	0.00012342	1402.8	4.924e-06	4.8838e-06	1409.6	382.13	4.906e-06	4.8163e-06	437.25	146.93	126.82	43.656	4.8237e-06	54.123	-35.599	-75.099	-95.594	-156.531	-29.593	-28.167	-156.860	-151.870	-34.117	-6.164	-152.569	-147.991	-147.876	-142.666	-4.742	-143.938	-8191	255	
1078.126	1	1	0	0	0.2596	0.12237	0.1549	0.23774	0.16061	0.18326	0.39024	0.27757	0.11618	0.12325	0.14855	0.084711	0.193	0.31833	0.16028	0.064427	-0.89583	-1.7229	-1.0042	-2.1104	-1.6354	-0.90417	-2.3	-1.4542	-1.3833	-1.9875	-1.0583	-1.8375	-1.8354	-1.2167	-1.9542	-1.4542	-156.184	86.908	164.754	-36.950	33.369	-38.282	120.583	105.540	90.784	28.468	-134.292	7.096	176.460	140.914	167.038	-8.593	0.00088876	0.00042103	7.4463e-06	1387.7	8.1976e-06	8.0666e-06	1391.9	376.08	6.9686e-06	6.3921e-06	428.13	143.89	126.24	42.296	9.0288e-06	52.377	0.00046943	0.00044497	0.00012441	1405.9	4.8131e-06	4.855e-06	1406.5	381.63	4.8512e-06	4.8235e-06	435.66	146.57	126.81	43.625	4.7989e-06	53.946	-31.274	-64.730	-38.261	-156.214	-16.492	1.164	-156.717	-151.837	-32.208	-21.367	-152.287	-148.000	-147.899	-142.740	-35.158	-143.702	-8191	255	
1078.222	1	1	0	0	0.041275	0.068743	0.12989	0.30125	0.21494	0.05045	0.14844	0.18414	0.18394	0.1154	0.19474	0.064851	0.12282	0.28964	0.29736	0.13378	-0.9	-1.9479	-1.0146	-1.8979	-1.7604	-1.1208	-2.2333	-1.4625	-1.3188	-2.0708	-1.3875	-1.7917	-1.8708	-1.1333	-1.875	-1.6542	-62.632	-125.327	-93.771	169.479	176.358	176.207	65.367	108.404	-112.196	25.366	-161.436	170.077	138.830	157.607	41.843	92.687	0.0008533	0.00050724	0.00016896	1381.9	3.8128e-06	3.6359e-06	1383.2	373.44	6.3125e-06	2.1421e-06	429.31	144.25	126.25	42.437	6.1904e-06	52.567	0.00046482	0.00043533	0.00012237	1403.8	4.7449e-06	4.7872e-06	1402.2	380.65	4.8594e-06	4.7578e-06	436.65	146.78	126.81	43.602	4.7233e-06	53.946	-31.936	-80.619	-72.560	-156.311	-4.915	-14.796	-156.648	-151.801	-18.890	1.201	-152.637	-148.391	-148.022	-143.322	-33.768	-144.159	-8191	255	
1078.342	1	1	0	0	0.30169	0.070619	0.024391	0.14597	0.068225	0.18521	0.12327	0.33518	0.16519	0.23749	0.20509	0.14624	0.056927	0.22033	0.066523	0.12115	-0.77917	-2.075	-1.0771	-1.6729	-1.8854	-1.1021	-2.0583	-1.95	-1.3	-2.1979	-1.3563	-1.4354	-1.9104	-1.2188	-1.8188	-1.7333	-167.547	137.995	-137.425	139.289	-18.960	-40.061	-34.811	132.562	43.907	8.551	-134.909	178.952	-151.247	-157.901	-53.430	152.777	0.0010217	0.00075152	0.00017962	1383.8	7.1223e-06	4.1154e-06	1383.3	374.73	7.4003e-06	9.6332e-06	429.07	143.44	125.64	42.379	6.8422e-06	52.71	0.00046369	0.0004249	0.00011905	1400.3	4.6873e-06	4.6911e-06	1402.2	380.88	4.7038e-06	4.6276e-06	435.17	146.55	126.46	43.47	4.5793e-06	53.907	-28.499	-82.578	-96.932	-156.323	-22.852	-57.303	-156.759	-152.155	-37.646	-39.215	-152.689	-148.186	-147.793	-142.748	-10.879	-143.769	-8191	255	
1078.439	1	1	0	0	0.024444	0.15333	0.051691	0.24298	0.17041	0.39925	0.18756	0.26518	0.14417	0.17289	0.16196	0.27447	0.16189	0.36749	0.26982	0.22133	-0.73958	-1.95	-1.3188	-1.7729	-1.9562	-1.0812	-2.0708	-1.925	-1.0354	-2.1646	-1.3792	-1.6208	-1.8625	-1.2417	-1.8438	-1.875	-18.924	-111.604	140.005	-160.964	-56.138	-37.562	45.840	153.031	172.907	75.942	-108.164	135.052	117.134	104.980	-29.664	138.791	0.0009513	0.00034751	0.00016952	1379.2	6.9814e-06	6.9968e-06	1384.3	374.41	8.1508e-06	1.3576e-06	429.44	143.83	125.76	42.526	5.4601e-06	52.548	0.00045206	0.00042149	0.00011605	1400.5	4.5883e-06	4.6554e-06	1404.7	381.11	4.5803e-06	4.5288e-06	436.15	146.54	126.62	43.543	4.5364e-06	53.949	-39.508	-25.906	-52.963	-156.260	-2.719	-27.998	-156.605	-151.662	-27.774	-25.823	-152.283	-147.883	-147.330	-142.864	-12.925	-143.747	-8191	255	
1078.510	1	1	0	0	0.10914	0.14974	0.46101	0.33787	0.11063	0.13128	0.17251	0.10814	0.38506	0.16902	0.23492	0.17056	0.15406	0.17408	0.2328	0.053489	-0.60625	-1.9917	-1.4917	-1.2646	-2.075	-1.1125	-1.9625	-1.9396	-1.0542	-1.9667	-1.675	-1.275	-2.1354	-1.2583	-1.4813	-1.9979	172.545	35.031	137.238	-167.591	-108.415	51.064	42.964	167.286	105.608	81.966	-29.790	137.793	174.319	-91.323	-107.319	74.555	0.00096164	0.00032797	8.8663e-05	1382.7	4.0959e-06	4.9663e-06	1386.7	375.38	7.0236e-06	3.4662e-06	426.7	143.91	126.22	42.435	5.2194e-06	52.551	0.00043976	0.00041081	0.00011265	1401	4.5133e-06	4.4174e-06	1402	380.99	4.4038e-06	4.2941e-06	434.94	146.46	126.59	43.42	4.35e-06	53.926	-32.928	-51.795	-95.584	-155.869	-15.654	-32.464	-156.315	-152.060	-21.696	-18.508	-152.754	-148.371	-147.901	-143.147	-0.396	-143.956	-8191	255	
1078.631	1	1	0	0	0.17694	0.1184	0.31634	0.41807	0.16126	0.041258	0.16991	0.053766	0.0493	0.097309	0.14947	0.30679	0.23743	0.11168	0.17256	0.23368	-0.53958	-1.775	-1.4854	-1.3125	-1.8937	-1.0542	-1.7563	-2.0958	-0.97292	-2.0104	-1.6479	-1.1292	-2.0958	-1.3271	-1.2938	-1.925	-46.879	-51.640	47.364	174.310	-0.342	21.747	58.641	-162.746	-95.105	77.463	116.144	143.632	-115.726	186.183	-106.124	173.320	0.00091646	0.00085138	0.00015114	1383.8	6.4654e-06	5.8825e-06	1389.3	373.6	7.1177e-06	2.7814e-06	427.3	144.31	125.21	42.403	5.3115e-06	52.208	0.00042257	0.00038949	0.00010808	1402.2	4.2358e-06	4.248e-06	1404.6	380.22	4.3106e-06	4.2905e-06	435.71	146.51	125.93	43.406	4.4213e-06	53.775	-29.865	-121.095	-92.874	-156.785	22.193	13.975	-156.730	-152.339	-26.350	77.552	-152.887	-148.233	-148.450	-143.406	-30.532	-144.332	-8191	255	
1078.725	1	1	0	0	0.062386	0.20644	0.29206	0.17509	0.12337	0.29214	0.33709	0.23936	0.15151	0.16358	0.16803	0.11599	0.27476	0.23636	0.24069	0.019616	-0.84167	-1.7625	-1.6146	-1.3042	-2.0375	-1.4292	-1.6333	-2.1979	-1.1063	-1.8312	-1.7271	-1.0958	-2.0021	-1.4646	-1.3021	-2.0104	-168.404	20.000	134.518	110.086	-41.566	-9.938	166.176	152.708	-82.048	126.587	111.685	133.507	185.473	174.161	-21.322	95.483	0.00091286	0.00070431	0.00016783	1380.9	5.5691e-06	3.8441e-06	1385.7	375.12	6.8157e-06	6.7501e-06	429.58	143.75	126.15	42.644	4.2799e-06	52.574	0.00043328	0.00040311	0.00011144	1403.3	4.398e-06	4.3759e-06	1406.9	381.29	4.4462e-06	4.336e-06	436.95	146.9	126.73	43.608	4.514e-06	54.002	-31.343	-92.293	-69.423	-156.827	-5.257	-11.065	-157.149	-152.328	-27.274	-50.947	-152.921	-148.490	-147.878	-143.473	7.871	-144.460	-8191	255	
1078.821	1	1	0	0	0.25199	0.14515	0.10897	0.30996	0.15234	0.12068	0.21701	0.28715	0.20371	0.15213	0.17747	0.021588	0.12013	0.22962	0.090751	0.19278	-0.825	-1.7604	-1.8208	-1.1979	-1.9167	-1.4438	-1.2979	-2.3646	-1.0667	-1.6583	-2.05	-1.2896	-1.9979	-1.4958	-1.3875	-2.0312	-145.706	25.847	-144.874	174.064	-2.151	-58.126	157.084	148.973	51.282	150.744	71.064	146.806	120.525	74.936	75.769	106.664	0.00084597	0.0009335	0.00011878	1388	2.1801e-06	2.8194e-06	1395.3	375.57	5.5368e-06	4.5042e-06	431.07	144.66	126.46	42.555	6.5134e-06	52.518	0.00044049	0.0004088	0.00011316	1409.2	4.5628e-06	4.5539e-06	1414.9	382.81	4.638e-06	4.6512e-06	438.75	147.15	127.17	43.627	4.6515e-06	54.095	-29.809	-91.256	-47.927	-156.811	-5.796	-6.731	-157.178	-152.429	-13.420	-30.749	-152.856	-148.837	-148.413	-143.683	-19.249	-144.452	-8191	255	
1078.942	1	1	0	0	0.19276	0.10307	0.18616	0.35615	0.20399	0.16676	0.47585	0.1818	0.24322	0.048341	0.13036	0.020547	0.16097	0.15479	0.20334	0.20598	-0.68333	-1.5917	-1.8563	-1.2458	-1.875	-1.675	-1.3312	-2.2771	-1.2958	-1.4458	-2.0479	-1.1938	-1.9583	-1.7083	-1.1083	-2.0792	29.910	58.962	-74.267	165.272	2.041	-39.264	157.255	107.155	119.161	-33.552	-138.489	-79.036	105.253	-45.691	-81.039	187.426	0.0008556	0.00042649	0.00010297	1401	4.4889e-06	2.7329e-06	1401.7	376.83	7.6186e-06	2.8419e-06	432.97	145.26	126.17	42.712	6.4801e-06	52.744	0.00045459	0.00042388	0.00011742	1420.9	4.5978e-06	4.6015e-06	1420.3	383.6	4.64e-06	4.5622e-06	438.97	147.43	127.07	43.656	4.5541e-06	54.087	-29.936	-83.790	-73.299	-156.810	2.757	-3.866	-157.142	-152.323	-79.067	-60.658	-152.890	-148.862	-148.178	-143.556	-53.965	-144.295	-8191	255	
1079.038	1	1	0	0	0.18858	0.15186	0.074961	0.42762	0.16597	0.1082	0.4161	0.10542	0.14642	0.14879	0.29496	0.23263	0.27905	0.14902	0.17165	0.055213	-0.96667	-1.3875	-2.05	-1.1146	-1.8667	-1.8854	-1.2	-2.1979	-1.4708	-1.4062	-2.1458	-1.0667	-1.5938	-1.9562	-0.93125	-1.9542	-168.915	-86.726	143.179	117.426	54.855	-31.453	149.224	-121.692	-0.784	-104.271	-147.855	182.642	-164.317	-134.170	121.003	-13.070	0.00095071	0.00052862	0.00013618	1393.5	4.1014e-06	8.969e-07	1397.6	377.16	9.7014e-06	5.9073e-06	433.93	144.46	126.15	42.622	4.4236e-06	52.79	0.00043858	0.00040933	0.00011503	1416.1	4.6036e-06	4.6186e-06	1418	384.35	4.6792e-06	4.6748e-06	439.66	147.24	127.21	43.705	4.8092e-06	54.112	-26.119	-81.071	-69.913	-156.691	-0.658	-102.187	-157.105	-152.165	-45.739	-57.508	-152.829	-148.613	-148.045	-143.474	-0.086	-144.527	-8191	255	
1079.134	1	1	0	0	0.099747	0.076404	0.13234	0.29222	0.17697	0.10929	0.21983	0.30297	0.19727	0.19361	0.31699	0.25494	0.14941	0.13094	0.24106	0.2132	-1.0708	-1.1792	-2.1021	-1.4292	-1.6187	-1.9917	-1.2271	-2.05	-1.3896	-1.15	-2.2146	-1.3667	-1.55	-1.9688	-1.0667	-2.0667	-135.488	183.159	-53.647	184.681	132.729	101.363	94.338	127.946	128.329	-29.841	110.544	115.271	-16.859	62.110	-140.036	-139.174	0.00093501	0.00023185	0.00015726	1402.2	7.3023e-06	4.8988e-06	1404.5	379.12	8.6401e-06	2.8688e-06	432.77	144.78	126.4	42.492	8.7342e-07	52.396	0.00046792	0.00044797	0.00012354	1423.4	5.0011e-06	4.913e-06	1423.7	385.02	4.9687e-06	5.0213e-06	440.02	147.46	127.49	43.575	4.988e-06	53.967	-39.193	-41.107	-69.747	-156.849	-33.370	-17.057	-157.360	-152.194	-35.957	0.892	-152.716	-148.600	-147.798	-143.530	-12.795	-144.299	-8191	255	
1079.206	1	1	0	0	0.22213	0.22269	0.080672	0.045732	0.12894	0.22452	0.36897	0.44315	0.24848	0.19965	0.036414	0.14169	0.11329	0.16618	0.09152	0.15356	-1.1562	-0.94167	-1.975	-1.4042	-1.3292	-2.1458	-1.3312	-2.1437	-1.6979	-0.9375	-2.2062	-1.3979	-1.4229	-2.0625	-0.86458	-2.0375	-151.912	-73.181	76.647	124.917	-35.180	-138.324	145.491	186.101	-140.182	168.831	-40.454	179.387	46.892	111.192	-33.818	90.420	0.00086554	0.00054832	0.00020197	1394.1	4.9179e-06	3.0362e-06	1401.5	378.97	5.0254e-06	4.5752e-06	430.76	143.75	125.98	42.308	3.8301e-06	52.378	0.00047824	0.00047437	0.00012985	1420.6	5.0831e-06	5.1457e-06	1422.8	385.05	5.2684e-06	5.2753e-06	439.79	146.95	127.47	43.583	5.3366e-06	54.003	-38.587	-118.895	-96.890	-156.800	-18.886	-16.263	-157.296	-152.266	-29.922	-11.077	-152.831	-148.619	-148.229	-143.452	-25.022	-144.403	-8191	255	
1079.327	1	1	0	0	0.079234	0.31603	0.05567	0.28923	0.2697	0.21646	0.202	0.38295	0.15192	0.1896	0.2838	0.019226	0.058332	0.21889	0.049868	0.39317	-1.4062	-0.91875	-1.9875	-1.6604	-1.3792	-2	-1.1833	-1.725	-1.8208	-1.0063	-2.0646	-1.5667	-1.2208	-2.0729	-1.1708	-1.8563	-20.343	-96.494	-121.052	-157.310	-5.902	33.981	152.108	131.556	86.138	51.588	77.072	142.774	21.098	-117.228	-139.440	140.670	0.00091605	0.00080808	0.00018367	1394.4	7.0053e-06	4.4245e-06	1391.3	375.56	6.5383e-06	7.5672e-06	430.57	143.51	125.67	42.424	4.3332e-06	52.685	0.00051151	0.00049724	0.00013356	1416.5	5.406e-06	5.3338e-06	1415.6	383.52	5.4653e-06	5.4302e-06	438.82	146.9	127.29	43.578	5.2837e-06	54.059	-33.134	-101.767	-56.557	-156.872	-26.421	-41.361	-157.080	-152.040	-16.447	-10.983	-152.771	-148.518	-147.902	-143.208	-24.596	-144.000	-8191	255	
1079.423	1	1	0	0	0.23545	0.033169	0.1147	0.29562	0.12873	0.23685	0.36537	0.12666	0.19804	0.22047	0.2953	0.20659	0.10721	0.3898	0.18179	0.11815	-1.4167	-1.0938	-1.9396	-1.7125	-1.25	-2.1521	-1.425	-1.7521	-2.0062	-1.0896	-1.9083	-1.5396	-1.2062	-2.1625	-1.0812	-1.4292	117.464	-73.581	-131.224	106.729	11.870	-37.722	143.147	-19.694	121.790	1.051	36.008	137.808	185.831	171.472	-166.317	78.287	0.00093463	0.00054516	0.00010842	1389.2	8.5948e-06	4.6828e-06	1396.8	376.19	6.4164e-06	5.2396e-06	431.8	144.35	125.52	42.361	4.6118e-06	52.59	0.00050241	0.00048504	0.00013415	1414.4	5.3797e-06	5.3623e-06	1414.6	383.28	5.3802e-06	5.4467e-06	439.46	147	127.26	43.56	5.4499e-06	54.034	-30.998	-79.160	-94.919	-156.920	-20.019	22.930	-156.897	-152.257	-26.235	-12.081	-152.501	-148.736	-148.112	-143.086	-23.348	-144.288	-8191	255	
1079.519	1	1	0	0	0.15978	0.043665	0.26993	0.38438	0.074555	0.2599	0.26565	0.24663	0.097522	0.21714	0.33772	0.21069	0.18695	0.29338	0.15938	0.22175	-1.6021	-1.0917	-1.5771	-1.7104	-1.2042	-2.1375	-1.4875	-1.475	-1.9042	-1.0229	-1.7521	-1.7083	-1.0104	-2.0938	-1.475	-1.4021	186.459	119.814	-104.644	130.848	-23.453	-33.841	46.417	183.279	-111.527	69.690	155.183	166.856	117.803	155.963	51.137	-135.004	0.00091228	0.00043095	0.0001651	1389.2	7.257e-06	2.9217e-06	1391	375.95	3.7486e-06	2.3408e-06	430.37	143.92	125.16	42.374	1.8643e-06	52.363	0.0005239	0.00050308	0.00014128	1410.9	5.5674e-06	5.5567e-06	1409.4	383.19	5.499e-06	5.5146e-06	438.95	147.01	126.85	43.556	5.4542e-06	53.948	-33.160	-131.575	-82.491	-157.148	-46.084	-33.138	-157.373	-152.310	-111.117	-8.296	-153.136	-148.564	-148.311	-143.377	-33.048	-143.980	-8191	255	
1079.615	1	1	0	0	0.078588	0.16711	0.29687	0.21833	0.2848	0.07287	0.17205	0.33426	0.25798	0.22161	0.22128	0.29757	0.077077	0.10344	0.16791	0.24048	-1.5542	-0.87292	-1.6208	-1.9688	-1.0312	-1.9771	-1.6021	-1.3354	-2.0458	-1.0458	-1.7625	-1.9729	-1.1042	-2.0146	-1.6688	-1.1667	-9.553	-44.358	-29.737	89.149	-40.842	114.910	128.586	138.693	17.481	172.633	23.567	-115.762	102.664	-157.611	147.375	164.232	0.00094808	0.00061487	0.00024289	1386.3	8.8747e-06	3.6609e-06	1384.1	376.55	8.1604e-06	3.9988e-06	431.39	143.29	125.04	42.35	5.2955e-06	52.348	0.00052918	0.00050416	0.00013916	1407.3	5.5016e-06	5.4473e-06	1406.8	382.83	5.4389e-06	5.359e-06	438.31	146.4	126.89	43.508	5.3259e-06	53.897	-34.928	-95.253	-86.739	-156.924	-9.203	-28.524	-157.056	-152.353	-27.927	49.767	-152.798	-148.821	-148.383	-143.395	-21.386	-144.215	-8191	255	
1079.711	1	1	0	0	0.25759	0.16564	0.041492	0.30239	0.080741	0.22473	0.13038	0.061843	0.055922	0.15047	0.091368	0.22523	0.19976	0.40204	0.032857	0.25689	-1.5521	-0.98958	-1.4854	-2.0583	-1	-1.8021	-1.7417	-1.3375	-2.0312	-1.2167	-1.6	-1.9813	-0.95833	-1.9583	-1.8125	-1.2396	45.795	-65.328	120.519	139.987	127.589	147.448	133.000	-108.338	153.049	91.992	-108.060	116.404	150.968	182.200	-42.474	-118.117	0.00097512	0.00064506	0.00018396	1377.7	8.4546e-06	1.3834e-06	1382.9	375.25	3.7936e-06	6.2377e-06	427.76	143.06	125.4	42.546	7.4921e-06	52.27	0.00050227	0.0004786	0.00013255	1402.3	5.1395e-06	5.1228e-06	1401.9	381.68	5.089e-06	5.1301e-06	437.45	146.35	126.9	43.571	4.9534e-06	53.926	-37.256	-66.749	-84.124	-156.952	-42.357	0.983	-157.245	-152.366	-49.399	-39.286	-152.886	-148.507	-147.878	-143.198	-28.281	-143.928	-8191	255	
1079.806	1	1	0	0	0.13602	0.18981	0.32039	0.27699	0.10807	0.16674	0.3039	0.062795	0.13069	0.085001	0.10648	0.14699	0.42582	0.32481	0.068852	0.25482	-1.4958	-1.1229	-1.2708	-2.2417	-0.95417	-1.8021	-1.8396	-1.2167	-1.9562	-1.1708	-1.5063	-2.2125	-1.0562	-1.9083	-1.7979	-1.1	172.932	167.912	-10.207	-159.412	119.127	151.244	166.794	-8.438	50.636	45.560	-150.700	-125.983	-169.525	169.120	-104.047	150.679	0.00085719	0.00061992	0.00010706	1374.3	7.3049e-06	5.5199e-06	1378.2	372.81	5.7692e-06	7.1669e-06	426.61	142.81	124.63	42.345	2.5227e-06	52.162	0.00046508	0.00045082	0.00012351	1398.2	4.882e-06	4.8642e-06	1397.8	380.17	4.7607e-06	4.8259e-06	435.39	145.99	126.22	43.402	4.8533e-06	53.695	-34.956	-110.774	-131.063	-156.823	-62.187	32.269	-157.281	-152.111	-51.647	-2.854	-152.540	-148.547	-148.294	-143.527	-13.467	-144.245	-8191	255	
1079.903	1	1	0	0	0.11349	0.081577	0.19004	0.10135	0.1876	0.20589	0.19346	0.26204	0.12447	0.10561	0.10969	0.10972	0.016545	0.11076	0.22672	0.305	-1.4271	-1.4271	-1.1646	-2.0625	-1.0562	-1.4417	-2.0125	-1.1417	-1.9021	-1.5938	-1.3	-2.2313	-1.3875	-1.7542	-1.8854	-1.0688	94.961	155.883	-27.643	-63.883	127.961	-30.166	115.601	139.985	-85.347	52.839	113.161	-92.979	-140.645	104.151	-21.675	94.176	0.00098097	0.00061676	0.00014547	1374.3	5.0923e-06	3.7277e-06	1374	373.68	5.6037e-06	2.2368e-06	428.12	142.89	124.86	42.515	7.0316e-06	52.212	0.00047224	0.00044753	0.0001256	1393.6	4.8335e-06	4.8907e-06	1392.9	380.83	4.8829e-06	5.0036e-06	435.23	146.01	126.55	43.562	5.0418e-06	53.787	-30.322	-70.329	-54.654	-156.825	-26.216	-55.040	-157.092	-152.206	-51.887	21.772	-152.895	-148.607	-148.314	-143.434	-16.986	-144.116	-8191	255	
1080.022	1	1	0	0	0.11764	0.18668	0.17971	0.13254	0.21341	0.040624	0.23856	0.21809	0.25969	0.18213	0.20615	0.098479	0.1739	0.43497	0.32673	0.31115	-1.5292	-1.5396	-1.0958	-2.2687	-1.1167	-1.5208	-2.0938	-1.2604	-1.8	-1.7396	-1.2875	-2.2438	-1.4271	-1.4917	-1.9188	-1.1333	-109.611	29.111	-138.335	150.257	124.468	-124.686	100.023	133.493	149.663	98.379	178.889	-125.273	-67.300	147.898	10.891	108.190	0.0008792	0.00042636	0.00028592	1375.2	1.0699e-05	4.9821e-06	1382.4	374.41	1.0233e-05	4.6657e-06	429.94	143.71	125.55	42.461	7.6416e-06	52.377	0.00048437	0.00046571	0.00012995	1396.7	5.1113e-06	5.0939e-06	1400.5	381.23	5.076e-06	4.9685e-06	436.99	146.48	126.9	43.606	4.9679e-06	53.949	-30.347	-80.959	-63.268	-156.723	-7.240	-47.779	-156.991	-152.264	-57.564	-11.999	-152.772	-148.525	-148.256	-142.990	-0.451	-144.190	-8191	255	
1080.119	1	1	0	0	0.19689	0.15015	0.1259	0.2959	0.10007	0.10773	0.31267	0.32135	0.071998	0.27867	0.08801	0.058226	0.078595	0.14319	0.45002	0.15418	-1.4479	-1.7875	-0.96667	-2.0938	-1.4708	-1.2771	-2.2938	-1.2833	-1.7167	-1.9688	-1.1688	-1.8854	-1.4333	-1.2042	-2.1042	-1.4188	189.484	66.080	-28.053	129.516	32.642	57.086	128.078	164.288	-78.584	-4.449	12.021	139.829	-84.306	-124.796	66.732	-121.761	0.00091417	0.00075022	0.00020324	1378.7	6.8078e-06	3.1987e-06	1377.4	375.07	7.2073e-06	8.2407e-06	428.79	143.79	125.14	42.546	7.4305e-06	52.239	0.00048027	0.00045438	0.00012664	1397.9	4.9367e-06	4.9998e-06	1398.2	381.31	4.9436e-06	4.9107e-06	436.19	146.58	126.26	43.529	4.9287e-06	53.95	-32.080	-116.489	-137.385	-156.735	-51.854	-1.789	-157.071	-152.256	-46.181	1.479	-152.567	-148.257	-148.057	-143.295	-66.739	-144.098	-8191	255	
1080.215	1	1	0	0	0.12745	0.14035	0.28787	0.21992	0.27834	0.044217	0.096658	0.27307	0.19398	0.10246	0.21896	0.24004	0.19922	0.16216	0.18584	0.13138	-1.1729	-1.8625	-1.0562	-1.9188	-1.4688	-1.25	-2.2438	-1.2479	-1.5375	-2.1104	-1.1521	-2.05	-1.6375	-1.2958	-2.0854	-1.2708	-118.144	-119.526	-168.560	165.065	164.544	-29.604	-99.239	181.112	33.142	14.498	61.644	-77.921	65.601	-129.175	-110.462	145.141	0.00088027	0.0004543	0.00024637	1376.1	6.8374e-06	5.0282e-06	1374.6	375.82	8.0612e-06	3.6805e-06	426.18	143.94	125.53	42.48	4.4036e-06	52.639	0.00047533	0.00044854	0.00012554	1396.2	5.0233e-06	4.9316e-06	1396.5	381.82	5.019e-06	4.9775e-06	435.74	146.44	126.69	43.665	4.9679e-06	53.895	-31.766	-89.595	-74.614	-156.764	-13.809	-54.793	-157.159	-152.123	-48.039	-88.641	-152.688	-148.343	-147.899	-143.412	-98.146	-144.050	-8191	255	
1080.311	1	1	0	0	0.14162	0.095409	0.056678	0.25786	0.31993	0.14059	0.11401	0.21043	0.15248	0.29286	0.31517	0.25345	0.16513	0.21592	0.22549	0.36267	-0.93125	-1.85	-0.98958	-2.0146	-1.5146	-1.1229	-2.1667	-1.4292	-1.3604	-2.1083	-1.0792	-1.9813	-1.8375	-1.1437	-1.8896	-1.3438	-59.229	55.742	135.479	186.415	179.166	21.887	-1.551	-154.190	54.662	173.484	138.653	122.487	-154.537	141.185	182.205	146.666	0.0009948	0.00047275	0.00011719	1378.9	3.1818e-06	5.2772e-06	1380.4	374.99	7.4477e-06	6.1732e-06	429.17	143.87	125.15	42.533	6.0397e-06	52.359	0.00047698	0.00045049	0.00012736	1399.2	4.9419e-06	5.0454e-06	1398.7	380.82	5.0782e-06	5.0322e-06	436.74	146.81	126.47	43.601	4.8999e-06	53.893	-28.489	-111.647	-53.708	-156.581	-53.040	10.265	-157.051	-152.240	-38.058	-20.188	-152.728	-148.256	-148.011	-143.072	-37.941	-143.928	-8191	255	
1080.431	1	1	0	0	0.060146	0.12961	0.060037	0.24419	0.40493	0.089399	0.30003	0.1009	0.041805	0.26983	0.12	0.26241	0.16182	0.11571	0.076175	0.178	-0.6625	-1.9646	-0.91667	-1.7625	-1.7333	-0.91042	-2.2875	-1.725	-1.4083	-1.9688	-1.0063	-1.9083	-1.8417	-1.0938	-1.8896	-1.6125	91.466	-42.801	-49.120	-42.010	-168.178	111.756	51.905	94.279	161.340	116.431	-129.464	-124.416	-94.087	40.693	-119.812	177.002	0.00094323	0.00092048	0.00028683	1378.3	6.4276e-06	4.9137e-06	1373.6	374.48	8.8967e-06	4.813e-06	427.46	143.47	125.96	42.349	6.824e-06	52.669	0.00048193	0.00045769	0.00012587	1397	4.9391e-06	4.9603e-06	1397	381.17	4.9063e-06	4.8467e-06	436.56	146.21	126.37	43.505	4.7555e-06	53.888	-33.286	-103.799	-88.583	-156.723	-44.228	-18.997	-156.840	-152.075	-15.608	-36.160	-152.724	-148.084	-147.892	-143.134	-52.721	-144.049	-8191	255	
1080.503	1	1	0	0	0.26403	0.22682	0.23801	0.17814	0.11838	0.17211	0.079443	0.38027	0.21505	0.23868	0.30335	0.0716	0.18011	0.24206	0.090501	0.16253	-0.76875	-1.8333	-1.1229	-1.7812	-1.6812	-1.0229	-2.1521	-1.6521	-1.175	-1.9375	-1.3062	-1.6479	-2.0771	-1.1542	-1.9646	-1.5104	-61.067	150.458	142.617	109.592	186.401	83.956	-92.127	148.375	-88.535	34.189	135.021	-122.320	-130.614	-143.712	160.207	150.299	0.00077712	0.00046062	0.0002316	1374	8.6636e-06	2.3887e-06	1377.7	371.4	6.3466e-06	7.2862e-06	426.41	143.09	124.28	42.07	6.8195e-06	52.356	0.00046442	0.00044051	0.00012137	1394.4	4.8463e-06	4.7694e-06	1395	379.28	4.796e-06	4.746e-06	434.35	145.73	125.56	43.232	4.7568e-06	53.701	-28.802	-99.743	-67.213	-156.704	10.110	19.503	-156.837	-152.188	-58.531	-5.036	-152.944	-148.200	-148.295	-143.304	-63.644	-144.061	-8191	255	
1080.624	1	1	0	0	0.17367	0.3891	0.13897	0.33283	0.2052	0.17413	0.16716	0.47742	0.32752	0.14793	0.23238	0.24798	0.083329	0.078069	0.060139	0.1866	-0.60833	-1.8687	-1.2563	-1.4458	-2.0917	-0.96875	-2.0417	-1.8333	-0.95625	-2.0542	-1.3458	-1.2917	-2.1167	-1.1958	-1.7917	-1.8771	-45.052	-130.445	32.271	150.660	-60.164	27.410	36.406	123.952	-119.854	53.852	-50.866	145.620	189.213	-132.226	74.459	132.564	0.00091456	0.00024608	5.6398e-05	1365.3	6.12e-06	1.8842e-06	1372.6	371.85	1.0257e-05	5.9901e-06	425.21	142.5	124.66	42.051	4.7361e-06	52.049	0.00046801	0.00044051	0.00012447	1387.9	4.8918e-06	4.9013e-06	1389.1	378.69	4.9428e-06	4.9069e-06	433.36	145.2	125.81	43.203	4.7052e-06	53.529	-40.656	-154.543	-136.865	-156.581	-23.582	-40.205	-156.877	-152.168	-40.027	-71.334	-152.630	-148.462	-147.710	-143.526	-40.001	-144.297	-8191	255	
1080.720	1	1	0	0	0.13478	0.090016	0.16095	0.098759	0.31003	0.34271	0.25581	0.089084	0.11401	0.053696	0.063263	0.24042	0.13236	0.25037	0.1366	0.14302	-0.68125	-2.0271	-1.475	-1.3458	-1.9937	-1.0854	-1.9104	-2.1625	-1.1063	-1.9521	-1.6063	-1.2812	-2.0062	-1.25	-1.5604	-2.0708	141.736	163.765	-47.904	-135.851	147.131	-39.455	146.480	159.152	-161.530	-34.869	133.836	186.217	-44.812	-169.378	-151.391	-154.181	0.00093534	0.00057682	0.00021493	1363.1	6.0635e-06	5.8617e-06	1365.4	370.71	6.3274e-06	5.5094e-06	424.26	142.56	125.14	41.892	9.3964e-06	52.22	0.00045854	0.00042675	0.00011923	1385	4.7118e-06	4.8269e-06	1385.5	377.23	4.7255e-06	4.6506e-06	432.36	145.24	125.62	43.201	4.7164e-06	53.606	-37.048	-61.833	-110.257	-156.670	-50.369	-40.051	-156.811	-152.231	-29.497	-10.190	-152.825	-148.010	-147.385	-143.381	-35.468	-144.162	-8191	255	
1080.814	1	1	0	0	0.19296	0.31963	0.18427	0.15418	0.33006	0.12667	0.19704	0.26406	0.05695	0.070865	0.097009	0.20402	0.085961	0.25664	0.068033	0.17429	-0.66875	-1.8188	-1.5771	-1.4521	-2.0833	-1.1104	-1.6167	-2.0979	-1.0021	-1.9792	-1.8188	-1.1542	-2.1667	-1.5958	-1.3813	-2.1646	-24.608	-26.428	-110.335	120.396	-124.603	27.728	186.691	124.836	-169.650	-63.750	-107.906	-138.872	5.828	175.601	-159.110	72.696	0.00095651	0.00031589	0.00016919	1360.2	4.1974e-06	4.0068e-06	1362.6	369.37	1.2118e-05	6.0489e-06	424.18	141.79	124.02	42.01	1.5659e-06	52.264	0.00046038	0.00042501	0.00011967	1383.1	4.7094e-06	4.6671e-06	1383.4	376.53	4.7639e-06	4.7476e-06	431.4	145.18	125.21	43.177	4.9109e-06	53.556	-27.586	-119.459	-85.518	-156.858	17.622	-2.736	-156.983	-152.511	-49.152	-51.376	-153.034	-148.651	-147.957	-143.432	17.996	-144.452	-8191	255	
1080.910	1	1	0	0	0.08848	0.21465	0.10537	0.42553	0.026345	0.45845	0.29933	0.25491	0.21504	0.061514	0.28884	0.11432	0.16127	0.1455	0.20875	0.095524	-0.57083	-1.7542	-1.8021	-1.3458	-2	-1.4083	-1.6625	-2.2521	-0.8625	-1.8146	-1.9813	-1.3021	-1.8542	-1.5271	-1.2417	-2.225	155.196	-39.668	167.308	69.006	27.262	-26.230	133.048	165.453	-100.770	126.190	185.040	94.037	-168.991	125.552	112.122	-168.434	0.00096227	0.0004342	8.256e-05	1362	7.8785e-06	3.6742e-06	1362	370.96	1.0645e-05	4.0186e-06	424.39	141.73	124.05	41.888	3.4975e-06	51.792	0.00048151	0.00045855	0.0001272	1384.5	5.0885e-06	5.119e-06	1384.1	377.2	5.1738e-06	5.2266e-06	432.02	144.97	125.52	43.076	5.3504e-06	53.333	-35.519	-41.326	-87.354	-156.857	-41.085	-25.033	-156.818	-152.282	-41.106	7.487	-152.846	-148.582	-148.204	-143.584	9.401	-144.403	-8191	255	
1081.007	1	1	0	0	0.16821	0.10519	0.01521	0.13434	0.21234	0.035566	0.40036	0.24655	0.19996	0.26557	0.12559	0.19709	0.11131	0.13932	0.10134	0.29561	-0.73958	-1.5875	-1.7563	-1.2458	-2.0042	-1.4417	-1.4	-2.1063	-1.025	-1.6396	-2.0354	-1.0688	-1.95	-1.8062	-1.1812	-2.2271	163.840	185.091	-42.749	189.260	-143.661	14.087	184.095	135.467	-168.282	-92.866	89.023	-162.523	-102.335	17.509	23.498	85.524	0.00093293	0.00041711	0.00016557	1350.8	6.7284e-06	8.5529e-06	1359.5	368.26	8.6156e-06	4.152e-06	421.97	140.94	124.1	41.888	8.1788e-06	51.811	0.00050592	0.00049119	0.00013828	1378.3	5.2881e-06	5.4203e-06	1382.3	376.28	5.4334e-06	5.3997e-06	431.46	144.66	125.45	43.055	5.6723e-06	53.477	-32.077	-113.150	-109.692	-156.742	-61.622	-14.991	-156.872	-152.244	-46.423	-90.725	-152.989	-148.524	-147.616	-143.475	9.936	-144.010	-8191	255	
1081.103	1	1	0	0	0.17798	0.064345	0.15606	0.35369	0.081834	0.13577	0.40147	0.45721	0.26258	0.053547	0.27242	0.27436	0.20189	0.27878	0.23867	0.28083	-1.0271	-1.3438	-2.1063	-1.1833	-1.925	-1.6354	-1.3625	-2.1542	-1.1958	-1.4396	-2.0771	-1.1146	-1.9646	-1.7812	-1.0187	-2.3292	17.988	141.209	81.877	180.791	-56.752	151.772	122.453	164.342	134.830	-145.552	132.039	125.488	-129.998	91.002	163.699	125.972	0.00083176	0.00017286	6.3982e-05	1358.2	4.8172e-06	4.8045e-06	1369.2	371.43	8.6062e-06	3.9717e-06	425.43	142.17	124.49	41.984	4.4289e-06	51.921	0.00053332	0.00051924	0.00014392	1382.9	5.6298e-06	5.7441e-06	1388.3	378.37	5.6954e-06	5.714e-06	433.38	145.17	126.05	43.226	5.6486e-06	53.59	-34.311	-82.168	-164.613	-156.700	-37.302	-45.663	-157.092	-152.186	-55.830	-38.639	-152.769	-148.250	-148.126	-143.490	37.198	-144.191	-8191	255	
1081.199	1	1	0	0	0.14426	0.1857	0.20314	0.13472	0.19722	0.04817	0.33622	0.23048	0.093391	0.27658	0.20982	0.27075	0.30361	0.16897	0.34241	0.14477	-0.95208	-1.1688	-1.9604	-1.3813	-1.6833	-1.7563	-1.2229	-2.0396	-1.3854	-1.3333	-2.0958	-1.2708	-1.6708	-1.9	-0.91667	-1.8937	108.070	-163.910	-150.735	148.491	-108.582	-54.600	42.387	175.739	105.642	52.199	-0.031	-167.546	-21.060	170.662	-8.131	-0.448	0.00089194	0.00037357	0.00016574	1362.4	7.8741e-06	6.0052e-06	1373.2	370.99	6.3106e-06	7.1117e-06	424.15	142.41	124.03	41.904	8.6692e-06	52.121	0.00053214	0.00050801	0.00014129	1392.1	5.5837e-06	5.6158e-06	1395.3	379.15	5.5561e-06	5.6028e-06	434	145.53	125.88	43.179	5.4037e-06	53.662	-35.403	-106.662	-95.698	-156.410	-39.644	-21.312	-156.977	-152.113	-39.056	-24.457	-152.620	-148.300	-147.691	-143.144	-26.100	-144.176	-8191	255	
1081.295	1	1	0	0	0.13046	0.058249	0.13182	0.059625	0.35049	0.29365	0.55675	0.084631	0.19062	0.26975	0.2093	0.20905	0.17701	0.075293	0.19002	0.21536	-1.0708	-1.2042	-1.9771	-1.1458	-1.6083	-1.8979	-1.1125	-2.0833	-1.5688	-0.97292	-1.9896	-1.4021	-1.6333	-2.0583	-1.1729	-1.8854	-40.132	32.996	-111.705	129.834	-159.139	103.655	151.189	112.227	185.411	-147.901	23.201	153.025	189.367	112.536	12.855	48.417	0.00085317	0.00051106	0.0001888	1368.3	3.6964e-06	4.7652e-06	1369	370.23	1.0984e-05	5.879e-06	425	142.68	124.41	42.075	5.4812e-06	51.999	0.0005122	0.00049525	0.00013629	1390.3	5.2137e-06	5.2768e-06	1393	378.1	5.2567e-06	5.3101e-06	434.17	145.49	125.49	43.326	5.2165e-06	53.569	-39.854	-59.329	-120.331	-156.505	-71.635	-29.195	-156.748	-151.926	-44.519	14.814	-152.443	-147.970	-147.463	-143.108	-10.461	-143.625	-8191	255	
1081.391	1	1	0	0	0.049146	0.25341	0.039165	0.37062	0.056481	0.059545	0.17756	0.26913	0.10604	0.08855	0.20111	0.2759	0.1416	0.09714	0.14759	0.10445	-1.2313	-1.0458	-2.0146	-1.4146	-1.1437	-1.9062	-1.1104	-1.9104	-1.5479	-1.1854	-2.0583	-1.4208	-1.3292	-2.0521	-1.1208	-1.9708	-94.034	10.589	-61.568	152.577	80.832	-102.333	-8.094	-150.375	12.110	73.480	123.683	134.789	-163.291	94.318	-113.981	109.794	0.00085063	0.00079182	0.00024453	1363.5	1.4981e-06	5.2062e-06	1362	370.69	1.008e-05	2.2349e-06	424.84	142.09	123.83	41.901	1.0102e-05	51.894	0.00049328	0.00047494	0.00013012	1388.4	5.1416e-06	5.1335e-06	1387	378.03	5.1971e-06	5.2092e-06	432.99	145.07	125.52	43.118	5.1627e-06	53.51	-35.744	-102.928	-94.143	-156.417	-96.832	-27.448	-156.350	-151.709	-63.759	-27.731	-152.283	-147.722	-146.977	-142.362	-32.352	-142.966	-8191	255	
1081.512	1	1	0	0	0.12926	0.23747	0.024778	0.052046	0.057569	0.18656	0.15259	0.12604	0.20148	0.15537	0.13267	0.12156	0.16122	0.14611	0.26495	0.19886	-1.4604	-1.1729	-2.0146	-1.6313	-1.4188	-2.0646	-1.5771	-1.6292	-1.8896	-1.0771	-2.0146	-1.7021	-1.3021	-2.0917	-1.2958	-1.7875	78.128	134.850	107.519	46.500	75.843	121.963	80.291	109.949	-95.854	152.421	148.701	23.769	146.372	-136.420	-26.091	83.043	0.00094424	0.00016673	0.00013535	1362.4	1.0157e-05	5.8645e-06	1366.9	368.8	7.486e-06	7.3416e-06	425.91	141.9	123.76	42.03	5.0911e-06	52.084	0.00049638	0.00047719	0.00013172	1383.6	5.2053e-06	5.2267e-06	1387	377.01	5.2711e-06	5.2928e-06	433.23	144.83	125.62	43.179	5.3677e-06	53.565	-31.516	-109.804	-83.500	-155.901	-21.859	29.992	-156.594	-151.550	-53.850	-8.407	-152.254	-148.182	-147.885	-142.874	-10.795	-143.621	-8191	255	
1081.608	1	1	0	0	0.32447	0.2502	0.22592	0.39242	0.34197	0.14302	0.25642	0.40453	0.16089	0.15307	0.18249	0.080072	0.23173	0.16321	0.18775	0.14755	-1.5938	-0.94583	-1.7729	-1.6458	-1.1125	-2.1083	-1.45	-1.8667	-1.8875	-1.2437	-2.0792	-1.6083	-1.1938	-2.0104	-1.2188	-1.4583	-158.121	-153.391	54.016	130.063	27.820	-138.141	95.960	112.830	-145.512	148.973	124.417	-75.543	181.062	-167.054	9.264	48.409	0.00093608	0.00038862	0.00015493	1367	6.3023e-06	6.9518e-06	1365.2	371.77	9.7177e-06	9.4639e-06	426.96	142.12	124.72	41.767	7.6425e-06	51.883	0.00051666	0.00049629	0.00013903	1389.4	5.5016e-06	5.4541e-06	1390.2	378.44	5.5731e-06	5.6011e-06	434.56	145.23	126.09	43.117	5.6728e-06	53.581	-33.309	-71.984	-103.455	-156.053	-63.742	-53.114	-156.573	-151.434	-8.452	-5.302	-152.411	-148.356	-147.295	-143.091	-52.750	-144.140	-8191	255	
1081.704	1	1	0	0	0.06707	0.2345	0.32252	0.40607	0.022294	0.22775	0.16452	0.19412	0.059231	0.19964	0.29604	0.10841	0.39614	0.39204	0.16501	0.1074	-1.7188	-1.0875	-1.8583	-2.0042	-1.1604	-1.9167	-1.4521	-1.45	-2.1604	-1.0208	-1.6542	-2.0792	-1.0229	-2.125	-1.3417	-1.175	-108.241	-167.123	-121.600	174.581	-100.193	-168.179	-154.401	114.553	143.584	123.830	79.809	155.563	1.191	-118.727	-152.325	116.960	0.00094279	0.00080155	5.9622e-05	1362.3	6.8953e-06	3.9953e-06	1370.5	371.21	9.4314e-06	4.0195e-06	425.09	142.47	123.67	41.938	6.0584e-06	51.652	0.00053959	0.00052686	0.00014456	1387.6	5.8022e-06	5.817e-06	1392.2	378.89	5.7832e-06	5.9182e-06	434.77	145.77	126.09	43.241	5.9577e-06	53.435	-31.975	-52.028	-26.288	-156.844	-30.499	-22.353	-157.304	-152.186	-43.387	-41.252	-152.754	-148.791	-148.568	-143.469	-16.853	-144.452	-8191	255	
1081.800	1	1	0	0	0.091036	0.20886	0.19109	0.20549	0.16693	0.052724	0.2429	0.28514	0.29137	0.20473	0.078346	0.28578	0.27376	0.23207	0.18088	0.080437	-1.6	-1.1938	-1.3708	-1.9396	-1.1521	-2.1562	-1.6979	-1.2563	-1.8292	-1.4813	-1.6583	-2.0833	-1.2479	-2.1208	-1.4833	-1.3042	-56.575	136.748	180.787	90.244	177.746	142.354	129.943	167.339	153.051	140.444	-156.978	122.425	-91.785	-79.060	138.951	79.402	0.00085278	0.00042874	0.00016865	1365.8	1.0795e-05	6.3578e-06	1366.9	371.05	4.8487e-06	6.1276e-06	426.51	142.25	123.18	42.026	6.5691e-06	51.702	0.00056272	0.00054474	0.00015266	1391.8	6.1639e-06	6.1353e-06	1391.8	379.34	6.1215e-06	6.1639e-06	435.94	145.79	126.31	43.211	6.3801e-06	53.635	-30.951	-74.818	-101.687	-157.037	-10.305	-103.082	-157.156	-152.381	-90.045	-51.101	-152.984	-148.724	-148.091	-143.315	-38.694	-144.652	-8191	255	
1081.895	1	1	0	0	0.072815	0.28034	0.044889	0.23346	0.19881	0.31414	0.15523	0.24521	0.21043	0.05802	0.10892	0.046219	0.1164	0.24014	0.27699	0.44274	-1.6583	-1.1271	-1.2188	-2.1625	-0.84583	-1.8333	-1.7313	-1.2771	-1.9917	-1.4188	-1.4604	-2.1667	-1.0396	-1.8396	-1.675	-1.0542	24.520	81.401	-90.446	132.014	120.020	8.424	176.704	76.889	20.224	170.883	-43.881	41.045	-157.929	-119.517	-158.793	165.606	0.00079996	0.00049431	3.345e-05	1373.3	1.2548e-06	5.213e-06	1376.1	373.85	8.135e-06	5.8627e-06	427.62	142.89	124.42	42.205	9.8363e-06	51.948	0.00060107	0.00059164	0.00016545	1400.8	6.5664e-06	6.5307e-06	1401.7	382.76	6.5616e-06	6.5853e-06	437.68	146.2	127.23	43.493	6.5456e-06	53.772	-37.089	-88.920	-52.710	-156.960	-51.473	-19.256	-157.268	-152.407	-54.010	-21.831	-152.985	-148.687	-148.331	-143.620	-42.011	-144.342	-8191	255	
1081.991	1	1	0	0	0.20426	0.21544	0.169	0.075406	0.16542	0.073785	0.27826	0.26354	0.11251	0.019592	0.14926	0.26653	0.010603	0.094288	0.14197	0.14091	-1.6208	-1.3729	-1.2875	-2.1604	-1.2396	-1.7042	-2.0083	-1.3062	-1.7354	-1.5208	-1.4521	-2.2271	-1.1667	-1.9146	-1.7375	-1.1958	170.864	132.840	19.930	68.009	84.483	-0.758	90.667	188.378	-169.315	-0.795	113.944	142.620	127.289	119.749	170.916	-45.765	0.00093051	0.00047686	0.00016788	1381	1.1024e-05	4.3134e-06	1378.9	373.22	1.0495e-05	3.533e-06	426.03	142.43	124.8	42.062	6.9811e-06	52.057	0.00060652	0.0005954	0.00016505	1406.8	6.4465e-06	6.4221e-06	1405.3	382.06	6.3751e-06	6.3734e-06	438.05	146.14	127.06	43.395	6.2896e-06	53.796	-36.649	-112.595	-86.808	-157.140	23.859	-26.544	-157.391	-152.422	-61.594	-13.824	-152.919	-149.053	-147.951	-143.484	-68.828	-144.518	-8191	255	
1082.111	1	1	0	0	0.06004	0.1981	0.15697	0.16654	0.13434	0.06223	0.15952	0.31005	0.15293	0.18477	0.1629	0.23376	0.24047	0.14838	0.088899	0.22883	-1.5167	-1.3542	-0.91042	-2.2438	-1.1708	-1.55	-2.1083	-1.3	-1.8646	-1.6437	-1.2396	-2.0333	-1.1	-1.4375	-1.9583	-1.1771	60.244	177.043	-43.677	-107.077	-72.327	-2.274	72.161	112.636	29.288	85.642	-136.942	-156.071	-36.694	21.721	52.654	72.282	0.00091986	0.00077759	0.00038627	1377.7	9.1874e-06	5.0236e-06	1383.3	374.07	9.7207e-06	2.1314e-06	427.48	142.84	124.52	42.051	1.1405e-05	52.028	0.00058993	0.00057179	0.00016053	1403.4	6.2438e-06	6.3656e-06	1406.3	382.21	6.2871e-06	6.3164e-06	437.59	146.24	127.06	43.327	6.2599e-06	53.741	-34.511	-128.746	-108.517	-157.151	21.372	-9.098	-157.472	-152.386	-24.988	-11.507	-152.926	-148.803	-148.469	-143.606	-2.242	-144.666	-8191	255	
1082.208	1	1	0	0	0.14045	0.36308	0.078538	0.24694	0.08728	0.2304	0.031221	0.15455	0.05475	0.19183	0.24737	0.15239	0.35231	0.081822	0.052895	0.12456	-1.5354	-1.5792	-1.1187	-2.1646	-1.2812	-1.275	-2.2021	-1.2208	-1.9292	-1.6979	-1.0771	-2.2313	-1.1833	-1.3813	-1.9708	-1.0354	-52.405	139.598	95.809	146.458	162.991	-70.896	-148.887	140.213	-86.707	89.508	-154.646	157.457	-107.168	64.418	-80.391	187.625	0.00099038	0.00048249	9.7636e-05	1377.1	6.6616e-06	6.799e-06	1379.5	373.51	8.798e-06	4.6674e-06	428.88	142.79	124.69	42.081	9.5586e-06	52.018	0.00058647	0.00057129	0.00016119	1403.5	6.2781e-06	6.4237e-06	1405.4	381.6	6.2932e-06	6.2516e-06	437.86	146.26	127.16	43.388	6.3189e-06	53.717	-34.650	-71.938	-97.586	-157.109	-70.501	-0.657	-157.390	-152.411	-85.154	39.357	-153.106	-148.731	-148.297	-143.378	-25.000	-144.490	-8191	255	
1082.304	1	1	0	0	0.14544	0.24567	0.1507	0.23222	0.09787	0.087082	0.1325	0.18659	0.11763	0.25415	0.28004	0.076492	0.18086	0.13558	0.25098	0.38869	-1.1333	-1.7563	-0.90417	-2.1792	-1.5562	-1.1667	-2.2562	-1.1042	-1.7042	-2.0333	-1.1583	-1.9583	-1.4083	-1.2583	-1.9542	-1.2833	65.529	-13.995	-66.977	92.370	-35.251	-158.028	100.586	141.968	55.841	160.838	-162.453	114.099	186.491	106.619	-155.929	173.754	0.00089579	0.00048799	0.00011602	1380.9	8.0943e-06	4.0113e-06	1381.5	373.24	1.0258e-05	5.7712e-06	427.59	142.9	125.26	42.063	9.4881e-06	51.674	0.00059536	0.00058114	0.00016381	1406.2	6.2904e-06	6.4866e-06	1406.9	382.05	6.5078e-06	6.4683e-06	437.52	146.51	127.15	43.402	6.4431e-06	53.579	-31.946	-78.586	-86.869	-157.167	-35.742	18.378	-157.475	-152.572	-37.279	-35.254	-153.110	-148.523	-148.209	-143.490	1.447	-144.504	-8191	255	
1082.400	1	1	0	0	0.15699	0.07128	0.18249	0.023004	0.096256	0.16444	0.034564	0.34208	0.20439	0.12849	0.11349	0.2833	0.20606	0.2732	0.16415	0.25056	-1.3167	-1.8417	-1.0958	-2.1729	-1.4896	-1.0542	-2.3083	-1.3396	-1.5021	-2.1146	-1.0958	-1.9167	-1.6917	-1.125	-2.0687	-1.425	-92.578	-17.154	53.080	143.085	-40.320	176.369	52.477	86.367	138.808	155.659	175.754	107.371	115.692	146.691	109.605	154.388	0.00087396	0.00018434	5.4368e-05	1376.9	7.037e-06	3.4041e-06	1385.5	372.63	9.9416e-06	3.085e-06	426.19	142.4	124.44	41.967	2.94e-06	51.933	0.00060236	0.00059584	0.00016804	1405.4	6.5173e-06	6.6364e-06	1406.6	381.69	6.6672e-06	6.6481e-06	437.75	146.21	127.26	43.416	6.6315e-06	53.725	-38.319	-79.074	-99.001	-157.117	-55.491	-59.425	-157.119	-152.566	-52.205	1.255	-152.991	-148.928	-148.450	-143.596	-10.291	-144.643	-8191	255	
1082.496	1	1	0	0	0.13685	0.10898	0.24615	0.064331	0.20318	0.22667	0.34884	0.20196	0.027717	0.09241	0.16985	0.21034	0.27235	0.36009	0.20314	0.1282	-1.0375	-2.0042	-0.97708	-2.0563	-1.7792	-1.1125	-2.2687	-1.5292	-1.3208	-1.9271	-1.2271	-1.7708	-1.6458	-1.1375	-2.0208	-1.6021	-135.925	147.725	-102.379	-125.642	-58.303	145.275	151.738	42.475	-0.683	34.202	-113.980	128.246	89.879	142.895	-105.000	128.642	0.00098605	0.00034517	0.0001907	1382.2	5.4886e-06	6.0975e-06	1386.2	374.48	6.5357e-06	3.7661e-06	428.39	142.94	125.62	42.049	5.4342e-06	51.977	0.00062173	0.00061062	0.00016962	1409.7	6.6557e-06	6.7753e-06	1411.7	382.66	6.5429e-06	6.751e-06	438.65	146.81	127.92	43.437	6.5986e-06	53.929	-36.014	-111.661	-100.650	-157.028	12.926	33.846	-157.476	-152.599	-63.234	21.012	-152.995	-148.778	-148.326	-143.623	-5.439	-144.463	-8191	255	
1082.592	1	1	0	0	0.21401	0.1554	0.20696	0.14056	0.14036	0.072151	0.17271	0.21411	0.096135	0.035309	0.31565	0.20086	0.19346	0.043361	0.03062	0.18551	-0.90417	-1.9813	-1.1646	-1.7188	-1.6771	-1.0187	-2.0208	-1.5771	-1.2167	-2.15	-1.3771	-1.7021	-1.6812	-0.8875	-1.7625	-1.6396	40.010	-26.009	-136.842	98.369	39.922	-5.643	110.065	95.460	-16.160	120.581	-125.713	-142.126	134.489	-34.714	87.649	36.152	0.00097787	0.00028785	0.00017225	1385.7	7.9148e-06	2.8101e-06	1385.9	375.06	7.0664e-06	3.7448e-06	429.63	142.53	125.27	42.179	8.9126e-06	52.074	0.00062718	0.00060892	0.00017421	1412.1	6.8472e-06	6.8181e-06	1412.6	383.72	6.8994e-06	6.8325e-06	439.61	146.81	127.95	43.617	6.8966e-06	53.9	-34.623	-79.144	-105.240	-156.797	-27.120	-10.624	-157.166	-152.589	-67.849	-11.096	-153.253	-148.549	-148.120	-143.797	-45.919	-144.417	-8191	255	
1082.688	1	1	0	0	0.079615	0.32281	0.099617	0.29549	0.067074	0.28695	0.20709	0.2077	0.2124	0.20433	0.28813	0.27149	0.11693	0.16294	0.20964	0.17351	-0.67083	-2.0208	-1.0979	-1.5646	-1.9333	-0.91042	-2.0771	-1.7479	-0.94375	-2.0667	-1.3563	-1.5354	-1.9667	-1.1812	-1.5896	-1.6688	155.130	-110.388	8.965	171.894	82.567	162.962	142.675	111.022	67.834	-128.746	131.332	181.592	139.380	185.742	85.331	87.231	0.00086008	0.00074748	4.5161e-05	1391.4	3.3979e-06	3.8138e-06	1391.5	375.25	7.4555e-06	2.7574e-06	428.88	143.59	125.28	42.21	9.8852e-06	52.027	0.00065012	0.00062765	0.00017525	1419.5	6.9062e-06	6.9714e-06	1419.7	384.8	6.9447e-06	6.9492e-06	440.12	147.39	128.46	43.671	6.8328e-06	54.017	-32.101	-82.655	-108.912	-157.091	-67.913	-6.914	-157.217	-152.520	-11.114	50.821	-153.034	-148.627	-148.906	-143.335	-39.554	-144.602	-8191	255	
1082.807	1	1	0	0	0.17522	0.12569	0.14941	0.23087	0.041356	0.11785	0.10341	0.18182	0.12232	0.22296	0.35343	0.20414	0.045764	0.31479	0.16678	0.23191	-0.46458	-1.9417	-1.2208	-1.4125	-1.9042	-0.91875	-1.9458	-2.1167	-0.78542	-1.7875	-1.125	-1.4042	-1.9937	-1.1271	-1.4688	-1.8583	-50.026	128.063	124.823	-155.448	185.534	89.522	145.705	89.106	-0.167	73.673	164.211	129.772	90.139	120.690	-108.628	149.402	0.00094663	0.00061567	0.00013468	1395.4	3.1378e-06	2.3464e-06	1398.4	376.72	6.3033e-06	6.1851e-06	429.39	143.16	126.23	42.198	4.7475e-06	52.028	0.00064608	0.00062966	0.00017259	1420.9	6.915e-06	6.9435e-06	1422.3	385.49	6.9634e-06	6.9196e-06	440.93	147.34	128.57	43.653	6.8931e-06	53.963	-34.175	-102.311	-82.595	-157.047	97.362	-80.827	-157.346	-152.478	-49.998	31.997	-153.225	-148.487	-148.415	-143.764	25.858	-144.501	-8191	255	
1082.903	1	1	0	0	0.039511	0.14897	0.052173	0.1771	0.052474	0.13446	0.23421	0.22255	0.16014	0.20999	0.22226	0.28676	0.085003	0.46391	0.096171	0.16147	-0.5125	-1.9521	-1.4312	-1.5896	-2.0354	-1.1333	-1.8021	-2.0875	-1.0521	-1.8708	-1.7313	-1.2271	-2.1042	-1.3646	-1.5021	-2.0896	-34.676	97.103	34.171	26.036	125.504	-98.202	120.185	133.374	-138.078	-52.375	-152.464	91.911	-11.223	139.235	21.808	-20.448	0.00087462	0.00047876	0.00014384	1392.4	5.9449e-06	6.0853e-06	1399.3	376.82	9.2534e-06	5.7989e-06	431.47	143.65	125.86	42.237	4.4235e-06	52.288	0.00064172	0.00062232	0.00017561	1422.9	6.9436e-06	6.9963e-06	1425.5	385.56	6.9419e-06	6.9982e-06	441.99	147.55	129.06	43.727	7.0235e-06	54.086	-34.506	-97.882	-47.163	-156.855	-60.822	20.612	-157.302	-152.654	-47.418	54.469	-153.107	-148.680	-148.074	-143.550	49.749	-144.497	-8191	255	
1082.975	1	1	0	0	0.33344	0.14693	0.1044	0.27605	0.14628	0.28585	0.33197	0.28798	0.15898	0.19335	0.055447	0.16443	0.128	0.2395	0.085934	0.19729	-0.62917	-1.8479	-1.4438	-1.3438	-1.9979	-1.275	-1.8188	-2.1875	-0.92917	-1.8417	-1.9167	-1.2042	-2.0708	-1.4458	-1.4771	-2.0833	151.934	-44.444	39.744	133.904	107.513	131.702	162.650	101.081	89.956	-91.785	90.483	-168.729	-129.889	159.011	67.764	78.194	0.00091178	0.00036379	8.2334e-05	1400.2	4.3211e-06	1.5371e-06	1399.9	377.05	8.8289e-06	5.6696e-06	429.22	143.27	126.25	42.467	4.6729e-06	52.128	0.00064081	0.00062912	0.0001768	1427.8	6.9725e-06	7.0388e-06	1426.9	385.93	6.8552e-06	6.9125e-06	441.78	147.43	129.11	43.749	7.0213e-06	54.166	-34.410	-104.005	-135.995	-156.696	-16.029	-16.189	-157.190	-152.592	-11.099	-90.533	-152.948	-148.751	-148.597	-143.605	-60.171	-144.329	-8191	255	
1083.073	1	1	0	0	0.066548	0.12005	0.14195	0.48662	0.11332	0.18942	0.13756	0.36045	0.16393	0.092926	0.13219	0.049181	0.071307	0.33594	0.037761	0.20863	-0.75625	-1.7917	-1.7979	-1.1354	-1.9396	-1.5063	-1.4396	-2.2167	-0.97083	-1.7521	-1.8667	-1.1896	-1.9604	-1.6938	-1.0063	-2.1542	-38.095	-169.836	-68.038	127.641	-143.798	-114.267	-135.109	138.081	-146.256	60.370	-114.978	84.380	-126.208	148.184	-17.125	-133.468	0.0008493	0.0005634	0.0002039	1393.6	5.0751e-06	3.5184e-06	1405.1	379.21	8.3228e-06	9.2842e-07	431.09	144.06	125.72	42.372	6.1927e-06	52.068	0.00064485	0.00063237	0.00017948	1425.3	6.9536e-06	6.9539e-06	1429	387.01	6.9774e-06	6.8692e-06	442.69	147.85	128.71	43.756	7.1038e-06	54.164	-28.456	-77.813	-93.898	-156.958	-78.309	-41.858	-157.243	-152.612	23.351	-98.303	-153.008	-148.997	-148.366	-143.796	-19.663	-144.699	-8191	255	
1083.192	1	1	0	0	0.14842	0.12424	0.15427	0.19497	0.1841	0.15933	0.4245	0.081547	0.24012	0.27456	0.12223	0.20663	0.043631	0.15621	0.28133	0.33073	-0.68958	-1.6125	-2.0021	-1.1604	-1.9479	-1.525	-1.3583	-2.2687	-1.0646	-1.4771	-2.0271	-0.975	-1.9292	-1.3396	-0.93333	-2.2687	-72.082	72.670	-84.753	-150.087	-159.435	-159.460	138.110	141.187	-152.917	-131.640	-85.241	99.286	-123.025	-84.332	74.781	124.807	0.00082857	0.00066096	0.00027764	1401.5	4.7396e-06	5.1568e-06	1400.5	377.21	1.1128e-05	6.351e-06	432.3	143.92	127.11	42.224	7.3186e-06	52.483	0.00064079	0.00063469	0.00017487	1430.3	6.8562e-06	6.9463e-06	1430	386.89	6.7919e-06	6.8751e-06	443.02	147.5	129.29	43.743	6.9777e-06	54.204	-34.965	-83.978	-82.492	-156.862	-14.509	-27.432	-156.887	-152.339	-15.904	-4.224	-152.907	-148.955	-148.604	-143.750	-17.131	-144.616	-8191	255	
1083.288	1	1	0	0	0.27087	0.054592	0.18352	0.46951	0.032327	0.32168	0.12604	0.32323	0.047855	0.1154	0.16882	0.13056	0.10278	0.17085	0.1967	0.033957	-0.91667	-1.3917	-1.8583	-1.2625	-1.6833	-1.5812	-1.5125	-2.2896	-1.4833	-1.2958	-2.0938	-1.2	-1.975	-1.8375	-0.83542	-1.9271	76.859	186.720	26.231	-159.429	-115.231	109.458	125.266	115.441	-144.911	-123.194	-164.527	-30.402	-144.189	-40.725	-21.530	8.713	0.00088025	0.00044623	0.00020138	1403.6	3.9942e-06	2.3485e-06	1404	377.29	8.5479e-06	5.0117e-06	432.82	144.3	125.47	42.362	5.0653e-06	52.553	0.00063366	0.00063979	0.00017534	1430.2	6.8184e-06	6.9467e-06	1430.6	387.08	6.9185e-06	6.7999e-06	442.93	148.01	128.61	43.822	6.819e-06	54.354	-34.290	-62.029	-84.236	-156.985	24.116	-81.830	-157.239	-152.398	-38.291	25.855	-153.087	-148.751	-148.125	-143.606	-15.145	-144.363	-8191	255	
1083.384	1	1	0	0	0.37288	0.12242	0.39584	0.065175	0.33924	0.07256	0.36273	0.12263	0.11801	0.23995	0.12362	0.17963	0.037615	0.20104	0.14896	0.12793	-1.0438	-1.1292	-1.9688	-1.1292	-1.8146	-1.7729	-1.1063	-2.0896	-1.5	-1.2646	-2.1208	-1.2292	-1.6833	-1.9875	-0.92708	-2.0896	23.572	60.095	63.181	-160.503	-73.619	140.288	-145.899	78.701	134.145	-71.214	176.420	137.481	-157.028	143.425	12.332	175.111	0.00092647	0.00056691	0.00011465	1402.9	1.1068e-05	3.6683e-06	1402.8	379.58	8.775e-06	3.5703e-06	432.21	144.78	126.21	42.474	6.4749e-06	52.303	0.00063224	0.00061626	0.00017075	1432.3	6.6552e-06	6.7605e-06	1432.1	387.25	6.7321e-06	6.7795e-06	442.93	148.02	128.86	43.867	6.5997e-06	54.222	-34.184	-6.237	-129.320	-157.077	-55.798	-5.830	-157.300	-152.265	-70.670	-11.800	-153.055	-148.716	-148.057	-143.484	-47.297	-144.302	-8191	255	
1083.505	1	1	0	0	0.10487	0.059022	0.16305	0.16292	0.096596	0.15147	0.26991	0.2437	0.25162	0.26572	0.21506	0.33913	0.17091	0.21774	0.15227	0.20013	-1.2729	-1.0583	-2.0979	-1.35	-1.6792	-1.9917	-1.2271	-2.1354	-1.5896	-1.0896	-2.1354	-1.2542	-1.4813	-1.9813	-0.925	-1.9333	157.177	-89.155	0.944	119.105	-83.889	40.418	-0.993	123.026	-83.644	-77.800	39.535	167.369	152.303	-83.161	78.898	121.799	0.00088246	0.00061076	0.00011625	1403.1	1.0382e-05	2.2769e-06	1406.9	378.26	7.4368e-06	7.2594e-06	433.29	143.91	126.14	42.254	6.3209e-06	52.33	0.00060179	0.00060147	0.00016358	1429.3	6.4245e-06	6.3831e-06	1430.5	386.76	6.3302e-06	6.2877e-06	442.74	147.38	128.45	43.729	6.1457e-06	54.025	-34.107	-57.463	-62.388	-156.993	-8.336	-5.808	-157.249	-152.594	-45.611	-28.716	-153.129	-148.561	-148.627	-143.676	5.048	-144.296	-8191	255	
1083.599	1	1	0	0	0.2287	0.082032	0.12624	0.13836	0.29172	0.051318	0.19171	0.137	0.11489	0.026835	0.23522	0.15377	0.15645	0.25575	0.060421	0.1045	-1.1021	-1.1187	-1.9958	-1.4	-1.2646	-2.1188	-1.1562	-1.9729	-1.7979	-0.99792	-2.1458	-1.4354	-1.0396	-2.2333	-1.2271	-1.8979	-116.688	35.520	130.553	148.616	-71.852	-40.812	124.649	142.337	-51.099	26.819	156.041	122.919	151.484	-143.642	-4.181	-117.301	0.00090719	0.0007219	0.00034017	1394.2	4.5209e-06	7.2593e-06	1393.4	377.4	1.2632e-05	6.2634e-06	428.96	142.87	125.06	42.325	5.9708e-06	52.244	0.00056415	0.00055219	0.00015364	1416.1	5.8764e-06	5.9706e-06	1416.2	385.04	5.8849e-06	6.0375e-06	439.11	146.66	127.6	43.568	5.8703e-06	53.902	-33.223	-134.114	-59.989	-157.010	-82.402	-29.693	-157.232	-152.413	-57.845	-22.508	-152.927	-148.927	-148.452	-143.207	-32.599	-144.194	-8191	255	
1083.673	1	1	0	0	0.24811	0.042053	0.16833	0.13833	0.12152	0.16187	0.25214	0.22486	0.10309	0.042413	0.19802	0.30039	0.083655	0.033409	0.12841	0.15616	-1.5729	-1.0729	-1.9438	-1.6833	-1.0354	-2.1333	-1.4229	-1.8062	-1.9625	-1.0812	-2.0417	-1.5396	-1.1375	-2.0167	-1.1708	-1.4958	151.950	33.422	36.523	81.215	11.663	-65.972	15.057	102.911	187.503	52.099	-162.949	131.540	68.558	172.334	30.279	-104.998	0.00087359	0.00037753	0.00022323	1383.9	1.0293e-05	3.0075e-06	1383.9	374.83	5.2099e-06	3.9507e-06	428.14	143.18	124.9	42.084	8.5306e-06	52.201	0.00055024	0.0005319	0.00014762	1409	5.9006e-06	5.8531e-06	1406.7	382.74	5.8337e-06	5.8337e-06	437.95	146.4	127.03	43.355	5.7693e-06	53.693	-37.013	-81.235	-68.533	-156.803	-40.283	-15.532	-157.115	-152.332	-15.701	-84.842	-153.000	-148.890	-147.992	-143.432	18.652	-144.352	-8191	255	
1083.793	1	1	0	0	0.1485	0.2296	0.21072	0.12165	0.33422	0.097798	0.32567	0.22528	0.2381	0.18524	0.18947	0.1424	0.23971	0.17424	0.30764	0.14535	-1.5562	-1.0208	-1.7042	-1.8083	-1.0312	-2.1312	-1.3438	-1.5854	-1.7104	-1.0042	-1.725	-1.6646	-1.1292	-2.2083	-1.2229	-1.1896	6.096	137.417	172.916	176.144	-104.889	-4.669	158.794	-12.104	119.353	80.381	118.227	182.882	157.492	-116.866	188.263	-28.829	0.0009859	0.00061413	0.00012987	1374.6	4.8678e-06	4.9325e-06	1380	373.33	8.0812e-06	3.6262e-06	426.47	142.75	124.62	42.019	3.8649e-06	51.831	0.00054502	0.00052778	0.00014578	1401.7	5.7034e-06	5.6745e-06	1400.9	381.13	5.6988e-06	5.6706e-06	435.97	146.07	126.62	43.295	5.6322e-06	53.643	-35.776	-112.384	-94.361	-157.182	-47.417	41.100	-157.330	-152.337	-66.838	-17.282	-152.982	-148.415	-148.235	-143.459	-60.065	-144.068	-8191	255	
1083.888	1	1	0	0	0.16587	0.18562	0.29612	0.45646	0.23498	0.079173	0.3042	0.13687	0.090495	0.11676	0.13149	0.20859	0.11113	0.19755	0.18472	0.17862	-1.7208	-0.98958	-1.7521	-1.7917	-0.94792	-2.0917	-1.5417	-1.2563	-2.15	-1.0146	-1.6104	-1.9208	-0.88333	-2.0187	-1.375	-1.2437	186.405	29.891	123.218	99.269	-75.447	174.520	142.140	-134.059	20.554	-25.558	107.427	149.110	-147.907	181.047	106.849	159.253	0.00094649	0.00043522	0.00013031	1368.7	5.7055e-06	6.4545e-06	1370	370.98	4.6187e-06	4.4835e-06	426.24	142.27	124.08	42.034	8.0148e-06	51.931	0.00053685	0.00050789	0.00014128	1393.5	5.6434e-06	5.5319e-06	1394.8	379.85	5.4967e-06	5.5535e-06	435.19	145.74	126.22	43.231	5.4393e-06	53.514	-33.113	-75.206	-106.559	-157.121	-12.854	-41.095	-157.209	-152.215	-30.855	-48.460	-152.676	-148.566	-148.088	-143.440	-30.260	-144.330	-8191	255	
1083.984	1	1	0	0	0.15779	0.36354	0.15333	0.44102	0.12644	0.090809	0.073421	0.084131	0.25789	0.15824	0.055982	0.16227	0.29201	0.027313	0.27271	0.10369	-1.5729	-1.0021	-1.5708	-1.9354	-1.1208	-1.9688	-1.6625	-1.1146	-1.8729	-1.0625	-1.7083	-1.9667	-1.0833	-1.9792	-1.4333	-1.2417	99.488	177.897	3.074	158.469	-54.808	-12.382	-92.450	161.756	-44.637	179.181	123.317	152.870	-13.586	-110.071	-40.919	-59.510	0.00092914	0.00067266	8.8737e-05	1367.5	3.7971e-06	6.8404e-06	1372.2	371.51	9.6839e-06	8.2598e-06	425.33	141.65	124.75	42.099	1.129e-05	51.842	0.00052316	0.00048885	0.0001375	1392.8	5.3307e-06	5.4048e-06	1393.4	379.21	5.3312e-06	5.2594e-06	434.17	145.26	126.02	43.263	5.2573e-06	53.575	-27.354	-81.340	-107.715	-156.919	6.232	-65.586	-157.119	-152.365	-0.725	-4.825	-152.706	-148.703	-148.024	-143.384	-42.003	-144.489	-8191	255	
1084.104	1	1	0	0	0.27084	0.13056	0.21481	0.3451	0.15518	0.22177	0.25696	0.16813	0.23948	0.4018	0.13405	0.2089	0.18802	0.16428	0.18821	0.13902	-1.7542	-1.1854	-1.0854	-2.1167	-0.97708	-1.7854	-1.8563	-1.1542	-2.0625	-1.4042	-1.4542	-1.9937	-1.1	-1.7917	-1.9688	-1.2229	-56.419	124.499	-60.785	168.157	160.239	124.141	112.482	153.031	-121.414	71.948	95.530	94.204	105.711	135.112	-102.283	-155.535	0.00094944	0.00042058	0.00017469	1369.5	7.6043e-06	4.2622e-06	1364.1	370.44	1.0417e-05	1.2149e-06	423.79	142.84	123.05	42.066	7.4598e-06	51.723	0.00050029	0.000479	0.00013322	1391.5	5.2359e-06	5.1457e-06	1390.5	378.19	5.2031e-06	5.1301e-06	433.14	145.4	125.54	43.197	5.0732e-06	53.425	-30.853	-95.279	-77.841	-156.912	-40.030	14.733	-157.508	-152.253	-14.109	-51.014	-152.854	-148.832	-147.971	-143.299	-32.012	-144.319	-8191	255	
1084.201	1	1	0	0	0.11011	0.10797	0.085317	0.13705	0.24106	0.21074	0.15896	0.14508	0.033433	0.33189	0.16925	0.23428	0.15718	0.17639	0.2007	0.19175	-1.7	-1.0917	-1.4104	-2.2042	-1.1146	-1.7563	-2.1479	-1.2146	-1.8917	-1.6417	-1.3	-2.2479	-1.2375	-1.6562	-1.7542	-1.225	139.459	91.511	178.364	152.266	-105.719	3.552	89.907	127.206	137.225	-93.537	181.670	-129.052	189.041	144.011	64.670	97.671	0.00088021	0.00074279	8.1662e-05	1361.9	2.8618e-06	5.1505e-06	1361.8	368.83	9.2694e-06	1.0329e-05	425.62	141.6	123.93	42.004	4.5486e-06	51.635	0.00049324	0.00046169	0.00013225	1382.2	5.0854e-06	5.0837e-06	1384.3	377.18	5.1455e-06	5.0568e-06	432.65	144.83	125.45	43.087	5.1448e-06	53.273	-31.601	-62.194	-135.962	-156.883	-28.412	-10.788	-157.220	-152.276	-11.947	-2.588	-152.726	-148.677	-148.416	-143.136	-11.723	-144.103	-8191	255	
1084.272	1	1	0	0	0.34687	0.27084	0.16707	0.29421	0.070462	0.15087	0.11842	0.1769	0.20162	0.19505	0.07222	0.16011	0.17309	0.025844	0.19698	0.23915	-1.3521	-1.5729	-1.0771	-2.3625	-1.2375	-1.6375	-2.1396	-1.2104	-1.8917	-1.6187	-1.4042	-2.0396	-1.2313	-1.6771	-1.7521	-1.025	-16.592	-31.797	41.364	152.051	-124.295	-105.829	-104.549	-152.123	21.783	0.711	-160.460	150.299	-42.535	147.978	-146.528	139.059	0.00088802	0.00030609	0.00014573	1355.2	6.7114e-06	3.7337e-06	1360.6	369.45	7.9815e-06	4.2942e-06	424.26	141.34	123.35	41.974	4.9098e-06	51.889	0.00048714	0.00046581	0.00013179	1378.8	5.1195e-06	5.0063e-06	1381.8	376.75	5.0914e-06	5.0887e-06	432.42	144.78	125.03	43.087	5.0628e-06	53.399	-28.634	-164.174	-75.636	-156.871	-25.995	13.141	-157.051	-152.418	-53.597	-13.463	-152.861	-148.297	-148.171	-143.195	-6.140	-144.450	-8191	255	
1084.368	1	1	0	0	0.28961	0.21631	0.093313	0.22848	0.41787	0.20021	0.32404	0.26642	0.40681	0.15052	0.04715	0.19147	0.043901	0.14108	0.25777	0.15135	-1.4167	-1.5271	-0.99167	-2.1521	-1.25	-1.2687	-1.9333	-1.0792	-1.675	-1.8375	-1.1167	-2.1458	-1.4	-1.3583	-2.0125	-0.975	30.016	8.239	-72.841	174.460	17.995	-3.703	106.504	119.122	164.037	-47.011	108.032	170.188	189.608	-159.544	57.004	156.286	0.00083686	0.00060259	9.984e-05	1355.2	6.5682e-06	8.7852e-07	1355.3	368.85	8.2308e-06	6.1308e-06	424.4	141.82	124.28	41.898	9.4825e-06	51.772	0.00047377	0.00045879	0.00012558	1377.7	4.9123e-06	4.8894e-06	1376.6	376.63	4.8912e-06	4.8339e-06	431.58	144.69	125.2	43.05	4.8257e-06	53.335	-32.683	-50.032	-95.471	-156.695	1.433	33.464	-157.050	-152.267	-68.063	23.714	-152.951	-148.613	-147.910	-143.432	-2.582	-144.511	-8191	255	
1084.489	1	1	0	0	0.12526	0.16444	0.35229	0.19212	0.1572	0.090892	0.3193	0.36115	0.27904	0.21176	0.44477	0.11839	0.15334	0.44357	0.28571	0.1845	-1.325	-1.9562	-0.81875	-2.4083	-1.325	-1.0187	-2.2542	-1.2396	-1.4958	-1.7375	-1.1958	-1.9646	-1.6958	-1.1938	-2.0812	-1.1812	156.959	-42.881	114.107	175.778	-10.939	-146.423	135.236	148.704	157.109	173.720	79.654	102.136	56.175	-165.304	120.141	-150.709	0.00084354	0.0006	9.1151e-05	1348.4	4.2817e-06	1.5093e-06	1354	368.33	8.4632e-06	4.3605e-06	422.3	141.83	123.57	41.828	6.9006e-06	51.975	0.00046099	0.00043613	0.00012157	1374.6	4.77e-06	4.7528e-06	1376.7	375.36	4.7639e-06	4.7863e-06	430.45	144.52	124.98	43.035	4.6958e-06	53.337	-33.598	-62.887	-25.919	-156.805	-67.955	-92.661	-157.040	-152.335	-36.895	-78.483	-152.536	-148.617	-148.245	-143.212	-47.549	-144.386	-8191	255	
1084.585	1	1	0	0	0.41505	0.016723	0.19167	0.24203	0.12589	0.15663	0.13925	0.14519	0.47138	0.26165	0.21693	0.058599	0.21019	0.20413	0.02701	0.020153	-1.3167	-1.7958	-1.05	-2.1188	-1.5833	-1.0146	-2.2708	-1.1625	-1.4979	-1.8771	-1.4	-1.9854	-1.7375	-1.0917	-1.9083	-1.2667	-31.539	68.567	-137.816	37.323	13.540	-80.808	79.425	104.100	104.782	37.604	94.662	140.199	17.290	146.451	8.745	135.257	0.00088394	0.00089826	0.00012306	1350.7	8.5755e-06	3.5921e-06	1352	368.14	7.2919e-06	5.0202e-06	422.42	141.8	124.24	41.919	8.6254e-06	51.808	0.00045564	0.00042711	0.00012009	1374.4	4.7224e-06	4.7054e-06	1375.2	375.65	4.7348e-06	4.6199e-06	430.5	144.49	124.76	43.042	4.6186e-06	53.271	-34.400	-89.585	-85.771	-156.805	-12.980	-20.618	-157.037	-152.373	-25.567	-5.788	-152.831	-148.447	-148.089	-143.385	-46.402	-144.129	-8191	255	
1084.681	1	1	0	0	0.16979	0.15834	0.35585	0.41012	0.13308	0.11408	0.31596	0.18669	0.24237	0.09137	0.39679	0.17273	0.058821	0.053706	0.15485	0.3095	-0.96458	-1.9333	-0.87292	-1.9979	-1.6896	-1.1167	-2.175	-1.2833	-1.1688	-2.0083	-1.3292	-1.8625	-1.8521	-1.0271	-1.9896	-1.6042	6.675	51.498	-130.592	180.141	126.562	-13.291	139.578	139.895	118.884	-138.169	161.499	188.142	148.145	96.522	36.248	139.184	0.0010086	0.0005131	0.00019955	1344.3	5.5087e-06	1.5092e-06	1352	366.89	5.2841e-06	4.2692e-06	422.41	141.43	123.68	41.812	5.189e-06	51.498	0.0004501	0.00041829	0.00011715	1368.3	4.5906e-06	4.6136e-06	1370.1	374.73	4.5976e-06	4.583e-06	429.67	144.18	124.59	42.824	4.6035e-06	52.998	-34.842	-73.054	-93.910	-156.721	-35.131	-41.008	-156.906	-152.188	4.174	-39.396	-152.869	-148.423	-147.877	-143.385	-44.065	-144.284	-8191	255	
1084.777	1	1	0	0	0.44432	0.061959	0.021998	0.27604	0.16944	0.18148	0.28127	0.23402	0.039821	0.025179	0.32147	0.20045	0.11465	0.17334	0.23586	0.35094	-0.92917	-1.8646	-1.1417	-1.6396	-1.8708	-1.0896	-2.2167	-1.5979	-1.2375	-2.0812	-1.3125	-1.7812	-1.8667	-1.2375	-1.9188	-1.6688	99.660	180.864	-163.576	-117.917	62.370	92.098	110.029	160.766	-119.471	-79.599	66.245	68.622	92.632	170.090	173.570	174.745	0.00083728	0.00046545	7.4364e-05	1343.5	4.1929e-06	3.6319e-06	1344.2	366.9	5.7299e-06	7.8182e-06	421.3	141.06	123.4	41.699	9.3898e-06	51.458	0.00045515	0.00041878	0.00011739	1363.9	4.6914e-06	4.6497e-06	1367.8	374.24	4.7196e-06	4.6444e-06	428.99	144.16	124.49	42.84	4.6257e-06	53.1	-32.336	-148.615	-64.582	-156.660	-32.230	-12.930	-156.955	-152.381	-54.652	-57.024	-152.922	-148.660	-147.918	-143.556	-31.698	-144.202	-8191	255	
1084.874	1	1	0	0	0.27904	0.28004	0.26178	0.29655	0.17111	0.12702	0.11858	0.11706	0.27133	0.082322	0.099712	0.25886	0.16231	0.18485	0.19472	0.099941	-0.69583	-2.1375	-1.1583	-1.6437	-2.0729	-1.0229	-1.9479	-1.6833	-1.0375	-2.0333	-1.4458	-1.4583	-1.9937	-1.0979	-1.7917	-1.8604	85.732	-98.108	175.807	124.078	-161.546	-77.714	-161.133	99.393	-16.158	-31.797	-77.984	-33.873	83.094	111.962	99.893	112.656	0.00089036	0.00045231	8.7511e-05	1342.5	7.1729e-06	1.0664e-05	1349.4	366.55	9.5018e-06	6.0729e-06	421.37	141.53	124.03	41.757	2.6979e-06	51.512	0.00045877	0.00043102	0.00011948	1366.7	4.7218e-06	4.7452e-06	1370	374.34	4.7944e-06	4.7026e-06	429.34	144.3	124.56	42.899	4.6985e-06	53.042	-32.947	-67.334	-160.737	-156.562	2.022	-16.742	-157.294	-152.353	-42.776	-60.092	-153.087	-148.446	-148.343	-143.560	-5.033	-144.430	-8191	255	
1084.968	1	1	0	0	0.23741	0.057634	0.20528	0.49283	0.56211	0.11334	0.35868	0.20743	0.079461	0.26349	0.083793	0.059324	0.1142	0.20434	0.080903	0.22545	-0.75625	-2.1417	-1.4604	-1.4708	-1.6375	-1.2146	-1.9458	-2.0563	-0.93542	-1.8667	-1.475	-1.3375	-1.9146	-1.2375	-1.5375	-1.9792	130.748	141.377	159.973	142.341	-133.342	88.248	158.984	165.134	28.331	-135.853	121.024	142.989	-111.684	-147.753	185.864	135.094	0.0009629	0.00059339	0.00014504	1344.9	7.6006e-06	3.3138e-06	1350.1	366.79	5.6038e-06	6.77e-06	421.61	141.91	123.35	41.86	4.2257e-06	51.777	0.00045534	0.00041678	0.00011839	1363.9	4.6136e-06	4.5934e-06	1367.9	374.6	4.6551e-06	4.4496e-06	429.09	144.47	124.4	42.995	4.5228e-06	53.234	-32.318	-67.563	-62.486	-156.726	-35.803	-63.061	-156.975	-152.352	-67.322	-33.308	-152.800	-148.353	-148.667	-143.248	1.271	-144.293	-8191	255	
1085.064	1	1	0	0	0.13866	0.18982	0.09008	0.39249	0.085893	0.14221	0.18205	0.082912	0.23929	0.11316	0.094076	0.33145	0.27685	0.13288	0.26355	0.18922	-0.47708	-1.9583	-1.4875	-1.325	-1.9542	-1.1562	-1.7354	-2.1396	-0.78333	-1.7062	-1.8458	-1.3104	-2.1	-1.2188	-1.4271	-1.9854	168.456	42.726	-59.758	-135.898	-160.425	165.301	66.164	-144.429	-151.663	95.281	56.239	-160.233	132.482	-100.814	-147.625	137.311	0.00094618	0.00034198	0.00013662	1342.3	5.2681e-06	4.5245e-06	1346	365.72	6.5641e-06	7.3172e-06	423.1	141.57	123.12	41.737	1.3409e-05	51.624	0.00044305	0.00040364	0.00011476	1366	4.4489e-06	4.4891e-06	1368.7	374.29	4.5717e-06	4.5079e-06	428.99	144.24	124.55	42.94	4.5348e-06	53.186	-28.681	-93.807	-85.055	-156.718	-63.397	-21.460	-157.013	-152.305	-33.094	-0.707	-152.754	-148.592	-147.887	-143.592	-29.383	-144.521	-8191	255	
1085.185	1	1	0	0	0.21245	0.023223	0.34157	0.19156	0.14307	0.084353	0.29567	0.18994	0.3525	0.19428	0.2511	0.14142	0.11514	0.26331	0.22584	0.090552	-0.73125	-1.8979	-1.7125	-1.3333	-2.0333	-1.4438	-1.9625	-2.2854	-0.98542	-1.7437	-1.8021	-1.175	-2.0292	-1.3021	-1.3	-2.1729	187.207	86.192	94.463	121.584	-58.186	-143.424	118.807	-122.630	126.871	175.482	98.407	-132.811	103.651	98.127	-105.234	51.849	0.0008988	0.00052301	5.6672e-05	1344.3	3.8678e-06	5.3503e-06	1343.1	366.88	7.8259e-06	7.8497e-06	421	141.11	123.76	41.759	5.7481e-06	51.491	0.00043984	0.00041698	0.0001149	1364.9	4.5255e-06	4.5082e-06	1365	374.18	4.5019e-06	4.5157e-06	428.19	144.04	124.59	42.868	4.4722e-06	53.053	-38.287	-65.178	-26.984	-156.613	-6.123	-23.113	-157.035	-152.413	-52.335	-20.782	-152.989	-148.486	-148.035	-143.572	9.311	-144.349	-8191	255	
1085.279	1	1	0	0	0.33919	0.20893	0.077335	0.21886	0.19789	0.33676	0.32694	0.32123	0.15586	0.11705	0.087964	0.12139	0.11606	0.23819	0.12338	0.32566	-0.55833	-1.6292	-1.9021	-0.975	-2.0333	-1.5438	-1.4229	-2.275	-1.4	-1.6875	-1.9646	-1.2146	-1.9833	-1.6437	-1.2333	-2.1771	7.788	142.662	113.019	185.265	180.350	106.885	98.215	136.686	-132.222	39.641	91.468	126.366	93.416	-158.340	50.111	133.414	0.00093778	0.00040191	0.00018383	1340.2	9.2097e-06	4.5366e-06	1341.5	368.01	1.0882e-05	2.1435e-06	420.34	140.84	123.12	41.577	6.833e-06	51.781	0.00043507	0.00040314	0.00011496	1362.5	4.3653e-06	4.496e-06	1363.9	374.2	4.4346e-06	4.4218e-06	428.38	144.1	124.48	42.812	4.5276e-06	53.149	-34.743	-41.687	-75.152	-156.630	-18.540	-7.436	-156.987	-152.457	-61.566	97.046	-152.668	-148.498	-148.385	-143.486	-16.822	-144.390	-8191	255	
1085.375	1	1	0	0	0.26114	0.076585	0.16185	0.32819	0.15476	0.097737	0.15673	0.090452	0.059866	0.20454	0.1108	0.21506	0.30184	0.30416	0.20483	0.019376	-0.77708	-1.5125	-1.825	-1.2313	-1.7646	-1.725	-1.3708	-2.175	-1.1854	-1.4271	-2.1417	-0.96875	-1.7854	-1.5458	-1.1354	-2.3042	173.718	-27.922	-159.614	166.955	155.291	-166.463	65.659	167.801	75.544	63.556	-155.421	75.729	117.569	97.967	169.667	175.179	0.00095158	0.00055929	0.00019751	1337	8.6734e-06	2.3987e-06	1347.1	367.09	9.5101e-06	3.6679e-06	420.54	140.99	123.12	41.782	7.676e-06	51.551	0.00043354	0.00040998	0.00011358	1359.6	4.5116e-06	4.4695e-06	1364.9	373.61	4.5625e-06	4.4772e-06	428.29	143.94	124.59	42.84	4.5491e-06	53.06	-36.239	-105.674	-120.200	-156.972	-27.909	-86.036	-157.180	-152.430	-35.351	27.388	-153.098	-148.513	-147.956	-143.673	-3.308	-144.414	-8191	255	
1085.471	1	1	0	0	0.20142	0.42354	0.27319	0.18914	0.073916	0.18204	0.22579	0.12062	0.20261	0.13328	0.19904	0.16683	0.017996	0.35148	0.17161	0.16238	-0.9625	-1.2208	-2.0396	-1.2917	-1.7938	-1.5792	-1.3021	-2.1896	-1.4875	-1.2521	-2.4062	-1.2021	-1.9188	-1.8229	-1.1812	-2.0396	136.402	-76.846	-68.363	154.995	-25.420	12.427	118.903	-151.930	59.411	58.334	119.097	-134.812	-58.113	-130.555	-69.489	149.693	0.00088148	0.0010565	0.00022312	1337	3.8648e-06	3.503e-06	1345.2	367.31	7.4604e-06	3.7859e-06	420.68	141.62	122.67	41.768	9.927e-06	51.789	0.00043794	0.00041328	0.00011401	1359.2	4.4994e-06	4.5821e-06	1364.8	374.29	4.5493e-06	4.5205e-06	428.43	144.06	123.72	42.879	4.5489e-06	53.267	-35.779	-84.016	-44.025	-157.135	-48.257	48.373	-157.174	-152.369	-68.461	-57.358	-152.768	-148.577	-147.958	-143.540	-19.320	-144.050	-8191	255	
1085.568	1	1	0	0	0.13989	0.20196	0.25146	0.14429	0.062625	0.032668	0.20143	0.35619	0.23257	0.14295	0.17138	0.14483	0.18666	0.13868	0.071936	0.30918	-1.2292	-1.3979	-1.9688	-1.2896	-1.4917	-1.8312	-1.3333	-2.075	-1.4625	-1.1271	-2.1917	-1.0979	-1.5625	-2.0854	-1.1896	-2.1708	162.564	100.013	187.886	172.301	59.332	160.127	160.268	-84.757	170.121	-160.097	112.816	189.283	5.067	-156.760	102.238	138.844	0.00095382	0.00055232	0.00018772	1340.6	5.1301e-06	3.6841e-06	1345.9	367.36	1.0768e-05	6.0484e-06	419.5	141.07	123.06	41.905	6.7467e-06	51.787	0.00044429	0.00041975	0.00011498	1359.2	4.5227e-06	4.5372e-06	1366.5	374.32	4.5691e-06	4.4565e-06	428.07	144.01	124.59	42.892	4.5818e-06	53.198	-34.198	-48.876	-90.291	-156.931	-26.251	4.125	-157.488	-152.473	-19.002	-16.282	-153.030	-148.371	-148.027	-143.312	-51.403	-144.373	-8191	255	
1085.664	1	1	0	0	0.078469	0.2668	0.075226	0.53986	0.40607	0.37787	0.13089	0.22615	0.41958	0.10832	0.19289	0.3645	0.12397	0.28073	0.026696	0.35259	-1.1354	-1.1979	-2.0396	-1.2938	-1.3813	-1.9979	-1.075	-2.2	-1.5542	-1.1187	-2.1771	-1.3687	-1.3521	-1.9958	-1.0229	-1.8813	-96.659	121.365	24.181	147.438	166.740	-39.463	123.132	155.043	136.693	-148.354	76.214	108.677	110.972	164.993	-112.111	117.689	0.00089297	0.00015152	0.00016131	1339	4.37e-06	4.7956e-06	1344.5	366.29	8.2958e-06	9.6629e-06	420.6	140.99	122.59	41.679	9.6591e-06	51.907	0.00044094	0.0004137	0.00011414	1359.5	4.4957e-06	4.583e-06	1365.3	374.01	4.6104e-06	4.5981e-06	428.79	143.94	124.44	42.9	4.4893e-06	53.117	-30.369	6.103	-84.441	-156.878	8.235	-32.566	-157.033	-152.168	-49.736	-69.876	-153.000	-148.707	-148.118	-143.397	2.573	-144.421	-8191	255	
1085.784	1	1	0	0	0.096836	0.058922	0.13197	0.28749	0.018985	0.082235	0.25009	0.32617	0.085858	0.24203	0.18745	0.21532	0.30337	0.18682	0.25351	0.069309	-1.2563	-0.98958	-2.0146	-1.4646	-1.2708	-2.1771	-1.4396	-1.825	-1.8646	-1.0458	-2.1292	-1.6271	-1.1938	-2.125	-1.2563	-1.8021	7.501	108.675	-102.168	165.208	-18.319	-167.130	166.996	178.300	124.919	172.100	23.219	151.376	45.525	-123.270	46.924	-33.962	0.00092914	0.00039369	0.00010209	1342.1	4.7531e-06	4.0312e-06	1345.8	367.74	4.2004e-06	2.495e-06	420.63	140.94	122.72	41.654	8.2202e-06	51.939	0.00044118	0.00041379	0.0001145	1360.9	4.5439e-06	4.4579e-06	1364.9	374.55	4.4964e-06	4.5067e-06	428.7	143.89	123.92	42.887	4.4486e-06	53.304	-34.494	-72.430	-92.750	-156.951	2.213	-23.556	-157.080	-152.115	-38.700	6.087	-152.730	-148.536	-147.708	-143.568	-27.721	-143.986	-8191	255	
1085.881	1	1	0	0	0.14316	0.15599	0.15706	0.55631	0.10031	0.19079	0.36016	0.041621	0.1954	0.19147	0.33593	0.15737	0.26709	0.26716	0.13612	0.2394	-1.6417	-1.0688	-1.9292	-1.5	-1.0958	-2.0146	-1.3479	-1.7625	-1.8833	-0.9375	-1.8333	-1.7875	-0.97292	-2.1292	-1.2958	-1.4688	181.938	-51.701	-70.178	156.000	187.612	-155.143	88.700	-126.068	1.045	182.573	90.002	155.861	178.261	167.299	120.706	54.123	0.00097264	0.00037185	7.6163e-05	1337.5	6.7903e-06	6.0877e-06	1346.6	366.18	5.4884e-06	5.9886e-06	420.13	141.14	122.96	41.591	9.7352e-06	51.752	0.00043467	0.00040938	0.0001121	1360.1	4.4963e-06	4.4009e-06	1366.1	373.65	4.4462e-06	4.4942e-06	428.14	143.9	123.78	42.868	4.4138e-06	53.209	-31.560	-58.908	-60.403	-156.936	30.923	-21.329	-157.261	-152.221	-58.208	-34.488	-152.922	-148.771	-147.974	-143.332	-60.334	-144.130	-8191	255	
1085.977	1	1	0	0	0.20087	0.095253	0.15483	0.15712	0.11145	0.13565	0.36776	0.46138	0.13853	0.14478	0.18621	0.19207	0.053269	0.20991	0.14141	0.11779	-1.7062	-1.1729	-1.6875	-1.9021	-1	-2.0083	-1.3229	-1.5458	-2.1667	-0.99792	-2.0271	-1.8521	-1.1771	-2.1417	-1.2771	-1.3062	-56.068	-35.278	-100.705	102.115	-164.362	-65.451	181.485	184.586	104.593	35.873	109.219	-38.345	58.174	-4.624	159.910	166.455	0.00098881	0.00018786	0.00014344	1339.2	3.9584e-06	4.8141e-06	1345.6	367.19	8.9743e-06	2.6813e-06	421.85	141.21	121.78	41.779	9.3928e-06	51.395	0.00044102	0.00040353	0.00011329	1360.5	4.4865e-06	4.4929e-06	1364.5	373.53	4.5275e-06	4.5489e-06	429.56	143.81	123.95	42.891	4.5455e-06	53.017	-31.439	-147.064	-107.206	-156.916	-43.214	-45.763	-156.922	-152.140	-32.785	48.933	-152.806	-148.594	-148.079	-143.413	-22.582	-144.093	-8191	255	
1086.073	1	1	0	0	0.12214	0.22956	0.16464	0.28748	0.13842	0.1093	0.36706	0.36176	0.20513	0.31018	0.38224	0.32431	0.20716	0.25902	0.12983	0.17913	-1.7229	-1.025	-1.7375	-2.0229	-1.0375	-2.0521	-1.6187	-1.5271	-2.2604	-1.25	-1.6646	-1.8354	-0.94375	-1.9208	-1.5021	-1.5187	68.622	96.395	-137.153	100.726	154.394	24.521	128.551	165.237	132.413	9.631	-165.523	149.572	161.693	-160.359	-57.384	160.111	0.00090344	0.00058078	0.00016075	1338.6	8.0578e-06	4.7205e-06	1347.8	365.62	9.0817e-06	5.8372e-06	420.72	141	122.31	41.638	2.458e-06	51.783	0.00044307	0.00042069	0.00011529	1360.1	4.6548e-06	4.5331e-06	1365.1	373.65	4.6528e-06	4.6052e-06	427.94	143.9	123.91	42.788	4.6601e-06	53.126	-34.044	-84.022	-93.548	-156.880	0.323	-70.084	-156.926	-152.261	-31.559	-26.372	-152.625	-148.341	-147.677	-143.238	-74.677	-144.423	-8191	255	
1086.145	1	1	0	0	0.10932	0.17303	0.2545	0.25366	0.077033	0.32688	0.17629	0.29446	0.24897	0.23578	0.20182	0.19023	0.11383	0.30344	0.039895	0.21814	-1.4562	-1.1437	-1.625	-2.0229	-0.99792	-1.9375	-1.7417	-1.2563	-2.0146	-1.3167	-1.5625	-2.0292	-0.98542	-2.0125	-1.9875	-1.3188	170.291	118.214	-27.367	132.557	-37.850	36.713	-160.555	105.068	58.576	15.832	88.706	67.092	127.637	-128.678	6.160	-151.252	0.00087027	0.00050492	0.00025785	1338.1	4.5362e-06	3.2226e-06	1345.2	366.77	7.0657e-06	8.2985e-06	420.26	141.11	123.93	41.708	4.0796e-06	51.661	0.00044193	0.00041894	0.00011743	1358.5	4.6337e-06	4.5847e-06	1364.5	373.73	4.5377e-06	4.5906e-06	428.58	144.2	124.54	42.834	4.5184e-06	53.106	-37.407	-117.535	-72.595	-156.525	10.722	2.733	-156.989	-152.151	-40.553	-23.537	-152.625	-148.649	-147.988	-143.036	3.300	-143.858	-8191	255	
1086.263	1	1	0	0	0.12783	0.023697	0.20365	0.098769	0.34767	0.26629	0.34216	0.32829	0.13793	0.13188	0.14289	0.18109	0.04083	0.33492	0.032602	0.038276	-1.5708	-1.2771	-1.4208	-2.2542	-0.97917	-1.825	-1.8563	-1.0979	-2.0083	-1.4562	-1.6208	-2.0687	-1.0146	-1.9667	-1.8438	-1.3167	-165.311	65.214	-120.594	157.758	-57.351	-117.576	98.944	173.754	-122.811	-107.489	-128.902	-160.419	-150.984	98.996	177.848	153.053	0.00092485	0.00050816	0.00015843	1339.6	9.3342e-06	3.6076e-06	1346.3	368.2	8.4617e-06	6.3586e-06	423.42	140.66	123.69	41.662	8.1899e-06	51.458	0.00044368	0.00041905	0.00011642	1360.8	4.7031e-06	4.5872e-06	1364.9	374.01	4.6276e-06	4.5664e-06	429.34	143.94	124.4	42.823	4.6102e-06	53.083	-40.700	-99.998	-71.263	-156.667	-9.949	18.514	-157.104	-152.039	-34.878	7.302	-152.620	-148.427	-148.030	-143.412	-44.931	-144.206	-8191	255	
1086.360	1	1	0	0	0.18896	0.12248	0.027049	0.37571	0.22185	0.23894	0.3063	0.2566	0.021914	0.20272	0.11111	0.29315	0.069333	0.26873	0.20146	0.23075	-1.675	-1.3833	-1.1562	-2.2021	-1.1167	-1.5833	-2.1729	-1.3167	-1.8208	-1.5187	-1.2458	-2.1188	-1.1	-1.6896	-1.8583	-1.1833	110.041	-135.800	-158.887	105.068	104.940	96.698	123.659	139.239	-163.782	5.808	76.150	-125.312	-116.833	149.118	-89.199	125.812	0.00096277	0.00072405	9.5453e-05	1337.8	8.2744e-06	4.3937e-06	1341.1	367.25	7.0851e-06	3.1948e-06	419.88	140.63	123.6	41.782	6.4825e-06	51.581	0.00043905	0.00041718	0.00011719	1361.3	4.6029e-06	4.5976e-06	1364.8	373.6	4.5345e-06	4.5634e-06	428.31	143.82	124.46	42.865	4.5786e-06	53.069	-31.268	-64.087	-61.911	-156.520	-43.827	24.399	-157.040	-152.065	-52.869	-3.800	-152.501	-148.754	-148.003	-143.006	-22.132	-144.172	-8191	255	
1086.456	1	1	0	0	0.25745	0.17017	0.29594	0.38475	0.076439	0.24654	0.30026	0.25431	0.33406	0.19213	0.19324	0.018755	0.12205	0.20435	0.15951	0.24221	-1.5771	-1.5771	-1.1292	-2.2833	-1.3604	-1.4937	-2.0396	-1.1604	-1.9271	-1.6833	-1.1583	-2.1729	-1.3729	-1.4979	-1.9083	-1.05	-105.520	125.214	-26.898	125.137	-21.006	-52.111	108.367	139.244	-5.026	87.908	77.568	32.612	116.974	154.899	139.746	170.841	0.00088146	0.00040803	0.00011078	1341	5.2889e-06	4.4116e-06	1340.6	366.89	6.19e-06	6.147e-06	420.65	140.47	123.61	41.796	3.5902e-06	51.544	0.00043947	0.00041048	0.00011536	1360.3	4.5182e-06	4.5491e-06	1362.9	373.63	4.5773e-06	4.5216e-06	427.66	143.86	124.29	42.901	4.6098e-06	53.02	-37.603	-41.510	-73.702	-156.520	-27.909	-31.143	-156.860	-151.791	-6.594	18.239	-152.691	-148.249	-148.146	-143.304	-36.796	-143.969	-8191	255	
1086.552	1	1	0	0	0.21524	0.082847	0.10325	0.26755	0.1661	0.055806	0.25391	0.26277	0.16746	0.044547	0.10874	0.12815	0.069455	0.10122	0.11998	0.22372	-1.2188	-1.7521	-0.88333	-2.0667	-1.2062	-1.3771	-2.1396	-1.1125	-1.7167	-1.75	-1.2938	-1.7896	-1.4188	-1.45	-2.0917	-1.2417	-58.701	16.486	-100.780	-107.918	-24.623	161.918	123.587	137.955	108.122	64.721	96.803	-150.121	169.082	-56.042	-110.023	166.956	0.00092939	0.00039895	0.00011619	1339.3	3.7632e-06	1.0674e-06	1340.5	365.34	1.0714e-05	3.9022e-06	421.18	141.76	123.19	41.816	4.2681e-06	51.77	0.00044212	0.00042224	0.00011658	1361.4	4.5372e-06	4.5972e-06	1362.4	373.4	4.4895e-06	4.5634e-06	428.17	144.24	123.93	42.862	4.6309e-06	53.165	-28.729	-89.982	-100.667	-156.401	-23.460	14.880	-156.829	-151.819	-6.827	-0.876	-152.761	-148.409	-147.790	-142.821	-19.462	-144.108	-8191	255	
1086.672	1	1	0	0	0.36934	0.15384	0.24148	0.12741	0.24903	0.12606	0.028037	0.26645	0.10733	0.15212	0.33467	0.29168	0.15631	0.1383	0.55717	0.15547	-1.2521	-1.8375	-0.87917	-2.0896	-1.3188	-1.3583	-2.4521	-1.5	-1.4917	-1.8729	-1.1396	-2.1	-1.7792	-1.2396	-2.175	-1.5396	47.728	82.190	-5.897	180.445	151.706	-96.144	32.915	118.332	77.391	-146.187	68.979	-134.733	-30.866	-66.911	29.957	184.207	0.00096194	0.00051304	0.00018611	1336.5	3.9956e-06	2.8251e-06	1341.9	366.15	4.0367e-06	5.9617e-06	420.25	141.53	123.18	41.827	6e-06	51.568	0.00043839	0.00041702	0.00011618	1358.4	4.515e-06	4.5837e-06	1361.3	373.56	4.555e-06	4.4947e-06	427.93	144.13	124.26	42.881	4.5954e-06	53.112	-32.753	-72.005	-15.048	-156.519	-37.537	-20.907	-157.026	-152.051	18.460	-32.943	-152.625	-148.154	-148.231	-143.503	-16.792	-144.576	-8191	255	
1086.769	1	1	0	0	0.14749	0.063777	0.10889	0.35674	0.20209	0.12563	0.28333	0.16927	0.18167	0.042672	0.172	0.22442	0.16999	0.079914	0.092765	0.33966	-1.0333	-2.0354	-0.9875	-2.05	-1.625	-0.98333	-2.1917	-1.4083	-1.5375	-2.0187	-1.1313	-1.7771	-1.8917	-1.2188	-1.9625	-1.5646	-29.486	112.523	122.665	149.136	-109.606	-92.101	99.059	-155.196	2.261	62.307	138.099	141.728	65.978	56.088	48.881	130.533	0.00096837	0.00066426	0.00012823	1337.4	9.8241e-06	2.7476e-06	1346.7	366.97	9.4663e-06	7.1649e-06	418.88	140.63	123.97	41.84	4.3635e-06	51.44	0.00044536	0.00041784	0.00011605	1359.6	4.5382e-06	4.5686e-06	1364.7	373.53	4.6611e-06	4.4976e-06	427.68	143.81	124.47	42.922	4.5312e-06	53.001	-30.598	-79.032	-101.456	-156.742	-34.262	64.766	-157.208	-152.245	-45.110	-18.031	-152.838	-148.392	-148.444	-143.414	-64.990	-144.267	-8191	255	
#DATA ENDS
