BOXY.EXE: ISS Imagent and Oximeter Data Acquisition Program Version 0.80
Ascii Record File

#ACQ INFORMATION
2  Detector Channels 
16  External MUX Channels 
1  Auxiliary Channels 
5000  Waveform (CCF) Frequency (Hz)
1  Waveforms Skipped 
30  Waveforms Averaged 
1  Cycles Averaged 
16  Acquisitions per Waveform 
10.0806  Updata Rate (Hz) 

#FILE INFORMATION
TRUE -- External MUX Channel results are PARSED.
FALSE -- AC DC and Phase are NOT grouped.
TRUE -- Companion Program Settings File CREATED.
FALSE -- AC data not excluded
FALSE -- DC data not excluded
FALSE -- Phase data not excluded
FALSE -- Auxillary Chn. data not excluded
Tab delimiters

#CALIBRATION STATE
TRUE -- Waveform Calibration Values APPLIED.


#AUX CALIBRATION VALUES
Val Type	aux-1	

Term	1.0000e+00	
Factor	0.0000e+00	


#WF CALIBRATION VALUES
A = Detector Channel
Val Type	A-AC1	A-AC2	A-AC3	A-AC4	A-AC5	A-AC6	A-AC7	A-AC8	A-AC9	A-AC10	A-AC11	A-AC12	A-AC13	A-AC14	A-AC15	A-AC16	A-DC1	A-DC2	A-DC3	A-DC4	A-DC5	A-DC6	A-DC7	A-DC8	A-DC9	A-DC10	A-DC11	A-DC12	A-DC13	A-DC14	A-DC15	A-DC16	A-Ph1	A-Ph2	A-Ph3	A-Ph4	A-Ph5	A-Ph6	A-Ph7	A-Ph8	A-Ph9	A-Ph10	A-Ph11	A-Ph12	A-Ph13	A-Ph14	A-Ph15	A-Ph16	

Term	0.00000e+00	0.00000e+00	0.00000e+00	0.00000e+00	0.00000e+00	0.00000e+00	0.00000e+00	0.00000e+00	0.00000e+00	0.00000e+00	0.00000e+00	0.00000e+00	0.00000e+00	0.00000e+00	0.00000e+00	0.00000e+00	0.00000e+00	0.00000e+00	0.00000e+00	0.00000e+00	0.00000e+00	0.00000e+00	0.00000e+00	0.00000e+00	0.00000e+00	0.00000e+00	0.00000e+00	0.00000e+00	0.00000e+00	0.00000e+00	0.00000e+00	0.00000e+00	0.00000e+00	0.00000e+00	0.00000e+00	0.00000e+00	0.00000e+00	0.00000e+00	0.00000e+00	0.00000e+00	0.00000e+00	0.00000e+00	0.00000e+00	0.00000e+00	0.00000e+00	0.00000e+00	0.00000e+00	0.00000e+00	
Factor	1.00000e+00	1.00000e+00	1.00000e+00	1.00000e+00	1.00000e+00	1.00000e+00	1.00000e+00	1.00000e+00	1.00000e+00	1.00000e+00	1.00000e+00	1.00000e+00	1.00000e+00	1.00000e+00	1.00000e+00	1.00000e+00	1.00000e+00	1.00000e+00	1.00000e+00	1.00000e+00	1.00000e+00	1.00000e+00	1.00000e+00	1.00000e+00	1.00000e+00	1.00000e+00	1.00000e+00	1.00000e+00	1.00000e+00	1.00000e+00	1.00000e+00	1.00000e+00	X	X	X	X	X	X	X	X	X	X	X	X	X	X	X	X	

B = Detector Channel
Val Type	B-AC1	B-AC2	B-AC3	B-AC4	B-AC5	B-AC6	B-AC7	B-AC8	B-AC9	B-AC10	B-AC11	B-AC12	B-AC13	B-AC14	B-AC15	B-AC16	B-DC1	B-DC2	B-DC3	B-DC4	B-DC5	B-DC6	B-DC7	B-DC8	B-DC9	B-DC10	B-DC11	B-DC12	B-DC13	B-DC14	B-DC15	B-DC16	B-Ph1	B-Ph2	B-Ph3	B-Ph4	B-Ph5	B-Ph6	B-Ph7	B-Ph8	B-Ph9	B-Ph10	B-Ph11	B-Ph12	B-Ph13	B-Ph14	B-Ph15	B-Ph16	

Term	0.00000e+00	0.00000e+00	0.00000e+00	0.00000e+00	0.00000e+00	0.00000e+00	0.00000e+00	0.00000e+00	0.00000e+00	0.00000e+00	0.00000e+00	0.00000e+00	0.00000e+00	0.00000e+00	0.00000e+00	0.00000e+00	0.00000e+00	0.00000e+00	0.00000e+00	0.00000e+00	0.00000e+00	0.00000e+00	0.00000e+00	0.00000e+00	0.00000e+00	0.00000e+00	0.00000e+00	0.00000e+00	0.00000e+00	0.00000e+00	0.00000e+00	0.00000e+00	-2.23846e+00	-1.31119e+02	-1.35896e+02	-1.81478e+02	-5.32445e+01	-6.29258e+01	-1.58115e+02	-1.62015e+02	-5.21912e+01	-6.51356e+01	-1.73607e+02	-1.71776e+02	-1.83012e+02	-1.76573e+02	-5.74558e+01	-1.49837e+02	
Factor	3.30459e-05	1.49444e-04	4.39707e-05	1.58432e-01	1.72561e-06	1.36174e-06	1.67435e-01	4.77828e-02	1.66550e-06	1.80684e-06	9.40725e-02	2.82132e-02	5.96618e-02	8.24392e-03	1.74084e-06	1.21984e-02	3.04457e-06	3.32303e-06	9.25805e-07	8.43004e-02	3.58660e-08	3.66680e-08	8.32303e-02	2.54810e-02	3.58404e-08	3.65924e-08	4.79435e-02	1.44760e-02	3.08274e-02	4.42958e-03	3.60998e-08	6.29450e-03	X	X	X	X	X	X	X	X	X	X	X	X	X	X	X	X	



#DISTANCE SETTINGS
A = Detector Channel
A-1	A-2	A-3	A-4	A-5	A-6	A-7	A-8	A-9	A-10	A-11	A-12	A-13	A-14	A-15	A-16	

2.5000e+00	3.0000e+00	2.5000e+00	3.0000e+00	2.0000e+00	3.0000e+00	1.5000e+00	3.0000e+00	3.0000e+00	3.0000e+00	3.0000e+00	3.0000e+00	3.0000e+00	3.0000e+00	1.5000e+00	3.0000e+00	

B = Detector Channel
B-1	B-2	B-3	B-4	B-5	B-6	B-7	B-8	B-9	B-10	B-11	B-12	B-13	B-14	B-15	B-16	

1.0000e+01	1.0000e+01	1.0000e+01	1.4400e+00	1.0000e+01	1.0000e+01	1.5100e+00	1.9400e+00	1.0000e+01	1.0000e+01	1.9900e+00	2.4900e+00	2.4100e+00	2.9000e+00	1.0000e+01	2.9800e+00	




#DATA BEGINS
time	group	step	mark	flag	A-AC1	A-AC2	A-AC3	A-AC4	A-AC5	A-AC6	A-AC7	A-AC8	A-AC9	A-AC10	A-AC11	A-AC12	A-AC13	A-AC14	A-AC15	A-AC16	A-DC1	A-DC2	A-DC3	A-DC4	A-DC5	A-DC6	A-DC7	A-DC8	A-DC9	A-DC10	A-DC11	A-DC12	A-DC13	A-DC14	A-DC15	A-DC16	A-Ph1	A-Ph2	A-Ph3	A-Ph4	A-Ph5	A-Ph6	A-Ph7	A-Ph8	A-Ph9	A-Ph10	A-Ph11	A-Ph12	A-Ph13	A-Ph14	A-Ph15	A-Ph16	B-AC1	B-AC2	B-AC3	B-AC4	B-AC5	B-AC6	B-AC7	B-AC8	B-AC9	B-AC10	B-AC11	B-AC12	B-AC13	B-AC14	B-AC15	B-AC16	B-DC1	B-DC2	B-DC3	B-DC4	B-DC5	B-DC6	B-DC7	B-DC8	B-DC9	B-DC10	B-DC11	B-DC12	B-DC13	B-DC14	B-DC15	B-DC16	B-Ph1	B-Ph2	B-Ph3	B-Ph4	B-Ph5	B-Ph6	B-Ph7	B-Ph8	B-Ph9	B-Ph10	B-Ph11	B-Ph12	B-Ph13	B-Ph14	B-Ph15	B-Ph16	aux-1	digaux	

1120.308	1	1	0	256	0.14244	0.10268	0.084284	0.18658	0.25196	0.16768	0.218	0.093421	0.3285	0.19743	0.17215	0.28723	0.17506	0.25601	0.13691	0.24922	-1.6271	-1.325	-2.275	-1.7333	-1.6979	-2.2771	-1.5958	-2.2521	-2.0854	-1.4667	-2.4333	-1.8375	-1.65	-2.4125	-1.5354	-2.1021	-15.996	-24.842	-134.150	105.857	-26.144	111.230	148.670	-5.524	71.235	52.497	174.916	-131.824	-32.728	155.323	12.155	-137.111	0.00096179	0.00048503	0.00018775	1397.8	5.2349e-06	5.2493e-06	1399.6	381.9	8.5669e-06	5.8486e-06	431.65	143.39	126.05	42.201	1.0169e-05	51.774	0.00055471	0.0005372	0.00014904	1424	5.9645e-06	5.9117e-06	1422	389.72	5.9062e-06	5.9232e-06	440.92	146.63	127.72	43.402	5.8345e-06	53.581	-31.662	-76.634	-96.269	-156.519	-26.241	17.923	-157.059	-151.972	-43.336	-10.845	-152.870	-148.565	-147.623	-143.228	-12.926	-144.194	-8191	255	
1120.428	1	1	0	0	0.23251	0.20685	0.050293	0.32538	0.09995	0.18221	0.21106	0.12016	0.069842	0.1227	0.086132	0.19416	0.15966	0.19434	0.042112	0.19703	-1.7208	-1.3062	-2.4938	-1.9958	-1.5021	-2.4958	-1.7104	-2.275	-2.1771	-1.3062	-2.4437	-2.0708	-1.4771	-2.5312	-1.4188	-1.9312	20.356	179.197	94.126	-155.570	125.248	161.187	107.986	87.956	-146.865	57.341	102.503	77.625	-63.067	99.696	-138.198	124.609	0.00088325	0.00038379	7.1437e-05	1394.2	6.4789e-06	5.1044e-06	1401.3	383.59	9.3823e-06	1.9442e-06	431.27	142.97	125.38	42.128	3.1688e-06	51.987	0.00054869	0.0005404	0.00014586	1421	5.8042e-06	5.7881e-06	1422.3	390.05	5.8906e-06	5.8813e-06	440	146.4	127.34	43.356	5.7463e-06	53.616	-31.205	-131.812	-154.903	-156.916	-5.524	-10.356	-157.061	-152.197	-21.095	20.698	-152.932	-148.610	-148.173	-143.272	6.467	-144.085	-8191	255	
1120.500	1	1	0	0	0.18111	0.09547	0.34293	0.15579	0.20992	0.24215	0.58418	0.32502	0.18021	0.19725	0.23953	0.15104	0.12832	0.24415	0.21928	0.044022	-2.1375	-1.3875	-2.05	-2.2	-1.2938	-2.3167	-1.6583	-1.7271	-2.3854	-1.3479	-2.2188	-1.8021	-1.4667	-2.2708	-1.7896	-1.7938	126.187	-8.531	68.705	-11.478	27.991	27.446	114.519	135.042	84.576	106.280	39.513	136.354	126.072	170.083	-78.277	-136.286	0.0010431	0.00049565	0.00013091	1396.8	6.4193e-06	2.7979e-06	1399.3	382.52	5.722e-06	4.2885e-06	431.28	142.59	125.09	42.043	4.5893e-06	52.028	0.00054822	0.00052617	0.00014509	1420.6	5.8238e-06	5.7359e-06	1420.3	389.42	5.7834e-06	5.6663e-06	439.61	146.07	127.08	43.323	5.6839e-06	53.699	-30.827	-75.759	-100.284	-156.582	-16.151	-6.571	-157.117	-152.038	-40.938	-7.802	-152.558	-148.663	-147.268	-143.310	-25.855	-144.017	-8191	255	
1120.596	1	1	0	0	0.24913	0.13237	0.094267	0.24126	0.098222	0.16117	0.30017	0.29025	0.20641	0.19768	0.38847	0.20877	0.15759	0.21216	0.15268	0.24641	-1.9438	-1.35	-1.825	-2.1854	-1.2771	-2.2354	-1.9146	-1.4937	-2.2146	-1.4021	-2.0333	-2.3604	-1.1667	-2.2083	-1.7208	-1.5583	-48.114	181.852	-169.338	115.186	-37.167	168.883	-156.932	85.474	162.886	-66.379	173.477	-70.279	156.983	184.577	147.131	90.377	0.0009505	0.0008101	0.00014904	1396.6	8.5647e-06	4.0392e-06	1401	382.98	6.8476e-06	5.4509e-06	433.26	142.89	124.54	42.162	6.3185e-06	51.774	0.00054235	0.00052602	0.00014571	1422	5.7717e-06	5.7454e-06	1420.6	389.93	5.7663e-06	5.8274e-06	440.29	146.2	127.13	43.273	5.7752e-06	53.548	-35.522	-42.198	-60.246	-156.656	-23.619	-8.076	-157.096	-152.019	-25.104	-71.633	-152.743	-148.486	-147.787	-143.204	-50.278	-144.008	-8191	255	
1120.692	1	1	0	0	0.18608	0.16784	0.14041	0.087713	0.20382	0.17267	0.18407	0.23014	0.24288	0.27594	0.2538	0.34296	0.12036	0.43803	0.18702	0.18966	-2.2625	-1.4771	-1.8583	-2.2854	-1.4479	-2.0792	-1.7583	-1.4688	-2.2625	-1.35	-1.9896	-2.2792	-1.375	-2.3729	-1.8438	-1.6146	140.767	57.539	137.476	150.326	-11.944	-43.265	149.323	176.111	-105.547	-57.127	173.026	130.879	-79.125	164.061	-7.704	128.148	0.0008408	0.00064719	0.00012496	1397.1	1.4013e-06	4.5573e-06	1396.5	381	8.1518e-06	5.9465e-06	430.68	143.22	125.16	41.965	5.7873e-06	51.918	0.00054774	0.00052853	0.00014589	1421.9	5.8873e-06	5.7835e-06	1421.6	389.04	5.771e-06	5.7837e-06	439.78	146.38	127.31	43.215	5.7836e-06	53.536	-33.483	-74.846	-51.735	-156.682	62.670	-81.316	-156.835	-152.002	-58.633	17.332	-152.508	-148.011	-148.066	-143.310	-35.820	-144.275	-8191	255	
1120.788	1	1	0	0	0.19887	0.053665	0.16185	0.21901	0.046532	0.32879	0.36272	0.0018079	0.080516	0.082605	0.18843	0.29581	0.2986	0.20762	0.068338	0.19615	-1.9083	-1.5271	-1.7458	-2.2333	-1.3792	-2.1396	-2.0083	-1.7563	-2.4083	-1.3542	-1.8292	-2.4354	-1.475	-2.1396	-1.875	-1.4792	-19.343	87.417	-124.077	-132.183	22.033	-59.851	147.498	180.000	89.431	-97.088	65.179	154.445	-157.016	119.650	54.591	-130.885	0.00092355	0.00054657	9.76e-05	1400.3	3.9726e-06	2.9273e-06	1393.3	379.71	4.8805e-06	8.8037e-06	432.13	143.33	125.39	42.068	3.1385e-06	51.783	0.00053913	0.00051987	0.00014701	1422.1	5.756e-06	5.7117e-06	1419.6	388.94	5.7184e-06	5.7263e-06	440.48	146.21	126.92	43.314	5.7014e-06	53.448	-31.154	-85.862	-140.556	-156.851	-19.904	-5.060	-157.200	-152.282	-10.173	-9.991	-152.951	-148.829	-148.343	-143.505	-42.951	-144.541	-8191	255	
1120.909	1	1	0	0	0.044563	0.11327	0.1044	0.058837	0.20464	0.15033	0.24599	0.38254	0.14879	0.078782	0.38559	0.31678	0.26318	0.22559	0.19707	0.44317	-1.775	-1.7854	-1.4813	-2.4896	-1.3104	-1.8937	-2.2062	-1.45	-2.0917	-1.8458	-1.4708	-2.3208	-1.3667	-2.0375	-2.1562	-1.425	135.478	145.951	148.814	-139.626	-169.900	-1.254	107.886	-167.733	174.139	-6.791	82.456	-158.980	-155.907	128.843	-11.665	102.176	0.00090358	0.00060103	0.00015464	1399.2	3.9445e-06	6.0823e-06	1394	380.98	8.6825e-06	6.1799e-06	429.95	142.89	125.28	41.954	6.145e-06	51.849	0.00053687	0.00052561	0.00014574	1423.4	5.7486e-06	5.7493e-06	1418.8	389	5.782e-06	5.7161e-06	439.31	146.06	127.14	43.288	5.7434e-06	53.433	-34.836	-75.191	-136.473	-156.969	-63.938	-6.974	-157.384	-152.351	-36.719	-8.044	-153.014	-148.809	-148.320	-143.774	-35.464	-144.543	-8191	255	
1121.005	1	1	0	0	0.21514	0.42792	0.042879	0.37085	0.026676	0.34281	0.13223	0.36066	0.16926	0.22787	0.14317	0.17024	0.24832	0.24448	0.14517	0.31803	-1.7708	-1.6812	-1.3521	-2.5521	-1.45	-1.7917	-2.4917	-1.5979	-2.0229	-1.7604	-1.3104	-2.3729	-1.4354	-1.8438	-2.2313	-1.3896	112.599	144.736	7.168	179.492	115.964	-51.170	102.286	133.704	44.150	122.262	172.695	164.389	-131.681	160.750	127.302	68.538	0.00095869	0.00031493	0.00010121	1395	2.7242e-06	5.137e-06	1398.3	382.3	4.8949e-06	6.4903e-06	430.75	142.83	125.11	41.983	5.305e-06	51.799	0.00053581	0.00050466	0.00014569	1420.3	5.6055e-06	5.6929e-06	1420.2	389.37	5.5974e-06	5.6958e-06	438.9	146.04	127.11	43.303	5.5821e-06	53.475	-36.194	-103.959	-101.192	-157.003	-57.608	-26.690	-157.439	-152.417	-59.509	-9.939	-152.674	-148.641	-148.855	-143.667	5.136	-144.349	-8191	255	
1121.077	1	1	0	0	0.1262	0.090737	0.034538	0.11977	0.18214	0.11935	0.26516	0.4614	0.088306	0.16817	0.074009	0.29367	0.35202	0.20457	0.24172	0.18855	-1.55	-1.9521	-1.3521	-2.4542	-1.5375	-1.6875	-2.4104	-1.5938	-2.0542	-2.1437	-1.2812	-2.3479	-1.7271	-1.9062	-2.2271	-1.5167	10.544	109.945	6.877	34.309	-156.875	-10.114	144.801	152.358	-114.372	-131.275	-137.093	148.763	102.168	-168.732	-20.659	154.820	0.0008667	0.00060247	0.00011062	1398.9	5.1601e-06	1.1806e-06	1396.8	380.9	5.8103e-06	4.6137e-06	430.9	142.62	125.76	42.12	5.9231e-06	51.706	0.00052498	0.00050624	0.00013852	1422.3	5.5175e-06	5.4842e-06	1418.4	388.32	5.5331e-06	5.5287e-06	438.44	146.03	126.79	43.344	5.5149e-06	53.357	-34.848	-96.658	-86.018	-157.042	-2.554	-33.872	-157.422	-152.600	-41.323	-5.699	-152.816	-148.928	-148.405	-143.610	-7.295	-144.467	-8191	255	
1121.197	1	1	0	0	0.13296	0.14965	0.079667	0.20338	0.42294	0.032619	0.21768	0.27575	0.13105	0.32423	0.11336	0.094735	0.13183	0.28892	0.14951	0.037498	-1.4479	-2.0187	-1.2667	-2.3479	-1.6229	-1.3896	-2.5187	-1.525	-2.0917	-2.175	-1.4958	-2.3312	-1.9708	-1.5438	-2.4208	-1.7417	-65.262	-10.918	-13.014	170.699	-57.998	144.907	157.538	136.285	-113.657	104.315	-70.415	51.662	163.574	81.961	-113.946	-168.708	0.00091565	0.00054435	0.00023304	1396.7	2.4413e-06	5.3388e-06	1395.1	379.78	6.7306e-06	7.2227e-06	428.98	143.01	125.75	42.276	5.8481e-06	52.084	0.00052356	0.0005123	0.00014174	1419.2	5.5403e-06	5.5399e-06	1417.1	387.83	5.5087e-06	5.4891e-06	438.08	146.16	126.9	43.327	5.5766e-06	53.454	-35.257	-66.491	-88.377	-156.992	82.584	17.298	-157.624	-152.760	-48.402	-22.733	-153.046	-148.728	-148.463	-143.805	-21.411	-144.592	-8191	255	
1121.292	1	1	0	0	0.13974	0.21712	0.17836	0.071905	0.33276	0.053074	0.17689	0.44955	0.097834	0.074917	0.29346	0.24686	0.23369	0.22062	0.18249	0.22355	-1.5208	-2.2521	-1.2958	-2.4292	-1.8979	-1.2917	-2.425	-1.6271	-1.8104	-2.2292	-1.5	-2.1312	-1.9646	-1.3312	-2.3896	-1.8312	185.615	-47.574	28.993	-155.529	128.299	-56.064	160.804	121.058	-163.793	-139.918	169.125	35.597	175.983	-167.680	-46.364	126.364	0.00091581	0.00027125	0.00021564	1394.2	4.2056e-06	3.8405e-06	1394.2	379.44	9.3081e-06	3.9105e-06	428.04	142.81	125.33	41.854	7.6417e-06	51.771	0.00052363	0.00051254	0.00014105	1418.3	5.5104e-06	5.5313e-06	1419.1	387.97	5.4942e-06	5.5839e-06	437.83	146.04	126.68	43.18	5.4877e-06	53.401	-29.686	-84.767	-127.740	-156.999	-55.973	-23.327	-157.503	-152.568	-39.719	-46.694	-153.115	-148.847	-148.999	-143.592	-34.523	-144.659	-8191	255	
1121.390	1	1	0	0	0.29341	0.11772	0.17593	0.24244	0.15661	0.13871	0.48802	0.32843	0.24421	0.2069	0.26726	0.20896	0.028057	0.24921	0.10975	0.39205	-1.25	-2.2208	-1.3854	-2.1854	-2.075	-1.3333	-2.6646	-1.7854	-1.5333	-2.4625	-1.5771	-2.1	-2.1833	-1.3	-2.2792	-1.8521	-21.912	98.242	-108.668	121.319	20.698	-143.018	162.149	158.280	136.745	82.967	87.824	114.959	-92.546	-153.759	114.326	163.088	0.00084535	0.00046907	0.00016368	1397	3.1771e-06	5.1296e-06	1393.7	379.17	4.4157e-06	9.0009e-06	428.21	143.34	124.64	42.089	8.1564e-06	51.743	0.00052504	0.00049965	0.00014007	1419.1	5.5237e-06	5.6091e-06	1416.4	387.29	5.5096e-06	5.4928e-06	438.03	146.15	126.27	43.252	5.4631e-06	53.305	-32.088	-101.564	-82.665	-157.032	-31.799	12.773	-157.419	-152.691	-100.599	-30.387	-153.083	-148.726	-148.676	-143.386	-56.979	-144.548	-8191	255	
1121.509	1	1	0	0	0.20918	0.13769	0.19563	0.26329	0.032286	0.32853	0.37001	0.46523	0.24445	0.12888	0.15506	0.4214	0.19154	0.45347	0.11176	0.034883	-1.2146	-2.3063	-1.4188	-2.0083	-2.1813	-1.3542	-2.4271	-2.1021	-1.2375	-2.3854	-1.5146	-2.0146	-2.3104	-1.4667	-2.175	-1.9146	-86.532	124.873	105.447	138.460	-76.319	-88.478	138.251	120.000	-145.066	-147.660	137.423	170.847	-100.072	-132.019	-77.536	-99.999	0.00089988	0.00024376	0.0002101	1391.8	4.2117e-06	1.8301e-06	1395	380.27	9.1077e-06	7.2708e-06	428.3	142.79	123.88	42.053	6.8123e-06	51.637	0.00052727	0.00049705	0.00014193	1417.6	5.5412e-06	5.5146e-06	1417.3	387.36	5.5145e-06	5.4745e-06	436.48	145.82	126.04	43.188	5.3498e-06	53.332	-33.978	-100.451	-109.726	-157.138	-37.591	-61.346	-157.459	-152.640	-25.925	-5.804	-153.215	-149.052	-148.366	-143.983	-10.976	-144.846	-8191	255	
1121.605	1	1	0	0	0.062468	0.20878	0.20181	0.47025	0.4688	0.10833	0.11172	0.19176	0.082835	0.063558	0.21115	0.075715	0.038045	0.278	0.28734	0.11194	-1.0187	-2.2792	-1.5271	-2.05	-2.1188	-1.1729	-2.3521	-2.1667	-1.3396	-2.2438	-1.5521	-1.775	-2.3896	-1.5063	-2.1312	-1.9562	-116.280	-24.770	146.383	156.945	48.744	-128.769	181.234	76.929	106.248	77.574	-148.588	152.000	-86.417	185.604	95.192	103.958	0.00089789	0.00035785	0.00013171	1390.5	8.4306e-06	5.3717e-06	1394.6	380.25	7.4532e-06	1.1658e-05	428.34	142.94	124.42	42.073	1.4768e-06	51.546	0.00052098	0.00049662	0.00013797	1416.2	5.558e-06	5.5591e-06	1416.6	387.63	5.6089e-06	5.4384e-06	437.65	145.92	126.44	43.235	5.4508e-06	53.226	-37.479	-98.938	-133.490	-157.020	-56.160	-16.811	-157.279	-152.713	-17.872	-17.405	-153.227	-148.897	-148.908	-143.864	-151.307	-144.667	-8191	255	
1121.701	1	1	0	0	0.1662	0.13592	0.15866	0.40601	0.20634	0.25916	0.12973	0.43521	0.095328	0.034435	0.17174	0.13901	0.15209	0.070594	0.087302	0.25224	-0.89792	-2.1708	-1.525	-1.6917	-2.3521	-1.1458	-2.2146	-2.2958	-1.2646	-2.1958	-1.7687	-1.5146	-2.35	-1.1979	-1.8229	-2.1792	-32.133	145.654	-157.103	63.951	101.269	-32.956	42.298	143.208	20.932	-140.237	165.151	119.240	38.269	46.774	-97.431	60.534	0.00088138	0.00049414	8.5925e-05	1395.5	3.6483e-06	3.7154e-07	1387.2	378.82	1.0108e-05	5.6027e-06	429.74	142.71	124.61	41.901	5.7098e-06	51.849	0.00052571	0.00050046	0.00013719	1417.6	5.5087e-06	5.5064e-06	1414.3	386.98	5.5045e-06	5.4156e-06	437.6	145.67	126.53	43.096	5.4087e-06	53.344	-31.615	-56.539	-80.024	-156.841	-8.932	-4.519	-157.225	-152.540	-33.905	3.461	-153.138	-148.710	-148.530	-143.644	-40.513	-144.652	-8191	255	
1121.797	1	1	0	0	0.087909	0.041732	0.16424	0.37806	0.12751	0.10057	0.23853	0.18232	0.28445	0.10773	0.28042	0.092484	0.29454	0.26113	0.39864	0.43473	-0.87083	-2.075	-1.5729	-1.5146	-2.3771	-1.4188	-2	-2.4667	-1.0187	-2.1042	-1.9688	-1.3646	-2.3542	-1.6187	-1.7583	-2.3563	136.437	-125.410	168.874	165.786	109.791	150.110	108.903	134.783	64.341	156.418	-135.261	-72.241	96.984	78.014	-12.651	-148.953	0.00087845	0.00057378	0.00020809	1392.6	5.6634e-06	1.2241e-06	1392.9	378.88	9.6845e-06	4.6662e-06	428.6	142.39	124.35	41.833	7.2333e-06	51.739	0.00052972	0.00049708	0.00013644	1417	5.4338e-06	5.5159e-06	1413	386.63	5.4468e-06	5.3606e-06	436.33	145.47	126.35	43.139	5.4069e-06	53.251	-28.143	-39.813	-125.127	-157.026	1.294	-54.996	-157.192	-152.591	-56.879	37.732	-152.811	-148.937	-148.585	-143.709	-24.956	-144.687	-8191	255	
1121.893	1	1	0	0	0.24063	0.10054	0.23417	0.28775	0.11891	0.21869	0.21162	0.22587	0.22175	0.21382	0.35665	0.31698	0.18009	0.17317	0.25954	0.25096	-0.9875	-2.0729	-1.9312	-1.5958	-2.3104	-1.5708	-1.9042	-2.5208	-1.3021	-2.1042	-2.1771	-1.3083	-2.4813	-1.5438	-1.5	-2.3438	-148.037	-61.641	-169.903	182.321	-87.600	68.541	18.708	-132.087	149.717	50.179	129.136	178.219	-141.183	-150.322	-54.799	144.976	0.00088048	0.0005031	0.00014351	1391.6	7.9509e-06	5.0398e-06	1385.7	379.64	8.6185e-06	5.6417e-06	426.93	142.25	124.27	41.93	5.5421e-06	51.725	0.00051062	0.00048921	0.00013632	1415.9	5.335e-06	5.3325e-06	1410.9	386.65	5.3663e-06	5.3734e-06	436.47	145.34	125.85	43.104	5.3668e-06	53.161	-33.904	-41.097	-94.885	-156.972	-68.070	-25.381	-157.283	-152.478	-27.469	38.121	-153.143	-148.666	-148.599	-143.875	-46.352	-144.407	-8191	255	
1121.989	1	1	0	0	0.062256	0.2303	0.13189	0.3494	0.22537	0.25642	0.26458	0.12341	0.31469	0.30088	0.031679	0.198	0.13049	0.31915	0.092041	0.21276	-0.74167	-1.8229	-1.8708	-1.5187	-2.1875	-1.6292	-1.6708	-2.4792	-1.3792	-2.0208	-2.1333	-1.3229	-2.2458	-1.8438	-1.2625	-2.2521	101.496	-109.770	-25.140	163.048	-72.040	-67.991	65.100	48.542	162.014	172.535	155.192	116.578	-126.348	121.434	103.224	111.766	0.0010004	0.00079942	0.00019246	1386.4	3.7071e-06	7.5853e-06	1390.9	378.85	8.7915e-06	4.2679e-06	429.16	142.3	125.16	41.824	4.6443e-06	51.624	0.00050553	0.00049433	0.00013474	1411.5	5.274e-06	5.3353e-06	1411.3	386.74	5.342e-06	5.4289e-06	436.69	145.34	126.33	43.036	5.3771e-06	53.253	-38.507	-63.961	-91.295	-156.932	-37.522	-21.555	-157.147	-152.452	-60.057	-24.512	-152.999	-148.828	-147.960	-143.495	-30.788	-144.583	-8191	255	
1122.085	1	1	0	0	0.24612	0.079019	0.28969	0.26621	0.090335	0.14314	0.27563	0.11641	0.25536	0.23177	0.096991	0.11196	0.14681	0.23442	0.026315	0.094835	-0.94375	-1.8375	-2.2417	-1.5312	-2.1021	-2.0729	-1.3708	-2.3896	-1.4021	-1.8646	-2.2854	-1.5875	-2.075	-2.0042	-1.4021	-2.3396	102.413	141.176	188.172	-159.931	-51.319	-135.555	109.502	125.667	-169.584	11.985	70.390	114.032	14.608	181.022	-123.048	58.148	0.00088787	0.00046337	0.00015575	1389.6	7.0544e-06	2.4185e-06	1389.3	377.45	1.0098e-05	6.3274e-06	425.75	142.52	124.98	42.035	7.3841e-06	51.514	0.00049746	0.00048144	0.0001345	1412.5	5.2757e-06	5.414e-06	1411.6	386.17	5.2987e-06	5.3949e-06	435.56	145.39	126.11	43.132	5.301e-06	53.036	-33.889	-71.748	-75.938	-157.043	-39.775	0.045	-157.405	-152.649	-26.194	-27.493	-153.015	-148.902	-148.474	-143.892	-61.297	-144.505	-8191	255	
1122.204	1	1	0	0	0.026779	0.07368	0.13174	0.086639	0.11171	0.31779	0.29436	0.35378	0.093205	0.11487	0.40818	0.12042	0.24492	0.17485	0.20705	0.22239	-1.1167	-1.5625	-2.2271	-1.4958	-1.9542	-1.9833	-1.5833	-2.5438	-1.55	-1.5771	-2.2292	-1.4979	-2.0438	-2.1375	-1.4604	-2.4667	62.544	-87.493	48.789	93.952	-41.958	7.412	147.343	133.468	-40.741	19.987	180.707	147.475	133.080	66.556	143.684	-154.918	0.00088905	0.0006244	9.8036e-05	1387.4	6.472e-06	2.9468e-06	1386.6	379.35	5.8114e-06	6.7377e-06	428.78	142.41	123.8	41.907	2.7379e-06	51.531	0.00050475	0.00049294	0.00013783	1410.9	5.3219e-06	5.4361e-06	1409.7	386.71	5.2976e-06	5.3863e-06	435.55	145.46	125.73	43.168	5.3806e-06	53.136	-36.867	-92.951	-77.268	-157.062	-26.038	40.392	-157.183	-152.323	-44.219	-7.638	-153.006	-148.694	-147.872	-143.634	-4.879	-144.659	-8191	255	
1122.301	1	1	0	0	0.16786	0.2525	0.12032	0.43962	0.15538	0.25728	0.25439	0.38009	0.075751	0.092677	0.14451	0.17553	0.1099	0.31016	0.20912	0.30962	-1.2833	-1.5958	-2.375	-1.6292	-1.8667	-2.0833	-1.4917	-2.3396	-1.7021	-1.3125	-2.3375	-1.6146	-1.8875	-2.2292	-1.25	-2.2125	60.980	125.887	136.138	-153.136	-15.807	-105.106	120.827	188.309	-11.072	181.869	95.163	-134.811	89.755	160.129	-51.931	189.192	0.00089057	0.00058657	0.00014063	1385.2	6.6177e-06	4.7178e-06	1386.7	379.02	3.781e-06	1.0666e-05	428.43	141.71	124	41.793	1.1488e-05	51.834	0.00050869	0.00049528	0.00013445	1409.7	5.3129e-06	5.3233e-06	1407.2	386.21	5.3886e-06	5.3693e-06	435.73	145.09	125.64	42.961	5.3395e-06	53.234	-32.644	-85.212	-64.828	-157.065	2.600	-28.479	-157.159	-152.501	-88.918	-11.307	-153.015	-149.024	-147.817	-143.536	-25.113	-144.454	-8191	255	
1122.372	1	1	0	0	0.13577	0.22559	0.40425	0.21768	0.3778	0.12907	0.084045	0.23297	0.089746	0.12833	0.33271	0.33031	0.20936	0.33617	0.22342	0.11289	-1.3188	-1.3312	-2.375	-1.525	-1.7729	-2.1083	-1.6583	-2.2229	-1.9146	-1.2646	-2.3396	-1.8312	-1.9042	-2.3146	-1.3417	-2.2333	-21.774	-113.017	-51.774	111.327	119.588	-46.779	175.561	172.596	110.771	-1.399	111.786	132.395	158.672	114.875	134.954	70.597	0.00088104	0.00063166	0.00012099	1387.1	6.3693e-06	4.5583e-06	1382.4	377.85	5.5502e-06	5.8705e-06	426.24	141.43	124.48	41.77	6.8189e-06	51.589	0.00049987	0.00048967	0.0001339	1411	5.2448e-06	5.2774e-06	1408.9	385.84	5.2816e-06	5.2807e-06	434.82	144.92	126.17	42.982	5.3213e-06	53.117	-31.523	-74.148	-117.497	-157.167	-3.162	33.370	-157.231	-152.436	-23.200	0.723	-152.809	-148.898	-148.323	-143.444	-53.610	-144.264	-8191	255	
1122.470	1	1	0	0	0.028994	0.27833	0.34309	0.049788	0.061498	0.16908	0.42068	0.25546	0.14487	0.15511	0.32856	0.35454	0.1847	0.23584	0.28953	0.033721	-1.5354	-1.1375	-2.2479	-1.825	-1.575	-2.2667	-1.6875	-2.1833	-2.1021	-1.1979	-2.4521	-1.8563	-1.5333	-2.3833	-1.3208	-1.9667	38.493	-55.163	113.802	-152.036	10.817	-77.404	128.685	130.882	-67.372	25.302	-102.886	176.662	-78.501	188.914	129.056	122.058	0.00091287	0.00043726	0.0001804	1387	7.6794e-06	5.0562e-06	1385	377.97	7.8257e-06	6.4127e-06	428.11	141.91	124.18	41.741	4.7558e-06	51.48	0.00049979	0.00048128	0.00013275	1409.1	5.3852e-06	5.3102e-06	1406.7	385.7	5.3363e-06	5.3318e-06	435.4	144.83	125.75	42.995	5.3071e-06	53.011	-32.467	-82.136	-67.073	-156.893	-17.811	-22.719	-157.212	-152.334	-41.270	-21.481	-153.105	-148.986	-148.072	-143.387	-21.990	-144.440	-8191	255	
1122.589	1	1	0	0	0.34373	0.032186	0.15358	0.2794	0.10618	0.16007	0.28684	0.21917	0.079128	0.15782	0.22673	0.20408	0.025616	0.31935	0.083216	0.15845	-1.5479	-1.1917	-2.0938	-1.7833	-1.3312	-2.3167	-1.5146	-1.8687	-2.1813	-1.3896	-2.2208	-1.9438	-1.4979	-2.3625	-1.6354	-1.9792	64.850	-6.469	-4.003	175.124	64.878	-89.476	111.621	128.477	14.886	17.630	91.774	104.046	-165.917	135.820	40.559	125.947	0.0010084	0.00075665	0.00025261	1388.2	1.0862e-05	4.8068e-06	1382.8	377.98	5.6292e-06	6.7145e-06	427.19	141.45	124.04	41.82	6.0401e-06	51.542	0.00049812	0.00048419	0.00013351	1409.6	5.3322e-06	5.3066e-06	1406.7	385.42	5.3339e-06	5.3505e-06	435.54	144.99	125.57	42.995	5.2842e-06	53.028	-29.890	-81.325	-79.951	-157.014	-10.522	-0.305	-157.356	-152.195	-80.851	-0.125	-153.022	-148.693	-148.322	-143.723	-23.604	-144.170	-8191	255	
1122.685	1	1	0	0	0.097987	0.16399	0.051025	0.31045	0.37122	0.39405	0.43387	0.22649	0.1956	0.041394	0.21267	0.04012	0.15321	0.062521	0.20094	0.14277	-1.8354	-1.3188	-1.975	-1.8729	-1.4813	-2.3146	-1.6604	-1.7292	-2.2375	-1.3583	-2.1208	-2.5167	-1.4104	-2.4062	-1.6313	-1.7812	-134.971	-54.386	128.588	154.016	95.385	-1.305	108.528	175.493	61.403	22.799	164.261	100.765	-133.309	-138.656	-78.823	-129.072	0.0009096	0.00027948	3.6882e-05	1386	5.5285e-06	4.6245e-06	1386.3	378.02	8.4053e-06	4.5677e-06	427.83	141.38	124.3	41.927	4.1026e-06	51.586	0.00050827	0.00047823	0.00013655	1410.6	5.4319e-06	5.2577e-06	1406.2	386.22	5.4118e-06	5.32e-06	435.72	144.77	125.62	43.044	5.2962e-06	53.093	-33.867	-72.926	-7.102	-156.967	-23.959	-12.707	-157.406	-152.479	-34.520	-16.822	-153.017	-148.696	-148.060	-143.660	-63.368	-144.526	-8191	255	
1122.781	1	1	0	0	0.098119	0.07751	0.13497	0.020312	0.2271	0.10135	0.27141	0.17983	0.20969	0.21091	0.23568	0.20286	0.18094	0.17913	0.27384	0.18325	-1.8479	-1.5063	-1.9958	-2.1604	-1.2792	-2.0604	-1.9312	-1.7458	-2.4313	-1.4458	-2.0625	-1.9792	-1.3438	-2.225	-1.4854	-1.4333	182.881	-86.599	-140.742	67.348	-119.972	177.793	113.038	146.372	-48.650	-150.724	83.141	173.531	161.672	-143.815	170.309	163.114	0.00099239	0.0006218	0.00021454	1390.1	8.9829e-06	3.7999e-06	1388.2	377.63	8.3416e-06	5.1612e-06	426.34	141.26	123.93	41.826	3.8169e-06	51.307	0.00050517	0.00048189	0.00013605	1410	5.2973e-06	5.2697e-06	1407	385.68	5.2709e-06	5.255e-06	435.44	144.75	125.83	42.998	5.2685e-06	53.084	-33.751	-64.072	-80.249	-157.018	-6.983	-54.618	-157.244	-152.316	-75.266	-18.206	-152.618	-148.713	-148.275	-143.449	-36.223	-144.379	-8191	255	
1122.877	1	1	0	0	0.17559	0.10487	0.10617	0.15174	0.13728	0.056884	0.23082	0.10863	0.055156	0.16346	0.094701	0.2659	0.11438	0.29776	0.082719	0.093058	-1.8917	-1.4771	-1.9333	-2.2792	-1.0958	-2.2729	-2.1083	-1.6063	-2.3771	-1.375	-1.7021	-2.4062	-1.4833	-2.4271	-1.7687	-1.475	162.526	95.494	64.835	141.468	-135.129	-13.113	156.118	91.766	127.117	-138.995	-0.722	141.772	128.090	27.052	-162.091	-126.250	0.00090263	0.00056979	0.00020148	1385.2	1.8975e-06	5.2867e-06	1384.2	380	7.0489e-06	5.9492e-06	427.89	141.97	124.41	41.81	5.3916e-06	51.576	0.00050218	0.00047851	0.0001351	1408.7	5.2693e-06	5.2491e-06	1405.6	385.7	5.2744e-06	5.2475e-06	435.25	144.9	125.68	42.968	5.2737e-06	53.109	-31.023	-97.772	-99.633	-156.843	4.868	-13.215	-157.270	-152.322	-48.888	-8.994	-152.957	-148.600	-147.905	-143.543	-40.300	-144.150	-8191	255	
1122.974	1	1	0	0	0.063927	0.17453	0.19313	0.29268	0.093253	0.17249	0.32632	0.25107	0.16297	0.20996	0.15526	0.17927	0.3462	0.0434	0.14111	0.24591	-1.8229	-1.375	-1.7354	-2.3375	-1.4042	-2.2167	-1.9667	-1.4438	-2.0875	-1.5187	-1.6167	-2.4	-1.4896	-2.1229	-2.0563	-1.3771	-109.097	97.895	137.173	178.051	137.249	151.549	130.646	137.817	27.213	59.275	127.992	147.904	56.644	18.918	117.224	136.182	0.00089042	0.00068398	8.9472e-05	1388	2.2927e-06	2.5796e-06	1383.9	377.87	5.6679e-06	3.29e-06	426.9	141.91	123.86	41.902	5.5472e-06	51.581	0.00049509	0.0004719	0.00013239	1408.5	5.2618e-06	5.215e-06	1405.8	385.48	5.2076e-06	5.1725e-06	435.85	144.88	125.74	42.938	5.1936e-06	53.017	-41.868	-45.685	-90.214	-157.026	15.529	62.507	-157.403	-152.485	-34.078	-42.979	-152.798	-148.669	-148.192	-143.584	-16.111	-144.496	-8191	255	
1123.070	1	1	0	0	0.17674	0.15276	0.16664	0.18193	0.15236	0.11376	0.27381	0.21916	0.31698	0.22619	0.07247	0.15278	0.11177	0.16591	0.19988	0.084935	-1.8417	-1.8333	-1.4604	-2.3354	-1.3396	-1.9188	-2.2625	-1.3771	-2.0708	-1.8458	-1.6521	-2.4771	-1.4479	-2.0438	-2.1917	-1.4208	-93.322	-41.935	101.345	102.344	-17.337	3.184	115.665	149.335	103.951	108.322	132.878	-0.580	116.482	183.799	-146.840	-153.212	0.00090422	0.00062171	0.00015021	1383.5	4.9645e-06	4.7791e-06	1380.6	376.29	4.3702e-06	1.184e-05	425.93	141.47	123.64	41.699	4.5244e-06	51.071	0.00049746	0.00047491	0.00013306	1407.5	5.1937e-06	5.1798e-06	1404.3	384.14	5.2234e-06	5.1136e-06	434.06	144.49	125.29	42.904	5.208e-06	52.834	-36.118	-49.372	-118.080	-156.928	-40.618	57.483	-157.323	-152.507	-29.413	16.013	-152.791	-148.489	-148.289	-143.384	-128.169	-144.369	-8191	255	
1123.190	1	1	0	0	0.17524	0.38084	0.14717	0.092356	0.19268	0.12173	0.40413	0.38585	0.31041	0.30095	0.41922	0.40385	0.38092	0.1822	0.12277	0.11256	-1.7583	-1.7417	-1.3375	-2.5604	-1.3604	-1.7188	-2.3292	-1.4583	-2	-1.8583	-1.4062	-2.3125	-1.6187	-1.9354	-2.2708	-1.3083	152.354	105.944	-92.211	98.789	66.115	43.842	67.470	142.028	62.345	82.520	176.341	138.914	-162.391	-137.463	49.475	170.675	0.00089914	0.00045687	0.00015969	1386.4	3.5197e-06	4.0514e-06	1382.1	377.96	9.9231e-06	6.549e-06	424.94	141.81	124.16	41.878	3.5751e-06	51.371	0.00049009	0.00046235	0.00013004	1406.3	5.1558e-06	5.1163e-06	1404.3	384.9	5.1035e-06	5.1283e-06	434.47	144.77	125.17	42.961	5.0615e-06	52.897	-35.802	-76.622	-89.710	-157.148	-34.271	-8.788	-157.340	-152.273	-44.783	23.515	-152.873	-148.817	-148.365	-143.325	-63.281	-144.545	-8191	255	
1123.285	1	1	0	0	0.2003	0.074226	0.12654	0.27848	0.061604	0.18233	0.18728	0.13405	0.24656	0.07023	0.11225	0.3338	0.31593	0.04389	0.16397	0.25259	-1.6667	-1.9667	-1.3604	-2.3708	-1.6396	-1.5688	-2.475	-1.5688	-1.9771	-2.2479	-1.3292	-2.3229	-1.7854	-1.7646	-2.2375	-1.5229	-30.198	-146.819	-111.255	94.950	88.687	94.946	145.929	152.538	172.900	3.810	124.552	105.523	143.894	-138.106	-137.934	110.697	0.00094371	0.00033512	0.00019525	1379.5	4.4922e-06	1.1436e-06	1385.5	376.79	1.0454e-05	3.1786e-06	425.73	141.6	123.79	41.587	6.2931e-06	51.512	0.00048686	0.00046229	0.00012998	1405.9	5.0535e-06	5.1853e-06	1402.8	384.2	5.1378e-06	5.1158e-06	434.2	144.78	125.35	42.824	5.1426e-06	52.934	-31.550	-84.179	-53.877	-156.741	19.449	-77.751	-157.241	-152.331	-24.985	-29.822	-152.923	-148.791	-148.255	-143.564	-43.715	-144.230	-8191	255	
1123.381	1	1	0	0	0.045056	0.042709	0.19851	0.17415	0.15078	0.098268	0.49981	0.064085	0.15424	0.22138	0.13567	0.23648	0.18856	0.34514	0.17887	0.13226	-1.4792	-2.1833	-1.4062	-2.3708	-1.7625	-1.5396	-2.6417	-1.6292	-1.7125	-2.1979	-1.3667	-2.2625	-2.1125	-1.5646	-2.3292	-1.4875	-135.002	127.170	-71.829	54.204	-157.933	-97.322	149.880	180.746	-107.707	-61.097	135.419	188.688	115.743	163.042	101.897	-22.419	0.0010294	0.00026595	0.00015032	1385.7	8.4829e-06	9.2225e-06	1386.9	375.89	7.9714e-06	1.1812e-05	425.8	141.94	123.29	41.899	6.4899e-06	51.467	0.00049824	0.00046594	0.00013096	1406.5	5.1396e-06	5.1946e-06	1403.3	383.97	5.1492e-06	5.0521e-06	434.85	144.83	125.21	42.923	5.1617e-06	52.91	-32.453	-73.272	-97.342	-156.756	-19.902	-5.947	-157.037	-152.287	-52.858	-19.836	-152.807	-148.795	-148.280	-143.300	-17.797	-144.465	-8191	255	
1123.477	1	1	0	0	0.097507	0.096594	0.057961	0.17428	0.10575	0.20057	0.29414	0.10505	0.063314	0.29463	0.2084	0.31722	0.20302	0.35032	0.26653	0.13596	-1.3396	-2.1729	-1.4375	-2.0938	-2.0229	-1.3125	-2.5812	-1.8542	-1.5646	-2.2	-1.4854	-2.0854	-2.1521	-1.5458	-2.3563	-1.6812	60.144	-134.668	-80.702	183.087	102.443	-85.797	136.974	27.037	-74.683	152.576	154.955	112.953	150.915	142.962	9.474	96.665	0.00096265	0.00052643	9.4282e-05	1381.2	6.4906e-06	4.8281e-06	1382.3	376.59	9.99e-06	3.8007e-06	425.66	141.71	124.86	41.741	6.2172e-06	51.504	0.00049961	0.00046329	0.0001312	1404.9	5.0929e-06	5.2111e-06	1403	384.38	5.2429e-06	5.156e-06	433.65	144.63	125.84	42.947	5.1425e-06	52.912	-32.448	-60.222	-54.917	-156.784	-23.417	-24.549	-157.480	-152.536	-24.609	-8.684	-152.951	-148.543	-148.050	-143.184	-12.166	-144.631	-8191	255	
1123.598	1	1	0	0	0.077445	0.11487	0.090072	0.065175	0.046137	0.10944	0.19641	0.1843	0.09056	0.16045	0.29737	0.26478	0.30854	0.24283	0.39701	0.20517	-1.2667	-2.2625	-1.1979	-2.1271	-1.9917	-1.2271	-2.5	-1.9646	-1.3042	-2.3438	-1.6083	-1.8583	-2.0854	-1.3875	-2.1625	-1.6896	102.026	-138.371	-150.469	85.552	66.797	-7.643	121.122	178.451	141.495	-29.823	142.819	156.670	189.141	-145.187	37.618	167.922	0.00090088	0.00083413	0.00012972	1380	3.9825e-06	6.275e-06	1383.3	376.31	8.4439e-06	6.0618e-06	425.11	141.57	123.41	41.951	8.4918e-06	51.379	0.00048827	0.00046848	0.00013008	1404.9	5.0785e-06	5.3104e-06	1402.3	383.8	5.2443e-06	5.1399e-06	433.21	144.71	125.15	42.948	5.1402e-06	52.844	-35.782	-72.668	-89.188	-156.797	-1.647	32.939	-157.054	-152.456	-53.531	73.127	-152.999	-148.528	-148.495	-143.335	-48.444	-144.392	-8191	255	
1123.669	1	1	0	0	0.34161	0.08977	0.15179	0.18499	0.038279	0.10882	0.13375	0.27656	0.16596	0.10203	0.18321	0.25415	0.12602	0.28881	0.096923	0.11239	-1.1063	-2.2583	-1.5458	-2.0625	-2.0354	-1.2812	-2.2854	-1.9729	-1.3979	-2.3792	-1.5875	-1.9708	-2.3688	-1.3208	-2.1396	-2.1437	128.135	18.230	49.456	115.058	24.674	119.171	90.167	138.858	-56.700	22.112	-138.719	-144.426	-108.712	56.262	125.324	166.009	0.00089842	0.00050954	0.00019706	1380.4	4.1158e-06	3.2988e-06	1379.6	376.81	1.0386e-05	7.0582e-06	422.87	141.63	124.17	41.613	5.3189e-06	50.991	0.00049161	0.00047027	0.00013088	1405.4	5.1509e-06	5.1875e-06	1400.9	384.06	5.1718e-06	5.0767e-06	432.78	144.49	125.39	42.833	5.0835e-06	52.714	-31.870	-73.719	-76.611	-156.754	-41.203	4.405	-157.149	-152.402	-44.794	-30.722	-152.812	-148.558	-148.035	-143.173	-46.930	-144.500	-8191	255	
1123.765	1	1	0	0	0.06251	0.061803	0.2029	0.17504	0.17126	0.10922	0.31724	0.2815	0.062128	0.097135	0.21818	0.11468	0.1557	0.39249	0.30801	0.10415	-0.86042	-2.3958	-1.3083	-1.9083	-2.3771	-1.175	-2.2375	-2.1896	-1.1979	-2.4437	-1.9375	-1.5771	-2.325	-1.425	-1.9562	-2.0896	147.071	-89.675	-117.715	125.014	-156.486	169.972	143.830	178.826	-80.577	-90.447	104.527	109.183	-74.333	133.793	-33.477	175.443	0.00088966	0.00046549	0.00010738	1382.5	7.8505e-06	5.2978e-06	1383.2	376.21	3.3028e-06	5.0037e-06	426.91	141.58	124.01	41.529	7.722e-06	51.042	0.00049103	0.00046789	0.0001298	1404.2	5.0942e-06	5.141e-06	1401.8	384.06	5.1804e-06	5.1213e-06	434.22	144.52	125.41	42.785	5.1981e-06	52.699	-41.424	-98.988	-116.831	-156.793	-25.939	16.955	-157.112	-152.324	-48.135	8.796	-152.847	-148.414	-148.548	-143.552	-17.279	-144.510	-8191	255	
1123.886	1	1	0	0	0.025953	0.13063	0.01223	0.26369	0.30384	0.2319	0.20191	0.18404	0.1708	0.11122	0.083116	0.16667	0.15658	0.093815	0.17697	0.30871	-0.89792	-2.3208	-1.55	-1.8375	-2.3	-1.1979	-2.2667	-2.025	-1.2875	-2.2417	-1.7812	-1.675	-2.3958	-1.5167	-1.6917	-2.4167	47.618	-101.235	74.236	78.501	-18.750	-116.500	107.766	152.752	63.856	95.908	-157.114	-10.911	94.709	142.776	-115.759	125.955	0.00089808	0.00018978	9.7699e-05	1375.2	9.5745e-06	4.6665e-06	1379.9	376.22	3.9691e-06	9.3293e-06	426.47	141.35	122.82	41.568	9.7707e-06	51.03	0.00049965	0.0004638	0.0001309	1403.9	5.1534e-06	5.1004e-06	1402.3	383.94	5.144e-06	4.959e-06	433.59	144.4	125.05	42.79	5.16e-06	52.711	-36.032	-36.000	-59.796	-156.723	-26.097	-77.099	-157.098	-152.323	-65.688	-13.217	-152.936	-148.455	-148.492	-143.405	-54.840	-144.294	-8191	255	
1123.982	1	1	0	0	0.28247	0.29182	0.064347	0.13727	0.051279	0.014139	0.12047	0.054343	0.32186	0.22732	0.42548	0.24616	0.08869	0.36306	0.17407	0.19988	-1.0792	-2.1354	-1.9354	-1.6812	-2.4104	-1.5625	-2.1958	-2.2833	-1.4396	-2.1625	-2.0979	-1.5792	-2.3	-1.7354	-1.7229	-2.4813	103.890	-77.783	-26.640	162.095	133.902	-47.480	178.134	-7.631	88.350	-146.571	84.030	5.722	-131.077	129.998	-153.839	137.330	0.00088497	0.00065632	0.00010868	1386	3.5016e-06	2.3916e-06	1377.6	377.97	5.5626e-06	4.6464e-06	424.05	141.11	123.96	41.501	7.4018e-06	51.429	0.00048706	0.00046083	0.00012694	1405.9	5.0347e-06	5.0914e-06	1400.2	384.61	5.0819e-06	5.0789e-06	432.74	144.25	125.34	42.784	5.0633e-06	52.762	-32.667	-100.583	-84.510	-156.846	-54.810	-52.540	-156.941	-152.316	-19.416	-21.031	-152.936	-148.368	-148.379	-143.606	-21.848	-144.654	-8191	255	
1124.078	1	1	0	0	0.20821	0.093627	0.10215	0.34713	0.29192	0.29572	0.33048	0.64317	0.081338	0.15141	0.36041	0.042731	0.14311	0.11536	0.09543	0.13694	-0.98333	-2.1896	-2.0333	-1.5521	-2.3688	-1.55	-1.8083	-2.5062	-1.2458	-1.8646	-2.0854	-1.4833	-2.3792	-1.8083	-1.4688	-2.4104	132.639	118.444	21.944	123.394	-136.578	-63.065	112.013	150.962	66.686	-137.290	127.552	-115.606	43.594	120.795	-151.368	167.318	0.00090386	0.00053451	0.00014266	1382.5	4.8939e-06	4.2144e-06	1383.6	375.25	8.2283e-06	3.131e-06	425.36	141.4	124.06	41.506	3.2083e-06	51.277	0.00048423	0.0004558	0.0001285	1403.1	5.0059e-06	5.0317e-06	1401.5	383.56	5.0271e-06	5.0498e-06	432.91	144.4	125.22	42.746	5.0179e-06	52.761	-28.953	-85.617	-92.265	-156.858	4.719	-3.023	-156.982	-152.394	-33.096	59.591	-152.779	-148.497	-147.918	-143.109	-23.157	-144.504	-8191	255	
1124.175	1	1	0	0	0.32787	0.26514	0.16976	0.15184	0.20641	0.27485	0.16301	0.22608	0.15217	0.17995	0.29069	0.24893	0.014193	0.1103	0.10994	0.26761	-1.0896	-1.8271	-2.1688	-1.1292	-2.15	-1.7563	-1.6479	-2.3646	-1.4854	-1.8917	-2.5417	-1.4438	-2.1312	-2.0729	-1.4333	-2.4896	135.247	53.105	-61.869	152.886	84.257	68.621	115.570	81.161	-129.940	-45.010	126.132	-158.464	-53.702	-98.770	-73.202	3.397	0.00087624	0.00018224	0.00018999	1378.4	8.7145e-06	3.0193e-06	1377.5	376.71	5.8155e-06	2.6905e-06	425.97	141.22	124.07	41.446	9.874e-06	51.279	0.00048277	0.0004544	0.00012792	1401.8	5.0396e-06	5.0742e-06	1400.3	384.01	4.9895e-06	4.9882e-06	433.78	144.3	124.59	42.7	5.0066e-06	52.762	-32.583	-126.954	-59.414	-156.783	-4.453	33.224	-157.040	-152.417	18.673	39.746	-152.953	-148.496	-148.399	-143.344	-7.085	-144.500	-8191	255	
1124.269	1	1	0	0	0.063512	0.11047	0.15694	0.34828	0.12963	0.15664	0.26848	0.21279	0.13832	0.25328	0.15	0.17103	0.054185	0.28552	0.077536	0.10428	-1.1958	-1.75	-2.2667	-1.4167	-2.05	-1.9813	-1.5875	-2.5771	-1.6667	-1.8687	-2.3542	-1.4062	-1.8896	-2.0583	-1.4625	-2.3667	125.135	52.087	-6.415	-146.750	186.532	133.507	114.024	110.202	116.245	123.917	80.627	42.476	58.847	145.474	-60.791	177.320	0.00088093	0.00042642	0.00022973	1374.9	7.4933e-06	4.872e-06	1377	375.45	3.8847e-06	5.4989e-06	424.77	140.92	123.59	41.584	3.6631e-06	51.29	0.00047549	0.00045312	0.00012707	1399.9	4.9065e-06	4.9403e-06	1397.7	383.34	5.0039e-06	4.9836e-06	432.91	144.15	124.92	42.803	5.0373e-06	52.762	-29.504	-72.455	-91.595	-157.020	-28.710	17.415	-157.100	-152.163	-42.958	-32.249	-153.076	-148.486	-148.190	-143.516	-44.174	-144.046	-8191	255	
1124.365	1	1	0	0	0.28262	0.2085	0.12028	0.24562	0.18282	0.31844	0.26936	0.23262	0.20991	0.19049	0.38091	0.19996	0.24667	0.11287	0.090639	0.18897	-1.2833	-1.4188	-2.3563	-1.5833	-1.8771	-1.9646	-1.4125	-2.4833	-1.6354	-1.4917	-2.3604	-1.3563	-1.9896	-2.2	-1.3979	-2.4521	37.412	65.415	-72.134	150.865	-19.759	75.501	146.507	146.171	50.637	-90.136	173.814	82.137	188.526	137.961	151.183	68.842	0.00095901	0.00047304	0.00017458	1374.6	5.1382e-06	3.8826e-06	1379.9	375.76	9.8623e-06	4.1542e-06	424.3	141.33	124	41.711	1.8088e-06	51.127	0.00048386	0.00045993	0.00012659	1399.8	5.0236e-06	4.9962e-06	1400.1	383.52	5.0335e-06	5.0012e-06	433.26	144.16	125.21	42.749	5.0249e-06	52.691	-33.227	-80.737	-39.086	-156.761	15.118	-20.964	-157.095	-152.245	-60.120	-62.702	-152.939	-148.528	-147.900	-143.533	18.457	-144.357	-8191	255	
1124.461	1	1	0	0	0.079653	0.1892	0.040183	0.20145	0.1682	0.11109	0.17043	0.027752	0.20839	0.038198	0.039651	0.17854	0.04167	0.35398	0.11762	0.35624	-1.1833	-1.3813	-2.1104	-1.7104	-1.7104	-2.0708	-1.2833	-2.2	-1.5625	-1.3792	-2.4333	-1.5667	-1.8083	-2.2083	-1.3771	-2.1958	-100.012	48.744	177.242	109.793	151.783	-109.682	168.802	-99.555	68.180	175.358	167.014	78.490	165.054	124.956	-39.931	121.113	0.00086895	0.00078051	0.00012056	1376.8	4.5466e-06	3.7665e-06	1375.3	376.04	8.3033e-06	6.0089e-06	425.64	141.41	123.31	41.628	9.5076e-06	51.342	0.00048272	0.00045949	0.00012743	1398.7	5.0061e-06	5.0155e-06	1397.6	383.87	5.0168e-06	5.0402e-06	433.22	143.93	124.77	42.767	4.9846e-06	52.79	-39.207	-69.269	-88.383	-156.570	-81.716	-56.205	-156.983	-152.166	-36.029	-3.535	-152.702	-148.601	-147.760	-143.506	-33.158	-144.093	-8191	255	
1124.557	1	1	0	0	0.053554	0.25977	0.23143	0.33014	0.1972	0.072383	0.088155	0.16177	0.1718	0.31604	0.01977	0.060516	0.33884	0.039931	0.12524	0.13432	-1.4354	-1.3333	-2.3146	-1.7354	-1.7104	-2.375	-1.5292	-2.2917	-2.1208	-1.3125	-2.4583	-1.6521	-1.5979	-2.3875	-1.4562	-2.0563	-112.213	-156.353	169.779	139.949	-147.054	109.054	-130.460	183.770	23.697	166.633	-169.689	175.717	141.287	-166.372	-43.836	21.352	0.00093391	0.0006448	0.00019442	1376.8	5.8851e-06	2.2752e-06	1376.8	376.03	4.9879e-06	6.1213e-06	426.58	140.78	122.88	41.5	6.1666e-06	51.151	0.00047818	0.00045846	0.00012502	1399.3	4.932e-06	4.9446e-06	1397.5	383.39	5.0634e-06	5.0233e-06	433.06	144.13	124.82	42.708	4.9615e-06	52.709	-37.020	-84.552	-80.946	-156.826	-28.911	-26.041	-157.043	-152.213	-49.844	4.050	-152.911	-148.653	-148.066	-143.109	-22.406	-144.072	-8191	255	
1124.678	1	1	0	0	0.14137	0.15615	0.53048	0.33153	0.19463	0.21995	0.21215	0.33857	0.21082	0.16028	0.24941	0.30469	0.17275	0.11642	0.22305	0.15139	-1.5646	-1.2021	-2.1625	-1.7646	-1.7271	-2.5271	-1.5958	-2.025	-1.9125	-1.3083	-2.1667	-1.8813	-1.4937	-2.4562	-1.4292	-1.9458	-93.183	-155.917	11.268	-128.022	-116.532	-5.275	56.980	126.673	127.373	-39.787	123.786	140.450	187.929	91.880	-11.739	90.762	0.00086417	0.00063419	0.00017641	1369.4	4.1e-06	3.4864e-06	1374.2	376.17	6.6583e-06	3.9961e-06	425.68	141.82	123.7	41.819	6.4193e-06	51.141	0.00048137	0.00045617	0.000126	1396.5	5.0118e-06	4.9433e-06	1397.7	383.36	4.9741e-06	5.0094e-06	433.54	144.06	124.85	42.798	4.9261e-06	52.729	-29.819	-57.799	-64.263	-156.785	-37.954	11.838	-157.082	-152.037	-23.389	-9.988	-152.826	-148.609	-147.975	-143.512	5.035	-144.096	-8191	255	
1124.774	1	1	0	0	0.2531	0.18563	0.039604	0.24154	0.22054	0.058637	0.31134	0.46905	0.19175	0.20283	0.29354	0.25428	0.086674	0.23607	0.25066	0.15448	-1.8521	-1.3667	-2.0896	-1.9521	-1.4875	-2.2708	-1.6021	-1.9813	-2.1583	-1.2667	-2.2	-1.9667	-1.2292	-2.525	-1.4813	-1.8563	-11.500	55.895	95.102	135.834	-56.469	-154.994	98.496	176.662	-32.406	60.636	84.436	177.931	149.980	-113.581	15.111	-162.218	0.00094826	0.00042553	0.00025116	1375	5.7905e-06	1.0895e-06	1377.9	376	9.2934e-06	2.9288e-06	424.05	141	123.65	41.727	3.9069e-06	51.191	0.00048266	0.0004528	0.00012489	1397.8	4.9476e-06	4.863e-06	1395	383.25	4.9791e-06	4.9846e-06	432.76	144	124.58	42.766	4.8771e-06	52.768	-35.348	-94.246	-65.847	-156.652	-47.633	-98.788	-157.174	-152.199	-16.830	61.441	-152.579	-148.477	-147.874	-143.358	-116.450	-144.329	-8191	255	
1124.870	1	1	0	0	0.23277	0.12351	0.051275	0.40599	0.16884	0.26145	0.28637	0.39145	0.13222	0.30118	0.14744	0.28867	0.18802	0.24949	0.046794	0.23548	-2.0625	-1.25	-1.9375	-2.0604	-1.2354	-2.3021	-1.5812	-2.0062	-2.2625	-1.2271	-2.1542	-2.2104	-1.5271	-2.2208	-1.7333	-1.7208	101.484	45.648	-134.748	55.841	114.857	-128.883	143.892	182.667	-54.983	119.058	24.137	100.698	161.903	-154.121	132.489	7.878	0.00087108	0.00027278	0.00020262	1372.2	1.0653e-05	2.1303e-06	1377.9	376.17	7.9456e-06	6.9228e-06	423.55	141.52	123.28	41.566	4.499e-06	51.281	0.00047105	0.00045852	0.00012553	1395.4	4.9544e-06	4.9529e-06	1395.8	382.77	4.946e-06	4.9794e-06	432.25	144.04	124.61	42.71	4.8662e-06	52.661	-38.294	-92.233	-75.181	-156.674	-28.760	-53.614	-157.099	-152.194	-23.453	5.659	-152.610	-148.627	-147.985	-143.367	-27.683	-144.131	-8191	255	
1124.966	1	1	0	0	0.1975	0.074349	0.11255	0.23893	0.12802	0.15326	0.24456	0.26467	0.20166	0.11482	0.20461	0.30668	0.30514	0.17382	0.28783	0.084077	-1.9417	-1.2833	-1.8604	-2.2625	-1.2875	-2.2313	-1.6667	-1.8146	-2.1708	-1.375	-2.0521	-2.2917	-1.3188	-2.2979	-1.9979	-1.3042	142.649	-86.420	-81.644	177.702	95.593	-0.654	183.766	166.718	-97.905	-85.631	82.027	142.632	178.251	145.649	-157.464	28.288	0.00099008	0.00077624	0.00024277	1375.2	5.0385e-06	9.5364e-06	1371.5	376.48	6.0307e-06	8.699e-06	422.75	141.02	123.57	41.402	2.4861e-06	51.072	0.00047694	0.00044607	0.00012446	1397.2	4.9084e-06	4.9454e-06	1393.8	383.07	4.8573e-06	4.8778e-06	432.04	143.98	124.81	42.676	4.8842e-06	52.682	-33.713	-100.542	-104.139	-156.852	-24.808	-10.167	-157.186	-152.145	5.426	-37.919	-152.821	-148.440	-148.084	-143.288	21.914	-144.203	-8191	255	
1125.063	1	1	0	0	0.13747	0.094691	0.042217	0.24021	0.16605	0.13829	0.30521	0.16805	0.1478	0.31727	0.28664	0.084344	0.072902	0.33793	0.22621	0.028919	-1.8229	-1.3104	-1.6979	-2.4083	-1.2625	-2.3146	-2.1312	-1.4354	-2.2333	-1.5271	-1.6021	-2.275	-1.3583	-2.1375	-1.8	-1.4104	23.675	30.195	-137.093	82.725	115.352	-12.629	85.853	68.597	24.069	64.841	82.516	120.949	158.882	-145.890	117.623	-155.033	0.00094583	0.0001431	0.00010963	1372	2.9196e-06	5.161e-06	1373.3	374.65	1.0345e-05	2.1338e-06	424.95	141.75	123.04	41.665	6.3005e-06	50.951	0.00046694	0.00044408	0.0001243	1394	4.8167e-06	4.79e-06	1392.7	382.46	4.9196e-06	4.8578e-06	432.69	144.03	124.53	42.683	4.8616e-06	52.47	-36.530	-121.366	-99.063	-156.882	6.043	-23.823	-157.225	-152.237	-33.120	-2.861	-152.659	-148.663	-147.492	-143.241	-11.226	-143.998	-8191	255	
1125.159	1	1	0	0	0.2001	0.1537	0.086497	0.19523	0.18495	0.21408	0.32723	0.40425	0.22141	0.10658	0.2097	0.30844	0.36247	0.55399	0.10211	0.20077	-1.8188	-1.5979	-1.6396	-2.1937	-1.1229	-2.0396	-2.2562	-1.4729	-2.275	-1.7125	-1.5542	-2.2271	-1.5292	-1.9042	-2.1792	-1.3937	-152.046	149.531	160.700	131.387	158.523	-23.720	131.698	113.881	-83.809	-108.137	-111.008	-160.892	-83.402	184.434	40.638	-121.544	0.00089887	0.00036862	0.00012157	1372.7	5.9163e-06	2.9549e-06	1374.1	376.03	5.6576e-06	5.0565e-06	426.05	140.99	123.33	41.478	4.5478e-06	51.248	0.00047075	0.00044346	0.00012479	1396.8	4.9202e-06	4.9156e-06	1393.3	382.86	4.9778e-06	4.9439e-06	432.34	143.96	124.74	42.604	4.9882e-06	52.609	-28.554	-37.532	-85.140	-156.784	-29.764	-87.533	-156.977	-152.085	-19.029	-7.119	-152.843	-148.595	-148.288	-143.366	-23.998	-144.472	-8191	255	
1125.279	1	1	0	0	0.064139	0.12432	0.17447	0.40758	0.21303	0.21479	0.37661	0.41427	0.23753	0.15295	0.088775	0.22409	0.073055	0.077708	0.1073	0.52195	-1.8583	-1.8375	-1.4958	-2.4625	-1.375	-1.7208	-2.2958	-1.3521	-2.0521	-1.7875	-1.3146	-2.3958	-1.2854	-1.8	-2.1937	-1.2896	-149.428	-154.509	106.249	-163.352	-165.476	-97.448	152.426	145.272	99.299	165.352	135.920	121.018	-151.778	102.920	-30.198	155.798	0.00088641	0.00046954	0.00013155	1372.5	5.1094e-06	8.0031e-06	1370.6	374.65	4.5861e-06	5.4367e-06	421.89	141.31	123.96	41.434	4.8729e-06	50.912	0.00048064	0.00044951	0.00012499	1396	4.9647e-06	4.9929e-06	1394.5	382.45	4.9275e-06	4.9635e-06	431.36	143.99	124.83	42.548	5.0119e-06	52.504	-33.775	-110.486	-95.210	-156.884	-22.497	-35.924	-157.222	-152.201	-52.908	-41.504	-153.211	-148.724	-147.990	-143.536	14.517	-144.198	-8191	255	
1125.374	1	1	0	0	0.19894	0.013325	0.13763	0.40414	0.11047	0.14506	0.42349	0.2976	0.1434	0.13778	0.067702	0.16942	0.3202	0.13759	0.19026	0.19701	-1.5833	-1.95	-1.2042	-2.3458	-1.6333	-1.6313	-2.4792	-1.4104	-1.8083	-2.0125	-1.3958	-2.3875	-1.6083	-1.6771	-2.2479	-1.3875	-140.351	114.937	-17.527	106.919	148.458	-123.157	133.218	89.771	-19.285	56.707	12.539	-133.488	170.279	89.430	-69.853	152.047	0.00093453	0.00045673	0.00020346	1373.5	5.7369e-06	6.0909e-06	1374.2	374.74	6.7959e-06	3.7458e-06	423.49	141.32	122.96	41.403	6.1577e-06	51.287	0.00047458	0.00044936	0.00012411	1395.9	4.9524e-06	4.894e-06	1393.4	382.25	4.9307e-06	4.9179e-06	431.64	143.92	124.63	42.606	4.8799e-06	52.602	-31.558	-70.628	-66.433	-156.676	-9.800	5.141	-157.035	-152.234	-28.698	-2.106	-152.689	-148.687	-147.977	-143.356	-60.931	-144.230	-8191	255	
1125.470	1	1	0	0	0.25444	0.15089	0.10139	0.15759	0.13064	0.067787	0.22975	0.15719	0.27803	0.24934	0.12021	0.068995	0.22786	0.23577	0.17291	0.32861	-1.2792	-1.9813	-1.2125	-2.1792	-1.5375	-1.6	-2.4833	-1.35	-1.8687	-1.9625	-1.2979	-2.4646	-1.7771	-1.3979	-2.325	-1.5521	-136.294	-147.370	-96.190	160.613	-106.717	-102.468	141.154	150.180	-51.346	-155.195	-12.747	-14.098	174.532	180.787	-122.990	134.752	0.00095365	0.00043989	0.00013381	1376.5	7.7136e-06	3.4765e-06	1369.4	374.45	7.1777e-06	5.4839e-06	421.36	141.59	123.08	41.52	2.8331e-06	51.187	0.00047306	0.00045721	0.00012655	1395.3	4.976e-06	5.0483e-06	1392.5	381.91	4.932e-06	4.8928e-06	431.22	143.98	124.63	42.709	4.967e-06	52.603	-32.866	-44.916	-110.115	-156.561	-24.773	24.041	-157.206	-152.318	-27.263	-37.224	-152.703	-148.613	-148.117	-143.457	-26.463	-144.204	-8191	255	
1125.566	1	1	0	0	0.33039	0.19884	0.16766	0.22958	0.11921	0.089703	0.32499	0.40179	0.12382	0.20319	0.12646	0.16162	0.20595	0.17612	0.17927	0.042401	-1.6021	-2.0917	-1.3375	-2.4	-1.8458	-1.5688	-2.5375	-1.5438	-1.7313	-2.25	-1.4354	-2.3292	-1.8604	-1.3062	-2.2104	-1.6625	-100.765	-61.059	136.682	141.408	26.479	75.149	116.356	-160.407	-155.328	152.646	151.155	-2.448	56.741	149.094	-48.525	173.735	0.0010108	0.0006809	0.00015782	1371.7	3.4435e-06	3.8981e-06	1378.3	373.85	6.9729e-06	2.5509e-06	424.84	140.69	122.99	41.592	7.668e-06	51.242	0.00047268	0.00045197	0.0001259	1395	4.9415e-06	4.9985e-06	1395.8	382.04	4.9483e-06	4.8925e-06	431.18	143.56	124.62	42.661	4.8775e-06	52.58	-34.528	-107.021	-85.166	-156.791	-49.272	-26.072	-156.967	-152.240	-52.461	55.218	-152.899	-148.498	-147.893	-143.238	-24.343	-144.269	-8191	255	
1125.662	1	1	0	0	0.20583	0.061154	0.16685	0.10299	0.33881	0.16894	0.27555	0.19533	0.1667	0.12526	0.15763	0.16332	0.27767	0.34527	0.072459	0.32151	-1.2042	-2.2938	-1.1562	-2.1396	-1.9188	-1.3625	-2.4042	-1.6562	-1.6292	-2.1167	-1.3417	-2.1813	-1.8021	-1.3021	-2.1	-1.8188	109.735	-29.744	78.392	151.875	66.190	27.279	157.868	153.395	-1.410	135.851	-134.881	-114.130	147.569	79.101	-71.901	137.404	0.00084735	0.00058258	0.00011832	1371.1	9.7453e-06	5.769e-06	1371.2	374.88	5.8717e-06	2.5329e-06	423.35	141.38	123.17	41.294	8.9306e-06	51.247	0.00046359	0.00044553	0.00012363	1393.4	4.8371e-06	4.8828e-06	1392.7	381.75	4.9293e-06	4.8124e-06	430.55	143.76	124.16	42.577	4.7767e-06	52.542	-35.526	-108.793	-67.391	-156.653	-42.592	-25.207	-157.273	-152.409	-49.794	40.967	-152.750	-148.412	-148.091	-143.291	-23.189	-144.481	-8191	255	
1125.758	1	1	0	0	0.30696	0.13188	0.058259	0.22753	0.088807	0.10011	0.18729	0.073124	0.12746	0.11415	0.17154	0.079963	0.46644	0.17304	0.2186	0.093107	-1.1646	-2.275	-1.2458	-2.0062	-1.9688	-1.2708	-2.4	-1.9646	-1.5354	-2.275	-1.5229	-1.9042	-2.0104	-1.2646	-2.2938	-1.8292	188.342	-25.980	18.238	160.131	119.500	-2.477	109.911	-118.560	163.297	91.663	137.026	154.737	-135.000	161.217	-12.217	165.181	0.0008743	0.00013245	0.00023092	1373.9	7.8144e-06	6.2716e-06	1372.5	374.62	8.0874e-06	5.3296e-06	420.9	141.41	122.93	41.572	5.1242e-06	51.05	0.00046982	0.00044027	0.00012208	1392.5	4.8513e-06	4.9021e-06	1391.4	381.32	4.8762e-06	4.7912e-06	430.44	143.51	124.37	42.572	4.8459e-06	52.458	-39.811	-117.987	-106.736	-156.681	-44.745	-68.988	-157.168	-152.401	-31.447	-66.812	-152.632	-148.368	-147.787	-143.179	-62.550	-144.069	-8191	255	
1125.855	1	1	0	0	0.18811	0.13545	0.15221	0.16085	0.11298	0.29443	0.14861	0.24155	0.13599	0.16078	0.34501	0.063081	0.17923	0.307	0.040519	0.14301	-1.0312	-2.3667	-1.2979	-1.9646	-2.3667	-1.2458	-2.225	-2.0729	-1.2521	-2.4125	-1.7854	-1.8271	-2.2854	-1.3833	-2.225	-2.1646	31.123	180.961	0.644	183.999	-23.373	114.809	152.676	136.529	63.071	188.684	116.335	80.567	-126.412	76.619	128.426	160.766	0.00086724	0.00060434	0.0001504	1373.6	7.7427e-06	2.203e-06	1371.5	375.4	5.2533e-06	1.0278e-06	421.54	140.8	123.37	41.449	4.4794e-06	51.082	0.00047211	0.00043774	0.00012173	1391.8	4.801e-06	4.7661e-06	1390.8	381.83	4.9103e-06	4.8241e-06	430.08	143.42	124.35	42.553	4.7674e-06	52.443	-28.690	-104.975	-68.026	-156.585	-16.947	45.052	-156.941	-152.455	-47.504	-26.343	-152.862	-148.326	-148.232	-143.215	-70.092	-144.283	-8191	255	
1125.975	1	1	0	0	0.18687	0.22345	0.090439	0.50323	0.1598	0.20046	0.20474	0.17572	0.36137	0.1142	0.085275	0.20142	0.074913	0.32972	0.1746	0.11751	-0.99167	-2.2396	-1.6292	-1.7333	-2.3021	-1.2083	-2.2562	-2.2542	-1.3208	-2.2833	-1.6771	-1.5604	-2.3417	-1.55	-1.8438	-2.1875	36.002	23.985	-84.111	135.326	-111.612	171.867	88.641	124.266	54.321	-28.948	11.994	125.346	127.620	177.749	-68.123	-160.654	0.00087358	0.00028124	0.00023427	1372.5	6.1499e-06	5.9672e-06	1369.3	374.02	9.7015e-06	1.6466e-06	422.9	140.88	123.9	41.433	2.1545e-06	50.79	0.00046721	0.00043813	0.00012214	1391.8	4.8016e-06	4.8004e-06	1388.6	381.11	4.8437e-06	4.7355e-06	430.1	143.44	124.6	42.553	4.8447e-06	52.357	-38.979	-69.018	-67.232	-156.689	-24.774	-38.053	-157.102	-152.296	-44.051	7.577	-152.952	-148.794	-148.129	-143.194	-36.834	-144.120	-8191	255	
1126.071	1	1	0	0	0.05258	0.3089	0.054303	0.36976	0.043162	0.20718	0.070756	0.19766	0.10278	0.21102	0.31202	0.058127	0.24017	0.1689	0.15033	0.24365	-0.75417	-2.075	-1.6125	-1.6396	-2.3479	-1.3563	-2.0583	-2.2062	-1.3583	-2.2687	-1.9146	-1.3604	-2.3979	-1.65	-1.8563	-2.4104	96.194	-96.715	46.276	161.567	-38.458	41.305	94.504	122.570	164.563	-45.579	138.130	-121.891	65.340	145.382	-81.608	47.615	0.00092903	0.00018753	9.1546e-05	1372.3	1.9807e-06	5.8586e-06	1368.7	373.62	9.1644e-06	5.3023e-06	423.7	140.18	122.82	41.395	3.6316e-06	50.841	0.00046261	0.0004386	0.00012254	1391.9	4.8361e-06	4.816e-06	1389.4	381.11	4.7853e-06	4.8503e-06	430.89	143.32	124.08	42.488	4.7938e-06	52.376	-36.321	-15.903	-64.423	-156.584	-20.202	-24.943	-156.899	-152.500	-40.894	-35.286	-152.584	-148.377	-147.758	-143.656	28.003	-144.221	-8191	255	
1126.143	1	1	0	0	0.12508	0.1118	0.17194	0.28922	0.21237	0.24399	0.26934	0.35974	0.067978	0.26962	0.22189	0.087572	0.14901	0.43095	0.15282	0.096422	-1.1542	-2.2938	-2.1312	-1.5146	-2.3271	-1.6583	-2.0062	-2.6042	-1.375	-1.875	-2.1229	-1.4875	-2.1979	-1.8354	-1.4813	-2.4792	85.033	-136.765	-94.501	54.058	-28.058	76.860	115.070	139.652	-17.766	-110.044	-146.797	175.175	-169.552	-156.035	186.364	-18.826	0.00093631	0.00035202	0.00014869	1368.6	5.4523e-06	5.7352e-06	1367.7	373.73	1.1358e-05	3.6558e-06	424.83	140.29	122.95	41.404	6.8287e-06	50.954	0.00047115	0.000436	0.00012347	1389.7	4.8041e-06	4.8704e-06	1387.2	380.63	4.847e-06	4.7788e-06	430.97	143.3	124.3	42.487	4.8095e-06	52.421	-33.051	-68.202	-79.464	-156.634	-28.614	-48.763	-157.070	-152.345	-35.040	23.992	-152.849	-148.435	-147.932	-143.397	-36.907	-144.280	-8191	255	
1126.239	1	1	0	0	0.21306	0.23141	0.26874	0.34818	0.3913	0.10988	0.21031	0.28378	0.15268	0.13765	0.064038	0.046004	0.19726	0.059518	0.04334	0.27423	-0.85833	-2.1792	-2.0292	-1.4813	-2.1917	-1.6396	-1.7917	-2.3125	-1.3479	-1.8438	-2.2729	-1.4104	-2.1729	-1.625	-1.6688	-2.4354	155.181	-100.734	111.567	-135.306	-38.258	91.647	134.783	-152.495	-85.493	92.577	143.744	37.180	115.601	-101.460	124.411	-158.669	0.00090588	0.00023799	0.00012059	1367	6.3985e-06	6.3639e-06	1366.2	375.41	8.8089e-06	7.6904e-06	424.75	141.08	122.67	41.372	4.4136e-06	51.001	0.0004656	0.00043387	0.00012062	1387.5	4.7211e-06	4.689e-06	1386.9	381.55	4.8349e-06	4.697e-06	430.66	143.6	123.81	42.49	4.7236e-06	52.374	-34.043	-67.020	-117.333	-156.626	-62.246	-3.661	-156.998	-152.258	-43.973	-32.385	-152.866	-148.728	-148.170	-143.432	-27.493	-144.081	-8191	255	
1126.360	1	1	0	0	0.10904	0.077747	0.28144	0.20905	0.22272	0.14215	0.23252	0.37168	0.23574	0.28221	0.051979	0.067232	0.18541	0.11367	0.1101	0.084752	-0.96042	-1.8125	-2.0375	-1.35	-2.1542	-1.7292	-1.5375	-2.3146	-1.3583	-1.6375	-2.1458	-1.4292	-2.2	-1.9521	-1.4312	-2.55	-96.612	10.902	22.491	158.442	-155.695	184.744	100.274	119.671	-151.271	-108.107	159.913	-75.126	32.116	-43.137	-55.708	180.124	0.00085902	0.0004384	0.00018536	1364.8	4.7002e-06	5.5739e-06	1365.2	374.11	6.6515e-06	1.2704e-05	420.38	140.61	122.71	41.217	5.0776e-06	51.051	0.00046111	0.00043007	0.00011985	1384.8	4.6649e-06	4.7643e-06	1384.1	380.47	4.7742e-06	4.7264e-06	429.86	143.02	124.09	42.408	4.808e-06	52.439	-34.076	-84.099	-69.178	-156.645	-35.504	-2.183	-157.006	-152.254	-5.380	-25.445	-152.831	-148.656	-147.977	-143.555	-39.365	-144.111	-8191	255	
1126.454	1	1	0	0	0.27184	0.21374	0.19359	0.27062	0.16518	0.19175	0.041926	0.069198	0.076455	0.30217	0.17959	0.15195	0.10395	0.10941	0.22122	0.049748	-1.125	-1.7042	-2.2125	-1.4917	-1.9688	-1.9146	-1.7	-2.6542	-1.6042	-1.5396	-2.4417	-1.6292	-2.0333	-2.0604	-1.2479	-2.4604	150.369	96.127	174.717	135.393	113.514	64.488	-0.014	173.386	95.877	158.327	-84.033	28.267	-149.929	64.161	3.926	187.999	0.00088833	0.0004707	0.00027043	1365.2	6.3171e-06	1.472e-06	1362	374.81	8.6189e-06	2.9548e-06	420.28	140.51	123.3	41.323	4.9693e-06	50.944	0.00045788	0.0004305	0.00011925	1386.6	4.7516e-06	4.7599e-06	1384.4	381.05	4.7745e-06	4.7237e-06	429.93	142.78	124.27	42.365	4.7702e-06	52.346	-31.997	-91.186	-118.741	-156.709	-35.957	-45.361	-156.989	-152.111	-58.332	-30.653	-152.794	-148.448	-148.036	-143.068	-37.405	-144.083	-8191	255	
1126.550	1	1	0	0	0.14348	0.19567	0.26181	0.18695	0.070913	0.14494	0.33894	0.29389	0.31484	0.10561	0.26142	0.17351	0.16847	0.14208	0.12319	0.44038	-1.2771	-1.2833	-2.1917	-1.6313	-1.8188	-2.0333	-1.3917	-2.2521	-1.6958	-1.5063	-2.5354	-1.4813	-1.7625	-2.3771	-1.2458	-2.2354	-165.658	82.225	11.416	145.780	177.541	-88.214	129.635	-167.354	56.532	122.295	163.215	106.675	-95.786	-164.515	55.268	105.551	0.00087829	0.00081057	0.00010337	1363.9	4.5112e-06	2.8986e-06	1363.2	374.42	1.1616e-05	6.2665e-06	421.32	140.21	122.43	41.172	5.8424e-06	50.863	0.00045776	0.00044344	0.00012335	1384.5	4.741e-06	4.7232e-06	1383.6	380.92	4.7928e-06	4.7983e-06	429.48	143	123.9	42.358	4.7942e-06	52.415	-30.730	-71.903	-106.411	-157.071	20.557	15.764	-157.372	-152.254	-22.335	-16.923	-153.053	-148.991	-148.440	-143.659	35.459	-144.563	-8191	255	
1126.671	1	1	0	0	0.18455	0.13967	0.24718	0.32027	0.17031	0.057103	0.42279	0.1799	0.20881	0.05737	0.12459	0.0022779	0.28363	0.26935	0.26656	0.17051	-1.3625	-1.1812	-2.2854	-1.5229	-1.7563	-2.15	-1.525	-2.3312	-1.8625	-1.3229	-2.5083	-1.6688	-1.6688	-2.3646	-1.1313	-2.3083	-153.951	-100.245	-126.874	144.235	168.016	-61.277	183.918	136.127	106.638	23.531	47.174	-103.137	-77.365	-49.622	-45.427	-169.706	0.0009355	0.0007627	9.9625e-05	1365.3	6.5022e-06	4.5435e-06	1364.5	375.07	9.5959e-06	7.2881e-06	421.64	139.21	122.98	41.358	7.5831e-06	50.707	0.00046433	0.00044446	0.00012155	1384.9	4.7883e-06	4.8892e-06	1384.4	381.09	4.8411e-06	4.8431e-06	429.73	143.06	124.11	42.439	4.7863e-06	52.396	-36.408	-157.499	-112.547	-157.104	-24.518	-52.048	-157.257	-152.620	-23.679	-5.555	-153.045	-148.892	-147.988	-143.458	-22.287	-144.248	-8191	255	
1126.767	1	1	0	0	0.24011	0.077422	0.096731	0.25763	0.26386	0.048652	0.11469	0.40736	0.026225	0.079408	0.29566	0.18281	0.17372	0.26049	0.29085	0.18225	-1.5417	-1.2062	-2.2	-1.725	-1.6917	-2.4729	-1.6958	-2.0396	-1.9792	-1.2833	-2.5187	-1.8062	-1.4625	-2.4313	-1.2042	-1.8875	-105.353	12.415	-149.428	170.382	29.318	93.362	59.046	-164.207	-53.244	-17.222	150.941	-158.374	22.619	82.283	79.066	-154.865	0.00089194	0.00039401	0.00012526	1362.4	3.3004e-06	2.2991e-06	1365.1	374	8.323e-06	4.7642e-06	421.46	140.38	122.45	41.256	4.2537e-06	50.717	0.00046375	0.00044398	0.00012137	1385.2	4.861e-06	4.8034e-06	1384.6	380.94	4.7923e-06	4.7771e-06	430.16	143.08	124.06	42.454	4.7294e-06	52.359	-34.073	-101.366	-77.206	-156.910	-46.526	-65.304	-157.320	-152.443	-42.681	-7.112	-152.877	-148.659	-148.207	-143.559	-22.178	-143.934	-8191	255	
1126.839	1	1	0	0	0.093922	0.22847	0.1381	0.34248	0.045688	0.19318	0.32284	0.33018	0.21113	0.054735	0.15141	0.18931	0.1957	0.29946	0.30564	0.26294	-1.5271	-1.3958	-2.3583	-1.8854	-1.3542	-2.3875	-1.5771	-2.2458	-2.0458	-1.1417	-2.2521	-1.9875	-1.3854	-2.4437	-1.3146	-1.8396	-118.624	-138.521	181.241	170.906	-94.210	121.989	126.478	-167.290	-1.823	-80.342	72.528	133.530	-4.279	-139.211	127.251	144.375	0.00091955	0.00038141	0.0001197	1360.4	5.7423e-06	1.9513e-06	1358.7	373.87	1.0019e-05	5.6164e-06	423.58	140.06	122.17	41.208	7.037e-06	50.797	0.00046532	0.00043251	0.00011923	1384.4	4.7574e-06	4.7457e-06	1382	380.71	4.8219e-06	4.8161e-06	429.69	142.85	123.83	42.355	4.7213e-06	52.211	-32.465	8.157	-88.088	-156.727	-15.432	5.726	-157.136	-152.232	-46.156	-20.117	-152.805	-148.574	-148.451	-143.394	-49.745	-144.394	-8191	255	
1126.959	1	1	0	0	0.11388	0.1685	0.2061	0.2312	0.22107	0.12276	0.30672	0.19174	0.22371	0.26107	0.18441	0.099703	0.20771	0.35087	0.20466	0.055583	-1.7687	-1.2083	-2.1688	-2.1354	-1.3396	-2.2938	-1.7458	-1.7292	-2.2917	-1.4875	-2.1479	-2.0771	-1.3167	-2.6312	-1.5438	-1.8583	-13.896	66.837	-162.966	179.602	44.033	168.928	113.512	147.934	124.943	-64.399	3.234	-71.994	-4.284	163.938	99.384	144.326	0.00096253	0.0003646	0.00012806	1363.8	6.2697e-06	3.3871e-06	1367.4	373.85	4.5419e-06	5.5673e-06	421.58	139.91	122.75	41.163	8.9921e-06	51.238	0.00046232	0.00044251	0.00012078	1383.9	4.8198e-06	4.7949e-06	1382.4	380.54	4.8317e-06	4.7569e-06	429.37	142.98	123.99	42.369	4.7601e-06	52.433	-36.439	-124.362	-103.134	-156.815	-17.823	-5.698	-157.107	-152.195	-0.224	8.789	-152.708	-148.680	-147.917	-143.305	18.429	-144.039	-8191	255	
1127.056	1	1	0	0	0.1604	0.17902	0.29829	0.15995	0.22447	0.42103	0.39527	0.16111	0.091834	0.14707	0.079821	0.25126	0.25133	0.084679	0.12491	0.2461	-1.8229	-1.325	-2.0583	-2.3521	-1.3104	-2.175	-1.7958	-1.6	-2.1208	-1.1979	-1.9375	-2.1521	-1.1688	-2.3479	-1.7958	-1.4083	-157.662	-123.584	180.343	170.738	172.934	132.440	182.616	68.154	-119.183	-165.891	110.133	155.126	146.228	28.723	148.231	93.453	0.0008318	0.00044901	0.00011435	1361.4	6.6905e-06	4.0909e-06	1369.2	374.23	3.6969e-06	7.6336e-06	422.29	139.74	121.64	41.18	3.6895e-06	50.858	0.00045491	0.00043697	0.00011882	1382.4	4.8387e-06	4.6897e-06	1383.9	380.92	4.7552e-06	4.7306e-06	429.28	143.19	123.73	42.371	4.711e-06	52.332	-32.259	-94.703	-108.121	-156.589	-7.760	14.354	-157.115	-151.925	-51.264	-27.077	-152.634	-148.449	-148.090	-142.953	-57.394	-143.771	-8191	255	
1127.152	1	1	0	0	0.2629	0.13121	0.17382	0.30307	0.1297	0.1453	0.16365	0.25295	0.24739	0.093463	0.21155	0.189	0.4192	0.24712	0.24763	0.23344	-2.0354	-1.3062	-1.85	-2.3458	-1.2854	-2.2562	-1.9521	-1.7042	-2.2687	-1.3021	-1.975	-2.2812	-1.4083	-2.4021	-1.8625	-1.3625	83.168	-160.118	-109.890	126.728	-32.672	4.085	86.023	183.110	132.306	141.775	151.744	-167.979	106.582	152.642	-43.607	-23.266	0.00088244	0.00042424	0.00013926	1359.6	5.9078e-06	4.0052e-06	1360.6	373.9	7.8352e-07	5.5949e-06	421.84	140.02	122.68	41.248	6.276e-06	50.565	0.00046577	0.00043118	0.00012135	1384.2	4.762e-06	4.7119e-06	1381.1	380.66	4.7558e-06	4.7618e-06	428.45	142.81	123.9	42.403	4.846e-06	52.214	-33.982	-91.866	-113.274	-156.570	-20.243	-40.191	-156.920	-152.048	-82.794	-71.571	-152.536	-148.463	-148.052	-143.458	-49.438	-143.982	-8191	255	
1127.248	1	1	0	0	0.1357	0.23876	0.095995	0.30745	0.23155	0.15763	0.34304	0.48985	0.14752	0.16276	0.30059	0.30743	0.14903	0.075501	0.38392	0.095822	-1.8104	-1.6063	-1.6729	-2.4104	-1.2229	-2.1667	-2.0292	-1.5896	-2.3	-1.5625	-1.5562	-2.2146	-1.4937	-2.2375	-2.1021	-1.3062	-131.059	79.959	-116.703	128.360	-9.808	-162.299	104.150	165.716	160.582	-112.844	172.716	22.071	11.950	169.879	-8.752	163.612	0.0009175	0.00051124	0.00013941	1362.4	2.5288e-06	2.2469e-06	1357.9	374.32	9.2984e-06	7.4734e-06	421.2	140.35	122.89	41.149	5.4738e-06	50.687	0.00045468	0.00044011	0.00012005	1383.3	4.8134e-06	4.7346e-06	1380.2	380.34	4.8228e-06	4.7786e-06	429.14	142.93	123.78	42.37	4.7146e-06	52.22	-35.100	-78.436	-76.836	-156.698	-36.269	-33.491	-157.373	-152.357	-60.733	-33.342	-152.883	-148.373	-148.141	-143.583	-27.099	-144.048	-8191	255	
1127.367	1	1	0	0	0.076126	0.10109	0.17748	0.079156	0.1697	0.18938	0.22044	0.41813	0.17266	0.27888	0.22587	0.34968	0.12229	0.37223	0.033214	0.037349	-1.825	-1.4104	-1.4438	-2.4771	-1.3937	-1.9354	-2.3958	-1.3937	-2.1229	-1.7667	-1.5896	-2.3812	-1.4	-2.025	-2.1271	-1.4438	-117.303	-87.846	116.404	115.151	-121.848	-93.923	131.264	146.792	172.539	-53.874	184.297	167.539	-139.968	167.197	151.494	-74.147	0.00098483	0.00081622	0.00018783	1361.4	3.3921e-06	5.9003e-06	1367.2	372.53	8.206e-06	2.6605e-06	421.58	139.68	122.85	41.08	9.7411e-06	50.771	0.00046475	0.00043548	0.00012193	1383.3	4.7489e-06	4.8351e-06	1381.8	379.85	4.8029e-06	4.7037e-06	428.67	142.8	123.85	42.347	4.7831e-06	52.25	-34.981	-93.681	-123.905	-156.797	-27.642	-23.669	-157.030	-152.215	-4.209	38.679	-152.573	-148.115	-147.947	-143.191	-8.295	-143.988	-8191	255	
1127.438	1	1	0	0	0.14282	0.03172	0.11397	0.31753	0.19836	0.37491	0.14275	0.33284	0.16613	0.18034	0.22495	0.085124	0.32815	0.090388	0.11821	0.15699	-1.9062	-1.8146	-1.1562	-2.4708	-1.4958	-1.6812	-2.4583	-1.6562	-2.1125	-1.8854	-1.5021	-2.3958	-1.6667	-1.7667	-2.2604	-1.4479	-152.701	80.219	-8.261	130.032	94.418	-91.491	46.258	106.799	-9.033	36.497	172.808	-153.415	21.017	122.266	-30.508	121.217	0.00093804	0.00059344	0.00019076	1361.3	3.8671e-06	1.6432e-06	1359.1	372.88	6.7493e-06	9.1505e-06	421.15	140.37	122.24	41.202	6.045e-06	50.957	0.00046227	0.00043551	0.00012074	1383.1	4.7053e-06	4.7181e-06	1380.9	379.82	4.6906e-06	4.6549e-06	427.93	143.01	123.45	42.317	4.6949e-06	52.28	-36.353	-74.882	-89.559	-156.684	-98.074	3.740	-157.066	-152.046	-34.047	-6.410	-152.443	-148.017	-147.955	-142.799	-22.287	-143.965	-8191	255	
1127.535	1	1	0	0	0.12857	0.13041	0.066755	0.12511	0.40193	0.13324	0.28799	0.33912	0.13678	0.24341	0.047814	0.074656	0.14063	0.083613	0.096622	0.063617	-1.6875	-2.0167	-1.2521	-2.5146	-1.5646	-1.7188	-2.3688	-1.5729	-1.8167	-2.0812	-1.3625	-2.4083	-1.8646	-1.6333	-2.2938	-1.6354	-2.807	55.251	116.181	180.686	182.294	-89.048	106.444	130.594	77.633	15.112	-149.672	125.179	-54.228	-96.224	-84.986	-152.768	0.00091447	0.00024899	6.4923e-05	1362.7	3.1819e-06	7.0525e-06	1365.8	373.46	8.9135e-06	5.3154e-06	420.62	140.15	122.66	41.456	6.161e-06	50.689	0.00045309	0.00042513	0.00011973	1383.6	4.6597e-06	4.7199e-06	1380.9	380.17	4.6633e-06	4.6706e-06	428.84	143	123.89	42.433	4.6551e-06	52.268	-32.947	-50.387	-71.284	-156.477	-56.928	2.693	-156.837	-151.602	-46.272	-47.874	-152.402	-148.152	-147.822	-143.067	-14.754	-144.205	-8191	255	
1127.631	1	1	0	0	0.15169	0.067999	0.19322	0.15559	0.17737	0.059733	0.044007	0.037255	0.088325	0.089012	0.26162	0.09557	0.10345	0.1549	0.045835	0.13997	-1.6333	-2.0312	-1.3396	-2.325	-1.6479	-1.5562	-2.5396	-1.5604	-1.8813	-2.1521	-1.2646	-2.2333	-2.0125	-1.5479	-2.4479	-1.6729	-29.894	-47.832	65.082	173.317	-61.922	-136.046	183.991	37.444	-161.518	100.836	145.365	-89.593	-22.051	-124.608	-137.360	63.997	0.0009144	0.00053678	0.00010619	1361	4.3663e-06	3.8388e-06	1361.8	372.1	9.1411e-06	3.5878e-06	421.12	140.08	121.94	41.37	6.8451e-06	50.944	0.00044425	0.00042	0.00011812	1382.4	4.6255e-06	4.7137e-06	1380.5	379.7	4.7114e-06	4.5776e-06	428.52	142.77	123.68	42.352	4.625e-06	52.274	-34.713	-79.056	-44.279	-156.697	-40.028	-26.060	-157.043	-151.986	-28.150	2.268	-152.521	-148.280	-147.868	-143.234	-48.637	-143.915	-8191	255	
1127.751	1	1	0	0	0.17214	0.14589	0.11035	0.16922	0.17228	0.1128	0.22994	0.47357	0.15764	0.055807	0.37803	0.18534	0.047661	0.19585	0.22393	0.24999	-1.4125	-2.0438	-1.2437	-2.3521	-1.9292	-1.5625	-2.6354	-1.6604	-1.6208	-2.4042	-1.5083	-2.2812	-2.0396	-1.5063	-2.2021	-1.6979	-72.943	-135.219	160.836	114.155	104.185	-163.705	132.622	127.591	121.953	127.501	140.892	22.407	123.658	-114.612	135.970	147.146	0.0009636	0.00052155	0.00017139	1361.9	4.5946e-06	6.4311e-06	1363.9	374.01	8.0176e-06	5.781e-06	420.65	140.47	122.41	41.205	3.6358e-06	50.886	0.00045464	0.00042956	0.00011959	1381.9	4.6408e-06	4.718e-06	1380.5	379.68	4.6991e-06	4.6903e-06	428.42	142.83	123.31	42.347	4.6848e-06	52.208	-36.372	-102.635	-107.395	-156.558	17.168	-3.621	-156.943	-151.992	-11.457	-17.892	-152.756	-148.271	-147.862	-143.332	-11.356	-144.022	-8191	255	
1127.847	1	1	0	0	0.12911	0.038716	0.18909	0.20634	0.18179	0.2543	0.13453	0.19086	0.17588	0.12177	0.15106	0.18428	0.17863	0.26467	0.20544	0.23391	-0.99792	-2.3542	-1.3271	-2.0438	-2.0729	-1.1708	-2.375	-1.8479	-1.6396	-2.3625	-1.5229	-2.1229	-2.3812	-1.4479	-2.3021	-1.7979	-7.361	164.878	137.285	105.679	164.570	-163.353	91.199	140.353	-128.289	35.406	126.904	168.356	124.936	-87.045	-103.019	139.970	0.00084072	0.0005188	6.1907e-05	1363	8.2682e-06	3.1331e-06	1361	373	8.5783e-06	6.8268e-06	419.36	139.85	123.12	41.233	7.2172e-06	51.027	0.00045681	0.0004236	0.00011853	1381.9	4.5416e-06	4.7508e-06	1379.5	379.6	4.6821e-06	4.6305e-06	428.22	142.64	123.73	42.357	4.6958e-06	52.29	-33.423	-71.162	-124.557	-156.611	-20.995	30.390	-156.982	-152.177	-34.162	-68.077	-152.599	-148.420	-147.977	-143.332	-39.062	-144.377	-8191	255	
1127.944	1	1	0	0	0.084983	0.18264	0.23867	0.24648	0.18119	0.17269	0.16612	0.24676	0.20179	0.054916	0.045803	0.11653	0.15052	0.11185	0.23087	0.36394	-1.0479	-2.2083	-1.1729	-1.9542	-2.0792	-1.1688	-2.4125	-1.9583	-1.4625	-2.4833	-1.6	-1.7958	-2.3812	-1.5542	-2.0646	-2.0708	97.081	33.893	119.493	136.428	-155.998	-101.994	117.083	150.705	-33.420	-87.817	-80.735	175.364	114.552	-166.942	178.628	-156.078	0.00092717	0.00060371	9.1699e-05	1360.9	3.9885e-06	3.2011e-06	1355	371.88	1.0648e-05	3.8665e-06	422.18	140.31	122.57	41.185	5.2865e-06	50.639	0.00046069	0.00043017	0.00011861	1381.4	4.7304e-06	4.7354e-06	1377.8	379.23	4.7858e-06	4.6571e-06	429.34	142.79	123.74	42.318	4.5748e-06	52.107	-30.034	-111.611	-69.491	-156.572	-26.482	-18.867	-156.925	-152.127	-41.706	-16.750	-152.569	-148.490	-148.127	-143.220	-31.226	-143.895	-8191	255	
1128.040	1	1	0	0	0.33473	0.17063	0.26168	0.20893	0.16766	0.017983	0.35311	0.18275	0.18138	0.030725	0.23186	0.35523	0.099459	0.10636	0.22899	0.040656	-0.96458	-2.3042	-1.5208	-1.9271	-2.3125	-1.3729	-2.5458	-2.1583	-1.3646	-2.4062	-1.7479	-1.7188	-2.4896	-1.6479	-1.9479	-2.2729	154.319	-128.070	-169.518	-145.324	71.532	91.601	150.718	90.494	-58.510	-80.107	22.655	-122.702	-32.872	181.123	138.868	103.667	0.00089012	0.00064709	9.2661e-05	1354.7	3.9419e-06	3.1278e-06	1364	374.11	6.3833e-06	1.9011e-06	420.48	139.64	121.98	41.023	9.2398e-06	50.759	0.00045842	0.00042736	0.00011983	1380.4	4.7156e-06	4.6334e-06	1380.4	379.93	4.7792e-06	4.6875e-06	428.51	142.88	123.5	42.327	4.7071e-06	52.142	-32.372	-52.845	-165.075	-156.568	-8.225	12.161	-156.933	-152.183	-86.006	13.458	-152.854	-148.446	-148.233	-143.376	-40.756	-144.192	-8191	255	
1128.136	1	1	0	0	0.13154	0.055493	0.14722	0.16634	0.10083	0.26811	0.098693	0.091311	0.21884	0.17036	0.19081	0.075231	0.18284	0.047492	0.14808	0.28221	-1.1292	-2.2208	-1.6479	-1.5979	-2.3708	-1.5229	-1.9042	-2.2583	-1.4542	-2.2562	-1.8188	-1.6458	-2.4437	-1.5333	-1.9167	-2.2958	167.602	-33.775	-78.192	-34.211	50.976	-162.448	174.202	42.502	103.606	-157.040	125.073	27.315	171.622	27.427	-153.510	166.435	0.00087534	0.00037975	0.00018663	1359.5	4.5266e-06	4.4509e-06	1361.5	373.12	5.8551e-06	1.1011e-05	420.13	140.7	122.25	41.172	8.7985e-07	50.545	0.00045739	0.00041928	0.00011948	1382.4	4.7925e-06	4.717e-06	1381.5	379.56	4.7633e-06	4.6471e-06	428.32	143.06	123.58	42.313	4.6344e-06	52.2	-33.881	-79.984	-70.265	-156.588	15.979	-68.538	-157.037	-152.146	-15.431	3.245	-152.450	-148.208	-148.094	-143.378	57.505	-144.055	-8191	255	
1128.232	1	1	0	0	0.053707	0.48143	0.11518	0.20499	0.14595	0.18808	0.18393	0.065381	0.15119	0.1114	0.18299	0.34297	0.15886	0.43119	0.29251	0.18415	-0.95625	-2	-1.6479	-1.5208	-2.2458	-1.4771	-2.1021	-2.5708	-1.1542	-2.1188	-2.0687	-1.3021	-2.3979	-1.5083	-1.7771	-2.3792	-70.731	124.552	13.443	132.271	173.661	21.926	20.134	76.413	153.334	-49.175	111.396	133.802	22.075	-168.318	142.076	86.800	0.00094682	0.00066269	6.2291e-05	1359.4	4.2564e-06	3.964e-06	1359.1	371.62	5.5546e-06	4.8772e-06	420.79	140.06	122.49	41.325	2.2783e-06	50.825	0.0004535	0.00042675	0.00011932	1380.8	4.7346e-06	4.7507e-06	1380.2	379.31	4.7876e-06	4.6724e-06	428.35	142.64	123.61	42.313	4.7086e-06	52.244	-34.613	-96.874	-89.075	-156.663	-1.528	1.656	-156.845	-151.941	-36.790	-12.417	-152.771	-148.324	-147.683	-143.128	98.114	-144.083	-8191	255	
1128.351	1	1	0	0	0.094665	0.076201	0.055907	0.4423	0.20089	0.15505	0.22664	0.031837	0.12437	0.14383	0.21989	0.21342	0.16271	0.059079	0.21627	0.15512	-0.9125	-2.1167	-2.0375	-1.4146	-2.1833	-1.4937	-1.8188	-2.4542	-1.3146	-2.0833	-2.0229	-1.5562	-2.3438	-1.6646	-1.5083	-2.3958	189.260	38.172	160.939	153.715	66.313	-117.896	89.374	11.617	174.029	143.938	150.970	142.930	145.675	58.978	78.132	-167.519	0.00087729	0.00036252	0.00028042	1359.7	8.3466e-06	4.2536e-06	1357.8	372.51	6.2484e-06	5.6131e-06	421.23	139.67	121.59	41.164	3.5998e-06	50.483	0.00045858	0.00042596	0.00011859	1380.1	4.6704e-06	4.6338e-06	1378.9	379.18	4.6834e-06	4.6884e-06	428.95	142.39	123.5	42.285	4.7499e-06	52.169	-33.628	-86.085	-115.578	-156.553	-21.677	34.861	-156.925	-152.189	-43.959	-41.250	-152.691	-148.144	-148.057	-142.982	-126.002	-144.222	-8191	255	
1128.447	1	1	0	0	0.26009	0.35074	0.19865	0.28773	0.15632	0.11129	0.20819	0.10314	0.074895	0.20474	0.21849	0.12472	0.10087	0.28786	0.20862	0.35173	-0.98958	-2.0333	-2.125	-1.4104	-2.1771	-1.8208	-1.7979	-2.425	-1.4354	-1.8458	-2.1354	-1.2333	-2.2479	-1.9333	-1.525	-2.4229	156.891	-20.296	-41.387	138.199	-37.281	-127.479	-139.588	119.543	18.842	65.402	104.929	142.711	-119.789	-147.493	-50.176	118.313	0.00085211	0.00059974	0.00011884	1363.3	7.3954e-06	5.8877e-06	1364.4	371.72	2.9981e-06	7.7324e-06	420.58	140.21	123.08	41.143	4.2656e-06	50.754	0.00045113	0.00042804	0.00011921	1380.7	4.6768e-06	4.6774e-06	1379.6	379.18	4.7176e-06	4.6325e-06	428.47	142.77	123.68	42.276	4.7134e-06	52.217	-37.053	-78.420	-80.586	-156.474	-0.308	-26.527	-156.704	-151.938	7.452	-36.170	-152.419	-148.285	-147.679	-142.982	-15.815	-144.304	-8191	255	
1128.543	1	1	0	0	0.07845	0.37774	0.078153	0.37609	0.15718	0.16337	0.1267	0.15371	0.192	0.15017	0.25143	0.090735	0.11071	0.26216	0.27286	0.35133	-1.1271	-1.9583	-1.9979	-1.4333	-2.1188	-1.9167	-1.6583	-2.5854	-1.6292	-1.7208	-2.4375	-1.4958	-2.2542	-2.1333	-1.5625	-2.525	154.616	-114.466	163.404	189.275	186.842	-34.785	33.669	160.826	93.542	179.710	159.148	-157.581	60.942	150.416	-34.882	85.122	0.00093373	0.00053748	9.5186e-05	1359.3	5.2233e-06	1.9631e-06	1361.2	371.22	1.0208e-05	9.3986e-06	421.31	139.69	123.75	41.216	4.378e-06	50.838	0.00045103	0.00042855	0.0001173	1379.5	4.6721e-06	4.736e-06	1378.8	378.88	4.6892e-06	4.6822e-06	428.3	142.55	124.01	42.338	4.6823e-06	52.215	-32.348	-52.563	-145.843	-156.595	-35.358	-3.426	-156.857	-151.986	-28.566	-5.506	-152.632	-148.450	-147.517	-143.023	-72.999	-143.698	-8191	255	
1128.639	1	1	0	0	0.14479	0.17678	0.10234	0.46075	0.058381	0.12284	0.40777	0.2056	0.11308	0.24753	0.31598	0.26597	0.15777	0.21445	0.26233	0.16703	-1.175	-1.7479	-2.4104	-1.3708	-2.0542	-2.1417	-1.5396	-2.3208	-1.7104	-1.4833	-2.4542	-1.5292	-2.0042	-2.1729	-1.2417	-2.2354	130.002	113.678	173.718	152.286	106.562	100.461	118.388	142.619	-98.745	-157.905	130.303	-145.820	-81.067	168.259	-149.211	-166.745	0.00088652	0.00039113	0.00016533	1357.5	3.8559e-06	7.9594e-06	1362.4	372.2	1.1014e-05	3.7152e-06	419.8	139.4	122.77	41.287	7.937e-06	50.524	0.00044629	0.00042117	0.00011857	1378.1	4.5929e-06	4.6386e-06	1378.1	379.37	4.7044e-06	4.6464e-06	427.78	142.27	123.83	42.236	4.6564e-06	52.056	-36.828	-86.863	-119.489	-156.230	-1.157	-32.468	-156.380	-151.648	-40.597	-8.698	-152.227	-147.895	-147.334	-143.170	13.666	-144.010	-8191	255	
1128.736	1	1	0	0	0.26091	0.12497	0.10121	0.26285	0.19393	0.095921	0.19679	0.13408	0.13475	0.15078	0.19113	0.19117	0.24777	0.32018	0.11854	0.26302	-1.3896	-1.5125	-2.3063	-1.5979	-1.8542	-2.125	-1.5729	-2.4521	-1.6458	-1.3042	-2.3563	-1.6208	-1.8167	-2.3771	-1.2917	-2.2438	105.735	26.810	-71.007	143.582	-147.438	176.526	166.860	-150.694	50.620	103.340	-151.383	-96.390	-146.488	20.207	-75.891	129.732	0.00091653	0.00058642	0.00012917	1356.3	7.2555e-06	4.6278e-06	1355.4	372	7.3225e-06	9.2227e-06	422.22	139.89	123.49	41.315	3.634e-06	50.566	0.00044638	0.0004265	0.00011536	1377.8	4.6372e-06	4.6034e-06	1376.1	379.42	4.6727e-06	4.6866e-06	428.31	142.58	123.76	42.333	4.6414e-06	52.084	-37.456	-84.498	-121.670	-156.632	-3.646	-22.895	-156.800	-151.873	-43.758	1.121	-152.339	-148.103	-147.622	-143.051	-9.105	-143.772	-8191	255	
1128.832	1	1	0	0	0.15749	0.085748	0.35947	0.12589	0.1839	0.012829	0.2219	0.096815	0.12928	0.33149	0.24541	0.3758	0.25138	0.3232	0.079406	0.22322	-1.4354	-1.3229	-2.4021	-1.65	-1.7042	-2.2042	-1.5438	-2.0875	-1.9708	-1.1625	-2.4458	-1.5583	-1.6646	-2.2167	-1.3875	-2.2333	10.018	126.331	77.737	182.892	45.175	117.771	159.871	88.669	157.099	159.159	158.460	161.860	-85.752	140.096	-134.855	-149.023	0.00097151	0.00032263	6.7333e-05	1355.8	6.872e-06	3.5698e-06	1355.1	372.67	5.2583e-06	1.8761e-06	421.27	140.03	122.54	41.239	3.8954e-06	51.013	0.00045201	0.00041989	0.00011844	1378.8	4.6819e-06	4.596e-06	1375.7	379.34	4.7256e-06	4.7167e-06	428	142.57	123.68	42.36	4.6064e-06	52.151	-32.730	-77.884	-80.537	-156.351	-12.262	-51.809	-156.502	-151.739	-52.372	-40.586	-152.240	-148.236	-147.852	-143.173	-38.119	-144.201	-8191	255	
1128.928	1	1	0	0	0.068832	0.072027	0.13462	0.17622	0.057298	0.038002	0.52924	0.22095	0.1251	0.45335	0.18	0.13031	0.16702	0.33985	0.093239	0.11611	-1.5375	-1.3687	-2.1188	-1.8229	-1.5375	-2.3229	-1.8062	-1.9417	-2.1188	-1.2792	-2.4667	-1.8771	-1.575	-2.5083	-1.4604	-1.9917	-27.875	76.514	188.891	-167.515	160.460	-109.859	95.117	88.572	-168.396	-85.836	161.352	-35.877	-147.715	36.938	131.028	169.700	0.00096497	0.00068731	0.00017816	1353.1	7.4984e-06	3.1563e-06	1357.5	372.79	3.4639e-06	4.3141e-06	419.56	139.49	121.8	40.95	1.0002e-05	50.567	0.00045289	0.00042544	0.00011651	1376.2	4.5842e-06	4.6235e-06	1377	379.22	4.6021e-06	4.5622e-06	427.8	142.55	123.44	42.203	4.67e-06	52.115	-34.601	-71.835	-36.868	-156.689	-41.362	-28.820	-156.721	-151.908	4.398	-19.551	-152.092	-148.038	-147.743	-142.915	-49.159	-143.725	-8191	255	
1129.049	1	1	0	0	0.20983	0.15091	0.087421	0.30972	0.13365	0.22104	0.62712	0.082883	0.067811	0.082677	0.1486	0.21046	0.16605	0.13122	0.17257	0.17811	-1.9937	-1.1167	-1.975	-1.9021	-1.4875	-2.3833	-1.6292	-1.7479	-1.9958	-1.2563	-2.2083	-2.0187	-1.1667	-2.4688	-1.4917	-1.9312	169.913	-94.831	119.176	129.633	-101.158	-40.217	130.526	138.325	-60.699	178.928	159.646	148.121	-69.784	-129.030	-160.007	75.452	0.00088171	0.00059316	0.00019313	1356.5	4.007e-06	5.6037e-06	1356	372.35	9.0324e-06	4.5063e-06	417.17	138.95	123.52	41.19	6.5545e-06	50.625	0.00044472	0.00042254	0.00011692	1378.4	4.6728e-06	4.5778e-06	1374.8	379.26	4.6457e-06	4.6311e-06	427.03	142.3	123.91	42.255	4.6014e-06	52.131	-35.130	-73.763	-67.404	-156.725	-35.481	-10.572	-156.750	-152.004	-51.120	-22.583	-152.554	-148.550	-148.072	-143.542	17.036	-144.207	-8191	255	
1129.145	1	1	0	0	0.26182	0.11695	0.14329	0.27085	0.15218	0.25573	0.29712	0.074625	0.088575	0.20018	0.24702	0.24616	0.23163	0.11319	0.18206	0.14679	-1.8	-1.2896	-2.1063	-2.0979	-1.2729	-2.1604	-1.6896	-1.9333	-2.3146	-1.3417	-2.1104	-2.0792	-1.275	-2.1979	-1.6375	-1.7083	35.656	152.668	149.132	113.350	162.493	-15.457	112.214	-99.933	122.682	130.318	-158.891	93.584	-16.272	-2.282	-131.971	-73.789	0.00095091	0.00064498	0.00015427	1358.6	5.9924e-06	3.51e-06	1357.7	371.49	9.0821e-06	4.1324e-06	419.63	139.83	121.82	41.182	5.1693e-06	50.652	0.00044891	0.00041797	0.00011661	1378.1	4.6432e-06	4.6274e-06	1374.7	379.13	4.6819e-06	4.602e-06	427.59	142.56	123.35	42.284	4.63e-06	52.06	-34.438	-55.474	-98.279	-156.972	-30.380	-1.718	-157.350	-152.286	-10.696	-7.261	-152.720	-148.705	-148.088	-143.532	-28.521	-144.305	-8191	255	
1129.239	1	1	0	0	0.055914	0.2407	0.21528	0.21251	0.46127	0.13048	0.19632	0.29566	0.1063	0.33193	0.31997	0.10853	0.1297	0.13939	0.10753	0.074692	-1.8854	-1.4562	-2.025	-2.1625	-1.2875	-2.1937	-1.825	-1.8813	-2.4708	-1.4542	-2.0771	-2.4104	-1.3167	-2.2958	-1.7625	-1.7208	-20.377	149.669	104.155	185.931	-129.130	-7.884	126.825	154.239	-111.381	-122.054	157.976	-157.831	-157.867	-124.455	-101.987	111.891	0.00091769	0.00052146	0.0001395	1353	4.9515e-06	6.7043e-06	1357.5	371.08	9.4635e-06	2.1053e-06	420.64	139.34	122.32	41.187	5.0627e-06	50.781	0.00045011	0.00041572	0.00011635	1375.4	4.6181e-06	4.6439e-06	1375.8	378.7	4.5929e-06	4.5638e-06	428.35	142.34	123.52	42.233	4.6833e-06	52.142	-31.025	-100.738	-86.345	-157.145	-27.699	-31.489	-157.210	-152.272	-56.513	63.759	-152.733	-148.484	-148.300	-143.278	-20.910	-144.463	-8191	255	
1129.312	1	1	0	0	0.35266	0.16792	0.093132	0.17315	0.10063	0.26051	0.3359	0.38142	0.073438	0.077309	0.21654	0.29937	0.22021	0.177	0.17355	0.15559	-2.1354	-1.4729	-1.7437	-2.4562	-1.45	-2.0833	-2.1146	-1.6917	-2.3146	-1.4937	-1.7042	-2.3854	-1.45	-2.3208	-2.0292	-1.4542	-6.306	35.299	-35.747	152.498	56.795	166.960	96.398	167.446	10.594	-43.076	-55.085	129.609	78.637	-6.428	-37.945	4.615	0.00076537	0.00040501	0.0001028	1357.6	8.9765e-07	6.5259e-06	1355.7	371.95	5.7935e-06	4.7205e-06	418.19	139.32	121.67	41	4.868e-06	50.815	0.00044976	0.00041906	0.00011798	1375.6	4.6776e-06	4.5869e-06	1374.5	378.82	4.6484e-06	4.5444e-06	427.21	142.32	123.22	42.177	4.5839e-06	52.139	-33.380	-27.308	-22.571	-157.031	-101.077	1.303	-157.091	-152.251	-13.698	-52.899	-152.790	-148.789	-147.935	-143.130	-21.020	-144.418	-8191	255	
1129.431	1	1	0	0	0.024427	0.21737	0.14919	0.24935	0.1308	0.13867	0.28825	0.13898	0.24725	0.086108	0.1734	0.16285	0.17368	0.18718	0.25033	0.27316	-1.9146	-1.5312	-1.7208	-2.4521	-1.2229	-2.0271	-2.3583	-1.4	-2.1312	-1.6417	-1.6417	-2.4167	-1.4937	-2.1208	-2.1333	-1.2938	-92.954	145.952	-55.008	-153.502	45.621	139.592	107.627	121.911	-93.766	167.695	119.232	82.258	-132.653	57.424	-133.710	-9.609	0.00085963	0.00018735	0.0001885	1353.4	6.272e-06	5.1183e-06	1351.6	372.08	5.9089e-06	3.8684e-06	419.06	139.9	121.9	41.242	5.0298e-06	50.951	0.00045002	0.00042162	0.00011613	1376.4	4.6265e-06	4.6115e-06	1373.4	378.66	4.5856e-06	4.6012e-06	427.25	142.24	123.38	42.22	4.4922e-06	52.205	-33.460	-20.301	-77.506	-156.956	8.712	-14.389	-157.286	-152.350	-78.685	18.343	-152.701	-148.608	-147.997	-143.371	-4.560	-144.297	-8191	255	
1129.528	1	1	0	0	0.04411	0.15277	0.066838	0.11692	0.18951	0.097282	0.26106	0.19577	0.23377	0.33602	0.039641	0.11071	0.1631	0.38281	0.18342	0.085154	-1.925	-1.7625	-1.3521	-2.4875	-1.3208	-1.8896	-2.2479	-1.5458	-2.0875	-1.6771	-1.4896	-2.4562	-1.6292	-2.0938	-2.1396	-1.3354	-17.610	25.553	139.872	151.439	-100.356	74.428	133.337	94.799	1.661	64.863	-164.679	127.663	147.162	178.420	161.232	-140.886	0.00095639	0.00057949	6.5783e-05	1353.2	6.0072e-06	6.1028e-06	1350.3	372.58	7.4919e-06	8.338e-06	419.8	140.26	121.7	41.206	6.6671e-06	50.624	0.00043712	0.0004167	0.00011783	1375.9	4.5545e-06	4.6145e-06	1373.5	378.68	4.5662e-06	4.5829e-06	427.38	142.35	123.31	42.225	4.6399e-06	51.992	-31.138	-47.147	-103.128	-156.929	-37.513	-42.448	-157.013	-152.297	-11.151	23.448	-152.614	-148.386	-147.970	-143.170	-39.084	-144.153	-8191	255	
1129.624	1	1	0	0	0.17195	0.23865	0.16565	0.38666	0.1623	0.15328	0.29906	0.041185	0.11844	0.43529	0.31774	0.18296	0.24099	0.088161	0.15581	0.19506	-1.6938	-1.8042	-1.3979	-2.5187	-1.6292	-1.7437	-2.4167	-1.5104	-2.2646	-1.9229	-1.4833	-2.25	-1.7188	-1.6292	-2.2979	-1.4042	-44.174	58.205	-35.723	166.748	94.678	68.778	154.968	73.886	-158.011	-44.790	172.131	175.307	-0.998	62.526	-40.825	71.855	0.00094071	0.00044937	0.00017546	1356.1	7.8798e-06	6.672e-06	1348	371.61	4.3651e-06	1.0393e-05	420.38	139.88	122.31	41.107	8.1381e-06	50.835	0.00044096	0.00041684	0.00011561	1375.5	4.4651e-06	4.6295e-06	1370.2	378.21	4.5449e-06	4.5835e-06	427.76	142.51	123.21	42.238	4.5692e-06	52.134	-34.401	-90.354	-112.322	-156.549	-11.140	-23.128	-157.215	-152.219	-66.615	-26.587	-152.701	-148.580	-148.155	-143.129	-21.385	-144.031	-8191	255	
1129.720	1	1	0	0	0.065873	0.25893	0.18912	0.26817	0.29052	0.17152	0.26754	0.39962	0.10558	0.047522	0.2344	0.074894	0.1055	0.21431	0.080648	0.20351	-1.6313	-2.0604	-1.3292	-2.4542	-1.5562	-1.5875	-2.5396	-1.6458	-1.8479	-2.2208	-1.4688	-2.4	-1.6104	-1.5792	-2.2854	-1.6562	-79.728	152.111	144.244	146.905	143.514	146.844	98.256	154.883	8.328	108.463	-167.083	-17.485	62.718	57.958	-129.039	123.142	0.00092517	0.00063635	0.00022597	1352.7	2.2433e-06	2.6478e-06	1357.4	370.34	7.989e-06	3.4527e-06	417.47	139.75	122.08	41.147	6.9577e-06	50.637	0.00044455	0.00041991	0.00011759	1374.9	4.6277e-06	4.6251e-06	1375.5	378.25	4.6263e-06	4.5811e-06	426.33	142.28	123	42.199	4.549e-06	52.077	-36.735	-101.204	-68.991	-156.826	38.539	-0.605	-157.093	-152.239	-78.361	22.769	-152.637	-148.283	-147.978	-143.069	-21.503	-144.090	-8191	255	
1129.840	1	1	0	0	0.12844	0.10241	0.17328	0.4032	0.24547	0.28904	0.15486	0.25694	0.19616	0.090841	0.16612	0.23683	0.4186	0.2111	0.096979	0.21424	-1.3417	-2.0583	-1.3646	-2.4646	-1.9146	-1.3687	-2.4792	-1.5896	-1.8375	-1.9958	-1.6063	-2.2708	-1.8979	-1.5104	-2.4125	-1.6646	114.915	-102.564	70.289	-165.489	149.048	49.798	126.355	144.625	118.810	106.462	78.460	117.595	88.556	120.334	-135.909	158.372	0.0009051	0.00060556	9.5036e-05	1352.1	5.8897e-06	3.8967e-06	1352	370.31	9.629e-06	7.5508e-06	421.25	139.86	122.44	41.216	8.6389e-06	50.691	0.00043579	0.00041064	0.00011368	1373.6	4.5385e-06	4.573e-06	1371.1	378.1	4.5709e-06	4.4946e-06	426.98	142.24	123.18	42.299	4.4793e-06	52.105	-30.112	-87.716	-93.575	-156.575	-8.489	-64.555	-156.804	-151.834	-57.240	-46.535	-152.535	-148.225	-148.306	-142.937	-14.633	-144.089	-8191	255	
1129.937	1	1	0	0	0.14737	0.039131	0.15229	0.27045	0.13332	0.11556	0.38695	0.041344	0.070366	0.016415	0.15897	0.03187	0.13148	0.12547	0.15534	0.052944	-1.2396	-2.4292	-1.2958	-2.3271	-1.9479	-1.5271	-2.4833	-1.7542	-1.6292	-2.3021	-1.5063	-2.1188	-2.0208	-1.4375	-2.1937	-1.9417	150.747	176.522	-117.290	165.632	-79.200	123.919	148.280	-164.690	-31.316	186.314	123.226	-91.773	-111.625	3.680	93.708	-48.140	0.00081533	0.00044357	0.00019747	1351.5	7.8438e-06	4.9374e-06	1357.8	371.4	7.2451e-06	3.8497e-06	419.49	139.54	122.27	41.179	5.3017e-06	50.35	0.00044423	0.00041347	0.00011557	1372	4.4654e-06	4.6028e-06	1374.1	378.37	4.6184e-06	4.4786e-06	426.48	142.31	122.83	42.207	4.4788e-06	51.903	-28.731	-54.022	-79.728	-156.345	-10.803	-10.641	-156.595	-151.948	-29.861	6.893	-152.459	-148.217	-147.889	-142.855	-31.687	-143.958	-8191	255	
1130.033	1	1	0	0	0.29028	0.30658	0.17215	0.32581	0.31429	0.22319	0.22188	0.074413	0.14334	0.21969	0.085296	0.28472	0.099175	0.13652	0.24484	0.21955	-1.4146	-2.3417	-1.3438	-2.1958	-2.1375	-1.2604	-2.4938	-1.8438	-1.4708	-2.4604	-1.5917	-2	-2.2521	-1.4042	-2.0958	-1.9312	185.918	101.345	-142.378	-164.660	121.963	27.510	73.743	25.815	125.275	47.443	57.387	159.614	-94.008	124.691	104.724	159.850	0.00090831	0.0004317	0.00024645	1352.6	6.0717e-06	1.9609e-06	1350.1	370.78	9.8819e-06	6.2349e-06	417.7	140.04	121.94	41.127	5.7569e-06	50.475	0.00043895	0.00041379	0.00011263	1375	4.5125e-06	4.5365e-06	1370	377.73	4.6296e-06	4.3814e-06	425.45	142.37	123.07	42.146	4.5034e-06	51.977	-32.322	-78.811	-61.737	-156.645	-45.836	10.316	-156.945	-152.179	-35.092	-20.742	-152.485	-148.309	-148.053	-143.151	44.438	-144.127	-8191	255	
1130.129	1	1	0	0	0.20515	0.17234	0.11883	0.24337	0.16792	0.13131	0.077166	0.21428	0.085509	0.10944	0.11796	0.19491	0.2199	0.20641	0.25628	0.16639	-1.1729	-2.4625	-1.6146	-1.9312	-2.2396	-1.3	-2.3021	-1.9875	-1.3083	-2.4146	-1.6229	-1.7062	-2.2812	-1.3188	-1.9792	-2.1271	-145.562	92.237	175.412	-160.542	-115.228	128.196	-147.522	175.706	141.706	-161.017	-143.834	135.408	14.918	108.006	-29.196	156.174	0.00089456	0.00080847	0.00010912	1349.5	6.5655e-06	4.357e-06	1351.6	370.17	7.9772e-06	6.5134e-06	417.84	139.24	121.51	41.096	6.2037e-06	50.792	0.00044736	0.00040717	0.00011473	1372.9	4.5424e-06	4.5044e-06	1371.5	377.94	4.5577e-06	4.4733e-06	426.24	142.43	123.22	42.255	4.5238e-06	52.074	-37.548	-60.461	-81.512	-155.924	-46.024	-3.475	-157.035	-152.276	-45.949	-23.766	-152.937	-148.402	-147.773	-143.535	-50.376	-144.250	-8191	255	
#DATA ENDS
