BOXY.EXE: ISS Imagent and Oximeter Data Acquisition Program Version 0.80
Ascii Record File

#ACQ INFORMATION
2  Detector Channels 
16  External MUX Channels 
1  Auxiliary Channels 
5000  Waveform (CCF) Frequency (Hz)
1  Waveforms Skipped 
30  Waveforms Averaged 
1  Cycles Averaged 
16  Acquisitions per Waveform 
10.0806  Updata Rate (Hz) 

#FILE INFORMATION
TRUE -- External MUX Channel results are PARSED.
FALSE -- AC DC and Phase are NOT grouped.
TRUE -- Companion Program Settings File CREATED.
FALSE -- AC data not excluded
FALSE -- DC data not excluded
FALSE -- Phase data not excluded
FALSE -- Auxillary Chn. data not excluded
Tab delimiters

#CALIBRATION STATE
TRUE -- Waveform Calibration Values APPLIED.


#AUX CALIBRATION VALUES
Val Type	aux-1	

Term	1.0000e+00	
Factor	0.0000e+00	


#WF CALIBRATION VALUES
A = Detector Channel
Val Type	A-AC1	A-AC2	A-AC3	A-AC4	A-AC5	A-AC6	A-AC7	A-AC8	A-AC9	A-AC10	A-AC11	A-AC12	A-AC13	A-AC14	A-AC15	A-AC16	A-DC1	A-DC2	A-DC3	A-DC4	A-DC5	A-DC6	A-DC7	A-DC8	A-DC9	A-DC10	A-DC11	A-DC12	A-DC13	A-DC14	A-DC15	A-DC16	A-Ph1	A-Ph2	A-Ph3	A-Ph4	A-Ph5	A-Ph6	A-Ph7	A-Ph8	A-Ph9	A-Ph10	A-Ph11	A-Ph12	A-Ph13	A-Ph14	A-Ph15	A-Ph16	

Term	0.00000e+00	0.00000e+00	0.00000e+00	0.00000e+00	0.00000e+00	0.00000e+00	0.00000e+00	0.00000e+00	0.00000e+00	0.00000e+00	0.00000e+00	0.00000e+00	0.00000e+00	0.00000e+00	0.00000e+00	0.00000e+00	0.00000e+00	0.00000e+00	0.00000e+00	0.00000e+00	0.00000e+00	0.00000e+00	0.00000e+00	0.00000e+00	0.00000e+00	0.00000e+00	0.00000e+00	0.00000e+00	0.00000e+00	0.00000e+00	0.00000e+00	0.00000e+00	0.00000e+00	0.00000e+00	0.00000e+00	0.00000e+00	0.00000e+00	0.00000e+00	0.00000e+00	0.00000e+00	0.00000e+00	0.00000e+00	0.00000e+00	0.00000e+00	0.00000e+00	0.00000e+00	0.00000e+00	0.00000e+00	
Factor	1.00000e+00	1.00000e+00	1.00000e+00	1.00000e+00	1.00000e+00	1.00000e+00	1.00000e+00	1.00000e+00	1.00000e+00	1.00000e+00	1.00000e+00	1.00000e+00	1.00000e+00	1.00000e+00	1.00000e+00	1.00000e+00	1.00000e+00	1.00000e+00	1.00000e+00	1.00000e+00	1.00000e+00	1.00000e+00	1.00000e+00	1.00000e+00	1.00000e+00	1.00000e+00	1.00000e+00	1.00000e+00	1.00000e+00	1.00000e+00	1.00000e+00	1.00000e+00	X	X	X	X	X	X	X	X	X	X	X	X	X	X	X	X	

B = Detector Channel
Val Type	B-AC1	B-AC2	B-AC3	B-AC4	B-AC5	B-AC6	B-AC7	B-AC8	B-AC9	B-AC10	B-AC11	B-AC12	B-AC13	B-AC14	B-AC15	B-AC16	B-DC1	B-DC2	B-DC3	B-DC4	B-DC5	B-DC6	B-DC7	B-DC8	B-DC9	B-DC10	B-DC11	B-DC12	B-DC13	B-DC14	B-DC15	B-DC16	B-Ph1	B-Ph2	B-Ph3	B-Ph4	B-Ph5	B-Ph6	B-Ph7	B-Ph8	B-Ph9	B-Ph10	B-Ph11	B-Ph12	B-Ph13	B-Ph14	B-Ph15	B-Ph16	

Term	0.00000e+00	0.00000e+00	0.00000e+00	0.00000e+00	0.00000e+00	0.00000e+00	0.00000e+00	0.00000e+00	0.00000e+00	0.00000e+00	0.00000e+00	0.00000e+00	0.00000e+00	0.00000e+00	0.00000e+00	0.00000e+00	0.00000e+00	0.00000e+00	0.00000e+00	0.00000e+00	0.00000e+00	0.00000e+00	0.00000e+00	0.00000e+00	0.00000e+00	0.00000e+00	0.00000e+00	0.00000e+00	0.00000e+00	0.00000e+00	0.00000e+00	0.00000e+00	-1.17792e+02	-1.43843e+02	-1.22546e+02	-1.82203e+02	-6.11667e+01	-7.34980e+01	-1.58195e+02	-1.62015e+02	-5.91422e+01	-6.39027e+01	-1.73093e+02	-1.71855e+02	-1.81390e+02	-1.76301e+02	-7.35693e+01	-1.49454e+02	
Factor	1.69170e-05	1.23924e-04	3.36262e-05	1.80272e-01	1.08088e-06	1.50264e-06	1.68832e-01	4.61094e-02	9.30486e-07	1.40809e-06	1.02341e-01	2.97290e-02	2.73267e-02	8.85118e-03	1.28260e-06	1.26478e-02	2.60707e-06	2.90429e-06	8.06884e-07	9.53293e-02	3.13924e-08	3.17865e-08	8.41259e-02	2.45373e-02	3.13704e-08	3.17759e-08	5.20466e-02	1.52571e-02	1.46120e-02	4.71344e-03	3.16051e-08	6.50126e-03	X	X	X	X	X	X	X	X	X	X	X	X	X	X	X	X	



#DISTANCE SETTINGS
A = Detector Channel
A-1	A-2	A-3	A-4	A-5	A-6	A-7	A-8	A-9	A-10	A-11	A-12	A-13	A-14	A-15	A-16	

2.5000e+00	3.0000e+00	2.5000e+00	3.0000e+00	2.0000e+00	3.0000e+00	1.5000e+00	3.0000e+00	3.0000e+00	3.0000e+00	3.0000e+00	3.0000e+00	3.0000e+00	3.0000e+00	1.5000e+00	3.0000e+00	

B = Detector Channel
B-1	B-2	B-3	B-4	B-5	B-6	B-7	B-8	B-9	B-10	B-11	B-12	B-13	B-14	B-15	B-16	

1.0000e+01	1.0000e+01	1.0000e+01	1.4400e+00	1.0000e+01	1.0000e+01	1.5100e+00	1.9400e+00	1.0000e+01	1.0000e+01	1.9900e+00	2.4900e+00	2.4100e+00	2.9000e+00	1.0000e+01	2.9800e+00	




#DATA BEGINS
time	group	step	mark	flag	A-AC1	A-AC2	A-AC3	A-AC4	A-AC5	A-AC6	A-AC7	A-AC8	A-AC9	A-AC10	A-AC11	A-AC12	A-AC13	A-AC14	A-AC15	A-AC16	A-DC1	A-DC2	A-DC3	A-DC4	A-DC5	A-DC6	A-DC7	A-DC8	A-DC9	A-DC10	A-DC11	A-DC12	A-DC13	A-DC14	A-DC15	A-DC16	A-Ph1	A-Ph2	A-Ph3	A-Ph4	A-Ph5	A-Ph6	A-Ph7	A-Ph8	A-Ph9	A-Ph10	A-Ph11	A-Ph12	A-Ph13	A-Ph14	A-Ph15	A-Ph16	B-AC1	B-AC2	B-AC3	B-AC4	B-AC5	B-AC6	B-AC7	B-AC8	B-AC9	B-AC10	B-AC11	B-AC12	B-AC13	B-AC14	B-AC15	B-AC16	B-DC1	B-DC2	B-DC3	B-DC4	B-DC5	B-DC6	B-DC7	B-DC8	B-DC9	B-DC10	B-DC11	B-DC12	B-DC13	B-DC14	B-DC15	B-DC16	B-Ph1	B-Ph2	B-Ph3	B-Ph4	B-Ph5	B-Ph6	B-Ph7	B-Ph8	B-Ph9	B-Ph10	B-Ph11	B-Ph12	B-Ph13	B-Ph14	B-Ph15	B-Ph16	aux-1	digaux	

28644.326	1	1	0	256	0.2608	0.058571	0.13709	0.043548	0.29798	0.16019	0.23714	0.27846	0.055518	0.030342	0.54351	0.49254	0.25555	0.28334	0.12282	0.38997	-1.1375	-2.2208	-1.3375	-1.9771	-2.1229	-1.2958	-2.3417	-1.7979	-1.6917	-2.2729	-1.7229	-2.2188	-2.3708	-1.6479	-2.05	-2.2188	198.520	41.306	197.767	-114.579	174.855	109.411	108.730	139.370	168.366	-10.639	167.773	178.932	134.491	112.724	88.961	125.451	0.00059267	0.0011467	0.00044592	1028.5	2.1533e-05	2.835e-05	1521.1	328.54	1.1188e-05	3.065e-05	629.7	268.09	135.32	59.675	1.8474e-05	125.76	0.0045483	0.0049715	0.001378	1010	5.3544e-05	5.3311e-05	1402.4	314.74	5.2417e-05	5.2567e-05	607.21	249.93	137.3	57.433	5.1791e-05	115.66	-142.060	-98.832	-82.865	-134.929	-33.068	-14.578	-135.287	-129.730	208.484	18.828	-130.101	-126.194	-125.859	-120.370	-113.556	-122.549	-8191	255	
28644.422	1	1	0	0	0.10549	0.38142	0.087711	0.22269	0.16207	0.25936	0.19229	0.10086	0.1663	0.26074	0.3253	0.26268	0.19972	0.12305	0.26027	0.15242	-1.1146	-2.0458	-1.5042	-1.7437	-2.0896	-1.4188	-2.4813	-2.1396	-1.3292	-2.1583	-1.6688	-1.7896	-2.1667	-1.4583	-1.9708	-2.1167	-3.901	185.203	159.062	179.448	146.678	-56.259	195.650	202.462	-131.180	37.137	203.865	164.008	138.512	-96.318	210.691	130.837	0.00065336	5.4505e-05	0.00043404	1029.8	1.1822e-05	3.3617e-05	1518.7	330.63	1.7714e-05	1.3281e-05	635.32	269.64	136.12	59.407	1.5451e-05	125.03	0.0043746	0.0047272	0.0013287	1004.3	5.1284e-05	5.1079e-05	1399.9	314.94	5.0428e-05	5.0314e-05	605.59	249.9	136.32	57.203	5.1098e-05	115.43	-145.567	145.491	12.969	-134.318	-52.390	45.423	-134.793	-129.749	11.817	-15.879	-130.141	-126.428	-125.944	-120.277	-40.570	-122.305	-8191	255	
28644.520	1	1	0	0	0.25548	0.15095	0.028461	0.1668	0.1497	0.18879	0.35395	0.30057	0.17031	0.16823	0.16925	0.23385	0.22478	0.094803	0.12683	0.35156	-0.9375	-2.1229	-1.6917	-1.5042	-2.25	-1.2875	-2.1896	-2.3063	-1.2708	-2.0604	-1.8188	-1.7583	-2.3458	-1.6313	-1.8667	-2.4396	-1.467	184.561	9.269	187.347	-140.764	46.159	158.750	194.372	-10.303	117.727	197.013	182.087	-130.992	115.655	203.383	166.392	0.00054888	0.0021584	0.00023976	1035.7	2.1264e-05	3.1008e-05	1520.6	331.02	1.2675e-05	2.3958e-05	634.68	270.72	136.27	59.507	2.2003e-05	125.65	0.0043727	0.0047256	0.0013607	1009.7	5.2737e-05	5.3635e-05	1408.8	317.7	5.34e-05	5.3419e-05	612.84	252.17	138.38	57.704	5.4361e-05	116.52	-126.949	-88.250	39.472	-135.295	54.745	99.894	-134.943	-129.576	-76.179	-125.025	-130.484	-126.269	-125.747	-120.193	-3.159	-122.144	-8191	255	
28644.615	1	1	0	0	0.076287	0.18942	0.1259	0.15173	0.25762	0.18768	0.19503	0.15502	0.11124	0.088205	0.32393	0.37791	0.34446	0.18693	0.12958	0.52508	-0.89375	-2.2375	-1.9458	-1.4688	-2.1229	-1.3312	-1.8917	-2.3312	-1.4167	-2.0187	-1.8937	-1.6604	-2.1979	-1.8271	-1.5833	-2.15	138.406	34.306	-146.976	156.118	-32.662	143.767	-117.823	64.233	65.208	134.120	-139.132	128.010	191.922	201.385	103.093	150.864	0.00072347	0.00069658	0.0007503	1023.7	4.4698e-06	2.043e-05	1529.8	331.82	9.8581e-06	3.7044e-05	644.62	273.2	136.56	60.195	1.8783e-05	128.85	0.0046305	0.0050322	0.0014325	1021.3	5.5371e-05	5.6229e-05	1423.2	320.4	5.4405e-05	5.4451e-05	618.59	254.74	138.66	58.24	5.4119e-05	117.58	-143.621	-65.189	-33.078	-134.449	-10.458	-101.944	-135.103	-129.554	42.208	-20.998	-130.160	-126.146	-125.713	-120.687	101.086	-122.339	-8191	255	
28644.711	1	1	0	0	0.18659	0.16664	0.035075	0.28455	0.070771	0.22739	0.24055	0.27077	0.14067	0.11356	0.32216	0.050675	0.33652	0.21488	0.025625	0.12909	-1.0896	-1.9396	-2.0104	-1.8021	-2.1167	-1.8188	-1.85	-2.4521	-1.3333	-2.1958	-2.1958	-1.575	-2.1813	-1.85	-1.6729	-2.4208	-49.636	-56.321	147.164	121.305	157.240	120.659	159.346	138.291	41.129	-135.240	102.722	-74.915	184.062	98.756	-68.403	166.628	0.0010316	0.0014088	6.9032e-05	1033.1	2.5803e-05	2.207e-05	1539.2	334.3	6.7429e-07	2.8044e-05	644.28	274.63	138.16	60.713	9.8452e-06	126.64	0.0044377	0.0048137	0.0013664	1018.9	5.1378e-05	5.2804e-05	1419.3	319.5	5.0653e-05	5.06e-05	614.12	253.5	137.9	58.091	5.0788e-05	116.33	209.367	193.273	100.437	-135.260	-109.129	-35.866	-134.815	-129.585	31.141	-29.585	-130.447	-126.183	-125.716	-120.544	-43.430	-122.532	-8191	255	
28644.807	1	1	0	0	0.022627	0.11776	0.18742	0.028213	0.19017	0.15544	0.38722	0.10034	0.20493	0.19442	0.23782	0.34279	0.44187	0.1519	0.076668	0.27606	-1.1375	-1.95	-1.9188	-1.5021	-2.1937	-1.7333	-1.5979	-2.3333	-1.5396	-1.8813	-2.2	-1.4604	-2.2438	-2.0417	-1.4271	-2.2625	173.911	182.454	122.085	-8.881	-64.788	-137.927	150.585	114.465	94.713	-3.839	-106.792	158.211	-140.563	164.597	182.829	181.515	0.00087489	0.0023657	0.0011104	1031.8	2.5205e-06	2.2689e-05	1530.8	332.8	2.4502e-05	2.1613e-05	640.93	272.56	137.33	59.704	1.7162e-05	126.53	0.0042737	0.0046041	0.0013098	1009	5.0172e-05	5.1846e-05	1411.6	316.77	5.0497e-05	5.1441e-05	613.03	252.85	137.56	57.828	5.2701e-05	116.19	-139.300	-60.435	-71.603	-134.749	154.297	-49.389	-135.039	-129.715	32.953	-39.935	-130.005	-126.423	-125.998	-120.515	78.657	-122.258	-8191	255	
28644.926	1	1	0	0	0.06432	0.17703	0.20718	0.19147	0.018739	0.16171	0.21795	0.089393	0.093721	0.17921	0.38186	0.28554	0.19134	0.3262	0.11526	0.24433	-1.0542	-1.8354	-1.9146	-1.4583	-2.0833	-1.9771	-1.6604	-2.4521	-1.4771	-1.6646	-2.2062	-1.7375	-1.9688	-1.9375	-1.2958	-2.2708	43.396	171.099	-112.334	103.871	1.085	95.061	137.586	103.003	-20.918	24.667	-140.848	-123.078	109.595	203.614	-97.857	102.621	0.00075457	0.0026675	0.00032648	1026.1	1.9866e-05	4.1045e-05	1524.1	331.56	9.5377e-06	3.787e-05	639.19	270.78	134.93	60.055	3.4457e-05	125.68	0.004457	0.004874	0.0013857	1013.2	5.2879e-05	5.5406e-05	1414.3	318.28	5.5412e-05	5.6025e-05	617.07	253.69	138.96	58.444	5.6798e-05	116.71	-136.526	-59.803	-97.340	-135.128	-61.633	6.071	-134.805	-129.199	-130.491	75.926	-130.029	-126.031	-125.367	-120.531	-40.367	-122.157	-8191	255	
28645.021	1	1	0	0	0.32087	0.22469	0.2367	0.1795	0.40275	0.11788	0.18461	0.17402	0.2305	0.17154	0.19904	0.32474	0.41329	0.28213	0.23506	0.39474	-1.225	-1.6938	-2.1813	-1.3792	-2.0042	-2.0292	-1.5542	-2.3937	-1.7479	-1.7167	-2.3604	-1.5688	-1.9375	-2.2854	-1.3896	-2.3292	-6.643	76.596	118.550	161.720	116.436	181.215	158.932	142.413	74.273	154.987	165.363	170.981	119.160	-124.663	89.714	142.147	0.00078462	0.0023267	0.00075061	1029.4	8.971e-06	1.6592e-05	1532.8	334.57	1.4084e-05	1.773e-05	647.44	274	138.63	60.255	1.7696e-05	127.79	0.0048291	0.005192	0.0014321	1022.9	5.526e-05	5.7518e-05	1424.5	321.39	5.5736e-05	5.555e-05	622.01	255.87	140.21	58.575	5.4172e-05	117.85	-137.956	-43.205	-8.991	-134.509	98.547	-81.192	-134.859	-129.939	61.889	2.032	-129.945	-126.478	-125.462	-120.695	56.540	-121.879	-8191	255	
28645.096	1	1	0	0	0.15776	0.098701	0.13251	0.1845	0.11391	0.10906	0.51466	0.030861	0.1637	0.29888	0.17853	0.3628	0.14939	0.31604	0.11004	0.17742	-1.4438	-1.4021	-2.2021	-1.6958	-1.8542	-2.1875	-1.5938	-2.3146	-1.7104	-1.5854	-2.1208	-1.9229	-1.9062	-2.3104	-1.3146	-2.1667	118.504	-117.198	211.034	156.559	43.498	-110.046	168.452	189.863	-0.077	-100.005	73.381	177.502	163.192	-127.481	194.064	151.460	0.00062585	0.0030248	0.00068035	1036.9	5.006e-06	1.1806e-05	1533.4	334.79	4.3521e-06	2.0951e-06	637.91	271.62	137.87	60.236	2.5924e-05	126.44	0.004635	0.0049277	0.0013607	1023.2	5.3269e-05	5.4818e-05	1420.5	320.14	5.4456e-05	5.5111e-05	618.55	254.42	139.59	58.498	5.4484e-05	117.15	196.495	-61.892	83.474	-134.631	17.640	86.425	-134.801	-129.499	28.478	83.859	-130.128	-126.393	-125.435	-120.711	-86.490	-121.936	-8191	255	
28645.215	1	1	0	0	0.13832	0.3605	0.078867	0.064886	0.11934	0.13213	0.3111	0.6276	0.2563	0.085631	0.069684	0.448	0.37115	0.15644	0.3533	0.18177	-1.625	-1.4104	-2.025	-1.675	-1.8062	-2.2146	-1.6229	-2.0729	-2.0375	-1.5958	-2.2292	-1.7875	-1.8062	-2.4292	-1.4708	-2.0021	-49.916	134.927	134.389	167.869	205.212	93.724	92.798	162.617	121.924	173.019	148.737	162.405	147.577	-145.874	-58.437	178.945	0.00084314	0.0014376	0.00055248	1028.7	1.3104e-05	1.3633e-05	1519.9	331.33	1.964e-05	3.3014e-05	630.28	269.89	136.64	59.658	1.8108e-05	126.14	0.0047082	0.0051027	0.0014133	1024.5	5.574e-05	5.687e-05	1416.8	320.08	5.7739e-05	5.7686e-05	616.08	253.27	139.89	58.497	5.8655e-05	117.04	-140.377	-68.254	26.037	-135.149	-128.949	-101.859	-134.772	-129.234	42.748	38.636	-130.244	-125.956	-125.502	-120.448	-122.830	-122.197	-8191	255	
28645.311	1	1	0	0	0.13659	0.12188	0.26597	0.26346	0.20454	0.28741	0.34495	0.16586	0.083268	0.1696	0.28481	0.29119	0.19922	0.19191	0.30806	0.3226	-1.8521	-1.3271	-2.1437	-1.8687	-1.4083	-2.2687	-1.6854	-1.9854	-2.3021	-1.4854	-2.2729	-2.1104	-1.7042	-2.3583	-1.5542	-2.0938	105.227	-27.422	11.009	-135.997	171.871	-61.870	179.601	191.491	1.014	-88.785	181.895	99.397	50.955	179.933	-60.261	148.484	0.00072058	0.00071833	0.00037338	1027	2.3303e-05	3.0528e-05	1511.9	330.39	1.1392e-05	1.8245e-05	632.39	268.41	135.51	59.674	7.8318e-06	126.8	0.0049966	0.0054475	0.0014943	1027.9	5.7839e-05	5.8628e-05	1414.4	318.65	5.8153e-05	5.7347e-05	616.07	253.27	138.9	58.118	5.6767e-05	117.15	-139.011	160.807	45.177	-135.158	-94.167	110.137	-134.777	-129.383	7.980	15.696	-130.100	-126.108	-125.498	-120.073	78.457	-122.376	-8191	255	
28645.406	1	1	0	0	0.375	0.1345	0.32417	0.29111	0.064603	0.056112	0.32373	0.26543	0.17098	0.050588	0.023747	0.3775	0.23391	0.23657	0.18001	0.4312	-1.8583	-1.3687	-2.0438	-2.0604	-1.4083	-2.1396	-1.6562	-1.8771	-2.2958	-1.2958	-2.2229	-2.1437	-1.5167	-2.3667	-1.6146	-1.8687	122.163	-130.763	190.476	168.274	-48.424	46.820	124.777	154.475	105.851	-40.052	17.070	-119.691	143.384	184.615	114.289	137.201	0.0006414	0.0010153	0.00030401	1030.8	1.1916e-05	3.0163e-05	1516	332.76	1.648e-05	2.2486e-05	637.15	271.91	137.54	60.222	1.6883e-05	126.97	0.0047266	0.0051491	0.0014298	1022.1	5.6109e-05	5.666e-05	1420.2	320.63	5.6339e-05	5.6872e-05	619.01	255.97	140.67	58.712	5.773e-05	118.19	199.840	201.881	74.921	-134.875	-16.979	46.403	-134.651	-129.260	51.499	-95.333	-130.270	-125.901	-125.425	-120.050	-91.053	-122.061	-8191	255	
28645.527	1	1	0	0	0.25721	0.080353	0.17323	0.036487	0.1132	0.092352	0.064569	0.14355	0.25934	0.12477	0.093435	0.17046	0.10384	0.23442	0.17305	0.22993	-1.7646	-1.5625	-1.9958	-2.3042	-1.3042	-2.2292	-2.0271	-1.7104	-2.1479	-1.5875	-2.2167	-2.2313	-1.6521	-2.2896	-1.8625	-1.8396	-106.604	128.813	-121.815	142.275	117.008	173.968	-105.191	96.298	149.319	17.599	200.070	204.515	-87.037	212.038	129.259	190.093	0.00089329	0.0014931	0.00053014	1031.4	2.0815e-05	2.4817e-05	1521.2	332.35	1.182e-05	1.9876e-05	640.5	272.6	137.69	60.35	1.9306e-05	126.63	0.0048195	0.0052647	0.0014482	1026.4	5.6876e-05	5.6958e-05	1426.8	322.15	5.6859e-05	5.8471e-05	621.14	255.97	140.38	58.668	5.7887e-05	117.63	189.356	-55.516	-108.525	-134.900	5.412	-22.421	-134.650	-129.093	124.919	-4.354	-129.731	-125.955	-125.478	-120.456	-53.184	-121.715	-8191	255	
28645.623	1	1	0	0	0.095251	0.13958	0.10476	0.03607	0.095574	0.38956	0.14227	0.13635	0.1044	0.12754	0.094288	0.26994	0.20417	0.14893	0.16003	0.23567	-1.9042	-1.3771	-1.8146	-2.2917	-1.4417	-2.1354	-2.1063	-1.7313	-2.35	-1.7062	-2.0375	-2.3958	-1.4792	-2.1729	-1.8542	-1.8542	23.189	-96.165	103.542	90.909	22.200	-81.924	141.303	61.397	5.881	38.746	186.856	155.608	-112.369	-117.998	121.988	144.170	0.00058592	0.0021359	0.00051399	1030.8	1.4098e-05	2.5543e-05	1511.3	331.43	8.266e-06	6.6029e-06	634.55	270.65	135.85	59.984	1.0731e-05	125.13	0.0048178	0.0053657	0.0014693	1024.9	5.7988e-05	5.7804e-05	1413.3	320.34	5.6913e-05	5.8416e-05	618.64	254.4	139.31	58.226	5.7443e-05	116.74	206.916	206.246	183.172	-134.596	-8.075	-9.673	-134.959	-129.669	112.604	122.685	-130.056	-126.042	-125.759	-120.067	170.281	-122.240	-8191	255	
28645.721	1	1	0	0	0.093149	0.093649	0.12369	0.33395	0.12743	0.15779	0.048465	0.27171	0.23985	0.012934	0.26527	0.17412	0.10833	0.27781	0.20778	0.38727	-1.9833	-1.7354	-1.3625	-2.2917	-1.3	-2.1771	-2.2375	-1.5333	-2.2146	-1.7479	-1.7979	-2.4229	-1.4958	-2.025	-1.9458	-1.6917	-131.969	-62.895	195.401	150.261	41.289	-143.133	26.863	146.783	-124.341	67.777	108.859	148.322	-128.058	-136.123	116.670	155.070	0.00063667	0.00064468	0.00014236	1022.6	2.0865e-05	2.4817e-06	1508.1	328.52	4.4009e-06	1.774e-05	633.94	271.32	135.26	59.578	1.5213e-05	125.57	0.0046501	0.0051724	0.0014304	1018.9	5.5495e-05	5.576e-05	1407.1	318.26	5.4296e-05	5.6786e-05	614.8	253.46	138.24	57.773	5.5927e-05	116.83	209.919	120.846	-130.551	-134.909	39.804	45.756	-135.106	-129.107	-71.171	86.488	-129.909	-126.055	-125.693	-120.433	-20.915	-121.954	-8191	255	
28645.816	1	1	0	0	0.097945	0.12879	0.042661	0.19382	0.18472	0.14007	0.27963	0.30672	0.3531	0.23121	0.18776	0.15966	0.14798	0.1497	0.17208	0.12443	-1.7396	-1.6729	-1.4646	-2.2521	-1.5208	-1.8708	-2.4375	-1.5312	-2.1125	-1.6938	-1.6375	-2.4313	-1.5729	-1.8542	-2.1437	-1.3604	77.456	-31.629	-91.670	156.534	148.207	155.312	132.523	-131.594	200.668	84.724	151.499	130.176	-147.520	203.652	26.007	121.349	0.0010469	0.0009331	0.0003803	1021.8	2.1618e-05	2.2493e-05	1531.5	332.89	9.7556e-06	1.6187e-05	637	274.1	137.26	60.555	2.7519e-05	127.01	0.0045884	0.0052253	0.0014319	1013.3	5.652e-05	5.6274e-05	1420.5	320.67	5.4968e-05	5.7609e-05	619.36	255.98	140.32	58.662	5.6216e-05	117.6	-147.206	-115.594	-62.222	-134.798	129.048	161.110	-134.912	-129.859	-44.997	-111.162	-130.043	-126.290	-125.567	-120.158	84.260	-122.148	-8191	255	
28645.910	1	1	0	0	0.029445	0.18335	0.1711	0.077553	0.15494	0.10464	0.12198	0.12825	0.20313	0.271	0.17351	0.12511	0.1132	0.1832	0.13692	0.19061	-1.7021	-1.8125	-1.3312	-2.2604	-1.4062	-1.5812	-2.4979	-1.5583	-2.2479	-1.7604	-1.4875	-2.3896	-1.6583	-1.6667	-2.0958	-1.4354	-131.769	102.423	-22.133	-50.614	-17.875	-41.023	143.151	133.871	-100.680	-124.300	186.420	210.698	130.554	207.913	-107.347	127.131	0.00078546	0.0032349	0.00069196	1028.2	5.6623e-06	3.8241e-06	1520.7	332.21	2.4464e-05	2.3465e-05	640.49	275.25	136.84	60.349	1.3343e-05	126.83	0.0047004	0.0052593	0.001436	1019.1	5.6705e-05	5.7132e-05	1422	321.37	5.6049e-05	5.8444e-05	621.84	256.13	140.27	58.587	5.6871e-05	117.36	-124.146	-119.115	-77.677	-134.396	-123.879	108.332	-134.782	-129.514	0.300	-90.083	-130.272	-126.220	-125.750	-120.451	-125.174	-122.395	-8191	255	
28646.006	1	1	0	0	0.21047	0.15617	0.32246	0.0069156	0.11451	0.12007	0.27833	0.2305	0.27151	0.074035	0.22928	0.11938	0.13296	0.15817	0.34892	0.45399	-1.4479	-1.7646	-1.3979	-2.3458	-1.825	-1.7271	-2.6146	-1.7792	-2.0771	-2.2438	-1.6187	-2.3812	-1.9438	-1.6271	-2.4417	-1.6187	133.285	-37.120	126.475	140.648	-74.820	-35.959	178.786	157.714	135.711	-84.675	181.811	201.828	-118.150	171.017	199.712	160.979	0.00074781	0.0011985	0.00088088	1026.4	1.4936e-05	2.1263e-05	1515.4	329.69	1.8891e-05	2.0249e-05	634.43	271.48	135.83	59.631	2.118e-05	126.65	0.0046756	0.0052259	0.0014431	1017.5	5.681e-05	5.6874e-05	1412.7	319.48	5.5495e-05	5.7722e-05	616.71	253.1	139.43	58.066	5.5717e-05	117.06	-134.117	-107.985	-78.251	-134.571	-145.941	15.198	-134.585	-129.542	45.097	-86.040	-129.949	-125.812	-125.889	-120.059	26.766	-122.125	-8191	255	
28646.102	1	1	0	0	0.048356	0.071925	0.1821	0.12144	0.29396	0.21292	0.16031	0.23469	0.025688	0.12191	0.08842	0.26207	0.2569	0.12668	0.1733	0.093208	-1.4042	-2.2812	-1.3312	-2.2458	-1.9042	-1.3875	-2.425	-1.6542	-1.8208	-2.3417	-1.7042	-1.9479	-2.0583	-1.5312	-2.2667	-1.9354	58.690	71.125	-143.941	211.295	-55.564	211.871	-43.354	159.616	144.523	69.155	199.886	190.671	155.302	168.195	120.468	126.394	0.00066027	0.0024594	0.00041069	1024.5	6.5156e-06	9.4521e-06	1521.2	330.57	6.8621e-06	2.5708e-05	628.55	271.05	136.17	59.811	2.6162e-05	125.64	0.0046628	0.0051603	0.0014324	1011.3	5.6702e-05	5.6411e-05	1407.8	318.48	5.5774e-05	5.6895e-05	613.46	253.35	139.22	57.97	5.505e-05	116.69	210.349	-84.386	-34.234	-134.717	-19.817	-105.182	-134.442	-129.429	-78.482	66.254	-129.781	-126.035	-125.392	-120.504	-8.357	-122.298	-8191	255	
28646.223	1	1	0	0	0.12778	0.13645	0.034235	0.22024	0.27485	0.098158	0.19863	0.2811	0.22764	0.11835	0.19498	0.25146	0.11967	0.45068	0.18864	0.16242	-1.1396	-2.0708	-1.4375	-2.1646	-1.9604	-1.4562	-2.4396	-1.8375	-1.7021	-2.2687	-1.2958	-1.9521	-2.0062	-1.5125	-2.1708	-2.0563	-22.718	178.516	87.369	161.140	5.273	162.962	175.731	169.717	132.432	74.060	92.400	165.457	108.242	121.810	146.181	155.231	0.0010008	0.003039	0.00041142	1026	1.8461e-05	2.0126e-05	1515.8	334.2	2.5524e-05	2.6472e-05	639.74	275.32	135.68	59.395	2.0111e-05	127.19	0.0046734	0.0051285	0.0014248	1012.8	5.5607e-05	5.5791e-05	1407.1	320.13	5.4395e-05	5.4729e-05	617.27	255.32	139.25	57.96	5.3744e-05	117.69	-136.417	-113.280	26.496	-134.628	-71.369	-19.785	-135.178	-129.408	26.923	10.380	-130.029	-125.823	-125.083	-120.147	41.848	-121.904	-8191	255	
28646.318	1	1	0	0	0.26837	0.13209	0.074434	0.19461	0.11321	0.11912	0.30595	0.34749	0.21	0.23024	0.2633	0.29935	0.16377	0.017234	0.28244	0.46377	-0.97708	-2.1708	-1.4854	-1.9146	-2.1271	-1.3937	-2.2125	-1.9	-1.3917	-2.1104	-1.5125	-1.775	-2.2854	-1.6458	-1.9667	-2.1479	8.432	51.219	35.153	182.544	-120.436	-84.717	133.243	173.698	-81.742	105.900	54.859	-117.011	141.417	-3.187	-127.176	193.307	0.00075548	0.0016109	0.0001941	1027.3	4.4527e-06	3.3521e-05	1525.1	332.87	9.6191e-06	1.8167e-05	642.07	273.35	136.76	60.155	1.9371e-05	127.41	0.004631	0.0050378	0.0014233	1021.9	5.5622e-05	5.5666e-05	1419.8	321.26	5.4721e-05	5.4825e-05	621.63	255.02	139	58.247	5.3307e-05	117.48	-138.009	-118.561	30.250	-134.695	164.031	50.183	-134.656	-129.260	-40.716	-78.404	-130.017	-125.611	-125.313	-120.295	-4.444	-122.204	-8191	255	
28646.391	1	1	0	0	0.11388	0.14164	0.18541	0.18333	0.22495	0.22762	0.15761	0.26254	0.26778	0.029925	0.37659	0.24483	0.14027	0.33914	0.29929	0.34928	-0.93542	-2.2042	-1.7479	-1.9271	-2.3	-1.4792	-2.1312	-2.1604	-1.4625	-2.0917	-1.7563	-1.6896	-2.2083	-1.5229	-1.8917	-2.2979	-28.686	211.075	25.240	-121.869	54.815	-139.614	207.348	144.113	118.792	52.628	157.154	164.504	113.457	204.868	80.849	202.939	0.000899	0.0021542	0.00046536	1033	1.1973e-05	2.5358e-05	1518.9	331.25	1.528e-05	1.6372e-05	637.98	273.63	137.08	59.216	2.841e-05	126.11	0.0045482	0.0049879	0.0014016	1015.8	5.4488e-05	5.5592e-05	1410.5	318.33	5.4335e-05	5.4152e-05	618.51	254.34	138.81	57.758	5.4238e-05	116.65	-140.565	136.055	46.145	-134.936	-51.777	-24.960	-134.763	-129.485	15.308	-71.818	-130.018	-125.854	-125.515	-120.243	201.858	-122.004	-8191	255	
28646.486	1	1	0	0	0.10331	0.16165	0.1976	0.25218	0.016827	0.27927	0.27498	0.28872	0.13719	0.10606	0.125	0.23896	0.20564	0.22592	0.1103	0.21841	-0.88333	-2.1354	-1.6042	-1.7271	-2.2354	-1.5083	-2.0812	-2.2292	-1.4604	-2.1729	-2.0292	-1.6417	-2.3125	-1.5583	-1.7292	-2.3812	-86.590	-97.437	146.213	195.255	45.484	-3.520	187.274	148.462	131.240	123.502	-48.191	197.796	90.173	159.715	9.324	-127.941	0.0009259	0.0014837	0.00063034	1026.1	5.1983e-06	2.9459e-05	1521.5	329.05	1.1789e-05	9.7343e-06	632.7	269.67	135.68	59.349	2.8056e-05	125.69	0.0045824	0.0049436	0.0014276	1009.4	5.4223e-05	5.5676e-05	1410	317.27	5.463e-05	5.4676e-05	615.42	252.97	137.82	57.593	5.4991e-05	116.42	211.915	25.505	-23.977	-134.404	77.619	-102.072	-134.752	-129.301	-49.285	-91.816	-129.912	-125.965	-125.374	-120.250	-54.107	-122.066	-8191	255	
28646.607	1	1	0	0	0.11652	0.12811	0.098295	0.26108	0.16763	0.20837	0.37778	0.17442	0.13523	0.36396	0.10237	0.20825	0.12953	0.019607	0.19379	0.23207	-0.91458	-2.0958	-2.1188	-1.4833	-2.2667	-1.5271	-1.7479	-2.3229	-1.3271	-2.1042	-2.1375	-1.5625	-2.4833	-1.6667	-1.7771	-2.4083	127.168	61.845	34.546	-125.022	-27.193	-37.338	99.986	189.040	-101.093	-61.350	189.024	211.860	192.798	161.689	-2.627	-119.400	0.00059169	0.0025518	0.00019899	1022.2	1.5579e-05	1.1444e-05	1519.6	326.67	1.0424e-05	7.7833e-06	635.78	272.92	135.66	59.709	1.3337e-05	127.39	0.0046559	0.0050376	0.0014406	1011.4	5.4858e-05	5.6342e-05	1409.6	316.56	5.4517e-05	5.4775e-05	617.34	253.72	137.58	57.805	5.4075e-05	117.2	-142.997	-111.894	211.243	-134.803	-23.153	109.530	-134.338	-129.071	-43.053	194.389	-129.863	-125.685	-125.278	-120.130	205.685	-121.824	-8191	255	
28646.703	1	1	0	0	0.28655	0.061074	0.12303	0.11431	0.17424	0.066393	0.018838	0.14127	0.096082	0.22165	0.12706	0.42612	0.12061	0.32025	0.12738	0.39685	-1.0896	-2.15	-1.7979	-1.5479	-2.2104	-1.4708	-1.7271	-2.3708	-1.4438	-1.8771	-2.2687	-1.5146	-2.275	-1.8917	-1.5146	-2.4292	-76.646	169.155	56.785	47.185	-30.999	35.547	181.690	116.597	-128.653	63.543	67.010	186.368	125.713	92.986	97.036	148.678	0.00070806	0.001171	5.4161e-05	1021.2	1.1665e-05	1.8556e-05	1527.5	330.39	1.2409e-05	1.5593e-05	642.98	271.14	136.16	59.179	1.1148e-05	127.16	0.0045155	0.0048837	0.0013907	1008.7	5.2384e-05	5.4284e-05	1413.7	317.16	5.3085e-05	5.3116e-05	617.1	253.56	137.91	57.554	5.1519e-05	116.49	-145.586	-32.477	-94.264	-134.890	-5.380	18.370	-134.680	-129.551	-24.333	69.826	-130.238	-126.083	-124.788	-120.308	-123.012	-121.823	-8191	255	
28646.801	1	1	0	0	0.087167	0.12552	0.074256	0.20256	0.24305	0.16652	0.17331	0.23802	0.11631	0.19295	0.22444	0.24963	0.17948	0.09021	0.12509	0.2996	-1.1125	-1.55	-2.0167	-1.4396	-2.1854	-1.9125	-1.5458	-2.2771	-1.4083	-1.7625	-2.2042	-1.5604	-2.1229	-1.9688	-1.3875	-2.5771	86.387	189.252	161.390	212.246	-117.128	114.768	179.916	-142.577	184.406	76.716	-134.663	177.628	-128.361	182.807	44.550	191.772	0.00086903	0.0013914	0.00033063	1023.7	1.6287e-05	1.1021e-05	1509.1	327.74	3.2344e-06	1.8624e-05	632.05	269.52	134.84	59.243	7.4984e-06	125.49	0.0043806	0.0047413	0.0013259	1002	5.1194e-05	5.2975e-05	1397.4	313.44	5.1777e-05	5.2165e-05	605.87	250.39	136.23	56.866	5.1346e-05	115.11	200.834	24.676	-7.521	-134.490	-114.772	4.697	-134.443	-129.173	-89.536	199.668	-130.030	-125.620	-125.506	-120.001	194.751	-121.892	-8191	255	
28646.896	1	1	0	0	0.11015	0.1284	0.14718	0.21825	0.20845	0.23359	0.36702	0.19423	0.010744	0.13357	0.25039	0.40882	0.16593	0.36542	0.18234	0.27968	-1.1125	-1.5417	-2.2375	-1.4542	-1.9458	-2.0583	-1.5083	-2.3271	-1.6083	-1.3687	-2.2375	-1.8312	-1.8458	-2.0583	-1.4542	-2.3792	-144.585	-27.449	208.677	174.986	-9.679	211.163	141.278	163.209	-98.237	143.222	-106.739	182.394	187.500	181.770	188.596	196.812	0.00074986	0.00049349	0.00051351	1012	1.76e-05	4.4657e-05	1516.7	322.93	1.0268e-05	9.8521e-06	625.69	269.05	135.25	58.452	5.9346e-06	124.26	0.004397	0.0047845	0.0013224	996.82	5.1558e-05	5.3441e-05	1396.6	310.97	5.2822e-05	5.3394e-05	604.69	249.88	136.09	56.646	5.3069e-05	114.57	209.146	-56.237	90.629	-134.516	-7.987	6.561	-134.820	-129.219	-145.068	-129.385	-129.823	-126.182	-125.462	-120.276	142.070	-122.013	-8191	255	
28647.016	1	1	0	0	0.11003	0.043896	0.2114	0.12092	0.11635	0.22995	0.13433	0.11321	0.049719	0.021327	0.12165	0.10602	0.23964	0.26562	0.2164	0.14033	-1.2792	-1.6042	-2.1271	-1.7021	-1.9146	-2.1896	-1.6562	-2.3396	-1.7229	-1.6083	-2.3729	-1.7604	-1.9167	-2.2687	-1.3354	-2.275	-125.151	94.813	-35.872	193.521	-63.603	151.185	91.579	131.396	175.836	-36.945	-97.941	105.596	126.057	200.254	-126.614	171.777	0.00042094	0.0023767	0.00050688	1009.9	2.61e-05	5.5992e-05	1500	325.4	1.2003e-05	4.2629e-05	628.3	268.02	133.49	58.791	2.7296e-06	125.08	0.0045256	0.0049244	0.0013586	996.77	5.2628e-05	5.4641e-05	1394.3	311.9	5.2816e-05	5.3348e-05	605.33	249.87	135.24	56.81	5.2099e-05	114.96	-144.824	-76.094	-61.832	-134.985	-87.569	-50.675	-134.912	-129.394	-107.466	27.262	-129.997	-125.904	-125.195	-120.445	193.174	-121.933	-8191	255	
28647.088	1	1	0	0	0.11463	0.22795	0.21628	0.25776	0.20927	0.04936	0.35748	0.13124	0.30581	0.11157	0.15773	0.16089	0.08457	0.23409	0.24608	0.27473	-1.3958	-1.4583	-2.2396	-1.7458	-1.6	-2.1937	-1.4667	-2.0833	-1.8104	-1.3417	-2.3896	-1.7083	-1.9062	-2.4	-1.3896	-2.1229	126.302	-38.502	4.529	185.950	187.197	66.892	140.899	169.983	-8.804	-125.069	-135.506	191.334	-139.923	210.945	-31.661	177.353	0.00044533	0.0027639	0.00029194	1004.6	1.3599e-05	2.1659e-05	1502.6	326.51	7.3228e-06	2.8626e-05	630.46	268.66	133.13	58.581	2.4952e-05	124.29	0.0044468	0.0047688	0.0013151	995.03	5.0913e-05	5.1717e-05	1393.3	309.8	5.1216e-05	5.0856e-05	603.49	248.49	134.43	56.174	5.0206e-05	114.02	-138.274	-119.044	39.197	-135.145	156.080	-75.189	-134.705	-129.262	34.025	12.918	-129.864	-126.046	-125.512	-120.231	-35.401	-121.916	-8191	255	
28647.207	1	1	0	0	0.043752	0.088828	0.24359	0.30287	0.22545	0.066702	0.050869	0.079798	0.19765	0.16729	0.23311	0.17047	0.22847	0.098336	0.062581	0.22548	-1.5417	-1.2396	-2.2146	-1.8208	-1.5812	-2.4208	-1.6875	-2.1979	-2.1312	-1.3646	-2.125	-2.1292	-1.6063	-2.2687	-1.4521	-2.1	-82.148	-0.053	96.927	-143.414	149.502	-26.936	104.214	-43.213	-72.175	27.982	132.153	133.579	158.470	122.371	201.343	152.483	0.0010332	0.0013195	0.00028398	1009.2	6.601e-06	1.9133e-05	1515.1	322.6	1.8533e-05	2.437e-05	631.72	265.51	133.7	57.648	1.6556e-05	124.16	0.0042721	0.0046355	0.0012791	986.25	4.9222e-05	5.0077e-05	1387.5	307.45	4.935e-05	4.9166e-05	598.85	247.19	132.87	55.295	4.9192e-05	113.41	-140.460	-102.325	-59.821	-134.502	-55.427	56.491	-134.985	-129.666	-70.438	-10.937	-130.279	-126.455	-125.413	-119.990	42.866	-121.843	-8191	255	
28647.303	1	1	0	0	0.067382	0.12784	0.23636	0.1415	0.16938	0.15689	0.27283	0.1085	0.20468	0.24731	0.19861	0.43672	0.17576	0.29195	0.22409	0.076847	-1.6979	-1.5667	-2.1229	-1.8354	-1.4229	-2.2438	-1.8604	-1.7979	-2.0938	-1.3292	-2.2708	-2.1354	-1.4854	-2.3458	-1.5625	-1.7437	-60.211	-67.585	182.931	198.567	165.591	187.287	143.537	-138.435	100.465	33.647	66.775	-137.183	170.799	176.456	-38.106	151.288	0.00097665	0.002944	0.00033057	1010.7	1.7485e-05	2.3454e-05	1501.1	325.49	5.2974e-06	3.7444e-05	628.5	267.51	133.19	57.811	5.9171e-06	124.06	0.0041472	0.0045105	0.0012427	987.35	4.8512e-05	4.8879e-05	1386.3	308.42	4.9365e-05	4.9405e-05	599.37	248.02	133.86	55.605	5.1181e-05	113.57	-124.760	-35.410	-138.595	-134.821	48.528	18.395	-134.951	-129.060	-117.725	-68.872	-129.807	-126.083	-125.524	-120.285	144.544	-121.848	-8191	255	
28647.400	1	1	0	0	0.24248	0.23199	0.1887	0.19881	0.21171	0.058687	0.14093	0.1656	0.094111	0.10642	0.11987	0.2119	0.16067	0.25469	0.20332	0.39047	-1.6979	-1.3958	-2.1625	-2.1083	-1.3771	-2.1854	-2.0187	-1.8792	-2.2854	-1.5604	-2.1896	-2.3583	-1.6604	-2.5417	-1.6854	-1.6667	196.346	83.102	-77.639	151.611	-125.075	72.732	204.300	71.415	99.510	182.237	4.921	-144.633	-124.642	-109.012	-66.809	134.742	0.00071071	0.0014485	0.00029232	1008.3	1.5891e-05	2.1855e-05	1519.9	326.65	7.5016e-06	1.5652e-05	632.25	268.02	132.49	58.363	2.8605e-05	124.26	0.0043079	0.0046829	0.0012923	996.41	5.0727e-05	5.1473e-05	1401.1	311.1	5.0552e-05	5.1835e-05	604.37	249.33	134.71	56.216	5.1988e-05	114.51	-132.132	63.447	-113.256	-134.951	-16.676	56.424	-134.840	-129.683	-138.807	-27.289	-129.863	-125.908	-125.647	-120.025	29.688	-121.956	-8191	255	
28647.496	1	1	0	0	0.073691	0.19941	0.2079	0.40062	0.17299	0.084822	0.27255	0.31801	0.33284	0.34593	0.13794	0.48354	0.21939	0.35702	0.2464	0.19366	-1.8833	-1.4729	-1.9667	-2.1604	-1.3	-2.1312	-2.125	-1.6396	-2.2729	-1.5229	-1.8687	-2.1854	-1.5063	-2.3667	-1.925	-1.6812	-5.342	54.962	-137.487	153.640	32.802	-117.158	106.822	-139.799	113.535	87.457	77.546	121.482	182.798	178.125	-105.394	140.653	0.00057163	0.001544	0.00024402	1028.4	1.4454e-05	2.027e-05	1529.8	327.58	1.3613e-05	2.2557e-05	634.74	271.24	135.21	59.276	7.0689e-06	124.75	0.0043128	0.0048019	0.0013127	1003.2	5.1365e-05	5.1186e-05	1409.9	314.11	5.0571e-05	5.2087e-05	611.28	252.03	136.03	56.835	5.275e-05	114.84	-145.360	-45.507	99.380	-134.442	-5.961	-121.461	-134.655	-128.970	104.858	46.408	-129.828	-125.754	-125.557	-119.961	51.434	-121.837	-8191	255	
28647.615	1	1	0	0	0.15763	0.27001	0.18246	0.30801	0.1074	0.1239	0.37224	0.12369	0.17837	0.14777	0.28862	0.24212	0.15901	0.12965	0.08444	0.31042	-2.0375	-1.4813	-1.7292	-2.6813	-1.475	-2.0833	-2.0604	-1.5167	-2.2667	-1.7354	-1.7542	-2.4479	-1.5917	-2.1479	-2.0167	-1.4979	110.387	-82.054	-80.903	195.155	-63.596	121.291	187.479	186.487	85.092	88.827	141.436	157.093	131.450	-127.211	-77.992	194.148	0.00053803	0.0013436	0.00081763	1023.7	5.9307e-06	2.651e-05	1522.7	329.74	8.5118e-06	2.7865e-05	640.96	269.27	133.45	58.309	2.0445e-05	123.6	0.0043462	0.004829	0.00132	1004.9	5.1142e-05	5.1369e-05	1405.8	314.19	5.0312e-05	5.2444e-05	610.96	250.03	135.39	56.364	5.2228e-05	114.03	212.475	75.598	-4.684	-134.354	-101.359	22.067	-134.657	-128.888	-72.174	46.817	-129.484	-125.962	-125.763	-120.093	-83.627	-121.881	-8191	255	
28647.688	1	1	0	0	0.1844	0.16522	0.046718	0.24981	0.16306	0.10643	0.25372	0.080273	0.26726	0.07423	0.3414	0.34431	0.071861	0.23742	0.083067	0.26871	-1.9292	-1.7604	-1.5812	-2.3937	-1.4438	-2.1208	-2.4854	-1.6708	-2.2583	-1.6896	-1.6333	-2.3625	-1.7125	-2	-2.2313	-1.675	-6.000	135.268	-18.124	184.170	52.029	184.482	-121.374	-131.696	-89.047	156.892	183.660	180.495	17.724	170.893	-130.093	116.639	0.00065354	0.00085203	0.00035911	1021.3	2.0089e-05	3.536e-05	1518	324.27	8.7676e-06	3.151e-05	631.36	269.09	133.98	58.398	1.2132e-05	123.81	0.0042735	0.0048354	0.0013249	1001	5.2051e-05	5.2282e-05	1406.1	311.39	5.1405e-05	5.3153e-05	607.98	249.29	135.68	56.398	5.2833e-05	113.77	-136.317	173.567	208.033	-134.414	-21.135	-88.711	-134.439	-129.045	-106.055	28.745	-129.854	-125.937	-125.273	-120.121	83.656	-121.754	-8191	255	
28647.783	1	1	0	0	0.15512	0.14746	0.086557	0.33853	0.049814	0.16219	0.034224	0.16508	0.11947	0.19566	0.21444	0.29416	0.15963	0.073421	0.23612	0.39876	-1.7667	-1.7604	-1.5646	-2.3896	-1.6021	-1.7188	-2.3271	-1.4083	-2.0812	-1.9396	-1.6417	-2.4479	-1.6729	-1.8	-2.1917	-1.6042	36.001	109.102	192.124	156.696	179.901	202.506	193.778	158.564	71.844	-93.184	190.091	62.277	105.075	-142.978	-52.712	159.244	0.00083449	0.00010407	0.00066329	1016.7	6.8301e-06	6.3665e-06	1517.3	325.87	1.2905e-05	1.8718e-05	631.91	268.51	133.68	57.984	1.9409e-05	124.99	0.0043422	0.0048875	0.0013466	997.31	5.2973e-05	5.3048e-05	1406.7	313.86	5.2148e-05	5.4173e-05	609.64	250.2	136.47	56.342	5.3226e-05	114.69	-137.645	-65.084	-66.865	-134.347	-93.074	98.251	-134.449	-129.117	19.799	-12.317	-129.628	-125.825	-125.235	-119.620	32.200	-121.865	-8191	255	
28647.881	1	1	0	0	0.23244	0.2769	0.099711	0.15621	0.14096	0.18919	0.22294	0.10323	0.35393	0.18877	0.13164	0.26088	0.053355	0.30894	0.027877	0.25491	-1.6437	-2.0604	-1.45	-2.4042	-1.6833	-1.7917	-2.3063	-1.5833	-2.1646	-2.1188	-1.4625	-2.4354	-1.9125	-1.4813	-2.0979	-1.4396	79.260	-43.340	25.011	171.534	73.579	-144.584	175.501	-75.757	-69.525	100.542	159.937	-139.797	85.612	138.696	120.040	144.981	0.00087531	0.0019994	0.00037235	1028.5	2.2022e-05	3.3538e-06	1535.8	329.13	2.1485e-05	2.6411e-05	643.43	272.32	136.63	59.326	2.7444e-06	125.47	0.004404	0.0048559	0.001343	1003	5.2561e-05	5.2008e-05	1414.2	313.86	5.0253e-05	5.1633e-05	613.79	252.41	137.22	56.86	5.0213e-05	115.42	195.603	-76.374	-98.854	-134.485	-23.110	-1.197	-134.215	-129.094	62.843	39.239	-129.620	-125.925	-125.742	-120.384	141.849	-121.711	-8191	255	
28647.998	1	1	0	0	0.1015	0.048494	0.29334	0.36164	0.28842	0.20885	0.50843	0.1158	0.1843	0.14448	0.40851	0.17591	0.16664	0.18298	0.37317	0.40787	-1.4333	-1.9792	-1.4625	-2.2042	-1.7271	-1.425	-2.6104	-1.7646	-1.6479	-2.0687	-1.5125	-2.0896	-1.9937	-1.5688	-2.2	-1.7646	-98.755	-75.367	78.273	202.990	-101.952	-76.344	153.079	-79.930	106.655	-102.381	175.367	170.644	140.837	119.371	84.071	132.630	0.00080328	0.0019704	0.00038857	1035.6	2.8865e-05	9.8012e-06	1525.2	332.26	1.078e-05	1.2292e-05	645.84	273.38	135.17	59.435	2.801e-05	124.65	0.0042421	0.0046977	0.0012966	1001.8	5.0753e-05	5.0327e-05	1408.4	315.42	4.9319e-05	5.0576e-05	611.82	252.19	136.56	56.809	4.9649e-05	114.67	-136.519	-42.909	39.380	-134.712	-36.922	11.045	-134.596	-128.829	14.900	29.889	-129.906	-125.756	-125.272	-119.729	90.525	-122.204	-8191	255	
28648.096	1	1	0	0	0.3461	0.13721	0.10704	0.064739	0.11032	0.34138	0.42418	0.21013	0.35432	0.08992	0.17686	0.16873	0.10207	0.18764	0.14204	0.2549	-1.2729	-2.1917	-1.6292	-2.1937	-1.8271	-1.3667	-2.3854	-1.9771	-1.5146	-2.3208	-1.5521	-2.0563	-2.1917	-1.4792	-2.1354	-1.9167	-4.948	-11.153	-45.652	-84.354	209.545	-118.440	117.839	193.701	-103.895	70.186	125.469	121.813	-74.347	94.359	-73.998	135.067	0.00069342	0.0021235	0.00059707	1024.5	1.8582e-05	2.1752e-05	1519	331.02	1.5514e-05	9.6995e-06	636.62	270.58	135.3	59.191	2.8601e-05	124.49	0.0042144	0.0046638	0.0013019	997.75	5.0682e-05	5.1109e-05	1401.9	314.5	5.0745e-05	5.1248e-05	609.37	250.95	136.64	56.81	5.1068e-05	114.8	206.013	202.157	-48.698	-134.588	-16.521	63.148	-134.632	-129.024	171.147	143.328	-129.860	-125.895	-125.230	-120.341	67.844	-121.863	-8191	255	
28648.191	1	1	0	0	0.096069	0.28442	0.25517	0.18963	0.16037	0.22413	0.40158	0.25209	0.189	0.12108	0.3627	0.2322	0.30278	0.16478	0.1545	0.36105	-1.1646	-2.3292	-1.4729	-2.1083	-1.9979	-1.2229	-2.4021	-2.0542	-1.5542	-2.2125	-1.8292	-1.9896	-2.1292	-1.4021	-1.9292	-1.8979	-21.001	81.031	-28.976	78.280	-32.665	21.593	170.932	144.230	180.415	23.242	149.760	155.367	161.067	-85.350	-133.273	164.060	0.00096698	0.0017968	0.00024085	1024.3	1.4455e-05	2.3548e-05	1517.8	326.64	1.0498e-05	3.1665e-05	632.65	269.83	135.17	58.507	2.9072e-05	124.47	0.0043147	0.0047783	0.001331	1000.9	5.2439e-05	5.25e-05	1405.2	313.26	5.231e-05	5.2629e-05	611.35	251.37	136.39	56.749	5.3335e-05	114.97	205.047	-78.572	-116.670	-134.748	34.916	79.231	-134.252	-128.996	-94.949	19.214	-130.236	-125.614	-125.771	-119.901	33.347	-121.798	-8191	255	
28648.287	1	1	0	0	0.25478	0.19982	0.23269	0.16048	0.070059	0.31492	0.26543	0.087815	0.069212	0.14765	0.10883	0.17779	0.40545	0.059683	0.15941	0.30611	-1.1125	-2.1521	-1.5604	-1.725	-2.1479	-1.3021	-2.2667	-2.0146	-1.4854	-2.2625	-1.7437	-1.8729	-2.2458	-1.5604	-1.7833	-2.1562	80.081	-70.450	23.077	-118.169	-83.970	-74.862	135.967	152.477	191.785	33.065	105.766	198.676	186.653	-13.227	-36.267	196.150	0.00077314	0.00081687	0.00027964	1021.9	8.2925e-06	1.6699e-05	1524.5	328.99	1.5945e-05	3.0651e-05	643.16	271.7	134.38	59.451	3.982e-05	125.39	0.0044828	0.0049512	0.0013904	1004.7	5.4441e-05	5.4909e-05	1411.9	316.77	5.3614e-05	5.414e-05	618.11	253.66	137.62	57.519	5.4111e-05	116.11	-146.263	-142.877	-25.222	-134.605	152.597	32.921	-134.449	-129.351	50.214	-62.364	-129.773	-125.454	-125.537	-120.397	-36.006	-121.981	-8191	255	
28648.385	1	1	0	0	0.21147	0.15055	0.091462	0.29297	0.067017	0.38081	0.36159	0.12918	0.22331	0.083613	0.19997	0.25775	0.1826	0.31969	0.20893	0.35879	-0.78542	-2.2687	-1.5542	-1.6125	-2.125	-1.4646	-1.9729	-2.2208	-1.3167	-2.1042	-1.7938	-1.8563	-2.2521	-1.6875	-1.8062	-2.3083	143.486	-32.200	-25.789	198.785	-28.407	119.559	164.046	144.297	-112.109	133.509	191.520	146.083	135.284	164.128	-138.365	167.895	0.00058385	0.0018453	0.0011817	1018	3.7935e-06	1.8533e-05	1530.1	327.7	1.0344e-05	1.0214e-05	631.3	270.27	136.14	58.685	1.9889e-05	124.84	0.004563	0.0049568	0.001403	1007.3	5.393e-05	5.4453e-05	1417	315.91	5.3495e-05	5.4087e-05	614.54	252.74	137.99	57.042	5.4239e-05	115.28	211.175	-70.585	-57.106	-134.364	44.228	35.767	-134.363	-129.621	-100.590	126.480	-129.586	-125.718	-125.547	-119.923	-43.613	-121.962	-8191	255	
28648.480	1	1	0	0	0.12644	0.24018	0.14894	0.10647	0.13149	0.31219	0.24366	0.049781	0.067044	0.079416	0.2835	0.017959	0.28761	0.008012	0.1675	0.19169	-0.83958	-2.0604	-1.7542	-1.6958	-2.1188	-1.6521	-2.0146	-2.1833	-1.3458	-2.0021	-2.0563	-1.4438	-2.4083	-1.8208	-1.7938	-2.5812	41.053	-99.754	121.751	212.101	-19.884	205.330	199.305	-116.354	194.339	-106.589	96.170	188.920	211.645	-84.973	-65.529	160.741	0.00072416	0.0016016	0.00034468	1011.2	2.1461e-05	6.2615e-06	1505.4	327.92	1.5757e-05	2.2185e-05	632.77	269.17	134.84	58.361	1.8238e-05	124.29	0.0045541	0.0049806	0.001416	1001.9	5.4214e-05	5.5812e-05	1403.6	314.8	5.4435e-05	5.4587e-05	612.47	250.98	136.81	57.052	5.3755e-05	114.64	-125.751	-133.195	-35.623	-134.805	7.980	-30.807	-134.524	-129.002	208.528	-83.856	-129.892	-125.599	-125.470	-120.309	98.242	-121.982	-8191	255	
28648.576	1	1	0	0	0.082882	0.21055	0.15612	0.20757	0.29391	0.16915	0.3285	0.14398	0.16935	0.10224	0.11492	0.14857	0.13976	0.28937	0.087451	0.25443	-0.9625	-2.1708	-1.8479	-1.6604	-2.1917	-1.6375	-1.8104	-2.4813	-1.6021	-1.8479	-2.2438	-1.5771	-2.3479	-1.5271	-1.4146	-2.3396	201.355	77.079	120.137	209.008	-131.945	-97.061	129.906	31.890	-72.808	122.961	-138.368	188.596	-123.856	201.753	-128.501	130.877	0.0006131	0.0014486	6.9289e-05	1008.8	1.1317e-05	4.2331e-05	1509	324.95	2.0041e-05	1.7652e-05	635.37	267.82	133.52	58.636	2.7046e-05	123.77	0.0045692	0.0049536	0.001394	999.51	5.3283e-05	5.4455e-05	1402.9	312.54	5.355e-05	5.3348e-05	611.24	250.37	135.72	56.858	5.2652e-05	114.63	200.842	-143.476	118.881	-134.426	-1.434	13.457	-134.226	-128.837	26.249	26.205	-129.635	-125.616	-125.375	-119.962	-27.989	-121.736	-8191	255	
28648.697	1	1	0	0	0.31558	0.12744	0.095245	0.13945	0.17191	0.25775	0.36848	0.17563	0.10757	0.032678	0.22212	0.1082	0.15001	0.38699	0.073865	0.35104	-1.0146	-1.8563	-2.1271	-1.6604	-2.2021	-1.8479	-1.675	-2.1875	-1.4417	-1.8271	-2.2021	-1.5938	-2.1854	-2.0167	-1.4562	-2.4583	148.504	-53.160	-23.910	153.253	159.114	141.684	179.572	144.706	67.155	196.435	186.187	194.284	-118.146	171.463	79.507	176.984	0.00055235	0.00027997	0.0003772	1029	1.7349e-05	7.4998e-06	1526.3	328.29	7.3069e-06	2.1319e-05	634.37	269.48	135.61	59.069	1.3982e-05	125.24	0.004436	0.0048449	0.0013545	998.13	5.1441e-05	5.3006e-05	1410	314.42	5.2305e-05	5.2574e-05	611.66	251.85	137.08	57.197	5.2227e-05	115.47	210.911	92.306	-83.301	-134.749	188.630	41.464	-134.106	-128.905	-88.990	-19.811	-129.978	-125.733	-124.904	-120.004	13.735	-121.549	-8191	255	
28648.793	1	1	0	0	0.20401	0.21116	0.18833	0.33488	0.1387	0.17961	0.38346	0.2198	0.10079	0.20386	0.16689	0.20192	0.12814	0.13778	0.21616	0.30029	-1.1104	-1.5938	-2.1562	-1.5208	-2.1792	-1.9688	-1.6958	-2.3521	-1.4833	-1.6313	-2.4188	-1.5979	-2.1479	-2.125	-1.4479	-2.5354	121.598	-93.158	59.991	142.393	-0.070	-73.912	124.750	140.139	-117.430	-39.209	204.358	67.076	112.299	210.020	191.281	188.982	0.0011448	0.0014495	0.00031555	1027.9	3.1857e-05	1.3308e-05	1527.8	329.69	8.7693e-06	7.1474e-06	639.96	271.63	135.78	59.424	1.8802e-05	123.55	0.0044323	0.0047983	0.0013436	1003.1	5.1954e-05	5.3277e-05	1413	315.31	5.2975e-05	5.3083e-05	614.92	252.26	137.32	57.495	5.3094e-05	114.65	203.849	-22.560	159.007	-134.174	66.751	-86.923	-134.299	-129.069	72.979	-50.787	-129.351	-125.927	-125.587	-120.007	-63.393	-121.858	-8191	255	
28648.889	1	1	0	0	0.27192	0.10976	0.05898	0.29246	0.26306	0.055181	0.26423	0.19004	0.19925	0.042113	0.080988	0.52252	0.19527	0.28036	0.24505	0.21884	-1.3083	-1.5958	-2.2646	-1.6021	-1.8979	-2.0354	-1.8021	-2.4	-1.9083	-1.4771	-2.3812	-1.8208	-1.9458	-2.4208	-1.4979	-2.4125	-146.429	-61.392	15.969	166.887	61.891	-21.381	80.824	190.732	84.709	184.845	199.333	198.480	165.426	153.590	103.987	208.970	0.00074437	0.0025852	0.00018651	1017.2	1.7832e-05	3.5778e-05	1509.3	329.14	6.9081e-06	2.0959e-05	631.82	269.55	135.21	58.94	2.6447e-05	124.5	0.0044774	0.0048418	0.0013542	999.47	5.198e-05	5.3605e-05	1403.2	313.51	5.2606e-05	5.2944e-05	609.21	250.22	136.4	56.969	5.2583e-05	114.32	210.713	-123.842	-146.922	-134.313	41.010	-40.516	-134.425	-129.227	-64.506	-7.061	-129.541	-125.648	-125.660	-119.895	87.220	-121.530	-8191	255	
28648.984	1	1	0	0	0.078591	0.040992	0.032355	0.1351	0.29442	0.11657	0.41083	0.35532	0.17676	0.089435	0.19311	0.22299	0.087248	0.10082	0.16895	0.36319	-1.5146	-1.5146	-2.2646	-1.6458	-1.8833	-2.2812	-1.625	-2.3375	-1.8771	-1.6667	-2.35	-1.9042	-1.9792	-2.4917	-1.5167	-2.3354	-22.862	87.218	191.643	130.266	-35.016	96.059	142.554	157.805	-101.769	-88.242	135.836	159.332	64.650	-71.242	65.634	206.529	0.00086585	0.00091874	0.00057557	1014.3	1.0978e-05	3.0243e-05	1513.8	326.26	2.4826e-05	2.3647e-05	631.47	267.47	133.31	58.927	4.4096e-06	125.12	0.0044616	0.0048181	0.0013296	995.77	5.2267e-05	5.3449e-05	1398.8	312.23	5.2456e-05	5.1878e-05	606.42	249.84	134.9	56.666	5.1465e-05	114.36	-142.054	-10.674	-109.851	-134.319	59.209	31.134	-134.235	-128.995	-46.328	133.472	-129.464	-125.701	-125.533	-119.929	169.344	-121.405	-8191	255	
28649.080	1	1	0	0	0.091874	0.10344	0.10054	0.14368	0.22883	0.12598	0.18283	0.21713	0.18394	0.047518	0.28923	0.3527	0.2131	0.073639	0.10443	0.30649	-1.5875	-1.4542	-2.2542	-1.4958	-1.7854	-2.1458	-1.6375	-2.0833	-2.0687	-1.4333	-2.4479	-1.7854	-1.775	-2.4917	-1.3417	-2.1042	78.626	83.042	125.204	-80.754	88.641	-71.072	83.051	101.589	67.747	-68.005	120.807	132.494	126.757	178.298	17.022	118.064	0.00066899	0.00088962	0.00011031	1017.9	2.0824e-05	1.7741e-05	1522	330.49	1.8836e-05	8.7766e-06	637.66	272.45	137.31	59.003	2.0222e-05	125.88	0.0043081	0.0046788	0.0012878	996.72	5.0297e-05	5.1231e-05	1406.6	313.5	5.0826e-05	5.1502e-05	612.25	252.62	137.02	56.922	5.0709e-05	115.32	-139.638	-106.117	117.902	-134.113	-4.621	45.568	-134.310	-128.911	-50.316	-68.806	-129.591	-125.619	-124.553	-119.726	-134.872	-121.812	-8191	255	
28649.176	1	1	0	0	0.070867	0.015925	0.1254	0.30765	0.12413	0.15839	0.29335	0.30276	0.10547	0.074766	0.2185	0.21421	0.34361	0.24905	0.17248	0.3597	-1.7854	-1.3125	-2.2833	-1.7229	-1.5292	-2.2938	-1.6729	-2.0104	-2.1604	-1.3896	-2.3333	-2.0417	-1.675	-2.3438	-1.6917	-2	39.776	187.617	202.876	89.423	198.932	181.910	103.883	204.649	134.132	-129.308	171.354	-129.959	200.461	43.290	137.374	152.776	0.00069561	0.00063705	0.00053264	1016	1.2556e-05	4.0629e-05	1538.2	334.27	1.1821e-05	5.0794e-06	647.27	274.25	138.26	59.813	1.3927e-05	126.83	0.0043102	0.0046052	0.001268	996.1	4.9181e-05	4.9876e-05	1410	316.31	4.8664e-05	4.9205e-05	611.94	253.24	136.96	56.927	4.8984e-05	115.13	-129.581	-3.358	-42.925	-134.236	-5.876	-24.164	-134.356	-128.539	-132.184	119.997	-128.925	-125.446	-125.062	-119.940	77.072	-121.590	-8191	255	
28649.297	1	1	0	0	0.16954	0.1421	0.067461	0.12741	0.20614	0.21931	0.39832	0.15037	0.12557	0.19521	0.1713	0.18257	0.20401	0.26339	0.27144	0.12035	-1.7375	-1.4937	-2.1	-1.8937	-1.4292	-2.2625	-1.8104	-1.7208	-2.3812	-1.3375	-2.1396	-2.1625	-1.4104	-2.1	-1.6271	-1.9104	155.148	-21.894	193.162	136.850	-64.754	-115.646	146.329	140.709	-89.842	163.332	178.057	165.454	195.358	165.511	80.997	84.909	0.00080986	0.0012509	0.00035481	1015.6	1.2691e-05	2.4001e-05	1537.1	331.76	2.4911e-05	1.9836e-05	638.86	272.23	135.56	59.42	1.2247e-05	123.98	0.0041265	0.0044604	0.0012339	991.5	4.8313e-05	4.8615e-05	1409.6	313.81	4.8526e-05	4.8817e-05	609.56	251.11	136.01	56.631	5.0415e-05	114.25	-138.523	189.202	-93.198	-134.575	-62.032	-16.113	-134.486	-128.990	-37.367	100.029	-129.061	-125.601	-125.243	-120.031	-71.167	-121.417	-8191	255	
28649.393	1	1	0	0	0.27438	0.27785	0.17197	0.25711	0.38341	0.18582	0.35502	0.13258	0.062208	0.14491	0.18022	0.13385	0.27598	0.19933	0.25547	0.28997	-1.8542	-1.2896	-1.9271	-2.1396	-1.2333	-2.1458	-1.9979	-1.7708	-2.1	-1.5354	-2.0542	-2.3542	-1.5021	-2.3604	-1.8563	-1.65	36.231	56.236	63.557	-129.835	188.705	-48.734	162.920	146.083	2.131	-40.304	160.826	177.096	157.267	203.129	-80.231	176.424	0.00085441	0.0029616	0.00054477	1018.4	5.7696e-06	8.6683e-06	1528.4	328.06	1.8358e-05	2.1066e-05	632.25	270.65	135.02	58.971	1.9127e-05	123.93	0.0042377	0.0046059	0.0012816	996.01	5.0448e-05	5.1085e-05	1404.4	313.04	5.076e-05	5.1335e-05	607.56	250.6	135.93	56.504	5.1037e-05	113.96	-128.120	-55.390	-13.909	-134.661	98.566	-94.508	-134.197	-128.868	20.208	-68.484	-129.486	-125.574	-125.166	-119.710	14.794	-121.386	-8191	255	
28649.488	1	1	0	0	0.081343	0.22103	0.43732	0.3029	0.19633	0.14525	0.14818	0.14638	0.23535	0.10099	0.30851	0.26864	0.13105	0.23096	0.37164	0.31524	-1.8062	-1.4729	-1.6125	-2.0062	-1.3479	-1.9667	-1.8312	-1.5042	-2.2271	-1.6	-1.8042	-2.35	-1.4521	-2.1063	-1.9333	-1.5104	-126.345	210.341	151.233	-147.084	108.696	35.358	55.156	-105.350	-27.412	54.789	178.741	112.723	170.186	-123.928	148.098	192.918	0.00088137	0.0012162	0.00041914	1016.9	1.6876e-05	1.8592e-05	1523.4	327.46	1.1498e-05	3.9403e-05	641.86	270.58	135.57	59.033	3.0836e-05	125.45	0.0041502	0.0046058	0.0012745	993.88	5.0034e-05	4.9879e-05	1404.7	312.83	4.9073e-05	5.0996e-05	610.24	251.01	136.26	56.68	5.0262e-05	115.17	-134.191	207.525	-107.158	-134.654	-12.076	-119.915	-134.288	-129.119	202.410	14.146	-129.348	-125.590	-124.689	-119.952	192.844	-121.843	-8191	255	
28649.561	1	1	0	0	0.27349	0.066882	0.19548	0.34073	0.095292	0.068524	0.15959	0.2182	0.061734	0.4357	0.34611	0.3515	0.039901	0.24336	0.19857	0.06186	-1.8813	-1.3375	-1.3958	-2.2646	-1.4042	-2.0062	-2.0438	-1.5021	-2.2521	-1.6708	-1.7083	-2.3542	-1.6354	-2.1042	-1.9312	-1.7875	106.167	-42.198	172.864	162.691	-8.561	-38.051	109.860	128.532	156.303	-140.648	194.972	206.238	144.742	208.159	-138.111	140.481	0.00069018	0.0021184	0.00020876	1027.4	7.267e-06	3.7164e-05	1534.5	330.2	6.2393e-06	1.9718e-05	642.9	272.71	136.83	59.583	1.3935e-05	125.98	0.0041145	0.0045641	0.0012428	998.06	4.8337e-05	4.8661e-05	1410.8	314.03	4.7239e-05	4.9009e-05	610.28	251.88	136.51	56.929	4.8773e-05	115.2	210.586	205.624	-16.831	-134.470	50.408	-46.539	-134.493	-128.681	-11.052	16.947	-129.127	-125.788	-125.154	-120.096	61.759	-121.664	-8191	255	
28649.682	1	1	0	0	0.041604	0.35543	0.19794	0.12054	0.013488	0.1538	0.2166	0.26772	0.23512	0.17328	0.30348	0.25336	0.1694	0.1168	0.13787	0.27864	-1.7146	-1.8125	-1.3917	-2.2438	-1.5333	-1.5833	-2.2729	-1.5708	-2.0521	-1.925	-1.6667	-2.3396	-1.5146	-1.6333	-2.2188	-1.6833	201.268	-118.931	-26.963	172.227	179.462	48.223	164.849	207.668	-14.056	84.853	184.202	168.406	-63.378	122.019	66.182	152.266	0.00098574	0.0017741	0.00087397	1031.3	1.3725e-05	2.3654e-05	1518.8	330.49	2.1774e-05	9.6841e-06	635.94	269.47	134.81	59.196	2.0008e-05	124.09	0.0040199	0.0044912	0.0012446	991.84	4.8639e-05	4.8987e-05	1398.6	313.29	4.8724e-05	5.0821e-05	606.61	249.03	135.77	56.555	5.076e-05	113.93	-144.062	53.865	-3.990	-134.660	-52.212	42.587	-134.268	-129.309	-53.709	201.807	-129.180	-125.679	-125.472	-119.665	-9.420	-121.451	-8191	255	
28649.777	1	1	0	0	0.2496	0.17864	0.093463	0.24687	0.01952	0.1012	0.4154	0.32732	0.16165	0.32908	0.10279	0.047678	0.13861	0.29041	0.22934	0.44903	-1.6187	-2.0458	-1.4333	-2.2271	-1.6437	-1.6917	-2.4125	-1.5229	-1.9583	-2.0521	-1.575	-2.4	-1.8208	-1.7625	-2.1312	-1.7167	147.994	-127.530	135.706	190.503	-17.240	-77.408	203.948	146.164	95.085	112.164	-0.480	206.289	-128.951	208.157	16.770	184.157	0.00081566	0.0016197	0.00032614	1015.9	4.3385e-06	5.2332e-06	1516.2	325.21	1.428e-05	4.6121e-05	630.17	268.03	133.49	58.745	8.2916e-06	123.66	0.0042372	0.0047342	0.0012951	989.42	5.0903e-05	5.0894e-05	1393.7	310.1	4.9959e-05	5.1978e-05	602.14	248.31	134.92	56.401	5.0017e-05	113.23	-143.671	-25.951	-31.205	-133.928	50.526	-124.667	-134.582	-128.705	-37.071	45.361	-129.073	-125.587	-125.117	-120.279	-50.850	-121.705	-8191	255	
28649.873	1	1	0	0	0.19234	0.13906	0.11553	0.17979	0.17452	0.18193	0.25255	0.54591	0.12141	0.17118	0.073178	0.13382	0.32295	0.31177	0.15089	0.37471	-1.6833	-2.1813	-1.5271	-2.3479	-1.8146	-1.4146	-2.4292	-1.6458	-1.9417	-2.0729	-1.3583	-2.6063	-1.9833	-1.4813	-2.3604	-1.8958	-39.720	206.404	10.747	192.111	198.543	108.480	154.635	164.450	-50.476	165.386	33.276	-119.542	170.999	143.246	-82.401	139.940	0.00050864	0.00042272	0.00049074	1010.1	2.5716e-06	1.8015e-05	1514.4	325.01	1.6234e-05	7.4992e-06	634.83	269.86	135.28	58.389	1.3935e-05	124.28	0.0041942	0.0046877	0.0012827	986.25	5.0589e-05	5.0561e-05	1395	309.73	4.9545e-05	5.1097e-05	604.19	248.36	135.17	56.277	4.9439e-05	113.96	-143.430	33.869	-28.258	-134.649	191.731	52.145	-134.453	-129.006	40.945	18.098	-129.321	-125.702	-125.110	-119.879	128.970	-121.925	-8191	255	
28649.969	1	1	0	0	0.084877	0.09574	0.1229	0.18067	0.23712	0.22733	0.46999	0.15155	0.37229	0.076179	0.19513	0.17661	0.080894	0.25599	0.13969	0.40869	-1.5458	-2.275	-1.4104	-2.1188	-1.9917	-1.575	-2.5833	-1.7604	-1.6	-2.2042	-1.6021	-2.2125	-2.1375	-1.5542	-2.0812	-1.8062	-104.043	139.154	119.466	197.799	42.013	11.892	160.079	85.973	-131.085	33.876	-120.640	149.176	176.298	147.267	160.016	122.258	0.00081972	0.00059577	0.00011295	1012.9	1.1531e-05	6.7505e-07	1510.1	323.75	1.6927e-05	1.7169e-05	627.32	267.44	134.18	58.603	1.5816e-05	122.73	0.0040798	0.0045855	0.0012627	983.8	4.972e-05	5.0219e-05	1395.7	310.12	4.8447e-05	4.9924e-05	602.2	247.71	134.45	55.93	4.8676e-05	112.65	-135.338	-46.160	165.030	-134.394	48.897	179.404	-134.267	-128.997	-46.621	-42.315	-130.228	-125.399	-124.946	-119.810	37.630	-121.781	-8191	255	
28650.088	1	1	0	0	0.08422	0.093681	0.20955	0.10817	0.094162	0.31552	0.26086	0.2232	0.11984	0.19148	0.28679	0.36944	0.29112	0.20645	0.1896	0.51431	-1.1458	-2.2604	-1.3958	-1.9688	-2.0979	-1.4312	-2.2917	-1.8854	-1.5833	-2.4604	-1.6812	-2.0687	-2.1167	-1.4458	-2.1604	-1.8167	116.335	73.255	34.665	145.977	117.753	44.714	164.163	90.577	95.311	-26.272	100.827	191.311	202.038	143.162	70.193	194.333	0.00077116	0.0019655	0.00036892	1007.1	1.2392e-05	1.7584e-05	1501.1	319.65	1.8341e-05	1.5433e-05	627	263.26	132.39	57.736	2.4689e-06	120.99	0.0041217	0.0045236	0.001251	979.14	4.9865e-05	5.0367e-05	1384.3	306.44	4.9748e-05	5.0074e-05	598.28	244	133.19	55.339	4.8397e-05	111.48	-139.934	6.428	-44.019	-134.417	-14.871	-26.270	-134.427	-129.184	-127.573	107.516	-129.847	-125.758	-124.987	-119.803	60.553	-121.634	-8191	255	
28650.184	1	1	0	0	0.31868	0.20193	0.2995	0.25515	0.053916	0.17448	0.24847	0.0092459	0.25083	0.19342	0.34013	0.31656	0.23982	0.10769	0.1455	0.31388	-1.0604	-2.0938	-1.5458	-1.9479	-2.1604	-1.3771	-2.3396	-1.8438	-1.6458	-2.0604	-1.8125	-1.8333	-2.4396	-1.6625	-2.1333	-2.2562	-75.965	-101.121	90.836	152.851	126.817	6.863	151.496	-31.648	199.909	9.210	159.857	194.224	-139.636	53.609	-90.087	105.939	0.00062532	0.0022118	0.00092139	1000.4	2.8958e-06	1.8979e-05	1492.9	319.02	1.2236e-05	2.4674e-05	624.1	265.55	131.67	57.397	8.0092e-06	120.67	0.0041477	0.0045441	0.0012886	976.69	5.0794e-05	5.0545e-05	1376.5	305.11	4.891e-05	4.8845e-05	594.68	244.88	132.16	55.173	4.7374e-05	111.37	207.662	-121.473	-51.481	-134.578	85.319	93.201	-134.512	-129.377	71.910	8.328	-129.532	-125.726	-125.473	-120.125	-78.516	-122.006	-8191	255	
28650.258	1	1	0	0	0.090581	0.16743	0.089426	0.21625	0.16836	0.26041	0.26798	0.17791	0.3377	0.11876	0.16932	0.16695	0.32217	0.16728	0.28069	0.35126	-0.99167	-2.0167	-1.4958	-1.8417	-2.1896	-1.4188	-2.2542	-2.0833	-1.6271	-2.1813	-1.8125	-1.7812	-2.4062	-1.5979	-1.6771	-2.2062	9.006	-101.749	-35.624	175.802	87.221	86.282	-146.332	154.528	51.083	117.263	92.390	-114.387	-108.693	137.252	179.955	113.310	0.00086739	0.0011902	0.00093265	998.65	1.8626e-05	1.3284e-05	1498.6	323.12	2.0599e-05	1.505e-05	623	267.43	132.18	57.942	9.0092e-06	123.3	0.004077	0.0045016	0.0012794	976.73	4.9626e-05	5.0536e-05	1384	307.44	5.0043e-05	5.0404e-05	599.45	246.48	133.61	55.783	4.963e-05	112.66	201.713	-23.969	-39.001	-134.652	-19.666	23.753	-134.353	-129.372	-36.676	196.635	-129.988	-125.688	-125.839	-120.015	185.515	-121.815	-8191	255	
28650.377	1	1	0	0	0.1439	0.17382	0.17455	0.22483	0.33231	0.057464	0.081332	0.15924	0.064304	0.38296	0.50033	0.40363	0.045372	0.18713	0.061705	0.23076	-1.0063	-2.1188	-1.6417	-1.4646	-2.225	-1.4167	-1.8438	-2.1562	-1.2708	-2.0812	-1.8667	-1.6542	-2.3854	-1.6604	-1.7229	-2.3417	188.519	191.315	103.305	169.508	-124.957	-115.285	78.113	-139.474	-133.843	-114.798	149.351	187.094	-3.260	-110.494	12.241	140.706	0.00060293	0.00078775	0.00019797	1004.3	1.0727e-05	2.3528e-05	1520.8	326.02	3.646e-06	5.0862e-06	628.71	268.5	133.95	58.617	1.463e-05	123.49	0.0042237	0.0046074	0.0013116	988.07	5.0088e-05	5.1492e-05	1395.3	310.31	5.0579e-05	5.011e-05	606.49	249.16	134.72	56.404	4.9413e-05	113.47	-135.461	-28.444	-71.359	-134.283	-17.529	59.980	-134.323	-129.097	-70.322	-119.422	-129.731	-125.508	-125.055	-119.971	-71.582	-121.634	-8191	255	
28650.473	1	1	0	0	0.062386	0.15375	0.23183	0.40453	0.18162	0.14744	0.53936	0.14613	0.30476	0.1225	0.39092	0.20111	0.17139	0.38208	0.10838	0.11283	-0.79583	-2.0604	-1.9792	-1.4813	-2.3167	-1.625	-2.0646	-2.3396	-1.2146	-2.1292	-1.9562	-1.4792	-2.2229	-1.6417	-1.5958	-2.3583	191.224	-14.275	166.056	-124.780	141.268	-117.037	182.482	39.421	36.776	-58.272	157.820	-115.399	78.492	185.581	-127.493	203.336	0.0005366	0.0015406	0.00011644	1012.1	2.7662e-05	1.6093e-05	1519.9	329.94	3.0643e-06	1.0132e-05	629.46	267.76	135.7	58.363	1.6407e-05	123.77	0.0041751	0.004528	0.0012722	984.57	4.8722e-05	5.0326e-05	1395	310.34	4.8159e-05	4.8143e-05	601.72	247.25	134.55	56.08	4.7923e-05	112.85	-136.564	-3.846	-129.953	-134.483	47.727	44.699	-134.099	-129.118	112.725	-36.437	-129.844	-125.580	-125.229	-119.756	-82.323	-121.861	-8191	255	
28650.568	1	1	0	0	0.25808	0.17713	0.20618	0.1343	0.11335	0.20629	0.30893	0.41047	0.31621	0.17224	0.094088	0.10818	0.11284	0.25545	0.095653	0.24494	-1.0417	-1.9396	-1.9125	-1.35	-2.2625	-1.7938	-1.7625	-2.3312	-1.4104	-1.8979	-2.2354	-1.2771	-2.1875	-1.9875	-1.4729	-2.3563	198.515	207.054	-111.072	164.280	-129.255	-54.833	192.570	126.415	-139.309	-101.817	-3.692	-141.998	-8.443	-130.381	202.981	194.118	0.00068072	0.00037595	0.00047791	1004.9	2.9783e-05	4.6333e-06	1522.3	327.47	3.3884e-06	5.7958e-06	639.88	269.31	135.8	58.894	8.1306e-06	122.26	0.0039746	0.0043354	0.0012326	976.53	4.5874e-05	4.8019e-05	1386.9	309.25	4.6876e-05	4.6577e-05	602.58	247.15	134.26	55.974	4.6647e-05	112.26	-136.731	-107.881	-76.917	-133.971	23.993	-89.796	-134.265	-128.786	45.334	41.794	-129.423	-126.009	-125.152	-119.754	88.444	-121.553	-8191	255	
28650.689	1	1	0	0	0.23163	0.2314	0.37823	0.058009	0.18094	0.23935	0.29297	0.2575	0.052094	0.1922	0.21456	0.40658	0.22538	0.43983	0.13312	0.29455	-1.0583	-1.7563	-2.1917	-1.5333	-2.2	-1.9583	-1.5708	-2.2958	-1.4458	-1.5396	-2.2687	-1.5083	-2.2583	-1.9813	-1.2042	-2.55	196.436	-117.911	121.786	72.770	45.493	-107.357	75.062	207.587	194.896	-88.656	-96.904	206.649	-102.984	172.777	107.049	133.140	0.00092355	0.0018428	0.00033966	1011.6	7.923e-06	1.1592e-05	1517.9	327.65	1.0955e-05	1.3458e-05	635.21	268.48	134.82	59.244	1.4862e-05	123.74	0.0039928	0.0043441	0.0012161	978.35	4.6234e-05	4.8317e-05	1393.9	308.85	4.7689e-05	4.7639e-05	602.2	247.93	134.15	56.363	4.7323e-05	113.18	208.447	-116.347	-55.514	-134.145	37.033	-11.765	-134.100	-128.833	153.817	95.045	-129.655	-125.470	-124.939	-119.786	0.468	-121.559	-8191	255	
28650.785	1	1	0	0	0.11329	0.10667	0.19405	0.0074067	0.039722	0.26521	0.12156	0.32906	0.20642	0.30454	0.24914	0.065366	0.18297	0.21114	0.1334	0.47266	-1.1833	-1.6479	-2.025	-1.3625	-1.7896	-2.0708	-1.7292	-2.3292	-1.5417	-1.5958	-2.3458	-1.6958	-2.0583	-1.9833	-1.3687	-2.3646	-81.816	13.406	141.565	35.791	210.802	-5.903	-129.499	178.214	2.683	187.085	173.197	120.076	181.619	210.242	89.936	163.104	0.00056007	0.003127	0.00037621	1020.9	1.486e-06	2.9171e-05	1533.7	328.98	8.9687e-06	2.7073e-05	642.9	269.3	137.61	59.894	1.4528e-05	124.83	0.0040199	0.0043358	0.0012208	984.34	4.6564e-05	4.8261e-05	1402.1	311.29	4.7625e-05	4.7612e-05	605.16	249.49	135.66	56.954	4.6972e-05	114.13	-145.346	-75.250	-71.642	-134.392	4.941	-60.439	-134.603	-128.758	77.177	76.211	-129.599	-125.493	-125.198	-120.103	126.381	-121.964	-8191	255	
28650.857	1	1	0	0	0.11672	0.2127	0.23008	0.4823	0.31107	0.36543	0.15049	0.38072	0.21759	0.22448	0.13703	0.15698	0.35269	0.21491	0.098991	0.11737	-1.2563	-1.4625	-2.1875	-1.5375	-1.8188	-2.1354	-1.5771	-2.3771	-1.7208	-1.2854	-2.3667	-1.7896	-1.9021	-2.3042	-1.4958	-2.2646	170.181	135.537	35.920	-139.585	-71.143	-19.714	167.168	212.992	135.817	71.116	-61.361	207.620	154.871	-106.253	-69.890	155.656	0.00080788	0.0010504	0.00061105	1023.2	2.143e-05	2.9842e-05	1526.9	330.57	3.552e-06	2.0601e-05	641.06	271.87	138.25	60.603	2.8382e-05	125.47	0.0040039	0.0042975	0.0011881	980.69	4.514e-05	4.6104e-05	1394.1	310.13	4.4927e-05	4.4877e-05	601.73	248.46	134.74	56.948	4.2866e-05	113.5	-128.560	25.592	72.107	-134.361	-37.998	28.357	-134.274	-128.790	109.961	92.602	-129.434	-125.365	-124.859	-119.951	23.352	-121.571	-8191	255	
28650.979	1	1	0	0	0.092009	0.11738	0.24638	0.15869	0.085026	0.21154	0.29603	0.26706	0.28149	0.059421	0.28458	0.18139	0.11711	0.19289	0.13879	0.44719	-1.3646	-1.3937	-2.1542	-1.3958	-1.5396	-2.1417	-1.5229	-2.225	-1.975	-1.3937	-2.375	-1.9813	-1.7146	-2.4042	-1.5479	-2.1312	60.637	185.601	210.888	190.281	-39.735	179.257	144.971	181.952	69.809	-72.475	89.178	161.873	20.816	-129.493	32.289	189.699	0.00073227	0.0013302	0.00060122	1013.7	4.6047e-06	1.0617e-05	1525.5	333.46	1.4771e-05	1.9047e-05	643	274.08	138.81	61.25	1.0562e-05	126.56	0.0036229	0.0038414	0.0010466	961.76	4.032e-05	4.1255e-05	1381.9	306.69	3.9892e-05	3.9413e-05	595.32	247.88	133.29	56.779	3.9491e-05	113.34	193.163	28.336	-46.581	-134.365	111.646	151.027	-134.039	-129.095	-71.791	34.485	-129.389	-125.814	-125.555	-119.653	84.907	-121.812	-8191	255	
28651.072	1	1	0	0	0.12699	0.097264	0.24939	0.24986	0.077759	0.2699	0.34726	0.14063	0.13152	0.050172	0.13976	0.26673	0.068421	0.22095	0.17718	0.34678	-1.6979	-1.1938	-1.9917	-1.8854	-1.6104	-2.1333	-1.5979	-2.0521	-2.05	-1.2188	-2.1708	-1.9708	-1.4708	-2.3083	-1.4854	-1.9083	148.931	190.653	-45.449	175.479	179.400	20.412	144.686	-145.922	-12.182	107.283	-95.670	147.960	123.858	206.570	-87.502	164.046	0.00073529	0.00041088	0.00036018	1011.4	7.7606e-06	2.4136e-05	1533.7	330.37	1.7186e-05	3.0702e-05	648.53	276.63	139.38	61.57	1.5862e-05	127.29	0.0033022	0.0036138	0.00098842	955.46	3.7861e-05	3.8964e-05	1376.1	305.37	3.8133e-05	3.819e-05	595.56	249.01	133.53	56.618	3.7617e-05	113.76	-141.645	-128.513	10.879	-134.668	20.205	-1.660	-134.397	-129.033	68.122	30.224	-129.747	-125.898	-125.468	-120.522	16.665	-122.023	-8191	255	
28651.170	1	1	0	0	0.15315	0.05729	0.062223	0.18195	0.22203	0.19547	0.31776	0.32909	0.18239	0.16823	0.048954	0.11717	0.078981	0.25103	0.090404	0.1176	-1.6958	-1.5896	-2.1146	-2.0187	-1.3979	-2.1729	-1.9271	-1.8729	-2.1708	-1.2917	-2.3187	-2.0104	-1.3021	-2.2854	-1.5542	-1.8354	165.693	-17.469	107.184	205.143	193.489	-3.928	144.962	181.223	75.573	109.169	32.383	71.151	128.959	-145.449	78.665	164.505	0.0007182	0.0019333	0.0004436	1023.7	1.6655e-05	5.2382e-06	1558.3	336.11	1.3666e-05	1.6174e-05	657.15	279.58	141.44	61.571	8.987e-06	126.34	0.0032015	0.0034341	0.00094379	959.38	3.7016e-05	3.761e-05	1395.4	308.75	3.6974e-05	3.7059e-05	602.12	251.4	134.73	56.593	3.7038e-05	113	-123.532	-46.802	-49.941	-134.852	149.943	-42.666	-134.728	-129.496	67.386	91.590	-129.446	-126.342	-125.524	-120.412	205.201	-121.951	-8191	255	
28651.266	1	1	0	0	0.25167	0.3422	0.28097	0.23131	0.16566	0.079111	0.011411	0.20417	0.025857	0.23628	0.33529	0.33443	0.22005	0.20115	0.15825	0.1542	-1.7729	-1.3062	-1.925	-2.1375	-1.3292	-2.0667	-1.9125	-1.725	-2.3542	-1.4583	-2.1542	-2.0958	-1.4625	-2.2438	-1.7854	-1.6521	89.082	-40.412	-146.354	-87.181	15.185	115.917	32.211	160.656	-121.197	-41.172	132.569	179.264	129.719	-140.635	152.568	114.062	0.00049191	0.00094011	0.00074018	1022	9.9647e-06	8.2903e-06	1565.5	337.61	4.0291e-06	2.267e-05	656.97	276.74	140.35	60.447	2.5481e-05	123.83	0.0031436	0.0034328	0.00094734	964.89	3.693e-05	3.7113e-05	1401.9	309.73	3.6927e-05	3.7721e-05	601.81	249.18	133.99	56.021	3.7752e-05	111.37	-133.483	-52.507	-91.457	-134.646	32.725	141.230	-134.647	-129.023	29.615	52.135	-129.907	-126.153	-125.675	-120.423	-24.332	-121.934	-8191	255	
28651.385	1	1	0	0	0.15175	0.16398	0.14361	0.24843	0.19388	0.15702	0.37328	0.24835	0.30304	0.1397	0.53464	0.2936	0.21028	0.19353	0.17641	0.39923	-1.7458	-1.425	-1.6833	-2.1333	-1.3708	-2.0125	-2.0854	-1.6125	-2.2812	-1.5562	-1.8771	-2.4333	-1.3375	-2.2333	-2.0208	-1.7125	126.015	168.000	17.808	148.841	84.882	112.693	137.468	176.950	96.993	46.527	140.667	145.026	171.228	100.926	-50.427	162.190	0.00095896	0.0018494	0.00037724	1027.3	1.9843e-05	9.8672e-06	1549	336.59	9.3225e-06	1.7227e-05	650.9	277.64	141.05	61.684	9.3449e-06	125.6	0.0031124	0.0034429	0.00091847	955.8	3.5767e-05	3.582e-05	1386.6	307.36	3.5097e-05	3.5582e-05	595.99	249	133.14	56.237	3.4745e-05	111.93	-147.254	-93.151	193.908	-134.551	173.988	156.485	-134.868	-129.321	106.853	157.655	-130.093	-126.040	-125.469	-120.140	-9.243	-122.144	-8191	255	
28651.457	1	1	0	0	0.22198	0.27121	0.2687	0.2702	0.16698	0.024979	0.34872	0.32762	0.10205	0.19735	0.03539	0.17389	0.26555	0.015088	0.13227	0.36588	-1.7354	-1.6208	-1.5875	-2.2583	-1.3271	-1.8563	-2.2854	-1.4625	-2.1979	-1.6146	-1.8958	-2.4479	-1.675	-2.0792	-1.9375	-1.6958	-56.079	-41.945	39.385	199.758	-110.748	67.858	144.172	157.551	70.454	157.577	-146.454	100.856	198.897	107.247	203.890	174.656	0.00069378	0.0010222	0.00027603	1027.7	2.6025e-05	1.8957e-05	1560	337.53	8.2514e-06	1.1092e-05	651.39	279.72	142.4	62.058	3.8577e-06	127.46	0.0028487	0.0031352	0.00086314	951.84	3.3778e-05	3.3417e-05	1389.3	306.22	3.3177e-05	3.3773e-05	596.08	249.95	133.43	56.508	3.3998e-05	113.15	-146.528	-60.711	16.703	-134.901	-38.625	-7.898	-134.862	-129.186	-82.095	-34.460	-130.046	-126.048	-125.696	-119.802	-15.642	-122.092	-8191	255	
28651.553	1	1	0	0	0.28185	0.090214	0.25271	0.23739	0.11866	0.082674	0.22697	0.1596	0.15068	0.21254	0.13794	0.2658	0.11494	0.28137	0.11849	0.53146	-1.8813	-1.5396	-1.3021	-2.4833	-1.5063	-1.8625	-2.2375	-1.6625	-2.1063	-1.7208	-1.3687	-2.425	-1.5938	-1.9062	-2.0479	-1.5792	149.827	18.989	71.114	77.993	94.442	-35.912	206.134	164.469	124.219	-108.695	175.078	158.995	-133.211	177.184	136.247	191.808	0.00086267	0.0012789	0.00041669	1030.6	2.3107e-05	1.9869e-05	1579.5	339.88	1.1158e-05	9.7772e-06	664.09	283.82	144.47	62.508	1.473e-05	128.31	0.0027952	0.0030696	0.00085913	953.84	3.2919e-05	3.2927e-05	1398.7	309.23	3.1866e-05	3.3657e-05	603.33	252.7	135.08	57.061	3.3587e-05	114.41	-140.832	-19.810	-48.525	-135.127	39.407	20.686	-134.795	-129.441	-106.870	59.763	-129.752	-125.960	-125.848	-120.140	203.653	-122.258	-8191	255	
28651.648	1	1	0	0	0.16723	0.14005	0.37553	0.19518	0.092705	0.1249	0.25919	0.091169	0.19778	0.088978	0.1899	0.44627	0.13246	0.17976	0.17647	0.23087	-2.0125	-1.9396	-1.4896	-2.4958	-1.5354	-1.7938	-2.4542	-1.5417	-2.1542	-2.1583	-1.6646	-2.4292	-1.7833	-2.0208	-2.1562	-1.6812	-135.609	180.885	-146.936	115.399	-81.056	50.365	151.512	188.535	-96.970	52.801	85.247	196.948	-0.371	173.735	145.439	171.878	0.00056051	0.0017327	9.0616e-05	1040.3	1.4273e-05	2.1348e-05	1571.8	341.33	2.1026e-06	2.5839e-05	659.02	279.35	142.59	62.343	1.1811e-05	127.36	0.0028334	0.0031416	0.00087882	958.61	3.4624e-05	3.49e-05	1404.3	310.74	3.4429e-05	3.5584e-05	602.62	251.02	134.87	57.115	3.487e-05	113.23	210.570	-8.558	192.698	-133.921	165.034	68.087	-134.003	-129.110	84.916	-46.625	-129.720	-125.980	-125.857	-120.372	-73.894	-122.328	-8191	255	
28651.770	1	1	0	0	0.13975	0.25204	0.18139	0.058105	0.12984	0.070074	0.092002	0.30006	0.18052	0.18406	0.36467	0.2958	0.376	0.34919	0.11159	0.19668	-1.4062	-1.9458	-1.5875	-2.15	-1.9271	-1.5187	-2.5542	-1.7146	-1.8896	-2.2812	-1.6375	-2.3688	-1.9062	-1.6583	-2.2917	-1.7313	-73.210	-118.565	-102.632	176.032	-123.971	4.944	158.951	180.659	8.636	126.580	182.303	192.187	204.864	164.865	164.432	182.224	0.00071019	0.0019706	0.00016222	1039.8	5.1026e-06	3.1468e-06	1565.7	337.52	1.9723e-05	1.1485e-05	657.25	279.79	141.06	61.909	1.8826e-05	125.02	0.0028984	0.0032241	0.00088196	956.26	3.4279e-05	3.4962e-05	1394.4	308.81	3.3893e-05	3.5232e-05	598.97	249.81	134.05	56.602	3.4364e-05	112.13	-134.619	36.566	36.871	-134.829	63.436	147.897	-134.345	-129.238	-54.145	67.658	-129.709	-126.048	-125.669	-120.547	-19.149	-122.120	-8191	255	
28651.865	1	1	0	0	0.25548	0.15232	0.1127	0.26678	0.4142	0.2649	0.14512	0.20154	0.15807	0.19073	0.2751	0.067279	0.21223	0.17307	0.30777	0.21963	-1.3708	-2.1625	-1.4958	-2.2875	-1.7396	-1.4458	-2.4896	-1.6583	-1.7417	-2.2042	-1.5208	-2.2438	-1.7479	-1.3667	-2.3229	-2.0729	-11.301	-134.761	-57.695	183.265	-93.853	-123.847	62.375	142.462	-25.698	16.587	185.429	176.760	141.679	-109.536	-144.201	195.450	0.00072805	0.00091379	0.00018568	1026.1	2.5516e-05	1.1059e-05	1556.7	337.04	6.7919e-06	5.1425e-06	657.62	278.53	140.95	61.96	2.0938e-05	126.01	0.0029142	0.0031963	0.00088616	949.76	3.4563e-05	3.4697e-05	1387.6	307.66	3.3974e-05	3.4705e-05	597.44	249.23	133.48	56.401	3.3617e-05	112.26	-142.781	-37.601	-32.763	-134.214	-16.645	-51.342	-134.676	-129.548	45.413	54.499	-129.434	-125.594	-125.747	-120.378	158.716	-122.183	-8191	255	
28651.961	1	1	0	0	0.14817	0.15847	0.07987	0.07652	0.048384	0.12324	0.29768	0.20275	0.1628	0.27362	0.45757	0.4197	0.048676	0.37023	0.11464	0.22639	-1.3042	-2.2521	-1.4583	-2.1229	-1.975	-1.6479	-2.5729	-1.8375	-1.6646	-2.4	-1.6	-1.9167	-2.2708	-1.5875	-2.2729	-1.8917	27.827	201.909	212.198	-68.270	70.157	-123.009	-145.951	-127.185	210.201	-46.860	150.161	158.033	-141.020	210.342	82.850	162.452	0.00085538	0.0027756	0.00018622	1031.6	7.8714e-06	1.8424e-05	1577.5	338.76	1.1598e-05	2.1718e-05	662.04	281.88	142.58	62.454	1.922e-05	128.59	0.0028738	0.0031465	0.00087455	953.41	3.4396e-05	3.4112e-05	1398.3	308.51	3.341e-05	3.4178e-05	603.15	251.16	134.36	56.981	3.343e-05	114.12	-131.591	-110.508	65.696	-134.656	-50.441	78.447	-134.491	-129.369	85.201	5.782	-129.412	-126.050	-125.444	-120.437	184.596	-122.036	-8191	255	
28652.059	1	1	0	0	0.1353	0.18413	0.1092	0.19739	0.092764	0.060811	0.32544	0.28521	0.26948	0.095089	0.10578	0.34582	0.079852	0.1665	0.062274	0.3976	-0.99792	-2.2417	-1.4542	-1.9396	-1.9583	-1.3458	-2.3458	-2.0354	-1.5396	-2.2396	-1.6729	-1.9958	-2.3167	-1.5167	-2.1188	-2.0667	-129.993	-125.371	-138.329	152.720	20.476	-140.202	148.663	211.634	-107.688	-64.439	195.158	159.922	-139.673	-146.451	110.601	115.309	0.00086416	0.0014518	0.00016269	1045.1	1.2697e-05	2.4829e-05	1582	342.21	1.5525e-05	1.6954e-05	664.62	282.1	143.4	62.242	1.9462e-05	127.39	0.0029011	0.0031056	0.00087326	964.33	3.4062e-05	3.4105e-05	1410.2	311.8	3.4212e-05	3.4227e-05	604.99	252.09	134.98	57.007	3.3921e-05	113.22	-140.834	-83.123	-26.000	-134.735	33.851	-79.897	-134.293	-129.297	209.491	105.277	-130.008	-126.097	-125.414	-119.781	0.577	-122.349	-8191	255	
28652.152	1	1	0	0	0.22527	0.23244	0.23902	0.13077	0.078348	0.24472	0.37183	0.1907	0.046696	0.10288	0.075818	0.4682	0.17805	0.32755	0.11206	0.28777	-1.1667	-2.2375	-1.4896	-1.8875	-2.3396	-1.5479	-2.4292	-2.1958	-1.2938	-2.2479	-2	-1.7	-2.2812	-1.5771	-2.0167	-2.2771	188.765	159.114	143.038	160.811	-17.845	-23.645	118.007	159.912	142.032	-4.888	185.960	-134.473	179.348	140.615	101.835	170.903	0.00062517	0.0020008	0.00039257	1034.7	2.0944e-05	1.0478e-05	1566.8	338.44	8.4327e-06	2.4242e-05	658.58	276.44	141.89	61.88	1.3117e-05	126.06	0.0029297	0.0031573	0.00089612	958.91	3.487e-05	3.4858e-05	1394.5	308.99	3.4135e-05	3.4556e-05	599.63	248.31	133.76	56.533	3.4072e-05	112.21	-141.816	-134.963	147.425	-134.590	-56.713	-120.386	-134.418	-129.240	-99.572	30.927	-130.174	-125.918	-125.580	-120.113	8.176	-122.203	-8191	255	
28652.248	1	1	0	0	0.28496	0.13018	0.19576	0.43747	0.15095	0.12141	0.2409	0.43606	0.16068	0.065573	0.3375	0.39588	0.22604	0.26703	0.3265	0.13524	-1.1562	-2.3583	-1.6187	-1.7021	-2.3792	-1.3917	-2.0958	-2.2479	-1.4021	-2.3125	-1.9229	-1.7	-2.5542	-1.7542	-1.9354	-2.3667	-53.449	189.014	183.692	209.731	150.194	63.965	198.612	136.929	4.746	61.055	-137.234	173.443	212.068	100.490	140.913	135.196	0.00061203	0.0013257	0.00023108	1028.3	1.5569e-05	3.847e-05	1550.5	337.05	2.0639e-05	2.3658e-05	653.1	275.53	140.95	61.501	9.2041e-06	125.92	0.0029011	0.003157	0.00088955	955.2	3.4048e-05	3.4767e-05	1389.1	308.12	3.4156e-05	3.4323e-05	597.85	248.69	133.35	56.395	3.454e-05	112.4	-145.444	-83.621	-120.533	-134.145	154.088	-30.556	-134.261	-129.319	43.116	-28.024	-129.708	-126.245	-125.423	-120.212	133.893	-121.761	-8191	255	
28652.369	1	1	0	0	0.16163	0.060285	0.040271	0.11539	0.037897	0.051505	0.31908	0.076086	0.30121	0.0956	0.40461	0.28352	0.18649	0.30474	0.21043	0.20217	-1.1271	-2.2292	-1.9292	-1.7125	-2.2125	-1.5917	-1.9062	-2.5333	-1.3771	-2.1583	-2.0812	-1.5125	-2.3354	-1.5479	-1.7583	-2.3583	85.102	21.581	124.956	143.129	-5.875	-111.487	180.784	112.065	166.813	195.968	177.658	-128.351	-108.838	-94.493	161.598	94.554	0.00083959	0.0028424	0.000244	1032.3	9.8616e-06	1.4704e-05	1572.1	337.81	1.4803e-06	1.2764e-05	662.58	278.94	142.58	61.872	1.3055e-05	126.45	0.0029075	0.003134	0.00089585	952.59	3.3941e-05	3.5063e-05	1397.9	308.74	3.4192e-05	3.4388e-05	602.45	250.05	134.33	56.875	3.4842e-05	112.93	-140.961	-54.929	-41.161	-134.793	17.230	-4.450	-134.522	-129.132	-27.777	-49.757	-129.708	-125.784	-125.733	-120.066	3.316	-121.770	-8191	255	
28652.467	1	1	0	0	0.069665	0.20163	0.18173	0.3033	0.083809	0.09723	0.24802	0.25533	0.2432	0.11478	0.21829	0.38566	0.16472	0.14409	0.20254	0.21874	-0.98958	-2.1	-1.9542	-1.4312	-2.175	-1.6271	-2.0729	-2.3604	-1.3771	-2.0292	-2.3104	-1.4729	-2.4125	-1.8083	-1.525	-2.4146	169.483	-72.073	-139.948	154.563	47.837	-68.386	117.296	141.884	146.916	194.895	167.941	162.174	155.021	131.126	-145.562	-143.045	0.00092549	0.0010657	0.00023776	1045.4	1.2061e-05	1.4029e-05	1573.5	340.85	1.2971e-06	7.8977e-07	664.64	280.8	143.2	62.442	1.9489e-05	125.82	0.0029823	0.0031791	0.00091262	966.65	3.4459e-05	3.5396e-05	1406	311.96	3.474e-05	3.4652e-05	606.89	250.49	135.1	57.268	3.4827e-05	112.59	-140.254	-116.357	-24.662	-134.881	-16.249	-8.788	-134.453	-129.372	-128.408	-106.776	-129.736	-126.337	-125.277	-120.369	137.070	-121.973	-8191	255	
28652.562	1	1	0	0	0.028666	0.2178	0.32563	0.30575	0.10872	0.30594	0.42691	0.26415	0.16925	0.02719	0.14212	0.14513	0.081993	0.28487	0.29121	0.31991	-1.2146	-2.0729	-2.0938	-1.6021	-2.3042	-1.8771	-1.7167	-2.4458	-1.4333	-2	-2.1604	-1.7042	-2.0875	-2.1813	-1.4875	-2.4938	-135.750	175.618	15.532	191.620	-114.612	-116.146	147.523	210.258	142.967	-71.373	148.473	171.863	-18.239	208.090	-71.759	98.249	0.00070552	0.0017311	0.00040491	1030.5	6.4949e-06	1.1847e-05	1562.2	336.31	1.5712e-05	1.6302e-05	655.1	277.48	140.92	61.502	1.0547e-05	124.69	0.0030126	0.0031697	0.00090843	958.82	3.436e-05	3.5836e-05	1394.4	308.29	3.4861e-05	3.4971e-05	599.02	248.5	133.36	56.573	3.5925e-05	111.55	-137.164	-106.664	0.842	-134.766	-9.661	75.862	-134.333	-129.032	34.135	-53.070	-129.351	-125.889	-125.467	-120.245	-38.795	-121.858	-8191	255	
28652.658	1	1	0	0	0.2221	0.00301	0.13302	0.35861	0.2159	0.21507	0.3646	0.11792	0.2181	0.27474	0.3078	0.2167	0.32313	0.1965	0.2266	0.23152	-1.3667	-1.8208	-2.1458	-1.5562	-2.2208	-2.2125	-1.575	-2.5042	-1.7917	-1.6896	-2.4604	-1.7042	-2.1646	-2.2146	-1.2563	-2.3667	-144.633	-62.292	56.446	132.977	168.466	-34.857	136.775	91.470	-74.177	36.862	181.216	157.867	-146.367	172.228	191.696	156.125	0.00094849	0.0028823	0.00014364	1017	3.6031e-06	1.6605e-05	1546.7	333.27	1.1597e-05	1.4506e-05	646.13	273.59	139.1	60.872	9.0875e-06	123.68	0.0030217	0.0032738	0.00092002	954.13	3.4676e-05	3.6554e-05	1384.6	306.65	3.6204e-05	3.613e-05	594.01	245.64	132.59	56.205	3.743e-05	110.93	-131.285	-77.720	-116.276	-134.598	163.484	53.571	-134.284	-129.162	39.206	48.970	-129.990	-125.999	-125.209	-120.263	16.299	-122.012	-8191	255	
28652.754	1	1	0	0	0.10624	0.069354	0.12471	0.27274	0.1107	0.086815	0.35779	0.5315	0.068376	0.27444	0.30054	0.34216	0.082251	0.26328	0.073338	0.18215	-1.2896	-1.5375	-2.2313	-1.7729	-1.9792	-1.9937	-1.425	-2.3521	-1.7333	-1.5208	-2.4625	-1.6625	-1.9333	-2.1417	-1.2958	-2.35	116.848	108.015	-126.874	200.149	-86.406	126.539	91.819	156.934	-112.789	-83.537	87.043	205.594	-129.580	194.894	-130.565	210.147	0.00073861	0.00092372	0.00040719	1009.4	5.0105e-06	2.1579e-05	1535.3	331.82	6.8033e-06	1.4192e-05	644.1	270.99	138.44	60.304	1.416e-05	123.64	0.003215	0.0034964	0.00097114	955.51	3.7401e-05	3.9166e-05	1382.7	306.95	3.8164e-05	3.8939e-05	594.68	245.57	132.47	55.902	3.8779e-05	111.25	-140.428	208.377	48.261	-134.173	-99.072	48.622	-134.338	-128.684	1.981	71.946	-129.623	-125.551	-125.503	-119.993	21.560	-121.566	-8191	255	
28652.850	1	1	0	0	0.24832	0.091988	0.30853	0.17219	0.20139	0.3626	0.11902	0.34372	0.15012	0.16725	0.26756	0.12502	0.16252	0.20265	0.18969	0.23965	-1.6479	-1.4813	-2.1354	-1.65	-1.8083	-2.1979	-1.5771	-2.3604	-1.85	-1.5521	-2.525	-2.0104	-1.8354	-2.4021	-1.4375	-2.3917	131.280	-75.765	10.422	109.310	-33.187	120.571	137.434	118.054	-29.782	125.239	-119.610	180.753	103.764	198.530	147.339	145.719	0.00057759	0.0014428	0.00024735	1015.4	5.5291e-06	1.4225e-05	1532.4	331.55	1.1194e-05	8.9682e-06	645.23	272.87	138.18	59.707	2.7649e-06	122.96	0.003337	0.0035515	0.00097341	956.85	3.7894e-05	3.8878e-05	1384.8	306.59	3.8078e-05	3.8444e-05	593.42	245.68	132.26	55.694	3.831e-05	110.6	206.453	174.060	70.423	-134.147	-24.847	-134.474	-134.099	-128.816	-20.510	9.269	-129.366	-125.728	-124.795	-119.946	-134.124	-121.262	-8191	255	
28652.947	1	1	0	0	0.25064	0.27307	0.083727	0.16747	0.22612	0.055865	0.41482	0.2262	0.20966	0.21253	0.16167	0.36694	0.013504	0.16269	0.36379	0.42359	-1.6396	-1.3521	-2.1208	-1.6875	-1.6313	-2.2417	-1.6208	-2.1042	-2.1646	-1.5562	-2.5979	-1.9958	-1.6646	-2.4708	-1.5229	-2.1167	-127.937	91.367	-72.335	209.004	-60.999	8.878	200.206	133.947	-134.185	148.181	187.304	146.731	-45.631	194.694	-103.406	148.890	0.00085802	0.0014862	0.0005077	1010.2	1.6374e-05	2.6542e-05	1533.7	328.08	1.537e-05	2.0365e-05	638.48	268.61	137.35	59.292	1.411e-05	121.75	0.0032847	0.0035344	0.00096014	950.77	3.767e-05	3.825e-05	1373.6	303.65	3.7673e-05	3.7974e-05	588.13	243.21	130.77	55.161	3.7341e-05	109.37	207.884	-38.914	-98.706	-134.462	116.841	41.737	-134.781	-129.066	6.999	116.921	-129.780	-126.069	-126.355	-120.614	-8.985	-122.292	-8191	255	
28653.064	1	1	0	0	0.038727	0.13365	0.093106	0.26791	0.13684	0.21586	0.14727	0.31225	0.043486	0.19035	0.14634	0.14064	0.1507	0.077346	0.048459	0.18011	-1.7646	-1.4062	-2.0542	-1.8625	-1.4667	-2.2958	-1.9542	-2.0167	-2.2125	-1.4792	-2.2958	-2.0938	-1.6187	-2.2708	-1.6333	-2.0104	-51.488	-122.027	-111.825	175.342	-20.056	88.684	131.681	77.625	19.717	-71.942	135.867	57.114	169.484	-116.736	143.794	151.148	0.0007566	0.0025588	0.00053215	1012.5	1.2687e-05	8.7448e-06	1526.3	329.58	1.3094e-05	1.1375e-05	636.39	267.05	136.11	59.873	1.4152e-05	121.81	0.0031706	0.0034012	0.00092896	946.87	3.6845e-05	3.66e-05	1366.8	303.23	3.7179e-05	3.721e-05	587.44	242.03	130.25	55.18	3.7553e-05	109.14	207.641	23.943	198.074	-134.748	-71.163	154.421	-134.971	-129.612	-31.309	-7.166	-130.171	-126.200	-125.739	-120.754	49.961	-122.293	-8191	255	
28653.162	1	1	0	0	0.20681	0.12157	0.27061	0.44055	0.12574	0.04795	0.20683	0.12179	0.097653	0.057845	0.4403	0.095619	0.21068	0.10334	0.10795	0.39521	-1.7979	-1.4854	-1.9167	-2.1229	-1.3875	-2.2	-1.8521	-1.7333	-2.1833	-1.2521	-2.0729	-2.1813	-1.5542	-2.3479	-1.6313	-1.6187	41.495	7.707	88.114	112.632	114.795	196.867	175.670	182.777	-129.598	53.510	185.007	100.070	55.388	182.567	22.608	134.097	0.0004317	0.0029815	0.00049024	1007.3	7.736e-06	5.7486e-06	1520.4	327.81	8.4126e-06	9.487e-06	641.99	267.72	136.24	59.529	1.0744e-05	121.72	0.0031523	0.0033903	0.0009381	943.39	3.6864e-05	3.6497e-05	1368.3	302.25	3.7062e-05	3.7619e-05	588.29	242.96	131.09	55.163	3.8139e-05	109.91	-141.141	209.545	-28.616	-135.073	-15.002	53.657	-134.905	-129.519	-147.333	76.073	-130.355	-126.768	-125.679	-120.996	78.963	-122.246	-8191	255	
28653.258	1	1	0	0	0.06351	0.18879	0.12106	0.23001	0.038605	0.055646	0.16995	0.2586	0.17119	0.22005	0.43715	0.08572	0.25369	0.45438	0.087616	0.22176	-1.8833	-1.3021	-1.8083	-1.9958	-1.2062	-2.2354	-1.9646	-1.6896	-2.1646	-1.4583	-1.9708	-2.3792	-1.4583	-2.2792	-1.8646	-1.6688	-72.173	-114.950	-5.189	97.234	-25.639	147.062	-143.291	126.479	155.995	-10.930	154.840	187.913	102.269	178.246	62.723	202.883	0.00072923	0.00064698	0.0003481	1013.7	6.3439e-06	1.7906e-05	1529.8	330.21	9.5944e-06	1.3053e-06	642.43	268.91	137.48	60.024	1.3093e-05	123.17	0.0032132	0.0034716	0.00095549	952.54	3.7265e-05	3.7694e-05	1377.9	305.23	3.7149e-05	3.8162e-05	590.5	244.04	131.65	55.626	3.801e-05	110.13	-135.195	-48.386	54.202	-135.152	197.597	85.527	-134.841	-129.619	-101.998	152.266	-130.345	-126.334	-125.948	-120.736	-99.160	-122.387	-8191	255	
28653.354	1	1	0	0	0.10177	0.30861	0.20801	0.18084	0.19642	0.011801	0.34007	0.13927	0.071853	0.39538	0.029795	0.34528	0.17221	0.24941	0.06556	0.31889	-1.7542	-1.5375	-1.8312	-2.3417	-1.5812	-2.1688	-2.1458	-1.5375	-2.1437	-1.6333	-1.6646	-2.2188	-1.3979	-2.0958	-1.9813	-1.5583	-44.214	162.948	132.797	158.879	156.566	183.952	133.936	116.483	-0.322	-32.957	62.243	175.620	200.628	209.254	97.172	205.462	0.00052355	0.0012587	0.00059565	1011.9	2.3905e-05	2.4016e-05	1527.1	332.81	2.7541e-06	2.8365e-05	638.44	269.94	136.34	60.19	1.4466e-05	122.3	0.0031307	0.0034154	0.00094274	948.82	3.6441e-05	3.6685e-05	1376.1	304.25	3.5971e-05	3.711e-05	588.99	243.15	130.84	55.408	3.7284e-05	109.64	201.035	-68.575	-10.193	-134.477	28.221	-44.452	-134.936	-129.642	98.776	-48.117	-130.081	-126.320	-125.785	-120.155	-0.131	-122.535	-8191	255	
28653.449	1	1	0	0	0.27117	0.17211	0.24341	0.13782	0.085079	0.11797	0.043619	0.17613	0.12161	0.12131	0.26992	0.28276	0.19862	0.15906	0.11484	0.41279	-1.7563	-1.7083	-1.5479	-2.1604	-1.5292	-2.0271	-2.4333	-1.3646	-2.2979	-1.875	-1.7812	-2.3583	-1.6854	-2.1396	-2.1333	-1.7042	89.845	-53.206	-92.007	84.268	-134.531	121.524	77.307	89.255	-16.964	192.365	183.660	179.415	-53.840	155.489	-12.078	112.980	0.00076487	0.0011341	0.00046811	1012.4	1.1219e-05	2.2808e-05	1519.1	331.43	5.7983e-06	1.6357e-05	645.77	268.54	136.29	59.748	2.7274e-05	121.4	0.003077	0.0033924	0.000943	946.15	3.6583e-05	3.6342e-05	1367.1	304.85	3.5748e-05	3.737e-05	590.9	242.55	131.45	55.33	3.7957e-05	109.42	-144.676	-4.916	-66.751	-134.995	149.398	-144.142	-134.962	-129.700	89.604	-20.597	-130.378	-126.028	-125.870	-120.715	-3.944	-122.312	-8191	255	
28653.547	1	1	0	0	0.28315	0.046257	0.021536	0.1159	0.10084	0.067639	0.27861	0.30373	0.083368	0.13565	0.083336	0.4078	0.32615	0.29581	0.083017	0.17229	-1.7229	-1.8188	-1.4646	-2.4938	-1.6146	-1.7396	-2.3417	-1.425	-2.1104	-1.8896	-1.6271	-2.6292	-1.7542	-1.5938	-2.2521	-1.5833	130.103	134.114	56.756	184.556	99.830	130.552	178.852	130.968	-131.224	206.087	-78.862	131.893	178.543	173.828	82.478	121.019	0.00074626	0.0016441	0.00025464	1015.5	1.1793e-05	9.3074e-06	1527	334.39	9.7653e-06	2.1016e-05	648.85	271.41	138.53	59.835	2.6349e-05	122.42	0.0031153	0.0034631	0.00094617	946.84	3.6535e-05	3.6182e-05	1375.3	305.45	3.472e-05	3.6695e-05	593.08	244.3	131.61	55.374	3.5536e-05	109.54	-137.436	-96.364	-27.138	-134.675	94.880	10.075	-134.965	-129.243	-51.277	-90.114	-129.288	-126.211	-125.633	-120.389	-21.969	-122.103	-8191	255	
28653.643	1	1	0	0	0.25302	0.13692	0.17242	0.24944	0.16475	0.15084	0.36505	0.22521	0.13178	0.17754	0.21943	0.14232	0.17125	0.078825	0.08898	0.44895	-1.7375	-1.8958	-1.3937	-2.3937	-1.6646	-1.5938	-2.3854	-1.6104	-2.0521	-2.0646	-1.4792	-2.5042	-2.2229	-1.6688	-2.4667	-1.6646	-137.294	181.193	-56.996	162.067	-67.239	-15.583	95.689	174.440	-95.145	-50.532	-127.989	192.786	180.334	-111.172	-91.211	181.281	0.00058964	0.0027659	0.00032839	1021.1	1.4663e-05	2.7328e-05	1549.4	341.19	8.6692e-06	6.9762e-06	660.17	278.41	142.16	61.581	4.2378e-06	124.54	0.0029497	0.003246	0.00088636	946.46	3.4729e-05	3.473e-05	1387.4	310.6	3.3535e-05	3.5078e-05	600.35	248.5	133.76	56.216	3.3875e-05	110.91	-137.596	-38.767	-81.359	-134.963	1.240	9.255	-134.659	-129.371	126.607	44.707	-130.161	-126.045	-125.783	-120.459	178.498	-122.176	-8191	255	
28653.738	1	1	0	0	0.31621	0.16696	0.12838	0.18829	0.041256	0.10008	0.1371	0.22231	0.22967	0.17891	0.27904	0.14176	0.23656	0.22664	0.089905	0.30041	-1.5979	-2.075	-1.4125	-2.2562	-1.7229	-1.6083	-2.4021	-1.5125	-1.8354	-2.2854	-1.4	-2.3146	-2.1	-1.6812	-2.425	-1.7583	-93.188	-8.417	-122.490	208.596	-72.974	-120.499	114.709	-136.035	25.439	9.626	-139.697	162.969	150.904	199.699	-132.385	169.069	0.00088347	0.001749	0.00024694	1024.6	2.6116e-06	1.2599e-05	1557.2	341.31	1.0613e-05	2.1316e-05	660.32	276.19	141.32	61.193	1.5462e-05	124.12	0.002844	0.003162	0.00086657	950.59	3.4744e-05	3.4831e-05	1390	310.74	3.3632e-05	3.5163e-05	600.61	246.88	133.85	56.034	3.4855e-05	110.54	210.791	-67.323	-64.736	-134.753	92.286	162.771	-134.640	-129.338	-45.937	17.600	-130.086	-126.240	-126.371	-120.446	58.675	-122.139	-8191	255	
28653.857	1	1	0	0	0.14898	0.22085	0.35313	0.34546	0.15361	0.082587	0.11084	0.093677	0.13689	0.19154	0.23617	0.096126	0.1185	0.15273	0.061455	0.34012	-1.5083	-2.1729	-1.3521	-2.2562	-1.8188	-1.4208	-2.65	-1.7437	-1.6375	-2.3	-1.5938	-2.1646	-2.0042	-1.6729	-2.1833	-1.7542	54.273	9.442	124.990	185.227	-17.810	87.412	157.505	108.423	162.115	155.781	201.639	203.839	135.491	119.284	195.656	111.593	0.00071434	0.0002576	0.00047991	1025.3	9.8029e-06	1.5765e-05	1548.8	337.89	1.4201e-05	2.7236e-05	649.35	273.17	142.43	60.557	8.123e-06	122.9	0.00301	0.0033066	0.00091648	952.03	3.6069e-05	3.6197e-05	1384.7	309.34	3.5361e-05	3.6092e-05	594.94	245.82	133.8	55.861	3.5201e-05	110.32	210.778	-30.964	-55.219	-134.528	100.620	61.566	-134.467	-129.841	20.973	-11.445	-130.355	-125.914	-125.402	-119.967	29.878	-121.898	-8191	255	
28653.953	1	1	0	0	0.15865	0.16958	0.1621	0.14739	0.19229	0.1532	0.19321	0.30364	0.21315	0.14399	0.27261	0.40335	0.21235	0.40097	0.19867	0.18496	-1.3354	-2.2625	-1.4688	-2.2167	-1.8146	-1.4792	-2.3417	-1.8667	-1.3542	-2.2792	-1.6479	-2.2771	-2.4417	-1.6521	-2.1979	-2.075	-92.952	156.086	52.060	184.723	211.542	118.088	175.802	177.692	102.257	39.486	162.349	196.757	167.477	169.394	-3.090	126.033	0.00072822	0.0021704	0.0003368	1014.8	9.6674e-06	3.9788e-06	1545	336.13	1.5982e-05	1.5012e-05	650.03	271.47	139.4	61.283	3.5237e-06	124.47	0.0030704	0.0033626	0.00093181	945.98	3.6671e-05	3.6697e-05	1380.2	308.77	3.6088e-05	3.6461e-05	596.14	245.82	133.11	56.385	3.4958e-05	111.43	209.994	-42.969	12.571	-134.289	8.863	-58.219	-134.771	-129.142	15.212	12.307	-129.924	-125.763	-125.241	-120.102	107.343	-122.002	-8191	255	
28654.051	1	1	0	0	0.019386	0.11414	0.059135	0.07522	0.21954	0.12198	0.35067	0.15198	0.18031	0.10272	0.26736	0.34724	0.22153	0.21858	0.16646	0.31062	-1.0375	-2.2771	-1.45	-2.025	-2.2812	-1.4354	-2.3063	-2.0687	-1.3729	-2.3729	-1.7229	-2.025	-2.425	-1.5875	-2.1729	-2.2188	-50.607	-8.533	118.607	94.308	6.737	-106.359	138.360	121.955	15.041	91.187	167.390	188.898	201.908	-145.974	-95.522	133.864	0.00058431	0.0037961	0.00089971	1023	6.9478e-06	2.2493e-05	1546	336.56	5.6005e-06	3.3114e-05	644.01	273.98	140.27	62.809	9.7837e-06	126.37	0.0031168	0.0033285	0.00094552	956.76	3.8337e-05	3.9071e-05	1386.7	311.68	4.041e-05	4.1232e-05	599.3	249.39	136.34	58.529	4.3633e-05	115.01	-127.296	-38.708	-144.112	-134.447	19.360	43.016	-134.297	-129.195	114.578	-13.537	-129.509	-125.880	-125.222	-119.894	21.869	-121.771	-8191	255	
28654.148	1	1	0	0	0.092978	0.13703	0.14601	0.18242	0.13674	0.1423	0.35004	0.41006	0.18593	0.28398	0.26132	0.31549	0.11827	0.15649	0.13471	0.4201	-1.2125	-2.0667	-1.7271	-1.9125	-2.3146	-1.6375	-2.0667	-2.0125	-1.3583	-2.3104	-2.0687	-1.9188	-2.425	-1.6437	-1.85	-2.4625	156.491	90.266	-2.961	-134.343	142.637	-97.863	199.239	195.245	-117.895	-40.135	-105.900	205.759	-85.647	159.257	-75.688	135.492	0.00095011	0.0014833	0.00031561	1005.8	1.1556e-05	2.7754e-05	1509	331.68	5.8394e-06	6.1803e-06	634.05	268.77	138.71	62.485	2.4524e-06	127.01	0.00387	0.0042074	0.0012294	978.94	4.7771e-05	4.8718e-05	1385.8	313.92	4.7599e-05	4.7242e-05	597.81	247.69	136.34	58.928	4.3774e-05	115.51	206.061	-45.690	-120.730	-134.374	11.587	-52.478	-134.495	-128.625	-81.446	-89.543	-129.750	-125.252	-124.518	-119.525	56.830	-122.207	-8191	255	
#DATA ENDS
