BOXY.EXE: ISS Imagent and Oximeter Data Acquisition Program Version 0.80
Ascii Record File

#ACQ INFORMATION
2  Detector Channels 
16  External MUX Channels 
1  Auxiliary Channels 
5000  Waveform (CCF) Frequency (Hz)
1  Waveforms Skipped 
30  Waveforms Averaged 
1  Cycles Averaged 
16  Acquisitions per Waveform 
10.0806  Updata Rate (Hz) 

#FILE INFORMATION
TRUE -- External MUX Channel results are PARSED.
FALSE -- AC DC and Phase are NOT grouped.
TRUE -- Companion Program Settings File CREATED.
FALSE -- AC data not excluded
FALSE -- DC data not excluded
FALSE -- Phase data not excluded
FALSE -- Auxillary Chn. data not excluded
Tab delimiters

#CALIBRATION STATE
TRUE -- Waveform Calibration Values APPLIED.


#AUX CALIBRATION VALUES
Val Type	aux-1	

Term	1.0000e+00	
Factor	0.0000e+00	


#WF CALIBRATION VALUES
A = Detector Channel
Val Type	A-AC1	A-AC2	A-AC3	A-AC4	A-AC5	A-AC6	A-AC7	A-AC8	A-AC9	A-AC10	A-AC11	A-AC12	A-AC13	A-AC14	A-AC15	A-AC16	A-DC1	A-DC2	A-DC3	A-DC4	A-DC5	A-DC6	A-DC7	A-DC8	A-DC9	A-DC10	A-DC11	A-DC12	A-DC13	A-DC14	A-DC15	A-DC16	A-Ph1	A-Ph2	A-Ph3	A-Ph4	A-Ph5	A-Ph6	A-Ph7	A-Ph8	A-Ph9	A-Ph10	A-Ph11	A-Ph12	A-Ph13	A-Ph14	A-Ph15	A-Ph16	

Term	0.00000e+00	0.00000e+00	0.00000e+00	0.00000e+00	0.00000e+00	0.00000e+00	0.00000e+00	0.00000e+00	0.00000e+00	0.00000e+00	0.00000e+00	0.00000e+00	0.00000e+00	0.00000e+00	0.00000e+00	0.00000e+00	0.00000e+00	0.00000e+00	0.00000e+00	0.00000e+00	0.00000e+00	0.00000e+00	0.00000e+00	0.00000e+00	0.00000e+00	0.00000e+00	0.00000e+00	0.00000e+00	0.00000e+00	0.00000e+00	0.00000e+00	0.00000e+00	0.00000e+00	0.00000e+00	0.00000e+00	0.00000e+00	0.00000e+00	0.00000e+00	0.00000e+00	0.00000e+00	0.00000e+00	0.00000e+00	0.00000e+00	0.00000e+00	0.00000e+00	0.00000e+00	0.00000e+00	0.00000e+00	
Factor	1.00000e+00	1.00000e+00	1.00000e+00	1.00000e+00	1.00000e+00	1.00000e+00	1.00000e+00	1.00000e+00	1.00000e+00	1.00000e+00	1.00000e+00	1.00000e+00	1.00000e+00	1.00000e+00	1.00000e+00	1.00000e+00	1.00000e+00	1.00000e+00	1.00000e+00	1.00000e+00	1.00000e+00	1.00000e+00	1.00000e+00	1.00000e+00	1.00000e+00	1.00000e+00	1.00000e+00	1.00000e+00	1.00000e+00	1.00000e+00	1.00000e+00	1.00000e+00	X	X	X	X	X	X	X	X	X	X	X	X	X	X	X	X	

B = Detector Channel
Val Type	B-AC1	B-AC2	B-AC3	B-AC4	B-AC5	B-AC6	B-AC7	B-AC8	B-AC9	B-AC10	B-AC11	B-AC12	B-AC13	B-AC14	B-AC15	B-AC16	B-DC1	B-DC2	B-DC3	B-DC4	B-DC5	B-DC6	B-DC7	B-DC8	B-DC9	B-DC10	B-DC11	B-DC12	B-DC13	B-DC14	B-DC15	B-DC16	B-Ph1	B-Ph2	B-Ph3	B-Ph4	B-Ph5	B-Ph6	B-Ph7	B-Ph8	B-Ph9	B-Ph10	B-Ph11	B-Ph12	B-Ph13	B-Ph14	B-Ph15	B-Ph16	

Term	0.00000e+00	0.00000e+00	0.00000e+00	0.00000e+00	0.00000e+00	0.00000e+00	0.00000e+00	0.00000e+00	0.00000e+00	0.00000e+00	0.00000e+00	0.00000e+00	0.00000e+00	0.00000e+00	0.00000e+00	0.00000e+00	0.00000e+00	0.00000e+00	0.00000e+00	0.00000e+00	0.00000e+00	0.00000e+00	0.00000e+00	0.00000e+00	0.00000e+00	0.00000e+00	0.00000e+00	0.00000e+00	0.00000e+00	0.00000e+00	0.00000e+00	0.00000e+00	-5.89530e+01	-1.44325e+02	-1.41559e+02	-1.84369e+02	-4.86945e+01	-5.85597e+01	-1.57614e+02	-1.62015e+02	-4.53572e+01	-6.62197e+01	-1.71602e+02	-1.75721e+02	-1.84363e+02	-1.78174e+02	-3.82637e+01	-1.51058e+02	
Factor	1.74409e-05	1.37167e-04	4.48531e-05	1.56697e-01	1.36677e-06	1.62039e-06	1.61842e-01	5.41531e-02	1.20590e-06	1.56273e-06	1.95242e-01	3.23254e-02	2.24676e-02	8.29018e-03	1.30207e-06	1.20306e-02	2.34633e-06	2.56913e-06	7.14760e-07	8.26814e-02	2.78632e-08	2.81195e-08	8.00935e-02	2.86359e-02	2.76972e-08	2.79876e-08	9.66539e-02	1.63464e-02	1.19456e-02	4.40738e-03	2.77585e-08	6.14047e-03	X	X	X	X	X	X	X	X	X	X	X	X	X	X	X	X	



#DISTANCE SETTINGS
A = Detector Channel
A-1	A-2	A-3	A-4	A-5	A-6	A-7	A-8	A-9	A-10	A-11	A-12	A-13	A-14	A-15	A-16	

2.5000e+00	3.0000e+00	2.5000e+00	3.0000e+00	2.0000e+00	3.0000e+00	1.5000e+00	3.0000e+00	3.0000e+00	3.0000e+00	3.0000e+00	3.0000e+00	3.0000e+00	3.0000e+00	1.5000e+00	3.0000e+00	

B = Detector Channel
B-1	B-2	B-3	B-4	B-5	B-6	B-7	B-8	B-9	B-10	B-11	B-12	B-13	B-14	B-15	B-16	

1.0000e+01	1.0000e+01	1.0000e+01	1.4400e+00	1.0000e+01	1.0000e+01	1.5100e+00	1.9400e+00	1.0000e+01	1.0000e+01	1.9900e+00	2.4900e+00	2.4100e+00	2.9000e+00	1.0000e+01	2.9800e+00	




#DATA BEGINS
time	group	step	mark	flag	A-AC1	A-AC2	A-AC3	A-AC4	A-AC5	A-AC6	A-AC7	A-AC8	A-AC9	A-AC10	A-AC11	A-AC12	A-AC13	A-AC14	A-AC15	A-AC16	A-DC1	A-DC2	A-DC3	A-DC4	A-DC5	A-DC6	A-DC7	A-DC8	A-DC9	A-DC10	A-DC11	A-DC12	A-DC13	A-DC14	A-DC15	A-DC16	A-Ph1	A-Ph2	A-Ph3	A-Ph4	A-Ph5	A-Ph6	A-Ph7	A-Ph8	A-Ph9	A-Ph10	A-Ph11	A-Ph12	A-Ph13	A-Ph14	A-Ph15	A-Ph16	B-AC1	B-AC2	B-AC3	B-AC4	B-AC5	B-AC6	B-AC7	B-AC8	B-AC9	B-AC10	B-AC11	B-AC12	B-AC13	B-AC14	B-AC15	B-AC16	B-DC1	B-DC2	B-DC3	B-DC4	B-DC5	B-DC6	B-DC7	B-DC8	B-DC9	B-DC10	B-DC11	B-DC12	B-DC13	B-DC14	B-DC15	B-DC16	B-Ph1	B-Ph2	B-Ph3	B-Ph4	B-Ph5	B-Ph6	B-Ph7	B-Ph8	B-Ph9	B-Ph10	B-Ph11	B-Ph12	B-Ph13	B-Ph14	B-Ph15	B-Ph16	aux-1	digaux	

2048.215	1	1	0	256	0.081288	0.12622	0.066639	0.19315	0.11794	0.065095	0.12385	0.22957	0.19022	0.16464	0.076074	0.16614	0.17192	0.11176	0.15127	0.091584	-2.775	-3.3187	-3.8042	-3.3146	-3.6312	-3.6833	-3.325	-3.9792	-3.5604	-3.3958	-4.1438	-3.3708	-3.8375	-3.7625	-3.1979	-4.0437	63.736	224.251	362.287	289.421	163.729	234.322	266.687	391.051	277.527	242.897	48.560	359.294	388.056	38.949	372.784	365.406	0.00047224	0.00020941	0.00035299	1369.6	5.6442e-06	7.0889e-06	1672	444.69	4.6859e-06	1.11e-05	662.71	207.22	121.5	38.072	4.5486e-06	74.173	0.00036474	0.00035154	9.6868e-05	1261.7	3.8646e-06	3.7391e-06	1544.6	409.99	3.8683e-06	3.803e-06	599.17	191.68	112.31	35.617	3.841e-06	68.599	215.729	162.322	84.926	49.395	210.060	211.327	49.530	53.474	204.604	197.998	52.496	57.718	57.899	63.305	216.063	62.790	-8191	255	
2048.311	1	1	0	0	0.17635	0.12587	0.073228	0.11852	0.12411	0.096852	0.20638	0.30689	0.18724	0.055755	0.084938	0.17424	0.084288	0.30591	0.24358	0.071779	-3.2687	-3.1708	-3.9562	-3.2917	-3.6979	-3.8917	-3.4625	-4.0938	-3.6667	-3.3937	-4.0521	-3.55	-3.5146	-3.9792	-3.2	-4.0146	148.972	266.800	214.962	217.884	321.787	283.380	335.419	382.670	62.354	332.768	318.194	55.568	214.089	366.350	195.399	331.814	0.00053928	0.0010521	0.00021346	1390.1	8.7536e-06	2.699e-06	1694.9	453.91	6.8937e-06	1.1602e-05	673.47	210.62	123.69	39.375	5.887e-06	75.359	0.00037394	0.000347	9.5185e-05	1281.8	3.8411e-06	3.7377e-06	1556.4	418.18	3.6841e-06	3.7786e-06	607.09	194.86	114.24	36.671	3.7588e-06	69.885	216.319	116.753	84.270	49.613	234.159	82.924	49.660	53.109	208.752	166.838	52.724	57.636	57.965	63.464	220.803	62.671	-8191	255	
2048.432	1	1	0	0	0.15931	0.13743	0.091957	0.33503	0.37883	0.19161	0.27904	0.17516	0.16345	0.18358	0.32845	0.10025	0.26099	0.15001	0.090719	0.18544	-3.2792	-3.1646	-3.9104	-3.5083	-3.625	-4.0146	-3.3167	-3.8438	-3.7938	-3.1208	-4.0167	-3.5229	-3.4437	-3.9938	-3.1146	-3.9	311.010	352.823	71.473	339.072	225.050	188.100	338.841	114.181	53.668	201.818	306.849	347.554	374.917	83.140	218.729	350.805	0.00053992	0.00043374	0.00016171	1390	1.2201e-05	9.6334e-06	1678.9	455.79	8.1667e-06	1.2497e-05	669.38	211.02	124.27	39.957	9.586e-06	75.39	0.00037392	0.00034752	9.7432e-05	1283.2	3.854e-06	3.8602e-06	1542.2	420.24	3.8636e-06	3.9075e-06	605.39	196.27	115.42	37.231	3.8231e-06	70.093	218.803	72.722	141.140	49.341	228.114	206.718	49.617	53.655	223.195	182.414	53.141	58.137	58.166	63.382	249.810	62.720	-8191	255	
2048.528	1	1	0	0	0.2005	0.32603	0.047982	0.35961	0.058933	0.060956	0.23692	0.039087	0.071179	0.21077	0.037333	0.038374	0.38635	0.21661	0.24712	0.36957	-3.4792	-3.2771	-4.0875	-3.7833	-3.3292	-3.9562	-3.6479	-3.6667	-3.8479	-3.2083	-3.9854	-3.7396	-3.3083	-4.0833	-3.2146	-3.7333	335.365	388.433	336.885	294.145	334.778	234.459	329.907	344.357	193.152	305.106	378.947	116.999	355.294	345.659	236.944	282.799	0.00055136	0.0008218	0.00015966	1380.6	2.6103e-06	1.2047e-05	1664.2	456.33	3.4788e-06	2.9346e-06	671.14	214.75	124.11	40.011	8.6036e-06	75.889	0.00038246	0.00035266	9.6146e-05	1270.7	3.7172e-06	3.6901e-06	1531.7	420.68	3.5338e-06	3.5412e-06	606.05	196.91	115.51	37.414	3.5421e-06	70.381	220.128	164.191	101.116	49.541	120.199	201.391	49.608	53.653	217.555	190.171	52.916	57.613	58.171	63.445	239.308	62.884	-8191	255	
2048.622	1	1	0	0	0.12248	0.1737	0.1	0.18117	0.080825	0.17358	0.24835	0.22584	0.2685	0.17447	0.086383	0.30645	0.066491	0.087256	0.087178	0.04518	-3.3333	-2.9208	-3.8688	-3.7792	-3.3167	-3.9688	-3.5625	-3.6625	-3.7854	-3.2583	-3.6458	-3.9021	-3.3375	-4.1208	-3.25	-3.6167	277.027	64.515	348.408	375.440	47.450	146.643	283.741	356.620	154.864	127.832	44.973	325.504	380.042	325.323	114.241	357.153	0.00049818	0.00066279	0.00026691	1389.6	5.8911e-06	2.7517e-07	1671.9	464.72	4.5667e-06	8.1695e-06	686.93	216.83	128.27	41.624	5.2921e-06	79.298	0.00035385	0.00032981	8.7228e-05	1281.7	3.5515e-06	3.3566e-06	1540.6	428.03	3.2888e-06	3.4334e-06	617.05	200.21	118.19	38.81	3.3496e-06	73.163	211.802	99.904	115.778	49.295	208.145	114.717	49.801	53.359	239.350	198.373	52.959	57.796	58.522	63.958	236.730	62.932	-8191	255	
2048.719	1	1	0	0	0.1829	0.14503	0.013024	0.27579	0.15256	0.074716	0.17315	0.268	0.1493	0.065309	0.05401	0.42032	0.092163	0.086027	0.23044	0.030451	-3.6271	-3.1625	-3.7875	-3.8438	-3.2729	-3.9792	-3.7458	-3.4458	-3.9167	-3.3021	-3.8021	-4.0021	-3.3646	-4.0417	-3.475	-3.5	141.294	275.875	356.581	359.245	38.556	127.637	366.245	339.505	235.117	266.671	202.334	369.785	330.911	384.354	172.789	352.491	0.00059386	0.0006566	0.00022296	1400.4	4.2321e-06	3.1235e-06	1689.2	472.17	8.0071e-06	8.6108e-06	692.04	222.01	129.17	42.983	4.4056e-06	80.919	0.00034325	0.00030708	8.6857e-05	1289	3.6103e-06	3.4172e-06	1553.1	434.21	3.4801e-06	3.4654e-06	623.78	204.11	119.67	40.006	3.391e-06	74.591	216.302	149.013	149.739	49.741	225.254	195.127	49.853	53.636	205.138	195.947	52.873	58.047	58.295	63.859	240.838	62.917	-8191	255	
2048.815	1	1	0	0	0.10072	0.21324	0.096915	0.13702	0.029388	0.17868	0.33975	0.25084	0.14698	0.26428	0.13659	0.12601	0.094116	0.20234	0.22579	0.17056	-3.6333	-3.2542	-3.4917	-4.0583	-3.1896	-3.8417	-3.625	-3.5687	-4.0604	-3.3542	-3.4833	-4.1604	-3.2687	-3.7854	-3.5896	-3.3417	277.829	47.547	197.924	347.440	291.778	370.268	274.324	286.749	97.824	335.374	251.382	38.904	53.136	318.740	162.217	337.505	0.00062464	0.00058828	0.00030046	1385.3	3.3405e-06	7.4798e-06	1659.4	468.66	9.9192e-06	1.0414e-05	692.71	223.31	131.9	43.753	9.2081e-06	82.084	0.00034186	0.00031493	8.7539e-05	1277.8	3.4312e-06	3.4109e-06	1528.7	432.42	3.5541e-06	3.4289e-06	622.56	205.32	122.08	40.759	3.6091e-06	75.987	212.053	95.665	146.537	49.533	181.843	226.554	49.599	53.692	248.078	202.984	53.012	57.902	58.255	63.726	229.737	62.658	-8191	255	
2048.911	1	1	0	0	0.22711	0.18999	0.089811	0.070268	0.14972	0.055242	0.14183	0.2189	0.079446	0.075045	0.24909	0.076742	0.18016	0.18219	0.12841	0.3155	-3.5708	-3.4292	-3.4604	-4.1104	-3.2083	-3.5604	-4.0813	-3.5396	-4.05	-3.3187	-3.4479	-4.0437	-3.4521	-3.875	-3.6333	-3.4542	372.674	112.034	157.329	79.946	273.323	377.876	328.748	379.663	278.101	266.671	299.473	381.095	53.302	44.162	189.760	272.840	0.0005696	0.00018697	0.00015075	1392.8	3.5716e-06	1.0405e-05	1665.2	475.11	8.5186e-06	1.0153e-05	693.34	226.23	132.81	44.993	7.7773e-06	83.767	0.0003605	0.00032267	8.7853e-05	1284.2	3.5211e-06	3.5435e-06	1532.5	437.28	3.5826e-06	3.4348e-06	626.55	207.85	123.04	41.803	3.456e-06	77.556	219.093	123.818	110.877	49.616	234.797	147.354	49.654	53.566	205.834	175.827	52.885	58.214	58.442	63.855	214.264	62.712	-8191	255	
2049.007	1	1	0	0	0.11377	0.18051	0.11306	0.15418	0.22503	0.17946	0.35157	0.13823	0.1753	0.42428	0.048048	0.15746	0.34629	0.21195	0.37226	0.10712	-3.5187	-3.5479	-3.3312	-4.0521	-3.1458	-3.6229	-4.2396	-3.1958	-3.8563	-3.4958	-3.3667	-4.1062	-3.2854	-3.6708	-3.6229	-3.2875	260.952	231.467	249.959	320.281	266.846	261.124	345.151	366.465	62.935	40.961	272.820	386.809	350.890	392.870	276.906	355.260	0.00061632	0.00060388	0.00018724	1412.7	8.0291e-06	6.3225e-06	1681.7	480.39	6.0577e-06	8.146e-06	707.89	231.01	136.22	46.485	9.0931e-06	87.349	0.00036499	0.00032205	8.8724e-05	1298.8	3.4621e-06	3.3754e-06	1548.2	443.08	3.4082e-06	3.4127e-06	635.96	213.38	126.48	43.405	3.5095e-06	80.729	216.208	63.058	93.111	49.792	182.396	180.591	49.729	53.750	235.673	233.403	53.630	57.999	58.204	63.708	208.722	62.651	-8191	255	
2049.128	1	1	0	0	0.17671	0.056401	0.080415	0.20179	0.076404	0.24096	0.10058	0.024434	0.17152	0.16733	0.14244	0.21436	0.27094	0.21601	0.29082	0.032525	-3.2562	-3.4562	-3.1646	-4.1021	-3.1562	-3.3646	-3.9646	-3.3833	-3.7667	-3.4708	-3.3604	-3.9167	-3.4896	-3.3	-3.7208	-3.2062	272.709	109.812	120.357	36.106	364.083	287.836	283.408	182.825	93.737	107.864	128.432	381.552	384.162	362.146	374.380	310.429	0.00064793	0.0011796	0.00017172	1409	8.6349e-06	8.6506e-06	1678.5	478.3	5.1136e-06	4.8294e-06	697.06	229.77	135.66	46.062	4.8166e-06	85.519	0.00035928	0.00032529	8.6821e-05	1299.3	3.4547e-06	3.3835e-06	1543	439.28	3.4858e-06	3.3323e-06	626.3	211.4	125.56	42.789	3.3507e-06	79.49	216.735	146.137	84.737	49.947	232.552	176.393	49.791	53.739	184.624	153.859	53.420	58.240	58.144	63.792	271.509	62.962	-8191	255	
2049.224	1	1	0	0	0.088396	0.1702	0.17852	0.30653	0.0838	0.16017	0.13445	0.3957	0.1202	0.26945	0.11159	0.24984	0.039597	0.29902	0.10603	0.17062	-3.1917	-3.6083	-3.1875	-4.1271	-3.2646	-3.4292	-4.1	-3.2812	-3.5417	-3.7854	-2.8417	-4.0125	-3.5792	-3.4125	-3.9104	-3.3583	203.609	248.506	65.698	269.379	241.623	184.334	382.021	386.018	189.628	325.903	277.000	333.821	246.428	380.354	119.090	347.274	0.00064059	0.0010311	0.00025542	1371	5.4119e-06	8.7402e-06	1637.1	462.9	6.4366e-06	8.0433e-06	676.91	220.23	129.64	43.029	9.9743e-06	81.488	0.00034555	0.00029698	8.542e-05	1264.6	3.3571e-06	3.2965e-06	1504.5	427.14	3.1956e-06	3.241e-06	608.51	202.9	119.99	40.032	3.1818e-06	74.964	216.238	84.151	119.412	49.964	219.091	166.529	49.884	53.916	201.337	197.308	53.356	58.293	58.524	64.047	197.067	62.886	-8191	255	
2049.320	1	1	0	0	0.15932	0.31458	0.087455	0.19086	0.11095	0.14086	0.23312	0.043466	0.17396	0.22495	0.11371	0.17094	0.074415	0.077112	0.018314	0.2312	-2.9688	-3.5417	-3.0146	-3.7708	-3.3375	-3.2292	-3.9479	-3.3583	-3.4375	-3.8917	-3.2562	-3.8854	-3.8083	-3.1271	-3.9	-3.2875	67.532	350.770	250.627	361.303	155.045	312.289	281.286	300.037	315.253	69.601	63.377	370.224	385.897	38.884	131.997	310.646	0.00059484	0.00095876	8.8166e-05	1355.9	6.2638e-06	5.0317e-06	1618.9	454.31	7.1229e-06	5.0855e-06	666.62	215.27	126.21	41.341	5.9398e-06	78.279	0.0003286	0.00029449	8.1399e-05	1246.8	3.1554e-06	3.0832e-06	1491.9	418.72	3.0971e-06	3.0982e-06	599.01	197.95	116.76	38.654	3.0553e-06	72.432	227.095	126.169	129.288	49.985	209.559	138.217	50.155	53.676	205.706	215.256	53.076	58.063	58.122	63.937	205.495	62.989	-8191	255	
2049.392	1	1	0	0	0.055448	0.058134	0.12446	0.22634	0.20899	0.074562	0.338	0.32844	0.29539	0.015448	0.21342	0.27527	0.19743	0.20826	0.12822	0.24805	-3.075	-3.7792	-2.9771	-3.9667	-3.4958	-3.1271	-4.1208	-3.3917	-3.3021	-3.8958	-3.0958	-3.7875	-3.5542	-3.1562	-3.8417	-3.4208	119.980	330.014	300.243	308.068	375.746	118.473	316.370	320.487	70.253	245.296	36.836	354.007	394.861	41.367	212.694	310.421	0.00059339	0.00070359	0.00033548	1375.4	1.0348e-05	1.2686e-05	1647.5	461.77	6.4868e-06	6.6059e-06	679.54	214.9	127.08	41.583	7.2249e-06	77.953	0.00031789	0.00028925	8.134e-05	1267.6	3.2117e-06	3.1724e-06	1517.7	425.19	3.2751e-06	3.1652e-06	608.55	198.21	117.37	38.563	3.2686e-06	71.896	222.064	113.303	117.493	49.873	184.785	176.275	50.192	53.602	235.066	190.961	53.226	58.113	58.225	63.660	221.307	62.824	-8191	255	
2049.512	1	1	0	0	0.12864	0.24185	0.05992	0.1861	0.22016	0.14495	0.33862	0.21819	0.14332	0.1352	0.10437	0.37733	0.10303	0.29923	0.15204	0.17686	-2.8875	-3.8458	-2.9313	-3.8	-3.725	-3.1312	-3.9813	-3.525	-3.1458	-3.9229	-3.2167	-3.5708	-3.8958	-3.2438	-3.7438	-3.6521	110.934	277.080	127.066	345.556	100.918	161.209	341.207	378.346	102.322	340.528	201.128	362.100	381.352	129.537	333.276	39.180	0.00053189	0.00045426	0.00023439	1384.8	6.6051e-06	7.2685e-06	1661.2	459.34	2.6633e-06	9.6352e-06	666.15	210.11	123.37	39.835	7.9297e-06	73.885	0.00033253	0.00030009	8.4964e-05	1278	3.332e-06	3.3764e-06	1528.1	424.05	3.4029e-06	3.3994e-06	601.92	193.94	114.34	36.956	3.2967e-06	68.467	218.154	77.021	130.467	50.140	222.270	155.895	49.897	53.530	203.452	204.246	52.832	58.391	58.383	63.763	231.952	63.021	-8191	255	
2049.607	1	1	0	0	0.086477	0.15758	0.12413	0.3305	0.053756	0.13698	0.14131	0.12848	0.10782	0.096079	0.21915	0.065031	0.38316	0.099513	0.15389	0.071332	-2.7354	-3.7687	-3.1604	-3.7333	-3.7792	-3.0917	-4.05	-3.6729	-3.1021	-3.9042	-3.3208	-3.5292	-3.9354	-3.1542	-3.7812	-3.6375	69.017	222.174	373.996	345.689	154.047	58.058	280.463	272.450	193.150	38.719	74.381	313.421	46.195	182.036	161.337	134.099	0.00059077	0.00074068	0.00039927	1378.9	6.5687e-06	1.7483e-06	1651.7	452.4	5.1325e-06	8.4288e-06	657.9	205.44	121.46	38.209	1.5298e-06	71.691	0.00033276	0.0003004	8.5524e-05	1268.8	3.3248e-06	3.2044e-06	1514.4	415.3	3.3129e-06	3.1575e-06	592.6	189.17	112.11	35.581	3.2813e-06	66.44	216.071	60.311	81.928	50.072	171.402	39.768	49.948	53.816	247.776	188.765	53.449	58.308	58.562	64.169	199.950	62.973	-8191	255	
2049.703	1	1	0	0	0.12691	0.029911	0.035122	0.029444	0.12014	0.26424	0.22669	0.22473	0.059971	0.095592	0.025969	0.13018	0.22917	0.19073	0.095077	0.089177	-2.7542	-3.7833	-3.2854	-3.3854	-3.6375	-3.2167	-3.9104	-3.8396	-2.9479	-3.8458	-3.4542	-3.3083	-3.8125	-3.15	-3.6333	-3.7896	50.741	305.352	249.962	370.231	364.427	327.034	338.719	352.043	219.094	375.640	325.873	78.481	375.234	284.795	241.663	149.706	0.0004865	0.00034655	0.00034016	1379.3	6.8615e-06	7.5664e-06	1656.2	452.66	4.2331e-06	7.953e-06	662.35	206.75	122.14	38.246	5.1802e-06	72.828	0.00033261	0.00029567	8.1518e-05	1269.4	3.2327e-06	3.2148e-06	1520.4	416.5	3.2718e-06	3.0473e-06	595.39	190.34	112.83	35.729	3.1025e-06	67.183	212.067	138.815	122.385	49.939	205.133	204.717	49.936	53.592	236.353	177.915	53.145	58.553	58.284	63.743	222.413	63.059	-8191	255	
2049.801	1	1	0	0	0.10924	0.046533	0.12597	0.024066	0.28634	0.40531	0.11886	0.32257	0.13696	0.28709	0.2136	0.12601	0.096176	0.10205	0.13285	0.53009	-2.6833	-3.7833	-3.5396	-3.2625	-3.8625	-3.2271	-3.7542	-3.9208	-3.2542	-3.7896	-3.6688	-3.1562	-3.9	-3.4271	-3.5354	-4.0938	212.687	156.709	171.686	385.132	252.927	301.350	298.030	389.126	167.529	280.331	359.127	383.734	360.449	372.052	340.333	328.779	0.00055649	0.00053451	0.00011253	1375.7	1.0588e-05	7.7906e-06	1645.3	454.89	1.8839e-06	8.8096e-06	661.59	208.88	123.28	39.161	1.5007e-06	73.78	0.00032262	0.00028383	8.0393e-05	1268.4	3.1501e-06	3.0159e-06	1516.9	419.24	3.1787e-06	2.9551e-06	596.89	192.46	114.05	36.359	2.9759e-06	68.29	216.015	142.801	160.739	49.756	241.215	184.814	50.229	53.538	217.914	223.624	52.803	58.164	58.085	63.491	83.494	62.862	-8191	255	
2049.920	1	1	0	0	0.12303	0.16858	0.1385	0.36381	0.10315	0.096967	0.28331	0.28599	0.12473	0.26619	0.086081	0.03565	0.12663	0.14993	0.043069	0.086385	-2.7625	-3.8042	-3.4917	-3.2396	-3.8479	-3.2854	-3.6	-4.0062	-3.1875	-3.6729	-3.5146	-3.3354	-3.9083	-3.2833	-3.2583	-3.9667	136.683	329.511	191.373	312.612	258.031	219.624	329.430	332.054	47.479	46.376	313.262	228.628	243.424	71.325	366.344	326.807	0.00058212	0.00068027	0.0001629	1383.5	3.9058e-06	4.4421e-06	1652.7	455.91	4.941e-06	7.4167e-06	667.29	209.15	124.07	39.253	5.5582e-06	73.985	0.00031273	0.00027389	7.5922e-05	1271.5	3.0302e-06	3.0007e-06	1515.1	420.49	3.0887e-06	2.9658e-06	597.84	192.74	114.42	36.268	3.0603e-06	68.391	210.930	95.857	117.341	49.809	280.196	177.214	50.023	53.411	222.646	216.207	52.589	57.965	58.271	63.283	238.531	62.505	-8191	255	
2049.991	1	1	0	0	0.036587	0.11785	0.2896	0.28046	0.12899	0.10627	0.16249	0.17066	0.16766	0.10394	0.1075	0.29764	0.13085	0.17583	0.10736	0.30777	-2.5375	-3.4708	-3.5875	-3.3625	-4.05	-3.3688	-3.3688	-4.1521	-3.2396	-3.5687	-3.7771	-3.1021	-3.8625	-3.6	-3.2417	-3.9833	244.221	160.659	195.609	53.814	218.545	394.725	361.206	368.818	371.095	296.298	37.516	354.926	45.683	57.911	377.921	386.597	0.00053078	0.00037121	0.0002109	1363.8	1.152e-05	4.1708e-06	1630.9	448.84	4.9714e-06	8.7423e-06	661.35	209.38	124.34	39.385	7.1602e-06	75.986	0.00030502	0.00026815	7.4892e-05	1253.9	2.9599e-06	2.9145e-06	1497.1	413.63	2.9547e-06	2.808e-06	590.68	192.55	114.65	36.725	2.9294e-06	70.21	213.487	112.005	147.015	49.882	219.503	215.047	50.176	53.479	214.341	197.979	52.746	57.876	58.274	63.358	220.229	62.642	-8191	255	
2050.112	1	1	0	0	0.2274	0.20102	0.095607	0.30644	0.19758	0.14476	0.14215	0.1521	0.064392	0.19348	0.26936	0.13022	0.36393	0.076523	0.14262	0.14276	-2.7604	-3.3292	-3.7896	-3.0729	-3.6771	-3.5896	-3.3583	-4.0312	-3.2438	-3.4437	-3.9292	-3.2812	-3.7917	-3.7896	-3.0062	-4.0792	87.854	234.695	152.614	389.391	269.852	200.313	314.648	352.152	265.453	172.209	239.171	349.586	366.563	275.739	353.965	50.598	0.00045801	0.00038819	0.00010807	1337.6	3.6918e-06	9.22e-06	1614.7	446.14	4.5515e-06	1.3528e-05	652.11	209.6	123.16	40.415	4.7517e-06	77.399	0.00029832	0.00027033	7.4124e-05	1237.1	2.8728e-06	2.8065e-06	1481.1	410.74	2.8534e-06	2.84e-06	586.94	193.1	114.19	37.463	2.9233e-06	71.509	215.529	98.484	112.057	49.919	156.690	199.809	49.934	53.575	200.915	220.701	52.432	58.158	57.913	63.342	260.219	62.966	-8191	255	
2050.208	1	1	0	0	0.055403	0.085088	0.045215	0.12945	0.088146	0.17007	0.035465	0.10551	0.16777	0.10033	0.25612	0.32448	0.1502	0.30588	0.088191	0.14458	-2.8854	-3.3187	-3.8458	-3.1917	-3.6688	-3.6271	-3.375	-3.9354	-3.2	-3.3312	-4.0312	-3.2917	-3.7854	-3.8396	-3.1229	-3.9896	71.853	331.996	387.907	348.790	215.659	154.913	119.211	334.977	50.506	253.663	319.800	37.161	383.833	370.204	150.268	351.094	0.00054424	0.00068303	0.00023579	1344.3	1.1139e-05	1.0347e-05	1628.3	451.41	8.4024e-06	1.2939e-05	657.09	210.1	124.03	40.241	4.6235e-06	77.517	0.00030244	0.00027083	7.6338e-05	1238.9	3.0121e-06	2.9016e-06	1495.7	414.35	3.0199e-06	3.0334e-06	593.05	193.84	114.93	37.656	2.9672e-06	71.779	222.932	113.884	51.222	49.725	221.347	174.086	49.993	53.386	236.882	180.741	53.201	57.427	57.875	63.269	250.659	62.750	-8191	255	
2050.304	1	1	0	0	0.10626	0.22103	0.14952	0.21044	0.0064879	0.13705	0.11912	0.28862	0.29077	0.21206	0.17105	0.23604	0.13005	0.16292	0.30114	0.15605	-2.9958	-3.0958	-3.6896	-3.2208	-3.5458	-3.8063	-3.5125	-3.9833	-3.5	-3.0917	-4.1292	-3.3792	-3.4375	-3.9104	-3.1854	-3.9813	387.512	310.675	248.077	364.305	358.941	347.453	40.700	340.295	375.625	89.775	227.113	41.994	354.490	203.731	52.337	350.499	0.00056181	0.00076398	0.00021266	1364.4	5.6833e-06	3.1485e-06	1629.2	447.3	9.9815e-06	1.0122e-05	654.07	209.59	123.29	39.285	9.0929e-06	74.954	0.00030755	0.00027481	7.5581e-05	1251.1	3.089e-06	2.9257e-06	1497.3	412.61	3.0866e-06	3.0687e-06	590.85	192.49	113.74	36.578	3.0851e-06	69.382	222.422	121.014	76.442	49.555	228.241	228.987	49.783	53.541	239.363	226.419	53.091	57.830	57.917	63.166	244.859	62.779	-8191	255	
2050.400	1	1	0	0	0.15873	0.097949	0.14085	0.40984	0.096176	0.31612	0.22976	0.15828	0.1117	0.23547	0.2782	0.1529	0.24744	0.14736	0.22444	0.14178	-3.2458	-3.1021	-3.9062	-3.5104	-3.3958	-3.9083	-3.3354	-3.8104	-3.7062	-3.0563	-3.8917	-3.6063	-3.2833	-3.9646	-3.1583	-3.8104	144.947	320.502	226.677	377.675	92.877	216.183	303.115	317.437	169.599	213.033	36.658	342.169	314.727	160.081	121.098	362.164	0.00055722	0.00098034	0.00021785	1346.2	7.4253e-06	6.6605e-06	1621.9	443.84	6.2495e-06	4.6978e-06	648.07	206	121.18	39.008	6.6166e-06	74.679	0.00031524	0.00027552	7.5126e-05	1239.1	3.029e-06	2.9633e-06	1485.8	407.74	2.9588e-06	2.9825e-06	582.27	189.3	111.81	36.211	2.9689e-06	68.88	226.523	105.740	143.796	49.760	212.100	221.722	50.089	53.661	217.961	178.806	53.117	57.657	58.054	63.511	209.392	62.832	-8191	255	
2050.521	1	1	0	0	0.099671	0.11794	0.19201	0.21659	0.1177	0.098423	0.18434	0.22914	0.17339	0.089892	0.15958	0.099269	0.14058	0.16944	0.11549	0.053473	-3.2313	-3.0396	-3.5708	-3.5187	-3.2125	-3.9104	-3.4667	-3.6958	-3.55	-3.0396	-3.7521	-3.5271	-3.2854	-3.875	-3.0167	-3.6937	115.841	356.741	54.879	69.631	295.158	122.117	313.746	355.703	155.788	335.331	340.431	50.102	274.841	382.868	349.820	145.884	0.00050551	0.0006227	0.00014088	1349.8	7.0776e-06	1.006e-05	1621.6	444.41	4.3762e-06	6.3927e-06	652.72	208.16	122.15	39.329	4.151e-06	75.999	0.00029913	0.00026926	7.4879e-05	1243.4	3.0478e-06	2.8778e-06	1487.5	408.79	2.9234e-06	2.9574e-06	585.1	190.89	112.41	36.571	2.956e-06	69.978	216.909	103.469	121.920	49.554	215.401	183.438	49.941	53.617	197.388	222.050	53.007	57.990	58.266	63.790	274.246	62.853	-8191	255	
2050.615	1	1	0	0	0.23321	0.19903	0.20379	0.24042	0.11236	0.18976	0.17504	0.15134	0.14646	0.1632	0.0068635	0.30371	0.21537	0.071896	0.30028	0.087742	-3.3792	-3.2104	-3.6312	-3.7562	-3.0104	-4.0312	-3.3979	-3.6708	-3.8583	-2.9958	-3.6104	-3.6813	-3.1937	-3.7792	-3.2354	-3.3875	79.873	273.620	137.108	348.308	297.704	276.543	294.923	313.089	296.943	222.401	320.029	322.869	394.217	373.054	108.151	275.048	0.00055927	0.0015256	0.00032535	1354.3	8.4882e-06	5.739e-06	1627	444.64	6.2495e-06	1.1038e-05	661.33	207.75	122.19	39.949	7.6362e-06	76.297	0.00030525	0.00027513	7.4412e-05	1246.5	3.029e-06	2.91e-06	1491.8	410.09	2.9251e-06	2.9243e-06	590.56	191.42	112.82	37.114	2.9097e-06	70.405	224.559	116.929	141.800	49.913	199.642	175.425	49.939	53.728	230.283	164.024	52.910	58.401	58.694	63.991	199.530	63.155	-8191	255	
2050.687	1	1	0	0	0.24529	0.31805	0.077743	0.34789	0.067343	0.070505	0.12531	0.18488	0.1322	0.16106	0.12844	0.29203	0.22848	0.12354	0.17991	0.18646	-3.4854	-3.0271	-3.6417	-3.8604	-3.1854	-3.9542	-3.7396	-3.4917	-4.0104	-3.2687	-3.7833	-3.8958	-3.1729	-4.1354	-3.5125	-3.3125	321.010	268.571	69.092	361.978	79.734	322.219	387.919	310.182	168.173	128.735	272.755	50.216	178.385	53.282	67.006	393.897	0.00055014	0.00066669	0.00019667	1365.6	8.5014e-06	5.756e-06	1632.2	447.03	6.2544e-06	7.2108e-06	650.92	206.65	120.57	38.727	6.3075e-06	73.611	0.00030386	0.00027725	7.5227e-05	1255.9	3.0094e-06	2.8884e-06	1500.3	410.55	2.947e-06	2.9259e-06	585.14	189.47	111.2	35.858	2.8398e-06	67.892	221.434	104.098	131.659	49.894	238.574	226.442	49.841	53.716	215.344	165.920	53.269	58.055	58.396	64.070	282.545	63.105	-8191	255	
2050.785	1	1	0	0	0.11017	0.18242	0.18019	0.40684	0.070871	0.047297	0.19309	0.28365	0.12306	0.084757	0.22125	0.2131	0.034903	0.28838	0.0614	0.11664	-3.3208	-3.175	-3.5	-4.0333	-3.1813	-3.9062	-3.8208	-3.275	-3.7687	-3.4167	-3.4646	-3.8708	-3.1292	-3.8896	-3.525	-3.375	111.993	253.842	57.631	58.667	299.777	212.314	340.047	343.544	65.702	97.459	92.350	318.615	62.430	379.661	56.289	115.437	0.00057871	0.00045106	0.00017584	1354.1	3.8704e-06	7.7359e-06	1623.7	442.64	5.5636e-06	4.2679e-06	650.4	204.56	120.61	38.559	5.0353e-06	73.722	0.00029694	0.00026369	7.3619e-05	1245	2.9011e-06	2.8566e-06	1489.5	406.27	2.8594e-06	2.7855e-06	582.63	188.45	111.05	35.843	2.7889e-06	68.123	222.123	148.981	63.862	49.961	222.143	128.959	49.664	53.769	259.560	166.322	52.869	57.904	58.651	63.778	217.001	63.082	-8191	255	
2050.904	1	1	0	0	0.32172	0.10531	0.2393	0.237	0.18805	0.19742	0.15343	0.1223	0.13878	0.23645	0.20458	0.17666	0.18261	0.085359	0.14893	0.17884	-3.4188	-3.1771	-3.3333	-4.2271	-3.1813	-3.7083	-3.8	-3.2479	-3.9521	-3.3063	-3.2604	-3.9875	-3.2271	-3.7167	-3.6396	-3.3292	232.459	319.005	342.879	36.613	111.845	297.970	372.387	367.908	55.599	198.359	260.624	288.670	101.314	42.308	304.623	252.051	0.00052504	0.00061009	0.0002186	1365	2.7853e-06	6.7036e-06	1629.3	444.92	7.9432e-06	9.2348e-06	653.94	205.85	120.52	38.791	6.3287e-06	73.757	0.00029112	0.00025524	7.1498e-05	1254.5	2.8873e-06	2.784e-06	1497.9	408.38	2.9368e-06	2.7264e-06	585.97	189.16	111.23	36.002	2.8472e-06	68.11	217.346	103.631	108.312	49.843	224.510	186.163	49.913	53.832	240.578	178.158	53.290	57.976	58.528	63.384	174.282	63.085	-8191	255	
2051.000	1	1	0	0	0.23824	0.14008	0.092859	0.26701	0.14332	0.13485	0.23349	0.39339	0.13396	0.056624	0.036518	0.22386	0.18398	0.12669	0.24057	0.049483	-3.4854	-3.3479	-3.3312	-4.0271	-3.1229	-3.6771	-3.9333	-3.2854	-3.7938	-3.5563	-3.4313	-4.075	-3.1	-3.7188	-3.8042	-3.2479	59.845	41.439	376.654	361.147	312.373	360.245	299.658	317.073	372.066	97.716	303.149	346.135	108.800	385.888	253.843	333.428	0.00054384	0.000638	0.00014774	1376	5.8507e-06	6.5029e-06	1638.3	447.39	6.4804e-06	3.6981e-06	659.99	206.89	121.28	38.838	4.7758e-06	73.232	0.00029131	0.00025778	7.1391e-05	1261.8	2.8641e-06	2.8171e-06	1503.8	411.69	2.9224e-06	2.8546e-06	590.5	190.23	111.66	36.014	2.8989e-06	67.575	217.671	105.025	130.789	49.920	198.861	199.313	49.759	54.013	244.286	185.595	53.225	58.081	58.364	63.526	213.501	62.935	-8191	255	
2051.096	1	1	0	0	0.12309	0.18957	0.27593	0.081762	0.1344	0.17542	0.23434	0.23637	0.1286	0.10803	0.39089	0.3569	0.25916	0.19099	0.068985	0.21825	-3.3229	-3.5542	-3.0542	-3.9604	-3.1312	-3.4813	-4.0708	-3.1542	-3.7667	-3.5875	-3.3521	-3.9896	-3.275	-3.4	-3.9188	-3.4146	74.381	57.509	242.848	295.440	221.635	302.423	47.120	39.446	150.950	71.335	338.058	344.890	357.532	341.562	282.711	378.136	0.00054583	0.0008251	0.00011302	1385.2	7.1774e-06	5.398e-06	1657.3	449.08	6.0409e-06	5.123e-06	658.79	203.97	120.15	37.336	3.7961e-06	69.943	0.00029458	0.00026081	7.1635e-05	1274.2	2.8723e-06	2.8276e-06	1514.8	412.41	2.8659e-06	2.8447e-06	587.44	187.22	110.29	34.689	2.7228e-06	64.712	219.439	92.590	113.181	49.910	236.020	192.163	49.937	53.545	227.823	190.616	52.952	57.555	58.032	63.593	202.932	62.750	-8191	255	
2051.192	1	1	0	0	0.23478	0.20256	0.0558	0.14479	0.28852	0.19145	0.2366	0.17827	0.21996	0.16808	0.32615	0.18696	0.18989	0.065446	0.15948	0.068179	-3.3438	-3.6542	-3.1104	-4	-3.2375	-3.3583	-3.95	-3.1583	-3.6958	-3.5875	-3.075	-3.8417	-3.55	-3.3604	-3.8271	-3.4167	95.418	369.989	97.249	38.987	67.968	93.218	336.824	49.858	103.844	57.078	352.231	288.536	42.633	259.692	354.813	303.224	0.00049718	0.00024563	0.00027639	1383.3	7.8617e-06	2.689e-06	1646	446.41	5.5772e-06	3.6401e-06	650.79	203.61	119.54	37.44	4.9476e-06	70.005	0.00028558	0.00025541	7.2343e-05	1269.4	2.7911e-06	2.7685e-06	1508.4	410.18	2.8006e-06	2.7588e-06	585.69	186.68	110.13	34.739	2.7831e-06	64.689	221.069	99.279	91.814	50.138	238.804	257.601	49.863	53.761	247.247	203.959	53.057	57.988	57.974	63.406	235.638	62.873	-8191	255	
2051.288	1	1	0	0	0.23174	0.1381	0.15324	0.16947	0.021586	0.28856	0.074669	0.25903	0.083748	0.12825	0.22997	0.21198	0.31661	0.1512	0.094295	0.01548	-3.0792	-3.6521	-3.0333	-4.1104	-3.4313	-3.3	-4.0521	-3.4667	-3.3312	-3.7333	-3.1813	-3.725	-3.6292	-3.1729	-3.7646	-3.4437	294.835	315.482	111.212	229.886	200.950	334.892	266.718	296.237	132.818	95.913	375.762	354.459	369.563	78.152	191.501	186.079	0.00053532	0.00085789	7.2807e-05	1391.2	8.2412e-06	1.0717e-05	1649.7	448.5	7.9849e-06	5.499e-06	651.51	204.12	119.99	37.875	7.0694e-06	70.548	0.00028875	0.00026016	7.2087e-05	1277.9	2.8353e-06	2.8593e-06	1517.4	412.41	2.9236e-06	2.7537e-06	588.51	187.94	111.07	35.073	2.8166e-06	65.392	222.445	114.998	63.651	48.225	214.419	220.528	48.486	51.866	201.454	143.503	51.272	56.337	56.413	61.875	234.563	61.340	-8191	255	
2051.384	1	1	0	0	0.13459	0.19924	0.16057	0.18978	0.15503	0.29161	0.16423	0.34376	0.15165	0.051032	0.17378	0.15918	0.20725	0.14273	0.21022	0.037476	-2.9625	-3.7479	-3.1437	-3.9208	-3.3979	-3.1937	-4.0188	-3.4083	-3.2812	-3.7458	-3.075	-3.7438	-3.7292	-3.1417	-3.9104	-3.2854	75.464	294.054	243.767	349.373	243.320	348.234	294.928	294.432	211.884	278.272	324.783	173.980	366.689	328.907	356.477	42.212	0.00048897	0.00076135	6.6015e-05	1402.8	8.1806e-06	6.0779e-06	1665.1	452.82	3.9513e-06	4.5453e-06	661.6	204.38	121.38	37.967	8.9926e-06	71.049	0.00030375	0.00027213	7.4451e-05	1289.1	2.894e-06	2.9315e-06	1532.5	416.79	2.9344e-06	2.8753e-06	593.45	189.41	112.06	35.286	2.8957e-06	65.547	214.264	145.231	114.159	48.621	258.553	179.993	47.920	51.751	179.023	166.838	51.108	56.286	56.065	61.499	231.374	60.936	-8191	255	
2051.481	1	1	0	0	0.25959	0.083613	0.1724	0.39506	0.12677	0.21287	0.20115	0.08653	0.071573	0.36165	0.040306	0.11958	0.12781	0.10062	0.15062	0.30413	-2.9708	-3.9104	-3.2208	-3.7521	-3.6729	-3	-4.1937	-3.5229	-3.1458	-3.9354	-3.3083	-3.5646	-3.9333	-3.1021	-3.7854	-3.6417	381.584	261.437	72.206	388.721	324.291	290.286	326.803	325.960	49.112	36.184	282.029	330.309	385.695	316.449	96.660	296.461	0.00054817	0.0006424	0.00011809	1397.1	5.6977e-06	9.4632e-06	1664.4	449.98	5.3661e-06	7.6116e-06	655.16	204.08	120.25	37.689	4.8256e-06	70.173	0.0002994	0.00026593	7.5132e-05	1284.4	2.9471e-06	2.8407e-06	1529	415.23	2.9494e-06	2.8726e-06	588.28	188.13	111.01	34.855	2.8082e-06	64.674	224.634	139.085	34.380	48.371	183.179	233.212	48.198	51.428	190.943	171.821	51.475	56.335	56.331	61.315	265.714	60.989	-8191	255	
2051.601	1	1	0	0	0.1375	0.22017	0.17585	0.24923	0.14607	0.24522	0.17435	0.19267	0.12326	0.0744	0.18599	0.38285	0.24912	0.1305	0.04516	0.22826	-2.8271	-3.7896	-3.3854	-3.6417	-3.7687	-3.1667	-4.025	-3.5646	-3.2667	-3.9562	-3.3396	-3.5167	-3.8854	-3.0625	-3.5958	-3.7021	156.793	345.847	136.779	369.914	172.949	239.379	336.021	363.032	353.933	308.796	355.699	344.740	369.733	327.941	128.770	305.745	0.00048161	0.00010864	0.00026022	1394.6	8.2613e-06	4.4888e-06	1664.6	448.23	9.3661e-06	8.5861e-06	650.35	204.55	121.72	37.8	6.6971e-06	70.858	0.00029209	0.00026254	7.1991e-05	1284.3	2.8986e-06	2.8924e-06	1528.6	414.63	2.8665e-06	2.8738e-06	589.27	188.46	112.03	35.136	2.8257e-06	65.572	211.776	365.119	103.770	48.228	202.003	186.836	48.239	51.688	235.470	208.002	50.697	56.258	56.046	61.345	217.507	60.501	-8191	255	
2051.696	1	1	0	0	0.06469	0.092784	0.17051	0.11627	0.13226	0.037441	0.095866	0.25546	0.18076	0.11669	0.29069	0.056086	0.144	0.16569	0.31516	0.090587	-2.5667	-3.5833	-3.1312	-3.3375	-3.75	-3.0979	-3.8229	-3.8042	-2.9896	-3.7875	-3.3	-3.1708	-3.8396	-3.2333	-3.4688	-3.8063	191.454	361.230	334.151	35.989	283.514	315.706	265.550	227.557	297.781	225.534	380.695	376.203	97.463	342.126	70.774	36.203	0.00046628	0.00038093	0.0002818	1398.1	2.5968e-06	1.6346e-05	1662.6	452.21	2.761e-06	9.2118e-06	655.8	208.22	122.01	38.658	4.5434e-06	73.341	0.00029727	0.00025936	7.1582e-05	1288.3	2.9826e-06	2.924e-06	1527.8	416.25	2.8871e-06	2.8083e-06	591.73	191.4	112.79	35.954	2.934e-06	67.716	224.596	153.676	110.714	48.137	237.784	185.845	48.327	51.640	190.348	228.212	51.085	56.453	56.133	61.640	211.407	61.060	-8191	255	
2051.792	1	1	0	0	0.040661	0.097997	0.09879	0.024119	0.1578	0.076963	0.19758	0.28134	0.10567	0.14092	0.19186	0.33297	0.2718	0.33991	0.050582	0.077304	-2.6292	-3.8187	-3.3146	-3.2708	-3.8937	-3.0542	-3.5458	-3.7375	-3.0125	-3.85	-3.5208	-3.3708	-3.9479	-3.175	-3.3792	-3.8917	201.227	221.604	223.575	348.538	159.972	167.644	380.107	330.306	231.324	210.094	52.174	374.633	387.985	379.494	198.623	381.152	0.00051801	0.00042899	0.00024045	1398.7	7.3007e-06	9.3208e-06	1659.5	455.12	5.0102e-06	7.5408e-06	663.77	209.53	123.04	39.224	7.1809e-06	74.167	0.0003098	0.00026654	7.3882e-05	1286.7	2.9349e-06	2.9356e-06	1528.6	418.13	2.9961e-06	2.9139e-06	594.94	193.43	113.78	36.535	2.9782e-06	68.585	220.665	102.253	150.781	48.355	248.502	190.271	48.468	51.846	217.821	195.414	50.836	56.251	56.245	61.570	193.004	61.120	-8191	255	
2051.888	1	1	0	0	0.1859	0.029643	0.14816	0.42406	0.40642	0.15861	0.24532	0.1711	0.059552	0.22212	0.1395	0.34468	0.077087	0.17624	0.17036	0.30181	-2.6688	-3.7667	-3.5667	-3.3417	-3.6667	-3.4083	-3.5854	-3.9604	-3.1771	-3.6562	-3.8	-3.2354	-3.95	-3.15	-3.2479	-3.8958	258.545	283.046	282.256	360.488	41.769	270.893	352.914	356.444	345.815	373.679	57.966	82.868	351.716	67.218	291.569	313.726	0.00047537	0.00047672	0.00025543	1395.4	6.0498e-06	7.6321e-06	1659.1	448.08	4.0607e-06	3.255e-06	654.25	207.53	122.59	38.881	3.7073e-06	73.237	0.00030736	0.00026322	7.4983e-05	1280.6	2.9214e-06	2.9167e-06	1524.5	413.61	2.9776e-06	2.9228e-06	590.38	191.4	113.02	36.091	2.9623e-06	68.07	218.562	112.275	144.497	48.228	237.575	182.687	48.359	51.773	213.540	170.999	51.460	56.092	56.402	61.864	183.415	61.216	-8191	255	
2051.984	1	1	0	0	0.065289	0.057451	0.22725	0.22518	0.059983	0.15728	0.46542	0.15767	0.083936	0.096586	0.20221	0.16987	0.3631	0.090325	0.14757	0.1797	-2.6833	-3.5354	-3.5979	-3.3542	-3.7687	-3.2583	-3.4417	-4.0896	-3.1667	-3.5375	-3.575	-3.0458	-3.9333	-3.4021	-3.0646	-3.9854	76.955	301.275	53.218	361.237	180.641	57.941	347.127	49.877	301.743	126.454	302.094	258.328	130.769	46.355	267.938	300.658	0.00052937	0.00038288	0.00016968	1385.8	2.051e-06	6.2285e-06	1657.7	448.21	2.9898e-06	7.4027e-06	656.97	208.93	122.97	39.376	8.3032e-06	74.747	0.00030341	0.00026445	7.3836e-05	1274.8	2.9855e-06	2.9309e-06	1521.7	412.99	2.9343e-06	2.9154e-06	590.6	192.36	113.56	36.578	2.8994e-06	68.822	216.249	85.076	127.916	48.103	243.249	231.598	48.343	52.181	158.206	211.335	51.431	56.441	56.532	61.836	242.385	61.195	-8191	255	
2052.080	1	1	0	0	0.097686	0.046113	0.13746	0.14656	0.070232	0.15697	0.20045	0.26116	0.25165	0.22008	0.097799	0.14747	0.18643	0.082971	0.099855	0.13436	-2.6604	-3.4813	-3.7646	-3.2812	-3.7167	-3.4562	-3.3	-4.0917	-3.275	-3.6292	-3.8292	-3.2896	-3.8688	-3.6813	-3.1042	-3.8	81.367	299.812	162.672	342.729	150.523	280.075	282.369	363.967	355.765	276.513	362.181	251.347	297.999	132.141	125.497	302.618	0.0005259	0.00080528	0.00012639	1393.7	7.5131e-06	6.8989e-06	1664.8	452.78	6.1579e-06	1.132e-05	661.18	209.85	123.7	39.641	7.6984e-06	75.509	0.00030054	0.00026784	7.6079e-05	1284	3.0072e-06	2.9728e-06	1528.2	416.61	3.0685e-06	2.9043e-06	595.49	193.81	114.35	36.84	3.0573e-06	69.665	218.682	129.377	103.862	48.324	195.518	198.259	48.513	52.028	225.082	209.594	51.422	56.253	56.433	61.693	238.148	61.249	-8191	255	
2052.201	1	1	0	0	0.29167	0.20337	0.030125	0.099749	0.26836	0.02954	0.27178	0.23451	0.20602	0.15425	0.069064	0.18669	0.20322	0.22012	0.076796	0.14972	-2.7667	-3.3604	-3.8292	-3.1813	-3.5833	-3.7604	-3.3396	-3.9854	-3.1583	-3.1875	-4.0625	-3.1979	-3.6792	-3.7313	-3.0792	-3.9417	365.295	85.364	191.981	210.397	239.448	210.443	265.106	328.738	112.662	360.761	170.661	370.509	314.702	327.433	211.564	296.319	0.00052992	0.00035978	0.0004729	1396.4	7.7252e-06	3.1771e-06	1666.2	451.56	9.6031e-06	7.8271e-06	657.14	208.65	122.83	39.426	4.1097e-06	74.996	0.00031036	0.0002782	7.6892e-05	1288.7	2.9894e-06	3.0204e-06	1531.4	417.08	2.8843e-06	2.9228e-06	592.11	192.77	113.37	36.644	2.9509e-06	69.023	217.710	89.585	117.285	48.401	218.638	186.332	48.432	51.970	245.964	180.123	51.262	56.453	56.780	61.735	232.599	61.562	-8191	255	
2052.295	1	1	0	0	0.31923	0.29183	0.1224	0.26761	0.11433	0.33228	0.2533	0.10823	0.058192	0.1365	0.23168	0.36326	0.17492	0.20499	0.11364	0.12107	-3.1042	-3.1583	-3.9208	-3.2729	-3.4854	-3.7229	-3.2708	-3.8521	-3.2917	-3.1396	-3.7854	-3.2625	-3.4792	-3.6958	-2.9167	-3.8854	364.033	144.606	362.872	349.976	217.064	49.571	289.895	358.278	349.766	217.902	359.689	351.283	356.298	295.967	36.424	298.017	0.00050195	0.00075868	0.00012899	1378.6	8.8337e-06	8.3993e-06	1635.7	440.06	7.6456e-06	7.5449e-06	644.34	204.74	119.35	38.405	7.2737e-06	73.505	0.00028983	0.00026201	7.2579e-05	1266.6	2.832e-06	2.8206e-06	1502.4	406.97	2.9401e-06	2.8187e-06	582.72	188.8	110.69	35.811	2.8414e-06	67.943	217.751	90.787	142.675	48.332	198.897	182.625	48.530	52.360	199.347	145.510	51.628	56.465	56.791	62.059	194.775	61.469	-8191	255	
2052.391	1	1	0	0	0.033657	0.064994	0.14339	0.013915	0.10619	0.13049	0.47303	0.0021846	0.17095	0.24058	0.13711	0.25051	0.13123	0.091787	0.09411	0.23173	-3.1104	-3.025	-3.7417	-3.2604	-3.3771	-3.7292	-3.1792	-3.7521	-3.5708	-3.0312	-3.9	-3.4021	-3.3625	-3.6875	-3.025	-3.6021	144.673	211.996	268.052	88.937	344.355	104.980	355.790	180.000	321.463	263.252	278.114	301.099	328.627	341.605	283.730	273.778	0.00055256	0.0007203	0.00020939	1373	8.6046e-06	1.0191e-05	1649.5	444.58	6.5719e-06	4.0298e-06	653.12	206.75	120.51	38.661	2.6457e-06	73.145	0.00029458	0.00026489	7.4478e-05	1265.9	2.923e-06	2.9033e-06	1512.6	410.07	2.9395e-06	2.9185e-06	587.86	190.17	111.82	35.804	2.972e-06	67.489	219.292	90.232	127.950	48.466	198.556	214.961	48.337	51.881	162.998	200.025	51.800	56.644	56.674	61.991	183.180	61.360	-8191	255	
2052.512	1	1	0	0	0.22608	0.15579	0.40059	0.22639	0.1562	0.13672	0.33364	0.11382	0.068959	0.067586	0.093223	0.23438	0.34968	0.052687	0.19736	0.46042	-3.1958	-2.9958	-3.7854	-3.3792	-3.0563	-3.9792	-3.4271	-3.8187	-3.65	-3.0792	-3.8292	-3.4562	-3.2938	-3.8896	-3.1354	-3.6167	235.334	131.545	52.948	80.112	175.122	183.814	48.394	281.390	347.270	54.757	117.710	350.317	334.932	340.747	98.439	356.670	0.00061526	0.00059194	0.00028908	1402.2	1.1305e-05	8.2179e-06	1656.8	448.92	4.5819e-06	7.4643e-06	655.03	206.64	121.71	38.225	6.6439e-06	73.236	0.00030234	0.00027724	7.6911e-05	1284.7	3.0195e-06	2.9145e-06	1522.4	413.28	2.9868e-06	2.927e-06	589.61	190.25	112.15	35.658	3.0162e-06	67.755	222.080	114.803	54.369	48.328	243.592	168.536	48.130	52.125	206.992	166.742	51.458	55.749	56.668	61.635	178.746	61.684	-8191	255	
2052.584	1	1	0	0	0.077557	0.12874	0.20558	0.27877	0.121	0.014398	0.22155	0.41118	0.056195	0.14298	0.10655	0.19582	0.17082	0.14328	0.15368	0.21646	-3.2771	-2.9854	-3.6479	-3.5896	-3.0729	-3.8229	-3.3875	-3.5417	-3.8208	-2.9958	-3.6667	-3.5792	-3.1271	-3.9167	-3.1688	-3.3521	200.403	165.741	136.534	339.524	314.430	240.076	361.258	325.764	98.409	127.326	375.980	284.273	370.746	292.301	304.975	63.870	0.0005005	0.00098235	0.00032253	1399.4	4.2468e-06	9.6482e-06	1664.3	448.65	5.6408e-06	1.4385e-05	658.1	207.59	121.11	38.347	5.2207e-06	72.676	0.00031444	0.00027863	7.6199e-05	1291.3	3.1351e-06	2.9781e-06	1535	413.86	3.1014e-06	3.0632e-06	590.91	190.5	111.8	35.567	3.0401e-06	67.183	221.597	120.444	103.279	48.335	201.231	173.343	48.209	52.216	246.071	176.696	51.792	55.990	56.633	61.917	189.461	61.427	-8191	255	
2052.680	1	1	0	0	0.21336	0.093058	0.12426	0.19987	0.074295	0.13344	0.26143	0.31077	0.03804	0.25867	0.14308	0.195	0.024596	0.24764	0.21351	0.37076	-3.5146	-3.0938	-3.6417	-3.7104	-3.0771	-3.8021	-3.5146	-3.4333	-3.8646	-3.1771	-3.6312	-3.7708	-3.1271	-3.7562	-3.3187	-3.3104	374.466	353.732	145.157	43.135	361.194	105.976	34.897	388.615	235.336	154.664	167.969	383.166	36.000	373.337	110.399	341.770	0.0005139	0.00026712	0.00010465	1397.1	9.0463e-06	9.3578e-06	1655.9	444.31	6.9116e-06	6.1131e-06	649.37	203.92	119.22	37.528	6.1896e-06	71.779	0.00030696	0.00028092	7.4691e-05	1279.9	3.167e-06	3.0201e-06	1520.6	409.28	3.0153e-06	2.9644e-06	583.69	188.22	110.21	34.849	2.993e-06	66.401	219.237	97.761	96.009	48.291	212.973	187.097	48.293	52.231	195.344	164.241	51.794	56.414	56.715	62.056	235.621	61.472	-8191	255	
2052.776	1	1	0	0	0.051826	0.14265	0.17611	0.16093	0.074242	0.29633	0.33771	0.13322	0.15083	0.15515	0.17116	0.086142	0.22974	0.093669	0.2097	0.016293	-3.3688	-3.0417	-3.4479	-3.6896	-3.0375	-3.5833	-3.6979	-3.225	-3.7792	-3.1292	-3.5625	-3.9375	-3.0708	-3.7354	-3.4021	-3.1958	348.700	56.502	340.009	348.576	139.222	351.017	338.930	323.558	223.398	211.861	351.344	167.938	71.036	389.162	217.821	116.034	0.00048075	0.0011183	0.00030487	1378.6	5.215e-06	8.1616e-06	1651	441.5	7.309e-06	4.0711e-06	648.28	202.26	119.4	37.397	4.1853e-06	71.832	0.00030876	0.00027659	7.7796e-05	1274.4	3.0042e-06	3.0088e-06	1514.6	408.47	3.0091e-06	2.9524e-06	583	187.52	110.37	34.924	2.9479e-06	66.31	222.250	65.818	144.847	48.320	168.817	189.120	48.176	52.186	193.224	206.866	52.056	56.620	56.519	62.292	191.776	61.655	-8191	255	
2052.872	1	1	0	0	0.055768	0.1797	0.025748	0.13924	0.17137	0.19819	0.42455	0.20413	0.2103	0.21875	0.030488	0.22254	0.26806	0.19326	0.12072	0.22091	-3.4313	-3.1937	-3.2625	-3.9396	-2.9604	-3.575	-3.7396	-3.2104	-3.7917	-3.2792	-3.4521	-4.0563	-3.2438	-3.6229	-3.5125	-3.3958	291.607	371.785	100.210	307.572	312.344	234.500	320.450	367.655	270.688	363.837	336.412	370.973	333.064	59.653	315.092	374.829	0.00052874	0.0011905	0.00014633	1393.9	7.0194e-06	9.8157e-06	1658.3	444.61	3.14e-06	7.9983e-06	654.69	204.65	120.45	38.158	7.5183e-06	72.42	0.00031229	0.00027643	7.5297e-05	1278.9	3.1277e-06	3.0338e-06	1523.6	409.96	2.9776e-06	2.9842e-06	587.56	188.74	110.97	35.408	2.9787e-06	67.129	209.838	116.147	85.424	48.337	206.219	239.168	48.357	52.124	214.022	186.912	51.837	56.724	56.663	62.247	202.628	61.664	-8191	255	
2052.991	1	1	0	0	0.046416	0.13133	0.23104	0.27015	0.053772	0.078396	0.43744	0.2749	0.17459	0.14161	0.26581	0.045041	0.31005	0.26497	0.25427	0.27787	-3.3625	-3.2771	-3.2458	-4.0687	-3.1354	-3.7667	-3.8729	-3.4333	-3.9354	-3.4521	-3.375	-3.9521	-3.1562	-3.5896	-3.6604	-3.2896	212.988	73.274	382.750	365.493	169.718	184.511	318.820	325.844	246.952	177.161	75.697	277.705	366.588	175.668	57.200	342.566	0.00048682	0.00031441	0.00010398	1399.1	6.9991e-07	9.9027e-06	1665.7	449.06	7.486e-06	9.2668e-06	656.82	204.88	120.44	37.431	5.1469e-06	71.393	0.00030849	0.00027423	7.5925e-05	1288.2	3.0629e-06	2.9197e-06	1531	413.86	2.9526e-06	2.94e-06	590.01	188.82	111.11	34.946	2.9774e-06	65.948	213.606	98.782	161.528	48.554	201.473	203.649	48.487	52.090	262.384	181.463	51.680	56.601	56.717	61.804	209.614	61.417	-8191	255	
2053.087	1	1	0	0	0.19806	0.19351	0.13062	0.16356	0.17103	0.4017	0.18232	0.25092	0.18626	0.071793	0.090691	0.20481	0.097616	0.071857	0.094454	0.13675	-3.2812	-3.375	-3.1542	-4.0958	-3.1708	-3.4729	-3.9917	-3.2042	-3.6063	-3.4437	-3.3375	-3.9521	-3.3896	-3.5042	-3.7896	-3.3667	144.406	360.202	231.753	66.726	319.796	196.986	320.872	321.767	106.943	263.514	47.519	392.304	330.667	232.514	382.924	34.140	0.00046862	0.00051787	0.00021633	1390.7	8.0503e-06	8.0546e-06	1645	445.66	4.5725e-06	8.1074e-06	651.31	202.95	119.48	37.079	5.4173e-06	70.772	0.00029135	0.0002675	7.4171e-05	1280.8	2.8858e-06	2.9088e-06	1518.2	411.1	2.9201e-06	2.8437e-06	585.38	187.3	110.54	34.544	2.7947e-06	65.174	223.558	146.190	81.722	48.399	162.582	189.399	48.506	52.116	214.848	199.705	51.538	56.513	56.516	61.958	231.890	61.574	-8191	255	
2053.161	1	1	0	0	0.23187	0.16284	0.14103	0.1887	0.18255	0.21356	0.26546	0.030706	0.16957	0.19332	0.23397	0.1152	0.055497	0.098701	0.016181	0.14949	-3.2021	-3.5458	-2.9437	-4.0938	-3.2062	-3.4229	-3.9062	-3.2521	-3.65	-3.6604	-3.1375	-3.9604	-3.5521	-3.4292	-3.8375	-3.3729	323.335	103.913	86.362	285.020	114.083	356.550	310.098	352.686	310.207	40.017	391.842	188.937	347.361	371.786	340.360	371.054	0.00049432	0.00047342	0.00015354	1396.7	1.0183e-05	7.3581e-06	1656.1	448.57	7.3247e-06	2.6575e-06	650.48	203.71	120.36	37.311	3.8539e-06	71.163	0.00028646	0.00026401	7.2165e-05	1284.9	2.9503e-06	2.8302e-06	1524.5	413.41	2.8891e-06	2.9151e-06	586.44	187.97	111.03	34.811	2.9267e-06	65.947	219.366	129.578	132.011	48.498	201.042	144.444	48.482	52.110	227.767	155.948	51.352	56.616	56.460	62.067	243.628	61.487	-8191	255	
2053.280	1	1	0	0	0.21572	0.21783	0.28655	0.17347	0.29977	0.073428	0.32645	0.078627	0.41651	0.21979	0.09415	0.29049	0.10067	0.1966	0.11839	0.12792	-3.3354	-3.5167	-3.0208	-4.0062	-3.3729	-3.0604	-4.0979	-3.3208	-3.5167	-3.8396	-3.0875	-3.8708	-3.5354	-3.2583	-3.9729	-3.3896	131.620	114.652	384.728	320.318	80.801	34.397	269.769	364.063	43.648	301.309	306.258	353.455	284.008	51.765	359.214	332.211	0.00047311	0.00082561	0.00016857	1396	6.5187e-06	1.0341e-05	1652.1	447.37	4.3579e-06	9.0626e-06	652.01	206.49	120.77	38.161	4.113e-06	73.23	0.00029883	0.00027159	7.477e-05	1283.8	2.9402e-06	2.9143e-06	1518.3	412.83	2.8772e-06	2.8438e-06	585.6	189.54	111.43	35.441	2.8644e-06	67.63	224.107	72.614	80.675	48.467	183.073	186.945	48.501	51.936	285.730	178.915	51.217	57.180	56.121	62.551	255.969	61.288	-8191	255	
2053.376	1	1	0	0	0.18467	0.20679	0.062161	0.27265	0.19285	0.071387	0.22288	0.24646	0.24114	0.17816	0.20635	0.10111	0.37065	0.1208	0.30333	0.195	-3.0896	-3.7896	-2.9938	-3.7458	-3.5354	-3.0646	-3.8833	-3.4042	-3.3042	-3.7854	-3.1729	-3.7062	-3.5333	-2.9646	-3.8667	-3.4625	271.757	58.773	56.293	66.028	196.122	282.269	340.069	360.571	372.917	208.667	113.175	319.815	48.141	88.924	340.611	328.659	0.00052251	0.00074024	0.00022581	1383.6	6.3532e-06	2.2689e-06	1642.5	446.72	3.3743e-06	8.7139e-06	654.73	205.51	121.58	37.957	6.8998e-06	72.477	0.00029211	0.00026568	7.3364e-05	1274	2.9125e-06	2.8657e-06	1512.5	411.65	2.929e-06	2.8337e-06	587.43	189.7	111.92	35.416	2.8004e-06	67.031	217.607	134.117	122.881	48.462	229.228	267.579	48.376	51.749	172.715	198.726	51.200	56.163	56.056	61.503	201.863	61.018	-8191	255	
2053.472	1	1	0	0	0.0308	0.10609	0.22803	0.33335	0.31311	0.069956	0.34495	0.36707	0.13473	0.024694	0.3086	0.16142	0.19027	0.12118	0.097758	0.088312	-2.7083	-3.7792	-3.0271	-3.6854	-3.6354	-2.9813	-3.8854	-3.525	-3.2208	-3.9542	-3.1	-3.6167	-3.7083	-3.0812	-3.7604	-3.5458	111.653	143.283	44.826	339.924	318.876	315.844	274.444	349.096	347.822	63.690	272.705	71.706	225.140	195.809	175.759	373.072	0.00052335	0.00057954	0.00018652	1374.1	7.4105e-06	1.0317e-05	1635.7	446.79	5.7572e-06	2.5983e-06	649.61	206.63	121.13	37.99	6.5539e-06	72.645	0.00029277	0.00026007	7.2895e-05	1269.5	2.9111e-06	2.9108e-06	1505.6	411.36	2.9204e-06	2.8211e-06	584.99	189.96	111.71	35.401	2.8814e-06	67.198	217.060	129.661	99.165	48.060	162.472	216.691	48.269	51.781	224.470	38.447	51.542	56.483	56.248	61.854	251.595	60.789	-8191	255	
2053.592	1	1	0	0	0.16275	0.099397	0.13101	0.22727	0.098874	0.034024	0.30822	0.34495	0.039361	0.19983	0.10515	0.24776	0.28997	0.15996	0.11108	0.23824	-2.8521	-3.8187	-3.1667	-3.6979	-3.8354	-3.2062	-3.8646	-3.6688	-2.9583	-3.825	-3.1271	-3.6312	-3.8292	-3.1625	-3.7542	-3.6562	276.339	181.256	300.727	316.996	136.459	371.166	328.410	300.390	122.215	127.148	48.452	334.584	40.339	373.832	252.848	379.638	0.00053921	0.00029107	0.00020806	1375.9	5.5931e-06	5.7647e-06	1638.8	450.14	4.2689e-06	5.7397e-06	650.85	208.32	122.09	38.504	7.3582e-06	74.176	0.0002977	0.00026333	7.2069e-05	1267.9	2.8858e-06	2.8069e-06	1509.1	414.36	2.8887e-06	2.8292e-06	587.81	192.05	113.2	36.04	2.8111e-06	68.671	218.149	164.179	116.656	48.258	245.423	194.181	48.268	51.695	204.329	212.291	51.502	56.313	56.526	61.748	219.355	61.064	-8191	255	
2053.689	1	1	0	0	0.27292	0.055993	0.12521	0.37295	0.07213	0.24109	0.24705	0.23468	0.044669	0.068093	0.0036086	0.29458	0.059712	0.08803	0.12289	0.12798	-2.65	-3.9562	-3.3812	-3.5062	-3.7542	-3.0938	-3.8292	-3.8187	-2.9437	-3.6771	-3.2521	-3.4104	-3.8979	-3.2604	-3.5521	-3.7396	198.979	119.086	192.212	362.898	223.422	41.408	361.695	384.872	158.294	69.510	341.828	385.451	249.286	281.465	324.429	306.008	0.00048244	0.00085155	0.00021502	1379.7	1.2843e-05	7.5155e-06	1649.3	454.09	4.9394e-06	1.2705e-05	663.22	209.89	123.32	39.521	7.122e-06	75.319	0.00029936	0.00025638	7.0076e-05	1274.6	2.8907e-06	2.7867e-06	1516.6	418.21	2.8705e-06	2.7618e-06	593.61	193.58	114.64	36.815	2.8378e-06	69.959	226.250	110.103	133.904	48.294	224.616	113.121	48.309	51.691	161.885	199.248	51.492	56.561	56.181	61.514	216.467	61.304	-8191	255	
2053.785	1	1	0	0	0.033498	0.026846	0.10656	0.22805	0.03696	0.084333	0.18867	0.088277	0.10738	0.070634	0.066077	0.08276	0.14631	0.10357	0.03986	0.31827	-2.6521	-3.5604	-3.2396	-3.4542	-3.7333	-3.05	-3.7833	-3.7583	-3.1958	-3.875	-3.4229	-3.1875	-4.0229	-3.2208	-3.3083	-3.9271	84.186	310.917	99.378	310.716	112.377	142.659	293.323	315.370	203.127	277.364	196.797	369.663	327.253	76.276	79.551	366.614	0.00053949	0.00097169	8.0585e-05	1395.2	7.4885e-06	8.6437e-06	1652.7	455.69	5.7449e-06	7.5182e-06	657.52	210.24	123.7	38.973	9.2772e-06	74.037	0.00028999	0.00026113	7.0874e-05	1282.8	2.8677e-06	2.7974e-06	1522.3	418.9	2.8e-06	2.6596e-06	592.92	193.59	114.24	36.376	2.7961e-06	68.451	216.683	122.471	140.885	48.038	215.640	144.775	48.110	51.766	251.953	240.316	51.324	56.762	56.610	61.788	243.687	61.289	-8191	255	
2053.881	1	1	0	0	0.091342	0.13995	0.2631	0.44381	0.16693	0.36821	0.10188	0.18363	0.1198	0.093992	0.3432	0.36708	0.13792	0.29299	0.16039	0.24084	-2.65	-3.6896	-3.5062	-3.3958	-3.725	-3.1958	-3.6271	-3.9208	-2.9979	-3.5687	-3.7	-3.2062	-3.9229	-3.2292	-3.2104	-4.0542	274.611	217.756	378.397	371.860	42.053	346.075	328.271	390.790	388.888	107.324	48.337	309.818	309.944	310.562	163.919	285.310	0.00047178	0.0006521	0.00029894	1382.2	4.4799e-06	1.0622e-05	1646.4	451.41	4.1215e-06	9.584e-06	656.65	208.43	122.95	38.652	6.2987e-06	73.395	0.00028529	0.00025289	6.9839e-05	1274.6	2.7715e-06	2.7021e-06	1512.2	416.41	2.7717e-06	2.6332e-06	590.13	191.71	113.68	35.88	2.6573e-06	68.017	218.290	107.858	98.191	48.508	232.086	180.539	48.221	52.003	178.050	165.924	51.889	56.783	56.853	61.855	213.601	61.318	-8191	255	
2053.975	1	1	0	0	0.29758	0.093081	0.070113	0.2068	0.31036	0.1169	0.26206	0.25058	0.21315	0.2387	0.33837	0.12404	0.16954	0.073536	0.36521	0.030738	-2.8292	-3.7396	-3.5125	-3.2	-3.6604	-3.4333	-3.5771	-3.8479	-3.2333	-3.6083	-3.7646	-3.1542	-3.8583	-3.3896	-3.1562	-3.825	214.770	374.090	290.703	39.675	230.608	170.744	315.580	353.623	201.936	288.348	274.718	227.665	335.438	34.798	267.288	124.254	0.00051895	0.00071126	0.0001539	1390.5	1.0022e-05	8.4472e-06	1654.7	455.2	5.2916e-06	5.8446e-06	662.58	208.96	123.09	38.746	3.6928e-06	73.841	0.00027961	0.00025294	6.8065e-05	1278.5	2.699e-06	2.7027e-06	1520.9	418.49	2.7343e-06	2.6841e-06	593.54	191.97	113.52	35.969	2.741e-06	67.952	221.006	68.015	98.014	48.701	227.160	217.663	48.432	52.204	216.405	187.279	51.579	56.482	56.492	61.505	227.035	61.182	-8191	255	
2054.071	1	1	0	0	0.064738	0.10498	0.1058	0.55113	0.15539	0.076442	0.2768	0.35371	0.14017	0.18209	0.072743	0.26913	0.27018	0.166	0.16621	0.3587	-2.8042	-3.2938	-3.6604	-3.0854	-3.6958	-3.5938	-3.4604	-3.9583	-3.2562	-3.4583	-3.8833	-3.1229	-3.6813	-3.4562	-3.1146	-4.025	231.127	334.321	136.746	379.137	127.254	289.493	348.085	329.993	135.370	307.820	247.566	355.146	388.014	342.064	315.882	327.527	0.00058203	0.00063427	0.0001307	1397	4.1855e-06	6.013e-06	1667.4	454.38	4.1609e-06	4.7957e-06	663.11	209.18	123.81	38.794	5.4365e-06	74.088	0.00028227	0.00026038	7.235e-05	1288	2.8045e-06	2.7762e-06	1533.2	420.22	2.807e-06	2.7238e-06	597.51	193.04	114.65	36.235	2.7204e-06	68.191	214.067	79.414	124.621	48.095	245.942	169.970	48.020	51.633	211.246	212.973	51.090	55.856	55.910	61.295	263.648	60.869	-8191	255	
2054.168	1	1	0	0	0.083132	0.095192	0.031425	0.24124	0.099044	0.15005	0.17977	0.2243	0.20646	0.10249	0.18193	0.27051	0.2851	0.3081	0.13572	0.05981	-2.9646	-3.4167	-3.6917	-3.1813	-3.4813	-3.6479	-3.3229	-3.8625	-3.1875	-3.2354	-3.7771	-3.125	-3.6292	-3.7229	-3.2729	-3.8438	249.802	322.974	392.517	361.572	290.854	40.923	391.037	350.713	86.313	287.437	166.178	373.929	310.012	347.628	311.818	247.246	0.00052995	0.00042464	0.0003096	1402.5	8.6936e-06	4.7417e-06	1665	455.42	8.6515e-06	6.0862e-06	662.74	208.3	122.98	38.364	4.7524e-06	72.374	0.00028662	0.00025087	7.0647e-05	1288.8	2.7564e-06	2.6904e-06	1531.9	419.89	2.8038e-06	2.6987e-06	594.63	191.85	113.64	35.654	2.6669e-06	66.976	219.538	84.752	107.154	48.059	230.404	139.138	48.080	51.617	214.172	205.175	51.092	56.105	56.347	61.209	210.016	60.825	-8191	255	
2054.288	1	1	0	0	0.2282	0.28165	0.21951	0.22248	0.12958	0.15453	0.40509	0.37252	0.15751	0.047116	0.30976	0.17634	0.1272	0.057068	0.10212	0.032693	-2.9938	-3.2375	-3.8771	-3.4104	-3.6	-3.7104	-3.3937	-3.9313	-3.5104	-3.1625	-3.9833	-3.3563	-3.7313	-3.8	-3.0438	-4.0542	161.263	205.177	314.698	346.706	310.330	358.205	310.735	363.528	201.467	368.715	327.155	356.476	348.371	159.344	58.682	116.176	0.00051557	0.00069285	0.00014319	1387.2	5.2473e-06	7.5267e-06	1657.1	452.92	6.9235e-06	8.3933e-06	659.02	207.51	122.88	38.239	7.464e-06	72.485	0.00028282	0.00024973	7.0569e-05	1280	2.7807e-06	2.6931e-06	1521.9	417.27	2.7292e-06	2.734e-06	591.34	191.13	113.3	35.675	2.7545e-06	67.061	216.228	121.632	114.435	48.397	191.622	160.618	48.269	51.768	200.272	156.714	51.061	56.138	56.548	61.417	202.114	60.803	-8191	255	
2054.384	1	1	0	0	0.12119	0.21092	0.093722	0.12013	0.22897	0.17492	0.33278	0.17548	0.21549	0.15223	0.15338	0.37322	0.11911	0.29724	0.053437	0.29016	-2.9542	-3.0583	-3.7562	-3.2604	-3.35	-3.8521	-3.2687	-3.9292	-3.4813	-3.1375	-3.7875	-3.0896	-3.2708	-3.8292	-3.0938	-3.7521	102.159	225.629	164.442	59.631	284.068	368.430	362.085	326.833	348.299	201.855	264.002	352.588	278.429	109.486	141.972	230.329	0.00050986	0.0010474	7.2541e-05	1391.8	1.1159e-05	1.1333e-05	1662.1	453.93	8.603e-06	3.7595e-06	664.27	209.13	123.69	38.995	5.68e-06	73.992	0.00028001	0.00025259	6.9408e-05	1282.1	2.8205e-06	2.7658e-06	1524.7	418.56	2.7857e-06	2.7233e-06	594.62	192.72	113.97	36.215	2.6794e-06	68.344	213.399	103.986	69.571	47.985	180.120	172.714	48.106	51.968	221.888	211.819	51.199	56.151	56.396	61.303	228.272	61.337	-8191	255	
2054.456	1	1	0	0	0.14784	0.35237	0.16265	0.24977	0.066953	0.088307	0.25793	0.13118	0.1149	0.2028	0.17751	0.1549	0.22432	0.11389	0.21009	0.13173	-3.3271	-2.9979	-3.8875	-3.6646	-3.2625	-3.9583	-3.0938	-3.7354	-3.6542	-3.1979	-3.9	-3.4688	-3.3104	-3.8312	-3.2229	-3.6771	192.795	129.726	211.840	380.990	72.880	92.798	336.082	293.315	231.487	221.061	313.850	354.347	360.166	165.269	198.053	346.237	0.00042661	0.00045314	0.00028208	1388.8	5.679e-06	8.5718e-06	1657.6	456.86	7.2477e-06	6.2194e-06	667.2	211.81	125.17	39.712	4.5813e-06	74.713	0.00027205	0.00024635	6.8054e-05	1280.7	2.693e-06	2.6318e-06	1524.6	421.01	2.7236e-06	2.6741e-06	600	194.91	115.63	36.69	2.6831e-06	68.974	216.464	90.833	91.063	48.121	206.362	186.944	48.300	52.210	209.616	187.782	51.831	56.246	56.570	61.515	180.438	61.018	-8191	255	
2054.552	1	1	0	0	0.14708	0.14714	0.15672	0.25454	0.10948	0.071498	0.17922	0.17958	0.097416	0.20074	0.52286	0.075381	0.20235	0.21885	0.22641	0.30378	-3.2667	-3.0333	-3.7917	-3.5438	-3.2125	-3.9104	-3.4604	-3.5687	-3.7771	-3.0583	-3.7021	-3.7729	-3.3708	-3.8937	-3.1917	-3.4354	144.169	283.933	342.904	68.729	284.479	163.945	304.544	274.748	216.797	55.128	380.331	332.631	376.124	70.853	172.664	286.722	0.00046673	0.00075607	0.00014851	1389.8	7.8167e-06	5.9242e-06	1664	457.1	7.924e-06	1.0538e-05	666.55	210.79	125.18	38.858	6.8871e-06	73.097	0.00028023	0.00024879	6.8645e-05	1283.2	2.7278e-06	2.636e-06	1526.4	420.97	2.6508e-06	2.6338e-06	596.44	193.78	115.18	36.084	2.6343e-06	67.578	222.313	99.604	118.413	48.240	205.522	160.425	48.066	51.901	225.988	161.403	51.878	56.215	56.327	61.348	248.429	61.095	-8191	255	
2054.673	1	1	0	0	0.20662	0.041005	0.23515	0.37204	0.048331	0.21471	0.40789	0.20544	0.34648	0.031919	0.24771	0.27039	0.42501	0.13091	0.20868	0.20934	-3.4125	-2.9146	-3.6104	-3.5125	-3.0729	-3.8292	-3.3354	-3.3979	-3.775	-2.9813	-3.6708	-3.7167	-3.1708	-3.9375	-3.3438	-3.3708	314.920	185.989	202.314	42.110	344.567	276.037	332.662	92.578	173.336	311.042	280.495	387.942	339.983	57.887	97.449	356.849	0.0005183	0.00089976	0.00010056	1387.8	9.7412e-06	5.6625e-06	1659.9	456.28	3.2031e-06	5.5385e-06	662.63	209.4	124.17	38.953	2.9911e-06	72.509	0.00027886	0.00024194	6.6111e-05	1277.9	2.6654e-06	2.5945e-06	1518.6	419.69	2.6487e-06	2.5141e-06	593.82	192.6	114.41	36.053	2.5639e-06	67.293	220.926	99.848	148.358	48.437	180.366	215.926	48.593	52.213	180.784	222.309	51.261	56.084	55.916	61.050	152.284	60.633	-8191	255	
2054.769	1	1	0	0	0.13733	0.13269	0.14661	0.25328	0.040155	0.30862	0.202	0.19823	0.23823	0.12426	0.073647	0.12054	0.25308	0.22446	0.23222	0.23139	-3.4354	-3.0125	-3.6167	-3.8583	-2.9729	-3.5333	-3.6104	-3.2292	-3.8875	-3.1167	-3.5438	-3.7354	-3.1646	-3.8042	-3.4625	-3.2771	235.091	386.117	374.754	333.440	331.414	366.897	313.622	40.490	274.892	378.410	308.811	345.365	302.432	356.008	151.700	357.854	0.00046141	0.00073349	0.00025218	1392.8	9.0535e-06	2.3735e-06	1654	456.49	9.4638e-06	7.9427e-06	667.14	209.81	124.49	38.979	4.3145e-06	72.899	0.00027622	0.00023373	6.7709e-05	1279.2	2.642e-06	2.5162e-06	1521	421.04	2.6792e-06	2.5659e-06	595.55	193.08	114.88	36.133	2.5959e-06	67.273	216.244	105.797	119.591	47.802	214.895	198.027	47.538	51.380	216.451	149.808	50.916	55.849	56.046	60.872	229.993	60.848	-8191	255	
2054.865	1	1	0	0	0.11256	0.27111	0.048394	0.18546	0.24303	0.07631	0.26335	0.22816	0.18994	0.26364	0.2319	0.18607	0.17761	0.15903	0.3322	0.16923	-3.425	-3.0938	-3.3104	-3.7354	-2.9792	-3.7083	-3.7313	-3.1854	-3.7958	-3.3208	-3.3583	-3.9708	-3.1125	-3.6937	-3.475	-3.2313	79.481	147.158	359.269	356.588	355.148	181.126	336.393	352.948	304.869	239.377	371.950	320.082	269.996	126.794	351.998	328.372	0.0004781	0.0011481	0.00016622	1400.2	3.0543e-06	7.8784e-06	1669.1	460.99	1.0436e-05	1.0544e-05	669.65	210.71	126.31	38.961	1.003e-05	72.42	0.0002751	0.00023917	6.7353e-05	1289.7	2.5706e-06	2.6208e-06	1530.3	424.22	2.608e-06	2.5847e-06	601.06	193.93	115.96	36.275	2.6176e-06	67.032	223.445	101.719	66.736	48.053	251.623	162.207	47.638	51.421	226.032	182.670	51.235	55.648	55.789	61.189	221.099	60.615	-8191	255	
2054.961	1	1	0	0	0.052677	0.1642	0.10406	0.26538	0.20736	0.3046	0.1476	0.20035	0.10903	0.3056	0.10509	0.1317	0.35068	0.12914	0.076729	0.31995	-3.5458	-3.2125	-3.2062	-3.9729	-3.15	-3.5062	-3.7479	-3.2708	-3.7875	-3.2625	-3.3375	-3.9479	-3.2417	-3.4854	-3.675	-3.1937	309.807	378.530	273.834	370.874	382.910	298.237	360.504	264.405	291.916	312.815	175.130	185.143	393.266	278.368	225.574	354.990	0.00049291	0.00073861	0.00033037	1404.9	8.0747e-06	5.0023e-06	1662	459.32	9.2068e-06	5.4723e-06	662.38	210.26	124.08	38.059	6.2631e-06	71.763	0.00027192	0.0002375	6.6078e-05	1291.7	2.6222e-06	2.5244e-06	1522.9	422.14	2.5326e-06	2.467e-06	595.05	192.92	114.42	35.537	2.5813e-06	66.069	217.544	141.395	120.588	47.955	207.427	218.411	47.803	51.378	207.433	192.822	51.207	55.861	55.851	60.810	221.573	60.625	-8191	255	
2055.057	1	1	0	0	0.090746	0.43879	0.099626	0.24862	0.16494	0.17582	0.28276	0.42763	0.17433	0.13798	0.1909	0.03266	0.37958	0.16528	0.13875	0.046074	-3.3604	-3.5208	-3.1104	-4.075	-3.0646	-3.3688	-4.0312	-3.1063	-3.6354	-3.3438	-3.0833	-3.8771	-3.1292	-3.325	-3.7604	-2.9917	216.450	65.647	289.961	362.595	206.491	71.481	316.938	385.696	131.989	315.868	361.518	88.530	359.270	365.439	355.086	127.982	0.00049423	0.00092796	0.00010483	1391.7	4.0762e-06	5.779e-06	1650.3	454.93	5.7017e-06	6.6162e-06	661.35	209.46	123.55	38.235	3.6045e-06	71.489	0.000266	0.00023378	6.352e-05	1282.5	2.5677e-06	2.5085e-06	1517.5	420.54	2.5047e-06	2.4669e-06	593.45	192.33	114.43	35.598	2.4622e-06	66.125	217.221	125.281	139.264	47.969	169.191	189.264	47.566	51.185	212.004	183.493	50.623	55.275	55.433	60.983	169.618	60.153	-8191	255	
2055.154	1	1	0	0	0.15102	0.10423	0.13429	0.42129	0.15563	0.073493	0.27701	0.21143	0.13753	0.15995	0.13517	0.21876	0.11586	0.36966	0.13338	0.27652	-3.1479	-3.4458	-3.0979	-3.9625	-3.2	-3.2729	-4.0104	-3.2896	-3.4979	-3.5812	-3.1354	-3.9833	-3.3958	-3.2854	-3.7438	-3.2896	344.885	40.700	254.046	358.863	331.742	241.041	289.888	337.600	63.216	126.466	364.714	369.771	319.861	378.707	274.082	303.453	0.00057938	0.00072476	0.00031027	1393.2	6.1499e-06	8.8732e-06	1661.2	459.23	6.284e-06	7.6243e-06	664.36	209.38	124.08	38.804	9.0353e-06	72.316	0.00027053	0.00023675	6.5643e-05	1285.3	2.5642e-06	2.4935e-06	1526	423.25	2.5873e-06	2.4897e-06	597.19	192.57	115.22	35.976	2.4876e-06	66.598	220.014	172.682	85.053	47.799	257.435	224.910	47.745	51.061	213.486	183.088	50.488	55.237	55.471	60.400	218.256	59.923	-8191	255	
2055.272	1	1	0	0	0.029608	0.17204	0.042268	0.1219	0.084596	0.18925	0.15709	0.18861	0.13506	0.06754	0.1972	0.086824	0.054386	0.13027	0.10231	0.28719	-3.0187	-3.5938	-3	-3.8563	-3.2958	-3.2833	-4.0125	-3.3	-3.5354	-3.75	-3.0396	-3.75	-3.7208	-3.1667	-3.6771	-3.4188	340.589	220.966	189.013	388.440	148.062	337.118	337.289	316.963	331.494	254.110	353.760	296.242	147.226	328.601	85.384	298.876	0.00050089	0.00044285	0.00035549	1406.2	4.404e-06	1.0907e-05	1684.2	467.97	5.601e-06	5.7583e-06	672.88	212.86	127.96	39.311	6.7521e-06	71.714	0.0002664	0.00022568	6.3109e-05	1300	2.5938e-06	2.5197e-06	1540.4	430.65	2.5353e-06	2.467e-06	605.73	195.84	117.53	36.532	2.376e-06	66.287	217.053	119.823	142.786	47.937	257.521	203.954	47.750	50.981	199.758	177.751	50.511	55.398	55.278	60.359	234.701	59.870	-8191	255	
2055.369	1	1	0	0	0.099061	0.14661	0.23501	0.095356	0.097744	0.15545	0.2975	0.22377	0.085043	0.13435	0.31144	0.26669	0.29132	0.11618	0.14583	0.27682	-3.0667	-3.7687	-3.0563	-3.8708	-3.5604	-3.1562	-4.0813	-3.5125	-3.4542	-3.6979	-3.1167	-3.9083	-3.5792	-3.2542	-3.7583	-3.3146	153.090	309.053	249.078	340.495	245.899	76.417	386.026	34.462	58.075	370.929	336.174	355.324	65.206	312.569	220.944	318.870	0.00052108	0.00045645	7.0771e-05	1418.8	6.9581e-06	9.3925e-06	1676.4	467.22	6.3812e-06	5.8103e-06	671.85	209.77	125.54	38.524	1.2743e-06	70.872	0.00026747	0.00022878	6.4258e-05	1307.4	2.5484e-06	2.4387e-06	1541.4	429.52	2.579e-06	2.4197e-06	601.53	193.08	115.7	35.689	2.3921e-06	65.152	217.021	102.869	201.393	47.838	218.116	199.106	47.407	51.142	232.799	209.395	50.425	55.188	55.241	60.252	153.902	59.885	-8191	255	
2055.465	1	1	0	0	0.21342	0.13996	0.2138	0.069123	0.037319	0.12917	0.30522	0.19704	0.02933	0.057108	0.21298	0.15269	0.25191	0.060351	0.079395	0.070305	-2.8604	-3.8792	-3.0708	-3.6271	-3.4479	-3.0833	-4.1333	-3.3958	-3.1479	-3.85	-3.125	-3.7313	-3.8021	-3.0229	-3.7708	-3.3979	167.216	328.481	138.376	211.824	382.750	319.845	360.041	300.467	39.641	52.025	306.015	100.915	70.450	71.406	378.419	41.248	0.00047514	0.0005908	0.00012579	1410	5.2983e-06	7.2727e-06	1675.2	462.8	6.018e-06	6.988e-06	669.15	209.12	126.59	38.611	9.4949e-06	71.056	0.00026285	0.00022267	6.22e-05	1300.1	2.483e-06	2.4274e-06	1536.6	426.74	2.5232e-06	2.4038e-06	597.99	192.62	115.98	35.798	2.4869e-06	65.405	216.860	121.750	129.245	47.712	199.111	171.402	47.613	50.782	219.905	169.651	50.592	55.131	55.167	60.130	214.231	59.994	-8191	255	
2055.561	1	1	0	0	0.21108	0.15563	0.069071	0.43845	0.2134	0.29671	0.1053	0.26272	0.10456	0.13217	0.23883	0.047958	0.1499	0.24506	0.10923	0.25654	-2.625	-3.7167	-3.0667	-3.6292	-3.625	-3.0021	-3.8729	-3.5792	-3.0583	-3.7625	-3.2521	-3.4479	-3.8146	-3.1229	-3.725	-3.6646	140.379	116.191	249.484	323.539	250.820	158.977	317.178	372.315	174.134	90.342	356.222	328.128	357.675	353.129	294.434	358.089	0.00050736	0.00067315	0.00026389	1410.9	6.5774e-06	7.063e-06	1675.5	464.65	5.5506e-06	5.3534e-06	669.08	210.74	125.84	39.115	3.2029e-06	71.484	0.00026334	0.00021946	6.1416e-05	1297.4	2.525e-06	2.4735e-06	1536.7	428.3	2.5158e-06	2.5104e-06	600.21	193.92	116.06	36.248	2.5749e-06	66.031	218.351	104.047	131.452	47.815	223.617	195.016	47.855	50.947	207.188	194.835	50.691	55.282	55.457	60.375	173.035	59.693	-8191	255	
2055.682	1	1	0	0	0.29911	0.10333	0.011966	0.14141	0.27063	0.1993	0.52998	0.22805	0.15254	0.19512	0.26904	0.14408	0.072019	0.3659	0.22433	0.23908	-2.675	-3.8333	-3.2396	-3.5146	-3.7583	-3.1667	-3.8563	-3.7354	-2.925	-3.6875	-3.4042	-3.2604	-3.7354	-3.1625	-3.5938	-3.5479	195.717	200.275	170.646	336.389	382.856	235.426	330.749	37.517	92.117	381.931	349.864	34.115	107.017	380.164	336.031	361.766	0.00045231	0.00072182	0.0003026	1416.6	5.9779e-06	2.4544e-06	1672.8	461.75	5.0084e-06	6.7977e-06	665	211.43	125.61	38.502	3.4005e-06	70.539	0.00026683	0.00022681	6.4276e-05	1303.6	2.651e-06	2.5539e-06	1541.1	424.91	2.5556e-06	2.4805e-06	597.57	193.34	115.53	35.851	2.4967e-06	65.28	211.493	121.276	120.379	47.763	220.088	212.991	47.560	51.121	233.840	187.534	50.736	55.334	55.383	60.556	284.967	59.637	-8191	255	
2055.753	1	1	0	0	0.30872	0.27576	0.22698	0.27764	0.10742	0.047343	0.2914	0.24846	0.064966	0.16021	0.023354	0.18167	0.44498	0.13478	0.26204	0.064731	-2.5146	-3.7375	-3.2396	-3.2125	-3.8521	-3.1979	-3.5417	-3.8708	-2.9771	-3.7438	-3.475	-3.1375	-3.9354	-3.1729	-3.3854	-3.8833	234.829	98.307	266.157	46.026	367.146	376.505	317.083	279.534	217.092	123.404	349.641	304.790	371.628	295.141	388.316	240.144	0.00050101	0.00048163	0.00021137	1406.1	9.4531e-06	3.9167e-06	1665.8	457.24	2.6368e-06	8.3797e-06	654.97	207.1	123.36	38.053	7.5132e-06	70.526	0.00026861	0.00022855	6.4233e-05	1291	2.5757e-06	2.5708e-06	1529.5	420.21	2.5187e-06	2.4978e-06	589.04	190.71	114.04	35.321	2.5187e-06	64.946	219.447	129.804	117.696	47.766	173.933	215.743	47.224	51.172	163.163	197.747	50.471	55.521	55.737	59.982	236.610	59.601	-8191	255	
2055.849	1	1	0	0	0.24875	0.13317	0.34494	0.20885	0.1282	0.14379	0.24245	0.18361	0.13297	0.14079	0.16531	0.10405	0.25088	0.18179	0.082665	0.15146	-2.75	-3.6167	-3.45	-3.2896	-3.7562	-3.1417	-3.6875	-3.9	-2.9313	-3.525	-3.5854	-3.2104	-3.6917	-3.2958	-3.2	-3.9146	117.379	230.012	99.003	305.493	44.669	207.757	379.124	324.879	237.943	252.814	161.298	388.545	342.612	368.312	51.559	209.300	0.00050965	0.00042089	0.00019412	1404.2	8.4024e-06	6.3183e-06	1669.8	455.89	6.7117e-06	6.3595e-06	658.87	208.79	124.59	38.755	8.516e-06	71.664	0.00026607	0.00022837	6.437e-05	1292.7	2.5434e-06	2.5025e-06	1529.9	419.64	2.4914e-06	2.4022e-06	590.94	192.29	114.98	35.803	2.5559e-06	65.916	218.346	86.909	116.097	47.602	182.920	217.493	47.540	51.114	213.109	204.653	50.397	54.971	55.182	60.315	214.000	60.103	-8191	255	
2055.968	1	1	0	0	0.23917	0.29397	0.17374	0.049901	0.23914	0.17514	0.2417	0.18427	0.19199	0.064926	0.13307	0.27637	0.16982	0.19093	0.045249	0.28992	-2.7687	-3.525	-3.5042	-3.1479	-3.7188	-3.3354	-3.4229	-3.9958	-3.0271	-3.5146	-3.7521	-3.1354	-3.9	-3.4188	-3.1833	-3.9583	97.214	137.607	183.284	367.677	101.600	289.766	338.521	385.500	238.998	317.589	328.636	322.855	377.021	41.880	209.311	294.383	0.0004149	0.00060618	0.00030981	1404.4	7.4152e-06	7.2563e-06	1671.2	457.86	6.987e-06	8.1008e-06	661.49	211.65	126.35	39.477	4.9431e-06	73.232	0.00025947	0.00023255	6.5503e-05	1295.1	2.4893e-06	2.5137e-06	1540.1	421.8	2.6027e-06	2.4928e-06	595.87	194.78	116.2	36.423	2.5471e-06	67.542	214.467	134.121	92.963	47.557	200.004	228.477	47.591	51.106	213.569	205.936	50.301	55.535	55.347	60.450	205.520	59.956	-8191	255	
2056.064	1	1	0	0	0.087279	0.14892	0.25369	0.37027	0.070532	0.18645	0.091994	0.34601	0.12445	0.1326	0.058337	0.18763	0.022714	0.12316	0.093796	0.15817	-2.6125	-3.3812	-3.6896	-3.1688	-3.75	-3.3792	-3.175	-4.0104	-3.0792	-3.4396	-3.7062	-3.1042	-3.8187	-3.5104	-3.1021	-3.9125	179.003	262.226	42.342	327.310	170.498	365.001	366.687	360.065	391.828	133.783	194.233	378.816	200.246	154.431	260.831	327.628	0.00052129	0.00046817	0.0001152	1399.2	6.0659e-06	7.6598e-06	1672	459.32	6.6343e-06	2.9613e-06	665.72	211.59	126.03	39.508	5.3212e-06	73.185	0.00026877	0.00023317	6.3783e-05	1291.6	2.5533e-06	2.5225e-06	1532.3	421.78	2.4874e-06	2.4563e-06	596.3	195.2	115.95	36.638	2.4859e-06	67.391	215.597	151.001	123.933	47.722	228.294	141.596	47.665	51.141	200.885	211.645	50.685	55.389	55.404	60.630	217.701	59.781	-8191	255	
2056.161	1	1	0	0	0.07055	0.16831	0.14506	0.38374	0.27162	0.026754	0.37855	0.16574	0.13076	0.18146	0.078946	0.084118	0.14503	0.11511	0.062351	0.21696	-2.9854	-3.1479	-3.7854	-3.325	-3.6479	-3.6188	-3.2188	-3.8521	-3.3021	-3.3729	-3.8833	-3.3542	-3.5771	-3.6917	-2.9417	-3.9083	296.667	260.816	224.562	334.223	269.110	71.274	311.550	237.138	276.170	104.764	311.410	152.532	369.904	120.188	45.692	365.644	0.00044236	0.00059225	0.0002005	1401.4	4.9219e-06	5.5165e-06	1667.2	456.42	6.1734e-06	9.8156e-06	665.3	210.53	125.23	39.105	1.9981e-06	72.633	0.0002583	0.00023108	6.29e-05	1286.1	2.6009e-06	2.4754e-06	1529.1	419.93	2.4775e-06	2.4407e-06	594.3	193.7	115.43	36.267	2.5226e-06	66.982	216.439	106.293	85.754	47.722	211.961	144.725	47.665	51.208	226.307	160.247	50.434	55.200	55.704	60.346	264.582	60.085	-8191	255	
2056.257	1	1	0	0	0.12776	0.078171	0.17188	0.28228	0.054216	0.069199	0.37243	0.057653	0.041652	0.13108	0.11188	0.19332	0.11799	0.17288	0.26825	0.13556	-2.8688	-3.1229	-3.6813	-3.4292	-3.5333	-3.6354	-3.2771	-3.825	-3.3667	-3.3583	-3.9604	-3.3708	-3.4208	-3.8104	-3.125	-3.725	170.161	265.980	358.408	388.490	133.101	317.886	311.279	342.155	363.270	322.239	90.174	59.469	294.089	377.985	309.094	324.897	0.00054844	0.00071493	8.6906e-05	1391	5.8416e-06	5.227e-06	1666.7	459.23	5.6921e-06	7.2916e-06	662.31	211.1	124.39	39.321	6.0896e-06	72.426	0.0002621	0.00023518	6.2527e-05	1282.3	2.5339e-06	2.4687e-06	1529.7	421.35	2.488e-06	2.4412e-06	593.86	193.68	115.16	36.506	2.5111e-06	66.78	217.713	82.872	170.281	47.734	223.643	145.223	47.629	51.361	196.960	181.603	50.410	55.322	55.219	60.340	188.029	60.003	-8191	255	
2056.353	1	1	0	0	0.24776	0.084033	0.13403	0.16082	0.072859	0.12394	0.23921	0.11147	0.17291	0.22048	0.16784	0.37224	0.28898	0.15593	0.2133	0.41506	-3.1229	-3.2396	-3.8312	-3.3396	-3.3375	-3.7438	-3.2333	-3.8104	-3.5917	-3.1167	-3.9333	-3.5521	-3.3	-3.7979	-3.2417	-3.65	345.431	62.813	233.483	54.262	54.361	344.429	370.109	304.436	374.073	228.257	315.746	331.289	334.187	47.807	239.456	293.958	0.00049704	0.0008528	0.00025287	1398.2	7.4184e-06	7.1838e-06	1667.4	460.02	7.0456e-06	4.7939e-06	668.65	210.72	125.86	39.509	6.0386e-06	72.004	0.000273	0.00023954	6.2872e-05	1287.7	2.6381e-06	2.4938e-06	1535	422.89	2.5952e-06	2.5814e-06	600.42	194.03	115.91	36.617	2.6616e-06	66.486	223.547	105.237	120.944	47.723	211.913	209.749	47.586	51.046	191.292	188.290	50.360	55.499	55.508	60.134	236.163	60.152	-8191	255	
2056.449	1	1	0	0	0.15092	0.27451	0.083139	0.28165	0.2159	0.29657	0.073698	0.34226	0.15989	0.18113	0.16709	0.090703	0.20794	0.20238	0.35492	0.30828	-3.1708	-2.9833	-3.7917	-3.5271	-3.2354	-3.9458	-3.2708	-3.6	-3.7229	-3.0354	-3.9854	-3.4813	-3.1417	-4.025	-3.1021	-3.6604	307.127	227.151	140.590	364.903	219.980	248.427	294.008	351.869	155.281	333.656	370.340	350.488	365.022	82.336	296.108	303.774	0.00050765	0.00060241	0.00014892	1393.9	5.4396e-06	6.074e-06	1671.1	458.43	4.3349e-06	3.1645e-06	657.12	208.1	124.35	38.49	8.4706e-06	70.924	0.00028335	0.00024687	6.7804e-05	1287.6	2.7175e-06	2.6639e-06	1536.7	422.61	2.7438e-06	2.622e-06	594.73	192.25	114.53	35.781	2.6452e-06	65.288	211.935	64.571	91.155	47.646	202.956	186.027	47.566	51.054	218.923	200.777	50.543	54.843	55.381	60.105	229.779	59.739	-8191	255	
2056.545	1	1	0	0	0.12523	0.093403	0.11424	0.14816	0.0052629	0.071704	0.26542	0.32974	0.18738	0.12055	0.04853	0.2145	0.15763	0.15689	0.14577	0.26201	-3.0917	-3.0625	-3.6312	-3.525	-3.1833	-3.8979	-3.4854	-3.4917	-3.7167	-2.925	-3.8292	-3.7083	-3.2167	-3.9062	-3.0708	-3.275	39.916	387.282	133.986	379.577	63.661	117.623	318.068	317.141	121.816	387.021	90.707	53.690	338.071	100.103	213.027	363.318	0.000469	0.00037687	0.00030117	1373.1	9.0364e-06	8.4317e-06	1634.4	448.91	6.4347e-06	8.7095e-06	643.26	206.71	122.09	37.399	7.0734e-06	69.572	0.00026641	0.00024199	6.5776e-05	1261.8	2.6411e-06	2.495e-06	1505	412.15	2.587e-06	2.5174e-06	582.07	189.67	112.41	34.733	2.696e-06	64.139	219.579	71.731	102.417	47.821	197.064	218.772	47.495	51.167	224.742	172.405	51.072	55.189	55.424	60.297	201.285	59.954	-8191	255	
2056.641	1	1	0	0	0.20029	0.22212	0.23398	0.29336	0.087743	0.04855	0.19316	0.051567	0.1182	0.21838	0.10995	0.26106	0.022857	0.11665	0.19735	0.30531	-3.3875	-3.075	-3.7104	-3.6646	-3.1604	-3.7938	-3.4375	-3.5125	-3.7875	-3.1146	-3.6229	-3.6771	-3.0667	-3.9146	-3.1958	-3.4833	61.808	383.600	324.149	359.296	122.671	365.586	341.144	204.525	144.316	292.046	376.805	388.150	316.818	39.516	360.816	303.425	0.00044083	0.00083285	0.00024495	1351.2	6.154e-06	8.4498e-06	1630.5	444.86	5.4346e-06	7.3284e-06	648.6	203.07	120	36.444	8.7725e-06	68.236	0.00027732	0.00025257	7.081e-05	1245.6	2.8563e-06	2.9042e-06	1504.5	408.49	3.1802e-06	3.1046e-06	581.83	187.29	110.71	33.887	3.2709e-06	63.072	213.847	132.007	92.525	47.714	168.118	168.117	47.778	51.367	230.213	210.824	50.909	55.610	56.074	60.838	235.880	60.318	-8191	255	
2056.762	1	1	0	0	0.0137	0.057271	0.10518	0.12359	0.10056	0.17344	0.30151	0.24676	0.11982	0.031137	0.094245	0.15218	0.3126	0.23423	0.27147	0.13255	-3.3125	-3.0646	-3.6146	-3.7146	-3.1	-3.8646	-3.8063	-3.3375	-3.7917	-3.1	-3.7083	-3.8375	-3.375	-3.8896	-3.4979	-3.1958	236.212	159.031	389.449	344.547	176.041	199.020	352.938	361.341	286.969	125.297	350.140	390.074	237.609	326.960	381.979	326.943	0.00049766	9.8415e-05	0.00017869	1327.1	9.8228e-06	3.9006e-06	1610	433.92	7.9946e-06	1.2228e-05	635.27	200.33	117.22	35.937	7.5092e-06	68.093	0.00032079	0.00029586	8.1201e-05	1225.7	3.3085e-06	3.3128e-06	1481.3	399.51	3.2851e-06	3.2382e-06	573	184.56	108.7	33.632	3.0721e-06	63.22	219.551	150.282	132.913	47.984	197.272	197.794	47.600	51.427	236.591	176.638	50.994	55.628	55.797	60.793	233.787	60.510	-8191	255	
2056.858	1	1	0	0	0.16152	0.281	0.19074	0.1933	0.26786	0.1078	0.20731	0.21096	0.068413	0.27447	0.1863	0.12554	0.17608	0.2439	0.25435	0.1995	-3.3063	-3.1875	-3.4208	-3.8812	-2.9833	-3.8458	-3.7521	-3.2812	-3.7979	-3.2646	-3.5042	-3.8646	-3.3563	-3.8479	-3.6208	-3.3021	273.965	255.648	170.899	341.132	39.329	209.065	316.602	378.126	314.799	223.596	270.521	306.782	282.944	374.983	225.651	257.209	0.00043857	0.00044112	0.00025166	1313.4	1.4846e-05	4.1637e-06	1586.6	427.28	3.7992e-06	6.636e-06	629.31	199.27	117.23	36.044	4.0877e-06	67.76	0.00030725	0.00027349	7.5293e-05	1208.8	2.9127e-06	2.8192e-06	1457.8	394.32	2.7152e-06	2.7005e-06	564.42	183.28	108.19	33.557	2.4798e-06	62.513	215.362	73.243	104.302	47.697	211.091	191.380	47.480	51.584	172.989	140.236	50.965	55.394	56.072	60.539	243.309	59.977	-8191	255	
2056.954	1	1	0	0	0.11761	0.16601	0.08803	0.19437	0.035136	0.19397	0.14578	0.18002	0.18275	0.28261	0.18635	0.23339	0.15331	0.12188	0.26934	0.40638	-3.4833	-3.2979	-3.2479	-3.8354	-3.0104	-3.5583	-3.7667	-3.1833	-3.7896	-3.1188	-3.3458	-3.8479	-3.1875	-3.7333	-3.5812	-3.2042	217.235	251.681	164.900	352.258	96.448	304.672	331.606	273.057	45.429	360.008	366.504	45.373	288.139	233.436	335.732	307.345	0.00050077	0.00077001	0.0001547	1291	7.4469e-06	9.0459e-06	1570.6	424.28	5.0668e-06	5.0547e-06	622.04	199.17	117.16	36.395	7.4578e-06	67.974	0.00026056	0.00023128	6.3228e-05	1190.7	2.4586e-06	2.3889e-06	1442.7	391.59	2.3708e-06	2.3245e-06	561.67	182.94	108.05	33.693	2.3576e-06	62.731	223.330	121.598	81.405	47.582	220.541	193.370	47.720	51.592	221.837	224.024	50.659	55.048	55.093	60.612	212.722	60.033	-8191	255	
2057.049	1	1	0	0	0.25937	0.18671	0.10706	0.16671	0.10468	0.1589	0.11918	0.18619	0.047711	0.097867	0.1273	0.27495	0.0083893	0.12416	0.052919	0.19678	-3.3021	-3.4104	-3.2438	-3.9646	-3.2021	-3.2833	-3.9958	-3.2542	-3.7354	-3.4125	-3.2792	-3.9708	-3.4021	-3.4875	-3.7604	-3.1083	244.705	285.616	223.544	375.696	322.619	183.066	357.518	365.461	314.368	90.665	130.773	369.771	316.012	204.319	182.715	352.597	0.00048792	0.00062306	0.00019119	1289.5	5.6925e-06	3.0379e-06	1572.8	426.01	5.4805e-06	4.9365e-06	628.81	198.47	116.75	35.984	5.3876e-06	67.968	0.00024741	0.00021673	6.1157e-05	1187.5	2.3897e-06	2.3933e-06	1442.3	391.67	2.3943e-06	2.3516e-06	563.25	182.9	107.58	33.519	2.4704e-06	62.64	225.491	89.135	99.063	47.800	245.592	184.539	47.550	51.389	219.813	210.975	51.089	55.702	55.442	60.877	194.851	60.293	-8191	255	
2057.145	1	1	0	0	0.22085	0.19078	0.11751	0.19945	0.22172	0.04629	0.17541	0.33344	0.12911	0.096968	0.13728	0.14927	0.096028	0.15196	0.061448	0.068989	-3.3792	-3.6125	-3.0729	-3.9375	-3.1104	-3.3479	-3.9146	-3.2313	-3.6604	-3.5729	-3.1583	-4.0896	-3.4188	-3.3125	-3.7208	-3.2604	299.860	160.634	153.003	340.903	68.055	58.620	377.651	365.880	199.209	129.765	370.299	37.515	388.887	64.228	159.870	74.409	0.00049473	0.00043049	0.0002632	1283.3	5.1514e-06	2.3959e-06	1556.8	419.77	3.9029e-06	5.2077e-06	624.17	196.8	114.64	35.509	1.1717e-05	66.895	0.00026102	0.00022741	6.4497e-05	1182.9	2.5688e-06	2.4795e-06	1429.8	386.74	2.6007e-06	2.4673e-06	557.21	181.04	105.78	32.984	2.5821e-06	61.641	221.514	145.097	79.183	48.035	248.223	230.209	47.815	51.329	157.314	199.238	51.091	55.715	55.752	60.927	228.502	60.169	-8191	255	
2057.243	1	1	0	0	0.10442	0.1901	0.25179	0.087446	0.14071	0.25453	0.28177	0.42937	0.13261	0.20295	0.095326	0.3531	0.11095	0.21763	0.24423	0.058172	-3.2833	-3.5	-3.0771	-4.0396	-3.1271	-3.1562	-4.0458	-3.2042	-3.475	-3.6688	-3.1875	-3.7938	-3.4708	-3.3229	-4.0188	-3.3625	52.315	55.905	389.562	355.650	49.068	386.793	323.766	325.774	388.902	210.644	325.000	33.808	352.158	334.552	127.956	228.247	0.00046112	0.00035183	0.0001272	1282	6.3979e-06	4.1341e-06	1557.6	418.52	4.9366e-06	6.7151e-06	618.93	194.06	113.91	34.677	3.167e-06	64.067	0.00027551	0.00024003	6.9272e-05	1180.5	2.7221e-06	2.6652e-06	1429.4	384.9	2.7549e-06	2.642e-06	553.69	178.8	104.97	32.307	2.7731e-06	59.514	215.558	121.992	43.795	47.864	245.607	203.952	47.614	51.320	189.151	196.365	50.935	55.300	55.550	60.991	230.474	60.265	-8191	255	
2057.362	1	1	0	0	0.16831	0.10779	0.20633	0.12838	0.11121	0.070121	0.065159	0.18599	0.21946	0.12574	0.31224	0.13699	0.13566	0.18858	0.1311	0.2093	-3.1292	-3.7604	-2.975	-3.8417	-3.5542	-3.1937	-4.1917	-3.35	-3.2396	-3.9625	-3.1625	-3.8063	-3.4125	-3.125	-3.8208	-3.4042	78.002	145.107	389.190	306.552	68.024	190.682	342.353	317.430	381.950	105.626	358.375	295.487	371.382	359.541	260.273	322.955	0.00043836	0.00084406	0.00020036	1273.6	8.7742e-06	3.1247e-06	1546.7	418.59	3.2382e-06	3.2662e-06	613.44	193.89	114.19	34.713	2.7999e-06	64.754	0.00027615	0.00025575	6.9735e-05	1175.1	2.8483e-06	2.7083e-06	1425.3	385.81	2.6671e-06	2.5755e-06	552.57	178.42	105.25	32.291	2.6187e-06	60.148	226.371	105.182	137.360	47.853	232.049	175.955	47.707	51.309	247.914	187.785	50.524	55.322	55.577	60.954	258.493	59.862	-8191	255	
2057.458	1	1	0	0	0.18153	0.19592	0.25577	0.19987	0.11478	0.063283	0.29485	0.26064	0.059664	0.031112	0.090628	0.24021	0.1049	0.27182	0.11403	0.24825	-3.0208	-3.6958	-2.9	-3.725	-3.6688	-3.0312	-4.0729	-3.4167	-3.3063	-3.9333	-3.1708	-3.7354	-3.8625	-3.0687	-3.8042	-3.5417	392.472	63.116	112.950	338.223	143.634	247.069	329.241	382.411	45.318	52.894	158.601	40.200	153.949	267.456	352.513	333.948	0.00050465	0.00046629	0.00025759	1278.1	7.8523e-06	6.2421e-06	1550.4	421.19	7.0258e-06	5.5168e-06	621.75	196.12	115.73	35.224	5.0751e-06	67	0.00026029	0.00022874	6.485e-05	1175.8	2.5368e-06	2.5463e-06	1425.4	388.37	2.5942e-06	2.4903e-06	558.13	180.94	106.9	32.942	2.6412e-06	61.881	211.031	81.424	104.024	48.171	198.946	235.190	47.768	51.507	247.723	205.465	50.686	55.402	55.433	60.947	224.955	59.939	-8191	255	
2057.554	1	1	0	0	0.044058	0.1557	0.17323	0.35738	0.2724	0.079663	0.24566	0.42897	0.092885	0.22671	0.26363	0.14687	0.17605	0.14529	0.1186	0.14935	-2.7687	-3.9125	-3.2188	-3.5417	-3.6312	-3.15	-3.8583	-3.6063	-3.1833	-3.9396	-3.1896	-3.4146	-3.8104	-3.0042	-3.7104	-3.6542	313.896	228.997	109.808	346.878	312.063	303.743	375.444	369.659	282.937	194.743	371.879	33.545	37.311	87.559	370.850	259.504	0.00042657	0.00060769	0.00012684	1268.2	5.4749e-06	9.3298e-06	1540.1	421.22	6.6412e-06	8.9829e-06	617.83	199.31	116.77	36.069	5.6915e-06	67.801	0.0002649	0.00024876	6.6811e-05	1165.8	2.7022e-06	2.6524e-06	1417	388.27	2.6375e-06	2.6376e-06	557.75	183.05	107.73	33.576	2.6973e-06	62.389	218.020	90.667	122.368	48.113	193.998	242.735	47.919	51.461	188.212	189.572	51.055	55.632	55.764	60.370	195.924	60.130	-8191	255	
2057.650	1	1	0	0	0.14078	0.13679	0.18473	0.18219	0.087758	0.16066	0.068922	0.3622	0.20734	0.05356	0.13378	0.12042	0.2244	0.27798	0.20453	0.22795	-2.7438	-3.7313	-3.2792	-3.4792	-3.6667	-3.1521	-3.6625	-3.7812	-3.0583	-3.8146	-3.4021	-3.5292	-3.95	-3.1083	-3.6771	-3.6458	116.447	320.715	277.504	350.971	68.600	288.671	323.397	369.771	56.465	219.950	53.182	267.138	392.164	318.032	170.807	324.904	0.00050028	0.0009831	0.00020294	1245.8	7.3261e-06	9.1098e-06	1519.9	414.7	6.0358e-06	7.0697e-06	609.81	194.09	114.1	34.971	6.086e-06	64.772	0.00027054	0.00024418	6.6802e-05	1146.4	2.6929e-06	2.6678e-06	1397.3	382.23	2.6193e-06	2.6636e-06	547.26	178.61	105.09	32.402	2.5825e-06	59.899	217.576	99.083	125.538	48.162	215.237	176.190	47.721	51.743	214.847	162.127	50.692	55.368	55.584	60.897	199.832	60.127	-8191	255	
2057.746	1	1	0	0	0.18841	0.25953	0.12401	0.46332	0.18227	0.10905	0.17471	0.12241	0.034458	0.09694	0.2566	0.17736	0.30491	0.077854	0.20362	0.24236	-2.775	-3.8042	-3.1583	-3.5146	-3.95	-3.0938	-3.6125	-3.9583	-3.0812	-3.8312	-3.6479	-3.3354	-4.0188	-3.2062	-3.5021	-3.9083	118.920	375.057	338.324	328.111	81.889	161.589	351.254	261.238	329.061	226.195	53.014	345.027	281.480	191.881	271.664	290.399	0.00039406	0.00075291	0.00030516	1216.7	6.4456e-06	6.3893e-06	1496.9	406.09	5.6887e-06	6.6428e-06	597.49	189.66	110.3	33.781	1.0013e-05	63.222	0.00025566	0.00021955	6.2714e-05	1121.5	2.4137e-06	2.3679e-06	1373.9	373.23	2.4735e-06	2.3312e-06	533.98	173.89	101.61	31.424	2.3928e-06	58.43	217.774	109.312	119.840	48.147	207.603	164.247	47.752	51.286	206.601	195.950	50.765	55.814	55.385	60.717	233.722	60.070	-8191	255	
2057.842	1	1	0	0	0.13407	0.083541	0.26388	0.17424	0.33036	0.18169	0.10707	0.3449	0.052636	0.22414	0.11976	0.27256	0.24251	0.24067	0.1821	0.36505	-2.7438	-3.8563	-3.3146	-3.1875	-3.7708	-3.2208	-3.675	-3.7646	-3.0417	-3.725	-3.6667	-3.2438	-3.775	-3.3167	-3.1708	-3.9208	344.659	200.881	386.663	330.070	241.225	192.739	328.052	334.672	100.514	359.071	371.227	327.373	74.578	373.936	379.690	322.316	0.00047921	0.00028396	0.00031807	1219.6	6.2463e-06	6.1586e-06	1494	401.58	4.8188e-06	9.727e-06	589.97	186.1	107.88	33.142	5.5338e-06	62.332	0.00026142	0.00022631	6.444e-05	1121.9	2.5494e-06	2.5879e-06	1371.6	368.74	2.7642e-06	2.6883e-06	531.48	171.26	99.852	30.887	2.7968e-06	57.777	216.420	98.944	102.178	48.098	221.577	167.269	48.104	51.773	222.785	231.101	50.532	55.262	56.184	60.863	228.910	60.268	-8191	255	
2057.938	1	1	0	0	0.059822	0.15213	0.23555	0.19291	0.12671	0.21351	0.26578	0.35914	0.19384	0.16209	0.069795	0.092395	0.21479	0.29784	0.26728	0.17709	-2.6958	-3.7354	-3.5292	-3.2521	-3.6292	-3.1896	-3.6021	-3.8271	-3.0687	-3.675	-3.7021	-3.1292	-3.8083	-3.4208	-3.3125	-3.9229	284.918	88.470	162.215	353.719	231.601	350.545	78.417	334.882	169.645	189.478	312.365	72.873	264.931	83.412	305.976	291.128	0.00050026	0.00050047	5.8575e-05	1211.1	5.029e-06	6.8471e-06	1491.8	395.05	6.976e-06	3.0695e-06	583.2	186.05	107.51	33.016	4.1338e-06	62.061	0.00028296	0.0002627	7.3498e-05	1117.8	2.8832e-06	2.9183e-06	1372.7	365.33	2.9644e-06	2.9527e-06	527.39	171.06	99.55	30.713	3.0679e-06	57.709	215.071	90.185	385.165	48.384	236.572	214.959	48.103	51.789	207.231	142.705	50.890	55.804	55.878	61.076	210.079	60.367	-8191	255	
2058.057	1	1	0	0	0.044096	0.27407	0.25159	0.21518	0.16162	0.11558	0.2699	0.29438	0.014079	0.16443	0.24891	0.29345	0.06001	0.1572	0.11068	0.24962	-2.5854	-3.6396	-3.4792	-3.1167	-3.8125	-3.4375	-3.4562	-3.8542	-3.2062	-3.4042	-3.7167	-2.9604	-3.775	-3.5542	-3.1	-3.9417	201.692	281.897	185.051	378.694	253.600	248.178	332.448	345.784	79.155	85.111	62.716	383.459	254.607	338.594	249.098	348.358	0.00046179	0.00060115	4.9182e-05	1202.6	6.8677e-06	9.062e-06	1474.1	390.74	5.1775e-06	8.9958e-06	580.35	180.75	104.51	31.736	5.2858e-06	60.949	0.00030743	0.00029003	8.0037e-05	1110.8	3.3206e-06	3.1481e-06	1357.1	360.32	3.2948e-06	3.2422e-06	522.69	167.06	97.242	29.746	3.5037e-06	56.2	216.458	106.947	378.007	48.072	190.855	222.633	48.092	51.435	257.443	237.803	50.895	55.991	55.890	60.890	194.859	60.124	-8191	255	
#DATA ENDS
