BOXY.EXE: ISS Imagent and Oximeter Data Acquisition Program Version 0.80
Ascii Record File

#ACQ INFORMATION
2  Detector Channels 
16  External MUX Channels 
1  Auxiliary Channels 
5000  Waveform (CCF) Frequency (Hz)
1  Waveforms Skipped 
30  Waveforms Averaged 
1  Cycles Averaged 
16  Acquisitions per Waveform 
10.0806  Updata Rate (Hz) 

#FILE INFORMATION
TRUE -- External MUX Channel results are PARSED.
FALSE -- AC DC and Phase are NOT grouped.
TRUE -- Companion Program Settings File CREATED.
FALSE -- AC data not excluded
FALSE -- DC data not excluded
FALSE -- Phase data not excluded
FALSE -- Auxillary Chn. data not excluded
Tab delimiters

#CALIBRATION STATE
TRUE -- Waveform Calibration Values APPLIED.


#AUX CALIBRATION VALUES
Val Type	aux-1	

Term	1.0000e+00	
Factor	0.0000e+00	


#WF CALIBRATION VALUES
A = Detector Channel
Val Type	A-AC1	A-AC2	A-AC3	A-AC4	A-AC5	A-AC6	A-AC7	A-AC8	A-AC9	A-AC10	A-AC11	A-AC12	A-AC13	A-AC14	A-AC15	A-AC16	A-DC1	A-DC2	A-DC3	A-DC4	A-DC5	A-DC6	A-DC7	A-DC8	A-DC9	A-DC10	A-DC11	A-DC12	A-DC13	A-DC14	A-DC15	A-DC16	A-Ph1	A-Ph2	A-Ph3	A-Ph4	A-Ph5	A-Ph6	A-Ph7	A-Ph8	A-Ph9	A-Ph10	A-Ph11	A-Ph12	A-Ph13	A-Ph14	A-Ph15	A-Ph16	

Term	0.00000e+00	0.00000e+00	0.00000e+00	0.00000e+00	0.00000e+00	0.00000e+00	0.00000e+00	0.00000e+00	0.00000e+00	0.00000e+00	0.00000e+00	0.00000e+00	0.00000e+00	0.00000e+00	0.00000e+00	0.00000e+00	0.00000e+00	0.00000e+00	0.00000e+00	0.00000e+00	0.00000e+00	0.00000e+00	0.00000e+00	0.00000e+00	0.00000e+00	0.00000e+00	0.00000e+00	0.00000e+00	0.00000e+00	0.00000e+00	0.00000e+00	0.00000e+00	0.00000e+00	0.00000e+00	0.00000e+00	0.00000e+00	0.00000e+00	0.00000e+00	0.00000e+00	0.00000e+00	0.00000e+00	0.00000e+00	0.00000e+00	0.00000e+00	0.00000e+00	0.00000e+00	0.00000e+00	0.00000e+00	
Factor	1.00000e+00	1.00000e+00	1.00000e+00	1.00000e+00	1.00000e+00	1.00000e+00	1.00000e+00	1.00000e+00	1.00000e+00	1.00000e+00	1.00000e+00	1.00000e+00	1.00000e+00	1.00000e+00	1.00000e+00	1.00000e+00	1.00000e+00	1.00000e+00	1.00000e+00	1.00000e+00	1.00000e+00	1.00000e+00	1.00000e+00	1.00000e+00	1.00000e+00	1.00000e+00	1.00000e+00	1.00000e+00	1.00000e+00	1.00000e+00	1.00000e+00	1.00000e+00	X	X	X	X	X	X	X	X	X	X	X	X	X	X	X	X	

B = Detector Channel
Val Type	B-AC1	B-AC2	B-AC3	B-AC4	B-AC5	B-AC6	B-AC7	B-AC8	B-AC9	B-AC10	B-AC11	B-AC12	B-AC13	B-AC14	B-AC15	B-AC16	B-DC1	B-DC2	B-DC3	B-DC4	B-DC5	B-DC6	B-DC7	B-DC8	B-DC9	B-DC10	B-DC11	B-DC12	B-DC13	B-DC14	B-DC15	B-DC16	B-Ph1	B-Ph2	B-Ph3	B-Ph4	B-Ph5	B-Ph6	B-Ph7	B-Ph8	B-Ph9	B-Ph10	B-Ph11	B-Ph12	B-Ph13	B-Ph14	B-Ph15	B-Ph16	

Term	0.00000e+00	0.00000e+00	0.00000e+00	0.00000e+00	0.00000e+00	0.00000e+00	0.00000e+00	0.00000e+00	0.00000e+00	0.00000e+00	0.00000e+00	0.00000e+00	0.00000e+00	0.00000e+00	0.00000e+00	0.00000e+00	0.00000e+00	0.00000e+00	0.00000e+00	0.00000e+00	0.00000e+00	0.00000e+00	0.00000e+00	0.00000e+00	0.00000e+00	0.00000e+00	0.00000e+00	0.00000e+00	0.00000e+00	0.00000e+00	0.00000e+00	0.00000e+00	3.94855e+01	-1.32128e+02	-1.27181e+02	-1.84490e+02	-6.72028e+01	-7.11501e+01	-1.59062e+02	-1.62015e+02	-4.80925e+01	-6.50300e+01	-1.70682e+02	-1.71722e+02	-1.81139e+02	-1.78172e+02	-6.66378e+01	-1.50327e+02	
Factor	6.14565e-05	1.43988e-04	4.12154e-05	2.02262e-01	1.95690e-06	1.65095e-06	1.56930e-01	5.15347e-02	2.54719e-06	1.60944e-06	8.43913e-02	3.21709e-02	2.84674e-02	9.18122e-03	1.99602e-06	1.31396e-02	2.11529e-05	3.98913e-05	1.12962e-05	1.08715e-01	3.85736e-07	4.59041e-07	7.93570e-02	2.79075e-02	3.67363e-07	4.60695e-07	4.42269e-02	1.68013e-02	1.55642e-02	5.02853e-03	4.02019e-07	6.94216e-03	X	X	X	X	X	X	X	X	X	X	X	X	X	X	X	X	



#DISTANCE SETTINGS
A = Detector Channel
A-1	A-2	A-3	A-4	A-5	A-6	A-7	A-8	A-9	A-10	A-11	A-12	A-13	A-14	A-15	A-16	

2.5000e+00	3.0000e+00	2.5000e+00	3.0000e+00	2.0000e+00	3.0000e+00	1.5000e+00	3.0000e+00	3.0000e+00	3.0000e+00	3.0000e+00	3.0000e+00	3.0000e+00	3.0000e+00	1.5000e+00	3.0000e+00	

B = Detector Channel
B-1	B-2	B-3	B-4	B-5	B-6	B-7	B-8	B-9	B-10	B-11	B-12	B-13	B-14	B-15	B-16	

1.0000e+01	1.0000e+01	1.0000e+01	1.4400e+00	1.0000e+01	1.0000e+01	1.5100e+00	1.9400e+00	1.0000e+01	1.0000e+01	1.9900e+00	2.4900e+00	2.4100e+00	2.9000e+00	1.0000e+01	2.9800e+00	




#DATA BEGINS
time	group	step	mark	flag	A-AC1	A-AC2	A-AC3	A-AC4	A-AC5	A-AC6	A-AC7	A-AC8	A-AC9	A-AC10	A-AC11	A-AC12	A-AC13	A-AC14	A-AC15	A-AC16	A-DC1	A-DC2	A-DC3	A-DC4	A-DC5	A-DC6	A-DC7	A-DC8	A-DC9	A-DC10	A-DC11	A-DC12	A-DC13	A-DC14	A-DC15	A-DC16	A-Ph1	A-Ph2	A-Ph3	A-Ph4	A-Ph5	A-Ph6	A-Ph7	A-Ph8	A-Ph9	A-Ph10	A-Ph11	A-Ph12	A-Ph13	A-Ph14	A-Ph15	A-Ph16	B-AC1	B-AC2	B-AC3	B-AC4	B-AC5	B-AC6	B-AC7	B-AC8	B-AC9	B-AC10	B-AC11	B-AC12	B-AC13	B-AC14	B-AC15	B-AC16	B-DC1	B-DC2	B-DC3	B-DC4	B-DC5	B-DC6	B-DC7	B-DC8	B-DC9	B-DC10	B-DC11	B-DC12	B-DC13	B-DC14	B-DC15	B-DC16	B-Ph1	B-Ph2	B-Ph3	B-Ph4	B-Ph5	B-Ph6	B-Ph7	B-Ph8	B-Ph9	B-Ph10	B-Ph11	B-Ph12	B-Ph13	B-Ph14	B-Ph15	B-Ph16	aux-1	digaux	

1214.736	1	1	0	512	0.097681	0.13902	0.11861	0.2055	0.054066	0.12108	0.26067	0.080207	0.062567	0.12638	0.17207	0.17696	0.31218	0.12819	0.12772	0.1182	-1.2729	-1.6646	-1.0146	-1.95	-1.4271	-1.225	-2.1271	-1.2979	-1.6187	-1.5938	-1.1771	-2.0354	-1.4646	-1.3229	-1.9979	-1.3229	79.469	-7.024	160.463	-84.344	-68.243	49.039	-93.384	-72.630	61.226	64.384	199.819	59.107	178.804	-98.097	82.763	-10.641	0.0007531	0.00029266	0.00019892	1284	6.4395e-06	7.6781e-06	1283	349.47	4.7141e-06	5.5503e-06	402.91	134.7	115.77	39.8	6.2346e-06	49.896	0.0014189	0.0021383	0.00060178	1304.3	2.1271e-05	2.4375e-05	1308.4	357.21	2.0232e-05	2.3822e-05	412.71	138.4	118.5	41.012	2.1386e-05	51.71	9.378	-41.374	-21.575	-99.050	-5.241	23.979	-99.786	-94.985	56.562	21.851	-95.867	-91.645	-91.069	-86.152	30.919	-87.362	-8191	255	
1214.832	1	1	0	0	0.16816	0.22372	0.10146	0.11339	0.092148	0.13992	0.33735	0.18886	0.43853	0.16026	0.17724	0.30021	0.10911	0.31724	0.1989	0.20864	-1.0708	-1.7938	-1.0896	-1.8687	-1.3958	-1.1688	-2.1708	-1.4688	-1.4875	-1.7958	-1.1396	-1.7938	-1.7583	-1.0604	-2.05	-1.2417	174.822	226.210	68.682	-109.528	-73.610	23.252	150.614	185.680	147.652	83.303	-83.499	15.984	158.809	171.453	-50.746	181.191	0.0007175	0.00036898	0.00019378	1282.5	6.1591e-06	1.6562e-06	1287.3	349.6	7.0419e-06	6.71e-06	403.53	135.41	115.35	39.799	7.0886e-06	50.059	0.0013813	0.0021164	0.00060018	1302.1	2.1788e-05	2.4354e-05	1308.5	357.3	2.0571e-05	2.4601e-05	412.6	138.59	118.48	41.058	2.2258e-05	51.729	7.862	-24.819	-17.355	-99.713	-4.563	27.760	-100.180	-95.089	-12.515	39.154	-96.135	-91.308	-91.040	-86.216	35.095	-87.139	-8191	255	
1214.928	1	1	0	0	0.2922	0.17749	0.27364	0.090092	0.17613	0.17968	0.17065	0.20597	0.42432	0.064916	0.22162	0.20912	0.18694	0.20924	0.16317	0.35699	-0.88958	-1.7104	-1.0812	-1.7812	-1.7313	-0.99375	-2.1833	-1.4562	-1.1729	-1.9	-1.0063	-1.7604	-1.6896	-1.1063	-1.7833	-1.6229	157.422	79.126	-15.980	62.486	118.245	135.198	121.930	176.975	-11.684	242.997	175.527	-49.814	222.294	-97.918	6.472	122.078	0.00070903	0.00061525	0.00014682	1282	3.5486e-06	3.0722e-06	1285.1	349.61	8.0908e-06	4.6927e-06	402.99	134.53	115.26	39.723	3.4909e-06	50.13	0.0014469	0.0021177	0.00060898	1300.7	2.1278e-05	2.4755e-05	1308.4	357.26	2.0826e-05	2.4387e-05	412.46	138.52	118.2	41.033	2.1752e-05	51.789	2.825	-45.671	-8.620	-99.944	19.475	19.307	-100.077	-95.108	48.860	29.105	-95.816	-91.434	-90.907	-86.311	-37.342	-87.195	-8191	255	
1215.024	1	1	0	0	0.0092329	0.10718	0.12091	0.31257	0.17284	0.029651	0.2385	0.31545	0.16798	0.09854	0.31253	0.26892	0.23343	0.053271	0.31456	0.21652	-0.75	-1.8458	-1.1625	-1.5688	-1.7687	-1.0958	-2.0375	-1.4479	-1.2875	-1.9083	-1.4354	-1.6521	-2.0875	-1.0708	-1.7333	-1.6146	84.727	82.121	24.249	215.919	48.344	206.892	158.634	217.227	12.375	205.620	173.576	133.223	-41.098	76.878	231.683	183.762	0.00069481	0.00044112	0.00014484	1280.4	6.7269e-06	4.4419e-06	1286.4	350.16	8.8681e-06	3.5275e-06	403.22	134.7	115.06	39.732	5.065e-06	49.977	0.0013991	0.0021273	0.00060658	1303	2.1838e-05	2.435e-05	1310	357.89	2.0762e-05	2.4402e-05	412.43	138.46	118.31	41.057	2.2503e-05	51.656	1.684	-30.331	-42.242	-99.874	24.034	39.679	-100.029	-95.166	39.566	26.300	-95.959	-91.533	-91.048	-86.352	68.771	-87.372	-8191	255	
1215.143	1	1	0	0	0.31365	0.25587	0.16427	0.1226	0.07821	0.13711	0.10256	0.1221	0.33216	0.15528	0.20691	0.11105	0.48136	0.2328	0.17991	0.13996	-0.84375	-1.9021	-1.3354	-1.6938	-1.9188	-1.1667	-1.9625	-1.7854	-1.175	-2.0021	-1.1604	-1.4937	-1.9542	-1.3125	-1.7833	-1.8708	48.027	80.110	-3.113	221.345	130.289	164.385	150.515	237.571	-19.652	-63.565	-97.827	117.465	212.068	60.239	-72.395	155.528	0.00072863	0.00035235	0.00016668	1279.3	8.1111e-06	4.6086e-06	1290	350	5.5164e-06	6.4016e-06	404.27	134.34	115.4	39.929	5.231e-06	50.205	0.0013993	0.0021286	0.00061002	1301.1	2.1025e-05	2.4295e-05	1311	357.11	2.0824e-05	2.476e-05	413.24	138.31	118.41	41.051	2.2478e-05	51.834	13.901	-19.135	-13.981	-99.663	61.374	11.260	-99.920	-95.217	22.124	33.466	-95.802	-91.504	-90.963	-86.368	30.422	-87.406	-8191	255	
1215.239	1	1	0	0	0.1452	0.056721	0.16965	0.36058	0.18518	0.16635	0.10157	0.098189	0.033148	0.14824	0.29736	0.37736	0.13512	0.10975	0.064449	0.22396	-0.67292	-1.975	-1.4229	-1.2958	-1.8438	-1.0667	-1.7771	-1.8708	-1.0667	-2.0042	-1.5625	-1.4083	-2.0833	-1.1292	-1.7687	-1.8896	44.019	241.663	-80.839	230.604	148.233	-101.373	167.898	184.536	66.601	-87.943	-88.256	188.076	141.300	240.824	-32.122	118.157	0.00068953	0.00045027	0.00013825	1279.3	5.854e-06	5.3949e-06	1289.4	348.42	2.5942e-06	4.2436e-06	403.16	134.12	115.08	39.591	7.1503e-06	50.031	0.0014302	0.0021049	0.00059919	1301.2	2.1105e-05	2.4705e-05	1310.5	356.74	2.1166e-05	2.4297e-05	412.51	138.4	118.35	41.024	2.2098e-05	51.715	9.121	-25.216	-44.035	-99.807	37.571	-6.967	-100.011	-95.373	14.150	62.465	-95.658	-91.829	-90.943	-86.467	9.419	-87.243	-8191	255	
1215.335	1	1	0	0	0.4238	0.21035	0.2368	0.31487	0.033545	0.30184	0.28655	0.12035	0.22356	0.1712	0.30058	0.33111	0.1633	0.15155	0.19726	0.11709	-0.55	-2.0521	-1.4417	-1.1917	-1.9583	-1.175	-1.7396	-1.9771	-1.1958	-1.8167	-1.7708	-1.3375	-2.0542	-1.2687	-1.5646	-1.8687	42.773	182.174	240.348	-98.580	194.616	9.446	169.254	-51.320	171.171	108.505	218.737	-78.085	-75.862	165.977	-70.735	-105.450	0.00070326	0.00051143	0.00015472	1273.6	6.0921e-06	4.0372e-06	1285.5	351.02	3.9999e-06	4.7417e-06	403.22	134.62	115.16	39.965	3.4164e-06	49.956	0.0014151	0.0020998	0.0006124	1299.6	2.142e-05	2.4282e-05	1310.2	357.63	2.1084e-05	2.4396e-05	412.07	138.36	118.37	41.059	2.1682e-05	51.704	8.979	-17.347	-2.157	-99.711	9.928	94.557	-100.122	-95.253	61.495	14.380	-95.660	-91.613	-91.064	-86.340	27.302	-87.524	-8191	255	
1215.456	1	1	0	0	0.19404	0.10506	0.1055	0.24142	0.11	0.3132	0.13583	0.01969	0.2838	0.22662	0.41996	0.12621	0.15937	0.26925	0.17117	0.28421	-0.66667	-1.7167	-1.4458	-1.2375	-1.8312	-1.1771	-1.5917	-2.1396	-1.1437	-1.7938	-1.7417	-1.2229	-2.0896	-1.5229	-1.4646	-2.1396	218.887	102.919	-51.607	200.867	222.773	91.756	224.970	175.604	139.747	91.573	197.978	243.616	101.308	202.666	-85.468	227.625	0.00066163	0.00051721	0.00016991	1279.5	7.8634e-06	4.0805e-06	1286.7	349.36	4.9122e-06	3.2667e-06	403.67	134.04	115.13	39.565	6.3681e-06	50.276	0.0013994	0.0021542	0.0006027	1301.6	2.1893e-05	2.4916e-05	1309.6	356.51	2.1623e-05	2.5144e-05	412.62	138.45	118.28	40.916	2.295e-05	51.855	6.726	-18.928	-27.700	-99.744	13.332	58.462	-100.264	-95.292	2.950	49.098	-95.744	-91.356	-90.961	-86.186	23.698	-87.398	-8191	255	
1215.528	1	1	0	0	0.1376	0.35968	0.10881	0.24452	0.078717	0.21788	0.062258	0.37984	0.20727	0.16561	0.14878	0.16044	0.29123	0.089618	0.10205	0.19146	-0.67708	-1.5521	-1.8813	-1.2604	-1.9125	-1.4708	-1.5104	-2.225	-1.1667	-1.6313	-1.975	-1.3083	-1.9917	-1.5604	-1.075	-2.1562	-12.149	138.497	36.354	239.978	18.294	-62.789	-96.133	210.239	76.349	177.836	191.827	206.858	-65.378	-84.229	115.385	202.332	0.00083731	0.00046069	0.00013195	1277.4	3.5218e-06	2.6719e-06	1286.1	350.3	9.6953e-06	5.4816e-06	404.5	134.85	115.42	39.872	3.7084e-06	49.909	0.0014443	0.0022177	0.00061807	1301.5	2.1809e-05	2.4539e-05	1310.2	357.84	2.1185e-05	2.5037e-05	413.29	138.7	118.57	41.077	2.2404e-05	51.769	5.384	-28.125	-12.581	-99.982	29.832	38.218	-100.185	-95.189	34.873	47.860	-95.880	-91.538	-91.031	-86.541	38.937	-87.145	-8191	255	
1215.624	1	1	0	0	0.071949	0.34718	0.21607	0.079325	0.14023	0.13209	0.23755	0.21429	0.25031	0.16961	0.3939	0.2073	0.23978	0.21668	0.042189	0.44478	-0.81458	-1.3625	-1.8771	-1.2208	-1.675	-1.5667	-1.2479	-2.1792	-1.3687	-1.4167	-1.9625	-1.0646	-1.7396	-1.5438	-0.93125	-2.0333	8.495	-66.418	122.571	183.955	193.843	159.934	209.370	218.525	-77.673	95.540	155.680	229.317	176.757	181.615	62.500	225.011	0.00060711	0.00054331	0.00011969	1279.2	7.3681e-06	3.0661e-06	1281.1	348.92	7.2825e-06	5.3418e-06	402.69	134.89	115.05	39.727	6.9635e-06	50.208	0.0014296	0.0021501	0.0005999	1301.7	2.1481e-05	2.4394e-05	1307	356.99	2.1319e-05	2.496e-05	412.16	138.37	118.36	40.955	2.2862e-05	51.807	10.635	-38.849	-30.487	-99.789	25.315	47.315	-100.014	-95.255	53.407	41.943	-95.737	-91.627	-90.976	-86.606	27.552	-87.044	-8191	255	
1215.720	1	1	0	0	0.16839	0.14134	0.22665	0.19839	0.11097	0.29176	0.10719	0.25033	0.17948	0.029838	0.10449	0.033127	0.19717	0.32433	0.13878	0.18388	-0.85	-1.25	-1.8188	-1.0792	-1.7208	-1.8479	-1.4917	-2.1	-1.2417	-1.2938	-2.0354	-1.2938	-1.6917	-1.7958	-0.88125	-1.7625	89.623	-54.186	-63.280	149.846	-59.001	-7.778	63.561	-100.286	159.692	173.669	140.501	-9.598	237.863	180.575	7.027	184.610	0.00058618	0.00033934	0.00013672	1281.4	5.1758e-06	5.3061e-06	1289.5	349.46	6.7278e-06	4.0128e-06	403.97	134.09	114.78	39.697	6.3243e-06	49.958	0.0014226	0.0021853	0.00060976	1302.6	2.1702e-05	2.4701e-05	1310.2	356.68	2.1026e-05	2.5327e-05	412.74	138.07	118.42	40.918	2.2557e-05	51.689	4.417	-23.667	8.006	-99.906	14.117	54.403	-99.741	-95.041	-21.701	15.977	-95.670	-91.537	-90.696	-86.005	37.804	-87.285	-8191	255	
1215.839	1	1	0	0	0.3119	0.045786	0.10712	0.4483	0.21215	0.12537	0.27309	0.31315	0.19639	0.064728	0.2614	0.10692	0.10985	0.25517	0.25817	0.11053	-1.1042	-1.2938	-2.1042	-1.2083	-1.5292	-1.8813	-1.2	-1.85	-1.2708	-1.2583	-1.8583	-1.4042	-1.6812	-1.9271	-0.96458	-2.0062	5.118	1.844	113.495	155.556	46.508	-4.072	230.032	200.038	148.046	6.355	189.614	118.698	0.293	145.681	222.647	-69.673	0.00064539	0.00047941	0.00014684	1275	2.6996e-06	6.2557e-06	1284	349.22	5.3994e-06	3.9599e-06	403.09	134.8	115.28	39.674	6.3958e-06	50.099	0.0013982	0.0021822	0.00060287	1299.8	2.1445e-05	2.4284e-05	1308.3	357.24	2.0317e-05	2.4962e-05	412.58	138.09	118.46	40.967	2.1903e-05	51.731	9.089	-54.050	-50.394	-99.914	19.586	30.924	-100.027	-94.790	-7.310	39.110	-95.529	-91.195	-90.614	-86.144	5.370	-86.926	-8191	255	
1215.935	1	1	0	0	0.12449	0.16605	0.24673	0.20487	0.15901	0.05918	0.26885	0.42984	0.28977	0.21828	0.13038	0.22745	0.17934	0.10089	0.36306	0.18237	-1.2354	-1.1187	-1.9417	-1.1604	-1.3896	-2.0917	-1.2625	-1.9333	-1.85	-1.2042	-2.1542	-1.6125	-1.4188	-2.1229	-1.0417	-1.8521	-88.957	156.054	210.556	159.792	-29.538	-66.535	166.564	139.774	137.325	198.945	98.395	231.613	179.242	17.152	185.184	191.105	0.00078089	0.00045538	0.00011456	1279.4	6.5236e-06	5.2947e-06	1285.8	349.21	7.7272e-06	5.4904e-06	402.51	135.21	115.32	39.519	4.3264e-06	50.204	0.0013728	0.0021526	0.00058653	1300	2.0969e-05	2.338e-05	1307.4	357.22	2.0174e-05	2.4716e-05	412.55	138.23	118.31	40.949	2.1591e-05	51.714	9.599	-20.335	-17.592	-99.714	22.037	31.621	-99.953	-94.969	1.151	41.969	-95.494	-91.567	-90.527	-85.989	59.179	-86.969	-8191	255	
1216.031	1	1	0	0	0.46431	0.05291	0.18261	0.30455	0.11621	0.10235	0.23377	0.11727	0.2005	0.16006	0.18128	0.24848	0.16496	0.27299	0.10072	0.34985	-1.1958	-1.1042	-1.8438	-1.6125	-1.1979	-1.9146	-1.2792	-1.7313	-1.7083	-0.91875	-1.9729	-1.3854	-0.91458	-2.1312	-1.2521	-1.6688	62.614	-32.116	143.811	172.337	-73.560	134.511	138.948	216.555	11.638	-39.065	158.290	213.229	190.339	-62.600	66.659	135.497	0.00072789	0.00052128	8.0779e-05	1283.1	5.434e-06	2.7299e-06	1284.9	348.21	6.7393e-06	4.4953e-06	402.93	133.93	114.1	39.708	6.8639e-06	50.179	0.0014184	0.0021719	0.00059449	1300.2	2.1278e-05	2.442e-05	1307.7	356.68	2.022e-05	2.4501e-05	411.8	137.95	117.85	41.014	2.1804e-05	51.737	8.251	-20.036	-15.592	-99.759	29.220	39.954	-99.847	-94.794	15.362	67.181	-95.752	-91.553	-90.563	-86.092	31.631	-86.879	-8191	255	
1216.105	1	1	0	0	0.22478	0.34039	0.29156	0.058771	0.11464	0.27992	0.29099	0.2498	0.09967	0.077518	0.062952	0.25737	0.25288	0.22068	0.31093	0.20329	-1.2708	-1.1625	-1.8521	-1.5875	-1.2313	-2.0417	-1.4708	-1.6292	-1.8979	-0.99583	-1.8937	-1.65	-1.3208	-2.125	-1.2667	-1.6	48.476	-34.125	25.484	206.839	207.210	98.597	218.191	231.209	47.283	149.603	-84.853	-108.698	-106.702	-77.288	91.357	-16.580	0.00063987	0.00054034	0.00012417	1272.1	5.1391e-06	4.634e-06	1288.5	349.64	8.4747e-06	6.3472e-06	404.1	134.84	115.15	39.458	9.2126e-06	50.322	0.0014122	0.0021795	0.00059305	1298.2	2.1361e-05	2.4429e-05	1307.4	356.78	2.0123e-05	2.4723e-05	412.41	138.16	118.14	40.914	2.2159e-05	51.814	7.001	-25.012	-35.361	-99.402	20.968	39.308	-99.631	-94.689	18.961	34.500	-95.400	-91.543	-90.494	-85.819	35.700	-86.789	-8191	255	
1216.224	1	1	0	0	0.057698	0.21455	0.10313	0.10054	0.21421	0.10271	0.29967	0.24682	0.34843	0.19455	0.19069	0.34023	0.23412	0.10699	0.02667	0.18191	-1.6875	-0.90208	-1.7917	-1.875	-1.0771	-1.9688	-1.6688	-1.6	-1.8979	-1.1896	-1.6771	-1.9292	-1.2604	-1.9521	-1.4104	-1.3375	168.797	19.744	-88.410	241.692	62.416	135.064	-93.578	207.303	-102.636	-23.169	69.877	178.344	241.967	129.024	36.805	203.148	0.0007027	0.00041902	0.00021306	1275.9	8.6147e-06	3.549e-06	1282.1	350.58	6.0816e-06	8.2984e-06	402.54	134.4	114.99	39.61	6.6934e-06	50.152	0.0013522	0.0021	0.00060183	1298.3	2.1354e-05	2.4347e-05	1305	357.14	2.0321e-05	2.4781e-05	411.96	138.09	117.83	40.888	2.1897e-05	51.726	11.973	-22.346	-25.323	-99.683	44.495	38.294	-99.836	-94.863	13.630	30.807	-95.336	-91.280	-90.422	-86.046	26.683	-86.826	-8191	255	
1216.320	1	1	0	0	0.035801	0.24665	0.18389	0.28702	0.21476	0.27115	0.1745	0.24576	0.17047	0.075455	0.11949	0.13923	0.31136	0.042376	0.19266	0.029862	-1.6	-1.1458	-1.6896	-1.9958	-1.0958	-1.9583	-1.6542	-1.2	-1.9521	-1.2021	-1.6167	-2.1063	-1.1292	-1.9979	-1.5229	-1.3542	29.735	165.985	195.493	-100.313	118.507	28.604	210.720	170.496	-48.826	133.950	-5.450	102.082	-110.924	124.206	43.331	109.097	0.00060277	0.00061059	0.00013246	1278.9	4.7008e-06	8.3842e-06	1280.2	349.68	2.0352e-06	4.5923e-06	402.91	135.08	115.42	39.647	5.0372e-06	50.108	0.0014049	0.002125	0.0006131	1299.8	2.1606e-05	2.3936e-05	1306.2	356.93	2.0633e-05	2.4522e-05	412.39	138.42	118.07	40.922	2.1615e-05	51.728	5.047	-16.566	-36.558	-99.600	23.899	19.829	-99.831	-94.824	19.631	49.902	-95.325	-91.089	-90.625	-86.030	37.417	-86.548	-8191	255	
1216.416	1	1	0	0	0.13341	0.034949	0.19734	0.39035	0.082698	0.28419	0.2518	0.21462	0.099262	0.073141	0.070623	0.18338	0.27095	0.10283	0.27162	0.124	-1.6479	-1.2396	-1.6125	-1.9729	-1.0604	-1.8	-1.8979	-1.1125	-1.8667	-1.2646	-1.4875	-2.0521	-1.1979	-1.8521	-1.8062	-1.1979	-73.627	79.472	63.305	222.438	71.346	60.529	-106.186	19.980	108.013	39.968	60.881	-89.026	228.309	239.496	6.579	205.890	0.00069677	0.00054308	0.00011803	1274.4	6.2298e-06	5.6002e-06	1288.5	349.25	8.6119e-06	3.0118e-06	403.02	134.33	114.82	39.641	8.7651e-06	50.179	0.0013806	0.0021508	0.00059642	1298.5	2.1586e-05	2.4486e-05	1306.8	357.05	2.05e-05	2.4913e-05	411.88	138.25	118.02	40.921	2.2254e-05	51.713	8.969	-17.262	-18.483	-99.528	72.714	35.609	-99.758	-94.772	16.850	34.949	-95.120	-91.004	-90.537	-85.949	53.903	-86.895	-8191	255	
1216.536	1	1	0	0	0.02125	0.09119	0.098414	0.2053	0.062653	0.29412	0.2159	0.40928	0.17446	0.3275	0.22995	0.044772	0.091462	0.17687	0.049503	0.081329	-1.6354	-1.4042	-1.2396	-2.1417	-1.0729	-1.6292	-1.9646	-1.2188	-1.7854	-1.4479	-1.4958	-1.9542	-1.3375	-1.6208	-1.7354	-1.2146	-48.472	215.834	-74.291	188.230	-106.108	185.475	181.399	202.989	130.726	-10.218	177.125	118.423	90.030	211.631	20.770	142.892	0.00061217	0.0007377	0.0001873	1280.6	3.9902e-06	5.0649e-06	1287.3	349.98	3.5529e-06	2.4095e-06	402.45	134.19	114.94	39.785	7.0129e-06	49.962	0.0013856	0.0021793	0.00060357	1300.7	2.139e-05	2.4352e-05	1306.5	356.22	2.0637e-05	2.4785e-05	411.77	138.07	118.04	40.98	2.2167e-05	51.63	11.508	-26.512	-7.873	-99.351	23.292	48.660	-99.510	-94.766	25.575	25.366	-94.886	-91.036	-90.648	-85.930	51.387	-86.512	-8191	255	
1216.633	1	1	0	0	0.031248	0.090883	0.16013	0.17925	0.061678	0.17265	0.3483	0.11572	0.07497	0.17824	0.10222	0.4087	0.10715	0.20788	0.12863	0.25046	-1.3625	-1.5438	-1.0729	-2.0125	-1.2521	-1.5562	-2.0333	-1.0792	-1.7708	-1.4354	-1.1229	-1.9625	-1.3896	-1.4729	-1.8146	-1.2875	73.057	52.847	136.414	143.583	61.368	118.617	-112.098	204.165	1.244	0.354	-93.822	226.892	170.488	-112.318	36.189	193.903	0.0006636	0.0004812	9.5098e-05	1277.9	4.1627e-06	5.1126e-06	1282.8	349.32	6.9876e-06	4.5762e-06	405.16	133.46	114.57	39.535	8.8776e-06	50.094	0.0013897	0.0020226	0.00059067	1297.1	2.1368e-05	2.4002e-05	1305.2	356.66	2.0406e-05	2.437e-05	412.05	137.93	117.91	40.892	2.1229e-05	51.643	13.913	-43.449	-8.793	-99.479	13.282	45.011	-99.518	-94.568	33.103	30.137	-95.277	-91.053	-90.167	-85.519	34.126	-86.321	-8191	255	
1216.729	1	1	0	0	0.16263	0.20351	0.056096	0.15759	0.11671	0.28307	0.1151	0.27014	0.16894	0.22327	0.44113	0.17756	0.24183	0.25657	0.13015	0.22649	-1.4542	-1.7771	-1.1625	-2.0792	-1.3833	-1.1771	-2.3	-1.1771	-1.775	-1.6479	-1.3708	-1.8563	-1.5	-1.3438	-1.9083	-1.2792	16.713	238.481	192.180	173.143	-83.858	104.308	214.923	210.799	150.379	92.854	214.104	-59.050	-83.442	-109.502	-84.214	208.378	0.00073122	0.00054279	0.00010802	1275.3	4.896e-06	4.0861e-06	1283.1	349.52	5.9775e-06	6.9497e-06	403.34	135.3	115.05	39.561	7.5849e-06	49.996	0.0013418	0.0021319	0.00060086	1298.9	2.0745e-05	2.418e-05	1304	356.42	2.0472e-05	2.4264e-05	412.06	138.23	117.98	40.898	2.1797e-05	51.575	11.599	-22.436	-18.567	-98.991	35.148	24.946	-99.606	-94.505	-4.170	40.798	-94.729	-90.547	-90.288	-85.579	33.647	-86.329	-8191	255	
1216.825	1	1	0	0	0.3148	0.39176	0.21019	0.25866	0.096481	0.10537	0.25787	0.24639	0.20228	0.098413	0.14165	0.38978	0.32667	0.2205	0.060373	0.23652	-1.0875	-1.6333	-1.2729	-2.0292	-1.4083	-1.2479	-2.1542	-1.2917	-1.675	-1.9188	-1.2479	-1.9813	-1.5438	-1.3875	-2.0125	-1.3646	184.919	230.699	105.142	189.001	219.386	5.658	168.058	-90.828	15.312	-107.005	200.472	151.086	-51.624	-61.285	-28.427	0.989	0.00074473	0.00042323	9.1139e-05	1280.4	6.0924e-06	5.6538e-06	1284.6	349.19	4.8816e-06	4.7941e-06	403.82	134.27	114.95	39.512	5.7558e-06	49.8	0.0013994	0.0021262	0.00060854	1298.6	2.1331e-05	2.4778e-05	1303.3	356.32	2.0506e-05	2.4454e-05	411.44	138.06	117.94	40.849	2.2212e-05	51.603	16.430	-27.252	-19.659	-98.298	3.389	21.199	-99.181	-94.202	2.345	35.732	-94.521	-90.275	-90.155	-85.531	17.915	-86.082	-8191	255	
1216.921	1	1	0	0	0.31402	0.21879	0.22131	0.37675	0.060292	0.10122	0.22295	0.23509	0.083776	0.14585	0.2516	0.18792	0.22871	0.24741	0.13417	0.011099	-0.91875	-1.7792	-1.0896	-1.8021	-1.5458	-1.0146	-1.9208	-1.2646	-1.3271	-1.7292	-1.275	-1.6313	-1.7583	-1.1729	-1.8208	-1.2167	167.010	75.889	214.285	217.120	67.458	-19.355	234.486	212.357	186.486	120.797	148.014	1.921	7.174	-82.307	-9.164	76.012	0.00065264	0.00069067	0.00017313	1274.5	3.3787e-06	6.0642e-06	1282.8	348.11	4.7118e-06	2.8856e-06	402.66	133.54	115.05	39.552	3.4725e-06	49.975	0.0014026	0.0020689	0.0006051	1295.9	2.0991e-05	2.428e-05	1306.8	356.17	2.0841e-05	2.3618e-05	411.26	137.83	117.93	40.904	2.1714e-05	51.653	13.226	-8.104	-21.181	-99.120	7.813	39.746	-99.580	-94.835	4.495	31.193	-95.434	-91.050	-90.687	-86.154	55.211	-86.977	-8191	255	
1217.015	1	1	0	0	0.1356	0.17872	0.20991	0.22633	0.072583	0.42088	0.19573	0.20618	0.28415	0.10039	0.29916	0.068987	0.083864	0.33711	0.11537	0.35026	-0.91667	-1.8146	-1.0458	-1.8417	-1.6437	-1.0583	-2.0771	-1.525	-1.2479	-1.8667	-1.3646	-1.5375	-1.7917	-1.0417	-1.7542	-1.5938	173.022	104.810	83.668	-85.400	96.536	242.247	182.675	201.862	1.688	225.531	193.722	41.227	120.419	240.425	12.108	184.251	0.00073195	0.00059589	0.0001599	1275.5	5.4038e-06	4.6306e-06	1283.9	347.68	8.3162e-06	3.7064e-06	403.02	134.92	114.81	39.575	4.4533e-06	49.897	0.0014019	0.0021725	0.00059611	1296.6	2.1443e-05	2.478e-05	1304.4	355.21	2.0747e-05	2.4084e-05	411.18	138.24	117.91	40.896	2.214e-05	51.623	3.253	-16.456	-11.710	-99.472	31.092	43.492	-99.486	-94.752	22.114	45.061	-95.166	-91.226	-90.199	-85.900	34.551	-86.653	-8191	255	
1217.136	1	1	0	0	0.16495	0.1687	0.051677	0.16376	0.12551	0.18814	0.26197	0.18674	0.3541	0.054717	0.10703	0.12468	0.12485	0.13724	0.33976	0.012593	-0.825	-1.8896	-1.0208	-1.7354	-1.8333	-0.85417	-1.8458	-1.7396	-1.1375	-1.7854	-1.2125	-1.5167	-1.8979	-1.1271	-1.6	-1.6896	43.128	84.512	77.497	-110.375	-20.570	143.108	-55.915	230.369	195.599	220.452	143.280	223.554	-68.270	173.050	127.400	224.076	0.00075028	0.00053655	0.00012487	1274.3	4.7487e-06	6.7063e-06	1285.6	347.73	9.3491e-06	4.0761e-06	401.88	134.52	114.62	39.546	7.0858e-06	49.913	0.0013979	0.0021232	0.00061376	1298	2.0722e-05	2.4245e-05	1305.5	355.74	2.0373e-05	2.4457e-05	411.06	137.76	117.8	40.828	2.1768e-05	51.604	10.191	-11.655	-19.939	-99.379	5.438	24.237	-99.706	-94.759	36.672	58.222	-95.152	-91.193	-90.579	-85.705	37.019	-86.754	-8191	255	
1217.232	1	1	0	0	0.2002	0.34015	0.14386	0.31847	0.19022	0.24444	0.21427	0.15538	0.15558	0.20861	0.18695	0.23406	0.19911	0.19285	0.12825	0.29548	-0.77083	-1.7062	-1.2896	-1.5375	-1.9167	-1.0896	-1.9021	-1.6792	-1.0292	-1.9479	-1.3667	-1.4062	-2.15	-1.1	-1.5646	-1.8708	123.681	209.107	9.331	26.659	-14.313	215.648	170.712	183.641	156.041	-73.905	209.784	205.122	242.114	-52.742	42.867	146.663	0.00062033	0.00048646	0.00014482	1272.2	5.9947e-06	8.2474e-06	1285.7	348.3	5.3727e-06	3.9572e-06	403.89	134.26	114.54	39.6	4.1997e-06	50.176	0.0013774	0.0020507	0.00059686	1293.5	2.0379e-05	2.4166e-05	1304	356.04	2.0052e-05	2.363e-05	410.92	138.02	117.87	40.833	2.1798e-05	51.607	10.132	-5.889	-37.144	-99.060	39.761	29.603	-99.440	-94.461	-3.468	70.954	-95.019	-90.937	-90.148	-85.932	30.734	-86.546	-8191	255	
1217.328	1	1	0	0	0.035652	0.073291	0.090442	0.28252	0.078572	0.21813	0.060732	0.2016	0.12458	0.11424	0.25472	0.16667	0.42366	0.29987	0.30431	0.21144	-0.59583	-1.9271	-1.3125	-1.2604	-1.9375	-1.1875	-1.7479	-2.0396	-1.0646	-1.9125	-1.6771	-1.2062	-2.0167	-1.1979	-1.4813	-1.9354	-53.128	66.168	205.196	219.390	213.351	-40.227	122.987	156.473	-108.900	-30.293	229.021	107.579	221.606	221.501	184.230	-81.628	0.00068267	0.0004953	6.3634e-05	1276.1	8.1198e-06	3.5596e-06	1280.5	348.85	5.0056e-06	3.679e-06	401.87	135.18	114.67	39.644	5.9014e-06	50.294	0.0013827	0.0020975	0.00060696	1296	2.1157e-05	2.4589e-05	1304	355.97	2.0287e-05	2.3419e-05	411.2	138.08	117.84	40.871	2.1612e-05	51.601	8.079	-33.657	-2.044	-99.187	24.816	63.444	-99.446	-94.852	3.518	32.097	-95.168	-90.932	-90.206	-85.610	39.655	-86.454	-8191	255	
1217.400	1	1	0	0	0.14895	0.20484	0.16079	0.10995	0.23014	0.069076	0.13835	0.25272	0.41748	0.19085	0.15013	0.18919	0.1113	0.019184	0.054611	0.13757	-0.59583	-1.7167	-1.4792	-1.1521	-1.9854	-1.2833	-1.5562	-2.2354	-0.97917	-1.9229	-1.8854	-1.2687	-2.1104	-1.3417	-1.3271	-2.1937	107.436	-26.346	209.571	226.002	170.676	243.927	157.559	-85.884	233.766	-107.096	-62.351	209.539	3.461	-9.425	-26.782	210.230	0.00077917	0.00035314	0.00021631	1278	3.5793e-06	2.3615e-06	1286	348.71	6.2379e-06	4.6734e-06	402.42	134.12	114	39.401	3.6615e-06	50.004	0.0013594	0.0020953	0.00060265	1297	2.1171e-05	2.4261e-05	1305.8	355.62	2.0295e-05	2.4065e-05	410.97	137.63	117.64	40.798	2.143e-05	51.521	7.994	-41.123	-17.154	-99.040	52.487	34.355	-99.043	-94.189	59.279	46.593	-94.257	-90.281	-90.007	-85.345	104.943	-85.945	-8191	255	
1217.521	1	1	0	0	0.39259	0.030708	0.31199	0.2246	0.11517	0.15829	0.32436	0.12882	0.076628	0.29848	0.24556	0.24705	0.25834	0.4895	0.10651	0.080565	-0.67083	-1.6979	-1.6542	-1.5542	-1.9229	-1.2875	-1.5854	-2.2958	-1.1083	-1.875	-1.8438	-1.3375	-1.9917	-1.5583	-1.2854	-1.9604	-49.667	-45.089	157.481	-109.495	91.150	224.435	167.997	85.247	207.256	-60.944	237.282	241.821	-89.643	232.065	26.892	207.022	0.00075613	0.00051527	0.00016615	1276.5	5.7689e-06	4.0738e-06	1286.4	348.7	6.7136e-06	6.2774e-06	401.51	134.63	115.21	39.465	3.5106e-06	49.817	0.0014122	0.0020923	0.00058985	1297.1	2.0848e-05	2.4035e-05	1304.7	355.52	2.0252e-05	2.3984e-05	410.72	137.65	117.94	40.804	2.1324e-05	51.5	8.493	-0.502	-42.500	-98.711	31.952	22.351	-99.017	-94.054	45.289	48.148	-94.747	-90.537	-89.918	-85.395	50.509	-86.313	-8191	255	
1217.617	1	1	0	0	0.23931	0.093579	0.18408	0.15437	0.27567	0.19136	0.3331	0.29188	0.24089	0.17432	0.26348	0.13155	0.086208	0.20919	0.27618	0.10248	-0.73125	-1.5896	-1.7625	-1.2	-1.7938	-1.5833	-1.3146	-1.9083	-1.1812	-1.3979	-2.0146	-1.1	-1.8687	-1.4708	-1.1938	-2.0938	-70.178	-8.245	193.038	161.137	232.146	213.282	-107.406	196.565	-34.711	-86.312	220.716	174.431	24.121	-1.390	58.772	-85.182	0.00063649	0.00049692	9.2886e-05	1273.7	2.0106e-06	2.7253e-06	1282.4	347.8	3.7642e-06	4.3231e-06	403.81	134.51	114.03	39.358	4.3591e-06	50.194	0.0013865	0.002096	0.00057721	1294.5	2.0719e-05	2.4197e-05	1303.7	355.84	2.0559e-05	2.4715e-05	410.97	138.06	117.71	40.78	2.2075e-05	51.666	9.049	-37.326	-19.411	-98.720	-54.556	56.579	-99.353	-94.466	48.448	52.978	-94.968	-90.826	-90.078	-85.770	70.557	-86.337	-8191	255	
1217.713	1	1	0	0	0.3535	0.097171	0.24917	0.40151	0.26962	0.2017	0.27724	0.06582	0.066857	0.2993	0.15399	0.089215	0.21883	0.08116	0.20276	0.28738	-0.85625	-1.425	-1.7083	-1.1604	-1.7479	-1.6958	-1.1875	-2.075	-1.4667	-1.35	-2.0167	-1.3646	-1.75	-1.7167	-1.0125	-2.025	125.763	-94.081	212.472	173.125	201.945	87.220	122.196	-71.832	151.832	-24.025	133.657	181.867	183.324	-87.663	18.827	239.079	0.00066202	0.00046389	0.00011206	1277	7.0341e-06	4.3154e-06	1281.9	347.85	6.2715e-06	4.3796e-06	401.85	134.63	114.75	39.779	9.4181e-06	49.908	0.0014016	0.0021598	0.0005766	1297.4	2.167e-05	2.4538e-05	1305	355.64	2.0741e-05	2.4449e-05	410.87	137.79	117.87	40.878	2.208e-05	51.53	17.848	-26.859	-9.961	-98.922	33.866	42.157	-99.482	-94.658	19.074	65.491	-95.006	-90.866	-90.249	-85.787	31.865	-86.462	-8191	255	
1217.809	1	1	0	0	0.23293	0.061793	0.078362	0.11945	0.17267	0.089792	0.31262	0.18494	0.16977	0.2492	0.13947	0.25879	0.13477	0.18872	0.037962	0.25083	-0.93333	-1.2687	-1.8813	-1.2479	-1.5917	-1.7396	-1.3708	-2.0771	-1.5083	-1.3062	-2.1021	-1.2833	-1.5958	-1.8771	-0.96875	-2.0062	14.111	51.716	234.345	168.150	179.239	159.179	186.043	150.996	-105.551	43.340	212.401	188.300	11.506	-100.482	106.274	197.811	0.0006915	0.000543	0.00017027	1270	6.3731e-06	3.5827e-06	1279.2	347.8	5.361e-06	6.2885e-06	399.92	133.35	115.2	39.351	2.3677e-06	49.694	0.0013878	0.0021685	0.00057397	1292.3	2.1484e-05	2.3975e-05	1302.5	355.58	2.0758e-05	2.4211e-05	410.63	137.59	117.9	40.705	2.2264e-05	51.443	12.751	-40.003	-13.273	-99.263	30.695	3.748	-99.455	-94.628	30.248	17.335	-95.160	-90.645	-90.107	-85.744	84.256	-86.109	-8191	255	
1217.905	1	1	0	0	0.24012	0.12185	0.14895	0.18316	0.15546	0.027608	0.19555	0.23975	0.2365	0.28517	0.22389	0.1469	0.14082	0.3467	0.15476	0.21791	-1.0562	-1.0667	-1.9312	-1.6	-1.5396	-1.8896	-1.2563	-1.9583	-1.5146	-1.0854	-2.3	-1.4688	-1.5208	-1.9271	-1.1187	-1.9479	144.125	127.746	-63.376	-70.558	-31.908	67.925	-97.628	174.968	16.896	32.930	207.604	164.904	205.786	143.428	133.508	68.221	0.0005852	0.00071193	0.00016359	1275.7	5.258e-06	6.1159e-06	1281.4	348.88	6.432e-06	6.0361e-06	403.16	134.69	115.02	39.589	4.703e-06	50.026	0.0014245	0.0021188	0.00061176	1295.1	2.1955e-05	2.3763e-05	1303.2	355.61	2.0323e-05	2.4133e-05	410.7	138.05	117.69	40.828	2.1815e-05	51.485	15.690	-11.231	-37.304	-98.630	22.414	19.247	-98.977	-94.258	-3.639	35.126	-95.321	-90.600	-90.211	-85.699	35.997	-86.279	-8191	255	
1218.001	1	1	0	0	0.26182	0.2314	0.33563	0.21681	0.18372	0.24222	0.24184	0.10265	0.26482	0.28522	0.21737	0.25292	0.14728	0.33275	0.10416	0.30259	-1.2396	-1.1771	-1.9271	-1.4354	-1.15	-1.9896	-1.3521	-1.9188	-1.7333	-1.0896	-1.9875	-1.7104	-1.2604	-2.1	-1.2542	-1.6833	245.012	111.391	-68.903	232.707	151.451	-52.557	177.291	-13.912	200.741	154.023	226.527	127.602	-97.713	178.332	171.996	-108.137	0.00064806	0.00044054	0.00011314	1272.5	6.3404e-06	4.0652e-06	1284.8	348.74	4.535e-06	1.7567e-06	402.12	134.41	114.57	39.441	5.188e-06	49.943	0.0013892	0.0021224	0.00059044	1293.4	2.1418e-05	2.3719e-05	1302.6	355.72	2.0262e-05	2.4308e-05	410.68	137.8	117.63	40.795	2.2219e-05	51.568	5.780	-21.804	-10.373	-98.957	14.914	42.112	-99.136	-94.101	25.873	55.812	-94.702	-90.577	-90.369	-85.734	46.135	-86.759	-8191	255	
1218.098	1	1	0	0	0.33402	0.17736	0.14319	0.33831	0.21606	0.032502	0.25157	0.15441	0.29189	0.069364	0.0986	0.26984	0.29292	0.32638	0.15641	0.26412	-1.4146	-0.99167	-1.7271	-1.5875	-1.1562	-1.9896	-1.2437	-1.6812	-1.9188	-1.0063	-1.8875	-1.6437	-1.3083	-2.1604	-1.4583	-1.5	-79.806	206.209	234.363	-108.217	243.572	-99.115	150.326	245.720	113.117	238.859	153.186	-111.688	223.840	224.646	120.551	196.863	0.00061697	0.00028989	0.00019966	1272.5	5.0939e-06	4.8038e-06	1287.6	347.68	8.2345e-06	3.0761e-06	402.22	133.99	114.61	39.659	4.7685e-06	50.006	0.0013832	0.0021722	0.00061141	1293.2	2.1299e-05	2.3758e-05	1304.2	355.18	2.0507e-05	2.4432e-05	411.16	137.66	117.69	40.808	2.2201e-05	51.617	19.091	-53.284	-4.689	-99.419	29.611	62.457	-99.720	-94.750	13.421	30.271	-95.252	-91.394	-90.225	-85.684	7.323	-86.643	-8191	255	
1218.216	1	1	0	0	0.18104	0.13208	0.094872	0.2607	0.20116	0.12251	0.15214	0.188	0.16627	0.1679	0.2095	0.071596	0.0090503	0.42927	0.29707	0.38988	-1.4312	-0.96042	-1.7667	-1.8292	-0.94792	-1.95	-1.5896	-1.5438	-1.8979	-1.0146	-1.9396	-1.8188	-1.1146	-1.8458	-1.3208	-1.425	135.176	35.089	-0.602	-97.106	-35.537	-94.804	205.649	202.447	191.215	77.003	-91.801	110.091	64.083	161.303	12.235	-103.962	0.00078292	0.00053487	0.00012608	1272.6	2.9596e-06	2.3312e-06	1281.1	347.71	4.12e-06	5.027e-06	402.98	134.33	114.95	39.407	5.7131e-06	50.084	0.0014061	0.0021628	0.0006112	1291.3	2.181e-05	2.3712e-05	1302.5	355.67	2.0369e-05	2.4798e-05	410.72	137.75	117.69	40.739	2.2428e-05	51.595	9.998	1.463	24.820	-99.543	-13.984	25.814	-99.660	-94.619	22.441	39.379	-95.267	-91.101	-90.764	-85.679	29.789	-86.904	-8191	255	
1218.313	1	1	0	0	0.085861	0.11223	0.24439	0.29044	0.14865	0.27274	0.3954	0.29814	0.16376	0.28341	0.25376	0.26717	0.085598	0.13717	0.15025	0.11246	-1.6875	-1.2292	-1.5771	-1.8958	-1.0646	-1.9042	-1.7208	-1.3875	-1.9625	-0.99375	-1.8062	-1.9521	-1.2062	-2.1083	-1.6771	-1.3312	-62.315	80.327	-102.093	154.353	20.573	148.653	206.818	196.013	-94.612	155.871	224.026	218.083	-76.465	239.132	220.801	135.362	0.00067451	0.0004765	0.00010388	1271.8	4.5809e-06	5.0214e-06	1277.3	348.4	1.1757e-05	7.7323e-06	401.25	133.6	114.8	39.48	6.9412e-06	49.908	0.0014057	0.0021444	0.00060552	1292.6	2.1359e-05	2.2994e-05	1300.5	355.15	2.0334e-05	2.4456e-05	410.17	137.62	117.52	40.828	2.2071e-05	51.474	13.688	-54.798	-15.731	-99.399	10.365	52.384	-99.626	-94.565	15.455	47.000	-95.154	-90.893	-90.287	-85.677	43.446	-86.510	-8191	255	
1218.409	1	1	0	0	0.17714	0.28782	0.32764	0.25788	0.14215	0.23158	0.19808	0.099328	0.1905	0.15291	0.1784	0.14039	0.1113	0.2964	0.13621	0.27376	-1.6313	-1.275	-1.3125	-1.9917	-0.9625	-1.9521	-1.9167	-1.2896	-1.825	-1.2604	-1.3813	-2.1063	-1.1792	-1.7833	-1.6729	-1.3104	-78.919	-60.943	49.815	201.034	-96.192	232.995	168.428	59.524	94.456	51.094	-91.535	121.524	243.240	142.607	-107.121	121.544	0.00063829	0.00052117	0.00013381	1271.5	4.8222e-06	4.8836e-06	1279.6	347.95	3.6711e-06	2.9254e-06	400.86	134.32	114.29	39.483	4.5351e-06	49.678	0.0014006	0.0022143	0.00062214	1294	2.1854e-05	2.47e-05	1300.3	355.52	2.0779e-05	2.5247e-05	410.2	137.66	117.43	40.791	2.2169e-05	51.473	6.924	-40.229	-27.135	-99.121	45.148	21.759	-99.525	-94.443	71.823	92.518	-95.168	-90.742	-90.462	-85.633	16.017	-86.480	-8191	255	
1218.505	1	1	0	0	0.046968	0.27999	0.061704	0.23042	0.11312	0.066171	0.24049	0.15811	0.15208	0.26923	0.24984	0.23642	0.3754	0.35891	0.19012	0.29989	-1.475	-1.2812	-1.1625	-2.0417	-1.2458	-1.7979	-1.8875	-1.0292	-1.8146	-1.5625	-1.4854	-2	-1.1958	-1.5229	-1.9104	-1.0667	218.487	9.483	-13.863	231.641	-49.465	16.275	141.552	-96.717	40.376	-100.331	210.489	190.145	237.711	222.721	195.141	111.419	0.00072656	0.00073321	0.00014595	1275.5	6.7585e-06	3.4564e-06	1278.1	347.3	5.4188e-06	3.6624e-06	400.22	134.06	113.84	39.553	4.089e-06	49.851	0.0013987	0.0021161	0.00060712	1292.8	2.1917e-05	2.5079e-05	1299	354.87	2.0454e-05	2.5133e-05	410.42	137.56	117.39	40.824	2.193e-05	51.492	8.508	-22.120	-23.367	-99.294	25.932	26.577	-99.609	-94.325	34.117	69.994	-95.065	-90.972	-90.193	-85.552	17.701	-86.217	-8191	255	
1218.626	1	1	0	0	0.15783	0.085472	0.11845	0.43499	0.37671	0.27092	0.28393	0.38116	0.12241	0.1946	0.18272	0.20747	0.34447	0.0090856	0.059247	0.12146	-1.4813	-1.4396	-1.2354	-2.1167	-1.4083	-1.4271	-1.9521	-1.3021	-1.8458	-1.5583	-1.2583	-2.1562	-1.4083	-1.6146	-1.8188	-1.4583	28.580	109.461	95.642	245.804	43.807	239.708	135.170	207.180	25.828	227.560	207.567	138.738	175.180	142.862	81.080	159.555	0.00072272	0.00056626	0.00017949	1269.5	6.5293e-06	2.3404e-06	1279.4	349.04	4.1205e-06	5.1799e-06	400.19	134.02	114.45	39.453	7.0881e-06	49.965	0.0014085	0.0021115	0.0006123	1292.4	2.1167e-05	2.4861e-05	1299.3	355.45	2.0306e-05	2.4025e-05	410.43	137.48	117.31	40.788	2.1737e-05	51.538	16.290	-23.649	-13.287	-98.856	44.110	41.391	-99.068	-93.798	31.641	36.703	-94.950	-91.120	-90.472	-85.914	32.787	-86.585	-8191	255	
1218.697	1	1	0	0	0.20364	0.1932	0.3039	0.18095	0.092627	0.0585	0.089228	0.36458	0.31915	0.18465	0.32669	0.15694	0.25382	0.27573	0.24916	0.16993	-1.3521	-1.5021	-1.1833	-2.0292	-1.3292	-1.5958	-2.3417	-1.4146	-1.8188	-1.6292	-1.1021	-2.0687	-1.2313	-1.4146	-1.8667	-1.1812	212.060	224.465	110.432	-106.553	32.612	-72.411	-73.435	191.467	-9.040	235.514	-98.175	-111.716	228.031	27.701	10.693	114.774	0.00068862	0.00060753	6.8053e-05	1270.6	6.9279e-06	6.9616e-06	1277.2	346.33	4.1183e-06	5.5549e-06	400.96	133.71	114.71	39.541	3.8571e-06	49.907	0.0014125	0.0021304	0.00061917	1292	2.1086e-05	2.4763e-05	1299.8	354.38	2.0891e-05	2.453e-05	410.52	137.29	117.54	40.746	2.1645e-05	51.448	10.453	-20.697	-39.265	-99.322	50.926	42.084	-99.172	-94.238	31.732	67.838	-94.852	-90.878	-90.077	-85.456	9.903	-86.699	-8191	255	
1218.793	1	1	0	0	0.35442	0.15757	0.34031	0.30145	0.12351	0.20502	0.069534	0.15067	0.23024	0.03236	0.29339	0.1267	0.11207	0.048192	0.13156	0.095691	-1.1583	-1.8229	-0.92917	-2.0812	-1.1708	-1.1208	-2.0646	-1.0979	-1.5854	-1.8021	-0.99167	-2.0792	-1.6125	-1.3813	-1.875	-1.1583	126.908	111.259	166.956	185.293	137.176	141.537	88.662	195.012	-8.672	194.573	200.185	239.462	-64.097	237.228	-1.563	-92.488	0.00065962	0.00054459	0.00015341	1271.4	5.4602e-06	6.4396e-06	1274.5	346.74	6.5972e-06	5.0003e-06	401.3	133.73	114.24	39.452	4.3599e-06	49.883	0.0013706	0.0021859	0.00059905	1290.6	2.1174e-05	2.3967e-05	1296.3	354.22	2.0226e-05	2.4966e-05	409.2	137.45	117.29	40.731	2.1383e-05	51.455	4.834	-28.568	-11.765	-99.528	48.240	62.731	-99.619	-94.775	44.657	49.626	-95.497	-91.110	-90.568	-86.026	53.262	-86.565	-8191	255	
1218.912	1	1	0	0	0.47693	0.18825	0.060746	0.28443	0.16337	0.094095	0.22054	0.069126	0.13083	0.37221	0.27555	0.22192	0.31757	0.20036	0.082098	0.31973	-1.2437	-1.8646	-1	-1.9521	-1.5	-1.0271	-2.1417	-1.2188	-1.425	-1.7812	-1.1437	-1.7687	-1.6313	-1.4479	-2.0021	-1.225	125.941	-104.924	82.004	225.056	27.558	119.362	130.641	86.937	151.900	-103.868	215.986	196.409	217.262	203.079	22.214	70.500	0.00072282	0.00045134	0.0001257	1263.7	5.3389e-06	3.838e-06	1280.6	346.65	9.8507e-06	4.821e-06	399.94	133.75	114.35	39.4	6.2925e-06	49.763	0.0013792	0.0021059	0.00060877	1289.5	2.1085e-05	2.4313e-05	1300.8	354	2.0591e-05	2.4012e-05	409.93	137.51	117.47	40.699	2.1314e-05	51.439	7.871	-44.968	-53.856	-99.256	19.495	26.908	-99.787	-94.626	43.528	53.891	-95.184	-90.958	-90.464	-85.794	44.441	-86.566	-8191	255	
1219.008	1	1	0	0	0.20591	0.26084	0.16307	0.17843	0.28743	0.089869	0.27742	0.16679	0.14669	0.095456	0.066546	0.27183	0.13008	0.29291	0.14851	0.15523	-0.90208	-2.0812	-1.2354	-1.7771	-1.7375	-1.1104	-2.0458	-1.5417	-1.2042	-1.8917	-1.1042	-1.9333	-1.725	-1.0125	-1.8667	-1.5583	83.391	-106.677	-91.872	224.272	-76.213	244.075	186.168	201.461	-74.695	130.347	53.531	181.040	124.872	207.900	11.238	18.680	0.00069634	0.00039672	0.00010741	1272.8	4.1583e-06	6.0329e-06	1275.2	346.83	7.0441e-06	4.4277e-06	399.04	134.64	114.02	39.155	6.0992e-06	49.898	0.0013721	0.0021056	0.00060437	1291.6	2.1201e-05	2.4505e-05	1298.7	354.37	2.0459e-05	2.3903e-05	408.88	137.65	117.38	40.653	2.1471e-05	51.375	9.726	-22.151	-43.633	-99.211	23.341	49.005	-99.423	-94.866	37.602	59.855	-95.516	-91.308	-90.888	-86.154	55.607	-86.989	-8191	255	
1219.105	1	1	0	0	0.047648	0.2202	0.19323	0.14687	0.31983	0.09737	0.16031	0.11786	0.18603	0.17189	0.15321	0.38593	0.13265	0.068186	0.16965	0.18117	-0.68542	-1.6896	-1.2896	-1.6708	-1.7188	-0.96667	-2.0938	-1.6063	-1.4271	-1.9688	-1.3417	-1.6125	-1.8563	-1.125	-1.775	-1.6146	115.195	199.267	154.794	-62.921	44.829	45.167	-87.272	124.019	86.359	57.888	185.228	168.410	-72.193	235.926	146.068	170.916	0.00067881	0.00039375	0.00015136	1271.3	5.1328e-06	2.503e-06	1279.1	346.93	3.8412e-06	7.7224e-06	400.36	133.8	114.25	39.598	5.9431e-06	49.8	0.0014208	0.0021291	0.00057761	1292.2	2.0884e-05	2.3993e-05	1298.7	354.05	2.0443e-05	2.4428e-05	409.76	137.44	117.37	40.797	2.1941e-05	51.437	5.064	-45.361	-14.815	-98.983	18.683	21.648	-99.191	-94.582	15.119	8.163	-95.137	-90.780	-90.297	-85.639	59.632	-86.262	-8191	255	
1219.201	1	1	0	0	0.09925	0.054005	0.24805	0.28628	0.27514	0.14319	0.13483	0.33167	0.1063	0.25801	0.25362	0.30803	0.15463	0.4465	0.042004	0.18872	-0.81458	-1.875	-0.9875	-1.6458	-1.8833	-1.0917	-1.9292	-1.5125	-1.0375	-2.0896	-1.3354	-1.4854	-1.8958	-1.1562	-1.6979	-1.6729	105.546	-22.483	68.224	-89.662	69.651	236.342	-81.080	197.489	22.455	-61.922	-110.718	225.900	-34.569	240.605	-42.162	-78.616	0.00064405	0.00055475	0.00016273	1267.2	4.4929e-06	4.0072e-06	1279.9	347.54	6.9136e-06	4.2158e-06	399.47	133.59	113.89	39.485	9.2902e-06	49.698	0.0013959	0.0020827	0.00060658	1289.8	2.0696e-05	2.431e-05	1299.8	354.41	2.0281e-05	2.3866e-05	409.51	137.33	117.24	40.769	2.1471e-05	51.442	14.199	-19.636	-13.403	-99.406	34.904	3.460	-99.668	-94.829	19.802	20.516	-95.672	-91.179	-90.534	-85.857	31.702	-86.920	-8191	255	
1219.297	1	1	0	0	0.35144	0.17676	0.15282	0.28776	0.11793	0.13451	0.29123	0.35527	0.059642	0.12818	0.27626	0.16719	0.19462	0.40039	0.043407	0.15112	-0.64167	-1.7437	-1.2938	-1.375	-1.8396	-0.85417	-1.9167	-1.5604	-1.0167	-1.7104	-1.4958	-1.1812	-1.9958	-1.15	-1.5146	-1.7042	-34.856	-78.013	95.497	191.778	81.145	9.479	184.194	175.783	10.284	88.802	-18.668	222.465	167.679	234.892	206.873	208.437	0.00073218	0.00050002	9.2529e-05	1268.8	3.6515e-06	4.2617e-06	1279.4	347.06	5.4262e-06	2.409e-06	399.77	133.44	114.01	39.435	7.4049e-06	49.708	0.0013883	0.002059	0.00059552	1290.3	2.0868e-05	2.3906e-05	1299.9	354.72	2.0681e-05	2.3644e-05	409.31	137.18	117.19	40.735	2.1607e-05	51.388	12.207	-24.075	-35.991	-99.714	31.763	16.116	-99.629	-94.921	34.025	42.898	-95.528	-91.378	-90.591	-86.012	38.665	-86.867	-8191	255	
1219.393	1	1	0	0	0.015583	0.040828	0.089878	0.37403	0.15888	0.082803	0.39889	0.25652	0.21303	0.24344	0.29998	0.044374	0.20713	0.15501	0.1124	0.22513	-0.63958	-1.8417	-1.1667	-1.1375	-1.9229	-1.325	-1.6833	-2.0417	-1.0104	-1.7125	-1.8167	-1.2188	-1.9479	-1.3292	-1.3438	-2.1229	54.837	161.139	13.223	203.540	-106.662	72.992	171.626	-97.295	-54.660	-87.073	171.723	47.794	-107.471	133.433	40.255	166.606	0.00071452	0.00053643	0.00010787	1266.4	3.9476e-06	4.1221e-06	1274.1	345.9	5.5832e-06	5.8455e-06	400.37	133.6	114.21	39.495	7.3408e-06	49.707	0.0013959	0.0020979	0.00058842	1289.1	2.0643e-05	2.3637e-05	1295.7	353.89	2.048e-05	2.3607e-05	409.34	137.32	117.17	40.696	2.1438e-05	51.369	16.056	-43.836	-34.499	-99.605	82.876	26.005	-99.659	-94.790	-16.434	29.096	-95.178	-91.048	-90.254	-85.987	16.326	-86.802	-8191	255	
1219.489	1	1	0	0	0.035155	0.10804	0.023178	0.31461	0.3245	0.14294	0.20649	0.22767	0.061428	0.10888	0.27628	0.38687	0.17953	0.27364	0.10609	0.081213	-0.62708	-1.8	-1.4958	-1.0146	-1.9937	-1.3229	-1.625	-2.0208	-1.05	-1.5562	-1.8167	-1.1729	-1.8583	-1.3458	-1.1583	-1.9854	20.652	-11.478	-32.698	209.500	-26.921	244.788	230.868	149.457	145.673	112.758	149.846	231.685	186.691	176.095	102.107	231.838	0.00066059	0.00047751	0.00012556	1261.3	2.747e-06	4.4601e-06	1277.8	348.25	9.3503e-06	4.4085e-06	400.13	133.99	114.44	39.389	6.378e-06	49.747	0.0014192	0.0020272	0.00058745	1287.6	2.0709e-05	2.3446e-05	1298.3	354.34	2.0208e-05	2.3942e-05	409.18	137.32	117.29	40.672	2.129e-05	51.328	13.839	-21.190	-15.714	-99.492	6.085	23.422	-99.557	-94.539	40.605	21.235	-94.944	-90.910	-90.454	-85.665	8.498	-86.568	-8191	255	
1219.585	1	1	0	0	0.17139	0.27163	0.055495	0.088037	0.19506	0.21091	0.27328	0.18542	0.19072	0.10563	0.13666	0.1351	0.13263	0.30548	0.065468	0.17221	-0.5	-1.7625	-1.7854	-1.2	-1.7687	-1.3167	-1.3	-1.9771	-1.0021	-1.4875	-1.7771	-0.93542	-1.6979	-1.6833	-1.2	-1.9396	96.338	60.950	204.680	157.822	-57.167	41.346	208.163	157.016	23.282	245.504	-63.334	165.665	128.365	227.602	39.072	-24.883	0.00077535	0.00042491	0.00017489	1269.1	4.1348e-06	6.7259e-06	1275.8	346.31	9.421e-06	4.0349e-06	399.12	133.81	114.13	39.55	7.2649e-06	49.755	0.0013868	0.0021123	0.00058952	1288.1	2.0598e-05	2.3493e-05	1297.5	353.52	1.9923e-05	2.3703e-05	408.65	137.29	117.09	40.639	2.1619e-05	51.276	10.543	-51.794	-19.561	-99.273	37.982	15.052	-99.456	-94.405	54.718	55.954	-95.406	-91.272	-90.528	-85.768	23.075	-86.783	-8191	255	
1219.706	1	1	0	0	0.18156	0.097572	0.26216	0.10958	0.32931	0.19512	0.072068	0.40386	0.052558	0.087507	0.16878	0.052634	0.24507	0.1172	0.17092	0.24603	-0.7625	-1.475	-1.8104	-1.0125	-1.6354	-1.6208	-1.2771	-2.1542	-1.4167	-1.3021	-2.0479	-1.05	-1.8854	-1.8312	-1.1187	-1.975	-48.139	-36.667	-27.046	-54.879	-38.467	21.360	94.031	236.017	65.634	91.305	193.172	152.834	58.745	-47.090	124.848	215.552	0.00068601	0.00047604	0.00015054	1261.8	4.2268e-06	4.198e-06	1276.8	346.45	7.6608e-06	4.0482e-06	401.48	133.88	114.09	39.321	2.5282e-06	49.968	0.0013555	0.0020484	0.00059837	1286.8	2.0325e-05	2.3796e-05	1298.7	353.87	1.9849e-05	2.3539e-05	409.13	137.35	117.22	40.625	2.1475e-05	51.437	6.274	5.705	-31.802	-99.508	19.317	13.854	-99.619	-94.600	47.981	95.151	-95.302	-90.950	-90.125	-85.679	12.502	-86.425	-8191	255	
1219.802	1	1	0	0	0.14728	0.17192	0.17875	0.14234	0.11674	0.30579	0.26665	0.23197	0.25331	0.12533	0.15839	0.10669	0.27185	0.22478	0.42011	0.20901	-0.94167	-1.2313	-1.8875	-1.1396	-1.6292	-1.6146	-1.0417	-1.9771	-1.3479	-1.0792	-2.0583	-1.1063	-1.6187	-1.7979	-0.9625	-2.0375	201.712	87.035	30.948	193.212	10.430	156.101	180.121	129.930	127.906	55.802	-104.789	158.371	-99.869	177.852	-17.817	201.979	0.00067173	0.00045643	0.00015207	1262.4	4.3213e-06	5.783e-06	1272.3	345.7	5.0407e-06	3.7848e-06	399.22	133.39	113.82	39.335	3.54e-06	49.707	0.0014136	0.0020837	0.00058799	1286.7	2.1129e-05	2.3336e-05	1295.8	353.57	2.003e-05	2.3813e-05	409.14	136.94	117.01	40.66	2.1671e-05	51.448	8.685	-37.601	-14.432	-99.327	1.855	27.875	-99.538	-94.598	33.504	38.519	-95.299	-91.038	-90.075	-85.803	13.735	-86.652	-8191	255	
1219.898	1	1	0	0	0.10946	0.17811	0.23716	0.22699	0.2805	0.3227	0.071703	0.46677	0.33971	0.061415	0.058534	0.18857	0.076138	0.084962	0.11531	0.26193	-0.92708	-1.1125	-1.775	-1.3333	-1.4792	-1.7896	-1.2	-1.95	-1.2313	-0.99792	-2.025	-1.2292	-1.4604	-1.975	-1.2167	-1.7979	33.836	191.006	19.432	-102.435	-71.744	39.621	-54.392	193.060	-58.984	-87.142	153.588	217.915	-73.699	25.373	68.063	218.831	0.00074056	0.00077066	0.00013252	1262.2	5.0974e-06	5.4423e-06	1275.7	347.37	7.8316e-06	7.3135e-06	399.45	133.04	114.18	39.359	4.184e-06	49.609	0.0013532	0.0020522	0.00058133	1288.3	2.0819e-05	2.2904e-05	1295.7	354.47	1.9673e-05	2.3935e-05	408.9	136.96	117.27	40.62	2.1374e-05	51.357	13.582	-36.518	-32.740	-99.101	7.419	60.746	-99.241	-94.165	35.429	32.850	-95.241	-90.874	-90.192	-85.245	-0.340	-86.077	-8191	255	
1219.994	1	1	0	0	0.30703	0.19081	0.19872	0.1444	0.22321	0.18046	0.28126	0.20451	0.13817	0.068276	0.13584	0.17145	0.22349	0.32629	0.10364	0.093342	-1.1437	-1.3188	-1.7208	-1.375	-1.3167	-1.8375	-1.3167	-2.0292	-1.6875	-1.0771	-2.1042	-1.5875	-1.35	-1.6896	-0.95625	-1.8167	132.131	188.396	157.072	94.378	-53.140	115.101	235.142	228.226	147.504	184.337	86.070	182.231	227.341	-88.268	-63.930	203.693	0.00063937	0.0004329	9.1917e-05	1268.5	3.3457e-06	4.5108e-06	1273.3	346.73	7.4881e-06	3.6294e-06	397.69	133.52	114.17	39.452	8.4315e-06	49.667	0.0013622	0.0021223	0.00058524	1287.2	2.0739e-05	2.354e-05	1295.2	353.88	1.9763e-05	2.3606e-05	408.11	136.91	117.15	40.624	2.1398e-05	51.309	15.206	-29.421	-17.715	-99.831	58.160	25.502	-99.858	-94.855	37.771	29.862	-95.327	-91.256	-90.811	-86.009	47.566	-86.630	-8191	255	
1220.089	1	1	0	0	0.10812	0.091628	0.22631	0.10582	0.14933	0.19007	0.35357	0.26293	0.1018	0.12813	0.085855	0.18863	0.15045	0.35649	0.029478	0.3374	-1.2854	-1.0938	-1.8083	-1.6125	-1.2104	-1.7979	-1.0875	-1.7167	-1.6917	-0.87917	-1.9833	-1.5958	-1.2437	-2.0875	-1.3875	-1.5	121.312	47.620	19.823	76.532	54.793	38.443	154.007	179.426	111.268	207.008	200.845	-108.239	172.269	241.867	188.476	-59.724	0.00076978	0.00050706	4.9694e-05	1264.6	4.7047e-06	6.9532e-06	1271	347.52	5.7547e-06	3.2971e-06	398.04	133.05	113.82	39.544	2.5583e-06	49.711	0.0013458	0.0019924	0.00057119	1286.2	2.0664e-05	2.3308e-05	1295.2	354.54	1.9562e-05	2.3181e-05	407.81	136.76	117.08	40.681	2.1154e-05	51.287	10.490	-29.900	1.480	-99.655	-9.825	20.143	-99.788	-94.721	20.794	73.938	-95.367	-91.394	-90.508	-85.935	1.574	-86.769	-8191	255	
1220.187	1	1	0	0	0.052552	0.32201	0.1884	0.3769	0.37464	0.083494	0.39049	0.12317	0.18048	0.33511	0.2091	0.090189	0.13557	0.2016	0.15722	0.1236	-1.1958	-1.0208	-1.8104	-1.5042	-1.1437	-1.9021	-1.3083	-1.3479	-1.8563	-0.86458	-1.8208	-1.65	-1.1979	-1.9958	-1.1604	-1.3292	56.844	78.063	55.468	196.138	15.047	67.240	227.381	168.683	59.262	114.659	107.177	213.190	-74.942	90.867	228.163	-78.582	0.00063431	0.00044409	0.00013132	1265.5	6.1667e-06	5.127e-06	1272.3	344.98	5.3229e-06	4.9259e-06	399.34	133.1	113.62	39.233	4.9936e-06	49.82	0.0013649	0.0020376	0.00057618	1286.7	2.0681e-05	2.2819e-05	1294.7	353.33	1.9698e-05	2.3568e-05	408.32	137.17	116.8	40.603	2.0929e-05	51.337	8.886	-25.907	-16.089	-99.691	27.606	50.813	-99.951	-94.829	5.802	26.041	-95.250	-91.036	-90.538	-86.070	31.539	-86.793	-8191	255	
1220.306	1	1	0	0	0.1421	0.35353	0.17711	0.2253	0.33747	0.12899	0.17315	0.22628	0.11891	0.3405	0.23232	0.21888	0.28133	0.37765	0.14887	0.25881	-1.3125	-1.0021	-1.6667	-1.7271	-1.0771	-1.7292	-1.5146	-1.5333	-1.8542	-0.85833	-1.7042	-1.9021	-0.99792	-1.9083	-1.3229	-1.3792	60.503	-87.446	34.379	226.608	8.569	140.613	218.276	177.419	24.904	78.954	196.190	-82.591	210.188	-88.184	16.621	-78.154	0.00075823	0.00053009	0.00012743	1260.5	4.372e-06	4.9929e-06	1270.1	346.74	9.2685e-06	6.9412e-06	400.32	133.6	113.68	39.205	2.9882e-06	49.598	0.0013662	0.0020528	0.00056368	1285.3	2.0371e-05	2.2681e-05	1294.4	353.6	1.9735e-05	2.3285e-05	408.88	136.96	116.96	40.587	2.108e-05	51.272	20.371	-15.318	-54.152	-99.759	-9.454	34.946	-100.012	-94.750	7.176	34.682	-95.124	-91.240	-90.723	-86.260	41.265	-86.469	-8191	255	
1220.402	1	1	0	0	0.15499	0.067995	0.26957	0.1494	0.094751	0.14084	0.27186	0.37668	0.30701	0.01192	0.17427	0.32724	0.11294	0.11886	0.17096	0.15457	-1.5646	-1.0271	-1.5312	-1.8708	-0.97917	-1.9042	-1.8146	-1.3979	-1.9562	-1.1042	-1.2687	-1.7708	-1.0271	-1.8167	-1.4417	-1.1437	-36.387	197.519	-93.124	209.019	47.066	58.580	242.989	205.885	44.608	47.753	233.851	162.609	-80.770	116.370	29.155	-90.861	0.00063399	0.00036969	0.00017486	1265.9	4.3961e-06	3.5426e-06	1272.2	346.13	7.3042e-06	4.6737e-06	400.08	133.62	114.13	39.204	3.9293e-06	49.833	0.0013625	0.0020374	0.0005822	1287.8	2.0945e-05	2.3956e-05	1295.3	353.4	2.0011e-05	2.3803e-05	408.57	137.22	116.98	40.642	2.1667e-05	51.388	14.415	-23.278	25.934	-99.644	51.307	45.422	-99.818	-95.098	52.487	57.182	-95.361	-91.434	-91.023	-86.107	-1.709	-86.979	-8191	255	
1220.498	1	1	0	0	0.10025	0.11275	0.075523	0.15895	0.23083	0.083465	0.29829	0.14174	0.19138	0.13841	0.36937	0.14755	0.14855	0.12699	0.080257	0.11678	-1.6042	-1.0562	-1.3771	-1.9667	-0.8625	-1.8062	-1.8208	-1.1208	-1.7812	-1.1396	-1.4708	-1.9521	-1.0771	-2.0062	-1.7104	-1.075	-23.784	-37.946	-94.155	221.352	-11.556	-96.346	143.627	127.972	69.794	-16.003	147.228	231.010	150.684	203.983	62.457	197.807	0.00067637	0.00048624	0.00012668	1264.6	2.6915e-06	7.9711e-07	1268.9	345.69	8.3398e-06	4.2633e-06	399.96	132.9	114.1	39.402	6.5465e-06	49.804	0.0013687	0.0021226	0.00057641	1287.6	2.0704e-05	2.2977e-05	1293.9	353.63	1.9627e-05	2.3409e-05	408.73	137.09	117.05	40.648	2.1312e-05	51.301	15.665	-39.044	-18.140	-99.654	12.096	49.816	-100.015	-94.720	15.594	34.784	-95.521	-91.101	-90.773	-85.788	17.548	-86.879	-8191	255	
1220.594	1	1	0	0	0.11251	0.15465	0.26946	0.26889	0.23396	0.16354	0.31129	0.12592	0.32549	0.13463	0.083938	0.0927	0.11576	0.15026	0.12308	0.089644	-1.475	-1.1938	-1.3188	-2.1542	-1.1729	-1.5458	-1.8604	-1.0792	-1.8208	-1.3854	-1.3479	-2.1854	-1.1354	-1.6958	-1.8813	-1.0979	44.558	-3.521	232.789	220.475	-60.995	71.018	165.929	224.589	214.934	212.449	177.096	-63.114	235.063	-20.648	31.751	244.935	0.00074057	0.00028538	9.8714e-05	1264.9	5.317e-06	6.3507e-06	1271.6	346.83	2.1501e-06	5.6663e-06	401.68	133.12	113.88	39.47	4.2803e-06	49.534	0.0013958	0.0020661	0.00059107	1287	2.0864e-05	2.4153e-05	1295.2	354.1	2.0278e-05	2.3546e-05	409.24	137.05	116.97	40.656	2.1335e-05	51.273	2.707	-44.220	-62.975	-99.478	43.075	26.615	-99.907	-94.677	48.332	14.395	-95.310	-90.880	-90.394	-85.964	4.602	-86.861	-8191	255	
1220.690	1	1	0	0	0.15116	0.10436	0.14514	0.20238	0.10955	0.21094	0.28336	0.21793	0.11144	0.24933	0.19533	0.21567	0.25257	0.1898	0.19598	0.21322	-1.2979	-1.3854	-1.1042	-2.0146	-1.3042	-1.2938	-2.0083	-1.2458	-1.5938	-1.6167	-1.1292	-2.0646	-1.3521	-1.5667	-1.8292	-1.1	96.410	-55.512	175.817	-101.073	130.217	174.381	165.357	173.875	-44.529	153.960	158.362	98.350	-47.824	-50.805	55.517	-82.495	0.00065754	0.00038433	0.00017158	1265.9	1.8946e-06	6.1957e-06	1272	346.07	8.5843e-06	3.6121e-06	400.54	133.11	114.08	39.356	4.2282e-06	49.455	0.0013953	0.0019892	0.00058225	1286.4	2.0845e-05	2.3276e-05	1295.7	353.38	1.9163e-05	2.3578e-05	408.62	137.07	116.98	40.635	2.1057e-05	51.28	12.538	-32.717	-20.713	-99.266	30.355	14.714	-99.665	-94.901	0.768	38.058	-95.214	-91.121	-90.761	-85.914	40.385	-86.631	-8191	255	
1220.786	1	1	0	0	0.11217	0.07033	0.10929	0.20457	0.0047344	0.082419	0.22884	0.077907	0.27639	0.17987	0.018077	0.14678	0.097569	0.20765	0.11308	0.061831	-1.3146	-1.7729	-0.93542	-1.8958	-1.2687	-1.2583	-2.25	-1.2583	-1.6542	-1.7417	-1.1354	-2.0479	-1.3354	-1.2771	-1.7896	-1.2042	216.774	-21.618	46.651	153.421	88.145	36.063	158.809	129.308	1.350	-88.010	8.666	166.562	189.943	-64.078	94.806	95.386	0.00074475	0.00030122	0.00013457	1266.9	3.9216e-06	6.0853e-06	1271.2	347.08	6.6104e-06	5.2588e-06	399.81	133.95	113.38	39.372	3.3526e-06	49.708	0.0013437	0.0020356	0.00057573	1287	2.0171e-05	2.2837e-05	1294.1	353.53	1.9696e-05	2.267e-05	409.09	137.28	116.72	40.557	2.1256e-05	51.264	10.453	-39.139	-9.577	-99.453	13.515	42.890	-99.902	-94.836	22.390	17.069	-95.138	-91.087	-90.837	-85.763	53.922	-86.419	-8191	255	
1220.882	1	1	0	0	0.22454	0.26423	0.12107	0.31276	0.2061	0.19337	0.278	0.11236	0.15618	0.068988	0.15012	0.21215	0.089023	0.27604	0.16259	0.046775	-1.1646	-1.8583	-1.025	-2.0896	-1.5208	-1.4354	-2.0146	-1.3813	-1.3333	-1.7479	-1.3146	-1.9917	-1.5083	-1.1979	-2.0938	-1.2083	-64.339	21.062	6.816	-88.065	186.423	62.623	218.967	104.020	23.200	141.903	209.489	194.420	213.231	184.484	68.735	146.509	0.00073509	0.00050557	0.0001235	1266.3	4.2389e-06	5.3859e-06	1272.4	346.61	5.5109e-06	3.927e-06	399.16	133.96	113.8	39.294	5.9742e-06	49.677	0.0013594	0.0020716	0.00056724	1287.9	2.081e-05	2.3495e-05	1293.8	353.52	1.9646e-05	2.3268e-05	407.75	137.12	116.87	40.61	2.0666e-05	51.25	12.362	-32.464	-34.163	-99.511	33.115	24.708	-99.808	-94.944	56.830	57.869	-95.628	-90.952	-90.504	-85.881	22.736	-86.711	-8191	255	
1221.001	1	1	0	0	0.33814	0.17237	0.24086	0.2424	0.17252	0.30594	0.12355	0.14123	0.036387	0.24226	0.083948	0.19779	0.28137	0.10969	0.10949	0.12723	-1.1833	-1.8417	-0.91042	-1.7938	-1.6104	-1.3604	-2.1833	-1.225	-1.3708	-1.8188	-1.2146	-1.8604	-1.9583	-1.2188	-1.9208	-1.4542	-47.789	172.834	194.488	178.652	-69.215	181.362	79.223	-58.198	196.765	169.626	42.704	-94.486	173.908	148.757	203.494	179.942	0.00075972	0.00058667	0.00014252	1267.2	3.7628e-06	4.6761e-06	1268.8	345.3	6.5898e-06	2.5036e-06	398.5	133.27	114.08	39.332	5.6926e-06	49.582	0.001347	0.0020055	0.00057764	1287.1	2.0123e-05	2.3468e-05	1292.8	352.99	1.9729e-05	2.3033e-05	408.6	136.78	117.12	40.617	2.0721e-05	51.281	12.616	-30.182	16.294	-99.512	11.158	22.626	-99.854	-95.016	2.475	3.915	-95.503	-91.182	-90.803	-86.005	11.016	-86.882	-8191	255	
1221.097	1	1	0	0	0.27837	0.2088	0.23533	0.028695	0.13894	0.23611	0.33957	0.11227	0.1943	0.053198	0.35306	0.056398	0.32828	0.18046	0.089534	0.047184	-0.8375	-1.9813	-1.2417	-1.8375	-1.7458	-1.125	-2.125	-1.5146	-1.4729	-1.9625	-1.1938	-1.5208	-1.75	-0.88542	-1.8604	-1.7	-20.473	-20.930	148.535	-35.446	-102.815	57.996	172.650	52.784	181.083	110.077	-93.068	-67.805	176.931	192.446	118.917	14.827	0.00065619	0.00038922	0.00021828	1263.2	5.3841e-06	3.1803e-06	1272.1	345.62	7.1838e-06	5.1171e-06	400.86	133.09	113.89	39.254	7.7867e-06	49.446	0.0013596	0.0020337	0.00056924	1283.9	2.0599e-05	2.336e-05	1292.7	353.1	1.9855e-05	2.2991e-05	408.49	136.9	116.97	40.513	2.0828e-05	51.249	12.342	-20.467	-18.849	-99.352	23.817	84.028	-99.640	-95.006	52.225	34.888	-95.410	-91.109	-90.716	-86.270	29.919	-87.009	-8191	255	
1221.169	1	1	0	0	0.036458	0.24983	0.11526	0.079277	0.079046	0.35117	0.24774	0.019943	0.23781	0.19809	0.21805	0.29681	0.20853	0.12711	0.27485	0.079268	-0.53958	-1.8	-1.0875	-1.7521	-1.7375	-1.1354	-2.1292	-1.6604	-0.98958	-1.8917	-1.3792	-1.3521	-1.9479	-1.0208	-1.8583	-1.7437	-79.955	191.735	-55.330	159.582	201.399	205.816	141.340	96.224	98.230	43.737	213.395	-94.633	106.347	154.904	125.279	107.092	0.00078461	0.0004484	0.00012389	1263.5	3.7478e-06	4.6527e-06	1275.2	345.25	9.1822e-06	3.66e-06	397.73	133.03	113.5	39.125	4.5531e-06	49.585	0.0013776	0.0019892	0.00057681	1286.5	1.9937e-05	2.3214e-05	1294.6	353.53	1.9716e-05	2.3079e-05	407.68	136.82	116.87	40.508	2.0402e-05	51.253	10.178	-36.178	-6.910	-99.376	55.833	53.581	-99.670	-95.125	-1.218	40.396	-95.315	-91.058	-90.623	-86.016	70.789	-86.894	-8191	255	
1221.267	1	1	0	0	0.10252	0.33677	0.13212	0.27936	0.14718	0.15126	0.12549	0.1405	0.25571	0.12236	0.14374	0.21448	0.37957	0.44054	0.064129	0.038418	-0.63125	-2.0833	-1.3104	-1.1437	-1.9125	-1.1458	-2.0229	-1.8021	-1.0479	-2.0354	-1.675	-1.4125	-1.9937	-1.1229	-1.5271	-1.7417	-39.661	93.517	25.066	166.593	-89.230	-40.199	32.068	115.283	235.528	63.039	-95.622	198.336	169.017	225.080	201.080	-102.699	0.00060105	0.00066378	0.00013657	1265.8	4.5332e-06	7.6585e-06	1274.6	345.27	7.7864e-06	2.8512e-06	398.72	134.28	113.98	39.458	5.1667e-06	49.663	0.0013698	0.0019853	0.00057858	1285.4	2.0107e-05	2.2957e-05	1293.5	353.08	1.9462e-05	2.2646e-05	407.73	137.15	116.84	40.569	2.0343e-05	51.238	7.430	-24.826	-20.557	-99.335	13.998	50.763	-99.706	-94.833	45.159	58.268	-95.328	-90.881	-90.818	-86.116	1.199	-86.826	-8191	255	
1221.386	1	1	0	0	0.048475	0.23677	0.27814	0.33857	0.27503	0.061312	0.22702	0.34419	0.23068	0.28586	0.17233	0.11531	0.19783	0.24639	0.048273	0.11135	-0.64375	-1.8312	-1.4042	-1.3563	-1.9833	-1.0812	-1.75	-2.025	-0.98958	-1.9271	-1.7271	-1.3083	-1.9417	-1.4375	-1.6021	-2.0292	-72.356	154.962	127.414	228.758	-7.529	159.718	137.915	205.787	102.690	169.715	213.840	-76.186	200.049	179.518	157.336	158.862	0.00070809	0.00054219	0.00014466	1265.3	4.7333e-06	3.4999e-06	1271.4	346.41	5.265e-06	5.6429e-06	400.68	134.1	113.48	39.341	5.3377e-06	49.47	0.0013502	0.0019885	0.00058987	1286.2	1.9442e-05	2.3158e-05	1292	353.44	1.9818e-05	2.2828e-05	408.8	137.04	116.91	40.6	2.0838e-05	51.264	10.335	-21.644	-8.041	-99.411	47.414	-6.116	-99.764	-94.830	41.178	11.254	-95.421	-91.305	-90.488	-86.091	11.278	-86.620	-8191	255	
1221.482	1	1	0	0	0.071718	0.05244	0.37343	0.10211	0.22565	0.084013	0.33886	0.20497	0.098338	0.35235	0.14976	0.10197	0.15637	0.13118	0.2698	0.21399	-0.50833	-1.7875	-1.5542	-1.3563	-2.1354	-1.3271	-1.8188	-2.1813	-1.0979	-1.6125	-1.75	-1.1333	-1.9417	-1.1583	-1.4333	-2.1729	-41.810	-54.919	104.462	32.712	163.602	17.434	137.914	77.476	-106.400	160.603	105.057	-34.005	31.696	199.486	34.323	121.504	0.00071273	0.00035593	0.00012887	1271.4	3.8426e-06	4.442e-06	1273.9	346.06	8.3049e-06	3.987e-06	399.5	134.05	113.38	39.282	5.8519e-06	49.803	0.001352	0.002019	0.00057147	1287.6	2.0323e-05	2.345e-05	1293.8	353.37	2.0288e-05	2.3481e-05	408.68	136.81	116.71	40.633	2.153e-05	51.299	12.414	-30.561	0.691	-99.351	48.037	27.920	-99.518	-94.628	19.614	33.018	-95.321	-91.035	-90.645	-86.199	39.898	-86.795	-8191	255	
1221.578	1	1	0	0	0.09809	0.26013	0.16473	0.23184	0.098296	0.15173	0.31866	0.26901	0.12241	0.041648	0.094073	0.20394	0.1394	0.023189	0.23335	0.36476	-0.50625	-1.7375	-1.7042	-1.2875	-1.7208	-1.3687	-1.4979	-2.0146	-1.2938	-1.6313	-1.8479	-1.0688	-1.9333	-1.6042	-1.15	-2.1875	73.480	76.818	125.255	-55.451	-29.608	219.657	217.258	-76.867	25.373	-3.437	201.060	110.184	-88.979	-111.987	54.327	112.565	0.00070132	0.00078263	6.6434e-05	1265.8	3.0649e-06	5.116e-06	1272.8	345.71	6.8212e-06	6.0628e-06	399.2	132.82	113.68	39.273	6.6845e-06	49.49	0.0013481	0.001997	0.00056309	1286.2	1.9954e-05	2.2923e-05	1292.5	353.17	1.9926e-05	2.3688e-05	407.96	136.59	116.84	40.554	2.0804e-05	51.168	20.480	-29.447	9.621	-99.475	-14.603	21.474	-99.584	-94.793	30.454	34.356	-95.069	-90.855	-90.349	-85.873	33.040	-86.561	-8191	255	
1221.699	1	1	0	0	0.36663	0.10933	0.11614	0.275	0.10963	0.15925	0.24126	0.036796	0.12996	0.13867	0.16458	0.13164	0.23459	0.079557	0.12461	0.0082689	-0.74792	-1.425	-1.8083	-1.1604	-1.8604	-1.5208	-1.3	-2.1458	-0.99167	-1.5167	-1.9979	-1.0125	-1.8146	-1.7042	-1.1417	-2.2229	119.543	-7.412	75.509	198.093	-34.936	82.766	189.287	-111.016	-41.169	74.009	211.774	100.792	-32.404	-35.780	-3.008	-97.411	0.00068207	0.00058865	0.00015066	1262.4	5.6797e-06	5.8512e-06	1269.5	345.56	4.5688e-06	4.993e-06	399.17	133.64	114.57	39.288	5.0356e-06	49.653	0.0013529	0.0020704	0.00058929	1285	2.0047e-05	2.3386e-05	1291.4	352.99	1.9773e-05	2.346e-05	408.13	136.93	117.12	40.523	2.152e-05	51.234	11.780	-47.935	-41.430	-99.175	26.909	12.996	-99.239	-94.577	46.541	42.442	-95.067	-90.790	-90.062	-85.548	38.467	-86.389	-8191	255	
1221.795	1	1	0	0	0.22946	0.46696	0.32112	0.15299	0.2828	0.14588	0.11434	0.22583	0.065	0.36542	0.20556	0.21444	0.33447	0.083412	0.11429	0.35212	-0.78958	-1.4771	-1.8396	-1.2417	-1.7062	-1.7396	-1.0229	-1.9562	-1.1521	-1.0542	-2.0833	-1.1479	-1.6417	-1.75	-0.91875	-1.8792	135.257	247.151	-3.876	156.957	40.748	195.181	201.924	156.228	120.083	174.013	177.733	205.630	213.891	143.929	194.154	218.766	0.00075155	0.00031625	0.00012958	1268.3	3.812e-06	6.8913e-06	1272	346.76	8.2033e-06	1.9456e-06	399.12	133.7	113.49	39.452	4.2625e-06	49.712	0.0013667	0.0020849	0.00057507	1285.9	2.0576e-05	2.3961e-05	1292.1	353.08	2.0052e-05	2.3342e-05	409.02	136.9	116.82	40.638	2.1466e-05	51.333	12.453	-37.581	-32.761	-98.749	98.094	20.731	-99.200	-94.389	25.446	46.877	-95.025	-90.453	-90.136	-85.316	10.390	-86.080	-8191	255	
1221.867	1	1	0	0	0.17095	0.025231	0.11176	0.24432	0.011107	0.2986	0.17635	0.1828	0.14405	0.11726	0.069006	0.29577	0.15876	0.22357	0.40416	0.17888	-0.8875	-1.2125	-1.9792	-1.1458	-1.4625	-1.7313	-1.1896	-2.1854	-1.3083	-1.2042	-1.9354	-1.1812	-1.4396	-1.8417	-0.98125	-1.7854	133.470	231.047	-3.198	186.386	37.692	-105.252	185.256	216.983	138.738	47.447	180.923	185.622	-34.560	149.914	-4.492	58.513	0.00070401	0.0003765	0.0001262	1267.2	4.8568e-06	4.4861e-06	1270.1	346.62	4.3925e-06	4.439e-06	400.96	133.53	113.54	39.357	4.7413e-06	49.722	0.0013856	0.0020997	0.00059526	1285.9	2.0724e-05	2.3163e-05	1292	353.54	2.0153e-05	2.3942e-05	408.65	136.91	116.9	40.599	2.1794e-05	51.314	12.183	-42.175	-18.528	-98.916	20.273	45.032	-99.316	-94.162	26.658	30.257	-94.682	-90.763	-90.177	-85.396	10.298	-86.289	-8191	255	
1221.987	1	1	0	0	0.3239	0.17877	0.22276	0.13071	0.16171	0.28546	0.34434	0.12304	0.36072	0.41914	0.25402	0.12511	0.33837	0.23141	0.19984	0.16707	-1.0688	-1.0187	-1.9312	-1.2646	-1.2958	-1.7292	-1.2333	-1.9625	-1.5833	-1.0375	-2.0708	-1.4979	-1.5271	-2.0104	-1.0187	-1.9354	51.528	-108.855	5.260	-6.192	223.251	24.445	173.315	182.237	94.959	146.482	-86.278	-110.898	234.613	228.799	-105.557	66.945	0.00080666	0.00046747	0.00015017	1266.4	6.1554e-06	5.8705e-06	1276.4	347.06	4.132e-07	6.034e-06	400.48	132.93	114.07	39.321	6.7304e-06	49.647	0.0014085	0.0021084	0.00059338	1286.4	2.0802e-05	2.3884e-05	1295.9	353.73	2.003e-05	2.4221e-05	408.05	136.75	117.1	40.645	2.1839e-05	51.253	17.598	-28.852	-59.271	-98.912	12.528	7.378	-99.116	-94.207	55.342	46.049	-94.812	-90.410	-89.743	-85.017	23.888	-85.806	-8191	255	
1222.082	1	1	0	0	0.22593	0.16521	0.02574	0.27878	0.16896	0.03399	0.33701	0.32127	0.10801	0.34669	0.24037	0.085468	0.18763	0.1665	0.096123	0.39177	-1.3479	-0.99792	-1.8937	-1.325	-1.2083	-2.0833	-1.225	-1.8292	-1.65	-1.1437	-2.0333	-1.4937	-1.2646	-2.0979	-1.1042	-1.6583	212.301	127.989	153.001	227.646	241.803	44.278	-104.036	232.749	234.887	85.998	217.911	124.090	217.270	175.513	81.315	214.571	0.00061171	0.00058896	0.00017053	1266.6	4.5158e-06	4.2834e-06	1268.1	346.24	6.6513e-06	2.0477e-06	400.66	133.28	114.21	39.348	4.6013e-06	49.649	0.0013805	0.0021073	0.00058674	1286.9	2.063e-05	2.3173e-05	1292.7	353.42	1.9585e-05	2.3348e-05	408.58	136.84	117.09	40.553	2.1804e-05	51.259	5.788	-15.750	-37.190	-98.722	34.613	48.345	-98.780	-93.894	29.728	45.623	-94.236	-90.109	-89.579	-85.235	15.944	-85.826	-8191	255	
1222.178	1	1	0	0	0.25443	0.13855	0.064897	0.15497	0.13588	0.12659	0.13119	0.099207	0.16193	0.1836	0.22676	0.29652	0.11751	0.14969	0.01299	0.33085	-1.2667	-1.0292	-1.8771	-1.7062	-1.175	-1.9979	-1.2542	-1.6583	-1.7146	-0.86875	-1.9062	-1.6333	-1.2104	-2.0125	-1.1396	-1.6646	17.306	21.686	114.990	192.653	231.090	234.555	183.215	-27.656	224.864	229.732	-98.217	208.219	200.956	214.852	232.696	240.364	0.00086799	0.00051297	0.000135	1263	6.7494e-06	5.7522e-06	1273.5	347.51	7.4905e-06	5.6015e-06	399.31	132.79	113.61	39.357	9.0861e-06	49.853	0.0013626	0.0021019	0.00057931	1284.2	2.103e-05	2.3555e-05	1293.7	353.37	1.9768e-05	2.432e-05	408.38	136.66	116.87	40.589	2.1661e-05	51.275	13.051	-4.396	-8.929	-98.813	-3.385	42.105	-98.703	-93.983	62.337	60.330	-94.747	-90.792	-90.087	-85.402	28.680	-86.117	-8191	255	
1222.298	1	1	0	0	0.18247	0.23923	0.41827	0.28698	0.15334	0.30157	0.26751	0.11915	0.093089	0.23438	0.14245	0.14101	0.37133	0.27217	0.2148	0.18148	-1.5521	-0.95833	-1.6042	-1.7396	-1.1458	-2.0083	-1.4688	-1.475	-1.9542	-1.0083	-1.7896	-1.7042	-1.2417	-1.9	-1.5354	-1.4	180.380	221.222	55.340	224.878	105.091	189.056	222.522	151.481	229.054	43.663	-80.072	201.756	114.849	243.726	-18.544	234.496	0.00066249	0.00048696	0.00011026	1267.2	9.0943e-06	3.2764e-06	1267.9	346.63	5.4997e-06	5.7529e-06	401.33	132.91	114.23	39.443	4.0635e-06	49.773	0.001381	0.0021043	0.0005842	1284.8	2.0805e-05	2.3325e-05	1293.3	353.17	1.9551e-05	2.3551e-05	408.4	136.91	117.02	40.582	2.183e-05	51.313	9.744	-19.375	-13.665	-98.761	44.630	59.064	-98.871	-94.067	10.348	34.551	-94.640	-90.302	-89.649	-84.996	64.939	-86.092	-8191	255	
1222.395	1	1	0	0	0.083523	0.11593	0.19666	0.31468	0.28389	0.19838	0.034581	0.13439	0.3252	0.33182	0.13446	0.073801	0.089633	0.17737	0.241	0.14477	-1.6104	-1.1063	-1.7521	-1.8646	-1.0063	-1.8229	-1.7271	-1.2708	-1.8792	-1.0792	-1.5354	-1.8771	-1.1292	-1.8354	-1.6854	-1.2208	132.648	216.678	84.926	-25.111	176.744	-92.567	-41.415	137.960	220.174	-68.085	195.124	11.113	247.235	-62.567	-8.430	-91.904	0.00066008	0.00053681	0.00018669	1264.5	8.4483e-06	4.1068e-06	1269.5	348.13	3.8602e-06	3.1912e-06	399.01	133.75	114.07	39.375	3.0141e-06	49.954	0.0013674	0.002088	0.0005803	1283.9	2.0578e-05	2.306e-05	1291	353.78	1.9774e-05	2.3658e-05	408.1	136.93	116.99	40.567	2.1116e-05	51.363	6.725	-11.139	-17.027	-98.831	53.566	-9.198	-99.084	-93.963	23.831	56.202	-94.721	-90.480	-89.705	-85.288	25.884	-85.837	-8191	255	
1222.466	1	1	0	0	0.061469	0.19947	0.17572	0.18725	0.037747	0.12183	0.13939	0.045677	0.065952	0.21343	0.21406	0.14261	0.073558	0.21142	0.15768	0.068833	-1.4042	-1.2333	-1.5104	-1.9083	-1.0312	-1.8729	-1.8375	-1.1771	-1.8771	-1.2333	-1.4792	-1.8854	-1.1604	-1.8875	-1.5583	-1.0958	67.791	1.822	-82.440	220.430	-3.103	-16.463	146.027	230.740	102.071	175.519	84.059	178.993	235.889	-92.464	103.937	-84.234	0.00067889	0.00050374	0.00014998	1262.2	6.6709e-06	5.0627e-06	1272.8	346.48	5.7806e-06	5.2744e-06	399.27	132.79	113.81	39.366	5.6831e-06	49.574	0.0013362	0.0021176	0.0005633	1282.6	2.0252e-05	2.365e-05	1290.2	353.44	1.9421e-05	2.3105e-05	407.72	136.46	116.68	40.559	2.0799e-05	51.209	10.195	-18.196	-18.848	-98.594	21.580	22.067	-99.437	-94.627	32.073	76.949	-94.910	-91.179	-90.193	-85.714	34.779	-86.389	-8191	255	
1222.562	1	1	0	0	0.10446	0.13382	0.22631	0.16913	0.20552	0.26483	0.0961	0.21341	0.23956	0.16326	0.10927	0.20147	0.36536	0.0041498	0.052602	0.039254	-1.5854	-1.0812	-1.1354	-2.1042	-1.0229	-1.8625	-2.0083	-1.0625	-1.825	-1.3979	-1.325	-2.0062	-1.1562	-1.5229	-1.6896	-0.96458	-20.257	169.184	79.943	-93.739	119.463	105.365	95.993	220.376	-77.142	215.234	-104.929	245.240	184.282	-39.439	119.651	167.077	0.00062587	0.00054438	0.00012505	1263.7	5.6897e-06	6.5275e-06	1272.2	345.58	8.148e-06	4.2251e-06	400.32	134.15	113.53	39.259	4.9547e-06	49.602	0.001328	0.0021157	0.00057698	1282.6	2.0469e-05	2.3456e-05	1291.5	352.5	1.9858e-05	2.3538e-05	408.1	137.07	116.53	40.493	2.0889e-05	51.207	9.236	-22.796	-17.618	-99.353	45.219	24.912	-99.497	-94.610	32.859	55.199	-95.230	-90.940	-90.289	-85.783	17.989	-86.349	-8191	255	
1222.683	1	1	0	0	0.19877	0.10506	0.044126	0.14089	0.23877	0.1278	0.20008	0.26364	0.15378	0.14215	0.16809	0.17054	0.087456	0.17788	0.2937	0.20906	-1.4562	-1.3125	-1.25	-2.2646	-1.3271	-1.4458	-1.85	-1.1771	-1.7917	-1.6437	-1.1542	-2.1167	-1.3563	-1.6917	-1.9	-1.0729	176.016	26.930	206.365	217.748	9.663	216.021	-91.004	176.246	137.425	164.954	-106.195	-52.658	195.750	-109.192	180.308	187.918	0.00077682	0.00060074	0.00014424	1262.3	7.6273e-06	6.0078e-06	1267.6	345.09	6.0372e-06	4.8916e-06	399.59	132.48	113.37	39.33	2.6191e-06	49.735	0.0013347	0.0021111	0.00057973	1280.3	2.0549e-05	2.3337e-05	1290.7	352.37	2.0103e-05	2.3453e-05	408.34	136.47	116.68	40.544	2.1336e-05	51.192	3.642	-26.356	-25.542	-99.363	6.841	38.363	-99.851	-94.753	38.711	14.515	-95.282	-91.298	-90.664	-85.822	15.354	-86.936	-8191	255	
1222.779	1	1	0	0	0.30259	0.14179	0.20216	0.24005	0.22903	0.45249	0.25014	0.24197	0.29047	0.034773	0.099569	0.29941	0.39184	0.27565	0.27574	0.036143	-1.375	-1.4729	-1.0708	-2.0812	-1.2667	-1.2875	-2.1958	-1.1021	-1.8875	-1.8167	-1.2479	-1.9396	-1.3146	-1.475	-1.9667	-1.1125	81.105	-43.226	69.593	219.787	37.901	-105.525	124.217	211.022	-49.731	-94.038	176.782	210.870	230.985	-91.941	-85.065	204.825	0.00072168	0.00049598	0.00019441	1259.2	5.5198e-06	4.8935e-06	1270.5	345.15	9.5261e-06	6.9318e-06	399.13	132.92	113.43	39.349	5.5633e-06	49.52	0.0013871	0.0020665	0.00059804	1282.5	2.0332e-05	2.3573e-05	1291	352.82	1.9982e-05	2.2927e-05	407.69	136.51	116.64	40.582	2.0856e-05	51.22	14.398	-14.430	-9.369	-99.539	18.661	30.393	-99.978	-95.004	19.649	26.862	-95.346	-91.184	-90.731	-86.003	41.388	-87.142	-8191	255	
1222.875	1	1	0	0	0.18775	0.17599	0.31819	0.31726	0.093056	0.054965	0.14495	0.039152	0.11355	0.22114	0.096956	0.14296	0.047328	0.25708	0.25415	0.14345	-1.25	-1.7458	-1.0812	-1.925	-1.2188	-1.225	-2.1667	-1.2979	-1.6604	-1.8708	-0.93333	-1.8813	-1.4813	-1.0854	-2.0417	-0.975	48.968	192.482	186.009	-76.160	11.600	14.408	128.590	-85.845	195.013	76.254	194.458	-99.393	-69.463	222.676	4.003	-60.701	0.00075268	0.00035399	0.00015012	1266	3.8661e-06	4.1532e-06	1267.1	346.13	6.2812e-06	5.9914e-06	398.88	133.13	113.91	39.219	5.9235e-06	49.615	0.0013641	0.0020486	0.00057255	1283.6	2.0258e-05	2.361e-05	1289	352.98	1.932e-05	2.3251e-05	407.41	136.67	116.8	40.532	2.0452e-05	51.125	4.249	-46.077	-41.480	-99.584	72.420	40.585	-99.802	-94.965	20.120	60.961	-95.338	-91.334	-90.702	-85.997	35.982	-86.890	-8191	255	
1222.972	1	1	0	0	0.1994	0.11005	0.20274	0.32712	0.29855	0.22722	0.20105	0.39639	0.22771	0.14623	0.22829	0.20918	0.3262	0.2698	0.28926	0.17609	-1.1646	-1.6854	-0.98333	-2.0417	-1.4813	-1.1417	-2.3458	-1.2458	-1.2521	-1.9583	-1.2042	-1.6875	-1.5792	-1.0604	-1.9813	-1.5021	28.104	192.021	108.675	204.827	46.079	49.957	198.830	209.380	28.205	82.856	242.827	27.747	-56.217	34.643	234.554	5.486	0.00059997	0.00032152	0.00013312	1266.5	3.9121e-06	4.7315e-06	1268.4	345.23	7.2093e-06	4.9247e-06	398.59	133.18	113.8	39.12	5.1256e-06	49.416	0.0013413	0.0020881	0.00057712	1283.9	2.0733e-05	2.3217e-05	1289.2	352.46	1.9756e-05	2.3094e-05	406.68	136.61	116.62	40.413	2.1089e-05	51.163	12.927	-51.498	-13.139	-99.298	45.580	26.919	-100.012	-95.045	67.322	24.820	-95.388	-91.088	-90.515	-85.833	29.493	-86.867	-8191	255	
1223.090	1	1	0	0	0.081921	0.11786	0.2344	0.092354	0.040374	0.24739	0.2423	0.04461	0.25793	0.17183	0.2093	0.16222	0.10704	0.14555	0.031815	0.11892	-0.91458	-1.6896	-1.0208	-1.8687	-1.6583	-0.99792	-2.1229	-1.4896	-1.0667	-2.05	-1.1583	-1.7458	-1.7646	-1.0542	-1.9	-1.4875	-104.207	7.418	80.856	159.515	137.058	100.030	173.050	204.754	-68.353	-3.898	140.148	-64.038	227.280	-107.047	18.060	182.413	0.00071469	0.0004124	0.00017888	1257.3	4.6092e-06	4.8091e-06	1268.1	346	7.0307e-06	6.6727e-06	396.69	133.29	113.88	39.453	5.9374e-06	49.447	0.0013525	0.0020173	0.00056905	1279.6	1.9725e-05	2.2909e-05	1290.3	352.58	1.9741e-05	2.3401e-05	407.22	136.82	116.73	40.606	2.0497e-05	51.195	8.534	-29.564	4.850	-99.355	11.911	36.961	-99.666	-94.767	44.588	71.593	-95.206	-91.122	-90.610	-86.012	44.800	-86.521	-8191	255	
1223.162	1	1	0	0	0.073019	0.28758	0.34658	0.19933	0.13384	0.079962	0.37698	0.17878	0.13068	0.061309	0.2732	0.14406	0.32735	0.27609	0.11443	0.18275	-0.875	-2.0438	-1.1771	-1.6604	-1.7396	-0.9125	-2.1312	-1.7667	-1.2	-1.8813	-1.3292	-1.4417	-2.0542	-1.0375	-1.7271	-1.55	30.418	172.327	203.072	204.884	114.996	19.528	216.335	-104.606	192.347	171.923	133.429	212.808	-96.098	234.426	214.037	1.990	0.00069722	0.0005115	0.00014859	1258.7	5.0775e-06	4.2941e-06	1268.1	345.05	3.7363e-06	4.1672e-06	398.5	132.43	113.7	39.159	8.1015e-06	49.727	0.0013056	0.0020153	0.00057446	1280.8	1.9559e-05	2.2867e-05	1289.3	352.41	1.9755e-05	2.2966e-05	406.81	136.3	116.64	40.493	2.0744e-05	51.264	4.395	-23.785	-23.902	-99.389	11.252	35.135	-99.440	-94.572	64.969	64.008	-95.133	-90.771	-90.458	-85.885	33.084	-87.061	-8191	255	
1223.258	1	1	0	0	0.18423	0.33045	0.19196	0.095468	0.1699	0.25121	0.31478	0.3802	0.14791	0.24484	0.10386	0.23638	0.33183	0.2732	0.15426	0.08865	-0.57708	-1.9958	-1.3062	-1.6313	-1.8458	-1.0167	-2.1167	-1.7375	-1.2583	-1.8438	-1.5792	-1.3771	-2.0312	-1.2979	-1.8667	-1.7938	-66.333	44.565	52.906	226.409	-101.855	82.642	164.080	213.295	202.285	100.231	228.804	231.017	191.735	97.381	-2.695	-108.580	0.00065773	0.00051441	0.0001277	1262.1	3.6065e-06	5.4917e-06	1268.8	344.11	7.4138e-06	4.2953e-06	397.89	133.19	113.71	39.147	6.5208e-06	49.636	0.0013743	0.0020628	0.00056804	1281.2	1.9988e-05	2.3111e-05	1291	352.3	2.004e-05	2.3133e-05	406.45	136.73	116.63	40.466	2.1214e-05	51.221	6.795	-23.144	-20.408	-99.566	20.898	60.633	-99.749	-95.084	55.813	49.154	-95.544	-91.318	-90.677	-86.213	49.732	-86.893	-8191	255	
1223.379	1	1	0	0	0.16424	0.012947	0.091141	0.15512	0.11728	0.25385	0.074365	0.14133	0.083304	0.2873	0.27998	0.067577	0.13576	0.071252	0.29438	0.097652	-0.7	-1.9021	-1.0708	-1.4167	-1.9229	-0.92292	-1.8479	-1.8146	-0.98542	-1.9104	-1.5125	-1.1875	-1.9292	-1.3729	-1.4229	-1.9354	65.660	15.062	83.389	239.050	99.604	36.169	208.763	177.291	-26.514	176.908	203.928	-108.383	177.453	-35.745	-13.774	-76.120	0.00062009	0.00049141	0.00017047	1262.2	8.9481e-06	2.1969e-06	1265.5	345.36	7.4264e-06	4.4882e-06	400.3	134.09	113.23	39.25	6.6999e-06	49.494	0.0013612	0.001993	0.00057091	1283.4	2.0355e-05	2.362e-05	1288.7	352.68	1.9877e-05	2.1857e-05	407.76	136.81	116.77	40.477	2.0733e-05	51.038	13.488	-39.902	-24.890	-99.452	58.378	12.170	-99.570	-94.913	40.807	17.316	-95.161	-90.958	-90.370	-86.253	27.001	-87.182	-8191	255	
1223.475	1	1	0	0	0.15572	0.020697	0.23248	0.20427	0.1831	0.18883	0.2602	0.098269	0.1392	0.057178	0.33686	0.19813	0.18791	0.34438	0.20987	0.20849	-0.61667	-1.9104	-1.5125	-1.1833	-2.0187	-1.0562	-1.8125	-1.8854	-1.1979	-1.8604	-1.7875	-1.1771	-2.0375	-1.1979	-1.3854	-2.1125	60.303	202.502	65.175	49.628	91.670	-46.483	188.399	156.617	51.661	35.294	169.342	-88.977	222.916	188.843	139.050	210.122	0.00068401	0.00050795	0.00015882	1257.3	6.1003e-06	7.1947e-06	1266.4	344.88	6.025e-06	2.6277e-06	397.28	132.86	114.13	39.181	5.6402e-06	49.624	0.00134	0.0019923	0.00055344	1279.8	1.96e-05	2.339e-05	1288.1	352.35	1.9759e-05	2.3586e-05	406.82	136.82	116.68	40.441	2.1521e-05	51.133	6.253	-15.796	-42.912	-99.749	67.615	20.848	-99.851	-95.023	-22.281	49.543	-95.700	-91.517	-90.964	-86.184	41.767	-87.123	-8191	255	
1223.571	1	1	0	0	0.37776	0.21317	0.13569	0.34892	0.099162	0.098561	0.069946	0.22642	0.24868	0.084219	0.28452	0.33933	0.23559	0.076657	0.032852	0.11778	-0.70833	-1.6875	-1.5083	-1.2542	-1.925	-1.2042	-1.6688	-2.0625	-1.0312	-1.7542	-1.7188	-1.1	-2.0021	-1.4833	-1.4146	-2.1271	-1.909	244.365	50.754	227.577	131.284	144.190	12.850	137.566	31.618	178.758	218.605	-75.046	-57.585	118.908	46.673	116.069	0.00074398	0.00053299	0.00013331	1259.1	4.7786e-06	4.0127e-06	1264	344.81	4.5828e-06	5.551e-06	398.47	133.04	113.03	39.297	4.6695e-06	49.628	0.0013619	0.0020208	0.00058576	1280.9	1.9869e-05	2.3472e-05	1289.1	352.8	1.9616e-05	2.3142e-05	407.91	136.54	116.65	40.531	2.0835e-05	51.196	5.832	-16.681	-37.625	-99.571	83.110	38.574	-100.023	-95.160	30.419	36.450	-95.725	-91.246	-90.965	-86.174	22.528	-86.949	-8191	255	
1223.667	1	1	0	0	0.069051	0.1914	0.10676	0.491	0.10788	0.24452	0.40885	0.13408	0.10865	0.29897	0.13584	0.086449	0.089728	0.18897	0.1735	0.11966	-0.84375	-1.5875	-1.7271	-1.0708	-1.7917	-1.5104	-1.4042	-2.0396	-0.95625	-1.5146	-1.6292	-1.0479	-1.975	-1.5125	-1.1208	-2.0167	-72.950	224.368	112.083	238.368	58.720	-109.300	236.426	22.034	137.339	68.123	-24.950	80.398	218.228	221.891	73.686	164.235	0.00078445	0.0005462	0.00015452	1256.2	5.1297e-06	3.1259e-06	1268.3	343.54	4.3427e-06	2.7682e-06	399.48	133.33	113.52	39.239	5.9352e-06	49.36	0.0013615	0.0020431	0.00055883	1278.9	2.0162e-05	2.2561e-05	1289.2	351.87	1.9738e-05	2.3332e-05	407.23	136.68	116.78	40.502	2.1066e-05	51.117	5.935	-45.143	-24.007	-99.746	18.768	16.029	-99.728	-94.872	47.205	43.870	-95.620	-91.160	-90.298	-85.919	47.819	-86.545	-8191	255	
1223.763	1	1	0	0	0.27869	0.14192	0.25543	0.17166	0.094393	0.21505	0.036292	0.11567	0.061803	0.10982	0.22949	0.099643	0.19004	0.11005	0.092355	0.25458	-0.96667	-1.275	-1.8542	-1.0896	-1.7167	-1.5979	-1.2854	-2.0542	-1.1833	-1.425	-2.0271	-1.35	-1.8	-1.6958	-1.175	-2.0292	-91.790	145.156	132.709	226.344	169.454	137.911	203.825	205.912	-50.475	180.421	-86.236	-95.106	3.860	105.572	202.453	232.897	0.00075437	0.00038165	0.00011212	1258.2	4.1271e-06	7.5623e-06	1268.3	345.19	5.6422e-06	3.9599e-06	398.13	133.04	113.16	39.219	3.7166e-06	49.559	0.0013639	0.002086	0.00057585	1280.6	2.0611e-05	2.3436e-05	1290.6	352.52	2.0036e-05	2.3851e-05	406.87	136.56	116.44	40.44	2.0856e-05	51.158	5.834	-33.541	-9.489	-99.407	14.738	25.399	-99.564	-94.954	44.113	57.225	-95.118	-90.976	-90.328	-85.916	32.064	-86.757	-8191	255	
1223.860	1	1	0	0	0.22069	0.25568	0.15282	0.27203	0.049879	0.31636	0.38849	0.5848	0.20111	0.071581	0.1642	0.23898	0.19483	0.16497	0.24775	0.047308	-0.86667	-1.1771	-1.8771	-1.3438	-1.6042	-1.7958	-1.2292	-2.025	-1.4146	-1.2188	-1.8646	-1.2167	-1.6	-1.7542	-1.1125	-2.0458	-34.429	22.995	-34.948	190.944	94.240	119.086	161.007	113.514	1.893	43.094	164.830	149.784	-57.329	173.515	-48.438	-29.864	0.00065239	0.00043427	0.00010396	1258.7	6.8975e-06	6.5375e-06	1270.3	345.44	8.0741e-06	1.3475e-06	399.88	132.63	113.75	39.061	7.0238e-06	49.707	0.0013298	0.001972	0.00056262	1281.9	2.0081e-05	2.314e-05	1290.6	352.38	2.0198e-05	2.3488e-05	408.01	136.35	116.81	40.452	2.1571e-05	51.212	7.064	-15.771	1.368	-99.272	69.589	39.295	-99.587	-94.898	16.389	4.615	-95.421	-91.030	-90.493	-85.942	51.758	-86.646	-8191	255	
1223.980	1	1	0	0	0.096793	0.11807	0.12869	0.3085	0.36458	0.18487	0.27431	0.31856	0.2831	0.05925	0.36348	0.10342	0.077963	0.3343	0.084357	0.12279	-1.1396	-1.0396	-1.9229	-1.4312	-1.3542	-1.825	-1.0917	-1.7396	-1.5187	-1.1063	-1.8813	-1.1167	-1.4729	-2.0104	-0.95208	-1.7771	130.695	-59.750	74.072	-93.428	163.027	-98.842	190.036	229.399	138.591	244.901	159.168	149.859	91.657	147.206	-79.688	124.408	0.00069969	0.00042605	9.8409e-05	1261.4	7.2258e-06	4.044e-06	1268.6	345.57	7.4927e-06	4.8004e-06	399.92	132.09	113.91	39.219	3.7805e-06	49.545	0.0013467	0.0020246	0.0005574	1281.3	2.0352e-05	2.2883e-05	1290.1	352.73	1.9818e-05	2.315e-05	407.73	136.23	116.68	40.5	2.065e-05	51.148	16.071	-46.959	-45.452	-99.711	19.109	63.493	-99.733	-94.893	48.218	11.502	-95.437	-91.644	-90.498	-85.970	20.476	-86.685	-8191	255	
1224.075	1	1	0	0	0.099233	0.22744	0.22617	0.21421	0.11013	0.25886	0.071624	0.31346	0.31488	0.096974	0.14744	0.21332	0.24625	0.063372	0.1398	0.33162	-1.1479	-1.0312	-1.8604	-1.4021	-1.2687	-1.9188	-1.2188	-1.9729	-1.5604	-0.99792	-1.9625	-1.525	-1.25	-1.9125	-1.0812	-1.6604	44.175	-100.702	-76.543	-21.757	-9.559	164.487	231.062	137.128	-93.631	18.518	193.532	243.013	213.066	211.164	-14.064	85.588	0.00059674	0.00050798	7.3913e-05	1256.5	3.4956e-06	4.5263e-06	1268.6	345.01	4.1926e-06	4.7299e-06	399.49	132.91	113.79	39.125	7.8018e-06	49.595	0.0013429	0.002027	0.00054984	1279.3	2.0344e-05	2.3557e-05	1289.4	352.6	1.9525e-05	2.3853e-05	407.93	136.42	116.69	40.432	2.0484e-05	51.176	21.389	-10.023	-33.598	-99.688	56.597	11.140	-100.028	-94.791	69.957	32.892	-95.247	-91.205	-90.532	-86.067	37.834	-86.903	-8191	255	
1224.171	1	1	0	0	0.19903	0.014445	0.17283	0.21195	0.17134	0.1156	0.46551	0.28662	0.25049	0.12635	0.18844	0.21815	0.11629	0.24991	0.2649	0.12758	-1.4458	-1.0875	-1.8042	-1.5333	-1.3042	-1.9792	-1.5021	-1.8021	-1.7708	-0.99792	-2.1125	-1.625	-1.2208	-2.0042	-1.2667	-1.4375	20.653	6.317	91.323	126.419	-56.780	225.099	210.158	171.693	199.496	-111.889	-82.672	160.615	-16.603	202.144	189.414	191.785	0.00063017	0.00042357	0.0001852	1261.7	3.096e-06	5.0856e-06	1268.5	344.25	4.7085e-06	6.2952e-06	398.87	132.54	113.72	39.114	4.4696e-06	49.525	0.0013437	0.0020483	0.00056218	1281.3	2.023e-05	2.2184e-05	1290.1	351.78	1.9725e-05	2.3119e-05	407.29	136.36	116.72	40.476	2.0535e-05	51.116	15.279	-34.031	-14.954	-99.678	4.540	24.213	-99.729	-94.739	65.086	46.696	-95.521	-91.419	-90.706	-86.139	9.718	-87.064	-8191	255	
1224.267	1	1	0	0	0.087077	0.2738	0.27682	0.24661	0.22035	0.16618	0.46749	0.098977	0.20306	0.027668	0.013309	0.16612	0.085371	0.23035	0.30436	0.32747	-1.4542	-0.89583	-1.5771	-1.7812	-1.0438	-1.8375	-1.5688	-1.5167	-1.8021	-1.1125	-2.1229	-1.5938	-1.1583	-1.7729	-1.175	-1.4688	193.097	-104.067	204.582	170.100	66.020	136.932	210.016	56.876	-48.882	220.070	151.009	129.642	11.360	103.104	211.677	236.505	0.00061935	0.00026021	0.00013345	1259.3	5.9282e-06	5.3388e-06	1265	345.08	4.9298e-06	3.8886e-06	396.56	132.25	113.49	39.156	6.8957e-06	49.579	0.0013124	0.002003	0.00057114	1281.2	2.0138e-05	2.2738e-05	1288.5	351.94	1.9191e-05	2.2655e-05	406.53	136.38	116.46	40.487	2.0242e-05	51.157	7.899	-23.551	-31.654	-99.730	29.875	21.137	-99.717	-94.656	16.112	62.798	-95.283	-91.315	-90.801	-85.940	40.579	-86.448	-8191	255	
1224.363	1	1	0	0	0.092374	0.12225	0.16157	0.1575	0.32433	0.1261	0.44414	0.29037	0.1528	0.1933	0.069241	0.071754	0.1667	0.21053	0.23602	0.27093	-1.5521	-1.2521	-1.6833	-1.8396	-0.81458	-2.0104	-1.4458	-1.3229	-1.7583	-0.86667	-1.6021	-1.8958	-0.89792	-1.775	-1.3667	-1.1833	190.271	121.302	229.085	221.845	-65.733	-108.943	181.546	237.992	244.272	-105.388	-31.813	219.461	196.582	114.244	-83.289	-96.186	0.00072283	0.00041089	0.00010416	1256.9	6.6186e-06	3.6072e-06	1264.9	344.85	7.6118e-06	4.0773e-06	397.32	132.88	113.5	39.169	9.087e-06	49.685	0.0013078	0.0020419	0.00055314	1279.9	2.0099e-05	2.1878e-05	1286.8	352.14	1.9444e-05	2.3013e-05	407.01	136.59	116.46	40.494	2.0595e-05	51.199	17.337	-31.086	-12.617	-99.732	33.415	40.404	-100.200	-95.186	7.827	29.151	-95.409	-91.554	-90.995	-86.179	49.419	-87.080	-8191	255	
1224.459	1	1	0	0	0.080101	0.27957	0.071263	0.028555	0.049306	0.26812	0.40527	0.10585	0.24658	0.38511	0.1428	0.11888	0.27065	0.1705	0.24971	0.10443	-1.5396	-1.0458	-1.2708	-2.1396	-1.2083	-1.7333	-1.5979	-1.3167	-2.05	-1.0292	-1.4042	-1.9521	-1.125	-1.725	-1.5604	-1.2396	122.492	215.282	116.438	210.830	-98.288	-97.352	223.360	237.419	161.182	87.342	-102.295	188.427	162.936	120.021	-3.689	150.517	0.00073881	0.00025957	0.00013102	1260.1	3.8217e-06	9.7342e-06	1264.6	344.47	4.2314e-06	4.1336e-06	397.81	133.02	113.66	39.303	1.1336e-06	49.484	0.0013178	0.0019285	0.00054725	1279.5	1.9268e-05	2.2612e-05	1287.1	352.18	1.8928e-05	2.2138e-05	406.83	136.23	116.55	40.525	2.0049e-05	51.065	13.616	-17.908	-32.688	-99.552	49.096	30.442	-100.060	-95.229	17.808	43.676	-95.813	-91.016	-90.709	-86.051	63.198	-86.972	-8191	255	
1224.555	1	1	0	0	0.19018	0.1156	0.02309	0.21841	0.16622	0.15793	0.15106	0.010637	0.087101	0.2528	0.20246	0.28801	0.039483	0.10271	0.33384	0.22654	-1.4917	-1.2229	-1.4229	-2.1667	-1.1354	-1.6979	-1.8854	-1.1979	-1.9813	-1.1521	-1.5063	-1.9875	-1.2083	-1.8021	-1.4958	-1.0604	92.669	236.247	97.755	190.769	141.860	157.424	190.936	130.820	-2.045	5.663	100.248	199.798	-50.814	-46.975	91.706	219.154	0.00068104	0.00048293	0.00013659	1257.2	4.3228e-06	5.9978e-06	1261.1	342.61	5.7531e-06	5.3359e-06	396.92	131.98	113.48	39.201	4.1096e-06	49.477	0.0012885	0.0019371	0.00055733	1278.3	1.9743e-05	2.2791e-05	1283.9	351.14	1.9029e-05	2.2082e-05	406.49	136.05	116.43	40.456	2.0535e-05	51.142	15.437	-16.116	-18.848	-99.495	44.897	33.136	-99.816	-94.665	42.760	38.085	-95.375	-90.959	-90.545	-86.000	31.290	-86.664	-8191	255	
#DATA ENDS
