BOXY.EXE: ISS Imagent and Oximeter Data Acquisition Program Version 0.80
Ascii Record File

#ACQ INFORMATION
2  Detector Channels 
16  External MUX Channels 
1  Auxiliary Channels 
5000  Waveform (CCF) Frequency (Hz)
1  Waveforms Skipped 
30  Waveforms Averaged 
1  Cycles Averaged 
16  Acquisitions per Waveform 
10.0806  Updata Rate (Hz) 

#FILE INFORMATION
TRUE -- External MUX Channel results are PARSED.
FALSE -- AC DC and Phase are NOT grouped.
TRUE -- Companion Program Settings File CREATED.
FALSE -- AC data not excluded
FALSE -- DC data not excluded
FALSE -- Phase data not excluded
FALSE -- Auxillary Chn. data not excluded
Tab delimiters

#CALIBRATION STATE
TRUE -- Waveform Calibration Values APPLIED.


#AUX CALIBRATION VALUES
Val Type	aux-1	

Term	1.0000e+00	
Factor	0.0000e+00	


#WF CALIBRATION VALUES
A = Detector Channel
Val Type	A-AC1	A-AC2	A-AC3	A-AC4	A-AC5	A-AC6	A-AC7	A-AC8	A-AC9	A-AC10	A-AC11	A-AC12	A-AC13	A-AC14	A-AC15	A-AC16	A-DC1	A-DC2	A-DC3	A-DC4	A-DC5	A-DC6	A-DC7	A-DC8	A-DC9	A-DC10	A-DC11	A-DC12	A-DC13	A-DC14	A-DC15	A-DC16	A-Ph1	A-Ph2	A-Ph3	A-Ph4	A-Ph5	A-Ph6	A-Ph7	A-Ph8	A-Ph9	A-Ph10	A-Ph11	A-Ph12	A-Ph13	A-Ph14	A-Ph15	A-Ph16	

Term	0.00000e+00	0.00000e+00	0.00000e+00	0.00000e+00	0.00000e+00	0.00000e+00	0.00000e+00	0.00000e+00	0.00000e+00	0.00000e+00	0.00000e+00	0.00000e+00	0.00000e+00	0.00000e+00	0.00000e+00	0.00000e+00	0.00000e+00	0.00000e+00	0.00000e+00	0.00000e+00	0.00000e+00	0.00000e+00	0.00000e+00	0.00000e+00	0.00000e+00	0.00000e+00	0.00000e+00	0.00000e+00	0.00000e+00	0.00000e+00	0.00000e+00	0.00000e+00	0.00000e+00	0.00000e+00	0.00000e+00	0.00000e+00	0.00000e+00	0.00000e+00	0.00000e+00	0.00000e+00	0.00000e+00	0.00000e+00	0.00000e+00	0.00000e+00	0.00000e+00	0.00000e+00	0.00000e+00	0.00000e+00	
Factor	1.00000e+00	1.00000e+00	1.00000e+00	1.00000e+00	1.00000e+00	1.00000e+00	1.00000e+00	1.00000e+00	1.00000e+00	1.00000e+00	1.00000e+00	1.00000e+00	1.00000e+00	1.00000e+00	1.00000e+00	1.00000e+00	1.00000e+00	1.00000e+00	1.00000e+00	1.00000e+00	1.00000e+00	1.00000e+00	1.00000e+00	1.00000e+00	1.00000e+00	1.00000e+00	1.00000e+00	1.00000e+00	1.00000e+00	1.00000e+00	1.00000e+00	1.00000e+00	X	X	X	X	X	X	X	X	X	X	X	X	X	X	X	X	

B = Detector Channel
Val Type	B-AC1	B-AC2	B-AC3	B-AC4	B-AC5	B-AC6	B-AC7	B-AC8	B-AC9	B-AC10	B-AC11	B-AC12	B-AC13	B-AC14	B-AC15	B-AC16	B-DC1	B-DC2	B-DC3	B-DC4	B-DC5	B-DC6	B-DC7	B-DC8	B-DC9	B-DC10	B-DC11	B-DC12	B-DC13	B-DC14	B-DC15	B-DC16	B-Ph1	B-Ph2	B-Ph3	B-Ph4	B-Ph5	B-Ph6	B-Ph7	B-Ph8	B-Ph9	B-Ph10	B-Ph11	B-Ph12	B-Ph13	B-Ph14	B-Ph15	B-Ph16	

Term	0.00000e+00	0.00000e+00	0.00000e+00	0.00000e+00	0.00000e+00	0.00000e+00	0.00000e+00	0.00000e+00	0.00000e+00	0.00000e+00	0.00000e+00	0.00000e+00	0.00000e+00	0.00000e+00	0.00000e+00	0.00000e+00	0.00000e+00	0.00000e+00	0.00000e+00	0.00000e+00	0.00000e+00	0.00000e+00	0.00000e+00	0.00000e+00	0.00000e+00	0.00000e+00	0.00000e+00	0.00000e+00	0.00000e+00	0.00000e+00	0.00000e+00	0.00000e+00	-1.03147e+02	-1.27696e+02	-1.26040e+02	-1.81176e+02	-6.23970e+01	-6.75592e+01	-1.58780e+02	-1.62015e+02	-5.65277e+01	-6.22897e+01	-1.72992e+02	-1.70125e+02	-1.79834e+02	-1.76748e+02	-6.70119e+01	-1.49179e+02	
Factor	1.55199e-05	1.44807e-04	4.06336e-05	1.55882e-01	1.24127e-06	1.48260e-06	1.50087e-01	4.62077e-02	1.01788e-06	1.60599e-06	9.62183e-02	2.73408e-02	4.09599e-02	8.78388e-03	1.32503e-06	1.25402e-02	7.43530e-06	1.06435e-05	2.98820e-06	8.29155e-02	1.11264e-07	1.18464e-07	7.49576e-02	2.47378e-02	1.11329e-07	1.17809e-07	4.95847e-02	1.42385e-02	2.21954e-02	4.73677e-03	1.13755e-07	6.51851e-03	X	X	X	X	X	X	X	X	X	X	X	X	X	X	X	X	



#DISTANCE SETTINGS
A = Detector Channel
A-1	A-2	A-3	A-4	A-5	A-6	A-7	A-8	A-9	A-10	A-11	A-12	A-13	A-14	A-15	A-16	

2.5000e+00	3.0000e+00	2.5000e+00	3.0000e+00	2.0000e+00	3.0000e+00	1.5000e+00	3.0000e+00	3.0000e+00	3.0000e+00	3.0000e+00	3.0000e+00	3.0000e+00	3.0000e+00	1.5000e+00	3.0000e+00	

B = Detector Channel
B-1	B-2	B-3	B-4	B-5	B-6	B-7	B-8	B-9	B-10	B-11	B-12	B-13	B-14	B-15	B-16	

1.0000e+01	1.0000e+01	1.0000e+01	1.4400e+00	1.0000e+01	1.0000e+01	1.5100e+00	1.9400e+00	1.0000e+01	1.0000e+01	1.9900e+00	2.4900e+00	2.4100e+00	2.9000e+00	1.0000e+01	2.9800e+00	




#DATA BEGINS
time	group	step	mark	flag	A-AC1	A-AC2	A-AC3	A-AC4	A-AC5	A-AC6	A-AC7	A-AC8	A-AC9	A-AC10	A-AC11	A-AC12	A-AC13	A-AC14	A-AC15	A-AC16	A-DC1	A-DC2	A-DC3	A-DC4	A-DC5	A-DC6	A-DC7	A-DC8	A-DC9	A-DC10	A-DC11	A-DC12	A-DC13	A-DC14	A-DC15	A-DC16	A-Ph1	A-Ph2	A-Ph3	A-Ph4	A-Ph5	A-Ph6	A-Ph7	A-Ph8	A-Ph9	A-Ph10	A-Ph11	A-Ph12	A-Ph13	A-Ph14	A-Ph15	A-Ph16	B-AC1	B-AC2	B-AC3	B-AC4	B-AC5	B-AC6	B-AC7	B-AC8	B-AC9	B-AC10	B-AC11	B-AC12	B-AC13	B-AC14	B-AC15	B-AC16	B-DC1	B-DC2	B-DC3	B-DC4	B-DC5	B-DC6	B-DC7	B-DC8	B-DC9	B-DC10	B-DC11	B-DC12	B-DC13	B-DC14	B-DC15	B-DC16	B-Ph1	B-Ph2	B-Ph3	B-Ph4	B-Ph5	B-Ph6	B-Ph7	B-Ph8	B-Ph9	B-Ph10	B-Ph11	B-Ph12	B-Ph13	B-Ph14	B-Ph15	B-Ph16	aux-1	digaux	

1718.479	1	1	0	256	0.12593	0.23406	0.12951	0.25962	0.077747	0.10937	0.18831	0.15054	0.14372	0.09915	0.074537	0.41341	0.27332	0.27863	0.22766	0.20173	-1.4937	-1.7458	-2.5875	-1.9729	-1.8458	-2.2604	-1.6125	-2.3458	-2.2396	-1.7938	-2.7167	-1.875	-2.0125	-2.3521	-1.6167	-2.3104	-92.070	-74.427	93.511	133.436	51.707	118.641	217.522	144.380	205.260	4.240	176.561	169.500	-61.468	99.833	-17.431	227.315	0.0001842	0.00043805	0.00029041	553.35	5.9282e-06	8.7553e-06	771.61	151.43	7.897e-06	1.0594e-05	274.47	109.92	54.389	23.771	1.423e-05	53.985	0.011571	0.016313	0.0045417	653.66	0.00016858	0.00017812	855.31	182.64	0.00016657	0.00017699	338.95	129.66	87.29	30.206	0.00017618	62.418	226.601	-60.654	-5.832	-84.668	98.097	26.034	-84.712	-80.752	143.673	145.711	-81.498	-77.120	-77.061	-72.642	107.177	-73.336	-8191	255	
1718.575	1	1	0	0	0.045282	0.33109	0.11282	0.14508	0.25287	0.14842	0.080092	0.27608	0.12406	0.30787	0.12578	0.34441	0.1285	0.35475	0.084756	0.11388	-1.7437	-1.6396	-2.4688	-2.05	-1.7417	-2.5167	-1.8021	-2.2875	-2.2833	-1.4792	-2.4688	-2.0354	-1.625	-2.6521	-1.5771	-1.9813	-36.914	-34.171	35.980	247.531	-82.069	117.937	41.068	126.407	185.737	-98.762	114.539	199.193	-51.154	-54.074	207.318	176.978	0.00011782	0.00078474	0.00046651	554.41	6.5956e-06	1.0242e-05	774.76	152.68	1.118e-05	1.4405e-05	276.53	111.59	54.119	23.687	1.0795e-05	53.933	0.011756	0.016781	0.0046926	660.06	0.0001761	0.00018868	867.32	187.18	0.00017941	0.00019079	346.52	131.57	89.233	30.525	0.0001836	62.928	-98.249	206.167	-26.252	-85.118	73.987	258.477	-85.400	-80.859	189.565	58.613	-81.227	-77.361	-76.994	-72.615	75.374	-73.104	-8191	255	
1718.671	1	1	0	0	0.25293	0.14732	0.028896	0.077015	0.23727	0.12151	0.27032	0.055432	0.049721	0.17949	0.30937	0.15406	0.13972	0.075397	0.12303	0.1345	-2	-1.5833	-2.55	-2.1667	-1.5688	-2.5458	-1.8813	-2.0938	-2.4729	-1.7	-2.4562	-2.1437	-1.7458	-2.3979	-1.6292	-2.1146	-35.733	176.288	118.711	131.519	197.801	64.290	238.402	201.244	-46.756	96.247	-76.213	180.833	250.032	153.694	-18.975	-93.506	0.00027263	0.0011842	0.00053271	556.03	1.3948e-05	1.1455e-05	782.25	155.17	2.4483e-06	1.3973e-05	281.08	113.12	56.716	23.409	1.2497e-05	54.096	0.012181	0.017417	0.0049244	669.58	0.00018552	0.00020035	880.31	191.99	0.0001945	0.00020796	359.22	135.57	95.627	31.708	0.0002152	64.92	216.206	145.513	-30.579	-85.261	72.766	85.190	-85.157	-80.478	-44.404	23.276	-81.683	-77.446	-77.648	-72.818	29.983	-73.331	-8191	255	
1718.768	1	1	0	0	0.11682	0.049892	0.11789	0.23718	0.068214	0.15647	0.043996	0.14607	0.092226	0.11469	0.21349	0.28274	0.1608	0.16666	0.22777	0.10671	-2.05	-1.5729	-2.2104	-2.2354	-1.7292	-2.6542	-1.9792	-2.1667	-2.4708	-1.6688	-2.3063	-2.2771	-1.7229	-2.5062	-1.8604	-2.0042	193.350	-47.407	197.846	-28.143	136.609	234.106	166.809	-79.037	120.796	-25.789	-94.376	219.266	-87.939	232.843	15.335	89.457	0.00015914	0.00099647	0.00024271	566.21	4.1422e-06	1.493e-05	798.58	158.59	4.6858e-06	1.0846e-05	282.95	113.7	55.349	23.56	7.3806e-06	53.697	0.014508	0.020799	0.0058652	706.01	0.00021681	0.00022959	911.86	199.88	0.00021026	0.00022032	364.45	136.38	94.696	31.326	0.00020325	63.679	226.361	-25.441	3.667	-85.250	73.558	-23.766	-85.275	-80.699	250.169	-41.148	-80.894	-76.926	-77.035	-72.612	62.864	-73.088	-8191	255	
1718.864	1	1	0	0	0.096998	0.050723	0.16563	0.25897	0.15822	0.10836	0.23891	0.19882	0.2551	0.24617	0.26628	0.14911	0.23884	0.35713	0.069635	0.085682	-2.2896	-1.5958	-2.15	-2.1979	-1.5625	-2.575	-2.1271	-1.625	-2.3521	-1.8438	-2.1458	-2.6042	-1.5063	-2.4208	-1.9646	-1.7875	133.241	218.729	206.806	-45.735	222.928	257.522	-49.578	231.741	64.269	136.280	-52.525	-63.139	-18.848	214.545	81.969	175.462	0.00037701	0.00040477	0.00038315	571.49	6.1639e-06	1.4469e-05	801.61	156.3	1.0486e-05	1.5564e-05	286	111.89	55.227	23.047	1.0802e-05	53.062	0.013256	0.01878	0.0052548	690.03	0.00019622	0.00020868	902.2	195.49	0.00019889	0.00021036	362.91	134.62	94.535	30.99	0.00020612	63.07	207.932	52.034	101.951	-85.235	13.583	43.500	-85.152	-80.762	34.620	-37.185	-81.134	-77.402	-77.432	-72.941	202.691	-72.897	-8191	255	
1718.984	1	1	0	0	0.16731	0.21071	0.10018	0.14709	0.063464	0.23666	0.34107	0.086174	0.098463	0.18902	0.16113	0.051289	0.49235	0.22387	0.19657	0.14844	-1.9854	-1.7375	-1.8604	-2.5333	-1.7125	-2.3458	-2.0417	-1.8146	-2.5333	-1.9479	-2.0667	-2.4146	-1.4688	-2.0979	-2.3208	-1.7062	61.193	-54.576	-90.986	9.378	-79.060	172.613	42.899	13.839	10.870	-59.031	-70.043	-81.011	188.215	3.038	193.047	-59.431	0.00015296	0.00056189	0.00020451	573.34	6.5484e-06	1.0182e-05	794.67	157.38	8.9569e-06	1.5923e-05	285.38	112.13	56.005	23.133	5.9844e-06	53.13	0.013575	0.019203	0.0053992	695.21	0.0002015	0.0002163	904.87	197.84	0.00020701	0.00022116	366.74	136.65	97.606	31.619	0.00022468	64.422	212.083	64.829	233.184	-85.304	80.949	54.983	-85.003	-80.847	33.119	246.691	-81.479	-77.212	-76.918	-72.741	63.081	-73.285	-8191	255	
1719.079	1	1	0	0	0.29079	0.12212	0.26528	0.15914	0.095197	0.094666	0.30524	0.092034	0.20615	0.33142	0.35619	0.091174	0.17545	0.17002	0.1415	0.099347	-2.2292	-1.9604	-1.7229	-2.4583	-1.4208	-2.3375	-2.6	-1.7542	-2.425	-1.8708	-1.7313	-2.6	-1.7062	-2.2292	-2.5083	-1.6604	-63.032	38.820	243.350	-69.114	-50.021	240.903	163.433	177.622	-81.888	-35.067	-94.661	-78.761	161.584	-84.527	30.193	168.542	0.00014729	0.00022698	0.00085726	581.95	7.1774e-06	1.5742e-05	830.24	166.31	5.1437e-06	1.2454e-05	299.62	118.52	60.676	23.125	8.2523e-06	52.109	0.015159	0.021931	0.0062639	733.76	0.00024063	0.00026292	968.92	217.54	0.00026229	0.00028583	411.55	151.13	116.07	34.713	0.00030132	67.954	207.225	-16.300	-45.814	-84.925	90.191	35.452	-84.802	-80.877	62.543	7.090	-81.257	-77.315	-77.963	-72.256	56.040	-73.079	-8191	255	
1719.175	1	1	0	0	0.15343	0.12339	0.18216	0.24531	0.12278	0.25255	0.24135	0.23671	0.30031	0.27225	0.27938	0.15449	0.16376	0.092484	0.15258	0.18066	-2.0083	-2.1021	-1.6833	-2.4688	-1.6354	-2.2083	-2.5208	-1.6875	-2.5146	-2.2667	-1.8	-2.5542	-1.8417	-2.05	-2.1458	-1.7729	34.884	237.598	158.941	246.928	37.072	156.236	212.788	42.415	-19.836	60.971	-88.327	80.162	13.700	169.248	-83.764	-21.448	0.00022202	0.0019021	0.0010419	626.95	1.427e-05	1.6282e-05	884.06	179.67	1.9595e-06	1.3514e-06	313.52	120.44	61.249	22.48	3.4979e-06	50.842	0.020266	0.028953	0.0082645	833.36	0.00031232	0.0003337	1064.9	242.73	0.00031737	0.00033448	442.98	158.25	123.53	35.167	0.00031889	67.812	186.915	123.407	-18.526	-85.383	-98.521	80.947	-85.298	-81.331	57.620	104.780	-82.211	-78.051	-77.598	-73.285	242.399	-73.373	-8191	255	
1719.271	1	1	0	0	0.087035	0.15634	0.22307	0.28538	0.15855	0.25473	0.3424	0.040143	0.14388	0.29121	0.167	0.045896	0.15589	0.2073	0.25359	0.20744	-2.0229	-2.0479	-1.6708	-2.6271	-1.8146	-2.0875	-2.8083	-1.8312	-2.1104	-2.1333	-1.7396	-2.6083	-1.9833	-1.8583	-2.5083	-1.6854	-66.828	14.002	-35.403	229.254	184.498	76.515	146.567	36.310	-3.861	23.690	121.327	110.558	250.137	-18.335	10.102	232.233	0.00028129	0.0002048	0.00041549	620.37	2.2916e-05	8.6307e-06	858.79	169.9	1.1834e-05	1.4754e-05	295.78	115.58	58.001	22.689	9.1076e-06	52.461	0.020625	0.029154	0.0081085	818.25	0.00029425	0.00031032	1023.4	227.02	0.00027743	0.00028843	405.08	145.62	106.57	32.514	0.00024474	64.175	-87.596	-77.644	31.727	-85.066	-40.384	-4.337	-84.927	-81.063	110.349	202.963	-81.326	-77.006	-77.258	-72.677	-78.855	-73.192	-8191	255	
1719.345	1	1	0	0	0.2281	0.12119	0.17105	0.3129	0.12438	0.12839	0.1537	0.10087	0.012963	0.17651	0.093748	0.12683	0.075891	0.30672	0.10449	0.066753	-1.5979	-2.2375	-1.675	-2.5396	-2.0229	-1.8854	-2.7104	-1.7604	-2.0792	-2.3729	-1.6458	-2.475	-2.1417	-1.8042	-2.5708	-1.7542	188.400	191.412	-41.546	245.059	140.551	258.944	239.885	44.504	-44.249	220.346	194.055	253.371	204.142	-74.663	156.227	-62.176	0.00032784	0.0029224	0.00012574	573.29	1.2729e-05	1.1634e-05	791.87	155.93	7.8611e-07	2.1408e-05	280.19	111.83	54.563	23.92	1.1442e-05	54.335	0.015004	0.020808	0.005712	700.56	0.00020224	0.00021031	893.96	191.72	0.00018487	0.00019291	350.19	131.58	89.726	30.764	0.00018293	63.158	223.429	48.373	67.913	-85.415	114.504	98.430	-85.078	-80.197	198.349	53.448	-81.003	-77.068	-76.675	-72.851	186.564	-73.347	-8191	255	
1719.463	1	1	0	0	0.11589	0.42001	0.095251	0.33624	0.078772	0.26846	0.12656	0.35646	0.073808	0.18516	0.11436	0.22558	0.088327	0.15488	0.030439	0.026078	-1.6187	-2.4688	-1.5	-2.3167	-1.9917	-1.6958	-2.7833	-1.8604	-1.8604	-2.2875	-1.7417	-2.3167	-2.1792	-1.6938	-2.3333	-1.9271	98.638	226.333	228.503	228.441	-85.367	100.220	182.434	239.294	-72.991	-79.341	14.501	-86.086	251.983	-28.214	-72.661	107.054	9.6025e-05	0.00077001	0.00068155	564.15	1.7999e-05	1.6987e-05	790.97	155.07	4.694e-06	1.1881e-05	278.21	111.67	54.766	24.19	1.5658e-05	55.432	0.012052	0.01716	0.0048011	671.21	0.00017755	0.00018992	880.83	189.25	0.00017759	0.0001864	347.67	131.15	88.078	30.882	0.00017632	63.861	-64.722	-36.958	-14.225	-84.731	20.988	-86.543	-85.078	-80.829	243.174	147.702	-80.950	-77.254	-77.185	-72.584	15.040	-73.287	-8191	255	
1719.560	1	1	0	0	0.10946	0.20498	0.098115	0.17546	0.1507	0.25855	0.16312	0.12852	0.18473	0.2024	0.078017	0.28659	0.067634	0.058463	0.096463	0.39477	-1.625	-2.475	-1.5187	-2.2208	-2.2188	-1.6042	-2.7354	-1.9562	-1.6833	-2.5833	-1.7854	-2.275	-2.2458	-1.5021	-2.3937	-2.1167	198.239	146.713	42.349	182.631	-85.643	222.373	229.187	91.515	168.982	209.614	-88.360	259.137	-82.387	147.940	-96.091	-89.655	0.00013351	0.00025586	0.00015091	560	1.0387e-05	4.2654e-06	785.63	154.32	9.2555e-06	2.7956e-06	278.87	112.11	55.153	24.435	1.2643e-05	55.842	0.011624	0.016636	0.004661	662.74	0.00017518	0.00018674	874.99	187.74	0.00017986	0.0001914	350.47	133.15	91.046	31.79	0.00019423	65.161	191.145	1.310	-7.062	-84.696	55.153	-20.485	-84.986	-80.410	-65.629	32.296	-81.017	-76.937	-76.097	-72.449	86.320	-73.210	-8191	255	
1719.656	1	1	0	0	0.14202	0.24714	0.014075	0.20698	0.025118	0.10264	0.2084	0.26389	0.12978	0.14755	0.1321	0.08227	0.063512	0.080668	0.17035	0.2205	-1.5229	-2.5833	-1.6458	-2.0875	-2.2917	-1.4312	-2.4833	-2.1583	-1.7563	-2.4625	-1.7812	-1.9937	-2.2438	-1.7687	-2.3167	-2.3937	-11.060	95.163	56.332	124.687	89.890	168.210	132.678	151.467	242.776	87.560	194.289	223.201	152.227	6.758	19.512	-79.762	0.00031888	0.0011536	0.00068034	560.02	1.0436e-05	1.1395e-05	779.37	153.23	3.9603e-06	1.766e-05	278.04	111.26	54.334	24.224	1.4438e-05	54.884	0.012859	0.018251	0.0050838	674.87	0.00018829	0.00019972	877.67	188.84	0.00018765	0.00019902	351.71	132.82	91.591	31.586	0.00019536	64.531	225.036	-47.734	9.647	-84.955	186.402	44.455	-85.001	-80.445	104.109	90.399	-81.264	-76.734	-76.988	-72.653	18.994	-73.523	-8191	255	
1719.752	1	1	0	0	0.16755	0.20951	0.13766	0.20121	0.22507	0.16505	0.020972	0.2761	0.044836	0.11536	0.32	0.11977	0.12481	0.28039	0.18706	0.19325	-1.1333	-2.4188	-1.6562	-2.1625	-2.3937	-1.5229	-2.4208	-2.1937	-1.425	-2.4188	-2.0333	-2.0542	-2.5708	-1.6542	-2.1625	-2.3646	215.195	167.740	168.333	-76.310	217.112	211.799	110.260	142.633	249.916	218.003	-63.638	-21.593	-5.889	193.653	49.951	213.634	0.00021596	0.00053548	9.7854e-05	561.74	3.0717e-06	1.2336e-05	786.36	155.44	1.573e-05	7.1797e-06	282.78	112.49	56.676	24.269	5.1324e-06	54.471	0.012898	0.018428	0.0051866	680.75	0.00019744	0.0002115	893.32	195.6	0.0002069	0.00022314	368.22	137.87	99.229	32.928	0.00023111	66.285	-97.196	59.949	87.033	-84.904	195.657	30.167	-85.175	-80.755	178.925	38.248	-81.222	-77.016	-76.474	-72.777	219.822	-73.326	-8191	255	
1719.872	1	1	0	0	0.062504	0.19643	0.15577	0.30106	0.045672	0.057822	0.27413	0.16118	0.20116	0.14873	0.048206	0.056171	0.031935	0.079443	0.19363	0.08394	-1.0688	-2.4396	-1.8062	-1.7833	-2.3312	-1.6708	-2.1688	-2.3542	-1.5583	-2.2646	-2.1688	-1.9375	-2.4583	-1.6833	-2.0083	-2.5812	253.410	-86.046	10.144	190.816	147.072	-72.455	233.242	178.907	90.478	242.603	27.347	-88.542	196.322	250.346	6.477	-90.545	0.00024756	0.0016255	0.00032514	570.28	1.3169e-05	1.2973e-05	802.73	160.56	8.6864e-06	1.9763e-05	286.24	115.13	57.25	24.286	1.3037e-05	54.905	0.015571	0.022374	0.0062996	720.97	0.00023316	0.00024764	929.46	205.58	0.00022763	0.00023834	375.45	139.53	98.898	32.661	0.00021873	65.9	226.506	124.527	112.795	-85.045	66.896	-14.787	-84.906	-81.439	-33.374	130.844	-81.454	-77.285	-77.431	-72.730	26.559	-73.576	-8191	255	
1719.969	1	1	0	0	0.17241	0.10792	0.17536	0.28148	0.081642	0.035615	0.16865	0.12463	0.33542	0.16128	0.2542	0.20071	0.2022	0.23905	0.11872	0.15592	-1.2146	-2.3917	-2.2687	-1.8167	-2.6875	-1.7292	-2.1	-2.4146	-1.4583	-2.3917	-2.2396	-1.6833	-2.4917	-1.9604	-1.7479	-2.5521	30.022	27.380	-28.674	200.386	153.816	47.291	166.634	68.534	185.575	-40.898	37.282	161.419	197.759	243.410	45.833	161.004	0.00029776	0.00070274	0.00024272	570.6	6.2092e-06	6.1794e-06	797.16	160.66	3.0433e-06	6.5761e-06	288.24	114.74	56.94	24.132	1.5022e-05	55.091	0.014168	0.020183	0.0056833	702.78	0.00021457	0.00023136	919.51	203.56	0.00021861	0.00023293	375.76	140.12	99.786	32.745	0.0002243	66.01	190.938	130.963	53.300	-85.306	-18.901	58.064	-85.474	-81.174	115.430	-34.640	-81.508	-76.928	-77.343	-73.094	-29.694	-72.925	-8191	255	
1720.065	1	1	0	0	0.11852	0.079565	0.2045	0.30207	0.3137	0.39609	0.37909	0.1827	0.13351	0.078431	0.1114	0.1829	0.055534	0.18842	0.11232	0.23134	-1.4896	-2.2375	-2.2646	-1.4771	-2.4042	-1.9646	-2.0854	-2.6854	-1.525	-2.1417	-2.3729	-1.9125	-2.3229	-2.0167	-1.8667	-2.6542	145.109	-89.343	-10.192	217.680	136.580	205.856	186.728	181.383	-29.078	-97.560	255.899	124.324	230.868	239.877	185.473	184.485	0.00010037	0.0011431	0.00052682	569.83	1.0651e-05	2.2683e-05	803.76	159.61	1.4156e-05	2.0204e-05	286.2	114.22	58.055	23.85	1.1845e-05	53.647	0.014695	0.020788	0.0058059	709.01	0.00021502	0.00022991	920.52	202.75	0.00021956	0.00023534	375.89	140.03	101.09	32.68	0.00023314	65.544	-54.480	5.749	252.092	-84.734	-35.201	148.030	-84.817	-81.191	24.618	117.032	-81.463	-77.084	-77.213	-72.658	228.727	-73.575	-8191	255	
1720.159	1	1	0	0	0.20545	0.18432	0.13558	0.1459	0.2402	0.13613	0.039879	0.12168	0.13385	0.058869	0.086888	0.1396	0.18193	0.38678	0.075824	0.027434	-1.075	-2.0146	-2.4479	-1.4562	-2.4125	-2.1521	-1.7667	-2.575	-1.6146	-1.9354	-2.3479	-1.7771	-2.4188	-2.0667	-1.5854	-2.6271	55.764	-22.581	170.397	255.190	126.134	24.645	140.473	10.017	207.095	92.674	73.746	153.965	82.465	-80.380	-59.015	200.568	0.00030962	0.00087103	0.00033691	575.52	1.0443e-05	8.4155e-06	808.44	161.85	1.427e-05	1.2825e-05	289.86	113.21	57.381	23.427	1.6891e-05	52.675	0.015523	0.0222	0.0062113	723.93	0.00023201	0.00024684	937.38	207.31	0.00023076	0.00024298	379.88	139.94	100.6	32.063	0.00022462	63.92	254.922	22.756	-29.388	-85.032	52.625	-56.563	-84.799	-80.988	119.867	5.863	-81.181	-76.947	-77.858	-72.434	69.613	-73.079	-8191	255	
1720.255	1	1	0	0	0.07433	0.17267	0.10603	0.33597	0.21357	0.11522	0.14484	0.28921	0.28627	0.18611	0.1275	0.23413	0.22998	0.069889	0.13934	0.13872	-1.5208	-1.8792	-2.3479	-1.7708	-2.4042	-2.3063	-1.8146	-2.4583	-1.6667	-1.8417	-2.6437	-1.7062	-2.2062	-2.1146	-1.6313	-2.5438	-84.317	123.670	-72.460	198.533	97.647	35.886	150.086	137.288	235.689	259.894	140.273	192.532	260.253	249.995	217.761	119.647	0.00023203	0.00092997	0.0004607	582.46	6.6216e-06	1.325e-05	816.7	162.67	7.5582e-06	1.7715e-05	290.93	113.11	57.671	23.221	2.1973e-05	52.537	0.014387	0.020081	0.0055578	708.26	0.0002024	0.00021369	922.24	202.32	0.00020619	0.0002206	373.54	137.17	98.316	31.535	0.00022145	63.792	182.293	11.883	77.203	-85.091	-43.604	13.117	-84.785	-80.967	-17.521	117.831	-81.587	-77.020	-77.232	-72.447	41.905	-73.276	-8191	255	
1720.351	1	1	0	0	0.075586	0.15108	0.12475	0.093975	0.16945	0.31928	0.41628	0.15743	0.13905	0.017277	0.073666	0.061137	0.14974	0.28558	0.19746	0.082174	-1.6437	-1.7083	-2.5271	-1.675	-2.35	-2.4021	-1.8333	-2.5583	-2.0521	-1.7021	-2.5792	-1.7938	-2.1625	-2.2708	-1.5375	-2.4604	8.803	-10.303	6.266	92.172	-49.817	112.947	224.722	188.349	251.073	-52.048	158.001	-58.714	257.124	-56.703	125.262	147.234	0.00018474	0.00075966	0.00029468	593.44	6.4308e-06	1.1751e-05	832.72	166.63	1.7005e-06	1.474e-05	293.73	113.93	57.677	23.481	3.6279e-06	54.134	0.0148	0.021294	0.0060514	737.14	0.00022583	0.00024081	953.45	210.81	0.0002229	0.00023394	380.95	139.55	99.484	31.987	0.00021711	64.796	221.345	68.847	146.933	-85.058	99.528	-92.325	-85.048	-80.871	258.746	106.968	-81.917	-77.535	-77.819	-72.627	27.093	-73.584	-8191	255	
1720.472	1	1	0	0	0.22596	0.093839	0.29067	0.11898	0.19888	0.12457	0.10268	0.27937	0.16725	0.12018	0.017073	0.21831	0.24265	0.057296	0.3641	0.14203	-1.6271	-1.6104	-2.4604	-1.9604	-1.9708	-2.3917	-1.7604	-2.2146	-1.9688	-1.6396	-2.7021	-1.9292	-1.8563	-2.4583	-1.6292	-2.4979	-45.725	3.901	231.491	160.911	240.141	256.728	240.958	241.795	123.601	-1.373	178.121	-86.955	119.623	-83.006	128.622	189.887	0.00020409	0.0018728	6.4938e-05	576.46	2.104e-05	1.0831e-05	805.72	160.17	7.1579e-06	1.5075e-05	287.86	114.07	57.376	24.416	2.1134e-05	54.878	0.014092	0.019976	0.0056055	708.49	0.00020809	0.00022082	915.37	201.33	0.00020878	0.00022407	371.74	138.18	98.849	32.809	0.00022325	66.119	-1.035	123.131	-84.936	-85.331	85.840	8.440	-84.935	-80.997	54.940	252.088	-81.744	-77.314	-76.948	-72.881	32.225	-73.480	-8191	255	
1720.568	1	1	0	0	0.23904	0.18869	0.33632	0.23309	0.022394	0.17027	0.27328	0.28459	0.27191	0.15392	0.070235	0.078556	0.22123	0.13284	0.056391	0.13564	-1.85	-1.6917	-2.3792	-2.0104	-1.9542	-2.7062	-1.7062	-2.3625	-2.2875	-1.4562	-2.3333	-2	-1.8438	-2.6125	-1.5812	-2.0812	59.635	-86.230	73.852	92.193	-88.008	162.586	218.046	206.372	169.258	-95.646	153.650	4.498	148.797	114.509	259.803	132.213	0.00022685	0.00052121	0.00025974	569.19	9.3291e-06	3.804e-06	801.69	161.42	1.7049e-05	2.0229e-05	289.58	115.12	58.109	24.136	8.932e-06	54.301	0.014823	0.021238	0.0060029	712.31	0.0002262	0.00024228	925.36	206.64	0.00022785	0.00024236	380.4	141.15	102.42	33.181	0.00023283	65.962	205.322	-89.897	-4.728	-85.258	26.862	77.704	-84.882	-81.111	222.996	110.699	-81.646	-76.882	-77.671	-72.967	-4.222	-73.322	-8191	255	
1720.640	1	1	0	0	0.21752	0.049792	0.25187	0.1936	0.37768	0.047835	0.24315	0.20541	0.084035	0.13235	0.23977	0.29065	0.16216	0.14572	0.18158	0.030651	-1.9375	-1.525	-2.2729	-2.0938	-1.6396	-2.55	-1.8604	-2.1167	-2.4146	-1.3854	-2.4	-2.1	-1.5688	-2.4896	-1.8271	-1.9583	199.778	-68.491	45.073	103.359	213.141	-89.023	174.657	213.164	108.736	-43.781	-85.641	129.610	167.343	-41.908	-52.602	219.549	0.00020501	0.00079377	0.00025957	580.27	1.5939e-05	1.18e-05	806.94	164.28	3.4126e-06	2.4003e-05	290.62	114.78	58.323	23.868	1.6576e-06	53.751	0.01516	0.021622	0.0060059	718.49	0.00022452	0.00023787	931.65	207.23	0.00022211	0.00023464	380.58	140.18	100.82	32.44	0.00022469	64.841	171.465	77.258	-62.696	-85.051	21.026	-76.313	-84.995	-80.694	-16.229	43.531	-81.498	-77.505	-77.084	-72.392	-18.442	-73.341	-8191	255	
1720.761	1	1	0	0	0.10314	0.090799	0.13912	0.10368	0.2048	0.16285	0.063854	0.021145	0.26114	0.072281	0.33818	0.17624	0.22744	0.11588	0.083686	0.18261	-2.0979	-1.6375	-2.2542	-2.1146	-1.5833	-2.4792	-1.8833	-1.9021	-2.575	-1.6833	-2.3271	-2.3354	-1.525	-2.5521	-2.0708	-2.0208	74.714	109.094	-64.090	205.392	-67.615	148.384	169.138	-78.619	77.183	189.154	227.423	-89.074	209.066	240.119	200.905	-90.726	0.00016187	0.00069019	0.00040938	580.26	1.0326e-05	1.4534e-05	812.2	162.79	7.5678e-06	2.1525e-05	290.7	114.14	57.706	23.825	8.2127e-06	53.703	0.014518	0.02046	0.0057158	712.46	0.00021122	0.00022449	924.63	203.8	0.00020791	0.00021982	372.44	137.42	97.02	31.586	0.00020562	63.7	173.316	22.002	115.962	-84.985	140.668	133.327	-85.293	-81.169	112.791	-34.149	-81.516	-77.384	-76.982	-72.812	201.733	-73.112	-8191	255	
1720.857	1	1	0	0	0.21754	0.3218	0.25107	0.062893	0.09496	0.054446	0.19924	0.26663	0.10334	0.055665	0.12368	0.16571	0.17827	0.23388	0.2012	0.028807	-2.1083	-1.625	-2.0875	-2.5292	-1.5167	-2.4521	-2.2042	-1.8792	-2.4458	-1.5583	-2.2292	-2.3688	-1.5229	-2.6146	-2.0167	-1.5917	76.921	173.667	174.595	238.510	-7.566	-18.665	251.034	145.275	210.329	8.924	240.804	-15.849	28.780	199.569	22.052	-82.260	0.00038376	0.0017033	0.00026436	573.66	1.0074e-05	4.5843e-06	810.68	160.65	8.4918e-06	1.6518e-05	284.83	111.56	55.854	23.351	1.2342e-05	52.357	0.013392	0.018817	0.0052467	696.07	0.00019075	0.00019967	907.14	196.37	0.00018497	0.00019384	357.59	132.12	90.896	30.079	0.00018357	61.316	218.399	39.927	223.150	-85.467	107.193	147.869	-85.174	-81.186	-22.896	90.906	-81.455	-77.493	-76.692	-72.565	60.901	-72.986	-8191	255	
1720.953	1	1	0	0	0.11542	0.18275	0.093909	0.18893	0.15637	0.1392	0.087054	0.20746	0.35199	0.37622	0.062232	0.19201	0.089791	0.059793	0.056835	0.3318	-2.0771	-1.7313	-1.9667	-2.6063	-1.6	-2.3937	-2.325	-1.6604	-2.3542	-1.6583	-1.9167	-2.4771	-1.4354	-2.2125	-2.1625	-1.8083	-66.278	30.880	167.861	-63.725	173.382	-34.018	12.192	255.517	-15.346	111.572	-43.380	-72.151	49.334	16.721	126.402	257.659	0.00017574	0.0015509	0.00023527	579.07	9.8088e-06	1.6485e-05	813.94	161.22	1.393e-06	1.575e-05	285.39	111.73	55.912	22.929	9.8517e-06	52.239	0.01213	0.017303	0.0048902	692.28	0.00018114	0.00019101	905.08	195.28	0.0001791	0.00018775	353.9	131	89.451	29.648	0.00017858	60.987	231.137	83.747	222.903	-84.470	250.466	185.605	-85.188	-80.600	113.478	79.273	-81.162	-77.602	-77.555	-72.102	81.827	-73.187	-8191	255	
1721.049	1	1	0	0	0.33516	0.23438	0.2772	0.11626	0.061042	0.17702	0.071521	0.14022	0.18864	0.066063	0.22485	0.17589	0.15545	0.1258	0.088363	0.24103	-2.1854	-1.8146	-1.9062	-2.5312	-1.3188	-2.1437	-2.3958	-1.3479	-2.2229	-1.9417	-1.9	-2.4188	-1.8396	-2.1229	-2.35	-1.7417	88.443	-61.981	147.987	186.103	210.266	-97.764	-47.611	24.284	8.165	239.551	251.471	176.383	250.349	48.185	192.278	259.100	0.00028055	0.0012441	0.00032763	574.25	7.1847e-06	5.0573e-06	810.1	160.4	3.9635e-06	2.8804e-06	283.59	111.55	56.584	23.383	2.1483e-05	52.941	0.011815	0.016882	0.0047919	682.68	0.00017744	0.00018908	896.26	193.08	0.00017514	0.00018418	350.95	130.42	88.498	29.732	0.0001727	61.235	189.211	173.616	-1.830	-84.996	100.061	100.104	-84.802	-80.835	4.209	-18.629	-81.355	-76.900	-77.241	-72.623	121.627	-72.720	-8191	255	
1721.168	1	1	0	0	0.10152	0.091899	0.072519	0.13564	0.063226	0.072301	0.15926	0.13424	0.17406	0.16068	0.27069	0.052097	0.19993	0.060626	0.16512	0.20929	-2.0667	-2.1125	-1.6333	-2.5042	-1.4375	-2.1479	-2.5021	-1.6833	-2.2417	-2.075	-1.7167	-2.6625	-1.7083	-1.9083	-2.4062	-1.8042	257.616	98.392	58.661	165.378	122.954	-98.271	142.951	-61.559	99.200	132.390	-59.344	-68.240	147.767	119.592	-52.342	-43.173	2.9541e-05	0.0013562	0.00036511	574.58	1.1344e-05	1.2544e-05	804.95	159.87	2.5414e-06	1.5056e-05	284.67	111.82	55.85	23.36	4.1863e-06	53.51	0.011416	0.01633	0.0045945	677.23	0.00017127	0.00018136	889.87	192.11	0.00016942	0.0001794	348.23	129.76	86.699	29.505	0.00016115	60.987	254.185	-60.754	-21.295	-85.043	28.868	67.675	-84.994	-80.919	220.905	-57.529	-81.412	-76.818	-77.781	-72.471	-31.465	-72.924	-8191	255	
1721.241	1	1	0	0	0.078642	0.067909	0.23255	0.41453	0.21057	0.23077	0.21397	0.17187	0.21312	0.22367	0.23573	0.08422	0.10824	0.16605	0.25096	0.21158	-2.0521	-2.0021	-1.6042	-2.425	-1.7417	-1.925	-2.6542	-1.7875	-2.2188	-2.3708	-1.7333	-2.4708	-1.8458	-1.9146	-2.4062	-1.8146	83.154	168.454	219.975	213.654	202.621	-23.308	169.260	87.912	-39.238	214.938	-25.600	-56.272	108.541	15.028	172.178	119.571	0.00020524	0.00084668	0.00017648	572.07	1.0301e-05	2.0676e-05	795.38	157.39	4.0731e-06	1.0743e-05	280.98	111.13	55.181	23.682	1.5064e-05	53.588	0.010378	0.014719	0.0041296	661.17	0.00015193	0.00016166	869.14	185	0.00015214	0.00016115	339.42	127.54	84.484	29.455	0.00015636	60.955	167.984	124.824	174.877	-84.909	-52.618	2.155	-84.752	-80.618	50.194	-12.278	-80.516	-77.013	-76.970	-72.164	124.893	-73.133	-8191	255	
1721.336	1	1	0	0	0.095916	0.24099	0.16339	0.29038	0.23295	0.080122	0.23665	0.06133	0.043445	0.12414	0.078509	0.10813	0.32009	0.10474	0.18189	0.18241	-1.7583	-2.2	-1.5063	-2.3688	-1.9875	-1.9354	-2.725	-1.8062	-1.9646	-2.3479	-1.6729	-2.5312	-2.0458	-1.7979	-2.5625	-1.9125	235.364	15.212	25.062	245.602	146.782	212.218	195.797	208.292	217.297	74.829	-26.271	233.212	198.676	-77.950	142.995	210.182	0.00020401	8.134e-05	0.00020202	570.7	2.0298e-06	7.3973e-06	799.85	157.64	8.5495e-06	1.716e-05	283.19	110.58	55.194	23.496	8.5536e-06	53.191	0.010312	0.014729	0.0041166	660.2	0.00015405	0.00016524	873.64	186.81	0.00015755	0.000166	342.17	127.91	85.847	29.519	0.00016407	60.837	248.586	107.190	150.311	-84.776	93.399	155.497	-85.214	-80.922	236.033	-89.566	-81.319	-76.740	-77.019	-72.083	73.037	-73.131	-8191	255	
1721.434	1	1	0	0	0.29921	0.092992	0.1771	0.17064	0.13955	0.30696	0.2295	0.13584	0.3128	0.1334	0.19698	0.068524	0.18571	0.11779	0.13353	0.067121	-1.4875	-2.3542	-1.6688	-2.5125	-2.1958	-1.7458	-2.5062	-1.975	-1.8438	-2.4271	-1.575	-2.3563	-2.1562	-1.6292	-2.5667	-1.9667	-93.096	207.822	62.081	249.737	124.283	6.979	157.024	183.733	-74.225	33.522	190.777	-92.579	10.004	222.214	9.972	164.129	6.2296e-05	0.00025227	0.0002261	578.17	1.2123e-06	9.6421e-06	801.2	158.11	2.6107e-06	1.4781e-05	282.72	111.82	56.229	23.197	9.3215e-06	52.691	0.01103	0.015827	0.004494	675.02	0.00016787	0.0001803	889.91	191.22	0.00017125	0.00018223	350.23	130.73	89.145	29.979	0.00017965	61.574	189.442	-3.501	-18.804	-84.858	155.698	-81.800	-84.667	-80.701	160.397	252.327	-81.202	-76.925	-77.266	-72.221	85.148	-73.346	-8191	255	
1721.552	1	1	0	0	0.28333	0.18065	0.15514	0.24934	0.30295	0.19915	0.085915	0.27687	0.22228	0.087101	0.01439	0.31617	0.12208	0.16262	0.13779	0.17142	-1.3896	-2.5083	-1.7229	-2.4458	-2.0708	-1.7771	-2.7229	-2.0438	-1.9646	-2.5375	-1.7833	-2.15	-2.3271	-1.6521	-2.425	-2.0104	-1.261	63.325	8.493	186.539	112.158	-48.280	120.860	-79.731	171.732	195.006	216.672	-26.733	-24.289	211.031	-3.985	261.230	0.00016404	0.0011133	0.00026666	578.92	5.5982e-06	1.9227e-05	814.17	161.83	1.1117e-05	8.4808e-06	289.57	111.97	57.002	23.118	7.2158e-06	52.468	0.012044	0.017125	0.0048451	690.34	0.00018351	0.00019796	910.56	197.49	0.00018851	0.00020068	363.08	134.05	94.338	30.655	0.00019939	62.121	222.087	249.125	257.297	-84.784	-64.443	-3.032	-84.917	-80.555	-11.567	-60.909	-81.225	-76.713	-77.141	-72.517	69.837	-72.979	-8191	255	
1721.649	1	1	0	0	0.17513	0.21411	0.31657	0.25018	0.04486	0.083719	0.070972	0.12559	0.25541	0.21613	0.12999	0.24858	0.079207	0.20776	0.070675	0.1819	-1.3208	-2.5417	-1.7896	-1.9312	-2.3063	-1.7583	-2.5458	-2.325	-1.8229	-2.6542	-1.8104	-1.925	-2.4833	-1.4625	-2.2271	-2.2313	-52.875	80.738	90.599	191.812	-65.087	-90.108	-67.443	3.081	111.679	-89.414	180.480	-39.447	13.389	47.393	62.624	256.223	0.00030955	0.00067581	0.00033175	589.73	8.9178e-06	1.1067e-05	832.81	164.99	3.6894e-06	1.7752e-05	295.16	113.3	57.684	22.672	1.01e-05	51.843	0.013175	0.018614	0.0051957	709.14	0.00019263	0.00020715	929.15	202.15	0.00019573	0.00020812	369.86	135.96	95.592	30.726	0.00020602	62.081	238.852	103.178	110.447	-84.831	131.852	197.919	-84.571	-80.757	45.178	12.167	-80.916	-76.602	-76.898	-72.452	75.372	-72.667	-8191	255	
1721.745	1	1	0	0	0.072956	0.16828	0.25673	0.15672	0.069982	0.13659	0.14543	0.21291	0.071171	0.26567	0.21416	0.32516	0.21627	0.076149	0.057282	0.22579	-1.2292	-2.5125	-1.9958	-1.8396	-2.5771	-1.4792	-2.4833	-2.4667	-1.7771	-2.5229	-1.9604	-2.1333	-2.4313	-1.55	-2.1167	-2.3708	109.320	51.493	66.895	215.506	212.822	66.059	247.921	-34.116	212.583	-32.595	204.879	158.727	105.864	228.652	63.164	192.646	0.00013642	0.00052728	0.00049083	594.15	8.8882e-06	6.5966e-06	826.75	162.52	9.5449e-06	2.145e-05	287.21	110.69	55.94	22.957	3.6892e-06	51.461	0.013596	0.01938	0.0054174	716.31	0.00019897	0.00020792	925.16	199.82	0.00018867	0.00019666	358.02	131.56	89.849	29.497	0.0001746	59.868	244.241	44.360	122.885	-84.523	-33.472	-81.923	-84.809	-80.781	18.851	106.251	-81.455	-76.641	-76.857	-72.154	38.663	-73.109	-8191	255	
1721.865	1	1	0	0	0.24678	0.213	0.07645	0.19798	0.20641	0.37473	0.17335	0.064206	0.17729	0.34278	0.083694	0.39282	0.17462	0.12376	0.14864	0.36879	-1.1667	-2.2833	-2.1021	-1.8771	-2.5521	-1.5688	-2.3521	-2.4437	-1.4937	-2.4833	-2.0083	-1.8563	-2.6104	-1.7208	-2.2292	-2.4625	227.010	89.896	36.689	-87.058	150.128	-95.613	38.887	148.548	96.298	96.652	-63.682	199.935	100.472	230.723	-7.491	206.572	0.00013574	0.0018292	0.00030247	571.62	4.334e-06	3.3013e-06	799.71	157.05	4.9284e-06	1.0811e-05	281.95	110.07	54.923	23.222	1.8491e-05	52.499	0.011246	0.015586	0.0043466	668.73	0.00015817	0.00016672	874.48	186.11	0.00015226	0.00016117	337.44	126.62	83.41	28.643	0.00015192	59.398	224.058	198.046	-4.534	-85.137	-67.048	84.547	-84.928	-80.815	166.579	-76.329	-81.561	-76.814	-77.259	-72.674	-53.396	-73.035	-8191	255	
1721.937	1	1	0	0	0.23635	0.20867	0.29045	0.13304	0.044718	0.13953	0.067883	0.2162	0.31703	0.34659	0.13549	0.12706	0.24754	0.066095	0.058178	0.11264	-1.2771	-2.4729	-2.1167	-1.7479	-2.6125	-1.6958	-1.9833	-2.3937	-1.5792	-2.2896	-2.3187	-1.9208	-2.3583	-1.9937	-1.9625	-2.4875	115.813	-47.211	77.784	-37.377	227.530	112.044	229.755	61.643	-46.113	-36.071	229.052	251.330	156.370	144.466	-89.096	225.258	0.00014126	0.00094962	0.00016775	573.6	1.1611e-05	6.4692e-06	801.91	158.04	3.8955e-06	2.2464e-05	280.45	110.4	55.101	23.371	3.2958e-06	52.984	0.010033	0.014367	0.0040001	658.8	0.00014831	0.0001575	868.96	184.66	0.0001467	0.00015502	337.25	126.53	83.348	28.871	0.00015114	59.988	213.424	82.320	43.099	-84.828	229.851	-41.679	-84.826	-80.310	-63.382	39.508	-81.376	-77.092	-76.813	-72.098	131.350	-73.174	-8191	255	
1722.033	1	1	0	0	0.15823	0.20204	0.14543	0.02478	0.033808	0.093017	0.26063	0.092183	0.14673	0.22596	0.37506	0.27792	0.1063	0.26667	0.13603	0.3014	-1.2563	-2.3021	-2.3354	-1.7792	-2.5479	-1.9646	-2.2188	-2.4688	-1.6208	-2.3625	-2.3854	-1.7917	-2.4729	-2.0708	-1.9312	-2.6063	-37.684	-27.377	-87.747	234.410	146.501	12.834	181.988	-41.151	159.204	-9.429	193.591	204.973	-45.169	117.956	16.233	232.136	0.00032393	0.00030495	0.00029669	574.8	3.3659e-06	8.8383e-06	800.38	157.81	6.8623e-07	9.0585e-06	282.61	111.07	56.175	23.414	1.3867e-05	52.926	0.0099462	0.014159	0.0039529	656.41	0.00014651	0.00015606	868.23	184.97	0.0001478	0.00015866	338.85	127.53	84.532	29.325	0.00015757	60.415	205.279	-35.514	-87.394	-85.056	261.015	38.386	-84.783	-80.932	-85.239	170.032	-81.300	-77.029	-76.424	-72.286	121.517	-73.280	-8191	255	
1722.154	1	1	0	0	0.23692	0.091529	0.090786	0.047575	0.045896	0.14317	0.088516	0.17192	0.22417	0.17135	0.14128	0.19843	0.05613	0.13529	0.17438	0.2159	-1.3937	-2.1521	-2.3396	-1.8271	-2.4417	-2.0938	-1.9958	-2.4646	-1.8687	-1.75	-2.4188	-1.5396	-2.2875	-2.1312	-1.6688	-2.7417	197.882	180.643	189.933	-81.625	37.467	-42.726	81.477	-7.858	182.395	207.453	158.046	104.500	-49.517	63.118	90.577	133.667	0.00021434	0.0013223	9.1745e-05	569.32	5.4489e-06	1.9879e-05	795.05	155.92	7.7255e-06	3.2735e-06	279.95	110.43	54.845	23.509	1.1932e-05	52.449	0.010355	0.014712	0.0041042	659.63	0.00015272	0.00016222	868.43	184.91	0.00015181	0.00016115	337.34	126.89	84.122	29.129	0.00015594	59.939	243.774	31.362	49.927	-84.943	50.855	154.261	-84.905	-80.455	97.874	133.588	-81.379	-76.923	-76.866	-72.658	105.701	-73.025	-8191	255	
1722.248	1	1	0	0	0.2082	0.13284	0.14191	0.31071	0.25113	0.067045	0.20099	0.20899	0.16255	0.1456	0.16635	0.39676	0.16074	0.30693	0.14969	0.32449	-1.3396	-1.9292	-2.55	-1.6229	-2.1292	-2.2083	-1.6333	-2.5458	-1.8271	-1.8771	-2.7	-1.8583	-2.2479	-2.2062	-1.6146	-2.4813	-19.137	211.833	14.779	181.590	-27.955	96.395	202.129	145.732	-59.476	58.170	119.607	250.209	197.595	-88.016	-62.066	212.560	0.0001675	0.00072645	0.00052416	565.78	4.299e-06	8.3721e-06	800.02	157.75	1.322e-05	1.2692e-05	281.38	110.8	55.531	23.446	1.3677e-05	52.663	0.010317	0.014685	0.0041242	659.87	0.00015502	0.00016578	870.88	186.24	0.00015549	0.00016468	339.54	127.03	84.634	29.162	0.00015633	60.053	214.519	50.737	0.561	-84.717	43.900	37.860	-84.895	-80.613	99.543	12.839	-81.222	-76.681	-76.653	-72.696	176.574	-72.910	-8191	255	
1722.344	1	1	0	0	0.23537	0.056502	0.21071	0.24497	0.34299	0.055539	0.049973	0.18354	0.030143	0.28569	0.053012	0.18905	0.15079	0.37848	0.15813	0.16621	-1.5792	-1.7167	-2.4458	-1.9104	-2.1375	-2.4167	-1.75	-2.4562	-1.9229	-1.7021	-2.7375	-1.8917	-2.2208	-2.4375	-1.7042	-2.425	47.795	206.999	161.021	58.357	199.763	119.728	3.116	122.115	19.758	-69.789	-52.975	244.224	242.838	-88.053	107.276	84.362	0.00024957	0.0012699	0.00043505	569.11	8.5775e-06	2.1728e-06	792.45	155.74	5.9159e-06	5.998e-06	279.73	110.43	55.354	23.579	9.163e-06	53.052	0.010133	0.014413	0.0040143	654.51	0.0001476	0.00015591	861.09	182.82	0.00014542	0.00015316	333.43	126.1	82.582	29	0.00014881	60.075	179.274	121.820	-14.038	-84.809	79.454	86.505	-84.442	-80.313	132.601	236.620	-81.128	-76.552	-76.702	-72.181	-26.783	-72.968	-8191	255	
1722.465	1	1	0	0	0.22445	0.073266	0.21058	0.13471	0.35738	0.046541	0.19488	0.35286	0.2154	0.11761	0.064837	0.29861	0.045964	0.18553	0.20103	0.055852	-1.5708	-1.4896	-2.4958	-1.9375	-2.0292	-2.3896	-1.7083	-2.2646	-2.0958	-1.7354	-2.7521	-2.0458	-1.8563	-2.4708	-1.6083	-2.3833	249.816	-21.070	190.158	-81.225	81.880	77.780	126.880	186.096	16.837	-31.532	94.126	-22.676	243.568	114.644	91.282	220.848	0.0002483	0.0014025	0.00017107	567.98	6.8965e-06	9.5404e-06	799.15	156.11	6.7883e-07	1.3856e-05	281.52	112	54.942	23.471	8.6448e-06	52.915	0.0098025	0.013999	0.0039479	653.95	0.00014576	0.00015498	864.11	183	0.00014176	0.00014858	332.46	126.07	81.298	28.602	0.00013918	59.369	181.957	-11.822	-93.971	-84.742	-82.184	152.016	-84.660	-80.447	-3.557	115.261	-80.889	-76.617	-76.291	-72.364	24.397	-72.573	-8191	255	
1722.537	1	1	0	0	0.14116	0.099003	0.097206	0.2269	0.20276	0.12942	0.099358	0.11314	0.12064	0.26774	0.017931	0.18902	0.25694	0.073956	0.20383	0.080473	-1.8854	-1.6313	-2.5417	-1.9688	-1.8354	-2.6979	-1.6979	-2.2938	-2.3812	-1.7375	-2.5062	-2.2833	-1.8146	-2.4583	-1.725	-2.2875	236.542	31.016	1.607	155.300	-51.257	21.657	162.678	259.955	29.963	63.597	105.996	151.213	205.768	168.979	46.717	-28.769	0.00027432	5.3017e-05	0.00015796	567.62	1.6803e-05	1.2407e-05	797.09	156.34	8.2215e-06	1.3624e-05	279.89	110.42	55.506	23.371	5.5286e-06	53.49	0.00906	0.012849	0.0036164	644.36	0.00013395	0.00014131	854.24	180.59	0.00013576	0.00014299	328.91	124.57	80.305	28.351	0.00013599	59.251	261.739	89.594	-70.819	-84.664	-13.154	184.504	-84.648	-80.058	-22.969	-2.195	-81.091	-76.781	-76.795	-72.192	-96.904	-72.980	-8191	255	
1722.633	1	1	0	0	0.12559	0.32462	0.12431	0.34056	0.16821	0.077026	0.19833	0.058339	0.22923	0.13779	0.24316	0.076757	0.24627	0.04921	0.27277	0.1566	-1.9438	-1.4979	-2.3146	-2.0812	-1.6958	-2.4688	-1.7958	-2.0333	-2.3625	-1.55	-2.5958	-2.0854	-1.5625	-2.4917	-1.5167	-2.0083	161.213	98.108	101.515	241.098	-37.784	111.839	202.882	148.393	41.594	-42.404	-70.531	5.361	-17.114	-54.871	199.958	-35.869	0.00014094	0.00087089	5.7692e-05	565.53	5.9052e-06	8.3255e-06	782.8	154.99	2.9054e-06	1.0902e-05	277.3	109.38	54.467	23.922	1.0342e-05	54.144	0.0087889	0.012492	0.0034724	635.64	0.00012855	0.00013587	838.89	177.43	0.00012677	0.00013411	322.6	123.3	78.554	28.495	0.00012977	59.933	243.091	57.156	246.864	-84.941	211.074	204.669	-85.115	-80.440	-16.845	-21.273	-80.821	-76.761	-76.541	-72.473	2.716	-73.073	-8191	255	
1722.729	1	1	0	0	0.22272	0.15584	0.062834	0.18649	0.27397	0.14358	0.030045	0.42148	0.11737	0.10368	0.088817	0.22527	0.22459	0.09244	0.19054	0.062433	-2.0021	-1.3917	-2.2583	-2.2542	-1.7563	-2.4417	-1.9521	-1.9021	-2.5021	-1.4	-2.3563	-2.2792	-1.475	-2.6063	-1.8896	-1.7583	32.205	168.723	152.704	77.006	167.284	-4.539	225.473	212.464	64.652	177.422	96.611	86.568	149.379	141.860	28.447	188.611	0.00028323	0.00052532	0.00037225	557.42	9.22e-06	1.5148e-05	780.79	155.58	1.2755e-05	1.7971e-06	279.98	112.47	55.484	24.489	3.2565e-05	54.966	0.008668	0.012357	0.0035185	633.99	0.00013351	0.00014376	843.83	180.13	0.00014009	0.00014989	332.94	128.2	83.781	29.983	0.00015203	62.173	237.803	24.468	-83.820	-85.077	-82.979	217.238	-84.542	-80.618	32.754	106.529	-80.763	-76.858	-76.897	-71.984	57.520	-73.041	-8191	255	
1722.850	1	1	0	0	0.091714	0.26849	0.13762	0.42897	0.25838	0.18896	0.081979	0.2073	0.10902	0.28149	0.23051	0.17949	0.16162	0.15845	0.13044	0.23643	-2.0792	-1.6083	-2.1312	-2.4854	-1.5292	-2.4604	-2.1646	-1.6333	-2.3	-1.6417	-2.0729	-2.4542	-1.5521	-2.3979	-1.9479	-1.8667	147.699	215.256	133.670	255.784	59.966	-36.970	249.514	167.595	249.981	-34.252	229.697	207.116	253.020	157.832	-53.221	245.054	0.00018006	0.0012945	8.3777e-05	559.02	4.0792e-06	4.5015e-06	779.58	155.34	6.9296e-06	6.3287e-06	282.34	112.7	56.084	24.697	3.6144e-06	55.116	0.010237	0.014646	0.0041261	650.17	0.00015263	0.00016239	855.06	183.81	0.00014921	0.00015619	335.72	128.49	83.577	29.886	0.00014399	61.488	228.273	-50.181	117.277	-84.826	21.118	-89.120	-84.869	-80.313	220.311	140.339	-81.153	-77.121	-76.651	-72.023	195.756	-72.780	-8191	255	
1722.946	1	1	0	0	0.083485	0.15526	0.15662	0.077229	0.13089	0.1975	0.2701	0.1478	0.072454	0.085322	0.14622	0.14052	0.20025	0.26248	0.3855	0.29889	-2.2125	-1.6458	-2.0729	-2.5604	-1.4333	-2.375	-2.1833	-1.4312	-2.5417	-1.7396	-2.0687	-2.5625	-1.85	-2.1854	-2.3125	-1.8521	-17.594	256.415	80.617	-79.233	235.254	163.204	238.824	-13.762	259.791	22.954	151.073	184.912	176.719	-70.656	-34.310	160.552	0.00011756	0.001195	0.00025785	560.02	4.0044e-06	1.8824e-05	782.87	156.53	5.9633e-06	8.0439e-06	280.72	111.85	55.581	23.854	5.9326e-06	53.936	0.0093947	0.013276	0.0036948	640.33	0.00013625	0.00014665	849.77	181.58	0.0001397	0.00014936	332.53	127.2	82.553	29.184	0.0001456	60.491	-98.369	21.210	33.335	-84.636	-60.236	-23.093	-85.103	-80.484	230.038	102.262	-80.711	-76.426	-76.863	-72.211	142.516	-72.937	-8191	255	
1723.042	1	1	0	0	0.16912	0.40261	0.039145	0.20544	0.25117	0.14379	0.23734	0.27767	0.21756	0.21414	0.16709	0.16989	0.10543	0.056753	0.22047	0.21562	-2.0625	-1.8625	-1.5938	-2.6688	-1.5854	-2.1188	-2.3396	-1.7167	-2.5687	-2.0458	-1.9604	-2.4646	-1.6896	-2.1604	-2.3312	-1.8521	163.472	167.793	-7.391	-93.890	219.597	156.127	220.319	156.576	25.579	182.762	-60.558	-82.021	84.808	0.923	28.148	-47.382	0.00022772	0.00039699	0.00023744	566.38	3.6946e-06	1.8928e-05	782.48	155.75	7.3974e-06	8.9268e-06	279.41	111.42	55.536	24.426	4.43e-06	54.742	0.0094908	0.013447	0.0037066	644.31	0.00013852	0.00014626	846.38	180.35	0.00013821	0.00014606	330.24	126.1	81.971	29.514	0.00014075	61.035	195.492	192.545	-82.305	-84.971	89.116	30.913	-85.096	-80.996	60.626	116.190	-81.496	-77.407	-76.594	-72.593	89.991	-73.062	-8191	255	
1723.136	1	1	0	0	0.19608	0.19398	0.38134	0.38354	0.17643	0.08866	0.10343	0.16167	0.11337	0.22406	0.2132	0.093703	0.10438	0.039763	0.29522	0.040645	-1.8479	-2.0875	-1.7604	-2.5708	-1.8104	-1.9875	-2.5792	-1.6521	-2.3604	-2.3042	-1.7104	-2.5271	-1.85	-2.1813	-2.4562	-1.7646	-55.413	114.974	237.815	226.635	231.624	82.051	242.773	228.464	-95.617	-77.434	-66.579	-37.897	91.254	53.312	236.884	196.077	0.00014193	0.00095698	0.0004177	550.61	3.7916e-06	2.1526e-05	773.65	151.32	4.2993e-06	1.0826e-05	274.89	111.74	55.141	25.116	1.7126e-05	55.989	0.0091165	0.012753	0.0035343	627.7	0.00012725	0.00013303	826.93	173.59	0.00012051	0.00012531	317.01	123.71	76.557	29.121	0.00011826	60.901	160.309	-39.124	38.355	-85.413	49.889	22.231	-85.396	-81.174	71.779	60.332	-81.317	-76.878	-77.234	-73.290	46.282	-73.708	-8191	255	
1723.232	1	1	0	0	0.12875	0.19491	0.056412	0.10745	0.030041	0.16946	0.1586	0.10804	0.12021	0.11613	0.24237	0.18766	0.078567	0.2701	0.36414	0.35543	-1.9375	-2.3271	-1.5187	-2.5417	-1.8458	-1.6396	-2.4854	-1.6229	-2.1208	-2.2479	-1.6208	-2.625	-1.7833	-1.6437	-2.4854	-1.8854	32.803	-6.579	143.615	123.307	-39.289	201.164	-37.408	-29.335	172.693	-98.058	219.096	-0.322	-26.340	216.392	240.842	186.891	5.8069e-05	0.0008472	0.00028419	559.9	4.9038e-06	1.1107e-05	778.7	154.52	5.0356e-06	2.0497e-05	280.3	112.63	55.664	24.777	7.403e-06	54.938	0.0078382	0.01117	0.0031624	621.42	0.00011927	0.00012768	831.29	175.66	0.00012354	0.00013034	323.57	125.63	79.487	29.246	0.00012993	60.861	193.355	20.616	-4.216	-85.514	-34.296	-14.937	-85.374	-80.704	-41.371	117.429	-81.735	-77.339	-77.009	-72.802	24.501	-73.716	-8191	255	
1723.329	1	1	0	0	0.1751	0.13725	0.20249	0.36819	0.11065	0.22799	0.048579	0.14177	0.13506	0.41313	0.10458	0.21881	0.17631	0.25053	0.10196	0.31394	-1.7396	-2.2687	-1.8438	-2.5729	-1.9396	-1.9396	-2.6771	-1.8375	-2.0146	-2.4167	-1.8312	-2.4271	-2.0042	-1.8667	-2.6146	-1.8563	-16.405	122.686	-32.050	121.485	186.122	5.996	215.925	-90.992	91.996	192.473	45.972	57.570	33.744	242.481	-34.342	255.586	0.00018273	0.00082383	0.00016592	571.83	1.6616e-05	3.8291e-06	791.07	156.14	4.4782e-06	2.8624e-05	279.7	111.27	56.102	24.307	7.8734e-06	54.563	0.0088067	0.012509	0.003542	644.21	0.00013168	0.00014089	852.33	180.51	0.00013329	0.00014141	329.95	126.26	81.874	29.565	0.00014556	61.115	258.250	-59.936	93.175	-85.125	53.312	-48.371	-85.557	-81.276	50.147	68.495	-81.372	-77.524	-77.805	-73.114	5.410	-73.630	-8191	255	
1723.425	1	1	0	0	0.20821	0.33504	0.067908	0.13671	0.1753	0.25195	0.084555	0.35595	0.074599	0.27163	0.25409	0.42393	0.30911	0.28895	0.17214	0.21169	-1.4937	-2.3771	-1.725	-2.4979	-2.1708	-1.7313	-2.5125	-1.9729	-2.0646	-2.3792	-1.7146	-2.4771	-2.1417	-1.4771	-2.3771	-1.8792	-60.750	66.796	62.112	-76.568	-83.144	-44.404	180.518	212.338	186.573	-34.961	26.497	163.515	188.996	223.481	-75.343	198.763	0.00022416	0.00044343	0.00042451	569.18	3.6601e-06	1.8364e-05	786.28	156.36	9.3021e-06	9.2869e-06	279.44	111.83	55.816	24.716	1.0965e-05	55.192	0.0098166	0.013998	0.0039607	652.4	0.00014659	0.00015619	856.64	182.82	0.00014523	0.0001527	332.87	127.66	83.414	30.085	0.00014924	62.053	212.431	-24.384	207.170	-85.502	224.650	17.392	-85.410	-81.022	-23.476	-92.813	-81.420	-77.294	-77.178	-73.515	51.827	-73.711	-8191	255	
1723.545	1	1	0	0	0.040672	0.31243	0.11108	0.14655	0.05169	0.10381	0.11562	0.097627	0.29518	0.15196	0.16856	0.17011	0.11553	0.15486	0.11257	0.15219	-1.3604	-2.4813	-1.6917	-2.2	-2.3063	-1.7	-2.7438	-2.0229	-1.8667	-2.5438	-1.5333	-2.4562	-2.3979	-1.7917	-2.5146	-2.0667	17.387	173.071	248.280	17.611	147.775	-31.779	52.544	9.938	21.573	-67.761	193.752	-82.899	235.771	-20.369	9.947	166.889	0.00012377	0.0017644	0.00062265	565.71	5.8163e-06	1.3956e-05	784.32	155.96	6.9446e-06	1.0462e-05	282.1	112.83	55.545	24.776	5.5035e-06	55.277	0.010046	0.014407	0.0040718	653.3	0.00015293	0.00016261	858.34	184.87	0.00015377	0.00016264	338.46	129.38	84.617	30.277	0.00015089	62.076	249.027	-19.248	5.713	-84.951	200.242	-31.353	-85.521	-81.090	-77.643	-7.892	-82.139	-77.087	-77.366	-72.808	176.581	-74.016	-8191	255	
1723.642	1	1	0	0	0.21812	0.09407	0.1303	0.18742	0.045118	0.17078	0.26573	0.12524	0.1242	0.17136	0.15663	0.053466	0.20301	0.022421	0.096298	0.10047	-1.4792	-2.4542	-1.7396	-1.9792	-2.5625	-1.6375	-2.5187	-2.0708	-1.5396	-2.5458	-1.7125	-1.9792	-2.4958	-1.7979	-2.2583	-2.3542	77.646	138.436	245.679	186.930	100.759	204.279	168.497	255.158	-87.365	-60.188	-45.136	52.794	-25.969	-11.378	-76.372	206.233	0.00011871	0.00076333	0.00024991	562.3	9.284e-06	3.6406e-06	788.28	156.15	4.9697e-06	8.982e-07	279.81	113.05	56.255	24.877	7.7842e-06	55.349	0.0096363	0.013573	0.0037705	643.06	0.00013867	0.0001487	849.95	181.26	0.00014046	0.00014861	332.38	128.33	82.651	29.936	0.00014259	61.86	-94.033	23.253	-20.531	-85.629	33.265	160.373	-85.430	-81.117	37.483	40.277	-81.501	-77.592	-77.097	-73.573	84.213	-73.910	-8191	255	
1723.738	1	1	0	0	0.1252	0.080667	0.14771	0.088224	0.24162	0.18536	0.18406	0.29151	0.089832	0.11629	0.15234	0.18071	0.20515	0.065028	0.087436	0.17501	-1.3333	-2.3854	-1.8271	-1.9333	-2.4917	-1.6521	-2.5146	-2.2521	-1.7271	-2.4188	-2.0417	-1.9521	-2.6	-1.6521	-2.1167	-2.5333	133.488	252.933	66.952	-49.748	-92.389	0.710	200.635	222.973	-61.482	156.429	100.504	-87.399	234.444	164.997	-32.236	37.851	0.00018947	0.00094621	0.000423	569.32	3.1158e-06	1.2681e-05	784.71	156.2	9.0856e-06	2.636e-06	280.03	111.71	56.336	24.687	1.9039e-05	55.361	0.0094856	0.013391	0.0037562	644.82	0.00013949	0.00015021	853.04	181.77	0.00014057	0.00014931	332.35	127.84	82.989	29.952	0.00014592	61.681	226.958	148.324	-4.048	-85.625	59.992	48.482	-85.634	-80.845	213.646	102.282	-81.484	-77.011	-77.343	-73.442	200.360	-73.378	-8191	255	
1723.834	1	1	0	0	0.22212	0.34173	0.29039	0.14902	0.2029	0.18065	0.23431	0.014937	0.37305	0.077201	0.20953	0.19047	0.22119	0.095337	0.097222	0.15103	-1.2354	-2.3187	-1.8958	-1.9104	-2.4938	-1.5625	-2.2562	-2.4958	-1.7188	-2.3458	-2.1271	-1.7313	-2.4938	-1.7854	-1.9667	-2.6354	241.562	154.816	110.832	-95.291	107.922	-87.972	242.481	186.655	77.184	236.875	18.751	-76.697	151.253	-21.778	202.586	243.916	0.00024482	0.00061594	0.00032385	564.54	7.4001e-06	5.9344e-06	784.41	154.96	2.0874e-06	1.3826e-05	279.27	112.62	56.042	24.57	1.4483e-05	54.82	0.0097158	0.013899	0.003908	648.93	0.00014682	0.0001565	855.84	182.72	0.00014706	0.0001542	333.1	127.84	83.091	29.748	0.00014251	61.231	233.356	41.960	129.628	-85.366	58.053	250.613	-85.436	-81.002	-49.604	120.814	-81.727	-77.292	-77.145	-73.141	96.201	-73.599	-8191	255	
1723.930	1	1	0	0	0.13215	0.080014	0.11719	0.49922	0.22988	0.0781	0.20961	0.078972	0.084648	0.16425	0.076485	0.099599	0.28502	0.34063	0.17555	0.25747	-1.0896	-2.3458	-2.0187	-1.8083	-2.5187	-1.8896	-1.9562	-2.3958	-1.5938	-2.45	-2.1958	-1.8042	-2.4875	-1.7417	-2.0229	-2.6937	46.306	110.952	-7.757	224.836	207.916	244.800	186.508	-39.320	233.772	-56.053	92.599	88.421	-82.358	-9.043	-35.907	237.329	0.00017458	0.002739	0.00053878	560.68	7.3334e-06	5.2487e-06	784.28	154.45	8.154e-06	9.314e-06	277.57	111.85	56.601	24.719	1.4824e-05	55.631	0.0093548	0.013169	0.0036923	640.11	0.00013728	0.00014607	847.88	179.93	0.00013749	0.00014513	328.93	126.92	81.622	29.6	0.00013476	61.535	229.069	31.464	-18.104	-85.421	47.533	-44.253	-85.780	-80.933	30.738	61.720	-81.778	-77.656	-77.631	-72.980	53.150	-74.086	-8191	255	
1724.026	1	1	0	0	0.25087	0.20186	0.18841	0.15031	0.2013	0.41233	0.072831	0.25288	0.065231	0.081558	0.25338	0.10117	0.21327	0.051119	0.33019	0.084139	-1.3292	-2.1312	-2.2271	-1.6917	-2.2729	-1.775	-1.8813	-2.6125	-1.8813	-2.225	-2.3979	-1.7667	-2.2833	-1.9125	-1.4104	-2.6229	256.155	120.157	80.881	95.488	-25.797	-54.852	229.943	63.731	244.221	137.107	230.410	89.330	-60.733	4.519	101.224	185.400	0.00015942	0.0013111	0.00039702	559.19	1.2095e-06	1.3282e-05	786.76	153.66	5.9028e-06	9.3096e-06	278.67	113.27	56.577	25.347	5.7683e-06	56.25	0.0087946	0.012379	0.0034289	630.63	0.00012676	0.00013374	837.49	176.69	0.00012505	0.00013305	323.79	126.55	79.965	29.907	0.0001289	62.182	-93.718	40.695	-68.243	-85.513	58.133	68.635	-85.559	-80.997	-92.249	99.164	-81.782	-77.212	-77.520	-73.006	34.212	-73.835	-8191	255	
1724.145	1	1	0	0	0.3355	0.12419	0.23355	0.32294	0.33641	0.22515	0.26341	0.22238	0.24031	0.20461	0.12777	0.26413	0.21504	0.11357	0.31735	0.14324	-1.1646	-2.025	-2.4854	-1.6167	-2.2625	-2.1833	-1.7833	-2.5604	-1.675	-1.9354	-2.4104	-1.625	-2.3312	-2.2021	-1.6562	-2.4917	-23.148	59.576	121.754	-98.411	240.639	187.924	184.128	141.478	176.494	-1.425	-78.022	171.231	252.999	-92.691	-4.097	221.452	0.0002545	0.0014199	0.00065502	559.1	1.1348e-05	3.0128e-05	775.7	153.11	1.1816e-05	1.0382e-06	277.81	114.47	56.324	25.813	2.6781e-06	57.586	0.0085186	0.012099	0.0033697	628.44	0.00012501	0.00013227	831.75	175.83	0.00012245	0.00012859	320.78	126.26	78.196	29.898	0.00011769	62.384	206.710	210.733	81.454	-85.483	99.094	37.096	-85.471	-80.818	68.349	129.430	-81.718	-77.049	-76.986	-73.810	-82.277	-73.494	-8191	255	
1724.241	1	1	0	0	0.074531	0.37792	0.26157	0.16762	0.28042	0.088639	0.055228	0.097726	0.084812	0.1265	0.1173	0.1408	0.040213	0.066725	0.14596	0.25103	-1.3479	-1.8958	-2.3646	-1.5938	-2.1	-2.1479	-1.7854	-2.6125	-1.7125	-1.9479	-2.7188	-1.6146	-2.2875	-2.325	-1.5333	-2.4042	-15.380	5.845	47.451	197.142	75.847	175.985	33.302	-63.808	32.152	77.605	251.490	216.247	3.111	214.076	93.298	171.142	0.00015468	0.00067562	0.00011847	551.6	3.6655e-06	2.1386e-05	767.49	150.31	3.6832e-06	4.4974e-06	276.15	113.25	56.245	25.818	2.2378e-05	57.086	0.0076356	0.010777	0.0030411	610.31	0.0001141	0.000122	817.69	172.5	0.00011997	0.00013092	321.62	127.04	80.997	30.626	0.00013803	63.541	231.290	59.227	-2.007	-85.895	214.732	-9.977	-85.266	-81.025	-57.519	201.580	-82.091	-77.062	-77.723	-73.290	54.628	-73.548	-8191	255	
1724.337	1	1	0	0	0.15596	0.24042	0.068748	0.080763	0.082143	0.052383	0.22532	0.2555	0.10908	0.10245	0.093099	0.068223	0.14594	0.20923	0.20699	0.1711	-1.4125	-1.7708	-2.4875	-1.6208	-2.0521	-2.3125	-1.5667	-2.5042	-1.9104	-1.7583	-2.6562	-1.7792	-2.1521	-2.3812	-1.6562	-2.3729	5.307	-51.238	130.373	177.504	249.919	100.455	175.386	-84.789	121.406	39.576	98.918	13.839	-88.407	134.639	-84.615	247.415	0.00012349	0.00070375	0.00023064	557.8	7.9226e-06	1.8943e-05	773.97	154.71	9.616e-06	1.5845e-05	281.28	115.65	57.116	25.833	6.5236e-06	56.878	0.0093331	0.013431	0.0037833	636.89	0.00014379	0.00015481	845.11	182.69	0.00015132	0.00016188	339.14	131.97	87.61	31.652	0.00016408	64.568	184.764	108.951	117.960	-85.765	187.915	147.711	-85.483	-80.640	214.694	61.443	-81.780	-77.880	-77.070	-73.126	73.468	-74.058	-8191	255	
1724.409	1	1	0	0	0.11966	0.080627	0.081977	0.26801	0.13301	0.15748	0.28611	0.067055	0.012598	0.34597	0.34968	0.33274	0.077607	0.039403	0.20672	0.064285	-1.8958	-1.4167	-2.3479	-1.6688	-1.8896	-2.3438	-1.6187	-2.2896	-2.1646	-1.5375	-2.4771	-1.7125	-2.05	-2.6792	-1.6437	-2.4354	80.739	0.826	-36.573	-80.211	247.075	71.705	190.127	-19.210	148.799	-50.545	-88.270	182.548	-32.419	194.529	43.795	-78.299	0.0001822	0.0011552	0.00011444	563.72	5.4276e-06	7.4915e-06	785.05	156.57	7.6638e-06	9.9028e-06	283.58	115.19	56.905	24.807	8.0047e-06	55.691	0.010977	0.015712	0.0044101	659.81	0.0001643	0.00017472	866.36	187.95	0.00016319	0.00017364	345.32	132.96	88.12	31.217	0.00016371	63.535	-94.965	35.904	78.045	-85.552	132.736	65.501	-85.557	-81.168	41.587	118.295	-81.966	-77.578	-77.202	-72.945	-9.314	-73.520	-8191	255	
1724.530	1	1	0	0	0.22022	0.025086	0.14945	0.1699	0.15008	0.093675	0.18847	0.28246	0.2579	0.27494	0.11469	0.14527	0.19049	0.010837	0.068827	0.078787	-2.0229	-1.6708	-2.3708	-1.9937	-1.8104	-2.4521	-1.6229	-2.3021	-2.2354	-1.4646	-2.3396	-1.9438	-1.8521	-2.4229	-1.6458	-2.1833	150.015	14.735	230.264	-40.897	152.109	237.686	-16.277	130.398	-2.082	128.625	225.342	-74.984	-58.409	-46.493	21.532	201.186	0.00011513	0.0006976	0.00034809	565.69	2.6656e-05	7.919e-06	793.51	156.67	2.0175e-06	1.0178e-05	284.66	114.42	57.042	24.672	3.1614e-06	55.072	0.010546	0.014892	0.0041425	656.57	0.00015236	0.00016198	864.76	185.15	0.00015153	0.00016179	342.11	131.39	86.439	30.566	0.00016055	62.745	237.387	28.065	18.403	-85.861	2.117	122.792	-85.418	-81.070	202.713	95.153	-81.680	-77.632	-77.287	-73.087	254.791	-73.658	-8191	255	
1724.626	1	1	0	0	0.14484	0.18458	0.3086	0.25837	0.19742	0.2726	0.20156	0.41758	0.093504	0.030963	0.1601	0.15232	0.20658	0.054681	0.096411	0.14093	-1.9896	-1.3604	-2.5438	-2.0604	-1.7146	-2.7062	-1.8208	-2.0354	-2.4646	-1.7229	-2.5167	-2.0625	-1.8583	-2.425	-1.6812	-2.1333	225.678	53.902	-92.559	230.809	91.548	112.984	177.402	178.546	4.767	29.173	239.248	-88.692	-26.616	-33.557	131.038	223.144	0.00012449	0.00071305	0.00021532	570.73	8.4857e-06	1.1365e-05	792.58	156.73	6.0672e-06	1.0916e-05	279.98	113.1	56.27	24.842	7.5819e-06	55.077	0.010714	0.015391	0.0043217	665.21	0.0001623	0.00017223	872.42	187.3	0.00015903	0.00016681	340.06	130.14	85.132	30.22	0.0001498	61.816	-79.572	-30.759	-10.686	-85.590	-69.052	139.096	-85.602	-80.927	251.509	23.593	-81.581	-77.422	-76.877	-72.909	15.152	-73.634	-8191	255	
1724.722	1	1	0	0	0.021747	0.14439	0.15665	0.091253	0.19828	0.2289	0.31696	0.19859	0.15874	0.028815	0.099799	0.17755	0.43894	0.13651	0.12763	0.15993	-1.95	-1.5042	-2.1917	-2.2896	-1.6771	-2.5042	-1.8333	-2.0125	-2.3854	-1.5958	-2.3583	-2.3667	-1.5688	-2.4208	-1.9813	-1.875	-66.772	257.299	-33.213	-98.697	38.873	86.130	107.611	220.722	184.188	158.812	170.813	-49.822	-6.994	236.292	-51.429	79.519	0.00012394	0.00080164	0.00037824	559.67	8.3146e-06	1.8102e-05	780.79	155.28	4.5694e-06	1.5772e-05	281.14	113.87	56.692	24.816	4.8616e-06	55.548	0.0096964	0.013747	0.0038762	645.43	0.00014359	0.00015466	853.14	182.42	0.00014748	0.00015671	336.43	130.01	85.203	30.409	0.00015173	62.626	147.841	30.987	-24.982	-85.164	16.328	-42.372	-85.362	-80.861	125.009	-24.846	-81.386	-77.824	-76.986	-73.099	-34.706	-73.791	-8191	255	
1724.818	1	1	0	0	0.23647	0.15809	0.17102	0.18325	0.20531	0.17049	0.11368	0.29512	0.19577	0.19368	0.34747	0.063316	0.20744	0.21597	0.2206	0.22442	-2.1604	-1.6063	-2.0604	-2.4479	-1.6667	-2.4958	-2.1792	-1.725	-2.5187	-1.6063	-2.2625	-2.5438	-1.5938	-2.3292	-2	-1.8083	-69.721	-65.100	203.848	197.375	177.323	167.711	-88.115	255.273	141.601	-38.098	143.408	-51.807	80.317	257.349	144.208	109.506	0.00034424	0.0010985	0.00018938	561.39	2.1736e-06	1.3302e-05	781.64	155.78	7.7557e-06	1.2792e-05	282.53	114.42	56.856	25.419	1.0606e-05	56.552	0.0099197	0.01401	0.0039402	647.88	0.00014612	0.00015731	854.2	183.17	0.00014924	0.00015947	339.6	131.04	85.944	31.005	0.00015599	63.706	206.020	28.200	13.674	-85.602	140.487	206.610	-85.662	-80.942	122.629	64.299	-81.494	-77.384	-77.714	-73.096	-11.885	-73.478	-8191	255	
1724.939	1	1	0	0	0.2061	0.2016	0.24372	0.093476	0.097822	0.054037	0.0068577	0.24174	0.23859	0.22706	0.16797	0.097495	0.31367	0.16409	0.42724	0.32973	-2.125	-1.6542	-1.9167	-2.675	-1.6354	-2.3104	-2.375	-1.7313	-2.5229	-1.8146	-1.9292	-2.5125	-1.6562	-2.4167	-2.1833	-1.6771	105.180	42.240	160.740	242.980	-68.147	130.952	87.069	248.259	40.660	165.925	-46.898	241.985	233.429	211.280	-19.193	245.079	0.00010676	0.0013577	8.5936e-05	564.23	3.4309e-06	1.9456e-05	782.81	156.31	7.4905e-06	4.8497e-06	283.13	114.67	57.004	25.446	1.0501e-05	56.96	0.01031	0.01461	0.0040903	653.25	0.0001528	0.00016272	860.14	185.44	0.00015308	0.00016352	341.28	131.97	86.731	31.209	0.00015662	64.021	216.165	216.254	-20.944	-85.261	135.285	60.222	-85.470	-80.681	54.077	223.534	-81.451	-77.702	-77.200	-73.307	51.447	-73.662	-8191	255	
1725.033	1	1	0	0	0.092704	0.31849	0.11691	0.25952	0.094992	0.12466	0.21781	0.27079	0.28729	0.22654	0.07396	0.23194	0.080251	0.20264	0.13864	0.17648	-2.2917	-1.8875	-1.675	-2.5708	-1.6458	-2.1937	-2.4917	-1.5792	-2.3917	-1.9354	-1.9354	-2.525	-1.7375	-2.2771	-2.2833	-1.5167	203.297	-13.181	153.891	255.039	-31.521	107.487	120.132	175.512	2.214	0.406	141.508	236.721	-10.598	12.170	91.891	164.640	0.00038446	0.0019341	0.00019738	560.53	1.478e-05	2.9353e-06	780.23	154.36	8.9833e-06	1.7624e-05	282.23	115.21	56.963	25.414	3.0869e-06	56.424	0.010304	0.014613	0.0040614	650.45	0.00015019	0.00016067	852.95	183.31	0.0001502	0.00015864	336.35	130.96	85.027	30.813	0.00014855	63.125	224.702	76.194	131.174	-85.553	48.625	178.825	-85.484	-81.165	35.843	196.316	-81.109	-77.334	-77.176	-72.798	160.399	-73.415	-8191	255	
1725.107	1	1	0	0	0.11051	0.24184	0.058226	0.12491	0.37474	0.3073	0.1686	0.2645	0.28266	0.07843	0.22447	0.087288	0.1795	0.090498	0.31824	0.12951	-1.8979	-2.0854	-1.7958	-2.7333	-1.6167	-1.9667	-2.5667	-1.6792	-2.2188	-2.1042	-1.6146	-2.4729	-1.9625	-2.0812	-2.5042	-1.8375	88.344	104.554	165.992	177.420	173.143	-70.583	-95.479	235.550	-18.834	101.943	225.937	132.678	259.603	-57.143	124.334	240.061	0.00018985	0.0020748	0.00013408	559.57	7.4487e-06	1.0788e-05	777.19	155.04	9.641e-06	8.1576e-06	277.1	115.04	56.933	25.294	1.021e-05	56.13	0.0097294	0.013717	0.0038491	641.06	0.00014289	0.00015245	844.08	181.16	0.0001456	0.00015479	335.35	131.07	85.075	30.744	0.00015234	63.279	210.977	20.111	92.919	-85.377	-80.164	-82.709	-85.526	-81.242	151.118	39.633	-81.535	-77.440	-77.322	-72.951	13.730	-74.071	-8191	255	
1725.227	1	1	0	0	0.1043	0.40137	0.15192	0.29864	0.2331	0.1169	0.033514	0.20852	0.31101	0.088487	0.076461	0.23489	0.11088	0.10237	0.095552	0.44195	-1.8375	-2.2396	-1.7771	-2.6125	-1.9813	-1.8792	-2.5646	-1.7687	-2.1417	-2.2875	-1.7479	-2.6417	-1.8604	-1.9646	-2.525	-1.8417	242.053	144.890	125.381	225.362	105.234	237.991	-95.475	248.298	73.355	-37.060	160.398	192.590	-51.271	107.159	19.857	223.815	0.00011189	0.0011408	7.8825e-05	560.01	9.8284e-06	2.0433e-05	780.53	154.8	5.3515e-06	9.1745e-06	280.4	115.58	56.573	25.43	2.7325e-06	56.634	0.010092	0.014281	0.0039845	646.13	0.00014692	0.00015494	848.66	180.77	0.00013962	0.00014581	330.09	129.33	82.02	30.221	0.0001328	62.41	221.902	-74.358	10.321	-85.131	208.963	13.951	-85.522	-81.086	0.259	-97.820	-81.225	-77.274	-77.611	-72.885	228.746	-73.609	-8191	255	
1725.322	1	1	0	0	0.19895	0.10976	0.11795	0.11784	0.11143	0.056851	0.011406	0.17877	0.28354	0.21422	0.25513	0.13826	0.27653	0.24896	0.13509	0.11087	-1.7313	-2.1333	-1.6646	-2.3667	-1.7875	-1.8229	-2.7562	-1.5958	-2.0062	-2.3875	-1.6271	-2.425	-2.0438	-1.875	-2.4146	-1.9479	83.979	186.991	145.276	205.621	105.910	186.381	212.998	236.452	-76.143	169.402	227.263	156.789	110.047	-19.602	239.079	242.768	0.00018113	0.001455	0.00035378	560.97	8.0192e-06	3.3278e-06	783.6	153.56	6.3436e-06	5.2999e-06	280.52	114.78	56.563	25.48	7.8793e-06	56.187	0.0086452	0.012225	0.0034248	630.69	0.00012788	0.0001348	837.74	177.08	0.00012712	0.00013506	326.65	129.05	82.068	30.289	0.00013812	62.627	203.756	-21.916	-32.538	-85.418	260.848	246.468	-85.265	-81.057	48.611	-9.266	-81.407	-77.157	-77.170	-72.996	-70.473	-73.533	-8191	255	
1725.418	1	1	0	0	0.11036	0.14908	0.24853	0.35654	0.14913	0.088781	0.13791	0.15288	0.072895	0.18529	0.15967	0.12231	0.10943	0.19227	0.098829	0.039293	-1.7021	-2.3958	-1.65	-2.3042	-1.9646	-1.6479	-2.4813	-1.8687	-1.975	-2.5812	-1.6417	-2.3083	-2.3021	-1.5396	-2.5333	-2.1104	1.350	-13.460	-64.233	-6.599	180.730	217.242	96.337	145.150	49.551	209.898	-92.537	114.924	232.167	199.554	154.266	258.261	0.00015449	0.00067929	0.00032423	565.29	9.1708e-06	5.6705e-06	780.43	155.48	1.4309e-05	1.4489e-05	283.98	114.43	57.361	25.22	1.31e-05	56.284	0.0091631	0.013144	0.0037352	642.73	0.00014077	0.00015165	852.3	182.32	0.0001456	0.00015639	337.65	131.43	85.85	30.918	0.00015621	63.468	215.972	72.496	-18.454	-85.191	123.149	-83.359	-85.319	-81.142	-37.005	-6.058	-81.396	-77.537	-77.609	-72.881	139.275	-73.663	-8191	255	
1725.514	1	1	0	0	0.0612	0.17887	0.2744	0.083905	0.14066	0.33352	0.12724	0.16879	0.27349	0.14181	0.44444	0.12142	0.29361	0.24428	0.15339	0.11994	-1.3646	-2.4208	-1.65	-2.425	-2.2333	-1.3896	-2.65	-1.9229	-1.8042	-2.6479	-1.8104	-2.2417	-2.2229	-1.4729	-2.2271	-2.0167	52.317	78.334	55.156	27.537	-5.916	28.947	82.295	-38.084	170.307	-45.857	-66.111	229.820	208.513	21.667	-40.178	78.930	0.00011553	0.0013047	0.00026627	562.96	4.5501e-06	2.0241e-05	783.4	155.45	9.341e-06	7.3334e-06	282.07	114.6	56.923	24.899	7.9948e-06	55.769	0.010456	0.01475	0.0041692	655.54	0.00015447	0.0001643	860.86	184.13	0.00015176	0.00015924	338.31	130.99	84.858	30.484	0.00014835	62.602	148.047	0.327	-35.938	-85.638	9.699	-37.446	-85.223	-80.847	53.035	-18.876	-81.497	-77.348	-77.599	-72.503	57.884	-73.568	-8191	255	
1725.634	1	1	0	0	0.22596	0.12774	0.070199	0.096165	0.1908	0.16849	0.028955	0.25755	0.19898	0.16692	0.096356	0.25551	0.20124	0.20003	0.11373	0.11393	-1.3354	-2.5104	-1.7125	-1.9583	-2.3771	-1.5229	-2.4146	-2.0687	-1.575	-2.6104	-1.9188	-2.2375	-2.4125	-1.4667	-2.1688	-2.2021	-28.961	160.708	-29.926	181.228	41.907	-44.032	14.771	224.491	227.257	-24.779	205.260	190.907	56.638	246.502	181.445	135.372	0.00015544	0.00045943	0.0004419	567.82	5.07e-06	1.0371e-05	788	155.11	1.2115e-05	2.3679e-05	279.28	114.81	56.657	25.134	6.6622e-06	56.435	0.0096477	0.013541	0.0037766	644.75	0.00013875	0.00014728	850.44	179.78	0.00013572	0.00014254	329.46	128.66	81.938	29.979	0.00013593	62.316	232.422	99.112	-85.023	-85.487	204.821	147.385	-85.158	-81.143	109.535	-6.479	-80.996	-76.775	-77.357	-72.904	-48.065	-73.322	-8191	255	
1725.706	1	1	0	0	0.15784	0.20316	0.16593	0.24311	0.36648	0.16938	0.13536	0.25299	0.19387	0.21663	0.080041	0.14375	0.12985	0.10099	0.11193	0.22314	-1.1854	-2.3958	-1.7354	-1.9729	-2.5667	-1.4458	-2.3979	-2.0125	-1.5312	-2.4104	-2.1396	-1.8729	-2.5208	-1.6792	-2.175	-2.4521	134.985	143.212	117.694	240.808	14.491	-37.959	50.106	99.661	241.667	136.885	-57.839	153.918	206.189	-69.778	43.352	177.250	1.6045e-05	0.00078468	8.4552e-05	566.57	5.2294e-06	9.572e-06	789.6	155.75	5.6367e-06	7.9377e-06	283.25	116.1	56.704	25.349	1.4818e-05	57.039	0.0089299	0.012533	0.0035615	641.26	0.00013334	0.00014437	850.83	180.83	0.00013579	0.00014433	332.58	130.63	83.076	30.474	0.00014063	63.221	246.573	250.377	25.731	-85.267	108.669	-38.843	-85.352	-80.819	134.695	168.391	-81.354	-76.882	-76.480	-72.663	247.572	-73.736	-8191	255	
1725.827	1	1	0	0	0.39008	0.14813	0.12728	0.302	0.034475	0.028774	0.53445	0.24441	0.29424	0.17056	0.064345	0.20077	0.23911	0.26123	0.20477	0.13703	-1.0812	-2.5917	-1.9521	-1.75	-2.5146	-1.5938	-2.1375	-2.1583	-1.3625	-2.3229	-2.2146	-1.5479	-2.4146	-1.775	-1.9917	-2.4062	-57.428	-9.170	89.493	-90.622	8.645	92.412	187.953	209.749	256.546	-19.964	-88.597	165.572	216.990	166.910	202.604	150.838	4.7558e-05	0.00093664	0.00018866	566.56	9.7252e-06	1.2214e-05	787.6	155.31	4.6547e-06	6.7647e-06	281.68	116.37	57.498	25.498	1.3152e-05	56.465	0.0093875	0.013223	0.0037364	645.52	0.00013823	0.00014797	851.03	180.78	0.00013738	0.00014442	331.94	130.14	83.124	30.419	0.00013909	62.799	-95.033	33.690	119.452	-85.233	170.165	-30.757	-85.263	-80.760	233.957	246.542	-81.418	-76.852	-76.559	-72.980	63.825	-73.472	-8191	255	
1725.923	1	1	0	0	0.28298	0.047648	0.15369	0.12052	0.14965	0.35129	0.18216	0.11051	0.10883	0.41648	0.13564	0.15376	0.10032	0.16207	0.38625	0.2479	-1.2042	-2.2687	-2.1167	-1.5812	-2.3646	-1.6917	-2.1646	-2.575	-1.55	-2.1229	-2.2021	-1.6979	-2.4188	-1.9188	-1.7646	-2.6104	1.403	-14.908	-87.074	72.860	-88.983	116.418	134.901	88.636	45.425	250.178	-78.324	158.072	142.715	-61.933	175.150	202.495	0.0001055	0.0011606	0.00016454	570.04	3.9811e-06	2.0749e-05	783.78	155.45	4.7345e-06	1.3758e-05	282.86	115.72	57.012	25.327	8.9534e-06	56.989	0.0092328	0.013111	0.0036692	643.66	0.00013822	0.00014715	847.91	180.99	0.00013885	0.00014659	332.58	130.7	83.429	30.506	0.00014142	63.214	223.419	98.196	80.752	-85.263	172.013	17.898	-85.402	-80.676	-24.732	81.918	-81.384	-77.178	-77.425	-72.925	109.355	-73.505	-8191	255	
1726.019	1	1	0	0	0.17949	0.083531	0.15694	0.29889	0.029177	0.10887	0.093016	0.080574	0.22643	0.082378	0.10286	0.29657	0.052742	0.16705	0.14658	0.35144	-1.0479	-2.4167	-2.3229	-1.6583	-2.4667	-1.9083	-1.7646	-2.6312	-1.6104	-2.1063	-2.325	-1.6604	-2.5979	-1.9271	-1.8208	-2.5729	255.243	150.900	144.210	-89.435	-83.385	-76.948	49.836	81.982	-58.490	-24.888	251.836	174.726	136.761	237.300	61.065	148.441	0.0001054	0.0020646	0.0002886	565.67	1.1017e-05	8.6926e-06	790.66	156.38	2.591e-06	1.5024e-05	283.71	116.3	57.873	25.65	5.2789e-06	56.927	0.0093348	0.013283	0.0037432	644.47	0.00014013	0.00014931	852.85	182.41	0.00014305	0.00015372	337.1	132.12	86.201	31.044	0.00015147	64.012	225.995	10.149	13.336	-85.650	197.761	121.978	-85.344	-80.660	133.047	70.463	-81.953	-77.164	-77.098	-72.624	219.950	-73.815	-8191	255	
1726.115	1	1	0	0	0.18292	0.17972	0.17266	0.060372	0.28981	0.091504	0.14873	0.32139	0.14976	0.16376	0.053188	0.08546	0.16576	0.25907	0.16279	0.2577	-1.2042	-2.1146	-2.3271	-1.5875	-2.3417	-2.0354	-1.7354	-2.4917	-1.8896	-1.8396	-2.4313	-1.5854	-2.2833	-2.2458	-1.6479	-2.5312	30.805	194.468	-82.994	101.382	18.855	-28.811	205.152	238.926	15.263	94.173	30.325	216.397	253.070	-95.509	-66.774	-5.599	8.5208e-05	0.00079518	0.00032047	566.87	7.7708e-06	1.5142e-05	790.16	157.3	8.3817e-06	2.6431e-05	285.28	116.77	57.644	25.707	1.3135e-05	57.213	0.010015	0.01423	0.0040223	654.08	0.00014963	0.00015834	860.43	185.2	0.00014721	0.00015462	338.94	132.46	85.367	30.931	0.00014587	63.778	145.888	119.461	-77.613	-85.400	166.240	-40.388	-85.008	-80.877	130.605	179.901	-81.536	-76.977	-77.253	-72.979	254.182	-73.483	-8191	255	
1726.210	1	1	0	0	0.029539	0.15668	0.081358	0.24155	0.15124	0.42124	0.30541	0.27838	0.27005	0.30629	0.18079	0.42238	0.24241	0.058739	0.10635	0.24701	-1.4188	-1.8021	-2.3042	-1.4104	-2.2438	-2.2396	-1.8188	-2.4062	-1.9021	-1.9188	-2.6854	-1.5688	-2.1125	-2.1854	-1.6208	-2.6188	-13.601	168.500	44.101	140.190	125.025	131.860	201.540	-63.637	186.990	-36.030	232.884	121.383	245.491	26.538	-58.891	73.519	0.00010972	0.00072085	0.00013347	572.46	7.132e-06	1.0507e-05	793.82	157.75	3.0238e-06	2.5682e-05	284.45	115.93	57.788	25.476	1.3815e-05	56.4	0.009587	0.013545	0.0037689	650.91	0.00013821	0.00014763	858.41	182.64	0.00013903	0.00014815	336.46	131.36	84.594	30.565	0.0001457	63.107	231.299	206.804	-32.553	-85.132	90.549	67.224	-85.117	-80.774	12.284	30.683	-81.343	-77.208	-76.370	-72.720	44.158	-73.274	-8191	255	
1726.330	1	1	0	0	0.21046	0.19309	0.13564	0.16538	0.1374	0.13962	0.039418	0.091452	0.1313	0.10562	0.055664	0.23461	0.060714	0.26572	0.12247	0.043784	-1.4375	-1.7021	-2.5604	-1.6875	-2.2625	-2.3	-1.7917	-2.3917	-1.85	-1.8	-2.6	-1.8229	-2.0729	-2.5187	-1.5354	-2.4479	77.259	1.866	213.920	11.412	87.148	157.185	93.389	226.234	7.489	-49.562	-20.865	238.788	-63.424	210.087	193.166	-95.651	9.7008e-05	0.0004719	0.00048562	573.4	3.5158e-06	1.1206e-05	794.49	158.89	7.2462e-06	1.7704e-05	285.95	116.21	57.338	25.162	7.1461e-06	56.391	0.0096253	0.01373	0.0038573	654.2	0.00014333	0.00015317	863.46	185	0.0001451	0.0001548	340.53	131.99	85.823	30.726	0.00015382	63.593	220.608	76.715	-62.492	-85.057	-15.248	125.693	-85.519	-81.157	111.573	260.729	-81.342	-77.491	-76.826	-72.750	83.040	-73.406	-8191	255	
1726.402	1	1	0	0	0.33929	0.1406	0.1534	0.20929	0.20864	0.10212	0.073702	0.15259	0.20235	0.12012	0.12283	0.37998	0.22998	0.06994	0.0481	0.3428	-1.6437	-1.8375	-2.3792	-1.7229	-2.1333	-2.3312	-1.7563	-2.3396	-2.1583	-1.6854	-2.6521	-2.0604	-1.7375	-2.4958	-1.6833	-2.3688	213.369	215.480	82.198	246.298	-43.625	220.951	67.251	206.094	172.287	195.382	157.217	240.599	207.463	-43.589	-90.525	227.166	0.00017008	0.0011974	0.00019923	574.06	1.0331e-05	6.425e-06	798.89	160.76	7.092e-06	1.6798e-05	286.51	116.74	58.107	25.065	4.0546e-06	56.59	0.010319	0.014708	0.0041483	666.87	0.0001561	0.0001668	877.02	189.94	0.00015928	0.0001699	348.59	134.35	88.806	31.329	0.00016472	64.48	195.771	171.288	19.500	-85.527	79.297	-41.963	-85.331	-80.792	42.308	-9.334	-81.107	-76.918	-76.992	-72.698	132.435	-73.299	-8191	255	
1726.498	1	1	0	0	0.26167	0.27469	0.11627	0.2575	0.11224	0.037059	0.059785	0.094779	0.11186	0.073798	0.067884	0.2189	0.015026	0.19807	0.2587	0.1939	-1.8521	-1.5271	-2.6396	-1.9813	-1.7521	-2.6542	-1.675	-2.0917	-2.2458	-1.5187	-2.4833	-2.0771	-1.7542	-2.5062	-1.8458	-2.1104	36.132	101.048	34.914	-86.076	192.239	-45.242	207.010	132.536	154.688	258.740	-68.238	-84.876	9.841	238.155	173.363	234.825	0.00037677	0.001669	0.00011446	581.66	8.5472e-06	1.3263e-05	802.99	159.86	1.7618e-06	1.4782e-05	288.04	117.7	58.193	25.504	4.9328e-06	56.758	0.010759	0.015278	0.0042418	670.73	0.00015613	0.00016538	878.31	188.61	0.00015184	0.00016123	344.67	133.63	87.101	31.037	0.00015267	63.987	246.988	77.280	27.359	-85.219	111.684	227.700	-85.365	-80.435	149.193	161.243	-81.637	-77.109	-76.604	-72.599	226.006	-73.380	-8191	255	
1726.594	1	1	0	0	0.26952	0.1554	0.10574	0.056668	0.28757	0.11472	0.29256	0.15116	0.16958	0.26452	0.15681	0.13941	0.15847	0.093485	0.060215	0.097177	-1.8792	-1.6979	-2.2021	-1.9354	-1.6229	-2.3667	-1.7917	-2.0396	-2.4396	-1.7	-2.4896	-2.1458	-1.7563	-2.65	-1.7458	-2.0167	185.636	-10.011	171.284	166.883	160.701	2.001	235.944	46.223	-93.216	92.809	228.253	-89.484	223.760	50.460	76.504	29.480	9.9451e-05	0.00074006	0.00037707	582.51	1.0479e-05	8.5612e-06	808.15	160.76	8.8515e-07	9.3188e-06	290.27	118.07	57.731	25.339	6.9693e-06	57.162	0.010017	0.014292	0.0040589	666.5	0.00014972	0.00016084	879.25	188.65	0.00015296	0.00016302	347.2	134.42	87.681	31.192	0.00015896	64.368	204.161	49.285	-58.136	-85.149	76.189	137.964	-85.427	-80.754	-29.337	114.798	-81.469	-77.031	-76.536	-73.005	42.200	-73.502	-8191	255	
1726.715	1	1	0	0	0.051176	0.073479	0.28084	0.23227	0.20626	0.19524	0.00703	0.1751	0.10527	0.21567	0.14425	0.15114	0.24548	0.052042	0.15004	0.16892	-2.075	-1.4479	-2.3	-2.2646	-1.5812	-2.6146	-2.1021	-1.9646	-2.3688	-1.7708	-2.3812	-2.2333	-1.5875	-2.5667	-1.8042	-1.9792	197.865	90.591	150.618	-42.658	231.745	253.996	-22.150	-40.379	190.805	-82.638	187.769	-51.859	258.748	159.322	67.546	187.913	0.00016228	0.00066222	0.00045094	577.52	6.8243e-06	1.2443e-05	799.91	161.59	9.1213e-06	1.2627e-05	291.18	116.88	58.149	25.325	7.7674e-06	56.656	0.010606	0.015218	0.0042777	673.05	0.0001607	0.00017229	881.02	191.29	0.00016315	0.00017503	352.32	135.62	90.37	31.675	0.00017105	64.857	201.185	96.935	246.943	-85.438	-30.420	41.786	-85.380	-80.958	17.434	-44.479	-81.311	-77.310	-77.078	-72.994	176.282	-73.438	-8191	255	
1726.811	1	1	0	0	0.28698	0.37577	0.17147	0.4036	0.071777	0.15039	0.15598	0.023507	0.21108	0.21036	0.031057	0.33601	0.16865	0.3643	0.18934	0.099899	-2.1583	-1.7375	-2.175	-2.4562	-1.4708	-2.5208	-2.1188	-1.7437	-2.5042	-1.5917	-2.1	-2.4833	-1.7042	-2.3625	-2.0417	-1.7104	189.242	113.576	220.073	214.594	-18.180	15.199	-28.271	-49.666	162.486	-76.430	-62.004	162.359	242.811	225.526	73.064	193.952	0.00019139	0.00061347	0.00042976	575.82	7.852e-06	6.3422e-06	800.5	160.59	9.8169e-06	1.7156e-05	289.33	117.73	58.337	25.774	8.0381e-06	57.561	0.011295	0.016005	0.0044865	677.77	0.00016655	0.00017628	882.33	191.42	0.00016318	0.00017255	350.2	135.41	89.452	31.797	0.0001649	65.224	228.519	-32.227	136.815	-85.414	133.704	197.568	-85.449	-80.460	231.473	-36.799	-81.039	-77.127	-76.491	-72.950	114.098	-72.601	-8191	255	
1726.907	1	1	0	0	0.064257	0.14388	0.25901	0.38641	0.3077	0.061445	0.1967	0.16239	0.075795	0.36483	0.11696	0.25269	0.056925	0.35311	0.13305	0.30187	-2.1729	-1.75	-1.9479	-2.5729	-1.5271	-2.2396	-2.2271	-1.8021	-2.3875	-1.8417	-1.9958	-2.4313	-1.6958	-2.3604	-2.3375	-1.8188	86.154	-90.651	-16.293	-72.068	-92.811	215.568	222.168	115.770	77.012	202.531	193.509	222.434	136.131	196.656	-36.475	245.728	0.00013814	0.0014741	0.00038264	575.12	1.5757e-05	2.0609e-05	802.69	160.39	5.8335e-06	1.8055e-05	288.96	118.98	57.586	25.7	7.3658e-06	57.368	0.010894	0.015438	0.0043642	671.24	0.00016136	0.00017132	880.1	190.47	0.00016225	0.00017277	351.84	136.41	90.056	31.927	0.0001692	65.54	-61.185	-29.943	50.207	-85.127	90.596	9.059	-85.263	-80.644	51.478	128.406	-81.764	-77.014	-76.274	-72.171	-90.180	-73.284	-8191	255	
1727.003	1	1	0	0	0.081048	0.2751	0.10581	0.22084	0.11162	0.39787	0.10599	0.13691	0.064214	0.068777	0.21888	0.23772	0.24215	0.3581	0.072573	0.18431	-2.1396	-2.0458	-1.7229	-2.5312	-1.7396	-2.1292	-2.4708	-1.7354	-2.5875	-1.8563	-1.6625	-2.5792	-1.8229	-2.3167	-2.5104	-1.6646	6.882	146.467	-96.092	-35.121	130.701	-10.519	118.408	47.850	96.843	224.891	176.745	240.809	-88.183	112.764	20.971	132.033	0.00042223	0.0015623	0.00012209	586.69	6.4005e-06	1.5778e-05	817.54	163.65	4.1374e-06	2.2431e-05	293.66	119.24	59.901	25.315	9.4827e-07	57.171	0.011396	0.016375	0.0046517	690.75	0.00017803	0.00018925	907.28	198.85	0.00018375	0.0001976	367.54	140.41	96.452	32.913	0.00019993	66.789	216.395	-74.557	94.865	-85.262	-27.927	-29.376	-85.420	-80.549	234.330	204.736	-80.934	-76.556	-77.426	-72.558	142.940	-73.335	-8191	255	
1727.099	1	1	0	0	0.093196	0.16965	0.19439	0.084588	0.16258	0.40895	0.37111	0.052253	0.11811	0.2818	0.10815	0.13854	0.18655	0.21384	0.09274	0.2092	-2.0167	-2.0875	-1.675	-2.7625	-1.8896	-2.0333	-2.6167	-1.6875	-2.3688	-1.9417	-1.6479	-2.6437	-1.7729	-2.0583	-2.5917	-1.6313	19.693	137.980	-94.581	-18.684	181.361	134.345	222.119	88.956	-18.818	139.913	192.567	208.882	247.328	88.340	230.933	139.314	0.00020956	0.0011674	0.00021319	590.07	1.5317e-05	8.1769e-06	813.51	164.71	1.3029e-05	7.7053e-06	294.79	118.68	59.185	25.421	1.3769e-05	57.095	0.013396	0.019154	0.0054223	716.63	0.0002025	0.00021795	924.04	204.29	0.00020272	0.00021303	373.02	141.05	97.171	33.009	0.00019979	66.733	192.788	-12.701	-30.201	-85.307	-70.476	-44.161	-85.089	-80.886	54.545	-67.123	-81.281	-77.184	-77.179	-72.610	97.027	-73.513	-8191	255	
1727.196	1	1	0	0	0.12436	0.13723	0.13038	0.12969	0.12573	0.066811	0.26669	0.24299	0.17021	0.21068	0.01158	0.051524	0.19734	0.24898	0.21205	0.36433	-1.8917	-2.1417	-1.5125	-2.4042	-1.8354	-1.9479	-2.5812	-1.8729	-2.2708	-2.3667	-1.7563	-2.5917	-1.8917	-1.8708	-2.45	-1.7938	202.838	242.283	184.606	158.223	58.404	32.663	173.654	115.333	31.023	222.054	-23.961	-17.914	150.324	9.983	68.837	185.836	0.0002651	0.0019417	0.00048786	584.24	1.4484e-05	1.4637e-05	806.64	162.15	6.6166e-06	1.6169e-05	293.54	119	59.068	25.481	7.0188e-06	56.979	0.013063	0.01843	0.0051664	700.31	0.00019135	0.00020395	907.08	199.32	0.00019142	0.0002029	367.23	140.12	95.932	32.841	0.00019807	66.619	256.437	-88.231	256.387	-85.119	59.798	95.188	-85.494	-80.515	-77.455	232.220	-81.272	-76.648	-76.329	-72.378	-20.238	-73.120	-8191	255	
1727.314	1	1	0	0	0.19632	0.031607	0.25429	0.13763	0.19553	0.29775	0.20143	0.15951	0.038201	0.021444	0.16097	0.16633	0.19058	0.27829	0.13487	0.12113	-1.8062	-2.2854	-1.5167	-2.3229	-1.9375	-1.7229	-2.5646	-1.6896	-2.1771	-2.3875	-1.7	-2.4958	-2.0875	-1.7771	-2.2667	-1.8771	-35.626	28.672	60.229	215.696	139.814	113.798	165.066	176.690	-0.842	-81.417	116.096	-41.968	259.286	-31.421	244.964	54.468	0.00016481	0.00097986	0.00010045	581.27	6.8091e-06	1.9684e-05	809.75	162.53	5.7167e-06	8.4475e-06	293.41	119.34	58.747	25.357	2.3064e-05	56.498	0.013077	0.018489	0.0052313	703.22	0.0001937	0.00020662	911.96	200.1	0.0001944	0.0002057	369.55	141.17	96.855	33.029	0.00020157	66.684	222.281	-22.303	-85.427	-85.279	-49.808	18.844	-84.995	-80.665	190.495	58.076	-81.331	-76.949	-76.913	-72.188	189.390	-73.147	-8191	255	
1727.411	1	1	0	0	0.10845	0.1821	0.10187	0.30834	0.19015	0.063791	0.20126	0.23492	0.22483	0.26483	0.25492	0.22147	0.046241	0.30868	0.20887	0.045702	-1.5312	-2.3917	-1.5625	-2.5125	-1.9917	-1.6354	-2.5208	-1.9625	-1.9562	-2.4188	-1.8104	-2.2792	-2.2708	-1.7583	-2.4813	-1.925	230.521	66.286	173.998	243.556	137.046	140.525	179.577	226.816	-81.437	181.205	212.559	244.626	224.007	132.874	124.014	251.641	0.00025927	0.00048889	0.00056202	591.25	2.0752e-05	1.7462e-05	818.25	163.64	1.3554e-05	1.3983e-05	294.73	118.9	58.789	25.299	1.0249e-05	56.386	0.013351	0.019133	0.0053876	714.04	0.00019781	0.00021057	921.57	202.36	0.00019344	0.0002039	368.38	139.93	95.253	32.365	0.00018914	65.638	216.859	-23.473	-79.488	-85.313	15.687	-50.480	-85.128	-80.308	-73.844	43.528	-81.290	-76.679	-76.856	-72.367	18.286	-72.941	-8191	255	
1727.507	1	1	0	0	0.088588	0.14063	0.11309	0.20514	0.11039	0.16834	0.18267	0.29445	0.22492	0.13381	0.10232	0.14204	0.063761	0.14612	0.12396	0.1272	-1.5667	-2.4917	-1.8083	-2.1083	-2.1583	-1.6042	-2.7188	-1.8917	-1.9208	-2.4042	-1.6583	-2.4062	-2.3917	-1.6938	-2.3292	-2.175	83.840	-43.239	-40.086	-80.195	72.179	195.932	-38.018	210.725	-49.328	51.343	172.178	199.948	242.798	193.232	86.431	195.190	0.00021766	0.00076705	0.00027304	586.93	8.2856e-06	1.3691e-05	806.13	162.11	5.2983e-06	2.4371e-05	289.44	118.18	58.366	24.968	1.4369e-05	56.319	0.01218	0.017238	0.0048322	693.95	0.0001764	0.00018697	898.08	194.85	0.00017071	0.00017986	354.96	136.41	90.417	31.546	0.0001705	64.629	229.032	257.829	90.621	-84.989	62.234	-61.604	-84.927	-80.746	82.577	49.880	-80.743	-76.458	-77.388	-72.513	-50.739	-73.072	-8191	255	
1727.603	1	1	0	0	0.22268	0.16428	0.095696	0.15371	0.15818	0.19974	0.27592	0.049162	0.17305	0.093765	0.18557	0.092418	0.13667	0.33497	0.20662	0.2646	-1.1958	-2.475	-1.7896	-2.1688	-2.3583	-1.5896	-2.6396	-2.1083	-1.7792	-2.3708	-1.8667	-2.1396	-2.5646	-1.4062	-2.1729	-2.3271	-55.582	261.376	235.242	136.496	-93.489	-0.862	246.599	230.728	199.496	28.743	41.468	162.797	235.150	241.637	-2.008	163.309	0.00025531	0.00091297	0.000534	586.08	5.3509e-06	3.1964e-06	804	162.44	9.3267e-06	6.6412e-06	291.17	118.1	59.185	25.682	3.7849e-06	57.376	0.011287	0.016005	0.0044979	683.19	0.00016762	0.00017984	891.73	194.05	0.00017035	0.00018096	356.35	137.38	91.915	32.197	0.00017695	65.817	228.400	229.582	151.672	-84.778	3.520	47.347	-85.094	-80.443	17.833	253.770	-81.017	-76.752	-76.623	-72.152	-43.303	-72.851	-8191	255	
1727.699	1	1	0	0	0.2886	0.1671	0.23279	0.12431	0.20752	0.21094	0.32883	0.15165	0.24662	0.15569	0.26348	0.21984	0.25202	0.079717	0.26963	0.37362	-1.2563	-2.5167	-1.8021	-1.9854	-2.5125	-1.6021	-2.3458	-2.2854	-1.5812	-2.4104	-2.0771	-2.0792	-2.4125	-1.6521	-2.2854	-2.4083	122.645	-66.807	35.278	-16.886	27.460	100.943	107.037	-46.580	80.685	87.200	-79.501	258.313	-97.361	238.079	131.534	248.091	0.00021902	0.00055032	0.00043113	583.7	1.0636e-05	2.4363e-06	809.17	162.88	1.5174e-05	8.7426e-06	292.88	118.83	59.38	25.489	1.7108e-06	57.639	0.011733	0.016677	0.0046539	687.82	0.00017409	0.00018463	897.2	195.35	0.00017308	0.00018257	358.04	137.86	92.189	32.2	0.00017645	66.183	198.415	188.245	-40.994	-84.600	221.510	45.497	-84.748	-80.584	-67.682	93.399	-80.999	-76.559	-76.563	-72.459	130.031	-72.995	-8191	255	
1727.795	1	1	0	0	0.048976	0.060848	0.1369	0.13483	0.22799	0.12687	0.10811	0.16736	0.097228	0.17655	0.37026	0.36498	0.23006	0.26834	0.18303	0.25409	-1.0375	-2.3229	-1.8687	-1.9688	-2.5083	-1.6792	-2.3	-2.45	-1.7313	-2.4729	-2.2812	-1.875	-2.6708	-1.7521	-2.0979	-2.3896	-93.598	256.236	100.282	136.498	133.573	7.493	64.640	-45.049	178.378	-83.924	193.654	201.078	227.462	214.265	128.212	165.431	0.00027313	0.00099717	0.00032726	590.09	1.9508e-05	6.1655e-06	824.19	165.95	6.92e-06	6.3259e-06	297.28	119.83	58.67	25.477	1.8352e-05	57.249	0.01172	0.016666	0.0047274	698.51	0.00017724	0.00019074	914.37	200.41	0.00018014	0.00019119	366.52	139.59	93.72	32.38	0.00018575	66.284	227.761	-47.083	15.494	-84.709	71.822	6.202	-84.499	-80.624	133.976	-90.442	-80.764	-76.644	-76.701	-72.108	59.385	-73.058	-8191	255	
1727.916	1	1	0	0	0.21025	0.36452	0.20408	0.13611	0.36581	0.14059	0.27382	0.1288	0.23385	0.18231	0.21747	0.33554	0.054062	0.14143	0.27373	0.25666	-0.93125	-2.2792	-2.2062	-1.7708	-2.5187	-1.6812	-2.1688	-2.5354	-1.5958	-2.3167	-2.2479	-1.7687	-2.5271	-1.8479	-2.0854	-2.7104	252.143	-51.953	224.445	74.443	84.324	230.952	243.291	166.684	88.529	-21.374	150.173	228.100	89.373	246.432	153.600	207.825	0.00024212	0.0011407	0.00021925	595.06	7.4191e-06	9.9954e-06	822.8	165.07	9.4952e-06	1.7348e-05	294.51	119.05	59.532	25.626	1.3653e-05	57.56	0.012172	0.017312	0.0048664	704.24	0.00018007	0.00019155	914.44	199.73	0.00018295	0.00019422	365.62	139.36	94.239	32.603	0.00018712	66.614	190.253	-27.240	-72.898	-84.742	-12.679	158.915	-84.509	-80.706	48.818	46.688	-80.984	-76.831	-77.160	-72.629	136.565	-72.976	-8191	255	
1728.010	1	1	0	0	0.059416	0.092948	0.27961	0.38396	0.13904	0.20372	0.40007	0.27746	0.13277	0.2365	0.12241	0.21526	0.19594	0.10479	0.15393	0.25921	-1.1521	-2.1271	-2.3292	-1.5979	-2.3458	-1.8896	-1.9875	-2.5563	-1.6854	-2.1854	-2.4	-1.675	-2.4583	-1.7729	-1.6938	-2.5229	67.186	-75.832	214.619	251.916	116.256	30.505	179.211	169.442	20.440	-39.979	-93.957	-68.007	155.895	187.073	-41.040	130.407	0.00010744	0.00092253	0.00051218	586.99	1.9426e-06	1.4437e-05	812.11	163.53	7.5556e-06	1.1527e-05	293.4	118.48	59.08	25.926	2.7761e-06	57.966	0.012297	0.017435	0.0048561	695.55	0.00018048	0.00018956	902.44	196.94	0.0001764	0.00018552	359.13	137.86	92.011	32.34	0.00017371	66.164	-67.376	155.792	-73.389	-84.865	76.860	68.000	-84.978	-80.179	-17.833	39.511	-80.633	-76.794	-76.089	-72.467	134.975	-72.456	-8191	255	
1728.106	1	1	0	0	0.15424	0.3383	0.10004	0.21237	0.18886	0.11922	0.21865	0.22245	0.12375	0.17726	0.40278	0.18597	0.073395	0.20696	0.077611	0.2845	-1.2208	-2.0292	-2.2771	-1.6333	-2.3708	-1.9438	-1.8604	-2.3667	-1.7271	-1.9896	-2.5563	-1.7146	-2.2188	-2.125	-1.5646	-2.7708	-45.140	184.818	159.601	191.128	-72.008	37.057	-5.777	128.551	51.557	30.418	-29.083	188.916	-82.446	44.842	-71.118	172.192	0.00023101	0.0022992	0.00022826	586.4	1.2301e-05	6.2623e-06	811.49	163.72	7.0307e-06	1.3649e-05	291.19	118.41	59.167	25.752	6.7875e-06	57.799	0.011388	0.016053	0.0045068	687.13	0.00016884	0.00017936	895.45	194.96	0.00016531	0.00017555	355.21	136.49	89.953	31.872	0.00016483	65.708	243.008	52.179	-12.790	-84.722	7.161	73.824	-84.809	-80.444	-36.925	35.368	-80.682	-76.419	-76.148	-71.779	0.689	-72.574	-8191	255	
1728.203	1	1	0	0	0.31179	0.066482	0.14672	0.096094	0.13624	0.27665	0.13378	0.36442	0.079648	0.14869	0.16742	0.2353	0.17691	0.26182	0.19191	0.11509	-1.4188	-1.8958	-2.4729	-1.8729	-2.25	-2.2479	-1.8479	-2.575	-1.7292	-1.6354	-2.4271	-1.9	-2.4375	-2.4813	-1.6292	-2.4917	117.838	192.277	243.818	261.636	204.280	123.406	27.976	253.343	111.579	168.321	251.381	215.802	126.700	-86.136	63.780	120.148	0.00011839	0.00062439	0.00039659	590.32	7.5195e-06	9.3717e-06	817.89	165.3	9.8918e-06	4.9486e-06	295.92	119.92	59.634	26.053	4.1503e-06	58.724	0.010744	0.015341	0.0043138	685.66	0.00016254	0.00017411	896.44	195.55	0.00016604	0.00017783	359.62	138.64	92.259	32.507	0.00017474	66.824	3.518	63.685	-83.702	-84.567	78.051	-15.197	-84.639	-80.188	213.840	164.487	-80.614	-75.903	-75.696	-71.955	78.665	-72.420	-8191	255	
1728.276	1	1	0	0	0.085128	0.13665	0.32192	0.02928	0.14674	0.22564	0.27633	0.14545	0.30876	0.135	0.10801	0.17968	0.11053	0.14676	0.086823	0.34963	-1.5187	-1.8354	-2.3167	-1.6167	-2.2125	-2.3375	-1.7708	-2.6042	-1.8958	-1.75	-2.6729	-1.7833	-1.9375	-2.425	-1.5375	-2.6375	-75.455	5.780	78.257	-75.511	-91.867	-39.360	205.352	218.628	142.158	-87.157	-48.649	259.590	146.534	11.569	175.615	215.112	0.00033423	0.00050409	0.00013168	591.45	1.3326e-05	1.6698e-05	813.48	164.2	4.0307e-06	2.0251e-05	294.82	120.15	59.277	25.906	1.7227e-05	58.063	0.011539	0.016311	0.0045954	691.93	0.00016963	0.00017976	898.14	195.7	0.00016683	0.00017525	357.27	137.76	90.908	32.076	0.00016886	65.705	212.555	5.025	-81.765	-84.376	-12.733	29.981	-84.548	-80.030	-51.225	113.223	-80.559	-76.481	-75.998	-71.479	100.988	-72.799	-8191	255	
#DATA ENDS
