BOXY.EXE: ISS Imagent and Oximeter Data Acquisition Program Version 0.80
Ascii Record File

#ACQ INFORMATION
2  Detector Channels 
16  External MUX Channels 
1  Auxiliary Channels 
5000  Waveform (CCF) Frequency (Hz)
1  Waveforms Skipped 
30  Waveforms Averaged 
1  Cycles Averaged 
16  Acquisitions per Waveform 
10.0806  Updata Rate (Hz) 

#FILE INFORMATION
TRUE -- External MUX Channel results are PARSED.
FALSE -- AC DC and Phase are NOT grouped.
TRUE -- Companion Program Settings File CREATED.
FALSE -- AC data not excluded
FALSE -- DC data not excluded
FALSE -- Phase data not excluded
FALSE -- Auxillary Chn. data not excluded
Tab delimiters

#CALIBRATION STATE
TRUE -- Waveform Calibration Values APPLIED.


#AUX CALIBRATION VALUES
Val Type	aux-1	

Term	1.0000e+00	
Factor	0.0000e+00	


#WF CALIBRATION VALUES
A = Detector Channel
Val Type	A-AC1	A-AC2	A-AC3	A-AC4	A-AC5	A-AC6	A-AC7	A-AC8	A-AC9	A-AC10	A-AC11	A-AC12	A-AC13	A-AC14	A-AC15	A-AC16	A-DC1	A-DC2	A-DC3	A-DC4	A-DC5	A-DC6	A-DC7	A-DC8	A-DC9	A-DC10	A-DC11	A-DC12	A-DC13	A-DC14	A-DC15	A-DC16	A-Ph1	A-Ph2	A-Ph3	A-Ph4	A-Ph5	A-Ph6	A-Ph7	A-Ph8	A-Ph9	A-Ph10	A-Ph11	A-Ph12	A-Ph13	A-Ph14	A-Ph15	A-Ph16	

Term	0.00000e+00	0.00000e+00	0.00000e+00	0.00000e+00	0.00000e+00	0.00000e+00	0.00000e+00	0.00000e+00	0.00000e+00	0.00000e+00	0.00000e+00	0.00000e+00	0.00000e+00	0.00000e+00	0.00000e+00	0.00000e+00	0.00000e+00	0.00000e+00	0.00000e+00	0.00000e+00	0.00000e+00	0.00000e+00	0.00000e+00	0.00000e+00	0.00000e+00	0.00000e+00	0.00000e+00	0.00000e+00	0.00000e+00	0.00000e+00	0.00000e+00	0.00000e+00	0.00000e+00	0.00000e+00	0.00000e+00	0.00000e+00	0.00000e+00	0.00000e+00	0.00000e+00	0.00000e+00	0.00000e+00	0.00000e+00	0.00000e+00	0.00000e+00	0.00000e+00	0.00000e+00	0.00000e+00	0.00000e+00	
Factor	1.00000e+00	1.00000e+00	1.00000e+00	1.00000e+00	1.00000e+00	1.00000e+00	1.00000e+00	1.00000e+00	1.00000e+00	1.00000e+00	1.00000e+00	1.00000e+00	1.00000e+00	1.00000e+00	1.00000e+00	1.00000e+00	1.00000e+00	1.00000e+00	1.00000e+00	1.00000e+00	1.00000e+00	1.00000e+00	1.00000e+00	1.00000e+00	1.00000e+00	1.00000e+00	1.00000e+00	1.00000e+00	1.00000e+00	1.00000e+00	1.00000e+00	1.00000e+00	X	X	X	X	X	X	X	X	X	X	X	X	X	X	X	X	

B = Detector Channel
Val Type	B-AC1	B-AC2	B-AC3	B-AC4	B-AC5	B-AC6	B-AC7	B-AC8	B-AC9	B-AC10	B-AC11	B-AC12	B-AC13	B-AC14	B-AC15	B-AC16	B-DC1	B-DC2	B-DC3	B-DC4	B-DC5	B-DC6	B-DC7	B-DC8	B-DC9	B-DC10	B-DC11	B-DC12	B-DC13	B-DC14	B-DC15	B-DC16	B-Ph1	B-Ph2	B-Ph3	B-Ph4	B-Ph5	B-Ph6	B-Ph7	B-Ph8	B-Ph9	B-Ph10	B-Ph11	B-Ph12	B-Ph13	B-Ph14	B-Ph15	B-Ph16	

Term	0.00000e+00	0.00000e+00	0.00000e+00	0.00000e+00	0.00000e+00	0.00000e+00	0.00000e+00	0.00000e+00	0.00000e+00	0.00000e+00	0.00000e+00	0.00000e+00	0.00000e+00	0.00000e+00	0.00000e+00	0.00000e+00	0.00000e+00	0.00000e+00	0.00000e+00	0.00000e+00	0.00000e+00	0.00000e+00	0.00000e+00	0.00000e+00	0.00000e+00	0.00000e+00	0.00000e+00	0.00000e+00	0.00000e+00	0.00000e+00	0.00000e+00	0.00000e+00	-5.89530e+01	-1.44325e+02	-1.41559e+02	-1.84369e+02	-4.86945e+01	-5.85597e+01	-1.57614e+02	-1.62015e+02	-4.53572e+01	-6.62197e+01	-1.71602e+02	-1.75721e+02	-1.84363e+02	-1.78174e+02	-3.82637e+01	-1.51058e+02	
Factor	1.74409e-05	1.37167e-04	4.48531e-05	1.56697e-01	1.36677e-06	1.62039e-06	1.61842e-01	5.41531e-02	1.20590e-06	1.56273e-06	1.95242e-01	3.23254e-02	2.24676e-02	8.29018e-03	1.30207e-06	1.20306e-02	2.34633e-06	2.56913e-06	7.14760e-07	8.26814e-02	2.78632e-08	2.81195e-08	8.00935e-02	2.86359e-02	2.76972e-08	2.79876e-08	9.66539e-02	1.63464e-02	1.19456e-02	4.40738e-03	2.77585e-08	6.14047e-03	X	X	X	X	X	X	X	X	X	X	X	X	X	X	X	X	



#DISTANCE SETTINGS
A = Detector Channel
A-1	A-2	A-3	A-4	A-5	A-6	A-7	A-8	A-9	A-10	A-11	A-12	A-13	A-14	A-15	A-16	

2.5000e+00	3.0000e+00	2.5000e+00	3.0000e+00	2.0000e+00	3.0000e+00	1.5000e+00	3.0000e+00	3.0000e+00	3.0000e+00	3.0000e+00	3.0000e+00	3.0000e+00	3.0000e+00	1.5000e+00	3.0000e+00	

B = Detector Channel
B-1	B-2	B-3	B-4	B-5	B-6	B-7	B-8	B-9	B-10	B-11	B-12	B-13	B-14	B-15	B-16	

1.0000e+01	1.0000e+01	1.0000e+01	1.4400e+00	1.0000e+01	1.0000e+01	1.5100e+00	1.9400e+00	1.0000e+01	1.0000e+01	1.9900e+00	2.4900e+00	2.4100e+00	2.9000e+00	1.0000e+01	2.9800e+00	




#DATA BEGINS
time	group	step	mark	flag	A-AC1	A-AC2	A-AC3	A-AC4	A-AC5	A-AC6	A-AC7	A-AC8	A-AC9	A-AC10	A-AC11	A-AC12	A-AC13	A-AC14	A-AC15	A-AC16	A-DC1	A-DC2	A-DC3	A-DC4	A-DC5	A-DC6	A-DC7	A-DC8	A-DC9	A-DC10	A-DC11	A-DC12	A-DC13	A-DC14	A-DC15	A-DC16	A-Ph1	A-Ph2	A-Ph3	A-Ph4	A-Ph5	A-Ph6	A-Ph7	A-Ph8	A-Ph9	A-Ph10	A-Ph11	A-Ph12	A-Ph13	A-Ph14	A-Ph15	A-Ph16	B-AC1	B-AC2	B-AC3	B-AC4	B-AC5	B-AC6	B-AC7	B-AC8	B-AC9	B-AC10	B-AC11	B-AC12	B-AC13	B-AC14	B-AC15	B-AC16	B-DC1	B-DC2	B-DC3	B-DC4	B-DC5	B-DC6	B-DC7	B-DC8	B-DC9	B-DC10	B-DC11	B-DC12	B-DC13	B-DC14	B-DC15	B-DC16	B-Ph1	B-Ph2	B-Ph3	B-Ph4	B-Ph5	B-Ph6	B-Ph7	B-Ph8	B-Ph9	B-Ph10	B-Ph11	B-Ph12	B-Ph13	B-Ph14	B-Ph15	B-Ph16	aux-1	digaux	

2622.742	1	1	0	768	0.15	0.032601	0.087321	0.082458	0.12164	0.075308	0.093197	0.13297	0.10538	0.13985	0.2695	0.10862	0.24503	0.22503	0.1201	0.041581	-3.2083	-3.1208	-2.9396	-3.8354	-2.9521	-3.35	-3.4875	-2.8396	-3.5583	-3.2979	-3.1792	-3.8771	-3.25	-3.4396	-3.6479	-3.0458	190.872	488.783	430.510	152.241	440.997	313.969	175.060	230.290	201.457	308.917	178.399	310.891	445.776	434.399	382.080	465.957	0.0011649	0.00084762	0.00033299	347.55	5.1175e-06	8.9383e-06	684.03	160.17	1.1398e-05	2.6203e-06	341.21	170.79	78.537	41.226	4.0824e-06	96.123	0.00066756	0.00062997	0.00017662	346.52	6.9919e-06	7.2082e-06	657.22	156.8	7.2705e-06	7.2303e-06	333.87	162.27	76.116	39.967	7.4595e-06	92.226	261.794	281.643	242.727	161.510	331.595	316.050	161.761	167.780	360.628	349.247	165.875	169.970	170.895	175.137	303.216	172.758	-8191	255	
2622.839	1	1	0	0	0.16721	0.071226	0.13357	0.069337	0.23485	0.15264	0.10738	0.13091	0.081502	0.14123	0.06425	0.28664	0.13288	0.082068	0.1971	0.23845	-3.1729	-3.3312	-2.9771	-3.5396	-3.0229	-3.3125	-3.75	-2.8	-3.5479	-3.4458	-2.8854	-3.7271	-3.1042	-3.3292	-3.8917	-3.1792	431.118	402.932	367.257	184.740	421.879	299.658	489.708	413.032	311.158	154.178	223.467	424.187	481.986	450.893	417.150	439.217	0.0010199	0.0011549	0.00018461	346.72	5.5741e-06	1.0784e-05	671.75	158	3.0874e-06	1.0004e-05	339.81	168.18	78.27	41.059	6.4678e-06	97.004	0.00073315	0.00071589	0.0002034	346.3	7.9808e-06	7.9443e-06	653.05	155.67	7.8435e-06	7.9309e-06	333.87	161.3	75.729	39.896	7.8403e-06	92.559	262.596	231.020	314.145	162.528	372.048	399.474	161.555	167.691	342.037	288.974	165.815	170.163	170.486	175.115	345.007	172.710	-8191	255	
2622.935	1	1	0	0	0.20419	0.093784	0.12534	0.12203	0.065632	0.094684	0.35398	0.20213	0.24045	0.16526	0.19318	0.43758	0.22168	0.10367	0.12639	0.20405	-3.1021	-3.6667	-2.7313	-3.8833	-3.1521	-3.1333	-3.7792	-3.0771	-3.4792	-3.5667	-2.9583	-3.8104	-3.2625	-3.0958	-3.7438	-3.1104	187.210	273.097	193.987	232.403	197.969	305.774	451.123	474.606	258.597	179.233	447.908	174.583	440.945	506.011	200.308	423.537	0.0010529	0.00032634	0.00031444	347.9	2.588e-06	1.225e-05	681.92	159.01	6.0398e-06	5.3152e-06	338.44	168.49	76.928	40.957	7.1434e-06	96.833	0.00075538	0.00073699	0.00020722	347.03	8.2573e-06	8.4138e-06	659.49	157.19	8.7122e-06	9.0252e-06	337.15	162.04	75.763	39.959	9.33e-06	92.458	256.751	185.418	200.430	161.822	243.174	319.929	161.723	167.911	318.847	377.624	165.631	169.915	170.746	175.163	306.217	172.843	-8191	255	
2623.031	1	1	0	0	0.17918	0.13331	0.1552	0.024892	0.21345	0.13042	0.19038	0.015432	0.092091	0.20486	0.25751	0.35645	0.15382	0.12359	0.30864	0.26786	-3.1167	-3.6792	-2.8458	-3.6063	-3.3229	-3.0646	-3.8604	-3	-3.2042	-3.5	-2.8708	-3.6688	-3.4729	-3.05	-3.6729	-3.3208	493.989	398.422	359.360	343.044	392.552	220.934	451.110	286.227	407.836	506.310	426.484	438.494	441.500	450.535	256.994	438.518	0.0010682	0.00040642	0.00030406	346.13	1.2283e-05	4.172e-06	683.03	159.43	1.0965e-05	6.729e-06	342.24	167.07	77.641	40.929	1.3623e-05	96.022	0.00089043	0.00089352	0.00024826	353.68	1.015e-05	1.0301e-05	665.2	158.65	1.0672e-05	1.0841e-05	345.01	162.81	76.801	40.135	1.0997e-05	92.247	263.283	255.771	251.984	162.039	326.227	237.001	161.696	167.625	324.439	322.677	165.731	170.041	170.429	174.713	289.389	172.617	-8191	255	
2623.125	1	1	0	0	0.16227	0.30021	0.057472	0.24062	0.14337	0.28163	0.071248	0.10489	0.069391	0.10093	0.16644	0.10513	0.18027	0.22851	0.24215	0.39071	-2.8875	-3.4917	-2.9167	-3.6042	-3.425	-2.95	-3.8208	-3.1729	-3.3021	-3.7687	-3.1958	-3.5042	-3.5604	-3	-3.6729	-3.325	259.590	465.476	477.422	483.404	225.307	165.005	187.610	493.450	222.586	435.803	431.597	472.886	153.913	159.105	183.124	455.325	0.00097466	0.00039145	5.7635e-05	348	4.9297e-06	7.8776e-06	674.95	156.3	5.7064e-06	9.5282e-06	332.94	166.38	75.856	40.03	1.14e-05	93.927	0.0010354	0.0010305	0.00028734	356.05	1.1313e-05	1.1247e-05	662.48	157.42	1.0875e-05	1.0841e-05	340.15	160.6	75.4	39.32	1.0702e-05	90.689	257.981	203.107	316.406	162.301	297.853	270.652	161.568	167.769	301.691	294.505	165.646	169.889	170.492	175.056	323.622	172.417	-8191	255	
2623.223	1	1	0	0	0.052038	0.26086	0.11863	0.247	0.18509	0.23378	0.090753	0.28564	0.11327	0.090752	0.17927	0.14102	0.29794	0.14525	0.10378	0.2973	-2.5604	-3.6688	-2.9667	-3.4729	-3.4833	-3.0667	-3.6083	-3.3083	-3.0646	-3.7438	-3.0667	-3.5438	-3.8208	-3.05	-3.5771	-3.4604	187.401	221.303	495.896	385.957	270.205	246.728	273.488	479.836	287.574	471.767	402.775	150.335	488.134	161.265	505.425	460.966	0.0010282	0.00089388	9.7151e-05	341.13	3.8789e-06	9.4044e-06	666.64	155.43	7.6504e-06	3.1187e-06	331.65	163.62	75.695	39.412	9.2897e-06	93.579	0.0010127	0.0010004	0.0002783	351.3	1.1153e-05	1.1124e-05	654.91	156.21	1.0968e-05	1.1151e-05	337.81	159.61	75.32	38.982	1.1543e-05	90.22	258.167	176.176	176.802	161.953	431.429	363.009	161.707	167.856	347.135	224.282	166.444	169.717	170.657	174.734	377.138	172.744	-8191	255	
2623.342	1	1	0	0	0.36176	0.20393	0.029379	0.31321	0.083307	0.17354	0.13978	0.30414	0.11873	0.12591	0.25393	0.18631	0.10634	0.11118	0.25483	0.060021	-2.65	-3.4062	-3.0646	-3.2854	-3.7292	-2.7854	-3.7938	-3.4333	-3.0333	-3.6917	-3.1833	-3.2812	-3.575	-3.15	-3.4771	-3.5062	314.041	198.794	444.707	173.220	283.050	171.275	461.616	435.911	174.069	289.638	362.801	480.724	451.417	163.858	475.537	434.042	0.0010004	0.00052639	0.00010827	338.98	1.0822e-06	1.0786e-05	674.22	155.79	1.0832e-05	9.0813e-06	338.53	164.19	75.822	39.166	3.2973e-06	93.925	0.0010993	0.0010996	0.00030784	355.04	1.2367e-05	1.2692e-05	662.81	158.67	1.2762e-05	1.2696e-05	347.92	160.69	75.947	38.89	1.3084e-05	90.365	259.280	165.052	321.693	161.985	185.123	304.292	162.103	167.646	268.488	271.709	165.620	169.791	170.416	174.623	371.488	172.741	-8191	255	
2623.438	1	1	0	0	0.026292	0.18286	0.059811	0.24545	0.25927	0.069164	0.14463	0.25065	0.26469	0.21259	0.11809	0.22418	0.14959	0.27607	0.23503	0.16557	-2.7021	-3.6708	-3.0771	-3.2521	-3.7938	-2.9604	-3.5625	-3.7125	-3.0896	-3.7479	-3.1042	-3.2188	-3.8354	-3.0396	-3.3854	-3.6417	324.774	391.790	298.047	257.359	435.542	258.698	430.172	406.600	469.665	178.425	165.403	483.381	397.738	175.867	214.582	410.603	0.00095394	0.00050638	0.00019975	342.62	8.8587e-06	1.0151e-05	685.11	157.75	3.0932e-06	4.1202e-06	334.6	164.48	75.821	39.295	6.8067e-06	93.079	0.0011976	0.0012057	0.00033734	362.19	1.327e-05	1.3267e-05	674.94	160.41	1.3459e-05	1.3467e-05	351.48	161.54	76.562	38.96	1.3869e-05	90.137	260.791	203.900	152.403	162.195	364.134	238.641	161.525	167.760	347.785	330.682	165.686	169.866	170.199	174.640	376.732	172.437	-8191	255	
2623.534	1	1	0	0	0.010972	0.18145	0.082183	0.24227	0.020255	0.17061	0.16832	0.083524	0.078618	0.17054	0.25251	0.12683	0.094646	0.36051	0.21092	0.15899	-2.2479	-3.6958	-3.3125	-3.0042	-3.7458	-2.9313	-3.4792	-3.7542	-3.0187	-3.5167	-3.4938	-2.9271	-3.7188	-3.0438	-3.2313	-3.7396	374.169	361.310	465.236	191.260	149.361	257.071	508.229	472.337	291.975	283.506	489.637	297.999	388.488	203.876	471.646	465.938	0.0010659	0.0014069	0.00019997	351.51	1.0232e-05	1.253e-05	688.81	157.36	2.1112e-06	3.4421e-06	338.71	162.31	74.256	38.131	4.1454e-06	90.128	0.0012505	0.0012837	0.00036275	369.92	1.4251e-05	1.4678e-05	683.38	162.3	1.5151e-05	1.5497e-05	358.71	160.53	76.352	38.507	1.7194e-05	88.302	262.273	237.389	176.403	162.322	408.799	317.029	161.436	167.334	247.310	181.845	165.319	169.588	170.248	174.647	286.483	172.319	-8191	255	
2623.630	1	1	0	0	0.058897	0.20632	0.28762	0.19582	0.14902	0.32418	0.23052	0.20802	0.1157	0.16212	0.23871	0.053994	0.29245	0.2653	0.046138	0.24484	-2.4833	-3.5854	-3.3875	-3.0563	-3.7	-3.05	-3.3083	-3.7	-2.9833	-3.5875	-3.5896	-3.1146	-3.8187	-3.2354	-3.175	-3.5625	379.920	270.895	493.783	195.670	203.055	373.557	429.151	156.299	272.596	434.692	501.998	460.158	336.395	149.728	363.350	469.624	0.00093347	0.00056192	0.00016778	351.96	8.2172e-06	1.4675e-05	690.34	155.66	2.5009e-06	1.13e-05	329.95	159.53	73.74	37.123	1.2874e-05	88.437	0.0016149	0.0017207	0.00049815	387.05	2.0372e-05	2.1313e-05	703.89	168.05	2.233e-05	2.2961e-05	381.64	162.64	78.979	38.932	2.5417e-05	88.901	260.380	281.358	224.952	161.627	354.470	313.133	161.426	167.508	253.959	348.856	165.485	169.252	170.088	173.985	261.039	172.359	-8191	255	
2623.727	1	1	0	0	0.19983	0.18477	0.10056	0.35497	0.1921	0.14895	0.10561	0.1122	0.25583	0.12227	0.011351	0.16372	0.18285	0.045214	0.24755	0.073232	-2.525	-3.5396	-3.5417	-2.7792	-3.6729	-3.2646	-3.2104	-3.7708	-2.8792	-3.5417	-3.6792	-3.125	-3.5938	-3.3021	-2.9875	-4.0104	153.298	290.916	452.642	175.713	202.630	420.106	319.508	319.534	377.719	303.408	162.542	179.100	157.296	331.044	302.948	266.462	0.0008367	0.00063299	0.00018982	352.42	1.0554e-05	1.0878e-05	692.57	155.43	1.9825e-05	9.287e-06	329.41	158.04	72.872	36.545	1.1243e-05	87.937	0.0023132	0.0024871	0.00071936	414.09	2.8963e-05	3.0204e-05	731.8	177.1	3.0879e-05	3.16e-05	410.22	166.9	81.946	39.896	3.435e-05	90.075	258.603	330.181	251.571	161.799	330.576	261.087	161.149	166.714	315.761	257.741	165.230	169.099	170.014	173.782	309.966	172.491	-8191	255	
2623.823	1	1	0	0	0.21224	0.39825	0.055672	0.33981	0.16321	0.18075	0.17705	0.0093027	0.24362	0.024944	0.05872	0.056329	0.19863	0.19666	0.014639	0.10741	-2.6729	-3.2979	-3.7125	-2.9354	-3.4542	-3.4958	-3.0208	-3.7771	-3.0583	-3.2208	-3.8063	-3.0708	-3.5687	-3.4229	-2.9562	-3.7062	411.252	434.294	381.771	507.618	430.857	506.180	278.181	243.653	318.501	272.614	337.661	332.671	495.336	473.525	149.801	231.710	0.00099798	0.00071473	0.00030095	355.99	6.4129e-06	8.0522e-06	690.49	153.84	9.8061e-06	7.875e-06	331.89	155.49	71.651	36.119	6.8887e-06	86.528	0.0030583	0.0032855	0.00092665	440.44	3.6847e-05	3.7868e-05	755.8	183.88	3.8282e-05	3.968e-05	438.78	169.75	84.928	40.698	4.2281e-05	90.684	258.772	226.530	235.766	160.837	228.504	207.570	161.430	166.874	326.291	183.933	165.621	169.275	169.754	173.999	409.639	172.361	-8191	255	
2623.919	1	1	0	0	0.19115	0.080038	0.046994	0.10153	0.21135	0.057807	0.25271	0.11307	0.057102	0.098986	0.40605	0.23793	0.11582	0.14035	0.080398	0.27967	-2.6646	-3.1125	-3.5354	-2.9458	-3.5146	-3.6625	-2.7896	-3.6417	-3.0854	-3.0563	-3.6813	-3.0292	-3.3417	-3.7208	-3.0146	-3.6271	395.121	231.982	222.734	322.044	299.354	274.970	460.711	314.024	314.997	328.289	481.606	438.194	229.723	402.637	492.418	441.227	0.00090451	0.0011325	0.00040959	350.76	5.6845e-06	1.0139e-05	691.4	153.9	1.7563e-05	1.8945e-05	322.91	153.15	70.967	34.739	1.6104e-05	83.437	0.0037458	0.0041022	0.0011631	466.43	4.6923e-05	4.877e-05	787.12	195.38	5.0849e-05	5.2805e-05	478.95	174.61	89.762	41.966	5.7168e-05	91.59	264.504	181.171	417.751	161.927	349.789	446.605	161.344	166.420	325.881	317.535	164.954	169.308	169.804	174.124	425.020	171.967	-8191	255	
2624.038	1	1	0	0	0.12953	0.15579	0.1739	0.16684	0.11779	0.13516	0.054773	0.17282	0.3126	0.082234	0.17937	0.1841	0.050182	0.23905	0.18508	0.15341	-2.9938	-3.1625	-3.7729	-3.1375	-3.3354	-3.575	-3.075	-3.6167	-3.45	-3.0062	-3.9396	-3.1063	-3.2188	-3.7125	-2.8896	-3.8187	321.913	304.728	418.254	486.550	253.695	349.367	212.865	380.724	469.196	446.058	156.141	489.410	272.858	150.412	383.541	431.203	0.00094727	0.0040678	0.00081299	353.67	2.0846e-05	1.8746e-05	694.19	153.89	2.7821e-05	1.463e-05	326.82	153.63	70.922	35.043	7.9702e-06	85.376	0.005052	0.0055285	0.0015315	509.73	6.0186e-05	6.1131e-05	824.89	206.68	6.0958e-05	6.1441e-05	506.96	178.73	91.872	42.462	5.7679e-05	92.411	261.364	508.609	242.994	161.905	333.322	190.008	161.119	166.685	331.496	268.401	165.873	168.825	169.469	173.909	494.679	172.241	-8191	255	
2624.134	1	1	0	0	0.036157	0.374	0.17768	0.090616	0.17806	0.20365	0.28268	0.12314	0.053081	0.13144	0.24974	0.1597	0.062617	0.29999	0.088675	0.25637	-3.0687	-3.0771	-3.6562	-2.9437	-3.0938	-3.7792	-3.1083	-3.5354	-3.3104	-3.1458	-3.7375	-3.2771	-3.2771	-3.6208	-2.8708	-3.6437	448.124	480.882	225.592	278.777	295.079	191.925	422.824	502.777	406.537	255.476	463.483	432.024	337.071	462.604	220.681	433.240	0.00091731	0.0010935	0.00049073	361.03	1.923e-05	1.3421e-05	714.69	158.15	1.1151e-05	3.2449e-05	342.91	160.18	74.462	37.29	1.087e-05	89.82	0.0047047	0.0049658	0.0013423	489.3	4.9612e-05	4.8674e-05	800.32	195.02	4.39e-05	4.3066e-05	452.84	172.55	86.206	40.968	3.62e-05	91.843	245.055	390.598	182.169	161.758	255.045	247.821	161.169	166.991	292.066	351.521	165.058	168.712	169.748	174.295	309.114	172.211	-8191	255	
2624.230	1	1	0	0	0.049034	0.1691	0.13713	0.32544	0.24411	0.10024	0.3388	0.22351	0.15905	0.1255	0.22726	0.18683	0.12717	0.40373	0.24035	0.14416	-3.0667	-2.8688	-3.5104	-3.2771	-3.1083	-3.7	-3.1312	-3.3792	-3.3792	-2.7917	-3.6396	-3.3187	-3.1562	-3.7271	-2.9896	-3.4021	201.470	239.846	272.944	489.464	362.569	194.741	470.110	222.133	362.670	270.785	370.186	226.393	199.543	471.668	306.332	254.846	0.0010166	0.0011902	0.00034229	373.92	6.5439e-06	2.0232e-05	744.55	166.88	1.2795e-05	1.3619e-05	361.19	168.08	78.02	39.055	4.3362e-06	93.011	0.002947	0.003007	0.00080474	439.95	2.9437e-05	2.8273e-05	773.06	183.25	2.5024e-05	2.4388e-05	405.7	169.78	82.117	40.137	2.0163e-05	91.577	257.892	462.768	493.865	161.436	309.181	303.128	161.341	167.303	284.577	351.572	164.878	169.121	169.965	173.977	272.433	172.213	-8191	255	
2624.304	1	1	0	0	0.26202	0.049405	0.078283	0.12153	0.13418	0.3142	0.12106	0.15679	0.12396	0.27789	0.15454	0.1386	0.3496	0.17509	0.11923	0.093134	-3.0438	-2.8187	-3.6083	-3.3229	-2.9646	-3.7562	-3.1583	-3.3708	-3.7354	-3.0458	-3.7562	-3.4646	-2.9625	-3.8563	-3.2062	-3.5146	392.846	227.486	202.501	462.864	291.069	440.019	443.018	349.307	448.428	284.055	488.767	453.520	364.970	478.589	477.523	427.902	0.0010184	0.0011775	0.00010229	378.52	1.492e-05	1.1366e-05	756.07	171.14	1.4344e-05	1.5887e-05	359.76	170.08	78.611	39.785	2.9135e-06	93.691	0.0016875	0.0017064	0.00046301	406.16	1.7565e-05	1.7445e-05	753.67	176.38	1.6379e-05	1.6167e-05	380.72	166.9	79.848	39.832	1.5537e-05	91.136	264.877	234.911	499.718	161.775	320.674	297.132	161.577	166.899	323.094	315.134	164.893	168.959	169.603	174.022	426.241	172.295	-8191	255	
2624.422	1	1	0	0	0.30462	0.037383	0.24101	0.035588	0.14943	0.23697	0.2293	0.10244	0.027778	0.13316	0.064095	0.1782	0.099427	0.23787	0.282	0.048379	-3.4313	-2.9104	-3.5771	-3.5479	-2.7833	-3.7083	-3.1063	-3.2667	-3.7208	-2.7479	-3.4813	-3.4521	-2.825	-3.6625	-3.2104	-3.2229	421.921	262.639	326.875	440.021	308.215	398.023	469.016	465.647	381.281	366.800	465.330	425.333	379.434	333.935	505.357	410.916	0.0010379	0.00058228	0.00033729	381.76	1.2452e-05	4.893e-06	755.29	167.78	6.0837e-06	7.8903e-06	355.73	163.55	75.812	38.286	6.3017e-06	90.25	0.0014507	0.0015157	0.00042976	406.96	1.78e-05	1.8605e-05	755.73	177.31	2.0646e-05	2.1522e-05	396.7	166.46	81.003	39.801	2.5615e-05	90.345	260.888	202.219	175.869	161.781	377.095	468.178	161.261	166.969	403.391	346.759	165.040	169.037	169.724	174.050	255.339	172.156	-8191	255	
2624.519	1	1	0	0	0.18458	0.19617	0.24347	0.22076	0.13998	0.29361	0.34158	0.25485	0.066704	0.060822	0.13187	0.094119	0.02571	0.16099	0.035303	0.10779	-3.2521	-3.0604	-3.3354	-3.6208	-3	-3.55	-3.3146	-3.1021	-3.6958	-3.0875	-3.5125	-3.6167	-2.9458	-3.6417	-3.4771	-3.1063	405.641	213.507	261.477	389.271	249.284	344.051	446.430	466.998	371.231	460.881	192.735	501.779	381.263	208.439	239.529	235.225	0.0009649	0.00098656	0.00055236	372.33	1.9428e-05	1.2371e-05	727.2	160.6	9.228e-06	2.7759e-06	336.14	159.13	72.141	36.595	1.3025e-05	86.804	0.0024115	0.0026211	0.00075447	439.69	3.1725e-05	3.2666e-05	777.34	185.91	3.6252e-05	3.7587e-05	439.92	171.13	85.301	41.101	4.3444e-05	91.169	262.561	382.796	218.796	161.713	287.834	361.016	160.875	166.608	343.255	481.164	164.664	169.142	169.680	174.613	232.659	172.366	-8191	255	
2624.615	1	1	0	0	0.17303	0.075616	0.080013	0.23189	0.25299	0.11378	0.16375	0.13587	0.14289	0.31241	0.26003	0.10601	0.11829	0.25939	0.13474	0.17027	-3.1354	-2.9938	-3.1833	-3.6063	-2.8708	-3.5979	-3.4	-2.9562	-3.7375	-3.2104	-3.1604	-3.8438	-2.9354	-3.5792	-3.4979	-3.1583	230.158	171.405	311.261	154.201	481.990	378.834	431.704	266.141	169.291	423.224	425.581	377.376	417.734	478.709	160.110	448.675	0.0010129	0.0015258	0.00036225	359.82	1.7008e-05	3.1958e-05	702.04	154.91	1.9016e-05	3.3423e-06	324.54	153.22	69.969	35.162	1.365e-05	83.692	0.0038887	0.0042322	0.0011835	473.46	4.6469e-05	4.7088e-05	789.73	192.05	4.6987e-05	4.8039e-05	461.13	171.28	85.779	40.953	4.9273e-05	89.612	262.529	205.984	324.775	161.277	153.795	268.649	161.052	166.894	317.996	271.087	165.541	169.539	170.068	174.449	354.790	172.668	-8191	255	
2624.735	1	1	0	0	0.24072	0.17308	0.081987	0.13746	0.20971	0.19404	0.099056	0.11939	0.085993	0.099791	0.19582	0.14791	0.057193	0.18013	0.19811	0.13375	-3.1354	-3.0896	-3.1312	-3.7125	-2.9354	-3.4292	-3.6854	-3.0333	-3.7562	-3.3146	-3.3438	-3.8271	-3.05	-3.4729	-3.6229	-2.9583	217.595	190.249	348.552	335.815	491.874	246.164	255.616	180.782	163.203	455.053	227.570	287.679	255.998	503.736	301.408	475.646	0.00069845	0.00095088	0.00019369	346.91	9.3371e-06	5.2564e-06	676.59	147.93	8.3141e-06	3.3135e-06	314.72	149.97	67.663	34.124	5.2516e-06	81.926	0.0042444	0.0045613	0.001268	468.44	4.9514e-05	4.9786e-05	773.67	188.25	4.8732e-05	4.9451e-05	454.38	168.03	84.24	39.965	4.8588e-05	87.881	255.427	507.829	221.644	161.024	239.645	405.949	161.269	167.125	438.274	347.767	165.249	169.187	170.229	174.928	475.822	172.529	-8191	255	
2624.831	1	1	0	0	0.031226	0.17404	0.28173	0.15727	0.20874	0.17531	0.10842	0.052432	0.23198	0.27427	0.17865	0.21702	0.20777	0.051778	0.19077	0.25866	-3.4208	-3.3354	-3.15	-3.6979	-2.9938	-3.4292	-3.5979	-3.0875	-3.6688	-3.3563	-2.8854	-3.7708	-3.2083	-3.5333	-3.75	-3.1562	321.349	317.592	467.489	378.283	294.531	291.537	397.321	414.555	410.100	470.769	457.968	494.918	186.817	431.851	189.068	437.903	0.00074851	0.00080022	0.00051432	334.14	1.1215e-05	3.6044e-05	662.43	145.67	2.1127e-05	1.5678e-05	310.77	148.14	67.27	33.772	7.1014e-06	81.203	0.0041799	0.0045252	0.001255	457.62	4.9346e-05	4.957e-05	758.58	185.15	4.7645e-05	4.8043e-05	446.82	165.94	82.734	39.259	4.7255e-05	86.75	255.227	211.872	196.022	162.282	221.759	229.751	161.273	167.201	201.861	331.559	165.313	169.635	170.352	175.136	448.744	172.813	-8191	255	
2624.903	1	1	0	0	0.22656	0.17341	0.19954	0.066965	0.30837	0.19527	0.26327	0.18919	0.19534	0.22899	0.068036	0.55717	0.26937	0.21623	0.21156	0.10209	-3.1937	-3.5979	-3.0021	-3.7125	-3.0896	-3.2229	-3.7896	-2.9729	-3.6583	-3.5604	-2.9917	-3.7625	-3.2125	-3.075	-3.6229	-3.0938	303.515	312.936	378.763	435.357	392.354	200.900	461.754	491.209	507.060	192.414	404.954	202.502	456.753	447.542	455.496	471.971	0.00053868	0.0010212	0.00016743	330.59	1.9058e-05	1.0297e-05	650.32	145.06	5.1062e-06	2.9632e-05	308.37	148.77	68.05	34.182	1.9662e-05	82.307	0.004032	0.0043556	0.0012109	447.44	4.7383e-05	4.8189e-05	744.64	183.89	4.7646e-05	4.8976e-05	447.82	167.39	84.102	40.057	4.9849e-05	88.333	271.935	278.206	502.142	162.134	352.824	466.547	161.380	167.687	225.303	305.220	165.941	169.711	170.479	175.158	236.519	172.981	-8191	255	
2625.024	1	1	0	0	0.22157	0.13135	0.26835	0.23745	0.16671	0.052446	0.18937	0.093942	0.10485	0.049916	0.12412	0.16367	0.2879	0.15446	0.15975	0.37723	-3.1625	-3.4417	-3.0021	-3.6604	-3.4188	-3.2875	-3.7313	-3	-3.3417	-3.5729	-2.8917	-3.7375	-3.3875	-3.1208	-3.8	-3.0875	349.023	188.996	227.866	489.217	357.366	217.831	282.488	324.733	430.664	401.790	483.040	448.329	430.817	502.495	266.129	444.164	0.00076324	0.0008927	0.00045078	328.44	6.5829e-06	8.6616e-06	637.49	143.34	8.3925e-06	8.7376e-06	300.6	147.7	68.107	34.099	7.5148e-06	81.981	0.004398	0.0048259	0.0013501	461.2	5.3832e-05	5.4683e-05	751.6	189.03	5.3799e-05	5.3848e-05	459.08	168.95	85.38	40.313	5.1068e-05	88.342	244.341	453.698	305.649	162.486	290.356	196.239	161.927	167.645	422.062	244.688	165.955	169.846	169.566	174.745	508.725	172.458	-8191	255	
2625.118	1	1	0	0	0.14846	0.033605	0.35098	0.28099	0.12233	0.24493	0.11334	0.066501	0.17708	0.17387	0.053724	0.429	0.25598	0.075574	0.1304	0.26996	-2.8958	-3.6437	-2.6917	-3.6292	-3.3042	-2.775	-3.6271	-3.1188	-3.0062	-3.6562	-2.9562	-3.6021	-3.375	-3.0458	-3.5667	-3.2333	172.352	321.764	328.816	428.837	423.414	259.951	398.549	326.989	200.853	273.970	155.184	395.894	483.502	181.709	381.614	430.135	0.00077782	0.0018844	0.00048157	319.77	9.7848e-06	1.1219e-05	629.02	140.63	5.8917e-06	1.0648e-05	301.71	148.39	68.224	34.41	2.0101e-05	82.684	0.0043958	0.0046635	0.0013008	449.59	5.0187e-05	5.065e-05	732.86	181.4	4.9361e-05	4.9415e-05	442.07	166.88	84.028	39.863	4.6686e-05	87.671	274.005	466.924	464.336	162.125	314.744	427.690	161.458	167.111	184.618	426.409	166.612	169.697	170.238	174.719	235.252	172.484	-8191	255	
2625.214	1	1	0	0	0.27316	0.063385	0.1268	0.1561	0.16266	0.2062	0.036511	0.053879	0.097602	0.28324	0.031769	0.15332	0.23282	0.11326	0.095056	0.17054	-2.7062	-3.7042	-2.9437	-3.4104	-3.5021	-2.9375	-3.8	-3.2375	-3.1417	-3.7854	-3.0354	-3.4562	-3.6063	-3.1396	-3.6875	-3.3792	377.539	172.531	366.572	502.923	402.413	250.933	362.510	237.096	440.472	184.940	283.617	451.954	453.679	418.608	495.487	453.201	0.00087813	0.0011138	0.00025171	324.63	9.99e-06	1.5979e-05	633.57	141.98	1.7752e-05	1.4213e-05	304.23	149.08	68.851	34.849	1.4978e-05	83.652	0.0039635	0.0042365	0.0011713	438.36	4.6136e-05	4.635e-05	725.06	179.75	4.5467e-05	4.5868e-05	432.25	165.68	83.338	39.74	4.3307e-05	87.718	250.472	436.450	179.079	161.716	307.167	257.511	161.592	167.226	352.830	474.182	165.944	169.649	170.492	174.648	340.404	172.633	-8191	255	
2625.335	1	1	0	0	0.05545	0.13553	0.23561	0.32255	0.018569	0.087816	0.17593	0.098401	0.23541	0.11763	0.1354	0.20663	0.24201	0.30494	0.27257	0.18546	-2.7167	-3.5687	-2.9458	-3.4771	-3.5438	-3.0604	-3.7104	-3.4542	-2.9958	-3.6667	-3.2729	-3.2854	-3.6063	-2.7458	-3.5208	-3.6479	464.031	489.958	364.616	445.226	201.866	335.942	240.390	474.310	185.134	190.431	192.820	467.211	408.922	498.117	492.815	447.495	0.00067192	0.00087299	0.00045577	327.83	1.4172e-05	1.3002e-05	637.87	143.74	6.6551e-07	2.7527e-06	311.96	151.94	69.761	35.553	1.3133e-05	85.047	0.0036869	0.0039055	0.0010781	429.54	4.1961e-05	4.2047e-05	716.34	176.89	4.0878e-05	4.1086e-05	420.79	165.76	82.434	39.855	4.0344e-05	88.689	262.064	234.970	475.079	161.909	307.474	318.767	161.842	167.442	334.949	190.830	165.714	169.590	170.162	174.587	317.483	172.566	-8191	255	
2625.431	1	1	0	0	0.22206	0.17301	0.31295	0.22439	0.32329	0.2053	0.19522	0.12686	0.10382	0.077905	0.085835	0.11212	0.10611	0.062978	0.12317	0.16966	-2.5979	-3.6708	-3.0771	-3.3396	-3.4542	-2.9833	-3.55	-3.5104	-2.9437	-3.5792	-3.1021	-3.1458	-3.675	-3.0542	-3.5896	-3.55	373.690	300.517	370.817	296.105	464.307	364.996	411.495	493.286	286.572	490.690	486.173	200.472	466.184	315.629	259.742	405.934	0.00083524	0.0012954	0.00019442	328.85	5.5188e-06	2.2634e-05	643.94	146.38	1.34e-05	6.1116e-06	309.65	152.79	70.435	35.397	2.0534e-05	85.004	0.0034154	0.0036268	0.00099686	421.06	3.8776e-05	3.9046e-05	712.59	176.21	3.8314e-05	3.8677e-05	416.73	165.34	81.878	39.432	3.8681e-05	88.434	253.736	237.256	191.713	162.384	231.747	216.193	161.804	167.529	382.504	202.684	165.969	169.940	170.513	174.848	459.263	172.640	-8191	255	
2625.527	1	1	0	0	0.19846	0.066635	0.20031	0.14229	0.12603	0.15591	0.26806	0.079568	0.16258	0.11299	0.15641	0.17019	0.096559	0.41996	0.22106	0.30415	-2.5812	-3.6562	-3.1437	-3.1688	-3.6958	-2.9333	-3.5917	-3.4604	-2.9875	-3.7812	-3.3458	-3.2313	-3.8083	-3.1	-3.2146	-3.6354	246.368	477.318	356.667	317.763	405.452	416.072	418.898	214.645	229.345	305.506	337.965	408.651	456.277	176.682	403.114	401.906	0.00086696	0.0017549	0.00012423	324.46	1.0262e-05	6.5398e-06	640.78	146.68	1.0647e-05	2.2591e-05	311.11	150.68	69.344	34.929	1.5347e-05	83.62	0.0034722	0.0037714	0.0010637	429.35	4.2942e-05	4.4018e-05	726.58	182.43	4.5598e-05	4.6823e-05	445.46	169.19	85.66	40.696	4.9862e-05	89.669	251.088	204.900	486.196	161.675	245.267	222.529	161.395	167.407	297.696	309.172	165.323	169.507	170.582	174.401	293.109	172.766	-8191	255	
2625.599	1	1	0	0	0.19064	0.2621	0.25226	0.097466	0.16706	0.30514	0.24057	0.19377	0.18698	0.22215	0.23433	0.27609	0.033176	0.28132	0.017357	0.27326	-2.3688	-3.7062	-3.2938	-3.0062	-3.6729	-3.1063	-3.45	-3.7708	-2.975	-3.5333	-3.4688	-3.0521	-3.8312	-3.3146	-3.0708	-3.9083	152.333	302.063	404.066	269.654	178.689	188.260	362.901	470.264	380.703	171.544	167.678	409.655	191.810	460.589	371.074	163.306	0.00089147	0.00089384	5.1947e-05	328.26	9.3651e-06	2.4526e-05	639.94	145.86	1.6668e-05	1.906e-05	309.94	149.83	68.616	34.31	2.2973e-05	82.553	0.004368	0.0047656	0.0013512	466.03	5.4042e-05	5.5405e-05	763.11	194.57	5.7418e-05	5.9241e-05	488.98	175.35	90.452	42.282	6.2905e-05	91.814	259.007	271.166	362.134	162.519	259.955	430.288	161.475	167.117	272.636	361.925	166.360	169.419	170.158	174.285	372.281	172.514	-8191	255	
2625.720	1	1	0	0	0.29169	0.076902	0.096288	0.052725	0.20236	0.13938	0.21201	0.044872	0.15913	0.37696	0.26479	0.19137	0.14314	0.098481	0.16679	0.19751	-2.3812	-3.5167	-3.4729	-2.9875	-3.6167	-3.1542	-3.2896	-3.8958	-2.9625	-3.3667	-3.6104	-3.0542	-3.7375	-3.3354	-2.9854	-3.8708	490.937	443.335	193.144	256.243	326.692	324.212	442.674	402.681	218.935	218.836	176.040	498.867	391.315	310.105	326.432	473.995	0.00092114	0.0024887	0.0006134	327.48	7.4781e-07	5.2677e-06	647.55	145.51	1.6821e-05	1.8669e-05	311.23	150.77	69.152	34.738	1.7957e-05	84.01	0.0054571	0.0059043	0.0016503	495.97	6.3321e-05	6.4432e-05	788.07	201.09	6.2369e-05	6.2816e-05	498.52	176.53	90.66	42.286	5.9099e-05	91.647	277.401	171.902	216.657	161.304	498.966	246.946	161.599	167.554	242.716	497.003	165.465	169.701	170.063	174.668	286.252	172.528	-8191	255	
2625.816	1	1	0	0	0.20058	0.053942	0.11454	0.074791	0.08571	0.32794	0.22061	0.18281	0.088828	0.15981	0.22903	0.24476	0.068472	0.050091	0.12882	0.13917	-2.7104	-3.4396	-3.3896	-3.1229	-3.7625	-3.2438	-3.0708	-3.7229	-3.1	-3.3042	-3.7646	-3.025	-3.6417	-3.5563	-3.0042	-3.8875	400.830	354.173	225.317	395.052	452.107	280.228	424.912	453.875	276.520	438.975	476.973	488.625	410.385	460.218	231.939	493.340	0.0009059	0.00071552	0.00052194	327.94	5.9087e-06	2.2657e-05	651.35	147.14	1.9536e-05	1.4578e-05	314.32	150.14	68.692	34.655	2.1507e-05	82.92	0.0048969	0.0052612	0.0014379	473.74	5.5221e-05	5.5512e-05	762.4	192.35	5.3255e-05	5.3615e-05	469.95	171.69	87.124	41.063	5.4063e-05	89.622	257.182	340.183	234.071	161.473	234.753	387.211	161.745	167.672	342.082	280.487	165.952	169.413	170.352	174.277	239.708	172.579	-8191	255	
2625.912	1	1	0	0	0.20071	0.27473	0.069641	0.3095	0.15542	0.044336	0.17656	0.33878	0.16695	0.19829	0.27856	0.28585	0.080042	0.065249	0.0041942	0.19996	-2.65	-3.3042	-3.6312	-3.1021	-3.475	-3.5021	-3.1396	-3.6917	-3.2479	-3.1646	-3.7583	-3.0146	-3.6021	-3.4542	-2.8771	-3.8125	203.256	498.211	331.745	420.155	158.036	278.505	451.119	420.967	349.780	474.281	157.596	154.089	446.909	352.768	504.295	175.890	0.0010193	0.00048611	0.00012403	328.64	1.7019e-05	1.2191e-05	647.52	143.99	1.5592e-05	1.6813e-05	311.46	149.01	68.207	34.294	2.2464e-05	82.783	0.0046412	0.0050654	0.0014186	471.32	5.6058e-05	5.7286e-05	767.15	194.54	5.7895e-05	5.9403e-05	488.35	173.84	89.64	42.039	6.2175e-05	91.008	262.226	160.878	346.924	161.977	282.216	294.619	161.731	167.313	410.880	244.493	165.594	169.490	170.017	174.620	474.668	172.549	-8191	255	
2626.006	1	1	0	0	0.19287	0.1205	0.12037	0.088752	0.0932	0.025042	0.18321	0.076922	0.070409	0.045178	0.18088	0.14831	0.17974	0.25611	0.17606	0.18919	-2.725	-2.9708	-3.5271	-2.9125	-3.3354	-3.45	-3.1417	-3.725	-3.2854	-3.1437	-3.725	-3.0542	-3.4604	-3.675	-2.8625	-3.6667	448.458	329.903	479.994	160.154	291.238	473.533	455.419	480.103	426.655	446.358	268.683	498.803	247.773	184.370	265.513	493.017	0.00066544	0.0010307	0.0011191	326.93	9.07e-06	7.8157e-06	641.49	144.83	1.8882e-05	3.9358e-05	306.88	146.99	68.641	34.266	2.1195e-05	81.627	0.0053779	0.0058739	0.0016459	497.86	6.5016e-05	6.6248e-05	791.48	203.71	6.7878e-05	7.0088e-05	522.46	179.66	94.552	43.735	7.3728e-05	93.121	234.338	249.685	507.825	161.687	192.255	184.856	161.153	167.527	391.264	257.453	165.746	169.527	169.760	174.153	509.221	172.351	-8191	255	
2626.127	1	1	0	0	0.21092	0.18573	0.1736	0.056577	0.29063	0.051368	0.21541	0.091098	0.22307	0.068868	0.22276	0.15104	0.14351	0.089277	0.21586	0.27759	-2.8354	-3.0563	-3.5854	-3.0771	-3.2687	-3.5917	-3.0958	-3.6854	-3.3812	-2.925	-3.7021	-3.1604	-3.3042	-3.8729	-3.0479	-3.6875	323.895	294.586	232.901	228.838	289.837	498.571	441.740	156.782	504.495	257.420	219.548	441.007	295.266	173.766	346.683	492.230	0.00073357	0.0029992	0.00041623	328.27	3.7617e-06	1.3946e-05	643.05	144.42	1.1854e-05	1.1347e-05	306.54	149.77	68.902	34.426	1.5411e-05	82.336	0.0063951	0.0069267	0.0019289	526.79	7.3959e-05	7.3948e-05	808.78	208.93	7.0338e-05	7.0573e-05	518.46	179.51	93.484	43.081	6.5842e-05	91.799	260.155	252.353	159.620	161.993	283.186	345.621	161.714	167.560	301.928	312.671	165.854	169.661	170.606	174.352	391.994	172.701	-8191	255	
2626.199	1	1	0	0	0.16834	0.13264	0.096656	0.22598	0.093162	0.076299	0.075198	0.12206	0.22402	0.04267	0.28063	0.12257	0.26693	0.13042	0.20843	0.1112	-3.0333	-2.9042	-3.4667	-3.0687	-3.1333	-3.775	-3.3438	-3.4729	-3.475	-2.8667	-3.7438	-3.3063	-2.9562	-3.9271	-2.9521	-3.4208	299.352	391.564	368.601	484.466	171.442	438.507	418.743	284.039	452.179	445.779	274.455	183.052	433.977	472.735	153.118	216.363	0.00084216	0.00086045	0.00015991	326.06	1.2248e-05	1.7662e-05	642.59	145.18	2.0392e-05	1.4029e-05	308.25	147.22	68.385	34.139	1.6396e-05	81.56	0.0055233	0.0059122	0.0016278	493.2	6.2793e-05	6.2957e-05	777.91	198.84	6.103e-05	6.1269e-05	488.45	173.37	89.068	41.34	5.7907e-05	89.465	256.757	204.143	362.136	161.872	335.942	354.552	161.871	167.333	350.674	169.898	164.858	169.721	170.750	174.551	168.744	172.728	-8191	255	
2626.296	1	1	0	0	0.25637	0.20538	0.18425	0.27239	0.3187	0.2072	0.27786	0.026018	0.19344	0.14443	0.023233	0.28996	0.22196	0.50608	0.15621	0.34917	-3.2396	-2.7667	-3.4604	-3.3375	-3.0125	-3.7292	-3.1208	-3.3229	-3.6188	-2.7625	-3.5354	-3.5896	-3.0625	-3.7375	-3.1417	-3.4125	200.618	213.172	323.063	450.937	222.955	251.419	422.800	204.349	464.136	191.230	322.971	366.125	369.418	467.121	282.207	441.768	0.00095125	0.001578	0.00042607	321.8	1.741e-05	2.2854e-06	634.87	145.47	2.7413e-06	7.5299e-06	303.76	148.68	68.626	34.729	1.3197e-05	83.016	0.0048564	0.005136	0.0014097	462.14	5.3971e-05	5.4442e-05	749.03	190.22	5.3566e-05	5.4014e-05	463.26	170.02	86.286	40.872	5.1244e-05	89.024	254.918	180.092	255.965	161.930	261.756	202.536	161.453	167.417	253.079	468.715	165.891	169.788	170.674	174.508	420.817	172.760	-8191	255	
2626.415	1	1	0	0	0.19766	0.11419	0.080484	0.12065	0.14374	0.22123	0.14736	0.078709	0.16705	0.11373	0.21016	0.17719	0.12587	0.17651	0.17826	0.15795	-3.3625	-2.8979	-3.2583	-3.3812	-3.1167	-3.7708	-3.3021	-3.1583	-3.6771	-2.9208	-3.35	-3.55	-2.9146	-3.7292	-3.1792	-3.3271	292.721	206.431	491.666	203.966	228.442	241.157	505.972	321.517	426.890	277.565	154.358	429.537	374.740	470.593	378.333	469.095	0.00089035	0.0019564	0.00025345	321.6	1.6345e-05	2.5748e-05	634.38	144.26	6.9663e-06	1.1192e-05	312.08	150.52	69.392	35.568	6.6091e-06	84.5	0.0043636	0.0046682	0.0013044	451.08	5.038e-05	5.0782e-05	734.71	186.1	4.8514e-05	4.8278e-05	445.34	168.17	84.543	40.564	4.4939e-05	89.282	265.895	487.661	294.992	161.614	309.664	242.863	161.674	167.866	314.926	326.351	165.528	169.622	171.151	175.480	499.394	172.672	-8191	255	
2626.511	1	1	0	0	0.18714	0.29086	0.32312	0.098944	0.095473	0.14027	0.090282	0.12215	0.024241	0.16452	0.095762	0.18873	0.18713	0.10168	0.12081	0.21059	-3.4354	-2.9313	-3.3792	-3.5042	-2.9542	-3.5563	-3.1604	-3.0646	-3.8479	-2.8417	-3.3896	-3.6354	-2.8563	-3.7	-3.2354	-3.1312	256.598	436.253	430.500	153.511	478.145	180.826	443.381	376.934	254.371	468.230	282.445	508.720	197.549	172.060	285.057	470.486	0.00068892	0.00088269	5.964e-05	324.3	1.6046e-05	3.8671e-06	645.35	147.02	9.3744e-06	2.5717e-05	313.22	153.84	70.868	35.72	7.6492e-08	85.133	0.0038552	0.0040691	0.00112	431.56	4.2991e-05	4.291e-05	720.14	179.16	4.0342e-05	4.045e-05	423.09	166.41	82.485	40.065	3.9966e-05	88.529	266.460	211.237	343.667	162.027	267.133	373.264	161.736	167.864	436.972	290.659	166.053	169.780	170.553	174.960	504.514	173.052	-8191	255	
2626.608	1	1	0	0	0.18563	0.23512	0.14458	0.016505	0.099851	0.061887	0.084083	0.15782	0.035648	0.22883	0.13748	0.18302	0.11289	0.070573	0.013233	0.217	-3.2833	-3.0312	-3.2146	-3.4396	-2.9604	-3.4979	-3.4208	-3.075	-3.8271	-3.2625	-3.2521	-3.8063	-2.8875	-3.5521	-3.2604	-3.1417	407.335	321.348	442.865	370.753	368.270	175.017	437.510	201.915	214.215	495.005	254.643	280.672	343.392	439.207	201.024	201.205	0.00079853	0.0013464	0.00012065	323.6	1.5784e-05	8.3448e-06	640.15	147.17	8.8172e-06	1.3945e-05	312.23	151.42	69.722	35.389	1.4967e-05	83.871	0.0034109	0.0036201	0.0010056	419.76	3.8735e-05	3.8865e-05	706.3	175.09	3.6997e-05	3.6834e-05	408.12	162.58	80.294	38.756	3.4108e-05	86.233	260.265	220.218	508.984	161.714	303.643	422.664	161.892	167.900	381.573	242.068	165.944	170.130	170.776	175.146	240.564	173.015	-8191	255	
2626.704	1	1	0	0	0.23682	0.28141	0.12837	0.26645	0.20512	0.14575	0.27969	0.10937	0.14836	0.23028	0.015533	0.042259	0.13563	0.057383	0.34655	0.23781	-3.2271	-3.1188	-3.0229	-3.6729	-2.8729	-3.4437	-3.4562	-2.8458	-3.7375	-3.0958	-3.1208	-3.9062	-2.9396	-3.5292	-3.5917	-3.0812	496.007	403.839	372.661	154.142	232.605	349.705	494.009	293.890	377.749	221.568	191.811	342.313	177.848	342.526	189.197	405.614	0.00070538	0.0016074	0.0002747	326.02	1.8104e-05	1.7806e-05	633.99	146.57	2.9441e-06	1.4803e-05	313.73	151.81	70.202	35.507	1.1214e-05	84.738	0.0028696	0.0030097	0.00083476	400.28	3.2362e-05	3.2794e-05	688.42	170.09	3.225e-05	3.2374e-05	395.59	160.94	79.031	38.464	3.1381e-05	86.193	256.458	308.283	414.165	161.894	342.076	256.249	161.371	168.024	338.907	306.233	165.772	169.950	170.458	174.753	397.534	172.740	-8191	255	
2626.800	1	1	0	0	0.137	0.25156	0.20468	0.11176	0.15246	0.11619	0.20483	0.098395	0.2422	0.10738	0.13134	0.25058	0.13953	0.26986	0.073816	0.13337	-3.2708	-3.2438	-2.9667	-3.7625	-3.0271	-3.2208	-3.5708	-2.9521	-3.5104	-3.2562	-2.9125	-3.8021	-2.9917	-3.4146	-3.6542	-3.0542	243.981	242.220	265.041	484.199	242.913	252.381	400.960	485.641	326.782	455.892	427.845	415.110	492.806	235.327	348.092	236.438	0.00072721	0.0020058	0.00032113	325.9	3.7321e-06	7.6058e-06	647.82	147.98	1.5974e-05	4.6987e-06	321.35	155.62	70.902	36.583	1.1307e-05	86.448	0.0026732	0.0028392	0.00078638	393.29	3.0139e-05	3.0078e-05	686.05	168.18	2.8761e-05	2.9003e-05	388.01	161.05	78.454	38.827	2.7919e-05	87.439	260.520	299.758	434.852	161.382	379.396	270.061	161.613	167.059	292.037	397.719	166.173	169.788	169.932	174.906	346.447	172.731	-8191	255	
2626.896	1	1	0	0	0.14916	0.16621	0.28765	0.16953	0.15783	0.10161	0.07981	0.14964	0.17587	0.13651	0.025661	0.057451	0.18463	0.094014	0.11805	0.29058	-3.3979	-3.4521	-2.9188	-3.7417	-2.9625	-3.2188	-3.7708	-2.8771	-3.5312	-3.3979	-2.9625	-3.7292	-3.2062	-3.1646	-3.5708	-2.9354	172.096	214.588	182.305	356.950	217.064	334.917	418.898	453.178	243.455	417.736	450.567	351.030	155.907	417.701	164.042	433.665	0.0008186	0.00047488	0.00024793	326.06	4.7985e-06	1.5999e-05	648.66	149.57	6.2027e-06	2.9109e-06	318.76	154.83	71.337	36.655	1.092e-05	86.456	0.0024675	0.0026218	0.00073437	390.36	2.8444e-05	2.9085e-05	687.25	169.75	2.9387e-05	2.9934e-05	391.8	162.81	79.76	39.484	3.1296e-05	88.075	262.732	166.030	306.427	161.472	386.566	291.309	161.535	167.283	241.225	404.090	166.098	169.866	170.215	174.874	338.880	172.684	-8191	255	
2627.017	1	1	0	0	0.44627	0.26805	0.25428	0.0095912	0.12198	0.076303	0.18701	0.15369	0.096965	0.14891	0.19673	0.16365	0.023988	0.073714	0.088611	0.31902	-2.8771	-3.4958	-3.0292	-3.6521	-3.125	-3.0438	-3.7708	-3.0667	-3.3958	-3.6	-2.9562	-3.5708	-3.25	-3.0687	-3.6063	-2.9333	195.510	196.638	269.756	316.271	359.082	434.789	153.473	384.751	234.237	312.109	416.655	506.143	284.637	373.338	168.114	467.837	0.0010081	0.00027776	0.00037977	325.71	5.1954e-06	1.4063e-05	634.76	145.94	5.951e-06	1.2153e-05	311.06	152.03	69.77	35.459	1.719e-05	84.367	0.0027868	0.0030183	0.00086187	404.65	3.4846e-05	3.595e-05	696.27	174.65	3.7758e-05	3.9204e-05	416.43	165.29	82.44	39.799	4.0317e-05	87.842	252.468	450.149	152.358	162.063	380.740	352.306	161.219	167.682	235.984	263.897	165.544	169.690	170.628	174.297	417.675	172.332	-8191	255	
2627.113	1	1	0	0	0.15757	0.14275	0.053646	0.14233	0.06433	0.039789	0.07663	0.14394	0.12281	0.084556	0.069556	0.15187	0.1701	0.21735	0.19994	0.19184	-2.8625	-3.5833	-3.0146	-3.5583	-3.3917	-2.8729	-3.7083	-3.0375	-3.4292	-3.4792	-2.8563	-3.5458	-3.475	-2.8875	-3.75	-3.2271	216.897	328.080	314.013	301.856	224.872	452.312	465.568	403.290	150.628	431.251	500.262	447.443	396.366	176.954	245.021	361.169	0.00083871	0.001564	0.00088304	322.96	7.1493e-06	1.3606e-05	633.14	145.52	1.8468e-05	2.3311e-05	305.81	152.55	69.852	35.765	2.6548e-05	84.596	0.0035047	0.0037872	0.0010641	422.14	4.0935e-05	4.117e-05	705.81	177.33	3.9675e-05	3.9973e-05	417.27	165.36	82.111	39.772	3.7481e-05	87.591	262.949	212.689	247.006	162.053	251.826	467.574	161.489	167.128	391.071	293.091	165.681	169.610	170.445	174.931	279.035	172.594	-8191	255	
2627.207	1	1	0	0	0.081378	0.11854	0.12715	0.06135	0.18498	0.22239	0.12931	0.23256	0.18001	0.10035	0.091133	0.19053	0.17681	0.17306	0.19426	0.28045	-2.8312	-3.6354	-2.9479	-3.5083	-3.6229	-2.875	-3.7042	-3.0417	-3.0187	-3.6646	-2.9854	-3.4417	-3.5833	-2.9167	-3.6604	-3.4271	468.911	325.018	372.322	350.487	215.839	346.585	425.117	463.902	263.552	185.118	407.178	381.151	354.290	496.262	186.282	434.742	0.00096439	0.0011262	0.0003422	328.22	6.4186e-06	2.416e-06	640.32	148.78	1.6078e-05	3.0671e-05	316.79	155.75	73.12	36.949	1.0456e-05	87.348	0.0031744	0.003292	0.00089317	405.32	3.354e-05	3.354e-05	691.95	171.7	3.2246e-05	3.2337e-05	397.55	163.82	80.813	39.599	3.0326e-05	88.501	258.399	228.310	259.401	162.397	276.489	311.784	161.166	167.325	283.571	286.930	165.637	169.965	170.226	174.626	316.718	172.416	-8191	255	
2627.303	1	1	0	0	0.069396	0.033665	0.16835	0.18813	0.12654	0.3279	0.088141	0.15674	0.18564	0.144	0.22161	0.078727	0.28813	0.22917	0.086627	0.24032	-2.6437	-3.7	-3.0062	-3.5271	-3.5521	-2.9167	-3.8312	-3.2729	-3.0312	-3.6583	-3.0646	-3.3583	-3.6625	-3.0062	-3.6021	-3.5062	372.515	282.669	399.489	404.442	323.166	240.334	230.209	218.559	240.750	371.092	157.193	309.859	444.534	460.606	192.743	424.442	0.00096409	0.00066107	0.00048288	331.5	3.7022e-06	7.7725e-07	653.44	152.3	9.407e-06	5.1536e-06	322.67	158.75	73.056	36.735	1.3864e-05	87.696	0.0026174	0.002788	0.00076694	397.7	2.9958e-05	3.0103e-05	695.33	172.36	2.9598e-05	3.0107e-05	396.29	165.56	80.751	39.574	3.0627e-05	88.914	266.529	472.330	201.585	162.196	289.053	237.112	161.424	167.483	228.054	357.474	165.946	169.892	170.065	174.647	334.200	172.764	-8191	255	
2627.424	1	1	0	0	0.29287	0.24482	0.27486	0.38476	0.1554	0.19272	0.11558	0.0078401	0.17431	0.10479	0.025706	0.097366	0.10763	0.044524	0.33494	0.20752	-2.5396	-3.6896	-2.9688	-3.1708	-3.6458	-2.9646	-3.4521	-3.4146	-3.0271	-3.6688	-3.0667	-3.0729	-3.7104	-2.925	-3.3708	-3.5062	468.872	475.165	154.592	157.789	290.715	407.575	240.915	449.344	381.951	253.462	389.647	426.814	475.052	307.159	169.862	487.610	0.001093	0.00068177	0.00082348	333.23	6.4668e-06	2.6263e-05	652.07	149.67	7.204e-06	1.1357e-05	313.42	154.5	71.415	36.267	1.3718e-05	85.485	0.0027539	0.0029372	0.00082779	406.55	3.3107e-05	3.3838e-05	705.56	175.22	3.4201e-05	3.4948e-05	409.14	165.73	82.26	39.939	3.7417e-05	88.762	261.447	255.018	236.744	162.039	256.642	265.152	161.956	167.418	458.715	197.227	165.566	169.293	170.140	174.760	268.210	172.221	-8191	255	
2627.496	1	1	0	0	0.15054	0.18826	0.16	0.16915	0.26307	0.18905	0.13882	0.46162	0.24794	0.061688	0.19356	0.10759	0.077231	0.14113	0.086172	0.51618	-2.5938	-3.6	-3.2104	-3.1771	-3.6833	-2.925	-3.4375	-3.5062	-2.8	-3.6208	-3.2771	-3.0583	-3.7333	-3.0938	-3.4062	-3.6958	341.425	355.962	373.336	409.850	229.789	254.447	473.905	440.565	382.476	393.552	158.966	365.216	474.290	474.520	438.331	460.965	0.00093535	0.0019567	7.3134e-05	330.57	1.6901e-05	2.2255e-05	637.39	148.58	2.8192e-06	9.2133e-06	310.63	153.53	70.585	35.651	1.8452e-05	84.152	0.0034077	0.0037008	0.0010451	430.46	4.2221e-05	4.3209e-05	724.08	183.79	4.475e-05	4.5938e-05	444.57	170.79	86.5	41.26	4.9439e-05	90.235	259.525	442.525	487.236	161.975	507.058	334.533	161.565	167.735	259.298	365.703	165.986	169.419	170.284	174.236	336.253	172.737	-8191	255	
2627.592	1	1	0	0	0.38848	0.21904	0.15475	0.086241	0.14488	0.10249	0.14821	0.10947	0.19962	0.22453	0.097241	0.039398	0.22082	0.098817	0.12846	0.18648	-2.4104	-3.5375	-3.3417	-2.95	-3.6104	-3.0417	-3.2208	-3.675	-2.9458	-3.5354	-3.2833	-3.0062	-3.65	-3.1396	-3.1521	-3.6792	461.545	327.944	427.917	281.706	154.411	414.253	436.063	312.422	500.740	187.605	440.071	474.422	181.700	186.312	461.051	467.854	0.00063428	0.00079824	0.00038053	330.82	3.3301e-06	1.5168e-05	638.86	147.85	5.4311e-06	8.9063e-06	309.65	151.61	70.305	35.45	7.9542e-06	84.051	0.0043875	0.004733	0.001345	464.26	5.2939e-05	5.3609e-05	753.67	193.52	5.402e-05	5.4599e-05	472.32	174.96	89.739	42.296	5.5972e-05	91.444	272.284	361.720	238.688	161.574	462.546	158.593	161.814	167.247	384.937	414.539	164.661	168.959	170.228	174.005	473.127	172.451	-8191	255	
2627.688	1	1	0	0	0.21711	0.21869	0.17419	0.19521	0.043781	0.13444	0.13733	0.23227	0.35821	0.17513	0.26803	0.16406	0.15786	0.20863	0.20394	0.0071973	-2.6479	-3.4813	-3.5521	-2.9583	-3.6479	-3.1354	-3.2229	-3.6625	-2.8229	-3.4375	-3.5104	-3.0646	-3.5875	-3.3479	-3.0479	-3.9875	439.535	186.212	230.870	450.446	267.673	315.232	409.555	352.843	362.642	477.595	464.503	388.490	151.643	482.205	167.173	438.315	0.00074597	0.0019456	0.00047616	325.95	2.0674e-05	1.9005e-05	640.54	147.89	6.6348e-06	9.669e-06	311.13	152.64	70.713	35.328	1.1048e-05	83.405	0.0048138	0.005176	0.0014495	474.29	5.5354e-05	5.5656e-05	759.22	194.6	5.3608e-05	5.3839e-05	470.87	173.82	88.607	41.543	5.1883e-05	89.658	267.740	321.620	341.563	161.821	393.085	254.923	161.359	167.172	302.188	267.567	165.893	169.404	169.527	174.177	353.228	172.422	-8191	255	
2627.809	1	1	0	0	0.061266	0.15417	0.077535	0.12667	0.012984	0.1249	0.20517	0.11466	0.26482	0.27736	0.151	0.071173	0.17824	0.15521	0.19478	0.15985	-2.7	-3.3812	-3.4396	-3.0354	-3.6354	-3.3292	-3.2417	-3.8583	-3.0542	-3.4417	-3.6312	-3.0625	-3.5917	-3.4437	-2.9062	-3.6813	452.768	318.974	310.275	379.236	263.014	380.472	450.583	406.104	411.068	357.833	412.148	319.414	251.959	505.700	384.729	421.978	0.0010818	0.0013777	0.00028021	329.73	6.3118e-06	8.6741e-06	643.35	148.9	1.0948e-05	1.0431e-05	317.52	152.14	71.635	35.384	3.8931e-06	84.03	0.0043205	0.004563	0.0012416	446.07	4.653e-05	4.6121e-05	730.36	183.94	4.2898e-05	4.296e-05	433.06	167.1	84.144	39.882	4.0852e-05	87.951	243.395	260.482	258.265	161.615	424.067	372.391	161.380	167.251	152.960	338.079	165.050	169.129	170.202	174.452	202.324	172.320	-8191	255	
2627.905	1	1	0	0	0.10914	0.027147	0.065165	0.10333	0.24075	0.16618	0.1523	0.16	0.18311	0.15934	0.10545	0.096923	0.11915	0.17986	0.16772	0.12972	-2.5958	-3.1417	-3.4646	-2.8396	-3.5354	-3.4667	-3.0563	-3.6333	-3.1083	-3.2333	-3.6396	-3.1104	-3.5396	-3.4167	-3.0854	-3.7771	317.322	367.792	227.371	499.081	329.457	378.527	418.976	227.497	347.022	199.936	314.745	228.413	373.494	165.461	471.932	383.112	0.00099912	0.00039984	0.00030093	334.31	3.1715e-06	1.2171e-05	648.52	149.73	1.6671e-06	4.5839e-06	319.53	154.14	71.395	35.903	2.4691e-05	84.202	0.003468	0.0037322	0.001052	430.59	4.0669e-05	4.152e-05	726.34	182.57	4.1086e-05	4.1891e-05	433.67	168.11	84.654	40.353	4.2386e-05	88.853	251.237	172.794	257.915	162.073	311.312	222.932	161.052	167.290	273.814	160.600	164.935	169.753	170.096	174.215	281.791	172.116	-8191	255	
2627.999	1	1	0	0	0.15335	0.20439	0.16481	0.11966	0.069154	0.2566	0.36537	0.15231	0.12463	0.12034	0.15608	0.11164	0.034588	0.11218	0.2136	0.16039	-2.6708	-3.0812	-3.6271	-2.9083	-3.4292	-3.5333	-2.9313	-3.6604	-3.0604	-2.9479	-3.7208	-3.0479	-3.3875	-3.5312	-2.8563	-3.6896	314.194	262.247	203.937	452.819	162.334	500.156	419.976	202.534	353.014	294.967	235.303	220.552	201.956	382.710	386.064	480.277	0.00098548	0.0014729	0.00058546	333.67	2.3213e-05	2.1704e-05	653.91	149.32	1.0542e-05	9.7481e-06	318.26	153.89	72.079	35.87	1.0941e-05	85.404	0.0036707	0.0039712	0.001106	438.48	4.2924e-05	4.3859e-05	733.27	184.65	4.3468e-05	4.4068e-05	440.88	170.2	86.085	41.048	4.5348e-05	90.314	270.552	192.382	188.902	161.965	236.517	310.529	161.478	166.910	322.517	278.897	165.479	169.785	170.217	174.520	408.847	172.555	-8191	255	
2628.097	1	1	0	0	0.15777	0.17375	0.051408	0.018815	0.21356	0.074733	0.19807	0.26686	0.07841	0.2613	0.18793	0.12218	0.16847	0.033049	0.21122	0.28912	-2.9	-2.8937	-3.5667	-3.0458	-3.2792	-3.5354	-2.9229	-3.4583	-3.1479	-3.0708	-3.6354	-3.1542	-3.075	-3.7604	-2.9854	-3.5854	341.689	421.463	413.045	184.442	277.587	307.369	375.077	475.282	225.754	487.986	189.731	175.175	156.306	369.330	423.232	493.868	0.00085413	0.00074099	0.00010211	331.32	1.1162e-05	2.1831e-05	651.57	148.11	9.6556e-06	1.3898e-05	313.96	152.17	70.723	35.145	1.6725e-05	83.196	0.003974	0.0042908	0.0012042	448.86	4.7275e-05	4.8777e-05	746.57	189.8	4.955e-05	5.1437e-05	465.51	172.85	88.808	41.813	5.4374e-05	90.229	269.623	210.781	443.690	161.802	239.791	272.927	161.602	166.944	329.753	330.924	165.792	169.814	170.090	174.256	171.619	172.324	-8191	255	
2628.193	1	1	0	0	0.28368	0.12668	0.13819	0.098775	0.28613	0.29698	0.053237	0.11779	0.16115	0.3011	0.27272	0.21929	0.21678	0.14106	0.077291	0.12606	-3.1104	-2.7458	-3.5104	-3.2729	-3.0167	-3.5833	-3.0854	-3.4979	-3.4437	-2.8917	-3.55	-3.0687	-3.05	-3.7646	-2.8917	-3.5271	443.255	351.862	476.129	318.530	344.580	498.932	391.329	502.868	363.578	218.712	463.053	415.873	453.138	392.210	251.733	474.757	0.00070275	0.00036618	0.00029994	322.91	6.5913e-06	2.5296e-05	633.66	144.98	6.3931e-06	2.3665e-05	306.1	149.62	69.643	34.825	1.4425e-06	82.935	0.0047858	0.0052329	0.0014753	475.49	5.8608e-05	5.9233e-05	760.46	196.39	5.8664e-05	5.9259e-05	482.08	173.51	89.848	42.087	5.6943e-05	90.173	258.662	225.024	344.846	161.275	201.165	260.573	161.691	167.233	167.335	405.458	164.863	169.628	170.436	174.514	223.569	172.591	-8191	255	
2628.288	1	1	0	0	0.22398	0.17383	0.17676	0.10708	0.068958	0.15738	0.15854	0.1716	0.10899	0.24496	0.18246	0.18313	0.080761	0.1807	0.078629	0.13948	-3.1229	-2.7875	-3.6479	-3.2792	-3.0542	-3.6083	-3.0396	-3.4417	-3.6292	-2.9875	-3.6729	-3.2771	-3.0104	-3.8021	-2.9333	-3.4417	304.879	296.668	299.782	508.289	264.399	160.903	476.726	434.804	268.979	481.873	351.613	479.778	217.877	477.080	178.376	328.242	0.00097972	0.0020814	0.00011187	319.75	1.6726e-05	1.4051e-05	632.1	145.23	1.0679e-05	2.3426e-05	310.66	151.46	70.25	35.517	3.6374e-06	83.637	0.0048471	0.0051975	0.0014401	465.24	5.4963e-05	5.4677e-05	746.31	190.63	5.1969e-05	5.1883e-05	457.59	170.78	87.277	41.101	4.9188e-05	89.127	260.374	193.614	278.728	161.018	327.929	356.344	161.009	167.161	354.196	267.187	165.572	169.328	170.651	174.507	182.378	172.691	-8191	255	
2628.384	1	1	0	0	0.074131	0.13558	0.11149	0.28912	0.074919	0.13731	0.16565	0.34376	0.18134	0.089197	0.13924	0.38749	0.41074	0.032241	0.13044	0.068692	-3.1417	-2.8146	-3.3646	-3.2646	-2.9021	-3.8375	-3.0229	-3.1813	-3.4375	-2.8979	-3.4375	-3.4917	-2.8292	-3.7438	-3.1417	-3.35	478.629	467.895	184.009	417.106	355.628	488.229	244.699	489.251	393.222	436.058	493.071	414.070	403.438	431.330	491.000	453.874	0.0010452	0.0015856	0.00016266	323.97	6.2089e-06	9.9527e-06	633.9	146.54	1.9362e-05	1.0579e-05	309.58	153.82	70.954	36.471	6.5213e-06	85.423	0.004175	0.0044451	0.0012095	443.48	4.6945e-05	4.6663e-05	724.96	184.46	4.5576e-05	4.5689e-05	439.37	169.66	85.488	41.113	4.2805e-05	89.552	268.568	289.623	363.549	162.237	377.001	417.548	161.549	167.855	319.454	276.255	165.384	169.948	170.235	174.786	330.679	173.075	-8191	255	
2628.504	1	1	0	0	0.14925	0.24333	0.16068	0.32	0.26874	0.18795	0.21592	0.12921	0.16785	0.19245	0.26864	0.32577	0.097224	0.24901	0.12167	0.27873	-3.2021	-2.8354	-3.5208	-3.4667	-2.8104	-3.6917	-3.3021	-2.8479	-3.6896	-2.9208	-3.525	-3.5438	-2.9917	-3.7021	-3.1917	-3.0062	426.721	420.790	309.181	431.747	353.448	206.804	471.451	189.341	256.525	273.837	362.924	463.612	496.081	177.531	473.856	485.397	0.00086405	0.0015891	0.00048773	324.1	1.2125e-05	2.2418e-05	635.56	147.79	2.6219e-06	1.6528e-05	311.26	153.34	71.308	36.046	1.4894e-05	85.444	0.003646	0.0038746	0.0010772	428.31	4.1941e-05	4.2335e-05	715.16	181.61	4.2173e-05	4.2595e-05	428.59	167.99	84.707	40.581	4.2132e-05	89.049	256.591	204.015	400.609	161.153	419.953	316.539	161.325	167.901	402.921	290.953	165.543	169.886	170.779	175.035	368.931	172.865	-8191	255	
2628.601	1	1	0	0	0.20609	0.18856	0.21676	0.12174	0.038523	0.13612	0.1792	0.081763	0.085304	0.211	0.031653	0.14197	0.096175	0.12103	0.15383	0.15577	-3.3625	-2.975	-3.3375	-3.4979	-2.7687	-3.8	-3.4083	-3.1104	-3.7188	-3.0312	-3.3208	-3.6562	-3.0771	-3.725	-3.4104	-3.1021	319.321	310.678	450.244	496.605	362.679	356.091	474.394	279.757	342.206	414.956	251.209	416.550	377.128	155.331	430.935	481.345	0.0010027	0.0011026	0.00034119	319.26	4.1387e-06	1.8713e-05	619.58	144.32	9.5463e-06	1.4075e-05	309.35	153.29	71.106	36.792	7.7865e-06	85.704	0.0036304	0.0039111	0.0010917	426.21	4.2928e-05	4.3172e-05	703.26	178.5	4.1824e-05	4.1375e-05	420.1	166.98	83.016	40.78	3.7894e-05	89.124	259.406	239.269	326.797	161.561	318.370	371.946	161.296	167.784	466.365	289.245	166.086	169.715	170.777	174.911	489.532	172.983	-8191	255	
2628.697	1	1	0	0	0.11465	0.10502	0.38434	0.12125	0.17863	0.19313	0.24406	0.13923	0.13896	0.11931	0.047138	0.30771	0.073213	0.1627	0.34425	0.28443	-3.2604	-3.1375	-3.0687	-3.6771	-2.7708	-3.6375	-3.6229	-2.8521	-3.5708	-3.0687	-3.0229	-3.7313	-2.9333	-3.4833	-3.4125	-2.8625	366.029	266.787	466.317	439.488	486.134	343.326	423.930	451.149	292.974	235.050	276.933	420.153	242.934	172.925	370.684	460.311	0.00097045	0.00033807	0.00035614	322.79	6.7408e-06	1.4233e-05	625.93	147.07	8.3692e-06	1.2002e-05	317.3	156.75	73.021	38.179	1.0441e-05	88.115	0.0031928	0.0033348	0.00091537	402.29	3.3996e-05	3.2972e-05	675.84	168.65	2.9266e-05	2.8424e-05	380.21	162.36	79.439	39.895	2.5628e-05	88.582	265.615	382.027	288.512	162.014	321.803	408.920	161.657	167.829	172.896	383.633	165.815	170.054	170.727	175.073	371.499	173.003	-8191	255	
2628.793	1	1	0	0	0.2942	0.30866	0.13378	0.042664	0.072771	0.14892	0.23802	0.46771	0.25435	0.049118	0.090665	0.14025	0.23817	0.13615	0.28754	0.18658	-3.0833	-3.0604	-2.9125	-3.5687	-3.0729	-3.3979	-3.7979	-2.9271	-3.5771	-3.1396	-2.95	-3.725	-3.1896	-3.3479	-3.5125	-3.2042	423.918	438.933	212.319	411.253	420.994	221.625	485.048	405.194	398.432	418.565	408.776	440.973	197.978	478.678	449.193	509.595	0.00091676	0.0011016	0.0001636	324.22	1.2372e-05	1.4423e-05	635.31	150.21	7.5128e-06	1.4908e-05	322.35	162.36	75.643	39.578	3.1546e-06	91.243	0.0022113	0.0022683	0.00061206	370.93	2.1991e-05	2.1291e-05	650.69	161.18	1.8965e-05	1.8302e-05	354.29	161.26	77.439	39.69	1.542e-05	89.062	253.682	459.249	429.120	162.369	339.758	277.938	161.555	168.091	323.667	376.859	166.306	170.000	170.578	175.133	252.302	173.014	-8191	255	
2628.889	1	1	0	0	0.04771	0.11534	0.21503	0.16337	0.22415	0.20127	0.10741	0.12278	0.14606	0.16593	0.10803	0.037487	0.086993	0.26154	0.08853	0.32529	-3.0208	-3.4146	-2.8979	-3.6437	-3	-3.2604	-3.5563	-2.7417	-3.5187	-3.4208	-3.0917	-3.7625	-3.125	-3.1604	-3.6	-3.0458	234.770	266.535	387.521	485.837	378.424	223.162	457.142	182.970	165.817	441.645	172.972	503.508	378.578	194.463	265.479	438.345	0.00099115	0.00028545	5.7401e-05	334.99	9.2224e-06	6.7079e-06	645.34	155.92	4.1207e-06	1.3331e-05	330.02	164.84	77.097	40.277	6.8078e-06	92.457	0.0012847	0.0012836	0.00034454	349.76	1.2539e-05	1.2422e-05	639.72	157.78	1.1516e-05	1.1555e-05	336.09	160.08	76.664	39.501	1.0682e-05	88.941	256.413	392.014	476.591	161.827	326.569	179.792	161.671	167.890	255.543	262.574	165.542	170.320	170.792	175.070	327.986	172.553	-8191	255	
2628.985	1	1	0	0	0.037439	0.22973	0.17742	0.16013	0.18274	0.22289	0.096561	0.2756	0.11845	0.19117	0.038522	0.19939	0.13424	0.10393	0.058849	0.26117	-3.1188	-3.3167	-2.8396	-3.7271	-2.9646	-2.9313	-3.8583	-2.8917	-3.4562	-3.4875	-2.8792	-3.6583	-3.0229	-3.1542	-3.5583	-3.1625	386.003	262.291	466.311	408.355	236.562	382.459	431.477	500.660	168.753	413.655	352.668	404.440	167.923	344.768	401.267	492.294	0.00094993	0.00066592	0.00022531	335.61	8.9525e-06	1.0328e-05	649.85	156.24	6.036e-06	6.3257e-06	331.45	166.95	78.59	40.99	9.2801e-06	94.035	0.0009655	0.00095479	0.0002571	342.51	9.765e-06	9.7687e-06	634.38	156.15	9.4472e-06	9.2316e-06	332.1	161.39	77.023	40.015	9.2101e-06	90.386	256.852	199.612	189.803	162.245	224.593	255.560	161.589	168.035	337.200	325.735	165.590	170.088	170.654	174.593	328.152	172.824	-8191	255	
2629.104	1	1	0	0	0.22057	0.15016	0.2273	0.25065	0.067745	0.23595	0.13454	0.19374	0.10963	0.17895	0.14326	0.16304	0.19747	0.30049	0.030692	0.20872	-2.9083	-3.4729	-2.8083	-3.7125	-3.2083	-2.9708	-3.7542	-3.1042	-3.2146	-3.6063	-2.8146	-3.7021	-3.3521	-3.1104	-3.7354	-3.1937	423.200	252.541	385.269	403.158	393.536	180.522	429.212	174.196	396.489	258.864	407.444	459.163	486.772	506.591	162.655	454.981	0.0009719	0.00043085	0.00025989	336.7	1.2325e-05	1.6405e-06	656.2	158.45	2.1786e-06	5.4291e-06	336.49	169.1	79.119	41.09	6.375e-06	94.789	0.00089681	0.00090388	0.00026082	344.62	1.0117e-05	1.0167e-05	642.15	158.83	1.036e-05	1.0577e-05	340.37	163.76	78.356	40.486	1.169e-05	91.516	263.760	250.495	263.871	162.172	359.592	372.384	161.652	167.851	280.952	276.033	166.203	169.890	170.353	174.838	300.097	172.732	-8191	255	
2629.200	1	1	0	0	0.13178	0.060163	0.095017	0.24735	0.18317	0.18493	0.28355	0.22859	0.10945	0.062074	0.29071	0.058752	0.15844	0.39049	0.21214	0.2155	-2.8083	-3.625	-2.9813	-3.5646	-3.4354	-2.9083	-3.8083	-3.0771	-3.0479	-3.5958	-3.0104	-3.475	-3.4271	-2.9417	-3.575	-3.3563	229.630	469.155	391.474	195.916	478.369	159.341	213.001	162.538	500.610	318.597	483.093	397.615	176.962	457.540	355.607	465.220	0.0011083	0.000953	0.00017216	339.86	9.8058e-06	6.2625e-06	657.17	159.06	2.2462e-06	7.5508e-06	328.33	168.44	78.115	40.66	9.6021e-06	94.164	0.0011159	0.0011526	0.00032462	354.73	1.3147e-05	1.3603e-05	654.53	162.62	1.4527e-05	1.5025e-05	354.24	165.81	79.478	40.774	1.5724e-05	91.56	259.198	231.244	361.505	161.801	332.907	270.811	161.454	167.537	384.568	281.190	166.238	169.891	170.588	174.918	338.634	172.687	-8191	255	
2629.296	1	1	0	0	0.13306	0.075972	0.14149	0.091982	0.16543	0.056017	0.088328	0.45322	0.38045	0.090583	0.10734	0.16579	0.29147	0.10621	0.11695	0.3767	-2.6833	-3.6562	-2.9917	-3.65	-3.5146	-2.7917	-3.6896	-3.3187	-2.8937	-3.775	-2.8229	-3.4208	-3.675	-3.0312	-3.5187	-3.425	291.420	398.756	291.889	177.338	245.806	376.278	364.945	468.645	283.500	351.395	484.439	496.632	486.573	168.103	165.362	423.260	0.00089702	0.0007948	8.1718e-05	334.7	8.2624e-06	8.3751e-06	655.81	155.63	9.7994e-06	1.007e-05	328.25	163.11	75.713	39.155	1.0028e-05	89.959	0.0014793	0.00155	0.00044336	366	1.7926e-05	1.8263e-05	662.84	164.15	1.8716e-05	1.9086e-05	362.86	163.6	79.561	40.174	2.1964e-05	89.519	263.720	186.801	250.331	162.209	292.419	417.665	161.714	167.763	314.932	330.863	166.068	169.898	170.245	174.575	300.182	172.493	-8191	255	
2629.368	1	1	0	0	0.22004	0.12562	0.18801	0.26752	0.18583	0.14315	0.12217	0.10028	0.082939	0.13885	0.080208	0.10584	0.11307	0.1541	0.12366	0.28907	-2.5708	-3.7021	-3.0563	-3.2896	-3.5771	-2.8958	-3.6937	-3.4875	-2.9167	-3.6292	-3.0917	-3.2646	-3.5979	-2.8875	-3.525	-3.2438	466.560	439.413	318.466	437.535	221.244	328.500	449.319	152.144	172.416	294.121	238.591	356.766	455.780	246.814	298.272	446.576	0.0010323	0.00026587	0.00032884	329.27	1.3855e-05	9.3521e-06	641.28	152.06	1.2646e-05	1.6476e-05	317.54	157.9	74.064	37.834	1.5532e-05	87.213	0.0020829	0.0022443	0.00064026	384.46	2.6401e-05	2.6997e-05	676.64	170.2	2.7544e-05	2.8638e-05	387.33	164.59	81.829	40.556	3.0118e-05	89.252	256.903	437.744	349.005	162.091	251.896	298.138	161.586	167.691	318.147	263.049	165.898	169.951	170.412	174.710	312.558	172.612	-8191	255	
2629.464	1	1	0	0	0.17165	0.10565	0.052081	0.14273	0.17467	0.11126	0.23094	0.2926	0.051498	0.10054	0.13392	0.2193	0.063309	0.21012	0.16255	0.17461	-2.55	-3.5583	-3.1063	-3.2271	-3.6479	-2.7104	-3.45	-3.5208	-2.9229	-3.7021	-3	-3.025	-3.6458	-2.95	-3.275	-3.65	266.151	360.695	335.087	365.965	453.440	356.826	311.121	492.591	401.960	371.709	210.716	465.733	360.435	490.653	271.759	169.417	0.00085814	0.0013742	3.7381e-05	327.34	4.5191e-06	2.4874e-05	637.9	148.62	1.0623e-05	1.0879e-05	319.15	157.87	73.905	38.195	1.3099e-05	88.812	0.0026896	0.0028941	0.00081798	398.39	3.2528e-05	3.2498e-05	684.68	173.16	3.2277e-05	3.235e-05	396.84	166.24	82.531	41.005	3.1328e-05	90.075	261.720	319.262	445.616	161.546	228.523	394.662	161.455	167.796	423.328	211.973	165.541	169.842	170.670	174.653	426.272	172.993	-8191	255	
2629.585	1	1	0	0	0.077514	0.16495	0.091184	0.25283	0.027983	0.14073	0.17332	0.099119	0.030915	0.24663	0.13853	0.32517	0.176	0.064067	0.16649	0.13454	-2.4333	-3.4396	-3.225	-2.9396	-3.6146	-2.8583	-3.3688	-3.6292	-2.9188	-3.4583	-3.3875	-3.1271	-3.6833	-3.1708	-3.0854	-3.7896	366.419	204.903	206.849	170.205	393.545	296.967	343.182	357.258	320.492	493.456	447.547	452.053	184.789	458.758	350.070	403.508	0.0009031	0.00037945	0.00036041	323.22	1.4865e-05	1.3786e-05	635.14	152.26	1.7321e-06	4.9955e-06	319.92	160.41	74.736	39.019	2.5684e-06	90.203	0.002685	0.0028264	0.00078319	392.85	2.9859e-05	2.9391e-05	676.13	171.14	2.7693e-05	2.7302e-05	383.24	165.1	80.894	40.587	2.4946e-05	89.739	256.964	441.614	182.915	162.368	310.334	378.821	161.802	167.889	480.008	436.567	166.208	170.160	171.165	174.801	252.877	172.657	-8191	255	
2629.681	1	1	0	0	0.040132	0.1649	0.34208	0.24456	0.10331	0.075818	0.18998	0.086713	0.082234	0.10812	0.07515	0.18422	0.20356	0.18711	0.090392	0.18074	-2.5083	-3.3583	-3.2271	-2.8917	-3.4437	-2.9958	-3.1896	-3.5542	-2.7625	-3.3438	-3.4938	-3.0542	-3.6833	-3.2438	-3.2208	-3.7708	365.987	477.553	398.583	397.373	218.661	459.178	167.369	423.315	398.512	271.475	376.362	183.827	331.801	503.591	429.316	417.566	0.00093875	0.0010751	0.00030364	326.52	4.5119e-06	9.3127e-06	635.13	151.72	1.2032e-05	3.2714e-06	320.06	159.44	74.443	38.363	5.5222e-06	88.555	0.0021033	0.0021899	0.00060647	374.49	2.3712e-05	2.3908e-05	665.55	167.33	2.4654e-05	2.4769e-05	378.23	163.43	80.133	40.019	2.5273e-05	88.571	263.613	194.111	311.803	161.794	305.461	317.446	161.654	167.285	366.971	307.549	165.471	169.884	170.705	174.855	270.244	172.991	-8191	255	
2629.777	1	1	0	0	0.329	0.14596	0.3109	0.36612	0.13875	0.15401	0.21617	0.12063	0.15732	0.034956	0.12033	0.18073	0.11974	0.19517	0.23852	0.080774	-2.45	-3.2229	-3.6	-2.9021	-3.575	-3.3104	-2.8708	-3.7313	-3.0625	-3.3958	-3.475	-2.9667	-3.7854	-3.5062	-2.8729	-3.8125	261.079	369.680	183.119	267.282	472.254	286.597	407.103	152.648	278.756	190.705	433.575	372.976	473.830	433.260	293.780	187.372	0.0011316	0.00081232	0.00027359	330.94	1.0976e-05	8.2215e-06	636.99	151.33	1.4965e-05	1.4942e-05	321.39	158.24	74.038	37.729	6.2828e-06	87.464	0.0022044	0.0023566	0.00065995	382.07	2.5933e-05	2.6391e-05	668.39	168.49	2.6702e-05	2.7464e-05	385.79	164.33	81.554	40.376	3.0705e-05	89.204	259.263	199.974	467.138	162.018	446.334	374.215	162.005	167.404	358.180	324.176	165.590	169.863	170.719	174.943	361.715	172.678	-8191	255	
2629.896	1	1	0	0	0.3715	0.34062	0.14224	0.050179	0.15153	0.18975	0.14792	0.27479	0.11066	0.22827	0.13627	0.14031	0.15049	0.16448	0.1697	0.26486	-2.5812	-3.3146	-3.7125	-2.8	-3.4708	-3.4354	-2.9458	-3.5062	-2.9667	-3.1146	-3.7313	-2.8583	-3.5646	-3.425	-2.9479	-3.7313	259.067	328.255	246.186	446.823	223.950	262.735	496.567	459.524	281.807	165.802	204.796	484.208	249.551	442.889	283.887	448.887	0.00072369	0.00057822	0.00027424	327.74	1.0094e-05	2.2049e-05	638.79	154.47	1.2091e-05	6.9121e-06	320.37	158.55	74.327	37.327	6.5316e-06	87.593	0.0027816	0.0030533	0.00086351	406.13	3.5053e-05	3.5981e-05	703.37	180.48	3.7599e-05	3.9053e-05	428.49	171.09	86.681	41.832	4.2784e-05	91.568	256.279	309.339	205.781	161.755	503.825	487.811	161.452	167.143	319.933	432.432	165.770	169.617	170.012	174.186	298.682	172.503	-8191	255	
2629.969	1	1	0	0	0.1044	0.017996	0.23345	0.16172	0.02249	0.16584	0.10634	0.20257	0.12723	0.1642	0.042416	0.18457	0.17812	0.2352	0.26192	0.22572	-2.4979	-3.075	-3.7833	-2.9354	-3.4917	-3.4313	-3.0583	-3.8563	-3.0729	-2.9958	-3.7146	-2.9333	-3.3125	-3.6208	-3.0208	-3.8083	207.575	344.527	208.527	344.905	220.312	384.675	237.051	254.870	338.445	205.550	215.380	359.684	153.002	227.858	480.272	353.962	0.00097942	0.00094859	0.00042563	342.65	3.2415e-05	1.1815e-05	666.28	155.67	1.2299e-05	1.5201e-05	324.18	156.93	73.788	37.043	4.3561e-06	85.856	0.0037403	0.0041	0.0011531	452.15	4.5701e-05	4.6875e-05	757.94	193.32	4.8022e-05	4.9525e-05	467.84	176.29	91.046	43.19	5.4464e-05	93.093	261.369	499.774	250.376	162.024	273.693	434.494	160.939	167.532	305.034	283.171	165.018	169.229	169.935	174.213	360.503	172.341	-8191	255	
2630.066	1	1	0	0	0.10455	0.14832	0.1552	0.078821	0.10967	0.067876	0.35388	0.12939	0.10485	0.065194	0.18158	0.32946	0.045005	0.26905	0.24741	0.15561	-2.9021	-2.9396	-3.6292	-3.0833	-3.3396	-3.4938	-3.0104	-3.7687	-3.0938	-2.9375	-3.7208	-2.9625	-3.3958	-3.7854	-2.8271	-3.7292	463.485	387.737	276.381	481.337	281.697	386.426	404.373	379.791	243.813	318.383	485.211	382.674	431.913	175.895	503.673	170.185	0.00097009	0.001714	0.0005035	339.46	3.0091e-05	2.3494e-05	664.14	151.89	1.9481e-05	2.9141e-05	314.36	152.99	71.525	35.523	1.9929e-05	82.993	0.0049054	0.0054927	0.00157	505.03	6.3997e-05	6.6858e-05	816.94	213.27	7.1273e-05	7.4301e-05	548.8	187.23	100.39	46.278	8.2229e-05	96.428	266.109	288.492	191.059	161.816	374.636	321.419	161.400	167.077	427.828	317.609	166.448	169.270	169.641	173.733	485.036	172.604	-8191	255	
2630.184	1	1	0	0	0.15929	0.13728	0.23772	0.050539	0.18451	0.23419	0.082433	0.21647	0.13416	0.071386	0.33445	0.18786	0.10371	0.050134	0.034806	0.047799	-2.9437	-2.8104	-3.6583	-3.0333	-3.1646	-3.7417	-2.9917	-3.5104	-3.2375	-2.8625	-3.7667	-3.2417	-3.1979	-3.6208	-3.0146	-3.5312	487.505	471.869	339.319	297.690	323.913	370.371	422.868	440.888	267.014	423.019	420.246	437.946	214.954	162.727	300.010	376.477	0.00076262	0.00080338	0.00037074	336.37	1.0695e-05	1.8972e-05	662.35	149.41	2.0333e-05	1.0484e-05	322.1	150.43	70.713	35.534	3.9633e-06	83.298	0.0072745	0.0080044	0.0022394	578.08	8.8692e-05	9.0313e-05	874.22	230.58	8.8002e-05	8.8638e-05	586.65	192.13	103.26	47.066	8.525e-05	96.923	264.810	493.096	448.668	162.344	382.360	158.087	161.076	167.330	497.587	250.271	164.961	169.325	169.563	173.898	372.934	171.940	-8191	255	
2630.281	1	1	0	0	0.077757	0.12361	0.25803	0.15063	0.30592	0.17451	0.1366	0.15114	0.065967	0.23055	0.26516	0.15006	0.057708	0.27025	0.042378	0.082432	-3.1667	-2.7667	-3.5771	-3.2417	-2.9896	-3.5667	-2.9125	-3.5521	-3.3521	-2.7438	-3.5187	-3.2604	-3.0333	-3.5896	-2.8917	-3.5708	502.232	348.965	390.039	349.993	403.237	433.841	245.910	373.621	231.224	240.444	478.867	485.240	270.405	414.536	489.040	403.153	0.00080636	0.0030963	0.00088445	334.68	3.4263e-05	1.0533e-05	652.06	149.6	1.8684e-05	5.0349e-05	320.06	152.37	70.558	35.925	1.6225e-05	84.184	0.0072452	0.0078657	0.0021494	567.16	8.3742e-05	8.4054e-05	851.1	224.42	8.1699e-05	8.1707e-05	565.95	188.97	100.12	45.966	7.5882e-05	95.774	284.282	299.702	187.548	161.154	288.005	185.498	161.647	167.477	397.139	301.093	165.102	169.138	170.103	174.193	277.082	172.482	-8191	255	
2630.377	1	1	0	0	0.22716	0.20362	0.18298	0.20501	0.24432	0.20885	0.15904	0.33243	0.084108	0.13676	0.26167	0.059921	0.11929	0.023195	0.072162	0.20363	-3.0438	-2.8104	-3.4667	-3.4333	-2.9625	-3.5583	-3.0521	-3.1562	-3.5229	-2.8542	-3.425	-3.5062	-2.9542	-3.5771	-3.0646	-3.2479	282.555	176.318	254.532	200.838	499.013	214.105	491.430	419.675	484.188	455.832	489.911	460.872	454.089	299.373	208.875	469.996	0.00065885	0.0014857	0.00060604	332.13	2.0234e-05	2.8441e-05	657.57	149.11	1.8128e-05	1.3247e-05	316.96	152.01	72.301	36.03	4.1359e-06	84.238	0.0064052	0.0068397	0.0018797	529.99	7.255e-05	7.222e-05	814.97	212.54	6.9444e-05	6.913e-05	523.73	183.02	95.908	44.349	6.5374e-05	93.709	269.234	305.983	201.927	161.027	233.958	255.915	161.507	167.430	298.816	181.277	166.161	169.090	170.140	174.265	284.892	172.869	-8191	255	
2630.497	1	1	0	0	0.19836	0.21273	0.036947	0.24058	0.033836	0.070878	0.138	0.066957	0.1717	0.094369	0.19021	0.09334	0.12307	0.16097	0.084826	0.12454	-3.0625	-2.9229	-3.4958	-3.4042	-2.9688	-3.6354	-3.1333	-3.1604	-3.6271	-2.9604	-3.2958	-3.5604	-3.0708	-3.7708	-3.1104	-3.05	327.312	315.589	260.765	159.345	353.834	413.408	178.069	372.877	257.599	489.168	232.848	176.241	376.292	467.518	481.065	466.308	0.0010216	0.0029925	0.00050618	333.37	1.9141e-06	4.0826e-05	647.13	149.93	8.5966e-06	1.638e-05	315.54	152.41	70.553	35.562	1.5809e-05	83.55	0.0055917	0.006018	0.0016763	504.1	6.5535e-05	6.5772e-05	794.93	206.61	6.5287e-05	6.5109e-05	509.32	179.53	93.549	43.613	6.4319e-05	92.468	255.366	238.497	199.698	161.503	360.112	345.017	161.665	167.093	202.834	226.600	165.332	169.823	170.150	174.467	256.079	172.457	-8191	255	
2630.594	1	1	0	0	0.066516	0.049556	0.10616	0.27462	0.22727	0.12377	0.18034	0.056355	0.31051	0.25765	0.094105	0.2268	0.22705	0.2283	0.20144	0.39303	-3.375	-2.8917	-3.2167	-3.4771	-2.7625	-3.5583	-3.3729	-3.1104	-3.6708	-3.0083	-3.3312	-3.6542	-2.8438	-3.5854	-3.2125	-3.2208	455.487	352.567	465.383	501.614	348.357	485.599	407.986	360.480	235.747	362.483	387.127	420.184	505.431	290.560	301.012	473.273	0.00070751	0.00099036	0.00025476	326.72	2.4335e-05	1.8597e-05	637.01	146.39	1.8242e-05	3.1624e-05	307.75	151.45	70.23	35.665	1.9415e-05	83.496	0.0054982	0.0059287	0.001655	496.97	6.4099e-05	6.4452e-05	782.15	203.59	6.3476e-05	6.4061e-05	502.89	178.62	92.793	43.39	6.2255e-05	92.22	255.311	280.562	269.230	162.003	393.019	330.843	161.682	167.194	377.650	249.451	165.251	169.618	170.691	174.871	243.116	172.859	-8191	255	
2630.665	1	1	0	0	0.21569	0.11959	0.17602	0.21005	0.12165	0.14475	0.28148	0.27014	0.17003	0.1346	0.095937	0.32316	0.17074	0.33205	0.075425	0.11644	-3.3979	-2.9562	-3.2271	-3.5896	-2.9542	-3.5333	-3.4833	-3.1125	-3.7729	-2.8125	-3.1854	-3.6021	-3	-3.4542	-3.5187	-3.0979	222.284	237.680	301.971	304.411	283.572	507.338	500.111	419.880	228.170	482.328	396.034	430.376	254.637	154.239	445.939	501.326	0.00092985	0.0015747	0.0011094	324.03	1.794e-05	4.5863e-06	635.08	145.59	7.1606e-06	7.6247e-06	310.38	152.9	70.87	35.908	2.3736e-05	84.555	0.0052598	0.0056091	0.0015617	482.79	5.9626e-05	5.984e-05	763.92	197.49	5.8443e-05	5.9025e-05	484.28	176.67	90.867	43.062	5.8441e-05	92.146	259.121	197.069	163.495	162.318	272.354	380.586	161.527	167.538	365.012	299.473	166.301	169.716	170.324	174.726	346.985	172.792	-8191	255	
2630.761	1	1	0	0	0.20405	0.022417	0.20227	0.050311	0.13675	0.11044	0.085207	0.14712	0.15711	0.31239	0.098914	0.15459	0.31257	0.22072	0.057358	0.25964	-3.2146	-3.2354	-3.0521	-3.7042	-2.9583	-3.375	-3.4729	-2.9479	-3.7104	-3.2479	-3.0917	-3.8917	-2.95	-3.4854	-3.5354	-2.9729	360.691	262.647	367.506	162.981	305.361	355.823	423.334	170.911	406.856	177.799	448.294	423.661	449.581	199.310	268.148	422.724	0.00098332	0.0020869	0.00042884	324.65	1.6543e-05	1.7312e-05	634.16	148.12	1.2225e-05	2.6678e-05	313.92	152.19	71.096	35.864	1.7228e-05	83.754	0.0049288	0.0052557	0.0014624	469.95	5.5081e-05	5.5108e-05	748.42	193.25	5.2831e-05	5.3574e-05	466.67	173.33	88.571	41.999	5.1025e-05	90.08	271.933	208.269	191.122	162.265	250.447	288.638	161.508	167.315	400.177	235.984	166.194	169.928	170.865	174.763	368.581	172.869	-8191	255	
2630.882	1	1	0	0	0.092936	0.28029	0.093864	0.10847	0.17489	0.050428	0.15867	0.15679	0.18326	0.18658	0.064183	0.10718	0.14184	0.25683	0.095695	0.26349	-3.2375	-3.2458	-2.8854	-3.675	-3.0979	-3.3083	-3.5771	-2.9313	-3.6604	-3.325	-2.9146	-3.7938	-3.1188	-3.2167	-3.6104	-3.0125	398.907	170.800	186.903	207.428	269.090	395.304	474.497	401.230	279.625	392.532	501.522	154.479	276.296	410.438	417.602	465.729	0.00089268	0.0010173	0.00025601	321.19	7.6006e-06	7.7346e-06	630.56	145.72	4.5521e-06	1.4767e-05	311.38	151.75	71.365	36.337	1.1015e-05	84.538	0.0042631	0.0045558	0.0012545	444.63	4.7668e-05	4.7369e-05	720.74	183.12	4.3478e-05	4.3124e-05	426.12	165.85	83.36	40.193	3.7946e-05	87.273	247.674	300.395	179.015	162.307	267.668	245.676	161.432	167.372	332.812	329.966	165.523	170.240	171.041	175.103	380.118	172.873	-8191	255	
2630.978	1	1	0	0	0.19086	0.31395	0.37724	0.12577	0.27245	0.11846	0.13177	0.17936	0.014454	0.26275	0.2046	0.14868	0.09785	0.18318	0.11758	0.098735	-2.9062	-3.3125	-2.9396	-3.5687	-2.9896	-3.1813	-3.7208	-2.9354	-3.5167	-3.4667	-3.025	-3.7042	-3.175	-3.0208	-3.6917	-3.0396	222.497	456.811	443.497	419.962	149.658	326.255	427.627	167.799	262.432	439.918	392.912	453.854	456.365	437.918	212.173	154.757	0.00084413	0.0011721	0.00034349	327.02	2.0192e-05	1.3538e-05	631.66	148.72	4.8008e-06	1.2202e-05	315.64	155.35	71.707	37.117	5.9972e-06	86.663	0.0031356	0.003315	0.00090544	405.72	3.4154e-05	3.4045e-05	686.32	172.37	3.2097e-05	3.2079e-05	394.36	162.99	80.174	39.654	2.8566e-05	87.301	263.225	489.825	236.872	161.691	312.124	404.799	161.475	167.365	385.143	268.247	166.631	169.867	170.664	174.844	242.732	172.983	-8191	255	
2631.073	1	1	0	0	0.086385	0.21409	0.25579	0.13183	0.27377	0.22925	0.30743	0.078992	0.041561	0.17303	0.24272	0.15729	0.093617	0.10962	0.12185	0.31638	-2.7938	-3.5292	-2.9104	-3.5229	-3.0917	-3.0375	-3.8229	-2.9917	-3.2917	-3.5646	-2.8479	-3.5396	-3.3333	-3.1188	-3.6271	-3.2083	453.475	449.268	170.548	453.665	223.279	427.391	498.429	379.929	316.738	169.512	493.212	157.475	162.467	345.792	285.716	451.991	0.00077936	0.00071786	0.00022768	323.04	1.0745e-05	5.1159e-06	635.03	150.31	1.4172e-06	5.2253e-06	319.79	158.51	73.486	37.636	1.6451e-05	88.573	0.00241	0.0025582	0.00071579	385.67	2.7872e-05	2.8755e-05	676.46	169.95	2.9437e-05	3.0026e-05	391.87	165.37	81.565	40.468	2.9972e-05	89.58	256.044	241.302	243.218	161.985	414.690	380.138	161.707	167.987	314.586	200.707	165.817	170.036	170.809	174.973	309.599	172.948	-8191	255	
2631.169	1	1	0	0	0.26547	0.081425	0.13614	0.14037	0.10749	0.063224	0.32932	0.10486	0.084793	0.23323	0.1582	0.13983	0.054646	0.20257	0.2331	0.078203	-2.9708	-3.5229	-2.7646	-3.3312	-3.4271	-2.7458	-3.7667	-3.1042	-3.0458	-3.7146	-2.7271	-3.5229	-3.4062	-2.9229	-3.6583	-3.2458	318.452	394.169	461.232	480.048	154.336	177.773	391.608	274.451	308.366	458.083	453.138	416.914	437.940	416.576	309.037	401.158	0.00090419	0.00185	0.0001427	330.31	7.5938e-06	2.4754e-05	644.15	149.79	9.8697e-06	1.1888e-05	319.21	159.21	73.673	37.85	5.3294e-06	87.674	0.002652	0.0028372	0.00079415	399.54	3.1564e-05	3.2549e-05	693.02	174.63	3.3125e-05	3.4078e-05	406.28	167.83	83.631	41.126	3.5598e-05	90.265	263.664	166.601	508.224	162.456	225.650	367.065	162.327	167.779	169.303	414.478	165.951	170.196	170.896	175.322	492.321	172.826	-8191	255	
2631.265	1	1	0	0	0.012374	0.075695	0.029904	0.0364	0.27408	0.27223	0.221	0.1409	0.059525	0.025697	0.1181	0.24493	0.054821	0.18363	0.20302	0.45391	-2.7542	-3.5167	-2.8875	-3.2646	-3.5292	-2.8479	-3.7604	-3.1833	-3.0687	-3.6354	-2.9	-3.4417	-3.4562	-2.8667	-3.4833	-3.325	363.122	453.489	414.478	334.338	480.275	342.067	253.402	501.702	344.859	217.733	479.390	439.662	401.118	454.748	482.407	436.199	0.00089875	0.0005719	8.3953e-05	327.98	1.6014e-05	1.4932e-05	640.47	149.85	1.3439e-05	2.3985e-05	319.09	157.13	73.096	37.321	3.2366e-06	86.884	0.0032083	0.0034401	0.00096863	420.23	3.8963e-05	3.9898e-05	711.46	181.5	4.0044e-05	4.0659e-05	429.91	170.67	86.173	41.863	4.2806e-05	91.19	270.154	255.959	181.493	162.152	303.800	466.104	161.780	167.763	339.079	265.896	166.359	170.073	170.326	175.383	261.124	172.776	-8191	255	
2631.361	1	1	0	0	0.24453	0.13819	0.17609	0.087222	0.2075	0.047677	0.19358	0.2864	0.25918	0.21022	0.36129	0.086404	0.033272	0.25064	0.15064	0.22471	-2.5375	-3.8083	-2.9583	-3.2979	-3.7188	-2.8375	-3.5812	-3.4562	-2.9729	-3.8312	-3.0271	-3.3333	-3.6083	-3.0396	-3.6688	-3.2833	372.545	342.531	153.727	230.770	168.623	363.411	463.249	364.047	405.764	509.203	162.555	408.508	281.628	439.344	247.450	474.702	0.00086436	0.0019294	0.00078935	329.87	2.4341e-05	1.9059e-05	643.41	151.35	3.4841e-06	1.3212e-05	319.34	154.67	72.76	36.884	9.1017e-06	86.415	0.0038496	0.0041955	0.0011804	449.75	4.8312e-05	4.9678e-05	747.14	193.2	5.1673e-05	5.295e-05	473.7	177.68	91.52	43.711	5.6481e-05	93.871	273.221	264.988	234.058	162.439	227.487	418.755	161.973	167.790	324.524	312.997	165.660	169.891	170.775	174.725	340.364	172.698	-8191	255	
2631.457	1	1	0	0	0.061852	0.078426	0.13339	0.066873	0.10196	0.024329	0.16849	0.2048	0.23171	0.19208	0.16873	0.15342	0.016457	0.17613	0.18435	0.21452	-2.5417	-3.7354	-3.0646	-3.2542	-3.6375	-3.0938	-3.6813	-3.4167	-2.8333	-3.5896	-3.2979	-3.1417	-3.7417	-3.0375	-3.4938	-3.4813	353.141	280.063	411.808	167.656	456.538	415.413	205.868	437.752	418.699	271.097	176.178	458.963	254.750	462.325	413.992	454.460	0.00086022	0.00073475	0.00047748	332.69	1.5459e-05	1.527e-05	652.96	152.12	1.1673e-05	1.9245e-05	317.45	155	72.621	36.678	1.5348e-05	86.555	0.0050302	0.0054913	0.0015434	492.13	6.2121e-05	6.3356e-05	793.32	208.01	6.5505e-05	6.7088e-05	525.7	186.61	98.467	46.064	7.3528e-05	97.83	248.033	249.747	189.018	162.026	319.292	430.359	162.154	167.583	372.660	339.314	164.622	169.770	170.499	174.955	291.787	172.628	-8191	255	
2631.578	1	1	0	0	0.28044	0.09978	0.074354	0.047112	0.22841	0.19451	0.21631	0.18674	0.04462	0.10992	0.19174	0.18336	0.24454	0.32203	0.13455	0.31559	-2.5896	-3.5521	-3.1333	-3.0375	-3.7958	-2.925	-3.3583	-3.5563	-2.7896	-3.6646	-3.3146	-3.2042	-3.6729	-2.9125	-3.3292	-3.6604	378.231	398.878	198.651	154.294	484.093	233.176	455.095	159.644	464.263	150.592	461.250	215.619	177.893	471.185	287.391	434.848	0.0007415	0.00022708	0.00023493	332.48	6.1206e-06	1.5764e-05	645.13	148.37	4.3531e-06	7.3219e-06	316.36	152.3	70.768	35.752	2.2936e-05	83.473	0.0065009	0.0071191	0.0020076	549.31	8.0671e-05	8.2639e-05	848.57	226.19	8.5017e-05	8.7162e-05	589.89	194.84	104.32	47.876	9.0741e-05	98.794	266.265	396.617	494.454	161.520	262.324	224.942	161.579	167.423	271.861	369.258	165.879	169.900	171.005	174.755	397.210	172.885	-8191	255	
2631.674	1	1	0	0	0.16849	0.16394	0.15644	0.090428	0.14377	0.11224	0.13188	0.084386	0.2203	0.24056	0.37214	0.25777	0.10314	0.17735	0.051566	0.23244	-2.4562	-3.6354	-3.5542	-3.0417	-3.5458	-2.9625	-3.1146	-3.6312	-2.8021	-3.4729	-3.3229	-3.075	-3.8167	-3.2458	-3.1854	-3.825	483.898	285.708	435.243	344.367	339.366	441.409	435.554	318.746	321.957	353.115	169.229	500.323	487.285	452.039	457.446	414.786	0.00041882	0.00043834	0.0010431	325.13	6.4181e-06	3.4794e-05	634.55	143.2	1.4765e-05	1.4504e-05	305.57	148.64	68.646	34.894	2.9912e-05	81.894	0.0078372	0.0085175	0.0023883	584.07	9.3791e-05	9.5357e-05	867.73	234.03	9.5511e-05	9.7184e-05	618.74	197.48	106.58	48.574	0.00010002	99.436	242.529	477.777	320.874	161.151	312.149	249.787	161.792	167.441	356.254	283.496	165.417	169.925	170.383	174.719	435.501	172.751	-8191	255	
2631.770	1	1	0	0	0.1148	0.18143	0.23597	0.20779	0.18111	0.31768	0.059426	0.23848	0.1596	0.089687	0.18122	0.065564	0.28073	0.26537	0.060361	0.37065	-2.5167	-3.4375	-3.4792	-3.1396	-3.7458	-3.1229	-3.225	-3.7021	-2.8458	-3.4646	-3.6063	-3.0563	-3.6396	-3.1604	-2.8917	-3.7708	215.874	153.285	398.419	412.989	376.223	445.085	468.214	449.329	387.625	397.345	243.240	241.773	171.425	161.125	426.315	414.296	0.00094719	0.0012573	0.00090206	322.32	1.645e-05	3.777e-05	628.37	142.63	3.891e-05	3.7877e-06	310.01	148.09	69.054	35.028	3.566e-06	82.199	0.0085833	0.0093814	0.0026452	607.04	0.00010229	0.0001033	880.8	238.68	0.00010006	0.00010045	624.09	196.99	106.4	48.411	9.6546e-05	98.679	251.535	237.820	300.932	161.762	164.424	281.908	162.018	167.380	279.103	373.465	166.081	170.104	170.080	174.929	153.944	173.185	-8191	255	
2631.866	1	1	0	0	0.098959	0.19357	0.10536	0.11765	0.05403	0.058124	0.11073	0.11711	0.017443	0.090335	0.22656	0.1666	0.025683	0.10604	0.046355	0.23186	-2.5167	-3.275	-3.6188	-2.9271	-3.6667	-3.2542	-3.1437	-3.975	-3.1708	-3.2979	-3.5708	-3.0771	-3.4729	-3.3854	-3.0229	-3.9	313.798	335.087	362.668	398.430	152.140	286.352	257.310	254.590	295.726	422.179	228.322	245.482	265.050	428.723	223.362	465.210	0.00070811	0.0021198	0.000496	319.17	9.9938e-06	2.7508e-05	627.49	144.28	1.3669e-05	1.6812e-05	308.69	149.87	70.18	35.711	2.6654e-05	84.377	0.0081084	0.0087915	0.0024345	577.03	9.2327e-05	9.331e-05	851.72	227.52	8.7543e-05	8.7985e-05	580.03	190.28	101.18	46.638	8.2047e-05	96.815	263.965	246.743	292.325	161.714	281.696	183.278	162.272	168.504	200.612	374.999	166.183	170.550	171.042	174.967	432.086	173.492	-8191	255	
2631.962	1	1	0	0	0.16771	0.14068	0.27192	0.1546	0.10221	0.11919	0.10922	0.062612	0.10456	0.076743	0.20023	0.09384	0.19328	0.26493	0.10752	0.19	-2.6583	-3.2146	-3.5292	-2.8479	-3.5229	-3.4437	-2.9979	-3.8	-3.0479	-3.1792	-3.8521	-2.9938	-3.5521	-3.4958	-2.875	-3.8104	377.380	150.522	389.615	507.836	367.803	387.870	286.707	458.365	186.653	339.326	456.778	190.097	385.820	486.751	152.539	483.678	0.00091983	0.0017895	0.00068065	324.67	1.5234e-05	2.313e-05	632.88	146.6	2.3422e-05	4.0543e-06	310.72	150.46	70.064	35.414	1.5623e-05	83.009	0.0068342	0.0073864	0.0020372	537.89	8.0007e-05	8.0825e-05	824.9	218.52	7.9169e-05	8.0383e-05	560.02	187.95	100.07	46.256	8.1965e-05	96.053	248.249	215.411	393.377	162.250	439.131	418.747	162.017	168.228	306.002	338.736	165.510	170.425	170.859	175.235	242.550	173.466	-8191	255	
2632.058	1	1	0	0	0.29206	0.15931	0.081731	0.1438	0.19844	0.14114	0.075842	0.19143	0.1964	0.069058	0.25785	0.1334	0.058712	0.17311	0.15878	0.24994	-2.7646	-2.9833	-3.5208	-2.8375	-3.3521	-3.5625	-2.9375	-3.5542	-3.0875	-2.7833	-3.775	-3.0604	-3.4062	-3.6292	-2.8104	-3.7083	320.650	279.120	227.355	390.996	390.401	185.147	404.225	467.404	487.044	423.013	222.039	341.070	161.658	431.909	328.336	406.991	0.0007695	0.002802	0.0010489	323.24	1.3864e-05	5.6606e-06	633.42	145.6	1.3964e-05	2.9407e-05	310.13	149.55	69.888	35.188	8.7413e-06	82.269	0.007073	0.0077859	0.0021847	554.78	8.5486e-05	8.7194e-05	841.91	224.63	8.6049e-05	8.8056e-05	582.85	191.3	102.67	47.062	8.9019e-05	96.958	265.262	168.815	300.079	162.160	268.641	400.020	161.675	167.437	342.406	238.005	166.009	170.291	170.513	174.815	291.115	173.007	-8191	255	
2632.177	1	1	0	0	0.19755	0.082221	0.056664	0.088903	0.11388	0.099362	0.44934	0.15494	0.1459	0.28209	0.032603	0.21753	0.15273	0.072397	0.16095	0.19545	-2.8229	-3.0146	-3.6104	-3.0292	-3.1354	-3.5833	-3.0812	-3.6604	-3.4396	-3.0271	-3.7542	-3.3125	-3.2729	-3.875	-2.9896	-3.6458	215.019	407.515	197.597	408.465	174.445	206.679	366.920	465.953	211.820	264.687	182.677	453.464	208.894	342.934	337.071	495.106	0.00123	0.0035224	0.00073974	322	2.6842e-05	1.8161e-05	630.53	146.2	2.1122e-05	9.3785e-06	310.13	148.29	69.788	35.073	2.0884e-05	83.099	0.0075649	0.008205	0.0022676	563.94	8.8967e-05	9.0109e-05	851.48	227.81	9.0533e-05	9.1345e-05	595.95	193.7	104.57	47.534	8.994e-05	97.729	248.680	214.473	253.226	163.218	160.999	349.973	162.365	167.921	271.475	426.336	166.719	170.342	170.946	175.277	216.384	173.341	-8191	255	
2632.274	1	1	0	0	0.10989	0.08278	0.31197	0.10211	0.068748	0.14688	0.076418	0.11964	0.13336	0.11711	0.15801	0.17684	0.081427	0.010573	0.23008	0.14676	-3.0771	-2.9021	-3.6417	-3.0771	-3.1708	-3.7313	-3.0854	-3.5687	-3.2917	-2.8771	-3.6521	-3.1354	-3.1188	-3.5625	-2.9229	-3.4146	417.354	502.474	239.242	323.769	465.950	189.925	473.052	193.898	467.702	361.093	424.466	479.082	377.366	215.438	428.656	490.389	0.00091048	0.0029211	0.0008529	322.46	5.2108e-06	1.7625e-05	636.36	145.58	4.0419e-06	1.7692e-05	309.85	150.7	69.748	35.651	3.8848e-05	83.297	0.007634	0.0082707	0.00229	564.84	8.891e-05	8.9125e-05	846.76	226.64	8.7283e-05	8.7964e-05	581.63	191.82	102.56	47.123	8.6236e-05	97.612	255.189	314.615	227.161	162.990	250.278	311.781	162.376	168.982	200.585	324.092	166.526	170.518	171.120	175.277	351.666	173.469	-8191	255	
2632.370	1	1	0	0	0.090233	0.15951	0.11951	0.23956	0.18559	0.16384	0.17347	0.12107	0.011202	0.27166	0.28611	0.1945	0.13762	0.23253	0.158	0.14929	-3.0625	-2.7146	-3.5187	-3.3979	-3.0438	-3.7396	-3.1646	-3.4437	-3.5896	-3.0208	-3.5521	-3.3146	-2.8542	-3.7479	-3.1354	-3.425	251.286	471.311	417.916	376.660	255.387	420.811	444.566	168.810	413.941	352.103	232.302	498.216	197.769	480.468	502.175	365.510	0.00093066	0.00065314	0.00075127	321.94	1.8989e-05	3.1263e-05	630.03	143.7	9.6711e-06	2.5171e-05	305.54	147.84	69.198	34.846	1.643e-05	81.961	0.0074555	0.0080687	0.0022562	564.77	8.9338e-05	9.0288e-05	843.29	226.58	8.902e-05	8.987e-05	589.34	191.89	103.65	47.421	9.2363e-05	97.689	257.268	474.598	245.999	161.971	342.173	268.006	162.498	168.096	388.244	383.946	166.909	169.959	171.045	175.139	401.447	173.461	-8191	255	
2632.466	1	1	0	0	0.20443	0.070692	0.21701	0.19116	0.1575	0.15702	0.23185	0.2493	0.073124	0.021938	0.36672	0.23315	0.24842	0.013676	0.11005	0.25239	-3.1813	-3.1104	-3.5292	-3.2729	-2.8771	-3.8021	-3.2062	-3.2979	-3.7146	-2.7958	-3.5917	-3.5875	-3.0104	-3.8104	-3.2771	-3.2062	497.134	498.118	194.076	411.330	235.763	341.487	397.486	377.605	419.315	183.548	262.783	158.042	466.567	317.189	385.664	413.373	0.00065955	0.0022524	0.00089811	320.27	4.1137e-05	1.8181e-05	618.51	141.41	3.3291e-05	1.4369e-05	298.43	147.42	68.269	34.542	1.5947e-05	81.597	0.0080697	0.0088147	0.0024984	589.61	0.00010024	0.00010127	873.02	238.39	0.00010368	0.00010517	637.09	200.29	109.72	49.714	0.00010685	100.38	243.442	367.476	391.134	162.052	330.732	426.004	161.902	168.119	339.082	319.186	166.778	170.740	170.831	175.286	461.593	173.235	-8191	255	
2632.562	1	1	0	0	0.073283	0.11777	0.15247	0.14035	0.18684	0.1219	0.053736	0.18137	0.12091	0.16095	0.11649	0.15329	0.07734	0.15527	0.2649	0.15243	-3.2687	-2.9938	-3.4917	-3.5479	-3.0458	-3.7833	-3.2313	-3.1292	-3.7958	-3.0208	-3.35	-3.5917	-2.9813	-3.7396	-3.1771	-3.0396	493.102	465.181	359.637	270.846	431.732	167.182	231.891	371.722	421.822	230.989	191.522	152.386	450.125	452.019	276.046	447.095	0.0009582	0.00067441	0.00071744	317.16	7.2826e-06	1.2109e-05	618.13	141.27	1.6173e-05	2.6193e-05	301.34	148.18	68.715	35.371	1.3209e-05	82.575	0.0090846	0.0098044	0.0027363	610.33	0.00010592	0.00010678	883	241.73	0.00010447	0.00010518	638.95	200.66	109.43	49.741	0.00010405	101.01	239.596	229.942	384.201	162.017	349.037	465.979	161.893	168.021	167.375	432.890	167.380	170.380	170.960	174.927	417.243	173.438	-8191	255	
#DATA ENDS
