BOXY.EXE: ISS Imagent and Oximeter Data Acquisition Program Version 0.80
Ascii Record File

#ACQ INFORMATION
2  Detector Channels 
16  External MUX Channels 
1  Auxiliary Channels 
5000  Waveform (CCF) Frequency (Hz)
1  Waveforms Skipped 
30  Waveforms Averaged 
1  Cycles Averaged 
16  Acquisitions per Waveform 
10.0806  Updata Rate (Hz) 

#FILE INFORMATION
TRUE -- External MUX Channel results are PARSED.
FALSE -- AC DC and Phase are NOT grouped.
TRUE -- Companion Program Settings File CREATED.
FALSE -- AC data not excluded
FALSE -- DC data not excluded
FALSE -- Phase data not excluded
FALSE -- Auxillary Chn. data not excluded
Tab delimiters

#CALIBRATION STATE
TRUE -- Waveform Calibration Values APPLIED.


#AUX CALIBRATION VALUES
Val Type	aux-1	

Term	1.0000e+00	
Factor	0.0000e+00	


#WF CALIBRATION VALUES
A = Detector Channel
Val Type	A-AC1	A-AC2	A-AC3	A-AC4	A-AC5	A-AC6	A-AC7	A-AC8	A-AC9	A-AC10	A-AC11	A-AC12	A-AC13	A-AC14	A-AC15	A-AC16	A-DC1	A-DC2	A-DC3	A-DC4	A-DC5	A-DC6	A-DC7	A-DC8	A-DC9	A-DC10	A-DC11	A-DC12	A-DC13	A-DC14	A-DC15	A-DC16	A-Ph1	A-Ph2	A-Ph3	A-Ph4	A-Ph5	A-Ph6	A-Ph7	A-Ph8	A-Ph9	A-Ph10	A-Ph11	A-Ph12	A-Ph13	A-Ph14	A-Ph15	A-Ph16	

Term	0.00000e+00	0.00000e+00	0.00000e+00	0.00000e+00	0.00000e+00	0.00000e+00	0.00000e+00	0.00000e+00	0.00000e+00	0.00000e+00	0.00000e+00	0.00000e+00	0.00000e+00	0.00000e+00	0.00000e+00	0.00000e+00	0.00000e+00	0.00000e+00	0.00000e+00	0.00000e+00	0.00000e+00	0.00000e+00	0.00000e+00	0.00000e+00	0.00000e+00	0.00000e+00	0.00000e+00	0.00000e+00	0.00000e+00	0.00000e+00	0.00000e+00	0.00000e+00	0.00000e+00	0.00000e+00	0.00000e+00	0.00000e+00	0.00000e+00	0.00000e+00	0.00000e+00	0.00000e+00	0.00000e+00	0.00000e+00	0.00000e+00	0.00000e+00	0.00000e+00	0.00000e+00	0.00000e+00	0.00000e+00	
Factor	1.00000e+00	1.00000e+00	1.00000e+00	1.00000e+00	1.00000e+00	1.00000e+00	1.00000e+00	1.00000e+00	1.00000e+00	1.00000e+00	1.00000e+00	1.00000e+00	1.00000e+00	1.00000e+00	1.00000e+00	1.00000e+00	1.00000e+00	1.00000e+00	1.00000e+00	1.00000e+00	1.00000e+00	1.00000e+00	1.00000e+00	1.00000e+00	1.00000e+00	1.00000e+00	1.00000e+00	1.00000e+00	1.00000e+00	1.00000e+00	1.00000e+00	1.00000e+00	X	X	X	X	X	X	X	X	X	X	X	X	X	X	X	X	

B = Detector Channel
Val Type	B-AC1	B-AC2	B-AC3	B-AC4	B-AC5	B-AC6	B-AC7	B-AC8	B-AC9	B-AC10	B-AC11	B-AC12	B-AC13	B-AC14	B-AC15	B-AC16	B-DC1	B-DC2	B-DC3	B-DC4	B-DC5	B-DC6	B-DC7	B-DC8	B-DC9	B-DC10	B-DC11	B-DC12	B-DC13	B-DC14	B-DC15	B-DC16	B-Ph1	B-Ph2	B-Ph3	B-Ph4	B-Ph5	B-Ph6	B-Ph7	B-Ph8	B-Ph9	B-Ph10	B-Ph11	B-Ph12	B-Ph13	B-Ph14	B-Ph15	B-Ph16	

Term	0.00000e+00	0.00000e+00	0.00000e+00	0.00000e+00	0.00000e+00	0.00000e+00	0.00000e+00	0.00000e+00	0.00000e+00	0.00000e+00	0.00000e+00	0.00000e+00	0.00000e+00	0.00000e+00	0.00000e+00	0.00000e+00	0.00000e+00	0.00000e+00	0.00000e+00	0.00000e+00	0.00000e+00	0.00000e+00	0.00000e+00	0.00000e+00	0.00000e+00	0.00000e+00	0.00000e+00	0.00000e+00	0.00000e+00	0.00000e+00	0.00000e+00	0.00000e+00	-2.36295e+02	-1.26358e+02	-1.26122e+02	-1.84352e+02	-7.43156e+01	-6.85797e+01	-1.62008e+02	-1.62015e+02	-7.18578e+01	-6.29640e+01	-1.80050e+02	-1.70314e+02	-1.79883e+02	-1.76694e+02	-7.79053e+01	-1.49338e+02	
Factor	5.48273e-05	1.42809e-04	4.33729e-05	1.64603e-01	1.74334e-06	1.73504e-06	1.78629e-01	4.25379e-02	2.29001e-06	1.56306e-06	6.49495e-01	2.52864e-02	2.46878e-02	8.09108e-03	1.65514e-06	1.13705e-02	7.25772e-06	8.82615e-06	2.46127e-06	8.91634e-02	9.29681e-08	9.73902e-08	9.04586e-02	2.32296e-02	9.25378e-08	9.72273e-08	3.24706e-01	1.33849e-02	1.36041e-02	4.45422e-03	9.46605e-08	6.04742e-03	X	X	X	X	X	X	X	X	X	X	X	X	X	X	X	X	



#DISTANCE SETTINGS
A = Detector Channel
A-1	A-2	A-3	A-4	A-5	A-6	A-7	A-8	A-9	A-10	A-11	A-12	A-13	A-14	A-15	A-16	

2.5000e+00	3.0000e+00	2.5000e+00	3.0000e+00	2.0000e+00	3.0000e+00	1.5000e+00	3.0000e+00	3.0000e+00	3.0000e+00	3.0000e+00	3.0000e+00	3.0000e+00	3.0000e+00	1.5000e+00	3.0000e+00	

B = Detector Channel
B-1	B-2	B-3	B-4	B-5	B-6	B-7	B-8	B-9	B-10	B-11	B-12	B-13	B-14	B-15	B-16	

1.0000e+01	1.0000e+01	1.0000e+01	1.4400e+00	1.0000e+01	1.0000e+01	1.5100e+00	1.9400e+00	1.0000e+01	1.0000e+01	1.9900e+00	2.4900e+00	2.4100e+00	2.9000e+00	1.0000e+01	2.9800e+00	




#DATA BEGINS
time	group	step	mark	flag	A-AC1	A-AC2	A-AC3	A-AC4	A-AC5	A-AC6	A-AC7	A-AC8	A-AC9	A-AC10	A-AC11	A-AC12	A-AC13	A-AC14	A-AC15	A-AC16	A-DC1	A-DC2	A-DC3	A-DC4	A-DC5	A-DC6	A-DC7	A-DC8	A-DC9	A-DC10	A-DC11	A-DC12	A-DC13	A-DC14	A-DC15	A-DC16	A-Ph1	A-Ph2	A-Ph3	A-Ph4	A-Ph5	A-Ph6	A-Ph7	A-Ph8	A-Ph9	A-Ph10	A-Ph11	A-Ph12	A-Ph13	A-Ph14	A-Ph15	A-Ph16	B-AC1	B-AC2	B-AC3	B-AC4	B-AC5	B-AC6	B-AC7	B-AC8	B-AC9	B-AC10	B-AC11	B-AC12	B-AC13	B-AC14	B-AC15	B-AC16	B-DC1	B-DC2	B-DC3	B-DC4	B-DC5	B-DC6	B-DC7	B-DC8	B-DC9	B-DC10	B-DC11	B-DC12	B-DC13	B-DC14	B-DC15	B-DC16	B-Ph1	B-Ph2	B-Ph3	B-Ph4	B-Ph5	B-Ph6	B-Ph7	B-Ph8	B-Ph9	B-Ph10	B-Ph11	B-Ph12	B-Ph13	B-Ph14	B-Ph15	B-Ph16	aux-1	digaux	

1088.499	1	1	0	768	0.31556	0.076613	0.03219	0.25278	0.21167	0.13408	0.058437	0.30578	0.19969	0.022355	0.20659	0.13468	0.41154	0.02061	0.26518	0.11335	-3.4708	-4.0542	-3.4792	-4.1917	-3.8021	-3.3792	-4.2458	-3.8521	-3.7542	-4.0667	-3.3083	-4.0646	-4.125	-3.5938	-4.0167	-3.5646	261.183	61.563	129.538	250.595	205.428	288.566	126.210	263.448	228.463	-18.698	46.522	282.921	40.468	200.223	1.648	226.328	0.00046716	0.0005418	0.00014005	1361.6	2.5832e-06	4.502e-06	1356.6	366.33	6.8834e-06	4.6209e-06	419.63	139.29	121.59	41.788	5.9727e-06	51.733	0.00056448	0.00054814	0.00015669	1375.6	5.9387e-06	6.1049e-06	1374.9	373.26	6.12e-06	5.954e-06	426.03	142.68	124.29	42.826	6.0031e-06	53.115	41.204	11.549	19.928	-51.640	46.865	98.364	-51.629	-47.278	106.160	39.858	-47.923	-43.189	-42.713	-38.405	83.064	-38.886	-8191	255	
1088.595	1	1	0	0	0.27395	0.026087	0.13673	0.22827	0.23283	0.075593	0.19754	0.22202	0.059787	0.12749	0.12722	0.17346	0.20909	0.15895	0.064577	0.03643	-3.1104	-4.0958	-3.2833	-4.0271	-3.8375	-3.2271	-4.3063	-3.7208	-3.5708	-4.3063	-3.5646	-3.9979	-4.1625	-3.4958	-4.2604	-3.7896	146.683	210.126	278.722	258.044	24.155	66.172	255.939	246.634	-22.457	283.529	179.176	268.749	257.699	-50.062	-22.368	186.426	0.00041967	0.00067701	0.00021617	1357.6	3.9769e-06	5.8639e-06	1354.2	366.31	2.8811e-06	5.7322e-06	417.55	139.21	120.99	41.73	5.3503e-06	51.798	0.0005588	0.0005388	0.00015639	1373.4	6.0307e-06	6.0485e-06	1374.6	373	6.0768e-06	5.8758e-06	425.26	142.69	124.03	42.806	5.9636e-06	53.085	48.441	34.457	25.176	-51.661	60.579	113.745	-52.085	-47.371	285.102	60.788	-47.760	-43.398	-42.656	-38.269	57.620	-39.148	-8191	255	
1088.692	1	1	0	0	0.088021	0.19937	0.13405	0.30383	0.2409	0.065736	0.19774	0.33076	0.34328	0.063567	0.079903	0.15545	0.1914	0.18632	0.17561	0.1352	-2.9208	-4.1896	-3.4125	-4.0229	-4.0417	-3.5167	-4.3104	-3.8688	-3.5208	-4.2146	-3.5583	-4.0083	-4.3313	-3.5312	-4.0625	-3.9625	122.871	-31.814	40.217	291.846	269.525	233.201	260.509	201.070	-19.440	198.651	74.927	208.180	-5.494	-11.589	95.695	-54.551	0.00051297	0.00057891	0.00014002	1361.5	5.4764e-06	5.627e-06	1354.2	367.01	2.5219e-06	4.8616e-06	419.59	139.22	121.31	41.685	4.603e-06	51.573	0.00056485	0.00055836	0.00015421	1376.7	5.9374e-06	6.1883e-06	1374.7	373.49	6.1574e-06	5.8906e-06	428.69	142.7	124.33	42.769	5.9587e-06	53.047	37.431	37.138	46.798	-51.663	93.256	90.816	-51.821	-47.178	99.375	85.399	-47.529	-42.980	-42.542	-37.963	88.787	-39.171	-8191	255	
1088.788	1	1	0	0	0.28572	0.088173	0.090896	0.25844	0.14305	0.057909	0.09336	0.30704	0.15886	0.092141	0.048766	0.18215	0.064744	0.13966	0.13707	0.18928	-3.0458	-4.1188	-3.5708	-3.8229	-4.2146	-3.3229	-4.0625	-4.0667	-3.3167	-4.0417	-3.5271	-3.6896	-4.25	-3.5729	-3.9417	-4.0583	26.044	-5.408	10.414	275.041	172.664	-41.786	-45.154	256.248	75.492	166.918	-51.496	200.068	-37.724	212.987	-34.566	261.830	0.00038672	0.00038539	0.0002402	1359.4	2.8873e-06	7.9045e-06	1352.9	367.17	6.3478e-06	4.8776e-06	421.41	138.63	121.33	41.579	3.8771e-06	51.899	0.00055553	0.00053187	0.00015042	1374.6	5.9205e-06	5.8734e-06	1371.6	373.27	5.998e-06	5.7781e-06	424.98	142.62	124.07	42.772	5.9658e-06	53.077	47.352	51.126	31.452	-51.713	67.952	52.199	-51.653	-47.110	92.723	102.271	-48.116	-43.143	-42.695	-38.348	85.613	-38.851	-8191	255	
1088.882	1	1	0	0	0.22123	0.21587	0.015889	0.11851	0.14548	0.18569	0.071406	0.19416	0.052433	0.078268	0.025278	0.11345	0.18702	0.103	0.13881	0.12243	-3.1083	-4.0667	-3.7417	-3.5917	-4.1396	-3.4979	-4.0958	-4.1854	-3.425	-4.2042	-3.6917	-3.6458	-4.3458	-3.675	-3.7167	-4.2083	-30.001	79.870	233.665	202.396	122.190	32.616	-6.647	-61.688	275.934	71.540	-20.440	165.839	-58.971	-59.198	103.694	-9.552	0.00045205	0.00062241	0.00014337	1361.5	5.7524e-06	4.5453e-06	1353.5	366.68	5.7659e-06	3.8577e-06	418.33	139.72	121.26	41.845	3.0076e-06	51.96	0.00054032	0.00053751	0.00014723	1374.4	5.7042e-06	5.8276e-06	1372.1	373.16	5.6986e-06	5.6489e-06	425.32	142.92	124.32	42.878	5.7613e-06	53.219	45.739	20.800	29.068	-51.678	45.550	91.639	-51.730	-47.052	117.689	107.658	-46.973	-43.058	-42.571	-38.103	89.691	-38.622	-8191	255	
1088.980	1	1	0	0	0.13726	0.047238	0.15141	0.21199	0.10846	0.1504	0.2721	0.13602	0.10388	0.17654	0.22873	0.49171	0.079975	0.13671	0.090664	0.16868	-3.2125	-4.0458	-3.9333	-3.5146	-4.2167	-3.5542	-3.9417	-4.2875	-3.375	-4.0708	-3.9479	-3.5729	-4.4354	-3.6104	-3.775	-4.2312	153.316	144.299	242.982	253.556	-7.313	179.423	235.009	246.165	-6.145	292.864	184.393	271.586	-50.246	204.632	79.821	241.841	0.0004775	0.00059476	0.00015399	1363.6	4.7921e-06	5.2365e-06	1350.3	367.52	2.8477e-06	4.0758e-06	417.46	140.14	121.43	41.789	2.8686e-06	51.856	0.0005325	0.00051841	0.0001448	1374.4	5.6403e-06	5.5496e-06	1372.1	373.45	5.7088e-06	5.6197e-06	424.12	142.89	124.49	42.822	5.5339e-06	53.162	42.076	29.451	31.159	-51.308	74.424	82.699	-51.630	-46.994	128.104	88.567	-46.951	-43.267	-42.728	-38.188	85.480	-38.875	-8191	255	
1089.099	1	1	0	0	0.099752	0.21411	0.13799	0.31544	0.10951	0.068026	0.18513	0.16306	0.23884	0.11569	0.13603	0.21203	0.23936	0.25305	0.14809	0.19342	-3.0438	-3.9417	-3.7604	-3.6063	-4.225	-3.725	-3.8	-4.2875	-3.3792	-3.9104	-4.0646	-3.5708	-4.3208	-3.7396	-3.5563	-4.4062	275.452	178.264	176.374	239.734	49.769	277.549	253.123	254.830	76.159	-13.326	111.801	268.755	-19.044	290.192	158.828	230.569	0.00048475	0.00063678	0.00016432	1360.7	4.0635e-06	1.7736e-06	1355.8	366.99	2.9453e-06	4.4208e-06	417.6	139.55	121.83	41.706	4.733e-06	51.738	0.00051752	0.00050101	0.00013791	1375.1	5.4772e-06	5.4766e-06	1371.5	373	5.4946e-06	5.4301e-06	423.76	142.77	124.21	42.825	5.4694e-06	53.066	42.528	-11.468	30.570	-51.685	28.890	68.888	-51.532	-46.893	130.557	101.137	-47.819	-43.146	-42.754	-38.131	92.124	-38.742	-8191	255	
1089.195	1	1	0	0	0.15124	0.09938	0.065827	0.35445	0.025239	0.096258	0.35189	0.37015	0.23404	0.081992	0.12266	0.22788	0.14938	0.17399	0.23449	0.26157	-3.1021	-3.7062	-4.0354	-3.65	-4.0979	-3.7958	-3.6042	-4.2562	-3.5042	-3.7188	-4.0062	-3.5833	-4.0896	-3.9313	-3.3146	-4.4646	197.006	264.582	210.036	248.596	94.633	19.565	278.909	200.520	81.979	198.680	254.563	265.011	-57.717	211.099	284.750	286.931	0.0004145	0.00029193	0.00014837	1359.7	4.269e-06	3.7624e-06	1352.5	367.25	3.5382e-06	4.4307e-06	413.93	140.64	120.91	41.677	4.0522e-06	51.77	0.00051111	0.00049566	0.0001371	1372.4	5.353e-06	5.5068e-06	1371.8	372.96	5.501e-06	5.2948e-06	424.68	143.18	123.78	42.802	5.4933e-06	53.139	49.351	40.422	29.092	-51.488	102.588	75.760	-51.678	-46.880	74.176	72.323	-47.327	-42.875	-42.460	-38.048	97.799	-38.858	-8191	255	
1089.291	1	1	0	0	0.10303	0.072038	0.16759	0.31649	0.22319	0.076374	0.40526	0.12458	0.26871	0.085847	0.11499	0.058242	0.16548	0.23305	0.10301	0.08013	-3.1958	-3.7438	-4.1562	-3.4313	-4.0479	-3.875	-3.5875	-4.3812	-3.4646	-3.6375	-4.2667	-3.6	-4.0521	-3.9896	-3.4896	-4.2292	154.979	276.031	293.573	250.873	9.713	112.334	257.570	179.252	29.915	85.560	34.210	139.748	275.526	270.291	197.246	172.135	0.00049399	0.0005526	0.00024855	1351	3.1335e-06	2.9521e-06	1356.1	366.81	7.8062e-06	5.9162e-06	418.88	140.11	121.45	41.716	1.3404e-06	51.794	0.00050231	0.00049868	0.00013391	1370.8	5.39e-06	5.3134e-06	1372.3	373.04	5.5407e-06	5.4761e-06	424.98	142.85	124.16	42.796	5.523e-06	53.051	47.707	34.779	9.564	-51.966	94.350	110.663	-51.818	-47.244	49.070	79.724	-47.974	-43.311	-42.771	-38.428	36.686	-38.965	-8191	255	
1089.387	1	1	0	0	0.29061	0.19188	0.091049	0.093659	0.18514	0.22924	0.24081	0.0009221	0.096668	0.22116	0.16445	0.31684	0.11192	0.11452	0.30262	0.14887	-3.475	-3.6083	-4.2292	-3.5667	-3.9208	-3.9042	-3.5479	-4.15	-3.8521	-3.6083	-4.3396	-3.5333	-3.8458	-4.2833	-3.3625	-4.1646	193.844	-56.023	167.089	-35.065	201.955	204.757	204.382	180.000	-14.766	79.231	272.342	219.894	-19.815	-7.086	161.467	179.896	0.00047941	0.00051906	0.00025387	1356	9.4055e-06	3.7782e-06	1350.7	365.92	1.6481e-06	4.9608e-06	418.82	139.28	120.88	41.747	4.8648e-06	51.908	0.00051407	0.0005011	0.00013997	1372.3	5.4656e-06	5.4305e-06	1370.2	373.05	5.6847e-06	5.5438e-06	422.77	142.54	123.86	42.739	5.6771e-06	53.084	46.153	19.370	72.469	-51.834	90.629	92.197	-51.779	-46.956	101.600	86.934	-47.337	-43.242	-42.536	-38.383	57.102	-39.075	-8191	255	
1089.484	1	1	0	0	0.18461	0.21633	0.031272	0.26	0.13948	0.18091	0.27734	0.20249	0.12626	0.073068	0.20759	0.18297	0.412	0.26776	0.099512	0.20962	-3.3125	-3.3521	-4.2375	-3.6833	-3.7188	-4.3104	-3.45	-4.1083	-3.7792	-3.4938	-4.1146	-3.6333	-3.8167	-4.2854	-3.3792	-4.0917	75.957	26.299	129.223	269.174	-63.927	-39.534	279.080	285.475	249.177	-1.559	184.090	216.924	242.807	260.688	114.347	76.063	0.00045715	0.00046227	8.1341e-05	1352	5.0767e-06	5.8889e-06	1353.4	366.74	2.6231e-06	5.9114e-06	421.73	139.33	121.48	41.78	2.4138e-06	51.725	0.00050949	0.00051475	0.00014007	1368.6	5.6341e-06	5.4861e-06	1369.7	373.07	5.5677e-06	5.5189e-06	423.3	142.64	124.11	42.789	5.481e-06	53.03	52.380	30.030	71.812	-52.013	80.601	52.950	-51.770	-47.001	36.404	105.134	-47.561	-43.391	-42.605	-38.153	63.397	-38.947	-8191	255	
1089.580	1	1	0	0	0.042228	0.12975	0.083594	0.11206	0.19518	0.019819	0.28891	0.19389	0.14979	0.10467	0.19787	0.11327	0.043913	0.14501	0.20489	0.3036	-3.4813	-3.3021	-4.3208	-3.7958	-3.6854	-4.2833	-3.6708	-4.1354	-3.9292	-3.3708	-4.225	-3.8729	-3.5646	-4.4521	-3.4792	-3.8625	91.772	211.311	44.004	193.739	71.709	158.194	259.179	245.111	93.628	4.113	265.744	-3.172	-14.253	278.460	118.068	258.633	0.00035599	0.0006546	0.00011743	1357.1	6.5886e-06	4.3287e-06	1352.1	367.26	7.2191e-06	5.7072e-06	422.93	139.91	121.21	41.764	2.6433e-06	51.772	0.00050577	0.00050063	0.00013503	1371.2	5.4797e-06	5.4605e-06	1370.5	372.73	5.3996e-06	5.4188e-06	423.8	142.69	124.09	42.78	5.3887e-06	53.047	40.077	17.270	40.913	-51.843	97.555	77.629	-51.717	-47.073	100.636	93.664	-47.587	-43.300	-42.503	-38.424	68.884	-38.879	-8191	255	
1089.700	1	1	0	0	0.20343	0.30238	0.090423	0.19805	0.034063	0.14084	0.16314	0.071173	0.19498	0.12577	0.090439	0.021916	0.1746	0.14146	0.27798	0.054424	-3.6021	-3.3604	-4.0292	-3.85	-3.4062	-4.2333	-3.8083	-4.0896	-4.0625	-3.4542	-4.1229	-3.9083	-3.6083	-4.3542	-3.5938	-3.7604	179.388	271.508	155.775	279.393	57.229	218.568	214.554	224.283	107.599	289.992	109.048	51.383	87.397	251.671	132.094	170.092	0.00044564	0.00050392	0.00011531	1359.6	6.3456e-06	4.7256e-06	1355.1	366.84	6.8442e-06	3.9154e-06	413.54	139.68	121.07	41.757	1.662e-06	51.67	0.00049773	0.00049643	0.00013457	1371.9	5.4787e-06	5.281e-06	1370	372.46	5.3766e-06	5.3627e-06	421.92	142.65	123.98	42.861	5.3897e-06	52.939	50.772	24.870	8.211	-51.788	100.451	99.036	-51.754	-46.945	64.848	111.885	-47.737	-43.399	-42.303	-37.906	54.109	-38.801	-8191	255	
1089.795	1	1	0	0	0.29345	0.12451	0.27551	0.12853	0.209	0.10735	0.1374	0.21834	0.33264	0.35838	0.1022	0.14032	0.27343	0.2187	0.19638	0.063471	-3.7354	-3.2687	-3.9104	-4.0062	-3.3458	-4.1958	-3.6979	-3.8104	-4.1792	-3.4292	-3.9875	-4.0729	-3.5271	-4.4083	-3.6146	-3.7583	207.842	176.357	80.359	160.990	129.641	50.636	257.667	272.854	17.416	38.091	235.863	-61.788	291.442	258.307	-14.793	242.557	0.0004589	0.00050655	0.00019279	1359	7.1316e-06	5.9714e-06	1354.2	365.92	4.908e-06	4.4184e-06	415.81	139.54	121.13	41.79	3.5589e-06	51.985	0.00049472	0.00048696	0.00013409	1373.1	5.5037e-06	5.3025e-06	1372.2	372.91	5.3354e-06	5.182e-06	422.56	143.03	124.16	42.845	5.3193e-06	53.125	36.430	41.941	73.562	-51.764	107.527	56.990	-51.787	-47.074	99.334	115.005	-47.656	-43.157	-42.873	-38.130	62.319	-38.852	-8191	255	
1089.891	1	1	0	0	0.17598	0.14923	0.048307	0.059547	0.12643	0.21289	0.36621	0.21447	0.081628	0.19617	0.2743	0.037906	0.077553	0.31882	0.18884	0.085636	-3.7667	-3.4042	-3.8104	-4.2063	-3.325	-4.2	-3.8542	-3.7292	-4.1687	-3.4	-3.9042	-4.1958	-3.4042	-4.1292	-3.5958	-3.6229	291.499	155.429	235.269	265.610	-6.657	29.415	254.226	257.173	-55.769	246.785	-20.141	192.355	-37.302	276.221	136.149	164.274	0.00046504	0.00056141	0.00016471	1358.5	2.2078e-06	4.2126e-06	1360.4	366.93	4.603e-06	4.4025e-06	418.5	139.8	121.69	41.835	1.8347e-06	51.807	0.00049111	0.0004708	0.00013384	1372.3	5.3838e-06	5.213e-06	1371.6	372.92	5.2621e-06	5.3009e-06	423.55	142.6	124.4	42.927	5.4256e-06	53.195	39.207	4.350	7.594	-51.544	90.802	104.917	-51.845	-47.081	143.599	104.588	-47.255	-43.144	-42.577	-38.091	24.001	-38.700	-8191	255	
1089.987	1	1	0	0	0.1375	0.27069	0.0737	0.077978	0.10039	0.099468	0.076105	0.24508	0.24194	0.096133	0.15197	0.34196	0.087114	0.28461	0.045168	0.15287	-3.9729	-3.4	-3.6458	-4.2271	-3.4083	-4.0938	-3.9375	-3.675	-4.3271	-3.5167	-3.7354	-4.35	-3.4042	-4.2042	-3.8563	-3.4	150.339	149.998	284.019	154.632	150.140	-2.399	253.334	-29.202	103.207	14.368	130.304	222.214	289.763	237.361	96.832	202.823	0.00043343	0.00046247	0.00018145	1360.7	2.5287e-06	5.5932e-06	1352	367.65	2.7409e-06	4.1387e-06	420.09	139.88	121.82	41.823	7.8311e-06	51.664	0.0004853	0.00049255	0.00013557	1374.5	5.1797e-06	5.2037e-06	1371	373.79	5.3668e-06	5.3285e-06	423.92	142.86	124.25	42.937	5.2635e-06	53.119	53.075	32.244	32.835	-51.520	111.681	101.826	-51.830	-46.926	61.933	99.242	-47.225	-43.137	-42.776	-37.899	73.361	-38.935	-8191	255	
1090.083	1	1	0	0	0.23018	0.12781	0.14582	0.27277	0.23624	0.34034	0.15678	0.19224	0.065324	0.059091	0.19363	0.095042	0.020948	0.096497	0.10492	0.31302	-3.8417	-3.4437	-3.5	-4.3708	-3.3292	-3.9437	-4.075	-3.5792	-4.0292	-3.5604	-3.5	-4.3187	-3.5208	-3.9542	-4.0125	-3.3958	26.990	188.928	102.806	236.843	255.625	197.115	199.970	260.828	-5.273	-17.946	-57.869	130.932	83.751	191.031	282.748	251.447	0.00045165	0.00023963	0.0001561	1358.8	3.714e-06	5.4669e-06	1355.6	367.17	7.5833e-06	7.4151e-06	423.54	139.38	121.74	41.862	1.5698e-06	51.77	0.00049089	0.0004884	0.0001376	1374.3	5.398e-06	5.3753e-06	1374	373.39	5.4576e-06	5.2173e-06	424.87	142.61	124.25	42.855	5.2278e-06	53.136	52.760	20.148	31.541	-51.717	97.358	70.236	-52.045	-46.929	79.513	110.600	-46.860	-43.064	-42.516	-37.730	63.054	-38.634	-8191	255	
1090.179	1	1	0	0	0.14221	0.09623	0.18612	0.32457	0.052588	0.16207	0.18081	0.18602	0.21403	0.24291	0.16743	0.24078	0.028243	0.30651	0.22896	0.17106	-3.7792	-3.525	-3.2458	-4.4604	-3.2958	-3.7354	-4.1438	-3.4875	-4.0229	-3.7313	-3.4917	-4.3	-3.5125	-3.725	-4.1167	-3.2854	-19.964	101.406	60.668	288.094	-17.792	4.245	244.094	252.876	17.124	67.835	100.123	177.060	245.758	285.398	23.391	205.858	0.00044801	0.00039375	0.00010964	1358.4	6.8012e-06	7.0923e-06	1355.6	366.91	3.5924e-06	5.8901e-06	424.38	139.87	121.12	41.659	5.5081e-06	51.78	0.00049575	0.0004902	0.00013834	1372.5	5.3796e-06	5.438e-06	1372.1	373.15	5.2286e-06	5.3902e-06	424.56	143.02	123.92	42.744	5.4457e-06	53.094	55.519	11.425	-9.746	-51.406	73.853	106.059	-51.793	-46.867	153.608	100.721	-46.914	-42.982	-42.464	-37.649	48.116	-38.676	-8191	255	
1090.275	1	1	0	0	0.17039	0.2446	0.18097	0.15424	0.15049	0.082144	0.20406	0.16942	0.19823	0.12483	0.027817	0.13313	0.3615	0.33451	0.13074	0.12316	-3.6458	-3.6688	-3.3271	-4.3458	-3.5333	-3.6417	-4.3375	-3.4458	-3.9542	-3.9354	-3.5396	-4.3854	-3.4583	-3.7292	-4.1604	-3.4208	274.672	137.238	-35.537	202.137	14.058	42.362	243.193	241.761	115.723	-31.231	231.335	250.028	-59.795	289.574	183.003	263.775	0.00042943	0.00063135	0.00012527	1357.4	3.1082e-06	2.0869e-06	1356.9	366.47	2.5754e-06	5.9643e-06	424.7	140.17	121.59	41.932	4.2175e-06	51.911	0.00050465	0.00049651	0.00013793	1374.4	5.2806e-06	5.4841e-06	1371.8	373.05	5.5617e-06	5.4638e-06	425.92	142.9	124.39	42.917	5.4207e-06	53.097	51.117	38.255	37.002	-51.360	44.243	85.930	-51.672	-47.057	93.795	146.568	-46.732	-43.170	-42.594	-38.018	69.917	-38.524	-8191	255	
1090.372	1	1	0	0	0.05256	0.1552	0.1521	0.30793	0.18943	0.1995	0.28435	0.30991	0.20043	0.19755	0.10031	0.038108	0.15819	0.18516	0.37224	0.27023	-3.4146	-3.825	-3.3312	-4.2875	-3.4833	-3.4854	-4.2562	-3.55	-3.8563	-3.9521	-3.2229	-4.2937	-3.8771	-3.6896	-4.2146	-3.5458	100.007	192.675	67.808	254.201	262.341	281.355	275.829	213.385	28.257	88.870	279.954	5.478	201.192	281.982	110.534	263.991	0.00047103	0.00078746	0.00015644	1360	3.698e-06	2.3467e-06	1354.2	367.02	3.0352e-06	5.1824e-06	414.8	140.15	121.38	41.582	5.2967e-06	51.669	0.00051395	0.00051171	0.00014173	1376.2	5.5153e-06	5.4536e-06	1373.2	373.16	5.6947e-06	5.5014e-06	424.75	142.96	124.19	42.815	5.6621e-06	53.092	44.739	33.175	17.542	-51.533	66.839	85.117	-51.663	-46.890	104.517	86.461	-46.782	-43.111	-42.751	-38.109	72.445	-38.681	-8191	255	
1090.468	1	1	0	0	0.132	0.12303	0.084277	0.26974	0.09285	0.17612	0.10965	0.13613	0.30036	0.082692	0.27665	0.09271	0.066562	0.097036	0.099364	0.37587	-3.225	-4.1354	-3.5062	-4.2479	-3.8792	-3.5479	-4.1333	-3.6667	-3.6521	-3.9521	-3.3208	-4.1708	-3.9375	-3.3708	-4.1875	-3.6771	160.072	148.476	103.820	231.901	237.153	157.522	252.046	173.152	292.494	16.848	-64.016	243.629	46.839	122.363	105.508	210.338	0.00048138	0.00047668	0.00016229	1363.3	7.0887e-06	6.9996e-06	1355.4	367.03	4.0044e-06	5.3184e-06	419.8	139.62	121.87	41.794	2.2653e-06	51.882	0.00052876	0.00050079	0.00014466	1376.9	5.6577e-06	5.6831e-06	1372.2	372.83	5.6643e-06	5.4739e-06	425.86	142.95	124.39	42.896	5.5637e-06	53.037	45.467	19.937	31.847	-51.540	79.208	76.643	-51.822	-46.934	82.968	73.084	-47.486	-43.069	-42.481	-37.948	72.549	-38.644	-8191	255	
1090.588	1	1	0	0	0.13513	0.23459	0.14025	0.20137	0.24235	0.12821	0.10292	0.13008	0.032151	0.38896	0.12365	0.13846	0.066735	0.21163	0.04558	0.092709	-3.3167	-4.0687	-3.3354	-4.2396	-3.775	-3.3646	-4.2917	-3.8396	-3.5542	-4.2125	-3.3229	-4.1229	-4.1208	-3.5292	-3.9729	-3.8	3.750	139.814	263.061	189.911	293.994	269.599	265.513	136.919	127.047	156.150	169.070	214.630	187.792	181.917	245.297	73.157	0.00047071	0.00063631	0.00022504	1363.9	3.778e-06	4.0506e-06	1364.3	367.32	4.4023e-06	3.633e-06	420.88	140.12	122.01	41.836	2.9716e-06	51.698	0.0005332	0.00051363	0.00014623	1377.9	5.5128e-06	5.5936e-06	1376.4	373.46	5.7138e-06	5.5578e-06	425.63	143.2	124.63	42.953	5.7066e-06	53.04	50.986	13.077	33.766	-51.431	120.052	114.680	-51.723	-46.769	57.580	97.660	-48.128	-42.863	-42.587	-37.882	143.699	-38.793	-8191	255	
1090.660	1	1	0	0	0.16732	0.10549	0.073978	0.22849	0.097684	0.050843	0.24007	0.26805	0.30425	0.13615	0.071414	0.35595	0.066197	0.013458	0.059527	0.015744	-3.0958	-4.0625	-3.4333	-4.0208	-4.0813	-3.4562	-4.3417	-4.0917	-3.5062	-4.1792	-3.4625	-3.8271	-4.1708	-3.5146	-4.1312	-4.0125	261.293	-5.627	193.265	236.970	69.713	77.952	174.716	237.362	232.473	63.608	173.013	254.806	283.900	96.498	253.892	266.738	0.000371	0.00051076	0.00010785	1363.1	4.3497e-06	1.4207e-06	1355.6	368.63	3.0101e-06	4.5719e-06	423.11	140.52	122.15	41.588	7.3863e-06	51.904	0.000528	0.00050361	0.00014697	1376.8	5.5756e-06	5.6316e-06	1373	374.23	5.72e-06	5.5541e-06	426.26	143.15	124.63	42.827	5.6216e-06	53.21	45.775	69.456	43.732	-51.604	115.755	12.549	-51.572	-46.886	65.614	65.440	-47.443	-42.953	-42.239	-37.636	49.084	-38.531	-8191	255	
1090.781	1	1	0	0	0.19258	0.15594	0.17806	0.10342	0.05888	0.13015	0.074806	0.041725	0.30294	0.10125	0.3582	0.35859	0.13146	0.29138	0.22842	0.089634	-3.0354	-4.2229	-3.6625	-3.6979	-4.0917	-3.1604	-4.0104	-4.0083	-3.3979	-4.325	-3.575	-3.5917	-4.2688	-3.5729	-3.9896	-4.0542	-14.648	72.171	89.563	293.362	100.278	197.972	-5.877	8.551	74.186	-31.022	55.491	258.171	216.585	-33.088	8.567	-58.353	0.00055734	0.00055655	0.00017975	1356.7	3.6307e-06	6.6092e-06	1359.8	366.95	4.5127e-06	7.5303e-06	418.53	140.45	122.07	41.731	6.121e-06	52.141	0.00052921	0.00050859	0.00014307	1373.8	5.7751e-06	5.6227e-06	1374.7	373.93	5.6415e-06	5.6307e-06	425.63	143.12	124.76	42.769	5.5938e-06	53.227	46.620	27.991	-2.661	-51.235	139.340	74.857	-51.384	-46.916	64.646	97.731	-46.749	-43.007	-42.215	-37.898	82.076	-38.502	-8191	255	
1090.875	1	1	0	0	0.11612	0.011345	0.14245	0.15751	0.12418	0.053244	0.32102	0.23203	0.04809	0.15003	0.078708	0.07818	0.12593	0.19834	0.11132	0.13036	-2.9229	-4.1854	-3.7375	-3.7313	-4.2125	-3.35	-3.8792	-4.1937	-3.3125	-4.2771	-3.6979	-3.6146	-4.2396	-3.5125	-3.95	-4.0333	153.827	262.588	267.700	243.006	87.501	74.126	239.310	240.532	-11.870	274.384	-55.648	-24.550	-20.032	10.808	267.164	272.073	0.00048989	0.00039965	0.00017542	1364.3	6.6698e-06	2.0635e-06	1358.2	367.39	5.5083e-06	4.225e-06	420.45	140.61	121.68	41.748	5.1075e-06	51.671	0.00052251	0.00050204	0.00014391	1378.8	5.5393e-06	5.5003e-06	1376	373.21	5.6913e-06	5.4652e-06	425.61	143.2	124.38	42.815	5.6976e-06	53.089	51.134	21.263	67.792	-51.275	48.013	67.940	-51.325	-46.790	102.238	114.234	-46.935	-42.962	-42.266	-37.734	66.217	-38.947	-8191	255	
1090.971	1	1	0	0	0.13294	0.10349	0.20685	0.27343	0.085838	0.17317	0.36468	0.15595	0.15904	0.050401	0.28722	0.454	0.12732	0.11261	0.026601	0.11112	-3.0167	-4.1271	-3.6833	-3.4688	-4.2708	-3.35	-3.8083	-4.2417	-3.3542	-4.1146	-3.9229	-3.4604	-4.1125	-3.8021	-3.8333	-4.2333	-25.533	118.519	176.511	266.437	94.250	249.917	284.106	182.880	-54.720	-4.340	-26.933	274.817	-41.549	236.334	161.990	223.111	0.00045473	0.00042762	0.00011338	1361.5	5.4512e-06	5.4828e-06	1362.9	367.97	3.0135e-06	5.9985e-06	424.51	140	121.96	41.692	2.4591e-06	51.965	0.00054008	0.00051171	0.00014265	1376.2	5.6348e-06	5.6973e-06	1377.5	373.68	5.6614e-06	5.5033e-06	428.24	143.17	124.42	42.902	5.7356e-06	53.255	45.523	12.081	46.882	-51.551	88.079	79.000	-51.492	-47.022	67.654	78.453	-47.782	-42.763	-42.514	-37.924	64.013	-38.714	-8191	255	
1091.069	1	1	0	0	0.24001	0.063227	0.10732	0.13373	0.32198	0.14288	0.06678	0.26827	0.13881	0.19211	0.044348	0.16649	0.26966	0.16191	0.085522	0.12809	-3.0167	-3.95	-3.8708	-3.5292	-4.175	-3.6896	-3.725	-4.2958	-3.3771	-4.0604	-3.8438	-3.5312	-4.0979	-3.7104	-3.4354	-4.1521	193.679	86.331	72.676	215.481	257.151	69.944	-1.410	237.578	37.834	290.689	27.029	198.524	220.453	195.185	140.917	-28.650	0.00058091	0.00056692	0.00023786	1359.7	9.0488e-06	6.5324e-06	1350.9	368.09	6.08e-06	5.0905e-06	416.43	139.47	121.21	41.817	4.6034e-06	51.747	0.00052003	0.00051445	0.0001425	1376.6	5.5682e-06	5.6251e-06	1372.9	373.55	5.7506e-06	5.6347e-06	423.73	142.84	124.16	42.855	5.8865e-06	53.071	34.563	42.690	27.992	-51.424	67.693	49.062	-51.718	-46.553	90.076	88.616	-46.971	-42.946	-42.136	-37.540	104.570	-38.362	-8191	255	
1091.188	1	1	0	0	0.23123	0.25677	0.15711	0.30435	0.05364	0.095454	0.17985	0.16843	0.19849	0.08509	0.12645	0.24209	0.2196	0.0901	0.059132	0.16897	-2.8812	-3.7687	-4.0042	-3.5146	-4.0875	-3.6771	-3.4792	-4.275	-3.4542	-3.8958	-3.9	-3.5021	-4.1333	-3.7917	-3.1979	-4.1729	210.680	266.919	168.796	245.598	101.214	203.278	236.061	276.271	-28.917	157.998	166.783	209.087	287.763	90.455	70.223	119.686	0.00038407	0.00053848	0.0001688	1361.7	5.8452e-06	4.9623e-06	1358.9	368.06	2.3817e-06	5.8816e-06	421.23	140.35	121.84	41.686	2.9185e-06	52.066	0.00053329	0.00052192	0.00014641	1375.1	5.7851e-06	5.617e-06	1375	373.54	5.8769e-06	5.75e-06	426.79	143.1	124.59	42.879	5.7372e-06	53.29	38.366	25.253	64.620	-51.241	79.280	73.949	-51.227	-46.632	11.374	100.153	-47.282	-43.174	-42.351	-37.968	99.625	-38.537	-8191	255	
1091.284	1	1	0	0	0.16076	0.10007	0.16503	0.17125	0.13408	0.12572	0.24461	0.2624	0.06115	0.064812	0.18746	0.13552	0.11204	0.15592	0.096317	0.21477	-3.1271	-3.475	-3.9958	-3.4771	-3.9958	-3.9229	-3.625	-4.2	-3.4875	-3.7708	-4.2063	-3.4354	-4.0479	-3.9479	-3.3854	-4.2354	206.963	214.490	16.298	195.639	22.012	107.320	210.293	227.966	124.016	224.477	58.481	81.242	269.544	196.377	171.950	290.939	0.00037931	0.00072929	0.00013949	1362.4	3.7871e-06	6.604e-06	1362	368.1	4.1204e-06	2.3699e-06	418.93	140.01	121.73	41.891	4.7813e-06	52.071	0.00053739	0.00052422	0.00014612	1376.6	5.8605e-06	5.8168e-06	1374.8	373.68	5.8761e-06	5.7834e-06	424.35	143.12	124.56	42.952	5.6702e-06	53.208	51.592	24.036	4.444	-51.609	78.789	89.591	-51.692	-46.998	122.410	136.988	-47.083	-43.266	-42.497	-38.060	112.360	-38.909	-8191	255	
1091.356	1	1	0	0	0.13219	0.27171	0.21442	0.24247	0.26329	0.20767	0.18722	0.46123	0.13065	0.20772	0.16733	0.14519	0.12105	0.15164	0.1484	0.077343	-3.0958	-3.5333	-4.2625	-3.4354	-3.8979	-3.9146	-3.325	-4.2979	-3.6708	-3.4979	-4.1625	-3.4333	-3.8229	-4.325	-3.1562	-4.1583	244.903	274.927	180.713	212.622	25.799	140.029	294.198	257.166	79.309	239.218	122.145	-24.468	136.175	95.045	65.581	224.506	0.00046634	0.00059049	0.00020125	1366.4	5.5834e-06	6.0945e-06	1355.3	367.85	1.562e-06	2.1825e-06	417.79	140.33	122.07	41.843	4.1691e-06	51.941	0.00053544	0.00052996	0.00014835	1378.9	5.954e-06	5.7909e-06	1377.2	374.47	5.8692e-06	6.0338e-06	426.54	143.23	124.56	42.908	6.0431e-06	53.158	47.142	28.720	20.190	-51.573	90.366	55.838	-51.696	-46.858	132.003	44.560	-47.254	-42.991	-42.375	-38.175	130.091	-38.654	-8191	255	
1091.476	1	1	0	0	0.1253	0.073879	0.093936	0.059301	0.072953	0.058924	0.3873	0.23094	0.27852	0.31144	0.2592	0.10266	0.10436	0.043496	0.22107	0.047955	-3.4125	-3.5333	-4.1042	-3.6937	-3.7333	-4.175	-3.4708	-4.1896	-3.7229	-3.35	-4.2604	-3.525	-3.6333	-4.0583	-3.1854	-4.1354	210.221	243.648	50.446	285.042	23.958	-7.776	232.163	288.136	134.096	-32.739	-10.361	7.821	-60.202	-25.834	181.012	70.817	0.0005524	0.00051172	0.00013229	1366.9	3.1241e-06	6.4922e-06	1354.5	367.58	2.9225e-06	3.3047e-06	420.04	140.43	121.72	41.815	4.591e-06	52.079	0.00054726	0.00053225	0.000149	1378.3	6.0635e-06	5.8532e-06	1374.5	373.96	6.0435e-06	6.0573e-06	428.65	143.28	124.6	42.961	6.1222e-06	53.256	48.901	34.496	37.460	-51.576	106.409	92.686	-51.809	-46.734	59.535	69.886	-47.361	-43.366	-42.514	-38.051	81.933	-38.482	-8191	255	
1091.573	1	1	0	0	0.15464	0.05401	0.082114	0.17277	0.18577	0.16322	0.10717	0.3418	0.054973	0.12364	0.1024	0.2627	0.10362	0.15086	0.088691	0.3101	-3.1521	-3.1958	-4.2937	-3.4646	-3.65	-4.1125	-3.5333	-4.0875	-4.0479	-3.2521	-4.0604	-3.8312	-3.6688	-4.1854	-3.2292	-3.9062	233.595	108.444	136.729	225.314	46.601	53.129	249.824	285.470	105.674	21.491	14.329	159.345	279.083	157.352	206.103	295.020	0.00044347	0.00053659	9.4431e-05	1359.8	3.4238e-06	2.9569e-06	1353.4	367.96	5.0089e-06	3.45e-06	420.77	140.32	122.33	41.708	5.3711e-06	51.885	0.00055841	0.00056239	0.00015485	1377.4	6.1553e-06	5.9327e-06	1375.9	373.86	6.088e-06	6.1944e-06	427.83	143.17	124.77	42.893	6.0257e-06	53.28	43.984	24.079	-0.957	-51.560	113.050	25.828	-51.661	-46.850	106.463	76.056	-46.964	-43.034	-42.397	-38.096	60.241	-38.565	-8191	255	
1091.669	1	1	0	0	0.10993	0.18174	0.13504	0.3578	0.082906	0.10229	0.31213	0.23421	0.1201	0.43021	0.031713	0.38371	0.14534	0.15997	0.1574	0.17157	-3.5917	-3.3583	-4.1958	-3.8833	-3.5333	-4.2375	-3.5146	-4.0667	-4.1146	-3.525	-4.0729	-3.7125	-3.45	-4.2896	-3.4146	-3.5875	261.363	248.334	255.879	234.410	230.839	211.264	222.967	-9.362	192.387	109.248	-61.590	257.517	-51.514	187.370	218.684	206.077	0.00051989	0.00040974	0.00025495	1355.7	6.477e-06	6.2818e-06	1357.5	367.48	2.4503e-06	4.7034e-06	418.82	140.98	122.18	41.823	4.6054e-06	51.954	0.00054537	0.00056072	0.0001542	1376.8	6.1154e-06	6.2007e-06	1375.9	373.35	6.1273e-06	6.1417e-06	426.97	143.71	124.6	42.987	6.2249e-06	53.273	51.398	18.334	41.224	-51.638	94.008	67.285	-51.636	-46.628	94.013	64.272	-47.909	-42.952	-42.354	-37.934	65.025	-38.558	-8191	255	
1091.765	1	1	0	0	0.26071	0.21051	0.10606	0.2457	0.2097	0.24761	0.25822	0.25787	0.067805	0.19328	0.1246	0.16461	0.17802	0.1598	0.11807	0.25098	-3.7292	-3.4771	-4.0062	-4.0458	-3.5167	-4.2063	-3.7125	-3.9229	-4.0208	-3.3146	-3.9854	-3.9271	-3.4792	-4.0583	-3.6833	-3.6583	60.950	227.341	193.351	206.642	174.514	20.358	278.326	233.654	29.905	-22.116	198.784	196.653	265.783	-61.801	-54.636	269.547	0.00039084	0.00055568	0.0001618	1359.2	6.3567e-06	1.0472e-05	1357.6	367.27	4.1482e-06	3.988e-06	418.22	140.44	121.91	41.836	5.7899e-06	51.979	0.00055727	0.0005628	0.00015068	1377.9	6.1673e-06	6.1668e-06	1376.7	373.88	6.0928e-06	6.134e-06	428.98	143.23	124.65	42.94	6.0208e-06	53.193	28.267	36.033	13.358	-51.514	81.658	92.348	-51.469	-46.682	68.608	69.609	-47.744	-42.987	-42.436	-38.102	66.454	-38.792	-8191	255	
1091.884	1	1	0	0	0.055146	0.17014	0.256	0.30138	0.087108	0.17165	0.25114	0.28231	0.094405	0.2516	0.030089	0.30439	0.10128	0.21447	0.21321	0.19862	-3.7812	-3.2958	-3.6979	-4.1708	-3.325	-4.1562	-3.8937	-3.725	-4.3083	-3.3792	-3.8396	-4.2854	-3.4667	-4.1062	-3.8333	-3.5604	251.062	19.063	248.056	276.579	11.056	87.068	180.504	233.174	140.600	-50.031	287.237	242.513	51.186	257.326	-48.283	62.973	0.00041702	0.00068874	0.00015133	1364.4	5.4091e-06	6.6835e-06	1353	367.39	3.1423e-06	7.472e-06	419.86	140.2	122.41	41.908	2.4374e-06	51.869	0.0005563	0.00056223	0.00015457	1378	6.1597e-06	6.1127e-06	1374.6	374.41	6.0487e-06	6.0769e-06	427.26	143.43	124.84	42.926	6.1912e-06	53.273	45.735	10.944	34.435	-51.362	75.105	88.339	-51.415	-46.679	99.562	71.834	-47.071	-43.172	-42.386	-37.649	111.722	-38.437	-8191	255	
1091.957	1	1	0	0	0.21078	0.15708	0.03141	0.11913	0.094197	0.074394	0.096837	0.307	0.050958	0.099597	0.31454	0.27335	0.11044	0.032015	0.065877	0.36463	-3.9062	-3.4688	-3.8208	-4.1167	-3.2687	-3.9896	-3.8729	-3.525	-4.1312	-3.6958	-3.8354	-4.2937	-3.4958	-4.1354	-3.8354	-3.4958	-10.016	69.833	275.534	196.226	118.911	21.181	246.731	278.020	41.356	105.350	136.051	273.260	204.953	185.813	179.183	-43.139	0.0004772	0.00048223	0.000113	1364.9	3.9465e-06	2.4173e-06	1357.5	367.44	3.4277e-06	3.2603e-06	423.75	140.52	121.66	41.767	4.0597e-06	52.058	0.00055959	0.00055136	0.00015503	1379.4	6.0917e-06	6.0629e-06	1376.7	374.38	6.2027e-06	6.1595e-06	428.25	143.43	124.69	42.95	6.1322e-06	53.277	33.028	38.006	6.547	-51.450	70.351	143.165	-51.454	-46.704	37.441	91.469	-47.210	-42.928	-42.632	-37.719	84.953	-38.456	-8191	255	
1092.052	1	1	0	0	0.065981	0.15972	0.10649	0.21173	0.034144	0.13787	0.23983	0.24983	0.23684	0.095772	0.10281	0.13798	0.12424	0.15536	0.079648	0.31981	-3.8167	-3.4167	-3.6083	-4.3292	-3.325	-3.8229	-4.0979	-3.6063	-4.1646	-3.6	-3.55	-4.1292	-3.4979	-4.0958	-3.8646	-3.4667	84.160	264.322	-23.542	214.722	204.944	277.466	272.868	-35.082	48.794	-19.015	35.008	242.466	92.973	279.578	222.097	133.236	0.0003446	0.00047818	0.00014774	1361.9	3.855e-06	3.1575e-06	1360.5	366.99	5.9002e-06	5.69e-06	415.76	140.28	122.31	42.194	3.4079e-06	52.254	0.00053831	0.00057793	0.00015978	1379.6	6.06e-06	5.9607e-06	1376.6	373.85	6.1007e-06	5.9841e-06	428.26	143.39	124.92	43.115	5.8831e-06	53.403	67.018	-9.505	19.951	-51.332	69.614	29.912	-51.312	-46.658	68.422	73.438	-47.139	-42.769	-42.201	-37.799	15.969	-38.696	-8191	255	
1092.150	1	1	0	0	0.15877	0.2557	0.054245	0.14175	0.084396	0.087999	0.05888	0.22372	0.17941	0.14078	0.15134	0.14394	0.097586	0.24496	0.087497	0.068487	-3.7646	-3.7646	-3.5187	-4.5104	-3.3042	-3.875	-4.0833	-3.4208	-4.0917	-3.6792	-3.2542	-4.2854	-3.3583	-3.6375	-3.9792	-3.4188	141.781	111.658	264.432	276.762	247.993	254.584	245.254	242.213	192.768	55.169	151.716	263.717	100.406	281.445	251.116	7.935	0.00049688	0.00027563	0.00015236	1364.6	7.3617e-06	3.7803e-06	1359.7	367.62	6.9791e-06	4.9165e-06	426.22	140.98	121.98	41.869	4.4726e-06	52.195	0.00054242	0.00054834	0.00015195	1379.5	6.1425e-06	5.8667e-06	1379.1	374.17	5.9581e-06	5.8371e-06	427.91	143.59	124.74	42.957	5.9244e-06	53.379	34.062	45.693	88.592	-51.441	76.336	82.162	-51.168	-46.477	108.340	76.809	-47.273	-42.762	-42.282	-37.719	105.173	-38.474	-8191	255	
1092.268	1	1	0	0	0.11235	0.30349	0.096681	0.11524	0.21453	0.080986	0.21002	0.48767	0.10873	0.059165	0.22496	0.23029	0.13753	0.17121	0.088723	0.35582	-3.5792	-3.7833	-3.3021	-4.2688	-3.4292	-3.7396	-4.1312	-3.6083	-3.9729	-3.6875	-3.2771	-4.3104	-3.6396	-3.7729	-4.0167	-3.5312	-8.146	129.872	248.377	-35.805	247.017	-47.082	255.351	223.422	196.035	-55.859	284.812	292.113	36.160	240.153	25.399	255.976	0.00039131	0.00066915	0.00017465	1362.2	1.0582e-06	2.9902e-06	1362.5	368.84	3.9838e-06	3.6395e-06	423.59	140.71	122.27	41.924	6.0911e-06	51.929	0.00054415	0.00054159	0.00015575	1378.8	6.0019e-06	5.8872e-06	1378.5	374.64	5.9689e-06	5.9657e-06	428.76	143.87	124.92	43.068	5.8559e-06	53.293	49.814	14.637	69.791	-51.678	70.258	93.685	-51.595	-46.888	39.568	90.626	-47.626	-42.948	-42.768	-38.035	76.767	-38.918	-8191	255	
1092.365	1	1	0	0	0.1331	0.10541	0.042318	0.29586	0.36443	0.16651	0.20677	0.26	0.046777	0.048197	0.15038	0.36114	0.026391	0.11305	0.11171	0.21521	-3.575	-3.6604	-3.4062	-4.1729	-3.5479	-3.6063	-4.2917	-3.5396	-3.7792	-3.9313	-3.2562	-4.1708	-3.6417	-3.4333	-3.9917	-3.3792	113.056	167.625	204.261	265.849	161.437	-38.366	204.344	205.644	235.141	12.778	205.315	254.683	163.178	197.093	-33.657	132.217	0.00055009	0.00056408	0.0001954	1368.2	7.1451e-06	6.5892e-06	1361	367.9	4.3711e-06	6.1287e-06	416.32	140.67	122.1	42.052	2.0954e-06	52.04	0.00054378	0.00053751	0.00015234	1380.7	5.8674e-06	5.9741e-06	1379	374.52	5.9552e-06	5.9371e-06	427.99	143.65	124.82	43.132	5.921e-06	53.177	57.227	7.206	30.206	-51.726	58.504	96.900	-52.143	-47.227	30.808	103.998	-47.880	-43.330	-43.082	-38.373	62.582	-38.926	-8191	255	
1092.461	1	1	0	0	0.16456	0.2402	0.056791	0.11659	0.27799	0.20551	0.076442	0.26899	0.068009	0.12578	0.087096	0.059509	0.12199	0.11624	0.12088	0.18771	-3.2542	-3.9562	-3.2271	-4.2083	-3.6417	-3.1771	-4.3083	-3.6521	-3.6937	-3.9208	-3.2854	-4.1062	-3.9354	-3.3063	-4.075	-3.5438	132.880	0.219	239.910	-63.995	22.471	151.988	259.878	223.489	15.065	112.825	2.899	6.003	250.066	292.245	55.708	124.549	0.00047129	0.00063134	0.00020058	1364.8	7.2039e-06	7.9995e-06	1360.5	367.25	5.6098e-06	3.6393e-06	422.54	140.63	121.63	41.992	3.5843e-06	52.294	0.00054601	0.00054582	0.00015077	1382	5.9333e-06	5.9248e-06	1378.5	374.3	5.8885e-06	5.9106e-06	427.25	143.53	124.48	42.989	5.8271e-06	53.416	38.243	16.723	32.184	-51.843	63.408	82.886	-51.622	-47.281	38.165	84.622	-47.919	-43.501	-42.929	-38.277	63.426	-38.960	-8191	255	
1092.557	1	1	0	0	0.042467	0.094631	0.11146	0.17987	0.10836	0.26535	0.24668	0.33279	0.13566	0.37748	0.23283	0.33257	0.23099	0.11158	0.20515	0.10661	-3.225	-4.0583	-3.2146	-3.9813	-3.7	-3.2292	-4.2458	-3.6792	-3.5729	-4.1583	-3.3458	-3.8417	-4.0687	-3.3479	-3.9958	-3.8792	-5.368	259.176	165.808	219.345	41.523	-51.250	247.751	241.858	195.018	194.192	123.707	279.857	49.034	-62.414	183.032	227.122	0.00043997	0.00066301	0.00012716	1368.5	6.186e-06	3.7007e-06	1353.4	367.73	7.2521e-06	7.6994e-06	418.92	140.61	121.92	41.801	3.4918e-06	51.902	0.00055118	0.00055366	0.00014913	1381.6	5.9008e-06	5.9897e-06	1377.6	374.05	5.977e-06	5.8221e-06	427.7	143.6	124.92	42.96	5.8839e-06	53.316	41.599	19.800	46.331	-51.585	53.160	60.402	-51.955	-47.099	-30.717	71.827	-47.990	-43.229	-42.576	-37.975	63.961	-38.989	-8191	255	
1092.653	1	1	0	0	0.10676	0.04243	0.32473	0.21042	0.070527	0.15212	0.27178	0.30504	0.27319	0.087005	0.067281	0.29623	0.17955	0.21765	0.13121	0.17259	-3.075	-4.0437	-3.2125	-3.9813	-4.0563	-3.2021	-4.1917	-3.8042	-3.3771	-4.1229	-3.3812	-3.8417	-4.0542	-3.4479	-4.0917	-3.8917	180.046	-34.550	220.916	284.529	134.760	-2.665	209.596	243.805	73.839	113.879	111.517	-50.585	256.632	240.370	220.111	141.091	0.00055327	0.00072179	0.00021426	1363.9	5.8671e-06	7.9473e-06	1364.7	368.65	6.3232e-06	7.8871e-06	422.11	140.22	122.03	41.759	2.7594e-06	51.9	0.00054152	0.00054627	0.00014937	1379.1	5.8419e-06	6.0938e-06	1378.5	374.19	5.9964e-06	5.7374e-06	427.55	143.44	124.48	42.913	5.9898e-06	53.166	31.427	45.560	36.306	-51.816	107.596	93.938	-51.910	-47.330	73.530	95.503	-46.867	-43.125	-42.627	-38.381	100.753	-38.968	-8191	255	
1092.749	1	1	0	0	0.15642	0.18371	0.030652	0.1779	0.04436	0.19481	0.089444	0.097497	0.15006	0.16717	0.22958	0.28005	0.16547	0.10242	0.34939	0.19749	-2.9917	-4.0375	-3.2104	-3.7667	-3.9667	-3.2771	-4.1458	-4.025	-3.325	-4.1479	-3.3583	-3.5604	-4.2104	-3.4521	-3.8271	-3.8917	213.037	-15.995	205.560	-51.718	27.323	232.199	213.598	265.337	209.844	194.182	193.836	209.318	18.852	-4.675	270.013	265.524	0.00046035	0.00043943	0.00021088	1365.1	4.7582e-06	4.5154e-06	1361.9	367.4	4.4695e-06	7.4755e-06	417.46	140.28	122.2	41.754	6.3498e-06	52.044	0.00055584	0.00053828	0.00015358	1378.4	5.8121e-06	6.0238e-06	1378.1	373.88	5.9529e-06	5.8201e-06	425.88	143.31	124.83	42.931	5.9725e-06	53.199	30.905	43.998	19.794	-51.490	71.068	99.481	-51.935	-46.978	31.194	105.862	-47.073	-42.999	-42.809	-38.279	81.548	-39.124	-8191	255	
1092.870	1	1	0	0	0.14971	0.091317	0.074071	0.16549	0.10851	0.1929	0.21418	0.23638	0.10523	0.081818	0.16636	0.2847	0.25118	0.42959	0.13303	0.049282	-2.6917	-3.9271	-3.5563	-3.5687	-4.1292	-3.4667	-4.1542	-4.0875	-3.2438	-4.1687	-3.6229	-3.6021	-4.2708	-3.3083	-3.8042	-4.0875	22.996	-43.619	-9.292	225.810	2.217	129.603	279.731	-37.615	165.602	190.147	70.601	253.714	-35.025	260.597	10.333	293.696	0.00033324	0.00077996	0.00011689	1359.9	5.0824e-06	6.0876e-06	1357.2	366.8	9.0041e-07	3.9428e-06	418.27	140.18	121.91	41.856	3.2059e-06	51.963	0.00054102	0.00053372	0.00015006	1376.4	5.7232e-06	5.858e-06	1376.6	373.91	5.902e-06	5.799e-06	424.75	143.37	124.86	42.942	5.7737e-06	53.273	61.292	36.878	43.068	-51.949	60.350	59.875	-51.932	-47.235	159.519	86.206	-47.432	-43.582	-42.708	-38.247	80.152	-39.011	-8191	255	
1092.964	1	1	0	0	0.13201	0.25867	0.19001	0.23934	0.17929	0.16645	0.17312	0.35408	0.052674	0.10612	0.02262	0.13128	0.15941	0.21332	0.048747	0.27607	-2.8208	-4.0229	-3.7542	-3.6708	-3.9646	-3.3333	-4.0021	-4.1813	-3.2271	-3.9396	-3.7625	-3.3563	-4.0917	-3.3083	-3.6813	-4.0938	-57.959	184.987	278.042	267.240	73.753	50.405	254.491	274.041	95.872	-53.579	180.479	91.537	276.176	-36.620	116.504	279.148	0.00031268	0.00038861	0.00012394	1363.8	4.9056e-06	5.6642e-06	1355.1	367.57	5.1393e-06	9.8939e-06	417.15	140.2	121.8	42.008	4.1428e-06	52.314	0.00054617	0.00053529	0.00014968	1379.3	5.7319e-06	5.8351e-06	1375.7	374.27	5.9465e-06	5.7769e-06	425.82	143.28	124.75	43.036	5.939e-06	53.428	44.964	13.165	22.598	-51.740	64.370	75.008	-52.017	-47.290	111.475	82.357	-47.493	-43.513	-43.025	-38.562	55.706	-38.910	-8191	255	
1093.060	1	1	0	0	0.23003	0.1113	0.036868	0.26995	0.21859	0.080674	0.22852	0.30831	0.16087	0.10223	0.16053	0.19318	0.20418	0.28359	0.37101	0.16733	-2.8729	-3.8125	-3.8167	-3.6333	-4.1562	-3.4938	-3.6562	-4.2083	-3.4062	-3.8729	-4.0333	-3.4208	-4.3583	-3.5833	-3.5542	-4.2042	-49.269	193.957	192.921	245.120	146.128	198.812	272.838	217.833	110.187	-52.095	26.018	-29.039	-45.821	249.336	250.110	-57.404	0.00050837	0.00047301	0.00013761	1360	5.5423e-06	3.6111e-06	1358.1	366.19	3.3623e-06	6.2396e-06	422.51	139.94	121.76	41.778	3.6332e-06	51.557	0.00053597	0.00054053	0.00014772	1378.5	5.7607e-06	5.9008e-06	1378.2	373.65	5.9137e-06	5.7255e-06	427.24	143.09	124.6	42.891	5.9005e-06	53.012	37.868	26.047	47.381	-51.870	61.145	73.400	-51.827	-47.279	86.766	59.623	-48.466	-43.168	-42.808	-38.350	111.349	-39.164	-8191	255	
1093.181	1	1	0	0	0.1144	0.14316	0.15615	0.21342	0.11568	0.28791	0.13172	0.27417	0.14786	0.084855	0.089827	0.27664	0.090368	0.11836	0.12975	0.10088	-2.875	-3.7125	-3.9083	-3.4646	-4.0667	-3.7208	-3.7104	-4.2542	-3.4042	-3.9458	-3.9604	-3.4562	-4.1583	-3.8271	-3.4396	-4.2583	106.369	6.492	166.050	274.521	-46.255	-49.155	259.889	234.844	66.251	183.900	215.725	264.748	200.118	163.307	-18.903	221.593	0.00049933	0.00024835	0.00020913	1358.4	4.4573e-06	3.5312e-06	1363.1	368.3	3.1885e-06	4.938e-06	417.17	140.6	121.94	41.712	2.7529e-06	51.79	0.00052151	0.00051802	0.00014889	1375.9	5.6993e-06	5.7087e-06	1376.3	374.59	5.6373e-06	5.7939e-06	425.91	143.53	124.51	42.885	5.7487e-06	53.285	50.673	-10.133	2.606	-51.822	110.179	53.513	-52.009	-47.208	101.539	63.544	-47.643	-43.448	-42.690	-38.195	53.360	-38.817	-8191	255	
1093.253	1	1	0	0	0.20339	0.17268	0.099356	0.33002	0.049356	0.10374	0.066636	0.23912	0.22536	0.04714	0.026287	0.34613	0.060833	0.1949	0.1065	0.19252	-3.0083	-3.5938	-3.7938	-3.425	-3.9375	-3.8021	-3.5333	-4.3667	-3.3271	-3.7583	-4.0917	-3.3104	-4.0938	-4.0271	-3.4021	-4.0312	162.607	288.313	63.670	-61.602	239.903	60.843	200.044	222.109	128.841	142.538	-38.646	0.422	135.968	164.779	244.715	177.066	0.00052487	0.00045372	0.00014717	1359.1	5.9867e-06	3.6598e-06	1352.1	366.98	9.4332e-06	6.1626e-06	417.35	140.04	121.56	41.859	6.2963e-06	51.894	0.0005319	0.00051296	0.00014421	1378.2	5.6184e-06	5.6527e-06	1375	373.6	5.8278e-06	5.6673e-06	424.01	142.99	124.41	42.906	5.6374e-06	53.211	42.634	38.757	15.255	-51.672	59.344	99.223	-51.778	-47.027	123.011	71.259	-48.047	-43.151	-42.618	-38.235	95.932	-38.852	-8191	255	
1093.349	1	1	0	0	0.13453	0.026134	0.21462	0.34937	0.10568	0.18049	0.1552	0.24952	0.045978	0.13025	0.25546	0.25564	0.086738	0.20606	0.066889	0.28967	-3.1271	-3.7229	-4.0708	-3.3771	-3.9708	-3.8812	-3.5625	-4.3	-3.6396	-3.425	-4.15	-3.3875	-3.8146	-3.7521	-3.3833	-4.1771	1.172	-10.188	-28.020	285.155	53.328	62.525	204.785	-56.047	118.317	237.837	289.652	219.125	203.487	-63.625	262.816	244.168	0.00045671	0.00050888	0.00015257	1356.8	1.3847e-06	4.7701e-06	1357	367.34	3.8553e-06	5.7558e-06	420.39	139.67	121.49	41.738	1.8232e-06	51.846	0.00053459	0.00051661	0.00014071	1374.5	5.5634e-06	5.5614e-06	1373.8	373.06	5.6068e-06	5.5561e-06	425.02	142.99	124.34	42.798	5.6692e-06	53.119	40.818	21.199	47.340	-51.575	147.676	76.475	-51.733	-46.951	49.570	100.118	-47.270	-43.102	-42.655	-38.077	107.473	-38.940	-8191	255	
1093.445	1	1	0	0	0.15709	0.12403	0.12782	0.24006	0.10297	0.071674	0.22226	0.23219	0.12635	0.10904	0.081924	0.33543	0.13079	0.086282	0.19302	0.21173	-3.2354	-3.4167	-4.1875	-3.6042	-3.7333	-4.1	-3.3312	-4.1479	-3.6646	-3.2313	-4.0813	-3.5687	-3.8604	-4.1104	-3.4188	-4.0833	-9.504	-50.657	11.160	-60.182	113.057	210.479	281.635	256.448	88.787	-44.647	183.087	200.600	-0.004	-18.761	221.725	173.173	0.00037061	0.0003866	0.0001609	1357.2	6.5778e-06	4.8393e-06	1356.9	366.46	5.0438e-06	4.2665e-06	422.87	140.2	121.24	41.926	1.3265e-06	51.866	0.00051788	0.00051089	0.00014214	1374.8	5.5196e-06	5.4908e-06	1374	373.45	5.5542e-06	5.4877e-06	425.45	142.97	124.04	42.843	5.3872e-06	53.209	42.845	60.537	45.802	-51.877	73.598	89.221	-51.836	-47.329	69.682	80.021	-47.912	-43.502	-42.834	-38.427	24.296	-39.311	-8191	255	
1093.566	1	1	0	0	0.073583	0.13641	0.061434	0.28676	0.25958	0.15704	0.4078	0.18651	0.23082	0.28445	0.041134	0.28377	0.27734	0.10195	0.073209	0.060054	-3.3896	-3.3917	-4.2458	-3.7458	-3.7062	-4.125	-3.4375	-4.1042	-3.7479	-3.3375	-4.0563	-3.8438	-3.6104	-4.3125	-3.2479	-3.8688	28.511	40.359	200.056	-35.839	98.566	216.066	258.545	231.762	-21.917	-51.413	91.179	6.847	226.900	27.926	285.713	18.209	0.0004597	0.00053109	0.00015429	1354.7	4.7091e-06	3.3351e-06	1360.5	368.67	2.3661e-06	4.8393e-06	413.58	140.41	121.62	41.777	5.2919e-06	51.707	0.00050363	0.00049421	0.00013983	1370.9	5.4373e-06	5.2408e-06	1373.9	373.91	5.4002e-06	5.3293e-06	424.05	143.06	124.29	42.842	5.2452e-06	53.068	50.456	17.940	41.509	-51.666	91.501	14.307	-51.905	-46.994	77.907	66.400	-47.853	-43.231	-42.532	-38.352	47.167	-38.903	-8191	255	
1093.662	1	1	0	0	0.13956	0.10438	0.25617	0.37358	0.073958	0.073133	0.1248	0.16016	0.20212	0.1942	0.11644	0.071016	0.20789	0.12887	0.089395	0.30062	-3.5396	-3.2	-4.0708	-3.7229	-3.4917	-4.1417	-3.6979	-3.95	-4.0271	-3.3937	-4.0792	-3.9083	-3.4958	-4.2917	-3.3917	-4.0375	53.504	261.849	283.238	249.370	124.751	145.656	90.477	251.938	-10.720	150.748	183.635	210.456	276.586	-62.173	129.266	-49.954	0.00034273	0.0003537	0.00015824	1361.5	3.154e-06	2.2464e-06	1356.6	367.16	7.9252e-07	1.7027e-06	414.99	140.75	121.54	41.767	2.7645e-06	51.808	0.00049472	0.00049202	0.00013303	1374.9	5.3799e-06	5.1909e-06	1373.8	373.09	5.4832e-06	5.3289e-06	423.95	143.29	124.38	42.919	5.3103e-06	53.114	32.693	13.878	-4.851	-52.428	70.035	59.786	-52.202	-47.672	149.815	122.498	-47.649	-43.577	-43.110	-38.535	74.822	-39.301	-8191	255	
1093.758	1	1	0	0	0.19458	0.17694	0.092493	0.15275	0.077566	0.23219	0.089223	0.19045	0.1973	0.35942	0.12216	0.077692	0.091586	0.15789	0.19561	0.16382	-3.8542	-3.3792	-4.025	-3.9146	-3.4958	-4.1188	-3.7167	-3.7208	-4.1104	-3.2833	-3.8521	-3.9917	-3.4646	-4.3688	-3.5958	-3.7354	-51.129	178.490	-39.084	261.584	238.371	250.583	79.531	233.712	82.622	-37.112	171.889	110.030	15.619	284.553	194.612	-50.355	0.00047538	0.00065543	0.00020784	1355.5	5.2879e-06	4.5592e-06	1357.7	366.69	7.3861e-06	4.4626e-06	420.43	140.48	121.13	41.801	6.5989e-06	51.659	0.00049348	0.00048739	0.00013585	1373.4	5.3583e-06	5.282e-06	1373.3	373.2	5.2729e-06	5.1618e-06	425.24	142.99	124.19	42.805	5.3339e-06	53.061	44.410	33.702	22.857	-52.219	82.024	97.457	-52.105	-47.438	85.395	84.063	-47.698	-43.853	-42.518	-38.435	69.961	-39.208	-8191	255	
1093.830	1	1	0	0	0.052724	0.074742	0.31104	0.45308	0.096201	0.060302	0.13571	0.056945	0.21452	0.2457	0.043896	0.31203	0.10769	0.15457	0.11547	0.27612	-3.7292	-3.3063	-3.9125	-4.0292	-3.325	-4.2333	-3.5479	-3.7521	-4.1854	-3.3438	-3.9833	-4.1042	-3.4958	-4.3438	-3.6542	-3.7375	55.103	109.978	-48.183	-47.095	77.973	4.551	-18.923	247.453	-55.305	232.030	-43.364	242.498	-4.312	213.273	134.082	203.888	0.00044147	0.00076436	0.00016435	1361.9	2.3954e-06	7.6721e-06	1360.6	367.58	3.6533e-06	7.1593e-06	421.61	140.45	121.36	41.733	4.8011e-06	51.863	0.00049064	0.00048301	0.00013484	1373.4	5.3712e-06	5.1103e-06	1373.1	373.68	5.2114e-06	5.305e-06	424.56	143.4	124.32	42.915	5.1353e-06	53.18	44.191	26.817	39.246	-52.056	84.580	87.097	-52.276	-47.188	68.201	79.553	-46.557	-43.442	-42.750	-38.334	82.548	-39.053	-8191	255	
1093.948	1	1	0	0	0.091825	0.11631	0.2001	0.043072	0.048653	0.0029024	0.27931	0.3088	0.064228	0.13867	0.21127	0.37465	0.27153	0.057764	0.15982	0.13307	-3.8104	-3.3875	-3.8167	-4.1646	-3.4188	-4.0917	-4.1042	-3.7542	-4.2625	-3.5187	-3.9292	-4.1583	-3.3646	-4.1792	-3.7667	-3.6354	121.948	164.145	195.409	21.309	-17.507	286.439	242.555	258.947	12.709	182.404	-23.334	282.001	279.319	219.626	-42.898	264.821	0.00055515	0.00084788	0.00013073	1361.6	3.9111e-06	6.4865e-06	1352.9	366.99	5.2189e-06	4.0967e-06	419.74	139.79	121.3	41.973	8.6766e-06	51.83	0.00049005	0.00049116	0.00013423	1374.3	5.3218e-06	5.033e-06	1373.3	373.66	5.2259e-06	5.0674e-06	425.93	143.04	124.57	42.991	5.2359e-06	53.16	50.956	28.206	48.211	-51.910	90.510	100.219	-51.853	-47.257	69.666	81.758	-47.895	-43.226	-42.841	-38.563	71.832	-39.031	-8191	255	
1094.045	1	1	0	0	0.24551	0.04847	0.092411	0.11537	0.30039	0.30021	0.088396	0.22357	0.19084	0.038842	0.10629	0.28757	0.16396	0.10328	0.19701	0.095715	-3.8458	-3.5896	-3.8396	-4.4167	-3.4125	-3.9625	-3.9333	-3.6271	-4.25	-3.7125	-3.5563	-4.4167	-3.6333	-3.9958	-3.9604	-3.6208	116.009	146.614	192.442	39.243	209.169	49.696	260.226	248.754	-62.967	26.644	267.213	280.945	-59.842	208.882	27.119	147.829	0.00042836	0.00055472	0.00015632	1361.3	3.4868e-06	4.8549e-06	1360.9	369.27	4.8794e-06	5.4641e-06	419.52	140.26	122.02	41.643	5.5638e-06	51.996	0.00049018	0.00048448	0.00013485	1375.8	5.2409e-06	5.1637e-06	1377.7	374.55	5.2978e-06	5.183e-06	421.91	143.25	124.57	42.94	5.3459e-06	53.231	46.279	41.380	1.504	-52.062	111.498	97.825	-52.240	-47.204	45.391	103.790	-47.657	-43.695	-43.002	-38.382	40.740	-39.118	-8191	255	
1094.141	1	1	0	0	0.1553	0.19366	0.040647	0.63291	0.13625	0.10611	0.13132	0.34332	0.21232	0.11174	0.025865	0.1509	0.058937	0.073297	0.22523	0.06258	-3.7417	-3.6229	-3.4917	-4.2958	-3.5604	-4.0229	-4.1625	-3.4375	-4.1896	-3.7271	-3.5438	-4.2521	-3.4375	-3.9021	-4.0333	-3.4167	80.477	91.213	160.277	252.784	279.987	290.139	279.536	255.574	294.108	192.790	-17.725	252.789	260.751	32.853	39.202	205.472	0.00043075	0.00041688	0.00015602	1362.7	6.4906e-06	6.1123e-06	1353.8	367.84	6.2795e-06	4.1329e-06	415.22	140.8	121.76	41.811	2.4673e-06	51.899	0.00048965	0.00048224	0.00013665	1376.2	5.3763e-06	5.3333e-06	1376	374.15	5.3034e-06	5.3402e-06	425.18	143.46	124.65	42.948	5.2702e-06	53.217	58.272	38.374	41.622	-52.247	80.465	49.169	-52.219	-47.407	102.975	114.209	-48.066	-43.534	-42.899	-38.544	118.075	-39.547	-8191	255	
1094.261	1	1	0	0	0.036408	0.027596	0.12455	0.35196	0.035054	0.09314	0.1621	0.16922	0.044244	0.15473	0.092485	0.15031	0.16748	0.11805	0.1206	0.23122	-3.5875	-3.5833	-3.1917	-4.1917	-3.4688	-3.6229	-4.2875	-3.3833	-3.9292	-4.025	-3.4271	-4.1625	-3.6875	-3.7333	-4.1125	-3.5438	132.328	61.312	-16.081	244.661	201.163	2.388	218.265	202.471	14.571	92.293	170.577	152.713	185.703	284.868	71.707	207.674	0.00044182	0.00060608	0.00010779	1363.6	6.661e-06	5.3701e-06	1356.1	366.78	8.1053e-06	6.9893e-06	422.27	140.53	122.29	41.948	5.7449e-06	51.871	0.00049537	0.00048654	0.00013601	1376.9	5.416e-06	5.2897e-06	1375.9	373.87	5.4025e-06	5.3902e-06	424.62	143.4	124.75	43.106	5.3394e-06	53.195	39.705	27.018	34.053	-52.228	83.890	107.805	-52.354	-47.293	88.899	78.453	-47.918	-43.803	-43.264	-38.496	79.077	-39.290	-8191	255	
1094.357	1	1	0	0	0.16203	0.17131	0.044189	0.29473	0.12259	0.08424	0.11717	0.19768	0.10878	0.064035	0.11525	0.2629	0.058168	0.18156	0.21263	0.1583	-3.5375	-3.8708	-3.3937	-4.3229	-3.6792	-3.625	-4.4021	-3.5917	-3.8042	-3.9146	-3.3417	-4.0646	-3.7396	-3.7438	-4.2063	-3.4896	240.660	10.579	194.160	253.674	90.885	178.706	268.917	229.197	288.600	-36.163	-12.401	177.608	251.419	269.711	89.184	155.140	0.00032866	0.00035511	0.00018817	1362.5	5.9313e-06	4.0552e-06	1357.1	368	7.4968e-06	7.7911e-06	417.33	140.34	121.98	41.973	1.9639e-06	51.744	0.00049817	0.00048327	0.00013953	1377.7	5.4929e-06	5.3163e-06	1375	373.83	5.4576e-06	5.2979e-06	425.01	143.56	124.38	43.025	5.4093e-06	53.197	39.827	46.336	13.629	-52.347	66.620	38.583	-52.255	-47.679	81.328	90.727	-47.987	-43.635	-43.061	-38.620	48.195	-39.582	-8191	255	
1094.454	1	1	0	0	0.097536	0.20935	0.20698	0.27284	0.13791	0.1733	0.10899	0.27449	0.15088	0.17665	0.070029	0.31126	0.21523	0.24142	0.18608	0.11923	-3.3708	-3.9958	-3.3646	-4.3042	-3.6833	-3.2875	-4.3979	-3.6688	-3.8771	-4.0396	-3.4271	-4.0479	-3.9833	-3.5792	-4.1104	-3.55	34.853	62.134	230.552	-64.660	-23.894	-51.215	291.007	232.715	271.942	121.910	82.040	262.917	247.279	-23.175	-57.286	189.259	0.00049492	0.00051107	0.0001444	1363.4	2.9675e-06	6.5688e-06	1358.3	367.39	6.2841e-06	5.6135e-06	418.46	140.48	122.21	41.691	4.312e-06	51.753	0.00050533	0.0004936	0.00013941	1378.9	5.5058e-06	5.2733e-06	1376.6	373.99	5.5895e-06	5.3724e-06	424.75	143.63	124.8	42.875	5.5463e-06	53.142	51.128	58.593	37.282	-52.135	9.390	74.838	-52.032	-47.583	118.259	66.327	-47.998	-43.511	-43.207	-38.747	98.468	-39.238	-8191	255	
1094.550	1	1	0	0	0.23705	0.18154	0.18771	0.071475	0.13725	0.12142	0.23899	0.30567	0.045157	0.15968	0.14206	0.24375	0.11625	0.072758	0.13739	0.24113	-3.2354	-4.1958	-3.2771	-4.1771	-3.9208	-3.5312	-4.1896	-3.575	-3.6771	-4.175	-3.3229	-4.0146	-3.9229	-3.2354	-4.125	-3.6958	238.674	204.911	147.437	-36.158	242.939	32.249	226.681	254.439	41.156	167.764	68.788	-57.305	10.670	-47.412	122.108	155.817	0.0005265	0.00043951	0.00011123	1361.5	4.8897e-06	5.2517e-06	1355.1	367.64	5.7217e-06	8.7055e-06	422.45	140.21	121.47	41.711	4.1607e-06	51.939	0.00050597	0.00050475	0.00014231	1379.2	5.5426e-06	5.7432e-06	1376.3	374.23	5.6126e-06	5.5355e-06	425.97	143.29	124.24	42.833	5.5686e-06	53.212	42.740	22.249	26.891	-52.179	82.370	114.944	-52.172	-47.537	49.339	93.691	-48.545	-43.695	-43.244	-38.517	99.723	-39.437	-8191	255	
1094.646	1	1	0	0	0.22079	0.15251	0.43629	0.091106	0.14319	0.12842	0.32262	0.17621	0.19121	0.082232	0.14748	0.37873	0.098086	0.25605	0.12661	0.22804	-3.2646	-4.2	-3.1958	-3.9667	-4.1188	-3.3021	-4.5188	-3.9542	-3.4583	-4.2125	-3.3979	-3.8521	-4.2604	-3.4625	-4.2312	-4.0083	207.574	227.903	121.459	239.148	281.719	-27.106	243.512	-59.096	56.874	-18.630	32.111	243.061	257.537	283.509	4.557	260.243	0.0004299	0.00040884	5.1063e-05	1364.2	3.8725e-06	4.9145e-06	1354.6	366.62	1.5193e-06	4.1122e-06	424.69	139.5	121.9	41.825	4.2906e-06	51.917	0.00052429	0.00051048	0.00014162	1378.3	5.6068e-06	5.6754e-06	1374.1	373.75	5.6498e-06	5.5752e-06	427.19	143.11	124.74	42.986	5.7804e-06	53.22	53.411	21.125	14.868	-51.962	131.463	47.529	-52.106	-47.537	51.287	81.295	-48.171	-43.488	-43.111	-38.642	101.768	-39.346	-8191	255	
1094.742	1	1	0	0	0.17424	0.086231	0.30176	0.20212	0.074919	0.10137	0.30358	0.075827	0.16115	0.11896	0.10772	0.22556	0.1354	0.13769	0.066644	0.34888	-3.0896	-4.1333	-3.6104	-3.8604	-4.2479	-3.3583	-4.375	-3.9146	-3.5646	-4.2937	-3.5917	-3.8833	-4.2542	-3.6771	-3.9667	-4.0667	221.985	-26.840	50.518	-52.667	104.038	68.878	230.329	-26.251	104.365	276.880	140.871	266.265	-47.013	-43.812	291.593	-58.243	0.00038582	0.00038884	0.00022801	1356.8	1.8209e-06	3.4241e-06	1358.7	367.69	5.1313e-06	2.5395e-06	417	140.92	121.46	41.945	5.9715e-06	51.94	0.00052773	0.00050464	0.00014122	1376.5	5.7797e-06	5.662e-06	1377.7	374.12	5.8299e-06	5.4846e-06	425.71	143.89	124.7	42.996	5.608e-06	53.262	42.449	30.725	43.067	-52.022	17.002	110.223	-51.874	-47.402	70.807	97.812	-48.184	-43.501	-43.155	-38.607	56.458	-39.473	-8191	255	
1094.863	1	1	0	0	0.060854	0.1515	0.19246	0.3716	0.068463	0.073602	0.13127	0.25809	0.20714	0.11016	0.16438	0.35669	0.1887	0.27598	0.12675	0.13329	-2.9354	-4.1562	-3.5583	-3.8	-4.0833	-3.4417	-4.1917	-4.2229	-3.2604	-4.2271	-3.6208	-3.5729	-4.3104	-3.5938	-3.7812	-4.0979	41.482	11.894	134.808	261.739	30.185	257.719	175.233	239.641	242.107	71.625	-8.130	282.403	208.790	9.620	-22.943	235.809	0.00040074	0.00052907	0.00016346	1353.8	5.3786e-06	7.236e-06	1357.2	367.51	2.1171e-06	6.507e-06	410.19	140.86	122.14	41.84	3.1205e-06	52.071	0.00052925	0.00051876	0.000147	1375.8	5.5913e-06	5.6287e-06	1376.7	373.87	5.6797e-06	5.6673e-06	422.93	143.58	124.74	43.03	5.665e-06	53.317	43.184	11.297	13.988	-51.795	107.688	85.478	-51.975	-47.453	225.544	103.775	-48.036	-43.365	-42.592	-38.368	54.655	-39.295	-8191	255	
1094.957	1	1	0	0	0.34596	0.063203	0.1283	0.21995	0.25491	0.11739	0.19878	0.018642	0.25441	0.12786	0.17171	0.21807	0.25324	0.20141	0.045319	0.058544	-2.9938	-4.1188	-3.6417	-3.7854	-4.3708	-3.4625	-4.0062	-4.2	-3.2	-4.0979	-3.8854	-3.2729	-4.2729	-3.6854	-3.7438	-4.2792	220.380	97.629	12.094	274.549	-10.881	263.464	238.731	92.986	175.003	162.498	140.615	281.056	282.701	-56.478	13.644	291.800	0.00038918	0.00029449	0.0001632	1360.8	4.6599e-06	6.438e-06	1352.9	366.67	8.0583e-06	8.4445e-06	423.01	140.33	121.95	41.861	4.9201e-06	51.653	0.00053501	0.00051359	0.00014681	1375.9	5.7975e-06	5.674e-06	1373.7	373.21	5.9045e-06	5.6957e-06	426.34	143.31	124.81	42.917	5.8258e-06	53.195	44.455	26.306	29.194	-51.933	67.565	110.825	-51.651	-47.381	92.057	103.313	-47.641	-43.374	-43.033	-38.455	74.935	-39.088	-8191	255	
1095.053	1	1	0	0	0.14989	0.13509	0.063542	0.12548	0.21528	0.17608	0.16278	0.12031	0.13931	0.11312	0.15819	0.083925	0.13842	0.17596	0.33005	0.081144	-3.0333	-3.9958	-3.7479	-3.5375	-4.0375	-3.6896	-3.8896	-4.2375	-3.4833	-4.0396	-3.9437	-3.6667	-4.3812	-3.7875	-3.7333	-4.2958	78.644	61.361	-43.663	223.349	270.839	215.324	105.082	221.661	293.071	247.426	176.057	203.533	-60.209	-58.281	120.683	258.342	0.00038502	0.00053276	0.00010495	1363.8	5.7712e-06	9.4495e-06	1356.3	367.6	4.8363e-06	4.9175e-06	421.25	140.07	121.81	41.806	3.5146e-06	51.803	0.00053433	0.00052635	0.00014756	1378	5.7725e-06	5.8607e-06	1375.5	373.78	5.9357e-06	5.6785e-06	427.4	143.27	124.71	42.939	5.8216e-06	53.255	42.067	-15.647	27.329	-51.805	118.305	64.201	-51.874	-47.165	77.202	97.507	-48.647	-43.086	-42.928	-38.320	95.520	-38.886	-8191	255	
1095.125	1	1	0	0	0.21821	0.2201	0.23907	0.23126	0.22486	0.12974	0.21865	0.26209	0.1497	0.11504	0.16585	0.27292	0.20132	0.11676	0.059999	0.18187	-3.0354	-3.9188	-4.0292	-3.5312	-4.1813	-3.5521	-3.8479	-4.375	-3.5125	-4.0437	-4.0375	-3.3833	-4.1937	-3.8271	-3.4521	-4.2271	275.206	-14.640	122.747	289.270	45.044	251.380	247.449	290.641	43.637	237.288	270.315	-46.618	-51.219	-0.810	14.831	-56.353	0.00050961	0.00027479	0.0001667	1362.4	5.7914e-06	7.8581e-06	1356.1	368.39	4.2613e-06	4.284e-06	421.15	139.56	122.2	41.971	2.4755e-06	52.028	0.00054173	0.00053983	0.00014587	1378	5.7079e-06	5.7288e-06	1377.1	374.3	5.8515e-06	5.6015e-06	426.39	143.17	124.54	43.013	5.7769e-06	53.236	48.979	-0.660	29.118	-52.061	79.572	70.756	-51.757	-47.153	75.708	84.781	-47.292	-43.168	-42.685	-38.149	40.395	-38.946	-8191	255	
1095.223	1	1	0	0	0.16264	0.1358	0.021009	0.28303	0.29279	0.10316	0.14007	0.14165	0.27342	0.24479	0.30011	0.3073	0.05562	0.29355	0.060321	0.11292	-3.0229	-3.6979	-4.0979	-3.5812	-4.0667	-3.7292	-3.7021	-4.3375	-3.4729	-3.6667	-3.8708	-3.5896	-4.2667	-4.0292	-3.4688	-4.3896	218.727	167.314	81.273	282.378	103.750	-34.951	228.356	230.044	43.060	157.261	250.481	-62.783	-62.807	135.095	108.116	159.152	0.00050388	0.0006479	0.00021582	1360.7	3.8706e-06	3.0501e-06	1357.3	367.45	4.7005e-06	7.4695e-06	417.46	140.18	121.86	41.946	7.2313e-06	51.886	0.00053957	0.00051824	0.00014275	1376.1	5.6681e-06	5.5537e-06	1375.8	374.41	5.6943e-06	5.6969e-06	426.29	142.95	124.57	42.899	5.7279e-06	53.201	47.268	13.300	35.689	-51.698	124.189	85.867	-51.784	-46.998	93.006	87.284	-47.518	-43.387	-42.691	-38.088	75.832	-38.734	-8191	255	
1095.342	1	1	0	0	0.12064	0.19685	0.13945	0.26665	0.1585	0.024333	0.39696	0.29787	0.32919	0.1835	0.22189	0.205	0.15454	0.24953	0.18146	0.23417	-3.3021	-3.6167	-4.2604	-3.6125	-4.0208	-3.9875	-3.6542	-4.375	-3.6771	-3.6333	-4.1333	-3.3604	-4.1438	-4.1188	-3.4542	-4.2604	68.315	-64.046	-6.428	215.657	281.678	186.502	261.847	213.811	92.964	180.937	180.913	172.651	265.900	206.252	277.963	238.163	0.00046482	0.00025008	0.00018599	1359.7	4.7059e-06	6.0141e-06	1358.1	367.76	1.5771e-06	6.6421e-06	424.36	140.13	121.99	42.029	9.2395e-06	52.136	0.00052109	0.00051977	0.00014479	1373.6	5.58e-06	5.6389e-06	1375.8	374.09	5.7873e-06	5.7115e-06	428.54	143.08	124.77	42.983	5.7956e-06	53.335	51.179	71.727	30.587	-51.854	80.215	95.148	-51.609	-47.087	146.019	88.234	-47.853	-43.385	-42.557	-38.172	102.291	-38.770	-8191	255	
1095.438	1	1	0	0	0.27393	0.027551	0.059751	0.10156	0.11214	0.22319	0.15974	0.1541	0.22769	0.21976	0.14769	0.13715	0.16865	0.092042	0.18564	0.19379	-3.3604	-3.4792	-4.1708	-3.6792	-3.8833	-4.0583	-3.4875	-4.2979	-3.8063	-3.5687	-4.3688	-3.6667	-3.8854	-4.2063	-3.3833	-4.1562	119.079	178.449	43.689	291.644	252.415	61.962	174.095	264.796	-47.688	276.680	273.382	294.949	117.664	90.421	67.612	39.531	0.00036471	0.00073346	0.00014221	1357.7	5.755e-06	6.8744e-06	1358.2	368.63	2.6296e-06	3.5969e-06	423.48	140.32	122.16	41.799	3.2105e-06	51.623	0.00053048	0.00051732	0.00014419	1374.5	5.6924e-06	5.6902e-06	1374.9	374.9	5.858e-06	5.6615e-06	428.09	143.22	124.79	43.046	5.8327e-06	53.161	60.902	28.871	31.993	-51.784	66.245	85.375	-52.100	-46.910	19.255	119.629	-47.921	-43.356	-42.721	-38.344	124.816	-38.977	-8191	255	
1095.534	1	1	0	0	0.18223	0.22389	0.1097	0.37763	0.34802	0.31805	0.36259	0.2984	0.057855	0.3362	0.14187	0.058433	0.16394	0.050102	0.058326	0.32516	-3.4188	-3.3854	-4.2167	-3.7229	-3.7375	-4.0792	-3.6188	-4.0062	-3.8333	-3.3417	-4.2542	-3.7104	-3.7333	-4.2333	-3.425	-4.0167	262.071	235.290	216.486	204.663	241.436	-20.362	244.327	168.163	149.193	274.778	251.493	168.604	270.187	248.427	279.191	230.992	0.00040922	0.0006139	0.0001931	1352.7	4.3263e-06	2.7809e-06	1354.1	366.99	3.0943e-06	1.4738e-06	417.89	140.83	122.04	41.846	3.6361e-06	51.756	0.00053187	0.0005281	0.00014704	1374.1	5.7468e-06	5.6752e-06	1376.1	374.17	5.7073e-06	5.7536e-06	425.24	143.39	124.83	43.011	5.8315e-06	53.21	51.184	44.552	-5.102	-51.925	93.788	74.376	-51.748	-46.969	83.676	36.299	-47.956	-43.607	-42.820	-38.049	30.727	-38.788	-8191	255	
1095.655	1	1	0	0	0.11636	0.040248	0.065225	0.028658	0.25025	0.06822	0.17016	0.22262	0.18604	0.13829	0.16443	0.29642	0.26729	0.19703	0.34912	0.32267	-3.6562	-3.2562	-4.1646	-3.8333	-3.5917	-4.1146	-3.6146	-4.1062	-3.9813	-3.4896	-4.3667	-3.9437	-3.6688	-4.2167	-3.4333	-3.8521	74.243	288.349	234.705	-24.656	237.042	54.820	250.035	249.337	99.290	107.261	-7.027	-54.261	185.061	-43.988	246.163	-64.542	0.00048681	0.00022756	0.00011927	1363.7	4.2562e-06	7.4416e-06	1356.7	368.63	3.3316e-06	4.9295e-06	416.2	139.73	121.88	41.94	5.3457e-06	51.859	0.00053427	0.00052209	0.00014674	1376.4	5.7272e-06	5.643e-06	1375.9	374.03	5.7601e-06	5.8662e-06	425.58	143.24	124.8	43.031	5.8719e-06	53.169	54.097	9.372	45.348	-51.704	99.773	80.830	-51.685	-46.832	8.472	84.385	-46.793	-43.437	-42.606	-38.324	86.270	-38.890	-8191	255	
1095.726	1	1	0	0	0.048581	0.070865	0.014235	0.11965	0.20526	0.2193	0.20978	0.26137	0.11822	0.10719	0.071585	0.30219	0.18084	0.23197	0.301	0.095608	-3.7625	-3.3521	-4.1583	-3.9667	-3.4875	-4.2708	-3.4958	-3.9313	-4.0625	-3.5687	-4.1937	-4.0896	-3.7333	-4.1146	-3.5479	-3.8375	184.602	-17.707	156.786	-40.121	256.641	207.145	207.471	163.352	72.337	189.001	57.072	-44.982	249.329	265.357	157.698	273.694	0.00032684	0.00037407	0.00014739	1364.1	4.9802e-06	3.0274e-06	1352.7	367.84	1.5237e-06	1.7605e-06	418.82	139.79	122.03	41.893	5.2112e-06	51.64	0.00052045	0.00052927	0.00014468	1376.9	5.711e-06	5.7629e-06	1374.6	374.12	5.6697e-06	5.6276e-06	426.28	143.11	124.44	42.923	5.6999e-06	53.182	47.502	68.692	46.709	-51.802	75.186	43.341	-51.781	-46.808	161.325	134.071	-47.736	-43.105	-42.518	-38.111	76.946	-38.971	-8191	255	
1095.822	1	1	0	0	0.13115	0.15703	0.1648	0.19938	0.10049	0.1185	0.20406	0.22456	0.091569	0.10993	0.052478	0.099735	0.22778	0.090928	0.17558	0.37383	-3.9146	-3.4625	-3.8854	-4.0333	-3.4646	-4.3313	-3.6625	-3.9146	-4.1708	-3.3271	-4.1271	-4.0917	-3.4458	-4.2083	-3.7354	-3.6958	-33.686	-44.404	203.851	256.202	-57.120	-4.660	234.188	-48.120	150.584	85.912	-54.473	-23.603	-9.424	276.556	10.528	228.658	0.0004322	0.0006083	0.00021703	1360.1	2.5802e-06	6.8285e-06	1358.1	367.98	3.3848e-06	6.3797e-06	419	139.6	122.11	41.853	4.1188e-06	51.868	0.00049659	0.00052012	0.00013673	1377.4	5.4671e-06	5.3368e-06	1374.7	373.71	5.4541e-06	5.4482e-06	424.42	143.14	124.69	42.892	5.2324e-06	53.128	57.188	7.431	3.712	-51.820	84.260	95.262	-51.720	-46.776	13.517	77.072	-47.562	-43.061	-42.505	-38.108	113.379	-38.422	-8191	255	
1095.943	1	1	0	0	0.1279	0.12971	0.15926	0.22456	0.2685	0.18594	0.11197	0.28069	0.11283	0.21216	0.20067	0.26504	0.20355	0.2495	0.19185	0.098284	-4.0167	-3.4417	-3.8021	-4.1167	-3.3521	-4.25	-4.0521	-3.6937	-4.0479	-3.6063	-3.9083	-4.0167	-3.55	-4.1958	-3.8812	-3.6042	201.048	250.832	225.340	178.041	12.141	-39.971	167.494	270.199	75.004	29.543	203.753	193.402	-47.061	-31.283	186.952	182.668	0.00042738	0.00076211	0.00011435	1360.3	2.5523e-06	7.5762e-06	1357.1	367.82	3.4438e-06	5.1187e-06	422.11	140.44	121.66	42.095	5.478e-06	52.157	0.00050037	0.00049449	0.00013367	1376.1	5.4107e-06	5.2852e-06	1373.3	374.18	5.2049e-06	5.3329e-06	425.48	143.24	124.58	42.983	5.2393e-06	53.258	42.189	10.054	38.160	-51.600	81.355	92.097	-51.612	-46.864	64.758	101.677	-47.808	-43.193	-42.357	-37.959	91.734	-38.654	-8191	255	
1096.038	1	1	0	0	0.0065397	0.049495	0.16875	0.20637	0.27131	0.1613	0.1124	0.25507	0.14482	0.056093	0.32809	0.1434	0.17303	0.11807	0.23945	0.11136	-3.7583	-3.475	-3.725	-4.2542	-3.3271	-4.1458	-4.0813	-3.6	-4.0792	-3.7333	-3.6167	-4.5062	-3.4708	-4.1229	-3.8708	-3.7292	149.262	223.948	213.266	241.893	69.276	190.441	-4.933	229.786	173.375	116.306	-30.323	233.487	-0.550	105.824	61.879	157.995	0.00040623	0.00044585	0.00019377	1363.9	7.9109e-06	7.5699e-06	1353.4	369.67	5.9811e-06	6.3067e-06	422.43	140.49	122.49	41.825	4.8548e-06	51.825	0.00048435	0.00047203	0.0001341	1376.4	5.2329e-06	4.9342e-06	1372.1	374.52	5.0873e-06	5.1097e-06	425.42	143.21	124.59	42.844	5.0555e-06	53.172	40.205	39.025	42.987	-51.330	92.659	90.110	-51.544	-46.869	85.850	91.555	-46.954	-43.265	-42.524	-37.936	71.250	-38.452	-8191	255	
1096.134	1	1	0	0	0.14504	0.076253	0.077122	0.11035	0.13296	0.19559	0.11739	0.17252	0.03501	0.31954	0.1764	0.02842	0.18466	0.22969	0.21735	0.19331	-3.7271	-3.5125	-3.6542	-4.3021	-3.4562	-3.9271	-4.2188	-3.5667	-4.1875	-3.6354	-3.525	-4.2937	-3.5354	-4.0375	-4.0958	-3.5604	141.823	8.656	-9.327	262.323	56.339	-17.350	154.204	-59.748	23.925	22.077	273.631	50.565	227.352	-15.097	163.344	284.765	0.00044095	0.00041658	0.0001652	1357.9	5.8798e-06	5.6067e-06	1358	369.82	3.2255e-06	5.0353e-06	420.99	140.83	121.96	41.97	5.6998e-06	52.136	0.00047523	0.00046841	0.00013028	1375.8	5.1719e-06	4.8446e-06	1376.7	374.76	5.0171e-06	4.9843e-06	426.05	143.41	124.56	42.934	5.0474e-06	53.21	34.073	47.764	21.808	-51.415	77.684	77.919	-51.583	-46.904	115.840	102.785	-47.232	-43.062	-42.153	-37.701	47.473	-38.660	-8191	255	
1096.230	1	1	0	0	0.10917	0.12244	0.35436	0.42846	0.26231	0.16785	0.22666	0.084319	0.17289	0.24018	0.2322	0.31676	0.056518	0.16855	0.10122	0.29689	-3.7583	-3.5167	-3.5729	-4.3958	-3.3563	-3.5604	-4.0729	-3.6	-4.075	-3.9583	-3.5729	-4.2917	-3.5521	-3.7125	-3.8354	-3.475	94.989	18.725	90.293	275.441	64.296	31.122	247.245	-55.637	207.513	179.930	184.176	258.756	277.520	292.090	180.036	-64.207	0.00039706	0.0006146	0.00015604	1363.7	4.1765e-06	7.7498e-06	1357.1	367.24	2.746e-06	7.2537e-06	421.38	140.47	121.73	42	3.8734e-06	51.697	0.00048302	0.00046924	0.00013255	1377.1	5.1489e-06	5.0629e-06	1374.7	373.79	5.2261e-06	5.0647e-06	426.2	143.37	124.53	43.025	5.2195e-06	53.133	59.504	28.159	26.042	-51.112	55.650	77.899	-51.348	-46.706	28.166	107.461	-47.149	-42.858	-42.398	-37.860	74.323	-38.773	-8191	255	
1096.350	1	1	0	0	0.11744	0.0551	0.17414	0.13767	0.20017	0.060582	0.085692	0.011977	0.10244	0.15187	0.23994	0.094885	0.096196	0.04028	0.11791	0.13526	-3.7083	-3.8979	-3.4229	-4.3063	-3.575	-3.75	-4.4292	-3.5625	-3.9896	-4.1396	-3.3375	-4.1729	-3.675	-3.9354	-4.1	-3.6021	-38.711	73.487	209.535	221.981	19.987	51.098	201.306	208.558	29.255	146.160	101.964	88.133	67.866	19.917	70.641	265.508	0.00042437	0.00062729	0.00015367	1354.8	6.3426e-06	7.3652e-06	1359.7	368.24	3.9276e-06	4.4783e-06	419.94	140.27	122.59	42.055	5.0108e-06	51.973	0.00048324	0.000472	0.00013432	1372.9	5.304e-06	5.1889e-06	1376.9	374.01	5.2721e-06	5.3029e-06	423.87	143.35	124.82	43.013	5.3684e-06	53.258	51.706	25.575	52.485	-51.212	70.536	95.830	-51.345	-46.763	131.278	106.950	-48.011	-42.875	-42.126	-37.677	93.021	-38.616	-8191	255	
1096.422	1	1	0	0	0.10046	0.049093	0.11264	0.31076	0.11106	0.10162	0.025983	0.22862	0.12322	0.0057683	0.14185	0.10807	0.33535	0.16114	0.221	0.057062	-3.4979	-4.2021	-3.4854	-4.2396	-3.8958	-3.3604	-4.3833	-3.5396	-3.9854	-4.0146	-3.3875	-4.2771	-3.9583	-3.5896	-4.0708	-3.6396	152.370	234.526	-55.143	240.513	184.467	62.979	273.350	292.388	264.008	220.848	253.436	266.245	255.716	208.667	-59.076	-5.229	0.00038617	0.00042557	0.00015376	1361.7	3.784e-06	7.2201e-06	1354.8	369.75	3.8129e-07	4.1478e-06	422.5	140.4	122.47	42	4.7641e-06	52.086	0.00050122	0.00048799	0.00013549	1377.1	5.3598e-06	5.2126e-06	1374.7	374.87	5.2716e-06	5.2877e-06	425.63	143.28	124.78	43.047	5.4609e-06	53.276	35.467	18.785	39.783	-51.320	65.983	83.354	-51.263	-46.628	181.385	100.190	-47.743	-42.760	-42.234	-37.673	85.541	-38.348	-8191	255	
1096.543	1	1	0	0	0.17119	0.33901	0.13266	0.17526	0.12171	0.14538	0.1293	0.2341	0.1314	0.11235	0.16258	0.16568	0.14952	0.15208	0.053929	0.13294	-3.3354	-4.1062	-3.3667	-4.1833	-3.7062	-3.3917	-4.1292	-3.6104	-3.7687	-4.2583	-3.3063	-4.0292	-4.0125	-3.575	-4.2583	-3.6312	133.273	76.140	198.109	-63.054	214.612	24.471	44.507	279.117	149.011	257.840	-42.324	-45.510	243.810	196.240	205.162	266.572	0.00051909	0.00051391	0.00021272	1362.2	2.1609e-06	6.3325e-06	1359.9	367.8	1.5366e-06	3.5708e-06	424.29	140.54	122.4	42.109	4.8037e-06	52.046	0.00052479	0.0004918	0.00014252	1376.6	5.4355e-06	5.6533e-06	1377.4	374	5.4877e-06	5.4255e-06	426.25	143.7	124.84	43.07	5.4739e-06	53.265	48.627	21.080	57.474	-51.156	103.130	95.359	-51.305	-46.648	107.734	119.793	-47.146	-42.983	-42.250	-37.642	111.795	-38.606	-8191	255	
1096.639	1	1	0	0	0.11462	0.029664	0.28427	0.16012	0.047221	0.20734	0.21367	0.26287	0.029029	0.15947	0.17731	0.36384	0.19795	0.15457	0.19891	0.13745	-3.2354	-4.2333	-3.4042	-4.0979	-4.1375	-3.3833	-4.1937	-3.7958	-3.4208	-4.0896	-3.3375	-4.0417	-4.1896	-3.4667	-4.125	-3.8979	-52.586	137.046	16.921	13.106	158.718	18.476	226.943	261.350	95.380	107.088	56.123	-46.357	19.969	-63.769	266.494	118.120	0.00043486	0.000773	0.00017655	1364.5	2.4028e-06	5.7562e-06	1357	367.32	3.4371e-06	2.6519e-06	419.88	140.41	122.08	41.85	5.0394e-06	51.992	0.0005211	0.00051234	0.00014289	1377.5	5.7971e-06	5.6661e-06	1376.8	373.99	5.7003e-06	5.7469e-06	426.17	143.54	124.71	43.007	5.7149e-06	53.277	41.759	18.009	26.927	-51.238	62.134	91.205	-51.181	-46.520	120.419	74.793	-47.020	-42.817	-42.591	-37.626	48.107	-38.101	-8191	255	
1096.735	1	1	0	0	0.15197	0.14754	0.036659	0.2552	0.087968	0.20486	0.035397	0.089536	0.068103	0.084732	0.090935	0.077005	0.28462	0.28903	0.032249	0.33496	-3.0583	-4.2646	-3.5333	-4.0083	-4.0146	-3.2958	-4.2542	-4.1271	-3.4479	-4.2688	-3.5271	-3.9062	-4.325	-3.5292	-4.2729	-3.8396	278.947	266.894	211.561	286.172	171.286	275.000	214.592	237.863	271.775	215.759	16.843	286.876	248.101	205.299	183.928	196.788	0.00039591	0.00067595	0.0001516	1363.2	7.18e-06	5.7864e-06	1358.6	366.54	4.9336e-06	5.7681e-06	420.52	140.78	121.76	41.962	5.362e-06	51.766	0.00053344	0.0005203	0.00014736	1377.3	5.7133e-06	5.7789e-06	1376.2	373.96	5.8391e-06	5.6588e-06	426.18	143.69	124.59	42.966	5.8948e-06	53.34	37.832	38.424	49.305	-51.157	104.902	119.413	-51.400	-46.420	59.868	110.093	-47.145	-42.762	-42.089	-37.753	76.564	-38.334	-8191	255	
1096.829	1	1	0	0	0.1269	0.074199	0.15956	0.16166	0.16372	0.058565	0.20548	0.30182	0.060945	0.13785	0.17678	0.13041	0.08486	0.049698	0.16745	0.20368	-3.1521	-4.1062	-3.5833	-3.8896	-3.9854	-3.3625	-4.0271	-4.0229	-3.3875	-4.3375	-3.7458	-3.8438	-4.3354	-3.6375	-3.9875	-4.1396	-14.919	13.559	-3.168	171.574	-49.323	253.750	181.882	278.757	80.555	120.131	208.521	229.146	-17.111	0.294	21.702	172.374	0.00048896	0.00050127	0.00016693	1366.5	5.2526e-06	6.6691e-06	1362.1	367.37	4.1772e-06	5.6546e-06	417.33	140.58	122.28	41.879	3.4852e-06	51.887	0.0005371	0.00053554	0.00015112	1379.1	5.8645e-06	5.9087e-06	1375.5	374.01	6.0653e-06	5.8752e-06	426.88	143.42	124.91	42.998	5.8759e-06	53.363	37.360	33.400	18.495	-51.034	109.722	92.402	-51.393	-46.795	81.414	88.085	-47.207	-42.700	-42.148	-37.531	50.140	-38.317	-8191	255	
1096.926	1	1	0	0	0.089401	0.096895	0.056127	0.25667	0.12718	0.16211	0.18067	0.15819	0.18883	0.009866	0.015056	0.13128	0.21023	0.2172	0.19271	0.10761	-2.8708	-4.125	-3.6646	-3.775	-4.2063	-3.5021	-4.0771	-3.9583	-3.2792	-4.1229	-3.7938	-3.7042	-4.2458	-3.6104	-3.9	-4.3458	46.576	106.175	166.781	-49.002	-56.526	259.805	248.800	212.134	40.538	44.291	38.085	290.586	-51.592	294.849	61.269	154.637	0.0003913	0.00055011	0.00021084	1365.9	6.6486e-06	5.3514e-06	1356	368.62	4.6709e-06	7.2402e-06	419.78	140.63	122.09	41.817	7.1099e-06	51.873	0.00055937	0.0005488	0.00015519	1379.2	6.0387e-06	6.0337e-06	1376.8	374.17	6.1489e-06	6.1231e-06	426.94	143.7	124.83	42.942	6.1533e-06	53.305	46.391	20.928	10.774	-51.168	124.587	87.891	-51.161	-46.462	94.279	107.577	-48.045	-42.804	-42.285	-37.801	99.277	-38.409	-8191	255	
1097.022	1	1	0	0	0.10693	0.14693	0.027499	0.42258	0.17713	0.16857	0.020062	0.2877	0.058808	0.15753	0.12034	0.045994	0.074952	0.22341	0.21053	0.11346	-3.0583	-4.1146	-3.8625	-3.5771	-4.1979	-3.5729	-3.9562	-4.2167	-3.4292	-4.1667	-3.775	-3.5542	-4.1	-3.6188	-3.6333	-4.1479	46.558	85.870	-24.868	280.896	271.667	72.018	124.750	277.958	269.602	34.990	85.509	207.168	161.255	231.133	-51.109	251.135	0.0003166	0.00063132	0.00014751	1361.9	4.5628e-06	3.6821e-06	1360	367.75	1.4644e-06	6.4069e-06	419.75	141.17	122.45	41.948	3.3122e-06	52.033	0.00056937	0.00057284	0.00015753	1379.4	6.1115e-06	6.2975e-06	1378	374.43	6.2897e-06	6.2432e-06	427.71	143.72	124.83	43.064	6.5152e-06	53.367	40.338	18.056	29.469	-51.203	78.501	92.389	-51.082	-46.589	-24.916	103.711	-47.234	-42.418	-42.107	-37.738	93.586	-38.528	-8191	255	
1097.118	1	1	0	0	0.17165	0.064849	0.30482	0.31297	0.084657	0.16854	0.1077	0.37862	0.22246	0.1625	0.11309	0.044647	0.19973	0.20912	0.19654	0.16076	-2.9042	-4.0521	-3.9208	-3.4771	-4.3042	-3.7771	-3.7833	-4.3812	-3.5875	-4.0875	-4.0708	-3.6	-4.2479	-3.7167	-3.5083	-4.3271	289.540	244.042	-47.986	286.785	200.297	225.207	-24.071	234.489	-26.008	117.513	161.988	-53.122	-10.841	245.565	-4.053	181.296	0.0004035	0.00049382	0.0001498	1365.4	5.4804e-06	3.1086e-06	1361	368.66	3.5349e-06	3.8312e-06	419.24	140.85	122.17	42.002	4.118e-06	51.915	0.00058154	0.00058488	0.00016486	1378.7	6.3627e-06	6.6229e-06	1376.7	374.53	6.6217e-06	6.6196e-06	429.52	143.78	124.8	43.031	6.6826e-06	53.249	36.994	18.989	9.040	-51.198	97.086	92.147	-51.249	-46.621	42.475	111.287	-47.442	-42.705	-42.278	-37.789	81.495	-38.537	-8191	255	
1097.214	1	1	0	0	0.021402	0.069192	0.20784	0.17678	0.14781	0.045027	0.26288	0.27189	0.17307	0.22203	0.10263	0.31749	0.14203	0.066332	0.14066	0.15152	-3.0229	-3.8187	-4.0167	-3.5812	-4.0312	-3.7	-3.5208	-4.3958	-3.5708	-3.6375	-4.075	-3.475	-4.1188	-3.8333	-3.3583	-4.2146	59.381	-4.036	58.318	246.217	135.131	57.024	269.479	214.627	219.720	261.607	0.550	212.297	195.187	6.096	233.765	251.474	0.00044358	0.00047735	0.00024475	1361.2	3.1649e-06	7.7364e-06	1358.3	368.36	6.404e-06	5.6286e-06	419.98	141.07	122.72	41.779	6.4591e-06	52.009	0.00060389	0.00061386	0.0001714	1376.6	6.7226e-06	6.7218e-06	1378.7	374.33	6.7666e-06	6.8272e-06	427.67	143.96	125.25	43.053	6.9146e-06	53.333	51.012	31.810	37.172	-51.345	125.539	95.356	-51.050	-46.614	80.112	76.142	-47.390	-42.741	-42.056	-37.629	105.694	-38.456	-8191	255	
1097.310	1	1	0	0	0.11402	0.15444	0.054116	0.1147	0.075917	0.059338	0.3047	0.34057	0.062038	0.18781	0.12475	0.2209	0.22743	0.13982	0.26554	0.077503	-3.1896	-3.6583	-4.1292	-3.4521	-3.9813	-3.7958	-3.5563	-4.4104	-3.5729	-3.7188	-4.05	-3.4896	-4.1229	-4.1854	-3.275	-4.2521	59.607	74.924	-59.194	-46.555	12.817	153.793	256.564	234.833	159.918	126.070	52.196	-14.904	264.655	185.686	273.355	239.595	0.00035566	0.00047908	0.00011825	1361	2.9108e-06	4.5789e-06	1363.8	368.59	6.7032e-06	3.6012e-06	429.14	140.6	122.23	41.882	8.2665e-06	52.003	0.00062108	0.00062075	0.00017309	1379.1	6.7413e-06	6.8433e-06	1378.4	375.03	6.8189e-06	6.7559e-06	435.02	143.71	125.09	43.023	6.9027e-06	53.415	43.198	27.240	46.069	-51.218	63.135	105.423	-51.348	-46.507	118.293	47.387	-47.327	-42.685	-42.261	-37.615	42.866	-38.009	-8191	255	
1097.431	1	1	0	0	0.1183	0.15306	0.19055	0.13363	0.13982	0.1512	0.33203	0.18115	0.080159	0.25615	0.14948	0.16053	0.12336	0.16876	0.39809	0.10023	-3.1917	-3.6917	-4.1896	-3.6	-3.7438	-3.9917	-3.5958	-4.425	-3.6562	-3.4896	-4.1813	-3.6333	-3.9333	-4.1396	-3.3979	-4.1917	73.366	107.467	222.961	287.761	-56.509	271.940	209.463	230.970	59.322	-53.823	276.019	-38.578	-60.347	186.217	-14.161	46.763	0.00046846	0.00059321	0.00018927	1365.2	3.313e-06	4.6638e-06	1358.6	367.25	4.3733e-06	4.7575e-06	419.43	140.26	122.17	41.828	6.4483e-06	51.864	0.00061807	0.00062833	0.00017302	1379.5	6.8539e-06	6.8463e-06	1378	374.48	6.826e-06	7.0421e-06	430.2	143.68	124.93	43.06	6.9327e-06	53.292	51.593	30.494	22.227	-51.147	101.591	121.645	-51.317	-46.509	83.468	148.631	-47.643	-43.499	-42.857	-38.414	89.289	-38.977	-8191	255	
1097.527	1	1	0	0	0.11217	0.14294	0.14317	0.25107	0.14513	0.085852	0.26898	0.21395	0.011138	0.115	0.17725	0.21736	0.020985	0.2386	0.10827	0.033318	-3.1667	-3.4437	-4.15	-3.6021	-3.7479	-4.1375	-3.4521	-4.1188	-3.8771	-3.4562	-4.2708	-3.5333	-3.9417	-4.2708	-3.4708	-4.2812	281.733	223.410	64.180	179.847	-4.377	91.240	249.777	256.366	150.176	82.068	32.296	-62.432	257.474	262.420	291.977	226.566	0.00041318	0.00078017	0.00014078	1363	3.8092e-06	6.465e-06	1360.4	369.3	4.6636e-06	5.5671e-06	420.19	140.58	122.71	41.797	2.3852e-06	51.985	0.00062679	0.00062798	0.00017876	1379	6.8252e-06	6.7861e-06	1377.1	374.99	6.8783e-06	6.9343e-06	430.96	143.46	125.09	43.05	6.8862e-06	53.297	59.021	13.557	45.445	-51.977	78.945	63.205	-51.866	-47.248	89.988	79.135	-47.041	-43.422	-42.523	-38.391	155.829	-39.003	-8191	255	
1097.623	1	1	0	0	0.16182	0.21917	0.30716	0.2062	0.26574	0.038572	0.39054	0.1622	0.11264	0.020583	0.14864	0.064457	0.10537	0.15225	0.16725	0.1797	-3.7125	-3.2438	-4.1792	-3.5812	-3.7479	-4.2833	-3.5708	-3.9938	-4.0042	-3.4729	-4.4146	-3.6771	-3.525	-4.3104	-3.4604	-4.0646	259.408	217.661	199.489	-53.362	192.275	-64.407	271.001	-8.685	56.650	87.493	-37.406	159.398	178.087	289.768	268.340	-48.545	0.00039028	0.00053482	0.00019473	1359	5.9768e-06	5.654e-06	1360.9	367.99	8.1915e-06	5.6134e-06	423.12	139.87	121.47	41.902	8.4068e-06	52.159	0.00062481	0.00063839	0.00017805	1377.5	6.9633e-06	6.9287e-06	1378.6	374.6	7.1065e-06	7.0528e-06	430.85	143.33	124.77	43.003	7.0772e-06	53.418	42.816	-3.596	24.114	-51.835	109.040	71.350	-51.857	-47.001	43.883	27.029	-47.203	-43.278	-42.283	-38.000	65.138	-38.732	-8191	255	
1097.719	1	1	0	0	0.089404	0.21366	0.1277	0.38309	0.11471	0.18521	0.2699	0.36928	0.13242	0.14724	0.072675	0.34283	0.058452	0.19659	0.22574	0.2451	-3.6125	-3.2042	-4.1687	-3.7271	-3.3937	-4.3187	-3.6667	-3.9375	-4.0542	-3.2729	-4.125	-3.8771	-3.5604	-4.3375	-3.3875	-3.9417	-11.419	-22.642	99.384	223.205	270.749	-19.781	184.884	-62.452	65.060	70.093	67.403	273.140	-7.581	-17.513	115.447	181.605	0.00048441	0.00042729	0.00018172	1357.7	6.1909e-06	4.1191e-06	1357	368.4	3.1412e-06	4.5312e-06	416.01	139.76	122.32	41.83	3.5193e-06	51.931	0.00063221	0.00064595	0.00017579	1376.1	6.9645e-06	6.8626e-06	1376.1	374.51	7.0789e-06	6.9382e-06	431.09	143.41	124.78	42.951	6.8771e-06	53.355	39.114	45.549	6.526	-51.705	81.546	96.159	-51.862	-46.990	116.704	64.340	-46.668	-43.171	-42.632	-38.004	61.207	-38.967	-8191	255	
1097.815	1	1	0	0	0.11842	0.014429	0.34178	0.21867	0.1644	0.14188	0.40126	0.11931	0.048947	0.11262	0.25669	0.20578	0.24437	0.18385	0.17081	0.19141	-3.7479	-3.4104	-3.8854	-4.0437	-3.4208	-4.2	-3.7521	-3.9	-4.3812	-3.3333	-3.7771	-4.1792	-3.4125	-4.2063	-3.6396	-3.7917	270.997	137.746	69.790	-58.280	89.521	60.608	240.384	262.794	53.669	253.686	-17.101	18.733	-50.228	216.134	40.032	286.315	0.00046247	0.00063656	8.8077e-05	1358.1	4.3715e-06	3.4944e-06	1352.5	368.25	2.4752e-06	5.4422e-06	416.39	140.22	122.11	41.613	4.2499e-06	51.776	0.00062468	0.00064821	0.00018095	1374.4	6.8816e-06	6.741e-06	1375.5	374.44	7.0498e-06	7.0798e-06	429.05	143.49	124.62	42.909	6.9027e-06	53.196	48.941	58.943	-3.087	-51.886	115.039	62.017	-51.643	-46.969	-46.456	110.351	-47.697	-43.242	-42.670	-38.118	96.575	-38.634	-8191	255	
1097.912	1	1	0	0	0.21352	0.20548	0.09468	0.12518	0.19099	0.067651	0.2113	0.19149	0.19095	0.26954	0.046946	0.031908	0.1409	0.12499	0.12528	0.050059	-3.9313	-3.4625	-3.9271	-4.0958	-3.2854	-4.2896	-3.8521	-3.6542	-4.2042	-3.4292	-4.0083	-4.2937	-3.4062	-4.2312	-3.775	-3.5354	32.960	59.339	224.242	286.418	265.839	108.349	-58.298	212.912	200.945	133.295	168.139	200.092	130.878	239.552	171.186	-58.387	0.00041304	0.00034114	0.00019232	1364.2	6.2157e-06	6.6241e-06	1358.8	368.26	4.6897e-07	5.4422e-06	413.15	140.75	121.72	41.819	7.9059e-06	52.083	0.00061818	0.00064517	0.00018062	1376.5	6.9769e-06	6.9376e-06	1375.5	374.4	6.9282e-06	7.0072e-06	428.7	143.58	124.74	43.003	6.9784e-06	53.299	49.254	23.883	30.968	-51.742	56.852	90.640	-51.681	-46.834	105.380	79.134	-47.899	-43.060	-42.493	-38.173	89.429	-38.776	-8191	255	
1098.030	1	1	0	0	0.19106	0.10662	0.18015	0.20794	0.095215	0.12181	0.29031	0.19844	0.23183	0.21952	0.28423	0.040772	0.20224	0.26472	0.13049	0.18297	-3.6979	-3.4271	-3.6437	-4.2979	-3.3375	-3.8937	-4.0208	-3.4708	-4.0479	-3.5042	-3.6417	-4.1271	-3.3812	-3.9583	-3.9583	-3.5563	101.637	16.317	205.662	285.972	172.787	218.496	260.472	271.550	89.105	265.908	-25.782	119.189	249.632	277.037	-24.037	230.679	0.0003417	0.00072431	0.00023798	1363	1.6548e-06	6.2238e-06	1361.1	367.86	1.057e-05	2.884e-06	419.31	139.45	121.67	41.994	7.9372e-06	51.705	0.00061984	0.00064302	0.00017812	1377.2	7.095e-06	6.9811e-06	1376.7	374.67	6.8617e-06	7.0391e-06	430.8	143.27	124.68	42.993	6.9662e-06	53.167	32.972	5.890	12.623	-51.549	99.137	98.048	-51.558	-46.852	112.880	132.562	-46.940	-43.086	-42.456	-37.724	82.031	-38.549	-8191	255	
1098.127	1	1	0	0	0.15937	0.077479	0.047343	0.2994	0.010667	0.16831	0.022448	0.34444	0.089405	0.074423	0.19227	0.15751	0.20192	0.3383	0.28224	0.22983	-3.7604	-3.6333	-3.6146	-4.2833	-3.4167	-3.8896	-4.0292	-3.4417	-4.2333	-3.6937	-3.5021	-4.3083	-3.55	-3.9542	-4.1354	-3.625	40.096	131.302	216.231	281.769	-47.384	-26.775	219.550	276.653	119.055	162.651	117.444	294.408	208.812	267.068	-23.975	172.154	0.00048198	0.00052949	0.0001986	1357.6	6.7328e-06	6.5019e-06	1352.3	368.77	1.7429e-06	5.5384e-06	418.07	140.19	121.96	41.77	3.7886e-06	51.783	0.00061799	0.00063784	0.0001765	1374.9	6.8519e-06	6.8577e-06	1373.7	374.35	6.8987e-06	6.9939e-06	431.63	143.34	124.59	42.981	7.0212e-06	53.207	34.732	40.885	44.124	-51.196	89.488	94.994	-51.630	-46.565	24.289	62.916	-46.752	-42.837	-42.193	-37.826	100.854	-38.321	-8191	255	
1098.223	1	1	0	0	0.14424	0.25907	0.34001	0.32684	0.21174	0.052579	0.18618	0.24575	0.20884	0.13875	0.18357	0.21916	0.070337	0.2944	0.25643	0.17447	-3.7958	-3.7687	-3.4458	-4.5167	-3.4125	-3.9104	-4.1729	-3.5208	-4.1062	-3.9292	-3.4917	-4.3417	-3.5563	-3.95	-4.0042	-3.4917	127.699	140.072	64.957	271.408	118.445	260.521	277.458	225.299	82.331	154.548	239.923	-42.070	286.290	235.749	229.387	238.108	0.00039295	0.00066575	0.00018313	1359.3	8.4298e-06	2.0287e-06	1351	367.14	3.9249e-06	5.5044e-06	419.27	140.22	121.88	42.049	6.3917e-06	51.927	0.00062598	0.00064679	0.00017996	1374.3	6.8361e-06	6.9163e-06	1373	373.88	6.8727e-06	6.8995e-06	432.07	143.45	124.7	43.047	6.9783e-06	53.317	49.395	52.082	15.644	-51.351	80.624	101.233	-51.503	-46.552	64.982	111.190	-47.598	-42.872	-42.183	-37.694	89.521	-38.436	-8191	255	
1098.319	1	1	0	0	0.1315	0.090974	0.14926	0.19585	0.20066	0.08712	0.13888	0.25151	0.15011	0.087783	0.29315	0.16964	0.11861	0.20368	0.038554	0.19333	-3.7583	-3.7646	-3.3937	-4.3583	-3.5312	-3.6229	-4.2333	-3.5042	-3.9062	-4.0188	-3.5042	-4.3479	-3.6	-3.6813	-4.1146	-3.5083	183.056	13.825	278.135	220.017	38.767	200.801	254.912	270.900	216.682	174.426	-20.514	208.990	208.505	258.574	190.533	-35.672	0.00039807	0.00073874	0.00015716	1359.5	1.9504e-06	3.7128e-06	1351.9	367.78	3.1535e-06	5.9403e-06	421.52	140.16	121.27	41.751	5.4663e-06	51.966	0.00062202	0.00062962	0.00017659	1374.6	6.9964e-06	7.075e-06	1372.6	374.08	6.8152e-06	6.9765e-06	431.03	143.53	124.41	42.844	6.9656e-06	53.291	56.950	31.387	18.778	-51.385	76.562	89.741	-51.174	-46.807	-20.583	86.810	-47.098	-43.335	-42.728	-38.220	69.516	-38.706	-8191	255	
#DATA ENDS
