BOXY.EXE: ISS Imagent and Oximeter Data Acquisition Program Version 0.80
Ascii Record File

#ACQ INFORMATION
2  Detector Channels 
16  External MUX Channels 
1  Auxiliary Channels 
5000  Waveform (CCF) Frequency (Hz)
1  Waveforms Skipped 
30  Waveforms Averaged 
1  Cycles Averaged 
16  Acquisitions per Waveform 
10.0806  Updata Rate (Hz) 

#FILE INFORMATION
TRUE -- External MUX Channel results are PARSED.
FALSE -- AC DC and Phase are NOT grouped.
TRUE -- Companion Program Settings File CREATED.
FALSE -- AC data not excluded
FALSE -- DC data not excluded
FALSE -- Phase data not excluded
FALSE -- Auxillary Chn. data not excluded
Tab delimiters

#CALIBRATION STATE
TRUE -- Waveform Calibration Values APPLIED.


#AUX CALIBRATION VALUES
Val Type	aux-1	

Term	1.0000e+00	
Factor	0.0000e+00	


#WF CALIBRATION VALUES
A = Detector Channel
Val Type	A-AC1	A-AC2	A-AC3	A-AC4	A-AC5	A-AC6	A-AC7	A-AC8	A-AC9	A-AC10	A-AC11	A-AC12	A-AC13	A-AC14	A-AC15	A-AC16	A-DC1	A-DC2	A-DC3	A-DC4	A-DC5	A-DC6	A-DC7	A-DC8	A-DC9	A-DC10	A-DC11	A-DC12	A-DC13	A-DC14	A-DC15	A-DC16	A-Ph1	A-Ph2	A-Ph3	A-Ph4	A-Ph5	A-Ph6	A-Ph7	A-Ph8	A-Ph9	A-Ph10	A-Ph11	A-Ph12	A-Ph13	A-Ph14	A-Ph15	A-Ph16	

Term	0.00000e+00	0.00000e+00	0.00000e+00	0.00000e+00	0.00000e+00	0.00000e+00	0.00000e+00	0.00000e+00	0.00000e+00	0.00000e+00	0.00000e+00	0.00000e+00	0.00000e+00	0.00000e+00	0.00000e+00	0.00000e+00	0.00000e+00	0.00000e+00	0.00000e+00	0.00000e+00	0.00000e+00	0.00000e+00	0.00000e+00	0.00000e+00	0.00000e+00	0.00000e+00	0.00000e+00	0.00000e+00	0.00000e+00	0.00000e+00	0.00000e+00	0.00000e+00	0.00000e+00	0.00000e+00	0.00000e+00	0.00000e+00	0.00000e+00	0.00000e+00	0.00000e+00	0.00000e+00	0.00000e+00	0.00000e+00	0.00000e+00	0.00000e+00	0.00000e+00	0.00000e+00	0.00000e+00	0.00000e+00	
Factor	1.00000e+00	1.00000e+00	1.00000e+00	1.00000e+00	1.00000e+00	1.00000e+00	1.00000e+00	1.00000e+00	1.00000e+00	1.00000e+00	1.00000e+00	1.00000e+00	1.00000e+00	1.00000e+00	1.00000e+00	1.00000e+00	1.00000e+00	1.00000e+00	1.00000e+00	1.00000e+00	1.00000e+00	1.00000e+00	1.00000e+00	1.00000e+00	1.00000e+00	1.00000e+00	1.00000e+00	1.00000e+00	1.00000e+00	1.00000e+00	1.00000e+00	1.00000e+00	X	X	X	X	X	X	X	X	X	X	X	X	X	X	X	X	

B = Detector Channel
Val Type	B-AC1	B-AC2	B-AC3	B-AC4	B-AC5	B-AC6	B-AC7	B-AC8	B-AC9	B-AC10	B-AC11	B-AC12	B-AC13	B-AC14	B-AC15	B-AC16	B-DC1	B-DC2	B-DC3	B-DC4	B-DC5	B-DC6	B-DC7	B-DC8	B-DC9	B-DC10	B-DC11	B-DC12	B-DC13	B-DC14	B-DC15	B-DC16	B-Ph1	B-Ph2	B-Ph3	B-Ph4	B-Ph5	B-Ph6	B-Ph7	B-Ph8	B-Ph9	B-Ph10	B-Ph11	B-Ph12	B-Ph13	B-Ph14	B-Ph15	B-Ph16	

Term	0.00000e+00	0.00000e+00	0.00000e+00	0.00000e+00	0.00000e+00	0.00000e+00	0.00000e+00	0.00000e+00	0.00000e+00	0.00000e+00	0.00000e+00	0.00000e+00	0.00000e+00	0.00000e+00	0.00000e+00	0.00000e+00	0.00000e+00	0.00000e+00	0.00000e+00	0.00000e+00	0.00000e+00	0.00000e+00	0.00000e+00	0.00000e+00	0.00000e+00	0.00000e+00	0.00000e+00	0.00000e+00	0.00000e+00	0.00000e+00	0.00000e+00	0.00000e+00	-2.44074e+02	-1.38917e+02	-1.23458e+02	-1.83504e+02	-7.80274e+01	-6.98697e+01	-1.57272e+02	-1.62015e+02	-8.48116e+01	-5.88626e+01	-1.72810e+02	-1.70116e+02	-1.79941e+02	-1.76682e+02	-6.23674e+01	-1.49095e+02	
Factor	5.52849e-05	1.45846e-04	3.58442e-05	2.37707e-01	1.66745e-06	1.38744e-06	1.68909e-01	4.60247e-02	2.13902e-06	1.48554e-06	9.57930e-02	2.69634e-02	2.69403e-02	8.48901e-03	1.49846e-06	1.22238e-02	3.61109e-06	3.95243e-06	1.10144e-06	1.23024e-01	4.28733e-08	4.35643e-08	8.25659e-02	2.40976e-02	4.27199e-08	4.34751e-08	4.83216e-02	1.36188e-02	1.41214e-02	4.47111e-03	4.28401e-08	6.21873e-03	X	X	X	X	X	X	X	X	X	X	X	X	X	X	X	X	



#DISTANCE SETTINGS
A = Detector Channel
A-1	A-2	A-3	A-4	A-5	A-6	A-7	A-8	A-9	A-10	A-11	A-12	A-13	A-14	A-15	A-16	

2.5000e+00	3.0000e+00	2.5000e+00	3.0000e+00	2.0000e+00	3.0000e+00	1.5000e+00	3.0000e+00	3.0000e+00	3.0000e+00	3.0000e+00	3.0000e+00	3.0000e+00	3.0000e+00	1.5000e+00	3.0000e+00	

B = Detector Channel
B-1	B-2	B-3	B-4	B-5	B-6	B-7	B-8	B-9	B-10	B-11	B-12	B-13	B-14	B-15	B-16	

1.0000e+01	1.0000e+01	1.0000e+01	1.4400e+00	1.0000e+01	1.0000e+01	1.5100e+00	1.9400e+00	1.0000e+01	1.0000e+01	1.9900e+00	2.4900e+00	2.4100e+00	2.9000e+00	1.0000e+01	2.9800e+00	




#DATA BEGINS
time	group	step	mark	flag	A-AC1	A-AC2	A-AC3	A-AC4	A-AC5	A-AC6	A-AC7	A-AC8	A-AC9	A-AC10	A-AC11	A-AC12	A-AC13	A-AC14	A-AC15	A-AC16	A-DC1	A-DC2	A-DC3	A-DC4	A-DC5	A-DC6	A-DC7	A-DC8	A-DC9	A-DC10	A-DC11	A-DC12	A-DC13	A-DC14	A-DC15	A-DC16	A-Ph1	A-Ph2	A-Ph3	A-Ph4	A-Ph5	A-Ph6	A-Ph7	A-Ph8	A-Ph9	A-Ph10	A-Ph11	A-Ph12	A-Ph13	A-Ph14	A-Ph15	A-Ph16	B-AC1	B-AC2	B-AC3	B-AC4	B-AC5	B-AC6	B-AC7	B-AC8	B-AC9	B-AC10	B-AC11	B-AC12	B-AC13	B-AC14	B-AC15	B-AC16	B-DC1	B-DC2	B-DC3	B-DC4	B-DC5	B-DC6	B-DC7	B-DC8	B-DC9	B-DC10	B-DC11	B-DC12	B-DC13	B-DC14	B-DC15	B-DC16	B-Ph1	B-Ph2	B-Ph3	B-Ph4	B-Ph5	B-Ph6	B-Ph7	B-Ph8	B-Ph9	B-Ph10	B-Ph11	B-Ph12	B-Ph13	B-Ph14	B-Ph15	B-Ph16	aux-1	digaux	

1177.604	1	1	0	256	0.057867	0.11583	0.10338	0.15633	0.069878	0.11486	0.086621	0.13873	0.14683	0.20638	0.15408	0.023155	0.071713	0.0095292	0.12237	0.1413	-2.7854	-4.0396	-3.2396	-3.6479	-3.9938	-3.2146	-3.975	-3.7708	-3.1833	-3.95	-3.525	-3.5104	-4.1708	-3.2708	-3.7479	-3.7938	199.033	85.002	304.757	71.231	312.505	159.113	184.100	350.851	310.837	284.644	300.161	342.690	146.746	91.020	109.607	14.436	0.0013705	0.00086647	0.00016911	916.45	1.249e-05	6.6137e-06	1322.3	319.76	1.4018e-05	4.9011e-06	558.09	211.45	111.06	43.108	7.0382e-06	98.379	0.00063426	0.00060049	0.00016413	834.65	6.336e-06	6.5658e-06	1198.7	290.06	6.2183e-06	6.3305e-06	506.19	192.01	101.49	39.499	6.3224e-06	89.451	18.780	83.716	62.652	11.204	163.801	170.670	11.112	15.757	121.129	137.667	14.805	19.454	20.568	24.637	174.012	22.794	-8191	255	
1177.701	1	1	0	0	0.20909	0.13458	0.052828	0.20293	0.17909	0.19276	0.40661	0.16276	0.22557	0.10369	0.17716	0.16309	0.28491	0.23669	0.11375	0.15976	-3.0042	-4.0125	-3.2812	-3.3667	-3.9938	-3.3688	-3.6688	-3.8896	-3.1042	-4.1229	-3.6312	-3.3958	-4.1375	-3.1667	-3.75	-4.0458	191.837	290.150	247.925	337.761	261.852	160.267	270.972	319.110	356.200	170.557	203.709	333.441	354.091	326.859	336.811	293.125	0.0014902	0.00091655	0.00018965	930.94	1.181e-05	1.0017e-05	1348.9	330.4	1.0468e-05	6.6196e-06	575.62	220.3	115.67	45.827	9.5735e-06	102.35	0.00063283	0.00057147	0.00015725	851.85	6.1376e-06	6.2683e-06	1221.6	299.51	6.294e-06	6.1483e-06	523.06	200.16	105.65	42.112	6.095e-06	93.312	17.236	71.630	78.707	11.237	160.979	134.516	11.225	15.702	135.498	124.362	14.721	18.811	19.741	23.906	125.633	22.524	-8191	255	
1177.797	1	1	0	0	0.088721	0.078373	0.18422	0.13683	0.25346	0.22776	0.12998	0.22376	0.17128	0.068426	0.12637	0.20359	0.30877	0.15451	0.064391	0.20236	-2.7958	-3.8333	-3.5062	-3.2687	-3.9875	-3.3479	-3.6854	-4.0146	-3.3	-3.8438	-3.8583	-3.5062	-4.1167	-3.3417	-3.5938	-4.0396	185.693	255.759	171.707	286.074	171.766	304.019	348.804	285.523	330.599	45.879	296.016	325.297	322.748	342.744	88.745	318.843	0.0015794	0.000665	0.00020709	929.08	4.2298e-06	2.4882e-06	1330.2	326.57	1.5095e-05	4.6221e-06	567.23	216.17	112.5	44.048	7.2022e-06	99.027	0.00061132	0.00057969	0.00015795	849.54	6.4889e-06	6.3559e-06	1210.7	297.2	6.5402e-06	6.3943e-06	514.04	196.05	103.09	40.523	6.4019e-06	90.018	20.655	63.146	50.278	10.777	153.994	196.347	10.846	15.201	151.766	219.559	14.678	18.791	19.269	23.904	162.805	22.419	-8191	255	
1177.916	1	1	0	0	0.24575	0.19373	0.057288	0.092802	0.04487	0.073042	0.23357	0.13021	0.20131	0.19236	0.10761	0.17704	0.20104	0.11976	0.14674	0.12099	-2.7854	-3.8021	-3.6063	-3.2146	-3.8979	-3.4062	-3.7167	-3.9437	-3.1417	-3.8375	-3.8167	-3.2354	-4.1292	-3.5687	-3.2708	-4.1083	1.549	56.032	84.521	60.657	215.204	34.546	299.358	304.460	71.166	240.270	276.559	241.277	352.324	353.148	101.240	307.967	0.0016534	0.00098187	0.00027336	924.85	1.1885e-05	1.1109e-05	1339	322.11	8.9213e-06	7.5066e-06	558.61	212.64	111.35	43.336	7.3782e-06	97.398	0.00064844	0.00058265	0.00016144	845.44	6.6084e-06	6.5453e-06	1208	293.08	6.6392e-06	6.6126e-06	508.47	193.26	101.98	39.69	6.3679e-06	88.697	23.436	78.103	93.950	11.095	158.255	107.502	10.785	15.724	92.159	122.271	14.685	18.945	19.796	23.855	156.520	22.657	-8191	255	
1178.012	1	1	0	0	0.098377	0.14934	0.072534	0.1303	0.083675	0.18651	0.17641	0.18415	0.27705	0.29985	0.26189	0.21057	0.070377	0.18851	0.035383	0.075194	-2.8854	-3.7438	-3.6937	-3.2458	-3.7521	-3.5667	-3.475	-3.9854	-3.35	-3.5792	-3.9917	-3.3	-3.9938	-3.7583	-3.2375	-4.1792	354.083	118.477	215.283	284.013	205.800	343.926	237.878	37.941	233.839	102.912	99.215	298.571	253.075	5.492	167.987	35.790	0.0012825	0.0010198	0.0001432	928.76	1.1429e-05	1.2859e-05	1328.7	323.13	1.7922e-05	8.534e-06	561.36	211.69	111.51	42.591	1.1566e-05	97.082	0.0006231	0.00057477	0.00015964	845.96	6.4382e-06	6.2654e-06	1206.5	292.92	6.4682e-06	6.1734e-06	509.81	192.99	102.09	39.264	6.3146e-06	88.389	13.332	57.274	104.028	10.746	111.761	143.660	10.684	15.563	117.118	159.479	14.897	18.922	19.730	24.122	160.099	22.522	-8191	255	
1178.083	1	1	0	0	0.17452	0.22142	0.01689	0.24006	0.12261	0.051785	0.10288	0.159	0.081988	0.027641	0.23281	0.19291	0.19139	0.22132	0.27994	0.29147	-3.0104	-3.5833	-3.8667	-3.3271	-3.9708	-3.5625	-3.5625	-4.1896	-3.2583	-3.5083	-4.0646	-3.1542	-3.8167	-3.8042	-3.2875	-3.9792	201.908	103.835	18.047	330.951	129.705	190.621	286.757	340.819	124.649	199.754	300.803	272.851	182.295	1.659	61.152	301.479	0.0013679	0.00075829	0.00014647	936.1	4.3514e-06	8.09e-06	1337.3	322.85	1.1833e-05	1.5831e-05	561.42	211.86	111.38	42.542	2.4789e-06	95.954	0.00063052	0.00057827	0.00016058	852.33	6.3033e-06	6.328e-06	1215.7	294.29	6.3064e-06	6.3032e-06	508.85	192.23	101.27	39.126	6.5638e-06	87.592	18.025	84.840	97.859	10.801	139.661	114.823	11.056	15.537	160.379	167.893	14.760	19.095	20.283	24.470	105.795	22.650	-8191	255	
1178.204	1	1	0	0	0.049966	0.089249	0.064294	0.02871	0.12937	0.21435	0.25915	0.17409	0.1389	0.15423	0.076213	0.34554	0.017002	0.031669	0.023524	0.31877	-2.9854	-3.4313	-3.9375	-3.125	-3.6688	-3.8104	-3.3063	-4.0604	-3.3896	-3.3187	-4.1583	-3.2104	-3.8604	-3.9458	-3.1104	-4.0938	220.291	213.784	55.239	106.149	72.790	94.350	3.275	103.805	212.515	86.935	326.788	1.357	352.039	187.710	198.679	290.550	0.0014127	0.00025876	0.00014137	924.25	8.4236e-06	7.9641e-06	1323.5	319.02	1.6182e-05	1.0596e-05	555.46	209.5	109.24	41.894	1.0293e-05	94.773	0.00063028	0.00058668	0.00016431	845.57	6.2686e-06	6.3396e-06	1203.6	290.31	6.2546e-06	6.3635e-06	504.16	190.19	99.994	38.536	6.5589e-06	86.299	27.951	26.056	169.610	10.857	145.627	141.398	10.940	15.761	135.405	99.325	14.816	19.406	19.555	24.226	184.526	22.876	-8191	255	
1178.300	1	1	0	0	0.22489	0.23151	0.20312	0.25635	0.02512	0.20786	0.26999	0.26836	0.17085	0.18832	0.036055	0.22632	0.020713	0.12648	0.28198	0.32948	-3.2396	-3.3563	-3.7875	-3.2438	-3.6104	-3.8542	-3.3	-4.0104	-3.6	-3.2562	-4.0479	-3.5167	-3.6271	-4.0604	-3.1833	-3.975	115.050	183.184	200.440	291.212	137.438	149.376	304.515	277.196	42.093	269.227	255.510	297.125	23.414	337.332	89.349	332.270	0.001407	0.00089163	0.00023978	916.52	9.8225e-06	6.787e-06	1323.8	316.74	1.2894e-05	1.1778e-05	548.28	206.75	108.51	41.336	4.3376e-06	93.492	0.00062992	0.00059713	0.00016869	839.04	6.348e-06	6.4898e-06	1199.6	287.69	6.2696e-06	6.5326e-06	498.22	187.41	99.136	38.016	6.7281e-06	85.358	15.238	115.230	113.497	10.999	149.509	137.814	11.060	15.495	134.240	176.376	14.885	19.243	19.930	24.412	115.279	22.990	-8191	255	
1178.396	1	1	0	0	0.18798	0.0046571	0.22966	0.048789	0.011144	0.11748	0.26459	0.29106	0.14367	0.12441	0.12759	0.26299	0.077171	0.1697	0.070439	0.3092	-3.1208	-3.2271	-4.0229	-3.3812	-3.4875	-4.0312	-3.2292	-3.9771	-3.7479	-3.1396	-4.15	-3.5312	-3.525	-4.1188	-3.0438	-4.0354	69.962	108.513	226.998	52.071	266.460	266.057	280.440	284.596	2.168	272.884	31.689	332.259	316.088	294.563	335.620	233.154	0.0014302	0.00092242	0.00026539	919.13	6.0208e-06	8.4603e-06	1317.6	313.58	2.0454e-05	9.6959e-06	545.21	202.8	106	40.888	7.5058e-06	92.74	0.00062594	0.00061588	0.00017118	838.19	6.5938e-06	6.8184e-06	1198.2	285.82	6.6934e-06	6.8981e-06	496.13	185.21	97.693	37.442	6.9998e-06	84.365	23.045	69.613	92.554	11.208	89.176	163.856	10.721	15.772	121.623	128.720	15.006	19.167	20.303	24.346	182.796	23.016	-8191	255	
1178.492	1	1	0	0	0.19314	0.20794	0.1126	0.16035	0.078807	0.26076	0.22284	0.29623	0.12658	0.18083	0.25673	0.18391	0.22611	0.25315	0.18153	0.30016	-3.4188	-3.1396	-3.9521	-3.5667	-3.3104	-4.05	-3.325	-4.025	-3.7833	-3.0667	-4.0708	-3.7188	-3.3333	-4.0292	-3.2542	-3.8604	185.606	203.803	334.966	345.536	53.906	305.239	286.306	307.673	82.441	278.859	326.344	334.981	336.394	312.901	343.720	243.014	0.0015016	0.00058268	0.00022605	925.68	9.9427e-06	4.5389e-06	1317	313.89	7.0933e-06	8.3404e-06	543.55	201.25	106.1	40.018	4.1237e-06	90.905	0.00066518	0.00065922	0.00017728	842.98	6.9375e-06	7.1001e-06	1199.6	285.18	6.9969e-06	7.2909e-06	493.41	183.3	96.854	36.908	7.0873e-06	82.997	20.798	54.093	90.334	11.095	150.278	189.658	10.984	16.235	130.796	157.725	15.499	19.435	20.791	24.880	176.422	23.352	-8191	255	
1178.589	1	1	0	0	0.18628	0.10855	0.024384	0.022805	0.10374	0.22665	0.068093	0.24542	0.10984	0.096977	0.13577	0.14836	0.13886	0.097866	0.094267	0.23264	-3.5833	-3.1208	-3.85	-3.6	-3.3375	-4.1854	-3.4792	-3.6562	-3.95	-3.1896	-3.8563	-3.85	-3.3625	-4.2417	-3.3167	-3.7062	78.266	38.513	7.623	15.566	123.517	313.656	266.280	285.904	226.022	230.489	-1.978	314.847	41.646	148.490	301.743	337.169	0.0014013	0.00073575	0.00027825	918.18	1.0767e-05	6.5559e-06	1306.7	308.52	9.3849e-06	9.714e-06	535.52	196.95	103.93	39.272	1.2678e-05	89.517	0.00068122	0.00065701	0.00017913	837.79	7.2425e-06	7.3517e-06	1185.5	280.78	7.3234e-06	7.3556e-06	486.93	179.96	95.273	36.226	7.3266e-06	81.568	13.343	58.294	69.679	11.197	130.819	128.189	10.721	15.919	135.158	124.277	15.068	19.130	20.209	24.429	137.402	22.887	-8191	255	
1178.707	1	1	0	0	0.15451	0.23474	0.060523	0.21943	0.21233	0.11153	0.10345	0.076644	0.15849	0.14534	0.19024	0.13133	0.25752	0.15107	0.12754	0.32703	-3.5875	-2.8833	-3.6917	-3.825	-3.25	-3.9792	-3.5375	-3.4667	-4.1188	-3.2792	-3.9604	-3.9792	-3.2313	-4.075	-3.3396	-3.5104	20.159	323.296	240.866	290.614	346.298	226.910	352.524	21.792	351.381	67.951	330.932	279.401	199.002	211.299	179.718	238.278	0.0014104	0.00084921	0.00031545	904.84	1.016e-05	5.1482e-06	1303.2	307.36	5.4056e-06	5.9584e-06	533.95	199.64	104.83	39.842	7.4094e-06	89.865	0.00070475	0.00069237	0.00018187	831.98	7.5918e-06	7.6502e-06	1182	280.37	7.285e-06	7.4216e-06	487.99	181.88	96.111	36.624	7.2786e-06	82.432	10.598	80.438	80.823	10.834	147.829	138.714	10.671	15.534	131.523	163.834	15.047	19.424	20.149	24.211	89.261	22.825	-8191	255	
1178.781	1	1	0	0	0.048126	0.11893	0.064796	0.09481	0.25459	0.053255	0.038789	0.095995	0.15235	0.32304	0.07764	0.20312	0.079254	0.1572	0.17251	0.35573	-3.6083	-3.2958	-3.7333	-3.8292	-3.0208	-3.95	-3.6437	-3.4354	-3.9417	-3.2917	-3.6583	-4.0292	-3.1937	-3.8042	-3.5396	-3.2521	102.212	303.828	19.883	217.036	171.113	344.460	203.488	25.515	84.180	132.626	7.602	357.246	5.372	58.956	93.334	314.194	0.0013109	0.00091383	0.00010118	907.26	8.2086e-06	7.1863e-06	1307.3	310.6	1.395e-05	7.1573e-06	543.16	204.74	106.17	40.317	9.5078e-06	91.482	0.00070585	0.00069768	0.00018703	832.91	7.4606e-06	7.5293e-06	1187	283.89	7.4888e-06	7.3752e-06	494.62	186.01	97.729	37.161	7.237e-06	83.856	13.766	39.404	153.064	10.897	143.772	145.760	10.749	15.565	111.900	156.725	14.917	19.204	19.629	24.542	161.809	22.877	-8191	255	
1178.877	1	1	0	0	0.28466	0.060001	0.11341	0.22493	0.10343	0.16861	0.10761	0.26421	0.27327	0.25803	0.033587	0.181	0.13121	0.13619	0.13894	0.12146	-3.6729	-3.3354	-3.4896	-4.0062	-3.0396	-3.6875	-3.6854	-3.1688	-4.1604	-3.5271	-3.5958	-4.0542	-3.4	-3.8729	-3.8167	-3.3208	112.266	185.272	152.260	289.038	332.071	226.823	253.202	280.878	244.380	349.488	53.919	-0.578	337.711	343.020	296.836	227.683	0.0013674	0.0013706	0.00017196	909.58	1.5037e-05	7.3673e-06	1316.1	317.58	8.8582e-06	8.4345e-06	552.84	206.09	108.48	40.931	2.9749e-06	92.348	0.00070822	0.00068413	0.00018922	839.46	7.3807e-06	7.4065e-06	1201.4	289.13	7.5284e-06	7.3572e-06	502.44	188.3	99.551	37.747	7.3655e-06	84.628	25.523	104.567	71.363	11.030	122.269	161.761	10.825	15.736	157.760	135.625	15.158	19.137	20.061	24.429	142.257	22.897	-8191	255	
1178.996	1	1	0	0	0.11631	0.15744	0.15906	0.13261	0.15581	0.098051	0.059878	0.33702	0.24134	0.12373	0.21612	0.26446	0.16671	0.15987	0.043215	0.37632	-3.6813	-3.35	-3.3271	-3.9437	-3.2271	-3.8479	-4.0854	-3.3187	-3.9479	-3.525	-3.4958	-4.1188	-3.25	-3.4917	-3.6813	-3.125	281.737	213.115	297.262	225.762	104.825	7.339	113.459	322.617	247.232	197.819	41.325	338.907	294.394	343.652	117.752	283.755	0.0016035	0.0010373	0.00019803	915.03	1.3974e-05	7.5286e-06	1309.2	311.43	1.5397e-05	9.2322e-06	543.37	204.33	106.76	40.233	9.4751e-06	90.46	0.00071704	0.00067542	0.00019395	839.06	7.644e-06	7.5856e-06	1192.7	284.72	7.6711e-06	7.5874e-06	494.91	185.82	97.723	37.051	7.6628e-06	82.878	18.463	90.051	122.556	11.236	99.428	156.445	10.994	15.797	86.095	93.272	15.145	19.303	20.080	24.412	157.946	23.011	-8191	255	
1179.092	1	1	0	0	0.11675	0.23718	0.1163	0.1238	0.29488	0.067585	0.21786	0.20085	0.11935	0.12717	0.09968	0.066816	0.075773	0.12632	0.18661	0.17924	-3.6125	-3.6417	-3.1479	-3.9646	-3.2333	-3.6104	-4.0854	-3.2875	-3.8729	-3.45	-3.3479	-4.1833	-3.1979	-3.45	-3.9125	-3.275	216.784	353.372	339.844	334.727	104.373	158.213	247.408	341.385	338.811	263.025	220.324	296.144	281.649	296.079	270.390	292.157	0.0013773	0.00042118	0.00015736	911.62	1.2994e-05	8.5905e-06	1304.7	311.98	1.3261e-05	5.5612e-06	543.8	204.8	107.01	40.274	5.0689e-06	91.438	0.00072128	0.00068515	0.0001979	834.36	7.3964e-06	7.4912e-06	1183	284.06	7.2541e-06	7.3159e-06	494.52	186.55	98.23	37.235	7.2091e-06	83.778	27.435	79.736	93.683	10.846	118.234	156.553	10.600	15.761	136.872	125.445	14.915	19.262	20.084	24.605	123.369	22.947	-8191	255	
1179.188	1	1	0	0	0.049058	0.020251	0.13211	0.23081	0.036866	0.28175	0.11166	0.21442	0.21458	0.17909	0.073851	0.18584	0.15821	0.18657	0.33231	0.22038	-3.5167	-3.6521	-3.2	-4.0125	-3.3042	-3.3812	-4.0792	-3.2	-3.6854	-3.8375	-3.3958	-4.0479	-3.6125	-3.3667	-3.9771	-3.35	11.214	68.373	310.777	162.539	103.740	322.605	226.038	293.097	26.423	225.953	316.928	284.365	-1.491	332.089	156.525	301.553	0.001665	0.0010205	0.00014806	912.38	1.404e-05	2.2806e-06	1315	311.52	7.5099e-06	1.2927e-05	546.14	206.58	107.87	40.376	1.2741e-05	91.771	0.00068499	0.00065726	0.00018575	835.96	7.0438e-06	7.2196e-06	1189.8	284.79	7.1218e-06	7.3014e-06	498.26	187.95	98.942	37.43	7.2016e-06	84.009	23.061	42.774	42.846	11.173	146.666	172.770	10.891	15.631	138.984	200.923	15.088	19.165	20.171	24.509	174.421	22.819	-8191	255	
1179.284	1	1	0	0	0.26227	0.23002	0.13302	0.13587	0.055792	0.1932	0.1763	0.26139	0.14519	0.04001	0.098108	0.16981	0.20435	0.21587	0.053455	0.27386	-3.3604	-3.6833	-3.0625	-3.9354	-3.5521	-3.2521	-4.0021	-3.3833	-3.4313	-3.8875	-3.3625	-4.1604	-3.6479	-3.4083	-3.9854	-3.3875	157.610	247.988	354.953	169.781	224.792	151.701	259.274	355.742	195.957	40.227	262.859	239.970	324.944	311.998	6.556	299.796	0.0013594	0.0013501	0.00018872	923.34	5.7812e-06	6.1461e-06	1319.9	313.4	1.5755e-05	7.4805e-06	547.24	205.93	106.79	40.038	1.3273e-05	91.036	0.00069009	0.00067632	0.0001874	839.81	7.1215e-06	7.5004e-06	1196.8	285.77	7.3361e-06	7.3428e-06	498.46	187.07	98.179	36.942	7.2735e-06	82.877	19.993	63.332	122.849	11.239	148.372	180.606	10.871	15.617	155.570	143.779	15.171	19.364	20.147	24.553	157.200	23.026	-8191	255	
1179.381	1	1	0	0	0.37814	0.11867	0.079363	0.26163	0.1093	0.074491	0.258	0.19558	0.10272	0.11915	0.10269	0.089063	0.10618	0.27826	0.14252	0.3122	-2.8896	-3.9146	-3.3729	-3.9333	-3.5375	-3.3021	-4.1583	-3.5563	-3.5333	-3.9729	-3.2438	-4	-3.8583	-3.4167	-3.8646	-3.4188	31.322	222.330	313.731	311.019	284.182	326.810	342.965	335.568	7.025	320.231	256.624	349.627	263.150	333.446	22.684	279.573	0.001434	0.00070655	0.0003354	915.58	6.4511e-06	8.0006e-06	1309.9	309.01	6.2443e-06	7.4904e-06	534.48	198.98	103.67	38.453	1.0465e-05	87.507	0.00069336	0.00067744	0.00019164	837.18	7.3427e-06	7.6302e-06	1186.3	281.03	7.5467e-06	7.6446e-06	487.27	181.6	95.54	35.616	7.6138e-06	79.962	23.943	103.755	138.559	10.765	160.538	160.653	10.800	15.706	142.876	131.419	15.113	19.647	19.914	24.773	130.608	22.884	-8191	255	
1179.477	1	1	0	0	0.23913	0.20255	0.12235	0.15695	0.14079	0.072854	0.43532	0.10335	0.14948	0.11846	0.29091	0.23529	0.16812	0.22339	0.15441	0.075062	-3	-3.9604	-3.0042	-3.8104	-3.8396	-3.2729	-4.1312	-3.6396	-3.2625	-3.9479	-3.2479	-3.8521	-3.8292	-3.2938	-3.8833	-3.7396	8.852	271.256	330.014	235.808	168.379	266.140	311.664	311.635	221.287	270.019	291.748	301.296	21.737	13.719	65.556	-2.061	0.0014451	0.00084387	0.00023384	913.93	8.697e-06	7.9649e-06	1298.9	306.21	8.0404e-06	1.0719e-05	530.59	198.18	102.89	38.219	5.0371e-06	87.649	0.00071317	0.00071737	0.00019567	832.27	7.7311e-06	7.9232e-06	1178.5	279.22	7.6345e-06	7.6791e-06	483.22	180.83	94.914	35.354	7.4962e-06	80.154	27.045	87.705	112.363	11.021	90.275	70.061	11.321	15.828	117.517	183.040	15.516	19.553	20.115	24.333	182.876	23.000	-8191	255	
1179.597	1	1	0	0	0.034253	0.26785	0.049528	0.10612	0.097213	0.034457	0.22067	0.26228	0.19031	0.1355	0.16344	0.2453	0.098996	0.18021	0.18551	0.32602	-2.8333	-4.0208	-3.1854	-3.6396	-3.6854	-3.0563	-3.9396	-3.7604	-3.1458	-3.9583	-3.5271	-3.7625	-4.0292	-3.2896	-3.8375	-3.8396	136.113	250.104	348.330	31.413	46.466	260.391	277.628	347.505	228.854	62.052	166.063	87.329	339.104	156.815	172.116	13.893	0.0012462	0.00075721	0.00010389	913.28	9.4448e-06	6.5175e-06	1306.5	307.11	5.0512e-06	8.5106e-06	533.46	200.98	104.59	38.979	1.199e-05	88.848	0.00070886	0.000684	0.00018829	831.1	7.3626e-06	7.3707e-06	1182	280.29	7.4617e-06	7.5296e-06	487.99	183.01	96.064	35.902	7.1537e-06	81.167	26.723	49.959	27.144	11.323	198.827	145.927	11.178	15.657	131.713	151.666	14.852	19.284	20.254	24.569	142.884	23.052	-8191	255	
1179.693	1	1	0	0	0.080795	0.17878	0.14342	0.22115	0.092325	0.25238	0.24081	0.15786	0.10138	0.089151	0.19678	0.26981	0.17299	0.12914	0.21269	0.11741	-2.6542	-3.8917	-3.4062	-3.5729	-4.0542	-3.25	-4.0417	-3.8354	-3.0958	-4.0687	-3.5271	-3.5187	-4.0625	-3.3167	-3.6125	-3.9313	218.463	84.940	188.424	36.998	37.057	297.777	5.798	21.892	308.678	71.086	274.615	174.084	325.689	40.621	113.151	258.913	0.0012293	0.00064125	0.00017167	917.67	1.1624e-05	4.9283e-06	1310.5	311.99	1.6265e-05	1.1918e-05	544.37	201.6	106.07	38.945	9.6499e-06	89.383	0.00071104	0.0006652	0.00018526	836.71	7.2624e-06	7.3416e-06	1190.9	283.6	7.2921e-06	6.8838e-06	492.62	184.42	96.839	35.924	7.0481e-06	81.193	17.547	121.762	161.393	11.357	165.524	155.210	11.158	15.833	107.806	181.567	14.908	19.438	20.441	24.432	156.407	23.241	-8191	255	
1179.788	1	1	0	0	0.36587	0.14256	0.040964	0.062107	0.21676	0.076823	0.096291	0.23364	0.18288	0.12039	0.056651	0.3057	0.14586	0.10206	0.12374	0.12182	-3	-3.8875	-3.6875	-3.4792	-3.9583	-3.3812	-3.7667	-3.9417	-3.2542	-4.1208	-3.725	-3.2896	-4.0646	-3.3875	-3.5812	-4.175	150.456	134.069	203.189	184.148	63.702	65.139	15.483	280.793	101.162	87.179	336.727	243.250	211.453	201.290	324.740	285.014	0.0010617	0.00087557	0.00021404	912.84	8.3447e-06	3.421e-06	1301.4	307.95	1.2859e-05	5.6082e-06	535.06	200.22	103.77	38.685	6.4938e-06	87.712	0.00069395	0.00064959	0.00018299	834.33	7.1479e-06	7.0779e-06	1183.3	280.3	7.3276e-06	7.1092e-06	486.44	182.02	95.362	35.59	7.1066e-06	80.209	14.893	68.878	92.155	11.374	180.296	112.304	11.125	15.934	130.438	164.248	15.053	19.417	20.319	24.632	206.211	22.907	-8191	255	
1179.884	1	1	0	0	0.19505	0.091899	0.051034	0.091052	0.16487	0.1846	0.23508	0.22945	0.23464	0.06946	0.20137	0.26151	0.26169	0.17415	0.19738	0.21886	-2.7812	-3.8604	-3.7646	-3.3937	-3.9813	-3.3833	-3.5604	-4.0833	-3.1312	-3.9479	-3.7208	-3.4229	-4.1104	-3.5292	-3.4854	-4.0792	40.676	48.359	149.683	72.630	219.571	59.513	218.085	279.621	19.440	116.119	7.273	288.677	321.843	353.029	5.344	172.026	0.0014184	0.0010594	0.00023713	903.18	2.9626e-06	1.3401e-05	1303.3	305.14	1.3576e-05	8.3813e-06	530.87	199.61	103.51	38.648	1.009e-05	88.174	0.00067587	0.00064612	0.00017785	828.46	6.9387e-06	6.8328e-06	1180.6	278.7	7.096e-06	6.9568e-06	485.58	181.65	95.274	35.479	6.9885e-06	80.46	13.202	65.631	105.323	11.404	92.988	138.493	11.214	15.923	119.946	145.271	15.571	19.349	19.869	24.712	197.718	23.053	-8191	255	
1180.005	1	1	0	0	0.088389	0.11789	0.2088	0.22513	0.14179	0.10349	0.30257	0.14877	0.14214	0.13579	0.25786	0.29342	0.18621	0.30628	0.32217	0.25527	-2.7708	-3.6958	-3.7604	-3.3292	-3.9	-3.4458	-3.6708	-4.1062	-3.0625	-3.5875	-4.0083	-3.45	-4.1354	-3.6375	-3.3917	-4.2854	326.533	92.599	33.933	281.309	254.198	249.176	317.504	10.303	329.993	207.874	278.284	334.367	275.857	18.845	343.985	30.233	0.0013196	7.5334e-05	0.00013329	917.61	7.6569e-06	7.3139e-06	1308.9	308.52	7.9389e-06	8.907e-06	539.15	203.71	106.1	39.377	9.5403e-06	90.22	0.0006753	0.00063179	0.00017679	833.4	6.8338e-06	6.7139e-06	1189.8	281.58	6.685e-06	6.7793e-06	492.02	185.42	97.156	36.358	6.9062e-06	82.373	24.637	34.258	78.175	11.766	108.072	133.930	11.279	16.284	151.636	149.417	14.964	19.243	20.332	24.765	160.315	23.414	-8191	255	
1180.076	1	1	0	0	0.064555	0.088302	0.26357	0.12606	0.11007	0.16568	0.1629	0.14335	0.076772	0.22667	0.18758	0.26785	0.043623	0.075823	0.29914	0.12724	-2.8833	-3.6479	-3.9917	-3.2979	-3.9833	-3.5125	-3.3375	-4.1813	-3.2812	-3.5979	-4.0375	-3.2104	-3.7583	-3.7583	-3.1521	-4.1875	203.851	168.054	193.996	195.798	-1.578	68.544	330.935	231.103	173.230	206.575	288.318	315.507	286.503	353.855	14.717	337.721	0.0015087	0.0008839	0.00027048	928.21	6.0944e-06	2.2519e-06	1326.7	312.78	6.8143e-06	7.8613e-06	542.93	203.67	105.83	39.41	9.0376e-06	89.536	0.00065845	0.00064757	0.00017686	842.81	6.9319e-06	7.1543e-06	1201.6	284.89	7.0758e-06	7.1649e-06	494.26	185.27	97.102	36.332	7.2966e-06	81.898	25.576	61.479	104.288	10.881	140.711	254.577	11.239	15.976	140.601	175.965	15.341	19.548	20.346	24.427	161.150	23.076	-8191	255	
1180.172	1	1	0	0	0.12317	0.13822	0.045253	0.085354	0.08467	0.068058	0.18819	0.32973	0.15533	0.21062	0.14448	0.24819	0.082584	0.15537	0.034988	0.16413	-3.0229	-3.4521	-3.9146	-3.2812	-3.8375	-3.6229	-3.3542	-4.1625	-3.3688	-3.3083	-4.1687	-3.275	-3.7146	-3.9437	-3.1813	-4.1	355.697	342.416	44.973	292.646	211.454	99.248	344.732	304.271	157.517	258.423	350.474	309.583	145.109	287.715	324.995	327.240	0.0013962	0.0011164	0.00017743	921.45	8.2275e-06	6.7548e-06	1307.2	309.21	1.7704e-05	1.072e-05	537.71	198.76	103.52	38.323	4.6289e-06	87.842	0.00068346	0.00068775	0.00018763	841.11	7.417e-06	7.6546e-06	1188.7	281.23	7.4689e-06	7.8242e-06	488.45	181.7	95.224	35.503	7.9225e-06	80.384	18.283	63.746	113.044	11.262	144.779	180.451	11.241	15.981	112.515	177.277	15.221	19.200	20.523	24.634	136.542	23.058	-8191	255	
1180.269	1	1	0	0	0.070067	0.2235	0.22995	0.34072	0.18815	0.16254	0.19974	0.1571	0.080016	0.20014	0.26598	0.10614	0.14239	0.1917	0.095206	0.066949	-2.9833	-3.2958	-3.9813	-3.3354	-3.6875	-3.7938	-3.2458	-4.1354	-3.55	-3.3479	-4.1479	-3.3646	-3.7667	-3.9292	-3.2667	-4.2063	268.314	323.389	337.357	49.331	273.260	158.110	271.240	303.022	328.853	236.078	265.488	343.655	166.138	295.053	107.444	204.841	0.0012525	0.00074829	0.0001741	906.88	4.2725e-06	6.1811e-06	1298.1	305.98	7.8023e-06	2.6682e-06	533.24	200.82	104.29	39.003	1.1477e-05	88.102	0.00072669	0.0007182	0.00020021	831.15	7.8496e-06	7.9154e-06	1183.9	279.35	7.4585e-06	7.7349e-06	486.04	182.74	95.761	35.976	7.6766e-06	80.978	20.617	58.476	116.247	11.302	105.370	148.117	11.253	15.870	179.942	69.486	15.286	19.585	20.418	24.614	190.311	23.400	-8191	255	
1180.389	1	1	0	0	0.076572	0.1842	0.10962	0.17735	0.31995	0.037023	0.098049	0.13225	0.097714	0.083366	0.10711	0.26643	0.07088	0.18878	0.21582	0.25582	-3.2271	-3.3125	-3.9792	-3.3812	-3.5104	-3.8604	-3.4604	-3.9792	-3.6813	-3.1604	-4.0146	-3.4021	-3.4708	-3.8646	-3.1354	-4.0146	55.487	213.698	334.736	304.787	211.311	27.278	303.698	219.166	181.477	102.626	230.932	44.609	183.830	281.511	282.637	331.702	0.001375	0.00087259	0.0001452	902.27	7.3446e-06	4.525e-06	1306.7	310.01	9.5309e-07	2.5384e-07	535.86	202.41	105.57	39.393	1.0531e-05	89.815	0.00072293	0.00069874	0.00019431	829	7.7225e-06	7.5892e-06	1183.7	281.81	7.3339e-06	7.4561e-06	489.32	184.77	97.049	36.387	7.3038e-06	82.207	16.877	70.871	43.477	11.336	167.023	104.005	11.218	16.187	333.766	221.151	15.271	19.699	20.400	24.625	184.127	23.398	-8191	255	
1180.485	1	1	0	0	0.20736	0.076087	0.14893	0.079155	0.10418	0.10368	0.33994	0.22079	0.12167	0.33152	0.059693	0.27199	0.26112	0.050746	0.10072	0.2288	-3.4583	-3.475	-3.8	-3.3375	-3.3958	-4.0938	-3.2792	-4.0062	-3.7875	-3.1021	-3.9458	-3.6562	-3.4	-4.0521	-3.0812	-3.8479	18.773	318.997	197.069	120.266	141.168	70.960	324.973	280.496	50.694	71.151	351.803	24.010	20.125	78.216	73.708	255.706	0.001467	0.0012102	3.0985e-05	912.77	1.0658e-05	8.926e-06	1312.8	310.64	1.0302e-05	3.3976e-06	539.64	203.42	105.67	39.334	1.4131e-05	89.431	0.00070873	0.0006899	0.0001879	837.83	7.6095e-06	7.6362e-06	1192	283.34	7.4137e-06	7.6501e-06	492.05	184.63	97.093	36.202	7.4197e-06	81.433	10.500	53.984	80.832	11.431	164.739	160.301	11.193	16.302	138.434	168.803	15.708	19.554	20.589	24.932	150.510	23.001	-8191	255	
1180.582	1	1	0	0	0.14547	0.23116	0.13571	0.24452	0.10028	0.045818	0.055906	0.29559	0.083241	0.091304	0.27449	0.12852	0.26337	0.14345	0.18834	0.20665	-3.4813	-3.1188	-4.0521	-3.6708	-3.2812	-3.85	-3.3604	-3.8146	-4.0021	-3.0396	-3.9417	-3.85	-3.2833	-3.9042	-3.3854	-3.5146	241.656	37.635	75.038	307.561	151.250	226.013	83.774	16.346	184.299	109.950	238.956	322.736	287.283	325.358	81.832	245.733	0.0013833	0.001266	0.00022743	910.89	1.1116e-05	9.0775e-06	1293.8	306.48	7.2121e-06	9.4803e-06	533.09	198.23	103.31	38.389	6.386e-06	87.574	0.00072293	0.00071024	0.00019054	834.56	7.7643e-06	7.5223e-06	1180.9	279.46	7.5434e-06	7.5824e-06	484.6	181	94.909	35.394	7.1629e-06	80.265	16.529	102.741	48.788	10.949	104.438	140.057	11.006	15.790	164.327	115.708	15.424	19.218	20.094	24.283	170.331	23.560	-8191	255	
1180.678	1	1	0	0	0.098188	0.024513	0.072699	0.11533	0.27763	0.2155	0.25819	0.23905	0.12734	0.2522	0.075465	0.17429	0.11769	0.28097	0.2061	0.1297	-3.525	-3.2188	-3.7292	-3.8479	-3.1458	-4.0417	-3.6125	-3.3937	-4.0062	-3.1792	-3.8979	-3.8875	-3.275	-4.0792	-3.3854	-3.3979	100.895	250.952	52.915	250.065	200.546	24.826	310.009	245.890	308.794	195.127	22.292	344.769	189.392	252.354	16.919	311.592	0.0013108	0.00068904	0.00038754	900.09	4.0861e-06	6.0674e-06	1289	304.98	4.8812e-06	1.0095e-05	532.5	200.39	104.37	38.817	5.1649e-06	89.359	0.00068954	0.000663	0.00018381	825	7.3096e-06	7.1841e-06	1174	278.27	7.0249e-06	7.0896e-06	484.71	182.1	95.505	35.863	6.8816e-06	81.282	19.126	75.137	128.163	10.663	199.007	137.711	10.899	16.007	75.855	143.633	15.343	19.225	20.639	24.620	158.127	23.339	-8191	255	
1180.774	1	1	0	0	0.031882	0.15545	0.21478	0.23525	0.29356	0.04585	0.26522	0.23301	0.058847	0.21923	0.1733	0.10474	0.1149	0.15263	0.1503	0.17295	-3.5708	-3.2042	-3.8792	-3.8688	-3.0292	-3.9208	-3.6917	-3.4229	-3.9688	-3.1667	-3.8417	-4.0667	-3.2125	-4.1167	-3.6396	-3.4083	57.385	108.880	229.079	354.638	0.139	109.035	347.776	301.135	36.886	262.696	10.744	334.374	260.556	277.099	234.665	310.658	0.0010598	0.00072521	0.00025031	901	1.0836e-05	1.1921e-05	1302.4	306.64	1.1533e-05	1.1138e-05	541.48	201.42	105.27	39.058	8.1925e-06	89.941	0.00065492	0.00061999	0.00017287	824.14	6.7295e-06	6.5232e-06	1180.2	279.76	6.415e-06	6.3451e-06	488.94	183.58	95.95	36.033	6.4673e-06	81.643	19.679	106.789	108.439	11.374	185.167	138.390	10.968	16.408	127.399	154.848	14.995	19.596	20.564	24.409	185.149	23.578	-8191	255	
1180.868	1	1	0	0	0.12553	0.21287	0.17846	0.1913	0.10538	0.067793	0.30287	0.19712	0.080426	0.051346	0.13476	0.27294	0.083723	0.11842	0.16598	0.10909	-3.6708	-3.2812	-3.5333	-3.8667	-3.1792	-4	-3.8333	-3.4917	-4.0938	-3.2375	-3.5417	-4.1979	-3.1917	-3.8333	-3.7708	-3.3042	261.874	229.700	297.726	208.321	331.218	131.015	265.354	315.729	252.024	139.098	346.893	347.769	240.364	59.104	104.911	98.120	0.001412	0.0010335	0.00028969	908.21	6.6408e-06	9.8811e-06	1312.8	308.19	1.0063e-05	7.1459e-06	535.15	200.98	103.99	38.453	1.3712e-05	87.442	0.00062129	0.00060296	0.00017031	831.88	6.6168e-06	6.614e-06	1190.3	280.87	6.5712e-06	6.8005e-06	487.87	182.76	95.377	35.418	6.977e-06	79.921	12.465	103.646	93.738	11.158	151.225	131.433	11.209	16.001	103.827	166.527	15.278	19.622	20.055	25.091	148.249	23.424	-8191	255	
1180.966	1	1	0	0	0.22489	0.096341	0.23292	0.14546	0.22218	0.22454	0.3478	0.30064	0.045808	0.1229	0.14888	0.017055	0.21498	0.17719	0.13757	0.23892	-3.7438	-3.2833	-3.5229	-4.1042	-3.2562	-3.7542	-3.9875	-3.2875	-4.0792	-3.6729	-3.6042	-4.1104	-3.2229	-3.6542	-3.7896	-3.275	275.329	314.816	324.834	348.294	185.843	92.856	285.843	311.436	107.409	294.940	286.717	193.133	30.602	348.757	139.188	311.334	0.0012399	0.00065174	0.00010844	911.01	8.8113e-06	4.0872e-06	1307.7	303.42	1.2529e-05	8.8693e-06	527.4	196.89	102.62	37.183	9.3541e-06	85.531	0.00064755	0.00062957	0.00017424	835.34	6.8195e-06	6.8944e-06	1187.2	277.14	6.8394e-06	6.9921e-06	481.56	179.58	93.891	34.369	6.8963e-06	77.848	14.150	58.431	327.057	11.328	181.591	149.692	10.753	15.579	182.945	138.704	14.541	19.099	19.699	24.218	96.431	22.845	-8191	255	
1181.085	1	1	0	0	0.29297	0.23197	0.24099	0.16853	0.086444	0.10528	0.22457	0.088124	0.13078	0.1169	0.14986	0.15336	0.14594	0.054394	0.13752	0.21419	-3.5396	-3.4542	-3.2604	-4.0292	-3.4813	-3.5771	-4.0813	-3.4354	-3.9208	-3.6458	-3.1958	-4.2021	-3.2313	-3.7375	-3.9917	-3.3729	271.788	159.521	166.295	283.753	29.330	109.379	341.846	182.881	136.751	294.222	311.424	243.646	356.708	29.734	48.647	325.029	0.0012399	0.00064254	0.00021438	911.32	5.9861e-06	7.7917e-06	1297.5	303.74	1.8381e-05	9.9316e-06	526.51	197.19	102.88	37.901	6.2844e-06	86.865	0.00065638	0.0006305	0.00018127	829.87	6.7833e-06	7.0676e-06	1176.9	276.35	6.725e-06	6.8266e-06	480.58	179.93	94.215	34.954	6.7028e-06	79.362	16.205	52.690	85.735	10.550	95.863	124.786	10.540	15.452	138.501	192.110	14.779	18.941	19.696	23.883	186.804	22.720	-8191	255	
1181.181	1	1	0	0	0.2275	0.11672	0.066197	0.16261	0.1309	0.14918	0.17868	0.1052	0.19075	0.12937	0.055434	0.18353	0.36011	0.14542	0.27832	0.27849	-3.4042	-3.7062	-3.1854	-3.9688	-3.3771	-3.3417	-4.0708	-3.1604	-3.7417	-3.6896	-3.2375	-4.0292	-3.3729	-3.3896	-3.9938	-3.2896	186.958	350.086	52.154	48.816	108.439	292.619	9.135	263.498	216.301	99.104	240.085	305.416	38.473	94.174	299.838	301.243	0.0014673	0.00039072	0.0002719	914.1	8.9287e-06	9.1472e-06	1315	310.33	8.465e-06	9.8487e-06	541.23	203.04	106	39.19	9.2878e-06	89.173	0.00063795	0.0006182	0.00017005	832.47	6.6006e-06	6.8395e-06	1190.3	281.88	6.5004e-06	6.727e-06	491.82	185.45	97.094	36.051	6.7603e-06	81.57	17.174	121.422	91.655	10.666	128.620	143.487	10.834	15.466	142.916	179.726	15.146	19.046	19.632	24.263	153.383	22.822	-8191	255	
1181.277	1	1	0	0	0.0085848	0.070672	0.14279	0.26303	0.14157	0.11577	0.1899	0.33687	0.17789	0.26776	0.13084	0.17743	0.17073	0.27048	0.16597	0.11304	-3.4854	-3.8187	-3.1083	-4.1917	-3.5062	-3.3417	-4.1729	-3.2396	-3.675	-3.9417	-3.35	-4.125	-3.5979	-3.4896	-4.0563	-3.4521	82.510	34.827	133.642	27.605	110.596	144.378	269.967	294.041	234.333	250.348	19.811	257.875	101.403	274.471	81.418	306.615	0.0011781	0.00056578	0.00019719	924.92	5.2949e-06	6.3429e-06	1319.2	310.58	2.1303e-05	8.8321e-06	539.98	202.59	104.22	38.524	1.3084e-05	88.046	0.00064607	0.00062557	0.00017683	842.6	6.8053e-06	7.103e-06	1200.4	283.04	7.071e-06	6.9866e-06	492.1	184.27	96.013	35.65	6.855e-06	80.554	17.250	26.035	85.320	10.970	208.218	139.301	11.071	15.520	144.044	164.240	14.914	19.046	19.934	24.232	164.823	22.716	-8191	255	
1181.373	1	1	0	0	0.049994	0.27687	0.1986	0.092649	0.15292	0.016765	0.17589	0.23461	0.14056	0.23884	0.30301	0.33	0.37695	0.17585	0.12412	0.24234	-3.2	-3.9437	-3.2104	-3.9708	-3.6833	-3.3146	-4.1771	-3.5833	-3.5167	-4.0146	-3.325	-3.8708	-3.5062	-3.1958	-4.0417	-3.5417	273.830	217.327	72.502	-1.134	140.560	144.893	62.561	325.484	294.877	348.030	328.228	47.212	9.481	52.510	229.143	20.483	0.0014261	0.000822	0.00018548	914.59	4.4228e-06	1.2587e-05	1310.9	305.52	9.4048e-06	1.3236e-05	526.93	199.15	102.69	37.277	7.462e-06	85.575	0.00067293	0.00063693	0.0001765	838.13	7.1078e-06	7.0334e-06	1190.4	277.84	6.9585e-06	6.9694e-06	481.57	180.93	93.897	34.434	6.8066e-06	78.1	21.087	77.080	90.546	10.999	80.059	169.269	10.840	15.619	98.817	149.097	14.940	19.085	20.109	24.137	188.121	22.870	-8191	255	
1181.470	1	1	0	0	0.1928	0.16744	0.14096	0.20199	0.31978	0.18116	0.082584	0.077521	0.23489	0.21947	0.37423	0.24262	0.13338	0.16727	0.068589	0.088964	-2.9021	-3.8729	-3.1833	-3.8729	-3.7646	-3.1792	-4.2188	-3.4521	-3.2667	-3.9313	-3.4458	-4.0104	-3.925	-3.1188	-3.9083	-3.5062	23.305	158.477	349.748	245.706	44.288	330.001	286.139	40.496	274.747	215.097	177.324	267.380	352.294	32.409	79.437	232.534	0.0012384	0.00065441	0.00017058	904.06	1.1092e-05	6.8899e-06	1290.6	300.77	4.6853e-06	1.3732e-05	526.12	195.95	101.26	37.131	7.3655e-06	85.38	0.00064711	0.00062265	0.00017354	827.33	6.8522e-06	6.9042e-06	1175.9	274.13	6.9529e-06	6.781e-06	478.4	178.42	92.968	34.318	6.7313e-06	78.069	32.038	60.592	61.398	11.278	186.247	131.278	10.612	15.623	193.930	163.263	14.874	19.341	19.796	24.447	163.153	22.682	-8191	255	
1181.566	1	1	0	0	0.10867	0.16583	0.15659	0.13551	0.12245	0.15077	0.24528	0.4533	0.099077	0.16996	0.33668	0.11214	0.063421	0.25848	0.20367	0.18182	-2.8708	-4.0021	-3.3104	-3.7146	-3.8063	-3.0479	-4.0771	-3.7438	-3.325	-3.9688	-3.3896	-3.7104	-4.0146	-3.1979	-3.9833	-3.8625	157.244	66.200	170.962	236.836	135.820	104.288	277.896	332.229	210.334	164.170	305.942	25.583	72.080	295.860	125.478	206.122	0.0012506	0.001232	0.00016836	911.33	1.0518e-05	3.1135e-06	1305.4	304.12	1.3473e-05	3.5462e-06	529.62	199.56	103.58	38.365	7.5734e-06	88.067	0.00066242	0.00061494	0.00017072	830.42	6.741e-06	6.895e-06	1183.6	276.04	6.9969e-06	6.668e-06	483.43	181.7	94.592	35.178	6.8228e-06	80.599	19.522	65.639	92.498	10.799	155.047	110.626	10.876	15.626	147.887	127.511	15.144	19.509	19.723	24.532	116.847	23.016	-8191	255	
1181.686	1	1	0	0	0.2018	0.049856	0.041921	0.049311	0.16561	0.049095	0.18322	0.27618	0.14179	0.43758	0.082431	0.41149	0.22971	0.12418	0.22895	0.008117	-2.8146	-4.0708	-3.1	-3.6229	-3.9292	-3.3271	-4.0417	-3.8354	-3.1937	-3.9542	-3.5104	-3.4146	-4.0458	-3.1833	-3.7875	-3.7854	278.445	25.398	229.119	264.630	312.274	234.740	345.128	301.936	222.475	206.002	275.687	294.602	349.498	3.964	311.445	75.831	0.0014252	0.00028869	0.0003002	914.17	2.9638e-06	1.2045e-05	1321.1	308.24	8.3094e-06	3.728e-06	538.89	200.84	103.82	38.321	7.6567e-06	87.992	0.00066709	0.00061361	0.000171	837.17	6.9787e-06	6.8056e-06	1198.6	281.1	7.0326e-06	6.8316e-06	489.4	183.15	95.118	35.301	6.9678e-06	80.452	22.208	146.058	107.229	11.126	93.192	128.461	10.727	15.464	141.812	184.028	15.249	19.460	20.002	24.729	131.928	23.000	-8191	255	
1181.781	1	1	0	0	0.33446	0.19152	0.17453	0.44825	0.19547	0.1893	0.29132	0.035882	0.19908	0.063928	0.19726	0.018062	0.35044	0.015763	0.071858	0.21999	-2.8729	-3.9896	-3.2938	-3.2792	-3.9437	-3.1333	-3.9854	-3.9146	-3.325	-3.9938	-3.7958	-3.5646	-4.0375	-3.3	-3.4688	-4.1083	204.334	244.115	327.466	162.164	111.507	162.066	310.896	265.681	166.472	168.472	16.720	135.501	304.948	3.185	212.475	290.414	0.0015774	0.000191	0.00017416	919.95	7.4966e-06	8.6047e-06	1303.9	305.05	7.4421e-06	4.5237e-06	535.39	198.59	102.78	37.918	8.316e-06	86.422	0.00067957	0.00062168	0.00018051	838.85	6.8511e-06	6.9873e-06	1186.3	277.62	7.0783e-06	7.0993e-06	483.98	180.8	93.976	34.888	7.2348e-06	78.849	16.135	96.428	109.044	11.436	116.741	128.580	11.226	15.661	148.766	104.226	15.395	19.640	20.151	24.391	134.875	22.879	-8191	255	
1181.877	1	1	0	0	0.28799	0.15889	0.27027	0.048563	0.14053	0.20883	0.39799	0.14213	0.085551	0.25104	0.31111	0.23117	0.1045	0.16182	0.27699	0.17998	-2.8167	-3.9083	-3.5042	-3.2521	-3.9771	-3.3771	-3.6333	-4.1375	-3.2583	-3.8812	-3.75	-3.3417	-4.0813	-3.3396	-3.4625	-4.0062	250.753	127.591	136.522	34.695	304.713	4.707	237.022	242.191	352.744	7.862	316.497	293.059	1.951	7.733	55.474	311.321	0.0013901	0.00052935	0.00014479	905.19	1.0794e-05	3.7392e-06	1295.5	301.59	1.1472e-05	1.0437e-05	531.02	198.37	102.82	38.229	6.7768e-06	88.309	0.00066619	0.00065169	0.00018237	827.77	7.0042e-06	7.1018e-06	1177.6	274.9	6.9422e-06	7.1074e-06	482.08	180.75	93.993	35.227	7.0757e-06	80.437	16.006	64.076	85.539	11.320	111.992	162.051	11.302	16.021	168.869	163.348	14.768	19.063	20.086	24.171	105.773	22.653	-8191	255	
1181.950	1	1	0	0	0.048248	0.017372	0.11068	0.13707	0.15929	0.056275	0.12683	0.22232	0.055953	0.075927	0.0385	0.14897	0.2233	0.1859	0.23576	0.1432	-2.7917	-3.9104	-3.7875	-3.3312	-4.0396	-3.3563	-3.55	-4.2417	-3.2083	-3.8583	-4.1646	-3.4146	-4.1125	-3.5563	-3.3479	-4.3229	58.449	167.891	275.731	286.122	109.070	92.607	24.396	181.096	217.250	356.411	16.076	348.198	317.950	352.911	80.394	293.286	0.0013998	0.00056265	0.00028456	909.83	9.4589e-06	8.1479e-06	1307.5	305.43	1.2701e-05	7.2714e-06	533.05	200.94	104	39.071	1.0168e-05	88.937	0.00067841	0.0006608	0.00018001	828.79	6.8674e-06	7.2017e-06	1182.2	277.31	7.0676e-06	7.2153e-06	485.21	182.64	95.123	35.898	7.2944e-06	81.256	15.441	82.330	79.040	10.992	126.660	162.240	11.241	16.122	135.225	173.543	15.227	19.471	20.439	24.443	139.039	23.441	-8191	255	
1182.047	1	1	0	0	0.18337	0.15345	0.092446	0.14044	0.16408	0.057972	0.1008	0.10874	0.20179	0.24376	0.1008	0.18019	0.35737	0.048617	0.283	0.34708	-2.8187	-3.6271	-3.8375	-3.4062	-3.7771	-3.5208	-3.45	-4.1438	-3.2125	-3.575	-4.0813	-3.1729	-3.8104	-3.5667	-3.1771	-4.1979	308.181	51.977	259.460	296.534	253.652	138.622	79.078	279.130	277.635	109.674	295.251	304.319	58.457	314.565	102.464	326.750	0.0013872	0.00064215	0.00018443	906.81	7.9141e-06	7.7758e-06	1303.6	303.49	8.7422e-06	1.2706e-05	534.83	199.91	102.85	37.925	4.9228e-06	87.281	0.0006965	0.00068727	0.00018843	829.88	7.2918e-06	7.6281e-06	1185.2	277.98	7.6616e-06	7.7419e-06	486.52	182.05	94.584	35.223	7.6881e-06	79.953	17.577	105.910	106.566	11.090	139.917	207.066	11.046	15.719	139.213	123.981	14.781	19.401	20.267	24.464	169.075	23.223	-8191	255	
1182.165	1	1	0	0	0.061237	0.075836	0.072171	0.12431	0.17948	0.10468	0.074585	0.23964	0.15013	0.18191	0.23972	0.080607	0.1939	0.071893	0.17338	0.40783	-3.1375	-3.4875	-3.9458	-3.2729	-3.7875	-3.6583	-3.2667	-4.0625	-3.3688	-3.35	-4.175	-3.2604	-3.8312	-3.6875	-3.3208	-4.3167	233.602	158.933	158.041	55.811	15.237	17.859	144.269	249.850	343.326	25.443	301.970	355.870	338.309	293.174	23.854	299.049	0.0015387	0.00050332	6.9587e-05	910.74	7.6626e-06	9.3179e-06	1295.5	301.74	1.0177e-05	7.6768e-06	527.26	196.55	100.82	37.332	3.8492e-06	86.626	0.00075008	0.00072445	0.00020214	830.02	7.8171e-06	7.7595e-06	1178.7	275.25	7.7679e-06	7.8617e-06	480.01	179	92.977	34.512	7.4624e-06	78.775	14.107	88.077	93.631	11.337	123.751	154.717	11.274	15.432	181.730	115.352	15.474	19.704	20.592	24.654	161.743	22.999	-8191	255	
1182.262	1	1	0	0	0.52572	0.089836	0.1662	0.23765	0.23829	0.065423	0.24592	0.19823	0.16359	0.20615	0.13666	0.14306	0.096263	0.082866	0.20872	0.33968	-3.0021	-3.3312	-4.0229	-3.3104	-3.8125	-3.6188	-3.2833	-4.0479	-3.3958	-3.4813	-4.1125	-3.3646	-3.8187	-3.9458	-3.2188	-4.0479	129.974	166.340	193.943	58.251	323.053	53.495	320.043	256.730	16.807	211.714	259.414	261.497	2.791	138.050	335.794	293.258	0.0013219	0.00057389	7.4079e-05	890.25	1.0266e-05	5.1405e-06	1289.8	299.6	8.7079e-06	5.6582e-06	525.4	196.64	101.74	37.878	8.1711e-06	87.523	0.00072395	0.00070683	0.00019377	819.15	7.4905e-06	7.3167e-06	1169.8	273.43	7.2939e-06	7.4254e-06	478.35	179.24	93.271	34.799	7.067e-06	79.712	18.264	79.484	110.201	10.903	178.615	140.205	11.014	15.941	136.864	129.608	15.349	19.727	20.173	24.651	180.522	23.263	-8191	255	
1182.358	1	1	0	0	0.22986	0.089915	0.061274	0.091349	0.087416	0.089252	0.32344	0.23463	0.21376	0.058488	0.21969	0.094214	0.078209	0.22364	0.16173	0.23782	-3.1562	-3.4062	-3.9562	-3.5021	-3.5854	-4.0396	-3.3292	-3.875	-3.7771	-3.2375	-4.1146	-3.225	-3.5771	-4.0813	-3.1063	-3.9146	1.538	54.980	190.045	293.013	282.488	318.354	260.009	226.102	303.371	1.197	304.308	339.204	308.531	8.392	238.744	318.716	0.0014442	0.0008359	0.00028112	903.58	4.5707e-06	4.1778e-06	1293.6	305.04	8.9592e-06	8.2574e-06	531.86	197.95	102.05	38.165	1.1537e-05	88.157	0.00068239	0.00067433	0.00017627	824.29	7.3613e-06	7.2239e-06	1174.9	276.36	7.5282e-06	7.4335e-06	483.34	180.38	93.959	35.24	7.4929e-06	80.62	19.479	61.697	71.300	10.974	181.240	145.168	11.121	16.156	112.228	188.214	15.656	19.375	20.462	24.586	191.135	23.638	-8191	255	
1182.478	1	1	0	0	0.080177	0.090886	0.062332	0.21006	0.10853	0.051538	0.22808	0.24525	0.25129	0.012273	0.35841	0.34627	0.27966	0.12836	0.12247	0.23612	-3.3563	-3.15	-4.15	-3.6562	-3.5104	-4.1521	-3.2646	-3.7875	-3.8063	-3.0146	-4.1188	-3.7042	-3.2604	-4.0354	-3.2604	-3.8708	263.927	7.885	244.141	68.307	135.223	131.837	313.589	346.962	327.415	336.995	103.104	267.282	335.310	329.804	244.068	282.090	0.0015887	0.00034481	7.9894e-05	905.61	7.7045e-06	1.0799e-05	1312	303.65	1.4556e-05	7.829e-06	539.59	202.5	104.74	39.18	1.2609e-05	89.786	0.0007243	0.00069	0.00018894	828.25	7.6319e-06	7.4188e-06	1189	278.44	7.4468e-06	7.2771e-06	490.41	184.52	96.003	35.981	7.2321e-06	82.201	19.777	55.129	2.422	10.822	76.022	132.369	10.968	15.904	152.188	154.778	15.780	19.522	20.914	25.013	207.257	23.360	-8191	255	
1182.550	1	1	0	0	0.21224	0.21889	0.09972	0.039458	0.19646	0.10617	0.1576	0.29354	0.20495	0.27054	0.24374	0.2509	0.11305	0.074007	0.364	0.35546	-3.5125	-3.1937	-3.8104	-3.6104	-3.2021	-3.9896	-3.525	-3.7812	-3.8812	-3.1792	-3.9083	-3.6562	-3.3333	-4.1271	-3.3271	-3.5771	46.787	279.832	183.842	66.049	215.727	129.908	239.827	356.881	18.324	105.544	316.906	304.873	115.626	85.113	42.913	214.685	0.0015479	0.0012212	0.00023502	911.88	1.0001e-05	8.3387e-06	1310.2	306.2	1.4521e-05	5.8961e-06	531.3	200.93	103.16	38.302	3.3666e-06	87.863	0.00068352	0.00065839	0.00018251	833.7	7.1228e-06	6.9512e-06	1190	278.86	7.0046e-06	7.0163e-06	485.64	182.46	94.848	35.334	6.9533e-06	80.18	11.700	86.101	109.211	11.004	117.250	137.719	10.528	15.708	140.591	209.121	15.063	18.924	19.808	24.148	122.063	22.833	-8191	255	
1182.646	1	1	0	0	0.16229	0.12071	0.13544	0.17012	0.17653	0.2538	0.16457	0.16943	0.064611	0.089861	0.15408	0.10492	0.055769	0.033744	0.1198	0.3196	-3.5438	-3.125	-3.7875	-3.8021	-3.1437	-4.1167	-3.4417	-3.5563	-3.8917	-3.05	-3.7667	-3.8563	-3.1104	-3.8875	-3.2771	-3.3458	330.734	181.691	171.482	231.920	346.059	287.557	309.739	258.201	74.852	98.456	-0.629	349.698	16.917	13.512	5.967	338.293	0.0013865	0.00051437	0.00016358	906.42	5.8163e-06	5.6172e-06	1287	304.68	1.5105e-05	7.7023e-06	529.93	200.21	103.19	37.952	8.4287e-06	87.616	0.0006771	0.00064804	0.00018372	826.73	7.1044e-06	7.1338e-06	1176.9	276.7	6.8371e-06	6.9622e-06	483.21	181.93	94.333	35.02	6.9804e-06	79.731	19.374	82.933	55.930	10.596	162.090	119.553	10.833	15.313	126.546	150.073	14.819	19.187	20.212	24.430	158.591	23.000	-8191	255	
1182.767	1	1	0	0	0.1155	0.22323	0.024684	0.097349	0.23026	0.26917	0.25251	0.22221	0.15928	0.075398	0.19822	0.17178	0.25995	0.15376	0.1316	0.23814	-3.6063	-3.1958	-3.6625	-3.9583	-3.1292	-4.0021	-3.5229	-3.4313	-3.9396	-3.2833	-3.8042	-4.0792	-3.1542	-3.8812	-3.5333	-3.2542	136.755	106.522	315.841	79.653	184.041	294.769	270.330	49.118	346.975	329.402	206.544	335.324	322.796	238.078	133.021	326.779	0.0014637	0.00037187	0.0001029	905.96	1.1952e-05	2.0733e-06	1302.2	302.4	6.0041e-06	7.9943e-06	529.65	198.87	101.77	37.686	2.7692e-06	86.777	0.0006636	0.00063812	0.00018009	827.12	6.9321e-06	6.9521e-06	1182.1	275.43	6.9854e-06	7.2169e-06	483.43	181.13	93.894	34.871	7.4562e-06	79.285	25.430	115.520	89.136	10.752	129.024	168.825	10.920	15.600	154.850	99.155	14.522	18.903	20.162	23.929	108.581	22.776	-8191	255	
1182.861	1	1	0	0	0.094164	0.014982	0.12676	0.098415	0.088632	0.16772	0.12537	0.21461	0.020546	0.06607	0.20622	0.19306	0.42338	0.11807	0.15161	0.16744	-3.6979	-3.2167	-3.4771	-3.9875	-3.1896	-3.9917	-3.85	-3.5917	-3.975	-3.275	-3.4146	-3.9875	-3.2354	-3.9771	-3.575	-3.2708	231.981	350.225	322.957	346.138	246.146	296.782	9.821	5.546	71.031	292.073	253.797	349.820	29.474	187.792	133.337	14.387	0.001398	0.00039401	0.00024542	905.18	3.3222e-06	5.3316e-06	1302.4	304.03	1.0164e-05	8.1212e-06	527.68	197.27	101.69	37.428	3.4308e-06	85.941	0.00069966	0.00069372	0.00019634	831.08	7.3326e-06	7.6666e-06	1184.4	276.77	7.3751e-06	7.7578e-06	481.9	180.26	93.434	34.526	7.5695e-06	78.654	21.911	47.958	100.962	11.023	199.449	153.169	11.073	15.530	109.297	134.504	15.132	19.111	20.008	24.099	45.197	22.790	-8191	255	
1182.959	1	1	0	0	0.12352	0.038252	0.21964	0.24658	0.11337	0.13324	0.21284	0.33202	0.21856	0.34394	0.07555	0.22268	0.25592	0.01081	0.059328	0.16254	-3.6396	-3.5042	-3.3167	-4.0271	-3.1854	-3.6542	-4.0146	-3.2104	-3.9813	-3.5646	-3.4625	-4.3021	-3.1917	-3.7938	-3.8479	-3.2333	194.426	-0.755	188.439	353.206	302.009	330.435	94.681	341.059	312.715	304.811	232.779	326.318	16.849	57.327	310.304	266.798	0.0011858	0.00055628	0.00017274	903.24	1.1872e-05	6.2951e-06	1293.8	296.24	6.0156e-06	1.4008e-05	521.66	193.59	99.575	36.25	2.6712e-06	83.573	0.0006945	0.00069242	0.00019305	826.61	7.7034e-06	7.773e-06	1174	272.16	7.677e-06	7.6395e-06	475.06	176.41	91.408	33.594	7.6096e-06	76.411	23.526	96.380	89.016	11.082	142.734	191.519	11.017	15.711	203.864	162.645	15.055	19.268	20.100	24.666	153.875	23.052	-8191	255	
1183.078	1	1	0	0	0.16018	0.14171	0.16508	0.28344	0.18134	0.11971	0.22392	0.16988	0.13552	0.1769	0.25377	0.19296	0.14852	0.16625	0.13037	0.26772	-3.45	-3.4833	-3.1396	-4.0292	-3.175	-3.6521	-4.1208	-3.1875	-3.8354	-3.4979	-3.3688	-4.1604	-3.3125	-3.5917	-4.0062	-3.2854	7.701	194.677	3.774	16.567	296.802	190.005	245.692	304.036	280.498	82.412	202.940	319.436	337.172	283.748	72.537	288.578	0.0011504	0.0013335	0.00011227	888.22	7.3369e-06	9.0666e-06	1280.2	295.25	3.5213e-06	7.4607e-06	520.87	194.57	98.899	36.478	4.6021e-06	84.282	0.00073043	0.00072524	0.00020299	816.33	7.6612e-06	7.9437e-06	1166.2	270.38	7.8376e-06	7.8916e-06	475.1	176.3	91.406	33.82	7.9002e-06	77.476	17.922	55.008	45.881	10.875	184.072	112.734	10.993	15.764	272.606	139.196	15.489	18.980	20.370	24.099	156.147	23.159	-8191	255	
1183.174	1	1	0	0	0.025658	0.090236	0.11808	0.18658	0.10538	0.093508	0.21962	0.28133	0.10461	0.11225	0.17885	0.17192	0.14772	0.17344	0.18007	0.11998	-3.5479	-3.5979	-2.9667	-4.0792	-3.2583	-3.5229	-4.225	-3.2646	-3.6792	-3.6854	-3.1958	-4.3	-3.4167	-3.6833	-3.8604	-3.3937	259.893	46.501	96.003	287.792	5.118	132.860	279.428	312.897	117.312	12.529	71.651	343.482	353.847	5.320	320.319	71.708	0.0010532	0.0008823	7.2675e-05	897.51	1.0829e-05	3.3515e-06	1287.5	295.26	1.7023e-05	1.9424e-06	520.51	194.21	99.094	36.922	3.4649e-06	85.401	0.00075435	0.0007304	0.00020608	820.82	7.9396e-06	8.1351e-06	1169	271.05	8.066e-06	8.0835e-06	475.3	177.02	91.745	34.105	7.8001e-06	78.202	20.852	68.949	69.260	11.187	188.816	79.299	11.076	15.778	156.873	139.483	15.587	19.227	20.117	24.091	144.344	23.418	-8191	255	
1183.246	1	1	0	0	0.11146	0.038586	0.20009	0.10109	0.10936	0.13853	0.10437	0.26174	0.054778	0.07383	0.053658	0.13007	0.20847	0.10593	0.16272	0.3517	-3.3604	-3.7292	-3.0625	-4.075	-3.2938	-3.1104	-4.2188	-3.2229	-3.7396	-3.8646	-3.1333	-4.1562	-3.4521	-3.3083	-3.9688	-3.3937	160.834	315.773	314.480	343.488	149.061	282.426	181.807	6.165	61.887	38.481	234.419	12.812	223.695	279.372	118.517	339.171	0.0012158	0.0010162	0.00016421	906.2	1.2291e-06	4.6207e-06	1296.5	299.49	7.1102e-06	4.2593e-06	526.22	196.8	100.67	36.947	9.2971e-06	85.674	0.00076227	0.00074176	0.00020271	826.34	8.1329e-06	8.0762e-06	1180.8	273.36	7.9106e-06	7.7792e-06	480.75	178.98	92.819	34.314	7.5939e-06	78.646	23.593	111.232	55.582	11.683	260.559	161.041	11.063	15.542	145.564	102.575	15.365	19.532	20.140	25.000	180.637	23.203	-8191	255	
1183.342	1	1	0	0	0.14995	0.25313	0.057786	0.35586	0.19552	0.23108	0.17826	0.15585	0.079127	0.14315	0.38074	0.19117	0.17176	0.20072	0.092463	0.3666	-3.0979	-3.9771	-3.1562	-3.9021	-3.5042	-3.25	-4.2396	-3.3833	-3.5	-3.9604	-3.2125	-3.7958	-3.7292	-3.4125	-4.0021	-3.5062	265.760	27.138	179.519	322.528	49.501	266.491	339.670	251.213	161.365	170.677	341.268	38.789	325.677	311.458	10.480	289.689	0.0012703	0.00071955	0.00032937	899.03	7.3658e-06	5.6525e-06	1298.4	301.19	1.0397e-05	7.5799e-06	526.15	197.04	101.02	37.017	6.042e-07	84.992	0.00072716	0.00067761	0.00019322	826.77	7.421e-06	7.3674e-06	1181.1	274.48	7.3338e-06	6.9651e-06	480.4	179.55	92.911	34.241	6.7445e-06	78.072	11.194	44.707	132.761	10.656	156.855	135.243	11.177	15.650	105.780	125.309	15.141	19.571	20.466	24.886	61.653	23.357	-8191	255	
1183.463	1	1	0	0	0.10356	0.14673	0.057927	0.1924	0.40476	0.12496	0.24506	0.11484	0.039118	0.10293	0.18689	0.51144	0.18096	0.09987	0.23846	0.24634	-3.0187	-3.9562	-3.1583	-3.6021	-3.7896	-3.1417	-4.0208	-3.5479	-3.3667	-4.175	-3.4167	-3.8438	-3.775	-3.25	-3.9667	-3.7854	9.951	188.178	254.723	218.760	322.187	146.958	260.129	270.491	328.180	136.687	2.388	318.277	326.224	230.786	58.099	307.912	0.0014167	0.00034966	0.00023707	900.91	4.0069e-06	1.0649e-05	1295.4	297.71	4.7128e-06	1.988e-06	522.66	196.7	101.27	37.402	4.839e-06	86.378	0.00065309	0.00061283	0.0001744	821.11	6.7876e-06	6.6081e-06	1174.2	272.16	6.7632e-06	6.682e-06	477.84	179.41	92.94	34.529	6.7295e-06	79.01	19.408	143.413	73.055	11.709	141.417	146.624	11.748	16.056	140.673	281.242	15.601	19.928	20.157	25.040	166.551	22.397	-8191	255	
1183.559	1	1	0	0	0.024302	0.20519	0.18699	0.10272	0.18445	0.12057	0.09564	0.21721	0.057886	0.07198	0.053053	0.26396	0.13249	0.089678	0.042733	0.17131	-2.9354	-3.9792	-3.1042	-3.6417	-3.8	-3.1854	-4.1062	-3.6208	-3.35	-3.9104	-3.4292	-3.7479	-3.9167	-3.2625	-3.7708	-3.8333	49.633	141.522	46.756	105.862	122.963	84.340	-1.159	19.498	135.433	52.490	228.372	325.304	244.353	133.100	336.452	273.123	0.0012958	0.0011639	0.00016284	894.35	1.0334e-05	3.5036e-06	1287.6	299.63	1.2185e-05	6.5029e-06	525.46	196.05	100.51	37.323	1.0796e-05	85.067	0.00064868	0.00062475	0.00018124	820.31	6.8568e-06	6.9354e-06	1171.5	272.83	7.1054e-06	7.0693e-06	478.04	178.32	91.896	34.206	7.2759e-06	77.933	28.102	61.361	104.976	11.276	184.490	177.824	11.234	15.589	168.494	166.169	15.093	19.602	20.179	24.685	189.135	23.046	-8191	255	
1183.655	1	1	0	0	0.32035	0.13448	0.11754	0.22232	0.17518	0.23549	0.36679	0.17002	0.094853	0.11487	0.38378	0.28895	0.051488	0.11094	0.15345	0.10604	-2.9646	-3.8688	-3.3438	-3.6562	-3.8146	-3.1854	-3.9604	-3.8937	-3.1458	-3.9271	-3.45	-3.4729	-3.9271	-3.1792	-3.7271	-3.7417	151.008	44.477	95.948	298.412	107.569	165.148	292.583	253.201	216.242	278.732	288.487	331.377	293.919	348.399	88.459	154.353	0.0016164	0.00078423	0.00010312	901.37	8.1575e-06	4.7846e-06	1297.2	297.46	9.6886e-06	9.0323e-06	521.74	194.67	98.857	36.255	8.0896e-06	84.177	0.00069556	0.00067127	0.00019091	823.4	7.0735e-06	7.3864e-06	1178	271.74	7.3045e-06	7.3973e-06	476.17	176.77	91.112	33.355	7.2178e-06	76.543	32.708	110.697	103.559	11.257	140.719	118.888	11.213	15.994	131.491	186.904	15.093	19.520	19.906	24.599	174.285	23.028	-8191	255	
1183.751	1	1	0	0	0.095027	0.19656	0.20996	0.27882	0.13842	0.2403	0.28598	0.045417	0.16469	0.15845	0.18069	0.31051	0.1313	0.15999	0.17701	0.29485	-2.8458	-3.9646	-3.5271	-3.3667	-3.9958	-3.25	-3.7208	-3.8521	-3.2625	-3.8667	-3.7646	-3.475	-3.9521	-3.1979	-3.6354	-4.1542	177.487	191.845	189.316	217.111	62.482	79.373	277.870	71.874	133.893	3.342	313.536	326.818	69.433	350.352	19.600	1.542	0.0015001	0.0010898	0.00010357	905.24	9.5355e-06	6.1957e-06	1289.4	295.94	6.8684e-06	5.1858e-06	514.53	191.42	97.351	35.161	8.8209e-06	82.024	0.0006863	0.00064985	0.0001847	824.01	6.9698e-06	7.2104e-06	1171.3	269.61	6.8947e-06	6.9534e-06	470.04	174.18	89.7	32.455	7.0506e-06	74.753	17.688	65.206	40.549	11.350	129.792	104.847	11.229	15.835	157.984	218.190	15.031	19.704	20.119	24.531	119.316	23.273	-8191	255	
1183.845	1	1	0	0	0.12356	0.08722	0.15542	0.12586	0.15501	0.12914	0.21742	0.062525	0.036916	0.20232	0.17122	0.10699	0.27698	0.031689	0.10633	0.21604	-2.7792	-3.8583	-3.7021	-3.4417	-4.0813	-3.4	-3.6437	-4.0354	-3.1937	-3.9938	-3.8396	-3.2917	-3.8812	-3.3958	-3.475	-4.1208	156.364	288.274	76.933	249.602	110.440	57.704	298.153	350.602	106.623	216.812	308.637	184.829	319.162	181.248	273.409	237.482	0.0013377	0.0011439	0.00011788	893.2	1.169e-05	3.6891e-06	1281.4	291.65	1.2518e-05	8.4693e-06	511.48	189.47	97.304	34.994	5.6653e-06	81.529	0.00065993	0.00064612	0.00017715	818.33	6.834e-06	6.9764e-06	1166	266.93	6.8885e-06	7.0849e-06	467.54	172.78	89.408	32.292	6.9582e-06	74.579	17.965	89.894	21.477	10.913	128.118	110.234	11.195	15.607	122.602	113.385	14.873	19.106	19.699	24.542	123.858	22.746	-8191	255	
1183.942	1	1	0	0	0.33726	0.11473	0.23748	0.22395	0.17865	0.23184	0.06948	0.1865	0.11615	0.057151	0.18246	0.24022	0.14776	0.11901	0.27665	0.189	-2.7104	-3.7396	-3.7542	-3.1396	-3.8292	-3.5396	-3.6021	-4.125	-3.1	-3.8063	-3.8375	-3.2375	-3.8958	-3.4417	-3.2167	-4.2583	139.792	89.420	293.528	102.094	293.420	211.236	352.697	262.554	49.310	88.242	3.356	342.507	334.400	4.161	276.423	71.653	0.00090975	0.00063909	0.00022159	891.07	7.3993e-06	1.0037e-05	1279.6	297.61	7.5147e-06	5.5278e-06	520	193.65	98.784	36.163	9.13e-06	83.661	0.00065962	0.00064594	0.0001763	814.42	7.0696e-06	7.0454e-06	1164.1	269.46	7.0689e-06	7.0898e-06	474.3	176.36	91.087	33.306	6.8714e-06	76.528	16.782	129.057	97.594	11.138	153.839	166.996	11.177	15.777	78.527	191.488	14.890	19.310	20.118	24.563	123.173	22.992	-8191	255	
1184.039	1	1	0	0	0.23101	0.11296	0.46665	0.26891	0.17134	0.15179	0.12013	0.44488	0.16197	0.073441	0.11296	0.22271	0.13388	0.16969	0.2191	0.25575	-2.8583	-3.5875	-3.7792	-3.2458	-4.0333	-3.6167	-3.4354	-4.0583	-3.325	-3.5958	-3.8812	-3.2854	-4.1208	-3.7708	-3.2313	-4.0646	230.548	46.181	271.517	357.677	79.749	259.887	300.253	314.580	222.416	53.341	106.806	59.423	131.433	286.187	139.645	321.563	0.0012412	0.00076541	7.4557e-05	900.27	4.0662e-06	8.3098e-06	1300.4	297.87	1.3612e-05	8.2374e-06	524.85	194	99.287	36.065	4.9363e-06	83.313	0.00065859	0.00063455	0.00017423	820.87	7.0281e-06	6.8825e-06	1178.3	271.66	6.9397e-06	7.0456e-06	477.27	176.93	91.282	33.216	6.9233e-06	76.226	15.611	74.282	155.137	11.529	104.222	184.379	11.312	16.021	120.845	187.922	15.704	19.662	20.677	24.868	190.195	23.475	-8191	255	
1184.158	1	1	0	0	0.18261	0.053518	0.030417	0.0503	0.27032	0.10782	0.13052	0.29526	0.071675	0.10674	0.17438	0.41583	0.13066	0.16605	0.13223	0.13886	-2.8396	-3.5771	-3.9938	-3.1333	-3.8438	-3.6792	-3.3021	-4.3021	-3.2479	-3.4792	-4.0021	-3.3292	-3.8458	-3.7792	-3.0771	-4.1604	135.485	168.092	77.680	250.081	260.105	304.658	271.098	320.392	106.965	164.014	298.899	316.940	297.790	272.004	141.345	286.629	0.0014987	0.0011078	6.0092e-05	899.05	1.1051e-05	4.5792e-06	1293.8	294.7	6.6004e-06	3.1465e-06	515.85	188.06	95.896	34.164	5.3278e-06	79.54	0.00069301	0.00065999	0.00017727	826.67	7.3688e-06	7.2398e-06	1176.8	268.9	7.2227e-06	7.2637e-06	468.81	171.24	88.498	31.561	6.9748e-06	73.104	17.815	101.119	328.060	10.916	173.267	104.131	11.144	15.244	92.033	158.183	14.904	19.047	20.680	24.284	155.068	23.251	-8191	255	
1184.254	1	1	0	0	0.10492	0.053215	0.021093	0.17086	0.16697	0.28134	0.30773	0.13402	0.24318	0.052098	0.2007	0.20562	0.12114	0.20383	0.28497	0.090741	-3.0167	-3.3604	-3.9208	-3.1979	-3.8229	-3.8104	-3.2479	-4.0021	-3.2854	-3.1688	-4.2104	-3.2396	-3.65	-3.8604	-3.1167	-4.1083	339.685	57.781	262.917	315.027	304.543	158.655	269.822	61.953	297.884	302.365	315.327	55.651	126.562	20.947	348.876	339.904	0.0010485	0.0013418	0.00016659	888.87	8.4287e-06	3.6992e-06	1285.4	292.59	1.4431e-05	1.0444e-05	513.39	188.38	96.454	34.298	5.4588e-06	80.713	0.00067396	0.00065577	0.00017852	816.85	7.0526e-06	6.8604e-06	1164.4	266.49	7.1294e-06	7.0962e-06	466.85	171.26	88.656	31.857	6.9895e-06	73.983	14.934	85.905	83.692	10.662	130.750	80.480	11.256	15.831	84.008	132.372	15.728	19.851	20.412	25.252	183.791	23.551	-8191	255	
1184.351	1	1	0	0	0.21216	0.047538	0.33135	0.10493	0.13942	0.19885	0.1017	0.18464	0.13729	0.095489	0.17712	0.16951	0.20436	0.085325	0.097689	0.10439	-3.2021	-3.4708	-4.1417	-3.3354	-3.5938	-3.875	-3.3042	-4.0771	-3.6813	-3.2188	-4.3479	-3.3646	-3.6167	-3.9875	-3.3458	-4.0833	344.119	36.171	64.736	15.791	283.820	162.249	339.710	258.796	327.412	66.238	322.472	350.593	197.509	314.514	101.508	17.848	0.0012366	0.00085173	0.00021512	883.36	1.0104e-05	4.3742e-06	1279.3	294.91	2.3964e-06	8.2172e-06	523.17	192.76	99.247	36.042	5.8542e-06	84.205	0.00066354	0.00063912	0.00017705	811.19	7.2647e-06	7.0015e-06	1165.2	269.54	7.1542e-06	7.1481e-06	474.77	176.1	91.336	33.433	7.2536e-06	77.192	19.502	35.673	86.930	11.766	168.098	107.791	10.867	15.546	111.958	129.927	15.032	18.835	19.790	24.448	174.095	22.864	-8191	255	
1184.447	1	1	0	0	0.083265	0.24943	0.15892	0.30862	0.15126	0.18571	0.20472	0.16131	0.24073	0.21869	0.1151	0.058327	0.20212	0.051944	0.2005	0.29298	-3.5187	-3.2958	-3.9562	-3.4813	-3.4	-4.0292	-3.4062	-3.8792	-3.7042	-3.1792	-4.1208	-3.6708	-3.4104	-4.0458	-3.1646	-3.9854	182.575	127.770	193.736	32.803	176.806	28.048	351.033	302.456	111.240	252.025	272.042	191.021	11.387	147.706	265.890	225.546	0.001318	0.00087037	0.00021008	897.5	1.1921e-05	4.3095e-06	1294.6	296.75	8.845e-06	7.5389e-06	524.73	193.95	98.69	35.958	7.7074e-06	84.151	0.00068462	0.00065401	0.00018056	822.05	7.1352e-06	6.994e-06	1174.8	271.34	6.8732e-06	7.0098e-06	478.22	176.46	90.918	33.179	7.2598e-06	76.862	17.648	78.356	74.167	10.451	123.804	102.985	10.448	15.763	130.734	254.326	14.616	19.127	20.090	24.066	136.417	22.926	-8191	255	
1184.543	1	1	0	0	0.14022	0.09	0.068761	0.18378	0.15786	0.14344	0.10188	0.27427	0.11115	0.17285	0.11761	0.32285	0.07109	0.10023	0.057562	0.090573	-3.2667	-3.1479	-3.8583	-3.5438	-3.2271	-4.1396	-3.4062	-3.75	-3.7625	-3.2062	-4.0583	-3.6917	-3.2833	-4.1083	-3.2542	-3.7021	58.543	185.293	101.176	324.182	113.340	29.202	25.672	66.981	230.146	77.041	242.607	339.093	30.248	17.461	350.146	302.542	0.0010621	0.00023004	0.00029409	894.97	3.9671e-06	9.274e-06	1291.2	295.38	1.5576e-05	5.4026e-06	522.98	192.01	98.592	35.813	9.8692e-06	83.403	0.00067612	0.00063754	0.00018637	820.52	7.0367e-06	7.0722e-06	1173.8	271.03	6.9723e-06	7.2292e-06	475.99	175.31	90.715	33.105	7.0926e-06	76.395	19.947	2.398	95.978	10.669	168.834	115.922	10.626	15.608	171.238	116.630	14.964	19.286	19.996	24.072	172.595	23.192	-8191	255	
1184.639	1	1	0	0	0.16848	0.15525	0.11837	0.025161	0.21836	0.078247	0.29243	0.29542	0.29922	0.19538	0.18693	0.21409	0.19319	0.1558	0.18777	0.3594	-3.5667	-3.2229	-3.9375	-3.7792	-3.2771	-3.9729	-3.3479	-3.4458	-3.9083	-3.1292	-4.05	-3.8375	-3.1479	-4.0938	-3.4042	-3.4375	316.209	79.942	91.166	69.939	217.978	239.671	309.417	270.137	1.793	162.551	173.642	209.375	334.120	252.529	112.494	258.642	0.0010779	0.00051105	7.959e-05	884.82	9.7158e-06	5.8583e-06	1282.5	294.84	9.9045e-06	1.3631e-05	521.94	194.62	99.042	36.627	1.0695e-05	85.074	0.00065328	0.00064248	0.00017945	810.19	6.7012e-06	6.8567e-06	1164.5	269.29	6.7026e-06	6.8859e-06	474.25	176.81	91.025	33.728	6.7695e-06	77.672	32.332	130.557	50.981	11.125	165.390	162.997	11.347	15.878	150.393	126.027	15.905	19.622	20.802	24.880	142.190	23.466	-8191	255	
1184.760	1	1	0	0	0.024858	0.083608	0.20638	0.048281	0.012094	0.044056	0.28995	0.12455	0.1619	0.14767	0.098091	0.24698	0.20673	0.16178	0.11259	0.079945	-3.6188	-3.3625	-3.6396	-3.8458	-3.25	-3.9042	-3.7	-3.425	-3.8937	-3.2646	-3.9229	-3.9042	-3.3521	-3.9938	-3.4542	-3.4042	213.907	272.396	32.282	329.812	246.843	3.723	284.836	357.256	77.588	8.205	305.386	19.724	32.392	337.007	158.619	312.763	0.0014429	0.00029299	0.00019313	889.16	7.3091e-06	4.8297e-06	1289.8	299.03	5.4864e-06	5.0001e-06	526.73	197.39	100.87	37.618	8.9088e-06	87.077	0.00063561	0.00063261	0.00017709	813.79	6.9031e-06	7.0809e-06	1170.3	272.76	6.9469e-06	6.9304e-06	480.1	179.46	92.832	34.582	6.7623e-06	79.442	19.993	85.197	97.432	11.338	156.369	145.126	11.385	15.908	168.506	183.705	14.856	19.020	19.645	24.368	144.321	22.780	-8191	255	
1184.854	1	1	0	0	0.091509	0.15027	0.19435	0.13453	0.078205	0.0009548	0.1067	0.081	0.19448	0.18064	0.31028	0.18058	0.17217	0.21733	0.31251	0.28013	-3.5479	-3.3396	-3.5604	-3.8396	-3.0042	-3.9688	-3.5667	-3.375	-3.9313	-3.3	-3.6042	-3.9854	-3.1771	-3.8917	-3.6979	-3.2708	181.605	69.770	90.072	226.561	348.601	180.000	247.343	287.993	348.676	293.047	310.072	304.445	298.481	237.383	21.209	353.516	0.0013928	0.0010161	0.00016814	909.08	1.1402e-05	4.5979e-06	1299.1	305.6	1.0327e-05	6.5917e-06	539.35	202.36	102.97	38.339	1.2238e-05	88.649	0.00063861	0.00062308	0.00017196	822.71	6.9548e-06	6.9627e-06	1182.6	278.35	6.8221e-06	7.0478e-06	490.13	183.84	94.842	35.332	6.7009e-06	80.948	17.667	115.401	86.690	10.653	165.745	113.372	10.702	15.482	133.512	171.666	14.747	19.101	19.854	24.277	155.044	22.676	-8191	255	
1184.950	1	1	0	0	0.072409	0.11007	0.25324	0.017096	0.1096	0.25656	0.23175	0.16869	0.1141	0.15892	0.32866	0.15737	0.15722	0.30414	0.024893	0.36205	-3.6146	-3.3271	-3.45	-4.05	-3.2333	-3.8854	-3.8896	-3.2979	-3.9729	-3.3917	-3.5312	-4.1292	-3.2208	-3.8354	-3.6458	-3.3104	321.124	116.261	275.308	83.462	169.024	192.994	299.479	233.205	164.491	142.998	6.127	25.107	145.319	0.950	107.400	260.364	0.0013228	0.00073627	0.00032368	893.4	5.9383e-06	7.5682e-06	1301.1	304.52	9.4357e-06	3.7697e-06	537.69	199.73	102.39	38.112	5.3805e-06	87.5	0.00065908	0.00063752	0.00017023	823.9	6.9211e-06	6.9814e-06	1185.5	278.26	6.7074e-06	6.7313e-06	488.56	182.36	94.323	34.934	6.2027e-06	79.853	19.961	60.756	111.867	10.690	114.884	186.745	10.642	15.528	74.993	94.887	14.822	19.033	19.860	24.298	244.882	22.744	-8191	255	
1185.046	1	1	0	0	0.11783	0.22905	0.17252	0.043727	0.21001	0.16565	0.24162	0.17652	0.20674	0.18949	0.16368	0.079221	0.27023	0.23513	0.086798	0.10692	-3.4688	-3.3979	-3.2042	-4.1271	-3.3146	-3.7229	-4.0333	-3.2875	-3.8146	-3.4667	-3.3563	-4.0312	-3.3063	-3.6229	-3.9313	-3.1667	274.044	351.780	141.730	283.044	186.499	8.850	305.579	245.192	68.226	354.807	3.003	302.211	265.178	12.613	147.402	312.321	0.0014205	0.00089489	0.0002501	893.63	4.4029e-06	2.4942e-06	1309.5	302.46	1.0922e-05	5.7015e-06	534.86	200.11	102.68	37.65	7.2033e-06	86.606	0.00062178	0.0005874	0.00015836	816.94	6.3603e-06	6.2949e-06	1180.4	276.06	6.5177e-06	6.2959e-06	486.73	181.56	93.72	34.737	6.0917e-06	79.476	14.379	66.030	96.241	11.236	118.271	101.379	10.782	15.676	181.700	176.079	14.597	19.057	20.123	24.144	165.470	22.734	-8191	255	
1185.143	1	1	0	0	0.14046	0.18107	0.10921	0.22329	0.21614	0.33885	0.38306	0.32142	0.15641	0.13753	0.020172	0.3076	0.22532	0.16242	0.25791	0.099607	-3.4604	-3.4042	-3.1063	-4.0396	-3.4292	-3.3667	-4.1292	-3.1771	-3.8187	-3.6937	-3.2292	-4.0896	-3.4292	-3.4271	-3.8667	-3.325	340.449	128.162	235.939	15.621	105.184	122.711	313.210	308.346	48.547	136.233	173.057	6.616	97.642	35.501	294.598	318.982	0.0014379	0.00073137	3.7681e-05	892.76	9.045e-06	7.0629e-06	1306.5	305.06	7.2917e-06	4.309e-06	538.86	201.16	103.89	38.246	5.5336e-06	88.255	0.00059441	0.00055217	0.00014741	818.12	5.9715e-06	5.7422e-06	1182.8	278.41	5.8833e-06	5.6707e-06	489.98	183.21	95.116	35.073	5.534e-06	80.559	18.690	100.920	58.968	10.784	97.702	109.539	11.243	15.519	188.503	131.211	14.883	19.239	19.975	24.276	190.044	23.067	-8191	255	
1185.239	1	1	0	0	0.081129	0.27542	0.22868	0.10263	0.24261	0.097175	0.27163	0.29892	0.20159	0.17655	0.29665	0.10792	0.17311	0.31686	0.11934	0.23376	-3.2313	-3.6479	-3.1562	-4.0354	-3.4229	-3.4688	-4.1042	-3.3292	-3.6854	-3.9354	-3.2583	-4.025	-3.5438	-3.475	-4.1396	-3.3667	273.193	320.828	202.424	203.268	245.458	288.811	350.091	317.509	2.048	215.805	345.002	315.916	-0.907	34.951	224.642	302.126	0.0013533	0.001149	0.00012015	910.6	1.1873e-05	6.1314e-06	1325.1	310.94	1.4727e-05	5.3322e-06	551.5	205.3	105.63	38.991	2.8811e-06	90.121	0.00056744	0.00050717	0.00014136	827.58	5.5414e-06	5.3484e-06	1196.8	283.38	5.5574e-06	5.3165e-06	499.13	186.72	96.549	35.879	5.3179e-06	82.013	12.456	82.185	92.984	10.820	156.155	162.615	10.694	15.476	159.381	160.372	15.055	19.100	19.609	24.398	199.427	22.933	-8191	255	
1185.335	1	1	0	0	0.17337	0.2139	0.074486	0.10545	0.049732	0.14749	0.26975	0.12258	0.13078	0.021247	0.21941	0.15395	0.24223	0.17442	0.032827	0.16216	-3.2	-3.8125	-3.275	-3.8958	-3.65	-3.2479	-4.2562	-3.5521	-3.5687	-3.95	-3.125	-3.8063	-3.6292	-3.3917	-4.0083	-3.3521	56.234	245.922	152.682	319.676	349.506	261.589	295.957	287.553	213.339	179.599	255.911	314.649	347.588	28.453	222.591	183.318	0.0014543	0.0010078	0.00035304	918.65	1.3704e-05	1.0021e-05	1327.5	312.01	9.7823e-06	8.3179e-06	545.59	205.62	106.17	38.737	1.3321e-05	88.25	0.00053198	0.0004831	0.00013748	834.56	5.4016e-06	5.4049e-06	1201.9	283.17	5.4504e-06	5.3682e-06	496.21	185.9	96.069	35.411	5.7026e-06	80.561	18.072	60.312	63.794	10.770	165.053	126.019	10.781	15.552	158.627	145.790	14.728	18.864	19.077	24.226	150.654	22.530	-8191	255	
1185.431	1	1	0	0	0.030036	0.16087	0.27759	0.095699	0.03551	0.15232	0.17119	0.23154	0.21314	0.12234	0.21837	0.22095	0.20417	0.10481	0.16098	0.28687	-3.1083	-4.025	-3.2333	-3.7313	-3.7083	-3.2125	-4.0521	-3.3729	-3.4813	-3.9354	-3.3792	-3.6813	-3.8396	-3.1979	-4.0437	-3.6333	61.790	98.027	35.932	31.122	60.507	321.710	331.267	314.056	294.897	18.810	335.774	288.595	326.303	56.908	91.577	8.990	0.0013575	0.00054381	0.00017575	912.31	9.1675e-06	3.3502e-06	1304.9	303.5	7.4649e-06	5.3378e-06	532.99	198.23	101.51	37.198	8.188e-06	86.598	0.00055508	0.0005181	0.00014704	827.58	5.7514e-06	5.8897e-06	1185.9	276.65	5.8447e-06	5.7758e-06	483.56	179.91	92.939	34.254	5.9386e-06	78.762	11.845	63.776	57.198	10.577	152.771	172.868	10.923	15.397	101.133	165.862	14.841	19.332	19.726	24.469	142.398	22.567	-8191	255	
1185.552	1	1	0	0	0.12578	0.15536	0.073436	0.11908	0.20295	0.29529	0.018345	0.21931	0.24114	0.02215	0.20551	0.32247	0.18657	0.16568	0.26395	0.15622	-2.8542	-4.0188	-3.0812	-3.85	-3.9521	-3.1625	-4.0542	-3.5479	-3.3125	-3.975	-3.4271	-3.8083	-4.0188	-3.3042	-3.8042	-3.775	-2.263	356.592	32.319	341.777	30.609	177.480	245.459	276.812	173.145	135.668	289.670	316.577	92.174	293.715	23.483	277.296	0.0014101	0.00075961	0.00017849	901.04	6.4219e-06	3.7291e-06	1308.5	303.69	5.9634e-06	4.3339e-06	532.14	198.29	102.18	37.37	1.8786e-06	87.085	0.00057106	0.00054845	0.00015477	822.96	5.8369e-06	6.1613e-06	1185.4	275.47	5.9538e-06	6.0175e-06	483.95	180.74	93.449	34.333	5.9834e-06	79.434	19.174	103.135	93.003	10.892	124.258	82.299	10.595	15.526	136.865	55.237	15.043	19.211	19.862	24.595	90.368	22.594	-8191	255	
1185.648	1	1	0	0	0.15543	0.15534	0.14288	0.13383	0.065609	0.14659	0.18042	0.15785	0.062497	0.17527	0.19187	0.27201	0.2162	0.14096	0.092249	0.21369	-2.8896	-4.0021	-3.4062	-3.6417	-3.8937	-2.9792	-4.2	-3.8083	-3.175	-3.9437	-3.3833	-3.5896	-4.1729	-3.3812	-3.8625	-3.7875	251.611	113.364	105.156	147.794	248.409	117.618	220.723	235.971	28.591	170.245	310.096	283.017	206.622	13.523	151.409	294.040	0.0010897	0.00042675	0.00012492	914.11	7.6945e-06	7.3699e-06	1317.3	308.49	1.1113e-05	5.9794e-06	541.01	203.7	105.1	38.096	8.462e-06	88.468	0.00055137	0.00053951	0.00015116	827.79	5.5994e-06	5.8952e-06	1196.7	280.26	6.0173e-06	5.9711e-06	493.4	185.35	95.849	35.183	6.0834e-06	80.795	17.491	53.295	88.128	10.723	109.376	129.874	11.065	15.324	160.754	158.881	14.815	19.490	20.117	24.378	139.158	22.997	-8191	255	
1185.719	1	1	0	0	0.21548	0.042328	0.20101	0.15249	0.061008	0.097378	0.3163	0.11355	0.16212	0.19808	0.20586	0.25297	0.18486	0.14123	0.14731	0.3242	-2.7979	-3.9437	-3.3542	-3.3896	-3.9437	-3.1688	-3.9083	-3.9417	-3.2021	-3.9146	-3.5563	-3.3	-4.1208	-3.3729	-3.7208	-3.9521	154.622	204.637	90.718	228.212	231.257	198.667	319.397	234.407	52.816	101.007	354.090	327.558	268.845	305.735	176.832	5.590	0.0014493	0.00036293	9.1262e-05	913.79	1.1127e-05	2.2628e-06	1309.8	306.51	1.1708e-05	8.391e-06	534.96	202.62	103.95	38.11	4.4857e-06	87.296	0.00058265	0.00055881	0.00015742	834.4	6.0181e-06	6.1812e-06	1193.5	278.97	6.0059e-06	6.2085e-06	487.89	183.23	94.724	34.91	6.0696e-06	79.607	23.985	53.895	145.071	10.884	145.199	160.414	10.904	15.659	153.343	154.160	14.682	19.324	20.071	24.469	139.647	22.339	-8191	255	
1185.840	1	1	0	0	0.15935	0.08015	0.12566	0.16228	0.10626	0.22778	0.3302	0.28663	0.053569	0.092314	0.20167	0.084447	0.019744	0.087972	0.17963	0.1177	-2.9042	-4.0625	-3.5292	-3.525	-4.0292	-3.35	-3.95	-4.0021	-3.1542	-3.8896	-3.7188	-3.4667	-4.0792	-3.4146	-3.4625	-4.1375	209.645	206.327	191.637	76.871	1.248	93.785	246.689	271.463	92.037	57.896	275.731	22.916	44.153	32.029	319.730	290.897	0.0013425	0.00053573	0.00025115	900.68	6.1699e-06	8.3672e-06	1293.4	302.74	4.2911e-06	8.8188e-06	530.93	199.13	102.26	37.669	7.6059e-06	86.554	0.00059753	0.00056194	0.00015413	823	6.1514e-06	6.2394e-06	1176.9	275.47	6.2214e-06	6.2921e-06	483	181.21	93.851	34.551	6.0862e-06	79.212	18.888	85.531	63.025	10.842	115.805	172.197	11.286	15.549	166.342	124.550	14.892	19.320	20.275	24.140	130.816	22.861	-8191	255	
1185.934	1	1	0	0	0.20362	0.24088	0.036743	0.048568	0.11755	0.080265	0.3972	0.11509	0.068249	0.089821	0.28885	0.26813	0.1665	0.024327	0.037659	0.24103	-2.8271	-3.8896	-3.7458	-3.3438	-3.9479	-3.2354	-3.625	-4.1896	-3.1146	-3.8583	-3.9	-3.3646	-3.9167	-3.5938	-3.4729	-4.0875	99.340	252.958	29.146	330.051	192.725	45.381	354.396	271.138	123.844	38.202	297.328	13.334	54.353	82.407	217.874	289.718	0.0012865	0.00085759	0.0001489	890.14	7.9232e-06	8.0718e-06	1300.4	303.47	7.2123e-06	8.6589e-06	536.19	201.33	103.38	37.804	5.7919e-06	88.085	0.00061439	0.00057351	0.00015299	817.55	6.2353e-06	6.2276e-06	1178.4	276.51	6.24e-06	6.3229e-06	486.11	182.98	94.673	35.096	6.136e-06	80.402	22.759	70.590	98.795	10.541	165.220	127.629	11.046	15.682	153.870	126.388	15.064	19.312	20.298	24.474	180.707	22.851	-8191	255	
1186.031	1	1	0	0	0.283	0.164	0.26049	0.1002	0.0064159	0.10337	0.31799	0.38839	0.17232	0.2142	0.083801	0.044289	0.044022	0.032645	0.13484	0.19917	-2.8021	-3.6521	-3.7417	-3.2375	-3.975	-3.4771	-3.3646	-4.0729	-3.5083	-3.7562	-3.8646	-3.2354	-4.0729	-3.5354	-3.2	-4.3562	203.495	297.048	212.156	356.097	156.220	285.751	288.701	276.542	198.387	58.335	282.638	326.265	267.825	350.473	75.302	283.905	0.0015353	0.0008961	0.00015483	901.21	3.7717e-06	5.1591e-06	1304.1	304.31	1.0506e-05	7.9104e-06	539.73	202.61	104.67	38.789	1.2314e-05	89.552	0.00062165	0.0005829	0.000158	822.29	6.4279e-06	6.2368e-06	1180.6	277.37	6.3913e-06	6.2988e-06	490.18	184.59	95.585	35.642	6.3177e-06	81.511	22.343	106.981	139.621	11.240	194.718	256.810	11.152	15.497	174.500	224.370	15.012	19.434	20.215	24.324	191.945	22.922	-8191	255	
1186.127	1	1	0	0	0.090285	0.15564	0.24641	0.25743	0.13264	0.095308	0.26191	0.27407	0.1516	0.13252	0.060041	0.12383	0.032216	0.076986	0.066431	0.087526	-2.7333	-3.5292	-3.9604	-3.2333	-3.9458	-3.6208	-3.3271	-4.1	-3.1833	-3.4	-4.0646	-3.3021	-3.9188	-3.6458	-3.0979	-4.1062	187.420	89.959	164.086	317.039	59.920	32.044	233.972	279.769	261.902	157.385	89.000	271.870	21.725	138.188	314.960	271.864	0.0012817	0.00074514	0.00022872	902.63	6.8265e-06	3.4073e-06	1301.4	303.93	1.2106e-05	6.6786e-06	535.5	199.41	102.73	37.94	9.3066e-06	87.412	0.00062427	0.00058935	0.00016005	824.85	6.5595e-06	6.1495e-06	1182.7	277.47	6.6702e-06	6.448e-06	485.75	182.12	94.265	34.858	6.6817e-06	79.546	24.998	79.260	97.514	11.131	88.334	169.217	11.105	15.942	151.760	130.658	15.111	19.502	20.328	24.600	135.885	23.230	-8191	255	
1186.247	1	1	0	0	0.34193	0.16245	0.13683	0.053098	0.13046	0.033788	0.1169	0.38346	0.15112	0.18505	0.22394	0.15411	0.06513	0.29227	0.25951	0.16601	-2.8875	-3.3583	-3.7792	-2.975	-3.7042	-3.8312	-3.3187	-4.0312	-3.3625	-3.425	-4.1146	-3.3479	-3.8958	-3.7771	-3.0896	-4.0563	109.388	262.795	293.264	66.730	188.939	134.733	285.385	323.396	338.564	344.116	52.965	320.721	85.353	311.560	139.133	33.278	0.0013514	0.00062293	0.00026426	895.75	5.8854e-06	5.6506e-06	1286.8	300.76	8.3144e-06	7.449e-06	533.13	197.5	101.95	37.316	1.8124e-06	86.426	0.00062936	0.00058843	0.000168	818.08	6.4844e-06	6.3935e-06	1171.7	273.63	6.5817e-06	6.4895e-06	480.85	179.84	93.252	34.441	6.5958e-06	78.815	20.719	62.364	74.250	11.231	148.751	91.855	10.888	15.848	120.787	186.139	15.043	19.119	19.783	24.325	181.271	22.963	-8191	255	
1186.344	1	1	0	0	0.29677	0.21414	0.24272	0.18987	0.15036	0.13621	0.22968	0.057919	0.2637	0.21889	0.064285	0.22831	0.12362	0.072042	0.038398	0.30115	-3.1229	-3.3396	-3.9313	-3.2542	-3.6417	-3.8146	-3.2438	-3.8021	-3.5104	-3.35	-4.1833	-3.3646	-3.6292	-4.0417	-2.8792	-3.9771	3.159	215.787	281.945	9.167	296.246	198.593	225.545	58.848	135.104	191.702	272.857	348.817	90.051	324.343	30.387	335.863	0.0014303	0.00049201	0.00015717	896.82	1.4434e-05	1.1837e-05	1297.1	303.45	1.4419e-05	3.7392e-06	532.83	200.34	103.2	38.221	1.1314e-05	88.591	0.00061145	0.0005744	0.00016725	818.31	6.416e-06	6.3374e-06	1178.3	276.05	6.1823e-06	6.3934e-06	485.85	182.02	94.792	35.183	6.6698e-06	80.869	24.056	133.517	90.097	10.895	124.391	108.075	10.827	15.768	152.135	186.665	15.387	19.326	20.159	24.496	200.887	23.446	-8191	255	
1186.440	1	1	0	0	0.21381	0.16722	0.10617	0.15366	0.088961	0.069465	0.35632	0.084737	0.14178	0.075102	0.26446	0.19336	0.33283	0.12306	0.075762	0.19218	-3.3625	-3.1104	-3.8625	-3.5292	-3.35	-3.9583	-3.4792	-3.8917	-3.8292	-3.3667	-4.1896	-3.625	-3.525	-4.0792	-3.1667	-4.0646	352.398	193.676	32.420	337.459	252.326	240.859	338.161	327.080	126.462	180.752	291.930	292.662	291.042	286.218	309.342	355.496	0.00095436	0.0012028	0.00029687	907.58	3.8165e-06	8.7005e-06	1308.8	308.93	1.1367e-05	8.9546e-06	541.86	205.48	106.01	39.778	7.4025e-06	91.121	0.00059249	0.00059594	0.00016501	828.56	6.1338e-06	6.3506e-06	1191.2	281.57	6.2144e-06	6.3599e-06	494.81	186.81	97.326	36.531	6.3682e-06	83.219	28.181	64.952	59.029	11.051	234.169	129.544	11.198	15.904	99.550	142.472	14.910	18.931	19.966	24.424	157.361	23.047	-8191	255	
1186.536	1	1	0	0	0.25455	0.21708	0.071401	0.063505	0.16427	0.18053	0.3587	0.24848	0.087933	0.0021325	0.10183	0.16215	0.15978	0.046091	0.1761	0.027962	-3.4771	-3.1375	-3.9313	-3.5417	-3.3125	-3.9042	-3.3708	-3.7979	-3.8771	-3.2083	-4.1687	-3.675	-3.475	-4.1188	-3.0438	-3.7667	155.637	347.743	282.579	341.247	23.283	27.564	350.350	246.564	247.192	180.000	316.471	76.925	213.196	305.425	119.002	142.785	0.0013637	0.00085338	0.00023834	916.75	4.2647e-06	1.1575e-06	1317.3	313.38	1.9545e-05	7.4842e-06	547.86	208.38	107.15	40.028	7.3317e-06	90.754	0.0005882	0.00056521	0.00015649	832.43	5.9022e-06	5.8973e-06	1196.4	284.12	5.696e-06	6.0285e-06	498.46	188.74	98.021	36.761	5.9718e-06	82.966	23.213	59.351	92.141	10.459	206.207	152.302	10.812	15.836	161.008	102.170	14.980	19.308	20.626	24.324	128.938	23.149	-8191	255	
1186.632	1	1	0	0	0.10572	0.10668	0.09549	0.37053	0.12915	0.18973	0.14021	0.22381	0.22227	0.044426	0.1754	0.073733	0.16737	0.27856	0.066362	0.15056	-3.5083	-3.1417	-3.8958	-3.6542	-3.0687	-3.9625	-3.5021	-3.6271	-3.9562	-3.2458	-4.0396	-3.6479	-3.2896	-4.1188	-3.25	-3.5521	120.114	236.702	355.353	6.201	319.041	232.464	302.972	311.470	181.623	229.230	296.265	6.373	317.322	328.375	43.292	6.821	0.001162	0.00088664	0.00020568	908.17	1.2243e-05	6.5833e-06	1304.5	308.2	5.708e-06	1.2079e-05	542.66	204.8	105.62	39.491	5.4361e-06	89.871	0.00057143	0.00055051	0.00015005	824.58	5.8788e-06	5.9346e-06	1183.4	281.18	5.7207e-06	5.8464e-06	492.7	185.98	96.422	36.251	5.8219e-06	82.117	22.462	85.720	112.303	11.216	162.016	200.271	10.814	15.353	174.443	154.358	14.933	18.832	20.015	24.052	155.348	22.846	-8191	255	
1186.728	1	1	0	0	0.19062	0.091944	0.27428	0.095488	0.26501	0.13429	0.14129	0.24463	0.15859	0.11854	0.1182	0.1133	0.3374	0.28176	0.15727	0.13825	-3.4437	-3.1333	-3.85	-3.7812	-3.0854	-3.9708	-3.5083	-3.4542	-3.8833	-3.2604	-3.7875	-3.8187	-3.3417	-4.0563	-3.5625	-3.5458	51.091	95.664	322.893	120.549	177.825	329.856	328.111	284.893	164.474	89.811	175.652	280.354	334.356	15.694	74.038	328.381	0.0013821	0.00079954	0.00019185	903.54	1.2257e-05	6.8274e-06	1306.6	309.5	9.5778e-06	1.0644e-05	546.14	205.38	106.47	39.503	9.8117e-06	89.767	0.00057148	0.00053796	0.00014301	820.81	5.8487e-06	5.9456e-06	1185.1	281.89	5.9777e-06	6.0402e-06	494.33	186.74	97.026	36.264	5.904e-06	81.886	25.935	101.116	76.933	10.908	157.271	140.077	10.965	15.962	103.578	181.579	15.405	19.254	20.141	24.641	189.968	22.895	-8191	255	
1186.847	1	1	0	0	0.2778	0.43702	0.22277	0.13554	0.20606	0.3307	0.16716	0.18448	0.12296	0.17618	0.0951	0.16377	0.2971	0.13341	0.11915	0.12099	-3.5833	-3.3063	-3.8875	-3.9313	-3.1021	-3.9896	-3.9792	-3.3917	-4.1333	-3.3542	-3.6167	-4.0437	-3.2583	-3.9417	-3.5312	-3.3937	183.372	49.269	322.264	336.940	40.367	231.148	317.814	301.077	311.428	132.716	55.605	346.527	3.477	317.869	248.920	203.023	0.0012903	0.00096007	0.00022879	904.6	6.0094e-06	2.5499e-06	1302.6	308.44	1.3111e-05	5.1784e-06	538.32	204.01	105.71	39.039	8.3136e-06	89.874	0.00059467	0.00056258	0.00015609	828.47	6.2864e-06	6.2646e-06	1186.8	281.19	6.3186e-06	6.3522e-06	491.71	185.44	96.601	36.03	6.1664e-06	81.933	2.715	106.542	56.708	11.173	148.520	100.969	10.912	15.745	159.896	189.028	14.714	19.152	20.014	24.847	167.618	23.041	-8191	255	
1186.943	1	1	0	0	0.054718	0.065577	0.1802	0.051825	0.22595	0.12686	0.21926	0.31305	0.20461	0.15008	0.22167	0.1511	0.10171	0.13167	0.034545	0.11905	-3.6583	-3.4125	-3.6896	-4.0979	-3.1188	-3.8167	-3.7833	-3.4062	-4.0042	-3.3563	-3.7146	-4.2042	-3.3229	-3.6875	-3.7396	-3.3583	162.468	147.347	187.155	263.618	249.347	115.418	215.088	252.510	202.830	155.758	267.735	185.579	340.625	85.961	292.799	274.844	0.0013041	0.00076064	0.00017189	911.68	9.2125e-06	4.1827e-06	1322.1	309.42	7.1724e-06	8.3797e-06	542.15	204.53	106.21	39.296	7.3355e-06	89.397	0.00059777	0.00055999	0.00015183	832.63	6.0289e-06	5.8048e-06	1199.8	282.15	5.6887e-06	5.5631e-06	493.23	186.31	96.796	35.977	5.2923e-06	81.694	13.229	81.369	113.507	10.850	161.023	193.434	11.153	15.684	94.870	151.087	15.168	19.575	19.881	24.661	159.669	23.173	-8191	255	
1187.015	1	1	0	0	0.081425	0.10105	0.26652	0.23261	0.18031	0.10607	0.24633	0.26207	0.17019	0.084444	0.26893	0.33423	0.12664	0.13844	0.25528	0.14691	-3.4458	-3.4521	-3.3604	-4.1396	-3.2479	-3.5896	-3.9083	-3.1229	-3.9688	-3.5458	-3.6271	-4.1417	-3.3896	-3.9813	-3.8292	-3.35	87.668	116.728	255.909	182.675	286.844	6.417	337.661	269.572	185.042	231.764	225.339	15.302	244.701	271.047	10.568	340.441	0.0013727	0.00056554	0.00017421	910.58	7.9707e-06	7.7967e-06	1310.8	307.34	1.8268e-05	1.0969e-05	538.06	203.88	104.9	38.876	7.9685e-06	88.973	0.00054251	0.00048948	0.00013727	828.69	5.4469e-06	5.3806e-06	1187.4	279.82	5.5904e-06	5.5187e-06	487.61	185.03	96.076	35.763	5.6908e-06	80.784	13.875	351.870	87.654	11.229	63.681	141.457	11.192	15.922	120.335	181.343	15.266	18.872	19.770	24.142	153.432	22.410	-8191	255	
1187.111	1	1	0	0	0.13852	0.10682	0.19047	0.10237	0.09001	0.16763	0.36425	0.21776	0.098107	0.073232	0.18409	0.24744	0.30273	0.11249	0.034583	0.15532	-3.4833	-3.4875	-3.3375	-4.0188	-3.2438	-3.6917	-4.0854	-3.4	-3.9083	-3.5563	-3.2208	-4.2979	-3.3167	-3.4333	-4.0104	-3.3042	209.961	4.641	163.549	151.047	165.939	268.971	333.358	298.813	69.853	352.131	323.568	325.746	343.192	327.863	307.609	283.009	0.0011828	0.0008197	0.00017187	905.74	1.2621e-05	4.7178e-06	1299.6	307.5	1.4694e-05	8.0401e-06	536.62	203.65	105.02	39.196	4.7642e-06	88.516	0.0005545	0.00052037	0.0001472	826.29	5.8233e-06	5.8026e-06	1180.7	279.18	5.8765e-06	5.8355e-06	487.29	185.3	95.907	35.792	6.1638e-06	80.885	19.446	95.436	129.064	10.873	153.879	115.101	10.822	15.690	175.549	157.757	14.749	19.132	19.784	24.361	199.147	22.720	-8191	255	
1187.232	1	1	0	0	0.20787	0.24777	0.24444	0.077167	0.2083	0.091803	0.12697	0.10167	0.11687	0.10622	0.15222	0.15662	0.20342	0.19468	0.14249	0.18881	-3.4354	-3.7313	-3.2896	-4.0917	-3.3229	-3.425	-4.1583	-3.3958	-3.6625	-3.7917	-3.3896	-4.0958	-3.55	-3.3479	-4.0938	-3.4417	251.175	51.698	247.299	147.113	295.518	330.830	295.755	149.024	188.012	231.001	60.339	313.853	16.922	353.366	42.438	261.791	0.0014535	0.00069743	0.00016865	908.93	1.2589e-05	7.47e-06	1315.1	308.22	5.8222e-06	6.2273e-06	540.86	205.67	105.67	39.466	8.6733e-06	90.258	0.00057379	0.00054214	0.00016015	830.96	5.9772e-06	6.1181e-06	1190.2	281.13	5.9053e-06	5.8959e-06	491.34	187.03	96.607	36.186	5.9552e-06	82.067	14.525	114.378	46.627	10.931	123.041	150.837	10.766	15.560	92.740	173.743	14.908	19.140	20.128	24.349	160.040	22.764	-8191	255	
1187.328	1	1	0	0	0.15745	0.19998	0.16388	0.10867	0.15078	0.24209	0.040679	0.1529	0.16246	0.11965	0.19882	0.28684	0.027351	0.21742	0.18081	0.27152	-3.3583	-3.7542	-3.0271	-4.0583	-3.525	-3.2375	-4.0563	-3.3583	-3.6167	-3.8896	-3.25	-3.9604	-3.6771	-3.2917	-3.8833	-3.3583	76.417	340.911	285.653	271.661	116.001	203.415	188.353	274.976	98.428	233.917	18.948	335.319	203.121	240.180	156.353	240.155	0.0013055	0.00044417	0.00025569	915.72	7.4204e-06	7.4929e-06	1310.9	308.95	1.1931e-05	7.2137e-06	539.72	205.3	105.14	39.585	7.4031e-06	89.502	0.00059018	0.00054176	0.00015416	833.37	5.958e-06	6.1218e-06	1190.9	281.24	5.9989e-06	6.1916e-06	490.98	186.76	96.398	36.39	6.2692e-06	81.618	6.995	109.452	89.309	10.719	144.419	201.687	11.036	15.748	160.541	108.211	15.259	19.519	20.091	24.311	128.749	22.723	-8191	255	
1187.424	1	1	0	0	0.23264	0.2129	0.18771	0.25191	0.31258	0.19037	0.12907	0.1567	0.084657	0.20099	0.14523	0.16757	0.09934	0.38365	0.10221	0.24435	-3.0438	-3.9938	-3.2271	-4.0667	-3.6042	-3.2083	-4.2458	-3.3979	-3.3083	-3.9104	-3.2042	-4.0333	-3.7042	-3.3292	-3.9021	-3.5687	295.539	347.225	248.399	300.274	337.461	82.679	62.311	305.336	126.410	247.833	232.511	312.399	31.148	318.302	112.771	279.823	0.0013596	0.00055085	0.0001893	906.59	5.7494e-06	7.3156e-06	1297.3	303.81	1.443e-05	9.8088e-06	533.33	202.93	103.82	39.129	9.9844e-06	88.794	0.00060798	0.00058908	0.00016676	823.28	6.529e-06	6.7873e-06	1180.6	277.09	6.9002e-06	6.9202e-06	484.5	184.14	95.828	36.216	6.8417e-06	81.502	18.572	110.223	79.118	11.551	106.313	127.076	10.919	15.792	154.233	195.900	14.863	19.188	19.972	24.289	121.901	22.751	-8191	255	
#DATA ENDS
