BOXY.EXE: ISS Imagent and Oximeter Data Acquisition Program Version 0.80
Ascii Record File

#ACQ INFORMATION
2  Detector Channels 
16  External MUX Channels 
1  Auxiliary Channels 
5000  Waveform (CCF) Frequency (Hz)
1  Waveforms Skipped 
30  Waveforms Averaged 
1  Cycles Averaged 
16  Acquisitions per Waveform 
10.0806  Updata Rate (Hz) 

#FILE INFORMATION
TRUE -- External MUX Channel results are PARSED.
FALSE -- AC DC and Phase are NOT grouped.
TRUE -- Companion Program Settings File CREATED.
FALSE -- AC data not excluded
FALSE -- DC data not excluded
FALSE -- Phase data not excluded
FALSE -- Auxillary Chn. data not excluded
Tab delimiters

#CALIBRATION STATE
TRUE -- Waveform Calibration Values APPLIED.


#AUX CALIBRATION VALUES
Val Type	aux-1	

Term	1.0000e+00	
Factor	0.0000e+00	


#WF CALIBRATION VALUES
A = Detector Channel
Val Type	A-AC1	A-AC2	A-AC3	A-AC4	A-AC5	A-AC6	A-AC7	A-AC8	A-AC9	A-AC10	A-AC11	A-AC12	A-AC13	A-AC14	A-AC15	A-AC16	A-DC1	A-DC2	A-DC3	A-DC4	A-DC5	A-DC6	A-DC7	A-DC8	A-DC9	A-DC10	A-DC11	A-DC12	A-DC13	A-DC14	A-DC15	A-DC16	A-Ph1	A-Ph2	A-Ph3	A-Ph4	A-Ph5	A-Ph6	A-Ph7	A-Ph8	A-Ph9	A-Ph10	A-Ph11	A-Ph12	A-Ph13	A-Ph14	A-Ph15	A-Ph16	

Term	0.00000e+00	0.00000e+00	0.00000e+00	0.00000e+00	0.00000e+00	0.00000e+00	0.00000e+00	0.00000e+00	0.00000e+00	0.00000e+00	0.00000e+00	0.00000e+00	0.00000e+00	0.00000e+00	0.00000e+00	0.00000e+00	0.00000e+00	0.00000e+00	0.00000e+00	0.00000e+00	0.00000e+00	0.00000e+00	0.00000e+00	0.00000e+00	0.00000e+00	0.00000e+00	0.00000e+00	0.00000e+00	0.00000e+00	0.00000e+00	0.00000e+00	0.00000e+00	0.00000e+00	0.00000e+00	0.00000e+00	0.00000e+00	0.00000e+00	0.00000e+00	0.00000e+00	0.00000e+00	0.00000e+00	0.00000e+00	0.00000e+00	0.00000e+00	0.00000e+00	0.00000e+00	0.00000e+00	0.00000e+00	
Factor	1.00000e+00	1.00000e+00	1.00000e+00	1.00000e+00	1.00000e+00	1.00000e+00	1.00000e+00	1.00000e+00	1.00000e+00	1.00000e+00	1.00000e+00	1.00000e+00	1.00000e+00	1.00000e+00	1.00000e+00	1.00000e+00	1.00000e+00	1.00000e+00	1.00000e+00	1.00000e+00	1.00000e+00	1.00000e+00	1.00000e+00	1.00000e+00	1.00000e+00	1.00000e+00	1.00000e+00	1.00000e+00	1.00000e+00	1.00000e+00	1.00000e+00	1.00000e+00	X	X	X	X	X	X	X	X	X	X	X	X	X	X	X	X	

B = Detector Channel
Val Type	B-AC1	B-AC2	B-AC3	B-AC4	B-AC5	B-AC6	B-AC7	B-AC8	B-AC9	B-AC10	B-AC11	B-AC12	B-AC13	B-AC14	B-AC15	B-AC16	B-DC1	B-DC2	B-DC3	B-DC4	B-DC5	B-DC6	B-DC7	B-DC8	B-DC9	B-DC10	B-DC11	B-DC12	B-DC13	B-DC14	B-DC15	B-DC16	B-Ph1	B-Ph2	B-Ph3	B-Ph4	B-Ph5	B-Ph6	B-Ph7	B-Ph8	B-Ph9	B-Ph10	B-Ph11	B-Ph12	B-Ph13	B-Ph14	B-Ph15	B-Ph16	

Term	0.00000e+00	0.00000e+00	0.00000e+00	0.00000e+00	0.00000e+00	0.00000e+00	0.00000e+00	0.00000e+00	0.00000e+00	0.00000e+00	0.00000e+00	0.00000e+00	0.00000e+00	0.00000e+00	0.00000e+00	0.00000e+00	0.00000e+00	0.00000e+00	0.00000e+00	0.00000e+00	0.00000e+00	0.00000e+00	0.00000e+00	0.00000e+00	0.00000e+00	0.00000e+00	0.00000e+00	0.00000e+00	0.00000e+00	0.00000e+00	0.00000e+00	0.00000e+00	-5.89530e+01	-1.44325e+02	-1.41559e+02	-1.84369e+02	-4.86945e+01	-5.85597e+01	-1.57614e+02	-1.62015e+02	-4.53572e+01	-6.62197e+01	-1.71602e+02	-1.75721e+02	-1.84363e+02	-1.78174e+02	-3.82637e+01	-1.51058e+02	
Factor	1.74409e-05	1.37167e-04	4.48531e-05	1.56697e-01	1.36677e-06	1.62039e-06	1.61842e-01	5.41531e-02	1.20590e-06	1.56273e-06	1.95242e-01	3.23254e-02	2.24676e-02	8.29018e-03	1.30207e-06	1.20306e-02	2.34633e-06	2.56913e-06	7.14760e-07	8.26814e-02	2.78632e-08	2.81195e-08	8.00935e-02	2.86359e-02	2.76972e-08	2.79876e-08	9.66539e-02	1.63464e-02	1.19456e-02	4.40738e-03	2.77585e-08	6.14047e-03	X	X	X	X	X	X	X	X	X	X	X	X	X	X	X	X	



#DISTANCE SETTINGS
A = Detector Channel
A-1	A-2	A-3	A-4	A-5	A-6	A-7	A-8	A-9	A-10	A-11	A-12	A-13	A-14	A-15	A-16	

2.5000e+00	3.0000e+00	2.5000e+00	3.0000e+00	2.0000e+00	3.0000e+00	1.5000e+00	3.0000e+00	3.0000e+00	3.0000e+00	3.0000e+00	3.0000e+00	3.0000e+00	3.0000e+00	1.5000e+00	3.0000e+00	

B = Detector Channel
B-1	B-2	B-3	B-4	B-5	B-6	B-7	B-8	B-9	B-10	B-11	B-12	B-13	B-14	B-15	B-16	

1.0000e+01	1.0000e+01	1.0000e+01	1.4400e+00	1.0000e+01	1.0000e+01	1.5100e+00	1.9400e+00	1.0000e+01	1.0000e+01	1.9900e+00	2.4900e+00	2.4100e+00	2.9000e+00	1.0000e+01	2.9800e+00	




#DATA BEGINS
time	group	step	mark	flag	A-AC1	A-AC2	A-AC3	A-AC4	A-AC5	A-AC6	A-AC7	A-AC8	A-AC9	A-AC10	A-AC11	A-AC12	A-AC13	A-AC14	A-AC15	A-AC16	A-DC1	A-DC2	A-DC3	A-DC4	A-DC5	A-DC6	A-DC7	A-DC8	A-DC9	A-DC10	A-DC11	A-DC12	A-DC13	A-DC14	A-DC15	A-DC16	A-Ph1	A-Ph2	A-Ph3	A-Ph4	A-Ph5	A-Ph6	A-Ph7	A-Ph8	A-Ph9	A-Ph10	A-Ph11	A-Ph12	A-Ph13	A-Ph14	A-Ph15	A-Ph16	B-AC1	B-AC2	B-AC3	B-AC4	B-AC5	B-AC6	B-AC7	B-AC8	B-AC9	B-AC10	B-AC11	B-AC12	B-AC13	B-AC14	B-AC15	B-AC16	B-DC1	B-DC2	B-DC3	B-DC4	B-DC5	B-DC6	B-DC7	B-DC8	B-DC9	B-DC10	B-DC11	B-DC12	B-DC13	B-DC14	B-DC15	B-DC16	B-Ph1	B-Ph2	B-Ph3	B-Ph4	B-Ph5	B-Ph6	B-Ph7	B-Ph8	B-Ph9	B-Ph10	B-Ph11	B-Ph12	B-Ph13	B-Ph14	B-Ph15	B-Ph16	aux-1	digaux	

1917.290	1	1	0	256	0.1747	0.14213	0.078718	0.38438	0.31868	0.074235	0.24746	0.22662	0.054096	0.19341	0.24523	0.010823	0.15279	0.138	0.071635	0.083875	-3.2354	-2.8521	-3.5167	-3.5625	-2.7875	-3.7125	-3.1833	-3.3104	-3.5646	-2.9479	-3.475	-3.5438	-3.0312	-3.8479	-3.0229	-3.325	428.090	208.534	302.690	473.670	273.478	407.898	399.018	439.221	223.705	469.253	162.401	288.616	480.949	177.987	325.754	353.023	0.00079111	0.00043038	0.00013339	883.84	7.6463e-06	7.3135e-06	1272.3	281.28	9.1819e-06	3.9183e-06	510.91	188.77	94.438	33.705	2.4481e-06	77.609	0.00047549	0.00044166	0.00011598	796.61	4.5415e-06	4.4747e-06	1141.6	253.63	4.5062e-06	4.4797e-06	451.43	170.3	85.455	30.872	4.5154e-06	70.318	260.522	196.937	225.520	162.779	364.874	290.938	162.935	167.818	284.533	266.259	167.470	171.885	171.991	177.260	336.206	175.985	-8191	255	
1917.386	1	1	0	0	0.097409	0.13414	0.065379	0.19812	0.039117	0.15703	0.26523	0.32776	0.060727	0.20454	0.02219	0.23037	0.066732	0.23133	0.32079	0.14473	-3.2458	-2.7938	-3.4562	-3.8208	-3	-3.75	-3.4042	-3.2812	-3.7875	-3.0979	-3.6333	-3.7	-3.0125	-3.7396	-3.4896	-3.325	238.627	210.116	338.452	482.744	335.928	159.625	457.877	421.951	383.015	250.057	479.053	472.106	505.308	409.965	174.600	413.944	0.00082207	0.00056439	0.00010645	884.19	3.5145e-06	6.7699e-06	1261.9	278.8	5.0665e-06	2.0552e-06	496.34	183.59	92.039	32.998	5.6079e-06	74.839	0.00047887	0.0004391	0.00011976	798.34	4.644e-06	4.4976e-06	1138	250.82	4.2942e-06	4.3512e-06	444.16	165.39	83.154	29.94	4.6591e-06	67.904	271.631	262.759	201.614	162.318	258.682	283.103	162.233	167.438	302.313	285.463	167.294	172.157	172.135	177.579	301.347	176.101	-8191	255	
1917.482	1	1	0	0	0.033796	0.21595	0.19022	0.19828	0.18248	0.11686	0.33218	0.083554	0.16731	0.15884	0.10227	0.26663	0.13508	0.26888	0.18785	0.1124	-3.4604	-3.3312	-3.3292	-3.7292	-3.1479	-3.4729	-3.3896	-3.2062	-3.7	-3.0667	-3.3958	-3.7562	-2.9979	-3.6083	-3.4021	-3.1396	384.149	394.285	384.586	405.309	223.680	442.138	487.460	299.487	474.452	195.641	384.820	440.506	417.751	180.922	304.056	150.123	0.00083989	0.00068735	0.00011423	877.14	6.7415e-06	6.4007e-06	1262.2	278.35	6.7631e-06	6.1182e-06	502.11	178.56	89.513	31.524	4.7546e-06	73.208	0.00047984	0.00045394	0.00013275	792.02	5.6669e-06	5.7833e-06	1136.3	251.67	5.8374e-06	5.7839e-06	448.06	161.25	81.644	28.975	5.3531e-06	66.247	259.031	235.348	204.111	162.600	265.882	325.047	162.897	167.734	332.781	314.491	167.502	172.095	171.923	177.385	323.702	176.225	-8191	255	
1917.578	1	1	0	0	0.28592	0.17754	0.08772	0.17912	0.063592	0.12448	0.19218	0.2112	0.065997	0.18791	0.22611	0.11908	0.15236	0.26215	0.12631	0.29136	-3.2833	-3.05	-3.2333	-3.6708	-3.0146	-3.5042	-3.5896	-3.0958	-3.5083	-2.9688	-3.1	-3.725	-2.8688	-3.4042	-3.4188	-2.7521	379.394	155.985	358.725	411.776	193.240	314.193	502.252	411.033	247.125	487.317	402.405	421.698	334.729	377.365	239.962	412.504	0.00071779	0.0005355	0.00027934	879.14	1.0045e-05	4.9967e-06	1266	277.08	8.6511e-06	8.776e-06	495.17	176.76	88.732	31.243	3.4e-06	71.576	0.00052825	0.00051606	0.00015426	795.56	6.1736e-06	6.372e-06	1143.2	252.98	6.7084e-06	6.7793e-06	452.03	160.86	82.167	29.044	8.0133e-06	65.627	256.805	280.328	174.749	162.990	291.421	418.430	162.571	167.597	302.308	267.882	167.442	171.628	171.458	176.911	308.101	175.994	-8191	255	
1917.674	1	1	0	0	0.26654	0.14649	0.13937	0.087334	0.089904	0.097528	0.14844	0.22101	0.20547	0.082826	0.22831	0.10228	0.25782	0.097929	0.19346	0.29071	-3.1875	-2.9604	-2.9417	-3.9042	-2.9625	-3.2104	-3.6896	-2.8	-3.5917	-3.1583	-2.9875	-3.7271	-3.0271	-3.6542	-3.6396	-3.1188	183.341	324.184	342.365	240.125	384.100	327.497	400.152	407.087	502.263	219.387	419.046	380.667	490.909	480.891	357.273	439.554	0.00075739	0.00046481	0.00018836	886.28	7.6684e-06	3.8891e-06	1257.6	277.44	4.7348e-06	7.7448e-06	482.36	167.83	85.645	29.03	1.6375e-06	65.594	0.00075768	0.00076963	0.00021499	811.64	8.7307e-06	9.0016e-06	1147.2	254.91	9.5528e-06	9.7925e-06	448.51	154.73	80.154	27.473	9.6756e-06	60.46	266.662	261.835	188.912	162.378	307.331	343.869	162.640	167.178	214.429	188.889	166.975	171.810	171.248	176.947	479.481	175.801	-8191	255	
1917.771	1	1	0	0	0.080807	0.30518	0.2086	0.069535	0.18834	0.10916	0.18762	0.29589	0.082435	0.19744	0.095753	0.22564	0.15198	0.087028	0.13553	0.22089	-3.2313	-3.4354	-3.1	-4.0354	-3.2771	-3.1604	-4.0917	-3.1729	-3.5312	-3.3625	-3.0292	-3.7917	-3.0479	-3.2188	-3.6458	-2.9875	170.528	182.519	199.241	425.364	314.805	311.449	431.720	421.962	251.997	453.756	461.496	499.775	157.937	498.094	415.134	419.921	0.00074124	0.00079241	0.0003884	880.15	3.6807e-06	1.9421e-05	1234.3	264.3	8.6257e-06	6.1096e-06	460.89	157.63	81.659	27.311	5.3109e-06	61.95	0.00082229	0.00081576	0.0002213	804.83	8.8331e-06	9.2139e-06	1119	245.28	1.0708e-05	1.1062e-05	434.9	146.35	77.005	26.049	1.0207e-05	57.334	260.065	507.805	240.869	162.395	487.066	324.579	162.228	167.569	307.226	255.119	166.813	171.745	171.500	176.905	240.070	175.437	-8191	255	
1917.891	1	1	0	0	0.026062	0.052699	0.31507	0.19649	0.19098	0.29131	0.14722	0.12024	0.01625	0.11943	0.11061	0.23616	0.27323	0.22055	0.2538	0.10385	-3.0687	-3.3708	-2.8063	-3.5396	-3.0771	-3.0229	-3.7646	-2.9188	-3.4083	-3.5042	-2.8854	-3.7	-3.2417	-2.9938	-3.75	-2.9562	189.226	340.097	281.254	427.673	278.466	379.105	420.506	477.361	236.768	304.316	291.748	445.195	162.927	454.054	315.677	175.518	0.00060366	0.00089692	0.00011229	879.55	1.2028e-05	4.3287e-06	1218.4	264.64	9.2001e-06	8.708e-06	462.12	157.46	83.706	27.662	5.2387e-06	62.89	0.00084005	0.00085457	0.00023831	803.73	9.5018e-06	9.7859e-06	1110.4	244.83	9.7572e-06	9.9487e-06	432.56	145.28	77.518	26.24	9.8827e-06	58.239	264.804	201.042	391.538	161.641	264.953	255.868	161.693	166.699	342.562	310.671	166.064	170.839	171.600	176.543	297.750	175.214	-8191	255	
1917.986	1	1	0	0	0.12234	0.040353	0.15315	0.11466	0.18904	0.15268	0.18763	0.18997	0.0646	0.17982	0.20306	0.14147	0.16415	0.25503	0.040694	0.35678	-2.9917	-3.4854	-2.9271	-3.6792	-3.2167	-2.8917	-3.9542	-3.2708	-3.3833	-3.8833	-3.1229	-3.775	-3.35	-3.0979	-3.8542	-3.4188	496.415	227.882	404.910	424.983	355.376	307.215	461.616	348.269	243.968	389.651	262.654	486.422	422.628	498.949	389.273	450.744	0.00064488	0.00070871	0.00014894	898.59	6.7334e-06	5.0644e-06	1246.7	280.29	4.0926e-06	9.2846e-06	484.58	165.37	88.224	29.626	1.2304e-06	66.675	0.00098207	0.0010876	0.00031648	833.08	1.3333e-05	1.3324e-05	1148.4	260.89	1.251e-05	1.2565e-05	460.48	153.86	83.384	28.295	1.3228e-05	62.233	273.490	186.139	233.177	162.081	279.772	162.290	161.901	166.661	386.634	333.734	166.061	170.800	170.420	175.779	294.743	174.803	-8191	255	
1918.082	1	1	0	0	0.36647	0.1837	0.032545	0.25004	0.092983	0.20077	0.17157	0.1963	0.1397	0.22173	0.13928	0.099854	0.11648	0.16608	0.21789	0.26795	-2.7604	-3.8021	-2.9125	-3.4958	-3.4521	-2.8146	-3.6458	-3.3	-3.1771	-3.5646	-2.9771	-3.3667	-3.5729	-2.7833	-3.6021	-3.3375	487.624	322.856	506.564	505.359	236.764	339.810	395.403	391.225	489.300	186.235	234.971	236.728	448.898	477.398	454.204	497.078	0.00074397	0.00065535	0.00037431	923.72	7.0944e-06	1.7148e-05	1283.4	292.36	1.3288e-05	1.6464e-05	500.16	174.12	92.284	31.501	1.0799e-05	70.626	0.0011183	0.0010913	0.00028184	846.73	9.8834e-06	9.2977e-06	1165.9	267.53	8.459e-06	8.2778e-06	460.38	157.91	84.821	29.148	7.1704e-06	64.73	269.488	158.820	154.260	161.905	316.596	272.389	162.390	166.814	320.201	294.671	166.435	171.346	170.453	176.286	332.340	175.022	-8191	255	
1918.153	1	1	0	0	0.11409	0.12741	0.033486	0.20329	0.19436	0.076317	0.15301	0.32691	0.13055	0.076027	0.16379	0.25583	0.40661	0.039141	0.12475	0.28829	-2.6771	-3.7479	-2.9938	-3.5125	-3.4688	-2.9583	-3.8833	-3.3625	-2.9729	-3.6604	-3.25	-3.5187	-3.8396	-3.0792	-3.725	-3.6083	467.267	389.637	233.359	471.467	390.303	433.581	504.226	460.255	267.371	188.022	471.850	255.367	499.896	310.557	355.212	497.490	0.00068586	0.00073351	0.00017635	927.5	3.8829e-06	2.7782e-06	1301.9	296.74	2.9366e-06	7.5056e-06	512.4	178.5	93.505	32.236	7.0448e-06	73.267	0.00065705	0.00062473	0.00017548	842.88	6.9402e-06	6.905e-06	1173.4	269.49	6.7192e-06	6.6861e-06	463.39	160.92	85.177	29.638	6.005e-06	66.359	263.533	187.249	210.516	162.171	404.229	358.439	161.944	166.696	380.790	322.077	166.207	171.038	170.798	176.447	343.293	175.029	-8191	255	
1918.251	1	1	0	0	0.10549	0.20406	0.20055	0.011184	0.21944	0.13427	0.19782	0.22011	0.15185	0.054237	0.17924	0.069981	0.15233	0.07616	0.11294	0.038509	-2.7396	-3.8167	-2.9021	-3.35	-3.8937	-3.0271	-3.8312	-3.7188	-3.0396	-3.8479	-3.3708	-3.3	-3.8208	-3.1417	-3.5708	-3.8292	352.899	345.620	392.610	232.390	296.727	172.973	496.458	444.098	500.642	380.596	175.303	396.093	158.476	389.812	382.511	285.020	0.00080446	0.00043115	0.00013602	931.85	7.2954e-06	9.6596e-06	1314.3	300.63	6.2564e-06	3.1957e-06	520.99	182.19	95.111	33.21	7.797e-06	75.528	0.00055361	0.00051505	0.00014603	841.93	6.016e-06	6.2535e-06	1185	272.52	6.5394e-06	6.3864e-06	470.3	165.18	86.76	30.672	6.432e-06	68.706	258.238	216.419	216.122	162.321	341.801	274.272	162.279	166.844	312.791	417.617	166.929	171.110	170.898	176.847	333.239	175.741	-8191	255	
1918.370	1	1	0	0	0.25768	0.21048	0.1153	0.2955	0.18236	0.2115	0.25867	0.2375	0.13847	0.23804	0.23509	0.084251	0.31302	0.17454	0.31936	0.15715	-2.75	-3.8771	-3.2771	-3.2771	-3.8	-3.2792	-3.4333	-3.7125	-2.8375	-3.5	-3.3396	-3.1937	-3.6375	-3.125	-3.3479	-3.9437	432.508	497.460	306.344	470.664	479.039	197.280	416.761	463.673	475.026	179.832	439.089	445.651	155.357	422.396	312.569	460.890	0.000775	0.00065843	0.00021159	936.55	8.4593e-06	1.0429e-05	1333.3	300.98	9.6251e-06	9.3631e-06	526.04	183.68	94.53	33.106	6.1997e-06	76.154	0.0006106	0.00059348	0.00016793	847.75	6.5617e-06	6.3856e-06	1200.5	272.25	5.7608e-06	5.3556e-06	473.33	165.74	85.825	30.443	4.7019e-06	69.034	266.300	413.352	261.420	162.803	261.942	340.669	162.668	167.002	338.199	265.228	166.492	171.791	171.353	176.800	336.538	176.058	-8191	255	
1918.466	1	1	0	0	0.2915	0.13761	0.19167	0.45275	0.14131	0.26893	0.41494	0.23396	0.068908	0.13301	0.048074	0.05312	0.15423	0.17515	0.072656	0.22957	-2.5708	-3.5938	-3.375	-3.0042	-3.5646	-2.9917	-3.2604	-4.1	-3.1229	-3.5438	-3.5271	-3.0938	-3.8521	-3.1271	-3.1	-3.6396	397.181	284.877	483.271	485.396	501.794	381.904	440.390	470.872	487.098	160.557	240.025	380.342	365.008	169.943	204.076	422.181	0.00082091	0.0010379	0.00025231	930.74	8.0129e-07	7.6154e-07	1329.8	295.2	4.1073e-06	9.1143e-06	526.08	185.11	94.679	33.204	5.4044e-06	76.318	0.00045327	0.00041617	0.00011719	838.66	4.4814e-06	4.4801e-06	1193	267.44	4.3054e-06	4.3377e-06	467.75	166.54	85.507	30.386	4.3317e-06	69.021	253.930	196.937	250.789	162.290	309.224	241.782	162.826	167.236	370.737	323.709	167.041	171.616	171.654	176.834	367.646	176.106	-8191	255	
1918.563	1	1	0	0	0.09343	0.25597	0.11513	0.26233	0.23696	0.22043	0.19884	0.19716	0.17107	0.17747	0.19709	0.28901	0.25248	0.18676	0.047951	0.15179	-2.6375	-3.4896	-3.5312	-3.3	-3.5938	-3.2354	-3.4229	-3.7979	-3.025	-3.7313	-3.425	-2.9667	-3.6625	-3.2042	-3.0104	-3.8854	481.373	242.462	162.286	207.079	293.175	295.641	425.768	438.636	329.015	290.493	162.182	448.863	351.895	434.774	508.682	505.629	0.00072748	0.00072466	0.00033462	916.9	3.4264e-06	5.7294e-06	1314.2	289.52	6.2708e-06	6.0253e-06	522.73	186.16	93.862	33.23	5.9388e-06	76.465	0.00044272	0.00039903	0.00011231	824.63	4.419e-06	4.4472e-06	1178.8	262.5	4.5189e-06	4.5794e-06	462.47	167.13	84.975	30.448	4.6452e-06	69.433	262.393	208.680	249.854	162.980	273.069	355.292	162.663	167.506	314.253	332.750	167.257	172.211	172.032	177.263	312.975	176.010	-8191	255	
1918.683	1	1	0	0	0.23444	0.1182	0.20586	0.21063	0.20351	0.16081	0.087991	0.30368	0.061989	0.22143	0.11297	0.1854	0.39762	0.1526	0.19343	0.1686	-2.4583	-3.2875	-3.3667	-3.0812	-3.7708	-3.5542	-3.3812	-3.8	-3.1562	-3.3146	-3.8667	-3.1333	-3.7646	-3.7062	-3.1792	-3.9042	153.421	266.655	456.220	194.398	342.658	169.215	176.742	452.017	420.213	411.850	153.462	502.565	451.930	320.173	272.236	437.803	0.0008446	0.0013193	0.00014668	905.31	5.7969e-06	8.2627e-06	1307.2	288.93	5.5608e-06	6.9232e-06	521.77	191.4	96.165	34.725	8.7355e-06	80.94	0.00046273	0.00042304	0.00011788	816.72	4.6373e-06	4.6896e-06	1176	261.22	4.7914e-06	4.7397e-06	464.14	172.65	87.028	31.561	4.6597e-06	72.862	265.146	239.295	259.816	162.873	287.153	338.505	163.404	167.945	356.592	299.767	167.647	172.127	172.084	177.364	347.472	176.546	-8191	255	
1918.755	1	1	0	0	0.057138	0.083292	0.070523	0.37341	0.10031	0.11291	0.31968	0.16652	0.068203	0.073582	0.15335	0.48999	0.23932	0.12103	0.085685	0.12781	-2.5458	-3.1125	-3.5875	-3.0312	-3.4896	-3.4604	-3.1167	-3.6792	-3.2729	-3.2188	-3.6437	-3.0042	-3.6729	-3.4437	-2.8375	-3.7292	357.419	389.476	390.868	445.653	448.766	472.387	464.602	434.944	347.584	273.893	508.028	483.241	509.531	257.419	419.253	337.175	0.00093746	0.00068391	0.00017082	895.38	8.1806e-06	6.0357e-06	1315.5	294.56	6.3136e-06	5.6257e-06	526.14	196.02	98.601	35.911	8.0312e-06	82.079	0.00045313	0.00041895	0.00011355	811.29	4.4339e-06	4.4688e-06	1180.8	264.61	4.3761e-06	4.3889e-06	466.59	177.24	89.077	32.546	4.1794e-06	74.068	264.602	238.074	224.530	163.247	348.672	325.171	163.382	168.093	319.598	333.928	168.095	172.134	172.507	177.227	331.014	176.571	-8191	255	
1918.851	1	1	0	0	0.060441	0.056467	0.02635	0.13974	0.1232	0.10654	0.29964	0.28739	0.19573	0.10588	0.22987	0.2666	0.12426	0.14143	0.35743	0.16603	-2.8854	-3.0687	-3.6542	-3.0104	-3.5167	-3.6146	-3.1292	-3.7729	-3.1125	-3.0938	-3.8208	-3.0958	-3.2792	-3.6229	-2.8146	-3.7208	431.556	403.150	327.433	484.684	240.949	207.963	480.714	480.419	373.272	414.500	194.743	496.148	361.834	189.840	404.709	466.088	0.00075717	0.00083954	0.00028633	904.67	7.2747e-06	3.8279e-06	1304.9	291.44	3.7175e-06	4.9871e-06	518.65	190.53	95.082	33.883	7.4571e-06	77.873	0.00043449	0.00040063	0.00010771	814.36	4.2554e-06	4.2613e-06	1174.1	262.67	4.3562e-06	4.2993e-06	459.41	171.57	86.271	30.965	4.271e-06	70.412	267.427	240.457	230.970	163.022	301.540	350.012	162.943	167.684	336.525	291.680	166.983	172.348	172.182	177.421	333.190	176.419	-8191	255	
1918.972	1	1	0	0	0.12245	0.15068	0.24062	0.3289	0.10091	0.043008	0.072004	0.12171	0.05957	0.027306	0.029947	0.18353	0.098315	0.22596	0.27688	0.051606	-2.9	-3.0146	-3.7958	-3.4062	-3.1312	-3.4792	-3.0812	-3.5875	-3.4938	-3.1146	-3.8146	-3.0271	-3.1604	-3.6562	-2.875	-3.6063	293.220	190.958	213.425	448.101	179.067	305.076	471.758	485.115	477.811	201.426	166.589	418.282	186.617	452.649	423.872	282.941	0.00079487	0.00094244	0.00017328	890.41	1.0756e-06	7.3819e-06	1298.6	287.28	1.0158e-05	3.253e-06	516.01	189.46	94.581	34.288	4.5097e-06	79.672	0.00042334	0.0003927	0.00010722	804.55	4.163e-06	4.0609e-06	1160.4	258.37	4.1164e-06	4.0616e-06	456.53	170	85.797	31.211	4.1183e-06	71.671	265.256	191.616	285.053	163.122	163.102	348.447	163.040	167.744	307.191	258.771	167.630	172.272	171.995	177.714	280.861	176.261	-8191	255	
1919.066	1	1	0	0	0.1162	0.32282	0.20593	0.27176	0.1422	0.10134	0.37541	0.17397	0.10338	0.16683	0.14735	0.15015	0.21917	0.21184	0.08506	0.055151	-2.8958	-2.7042	-3.6958	-3.1667	-3	-3.5938	-3.0292	-3.3438	-3.2604	-2.9396	-3.5875	-3.2417	-3.0646	-3.7354	-3.0458	-3.375	458.241	462.688	440.636	174.272	500.345	177.885	442.810	414.217	241.192	464.556	255.153	462.143	163.205	212.924	362.595	187.135	0.00084412	0.00042428	2.8968e-05	905.5	4.5813e-06	1.6081e-06	1303	293.02	8.4882e-06	2.2601e-06	520.05	191.17	96.946	34.92	3.9384e-06	80.933	0.00042032	0.00037745	0.00010484	813.95	4.085e-06	3.976e-06	1170.4	264.28	3.9882e-06	3.9026e-06	463.79	171.8	87.114	31.862	3.9991e-06	72.785	263.493	280.173	171.563	162.947	295.028	314.695	162.695	167.701	358.218	288.404	168.104	172.364	171.966	177.373	362.308	176.302	-8191	255	
1919.162	1	1	0	0	0.089175	0.15916	0.13833	0.22694	0.037811	0.054598	0.37014	0.23935	0.10509	0.21686	0.15233	0.1132	0.012676	0.054219	0.2751	0.12164	-3.2021	-2.9708	-3.4667	-3.3833	-2.925	-3.9188	-3.5187	-3.7	-3.6396	-3.35	-3.7313	-3.5271	-3.2542	-3.85	-2.95	-3.675	423.155	152.690	402.661	508.976	434.250	478.640	442.306	458.915	352.564	385.505	303.323	445.380	226.172	439.381	211.922	429.992	0.00086455	0.00012378	0.00013904	912.92	6.5786e-06	1.3034e-05	1326	299.38	5.7815e-06	1.0073e-05	531.81	190.4	97.689	35.011	2.0647e-06	79.397	0.00041459	0.00036485	0.0001018	821.01	3.9642e-06	3.9703e-06	1188.1	270.08	4.0065e-06	4.0154e-06	472.85	171.54	87.749	31.732	4.0702e-06	71.657	261.029	158.552	186.233	162.970	339.750	293.315	162.953	167.742	313.282	296.194	167.398	172.108	172.223	177.123	328.814	176.375	-8191	255	
1919.283	1	1	0	0	0.29722	0.074521	0.2876	0.01837	0.11657	0.23692	0.30718	0.080702	0.16453	0.21334	0.23383	0.31094	0.15484	0.29723	0.12048	0.30836	-3.4813	-3.1188	-3.7958	-3.7479	-3.0625	-3.8479	-3.3604	-3.3375	-3.9146	-3.1167	-3.6688	-3.8875	-3.1688	-4.1479	-3.1854	-3.3021	482.143	256.820	428.745	292.752	501.549	216.617	447.046	407.066	460.947	173.489	502.122	158.051	430.708	426.089	482.823	463.091	0.00078717	0.00073293	0.00011969	930.92	1.0121e-05	5.1269e-06	1332.6	306.5	3.176e-06	6.7566e-06	532.58	185.54	96.316	33.555	4.0208e-06	75.256	0.00041503	0.00037134	0.00010288	837.49	3.9393e-06	4.0712e-06	1195.8	275.89	4.0526e-06	3.9917e-06	473.07	166.5	87.118	30.504	3.9678e-06	67.66	264.848	263.651	238.334	163.102	305.954	364.056	162.951	167.461	306.103	363.174	167.787	171.761	171.391	176.700	284.156	176.347	-8191	255	
1919.379	1	1	0	0	0.087929	0.10372	0.1899	0.097139	0.14214	0.13688	0.26333	0.4037	0.062243	0.096472	0.091202	0.18846	0.39144	0.14031	0.28382	0.40584	-3.3229	-3.0917	-3.4917	-3.7667	-3.0646	-3.8896	-3.6292	-3.3208	-3.7062	-3.075	-3.5354	-3.6979	-3.05	-3.7646	-3.1937	-3.275	428.885	426.987	252.532	183.046	285.858	253.996	480.643	174.719	269.669	427.358	419.904	509.104	505.715	456.502	384.109	356.015	0.00073845	0.00036419	0.000294	942.35	2.4633e-06	8.4255e-06	1323.8	309.28	8.1854e-06	5.7048e-06	524.28	179.95	97.472	32.757	6.5609e-06	71.498	0.00040831	0.00037324	9.9431e-05	847.83	4.1444e-06	4.1074e-06	1184.9	278.51	4.138e-06	4.2354e-06	466.1	162.33	87.805	29.821	4.3271e-06	64.827	260.427	184.482	192.547	162.780	358.590	328.526	162.640	167.443	318.922	230.400	167.072	171.389	171.128	176.497	302.477	175.719	-8191	255	
1919.451	1	1	0	0	0.090771	0.29122	0.17893	0.098863	0.018092	0.14051	0.1918	0.23227	0.25317	0.22834	0.075003	0.13099	0.11827	0.066895	0.16005	0.099277	-3.2771	-3.075	-3.2062	-3.7542	-2.8812	-3.5292	-3.6208	-3.0833	-3.7396	-3.1042	-3.2229	-3.6979	-2.9646	-3.6188	-3.2958	-2.8542	286.140	440.838	388.143	492.080	423.055	505.549	478.462	488.076	461.689	463.051	349.591	495.853	219.543	304.859	411.406	442.227	0.00075355	0.0010274	0.00022053	952.48	2.7163e-06	8.869e-06	1316.4	309.67	2.398e-06	3.8925e-06	516.69	178.58	97.613	32.221	8.5786e-06	70.578	0.00043534	0.00040734	0.00011347	858.8	4.3682e-06	4.4044e-06	1179.3	278.58	4.4976e-06	4.5718e-06	460.38	160.1	88.027	29.354	4.547e-06	63.755	263.379	214.734	237.919	162.699	468.251	293.426	162.639	167.065	348.561	411.172	166.630	171.237	171.118	176.223	356.411	175.854	-8191	255	
1919.547	1	1	0	0	0.13825	0.05509	0.13172	0.043125	0.090967	0.099465	0.1378	0.24489	0.11236	0.19332	0.036343	0.11456	0.086822	0.072323	0.075644	0.30737	-3.2833	-3.1208	-3.2521	-3.7938	-2.8042	-3.3792	-3.7854	-3.0438	-3.5938	-3.2708	-3.25	-3.9354	-3.075	-3.5125	-3.6229	-3.0104	205.822	477.837	286.776	170.038	394.174	318.782	473.189	385.826	420.372	247.204	335.434	419.027	479.523	369.441	273.286	447.628	0.00079087	0.00034357	0.00033044	968.85	6.0967e-06	2.7186e-06	1317.3	313.36	9.2651e-06	1.0351e-05	523.55	178.12	97.263	32.446	5.9803e-06	70.217	0.00044661	0.00041456	0.00011864	871.8	4.6906e-06	4.8016e-06	1186.6	280.84	4.7604e-06	4.8135e-06	466.96	160.72	88.248	29.554	5.1595e-06	63.767	260.945	312.115	191.116	162.593	254.497	205.428	163.176	167.003	311.502	309.133	167.124	171.741	171.167	176.537	326.925	175.364	-8191	255	
1919.667	1	1	0	0	0.076	0.05053	0.16968	0.39104	0.16877	0.18816	0.32226	0.04155	0.023327	0.057753	0.15271	0.055721	0.21886	0.22881	0.10624	0.12066	-3.325	-3.3354	-2.9896	-3.825	-2.8875	-3.3458	-3.8	-2.9521	-3.5479	-3.5187	-2.9813	-3.7229	-3.3563	-3.6542	-3.7	-3.3646	342.164	265.881	460.208	161.468	368.645	223.642	447.219	336.505	216.055	233.500	160.085	472.119	405.455	231.459	462.358	500.909	0.00075061	0.00098252	0.00027852	966.96	7.1425e-06	1.5031e-05	1335	316.83	3.7863e-06	2.6349e-06	524.63	177.92	97.732	31.676	9.1651e-06	70.095	0.00052288	0.00049536	0.00014222	874.14	5.6243e-06	5.7404e-06	1201.2	284.83	6.2306e-06	6.4985e-06	475.13	161.03	88.938	29.375	7.3876e-06	63.956	261.129	194.451	218.064	162.217	282.647	256.806	162.463	166.787	425.923	153.725	166.414	171.249	170.621	176.364	371.256	175.273	-8191	255	
1919.764	1	1	0	0	0.13639	0.24816	0.20489	0.063252	0.22161	0.11059	0.14327	0.25961	0.11536	0.18482	0.12672	0.14506	0.087776	0.13911	0.074141	0.085198	-3.4417	-3.5667	-3.1688	-3.9146	-3.2208	-3.1792	-4.1667	-3.2167	-3.7146	-3.6625	-3.0146	-3.8125	-3.1729	-3.3312	-3.5333	-3.0896	151.513	427.263	164.222	492.534	383.164	358.023	492.829	216.167	260.060	380.836	301.154	199.262	355.403	391.464	477.279	482.057	0.00066952	0.00061929	0.00034228	973.06	1.2502e-05	9.9724e-06	1341.6	317.73	7.3347e-06	4.2899e-06	533.9	180.01	98.817	32.95	8.0439e-06	72.388	0.00068923	0.0006975	0.00019415	882.24	7.6553e-06	7.7265e-06	1214.7	288.91	7.7384e-06	7.7554e-06	484.63	164.53	90.533	30.306	6.9863e-06	65.972	266.043	237.427	237.610	162.287	307.901	303.225	162.748	166.929	329.407	328.252	166.835	171.027	170.712	176.186	307.473	175.683	-8191	255	
1919.858	1	1	0	0	0.21221	0.23038	0.21539	0.20577	0.082224	0.15116	0.25167	0.14042	0.090529	0.20748	0.13676	0.23221	0.141	0.3714	0.13802	0.046899	-3.1667	-3.5938	-2.9292	-3.8125	-3.4688	-3.2562	-4.075	-3.3042	-3.45	-3.6875	-3.1958	-3.9146	-3.6292	-3.4083	-3.8292	-3.2208	480.838	374.715	384.965	165.046	369.874	392.291	470.747	335.091	403.710	183.725	196.245	445.721	277.310	508.240	154.438	244.932	0.00075579	0.0013614	0.00019846	966.84	1.0771e-05	2.6754e-06	1348.6	318.18	9.4521e-06	4.9192e-06	539.86	184.83	98.572	33.336	2.0902e-06	74.849	0.00061852	0.00058691	0.00015891	875.64	5.7225e-06	5.7387e-06	1207.2	286.8	5.5127e-06	5.4126e-06	480.02	166.3	89.914	30.722	5.2557e-06	67.878	253.738	220.683	216.380	162.723	406.473	383.529	163.127	167.138	293.111	356.669	166.607	171.581	171.262	176.431	297.374	175.809	-8191	255	
1919.954	1	1	0	0	0.31737	0.14231	0.19054	0.1703	0.21416	0.04618	0.19717	0.29419	0.25678	0.27524	0.23037	0.074388	0.26749	0.061142	0.33561	0.1371	-3.0167	-3.8542	-2.9562	-3.75	-3.3646	-3.0646	-4.0271	-3.1125	-3.3146	-3.7896	-2.8229	-3.7854	-3.4583	-3.0042	-3.7104	-3.3396	232.154	337.211	507.582	472.725	486.974	396.570	448.444	482.789	410.941	170.982	472.116	190.544	161.087	456.828	163.836	447.211	0.0007479	0.0001822	0.00018642	958.11	2.4612e-06	3.9193e-06	1348.4	316.14	1.1904e-05	7.2753e-06	532.86	185.07	98.231	33.77	1.3332e-05	75.664	0.00052118	0.00049109	0.00013892	869.26	5.5675e-06	5.7732e-06	1214.3	285.92	5.7221e-06	5.6741e-06	480.34	167.37	89.497	30.966	5.6821e-06	68.732	267.749	227.364	199.800	163.044	284.506	233.871	162.755	167.543	305.343	302.770	167.214	171.220	170.915	176.866	379.520	175.503	-8191	255	
1920.050	1	1	0	0	0.099781	0.016432	0.089922	0.044011	0.20328	0.222	0.33176	0.17005	0.11618	0.1314	0.23944	0.1127	0.28514	0.090968	0.15635	0.047756	-2.5708	-3.6354	-2.8708	-3.55	-3.6479	-2.8833	-3.8167	-3.3083	-3.3063	-3.6208	-3.1188	-3.6125	-3.6042	-3.0417	-3.6479	-3.3229	228.061	169.322	453.124	167.887	192.643	208.583	438.968	493.741	374.726	396.215	488.931	487.582	175.192	157.795	485.003	169.818	0.00077828	0.00091734	0.00019476	960.06	9.2554e-06	1.771e-05	1336	310.94	8.3015e-06	4.6406e-06	529.14	184	97.139	33.275	7.276e-06	75.46	0.0005752	0.00054318	0.0001562	869.11	6.4216e-06	6.6261e-06	1207.9	281.94	6.8026e-06	6.9459e-06	479.54	166.74	88.89	30.936	7.1594e-06	68.87	266.066	252.103	150.630	162.705	314.865	293.507	163.007	167.472	302.942	151.664	166.769	171.523	171.444	176.507	238.283	175.827	-8191	255	
1920.146	1	1	0	0	0.18685	0.058049	0.15747	0.14864	0.10443	0.20813	0.13165	0.17718	0.064936	0.034474	0.23871	0.30593	0.10103	0.10348	0.11491	0.16996	-2.6396	-3.6292	-2.9875	-3.4167	-3.6958	-3.1063	-3.6354	-3.4583	-3.0104	-3.775	-3.1708	-3.4771	-3.7208	-3.1021	-3.6208	-3.5458	473.939	160.805	395.579	427.198	340.046	319.183	426.402	388.955	154.112	474.636	492.454	425.444	458.139	200.623	455.203	415.501	0.00079389	0.0012125	0.00025071	936.71	8.0223e-06	6.5926e-06	1332.5	308.14	6.1428e-06	2.0891e-06	529.67	185.05	96.795	33.942	8.7335e-06	77.19	0.00066651	0.00066278	0.00018418	857.05	7.4995e-06	7.6215e-06	1206.6	280.64	8.291e-06	8.3949e-06	485.65	169.2	89.36	31.744	9.2824e-06	70.853	261.758	244.791	257.508	162.978	399.129	392.787	162.997	167.296	273.686	261.212	167.202	171.998	171.566	176.925	359.345	175.850	-8191	255	
1920.243	1	1	0	0	0.12635	0.096841	0.10016	0.21081	0.23821	0.10187	0.089289	0.27692	0.20696	0.30953	0.022943	0.19805	0.13573	0.18155	0.10149	0.18991	-2.5375	-3.6	-3.1792	-3.4771	-3.7083	-3.2208	-3.6458	-3.6937	-3.025	-3.9208	-3.3729	-3.2667	-3.7313	-3.1208	-3.5354	-3.7167	218.783	209.750	279.785	482.035	263.051	257.224	448.541	480.502	344.379	201.639	508.407	462.013	173.293	476.040	163.203	436.186	0.00082781	0.0012786	0.0001222	936.44	8.5629e-06	9.7997e-06	1342.5	307.59	9.6078e-06	8.5266e-06	539.45	191.94	99.191	35.454	7.8308e-06	81.232	0.00086415	0.00085765	0.00023118	859.43	8.5732e-06	8.5293e-06	1215.9	281.88	8.6282e-06	8.6998e-06	495.76	174.55	91.869	33.039	8.9241e-06	74.042	264.170	205.243	257.760	162.905	384.221	321.194	162.977	167.426	271.738	252.331	167.434	171.706	171.709	177.310	240.684	176.098	-8191	255	
1920.363	1	1	0	0	0.081065	0.089473	0.14537	0.15586	0.1672	0.10245	0.36875	0.16687	0.055269	0.21582	0.06143	0.26569	0.0034291	0.053509	0.069161	0.27294	-2.6292	-3.7167	-3.1854	-3.2729	-3.6333	-3.0333	-3.4833	-3.7208	-2.9083	-3.6625	-3.325	-3.0979	-3.7438	-3.2833	-3.2979	-3.7208	264.753	249.547	247.420	389.777	306.543	305.382	451.852	457.603	368.826	222.277	296.698	481.274	257.202	455.880	360.698	447.611	0.00075079	0.0010676	0.00042346	957.75	1.3297e-05	1.4433e-05	1369.2	316.74	4.8458e-06	9.0946e-06	549.69	191.4	100.53	35.371	1.1128e-05	80.128	0.000821	0.00083245	0.00023185	875.47	9.1643e-06	9.4507e-06	1241.1	291.04	9.3751e-06	8.9968e-06	502.64	175.08	92.494	32.864	7.2598e-06	72.923	268.916	268.582	178.509	162.936	289.312	440.293	163.173	167.320	379.539	287.854	166.953	171.556	171.304	176.534	347.361	175.653	-8191	255	
1920.459	1	1	0	0	0.23376	0.1906	0.068552	0.14466	0.26435	0.15609	0.071751	0.29964	0.15895	0.2191	0.3797	0.24468	0.11997	0.19214	0.062015	0.21477	-2.6104	-3.4583	-3.5438	-3.2146	-3.7667	-3.2292	-3.2979	-3.8625	-2.9437	-3.5729	-3.7042	-3.3417	-3.8375	-3.3979	-3.1479	-3.9646	164.021	289.942	379.846	504.968	381.783	499.949	429.121	476.627	421.342	239.342	159.866	506.367	500.182	194.895	382.704	435.390	0.00080804	0.0003728	8.8668e-05	945.99	5.9359e-06	4.7171e-06	1340.9	311.57	3.7567e-06	2.1253e-06	548.62	192.24	99.416	35.446	5.6783e-06	80.34	0.00062782	0.00058304	0.00015807	856.96	5.8238e-06	5.6695e-06	1213.1	280.89	5.4125e-06	5.2904e-06	486.25	172.77	90.125	32.404	5.5982e-06	72.908	260.929	165.731	297.497	162.790	262.806	270.856	162.963	167.344	304.264	338.984	166.663	171.725	170.881	176.712	338.022	175.836	-8191	255	
1920.555	1	1	0	0	0.030747	0.11144	0.057699	0.16911	0.28978	0.19067	0.15574	0.18575	0.15965	0.3391	0.14552	0.26314	0.12998	0.18236	0.088688	0.11212	-2.5667	-3.4646	-3.4458	-3.0604	-3.7896	-3.2208	-3.4188	-3.8042	-3.2292	-3.8438	-3.7604	-3.2125	-3.7875	-3.5271	-3.4188	-3.9688	337.634	172.275	435.350	378.423	457.974	334.838	475.947	401.657	425.190	344.994	270.540	500.474	237.151	246.077	453.225	438.838	0.00079198	0.00085074	0.00029049	954.99	1.0192e-05	9.4444e-06	1359.3	313.14	1.0326e-05	1.4351e-05	545.33	191.36	99.533	35.454	2.6185e-06	80.298	0.00056131	0.00052167	0.00015343	865.83	6.2921e-06	6.481e-06	1227.8	284.04	6.714e-06	6.6181e-06	491.31	173.01	90.741	32.576	6.0594e-06	72.947	257.996	213.264	216.203	162.786	239.160	336.030	163.164	167.280	225.256	296.440	167.106	171.888	171.790	176.522	317.138	176.440	-8191	255	
1920.652	1	1	0	0	0.26461	0.25237	0.065331	0.022398	0.1755	0.20364	0.12379	0.17995	0.25566	0.13597	0.027724	0.13734	0.051454	0.052264	0.071416	0.27382	-2.8167	-3.5625	-3.9083	-3.0062	-3.5292	-3.2583	-3.3229	-3.7313	-3.0396	-3.2062	-3.9708	-3.1312	-3.85	-3.5208	-2.9354	-3.8625	460.029	381.248	276.504	348.908	438.824	302.775	505.975	232.966	426.463	288.615	298.583	203.882	184.543	159.192	349.033	170.387	0.00082423	0.00049805	0.00023914	931.88	4.1414e-06	6.3362e-06	1342.8	305.52	7.7731e-06	6.4602e-06	539.22	196.01	98.944	36.376	8.0371e-06	85.086	0.00055324	0.00051811	0.00014231	845.48	5.2642e-06	5.2933e-06	1206.6	274.95	5.0578e-06	5.1033e-06	480.38	176.55	89.679	33.281	4.9468e-06	76.595	259.315	230.295	254.513	163.397	288.962	321.312	163.211	167.550	314.981	311.450	167.489	171.921	171.898	177.160	338.465	176.190	-8191	255	
1920.748	1	1	0	0	0.20265	0.3194	0.062778	0.25825	0.20835	0.041829	0.16778	0.12993	0.32616	0.19093	0.26913	0.24422	0.069863	0.10043	0.07963	0.12121	-2.9	-3.1417	-3.7771	-3.3354	-3.6229	-3.5646	-3.4146	-3.9792	-3.3563	-3.025	-3.8271	-3.3104	-3.6771	-3.5292	-2.9188	-3.8771	352.996	245.221	328.322	456.012	175.420	226.600	344.554	347.909	263.566	477.035	208.185	178.750	254.207	167.528	157.995	433.943	0.00086761	0.0011842	3.4824e-05	932.08	5.5559e-06	3.981e-06	1352.2	304.6	6.6253e-06	7.7109e-06	542.61	196.54	100.17	36.026	6.1219e-06	81.248	0.00050318	0.00046435	0.00012599	842.66	5.0394e-06	4.9344e-06	1213.7	274.82	5.0633e-06	4.9592e-06	484.46	177.21	90.8	32.953	5.5102e-06	73.53	261.341	246.946	392.304	162.909	243.874	334.803	163.257	167.944	382.718	318.763	167.180	172.001	172.147	177.283	335.234	176.384	-8191	255	
1920.844	1	1	0	0	0.15117	0.060161	0.11752	0.089334	0.31603	0.032949	0.29301	0.23962	0.12591	0.15947	0.18254	0.089203	0.18573	0.35673	0.21875	0.088581	-2.8771	-3.2104	-3.7188	-3.1625	-3.3167	-3.6188	-3.225	-3.6813	-3.4396	-3.125	-4.0125	-3.4208	-3.3542	-3.625	-3.2917	-3.9083	417.908	270.102	296.064	219.374	258.036	369.826	157.357	414.297	200.502	193.664	490.398	491.859	407.562	438.997	476.322	164.049	0.0007978	0.0011139	0.00025166	954.59	7.0288e-06	1.1182e-05	1357.9	314.05	3.8989e-06	1.1225e-05	543.59	189.01	100.2	34.811	4.423e-06	79.342	0.00055122	0.00052256	0.0001433	865.17	5.5728e-06	5.5456e-06	1225.6	282.48	5.485e-06	5.4854e-06	488.43	171.3	90.472	31.963	5.4363e-06	71.454	262.190	228.133	275.909	163.018	323.412	350.310	162.974	167.561	369.492	301.107	167.165	172.044	172.010	177.155	291.165	176.250	-8191	255	
1920.963	1	1	0	0	0.20492	0.10712	0.099123	0.30758	0.11247	0.17742	0.15178	0.25788	0.18754	0.21936	0.12343	0.32702	0.21654	0.12738	0.11179	0.20933	-3.2104	-3.1792	-3.6604	-3.4396	-3.3375	-3.8854	-3.3958	-3.7833	-3.5708	-3.2188	-3.6958	-3.3708	-3.2812	-3.9083	-3.075	-3.55	285.637	351.950	249.824	473.246	479.399	254.602	419.284	390.970	388.653	212.771	403.082	462.379	149.371	457.484	193.546	428.559	0.0008255	0.00099504	3.4669e-05	954.55	4.7522e-06	1.1102e-05	1365.2	318.48	2.0612e-06	8.0987e-06	552.15	194.63	101.53	36.059	6.1903e-06	81.894	0.00052405	0.00048572	0.00013408	863.68	4.9876e-06	4.9577e-06	1227.1	286.62	4.7835e-06	4.9254e-06	493.27	175.31	91.5	32.891	4.8328e-06	74.042	255.605	154.026	231.734	163.264	313.564	289.624	163.114	167.329	279.353	282.901	167.164	171.926	171.528	177.489	316.033	176.108	-8191	255	
1921.059	1	1	0	0	0.089609	0.15571	0.12453	0.11784	0.056599	0.13353	0.13864	0.050675	0.20447	0.13039	0.15221	0.10335	0.10652	0.03209	0.11778	0.080539	-3.2021	-2.9917	-3.8583	-3.55	-3.2208	-3.7625	-3.2604	-3.6167	-3.5812	-2.925	-3.9083	-3.4354	-3.1854	-3.8563	-3.0271	-3.5312	317.760	348.701	380.954	472.303	253.201	252.137	161.587	399.429	221.833	198.072	356.718	472.585	173.204	503.192	459.101	430.642	0.00092036	0.00087107	8.7109e-05	963.42	5.0712e-06	6.0649e-06	1376.3	323.61	4.7422e-06	9.4787e-06	567.33	197.51	104.02	37.017	7.8974e-06	82.547	0.00048661	0.00044775	0.00012227	868.32	4.8895e-06	4.8198e-06	1236.2	290.96	4.88e-06	4.8009e-06	499.91	177.78	93.998	33.498	4.9286e-06	74.684	258.661	262.909	256.826	162.965	277.952	292.993	162.912	167.658	320.581	324.445	167.307	171.742	171.242	176.386	277.162	176.411	-8191	255	
1921.155	1	1	0	0	0.20539	0.09962	0.12318	0.035609	0.1422	0.20419	0.1172	0.13033	0.038419	0.1448	0.09034	0.13795	0.1881	0.07053	0.17882	0.19716	-3.15	-2.9917	-3.4958	-3.5021	-3.0583	-3.7812	-3.2479	-3.45	-3.6188	-2.9917	-3.6063	-3.6125	-2.9708	-3.7208	-3.2854	-3.2458	436.459	445.110	399.024	226.913	373.801	223.872	443.758	186.449	172.190	331.216	385.868	465.972	242.053	450.636	389.877	421.353	0.00086883	0.0012608	0.00033308	990.77	5.0638e-06	1.1171e-05	1383.9	330.74	7.5447e-06	7.3991e-06	559.38	196.86	103.19	36.006	7.45e-06	79.784	0.00050246	0.00046894	0.00013054	893.29	5.246e-06	5.1201e-06	1249.3	298.07	5.1869e-06	5.1732e-06	500.84	176.46	93.488	32.761	5.05e-06	72.357	263.732	232.082	231.492	162.642	301.792	285.463	162.900	167.522	361.308	354.366	167.810	171.666	171.272	176.747	281.868	175.996	-8191	255	
1921.251	1	1	0	0	0.12244	0.052179	0.129	0.090198	0.051795	0.024609	0.15554	0.13472	0.14545	0.11781	0.10885	0.22766	0.28297	0.3721	0.15704	0.12605	-3.1896	-3.0312	-3.5771	-3.5208	-2.8375	-3.7167	-3.4354	-3.1688	-3.7583	-2.8521	-3.5062	-3.6813	-2.9979	-3.7417	-3.2104	-3.35	156.805	491.185	375.797	419.706	371.426	392.060	497.452	175.353	355.572	397.618	348.667	464.637	489.709	498.607	198.002	464.277	0.00083821	0.00074365	0.00029988	978.15	3.1757e-06	1.3617e-05	1384.3	325.59	7.3064e-06	5.617e-06	553.56	194.11	102.32	35.476	4.243e-06	79.609	0.00049364	0.00046427	0.00012695	881.17	5.0828e-06	5.0044e-06	1238.1	292.65	5.0133e-06	4.913e-06	493.85	174.79	92.35	32.311	5.0885e-06	72.079	257.953	274.835	218.875	162.942	367.045	314.201	163.037	167.445	315.992	345.337	166.814	171.800	171.323	176.313	238.501	176.168	-8191	255	
1921.347	1	1	0	0	0.10798	0.12257	0.059669	0.042346	0.1328	0.25596	0.39286	0.21677	0.13154	0.15417	0.22782	0.077907	0.16404	0.30681	0.11773	0.19948	-3.2729	-3.1063	-3.3167	-3.6667	-2.8896	-3.6083	-3.4938	-3.0812	-3.7958	-3.1479	-3.3833	-3.85	-3.3125	-3.8125	-3.5021	-3.55	202.964	388.031	376.401	412.215	439.310	246.041	449.392	446.713	337.593	284.224	305.274	428.701	480.501	447.669	402.315	247.886	0.00085602	0.00036075	0.00026417	977.64	7.7334e-06	4.0319e-06	1391.2	328.14	6.4988e-06	1.204e-05	560.86	194.99	103.79	35.98	3.2566e-06	81.472	0.00048755	0.00046485	0.00012632	880.19	4.9764e-06	4.9055e-06	1245.5	294.48	4.8909e-06	4.9239e-06	499.34	176.47	93.836	32.989	4.9713e-06	73.469	267.983	157.565	233.701	163.059	316.131	352.294	163.080	167.600	313.945	295.934	166.499	171.033	170.905	176.287	291.758	175.325	-8191	255	
1921.444	1	1	0	0	0.28165	0.14758	0.25478	0.076639	0.34879	0.035012	0.17036	0.16053	0.12247	0.17956	0.061634	0.067117	0.1481	0.11332	0.067615	0.26632	-3.4979	-3.2125	-3.5438	-4.0667	-2.9958	-3.8896	-3.7896	-3.3771	-3.7042	-3.2687	-3.1	-3.8021	-3.1312	-3.5812	-3.4813	-3.2583	430.507	496.613	258.929	312.522	175.091	445.580	436.939	506.086	479.131	330.628	319.382	409.408	435.650	233.541	461.050	484.659	0.0009633	0.0007327	0.00022731	994.03	3.1462e-06	5.8102e-06	1388.4	332.81	2.7931e-06	6.0315e-06	569.32	199.66	106.42	37.141	1.0117e-05	82.631	0.00049849	0.00046005	0.00012741	892.55	4.9671e-06	5.0153e-06	1254.6	300.53	5.0548e-06	5.0441e-06	505.78	179.72	95.907	33.763	4.9389e-06	74.872	259.006	219.863	222.034	162.819	313.050	298.723	162.659	166.915	391.595	290.598	166.768	171.419	171.401	176.374	324.361	175.787	-8191	255	
1921.540	1	1	0	0	0.10132	0.20289	0.16229	0.25682	0.12056	0.049294	0.10958	0.1119	0.26448	0.12992	0.20673	0.39131	0.17082	0.1375	0.14286	0.12533	-3.4333	-3.2417	-3.0896	-3.7833	-3.1562	-3.1521	-3.8271	-3.0792	-3.6292	-3.3042	-3.1792	-3.85	-3.1042	-3.4042	-3.5792	-3.2021	405.408	475.701	274.385	496.008	308.058	413.883	483.437	438.274	246.976	463.629	488.969	502.349	172.794	448.862	454.210	457.516	0.00084169	0.00027645	0.00013175	986.43	5.4253e-06	3.8404e-06	1392.6	330.36	8.657e-06	6.4224e-06	571.44	199.12	105.3	37.396	6.641e-06	83.028	0.00049295	0.00045381	0.00012696	891.14	5.0366e-06	5.0224e-06	1254.1	297.85	5.0165e-06	5.0684e-06	505.47	180.04	94.965	33.934	5.0281e-06	75.112	263.692	221.531	421.777	162.707	306.125	240.588	162.755	167.547	294.559	230.064	167.314	171.382	171.048	177.050	406.549	175.611	-8191	255	
1921.636	1	1	0	0	0.097235	0.16213	0.092296	0.23791	0.10213	0.10207	0.30801	0.20437	0.10085	0.25784	0.092797	0.17825	0.18932	0.34809	0.12321	0.24531	-3.2958	-3.3521	-2.9021	-3.8292	-3.0875	-3.3542	-3.8229	-3.0208	-3.6646	-3.5187	-3.0396	-4.0146	-3.3	-3.3979	-3.7125	-3.0917	336.640	229.492	471.569	455.906	342.770	195.960	450.429	339.634	390.013	263.727	447.152	445.520	197.838	233.430	158.373	431.655	0.0010121	0.00033281	0.00017216	980.71	9.7672e-06	7.7431e-06	1381	322.36	3.5507e-06	5.1975e-06	551.96	197.34	103.86	36.783	5.3807e-06	83.405	0.00049654	0.00044834	0.00013005	884.33	4.946e-06	4.965e-06	1242	290.94	4.883e-06	4.971e-06	496.63	178.05	93.585	33.715	4.9296e-06	75.171	256.489	283.974	286.159	162.643	304.942	373.870	163.216	167.100	234.041	326.446	166.900	172.009	171.140	176.769	348.117	175.781	-8191	255	
1921.756	1	1	0	0	0.064489	0.14305	0.18845	0.31026	0.14555	0.065248	0.23145	0.1979	0.18361	0.26116	0.22497	0.29128	0.099149	0.16141	0.09798	0.42504	-3.0687	-3.4104	-3.0375	-3.8187	-3.3063	-3.1917	-3.9813	-3.1437	-3.5396	-3.6958	-3.0146	-3.8208	-3.2917	-3.1667	-3.5167	-3.1604	418.361	458.266	296.681	220.511	369.818	439.426	446.540	429.481	413.935	408.335	458.414	426.993	313.836	504.598	472.072	150.480	0.00080156	0.00023878	5.1226e-05	987.47	2.8414e-06	6.43e-06	1394.8	327.8	5.8362e-06	8.6292e-06	563.52	199.81	104.52	37.207	6.8277e-06	83.172	0.00049688	0.00045278	0.00012779	891.97	5.0489e-06	5.1468e-06	1252.2	296.31	5.1233e-06	5.0632e-06	502.19	179.64	94.822	33.949	5.1181e-06	75.36	255.301	240.136	225.141	162.832	292.967	243.202	162.824	167.348	306.232	276.235	167.312	171.761	171.510	176.813	327.637	176.000	-8191	255	
1921.851	1	1	0	0	0.24697	0.33488	0.090045	0.17058	0.095675	0.28127	0.11087	0.39793	0.090814	0.18421	0.12414	0.22668	0.13675	0.079272	0.22303	0.28364	-3.0042	-3.5125	-2.8167	-3.7438	-3.3021	-3.2333	-3.8688	-3.1813	-3.3563	-3.9125	-3.1562	-4.0167	-3.6146	-3.2604	-4.0604	-3.2521	414.273	191.841	215.438	243.712	435.312	488.093	176.554	436.287	401.600	304.249	252.817	151.575	442.103	385.869	350.052	157.228	0.00084805	0.0010774	7.1736e-05	992.58	6.0656e-06	8.6057e-06	1406.9	330.33	6.1282e-06	4.1234e-06	570.62	199.9	105.23	37.751	8.1309e-06	84.139	0.00051673	0.00046582	0.0001351	897.9	5.1874e-06	5.1384e-06	1261.6	297.68	5.1791e-06	5.0759e-06	506.36	180.91	95.321	34.287	5.0549e-06	75.921	262.027	245.837	200.430	162.961	287.796	289.284	162.868	166.779	326.085	275.594	167.770	171.773	171.273	176.895	350.303	175.695	-8191	255	
1921.924	1	1	0	0	0.071639	0.090503	0.056397	0.34305	0.096169	0.13249	0.16887	0.19981	0.11502	0.26662	0.17639	0.23695	0.26472	0.30671	0.081817	0.14266	-2.8542	-3.7146	-3.0583	-3.6688	-3.6521	-3.0271	-4.0896	-3.45	-3.3479	-4.0208	-3.0521	-3.6437	-3.8979	-3.1208	-3.9396	-3.425	483.448	355.184	193.919	476.657	254.994	423.375	170.676	505.094	385.964	290.928	195.198	473.577	197.295	472.929	466.267	501.677	0.00085699	0.00078734	4.8697e-05	988.22	5.7005e-06	1.3614e-05	1387.3	327.8	8.0917e-06	1.4679e-05	554.58	199.01	103.87	36.834	1.321e-06	83.482	0.00050472	0.00046483	0.00012663	892.69	4.9121e-06	5.0139e-06	1252.7	294.43	4.9503e-06	4.953e-06	498.47	179.21	93.878	33.755	5.0026e-06	75.292	261.582	248.999	211.378	163.230	419.764	290.908	163.200	167.565	304.971	312.408	166.946	171.887	171.649	177.160	255.073	175.759	-8191	255	
1922.045	1	1	0	0	0.37466	0.045324	0.19511	0.069478	0.22256	0.11324	0.19837	0.26532	0.30012	0.094864	0.15665	0.2521	0.22339	0.14108	0.034644	0.10875	-2.7458	-3.6104	-2.9479	-3.3208	-3.575	-3.0396	-3.825	-3.4313	-3.0521	-3.7583	-3.1104	-3.3167	-3.5875	-3.0938	-3.6437	-3.3146	206.191	325.391	184.532	198.998	425.701	196.164	402.936	487.575	323.631	362.737	288.861	483.596	152.765	476.986	453.816	426.706	0.00085809	0.00077019	0.00035473	982.88	1.1544e-05	1.3092e-05	1398.4	326.16	5.2544e-06	1.1547e-05	556.85	199.27	103.58	37.211	1.2023e-05	83.271	0.00049839	0.00045435	0.00012588	886.87	5.0178e-06	4.9935e-06	1254	292.94	5.0084e-06	5.0648e-06	500.23	179.57	93.67	33.888	5.0297e-06	75.395	260.483	198.253	248.917	162.663	295.663	278.794	163.095	167.331	263.308	283.830	166.939	171.958	171.277	177.139	338.310	176.004	-8191	255	
1922.139	1	1	0	0	0.17152	0.28425	0.10874	0.30314	0.18231	0.12168	0.22471	0.088698	0.025768	0.087859	0.14159	0.25293	0.26724	0.047598	0.087976	0.054123	-2.5979	-3.6	-2.9688	-3.1771	-3.6333	-2.9667	-3.8292	-3.5604	-2.875	-3.6583	-3.0792	-3.2438	-3.6833	-2.9979	-3.6083	-3.5521	323.957	499.763	238.170	449.287	468.098	291.675	451.366	151.307	507.659	169.850	232.988	470.136	455.845	376.946	440.846	468.804	0.00084867	0.00093415	0.00024838	989.41	6.1452e-06	4.4613e-06	1400.7	328.57	3.1168e-06	1.528e-06	567.66	199.92	105.24	37.403	8.2525e-06	84.003	0.00050178	0.00046194	0.00012949	891.33	5.2033e-06	5.2116e-06	1260.7	295.46	5.1504e-06	5.1743e-06	504.19	180.82	95.129	34.188	5.1817e-06	75.94	261.642	210.833	237.830	163.003	319.533	421.223	163.330	167.578	209.364	298.676	167.300	172.083	171.675	176.891	373.597	176.319	-8191	255	
1922.235	1	1	0	0	0.13242	0.16802	0.12748	0.37409	0.12135	0.083949	0.28961	0.31496	0.19888	0.26574	0.098554	0.38741	0.27226	0.18006	0.15907	0.12657	-2.3729	-3.6729	-3.2062	-3.1708	-3.6688	-2.9396	-3.4938	-3.5104	-2.925	-3.7188	-3.1958	-3.0896	-3.9604	-3.1333	-3.4188	-3.7083	347.862	487.559	301.982	472.111	285.142	352.146	426.231	437.943	453.067	251.377	204.771	494.709	484.901	198.945	397.610	438.794	0.00086395	0.00059539	0.00029235	998.49	1.5131e-05	6.2574e-06	1420.2	335.34	4.0057e-06	4.4673e-06	572.42	201.29	106.75	37.106	6.3325e-06	82.926	0.00052136	0.00048048	0.0001297	905.24	5.2281e-06	5.1455e-06	1275.1	302.11	5.2477e-06	5.2036e-06	509.82	181.18	96.649	34.019	5.1826e-06	74.995	259.029	267.429	236.493	163.303	340.117	280.381	163.432	167.250	282.902	281.739	166.820	172.192	171.526	176.307	320.818	176.121	-8191	255	
1922.332	1	1	0	0	0.19973	0.20624	0.070594	0.19476	0.25926	0.074308	0.3621	0.14301	0.1192	0.2521	0.30059	0.074522	0.17708	0.13938	0.20571	0.20031	-2.6146	-3.9042	-3.4396	-3.25	-3.7792	-2.9896	-3.5187	-4.0833	-3.0187	-3.7396	-3.6583	-3.2333	-4.0958	-3.2104	-3.3521	-3.9688	385.557	440.245	333.450	263.184	307.071	435.613	413.522	487.572	371.837	309.608	434.529	160.761	369.192	388.418	502.501	468.032	0.00091097	0.00040527	0.00024416	1007.6	2.1184e-06	1.2773e-05	1406	334.35	4.9018e-06	3.4104e-06	565.92	200.43	104.7	37.592	3.7294e-06	83.845	0.0005137	0.00047207	0.00013059	907.9	5.1842e-06	5.2659e-06	1263.7	300.49	5.1532e-06	5.0318e-06	503.31	180.29	95.284	34.207	5.1001e-06	75.488	260.571	202.143	201.992	162.949	392.075	284.661	163.040	167.261	340.067	271.453	167.236	171.751	171.784	176.578	336.214	175.892	-8191	255	
1922.452	1	1	0	0	0.080803	0.17077	0.14762	0.091286	0.081795	0.16753	0.098165	0.048111	0.04114	0.028241	0.22699	0.13336	0.072786	0.03497	0.24089	0.38516	-2.6479	-3.625	-3.6229	-2.9667	-3.7021	-3.1021	-3.2708	-3.6937	-2.6104	-3.3312	-3.5375	-3.0687	-3.7333	-3.2146	-2.8708	-3.9104	490.531	382.993	154.542	467.817	384.283	500.542	368.789	356.733	425.907	229.645	440.168	173.807	196.514	466.563	504.925	462.892	0.00090912	0.00077743	0.00025912	996.67	1.7166e-06	9.017e-06	1399.6	326.32	5.2204e-06	6.1237e-06	558.22	199.97	104.71	37.671	7.3922e-06	84.104	0.00051038	0.00045979	0.00012911	899.56	5.1422e-06	5.0585e-06	1254.7	294.34	5.0615e-06	5.0878e-06	498.06	179.02	94.618	34.164	5.1413e-06	75.826	263.848	215.938	261.636	163.105	341.924	335.154	163.050	167.440	301.436	330.263	167.067	172.172	171.527	177.134	250.063	176.019	-8191	255	
1922.548	1	1	0	0	0.098333	0.092453	0.14832	0.070361	0.14491	0.2222	0.22953	0.26005	0.054581	0.21665	0.20305	0.033602	0.11236	0.034337	0.21992	0.21825	-2.3458	-3.2917	-3.5896	-2.9062	-3.5875	-3.3375	-3.2104	-3.7438	-2.9167	-3.2708	-3.5604	-3.0333	-3.6125	-3.3542	-2.9542	-3.7771	460.771	464.734	499.893	412.435	163.611	161.814	502.296	501.406	437.015	220.171	428.080	168.417	457.952	416.562	440.680	454.628	0.00090858	0.0003306	0.00013769	1001.6	3.1073e-06	3.8712e-06	1399.2	328.05	2.8409e-06	5.23e-06	564.9	201.19	106.1	38.066	1.0321e-05	85.933	0.00051054	0.00046778	0.00013	900.62	5.1264e-06	5.1324e-06	1260.1	297.87	5.2733e-06	5.2051e-06	504.13	181.79	96.177	34.778	5.3086e-06	77.322	261.908	266.418	239.490	163.136	391.832	357.774	163.192	167.689	359.705	324.546	167.518	172.153	171.798	177.084	381.633	176.077	-8191	255	
1922.645	1	1	0	0	0.080852	0.19376	0.17416	0.3551	0.11298	0.086027	0.16453	0.3501	0.055465	0.15363	0.095256	0.22807	0.092147	0.064949	0.060267	0.28964	-2.6646	-3.2	-3.4708	-2.9646	-3.5521	-3.5167	-3.1625	-3.6583	-3.3688	-3.1083	-3.6125	-2.8208	-3.5312	-3.4771	-2.8229	-3.6958	272.421	464.658	358.245	478.025	236.471	495.432	218.703	466.529	324.437	226.068	455.306	478.200	164.363	317.188	367.270	477.411	0.00081304	0.00089044	0.00029176	1012.1	1.2159e-05	5.5007e-06	1420.7	335.17	6.1085e-06	4.1005e-06	569.42	201.13	106.52	37.819	7.362e-06	83.855	0.00051428	0.00048442	0.00013401	912.41	5.2754e-06	5.2328e-06	1274.5	301.54	5.2582e-06	5.2445e-06	506.56	181.39	96.762	34.543	5.2725e-06	75.699	265.804	241.994	179.356	162.850	289.821	285.513	163.264	167.651	294.487	481.097	167.576	171.959	171.765	176.613	383.744	176.049	-8191	255	
1922.741	1	1	0	0	0.1114	0.069925	0.24712	0.11816	0.27182	0.17982	0.65269	0.087925	0.052681	0.077094	0.10603	0.24263	0.13725	0.084712	0.099116	0.30777	-2.675	-3.075	-3.6479	-2.9271	-3.3812	-3.4938	-3.0792	-3.7604	-3.2687	-3.0062	-3.8312	-3.3333	-3.4292	-3.3812	-2.8208	-3.7479	261.126	233.393	210.396	433.775	331.272	495.894	453.173	356.412	159.147	421.697	298.631	152.530	443.410	168.854	209.354	432.896	0.00082269	0.0012802	0.00028416	1009	5.8676e-06	1.4588e-05	1400.8	328.01	1.0749e-05	3.173e-06	560.17	197.9	104.72	37.321	8.427e-06	82.857	0.00052369	0.00048528	0.00013545	909.89	5.2891e-06	5.2048e-06	1261	296.16	5.2293e-06	5.2094e-06	500.83	178.5	94.905	34.106	5.2769e-06	75.159	265.753	221.614	240.299	163.049	327.161	303.372	162.759	167.417	295.179	244.504	167.098	171.659	171.555	176.821	336.818	175.866	-8191	255	
1922.837	1	1	0	0	0.2134	0.081655	0.17553	0.12362	0.22382	0.087496	0.23806	0.19536	0.19178	0.10513	0.10335	0.12849	0.20143	0.13052	0.32599	0.27973	-2.9188	-2.9813	-3.6271	-3.0167	-3.5229	-3.8729	-3.375	-3.6771	-3.7292	-2.9625	-3.8458	-3.3646	-3.2333	-3.8271	-3.2396	-3.7521	327.224	206.137	482.102	169.013	203.876	164.126	474.493	436.076	473.379	297.900	484.387	386.990	236.362	479.229	213.040	413.805	0.00080595	0.00065908	0.00034755	997.48	1.1458e-05	4.4268e-06	1404.1	328.25	1.3141e-06	1.3714e-05	564.98	198.97	105.27	37.573	1.1785e-05	84.116	0.00051586	0.00047294	0.00013162	905.34	5.4125e-06	5.2374e-06	1258.9	296.15	5.1892e-06	5.1562e-06	501.76	179.49	95.185	34.247	5.1138e-06	75.697	260.931	256.150	245.313	163.026	281.564	312.784	163.279	167.340	277.951	290.629	167.423	171.995	171.336	176.816	347.745	176.509	-8191	255	
1922.931	1	1	0	0	0.081871	0.19364	0.1783	0.2629	0.070634	0.14686	0.28025	0.21608	0.11393	0.047326	0.092111	0.059269	0.10835	0.23161	0.057602	0.26199	-2.9896	-2.9083	-3.8438	-3.3917	-3.1	-3.5146	-3.1104	-3.5708	-3.4146	-2.9208	-3.6542	-3.4708	-3.1937	-3.6208	-2.8896	-3.5354	275.834	468.084	260.832	446.388	334.887	344.027	479.656	476.812	196.388	469.225	166.409	317.843	359.014	404.094	376.018	450.915	0.0008964	0.0014102	5.8661e-05	1004.3	2.1158e-06	1.1366e-05	1402.3	329.76	1.544e-06	7.3836e-06	561.65	200.57	106.3	38.4	6.2194e-06	84.387	0.00050822	0.00046931	0.00012954	907.18	5.2455e-06	5.0819e-06	1262.3	296.87	5.2101e-06	5.2641e-06	501.94	180.83	96.202	34.783	5.2606e-06	76.24	262.793	219.317	490.829	163.144	281.334	304.249	162.970	167.641	338.246	401.661	167.902	172.489	171.755	177.092	278.663	176.577	-8191	255	
1923.052	1	1	0	0	0.27476	0.11235	0.24778	0.18473	0.15778	0.17617	0.31976	0.25466	0.28116	0.089514	0.053279	0.33767	0.21096	0.19861	0.20553	0.13626	-2.9396	-2.9625	-3.4708	-3.3792	-2.9271	-3.7417	-3.0979	-3.3521	-3.3646	-2.8229	-3.5208	-3.4375	-3.0375	-3.7979	-2.9646	-3.4292	260.064	165.047	502.922	474.685	379.248	488.962	452.212	405.620	250.863	461.890	509.228	453.071	156.872	402.392	251.687	436.770	0.0008988	0.00034991	0.0002812	1022.4	9.6246e-06	1.1143e-05	1420.4	334.55	7.0195e-06	1.1509e-05	565.62	201.18	106.08	38.046	6.0988e-06	84.221	0.00053304	0.00049077	0.00013758	925.06	5.4628e-06	5.3668e-06	1275.2	300.57	5.2958e-06	5.2654e-06	503.86	181.49	96.204	34.743	5.1867e-06	76.019	264.538	285.861	227.156	163.400	303.920	329.351	163.564	168.128	310.287	306.327	167.814	171.964	172.210	177.318	345.008	176.441	-8191	255	
1923.148	1	1	0	0	0.075727	0.26566	0.078174	0.11275	0.16646	0.22622	0.18431	0.071535	0.1513	0.4043	0.093606	0.12685	0.088528	0.15868	0.1248	0.1111	-3.3896	-2.8854	-3.4479	-3.4688	-2.8792	-3.5812	-3.3958	-3.2458	-3.6021	-2.9	-3.7562	-3.5312	-2.8312	-3.6937	-3.1	-3.0833	222.616	270.805	389.579	417.522	453.822	413.084	483.919	473.422	157.846	307.645	193.527	493.155	403.448	459.061	455.737	330.296	0.00089843	0.00042676	0.00027271	1009.4	1.307e-05	8.4176e-06	1395.9	323.64	4.2611e-06	8.9125e-06	554.15	198.74	105.15	37.434	8.5209e-06	82.35	0.00051234	0.00048819	0.00013532	909.72	5.2533e-06	5.3497e-06	1253.3	293.45	5.4498e-06	5.254e-06	494.29	178.48	95.079	34.127	5.2556e-06	74.659	260.137	228.747	154.402	162.982	288.743	331.098	163.195	168.090	255.726	343.351	168.253	172.297	172.614	177.884	308.725	176.853	-8191	255	
1923.220	1	1	0	0	0.15601	0.16658	0.10092	0.32913	0.08041	0.048641	0.15914	0.23046	0.037885	0.11118	0.12736	0.19227	0.094155	0.23582	0.22427	0.067967	-3.1813	-2.7333	-3.325	-3.5438	-3.0229	-3.8521	-3.4271	-3.1792	-3.7375	-2.9958	-3.4437	-3.5271	-3.0896	-3.6312	-3.3292	-3.0521	352.736	308.473	487.005	158.637	475.727	253.476	494.982	413.279	500.596	199.435	211.801	444.076	185.057	364.027	437.539	465.490	0.00080181	0.00087348	0.00014502	1006.9	8.4671e-06	8.8603e-06	1398.5	328.71	1.1594e-05	3.6853e-06	556.25	198.44	106.05	38.064	5.4117e-06	84.01	0.00053368	0.00049176	0.0001366	906.99	5.4339e-06	5.3532e-06	1256	295.93	5.3539e-06	5.3083e-06	497.07	178.73	95.984	34.656	5.1383e-06	76.153	262.684	210.306	208.751	163.370	332.347	283.450	163.468	167.810	290.060	354.410	167.249	171.708	172.030	177.460	355.296	176.125	-8191	255	
1923.316	1	1	0	0	0.18332	0.092859	0.31626	0.06934	0.32719	0.062165	0.18045	0.19921	0.44163	0.096427	0.096909	0.25388	0.22179	0.11272	0.10244	0.20485	-3.2729	-3.0396	-3.2729	-3.6104	-2.9604	-3.4979	-3.5083	-3.2896	-3.8792	-3.1771	-3.3708	-3.8958	-3.2271	-3.8104	-3.5667	-3.2146	225.795	404.269	234.712	436.963	475.693	347.367	436.152	404.303	454.647	364.343	474.837	150.914	175.394	379.985	151.366	443.627	0.0008818	0.00068202	0.0003275	1012	1.0094e-05	7.7684e-06	1397	330.83	4.3026e-06	1.1369e-05	564.97	203.93	107.47	38.761	9.3778e-06	86.193	0.00051937	0.00048042	0.0001368	911.6	5.346e-06	5.2378e-06	1260.3	298.31	5.273e-06	5.2378e-06	505.2	182.88	97.278	35.436	5.2332e-06	77.692	264.845	242.181	237.075	163.112	317.861	281.436	163.462	167.863	304.633	229.301	167.112	172.255	171.737	177.140	324.161	176.596	-8191	255	
1923.436	1	1	0	0	0.19534	0.07408	0.036364	0.1523	0.14478	0.20903	0.21926	0.30122	0.16567	0.021095	0.22692	0.13069	0.26351	0.16529	0.15153	0.19709	-3.5708	-3.2708	-3.1521	-3.6021	-2.8688	-3.4521	-3.5979	-2.7938	-3.5667	-3.0833	-2.975	-3.8083	-3.0854	-3.5	-3.4729	-3.1979	393.232	267.200	413.269	457.408	387.560	260.742	418.217	436.497	247.459	505.421	184.045	476.728	509.566	448.255	416.316	434.944	0.00086831	0.00076015	0.00020043	1012.9	8.3271e-06	5.24e-06	1402.2	329.73	1.724e-06	6.3383e-06	556.01	198.56	105.81	37.781	6.2592e-06	83.499	0.00052716	0.00047632	0.00013486	916.42	5.2477e-06	5.2675e-06	1260.3	297.24	5.3037e-06	5.3379e-06	498.74	179.6	95.612	34.477	5.1944e-06	75.355	259.737	211.911	249.626	163.158	276.086	354.314	163.043	167.925	358.253	337.375	168.000	172.274	172.199	177.764	314.592	176.519	-8191	255	
1923.533	1	1	0	0	0.028258	0.15122	0.15659	0.36837	0.17864	0.015908	0.10615	0.13841	0.064838	0.20701	0.13457	0.28462	0.025096	0.13805	0.038522	0.29725	-3.3167	-3.1562	-3.0812	-3.8	-2.825	-3.0896	-3.6521	-2.9542	-3.5771	-3.4688	-3.0229	-3.8521	-3.1979	-3.325	-3.6875	-3.0958	311.840	473.713	291.003	190.222	192.219	445.839	356.216	495.076	155.829	219.545	467.082	445.063	223.641	166.076	338.114	417.772	0.00087083	0.00048553	8.9788e-05	997.09	6.4256e-06	1.3038e-05	1393.8	323.34	8.1613e-06	5.7159e-06	550.31	197.35	104.4	37.377	6.564e-06	83.291	0.00051702	0.00046646	0.00013096	901.78	5.1231e-06	5.1944e-06	1246.6	290.93	5.0009e-06	5.0385e-06	491.12	177.78	94.134	34.212	5.0656e-06	75.322	263.490	208.884	261.042	163.199	292.251	333.962	163.206	168.163	345.576	319.286	167.841	172.076	172.120	177.629	464.244	176.217	-8191	255	
1923.629	1	1	0	0	0.131	0.13765	0.31797	0.31797	0.02859	0.29491	0.26791	0.15918	0.17271	0.24332	0.12448	0.1569	0.37152	0.22316	0.13185	0.21983	-3.0708	-3.3312	-3.0521	-3.7958	-3.1896	-3.4375	-3.7979	-3.3208	-3.7396	-3.4396	-3.0083	-4.0437	-3.3625	-3.3771	-4.1271	-3.275	361.243	316.562	216.154	485.235	447.424	325.168	441.970	391.063	439.621	467.787	415.349	185.744	416.933	479.475	491.926	500.070	0.00077696	0.00051796	0.00024988	1003	4.2151e-06	9.8454e-06	1386.6	324.42	3.5906e-06	5.352e-06	557.29	198.58	105.4	38.152	5.4991e-06	84.376	0.00051168	0.0004538	0.00013085	904.44	5.1307e-06	5.0316e-06	1248.8	292.21	5.0933e-06	5.052e-06	495.89	179	95.248	34.71	4.9888e-06	76.177	270.595	222.923	207.544	163.393	348.167	331.385	163.751	168.133	348.322	315.475	168.305	172.499	172.105	177.681	308.497	176.300	-8191	255	
1923.725	1	1	0	0	0.12141	0.31345	0.14277	0.1595	0.27114	0.12842	0.26439	0.30861	0.14719	0.12426	0.094366	0.19642	0.14022	0.3612	0.14202	0.42642	-3.2438	-3.7583	-3.0146	-3.8604	-3.4521	-3.2062	-3.9833	-3.3458	-3.5625	-3.6958	-3.0625	-3.7833	-3.3833	-2.9042	-3.675	-3.1917	337.430	306.145	187.823	412.546	202.485	496.896	458.743	435.534	507.050	442.937	377.474	498.183	495.391	469.457	298.637	447.161	0.0008472	0.00030549	0.00026577	1004.6	4.8851e-06	6.4318e-06	1400.1	329.24	2.0327e-06	6.1886e-06	554.48	200.99	105.91	38.385	8.2637e-06	83.735	0.00049335	0.00045511	0.00012595	907.74	4.8344e-06	4.8879e-06	1260.9	295.39	4.8004e-06	4.9874e-06	496.77	180.62	96.075	34.9	4.734e-06	75.688	264.403	246.689	196.328	163.637	329.379	340.231	163.651	168.009	411.945	315.174	168.141	172.680	172.079	177.628	272.678	176.346	-8191	255	
1923.821	1	1	0	0	0.072419	0.04765	0.09021	0.1843	0.18269	0.097045	0.11422	0.091064	0.044557	0.12433	0.16357	0.40227	0.13635	0.12006	0.27182	0.11869	-2.8458	-3.6188	-3.0375	-3.8479	-3.4354	-3.2542	-3.8958	-3.1854	-3.5354	-3.7167	-3.0896	-3.9333	-3.6333	-3.0917	-3.5062	-3.0292	201.489	461.784	479.589	165.428	334.294	481.911	226.725	420.014	295.411	208.803	454.431	467.499	436.461	485.652	369.986	475.751	0.00086091	0.00084729	0.00021578	1018.2	4.3003e-06	1.1427e-05	1414.3	328.97	8.0929e-06	1.2727e-05	556.61	197.36	106.32	37.632	7.5278e-06	82.59	0.00047805	0.00042552	0.00012354	916.72	4.8197e-06	4.7326e-06	1262.8	295.28	4.6411e-06	4.6403e-06	492.27	178.12	95.726	34.265	4.6071e-06	74.337	262.027	225.574	245.116	163.516	252.033	300.588	163.563	167.823	306.051	290.692	167.358	172.480	172.376	177.383	384.157	176.842	-8191	255	
1923.917	1	1	0	0	0.23281	0.13604	0.21721	0.18817	0.19075	0.12967	0.23462	0.15079	0.15982	0.050184	0.11649	0.20122	0.24007	0.14515	0.068967	0.1983	-2.7771	-3.5146	-2.9604	-3.5646	-3.4146	-2.9917	-3.7667	-3.2604	-3.1188	-3.5792	-3.0417	-3.4958	-3.6958	-3.0312	-3.4562	-3.2417	406.523	348.809	159.231	482.639	151.556	173.722	446.339	394.126	241.171	492.763	343.464	461.630	471.035	188.235	325.517	392.454	0.00088173	0.00085516	5.2183e-05	1017.5	8.5239e-06	6.6855e-06	1390.1	325.33	4.7777e-06	6.91e-07	552.81	195.79	105.96	37.746	6.798e-06	82.453	0.00046936	0.00042786	0.00011666	915.25	4.5421e-06	4.521e-06	1251.4	292.97	4.5332e-06	4.4264e-06	489.04	176.66	95.069	34.157	4.4097e-06	74.565	263.832	213.667	286.417	163.649	319.161	394.617	163.824	168.104	313.913	409.939	168.212	172.750	172.121	177.759	323.330	176.878	-8191	255	
1924.013	1	1	0	0	0.26584	0.29901	0.068102	0.082925	0.2164	0.30302	0.098812	0.10322	0.12015	0.18143	0.24666	0.066568	0.25904	0.25322	0.099499	0.1096	-2.5979	-3.6688	-2.9833	-3.4188	-3.5917	-2.9729	-3.6333	-3.5125	-2.9333	-3.5917	-3.0208	-3.5229	-3.4958	-2.8646	-3.525	-3.4	413.988	435.128	195.753	160.610	444.194	309.933	437.564	451.766	479.576	362.670	480.324	485.378	477.127	439.352	465.655	369.243	0.00089924	0.0003917	0.00014612	1011.6	8.4983e-06	2.2773e-06	1390	324.65	8.7007e-06	7.7936e-06	553.55	199.34	106.29	37.909	3.5089e-06	83.699	0.00045663	0.0003999	0.00011229	907.36	4.4035e-06	4.4336e-06	1248.4	291.73	4.2786e-06	4.2047e-06	489.01	178.28	95.896	34.533	4.2591e-06	75.472	264.282	223.173	194.218	163.941	255.723	212.866	164.127	168.035	316.161	283.301	167.774	172.539	172.313	177.796	325.338	176.751	-8191	255	
1924.132	1	1	0	0	0.076134	0.075211	0.1046	0.13245	0.15947	0.19347	0.24503	0.42635	0.15562	0.25909	0.1426	0.29079	0.018663	0.26501	0.25469	0.23589	-2.5833	-3.6396	-2.8958	-3.4	-3.6562	-2.875	-3.5792	-3.4271	-2.8729	-3.7188	-3.1021	-3.4167	-3.7375	-3.25	-3.3854	-3.6896	270.747	302.362	486.375	478.523	322.023	486.268	446.604	437.481	339.691	466.230	402.741	370.853	261.016	389.256	327.510	441.964	0.00080308	0.00051262	0.000334	1014.8	4.4057e-06	1.134e-05	1411	328.45	6.8472e-06	6.1719e-06	555.21	196.16	105.96	37.315	5.8755e-06	81.189	0.00045221	0.00038982	0.00010919	914.94	4.3252e-06	4.2736e-06	1258.7	295.36	4.3586e-06	4.329e-06	491.01	176.49	95.242	33.922	4.4541e-06	73.289	264.740	228.512	226.541	163.728	295.965	323.995	164.048	168.299	294.205	222.373	167.844	172.983	172.670	177.944	355.284	176.527	-8191	255	
1924.228	1	1	0	0	0.10682	0.12098	0.099199	0.50216	0.028606	0.19871	0.19488	0.17151	0.20994	0.16307	0.25409	0.25419	0.10647	0.18339	0.10497	0.10928	-2.6354	-3.6271	-3.3083	-3.4625	-3.7438	-3.1604	-3.7812	-3.8042	-2.8771	-3.6	-3.2438	-3.3292	-3.9375	-3.0979	-3.4125	-3.9313	259.243	375.510	244.283	453.345	311.084	359.571	443.437	179.143	500.052	401.004	425.819	165.088	176.550	204.596	467.837	449.608	0.00084246	0.00070549	0.00023268	1016.4	3.8355e-06	1.1607e-05	1390.7	324.6	5.7892e-06	7.5698e-06	546.47	192.11	104.15	36.085	8.5417e-06	79.543	0.00044201	0.00040406	0.00011263	915.04	4.3422e-06	4.3664e-06	1246.1	292.46	4.5464e-06	4.3893e-06	482.64	172.81	93.554	32.911	4.3566e-06	71.524	261.490	224.178	245.964	164.048	307.502	332.849	164.136	168.609	390.966	294.794	167.457	172.941	172.935	177.859	291.223	176.873	-8191	255	
1924.325	1	1	0	0	0.28547	0.075681	0.067841	0.069745	0.26409	0.12225	0.083594	0.23126	0.087137	0.10654	0.20943	0.11006	0.26379	0.13871	0.2323	0.32617	-2.6396	-3.8729	-3.4125	-3.2354	-3.8521	-3.0292	-3.3479	-4.0417	-3.1188	-3.4833	-3.8187	-3.0875	-3.8292	-3.4208	-3.1771	-3.925	152.840	484.124	427.887	236.287	271.540	197.998	445.471	500.554	262.224	270.947	487.498	222.836	467.070	466.310	495.426	504.973	0.00087145	0.00061471	0.00016582	1010.2	9.863e-06	9.1935e-06	1386.7	322.95	4.6593e-06	8.451e-06	541.14	190.96	103.7	36.689	8.9879e-06	79.718	0.00045224	0.00040333	0.00011242	908.61	4.47e-06	4.4033e-06	1242.1	290.12	4.4698e-06	4.4616e-06	478.43	172.13	93.084	33.178	4.4319e-06	72.138	259.925	221.181	216.333	163.932	286.412	296.514	163.856	168.334	306.160	284.834	167.797	172.816	172.909	177.723	372.899	177.484	-8191	255	
1924.445	1	1	0	0	0.26756	0.14662	0.19837	0.057806	0.20778	0.083121	0.28835	0.17647	0.27864	0.12177	0.14885	0.23213	0.2376	0.13544	0.14085	0.36548	-2.5958	-3.3479	-3.475	-2.9854	-3.7667	-3.2208	-3.2458	-3.7333	-2.9583	-3.3833	-3.4792	-3.1	-3.6146	-3.2667	-3.1042	-3.9979	353.580	288.651	314.957	389.449	354.512	225.045	447.636	428.132	443.246	450.536	462.188	447.613	481.208	226.347	307.668	435.208	0.00081579	0.00061792	0.00019301	1001.4	1.2975e-05	5.6116e-06	1385.6	321.9	4.774e-06	8.5212e-06	541.36	194.8	104.5	37.509	3.3402e-06	82.763	0.00045558	0.0004095	0.00011343	901.04	4.5199e-06	4.4173e-06	1240.2	289.04	4.5066e-06	4.5064e-06	478.61	175.36	93.731	34.094	4.4615e-06	74.624	268.238	151.829	188.142	163.930	281.852	310.926	163.914	168.451	316.351	385.791	167.731	172.543	173.000	178.276	336.465	176.814	-8191	255	
1924.517	1	1	0	0	0.030659	0.22562	0.087375	0.32171	0.10824	0.03906	0.29613	0.092678	0.14125	0.15811	0.011024	0.083291	0.26658	0.095546	0.090727	0.26706	-2.8271	-3.3625	-3.675	-3.2167	-3.7646	-3.4458	-3.1625	-4.075	-3.2062	-3.4479	-4.0104	-2.8271	-3.6875	-3.9979	-3.3021	-3.8583	250.587	392.896	462.825	183.075	402.332	171.494	444.106	474.005	219.827	272.906	174.730	467.844	453.695	174.697	360.791	161.948	0.00085477	0.0010005	0.00018127	1004.4	9.6328e-06	5.7522e-06	1389	323.92	8.833e-06	1.0693e-05	543.48	196.44	105.2	37.556	7.0599e-06	82.517	0.00045601	0.0004164	0.00011624	907.69	4.5364e-06	4.5804e-06	1246.8	290.86	4.616e-06	4.5934e-06	485.19	176.66	94.719	34.121	4.5363e-06	74.59	265.937	214.484	213.783	163.811	298.244	374.985	164.038	168.858	286.323	349.879	167.843	172.536	172.821	177.718	365.045	176.806	-8191	255	
1924.613	1	1	0	0	0.096603	0.2901	0.17889	0.28964	0.043351	0.17217	0.44511	0.11806	0.16107	0.13191	0.16843	0.0077636	0.18197	0.14141	0.12486	0.13291	-2.5729	-3.0917	-3.5917	-3.075	-3.3542	-3.4333	-3.1437	-3.8521	-3.1729	-3.0687	-3.6875	-2.9979	-3.575	-3.5312	-3.0625	-3.8667	481.681	324.546	266.653	467.056	300.696	186.908	445.889	232.616	494.947	468.052	374.161	509.428	257.085	193.525	476.667	453.755	0.00092055	0.00026111	0.00018808	1008.7	4.3462e-06	9.8906e-06	1386	323.19	7.8004e-06	5.3303e-06	550.01	197.31	105.43	37.871	1.2217e-06	83.669	0.00045761	0.00041854	0.00011539	907.01	4.475e-06	4.5761e-06	1243	290.47	4.4224e-06	4.4721e-06	487.63	177.02	95.12	34.58	4.5175e-06	75.608	266.979	238.234	176.004	163.650	371.885	354.930	163.779	168.248	304.242	333.535	167.422	172.877	172.779	177.868	332.180	176.716	-8191	255	
1924.734	1	1	0	0	0.066729	0.11065	0.13721	0.15758	0.16828	0.080656	0.28071	0.29535	0.034865	0.055706	0.20265	0.3797	0.16037	0.26971	0.30366	0.22343	-2.6875	-3.075	-3.5563	-3.0563	-3.3333	-3.7042	-2.9979	-3.7313	-3.3021	-3.0896	-3.7729	-3.3042	-3.2854	-3.5938	-2.7687	-3.7021	333.353	203.872	414.095	497.982	353.783	504.566	491.955	423.617	335.823	349.049	471.391	497.625	415.491	449.573	253.894	420.487	0.00084082	0.0005729	0.0004858	1009.9	9.6819e-06	5.1692e-06	1385.1	322.35	7.2708e-06	7.7725e-06	550.13	198.82	105.59	37.964	5.5117e-06	84.192	0.00045261	0.00041797	0.00011704	906.9	4.5425e-06	4.5238e-06	1245.1	291.11	4.5332e-06	4.5814e-06	486.96	177.97	94.956	34.658	4.7974e-06	75.974	258.876	189.538	170.587	163.441	334.140	314.215	164.509	168.488	285.635	244.923	168.684	172.943	172.715	178.034	331.567	176.860	-8191	255	
1924.828	1	1	0	0	0.077484	0.079443	0.11214	0.33486	0.24181	0.29262	0.22996	0.10862	0.053534	0.099938	0.16752	0.13581	0.12739	0.21581	0.17654	0.26762	-3.1479	-2.8229	-3.5479	-3.4375	-3.2958	-3.8333	-3.4292	-3.8625	-3.4229	-3.1188	-3.9354	-3.2729	-3.4396	-3.8625	-3.1104	-3.6667	451.082	156.471	472.902	460.518	379.453	237.856	436.517	179.251	293.869	176.121	478.423	174.526	358.220	196.579	406.358	416.979	0.00092597	0.00066253	0.00011288	1006.5	8.4362e-06	6.0077e-06	1382	324.28	9.097e-06	5.3959e-06	547.04	198.66	104.84	38.453	2.332e-06	85.362	0.00047485	0.00043052	0.00011743	904.08	4.706e-06	4.6267e-06	1240.4	291.02	4.514e-06	4.6518e-06	484.69	178.32	95.025	34.988	4.5398e-06	77.279	268.510	208.172	249.880	164.020	309.169	342.557	164.175	168.730	266.494	396.083	168.637	172.996	173.046	178.076	421.412	177.475	-8191	255	
1924.924	1	1	0	0	0.088572	0.086333	0.10277	0.37069	0.30855	0.16955	0.18597	0.22616	0.073285	0.10072	0.17039	0.12897	0.23542	0.1246	0.21275	0.23894	-3.1604	-2.7938	-3.6417	-3.2375	-2.9583	-3.575	-3.0542	-3.4458	-3.4875	-3.0292	-3.5438	-3.2583	-2.9938	-3.6875	-2.9688	-3.5625	248.423	464.896	447.725	201.133	259.839	371.335	488.312	499.239	157.905	313.263	298.093	437.855	433.547	433.835	392.280	493.110	0.00093051	0.00072207	0.00021051	1009.2	5.6109e-06	7.3889e-06	1382.4	323.67	7.0046e-06	2.8459e-06	554.39	197.44	105.05	38.188	9.8072e-06	82.994	0.00047031	0.00041951	0.00011546	905.91	4.4845e-06	4.6717e-06	1241.5	290.71	4.5803e-06	4.5966e-06	488.88	177.92	94.872	34.696	4.6361e-06	74.98	258.203	214.366	242.570	163.945	327.770	303.725	164.102	168.611	266.820	457.469	168.474	172.756	173.034	178.130	271.622	177.293	-8191	255	
1925.020	1	1	0	0	0.054731	0.22189	0.13929	0.085657	0.21278	0.15804	0.24087	0.33069	0.054573	0.13969	0.17753	0.3914	0.16879	0.06986	0.077091	0.043292	-3.0604	-2.8271	-3.6937	-3.4125	-2.8312	-3.6083	-3.475	-3.3604	-3.3792	-2.8979	-3.5875	-3.3312	-3.1083	-3.6854	-3.0542	-3.1958	247.492	153.515	280.285	509.169	459.260	230.050	452.844	439.243	325.316	385.924	420.985	478.228	487.895	288.056	323.251	240.681	0.0009233	0.00093929	0.00021304	1008.2	2.4433e-06	5.7049e-06	1385.7	320.76	6.9431e-06	7.8805e-06	541.19	195.25	103.95	37.185	3.2368e-06	81.969	0.00048269	0.00043168	0.00011697	906.76	4.8632e-06	4.7152e-06	1239.9	289.03	4.6349e-06	4.7147e-06	482.11	175.16	93.678	33.849	4.4718e-06	74.212	256.588	191.072	192.933	163.762	317.998	279.151	164.375	168.813	235.252	346.382	168.622	172.905	173.133	178.196	299.151	177.347	-8191	255	
1925.094	1	1	0	0	0.34149	0.12123	0.16181	0.14802	0.025782	0.26164	0.23492	0.14459	0.1714	0.09945	0.16035	0.092804	0.1362	0.14105	0.12955	0.039872	-3.1667	-2.9854	-3.4104	-3.6562	-2.7771	-3.7479	-3.3729	-3.1437	-3.5938	-2.9688	-3.7438	-3.6708	-2.8979	-3.7812	-3.2562	-3.1792	355.696	162.267	179.713	459.086	277.684	203.377	426.431	370.884	299.545	176.851	390.829	476.894	162.231	444.065	449.643	153.881	0.00078612	0.00056286	0.00019284	1002.5	9.6605e-06	6.9617e-06	1371.7	319.43	8.4928e-06	1.0276e-05	535.64	195.85	103.49	37.852	2.5463e-06	84.202	0.00045356	0.00041574	0.00011494	901.51	4.4848e-06	4.4676e-06	1233.8	287.97	4.4629e-06	4.2973e-06	479.53	176.08	93.698	34.365	4.4034e-06	76.175	263.501	256.985	233.576	163.799	346.640	287.943	164.140	168.602	299.266	288.862	168.118	173.103	173.238	178.332	312.074	177.125	-8191	255	
1925.213	1	1	0	0	0.13568	0.080286	0.22114	0.28078	0.0089844	0.099135	0.28331	0.0080679	0.10496	0.034892	0.059141	0.17768	0.3453	0.24116	0.19859	0.29187	-3.6604	-3.1146	-3.3958	-4.1458	-2.9979	-3.6708	-3.5104	-3.2896	-3.9292	-3.1333	-3.6417	-3.9208	-3.1104	-3.7062	-3.5917	-3.1167	345.933	426.484	286.366	471.568	211.216	293.499	427.168	409.341	285.306	196.579	169.265	467.532	342.771	409.979	439.266	451.671	0.00080777	0.00048933	0.00040787	992.04	6.5962e-06	4.5799e-06	1365.7	319.85	2.4578e-06	3.2885e-06	546.58	200.71	106.09	39.709	4.962e-06	87.95	0.00044672	0.00040385	0.00011174	891.53	4.4089e-06	4.3586e-06	1227.5	287.61	4.4951e-06	4.4898e-06	484.14	180.88	95.988	36.207	4.6488e-06	79.818	261.917	183.205	226.309	163.948	294.204	314.516	164.092	168.759	366.784	355.990	169.095	173.202	172.883	178.247	317.768	177.211	-8191	255	
1925.309	1	1	0	0	0.32313	0.068092	0.10168	0.30902	0.25552	0.01569	0.28031	0.18114	0.052249	0.22856	0.12612	0.18548	0.13645	0.22387	0.20026	0.17849	-3.1771	-3.0042	-3.2646	-3.6646	-2.85	-3.5021	-3.4583	-2.9229	-3.6396	-3.1021	-3.1875	-3.6042	-2.9354	-3.5396	-3.4208	-3.1417	443.298	299.196	459.906	410.627	430.173	453.586	467.909	456.905	243.594	426.512	378.869	498.067	443.324	482.683	329.616	377.776	0.00096622	0.00096575	0.00016192	1009	7.812e-06	3.4605e-06	1384.4	323.62	2.6572e-06	1.3045e-05	541.81	198.85	104.77	38.873	7.2396e-06	84.205	0.00047252	0.00042473	0.00011968	909.66	4.8104e-06	4.7193e-06	1240.1	290.95	4.8692e-06	4.83e-06	484.49	179.09	95.13	35.254	4.804e-06	76.345	261.386	262.097	158.754	163.926	345.363	293.948	163.912	169.383	350.608	345.792	168.513	173.245	172.866	178.229	351.224	177.684	-8191	255	
1925.405	1	1	0	0	0.15106	0.034873	0.16068	0.31896	0.14005	0.11964	0.063516	0.069757	0.13806	0.22588	0.067641	0.16024	0.13909	0.085354	0.041712	0.058431	-3.2875	-3.1667	-2.9688	-3.8187	-3.0542	-3.3208	-3.7521	-3	-3.6562	-3.3	-3.0708	-3.7771	-3.1937	-3.7021	-3.6875	-3.2479	306.187	444.505	178.080	426.943	479.179	384.229	399.864	425.829	486.539	284.679	223.902	422.452	455.217	253.972	505.369	167.052	0.00074105	0.00085262	0.00039917	988.35	6.5212e-06	3.6677e-06	1363.5	316	1.0283e-05	5.5014e-06	536.74	194.34	102.98	37.696	5.7252e-06	83.491	0.00048538	0.00043673	0.00012256	893.66	4.7175e-06	4.8233e-06	1225.9	284.35	4.8378e-06	4.7217e-06	478.17	175.5	93.524	34.517	4.8684e-06	75.495	269.136	203.987	218.185	163.978	246.641	240.693	164.273	168.963	327.892	238.427	168.737	173.250	173.034	178.422	305.111	177.446	-8191	255	
1925.526	1	1	0	0	0.27816	0.10136	0.11246	0.10996	0.26372	0.24168	0.25142	0.36936	0.12352	0.23561	0.23997	0.091335	0.084641	0.33677	0.06098	0.23122	-3.3688	-3.3125	-3.1229	-3.7271	-3.025	-3.2625	-3.7396	-3.0104	-3.5187	-3.3167	-2.9604	-3.8354	-3.2125	-3.3229	-3.6375	-3.0229	440.599	176.969	307.246	399.510	245.171	469.722	470.299	467.758	401.089	470.135	256.194	306.049	162.400	485.280	202.100	457.562	0.00085964	0.0013437	0.00019321	987.41	7.1059e-06	3.7437e-06	1351	316.16	7.8292e-06	8.4083e-06	535.21	193.9	102.97	37.614	2.2582e-06	83.536	0.00049855	0.00045005	0.00012789	893.2	5.0342e-06	4.9798e-06	1219	284.62	5.1182e-06	5.2012e-06	479.09	175.65	93.285	34.583	5.3175e-06	75.597	260.669	229.762	217.720	164.548	231.467	281.641	164.060	168.786	373.998	257.734	169.184	173.381	173.249	178.526	284.662	177.237	-8191	255	
1925.622	1	1	0	0	0.25034	0.050812	0.15372	0.019376	0.086492	0.19274	0.12014	0.20139	0.12603	0.12877	0.20057	0.079091	0.27993	0.19525	0.17382	0.17244	-3.0667	-3.3042	-2.9688	-3.7854	-3.0833	-3.1729	-3.9042	-3.0979	-3.4729	-3.6729	-2.9562	-3.7917	-3.3479	-3.0292	-3.7083	-3.2062	485.075	386.190	450.459	490.592	183.013	354.451	275.212	496.918	236.963	405.994	158.477	181.071	156.932	249.805	448.615	487.630	0.00087949	0.00098778	0.00011793	988.82	7.0168e-06	3.9894e-06	1362.8	315.36	6.069e-06	9.5768e-06	537.05	195.34	103.09	37.281	1.8333e-06	83.28	0.00052696	0.00049343	0.00014146	893.15	5.4205e-06	5.6477e-06	1227	285.42	5.3667e-06	5.5207e-06	480.21	175.98	93.567	34.288	5.5639e-06	75.363	260.581	222.964	271.968	162.504	293.745	340.757	162.570	167.700	288.381	274.804	167.444	171.749	171.484	177.173	156.179	176.178	-8191	255	
1925.718	1	1	0	0	0.17578	0.3146	0.16312	0.26521	0.27344	0.10201	0.54839	0.26756	0.073471	0.12213	0.16482	0.18993	0.31188	0.0612	0.050148	0.18347	-3.0979	-3.6979	-2.8021	-3.725	-3.1042	-3.0833	-3.8021	-3.0104	-3.3042	-3.5604	-2.9729	-3.5979	-3.3063	-3.0583	-3.5875	-3.2	333.697	308.909	257.986	178.596	496.086	446.157	417.936	437.717	342.747	221.139	439.440	494.604	192.282	288.651	221.648	397.409	0.00087876	0.0010224	0.00031303	987.65	3.6595e-06	3.1578e-06	1357	312.2	8.1104e-06	1.306e-05	532.82	193.68	101.98	37.101	4.6676e-06	83.033	0.00054619	0.00050835	0.0001444	890.56	5.5259e-06	5.5892e-06	1218.7	282.56	5.2931e-06	5.2405e-06	476.9	175.68	92.191	34.004	5.1985e-06	75.223	259.362	190.913	265.613	162.667	274.825	332.494	162.682	167.343	331.297	296.871	167.155	171.602	171.398	176.442	255.267	175.497	-8191	255	
1925.814	1	1	0	0	0.18954	0.1764	0.18134	0.17151	0.20638	0.11818	0.10274	0.11671	0.34576	0.066298	0.21184	0.18253	0.070744	0.13533	0.28288	0.34679	-2.8354	-3.6083	-2.8187	-3.6188	-3.4479	-2.8542	-3.7229	-3.1604	-3.1688	-3.4458	-2.9708	-3.5646	-3.4354	-2.9833	-3.5271	-3.2958	419.101	242.493	293.040	432.500	477.365	153.545	399.319	274.771	158.433	339.407	153.135	156.448	184.949	150.910	347.942	460.603	0.00087627	0.00077661	0.00013238	976.02	5.4634e-06	2.818e-06	1363.7	317.25	5.854e-06	7.1541e-06	543.71	191.74	101.54	36.688	6.3809e-06	80.817	0.00051098	0.00047828	0.00013207	882.45	5.2714e-06	5.2828e-06	1223.7	285.08	5.1683e-06	5.3045e-06	482.37	173.78	92.161	33.527	5.2764e-06	73.02	259.491	231.660	203.393	162.495	257.968	360.322	162.597	166.860	274.407	288.111	166.697	171.801	171.242	176.672	343.474	175.585	-8191	255	
1925.910	1	1	0	0	0.16878	0.31334	0.10732	0.31953	0.17477	0.16476	0.40892	0.15342	0.14173	0.11034	0.12938	0.18428	0.1725	0.24017	0.24301	0.14986	-2.7667	-3.6542	-2.9125	-3.4979	-3.4354	-2.9604	-3.8625	-3.2792	-3.0396	-3.6813	-3.0938	-3.6729	-3.7396	-3.1708	-3.6125	-3.3104	310.912	451.960	154.926	485.680	267.386	185.738	460.637	172.143	400.383	171.596	438.802	404.074	497.942	211.134	303.344	356.802	0.00084672	0.00056474	0.00024795	988.08	2.2899e-06	7.4858e-06	1365.4	316.37	7.8111e-06	5.8684e-06	539.37	194.04	102.56	37.337	4.9485e-06	82.973	0.00052339	0.00047948	0.00013553	895.02	5.169e-06	5.3095e-06	1232	285.21	5.2153e-06	5.1576e-06	481.39	174.95	92.973	34.19	5.1443e-06	75.083	262.129	239.837	223.234	162.928	205.186	250.630	162.586	167.037	301.292	285.479	167.005	171.860	171.185	176.897	382.162	175.544	-8191	255	
1926.006	1	1	0	0	0.20665	0.19757	0.067282	0.11304	0.1442	0.13475	0.37696	0.21989	0.099541	0.15363	0.25585	0.21261	0.1981	0.22465	0.17325	0.32791	-2.5021	-3.6083	-3.1063	-3.3063	-3.725	-3.0833	-3.9396	-3.4979	-3.0667	-4.0271	-3.3833	-3.375	-3.6771	-3.0979	-3.6021	-3.6417	184.498	398.914	215.358	492.700	502.364	376.164	500.827	433.612	477.835	450.529	414.025	413.963	182.131	160.411	359.015	161.072	0.00082536	0.00081193	0.00036979	988.93	6.4411e-06	7.6199e-06	1374.1	317.12	4.3737e-06	5.1959e-06	545.08	199.58	105.46	38.85	8.8864e-07	86.15	0.00050522	0.00045994	0.00012609	893.98	5.0753e-06	5.0072e-06	1234.8	286.81	5.1057e-06	4.9376e-06	485.7	180	95.208	35.422	4.9128e-06	77.949	264.434	214.251	215.009	162.743	323.598	246.410	162.842	167.621	241.370	299.777	166.736	171.855	171.977	176.797	176.594	175.610	-8191	255	
1926.125	1	1	0	0	0.18177	0.25791	0.1101	0.22585	0.044098	0.23568	0.27984	0.11998	0.094363	0.16938	0.12273	0.1037	0.11925	0.15368	0.13551	0.2839	-2.4833	-3.6458	-3.0771	-3.2521	-3.6854	-2.7708	-3.5979	-3.5375	-2.8896	-3.6375	-3.1667	-3.1042	-3.8271	-3.1437	-3.175	-3.7146	493.162	452.735	333.099	197.406	191.314	403.693	472.189	477.425	465.488	263.783	470.686	267.313	326.866	483.042	332.252	430.243	0.00091681	0.00045196	0.00026194	987.08	8.3347e-06	8.6802e-06	1371.3	317.67	1.0128e-05	2.3757e-06	543.48	200.39	104.43	38.551	3.947e-06	84.634	0.00050665	0.00046235	0.00012804	896.1	5.0448e-06	5.0172e-06	1236.3	286.79	5.0915e-06	4.9428e-06	485.37	180.42	94.621	35.087	5.0234e-06	76.733	260.255	249.048	235.400	162.695	319.308	344.842	162.905	167.415	303.052	258.078	167.322	171.820	171.711	177.006	389.201	175.401	-8191	255	
1926.221	1	1	0	0	0.1865	0.099928	0.13548	0.096737	0.21847	0.032152	0.24335	0.19031	0.041799	0.038563	0.10601	0.27403	0.094201	0.23205	0.21458	0.23397	-2.6354	-3.8104	-3.3729	-3.1688	-3.6896	-2.9833	-3.5	-3.6917	-2.8771	-3.5604	-3.4458	-2.9792	-3.8958	-2.8458	-3.1271	-3.6708	404.679	383.667	481.690	416.348	230.112	433.502	154.171	417.544	271.674	259.868	470.917	427.973	321.871	337.592	253.719	446.059	0.00093188	0.0012365	0.00030087	986.02	4.8276e-06	1.0877e-05	1384.3	315.5	6.7067e-06	1.064e-05	543.86	198.77	104.1	38.373	7.1495e-06	85.867	0.00051047	0.00046928	0.0001296	890.83	5.0995e-06	5.1937e-06	1239.9	284.82	5.1196e-06	5.108e-06	485.81	179.38	94.169	35.001	5.0186e-06	77.415	262.279	184.745	234.242	162.660	389.282	362.344	162.687	167.392	332.538	304.661	166.955	171.265	171.490	176.510	341.897	175.227	-8191	255	
1926.318	1	1	0	0	0.099924	0.37736	0.086969	0.071589	0.17829	0.11289	0.33911	0.20548	0.13669	0.049399	0.18998	0.11693	0.19073	0.041697	0.44064	0.14025	-2.2875	-3.6875	-3.5021	-2.8729	-3.6396	-3.0812	-3.2292	-3.8625	-2.9208	-3.3312	-3.6625	-3.0917	-3.8354	-3.3812	-3.2083	-3.9979	473.109	394.130	379.153	467.299	290.863	450.514	451.294	429.208	405.236	219.495	491.646	461.183	439.798	358.394	276.026	462.868	0.00092484	0.00013611	5.556e-05	997.38	7.9543e-06	5.724e-06	1392.4	327.53	8.908e-06	2.7109e-06	563.59	202.21	107.52	39.109	3.8466e-06	85.978	0.00050109	0.00046434	0.00012895	900.51	5.1285e-06	5.0361e-06	1255.6	295.1	5.1767e-06	5.1955e-06	502.61	182.33	97.647	35.706	5.5132e-06	77.826	261.897	217.793	309.990	162.033	304.428	297.585	162.591	166.991	324.768	415.231	166.296	171.189	171.132	176.165	334.143	175.372	-8191	255	
1926.389	1	1	0	0	0.26675	0.15224	0.228	0.36635	0.059344	0.10014	0.13359	0.35477	0.16505	0.15303	0.109	0.15919	0.24446	0.16576	0.32992	0.28289	-2.6854	-3.45	-3.6896	-3.1437	-3.6729	-3.5708	-3.4271	-3.6958	-2.9208	-3.5396	-3.6312	-3.0187	-3.6271	-3.3208	-2.9688	-3.775	174.077	425.551	410.449	429.387	350.134	379.750	445.698	369.060	284.099	364.344	376.915	436.798	452.376	470.411	157.550	478.521	0.00080657	0.00055277	6.3906e-05	1028	5.1097e-06	7.7531e-06	1422.3	341.42	4.7279e-06	6.5798e-06	570.13	202.23	110.49	39.152	5.3437e-06	85.115	0.00052183	0.00049158	0.00013884	926.51	5.4511e-06	5.3466e-06	1278.6	307.86	5.5473e-06	5.5133e-06	508.83	183.23	99.528	35.832	5.5234e-06	77.234	258.710	213.087	277.460	162.235	326.586	334.347	162.676	166.976	332.056	255.097	165.926	171.375	170.735	176.306	319.272	175.118	-8191	255	
1926.510	1	1	0	0	0.25859	0.12756	0.18315	0.1352	0.26081	0.3325	0.14131	0.30614	0.12297	0.085294	0.16171	0.056403	0.46142	0.26487	0.15506	0.082101	-2.6562	-3.2604	-3.4375	-2.9396	-3.5583	-3.2687	-3.1229	-3.5729	-3.0125	-3.3375	-3.8063	-2.8896	-3.6208	-3.5771	-2.8312	-3.8312	207.062	371.392	340.370	152.065	296.230	358.033	388.926	443.145	399.964	239.997	434.542	326.472	172.174	486.482	294.288	466.408	0.0008458	0.00047988	0.00019877	1026.2	8.1633e-06	6.9028e-06	1407.7	334.68	3.4628e-06	1.6685e-06	562.24	200.71	107.15	38.395	5.8677e-06	83.948	0.00052784	0.00049191	0.00013609	925.32	5.1657e-06	5.1954e-06	1263.8	302.7	5.0235e-06	5.1047e-06	502.09	180.73	97.039	35.061	5.1086e-06	76.059	259.694	280.528	285.863	162.448	368.875	344.685	162.764	166.657	305.782	203.992	166.594	171.030	170.795	176.182	327.661	175.373	-8191	255	
1926.606	1	1	0	0	0.22069	0.13502	0.25224	0.16288	0.14527	0.1124	0.3254	0.10601	0.22475	0.13834	0.14627	0.12085	0.17696	0.10147	0.17092	0.075432	-2.5604	-2.975	-3.5396	-3.0167	-3.3917	-3.6458	-2.9604	-3.5896	-3.2271	-3.0146	-3.7333	-2.975	-3.4667	-3.625	-2.8979	-3.6396	397.092	470.329	366.567	188.310	164.586	344.463	442.551	172.279	355.834	378.455	467.915	484.279	150.401	475.189	376.650	385.324	0.00094335	0.00082189	0.0002658	1009.6	1.478e-05	1.2924e-06	1388.6	332.84	4.5944e-06	8.3652e-06	556.51	201.08	108.16	38.746	6.4317e-06	85.479	0.00050958	0.00046995	0.0001327	914.68	5.2439e-06	5.2789e-06	1253.1	299.9	5.3928e-06	5.5018e-06	499.71	181.19	97.599	35.51	5.6242e-06	77.521	260.867	241.979	231.040	162.161	353.833	175.250	162.460	166.714	336.458	279.028	165.787	170.458	170.422	175.839	345.145	174.761	-8191	255	
1926.702	1	1	0	0	0.23586	0.047392	0.17161	0.069416	0.079209	0.14786	0.26002	0.14424	0.30769	0.2903	0.16388	0.0082811	0.081507	0.23849	0.032093	0.25305	-2.7146	-2.9688	-3.85	-3.325	-3.3979	-3.8333	-3.1	-3.7062	-3.2333	-3.0687	-4.0604	-3.3146	-3.4396	-3.825	-2.875	-3.9188	395.333	425.975	341.826	259.236	198.861	347.153	384.026	496.729	199.688	156.670	184.707	255.103	209.599	465.187	263.231	448.097	0.00092005	0.00070845	0.00018231	1011.8	5.7944e-06	7.0823e-06	1395.3	327.81	5.6605e-06	7.1371e-06	552.9	200.13	107.33	39.005	6.3277e-06	86.212	0.00056463	0.00053247	0.00014652	917.24	5.8072e-06	5.8097e-06	1253.5	296.6	5.7257e-06	5.7736e-06	494.14	181.08	97.608	35.794	5.9984e-06	78.517	262.629	228.185	498.134	161.542	311.804	258.428	161.870	166.329	256.262	390.658	166.279	170.206	170.782	176.360	331.370	175.200	-8191	255	
1926.798	1	1	0	0	0.24349	0.32363	0.0081426	0.23628	0.036345	0.21956	0.33811	0.11076	0.12941	0.28838	0.17354	0.15628	0.16583	0.056067	0.31488	0.22717	-3.0729	-2.9562	-3.8375	-3.6125	-3.1188	-3.7708	-3.1667	-3.6917	-3.5187	-3.1646	-3.8	-3.2583	-3.4604	-3.9188	-2.9521	-3.725	436.957	334.226	185.493	426.460	349.169	201.402	424.708	417.263	312.761	329.393	289.618	414.465	415.026	485.256	390.197	481.293	0.0009285	0.0010813	0.00017765	998.2	4.6493e-06	1.0317e-05	1385.3	325.27	3.7055e-06	2.8811e-06	555.44	200.64	106.76	39.087	4.0609e-06	86.019	0.0005994	0.0005864	0.0001616	908.02	6.5609e-06	6.6528e-06	1248.7	295.44	6.6002e-06	6.6753e-06	496.8	182.33	97.432	35.971	6.3402e-06	78.338	263.467	261.159	371.639	161.778	330.882	340.969	162.081	166.937	349.761	277.304	166.308	170.866	170.700	175.911	325.235	175.080	-8191	255	
1926.917	1	1	0	0	0.14257	0.092165	0.12903	0.12259	0.017679	0.13967	0.3071	0.14174	0.10633	0.23679	0.16368	0.15683	0.18573	0.30926	0.10538	0.24699	-3.2604	-2.8479	-3.7375	-3.5208	-3.1188	-3.7521	-3.2021	-3.3312	-3.5	-2.8375	-3.7542	-3.3271	-3.0833	-3.6125	-2.9792	-3.3354	484.128	329.576	266.075	161.930	352.655	337.273	473.090	409.741	407.195	271.475	410.903	484.475	149.381	457.023	492.803	431.784	0.00080939	0.0010286	0.00017161	987.4	5.3228e-06	6.745e-06	1360.5	316.15	2.9771e-06	9.0784e-06	541.26	200.45	105.21	38.689	9.0551e-06	86.182	0.0005985	0.00057116	0.00015169	891.45	5.8222e-06	5.8402e-06	1229.4	287.04	5.7963e-06	5.6884e-06	486.4	180.61	95.487	35.46	5.5158e-06	77.986	260.141	234.472	271.292	161.908	301.408	287.838	161.671	166.338	311.078	343.522	166.365	170.678	170.849	175.655	328.462	174.962	-8191	255	
1926.991	1	1	0	0	0.12767	0.14455	0.043322	0.18051	0.2006	0.087384	0.13626	0.23646	0.17511	0.060893	0.11135	0.088555	0.23489	0.10396	0.060977	0.12608	-3.225	-3.0646	-3.4333	-3.5729	-2.9437	-3.6229	-3.2188	-3.1958	-3.7	-3.1479	-3.6104	-3.55	-2.95	-3.7604	-3.1042	-3.1542	489.821	352.356	253.343	444.756	169.088	321.675	467.801	403.913	251.607	430.550	303.849	441.851	412.252	269.124	441.366	448.118	0.00089787	0.00014771	0.00032184	992.73	5.7016e-06	6.1094e-06	1369.6	320.67	9.6498e-06	5.5225e-06	547.64	201.96	106.86	39.168	4.839e-06	87.417	0.0005355	0.00050811	0.00013877	898.46	5.3696e-06	5.1921e-06	1238.3	291.58	5.3227e-06	5.1739e-06	491.23	181.55	96.917	35.905	5.0843e-06	78.789	267.152	251.660	256.831	161.841	230.590	239.404	161.938	166.382	340.007	280.604	166.251	170.572	170.284	175.797	334.188	174.689	-8191	255	
1927.087	1	1	0	0	0.25086	0.11356	0.1325	0.12632	0.31808	0.1162	0.30424	0.14737	0.044309	0.13863	0.090962	0.25925	0.15219	0.18256	0.035876	0.37333	-3.2271	-2.7812	-3.3479	-3.55	-2.9021	-3.6021	-3.5042	-3.2479	-4.0104	-3.0854	-3.4542	-3.5438	-3.0333	-3.9	-3.3729	-3.2313	321.446	436.698	314.201	416.722	473.065	405.538	454.593	446.347	182.341	205.580	435.371	485.548	236.139	238.681	300.921	432.372	0.00089443	0.0010273	0.00021958	1002.5	9.7038e-06	4.5405e-06	1387.9	329.01	7.3967e-06	7.2331e-06	559.3	203.89	108.34	39.829	5.2076e-06	88.613	0.00051329	0.00047512	0.00013304	908.17	5.2579e-06	5.0394e-06	1251.5	297.28	5.0959e-06	4.9742e-06	497.79	183.71	98.388	36.446	4.9603e-06	80.068	259.466	217.580	175.286	161.728	312.489	253.353	161.598	166.586	255.625	307.899	166.514	170.316	170.510	175.649	482.377	175.130	-8191	255	
#DATA ENDS
