BOXY.EXE: ISS Imagent and Oximeter Data Acquisition Program Version 0.80
Ascii Record File

#ACQ INFORMATION
2  Detector Channels 
16  External MUX Channels 
1  Auxiliary Channels 
5000  Waveform (CCF) Frequency (Hz)
1  Waveforms Skipped 
30  Waveforms Averaged 
1  Cycles Averaged 
16  Acquisitions per Waveform 
10.0806  Updata Rate (Hz) 

#FILE INFORMATION
TRUE -- External MUX Channel results are PARSED.
FALSE -- AC DC and Phase are NOT grouped.
TRUE -- Companion Program Settings File CREATED.
FALSE -- AC data not excluded
FALSE -- DC data not excluded
FALSE -- Phase data not excluded
FALSE -- Auxillary Chn. data not excluded
Tab delimiters

#CALIBRATION STATE
TRUE -- Waveform Calibration Values APPLIED.


#AUX CALIBRATION VALUES
Val Type	aux-1	

Term	1.0000e+00	
Factor	0.0000e+00	


#WF CALIBRATION VALUES
A = Detector Channel
Val Type	A-AC1	A-AC2	A-AC3	A-AC4	A-AC5	A-AC6	A-AC7	A-AC8	A-AC9	A-AC10	A-AC11	A-AC12	A-AC13	A-AC14	A-AC15	A-AC16	A-DC1	A-DC2	A-DC3	A-DC4	A-DC5	A-DC6	A-DC7	A-DC8	A-DC9	A-DC10	A-DC11	A-DC12	A-DC13	A-DC14	A-DC15	A-DC16	A-Ph1	A-Ph2	A-Ph3	A-Ph4	A-Ph5	A-Ph6	A-Ph7	A-Ph8	A-Ph9	A-Ph10	A-Ph11	A-Ph12	A-Ph13	A-Ph14	A-Ph15	A-Ph16	

Term	0.00000e+00	0.00000e+00	0.00000e+00	0.00000e+00	0.00000e+00	0.00000e+00	0.00000e+00	0.00000e+00	0.00000e+00	0.00000e+00	0.00000e+00	0.00000e+00	0.00000e+00	0.00000e+00	0.00000e+00	0.00000e+00	0.00000e+00	0.00000e+00	0.00000e+00	0.00000e+00	0.00000e+00	0.00000e+00	0.00000e+00	0.00000e+00	0.00000e+00	0.00000e+00	0.00000e+00	0.00000e+00	0.00000e+00	0.00000e+00	0.00000e+00	0.00000e+00	0.00000e+00	0.00000e+00	0.00000e+00	0.00000e+00	0.00000e+00	0.00000e+00	0.00000e+00	0.00000e+00	0.00000e+00	0.00000e+00	0.00000e+00	0.00000e+00	0.00000e+00	0.00000e+00	0.00000e+00	0.00000e+00	
Factor	1.00000e+00	1.00000e+00	1.00000e+00	1.00000e+00	1.00000e+00	1.00000e+00	1.00000e+00	1.00000e+00	1.00000e+00	1.00000e+00	1.00000e+00	1.00000e+00	1.00000e+00	1.00000e+00	1.00000e+00	1.00000e+00	1.00000e+00	1.00000e+00	1.00000e+00	1.00000e+00	1.00000e+00	1.00000e+00	1.00000e+00	1.00000e+00	1.00000e+00	1.00000e+00	1.00000e+00	1.00000e+00	1.00000e+00	1.00000e+00	1.00000e+00	1.00000e+00	X	X	X	X	X	X	X	X	X	X	X	X	X	X	X	X	

B = Detector Channel
Val Type	B-AC1	B-AC2	B-AC3	B-AC4	B-AC5	B-AC6	B-AC7	B-AC8	B-AC9	B-AC10	B-AC11	B-AC12	B-AC13	B-AC14	B-AC15	B-AC16	B-DC1	B-DC2	B-DC3	B-DC4	B-DC5	B-DC6	B-DC7	B-DC8	B-DC9	B-DC10	B-DC11	B-DC12	B-DC13	B-DC14	B-DC15	B-DC16	B-Ph1	B-Ph2	B-Ph3	B-Ph4	B-Ph5	B-Ph6	B-Ph7	B-Ph8	B-Ph9	B-Ph10	B-Ph11	B-Ph12	B-Ph13	B-Ph14	B-Ph15	B-Ph16	

Term	0.00000e+00	0.00000e+00	0.00000e+00	0.00000e+00	0.00000e+00	0.00000e+00	0.00000e+00	0.00000e+00	0.00000e+00	0.00000e+00	0.00000e+00	0.00000e+00	0.00000e+00	0.00000e+00	0.00000e+00	0.00000e+00	0.00000e+00	0.00000e+00	0.00000e+00	0.00000e+00	0.00000e+00	0.00000e+00	0.00000e+00	0.00000e+00	0.00000e+00	0.00000e+00	0.00000e+00	0.00000e+00	0.00000e+00	0.00000e+00	0.00000e+00	0.00000e+00	4.17717e+01	-1.31162e+02	-1.22911e+02	-1.83922e+02	-6.30644e+01	-7.02209e+01	-1.56404e+02	-1.62015e+02	-4.52563e+01	-6.41764e+01	-1.71598e+02	-1.69061e+02	-1.81176e+02	-1.77209e+02	-6.47185e+01	-1.50023e+02	
Factor	6.40346e-05	1.52600e-04	4.19047e-05	1.76566e-01	1.85982e-06	1.60018e-06	1.66977e-01	5.01798e-02	2.39878e-06	1.62312e-06	8.77349e-02	2.88353e-02	2.63990e-02	9.67641e-03	1.83296e-06	1.35945e-02	1.77045e-05	2.95731e-05	8.28597e-06	9.26155e-02	2.88225e-07	3.32224e-07	8.18985e-02	2.64251e-02	2.79175e-07	3.33486e-07	4.47295e-02	1.46946e-02	1.40515e-02	5.14846e-03	3.03169e-07	6.99069e-03	X	X	X	X	X	X	X	X	X	X	X	X	X	X	X	X	



#DISTANCE SETTINGS
A = Detector Channel
A-1	A-2	A-3	A-4	A-5	A-6	A-7	A-8	A-9	A-10	A-11	A-12	A-13	A-14	A-15	A-16	

2.5000e+00	3.0000e+00	2.5000e+00	3.0000e+00	2.0000e+00	3.0000e+00	1.5000e+00	3.0000e+00	3.0000e+00	3.0000e+00	3.0000e+00	3.0000e+00	3.0000e+00	3.0000e+00	1.5000e+00	3.0000e+00	

B = Detector Channel
B-1	B-2	B-3	B-4	B-5	B-6	B-7	B-8	B-9	B-10	B-11	B-12	B-13	B-14	B-15	B-16	

1.0000e+01	1.0000e+01	1.0000e+01	1.4400e+00	1.0000e+01	1.0000e+01	1.5100e+00	1.9400e+00	1.0000e+01	1.0000e+01	1.9900e+00	2.4900e+00	2.4100e+00	2.9000e+00	1.0000e+01	2.9800e+00	




#DATA BEGINS
time	group	step	mark	flag	A-AC1	A-AC2	A-AC3	A-AC4	A-AC5	A-AC6	A-AC7	A-AC8	A-AC9	A-AC10	A-AC11	A-AC12	A-AC13	A-AC14	A-AC15	A-AC16	A-DC1	A-DC2	A-DC3	A-DC4	A-DC5	A-DC6	A-DC7	A-DC8	A-DC9	A-DC10	A-DC11	A-DC12	A-DC13	A-DC14	A-DC15	A-DC16	A-Ph1	A-Ph2	A-Ph3	A-Ph4	A-Ph5	A-Ph6	A-Ph7	A-Ph8	A-Ph9	A-Ph10	A-Ph11	A-Ph12	A-Ph13	A-Ph14	A-Ph15	A-Ph16	B-AC1	B-AC2	B-AC3	B-AC4	B-AC5	B-AC6	B-AC7	B-AC8	B-AC9	B-AC10	B-AC11	B-AC12	B-AC13	B-AC14	B-AC15	B-AC16	B-DC1	B-DC2	B-DC3	B-DC4	B-DC5	B-DC6	B-DC7	B-DC8	B-DC9	B-DC10	B-DC11	B-DC12	B-DC13	B-DC14	B-DC15	B-DC16	B-Ph1	B-Ph2	B-Ph3	B-Ph4	B-Ph5	B-Ph6	B-Ph7	B-Ph8	B-Ph9	B-Ph10	B-Ph11	B-Ph12	B-Ph13	B-Ph14	B-Ph15	B-Ph16	aux-1	digaux	

1348.969	1	1	0	256	0.19862	0.12814	0.07298	0.14761	0.1912	0.11848	0.10783	0.20609	0.15159	0.051245	0.21432	0.30628	0.19067	0.048441	0.078059	0.2964	-2.575	-3.7271	-3.0875	-3.5292	-3.6479	-2.9667	-3.8083	-3.6333	-2.8917	-3.85	-3.1271	-3.2292	-3.8583	-3.0563	-3.5958	-3.5021	389.853	339.911	484.434	497.806	175.745	177.037	185.563	452.444	306.156	220.552	479.018	494.224	184.936	270.737	397.380	460.750	0.0020711	0.00036454	0.00019248	1553.2	6.7914e-06	6.9386e-06	1535.8	408.14	1.2333e-05	4.1491e-06	459.4	153.34	134.92	44.638	7.877e-06	54.824	0.0015681	0.0018515	0.00051442	1592.5	1.7884e-05	1.9294e-05	1571.4	419.91	1.6302e-05	1.7161e-05	474.21	157.27	138.76	46.449	1.5188e-05	57.304	364.500	267.717	260.470	168.424	298.690	299.857	168.153	172.809	318.923	325.356	172.247	176.628	176.960	181.719	298.566	180.601	-8191	255	
1349.065	1	1	0	0	0.17994	0.40355	0.14521	0.16322	0.24956	0.2108	0.2078	0.12484	0.10713	0.12561	0.2009	0.1942	0.15241	0.1806	0.051531	0.062356	-2.6125	-3.7167	-3.2438	-3.45	-3.7	-3.1104	-3.8354	-3.5812	-2.9188	-3.7229	-3.4104	-3.3333	-3.825	-3.0229	-3.4271	-3.6813	323.869	307.446	354.153	431.961	249.490	405.722	447.540	392.325	493.637	262.198	466.003	471.435	428.616	373.544	407.285	455.616	0.0019101	0.00052186	0.00014891	1534.7	1.0336e-05	5.0705e-06	1519	401.34	8.5778e-06	4.7002e-06	453.69	150.05	133.81	43.909	6.3567e-06	54.452	0.0012275	0.0013783	0.00039797	1576.3	1.4409e-05	1.5555e-05	1555.8	412.26	1.4019e-05	1.4822e-05	468.14	154.32	137.04	45.852	1.3903e-05	56.787	365.050	231.558	267.088	168.532	285.551	317.239	168.083	172.524	293.751	291.732	172.001	176.742	176.847	182.044	290.880	180.757	-8191	255	
1349.185	1	1	0	0	0.19677	0.13342	0.037119	0.36567	0.095977	0.16746	0.22151	0.30695	0.082699	0.11414	0.17495	0.10612	0.060024	0.26416	0.0892	0.18514	-2.6146	-3.6937	-3.45	-3.2896	-3.6396	-3.1771	-3.7125	-3.7542	-3.1396	-3.8083	-3.4417	-3.0833	-3.9375	-3.0875	-3.2062	-3.7333	235.205	271.513	344.422	508.646	464.136	424.582	420.797	487.201	370.812	468.135	236.992	194.987	452.542	416.021	167.389	466.466	0.0019733	0.0004536	0.00015575	1528	8.1654e-06	5.9522e-06	1510.5	397.23	1.2013e-05	4.6892e-06	450.3	148.87	131.88	43.912	7.2312e-06	54.104	0.0011847	0.0012982	0.00035742	1568.8	1.3028e-05	1.4099e-05	1546.8	408.44	1.3072e-05	1.3612e-05	464.51	153.37	135.76	45.497	1.3219e-05	56.408	364.041	257.425	248.800	168.640	302.562	287.452	168.129	172.768	297.688	287.925	172.342	176.454	177.059	181.712	293.151	180.780	-8191	255	
1349.281	1	1	0	0	0.21984	0.30829	0.24622	0.23689	0.27595	0.097082	0.18591	0.24983	0.21256	0.063498	0.12968	0.13139	0.15968	0.48277	0.1468	0.19473	-2.5083	-3.6562	-3.3604	-3.15	-3.7271	-2.9958	-3.35	-3.8958	-2.9604	-3.6833	-3.4396	-3.0396	-3.8729	-3.2229	-3.075	-3.9	391.977	333.557	364.250	465.125	178.801	197.426	485.332	166.329	503.479	354.515	156.489	162.221	431.095	459.814	335.171	505.427	0.0020129	0.00068505	0.00013583	1528.2	8.4032e-06	5.5815e-06	1521.1	398.18	1.3425e-05	7.2559e-06	452.83	150.33	133.24	44.031	4.903e-06	54.286	0.0011398	0.0013392	0.00036474	1566	1.3669e-05	1.4986e-05	1551.5	409.62	1.4051e-05	1.549e-05	466.75	154.45	136.78	45.777	1.5644e-05	56.757	363.176	249.886	245.334	168.654	324.016	313.169	168.075	172.748	300.921	305.950	172.305	176.571	177.052	181.664	277.635	180.676	-8191	255	
1349.378	1	1	0	0	0.16572	0.056248	0.26418	0.37688	0.086538	0.31834	0.2889	0.22867	0.3514	0.33563	0.16487	0.15445	0.087232	0.074796	0.12934	0.2579	-2.5438	-3.4542	-3.3354	-3.2292	-3.6896	-3.1625	-3.2396	-3.9354	-3.0729	-3.5542	-3.7854	-2.9917	-3.6771	-3.4083	-2.9729	-3.8208	329.058	272.134	339.455	497.411	508.943	456.186	442.113	452.484	415.691	208.375	294.674	481.772	501.036	236.687	222.102	222.423	0.0019426	0.00062992	0.00018045	1528	6.974e-06	6.0655e-06	1514.8	399.87	1.152e-05	5.1816e-06	452.44	149.62	132.79	43.97	5.2469e-06	54.111	0.0012454	0.0014493	0.00040146	1569.2	1.488e-05	1.6092e-05	1552.1	410.79	1.4334e-05	1.5717e-05	466.66	154.14	136.48	45.745	1.4651e-05	56.505	365.035	237.197	264.985	168.309	304.438	295.288	168.087	172.665	307.301	318.957	172.314	176.574	176.845	181.867	285.025	180.887	-8191	255	
1349.498	1	1	0	0	0.11763	0.20712	0.061973	0.24405	0.10587	0.12704	0.48839	0.16039	0.21752	0.13318	0.15666	0.16008	0.066473	0.17836	0.21364	0.24998	-2.5042	-3.4313	-3.725	-3.0687	-3.5458	-3.2146	-3.2292	-3.9688	-2.9896	-3.2854	-3.7854	-2.825	-3.5938	-3.2958	-2.9667	-3.7604	275.697	330.706	381.905	159.463	325.024	178.341	480.292	432.963	467.939	378.316	511.170	447.717	210.757	498.182	346.184	404.232	0.0019319	0.00044101	0.00014922	1531.6	6.179e-06	6.673e-06	1509.9	397.98	1.055e-05	7.789e-06	453.14	149.95	132.98	43.781	8.4022e-06	54.485	0.0011939	0.0013827	0.00037016	1569.4	1.3611e-05	1.4782e-05	1550.1	409.3	1.3922e-05	1.5367e-05	466.71	153.68	136.39	45.634	1.4627e-05	56.613	363.620	258.112	240.821	168.748	270.907	296.981	168.292	172.960	308.199	297.641	172.687	176.776	177.296	182.042	301.189	180.919	-8191	255	
1349.593	1	1	0	0	0.12486	0.070944	0.021301	0.17112	0.1716	0.14431	0.26359	0.022979	0.15392	0.14078	0.18925	0.17278	0.13909	0.1829	0.090374	0.23548	-2.6208	-3.2438	-3.4833	-3.0625	-3.6146	-3.4271	-3.2521	-4.0583	-3.0417	-3.1625	-3.8333	-2.9708	-3.5479	-3.5667	-2.9354	-3.9	324.657	294.042	172.797	158.458	164.039	416.190	450.073	461.884	235.560	245.106	167.674	431.327	492.994	499.595	483.153	189.037	0.0019505	0.00060388	0.00011795	1534.6	7.7006e-06	5.0354e-06	1510.8	398.4	8.6105e-06	8.3059e-06	452.88	149.02	132.18	43.958	4.6041e-06	54.264	0.0012288	0.001391	0.00037808	1572.2	1.4118e-05	1.4985e-05	1550.4	409.31	1.3421e-05	1.5156e-05	466.92	153.39	136	45.528	1.3987e-05	56.405	363.320	260.101	252.126	168.564	305.034	305.989	168.299	173.053	319.971	310.955	172.494	176.799	177.274	182.119	288.437	181.002	-8191	255	
1349.664	1	1	0	0	0.28574	0.27386	0.12221	0.19776	0.19721	0.18447	0.077609	0.10157	0.10015	0.22267	0.10563	0.17935	0.2416	0.082361	0.10187	0.18589	-2.4562	-3.1646	-3.6583	-3.0521	-3.4437	-3.6	-3.225	-3.8167	-3.0542	-3.2729	-3.8542	-3.0875	-3.55	-3.5479	-3.0958	-3.7146	235.918	211.679	235.099	505.619	375.216	456.954	321.823	382.225	327.357	271.218	438.615	502.856	507.515	325.556	509.800	332.022	0.0019107	0.00070628	0.00019566	1528.3	6.2864e-06	5.5628e-06	1506.1	397.58	1.2944e-05	5.3049e-06	450.74	148.8	132	43.553	9.191e-06	53.957	0.0011758	0.0013651	0.00036241	1566.1	1.371e-05	1.4393e-05	1547.2	408.27	1.3455e-05	1.5024e-05	464.51	152.91	135.74	45.43	1.4095e-05	56.343	366.400	246.662	234.945	168.660	297.166	289.031	168.422	173.302	310.419	322.931	172.481	176.809	177.478	181.963	297.345	181.033	-8191	255	
1349.785	1	1	0	0	0.24314	0.054186	0.32504	0.32141	0.23463	0.22838	0.39156	0.063354	0.066018	0.046099	0.17844	0.11767	0.08729	0.099094	0.15829	0.14769	-2.9083	-2.9896	-3.625	-3.325	-3.2833	-3.725	-3.2583	-3.8375	-3.4188	-3.0271	-3.8292	-3.1896	-3.4583	-3.8792	-2.9979	-3.5854	431.774	326.240	164.259	513.928	333.591	227.554	412.597	212.386	238.769	489.682	418.798	233.823	473.082	497.980	321.177	353.816	0.0018969	0.00038896	0.00016921	1526.6	7.1592e-06	4.6263e-06	1506.3	397	1.4757e-05	5.0801e-06	449.37	149.07	132.3	43.59	8.3468e-06	53.887	0.0011577	0.001346	0.00035473	1564.9	1.3664e-05	1.3854e-05	1544.3	407.98	1.3074e-05	1.3947e-05	464.43	153.02	135.68	45.331	1.3513e-05	56.174	364.755	242.525	244.259	168.580	307.645	331.666	168.237	173.220	301.680	299.848	172.731	176.755	177.454	182.045	291.714	181.441	-8191	255	
1349.881	1	1	0	0	0.16284	0.097931	0.18479	0.23967	0.077425	0.30226	0.30047	0.21276	0.22073	0.15125	0.2987	0.084454	0.19833	0.12009	0.33844	0.15046	-3.2479	-3.0146	-3.7396	-3.275	-3.3354	-3.9229	-3.2792	-3.6729	-3.6021	-3.0625	-3.9354	-3.3833	-3.3104	-3.9688	-2.9708	-3.4688	459.016	356.914	408.528	510.779	276.495	181.895	427.989	448.733	269.035	306.566	483.485	471.462	186.449	387.101	274.551	454.241	0.001968	0.00057824	0.00013086	1523.8	7.6023e-06	6.0712e-06	1504.9	395.5	1.4113e-05	3.7907e-06	447.99	148.12	130.7	43.407	8.0404e-06	53.779	0.0011208	0.0012625	0.00034283	1561.3	1.3117e-05	1.3151e-05	1540.9	406.64	1.2346e-05	1.3581e-05	462.56	152.18	134.73	45.16	1.3117e-05	55.984	363.281	248.074	268.051	168.676	315.512	295.184	168.148	173.120	303.046	326.288	172.755	176.814	177.351	182.065	297.730	181.134	-8191	255	
1349.977	1	1	0	0	0.19431	0.03451	0.056967	0.23894	0.25466	0.13326	0.44032	0.29364	0.30135	0.088729	0.037043	0.33011	0.23787	0.12553	0.090037	0.12041	-3.0729	-2.9083	-3.5667	-3.2833	-3.0625	-3.7458	-3.2542	-3.5687	-3.4771	-2.9938	-3.8167	-3.2917	-2.9792	-3.7667	-2.9896	-3.5208	505.003	397.177	368.824	505.497	313.070	421.181	484.663	463.912	251.207	242.703	307.142	174.682	479.718	445.019	238.688	421.593	0.0019384	0.00056045	0.00017484	1517.6	9.0609e-06	4.8391e-06	1501.7	393.77	1.2074e-05	5.7965e-06	447.04	148.63	130.59	43.226	8.5353e-06	53.319	0.0011175	0.0012431	0.00033962	1559.3	1.2909e-05	1.3187e-05	1537.4	404.9	1.2102e-05	1.3715e-05	461.68	152.11	134.37	45.101	1.2986e-05	55.908	364.754	230.680	239.010	168.491	300.258	301.199	168.236	173.076	314.565	317.693	172.534	176.866	177.339	182.318	295.584	181.006	-8191	255	
1350.073	1	1	0	0	0.42551	0.23898	0.08643	0.21556	0.088307	0.11464	0.36214	0.16158	0.15554	0.31276	0.26083	0.075879	0.1366	0.052031	0.12064	0.060066	-2.9917	-2.925	-3.5083	-3.5604	-2.9292	-3.6771	-3.3292	-3.2771	-3.5917	-2.7646	-3.6333	-3.4896	-3.0646	-3.7125	-2.9896	-3.1417	501.766	352.509	220.460	469.264	253.565	484.100	499.330	431.424	510.364	513.208	497.850	387.473	421.083	448.548	191.591	283.008	0.0019351	0.00043747	0.00010841	1516.8	7.0532e-06	4.9218e-06	1499.6	393.12	1.3409e-05	5.4124e-06	448.07	147.35	130.09	43.258	6.8696e-06	53.405	0.0010971	0.0012329	0.00034523	1558	1.2933e-05	1.34e-05	1536.5	404.8	1.2272e-05	1.3947e-05	461.12	151.56	133.91	44.984	1.2933e-05	55.739	363.862	246.512	260.918	168.645	288.358	296.313	168.258	172.957	320.280	293.139	172.529	176.645	177.646	182.064	291.837	180.935	-8191	255	
1350.194	1	1	0	0	0.042713	0.16492	0.1115	0.22514	0.32233	0.11897	0.28102	0.28425	0.18301	0.19594	0.039426	0.080201	0.12209	0.20712	0.27332	0.21788	-3.1917	-2.9292	-3.3458	-3.7229	-2.8042	-3.7292	-3.4125	-3.3438	-3.6146	-2.8375	-3.4708	-3.4667	-2.9417	-3.6771	-3.2479	-3.1521	228.189	420.138	389.242	483.084	451.026	503.602	412.212	437.392	299.531	321.286	327.273	333.726	236.917	336.415	404.507	340.743	0.0019817	0.00065766	0.00015473	1513.5	7.5e-06	6.5669e-06	1492.7	391.5	8.4701e-06	4.8751e-06	442.85	147.15	129.84	43.01	7.9763e-06	53.491	0.0010813	0.0012379	0.00033406	1554.2	1.2794e-05	1.3099e-05	1534.7	403.1	1.1429e-05	1.3469e-05	458.63	151.27	133.81	44.783	1.2666e-05	55.742	364.057	241.560	251.276	168.444	286.812	318.040	168.186	173.210	296.890	297.830	172.566	176.504	177.144	182.068	294.544	181.410	-8191	255	
1350.266	1	1	0	0	0.015979	0.06963	0.12132	0.14881	0.19293	0.089778	0.40826	0.45644	0.18227	0.073879	0.10308	0.34447	0.095615	0.07551	0.11066	0.08422	-3.3021	-3.0125	-3.2604	-3.6729	-3.0104	-3.6229	-3.4604	-3.2896	-3.6854	-3.0875	-3.4188	-3.7354	-3.1292	-3.6396	-3.4625	-3.1771	297.535	274.723	421.858	374.980	224.324	320.218	446.055	478.299	187.289	241.338	365.446	398.183	492.180	397.811	262.633	475.286	0.001951	0.00050309	0.00014836	1510.6	6.019e-06	5.5322e-06	1495.1	391.92	1.1272e-05	5.2437e-06	441.89	146.2	129.67	43.114	8.2635e-06	53.473	0.0010756	0.001159	0.00033603	1551	1.2809e-05	1.3038e-05	1531.2	402.77	1.1542e-05	1.3374e-05	457.55	150.7	133.42	44.752	1.2424e-05	55.649	364.428	226.449	239.954	168.631	282.016	315.616	168.301	173.271	315.918	320.907	172.947	176.896	177.495	182.335	304.641	181.362	-8191	255	
1350.362	1	1	0	0	0.26188	0.30121	0.25216	0.13516	0.13753	0.16002	0.019003	0.32665	0.062522	0.14497	0.27918	0.084967	0.0066644	0.24739	0.14264	0.29052	-3.1271	-2.9708	-3.1417	-3.7917	-2.9458	-3.575	-3.6708	-3.0938	-3.7083	-3.1042	-3.2896	-3.6813	-3.0229	-3.6	-3.4938	-2.8271	403.708	397.525	271.524	429.525	451.673	325.136	289.221	464.965	250.574	366.956	465.893	431.857	410.489	348.830	266.709	453.004	0.0020133	0.00052435	0.000145	1505.6	7.6191e-06	2.5363e-06	1492.4	391.44	8.6011e-06	7.1939e-06	443.13	146.66	129.24	42.796	7.4635e-06	53.404	0.0010571	0.0011683	0.00032944	1549	1.1869e-05	1.2903e-05	1529.6	401.62	1.1855e-05	1.2527e-05	456.99	150.31	133.03	44.641	1.1652e-05	55.38	363.479	245.345	255.772	169.024	297.502	286.150	168.495	173.276	304.300	315.147	172.981	177.195	177.791	182.422	304.894	181.441	-8191	255	
1350.458	1	1	0	0	0.16206	0.38839	0.21517	0.26246	0.19033	0.13168	0.47217	0.076721	0.081334	0.052092	0.047882	0.19447	0.14271	0.14378	0.19667	0.22269	-3.2021	-3.0896	-3.1167	-3.7792	-2.7708	-3.3708	-3.6833	-3.0854	-3.5167	-3.225	-3.2417	-3.8875	-3.1312	-3.3854	-3.6417	-2.9646	361.292	254.683	286.824	482.006	476.613	407.808	447.435	179.063	430.738	300.423	391.721	445.682	379.554	467.365	378.905	460.444	0.0018948	0.00057515	0.00012369	1509	8.6812e-06	3.6311e-06	1489.2	389.97	1.3707e-05	3.5961e-06	442.44	146.91	128.79	42.897	8.2087e-06	52.936	0.0010412	0.0011428	0.00032764	1546.1	1.2015e-05	1.2381e-05	1525.2	400.49	1.1535e-05	1.2351e-05	457.21	150.39	132.74	44.627	1.1704e-05	55.319	363.896	261.282	277.185	168.833	277.904	306.009	168.533	173.315	312.131	310.161	172.842	177.203	177.581	182.350	292.828	181.382	-8191	255	
1350.577	1	1	0	0	0.056057	0.052852	0.09287	0.112	0.082939	0.066167	0.32256	0.19416	0.16231	0.11024	0.027779	0.13667	0.12226	0.24944	0.14966	0.05203	-3.3479	-3.2146	-2.9021	-3.7396	-2.8667	-3.4062	-3.8354	-3.1396	-3.3646	-3.3167	-3.1917	-3.7896	-3.0708	-3.2104	-3.6688	-2.9792	195.729	431.962	509.863	185.739	495.633	207.910	486.551	157.847	425.659	190.943	337.158	455.978	457.206	492.785	235.460	161.279	0.001901	0.00062547	0.00014328	1506.7	6.711e-06	4.2655e-06	1488.6	387.91	1.1854e-05	3.4321e-06	442.79	146.37	128.88	42.778	7.0153e-06	52.995	0.00106	0.0011355	0.00031865	1546	1.1803e-05	1.2531e-05	1524.3	399.31	1.1469e-05	1.2308e-05	456.6	149.79	132.4	44.457	1.1346e-05	55.334	363.544	239.164	261.340	168.926	284.609	292.555	168.480	173.447	317.490	291.415	172.872	177.274	177.721	182.152	310.232	181.149	-8191	255	
1350.673	1	1	0	0	0.31779	0.053663	0.082096	0.21479	0.23584	0.043554	0.20554	0.4211	0.21124	0.10901	0.3576	0.1031	0.20302	0.16821	0.21483	0.47298	-3.1146	-3.375	-2.8833	-3.7396	-3.2271	-3.0917	-4	-2.8333	-3.4875	-3.4021	-3.1458	-3.825	-3.1021	-3.3292	-3.7854	-3.0167	511.494	395.307	331.013	486.353	435.185	350.341	431.808	439.880	471.533	460.599	353.166	457.757	463.467	391.374	250.964	407.667	0.0019512	0.00053122	0.00010236	1503.3	5.2618e-06	6.598e-06	1491.1	387.9	1.0971e-05	6.7269e-06	442.75	146	128.54	42.561	7.101e-06	52.868	0.0010584	0.0011219	0.00030846	1542.7	1.1736e-05	1.2259e-05	1524.7	399.12	1.1425e-05	1.183e-05	455.29	149.73	132.46	44.4	1.1713e-05	55.186	364.777	238.886	237.596	168.214	297.481	306.759	167.693	172.709	313.524	336.217	171.939	176.671	176.755	181.531	288.245	180.967	-8191	255	
1350.769	1	1	0	0	0.077012	0.31699	0.23348	0.30279	0.077053	0.1389	0.22161	0.34051	0.017385	0.21038	0.020487	0.10792	0.3247	0.14416	0.27314	0.19267	-3.0312	-3.7438	-2.6771	-3.9104	-3.0771	-3.1354	-3.9188	-3.1813	-3.3729	-3.4333	-3.0542	-3.5583	-3.3208	-3.1875	-3.5979	-3.0438	223.636	329.195	422.044	466.169	218.723	181.833	438.099	435.092	262.700	375.598	172.446	438.084	175.396	443.058	187.437	408.632	0.0018462	0.00045217	0.00020101	1502.3	7.1085e-06	4.5009e-06	1487.4	387.65	1.0771e-05	4.9747e-06	439.55	145.36	128.12	42.501	5.6733e-06	52.969	0.0010276	0.0010607	0.00031224	1542.2	1.1337e-05	1.2146e-05	1522.5	397.99	1.1289e-05	1.1776e-05	454.34	149.44	132.21	44.315	1.1176e-05	55.191	364.797	235.543	239.829	168.075	282.403	305.809	167.871	172.629	312.045	304.032	172.247	176.405	177.072	181.790	331.604	181.186	-8191	255	
1350.865	1	1	0	0	0.06767	0.20078	0.16683	0.561	0.27136	0.18705	0.19383	0.19493	0.087231	0.1792	0.25448	0.13222	0.23386	0.29992	0.12022	0.089106	-2.8771	-3.4167	-2.9042	-3.7208	-3.2896	-3.0021	-3.9896	-3.2604	-3.2542	-3.6896	-3.0083	-3.4313	-3.5896	-2.9042	-3.5312	-3.15	162.917	459.638	444.504	482.762	272.915	161.614	426.910	468.131	233.704	314.543	184.090	500.529	265.389	510.902	198.225	352.637	0.0019056	0.00063437	0.00018654	1500.3	6.8164e-06	3.7958e-06	1485.5	387.98	1.0114e-05	6.2958e-06	441.39	145.48	128.59	42.495	7.8031e-06	52.857	0.0010683	0.0010827	0.00031623	1539.3	1.1498e-05	1.2418e-05	1521.6	398.86	1.1386e-05	1.2101e-05	454.1	149.34	132.1	44.27	1.1579e-05	55.103	365.679	239.977	249.054	168.614	288.745	292.935	168.149	172.854	307.964	309.109	172.548	176.586	177.257	181.938	287.566	180.755	-8191	255	
1350.961	1	1	0	0	0.35548	0.21359	0.044123	0.11263	0.0306	0.060224	0.25455	0.29827	0.076507	0.12626	0.12129	0.2827	0.17412	0.11374	0.42093	0.12263	-2.6042	-3.5854	-2.9354	-3.9042	-3.3708	-2.925	-3.8917	-3.3187	-3.0667	-3.7021	-2.9729	-3.4479	-3.7	-3.0521	-3.6063	-3.2896	342.355	371.049	282.612	436.814	293.520	468.305	458.873	419.849	255.410	382.315	487.590	466.163	506.036	169.863	370.424	420.008	0.0019643	0.00047073	0.00015851	1495.3	5.543e-06	4.6707e-06	1484.3	389.14	9.3202e-06	3.7362e-06	438.57	146.03	128.25	42.585	6.8558e-06	52.564	0.0010481	0.0011031	0.00032141	1537.2	1.1245e-05	1.215e-05	1519.8	398.51	1.1455e-05	1.2028e-05	453.21	149.4	131.98	44.294	1.1672e-05	55.013	364.021	242.849	255.770	168.614	310.309	307.258	168.192	172.693	309.557	314.289	172.560	176.955	177.156	182.230	302.327	181.009	-8191	255	
1351.058	1	1	0	0	0.11059	0.16125	0.24648	0.1803	0.23373	0.31318	0.21043	0.36669	0.12523	0.23337	0.16941	0.24817	0.11921	0.13588	0.072191	0.27868	-2.6208	-3.6125	-2.9479	-3.5771	-3.5312	-2.8542	-3.8417	-3.3958	-3.0771	-3.7333	-3.1708	-3.3354	-3.6937	-2.9625	-3.5792	-3.5438	328.188	292.537	201.044	473.427	340.299	308.773	464.100	463.160	161.504	478.164	450.479	460.908	212.502	457.957	507.323	444.630	0.0017875	0.00043153	0.00013062	1501.9	7.7492e-06	4.7878e-06	1483.2	386.66	1.0767e-05	6.0294e-06	439.78	145.07	128.28	42.574	7.6628e-06	52.983	0.0010193	0.0010841	0.00030874	1539.1	1.1516e-05	1.2573e-05	1517.8	397.51	1.1334e-05	1.1737e-05	453.2	149.13	131.9	44.229	1.1154e-05	55.068	366.982	226.915	261.418	168.678	304.518	287.136	168.248	172.950	304.176	294.973	172.512	176.980	177.132	182.147	302.669	181.210	-8191	255	
1351.178	1	1	0	0	0.20256	0.33973	0.15546	0.093406	0.020613	0.086133	0.22619	0.24991	0.072557	0.16985	0.16594	0.21066	0.25228	0.20597	0.038215	0.044989	-2.4542	-3.7562	-3	-3.4292	-3.6979	-2.9833	-3.7271	-3.5938	-2.8521	-3.5021	-3.1625	-3.2083	-3.675	-3.05	-3.4917	-3.6292	202.755	366.232	310.138	498.738	462.549	489.880	487.707	445.030	192.107	389.773	449.018	444.292	473.045	454.764	471.106	261.805	0.0019127	0.00052484	0.00011828	1497.6	9.5885e-06	6.6872e-06	1482	386.33	8.9765e-06	6.7992e-06	439.53	144.91	127.86	42.463	5.7862e-06	52.754	0.0010251	0.0010784	0.00030258	1535.9	1.1166e-05	1.2363e-05	1517.3	396.67	1.1427e-05	1.1983e-05	453.09	148.87	131.54	44.189	1.1448e-05	54.937	363.515	252.675	236.728	168.563	309.997	305.990	168.159	172.849	311.677	314.908	172.233	176.459	177.085	181.784	310.572	180.652	-8191	255	
1351.274	1	1	0	0	0.21273	0.10079	0.24254	0.31806	0.14316	0.15498	0.30833	0.35957	0.17473	0.22315	0.043984	0.1083	0.13245	0.088679	0.17836	0.22242	-2.5938	-3.7021	-3.1417	-3.5021	-3.7917	-3.0229	-3.7271	-3.7521	-2.9917	-3.6688	-3.3333	-3.0979	-3.9188	-3.0354	-3.4646	-3.8208	489.667	178.237	414.712	495.681	219.454	173.615	222.310	503.934	473.296	274.143	457.229	479.119	311.265	419.397	387.600	432.828	0.0019306	0.00054846	0.0001455	1497.5	6.822e-06	4.1261e-06	1476.7	385.85	9.6281e-06	4.6822e-06	436.96	145.07	127.88	42.344	6.6529e-06	52.473	0.001035	0.0010796	0.00029814	1535.2	1.1181e-05	1.1902e-05	1514.9	396.81	1.1055e-05	1.1915e-05	451.59	148.92	131.46	44.092	1.0998e-05	54.81	365.325	237.117	248.656	168.151	279.794	295.018	167.715	172.601	315.464	314.986	172.061	176.499	176.822	181.618	313.342	180.731	-8191	255	
1351.371	1	1	0	0	0.07421	0.13901	0.12088	0.057431	0.099197	0.18941	0.32643	0.28722	0.13619	0.29805	0.12365	0.16357	0.22561	0.2692	0.063023	0.13581	-2.5146	-3.6063	-3.2958	-3.0875	-3.5812	-3.0687	-3.5938	-3.8354	-2.8292	-3.5521	-3.3937	-3.1458	-3.9792	-3.1771	-3.2708	-3.7729	236.422	178.363	160.993	478.362	252.987	361.850	427.785	439.403	216.444	346.132	312.274	415.096	513.118	444.175	163.572	479.285	0.0019302	0.00066123	0.00017026	1492.4	8.7045e-06	4.6239e-06	1480.2	384.93	1.0021e-05	4.7848e-06	438.09	144.74	127.25	42.333	6.1832e-06	52.59	0.001001	0.0010518	0.00028597	1534.4	1.0908e-05	1.1363e-05	1513.4	396.08	1.0897e-05	1.1507e-05	451.3	148.62	131.12	44.044	1.1159e-05	54.828	366.014	264.428	283.996	168.447	280.144	292.035	168.164	172.794	321.624	305.629	172.240	176.894	177.227	181.922	301.437	180.926	-8191	255	
1351.467	1	1	0	0	0.21573	0.29212	0.14649	0.19199	0.077314	0.077444	0.41238	0.086392	0.11813	0.15814	0.10066	0.059471	0.16846	0.29677	0.038544	0.032468	-2.5938	-3.4854	-3.3604	-3.2042	-3.6979	-3.1583	-3.3583	-4.0042	-2.9958	-3.5208	-3.6	-3.0521	-3.7979	-3.5083	-3.0604	-3.6958	185.488	330.095	362.547	465.745	382.815	439.771	485.258	502.958	220.277	405.213	402.541	400.491	450.638	504.704	211.970	413.066	0.0019988	0.00051149	0.0001087	1493.2	6.1207e-06	4.4295e-06	1474.7	384.59	1.3738e-05	5.1582e-06	435.4	144.15	127.01	42.355	7.8199e-06	52.548	0.0010028	0.0010347	0.00027711	1533	1.0861e-05	1.153e-05	1512.1	395.2	1.0774e-05	1.1348e-05	449.97	148.23	131.21	43.98	1.1109e-05	54.758	363.371	235.583	220.140	168.729	290.686	280.230	168.042	172.878	306.326	307.449	172.085	176.431	177.212	181.957	311.018	181.178	-8191	255	
1351.561	1	1	0	0	0.021881	0.17282	0.18954	0.1667	0.13542	0.13265	0.34631	0.072027	0.13456	0.28808	0.16193	0.037487	0.13402	0.16872	0.15982	0.0534	-2.6833	-3.4771	-3.4479	-2.9271	-3.6479	-3.2396	-3.2812	-3.8	-3.0375	-3.4375	-3.5854	-3.0396	-3.6208	-3.4229	-3.2042	-3.7042	493.668	510.361	392.648	465.616	490.665	366.902	398.623	440.035	312.723	287.253	442.448	191.936	452.186	214.097	489.559	372.427	0.0018457	0.000716	0.00015966	1491.5	8.0517e-06	6.1727e-06	1477.5	384.27	9.161e-06	4.5441e-06	437.35	144.06	127.51	42.28	7.3503e-06	52.433	0.0010023	0.0010436	0.00027787	1531.8	1.0648e-05	1.1374e-05	1511.9	395.37	1.0938e-05	1.1186e-05	450.61	148.16	131.15	43.936	1.097e-05	54.719	363.431	222.125	249.014	168.548	295.854	316.600	168.047	172.719	301.757	320.964	172.389	176.537	177.103	181.992	302.067	180.959	-8191	255	
1351.657	1	1	0	0	0.20431	0.31301	0.089045	0.26788	0.33471	0.37889	0.46062	0.076568	0.077735	0.13069	0.19006	0.2865	0.071435	0.22101	0.39815	0.052452	-2.5917	-3.3583	-3.7125	-3.0792	-3.5729	-3.1875	-3.1292	-3.8063	-3.1917	-3.1708	-3.9229	-3.2042	-3.6562	-3.5917	-2.8937	-3.7125	452.762	353.940	458.028	451.617	457.531	440.841	449.427	481.768	398.744	417.520	510.880	481.102	287.633	181.569	267.766	496.277	0.0018313	0.00067179	0.00012213	1491.8	7.2154e-06	5.2218e-06	1476.9	383.68	1.1502e-05	6.1282e-06	435.93	144.27	127.57	42.248	5.6715e-06	52.512	0.00098183	0.0010381	0.00028283	1531.6	1.0679e-05	1.0983e-05	1511.8	395.08	1.0572e-05	1.1193e-05	450.11	148.03	130.93	43.904	1.1192e-05	54.617	362.572	248.116	238.031	168.493	287.228	301.424	168.256	173.027	298.775	322.551	172.429	176.630	177.133	181.774	283.555	181.141	-8191	255	
1351.753	1	1	0	0	0.15335	0.16509	0.1212	0.15654	0.045326	0.13277	0.071621	0.13667	0.10217	0.023857	0.12426	0.1896	0.13003	0.37142	0.19668	0.099542	-2.6833	-3.3604	-3.4938	-3.1021	-3.6292	-3.5083	-3.3417	-3.9083	-3.2271	-3.1146	-3.7667	-3.0354	-3.725	-3.5854	-2.7917	-3.925	251.380	307.657	513.259	160.390	161.001	433.983	479.566	494.885	279.008	281.905	195.633	468.231	412.118	451.258	459.029	432.917	0.0018377	0.00050241	0.00014685	1493.1	6.5521e-06	4.3714e-06	1476.6	385.23	1.1807e-05	5.6042e-06	436.09	144.64	127.77	42.279	6.7956e-06	52.22	0.00096763	0.0010207	0.00027718	1530.5	1.0461e-05	1.0865e-05	1509.6	394.56	1.0224e-05	1.1399e-05	449.46	147.94	131.02	43.927	1.1169e-05	54.586	366.024	248.641	237.603	168.618	304.571	320.537	168.051	172.843	309.149	316.424	172.242	176.370	177.142	181.860	308.660	181.046	-8191	255	
1351.850	1	1	0	0	0.048177	0.08638	0.25012	0.25425	0.10533	0.14361	0.12604	0.17775	0.13579	0.036113	0.15543	0.20782	0.21128	0.15939	0.16795	0.19254	-2.9292	-3.1271	-3.5708	-2.9917	-3.4625	-3.6896	-3.3646	-3.7687	-3.3292	-2.9333	-4.0104	-3.2542	-3.4813	-3.6792	-3.1	-3.9521	344.476	327.533	465.949	503.409	358.111	422.602	443.572	195.853	455.420	319.203	156.866	435.729	397.134	505.788	447.916	383.401	0.0018884	0.00042441	0.00015281	1490.2	6.618e-06	6.7226e-06	1468.6	382.95	1.4488e-05	2.7126e-06	435.27	143.88	127.2	42.108	7.8582e-06	52.444	0.00096453	0.0009984	0.00027884	1527.4	1.0359e-05	1.0927e-05	1507.5	393.56	1.0074e-05	1.0874e-05	448.81	147.61	130.61	43.783	1.0792e-05	54.548	363.582	255.197	253.794	168.532	306.469	291.850	167.893	172.999	312.465	327.424	172.511	176.358	177.247	181.805	292.666	181.311	-8191	255	
1351.970	1	1	0	0	0.05962	0.1565	0.090429	0.13622	0.24251	0.13951	0.33904	0.02996	0.12879	0.039499	0.079266	0.19391	0.10092	0.20663	0.072592	0.2452	-3.0271	-2.9896	-3.7104	-3.2646	-3.2417	-3.7458	-3.2313	-3.5479	-3.5125	-3.1417	-3.7354	-3.2042	-3.2979	-3.7583	-2.9708	-3.6167	264.667	507.479	496.033	492.737	335.270	448.120	447.518	475.232	512.440	258.488	470.285	476.225	453.143	155.447	282.145	422.066	0.0018339	0.00057662	0.00014704	1488.3	8.469e-06	4.9369e-06	1472.8	384.11	9.0171e-06	4.9213e-06	435.81	144.03	127.03	42.196	5.648e-06	52.326	0.00095295	0.0009939	0.0002753	1525.2	1.0057e-05	1.0901e-05	1506.7	394.08	9.8415e-06	1.1246e-05	449.2	147.61	130.74	43.81	1.074e-05	54.47	365.337	242.994	249.225	168.655	275.639	289.916	168.345	173.159	331.664	295.750	172.382	176.415	177.096	181.935	286.977	181.060	-8191	255	
1352.066	1	1	0	0	0.2714	0.13526	0.2537	0.20519	0.27795	0.12012	0.15479	0.12467	0.13749	0.14419	0.2283	0.11929	0.30242	0.084219	0.13559	0.079012	-3.0021	-2.8646	-3.5792	-3.3937	-3.1333	-3.6917	-3.0125	-3.3958	-3.575	-2.9104	-3.8292	-3.5479	-3.0563	-4.0146	-3.0187	-3.3458	402.978	325.170	234.105	158.624	278.624	246.109	503.761	396.935	400.544	391.922	426.421	371.429	175.379	460.694	191.403	374.992	0.00184	0.00045805	0.00017285	1487.9	5.5435e-06	3.1961e-06	1465	383.09	1.2104e-05	4.942e-06	437	143.39	127.19	42.031	6.7022e-06	52.346	0.00093576	0.0010596	0.00028045	1526.4	1.0424e-05	1.0786e-05	1505.5	393.57	1.0186e-05	1.1248e-05	449.19	147.4	130.39	43.754	1.0761e-05	54.528	364.382	230.203	249.775	168.491	293.465	313.378	168.120	172.957	317.731	321.837	172.425	176.481	177.278	181.939	295.296	180.893	-8191	255	
1352.138	1	1	0	0	0.10116	0.22595	0.13099	0.31802	0.088045	0.10699	0.063352	0.24441	0.23922	0.15557	0.15942	0.12156	0.26541	0.17804	0.10185	0.18592	-3.2042	-2.8812	-3.6188	-3.4062	-2.8833	-4.0125	-3.3979	-3.4875	-3.6333	-3.1417	-3.7583	-3.4375	-2.9688	-3.9771	-3.1167	-3.3021	232.316	395.729	459.059	464.081	220.566	309.626	431.630	447.153	161.632	193.431	444.418	511.373	156.299	201.674	262.123	288.681	0.0017945	0.00051253	0.00018453	1490	8.2045e-06	3.176e-06	1467	382.62	7.5871e-06	5.6177e-06	436.47	143.82	126.98	42.097	7.5949e-06	52.126	0.0009341	0.0010283	0.00028069	1526.5	1.0718e-05	1.0951e-05	1505.5	393.03	1.0003e-05	1.1432e-05	449.93	147.26	130.42	43.789	1.0564e-05	54.458	364.296	218.375	255.400	168.284	305.778	298.012	168.163	173.097	307.549	323.076	172.508	176.581	177.089	181.742	297.559	181.036	-8191	255	
1352.259	1	1	0	0	0.063734	0.15812	0.11427	0.24462	0.090337	0.24587	0.26476	0.076183	0.095889	0.034344	0.24378	0.2343	0.30007	0.085447	0.20828	0.12266	-3.3104	-2.8438	-3.475	-3.5854	-2.8521	-3.6937	-3.3021	-3.3187	-3.5896	-2.7896	-3.7313	-3.5896	-3.0396	-3.7875	-3.0812	-3.2292	333.675	243.128	251.783	489.497	333.222	245.963	470.040	384.227	375.968	394.057	481.345	475.897	472.125	445.069	284.511	427.001	0.001806	0.0006676	0.0001245	1480.9	7.5039e-06	5.8161e-06	1469.8	382.42	1.2159e-05	5.8275e-06	434.05	143.1	126.31	41.835	7.0909e-06	52.269	0.0009407	0.0010307	0.00026936	1522.8	1.056e-05	1.0464e-05	1504	392.71	1.0164e-05	1.142e-05	447.95	147.05	130.24	43.693	1.0351e-05	54.47	364.316	226.437	262.129	168.118	288.672	299.164	167.795	172.668	314.805	305.640	172.257	176.285	176.796	181.902	298.216	180.790	-8191	255	
1352.355	1	1	0	0	0.049901	0.25832	0.035138	0.18686	0.20881	0.11301	0.25694	0.30047	0.29713	0.058639	0.17831	0.19622	0.25843	0.12376	0.088213	0.12541	-3.3854	-2.8542	-3.4208	-3.6479	-2.9458	-3.575	-3.4896	-3.2375	-3.6917	-3.1917	-3.4979	-3.9062	-3.0875	-3.6771	-3.2333	-3.2812	444.653	305.465	445.350	495.095	305.196	513.607	501.284	471.939	260.045	309.995	454.137	209.806	503.158	458.962	251.136	481.912	0.0019067	0.00061527	0.00012732	1487.5	7.3294e-06	6.09e-06	1465.7	380.24	9.953e-06	5.0087e-06	434.73	143.16	126.35	41.868	7.7275e-06	51.963	0.00093133	0.00099273	0.00026821	1522	1.0318e-05	1.0635e-05	1502.7	391.75	9.5379e-06	1.0831e-05	448.16	146.97	129.89	43.609	1.008e-05	54.187	362.870	244.754	255.580	168.231	284.150	304.257	167.836	172.904	312.746	307.274	172.179	176.240	177.002	181.766	289.184	180.787	-8191	255	
1352.451	1	1	0	0	0.22327	0.065941	0.082599	0.28632	0.10013	0.015185	0.062784	0.040145	0.34296	0.19679	0.22067	0.131	0.33283	0.18898	0.19004	0.13177	-3.3917	-3.0771	-3.275	-3.8396	-3.0646	-3.6063	-3.6083	-3.0917	-3.625	-3.0104	-3.4396	-3.7104	-2.8625	-3.5062	-3.4104	-3.1625	409.314	188.150	402.345	167.567	265.233	226.978	428.952	174.374	263.280	316.854	272.708	490.942	158.032	157.958	380.850	184.777	0.0019167	0.00040448	0.00015611	1481.9	6.166e-06	5.9518e-06	1465.2	379.93	1.2548e-05	5.1996e-06	431.17	143.27	126.18	41.949	6.4818e-06	51.972	0.00091237	0.0009196	0.0002626	1520	9.7744e-06	1.0512e-05	1501	391.27	9.4745e-06	1.0113e-05	446.28	146.71	129.68	43.575	9.6989e-06	54.241	366.623	231.580	248.822	168.275	308.993	279.829	167.908	172.909	314.238	292.270	172.315	176.482	177.401	182.138	319.740	181.095	-8191	255	
1352.547	1	1	0	0	0.22714	0.1501	0.10291	0.013701	0.1547	0.068278	0.50794	0.15827	0.10508	0.093904	0.11703	0.30048	0.066642	0.25055	0.10519	0.20345	-3.3812	-3.0646	-3.2646	-3.8208	-2.8479	-3.4667	-3.7104	-3.1875	-3.8167	-3.4521	-3.2687	-3.9062	-3.0187	-3.6583	-3.5146	-3.2	407.067	237.599	444.031	486.500	233.173	184.921	446.877	428.427	453.613	258.578	167.399	487.577	313.018	449.481	246.100	447.258	0.0018209	0.00062431	0.00015153	1478	6.9959e-06	4.2471e-06	1460.9	381.41	9.4564e-06	5.0163e-06	432.8	142	126.43	41.781	5.7151e-06	52.137	0.00091171	0.000961	0.00026365	1519.5	9.9924e-06	1.0286e-05	1498.2	391.21	9.5967e-06	1.026e-05	446.53	146.41	129.8	43.5	9.7286e-06	54.213	361.899	241.941	256.222	168.213	287.506	298.574	168.011	172.764	315.593	305.130	172.364	176.289	176.929	181.848	306.588	180.987	-8191	255	
1352.666	1	1	0	0	0.071302	0.14597	0.072344	0.22242	0.20606	0.11275	0.081395	0.27348	0.11114	0.069331	0.19333	0.24845	0.14946	0.09342	0.057464	0.060759	-3.1229	-3.3458	-3.0771	-3.8937	-2.9521	-3.3854	-3.8542	-2.9604	-3.6583	-3.4062	-3.1729	-3.7625	-3.225	-3.3083	-3.6312	-2.9375	413.456	396.231	495.615	173.918	317.686	465.237	346.463	423.000	458.483	311.180	213.148	450.223	175.547	511.328	281.745	498.165	0.0018903	0.00045714	0.00015531	1478.7	7.4297e-06	7.0267e-06	1465.8	381.67	1.0802e-05	4.9385e-06	432.64	142.39	126.34	41.83	8.7047e-06	52.339	0.00093841	0.00092619	0.00026917	1519.5	1.0065e-05	1.014e-05	1499.1	390.93	9.3925e-06	1.0169e-05	447.12	146.49	129.64	43.508	9.7772e-06	54.369	362.561	234.535	259.702	168.578	300.801	295.740	167.988	172.793	293.302	309.872	172.263	176.551	176.958	181.962	326.254	180.774	-8191	255	
1352.762	1	1	0	0	0.26874	0.20832	0.22676	0.050726	0.038039	0.1695	0.29625	0.19009	0.12241	0.063688	0.11068	0.028453	0.085684	0.17218	0.25131	0.12258	-3.2917	-3.2729	-3.1312	-4.0938	-3.0479	-3.1167	-3.975	-3.1979	-3.6437	-3.4667	-3.05	-4.0896	-3.2458	-3.1729	-3.6104	-3.0208	470.099	490.073	271.968	471.664	264.790	173.711	479.994	477.469	320.027	307.037	179.734	438.762	185.091	477.925	207.824	348.533	0.0019007	0.00034646	0.00016714	1482.6	6.16e-06	4.5621e-06	1466.1	381.71	1.0626e-05	6.1306e-06	434.75	143.29	126	41.97	6.8392e-06	52.226	0.0009303	0.00089175	0.00026154	1521.1	9.3091e-06	1.0059e-05	1499.3	391.32	9.446e-06	9.94e-06	446.96	146.71	129.62	43.569	9.4058e-06	54.182	365.346	248.817	241.799	168.245	303.777	300.756	168.192	173.032	314.794	323.170	172.435	176.333	177.028	181.725	284.406	180.766	-8191	255	
1352.858	1	1	0	0	0.30504	0.030212	0.083676	0.26107	0.10656	0.23183	0.37067	0.060545	0.24004	0.15657	0.13764	0.060432	0.20857	0.13382	0.16861	0.17382	-3.125	-3.4417	-2.7333	-3.8792	-3.2229	-3.0979	-3.9458	-3.1167	-3.2646	-3.5771	-3.1396	-3.7458	-3.2958	-3.2292	-3.6688	-3.1542	351.631	510.285	211.931	493.175	483.322	234.724	424.573	176.088	476.550	240.895	281.276	497.049	482.415	506.026	175.973	449.448	0.0018518	0.0005614	0.00016076	1485.9	7.7111e-06	3.9063e-06	1457.5	381.34	1.1856e-05	6.6484e-06	431.61	143.31	126.43	41.877	7.3736e-06	52.139	0.00088006	0.00087438	0.00025664	1521.7	9.5012e-06	9.6822e-06	1497.2	390.75	9.3349e-06	9.785e-06	445.65	146.64	129.6	43.547	9.2871e-06	54.245	364.085	245.686	249.449	168.271	303.413	293.031	167.971	172.915	299.295	316.990	172.380	176.336	176.861	181.756	295.647	180.537	-8191	255	
1352.954	1	1	0	0	0.059092	0.1858	0.26084	0.13095	0.15788	0.13041	0.019152	0.21807	0.25667	0.12512	0.2551	0.13797	0.30395	0.16209	0.27145	0.24619	-3.0146	-3.3625	-2.8667	-3.7708	-3.2938	-3.1604	-3.8	-3.2	-3.3167	-3.7292	-3.0479	-3.6854	-3.4979	-3.1729	-3.725	-3.2458	195.731	426.923	378.866	368.941	427.806	416.154	186.612	410.990	290.342	383.603	486.112	200.507	497.387	459.573	345.183	512.147	0.0018057	0.00049559	0.0001649	1489.1	7.7299e-06	4.7318e-06	1468.1	379.92	1.0971e-05	5.7525e-06	432.46	141.58	126.04	41.862	7.3015e-06	52.174	0.00086885	0.00087499	0.0002534	1521.6	9.4238e-06	9.9716e-06	1499.7	390.73	9.0371e-06	9.6294e-06	445.17	146.13	129.34	43.436	9.085e-06	54.18	368.448	225.757	244.866	168.282	303.006	307.173	167.842	172.802	311.198	305.870	172.077	176.513	176.852	181.851	318.605	180.659	-8191	255	
1353.051	1	1	0	0	0.14714	0.15228	0.098105	0.13896	0.28574	0.094381	0.20579	0.052947	0.13401	0.084749	0.21199	0.15132	0.073094	0.12507	0.077225	0.12033	-2.7625	-3.6312	-2.8854	-3.775	-3.3812	-3.0167	-3.8438	-3.3042	-3.0021	-3.6792	-3.05	-3.4917	-3.5958	-3.025	-3.725	-3.4604	430.108	448.383	168.398	469.272	442.716	213.382	454.922	507.104	161.246	399.680	467.255	312.866	449.191	503.759	175.210	369.495	0.001896	0.00049299	0.00012081	1481.2	7.4171e-06	3.8955e-06	1466.2	380.26	1.0108e-05	4.7108e-06	433.12	142.62	125.75	41.548	8.1945e-06	52.123	0.00091551	0.00089095	0.00026251	1520.6	1.0209e-05	1.1183e-05	1498.9	390.85	1.1222e-05	1.2255e-05	446.26	146.5	129.5	43.43	1.1275e-05	54.164	365.664	252.362	244.360	168.457	308.781	284.744	167.678	172.563	302.310	315.115	172.231	176.630	176.997	181.619	307.862	180.831	-8191	255	
1353.147	1	1	0	0	0.30693	0.096278	0.21851	0.39051	0.093371	0.037558	0.066745	0.14265	0.25772	0.29687	0.12058	0.1813	0.03804	0.15199	0.20869	0.11312	-2.6063	-3.7271	-3.1	-3.6292	-3.45	-2.9562	-3.8042	-3.4896	-2.9271	-3.9542	-2.9083	-3.4979	-3.6813	-2.8833	-3.5792	-3.5792	361.357	165.302	157.497	161.328	356.521	292.796	432.786	500.053	337.977	509.092	487.987	413.569	461.356	445.200	452.855	466.854	0.0018457	0.00044788	0.00018185	1478.6	6.8819e-06	4.1115e-06	1467.9	379.8	1.1143e-05	5.9744e-06	431.18	142.92	125.78	41.636	5.7591e-06	51.804	0.0010193	0.0010465	0.0002966	1517	1.0336e-05	1.0704e-05	1498.4	390.2	9.8566e-06	9.9796e-06	445.13	146.31	129.32	43.393	9.5208e-06	54.105	365.907	253.129	248.663	168.358	297.213	285.510	167.864	172.690	312.961	307.673	172.252	176.247	176.847	181.611	303.711	180.713	-8191	255	
1353.267	1	1	0	0	0.03515	0.091335	0.23424	0.19243	0.10757	0.058495	0.23557	0.13847	0.031043	0.091567	0.20889	0.21111	0.18323	0.24765	0.066551	0.32985	-2.5896	-3.6437	-2.8792	-3.4521	-3.7542	-2.9917	-3.7604	-3.5187	-2.8812	-3.7604	-3.175	-3.3542	-3.7354	-3.0354	-3.6542	-3.4958	425.211	314.214	193.111	216.815	198.234	459.771	490.678	447.532	482.472	240.616	491.184	196.644	175.026	452.448	401.059	453.099	0.0018511	0.00057146	0.00012404	1484.4	5.9886e-06	4.0647e-06	1466.2	379.54	1.3808e-05	3.2507e-06	432.6	142.07	125.81	41.645	5.7333e-06	52.053	0.00092454	0.00090136	0.00025666	1519	9.7924e-06	9.93e-06	1496.9	389.72	9.6513e-06	9.9553e-06	445.38	146.24	129.29	43.435	9.745e-06	54.145	364.679	230.415	255.240	168.418	285.167	308.690	168.089	172.591	311.413	313.957	172.187	176.415	177.079	181.857	295.848	180.788	-8191	255	
1353.364	1	1	0	0	0.072739	0.12461	0.044793	0.094384	0.11727	0.37916	0.14605	0.39308	0.22833	0.13511	0.12143	0.12676	0.12576	0.11883	0.15735	0.21912	-2.4396	-3.7812	-3.0583	-3.3167	-3.7333	-2.8542	-3.8646	-3.6667	-2.9833	-3.7292	-3.3292	-3.4917	-4.0021	-3.0438	-3.3771	-3.7396	458.113	353.547	339.714	334.243	307.572	325.023	476.435	473.035	292.257	497.367	205.395	219.202	482.383	282.465	189.257	393.574	0.0018429	0.00054871	9.3574e-05	1477.2	7.5437e-06	4.8602e-06	1463.9	380.02	1.3224e-05	4.2525e-06	432.14	141.92	125.28	41.795	6.8568e-06	51.884	0.00095313	0.00095336	0.0002554	1516.2	9.6693e-06	1.0521e-05	1497.1	389.99	1.0211e-05	1.0686e-05	445.32	146.17	129.04	43.442	1.0533e-05	54.147	366.532	239.450	237.378	168.350	294.269	325.924	167.846	172.506	321.632	274.065	171.832	176.311	176.523	181.493	314.266	180.932	-8191	255	
1353.435	1	1	0	0	0.1208	0.19538	0.10449	0.14297	0.079485	0.071454	0.24584	0.28646	0.046257	0.23725	0.1271	0.21017	0.060598	0.24978	0.097609	0.13397	-2.6312	-3.6667	-3.3042	-3.2896	-3.6396	-3.1125	-3.7438	-3.7812	-2.8583	-3.6583	-3.4688	-3.1083	-3.95	-3.2208	-3.3292	-3.7375	416.064	300.213	383.785	178.150	336.729	436.198	503.876	434.678	230.326	393.705	470.105	194.773	402.651	161.794	347.009	269.260	0.0018411	0.00044005	0.00015903	1471.8	7.3748e-06	4.7496e-06	1460.6	377.39	1.0865e-05	3.1873e-06	432.18	141.99	125.37	41.733	6.9274e-06	51.646	0.00097238	0.00098928	0.00028467	1514.7	1.0459e-05	1.1597e-05	1496	389.38	1.1005e-05	1.158e-05	445.16	146.08	129.24	43.388	1.1827e-05	54.064	364.700	249.841	232.981	168.095	288.048	311.942	167.530	172.403	315.332	300.467	171.911	176.167	176.782	181.342	299.770	180.771	-8191	255	
1353.531	1	1	0	0	0.19104	0.14466	0.20575	0.14832	0.025982	0.061864	0.24844	0.27416	0.3591	0.20834	0.20328	0.11341	0.03401	0.10681	0.0049156	0.22071	-2.5979	-3.4958	-3.3646	-3.2667	-3.5687	-2.9854	-3.2604	-3.6979	-3.0292	-3.7125	-3.7313	-2.9604	-3.8771	-3.2667	-3.2396	-3.9042	455.003	428.301	492.653	448.804	223.620	371.121	453.124	440.447	328.574	215.118	303.965	444.555	313.758	304.361	406.068	497.821	0.0019221	0.00055431	8.6225e-05	1474.2	5.3569e-06	3.1303e-06	1458.8	379.32	9.9874e-06	4.6853e-06	429.83	142.23	125.62	41.545	8.4143e-06	51.996	0.0010593	0.0011641	0.0003226	1514.6	1.2287e-05	1.3155e-05	1494.4	390.01	1.2044e-05	1.3087e-05	445.07	146.1	129.31	43.394	1.2414e-05	54.155	365.320	252.191	254.171	168.062	293.770	292.813	167.791	172.616	303.765	303.802	172.156	176.491	176.822	181.809	307.260	180.686	-8191	255	
1353.650	1	1	0	0	0.15434	0.16066	0.16646	0.051448	0.15476	0.11334	0.10698	0.028165	0.14225	0.10453	0.25059	0.16163	0.21187	0.14677	0.071579	0.16876	-2.5375	-3.5458	-3.4625	-3.1375	-3.6792	-3.275	-3.3563	-3.9708	-2.975	-3.5521	-3.5729	-3.0875	-3.7833	-3.2812	-2.9375	-3.9896	171.143	446.184	489.095	501.428	358.239	374.173	209.727	215.271	489.802	304.047	486.716	411.455	384.272	215.053	387.942	472.957	0.0019223	0.00071633	0.00016382	1478.6	6.7669e-06	4.115e-06	1458.6	378.94	1.1755e-05	6.3596e-06	432.18	142.31	125.72	41.53	8.5045e-06	51.897	0.0010651	0.001174	0.00032919	1517.6	1.2191e-05	1.2568e-05	1495.5	390.06	1.1739e-05	1.3071e-05	445.7	146.03	129.34	43.366	1.2332e-05	54.121	364.646	245.597	255.817	168.161	293.383	299.105	167.994	172.845	303.518	304.432	172.160	176.628	176.990	181.499	303.707	180.712	-8191	255	
1353.746	1	1	0	0	0.12255	0.18097	0.099698	0.20935	0.13242	0.19507	0.24282	0.30593	0.12863	0.15964	0.091897	0.14014	0.36928	0.018765	0.22924	0.2354	-2.8729	-3.2896	-3.5896	-2.9583	-3.7375	-3.2667	-3.2562	-3.8292	-3.1813	-3.3521	-3.8292	-3.2188	-3.6667	-3.4958	-3.0771	-3.8396	336.039	363.714	372.245	488.400	506.319	470.912	432.985	492.491	368.491	267.712	393.050	469.847	468.260	389.925	390.281	422.047	0.00191	0.00045643	0.00016502	1478.3	6.4601e-06	6.0326e-06	1458.1	378.99	1.4815e-05	5.5166e-06	430.29	142.34	124.72	41.502	6.9516e-06	51.944	0.0010657	0.001146	0.00031447	1516.8	1.144e-05	1.2555e-05	1495.8	389.21	1.1557e-05	1.2559e-05	444.63	146.1	129.01	43.285	1.2297e-05	54.131	365.530	238.763	242.309	168.576	291.564	316.691	168.037	172.516	321.322	329.345	172.178	176.386	177.083	181.884	315.555	180.655	-8191	255	
1353.843	1	1	0	0	0.1216	0.20657	0.1603	0.14409	0.10929	0.27434	0.3116	0.16607	0.21775	0.11283	0.24147	0.27638	0.27594	0.031952	0.43904	0.24527	-2.8187	-3.2229	-3.5146	-3.2396	-3.7625	-3.4208	-3.1188	-3.8479	-3.1896	-3.2313	-3.7625	-3.0125	-3.7208	-3.5958	-2.9437	-3.7854	245.175	225.841	438.893	451.841	464.212	368.519	419.895	367.069	505.953	192.284	490.030	485.754	431.850	432.299	361.010	489.500	0.0018031	0.00042418	0.00015873	1467.2	5.3409e-06	5.3075e-06	1459.1	379.51	1.4788e-05	5.2857e-06	429.88	142.14	125.16	41.574	6.3177e-06	51.977	0.0010497	0.0011366	0.00030929	1512.9	1.1652e-05	1.2467e-05	1495.3	389.9	1.1542e-05	1.2721e-05	444.21	146.13	129.14	43.388	1.2086e-05	54.109	361.911	243.052	258.978	168.219	311.479	298.529	167.885	172.575	314.752	308.122	172.077	176.228	176.936	181.738	308.873	180.872	-8191	255	
1353.939	1	1	0	0	0.090157	0.15562	0.12791	0.33172	0.22904	0.17669	0.27075	0.20608	0.027096	0.051351	0.20468	0.11606	0.082804	0.038582	0.079341	0.33627	-2.8063	-3.0354	-3.775	-3.2521	-3.3167	-3.525	-3.0958	-3.9917	-3.3937	-3.2229	-3.7208	-3.1458	-3.5229	-3.7375	-2.95	-3.6	272.198	327.008	233.458	473.948	200.320	454.724	187.752	456.020	466.477	485.303	160.675	343.586	156.912	346.937	453.105	485.075	0.0018788	0.00054839	8.8097e-05	1469.9	8.3101e-06	6.9855e-06	1459.8	379.29	1.2272e-05	6.4775e-06	429.56	142.1	125.63	41.643	7.4106e-06	52.156	0.0010177	0.0011267	0.000313	1513	1.1594e-05	1.2024e-05	1494.4	389.99	1.0927e-05	1.2642e-05	444.3	145.88	129.09	43.308	1.1741e-05	54.052	363.995	222.512	260.255	168.360	303.299	325.421	167.923	172.710	317.027	314.882	172.044	176.561	177.097	181.799	298.675	180.826	-8191	255	
1354.035	1	1	0	0	0.16502	0.046686	0.13765	0.093663	0.10751	0.13249	0.27511	0.28114	0.21648	0.27793	0.12054	0.046351	0.26281	0.1655	0.20922	0.19994	-3.0354	-2.9208	-3.5896	-3.2229	-3.2896	-3.7333	-3.2125	-3.8167	-3.3604	-3.1729	-3.9125	-3.3771	-3.4271	-3.8229	-2.9083	-3.7333	156.754	420.276	362.014	443.400	263.878	266.566	472.843	456.990	356.934	243.200	375.852	228.700	428.555	475.000	259.974	479.091	0.0018041	0.0006021	0.00012509	1474.6	6.6875e-06	6.5468e-06	1459.5	378.95	1.0766e-05	4.7988e-06	429.78	142.32	125.42	41.768	6.5667e-06	52.025	0.0010242	0.0011404	0.0003071	1513	1.165e-05	1.2193e-05	1495.6	389.54	1.1431e-05	1.2577e-05	444.13	145.98	129.01	43.412	1.1717e-05	54.128	365.120	247.459	239.415	168.368	296.181	306.530	167.862	172.796	306.036	311.056	172.355	176.315	177.209	181.539	299.144	180.638	-8191	255	
1354.131	1	1	0	0	0.07838	0.19446	0.24283	0.15594	0.14928	0.074795	0.38853	0.17168	0.062976	0.092706	0.4144	0.21855	0.2359	0.11931	0.031341	0.21253	-3.0646	-3.1229	-3.4604	-3.4042	-3.2604	-3.7188	-3.175	-3.825	-3.5833	-3.0771	-3.8917	-3.5104	-3.2979	-3.8833	-3.0875	-3.7479	460.554	460.808	190.518	477.727	330.170	269.341	410.997	498.454	353.761	266.922	435.372	463.881	465.500	255.886	169.635	465.967	0.0019992	0.00048136	0.00015588	1475.1	7.1507e-06	5.5038e-06	1460.6	379.4	1.174e-05	5.4801e-06	431.2	142.44	125.46	41.551	4.8802e-06	51.87	0.001018	0.0011355	0.0002989	1513	1.1667e-05	1.1738e-05	1493.5	389.27	1.0972e-05	1.1944e-05	444.38	145.89	129.01	43.297	1.1431e-05	54.009	364.143	245.196	249.866	168.306	309.816	302.002	168.222	172.823	312.257	299.856	172.352	176.434	177.142	181.912	294.897	180.868	-8191	255	
1354.227	1	1	0	0	0.098644	0.2162	0.19319	0.18736	0.11547	0.14993	0.183	0.15612	0.12339	0.11778	0.12075	0.15428	0.16017	0.05409	0.14889	0.097229	-3.2188	-2.8625	-3.6708	-3.5208	-3.1583	-3.7646	-3.5854	-3.6646	-3.5812	-2.9542	-3.6937	-3.4521	-3.1688	-3.8083	-3.1604	-3.4854	365.878	421.250	295.847	493.473	301.499	471.477	425.691	506.158	217.498	449.345	447.066	446.783	447.022	203.507	438.515	186.917	0.001821	0.00056399	0.00015882	1474.7	6.8384e-06	5.2053e-06	1457.8	377.13	1.218e-05	5.7662e-06	431.81	142.38	125.26	41.603	5.0374e-06	51.791	0.00098474	0.0011179	0.00029191	1511.4	1.1442e-05	1.179e-05	1494.2	388.74	1.1085e-05	1.2518e-05	444.61	145.78	128.99	43.335	1.1459e-05	53.996	363.033	244.488	267.213	168.438	283.860	306.211	167.987	172.613	314.859	294.015	172.316	176.411	176.908	181.558	286.663	180.926	-8191	255	
1354.348	1	1	0	0	0.035784	0.30847	0.032343	0.17239	0.28756	0.14298	0.013129	0.13268	0.22002	0.26798	0.09991	0.1837	0.09289	0.15718	0.19807	0.079726	-3.45	-3.075	-3.7167	-3.5187	-3.1167	-3.7729	-3.2396	-3.5187	-3.6583	-3.0958	-3.6104	-3.6125	-3.0667	-3.8021	-3.2021	-3.4396	509.715	247.122	204.388	452.944	440.740	310.107	229.426	472.445	475.760	333.512	447.082	190.827	349.809	211.767	394.937	295.666	0.0018039	0.00061349	0.00016693	1472.1	8.037e-06	4.0096e-06	1459	378.86	1.3634e-05	4.3229e-06	431.61	142.12	124.84	41.343	8.8532e-06	51.966	0.0009933	0.001107	0.0002979	1513.3	1.1546e-05	1.1241e-05	1494.3	389.3	1.0601e-05	1.1934e-05	444.11	145.91	128.9	43.254	1.1217e-05	54.017	365.235	247.579	245.236	168.328	298.793	294.576	167.832	172.767	311.570	290.939	172.171	176.294	176.882	181.869	305.880	180.832	-8191	255	
1354.444	1	1	0	0	0.19855	0.11019	0.11506	0.24365	0.12996	0.062783	0.2355	0.25367	0.18208	0.28139	0.23175	0.1709	0.17967	0.060428	0.19473	0.087289	-3.4	-2.9896	-3.4458	-3.6729	-3.0083	-3.7625	-3.35	-3.3	-3.7542	-2.9604	-3.6562	-3.8312	-2.9896	-3.6562	-3.3167	-3.2042	233.502	341.962	495.022	493.940	350.100	489.635	432.563	463.529	388.164	331.223	445.200	386.999	173.346	361.788	379.992	503.311	0.0018908	0.00058883	0.00015362	1478.1	5.3659e-06	3.8795e-06	1454.5	378.77	1.1673e-05	5.1896e-06	431.24	142.47	125.28	41.574	6.6293e-06	51.891	0.00097806	0.0010868	0.00029736	1513.6	1.1154e-05	1.1593e-05	1491.4	389.21	1.0747e-05	1.1877e-05	443.97	145.76	128.97	43.277	1.1263e-05	53.989	365.352	234.667	268.300	168.315	302.020	323.950	167.925	172.788	308.157	317.771	172.367	176.329	176.566	181.680	287.840	180.801	-8191	255	
1354.540	1	1	0	0	0.15732	0.25188	0.074614	0.28371	0.24558	0.11641	0.19096	0.12445	0.10882	0.27117	0.082204	0.30175	0.1595	0.068044	0.051405	0.19656	-3.175	-3.025	-3.375	-3.7542	-3.0062	-3.5312	-3.5687	-3.2333	-3.6708	-3.0312	-3.6229	-3.8708	-2.9437	-3.6813	-3.3792	-2.9208	346.722	418.124	411.256	164.022	331.790	319.488	462.630	459.004	275.633	457.314	294.639	497.873	388.679	162.731	443.421	156.642	0.0017958	0.00061856	0.00022966	1471.6	5.849e-06	4.7938e-06	1456	379.13	9.1586e-06	6.5015e-06	431.51	141.7	125.34	41.485	7.185e-06	52.055	0.0009843	0.0010971	0.00030591	1511.9	1.1454e-05	1.1593e-05	1494.2	388.96	1.0955e-05	1.2223e-05	444.18	145.48	128.75	43.289	1.1494e-05	54.145	366.018	253.727	263.328	168.248	272.773	286.135	167.848	172.867	304.436	311.807	172.241	176.273	176.884	182.185	311.814	180.683	-8191	255	
1354.659	1	1	0	0	0.12429	0.10932	0.18352	0.25088	0.17466	0.072536	0.1797	0.068303	0.050183	0.031103	0.27739	0.10278	0.085587	0.1712	0.051987	0.21018	-3.3812	-3.1562	-3.2625	-3.925	-2.8521	-3.6229	-3.7104	-3.1021	-3.8146	-3.125	-3.4125	-3.7833	-3.1146	-3.625	-3.4875	-2.9125	216.574	501.709	503.849	398.147	456.368	396.786	486.406	204.568	357.116	276.140	295.622	456.382	181.659	163.069	381.592	232.098	0.001867	0.0007132	0.00014327	1477.6	6.2179e-06	3.5953e-06	1457.1	378.55	1.0933e-05	4.4337e-06	430.17	141.7	125.55	41.405	6.4169e-06	51.847	0.001014	0.0010792	0.00030472	1514.4	1.146e-05	1.2116e-05	1492.9	388.94	1.1291e-05	1.2192e-05	443.6	145.57	128.78	43.2	1.1481e-05	53.855	365.325	249.498	268.317	168.235	290.107	302.089	167.933	172.627	311.071	332.986	172.169	176.422	176.931	181.791	323.772	180.860	-8191	255	
1354.731	1	1	0	0	0.14277	0.054033	0.15567	0.15979	0.19481	0.28994	0.1462	0.1865	0.10674	0.058924	0.14881	0.090899	0.050811	0.1468	0.30838	0.13406	-3.3688	-3.2104	-3.0583	-4.025	-3.0208	-3.3292	-3.75	-3.0896	-3.625	-3.2333	-3.1458	-3.9313	-3.0583	-3.5312	-3.5292	-3.1792	404.037	284.894	167.377	457.203	174.744	387.190	197.110	422.673	175.956	195.740	414.739	171.436	482.708	171.067	349.449	173.236	0.0019501	0.00059333	0.00016329	1475	6.4266e-06	4.8772e-06	1454.7	378.84	1.067e-05	5.6948e-06	431.68	141.69	125.45	41.57	3.9886e-06	51.7	0.0010111	0.0011039	0.00031354	1515.2	1.1221e-05	1.2287e-05	1490.3	388.65	1.0911e-05	1.2008e-05	444.07	145.64	128.78	43.248	1.1539e-05	53.964	365.973	244.098	241.540	168.244	275.232	291.527	168.015	172.795	311.151	314.611	172.291	176.447	176.993	182.115	296.279	180.762	-8191	255	
1354.827	1	1	0	0	0.25658	0.16164	0.21243	0.11783	0.10876	0.16757	0.22534	0.3412	0.2087	0.1515	0.042258	0.075844	0.14169	0.25797	0.17532	0.15897	-3.2812	-3.4021	-3.1312	-3.9021	-2.9604	-3.3958	-3.8958	-3.1479	-3.6708	-3.2313	-3.1396	-3.8125	-3.3625	-3.2458	-3.7354	-2.9729	317.216	329.821	174.038	166.722	263.179	243.876	471.207	476.312	337.771	394.182	412.711	452.629	412.800	251.163	397.818	463.362	0.0017838	0.00073177	0.00014521	1474.9	5.8824e-06	5.3293e-06	1459.1	378.25	1.1449e-05	4.3806e-06	431.8	141.84	125.33	41.657	6.9279e-06	51.718	0.00099772	0.0010777	0.00030877	1512.8	1.0954e-05	1.2031e-05	1492.7	388.66	1.1052e-05	1.2016e-05	444.65	145.48	128.73	43.315	1.1346e-05	53.979	366.103	261.481	248.152	168.283	304.478	313.674	167.996	172.728	298.176	297.063	172.279	176.637	177.005	181.852	303.749	180.908	-8191	255	
1354.947	1	1	0	0	0.082008	0.011028	0.25922	0.4715	0.34326	0.092371	0.30837	0.33124	0.26676	0.35763	0.032172	0.13583	0.22828	0.083212	0.17992	0.033646	-3.1792	-3.4771	-2.9104	-3.8792	-3.1521	-3.3271	-3.7687	-3.2521	-3.6396	-3.5938	-3.1667	-3.7792	-3.2188	-3.3187	-3.6396	-3.0062	400.097	214.980	245.043	169.974	177.103	426.948	494.800	484.611	399.041	329.952	174.993	335.372	496.524	415.318	455.859	454.867	0.0019876	0.00053406	0.0001097	1478.2	8.2969e-06	5.8195e-06	1450.9	378.76	1.1248e-05	3.495e-06	430.34	141.89	125.45	41.552	4.9647e-06	51.713	0.0010306	0.0010711	0.00031772	1514.4	1.1549e-05	1.2413e-05	1490.6	389.08	1.1214e-05	1.1671e-05	444.43	145.82	128.7	43.334	1.1788e-05	53.948	364.829	244.179	232.577	168.513	292.675	307.136	168.055	173.092	308.251	332.037	172.652	176.771	177.303	181.905	300.072	180.895	-8191	255	
1355.044	1	1	0	0	0.096643	0.1962	0.12989	0.28945	0.42425	0.2289	0.50818	0.30346	0.26614	0.29149	0.11226	0.17243	0.20088	0.22751	0.29521	0.081174	-3.2208	-3.6562	-3.0146	-3.7979	-3.3021	-3.05	-3.9875	-3.1542	-3.5021	-3.5375	-3.0875	-3.6729	-3.3333	-3.2708	-3.8292	-3.2104	423.444	323.770	437.484	482.933	479.400	322.921	457.574	159.440	394.101	450.021	353.566	158.779	165.096	165.443	413.972	471.615	0.0018324	0.00056597	0.00019009	1473.3	7.9076e-06	5.0344e-06	1453.5	376.51	9.9656e-06	3.9381e-06	429.69	141.65	125.05	41.46	7.7024e-06	51.883	0.0010363	0.0010875	0.00030698	1514.5	1.1683e-05	1.2439e-05	1492.5	388.19	1.098e-05	1.2165e-05	444.15	145.59	128.62	43.207	1.1502e-05	54.045	364.305	226.326	243.819	168.552	274.768	289.879	167.897	172.717	317.234	285.284	172.250	176.333	177.176	182.031	288.429	181.191	-8191	255	
1355.140	1	1	0	0	0.053562	0.23302	0.20824	0.12028	0.24565	0.29019	0.30821	0.18163	0.26275	0.036627	0.39086	0.03586	0.058187	0.079077	0.16481	0.26171	-2.6813	-3.5833	-2.9417	-3.8521	-3.3958	-3.1125	-3.9396	-3.2125	-3.075	-3.7354	-3.0896	-3.7	-3.5479	-3.1333	-3.7083	-3.2542	293.998	208.763	469.529	513.340	183.750	353.199	456.330	189.976	488.081	344.321	452.756	481.533	392.609	384.444	259.748	160.611	0.0017981	0.00046368	0.00013466	1471.6	8.507e-06	3.6698e-06	1455.6	378.8	1.5781e-05	6.8402e-06	431.37	141.92	125.04	41.595	4.7536e-06	51.498	0.00101	0.0010491	0.0003139	1510.9	1.1566e-05	1.2177e-05	1490.3	388.51	1.1599e-05	1.2251e-05	443.7	145.44	128.77	43.296	1.1672e-05	53.884	367.659	253.127	242.458	168.311	294.476	314.413	168.386	172.907	322.602	305.452	172.316	176.721	177.017	182.218	283.316	180.935	-8191	255	
1355.236	1	1	0	0	0.24723	0.10971	0.11807	0.063809	0.11914	0.13587	0.24285	0.2584	0.029463	0.31419	0.24496	0.094036	0.26169	0.034596	0.14881	0.14892	-2.8	-3.5167	-2.8458	-3.5896	-3.4604	-2.8417	-3.9521	-3.3583	-2.9437	-3.8854	-3.2687	-3.5604	-3.8604	-2.8583	-3.6833	-3.3979	482.846	276.244	451.880	484.589	160.088	315.599	430.879	439.028	440.909	164.269	177.880	396.994	428.626	482.143	290.579	488.246	0.0018843	0.00054904	0.00016643	1477.1	7.2475e-06	4.7834e-06	1461.9	376.67	1.1727e-05	4.7688e-06	430.93	141.59	125.07	41.478	7.351e-06	51.567	0.0010522	0.0011076	0.00030858	1513.7	1.1486e-05	1.2503e-05	1492.9	388.43	1.1223e-05	1.1891e-05	444.1	145.6	128.68	43.222	1.1649e-05	53.914	363.189	238.888	246.415	168.488	286.269	297.778	168.154	172.992	305.570	303.966	172.231	176.516	177.125	181.786	308.186	180.821	-8191	255	
1355.332	1	1	0	0	0.070327	0.17338	0.077766	0.14339	0.2233	0.29016	0.11831	0.22051	0.10249	0.32806	0.11195	0.13369	0.029287	0.12256	0.096885	0.25653	-2.7458	-3.8375	-3.1708	-3.525	-3.5458	-2.8521	-3.6875	-3.4396	-3.0187	-3.7333	-2.9813	-3.4125	-3.7313	-3.0083	-3.5208	-3.6479	231.191	431.963	435.233	155.250	306.834	320.856	294.095	387.295	202.729	390.913	442.075	464.584	440.730	400.255	248.058	487.417	0.0018645	0.00033978	9.0193e-05	1473.4	8.5438e-06	3.5266e-06	1459.8	378.46	1.2785e-05	5.2871e-06	430.32	141.46	124.8	41.654	7.3689e-06	51.741	0.0010535	0.0010752	0.00032345	1513.1	1.1571e-05	1.2346e-05	1493.5	388.58	1.1429e-05	1.1763e-05	443.68	145.61	128.58	43.293	1.1669e-05	53.839	365.803	237.341	247.215	168.461	300.564	319.588	167.983	172.808	309.325	320.999	172.074	176.786	177.235	182.064	305.130	180.947	-8191	255	
1355.428	1	1	0	0	0.10109	0.1711	0.073328	0.25903	0.0056274	0.1651	0.49675	0.27132	0.088755	0.10813	0.22288	0.32376	0.25625	0.10842	0.037092	0.15413	-2.5521	-3.7083	-3.125	-3.3958	-3.6271	-3.0417	-3.725	-3.6063	-2.9083	-3.7562	-3.2625	-3.2583	-3.7146	-2.9813	-3.4104	-3.5792	243.610	284.842	218.544	388.836	447.956	483.971	480.113	437.407	312.523	177.014	457.479	503.106	229.217	215.929	157.811	472.797	0.001927	0.00046834	0.00011673	1472.1	7.0594e-06	5.4685e-06	1457.8	377.97	1.2111e-05	4.5589e-06	429.21	141.86	124.98	41.363	4.9449e-06	51.666	0.0010273	0.0010936	0.00031609	1512.2	1.1545e-05	1.2186e-05	1491.9	388.46	1.1766e-05	1.2081e-05	443.6	145.56	128.81	43.23	1.2139e-05	53.878	364.419	244.892	264.764	168.558	295.410	311.184	168.251	172.878	314.632	297.636	172.657	176.415	177.151	181.879	306.003	180.792	-8191	255	
1355.524	1	1	0	0	0.17037	0.14778	0.10159	0.20017	0.16257	0.24376	0.10271	0.076847	0.11779	0.12507	0.020082	0.10443	0.10627	0.06757	0.042212	0.19954	-2.5625	-3.5375	-3.0438	-3.4625	-3.6437	-2.9875	-3.7146	-3.6417	-2.8667	-3.7792	-3.4313	-3.1813	-3.8042	-3.1813	-3.3479	-3.5979	176.214	390.666	169.389	494.260	199.782	260.766	434.178	493.690	178.819	206.613	412.971	233.219	490.549	226.751	476.546	451.624	0.0018792	0.00040424	0.00017834	1474.1	8.2482e-06	3.4416e-06	1459.8	378.3	8.3223e-06	3.9629e-06	429.68	141.52	125.38	41.278	8.9618e-06	51.735	0.0010494	0.0010847	0.00030933	1512	1.1545e-05	1.2496e-05	1493.3	388.4	1.1426e-05	1.2339e-05	443.17	145.42	128.84	43.183	1.2038e-05	53.935	366.670	241.373	246.451	168.743	278.732	294.787	168.309	172.997	303.804	316.103	172.467	176.664	177.278	181.733	297.563	181.031	-8191	255	
1355.620	1	1	0	0	0.17206	0.1733	0.11989	0.16782	0.10832	0.05398	0.37948	0.14112	0.20805	0.12977	0.073859	0.19487	0.23122	0.083169	0.23363	0.097577	-2.4083	-3.6167	-3.2167	-3.2292	-3.5958	-3.2292	-3.625	-3.8187	-2.9146	-3.5729	-3.4771	-3.2146	-3.6271	-3.3417	-3.2	-3.8229	282.722	269.529	484.503	437.647	288.052	483.074	416.100	445.976	446.275	451.108	496.228	288.707	433.654	301.332	236.144	500.649	0.0018641	0.00064085	0.00013964	1470.5	4.5027e-06	3.4571e-06	1458.8	377.97	1.299e-05	5.8064e-06	431.01	142.03	125.37	41.336	7.3538e-06	51.708	0.0010451	0.0011424	0.00031473	1512.1	1.163e-05	1.2285e-05	1492.8	388.8	1.1683e-05	1.2529e-05	444.44	145.72	128.88	43.164	1.2052e-05	53.905	365.462	240.645	247.891	168.499	318.032	296.671	168.137	172.804	305.527	318.409	172.186	176.706	177.168	182.122	298.917	180.976	-8191	255	
1355.739	1	1	0	0	0.16012	0.095319	0.19649	0.16911	0.23966	0.096425	0.25191	0.22801	0.10741	0.20314	0.16554	0.17559	0.07622	0.14512	0.1075	0.17638	-2.5458	-3.7229	-3.4729	-3.25	-3.7375	-3.1458	-3.2521	-3.9542	-2.9938	-3.6771	-3.7771	-3.0979	-3.825	-3.3479	-2.8917	-3.9188	449.017	360.778	388.383	436.880	323.071	221.162	512.127	409.080	499.565	471.701	460.914	481.819	440.977	210.923	471.300	474.474	0.0018199	0.00052567	0.0001382	1474.5	7.6493e-06	2.4711e-06	1458.1	378.18	6.2765e-06	3.0416e-06	429.93	141.71	124.83	41.415	8.0073e-06	51.902	0.0010259	0.0011342	0.00031825	1511.9	1.1526e-05	1.2297e-05	1491.2	388.32	1.1758e-05	1.2167e-05	443.47	145.44	128.5	43.164	1.2186e-05	53.942	362.936	244.908	233.768	168.622	298.826	318.437	168.189	172.890	318.725	317.335	172.140	176.733	177.343	181.994	296.414	180.688	-8191	255	
1355.835	1	1	0	0	0.12953	0.2089	0.083686	0.18282	0.091098	0.17258	0.26329	0.15144	0.16055	0.17918	0.28379	0.30238	0.084663	0.1077	0.21518	0.14066	-2.7313	-3.425	-3.475	-3.1646	-3.6521	-3.3312	-3.4813	-3.7667	-2.9062	-3.3625	-3.8	-3.1146	-3.8229	-3.4729	-2.9813	-3.8625	221.674	233.956	504.210	406.249	343.693	261.437	233.572	468.490	344.862	341.090	385.544	366.604	467.747	484.499	484.017	381.511	0.0017975	0.00057614	0.00015799	1474.1	7.2217e-06	4.0489e-06	1455.9	377.46	1.0207e-05	5.9563e-06	430.53	141.5	125.56	41.412	4.3575e-06	51.538	0.0010309	0.0011254	0.00030156	1511.7	1.1694e-05	1.2303e-05	1491.7	388.16	1.1259e-05	1.2704e-05	442.83	145.4	128.67	43.218	1.1956e-05	53.901	365.894	240.321	253.466	168.649	291.907	286.742	168.005	173.044	325.061	294.837	172.312	176.538	177.119	182.075	288.449	181.213	-8191	255	
1355.932	1	1	0	0	0.032022	0.099299	0.054931	0.42659	0.10153	0.048019	0.16574	0.12026	0.068046	0.1329	0.20612	0.1004	0.14165	0.094165	0.074106	0.31101	-2.8063	-3.2562	-3.6229	-2.9938	-3.6375	-3.5062	-3.1813	-3.9562	-2.9208	-3.1729	-3.6458	-3.1437	-3.5646	-3.3521	-2.9188	-3.9583	338.811	175.879	277.132	462.104	260.068	402.008	443.406	470.275	445.245	487.441	464.013	407.479	463.971	412.314	330.490	174.592	0.0018753	0.00057515	0.00013584	1471.1	5.7387e-06	4.1507e-06	1456.7	378.26	1.0925e-05	5.18e-06	427.69	141.63	125.43	41.304	8.7289e-06	51.801	0.0010276	0.0011391	0.00030475	1509.3	1.1498e-05	1.1961e-05	1490.7	387.88	1.1451e-05	1.2207e-05	442.47	145.47	128.71	43.065	1.1836e-05	53.879	364.489	238.240	253.426	168.485	291.175	292.428	168.134	172.980	313.322	297.731	172.316	176.368	177.274	181.931	304.421	181.200	-8191	255	
1356.028	1	1	0	0	0.073542	0.19387	0.19769	0.15148	0.21889	0.11023	0.25096	0.033722	0.11601	0.12505	0.13924	0.12392	0.16714	0.19481	0.060733	0.11447	-2.7104	-3.2333	-3.7438	-3.0563	-3.6562	-3.4792	-3.0167	-3.9646	-3.1688	-3.2208	-3.7042	-3.0458	-3.4646	-3.6354	-3.0021	-3.575	351.751	170.314	260.637	451.302	180.589	359.952	383.711	223.937	336.345	293.611	219.170	456.149	192.002	377.449	293.563	350.524	0.0019064	0.00049338	0.00011821	1469.2	7.155e-06	6.2374e-06	1451	378.51	1.4491e-05	4.243e-06	430.2	141.44	124.77	41.518	5.312e-06	51.674	0.0010265	0.0011204	0.00029426	1509.3	1.1428e-05	1.1957e-05	1489.3	388.2	1.1409e-05	1.2106e-05	442.71	145.22	128.67	43.255	1.1595e-05	53.812	362.512	242.876	249.058	168.450	300.917	295.213	168.034	172.818	320.314	305.166	172.065	176.348	176.966	181.952	283.781	180.771	-8191	255	
1356.124	1	1	0	0	0.041807	0.032617	0.14706	0.36102	0.22414	0.13957	0.24667	0.24564	0.097381	0.14866	0.03248	0.14759	0.072547	0.20522	0.051733	0.061353	-2.775	-3	-3.6063	-3.2729	-3.3979	-3.6688	-3.1937	-3.6917	-3.3771	-3.0563	-3.9917	-3.1583	-3.2896	-3.8292	-3.0333	-3.7354	177.789	171.138	169.349	467.526	408.721	371.973	395.084	463.824	273.570	229.053	279.410	334.612	318.840	354.267	455.974	286.402	0.0018747	0.00047557	0.00012552	1467.4	5.6753e-06	4.0386e-06	1451.9	377.53	1.2637e-05	5.9084e-06	427.94	141.27	124.99	41.47	6.3645e-06	51.658	0.0010092	0.0011132	0.0003063	1508.4	1.1624e-05	1.202e-05	1489.6	387.54	1.1298e-05	1.2762e-05	442.39	145.21	128.48	43.158	1.1824e-05	53.86	365.577	243.273	237.921	168.404	294.478	294.542	167.949	172.819	299.957	335.673	172.259	176.364	177.118	181.756	296.105	181.124	-8191	255	
1356.220	1	1	0	0	0.089715	0.23018	0.11664	0.32756	0.17193	0.029174	0.24438	0.27592	0.24868	0.078504	0.20002	0.16366	0.029095	0.084945	0.18016	0.15687	-3.0062	-3.0729	-3.8812	-3.2396	-3.1167	-3.7542	-3.0917	-3.625	-3.5271	-3.0604	-3.8542	-3.2208	-3.3021	-3.6937	-2.9896	-3.6021	224.442	237.957	439.738	165.279	294.032	338.078	473.287	473.513	265.436	479.236	181.097	490.126	161.172	452.904	332.955	433.790	0.0018038	0.00061986	0.00019959	1468.2	7.3291e-06	4.3285e-06	1454.9	377.86	1.149e-05	5.179e-06	428.98	141.2	124.71	41.558	8.0284e-06	51.513	0.0010069	0.0011032	0.00029671	1508.9	1.1538e-05	1.1574e-05	1491.1	387.51	1.0909e-05	1.2431e-05	442.29	145.17	128.34	43.168	1.1498e-05	53.85	364.929	260.795	248.822	168.576	294.280	306.741	168.024	172.807	303.131	307.638	172.338	176.567	177.101	181.848	287.591	181.212	-8191	255	
1356.341	1	1	0	0	0.061168	0.3239	0.10273	0.20102	0.092694	0.20915	0.27594	0.15587	0.23426	0.10301	0.14204	0.30556	0.11575	0.061691	0.22527	0.25157	-3.1083	-3.0271	-3.7021	-3.3458	-3.1229	-3.6146	-3.1458	-3.5938	-3.5146	-3.0146	-3.6312	-3.1979	-3.0604	-3.725	-2.9396	-3.25	342.011	386.595	490.977	500.612	264.304	180.089	463.591	438.991	157.493	165.409	505.719	469.316	399.082	447.809	251.338	206.156	0.0018434	0.00044237	0.00011137	1475.6	9.5376e-06	5.8055e-06	1447.9	376.55	1.1049e-05	3.9975e-06	428.23	141.52	124.75	41.496	5.1244e-06	51.515	0.00098275	0.0011073	0.00029881	1510	1.1611e-05	1.1983e-05	1486.8	387.25	1.1151e-05	1.2075e-05	441.83	145.17	128.41	43.172	1.1486e-05	53.804	367.201	233.012	246.446	168.438	311.706	317.669	168.195	172.983	294.532	306.907	172.395	176.603	176.870	181.964	307.861	180.950	-8191	255	
1356.437	1	1	0	0	0.12026	0.14178	0.14508	0.1394	0.19957	0.2221	0.2027	0.13864	0.32719	0.2175	0.13535	0.17341	0.23931	0.20426	0.15946	0.21076	-3.2667	-2.8958	-3.5104	-3.5604	-3	-3.9188	-3.3271	-3.3917	-3.7354	-2.9542	-3.7896	-3.4292	-3.0563	-3.6333	-3.2083	-3.1292	182.432	339.112	437.646	507.025	325.529	354.656	513.712	456.942	175.050	359.102	159.183	437.208	337.420	180.020	297.070	455.883	0.0019591	0.00055631	0.00014958	1469	8.4338e-06	4.32e-06	1449.4	377.54	1.0797e-05	4.9635e-06	431.46	141.58	124.52	41.473	8.486e-06	51.661	0.0010137	0.0011176	0.00030358	1508.8	1.1502e-05	1.1565e-05	1487.8	387.67	1.0772e-05	1.2178e-05	443.14	145.16	128.46	43.157	1.1611e-05	53.793	362.289	225.001	232.966	168.230	293.562	306.678	167.777	172.920	307.165	314.824	172.041	176.192	177.317	181.907	294.962	181.058	-8191	255	
1356.531	1	1	0	0	0.10184	0.30432	0.28683	0.34558	0.22464	0.2542	0.25094	0.11911	0.14274	0.19971	0.32158	0.14505	0.22041	0.26451	0.09566	0.2299	-3.2958	-2.9667	-3.4021	-3.4604	-2.8646	-3.6833	-3.3604	-3.4292	-3.8021	-2.8521	-3.6667	-3.5833	-2.975	-3.7104	-3.1604	-3.2625	210.508	241.608	450.307	507.187	469.868	510.037	427.410	478.966	424.558	205.337	455.753	198.647	502.511	215.489	268.617	480.240	0.0019371	0.00043782	0.00018686	1471.6	7.0244e-06	4.5898e-06	1451	377.66	1.1484e-05	7.3857e-06	427.55	141.38	124.77	41.336	7.0619e-06	51.418	0.00098821	0.0010993	0.00029835	1510.2	1.1593e-05	1.1715e-05	1487.6	387.46	1.1114e-05	1.2506e-05	441.9	145.04	128.34	43.133	1.1899e-05	53.622	365.019	243.982	265.994	168.252	299.049	306.107	167.966	172.974	303.980	291.707	172.558	176.866	177.222	181.932	293.168	180.947	-8191	255	
1356.629	1	1	0	0	0.26847	0.20135	0.01837	0.39951	0.20763	0.12647	0.2411	0.10706	0.093062	0.14109	0.22225	0.13256	0.15858	0.17439	0.20695	0.033456	-3.325	-2.9604	-3.2875	-3.6188	-3.0229	-3.6437	-3.2188	-3.1583	-3.6875	-3.0021	-3.5833	-3.7646	-3	-3.7479	-3.3438	-3.0521	331.654	371.039	311.598	482.564	311.736	295.458	438.410	172.389	206.504	412.622	431.371	356.886	497.703	423.899	475.485	342.935	0.0019389	0.00049554	0.0001377	1467	6.7125e-06	4.1232e-06	1454.8	377.3	1.0737e-05	5.7388e-06	429.18	141.05	124.78	41.302	5.455e-06	51.395	0.0009999	0.0011188	0.0003042	1508	1.129e-05	1.1943e-05	1487.3	386.82	1.0861e-05	1.1809e-05	441.75	145.16	128.29	43.082	1.1166e-05	53.736	365.206	243.790	256.433	168.147	293.466	283.653	167.889	172.898	326.419	305.479	172.342	176.674	176.846	182.136	286.995	180.805	-8191	255	
1356.724	1	1	0	0	0.27945	0.17378	0.20692	0.19351	0.094612	0.1241	0.39328	0.12894	0.13133	0.27539	0.13715	0.29781	0.10403	0.31883	0.12308	0.30458	-3.4958	-2.9375	-3.2562	-3.7146	-3.0896	-3.4292	-3.4188	-3.0958	-3.7146	-3.0938	-3.4708	-3.7792	-3.1646	-3.5542	-3.4146	-3.1083	437.705	383.691	181.792	451.462	436.669	354.389	487.986	418.007	337.578	333.426	164.102	157.998	327.788	162.611	316.928	454.041	0.0019804	0.00043343	0.00014273	1469.9	6.756e-06	6.5534e-06	1455.9	376.71	1.1023e-05	2.9288e-06	429.56	141.5	124.85	41.601	8.0137e-06	51.551	0.00099525	0.0010885	0.00029684	1508	1.1289e-05	1.1868e-05	1487	386.24	1.1042e-05	1.2019e-05	442.81	145.15	128.13	43.126	1.0793e-05	53.647	365.423	255.882	255.603	168.411	312.347	310.609	167.901	172.958	325.471	296.030	172.304	176.497	177.388	181.985	302.908	181.204	-8191	255	
1356.820	1	1	0	0	0.13815	0.18687	0.15453	0.44913	0.1975	0.15143	0.23559	0.23048	0.10665	0.15717	0.20347	0.37912	0.14279	0.24395	0.10375	0.21611	-3.2792	-3.2271	-3.175	-3.8333	-2.9833	-3.5687	-3.8063	-3.1521	-3.7167	-3.1104	-3.3604	-3.8542	-2.9479	-3.5896	-3.4396	-2.9688	218.104	499.645	444.874	476.448	501.102	185.754	499.118	448.664	247.877	270.902	429.455	453.511	488.081	394.610	417.913	156.092	0.0018949	0.00065846	0.00015475	1469.6	8.8578e-06	5.805e-06	1449.2	377.35	1.051e-05	6.5349e-06	428.77	140.87	124.99	41.38	5.3001e-06	51.726	0.00097762	0.0010641	0.00029346	1505.8	1.114e-05	1.2074e-05	1484.8	387.09	1.0667e-05	1.164e-05	441.55	144.81	128.27	43.147	1.0953e-05	53.703	366.749	229.730	244.741	168.279	290.581	312.260	168.013	173.117	310.840	308.585	172.543	176.605	177.235	182.215	295.097	180.967	-8191	255	
1356.916	1	1	0	0	0.16284	0.26117	0.15355	0.2469	0.14406	0.12297	0.28811	0.37416	0.11295	0.31078	0.089945	0.14956	0.23637	0.17611	0.25467	0.22515	-3.0979	-3.2125	-3.0583	-3.8583	-3.0396	-3.4979	-3.9354	-3.0542	-3.8271	-3.2917	-3.1146	-3.8063	-3.1292	-3.6521	-3.7354	-3.0521	312.527	499.602	265.455	483.468	394.196	235.514	491.575	446.270	341.151	458.786	182.207	442.603	356.323	429.167	180.686	186.913	0.0018173	0.00062612	0.00010835	1474.9	7.8147e-06	5.571e-06	1453.1	376.91	8.2812e-06	6.5341e-06	427.26	141.51	124.33	41.587	7.3803e-06	51.706	0.00098127	0.0010567	0.00029928	1509.3	1.1413e-05	1.1965e-05	1485.8	386.89	1.0956e-05	1.1897e-05	441.77	145.07	128.15	43.122	1.1131e-05	53.654	364.902	242.874	266.290	168.577	290.808	329.234	168.260	173.222	309.781	303.435	172.349	176.712	177.280	182.544	303.427	181.147	-8191	255	
1357.036	1	1	0	0	0.16438	0.076793	0.1982	0.12623	0.30733	0.32744	0.12916	0.090037	0.14394	0.027289	0.15493	0.36307	0.2846	0.27526	0.16869	0.24093	-2.9958	-3.3271	-2.9792	-3.7687	-3.1375	-3.05	-4.0042	-3.0083	-3.4479	-3.5917	-2.9437	-3.9521	-3	-3.1688	-3.6813	-2.9083	297.808	312.787	184.005	469.076	209.783	335.720	194.795	507.119	407.563	359.037	219.728	489.460	383.311	195.330	470.073	474.919	0.0019446	0.00068401	0.00017463	1467.4	7.2326e-06	5.2377e-06	1451.6	376.77	9.8784e-06	6.2774e-06	429.82	140.93	125.23	41.25	8.2346e-06	51.327	0.0010022	0.0010789	0.00030611	1506.2	1.109e-05	1.1963e-05	1483.3	386.72	1.1007e-05	1.1455e-05	441.58	144.85	128.41	43.052	1.1292e-05	53.465	363.330	241.959	248.401	168.615	315.792	301.209	167.989	172.968	305.700	296.374	172.362	176.502	176.893	182.204	286.189	180.956	-8191	255	
1357.133	1	1	0	0	0.17606	0.29077	0.30359	0.12314	0.13997	0.29035	0.11453	0.10168	0.17401	0.11316	0.16582	0.16705	0.26404	0.23803	0.13997	0.10656	-3.1396	-3.5438	-2.8958	-3.6625	-3.0396	-2.9292	-3.9083	-3.0271	-3.3729	-3.4833	-2.9292	-3.7021	-3.2875	-3.1646	-3.6458	-3.1188	207.385	381.770	323.259	501.213	389.606	313.881	498.023	371.395	479.977	371.280	468.558	455.601	363.688	421.477	479.402	366.307	0.0019163	0.00052136	0.00017441	1474.3	6.385e-06	3.3024e-06	1452.3	376.1	9.7873e-06	5.342e-06	428.02	141.02	124.76	41.264	5.7081e-06	51.153	0.0010099	0.0010548	0.000299	1508.3	1.1209e-05	1.1973e-05	1487	386.1	1.0933e-05	1.175e-05	441.19	144.77	128.17	42.983	1.1629e-05	53.525	364.768	250.254	233.459	168.755	309.094	293.201	168.234	173.072	323.883	310.153	172.628	176.950	177.131	182.296	300.920	181.151	-8191	255	
1357.204	1	1	0	0	0.33624	0.18667	0.14049	0.055626	0.17255	0.2031	0.18172	0.27113	0.17434	0.070076	0.27846	0.15488	0.082049	0.12305	0.19193	0.032958	-3.0667	-3.5979	-2.8417	-3.6813	-3.4146	-3.1583	-3.8375	-3.0917	-3.3729	-3.6188	-3.1521	-3.8229	-3.3979	-3.0417	-3.5917	-3.2812	216.157	171.345	391.015	473.272	462.823	251.594	444.698	443.235	504.518	258.739	446.745	389.820	361.943	201.810	490.498	469.900	0.0019334	0.00061057	0.00013558	1468	7.6598e-06	4.8983e-06	1448.5	376.92	1.2756e-05	4.9463e-06	428.87	140.91	124.27	41.273	5.4713e-06	51.417	0.0010003	0.0010591	0.00030346	1505.5	1.1103e-05	1.2205e-05	1484.1	386.56	1.1379e-05	1.1839e-05	441.24	144.93	127.97	42.996	1.1731e-05	53.598	364.021	236.016	240.269	168.875	294.340	306.702	168.209	173.015	318.389	328.541	172.574	176.883	177.319	182.183	301.475	180.966	-8191	255	
1357.300	1	1	0	0	0.20739	0.14268	0.13532	0.20729	0.1302	0.27703	0.33481	0.1933	0.057118	0.25594	0.22862	0.13578	0.19856	0.057573	0.1214	0.14299	-2.8917	-3.5458	-2.9958	-3.7792	-3.4188	-2.9208	-3.8208	-3.2562	-3.1937	-3.6354	-3.2625	-3.6229	-3.5	-3.1458	-3.7896	-3.2646	425.367	364.873	213.337	454.644	413.606	415.658	471.405	500.714	235.502	347.616	214.079	175.519	183.848	492.559	441.591	482.589	0.0018939	0.00054304	0.00013253	1468.8	8.0919e-06	4.3849e-06	1450.7	376.19	1.1521e-05	4.0845e-06	427.17	141.72	124.83	41.271	6.2098e-06	51.502	0.0010372	0.0010917	0.00031212	1506.5	1.1388e-05	1.2228e-05	1485	385.97	1.1146e-05	1.2014e-05	441.23	144.86	128.09	42.978	1.1569e-05	53.616	363.116	223.138	238.527	168.707	282.442	305.834	168.238	173.149	323.828	329.789	172.399	176.747	176.940	182.069	286.597	181.032	-8191	255	
1357.421	1	1	0	0	0.045606	0.33659	0.12417	0.20764	0.22854	0.092062	0.34729	0.2471	0.065004	0.19042	0.20331	0.23726	0.18549	0.17747	0.17677	0.12467	-2.6937	-3.7125	-2.9542	-3.5521	-3.5687	-2.9458	-3.9729	-3.4729	-3.075	-3.7188	-3.1312	-3.4562	-3.8229	-3.1083	-3.6167	-3.5021	436.568	283.479	160.398	499.512	192.330	333.826	415.781	503.502	477.463	413.547	427.958	459.377	232.272	423.934	350.406	234.726	0.0017683	0.00047025	0.00012733	1470.8	6.7677e-06	4.4359e-06	1452.1	375.97	1.3814e-05	4.9956e-06	426.92	141.03	124.43	41.334	8.1471e-06	51.154	0.00099673	0.0010849	0.00031383	1508.7	1.1088e-05	1.2081e-05	1485.2	385.57	1.1484e-05	1.1894e-05	440.58	144.95	128.11	43.035	1.1812e-05	53.458	361.565	242.150	258.468	168.485	307.954	290.121	168.144	172.856	312.125	301.289	172.266	176.795	177.117	182.171	309.802	181.034	-8191	255	
1357.517	1	1	0	0	0.07117	0.085598	0.044679	0.13802	0.13295	0.21883	0.23079	0.19651	0.089985	0.17804	0.17561	0.14398	0.28101	0.19879	0.06286	0.19826	-2.5812	-3.7354	-2.9813	-3.4188	-3.6229	-3.0354	-4.0583	-3.3854	-3.0563	-3.8542	-3.1562	-3.2417	-3.6896	-3.0292	-3.6625	-3.4458	489.712	215.318	432.757	455.089	223.221	497.286	393.531	421.153	439.039	243.545	469.870	216.095	405.728	332.118	423.294	414.644	0.0018002	0.00050397	0.00014408	1470.8	8.3604e-06	5.086e-06	1457	376.88	9.0882e-06	5.6289e-06	428.68	140.71	125.22	41.323	6.1773e-06	51.414	0.0010196	0.0010991	0.00031117	1507.3	1.1349e-05	1.2439e-05	1487.4	386.43	1.1284e-05	1.2173e-05	441.12	144.88	128.16	43.107	1.1795e-05	53.564	364.965	227.547	243.746	168.758	284.344	290.133	168.199	173.138	319.379	310.339	172.397	176.854	177.368	181.890	298.479	181.056	-8191	255	
1357.612	1	1	0	0	0.21114	0.18163	0.20177	0.11353	0.16997	0.21818	0.20214	0.37232	0.17205	0.050857	0.14904	0.17992	0.12515	0.25736	0.20096	0.077168	-2.5312	-3.6333	-3.0667	-3.5312	-3.7271	-2.9479	-3.7667	-3.7104	-3.1063	-3.7833	-3.2583	-3.1604	-3.7896	-3.1375	-3.3979	-3.6188	317.206	342.189	377.552	507.329	491.193	313.207	497.743	470.664	179.869	483.757	468.093	365.682	174.330	379.627	290.055	196.122	0.0019144	0.00056504	0.00015219	1467.6	7.9649e-06	3.7224e-06	1454.2	376.87	1.2578e-05	4.9149e-06	427.22	141.62	124.7	41.502	7.0778e-06	51.415	0.0010382	0.0011074	0.00031447	1507.5	1.1591e-05	1.2475e-05	1485.7	386.43	1.187e-05	1.2198e-05	440.7	144.91	128.09	43.099	1.1692e-05	53.52	367.224	236.618	231.878	168.701	294.521	322.391	168.433	173.064	309.828	302.278	172.315	176.837	177.210	182.283	295.140	181.194	-8191	255	
1357.709	1	1	0	0	0.058534	0.079523	0.095697	0.13359	0.15636	0.22664	0.04693	0.14718	0.24318	0.30038	0.16326	0.068881	0.1536	0.1076	0.16009	0.20766	-2.4896	-3.6	-3.2708	-3.3208	-3.7583	-3.1042	-3.5792	-3.8625	-3.0875	-3.7521	-3.5812	-3.2188	-3.9688	-3.125	-3.1646	-3.7792	158.433	254.360	313.794	445.227	378.888	378.235	205.775	428.229	271.869	433.675	503.296	499.397	301.445	451.603	511.828	285.196	0.0018904	0.00061834	0.00012535	1465.1	7.6969e-06	2.6048e-06	1455.6	376.38	1.0046e-05	4.9119e-06	428.66	141.02	124.41	41.263	4.5948e-06	51.548	0.0010458	0.0011227	0.00031026	1506.3	1.144e-05	1.2695e-05	1488.1	386.15	1.1563e-05	1.2439e-05	440.88	144.65	128.06	43.017	1.2084e-05	53.664	366.106	235.996	242.486	168.702	305.010	306.585	168.533	173.197	305.410	317.494	172.571	176.867	177.328	181.973	292.792	181.208	-8191	255	
1357.828	1	1	0	0	0.07787	0.22994	0.13713	0.31031	0.083271	0.27477	0.074697	0.20812	0.25615	0.23026	0.26353	0.07529	0.17248	0.14566	0.26573	0.034932	-2.6458	-3.6792	-3.425	-3.2833	-3.7271	-3.1688	-3.45	-3.7083	-3.0354	-3.6083	-3.5896	-3.0792	-3.8187	-3.175	-3.0917	-3.8125	360.364	401.647	389.389	461.575	467.812	466.239	422.271	471.948	461.380	381.942	393.884	452.605	227.665	514.434	501.140	421.965	0.0018913	0.00051267	0.00016175	1469.9	8.7244e-06	6.0378e-06	1448.3	375.57	7.4943e-06	3.6218e-06	426.63	141.16	125.03	41.367	5.6479e-06	51.446	0.001058	0.0011343	0.00031407	1506.4	1.1737e-05	1.2668e-05	1484.4	385.93	1.1625e-05	1.2643e-05	439.99	144.89	128.07	42.996	1.195e-05	53.579	365.899	238.217	237.674	168.717	284.844	306.276	168.057	172.747	295.430	334.448	172.219	176.396	176.895	181.727	287.980	180.385	-8191	255	
1357.900	1	1	0	0	0.26598	0.07068	0.073337	0.1982	0.057712	0.34292	0.19323	0.16715	0.1999	0.32362	0.11877	0.23666	0.14522	0.12965	0.27285	0.21174	-2.6229	-3.6125	-3.4646	-3.2208	-3.7604	-3.2125	-3.4188	-3.7979	-2.9354	-3.55	-3.4396	-3.1021	-3.85	-3.3833	-3.1583	-3.8833	450.599	395.453	442.376	446.764	495.166	467.075	503.442	502.283	264.237	280.056	366.218	496.724	402.632	410.644	332.729	426.276	0.0018209	0.00053699	0.00011121	1473.3	5.643e-06	5.1187e-06	1447.9	376.05	1.1069e-05	4.8354e-06	428.25	140.89	124.42	41.406	9.1532e-06	51.46	0.0010403	0.0011031	0.00029943	1506	1.1332e-05	1.1675e-05	1483.7	386.11	1.1257e-05	1.2299e-05	440.82	144.67	127.98	43.034	1.2128e-05	53.454	365.272	237.814	239.167	168.076	296.455	311.332	167.735	172.605	321.117	305.468	171.737	176.288	176.820	181.545	299.701	180.449	-8191	255	
1358.021	1	1	0	0	0.10024	0.38378	0.14623	0.081755	0.11542	0.035468	0.18848	0.064473	0.053839	0.088074	0.14575	0.16476	0.13926	0.19408	0.084728	0.19172	-2.5917	-3.2792	-3.7	-3.1167	-3.6542	-3.325	-3.3271	-3.9813	-3.0458	-3.4	-3.75	-3.1771	-3.5917	-3.5229	-3.0187	-3.6937	352.845	407.087	404.441	298.151	293.889	381.007	459.416	506.436	229.468	351.122	176.535	428.215	505.805	155.029	293.301	465.614	0.0018926	0.0005419	0.00017089	1464.5	8.761e-06	3.8108e-06	1452.9	374.91	1.4286e-05	4.4914e-06	428.03	140.8	124.93	41.175	5.567e-06	51.136	0.0010434	0.0010972	0.00031026	1504.4	1.162e-05	1.2022e-05	1484.1	385.9	1.1583e-05	1.2518e-05	440.76	144.84	128.21	43.026	1.1858e-05	53.478	362.512	242.050	251.529	168.427	296.902	283.096	167.611	172.407	316.608	289.855	171.571	176.337	176.561	181.381	296.895	180.534	-8191	255	
1358.117	1	1	0	0	0.21602	0.097048	0.12519	0.25367	0.1944	0.16209	0.014185	0.22219	0.11284	0.1728	0.18373	0.02906	0.1302	0.4169	0.20051	0.15816	-2.7438	-3.4729	-3.7021	-3.1708	-3.5167	-3.4292	-3.2	-3.8667	-3.3312	-3.3729	-4.0188	-3.1667	-3.8167	-3.6333	-2.9542	-3.8583	486.860	337.483	305.181	477.354	350.116	155.551	332.066	410.690	386.707	463.983	429.599	278.696	509.711	496.491	357.703	506.003	0.0018764	0.0006322	0.00011189	1468.1	5.8524e-06	6.29e-06	1445.7	375.97	9.772e-06	5.136e-06	425.01	140.61	123.67	41.14	7.3345e-06	51.378	0.0010186	0.0010826	0.00029995	1506.3	1.1121e-05	1.211e-05	1484.5	386.17	1.0845e-05	1.2106e-05	440.09	144.65	127.92	42.945	1.1826e-05	53.47	363.827	244.727	250.836	168.100	288.692	296.246	167.757	172.521	303.092	302.279	171.913	176.172	176.530	181.804	292.563	180.722	-8191	255	
1358.213	1	1	0	0	0.27743	0.23714	0.07887	0.246	0.28769	0.13199	0.30826	0.19848	0.074657	0.15384	0.086692	0.18727	0.057104	0.28077	0.035298	0.017569	-2.9542	-3.1958	-3.7979	-3.2458	-3.5125	-3.5667	-3.1458	-3.7646	-3.2604	-3.0021	-3.7521	-3.05	-3.5083	-3.8	-2.9292	-3.6417	289.784	272.111	482.802	508.819	300.240	161.449	457.572	494.816	283.607	398.587	200.366	396.941	202.277	448.794	358.954	342.473	0.0019423	0.00050766	9.1877e-05	1458.5	7.0766e-06	4.6013e-06	1436.6	372.9	1.2243e-05	5.3858e-06	427.95	140.07	123.73	41.196	6.2384e-06	51.152	0.0010215	0.0011199	0.00030363	1504.1	1.1015e-05	1.1999e-05	1479.3	385.39	1.1103e-05	1.2568e-05	441.05	144.29	127.79	42.996	1.1484e-05	53.486	364.691	237.641	233.301	167.963	302.824	317.794	167.527	172.483	308.164	306.450	171.796	176.268	176.737	181.439	297.635	180.517	-8191	255	
1358.309	1	1	0	0	0.17687	0.21019	0.091796	0.23207	0.016866	0.20026	0.3264	0.052951	0.36376	0.094208	0.051656	0.38965	0.14354	0.20817	0.22778	0.058648	-2.8375	-2.9688	-3.8167	-3.1875	-3.1937	-3.6708	-3.1542	-3.6896	-3.2417	-2.7875	-3.8854	-3.2896	-3.3979	-3.8583	-3.0167	-3.775	327.345	277.059	341.396	487.620	229.037	296.062	456.444	228.712	264.384	400.448	368.964	484.670	176.420	505.070	460.253	256.012	0.001885	0.00052549	0.00011311	1461.4	8.4884e-06	5.6131e-06	1446.9	376.08	1.0117e-05	4.913e-06	427.05	140.47	124.67	41.309	8.844e-06	51.227	0.0010085	0.0011322	0.00030696	1503.1	1.1558e-05	1.2218e-05	1483.3	386.08	1.0718e-05	1.237e-05	440.92	144.37	127.94	43.043	1.1889e-05	53.442	365.581	249.644	253.538	167.991	304.625	293.538	167.484	172.297	314.394	316.507	171.693	175.965	176.733	181.457	297.968	180.444	-8191	255	
1358.430	1	1	0	0	0.21397	0.30303	0.107	0.19757	0.18792	0.18458	0.27887	0.48903	0.16255	0.095787	0.12328	0.042754	0.30547	0.037769	0.16226	0.20442	-2.9896	-3.0021	-3.6375	-3.3167	-3.1604	-3.6729	-3.1021	-3.6521	-3.5208	-3.0792	-3.7229	-3.3646	-3.125	-3.7562	-3.0229	-3.5271	247.988	293.680	285.649	448.374	245.639	480.034	430.083	437.974	324.043	500.306	475.034	332.979	190.360	247.788	235.385	471.524	0.0018928	0.00052264	0.00013286	1466.4	5.9507e-06	4.0428e-06	1443.3	374.93	1.1178e-05	2.8373e-06	426.77	139.99	123.64	41.369	8.3214e-06	51.261	0.0010091	0.0011285	0.00030321	1504.1	1.132e-05	1.1763e-05	1482	385.45	1.0869e-05	1.2584e-05	440.22	144.41	127.62	42.991	1.17e-05	53.48	365.239	243.971	249.760	167.911	303.506	315.584	167.779	172.304	309.507	315.027	171.920	176.216	176.573	181.604	293.981	180.649	-8191	255	
1358.501	1	1	0	0	0.081568	0.26311	0.30948	0.23253	0.21588	0.078452	0.045318	0.14664	0.11123	0.17401	0.10702	0.22362	0.26049	0.095962	0.083848	0.19143	-3.2188	-2.8146	-3.7	-3.3563	-2.9771	-3.8229	-3.0896	-3.4667	-3.7479	-2.8812	-3.8625	-3.4646	-3.0083	-3.6813	-2.9354	-3.3354	229.526	234.412	452.165	464.880	472.778	389.002	468.236	493.249	293.943	465.554	189.437	171.800	497.049	165.910	315.606	255.803	0.0018121	0.00046667	0.00013535	1463.4	7.7666e-06	4.4009e-06	1442.3	376.19	1.0606e-05	4.8743e-06	427.58	141.17	123.9	41.189	8.0083e-06	51.258	0.001004	0.0011107	0.00030026	1503.5	1.1503e-05	1.1976e-05	1481.2	386.01	1.1181e-05	1.2402e-05	440.02	144.5	127.86	42.927	1.1989e-05	53.398	364.263	231.684	254.693	168.044	292.496	303.001	167.673	172.651	316.225	341.666	171.948	176.175	176.843	181.674	280.399	180.579	-8191	255	
1358.598	1	1	0	0	0.17554	0.16599	0.1529	0.14166	0.082976	0.35593	0.08146	0.2324	0.11674	0.093343	0.30799	0.20102	0.11541	0.18171	0.090111	0.27115	-3.3583	-2.9854	-3.4083	-3.4771	-2.9333	-3.5729	-3.4771	-3.5125	-3.8229	-2.8854	-3.6229	-3.7271	-2.8646	-3.8021	-3.1458	-3.3208	284.837	271.159	232.111	507.313	155.322	283.541	366.547	500.310	293.652	422.768	183.683	436.687	435.742	217.587	513.705	451.079	0.0018702	0.00049168	0.00013571	1463.1	6.257e-06	2.007e-06	1442.8	373.52	1.0009e-05	3.0897e-06	425.66	140.6	123.89	41.08	7.4501e-06	51.014	0.0010068	0.001108	0.00029895	1503.1	1.1449e-05	1.1903e-05	1481	385.37	1.1276e-05	1.2081e-05	439.75	144.32	127.84	42.879	1.1398e-05	53.435	366.087	246.420	261.301	168.024	309.919	286.714	167.596	172.554	299.976	282.133	171.977	175.982	176.783	181.300	295.241	180.576	-8191	255	
1358.694	1	1	0	0	0.065896	0.17519	0.090895	0.14849	0.19122	0.089105	0.18525	0.24263	0.38391	0.278	0.097886	0.055549	0.42463	0.28704	0.11281	0.10758	-3.2396	-2.7438	-3.4229	-3.5292	-2.8333	-3.6312	-3.525	-3.35	-3.5833	-2.9688	-3.55	-3.5208	-3.1583	-3.8396	-3.3667	-3.1625	424.810	318.416	171.475	495.441	297.706	392.538	498.479	489.733	273.024	379.161	498.252	474.339	461.328	487.370	234.637	459.693	0.0019722	0.00049201	0.00014495	1461.1	4.6989e-06	4.7321e-06	1446.1	375.68	1.0298e-05	6.3428e-06	427.25	140.34	124.03	41.385	7.2784e-06	51.423	0.001019	0.001136	0.00030605	1503	1.1652e-05	1.2076e-05	1481.9	385.55	1.1106e-05	1.2609e-05	440.63	144.2	128.06	43.074	1.1822e-05	53.437	364.852	249.259	249.580	168.049	296.216	297.286	167.593	172.573	315.303	306.369	171.847	176.180	176.758	181.684	281.795	180.453	-8191	255	
1358.813	1	1	0	0	0.19157	0.051411	0.16524	0.13648	0.033742	0.061263	0.1702	0.28381	0.087648	0.088648	0.111	0.20389	0.19455	0.17472	0.12286	0.24025	-3.2396	-3.1792	-3.4625	-3.8375	-3.0479	-3.6021	-3.5208	-3.1708	-3.8438	-3.1688	-3.5167	-3.6688	-3.1917	-3.7771	-3.4542	-3.0667	391.570	423.214	493.340	479.950	297.628	177.412	467.689	418.119	438.766	268.366	497.114	182.006	503.297	466.651	391.081	348.957	0.0018977	0.00043025	0.00012229	1466.4	7.5872e-06	6.465e-06	1441.6	375.21	1.0852e-05	6.678e-06	425.64	140.88	124.15	41.471	4.4137e-06	50.975	0.0010152	0.0010967	0.0003109	1504.1	1.1663e-05	1.2303e-05	1481.2	385.65	1.1155e-05	1.2416e-05	439.77	144.48	127.86	43.065	1.179e-05	53.45	364.918	239.873	252.660	168.192	301.648	303.528	167.811	172.596	312.255	317.335	172.178	176.255	176.767	181.887	305.685	180.673	-8191	255	
#DATA ENDS
