BOXY.EXE: ISS Imagent and Oximeter Data Acquisition Program Version 0.80
Ascii Record File

#ACQ INFORMATION
2  Detector Channels 
16  External MUX Channels 
1  Auxiliary Channels 
5000  Waveform (CCF) Frequency (Hz)
1  Waveforms Skipped 
30  Waveforms Averaged 
1  Cycles Averaged 
16  Acquisitions per Waveform 
10.0806  Updata Rate (Hz) 

#FILE INFORMATION
TRUE -- External MUX Channel results are PARSED.
FALSE -- AC DC and Phase are NOT grouped.
TRUE -- Companion Program Settings File CREATED.
FALSE -- AC data not excluded
FALSE -- DC data not excluded
FALSE -- Phase data not excluded
FALSE -- Auxillary Chn. data not excluded
Tab delimiters

#CALIBRATION STATE
TRUE -- Waveform Calibration Values APPLIED.


#AUX CALIBRATION VALUES
Val Type	aux-1	

Term	1.0000e+00	
Factor	0.0000e+00	


#WF CALIBRATION VALUES
A = Detector Channel
Val Type	A-AC1	A-AC2	A-AC3	A-AC4	A-AC5	A-AC6	A-AC7	A-AC8	A-AC9	A-AC10	A-AC11	A-AC12	A-AC13	A-AC14	A-AC15	A-AC16	A-DC1	A-DC2	A-DC3	A-DC4	A-DC5	A-DC6	A-DC7	A-DC8	A-DC9	A-DC10	A-DC11	A-DC12	A-DC13	A-DC14	A-DC15	A-DC16	A-Ph1	A-Ph2	A-Ph3	A-Ph4	A-Ph5	A-Ph6	A-Ph7	A-Ph8	A-Ph9	A-Ph10	A-Ph11	A-Ph12	A-Ph13	A-Ph14	A-Ph15	A-Ph16	

Term	0.00000e+00	0.00000e+00	0.00000e+00	0.00000e+00	0.00000e+00	0.00000e+00	0.00000e+00	0.00000e+00	0.00000e+00	0.00000e+00	0.00000e+00	0.00000e+00	0.00000e+00	0.00000e+00	0.00000e+00	0.00000e+00	0.00000e+00	0.00000e+00	0.00000e+00	0.00000e+00	0.00000e+00	0.00000e+00	0.00000e+00	0.00000e+00	0.00000e+00	0.00000e+00	0.00000e+00	0.00000e+00	0.00000e+00	0.00000e+00	0.00000e+00	0.00000e+00	0.00000e+00	0.00000e+00	0.00000e+00	0.00000e+00	0.00000e+00	0.00000e+00	0.00000e+00	0.00000e+00	0.00000e+00	0.00000e+00	0.00000e+00	0.00000e+00	0.00000e+00	0.00000e+00	0.00000e+00	0.00000e+00	
Factor	1.00000e+00	1.00000e+00	1.00000e+00	1.00000e+00	1.00000e+00	1.00000e+00	1.00000e+00	1.00000e+00	1.00000e+00	1.00000e+00	1.00000e+00	1.00000e+00	1.00000e+00	1.00000e+00	1.00000e+00	1.00000e+00	1.00000e+00	1.00000e+00	1.00000e+00	1.00000e+00	1.00000e+00	1.00000e+00	1.00000e+00	1.00000e+00	1.00000e+00	1.00000e+00	1.00000e+00	1.00000e+00	1.00000e+00	1.00000e+00	1.00000e+00	1.00000e+00	X	X	X	X	X	X	X	X	X	X	X	X	X	X	X	X	

B = Detector Channel
Val Type	B-AC1	B-AC2	B-AC3	B-AC4	B-AC5	B-AC6	B-AC7	B-AC8	B-AC9	B-AC10	B-AC11	B-AC12	B-AC13	B-AC14	B-AC15	B-AC16	B-DC1	B-DC2	B-DC3	B-DC4	B-DC5	B-DC6	B-DC7	B-DC8	B-DC9	B-DC10	B-DC11	B-DC12	B-DC13	B-DC14	B-DC15	B-DC16	B-Ph1	B-Ph2	B-Ph3	B-Ph4	B-Ph5	B-Ph6	B-Ph7	B-Ph8	B-Ph9	B-Ph10	B-Ph11	B-Ph12	B-Ph13	B-Ph14	B-Ph15	B-Ph16	

Term	0.00000e+00	0.00000e+00	0.00000e+00	0.00000e+00	0.00000e+00	0.00000e+00	0.00000e+00	0.00000e+00	0.00000e+00	0.00000e+00	0.00000e+00	0.00000e+00	0.00000e+00	0.00000e+00	0.00000e+00	0.00000e+00	0.00000e+00	0.00000e+00	0.00000e+00	0.00000e+00	0.00000e+00	0.00000e+00	0.00000e+00	0.00000e+00	0.00000e+00	0.00000e+00	0.00000e+00	0.00000e+00	0.00000e+00	0.00000e+00	0.00000e+00	0.00000e+00	-8.82690e+01	-1.42635e+02	-1.12445e+02	-1.85681e+02	-9.37183e+01	-9.60728e+01	-1.59412e+02	-1.62015e+02	-5.53355e+01	-8.96295e+01	-1.71360e+02	-1.68986e+02	-1.86800e+02	-1.77307e+02	-7.11187e+01	-1.50303e+02	
Factor	1.93732e-05	8.66701e-05	2.97722e-05	2.31231e-01	9.98951e-07	9.22260e-07	1.78994e-01	5.92349e-02	7.36728e-07	8.49038e-07	9.96673e-02	3.36700e-02	2.71889e-02	1.07909e-02	1.08767e-06	1.56297e-02	4.79868e-07	4.86975e-07	1.35843e-07	1.08386e-01	5.37163e-09	5.38858e-09	8.09458e-02	2.81770e-02	5.43546e-09	5.43929e-09	4.42687e-02	1.50702e-02	1.26050e-02	4.94180e-03	5.45345e-09	6.78308e-03	X	X	X	X	X	X	X	X	X	X	X	X	X	X	X	X	



#DISTANCE SETTINGS
A = Detector Channel
A-1	A-2	A-3	A-4	A-5	A-6	A-7	A-8	A-9	A-10	A-11	A-12	A-13	A-14	A-15	A-16	

2.5000e+00	3.0000e+00	2.5000e+00	3.0000e+00	2.0000e+00	3.0000e+00	1.5000e+00	3.0000e+00	3.0000e+00	3.0000e+00	3.0000e+00	3.0000e+00	3.0000e+00	3.0000e+00	1.5000e+00	3.0000e+00	

B = Detector Channel
B-1	B-2	B-3	B-4	B-5	B-6	B-7	B-8	B-9	B-10	B-11	B-12	B-13	B-14	B-15	B-16	

1.0000e+01	1.0000e+01	1.0000e+01	1.4400e+00	1.0000e+01	1.0000e+01	1.5100e+00	1.9400e+00	1.0000e+01	1.0000e+01	1.9900e+00	2.4900e+00	2.4100e+00	2.9000e+00	1.0000e+01	2.9800e+00	




#DATA BEGINS
time	group	step	mark	flag	A-AC1	A-AC2	A-AC3	A-AC4	A-AC5	A-AC6	A-AC7	A-AC8	A-AC9	A-AC10	A-AC11	A-AC12	A-AC13	A-AC14	A-AC15	A-AC16	A-DC1	A-DC2	A-DC3	A-DC4	A-DC5	A-DC6	A-DC7	A-DC8	A-DC9	A-DC10	A-DC11	A-DC12	A-DC13	A-DC14	A-DC15	A-DC16	A-Ph1	A-Ph2	A-Ph3	A-Ph4	A-Ph5	A-Ph6	A-Ph7	A-Ph8	A-Ph9	A-Ph10	A-Ph11	A-Ph12	A-Ph13	A-Ph14	A-Ph15	A-Ph16	B-AC1	B-AC2	B-AC3	B-AC4	B-AC5	B-AC6	B-AC7	B-AC8	B-AC9	B-AC10	B-AC11	B-AC12	B-AC13	B-AC14	B-AC15	B-AC16	B-DC1	B-DC2	B-DC3	B-DC4	B-DC5	B-DC6	B-DC7	B-DC8	B-DC9	B-DC10	B-DC11	B-DC12	B-DC13	B-DC14	B-DC15	B-DC16	B-Ph1	B-Ph2	B-Ph3	B-Ph4	B-Ph5	B-Ph6	B-Ph7	B-Ph8	B-Ph9	B-Ph10	B-Ph11	B-Ph12	B-Ph13	B-Ph14	B-Ph15	B-Ph16	aux-1	digaux	

1869.774	1	1	0	768	0.15583	0.14674	0.006247	0.11869	0.10788	0.037962	0.20941	0.090703	0.12745	0.17869	0.34331	0.1245	0.10572	0.22315	0.064939	0.31483	-3.4646	-3.9792	-3.2521	-4.2125	-3.6833	-3.5417	-4.4292	-3.5229	-3.7208	-4.1167	-3.4	-4.0958	-3.8708	-3.5187	-4.1979	-3.6312	344.732	108.116	250.450	370.092	166.550	248.820	42.837	125.238	147.054	356.196	308.228	115.342	81.974	46.958	352.428	40.078	0.00038084	0.00024919	0.00014228	1373.4	3.5887e-06	4.1872e-06	1376.8	365.73	2.8085e-06	4.4948e-06	420.37	141.33	121.96	42.355	5.6222e-06	53.357	5.731e-05	5.0325e-05	1.4355e-05	1280.1	5.6604e-07	5.5371e-07	1312.1	345.34	5.6517e-07	5.4523e-07	384.63	129.99	112.47	38.646	5.5433e-07	47.475	192.294	109.361	138.627	45.958	184.769	158.608	45.986	50.651	198.939	158.384	50.070	55.066	55.159	59.574	187.052	58.785	-8191	255	
1869.870	1	1	0	0	0.11311	0.24894	0.10639	0.20933	0.13322	0.20809	0.23586	0.12297	0.1432	0.18407	0.16843	0.29559	0.18395	0.1973	0.13337	0.096268	-3.3833	-4.1083	-3.2729	-3.975	-3.7646	-3.3375	-4.1896	-3.6667	-3.55	-4.0271	-3.3146	-3.9417	-4.0917	-3.4313	-4.1354	-3.8208	232.657	121.411	83.589	376.082	62.801	172.720	333.389	345.075	189.923	363.298	310.975	251.761	338.117	68.197	260.172	115.892	0.00032861	0.00038576	4.13e-05	1366.5	3.1542e-06	4.5991e-06	1375.5	365.78	3.7673e-06	3.3719e-06	422.92	141.08	122.24	42.506	3.0478e-06	52.924	5.5764e-05	4.9149e-05	1.4119e-05	1275.3	5.6247e-07	5.6425e-07	1309.7	345.59	5.7362e-07	5.6409e-07	385.72	129.9	112.63	38.649	5.6853e-07	47.432	190.803	93.196	152.136	46.138	155.196	120.144	46.213	50.782	178.027	144.678	49.777	55.111	55.279	59.561	239.219	59.080	-8191	255	
1869.966	1	1	0	0	0.07733	0.080236	0.12349	0.36974	0.11271	0.10907	0.10496	0.32048	0.12301	0.09745	0.10271	0.29559	0.19364	0.24023	0.11337	0.095615	-3.1646	-4.2063	-3.5104	-3.9458	-3.9854	-3.3563	-4.3479	-3.7042	-3.5021	-4.3167	-3.6271	-3.9042	-4.1792	-3.4583	-3.9688	-3.7125	249.209	84.206	310.469	361.476	139.374	233.880	257.320	350.455	64.173	341.739	253.751	385.154	53.462	368.022	346.749	140.673	0.00031186	0.00022278	0.00011847	1368.5	3.0636e-06	4.0247e-06	1372.3	366.65	2.3004e-06	3.0837e-06	425.44	141.23	121.63	42.262	3.7254e-06	53.171	5.5929e-05	4.9853e-05	1.3783e-05	1274.8	5.5521e-07	5.4421e-07	1308.8	345.36	5.6607e-07	5.4717e-07	385.96	129.96	112.47	38.579	5.5408e-07	47.563	182.731	120.521	170.002	46.383	151.074	141.710	46.164	50.739	209.015	155.442	49.981	55.106	55.103	59.341	206.078	58.996	-8191	255	
1870.063	1	1	0	0	0.23271	0.11175	0.13999	0.19193	0.12675	0.24305	0.37489	0.25617	0.10496	0.16903	0.22425	0.3112	0.074937	0.30349	0.067695	0.054786	-3.0917	-4.0604	-3.45	-3.6833	-4.1292	-3.3375	-3.9896	-3.9292	-3.2875	-4.0938	-3.6292	-3.6917	-4.1646	-3.3729	-3.9146	-4.025	199.609	248.038	179.033	355.212	324.508	265.151	308.382	363.242	166.774	386.518	379.324	332.145	382.150	144.924	193.824	181.818	0.00033385	0.00046157	9.8599e-05	1361	4.5301e-06	3.9161e-06	1374.8	365.67	3.2419e-06	3.4791e-06	423.18	141.42	121.96	42.498	3.9314e-06	53.153	5.6158e-05	4.8246e-05	1.3722e-05	1273.3	5.4886e-07	5.398e-07	1310.8	345.4	5.6046e-07	5.3869e-07	385.68	129.96	112.58	38.676	5.5326e-07	47.45	191.034	101.091	178.886	45.953	164.291	146.517	46.276	50.826	211.382	167.022	50.215	54.975	55.205	59.488	180.553	58.508	-8191	255	
1870.159	1	1	0	0	0.17378	0.16787	0.23301	0.058963	0.23829	0.25642	0.25779	0.12883	0.093178	0.03275	0.16108	0.24526	0.13167	0.33497	0.10004	0.090192	-2.7917	-4.0896	-3.5458	-3.8042	-4.2479	-3.5187	-3.9938	-4.1667	-3.3229	-4.2354	-3.6833	-3.4917	-4.1792	-3.4562	-3.7083	-4.0896	314.351	138.637	113.692	52.438	69.242	377.791	317.490	357.661	163.702	296.976	317.189	357.965	76.588	41.451	311.283	367.482	0.00032931	0.00032474	7.9227e-05	1367.5	2.1316e-06	2.741e-06	1377.7	366.51	3.5345e-06	1.9959e-06	423.72	140.49	122.48	42.598	4.2594e-06	52.93	5.5525e-05	4.9597e-05	1.3271e-05	1276.4	5.4876e-07	5.3315e-07	1310.4	345.16	5.6148e-07	5.5194e-07	385.55	129.63	112.71	38.631	5.5266e-07	47.45	188.088	69.305	155.714	46.212	168.639	179.237	46.371	50.595	205.107	172.315	50.485	55.062	55.362	59.426	171.580	58.656	-8191	255	
1870.255	1	1	0	0	0.035668	0.028823	0.15908	0.083533	0.15579	0.42346	0.21515	0.18397	0.12366	0.17271	0.20505	0.22922	0.075531	0.023829	0.022178	0.15109	-2.8521	-4.1104	-3.8729	-3.4562	-4.0979	-3.5271	-3.9667	-4.2417	-3.2687	-3.9646	-3.9667	-3.5208	-4.0896	-3.5583	-3.8333	-4.2646	297.073	103.104	60.953	74.596	261.978	302.988	300.022	295.286	245.348	283.130	303.640	317.730	388.847	320.876	267.330	280.359	0.00036127	0.0002003	8.5874e-05	1372.4	4.5592e-06	1.9796e-06	1379.6	366.3	3.0803e-06	3.119e-06	423.51	141.68	122.54	42.581	3.062e-06	53.126	5.4815e-05	4.9094e-05	1.3609e-05	1277.5	5.4516e-07	5.4581e-07	1310.2	345.69	5.6729e-07	5.4072e-07	385.56	129.89	112.77	38.632	5.5574e-07	47.441	183.997	97.358	164.177	46.146	180.782	136.450	46.400	50.877	198.437	153.741	50.235	55.057	55.539	59.598	167.343	59.092	-8191	255	
1870.374	1	1	0	0	0.16239	0.061049	0.05568	0.14101	0.24041	0.11636	0.20023	0.19052	0.31368	0.13148	0.17091	0.16536	0.20524	0.12866	0.099241	0.16769	-2.9521	-3.9854	-3.9729	-3.4688	-4.1771	-3.7604	-3.8458	-4.1979	-3.5229	-3.9521	-4.0312	-3.5687	-4.2021	-3.7208	-3.675	-4.2937	205.876	100.168	318.879	283.982	221.302	296.402	384.772	347.028	82.864	356.984	338.509	323.165	38.679	392.325	236.155	374.826	0.00032146	0.00016242	7.3741e-05	1369.9	5.9559e-06	3.2049e-06	1373	365.19	3.3455e-06	2.8442e-06	423.12	141.19	122.72	42.473	2.973e-06	53.185	5.4635e-05	4.7931e-05	1.3341e-05	1274	5.4008e-07	5.3521e-07	1307	345.09	5.4167e-07	5.3248e-07	385.19	129.8	112.63	38.579	5.4684e-07	47.502	192.834	110.065	119.606	46.372	156.704	133.156	46.487	51.276	186.181	148.352	50.453	55.396	55.646	59.673	199.408	59.044	-8191	255	
1870.470	1	1	0	0	0.14029	0.13898	0.3373	0.16737	0.21314	0.050785	0.34223	0.27162	0.13775	0.089945	0.20917	0.088118	0.21984	0.06673	0.10905	0.27883	-3.025	-3.8708	-3.9729	-3.4667	-4.2708	-3.8458	-3.6521	-4.4271	-3.4313	-3.8104	-4.2542	-3.4229	-4.0833	-3.9958	-3.2438	-4.2375	59.935	332.003	388.152	326.513	263.280	270.778	38.321	327.377	352.463	245.105	89.857	119.810	369.911	148.041	186.842	278.928	0.00035085	0.00020028	9.9612e-05	1369.8	4.0723e-06	3.686e-06	1372.3	365.55	3.1622e-06	2.0356e-06	425.25	140.82	121.93	42.578	3.7246e-06	53.018	5.4376e-05	4.9076e-05	1.3431e-05	1271.4	5.4745e-07	5.2632e-07	1306.4	345.16	5.4897e-07	5.3612e-07	385.15	129.62	112.42	38.586	5.4082e-07	47.339	185.810	101.599	110.312	46.456	158.238	166.850	46.615	51.410	199.603	147.068	50.743	55.449	55.829	59.710	194.015	58.780	-8191	255	
1870.566	1	1	0	0	0.1053	0.14218	0.065345	0.22334	0.20591	0.34232	0.51318	0.19691	0.18624	0.21817	0.084566	0.12602	0.22367	0.22556	0.2461	0.13961	-3.1562	-3.7188	-4.0563	-3.3458	-3.9479	-3.8521	-3.6854	-4.2479	-3.4667	-3.6521	-4.1875	-3.5104	-4.1146	-3.9917	-3.3396	-4.2354	288.480	263.304	385.958	383.591	304.949	309.313	312.914	294.066	294.398	275.100	153.446	351.405	362.528	335.673	243.427	282.321	0.00032521	0.00024964	6.982e-05	1363.5	2.0722e-06	2.7355e-06	1373.5	366.11	2.6184e-06	1.7151e-06	422.77	140.57	121.73	42.459	4.2534e-06	53.179	5.4683e-05	4.9541e-05	1.3504e-05	1271.6	5.4259e-07	5.4013e-07	1306.6	345.1	5.4977e-07	5.4442e-07	384.52	129.31	112.27	38.572	5.5237e-07	47.428	189.625	116.691	156.530	46.248	154.146	160.951	46.208	51.081	214.279	135.579	50.550	54.993	55.619	59.649	194.668	59.012	-8191	255	
1870.662	1	1	0	0	0.18626	0.12479	0.06627	0.48662	0.026103	0.070534	0.10015	0.27911	0.039618	0.41434	0.10369	0.09696	0.26962	0.070793	0.20315	0.055909	-3.3208	-3.3937	-4.1417	-3.5208	-3.8667	-4.0292	-3.6542	-4.0729	-3.7667	-3.4854	-4.2354	-3.5958	-4	-4.2542	-3.1583	-4.175	56.057	146.192	74.815	382.648	276.249	221.635	340.117	373.294	178.328	251.285	300.719	83.796	321.983	56.005	178.449	65.672	0.00036023	0.00025987	9.4797e-05	1360.2	3.7447e-06	3.8266e-06	1370.7	364.51	3.1039e-06	2.7525e-06	422.2	140.39	121.88	42.265	5.7982e-06	52.991	5.4889e-05	4.8391e-05	1.3238e-05	1271.1	5.3812e-07	5.3171e-07	1303.8	344.85	5.5993e-07	5.4669e-07	384.76	129.22	112.35	38.516	5.5535e-07	47.411	196.601	113.788	135.212	46.273	147.320	173.970	46.318	51.123	190.677	186.699	50.425	55.125	55.529	59.447	143.290	58.989	-8191	255	
1870.758	1	1	0	0	0.12798	0.16078	0.029792	0.11781	0.13202	0.16164	0.40203	0.1281	0.23475	0.18099	0.28189	0.19564	0.077513	0.35452	0.15541	0.13599	-3.3167	-3.4938	-4.3896	-3.6521	-3.8208	-3.9417	-3.5167	-4.2083	-3.9917	-3.3208	-4.2146	-3.6167	-3.7854	-4.2063	-3.3333	-4.1833	90.025	139.781	70.375	362.346	63.735	379.363	317.327	257.451	132.697	124.477	271.939	327.858	34.741	329.869	144.653	352.817	0.00034391	0.00030383	0.00014717	1366.4	3.9342e-06	2.7135e-06	1367.6	363.97	3.2554e-06	3.0384e-06	423.29	141.2	122.35	42.478	3.0838e-06	53.124	5.4639e-05	4.8675e-05	1.3456e-05	1269.7	5.3793e-07	5.1522e-07	1303.4	344.37	5.4315e-07	5.3188e-07	384.79	129.62	112.36	38.528	5.5014e-07	47.41	188.756	74.980	166.166	46.183	187.092	165.959	46.370	51.261	197.538	197.597	50.255	55.359	55.752	59.431	189.522	59.247	-8191	255	
1870.855	1	1	0	0	0.13723	0.20284	0.051718	0.17637	0.20682	0.23619	0.13994	0.39288	0.12514	0.14458	0.1805	0.25477	0.31406	0.21432	0.03839	0.26773	-3.5229	-3.3458	-4.2875	-3.7021	-3.5917	-4.1479	-3.6083	-4.0437	-3.8187	-3.3625	-4.2312	-3.675	-3.6437	-4.2937	-3.2188	-4.0271	370.449	165.231	273.163	295.990	350.922	366.627	299.900	345.271	279.755	193.752	272.840	36.436	35.651	392.687	73.493	390.567	0.00040247	0.00033147	0.00012385	1365.8	3.4875e-06	1.4345e-06	1371.9	365.09	1.6939e-06	3.2996e-06	421.59	140.49	121.59	42.242	2.7513e-06	53.045	5.4644e-05	4.8259e-05	1.3267e-05	1270.2	5.2919e-07	5.19e-07	1304.8	344.54	5.3212e-07	5.3222e-07	384.17	129.34	112.3	38.454	5.5515e-07	47.39	186.531	74.219	167.396	46.166	163.297	157.204	46.398	51.256	196.853	164.981	50.573	55.156	55.876	59.723	221.063	59.319	-8191	255	
1870.975	1	1	0	0	0.24873	0.19524	0.19678	0.093348	0.21409	0.2545	0.099924	0.096867	0.081146	0.35185	0.18168	0.11241	0.21247	0.030045	0.031045	0.18077	-3.4979	-3.3479	-4.1333	-3.7979	-3.5312	-4.1438	-3.5563	-3.9437	-3.9813	-3.4083	-4.2958	-3.8167	-3.3917	-4.2104	-3.3521	-3.9333	238.591	74.521	382.327	164.855	327.278	382.905	261.048	350.126	330.328	121.830	304.256	85.058	71.184	86.497	256.033	80.318	0.00036931	0.00039048	0.00010249	1368.2	3.1903e-06	3.0841e-06	1370.8	365.92	2.5978e-06	3.43e-06	423.56	140.74	121.72	42.302	5.3467e-06	53.066	5.7067e-05	5.1223e-05	1.425e-05	1277.4	5.9303e-07	5.8444e-07	1310.3	345.52	6.0347e-07	5.8353e-07	385.85	129.72	112.54	38.627	5.8276e-07	47.483	188.193	145.661	125.969	46.246	162.593	154.617	46.243	51.259	214.589	135.159	50.242	55.037	55.384	59.851	179.829	59.481	-8191	255	
1871.071	1	1	0	0	0.14161	0.14936	0.11002	0.24697	0.24474	0.11309	0.20766	0.20715	0.088262	0.073784	0.11432	0.15428	0.088809	0.091095	0.040261	0.19295	-3.6396	-3.425	-4.0708	-4.0417	-3.4437	-4.275	-3.7333	-3.775	-4.0729	-3.3542	-3.9917	-3.9083	-3.4458	-4.2625	-3.5104	-3.6792	388.186	170.391	391.419	108.797	226.218	285.655	66.284	285.776	340.034	308.420	302.819	81.992	78.579	350.650	36.776	227.941	0.00035458	0.00018041	7.8718e-05	1360.4	2.0087e-06	2.1542e-06	1364.4	363.53	3.1608e-06	2.1008e-06	418.92	140.79	121.49	42.34	4.8255e-06	53.031	5.6571e-05	5.0001e-05	1.3652e-05	1271.3	5.4665e-07	5.3244e-07	1305.1	344.23	5.5832e-07	5.5204e-07	384.24	129.55	112.39	38.597	5.6334e-07	47.407	186.954	133.997	113.583	46.398	184.057	172.653	46.159	51.133	210.740	181.759	50.541	55.237	55.652	60.151	179.552	59.511	-8191	255	
1871.167	1	1	0	0	0.076103	0.064582	0.086913	0.37748	0.23825	0.17869	0.13431	0.26076	0.08095	0.1016	0.23747	0.12722	0.061937	0.098801	0.19106	0.21819	-3.7438	-3.3292	-3.8729	-3.9292	-3.3792	-4.1792	-3.9146	-3.8021	-4.1583	-3.4104	-4.0417	-3.9	-3.3292	-4.2375	-3.6771	-3.6167	143.360	38.323	338.546	355.938	251.644	252.015	382.632	384.375	164.570	228.092	362.065	353.240	343.480	350.505	201.981	41.443	0.00038318	0.00022642	0.00010631	1370.6	2.7541e-06	3.1872e-06	1369.7	365.14	1.941e-06	2.4407e-06	421.83	141.34	121.98	42.488	3.3972e-06	52.967	5.5593e-05	5.0373e-05	1.3522e-05	1273.2	5.3171e-07	5.2555e-07	1304.3	344.2	5.3468e-07	5.356e-07	383.62	129.28	112.08	38.557	5.3928e-07	47.249	185.046	111.313	114.761	46.645	160.831	161.340	46.559	51.683	202.893	150.684	50.854	55.691	55.649	60.128	158.957	59.340	-8191	255	
1871.262	1	1	0	0	0.16861	0.1289	0.11474	0.35085	0.20809	0.20752	0.13361	0.28763	0.14127	0.072852	0.2314	0.28061	0.19136	0.070924	0.23267	0.089739	-3.7625	-3.4583	-3.925	-4.2396	-3.4896	-4.2042	-4.0062	-3.6125	-4.0833	-3.5	-3.7375	-4.325	-3.3896	-4.0188	-3.825	-3.5938	306.275	119.242	389.204	366.279	334.392	96.754	295.450	316.923	129.265	208.841	318.600	281.307	134.975	346.897	366.890	124.915	0.00035894	0.00026489	0.00012048	1360.4	2.4384e-06	2.6786e-06	1364.4	364.95	1.9683e-06	3.2039e-06	422.58	140.69	121.79	42.035	3.277e-06	52.866	5.3647e-05	4.7436e-05	1.3214e-05	1267.6	5.2538e-07	5.125e-07	1300.7	344.19	5.332e-07	5.2862e-07	384	129.21	112.15	38.447	5.3226e-07	47.268	188.227	112.542	155.752	46.717	195.155	127.440	46.703	51.696	209.844	134.126	50.969	55.546	55.820	59.963	200.709	59.136	-8191	255	
1871.335	1	1	0	0	0.11351	0.12622	0.20974	0.074589	0.079635	0.10662	0.22572	0.15304	0.10714	0.15906	0.31627	0.27082	0.068912	0.14003	0.099124	0.16326	-3.8646	-3.5438	-3.6667	-4.2542	-3.3479	-3.8542	-4.2521	-3.2313	-4.2729	-3.6479	-3.7021	-4.1354	-3.4125	-4.0062	-3.9854	-3.4396	197.049	320.909	136.113	357.338	275.191	183.323	45.890	293.722	268.496	127.823	333.644	342.083	317.736	141.839	160.795	343.864	0.00034817	0.00037839	0.00014874	1360.3	3.6314e-06	1.3371e-06	1357.7	363.62	2.8057e-06	2.0533e-06	420.63	139.71	121.42	42.05	3.9244e-06	52.759	5.2455e-05	4.6977e-05	1.3004e-05	1270	5.3347e-07	5.1663e-07	1298.5	343.48	5.3172e-07	5.2286e-07	383.42	129.08	112	38.409	5.2804e-07	47.133	193.600	112.851	130.183	46.278	152.540	158.666	46.759	51.313	207.897	135.612	50.474	55.094	55.446	59.555	200.211	58.831	-8191	255	
1871.454	1	1	0	0	0.089593	0.10758	0.093499	0.11638	0.074572	0.12514	0.16662	0.25897	0.05033	0.25433	0.26259	0.082046	0.31643	0.1926	0.16127	0.056163	-3.8	-3.7333	-3.4792	-4.4354	-3.3979	-3.9042	-4.3063	-3.3063	-4.1396	-3.7417	-3.525	-4.1937	-3.5792	-3.825	-4.0458	-3.4479	166.054	334.186	164.351	38.291	297.566	89.545	322.471	388.239	188.313	48.647	35.977	132.702	354.736	321.427	242.318	374.847	0.00034639	0.00033413	0.00010863	1357.5	4.307e-06	2.8461e-06	1363.1	364.57	3.4142e-06	2.2978e-06	418.76	140.38	121.47	42.246	3.884e-06	52.521	5.3549e-05	4.672e-05	1.3167e-05	1267.6	5.1981e-07	5.1141e-07	1299.1	343.76	5.2884e-07	5.2164e-07	383.45	128.93	111.85	38.491	5.2863e-07	47.15	191.775	114.732	164.760	46.306	149.835	207.306	46.935	51.426	213.549	148.653	50.795	55.466	55.653	59.632	195.173	58.840	-8191	255	
1871.550	1	1	0	0	0.14131	0.11374	0.030646	0.23431	0.22492	0.13566	0.15572	0.27627	0.15923	0.28109	0.26281	0.085139	0.29624	0.24411	0.13754	0.20642	-3.6417	-3.6958	-3.5333	-4.2146	-3.1833	-3.6792	-4.2646	-3.4542	-3.9896	-3.8229	-3.5104	-4.2354	-3.6167	-3.5458	-4.1292	-3.4188	369.908	313.065	361.273	299.081	134.178	289.169	365.004	319.979	144.512	130.808	342.556	366.814	45.030	37.909	45.389	36.523	0.00035766	0.00023395	0.00013653	1355.6	2.9783e-06	5.2986e-07	1361.2	363.77	3.4598e-06	2.1984e-06	421.18	140.57	121.17	42.481	3.4958e-06	52.867	5.299e-05	4.7075e-05	1.3277e-05	1265.9	5.2047e-07	5.1844e-07	1299.9	343.58	5.2869e-07	5.0179e-07	383.24	129.16	111.83	38.531	5.2334e-07	47.254	187.946	93.904	140.806	45.940	135.670	210.900	46.079	50.911	209.503	177.448	50.366	55.155	55.011	59.675	219.641	58.822	-8191	255	
1871.646	1	1	0	0	0.16945	0.04875	0.060601	0.20123	0.1625	0.1684	0.25604	0.093447	0.27051	0.10404	0.30419	0.11011	0.27603	0.30446	0.17259	0.23498	-3.5875	-3.875	-3.3229	-4.2292	-3.7021	-3.7062	-4.3333	-3.4479	-3.7604	-4.0729	-3.4271	-4.0167	-3.7375	-3.4458	-4.1667	-3.5104	70.088	358.760	108.258	371.670	182.912	40.339	235.475	121.814	63.096	189.269	343.454	381.272	33.826	305.275	369.411	324.759	0.00037394	0.00037178	0.00013095	1365.9	3.2976e-06	2.7115e-06	1367	365.46	3.6358e-06	4.1611e-06	423.34	140.52	122.22	42.27	4.3174e-06	52.865	5.3415e-05	4.6359e-05	1.3068e-05	1268.9	5.2947e-07	5.1858e-07	1300.9	344.01	5.4456e-07	5.1145e-07	383.81	128.98	112.12	38.433	5.2648e-07	47.226	193.490	108.076	137.284	46.177	141.049	143.755	46.108	51.029	218.257	173.203	50.437	55.161	55.387	59.528	183.170	58.946	-8191	255	
1871.743	1	1	0	0	0.11579	0.283	0.11601	0.058796	0.085001	0.13984	0.12925	0.31702	0.20028	0.23461	0.17806	0.21701	0.1831	0.17012	0.25975	0.051803	-3.3917	-4.0104	-3.2396	-4.1146	-3.7479	-3.6208	-4.4354	-3.5271	-3.8646	-3.9938	-3.425	-4.175	-3.7938	-3.5396	-4.2312	-3.65	126.527	134.497	335.458	336.739	252.461	189.066	293.114	289.104	336.486	41.618	212.566	365.478	50.869	48.070	291.267	263.131	0.00035405	0.0001854	0.00013195	1374.9	1.4931e-06	3.557e-06	1369.1	365.42	3.3004e-06	3.1606e-06	422.33	140.16	121.48	42.174	5.4158e-06	52.812	5.3397e-05	4.6555e-05	1.3212e-05	1271.6	5.2868e-07	5.1662e-07	1301.4	343.74	5.3931e-07	5.1689e-07	383.66	128.73	111.81	38.431	5.2308e-07	47.18	196.697	127.641	171.228	46.373	208.287	175.460	46.461	50.934	186.456	153.124	50.202	55.189	55.307	59.857	175.382	59.017	-8191	255	
1871.863	1	1	0	0	0.12786	0.21172	0.18254	0.088445	0.32096	0.23958	0.21751	0.19681	0.25775	0.28646	0.039114	0.23781	0.039152	0.21348	0.25702	0.051505	-3.2917	-4.125	-3.4979	-4.0396	-3.825	-3.3187	-4.2708	-3.5646	-3.6854	-4.1042	-3.4437	-4.0375	-3.9729	-3.3125	-4.1396	-3.5729	360.988	154.823	154.830	324.570	34.075	64.172	346.585	386.615	234.615	341.018	310.039	344.262	389.991	53.418	99.023	60.227	0.00036045	0.00015899	8.5176e-05	1362.8	4.4861e-06	3.1065e-06	1365.1	363.1	2.4515e-06	1.9934e-06	422.08	140.41	121.86	42.286	3.2605e-06	53.176	5.3687e-05	4.6156e-05	1.3062e-05	1267.3	5.1956e-07	5.1064e-07	1299.4	343.3	5.3061e-07	5.2083e-07	383.3	128.95	111.99	38.416	5.1816e-07	47.265	190.453	109.182	159.606	46.166	181.575	120.994	46.121	51.100	198.856	183.999	50.534	55.474	55.338	59.736	183.247	58.990	-8191	255	
1871.935	1	1	0	0	0.03787	0.12743	0.05637	0.29119	0.15026	0.15023	0.13849	0.21416	0.22639	0.071597	0.15597	0.15973	0.036046	0.34115	0.17585	0.0077723	-3.3063	-3.9833	-3.4938	-4.0854	-3.9604	-3.4625	-4.1375	-3.8417	-3.4062	-4.1458	-3.4813	-3.8604	-4.0792	-3.4021	-4.0167	-4.0021	323.272	234.143	237.151	379.780	83.149	58.302	369.150	42.722	338.344	55.753	337.143	289.138	224.885	378.902	235.265	125.768	0.0003508	0.00023745	0.00013183	1363	2.7644e-06	7.1668e-07	1364.7	365.13	3.224e-06	3.0129e-06	421.18	140.77	121.58	42.465	1.9161e-06	53.053	5.3799e-05	4.5663e-05	1.315e-05	1267.6	5.1666e-07	5.1294e-07	1298	343.65	5.2632e-07	5.1615e-07	382.91	129.02	111.87	38.332	5.204e-07	47.178	185.807	110.479	137.357	46.484	180.197	132.882	46.358	50.835	203.421	146.083	50.408	55.131	55.342	59.550	163.489	58.651	-8191	255	
1872.056	1	1	0	0	0.21213	0.1134	0.32067	0.17988	0.16092	0.26614	0.098346	0.1385	0.15352	0.14662	0.20053	0.044826	0.11323	0.069252	0.16336	0.22428	-3.0479	-4.1396	-3.4729	-3.5875	-3.9562	-3.0958	-4.1583	-3.8604	-3.2458	-4.3313	-3.6354	-3.6167	-4.1167	-3.35	-4.0021	-4.0437	339.383	43.308	387.803	356.554	312.989	144.834	34.225	354.647	136.820	389.553	121.014	204.411	391.214	35.393	340.927	379.416	0.00033558	0.0002762	0.00013056	1362.9	3.035e-06	3.2594e-06	1364.5	363.1	3.4462e-06	1.16e-06	418.57	139.36	120.47	41.788	3.7671e-06	52.188	5.3166e-05	4.6898e-05	1.2967e-05	1265.3	5.2211e-07	5.0813e-07	1296.3	342.68	5.2278e-07	5.1243e-07	381.24	128.6	111.44	38.327	5.2858e-07	46.977	184.511	141.504	131.722	46.336	179.356	194.382	46.195	50.885	200.552	235.313	50.105	55.282	55.273	59.589	180.803	58.599	-8191	255	
1872.152	1	1	0	0	0.18522	0.064055	0.056819	0.12659	0.077662	0.061766	0.25166	0.35239	0.27825	0.12433	0.4873	0.056772	0.11742	0.18196	0.21438	0.32529	-2.8625	-4.1104	-3.5833	-3.675	-4.1042	-3.4708	-4.0167	-4.1354	-3.3604	-4.1438	-3.9146	-3.6667	-4.2729	-3.5792	-3.9938	-3.9667	206.411	238.906	140.775	349.892	220.727	170.602	344.162	325.364	318.104	62.569	353.365	60.232	222.255	151.215	298.873	269.097	0.00039472	0.00039528	0.00014204	1345.3	3.6065e-06	3.7448e-06	1360.1	364.57	1.3989e-06	9.8454e-07	420.79	140.31	121.18	42.061	3.7384e-06	52.78	5.2756e-05	4.4859e-05	1.2728e-05	1262	5.138e-07	5.0165e-07	1295.3	342.82	5.2319e-07	5.0431e-07	382.53	128.8	111.62	38.335	5.1712e-07	47.079	191.191	80.726	145.801	46.157	182.326	103.678	46.539	50.849	187.052	119.544	50.217	55.091	55.628	59.522	213.046	59.075	-8191	255	
1872.248	1	1	0	0	0.023088	0.17051	0.18251	0.16916	0.12985	0.13813	0.14541	0.28907	0.29571	0.12466	0.14352	0.17211	0.13893	0.063846	0.014112	0.094759	-2.8271	-4.0687	-3.7333	-3.4146	-4.2333	-3.4458	-3.8229	-4.2042	-3.2562	-4.0396	-3.8063	-3.45	-4.2375	-3.6	-3.7146	-4.2708	195.113	122.052	261.281	280.364	331.681	236.725	281.366	371.446	388.636	302.661	58.937	155.041	46.948	212.209	257.700	353.519	0.00034669	0.00026944	8.0911e-05	1356.9	3.5553e-06	1.3696e-06	1364.2	360.58	1.0214e-06	1.0375e-06	418.56	140.88	121.2	41.939	4.1886e-06	52.534	5.1829e-05	4.5867e-05	1.2612e-05	1264.5	5.0987e-07	5.0347e-07	1296.3	342.02	5.1932e-07	5.0449e-07	381.62	128.95	111.63	38.331	5.1018e-07	47.093	189.866	154.565	134.071	46.591	173.339	200.340	46.403	50.847	216.506	142.562	50.476	55.206	55.615	59.530	201.384	58.925	-8191	255	
1872.344	1	1	0	0	0.0097592	0.14119	0.084142	0.31766	0.19908	0.23967	0.16905	0.19424	0.17887	0.17639	0.12458	0.17585	0.11801	0.14338	0.34644	0.093176	-3.0083	-3.9771	-3.9708	-3.4604	-4.2333	-3.3917	-3.8208	-4.1229	-3.3625	-4.0188	-3.9896	-3.4021	-4.2229	-3.8187	-3.4833	-4.3271	199.999	372.824	367.423	377.968	346.731	65.523	333.086	378.997	156.364	352.275	366.172	361.617	161.118	249.412	132.583	278.204	0.00034431	0.00030371	0.00010373	1346.8	1.4397e-06	3.6119e-06	1357.7	360.83	2.9849e-06	2.6353e-06	418.34	139.74	120.43	42.081	5.5529e-06	52.776	5.2579e-05	4.5053e-05	1.254e-05	1259.1	5.1487e-07	4.9487e-07	1296	342.35	5.2638e-07	5.1449e-07	381.62	128.74	111.68	38.345	5.2354e-07	47.128	189.370	124.151	121.393	46.224	179.931	154.589	46.482	51.001	213.281	161.709	50.259	55.360	55.843	59.855	187.669	58.806	-8191	255	
1872.463	1	1	0	0	0.13584	0.077269	0.16515	0.35262	0.10911	0.2264	0.21965	0.076845	0.068952	0.046487	0.17589	0.05743	0.19164	0.086687	0.21068	0.048913	-2.9188	-3.8646	-3.9292	-3.3146	-4.1625	-3.6646	-3.6917	-4.4646	-3.4167	-3.7354	-4.0021	-3.4104	-4.0354	-3.7292	-3.3688	-4.3083	139.830	215.454	334.270	346.522	117.513	100.148	331.018	307.145	161.243	237.524	382.207	242.714	108.986	56.642	229.689	106.542	0.00036637	0.0003202	0.00012969	1354.5	2.913e-06	2.0117e-06	1359.6	362.76	1.9547e-06	2.5257e-06	420.33	140.31	120.57	42.11	3.1601e-06	52.692	5.2789e-05	4.6218e-05	1.2615e-05	1263	5.1988e-07	5.1162e-07	1295.8	342.35	5.311e-07	5.0999e-07	382.37	128.94	111.58	38.374	5.2771e-07	47.099	192.861	134.054	129.068	46.227	183.057	134.490	46.411	50.956	199.534	133.682	50.170	55.222	55.481	59.851	206.861	59.343	-8191	255	
1872.559	1	1	0	0	0.1157	0.21278	0.061535	0.16835	0.11231	0.13173	0.19592	0.22963	0.19568	0.19005	0.23624	0.22359	0.14984	0.33849	0.29426	0.089624	-3.0687	-3.7604	-4.1021	-3.3438	-4.0521	-3.85	-3.4062	-4.2625	-3.5417	-3.6104	-4.3479	-3.4833	-4.2208	-3.85	-3.4979	-4.3229	183.648	182.591	135.813	277.026	168.987	219.894	329.040	38.793	150.837	117.799	388.182	44.226	49.317	352.304	103.220	346.562	0.00035777	0.00024248	7.6375e-05	1350.6	3.5966e-06	2.604e-06	1357	362.32	3.3415e-06	6.4103e-07	418.88	139.9	121.52	42.185	4.4727e-06	52.836	5.2158e-05	4.5721e-05	1.2589e-05	1262.2	5.0034e-07	5.0941e-07	1296.1	342.54	5.1994e-07	5.0281e-07	381.76	128.62	111.64	38.361	5.1541e-07	47.098	190.465	121.428	160.059	46.412	145.310	155.608	46.457	51.216	197.206	33.923	50.435	55.365	55.586	60.042	161.711	59.264	-8191	255	
1872.631	1	1	0	0	0.12381	0.31357	0.13976	0.23127	0.327	0.27558	0.12723	0.22464	0.08091	0.031849	0.17779	0.19462	0.2646	0.23513	0.19778	0.076384	-3.0792	-3.4667	-4.1396	-3.4896	-3.8583	-3.9146	-3.4917	-4.1604	-3.4813	-3.6479	-4.4021	-3.5312	-4.1312	-4	-3.3417	-4.2771	372.006	318.094	128.824	308.042	341.044	111.854	362.457	271.178	187.603	345.920	245.339	364.586	67.222	349.711	156.744	280.294	0.00036298	0.00017099	8.91e-05	1354.8	5.876e-06	2.7566e-06	1357.4	362.62	1.7689e-06	2.841e-06	417.55	139.83	120.16	42.056	4.2001e-06	52.61	5.1516e-05	4.5542e-05	1.2731e-05	1261.4	5.0778e-07	5.1278e-07	1295.9	342.72	5.2052e-07	5.1456e-07	382.22	128.58	111.35	38.34	5.2204e-07	47.104	187.905	102.525	136.417	46.496	164.053	156.224	46.593	51.403	208.355	136.267	50.392	55.422	55.703	60.033	206.883	58.850	-8191	255	
1872.751	1	1	0	0	0.35447	0.073013	0.064636	0.24049	0.2203	0.075193	0.26795	0.17681	0.23526	0.13133	0.075964	0.15126	0.2649	0.40199	0.045818	0.37995	-3.3042	-3.6208	-4.2625	-3.5542	-3.8271	-4.0938	-3.6625	-4.1958	-3.8896	-3.4375	-4.2125	-3.6833	-3.8333	-4.1542	-3.1917	-4.2146	368.890	97.946	337.449	82.804	171.629	289.421	350.201	373.242	277.910	282.837	381.732	51.838	38.621	385.066	138.338	358.306	0.0003656	0.00032327	0.00013839	1344.5	3.7937e-06	3.8157e-06	1358.5	363.13	2.9618e-06	1.5337e-06	419.6	140.38	121.38	41.961	3.9633e-06	52.418	5.1731e-05	4.576e-05	1.2789e-05	1260.7	5.0889e-07	5.0325e-07	1295.3	342.6	5.2016e-07	5.1215e-07	381.86	128.72	111.55	38.275	5.1671e-07	47.044	191.529	107.806	115.133	46.025	128.030	127.967	46.240	51.216	228.485	164.586	50.725	55.242	55.922	59.919	158.858	59.110	-8191	255	
1872.847	1	1	0	0	0.33329	0.1988	0.17182	0.3081	0.094434	0.12548	0.061592	0.038618	0.1185	0.15422	0.15417	0.036408	0.3057	0.16222	0.14277	0.050169	-3.4542	-3.275	-4.25	-3.5125	-3.5812	-4.0667	-3.5125	-3.9813	-3.8625	-3.2792	-4.1354	-3.6083	-3.5917	-4.2833	-3.4313	-4.0833	92.054	339.124	321.164	368.885	369.646	254.864	121.194	371.116	348.636	357.462	304.675	251.521	357.221	385.805	224.076	149.527	0.00037675	0.0002235	0.00012053	1359.1	3.1997e-06	2.899e-06	1361	364.93	1.6057e-06	1.902e-06	420.36	140.43	121.26	42.413	6.0607e-06	52.709	5.2605e-05	4.6115e-05	1.2882e-05	1261.8	5.1174e-07	4.9447e-07	1296.1	343.14	5.2143e-07	5.0299e-07	382.47	128.75	111.56	38.362	5.2663e-07	47.019	188.360	106.973	136.185	46.495	126.338	98.660	46.443	51.429	221.482	165.019	50.868	55.375	56.244	60.266	189.180	59.740	-8191	255	
1872.944	1	1	0	0	0.21905	0.25025	0.14925	0.11152	0.017396	0.098095	0.037258	0.22422	0.11616	0.020169	0.077988	0.067183	0.20972	0.23673	0.14728	0.08534	-3.4708	-3.3458	-4.2604	-3.6458	-3.4979	-4.1	-3.3812	-3.8854	-3.9292	-3.4104	-4.2354	-3.6375	-3.4813	-4.2854	-3.4917	-3.8833	317.320	390.768	185.184	36.243	97.849	345.989	195.560	357.600	33.532	194.735	214.339	38.900	343.493	286.244	164.604	284.091	0.00033144	0.00043634	8.093e-05	1353.2	2.8618e-06	2.4798e-06	1354.7	363.07	3.3639e-06	3.9924e-06	417.94	139.8	120.44	42.18	4.6035e-06	52.421	5.2161e-05	4.6436e-05	1.2629e-05	1260.9	5.1009e-07	4.9212e-07	1293.2	342.28	5.1881e-07	5.0466e-07	381.22	128.65	111.44	38.366	5.2295e-07	47.089	192.881	104.548	127.551	46.333	179.902	140.119	46.550	51.445	198.273	144.599	50.724	55.034	55.771	59.983	181.027	59.381	-8191	255	
1873.040	1	1	0	0	0.1276	0.19618	0.060871	0.16843	0.052389	0.28489	0.14818	0.14873	0.10015	0.10341	0.27133	0.23466	0.049754	0.10396	0.052343	0.13132	-3.7021	-3.1896	-4.0437	-3.7542	-3.5104	-4.0729	-3.6104	-3.6917	-4.1438	-3.2792	-4.2292	-3.9125	-3.5812	-4.2063	-3.4792	-3.6792	218.450	137.686	229.214	330.094	125.759	195.898	175.526	287.215	372.957	105.145	350.475	80.555	84.442	300.053	204.241	254.925	0.00037882	0.00020334	5.4832e-05	1347.6	4.0654e-06	2.5721e-06	1358.8	361.84	3.2972e-06	1.9508e-06	418.9	140.04	120.74	42.22	4.3552e-06	52.526	5.3134e-05	4.554e-05	1.2773e-05	1260.4	5.1396e-07	4.9813e-07	1293.4	342.41	5.1657e-07	5.14e-07	381.67	128.59	111.56	38.336	5.1281e-07	47.065	184.259	118.559	131.516	46.309	155.550	142.659	46.605	51.523	181.109	154.214	50.942	55.377	55.953	60.131	175.126	59.391	-8191	255	
1873.159	1	1	0	0	0.049604	0.024981	0.21487	0.27645	0.3473	0.2141	0.015388	0.309	0.073692	0.066078	0.16898	0.28333	0.17186	0.056906	0.18724	0.21446	-3.7896	-3.4979	-4.0437	-3.8563	-3.3187	-4.0792	-3.9479	-3.5396	-4.0542	-3.2521	-3.9188	-4.0854	-3.4875	-4.25	-3.6958	-3.5792	143.528	343.629	89.174	248.994	285.595	374.494	183.985	328.211	383.545	178.152	354.601	76.330	377.908	182.895	364.357	329.411	0.00034605	0.00033091	0.0001471	1356	2.8578e-06	3.2895e-06	1362.2	364.48	3.0144e-06	2.2365e-06	420.22	140.09	121.5	42.256	3.9603e-07	53.006	5.1734e-05	4.5394e-05	1.2687e-05	1262.9	5.1154e-07	4.9551e-07	1295.8	342.57	5.1063e-07	5.0299e-07	381.97	128.67	111.46	38.342	5.2152e-07	47.118	193.860	95.476	108.729	46.633	165.004	128.555	46.841	51.563	221.618	197.360	50.994	55.562	55.950	60.481	111.615	59.433	-8191	255	
1873.232	1	1	0	0	0.14847	0.15176	0.17979	0.15577	0.26184	0.15581	0.15113	0.12288	0.19434	0.2816	0.35909	0.14307	0.20186	0.079121	0.11441	0.2754	-3.8646	-3.4021	-3.7146	-3.9771	-3.0687	-4.0833	-3.8042	-3.4625	-4.0687	-3.3917	-3.8625	-4.2021	-3.5229	-3.9688	-3.8021	-3.5438	60.761	146.781	333.793	76.220	325.064	303.583	389.975	340.896	330.410	169.086	376.072	115.539	67.909	355.951	236.352	346.791	0.00036991	0.00042207	0.0001394	1354.2	2.9941e-06	3.611e-06	1366.8	364.75	2.9059e-06	3.1145e-06	422.25	140.9	121.31	42.556	3.0863e-06	52.883	5.2264e-05	4.5919e-05	1.2764e-05	1260.5	5.1927e-07	5.0449e-07	1297.2	342.75	5.1435e-07	5.0744e-07	382.64	128.54	111.58	38.442	5.1997e-07	47.081	190.045	121.314	166.530	46.660	178.819	171.324	46.655	51.554	218.922	153.360	50.946	55.509	55.968	60.173	147.390	59.336	-8191	255	
1873.328	1	1	0	0	0.1059	0.14333	0.18887	0.037709	0.29426	0.14606	0.29724	0.27351	0.22517	0.21364	0.23611	0.21842	0.14537	0.080736	0.2721	0.14701	-3.8125	-3.5021	-3.4583	-4.3396	-3.3438	-3.9583	-3.9521	-3.5646	-4.0167	-3.4833	-3.7625	-4.2146	-3.5208	-4.1229	-3.9917	-3.4125	330.590	140.837	40.062	250.754	250.891	385.256	342.139	339.426	331.298	326.412	334.086	363.341	374.058	374.549	150.329	280.516	0.00037622	0.00020588	6.0621e-05	1360.4	4.0768e-06	1.2174e-06	1364.7	363.76	1.1177e-06	2.7344e-06	422.07	140.56	121.68	42.394	2.7891e-06	52.967	5.0891e-05	4.584e-05	1.2567e-05	1261.9	5.0829e-07	5.0382e-07	1295.5	342.4	5.1883e-07	5.05e-07	382.35	128.67	111.53	38.33	5.0548e-07	47.071	193.797	133.176	127.526	46.986	211.039	156.375	46.932	51.866	142.855	155.805	50.747	55.732	55.902	60.322	201.065	59.342	-8191	255	
1873.424	1	1	0	0	0.094839	0.036744	0.15912	0.23169	0.19341	0.16606	0.24893	0.19484	0.41845	0.10811	0.10357	0.18159	0.083983	0.098823	0.14502	0.10809	-3.7687	-3.7062	-3.7396	-4.4479	-3.4021	-3.9938	-4.1604	-3.4021	-4.0854	-3.6396	-3.4625	-4.4938	-3.4083	-3.8812	-4	-3.5146	85.126	209.861	142.294	364.678	162.784	297.737	358.339	134.663	297.112	290.954	306.599	376.800	379.675	245.814	392.528	38.867	0.00035945	0.00027565	7.3587e-05	1356.4	4.8046e-06	2.4761e-06	1361.3	364.64	2.8584e-06	2.2965e-06	423.25	140.76	121.18	42.202	2.4331e-06	52.916	5.1665e-05	4.5324e-05	1.2453e-05	1260.9	5.1271e-07	5.011e-07	1293.5	342.03	5.1201e-07	5.0349e-07	382.7	128.77	111.29	38.278	5.1019e-07	47.094	187.303	98.745	146.115	46.431	195.509	206.493	46.850	51.475	219.475	174.762	50.931	55.481	55.798	60.153	195.600	58.959	-8191	255	
1873.543	1	1	0	0	0.18624	0.034896	0.15528	0.012088	0.12729	0.098659	0.041715	0.13283	0.11932	0.1331	0.096312	0.19508	0.011225	0.05904	0.084763	0.13992	-3.6813	-3.6208	-3.3771	-4.2729	-3.6396	-3.8021	-4.3938	-3.3896	-4.0104	-3.9396	-3.65	-4.2625	-3.6625	-3.825	-4.2542	-3.3625	279.261	174.357	254.113	33.921	215.041	115.074	207.330	54.228	213.454	69.576	342.933	316.818	382.779	197.690	47.619	252.025	0.00032428	0.00036367	0.00012193	1355.2	1.5661e-06	3.3937e-06	1361.9	364.13	2.3305e-06	1.6859e-06	419.68	140.14	121.04	42.205	4.2471e-06	52.925	5.2039e-05	4.5536e-05	1.2729e-05	1261	5.0559e-07	4.9291e-07	1293.7	342.3	5.0546e-07	4.9881e-07	381.49	128.57	111.35	38.218	5.109e-07	47.012	189.931	93.255	148.197	46.509	194.937	150.257	46.669	51.511	223.808	154.250	50.713	55.643	55.740	60.317	190.497	59.290	-8191	255	
1873.639	1	1	0	0	0.054777	0.06587	0.039503	0.31229	0.22172	0.21204	0.087267	0.14367	0.041204	0.041433	0.34319	0.065506	0.17807	0.12678	0.11296	0.017698	-3.4854	-4.0292	-3.2104	-4.1125	-3.6146	-3.5396	-4.225	-3.3688	-3.9521	-3.8354	-3.3812	-4.2875	-3.8042	-3.5	-4.2146	-3.575	171.827	302.540	94.140	392.101	54.842	55.878	151.776	314.556	354.270	294.400	296.965	289.332	363.813	139.261	112.044	296.488	0.00038915	0.00034705	7.6389e-05	1357.1	2.3222e-06	3.5556e-06	1363.9	363.83	5.1066e-07	2.6967e-06	421.92	139.94	121.5	42.33	5.5533e-06	53.004	5.0821e-05	4.3861e-05	1.2765e-05	1261.6	4.9972e-07	5.0201e-07	1293.1	341.64	5.025e-07	4.9667e-07	382.05	128.58	111.27	38.337	5.1353e-07	47.058	192.711	129.887	99.908	46.404	178.616	154.352	46.548	51.398	189.643	160.994	50.768	55.324	55.906	60.041	175.419	59.260	-8191	255	
1873.736	1	1	0	0	0.18208	0.12598	0.016731	0.092438	0.1074	0.11446	0.1393	0.29323	0.11889	0.36633	0.10754	0.049749	0.050901	0.30555	0.06148	0.12838	-3.2292	-3.8875	-3.3271	-4.3521	-3.6979	-3.5104	-4.3104	-3.4688	-3.6813	-3.9917	-3.4417	-4.0833	-3.8625	-3.5271	-4.1458	-3.6292	34.785	296.776	251.078	393.089	114.452	66.040	379.065	358.617	165.926	286.522	179.918	224.223	246.201	88.130	110.503	348.294	0.00034306	0.00032839	9.8619e-05	1358.7	3.8304e-06	2.3765e-06	1364	362.22	3.6463e-06	9.3371e-07	419.97	140.08	121.31	42.452	3.3664e-06	52.852	5.18e-05	4.5316e-05	1.2431e-05	1261.5	5.0924e-07	4.9483e-07	1293.5	341.9	5.1135e-07	5.0005e-07	381.31	128.35	111.5	38.337	5.0603e-07	47.016	183.476	96.298	143.127	46.662	148.808	179.307	46.609	51.380	208.868	116.338	50.658	55.591	55.841	60.346	183.981	59.293	-8191	255	
1873.832	1	1	0	0	0.19883	0.096158	0.221	0.14748	0.12728	0.087679	0.17425	0.095541	0.072936	0.066187	0.039796	0.20323	0.16871	0.1355	0.11129	0.19916	-3.3812	-4.1375	-3.2792	-4.0958	-3.6208	-3.2771	-4.2937	-3.8667	-3.3333	-4.1604	-3.3479	-3.7896	-3.9042	-3.5375	-4.1687	-3.5646	116.709	115.174	328.246	132.800	150.845	81.870	41.819	60.783	287.836	215.350	84.130	312.130	379.701	325.087	136.903	37.243	0.00034881	0.00026091	9.2083e-05	1366.6	3.3673e-06	1.8996e-06	1363.3	363.47	1.1628e-06	2.4599e-06	418.83	140.66	121.76	42.389	5.8592e-06	52.882	5.2298e-05	4.4754e-05	1.2589e-05	1261.8	5.0556e-07	5.0222e-07	1295.1	341.69	5.0855e-07	4.986e-07	381.32	128.66	111.36	38.347	5.0932e-07	47.073	191.543	159.743	170.606	46.829	147.433	141.459	46.899	51.827	233.057	162.683	51.099	55.928	56.091	60.742	185.273	59.519	-8191	255	
1873.928	1	1	0	0	0.15952	0.31359	0.14795	0.21687	0.15283	0.064526	0.022683	0.10252	0.16967	0.099334	0.15949	0.14264	0.090358	0.071916	0.15087	0.17465	-3.0125	-4.1396	-3.3396	-3.9896	-3.7583	-3.2917	-4.1062	-3.7625	-3.4896	-4.1271	-3.5646	-3.8812	-4.1479	-3.3312	-3.9875	-3.9104	134.708	90.317	357.088	58.232	83.549	176.394	243.200	350.479	151.823	122.447	166.909	109.915	135.529	366.612	241.131	360.330	0.00031436	0.000232	0.00012783	1358.8	2.9247e-06	3.2116e-06	1363.7	365.21	2.5331e-06	1.5876e-06	419.98	140.22	121.19	42.434	1.8548e-06	52.939	5.1153e-05	4.4611e-05	1.2417e-05	1262.4	5.1001e-07	5.0099e-07	1294.3	342.35	5.2554e-07	5.0516e-07	381.31	128.58	111.3	38.333	5.073e-07	47.065	186.464	68.874	162.932	46.924	201.341	187.765	46.989	51.719	178.125	147.799	50.852	56.030	55.876	60.091	196.646	59.407	-8191	255	
1874.024	1	1	0	0	0.096837	0.22103	0.097719	0.22805	0.20938	0.21891	0.12393	0.11602	0.19797	0.1359	0.05664	0.3614	0.14722	0.23358	0.16221	0.11282	-3.0792	-4.0667	-3.2687	-3.6792	-3.9146	-3.4083	-4.1813	-3.7625	-3.2562	-4.2417	-3.6312	-3.6896	-4.3313	-3.4625	-3.8312	-3.9292	316.703	379.439	198.661	370.786	148.850	78.778	305.864	367.728	335.701	38.760	151.745	117.495	49.025	379.427	268.908	289.124	0.00033302	0.00023488	0.0001026	1363.1	2.8132e-06	1.734e-06	1369.3	364.25	1.339e-06	8.6295e-07	420.04	141.23	122.19	42.34	3.0447e-06	52.758	5.1849e-05	4.5097e-05	1.2693e-05	1262.7	5.0496e-07	4.9494e-07	1295.4	341.96	5.093e-07	5.046e-07	381.23	128.75	111.49	38.315	5.1153e-07	47.043	190.801	64.663	159.062	46.598	174.648	188.539	46.866	51.372	204.727	221.713	50.847	55.504	55.909	59.832	177.546	59.535	-8191	255	
1874.145	1	1	0	0	0.044899	0.14875	0.06554	0.1386	0.15041	0.28283	0.3721	0.22094	0.068125	0.12564	0.099692	0.26694	0.22514	0.16047	0.093988	0.18162	-2.975	-4.0958	-3.6208	-3.55	-4.1146	-3.1833	-3.9292	-4.0104	-3.2979	-4.0917	-3.6833	-3.5479	-4.1833	-3.475	-3.7021	-4.0354	114.639	59.677	120.748	57.451	359.304	113.454	351.247	284.716	331.421	153.276	102.195	323.110	40.294	332.315	353.245	293.019	0.00034712	0.00036485	7.208e-05	1362.5	3.2777e-06	3.6941e-06	1367.6	364.84	2.8246e-06	2.0826e-06	419.23	141.56	121.57	42.175	4.5792e-06	53.059	5.1154e-05	4.5164e-05	1.2496e-05	1260.8	5.0003e-07	4.9437e-07	1294.7	342.16	5.0124e-07	5.0211e-07	381.17	128.88	111.38	38.279	4.9729e-07	47.074	188.463	127.127	144.343	46.707	115.195	130.388	46.326	50.923	177.473	156.635	50.256	54.889	55.191	59.943	151.952	58.962	-8191	255	
1874.241	1	1	0	0	0.21843	0.26238	0.26008	0.17025	0.1433	0.13864	0.31643	0.28316	0.12064	0.088754	0.12522	0.034619	0.25055	0.12957	0.08655	0.045841	-2.8417	-3.975	-3.4833	-3.5458	-4.0771	-3.4083	-3.8521	-4.0729	-3.1354	-3.9313	-3.7062	-3.3354	-4.1729	-3.3063	-3.5125	-4.0854	329.831	271.130	275.689	331.889	374.858	271.004	362.381	316.416	194.103	377.589	44.017	315.488	71.652	45.821	218.798	262.318	0.00034403	0.00011336	0.00014581	1363.7	4.0382e-06	1.941e-06	1362.7	364.94	2.0995e-06	2.2563e-06	418.58	140.67	121.41	42.207	1.7439e-06	52.735	5.0743e-05	4.4407e-05	1.242e-05	1261.8	4.9757e-07	4.9832e-07	1293.6	341.86	5.0071e-07	4.9369e-07	381.02	128.33	111.42	38.267	5.1137e-07	46.999	189.410	124.044	127.053	46.236	180.439	144.818	46.000	50.837	228.251	169.516	50.159	55.416	55.602	59.897	191.740	58.916	-8191	255	
1874.335	1	1	0	0	0.2215	0.2393	0.16533	0.16216	0.25753	0.081476	0.37193	0.23961	0.1094	0.27638	0.070212	0.14072	0.2293	0.17873	0.10756	0.15991	-2.8271	-3.7062	-3.6729	-3.4042	-4.1312	-3.5125	-3.6562	-4.1708	-3.1937	-3.9104	-3.9417	-3.4917	-4.3562	-3.5708	-3.4271	-4.0938	353.189	286.798	175.151	87.194	133.979	213.887	315.102	330.486	213.313	158.941	287.422	322.006	74.875	329.375	223.488	200.153	0.00033465	0.00035392	9.3552e-05	1354.7	2.8301e-06	2.3947e-06	1366.5	363.98	3.231e-06	3.2761e-06	419.26	140.22	121.66	42.045	3.7845e-06	53.027	5.1101e-05	4.4518e-05	1.2503e-05	1260	5.0812e-07	4.9395e-07	1294.5	342.15	5.1465e-07	4.9202e-07	380.74	128.33	111.32	38.214	5.0934e-07	47.096	191.920	79.078	141.891	46.122	185.030	185.616	46.271	50.989	214.440	177.916	50.461	55.261	55.665	59.971	191.411	58.917	-8191	255	
1874.456	1	1	0	0	0.2441	0.043978	0.076687	0.092342	0.10113	0.16215	0.25394	0.3046	0.045961	0.17726	0.053761	0.23532	0.22032	0.055387	0.09719	0.16576	-2.8896	-3.8146	-3.9938	-3.325	-3.9667	-3.6021	-3.4479	-4.1979	-3.3083	-3.6771	-3.9375	-3.4188	-4.1562	-3.8146	-3.2833	-4.275	38.730	100.903	341.517	164.957	369.314	63.421	354.116	33.270	383.321	345.456	133.419	381.509	240.694	147.226	376.808	35.729	0.00036533	0.00015287	0.00010479	1358	6.0272e-06	4.7776e-06	1357.4	363.66	2.712e-06	2.5425e-06	418.21	139.69	121.96	42.532	3.5127e-06	53.228	5.1735e-05	4.4686e-05	1.2659e-05	1259.9	5.1563e-07	4.9085e-07	1292.3	341.71	5.1354e-07	4.9837e-07	381.43	128.3	111.58	38.32	5.0693e-07	47.108	184.645	93.202	134.691	46.399	168.462	169.497	46.622	51.116	214.845	166.878	50.341	55.400	55.745	59.814	181.411	59.350	-8191	255	
1874.527	1	1	0	0	0.27748	0.18744	0.20186	0.25396	0.14939	0.20456	0.12111	0.16785	0.1271	0.24646	0.068049	0.15181	0.18052	0.28658	0.096412	0.18777	-2.8875	-3.6292	-3.9625	-3.3646	-3.9562	-3.575	-3.4542	-4.2438	-3.4062	-3.3917	-4.1	-3.4313	-4.0104	-3.8792	-3.2812	-4.3083	206.884	97.635	229.710	303.552	384.677	56.423	351.622	65.564	73.409	243.289	132.969	299.713	355.898	329.322	118.510	326.387	0.00035117	0.00022785	0.00010268	1356	3.2954e-06	3.016e-06	1360	363.87	2.364e-06	3.362e-06	422.56	140.07	121.75	42.176	2.9233e-06	52.833	5.1489e-05	4.4847e-05	1.241e-05	1259.8	4.9881e-07	4.8977e-07	1294.5	342.22	5.1038e-07	4.9253e-07	381.95	128.25	111.62	38.233	5.1459e-07	47.085	186.126	101.481	138.207	46.364	167.735	178.128	46.562	51.426	196.951	136.378	50.727	55.487	55.874	60.142	159.164	59.144	-8191	255	
1874.624	1	1	0	0	0.20941	0.10577	0.19214	0.084545	0.066847	0.074347	0.22856	0.093274	0.11536	0.1292	0.38127	0.15653	0.36329	0.14579	0.07818	0.19283	-3.1333	-3.4625	-3.9354	-3.5667	-3.9958	-3.7979	-3.5042	-4.325	-3.4292	-3.3958	-4.0896	-3.3729	-3.8625	-4.0958	-3.2396	-4.1813	89.270	312.226	103.702	52.066	307.705	316.566	358.928	362.294	223.837	283.177	348.496	329.646	43.466	81.057	349.293	338.268	0.00036707	0.00026452	0.00012666	1360.6	5.7245e-06	3.6699e-06	1368.6	364.11	2.9481e-06	1.4259e-06	420.8	140.47	121.55	42.154	4.4194e-06	52.966	5.1838e-05	4.5365e-05	1.2509e-05	1262.7	5.095e-07	4.9175e-07	1296.4	341.92	5.0773e-07	4.9927e-07	381.21	128.35	111.44	38.23	5.0644e-07	47.113	187.505	76.261	153.990	46.534	168.075	136.515	46.689	51.549	222.301	153.314	50.898	55.704	56.213	59.935	192.605	59.530	-8191	255	
1874.720	1	1	0	0	0.054831	0.021447	0.070894	0.11322	0.19925	0.19837	0.11575	0.18881	0.035777	0.10992	0.15165	0.10793	0.10394	0.14017	0.25353	0.19302	-3.3021	-3.2729	-4.1958	-3.4229	-3.7833	-3.9458	-3.3729	-4.0875	-3.6271	-3.25	-4.2396	-3.5417	-3.7479	-4.1542	-3.1937	-4.05	293.581	342.232	62.962	346.322	367.179	124.970	276.168	344.437	163.179	302.811	150.483	58.670	386.313	298.621	364.839	309.971	0.00036866	0.00013831	0.00011147	1363	2.8636e-06	4.3187e-06	1363.3	364.39	2.76e-06	1.8698e-06	422.11	141.26	121.73	42.344	3.2099e-06	53.005	5.0533e-05	4.4264e-05	1.2379e-05	1261.6	5.025e-07	4.855e-07	1292.8	342.22	5.0835e-07	4.8793e-07	382.01	128.41	111.47	38.239	5.07e-07	47.053	186.336	147.715	120.712	46.586	122.005	140.709	46.487	51.677	230.407	201.601	50.752	55.672	56.067	60.358	178.861	59.438	-8191	255	
1874.840	1	1	0	0	0.050845	0.11557	0.21054	0.23165	0.2075	0.15913	0.29581	0.052719	0.22472	0.10263	0.16187	0.08498	0.27598	0.18258	0.20944	0.10739	-3.4208	-3.2979	-4.0188	-3.6833	-3.575	-3.9667	-3.3812	-3.9667	-3.8604	-3.3708	-4.1917	-3.5854	-3.6188	-4.0771	-3.4062	-3.8521	179.377	181.161	112.200	66.562	188.429	36.335	283.082	180.765	166.261	223.768	300.654	355.935	391.538	58.638	287.274	186.485	0.00033718	0.00016419	5.0651e-05	1358.8	4.6988e-06	4.0144e-06	1361.9	365.17	4.3477e-06	1.8638e-06	421.12	140.66	121.41	42.285	3.5683e-06	52.99	5.012e-05	4.3575e-05	1.2121e-05	1261.1	4.8897e-07	4.6897e-07	1292.4	342.33	4.9592e-07	4.7908e-07	381.41	128.21	111.31	38.253	4.945e-07	47.058	186.911	140.909	129.262	46.729	151.104	177.041	46.873	51.525	192.859	179.320	50.835	55.474	56.014	60.062	198.529	59.777	-8191	255	
1874.937	1	1	0	0	0.19627	0.21822	0.04987	0.053188	0.21749	0.1552	0.098124	0.23769	0.087248	0.11074	0.10851	0.20617	0.30788	0.12077	0.095534	0.1191	-3.6	-3.1479	-4.0479	-3.6396	-3.3896	-4.2562	-3.6229	-3.9521	-4.0104	-3.4188	-4.3708	-3.6979	-3.6125	-4.1896	-3.3854	-3.8354	127.772	72.614	169.643	178.147	375.553	338.668	208.739	371.001	100.757	240.764	338.992	329.671	351.269	251.085	223.640	352.087	0.00034591	0.00029551	0.00012432	1357.4	1.8053e-06	3.8077e-06	1357.2	363.72	3.083e-06	3.5938e-06	421.09	140	121.56	42.182	4.6638e-06	52.982	4.9351e-05	4.3079e-05	1.206e-05	1258.7	4.9002e-07	4.7322e-07	1290.3	341.84	4.9267e-07	4.9128e-07	381.26	128.06	111.37	38.193	4.9013e-07	47.01	189.831	128.166	111.223	46.928	206.402	136.270	46.858	51.656	242.150	187.572	50.979	55.525	56.093	60.337	178.935	59.717	-8191	255	
1875.033	1	1	0	0	0.13759	0.34944	0.29107	0.23996	0.0702	0.1368	0.093857	0.068305	0.30077	0.23806	0.1154	0.11402	0.03844	0.10833	0.12644	0.03044	-3.5167	-3.2292	-4.1208	-3.8021	-3.3271	-4.1375	-3.6	-3.7396	-4.0583	-3.2687	-4.1104	-3.9604	-3.4208	-4.0729	-3.4333	-3.7521	48.820	217.494	130.771	45.477	115.108	370.505	317.335	328.908	54.108	113.219	202.025	227.595	278.009	90.701	129.670	327.567	0.00039265	0.00041839	8.2136e-05	1357	2.759e-06	2.1517e-06	1355.8	363.68	4.3306e-06	3.4314e-06	417.77	139.86	120.3	41.862	3.6819e-06	52.228	4.9572e-05	4.3786e-05	1.2054e-05	1258	4.9504e-07	4.7772e-07	1290.2	341.69	4.9537e-07	4.843e-07	380.76	128.16	111.09	38.189	4.8705e-07	46.909	192.509	96.696	125.852	46.679	161.887	146.331	46.809	51.690	187.737	174.274	51.025	55.503	56.175	60.153	183.361	59.409	-8191	255	
1875.104	1	1	0	0	0.095956	0.11474	0.20555	0.063257	0.20509	0.161	0.16297	0.40174	0.069861	0.21616	0.081646	0.15711	0.060301	0.25645	0.2158	0.30217	-3.7104	-3.3937	-3.825	-4.1167	-3.375	-4.2104	-3.525	-3.5812	-3.9417	-3.4958	-3.8729	-4.1021	-3.4979	-4.1083	-3.5917	-3.5979	236.943	122.319	248.227	262.539	92.222	264.984	302.796	338.633	83.029	216.342	356.174	355.985	134.021	293.472	64.224	169.066	0.00033814	0.00025949	7.7691e-05	1344.5	2.248e-06	1.9386e-06	1353.5	360.39	1.5279e-06	3.0851e-06	418.36	139.59	120.49	42.136	3.7232e-06	52.182	4.9214e-05	4.2081e-05	1.1743e-05	1255.8	4.816e-07	4.7111e-07	1289.3	340.84	4.8345e-07	4.8126e-07	380.76	128.04	111.07	38.259	4.8506e-07	46.862	190.154	118.096	156.701	46.802	161.373	137.886	46.843	51.733	205.736	151.587	51.199	55.812	56.260	60.438	175.262	59.629	-8191	255	
1875.225	1	1	0	0	0.11449	0.13203	0.24534	0.11953	0.26076	0.073923	0.31962	0.14662	0.14291	0.08518	0.13055	0.19141	0.37619	0.091286	0.14634	0.045265	-3.8125	-3.3396	-3.7604	-4.1896	-3.3021	-4.0708	-3.8667	-3.3729	-4.225	-3.4354	-3.9083	-4.1646	-3.4896	-4.225	-3.8375	-3.5104	115.061	227.491	289.034	33.884	189.919	157.456	350.698	343.043	113.469	350.668	166.076	34.904	80.889	333.044	357.190	77.462	0.00038036	0.00024762	8.3027e-05	1347.2	2.9986e-06	2.5968e-06	1349.2	361.36	1.3428e-06	4.3605e-06	417.03	139.48	120.25	41.928	3.986e-06	52.385	4.9278e-05	4.2527e-05	1.2025e-05	1254.9	4.8304e-07	4.6851e-07	1289.9	340.77	4.9451e-07	4.7785e-07	380.44	128.1	111.06	38.2	4.8338e-07	46.906	188.065	101.406	130.662	46.818	166.240	177.327	46.806	51.810	221.657	159.050	50.604	55.190	55.327	60.186	183.813	59.075	-8191	255	
1875.321	1	1	0	0	0.1293	0.064145	0.22763	0.11519	0.049299	0.12314	0.20135	0.051569	0.13568	0.085417	0.15707	0.16044	0.21131	0.052762	0.13243	0.18443	-3.725	-3.5458	-3.6542	-4.2021	-3.3417	-4.0667	-4.0813	-3.4729	-4.2125	-3.5687	-3.5875	-4.3333	-3.5917	-3.9354	-3.8896	-3.4583	257.567	306.547	366.121	375.402	374.278	332.792	344.297	369.822	195.095	180.794	363.789	329.334	282.971	381.991	123.352	294.473	0.00033269	0.00017259	0.00010764	1342.6	3.4903e-06	2.7099e-06	1346	360.15	2.4193e-06	2.4605e-06	417.11	139.63	119.7	41.798	4.0816e-06	52.464	4.9551e-05	4.3234e-05	1.2037e-05	1255.5	4.8142e-07	4.6617e-07	1286.1	340.43	4.8936e-07	4.7453e-07	379.55	128.12	110.86	38.102	4.7715e-07	46.896	196.213	135.426	91.428	45.985	145.318	132.607	46.438	51.075	232.221	168.050	50.527	55.340	55.657	59.795	159.023	58.847	-8191	255	
1875.417	1	1	0	0	0.063363	0.096083	0.18067	0.050165	0.054203	0.12495	0.046049	0.12292	0.15052	0.10966	0.2435	0.086368	0.068521	0.064029	0.044531	0.064889	-3.6521	-3.6375	-3.3917	-4.2458	-3.2562	-3.9479	-4.1604	-3.4958	-4.0354	-3.6604	-3.3937	-4.4313	-3.3896	-3.8354	-3.8583	-3.1271	288.908	322.705	264.402	292.811	65.417	167.517	207.989	264.448	208.790	229.317	328.356	48.407	276.211	48.749	175.706	372.850	0.00036515	0.00041818	0.0001039	1339.4	1.8623e-06	4.5379e-06	1351.1	361.95	2.4842e-06	3.7369e-06	415.63	138.79	119.78	41.799	4.9659e-06	52.498	4.9223e-05	4.2538e-05	1.203e-05	1255	4.7536e-07	4.7436e-07	1288.6	340.81	4.7833e-07	4.7093e-07	379.59	127.83	110.99	38.15	4.797e-07	46.88	188.023	123.033	145.595	46.506	152.318	143.532	46.348	51.234	213.065	176.169	50.686	55.335	55.551	59.758	189.758	58.925	-8191	255	
1875.536	1	1	0	0	0.23397	0.18381	0.089423	0.36815	0.22116	0.17495	0.088766	0.22509	0.35794	0.20367	0.076139	0.2361	0.16948	0.093651	0.12062	0.37055	-3.7708	-3.6333	-3.3667	-4.1917	-3.5083	-3.7375	-4.0938	-3.4062	-3.9521	-3.8583	-3.3854	-4.2833	-3.6167	-3.6375	-4.0833	-3.3646	326.901	215.270	386.462	325.480	364.198	169.547	320.764	326.064	226.761	173.302	327.422	368.417	108.578	85.898	345.444	338.927	0.00033382	0.00020376	0.00013196	1347.6	1.3461e-06	1.6966e-06	1349.8	362.77	2.863e-06	3.7576e-06	418.97	139.47	120.9	42.175	2.5745e-06	52.644	4.8829e-05	4.2719e-05	1.2132e-05	1255.3	4.8651e-07	4.6763e-07	1288.4	341.18	4.8541e-07	4.7099e-07	380.67	127.92	111.17	38.225	4.8441e-07	46.912	194.706	119.264	168.917	46.464	136.772	140.561	46.609	51.596	229.724	132.760	50.992	55.428	55.754	60.349	170.362	59.312	-8191	255	
1875.632	1	1	0	0	0.1044	0.12845	0.12761	0.21799	0.23081	0.13942	0.3355	0.27448	0.027474	0.026219	0.11055	0.071711	0.19456	0.077865	0.061119	0.30312	-3.5479	-4.0958	-3.25	-4.1771	-3.5708	-3.5667	-4.3146	-3.4479	-4.0354	-3.9021	-3.3479	-4.2063	-3.8375	-3.5917	-4.2021	-3.4458	383.645	216.177	180.359	362.612	220.248	330.833	367.285	340.238	219.855	89.976	243.082	330.920	386.227	328.580	263.720	360.693	0.0003912	0.00027077	0.00016091	1346.7	3.6623e-06	2.676e-06	1352.7	359.63	2.5504e-06	2.5464e-06	418.38	139.31	120.84	42.145	3.839e-06	52.471	4.9446e-05	4.2911e-05	1.1988e-05	1256.6	4.8925e-07	4.6887e-07	1288.7	340.23	4.9073e-07	4.7558e-07	380.18	128.1	111.01	38.225	4.8407e-07	46.845	193.525	87.657	137.710	46.570	205.047	133.076	46.823	51.577	246.967	193.837	50.988	55.686	55.832	60.328	188.871	59.412	-8191	255	
1875.728	1	1	0	0	0.18246	0.089026	0.1105	0.19516	0.089522	0.22614	0.31446	0.2214	0.09949	0.15071	0.077895	0.25976	0.32638	0.26496	0.15429	0.17242	-3.4521	-3.8312	-3.3354	-4.2771	-3.7479	-3.5479	-4.2625	-3.4625	-3.6583	-4.0354	-3.3708	-4.1104	-3.8375	-3.3438	-4.2104	-3.5687	272.850	319.856	224.886	252.366	243.068	197.502	351.966	301.523	116.593	131.802	45.131	384.267	360.230	84.168	300.596	356.988	0.00035152	0.00018343	0.00010134	1341	5.7002e-06	3.3333e-06	1347.1	358.36	1.0942e-06	1.6568e-06	413.79	138.87	120.69	41.824	2.5307e-06	52.464	4.9879e-05	4.3045e-05	1.208e-05	1256.1	4.7555e-07	4.7192e-07	1289	339.99	4.8493e-07	4.7954e-07	379.17	127.82	111.01	38.103	4.7914e-07	46.871	191.732	121.366	132.768	46.949	152.658	159.664	46.541	51.252	195.158	165.618	50.924	55.754	55.828	60.064	193.917	59.396	-8191	255	
1875.825	1	1	0	0	0.14834	0.13923	0.067167	0.1957	0.1619	0.17702	0.35363	0.081331	0.18348	0.12681	0.20077	0.2159	0.14265	0.11442	0.098641	0.24959	-3.2542	-4.2042	-3.2562	-4.1021	-3.9188	-3.2604	-4.3792	-3.7687	-3.5521	-4.025	-3.4667	-4.0896	-4.0542	-3.3896	-4.2021	-3.7562	157.348	142.274	160.955	328.675	64.570	89.012	322.528	377.426	259.350	71.120	373.484	303.347	311.143	336.672	71.543	118.199	0.00036948	0.00027828	9.0302e-05	1347.5	4.1609e-06	3.8413e-06	1351.5	359.63	2.1718e-06	3.8152e-06	415.8	138.71	119.92	41.715	5.5183e-06	52.439	4.9616e-05	4.2385e-05	1.1845e-05	1257.4	4.8126e-07	4.6984e-07	1290.1	340.21	4.8939e-07	4.6815e-07	380.03	127.86	110.97	38.15	4.7671e-07	46.838	190.768	96.715	149.106	46.468	169.886	168.148	46.736	51.418	215.045	158.286	50.643	55.557	55.944	60.097	181.992	59.224	-8191	255	
1875.921	1	1	0	0	0.24254	0.16171	0.12946	0.21802	0.045268	0.21038	0.31644	0.2864	0.10184	0.18377	0.17436	0.20563	0.20118	0.04363	0.19796	0.23287	-3.125	-4.2542	-3.35	-3.7938	-3.9313	-3.3688	-4.2104	-3.6542	-3.4396	-4.1375	-3.4792	-3.8583	-3.975	-3.3167	-4.0729	-3.7562	318.177	295.445	127.012	379.585	301.421	253.300	291.893	47.578	185.164	218.226	281.154	349.828	52.392	244.749	66.960	97.013	0.00033793	0.00027751	0.00011272	1343.3	3.7689e-06	3.3401e-06	1352.4	361.66	1.7431e-06	2.2033e-06	415.6	137.99	119.61	41.567	6.8791e-06	52.463	4.844e-05	4.1961e-05	1.198e-05	1257.8	4.7609e-07	4.7549e-07	1290.3	340.67	4.8464e-07	4.7746e-07	379.61	127.73	110.74	38.038	4.8151e-07	46.844	190.576	80.851	144.675	46.616	170.579	163.396	47.040	51.636	213.343	122.411	50.996	55.824	56.206	59.726	189.102	58.972	-8191	255	
1876.017	1	1	0	0	0.1174	0.28188	0.18224	0.15845	0.058574	0.058998	0.42217	0.27158	0.15359	0.16305	0.25166	0.31179	0.16496	0.1066	0.14201	0.11692	-2.9792	-4.1417	-3.3271	-3.9167	-4.0854	-3.3417	-4.0979	-3.8521	-3.275	-3.9125	-3.4396	-3.6833	-4.1271	-3.4042	-4.0062	-3.8792	263.754	145.833	170.601	350.036	108.954	201.163	367.221	344.471	129.305	95.223	366.042	324.738	111.917	340.212	34.797	84.958	0.00038379	0.00021044	7.5492e-05	1339.5	4.6947e-06	4.272e-06	1350.1	358.97	2.5186e-06	3.9381e-06	417.05	140.07	120.87	42.134	3.8159e-06	52.44	4.9721e-05	4.2725e-05	1.2086e-05	1255.4	4.8591e-07	4.7563e-07	1290.3	340.01	4.8896e-07	4.7374e-07	380.1	127.98	111.02	38.144	4.7944e-07	46.862	188.769	116.152	176.652	46.331	183.889	130.664	46.594	51.210	238.197	170.706	50.501	55.461	55.893	60.276	195.286	59.036	-8191	255	
1876.138	1	1	0	0	0.16205	0.11733	0.066926	0.27732	0.042766	0.16608	0.10372	0.20218	0.14213	0.14685	0.094338	0.1164	0.29244	0.20274	0.038096	0.18927	-2.9167	-4.1521	-3.5667	-3.6146	-4.0437	-3.2896	-4.0563	-3.9479	-3.3167	-4.1125	-3.6917	-3.5625	-4.4417	-3.3396	-3.7396	-3.8229	376.546	128.714	159.067	369.142	130.646	62.144	358.374	303.971	383.806	75.115	239.467	117.477	76.679	46.479	297.950	348.745	0.00037009	0.00022906	0.00011467	1346.3	2.5793e-06	1.6848e-06	1347.2	360.42	2.8589e-06	4.2608e-06	414.34	138.7	119.38	41.818	1.4099e-06	52.274	4.9328e-05	4.2596e-05	1.1872e-05	1255.8	4.8115e-07	4.6835e-07	1287.8	340.5	4.904e-07	4.7902e-07	379.63	127.79	110.67	38.115	4.8715e-07	46.882	190.012	130.983	132.156	46.681	152.782	224.150	47.179	51.275	183.713	167.725	50.728	55.638	56.058	60.099	227.563	59.301	-8191	255	
1876.232	1	1	0	0	0.18718	0.19934	0.26455	0.1682	0.1801	0.13014	0.12513	0.13624	0.12205	0.14004	0.098456	0.12336	0.19408	0.21292	0.064951	0.21475	-2.8104	-4.2063	-3.6479	-3.4083	-4.0687	-3.425	-3.8729	-4.1375	-3.2354	-3.9979	-3.8083	-3.5292	-4.1729	-3.3625	-3.6479	-4.0667	272.229	195.474	88.555	37.270	194.916	169.250	365.445	336.994	278.180	242.278	347.905	348.494	323.119	341.110	364.872	226.893	0.00035295	0.00027599	0.00011815	1338.8	3.1515e-06	3.3695e-06	1342.8	358.7	1.6137e-06	1.919e-06	415.09	138.59	120.02	41.938	4.4159e-06	51.995	4.9569e-05	4.2276e-05	1.1532e-05	1254	4.7228e-07	4.6171e-07	1287.9	340.28	4.8785e-07	4.7093e-07	379.25	127.83	110.77	38.13	4.6854e-07	46.773	190.702	110.652	127.479	46.555	127.871	160.330	46.710	51.506	225.656	136.117	50.447	55.186	55.574	59.821	176.852	59.409	-8191	255	
1876.328	1	1	0	0	0.1196	0.24318	0.19334	0.075051	0.13738	0.12691	0.26227	0.1646	0.15124	0.16178	0.1405	0.15698	0.19992	0.1283	0.1046	0.16287	-2.9917	-3.9875	-3.9333	-3.3875	-4.1979	-3.7	-3.8271	-4.0917	-3.3229	-3.975	-3.9833	-3.3542	-4.1854	-3.7646	-3.525	-4.3479	373.821	68.594	263.045	273.262	201.422	386.968	354.594	277.612	151.609	308.425	135.771	328.481	361.239	326.357	72.404	318.270	0.00034788	0.00022562	0.00010836	1341.8	3.7948e-06	1.7448e-06	1349.3	360.34	1.8483e-06	3.6722e-06	415.8	138.82	119.89	41.958	4.1726e-06	52.27	4.8598e-05	4.2266e-05	1.1713e-05	1253.9	4.7683e-07	4.6538e-07	1288.2	340.47	4.8635e-07	4.6254e-07	379.5	127.6	110.93	38.171	4.7044e-07	46.879	191.615	99.652	160.445	46.336	175.778	157.221	45.921	50.670	209.560	214.128	49.944	54.967	55.247	59.348	173.220	58.388	-8191	255	
1876.402	1	1	0	0	0.090732	0.2062	0.13018	0.18148	0.0079597	0.1582	0.21566	0.27569	0.21385	0.25848	0.026907	0.054986	0.22928	0.30273	0.16888	0.28111	-2.8729	-3.7979	-3.8375	-3.3479	-4.0854	-3.4833	-3.4479	-4.3958	-3.3104	-3.7958	-4.025	-3.3125	-4.2208	-3.6729	-3.5208	-4.3	233.988	132.766	355.281	383.858	208.762	89.065	365.037	306.998	179.409	346.381	377.222	191.062	71.160	336.747	86.327	355.168	0.00034528	0.00032199	0.00013254	1344.5	3.0708e-06	2.4359e-06	1350.6	361.05	1.2243e-06	2.7692e-06	414.63	139.31	120.59	41.907	3.7922e-06	52.363	4.8087e-05	4.274e-05	1.159e-05	1254.5	4.6804e-07	4.5728e-07	1288.4	340.26	4.8836e-07	4.7598e-07	379.26	127.83	110.93	38.112	4.7696e-07	46.813	188.299	103.543	142.103	45.856	136.673	166.070	45.915	50.694	200.612	178.597	49.939	54.634	55.293	59.137	158.216	58.853	-8191	255	
1876.520	1	1	0	0	0.22058	0.10514	0.063594	0.2023	0.14759	0.2077	0.08717	0.12353	0.16777	0.087892	0.16692	0.11471	0.097345	0.1593	0.1967	0.077126	-3	-3.8187	-4.0938	-3.3792	-3.975	-3.9208	-3.5292	-4.2396	-3.6104	-3.7604	-4.2937	-3.5312	-3.9646	-3.8521	-3.3104	-4.3625	41.039	203.051	231.564	370.589	42.770	372.906	136.866	331.006	37.605	74.012	380.315	143.100	356.898	358.292	371.204	187.679	0.00033868	0.00022084	6.1172e-05	1334.7	3.365e-06	3.2665e-06	1334	356.5	2.5543e-06	2.431e-06	413.17	137.55	118.85	41.433	6.0733e-06	51.659	4.8779e-05	4.2568e-05	1.1783e-05	1250.8	4.7299e-07	4.6364e-07	1283	339.86	4.8198e-07	4.6295e-07	378.61	127.33	110.68	38.006	4.7498e-07	46.669	185.282	108.779	133.493	46.030	143.818	130.860	45.824	50.725	209.278	152.789	50.047	54.779	55.020	59.451	175.426	58.732	-8191	255	
1876.617	1	1	0	0	0.2188	0.10636	0.13076	0.36877	0.19255	0.062839	0.2601	0.12649	0.23213	0.29738	0.26574	0.073982	0.22781	0.25304	0.23128	0.2379	-3.2417	-3.6042	-4.0125	-3.3521	-3.9688	-3.8292	-3.3063	-4.4292	-3.5146	-3.4354	-4.3063	-3.4521	-3.9375	-4.0521	-3.2062	-4.0542	388.084	63.537	319.980	365.681	218.508	344.631	62.890	75.716	193.249	149.228	97.775	224.264	68.305	112.155	153.691	53.572	0.00035796	0.0003283	0.00014831	1333	4.5042e-06	4.9276e-06	1317.2	352.3	3.4458e-06	3.1316e-06	406.43	136.35	118.18	41.152	3.4881e-06	51.646	4.7606e-05	4.094e-05	1.1411e-05	1249.2	4.6486e-07	4.5528e-07	1278.3	338.36	4.7386e-07	4.6768e-07	377.3	126.97	110.39	37.92	4.7409e-07	46.659	190.264	118.784	140.615	46.084	172.958	134.133	45.729	50.435	215.405	172.711	49.862	54.700	55.084	59.188	183.186	58.510	-8191	255	
1876.713	1	1	0	0	0.24038	0.20005	0.08853	0.29968	0.12619	0.051823	0.10281	0.18787	0.31743	0.15887	0.11378	0.0033613	0.37487	0.19888	0.062748	0.25192	-3.3521	-3.4271	-4.025	-3.5042	-3.7313	-4.0938	-3.5979	-4.1979	-3.7979	-3.65	-4.3125	-3.6771	-3.85	-4.1979	-3.4104	-4.2125	354.396	185.543	327.917	354.546	241.533	155.291	328.129	303.799	211.532	168.308	175.371	182.376	365.436	80.855	223.975	369.474	0.00031258	0.00023417	3.0998e-05	1325.1	1.8383e-06	1.6749e-06	1326.2	352.15	2.475e-06	1.8821e-06	409.39	136.63	119.78	41.96	3.8469e-06	52.414	4.7662e-05	4.2156e-05	1.1624e-05	1244.9	4.7428e-07	4.5831e-07	1278.5	338.06	4.7743e-07	4.6396e-07	377.9	127.02	110.57	38.1	4.823e-07	46.771	197.000	86.521	136.261	45.875	115.664	161.530	46.174	50.514	190.417	172.938	49.869	54.963	55.297	59.336	205.201	58.643	-8191	255	
1876.809	1	1	0	0	0.21232	0.045319	0.222	0.25961	0.048898	0.023239	0.13447	0.11958	0.067786	0.17701	0.2297	0.11538	0.090463	0.059157	0.081873	0.092817	-3.2417	-3.3604	-4.0896	-3.4375	-3.5833	-4.1646	-3.4896	-4.0437	-3.8	-3.3354	-4.2458	-3.675	-3.775	-4.3958	-3.225	-4.0083	347.204	114.023	42.037	339.260	96.032	278.759	356.235	349.298	48.244	353.147	341.536	391.490	375.301	333.221	73.025	304.054	0.00035174	0.00037836	7.6148e-05	1341.5	4.6373e-06	2.2666e-06	1343.7	360.28	1.861e-06	2.266e-06	417	138	119.72	41.562	3.0002e-06	52.248	4.8233e-05	4.2233e-05	1.1658e-05	1249.7	4.728e-07	4.6539e-07	1281.2	340.24	4.9637e-07	4.7406e-07	378.64	127.35	110.57	38	4.9463e-07	46.72	188.051	110.580	156.931	46.025	170.978	168.487	46.135	51.038	202.436	146.322	50.238	54.995	55.813	59.689	197.364	58.876	-8191	255	
1876.905	1	1	0	0	0.065884	0.19041	0.051818	0.21004	0.04441	0.039374	0.26818	0.14464	0.28877	0.13708	0.23804	0.14141	0.33496	0.10297	0.25186	0.29735	-3.5958	-3.3833	-4.1479	-3.6937	-3.5062	-4.1625	-3.5125	-3.9771	-3.9583	-3.3104	-4.0917	-3.6083	-3.5042	-4.3562	-3.35	-3.8292	116.056	119.850	364.797	37.171	184.908	186.743	360.415	343.133	382.734	88.756	361.461	372.800	371.791	295.690	245.769	328.842	0.00041104	0.00011229	0.00011162	1341.4	4.4175e-06	4.3225e-06	1341.2	360.02	2.5532e-06	3.417e-06	417.39	139.53	120.41	41.998	3.2912e-06	52.549	4.9895e-05	4.2855e-05	1.2018e-05	1252	4.7389e-07	4.6941e-07	1281.6	339.46	4.8125e-07	4.6726e-07	378.96	127.57	110.52	38.042	4.8213e-07	46.72	189.702	82.168	136.581	46.225	157.847	168.982	46.446	51.083	192.482	178.271	50.130	55.048	55.380	59.455	174.044	58.828	-8191	255	
1877.001	1	1	0	0	0.2441	0.15286	0.11881	0.43841	0.080692	0.073434	0.26564	0.05791	0.13791	0.1243	0.24006	0.067909	0.20536	0.17339	0.074217	0.19222	-3.7271	-3.3	-4.0854	-3.9125	-3.4542	-4.1375	-3.4833	-3.6604	-4.1312	-3.4625	-4.1729	-3.8458	-3.5292	-4.2229	-3.4604	-3.7354	332.489	303.982	34.471	354.816	151.441	288.520	326.718	298.363	375.838	100.409	249.232	38.292	235.080	320.446	272.961	311.454	0.00029505	0.00018428	0.00010334	1344.8	3.0189e-06	2.2596e-06	1354.5	360.43	2.4991e-06	3.1088e-06	417.81	139.99	121.34	42.046	4.7973e-06	52.397	4.9733e-05	4.3666e-05	1.1741e-05	1252.4	4.9192e-07	4.5681e-07	1283.8	339.52	4.8562e-07	4.7599e-07	379.47	127.64	110.94	38.042	4.7463e-07	46.709	187.524	84.191	126.021	46.184	174.008	153.259	45.923	51.134	218.733	136.457	50.505	54.929	55.570	59.402	193.554	58.897	-8191	255	
1877.097	1	1	0	0	0.074919	0.25362	0.10441	0.11006	0.11783	0.099756	0.19573	0.1963	0.2809	0.21745	0.08248	0.088561	0.14744	0.050009	0.16922	0.098778	-3.7479	-3.2167	-4.025	-4.0229	-3.2333	-4.1521	-3.7854	-3.5604	-4.1729	-3.3688	-4.1083	-3.775	-3.2125	-4.2875	-3.6521	-3.4479	137.791	191.647	180.672	290.345	48.002	373.032	297.415	366.710	119.975	276.991	109.425	363.505	347.880	310.205	343.577	141.533	0.00035937	0.000398	0.00010614	1349.5	4.4539e-06	2.9691e-06	1353.7	362.1	2.8127e-06	1.6724e-06	418.75	139.58	120.69	42.135	1.6533e-06	52.718	5.0228e-05	4.3369e-05	1.2014e-05	1253.4	4.8629e-07	4.6922e-07	1285.8	340.52	4.9905e-07	4.8233e-07	379.8	127.61	110.81	38.187	4.9296e-07	46.84	193.860	111.511	138.242	46.012	168.177	124.711	46.362	51.040	185.844	157.302	50.183	55.017	55.549	59.717	215.834	59.184	-8191	255	
1877.218	1	1	0	0	0.19334	0.09337	0.06746	0.15146	0.19301	0.095673	0.16486	0.30626	0.13267	0.16796	0.2066	0.07753	0.12806	0.24599	0.14063	0.017229	-3.6312	-3.4125	-3.8479	-4.0687	-3.3875	-4.0417	-3.9042	-3.5854	-4.1208	-3.3667	-3.95	-4.1625	-3.3812	-4.1021	-3.7875	-3.4625	328.823	390.665	337.755	379.921	312.829	44.715	319.810	351.441	371.043	177.237	365.611	59.291	164.491	351.835	175.511	228.180	0.00030201	0.0003385	0.00010071	1348.8	2.3078e-06	2.4076e-06	1354.8	361.21	3.6341e-06	1.3227e-06	419.56	139.37	121.15	42.218	4.3183e-06	52.566	4.9168e-05	4.4462e-05	1.2109e-05	1253	5.0277e-07	4.7326e-07	1286.4	340.59	4.9506e-07	4.9031e-07	380.03	127.64	110.79	38.187	4.8825e-07	46.804	194.758	107.836	162.349	46.053	150.292	119.726	46.282	51.313	213.528	174.192	50.358	54.877	55.544	59.825	213.218	59.145	-8191	255	
1877.314	1	1	0	0	0.16231	0.14769	0.16939	0.1187	0.17572	0.24558	0.11291	0.030528	0.037502	0.15795	0.29532	0.16733	0.11699	0.097465	0.020255	0.32316	-3.9083	-3.4854	-3.7062	-4.2896	-3.2958	-3.8917	-4.0938	-3.5146	-4.0708	-3.4667	-3.4521	-4.1667	-3.4437	-4.0708	-3.8042	-3.3208	324.841	55.846	90.953	63.223	97.457	225.972	339.404	226.353	260.402	291.641	360.941	332.791	253.776	133.026	111.385	342.495	0.00036659	0.00037215	7.192e-05	1355	3.1957e-06	1.478e-06	1357	362.43	3.142e-06	2.4707e-06	418.29	140.39	120.73	42.207	5.3662e-06	52.893	4.94e-05	4.3357e-05	1.2104e-05	1255.1	4.8401e-07	4.6708e-07	1285.9	340.49	4.9989e-07	4.814e-07	379.25	127.88	110.69	38.154	4.9078e-07	46.903	192.557	92.790	152.666	46.257	152.415	134.691	46.339	51.218	211.559	99.654	50.556	54.864	55.055	59.237	192.773	58.747	-8191	255	
1877.409	1	1	0	0	0.125	0.13312	0.19177	0.10052	0.18015	0.26686	0.19001	0.41349	0.029168	0.21446	0.25114	0.27012	0.20239	0.13737	0.11487	0.11942	-3.7521	-3.5646	-3.4479	-4.1854	-3.3312	-3.7812	-4.1438	-3.3521	-3.9813	-3.6688	-3.4979	-4.1687	-3.3667	-3.7625	-3.9958	-3.4604	61.159	89.588	218.772	276.036	55.694	344.028	261.322	357.674	337.971	264.758	310.944	360.401	86.198	254.112	344.861	391.146	0.00037417	0.00018914	0.00012509	1353.7	2.6764e-06	3.0998e-06	1363.5	363.82	2.14e-06	2.2977e-06	418.71	140.24	121.28	42.141	3.8046e-06	52.875	4.9469e-05	4.335e-05	1.2203e-05	1255.7	4.8651e-07	4.7327e-07	1289	340.83	4.7935e-07	4.7574e-07	379.43	127.98	111.01	38.067	4.9403e-07	46.873	188.898	99.120	141.172	46.186	154.137	182.747	45.962	50.879	212.522	173.862	50.031	54.886	55.111	59.428	163.397	58.612	-8191	255	
1877.506	1	1	0	0	0.18769	0.15707	0.24237	0.17982	0.17593	0.21591	0.22433	0.33065	0.053416	0.11796	0.21283	0.10572	0.25541	0.17289	0.092471	0.045821	-3.6	-3.7417	-3.4646	-4.3104	-3.4792	-3.8417	-4.2917	-3.3375	-4.0188	-3.9313	-3.4	-4.1833	-3.7167	-3.6875	-4.0062	-3.4229	292.454	345.065	330.401	56.336	135.550	238.480	292.359	354.300	283.333	362.544	349.726	362.572	359.679	389.004	163.559	112.417	0.00034067	0.00045045	6.4112e-05	1360.8	2.3694e-06	2.719e-06	1361.7	362.59	3.2175e-06	2.5465e-06	420.42	139.44	121.22	42.256	5.7162e-06	52.727	5.0048e-05	4.3225e-05	1.2156e-05	1257.4	4.8228e-07	4.7991e-07	1288.9	340.54	4.899e-07	4.7912e-07	380.38	127.7	110.97	38.152	4.8725e-07	46.834	189.632	107.131	178.560	45.986	103.316	162.948	46.120	50.780	204.888	160.693	50.272	54.879	55.046	59.428	167.972	58.557	-8191	255	
1877.625	1	1	0	0	0.14035	0.17341	0.079268	0.21094	0.23114	0.16011	0.23329	0.19725	0.1773	0.13178	0.21646	0.23121	0.035931	0.1102	0.22218	0.20786	-3.6562	-3.9375	-3.2083	-4.2833	-3.7417	-3.6167	-4.3333	-3.4083	-3.8063	-3.9417	-3.3125	-4.1625	-3.7479	-3.5854	-4.1937	-3.4188	294.431	329.689	153.057	74.999	88.196	340.911	333.513	259.406	129.260	251.209	370.668	335.951	92.171	364.769	328.993	296.735	0.00036087	0.00040277	0.00012451	1352.3	3.9606e-06	4.7284e-06	1359.8	362.95	2.369e-06	2.4388e-06	420.15	139.91	120.24	42.156	1.8041e-06	52.678	4.8795e-05	4.2741e-05	1.1937e-05	1254	4.8144e-07	4.7704e-07	1287.8	340.66	4.9637e-07	4.7509e-07	380.06	127.92	110.76	38.114	4.8775e-07	46.832	189.648	103.574	132.433	45.770	175.451	130.556	45.968	50.848	225.749	174.040	49.890	54.977	55.005	59.421	191.079	58.692	-8191	255	
1877.697	1	1	0	0	0.047982	0.24122	0.095322	0.14541	0.15336	0.064319	0.12009	0.20618	0.12758	0.052614	0.17429	0.24679	0.097622	0.27337	0.16025	0.12144	-3.6833	-3.8604	-3.2896	-4.2208	-3.575	-3.5792	-4.1	-3.3917	-3.8604	-3.9125	-3.4479	-4.0146	-3.6771	-3.35	-4.0854	-3.6146	246.645	56.017	285.544	57.628	321.825	168.899	319.641	308.460	289.525	141.348	234.997	309.326	283.780	343.890	48.394	372.047	0.00031343	0.0002746	6.7896e-05	1357.5	3.4627e-06	3.2384e-06	1360.7	364.41	3.5717e-06	1.1613e-06	419.38	140.13	122.2	42.35	3.3895e-06	52.696	4.952e-05	4.3633e-05	1.2205e-05	1257.3	4.8572e-07	4.8634e-07	1289.8	341.46	5.0195e-07	4.7527e-07	380.41	127.99	111.21	38.199	4.8599e-07	46.903	191.521	92.076	119.276	46.166	201.647	164.157	46.126	50.793	201.886	154.325	49.968	55.004	55.361	59.629	169.571	58.312	-8191	255	
1877.793	1	1	0	0	0.33559	0.053644	0.41224	0.075512	0.23527	0.18784	0.15688	0.21143	0.20087	0.11947	0.21042	0.26295	0.093241	0.24028	0.1827	0.2026	-3.2438	-3.9396	-3.1688	-3.9479	-3.7875	-3.2771	-4.3104	-3.5542	-3.5187	-4.0646	-3.2875	-4.0979	-3.8708	-3.3042	-4.2	-3.7271	133.466	352.507	72.936	323.537	172.250	264.475	328.619	326.435	291.378	136.434	293.202	233.795	364.040	346.927	220.901	269.086	0.00036196	0.00041117	5.8386e-05	1362.6	1.2151e-06	1.1223e-06	1368.2	363.53	1.5537e-06	1.7918e-06	421.4	140.72	121.47	42.426	1.3525e-06	52.779	4.9523e-05	4.2841e-05	1.2043e-05	1260.2	4.7245e-07	4.7409e-07	1291.6	340.65	4.8987e-07	4.7623e-07	380.58	128	111.03	38.251	4.8585e-07	46.939	190.747	120.308	182.193	46.052	123.789	240.746	45.639	50.368	166.294	169.661	49.869	54.486	54.381	58.882	226.865	58.084	-8191	255	
1877.914	1	1	0	0	0.12844	0.13226	0.052856	0.11527	0.12348	0.13362	0.21953	0.47648	0.15943	0.16864	0.10921	0.22067	0.19542	0.21678	0.065818	0.069773	-3.2938	-4.05	-3.3979	-4.0813	-3.8917	-3.2729	-4.2292	-3.6813	-3.3771	-4.1292	-3.4521	-3.725	-4.0521	-3.2438	-4.0146	-3.6854	65.652	259.590	252.467	93.567	369.900	242.873	360.301	364.716	375.525	349.108	305.506	318.046	392.230	384.500	119.259	365.902	0.000334	0.00038644	8.0504e-05	1354.7	3.6986e-06	1.666e-06	1366.2	363.93	2.5473e-06	2.7573e-06	418.38	140.08	121.07	42.251	3.5949e-06	52.947	5.0231e-05	4.254e-05	1.2048e-05	1256.6	4.8837e-07	4.7306e-07	1291.2	340.66	4.8912e-07	4.7266e-07	379.42	127.92	110.92	38.171	4.9454e-07	46.899	186.689	125.327	113.213	45.725	153.166	175.686	45.596	50.355	228.936	145.521	49.640	54.527	54.785	59.295	206.466	58.005	-8191	255	
1878.010	1	1	0	0	0.2065	0.14214	0.12638	0.18575	0.067857	0.14252	0.24916	0.065884	0.16725	0.17399	0.033523	0.25387	0.097289	0.14276	0.1344	0.27893	-3.0187	-4.075	-3.4479	-3.7625	-3.8667	-3.1521	-4.2625	-4.0479	-3.4062	-4.1854	-3.5875	-3.7375	-4.0958	-3.2417	-3.8063	-3.9896	314.515	78.834	371.014	370.973	245.117	266.877	353.741	210.797	186.593	150.325	140.263	46.544	326.533	207.459	67.729	286.903	0.00034023	0.00026959	8.1126e-05	1360.4	3.1626e-06	2.8377e-06	1368.3	363.55	2.4133e-07	2.9266e-06	418.92	141.05	121.22	42.394	3.4364e-06	52.826	5.1146e-05	4.4734e-05	1.2348e-05	1259.8	4.9622e-07	4.8204e-07	1292.6	341.43	4.966e-07	4.7373e-07	380.17	128.07	110.89	38.194	4.8585e-07	46.919	187.438	102.610	141.318	45.507	134.374	117.246	45.786	50.477	167.768	198.342	49.736	54.384	54.622	58.912	189.200	58.267	-8191	255	
1878.106	1	1	0	0	0.17253	0.23786	0.20327	0.2663	0.21954	0.19713	0.22144	0.1416	0.1349	0.15392	0.11726	0.051581	0.31759	0.28322	0.208	0.075292	-2.9062	-3.9479	-3.4292	-3.6458	-4.1583	-3.3104	-3.9729	-3.8708	-3.1854	-4.1875	-3.5271	-3.4042	-4.175	-3.3729	-3.8063	-4.0521	227.122	52.764	233.079	350.281	204.092	72.378	304.109	221.538	57.173	370.624	315.832	377.862	34.500	361.425	159.288	256.633	0.00032336	0.00035986	0.00010259	1357.5	4.0796e-06	3.5842e-06	1366.8	363.32	2.5493e-06	3.2698e-06	421.26	140.79	121.62	42.324	5.9603e-06	52.648	4.9508e-05	4.3698e-05	1.2101e-05	1258.2	4.8687e-07	4.8096e-07	1291.5	340.61	4.9375e-07	4.7191e-07	380.63	128.11	110.94	38.185	4.8903e-07	46.947	191.663	122.008	166.139	45.729	160.769	162.790	45.772	50.325	221.127	155.528	49.556	54.467	54.500	58.847	181.375	58.450	-8191	255	
1878.227	1	1	0	0	0.088314	0.065551	0.05415	0.14709	0.038341	0.26167	0.028367	0.19073	0.29533	0.17216	0.098675	0.13702	0.21538	0.12334	0.072456	0.16435	-2.7917	-4.0188	-3.6667	-3.4583	-4.1042	-3.3042	-3.9917	-4.0917	-3.2104	-4.125	-3.7333	-3.5458	-4.0333	-3.5417	-3.6104	-4.0896	127.103	325.119	187.089	343.340	344.107	374.843	278.398	325.770	283.563	169.868	35.636	101.139	389.590	105.999	251.743	352.934	0.00034468	0.00033963	0.00010057	1354.7	5.5267e-06	2.2431e-06	1363.4	364.47	1.9952e-06	2.5112e-06	419.26	140.11	121.81	42.217	3.3679e-06	53.074	4.9511e-05	4.178e-05	1.1629e-05	1257.6	4.7144e-07	4.6103e-07	1290.7	340.68	4.7585e-07	4.6619e-07	379.55	127.68	111.22	38.139	4.7841e-07	46.905	191.350	106.827	129.875	45.716	184.318	147.041	45.718	50.351	231.811	181.939	49.677	54.160	54.769	58.823	200.275	58.467	-8191	255	
1878.298	1	1	0	0	0.14755	0.23034	0.099292	0.24191	0.20912	0.22538	0.29513	0.15464	0.226	0.21296	0.087601	0.12758	0.30846	0.10614	0.17824	0.02076	-2.8458	-3.9521	-3.7438	-3.5167	-4.0396	-3.5167	-3.8354	-4.2208	-3.2208	-4.0437	-3.875	-3.4896	-4.2875	-3.4458	-3.5729	-4.1979	343.880	291.292	310.405	87.982	370.068	255.314	303.269	354.351	76.991	154.214	69.731	300.799	392.011	312.888	366.167	317.667	0.00036325	0.00025812	6.2869e-05	1355.1	2.7521e-06	2.3479e-06	1362	363.48	1.5202e-06	2.0819e-06	417.14	140.18	121.27	42.222	4.038e-06	52.808	4.9734e-05	4.2611e-05	1.1756e-05	1256	4.7425e-07	4.6857e-07	1290.3	340.92	4.8252e-07	4.6711e-07	379.66	127.77	111.07	38.163	4.867e-07	46.791	181.058	105.009	94.663	45.740	156.678	171.777	45.878	50.409	266.421	208.769	49.644	54.509	54.805	58.956	198.654	58.381	-8191	255	
1878.394	1	1	0	0	0.28947	0.12034	0.069637	0.22858	0.14963	0.042428	0.21804	0.10489	0.30291	0.15178	0.042085	0.097386	0.14654	0.10108	0.20084	0.14538	-2.9042	-3.8896	-3.8979	-3.4958	-4.0437	-3.6083	-3.8271	-4.2021	-3.3125	-3.8063	-3.9583	-3.3146	-4.2229	-3.6083	-3.4354	-4.2646	164.928	368.863	141.758	290.857	58.626	37.781	315.919	346.141	34.751	336.507	53.337	378.495	310.888	324.863	107.521	286.885	0.00036421	0.00033315	0.00010149	1356.2	3.8061e-06	2.7321e-06	1364.8	363.95	2.9658e-06	1.5604e-06	420.11	139.76	121.11	42.016	3.7126e-06	52.758	4.9786e-05	4.2396e-05	1.2101e-05	1255.9	4.8285e-07	4.8146e-07	1289.5	340.9	4.9426e-07	4.7613e-07	380.33	127.79	111.19	38.071	5.0173e-07	46.891	192.758	92.962	160.925	45.725	189.748	152.961	45.809	50.070	206.187	153.018	49.895	54.417	54.621	59.004	188.421	58.341	-8191	255	
1878.489	1	1	0	0	0.25521	0.15987	0.066994	0.35543	0.2335	0.15202	0.19598	0.1772	0.29215	0.20535	0.13402	0.19402	0.11116	0.2016	0.095881	0.42387	-2.8771	-3.775	-4.0125	-3.3771	-4.0854	-3.7354	-3.4292	-4.1333	-3.4562	-3.6437	-4.1521	-3.3604	-4.0708	-3.8771	-3.4104	-4.3854	282.965	115.637	334.789	366.783	102.626	79.785	353.667	163.062	215.154	269.173	259.249	193.830	40.361	164.878	124.104	283.391	0.00036191	0.00029346	0.00012448	1358.2	2.084e-06	1.9544e-06	1364.8	363.76	3.5039e-06	2.9283e-06	422.42	140.72	121.41	42.253	4.7244e-06	52.775	5.118e-05	4.4415e-05	1.2293e-05	1258.6	5.0174e-07	4.9447e-07	1292.4	341.75	5.1071e-07	5.0129e-07	381.01	128.14	111.26	38.182	5.0497e-07	46.884	189.869	95.732	159.928	45.639	184.818	155.480	45.765	50.251	202.467	164.916	49.810	54.577	54.923	59.000	173.625	58.370	-8191	255	
1878.587	1	1	0	0	0.15601	0.11567	0.062915	0.066462	0.1234	0.069228	0.077448	0.13496	0.34975	0.18477	0.076156	0.42367	0.18738	0.1434	0.058244	0.19245	-3.0708	-3.4979	-4.0979	-3.2896	-3.9271	-3.8979	-3.3958	-4.1562	-3.6292	-3.5396	-4.0667	-3.4167	-3.9792	-4.0125	-3.2292	-4.0938	178.327	383.747	40.552	208.064	273.520	87.315	98.740	153.447	164.996	278.739	350.020	368.688	263.342	309.159	172.834	214.181	0.00032918	0.00030043	9.1793e-05	1360.6	2.773e-06	2.5489e-06	1362	363.5	3.2011e-06	2.9073e-06	420.94	140.47	121.32	42.377	5.0588e-06	52.885	5.0266e-05	4.4239e-05	1.231e-05	1258.7	4.9614e-07	4.7569e-07	1291.2	341.36	5.0288e-07	4.9996e-07	380.8	128.07	111.13	38.247	5.0775e-07	46.943	191.030	101.814	163.842	45.694	152.472	131.254	45.628	50.618	223.682	148.902	49.824	54.823	55.154	59.020	180.961	58.342	-8191	255	
1878.706	1	1	0	0	0.10804	0.022338	0.20355	0.16531	0.20495	0.34097	0.11735	0.19234	0.17937	0.065855	0.26667	0.087727	0.44052	0.21174	0.19951	0.23884	-3.0271	-3.4583	-4.0521	-3.3167	-3.7521	-4.075	-3.4833	-4.1458	-3.7854	-3.4688	-4.2438	-3.5125	-3.75	-4.1542	-3.2417	-4.025	157.061	107.760	123.194	389.272	287.187	47.647	372.180	286.151	144.251	38.497	314.928	325.298	362.807	300.288	226.966	384.338	0.00036827	0.00033992	8.9122e-05	1356.5	2.81e-06	1.1948e-06	1368.7	364.17	1.8897e-06	2.4123e-06	423	140.81	121.56	42.341	6.0742e-06	53.283	5.0696e-05	4.4334e-05	1.2378e-05	1259.7	5.0244e-07	4.9144e-07	1293.9	341.5	5.0602e-07	5.0231e-07	381.73	128.26	111.33	38.2	5.1137e-07	47.028	187.099	107.075	166.188	45.746	143.392	144.473	45.657	50.690	194.963	123.992	49.928	54.778	54.807	59.137	183.282	58.402	-8191	255	
1878.802	1	1	0	0	0.13072	0.020861	0.11095	0.22384	0.15302	0.12792	0.10054	0.056287	0.1578	0.16268	0.17995	0.12615	0.22263	0.23252	0.37723	0.17277	-3.4125	-3.3833	-3.9104	-3.6625	-3.7021	-4.0792	-3.5646	-4.2063	-3.925	-3.4313	-4.2812	-3.6521	-3.6333	-4.0875	-3.3667	-3.7917	386.787	235.936	65.243	312.650	34.418	122.944	310.787	109.152	156.918	370.275	316.262	206.322	337.013	341.818	75.440	321.937	0.0003146	8.7959e-05	0.00013634	1364.6	3.9493e-06	4.1611e-06	1367.3	365.44	1.5936e-06	2.7722e-06	420.68	140.19	122.53	42.313	3.1853e-06	53.117	5.0722e-05	4.4691e-05	1.2457e-05	1265.1	5.0175e-07	4.9783e-07	1297.6	342.44	5.0717e-07	4.9107e-07	381.03	128.2	111.7	38.325	4.9601e-07	47.056	189.353	167.832	131.238	45.408	182.900	137.266	45.734	50.593	241.750	167.876	49.642	54.527	55.012	59.097	204.346	58.544	-8191	255	
1878.898	1	1	0	0	0.11679	0.072242	0.1047	0.19936	0.033026	0.065361	0.17676	0.10287	0.31375	0.12369	0.10873	0.20746	0.17931	0.35485	0.12981	0.038756	-3.5708	-3.2729	-4.0917	-3.7708	-3.5479	-4.2	-3.6437	-4.025	-4.0563	-3.4062	-4.1708	-3.5333	-3.4458	-4.2125	-3.4292	-3.8896	268.209	378.438	155.554	113.819	337.427	143.286	354.063	339.885	165.606	388.129	299.287	341.527	145.685	51.021	243.411	387.336	0.00035199	0.00039038	4.316e-05	1357.3	3.2304e-06	1.3735e-06	1364.1	362.05	2.1838e-06	2.4526e-06	420.53	140.44	121.04	42.188	4.0318e-06	52.639	4.9833e-05	4.4014e-05	1.1937e-05	1262.1	4.8433e-07	4.6939e-07	1296.1	341.5	4.9994e-07	4.9593e-07	381.4	128.13	111.39	38.322	5.0687e-07	46.935	186.978	104.711	169.892	45.374	159.184	161.331	45.556	50.613	197.420	138.978	49.888	54.555	55.113	59.111	169.047	58.158	-8191	255	
1878.994	1	1	0	0	0.21462	0.21602	0.11214	0.16165	0.23625	0.17761	0.34352	0.2144	0.098376	0.24361	0.25908	0.21142	0.24475	0.17093	0.12619	0.076215	-3.5458	-3.3688	-4.0417	-3.7729	-3.3583	-4.2771	-3.5563	-3.8146	-4.0667	-3.5521	-4.2146	-3.8146	-3.5042	-4.2646	-3.4562	-3.575	382.053	313.791	234.945	351.148	313.823	199.861	350.987	60.176	91.102	142.841	342.443	375.686	46.509	313.391	208.996	208.279	0.00035714	0.00024013	8.4899e-05	1360.5	5.9754e-06	4.5629e-06	1365.7	364.81	1.3393e-06	4.0878e-06	420.78	140.08	121.07	42.247	4.4893e-06	51.554	4.994e-05	4.4335e-05	1.224e-05	1263.2	4.943e-07	4.8744e-07	1295.4	342.4	5.0747e-07	5.0353e-07	381.43	128.15	111.39	38.252	5.045e-07	46.824	183.226	126.796	150.116	45.585	164.871	157.173	45.762	50.559	152.982	141.905	49.931	54.869	55.048	59.520	198.513	58.174	-8191	255	
1879.090	1	1	0	0	0.052187	0.17859	0.025063	0.22663	0.1393	0.10042	0.089507	0.23468	0.20233	0.15881	0.081652	0.13987	0.24842	0.23117	0.21934	0.055341	-3.7917	-3.225	-3.9021	-4.1	-3.3521	-4.1875	-3.7125	-3.7521	-4.0125	-3.3	-3.9958	-3.9917	-3.4125	-3.8646	-3.525	-3.4125	244.847	249.646	304.086	34.009	310.566	249.279	382.238	338.988	112.468	206.169	254.736	348.150	362.980	33.786	286.909	52.753	0.00033584	0.00014953	0.00014737	1354	2.4494e-06	3.2618e-06	1357.5	361.84	3.7431e-06	2.6173e-06	417.29	139.58	120.7	42.113	4.1364e-06	52.89	5.0111e-05	4.3811e-05	1.2272e-05	1263	4.9695e-07	4.7169e-07	1293.3	341.87	4.9956e-07	4.9252e-07	380.92	128.22	111.47	38.256	4.9207e-07	47.028	190.634	85.393	112.307	45.766	155.515	158.506	45.738	50.510	217.682	149.985	49.935	54.594	54.961	59.508	182.398	58.424	-8191	255	
1879.186	1	1	0	0	0.056919	0.1869	0.069024	0.25741	0.075207	0.058518	0.28659	0.1644	0.053446	0.048568	0.098561	0.15884	0.14155	0.26548	0.045776	0.10011	-3.7604	-3.2896	-3.7167	-3.9083	-3.4083	-3.9625	-3.8417	-3.3646	-4.0167	-3.3458	-3.8521	-3.9896	-3.3229	-4.1896	-3.7208	-3.25	153.083	55.572	198.208	372.266	139.586	104.009	324.002	331.681	72.967	191.500	147.093	105.573	379.415	354.858	193.125	187.698	0.00036718	0.00021273	5.1855e-05	1354.3	4.9446e-06	3.8935e-06	1357.9	362.34	2.1951e-06	2.6197e-06	416.4	138.83	120.16	41.808	5.2102e-06	52.647	4.9434e-05	4.4165e-05	1.2092e-05	1263.5	4.9493e-07	4.8119e-07	1296.1	342.08	4.945e-07	4.9264e-07	380.55	127.93	111.28	38.203	4.9141e-07	46.982	191.852	132.592	140.112	45.602	151.436	168.504	45.625	50.487	250.792	160.382	49.612	54.453	54.750	59.006	200.132	58.601	-8191	255	
1879.307	1	1	0	0	0.10852	0.29889	0.19719	0.13082	0.12533	0.14569	0.12041	0.20036	0.04861	0.13094	0.31504	0.13501	0.23866	0.34771	0.1179	0.34924	-3.9021	-3.275	-3.7292	-4.3	-3.3958	-4.0938	-3.8229	-3.4646	-4.0833	-3.4917	-3.6333	-4.2312	-3.1979	-3.8771	-3.8417	-3.4396	189.940	121.765	322.139	114.766	172.170	224.744	228.373	373.768	197.405	136.565	265.319	42.062	50.461	386.618	275.235	321.820	0.0003507	0.00024273	9.8031e-05	1352.6	3.3213e-06	3.023e-06	1355.4	361.9	2.3435e-06	2.7712e-06	419.46	140.56	121.78	42.27	3.6733e-06	52.876	4.9852e-05	4.389e-05	1.2254e-05	1263.7	4.9461e-07	4.8342e-07	1296.3	341.93	4.9611e-07	4.852e-07	381.42	128.39	111.49	38.332	4.9789e-07	47.161	185.385	130.117	133.224	45.477	180.114	157.776	45.601	50.645	218.709	154.821	49.996	54.668	55.198	59.304	175.921	58.619	-8191	255	
1879.401	1	1	0	0	0.077484	0.17039	0.10488	0.088096	0.13951	0.081748	0.092987	0.20807	0.25656	0.16104	0.16667	0.092013	0.25668	0.078161	0.13534	0.1762	-3.7646	-3.5729	-3.4125	-4.2042	-3.3563	-3.8271	-4.15	-3.5479	-4.0729	-3.6083	-3.625	-4.0563	-3.4833	-3.8729	-4.1312	-3.3625	265.903	204.758	208.419	136.225	196.189	106.604	100.668	350.368	322.506	363.138	133.920	78.771	75.452	117.183	306.494	301.258	0.00037442	0.00036458	0.0001006	1371.6	3.3234e-06	2.0052e-06	1375.9	364.88	2.8098e-06	2.7368e-06	422	140.9	121.47	42.443	3.846e-06	53.29	4.9695e-05	4.3684e-05	1.2201e-05	1268.3	4.9057e-07	4.8116e-07	1301	342.44	4.9336e-07	4.8626e-07	382.23	128.44	111.62	38.366	4.9066e-07	47.089	190.563	122.619	140.996	45.722	147.574	201.637	45.844	50.629	252.155	166.610	49.901	54.899	55.148	59.403	188.436	58.619	-8191	255	
1879.498	1	1	0	0	0.16498	0.07904	0.26162	0.1551	0.13786	0.13853	0.28776	0.22369	0.1246	0.17345	0.053065	0.13245	0.044401	0.34168	0.049433	0.39585	-3.6063	-3.7792	-3.4292	-4.1542	-3.4958	-3.75	-4.2625	-3.3688	-3.9208	-3.7583	-3.4396	-4.2771	-3.7021	-3.9208	-4.0563	-3.3688	338.356	250.544	33.580	380.767	42.343	275.145	321.126	379.248	326.626	208.020	362.745	225.038	241.179	34.219	165.143	141.402	0.00036937	0.00029945	9.0673e-05	1368.3	3.199e-06	3.0587e-06	1376.6	364.57	2.6353e-06	3.0572e-06	422.59	140.56	122.07	42.248	2.2955e-06	53.011	5.0597e-05	4.4868e-05	1.2384e-05	1268.4	4.9812e-07	4.8243e-07	1301.1	342.94	5.0084e-07	4.8139e-07	382.25	128.45	111.69	38.31	4.9166e-07	47.117	193.499	106.056	128.162	45.776	149.140	156.221	45.878	50.675	206.805	159.133	50.243	54.860	54.918	59.665	169.475	58.550	-8191	255	
1879.594	1	1	0	0	0.17877	0.11519	0.18889	0.29265	0.12891	0.14982	0.28193	0.23435	0.062292	0.17652	0.30812	0.12551	0.21714	0.21285	0.097993	0.083732	-3.6521	-3.7729	-3.3521	-4.3417	-3.4938	-3.5458	-4.2792	-3.4938	-3.9062	-3.8208	-3.3208	-4.1792	-3.725	-3.6333	-4.025	-3.3708	228.813	96.978	152.531	351.132	313.305	364.829	288.589	320.882	251.872	320.852	318.734	350.610	344.183	41.148	74.564	104.638	0.00035972	0.00019332	0.00011878	1372.9	3.7565e-06	3.2843e-06	1371.8	365.79	2.6648e-06	3.9856e-06	422.41	141.3	121.94	42.74	3.095e-06	53.102	4.9524e-05	4.4525e-05	1.2415e-05	1269.1	4.9643e-07	4.8396e-07	1300.5	342.66	5.0554e-07	4.8279e-07	381.92	128.61	111.59	38.371	4.9691e-07	47.083	187.535	122.868	148.026	45.884	145.406	132.536	46.159	50.617	204.088	152.246	50.057	54.891	55.140	59.256	172.039	58.647	-8191	255	
#DATA ENDS
