BOXY.EXE: ISS Imagent and Oximeter Data Acquisition Program Version 0.80
Ascii Record File

#ACQ INFORMATION
2  Detector Channels 
16  External MUX Channels 
1  Auxiliary Channels 
5000  Waveform (CCF) Frequency (Hz)
1  Waveforms Skipped 
30  Waveforms Averaged 
1  Cycles Averaged 
16  Acquisitions per Waveform 
10.0806  Updata Rate (Hz) 

#FILE INFORMATION
TRUE -- External MUX Channel results are PARSED.
FALSE -- AC DC and Phase are NOT grouped.
TRUE -- Companion Program Settings File CREATED.
FALSE -- AC data not excluded
FALSE -- DC data not excluded
FALSE -- Phase data not excluded
FALSE -- Auxillary Chn. data not excluded
Tab delimiters

#CALIBRATION STATE
TRUE -- Waveform Calibration Values APPLIED.


#AUX CALIBRATION VALUES
Val Type	aux-1	

Term	1.0000e+00	
Factor	0.0000e+00	


#WF CALIBRATION VALUES
A = Detector Channel
Val Type	A-AC1	A-AC2	A-AC3	A-AC4	A-AC5	A-AC6	A-AC7	A-AC8	A-AC9	A-AC10	A-AC11	A-AC12	A-AC13	A-AC14	A-AC15	A-AC16	A-DC1	A-DC2	A-DC3	A-DC4	A-DC5	A-DC6	A-DC7	A-DC8	A-DC9	A-DC10	A-DC11	A-DC12	A-DC13	A-DC14	A-DC15	A-DC16	A-Ph1	A-Ph2	A-Ph3	A-Ph4	A-Ph5	A-Ph6	A-Ph7	A-Ph8	A-Ph9	A-Ph10	A-Ph11	A-Ph12	A-Ph13	A-Ph14	A-Ph15	A-Ph16	

Term	0.00000e+00	0.00000e+00	0.00000e+00	0.00000e+00	0.00000e+00	0.00000e+00	0.00000e+00	0.00000e+00	0.00000e+00	0.00000e+00	0.00000e+00	0.00000e+00	0.00000e+00	0.00000e+00	0.00000e+00	0.00000e+00	0.00000e+00	0.00000e+00	0.00000e+00	0.00000e+00	0.00000e+00	0.00000e+00	0.00000e+00	0.00000e+00	0.00000e+00	0.00000e+00	0.00000e+00	0.00000e+00	0.00000e+00	0.00000e+00	0.00000e+00	0.00000e+00	0.00000e+00	0.00000e+00	0.00000e+00	0.00000e+00	0.00000e+00	0.00000e+00	0.00000e+00	0.00000e+00	0.00000e+00	0.00000e+00	0.00000e+00	0.00000e+00	0.00000e+00	0.00000e+00	0.00000e+00	0.00000e+00	
Factor	1.00000e+00	1.00000e+00	1.00000e+00	1.00000e+00	1.00000e+00	1.00000e+00	1.00000e+00	1.00000e+00	1.00000e+00	1.00000e+00	1.00000e+00	1.00000e+00	1.00000e+00	1.00000e+00	1.00000e+00	1.00000e+00	1.00000e+00	1.00000e+00	1.00000e+00	1.00000e+00	1.00000e+00	1.00000e+00	1.00000e+00	1.00000e+00	1.00000e+00	1.00000e+00	1.00000e+00	1.00000e+00	1.00000e+00	1.00000e+00	1.00000e+00	1.00000e+00	X	X	X	X	X	X	X	X	X	X	X	X	X	X	X	X	

B = Detector Channel
Val Type	B-AC1	B-AC2	B-AC3	B-AC4	B-AC5	B-AC6	B-AC7	B-AC8	B-AC9	B-AC10	B-AC11	B-AC12	B-AC13	B-AC14	B-AC15	B-AC16	B-DC1	B-DC2	B-DC3	B-DC4	B-DC5	B-DC6	B-DC7	B-DC8	B-DC9	B-DC10	B-DC11	B-DC12	B-DC13	B-DC14	B-DC15	B-DC16	B-Ph1	B-Ph2	B-Ph3	B-Ph4	B-Ph5	B-Ph6	B-Ph7	B-Ph8	B-Ph9	B-Ph10	B-Ph11	B-Ph12	B-Ph13	B-Ph14	B-Ph15	B-Ph16	

Term	0.00000e+00	0.00000e+00	0.00000e+00	0.00000e+00	0.00000e+00	0.00000e+00	0.00000e+00	0.00000e+00	0.00000e+00	0.00000e+00	0.00000e+00	0.00000e+00	0.00000e+00	0.00000e+00	0.00000e+00	0.00000e+00	0.00000e+00	0.00000e+00	0.00000e+00	0.00000e+00	0.00000e+00	0.00000e+00	0.00000e+00	0.00000e+00	0.00000e+00	0.00000e+00	0.00000e+00	0.00000e+00	0.00000e+00	0.00000e+00	0.00000e+00	0.00000e+00	-1.17792e+02	-1.43843e+02	-1.22546e+02	-1.82203e+02	-6.11667e+01	-7.34980e+01	-1.58195e+02	-1.62015e+02	-5.91422e+01	-6.39027e+01	-1.73093e+02	-1.71855e+02	-1.81390e+02	-1.76301e+02	-7.35693e+01	-1.49454e+02	
Factor	1.69170e-05	1.23924e-04	3.36262e-05	1.80272e-01	1.08088e-06	1.50264e-06	1.68832e-01	4.61094e-02	9.30486e-07	1.40809e-06	1.02341e-01	2.97290e-02	2.73267e-02	8.85118e-03	1.28260e-06	1.26478e-02	2.60707e-06	2.90429e-06	8.06884e-07	9.53293e-02	3.13924e-08	3.17865e-08	8.41259e-02	2.45373e-02	3.13704e-08	3.17759e-08	5.20466e-02	1.52571e-02	1.46120e-02	4.71344e-03	3.16051e-08	6.50126e-03	X	X	X	X	X	X	X	X	X	X	X	X	X	X	X	X	



#DISTANCE SETTINGS
A = Detector Channel
A-1	A-2	A-3	A-4	A-5	A-6	A-7	A-8	A-9	A-10	A-11	A-12	A-13	A-14	A-15	A-16	

2.5000e+00	3.0000e+00	2.5000e+00	3.0000e+00	2.0000e+00	3.0000e+00	1.5000e+00	3.0000e+00	3.0000e+00	3.0000e+00	3.0000e+00	3.0000e+00	3.0000e+00	3.0000e+00	1.5000e+00	3.0000e+00	

B = Detector Channel
B-1	B-2	B-3	B-4	B-5	B-6	B-7	B-8	B-9	B-10	B-11	B-12	B-13	B-14	B-15	B-16	

1.0000e+01	1.0000e+01	1.0000e+01	1.4400e+00	1.0000e+01	1.0000e+01	1.5100e+00	1.9400e+00	1.0000e+01	1.0000e+01	1.9900e+00	2.4900e+00	2.4100e+00	2.9000e+00	1.0000e+01	2.9800e+00	




#DATA BEGINS
time	group	step	mark	flag	A-AC1	A-AC2	A-AC3	A-AC4	A-AC5	A-AC6	A-AC7	A-AC8	A-AC9	A-AC10	A-AC11	A-AC12	A-AC13	A-AC14	A-AC15	A-AC16	A-DC1	A-DC2	A-DC3	A-DC4	A-DC5	A-DC6	A-DC7	A-DC8	A-DC9	A-DC10	A-DC11	A-DC12	A-DC13	A-DC14	A-DC15	A-DC16	A-Ph1	A-Ph2	A-Ph3	A-Ph4	A-Ph5	A-Ph6	A-Ph7	A-Ph8	A-Ph9	A-Ph10	A-Ph11	A-Ph12	A-Ph13	A-Ph14	A-Ph15	A-Ph16	B-AC1	B-AC2	B-AC3	B-AC4	B-AC5	B-AC6	B-AC7	B-AC8	B-AC9	B-AC10	B-AC11	B-AC12	B-AC13	B-AC14	B-AC15	B-AC16	B-DC1	B-DC2	B-DC3	B-DC4	B-DC5	B-DC6	B-DC7	B-DC8	B-DC9	B-DC10	B-DC11	B-DC12	B-DC13	B-DC14	B-DC15	B-DC16	B-Ph1	B-Ph2	B-Ph3	B-Ph4	B-Ph5	B-Ph6	B-Ph7	B-Ph8	B-Ph9	B-Ph10	B-Ph11	B-Ph12	B-Ph13	B-Ph14	B-Ph15	B-Ph16	aux-1	digaux	

28622.479	1	1	0	256	0.25226	0.2519	0.18431	0.44623	0.17816	0.11451	0.39443	0.30143	0.21922	0.28395	0.16709	0.61933	0.13731	0.4339	0.13444	0.14143	-1.9417	-1.7292	-2.2583	-2.1542	-1.7375	-2.4188	-1.8375	-1.9604	-2.3729	-1.3188	-2.2646	-2.2313	-1.7021	-2.4208	-1.7479	-2.0646	-79.624	42.856	71.967	177.665	-31.096	101.505	147.417	130.372	122.390	4.466	162.690	177.977	-99.016	183.149	-118.247	-92.494	0.00061001	0.0020787	0.00034048	1123.8	7.9672e-06	3.9614e-06	1730.5	348.61	1.5792e-05	1.3866e-05	703.44	282.97	134.59	49.095	1.479e-05	118.49	0.0022082	0.002389	0.00063516	1007.2	2.499e-05	2.5337e-05	1506.2	309.32	2.4848e-05	2.4885e-05	617.66	247.62	123.16	44.56	2.5325e-05	103.65	-137.589	-74.642	-51.459	-134.882	-23.807	-58.689	-135.288	-129.744	-31.413	-25.843	-130.060	-126.075	-125.581	-120.428	12.117	-121.547	-8191	255	
28622.574	1	1	0	0	0.16756	0.14254	0.035036	0.099638	0.13444	0.11987	0.099702	0.34297	0.21981	0.29942	0.15311	0.14276	0.12141	0.39426	0.088614	0.25553	-1.8896	-1.6396	-2.0479	-2.2042	-1.2542	-2.0708	-1.8917	-1.8563	-2.2771	-1.6229	-2.2708	-2.4292	-1.5375	-2.3083	-1.7333	-2.1292	160.724	140.770	210.902	-108.932	169.465	116.428	-146.289	192.422	85.050	100.245	117.234	158.209	208.431	167.299	192.280	183.544	0.00057603	0.0016934	0.00018777	1115.6	5.0113e-06	4.3489e-06	1707.5	344.85	1.3626e-05	1.9499e-05	695.29	277.8	132.19	48.467	1.1045e-05	117.65	0.0021769	0.0023558	0.00064	1000.4	2.5215e-05	2.5071e-05	1490.4	306.45	2.522e-05	2.5492e-05	611.66	244.7	121.22	44.146	2.5484e-05	102.63	209.556	-93.339	36.208	-134.928	-54.521	69.535	-134.372	-129.663	-13.437	-20.891	-129.487	-125.860	-125.393	-120.736	-70.025	-121.953	-8191	255	
28622.695	1	1	0	0	0.21611	0.10851	0.17063	0.14528	0.14511	0.18817	0.53757	0.3451	0.061953	0.22993	0.10871	0.46044	0.092049	0.19498	0.18776	0.40098	-2.0167	-1.5938	-1.8312	-2.25	-1.4062	-2.2354	-2.0958	-1.9417	-2.3083	-1.575	-1.9833	-2.4417	-1.7271	-2.1937	-1.8708	-1.7021	-145.406	209.325	189.471	181.866	-27.515	-99.261	135.703	113.444	-118.738	126.887	-128.722	143.645	120.232	205.451	-6.035	191.093	0.00071751	0.00090733	0.0001519	1102.4	6.9669e-06	1.6534e-05	1706.7	340.45	7.0466e-06	2.4865e-05	693.92	275.28	131.65	48.273	1.4264e-05	116.47	0.0021976	0.0023277	0.00064742	991.51	2.5336e-05	2.5488e-05	1486	304.06	2.493e-05	2.5689e-05	608.52	242.63	120.4	43.749	2.4629e-05	102	-142.733	-116.791	34.363	-134.874	33.028	-3.651	-134.917	-129.113	70.238	7.698	-129.445	-125.695	-125.431	-119.952	70.846	-121.920	-8191	255	
28622.793	1	1	0	0	0.11754	0.14796	0.21192	0.14519	0.051218	0.078033	0.15195	0.56631	0.34116	0.15609	0.14767	0.29838	0.16655	0.23261	0.17572	0.12296	-2.0208	-1.6708	-1.6646	-2.2938	-1.6396	-2.2667	-2.1708	-1.4583	-2.1917	-1.7333	-1.8563	-2.5729	-1.5292	-2.1562	-2.0958	-1.5021	160.259	2.199	52.956	91.691	98.207	4.125	113.023	163.578	-129.065	-37.205	78.988	140.386	-78.490	202.609	170.883	164.226	0.00059026	0.0012748	0.00045061	1120.8	1.9774e-06	6.3259e-06	1704.6	341.78	1.3061e-06	1.2933e-05	684.9	275.71	130.38	47.516	1.2069e-05	116.33	0.0020553	0.0022404	0.00062214	991.34	2.4075e-05	2.4256e-05	1487.5	302.57	2.4365e-05	2.5251e-05	607.03	242.82	119.98	43.432	2.5623e-05	101.9	212.598	-78.602	-95.792	-134.411	-16.470	-34.594	-134.427	-129.017	28.878	63.860	-129.268	-125.817	-125.724	-120.413	-29.578	-121.782	-8191	255	
28622.889	1	1	0	0	0.37782	0.13173	0.11204	0.35299	0.21864	0.18703	0.446	0.23341	0.25182	0.22407	0.22496	0.087007	0.34217	0.12128	0.17171	0.43013	-1.7938	-1.7812	-1.6667	-2.4104	-1.5083	-1.9708	-2.1937	-1.5438	-2.2458	-1.7708	-1.7104	-2.4917	-1.5625	-2.0187	-2.1292	-1.6708	-117.007	128.158	2.053	141.081	43.902	194.273	184.712	-136.524	196.198	-34.556	155.657	128.903	133.866	177.704	-141.020	188.207	0.00080685	0.0011553	6.4254e-05	1109	5.6281e-06	2.6439e-05	1700.5	339.23	1.3065e-05	2.7955e-06	687.54	272.81	128.93	47.203	9.3775e-06	114.87	0.0021032	0.0023674	0.00064481	989.06	2.52e-05	2.5323e-05	1486.1	301.6	2.4816e-05	2.567e-05	606.37	240.54	118.71	42.993	2.5501e-05	101.02	209.435	-95.395	74.219	-134.904	145.194	61.557	-134.529	-129.589	-61.880	-120.125	-129.812	-125.414	-125.562	-119.778	-97.457	-121.768	-8191	255	
28622.984	1	1	0	0	0.18928	0.033151	0.024652	0.24138	0.11756	0.4034	0.33265	0.46606	0.228	0.20972	0.4137	0.31664	0.38833	0.23993	0.22776	0.14376	-1.8563	-1.9062	-1.6229	-2.5625	-1.5542	-1.9458	-2.5542	-1.5438	-2.3021	-1.9271	-1.6458	-2.4229	-1.7354	-1.8396	-2.35	-1.7729	-115.260	-112.349	176.527	138.941	13.515	-97.785	111.236	150.344	100.459	-123.287	164.454	151.834	144.841	-143.832	57.625	179.288	0.00063862	0.0014113	0.00033131	1105.5	4.4042e-06	6.7695e-06	1696	337.13	9.6186e-06	1.0951e-05	679.45	271.24	126.58	46.882	2.2146e-05	113.56	0.0021239	0.0023363	0.00064248	982.43	2.4881e-05	2.5501e-05	1476.5	299.53	2.5251e-05	2.6965e-05	601.54	238.58	117.83	42.722	2.6286e-05	100.1	-138.666	155.086	-134.404	-134.604	21.897	-72.745	-134.376	-128.742	-127.017	-23.913	-129.402	-125.438	-125.482	-119.677	53.862	-121.921	-8191	255	
28623.078	1	1	0	0	0.19398	0.13942	0.17866	0.19871	0.09176	0.068275	0.44435	0.38022	0.24523	0.36498	0.32974	0.16899	0.22223	0.41276	0.10446	0.29421	-1.825	-2.0375	-1.5167	-2.2271	-1.7542	-1.6583	-2.3688	-1.6396	-2.1542	-2.1979	-1.6875	-2.5458	-1.9708	-1.9	-2.2896	-1.5688	65.754	13.763	28.468	-116.125	75.311	177.400	185.455	199.784	42.901	95.515	-66.626	181.331	-62.615	135.707	-120.580	159.042	0.00050297	0.0015618	0.00054416	1092.8	5.0075e-06	7.5577e-06	1684	336.59	1.1659e-05	2.5275e-05	675.19	270.52	127.51	46.217	1.6656e-06	112.93	0.0021799	0.0024191	0.000651	976.77	2.5184e-05	2.4997e-05	1467.1	298.82	2.4479e-05	2.5704e-05	597.27	238.28	117.43	42.401	2.6406e-05	99.598	-139.906	-100.091	-19.589	-134.210	-69.519	-62.742	-134.429	-129.286	-33.642	-25.137	-129.653	-125.039	-125.132	-120.269	-79.411	-121.443	-8191	255	
28623.176	1	1	0	0	0.15334	0.12442	0.13247	0.19536	0.31504	0.29497	0.19119	0.30457	0.052745	0.16876	0.11058	0.1111	0.044048	0.097982	0.14903	0.18877	-1.4896	-2.2042	-1.4958	-2.4521	-1.8375	-1.7958	-2.5167	-1.7708	-1.9583	-2.2604	-1.6083	-2.4708	-1.9854	-1.875	-2.3167	-1.7458	-64.990	-10.458	201.352	143.050	-80.054	198.817	171.345	-145.538	-89.022	0.400	64.358	-146.854	-30.076	133.631	8.558	139.585	0.00057285	0.0010026	0.00050095	1094.4	1.5151e-05	5.923e-06	1686.2	335.47	1.0243e-05	1.148e-05	683.03	269.82	127.23	46.227	3.1627e-06	112.56	0.0022644	0.0025137	0.00069422	987.58	2.8036e-05	2.8158e-05	1475.5	301.24	2.7694e-05	2.8744e-05	606.93	238.94	119.06	42.652	2.7882e-05	99.878	-131.315	-121.642	112.496	-134.504	12.216	-99.386	-134.386	-129.455	60.109	-45.367	-129.690	-125.027	-125.071	-119.916	-38.021	-121.445	-8191	255	
28623.297	1	1	0	0	0.10552	0.375	0.29018	0.33441	0.087444	0.19768	0.17317	0.388	0.053415	0.12249	0.028569	0.14173	0.17667	0.062194	0.094722	0.21159	-1.45	-2.2229	-1.4646	-2.1354	-1.7812	-1.65	-2.4854	-1.7667	-1.7417	-2.4125	-1.575	-2.4229	-1.975	-1.7188	-2.3479	-1.8875	36.676	82.701	178.278	137.692	-113.960	22.324	120.238	116.679	-71.004	-111.305	-86.542	185.658	163.553	197.576	-98.533	158.820	0.00072606	0.00094728	0.00031865	1110.9	8.4445e-06	2.5745e-05	1690.3	337.13	1.0596e-05	4.602e-06	677.76	268.49	126.05	45.805	8.2506e-06	111.31	0.0024194	0.0026178	0.00072626	998.22	2.9133e-05	2.8908e-05	1487.3	302.72	2.9064e-05	3.0008e-05	607.94	238.12	118.68	42.324	2.8488e-05	98.482	194.740	-144.525	-109.609	-134.601	85.875	9.749	-134.268	-129.116	-30.295	-1.076	-129.475	-125.328	-125.493	-119.802	4.127	-121.684	-8191	255	
28623.393	1	1	0	0	0.17746	0.28355	0.40554	0.22118	0.19882	0.056858	0.10174	0.24824	0.31895	0.2322	0.17715	0.30818	0.11687	0.23127	0.16215	0.17443	-1.1437	-2.3896	-1.4625	-2.025	-2.1833	-1.5979	-2.4437	-2.1792	-1.6021	-2.3563	-1.8042	-2.1437	-2.1396	-1.7229	-2.2896	-2.3042	-125.311	189.438	-69.832	-102.176	204.429	-93.487	44.325	153.916	103.388	-59.749	89.146	161.673	148.122	-126.954	192.701	59.397	0.00074917	0.0014111	0.00072357	1099.4	1.3337e-05	1.3523e-05	1676.5	333.76	1.2444e-05	6.564e-06	670.46	267.04	125.75	45.526	1.3401e-05	111.04	0.0024734	0.0026595	0.00074341	996.37	2.9698e-05	2.924e-05	1473.3	300.59	2.8806e-05	2.8882e-05	601.07	236.51	117.46	41.891	2.6738e-05	98.654	199.437	-17.743	-89.083	-134.064	20.797	48.339	-135.040	-129.772	163.672	-95.254	-129.806	-126.271	-125.586	-120.702	37.703	-121.701	-8191	255	
28623.488	1	1	0	0	0.085575	0.098883	0.14774	0.057044	0.11826	0.14313	0.61878	0.14144	0.097632	0.17027	0.1784	0.097707	0.114	0.10809	0.14857	0.34895	-1.0458	-2.2792	-1.6063	-2.125	-2.2625	-1.3563	-2.3354	-2.2875	-1.4208	-2.2417	-1.8188	-2.0271	-2.3396	-1.6625	-2.0792	-2.3021	73.588	187.144	23.320	-108.910	182.996	123.362	177.050	-118.944	-95.851	-77.415	-113.959	210.610	0.694	-119.088	140.519	201.082	0.00055892	0.00080975	0.00021871	1097.8	8.5398e-06	5.8429e-06	1682	337.19	1.0433e-05	2.7904e-05	683.63	270.55	127.83	46.538	2.4273e-05	113.6	0.0022809	0.0023988	0.00067216	981.97	2.5825e-05	2.5822e-05	1469.7	300.95	2.5365e-05	2.5503e-05	604.64	238.4	117.95	42.307	2.5712e-05	99.81	209.788	-95.058	-33.583	-134.496	8.968	-69.567	-134.122	-129.714	62.458	58.429	-129.765	-125.968	-125.256	-120.014	67.202	-121.927	-8191	255	
28623.584	1	1	0	0	0.21366	0.19978	0.18086	0.072898	0.2407	0.43794	0.29188	0.33348	0.25178	0.25759	0.10879	0.16587	0.33524	0.12225	0.044202	0.2033	-0.975	-2.275	-1.7479	-1.8813	-2.4625	-1.4667	-2.2354	-2.3625	-1.5688	-2.3729	-2.0917	-1.7333	-2.4188	-1.6458	-2.0375	-2.4875	194.354	31.395	-137.467	-118.608	25.608	104.854	159.324	177.331	30.225	-1.522	-80.280	-101.594	1.832	67.377	11.591	135.945	0.00068378	0.0011442	0.00045897	1091.5	4.8729e-06	1.8827e-05	1697.7	340.96	7.777e-06	1.2502e-05	689.67	273.63	128.81	47.172	6.7971e-07	114.31	0.0022031	0.0023415	0.00066778	981.06	2.5704e-05	2.5708e-05	1471.6	301.52	2.478e-05	2.4294e-05	607.45	240.72	118.36	42.711	2.3828e-05	100.34	-142.061	-45.130	-16.318	-134.431	65.887	113.669	-134.371	-128.840	-46.929	-141.646	-129.556	-125.376	-125.973	-120.742	137.631	-121.917	-8191	255	
28623.680	1	1	0	0	0.14478	0.24698	0.17285	0.23075	0.19708	0.35443	0.48487	0.22051	0.21348	0.24604	0.052216	0.092497	0.42866	0.33744	0.078865	0.26175	-1.1021	-2.2292	-1.7563	-1.7396	-2.4583	-1.8083	-2.2292	-2.5104	-1.3646	-2.4604	-2.2062	-1.6833	-2.2583	-1.8604	-1.4833	-2.3729	-138.133	-118.831	121.247	211.945	-141.552	7.837	171.798	124.225	-65.752	-45.441	67.079	-55.127	-126.973	188.703	74.552	127.605	0.00044318	0.0014099	0.00036708	1106.1	1.7705e-05	9.915e-06	1713.2	347.18	1.788e-06	1.0388e-05	698.9	277.88	132.18	47.373	1.7045e-05	115.6	0.0020325	0.0021592	0.00062024	986.37	2.3104e-05	2.3232e-05	1486.6	306.1	2.2745e-05	2.2311e-05	614.84	244.22	119.85	42.801	2.3313e-05	101.32	-130.622	-30.549	-40.765	-134.816	-42.720	31.242	-134.366	-129.537	92.359	48.578	-129.639	-125.490	-125.103	-120.184	15.981	-121.682	-8191	255	
28623.775	1	1	0	0	0.21291	0.030267	0.11759	0.30944	0.2196	0.13569	0.34812	0.23213	0.15852	0.15323	0.22654	0.039235	0.27215	0.17846	0.15631	0.21958	-1.1187	-2.1583	-2.1125	-1.6479	-2.2354	-1.6812	-1.9833	-2.5563	-1.4542	-2.1896	-2.3	-1.625	-2.5396	-1.9167	-1.6396	-2.4583	-77.459	125.767	-89.085	154.584	24.209	-95.446	166.120	-114.675	145.519	110.461	197.638	205.175	-89.513	-30.437	-128.568	200.383	0.00066747	0.002203	0.0005868	1106.4	1.3705e-05	8.684e-06	1704.2	343.15	9.3124e-06	1.0492e-05	686.26	274.88	129.52	47.112	8.2387e-06	114.08	0.0020053	0.0021323	0.00062291	990.32	2.3248e-05	2.4269e-05	1484.9	304.66	2.4038e-05	2.4465e-05	607.72	241	118.65	42.774	2.5602e-05	100.59	206.785	-64.548	-43.938	-134.050	1.422	128.550	-134.304	-129.197	-103.945	-3.380	-130.158	-125.705	-125.965	-120.973	7.938	-121.923	-8191	255	
28623.871	1	1	0	0	0.13195	0.27078	0.10028	0.26256	0.1835	0.1779	0.36741	0.19939	0.42698	0.27756	0.13189	0.40131	0.51437	0.025658	0.33397	0.33258	-1.0458	-2.0521	-2.1562	-1.7208	-2.2167	-1.7729	-1.9729	-2.5667	-1.4688	-1.9396	-2.2875	-1.6417	-2.2958	-2.1312	-1.5812	-2.4875	91.479	95.824	-12.713	188.618	11.197	87.441	118.554	99.658	-4.790	-92.416	-138.196	-140.628	175.292	86.454	169.874	128.439	0.00076959	0.0022514	0.00027971	1101.3	1.6183e-05	2.6315e-06	1679	335.66	5.8299e-06	1.1052e-05	678.01	269.94	128.32	46.305	1.274e-05	113.87	0.0022187	0.0023854	0.00068782	987.7	2.6125e-05	2.7461e-05	1469.7	300.86	2.7262e-05	2.7891e-05	605.99	238.9	118.83	42.647	2.8415e-05	100.87	-138.468	-73.078	-2.746	-134.412	-26.966	-25.208	-134.302	-129.247	-14.070	-79.233	-130.061	-125.919	-125.866	-120.857	-117.783	-122.189	-8191	255	
28623.990	1	1	0	0	0.1472	0.074311	0.044173	0.1594	0.2124	0.24827	0.31426	0.19359	0.23491	0.069958	0.11102	0.17824	0.16341	0.12971	0.16448	0.41731	-1.4979	-1.7333	-2.2812	-1.6292	-1.9958	-2.0104	-1.7896	-2.4958	-1.6021	-1.7938	-2.4771	-1.6542	-2.1688	-2.0125	-1.3687	-2.6208	178.742	-93.201	19.570	157.106	-13.112	178.130	156.992	172.332	162.531	20.122	-130.295	148.848	-72.473	-112.006	158.613	118.648	0.00054345	0.0011453	0.00043545	1087.4	3.7006e-06	1.4744e-05	1675.4	336.2	6.9316e-06	6.6925e-06	679.49	270.35	128.71	46.904	1.77e-05	115.27	0.0023847	0.0025674	0.00071625	982.25	2.6862e-05	2.8581e-05	1468	301.11	2.7449e-05	2.7803e-05	604.61	239.52	118.92	42.839	2.7145e-05	101.46	208.412	-87.014	-80.052	-135.770	-6.506	51.117	-135.167	-130.314	205.980	56.064	-130.265	-126.340	-125.966	-120.621	-89.671	-122.457	-8191	255	
28624.088	1	1	0	0	0.13189	0.21453	0.22127	0.043406	0.30257	0.096875	0.08631	0.11527	0.15021	0.23927	0.092711	0.33327	0.19665	0.2151	0.16835	0.0859	-1.2625	-1.6417	-2.1958	-1.6708	-2.1188	-2.2708	-1.6625	-2.5	-1.9354	-1.6479	-2.5125	-1.6375	-2.0438	-2.2042	-1.3854	-2.5417	-128.062	184.615	188.906	179.906	150.184	164.140	162.435	187.126	200.816	140.641	-49.310	183.118	-79.907	162.563	-49.829	143.862	0.00068053	0.00040786	0.00026386	1096.4	6.4115e-06	1.5957e-05	1688.7	341.96	9.5396e-06	7.6677e-07	692.57	273.89	130.98	46.908	5.592e-06	115.1	0.002332	0.0024499	0.0006863	985.88	2.5848e-05	2.6897e-05	1477.3	303.21	2.6222e-05	2.6299e-05	610.71	241.78	119.86	42.975	2.6154e-05	101.49	207.176	80.404	208.619	-135.441	-89.632	25.719	-135.032	-130.068	173.655	74.944	-130.371	-126.449	-125.853	-121.033	103.047	-122.368	-8191	255	
28624.158	1	1	0	0	0.12011	0.11097	0.29867	0.49829	0.082547	0.082274	0.37945	0.16947	0.11971	0.42182	0.31847	0.38513	0.33215	0.29699	0.18241	0.30305	-1.6229	-1.3708	-2.2854	-1.9896	-2.0167	-2.2313	-1.7354	-2.2875	-1.9562	-1.6562	-2.3354	-1.9875	-1.8958	-2.3146	-1.3521	-2.2854	196.871	174.791	178.656	-144.697	-6.935	49.629	133.750	191.329	-31.772	-98.150	160.472	152.110	-50.552	211.066	-90.448	153.656	0.00085812	0.00013868	0.00043785	1101.4	4.6309e-06	1.8014e-05	1689.5	340.27	1.2405e-05	1.7436e-05	686.43	271.04	127.8	46.535	8.7046e-06	113.84	0.0023207	0.0024602	0.00067635	988.61	2.6769e-05	2.701e-05	1479.1	303.49	2.7173e-05	2.735e-05	606.91	239.94	119.34	42.607	2.7354e-05	100.98	-130.511	147.252	-4.145	-135.288	-89.719	-29.407	-135.285	-129.981	108.287	-26.075	-130.370	-126.657	-126.025	-121.272	-20.689	-122.388	-8191	255	
28624.258	1	1	0	0	0.31858	0.19785	0.15432	0.39408	0.19263	0.14197	0.20883	0.28303	0.24552	0.10639	0.027065	0.12579	0.18758	0.13283	0.18596	0.18514	-1.7313	-1.5854	-2.2625	-1.9333	-1.8646	-2.2479	-1.625	-2.1542	-2.1479	-1.4333	-2.3396	-1.8062	-1.7896	-2.6646	-1.4271	-2.2146	47.312	191.519	-20.191	170.888	45.772	-105.043	91.196	171.199	-49.385	76.857	-80.821	169.392	-113.427	152.836	117.378	163.739	0.00095199	0.001504	0.00052832	1090.8	1.0177e-05	3.3408e-07	1676.6	337.13	2.7852e-06	2.2921e-05	677.76	272.09	127.6	46.587	1.3953e-05	114.52	0.0024034	0.0025443	0.00068432	984.28	2.703e-05	2.746e-05	1467	302.09	2.7269e-05	2.6958e-05	603.15	240	118.25	42.537	2.6582e-05	100.86	203.246	-88.800	17.642	-135.417	-133.188	-95.987	-135.292	-130.059	-78.749	27.846	-130.442	-126.338	-125.934	-121.123	-51.043	-122.337	-8191	255	
28624.377	1	1	0	0	0.20711	0.17037	0.0715	0.16794	0.093443	0.19843	0.33157	0.11596	0.22214	0.061419	0.20814	0.25989	0.19265	0.20486	0.17359	0.24903	-1.7708	-1.25	-2.0812	-1.9458	-1.4625	-2.2687	-1.7437	-2.0208	-2.4646	-1.6208	-2.2979	-2.0604	-1.7792	-2.4188	-1.6958	-2.2146	5.434	108.431	-32.247	153.969	178.194	118.655	139.730	178.326	-144.095	-105.318	197.428	145.244	-144.553	171.703	-99.862	170.232	0.00041621	0.0011338	0.00020531	1091.4	8.8025e-06	1.0239e-05	1669	337.88	1.5265e-05	1.2443e-05	685.92	274.56	128.57	46.925	7.9091e-06	115.02	0.0022726	0.0024187	0.00066919	980.21	2.6397e-05	2.6271e-05	1462.2	300.78	2.6146e-05	2.5811e-05	604.63	240.9	118.63	42.555	2.6092e-05	101.13	-136.911	-54.763	-125.030	-135.694	103.907	44.048	-135.100	-130.027	-93.724	57.356	-130.306	-126.516	-125.730	-120.616	-79.086	-122.625	-8191	255	
28624.473	1	1	0	0	0.11743	0.18918	0.080723	0.13009	0.11902	0.23443	0.27884	0.26663	0.14204	0.16091	0.30892	0.17809	0.25167	0.12837	0.02481	0.33827	-2.0479	-1.4292	-2.1333	-2.1667	-1.6875	-2.2979	-2.0458	-1.7896	-2.3021	-1.4958	-2.4	-2.1896	-1.6063	-2.4104	-1.7792	-1.8521	3.188	15.531	152.592	157.408	-39.402	-89.306	128.826	95.923	-106.409	-72.925	173.998	164.903	-126.695	99.559	144.668	185.580	0.00075208	0.00073067	0.00012384	1105.6	1.0727e-05	1.4986e-05	1677	339.46	1.3408e-05	1.252e-05	687.62	272.53	128.92	46.916	6.818e-06	115.37	0.0022648	0.0024202	0.00065678	988.3	2.6371e-05	2.6466e-05	1474.1	303.54	2.6599e-05	2.6993e-05	610.09	241.13	119.61	42.752	2.7399e-05	101.71	210.875	-36.237	180.258	-135.643	43.697	-106.641	-135.350	-130.179	-83.852	-32.004	-130.233	-126.575	-125.949	-120.979	43.534	-122.532	-8191	255	
28624.568	1	1	0	0	0.075425	0.14682	0.087357	0.3476	0.22792	0.12474	0.23502	0.1559	0.037952	0.064766	0.061162	0.27791	0.044802	0.1531	0.049456	0.35732	-1.9604	-1.5292	-1.9375	-2.1667	-1.3792	-2.1854	-1.9583	-1.7167	-2.275	-1.5979	-1.9792	-2.3125	-1.4375	-2.2021	-1.825	-1.775	205.138	-115.638	-126.511	122.979	113.665	181.675	129.472	162.702	-37.836	-52.291	180.763	-145.797	-89.156	-138.170	-103.036	63.411	0.00063601	0.0025599	0.00053922	1088.7	2.2694e-06	1.0282e-05	1673.6	336.21	1.0884e-05	5.1482e-06	681.75	270.37	128.96	46.379	1.7442e-05	113.8	0.0023253	0.0025052	0.00069754	988.04	2.7559e-05	2.7247e-05	1469.6	302.78	2.7338e-05	2.7855e-05	606.74	240.41	119.24	42.71	2.8415e-05	100.83	201.162	-124.663	24.401	-135.415	-75.820	-44.117	-135.476	-129.554	-15.562	-70.870	-130.229	-126.560	-126.184	-120.838	-37.499	-122.551	-8191	255	
28624.689	1	1	0	0	0.1014	0.2029	0.071085	0.065355	0.25543	0.036146	0.1898	0.054622	0.26101	0.057971	0.24055	0.24355	0.10798	0.10981	0.14545	0.42328	-1.8	-1.4	-1.7812	-2.1458	-1.5	-2.0438	-2.3583	-1.65	-2.2042	-1.6292	-1.8729	-2.5208	-1.6292	-2.1417	-1.7625	-1.5063	70.992	186.799	-9.536	102.935	-100.277	166.975	141.205	112.778	84.755	-144.931	73.380	145.123	194.443	-125.586	209.923	139.863	0.00057037	0.00048338	0.00030265	1080.2	7.2078e-06	1.1185e-05	1655.1	336.01	1.2193e-05	1.1482e-05	672.32	269	127.28	45.848	1.6668e-05	111.81	0.002339	0.0025681	0.00071685	981.61	2.7791e-05	2.777e-05	1459.8	300.72	2.7592e-05	2.8842e-05	601.78	237.77	118.11	42.125	2.8798e-05	99.236	-127.900	-111.216	-126.419	-135.490	114.340	89.441	-135.233	-130.473	-38.041	-81.529	-129.982	-126.734	-126.049	-120.390	33.428	-122.269	-8191	255	
28624.785	1	1	0	0	0.22706	0.24828	0.35815	0.16079	0.025351	0.19983	0.17199	0.23786	0.10401	0.10321	0.37208	0.35277	0.15415	0.22036	0.2544	0.38266	-1.9292	-1.7042	-1.6208	-2.3125	-1.5042	-1.9917	-2.1917	-1.4854	-2.1646	-1.7375	-1.7417	-2.5563	-1.35	-1.8896	-2.1104	-1.5729	207.511	177.548	-142.273	-91.758	179.424	-115.596	152.091	175.782	110.298	31.256	150.040	157.751	53.951	93.053	145.012	154.571	0.00060633	0.0011983	0.00046298	1079.9	9.2742e-06	1.8887e-05	1656.1	333.09	3.5154e-06	1.059e-05	674.46	266.74	125.97	45.721	1.0329e-05	111.57	0.0023794	0.0026225	0.00071701	973.9	2.7379e-05	2.7492e-05	1454.5	297.95	2.6583e-05	2.8003e-05	600.32	236.69	116.92	41.926	2.7416e-05	99.177	-135.291	136.938	-124.058	-135.441	-20.976	62.753	-135.606	-130.061	60.588	4.066	-130.617	-126.451	-126.371	-120.540	80.090	-122.375	-8191	255	
28624.857	1	1	0	0	0.32959	0.18296	0.052452	0.1323	0.49378	0.20026	0.27902	0.28744	0.25407	0.04727	0.082248	0.14441	0.09619	0.28933	0.13319	0.16183	-1.8104	-1.8479	-1.6167	-2.325	-1.7521	-1.6021	-2.5479	-1.4771	-2.1188	-1.9146	-1.5312	-2.6188	-1.6625	-1.7687	-2.1188	-1.5104	-9.564	65.053	179.026	-143.360	-138.016	-92.529	148.338	101.504	-91.655	-114.553	-101.495	145.819	167.140	-107.477	100.778	-102.696	0.00069593	0.00030013	0.0003119	1086.9	6.1268e-06	1.3594e-05	1651.5	335.45	1.2071e-05	1.8987e-05	683.03	272.75	127.55	46.646	1.3842e-05	114.65	0.0022652	0.0025202	0.00068114	977.1	2.6959e-05	2.6763e-05	1456.9	300.13	2.6165e-05	2.7468e-05	606.12	240.12	118.86	42.466	2.6678e-05	101.08	-130.654	-51.350	-37.668	-135.213	61.925	5.284	-135.207	-130.301	-36.384	163.387	-130.461	-126.310	-126.647	-121.085	110.022	-122.707	-8191	255	
28624.977	1	1	0	0	0.056554	0.097533	0.013563	0.10361	0.16714	0.13113	0.065382	0.21937	0.21091	0.13273	0.13031	0.2034	0.41556	0.24259	0.12734	0.11331	-1.8708	-1.9875	-1.3979	-2.3354	-1.6292	-1.7729	-2.4833	-1.55	-2.0708	-1.925	-1.5458	-2.4104	-1.8937	-1.7979	-2.0833	-1.6688	195.198	-126.052	-20.731	163.929	-86.906	-142.687	120.701	-122.333	201.723	-125.934	-57.499	153.164	203.958	170.732	76.634	-133.161	0.00064546	0.0017228	0.00032086	1092.4	4.7785e-06	1.867e-05	1683.7	339.35	7.9727e-06	6.1207e-06	684.67	274.56	128.94	46.688	2.1649e-05	115.08	0.0021951	0.0024436	0.00066427	978.61	2.5896e-05	2.5747e-05	1469.1	301.22	2.4732e-05	2.5495e-05	605.32	240.47	118.93	42.285	2.4436e-05	100.68	-132.854	-68.207	-74.431	-135.519	20.005	37.191	-135.551	-130.309	-72.348	-0.739	-130.562	-126.203	-126.736	-120.900	63.756	-122.607	-8191	255	
28625.072	1	1	0	0	0.20024	0.050088	0.064698	0.038238	0.15164	0.21156	0.1192	0.3523	0.12556	0.12406	0.14529	0.34048	0.15923	0.2763	0.093982	0.36743	-1.4708	-1.9958	-1.4062	-2.375	-1.7646	-1.5646	-2.4625	-1.6271	-2.0208	-2.1958	-1.6083	-2.2125	-1.9188	-1.5625	-2.1813	-1.5396	107.373	-48.631	-63.334	-116.501	-32.532	196.201	159.768	166.582	-112.789	-137.291	61.976	205.474	111.321	7.405	53.542	158.044	0.00064795	0.002184	0.00014312	1091.1	2.021e-05	1.7655e-05	1674.7	338.44	3.1497e-06	1.5301e-05	680.61	272.88	128.04	46.243	8.0494e-06	114.14	0.002044	0.0022609	0.00061715	968.6	2.4431e-05	2.4048e-05	1456.8	299.87	2.3594e-05	2.4714e-05	601.62	238.83	117.61	42.121	2.4091e-05	100.25	-144.637	-96.285	50.614	-135.329	35.112	172.223	-135.276	-130.305	-119.466	-2.708	-130.390	-126.788	-126.451	-120.687	-104.063	-122.699	-8191	255	
28625.168	1	1	0	0	0.18611	0.11814	0.23329	0.1775	0.044715	0.19743	0.33662	0.16633	0.21195	0.25219	0.37466	0.38099	0.33964	0.023199	0.21081	0.037493	-1.4083	-2.1437	-1.2958	-2.1708	-1.7479	-1.4271	-2.4604	-1.5417	-1.6333	-2.1854	-1.8312	-2.1542	-2.0917	-1.6437	-1.9875	-1.9104	112.101	15.863	208.724	135.085	139.707	-39.286	146.817	162.396	136.889	-24.187	193.964	186.676	148.267	124.412	-64.570	132.847	0.00051955	0.0019881	0.0001949	1081.6	3.1889e-06	2.2219e-05	1663.7	334.27	1.5911e-05	2.029e-05	672.21	270.38	127.31	45.963	9.2641e-06	112.92	0.0020978	0.0022841	0.00062924	969.04	2.5296e-05	2.5259e-05	1451	298.1	2.5127e-05	2.591e-05	597.95	237.75	117.5	41.94	2.5117e-05	99.895	-141.235	-77.526	190.219	-135.371	30.939	10.374	-134.953	-130.459	-73.185	-3.071	-130.786	-126.495	-126.546	-121.407	52.971	-122.824	-8191	255	
28625.287	1	1	0	0	0.24626	0.36677	0.1233	0.17923	0.19713	0.093232	0.44904	0.20903	0.27884	0.09908	0.16366	0.31691	0.15236	0.24424	0.15041	0.19332	-1.1375	-2.3167	-1.4708	-2.1146	-2.0167	-1.3083	-2.4375	-1.7687	-1.4396	-2.3146	-1.7146	-1.95	-2.1312	-1.5312	-2.0292	-2.0917	51.538	190.813	81.269	-148.139	47.342	116.891	150.359	191.158	164.782	162.240	129.377	185.179	173.370	62.385	8.076	146.507	0.00059809	0.0023233	0.00020117	1087.6	7.9468e-06	1.5159e-05	1669.8	336.17	1.1018e-05	1.0778e-05	683.72	272.67	128.34	46.897	1.0794e-05	115.39	0.0022042	0.0023432	0.00064999	970.23	2.5779e-05	2.5934e-05	1455.6	300.06	2.5558e-05	2.5633e-05	604.83	240.19	118.82	42.654	2.5369e-05	101.69	210.978	-67.912	109.545	-135.438	-146.041	11.888	-135.088	-130.448	106.388	65.523	-130.544	-126.660	-126.559	-121.444	30.280	-122.675	-8191	255	
28625.385	1	1	0	0	0.019639	0.12055	0.31929	0.33383	0.13976	0.10254	0.14936	0.17969	0.12404	0.16231	0.2745	0.097357	0.02911	0.10554	0.092276	0.21812	-1.1542	-2.2417	-1.7125	-1.7979	-2.1063	-1.2542	-2.4646	-1.7938	-1.4833	-2.075	-1.7771	-1.8479	-2.4646	-1.4646	-1.9146	-2.1312	-95.004	123.968	-75.448	175.134	-103.851	111.613	114.393	-131.875	-26.588	-125.132	165.579	-130.148	184.534	97.084	-100.546	150.133	0.00078146	0.00061301	5.7546e-05	1086.2	1.1601e-05	1.6152e-05	1664.8	338.53	6.6794e-06	1.9609e-05	679.29	274.18	129.9	46.814	1.1663e-05	114.88	0.0021735	0.0023358	0.00066089	976.42	2.5449e-05	2.5639e-05	1458.7	301.61	2.5149e-05	2.4572e-05	605.04	241.25	119.18	42.523	2.4239e-05	100.88	-139.348	-128.781	-9.451	-135.311	-85.747	-88.610	-135.572	-130.224	-18.396	-51.067	-130.434	-126.524	-126.162	-121.055	44.665	-122.998	-8191	255	
28625.455	1	1	0	0	0.15593	0.14888	0.15841	0.25677	0.059805	0.22295	0.3519	0.16942	0.14615	0.19147	0.30887	0.34436	0.1245	0.10814	0.091667	0.29568	-0.99583	-2.3812	-1.5979	-2.0312	-2.1604	-1.4042	-2.2062	-2.2438	-1.4083	-2.2417	-1.8042	-1.8167	-2.2729	-1.4854	-2.0646	-2.3875	41.634	-139.667	-118.529	-117.815	-9.805	196.080	160.715	205.296	95.162	-86.379	-123.899	-135.594	117.724	174.688	-57.878	151.448	0.00051976	0.0015154	0.00027018	1084.6	7.484e-06	1.3594e-05	1667.4	334.7	8.3729e-06	2.028e-06	677.69	269.74	127.98	45.926	5.6858e-06	112.92	0.002128	0.0022476	0.0006407	970.63	2.5054e-05	2.5349e-05	1450.7	299.36	2.5147e-05	2.502e-05	601.3	237.8	117.7	41.933	2.5054e-05	99.579	-147.585	-69.663	-76.310	-135.470	60.472	38.956	-135.364	-130.477	-8.328	-68.577	-130.437	-126.380	-126.336	-121.405	-81.035	-122.463	-8191	255	
28625.553	1	1	0	0	0.16994	0.22569	0.11693	0.24277	0.0067475	0.18171	0.17422	0.23205	0.23034	0.11912	0.11083	0.14582	0.214	0.040588	0.19096	0.31897	-1.0312	-2.1875	-1.6333	-1.675	-2.4333	-1.5312	-2.0479	-2.1667	-1.4396	-2.1479	-1.925	-1.7458	-2.5146	-1.7729	-1.6542	-2.3958	-117.210	167.282	105.975	150.446	73.233	13.215	151.093	119.925	113.667	166.913	204.259	50.809	192.276	-89.925	-64.618	165.706	0.00075105	0.00046797	0.00036372	1081.3	1.838e-05	1.8291e-05	1647.6	333.27	8.9567e-07	1.4503e-05	672.88	269.14	126.62	45.892	5.4886e-06	113.51	0.0021505	0.0022721	0.00065992	966.85	2.4754e-05	2.5679e-05	1445	297.38	2.511e-05	2.5116e-05	597.91	237.31	116.55	41.771	2.5198e-05	99.667	-142.362	-14.917	-120.700	-135.274	33.753	27.111	-135.171	-130.620	-147.620	-114.501	-130.477	-126.414	-126.464	-120.987	14.271	-122.887	-8191	255	
28625.674	1	1	0	0	0.077483	0.10305	0.25808	0.38835	0.29762	0.1229	0.25523	0.11943	0.1398	0.23702	0.19753	0.1124	0.095766	0.11409	0.28362	0.24505	-1.0646	-2.1542	-1.9396	-1.7083	-2.2375	-1.75	-2.0729	-2.3208	-1.2917	-2.2125	-2.1292	-1.6187	-2.3167	-1.7563	-1.5667	-2.6833	108.999	-88.882	46.701	180.628	-141.706	-27.722	147.835	-128.933	-46.360	-54.940	-129.093	204.189	103.661	158.745	73.029	170.714	0.00047408	0.00020619	0.00049366	1078.1	9.208e-06	1.2812e-05	1654.4	331.25	4.3496e-06	9.2085e-06	675.34	269.01	126.74	46.089	8.9473e-06	113.01	0.0021646	0.0022697	0.00065717	964.06	2.4442e-05	2.5564e-05	1446.6	296.15	2.4834e-05	2.4672e-05	599.31	237.54	116.77	41.907	2.5078e-05	99.941	-129.468	-72.904	-41.670	-135.467	86.914	88.274	-135.276	-130.114	182.913	149.798	-130.718	-126.584	-126.483	-121.086	-95.394	-122.665	-8191	255	
28625.770	1	1	0	0	0.057028	0.041294	0.23272	0.052826	0.09564	0.18128	0.41607	0.15375	0.035177	0.29797	0.10991	0.10928	0.1542	0.1857	0.081289	0.18084	-1.0833	-1.8542	-2.1479	-1.4458	-2.2208	-1.7021	-1.6271	-2.5687	-1.6417	-1.8667	-2.1958	-1.6187	-2.3021	-2.0833	-1.5187	-2.6042	-92.620	122.960	34.410	-137.478	-121.957	-97.054	135.705	169.663	-33.124	125.444	202.440	-123.578	51.961	-137.814	134.899	142.967	0.00063119	0.00028539	0.00029175	1078.8	1.3985e-05	7.9723e-06	1642.9	333.04	1.134e-05	1.5445e-05	671.88	267.98	126.5	45.505	9.8614e-06	113.32	0.0021334	0.002317	0.00065687	965.77	2.5167e-05	2.6667e-05	1441.6	296.52	2.5888e-05	2.6176e-05	596.7	236.18	116.47	41.589	2.6174e-05	99.407	-141.073	-81.765	-5.338	-135.512	51.563	106.755	-135.200	-130.396	3.368	19.540	-130.395	-126.983	-126.473	-121.245	85.983	-122.673	-8191	255	
28625.865	1	1	0	0	0.21672	0.14094	0.086645	0.076475	0.17243	0.24537	0.37676	0.20991	0.011854	0.073605	0.11352	0.097076	0.20921	0.17398	0.13057	0.067988	-1.2271	-1.7479	-2.1604	-1.5375	-2.2104	-1.8646	-1.5958	-2.5875	-1.875	-1.7583	-2.3438	-1.7208	-2.0812	-2.0687	-1.3771	-2.4667	-30.781	75.339	-40.194	-49.422	150.969	-26.454	171.936	-83.620	-96.471	13.593	66.777	-15.352	160.671	-108.235	189.077	-105.541	0.00051432	0.0015946	0.00027436	1060.7	1.5298e-05	1.95e-05	1630.8	327.88	4.309e-06	1.1282e-05	659.94	263.99	125.08	44.98	1.6644e-05	111.91	0.0022366	0.0023823	0.00066902	958.45	2.5572e-05	2.6949e-05	1427	292.78	2.6758e-05	2.6865e-05	590.57	233.13	115.48	41.441	2.6932e-05	98.29	199.944	-95.012	-4.685	-135.595	-63.974	-28.282	-135.489	-130.235	196.262	76.432	-130.566	-126.578	-126.210	-121.571	56.739	-122.555	-8191	255	
28625.963	1	1	0	0	0.11366	0.16381	0.26404	0.2808	0.15559	0.18494	0.24265	0.28741	0.21781	0.17247	0.10087	0.28473	0.37767	0.16294	0.24005	0.090217	-1.2833	-1.6562	-2.1667	-1.5396	-1.8583	-2.1958	-1.7104	-2.4167	-1.9979	-1.6187	-2.3646	-1.65	-1.9458	-2.3187	-1.3729	-2.375	151.178	-112.459	-25.825	176.302	204.485	159.792	157.835	171.737	95.973	-147.404	-115.862	125.265	-88.594	-78.411	-38.840	129.573	0.00065187	0.00061156	9.5639e-05	1048	8.7732e-06	1.2771e-05	1621.8	327.16	1.2649e-05	9.0563e-06	656.77	263.38	123.35	44.92	1.4921e-05	111.07	0.0022961	0.0024439	0.00067771	949.64	2.606e-05	2.7291e-05	1423.5	291.06	2.702e-05	2.6909e-05	586.85	232.41	114.78	41.338	2.688e-05	98.051	206.725	3.804	-75.651	-135.381	-34.243	-27.316	-135.317	-130.578	-42.266	51.975	-130.959	-126.683	-126.580	-121.035	-2.390	-122.783	-8191	255	
28626.057	1	1	0	0	0.039888	0.32325	0.26803	0.37412	0.12568	0.28664	0.24644	0.15624	0.26168	0.1321	0.0895	0.23148	0.084821	0.19496	0.2748	0.32387	-1.5896	-1.5438	-2.2354	-1.6583	-1.9229	-2.0417	-1.575	-2.25	-2.0083	-1.3896	-2.5271	-1.6125	-1.8813	-2.3833	-1.2437	-2.4104	95.709	-42.875	184.882	111.282	-126.407	76.601	203.575	149.275	59.173	145.911	106.437	191.208	135.323	-112.656	0.052	87.790	0.00057502	0.0010179	0.00044345	1052	8.5061e-06	7.947e-06	1614.1	327.16	5.6219e-06	7.991e-06	653.73	261.27	123.65	45.026	1.2541e-05	111.89	0.0023117	0.002447	0.00067709	952.79	2.6774e-05	2.74e-05	1420.3	292.48	2.7815e-05	2.7286e-05	585.31	232.82	115.13	41.492	2.6976e-05	98.441	203.165	148.750	-86.171	-135.743	-14.631	-95.873	-135.575	-129.856	-89.245	141.129	-130.221	-126.770	-126.363	-121.409	81.536	-122.789	-8191	255	
28626.152	1	1	0	0	0.25349	0.35216	0.20903	0.12674	0.084255	0.19442	0.29535	0.13686	0.2049	0.25651	0.2061	0.22262	0.36628	0.3026	0.13363	0.23775	-1.7521	-1.3542	-2.2854	-1.5854	-1.8937	-2.2875	-1.8583	-2.2458	-1.8458	-1.3771	-2.3312	-1.8917	-1.6812	-2.3937	-1.525	-2.2313	-95.875	181.238	167.317	174.822	170.081	82.918	160.135	129.869	109.602	-40.078	111.084	151.195	197.021	136.481	-58.540	125.655	0.00079712	0.00073647	0.00096644	1062.2	4.9673e-06	1.1666e-05	1626.9	326.31	1.0117e-05	2.7219e-05	658.61	262.84	124.35	44.813	2.4634e-05	109.88	0.0023185	0.0024748	0.0006787	955.19	2.6569e-05	2.7197e-05	1427.3	292.29	2.79e-05	2.7506e-05	587.59	232.84	115.92	41.273	2.8694e-05	97.951	-147.529	-54.944	-54.345	-135.619	-13.409	17.267	-135.354	-130.346	51.734	29.017	-130.606	-126.708	-126.172	-121.185	-69.727	-122.237	-8191	255	
28626.250	1	1	0	0	0.21343	0.2174	0.036772	0.2607	0.27209	0.29157	0.23597	0.049655	0.10622	0.27621	0.14084	0.17369	0.11962	0.22917	0.11282	0.1578	-1.7458	-1.3458	-2.2458	-1.8771	-1.5208	-2.3104	-1.8083	-1.9521	-2.0708	-1.4333	-2.3021	-2.0667	-1.6979	-2.2354	-1.75	-2.0292	160.592	-116.787	-23.357	208.492	150.755	-25.606	207.282	13.329	-70.932	110.334	148.256	-147.702	-18.051	189.061	103.312	137.270	0.00053337	0.0010171	0.00024571	1052.2	1.0755e-05	1.807e-05	1603.8	323.53	6.8861e-06	1.2367e-05	655.85	263.15	123.57	44.586	1.6855e-05	109.61	0.0024642	0.0026417	0.0007179	953.17	2.8495e-05	2.8468e-05	1415.1	291.6	2.8173e-05	2.8113e-05	585.22	232.01	115.53	41.214	2.8694e-05	97.39	-145.344	-115.836	-25.598	-135.429	170.026	6.840	-135.129	-130.469	-135.154	141.083	-130.265	-126.626	-126.213	-121.083	13.506	-122.514	-8191	255	
28626.369	1	1	0	0	0.065876	0.093101	0.21758	0.2474	0.24219	0.24838	0.3358	0.1159	0.24262	0.14745	0.24277	0.27911	0.23011	0.1747	0.030443	0.25052	-1.9271	-1.3687	-1.95	-1.9542	-1.4	-2.3354	-1.9062	-1.8687	-2.3312	-1.5938	-2.0687	-2.1792	-1.5021	-2.4958	-1.6167	-1.9125	83.756	2.658	26.176	129.112	40.159	-9.055	143.310	153.086	160.308	-70.547	185.709	189.613	191.322	-136.536	193.518	186.544	0.00056539	0.0018595	0.00025624	1048.4	7.805e-06	3.1226e-05	1603.3	322.96	8.7211e-06	1.9192e-05	653.24	257.44	121.11	43.778	1.7574e-05	108.6	0.0024383	0.0026887	0.00075142	956.82	2.9814e-05	3.0217e-05	1414.7	292.18	3.0388e-05	3.0444e-05	585.08	229.53	114.38	40.607	2.8507e-05	96.303	-141.295	0.259	83.531	-135.732	19.031	61.648	-135.419	-130.242	-24.661	39.121	-130.559	-126.383	-126.336	-121.011	18.295	-122.497	-8191	255	
28626.463	1	1	0	0	0.24132	0.17216	0.26834	0.13057	0.3509	0.11026	0.05454	0.26894	0.043204	0.12123	0.15014	0.14858	0.08264	0.23428	0.037724	0.20892	-1.8062	-1.3687	-2.1583	-2.1167	-1.4188	-2.2104	-1.9729	-1.825	-2.2417	-1.3833	-2.1417	-2.3396	-1.4771	-2.2062	-1.7104	-1.6396	182.349	-137.803	137.989	149.598	-142.482	177.353	183.741	112.147	-97.648	8.440	0.505	73.209	161.879	129.986	204.945	184.707	0.00050965	0.00038229	0.00034298	1039.2	1.1328e-05	1.3356e-05	1602.7	326.1	7.0605e-06	5.0536e-06	655.87	261.64	121.66	44.211	6.9291e-06	110.61	0.0023507	0.0025344	0.00069946	949.06	2.7441e-05	2.7389e-05	1413.7	293.31	2.8082e-05	2.8935e-05	587.7	232.55	114.97	41.213	3.0023e-05	98.12	202.206	128.100	92.115	-135.316	30.687	25.624	-135.460	-130.167	6.676	-34.267	-130.564	-126.746	-126.358	-121.296	57.476	-122.544	-8191	255	
28626.559	1	1	0	0	0.20527	0.09001	0.18193	0.14839	0.22538	0.13864	0.17971	0.22217	0.16125	0.25549	0.074991	0.24438	0.14423	0.20539	0.17563	0.28384	-2.1375	-1.3292	-1.775	-2.2583	-1.3771	-2.2292	-2.1646	-1.675	-2.3104	-1.5208	-1.9979	-2.4188	-1.5083	-2.1688	-1.9646	-1.6313	8.319	-39.140	-73.865	147.607	172.567	150.080	152.523	147.903	-25.658	178.931	-139.376	143.368	-138.991	56.634	109.268	158.816	0.00045015	0.0025889	0.000524	1047.8	1.5332e-05	2.082e-05	1609.1	326.89	8.223e-06	1.2276e-05	661.97	262.87	122.65	44.486	7.219e-06	109.46	0.0025058	0.0027651	0.00076451	959.62	3.0127e-05	3.0292e-05	1426.5	295.69	3.0096e-05	3.1488e-05	597.08	235.05	117.32	41.896	3.2802e-05	98.314	-140.483	-66.398	-56.243	-135.821	62.998	64.301	-135.328	-130.288	14.738	115.570	-130.344	-126.430	-126.122	-121.033	-23.361	-122.500	-8191	255	
28626.656	1	1	0	0	0.23198	0.10152	0.10804	0.078854	0.18839	0.086049	0.13075	0.12822	0.038794	0.095787	0.36768	0.16375	0.22105	0.20984	0.22679	0.30279	-2.0333	-1.7687	-1.6	-2.4062	-1.4875	-2.1604	-2.2313	-1.675	-2.2125	-1.7771	-1.7979	-2.4354	-1.5583	-2.0771	-2.1292	-1.7542	-21.156	-47.286	183.681	181.943	207.654	-53.578	99.593	66.101	-21.104	55.006	175.567	133.660	-110.241	-140.388	-42.101	194.110	0.00057168	0.002201	0.00043478	1051.4	1.5817e-05	1.0001e-05	1613.5	326.3	3.8022e-06	9.8306e-06	645.43	257.89	122.15	44.548	6.8088e-06	109.35	0.002752	0.0030505	0.00084975	965.37	3.2492e-05	3.2864e-05	1423.6	295.6	3.1581e-05	3.2564e-05	590.34	232.33	116.27	41.697	3.2218e-05	97.278	-127.831	-92.946	30.141	-135.776	189.913	91.602	-135.423	-130.298	33.667	3.629	-130.642	-126.664	-126.598	-120.922	-39.780	-122.393	-8191	255	
28626.752	1	1	0	0	0.055629	0.17287	0.21932	0.33713	0.27898	0.28175	0.16964	0.32834	0.32284	0.097292	0.25679	0.23135	0.4985	0.10994	0.079201	0.36249	-1.8521	-1.6771	-1.4062	-2.3979	-1.6042	-1.8479	-2.3417	-1.7729	-2.1604	-1.9083	-1.4292	-2.3125	-1.5771	-1.8083	-2.3479	-1.6313	-107.284	-75.059	203.720	97.766	129.200	-5.641	161.885	202.390	133.180	45.879	200.237	190.614	207.850	133.485	-16.391	155.723	0.00069055	0.0010562	0.00053021	1039.4	2.3974e-05	1.9595e-05	1589.7	325.12	1.7743e-05	1.3383e-05	653.88	257.53	123.79	44.724	1.4025e-05	109.41	0.0026803	0.0029699	0.00082678	957.13	3.2246e-05	3.2293e-05	1415.9	294.92	3.1299e-05	3.2758e-05	590.02	231.45	116.52	41.644	3.0395e-05	97.826	211.215	-63.798	-23.980	-135.123	-14.909	36.822	-135.382	-130.062	152.339	54.974	-130.362	-126.502	-126.159	-120.734	-141.976	-122.544	-8191	255	
28626.848	1	1	0	0	0.15903	0.2589	0.31728	0.29012	0.11497	0.30495	0.14874	0.2237	0.23945	0.14804	0.20412	0.045045	0.28721	0.2331	0.058688	0.25681	-1.6688	-2.1458	-1.2625	-2.4229	-1.7333	-1.8	-2.3125	-1.6021	-1.9479	-1.9688	-1.4792	-2.3854	-1.7521	-1.6396	-2.3229	-1.725	179.298	-24.431	-74.687	198.616	-127.180	196.190	119.229	129.363	195.382	-77.750	168.455	-0.706	-45.967	194.330	-20.592	185.495	0.00068448	0.0012214	0.0001227	1039.2	1.1837e-05	2.4326e-05	1590.8	324.57	1.123e-05	1.1105e-05	657.25	259.75	122.64	44.935	1.3623e-05	109.2	0.0025532	0.002784	0.00076639	947.82	3.0368e-05	3.0297e-05	1409.4	293.12	2.9967e-05	3.1488e-05	590.21	232.45	116.88	41.886	3.1636e-05	98.025	-137.730	-17.522	16.818	-135.666	-88.471	47.312	-135.142	-130.008	151.137	-118.695	-130.379	-126.793	-126.267	-121.000	-79.326	-122.559	-8191	255	
28626.969	1	1	0	0	0.054708	0.18796	0.091666	0.11651	0.31433	0.037868	0.2734	0.34984	0.20135	0.1182	0.31401	0.40703	0.18824	0.16063	0.14245	0.39285	-1.4688	-2.2729	-1.3	-2.3583	-1.7354	-1.5479	-2.4125	-1.5625	-1.7667	-2.2521	-1.6167	-2.2938	-1.9667	-1.5125	-2.2667	-1.7021	133.708	128.731	153.225	28.338	-61.372	114.239	95.652	132.173	51.143	86.408	138.421	153.966	-122.232	121.600	-80.997	158.895	0.00067207	0.0019284	9.8505e-05	1047.3	1.8789e-05	1.031e-05	1599.8	326.35	7.6943e-06	1.6576e-06	661.86	263.9	124.75	45.031	3.3095e-05	109.65	0.0026642	0.0029563	0.00080047	958.37	3.1462e-05	3.1549e-05	1418.9	295.98	3.1151e-05	3.1813e-05	595.82	234.67	118.23	42.293	3.2204e-05	98.342	204.967	-54.619	-143.495	-135.549	25.257	-61.441	-135.291	-130.323	136.930	-129.580	-130.405	-126.781	-126.792	-120.917	58.283	-122.953	-8191	255	
28627.064	1	1	0	0	0.17413	0.24688	0.31667	0.19218	0.1235	0.21263	0.26858	0.18706	0.29173	0.25891	0.16133	0.084675	0.1619	0.13874	0.040254	0.17017	-1.4042	-2.3063	-1.3354	-2.2875	-1.8729	-1.4417	-2.3688	-1.7396	-1.6667	-1.975	-1.5458	-2.2042	-1.8979	-1.4646	-2.325	-1.8333	191.144	-68.445	38.005	184.467	104.957	43.369	155.671	199.702	88.181	-50.069	50.069	180.205	-103.107	-138.434	-32.610	107.541	0.00079295	0.0007966	0.00017068	1032	1.4915e-05	1.3537e-05	1603.5	325.05	1.4417e-05	9.9724e-06	653.02	258.9	122.55	44.386	2.4318e-05	107.82	0.0027608	0.003044	0.00084077	957.12	3.3493e-05	3.3214e-05	1421	296.44	3.2755e-05	3.3232e-05	591.44	232.62	117.4	41.891	3.2851e-05	96.866	-128.994	-36.083	169.910	-135.139	33.688	147.257	-135.590	-130.516	-56.622	52.004	-130.458	-126.498	-125.856	-121.064	97.134	-122.892	-8191	255	
28627.160	1	1	0	0	0.22129	0.077921	0.18785	0.073886	0.035935	0.095975	0.3994	0.10854	0.28537	0.21911	0.15693	0.35606	0.21119	0.48732	0.18242	0.081367	-1.1667	-2.0479	-1.775	-1.9917	-2.2667	-1.5146	-2.2896	-1.8167	-1.5354	-2.1042	-1.6562	-2.075	-2.0708	-1.4583	-2.1833	-1.9292	42.242	202.375	-13.272	168.936	16.433	-34.208	150.959	60.874	-3.616	96.687	121.673	210.031	-96.005	195.990	104.885	132.115	0.00078108	0.0026371	0.00040327	1029.4	1.4173e-05	8.9327e-06	1579.2	322.51	1.2559e-05	1.4136e-05	650.69	256.41	121.95	44.127	1.9666e-05	107.47	0.0028296	0.0031072	0.00086204	953.3	3.4097e-05	3.4328e-05	1408.7	294.53	3.3699e-05	3.3788e-05	590.26	230.36	116.76	41.46	3.296e-05	96.326	-146.604	-99.385	79.862	-135.472	33.187	198.081	-135.356	-130.235	-30.481	118.443	-130.860	-126.441	-126.281	-121.111	84.153	-122.620	-8191	255	
28627.258	1	1	0	0	0.078799	0.044586	0.22561	0.14185	0.050684	0.10253	0.30514	0.17107	0.11602	0.20787	0.30541	0.31236	0.18164	0.19788	0.20514	0.2117	-1.0958	-2.3875	-1.6208	-1.9438	-2.2208	-1.3687	-2.3021	-2.1063	-1.5833	-2.4104	-1.8333	-1.9625	-2.3021	-1.5792	-2.025	-2.0687	57.519	-61.998	-37.603	124.247	175.850	-36.061	165.823	163.487	-144.719	90.106	135.633	166.648	103.521	175.853	78.384	170.046	0.00072304	0.00017894	0.00038628	1027.9	4.9278e-06	5.7166e-06	1585.6	318.81	1.9051e-05	1.3667e-05	645.52	255.59	121.09	43.793	8.0624e-06	107.36	0.0028606	0.0030569	0.0008697	951.74	3.3939e-05	3.3463e-05	1407.9	292.29	3.3089e-05	3.2599e-05	587.44	230.03	116.02	41.193	3.2532e-05	96.135	-122.928	-36.431	-54.412	-135.418	168.783	-85.428	-135.244	-130.262	76.785	199.732	-130.547	-126.728	-126.460	-121.135	-89.552	-122.656	-8191	255	
28627.328	1	1	0	0	0.12381	0.29047	0.14627	0.20087	0.29213	0.19864	0.47857	0.1008	0.20901	0.30945	0.31891	0.4469	0.12815	0.5059	0.26406	0.30702	-1.0063	-2.2875	-1.6354	-1.6667	-2.1646	-1.4521	-2.1813	-2.2167	-1.2771	-2.2229	-1.8667	-1.8917	-2.5021	-1.7208	-2.0271	-2.2833	-70.912	40.130	200.725	164.987	-85.005	162.961	135.499	-123.159	97.722	-68.967	169.666	-139.781	202.668	208.012	-119.590	116.983	0.00059222	0.0021906	0.00034718	1036.7	2.4238e-05	2.0176e-05	1592.9	324.2	5.7427e-06	1.6511e-06	651.73	259.51	122.44	44.217	1.3002e-05	108.3	0.0027343	0.0029339	0.00083015	954.76	3.1896e-05	3.2143e-05	1409.8	295.96	3.1625e-05	3.1258e-05	591.28	232.09	116.83	41.612	3.1854e-05	97.061	206.553	-53.382	-21.335	-135.605	55.252	76.890	-135.383	-130.729	-5.772	48.815	-130.652	-126.736	-126.238	-121.713	173.186	-123.010	-8191	255	
28627.447	1	1	0	0	0.23286	0.083882	0.078892	0.35996	0.31943	0.13394	0.20709	0.34067	0.13926	0.094202	0.24722	0.283	0.12331	0.24038	0.45252	0.26653	-1.1292	-2.2083	-1.9562	-1.4771	-2.4167	-1.4604	-1.9396	-2.0604	-1.4625	-2.0354	-1.9688	-1.8438	-2.3563	-1.5917	-1.725	-2.475	92.856	30.164	50.575	185.344	139.471	125.244	186.723	184.105	36.178	114.365	205.351	-147.444	126.948	201.791	-26.963	152.703	0.00036702	0.0017076	0.00042198	1037.8	2.2385e-05	1.2379e-05	1594.2	325.39	7.8035e-06	8.4226e-06	652	260.37	123	44.364	6.354e-06	107.01	0.0027254	0.0028849	0.00082364	958.07	3.1079e-05	3.1958e-05	1410.8	295.63	3.0928e-05	3.0639e-05	589.51	232.08	116.45	41.405	3.0869e-05	95.986	211.181	-132.419	150.560	-135.748	37.791	91.377	-135.471	-130.621	-85.010	-13.070	-130.719	-126.713	-126.459	-121.256	-68.183	-122.568	-8191	255	
28627.545	1	1	0	0	0.28938	0.18511	0.076782	0.32756	0.22624	0.18482	0.16327	0.26867	0.092012	0.040407	0.26737	0.1308	0.2963	0.042388	0.17532	0.52778	-1.0396	-2.0375	-1.9458	-1.5708	-2.3187	-1.6417	-1.8604	-2.4479	-1.4062	-2.0292	-2.3271	-1.6063	-2.3146	-1.8062	-1.7	-2.4583	133.541	161.738	111.133	174.267	-35.454	108.589	105.770	-71.081	91.600	34.688	192.924	173.417	-92.271	132.375	-49.869	167.527	0.00064223	0.0011441	0.00061002	1030.9	8.8909e-06	4.1235e-06	1591.3	325.63	1.5483e-05	4.6102e-06	648.93	256.22	122.79	43.692	3.3813e-05	106.48	0.0025771	0.002746	0.00079165	946.47	2.988e-05	3.1268e-05	1407.7	293.66	2.9926e-05	2.9966e-05	585.8	229.06	115.23	40.695	2.9904e-05	95.183	-103.081	-92.874	-17.329	-135.274	-69.809	-83.088	-135.273	-130.498	15.228	-0.626	-130.782	-126.559	-126.271	-121.259	30.128	-122.676	-8191	255	
28627.641	1	1	0	0	0.23387	0.25615	0.3204	0.14203	0.1213	0.23233	0.2178	0.45164	0.021866	0.36228	0.042952	0.046826	0.1094	0.19548	0.15297	0.33687	-1.0771	-2.0583	-1.8917	-1.5292	-2.2875	-1.6708	-1.8708	-2.425	-1.5063	-1.7104	-2.1708	-1.525	-2.1917	-1.8417	-1.4833	-2.4646	73.770	-127.300	198.888	188.206	200.546	-18.862	113.487	200.826	-97.983	49.647	126.411	20.200	86.241	-71.637	-59.755	90.041	0.00039439	0.00021519	0.00077552	1040.3	9.6556e-06	4.1151e-06	1571.2	323.41	7.9389e-06	2.0768e-05	649.3	254.88	120.94	43.666	9.0992e-06	105.61	0.002552	0.0027445	0.00078041	947.03	2.9653e-05	3.0988e-05	1401.5	292.22	3.0034e-05	3.0298e-05	585.69	228.66	114.48	40.675	3.0727e-05	94.935	-141.333	53.407	-116.067	-135.620	71.494	169.959	-135.513	-130.463	-4.275	-5.058	-130.640	-126.551	-126.326	-120.925	91.688	-122.554	-8191	255	
28627.760	1	1	0	0	0.054415	0.19297	0.10616	0.36076	0.23669	0.22549	0.30968	0.34129	0.18044	0.053378	0.45314	0.35593	0.02617	0.14846	0.23585	0.14562	-1.25	-1.6958	-2.3396	-1.4646	-2.1437	-1.8312	-1.7708	-2.2438	-1.4021	-1.5708	-2.3792	-1.4312	-2.2562	-2.2958	-1.275	-2.2167	3.424	1.833	56.855	181.939	141.749	41.713	166.466	135.577	72.075	86.869	155.791	195.381	177.934	192.457	41.986	174.598	0.00064239	0.00077026	0.00012753	1039.9	9.928e-06	2.0503e-05	1594.1	322.61	2.6154e-06	1.1027e-05	654.92	256.4	121.59	43.749	2.0278e-05	106.99	0.0026102	0.0028437	0.00079501	950.1	3.0716e-05	3.2434e-05	1409.7	293.02	3.1689e-05	3.1701e-05	589.98	229.93	115.79	40.975	3.1884e-05	95.336	-137.013	-32.061	-128.176	-135.468	7.971	13.432	-135.472	-130.385	-122.917	190.572	-130.358	-126.430	-126.392	-121.335	-28.708	-122.754	-8191	255	
28627.857	1	1	0	0	0.36995	0.19836	0.26478	0.25234	0.30452	0.18925	0.41016	0.12893	0.068162	0.17214	0.19978	0.24814	0.12149	0.26111	0.2344	0.3184	-1.3333	-1.425	-2.2167	-1.4937	-2.0438	-2.1729	-1.8167	-2.3396	-1.5625	-1.5917	-2.4083	-1.5896	-1.9271	-2.1104	-1.4021	-2.575	112.600	-147.693	207.515	143.853	-33.482	187.696	138.977	183.772	-13.637	-104.618	167.413	154.529	-90.120	-62.969	122.561	131.543	0.00068394	0.0010688	0.00048572	1034.9	7.4004e-06	2.0635e-05	1592.1	327.28	1.2949e-05	4.4837e-06	649.8	255.25	120.78	42.989	6.5185e-06	104.94	0.0027144	0.0029339	0.00081028	948.96	3.1278e-05	3.2165e-05	1409.9	295.49	3.1966e-05	3.1595e-05	587.49	228.66	114.7	40.579	3.111e-05	94.14	-147.323	-63.753	-118.676	-136.037	185.082	30.149	-135.338	-130.458	92.496	59.480	-130.697	-126.742	-126.538	-120.977	90.975	-122.756	-8191	255	
28627.953	1	1	0	0	0.1084	0.17613	0.036811	0.18918	0.25518	0.0023838	0.28335	0.32328	0.039671	0.085428	0.08133	0.46623	0.46337	0.2054	0.22674	0.20909	-1.5583	-1.5271	-2.1729	-1.6896	-1.6917	-2.1208	-1.4438	-2.1437	-1.9375	-1.4667	-2.5458	-1.7458	-1.6729	-2.1437	-1.3521	-2.3667	134.386	90.018	116.398	146.725	184.150	180.000	188.116	-127.392	42.723	59.630	146.630	180.371	-141.422	-133.709	-75.207	-136.950	0.0005664	0.0015883	0.00022994	1023.1	1.2088e-05	1.493e-05	1578.7	321.5	1.0047e-05	1.6179e-05	645.54	252	120.18	42.672	2.9188e-06	103.93	0.0027078	0.0028836	0.0007986	945.97	3.091e-05	3.1814e-05	1398.1	292.63	3.2001e-05	3.1683e-05	581.01	226.45	113.96	40.097	3.1603e-05	93.037	-142.705	-68.246	152.344	-135.870	3.882	-34.332	-135.453	-130.709	173.011	-78.686	-130.865	-126.942	-126.640	-121.022	-36.422	-122.319	-8191	255	
28628.049	1	1	0	0	0.39784	0.094733	0.10999	0.1289	0.21385	0.21818	0.30851	0.17751	0.27853	0.042163	0.20348	0.30672	0.169	0.12052	0.032661	0.14918	-1.8021	-1.3604	-2.4271	-1.7667	-1.7062	-2.1229	-1.8	-2.0479	-1.9396	-1.3021	-2.6063	-1.8312	-1.5875	-2.3396	-1.5396	-1.9438	166.696	-112.425	145.251	-124.175	34.280	26.836	162.181	97.225	6.854	-126.471	162.531	183.934	203.391	160.707	102.840	25.508	0.00071957	0.0011872	0.0010091	1019.2	9.6528e-06	8.7141e-06	1570.4	317.6	8.7387e-06	1.1923e-05	637	249.28	119.14	41.901	1.042e-05	103.6	0.0027317	0.0029354	0.00081265	938.02	3.184e-05	3.2322e-05	1392.8	290.59	3.2884e-05	3.2727e-05	579.07	225.15	114.06	39.914	3.3091e-05	92.975	193.901	-70.057	210.270	-135.821	-62.863	-60.663	-135.451	-130.146	-42.334	-12.717	-130.130	-126.900	-126.234	-121.827	1.541	-122.624	-8191	255	
28628.145	1	1	0	0	0.27602	0.059283	0.18568	0.30598	0.19412	0.15891	0.31251	0.32201	0.099515	0.071775	0.17814	0.19945	0.097753	0.23449	0.28164	0.19203	-1.6979	-1.3792	-2.2896	-1.95	-1.4792	-2.1646	-1.5521	-1.9604	-2.1521	-1.4583	-2.2958	-2.1583	-1.425	-2.3958	-1.6229	-1.8813	14.454	209.097	70.575	166.316	-14.825	105.533	134.749	-145.104	123.070	-58.140	188.575	187.841	-77.500	-88.819	130.970	168.906	0.0006397	0.0017379	0.00079939	1019	1.4145e-05	1.8398e-05	1554.3	318.59	2.5146e-05	5.9634e-06	644.01	251.89	119.55	42.361	1.1601e-05	104.27	0.0028876	0.0030843	0.00086591	944.5	3.4282e-05	3.4682e-05	1393	292.97	3.536e-05	3.4884e-05	586.51	227.84	115.39	40.587	3.5509e-05	94.209	185.298	62.290	-54.642	-135.429	-27.212	-44.765	-135.604	-130.366	-51.923	116.501	-130.870	-126.876	-126.390	-121.207	-114.543	-122.359	-8191	255	
28628.240	1	1	0	0	0.047371	0.28988	0.38726	0.087052	0.19828	0.20515	0.33392	0.13613	0.078792	0.13438	0.10471	0.15577	0.1067	0.27884	0.071799	0.36003	-1.9125	-1.4625	-1.9917	-2.1104	-1.6187	-2.2396	-1.8604	-1.8292	-2.05	-1.4646	-2.1917	-2.3333	-1.475	-2.3833	-1.5896	-1.7875	136.633	-12.256	-45.407	-122.121	22.054	-55.332	140.623	24.039	134.900	-115.741	-34.180	-140.537	-94.459	200.735	147.099	155.185	0.00058897	0.001546	0.00027495	1010.9	7.272e-06	9.2218e-06	1558	318.12	2.2636e-06	1.5102e-05	634.5	249.63	118	42.077	1.3937e-05	102.58	0.0030268	0.0033233	0.00091656	948.17	3.6641e-05	3.6779e-05	1397.4	294.56	3.775e-05	3.781e-05	588.27	227.4	115.92	40.713	3.8738e-05	93.917	199.603	-49.807	17.687	-136.041	-73.598	183.859	-135.362	-130.396	48.002	27.308	-130.628	-126.889	-126.089	-121.001	11.211	-122.429	-8191	255	
28628.338	1	1	0	0	0.27438	0.13551	0.14125	0.26614	0.088144	0.35005	0.43663	0.25025	0.16058	0.20472	0.42401	0.13936	0.21319	0.19447	0.074511	0.034122	-1.9271	-1.5229	-1.6646	-2.0771	-1.4271	-2.3146	-1.9646	-1.7271	-2.2938	-1.6375	-2.0187	-2.2687	-1.4854	-2.3333	-1.8312	-1.6729	101.799	150.707	49.028	159.929	40.499	54.011	106.740	163.372	-13.088	23.715	181.325	-105.787	159.620	144.184	195.827	74.646	0.00071339	0.00056587	0.0008549	1004.4	1.1641e-05	1.9884e-05	1536.9	314.48	4.359e-06	7.8406e-06	628.09	246.6	116.81	42.158	2.4159e-06	102.18	0.0032256	0.0035435	0.00097314	946.25	3.8677e-05	3.8633e-05	1388	293.45	3.9581e-05	4.0449e-05	585.53	225.94	115.45	40.919	4.1135e-05	93.675	-138.649	-135.106	-58.320	-135.234	-57.179	30.634	-135.514	-130.552	-56.821	-115.214	-130.667	-126.719	-126.101	-120.603	-41.425	-122.450	-8191	255	
28628.455	1	1	0	0	0.11958	0.29375	0.15974	0.068226	0.17351	0.16811	0.1562	0.25148	0.29528	0.2216	0.10173	0.29156	0.40446	0.33077	0.074202	0.15013	-1.9125	-1.4667	-1.7208	-2.3583	-1.4792	-2.35	-2.0938	-1.6333	-2.3667	-1.7687	-1.8625	-2.3563	-1.4792	-2.2917	-1.9125	-1.6833	-32.702	-93.650	-62.330	110.113	-25.561	-73.263	134.437	185.836	187.330	35.580	-119.761	192.935	159.573	-134.187	-101.915	123.307	0.00063102	0.0017944	0.00049805	994.61	1.499e-05	1.0881e-05	1517.8	315.44	6.4963e-06	2.9084e-06	631.95	244.57	115.13	42.219	8.128e-06	102.99	0.0033693	0.0036815	0.0010264	937.42	4.0223e-05	3.9797e-05	1374.1	292.71	3.9252e-05	4.0835e-05	583.6	224.77	114.39	40.9	4.0804e-05	94.226	-140.553	-45.019	50.255	-135.613	-7.013	-131.402	-135.907	-130.151	-45.015	74.187	-131.075	-126.862	-126.585	-120.688	-61.267	-122.771	-8191	255	
28628.553	1	1	0	0	0.16476	0.24945	0.11787	0.25808	0.2162	0.10301	0.088364	0.11814	0.13842	0.098765	0.26052	0.28011	0.17158	0.11355	0.064978	0.45354	-1.8687	-1.6292	-1.6417	-2.3896	-1.6417	-2.0354	-2.0604	-1.5646	-2.3063	-1.6833	-1.7458	-2.4604	-1.6313	-2.2604	-2.1813	-1.5938	179.495	-83.433	-6.017	141.408	-114.757	78.399	165.473	-129.131	58.919	56.203	136.419	142.885	102.876	-103.779	170.712	159.269	0.00070305	0.0030237	0.0002227	982.79	2.0534e-05	1.0048e-05	1516.4	314.83	4.9367e-06	9.4325e-06	635.63	250.88	118.84	43.705	7.5717e-06	107.75	0.003333	0.0036817	0.0010057	926.28	3.8629e-05	3.8374e-05	1370.7	291.6	3.6199e-05	3.6711e-05	582.3	226.55	114.46	41.121	3.2538e-05	95.946	189.956	-70.257	-134.781	-135.766	38.421	66.959	-135.233	-130.614	-116.598	-142.981	-130.639	-126.530	-126.554	-120.743	-127.338	-122.723	-8191	255	
28628.648	1	1	0	0	0.076414	0.14882	0.17377	0.19159	0.040114	0.14577	0.20246	0.030649	0.062093	0.30523	0.28371	0.40252	0.20065	0.071852	0.15305	0.40193	-1.8542	-1.8937	-1.5063	-2.3937	-1.4458	-1.9167	-2.4625	-1.5229	-2.2042	-2.1083	-1.6333	-2.5104	-1.7646	-1.9396	-2.0042	-1.6542	-108.127	-76.017	-41.829	162.497	149.023	105.065	109.474	93.420	185.330	-123.536	161.443	181.455	179.751	121.776	-67.313	157.568	0.00052191	0.0016514	0.00050601	999.65	6.2273e-06	2.4325e-05	1558.1	325.9	7.0792e-06	2.189e-05	648.62	258.03	122.12	45.111	1.2927e-05	109.08	0.0025658	0.0028012	0.00075323	913.96	2.8946e-05	2.8687e-05	1374.1	293.63	2.7575e-05	2.8585e-05	581.84	229.3	114.5	41.407	2.7135e-05	96.504	200.100	-62.075	141.354	-135.880	6.302	5.689	-135.361	-130.185	40.339	8.327	-130.632	-126.597	-126.323	-120.613	107.876	-123.035	-8191	255	
28628.744	1	1	0	0	0.23537	0.12738	0.11246	0.094954	0.085263	0.10347	0.21818	0.3197	0.23393	0.068994	0.2278	0.14662	0.17173	0.3778	0.29523	0.29758	-1.7729	-1.8708	-1.3396	-2.5104	-1.7396	-1.8917	-2.3333	-1.4062	-1.9667	-2.0771	-1.5208	-2.4771	-1.6854	-1.5312	-2.2562	-1.7313	172.581	211.608	-113.444	132.683	-116.834	-56.933	104.526	169.219	39.648	-69.858	167.101	144.164	178.160	-143.273	-100.880	167.180	0.00064515	0.00039944	0.00052806	1003	7.5e-06	1.259e-05	1567.6	328.14	8.1405e-06	3.0824e-06	651.55	258.12	122.73	45.317	1.2954e-05	109.52	0.0022294	0.0024964	0.00067412	906.98	2.6539e-05	2.6281e-05	1369.3	293.66	2.518e-05	2.6301e-05	579.02	228.31	114.16	41.288	2.5172e-05	96.301	-136.115	131.799	9.893	-135.521	18.060	-25.207	-135.326	-130.119	-109.418	-104.318	-130.486	-126.620	-126.161	-121.044	-105.394	-122.982	-8191	255	
28628.842	1	1	0	0	0.30537	0.06614	0.1055	0.22049	0.046255	0.32892	0.40299	0.20933	0.1793	0.1376	0.17317	0.039812	0.025787	0.34178	0.1912	0.49629	-1.5271	-2.1542	-1.4979	-2.2313	-1.6063	-1.4438	-2.5646	-1.6437	-1.8937	-2.0458	-1.5438	-2.2542	-1.8646	-1.6729	-2.1521	-1.7333	60.265	70.682	162.850	202.456	-71.587	180.724	160.131	157.506	131.502	48.350	-117.762	175.358	148.160	-103.411	-85.818	207.352	0.00056285	0.0017258	0.00057894	1010	4.9227e-06	2.7503e-06	1570.4	329.24	1.3698e-05	1.1507e-05	653.4	258.31	121.89	45.383	1.9757e-05	109.14	0.0021217	0.0023166	0.00062682	908.74	2.4811e-05	2.4819e-05	1370	292.37	2.4597e-05	2.546e-05	579.53	228.42	113.82	41.345	2.4707e-05	96.336	-142.671	-123.604	-42.080	-135.735	40.314	-61.716	-135.524	-130.435	-31.668	-54.517	-130.814	-126.607	-126.121	-121.461	39.443	-122.968	-8191	255	
28628.938	1	1	0	0	0.29515	0.40812	0.10462	0.15623	0.16339	0.25621	0.22311	0.31135	0.13512	0.06325	0.31245	0.43193	0.10818	0.14275	0.14037	0.29304	-1.3062	-2.1542	-1.4979	-2.4521	-1.9438	-1.5979	-2.5333	-1.6	-1.6729	-2.3833	-1.6896	-2.3104	-2.3354	-1.4312	-2.2667	-1.9729	-58.323	-70.010	-124.641	140.831	-113.847	129.144	175.966	76.665	126.172	210.661	-117.069	193.344	209.394	109.547	-120.250	-138.659	0.00076548	0.00085706	0.000163	1011.1	1.223e-06	3.5947e-06	1577.5	330.01	1.211e-05	3.0049e-06	655.73	260.88	124.49	44.733	4.0518e-06	109.39	0.0021025	0.0023136	0.00064049	909.26	2.5552e-05	2.5412e-05	1375.3	293.95	2.551e-05	2.5851e-05	580.39	229.75	114.76	41.241	2.5321e-05	96.802	208.389	-133.316	23.669	-135.501	191.170	-147.288	-135.849	-130.653	-0.797	46.473	-131.046	-126.703	-126.367	-121.190	82.436	-122.749	-8191	255	
28629.033	1	1	0	0	0.20218	0.16888	0.2871	0.22601	0.21814	0.2808	0.34912	0.28899	0.099586	0.047539	0.25075	0.22496	0.040115	0.20259	0.18442	0.24035	-1.4479	-2.3312	-1.4688	-2.1479	-2.1729	-1.3771	-2.4104	-1.9146	-1.6063	-2.4542	-1.5438	-2.2771	-2.3542	-1.5208	-2.225	-2.0833	-129.471	-92.220	-95.345	-142.933	64.158	-94.255	118.005	145.090	181.180	-109.522	204.553	201.119	172.797	167.933	22.115	97.206	0.00066246	0.00072613	0.000326	1011.1	4.8084e-06	1.3562e-05	1570.7	328.8	9.8812e-06	1.1204e-05	651.2	258.36	122.13	44.899	1.2281e-05	107.92	0.0021932	0.0023431	0.00065196	912.69	2.5918e-05	2.5879e-05	1371.9	293.74	2.4989e-05	2.5466e-05	578.67	228.39	113.77	40.947	2.4723e-05	95.664	-139.340	-136.770	11.075	-135.481	-74.912	69.944	-135.191	-130.317	-14.067	-76.749	-130.588	-126.913	-126.533	-121.249	23.890	-122.896	-8191	255	
28629.154	1	1	0	0	0.23542	0.090523	0.1921	0.28063	0.12565	0.14979	0.13228	0.42632	0.34389	0.15002	0.1876	0.12528	0.049986	0.047268	0.015074	0.1023	-1.2292	-2.3542	-1.55	-1.9021	-2.2417	-1.4854	-2.275	-2.2604	-1.4688	-2.3667	-1.8563	-1.9208	-2.2625	-1.4625	-2.2	-2.2021	139.312	138.198	-107.941	193.155	175.868	-138.770	-140.607	102.496	66.200	23.292	191.871	177.633	-96.474	18.262	-36.101	188.335	0.00070045	0.0017229	0.00040344	1017.3	4.4041e-06	1.4196e-05	1560.4	326.84	7.8704e-06	1.0636e-05	648.45	256.56	122.36	44.435	2.0835e-05	107.76	0.0021571	0.0022963	0.00064534	912.34	2.5065e-05	2.5431e-05	1368.1	291.97	2.4983e-05	2.5252e-05	576.38	226.97	113.49	40.671	2.5267e-05	95.282	-142.682	-57.025	-23.144	-135.334	-19.041	121.629	-135.366	-130.583	-10.139	185.927	-130.719	-126.678	-126.402	-121.652	-47.710	-122.783	-8191	255	
28629.225	1	1	0	0	0.071724	0.19783	0.2876	0.091412	0.23646	0.11399	0.37646	0.14429	0.10957	0.10078	0.18697	0.26543	0.53871	0.27949	0.13785	0.13006	-1.0875	-2.2625	-1.7	-1.675	-2.4167	-1.5229	-2.2146	-2.1958	-1.4979	-2.3146	-1.9583	-1.7687	-2.4125	-1.575	-1.9542	-2.4188	-110.917	17.972	-79.440	-56.812	104.766	77.077	79.206	193.336	-41.373	36.447	-128.841	164.214	-130.967	-105.376	179.029	124.434	0.0006348	0.00062684	2.0424e-05	1013.2	2.0451e-05	8.8105e-06	1563.2	326.79	2.3413e-06	1.6084e-05	653.39	257.57	122.97	44.709	1.1941e-05	108.58	0.0021701	0.0023272	0.00066403	912.67	2.5193e-05	2.5638e-05	1369.2	292.21	2.606e-05	2.5632e-05	579.99	228.36	114.14	41.197	2.6188e-05	96.197	203.409	16.486	-97.450	-135.305	12.585	32.924	-135.439	-130.593	36.016	-3.055	-130.935	-126.554	-126.572	-121.124	-42.959	-122.776	-8191	255	
28629.322	1	1	0	0	0.16918	0.28087	0.17323	0.1054	0.13771	0.055773	0.33383	0.24259	0.28231	0.050867	0.068195	0.24059	0.17041	0.28436	0.14097	0.046122	-1.0354	-2.2583	-1.8104	-1.6063	-2.3854	-1.5125	-2.1667	-2.5542	-1.4333	-2.1792	-2.0833	-1.7042	-2.4896	-1.5604	-2.0417	-2.4854	126.900	143.459	-76.210	-117.150	65.240	163.517	157.967	100.542	124.965	-116.542	12.571	131.144	135.493	-107.827	102.438	-124.651	0.00068163	0.0021341	0.00020544	1014	9.5494e-06	1.0157e-05	1568.7	332.09	1.1594e-05	1.8188e-05	652.08	259.71	125.27	45.71	1.5382e-05	110.35	0.0022367	0.0023836	0.00068189	917.53	2.6029e-05	2.6301e-05	1373.8	296.17	2.6208e-05	2.614e-05	581.8	230.66	115.31	41.869	2.6064e-05	97.409	-148.010	-71.525	-61.964	-135.402	115.218	-126.587	-135.264	-130.143	50.800	0.872	-130.582	-126.865	-126.238	-121.339	3.667	-122.858	-8191	255	
28629.418	1	1	0	0	0.10475	0.30925	0.13142	0.14971	0.25932	0.2064	0.23734	0.22521	0.11745	0.21113	0.31846	0.091595	0.050447	0.12724	0.306	0.19646	-1.2437	-2.15	-2.125	-1.6208	-2.3312	-1.8042	-1.9188	-2.3083	-1.5125	-2.2125	-2.2583	-1.7479	-2.225	-1.8062	-1.675	-2.4354	188.909	-125.491	183.902	184.335	111.237	-144.458	203.405	-140.489	-107.905	5.169	147.702	170.548	136.696	134.647	-20.516	193.724	0.00060012	0.00091766	0.00058133	1026.9	1.4128e-05	1.713e-05	1571.1	333.71	7.2049e-06	2.2277e-05	661.39	261.66	125.21	46.272	9.2215e-06	110.67	0.0022493	0.0023896	0.0006889	925.01	2.5862e-05	2.7003e-05	1384.6	298.89	2.6206e-05	2.6431e-05	588.78	232.36	116.47	42.331	2.6943e-05	97.829	207.694	-20.708	-27.977	-135.115	64.430	42.169	-135.334	-130.305	-99.370	-31.044	-130.760	-126.632	-126.304	-120.902	129.893	-122.751	-8191	255	
28629.537	1	1	0	0	0.078674	0.31163	0.2023	0.046142	0.039833	0.10452	0.50612	0.40396	0.171	0.088217	0.10401	0.35346	0.10442	0.29091	0.16803	0.31143	-1.1562	-2.1042	-2.1125	-1.6437	-2.2729	-1.7021	-1.7667	-2.275	-1.5521	-1.8813	-2.25	-1.5938	-2.2729	-2.0167	-1.4979	-2.5708	95.482	-107.316	-26.466	147.571	61.305	206.838	-114.651	169.206	-138.937	75.278	136.383	149.405	68.786	-131.610	-121.131	153.042	0.00074906	0.001465	0.00069305	1025.3	1.321e-05	2.4536e-05	1564.4	334.56	4.8929e-06	1.1447e-05	650.56	260.3	125.19	45.763	3.1559e-06	109.37	0.0023702	0.0025266	0.00071859	925.99	2.7519e-05	2.8558e-05	1381.6	298.91	2.8604e-05	2.8751e-05	584.92	231.24	116.87	42.449	2.9419e-05	97.356	-141.161	-96.723	-71.600	-135.743	17.391	-28.311	-135.253	-130.401	84.183	0.348	-130.827	-126.733	-126.192	-121.271	87.477	-122.465	-8191	255	
28629.633	1	1	0	0	0.19604	0.087345	0.12815	0.39839	0.087482	0.06998	0.30578	0.23147	0.19899	0.12372	0.16958	0.1822	0.15732	0.20879	0.31326	0.17316	-1.2708	-1.9729	-2.2938	-1.8208	-2.2521	-2.0083	-1.6729	-2.5396	-1.8813	-1.8625	-2.4646	-1.6396	-2.2229	-2.125	-1.3937	-2.3958	-128.630	195.436	-5.407	157.377	72.572	39.804	208.920	127.877	25.055	-137.669	-124.343	-116.846	-122.620	-121.676	198.286	182.551	0.00058844	0.00016527	0.00021896	1005.2	2.2126e-05	2.824e-05	1559.8	329.27	1.1033e-05	2.1471e-05	643.51	258.51	123.34	45.374	2.0327e-05	110.01	0.0025466	0.002659	0.00076107	922.36	2.9456e-05	3.054e-05	1374.1	297.01	3.042e-05	3.0486e-05	584.05	230.77	116.35	42.642	3.075e-05	97.778	-116.527	84.270	24.823	-135.846	10.945	58.075	-135.125	-129.877	-31.189	31.962	-130.455	-126.386	-126.361	-120.827	-33.340	-122.640	-8191	255	
28629.729	1	1	0	0	0.12345	0.21123	0.060173	0.35987	0.20271	0.081884	0.19343	0.13892	0.19152	0.2553	0.045043	0.25477	0.09314	0.19667	0.32431	0.21346	-1.2625	-1.6125	-2.1396	-1.7125	-2.0583	-1.9542	-1.7313	-2.3187	-1.6	-1.6479	-2.5125	-1.725	-2.2396	-2.2771	-1.5542	-2.3958	154.821	151.649	33.216	181.814	106.213	-145.504	128.496	-104.434	83.215	-35.371	17.611	-143.837	1.890	203.657	126.732	64.832	0.00070983	0.0017714	0.0001996	1012.3	5.7488e-06	7.1931e-06	1548.2	329.62	1.09e-05	2.0799e-05	649.87	256.36	123.23	45.603	2.2013e-05	110.89	0.0026461	0.0028195	0.00079001	924.78	3.0776e-05	3.171e-05	1372.5	297.43	3.141e-05	3.1064e-05	584.22	231.31	116.68	42.763	3.0409e-05	98.347	203.683	-16.844	103.702	-135.437	18.983	-63.350	-135.427	-130.206	-81.170	-1.983	-130.713	-126.521	-126.094	-120.837	10.301	-122.450	-8191	255	
28629.850	1	1	0	0	0.15108	0.0779	0.17592	0.2417	0.067124	0.13692	0.095193	0.074551	0.33624	0.098119	0.14136	0.21523	0.16779	0.22118	0.077871	0.17891	-1.5646	-1.5917	-2.5	-1.575	-2.0125	-2.3187	-1.75	-2.2958	-1.9333	-1.65	-2.4229	-1.8563	-1.9688	-2.4458	-1.4583	-2.425	75.784	206.246	-101.692	77.702	-118.344	-84.488	138.622	165.864	166.248	163.105	140.812	-137.626	114.920	130.561	-106.331	171.423	0.00066897	0.0012545	0.00023891	1005.3	7.019e-06	5.6494e-06	1564.6	333.25	2.0004e-06	7.5331e-06	655.41	262.75	126.07	46.87	4.8273e-06	111.8	0.0025829	0.0027663	0.00076603	923.99	2.9538e-05	3.0648e-05	1380	300.11	3.0416e-05	2.996e-05	589.41	233.74	118.57	43.314	2.8682e-05	99.087	210.430	-141.566	56.834	-135.250	50.764	184.503	-135.367	-130.183	-0.037	102.070	-130.106	-126.847	-126.280	-121.222	-95.465	-122.619	-8191	255	
28629.922	1	1	0	0	0.11697	0.48203	0.13095	0.26987	0.19733	0.079313	0.34098	0.37245	0.13812	0.19092	0.14014	0.20245	0.17882	0.29728	0.31504	0.14831	-1.6667	-1.55	-2.2417	-1.9396	-1.5833	-2.2771	-1.7958	-2.35	-2.025	-1.5042	-2.4479	-1.8667	-1.7646	-2.3396	-1.2667	-2.1625	-136.171	177.725	-86.062	161.916	61.769	74.045	136.876	-109.425	-66.271	87.995	69.107	209.644	110.353	204.559	40.077	151.846	0.00073198	0.0017509	0.00012137	1017.9	1.3795e-05	4.9211e-06	1558.5	332.16	2.9776e-06	8.3189e-06	656.25	261.57	126.16	46.578	1.0633e-05	111.71	0.0024886	0.0026259	0.00072718	925.28	2.8181e-05	2.8714e-05	1376.3	298.97	2.7922e-05	2.7859e-05	584.44	232.48	117.91	42.994	2.8752e-05	98.254	207.955	-86.874	110.377	-135.658	-53.296	143.258	-134.944	-130.187	185.729	208.518	-130.186	-126.735	-126.343	-120.915	142.062	-122.489	-8191	255	
28630.018	1	1	0	0	0.087326	0.13571	0.1953	0.26933	0.17868	0.14171	0.25619	0.16058	0.17741	0.138	0.36478	0.20338	0.36132	0.29335	0.3168	0.41817	-1.7083	-1.4229	-2.0021	-1.9083	-1.6688	-2.3167	-1.6729	-1.9375	-2.0563	-1.4188	-2.2	-2.0333	-1.5958	-2.3063	-1.5833	-2.2438	97.994	141.894	-35.164	180.503	100.808	-128.465	108.100	105.505	-3.887	-51.579	173.217	-137.292	155.639	200.367	-20.612	141.483	0.00065832	0.00035812	0.00025277	1012.4	1.0525e-05	1.123e-05	1544.2	331.77	1.6144e-06	1.1991e-05	646.47	258.76	125.15	46.285	8.2918e-06	110.02	0.0024396	0.0025928	0.00071632	921.7	2.8524e-05	2.8698e-05	1370.4	297.98	2.8718e-05	2.8598e-05	582.54	230.97	117.14	42.79	2.8319e-05	97.901	-138.600	8.498	2.141	-135.561	40.785	-122.598	-135.527	-130.159	105.924	-67.449	-130.452	-126.427	-126.296	-121.092	-36.763	-122.796	-8191	255	
28630.139	1	1	0	0	0.10801	0.076015	0.17043	0.17804	0.22408	0.12845	0.33505	0.11428	0.23608	0.40052	0.2021	0.21076	0.12383	0.25342	0.35709	0.194	-1.8708	-1.3625	-2.1479	-2.325	-1.5063	-2.3104	-1.9396	-1.8937	-2.275	-1.6021	-2.2167	-2.1875	-1.6958	-2.3875	-1.5729	-1.9479	-5.177	35.736	-18.000	-85.229	-16.525	121.700	126.505	137.169	104.802	-6.045	-74.182	132.984	142.831	207.727	-8.728	147.647	0.00054683	0.0014101	8.1265e-05	1005.6	8.8548e-06	3.1908e-06	1553.3	331.42	6.4519e-06	1.1301e-05	650.93	261.5	124.72	46.74	1.1919e-05	111.74	0.0023941	0.002584	0.00071027	919.69	2.797e-05	2.7762e-05	1370	297.44	2.7782e-05	2.8097e-05	583.56	232.1	116.92	42.955	2.772e-05	98.756	-128.439	53.507	-45.448	-135.402	22.549	22.333	-134.889	-130.079	-76.992	-54.649	-130.463	-126.680	-126.160	-121.050	95.554	-122.437	-8191	255	
28630.234	1	1	0	0	0.1587	0.30792	0.39861	0.38361	0.16694	0.16012	0.15016	0.35197	0.15323	0.082256	0.24705	0.18602	0.28949	0.095668	0.15252	0.28877	-1.9104	-1.5604	-1.9667	-2.1833	-1.4708	-2.0938	-1.9625	-1.7521	-2.5083	-1.5167	-2.1542	-2.3854	-1.475	-2.4854	-2.0062	-1.8625	52.816	-9.873	-110.736	54.531	56.792	164.969	144.673	133.349	62.666	-138.551	175.478	87.327	204.205	-90.797	199.596	164.671	0.00059526	0.0015775	0.00023618	1015.7	5.9886e-06	1.0972e-05	1570.9	335.71	8.2528e-06	3.7816e-06	665.6	267.21	128.56	48.162	1.1047e-05	115.19	0.0022926	0.0024737	0.00066925	921.15	2.6484e-05	2.5774e-05	1379.4	299.97	2.5749e-05	2.5547e-05	588.88	235.36	118.42	43.704	2.5443e-05	100.95	-114.898	-118.607	60.038	-135.224	63.392	-32.347	-135.364	-129.739	-107.761	91.522	-130.743	-126.694	-125.625	-120.733	196.101	-122.754	-8191	255	
28630.330	1	1	0	0	0.14594	0.064398	0.40281	0.22984	0.091808	0.074464	0.2322	0.17434	0.039975	0.18316	0.46016	0.18403	0.20949	0.067973	0.15885	0.16311	-1.9792	-1.5104	-1.8396	-2.45	-1.4042	-2.3229	-2.2271	-1.6104	-2.2854	-1.75	-1.8833	-2.6417	-1.6708	-2.25	-2.2375	-1.8229	140.431	100.853	-94.350	131.510	119.578	174.939	111.342	167.996	-16.346	-112.842	184.944	-138.249	194.461	103.935	50.323	188.577	0.00079603	0.0015292	0.00034663	1018	3.0937e-06	5.8224e-06	1576.9	337.68	6.6119e-06	8.3486e-06	665.65	269.96	130.64	48.835	6.6675e-06	115.29	0.0020574	0.0022485	0.00060909	920.13	2.3303e-05	2.3326e-05	1381.1	299.99	2.2727e-05	2.3283e-05	587.58	237.25	118.96	43.952	2.3038e-05	100.98	-138.874	-69.031	111.290	-135.305	154.221	-105.724	-135.111	-130.160	195.925	42.702	-130.646	-126.514	-126.207	-120.692	-6.208	-122.608	-8191	255	
28630.449	1	1	0	0	0.13395	0.086099	0.10248	0.27046	0.40511	0.26106	0.25906	0.35674	0.09261	0.25144	0.40657	0.29585	0.16895	0.18551	0.17213	0.37015	-1.9417	-1.7667	-1.6333	-2.3542	-1.7812	-2.2292	-2.3333	-1.5125	-2.2687	-1.9875	-1.7729	-2.4958	-1.7667	-2.2729	-1.9937	-1.8354	109.831	-143.206	42.393	154.309	210.852	122.455	107.891	-119.285	-114.962	113.523	200.322	164.340	182.768	-140.494	61.276	153.149	0.00057703	0.00093925	0.00013772	1026.2	8.1092e-06	1.9715e-05	1586.8	336.26	1.1351e-06	1.2461e-05	668.56	269.18	130.28	48.563	3.5938e-06	115.69	0.0019303	0.0021201	0.00057062	916.7	2.254e-05	2.2168e-05	1379.9	298.15	2.207e-05	2.2903e-05	586.26	235.67	118.33	43.694	2.2519e-05	100.97	191.651	2.845	184.181	-135.275	55.065	-21.975	-135.093	-130.373	-81.957	4.174	-130.370	-126.879	-126.176	-121.225	-115.625	-122.466	-8191	255	
28630.521	1	1	0	0	0.13854	0.1444	0.12568	0.13724	0.13773	0.050248	0.22531	0.27805	0.12051	0.18893	0.19667	0.29549	0.12939	0.076936	0.093281	0.15713	-1.875	-1.8979	-1.6292	-2.3417	-1.5063	-2.05	-2.4417	-1.5958	-2.2542	-1.9083	-1.725	-2.6021	-1.6542	-1.9583	-2.2583	-1.6333	184.269	-101.437	-85.186	-124.116	138.581	-83.118	198.856	190.794	41.009	-21.504	193.466	115.650	185.385	65.979	55.757	173.265	0.00066829	0.00049773	0.000555	1029	7.8013e-06	9.7898e-06	1579.6	339.17	6.4263e-07	1.454e-05	660.07	268.52	128.12	48.231	1.8104e-05	113.94	0.0018745	0.0020681	0.0005646	917.74	2.1974e-05	2.2458e-05	1378.8	299.12	2.2057e-05	2.3203e-05	584.63	235.02	117.95	43.605	2.4316e-05	100.19	-135.962	101.228	-89.316	-135.314	-113.044	-51.337	-135.117	-130.237	67.800	9.897	-130.427	-126.453	-126.274	-121.040	80.694	-122.554	-8191	255	
28630.617	1	1	0	0	0.25856	0.17409	0.33018	0.27301	0.36326	0.21108	0.15521	0.28405	0.20064	0.21428	0.29942	0.45579	0.064387	0.37709	0.19531	0.33451	-1.6583	-2.3083	-1.625	-2.4396	-1.6625	-1.9292	-2.4667	-1.5583	-2.1875	-2.1958	-1.5771	-2.375	-1.9146	-1.6917	-2.125	-1.6271	138.655	-124.456	101.180	182.691	97.273	98.316	-11.335	165.827	-17.392	109.251	208.396	159.791	-140.730	-113.643	-110.317	170.042	0.00072751	0.0014414	0.00026373	1024.8	1.149e-05	1.5987e-05	1575.4	335.14	5.8602e-06	2.1754e-05	663.39	268.95	129.88	49.04	1.1542e-05	115.9	0.0020818	0.002303	0.00063661	920.72	2.5317e-05	2.5581e-05	1379.3	300.13	2.5363e-05	2.6453e-05	589.7	237.08	119.71	44.72	2.6003e-05	102.33	208.854	-17.730	211.161	-135.091	14.810	7.094	-135.578	-130.246	35.289	86.569	-130.021	-126.650	-126.175	-121.072	105.555	-122.747	-8191	255	
28630.713	1	1	0	0	0.26677	0.20053	0.32266	0.12484	0.030462	0.14337	0.41387	0.13373	0.18415	0.16111	0.30679	0.2404	0.24399	0.27696	0.21017	0.20825	-1.6667	-2.2271	-1.2708	-2.3042	-1.6562	-1.6333	-2.6021	-1.7188	-1.8646	-2.4313	-1.8479	-2.275	-2.025	-1.6521	-2.3667	-1.5854	-113.190	-18.554	16.755	-89.615	49.154	-134.995	156.327	190.011	116.878	-128.544	188.551	157.700	170.427	116.258	96.552	207.588	0.00077208	0.0015057	0.00048868	1029.1	2.2428e-05	1.585e-05	1559.3	337.39	4.1717e-06	1.2987e-05	655.74	267.2	128.28	49.064	4.2241e-06	115.04	0.0022252	0.0024869	0.00069209	925.87	2.7729e-05	2.7879e-05	1376.2	302.88	2.7608e-05	2.8578e-05	589.01	236.57	120.25	44.934	2.745e-05	101.62	-142.779	-76.149	-56.145	-135.534	17.721	44.143	-135.167	-129.820	83.375	-19.660	-130.404	-126.234	-126.319	-120.782	-39.011	-122.698	-8191	255	
28630.834	1	1	0	0	0.18331	0.20877	0.32301	0.30416	0.12774	0.21326	0.18152	0.24087	0.15251	0.12659	0.16675	0.30342	0.17337	0.23422	0.15829	0.065777	-1.3542	-2.1104	-1.4229	-2.4	-1.9813	-1.6667	-2.5271	-1.7708	-1.8042	-2.3021	-1.4521	-2.4688	-2.0896	-1.4979	-2.4375	-1.9125	13.020	165.670	-54.157	185.977	-121.361	-62.866	183.669	-145.449	-81.749	184.449	-141.130	151.624	40.771	-131.248	194.698	193.570	0.00060227	0.00064542	0.00040284	1022.4	8.1595e-06	2.2152e-05	1565.3	336.55	5.0839e-07	8.6683e-06	656.94	264.84	129.41	48.51	1.6318e-05	114.33	0.0023252	0.0025429	0.00069819	921.17	2.7205e-05	2.7024e-05	1369.8	300.73	2.6338e-05	2.6544e-05	585.36	234.41	119.34	44.471	2.5713e-05	100.82	-147.416	149.993	-4.500	-135.571	-28.031	3.646	-135.344	-130.089	11.368	97.925	-130.761	-126.449	-126.369	-121.041	-8.724	-122.769	-8191	255	
28630.930	1	1	0	0	0.21907	0.14302	0.22008	0.19074	0.10865	0.27177	0.4636	0.27767	0.095196	0.034708	0.092819	0.24989	0.14877	0.091569	0.16747	0.25852	-1.4813	-2.2917	-1.4208	-2.35	-2.1292	-1.5938	-2.6063	-1.8937	-1.8771	-2.3833	-1.5167	-2.2292	-2.2375	-1.5417	-2.2104	-2.0979	-63.632	-32.874	-122.363	208.823	141.531	-84.525	151.424	145.570	-87.345	-118.313	-126.218	-143.081	207.497	114.140	-19.327	88.719	0.00066556	0.00033934	0.00024311	1017.5	1.7349e-06	2.1837e-05	1560.1	335.51	3.448e-06	8.4866e-06	651.54	265.64	129.25	48.722	1.6957e-05	114.11	0.0021964	0.0024101	0.00068891	917.97	2.7166e-05	2.6949e-05	1364.2	299.32	2.6523e-05	2.643e-05	582.62	235.08	119.19	44.498	2.6119e-05	100.91	205.394	-45.350	-26.150	-135.071	133.290	-55.733	-135.057	-130.083	-40.357	84.429	-130.711	-126.659	-126.712	-120.757	0.656	-122.918	-8191	255	
28631.025	1	1	0	0	0.15275	0.12647	0.076905	0.28023	0.22333	0.22802	0.29938	0.17284	0.049144	0.084981	0.30907	0.33082	0.23822	0.044896	0.081094	0.30645	-1.1479	-2.4875	-1.5771	-2.05	-2.2021	-1.5771	-2.3854	-2.1271	-1.6979	-2.3542	-1.7687	-1.9604	-2.3271	-1.6042	-2.3125	-2.1167	-127.938	119.148	101.121	153.974	111.537	-136.723	177.185	199.019	209.248	-116.738	145.180	-141.565	191.913	-96.345	-97.578	161.469	0.0007211	0.00073331	0.00013598	1014.8	2.3012e-06	1.6322e-06	1567	336.46	1.5151e-05	1.205e-05	663.6	270.23	130.31	49.588	7.2746e-06	116.37	0.0022398	0.0023842	0.00066205	915.71	2.5602e-05	2.5805e-05	1371	300.67	2.5282e-05	2.533e-05	588.58	237.24	119.96	44.677	2.4859e-05	102.3	-137.032	-60.140	-53.218	-135.382	-50.345	85.430	-134.989	-129.942	23.168	-13.926	-130.912	-125.941	-126.208	-120.967	43.386	-122.558	-8191	255	
28631.121	1	1	0	0	0.18123	0.24063	0.078483	0.28754	0.2383	0.32809	0.17546	0.19689	0.29273	0.16519	0.091332	0.10847	0.17646	0.23591	0.01728	0.21093	-1.1562	-2.3312	-1.7979	-1.8042	-2.4229	-1.3771	-2.3875	-2.1896	-1.5521	-2.3125	-2.1271	-1.9104	-2.3875	-1.5833	-2.0812	-2.2625	81.754	186.252	114.172	90.488	153.889	42.761	167.063	126.445	183.894	19.394	163.054	169.080	157.173	188.597	204.773	114.355	0.00079979	0.0020402	0.0004539	1025.8	2.6443e-06	5.0938e-06	1582.5	342.1	9.7967e-06	1.2749e-05	667.77	271.37	130.68	49.503	1.7315e-05	116.05	0.0021834	0.0022867	0.00064012	925.44	2.4878e-05	2.5279e-05	1380.9	303.87	2.4961e-05	2.48e-05	591.31	238.11	120.23	44.832	2.4969e-05	102.08	-147.742	-65.067	-38.459	-135.347	26.870	146.617	-135.009	-129.783	0.086	50.146	-130.501	-126.746	-126.033	-120.957	10.845	-122.788	-8191	255	
28631.219	1	1	0	0	0.22594	0.064817	0.083595	0.15095	0.22245	0.1118	0.29878	0.25434	0.32875	0.049366	0.30014	0.24191	0.13872	0.32943	0.017281	0.18857	-1.2333	-2.2646	-1.8646	-1.8646	-2.325	-1.4417	-2.2083	-2.425	-1.4625	-2.3792	-2.075	-1.8396	-2.4458	-1.7333	-1.7125	-2.5146	195.288	-58.443	-120.312	69.746	45.812	121.762	212.118	191.860	-144.976	-127.034	173.392	110.236	163.182	-104.947	114.614	137.666	0.00063255	0.00031701	0.000518	1022.4	2.2399e-06	1.6112e-05	1567	336.07	1.3233e-05	1.908e-05	659.9	267.1	129.81	48.995	8.5968e-06	114.5	0.0021801	0.0023198	0.00065339	919.31	2.5326e-05	2.616e-05	1372.8	300.36	2.5577e-05	2.5912e-05	587.65	235.34	119.64	44.44	2.5985e-05	100.75	-123.047	-56.703	-136.115	-135.403	50.692	-59.313	-134.815	-129.716	6.621	58.617	-130.548	-126.195	-126.250	-120.912	9.778	-122.604	-8191	255	
28631.314	1	1	0	0	0.13191	0.21895	0.051609	0.324	0.12267	0.2623	0.27211	0.40731	0.12358	0.082973	0.073731	0.14049	0.21114	0.26479	0.32049	0.53184	-0.97083	-2.2042	-1.8271	-1.5625	-2.3979	-1.6063	-1.9354	-2.4562	-1.6083	-1.9354	-2.1021	-1.7875	-2.3896	-1.9271	-1.7042	-2.5292	-62.819	-39.747	-90.933	142.903	48.974	104.671	195.841	202.648	-82.256	134.252	-17.024	-89.703	-84.721	132.393	187.488	127.529	0.00061813	0.00069577	0.00053442	1023.4	5.6626e-06	2.0732e-05	1559.9	333.51	8.2893e-06	2.3312e-06	651.92	264.25	128.31	48.652	4.124e-06	114.22	0.0022416	0.0023489	0.00067328	917.16	2.5982e-05	2.6572e-05	1368.2	298.69	2.6331e-05	2.575e-05	583.7	234.56	118.86	44.418	2.6649e-05	100.63	-136.294	-57.764	52.694	-134.924	191.562	8.936	-135.149	-129.981	-55.937	-111.307	-130.096	-126.316	-126.035	-120.999	13.425	-122.961	-8191	255	
28631.410	1	1	0	0	0.10406	0.055386	0.12195	0.16003	0.22856	0.27236	0.37265	0.14003	0.26734	0.21047	0.021695	0.30982	0.21606	0.2049	0.33788	0.085794	-1.0229	-2.0938	-2.2354	-1.6104	-2.2	-2.0542	-2.0021	-2.3792	-1.4396	-2.1	-2.4896	-1.5875	-2.4229	-2.2188	-1.6896	-2.5458	-109.114	87.655	140.365	18.976	-61.799	13.592	148.225	139.189	141.877	16.137	190.034	180.801	115.112	-89.680	111.419	41.869	0.00074918	0.0012031	0.00022323	1018.6	2.6235e-06	2.7809e-05	1554.1	336	5.2742e-06	1.4444e-05	659.33	267.48	129.81	48.733	1.2503e-05	114.16	0.0022907	0.0024723	0.00069807	919.07	2.6265e-05	2.7799e-05	1367.6	299.85	2.7058e-05	2.6877e-05	589.77	236.5	120.06	44.706	2.721e-05	101.35	211.751	202.482	-113.398	-135.655	85.084	-6.464	-135.152	-130.188	-110.701	40.796	-130.617	-126.301	-126.222	-121.199	-105.117	-122.645	-8191	255	
28631.529	1	1	0	0	0.26058	0.15953	0.050233	0.20928	0.074632	0.23444	0.25673	0.25747	0.09187	0.20754	0.10269	0.26229	0.13035	0.37794	0.19338	0.14771	-1.2792	-1.7729	-2.1229	-1.5688	-2.3229	-1.9583	-1.7437	-2.4479	-1.8396	-1.8771	-2.5625	-1.7354	-2.1667	-1.9229	-1.5583	-2.5979	112.158	182.163	-111.825	192.076	-107.172	74.985	127.571	131.077	-142.587	-27.758	145.930	177.716	-100.740	198.359	67.321	159.320	0.00071278	0.00086715	0.00034582	1015.6	2.8063e-06	9.1835e-06	1574.8	336.92	4.6643e-06	2.1908e-05	656.38	266.43	130.6	48.951	2.301e-05	114.07	0.0023418	0.0024878	0.00070422	922.62	2.708e-05	2.783e-05	1376.9	301.37	2.7284e-05	2.7331e-05	587.77	235.7	120.45	44.934	2.7558e-05	100.99	202.014	-78.806	-80.172	-135.013	9.359	168.338	-135.302	-130.159	-97.887	54.384	-130.420	-126.478	-126.162	-121.434	22.244	-122.457	-8191	255	
28631.627	1	1	0	0	0.14811	0.0012775	0.20539	0.42877	0.016749	0.20604	0.25144	0.096223	0.27016	0.11455	0.15291	0.10863	0.26784	0.021564	0.22757	0.27081	-1.3625	-1.7125	-2.1542	-1.7333	-2.2167	-2.2375	-1.6771	-2.4958	-1.8792	-1.7437	-2.5417	-1.7167	-2.0625	-2.1	-1.4354	-2.4437	155.221	180.000	-143.458	192.940	35.205	-124.087	103.423	130.978	-29.168	-52.355	181.132	113.479	148.143	-64.335	-19.827	103.438	0.00063479	0.0016266	0.00029216	1013.2	4.3119e-06	1.0831e-05	1544.1	332.89	1.7557e-05	2.1672e-05	650.27	263.86	128.88	48.641	1.217e-05	113.64	0.0023928	0.0025604	0.00070369	918.27	2.716e-05	2.8093e-05	1361.4	298.46	2.8225e-05	2.8042e-05	582.59	234.13	119.63	44.621	2.8082e-05	100.47	210.999	207.490	180.025	-135.788	-103.290	72.705	-135.112	-129.767	8.204	27.503	-130.286	-126.162	-126.082	-120.892	-60.493	-122.337	-8191	255	
28631.723	1	1	0	0	0.086496	0.13299	0.12897	0.20304	0.17414	0.024239	0.24679	0.38494	0.13155	0.10824	0.24067	0.095666	0.25522	0.080306	0.094394	0.084745	-1.5417	-1.7687	-2.35	-1.7208	-1.9375	-2.1562	-1.7146	-2.3771	-1.8979	-1.675	-2.4833	-1.7313	-1.8667	-2.2125	-1.5583	-2.4396	-10.113	99.024	-96.447	118.639	52.017	-115.017	147.645	121.057	-59.206	-120.184	158.018	-49.387	193.805	136.141	32.247	204.725	0.00063641	0.0015055	0.00029647	1003.9	7.2135e-06	1.8239e-05	1531.6	333.15	8.6993e-06	9.0828e-06	652.12	263.07	127.31	47.969	6.0574e-06	113.38	0.0024101	0.0025761	0.00071891	911.71	2.7624e-05	2.8404e-05	1353.2	297.75	2.842e-05	2.8352e-05	579.63	233.26	118.74	44.289	2.7692e-05	100.04	-135.657	-134.274	-6.790	-135.502	5.754	-91.637	-135.067	-130.280	13.657	3.463	-130.239	-126.836	-126.175	-120.629	-22.739	-122.439	-8191	255	
28631.818	1	1	0	0	0.10499	0.12761	0.11747	0.3327	0.016022	0.097147	0.20187	0.33407	0.070396	0.20634	0.235	0.24758	0.22635	0.084462	0.12618	0.39601	-1.725	-1.3875	-2.3333	-1.7396	-1.4667	-2.4021	-1.8188	-2.2313	-2.1292	-1.5479	-2.2354	-2.0083	-2.0104	-2.45	-1.5625	-2.3271	79.220	119.363	182.335	193.463	-107.711	-101.896	100.834	187.259	-31.898	157.678	124.649	-106.447	-126.652	137.792	-123.405	181.587	0.00069898	0.00093582	8.7039e-05	1001.9	9.6135e-06	7.7588e-06	1534.5	332.61	1.8624e-05	4.3324e-06	647.47	265.48	128.04	48.435	1.0494e-05	113.55	0.0023859	0.0025223	0.00069216	911.5	2.7227e-05	2.7623e-05	1353.3	296.55	2.7119e-05	2.6888e-05	577.68	234.32	119.49	44.324	2.6668e-05	100.51	-131.637	206.344	184.262	-135.336	46.902	-139.490	-135.079	-129.980	8.048	72.372	-130.455	-126.756	-125.816	-121.068	-61.528	-122.280	-8191	255	
28631.914	1	1	0	0	0.19968	0.058081	0.31677	0.14121	0.30952	0.29064	0.23974	0.29235	0.1401	0.2105	0.20454	0.35767	0.26135	0.31196	0.18793	0.066272	-1.8167	-1.3104	-2.35	-2.0125	-1.6313	-2.2062	-1.8208	-2.0563	-2.1188	-1.5396	-2.375	-2.2812	-1.7583	-2.3729	-1.5583	-2.0563	57.586	-77.467	87.107	-127.732	83.572	193.095	93.384	127.987	22.629	-107.501	139.489	172.619	-120.043	180.914	17.186	-96.555	0.000551	0.00070623	0.00022706	1011.8	7.5314e-06	5.9432e-06	1540.6	331.18	8.9762e-06	5.9773e-06	652	263.58	128.19	48.586	6.9306e-06	113.39	0.0022696	0.0024339	0.00066186	916.26	2.6115e-05	2.5789e-05	1356.3	295.79	2.6693e-05	2.6716e-05	580.11	233.98	118.67	44.081	2.6102e-05	99.886	-135.813	153.620	-100.556	-135.211	207.102	93.259	-135.320	-129.732	22.339	-85.947	-130.553	-126.279	-125.695	-120.908	102.087	-122.470	-8191	255	
28632.010	1	1	0	0	0.13491	0.18411	0.30373	0.33084	0.2918	0.01975	0.3502	0.16258	0.21689	0.29885	0.46275	0.083857	0.32609	0.15821	0.097351	0.15098	-1.9	-1.3542	-2.0979	-2.0417	-1.4479	-2.1417	-2.0396	-2.0521	-2.3667	-1.5708	-2.2875	-2.0771	-1.7	-2.3604	-1.8458	-1.9104	60.068	132.492	-74.103	188.064	202.215	196.061	165.559	-38.884	-111.167	165.071	130.059	193.504	207.825	-90.011	-21.828	152.559	0.00073395	0.0014043	0.000247	1006.6	1.0439e-05	1.7805e-05	1536.2	329.25	9.4715e-06	1.2767e-05	645.6	262.33	126.86	47.667	1.7125e-05	112	0.0022617	0.0023892	0.00065204	908.35	2.5565e-05	2.547e-05	1348	294.17	2.5685e-05	2.5992e-05	574.11	231.3	117.26	43.508	2.6065e-05	99.008	-144.417	22.203	17.831	-135.121	-31.057	18.745	-135.154	-129.840	-62.494	45.347	-130.166	-126.670	-126.141	-121.058	24.078	-122.644	-8191	255	
28632.131	1	1	0	0	0.11063	0.26363	0.087745	0.39872	0.1428	0.15102	0.27391	0.058398	0.044713	0.13201	0.39908	0.13575	0.3633	0.15474	0.24153	0.20579	-1.9771	-1.525	-2.0896	-2.2562	-1.3125	-2.1562	-1.9896	-1.7667	-2.4521	-1.4438	-1.9833	-2.0896	-1.3771	-2.4229	-2.0375	-1.7521	-60.248	193.483	120.868	106.772	-67.464	115.020	143.623	-17.599	92.830	-39.957	165.864	169.957	159.675	149.281	186.025	151.830	0.00058089	0.0007056	0.00047462	996.55	5.9089e-06	1.9557e-05	1523.3	326.36	9.4361e-06	6.3731e-06	645.18	260.42	125.43	47.369	4.5439e-06	111.37	0.0021776	0.0023972	0.0006539	904.78	2.5851e-05	2.5799e-05	1345.6	292.5	2.577e-05	2.6522e-05	572.81	230.03	116.8	43.334	2.7328e-05	98.232	-124.583	-110.674	-47.826	-135.505	47.191	-29.104	-135.083	-129.855	-134.119	-45.251	-130.167	-126.664	-125.957	-120.668	186.312	-122.395	-8191	255	
28632.227	1	1	0	0	0.052588	0.21059	0.13225	0.32405	0.17087	0.1759	0.13323	0.40482	0.32816	0.097357	0.06374	0.085867	0.10642	0.19725	0.029982	0.29129	-1.8583	-1.5354	-1.7958	-2.2042	-1.3729	-2.1167	-2.2729	-1.7	-2.3604	-1.4917	-2.0062	-2.5021	-1.3625	-2.1208	-1.8625	-1.6812	-129.995	51.453	-81.986	144.292	-87.942	210.007	187.264	179.876	-93.669	-127.743	101.365	114.259	145.655	25.244	35.371	176.836	0.00048614	0.0013236	0.00022846	1002.8	1.5814e-05	8.2727e-06	1529.6	329.28	9.167e-07	2.0478e-05	648.33	262.6	126.59	47.818	1.2044e-05	111.92	0.0022755	0.0024502	0.00067801	908.73	2.6313e-05	2.6754e-05	1350.6	294.51	2.6607e-05	2.765e-05	576.76	231.7	118.1	43.724	2.7751e-05	99.251	-137.817	-105.928	135.889	-135.467	-28.505	76.434	-135.349	-130.046	144.678	14.353	-130.299	-126.336	-125.815	-120.359	-48.025	-122.329	-8191	255	
28632.320	1	1	0	0	0.16107	0.062835	0.18077	0.12962	0.061685	0.19168	0.32444	0.011416	0.2169	0.092746	0.15091	0.097993	0.20256	0.11005	0.19839	0.35064	-1.8854	-1.5146	-1.8062	-2.4542	-1.4792	-2.0062	-2.225	-1.6021	-2.1896	-1.6417	-1.8667	-2.5396	-1.6437	-2.2083	-2.2104	-1.6875	81.034	36.430	152.989	-142.479	138.768	-40.426	158.290	205.099	-127.130	63.833	170.847	150.626	170.823	186.075	202.992	152.245	0.00068222	0.00046036	1.7281e-05	1011.7	8.7526e-06	9.6718e-06	1548.4	332.75	2.5733e-06	1.6839e-05	651.17	265.5	129.87	48.585	9.7714e-06	113.19	0.0022692	0.0025202	0.00068122	913.92	2.6593e-05	2.6676e-05	1360.6	296.47	2.6042e-05	2.7116e-05	581.1	234.01	119.7	44.311	2.6947e-05	99.832	-129.430	-90.765	-25.079	-135.411	-82.410	-25.430	-135.395	-129.770	-84.629	33.426	-130.406	-126.152	-125.885	-120.490	-97.840	-122.643	-8191	255	
#DATA ENDS
