BOXY.EXE: ISS Imagent and Oximeter Data Acquisition Program Version 0.80
Ascii Record File

#ACQ INFORMATION
2  Detector Channels 
16  External MUX Channels 
1  Auxiliary Channels 
5000  Waveform (CCF) Frequency (Hz)
1  Waveforms Skipped 
30  Waveforms Averaged 
1  Cycles Averaged 
16  Acquisitions per Waveform 
10.0806  Updata Rate (Hz) 

#FILE INFORMATION
TRUE -- External MUX Channel results are PARSED.
FALSE -- AC DC and Phase are NOT grouped.
TRUE -- Companion Program Settings File CREATED.
FALSE -- AC data not excluded
FALSE -- DC data not excluded
FALSE -- Phase data not excluded
FALSE -- Auxillary Chn. data not excluded
Tab delimiters

#CALIBRATION STATE
TRUE -- Waveform Calibration Values APPLIED.


#AUX CALIBRATION VALUES
Val Type	aux-1	

Term	1.0000e+00	
Factor	0.0000e+00	


#WF CALIBRATION VALUES
A = Detector Channel
Val Type	A-AC1	A-AC2	A-AC3	A-AC4	A-AC5	A-AC6	A-AC7	A-AC8	A-AC9	A-AC10	A-AC11	A-AC12	A-AC13	A-AC14	A-AC15	A-AC16	A-DC1	A-DC2	A-DC3	A-DC4	A-DC5	A-DC6	A-DC7	A-DC8	A-DC9	A-DC10	A-DC11	A-DC12	A-DC13	A-DC14	A-DC15	A-DC16	A-Ph1	A-Ph2	A-Ph3	A-Ph4	A-Ph5	A-Ph6	A-Ph7	A-Ph8	A-Ph9	A-Ph10	A-Ph11	A-Ph12	A-Ph13	A-Ph14	A-Ph15	A-Ph16	

Term	0.00000e+00	0.00000e+00	0.00000e+00	0.00000e+00	0.00000e+00	0.00000e+00	0.00000e+00	0.00000e+00	0.00000e+00	0.00000e+00	0.00000e+00	0.00000e+00	0.00000e+00	0.00000e+00	0.00000e+00	0.00000e+00	0.00000e+00	0.00000e+00	0.00000e+00	0.00000e+00	0.00000e+00	0.00000e+00	0.00000e+00	0.00000e+00	0.00000e+00	0.00000e+00	0.00000e+00	0.00000e+00	0.00000e+00	0.00000e+00	0.00000e+00	0.00000e+00	0.00000e+00	0.00000e+00	0.00000e+00	0.00000e+00	0.00000e+00	0.00000e+00	0.00000e+00	0.00000e+00	0.00000e+00	0.00000e+00	0.00000e+00	0.00000e+00	0.00000e+00	0.00000e+00	0.00000e+00	0.00000e+00	
Factor	1.00000e+00	1.00000e+00	1.00000e+00	1.00000e+00	1.00000e+00	1.00000e+00	1.00000e+00	1.00000e+00	1.00000e+00	1.00000e+00	1.00000e+00	1.00000e+00	1.00000e+00	1.00000e+00	1.00000e+00	1.00000e+00	1.00000e+00	1.00000e+00	1.00000e+00	1.00000e+00	1.00000e+00	1.00000e+00	1.00000e+00	1.00000e+00	1.00000e+00	1.00000e+00	1.00000e+00	1.00000e+00	1.00000e+00	1.00000e+00	1.00000e+00	1.00000e+00	X	X	X	X	X	X	X	X	X	X	X	X	X	X	X	X	

B = Detector Channel
Val Type	B-AC1	B-AC2	B-AC3	B-AC4	B-AC5	B-AC6	B-AC7	B-AC8	B-AC9	B-AC10	B-AC11	B-AC12	B-AC13	B-AC14	B-AC15	B-AC16	B-DC1	B-DC2	B-DC3	B-DC4	B-DC5	B-DC6	B-DC7	B-DC8	B-DC9	B-DC10	B-DC11	B-DC12	B-DC13	B-DC14	B-DC15	B-DC16	B-Ph1	B-Ph2	B-Ph3	B-Ph4	B-Ph5	B-Ph6	B-Ph7	B-Ph8	B-Ph9	B-Ph10	B-Ph11	B-Ph12	B-Ph13	B-Ph14	B-Ph15	B-Ph16	

Term	0.00000e+00	0.00000e+00	0.00000e+00	0.00000e+00	0.00000e+00	0.00000e+00	0.00000e+00	0.00000e+00	0.00000e+00	0.00000e+00	0.00000e+00	0.00000e+00	0.00000e+00	0.00000e+00	0.00000e+00	0.00000e+00	0.00000e+00	0.00000e+00	0.00000e+00	0.00000e+00	0.00000e+00	0.00000e+00	0.00000e+00	0.00000e+00	0.00000e+00	0.00000e+00	0.00000e+00	0.00000e+00	0.00000e+00	0.00000e+00	0.00000e+00	0.00000e+00	-1.66846e+02	-1.34632e+02	-1.19075e+02	-1.82224e+02	-8.02325e+01	-6.67277e+01	-1.58170e+02	-1.62015e+02	-8.35788e+01	-7.02546e+01	-1.73109e+02	-1.72004e+02	-1.81804e+02	-1.76196e+02	-7.46956e+01	-1.49552e+02	
Factor	2.54741e-05	1.34827e-04	4.03306e-05	1.71615e-01	1.32729e-06	1.51022e-06	1.60986e-01	4.50902e-02	1.27164e-06	1.50857e-06	1.00538e-01	2.87464e-02	2.61389e-02	8.32530e-03	1.41169e-06	1.19755e-02	1.21615e-05	1.93802e-05	5.39616e-06	9.17612e-02	1.95703e-07	2.18764e-07	8.09249e-02	2.41910e-02	1.92481e-07	2.16306e-07	5.21031e-02	1.49289e-02	1.41790e-02	4.50723e-03	2.02605e-07	6.27252e-03	X	X	X	X	X	X	X	X	X	X	X	X	X	X	X	X	



#DISTANCE SETTINGS
A = Detector Channel
A-1	A-2	A-3	A-4	A-5	A-6	A-7	A-8	A-9	A-10	A-11	A-12	A-13	A-14	A-15	A-16	

2.5000e+00	3.0000e+00	2.5000e+00	3.0000e+00	2.0000e+00	3.0000e+00	1.5000e+00	3.0000e+00	3.0000e+00	3.0000e+00	3.0000e+00	3.0000e+00	3.0000e+00	3.0000e+00	1.5000e+00	3.0000e+00	

B = Detector Channel
B-1	B-2	B-3	B-4	B-5	B-6	B-7	B-8	B-9	B-10	B-11	B-12	B-13	B-14	B-15	B-16	

1.0000e+01	1.0000e+01	1.0000e+01	1.4400e+00	1.0000e+01	1.0000e+01	1.5100e+00	1.9400e+00	1.0000e+01	1.0000e+01	1.9900e+00	2.4900e+00	2.4100e+00	2.9000e+00	1.0000e+01	2.9800e+00	




#DATA BEGINS
time	group	step	mark	flag	A-AC1	A-AC2	A-AC3	A-AC4	A-AC5	A-AC6	A-AC7	A-AC8	A-AC9	A-AC10	A-AC11	A-AC12	A-AC13	A-AC14	A-AC15	A-AC16	A-DC1	A-DC2	A-DC3	A-DC4	A-DC5	A-DC6	A-DC7	A-DC8	A-DC9	A-DC10	A-DC11	A-DC12	A-DC13	A-DC14	A-DC15	A-DC16	A-Ph1	A-Ph2	A-Ph3	A-Ph4	A-Ph5	A-Ph6	A-Ph7	A-Ph8	A-Ph9	A-Ph10	A-Ph11	A-Ph12	A-Ph13	A-Ph14	A-Ph15	A-Ph16	B-AC1	B-AC2	B-AC3	B-AC4	B-AC5	B-AC6	B-AC7	B-AC8	B-AC9	B-AC10	B-AC11	B-AC12	B-AC13	B-AC14	B-AC15	B-AC16	B-DC1	B-DC2	B-DC3	B-DC4	B-DC5	B-DC6	B-DC7	B-DC8	B-DC9	B-DC10	B-DC11	B-DC12	B-DC13	B-DC14	B-DC15	B-DC16	B-Ph1	B-Ph2	B-Ph3	B-Ph4	B-Ph5	B-Ph6	B-Ph7	B-Ph8	B-Ph9	B-Ph10	B-Ph11	B-Ph12	B-Ph13	B-Ph14	B-Ph15	B-Ph16	aux-1	digaux	

21811.260	1	1	0	256	0.088474	0.14243	0.11979	0.31513	0.11423	0.085393	0.17363	0.36192	0.383	0.076194	0.070033	0.30556	0.36477	0.1737	0.2303	0.26378	-1.1771	-2.0187	-1.8146	-1.5187	-2.0938	-1.6667	-1.9458	-2.4521	-1.3687	-1.8729	-2.0438	-1.5125	-2.2042	-1.5417	-1.5208	-2.3979	118.805	-57.342	-135.002	211.992	-55.473	-0.311	-108.882	118.198	219.773	199.401	-113.736	181.260	177.722	135.411	73.172	148.873	0.00090132	0.0014593	0.00022503	1110	1.5219e-05	1.3649e-05	1601.7	291.66	3.0799e-05	1.7264e-05	565.45	196.2	81.091	31.133	2.2433e-05	99.498	0.036611	0.057483	0.016167	1200.1	0.00056833	0.00064215	1587.5	316.04	0.0005543	0.00062007	628.66	209.02	108.44	39.232	0.00057421	102.32	201.092	-9.339	-17.317	-123.881	-106.613	67.322	-124.176	-120.733	-99.827	142.435	-121.541	-117.874	-117.234	-113.179	53.521	-114.431	-8191	255	
21811.355	1	1	0	0	0.10289	0.14312	0.14377	0.088124	0.056536	0.17396	0.23604	0.13685	0.20637	0.17099	0.4062	0.16	0.34064	0.15008	0.20342	0.42816	-1.2188	-2.225	-1.9625	-1.7667	-2.1333	-1.7729	-1.8271	-2.3979	-1.4792	-1.9229	-2.2104	-1.6167	-2.2125	-1.8229	-1.5667	-2.4271	13.137	60.233	-131.067	215.731	-74.566	-55.182	174.314	-98.486	119.237	94.715	191.990	176.552	200.711	137.767	213.426	180.050	0.0011181	0.0017539	0.0010451	1114.1	2.3613e-05	5.2343e-05	1603	294.09	9.1182e-06	1.4382e-05	569	196.26	80.551	31.44	2.9108e-05	99.529	0.034261	0.053965	0.015333	1190.8	0.00054064	0.0006161	1582.5	314.07	0.000532	0.00059518	620.57	206.58	106.75	39.091	0.00055376	101.53	153.034	-1.075	-87.586	-124.287	-99.731	102.215	-124.168	-120.453	123.946	57.334	-121.085	-117.783	-117.385	-112.749	59.755	-114.151	-8191	255	
21811.451	1	1	0	0	0.03946	0.079495	0.184	0.08941	0.042989	0.10405	0.26526	0.22921	0.22902	0.15952	0.2015	0.10215	0.11291	0.18479	0.27159	0.17208	-1.2667	-2.0458	-2.1083	-1.4792	-2.1708	-1.8438	-1.6792	-2.4771	-1.4604	-1.8146	-2.325	-1.6479	-2.2042	-2.1667	-1.4562	-2.2396	204.689	-126.916	173.917	90.877	76.478	95.484	185.845	112.892	-107.719	-126.356	120.341	-27.697	-97.221	139.885	-12.337	107.041	0.00068954	0.0025385	0.00090618	1110.1	3.2779e-05	3.0573e-05	1604.3	292.52	6.9028e-06	2.1876e-05	560.77	191.27	79.21	29.928	3.0626e-05	95.069	0.033178	0.052632	0.01475	1180.4	0.00052824	0.00059525	1572.5	310.42	0.00051609	0.00058342	611.84	201.65	103.93	37.436	0.00052483	96.837	155.403	-100.917	-19.273	-124.020	217.847	-22.268	-124.291	-120.896	33.088	75.065	-122.061	-117.723	-118.154	-113.347	42.770	-114.217	-8191	255	
21811.549	1	1	0	0	0.18449	0.097756	0.12999	0.068362	0.18545	0.12308	0.10645	0.31114	0.21394	0.23567	0.33676	0.14087	0.030125	0.17802	0.10478	0.19998	-1.2042	-1.75	-2.2104	-1.6063	-1.9458	-2.0312	-1.675	-2.4062	-1.6271	-1.7125	-2.3208	-1.6271	-2.05	-1.975	-1.4104	-2.5354	-78.420	71.632	131.773	86.884	-51.745	168.839	144.266	154.417	126.469	11.257	142.780	68.978	1.499	50.128	-82.631	174.551	0.0015157	0.003363	0.00043202	1103.9	6.1469e-06	1.2901e-05	1594.7	289.16	1.5002e-05	3.4933e-05	553.35	187.08	77.534	28.978	9.2091e-06	91.672	0.031295	0.049053	0.01358	1153.9	0.00047985	0.00054638	1536.3	300.92	0.00047355	0.00053405	591.03	193.44	99.656	35.426	0.00048291	92.693	173.460	-87.357	92.493	-124.657	-42.472	-121.426	-124.384	-121.225	-84.188	-56.733	-121.820	-118.105	-118.047	-113.600	12.935	-114.711	-8191	255	
21811.645	1	1	0	0	0.12552	0.16034	0.29564	0.25403	0.12572	0.1621	0.38362	0.28649	0.2517	0.096357	0.21473	0.10327	0.10691	0.032728	0.084322	0.31321	-1.2708	-1.5688	-2.15	-1.5896	-1.9208	-2.2396	-1.6562	-2.4708	-1.8229	-1.5562	-2.5375	-1.5562	-1.8792	-2.4	-1.3354	-2.2396	133.528	-81.462	210.608	85.522	145.668	3.943	188.708	-111.977	175.980	-113.037	212.828	-106.835	168.599	-104.754	-38.032	196.715	0.0011751	0.0014122	0.0011585	1106.4	1.2639e-05	3.8839e-05	1564.7	288.32	1.8383e-05	4.7736e-05	543.63	185.26	76.798	28.987	2.35e-05	91.405	0.029088	0.045929	0.01265	1140.3	0.00046357	0.00051977	1517.5	297.16	0.0004573	0.0005148	582.05	191.47	98.436	35.163	0.00048034	92.619	156.066	149.317	-96.105	-124.326	-24.594	29.912	-124.379	-121.335	-123.603	-129.946	-121.476	-117.944	-118.586	-113.395	-80.801	-114.552	-8191	255	
21811.740	1	1	0	0	0.17214	0.20308	0.10506	0.20343	0.075995	0.12017	0.56419	0.28544	0.12733	0.2164	0.039111	0.20071	0.29604	0.14815	0.51308	0.39544	-1.6375	-1.5396	-2.3208	-1.8021	-1.6479	-2.1958	-1.75	-2.1667	-1.8229	-1.4708	-2.6208	-1.7313	-1.7917	-2.4458	-1.4292	-2.0062	188.129	195.238	166.442	206.797	-69.922	220.351	150.830	171.376	19.776	-120.280	-28.209	-110.800	-134.723	167.123	194.610	176.506	0.001052	0.00061795	0.00018788	1103.9	1.2634e-05	1.7341e-05	1593.7	291.23	1.3683e-05	2.1637e-05	555.18	190.1	78.119	29.787	1.7938e-05	95.168	0.029582	0.046597	0.012837	1145.1	0.0004712	0.00053002	1534.9	302.97	0.00047879	0.00053494	595.36	198.04	101.98	36.851	0.00051351	97.149	176.797	-52.394	-102.445	-124.562	-70.703	-126.417	-124.769	-120.582	-120.053	-58.193	-121.563	-117.799	-117.815	-112.675	215.004	-114.246	-8191	255	
21811.836	1	1	0	0	0.21875	0.10902	0.10173	0.28473	0.28893	0.056491	0.20924	0.1757	0.085185	0.062056	0.2244	0.17871	0.12567	0.28907	0.26349	0.1457	-1.6083	-1.3312	-2.2667	-1.7792	-1.5438	-2.4333	-1.65	-2.0333	-1.9271	-1.4438	-2.4417	-1.7979	-1.6146	-2.3979	-1.3917	-1.8854	217.260	-0.363	152.578	117.643	41.551	-15.361	179.474	185.258	137.536	-6.612	146.041	200.470	169.273	133.220	189.815	-85.570	0.00095129	0.0017529	0.00025779	1099.2	1.0391e-05	1.612e-05	1587.9	287.93	1.2294e-05	1.2381e-05	556.12	187.88	78.467	29.842	1.638e-05	94.342	0.031806	0.049946	0.01382	1162.4	0.00051054	0.00056407	1547.6	304.61	0.00050306	0.00056246	601.6	198.28	102.88	36.487	0.00051319	96.095	178.029	42.014	-63.483	-124.013	27.390	72.141	-124.457	-121.015	84.100	53.891	-121.944	-118.365	-118.176	-113.366	89.678	-114.522	-8191	255	
21811.955	1	1	0	0	0.11775	0.081543	0.11543	0.32914	0.095557	0.34709	0.47464	0.17021	0.05057	0.35025	0.18331	0.25637	0.2865	0.15178	0.1661	0.32757	-1.6854	-1.3146	-2.1625	-1.9146	-1.5083	-2.3375	-1.9375	-2.1083	-2.0708	-1.3813	-2.3604	-2.0563	-1.5688	-2.5229	-1.6542	-1.9604	-106.557	161.507	143.495	93.401	22.928	-5.416	161.925	192.573	202.524	-73.808	126.030	186.303	22.095	-134.320	193.126	-128.905	0.00071596	0.001578	0.00011682	1097.4	2.0526e-05	7.5814e-06	1572.9	283.97	6.1756e-06	7.8254e-06	546.59	184.75	77.356	28.743	2.4888e-05	91.31	0.031228	0.048826	0.013544	1151.2	0.00049095	0.00054742	1529.3	299.69	0.00048283	0.00053736	589.41	193.53	100.46	35.488	0.00050498	93.4	181.419	68.030	91.751	-124.437	161.289	111.463	-124.385	-121.427	64.750	126.384	-121.564	-118.066	-117.117	-113.310	-38.385	-114.868	-8191	255	
21812.029	1	1	0	0	0.049601	0.066354	0.1074	0.28537	0.27211	0.16174	0.47036	0.34589	0.073438	0.10725	0.327	0.30119	0.12872	0.22255	0.14163	0.22125	-1.9917	-1.4021	-2.2479	-2.0667	-1.5729	-2.2646	-2.0479	-1.7292	-2.2833	-1.3417	-2.1542	-2.1958	-1.5625	-2.1667	-1.7292	-1.8167	205.014	-76.148	173.210	73.743	-15.787	-125.578	202.097	-107.792	-37.284	-91.853	158.394	195.612	185.174	139.692	105.496	212.103	0.0011745	0.0019202	0.00037504	1092.3	1.1709e-06	5.7113e-06	1574.8	285.34	3.0504e-05	2.648e-05	543.91	184	76.379	28.77	3.0761e-05	91.147	0.030271	0.047415	0.013109	1140.9	0.00048138	0.00053331	1524.2	298.55	0.00047303	0.00053011	585.07	192.79	99.657	35.324	0.0005055	93.418	162.216	-36.542	-39.759	-124.726	-63.579	-17.763	-124.582	-120.428	1.697	19.753	-121.937	-118.443	-118.006	-113.178	30.976	-114.706	-8191	255	
21812.125	1	1	0	0	0.14104	0.15702	0.1338	0.14713	0.31322	0.10245	0.22066	0.32111	0.060609	0.12216	0.089006	0.1065	0.088108	0.17329	0.031301	0.22782	-1.9354	-1.3333	-1.8146	-2.0604	-1.3958	-2.2625	-1.9354	-1.8125	-2.2854	-1.6875	-1.8687	-2.3479	-1.4562	-2.1292	-1.8813	-1.6604	162.478	133.146	181.897	131.495	-48.543	208.831	187.165	138.369	-112.192	165.734	190.566	86.639	216.275	137.866	-124.278	183.102	0.00096007	0.0013714	0.00028701	1095.8	1.6817e-05	4.2336e-05	1562.7	283	1.6688e-05	1.0519e-05	544.94	182.52	76.554	28.454	2.96e-05	91.532	0.030482	0.048209	0.013452	1144.9	0.00049386	0.00054465	1524.1	298.6	0.0004841	0.00054244	589.06	193.14	99.857	35.236	0.00050822	93.334	151.498	-43.349	204.077	-124.305	-101.450	-51.132	-124.915	-121.163	-36.908	-12.945	-121.812	-118.551	-117.395	-113.406	43.389	-114.432	-8191	255	
21812.244	1	1	0	0	0.15174	0.2218	0.2076	0.25405	0.072597	0.12499	0.24708	0.2007	0.080357	0.36276	0.13725	0.32774	0.15622	0.32898	0.18161	0.22572	-1.9104	-1.4729	-1.6333	-2.2146	-1.5396	-2.15	-2.1792	-1.5083	-2.2375	-1.5208	-1.8	-2.3542	-1.4583	-2.1188	-2.1292	-1.5125	-83.181	-3.457	128.260	164.966	213.813	134.731	167.401	159.864	99.175	86.464	61.655	-109.036	63.363	122.009	-69.197	82.528	0.00026242	0.0048515	0.00082402	1077.1	1.9214e-05	1.0628e-05	1555.9	280.24	4.2449e-06	2.8405e-06	538.92	180.54	75.418	28.089	3.7713e-05	89.366	0.03029	0.048666	0.013475	1134.6	0.00048827	0.00053877	1510.4	294.82	0.00047114	0.00053282	580.95	189.63	97.951	34.515	0.00049865	90.907	211.116	195.966	-66.418	-124.000	-133.476	-99.728	-124.908	-121.045	160.369	184.966	-121.764	-117.679	-117.942	-112.992	-79.281	-114.613	-8191	255	
21812.340	1	1	0	0	0.34454	0.27189	0.22781	0.41746	0.36633	0.067616	0.14307	0.19515	0.15548	0.1558	0.37789	0.30777	0.0092136	0.10326	0.08937	0.27564	-1.8667	-1.5438	-1.5708	-2.3271	-1.4333	-2.0625	-2.1833	-1.4792	-2.2375	-1.6938	-1.6625	-2.2021	-1.3354	-2.1167	-2.0729	-1.8667	-10.270	174.666	-96.531	200.419	-129.915	135.853	186.143	202.024	-88.316	177.692	203.662	181.592	81.764	183.769	210.515	179.412	0.00080905	0.00083947	0.00056298	1082.1	2.8126e-05	1.464e-05	1543.9	277.85	1.8626e-05	2.4223e-05	529.9	179.51	73.466	27.434	2.4823e-05	88.213	0.029504	0.047194	0.013163	1124	0.00047092	0.00052529	1498.1	291.01	0.00045709	0.00051978	571.79	187.42	96.418	33.87	0.0004852	89.746	161.566	82.276	92.368	-124.679	-1.572	26.421	-124.556	-121.261	-133.345	79.456	-121.514	-118.162	-118.678	-113.363	123.849	-114.375	-8191	255	
21812.436	1	1	0	0	0.19805	0.1459	0.17707	0.36767	0.28558	0.15286	0.22485	0.32863	0.16209	0.17798	0.17505	0.21954	0.16744	0.164	0.27387	0.24798	-1.8208	-1.9271	-1.6688	-2.3896	-1.4896	-1.9417	-2.4313	-1.4375	-2.0625	-1.9062	-1.6542	-2.5417	-1.5833	-1.9729	-2.0896	-1.5458	78.506	-14.254	98.692	182.256	120.760	56.486	169.052	176.638	-91.251	85.186	-104.185	194.141	216.430	192.945	131.073	173.075	0.001057	0.0028199	0.00057809	1075.4	1.9867e-05	2.4609e-05	1540.9	276.87	1.5801e-05	2.2835e-05	537.36	179.08	74.35	27.573	1.8386e-05	88.991	0.028914	0.046354	0.012828	1120	0.00046608	0.00051826	1499.9	291.22	0.00045969	0.00052086	577.77	187.72	97.143	34.287	0.00048929	90.985	185.904	-41.942	171.847	-124.309	152.345	23.272	-124.800	-121.263	211.068	99.896	-121.363	-117.987	-118.002	-114.012	62.650	-114.232	-8191	255	
21812.557	1	1	0	0	0.13214	0.10243	0.034613	0.1192	0.32756	0.12359	0.1952	0.14938	0.15478	0.24372	0.12842	0.24436	0.25727	0.27863	0.25145	0.21153	-1.5792	-1.8229	-1.4625	-2.3875	-1.5292	-1.6729	-2.4375	-1.6875	-2.0104	-2.1	-1.4396	-2.225	-1.55	-1.7375	-2.3229	-1.5063	94.970	208.583	164.490	157.251	91.770	212.099	124.518	-118.117	95.120	142.460	165.707	131.666	-73.024	-131.190	-90.152	147.501	0.00097153	0.0018264	0.00048254	1066.2	1.8914e-05	2.231e-05	1549.4	277.98	1.2442e-05	1.098e-05	540.35	182.6	75.509	27.938	3.0757e-06	89.393	0.029323	0.047211	0.012934	1122	0.00047223	0.00052892	1499	293.13	0.00046234	0.00053011	578.54	188.77	97.525	34.416	0.00048404	91.293	194.142	-36.538	61.203	-124.340	141.664	-30.462	-124.588	-120.936	213.645	-100.398	-121.684	-118.437	-118.270	-114.000	19.915	-114.563	-8191	255	
21812.629	1	1	0	0	0.22428	0.19292	0.24068	0.12454	0.15375	0.095958	0.36002	0.10062	0.088502	0.42646	0.063144	0.20192	0.20131	0.25114	0.082422	0.043024	-1.7354	-1.9917	-1.4042	-2.1333	-1.6792	-1.5187	-2.5146	-1.65	-1.9646	-2.2604	-1.6125	-2.3646	-1.9146	-1.6313	-2.35	-1.7896	-55.102	55.702	-72.792	164.515	-21.277	195.972	167.897	-89.902	126.349	-60.864	210.924	-135.808	59.542	-93.917	66.060	122.651	0.00085813	0.002047	0.00042254	1079	1.3217e-05	1.6443e-05	1536	279.08	2.1064e-05	2.0906e-05	536.77	180.18	74.247	28.121	1.4747e-05	91.046	0.029277	0.0472	0.013015	1121.8	0.00047012	0.00052385	1495.1	292.43	0.00045984	0.00052484	577.5	188.79	97.515	34.528	0.000485	91.795	198.862	-66.042	-19.799	-124.059	-42.882	1.141	-124.481	-121.261	-75.387	0.193	-121.752	-117.995	-118.122	-113.787	63.109	-114.224	-8191	255	
21812.725	1	1	0	0	0.27313	0.15879	0.05679	0.36132	0.06894	0.22646	0.20798	0.2765	0.18704	0.10505	0.14866	0.28769	0.27559	0.065677	0.02675	0.19225	-1.4208	-2.2208	-1.3792	-2.2896	-1.9562	-1.5729	-2.5479	-1.7938	-2.0521	-2.3438	-1.5521	-2.3125	-2.1146	-1.4604	-2.1646	-1.8479	26.261	-17.637	-116.658	182.830	10.236	-75.156	135.690	210.086	-3.344	61.606	-35.005	207.380	-124.080	109.423	192.522	172.137	0.0012398	0.0037582	0.00039347	1077.5	6.7287e-06	2.4319e-05	1548.5	278.39	1.2105e-05	1.2127e-05	537.82	181.17	74.899	28.26	3.8473e-05	90.588	0.029344	0.046478	0.012967	1122.6	0.00046981	0.00052394	1496.7	291.99	0.00045764	0.00051167	575.44	188.42	96.881	34.414	0.00047275	91.493	169.528	12.793	-125.990	-124.418	-27.434	-34.495	-124.323	-120.881	-85.675	-22.671	-121.485	-118.338	-118.286	-113.038	131.202	-114.255	-8191	255	
21812.846	1	1	0	0	0.17708	0.23963	0.067939	0.29979	0.15489	0.23901	0.23353	0.099427	0.26412	0.27026	0.1146	0.37134	0.32049	0.12106	0.080643	0.26053	-1.4937	-2.3583	-1.6083	-2.1604	-1.8937	-1.4854	-2.3646	-1.7417	-1.6354	-2.3688	-1.8042	-2.2104	-2.2062	-1.3542	-2.2812	-1.8396	-90.242	18.558	196.793	202.027	102.518	173.965	210.490	129.297	-114.255	141.450	-131.269	146.493	212.546	81.501	77.330	151.331	0.0012025	0.00084222	0.00013748	1079.1	9.7931e-06	5.1208e-05	1553.7	280.47	1.58e-05	1.8079e-05	541.85	183.89	75.597	28.62	1.9485e-05	91.697	0.028878	0.045278	0.012514	1117.7	0.00046209	0.00051466	1498.4	292.58	0.00045203	0.00050309	579.18	190.36	97.299	34.677	0.00047121	92.62	174.247	211.351	149.821	-124.165	153.096	-38.228	-124.410	-120.898	87.348	-84.880	-121.274	-117.724	-118.876	-113.703	-48.742	-114.402	-8191	255	
21812.941	1	1	0	0	0.21827	0.24495	0.16	0.21044	0.18861	0.30559	0.14147	0.35724	0.15907	0.2007	0.15753	0.15547	0.16654	0.27021	0.16886	0.18031	-1.4312	-2.2667	-1.6417	-2.2354	-2.0375	-1.2083	-2.5458	-2.1396	-1.4042	-2.2771	-1.8354	-1.9396	-2.1562	-1.4438	-2.075	-2.2458	-21.831	150.080	153.328	207.720	-43.520	-25.778	134.604	188.744	-119.911	-83.063	178.628	-135.809	48.070	-126.645	62.258	125.452	0.00098768	4.3374e-05	0.00031265	1084.5	6.5736e-06	6.2732e-06	1555.4	282.19	1.4796e-05	3.2871e-05	543.14	182.67	76.15	28.438	4.8572e-06	91.23	0.028881	0.045138	0.012698	1127.5	0.0004659	0.00051414	1502.3	294.45	0.0004529	0.0005038	580.51	190.44	97.842	34.63	0.00047445	92.479	185.300	209.757	58.610	-124.371	161.851	101.525	-124.310	-121.021	216.527	86.854	-121.562	-117.708	-118.194	-113.202	37.631	-114.279	-8191	255	
21813.037	1	1	0	0	0.14533	0.097439	0.15986	0.15461	0.048589	0.17862	0.21807	0.27959	0.32698	0.13176	0.085699	0.11213	0.39485	0.1315	0.11823	0.10385	-1.2104	-2.1688	-1.6125	-1.8687	-2.1542	-1.3958	-2.1146	-2.0458	-1.4875	-1.9833	-1.8854	-1.6896	-2.3187	-1.5583	-2.1021	-2.1208	-136.494	34.520	-6.104	-94.984	-23.803	64.978	89.648	147.499	-113.869	169.744	106.473	-109.107	-116.918	186.000	-50.200	-100.838	0.0011147	0.0015671	0.00049512	1081.4	1.5517e-05	4.5943e-05	1555.8	282.23	1.6971e-05	1.7063e-05	532.61	182.67	75.596	28.701	2.2681e-05	91.686	0.02891	0.045244	0.012744	1122.3	0.00045925	0.00051324	1496.1	293.67	0.00045221	0.00050234	576.89	189.38	96.877	34.659	0.00047616	92.673	167.960	84.116	94.260	-123.998	129.898	45.472	-124.531	-120.923	164.483	-3.459	-121.709	-118.184	-117.841	-113.077	26.723	-114.239	-8191	255	
21813.156	1	1	0	0	0.23564	0.095929	0.039416	0.20802	0.29479	0.14593	0.35688	0.21729	0.064057	0.20487	0.095008	0.25705	0.22197	0.19982	0.17988	0.29292	-1.2062	-2.3167	-1.7188	-1.8021	-2.2208	-1.5042	-2.3083	-2.1146	-1.2229	-2.075	-2.0542	-1.7104	-2.4813	-1.5604	-1.8333	-2.2792	27.348	38.185	-77.292	206.578	188.313	74.985	162.089	218.524	-42.988	94.959	-101.262	-136.996	-135.903	168.934	-137.999	-137.290	0.001243	0.00084189	0.00051224	1079.3	1.3412e-05	1.1604e-05	1554	279.32	1.2407e-05	1.835e-05	540.92	183.28	75.048	28.388	5.5395e-06	90.883	0.02931	0.046042	0.012932	1124.6	0.00046961	0.00052255	1501.6	293.46	0.00045819	0.00051522	581.7	190.89	97.249	34.863	0.00048414	92.554	159.114	12.131	154.326	-124.226	87.781	-32.545	-124.026	-120.680	211.466	192.513	-121.939	-118.177	-117.815	-113.545	-33.622	-114.317	-8191	255	
21813.252	1	1	0	0	0.20672	0.19502	0.22725	0.13229	0.085306	0.24858	0.026499	0.38572	0.10064	0.11253	0.30206	0.14061	0.15968	0.30843	0.083176	0.40178	-1.125	-2.2208	-1.9042	-1.7417	-2.3917	-1.6	-2.1042	-2.3083	-1.4229	-2.2208	-2.0938	-1.6396	-2.5667	-1.6187	-1.8167	-2.4437	34.554	122.751	151.978	208.622	-78.624	39.672	-130.736	151.503	-91.502	126.329	169.827	129.023	-124.653	-45.449	-9.108	166.212	0.0010481	0.0011678	0.00093863	1081.8	1.862e-05	1.762e-05	1552.8	283.93	1.4986e-05	1.2458e-05	545.13	184.51	77.299	28.722	1.9066e-05	92.002	0.029233	0.046259	0.013106	1130	0.00046741	0.0005246	1510.7	295.64	0.00045979	0.00051225	585.55	192.4	98.846	35.083	0.00049238	93.379	151.020	155.649	-76.938	-124.221	144.202	185.278	-124.138	-121.036	-35.896	18.816	-121.665	-117.809	-117.695	-113.762	192.569	-114.323	-8191	255	
21813.324	1	1	0	0	0.083998	0.1263	0.069051	0.46687	0.22671	0.14484	0.16479	0.19268	0.04499	0.17718	0.11097	0.16804	0.16395	0.2418	0.11906	0.2769	-1.0417	-2.1833	-2.1063	-1.7458	-2.4062	-1.7167	-2.0083	-2.4562	-1.4438	-1.9854	-2.2146	-1.5562	-2.4083	-1.7146	-1.75	-2.4396	-53.941	144.778	59.871	196.865	190.488	-33.722	187.122	156.422	83.223	103.243	-124.200	53.327	168.198	191.534	175.202	197.187	0.0010125	0.0019489	0.0010942	1094.4	2.4291e-05	8.2838e-06	1567.2	285.05	1.9073e-05	1.1984e-05	544.84	184.37	76.637	28.504	3.0456e-05	91.737	0.029555	0.046725	0.013318	1142	0.00047194	0.00054008	1522.1	298.69	0.00047447	0.00052471	588.56	192.46	99.061	35.28	0.00049328	93.035	141.240	-76.462	-39.308	-124.230	85.604	83.160	-124.358	-120.698	43.934	-62.283	-121.390	-117.819	-117.788	-113.397	-26.711	-114.574	-8191	255	
21813.420	1	1	0	0	0.17221	0.15404	0.18946	0.043252	0.008078	0.13803	0.24476	0.17307	0.27348	0.13769	0.29902	0.3973	0.22245	0.36051	0.095059	0.26528	-1.1208	-2.0583	-2.2854	-1.5583	-2.1542	-1.8896	-1.8292	-2.2313	-1.5333	-1.9625	-2.3083	-1.6021	-2.2812	-1.8354	-1.5187	-2.4437	-83.559	51.719	-124.354	203.586	-76.373	188.101	183.478	-112.083	195.970	9.460	168.745	115.281	-67.327	-109.801	-26.997	146.853	0.00085443	0.0021925	0.00077263	1089.6	3.9801e-06	1.9384e-05	1557.4	283.58	1.2571e-05	2.5464e-05	544.81	183.26	75.691	28.603	1.9514e-05	90.53	0.029683	0.047099	0.013216	1133.7	0.00046958	0.00053389	1511.7	296.75	0.00046595	0.00052514	585.97	190.87	98.018	34.879	0.00049392	92.309	197.438	108.001	27.366	-124.064	123.581	-89.107	-124.515	-121.145	42.315	39.099	-121.462	-117.683	-117.579	-113.106	-53.834	-114.196	-8191	255	
21813.516	1	1	0	0	0.093534	0.27323	0.21151	0.041461	0.070775	0.048262	0.2893	0.20882	0.30987	0.17013	0.11624	0.16011	0.1695	0.30888	0.13026	0.22457	-1.25	-2.0062	-2.2208	-1.6521	-2.2042	-2.2417	-1.7292	-2.3937	-1.5792	-1.6812	-2.4271	-1.6271	-2.1979	-2.0729	-1.3083	-2.425	161.596	24.893	91.792	124.548	3.941	211.983	112.946	140.830	214.441	89.670	150.347	-134.886	-130.465	-6.606	163.145	110.494	0.00069903	0.00047445	0.00037531	1081.7	6.4806e-06	3.0418e-05	1551.8	281.18	5.2469e-05	1.5337e-05	545.95	182.55	76.253	28.257	3.4395e-05	91.613	0.029892	0.046815	0.013109	1129.5	0.00046893	0.00052617	1501.7	294.29	0.00045888	0.00051646	582	190.47	97.916	34.753	0.00048521	92.412	150.222	124.398	-49.929	-123.781	220.792	-53.273	-124.305	-120.917	-81.821	182.257	-121.484	-117.788	-117.560	-113.086	-42.346	-114.247	-8191	255	
21813.637	1	1	0	0	0.30657	0.094068	0.11066	0.30058	0.066927	0.23381	0.36107	0.31326	0.092072	0.21547	0.003972	0.21272	0.061556	0.1231	0.13939	0.17426	-1.3687	-1.5812	-2.3542	-1.5312	-2.1562	-1.9021	-1.6354	-2.375	-1.8396	-1.6833	-2.5792	-1.6521	-1.9042	-2.1167	-1.4312	-2.5938	-6.995	-67.173	98.202	159.277	216.525	32.349	174.807	167.503	-122.788	36.425	54.294	155.721	220.292	202.972	-31.275	-105.265	0.00098005	0.0016318	0.00077566	1090.8	1.3637e-05	2.6653e-05	1559.4	285.85	7.0133e-06	1.5819e-05	550.59	185.86	76.523	29.111	1.8175e-05	92.722	0.029247	0.04651	0.01294	1134.3	0.00046728	0.00053367	1520.3	298.7	0.00046544	0.00052328	588.37	193.03	99.138	35.438	0.00048518	93.896	153.777	169.965	-123.745	-124.182	28.951	-79.705	-124.668	-120.767	19.707	23.056	-121.781	-118.073	-117.525	-112.803	-47.932	-114.458	-8191	255	
21813.732	1	1	0	0	0.079095	0.096524	0.098197	0.32466	0.2085	0.050973	0.099293	0.20293	0.37333	0.1001	0.14223	0.28507	0.19787	0.11119	0.2418	0.18435	-1.3521	-1.6583	-2.0729	-1.8646	-1.6979	-2.1521	-1.5729	-2.2896	-1.9354	-1.6542	-2.4917	-1.7958	-1.7708	-2.1875	-1.6729	-2.275	89.614	-59.364	-136.511	151.428	91.062	-67.623	96.782	188.413	-70.549	-134.803	95.185	217.013	194.916	148.540	163.125	-121.012	0.0012177	0.0016662	0.00086212	1095.1	3.1246e-05	2.2571e-05	1562.3	286.11	1.0958e-05	2.4102e-05	555.09	185.93	77.423	28.764	2.6559e-06	91.996	0.029507	0.046487	0.012909	1137.5	0.00047193	0.00053205	1514	298.75	0.00046803	0.00052579	589.81	193.06	99.26	35.443	0.00049293	93.519	154.250	-12.026	-101.185	-124.200	-63.141	124.287	-124.092	-120.861	32.152	-42.283	-121.548	-117.730	-117.308	-113.236	-11.859	-114.280	-8191	255	
21813.828	1	1	0	0	0.19399	0.15	0.3662	0.33381	0.06464	0.048135	0.13282	0.21209	0.034694	0.23863	0.29804	0.011064	0.12263	0.20481	0.22725	0.10183	-1.6333	-1.5354	-2.2875	-1.9104	-1.7333	-2.3396	-1.8521	-2.1646	-2.1625	-1.475	-2.5021	-1.9854	-1.7125	-2.375	-1.6292	-2.225	67.472	13.026	-22.275	201.135	-21.538	-110.206	84.489	-86.881	158.908	-103.420	-135.398	159.942	207.076	192.698	192.621	79.993	0.0012015	0.0019959	0.00011159	1092.2	6.4751e-06	1.3426e-05	1558.6	284.1	2.2824e-05	1.8427e-05	546.77	184.61	76.356	28.495	1.3736e-05	92.102	0.03025	0.047291	0.013027	1135.6	0.00047968	0.0005355	1513.1	297.37	0.00047655	0.0005293	585.91	192.63	99.041	35.315	0.00049522	93.775	195.290	202.631	-117.001	-124.402	-77.398	-36.005	-124.616	-120.372	-126.926	-101.526	-121.418	-117.976	-117.203	-113.272	-132.968	-114.807	-8191	255	
21813.926	1	1	0	0	0.02645	0.27416	0.04556	0.073544	0.27775	0.091046	0.12094	0.18494	0.18714	0.028031	0.26512	0.26048	0.073955	0.20449	0.16946	0.27428	-1.9104	-1.5333	-2.2854	-1.7667	-1.675	-2.4667	-1.6771	-2.0417	-1.975	-1.4688	-2.35	-1.8604	-1.6292	-2.1521	-1.5542	-2.0938	-3.270	94.061	-96.957	205.513	176.258	174.562	208.406	161.378	212.264	82.506	109.590	174.995	-127.880	218.512	-87.304	151.374	0.0012851	0.0026258	5.4749e-05	1071.1	1.8428e-05	4.827e-05	1552.8	282.17	1.982e-05	3.2868e-05	551.54	185.77	77.548	28.793	2.436e-05	92.709	0.030256	0.047935	0.013233	1129.6	0.00048506	0.00053632	1514.5	298.5	0.0004825	0.00053839	591.22	193.99	100.26	35.54	0.00050222	94.525	161.696	-49.167	9.424	-124.093	23.801	-99.708	-124.310	-120.194	-64.431	53.340	-121.815	-117.455	-117.914	-113.807	-70.319	-113.785	-8191	255	
21814.021	1	1	0	0	0.14046	0.090335	0.13684	0.28093	0.095178	0.18943	0.39656	0.21344	0.31301	0.3098	0.17444	0.26895	0.077789	0.076395	0.25093	0.30216	-1.8833	-1.4771	-2.175	-2.2562	-1.5042	-2.4771	-1.7313	-2.0604	-2.325	-1.5354	-2.2729	-2.2708	-1.5208	-2.4583	-1.7437	-2.0312	-107.607	166.013	219.823	215.243	-4.145	-106.580	139.314	121.005	-42.848	215.413	183.346	-115.807	96.999	118.637	13.127	142.261	0.0011599	0.0018774	0.00066894	1081.7	3.4359e-05	7.7886e-06	1568.1	286.21	2.3107e-05	1.2885e-05	553.73	186.31	78.073	29.293	2.1556e-05	94.452	0.030714	0.048213	0.013306	1146.1	0.00048378	0.00054081	1525.8	300.49	0.00047304	0.00052694	590.55	194.45	99.896	35.425	0.00048642	94.906	139.574	134.164	-21.584	-124.549	16.715	26.316	-124.910	-120.512	94.843	-39.143	-121.766	-118.680	-118.102	-113.543	82.425	-114.517	-8191	255	
21814.117	1	1	0	0	0.19056	0.25251	0.086536	0.16433	0.15298	0.19951	0.38398	0.19837	0.29582	0.075716	0.11157	0.12246	0.20413	0.17416	0.17755	0.33074	-1.8854	-1.5917	-1.8937	-2.2938	-1.4333	-2.3875	-2.0542	-1.7292	-2.3667	-1.6042	-2.1958	-2.2667	-1.3646	-2.4437	-1.6729	-1.8979	0.798	207.669	-7.407	-118.300	-32.309	137.575	159.094	-107.969	55.864	-48.521	203.877	185.874	-89.263	174.742	-118.686	184.520	0.0012405	0.0030345	0.00032189	1092.7	1.3216e-05	2.1038e-05	1570.4	286.27	9.0589e-06	2.3459e-05	547.17	184.99	76.989	29.236	1.0865e-05	93.716	0.029519	0.046042	0.012842	1142.1	0.00046872	0.00051756	1520.7	299.04	0.00045846	0.00051532	586.46	193.02	98.868	35.16	0.00048643	94.397	198.979	2.226	-129.265	-124.419	-38.825	204.547	-124.591	-121.074	-15.306	-16.162	-121.521	-118.125	-117.339	-113.248	171.505	-114.022	-8191	255	
21814.236	1	1	0	0	0.26867	0.056009	0.18696	0.28787	0.18074	0.047166	0.25555	0.13438	0.06918	0.15394	0.18539	0.24983	0.42094	0.072824	0.11386	0.015554	-1.9646	-1.7729	-2.0417	-2.4125	-1.4875	-2.3458	-2.1542	-1.6	-2.4229	-1.6417	-2.0646	-2.3042	-1.5875	-2.475	-2	-1.6146	141.199	82.872	35.114	-85.541	-107.319	178.850	169.562	198.260	-51.802	177.834	206.338	-105.180	217.116	-4.486	203.490	103.428	0.00073406	0.0021306	0.00050671	1093.4	2.1039e-05	1.2433e-05	1565.4	288.66	2.0906e-05	3.6414e-05	550.04	185.61	77.455	29.021	2.1384e-05	92.409	0.028966	0.046056	0.012763	1138	0.00046418	0.0005179	1513.5	298.75	0.00045035	0.00051127	587.39	192.62	98.324	34.889	0.00048042	93.741	170.211	-22.471	-132.879	-123.847	139.155	147.061	-124.195	-120.971	-2.902	-64.338	-121.555	-118.307	-117.615	-112.974	80.267	-114.266	-8191	255	
21814.332	1	1	0	0	0.30466	0.25213	0.14966	0.11828	0.32106	0.19283	0.37171	0.23463	0.29045	0.09922	0.56531	0.21505	0.16481	0.15561	0.040412	0.1299	-2.0667	-1.7188	-1.8167	-2.4646	-1.0958	-2.1188	-2.4708	-1.85	-2.2292	-1.825	-1.8333	-2.5646	-1.4271	-2.2229	-2.075	-1.5292	211.201	92.294	-54.731	-136.317	-29.454	-8.079	147.872	143.101	-42.981	119.683	174.350	124.607	67.386	-44.270	-0.444	181.355	0.00097416	0.0014751	9.1749e-05	1092.3	1.8654e-05	1.5924e-05	1575.4	287.78	2.2136e-05	1.8631e-05	554.44	186.57	77.061	29.065	1.4274e-05	93.366	0.028533	0.045381	0.012646	1133.5	0.00045688	0.00050932	1518.4	298.15	0.00044508	0.00051111	588.16	192.88	98.137	35.057	0.00047661	94.296	173.080	-47.072	173.317	-124.659	82.476	112.771	-124.869	-120.838	-108.433	-89.761	-121.268	-118.134	-118.024	-113.600	-131.123	-114.265	-8191	255	
21814.430	1	1	0	0	0.20372	0.096222	0.11683	0.26402	0.16274	0.090398	0.41715	0.28229	0.13838	0.16309	0.23405	0.21327	0.21093	0.15034	0.050916	0.16213	-1.8	-1.8521	-1.5229	-2.4479	-1.6083	-1.9438	-2.1937	-1.7062	-2.1396	-1.9188	-1.7375	-2.5396	-1.6104	-1.8958	-2.3396	-1.4771	-82.461	-67.771	-94.165	-132.300	-102.660	19.104	123.609	125.660	143.682	78.074	-133.613	191.000	-128.474	66.033	20.992	34.450	0.0007607	0.0025548	0.00023861	1109.1	1.6707e-05	3.7552e-05	1584.7	289.42	2.4826e-05	5.392e-06	553.74	188.46	77.984	29.536	1.9474e-05	95.08	0.028374	0.045766	0.012648	1140.3	0.00045689	0.0005176	1524.9	300.98	0.00045132	0.00051694	592.48	194.93	99.419	35.634	0.00049029	95.622	155.539	-107.730	182.557	-124.295	-133.620	94.467	-124.524	-120.969	65.599	200.630	-120.997	-117.822	-118.309	-113.044	183.885	-114.363	-8191	255	
21814.525	1	1	0	0	0.2988	0.26082	0.15861	0.20109	0.16452	0.10308	0.50358	0.12749	0.25301	0.029751	0.046513	0.20861	0.42151	0.20362	0.24242	0.22844	-1.7646	-1.9062	-1.4229	-2.2708	-1.7458	-1.8167	-2.4667	-1.6688	-2.2125	-1.9896	-1.6021	-2.2625	-1.6917	-1.7062	-2.1271	-1.5854	92.178	202.217	117.326	130.003	63.182	-90.763	141.679	-37.339	121.498	-106.678	-132.101	161.652	26.038	-70.478	185.919	158.322	0.00067977	0.002632	0.00052086	1103.2	1.8965e-05	9.6825e-06	1579.4	287.86	3.2936e-05	1.3593e-05	550.27	187.2	77.3	28.691	1.9431e-05	93.861	0.029218	0.047285	0.013193	1144.1	0.00047647	0.00053504	1530.9	300.66	0.0004709	0.00053531	592.97	194.95	100.16	35.554	0.00050077	95.17	131.409	111.569	129.159	-124.003	114.279	-71.505	-124.489	-120.859	-25.470	-125.404	-121.404	-118.141	-117.577	-113.774	-132.674	-114.147	-8191	255	
21814.621	1	1	0	0	0.14232	0.15364	0.24249	0.27711	0.14664	0.11657	0.37799	0.080292	0.13757	0.12011	0.32299	0.15645	0.090084	0.1172	0.16489	0.23211	-1.8729	-2.1229	-1.5	-2.4354	-1.4979	-1.8021	-2.3417	-1.6583	-2.1021	-2.2313	-1.5667	-2.5021	-1.85	-1.6792	-2.3521	-1.6667	-108.962	-100.451	9.499	-120.260	-121.864	206.064	-135.737	-101.429	-72.437	60.559	219.114	-136.963	-49.519	185.599	-123.725	146.054	0.00085684	0.0028868	0.00067236	1084.9	1.607e-05	4.4546e-05	1564.7	287.11	1.5514e-05	2.9402e-05	547.84	183.83	77.196	28.584	1.686e-05	89.999	0.029735	0.047346	0.013054	1135.6	0.00047381	0.00052867	1509.2	297.68	0.00045241	0.00051178	580.77	190.24	96.903	34.23	0.00046531	90.939	171.623	105.459	4.023	-124.343	22.657	24.692	-124.587	-120.737	-42.522	-37.788	-120.968	-118.156	-118.106	-113.508	62.066	-114.579	-8191	255	
21814.717	1	1	0	0	0.30532	0.01022	0.16271	0.15024	0.0097983	0.27735	0.24334	0.48939	0.22191	0.13495	0.21722	0.035513	0.14846	0.036348	0.10198	0.1269	-1.5562	-2.1437	-1.3229	-2.4792	-1.6583	-1.5521	-2.6333	-1.6542	-1.8937	-2.325	-1.7875	-2.2562	-1.9271	-1.6063	-2.3937	-1.6917	192.468	-56.038	142.016	198.822	-95.721	161.974	200.920	140.808	118.744	-75.501	211.271	97.492	42.575	59.591	45.330	171.106	0.00092738	0.0033648	0.00044032	1095.3	1.4742e-05	8.3437e-06	1567.4	288.45	3.1323e-05	3.0609e-05	544.7	184.28	76.246	28.702	1.3043e-05	92.133	0.0277	0.044592	0.012281	1127.2	0.00045366	0.00050361	1508.4	297.26	0.0004471	0.00051131	584.97	191.13	99.004	35.133	0.00049221	93.596	163.127	215.244	-45.998	-124.162	-38.375	-63.087	-123.942	-121.071	12.792	0.583	-121.134	-118.056	-117.204	-112.500	40.804	-114.241	-8191	255	
21814.812	1	1	0	0	0.11753	0.15882	0.13844	0.14311	0.17505	0.19022	0.34051	0.26863	0.16769	0.16056	0.12902	0.10086	0.23224	0.14443	0.089321	0.17378	-1.3438	-2.15	-1.3292	-2.175	-1.9604	-1.5625	-2.3479	-1.7542	-1.7479	-2.2125	-1.3438	-2.1063	-1.9479	-1.5104	-2.2396	-1.8646	-76.928	92.841	-130.507	198.828	112.630	189.632	148.911	185.160	-97.947	-5.746	26.626	32.705	125.634	178.941	103.085	100.810	0.00093203	0.0016505	0.00034222	1101.4	1.7031e-05	1.3193e-05	1587.3	290.19	2.6124e-06	1.8205e-05	560.41	189.58	79.016	30.012	3.33e-05	96.036	0.030246	0.048164	0.0134	1154.5	0.00049408	0.00054628	1539	305.01	0.00047566	0.00053921	601.39	197.84	102.13	36.496	0.00049716	97.255	184.703	195.349	45.158	-123.947	18.477	72.990	-124.258	-120.662	58.400	45.740	-121.217	-117.558	-117.904	-113.226	104.467	-114.326	-8191	255	
21814.934	1	1	0	0	0.060986	0.12424	0.17322	0.26464	0.11096	0.14482	0.28018	0.16971	0.074448	0.35885	0.070977	0.15615	0.28547	0.22839	0.31889	0.24643	-1.4771	-2.2979	-1.3729	-2.0563	-2.0667	-1.6146	-2.3563	-1.7563	-1.6521	-2.3292	-1.5063	-2.1104	-2.0583	-1.5271	-2.0875	-1.975	-45.148	-87.468	-50.025	154.912	0.521	69.206	147.743	135.424	146.868	127.597	103.320	210.726	195.796	-70.252	201.999	202.106	0.0005025	0.002273	0.0012089	1099.5	2.3025e-05	3.1885e-05	1570.4	290	2.1955e-05	2.0328e-05	557.68	187.02	77.384	29.581	2.4016e-05	94.197	0.030124	0.047535	0.013096	1145.5	0.00047381	0.00052741	1519.5	301.42	0.00046841	0.00052905	594.73	195.76	100.6	36.262	0.00050581	96.042	152.511	-110.715	9.277	-123.936	69.743	194.121	-124.546	-120.871	66.291	204.994	-121.457	-117.566	-117.570	-112.874	31.728	-114.550	-8191	255	
21815.029	1	1	0	0	0.20446	0.10233	0.054874	0.19977	0.22948	0.17378	0.19671	0.15936	0.2777	0.37228	0.11711	0.17285	0.19092	0.11719	0.06383	0.24295	-1.1125	-2.2271	-1.4188	-1.9688	-2.2292	-1.4771	-2.3542	-2.0479	-1.5646	-2.1854	-1.575	-2.0333	-2.3417	-1.6	-2.1542	-2.0687	-137.628	164.520	-83.224	120.427	-22.271	44.417	154.848	-15.324	5.272	-0.410	163.866	184.810	-107.442	66.657	-113.941	-129.405	0.00074488	0.0013584	0.00022884	1086.5	1.6399e-05	2.8251e-05	1584	288.79	1.9916e-05	3.0615e-05	555.3	188.06	77.881	29.803	3.4329e-05	95.167	0.031517	0.049821	0.014018	1153.3	0.00051691	0.00056833	1541.4	305.57	0.00050834	0.00056927	602.52	198.91	102.44	36.642	0.00051511	96.953	180.973	8.968	187.991	-124.010	174.675	94.635	-124.258	-121.026	77.334	-19.659	-121.578	-117.893	-117.690	-113.865	40.134	-114.449	-8191	255	
21815.125	1	1	0	0	0.10514	0.079538	0.063247	0.17026	0.16684	0.16296	0.24677	0.35081	0.29398	0.13243	0.05252	0.27755	0.15533	0.16967	0.079013	0.35848	-0.98542	-2.2417	-1.5646	-1.7646	-2.1458	-1.5104	-2.1083	-2.0104	-1.3646	-2.2833	-1.6812	-1.7458	-2.3708	-1.6437	-1.8396	-2.3187	103.160	-15.330	136.643	179.161	176.096	151.756	-136.699	155.260	-92.813	78.899	37.198	203.019	100.031	85.308	-98.274	197.923	0.0008838	0.0025065	0.00045621	1085.5	2.1119e-05	3.0317e-07	1571.4	286.7	6.6428e-06	2.2881e-05	554.91	187.6	77.295	29.103	6.66e-06	93.994	0.031033	0.048193	0.013493	1140.6	0.00048667	0.00053682	1517.4	300.61	0.00047394	0.00052736	593.94	196.36	100.27	35.974	0.00050936	95.975	158.572	105.226	151.372	-124.180	-39.397	207.285	-124.374	-120.855	73.708	-63.995	-121.276	-117.198	-117.926	-113.123	-49.188	-114.720	-8191	255	
21815.197	1	1	0	0	0.0074196	0.23062	0.30861	0.28695	0.16599	0.11841	0.11704	0.28426	0.079061	0.050949	0.37822	0.37488	0.16237	0.075962	0.031971	0.23389	-0.99583	-2.1771	-1.6667	-1.7938	-2.3229	-1.6167	-1.9958	-2.1292	-1.3937	-2.2646	-2.0125	-1.7188	-2.1792	-1.5208	-1.975	-2.3833	-124.237	-106.106	37.047	186.626	-24.096	191.824	97.193	134.064	160.967	-112.308	199.704	105.371	-110.456	-106.796	-82.463	122.638	0.0014264	0.0012715	0.00037209	1087.7	4.0223e-05	3.0371e-05	1572.4	288.24	2.1786e-05	4.8318e-05	549.58	184.2	75.287	28.52	2.1795e-05	92.004	0.030999	0.048857	0.013884	1150.7	0.00050088	0.00055726	1532.6	303.35	0.00048774	0.00054425	595.5	193.91	99.664	35.301	0.0005	93.369	169.437	-133.311	31.192	-124.283	49.435	19.973	-124.384	-120.675	137.844	159.778	-121.192	-117.531	-117.993	-113.056	169.205	-114.415	-8191	255	
21815.316	1	1	0	0	0.01874	0.21236	0.046	0.24794	0.17321	0.087986	0.43932	0.12923	0.11811	0.1223	0.26541	0.1722	0.25402	0.06681	0.22839	0.18051	-1.0708	-2.1271	-1.8708	-1.5083	-2.3833	-1.6875	-1.825	-2.2667	-1.5771	-2.1	-2.1646	-1.3958	-2.3333	-1.5979	-1.8854	-2.4917	-110.622	29.581	179.710	197.920	-33.437	202.527	209.890	145.532	218.530	-115.864	184.790	174.916	182.237	-117.112	-123.287	161.050	0.0012703	0.0012666	0.000673	1088.8	2.8972e-05	2.7401e-05	1556.4	283.69	1.3034e-05	2.5454e-05	540.07	181.19	75.022	27.784	5.6567e-06	89.724	0.029886	0.046346	0.013117	1124.2	0.00046356	0.0005157	1497.6	292.95	0.00044446	0.00050248	577.63	188.47	95.955	34.049	0.00047049	90.643	165.483	-128.007	114.700	-123.719	35.332	169.120	-124.225	-120.496	146.781	69.424	-121.644	-117.821	-117.626	-112.989	133.076	-114.551	-8191	255	
21815.412	1	1	0	0	0.22019	0.16077	0.076424	0.065637	0.2041	0.27324	0.4772	0.08875	0.11777	0.10313	0.33215	0.28521	0.12096	0.064992	0.078305	0.44195	-1.075	-1.8375	-2.0208	-1.5063	-2.4146	-1.7833	-1.7917	-2.3563	-1.4396	-2.0687	-2.1583	-1.5583	-2.2375	-1.8333	-1.6604	-2.3125	78.795	8.996	-25.718	34.128	-25.187	-80.124	148.883	-75.834	211.831	-28.739	141.958	-127.748	10.548	209.440	213.481	198.904	0.00092367	0.0019963	0.00018369	1067.3	3.1257e-05	1.3782e-05	1533.1	279.32	2.8259e-05	9.1045e-06	538.78	182.14	73.99	27.639	7.513e-06	89.462	0.028574	0.044966	0.012742	1112.1	0.00045479	0.00051441	1486.3	291.69	0.00045379	0.00051104	577.58	189	95.835	34.099	0.00048761	90.88	163.017	197.409	-119.216	-124.267	65.346	77.210	-124.097	-121.305	-59.401	-101.782	-121.383	-117.541	-117.388	-113.027	39.555	-114.550	-8191	255	
21815.510	1	1	0	0	0.22446	0.25254	0.28556	0.20945	0.039996	0.32227	0.29449	0.20979	0.0796	0.22094	0.29959	0.3447	0.042527	0.085942	0.052091	0.2642	-1.1938	-1.8292	-2.0375	-1.4729	-2.0583	-1.6604	-1.8229	-2.3417	-1.5417	-1.9333	-2.275	-1.5042	-2.0604	-2.0042	-1.5542	-2.2958	7.477	-9.277	-54.906	126.672	84.096	-104.262	220.507	137.634	157.692	140.146	167.172	170.169	-90.198	-98.087	64.108	185.283	0.0012857	0.00047015	0.00014997	1067.7	2.9435e-05	4.7997e-06	1546.8	282.04	1.763e-05	1.2905e-05	537.75	181.02	73.543	27.602	2.4077e-05	88.838	0.029283	0.046658	0.013036	1117.3	0.00046671	0.0005285	1498.8	293.72	0.00045823	0.00051368	578.96	187.7	95.862	33.987	0.00047373	89.72	158.874	-11.081	138.987	-124.247	52.797	59.239	-123.975	-120.955	139.135	131.305	-121.249	-118.045	-117.546	-112.951	61.689	-114.397	-8191	255	
21815.605	1	1	0	0	0.55845	0.084123	0.1123	0.14974	0.15228	0.049338	0.25557	0.37703	0.095881	0.32439	0.31973	0.10456	0.33562	0.16189	0.028214	0.16091	-1.2563	-1.6896	-2.2708	-1.4417	-2.0375	-2.1063	-1.7896	-2.3146	-1.6354	-1.6625	-2.3729	-1.725	-2.1479	-2.1146	-1.3417	-2.4271	-29.197	197.609	185.708	155.824	182.823	42.780	165.598	175.457	-10.094	32.371	143.037	194.236	-109.254	-134.164	-118.798	-118.726	0.0013963	0.0025646	0.00022235	1069.7	2.6718e-05	5.2718e-05	1545.9	282.26	7.5031e-06	3.7767e-05	538.39	177.92	74.409	26.744	2.1452e-05	87.371	0.028464	0.044952	0.012549	1111.8	0.00044276	0.00050285	1486.9	290.61	0.0004362	0.00049161	569.21	184.19	94.158	32.993	0.00045405	87.901	176.731	-118.511	21.967	-124.070	210.483	83.428	-123.880	-120.677	98.080	-43.085	-121.193	-117.782	-117.501	-113.053	94.373	-114.163	-8191	255	
21815.727	1	1	0	0	0.34177	0.18799	0.17232	0.14178	0.044959	0.17527	0.3663	0.33017	0.093843	0.14766	0.31118	0.22443	0.15298	0.21848	0.11138	0.26035	-1.2188	-1.4417	-2.3646	-1.5958	-2.0938	-2.0312	-1.5646	-2.3354	-1.7979	-1.6938	-2.45	-1.6521	-1.9562	-2.1312	-1.5458	-2.4042	-6.422	184.071	47.832	76.303	-54.753	36.552	183.604	120.501	195.204	3.455	192.644	170.903	58.827	195.600	166.082	168.415	0.00054007	0.0026257	0.0009723	1069	1.4099e-05	2.9145e-05	1537.1	278.3	2.5711e-05	1.6225e-05	536.28	178.11	74.009	27.264	1.5007e-05	87.374	0.027644	0.043717	0.012053	1105.6	0.00044264	0.0005009	1477.7	288.64	0.00044327	0.00049686	570.1	184.83	94.646	33.383	0.00046327	88.847	201.456	-74.326	-81.979	-124.027	-112.453	28.558	-123.765	-120.446	213.401	-99.048	-121.572	-117.872	-117.421	-113.155	-5.991	-114.414	-8191	255	
21815.799	1	1	0	0	0.10964	0.043876	0.041332	0.074119	0.31498	0.025812	0.17308	0.067637	0.22441	0.17019	0.068966	0.31304	0.11325	0.12311	0.12933	0.11517	-1.4292	-1.4458	-2.2542	-1.7313	-1.875	-2.2229	-1.7062	-2.2104	-1.975	-1.6729	-2.3604	-1.7292	-1.8979	-2.2188	-1.3271	-2.3312	151.077	-56.674	106.760	-111.923	-30.781	24.208	172.645	139.737	60.027	183.789	48.487	217.295	-98.660	-63.413	191.199	72.355	0.00098676	0.0034795	0.00024457	1078.8	2.0766e-05	2.1088e-05	1529	278.22	1.5863e-05	1.0854e-05	539.75	179.33	74.255	27.228	3.1165e-06	88.181	0.02837	0.044581	0.012392	1109.5	0.000448	0.00050345	1481.5	289.84	0.00044591	0.00049717	572.35	186.22	95.183	33.451	0.00046107	89.269	140.411	-120.901	-40.668	-124.318	7.471	8.793	-123.977	-120.418	136.744	-3.859	-121.201	-117.718	-117.078	-112.499	62.051	-113.909	-8191	255	
21815.918	1	1	0	0	0.22495	0.30447	0.29881	0.093242	0.21482	0.13844	0.13345	0.31503	0.051526	0.094937	0.14338	0.34955	0.26978	0.14085	0.1769	0.19416	-1.6646	-1.6938	-2.2354	-1.8042	-1.8083	-2.4542	-1.75	-2.2562	-1.9771	-1.7021	-2.3208	-1.9979	-1.7146	-2.3167	-1.4521	-2.0938	-85.866	-52.685	-13.423	219.648	10.506	-78.216	193.208	205.899	-3.606	-91.913	-131.515	-131.512	143.902	-79.787	43.063	158.892	0.00057277	0.0016522	0.00042026	1083.6	1.456e-05	2.548e-05	1552.6	284.86	2.7255e-05	2.225e-06	549.02	180.14	75.384	27.727	2.5178e-05	88.353	0.028478	0.04508	0.012388	1119.3	0.00045341	0.000507	1494.4	293.95	0.00044976	0.00050376	577.72	186.99	96.378	33.709	0.00046874	89.918	142.517	80.227	67.125	-124.056	35.051	145.085	-123.840	-120.818	-132.227	-51.805	-121.087	-117.871	-116.722	-112.934	-24.895	-114.034	-8191	255	
21816.016	1	1	0	0	0.077823	0.15001	0.26106	0.08001	0.29136	0.079271	0.20493	0.25503	0.17431	0.13887	0.1158	0.28141	0.15662	0.021555	0.050891	0.27498	-1.8354	-1.4062	-2.0958	-1.9688	-1.4937	-2.4292	-1.8542	-2.0958	-2.1625	-1.5083	-2.2167	-1.95	-1.6812	-2.4833	-1.4646	-1.9979	13.587	-79.381	85.481	151.183	-81.482	34.929	115.069	126.723	109.923	59.046	183.126	187.672	126.186	-65.521	125.611	189.557	0.00091734	0.0010371	0.00036351	1086.7	2.9636e-05	2.6746e-05	1559.2	283.88	1.4089e-05	2.7441e-05	537.42	180.88	75.058	27.679	4.4425e-05	88.751	0.028456	0.045083	0.012366	1123.5	0.00045165	0.00050676	1498.3	294.04	0.00045191	0.00050523	574.43	187.84	96.155	33.686	0.00047106	89.882	181.558	-82.979	45.783	-123.927	-35.238	206.638	-123.919	-120.065	-47.870	86.306	-121.061	-117.489	-117.716	-112.914	-63.623	-114.145	-8191	255	
21816.109	1	1	0	0	0.044357	0.17183	0.14517	0.18911	0.25719	0.21625	0.087558	0.26493	0.12642	0.38404	0.32597	0.04934	0.12141	0.2461	0.28244	0.30113	-1.9771	-1.5146	-2.2313	-2.1083	-1.6854	-2.35	-1.9792	-2.0438	-2.1771	-1.45	-2.3208	-2.1646	-1.4854	-2.4208	-1.8167	-2.0729	22.004	15.426	110.762	215.354	-59.742	-74.440	75.974	199.539	124.901	13.691	170.685	148.612	198.478	187.859	-66.184	186.885	0.00061082	0.0018206	0.00061947	1089.8	3.1417e-05	6.3302e-06	1548.7	283.79	7.5223e-06	2.7419e-05	542.59	180.95	74.645	27.536	9.7654e-06	89.225	0.02895	0.045152	0.012619	1127.5	0.00046209	0.00051425	1499.6	295.07	0.00046368	0.0005158	580.57	189.17	97.07	34.121	0.00048831	90.981	184.604	-15.309	-79.719	-123.859	90.675	47.663	-124.310	-120.315	173.835	-88.767	-120.674	-117.926	-117.570	-112.758	-51.868	-114.251	-8191	255	
21816.207	1	1	0	0	0.29505	0.3588	0.22658	0.28189	0.24747	0.12987	0.272	0.30889	0.097508	0.061625	0.066223	0.29102	0.18291	0.055792	0.251	0.33109	-2.0729	-1.5187	-1.875	-2.2	-1.3896	-2.3271	-2.1208	-1.8208	-2.3063	-1.4229	-2.075	-2.3312	-1.35	-2.3458	-1.8813	-1.7104	17.926	-23.289	-100.180	-118.525	22.946	165.868	137.341	192.623	68.944	201.962	165.185	176.022	220.518	142.473	52.578	-132.812	0.00055917	0.0018448	0.00065831	1079.5	3.0414e-05	3.0184e-05	1547.5	283.83	1.3549e-05	3.556e-05	541.65	180.51	74.252	27.624	2.7371e-05	89.243	0.029497	0.046594	0.013006	1126	0.00047289	0.0005226	1501.8	295.42	0.00046134	0.00051531	581.19	188.47	96.771	33.956	0.00048618	90.66	205.133	50.506	-104.255	-123.862	-50.885	121.088	-124.439	-120.734	133.183	-93.983	-121.224	-117.540	-116.800	-112.813	74.748	-114.204	-8191	255	
21816.326	1	1	0	0	0.20477	0.14186	0.11018	0.089842	0.19223	0.047309	0.21929	0.10573	0.032845	0.078156	0.040928	0.10847	0.16491	0.13929	0.18729	0.22461	-2.0229	-1.2854	-1.7646	-2.2604	-1.3771	-2.2771	-2.1229	-1.5458	-2.2354	-1.7417	-2.0375	-2.4208	-1.4104	-2.1708	-2.0354	-1.7375	-3.180	-73.930	-71.175	215.139	137.863	-73.231	155.394	-137.969	51.919	199.750	111.005	58.329	-137.359	186.654	135.436	156.043	0.00031905	0.0010832	0.00013924	1083.1	2.5218e-05	1.3511e-05	1565	284.5	2.2519e-05	2.9004e-05	547.71	181.52	75.853	27.819	2.0306e-06	88.955	0.029316	0.045839	0.012829	1131.9	0.00045676	0.00051202	1512.6	296.45	0.00044841	0.00050926	581.22	188.58	96.688	33.812	0.00047926	90.346	193.831	-114.228	80.495	-124.133	33.508	178.459	-124.497	-120.769	57.936	-104.823	-121.038	-117.639	-117.242	-113.267	217.439	-113.707	-8191	255	
21816.422	1	1	0	0	0.12018	0.15373	0.029937	0.071197	0.26141	0.093244	0.14548	0.23484	0.052119	0.014053	0.086385	0.14633	0.30486	0.22238	0.31053	0.055243	-1.8271	-1.7062	-1.6958	-2.4521	-1.3937	-2.0042	-2.3583	-1.7542	-2.3604	-1.8062	-1.8417	-2.2979	-1.3833	-2.0396	-2.1083	-1.5646	141.185	-31.394	151.350	129.560	75.572	50.140	182.294	100.955	-129.114	-2.963	208.728	63.492	159.295	-104.242	-57.884	203.635	0.00099065	0.0005592	0.00044922	1088.8	5.384e-06	2.4816e-05	1557.3	284.73	1.741e-05	2.2068e-05	545.7	178.71	75.608	27.378	1.0487e-05	88.191	0.028595	0.045596	0.012754	1132.9	0.00045769	0.00051051	1507.8	295.07	0.0004488	0.00051126	580.51	187.11	96.579	33.707	0.00048622	89.727	167.999	148.461	-51.709	-123.866	-9.254	50.576	-124.083	-120.569	-35.634	-113.273	-120.897	-117.645	-117.330	-112.961	179.351	-114.135	-8191	255	
21816.494	1	1	0	0	0.10809	0.19784	0.24628	0.23792	0.068776	0.033482	0.26696	0.40141	0.15757	0.28017	0.065398	0.25998	0.17719	0.34479	0.15103	0.24679	-1.7021	-1.8583	-1.3479	-2.3646	-1.4937	-2.0375	-2.3417	-1.675	-2.1208	-1.8854	-1.5333	-2.3688	-1.5208	-1.9042	-2.1937	-1.4875	-81.365	124.812	137.296	196.330	-85.789	50.024	200.395	161.098	120.080	-94.769	146.998	199.283	153.177	176.346	40.239	127.552	0.00087002	0.0020781	0.0011019	1087.7	2.4789e-05	5.2817e-06	1554.7	280.48	1.7427e-05	1.8087e-05	538.18	179.3	73.541	27.531	3.4086e-05	86.967	0.028806	0.046545	0.012945	1127.1	0.00046689	0.00052317	1507.3	294.19	0.00045518	0.00052133	577.96	186.53	96.539	33.712	0.00048607	89.021	142.845	-91.516	-17.735	-124.072	-32.010	135.173	-124.418	-120.614	-5.725	190.284	-120.984	-117.613	-117.022	-112.911	90.880	-114.032	-8191	255	
21816.613	1	1	0	0	0.078895	0.1928	0.25002	0.15893	0.14186	0.28241	0.45787	0.36773	0.13252	0.21569	0.22061	0.2196	0.0683	0.13411	0.19836	0.28436	-1.7104	-1.95	-1.4667	-2.2687	-1.5812	-2	-2.5042	-1.5875	-2.125	-1.9792	-1.6938	-2.3479	-1.6938	-1.7687	-2.0521	-1.6479	-93.023	12.731	-114.600	-121.250	18.114	33.893	173.781	154.416	-81.980	197.016	-134.589	-138.151	157.666	214.749	110.158	76.228	0.00050126	0.00020212	0.00072448	1081.8	2.6071e-05	3.1631e-05	1556.3	280.48	3.9693e-06	4.0973e-05	542.78	179.41	74.14	27.076	3.2715e-05	87.512	0.028767	0.046431	0.012902	1123.2	0.00046334	0.00051438	1503.5	293.18	0.00044895	0.0005107	576.96	186	95.688	33.481	0.00047731	89.316	-124.379	-17.348	-78.894	-124.088	-105.934	-16.405	-124.072	-120.446	-102.131	-14.745	-121.433	-117.360	-117.396	-112.974	-95.730	-114.667	-8191	255	
21816.711	1	1	0	0	0.15615	0.26559	0.18689	0.45367	0.2999	0.1568	0.22527	0.10488	0.30374	0.12946	0.21198	0.37065	0.050805	0.12299	0.27475	0.38764	-1.8521	-2.1312	-1.4396	-2.3438	-1.7333	-1.4583	-2.3875	-1.5583	-2.0479	-2.1417	-1.4646	-2.3104	-1.6125	-1.6313	-2.2188	-1.8667	177.178	-136.671	69.999	193.055	28.639	22.812	131.381	209.115	-96.418	198.695	-126.644	113.378	84.769	131.982	-54.188	128.067	0.0012105	0.0022162	0.00051872	1098.6	2.034e-05	2.0892e-05	1580.4	284.52	2.6303e-05	1.8891e-05	544.67	180.82	74.774	27.634	1.9076e-05	87.75	0.028407	0.045956	0.012626	1130.5	0.00045971	0.000516	1515.1	295.33	0.00044631	0.00051134	578.44	186.75	96.12	33.641	0.00046655	89.252	139.449	-20.633	-48.995	-123.830	120.874	-101.249	-123.717	-120.614	-83.219	-89.208	-121.524	-117.862	-117.489	-113.129	-62.493	-114.572	-8191	255	
21816.807	1	1	0	0	0.29486	0.20018	0.14152	0.23717	0.23856	0.13429	0.094555	0.35768	0.26722	0.15266	0.2856	0.20493	0.31257	0.15246	0.27702	0.28494	-1.5417	-2.2104	-1.3479	-2.1396	-1.8312	-1.3937	-2.4479	-1.7896	-1.8937	-2.3271	-1.5729	-2.3583	-2.0521	-1.4875	-2.3	-1.8062	-49.231	-60.433	24.955	-130.781	-109.106	-77.552	118.329	171.973	-1.761	-57.527	-138.696	158.590	162.764	194.920	58.099	154.387	0.00081783	0.0019603	0.00020808	1102.3	1.1485e-06	1.3233e-05	1559.8	280.89	1.2996e-05	1.857e-05	541.58	176.34	73.749	26.731	1.4311e-05	87.347	0.028567	0.045341	0.01258	1130.5	0.00045678	0.00050565	1504.3	292.85	0.00044537	0.00050294	574.39	184.37	95.298	33.177	0.00046575	88.55	192.761	217.646	31.368	-123.899	-37.519	-24.380	-123.981	-120.781	-55.959	-6.356	-121.110	-117.851	-117.719	-113.063	-59.564	-114.101	-8191	255	
21816.902	1	1	0	0	0.14269	0.12256	0.10816	0.3339	0.081024	0.26056	0.26926	0.26773	0.13122	0.40058	0.32429	0.39243	0.23375	0.11287	0.19858	0.19608	-1.4792	-2.2958	-1.4229	-2.2771	-2.1146	-1.4708	-2.4688	-1.7125	-1.7667	-2.4354	-1.675	-2.1021	-2.0312	-1.4583	-2.3896	-1.8667	-58.807	148.216	-77.635	-120.717	-41.181	147.152	207.335	194.249	-102.581	10.193	184.962	190.915	-9.413	-108.582	-3.966	211.391	0.00086568	0.0012467	0.00069462	1085.3	3.4887e-05	3.1933e-06	1545.9	277.47	2.5135e-05	1.5039e-05	537.8	177.48	73.262	27.04	1.6489e-05	87.447	0.028104	0.04515	0.012375	1116.5	0.00045467	0.00050724	1490.6	290.51	0.00044905	0.00049977	570.21	184.13	95.454	33.17	0.00046966	88.62	161.654	-94.851	-95.106	-123.933	-26.414	73.866	-124.332	-120.663	132.878	-43.012	-121.423	-117.431	-117.965	-113.338	43.453	-114.594	-8191	255	
21817.021	1	1	0	0	0.15369	0.20875	0.054854	0.26004	0.30176	0.30781	0.19483	0.25009	0.11393	0.083189	0.2505	0.22529	0.10185	0.35401	0.051708	0.046465	-1.1979	-2.2438	-1.5125	-2.0854	-2.0875	-1.4354	-2.3438	-1.9667	-1.3979	-2.4104	-1.6313	-2.0938	-1.9792	-1.5083	-2.2396	-2.1042	-115.228	139.059	-118.189	175.171	-131.092	6.249	123.536	119.842	157.293	114.881	188.905	103.550	109.907	106.367	58.030	-103.082	0.00095331	0.0029237	0.00078038	1084.9	7.9259e-06	1.871e-06	1558.2	281.62	2.6791e-05	1.4262e-05	538.86	177.47	74.368	27.373	1.9858e-05	87.535	0.029147	0.045867	0.012796	1121.3	0.00046892	0.00052131	1502.4	293.28	0.00046361	0.00051158	575.3	186.73	96.885	33.689	0.00047895	89.845	139.420	193.753	-8.041	-123.455	-100.973	-21.282	-123.624	-120.883	14.445	-41.963	-121.504	-117.790	-116.990	-113.375	19.592	-113.722	-8191	255	
21817.096	1	1	0	0	0.32634	0.21794	0.17087	0.18512	0.19963	0.19832	0.27671	0.21763	0.25704	0.16249	0.051729	0.28973	0.31066	0.076203	0.060245	0.27213	-1.2062	-2.1688	-1.6083	-1.9333	-2.25	-1.4792	-2.4271	-2.1167	-1.4667	-2.2729	-1.7604	-1.7833	-2.3063	-1.5583	-2.2271	-2.2188	-7.059	23.211	54.158	188.341	29.964	149.237	184.816	75.670	128.689	182.156	-61.045	193.588	205.494	184.578	34.789	2.809	0.00048978	0.0025502	0.0007623	1085	1.4474e-05	2.9117e-05	1556.6	280.9	4.1166e-05	3.6203e-05	543.81	180.39	74.315	27.104	2.1217e-05	87.739	0.029606	0.04643	0.012891	1135.6	0.00047244	0.00052208	1507.9	295.51	0.00046267	0.00052115	582.2	188.36	97.356	33.891	0.00048914	90.454	192.195	31.616	-100.313	-124.132	32.429	-95.103	-124.085	-120.656	10.318	25.338	-121.145	-117.796	-117.142	-113.137	198.768	-114.353	-8191	255	
21817.191	1	1	0	0	0.10654	0.32486	0.16487	0.29595	0.12862	0.27696	0.098056	0.49976	0.15632	0.25387	0.080842	0.28146	0.16041	0.25909	0.13806	0.19622	-1.0833	-2.1021	-1.7417	-1.8292	-2.3937	-1.7646	-2.1542	-2.1604	-1.525	-2.3979	-1.8854	-1.7917	-2.525	-1.6542	-2.1125	-2.375	-56.696	-5.876	104.042	140.818	147.443	140.950	99.576	-135.235	33.946	-40.144	-25.155	208.699	63.571	-137.121	50.289	176.165	0.0010355	0.0039992	0.00019535	1090.7	9.9483e-06	3.3854e-05	1553.2	280.17	8.728e-06	3.2952e-05	537.08	179.22	74.655	26.879	1.5897e-05	88.266	0.029921	0.046711	0.013147	1134.4	0.00047817	0.00052716	1508.5	295.28	0.00046544	0.00051879	581.53	187.79	97.055	33.906	0.00049421	90.469	135.504	-70.735	-93.933	-123.813	80.102	63.685	-124.170	-120.349	83.955	-112.647	-121.607	-117.486	-117.172	-113.689	5.503	-114.091	-8191	255	
21817.287	1	1	0	0	0.19635	0.23073	0.10727	0.26982	0.12197	0.23009	0.2474	0.36393	0.21972	0.10181	0.3916	0.30103	0.14484	0.074478	0.22834	0.23537	-1.1667	-2.4167	-1.7583	-1.7437	-2.4333	-1.6792	-2.0396	-2.3625	-1.4917	-2.0333	-2.0521	-1.8042	-2.4375	-1.7437	-1.5708	-2.3771	-38.544	-46.703	128.158	187.087	-35.398	-63.505	190.872	149.771	48.031	-15.729	171.935	117.606	215.141	-71.355	-52.217	-128.493	0.00085459	0.0017778	0.00040235	1074.9	1.8191e-05	1.931e-05	1545.1	280.6	2.4982e-05	3.1879e-05	536.19	180.18	72.565	27.357	2.6058e-05	89.082	0.030102	0.047015	0.013341	1127.6	0.00047388	0.00053657	1505.3	294.91	0.00046556	0.00052604	579.65	188.61	97.061	34.044	0.00050153	91.08	175.172	14.173	97.796	-123.879	-77.828	119.496	-123.991	-120.208	-32.684	36.587	-121.489	-117.683	-117.319	-113.635	-57.366	-114.308	-8191	255	
21817.406	1	1	0	0	0.34308	0.265	0.096882	0.1535	0.14657	0.21968	0.076351	0.25338	0.24191	0.20006	0.30551	0.166	0.08028	0.088604	0.24411	0.28449	-1.0562	-1.9688	-1.8833	-1.6167	-2.3167	-1.8396	-1.8417	-2.5062	-1.6854	-2.1479	-2.0312	-1.5063	-2.3125	-1.8729	-1.7521	-2.425	221.348	158.630	109.603	214.637	87.457	93.192	80.827	211.488	180.675	-5.921	-128.210	165.194	-134.526	-82.550	-118.737	170.441	0.00053997	0.0021235	0.0012458	1079.4	1.9937e-05	1.6881e-05	1569.2	280.95	2.3069e-05	1.3462e-05	542.47	182.78	74.861	27.553	1.8905e-06	90.779	0.030382	0.048066	0.013624	1135.3	0.0004833	0.00055089	1519.6	297.02	0.0004784	0.00053911	589.73	191.93	98.636	34.717	0.00051232	92.888	149.106	-14.482	148.789	-123.925	30.144	130.193	-124.093	-120.666	18.073	190.095	-120.541	-117.559	-116.816	-113.595	112.273	-114.358	-8191	255	
21817.502	1	1	0	0	0.078551	0.29481	0.20571	0.45352	0.18614	0.36869	0.22386	0.37353	0.066906	0.12692	0.12411	0.31681	0.23317	0.2485	0.10384	0.32887	-1.1833	-2.0771	-2.1583	-1.7125	-2.2667	-1.7917	-1.9354	-2.5104	-1.3875	-1.9271	-2.3146	-1.6729	-2.4292	-2.075	-1.6646	-2.5479	-93.088	-73.974	-50.549	-93.292	-35.982	91.075	203.282	151.864	136.006	-78.481	-44.201	188.380	-45.092	142.628	45.944	136.885	0.00095304	0.0027888	0.00034268	1091	3.065e-05	3.4674e-06	1573.6	284.75	1.2057e-05	1.2443e-05	548.16	182.18	75.343	28.149	2.176e-05	90.747	0.030689	0.048724	0.013829	1146.4	0.00048731	0.00055307	1530.6	300.43	0.00048485	0.00054184	593.14	191.9	99.369	35.135	0.00051546	93.042	146.015	162.559	-125.971	-123.417	55.678	-7.397	-123.783	-120.526	26.089	-46.277	-121.305	-117.546	-117.704	-113.161	56.308	-114.005	-8191	255	
21817.598	1	1	0	0	0.23353	0.23384	0.095196	0.12633	0.10219	0.3499	0.1675	0.33111	0.043393	0.07879	0.19731	0.13028	0.15134	0.081967	0.14865	0.21238	-1.2104	-1.8375	-2.0458	-1.6583	-2.3271	-2.1521	-1.7479	-2.4208	-1.5583	-1.7938	-2.3271	-1.55	-2.3021	-2.0271	-1.7083	-2.4542	10.045	166.656	52.490	126.999	-50.090	67.353	141.368	113.294	165.567	-59.114	192.566	119.473	-78.296	-108.890	53.945	130.475	0.00051471	6.9657e-05	0.0011548	1081.7	1.1943e-05	3.2263e-05	1556.7	282.04	3.0239e-05	1.8853e-05	545.59	180.59	74.478	27.609	1.4404e-05	89.598	0.030993	0.049175	0.01371	1142.1	0.00048689	0.00055544	1517.9	296.62	0.00048566	0.00054741	588.13	189.8	98.615	34.742	0.00050901	91.832	131.212	74.271	-111.236	-123.756	165.425	97.949	-123.898	-120.345	44.586	12.832	-121.471	-117.748	-116.708	-112.510	67.475	-114.038	-8191	255	
21817.719	1	1	0	0	0.14835	0.17155	0.070344	0.11168	0.24544	0.25413	0.29089	0.077013	0.18527	0.34495	0.071929	0.081746	0.031665	0.08093	0.18902	0.19901	-1.35	-1.7333	-2.25	-1.8125	-1.95	-2.1771	-1.8125	-2.3833	-1.8521	-1.6625	-2.5687	-1.7583	-1.975	-2.125	-1.3583	-2.5542	218.509	-18.620	-45.051	159.532	87.179	202.312	148.041	-98.719	114.953	-29.853	154.302	74.973	132.307	20.010	-127.239	207.783	0.00079006	0.0027375	0.00056892	1076.2	2.1973e-05	2.4668e-05	1540	281.31	1.6958e-05	1.6864e-05	543.96	179.78	74.877	27.072	1.901e-05	88.644	0.030794	0.04872	0.013589	1130	0.00048635	0.00055051	1506.1	294.96	0.00047749	0.00053774	582.37	188.8	97.916	34.286	0.00049825	90.918	-115.233	-110.726	-95.631	-123.926	-46.843	64.026	-124.043	-120.089	-122.042	154.916	-121.330	-117.798	-116.992	-112.873	-16.170	-114.265	-8191	255	
21817.791	1	1	0	0	0.18168	0.074697	0.23603	0.19244	0.22303	0.14671	0.30737	0.38191	0.097234	0.026824	0.204	0.24176	0.24581	0.077336	0.23084	0.2482	-1.4292	-1.6458	-2.1667	-1.6521	-1.9833	-2.3604	-1.6313	-2.3292	-1.925	-1.7021	-2.4188	-1.7896	-1.8417	-2.3208	-1.5146	-2.3167	209.323	-60.983	177.120	148.009	50.266	18.416	167.727	142.527	178.100	173.590	180.521	144.976	-134.036	173.795	-125.471	211.178	0.00081882	0.0026872	0.0003616	1084.1	1.9994e-05	1.5762e-05	1560.1	283.46	1.0062e-05	2.6693e-05	539.95	179.79	75.384	27.861	1.2734e-05	89.551	0.030544	0.048561	0.013371	1135.5	0.00048984	0.00054885	1518.6	296.69	0.0004833	0.0005387	584.13	190.03	98.672	34.638	0.0005075	91.988	147.019	101.051	201.436	-124.119	-17.908	65.592	-123.954	-120.648	28.458	-64.175	-121.258	-117.686	-117.548	-112.987	-5.197	-114.404	-8191	255	
21817.887	1	1	0	0	0.1951	0.075957	0.2075	0.030157	0.33364	0.43902	0.28374	0.15113	0.10135	0.034981	0.067042	0.13837	0.070094	0.045799	0.080401	0.26073	-1.3854	-1.5	-2.2229	-1.7708	-1.6646	-2.2542	-1.575	-2.2479	-2.0792	-1.4688	-2.4292	-1.7354	-1.8042	-2.4062	-1.5271	-2.1104	190.973	135.529	195.367	142.828	-65.821	-54.151	151.359	50.120	-103.984	53.225	130.406	12.730	-77.149	34.214	-49.586	-117.972	0.00053075	0.00031062	0.00058147	1084.7	3.1846e-05	8.7825e-06	1555.6	280.76	2.0645e-05	1.2888e-05	538.89	181.81	74.397	27.707	1.626e-05	88.471	0.031223	0.049263	0.0136	1144.4	0.00050195	0.0005616	1520.4	297.98	0.00049289	0.00055043	586.88	190.84	98.955	34.655	0.00050785	91.604	124.459	-23.099	48.842	-123.732	145.987	-103.243	-124.200	-120.354	-25.202	215.637	-121.206	-117.853	-117.217	-113.623	126.914	-114.015	-8191	255	
21818.008	1	1	0	0	0.16011	0.17658	0.0836	0.1977	0.28891	0.097611	0.25959	0.2062	0.20876	0.033849	0.087414	0.14921	0.12665	0.16653	0.17921	0.58634	-1.8083	-1.4479	-2.2438	-1.9042	-1.6604	-2.3479	-1.7313	-2.1625	-2.0146	-1.6458	-2.2938	-1.9	-1.6187	-2.4958	-1.5167	-2.0875	-45.833	177.216	-25.479	-86.363	151.617	185.452	166.387	219.460	127.003	-67.463	200.786	120.999	-40.455	104.624	215.411	194.764	0.00086129	0.0024347	0.00029118	1070	4.3636e-05	4.4567e-05	1551.8	281.64	2.4632e-05	4.0078e-05	534.37	179.94	74.58	27.188	1.2528e-05	88.438	0.031128	0.048326	0.013394	1129.2	0.00048852	0.00054536	1507.7	295.67	0.00048166	0.00053799	580.35	189.54	98.095	34.214	0.00050517	91.074	205.698	162.704	-69.605	-124.093	-49.176	-44.510	-124.054	-120.829	55.444	14.649	-121.005	-117.772	-117.429	-112.716	-58.762	-113.880	-8191	255	
21818.102	1	1	0	0	0.18259	0.077951	0.0894	0.13887	0.24722	0.16083	0.12946	0.11165	0.17121	0.1694	0.12075	0.16193	0.016507	0.16685	0.20007	0.2198	-1.6562	-1.425	-2.1979	-1.8438	-1.4417	-2.45	-1.6271	-2.1042	-2.3479	-1.4708	-2.4646	-1.9438	-1.4771	-2.35	-1.5708	-1.7542	111.626	-118.749	139.159	193.264	176.683	-32.501	87.233	-105.656	-134.189	-94.213	-131.902	171.915	-136.406	-115.269	-62.729	187.611	0.00081221	0.0036694	0.00040628	1061.3	2.6209e-05	3.9338e-05	1553.2	278.58	1.5277e-05	1.8634e-05	537.32	177.96	74.45	27.387	3.4757e-05	89.396	0.030981	0.048391	0.013473	1128.8	0.0004902	0.00054236	1509.8	295.5	0.00048691	0.00054613	582.51	189.17	98.322	34.311	0.00050865	91.527	111.484	-72.269	169.569	-123.831	217.737	47.738	-124.255	-120.268	40.197	68.567	-121.061	-117.668	-117.072	-112.885	-71.865	-114.117	-8191	255	
21818.197	1	1	0	0	0.072049	0.2492	0.18671	0.29839	0.19196	0.22323	0.22888	0.18794	0.11584	0.10825	0.55223	0.24268	0.16178	0.16077	0.10717	0.38023	-1.9875	-1.5021	-1.9896	-2.1708	-1.4562	-2.2708	-1.8458	-1.8167	-2.15	-1.4542	-2.1063	-2.1875	-1.5271	-2.3187	-1.875	-1.9604	168.197	39.337	-56.430	178.163	57.677	94.181	-119.980	65.517	4.177	65.779	-111.880	126.033	146.676	-58.084	73.326	109.868	0.00086518	0.00085862	0.00088766	1079	7.1522e-06	1.5203e-05	1553.9	277.8	5.6289e-06	4.165e-05	534.1	179.99	73.962	27.511	1.0178e-05	89.613	0.030796	0.048136	0.013489	1136.5	0.00049266	0.00054746	1513.1	295.83	0.00048788	0.00055049	582.78	191.19	98.73	34.746	0.00051556	92.176	203.066	151.651	-37.269	-124.131	86.958	-127.020	-124.125	-120.344	101.145	-85.175	-121.200	-117.471	-117.918	-112.659	75.607	-113.780	-8191	255	
21818.318	1	1	0	0	0.22588	0.17643	0.17916	0.22625	0.24108	0.23488	0.23938	0.21819	0.040539	0.0021525	0.15575	0.18622	0.22207	0.25237	0.093551	0.38885	-1.9125	-1.5312	-2.0292	-2.3271	-1.7292	-2.2292	-2.1271	-1.8354	-2.4271	-1.5604	-2.1167	-2.2417	-1.3854	-2.2021	-2.0042	-1.8	-82.495	150.720	-59.397	-108.633	-133.312	-118.094	109.144	76.014	142.115	180.000	152.210	63.702	121.142	-116.614	48.187	177.629	0.00060545	0.0023948	0.00077691	1061.6	2.9861e-05	8.179e-06	1538.3	277.3	1.393e-05	1.0627e-05	536.19	178.99	73.401	27.123	4.2752e-05	88.466	0.031198	0.049397	0.013747	1133.9	0.00049992	0.00055835	1509.7	296.03	0.00049621	0.00056253	586.32	190.3	98.79	34.416	0.00053094	91.613	172.936	35.692	-120.304	-124.021	-52.814	-137.252	-124.443	-120.367	-0.283	221.251	-121.487	-117.709	-116.813	-112.999	47.928	-114.155	-8191	255	
21818.391	1	1	0	0	0.12425	0.1035	0.053596	0.12384	0.25524	0.16556	0.23936	0.36042	0.20361	0.36863	0.088983	0.18224	0.062657	0.14707	0.23668	0.082299	-2.0042	-1.5583	-1.7812	-2.3	-1.5063	-2.1729	-2.25	-1.6521	-2.2729	-1.5167	-1.9562	-2.3563	-1.5896	-2.0167	-2.1583	-1.6271	-44.561	-130.131	162.682	205.561	-82.613	-85.498	125.537	157.724	-11.694	70.993	148.506	123.135	-116.811	219.821	-29.847	-109.717	0.00098441	0.0023958	0.00026996	1054.6	3.0499e-05	3.5494e-05	1520.3	275.9	1.8799e-05	3.6062e-05	530.61	175.27	71.846	26.333	2.6981e-05	87.644	0.03156	0.050634	0.014028	1125.2	0.00050405	0.0005695	1498	293.51	0.00050093	0.0005645	581.21	187.82	97.912	34.153	0.00052866	90.493	166.307	-39.516	56.671	-124.270	21.643	137.033	-124.067	-120.550	80.606	13.395	-121.279	-117.332	-117.897	-112.490	-16.021	-114.374	-8191	255	
21818.486	1	1	0	0	0.19739	0.18171	0.25421	0.25166	0.14114	0.05169	0.18777	0.20255	0.25301	0.08648	0.26835	0.35223	0.27153	0.20249	0.063694	0.17305	-1.9354	-1.6187	-1.6896	-2.4625	-1.5646	-1.9667	-2.0646	-1.5146	-2.2542	-1.7021	-1.5542	-2.4479	-1.5396	-1.7771	-2.2083	-1.3854	-81.334	84.015	-123.785	168.781	-54.701	74.862	164.078	-37.165	81.462	-56.871	148.632	143.297	212.206	195.957	95.645	165.801	0.00053177	0.0036419	0.00050754	1050.8	2.8759e-05	2.0323e-05	1521.6	273.03	3.0957e-05	3.8814e-05	529.96	176.54	72.25	26.486	3.6152e-05	86.705	0.031779	0.05032	0.014075	1119	0.00050428	0.00056503	1496.1	292.48	0.00049186	0.00056742	578.92	187.25	97.43	34.027	0.00052659	90.189	157.114	-52.325	-135.354	-123.787	-12.457	24.624	-124.285	-121.069	-2.300	-43.462	-121.062	-118.077	-118.012	-113.768	128.108	-114.101	-8191	255	
21818.582	1	1	0	0	0.23494	0.084298	0.069411	0.36443	0.20988	0.17319	0.088615	0.3838	0.30482	0.075525	0.15796	0.20434	0.15929	0.16636	0.13526	0.32964	-1.8375	-1.7292	-1.5083	-2.3396	-1.6792	-1.9937	-2.3625	-1.3937	-2.1396	-1.9125	-1.6146	-2.3625	-1.8	-1.8583	-2.2438	-1.4542	-122.720	-110.824	51.406	136.674	-42.436	-116.654	-130.946	154.729	-98.602	-96.510	172.035	200.108	187.881	-134.631	145.008	152.219	0.00053353	0.0013202	0.00025081	1051.1	2.5792e-05	2.6167e-05	1518.2	274.75	1.4987e-05	1.2328e-05	531.93	176.22	71.667	26.897	2.6437e-05	88.106	0.031368	0.050051	0.013926	1119.5	0.00050458	0.00056354	1495.1	291.73	0.00048657	0.00056014	581.69	188.04	97.202	34.379	0.00051929	90.932	135.916	169.224	-11.732	-124.411	-86.947	106.220	-124.556	-121.035	11.522	128.306	-121.752	-117.939	-117.717	-113.323	-116.057	-114.363	-8191	255	
21818.680	1	1	0	0	0.097806	0.063066	0.099084	0.13115	0.12596	0.13835	0.40386	0.16728	0.31639	0.2713	0.0412	0.1859	0.34676	0.17119	0.15509	0.16151	-1.6479	-1.9146	-1.5271	-2.3479	-1.6542	-1.7083	-2.5917	-1.4875	-2.1083	-2.0563	-1.6625	-2.3542	-1.95	-1.7417	-2.2125	-1.5521	-15.270	160.327	15.478	126.966	-70.446	-52.785	111.592	129.426	179.520	218.289	144.663	116.115	106.957	-113.514	17.031	205.327	0.00066153	0.0015381	0.0003059	1056.1	2.0173e-06	1.9839e-05	1509.1	274.92	1.2104e-05	3.8293e-05	527.63	176.13	71.59	26.119	4.0727e-05	86.545	0.031066	0.049845	0.013709	1110.9	0.00049547	0.00055039	1479.5	289.18	0.00047466	0.00053964	572.62	185.03	95.503	33.159	0.00049027	88.83	195.440	-130.252	-40.112	-124.279	112.038	-98.468	-124.268	-120.838	-132.174	95.902	-121.670	-117.815	-117.227	-113.547	99.940	-114.309	-8191	255	
21818.799	1	1	0	0	0.13579	0.11187	0.13553	0.36654	0.1611	0.16337	0.2669	0.27309	0.18913	0.082988	0.20412	0.1923	0.11239	0.094065	0.096583	0.26323	-1.6542	-2.1188	-1.4083	-2.3688	-1.8438	-1.6646	-2.475	-1.7375	-1.9729	-2.1208	-1.4583	-2.4	-1.7229	-1.5104	-2.4146	-1.8042	216.429	131.118	-13.683	203.822	-54.431	28.720	128.347	133.535	12.287	186.009	179.823	-112.256	182.694	124.207	57.705	153.292	0.0006537	0.0023443	0.00034549	1043.8	2.7542e-05	1.6748e-05	1508.6	273.75	1.4385e-05	1.4299e-05	522.35	174.06	72.003	26.494	1.4436e-05	85.998	0.029344	0.046984	0.012827	1095.8	0.00047249	0.00052063	1468.6	286.11	0.00045086	0.00051547	563.76	183.24	94.745	33.02	0.00047456	88.235	198.187	-53.268	-7.617	-124.248	-64.353	-6.806	-124.450	-120.408	118.267	94.494	-121.635	-117.485	-118.383	-112.984	118.020	-114.442	-8191	255	
21818.896	1	1	0	0	0.15879	0.28056	0.30725	0.19538	0.06951	0.25111	0.24598	0.061567	0.15653	0.19691	0.25587	0.29837	0.065836	0.041343	0.12093	0.47472	-1.4667	-2.2583	-1.3208	-2.2562	-1.8042	-1.5458	-2.5417	-1.7729	-1.6542	-2.2333	-1.65	-2.2396	-1.9208	-1.5333	-2.25	-1.8896	168.120	65.545	-67.488	160.099	-81.986	-64.281	163.724	135.091	176.986	17.876	95.294	149.059	142.396	-97.381	200.060	178.287	0.0010909	0.0022263	0.00075451	1046.1	2.6671e-05	4.5699e-05	1512	273.96	9.3361e-06	2.3755e-06	527.64	177.3	71.618	26.628	2.7345e-05	87.182	0.028876	0.045855	0.012759	1098.9	0.00047103	0.00052477	1472.9	287.91	0.00046283	0.00052247	571.36	185.45	95.429	33.559	0.00048667	90.007	164.638	25.734	-79.008	-124.245	-108.612	-10.511	-124.474	-121.089	147.463	68.791	-121.939	-117.723	-117.400	-113.212	-27.083	-114.234	-8191	255	
21818.967	1	1	0	0	0.09805	0.18542	0.12594	0.041063	0.025045	0.06603	0.027362	0.17441	0.14059	0.27469	0.31617	0.29279	0.13883	0.12769	0.35185	0.36656	-1.2563	-2.2875	-1.2875	-1.8687	-1.8854	-1.5729	-2.4313	-1.8937	-1.7188	-2.3354	-1.6271	-2.0104	-2.0521	-1.4792	-2.3229	-2.0375	92.479	38.881	149.029	-102.172	170.252	194.358	-89.479	181.224	34.094	6.698	170.053	199.087	193.819	177.179	142.767	216.806	0.0011821	0.00094169	0.00097287	1060.5	2.1913e-05	3.1913e-05	1539.9	276.18	2.9754e-05	2.1827e-05	537.37	176.81	73.32	26.866	4.4409e-05	88.489	0.030117	0.047278	0.013204	1114.5	0.00048842	0.00053864	1494.3	291.92	0.00047891	0.00053691	578.06	187.84	96.904	33.833	0.00049764	90.707	183.858	-120.187	-73.161	-123.804	45.501	71.394	-124.186	-121.000	197.907	111.579	-121.110	-117.914	-117.318	-112.684	-44.173	-113.709	-8191	255	
21819.088	1	1	0	0	0.1924	0.10321	0.14621	0.27436	0.21542	0.079368	0.27199	0.34821	0.2536	0.027685	0.11717	0.11482	0.40677	0.22769	0.25391	0.045037	-1.3854	-2.2687	-1.5375	-1.9417	-2.1271	-1.4021	-2.1208	-1.9729	-1.6229	-2.2125	-1.6667	-1.8813	-2.2042	-1.5583	-2.0646	-2.1167	-117.312	72.296	60.599	174.154	-44.974	1.479	159.489	40.913	-22.206	-5.400	160.773	-109.034	-70.656	154.985	19.826	189.011	0.0013995	0.0020934	0.00073097	1058.8	1.0211e-05	2.3585e-05	1523.9	276.1	1.5426e-05	1.8309e-05	532.66	176.85	72.234	26.728	2.5849e-05	87.141	0.030407	0.047845	0.013276	1115.9	0.00048569	0.00053885	1487.2	291.19	0.00046969	0.00052337	573.7	185.93	96.111	33.354	0.00048814	89.32	148.238	28.033	31.100	-123.848	50.691	54.294	-123.833	-120.281	-120.651	6.456	-121.028	-117.771	-117.691	-113.446	104.085	-113.938	-8191	255	
21819.182	1	1	0	0	0.18117	0.31279	0.15287	0.31292	0.25169	0.16096	0.14313	0.004745	0.22523	0.20115	0.26523	0.3191	0.25993	0.13529	0.15308	0.38145	-0.89792	-2.2104	-1.5792	-1.8208	-2.0708	-1.3458	-2.5125	-2.0708	-1.4	-2.0667	-1.9208	-1.6083	-2.2708	-1.4562	-2.075	-2.4125	-128.992	-47.009	124.301	128.406	-133.223	182.874	118.812	-14.843	-39.695	33.226	70.614	179.536	-115.549	29.911	-34.699	144.533	0.0011007	0.0012737	0.00027873	1062.8	2.0606e-05	2.9452e-05	1526.6	275.61	2.391e-05	5.5478e-05	528.69	176.61	72.419	26.573	1.7741e-05	87.102	0.029374	0.04627	0.013015	1111.4	0.00046971	0.00052009	1479.4	289.28	0.00045567	0.00050977	569.03	184.85	95.024	33.118	0.00047388	88.743	177.672	26.998	107.376	-123.773	75.346	8.698	-123.766	-120.502	-5.169	113.791	-121.731	-117.880	-117.287	-113.229	-61.620	-113.957	-8191	255	
21819.279	1	1	0	0	0.10793	0.39829	0.086814	0.23795	0.033343	0.37465	0.28191	0.080348	0.14347	0.12328	0.1735	0.17588	0.092911	0.30471	0.21825	0.23071	-1.0688	-2.0792	-1.6688	-1.8146	-2.1104	-1.3521	-2.0396	-2.15	-1.5458	-2.2375	-1.9521	-1.6583	-2.3812	-1.525	-1.8625	-2.2687	57.026	-102.428	151.804	-34.709	67.859	26.782	125.029	151.003	-57.373	24.348	220.184	118.312	189.988	-108.611	-133.801	173.568	0.00069636	0.0044857	0.00096685	1059.9	9.3904e-06	8.4685e-06	1524.1	276.86	2.9564e-05	2.9799e-05	534.42	177.77	72.868	27.165	2.1629e-05	88.384	0.028891	0.045019	0.012704	1108	0.0004595	0.00051184	1480.1	289.83	0.00045446	0.0005121	574.94	186.01	96.174	33.614	0.00048964	90.538	164.793	-30.297	-11.187	-123.783	86.676	175.678	-124.173	-120.703	-4.298	11.740	-121.293	-117.986	-117.117	-113.097	-43.270	-114.255	-8191	255	
21819.398	1	1	0	0	0.13004	0.1198	0.041367	0.50354	0.061061	0.23531	0.40927	0.22326	0.27859	0.12271	0.38443	0.10983	0.10027	0.041738	0.16243	0.1503	-1.1063	-2.2	-1.7458	-1.7667	-2.1917	-1.6583	-1.9833	-2.2417	-1.4104	-2.1917	-2.225	-1.65	-2.2812	-1.7333	-1.8583	-2.3958	-36.045	-61.624	56.042	-128.464	-34.985	208.328	177.383	-138.491	91.549	-57.661	139.163	-75.283	149.542	204.531	-23.543	141.301	0.00060162	0.0012111	0.00066558	1074.9	1.0027e-05	1.7618e-05	1548	276.77	9.8721e-06	1.2015e-05	537.33	179.85	74.139	27.323	1.7381e-05	88.906	0.030083	0.047347	0.013536	1129.4	0.00048515	0.00054804	1510.8	295.03	0.00048523	0.00054545	586.45	190.11	98.165	34.422	0.00051891	91.988	178.307	-118.738	171.195	-123.788	98.232	118.742	-124.048	-120.537	-72.088	143.793	-121.369	-117.443	-117.646	-113.063	97.697	-113.792	-8191	255	
21819.494	1	1	0	0	0.080445	0.059763	0.12075	0.16869	0.20987	0.20878	0.38748	0.17102	0.13292	0.10007	0.014539	0.1479	0.028115	0.09124	0.25688	0.059136	-1.1625	-2.0708	-1.9917	-1.5396	-2.2188	-1.7604	-1.9021	-2.4208	-1.4229	-1.8146	-2.0583	-1.3687	-2.3375	-1.9229	-1.5229	-2.4896	0.295	60.972	179.044	221.258	-77.809	-129.515	156.329	206.938	175.197	-131.293	178.897	83.561	183.357	-95.723	10.764	171.052	0.0014845	0.004388	0.00054828	1070.3	3.2078e-05	2.2793e-05	1538.7	275.57	2.4382e-05	3.9052e-05	532.37	176.81	73.55	26.255	3.7739e-05	87.092	0.031012	0.048641	0.013808	1126.5	0.00048722	0.00055419	1505.2	292.21	0.00048505	0.00054417	580.73	187.17	96.88	33.685	0.00051108	89.859	168.303	-72.343	-63.856	-123.793	121.864	179.034	-123.629	-120.688	-60.781	-111.842	-121.225	-117.752	-117.240	-112.654	-133.884	-114.429	-8191	255	
21819.592	1	1	0	0	0.040294	0.12883	0.11	0.22286	0.27148	0.23227	0.44805	0.086133	0.1564	0.017719	0.031142	0.42649	0.27653	0.26267	0.10854	0.28599	-1.2167	-1.7646	-2.2604	-1.4208	-2.1688	-1.6792	-1.7833	-2.1396	-1.5688	-2.0583	-2.3354	-1.1812	-2.2167	-2.0625	-1.5333	-2.5208	86.086	157.095	39.879	167.692	86.023	96.140	137.695	190.865	-54.484	54.221	67.974	-74.741	144.166	215.575	-40.977	172.502	0.0011067	0.00013731	0.00059493	1058.2	8.9284e-06	3.0368e-05	1527.2	271.45	1.0441e-05	2.415e-05	530.75	173.66	71.502	26.028	2.6235e-05	85.391	0.030555	0.04862	0.013565	1114.5	0.00048418	0.00054688	1485	288.69	0.0004743	0.00053226	572.03	184.15	94.97	33.159	0.00050123	87.754	148.065	-67.964	82.546	-124.011	-45.432	160.763	-123.957	-120.102	-12.506	75.572	-121.269	-118.091	-117.455	-113.014	29.821	-113.998	-8191	255	
21819.688	1	1	0	0	0.20099	0.18211	0.19403	0.14256	0.103	0.15257	0.16887	0.13007	0.17031	0.21598	0.16563	0.39121	0.17955	0.0097948	0.16544	0.16105	-1.1542	-2.0083	-2.2125	-1.7521	-2.0687	-1.9125	-1.5979	-2.3333	-1.8917	-1.6708	-2.3542	-1.6604	-2.3333	-2.1333	-1.3979	-2.3312	-83.273	129.057	-29.119	209.219	116.538	168.197	159.400	177.603	-129.273	-104.663	-121.167	173.059	156.292	192.014	22.882	-127.615	0.0008588	0.0010945	0.00022325	1068.7	1.7708e-06	3.6753e-06	1528.2	274.57	1.7582e-05	9.4504e-06	529.51	174.61	72.047	25.767	2.0431e-05	85.233	0.030246	0.047498	0.01333	1116.8	0.00047688	0.00054176	1488.4	289.55	0.00047343	0.00053128	573.41	184.04	95.208	33.174	0.00050688	88.064	169.821	38.265	-120.342	-123.603	115.657	-4.847	-124.003	-120.378	208.125	-102.096	-121.515	-117.740	-117.336	-113.807	17.668	-114.288	-8191	255	
21819.783	1	1	0	0	0.092289	0.22108	0.1874	0.22195	0.057958	0.22685	0.40913	0.21994	0.2809	0.15408	0.11966	0.32552	0.19992	0.16761	0.12132	0.18491	-1.4333	-1.7812	-2.2458	-1.4875	-2.0104	-2.0208	-1.4875	-2.1208	-1.7687	-1.6917	-2.35	-1.5812	-1.9375	-2.2	-1.4125	-2.5292	4.714	-40.567	108.228	188.359	64.132	100.280	128.450	-41.671	34.236	-51.415	141.381	182.353	177.815	117.946	-71.864	156.377	0.00073631	0.0019143	0.0010494	1058.7	1.8117e-05	1.9272e-05	1537.3	273.83	3.337e-05	2.1474e-05	528.36	174.18	72.163	26.382	2.3511e-05	85.093	0.031186	0.049458	0.013812	1125.3	0.00049635	0.00055916	1500.4	291.28	0.00047796	0.00053816	573.04	184.71	96.332	33.421	0.00050811	88.478	200.821	-14.576	55.490	-123.950	89.137	55.177	-123.672	-120.640	34.439	-131.058	-121.188	-117.462	-117.892	-112.827	96.164	-113.975	-8191	255	
21819.881	1	1	0	0	0.1565	0.31978	0.092497	0.51676	0.29127	0.10594	0.2185	0.17171	0.18642	0.16877	0.088036	0.18872	0.2943	0.37628	0.19711	0.17605	-1.2917	-1.3354	-2.3271	-1.7958	-1.9396	-2.075	-1.7667	-2.3625	-1.9833	-1.7021	-2.4813	-1.6042	-1.7917	-2.2042	-1.4792	-2.3208	167.572	194.056	84.439	176.015	192.241	93.690	136.808	167.057	71.351	-95.456	179.974	120.652	-13.244	193.419	-133.240	163.318	0.00075041	0.0010794	0.00058933	1060.3	1.6979e-05	3.8279e-05	1519.9	273.66	1.6276e-05	1.605e-05	524.77	174.9	71.411	26.093	1.8049e-05	85.971	0.031731	0.050358	0.014038	1131.3	0.00050996	0.0005779	1500.9	291.79	0.00050802	0.0005616	579.37	186.31	96.947	33.664	0.00051919	89.31	143.374	-112.518	-109.930	-123.992	100.887	-34.758	-123.980	-120.514	178.392	6.124	-121.354	-117.627	-117.308	-112.017	-1.219	-113.857	-8191	255	
21819.977	1	1	0	0	0.25424	0.15666	0.23631	0.16712	0.15656	0.26778	0.21593	0.053016	0.113	0.099053	0.10788	0.29871	0.16617	0.17612	0.51376	0.47109	-1.6812	-1.5542	-2.3104	-1.7458	-1.5604	-2.2313	-1.6792	-2.0875	-2.0667	-1.5063	-2.4521	-2.0042	-1.9458	-2.3625	-1.4667	-2.1917	-5.881	-61.461	-113.737	-117.164	201.395	95.793	221.329	218.439	-16.207	147.447	208.178	185.967	197.543	-137.125	128.123	166.076	0.0011708	0.0015964	0.00072448	1052	1.162e-05	2.1916e-05	1536.5	272.15	3.4971e-05	1.6799e-05	527.92	175.61	72.27	26.474	3.4809e-05	86.392	0.032064	0.050428	0.014041	1126.1	0.00051718	0.00057998	1505.3	293.05	0.0005078	0.00056557	580.76	187.45	97.708	33.965	0.00052867	90.021	159.666	-108.672	-90.851	-123.502	-32.314	-57.252	-123.996	-120.090	61.885	67.999	-121.218	-117.840	-116.762	-112.556	-97.329	-113.365	-8191	255	
21820.096	1	1	0	0	0.12205	0.1235	0.33936	0.21732	0.25277	0.23563	0.49921	0.2998	0.25136	0.12681	0.25451	0.18727	0.057533	0.057374	0.25571	0.29299	-1.6771	-1.6333	-2.3979	-2.0229	-1.6146	-2.0583	-1.775	-2.1562	-2.0292	-1.3458	-2.3479	-2.1167	-1.6146	-2.5167	-1.6104	-2.0104	161.552	196.180	-132.920	-73.960	219.042	17.931	162.055	145.238	140.422	21.494	-126.063	155.112	1.988	-112.483	-20.409	211.962	0.0005792	0.0021839	0.00037626	1068.3	1.145e-05	4.2298e-05	1538.2	273.69	1.7915e-05	5.1793e-06	535.19	177.26	73.438	26.305	2.1562e-05	86.745	0.032109	0.050527	0.013986	1134.6	0.00051164	0.0005637	1506.4	292.94	0.0004999	0.00054979	581.33	187.79	97.825	33.555	0.00050954	89.637	161.510	-78.149	-133.681	-124.054	174.412	-44.766	-124.020	-120.189	-37.595	152.592	-121.369	-117.756	-117.603	-113.410	87.734	-113.781	-8191	255	
21820.191	1	1	0	0	0.11236	0.10719	0.098754	0.070217	0.090577	0.16813	0.17339	0.24701	0.12378	0.26074	0.31519	0.24494	0.080718	0.067997	0.10261	0.19199	-1.8958	-1.3771	-2.1917	-2.0979	-1.6646	-2.2208	-1.8521	-1.8542	-2.2854	-1.6063	-2.2833	-2.225	-1.4333	-2.2625	-1.5583	-1.9937	-43.889	-42.018	-121.752	56.023	16.114	-85.867	149.061	-129.998	178.044	102.364	98.259	155.599	161.873	-90.284	184.487	120.010	0.00037028	0.002785	0.00057741	1073.7	7.1954e-06	3.4778e-05	1551.3	277.76	8.609e-06	2.037e-05	534.87	176.1	72.88	26.274	1.3814e-05	86.69	0.030579	0.048001	0.013278	1128.7	0.00048259	0.00053626	1504.2	292.92	0.00047313	0.00052739	576.67	186.46	96.474	33.354	0.00050062	89.427	-133.383	-121.773	-90.155	-124.162	181.999	168.694	-123.909	-120.487	198.936	118.612	-120.895	-117.744	-118.185	-113.685	-28.783	-114.046	-8191	255	
21820.264	1	1	0	0	0.094424	0.1285	0.18242	0.1564	0.1127	0.40944	0.23878	0.064139	0.15036	0.1753	0.3945	0.16004	0.20093	0.23984	0.19777	0.1833	-1.9479	-1.5812	-2.1312	-2.2625	-1.3854	-2.275	-1.9417	-1.8104	-2.2896	-1.7667	-2.1646	-1.9917	-1.6792	-2.3083	-1.9438	-1.7313	128.654	218.895	-72.552	137.166	143.408	-19.463	-118.993	206.700	-125.276	-86.428	-117.215	-130.576	216.066	-56.034	49.730	156.235	0.00062379	0.0022319	0.00014188	1073.7	3.5172e-05	3.2051e-05	1543.1	278.74	2.6785e-05	3.4869e-05	537.48	175.89	73.03	26.305	4.6981e-05	86.51	0.030225	0.047582	0.013202	1126.1	0.00048271	0.00053746	1501.2	293.07	0.00047317	0.00052939	578.64	185.81	96.547	33.211	0.00049749	88.984	136.962	40.022	146.578	-124.443	-35.150	126.660	-123.945	-120.759	-36.891	-128.365	-121.330	-117.674	-117.750	-112.517	12.151	-114.399	-8191	255	
21820.359	1	1	0	0	0.15118	0.19981	0.16641	0.19707	0.18585	0.085252	0.30801	0.22045	0.081144	0.25498	0.21381	0.23689	0.31948	0.082764	0.35767	0.50154	-2.1625	-1.5562	-1.7542	-2.2812	-1.3375	-2.2687	-2.075	-1.6437	-2.2375	-1.7042	-1.8125	-2.2521	-1.6	-2.075	-1.9417	-1.525	166.841	-105.777	187.129	191.472	93.946	-75.149	193.551	90.733	126.426	90.689	138.288	-121.132	-81.538	124.869	190.755	148.953	0.00080731	0.001137	0.00066766	1065.1	1.7476e-05	2.1522e-05	1535.7	278.5	3.4592e-06	1.1112e-05	529.08	174.77	72.535	26.21	1.7731e-05	85.443	0.029841	0.047469	0.013027	1118.6	0.00046911	0.00052391	1492.6	290.66	0.0004588	0.00051381	570.91	183.26	94.567	32.584	0.00048294	87.277	158.591	129.142	-40.691	-124.472	151.818	-91.051	-124.413	-120.685	-58.001	59.543	-120.763	-117.694	-117.907	-113.502	-109.989	-113.934	-8191	255	
21820.479	1	1	0	0	0.13538	0.086884	0.12711	0.25855	0.033125	0.10212	0.38802	0.15521	0.037986	0.10633	0.19327	0.072508	0.25592	0.090623	0.079051	0.12031	-1.975	-1.5521	-1.775	-2.4062	-1.4729	-2.0208	-2.1667	-1.4479	-2.1604	-1.6104	-1.8896	-2.3854	-1.5375	-2.025	-2.1125	-1.6125	-39.299	-113.460	118.777	-121.605	26.371	191.687	152.547	159.967	182.639	37.855	157.565	-86.716	219.625	38.495	139.569	-97.358	0.00087097	0.00086815	0.00060104	1080	2.1766e-05	7.9044e-06	1551.9	279.52	2.0836e-05	9.0526e-06	536.75	175.58	73.832	25.99	3.2793e-05	86.162	0.02856	0.045384	0.012581	1118.2	0.0004495	0.00050231	1496.7	289.72	0.00043669	0.00049715	568.92	182.42	94.784	32.437	0.00047421	87.993	149.106	-118.669	-54.051	-124.113	-66.472	196.657	-124.622	-120.881	70.148	8.411	-120.897	-118.050	-116.872	-112.980	-82.085	-113.970	-8191	255	
21820.576	1	1	0	0	0.32559	0.18479	0.26599	0.34536	0.18279	0.24281	0.33891	0.11773	0.30578	0.085968	0.26128	0.16261	0.1294	0.092196	0.044857	0.072433	-1.8792	-1.5146	-1.6021	-2.375	-1.3708	-1.9625	-2.1875	-1.5812	-2.4104	-1.9729	-1.7646	-2.4604	-1.5667	-2.0042	-2.1	-1.4937	-61.264	-54.678	127.288	-138.717	5.644	-77.998	159.712	106.264	77.545	107.812	184.402	-131.407	-56.424	-11.863	0.251	206.612	0.00084898	0.0013248	0.0010933	1081.4	2.6064e-05	3.3226e-05	1553.1	279.66	2.361e-05	1.2598e-05	532.32	174.99	73.774	26.665	7.0651e-06	84.715	0.028332	0.045421	0.012519	1121.7	0.00045153	0.00049495	1499.5	289.31	0.00043074	0.00049531	567.98	182.2	94.12	32.59	0.00046892	86.755	158.096	5.922	167.577	-124.339	-37.694	45.748	-124.233	-120.775	29.423	29.079	-121.701	-117.821	-116.862	-113.351	-137.249	-113.996	-8191	255	
21820.672	1	1	0	0	0.23103	0.17888	0.1836	0.18966	0.21865	0.31866	0.3075	0.27975	0.27188	0.15284	0.064169	0.35358	0.18621	0.18693	0.069994	0.2672	-1.9125	-1.7958	-1.5208	-2.4062	-1.4292	-1.9167	-2.5271	-1.5417	-2.3542	-2.0625	-1.5854	-2.4042	-1.6229	-1.6833	-2.1958	-1.4917	78.804	155.727	199.197	202.867	-6.684	-9.493	167.908	114.736	-136.655	26.025	-58.439	175.128	58.792	-132.169	-39.233	149.164	0.00024183	0.0025159	0.00074694	1064.5	3.3812e-05	2.449e-05	1542.3	277.84	3.6882e-05	2.1923e-05	523.28	172.36	71.99	25.978	1.5963e-05	83.553	0.027804	0.044663	0.012485	1107.2	0.00044927	0.00050156	1483.5	287.74	0.00043399	0.0004953	560.54	179.74	93.015	31.981	0.00045696	85.256	-104.687	77.050	-50.610	-123.989	18.657	20.155	-124.497	-120.783	-6.579	-13.063	-120.817	-117.787	-118.074	-113.133	-94.613	-114.376	-8191	255	
21820.768	1	1	0	0	0.24177	0.17256	0.039932	0.19047	0.094211	0.17442	0.15016	0.22315	0.16474	0.10155	0.037496	0.34217	0.065772	0.1643	0.3012	0.22573	-1.6146	-1.975	-1.3667	-2.3563	-1.7354	-1.7083	-2.2354	-1.5958	-2.1771	-1.7896	-1.5271	-2.3917	-1.8146	-1.7979	-2.2396	-1.7125	199.764	-25.563	59.456	196.811	90.633	-22.049	81.191	142.475	-22.932	81.609	-89.471	185.272	93.836	218.684	-74.130	127.254	0.0011786	0.0021777	0.00024564	1065	1.6934e-05	9.921e-06	1536.6	275.33	4.3286e-06	2.8267e-05	526.02	173.9	72.782	26.374	4.5757e-06	84.339	0.027296	0.043911	0.012145	1100.2	0.00044263	0.00049052	1478.5	285.83	0.00042543	0.00048504	561.3	179.36	93.133	32.104	0.0004514	85.384	182.776	114.113	9.961	-124.324	56.646	157.337	-124.502	-120.987	-120.610	84.536	-121.533	-117.977	-118.208	-113.660	170.177	-114.867	-8191	255	
21820.889	1	1	0	0	0.20283	0.23371	0.030896	0.10492	0.035887	0.34573	0.56262	0.30227	0.040217	0.041989	0.22015	0.30123	0.04619	0.22498	0.15915	0.14166	-1.6021	-2.1813	-1.2021	-2.3625	-1.8396	-1.5312	-2.4354	-1.8813	-1.8083	-2.2083	-1.6958	-2.3167	-2.1542	-1.6604	-2.2917	-1.6896	-7.389	134.082	42.262	-120.066	61.116	97.176	173.259	174.111	-66.395	5.317	121.465	173.729	-66.233	-50.733	43.298	115.708	0.00065849	0.001085	0.00069956	1077.5	1.2308e-05	4.6152e-05	1545.5	279.69	2.6066e-05	9.152e-06	535.37	175.69	73.532	26.429	2.4373e-05	85.534	0.027507	0.043551	0.012058	1105.9	0.00043948	0.00049279	1487	288.96	0.00042705	0.00049056	565.88	182.18	94.155	32.349	0.00045336	86.718	170.893	-12.260	-25.396	-124.553	63.509	16.096	-124.431	-120.812	113.059	-24.289	-121.585	-117.943	-117.438	-112.675	12.550	-114.025	-8191	255	
21820.961	1	1	0	0	0.048946	0.21369	0.27666	0.16985	0.090197	0.15667	0.14522	0.10293	0.12641	0.098178	0.35239	0.25911	0.22723	0.19593	0.24573	0.30368	-1.4688	-2.2188	-1.3958	-2.1958	-1.9813	-1.5688	-2.3688	-1.6958	-1.7479	-2.2313	-1.4917	-2.3208	-2.1208	-1.4021	-2.3833	-1.9438	175.565	-44.511	69.771	217.950	16.268	90.369	123.482	149.898	161.721	187.344	205.323	204.920	198.079	-118.936	-63.765	130.110	0.00084029	0.0015854	0.00010045	1078.1	5.7549e-06	5.7001e-06	1541.8	276.35	4.621e-05	3.1461e-05	528.31	176.04	72.486	26.177	7.7611e-06	84.56	0.027324	0.043787	0.012146	1104.6	0.00044315	0.00048641	1481.8	286.88	0.00042805	0.00048421	560.44	180.77	93.457	31.922	0.00044456	85.82	177.577	28.052	-132.519	-123.782	-114.874	215.195	-124.318	-120.597	-3.031	99.870	-121.115	-118.223	-118.088	-113.501	-121.132	-114.700	-8191	255	
21821.080	1	1	0	0	0.10687	0.32957	0.10503	0.15916	0.060118	0.22352	0.30655	0.37391	0.16068	0.19555	0.24872	0.31964	0.31206	0.35474	0.070994	0.22517	-1.325	-2.2625	-1.4333	-2.1396	-2.0042	-1.3646	-2.4292	-1.9708	-1.675	-2.2438	-1.6313	-2.0375	-2.3479	-1.4562	-2.1083	-1.8292	176.002	-12.524	38.208	130.822	-28.189	132.337	159.087	183.113	-28.869	28.581	-131.124	214.928	172.648	124.612	131.455	168.226	0.00069574	0.0011405	0.00061458	1069.9	2.1397e-05	1.7415e-05	1532.7	275.29	2.4566e-05	1.1493e-05	522.39	173.57	71.449	25.703	2.2235e-05	83.928	0.026855	0.042234	0.011755	1096.4	0.00043058	0.00047758	1468.9	283.99	0.00042012	0.0004708	557.48	179.34	91.788	31.574	0.00043706	84.84	130.399	15.795	118.001	-124.210	-9.690	64.496	-124.419	-120.907	-47.881	103.844	-121.441	-117.813	-118.150	-113.380	-123.941	-114.368	-8191	255	
#DATA ENDS
