BOXY.EXE: ISS Imagent and Oximeter Data Acquisition Program Version 0.80
Ascii Record File

#ACQ INFORMATION
2  Detector Channels 
16  External MUX Channels 
1  Auxiliary Channels 
5000  Waveform (CCF) Frequency (Hz)
1  Waveforms Skipped 
30  Waveforms Averaged 
1  Cycles Averaged 
16  Acquisitions per Waveform 
10.0806  Updata Rate (Hz) 

#FILE INFORMATION
TRUE -- External MUX Channel results are PARSED.
FALSE -- AC DC and Phase are NOT grouped.
TRUE -- Companion Program Settings File CREATED.
FALSE -- AC data not excluded
FALSE -- DC data not excluded
FALSE -- Phase data not excluded
FALSE -- Auxillary Chn. data not excluded
Tab delimiters

#CALIBRATION STATE
TRUE -- Waveform Calibration Values APPLIED.


#AUX CALIBRATION VALUES
Val Type	aux-1	

Term	1.0000e+00	
Factor	0.0000e+00	


#WF CALIBRATION VALUES
A = Detector Channel
Val Type	A-AC1	A-AC2	A-AC3	A-AC4	A-AC5	A-AC6	A-AC7	A-AC8	A-AC9	A-AC10	A-AC11	A-AC12	A-AC13	A-AC14	A-AC15	A-AC16	A-DC1	A-DC2	A-DC3	A-DC4	A-DC5	A-DC6	A-DC7	A-DC8	A-DC9	A-DC10	A-DC11	A-DC12	A-DC13	A-DC14	A-DC15	A-DC16	A-Ph1	A-Ph2	A-Ph3	A-Ph4	A-Ph5	A-Ph6	A-Ph7	A-Ph8	A-Ph9	A-Ph10	A-Ph11	A-Ph12	A-Ph13	A-Ph14	A-Ph15	A-Ph16	

Term	0.00000e+00	0.00000e+00	0.00000e+00	0.00000e+00	0.00000e+00	0.00000e+00	0.00000e+00	0.00000e+00	0.00000e+00	0.00000e+00	0.00000e+00	0.00000e+00	0.00000e+00	0.00000e+00	0.00000e+00	0.00000e+00	0.00000e+00	0.00000e+00	0.00000e+00	0.00000e+00	0.00000e+00	0.00000e+00	0.00000e+00	0.00000e+00	0.00000e+00	0.00000e+00	0.00000e+00	0.00000e+00	0.00000e+00	0.00000e+00	0.00000e+00	0.00000e+00	0.00000e+00	0.00000e+00	0.00000e+00	0.00000e+00	0.00000e+00	0.00000e+00	0.00000e+00	0.00000e+00	0.00000e+00	0.00000e+00	0.00000e+00	0.00000e+00	0.00000e+00	0.00000e+00	0.00000e+00	0.00000e+00	
Factor	1.00000e+00	1.00000e+00	1.00000e+00	1.00000e+00	1.00000e+00	1.00000e+00	1.00000e+00	1.00000e+00	1.00000e+00	1.00000e+00	1.00000e+00	1.00000e+00	1.00000e+00	1.00000e+00	1.00000e+00	1.00000e+00	1.00000e+00	1.00000e+00	1.00000e+00	1.00000e+00	1.00000e+00	1.00000e+00	1.00000e+00	1.00000e+00	1.00000e+00	1.00000e+00	1.00000e+00	1.00000e+00	1.00000e+00	1.00000e+00	1.00000e+00	1.00000e+00	X	X	X	X	X	X	X	X	X	X	X	X	X	X	X	X	

B = Detector Channel
Val Type	B-AC1	B-AC2	B-AC3	B-AC4	B-AC5	B-AC6	B-AC7	B-AC8	B-AC9	B-AC10	B-AC11	B-AC12	B-AC13	B-AC14	B-AC15	B-AC16	B-DC1	B-DC2	B-DC3	B-DC4	B-DC5	B-DC6	B-DC7	B-DC8	B-DC9	B-DC10	B-DC11	B-DC12	B-DC13	B-DC14	B-DC15	B-DC16	B-Ph1	B-Ph2	B-Ph3	B-Ph4	B-Ph5	B-Ph6	B-Ph7	B-Ph8	B-Ph9	B-Ph10	B-Ph11	B-Ph12	B-Ph13	B-Ph14	B-Ph15	B-Ph16	

Term	0.00000e+00	0.00000e+00	0.00000e+00	0.00000e+00	0.00000e+00	0.00000e+00	0.00000e+00	0.00000e+00	0.00000e+00	0.00000e+00	0.00000e+00	0.00000e+00	0.00000e+00	0.00000e+00	0.00000e+00	0.00000e+00	0.00000e+00	0.00000e+00	0.00000e+00	0.00000e+00	0.00000e+00	0.00000e+00	0.00000e+00	0.00000e+00	0.00000e+00	0.00000e+00	0.00000e+00	0.00000e+00	0.00000e+00	0.00000e+00	0.00000e+00	0.00000e+00	-2.03808e+02	-1.26914e+02	-1.21665e+02	-1.82284e+02	-9.97973e+01	-6.70612e+01	-1.58386e+02	-1.62015e+02	-9.23245e+01	-5.47240e+01	-1.79153e+02	-1.73355e+02	-1.82277e+02	-1.78265e+02	-9.35483e+01	-1.51023e+02	
Factor	4.16203e-05	1.29908e-04	3.88856e-05	1.52783e-01	1.56517e-06	1.40541e-06	1.69293e-01	4.87466e-02	1.56402e-06	1.54847e-06	1.08150e+00	2.87519e-02	2.79038e-02	8.23139e-03	1.38566e-06	1.17084e-02	2.55365e-06	2.72466e-06	7.60423e-07	8.14313e-02	2.95165e-08	3.00081e-08	8.46997e-02	2.60561e-02	2.96002e-08	2.99262e-08	4.46141e-01	1.47748e-02	1.49295e-02	4.41557e-03	2.97076e-08	6.06583e-03	X	X	X	X	X	X	X	X	X	X	X	X	X	X	X	X	



#DISTANCE SETTINGS
A = Detector Channel
A-1	A-2	A-3	A-4	A-5	A-6	A-7	A-8	A-9	A-10	A-11	A-12	A-13	A-14	A-15	A-16	

2.5000e+00	3.0000e+00	2.5000e+00	3.0000e+00	2.0000e+00	3.0000e+00	1.5000e+00	3.0000e+00	3.0000e+00	3.0000e+00	3.0000e+00	3.0000e+00	3.0000e+00	3.0000e+00	1.5000e+00	3.0000e+00	

B = Detector Channel
B-1	B-2	B-3	B-4	B-5	B-6	B-7	B-8	B-9	B-10	B-11	B-12	B-13	B-14	B-15	B-16	

1.0000e+01	1.0000e+01	1.0000e+01	1.4400e+00	1.0000e+01	1.0000e+01	1.5100e+00	1.9400e+00	1.0000e+01	1.0000e+01	1.9900e+00	2.4900e+00	2.4100e+00	2.9000e+00	1.0000e+01	2.9800e+00	




#DATA BEGINS
time	group	step	mark	flag	A-AC1	A-AC2	A-AC3	A-AC4	A-AC5	A-AC6	A-AC7	A-AC8	A-AC9	A-AC10	A-AC11	A-AC12	A-AC13	A-AC14	A-AC15	A-AC16	A-DC1	A-DC2	A-DC3	A-DC4	A-DC5	A-DC6	A-DC7	A-DC8	A-DC9	A-DC10	A-DC11	A-DC12	A-DC13	A-DC14	A-DC15	A-DC16	A-Ph1	A-Ph2	A-Ph3	A-Ph4	A-Ph5	A-Ph6	A-Ph7	A-Ph8	A-Ph9	A-Ph10	A-Ph11	A-Ph12	A-Ph13	A-Ph14	A-Ph15	A-Ph16	B-AC1	B-AC2	B-AC3	B-AC4	B-AC5	B-AC6	B-AC7	B-AC8	B-AC9	B-AC10	B-AC11	B-AC12	B-AC13	B-AC14	B-AC15	B-AC16	B-DC1	B-DC2	B-DC3	B-DC4	B-DC5	B-DC6	B-DC7	B-DC8	B-DC9	B-DC10	B-DC11	B-DC12	B-DC13	B-DC14	B-DC15	B-DC16	B-Ph1	B-Ph2	B-Ph3	B-Ph4	B-Ph5	B-Ph6	B-Ph7	B-Ph8	B-Ph9	B-Ph10	B-Ph11	B-Ph12	B-Ph13	B-Ph14	B-Ph15	B-Ph16	aux-1	digaux	

1512.858	1	1	0	256	0.20226	0.13027	0.46098	0.16087	0.28677	0.20619	0.10723	0.28022	0.21769	0.27691	0.19804	0.14372	0.10211	0.21743	0.11469	0.085529	-0.39792	-1.0375	-1.5625	-0.75208	-1.2938	-1.2208	-1.0021	-1.6646	-0.96042	-0.97708	-1.6604	-0.96458	-1.2271	-1.6854	-0.76042	-1.8312	100.092	144.264	231.458	-95.290	10.893	193.607	144.246	205.266	162.028	-89.614	-38.835	188.545	-72.728	169.507	173.490	193.173	0.0011766	0.00035121	0.00018185	538.37	4.1493e-06	7.1666e-06	1187.2	195.9	2.1938e-06	5.2614e-06	484.7	218.48	72.47	28.481	3.4539e-06	100.48	0.0002131	0.00015491	4.2549e-05	492.68	1.6989e-06	1.6232e-06	1085.7	179.5	1.721e-06	1.6656e-06	384.13	200.53	66.781	26.208	1.7556e-06	92.769	123.188	-33.239	-19.533	-105.470	-15.266	45.949	-105.054	-101.991	-62.815	81.496	-100.649	-97.555	-98.783	-94.131	12.752	-94.190	-8191	255	
1512.978	1	1	0	0	0.04644	0.2454	0.15071	0.29136	0.13957	0.11407	0.13608	0.080653	0.1518	0.02003	0.18426	0.10097	0.15613	0.26587	0.21293	0.11788	-0.65417	-0.90625	-1.6104	-0.91042	-1.2625	-1.475	-0.88542	-1.6625	-1.2979	-0.88542	-1.7833	-1.0562	-1.1667	-1.5167	-0.81875	-1.7062	97.745	104.773	115.742	163.546	234.100	152.235	183.338	181.737	176.945	-11.883	-19.427	-110.521	-116.416	193.341	190.674	124.210	0.0011431	0.00049966	0.00012124	537.22	6.5633e-06	6.6546e-06	1167.1	192.25	5.8571e-06	1.3993e-06	490.09	214.79	70.887	28.023	2.019e-06	99.315	0.00021244	0.00015981	4.2417e-05	490.26	1.6313e-06	1.6059e-06	1072	176.37	1.7196e-06	1.7343e-06	381.61	196.9	65.354	25.711	1.7594e-06	91.343	121.015	-9.435	-17.124	-106.440	15.501	57.293	-105.331	-101.781	-4.100	13.995	-102.670	-97.448	-98.532	-94.047	57.764	-94.287	-8191	255	
1513.050	1	1	0	0	0.14611	0.097023	0.15084	0.14031	0.30939	0.144	0.14386	0.26376	0.15298	0.10911	0.21043	0.35536	0.10056	0.2861	0.12378	0.050507	-0.94583	-0.80417	-1.7146	-1.0021	-0.99375	-1.6833	-0.89792	-1.5438	-1.3188	-0.95208	-1.7771	-1.2812	-0.87917	-1.5854	-0.875	-1.6146	22.403	170.534	77.007	234.038	224.590	-106.349	183.901	-100.977	-44.048	10.505	-114.375	192.992	201.285	-38.576	113.080	75.079	0.0012086	0.00042798	9.4575e-05	533.68	8.3633e-06	5.8673e-06	1158	191.5	3.8445e-06	4.6459e-06	492.15	217.41	71.916	28.121	4.5737e-06	99.93	0.00021256	0.00016047	4.4287e-05	486.7	1.6864e-06	1.706e-06	1064.7	176.17	1.6887e-06	1.7426e-06	383.96	198.19	66.051	25.873	1.6746e-06	92.137	124.787	-18.969	-69.792	-105.826	-1.963	34.065	-105.259	-102.086	2.535	57.729	-100.671	-97.702	-98.671	-94.241	7.698	-94.510	-8191	255	
1513.146	1	1	0	0	0.19278	0.22519	0.23291	0.15603	0.17924	0.076716	0.16142	0.11253	0.23853	0.19339	0.21196	0.1925	0.089371	0.059991	0.26798	0.26775	-1.175	-0.82083	-1.6729	-1.2021	-1.0063	-1.6125	-1.0396	-1.3937	-1.4646	-0.83125	-1.6208	-1.325	-0.91042	-1.7896	-0.88333	-1.6688	36.072	-12.441	190.407	44.956	-19.397	-87.512	105.269	-88.058	-19.111	-32.436	-0.629	218.817	32.661	181.124	140.747	206.130	0.0011277	0.00031653	0.00016283	531.58	1.5691e-06	2.6149e-06	1168.2	192.57	4.6559e-06	5.2126e-06	494.35	218.3	71.961	28.694	5.3207e-06	102.04	0.00021252	0.00015905	4.3347e-05	488.4	1.752e-06	1.679e-06	1069.6	176.86	1.751e-06	1.731e-06	384.63	200.03	66.503	26.254	1.691e-06	93.23	124.503	-19.021	-11.462	-105.632	-81.340	31.417	-104.991	-101.527	1.520	25.634	-102.174	-97.802	-98.529	-93.948	-13.403	-94.109	-8191	255	
1513.242	1	1	0	0	0.18785	0.11111	0.24626	0.10096	0.30981	0.14972	0.35092	0.019169	0.26859	0.22398	0.27072	0.26965	0.12791	0.18464	0.60073	0.2737	-1.1812	-0.75208	-1.5458	-1.1229	-0.775	-1.7062	-0.9875	-1.3312	-1.6667	-0.725	-1.7062	-1.3333	-1.0729	-1.7146	-1.0063	-1.3729	-37.876	-114.130	47.116	199.365	-59.254	-19.860	151.783	138.470	136.815	-99.653	65.309	-91.558	-17.893	187.835	82.295	194.614	0.0012902	0.00056189	0.00013096	534.4	4.1802e-06	3.2012e-06	1163.6	191.3	9.2857e-06	7.926e-06	483.56	216.24	71.207	28.221	3.1802e-06	99.605	0.0002205	0.0001584	4.2641e-05	488.91	1.7401e-06	1.6271e-06	1069.4	176.05	1.7752e-06	1.7572e-06	379.9	197.64	65.685	25.814	1.6674e-06	91.479	116.586	-49.483	-46.003	-105.727	-48.139	35.244	-105.101	-101.658	-25.377	35.618	-101.341	-97.749	-98.564	-94.204	62.350	-94.105	-8191	255	
1513.361	1	1	0	0	0.06789	0.13626	0.093695	0.28792	0.29947	0.13981	0.03881	0.11854	0.23601	0.24252	0.15288	0.24209	0.13595	0.12393	0.04802	0.1605	-1.1625	-0.64792	-1.3979	-1.5688	-0.94583	-1.5	-1.0833	-1.1521	-1.6729	-0.85	-1.5875	-1.5458	-0.73125	-1.8208	-1.025	-1.3396	72.423	-107.513	-81.331	7.385	60.237	7.131	168.591	113.332	-28.903	67.894	175.559	230.220	-75.794	-71.563	-28.197	235.523	0.0012118	0.00048656	0.00019523	534.77	9.1956e-07	7.3975e-06	1156.8	191.98	7.7574e-06	4.5872e-06	489.11	215.84	71.56	28.21	5.2049e-06	99.986	0.00021175	0.00015458	4.1614e-05	488.11	1.7421e-06	1.6664e-06	1063.8	175.97	1.674e-06	1.7163e-06	382.26	197.47	65.866	25.917	1.7387e-06	91.846	125.783	-20.012	-13.546	-105.661	31.214	44.837	-104.982	-101.990	19.385	33.307	-100.896	-97.664	-98.574	-93.824	14.270	-94.076	-8191	255	
1513.457	1	1	0	0	0.13155	0.14633	0.16312	0.33409	0.42405	0.26596	0.32249	0.11553	0.15728	0.098682	0.21424	0.094159	0.23688	0.16495	0.26388	0.42256	-1.3417	-0.80417	-1.3979	-1.5542	-0.8375	-1.5479	-1.2083	-0.93333	-1.6604	-0.89583	-1.2604	-1.7792	-0.9	-1.6979	-1.3333	-1.175	39.798	11.969	-78.716	224.077	-60.156	0.941	189.928	-85.827	-1.339	41.076	216.281	-56.197	52.470	4.607	63.195	164.424	0.0011807	0.00069986	0.00012121	534.35	3.2552e-06	6.0298e-06	1165.5	195.8	5.1441e-06	7.3401e-06	492.71	219.09	73.302	28.807	6.4675e-06	101.7	0.00021203	0.00015849	4.2359e-05	488.93	1.6271e-06	1.6648e-06	1069.9	178.85	1.6757e-06	1.5694e-06	385.62	200.37	67.296	26.453	1.6917e-06	93.566	122.055	-71.471	-6.424	-105.585	-12.942	31.774	-105.232	-101.555	58.725	42.701	-100.266	-97.570	-98.937	-93.804	15.822	-93.888	-8191	255	
1513.553	1	1	0	0	0.14331	0.084161	0.13566	0.14581	0.1075	0.21145	0.049015	0.12512	0.20782	0.098868	0.19966	0.085686	0.19028	0.10132	0.22935	0.1433	-1.2854	-0.84167	-1.1167	-1.6812	-0.95417	-1.4729	-1.55	-0.9375	-1.7646	-0.95208	-1.0187	-1.9271	-0.87917	-1.5625	-1.5625	-1.0667	17.122	51.844	1.902	204.408	105.583	73.362	184.336	171.902	-111.019	-25.194	72.290	-90.815	218.499	216.000	50.424	-119.642	0.0012193	0.00018422	0.00010468	542.25	7.0608e-06	6.066e-06	1172.2	195.81	6.1272e-06	6.8229e-06	497.13	218.02	72.964	28.533	1.0058e-06	100.86	0.00021308	0.00015503	4.2891e-05	495.23	1.6765e-06	1.5464e-06	1075.7	180.28	1.6291e-06	1.6525e-06	384.31	199.56	66.876	26.149	1.6641e-06	92.161	125.865	-98.135	-49.235	-105.673	28.212	3.955	-105.390	-101.982	22.996	36.072	-101.004	-97.752	-98.652	-93.772	9.949	-94.273	-8191	255	
1513.649	1	1	0	0	0.23117	0.136	0.080032	0.26658	0.34464	0.019169	0.26202	0.32347	0.093394	0.1957	0.24903	0.31536	0.076082	0.33535	0.10539	0.36172	-1.4312	-0.77292	-1.1604	-1.4854	-0.75	-1.4479	-1.6479	-0.86667	-1.5146	-1.1396	-1.0562	-1.9688	-1.0083	-1.4542	-1.45	-0.85833	206.808	-87.859	-110.256	-42.026	23.012	41.788	148.252	186.652	120.700	-31.652	135.839	235.088	-78.849	-100.597	3.836	214.157	0.0011407	0.00051745	0.00015293	538.91	3.7053e-06	6.1449e-06	1167.2	194.75	4.4635e-06	6.365e-06	484.21	217.93	71.905	28.192	2.6219e-06	100.23	0.00020501	0.00014833	4.2506e-05	492.01	1.6057e-06	1.5788e-06	1070.5	178.6	1.6204e-06	1.6036e-06	380.65	199.03	66.428	26.008	1.7214e-06	92.141	121.825	-85.305	-9.948	-105.644	39.041	54.954	-105.011	-102.033	30.771	31.997	-100.960	-97.507	-98.773	-93.913	-45.493	-94.140	-8191	255	
1513.746	1	1	0	0	0.071322	0.13578	0.17523	0.14588	0.24942	0.14705	0.27111	0.10865	0.20331	0.068488	0.15928	0.15303	0.32548	0.10497	0.080862	0.51171	-1.1771	-1.2687	-1.0125	-1.6917	-1.0542	-1.4875	-1.7021	-0.92083	-1.6229	-1.2563	-0.96875	-1.8708	-0.92292	-1.3354	-1.6521	-0.95625	233.882	-54.413	-71.283	133.216	32.471	-107.633	194.495	-52.692	118.459	-40.237	-114.194	167.187	197.573	234.143	-46.516	158.650	0.0011697	0.00067163	0.00012057	537.68	6.5203e-06	6.0993e-06	1168	194.82	6.0339e-06	5.9423e-06	492.22	218.22	72.941	28.677	4.2234e-06	101.64	0.00021051	0.00014655	4.188e-05	490.93	1.6672e-06	1.6746e-06	1071.2	178.09	1.6529e-06	1.5694e-06	384.15	199.88	66.994	26.389	1.6378e-06	93.392	124.892	-40.140	-35.588	-105.554	16.713	42.825	-105.108	-101.727	-18.303	57.216	-100.490	-97.490	-98.790	-93.782	0.834	-94.071	-8191	255	
1513.842	1	1	0	0	0.31029	0.25691	0.12653	0.15493	0.14915	0.066198	0.17039	0.11579	0.16813	0.29034	0.22675	0.19332	0.073533	0.41514	0.16076	0.37449	-0.96042	-1.2687	-0.89792	-1.7979	-0.90833	-1.1208	-1.8896	-0.80208	-1.3354	-1.5083	-0.73542	-1.9729	-1.3167	-1.1313	-1.7208	-1.0438	-42.332	-107.370	33.000	-91.140	180.683	120.601	55.104	225.608	-27.488	171.069	198.229	197.694	73.592	199.205	132.434	183.153	0.0012751	0.00027291	0.00021018	537.66	6.934e-06	1.1182e-06	1175.6	196.01	6.8378e-06	5.141e-06	496.21	218.94	72.698	28.665	5.3057e-06	100.78	0.00021153	0.00014855	4.3441e-05	494.14	1.6475e-06	1.6187e-06	1075.4	179.54	1.6759e-06	1.6128e-06	386.29	200.03	66.9	26.347	1.6158e-06	92.615	124.312	-43.139	3.240	-105.780	-11.453	89.983	-104.725	-101.937	9.498	89.357	-102.251	-97.585	-98.689	-93.866	1.785	-93.997	-8191	255	
1513.938	1	1	0	0	0.21781	0.22201	0.28941	0.051625	0.28202	0.11106	0.33995	0.2118	0.049033	0.19546	0.23284	0.069944	0.17238	0.28538	0.14158	0.30725	-1.1979	-1.5521	-0.79375	-1.7229	-1.0729	-1.0312	-1.8458	-0.79167	-1.3646	-1.7083	-0.75625	-1.8917	-1.4188	-1.0104	-1.8125	-1.1625	203.549	-0.312	-72.216	201.518	-37.280	97.729	151.328	138.363	152.210	114.876	109.978	150.305	152.688	176.395	-41.538	207.114	0.001058	0.00051078	0.00015531	533.33	5.2061e-06	4.4556e-06	1160.7	192.19	7.002e-06	5.5141e-06	489.57	217.56	72.368	27.974	2.5035e-06	100.02	0.00021134	0.0001499	4.2555e-05	490.76	1.6337e-06	1.6177e-06	1064.4	176.61	1.6494e-06	1.6441e-06	377.8	198.51	66.455	25.899	1.5798e-06	91.945	121.535	10.231	-7.132	-105.379	-13.053	-2.882	-105.043	-101.827	-21.925	61.725	-101.837	-97.304	-98.199	-93.668	13.303	-94.114	-8191	255	
1514.059	1	1	0	0	0.14628	0.27905	0.13691	0.24939	0.22483	0.071199	0.26873	0.11857	0.22409	0.099354	0.12659	0.2633	0.10508	0.16662	0.1933	0.27156	-0.95417	-1.2979	-0.83333	-1.7021	-1.2229	-0.86875	-1.8646	-0.90208	-1.2729	-1.6187	-0.74792	-1.7896	-1.3479	-0.91667	-1.6688	-1.2458	-12.420	144.060	235.492	193.996	-103.826	75.574	238.150	108.008	48.246	34.467	50.304	-72.263	76.619	231.025	188.104	178.906	0.0011503	0.00064836	0.00010806	534.12	3.1453e-06	5.9684e-06	1161.4	192.24	4.4239e-06	9.0117e-06	495.31	216.39	72.187	28.383	4.2243e-06	100.17	0.00020999	0.00014908	4.103e-05	487.86	1.6244e-06	1.6219e-06	1066	176.75	1.6411e-06	1.5775e-06	380.39	198.72	66.206	26.135	1.604e-06	92.194	122.544	-10.621	-17.783	-105.635	22.822	47.171	-105.117	-101.648	-49.509	41.523	-102.125	-97.085	-98.965	-93.487	-9.092	-94.128	-8191	255	
1514.153	1	1	0	0	0.24504	0.16536	0.32012	0.31403	0.071462	0.15261	0.080996	0.073291	0.21592	0.11444	0.18191	0.23139	0.27488	0.15712	0.13823	0.18906	-0.84583	-1.6417	-0.80417	-1.5417	-1.4271	-0.75417	-1.8625	-1.1583	-1.0375	-1.7396	-0.82917	-1.5917	-1.4667	-0.90208	-1.8021	-1.3521	176.848	161.725	231.433	-47.115	111.210	-82.647	7.313	184.154	-49.910	-102.444	145.323	192.350	123.968	179.403	-66.719	97.485	0.0011534	0.00039626	0.00020054	538.01	6.7047e-06	3.6906e-06	1165.9	193.25	4.8671e-06	3.5224e-06	486.1	217.43	72.721	28.435	3.2287e-06	100.15	0.00021105	0.00014533	4.076e-05	490.16	1.7012e-06	1.6188e-06	1070.3	177	1.6839e-06	1.6328e-06	384.44	199.82	66.697	26.189	1.5868e-06	92.266	125.871	-43.649	-26.846	-105.357	-40.005	69.221	-104.949	-101.996	-51.725	79.037	-101.760	-97.439	-98.276	-93.215	58.650	-94.048	-8191	255	
1514.249	1	1	0	0	0.12412	0.18266	0.12669	0.037868	0.15102	0.27481	0.10144	0.38347	0.15448	0.28064	0.096748	0.29037	0.067693	0.12017	0.056246	0.25435	-0.56042	-1.7271	-0.67917	-1.5312	-1.3667	-0.80625	-1.7229	-1.2521	-0.97292	-1.85	-0.86458	-1.6917	-1.6604	-0.99792	-1.65	-1.4188	21.979	225.949	146.791	10.992	208.132	162.244	-81.116	152.027	208.656	-18.202	239.373	187.159	91.508	-5.532	-28.823	207.717	0.0012377	0.00036341	0.00011602	532.89	2.1778e-06	3.8774e-06	1169.7	192.3	3.1652e-06	8.9818e-06	491.75	216.04	71.271	28.093	3.8949e-06	99.668	0.00020877	0.00014022	4.0797e-05	488.07	1.6401e-06	1.6281e-06	1068.8	176.37	1.5888e-06	1.5121e-06	380.97	197.47	65.593	25.805	1.6126e-06	91.656	124.154	-34.571	-26.783	-105.581	-60.709	46.167	-104.639	-101.835	-30.647	74.230	-101.134	-97.482	-98.294	-93.535	1.067	-94.129	-8191	255	
1514.345	1	1	0	0	0.065155	0.17429	0.052609	0.14279	0.14007	0.21812	0.22409	0.5409	0.26708	0.20256	0.30124	0.11738	0.20649	0.3105	0.093308	0.22786	-0.6	-1.7708	-1.1313	-1.2854	-1.7375	-0.92292	-1.6229	-1.3042	-0.98125	-1.5604	-0.93958	-1.3979	-1.7708	-0.8875	-1.5667	-1.5562	-76.071	-43.663	140.281	-75.220	112.207	109.384	80.436	157.827	-16.788	61.188	67.502	-67.157	-5.111	-24.362	224.588	-106.402	0.0010785	0.00020725	9.6689e-05	535.22	5.6603e-06	6.0232e-06	1163.2	190.96	7.0666e-06	4.7807e-06	480.82	216.12	71.147	28.244	3.2582e-06	100.08	0.000208	0.00013918	3.9675e-05	487.75	1.5663e-06	1.5877e-06	1061.7	174.7	1.6863e-06	1.5414e-06	377.82	197.05	65.304	25.844	1.621e-06	91.556	126.656	-30.261	-15.460	-105.203	-1.174	35.148	-104.870	-102.009	-43.145	58.489	-100.475	-97.442	-98.887	-93.475	-37.604	-94.440	-8191	255	
1514.441	1	1	0	0	0.11495	0.065055	0.2534	0.22867	0.13051	0.22743	0.12978	0.12435	0.17405	0.074252	0.18426	0.4152	0.18256	0.30918	0.217	0.304	-0.55	-1.5063	-0.87083	-1.1104	-1.45	-0.78333	-1.6063	-1.625	-0.94167	-1.5167	-1.1146	-1.1479	-1.8062	-1.1542	-1.3333	-1.8646	142.243	221.824	148.241	229.370	27.644	-21.421	167.611	-104.711	83.433	-11.131	34.829	222.336	226.221	-74.262	1.708	157.781	0.0011675	0.00047996	0.00017042	533.12	3.1265e-06	4.9751e-06	1152.9	190.49	6.846e-06	7.6867e-06	479.37	215.6	71.471	28.313	6.3415e-06	99.759	0.00021164	0.00014788	4.2839e-05	486.16	1.602e-06	1.6083e-06	1060.8	174.47	1.6345e-06	1.5652e-06	378.41	197.11	65.526	25.952	1.6924e-06	91.486	126.962	-7.529	-34.606	-105.036	13.000	28.952	-104.617	-102.191	-9.619	74.713	-101.325	-97.120	-98.535	-93.424	5.311	-93.908	-8191	255	
1514.538	1	1	0	0	0.13229	0.085797	0.29956	0.060353	0.068194	0.083656	0.25635	0.069458	0.18784	0.46936	0.21918	0.18689	0.13888	0.11134	0.034422	0.45729	-0.49375	-1.6938	-1.1271	-1.0938	-1.65	-0.725	-1.4708	-1.6625	-0.86458	-1.5958	-1.1479	-0.99792	-1.6812	-1.0792	-1.2354	-1.7542	153.679	86.053	156.081	201.008	147.025	-29.850	160.408	7.519	-46.288	-31.890	120.825	29.158	3.442	196.064	59.328	176.590	0.001162	0.00044483	9.1973e-05	527.85	3.5335e-06	7.1486e-06	1143.4	188.42	5.5178e-06	2.0076e-06	474.94	212.77	70.195	27.343	5.9808e-06	98.014	0.00021045	0.00014085	4.1844e-05	484.12	1.6121e-06	1.6051e-06	1053.9	172.75	1.6179e-06	1.5778e-06	374.32	194.8	64.595	25.237	1.7045e-06	89.959	123.751	-20.152	-39.463	-104.752	3.750	46.862	-105.019	-101.372	-61.517	31.799	-100.745	-97.317	-98.378	-93.931	23.270	-94.300	-8191	255	
1514.658	1	1	0	0	0.16662	0.11535	0.25082	0.086768	0.12554	0.21887	0.29006	0.12261	0.077667	0.096485	0.052565	0.34893	0.18487	0.33619	0.1695	0.22189	-0.44792	-1.5375	-1.45	-1.1229	-1.5646	-1.2521	-1.2125	-1.7125	-0.85417	-1.2437	-1.3438	-0.82708	-1.6688	-1.1229	-1.0187	-1.975	86.753	-12.578	166.970	76.753	61.068	-39.566	130.241	-108.184	105.700	223.604	229.191	223.107	106.023	-67.648	-80.517	207.541	0.0011599	0.00051237	8.8437e-05	523.48	8.3939e-06	3.7535e-06	1141.2	186.94	4.4775e-06	7.7324e-06	477.23	212.01	70.293	27.564	5.6571e-06	97.586	0.00021018	0.00015055	4.0372e-05	478.16	1.6451e-06	1.6223e-06	1047.9	171.22	1.6727e-06	1.6238e-06	370.09	194.15	64.188	25.248	1.642e-06	89.9	122.939	-56.137	-41.668	-105.387	-2.078	49.622	-104.880	-101.903	2.283	23.115	-101.925	-97.083	-98.187	-93.708	24.430	-94.049	-8191	255	
1514.754	1	1	0	0	0.16975	0.29724	0.16559	0.30589	0.19275	0.25122	0.55622	0.29616	0.31522	0.029729	0.24449	0.21278	0.17677	0.17705	0.16041	0.035691	-0.38125	-1.1437	-1.6542	-0.79792	-1.4875	-0.95208	-1.1875	-1.8417	-0.5625	-1.3229	-1.7792	-1.0271	-1.4375	-1.3104	-0.85833	-1.9104	79.400	40.432	145.156	-103.269	-62.921	-65.848	193.268	165.362	-3.881	-35.842	7.056	211.227	181.372	69.323	2.078	-28.203	0.0010763	0.0003732	0.0001605	525.53	3.8851e-06	4.6529e-06	1146.6	186.63	7.9863e-06	3.5787e-06	480.55	213.31	69.915	27.841	4.061e-07	98.944	0.00020568	0.00014773	3.9849e-05	480.39	1.5831e-06	1.6476e-06	1050.2	171.04	1.6193e-06	1.6623e-06	376.01	194.95	64.47	25.522	1.6183e-06	90.858	130.435	-26.255	8.440	-104.990	-12.432	49.636	-104.689	-101.511	-12.913	59.550	-100.498	-97.257	-98.035	-93.767	-69.071	-93.960	-8191	255	
1514.850	1	1	0	0	0.44362	0.14022	0.11603	0.19612	0.16868	0.058761	0.19448	0.25044	0.45455	0.051902	0.1415	0.49835	0.18992	0.17698	0.37871	0.40711	-0.61667	-1.0792	-1.4438	-0.99583	-1.6313	-1.2229	-0.95208	-1.6583	-0.97083	-1.2417	-1.6792	-0.99583	-1.5521	-1.4646	-0.76458	-1.75	67.547	233.058	46.758	189.976	-54.635	-118.125	-102.807	145.231	-92.470	77.198	-33.528	176.870	78.572	124.737	59.200	212.913	0.0010822	0.00031172	0.00015724	526.95	4.519e-06	4.4201e-06	1148.4	188.69	3.2183e-06	6.7605e-06	485.94	212.37	70.316	27.395	1.6377e-06	98.035	0.00020693	0.00015119	4.0748e-05	482.67	1.5619e-06	1.6264e-06	1053.4	172.16	1.663e-06	1.6128e-06	374.9	194.14	64.383	25.297	1.6465e-06	89.966	124.113	-48.576	-32.284	-105.159	59.243	38.847	-104.784	-101.686	-37.103	39.509	-101.641	-97.693	-98.681	-93.928	19.943	-94.194	-8191	255	
1514.947	1	1	0	0	0.13903	0.27348	0.12298	0.052506	0.23994	0.086591	0.076138	0.27466	0.1263	0.11835	0.15233	0.21024	0.20026	0.13416	0.44332	0.29453	-0.68333	-1.0458	-1.6542	-1.0271	-1.5292	-1.2625	-0.91667	-1.8604	-0.99792	-1.1396	-1.6542	-1.0208	-1.4979	-1.5312	-0.93125	-1.9125	105.660	94.882	-29.815	-116.517	-114.636	14.599	-82.109	112.654	114.560	190.936	-102.812	144.800	234.291	192.910	144.953	162.853	0.0011624	0.0007465	0.00010264	524.8	5.0809e-06	6.0736e-06	1149.2	188.04	5.6448e-06	8.6015e-06	463.7	210.99	70.588	27.546	4.6525e-06	98.415	0.00021094	0.00015013	3.9802e-05	480.71	1.6352e-06	1.5979e-06	1053.3	171.91	1.671e-06	1.6425e-06	366.04	194.27	64.556	25.404	1.6131e-06	90.431	122.987	-49.902	-41.544	-105.480	-34.546	99.863	-105.213	-101.563	-0.244	69.942	-101.256	-97.505	-98.058	-94.329	37.117	-93.979	-8191	255	
1515.043	1	1	0	0	0.012058	0.11752	0.062117	0.040195	0.16051	0.1877	0.23175	0.07503	0.23	0.15855	0.13815	0.21992	0.047101	0.076501	0.081837	0.37397	-0.70208	-0.96042	-1.7292	-1.0312	-1.425	-1.5063	-0.94792	-1.6854	-1.3479	-1.0083	-1.7979	-0.94167	-1.5021	-1.6396	-0.74167	-1.5562	-45.092	179.409	-55.010	190.632	-85.810	176.459	233.636	222.641	106.719	65.066	109.367	169.841	223.763	-72.050	38.999	176.281	0.0011721	0.00049968	0.00014469	529.42	4.0344e-06	7.6735e-06	1155.7	189.97	7.6854e-06	7.1566e-06	479.12	215.02	71.343	28.074	5.1362e-06	99.915	0.00020556	0.00015369	3.8731e-05	483.83	1.6692e-06	1.5869e-06	1058.9	174.76	1.6551e-06	1.5654e-06	374.64	196.93	65.586	25.87	1.6402e-06	91.84	120.805	-1.799	-15.195	-105.489	15.251	57.328	-105.306	-102.083	16.341	54.837	-101.017	-97.694	-98.631	-93.776	-13.070	-94.074	-8191	255	
1515.137	1	1	0	0	0.28123	0.086161	0.16694	0.156	0.30322	0.17327	0.072793	0.1386	0.064827	0.17469	0.053491	0.27712	0.066047	0.42887	0.16602	0.29212	-1.0833	-0.89583	-1.625	-1.0292	-1.1375	-1.6979	-1.025	-1.5125	-1.3625	-0.875	-1.6562	-0.96042	-1.0312	-1.7437	-0.93125	-1.6167	112.919	211.010	111.128	217.653	193.343	-62.048	12.647	221.229	48.393	-17.086	-106.670	225.617	190.409	182.029	-80.573	187.226	0.0011289	0.00067479	0.00018438	530.48	7.1266e-06	3.2656e-06	1159.9	189.74	2.2065e-06	5.9144e-06	485.32	215.14	71.789	28.334	6.3285e-06	100.43	0.00020652	0.00014245	4.0057e-05	485.96	1.5739e-06	1.6267e-06	1062.8	174.96	1.6186e-06	1.5712e-06	377.01	197.45	65.867	25.897	1.5707e-06	91.912	120.234	-19.920	-20.105	-105.741	9.720	51.144	-105.182	-102.032	-11.744	88.174	-102.336	-97.759	-98.300	-94.028	7.559	-94.035	-8191	255	
1515.233	1	1	0	0	0.098802	0.089354	0.21605	0.26728	0.30931	0.14405	0.03527	0.16505	0.06528	0.23989	0.27754	0.59228	0.30931	0.10303	0.037127	0.30398	-1.0229	-0.66875	-1.5958	-1.0896	-0.97708	-1.7313	-0.91042	-1.3521	-1.5812	-0.76458	-1.4458	-1.2938	-1.0354	-1.7208	-0.81042	-1.5042	67.443	95.459	11.652	156.912	-52.964	63.785	-68.376	158.446	54.413	4.209	165.292	230.165	-61.627	-50.590	149.936	228.470	0.0010965	0.00073014	0.00015309	534.19	5.3101e-06	4.6888e-06	1159.1	192.23	7.3223e-06	7.0108e-06	491.78	215.01	72.103	27.946	3.8939e-06	100.2	0.00020294	0.00014144	3.9734e-05	485.93	1.6091e-06	1.4897e-06	1060.7	175.86	1.5983e-06	1.5156e-06	375.85	197.24	66.018	25.764	1.6244e-06	91.647	126.943	-49.635	-10.224	-106.228	-1.795	34.191	-105.223	-102.044	28.467	58.102	-101.695	-97.965	-99.016	-94.450	-25.560	-94.075	-8191	255	
1515.329	1	1	0	0	0.22116	0.24066	0.10543	0.14055	0.31332	0.088022	0.22108	0.28412	0.13573	0.093918	0.17848	0.39264	0.16325	0.23456	0.16946	0.16212	-1.1021	-0.88542	-1.6333	-1.2917	-0.82292	-1.5562	-1.0562	-1.2771	-1.6229	-0.91042	-1.6583	-1.5979	-1.0021	-1.7417	-0.96458	-1.2771	124.137	202.162	112.916	203.581	-47.700	52.309	220.435	-109.822	-25.097	48.405	101.446	208.546	86.010	-51.646	193.281	117.827	0.0012178	0.00044899	0.00023558	529.96	6.1815e-06	4.8108e-06	1152.5	190.15	4.2561e-06	3.8716e-06	490.69	214.87	71.403	28.303	3.9523e-06	100.21	0.00020058	0.00014379	3.9407e-05	485.78	1.567e-06	1.5017e-06	1058.6	174.56	1.5657e-06	1.5363e-06	377.81	196.92	65.657	25.986	1.6669e-06	92.14	128.814	-37.108	-12.265	-105.417	1.254	21.334	-105.244	-101.684	-3.155	79.311	-100.558	-97.638	-98.781	-94.126	4.682	-94.015	-8191	255	
1515.450	1	1	0	0	0.31028	0.2045	0.090399	0.25676	0.099316	0.21572	0.28242	0.061113	0.21563	0.34073	0.072759	0.31749	0.10376	0.15174	0.09647	0.23427	-1.2104	-0.7375	-1.4667	-1.4104	-0.725	-1.6292	-1.1063	-1.1292	-1.6917	-0.88542	-1.4396	-1.8167	-1.0292	-1.6604	-1.1042	-1.3396	195.358	195.008	174.179	153.444	-40.065	-57.869	155.220	-44.318	96.202	212.100	71.983	216.525	120.891	117.696	-15.918	138.986	0.0012203	0.00066108	0.00012513	530.84	4.7953e-06	8.7679e-06	1152.3	191.27	6.3313e-06	6.3961e-06	484.92	217.49	71.952	28.767	3.4936e-06	101.13	0.00020242	0.00014717	4.0302e-05	486.69	1.5599e-06	1.5589e-06	1061.9	176.23	1.5467e-06	1.5946e-06	379.84	198.78	66.196	26.295	1.6258e-06	92.827	125.265	3.775	-42.974	-105.270	-11.220	15.278	-105.179	-101.537	-20.222	65.424	-101.798	-97.633	-98.565	-93.830	18.793	-93.884	-8191	255	
1515.546	1	1	0	0	0.2497	0.21557	0.22717	0.27631	0.2707	0.090805	0.064595	0.3266	0.13389	0.12812	0.25474	0.11776	0.15121	0.11896	0.26425	0.17579	-1.4	-0.9	-1.3438	-1.5083	-0.57292	-1.8167	-1.2625	-1.1375	-1.6375	-1.0187	-1.25	-1.6292	-0.725	-1.6479	-1.0479	-0.84583	32.901	-71.893	11.779	184.593	95.646	65.280	214.752	80.086	55.764	235.038	55.902	159.284	-97.721	220.551	20.912	130.677	0.0012671	0.00051449	4.5465e-05	532.32	9.5034e-06	6.1189e-06	1155.9	192.08	8.1291e-06	3.4123e-06	484.87	214.6	71.319	28.346	2.784e-06	99.448	0.00020395	0.00014815	4.2864e-05	487.45	1.6161e-06	1.5462e-06	1059.6	176.48	1.5645e-06	1.5645e-06	378.38	196.96	65.641	25.958	1.5703e-06	91.901	123.487	5.701	-84.943	-105.140	25.341	62.287	-105.232	-101.779	-36.659	52.004	-101.174	-97.796	-98.920	-93.388	-18.466	-94.136	-8191	255	
1515.618	1	1	0	0	0.21688	0.25496	0.13218	0.32316	0.20175	0.33746	0.27871	0.086951	0.20992	0.14674	0.16198	0.28438	0.027381	0.16371	0.25271	0.23581	-1.175	-0.81875	-1.0708	-1.5562	-0.61042	-1.6396	-1.4354	-0.94167	-1.5875	-0.98333	-1.075	-1.8188	-0.79167	-1.3396	-1.4104	-0.99792	141.584	-26.861	131.379	-101.252	95.897	29.171	142.965	125.889	-21.408	117.799	-69.603	224.279	115.147	147.565	-0.827	125.733	0.0011823	0.00045682	0.00014754	535.58	8.2122e-06	7.5508e-06	1156.8	192.28	5.5105e-06	8.015e-06	490.21	215.45	71.82	28.437	3.1692e-06	101.24	0.00019903	0.00014583	4.1397e-05	488.34	1.5528e-06	1.5292e-06	1058.1	176.05	1.5545e-06	1.5984e-06	377.14	197.64	65.993	26.126	1.5449e-06	92.605	123.234	-0.744	-32.237	-105.698	-10.602	28.295	-104.969	-102.090	25.663	56.139	-100.846	-97.645	-98.631	-93.626	-15.432	-94.014	-8191	255	
1515.739	1	1	0	0	0.29619	0.33682	0.14325	0.092054	0.078001	0.23339	0.32475	0.093299	0.16109	0.31986	0.14791	0.093649	0.11204	0.28825	0.13709	0.38615	-1.2917	-0.97708	-0.925	-1.7062	-0.59375	-1.5208	-1.6167	-0.67083	-1.6458	-1.1542	-0.91042	-1.8583	-0.94375	-1.4458	-1.4813	-0.74792	141.478	-20.595	182.117	207.796	-0.416	39.869	222.190	238.553	145.299	77.048	51.509	-84.547	29.559	207.914	67.865	165.100	0.001127	0.00051788	0.00018914	533.44	9.273e-06	6.1311e-06	1163.7	196.76	4.3983e-06	6.4958e-06	493.18	220.48	74.47	29.087	4.1619e-06	102.52	0.00019796	0.00014438	4.0361e-05	489.81	1.6069e-06	1.6265e-06	1067.7	180.47	1.5628e-06	1.6544e-06	384.23	201.68	67.988	26.738	1.5769e-06	94.107	124.814	-14.684	-12.964	-105.334	-2.669	22.720	-104.976	-101.786	-22.487	49.282	-100.398	-97.624	-98.592	-93.905	7.097	-94.117	-8191	255	
1515.835	1	1	0	0	0.34758	0.046571	0.1378	0.12931	0.15274	0.14017	0.20954	0.16559	0.27824	0.070324	0.05765	0.13993	0.22533	0.21859	0.046374	0.48559	-1.1604	-0.9375	-0.84583	-1.6792	-0.75	-1.1521	-1.6583	-0.70417	-1.6458	-1.0708	-1.0438	-1.7875	-0.86667	-1.2667	-1.5396	-0.93333	28.622	117.439	192.975	-109.596	1.048	174.547	203.499	-93.903	23.058	209.450	93.759	229.247	144.601	143.996	173.040	193.205	0.0012632	0.00044962	0.00017879	539.34	7.0507e-06	6.4284e-06	1170.3	196.52	7.7778e-06	1.0425e-05	499.94	217.78	72.681	28.781	5.6184e-06	100.73	0.00020037	0.00014789	4.0017e-05	495.96	1.5735e-06	1.5851e-06	1072.3	180.88	1.6114e-06	1.5923e-06	384.53	199.95	67.289	26.37	1.4893e-06	92.429	121.810	-21.378	6.454	-105.832	12.918	-5.236	-105.017	-102.050	23.639	26.329	-100.599	-97.590	-98.771	-93.805	-13.838	-94.129	-8191	255	
1515.931	1	1	0	0	0.10531	0.076689	0.16081	0.16652	0.16941	0.17557	0.090368	0.17366	0.30955	0.22854	0.2328	0.12445	0.29241	0.19648	0.047555	0.22244	-1.0562	-1.2625	-0.65208	-1.7313	-0.90833	-1.1708	-1.8354	-0.74167	-1.5625	-1.4729	-0.79167	-1.7938	-1.0021	-1.1854	-1.6375	-0.93542	-68.095	-11.539	146.766	-48.818	92.758	-92.464	10.057	155.924	-36.033	2.317	90.353	60.547	-114.575	-117.583	65.400	203.849	0.0011538	0.000437	0.00018422	539.46	6.1946e-06	5.5165e-06	1166.1	195.91	4.6991e-06	8.1828e-06	503.2	219.06	73.798	28.751	2.9979e-06	100.67	0.00019987	0.00014228	3.9411e-05	494.38	1.5625e-06	1.5684e-06	1069.2	179.95	1.5763e-06	1.5317e-06	385.83	200.07	67.631	26.419	1.5387e-06	92.611	123.065	-44.327	-26.417	-105.550	15.013	54.109	-105.137	-102.082	-26.950	53.809	-100.337	-97.553	-98.920	-93.866	28.642	-94.168	-8191	255	
1516.051	1	1	0	0	0.052604	0.18114	0.23309	0.37206	0.11604	0.18248	0.17113	0.24855	0.30519	0.1731	0.1489	0.2423	0.021721	0.17595	0.15444	0.23552	-0.96458	-1.475	-0.85417	-1.7646	-0.9625	-0.77917	-1.7604	-0.86667	-1.3062	-1.4917	-0.73542	-1.6604	-1.1146	-0.98542	-1.7125	-0.87917	220.521	-110.966	186.948	198.641	20.550	-7.955	227.769	66.390	47.780	217.158	-22.687	-99.716	180.675	177.452	171.174	122.935	0.0011493	0.00041235	0.00017849	544.57	1.7012e-06	6.3727e-06	1166.8	196.95	6.7937e-06	5.1188e-06	490.93	220.03	73.536	29.061	2.185e-06	101.61	0.00020244	0.00013683	3.9193e-05	497.17	1.5423e-06	1.564e-06	1068.2	180.05	1.6181e-06	1.4723e-06	380.65	200.93	67.681	26.645	1.5569e-06	93.296	126.845	-47.216	-48.913	-105.362	-55.221	36.118	-105.074	-101.470	12.358	51.194	-100.381	-97.556	-98.450	-93.353	23.480	-93.827	-8191	255	
1516.146	1	1	0	0	0.38145	0.17647	0.11254	0.2725	0.11342	0.055796	0.037303	0.14151	0.13915	0.27424	0.2904	0.072398	0.049876	0.092575	0.21062	0.18828	-0.95833	-1.3479	-0.825	-1.5312	-1.2479	-0.8125	-1.9479	-0.92083	-1.2167	-1.5417	-0.75625	-1.8583	-1.2854	-0.87708	-1.5688	-1.1854	-76.827	-77.556	192.707	-102.486	-37.733	-76.374	160.066	238.458	-49.231	-111.963	120.520	89.948	10.448	86.097	-55.166	166.239	0.001146	0.00081126	0.00016451	546.04	7.209e-06	3.8669e-06	1162.7	195.36	3.994e-06	4.5821e-06	488.77	217.17	73.33	28.672	4.1203e-06	100.55	0.00020177	0.00014782	4.0432e-05	497.72	1.6284e-06	1.6112e-06	1067.3	179.34	1.6241e-06	1.5142e-06	383.52	198.97	67.072	26.331	1.6006e-06	92.072	122.720	-31.091	-28.767	-105.372	-2.331	36.494	-104.871	-101.897	-20.053	7.305	-100.580	-97.588	-98.833	-93.751	25.835	-94.022	-8191	255	
1516.218	1	1	0	0	0.036988	0.21916	0.24364	0.15828	0.23494	0.1041	0.31637	0.16803	0.29912	0.37877	0.22111	0.18648	0.043521	0.19323	0.12928	0.23883	-0.62917	-1.7104	-0.77292	-1.5146	-1.475	-0.78958	-1.8542	-1.0646	-1.1021	-1.625	-0.77292	-1.2875	-1.4	-0.825	-1.7125	-1.2417	105.757	108.655	-113.332	210.430	172.430	-5.270	223.844	95.647	89.197	21.086	-42.441	228.588	135.064	-68.199	90.983	137.477	0.0010597	0.000644	0.00015528	539.85	4.7555e-06	7.3728e-06	1159.8	195.65	8.7112e-06	6.4804e-06	485.77	214.51	72.843	28.378	7.9556e-06	99.946	0.00020169	0.0001426	4.1237e-05	493.12	1.5911e-06	1.58e-06	1060.8	178.33	1.5837e-06	1.4822e-06	379.89	197.34	66.604	26.051	1.6027e-06	91.597	123.860	-50.974	10.446	-105.574	-23.374	13.528	-104.656	-102.195	-20.839	77.718	-100.787	-97.228	-98.360	-93.911	-8.022	-94.198	-8191	255	
1516.338	1	1	0	0	0.28294	0.29901	0.062329	0.18201	0.058376	0.33115	0.054519	0.20702	0.10878	0.104	0.074601	0.21148	0.13967	0.077334	0.28534	0.27117	-0.54792	-1.6583	-0.93958	-1.1979	-1.3667	-0.71667	-1.8333	-1.0938	-1.0479	-1.6792	-0.73333	-1.2021	-1.6792	-0.91042	-1.5354	-1.3396	9.567	207.327	96.425	111.735	-5.713	-69.274	-75.413	224.558	204.769	-117.839	209.561	-54.549	164.639	-89.957	28.514	176.115	0.0011056	0.00021021	0.00015265	541.93	3.7008e-07	6.1646e-06	1163.2	197.06	7.4637e-06	5.0535e-06	488.56	218.16	73.133	28.826	7.1599e-06	100.55	0.00020336	0.00014224	4.1514e-05	495.49	1.5406e-06	1.5711e-06	1066.4	180.4	1.6808e-06	1.5546e-06	379.76	200.1	67.433	26.555	1.5799e-06	92.651	128.559	-24.857	-38.187	-105.751	-116.272	3.574	-104.905	-101.479	-58.894	85.803	-101.353	-97.549	-98.394	-93.927	25.607	-94.270	-8191	255	
1516.434	1	1	0	0	0.18593	0.15053	0.10588	0.31471	0.22569	0.15571	0.22707	0.29995	0.10557	0.20262	0.11801	0.29779	0.091737	0.24847	0.21774	0.34358	-0.44583	-1.5125	-0.86458	-1.2792	-1.7542	-0.60417	-1.6625	-1.4458	-0.61458	-1.6063	-1.0854	-1.3042	-1.7792	-0.7	-1.6479	-1.5208	-97.221	65.544	158.430	188.490	-91.968	143.327	196.567	183.961	138.325	32.145	-44.728	214.902	-63.207	143.865	123.112	240.075	0.0011123	0.00055123	0.00019217	541.01	6.2372e-06	6.5554e-06	1169.3	198.38	5.3786e-06	7.3399e-06	482.49	219.89	74.206	29	4.7366e-06	100.76	0.00020472	0.00014341	4.1082e-05	497.88	1.5826e-06	1.5729e-06	1071	180.89	1.5804e-06	1.5431e-06	383.04	200.79	67.979	26.64	1.6344e-06	92.545	122.847	-53.114	-28.236	-105.534	-15.510	24.929	-104.947	-101.939	-3.043	39.215	-101.715	-97.415	-98.064	-94.114	-16.874	-94.336	-8191	255	
1516.530	1	1	0	0	0.12075	0.08672	0.19316	0.098738	0.37471	0.035407	0.27888	0.27403	0.19614	0.17911	0.12566	0.20718	0.25303	0.12084	0.23575	0.12536	-0.35417	-1.6938	-1.0083	-1.1021	-1.625	-0.82917	-1.4604	-1.6083	-0.75	-1.7125	-1.0604	-1.0333	-1.7708	-0.95208	-1.1125	-1.725	10.173	120.135	131.144	-75.384	-52.064	81.937	199.490	130.822	-2.087	101.625	131.709	202.445	-37.184	54.077	-43.465	206.107	0.001091	0.00024391	3.9374e-05	542.98	1.2042e-06	3.9816e-06	1162	195.5	3.4986e-06	2.7011e-06	476.13	216.55	73.203	28.542	2.8756e-06	99.904	0.00019974	0.00014278	3.9721e-05	496.74	1.5615e-06	1.6061e-06	1064.5	179.31	1.5388e-06	1.5777e-06	378.66	197.93	66.918	26.174	1.6192e-06	91.618	124.045	-78.800	-62.254	-105.471	-61.445	11.240	-104.758	-102.116	22.879	-9.793	-101.788	-97.531	-98.963	-93.866	25.702	-94.092	-8191	255	
1516.627	1	1	0	0	0.092395	0.20668	0.11583	0.14041	0.12866	0.096516	0.25166	0.13524	0.24785	0.27258	0.146	0.20978	0.13296	0.28357	0.16843	0.42961	-0.35625	-1.6437	-1.2917	-0.81875	-1.725	-0.82708	-1.4104	-1.5396	-0.7125	-1.4708	-1.3771	-1.0292	-1.7437	-1.1229	-1.2229	-1.75	-27.366	35.319	210.345	-119.158	147.441	-2.546	199.151	195.527	231.786	-81.474	139.782	-53.079	-117.383	238.072	239.973	174.244	0.0010907	0.00057697	0.00019764	541.13	4.3268e-06	4.7666e-06	1157.2	195.31	4.6805e-06	8.7045e-06	491.78	217.38	73.675	28.72	6.2041e-06	100.65	0.00020287	0.00014664	3.9857e-05	493.26	1.5692e-06	1.565e-06	1062.6	178.71	1.5602e-06	1.5419e-06	379.09	198.63	67.359	26.372	1.6258e-06	92.303	121.595	-5.077	-23.039	-105.645	-37.060	46.859	-104.974	-102.027	-18.033	26.970	-102.832	-97.207	-98.616	-94.211	-2.332	-93.797	-8191	255	
1516.747	1	1	0	0	0.010931	0.2225	0.17482	0.43799	0.34014	0.073855	0.28293	0.27144	0.067457	0.061503	0.16705	0.23475	0.11106	0.12071	0.21434	0.26518	-0.54583	-1.4042	-1.2479	-0.81667	-1.7979	-0.975	-1.1854	-1.75	-0.72708	-1.5167	-1.3646	-0.79375	-1.5917	-1.1437	-1.0417	-1.8958	188.734	105.661	30.645	235.582	90.894	38.894	-70.757	8.665	-106.994	-105.842	216.982	-113.398	-4.473	221.396	184.007	186.808	0.0011348	0.00068122	0.00014761	540.27	8.4913e-06	4.0967e-06	1164.2	196.63	8.722e-06	3.8182e-06	490.14	218.44	73.924	28.763	2.7677e-06	100.91	0.00020286	0.00014644	3.9268e-05	494.62	1.593e-06	1.6216e-06	1062.4	179.61	1.632e-06	1.5129e-06	381.8	199.5	68.016	26.536	1.5771e-06	92.418	124.885	-5.531	-9.563	-105.519	-3.234	36.154	-104.919	-101.831	-41.955	24.219	-100.719	-97.333	-98.412	-94.102	-44.810	-94.066	-8191	255	
1516.843	1	1	0	0	0.092799	0.12153	0.1624	0.1806	0.20018	0.1715	0.2978	0.07191	0.18605	0.025645	0.087174	0.16407	0.035654	0.04928	0.34553	0.31104	-0.33333	-1.1958	-1.3333	-0.76042	-1.45	-1.2292	-1.1917	-1.8333	-1.0771	-1.4021	-1.6167	-0.92708	-1.6979	-1.2687	-0.84583	-1.7167	-8.274	-35.012	82.281	-76.342	207.124	211.696	175.696	-18.298	178.738	-86.422	-65.293	232.718	196.455	183.264	231.185	186.856	0.0011445	0.00059484	0.00017952	537.73	5.4112e-06	4.676e-06	1145.9	193.56	4.1101e-06	1.8874e-06	483.41	213.4	72.287	28.362	5.4447e-06	99.386	0.00020554	0.00014363	3.8208e-05	491.1	1.5734e-06	1.5799e-06	1054.2	177.43	1.5849e-06	1.5371e-06	375.39	196.2	66.462	26.071	1.5173e-06	91.041	125.882	-24.042	-36.344	-105.184	-36.196	30.329	-104.916	-101.951	-73.498	29.468	-101.101	-97.329	-98.243	-93.462	9.218	-93.833	-8191	255	
1516.915	1	1	0	0	0.12106	0.17833	0.1981	0.34501	0.13593	0.097544	0.26802	0.075975	0.18586	0.15464	0.10074	0.059913	0.21907	0.19446	0.18047	0.24903	-0.5375	-1.0625	-1.3479	-0.86042	-1.6083	-1.25	-0.91458	-1.9375	-0.87292	-1.1063	-1.6271	-0.87917	-1.4021	-1.2979	-0.75833	-2.0479	213.066	-16.993	143.814	-33.745	182.359	-24.748	186.001	24.438	66.198	57.521	121.171	181.762	98.023	214.763	-42.652	185.031	0.0011807	0.00054309	7.2554e-05	533.63	1.9553e-06	4.1328e-06	1153	193.92	6.4137e-06	5.9127e-06	483.7	215.19	72.799	28.452	2.0534e-06	99.578	0.00020371	0.00014346	3.801e-05	490.01	1.5425e-06	1.537e-06	1055.1	177.89	1.5629e-06	1.5858e-06	375.13	196.54	66.66	26.095	1.5447e-06	91.461	125.093	-20.306	2.338	-105.605	24.959	19.855	-105.190	-101.618	-30.257	23.746	-100.162	-97.274	-98.195	-93.758	-67.107	-93.889	-8191	255	
1517.011	1	1	0	0	0.24173	0.15306	0.1315	0.31489	0.053816	0.059554	0.10865	0.10215	0.17243	0.093136	0.10235	0.22213	0.12959	0.22496	0.068693	0.2621	-0.44167	-0.98125	-1.6708	-0.84167	-1.3937	-1.4625	-0.95833	-1.6187	-0.925	-0.97917	-1.7458	-1.0625	-1.4771	-1.4396	-0.7875	-1.5979	-75.316	49.224	232.076	189.762	46.596	83.633	-108.206	-94.931	13.951	-107.590	46.512	211.249	-102.236	148.606	173.990	229.080	0.0012105	0.0003799	0.00010091	537.77	6.637e-06	4.5783e-06	1157.3	193.8	5.8383e-06	2.9793e-06	487.15	216.31	73.554	28.751	6.1607e-06	99.891	0.00019308	0.00014228	3.8688e-05	491.75	1.573e-06	1.3903e-06	1059.6	178.21	1.5631e-06	1.474e-06	378.89	198.22	67.327	26.36	1.5508e-06	92.207	124.303	-51.699	-15.877	-105.404	-15.634	28.532	-104.774	-101.996	-36.183	17.202	-101.858	-97.275	-97.922	-93.993	-16.229	-93.909	-8191	255	
1517.130	1	1	0	0	0.01301	0.18349	0.20264	0.28304	0.16905	0.32972	0.25265	0.12768	0.16792	0.26267	0.17211	0.1497	0.23888	0.18741	0.10259	0.21375	-0.5875	-0.83333	-1.6417	-0.86875	-1.2042	-1.4958	-1.0208	-1.7208	-1.1583	-0.91667	-1.7646	-1.0708	-1.2479	-1.6667	-0.89167	-1.8125	-91.117	142.074	141.228	213.497	-91.669	75.055	153.528	153.526	-67.254	102.728	169.445	-80.137	210.878	106.374	-6.760	237.344	0.0011419	0.00082292	0.000117	537.66	6.142e-06	5.2107e-06	1155.4	194.59	5.3166e-06	6.2516e-06	490.32	213.91	72.561	28.356	3.5178e-06	99.584	0.00019781	0.00013666	3.8129e-05	489.68	1.5207e-06	1.4675e-06	1055.7	178.04	1.594e-06	1.4823e-06	372.13	196.4	66.467	26.111	1.5408e-06	91.217	117.570	-25.738	-23.704	-105.215	-27.625	46.015	-104.588	-101.625	-24.584	57.136	-100.690	-97.479	-98.854	-93.568	16.461	-93.857	-8191	255	
1517.226	1	1	0	0	0.21306	0.33097	0.13624	0.10219	0.21045	0.15137	0.14057	0.35841	0.19841	0.14843	0.0085834	0.21623	0.21105	0.11038	0.29296	0.27334	-0.90208	-0.75833	-1.5958	-0.99375	-1.1354	-1.65	-0.98542	-1.6208	-1.4813	-0.83125	-1.6396	-1.1167	-1.1417	-1.7083	-0.8625	-1.5521	13.491	219.955	165.282	184.261	188.679	88.889	144.399	208.861	7.925	-42.013	-116.806	136.929	-40.504	-108.130	111.723	-102.193	0.001205	0.00041034	0.00011433	537.57	7.9469e-06	6.5477e-06	1140.9	193.87	5.305e-06	4.3148e-06	484.47	214.93	73.437	28.42	6.0289e-06	99.456	0.00019212	0.00013555	3.8064e-05	489.48	1.5235e-06	1.4591e-06	1050.4	177.11	1.4703e-06	1.508e-06	373.98	196.02	66.903	26.104	1.5336e-06	91.114	126.081	3.842	-54.753	-105.616	-3.895	5.920	-104.945	-101.838	-17.916	39.977	-99.609	-97.475	-98.255	-93.890	12.485	-94.025	-8191	255	
1517.322	1	1	0	0	0.27129	0.076566	0.29899	0.16746	0.076177	0.28759	0.11394	0.22526	0.31738	0.093609	0.091203	0.12678	0.25017	0.026804	0.30641	0.13346	-1.0208	-0.73542	-1.4854	-1.25	-0.98333	-1.6063	-1.1187	-1.4875	-1.475	-0.78125	-1.6792	-1.1542	-1.0229	-1.8438	-0.82708	-1.4396	141.723	-9.037	-0.471	119.355	-42.964	59.883	132.694	154.287	168.356	163.529	158.482	179.595	-22.036	143.835	54.659	-39.482	0.0011206	0.00038241	0.00014502	536.35	6.476e-06	4.1091e-06	1145.4	194.32	3.3611e-06	5.7586e-06	498.69	215.92	73.132	28.814	6.3443e-06	100.33	0.00019051	0.00013248	3.7738e-05	491.01	1.4888e-06	1.4948e-06	1053.7	178.14	1.4942e-06	1.4926e-06	377.46	198.03	67.298	26.401	1.5257e-06	92.252	129.479	-20.838	-23.830	-104.909	16.353	85.724	-104.837	-101.545	-13.321	46.890	-101.231	-97.795	-98.297	-93.816	-5.316	-93.794	-8191	255	
1517.419	1	1	0	0	0.12867	0.12478	0.19695	0.25819	0.089523	0.15006	0.12228	0.21737	0.097998	0.41766	0.12957	0.33019	0.041604	0.24603	0.19016	0.17654	-1.1313	-0.78333	-1.5354	-1.1292	-0.80625	-1.5417	-1.0625	-1.2083	-1.4937	-0.72917	-1.5542	-1.3271	-1.0042	-1.6104	-0.9375	-1.3333	59.204	201.130	197.192	177.896	154.348	-20.713	207.174	153.203	229.991	96.507	125.815	208.852	72.772	-92.532	76.761	204.321	0.0011235	0.00042201	0.00017287	539.49	6.5556e-06	3.5034e-06	1156.5	195.67	5.6993e-06	3.1353e-06	476.97	216.07	72.391	28.754	7.5939e-06	99.898	0.0001978	0.00014086	3.919e-05	490.37	1.5358e-06	1.4793e-06	1057.6	179.17	1.5347e-06	1.4779e-06	374.37	197.88	66.844	26.354	1.5197e-06	91.488	124.223	-6.471	-6.514	-105.622	17.375	25.735	-104.843	-101.421	24.162	41.983	-100.879	-97.536	-98.724	-93.615	-13.177	-93.857	-8191	255	
1517.515	1	1	0	0	0.12545	0.10785	0.087288	0.23691	0.13446	0.078969	0.22926	0.27441	0.1611	0.22827	0.099177	0.14917	0.050304	0.075423	0.25473	0.20222	-0.975	-0.75833	-1.3813	-1.3146	-0.98125	-1.7271	-1.225	-0.96458	-1.7458	-0.70833	-1.4271	-1.6208	-1.0083	-1.8	-1.1292	-1.1292	165.592	177.989	-100.824	152.021	95.305	33.027	203.707	176.653	-100.524	-35.887	-53.250	137.518	15.185	204.970	103.487	-110.750	0.0010692	0.0004541	0.0001809	537.51	7.6278e-06	5.3039e-06	1144.5	193.57	2.6145e-06	5.6262e-06	477.91	215.07	71.836	28.392	2.666e-06	99.594	0.00020052	0.00014066	3.8462e-05	490.44	1.5076e-06	1.555e-06	1049.5	176.83	1.5363e-06	1.5279e-06	374.05	196.76	66.395	26.111	1.4997e-06	91.43	129.397	13.283	-38.920	-105.620	12.410	19.184	-105.058	-102.240	7.151	36.002	-101.445	-97.374	-98.328	-93.516	-20.358	-93.947	-8191	255	
1517.611	1	1	0	0	0.010815	0.11596	0.18061	0.20074	0.25501	0.24169	0.43694	0.28623	0.077775	0.11817	0.17971	0.18185	0.18468	0.11773	0.14404	0.30289	-1.2708	-0.825	-1.2417	-1.3333	-0.79375	-1.5812	-1.15	-0.92292	-1.5896	-0.8875	-1.3917	-1.6604	-0.77292	-1.45	-1.2687	-1.0833	88.590	45.899	-110.149	-76.977	227.299	141.553	225.220	193.114	218.595	143.403	-13.877	-104.402	186.606	231.939	-80.251	152.656	0.0011197	0.00038069	0.00016976	532.14	2.2266e-06	6.6141e-06	1144.8	193.08	4.3997e-06	5.8973e-06	474.75	216	72.653	29.039	2.9996e-06	99.684	0.0001979	0.00013767	3.7349e-05	488.15	1.5461e-06	1.5039e-06	1050	177.63	1.5445e-06	1.5461e-06	372.4	197.72	66.953	26.511	1.4812e-06	91.959	122.879	-30.771	-33.303	-105.383	0.843	5.170	-105.000	-101.559	-12.941	48.286	-101.252	-97.419	-98.421	-93.717	-18.246	-93.844	-8191	255	
1517.731	1	1	0	0	0.10449	0.075052	0.18996	0.11744	0.28085	0.17026	0.26566	0.13191	0.24025	0.012954	0.20843	0.34218	0.071453	0.076312	0.073325	0.24928	-1.2646	-0.8625	-1.0312	-1.675	-0.7875	-1.3833	-1.3417	-0.98542	-1.75	-1.0938	-1.0021	-1.7521	-0.95833	-1.4583	-1.1208	-0.82917	84.374	111.567	170.906	-15.637	28.171	-18.546	176.000	203.879	-54.267	47.867	-98.297	-92.248	-34.673	-88.375	-30.469	226.120	0.0011444	0.00043085	3.603e-05	540.66	4.7873e-06	5.9669e-06	1150.1	193.79	5.0345e-06	6.5543e-06	486.48	216.35	74.01	28.564	5.0698e-06	100.44	0.0002051	0.00013795	3.73e-05	491.67	1.5923e-06	1.5374e-06	1053.6	177.76	1.5559e-06	1.5437e-06	374.86	198.32	67.482	26.436	1.5133e-06	92.29	121.221	-45.876	-2.117	-105.389	-26.287	23.576	-105.094	-101.195	-23.216	39.450	-99.981	-97.584	-97.950	-93.417	-0.644	-93.859	-8191	255	
1517.828	1	1	0	0	0.080371	0.23253	0.044603	0.34563	0.067837	0.078631	0.26133	0.15758	0.071583	0.26162	0.30768	0.14315	0.082841	0.10728	0.15812	0.35856	-1.3667	-0.93333	-0.91042	-1.4854	-0.7	-1.2854	-1.6	-0.97917	-1.4875	-0.96875	-1.0438	-1.75	-0.8625	-1.5562	-1.4542	-1.0333	-17.936	104.466	-61.275	-98.603	-51.834	199.233	111.484	182.822	-93.087	141.096	192.317	105.763	195.002	146.648	-6.476	117.744	0.0011306	0.000404	0.00010025	536.38	3.0352e-06	4.8841e-06	1144.5	193.42	5.758e-06	4.5199e-06	489.52	218.01	73.45	28.846	7.1458e-06	100.22	0.00019826	0.00013828	3.8321e-05	490.33	1.5186e-06	1.432e-06	1054.1	177.69	1.5096e-06	1.4582e-06	375.59	198.77	67.191	26.484	1.4723e-06	92.134	124.783	4.962	-17.292	-105.382	-57.980	-18.627	-104.891	-101.705	-45.670	38.077	-100.514	-97.349	-98.848	-93.808	23.775	-93.706	-8191	255	
1517.924	1	1	0	0	0.38127	0.23921	0.10314	0.22001	0.090669	0.10518	0.24939	0.1624	0.048001	0.15157	0.15549	0.20517	0.16622	0.12948	0.15154	0.056861	-1.3188	-1.2604	-0.90625	-1.6958	-0.94583	-1.1792	-1.7667	-0.76458	-1.4958	-1.0896	-0.86667	-1.7938	-0.94583	-1.1417	-1.5667	-0.79792	40.353	96.073	-21.644	226.276	-26.747	-48.081	149.523	-68.304	59.742	93.987	223.029	178.165	23.208	141.899	-46.342	154.429	0.0011844	0.00032182	6.152e-05	541.75	1.8483e-06	6.1917e-06	1157.3	196.37	4.1595e-06	9.9921e-06	480.49	218.15	73.917	29.256	4.7039e-06	101.51	0.00020097	0.00013639	3.849e-05	493.98	1.4866e-06	1.4518e-06	1060.2	180	1.4873e-06	1.4813e-06	378.66	199.74	67.574	26.722	1.4872e-06	93.079	131.383	-28.550	54.798	-105.408	35.833	21.431	-104.873	-101.902	-33.879	56.995	-100.678	-97.648	-98.144	-94.435	-13.584	-93.732	-8191	255	
1518.020	1	1	0	0	0.13141	0.14404	0.09021	0.11258	0.13531	0.29467	0.18058	0.24542	0.22729	0.076297	0.16676	0.32857	0.19962	0.16848	0.12217	0.30572	-1.1688	-1.425	-0.7	-1.6875	-1.1021	-1.1875	-1.7437	-0.85417	-1.3396	-1.3167	-0.81458	-1.7417	-1.0604	-1.1292	-1.725	-1.0417	63.779	184.601	185.417	215.991	144.289	-81.647	173.299	-26.939	171.665	-28.926	-21.213	221.618	33.744	129.482	103.646	184.682	0.0011845	0.00065444	0.00012875	539.79	6.6022e-06	4.6377e-06	1165.9	197.99	5.1611e-06	5.1737e-06	478.34	219.99	74.015	29.279	2.5359e-06	101.63	0.00019982	0.00013662	3.834e-05	495.44	1.46e-06	1.4987e-06	1065.6	181.17	1.4778e-06	1.4543e-06	379.02	201.62	67.904	26.888	1.4877e-06	93.428	121.790	-16.545	-12.546	-105.625	-5.657	3.643	-104.837	-101.933	5.588	19.584	-101.420	-97.598	-98.805	-93.529	-22.368	-94.092	-8191	255	
1518.139	1	1	0	0	0.26268	0.23102	0.25002	0.1599	0.18899	0.071434	0.30483	0.17479	0.19423	0.32605	0.19696	0.15578	0.23489	0.077996	0.1015	0.44111	-1.0812	-1.5021	-0.69792	-1.8062	-1.0667	-0.99583	-1.8792	-1.1771	-1.4146	-1.5917	-0.64792	-1.8542	-1	-1.1646	-1.7188	-1.0771	99.710	141.657	53.025	220.634	75.320	-78.493	172.723	-63.778	150.821	152.602	20.069	229.588	138.754	53.774	-72.690	137.268	0.0013228	0.00072567	0.00016316	538.44	3.0669e-06	5.1061e-06	1152	196.08	6.5135e-06	7.0632e-06	474.52	217.26	73.002	29.133	5.2151e-06	101.07	0.00019622	0.00013158	3.76e-05	493.32	1.4506e-06	1.4692e-06	1057.1	179.21	1.5002e-06	1.4615e-06	374.11	198.99	67.035	26.626	1.4688e-06	92.618	124.889	-28.695	-18.151	-105.246	42.344	77.992	-104.759	-101.589	-8.267	69.580	-101.099	-97.705	-98.828	-93.767	-9.888	-93.993	-8191	255	
1518.212	1	1	0	0	0.15936	0.18153	0.071245	0.49649	0.33218	0.21435	0.18413	0.25942	0.25646	0.20476	0.089669	0.17425	0.069637	0.23377	0.12373	0.30776	-0.89792	-1.5729	-0.91875	-1.675	-1.1104	-0.92708	-1.9312	-1.0333	-1.2042	-1.7521	-0.83542	-1.7417	-1.3354	-0.98125	-1.7125	-1.225	103.361	-9.077	31.606	-40.165	94.549	-76.110	210.980	207.586	228.742	-90.928	143.028	-95.060	-20.015	214.268	-24.867	135.269	0.0010766	0.00045331	0.00018433	539.21	6.2083e-06	5.7305e-06	1145.4	194.83	5.7764e-06	7.6975e-06	483.69	216.68	72.689	28.997	4.4788e-06	100.6	0.00019129	0.00013111	3.7307e-05	492.72	1.4247e-06	1.4593e-06	1054.5	178.63	1.4665e-06	1.4736e-06	376.63	198.48	66.826	26.554	1.5125e-06	92.549	129.449	-52.560	-13.507	-104.993	10.940	16.185	-104.830	-101.618	-5.931	31.023	-99.593	-97.459	-98.667	-93.622	-27.041	-94.066	-8191	255	
1518.307	1	1	0	0	0.17653	0.043612	0.10211	0.32039	0.15151	0.19651	0.30892	0.14074	0.26334	0.144	0.16528	0.42748	0.046646	0.065689	0.29597	0.32725	-0.85625	-1.6354	-0.86667	-1.7062	-1.4292	-0.70208	-2.0021	-1.1625	-1.1313	-1.6521	-0.85833	-1.6313	-1.6313	-0.6875	-1.6688	-1.1896	181.837	171.080	18.249	-112.295	139.798	-115.585	206.656	207.331	16.828	169.668	155.589	174.624	6.577	-101.845	56.085	135.551	0.0012749	0.00041042	9.1532e-05	539.29	1.0605e-05	5.0755e-06	1155.4	193.22	6.192e-06	7.2545e-06	482	218.71	74.142	29.291	3.7622e-06	101.66	0.00019251	0.0001387	3.8534e-05	491.09	1.4809e-06	1.4801e-06	1056.5	177.85	1.5222e-06	1.4878e-06	373.26	199.63	67.785	26.744	1.4896e-06	93.221	125.426	-34.901	-36.462	-105.397	-20.375	49.941	-104.889	-101.796	-9.890	2.393	-101.135	-97.220	-98.497	-93.798	50.626	-93.988	-8191	255	
1518.427	1	1	0	0	0.29126	0.13696	0.136	0.19566	0.27415	0.16073	0.1383	0.15787	0.19492	0.1256	0.061293	0.33902	0.24855	0.033458	0.25039	0.33151	-0.57708	-1.7979	-0.71667	-1.2958	-1.55	-0.81458	-1.8125	-1.1708	-0.9375	-1.7083	-0.9875	-1.4896	-1.7542	-0.70417	-1.6083	-1.3021	122.405	-7.867	-43.427	63.311	86.370	191.227	-58.844	-90.820	173.460	43.058	-78.045	239.968	140.202	-67.946	145.309	144.615	0.0011141	0.00045359	0.00013487	543.41	4.1875e-06	4.9043e-06	1151.6	194.68	6.236e-06	7.004e-06	483.73	215.71	72.727	28.792	3.4366e-06	99.129	0.00019533	0.0001384	3.9304e-05	492.65	1.5028e-06	1.5138e-06	1055.4	178.2	1.5419e-06	1.4822e-06	374.33	197.72	66.406	26.282	1.5491e-06	91.142	121.284	-5.942	5.036	-105.519	-2.405	68.526	-105.000	-101.996	-21.150	13.124	-101.897	-97.765	-98.580	-93.860	30.473	-94.093	-8191	255	
1518.523	1	1	0	0	0.27499	0.19075	0.1797	0.11262	0.32349	0.12623	0.24307	0.16726	0.19821	0.11158	0.14561	0.20299	0.1976	0.12294	0.2051	0.29152	-0.59792	-1.6208	-0.93333	-1.2062	-1.7542	-0.81042	-1.6729	-1.4604	-0.6875	-1.7333	-0.98333	-1.2375	-1.6437	-0.93958	-1.5187	-1.6708	88.771	64.050	98.784	211.860	48.018	174.374	211.679	141.173	-77.619	-90.095	43.476	171.937	-37.047	86.979	-8.640	204.868	0.001145	0.00058926	0.00014043	530.91	4.4502e-06	6.5584e-06	1138.7	191.62	6.038e-06	3.0831e-06	463.85	214.76	72.076	28.676	4.9899e-06	99.21	0.00020195	0.00013674	3.9059e-05	485.53	1.5029e-06	1.5015e-06	1044.3	175.35	1.5595e-06	1.504e-06	367.17	196.58	66.234	26.187	1.5103e-06	91.332	120.639	-64.131	-29.951	-105.352	-33.978	29.442	-104.744	-101.814	10.459	52.572	-101.994	-97.390	-98.855	-94.029	31.718	-94.167	-8191	255	
1518.620	1	1	0	0	0.18685	0.0598	0.21112	0.23534	0.19513	0.50978	0.21731	0.082013	0.17554	0.2014	0.047055	0.11528	0.097392	0.35397	0.26542	0.31178	-0.47292	-1.5667	-1.1271	-1.0104	-1.5771	-0.79375	-1.6083	-1.5604	-0.91667	-1.8875	-1.0521	-1.125	-1.6479	-1.0333	-1.4125	-1.7687	172.657	-51.902	40.917	133.934	238.573	142.153	89.684	-72.866	80.761	-92.026	-70.683	215.364	199.860	125.907	-85.499	146.060	0.0010879	0.00049322	0.00013859	535.51	5.4949e-06	5.6226e-06	1141.8	192.49	5.1308e-06	8.6984e-06	480.74	214.89	72.643	28.811	6.9918e-06	100.33	0.00019755	0.00013162	3.8116e-05	488.96	1.5359e-06	1.5534e-06	1047.2	175.94	1.5468e-06	1.4951e-06	369.01	196.72	66.414	26.328	1.4731e-06	92.169	125.963	-5.688	3.857	-105.482	-14.574	52.956	-104.610	-101.627	-2.385	69.337	-101.320	-97.537	-98.354	-94.162	2.334	-94.085	-8191	255	
1518.716	1	1	0	0	0.16541	0.30288	0.076822	0.18106	0.17505	0.23644	0.096495	0.16071	0.20794	0.076577	0.22681	0.24034	0.26759	0.11697	0.14467	0.37337	-0.36458	-1.55	-1.2021	-0.77708	-1.6875	-0.76667	-1.4438	-1.7188	-0.60208	-1.5146	-1.2375	-1.0333	-1.65	-1.1187	-1.3438	-1.8458	239.318	234.821	47.987	-48.990	37.477	179.574	-106.997	130.834	109.971	-28.678	43.765	232.609	-89.935	221.001	193.592	214.638	0.0011291	0.00055182	9.9439e-05	530.9	5.1531e-06	5.2662e-06	1143.6	192.15	5.0032e-06	7.6993e-06	478.5	213.8	72.044	28.486	6.7626e-06	99.428	0.00020064	0.00013451	3.6938e-05	487.66	1.5206e-06	1.4967e-06	1050.2	176.14	1.5781e-06	1.4625e-06	371.02	196.7	66.347	26.187	1.5203e-06	91.596	119.148	-43.103	0.098	-105.226	16.038	8.301	-104.871	-101.392	0.887	47.728	-101.215	-97.257	-98.333	-93.767	-10.433	-93.980	-8191	255	
1518.812	1	1	0	0	0.17945	0.22847	0.31468	0.19938	0.32793	0.17375	0.18176	0.39482	0.032527	0.17081	0.24169	0.19307	0.19799	0.25498	0.1891	0.3958	-0.21875	-1.4979	-1.0271	-0.90417	-1.6333	-0.89792	-1.2458	-1.8937	-0.70625	-1.4417	-1.3021	-0.975	-1.6708	-0.98333	-0.85	-2.0167	119.439	-34.457	-87.881	-73.987	122.049	-56.213	215.386	216.193	142.868	-6.656	167.536	111.264	226.696	209.520	60.729	154.215	0.0011655	0.0004821	7.5494e-05	530.58	4.6537e-06	5.0473e-06	1137.6	190.09	5.0708e-06	2.9016e-06	471.31	214.86	71.882	28.372	5.2341e-06	98.738	0.00019958	0.00013469	3.6554e-05	485.61	1.5151e-06	1.4902e-06	1044.5	174.68	1.545e-06	1.438e-06	366.06	196.02	65.835	26.063	1.5005e-06	91.089	121.618	3.915	-4.903	-104.997	-16.877	27.098	-104.912	-101.505	27.339	45.522	-101.946	-97.519	-98.422	-94.059	26.461	-93.995	-8191	255	
1518.908	1	1	0	0	0.038648	0.1177	0.062944	0.14812	0.096733	0.4541	0.41572	0.05135	0.19309	0.22329	0.079436	0.38669	0.22527	0.25312	0.29996	0.10428	-0.39583	-1.3937	-1.5125	-0.89375	-1.5708	-1.0396	-1.0688	-1.7333	-0.8	-1.2812	-1.6042	-0.9125	-1.7271	-1.3188	-0.9625	-1.8417	-30.786	84.401	64.002	161.416	76.204	146.678	143.731	-38.395	53.408	-59.323	93.534	156.700	190.622	52.570	228.440	99.581	0.0012311	0.00052505	0.00012724	528.79	7.2025e-06	6.5827e-06	1143.8	191.18	4.3854e-06	3.8187e-06	479.08	215.16	72.251	28.689	4.1461e-06	100.44	0.00019637	0.00013647	3.7815e-05	485.88	1.4771e-06	1.5067e-06	1046.9	175.78	1.4712e-06	1.4305e-06	371.85	196.49	66.485	26.336	1.6076e-06	91.97	126.425	-41.679	-34.040	-105.307	-22.566	32.013	-104.766	-101.732	26.859	54.494	-101.880	-97.467	-98.679	-93.454	-14.694	-94.301	-8191	255	
1519.004	1	1	0	0	0.22743	0.18942	0.23502	0.16099	0.1648	0.32347	0.25838	0.11551	0.10776	0.11514	0.067743	0.11384	0.067548	0.077508	0.18816	0.32417	-0.57083	-1.1167	-1.5625	-0.97292	-1.5229	-1.3396	-0.975	-1.7417	-0.96458	-1.1271	-1.4375	-0.93958	-1.4583	-1.5604	-0.77708	-1.7	-24.564	156.097	68.619	87.995	103.631	97.376	208.228	195.458	57.411	90.069	233.444	231.521	-0.762	125.293	-74.725	186.168	0.0012807	0.00078595	0.00013462	537.3	6.4433e-06	5.936e-06	1147.3	194.33	6.7769e-06	6.442e-06	476.32	216.56	73.125	28.618	3.4789e-06	100.51	0.00019349	0.00012993	3.679e-05	488.96	1.4808e-06	1.4181e-06	1051.5	177.3	1.5391e-06	1.4357e-06	371.15	197.64	67.034	26.463	1.541e-06	92.083	125.416	-42.576	-55.161	-105.270	-14.074	24.837	-104.604	-101.892	23.208	21.233	-102.440	-97.687	-98.290	-93.974	1.198	-93.851	-8191	255	
1519.100	1	1	0	0	0.18258	0.10964	0.019068	0.10129	0.084486	0.19249	0.29121	0.18728	0.20661	0.23755	0.027168	0.32832	0.088612	0.18397	0.10151	0.13089	-0.62708	-1.0187	-1.6812	-0.71875	-1.225	-1.5646	-0.83958	-1.8271	-1.2125	-1.225	-1.775	-1.0667	-1.4667	-1.6292	-0.79583	-1.9375	-6.924	20.171	-89.666	-62.344	-23.581	-68.586	179.395	185.957	-24.839	41.803	230.180	156.183	-73.251	223.270	-33.805	227.941	0.001143	0.00043229	0.00012725	529.73	5.4378e-06	8.8134e-06	1143.3	192.43	6.6017e-06	5.9285e-06	469.21	215.11	72.311	28.895	3.3737e-06	99.725	0.00019169	0.00013707	3.7178e-05	486.54	1.426e-06	1.4304e-06	1046.2	176.11	1.4873e-06	1.5001e-06	369.71	196.61	66.408	26.403	1.5155e-06	91.51	123.756	-24.688	-42.057	-105.533	11.421	35.468	-104.949	-101.789	-8.585	19.768	-100.362	-97.349	-98.581	-93.738	-10.629	-94.326	-8191	255	
1519.219	1	1	0	0	0.1579	0.18355	0.13332	0.10041	0.24408	0.10273	0.13609	0.14311	0.24959	0.14019	0.16537	0.25785	0.22153	0.11526	0.22167	0.14982	-0.7375	-1.0729	-1.6958	-0.72292	-1.1688	-1.4875	-1.0583	-1.6271	-1.1354	-1.05	-1.6479	-0.99792	-1.325	-1.4604	-0.8125	-1.6729	47.172	-53.991	28.766	223.672	19.343	73.882	222.163	-59.991	146.708	168.277	74.285	195.985	207.754	-101.436	155.569	197.278	0.0012116	0.00046356	8.8354e-05	530.47	4.9364e-06	3.3757e-06	1132.8	193.37	3.0729e-06	7.567e-06	473.78	215.44	72.309	28.877	6.7571e-06	99.89	0.00019306	0.00013267	3.7017e-05	487.05	1.4058e-06	1.4478e-06	1044.7	176.5	1.4914e-06	1.5305e-06	371.04	196.34	66.727	26.447	1.5215e-06	91.719	123.795	-38.526	-3.163	-105.469	30.408	3.531	-104.633	-101.630	46.975	34.918	-100.870	-97.252	-98.015	-94.086	19.547	-93.852	-8191	255	
1519.315	1	1	0	0	0.16411	0.075571	0.26338	0.2282	0.19607	0.092683	0.019387	0.23473	0.13701	0.29662	0.27363	0.2063	0.22342	0.12471	0.064033	0.26194	-0.79375	-0.73958	-1.8604	-1.0917	-1.0042	-1.6896	-0.87708	-1.5938	-1.3646	-0.91042	-1.7104	-1.1146	-1.3312	-1.6854	-0.83542	-1.5521	212.640	2.199	17.410	240.406	-65.423	-48.688	-110.032	125.245	-41.610	-24.198	150.909	232.159	91.652	78.784	-101.183	206.848	0.0011085	0.00060047	0.0001837	536.78	6.1832e-06	2.5196e-06	1143.6	195.38	3.4552e-06	5.9894e-06	480.21	215.13	72.754	28.965	2.7763e-06	100.93	0.00019447	0.00014151	3.679e-05	489.68	1.5076e-06	1.4731e-06	1048.5	178.17	1.5082e-06	1.51e-06	373.46	197.56	67.135	26.642	1.4585e-06	92.672	125.183	27.241	-22.592	-105.451	5.436	32.909	-105.019	-101.561	-47.358	39.361	-101.285	-97.417	-98.195	-93.796	28.569	-93.807	-8191	255	
1519.411	1	1	0	0	0.067848	0.39531	0.17639	0.21292	0.043387	0.29845	0.213	0.24221	0.062425	0.24007	0.29015	0.22449	0.015702	0.30026	0.18681	0.25675	-0.93542	-0.76458	-1.6896	-1.1292	-0.98333	-1.7125	-0.8875	-1.3896	-1.5167	-0.80208	-1.65	-1.3875	-0.9625	-1.6063	-0.71875	-1.2875	-80.430	-20.415	-80.458	-104.101	107.755	150.019	164.826	190.368	-62.621	9.069	-32.759	-85.770	-79.735	-94.529	217.570	121.046	0.0011438	0.00036625	0.00017308	533.93	5.7874e-06	5.9952e-06	1144	194.35	3.4325e-06	6.1671e-06	491.81	213.32	72.596	28.584	3.8442e-06	99.22	0.00019151	0.00013893	3.6836e-05	489.48	1.5404e-06	1.469e-06	1047	177.72	1.4724e-06	1.4564e-06	373.18	195.53	66.421	26.321	1.4803e-06	91.223	124.776	2.378	-58.124	-105.242	-8.525	33.690	-104.644	-101.969	-16.069	65.477	-100.022	-97.400	-98.094	-94.015	-13.757	-93.861	-8191	255	
1519.508	1	1	0	0	0.32259	0.15329	0.2373	0.15448	0.087133	0.15042	0.46592	0.097511	0.25383	0.10381	0.2599	0.18781	0.30337	0.32261	0.29975	0.13758	-1.3104	-0.64167	-1.5833	-1.2729	-0.70625	-1.6292	-0.79375	-1.4333	-1.6583	-0.7625	-1.5979	-1.3813	-0.93542	-1.725	-0.92083	-1.2917	143.778	117.153	202.850	78.580	-82.338	230.029	191.132	153.762	63.484	-41.857	182.206	179.177	23.609	-110.380	-81.389	106.529	0.0010195	0.00024681	0.00020154	537.51	2.8944e-06	4.1737e-06	1140	192.3	8.3322e-06	6.6948e-06	478.02	213.76	73.384	28.74	5.9993e-06	99.93	0.00018935	0.00013346	3.6762e-05	490.01	1.4672e-06	1.3953e-06	1044.2	176.63	1.4219e-06	1.4744e-06	369.46	195.99	67.161	26.384	1.4512e-06	91.739	120.063	12.944	-6.995	-105.060	-30.602	74.814	-104.845	-101.874	-5.667	54.011	-100.605	-97.310	-98.100	-93.462	17.708	-93.695	-8191	255	
1519.604	1	1	0	0	0.275	0.31816	0.11131	0.2546	0.11514	0.19172	0.26927	0.15605	0.19077	0.48316	0.25904	0.1383	0.022834	0.20951	0.11301	0.27787	-1.0875	-0.65208	-1.3687	-1.575	-0.82917	-1.5312	-1.1479	-1.1083	-1.5729	-0.9625	-1.6042	-1.7125	-0.73542	-1.5187	-1.0875	-1.0896	-13.965	235.644	-95.106	220.119	-44.583	33.475	-84.250	135.114	162.735	22.114	209.964	183.313	-22.053	119.356	1.852	222.731	0.0011154	0.00070276	0.00020983	538.46	7.7439e-06	5.9483e-06	1136.6	193.86	6.713e-06	5.9491e-06	487.42	214.25	72.854	29.157	4.4374e-06	100.26	0.00019535	0.00013622	3.6955e-05	491.44	1.4729e-06	1.4526e-06	1044.6	177.6	1.4828e-06	1.4287e-06	374.53	196.51	67.011	26.654	1.4534e-06	92.345	125.524	-5.022	-33.935	-105.088	-3.303	23.653	-104.936	-101.510	-13.896	60.374	-101.601	-97.454	-97.933	-93.638	1.342	-93.959	-8191	255	
1519.700	1	1	0	0	0.090942	0.25729	0.12978	0.089088	0.067419	0.18597	0.13377	0.18193	0.085743	0.26932	0.041702	0.18194	0.092501	0.042337	0.22454	0.10113	-1.3646	-0.79792	-1.2521	-1.6063	-0.76042	-1.5312	-1.5979	-1.0417	-1.7188	-0.74583	-1.2917	-1.9438	-0.79792	-1.6125	-1.2583	-0.97083	70.668	85.848	-74.610	-112.852	-20.829	-3.399	153.542	-44.314	133.895	193.112	189.568	217.056	151.461	-85.530	114.837	126.733	0.0011244	0.00054289	0.00021341	532.57	7.0277e-06	4.403e-06	1143.1	193.2	2.4953e-06	2.2998e-06	481.4	213.78	71.848	28.823	3.0804e-06	99.82	0.00019556	0.00013451	3.5566e-05	489.84	1.4831e-06	1.4087e-06	1047.1	177.23	1.4853e-06	1.4568e-06	371.92	196.1	66.406	26.391	1.4659e-06	91.38	122.991	-49.574	-34.759	-105.258	-29.338	24.595	-105.068	-101.820	37.837	38.773	-101.496	-97.399	-97.970	-93.823	-10.042	-93.558	-8191	255	
1519.821	1	1	0	0	0.2222	0.15298	0.15467	0.16215	0.086108	0.21857	0.082568	0.30935	0.0585	0.060002	0.18733	0.077171	0.13552	0.32174	0.15851	0.23296	-1.3354	-0.85625	-1.1854	-1.7104	-0.6625	-1.4708	-1.2854	-0.87083	-1.6125	-0.96875	-1.1229	-1.7229	-0.77083	-1.5146	-1.3708	-1.1292	55.459	107.870	5.928	179.923	-34.609	118.111	177.250	181.399	87.406	231.024	207.562	49.474	175.236	-80.203	58.819	218.309	0.0012388	0.00026362	0.00019247	531.28	2.432e-06	6.8418e-06	1138.6	189.76	7.5738e-06	3.6698e-06	473.22	212.03	71.748	28.798	5.2631e-06	99.113	0.00019391	0.00013435	3.5935e-05	488.05	1.4485e-06	1.3902e-06	1041.4	175.62	1.5131e-06	1.366e-06	367.96	194.71	66.188	26.3	1.5197e-06	91.163	127.636	-16.080	-42.133	-105.324	23.334	54.761	-104.723	-101.413	-33.768	21.578	-101.525	-97.205	-98.323	-93.579	-14.059	-93.700	-8191	255	
1519.917	1	1	0	0	0.018665	0.05016	0.15789	0.087903	0.31712	0.060064	0.23337	0.24317	0.1917	0.17611	0.17358	0.32375	0.1502	0.12565	0.11635	0.39345	-1.3125	-0.92917	-1.2292	-1.6208	-0.87083	-1.3563	-1.6	-1	-1.5083	-0.97708	-1.2208	-1.9667	-0.86458	-1.5042	-1.4271	-1.0125	-73.817	14.808	-104.054	231.945	56.778	-37.677	170.460	179.534	165.703	27.318	24.025	207.735	232.256	12.530	-51.427	216.456	0.0011306	0.00039176	5.3262e-05	532.75	5.692e-06	3.1853e-06	1142.9	193.38	6.1082e-06	2.1169e-06	472.56	215.14	72.853	29.102	3.4426e-06	100.28	0.00019363	0.00013262	3.8012e-05	487.97	1.4145e-06	1.481e-06	1045.2	177.47	1.4526e-06	1.4469e-06	369.5	196.87	66.898	26.587	1.4905e-06	92.073	124.323	-16.789	-1.099	-104.897	27.077	51.182	-104.266	-101.386	13.116	120.129	-101.528	-97.314	-98.514	-93.629	-36.530	-93.996	-8191	255	
1520.011	1	1	0	0	0.27548	0.23624	0.38367	0.10648	0.23459	0.18063	0.36515	0.1293	0.24008	0.33113	0.05671	0.27401	0.23681	0.032435	0.09046	0.49048	-1.0812	-1.2375	-1.0229	-1.7313	-0.97708	-1.3417	-1.7708	-0.96875	-1.6521	-1.3229	-0.98125	-1.9854	-1.1708	-1.2083	-1.6292	-1.1187	-58.766	142.812	29.130	195.075	115.939	27.090	162.015	186.713	221.906	98.854	-70.044	122.127	218.246	200.892	200.363	144.892	0.0011292	0.00057826	0.00025286	535.13	5.7487e-06	1.3246e-06	1139.8	192.14	5.7449e-06	5.6314e-06	479.9	215.78	72.854	29.009	4.81e-06	99.822	0.00019248	0.00013727	3.8631e-05	490.91	1.4342e-06	1.487e-06	1046.1	177.55	1.4244e-06	1.457e-06	370.89	197.34	66.796	26.522	1.4826e-06	91.626	125.764	-48.360	-39.279	-104.728	-15.610	-11.190	-104.625	-101.655	-46.676	46.583	-100.274	-97.711	-98.571	-93.650	-18.864	-93.742	-8191	255	
1520.085	1	1	0	0	0.043119	0.12994	0.18278	0.15334	0.19541	0.098839	0.21518	0.18543	0.11887	0.16906	0.10829	0.30737	0.40553	0.26085	0.39205	0.45455	-1.2625	-1.2792	-0.77292	-1.7938	-1.0333	-1.1333	-1.8396	-0.69375	-1.3354	-1.3229	-0.87292	-1.7062	-0.95417	-1.0042	-1.6688	-0.99792	122.979	230.809	30.646	199.967	-51.787	152.068	-78.604	146.667	179.026	215.126	87.746	187.899	149.341	-118.826	-56.814	214.724	0.001112	0.00054241	0.00012105	530.57	4.3159e-06	3.3236e-06	1138.7	192	6.3171e-06	4.9354e-06	486.57	213.46	72.045	28.58	5.3028e-06	98.931	0.00019257	0.0001357	3.8203e-05	487.34	1.4405e-06	1.465e-06	1043.6	176.11	1.454e-06	1.4823e-06	372.55	195.61	66.454	26.183	1.4916e-06	90.883	119.570	-42.212	21.454	-105.243	-14.929	14.926	-104.556	-101.775	37.531	62.874	-99.546	-97.331	-97.960	-93.209	-7.270	-93.829	-8191	255	
1520.203	1	1	0	0	0.13617	0.21039	0.23569	0.090052	0.2465	0.33235	0.44841	0.071312	0.15024	0.075756	0.14074	0.24715	0.097573	0.20486	0.12767	0.20821	-1.0854	-1.5083	-0.78542	-1.3937	-0.9875	-1.1083	-1.7125	-1.0708	-1.2958	-1.5458	-0.73333	-1.4771	-1.1771	-1.0063	-1.6271	-1.0438	-57.877	147.972	157.294	-48.060	123.322	150.015	206.757	103.803	-105.774	96.733	-3.409	192.511	153.204	189.796	134.031	138.978	0.0012395	0.00064796	0.00013525	536.24	7.0083e-06	6.3035e-06	1134.6	192.57	2.9335e-06	7.4915e-06	474.54	214.27	72.421	28.845	1.125e-06	99.89	0.00019442	0.00012966	3.7603e-05	488.83	1.4585e-06	1.4638e-06	1044	176.98	1.4187e-06	1.4407e-06	370.06	196.62	66.753	26.448	1.4407e-06	91.674	124.917	-50.755	-39.103	-105.173	-4.416	18.474	-104.411	-101.822	-15.961	17.636	-101.821	-97.550	-98.222	-93.501	105.403	-93.814	-8191	255	
1520.300	1	1	0	0	0.17933	0.01529	0.39426	0.39296	0.094497	0.15397	0.25344	0.223	0.097347	0.19371	0.21616	0.36772	0.28769	0.17492	0.16397	0.57457	-1	-1.4375	-0.79167	-1.6083	-1.3062	-0.98333	-1.7896	-0.79792	-1.1292	-1.55	-0.80833	-1.6375	-1.3021	-0.91042	-1.8271	-1.1229	-86.388	80.307	192.513	-107.371	179.921	175.279	151.100	-90.067	184.310	48.734	-100.462	228.737	143.152	-75.622	-33.941	208.960	0.001121	0.00054742	0.00012684	537.92	5.0459e-06	6.0899e-06	1145.9	193.54	5.2502e-06	4.5301e-06	479	215.58	72.553	28.731	1.952e-06	99.428	0.00019674	0.00012803	3.7406e-05	490.88	1.4641e-06	1.4352e-06	1049.1	177.79	1.5475e-06	1.3919e-06	371.58	197.13	66.857	26.413	1.4434e-06	91.589	124.848	-71.290	-41.885	-104.797	-58.106	23.699	-104.655	-101.352	-31.358	9.678	-101.780	-96.899	-98.159	-93.647	46.454	-93.822	-8191	255	
1520.396	1	1	0	0	0.22924	0.083983	0.065639	0.1634	0.17573	0.1423	0.047049	0.21226	0.193	0.16915	0.25973	0.12537	0.10066	0.27312	0.25402	0.2188	-0.67292	-1.7458	-0.78333	-1.6375	-1.3604	-0.74583	-1.9521	-1.2	-0.91042	-1.6542	-0.86667	-1.5854	-1.4167	-0.79375	-1.6146	-1.1771	55.109	-31.791	-24.981	4.060	-7.586	100.203	-29.348	141.889	86.365	170.065	119.116	92.081	225.459	207.306	0.351	169.328	0.0010651	0.00052366	6.4844e-05	535.57	6.7831e-06	2.0224e-06	1133.3	190.08	6.1711e-06	7.5056e-06	474.04	213.2	71.732	28.138	3.8701e-06	97.93	0.00019123	0.00012958	3.6065e-05	486.74	1.4619e-06	1.4416e-06	1039.7	174.58	1.5438e-06	1.4333e-06	365.23	194.27	65.54	25.871	1.4269e-06	89.944	127.941	-19.479	28.328	-104.995	-5.177	-3.692	-104.631	-101.493	-3.440	22.305	-101.505	-97.079	-98.539	-93.320	-21.493	-93.878	-8191	255	
1520.492	1	1	0	0	0.11037	0.25788	0.14536	0.13324	0.21814	0.22914	0.21817	0.31007	0.28725	0.23969	0.26952	0.259	0.41845	0.24576	0.11283	0.42442	-0.74167	-1.7708	-0.72917	-1.4062	-1.4917	-0.5625	-1.7083	-1.3208	-0.93125	-1.6	-0.69583	-1.3229	-1.6708	-0.80833	-1.5042	-1.6604	-44.042	228.333	-67.335	178.578	-101.428	-24.204	101.951	70.851	37.625	-39.567	-57.844	208.374	8.621	125.975	-106.396	-106.984	0.0011112	0.00039884	0.00017358	531.32	6.9084e-06	3.1779e-06	1134.6	189.11	1.075e-06	4.4397e-06	478.08	211.41	70.101	28.299	9.0271e-06	97.715	0.00019723	0.00013096	3.5263e-05	484.66	1.4142e-06	1.4096e-06	1037.6	173.46	1.4854e-06	1.4083e-06	367.89	193.6	65.191	25.82	1.4798e-06	90.019	125.242	-0.530	-10.252	-104.992	18.537	25.350	-104.588	-101.499	13.156	14.424	-100.721	-97.384	-98.314	-93.173	11.334	-93.840	-8191	255	
1520.612	1	1	0	0	0.44103	0.22084	0.12125	0.12013	0.0093071	0.11115	0.26768	0.23659	0.24176	0.10068	0.11674	0.34473	0.16397	0.086283	0.15794	0.33442	-0.49167	-1.7958	-0.86458	-1.0938	-1.4646	-0.81042	-1.7229	-1.3687	-0.82292	-1.6812	-1.0958	-1.1896	-1.6396	-0.80208	-1.5292	-1.6542	161.396	-19.238	93.225	124.092	161.842	43.684	150.156	205.044	3.096	166.092	188.898	149.157	-86.973	220.912	111.784	182.698	0.0011723	0.00081766	6.166e-05	530.68	4.2133e-06	5.5537e-06	1134.1	189.62	5.3456e-06	2.8644e-06	476.91	213.11	71.841	28.502	5.0562e-06	99.219	0.00019543	0.00013305	3.6283e-05	485.38	1.4747e-06	1.4541e-06	1041	173.99	1.4771e-06	1.4385e-06	369.13	195.15	65.902	26.084	1.45e-06	90.969	122.975	-32.557	23.859	-105.188	-29.768	29.434	-104.535	-101.633	12.263	53.847	-101.628	-96.821	-98.472	-93.550	-33.478	-93.780	-8191	255	
1520.684	1	1	0	0	0.25765	0.19518	0.042598	0.1754	0.098785	0.061899	0.30757	0.22308	0.075166	0.12949	0.08796	0.078132	0.29281	0.042767	0.017083	0.21988	-0.37708	-1.575	-1.0917	-1.2229	-1.7125	-0.80208	-1.3896	-1.4458	-0.74167	-1.5292	-1.1917	-1.1063	-1.8	-0.90833	-1.2271	-1.7062	-39.372	155.426	-26.853	202.532	216.050	34.895	169.666	-114.792	222.372	214.121	189.024	161.385	162.993	105.803	51.840	219.449	0.0011737	0.00041597	0.00016025	531.81	4.871e-06	3.073e-06	1131.3	190.03	2.1169e-06	3.5319e-06	473.46	211.82	70.755	28.053	2.6632e-06	97.09	0.00019842	0.00012385	3.6608e-05	485.24	1.4192e-06	1.3659e-06	1039.4	173.89	1.4992e-06	1.4189e-06	367.31	193.58	65	25.678	1.4721e-06	89.255	123.843	-38.887	-29.498	-104.925	-45.211	38.190	-104.585	-101.311	-46.230	48.442	-100.584	-96.936	-98.108	-93.556	-58.056	-93.719	-8191	255	
1520.780	1	1	0	0	0.12334	0.26629	0.26655	0.14678	0.21683	0.21415	0.24562	0.42412	0.063389	0.069147	0.35082	0.31791	0.20981	0.098152	0.11087	0.32136	-0.36042	-1.6021	-1.1562	-0.96875	-1.6688	-0.91875	-1.3979	-1.6458	-0.65833	-1.6667	-1.4562	-1.0521	-1.8188	-0.8625	-1.1521	-1.8792	26.176	96.666	97.445	181.950	105.466	-23.469	239.478	210.233	-85.287	-102.361	13.027	239.646	-53.839	-73.444	192.728	185.709	0.0010331	0.0003367	0.00012371	523.79	6.366e-06	9.3598e-06	1130.5	189.24	4.3811e-06	6.6655e-06	478.08	211.09	70.975	27.896	3.5209e-06	97.994	0.00018942	0.00012201	3.6591e-05	480.46	1.4507e-06	1.3822e-06	1034.3	173.26	1.4352e-06	1.3823e-06	363.3	193.02	65.289	25.683	1.5125e-06	89.72	123.312	-0.879	-12.092	-105.080	10.420	28.765	-104.715	-101.948	-8.220	63.093	-101.173	-97.321	-98.625	-93.679	-6.042	-93.725	-8191	255	
1520.901	1	1	0	0	0.20163	0.094762	0.20412	0.19595	0.11934	0.26025	0.23808	0.33838	0.31093	0.13147	0.079731	0.22149	0.23481	0.21915	0.083297	0.28461	-0.33958	-1.4521	-1.4062	-0.98333	-1.6625	-1.1146	-1.4021	-1.8125	-0.83958	-1.5771	-1.5438	-0.86042	-1.7	-1.1437	-1.1667	-1.9312	-90.423	18.783	79.342	178.063	53.282	167.300	153.385	153.256	105.203	39.617	-54.760	167.943	-111.114	150.939	66.311	177.430	0.0011157	0.00036374	0.00022481	529.11	2.5499e-06	8.1239e-06	1129.4	188.43	6.3132e-06	7.7071e-06	478.85	212.17	71.392	28.187	4.9628e-06	98.406	0.00019109	0.00013349	3.6524e-05	482.51	1.3519e-06	1.4212e-06	1036.1	173.44	1.4529e-06	1.411e-06	366.57	193.95	65.651	25.848	1.4922e-06	90.571	125.123	-22.657	-11.937	-105.056	47.704	35.587	-104.595	-101.698	-5.150	54.892	-101.028	-97.295	-98.272	-93.541	-1.981	-93.726	-8191	255	
1520.997	1	1	0	0	0.14287	0.10154	0.27378	0.15978	0.26764	0.16617	0.085289	0.092702	0.036343	0.044788	0.05159	0.30499	0.11176	0.2391	0.11088	0.24276	-0.45625	-1.2917	-1.6417	-0.95208	-1.5583	-1.1542	-1.1125	-1.7792	-0.99167	-1.3125	-1.4083	-0.88542	-1.5479	-1.1187	-0.90625	-2.0417	230.004	223.590	94.316	156.448	-93.277	129.065	160.960	185.604	22.066	35.444	45.061	189.535	113.395	112.229	181.394	118.625	0.0010349	0.00058491	0.0002378	532.75	6.3983e-06	7.3548e-06	1130.7	189.71	3.1484e-06	5.9693e-06	464.33	212.31	70.765	28.008	4.9086e-06	97.404	0.00018767	0.0001364	3.7052e-05	485.85	1.4244e-06	1.4496e-06	1035.4	173.9	1.5182e-06	1.4308e-06	360.66	193.42	65.193	25.621	1.4797e-06	89.371	119.687	-31.873	-35.078	-104.897	10.026	21.677	-104.515	-101.324	-15.514	30.062	-100.465	-96.961	-98.312	-93.828	41.083	-93.836	-8191	255	
1521.093	1	1	0	0	0.075829	0.10697	0.076028	0.17585	0.045664	0.11582	0.033117	0.13987	0.083317	0.11085	0.25311	0.31773	0.44874	0.31653	0.13739	0.20469	-0.5125	-1.1125	-1.6417	-0.65625	-1.6625	-1.3188	-1.1313	-1.7521	-1.0854	-1.1167	-1.6542	-1.0417	-1.6104	-1.3417	-0.82917	-1.775	158.730	6.010	52.614	43.503	192.241	5.506	-104.681	-98.052	115.539	141.817	-72.172	-66.194	109.994	46.526	197.446	155.008	0.001104	0.0005473	7.4766e-05	530.96	6.4381e-06	6.8952e-06	1127.8	189.57	4.7356e-06	7.0843e-06	459.8	211.16	70.608	27.766	5.9625e-06	97.47	0.00018918	0.00013634	3.6673e-05	483.58	1.4417e-06	1.4255e-06	1033.6	172.71	1.5007e-06	1.4153e-06	361.14	193.05	64.612	25.458	1.5509e-06	89.224	123.895	-60.809	-47.966	-105.008	14.183	37.134	-104.373	-101.585	6.567	63.923	-100.846	-97.111	-98.046	-93.665	-29.464	-93.538	-8191	255	
1521.212	1	1	0	0	0.18316	0.16495	0.098193	0.31003	0.25237	0.060698	0.24531	0.10221	0.13359	0.18906	0.2237	0.31969	0.27373	0.20447	0.066582	0.21712	-0.62292	-1.0771	-1.6562	-0.75	-1.5688	-1.6583	-0.9625	-1.85	-1.0042	-1.1792	-1.8229	-1.1708	-1.4438	-1.4083	-0.81042	-1.8479	-59.380	232.718	-115.985	197.022	-16.791	135.702	151.274	238.686	-96.563	173.586	159.002	226.579	-79.176	186.987	4.891	94.264	0.0011114	0.00057569	0.0002118	524.2	2.1636e-06	4.0166e-06	1129.8	189.15	4.8911e-06	1.0373e-05	466.93	211.6	71.208	27.86	7.1978e-06	98.389	0.00019068	0.00013312	3.6054e-05	481.07	1.4551e-06	1.4589e-06	1034	172.84	1.5155e-06	1.4911e-06	364.61	193.46	65.316	25.684	1.4885e-06	90.242	122.864	-17.774	-2.779	-105.517	48.466	51.282	-104.788	-101.689	-8.484	48.171	-100.655	-97.216	-98.400	-93.553	15.617	-93.674	-8191	255	
1521.308	1	1	0	0	0.24244	0.2487	0.28203	0.28196	0.021894	0.17992	0.27986	0.39733	0.36869	0.282	0.23864	0.14375	0.18299	0.12219	0.072643	0.13166	-0.86458	-0.95833	-1.6958	-0.87917	-1.3083	-1.8188	-1.0187	-1.6125	-1.0354	-1.0333	-1.7625	-1.0583	-1.2833	-1.8	-0.82083	-1.7979	84.596	32.525	48.714	140.900	108.818	235.445	179.796	-81.498	44.890	104.491	-51.851	-95.299	165.278	18.845	-28.636	193.850	0.001029	0.00038382	0.00019739	530.87	3.8678e-06	7.4521e-06	1134.4	189.65	9.088e-06	7.1237e-06	480.48	212.76	71.661	28.066	3.6963e-06	97.721	0.00019469	0.00013091	3.7158e-05	484.83	1.446e-06	1.5337e-06	1037.2	173.29	1.5128e-06	1.49e-06	366.69	193.71	65.357	25.73	1.447e-06	89.778	124.008	-30.525	-33.031	-105.187	3.769	4.265	-104.626	-101.701	19.861	36.416	-100.754	-97.257	-98.277	-93.765	-2.338	-93.639	-8191	255	
1521.380	1	1	0	0	0.14144	0.15821	0.02099	0.081379	0.2196	0.28202	0.25143	0.037795	0.073003	0.074954	0.30732	0.19428	0.1786	0.37961	0.12989	0.20699	-0.83125	-0.79375	-1.7729	-0.8875	-1.0396	-1.7313	-0.97292	-1.4854	-1.4688	-0.8875	-1.85	-1.2667	-1.2646	-1.6729	-0.85	-1.6354	-49.415	94.819	22.157	190.189	-32.133	194.115	201.070	80.951	45.666	205.372	-74.658	81.930	128.858	170.205	103.244	231.867	0.0011139	0.00055434	8.725e-05	528.75	4.5069e-06	4.7618e-06	1125.3	184.92	3.8544e-06	6.0027e-06	462.38	208.33	69.132	27.533	6.0428e-06	96.953	0.00019086	0.00013809	3.6749e-05	479.97	1.4326e-06	1.4469e-06	1026.7	170.51	1.5299e-06	1.4812e-06	357.21	190.82	63.797	25.261	1.4614e-06	88.968	127.251	-39.485	-3.567	-105.471	42.106	42.147	-104.406	-101.020	40.776	66.327	-100.824	-97.337	-97.680	-93.297	13.850	-94.022	-8191	255	
1521.501	1	1	0	0	0.12028	0.19687	0.051249	0.047195	0.10761	0.23965	0.15114	0.30078	0.19663	0.15487	0.30555	0.21694	0.18962	0.029182	0.38456	0.36502	-1.05	-0.7875	-1.5958	-1.1313	-1.0667	-1.7792	-1.0438	-1.4292	-1.5583	-0.78333	-1.4667	-1.2792	-1.0812	-1.8167	-0.92083	-1.4146	-10.680	98.021	-9.924	59.664	24.823	-17.273	133.415	163.794	189.912	145.548	-41.712	231.519	239.298	113.885	157.226	153.598	0.0011929	0.00067501	0.00013754	521.47	3.8599e-06	5.4678e-06	1112.3	184.51	4.5088e-06	8.7997e-06	458.36	208.1	70.208	27.493	3.4391e-06	97.283	0.00018911	0.00014038	3.641e-05	476.29	1.5211e-06	1.4451e-06	1023.5	169.82	1.5306e-06	1.4859e-06	359.13	190.48	64.058	25.236	1.5359e-06	89.147	123.663	-57.782	-51.252	-104.991	-6.960	12.795	-104.792	-101.399	20.987	38.724	-100.414	-97.088	-97.856	-93.630	-8.306	-93.645	-8191	255	
1521.597	1	1	0	0	0.15868	0.17359	0.34824	0.2555	0.091529	0.16549	0.34287	0.12706	0.11775	0.30613	0.14746	0.12627	0.11471	0.27209	0.23643	0.17492	-1.2458	-0.58542	-1.4792	-1.3438	-0.94167	-1.7812	-1.2833	-1.2938	-1.5312	-0.63542	-1.6583	-1.4104	-0.96458	-1.8	-0.91667	-1.4521	-62.119	118.064	-86.517	-101.778	120.710	104.212	155.891	234.753	-80.414	115.945	12.048	212.212	63.689	239.924	-94.506	168.273	0.001189	0.00060382	0.0001698	523.82	4.8361e-06	3.0752e-06	1121.7	186.01	3.5258e-06	4.5164e-06	469.71	209.23	69.768	27.977	6.6551e-06	97.721	0.00019303	0.00013677	3.765e-05	477.04	1.5701e-06	1.452e-06	1026.2	170.57	1.5157e-06	1.5653e-06	363.36	191.86	64.348	25.523	1.5666e-06	89.573	122.478	-16.576	-43.070	-104.956	-45.375	52.342	-104.433	-101.669	21.885	54.658	-101.270	-97.166	-98.115	-93.544	24.981	-93.375	-8191	255	
1521.693	1	1	0	0	0.14994	0.092364	0.20448	0.20564	0.12808	0.089871	0.26207	0.30348	0.15658	0.078154	0.29349	0.085622	0.22544	0.068725	0.12578	0.16692	-1.2958	-0.53958	-1.6896	-1.3792	-0.82292	-1.5479	-1.2542	-1.1458	-1.6604	-0.7875	-1.4292	-1.6417	-0.72708	-1.7646	-1.2354	-1.2104	143.589	52.492	-6.331	189.168	115.025	212.782	131.158	158.882	133.270	8.135	139.039	-101.742	164.099	78.435	-51.810	7.095	0.0011501	0.00037206	0.00017828	522.05	5.1185e-06	4.8419e-06	1113.4	186.69	4.1974e-06	2.8356e-06	460.04	206.65	69.237	27.304	2.472e-06	96.041	0.00019627	0.00013908	3.8921e-05	476.61	1.4672e-06	1.5251e-06	1024	169.87	1.4823e-06	1.4826e-06	360.94	189.28	63.523	25.071	1.4791e-06	88.306	123.977	-31.332	-18.615	-104.680	20.344	20.090	-104.912	-101.288	7.647	-1.680	-99.644	-97.026	-97.768	-93.436	28.752	-93.577	-8191	255	
1521.789	1	1	0	0	0.076481	0.079487	0.056853	0.096354	0.07022	0.305	0.29895	0.26034	0.16136	0.099147	0.13193	0.29088	0.16442	0.085989	0.19792	0.20748	-1.0229	-0.8125	-1.325	-1.6521	-0.9875	-1.75	-1.4062	-1.0187	-1.7687	-0.96042	-1.4667	-1.7021	-0.68125	-1.5333	-1.3146	-1.0396	52.070	12.541	-57.871	129.131	39.559	-58.728	180.148	169.723	89.514	188.007	111.258	-112.941	201.112	-49.124	122.813	-86.516	0.00099805	0.00068253	0.00011671	513.44	3.5182e-06	3.4264e-06	1107.2	184.79	7.0246e-06	6.8941e-06	464.8	208.43	69.713	27.5	5.4166e-06	96.786	0.00018714	0.00014178	3.859e-05	471.54	1.4649e-06	1.485e-06	1018.9	169.41	1.4707e-06	1.552e-06	360.17	190.13	63.817	25.281	1.5259e-06	88.916	128.164	-21.214	-34.581	-104.797	15.564	11.414	-104.435	-101.061	-22.588	60.103	-100.325	-97.227	-98.096	-93.520	-10.433	-93.380	-8191	255	
1521.910	1	1	0	0	0.088139	0.10697	0.40346	0.12433	0.16444	0.11063	0.26174	0.044136	0.058008	0.21814	0.080603	0.13793	0.15571	0.27279	0.041774	0.12063	-1.0854	-1.1083	-1.3083	-1.6313	-1.0333	-1.5187	-1.4875	-1.1604	-1.625	-0.97292	-1.1417	-1.7188	-0.80625	-1.45	-1.4229	-0.94167	-38.185	203.148	225.670	141.867	-21.374	90.413	94.355	223.713	139.736	111.125	42.002	164.547	212.310	144.936	112.264	-88.095	0.0011214	0.00067613	2.2626e-05	519.88	6.2209e-06	4.9365e-06	1114.7	185.51	3.758e-06	2.7799e-06	454.67	209.62	69.93	27.801	8.1459e-06	97.643	0.00018982	0.00014449	3.814e-05	474.93	1.5365e-06	1.4739e-06	1021.2	170.14	1.5239e-06	1.4656e-06	361.08	191.23	64.186	25.581	1.5035e-06	89.575	123.630	-56.012	-45.185	-105.292	15.770	49.408	-104.919	-101.177	7.062	47.931	-101.431	-97.049	-98.126	-93.285	12.101	-93.231	-8191	255	
1521.981	1	1	0	0	0.099904	0.21158	0.15336	0.15857	0.090637	0.19044	0.12988	0.24022	0.17865	0.10556	0.058608	0.20377	0.19695	0.2006	0.14084	0.18847	-1.2687	-1.0938	-0.775	-1.8667	-0.75417	-1.4583	-1.5688	-0.72708	-1.6396	-1.0917	-0.95625	-1.8667	-0.8875	-1.4396	-1.6958	-1.0042	80.144	-23.346	185.672	-57.537	215.976	6.092	184.479	146.147	-67.132	23.410	6.043	-110.659	187.009	229.273	-87.881	210.895	0.0011059	0.00039735	0.00013411	516.19	5.0817e-06	5.1051e-06	1119.1	186.31	2.0219e-06	4.619e-06	470.53	208.65	69.988	27.456	2.3926e-06	95.719	0.00019342	0.00013852	3.9005e-05	474.01	1.4316e-06	1.469e-06	1024.6	170.81	1.5166e-06	1.4513e-06	363.06	190.05	64.044	25.277	1.4775e-06	88.211	128.404	-49.917	-29.498	-104.927	-26.076	44.085	-104.686	-101.964	-9.356	54.109	-101.128	-97.243	-98.328	-93.800	-24.770	-93.810	-8191	255	
1522.077	1	1	0	0	0.27436	0.089789	0.16464	0.21844	0.14929	0.12801	0.23116	0.1658	0.025466	0.17051	0.074672	0.090543	0.14321	0.11744	0.088599	0.28333	-1.1354	-1.1271	-0.98958	-1.6521	-0.85208	-1.1729	-1.6354	-0.79167	-1.8813	-1.2021	-0.87708	-1.8312	-0.81875	-1.3062	-1.6021	-1.0187	114.216	-76.865	31.278	159.199	184.755	-45.119	162.020	121.926	-44.980	-52.902	227.714	58.278	-104.778	230.954	-29.560	219.178	0.0011927	0.00040635	0.00022972	519.48	7.2957e-06	5.2903e-06	1106.6	186.55	9.2356e-06	5.5186e-06	469.36	206.29	69.856	27.4	5.2127e-06	96.042	0.0001916	0.00013124	3.7289e-05	474.6	1.5484e-06	1.4477e-06	1020.2	170.4	1.3928e-06	1.4973e-06	360.3	189.39	63.735	25.174	1.4601e-06	88.297	121.479	-25.966	-55.449	-104.725	4.974	33.096	-104.744	-101.508	-8.558	-6.629	-101.383	-97.361	-98.196	-93.489	20.882	-93.582	-8191	255	
1522.174	1	1	0	0	0.17586	0.22399	0.075767	0.14863	0.22833	0.12771	0.13628	0.22703	0.13824	0.085139	0.34639	0.035922	0.11664	0.20145	0.23147	0.12282	-0.97917	-1.375	-0.88333	-1.5146	-1.0771	-1.0333	-1.7812	-0.87292	-1.5562	-1.5396	-0.85833	-2.0083	-1.1146	-1.0479	-1.5938	-1.0333	115.334	157.174	5.265	157.962	236.873	-3.554	220.911	240.023	183.958	85.086	117.243	-111.661	113.507	48.269	199.157	226.668	0.0011276	0.00049988	0.00014933	516.52	3.0769e-06	5.7004e-06	1111.9	186.26	4.8787e-06	4.3708e-06	468.46	207.88	69.685	27.792	2.4354e-06	97.145	0.00019162	0.00013457	3.7528e-05	475.8	1.5147e-06	1.4533e-06	1022.9	170.53	1.5154e-06	1.4492e-06	361.7	190.63	64.155	25.527	1.4751e-06	89.31	123.713	-37.479	20.585	-105.338	-86.015	29.244	-104.947	-101.383	-47.687	-43.434	-101.637	-97.529	-98.606	-93.548	0.121	-94.088	-8191	255	
1522.292	1	1	0	0	0.13779	0.12084	0.14259	0.34539	0.10582	0.1617	0.23699	0.11844	0.23956	0.0474	0.25176	0.36306	0.0938	0.14479	0.3125	0.10998	-1.1146	-1.4042	-0.76875	-1.7104	-1.0042	-0.73333	-1.7646	-1.1	-1.3146	-1.5625	-0.80417	-1.6375	-1.2875	-0.93125	-1.8854	-1.1792	85.957	184.475	-62.931	-106.705	58.354	108.926	-97.253	-36.660	-79.767	-78.415	226.764	233.459	218.122	22.662	238.310	129.140	0.0010703	0.00061984	0.00012816	524.55	5.719e-06	4.5487e-06	1118.9	187.14	5.9074e-06	3.0108e-06	460.09	207.7	69.78	27.496	4.7254e-06	95.908	0.00019262	0.0001399	3.8324e-05	478.49	1.4887e-06	1.4896e-06	1023	170.73	1.4781e-06	1.4723e-06	360.4	190.42	63.925	25.297	1.4306e-06	88.163	122.798	-2.693	-18.467	-105.358	-17.757	31.478	-104.933	-101.736	5.376	37.657	-100.555	-97.649	-98.591	-93.796	-11.681	-93.996	-8191	255	
1522.389	1	1	0	0	0.19602	0.050259	0.055597	0.18221	0.33821	0.10776	0.34872	0.14241	0.20491	0.10384	0.19807	0.4824	0.10568	0.16353	0.13322	0.18567	-0.78125	-1.55	-0.83542	-1.5854	-1.2583	-0.975	-1.7729	-0.86042	-1.1708	-1.8042	-0.7125	-1.6396	-1.4146	-0.90417	-1.6354	-1.3083	191.419	-65.307	-90.683	-67.697	49.185	210.102	199.107	70.789	-33.030	134.901	92.806	206.009	15.871	198.277	-65.944	178.156	0.0011976	0.00056239	0.00014057	519.8	7.054e-06	3.4572e-06	1107.6	184.38	7.8224e-06	6.1585e-06	462.5	207.16	68.798	27.347	6.8422e-06	96.286	0.00019423	0.0001381	3.6787e-05	475.01	1.4845e-06	1.4496e-06	1015.1	168.91	1.4818e-06	1.3979e-06	359.12	189.17	63.318	25.116	1.4287e-06	88.211	123.074	-4.496	-54.272	-105.358	13.737	0.836	-105.097	-101.585	8.405	27.879	-101.211	-97.458	-98.917	-93.811	-27.724	-94.175	-8191	255	
1522.485	1	1	0	0	0.38244	0.091998	0.28669	0.21852	0.15139	0.031082	0.31582	0.36635	0.3038	0.3051	0.10867	0.19321	0.25545	0.25199	0.12133	0.22116	-0.73958	-1.5854	-0.79375	-1.4833	-1.3354	-0.8625	-1.8021	-1.2687	-0.94167	-1.6167	-0.91042	-1.6542	-1.3312	-0.86667	-1.6938	-1.3208	129.601	-6.591	184.352	-51.146	-3.158	185.179	157.661	97.271	189.327	50.691	81.929	110.794	145.836	-8.934	-34.136	187.544	0.0012529	0.00063794	0.00017959	520.94	5.7681e-06	5.7337e-06	1116.3	187.14	2.3898e-06	3.9569e-06	458.19	206.65	69.291	27.494	3.5919e-06	96.318	0.00019272	0.00012395	3.6616e-05	475.8	1.4374e-06	1.4371e-06	1020.2	170.19	1.4835e-06	1.4004e-06	356.7	189.68	63.837	25.386	1.4586e-06	88.874	121.726	-27.991	9.099	-105.442	18.462	56.965	-104.880	-101.905	26.370	47.585	-102.147	-97.365	-98.469	-93.986	-9.943	-94.078	-8191	255	
1522.581	1	1	0	0	0.16453	0.3376	0.27062	0.27544	0.032433	0.046226	0.06862	0.19952	0.15513	0.19968	0.085611	0.2623	0.26913	0.038456	0.13535	0.33761	-0.38542	-1.7604	-0.6875	-1.2354	-1.4646	-0.71042	-1.6271	-1.2104	-0.90833	-1.5833	-0.91875	-1.3167	-1.6146	-0.81667	-1.5417	-1.3125	47.442	183.937	29.025	-104.276	-4.226	72.086	215.452	208.175	-45.167	-118.476	-101.650	238.358	-48.362	75.261	64.154	190.535	0.0011616	0.00046666	7.4883e-05	522.85	4.5666e-06	3.8488e-06	1115.4	185.3	5.018e-06	4.8019e-06	455.41	209.36	69.423	27.622	6.8739e-06	96.767	0.0001898	0.00013446	3.829e-05	475.94	1.4413e-06	1.5252e-06	1023.2	169.98	1.5298e-06	1.4365e-06	358.4	191.1	63.783	25.451	1.5426e-06	88.757	119.765	3.580	-41.474	-105.155	5.777	32.160	-104.829	-101.967	82.274	48.802	-102.590	-97.422	-98.529	-93.547	-26.781	-94.149	-8191	255	
1522.677	1	1	0	0	0.06064	0.070865	0.054002	0.092085	0.15848	0.31007	0.12965	0.37164	0.2871	0.23431	0.12114	0.37065	0.28868	0.30567	0.40577	0.18429	-0.55417	-1.6125	-0.84375	-1.0646	-1.5583	-0.81667	-1.5792	-1.3	-0.90417	-1.5667	-1.2667	-1.0958	-1.6167	-0.66667	-1.3708	-1.7	-29.917	70.983	-78.832	23.008	224.088	216.288	146.305	235.172	29.042	112.778	-56.856	180.615	149.269	-116.452	171.078	196.339	0.0010888	0.00045686	0.00016591	521.22	2.6134e-06	8.1387e-06	1107.2	185.41	6.7053e-06	4.5942e-06	467.99	205.76	68.913	27.355	4.6743e-06	95.311	0.00019203	0.0001298	3.8905e-05	476.53	1.4315e-06	1.4931e-06	1015.5	169.39	1.5014e-06	1.485e-06	359.08	188.61	63.491	25.067	1.4626e-06	87.762	119.313	4.851	0.008	-105.372	-27.061	42.561	-104.545	-102.053	8.418	81.777	-101.239	-97.462	-97.846	-93.322	17.385	-93.781	-8191	255	
#DATA ENDS
