BOXY.EXE: ISS Imagent and Oximeter Data Acquisition Program Version 0.80
Ascii Record File

#ACQ INFORMATION
2  Detector Channels 
16  External MUX Channels 
1  Auxiliary Channels 
5000  Waveform (CCF) Frequency (Hz)
1  Waveforms Skipped 
30  Waveforms Averaged 
1  Cycles Averaged 
16  Acquisitions per Waveform 
10.0806  Updata Rate (Hz) 

#FILE INFORMATION
TRUE -- External MUX Channel results are PARSED.
FALSE -- AC DC and Phase are NOT grouped.
TRUE -- Companion Program Settings File CREATED.
FALSE -- AC data not excluded
FALSE -- DC data not excluded
FALSE -- Phase data not excluded
FALSE -- Auxillary Chn. data not excluded
Tab delimiters

#CALIBRATION STATE
TRUE -- Waveform Calibration Values APPLIED.


#AUX CALIBRATION VALUES
Val Type	aux-1	

Term	1.0000e+00	
Factor	0.0000e+00	


#WF CALIBRATION VALUES
A = Detector Channel
Val Type	A-AC1	A-AC2	A-AC3	A-AC4	A-AC5	A-AC6	A-AC7	A-AC8	A-AC9	A-AC10	A-AC11	A-AC12	A-AC13	A-AC14	A-AC15	A-AC16	A-DC1	A-DC2	A-DC3	A-DC4	A-DC5	A-DC6	A-DC7	A-DC8	A-DC9	A-DC10	A-DC11	A-DC12	A-DC13	A-DC14	A-DC15	A-DC16	A-Ph1	A-Ph2	A-Ph3	A-Ph4	A-Ph5	A-Ph6	A-Ph7	A-Ph8	A-Ph9	A-Ph10	A-Ph11	A-Ph12	A-Ph13	A-Ph14	A-Ph15	A-Ph16	

Term	0.00000e+00	0.00000e+00	0.00000e+00	0.00000e+00	0.00000e+00	0.00000e+00	0.00000e+00	0.00000e+00	0.00000e+00	0.00000e+00	0.00000e+00	0.00000e+00	0.00000e+00	0.00000e+00	0.00000e+00	0.00000e+00	0.00000e+00	0.00000e+00	0.00000e+00	0.00000e+00	0.00000e+00	0.00000e+00	0.00000e+00	0.00000e+00	0.00000e+00	0.00000e+00	0.00000e+00	0.00000e+00	0.00000e+00	0.00000e+00	0.00000e+00	0.00000e+00	0.00000e+00	0.00000e+00	0.00000e+00	0.00000e+00	0.00000e+00	0.00000e+00	0.00000e+00	0.00000e+00	0.00000e+00	0.00000e+00	0.00000e+00	0.00000e+00	0.00000e+00	0.00000e+00	0.00000e+00	0.00000e+00	
Factor	1.00000e+00	1.00000e+00	1.00000e+00	1.00000e+00	1.00000e+00	1.00000e+00	1.00000e+00	1.00000e+00	1.00000e+00	1.00000e+00	1.00000e+00	1.00000e+00	1.00000e+00	1.00000e+00	1.00000e+00	1.00000e+00	1.00000e+00	1.00000e+00	1.00000e+00	1.00000e+00	1.00000e+00	1.00000e+00	1.00000e+00	1.00000e+00	1.00000e+00	1.00000e+00	1.00000e+00	1.00000e+00	1.00000e+00	1.00000e+00	1.00000e+00	1.00000e+00	X	X	X	X	X	X	X	X	X	X	X	X	X	X	X	X	

B = Detector Channel
Val Type	B-AC1	B-AC2	B-AC3	B-AC4	B-AC5	B-AC6	B-AC7	B-AC8	B-AC9	B-AC10	B-AC11	B-AC12	B-AC13	B-AC14	B-AC15	B-AC16	B-DC1	B-DC2	B-DC3	B-DC4	B-DC5	B-DC6	B-DC7	B-DC8	B-DC9	B-DC10	B-DC11	B-DC12	B-DC13	B-DC14	B-DC15	B-DC16	B-Ph1	B-Ph2	B-Ph3	B-Ph4	B-Ph5	B-Ph6	B-Ph7	B-Ph8	B-Ph9	B-Ph10	B-Ph11	B-Ph12	B-Ph13	B-Ph14	B-Ph15	B-Ph16	

Term	0.00000e+00	0.00000e+00	0.00000e+00	0.00000e+00	0.00000e+00	0.00000e+00	0.00000e+00	0.00000e+00	0.00000e+00	0.00000e+00	0.00000e+00	0.00000e+00	0.00000e+00	0.00000e+00	0.00000e+00	0.00000e+00	0.00000e+00	0.00000e+00	0.00000e+00	0.00000e+00	0.00000e+00	0.00000e+00	0.00000e+00	0.00000e+00	0.00000e+00	0.00000e+00	0.00000e+00	0.00000e+00	0.00000e+00	0.00000e+00	0.00000e+00	0.00000e+00	-1.66846e+02	-1.34632e+02	-1.19075e+02	-1.82224e+02	-8.02325e+01	-6.67277e+01	-1.58170e+02	-1.62015e+02	-8.35788e+01	-7.02546e+01	-1.73109e+02	-1.72004e+02	-1.81804e+02	-1.76196e+02	-7.46956e+01	-1.49552e+02	
Factor	2.54741e-05	1.34827e-04	4.03306e-05	1.71615e-01	1.32729e-06	1.51022e-06	1.60986e-01	4.50902e-02	1.27164e-06	1.50857e-06	1.00538e-01	2.87464e-02	2.61389e-02	8.32530e-03	1.41169e-06	1.19755e-02	1.21615e-05	1.93802e-05	5.39616e-06	9.17612e-02	1.95703e-07	2.18764e-07	8.09249e-02	2.41910e-02	1.92481e-07	2.16306e-07	5.21031e-02	1.49289e-02	1.41790e-02	4.50723e-03	2.02605e-07	6.27252e-03	X	X	X	X	X	X	X	X	X	X	X	X	X	X	X	X	



#DISTANCE SETTINGS
A = Detector Channel
A-1	A-2	A-3	A-4	A-5	A-6	A-7	A-8	A-9	A-10	A-11	A-12	A-13	A-14	A-15	A-16	

2.5000e+00	3.0000e+00	2.5000e+00	3.0000e+00	2.0000e+00	3.0000e+00	1.5000e+00	3.0000e+00	3.0000e+00	3.0000e+00	3.0000e+00	3.0000e+00	3.0000e+00	3.0000e+00	1.5000e+00	3.0000e+00	

B = Detector Channel
B-1	B-2	B-3	B-4	B-5	B-6	B-7	B-8	B-9	B-10	B-11	B-12	B-13	B-14	B-15	B-16	

1.0000e+01	1.0000e+01	1.0000e+01	1.4400e+00	1.0000e+01	1.0000e+01	1.5100e+00	1.9400e+00	1.0000e+01	1.0000e+01	1.9900e+00	2.4900e+00	2.4100e+00	2.9000e+00	1.0000e+01	2.9800e+00	




#DATA BEGINS
time	group	step	mark	flag	A-AC1	A-AC2	A-AC3	A-AC4	A-AC5	A-AC6	A-AC7	A-AC8	A-AC9	A-AC10	A-AC11	A-AC12	A-AC13	A-AC14	A-AC15	A-AC16	A-DC1	A-DC2	A-DC3	A-DC4	A-DC5	A-DC6	A-DC7	A-DC8	A-DC9	A-DC10	A-DC11	A-DC12	A-DC13	A-DC14	A-DC15	A-DC16	A-Ph1	A-Ph2	A-Ph3	A-Ph4	A-Ph5	A-Ph6	A-Ph7	A-Ph8	A-Ph9	A-Ph10	A-Ph11	A-Ph12	A-Ph13	A-Ph14	A-Ph15	A-Ph16	B-AC1	B-AC2	B-AC3	B-AC4	B-AC5	B-AC6	B-AC7	B-AC8	B-AC9	B-AC10	B-AC11	B-AC12	B-AC13	B-AC14	B-AC15	B-AC16	B-DC1	B-DC2	B-DC3	B-DC4	B-DC5	B-DC6	B-DC7	B-DC8	B-DC9	B-DC10	B-DC11	B-DC12	B-DC13	B-DC14	B-DC15	B-DC16	B-Ph1	B-Ph2	B-Ph3	B-Ph4	B-Ph5	B-Ph6	B-Ph7	B-Ph8	B-Ph9	B-Ph10	B-Ph11	B-Ph12	B-Ph13	B-Ph14	B-Ph15	B-Ph16	aux-1	digaux	

21829.795	1	1	0	256	0.33584	0.15222	0.12643	0.31055	0.091441	0.1519	0.11964	0.30029	0.12946	0.16108	0.05207	0.14821	0.092605	0.081767	0.11942	0.23196	-1.0604	-2.0708	-2.0271	-1.4104	-2.3375	-1.7646	-1.9521	-2.4667	-1.5063	-2.1562	-2.2292	-1.4229	-2.1	-1.6521	-1.8021	-2.6417	-78.427	-11.539	133.459	-95.583	-113.576	12.578	-130.393	192.709	-52.947	144.635	-28.660	119.216	145.961	-87.803	213.672	-131.987	0.00097388	0.0014974	0.00047573	958.02	2.3067e-05	5.8427e-06	1412.5	255.08	2.7758e-05	3.0431e-05	502.23	166.41	68.379	25.398	1.7535e-05	84.934	0.028654	0.045023	0.012706	1016.7	0.00045093	0.00051158	1383.8	270.1	0.00044392	0.00049947	543.09	176.43	90.27	31.95	0.00047221	86.614	151.262	182.470	-50.772	-124.116	95.983	93.488	-124.041	-120.522	212.791	-36.461	-121.715	-117.687	-117.443	-113.025	149.887	-113.825	-8191	255	
21829.914	1	1	0	0	0.18259	0.14039	0.15926	0.18191	0.25697	0.32914	0.27504	0.37704	0.078096	0.17734	0.22056	0.24776	0.14163	0.29726	0.12467	0.14889	-1.1146	-1.95	-2.1521	-1.7333	-2.275	-1.85	-1.7	-2.475	-1.4062	-1.8271	-2.2646	-1.6771	-2.4521	-1.9479	-1.5125	-2.45	119.391	-26.306	168.419	40.346	85.054	200.044	107.528	124.021	218.363	-79.064	134.383	209.271	216.622	145.610	213.036	132.621	0.00030319	0.00039141	0.00037497	946.1	3.085e-05	4.2241e-05	1411.6	254.69	3.1409e-05	1.4016e-05	498.34	166.78	68.812	25.572	4.6094e-05	84.642	0.028198	0.044705	0.012672	1004.3	0.00044433	0.00050544	1377.8	269.42	0.00044179	0.00049605	542.44	175.92	90.308	31.97	0.00046785	86.141	164.059	-72.056	12.059	-124.132	-77.875	-96.224	-124.292	-120.857	-72.456	36.877	-121.092	-117.595	-117.405	-112.621	131.562	-114.338	-8191	255	
21830.010	1	1	0	0	0.24027	0.21486	0.18645	0.031487	0.11916	0.16236	0.26541	0.17806	0.1103	0.24376	0.059152	0.18463	0.14267	0.051239	0.10241	0.22936	-1.2396	-1.9042	-2.4396	-1.6271	-2.2896	-1.9375	-1.8375	-2.3396	-1.7	-1.8771	-2.3792	-1.4417	-2.1625	-1.8604	-1.3875	-2.4042	-62.552	41.602	5.146	-108.384	172.497	124.780	180.640	137.668	-21.973	-119.365	116.306	153.017	-61.117	207.947	141.691	-134.116	0.00090945	0.0022971	0.00080021	954.02	1.0024e-05	1.3989e-05	1424.1	255.88	1.6923e-05	1.227e-05	504.09	169.26	70.145	25.564	1.0072e-05	84.945	0.028354	0.044421	0.012509	1011	0.00044567	0.00050605	1388	270.12	0.00044388	0.00049715	544.17	177.26	91.203	31.994	0.00046431	86.633	128.814	-108.852	37.722	-124.063	-93.332	-73.231	-123.957	-120.540	-40.565	104.574	-121.610	-117.636	-117.371	-113.020	-19.253	-114.056	-8191	255	
21830.107	1	1	0	0	0.082154	0.2004	0.1975	0.21834	0.25973	0.044383	0.04224	0.18759	0.11987	0.22163	0.1744	0.1361	0.12556	0.13453	0.062384	0.12062	-1.3583	-1.6	-2.35	-1.6521	-2.0812	-2.0354	-1.65	-2.2208	-1.9562	-1.6333	-2.4021	-1.8438	-1.8146	-2.1479	-1.4688	-2.3354	-0.249	203.695	28.172	220.899	-136.790	-68.030	-66.248	-119.618	93.535	103.529	155.435	-101.273	-18.974	-17.451	61.502	148.458	0.00060038	0.0036551	0.0011925	946.56	1.3028e-05	1.9154e-05	1415.7	253.75	3.2086e-05	2.5856e-05	502.8	167.68	69.469	25.437	2.2551e-05	84.466	0.028111	0.044592	0.012332	1005.7	0.00044034	0.00050343	1378.4	267.78	0.00043794	0.00048958	538.6	175.3	89.689	31.601	0.00044628	85.669	131.418	-103.690	-21.546	-123.617	216.247	-83.828	-124.538	-120.526	-81.189	1.413	-120.825	-117.550	-117.664	-113.112	-12.462	-113.360	-8191	255	
21830.203	1	1	0	0	0.11595	0.13063	0.15003	0.27103	0.010645	0.10765	0.14644	0.2006	0.15875	0.20791	0.057748	0.058011	0.045126	0.37557	0.18822	0.19241	-1.4438	-1.6104	-2.2354	-1.6313	-1.85	-2.2604	-1.6479	-2.1979	-1.7833	-1.5771	-2.3542	-1.6771	-1.8521	-2.4104	-1.4979	-2.2875	84.786	-23.592	-110.821	-124.316	138.679	-76.355	169.258	206.945	200.952	-14.591	-73.956	195.786	214.287	-79.981	-13.711	-72.205	0.00075567	0.00033226	0.0011424	940.25	2.0959e-05	1.1944e-05	1416.3	253.58	1.4843e-05	1.5717e-05	500.61	165.77	67.125	24.91	2.0178e-05	84.085	0.027522	0.043115	0.011831	991.59	0.00042792	0.00048507	1366.9	265.93	0.00042595	0.00047831	535.63	173.29	88.556	31.161	0.00044447	84.938	199.889	38.418	12.893	-124.428	152.062	179.051	-124.118	-120.585	138.956	72.790	-121.402	-117.630	-117.600	-112.576	143.917	-114.111	-8191	255	
21830.322	1	1	0	0	0.35941	0.30881	0.14692	0.10616	0.31217	0.095869	0.23028	0.24249	0.10025	0.18166	0.21708	0.2864	0.14331	0.12589	0.036707	0.21783	-1.5562	-1.3417	-2.2583	-1.8958	-1.8375	-2.25	-1.6083	-2.3438	-2.1042	-1.5458	-2.5271	-1.9083	-1.7146	-2.2354	-1.5958	-2.3208	-10.473	-78.368	-41.631	190.808	36.993	-8.005	142.351	121.450	54.414	-68.921	-129.253	204.795	94.284	-2.263	-42.999	199.902	0.00049746	0.00065515	0.00033775	935.67	2.3353e-05	1.1942e-05	1394.2	251.59	1.6505e-05	1.6901e-05	496.33	166.98	68.063	25.18	2.2962e-05	84.334	0.027146	0.042332	0.011702	985.11	0.00042931	0.00047709	1348.7	263.09	0.00042052	0.00047026	528.62	172.62	87.994	30.927	0.00043789	84.709	161.686	-10.961	-61.271	-123.660	-28.271	105.513	-124.391	-120.020	181.663	182.353	-121.203	-117.906	-116.968	-113.577	150.823	-114.347	-8191	255	
21830.418	1	1	0	0	0.062347	0.087168	0.17818	0.15758	0.13169	0.21652	0.10183	0.18032	0.25325	0.17808	0.11076	0.15427	0.10171	0.096768	0.088864	0.19065	-1.6187	-1.4792	-2.2875	-1.8979	-1.6063	-2.2896	-1.475	-1.8917	-2.1667	-1.4917	-2.3688	-1.8021	-1.625	-2.3792	-1.4354	-2.1854	-57.540	-53.196	44.307	-98.022	160.503	-83.150	-103.754	110.690	136.076	162.905	196.291	204.825	150.413	147.247	-55.364	-127.762	0.00079986	0.00037213	0.00012502	925.04	1.1136e-05	1.1377e-05	1392	254.79	2.6831e-05	1.1725e-05	503.87	166.71	68.519	25.322	3.7095e-05	84.608	0.02701	0.042167	0.011541	979.17	0.00042327	0.00047028	1351.5	264.63	0.00041384	0.00046598	530.88	173.12	88.051	31.014	0.0004294	85.218	153.484	36.514	-126.702	-124.030	-107.452	199.759	-124.452	-120.297	41.545	124.024	-121.444	-117.811	-117.201	-112.860	125.686	-113.794	-8191	255	
21830.490	1	1	0	0	0.32794	0.2332	0.16403	0.12669	0.029032	0.020953	0.23403	0.085533	0.10454	0.036542	0.13022	0.24153	0.15197	0.14167	0.27092	0.42459	-1.8667	-1.5187	-2.0417	-2.0146	-1.4854	-2.3625	-1.5438	-1.7458	-2.2208	-1.3667	-2.3646	-2.1688	-1.5042	-2.4229	-1.4771	-2.025	-70.013	176.274	-92.179	-137.632	40.516	187.861	73.530	176.731	-126.326	-49.891	131.810	187.509	106.053	-87.260	114.999	207.455	0.0012135	0.00079778	0.00067913	928.86	2.0573e-05	6.5528e-06	1386.2	250.94	2.1142e-05	2.9742e-05	497.97	166.16	67.732	25.05	2.6816e-05	84.147	0.026624	0.041426	0.011394	977.9	0.00041646	0.00046368	1344.3	262.01	0.00041122	0.00045852	526.83	171.87	87.149	30.58	0.00042899	84.599	173.614	-16.601	209.883	-123.942	150.823	196.209	-123.808	-120.665	25.487	32.502	-121.925	-117.960	-117.749	-112.657	-123.642	-114.042	-8191	255	
21830.588	1	1	0	0	0.31302	0.075066	0.11186	0.2728	0.24087	0.10118	0.093991	0.27678	0.0778	0.2146	0.029136	0.35079	0.21384	0.25263	0.23801	0.20881	-1.9646	-1.4646	-2.0542	-2.0604	-1.4167	-2.1208	-1.8542	-1.9042	-2.4292	-1.5917	-1.9833	-2.0938	-1.4417	-2.2958	-1.85	-1.8604	-2.933	-97.922	126.822	-122.303	-78.329	-66.914	132.100	196.083	128.178	169.645	-121.791	159.989	196.708	-111.947	-126.501	198.032	0.00063331	0.0011126	0.00066641	927.27	1.3494e-05	2.3688e-05	1378.3	249.06	1.1876e-05	2.0252e-05	491.11	166.17	67.049	25.288	2.3404e-05	83.352	0.02591	0.0408	0.011291	965.98	0.00041113	0.00045736	1334.6	259.57	0.00040241	0.00045489	523.16	171.76	86.585	30.58	0.00042327	84.554	206.649	34.954	53.927	-124.055	70.357	77.036	-123.954	-120.745	122.389	-31.465	-120.835	-117.928	-117.586	-112.817	88.029	-113.864	-8191	255	
21830.705	1	1	0	0	0.39427	0.1223	0.31603	0.29343	0.20487	0.050749	0.030642	0.52232	0.28765	0.12482	0.27812	0.09311	0.22781	0.12965	0.2241	0.28466	-1.8312	-1.5479	-1.8917	-2.2438	-1.5583	-2.2938	-1.8604	-1.7542	-2.1813	-1.6167	-1.8708	-2.0542	-1.4792	-2.2438	-1.7729	-1.6083	19.157	140.364	143.836	185.230	210.862	218.522	196.564	-118.094	-101.749	100.660	112.967	41.895	153.512	-127.202	153.121	188.366	0.00077404	0.0018228	0.00044097	907.7	8.792e-06	3.88e-06	1384.5	250.63	1.8522e-05	2.8487e-05	504.3	167.55	68.819	25.553	1.3664e-06	86.096	0.025544	0.040718	0.011165	961.45	0.00040506	0.00045054	1334.6	260.46	0.00039523	0.00044785	529.56	173.02	87.356	30.785	0.00042143	85.728	177.566	3.716	-23.821	-123.828	201.645	26.765	-124.346	-120.655	34.078	157.193	-121.198	-117.967	-118.530	-112.977	125.787	-114.373	-8191	255	
21830.803	1	1	0	0	0.22219	0.17223	0.19768	0.22843	0.12154	0.23654	0.48567	0.034592	0.15493	0.085009	0.12613	0.38092	0.13793	0.16915	0.26956	0.46874	-1.7313	-1.5021	-1.7437	-2.2604	-1.5417	-2.1896	-2.2625	-1.5625	-2.3771	-1.6437	-1.8625	-2.2771	-1.5667	-2.0125	-2.1271	-1.6125	83.122	49.507	-123.213	169.485	-110.774	-17.377	169.831	74.972	13.459	186.931	-67.607	221.408	109.953	103.177	22.700	166.435	0.00019809	0.0020071	0.0005038	937.65	6.9555e-06	1.9897e-05	1404.4	257.31	2.6306e-05	2.4174e-05	510.06	170.04	69.675	26.569	2.245e-05	86.544	0.02517	0.040222	0.011223	979.57	0.00040226	0.00045149	1352.1	265.4	0.00039292	0.00044907	534.81	175.43	88.245	31.419	0.00042405	86.553	170.977	-18.332	-65.006	-124.124	-69.758	-12.348	-124.645	-120.430	-30.293	-37.641	-120.846	-117.765	-117.523	-112.747	-65.480	-114.039	-8191	255	
21830.898	1	1	0	0	0.34318	0.2101	0.25531	0.14409	0.13352	0.21429	0.11133	0.17174	0.27521	0.04304	0.23073	0.35165	0.060976	0.15913	0.11072	0.21663	-1.7062	-1.8188	-1.7687	-2.3688	-1.7521	-1.9729	-2.2271	-1.6229	-2.1854	-1.8042	-1.825	-2.3604	-1.5208	-1.9	-1.9875	-1.7271	-108.571	137.483	210.776	156.886	205.139	-57.608	166.789	213.869	-101.404	120.512	-14.392	138.853	-82.366	111.381	153.098	143.143	0.00067478	0.0014613	0.00042364	948.43	1.2911e-05	1.5647e-05	1412.2	254.64	1.2564e-05	1.9849e-05	507.48	171.02	69.208	26.313	3.1906e-05	86.983	0.025129	0.040094	0.011122	983.33	0.00039834	0.00044699	1358.6	264.87	0.00038911	0.00044497	533.87	174.76	87.75	31.309	0.000419	86.307	167.651	-106.997	-19.493	-124.276	28.113	39.710	-124.029	-120.362	-69.277	22.116	-121.439	-117.766	-117.637	-113.312	-96.086	-114.191	-8191	255	
21830.994	1	1	0	0	0.091302	0.10338	0.26307	0.16868	0.067795	0.083811	0.25279	0.24181	0.26801	0.079893	0.19376	0.19926	0.20385	0.2394	0.18764	0.38151	-1.8563	-1.8583	-1.7604	-2.4708	-1.5833	-1.8417	-2.3833	-1.6313	-2.1896	-1.9625	-1.5875	-2.6333	-1.7875	-1.7271	-2.1458	-1.6875	25.967	165.304	190.598	214.556	-107.482	102.358	114.544	-20.428	64.451	94.031	200.633	156.165	-64.732	205.902	177.447	-133.378	0.00074747	0.0035699	0.00024313	945.44	2.1666e-05	9.5982e-06	1400.9	257.66	1.1125e-05	3.2017e-05	509.54	172.05	69.441	26.319	5.5635e-06	86.437	0.024704	0.039898	0.011007	976.19	0.0003996	0.00044545	1349.7	264.27	0.00038421	0.00044129	531.78	174.68	87.654	31.292	0.00041289	86.194	136.379	1.609	130.947	-124.135	69.786	50.545	-124.178	-120.654	197.184	72.469	-121.034	-117.269	-117.307	-113.001	140.710	-114.299	-8191	255	
21831.092	1	1	0	0	0.35772	0.16901	0.2426	0.10222	0.21858	0.25524	0.1725	0.13482	0.12327	0.16759	0.096676	0.2695	0.15508	0.16891	0.24312	0.21934	-1.9208	-2.0104	-1.3937	-2.3958	-1.7542	-1.8583	-2.5583	-1.7583	-2.3333	-2.0146	-1.7437	-2.3979	-1.8625	-1.95	-2.4333	-1.7458	-6.488	203.527	-83.436	220.173	-50.129	181.387	-107.108	171.257	3.905	174.795	184.861	217.951	55.126	184.571	-8.336	181.392	0.00094194	0.0010165	0.0010443	946.89	1.6854e-05	2.5457e-05	1417.6	259.37	1.3624e-05	8.8062e-06	511.15	174.01	71.167	26.952	1.847e-05	88.79	0.024568	0.039693	0.011037	981.62	0.00040012	0.000447	1362.9	268.06	0.00038964	0.00044375	536.98	176.92	89.442	31.835	0.00041131	87.874	146.103	212.192	207.084	-123.893	-30.648	108.353	-123.942	-120.621	67.178	60.729	-120.998	-117.394	-117.623	-113.638	159.080	-114.357	-8191	255	
21831.188	1	1	0	0	0.20661	0.016369	0.20397	0.18975	0.22756	0.15297	0.14725	0.22469	0.12359	0.25085	0.2427	0.051708	0.30126	0.15252	0.27281	0.39882	-1.8083	-2.1375	-1.6583	-2.2458	-1.7729	-1.6979	-2.6188	-1.6396	-1.9479	-2.1646	-1.5792	-2.3812	-1.85	-1.7938	-2.4437	-1.6917	56.448	158.271	82.380	211.906	-1.401	198.634	166.694	161.778	4.291	66.694	205.845	74.006	165.836	187.683	75.994	140.799	0.00073152	0.00073804	0.00020316	973.04	1.459e-05	1.4317e-05	1447.9	264.75	1.8484e-05	1.7908e-05	514.85	174.04	71.551	27.527	1.1347e-05	89.547	0.024795	0.039976	0.010975	998.4	0.00040168	0.00045157	1379.3	272.05	0.00039133	0.00044325	540.22	177.72	89.834	32.067	0.00040682	88.403	207.746	115.461	76.104	-124.135	133.759	9.105	-124.209	-120.680	35.526	-60.538	-120.957	-117.392	-117.807	-112.697	-78.549	-113.899	-8191	255	
21831.283	1	1	0	0	0.11212	0.049473	0.2026	0.42718	0.045825	0.19566	0.15697	0.32596	0.078872	0.13241	0.08183	0.22595	0.056577	0.24731	0.14863	0.18481	-1.5958	-2.2521	-1.5375	-2.3583	-1.7979	-1.3271	-2.3521	-1.6146	-1.9979	-2.2479	-1.55	-2.2042	-1.9875	-1.4708	-2.3542	-1.9688	133.602	-23.208	201.907	162.483	0.442	9.763	116.776	184.970	-133.227	141.152	4.792	-111.011	-0.913	202.084	-44.983	177.472	0.00064335	0.0013298	0.00067557	963.51	3.6433e-06	3.4061e-05	1438.5	260.23	1.2633e-05	3.6848e-05	515.44	172.64	69.445	26.68	9.717e-06	88.178	0.024863	0.039672	0.01087	992.3	0.00039915	0.00044639	1372.1	268.91	0.00038994	0.00044002	537.47	176.25	88.766	31.649	0.00040544	87.418	154.335	48.562	167.509	-123.646	22.803	77.941	-123.808	-120.352	33.566	5.205	-121.335	-117.660	-117.104	-112.890	-86.802	-114.123	-8191	255	
21831.404	1	1	0	0	0.12644	0.16208	0.17654	0.16912	0.1245	0.27495	0.27722	0.29053	0.21569	0.093141	0.23557	0.064876	0.15706	0.055368	0.18533	0.219	-1.2875	-2.2	-1.5458	-2.3521	-1.9771	-1.6083	-2.6312	-1.7604	-1.6458	-2.3354	-1.5792	-2.1729	-1.9729	-1.3521	-1.9979	-2.0333	-70.961	152.270	61.068	136.629	52.617	52.766	165.290	182.468	-112.197	31.261	200.039	110.207	-102.999	219.112	-68.804	130.512	0.00096097	0.00046099	0.00024787	953.2	3.2184e-05	1.8228e-05	1428.3	262.54	7.2291e-07	2.6754e-06	510.59	173.73	71.959	26.659	1.6405e-05	88.361	0.02495	0.039187	0.010989	987.72	0.00039841	0.0004394	1363.8	268.32	0.00038531	0.00043495	535.69	176.09	88.98	31.504	0.00040121	87.482	192.037	58.066	137.536	-124.156	-5.985	-30.704	-123.600	-121.029	116.757	-45.714	-120.611	-117.535	-117.948	-113.224	93.462	-114.840	-8191	255	
21831.500	1	1	0	0	0.34512	0.20865	0.090609	0.22208	0.22852	0.2822	0.072136	0.08258	0.15895	0.087483	0.14638	0.10429	0.073339	0.092842	0.25919	0.20676	-1.3396	-2.3375	-1.4875	-2.0104	-2.2292	-1.4937	-2.4771	-1.8646	-1.6542	-2.3583	-1.5604	-2.0292	-2.2229	-1.5167	-2.3312	-2.0396	110.898	-82.368	65.964	113.630	-12.122	84.697	83.256	57.080	-41.211	61.116	3.459	166.088	-76.258	-21.656	-68.933	-12.556	0.00060531	0.0028999	0.00065644	967.59	1.1516e-05	2.744e-05	1442.5	266.95	1.509e-05	1.5228e-05	517.59	176	72.669	26.837	9.0695e-06	88.255	0.024624	0.03894	0.01081	994.14	0.00039643	0.00043922	1376.7	272.02	0.00038869	0.00043182	541.5	178.36	89.853	31.905	0.00040183	88.36	186.021	-123.415	-19.264	-124.454	-20.714	5.732	-124.346	-120.720	135.174	71.335	-121.827	-118.158	-118.601	-113.440	-49.949	-114.656	-8191	255	
21831.596	1	1	0	0	0.26869	0.14318	0.095738	0.12236	0.32261	0.25899	0.22648	0.3162	0.066186	0.10659	0.24048	0.054855	0.13626	0.17972	0.11017	0.091891	-1.1708	-2.2271	-1.5896	-1.7479	-2.2854	-1.4021	-2.4	-2.0271	-1.5417	-2.1917	-1.6208	-1.8125	-2.2646	-1.4562	-2.1125	-2.2938	-32.793	164.154	-82.369	200.017	22.244	-69.048	163.509	213.026	164.165	-70.854	60.074	130.408	-111.731	179.200	-65.675	-36.991	0.00069062	0.003848	0.00035022	971.37	2.3016e-05	1.9887e-05	1445	268.79	1.2791e-05	4.5681e-06	518.6	176.57	73.175	27.238	1.5868e-05	89.198	0.024663	0.038542	0.010821	1005.2	0.00039247	0.00043928	1384.2	273.18	0.00038312	0.00042604	540.99	179.11	89.871	31.933	0.00039999	88.642	128.062	-37.899	-79.913	-124.001	177.532	116.296	-124.319	-121.168	146.604	132.705	-121.609	-117.868	-117.893	-113.496	-121.604	-114.639	-8191	255	
21831.691	1	1	0	0	0.243	0.23188	0.15979	0.093038	0.2204	0.34425	0.38946	0.16226	0.15124	0.084262	0.088906	0.17226	0.2533	0.096397	0.10611	0.33357	-1.0417	-2.0396	-1.3271	-1.9167	-2.2792	-1.3292	-2.1271	-2.1708	-1.4813	-2.4292	-1.8146	-1.6292	-2.2354	-1.4104	-1.7229	-2.1813	149.155	5.624	101.642	-21.202	-137.423	88.891	161.991	137.669	-91.094	156.414	-137.784	-107.578	-106.042	-120.272	17.152	189.448	0.000157	0.0014082	0.00037761	974.55	1.6393e-05	2.0431e-05	1443.5	265.33	1.8207e-05	4.9309e-06	519.46	175.13	72.182	26.785	2.1302e-05	88.444	0.02468	0.037992	0.010727	1001	0.00038456	0.00042934	1378.3	271.44	0.00037861	0.00042426	539.51	177.58	88.89	31.626	0.00039718	87.925	150.629	169.127	150.206	-124.352	-63.567	8.972	-124.252	-120.838	23.762	12.300	-121.402	-117.795	-117.561	-113.383	164.358	-114.488	-8191	255	
21831.787	1	1	0	0	0.1996	0.17356	0.044266	0.27369	0.16222	0.34959	0.30938	0.10222	0.15051	0.19269	0.19763	0.266	0.16334	0.37659	0.096373	0.14191	-0.99792	-2.1583	-1.975	-1.6	-2.2188	-1.4958	-1.9625	-2.2854	-1.4229	-2.1729	-1.9917	-1.6583	-2.3479	-1.4792	-1.8792	-2.2083	-40.014	-49.056	79.344	193.968	-91.398	-39.334	140.785	-103.154	186.686	-27.258	-131.256	-126.233	191.140	-97.554	-21.464	200.919	0.00064615	0.00090193	0.0016603	974.01	1.0125e-05	2.0529e-05	1437	263.46	4.0912e-06	1.8093e-05	517.9	174.64	71.878	26.898	4.2164e-05	88.04	0.024133	0.037763	0.010793	996.48	0.000383	0.00042562	1370.8	269.77	0.00037932	0.00042509	537.6	176.33	88.413	31.548	0.00039841	87.636	160.853	-60.198	206.295	-123.991	144.035	-50.670	-124.431	-121.138	53.055	-46.671	-121.638	-118.044	-117.703	-113.258	-52.433	-114.645	-8191	255	
21831.883	1	1	0	0	0.021557	0.22863	0.058631	0.18676	0.12254	0.21257	0.26899	0.39066	0.18745	0.26807	0.18236	0.21998	0.087563	0.30576	0.07551	0.10303	-1.2208	-2.1521	-1.9042	-1.6688	-2.2021	-1.5562	-1.8604	-2.3896	-1.4604	-2.0104	-2.0792	-1.4479	-2.3542	-1.7646	-1.5125	-2.7333	20.180	-37.869	-116.378	-100.580	155.354	-106.053	170.522	164.395	19.206	-42.915	96.662	68.933	-98.695	133.247	99.746	94.660	0.00075061	0.002401	0.0002086	968.15	1.7413e-05	9.3353e-06	1448.7	267.62	1.1785e-05	2.1789e-05	524.04	176.53	73.285	27.311	2.6732e-05	89.721	0.024111	0.037877	0.010825	997.21	0.00038319	0.00043304	1383.6	272.52	0.00037705	0.00042213	542.84	178.86	89.514	32.082	0.00040457	88.53	216.959	202.518	-89.019	-124.168	118.364	155.798	-124.361	-120.856	-111.507	148.471	-121.485	-118.260	-117.994	-112.932	33.159	-114.333	-8191	255	
21832.004	1	1	0	0	0.33062	0.137	0.21421	0.14557	0.11	0.067145	0.13271	0.37837	0.1721	0.15265	0.1449	0.21824	0.24959	0.25574	0.0059511	0.086803	-1.3083	-1.9062	-1.95	-1.6063	-2.1437	-1.8958	-1.8958	-2.4021	-1.5542	-1.8854	-2.3396	-1.5312	-2.2646	-1.9042	-1.5375	-2.3521	-48.348	-28.507	197.406	-85.069	143.973	-74.400	108.335	185.332	219.573	165.103	-51.672	202.578	114.588	130.093	90.203	31.198	0.00071659	0.0028138	0.00026704	988.15	1.6859e-05	1.9422e-05	1452.9	268.44	1.2209e-05	1.5473e-05	521.31	176.54	72.465	27.252	8.3941e-06	89.957	0.024385	0.037959	0.010853	1003.8	0.00038356	0.00043634	1386.6	272.7	0.00038339	0.00043007	541.79	178.21	89.231	32.046	0.00040402	88.386	146.515	-104.861	-12.164	-124.506	-54.639	97.856	-124.012	-120.844	83.758	-0.097	-121.225	-118.254	-117.648	-113.142	204.381	-114.492	-8191	255	
21832.100	1	1	0	0	0.17504	0.057765	0.15732	0.31534	0.26521	0.27509	0.55626	0.063601	0.064108	0.19999	0.051753	0.098023	0.087501	0.044555	0.15603	0.5127	-1.2583	-1.7167	-2.3979	-1.5479	-2.0875	-1.9167	-1.625	-2.2646	-1.625	-1.9	-2.2458	-1.5375	-2.2354	-2.1437	-1.5896	-2.475	-133.719	-95.507	57.518	-128.552	143.101	-96.532	122.804	142.940	-47.734	-60.064	7.544	118.730	-127.738	9.134	154.402	174.300	0.0011208	0.0026365	0.000506	976.63	1.6307e-05	1.8782e-05	1440.8	265.59	1.4882e-05	1.0111e-05	519.53	174.38	71.712	26.732	8.0607e-06	87.25	0.02449	0.038202	0.010767	997.72	0.00038317	0.00043789	1376.1	271.16	0.00037957	0.00043035	539.07	177.01	88.688	31.652	0.0004037	86.867	154.742	24.970	83.387	-123.735	-81.979	-68.260	-124.134	-120.581	189.433	-71.197	-121.147	-117.748	-117.309	-112.668	84.011	-113.903	-8191	255	
21832.195	1	1	0	0	0.34058	0.055861	0.095832	0.059709	0.25455	0.27969	0.10938	0.17289	0.074155	0.14168	0.17987	0.049415	0.2897	0.42505	0.24048	0.2012	-1.175	-1.6479	-2.1646	-1.5354	-2.0979	-2.0021	-1.5021	-2.2583	-1.7333	-1.4958	-2.3521	-1.4917	-1.9333	-2.075	-1.3521	-2.3542	142.668	212.923	-19.199	220.473	-92.903	-6.269	154.490	153.816	151.854	201.682	200.012	142.827	-20.203	-128.240	24.033	177.377	0.00059061	0.0027716	0.00041047	968.36	1.7483e-05	2.7779e-05	1450.6	266.11	2.267e-05	2.3829e-05	519.85	174.73	72.5	26.903	2.5474e-05	87.991	0.024492	0.038355	0.01071	993.18	0.00038286	0.00043813	1376.4	269.93	0.00038225	0.00042567	537.52	176.33	89.031	31.644	0.00039873	86.906	144.289	-130.223	1.156	-124.144	55.118	-138.330	-124.293	-120.727	-10.494	-98.390	-121.050	-117.674	-117.943	-113.629	120.843	-114.291	-8191	255	
21832.293	1	1	0	0	0.22244	0.13026	0.070814	0.10532	0.15589	0.17609	0.48746	0.3337	0.2545	0.21203	0.23046	0.06037	0.23159	0.21652	0.28387	0.046763	-1.3292	-1.4062	-2.2167	-1.6208	-1.7583	-1.9188	-1.6479	-2.3063	-1.9104	-1.7188	-2.4979	-1.7521	-1.8667	-2.1063	-1.4188	-2.4188	-11.233	-46.637	-123.222	135.807	-21.051	-136.834	158.564	-128.504	34.494	159.840	180.441	-105.592	-125.707	130.454	57.674	216.638	0.00082157	0.0014306	0.00070001	980.09	3.4646e-05	1.4654e-05	1440.8	266.23	1.0987e-05	6.2482e-06	519.11	175.33	72.555	27.019	1.9417e-05	88.596	0.02437	0.038022	0.01055	1001.2	0.00038446	0.00043372	1380.3	271.42	0.00038685	0.00042786	539.9	177.63	89.53	31.875	0.00039956	87.601	183.403	112.831	-138.217	-123.919	43.693	-0.116	-124.399	-121.011	119.297	162.911	-120.986	-117.918	-117.352	-113.305	-77.912	-114.052	-8191	255	
21832.363	1	1	0	0	0.078768	0.13397	0.26979	0.13833	0.33219	0.21031	0.25341	0.044971	0.085859	0.11898	0.18928	0.25395	0.18541	0.1303	0.2413	0.33116	-1.4958	-1.6	-2.2271	-1.6125	-1.7583	-2.0979	-1.7104	-2.2562	-2.0229	-1.6271	-2.1208	-1.7812	-1.8646	-2.3812	-1.3875	-2.0542	162.300	-89.090	-88.627	157.361	153.429	-131.108	199.018	146.839	-18.021	-14.090	169.700	-125.724	-107.868	204.149	147.603	150.684	0.00094524	0.0023447	0.00017339	981.54	3.9941e-06	2.8336e-05	1452	266.8	2.8257e-05	1.3151e-05	517.82	174.12	72.656	26.661	7.512e-06	87.679	0.024629	0.038577	0.010583	1004.4	0.00038941	0.00043453	1383.6	272.14	0.00038828	0.00042954	537.91	177.25	89.488	31.513	0.00040221	86.554	191.053	108.453	-32.187	-124.207	152.171	-74.561	-124.196	-120.910	-30.494	111.126	-121.300	-117.361	-116.891	-112.590	-90.047	-113.904	-8191	255	
21832.484	1	1	0	0	0.057659	0.093457	0.143	0.22426	0.046672	0.19817	0.36747	0.18799	0.23609	0.24934	0.31636	0.17566	0.25397	0.26704	0.086026	0.23493	-1.7375	-1.4146	-2.2646	-1.7812	-1.6292	-2.2083	-1.6562	-2.0521	-1.9312	-1.5729	-2.5812	-1.9896	-1.7875	-2.2146	-1.4917	-2.0229	-119.008	63.297	-102.393	208.084	-132.157	51.604	164.288	172.846	-58.696	-95.422	-124.538	166.877	-99.801	176.859	98.298	202.033	0.00056034	0.00018603	0.00026888	972.49	5.2863e-06	1.7605e-05	1433.5	263.14	2.8821e-05	5.3247e-06	512.16	169.86	71.651	26.394	5.1385e-06	86.381	0.024636	0.038624	0.010631	996.1	0.00039217	0.00043324	1370.1	269.54	0.00038444	0.0004294	533.86	174.58	88.356	31.178	0.00040284	85.895	159.240	-123.609	-89.919	-124.102	125.004	54.036	-124.037	-120.631	210.255	93.791	-120.939	-117.791	-117.498	-113.052	94.771	-113.765	-8191	255	
21832.580	1	1	0	0	0.13748	0.084171	0.096205	0.32727	0.16771	0.086211	0.21476	0.080113	0.17706	0.20676	0.13085	0.30071	0.10038	0.17796	0.17868	0.15675	-1.8104	-1.4417	-2.1417	-1.9708	-1.6	-2.275	-1.5833	-1.9125	-2.1708	-1.6063	-2.0292	-2.0479	-1.5104	-2.2479	-1.7938	-1.7229	105.383	-56.986	193.065	178.687	95.289	25.090	133.051	76.536	83.059	139.201	115.601	-112.462	39.602	144.068	-98.034	-109.268	0.00073447	0.0028044	0.00073512	965.9	5.3303e-05	1.5725e-05	1428.1	263.53	1.3851e-05	2.4397e-05	515.58	171.6	71.397	26.301	5.2729e-06	85.994	0.024677	0.03862	0.010702	997.52	0.00039521	0.00043368	1368.2	268.91	0.00038872	0.00043256	535.77	175.15	88.776	31.024	0.00040635	85.758	175.590	-20.920	119.612	-123.523	-87.231	-63.157	-123.701	-119.913	-55.070	80.100	-120.981	-117.639	-117.729	-112.458	57.797	-113.898	-8191	255	
21832.676	1	1	0	0	0.26319	0.05863	0.1249	0.0091926	0.31477	0.32311	0.51475	0.13983	0.21582	0.31129	0.30547	0.07809	0.14806	0.19156	0.069576	0.079933	-1.8833	-1.3771	-2.0625	-2.1562	-1.525	-2.4104	-1.6958	-1.7104	-2.1833	-1.4646	-2.2854	-2.0125	-1.5333	-2.2562	-1.5979	-1.8521	-102.146	160.708	34.828	181.025	-74.523	163.666	149.494	215.443	95.339	169.591	150.932	-31.879	138.026	-122.247	25.268	52.927	0.00093542	0.00035941	0.0004595	971.42	3.9871e-05	2.349e-05	1449.2	265.59	1.6973e-05	7.9518e-06	517.55	171.26	72.112	26.518	1.3858e-05	86.753	0.024694	0.038781	0.010727	1003.7	0.00039638	0.00044034	1380.4	271.69	0.00039206	0.0004381	539.19	176.2	89.495	31.386	0.00041571	86.487	162.010	47.200	116.303	-124.251	-18.802	177.901	-123.881	-120.654	-86.262	-113.776	-121.225	-118.044	-118.340	-112.556	-52.803	-114.228	-8191	255	
21832.795	1	1	0	0	0.1279	0.17087	0.17541	0.13218	0.054039	0.10502	0.25373	0.46689	0.1675	0.26734	0.10646	0.054682	0.22321	0.15772	0.2824	0.091161	-1.8167	-1.55	-1.9958	-2.2042	-1.3188	-2.2479	-1.8521	-1.6125	-2.2833	-1.5979	-1.9479	-2.2438	-1.3792	-2.2562	-1.9813	-1.6875	106.443	-88.142	61.290	199.090	-31.430	-49.181	161.071	96.872	205.412	63.610	39.320	-57.731	167.580	188.296	-4.609	132.706	0.00065323	0.0026271	0.00051597	967.09	8.3009e-06	1.4777e-05	1452.8	265.27	1.3292e-05	2.6802e-05	509.35	170.58	71.386	25.927	1.6998e-05	85.026	0.024735	0.039183	0.010816	1002.9	0.00039065	0.00043724	1380.9	271.94	0.00038613	0.00043555	536.71	175.1	88.731	30.806	0.00041201	85.001	190.747	-58.078	0.339	-123.906	-106.571	9.116	-124.109	-120.433	-132.214	-56.602	-121.117	-117.409	-118.317	-113.087	18.804	-114.193	-8191	255	
21832.891	1	1	0	0	0.07089	0.20702	0.075377	0.34709	0.23192	0.10681	0.30272	0.29883	0.15205	0.45412	0.056155	0.28098	0.19305	0.18427	0.18336	0.13972	-1.8708	-1.5979	-1.8792	-2.2958	-1.2792	-2.1792	-2.2417	-1.6083	-2.25	-1.7396	-1.8125	-2.2562	-1.2583	-2.3563	-1.9396	-1.875	99.939	-25.005	-42.914	211.722	73.978	212.023	211.069	217.880	43.181	109.321	-70.150	192.642	152.989	83.530	1.293	119.918	0.00066201	0.0018848	0.00017794	967.51	3.1186e-05	3.9385e-05	1430	262.76	1.4119e-05	1.6692e-05	507.07	168.86	70.683	25.644	6.4792e-06	84.213	0.024816	0.039425	0.010869	995.99	0.00039321	0.00043794	1368.9	267.84	0.00038246	0.0004341	532.04	172.76	87.692	30.63	0.00040528	84.134	197.552	130.130	-38.108	-124.045	-116.770	-107.386	-124.002	-120.518	-66.043	92.591	-121.198	-117.666	-117.687	-113.362	30.832	-114.260	-8191	255	
21832.965	1	1	0	0	0.22464	0.13754	0.18067	0.24063	0.25315	0.076421	0.12687	0.049272	0.17074	0.21271	0.39428	0.16008	0.096364	0.20618	0.15954	0.1385	-1.9229	-1.5979	-1.575	-2.3937	-1.4583	-1.9146	-2.0604	-1.5562	-2.3187	-1.8458	-1.7687	-2.5042	-1.4625	-2.0812	-2.0438	-1.5854	99.408	204.184	65.938	-120.936	88.509	-68.108	-75.992	181.323	81.489	177.348	212.728	-131.958	105.444	178.856	39.255	177.953	0.00088665	0.0012396	0.00081613	960.95	6.7082e-06	2.7608e-05	1430	259.95	1.8298e-05	2.1261e-05	509.05	169.36	70.564	25.913	3.7418e-05	84.871	0.024082	0.038711	0.010705	989.65	0.0003868	0.00043402	1367.6	266.63	0.0003783	0.00043184	532.46	172.66	88.187	30.812	0.00040396	84.423	192.430	56.587	-126.494	-123.906	-87.136	81.579	-124.281	-120.454	9.508	-118.901	-121.158	-118.139	-117.141	-113.386	16.904	-114.255	-8191	255	
21833.084	1	1	0	0	0.30059	0.1947	0.081887	0.16163	0.29056	0.20709	0.23619	0.30439	0.29692	0.13504	0.17044	0.058679	0.18579	0.18602	0.2015	0.44427	-1.6854	-1.7479	-1.5104	-2.3542	-1.7	-1.7188	-2.2625	-1.35	-2.1396	-1.8021	-1.4479	-2.3625	-1.6146	-1.7812	-2.0583	-1.6604	153.357	154.850	-117.668	167.373	56.985	-47.258	119.497	164.662	203.011	8.497	122.906	-36.386	216.793	172.750	178.314	197.560	0.00091998	0.00061266	0.00040562	963.04	1.5192e-05	3.0909e-05	1437.6	261.95	1.5716e-05	2.1673e-05	512.87	168.91	69.861	25.574	2.0383e-05	84.577	0.024027	0.038538	0.010684	989.37	0.00038383	0.00043025	1373.3	267.31	0.00037706	0.00043363	534.83	171.82	87.85	30.568	0.00040424	83.822	180.810	-123.197	-137.388	-123.933	-124.307	-130.118	-124.039	-120.811	204.145	97.308	-121.218	-117.859	-117.713	-113.283	66.650	-114.315	-8191	255	
21833.180	1	1	0	0	0.15727	0.2708	0.25524	0.2822	0.0080195	0.34293	0.24922	0.28798	0.24014	0.25297	0.28031	0.46239	0.1771	0.22675	0.18718	0.17893	-1.7771	-1.7583	-1.3333	-2.4542	-1.5312	-1.5875	-2.2938	-1.3542	-2.0375	-2.0417	-1.6958	-2.3812	-1.5792	-1.7437	-2.2792	-1.8729	93.502	-100.544	49.071	183.309	-93.263	95.044	163.033	191.615	-63.553	176.211	118.365	208.283	-92.073	-111.939	-63.367	-45.880	0.0010513	0.0020913	0.00054941	962.69	1.8671e-05	1.4798e-05	1425.2	258.58	1.4311e-05	7.8171e-06	503.04	167.51	70.583	25.529	1.3706e-05	83.425	0.024148	0.038963	0.010838	987.04	0.00038859	0.00043281	1361.9	265.44	0.00037779	0.00043194	526.24	171.11	87.154	30.415	0.0003966	83.038	162.955	206.153	192.441	-123.954	-103.552	167.739	-124.148	-120.674	-34.867	66.765	-121.195	-117.703	-117.869	-113.529	86.192	-113.935	-8191	255	
21833.275	1	1	0	0	0.21339	0.28783	0.1161	0.11222	0.071787	0.22278	0.20527	0.16981	0.2531	0.29808	0.10811	0.18353	0.4052	0.20983	0.31189	0.21504	-1.5833	-2.125	-1.2833	-2.2083	-1.7125	-1.4521	-2.225	-1.375	-2.0625	-2.1354	-1.4708	-2.0729	-1.6521	-1.7625	-2.2333	-1.5438	-33.583	16.483	-118.885	188.038	-78.116	45.408	205.823	-86.638	124.999	-61.332	-25.715	-92.425	131.684	185.713	8.877	145.356	0.0011628	0.002639	0.00062947	956.81	2.8947e-05	1.6572e-05	1424.8	260.89	1.2288e-05	2.1412e-05	503.01	165.66	69.508	25.12	2.9942e-05	82.335	0.023749	0.038547	0.010621	982.03	0.00038578	0.00043009	1355.6	264.34	0.00037156	0.00042824	524.03	169.63	86.328	30.049	0.00039318	82.264	183.988	1.326	-59.926	-123.880	69.922	89.056	-124.561	-120.763	211.006	79.240	-121.419	-117.575	-118.059	-113.449	-37.403	-114.593	-8191	255	
21833.396	1	1	0	0	0.3597	0.1421	0.041542	0.38645	0.11178	0.344	0.29665	0.042502	0.13255	0.25509	0.08308	0.28932	0.19026	0.19421	0.17348	0.083103	-1.475	-2.0042	-1.3083	-2.3271	-1.6833	-1.4062	-2.3458	-1.6521	-1.8604	-2.2313	-1.5312	-2.3104	-2.0479	-1.6646	-2.2625	-1.9042	39.151	160.504	37.482	190.413	4.655	91.761	182.804	182.790	156.768	179.055	-135.296	-118.821	-71.810	98.569	157.893	102.543	0.00030522	0.00086584	0.00029679	953.71	5.5606e-06	2.034e-06	1423.6	258.39	1.0944e-05	2.2032e-05	503.82	167.91	70.452	25.578	8.4546e-06	82.584	0.023984	0.03839	0.010551	977.57	0.00038575	0.00042741	1354.5	262.9	0.00037283	0.00042419	525.67	170.92	87.223	30.301	0.00039278	83.009	188.511	182.734	168.281	-124.029	-57.296	195.191	-124.314	-120.878	1.316	-32.477	-121.795	-117.921	-117.705	-113.362	-26.525	-114.316	-8191	255	
21833.492	1	1	0	0	0.16816	0.14811	0.17785	0.1728	0.14329	0.19087	0.22377	0.13793	0.15637	0.22264	0.12772	0.26358	0.18631	0.1841	0.05138	0.1295	-1.4521	-2.2458	-1.5875	-2.1167	-1.9771	-1.3083	-2.5229	-1.6521	-1.8583	-2.3812	-1.3625	-2.2146	-2.2458	-1.6229	-2.275	-1.7875	193.195	70.350	150.063	177.635	96.641	-73.491	105.944	151.928	-78.411	140.546	-31.473	185.550	-137.406	173.940	74.805	103.383	0.0010728	0.0015766	0.00021383	954.03	1.9563e-05	1.3711e-05	1424.5	257.69	2.8307e-05	3.3654e-06	507.39	168.21	69.541	25.358	2.9684e-05	83.002	0.024048	0.037911	0.010436	978.38	0.00038461	0.00042628	1353.9	264.67	0.00037752	0.00042362	527.31	171.43	86.489	30.237	0.00039267	83.104	155.256	161.837	13.444	-124.079	49.250	-7.633	-124.217	-121.130	56.651	79.284	-121.572	-117.759	-117.936	-113.152	-26.232	-114.556	-8191	255	
21833.588	1	1	0	0	0.1448	0.085007	0.15147	0.3585	0.11931	0.095116	0.3413	0.17142	0.11544	0.1135	0.068589	0.19411	0.19123	0.094104	0.17475	0.17947	-1.2333	-2.2167	-1.5146	-2.0396	-2.1604	-1.4875	-2.3792	-1.975	-1.5396	-2.2729	-1.5083	-2.0396	-2.1937	-1.525	-2.2042	-1.9833	-41.511	57.654	-67.930	202.292	85.076	29.532	184.704	33.985	-108.309	94.680	2.041	-111.735	-91.644	217.272	198.270	-124.044	0.00076889	0.0015887	0.00063285	956.97	9.1019e-06	1.2503e-05	1426.3	255.39	1.6066e-05	1.3361e-05	500.18	167.73	69.147	25.12	2.4968e-05	82.79	0.02407	0.03784	0.010532	978.58	0.00038509	0.00042428	1350.6	263.18	0.00037691	0.00042046	524.3	170.3	86.317	29.892	0.00039158	82.561	178.070	-71.103	72.384	-123.869	-52.776	-30.125	-124.411	-120.927	-31.192	47.182	-121.732	-117.423	-118.276	-113.904	29.182	-114.643	-8191	255	
21833.660	1	1	0	0	0.18316	0.052358	0.17347	0.094925	0.04495	0.13726	0.086839	0.1026	0.26338	0.061648	0.12417	0.34306	0.1885	0.13589	0.24765	0.21489	-1.2042	-2.1458	-1.5688	-1.8521	-2.0708	-1.2333	-2.1208	-1.9417	-1.5208	-2.1208	-1.6625	-1.8208	-2.2562	-1.4896	-1.9375	-2.1542	149.765	166.788	120.832	-59.785	18.150	105.237	151.452	203.769	-110.940	22.017	136.252	-134.832	166.469	64.554	-15.414	163.819	0.00078188	0.0019107	0.00034711	947.82	2.8227e-05	1.4178e-05	1412.5	255.73	1.6525e-05	4.634e-05	506.63	167.52	69.406	25.098	2.8081e-05	83.437	0.023909	0.037555	0.010492	975.19	0.00038407	0.00042333	1347.6	262.31	0.00037567	0.00041932	524.1	170.3	86.042	29.938	0.00039077	83.112	143.491	-37.047	15.902	-124.434	20.316	118.801	-124.118	-120.948	-10.430	74.733	-121.678	-118.206	-118.620	-114.047	-0.801	-114.889	-8191	255	
21833.779	1	1	0	0	0.31873	0.22995	0.030959	0.31938	0.24733	0.12087	0.28178	0.22912	0.19657	0.14818	0.28073	0.040713	0.15294	0.2797	0.15911	0.22262	-0.98333	-2.1708	-1.5229	-1.8146	-2.2667	-1.5917	-2.0958	-2.1917	-1.575	-2.175	-1.7896	-1.5583	-2.3854	-1.6812	-1.9125	-2.2812	115.803	114.122	-127.128	-137.127	-10.152	-97.065	176.757	108.473	95.482	218.882	147.068	-86.823	40.135	-97.798	160.313	164.973	0.0009218	0.0022654	0.00068198	953.53	2.4827e-05	2.832e-05	1418.6	255.55	3.491e-05	3.792e-06	502.46	167.25	69.97	25.534	2.3254e-05	84.258	0.023883	0.037302	0.010684	974.64	0.00038374	0.00042838	1354.3	263.2	0.00037762	0.00041982	526.62	171.47	86.701	30.275	0.00039591	83.971	171.608	-66.986	111.316	-124.124	-23.926	-4.552	-124.175	-121.037	-106.659	144.255	-121.207	-117.907	-117.744	-114.070	37.734	-114.316	-8191	255	
21833.877	1	1	0	0	0.071926	0.20053	0.11176	0.050316	0.21907	0.20775	0.15445	0.33847	0.30342	0.10046	0.13634	0.011464	0.1283	0.1865	0.32371	0.3415	-0.84375	-2.25	-1.7625	-1.5938	-2.1646	-1.3917	-1.8958	-2.2438	-1.3354	-2.2562	-1.9167	-1.575	-2.2417	-1.5417	-1.7313	-2.2458	193.814	-34.561	85.534	117.932	-25.424	207.117	134.924	108.720	80.375	99.209	27.362	-7.294	-20.125	180.080	137.015	-137.164	0.00040547	0.0019388	0.00072265	955.69	2.7645e-05	2.2802e-05	1428.5	259.42	6.1514e-06	2.5402e-05	507.56	169.82	71.135	25.524	3.5081e-05	84.496	0.023977	0.037984	0.010711	984.25	0.00037994	0.00042963	1357.7	265.71	0.00037576	0.00042	530.2	172.71	87.279	30.568	0.00039719	84.294	-131.444	-131.211	-38.407	-124.310	-17.887	42.517	-124.393	-121.636	102.899	-18.425	-121.665	-117.881	-117.955	-113.334	27.014	-114.650	-8191	255	
21833.973	1	1	0	0	0.19351	0.092785	0.16926	0.21454	0.079013	0.089624	0.26832	0.13011	0.30488	0.090861	0.21324	0.23847	0.28149	0.14027	0.22614	0.065161	-1.0271	-2.2146	-1.7938	-1.6479	-2.3604	-1.6354	-2.0208	-2.2396	-1.3937	-1.9354	-2.1833	-1.5271	-2.3542	-1.4937	-1.7437	-2.5104	58.105	-19.449	181.996	213.953	96.960	25.609	168.528	128.276	192.814	-92.561	11.786	102.264	-93.576	101.920	95.620	203.762	0.00090031	0.0009004	0.00059509	951.57	7.3407e-06	3.5636e-05	1424	257.95	1.0117e-05	3.9059e-05	504.81	168.25	68.764	25.042	1.3889e-05	84.066	0.023852	0.037456	0.010645	980.62	0.00037667	0.0004278	1355.6	264.68	0.00037324	0.00041914	528.26	171.09	86.179	30.274	0.00039602	83.606	172.909	-80.031	-7.997	-124.797	-11.454	-43.334	-124.634	-120.950	131.104	-37.274	-122.024	-118.478	-118.305	-113.919	-19.913	-114.804	-8191	255	
21834.068	1	1	0	0	0.15355	0.10218	0.046591	0.14645	0.20998	0.048415	0.23877	0.15199	0.28036	0.25701	0.14184	0.28513	0.14231	0.29878	0.1837	0.5535	-1.1854	-1.9771	-1.9875	-1.4271	-2.0938	-1.7833	-1.5417	-2.3333	-1.3625	-1.625	-1.9458	-1.6167	-2.0792	-1.8229	-1.4583	-2.2604	-31.311	-86.991	150.453	215.844	93.956	141.544	186.791	203.835	44.194	-23.540	206.126	-130.951	180.037	-118.280	-15.240	200.013	0.0011305	0.00057115	0.00062035	946.63	1.9862e-05	2.476e-05	1419.4	257.67	1.3807e-05	1.8538e-05	502.74	167.26	70.094	25.47	2.4814e-05	82.879	0.023645	0.037536	0.010638	973.85	0.00037311	0.00042777	1354.1	262.88	0.00036898	0.00041134	525.39	171.05	86.162	30.251	0.0003907	83.051	191.732	0.163	22.093	-124.596	164.367	-98.064	-124.450	-121.091	17.145	-5.054	-121.464	-118.266	-117.347	-114.052	61.128	-114.874	-8191	255	
21834.189	1	1	0	0	0.22021	0.22557	0.11921	0.02521	0.0062933	0.14458	0.2792	0.10532	0.18344	0.2245	0.23796	0.15374	0.035833	0.36978	0.17384	0.14825	-1.2458	-1.8896	-2.0563	-1.5792	-2.2458	-1.8708	-1.6833	-2.2854	-1.7437	-1.6708	-2.1646	-1.4771	-2.1604	-1.8792	-1.6313	-2.4917	94.662	-58.823	-77.681	190.198	-134.733	142.331	175.363	78.981	-68.282	-15.955	200.938	-115.278	160.285	101.152	-21.311	176.390	0.0015193	0.0024295	7.9186e-05	964.16	2.477e-05	1.3166e-05	1433.9	264.1	1.1292e-05	1.6942e-05	512.57	171.32	71.886	25.765	7.8373e-06	84.663	0.023492	0.037158	0.010464	984.98	0.00037435	0.00042707	1365.5	266.75	0.00037283	0.00042424	532.84	173.56	87.629	30.547	0.00039506	84.235	159.097	-42.744	116.632	-124.277	-88.681	-131.860	-124.655	-121.096	103.512	56.291	-121.881	-117.837	-118.207	-113.640	-58.981	-114.938	-8191	255	
21834.260	1	1	0	0	0.24098	0.073162	0.096028	0.12813	0.064634	0.08109	0.25073	0.28218	0.15533	0.16643	0.21609	0.34057	0.21296	0.1952	0.12101	0.15679	-1.3042	-1.725	-2.1167	-1.4042	-1.9875	-2.1104	-1.6313	-2.475	-1.7437	-1.8	-2.4021	-1.5021	-2.0917	-2.0625	-1.5083	-2.3604	90.002	-35.864	45.906	-124.845	183.570	22.695	149.416	128.641	64.876	103.949	176.791	175.482	-111.581	-118.412	5.056	-134.540	0.00079784	0.00059125	0.00053648	970.73	1.1893e-06	8.4764e-06	1433.4	261.65	1.3493e-05	3.5702e-05	509.92	169.54	70.659	25.731	1.7478e-05	84.31	0.024038	0.037814	0.010571	989.44	0.00037823	0.00043188	1368.9	266.55	0.00037641	0.00042534	530	172.6	87.153	30.474	0.00039498	83.571	170.599	-116.693	-32.962	-124.529	47.767	186.120	-124.463	-121.273	149.589	-119.180	-121.319	-118.133	-118.200	-114.149	120.654	-114.131	-8191	255	
21834.355	1	1	0	0	0.19079	0.06294	0.15261	0.40144	0.15377	0.31555	0.12335	0.28806	0.20693	0.12067	0.10967	0.22794	0.021748	0.13683	0.22608	0.25115	-1.1708	-1.4458	-2.2542	-1.6271	-1.9333	-1.9604	-1.6083	-2.2021	-1.6875	-1.4438	-2.4167	-1.6646	-1.9708	-2.2646	-1.3333	-2.2896	-6.728	176.744	146.385	211.479	94.629	-123.869	91.759	148.910	147.664	41.658	-76.504	54.224	142.398	-46.496	-86.921	162.410	0.00069212	0.0040331	0.00054623	958.61	2.0786e-05	3.0833e-05	1431.3	259.78	2.3224e-05	2.4834e-05	507.64	168.95	70.936	25.331	2.058e-05	82.965	0.023953	0.037911	0.010441	983.14	0.00037467	0.000426	1363.5	264.81	0.00037398	0.00041717	526.05	171.47	87.041	30.083	0.00038813	82.963	164.308	7.510	-43.754	-124.463	-132.023	17.116	-124.726	-120.500	-12.493	-12.643	-121.765	-118.101	-118.625	-113.308	-8.588	-114.262	-8191	255	
21834.477	1	1	0	0	0.18706	0.077657	0.23109	0.25064	0.24607	0.057761	0.47884	0.21843	0.23477	0.2197	0.27688	0.13014	0.17266	0.11017	0.13882	0.31868	-1.4146	-1.6688	-2.275	-1.6625	-1.8292	-2.2042	-1.4958	-2.1813	-2.0604	-1.6125	-2.3458	-1.7521	-1.7896	-2.3271	-1.5729	-2.1542	-96.113	-126.061	28.332	-112.313	-121.028	139.588	191.978	210.815	176.675	77.038	174.400	-14.687	-71.976	131.107	27.016	196.383	0.00080215	0.0011051	0.00026368	962.61	1.1387e-05	4.1975e-05	1417.8	262.62	3.5164e-05	4.447e-05	512.49	168.77	70.396	25.193	1.8933e-05	83.305	0.023541	0.037232	0.010198	978.18	0.00037281	0.0004198	1354.9	265.03	0.00037026	0.00041458	526.85	171.4	87.164	30.053	0.00038732	82.651	183.003	-68.992	-103.239	-124.445	-8.281	60.603	-124.194	-120.854	162.529	58.277	-121.445	-118.380	-117.019	-113.658	126.353	-114.402	-8191	255	
21834.572	1	1	0	0	0.0076993	0.22443	0.22217	0.13166	0.11047	0.10203	0.17465	0.27423	0.19425	0.11923	0.097232	0.041075	0.10978	0.28063	0.21065	0.29103	-1.5333	-1.4042	-2.1708	-1.7812	-1.6771	-2.3563	-1.9042	-2.1562	-2.0125	-1.3542	-2.3812	-2.0021	-1.7292	-2.1688	-1.3312	-2.2625	37.183	104.429	-87.476	200.045	15.308	-46.274	149.135	165.838	93.698	-27.811	19.519	154.002	163.942	-124.872	-71.102	165.956	0.00047647	0.0017065	0.00093368	969.54	1.4863e-05	6.2853e-05	1434.4	262.23	3.0155e-05	4.0058e-05	513.84	170.48	73.056	25.666	2.7041e-05	84.742	0.023942	0.037208	0.010255	989.34	0.00037672	0.00042335	1368.1	267.32	0.00037341	0.00041621	531.27	173.5	88.322	30.43	0.00039138	83.904	-136.483	-57.409	-118.303	-124.250	-3.410	-84.422	-124.691	-120.898	-46.358	16.079	-120.841	-117.952	-117.994	-113.605	-41.983	-114.163	-8191	255	
21834.668	1	1	0	0	0.064796	0.11351	0.20956	0.2168	0.23005	0.14396	0.24134	0.31581	0.33001	0.24097	0.2192	0.07895	0.075742	0.056873	0.27734	0.22656	-1.7458	-1.3312	-2.0333	-1.9792	-1.5583	-2.5312	-1.9521	-2.1646	-2.2542	-1.3979	-2.25	-1.9792	-1.6688	-2.3	-1.4458	-1.9188	50.734	-75.112	98.560	109.889	89.109	124.776	179.621	168.796	186.099	-17.868	127.730	86.586	-136.605	2.925	-33.336	113.660	0.00076879	0.0024824	0.00058705	973	2.4032e-05	3.5856e-05	1437.4	264.02	5.4452e-06	2.0122e-05	510.76	170.25	71.748	25.952	2.1532e-05	85.086	0.024114	0.037632	0.010369	995.31	0.00038076	0.00042197	1373.7	267.81	0.0003723	0.0004138	530.36	173.16	87.448	30.42	0.00038726	83.634	157.615	-63.168	-32.750	-124.694	-53.223	-72.076	-124.479	-120.517	84.875	-105.686	-121.234	-118.512	-118.166	-113.715	-64.114	-114.279	-8191	255	
21834.766	1	1	0	0	0.31977	0.074487	0.22367	0.21284	0.04465	0.11599	0.48008	0.087788	0.15313	0.16278	0.085192	0.35876	0.11093	0.08017	0.075084	0.13843	-1.6542	-1.5396	-2.0604	-2.1896	-1.6417	-2.3229	-2.0271	-1.7188	-2.3271	-1.5396	-2.1937	-2.2667	-1.6104	-2.2375	-1.6812	-1.7979	214.991	118.148	-130.526	215.164	-113.454	180.928	128.035	160.008	149.016	167.612	84.015	187.035	64.410	-121.488	209.736	154.831	0.00096252	0.00094153	0.00041175	966.08	1.4589e-05	3.0206e-05	1440	262.39	2.9988e-05	9.6353e-06	506.69	168.96	70.624	25.819	4.7455e-06	83.728	0.023673	0.036764	0.010215	987.93	0.00037407	0.00041164	1364.7	266.14	0.00036679	0.00041119	525.61	171.77	86.587	29.967	0.00038897	82.675	177.363	-30.188	-89.924	-124.693	29.364	13.448	-124.360	-120.815	15.532	131.652	-121.457	-117.818	-117.776	-114.091	131.092	-114.673	-8191	255	
21834.859	1	1	0	0	0.18438	0.20592	0.266	0.36365	0.12793	0.21988	0.059323	0.25204	0.037137	0.15785	0.064963	0.11886	0.14846	0.084806	0.17673	0.31989	-2.1688	-1.4417	-2.0438	-2.1604	-1.4167	-2.3187	-1.8396	-1.7563	-2.4104	-1.675	-2.1271	-2.2938	-1.7229	-2.3688	-1.8521	-1.7208	8.375	-127.485	-117.760	181.327	-2.011	-11.499	119.415	126.149	-42.751	208.559	-100.526	79.621	194.584	172.922	117.690	117.928	0.00067003	0.001296	0.00033604	965.79	1.5787e-05	4.5982e-05	1419	260.52	1.3911e-05	2.6039e-05	503.24	169.13	71.333	25.674	2.624e-05	84.07	0.023324	0.03684	0.010221	985.84	0.00037311	0.00041574	1359.7	266.06	0.00037065	0.00041391	526.22	171.31	87.311	30.166	0.00039494	83.573	170.103	-4.862	122.270	-124.696	-95.935	56.130	-124.591	-121.072	6.932	-48.715	-121.620	-118.194	-118.101	-113.586	-13.779	-114.310	-8191	255	
21834.955	1	1	0	0	0.045066	0.13655	0.19031	0.24028	0.27797	0.19978	0.3253	0.21091	0.23132	0.21469	0.18276	0.34588	0.11474	0.22527	0.10854	0.074247	-1.8396	-1.4062	-1.8292	-2.35	-1.525	-2.0958	-1.9979	-1.6	-2.2729	-1.8875	-1.8479	-2.2938	-1.6083	-2.2083	-2.0292	-1.675	90.832	147.447	58.065	88.505	166.488	-6.886	174.632	71.171	105.196	191.539	-101.983	206.710	165.725	123.415	-114.386	44.117	0.00096724	0.0014065	0.00043556	980.52	2.1922e-05	1.37e-05	1444.7	263.94	2.3331e-05	3.0664e-05	522.08	171.85	72.808	26.088	1.7672e-05	86.127	0.02349	0.037204	0.01037	998.2	0.00037377	0.0004132	1375.3	268.16	0.00036521	0.00041809	534.09	173.95	88.204	30.542	0.00038626	84.724	151.408	215.570	92.666	-124.190	-79.747	-8.221	-124.452	-120.773	102.448	-51.776	-121.639	-117.988	-118.339	-113.801	99.194	-114.282	-8191	255	
21835.076	1	1	0	0	0.069848	0.26066	0.28959	0.16457	0.18651	0.25969	0.17521	0.22286	0.27189	0.069579	0.25566	0.12114	0.18284	0.12242	0.34112	0.33707	-1.8667	-1.6542	-1.8979	-2.2604	-1.4875	-2.0875	-2.2313	-1.5354	-2.1917	-1.6833	-1.8	-2.45	-1.6521	-2.2271	-1.8354	-1.6396	131.150	-43.779	49.692	-93.732	112.485	187.669	189.030	95.434	197.673	41.327	-45.996	125.911	32.719	131.634	-70.821	142.867	0.00047879	0.0010487	0.00027342	976.2	1.192e-05	1.172e-05	1445	266.53	1.0088e-05	8.9411e-06	513.35	172.19	72.112	26.284	6.8821e-06	86.327	0.023233	0.037089	0.01038	996.32	0.00037153	0.0004139	1377.5	270.4	0.00036505	0.00041167	534.16	174.12	87.989	30.65	0.00038754	84.695	200.574	-38.702	-83.260	-124.400	-28.565	-97.972	-124.648	-120.758	69.065	-133.197	-121.540	-118.306	-117.958	-112.506	125.210	-114.705	-8191	255	
21835.174	1	1	0	0	0.25184	0.29183	0.28265	0.38776	0.12609	0.16341	0.20677	0.21509	0.10568	0.20084	0.045559	0.18689	0.30289	0.026102	0.19592	0.27747	-1.7208	-1.825	-1.6833	-2.4688	-1.6021	-2.05	-2.1958	-1.6812	-2.0896	-1.9188	-1.7458	-2.4437	-1.6729	-1.9354	-1.9729	-1.3917	-56.729	-11.529	127.853	185.496	-10.933	99.223	144.177	-111.245	14.046	136.893	5.771	-89.499	210.482	-5.945	-36.431	89.040	0.00092875	0.0010501	0.00015376	976.25	1.499e-05	2.6056e-05	1445.2	264.6	8.8157e-06	1.0562e-05	510.63	170.45	71.995	25.868	1.5216e-05	84.492	0.022999	0.03705	0.010198	988.34	0.00036948	0.00040995	1371	267.66	0.00035729	0.00040963	530.3	172.65	87.296	30.268	0.00038147	83.722	153.663	176.590	142.094	-124.149	70.562	-72.410	-124.220	-120.704	-28.639	-76.952	-121.356	-117.886	-117.881	-113.554	-78.434	-114.729	-8191	255	
21835.270	1	1	0	0	0.07543	0.24898	0.071659	0.1008	0.165	0.1769	0.24114	0.46634	0.17267	0.11923	0.22327	0.22731	0.12083	0.2771	0.19525	0.2963	-1.7313	-1.9542	-1.4188	-2.6437	-1.5187	-1.8396	-2.3146	-1.5063	-2.175	-1.8354	-1.7	-2.4583	-1.7354	-1.725	-1.9208	-1.6417	110.933	-5.075	-60.315	-27.174	91.038	-29.978	148.577	154.826	134.707	-30.576	187.052	164.937	193.734	203.771	166.709	193.111	0.0010519	0.00061604	0.0014598	971.07	1.4687e-05	2.4948e-05	1443.8	264.48	1.7016e-05	1.3956e-05	517.67	171.32	71.996	26.163	2.0746e-05	85.455	0.022854	0.036604	0.010202	985.73	0.00036709	0.00041053	1370.3	267.19	0.00035687	0.00041269	530.94	172.84	87.465	30.538	0.0003822	83.962	169.257	181.647	-59.027	-124.595	41.315	-46.176	-124.853	-121.199	-98.200	77.140	-121.601	-117.837	-117.532	-112.592	35.559	-114.450	-8191	255	
21835.365	1	1	0	0	0.14068	0.26458	0.031657	0.2008	0.076892	0.16171	0.27427	0.19017	0.20937	0.19873	0.11694	0.16697	0.1052	0.129	0.1289	0.11065	-1.6688	-2.0875	-1.5458	-2.4146	-1.6917	-1.8417	-2.3729	-1.4896	-1.9292	-2.0208	-1.5229	-2.3104	-1.8917	-1.6896	-2.4479	-1.6458	188.711	-63.523	202.921	195.888	114.485	129.160	132.704	199.512	115.633	42.128	161.333	209.049	179.559	54.638	116.201	174.617	0.00056463	0.00063088	0.00057474	983.62	1.4037e-05	6.3723e-06	1455.8	266.25	2.2249e-05	1.1532e-05	521.53	172.56	72.947	26.319	3.2052e-05	85.986	0.022965	0.036802	0.010151	998.19	0.00037219	0.00041585	1381.7	269.62	0.00036554	0.00041444	537.37	174.72	88.6	30.938	0.00038905	84.977	213.968	-138.254	67.716	-124.142	-26.633	-60.251	-124.329	-120.954	-118.000	-120.059	-121.225	-118.344	-118.004	-113.053	11.159	-114.761	-8191	255	
21835.486	1	1	0	0	0.16896	0.12149	0.13178	0.35135	0.17477	0.13317	0.3387	0.033037	0.1555	0.17144	0.066027	0.33852	0.053236	0.17732	0.14397	0.102	-1.5625	-2.0812	-1.3813	-2.1771	-1.8604	-1.6583	-2.4417	-1.6333	-1.8229	-2.1979	-1.3542	-2.4896	-1.8438	-1.7021	-2.2313	-1.8229	58.139	96.439	-117.546	-107.731	155.112	130.581	196.156	8.475	143.355	147.778	-99.405	162.491	-128.078	-137.981	-126.647	161.694	0.00099167	0.0013617	0.00028568	984.98	1.8968e-05	2.6634e-05	1447.6	264.69	2.41e-06	1.1806e-05	512.58	171.39	72.37	25.924	2.981e-05	84.696	0.023443	0.037435	0.010313	998.73	0.00038107	0.00042035	1377.9	270.04	0.00036919	0.00042235	531.73	173.96	88.103	30.725	0.00038662	84.203	174.056	-113.119	-115.296	-124.108	-60.324	-54.334	-124.465	-120.918	81.715	-10.749	-121.246	-117.811	-117.933	-112.875	64.863	-114.097	-8191	255	
21835.557	1	1	0	0	0.10851	0.10992	0.23876	0.39741	0.3876	0.17814	0.45506	0.32869	0.17195	0.050385	0.3041	0.23592	0.24081	0.12092	0.090231	0.3576	-1.5917	-2.1875	-1.4729	-2.2917	-2.0229	-1.4333	-2.2521	-1.5229	-1.7125	-2.1854	-1.6437	-2.0333	-2.0646	-1.3354	-2.2708	-2.0812	-93.944	153.177	-43.145	164.167	115.327	44.329	150.387	129.229	-94.911	-106.193	184.144	143.364	77.645	-136.784	60.311	218.567	0.00066678	0.0017258	0.00080547	969.25	1.6916e-05	2.6013e-05	1435.7	264.12	2.2708e-05	2.8527e-05	512.28	170.22	71.222	25.86	1.7609e-05	84.247	0.023756	0.037362	0.010427	990.81	0.00037946	0.00042624	1369.3	268.33	0.00037282	0.00041495	529.61	172.39	87.581	30.403	0.00038319	83.665	160.895	87.846	-125.170	-124.378	196.510	8.652	-124.472	-120.910	16.450	90.425	-121.431	-117.993	-118.102	-113.715	9.947	-114.484	-8191	255	
21835.654	1	1	0	0	0.1581	0.14038	0.090042	0.34973	0.11519	0.26753	0.30488	0.36401	0.22002	0.20913	0.1619	0.1629	0.10636	0.050298	0.070526	0.22912	-1.2625	-2.3	-1.4854	-2.0583	-2.05	-1.5146	-2.5042	-1.8396	-1.6125	-2.4313	-1.7229	-1.9333	-2.2896	-1.6771	-2.2125	-2.0687	71.853	92.467	35.755	191.645	-48.618	-27.259	195.971	46.006	41.547	96.620	52.843	154.055	-96.780	163.011	160.922	96.388	0.00078227	0.00021785	0.00055267	973.1	2.92e-05	4.7515e-05	1441.6	261.55	2.7423e-05	2.7341e-05	512.85	169.71	71.421	25.889	2.3601e-05	84.38	0.023557	0.03726	0.010398	992.9	0.0003787	0.00042271	1372	268.53	0.00037311	0.00041972	532.38	173.3	88.387	30.7	0.00038979	84.566	169.663	-52.369	-77.258	-124.986	-91.697	102.528	-124.552	-120.856	5.228	138.154	-121.278	-118.014	-117.790	-113.533	-90.871	-114.420	-8191	255	
21835.748	1	1	0	0	0.060415	0.2387	0.28375	0.056208	0.22596	0.26973	0.24989	0.1133	0.30136	0.11451	0.097733	0.16036	0.34161	0.30268	0.1129	0.031473	-1.0229	-2.2646	-1.5542	-1.875	-2.2729	-1.2979	-2.4292	-2	-1.5979	-2.3104	-1.6187	-1.8083	-2.0896	-1.5604	-2.1479	-2.1458	115.053	106.347	6.651	57.924	62.316	199.683	159.332	-103.098	90.147	-138.368	-103.772	204.430	205.650	191.407	156.254	149.900	0.00055635	0.001325	0.00035076	985.48	9.3299e-06	2.9374e-05	1457.7	265.43	2.5734e-05	2.8046e-05	519.76	171.73	71.955	25.71	1.3115e-05	85.14	0.023972	0.037415	0.010516	1002.3	0.00038079	0.00042121	1383.5	271.13	0.00037449	0.00041969	537.81	174.52	88.303	30.559	0.00038913	84.555	153.551	128.375	88.966	-124.087	53.834	40.162	-124.793	-121.121	-83.742	-36.761	-121.447	-118.104	-118.440	-113.926	-94.919	-114.321	-8191	255	
21835.869	1	1	0	0	0.20812	0.11513	0.163	0.14714	0.13702	0.077613	0.20371	0.19421	0.14226	0.046095	0.2437	0.1366	0.23327	0.1813	0.031834	0.1173	-1.1625	-2.2042	-1.4271	-1.7062	-2.3521	-1.3667	-2.1875	-2.1896	-1.4667	-2.4042	-1.8438	-1.75	-2.2271	-1.7938	-1.9042	-2.2042	-125.514	-51.108	59.154	-108.358	22.416	14.650	156.584	200.100	71.190	-71.908	147.913	-133.388	-137.645	171.422	-20.409	191.241	0.00069829	0.0014847	0.00064922	976.85	2.0278e-05	1.9968e-05	1442.3	262.82	1.351e-05	1.4573e-05	512.65	169.54	71.485	25.609	3.0893e-05	84.178	0.023776	0.037173	0.010551	999.01	0.0003826	0.00042661	1374.3	269.05	0.00037441	0.00041414	532.89	173.66	87.645	30.378	0.00039069	83.789	214.011	119.052	-36.179	-124.246	62.966	49.298	-124.345	-120.959	-71.474	26.565	-121.619	-117.725	-117.893	-113.111	17.435	-114.545	-8191	255	
21835.965	1	1	0	0	0.15621	0.11148	0.39284	0.21087	0.24772	0.2009	0.2283	0.0044778	0.087542	0.083475	0.19896	0.19646	0.3843	0.042599	0.099307	0.078274	-1.0146	-2.0646	-1.7417	-1.6688	-2.1854	-1.525	-2.075	-2.1625	-1.4208	-2.2729	-2.0604	-1.5146	-2.2687	-1.5104	-1.9708	-2.2542	163.961	-117.473	209.705	210.090	50.883	66.505	150.778	66.898	114.888	46.156	143.689	212.617	-85.141	39.357	163.964	112.210	0.00066565	0.0023433	0.00087131	972.08	2.6395e-05	1.732e-05	1443.7	261.11	1.0079e-05	2.9499e-05	508.93	169.44	71.249	25.384	2.1504e-05	83.318	0.02381	0.037129	0.010517	995.49	0.00037994	0.00041937	1373.1	266.71	0.00037011	0.00041108	527.94	171.51	87.049	29.984	0.00038561	82.33	167.145	192.868	-124.677	-124.439	166.823	118.345	-124.333	-121.147	27.774	50.859	-122.181	-117.679	-117.727	-113.845	143.817	-114.610	-8191	255	
21836.061	1	1	0	0	0.021812	0.10067	0.19441	0.09663	0.21097	0.097933	0.27602	0.084055	0.16545	0.1536	0.094869	0.19196	0.24232	0.21679	0.31081	0.22063	-1.0479	-1.9854	-1.8292	-1.4146	-2.1813	-1.7333	-2.0125	-2.225	-1.5167	-2.2542	-2.1583	-1.9083	-2.2875	-1.7958	-1.7188	-2.4562	-133.096	-31.070	-47.550	189.928	147.420	182.110	188.517	-122.500	-44.681	-45.706	212.600	194.263	195.082	-112.035	-132.817	209.483	0.00075618	0.0014102	0.00032734	971.39	1.7053e-05	2.096e-05	1438.2	263.4	9.6809e-06	2.4113e-05	507.04	170.26	71.536	25.399	5.3018e-05	82.586	0.023346	0.036238	0.010243	989.01	0.00036693	0.00041128	1372.3	267.24	0.00036398	0.00040506	528.34	171.55	86.672	29.882	0.00037728	82.417	134.951	-57.843	57.381	-124.378	154.606	-113.992	-124.408	-121.143	-47.006	179.902	-121.646	-117.980	-117.462	-113.535	-40.989	-114.452	-8191	255	
21836.156	1	1	0	0	0.068581	0.25771	0.27879	0.095104	0.060791	0.10311	0.088975	0.31277	0.29587	0.3565	0.25426	0.17938	0.11247	0.061879	0.0016	0.1231	-0.95625	-2.175	-2.0062	-1.7354	-2.3021	-1.7917	-1.6792	-2.3667	-1.5187	-1.8979	-2.2125	-1.5938	-2.225	-1.8708	-1.4771	-2.3521	29.358	-88.360	-65.425	196.338	196.061	102.304	134.358	137.792	52.337	199.538	-126.435	-86.749	57.211	177.402	180.000	-110.235	0.00092369	0.00054477	0.00024025	976.7	2.0041e-05	3.7666e-06	1445.6	261.76	1.1772e-05	1.5352e-05	512.55	168.82	70.948	25.601	9.3639e-06	83.06	0.022829	0.035681	0.010195	988.97	0.00035831	0.00040977	1370	266.47	0.00035995	0.00040393	530.32	171.38	86.474	30.031	0.00037923	82.276	196.288	-34.120	62.439	-124.026	15.092	-131.670	-124.646	-120.933	206.673	218.415	-121.254	-117.409	-117.202	-112.865	-9.997	-114.433	-8191	255	
21836.254	1	1	0	0	0.1269	0.19768	0.14148	0.23968	0.14694	0.027798	0.39385	0.088342	0.17348	0.25747	0.13702	0.23589	0.15666	0.24846	0.062585	0.24239	-1.1729	-1.85	-2.0875	-1.6646	-2.1146	-1.9396	-1.6625	-2.4146	-1.5771	-2.1188	-2.3875	-1.5167	-2.1188	-1.9854	-1.4	-2.5083	176.783	-96.853	178.662	214.856	55.074	24.031	168.124	-109.979	-56.180	87.907	-134.920	135.944	-77.827	153.371	167.955	140.309	0.00083228	0.0015051	0.00042044	968.83	1.8444e-05	1.7818e-05	1429.2	261.56	8.2296e-06	2.6647e-05	507.76	168.44	71.17	25.043	9.4199e-06	81.573	0.022739	0.035943	0.01006	981.65	0.00035285	0.00040287	1358.5	264.34	0.00035172	0.00039577	522.72	169.09	85.356	29.46	0.00037172	80.721	171.075	-11.332	-11.585	-124.486	-131.244	-26.408	-124.435	-120.998	97.855	-93.343	-121.440	-117.958	-118.355	-113.688	-2.235	-114.458	-8191	255	
21836.350	1	1	0	0	0.063487	0.085835	0.24374	0.27365	0.22311	0.14273	0.31827	0.063502	0.11072	0.049198	0.36955	0.13497	0.16204	0.32574	0.09989	0.17262	-1.2521	-1.8813	-2.3125	-1.5146	-1.8917	-2.0229	-1.7521	-2.35	-1.5562	-1.7188	-2.35	-1.6979	-2.2021	-2.0896	-1.4854	-2.2938	210.199	42.866	-28.411	-76.576	32.381	187.340	146.181	-105.636	186.176	-40.959	171.523	151.469	209.761	-121.696	23.545	218.190	0.00094718	0.0016991	0.00022178	957.61	1.4771e-05	2.6473e-05	1441.2	260.94	7.1225e-06	2.9941e-05	497.94	166.36	70.15	24.876	8.1025e-06	80.314	0.02257	0.035467	0.0099306	974.51	0.00035414	0.00040665	1359.2	262.67	0.00035336	0.00039752	521.1	167.94	84.974	29.19	0.00037518	80.04	169.101	-10.065	201.936	-124.185	149.237	162.268	-124.149	-120.596	45.567	-24.205	-121.613	-118.114	-117.784	-113.655	-27.861	-114.353	-8191	255	
21836.445	1	1	0	0	0.056475	0.19112	0.14305	0.23341	0.21685	0.15483	0.11309	0.20475	0.09994	0.18847	0.12796	0.30773	0.12797	0.035494	0.10012	0.31013	-1.4396	-1.7062	-2.3292	-1.5479	-2.0417	-2.1354	-1.7146	-2.1854	-1.7354	-1.5375	-2.3688	-1.725	-2.1833	-2.3479	-1.5958	-2.3125	-131.281	-110.591	-2.705	199.297	0.426	-128.347	130.543	67.651	68.551	183.025	-53.910	160.971	-101.946	158.325	153.704	180.444	0.00053109	0.0016038	0.00055776	962.02	2.1363e-05	2.5943e-05	1423.8	261.62	1.236e-05	1.116e-05	507.84	167.06	70.601	24.743	4.221e-05	81.972	0.022784	0.035892	0.0099129	976.14	0.00035966	0.00040939	1355.2	262.53	0.00035746	0.00039909	524.07	168.56	85.729	29.366	0.00037417	81.04	161.772	-94.522	198.390	-124.676	-42.242	65.775	-124.555	-121.073	-125.311	-10.826	-121.576	-118.199	-117.738	-113.212	-41.058	-114.518	-8191	255	
21836.566	1	1	0	0	0.2787	0.46531	0.17371	0.10393	0.28098	0.17524	0.15662	0.1797	0.11756	0.13592	0.2664	0.070443	0.22073	0.0662	0.20363	0.24777	-1.3146	-1.5208	-2.3146	-1.9292	-2.0021	-2.1708	-1.6125	-2.0917	-1.925	-1.5875	-2.4833	-1.7854	-1.8729	-2.2313	-1.5708	-2.1354	144.741	68.166	-67.329	-133.257	190.623	104.749	-132.790	146.902	129.585	16.272	178.237	-79.431	-70.995	49.579	88.644	194.927	0.00082656	0.0018327	0.00043762	966.44	2.9865e-05	2.5495e-05	1432.8	261.27	2.2735e-05	1.5433e-05	509.63	168.62	69.596	24.796	4.3211e-05	81.228	0.022917	0.035853	0.0099699	978.32	0.00036388	0.00040905	1357.6	263.03	0.00035988	0.00040236	523.68	168.83	85.172	29.342	0.00037766	80.467	182.013	82.331	34.935	-124.590	-45.867	79.518	-123.997	-120.664	-77.905	22.486	-121.301	-118.154	-117.478	-113.023	25.383	-114.464	-8191	255	
21836.660	1	1	0	0	0.27452	0.13634	0.32755	0.42652	0.14128	0.19584	0.32912	0.27827	0.12567	0.10914	0.11347	0.079581	0.19049	0.15597	0.065076	0.31863	-1.5333	-1.5187	-2.3312	-1.6479	-1.7792	-2.3979	-1.5917	-2.0396	-2.2167	-1.4875	-2.4792	-1.7521	-1.6812	-2.4667	-1.5875	-2.0542	-100.647	37.985	220.692	172.768	161.825	9.089	96.312	176.960	161.294	-87.857	151.711	-107.441	192.327	195.204	5.144	145.481	0.00065171	0.0003013	0.00060532	959.09	6.8769e-06	4.4192e-05	1432.3	258.2	3.114e-06	5.1093e-05	506.68	164.93	69.156	24.509	3.2398e-05	80.977	0.022992	0.036009	0.0098908	974.43	0.00036227	0.00040374	1354.9	261.91	0.00035896	0.00039714	518.6	167.58	84.887	29.069	0.00037232	80.194	167.916	55.015	140.704	-124.662	-34.878	41.681	-124.427	-120.741	133.890	10.401	-121.269	-118.357	-118.053	-113.273	12.806	-114.307	-8191	255	
21836.758	1	1	0	0	0.10013	0.15098	0.14006	0.059054	0.30143	0.25197	0.19621	0.31303	0.033259	0.18552	0.015095	0.17573	0.083287	0.11774	0.12977	0.21714	-1.8854	-1.4729	-2.175	-2.0646	-1.475	-2.1937	-1.7854	-1.7896	-2.1792	-1.6896	-2.2479	-1.8854	-1.6125	-2.2521	-1.5458	-2.0687	118.911	-85.387	77.843	-118.826	126.678	56.662	131.255	219.074	97.399	200.312	-63.890	209.542	-33.651	97.065	41.896	108.112	0.00096663	0.0013744	0.00063839	957.65	1.9551e-05	4.4685e-05	1420.2	258.95	1.6923e-05	3.2786e-06	503.01	168.45	70.229	24.837	2.8715e-05	80.895	0.022927	0.035779	0.0099058	976.43	0.00036177	0.00040011	1349	261.83	0.00035619	0.00039955	518.3	169.77	85.406	29.213	0.00037516	80.702	181.995	-74.862	174.220	-124.200	-39.222	68.665	-124.509	-120.736	-23.551	-97.626	-121.256	-117.924	-117.540	-113.159	-16.468	-114.088	-8191	255	
21836.854	1	1	0	0	0.070708	0.14911	0.30751	0.24304	0.074081	0.073134	0.20369	0.18992	0.1037	0.28526	0.32164	0.2618	0.32043	0.21967	0.12358	0.11259	-1.725	-1.5	-2.1854	-2.0854	-1.5562	-2.3646	-1.675	-1.8479	-2.3063	-1.3958	-2.225	-2.0771	-1.4208	-2.3646	-1.8979	-2.0687	42.317	212.132	-29.550	175.752	-4.081	-1.919	165.274	65.903	146.605	57.570	181.271	-50.301	158.746	174.044	128.215	158.585	0.0012709	0.001706	0.0007983	957.94	2.1825e-05	4.1394e-05	1432.5	260.9	3.4199e-06	2.7372e-05	505.69	168.13	71.002	25.253	8.6597e-06	82.408	0.022996	0.036016	0.0099272	979.41	0.00036158	0.00040406	1358.9	264.38	0.00036198	0.00040427	523.66	170.59	86.314	29.587	0.00038637	81.942	157.240	-126.320	16.190	-124.572	-23.376	-86.663	-124.549	-120.389	59.856	138.488	-121.352	-117.709	-117.682	-113.124	79.049	-114.476	-8191	255	
21836.949	1	1	0	0	0.079535	0.15536	0.1305	0.1562	0.29175	0.33797	0.075018	0.098764	0.2303	0.12257	0.11754	0.21442	0.11322	0.13004	0.22313	0.19831	-1.8	-1.4146	-1.8375	-2.3312	-1.3333	-2.3542	-1.8542	-1.6417	-2.2479	-1.1896	-2.1562	-2.1583	-1.4896	-2.5333	-1.6771	-1.7062	-37.823	167.511	-106.154	76.278	137.420	183.364	201.499	181.211	99.190	-38.734	161.541	-77.997	-112.293	-136.855	113.830	137.601	0.0010092	0.0010761	0.00096521	968.03	6.6245e-06	6.1284e-06	1435.9	261.79	1.3007e-05	1.7624e-05	509.98	168.59	70.105	25.334	2.8675e-05	81.922	0.023423	0.036154	0.010108	984.19	0.00036646	0.00040218	1361.8	265.95	0.00035427	0.00040002	524.97	170.33	86.029	29.568	0.00037985	81.457	159.093	86.527	10.810	-124.216	-7.853	173.779	-124.402	-120.927	-8.847	181.023	-121.563	-117.969	-117.813	-113.590	56.579	-113.998	-8191	255	
21837.045	1	1	0	0	0.4121	0.12357	0.25852	0.37833	0.094016	0.092037	0.064122	0.3197	0.11525	0.1666	0.13253	0.15167	0.1869	0.23054	0.10541	0.1584	-1.9146	-1.5958	-1.9792	-2.3167	-1.3667	-2.2313	-1.8521	-1.5625	-2.1958	-1.4708	-1.9458	-2.2958	-1.4354	-2.4167	-1.9292	-1.6625	-27.783	-56.729	38.853	206.555	-39.239	-39.589	-116.478	184.500	187.468	105.081	114.598	-68.125	159.274	212.808	-2.346	-130.962	0.00080644	0.0021872	0.00077032	957.03	5.3305e-06	2.696e-05	1421.7	259.05	2.1739e-05	2.4855e-05	503.19	167.19	71.062	25.199	1.4325e-05	81.82	0.023167	0.036465	0.010095	979.66	0.00036593	0.00041016	1356.4	263.13	0.00035826	0.00040616	522.07	169.21	85.915	29.343	0.00037997	81.088	153.886	-20.957	27.972	-124.254	-74.621	5.827	-124.176	-120.838	-92.576	-25.703	-121.571	-118.324	-117.904	-113.676	-86.636	-114.237	-8191	255	
21837.166	1	1	0	0	0.047594	0.081895	0.11401	0.25256	0.044405	0.15734	0.2191	0.16184	0.13134	0.19822	0.16279	0.22559	0.29958	0.099006	0.34421	0.25218	-1.7687	-1.6125	-1.6833	-2.2188	-1.3292	-2.15	-2.1396	-1.6146	-2.1125	-1.6667	-1.8354	-2.2708	-1.5354	-1.8979	-1.9708	-1.5042	40.588	195.968	-88.599	137.305	-123.518	34.884	123.452	210.883	47.310	172.831	172.524	179.784	177.000	181.120	-14.607	207.499	0.00053197	0.0020967	0.00035585	964.11	1.89e-05	1.7052e-05	1426.2	259.79	2.6212e-05	3.0614e-05	510	168.76	69.971	25.085	2.4798e-05	81.748	0.022612	0.036242	0.010078	979.25	0.00036706	0.00040768	1356.6	263.96	0.00036196	0.00041128	525.86	171	86.239	29.666	0.0003964	81.64	147.867	2.618	-67.481	-124.170	14.678	66.302	-124.026	-120.825	151.504	-0.971	-121.081	-117.741	-117.573	-113.495	33.977	-114.207	-8191	255	
21837.262	1	1	0	0	0.049181	0.1614	0.17742	0.42731	0.024302	0.3024	0.38123	0.26462	0.15033	0.059426	0.10592	0.48273	0.1004	0.23802	0.1188	0.14787	-1.7729	-1.7521	-1.4875	-2.3229	-1.4312	-2.0687	-2.2125	-1.4479	-2.2729	-1.8271	-1.6458	-2.4167	-1.5812	-2.0958	-2.0875	-1.5708	150.326	-31.491	-124.614	204.963	-44.545	-14.976	152.267	121.112	41.894	157.837	161.517	191.367	-114.038	-123.853	161.429	173.196	0.00065166	0.0015731	0.00066146	969.99	3.0196e-05	4.3469e-05	1440.2	262.88	1.0305e-05	1.6441e-05	514.01	169.9	71.27	25.593	2.1888e-05	82.961	0.023178	0.037163	0.010345	990.58	0.00037168	0.00041574	1376.3	267.24	0.00036203	0.00041782	531.01	172.55	87.094	30.143	0.00039108	82.527	125.042	-112.269	130.457	-123.922	-14.933	-0.119	-124.385	-120.678	27.151	213.745	-121.174	-117.439	-117.631	-112.590	94.374	-114.576	-8191	255	
21837.357	1	1	0	0	0.10745	0.069898	0.041816	0.23465	0.24182	0.13607	0.18018	0.042002	0.040353	0.28116	0.2367	0.071208	0.18645	0.095119	0.040779	0.18909	-1.7833	-1.9312	-1.5021	-2.5417	-1.4146	-2.0146	-2.2313	-1.5167	-2.1542	-1.8417	-1.6271	-2.1437	-1.5042	-2.1042	-2.0875	-1.4896	46.786	37.675	107.441	177.745	198.811	-1.651	112.807	219.637	32.987	168.821	53.054	127.494	-138.335	-87.566	135.951	174.971	0.00094232	0.0001869	0.00044629	978.07	1.9033e-05	2.6684e-05	1446.1	260.31	5.9898e-06	3.0054e-05	508.4	167.93	69.715	24.574	8.4237e-06	81.326	0.023484	0.037792	0.010483	993.94	0.00037429	0.00042179	1374.8	265.47	0.00036634	0.00042382	527.67	170.21	86.287	29.627	0.0003908	80.703	190.420	-99.352	177.228	-123.942	-62.189	114.527	-124.211	-120.554	81.855	-107.932	-120.966	-117.887	-117.624	-112.913	-77.434	-114.396	-8191	255	
21837.430	1	1	0	0	0.092194	0.27027	0.1732	0.21792	0.039205	0.19668	0.12377	0.027998	0.2529	0.28011	0.2409	0.25564	0.1318	0.17331	0.16262	0.39236	-1.7896	-1.8167	-1.475	-2.1458	-1.5833	-1.7	-2.4479	-1.5646	-2.0042	-2.2833	-1.4833	-2.3729	-1.7854	-1.6562	-2.3083	-1.7667	-42.691	-128.444	122.349	-79.199	-106.860	157.004	206.230	101.735	190.156	207.665	218.059	-109.147	194.268	187.242	-108.923	191.932	0.00064349	0.0027781	0.0010283	969.5	6.0709e-06	4.0424e-06	1422.9	257.44	9.9993e-06	2.0946e-05	506.89	166.42	69.872	24.525	2.6773e-05	80.079	0.023374	0.037355	0.010336	984.32	0.00037406	0.0004207	1354.9	262.57	0.00036448	0.00042219	523.19	168.87	85.983	29.145	0.00038674	79.978	134.684	20.816	160.714	-124.122	153.334	-119.908	-123.824	-120.660	-67.196	42.522	-121.350	-117.749	-117.673	-113.647	-128.403	-114.500	-8191	255	
21837.551	1	1	0	0	0.15916	0.23935	0.10617	0.039404	0.12264	0.041693	0.3389	0.16851	0.043987	0.17928	0.070317	0.23028	0.2148	0.016834	0.26315	0.33763	-1.3854	-2.1271	-1.3333	-2.2479	-1.7208	-1.5417	-2.6875	-1.4458	-1.7792	-2.0542	-1.7188	-2.2771	-1.8604	-1.6229	-2.3354	-1.8229	52.365	-112.103	213.261	-114.650	-83.555	-106.504	199.870	197.265	200.235	86.874	44.034	118.181	-22.449	-55.171	65.230	172.232	0.00077466	0.001691	0.00054013	960.64	1.1189e-05	2.5227e-05	1425.4	256.7	1.5642e-05	8.2201e-06	506.23	167.41	71.156	24.913	2.7208e-05	81.415	0.02306	0.037208	0.010224	976.56	0.00037412	0.00041631	1357.3	262.59	0.00036257	0.0004131	524.85	169.16	86.312	29.424	0.00038121	80.83	174.118	-126.559	-67.467	-124.135	-119.861	-46.785	-124.456	-120.235	-58.832	62.099	-121.426	-118.012	-117.816	-113.509	-52.160	-114.673	-8191	255	
21837.645	1	1	0	0	0.052651	0.1366	0.064153	0.14778	0.07217	0.22137	0.21623	0.14843	0.10727	0.19135	0.28673	0.24048	0.028927	0.1432	0.25626	0.18296	-1.2521	-2.1896	-1.4979	-2.3292	-1.9417	-1.5604	-2.5438	-1.5938	-1.8667	-2.3229	-1.6333	-2.0354	-2.1146	-1.3792	-2.1958	-1.4958	-39.532	-138.166	65.675	-36.901	100.841	62.764	138.492	143.015	-2.464	112.156	160.616	161.580	191.692	-120.725	-124.415	175.294	0.00050914	0.0010269	0.0011044	971.51	2.0508e-05	1.2131e-05	1435.3	261.9	2.7357e-05	2.8092e-05	513.37	168.99	70.956	25.117	1.5819e-05	82.217	0.023442	0.037257	0.010288	988.01	0.00037788	0.00042099	1369.8	265.89	0.00037044	0.00041702	529.57	170.57	87.105	29.665	0.00037907	81.503	168.525	-37.957	-22.354	-124.460	-95.650	-56.548	-124.324	-121.055	-74.963	38.148	-121.300	-117.999	-118.154	-113.113	25.130	-114.517	-8191	255	
21837.740	1	1	0	0	0.11717	0.039707	0.25375	0.40054	0.19675	0.2227	0.17494	0.21752	0.2538	0.29781	0.2171	0.13529	0.080851	0.15714	0.26347	0.17901	-1.2625	-2.1083	-1.3583	-2.1333	-2.0542	-1.3542	-2.3167	-1.8771	-1.6979	-2.3479	-1.6646	-2.0375	-2.1188	-1.3833	-2.1646	-1.8583	58.816	73.650	72.374	192.992	65.833	19.803	214.124	-28.494	174.483	5.399	-85.010	212.707	87.082	155.339	-119.044	133.836	0.0005694	0.00053409	0.0007851	986.1	2.5731e-05	2.9843e-05	1446.2	264.12	1.0954e-05	8.2605e-06	508.25	168.74	70.332	25.132	2.7197e-05	81.198	0.023277	0.036652	0.010127	992.13	0.00037032	0.00041284	1367.1	265.84	0.00036046	0.00040227	522.58	170.01	86.503	29.485	0.00037251	80.373	145.985	-98.779	-21.764	-124.112	-57.046	53.084	-124.275	-121.280	89.750	60.201	-121.900	-117.397	-117.800	-112.737	-3.937	-114.623	-8191	255	
21837.840	1	1	0	0	0.078848	0.22739	0.14695	0.24416	0.18985	0.22468	0.25377	0.29543	0.20997	0.061526	0.17671	0.29255	0.22651	0.31935	0.18395	0.25513	-0.96875	-2.1896	-1.5917	-1.9958	-2.2521	-1.5417	-2.4729	-1.8792	-1.6854	-2.1063	-1.5292	-1.8521	-2.3479	-1.3042	-2.275	-2.0229	175.198	-65.052	27.274	144.154	210.620	-39.892	136.044	154.355	6.427	171.497	162.353	-96.404	109.577	-58.973	121.940	159.099	0.00081828	0.0018434	0.00036853	968.56	2.0038e-05	2.3829e-05	1439.2	258.59	2.2293e-05	4.595e-05	503.09	165	70.283	24.477	5.0313e-06	80.563	0.022904	0.036065	0.010108	983.27	0.00036703	0.00040678	1359.8	263.42	0.00036426	0.00040267	521.28	168.56	85.803	29.132	0.00037418	79.98	154.114	-86.255	80.190	-124.062	-76.502	16.344	-124.243	-121.018	72.716	63.069	-121.249	-117.754	-117.960	-113.142	-102.501	-114.400	-8191	255	
21837.957	1	1	0	0	0.099951	0.16247	0.22338	0.093552	0.040082	0.18806	0.17422	0.17866	0.323	0.15691	0.35607	0.17535	0.239	0.21185	0.012708	0.26062	-1.0208	-2.3292	-1.5271	-1.8875	-2.1458	-1.4417	-2.45	-2.0875	-1.525	-2.2354	-1.6771	-1.8104	-2.15	-1.3062	-2.0187	-2.1458	163.162	-17.531	132.853	135.097	0.749	61.483	217.866	187.679	9.121	68.592	150.629	-137.235	196.349	210.972	-79.949	201.500	0.0007412	0.0013765	0.00039801	970.12	9.1289e-06	2.9954e-05	1441.1	259.38	4.7299e-05	1.3328e-05	509.37	166.73	69.033	25.092	3.251e-05	80.234	0.022841	0.035941	0.010027	980.15	0.00036771	0.00041228	1359.9	264.75	0.00036445	0.00040532	524.39	169.54	85.894	29.242	0.00038172	80.448	190.409	-3.654	41.389	-123.636	29.978	1.335	-123.960	-120.945	6.143	-37.435	-121.411	-118.127	-118.409	-112.588	-83.130	-114.398	-8191	255	
21838.029	1	1	0	0	0.24855	0.10977	0.13448	0.29358	0.059854	0.2761	0.20585	0.13429	0.10279	0.19312	0.34875	0.1517	0.16754	0.24248	0.11121	0.04789	-1.1708	-2.25	-1.8188	-1.7396	-2.1667	-1.2875	-2.0979	-2.3229	-1.3417	-2.2313	-1.9688	-1.7146	-2.2396	-1.4229	-1.7542	-2.0604	-79.601	193.120	206.383	-96.630	174.905	85.870	170.600	97.789	61.337	38.087	197.187	208.077	193.835	-88.349	36.532	46.855	0.00092755	0.0026732	0.0005901	972.23	2.8967e-05	2.5461e-05	1450	261.9	5.5634e-06	3.7751e-05	510.62	167.47	70.785	24.709	1.8534e-05	81.071	0.023177	0.036316	0.010198	988.13	0.00036857	0.00041054	1374.7	266.73	0.00036603	0.00040416	527.39	171	86.262	29.37	0.00038682	80.898	166.830	-99.474	140.146	-124.194	-116.076	3.593	-123.950	-120.717	-57.782	213.241	-120.923	-117.820	-117.525	-113.760	221.284	-114.012	-8191	255	
21838.127	1	1	0	0	0.15236	0.2052	0.16735	0.094704	0.16386	0.30516	0.15235	0.16554	0.081036	0.32124	0.15361	0.20406	0.28787	0.14932	0.082195	0.12999	-0.92708	-2.1917	-1.8312	-1.5521	-2.2438	-1.7229	-1.9	-2.1958	-1.3292	-2.2292	-1.7958	-1.4146	-2.2646	-1.5542	-1.6313	-2.1271	220.124	141.090	203.786	195.591	-9.747	66.351	130.447	174.765	-108.391	50.406	129.943	-124.675	191.732	175.092	93.862	51.171	0.00095928	0.0012685	0.00072817	974.54	1.9677e-05	1.686e-06	1440.1	258.61	1.8509e-05	2.6723e-05	506.18	166.57	70.481	24.62	2.6937e-05	80.317	0.023346	0.036638	0.01043	991.82	0.00036746	0.00041205	1368.9	264.49	0.00036558	0.0004062	525.65	169.08	85.879	29.146	0.00038304	80.171	174.763	-50.424	15.455	-123.997	24.561	42.641	-123.737	-120.549	32.429	-16.587	-121.272	-117.525	-116.709	-113.221	113.344	-114.022	-8191	255	
21838.246	1	1	0	0	0.066616	0.21115	0.33618	0.097744	0.12397	0.032154	0.17737	0.13987	0.1706	0.3249	0.089184	0.34606	0.086444	0.10505	0.13263	0.17042	-0.875	-2.0271	-1.8167	-1.6292	-2.1646	-1.7875	-1.6792	-2.1688	-1.3792	-1.9229	-2.0167	-1.5979	-2.3229	-1.7542	-1.4083	-2.3146	125.399	-12.738	-101.910	74.421	127.011	-90.585	134.279	-58.497	-61.037	79.544	134.274	151.127	190.008	-81.572	-32.032	76.895	0.00090361	0.0015172	0.0001233	969.98	2.8875e-06	3.2254e-05	1441.6	261.29	7.6757e-06	1.3347e-05	503.26	166.18	69.669	24.391	1.8312e-05	79.345	0.022873	0.03628	0.010258	983.94	0.0003637	0.000411	1366.6	263.35	0.0003559	0.00040255	521.74	167.98	85.158	28.909	0.00038065	79.194	161.243	71.322	94.579	-123.920	175.173	-4.912	-123.911	-121.094	-30.969	-42.449	-121.236	-117.693	-117.349	-113.216	114.576	-113.963	-8191	255	
21838.342	1	1	0	0	0.23832	0.086029	0.18977	0.23693	0.1369	0.0523	0.069414	0.28755	0.26026	0.21113	0.42871	0.12293	0.23549	0.024202	0.19121	0.20908	-1.0333	-1.8208	-1.9896	-1.3333	-2.225	-1.8021	-1.6562	-2.3979	-1.5104	-1.9729	-2.2229	-1.4188	-2	-1.8396	-1.4917	-2.2875	18.040	218.520	102.107	197.331	-110.717	145.365	211.822	169.258	-90.740	13.130	145.108	199.632	206.344	47.720	-72.858	151.384	0.00063163	0.0010441	0.00072598	964.53	1.8795e-05	1.1658e-05	1432.4	259.59	5.0617e-06	3.98e-05	502.59	166.49	70.488	24.533	1.3053e-05	81.163	0.023087	0.036103	0.010285	985.15	0.00036179	0.00041559	1363.6	263.31	0.00036005	0.0004056	523.44	168.6	85.523	29.349	0.00038193	80.424	143.865	60.463	-85.143	-124.266	-61.693	123.958	-123.865	-120.756	114.153	-17.784	-121.107	-117.536	-117.586	-112.786	-99.809	-114.131	-8191	255	
21838.438	1	1	0	0	0.090539	0.095241	0.14937	0.15362	0.46463	0.15841	0.20429	0.094671	0.1119	0.22634	0.14589	0.2679	0.18689	0.13377	0.19374	0.096621	-1.1417	-1.55	-2.0458	-1.3229	-2.0167	-1.7938	-1.4917	-2.3729	-1.6229	-1.8021	-2.2938	-1.4937	-2.0354	-2.0292	-1.3687	-2.4813	-65.010	-101.335	-53.875	212.847	-44.810	83.836	138.858	204.743	-52.300	77.815	97.533	186.041	152.038	201.908	-39.825	87.897	0.00072058	0.0027637	0.0010589	970.78	2.6942e-05	2.0811e-05	1450.2	262.71	2.5222e-05	1.7486e-05	512.21	167.34	71.326	24.747	8.6451e-06	80.549	0.023185	0.036622	0.010258	990.16	0.00036821	0.00041703	1376.4	265.64	0.00036148	0.000405	528.75	169.67	86.406	29.478	0.0003767	80.329	176.785	-39.325	-69.979	-123.934	48.602	57.836	-123.979	-121.021	-11.311	-57.371	-121.150	-117.696	-117.353	-113.081	184.364	-113.841	-8191	255	
21838.559	1	1	0	0	0.067017	0.20159	0.034885	0.13118	0.040727	0.099953	0.16415	0.15311	0.059089	0.24452	0.23763	0.34426	0.20165	0.17208	0.17635	0.24607	-1.2521	-1.5396	-2.0479	-1.6271	-1.9354	-2.0625	-1.5458	-2.1979	-1.4646	-1.6021	-2.4146	-1.5021	-1.9438	-2.0062	-1.3083	-2.3063	-78.926	214.855	173.675	176.732	-132.766	-85.740	201.011	193.407	20.557	-117.575	-62.974	186.378	-110.164	136.927	-71.994	150.406	0.0010904	0.0014372	0.00049167	967.02	7.2444e-06	3.7812e-05	1435.9	258.04	5.7672e-06	1.0673e-05	506.56	167.49	69.946	24.42	1.8916e-05	79.633	0.023387	0.036793	0.010193	983.37	0.00036919	0.00041963	1363.8	262.84	0.00036469	0.00040805	521.91	169.09	85.453	29.113	0.00037826	79.126	165.481	185.115	-17.702	-123.847	-86.212	-46.562	-123.954	-120.801	57.479	-96.060	-121.119	-118.070	-117.800	-113.058	28.776	-114.037	-8191	255	
21838.654	1	1	0	0	0.19815	0.21388	0.34351	0.083919	0.15948	0.14446	0.34665	0.15466	0.30614	0.14636	0.15468	0.13311	0.1323	0.1751	0.12528	0.22294	-1.4396	-1.4979	-2.3	-1.5396	-1.8625	-2.1396	-1.4958	-2.2417	-1.725	-1.5208	-2.3021	-1.6229	-1.9375	-2.0458	-1.5521	-2.2062	141.868	171.274	-50.315	27.396	157.255	-89.781	208.553	196.679	58.244	166.833	63.516	211.822	210.574	71.515	-64.572	176.926	0.00068505	0.0023837	0.00056282	953.92	2.5581e-05	2.4212e-05	1432.1	258.38	2.0466e-05	2.014e-05	501.86	164.46	69.179	24.449	1.9513e-05	79.052	0.023379	0.036702	0.010184	975.43	0.00036761	0.00041724	1358.4	261.74	0.00036358	0.00040901	518.78	167.29	85.108	28.832	0.00037925	78.802	214.271	3.431	14.671	-123.917	-118.352	-20.672	-124.259	-120.832	23.304	-92.002	-121.105	-117.842	-117.503	-112.618	6.153	-113.708	-8191	255	
21838.725	1	1	0	0	0.30963	0.32617	0.12605	0.029411	0.071715	0.052376	0.39884	0.27728	0.25186	0.24248	0.29157	0.1026	0.34955	0.13753	0.40983	0.11483	-1.5229	-1.4396	-2.3396	-1.5958	-1.8396	-2.2104	-1.7875	-2.1625	-1.9646	-1.575	-2.4646	-1.6708	-1.7271	-2.2979	-1.4208	-2.2958	170.433	-101.778	-124.465	-86.518	-65.930	9.969	173.937	194.580	179.264	147.288	166.842	172.241	220.300	188.375	-7.725	139.009	0.00051685	0.0025131	0.00052514	967.37	1.8237e-05	2.6591e-05	1436	260.46	2.2619e-05	4.6748e-05	505.36	166.7	71.983	24.414	1.7197e-05	80.711	0.023431	0.036544	0.010059	984.84	0.00037198	0.00041855	1362	264.06	0.00036602	0.00040619	521.83	169.18	86.941	29.217	0.00037506	80.244	169.864	24.323	11.112	-124.268	-93.115	12.736	-124.248	-119.692	-90.241	37.160	-121.268	-117.773	-117.119	-112.845	47.430	-114.148	-8191	255	
21838.820	1	1	0	0	0.062494	0.087376	0.11471	0.20458	0.17679	0.16899	0.35473	0.15796	0.094618	0.35558	0.23864	0.21604	0.21677	0.11182	0.1403	0.12409	-1.5625	-1.35	-2.3187	-1.8521	-1.65	-2.3708	-1.8438	-2.0187	-2.0708	-1.4208	-2.2708	-2.0771	-1.4646	-2.3375	-1.525	-1.9813	20.339	165.122	-68.454	196.725	-103.094	22.786	182.553	200.874	174.873	14.591	125.010	107.435	145.417	55.495	-100.750	128.165	0.00062559	0.00086617	0.00051606	971.21	7.3847e-06	4.149e-06	1451.1	262.01	2.0495e-05	7.0979e-06	505.29	168.68	71.27	24.69	2.7762e-05	80.676	0.023406	0.036357	0.010096	990.94	0.00036967	0.00041225	1374.7	265.94	0.00036435	0.00040672	522.68	170.45	86.298	29.088	0.00037803	80.523	128.122	38.970	-95.152	-123.841	218.544	-100.071	-123.812	-120.424	-78.803	-81.793	-120.976	-117.532	-117.346	-112.912	-28.421	-113.855	-8191	255	
21838.941	1	1	0	0	0.068077	0.12143	0.023956	0.14483	0.11338	0.13513	0.27641	0.3636	0.21747	0.19186	0.369	0.1504	0.19769	0.14972	0.23361	0.28457	-1.7875	-1.4229	-2.2792	-1.9958	-1.6562	-2.4625	-1.825	-1.9438	-2.225	-1.4646	-2.0792	-2.2938	-1.5771	-2.2979	-1.5562	-1.7896	100.509	-102.058	176.803	141.842	-64.031	-88.922	111.571	142.264	161.562	148.498	105.507	208.189	-119.760	-99.359	-84.057	133.988	0.0009245	0.001156	0.00043597	973.98	2.5865e-05	2.2346e-05	1438.2	260.44	6.4463e-06	1.5934e-05	507.5	167.4	70.664	24.45	3.3062e-05	80.042	0.023077	0.035885	0.0099704	986.23	0.0003651	0.00040152	1364	264.04	0.00035851	0.00039904	523.06	169.23	85.659	29.027	0.00037709	79.627	176.049	0.231	-59.750	-123.805	118.709	-111.343	-123.653	-120.005	-70.640	62.143	-121.039	-116.982	-116.525	-113.472	-0.172	-113.615	-8191	255	
21839.037	1	1	0	0	0.11745	0.20477	0.21037	0.28816	0.054838	0.15648	0.4915	0.16413	0.079952	0.2461	0.18233	0.37397	0.26942	0.19335	0.037566	0.25984	-1.9229	-1.3167	-2.075	-2.1562	-1.4521	-2.3542	-2.0354	-1.9021	-2.3083	-1.5521	-2.0521	-2.3604	-1.4708	-2.5187	-1.7167	-1.7875	-25.492	-26.986	-70.657	160.210	125.796	-16.392	178.600	185.671	-28.116	142.026	-130.153	-99.234	-117.390	14.740	138.735	191.989	0.0013338	0.0011585	0.00038465	967.15	1.3601e-05	2.519e-05	1437.1	260.94	1.284e-05	1.2807e-05	506.97	167.24	70.854	24.395	1.4305e-05	79.396	0.022653	0.035672	0.0098438	981.74	0.00035597	0.00039653	1361.1	263.66	0.0003535	0.00039878	520.73	168.96	85.511	28.914	0.0003797	79.418	171.334	16.744	-91.870	-123.816	-61.472	26.526	-124.129	-120.202	167.592	-55.104	-120.799	-117.418	-117.678	-112.354	3.995	-113.569	-8191	255	
21839.135	1	1	0	0	0.11211	0.19	0.021713	0.046532	0.097869	0.21029	0.21847	0.31713	0.16701	0.31509	0.18127	0.11363	0.30629	0.11928	0.15284	0.19961	-1.9562	-1.5458	-1.9688	-2.3917	-1.4479	-2.175	-2.025	-1.6063	-2.2229	-1.3208	-1.9479	-2.2167	-1.3271	-2.1667	-2.125	-1.6021	-134.770	-132.846	-133.235	184.382	-25.025	100.425	220.709	-127.286	-49.470	143.100	-2.710	187.245	168.159	190.433	19.890	104.970	0.00076253	0.0032431	0.0010251	970.3	1.2897e-05	2.0661e-05	1432.8	261.98	1.2033e-05	3.5786e-05	508.15	166.65	69.463	24.227	4.3583e-05	80.318	0.02285	0.036339	0.009992	982.36	0.00035843	0.0003947	1363.9	263.61	0.00034883	0.00039736	521.37	168.4	85.492	28.767	0.00038163	79.704	195.276	7.824	-87.092	-123.972	-13.349	29.291	-124.305	-120.088	34.275	58.586	-120.850	-117.292	-117.386	-113.352	57.931	-113.990	-8191	255	
21839.256	1	1	0	0	0.036714	0.05671	0.15195	0.13055	0.14629	0.18202	0.22913	0.14118	0.23578	0.16178	0.2689	0.19565	0.21251	0.20861	0.091555	0.14743	-2.0125	-1.6667	-1.7062	-2.2958	-1.3896	-2.1958	-2.1937	-1.7375	-2.2917	-1.675	-1.7604	-2.2313	-1.525	-2.1604	-2.0271	-1.6396	-10.163	92.334	-44.216	105.839	-84.569	-115.683	128.990	136.777	163.539	121.376	217.273	201.297	104.728	194.847	12.635	138.839	0.00061378	0.0024777	0.00099751	967.64	1.5141e-05	2.8193e-05	1436.8	258.55	1.1872e-05	3.3011e-05	505.75	166.93	69.978	24.312	2.8578e-05	78.338	0.022662	0.03635	0.010098	978.66	0.00036108	0.00040652	1361.5	261.96	0.00034818	0.00039577	520.57	167.62	85.015	28.684	0.00037775	78.474	203.729	-90.278	-24.703	-123.811	-33.466	37.647	-124.149	-120.334	-75.875	21.835	-120.610	-117.443	-117.207	-112.484	-47.400	-113.421	-8191	255	
21839.326	1	1	0	0	0.42594	0.068899	0.21403	0.05326	0.41974	0.30327	0.33845	0.1309	0.090371	0.25971	0.065429	0.15252	0.028149	0.26341	0.1529	0.098936	-1.8542	-1.6167	-1.6833	-2.3625	-1.4854	-2.1125	-2.2708	-1.5979	-2.1167	-2	-1.825	-2.475	-1.6625	-2.2271	-2.1	-1.4688	1.466	27.473	-98.273	9.462	155.789	32.665	127.753	-21.601	183.442	-7.073	-9.180	-111.600	184.302	-113.638	29.502	-14.313	0.0007193	0.0027197	0.00064327	956.47	1.6306e-05	1.139e-05	1430.6	257.93	2.6994e-05	1.9273e-05	501.62	164.69	69.583	24.197	3.6073e-05	78.945	0.022475	0.036185	0.010022	974.46	0.00036297	0.00039812	1354.9	260.72	0.00034879	0.00039637	517.46	166.48	84.566	28.518	0.00036945	78.391	135.157	220.877	-59.280	-123.668	77.923	52.587	-123.512	-120.047	51.426	-105.280	-120.428	-117.680	-118.153	-113.387	31.431	-113.840	-8191	255	
21839.424	1	1	0	0	0.12162	0.11634	0.17476	0.26773	0.071326	0.22859	0.30668	0.12747	0.070848	0.22989	0.048288	0.23022	0.12881	0.13203	0.37167	0.095863	-1.85	-1.9	-1.4688	-2.4917	-1.4604	-1.8979	-2.275	-1.5333	-2.275	-1.7604	-1.8333	-2.5312	-1.6271	-1.7687	-2.2438	-1.6917	150.699	7.001	-8.690	147.457	-129.488	-27.950	107.649	-125.053	-10.503	-31.250	-101.521	217.368	142.581	-0.639	-55.086	134.436	0.00062394	0.0010281	0.00036613	959.39	1.5821e-05	2.0693e-05	1427.1	255.85	2.4271e-05	2.4099e-05	500.31	165.1	69.003	24.023	1.9533e-05	79.296	0.022083	0.035502	0.0099125	970.3	0.00035943	0.00040006	1354.6	259.16	0.00034915	0.00040158	515.23	166.35	84.379	28.546	0.00037139	78.525	205.563	29.326	-17.527	-124.311	-69.604	121.991	-124.351	-120.537	-128.310	33.117	-120.798	-117.860	-117.454	-112.064	46.375	-114.294	-8191	255	
21839.520	1	1	0	0	0.21629	0.13413	0.13756	0.12218	0.10435	0.080548	0.27935	0.35978	0.11769	0.31533	0.33814	0.07559	0.27314	0.17349	0.027881	0.12989	-1.8458	-1.7625	-1.4771	-2.3729	-1.5854	-1.8917	-2.3708	-1.7083	-2.1396	-2.0521	-1.3729	-2.375	-1.7917	-1.6812	-2.3563	-1.7667	-118.262	100.063	-103.650	165.824	83.049	-23.022	209.027	205.806	-133.792	215.502	149.529	173.112	-33.839	-38.379	8.739	-122.538	0.00085508	0.0014698	0.00080465	964.33	1.1795e-05	1.7632e-06	1439.5	259.57	1.482e-05	5.6324e-06	505	165.91	68.975	24.213	1.1254e-06	79.275	0.022296	0.035926	0.0099262	973.76	0.00035615	0.00040187	1362.2	261.2	0.00035043	0.00040116	519.19	167.53	84.712	28.979	0.00037019	78.924	170.592	-79.055	70.287	-123.701	89.525	125.465	-123.677	-120.146	20.381	136.299	-121.113	-117.308	-117.416	-112.879	-33.620	-114.015	-8191	255	
21839.639	1	1	0	0	0.063787	0.17538	0.20526	0.080835	0.1649	0.18998	0.34722	0.35907	0.18012	0.23763	0.04732	0.25475	0.20503	0.29626	0.2936	0.073019	-1.6271	-2.0021	-1.2313	-2.2146	-1.7313	-1.6333	-2.3854	-1.6063	-1.9646	-2.3042	-1.5333	-2.4938	-1.7125	-1.725	-2.2479	-1.625	-16.441	82.350	149.100	149.994	-84.237	-100.896	116.944	101.230	-8.456	-41.065	34.628	122.027	197.293	77.487	-115.822	219.430	0.00057371	0.0013772	0.00094438	956.72	3.2333e-06	3.8844e-05	1424.2	257.7	6.2425e-06	1.8941e-05	502.84	164.63	68.792	24.007	1.145e-05	79.102	0.022611	0.036258	0.0099801	971.2	0.00036951	0.00040803	1350.7	260	0.00035669	0.0004042	518.3	166.1	84.633	28.651	0.00037135	78.859	150.604	-40.547	-30.866	-123.909	61.309	34.815	-124.238	-120.712	-83.707	33.683	-121.222	-117.659	-117.587	-112.506	146.384	-113.986	-8191	255	
#DATA ENDS
