BOXY.EXE: ISS Imagent and Oximeter Data Acquisition Program Version 0.80
Ascii Record File

#ACQ INFORMATION
2  Detector Channels 
16  External MUX Channels 
1  Auxiliary Channels 
5000  Waveform (CCF) Frequency (Hz)
1  Waveforms Skipped 
30  Waveforms Averaged 
1  Cycles Averaged 
16  Acquisitions per Waveform 
10.0806  Updata Rate (Hz) 

#FILE INFORMATION
TRUE -- External MUX Channel results are PARSED.
FALSE -- AC DC and Phase are NOT grouped.
TRUE -- Companion Program Settings File CREATED.
FALSE -- AC data not excluded
FALSE -- DC data not excluded
FALSE -- Phase data not excluded
FALSE -- Auxillary Chn. data not excluded
Tab delimiters

#CALIBRATION STATE
TRUE -- Waveform Calibration Values APPLIED.


#AUX CALIBRATION VALUES
Val Type	aux-1	

Term	1.0000e+00	
Factor	0.0000e+00	


#WF CALIBRATION VALUES
A = Detector Channel
Val Type	A-AC1	A-AC2	A-AC3	A-AC4	A-AC5	A-AC6	A-AC7	A-AC8	A-AC9	A-AC10	A-AC11	A-AC12	A-AC13	A-AC14	A-AC15	A-AC16	A-DC1	A-DC2	A-DC3	A-DC4	A-DC5	A-DC6	A-DC7	A-DC8	A-DC9	A-DC10	A-DC11	A-DC12	A-DC13	A-DC14	A-DC15	A-DC16	A-Ph1	A-Ph2	A-Ph3	A-Ph4	A-Ph5	A-Ph6	A-Ph7	A-Ph8	A-Ph9	A-Ph10	A-Ph11	A-Ph12	A-Ph13	A-Ph14	A-Ph15	A-Ph16	

Term	0.00000e+00	0.00000e+00	0.00000e+00	0.00000e+00	0.00000e+00	0.00000e+00	0.00000e+00	0.00000e+00	0.00000e+00	0.00000e+00	0.00000e+00	0.00000e+00	0.00000e+00	0.00000e+00	0.00000e+00	0.00000e+00	0.00000e+00	0.00000e+00	0.00000e+00	0.00000e+00	0.00000e+00	0.00000e+00	0.00000e+00	0.00000e+00	0.00000e+00	0.00000e+00	0.00000e+00	0.00000e+00	0.00000e+00	0.00000e+00	0.00000e+00	0.00000e+00	0.00000e+00	0.00000e+00	0.00000e+00	0.00000e+00	0.00000e+00	0.00000e+00	0.00000e+00	0.00000e+00	0.00000e+00	0.00000e+00	0.00000e+00	0.00000e+00	0.00000e+00	0.00000e+00	0.00000e+00	0.00000e+00	
Factor	1.00000e+00	1.00000e+00	1.00000e+00	1.00000e+00	1.00000e+00	1.00000e+00	1.00000e+00	1.00000e+00	1.00000e+00	1.00000e+00	1.00000e+00	1.00000e+00	1.00000e+00	1.00000e+00	1.00000e+00	1.00000e+00	1.00000e+00	1.00000e+00	1.00000e+00	1.00000e+00	1.00000e+00	1.00000e+00	1.00000e+00	1.00000e+00	1.00000e+00	1.00000e+00	1.00000e+00	1.00000e+00	1.00000e+00	1.00000e+00	1.00000e+00	1.00000e+00	X	X	X	X	X	X	X	X	X	X	X	X	X	X	X	X	

B = Detector Channel
Val Type	B-AC1	B-AC2	B-AC3	B-AC4	B-AC5	B-AC6	B-AC7	B-AC8	B-AC9	B-AC10	B-AC11	B-AC12	B-AC13	B-AC14	B-AC15	B-AC16	B-DC1	B-DC2	B-DC3	B-DC4	B-DC5	B-DC6	B-DC7	B-DC8	B-DC9	B-DC10	B-DC11	B-DC12	B-DC13	B-DC14	B-DC15	B-DC16	B-Ph1	B-Ph2	B-Ph3	B-Ph4	B-Ph5	B-Ph6	B-Ph7	B-Ph8	B-Ph9	B-Ph10	B-Ph11	B-Ph12	B-Ph13	B-Ph14	B-Ph15	B-Ph16	

Term	0.00000e+00	0.00000e+00	0.00000e+00	0.00000e+00	0.00000e+00	0.00000e+00	0.00000e+00	0.00000e+00	0.00000e+00	0.00000e+00	0.00000e+00	0.00000e+00	0.00000e+00	0.00000e+00	0.00000e+00	0.00000e+00	0.00000e+00	0.00000e+00	0.00000e+00	0.00000e+00	0.00000e+00	0.00000e+00	0.00000e+00	0.00000e+00	0.00000e+00	0.00000e+00	0.00000e+00	0.00000e+00	0.00000e+00	0.00000e+00	0.00000e+00	0.00000e+00	-1.03147e+02	-1.27696e+02	-1.26040e+02	-1.81176e+02	-6.23970e+01	-6.75592e+01	-1.58780e+02	-1.62015e+02	-5.65277e+01	-6.22897e+01	-1.72992e+02	-1.70125e+02	-1.79834e+02	-1.76748e+02	-6.70119e+01	-1.49179e+02	
Factor	1.55199e-05	1.44807e-04	4.06336e-05	1.55882e-01	1.24127e-06	1.48260e-06	1.50087e-01	4.62077e-02	1.01788e-06	1.60599e-06	9.62183e-02	2.73408e-02	4.09599e-02	8.78388e-03	1.32503e-06	1.25402e-02	7.43530e-06	1.06435e-05	2.98820e-06	8.29155e-02	1.11264e-07	1.18464e-07	7.49576e-02	2.47378e-02	1.11329e-07	1.17809e-07	4.95847e-02	1.42385e-02	2.21954e-02	4.73677e-03	1.13755e-07	6.51851e-03	X	X	X	X	X	X	X	X	X	X	X	X	X	X	X	X	



#DISTANCE SETTINGS
A = Detector Channel
A-1	A-2	A-3	A-4	A-5	A-6	A-7	A-8	A-9	A-10	A-11	A-12	A-13	A-14	A-15	A-16	

2.5000e+00	3.0000e+00	2.5000e+00	3.0000e+00	2.0000e+00	3.0000e+00	1.5000e+00	3.0000e+00	3.0000e+00	3.0000e+00	3.0000e+00	3.0000e+00	3.0000e+00	3.0000e+00	1.5000e+00	3.0000e+00	

B = Detector Channel
B-1	B-2	B-3	B-4	B-5	B-6	B-7	B-8	B-9	B-10	B-11	B-12	B-13	B-14	B-15	B-16	

1.0000e+01	1.0000e+01	1.0000e+01	1.4400e+00	1.0000e+01	1.0000e+01	1.5100e+00	1.9400e+00	1.0000e+01	1.0000e+01	1.9900e+00	2.4900e+00	2.4100e+00	2.9000e+00	1.0000e+01	2.9800e+00	




#DATA BEGINS
time	group	step	mark	flag	A-AC1	A-AC2	A-AC3	A-AC4	A-AC5	A-AC6	A-AC7	A-AC8	A-AC9	A-AC10	A-AC11	A-AC12	A-AC13	A-AC14	A-AC15	A-AC16	A-DC1	A-DC2	A-DC3	A-DC4	A-DC5	A-DC6	A-DC7	A-DC8	A-DC9	A-DC10	A-DC11	A-DC12	A-DC13	A-DC14	A-DC15	A-DC16	A-Ph1	A-Ph2	A-Ph3	A-Ph4	A-Ph5	A-Ph6	A-Ph7	A-Ph8	A-Ph9	A-Ph10	A-Ph11	A-Ph12	A-Ph13	A-Ph14	A-Ph15	A-Ph16	B-AC1	B-AC2	B-AC3	B-AC4	B-AC5	B-AC6	B-AC7	B-AC8	B-AC9	B-AC10	B-AC11	B-AC12	B-AC13	B-AC14	B-AC15	B-AC16	B-DC1	B-DC2	B-DC3	B-DC4	B-DC5	B-DC6	B-DC7	B-DC8	B-DC9	B-DC10	B-DC11	B-DC12	B-DC13	B-DC14	B-DC15	B-DC16	B-Ph1	B-Ph2	B-Ph3	B-Ph4	B-Ph5	B-Ph6	B-Ph7	B-Ph8	B-Ph9	B-Ph10	B-Ph11	B-Ph12	B-Ph13	B-Ph14	B-Ph15	B-Ph16	aux-1	digaux	

1263.507	1	1	0	768	0.05752	0.077518	0.06194	0.29871	0.20881	0.10086	0.12046	0.46048	0.16433	0.32481	0.21714	0.15246	0.16725	0.17914	0.19517	0.24268	-2.3563	-1.8813	-2.5	-2.8021	-1.9729	-2.6188	-2.5604	-2.1854	-2.6979	-1.8229	-2.4417	-2.5604	-2.0604	-2.6875	-2.2812	-2.2896	-69.809	107.326	157.368	164.879	186.063	9.434	185.465	155.663	-31.613	-101.430	-124.358	182.641	134.419	41.804	33.276	-127.971	0.00034181	0.00053126	0.00010875	1403.8	2.1191e-06	3.6501e-06	1395	381.57	3.5928e-06	7.7632e-06	436.02	143.4	123.66	43.435	4.6138e-06	53.156	0.00046251	0.00048645	0.00013721	1412.5	5.5405e-06	5.3963e-06	1410.4	387.88	5.3479e-06	5.3166e-06	441.49	147.02	127.55	44.291	5.2581e-06	54.365	-129.615	-47.273	-26.865	-135.477	-20.068	1.409	-135.512	-130.834	-28.588	12.420	-131.206	-127.263	-127.128	-122.023	-10.447	-122.506	-8191	255	
1263.603	1	1	0	0	0.12623	0.2447	0.082864	0.33775	0.045153	0.12025	0.25841	0.1634	0.27584	0.15731	0.083551	0.23447	0.099623	0.39358	0.104	0.32946	-2.3979	-1.9104	-2.2667	-2.8375	-1.6562	-2.6562	-2.5604	-2.1604	-2.6688	-1.9312	-2.2604	-2.7667	-1.9292	-2.4208	-2.4146	-1.8542	-140.907	-147.588	-105.634	159.479	177.067	-73.650	171.394	165.920	56.425	69.572	-88.333	-26.779	96.113	159.073	67.455	-135.504	0.00033416	0.00051484	0.00020323	1396.8	2.551e-06	4.9532e-06	1386.3	381.92	3.9413e-06	3.7886e-06	434.57	143.5	123.25	43.091	4.6618e-06	53.175	0.00046042	0.00047468	0.00013022	1409	5.209e-06	5.1051e-06	1404.6	386.85	5.078e-06	5.1809e-06	440.27	146.6	127.1	44.007	5.1107e-06	54.294	-132.257	-72.646	-59.264	-135.375	-26.563	1.498	-135.598	-130.817	-24.017	19.682	-131.383	-127.110	-127.244	-121.985	-25.830	-122.442	-8191	255	
1263.701	1	1	0	0	0.2117	0.13766	0.20985	0.18486	0.23618	0.1855	0.12747	0.20761	0.25371	0.25555	0.31212	0.15424	0.29884	0.12721	0.19719	0.17322	-2.3625	-1.8958	-2.1583	-2.6729	-1.9	-2.5687	-2.6958	-1.8104	-2.725	-2.1271	-1.9771	-2.7438	-1.95	-2.3083	-2.5812	-1.7604	-56.456	-48.957	57.388	205.279	9.304	84.766	186.926	130.140	73.797	71.998	-128.534	184.365	205.844	112.128	134.160	-15.485	0.00034333	0.00068279	0.00012923	1393.9	4.0233e-06	6.7684e-06	1384.7	380.34	4.3438e-06	4.6948e-06	434.41	143.23	123.55	43.202	4.528e-06	53.075	0.00045414	0.00047823	0.00013096	1405	5.2663e-06	5.2623e-06	1401.9	386.21	5.2092e-06	5.256e-06	439.72	146.51	127.11	44.096	5.2074e-06	54.194	-131.121	-69.277	-56.946	-135.265	-20.648	-21.452	-135.419	-131.010	-27.622	15.742	-131.288	-127.284	-126.897	-121.948	-24.875	-122.396	-8191	255	
1263.795	1	1	0	0	0.22162	0.26843	0.075438	0.13904	0.22092	0.016245	0.41291	0.25131	0.092219	0.31946	0.24792	0.088033	0.2762	0.31264	0.037403	0.079273	-2.3063	-2.0479	-1.9521	-2.9604	-1.85	-2.3312	-2.8229	-2.0146	-2.5229	-2.3438	-2.0875	-2.8896	-1.9271	-2.3979	-2.6292	-1.875	-69.484	131.932	144.873	-80.038	53.807	103.198	172.974	196.386	207.714	121.734	141.725	-37.125	51.625	168.906	192.209	131.907	0.00035385	0.00058833	0.00014179	1394.9	5.6736e-06	5.9643e-06	1392.3	379.54	3.3175e-06	7.1335e-06	432.4	143.35	123.65	43.068	5.5295e-06	53.007	0.00046038	0.00047191	0.00013161	1406.7	5.2236e-06	5.2541e-06	1403.8	385.44	5.2461e-06	5.1352e-06	439.86	146.66	127.04	44.096	5.1988e-06	54.222	-129.913	-51.075	-56.945	-135.501	5.894	4.883	-135.661	-131.180	-9.483	7.739	-131.461	-127.158	-127.224	-121.805	-24.240	-122.821	-8191	255	
1263.891	1	1	0	0	0.091709	0.147	0.049277	0.49811	0.12579	0.12314	0.27704	0.33337	0.07459	0.2102	0.15749	0.17079	0.21263	0.1237	0.028436	0.25037	-1.9896	-2.2	-1.7687	-2.7604	-1.8958	-1.9354	-2.8187	-1.8042	-2.4125	-2.625	-2.0625	-2.7938	-2.2521	-2.1688	-2.6354	-1.9458	-77.050	94.205	-109.629	195.709	83.180	93.866	124.588	135.804	89.576	62.829	-139.053	-133.230	-83.274	-113.145	1.534	31.513	0.00034062	0.00040506	0.00010911	1393.6	3.8169e-06	3.5651e-06	1388.1	380.35	4.2261e-06	4.7854e-06	431.73	143.54	123.31	43.242	5.0552e-06	52.908	0.00046412	0.00047189	0.00013413	1407.1	5.3098e-06	5.1811e-06	1404.4	386.32	5.334e-06	5.282e-06	438.96	146.7	126.85	44.158	5.2093e-06	54.213	-129.581	-49.668	-63.619	-135.207	-19.322	-12.568	-135.477	-130.979	-12.060	13.152	-131.441	-127.346	-127.281	-121.748	-4.937	-122.798	-8191	255	
1263.987	1	1	0	0	0.28248	0.15303	0.10051	0.20655	0.22344	0.1366	0.37877	0.26585	0.13474	0.028653	0.48125	0.34157	0.162	0.15382	0.21304	0.16782	-2.1729	-2.3667	-1.8312	-2.8104	-2.1958	-2.1333	-2.9437	-1.925	-2.5604	-2.4188	-1.9937	-2.7313	-2.2354	-2.1729	-2.6021	-2.0375	149.657	81.128	-49.845	140.054	75.977	-64.382	128.515	170.257	98.087	43.885	177.104	203.260	21.998	126.672	154.746	194.417	0.00033397	0.00045267	0.00016772	1399.4	2.9621e-06	4.1287e-06	1393.7	380.73	3.6991e-06	5.6939e-06	434.72	144.03	124.45	43.332	3.1394e-06	52.872	0.00046152	0.00046166	0.000135	1406.3	5.1612e-06	5.168e-06	1406.7	386.38	5.2468e-06	5.0918e-06	440.34	146.98	127.33	44.225	5.0993e-06	54.309	-133.015	-54.961	-58.775	-135.284	-23.994	4.512	-135.693	-130.993	-31.489	8.922	-131.336	-127.371	-127.171	-121.788	-43.049	-122.407	-8191	255	
1264.108	1	1	0	0	0.39928	0.33197	0.11502	0.32479	0.14864	0.10841	0.20035	0.28889	0.30976	0.1238	0.1042	0.49278	0.29753	0.16185	0.28789	0.046415	-2.1104	-2.5687	-1.6125	-2.7833	-2.1458	-1.9125	-2.8312	-2.2104	-2.225	-2.5812	-1.8333	-2.6146	-2.4313	-1.9604	-2.7292	-2.1583	46.859	199.083	-80.201	134.770	36.755	-124.978	192.787	131.731	138.190	171.795	64.507	196.011	190.121	193.455	28.153	116.849	0.00033579	0.00049158	0.00013364	1397.7	6.0243e-06	4.6668e-06	1389.4	381.79	1.7243e-06	3.4231e-06	433.44	144.01	125.11	43.222	4.3218e-06	53.152	0.00045808	0.00046475	0.00013346	1410.1	5.2204e-06	5.1374e-06	1407.1	387.03	5.4212e-06	5.1163e-06	440.28	147.13	127.78	44.217	5.1803e-06	54.397	-128.616	-50.653	-44.267	-135.316	-7.289	5.208	-135.750	-131.080	-18.645	1.440	-131.553	-127.423	-127.041	-122.096	-20.857	-122.341	-8191	255	
1264.204	1	1	0	0	0.29311	0.26532	0.15814	0.17029	0.060805	0.24062	0.14245	0.19877	0.1605	0.22837	0.21267	0.064709	0.085579	0.16621	0.071349	0.33745	-1.7271	-2.5792	-1.8604	-2.7271	-2.1833	-1.9708	-2.8187	-2.25	-1.8958	-2.65	-2.0104	-2.4292	-2.4708	-2.0687	-2.8604	-2.2687	-87.546	82.334	145.888	153.136	192.673	104.171	120.762	136.451	-81.643	-129.119	-146.425	-88.101	-124.607	108.997	44.456	123.375	0.0003372	0.00050513	0.00015958	1403.4	4.2965e-06	3.9974e-06	1394.5	382.31	3.7902e-06	5.4917e-06	435.71	143.71	124.8	43.541	2.8759e-06	53.345	0.00047558	0.00046821	0.00013084	1414.7	5.279e-06	5.3358e-06	1411.3	388.21	5.3677e-06	5.1526e-06	441.34	147.26	128.08	44.364	5.1209e-06	54.456	-129.856	-53.634	-75.849	-135.342	-13.672	4.869	-135.728	-131.035	1.499	27.943	-131.526	-127.494	-127.068	-122.157	29.712	-122.526	-8191	255	
1264.300	1	1	0	0	0.167	0.18055	0.081989	0.3644	0.059373	0.068539	0.28148	0.12743	0.13697	0.21039	0.32323	0.07874	0.11346	0.16507	0.088207	0.28819	-1.775	-2.7958	-1.8479	-2.65	-2.6833	-1.8646	-2.975	-2.4417	-1.9188	-2.875	-2.075	-2.3042	-2.5062	-1.9979	-2.5854	-2.3354	90.805	-80.586	-92.993	-138.021	205.956	109.647	111.650	-104.148	194.543	121.593	163.872	-103.230	162.772	-118.894	-99.878	121.879	0.00034689	0.00043186	0.00021552	1401.8	4.1702e-06	4.6495e-06	1392.3	381.28	5.4058e-06	3.8042e-06	434.24	143.75	124.07	43.509	3.0141e-06	53.169	0.00046043	0.00045869	0.00013243	1413.1	5.1738e-06	5.1865e-06	1409.8	387.42	5.2999e-06	5.1622e-06	440.99	147.07	127.58	44.338	5.1775e-06	54.448	-128.957	-59.237	-51.451	-135.360	7.277	5.892	-135.440	-131.238	-26.246	35.883	-131.391	-127.218	-126.684	-121.683	2.936	-122.868	-8191	255	
1264.397	1	1	0	0	0.22315	0.22863	0.16671	0.051739	0.049173	0.27824	0.1946	0.2758	0.28119	0.52301	0.31807	0.17467	0.36495	0.22609	0.2817	0.20661	-1.3229	-2.9208	-1.9979	-2.4771	-2.5938	-2.0667	-2.675	-2.5208	-1.7938	-2.7313	-2.0708	-2.3812	-2.8438	-2.0187	-2.4479	-2.5271	46.573	-53.678	-30.414	154.948	185.933	48.318	160.129	174.127	191.161	208.368	197.659	-43.802	157.493	-127.406	-71.888	63.796	0.00031659	0.00053165	0.00013289	1408.7	2.5514e-06	5.4605e-06	1393	382.73	3.9646e-06	5.7051e-06	435.54	143.72	125	43.392	4.6609e-06	53.09	0.00045939	0.00046985	0.00013294	1414.7	5.2927e-06	5.1835e-06	1410.2	388.68	5.1995e-06	5.078e-06	441.72	147.32	128	44.365	5.1398e-06	54.424	-126.765	-78.339	-74.563	-135.318	16.684	4.931	-135.412	-131.004	-17.267	-18.346	-131.247	-127.182	-127.189	-122.075	-17.723	-122.637	-8191	255	
1264.493	1	1	0	0	0.181	0.19397	0.15117	0.060983	0.12024	0.093295	0.47443	0.32403	0.079215	0.23406	0.37499	0.12224	0.16849	0.27481	0.22246	0.30284	-1.4625	-2.5563	-2.0792	-2.175	-2.5563	-1.7521	-2.7146	-2.6083	-1.8021	-2.8063	-2.3271	-2.1813	-2.6333	-2	-2.3625	-2.5167	-39.888	1.652	-55.339	146.699	-103.656	143.126	173.682	208.727	-95.763	42.261	-140.070	73.729	145.793	129.500	163.611	113.087	0.00035468	0.00046049	0.00015658	1404.1	4.1667e-06	7.317e-06	1394.6	383.78	4.1352e-06	5.9137e-06	435.52	144.73	124.62	43.384	2.9779e-06	53.345	0.00045933	0.00048087	0.00013317	1415.6	5.2018e-06	5.3129e-06	1412.3	389.07	5.473e-06	5.1711e-06	441.86	147.61	128.14	44.339	5.2768e-06	54.489	-128.668	-65.027	-33.808	-135.461	6.757	-4.832	-135.364	-131.127	-20.430	10.807	-131.434	-127.255	-127.091	-121.874	-13.280	-122.691	-8191	255	
1264.587	1	1	0	0	0.18863	0.093942	0.18859	0.29454	0.31403	0.032548	0.012952	0.34419	0.2068	0.17611	0.17682	0.099305	0.14534	0.29948	0.23818	0.051281	-1.3583	-2.5417	-2.2729	-2.25	-2.6625	-2.0187	-2.35	-2.7438	-1.6604	-2.4708	-2.3104	-1.8708	-2.725	-2.1292	-1.9979	-2.7083	34.626	-95.276	-125.547	135.921	-44.219	166.828	37.042	140.230	-22.200	184.977	-24.892	161.938	-81.945	-98.368	24.508	11.614	0.0003574	0.00051068	0.00020836	1401.2	3.2915e-06	3.9576e-06	1392.7	382.67	3.5081e-06	4.234e-06	437.18	143.74	124.67	43.543	3.8144e-06	53.23	0.00046866	0.00046075	0.00013512	1415.2	5.2217e-06	5.0989e-06	1410.8	388.37	5.3742e-06	5.213e-06	442.39	147.26	128.18	44.379	5.1929e-06	54.455	-131.083	-32.573	-55.133	-135.567	14.766	-9.922	-135.490	-131.036	-52.254	2.943	-131.688	-127.358	-127.127	-121.976	-8.043	-122.393	-8191	255	
1264.683	1	1	0	0	0.15619	0.35696	0.14673	0.23282	0.095836	0.17466	0.16715	0.19076	0.050534	0.17184	0.28269	0.081866	0.18399	0.11657	0.14323	0.08496	-1.4625	-2.4792	-2.3604	-2.1208	-2.6437	-1.8062	-2.2812	-2.8979	-1.7917	-2.5271	-2.3333	-1.9083	-2.5771	-2.0708	-2.0854	-2.5896	-136.258	182.333	187.249	154.880	135.753	144.880	138.412	-123.331	38.248	177.005	198.051	-118.142	-148.743	-73.850	52.394	176.095	0.00034129	0.00046479	0.00019544	1402.6	3.3695e-06	5.8948e-06	1395	382.53	4.125e-06	6.3987e-06	435.37	143.77	124.45	43.419	4.3296e-06	53.241	0.00046677	0.00046778	0.00013479	1412.6	5.2032e-06	5.2011e-06	1409.8	387.87	5.4502e-06	5.0616e-06	441.45	147.33	127.88	44.285	5.3237e-06	54.402	-131.219	-59.746	-48.766	-135.265	-11.869	15.203	-135.502	-131.205	-32.987	-0.007	-131.429	-127.248	-127.091	-122.097	21.532	-122.575	-8191	255	
1264.804	1	1	0	0	0.50352	0.20337	0.11593	0.04935	0.059363	0.10415	0.24477	0.22093	0.14976	0.21517	0.14128	0.38745	0.19288	0.34435	0.16152	0.11387	-1.4813	-2.6104	-2.4062	-1.9292	-2.4437	-2.1146	-2.2646	-2.825	-1.8	-2.3354	-2.7062	-1.7271	-2.7792	-2.4208	-1.8271	-2.6833	85.231	114.499	121.254	-132.501	128.159	133.593	142.045	190.531	-87.840	-60.221	109.694	195.715	127.136	125.419	-118.614	97.704	0.00032399	0.00044333	0.00012357	1397.7	2.6624e-06	5.6318e-06	1390.6	383.15	3.6924e-06	6.766e-06	435.01	144.01	124.46	43.312	3.8627e-06	53.181	0.00045896	0.00046681	0.00013575	1409.8	5.129e-06	5.3366e-06	1408.4	388.3	5.3674e-06	5.0363e-06	440.78	147.45	127.75	44.247	5.2121e-06	54.444	-129.494	-61.350	-65.003	-135.409	-2.179	20.503	-135.489	-131.353	-8.068	-16.400	-131.596	-127.238	-127.135	-121.779	-20.339	-122.434	-8191	255	
1264.900	1	1	0	0	0.072547	0.049529	0.01772	0.20471	0.19327	0.33463	0.11288	0.21721	0.12837	0.17941	0.2983	0.15282	0.19341	0.25208	0.098876	0.07068	-1.5146	-2.2188	-2.5458	-1.9354	-2.4	-2.1625	-1.9958	-2.8812	-1.9312	-2.2104	-2.9083	-1.7021	-2.4042	-2.3958	-1.975	-2.825	32.815	155.475	184.964	-112.588	71.171	184.295	-78.618	-106.077	17.595	-13.819	-125.919	-134.555	205.711	147.789	-132.169	-78.131	0.00032461	0.00052364	0.00011439	1398.4	4.1934e-06	6.2322e-06	1392.4	380.83	4.5893e-06	5.2178e-06	435.09	144.15	124.39	43.097	4.6781e-06	53.085	0.00046232	0.00047466	0.00013192	1411.5	5.241e-06	5.2149e-06	1411	387.66	5.4254e-06	5.2705e-06	441.96	147.27	127.98	44.256	5.2427e-06	54.428	-127.324	-57.623	-57.366	-135.427	-13.437	7.036	-135.573	-131.304	-22.538	10.069	-131.304	-127.160	-127.258	-122.317	-12.884	-122.516	-8191	255	
1264.996	1	1	0	0	0.13246	0.15554	0.14071	0.2839	0.16159	0.16639	0.27738	0.18948	0.2256	0.12936	0.38039	0.14952	0.16416	0.38873	0.2264	0.22467	-1.7958	-2.0625	-2.7771	-1.9479	-2.5521	-2.3896	-1.8937	-3.0187	-2.1688	-2.0812	-2.7812	-1.8146	-2.3375	-2.6292	-1.7437	-2.8125	-6.595	3.682	-83.356	207.721	-30.571	52.266	158.166	165.000	28.375	188.245	152.469	-48.689	185.237	133.865	11.732	-12.275	0.00032888	0.00047331	0.00015366	1400.5	4.0646e-06	4.1755e-06	1394	382.09	5.4561e-06	5.0051e-06	434.27	143.62	124.6	43.451	3.5948e-06	53.022	0.00046396	0.00048657	0.00013579	1414	5.2007e-06	5.2902e-06	1411.5	387.92	5.4544e-06	5.2329e-06	441.9	147.12	127.95	44.347	5.2337e-06	54.381	-131.803	-65.189	-65.781	-135.498	-21.860	21.368	-135.532	-131.055	0.669	3.071	-131.464	-127.375	-126.712	-122.195	0.115	-122.550	-8191	255	
1265.068	1	1	0	0	0.28602	0.28302	0.085395	0.071334	0.31718	0.083145	0.18883	0.22138	0.18212	0.2186	0.0799	0.23047	0.37948	0.28936	0.039814	0.1322	-1.5812	-1.7771	-2.6875	-2.1417	-2.2	-2.5	-2.2917	-2.6833	-2.2583	-1.7208	-2.7146	-2.1542	-2.3146	-2.5438	-1.5979	-2.6667	117.221	-120.984	67.488	202.466	160.224	55.604	139.318	186.452	73.494	146.119	177.101	176.375	158.002	146.806	20.429	203.848	0.00034145	0.00044541	0.00010474	1401.3	3.1608e-06	6.9576e-06	1394	381.47	4.8346e-06	5.2694e-06	435.91	143.89	124.69	43.4	3.7918e-06	52.905	0.00046128	0.00048794	0.00013039	1411.8	5.2025e-06	5.2011e-06	1409	387.37	5.2378e-06	5.3117e-06	440.97	147.14	128.03	44.22	5.4491e-06	54.243	-129.321	-58.427	-50.272	-135.551	-42.660	-1.652	-135.732	-130.903	-9.638	-3.541	-131.494	-127.331	-126.854	-122.129	-17.404	-122.474	-8191	255	
1265.188	1	1	0	0	0.099702	0.070187	0.1123	0.43301	0.067064	0.20804	0.42583	0.3542	0.13009	0.14492	0.16907	0.07073	0.16972	0.044984	0.062113	0.055476	-1.9854	-1.9062	-2.6646	-2.1271	-2.1604	-2.6042	-2.0458	-2.6792	-2.3354	-2.0687	-2.8292	-2.0208	-2.0146	-2.8396	-1.95	-2.4458	-4.757	-84.083	113.681	159.262	-116.684	133.432	144.976	202.440	139.490	-51.643	111.881	-75.714	148.530	-75.863	-63.594	51.781	0.00033795	0.00061078	0.00016563	1404.3	3.1524e-06	4.0882e-06	1386.1	383.26	2.7626e-06	4.3212e-06	436.15	143.3	125.14	43.302	4.976e-06	53.096	0.00047608	0.00048665	0.00013414	1412	5.2649e-06	5.2675e-06	1406.9	387.68	5.2123e-06	5.3691e-06	441.44	146.97	127.87	44.282	5.2413e-06	54.474	-129.126	-59.373	-43.748	-135.369	-11.747	-3.018	-135.651	-131.099	-35.830	1.126	-131.520	-127.403	-126.675	-121.924	-0.509	-122.716	-8191	255	
1265.285	1	1	0	0	0.10812	0.14007	0.23156	0.21095	0.26208	0.23052	0.43894	0.20728	0.30946	0.17255	0.095081	0.042987	0.16028	0.19738	0.40867	0.13381	-1.9375	-1.8771	-2.7083	-2.2583	-1.9292	-2.5938	-1.8771	-2.4833	-2.4229	-1.6146	-2.6437	-2.1771	-1.9479	-2.4958	-1.95	-2.2854	105.602	155.489	98.571	155.567	-12.715	79.052	141.700	186.339	33.081	143.752	-10.530	-31.191	-128.306	207.183	-132.601	-118.026	0.00031566	0.00058405	0.00018299	1400.9	2.779e-06	2.9143e-06	1393.8	382.32	4.1072e-06	5.1103e-06	435.53	143.78	125.09	43.197	3.7598e-06	53.167	0.00046322	0.00047847	0.00013328	1411.4	5.3731e-06	5.2346e-06	1410.2	387.9	5.2726e-06	5.2432e-06	441.36	147.12	128.1	44.244	5.2841e-06	54.383	-131.895	-68.640	-47.966	-135.369	-9.095	45.688	-135.726	-130.864	-19.264	-8.502	-130.978	-127.361	-126.604	-121.867	-9.989	-122.479	-8191	255	
1265.381	1	1	0	0	0.28343	0.13271	0.075214	0.13834	0.15616	0.064212	0.32179	0.35175	0.22015	0.06928	0.11332	0.35273	0.12682	0.27086	0.18253	0.26392	-2.2667	-1.7792	-2.6208	-2.4562	-2.0104	-2.625	-2.2354	-2.3646	-2.5479	-1.7667	-2.7542	-2.4917	-1.9292	-2.6813	-2.0083	-2.2604	127.527	31.414	117.644	126.694	5.303	-123.248	189.011	163.933	121.252	2.107	200.889	125.232	190.979	210.190	-126.285	115.035	0.00035107	0.00059427	0.00014991	1395	2.4576e-06	6.028e-06	1395	381.23	2.2526e-06	4.8205e-06	435.4	143.11	124.62	43.213	5.2171e-06	53.193	0.00046221	0.00048508	0.00013377	1409.1	5.3351e-06	5.3013e-06	1407.2	387.19	5.2758e-06	5.3102e-06	441.41	146.85	127.72	44.29	5.209e-06	54.377	-130.785	-44.600	-36.871	-135.630	29.656	-1.175	-135.569	-130.971	-28.123	25.696	-131.404	-127.406	-127.024	-122.117	-3.041	-122.171	-8191	255	
1265.501	1	1	0	0	0.03175	0.157	0.207	0.063311	0.07856	0.044152	0.39253	0.23736	0.20318	0.058367	0.063911	0.18286	0.21601	0.15488	0.070875	0.2902	-2.2188	-1.9708	-2.4875	-2.5854	-1.7917	-2.7062	-2.3688	-2.2667	-2.5208	-1.675	-2.5354	-2.4625	-1.7437	-2.8312	-1.975	-1.9479	-133.190	-139.553	89.088	65.355	-69.081	-65.672	-112.170	121.717	4.018	207.497	168.484	172.670	174.467	206.669	81.307	165.537	0.00032945	0.00054861	0.00013518	1397.7	2.9065e-06	3.0164e-06	1393.5	381.85	4.2692e-06	6.132e-06	434.58	143.52	124.87	43.471	3.452e-06	53.296	0.00045953	0.00048115	0.0001332	1409.6	5.3425e-06	5.3521e-06	1408.7	387.57	5.3503e-06	5.2496e-06	441.07	146.94	127.89	44.34	5.2863e-06	54.48	-127.753	-59.532	-35.555	-135.782	-25.431	-27.138	-135.517	-131.020	-29.208	10.243	-131.484	-127.567	-127.100	-122.004	17.781	-122.534	-8191	255	
1265.596	1	1	0	0	0.21104	0.16529	0.36317	0.30089	0.022182	0.17496	0.20775	0.34043	0.13885	0.20358	0.043417	0.14693	0.11202	0.26102	0.10596	0.1087	-2.1625	-1.7958	-2.2896	-2.6583	-1.6917	-2.5875	-2.3187	-1.9937	-2.5396	-1.7792	-2.3729	-2.5979	-1.8771	-2.6417	-2.2271	-2.0542	-93.669	-10.005	-8.249	197.631	60.742	200.966	167.194	142.202	-56.437	-107.944	49.318	90.859	17.228	132.706	-29.551	151.990	0.00034245	0.0003535	0.00011497	1400.8	4.2217e-06	6.1369e-06	1392.5	382.92	3.4454e-06	4.926e-06	436.81	143.56	125.28	43.416	5.3685e-06	53.124	0.00045612	0.00049202	0.00013175	1409	5.4049e-06	5.1083e-06	1408.6	388.24	5.2484e-06	5.1158e-06	441.93	147.08	127.93	44.38	5.1436e-06	54.364	-127.601	-33.392	-56.085	-135.536	23.324	-5.484	-135.497	-131.058	-13.200	11.446	-131.275	-127.312	-126.893	-121.883	-29.222	-122.380	-8191	255	
1265.669	1	1	0	0	0.19516	0.087203	0.11518	0.46082	0.1485	0.14791	0.27056	0.1635	0.15652	0.08115	0.34643	0.24336	0.039726	0.14243	0.11354	0.35826	-2.2646	-1.9479	-2.0854	-2.6937	-1.7729	-2.3812	-2.4854	-2.1125	-2.5187	-1.9604	-2.0667	-2.6167	-1.8521	-2.55	-2.2375	-1.9875	42.530	200.467	-86.745	182.593	180.018	-52.476	143.063	-84.206	55.996	-55.204	-146.204	175.316	111.987	-137.374	-65.677	187.648	0.000345	0.00036857	0.0001553	1401.2	4.9154e-06	4.7496e-06	1392.5	380.66	5.0719e-06	4.9745e-06	435.66	144.03	124.49	43.512	6.1635e-06	53.439	0.00046088	0.0004669	0.00013472	1411.9	5.2359e-06	5.3181e-06	1408.3	387.26	5.2201e-06	5.2413e-06	441.24	147.16	127.96	44.343	5.341e-06	54.49	-133.344	-72.023	-46.506	-135.503	-13.623	3.737	-135.663	-130.973	-21.395	8.364	-131.426	-127.494	-126.820	-122.016	10.633	-122.540	-8191	255	
1265.788	1	1	0	0	0.033369	0.074673	0.19829	0.07719	0.25209	0.24758	0.33264	0.40209	0.18817	0.20378	0.14677	0.33933	0.21305	0.074791	0.18235	0.15772	-2.1396	-1.8708	-1.8729	-2.875	-1.7458	-2.3708	-2.5687	-1.9917	-2.4854	-1.9833	-1.9167	-2.6312	-1.9729	-2.2021	-2.4875	-1.8771	-40.073	176.410	140.532	-132.932	13.685	-137.571	106.743	165.891	129.208	139.644	-145.743	-146.370	-134.665	-145.654	-147.760	147.102	0.00032527	0.00072227	0.00013903	1400.3	4.9368e-06	3.4351e-06	1392.4	381.56	2.9925e-06	5.7973e-06	434.46	143.32	124.65	43.569	4.6797e-06	53.455	0.00046119	0.00047195	0.00013272	1410	5.2129e-06	5.1186e-06	1407.5	387.91	5.2538e-06	5.2317e-06	440.61	147.25	127.89	44.314	5.2664e-06	54.56	-130.770	-60.353	-43.586	-135.481	-5.523	28.214	-135.257	-131.147	-26.657	15.936	-131.397	-127.505	-126.862	-121.672	-29.518	-122.572	-8191	255	
1265.884	1	1	0	0	0.065811	0.04246	0.13213	0.12252	0.11117	0.3068	0.33263	0.50048	0.17949	0.11447	0.30041	0.18649	0.26877	0.26571	0.27966	0.13591	-2.1875	-2.1312	-1.9208	-2.8563	-1.9375	-2.3292	-2.8146	-1.9375	-2.5229	-2.3271	-1.9083	-2.9458	-2.0875	-2.1896	-2.6688	-1.8708	77.074	68.889	205.649	205.541	-76.725	-20.109	196.079	151.034	-65.580	108.619	-138.379	155.740	-95.819	-87.294	147.051	-52.639	0.00032758	0.0005894	0.00013519	1402.4	4.1443e-06	5.4354e-06	1394	380.31	4.0966e-06	6.4328e-06	434.96	143.98	125.05	43.349	3.8486e-06	53.188	0.00045915	0.00048222	0.00013739	1412	5.3923e-06	5.1404e-06	1407.7	387.41	5.2642e-06	5.3144e-06	441.47	147.19	128.28	44.313	5.196e-06	54.494	-126.661	-57.577	-78.980	-135.369	-4.376	2.246	-135.519	-131.016	-15.190	2.547	-131.125	-127.308	-127.035	-121.803	15.927	-122.631	-8191	255	
1265.980	1	1	0	0	0.2307	0.05594	0.07748	0.21867	0.19463	0.17195	0.16738	0.24537	0.068743	0.15582	0.29544	0.060292	0.15029	0.10014	0.23369	0.15821	-2.0417	-2.2542	-2.025	-2.9188	-2.0271	-2.0708	-2.7979	-2.1979	-2.4458	-2.4792	-1.9188	-2.7271	-2.1208	-2	-2.5542	-1.8333	179.531	201.719	82.772	117.753	207.392	18.672	136.877	139.375	29.258	183.200	-129.875	104.511	-88.590	-117.608	67.207	179.660	0.00032797	0.00075805	0.00020297	1404.2	4.1396e-06	4.6574e-06	1396.1	382.43	3.189e-06	5.9994e-06	435.45	143.71	123.74	43.164	2.1715e-06	53.212	0.00046224	0.00047246	0.00013459	1410.9	5.2468e-06	5.2425e-06	1409.1	387.66	5.3234e-06	5.0334e-06	441.7	146.9	127.6	44.185	5.2292e-06	54.424	-128.155	-80.350	-63.360	-135.134	-25.833	8.177	-135.520	-130.917	-40.078	7.447	-131.475	-126.930	-126.793	-121.754	4.923	-122.543	-8191	255	
1266.101	1	1	0	0	0.24165	0.22296	0.22526	0.38196	0.18143	0.27944	0.39661	0.44562	0.13254	0.19652	0.32449	0.17295	0.11983	0.18949	0.093331	0.23475	-1.85	-2.3521	-1.6792	-2.7979	-2.1479	-2.0458	-2.9542	-1.9604	-2.2271	-2.5979	-1.9625	-2.7354	-2.2646	-2.0875	-2.7271	-1.8833	-43.137	88.092	-6.915	-139.618	207.611	-39.882	110.370	152.495	-94.180	73.991	86.640	192.310	3.597	144.646	52.926	77.392	0.00032865	0.00062497	0.00014869	1402.5	5.3213e-06	3.5752e-06	1393.1	381.66	4.4021e-06	7.9831e-06	433.36	143.63	123.8	43.242	4.4247e-06	53.073	0.00045447	0.00046772	0.00013662	1410.4	5.1707e-06	5.0974e-06	1406.6	387.09	5.2626e-06	5.0898e-06	440.66	146.94	127.48	44.172	5.0057e-06	54.346	-126.599	-83.695	-53.606	-135.152	-15.065	-11.075	-135.428	-131.115	-20.250	-2.353	-131.311	-127.030	-126.992	-121.877	-38.660	-122.568	-8191	255	
1266.197	1	1	0	0	0.066086	0.15135	0.32167	0.15465	0.19918	0.31229	0.20145	0.45577	0.21786	0.044042	0.095797	0.15372	0.16204	0.21582	0.16252	0.10133	-1.7167	-2.6583	-1.6	-2.8187	-2.2	-1.8854	-2.8208	-1.9917	-2.0312	-2.5729	-1.6771	-2.6354	-2.4083	-1.9333	-2.4896	-2.1083	-76.505	-12.446	47.924	46.657	37.550	80.660	140.397	178.759	-131.323	143.710	206.867	140.830	-145.567	-35.989	-26.369	170.886	0.00033808	0.00064868	9.0845e-05	1401	4.4715e-06	6.3347e-06	1387.4	380.62	5.4925e-06	6.1552e-06	434.07	143.53	124.27	43.249	3.5273e-06	53.048	0.00046542	0.00046805	0.00013449	1410.6	5.2475e-06	5.2899e-06	1407.2	386.86	5.3234e-06	4.9727e-06	440.47	146.86	127.4	44.185	5.1789e-06	54.203	-124.750	-28.744	-75.515	-135.322	-15.701	-12.181	-135.682	-130.924	-26.669	19.224	-131.664	-127.266	-126.949	-121.850	-32.441	-122.445	-8191	255	
1266.293	1	1	0	0	0.12945	0.14186	0.21895	0.13498	0.08561	0.12952	0.13731	0.05374	0.053586	0.19026	0.18596	0.20553	0.18399	0.28935	0.20066	0.19342	-1.6938	-2.4792	-1.8208	-2.6063	-2.3667	-1.7458	-2.9125	-2.1229	-1.9	-2.6521	-1.9562	-2.4125	-2.3937	-1.7687	-2.7583	-2.2333	-59.087	119.951	172.700	-124.966	118.075	-33.082	125.303	127.123	86.691	3.793	117.345	189.871	199.761	141.116	23.960	140.161	0.00032682	0.00045546	7.645e-05	1393	3.718e-06	4.2939e-06	1393.4	379.94	3.8138e-06	4.0547e-06	433.46	142.89	123.77	43.099	5.5447e-06	52.929	0.00045261	0.00047388	0.00013116	1406	5.0479e-06	5.1599e-06	1406	386.12	5.2651e-06	4.8922e-06	439.46	146.45	127.4	44.095	5.0889e-06	54.163	-132.399	-78.779	-23.178	-135.243	-0.453	-5.226	-135.486	-131.052	-14.124	20.091	-131.624	-127.330	-126.949	-121.881	-10.170	-122.564	-8191	255	
1266.365	1	1	0	0	0.24639	0.086784	0.21949	0.18801	0.05334	0.1341	0.17721	0.14849	0.10809	0.11839	0.25186	0.17622	0.12067	0.084293	0.30687	0.10246	-1.6479	-2.5917	-1.8583	-2.275	-2.4542	-1.6479	-2.8187	-2.3604	-1.9229	-2.6396	-1.9021	-2.1979	-2.3646	-1.7146	-2.4208	-2.2271	92.566	118.108	17.189	150.842	161.297	-139.086	105.647	178.554	-51.815	203.909	183.777	-143.645	-0.578	-94.458	-119.178	111.340	0.00033562	0.00069172	0.00010854	1397	3.2868e-06	4.5151e-06	1390.1	379.32	3.5687e-06	5.3023e-06	434.71	143.43	124.3	43.226	4.9483e-06	52.974	0.0004452	0.00047031	0.00013086	1408.2	5.1622e-06	5.1095e-06	1406.2	385.75	5.2983e-06	5.1956e-06	440	146.87	127.48	44.114	5.1491e-06	54.245	-132.478	-82.577	-58.509	-135.276	-8.411	13.426	-135.422	-131.130	-17.511	-9.381	-131.352	-126.779	-126.833	-121.795	-21.059	-122.237	-8191	255	
1266.484	1	1	0	0	0.096447	0.11891	0.29318	0.27032	0.093979	0.092924	0.12121	0.18003	0.23077	0.1182	0.28712	0.35753	0.079916	0.17736	0.15015	0.1793	-1.5021	-2.6729	-1.8333	-2.2625	-2.6583	-1.7667	-2.6104	-2.4688	-1.7687	-2.7083	-2.1167	-2.175	-2.6708	-1.8771	-2.5625	-2.4854	-18.216	-43.222	105.451	174.396	-80.965	81.395	202.510	82.913	-24.831	-122.606	105.079	192.359	126.796	-128.599	68.755	200.847	0.00032985	0.00042391	7.9375e-05	1395.3	4.0629e-06	5.52e-06	1390.2	379.17	3.532e-06	5.5623e-06	434.21	142.49	124.2	43.229	1.0987e-06	52.921	0.0004562	0.00045685	0.00013045	1408.7	5.1147e-06	5.2134e-06	1405	385.96	5.2839e-06	4.9656e-06	439.8	146.49	127.68	44.118	5.1529e-06	54.179	-125.125	-73.193	-69.136	-135.268	5.849	-16.677	-135.530	-131.114	-33.157	2.987	-131.456	-127.073	-126.972	-121.864	22.826	-122.603	-8191	255	
1266.580	1	1	0	0	0.20478	0.30311	0.088758	0.06813	0.11845	0.079415	0.22223	0.28418	0.30743	0.1335	0.15543	0.23609	0.054483	0.17191	0.20816	0.089475	-1.625	-2.5729	-1.9604	-2.0646	-2.6833	-1.8708	-2.5229	-2.5458	-1.8167	-2.5729	-2.2417	-1.875	-2.8417	-2.0271	-2.1792	-2.6146	-69.165	-23.943	-66.149	11.531	-64.477	-137.447	117.755	114.510	43.258	84.713	205.323	-138.159	-28.739	137.013	-88.540	171.257	0.00034404	0.00071747	0.00013967	1395	2.5871e-06	3.2364e-06	1387.1	381.41	5.7281e-06	4.4727e-06	433.4	143.43	124.62	43.2	3.5838e-06	53.118	0.00046489	0.00045942	0.00012841	1405.8	5.0901e-06	4.972e-06	1404.6	386.35	5.273e-06	4.8942e-06	439.92	146.7	127.58	44.143	5.054e-06	54.303	-132.415	-75.495	-57.787	-135.227	-10.750	2.818	-135.352	-130.904	-5.928	9.196	-131.420	-127.315	-126.940	-121.605	-40.223	-122.605	-8191	255	
1266.676	1	1	0	0	0.1831	0.20743	0.16653	0.46629	0.17426	0.12165	0.26856	0.19865	0.22346	0.19165	0.15536	0.020523	0.13008	0.060786	0.10477	0.033553	-1.1667	-2.5417	-2.0396	-1.9646	-2.6167	-1.8542	-2.4458	-2.8563	-1.7146	-2.55	-2.3812	-1.95	-2.5354	-2.0771	-2.0938	-2.825	-66.176	-52.681	37.030	187.489	36.852	-1.536	126.725	199.790	33.701	32.047	174.471	-11.059	-87.835	-132.144	-78.246	-95.329	0.0003481	0.00055887	0.00012682	1395	2.8566e-06	3.4989e-06	1387.3	378.48	4.3674e-06	2.7665e-06	434.06	142.75	124.11	43.25	2.4119e-06	52.983	0.00045648	0.00046375	0.00012621	1405.4	5.1061e-06	5.0606e-06	1403.3	385.54	5.2408e-06	4.9951e-06	439.76	146.37	127.24	44.076	5.0645e-06	54.169	-129.031	-58.570	-58.529	-135.312	-24.731	-11.326	-135.137	-131.079	-11.081	6.897	-131.144	-127.187	-126.586	-122.149	7.661	-122.860	-8191	255	
1266.772	1	1	0	0	0.092179	0.20056	0.11554	0.23806	0.19986	0.15702	0.19085	0.25548	0.098771	0.16849	0.18233	0.26742	0.03979	0.14943	0.20912	0.25232	-1.3479	-2.5312	-2.2667	-1.8021	-2.65	-2.05	-2.5563	-2.7313	-1.7146	-2.4562	-2.475	-1.7375	-2.7167	-2.0938	-1.9625	-2.6854	-96.443	-32.407	-39.301	144.430	-124.782	-32.531	135.248	207.962	-133.596	-129.402	162.073	194.177	-123.110	61.908	-66.565	153.038	0.00035089	0.00032801	0.0001534	1394.1	2.7578e-06	4.7797e-06	1382	380	5.2356e-06	4.9987e-06	433.33	143.41	123.41	43.446	5.4216e-06	53.186	0.00045056	0.0004594	0.0001259	1404.3	5.1619e-06	5.0777e-06	1401.6	385.95	5.1559e-06	5.0223e-06	438.98	146.44	126.93	44.103	5.1889e-06	54.226	-127.996	-60.831	-31.045	-135.316	-31.960	-13.018	-135.221	-131.050	-39.824	12.955	-131.391	-126.986	-126.533	-122.049	-8.621	-122.361	-8191	255	
1266.893	1	1	0	0	0.4804	0.12443	0.050292	0.32454	0.18465	0.12362	0.21541	0.26028	0.1637	0.28837	0.25858	0.23903	0.12599	0.20319	0.22904	0.022325	-1.3104	-2.4979	-2.3542	-1.9562	-2.3896	-2.2375	-2.1333	-2.85	-1.9	-2.3833	-2.6562	-1.9312	-2.5646	-2.1813	-1.8333	-2.6958	-135.280	-13.066	-61.308	119.366	125.608	148.036	131.044	168.323	197.560	-125.197	-127.605	133.305	-70.721	-130.873	-83.674	82.016	0.00036034	0.00061326	0.00015333	1389.6	3.4586e-06	5.8024e-06	1387.1	381.7	2.9016e-06	4.8463e-06	433.02	142.81	124.03	42.849	5.0498e-06	53.015	0.00045643	0.0004643	0.00012936	1403	5.0963e-06	5.0505e-06	1401.4	385.97	5.1622e-06	4.9421e-06	438.45	146.24	127.13	43.934	5.1486e-06	54.203	-131.012	-41.701	-56.450	-135.258	-4.729	-4.378	-135.332	-130.812	-26.357	12.664	-131.314	-127.065	-126.803	-121.881	11.015	-122.261	-8191	255	
1266.965	1	1	0	0	0.099288	0.06159	0.15027	0.26127	0.091705	0.28667	0.40955	0.32836	0.075066	0.13733	0.28892	0.27251	0.24967	0.20151	0.20647	0.15639	-1.3875	-2.2354	-2.5021	-2	-2.5021	-2.2583	-2.0583	-2.8208	-1.9312	-1.9625	-2.7583	-2.0125	-2.5875	-2.3563	-1.6333	-2.6063	164.749	197.788	86.980	183.367	19.435	-147.244	107.674	-141.553	197.985	170.184	170.647	58.112	-149.028	71.326	205.182	193.796	0.00035479	0.00036555	0.00013736	1389.3	2.7731e-06	5.8293e-06	1383.8	379.56	3.6457e-06	5.6687e-06	431.66	142.87	124.28	43.193	4.2119e-06	52.99	0.00045482	0.00045308	0.00013131	1404.7	5.1306e-06	5.0925e-06	1401.4	385.63	5.3363e-06	4.9376e-06	438.57	146.13	127.21	44.071	5.2514e-06	54.324	-129.228	-40.790	-43.136	-135.330	-2.890	-4.943	-135.351	-131.051	-25.069	-8.457	-131.405	-127.327	-126.424	-121.894	13.344	-122.409	-8191	255	
1267.061	1	1	0	0	0.24389	0.26256	0.05112	0.14448	0.13537	0.081114	0.30133	0.22238	0.15717	0.27301	0.1315	0.10646	0.050589	0.059611	0.50686	0.13091	-1.5	-2.0125	-2.6125	-2.0521	-2.2604	-2.3833	-1.8292	-2.7521	-1.9375	-1.9625	-2.7958	-1.95	-2.325	-2.6	-1.5917	-2.6063	-28.358	41.691	29.096	-101.556	-121.821	208.783	162.127	148.968	-118.231	193.613	139.418	-3.646	-117.583	105.512	-92.449	-136.904	0.00034431	0.00050751	0.00013053	1395.3	4.0022e-06	6.9923e-06	1383.6	382.25	3.2748e-06	5.9869e-06	434.04	142.85	123.61	43.021	3.721e-06	52.98	0.00046449	0.00047608	0.00012867	1406.5	5.0917e-06	5.071e-06	1402.8	387.16	5.2621e-06	5.0591e-06	439.85	146.59	127.18	44.056	5.1638e-06	54.297	-129.867	-72.246	-60.560	-135.495	-24.023	0.838	-135.370	-130.786	-14.243	7.629	-131.354	-127.064	-126.723	-122.067	-29.126	-122.383	-8191	255	
1267.181	1	1	0	0	0.38992	0.17802	0.062435	0.2389	0.1187	0.25605	0.20305	0.18373	0.075067	0.014642	0.31639	0.11058	0.13546	0.066789	0.084412	0.19405	-1.75	-1.7792	-2.6	-2.0812	-2.2208	-2.4062	-1.9604	-2.9	-2.1312	-1.7542	-2.725	-2.0771	-2.375	-2.55	-1.8521	-2.5625	74.168	-121.736	178.837	184.258	120.146	8.016	142.305	167.886	-49.271	-112.745	180.422	68.161	209.379	-92.888	-19.390	163.281	0.00035937	0.00042417	0.00015798	1398.1	2.6455e-06	4.3205e-06	1384.5	380.86	3.7225e-06	7.5717e-06	433.06	143.25	124.49	43.284	7.3225e-06	53.203	0.00044781	0.00046732	0.00013218	1408.1	5.1673e-06	5.0488e-06	1403.8	386.29	5.1596e-06	5.2763e-06	440.1	146.75	127.62	44.174	5.2275e-06	54.395	-125.545	-45.471	-75.352	-135.174	6.968	9.537	-135.355	-130.988	-10.456	12.321	-131.411	-127.386	-127.045	-121.917	-16.498	-122.524	-8191	255	
1267.278	1	1	0	0	0.27354	0.22813	0.077242	0.18496	0.19488	0.17434	0.35677	0.34746	0.18018	0.27476	0.23345	0.12007	0.257	0.26278	0.10977	0.077974	-1.8104	-1.675	-2.7458	-2.0563	-1.9125	-2.5687	-2.0146	-2.6312	-2.35	-1.6396	-2.6604	-2.1396	-2.1188	-2.4875	-1.6104	-2.4771	2.124	-40.401	-136.872	159.840	-102.069	80.401	131.393	123.845	59.683	10.895	136.903	164.154	-140.527	199.145	-51.812	-92.691	0.00032533	0.00039533	0.00022274	1402.2	4.0715e-06	5.6227e-06	1392.5	381.29	4.5435e-06	5.4888e-06	436.08	143.58	124.16	43.521	3.1671e-06	53.35	0.00045966	0.00048665	0.00013073	1411.5	5.1615e-06	5.1127e-06	1409.3	387.12	5.1742e-06	5.3235e-06	441.1	146.91	127.6	44.311	5.3048e-06	54.493	-134.373	-63.997	-70.614	-135.541	-45.796	1.864	-135.313	-130.791	-36.419	-0.431	-131.521	-127.174	-126.703	-121.983	-12.668	-122.387	-8191	255	
1267.374	1	1	0	0	0.036585	0.045162	0.041182	0.26867	0.16995	0.3297	0.36022	0.19421	0.32616	0.13921	0.21241	0.29308	0.099602	0.14458	0.25933	0.05288	-1.9667	-1.775	-2.4354	-2.3208	-1.8229	-2.7	-1.9312	-2.4583	-2.4062	-1.7625	-2.5812	-2.2917	-2.0271	-2.6479	-1.8625	-2.2979	96.157	63.444	-131.299	185.001	31.330	105.945	172.271	172.793	61.604	111.148	-116.137	184.110	41.354	-125.360	-7.968	98.514	0.00032573	0.00065454	0.00011102	1401.9	4.9788e-06	4.953e-06	1389.1	380.06	4.3501e-06	6.6223e-06	435.76	143.64	125.13	43.422	3.3344e-06	52.968	0.00045315	0.00047084	0.00013113	1409.7	5.1501e-06	5.0666e-06	1407	387.1	5.3203e-06	5.1313e-06	440.91	146.87	128.03	44.309	5.2109e-06	54.309	-126.965	-60.294	-63.672	-135.325	-38.889	-10.736	-135.579	-130.823	-30.310	-3.383	-131.399	-127.123	-126.878	-122.002	-3.628	-122.308	-8191	255	
1267.470	1	1	0	0	0.13726	0.15657	0.20563	0.33898	0.064267	0.29636	0.20703	0.29691	0.10494	0.12093	0.030456	0.16353	0.18764	0.022613	0.21234	0.2284	-2.0438	-1.6583	-2.4917	-2.5854	-1.9854	-2.6354	-2.2979	-2.1813	-2.4708	-1.825	-2.6188	-2.4313	-1.8729	-2.725	-1.9542	-2.1208	104.735	177.776	96.366	152.188	174.525	-88.943	189.628	111.965	5.322	-126.784	57.617	123.760	50.928	11.465	150.503	66.033	0.00033732	0.00053415	0.00012519	1399.1	4.8619e-06	5.454e-06	1393.8	382.8	4.0001e-06	5.0881e-06	437.81	143.86	125.12	43.598	3.3445e-06	53.383	0.00045374	0.00047235	0.00013093	1409.6	5.352e-06	5.1544e-06	1409.5	388.25	5.2471e-06	5.1949e-06	441.88	147.07	127.92	44.367	5.0547e-06	54.391	-127.975	-53.780	-52.690	-135.484	-7.515	20.612	-135.476	-130.647	-12.136	8.080	-131.594	-127.257	-126.877	-121.836	-4.717	-121.995	-8191	255	
1267.566	1	1	0	0	0.047001	0.065152	0.079359	0.080854	0.19299	0.11539	0.27141	0.3691	0.22069	0.22712	0.28219	0.49519	0.03474	0.43096	0.31091	0.13845	-2.0687	-1.625	-2.3042	-2.4042	-1.6625	-2.6292	-2.2562	-2.2062	-2.5854	-1.8104	-2.5604	-2.5271	-1.85	-2.7208	-2.1229	-2.1104	161.091	73.834	193.680	124.128	-106.766	-1.770	139.651	182.322	-148.718	-70.437	-106.232	185.889	145.873	187.586	195.751	-137.080	0.00033881	0.00060046	8.0381e-05	1400	3.2643e-06	4.0311e-06	1393	381.4	5.5939e-06	5.5015e-06	435.28	143.8	124.88	43.488	5.0235e-06	53.167	0.00046517	0.00046492	0.00012579	1411.6	5.2811e-06	5.0409e-06	1409.4	387.49	5.2111e-06	5.1124e-06	441.41	146.88	127.81	44.322	5.2036e-06	54.371	-127.540	-49.433	-40.259	-135.149	-39.384	16.702	-135.408	-130.774	-30.440	14.985	-131.125	-127.285	-126.795	-121.663	-18.413	-122.263	-8191	255	
1267.660	1	1	0	0	0.0959	0.38144	0.081678	0.11998	0.037652	0.16209	0.21438	0.19349	0.11531	0.1162	0.12691	0.18734	0.1995	0.29771	0.10293	0.32848	-2.4167	-1.8438	-2.3958	-2.6396	-1.7042	-2.5896	-2.4417	-1.95	-2.5896	-1.9604	-2.1292	-2.7	-1.8687	-2.6	-2.1021	-1.9854	95.102	78.591	-124.870	150.780	25.488	-66.255	158.496	133.026	-99.514	136.568	171.545	115.445	-89.151	144.271	122.459	149.483	0.00033331	0.0005214	0.00014657	1401.1	3.6879e-06	5.8664e-06	1394.1	381.72	3.8402e-06	3.5937e-06	435.84	143.95	124.24	43.507	3.2142e-06	53.379	0.00046218	0.00047437	0.00013081	1411.3	5.1895e-06	5.1855e-06	1408.4	387.55	5.254e-06	5.1068e-06	441.11	146.89	127.63	44.297	5.2905e-06	54.474	-128.373	-58.137	-49.204	-135.253	-15.931	29.177	-135.473	-130.690	-43.209	16.231	-131.207	-127.149	-126.748	-121.733	-16.254	-122.403	-8191	255	
1267.781	1	1	0	0	0.15394	0.21551	0.23691	0.24311	0.20536	0.10579	0.24682	0.12491	0.21854	0.081781	0.27402	0.073471	0.095359	0.12379	0.133	0.1552	-2.4042	-1.7875	-2.0062	-2.7896	-1.85	-2.5292	-2.4667	-1.9062	-2.5875	-2.0292	-2.1417	-2.7042	-1.9354	-2.4021	-2.2583	-1.8625	-125.870	29.284	-29.716	198.905	19.573	146.890	133.625	178.424	-122.515	-65.793	183.844	75.698	-136.944	131.984	-45.164	-148.162	0.00034276	0.00048182	0.00010664	1399.4	3.4823e-06	5.358e-06	1392.4	382.07	4.3585e-06	4.7485e-06	434.64	142.69	125.03	43.387	3.3944e-06	53.312	0.00045459	0.00047022	0.00012974	1407.7	5.289e-06	5.1295e-06	1406.6	386.7	5.2236e-06	5.1995e-06	440.54	146.42	127.81	44.242	5.327e-06	54.422	-128.452	-69.003	-61.868	-135.307	-26.675	-32.172	-135.412	-130.846	-28.895	5.233	-131.309	-126.946	-126.737	-121.694	11.842	-122.108	-8191	255	
1267.877	1	1	0	0	0.10805	0.022397	0.24009	0.28871	0.11075	0.18706	0.089398	0.28785	0.11055	0.2488	0.16263	0.17075	0.29927	0.1741	0.14219	0.14815	-2.1229	-1.7729	-1.8167	-2.7271	-1.6437	-2.4021	-2.625	-1.9062	-2.5687	-2.0833	-1.9875	-2.6063	-1.875	-2.4229	-2.4396	-1.7146	-100.205	-92.250	-129.680	129.973	-33.434	151.302	139.791	185.130	-25.160	-48.569	-68.623	203.694	200.536	149.359	153.073	134.623	0.00033375	0.00070019	0.0001338	1399.2	2.8955e-06	4.6403e-06	1394.2	380.55	2.7022e-06	3.6619e-06	435.22	143.42	124.22	43.242	5.557e-06	53.353	0.00045659	0.0004692	0.00013279	1409.3	5.1942e-06	5.0885e-06	1407	386.61	5.1649e-06	5.0979e-06	440.84	146.79	127.57	44.144	5.1569e-06	54.368	-127.310	-78.403	-58.489	-135.348	-20.140	12.667	-135.523	-130.792	-12.196	3.905	-131.027	-127.047	-126.686	-121.419	-11.161	-122.451	-8191	255	
1267.973	1	1	0	0	0.14723	0.13399	0.13274	0.27545	0.11547	0.18705	0.19005	0.15445	0.039558	0.14681	0.20481	0.059337	0.21325	0.16503	0.17286	0.20074	-2.0833	-2.1708	-1.7583	-2.8604	-1.9083	-2.1708	-2.8563	-1.9292	-2.3937	-2.2854	-1.9229	-2.5333	-2.0646	-2.1667	-2.4979	-2.0146	60.158	-100.865	-67.479	-130.188	-11.093	-134.540	175.992	201.588	129.970	-69.060	51.341	-88.467	128.532	0.303	-43.177	-89.657	0.00037729	0.00040411	0.00013304	1401.6	2.6072e-06	4.5049e-06	1390.1	380.47	3.5472e-06	4.6229e-06	435.12	143.35	124.26	43.356	6.6286e-06	53.135	0.00045788	0.00047027	0.00013525	1410.3	5.11e-06	5.0782e-06	1406.8	386.21	5.1833e-06	5.0606e-06	440.2	146.54	127.56	44.177	5.1649e-06	54.337	-132.218	-49.818	-46.178	-135.237	-22.023	38.577	-135.350	-130.849	7.838	-23.649	-131.086	-127.112	-126.906	-121.768	-23.995	-122.460	-8191	255	
1268.070	1	1	0	0	0.042072	0.32373	0.27111	0.37586	0.1054	0.15447	0.21792	0.34285	0.11948	0.097756	0.23147	0.25565	0.16867	0.25084	0.5422	0.1118	-2.0062	-2.2604	-1.7875	-2.9271	-2.1125	-2.0583	-2.7104	-1.8729	-2.2958	-2.4104	-1.7583	-2.6667	-1.95	-2.0667	-2.5542	-1.8563	104.435	144.023	-143.876	193.013	-24.363	-117.395	196.518	114.907	163.374	-49.152	188.095	193.780	-142.364	-80.137	-24.899	198.306	0.00034237	0.00043273	0.0001535	1400.1	3.5577e-06	6.9647e-06	1390	380.71	3.2845e-06	4.4887e-06	435.3	144.32	124.49	43.176	4.8573e-06	53.008	0.00045344	0.00047073	0.00013226	1409	5.1914e-06	5.2198e-06	1407.2	386.31	5.2164e-06	5.2501e-06	440.49	147	127.35	44.14	5.1649e-06	54.294	-130.517	-49.805	-53.774	-135.051	-5.479	6.003	-135.286	-130.937	-21.343	25.625	-131.225	-127.213	-126.877	-121.804	-26.066	-122.433	-8191	255	
1268.190	1	1	0	0	0.063253	0.092333	0.087174	0.51592	0.079197	0.083277	0.29713	0.1317	0.16547	0.14199	0.17233	0.12577	0.4166	0.10108	0.1379	0.14588	-1.8062	-2.3458	-1.6063	-2.8875	-1.9375	-2.0479	-3.0146	-1.9958	-2.4271	-2.4729	-1.8583	-2.6312	-2.1937	-1.9479	-2.5062	-1.7625	103.793	-131.024	114.674	183.921	207.543	68.887	147.857	96.240	28.328	174.223	-12.251	49.562	181.735	-96.657	84.944	172.872	0.00032069	0.00056127	0.00018818	1399.3	4.5218e-06	5.8004e-06	1393.4	381.06	3.0716e-06	4.5024e-06	433.04	143.64	123.92	43.031	4.0479e-06	53.079	0.00045538	0.00045918	0.0001322	1410.2	5.2767e-06	5.2628e-06	1406.1	386.57	5.2088e-06	5.0623e-06	439.95	146.7	127.29	44.124	5.1014e-06	54.319	-131.006	-59.615	-45.822	-135.130	2.644	6.365	-135.588	-130.817	-1.655	41.939	-131.288	-127.108	-126.983	-121.711	-0.480	-122.163	-8191	255	
1268.262	1	1	0	0	0.27311	0.073579	0.10959	0.15229	0.076304	0.093267	0.33807	0.23748	0.073407	0.29113	0.3355	0.085882	0.09376	0.271	0.059482	0.22447	-1.7167	-2.5417	-1.55	-2.5438	-2.3	-1.7146	-2.9146	-2.0104	-2.0312	-2.6021	-1.7104	-2.5146	-2.2792	-1.8208	-2.5667	-2.2125	-138.410	137.646	-2.096	192.266	179.472	114.922	148.371	133.684	133.872	170.399	-108.643	37.287	-16.385	202.253	41.234	-122.871	0.0003402	0.00057205	0.00015934	1401.6	4.1442e-06	5.0513e-06	1389.9	381.94	2.8338e-06	8.0034e-06	435.12	143.2	124.3	43.155	4.8657e-06	53.011	0.00045239	0.00045834	0.00013159	1410.6	5.1457e-06	5.1919e-06	1407.3	386.72	5.1592e-06	5.1288e-06	440.08	146.69	127.35	44.155	5.0678e-06	54.29	-129.621	-66.902	-69.617	-135.061	-16.718	11.367	-135.271	-130.869	-19.479	-12.772	-130.928	-127.228	-126.830	-121.608	-8.030	-122.172	-8191	255	
1268.358	1	1	0	0	0.17144	0.31015	0.14344	0.13515	0.031101	0.060613	0.30188	0.26469	0.34498	0.18439	0.12577	0.17587	0.22649	0.18973	0.16542	0.31398	-1.55	-2.5229	-1.8792	-2.7271	-2.275	-1.8042	-2.8646	-2.2979	-2.0312	-2.6625	-1.9646	-2.4333	-2.5938	-1.7375	-2.4729	-2.1458	156.621	-105.372	199.661	187.863	127.442	0.221	166.652	147.040	-61.929	127.896	6.165	-26.297	-103.711	-90.755	-20.086	178.241	0.00034311	0.00049827	0.00017277	1398.1	4.0468e-06	5.556e-06	1388.9	382.49	3.2606e-06	2.6601e-06	435.66	143.75	123.71	43.452	4.6956e-06	53.372	0.00045403	0.0004728	0.00013361	1411.3	5.2788e-06	5.2618e-06	1407.5	387.66	5.3621e-06	5.1254e-06	440.88	146.99	127.36	44.3	5.1517e-06	54.443	-131.280	-66.906	-53.121	-135.141	-10.988	7.411	-135.059	-130.937	-10.021	11.606	-131.064	-127.056	-126.667	-121.656	30.247	-122.224	-8191	255	
1268.454	1	1	0	0	0.18211	0.17425	0.26412	0.26549	0.21553	0.10422	0.22744	0.21827	0.14661	0.073999	0.037373	0.25264	0.094317	0.1942	0.21175	0.26624	-1.2833	-2.5938	-1.7521	-2.1937	-2.4271	-1.7021	-2.7521	-2.4521	-1.8521	-2.7854	-2.0583	-2.2229	-2.5479	-1.7437	-2.3937	-2.3396	125.235	25.552	-21.627	177.503	-6.499	-102.359	116.815	82.441	-67.775	68.339	161.580	210.700	107.837	-136.583	-100.695	-144.704	0.00033699	0.00059875	0.00015178	1398.7	4.1346e-06	6.3427e-06	1393.3	380.93	4.7954e-06	3.4966e-06	435.04	143.89	124.3	43.279	4.8149e-06	53.229	0.00045995	0.0004647	0.00013282	1410.8	5.2792e-06	5.2423e-06	1409	387.02	5.286e-06	4.9526e-06	440.89	147.08	127.67	44.271	5.2465e-06	54.388	-131.661	-50.325	-62.023	-135.166	-26.242	8.215	-135.214	-130.769	-31.223	29.829	-131.322	-127.032	-126.745	-121.729	-16.260	-122.393	-8191	255	
1268.550	1	1	0	0	0.27345	0.21953	0.10468	0.18187	0.077205	0.092648	0.31936	0.39553	0.27631	0.077462	0.18291	0.19153	0.3548	0.1698	0.10941	0.086932	-1.3271	-2.5104	-1.8813	-2.2083	-2.5625	-1.7917	-2.65	-2.4854	-1.6042	-2.8104	-2.1479	-2.0979	-2.7479	-1.8458	-2.45	-2.4333	34.536	-144.043	-71.283	119.115	64.291	-55.616	-140.739	141.579	-147.810	45.783	-105.380	-125.675	63.984	156.304	96.900	-56.097	0.00034582	0.00049808	0.00012275	1400.7	2.9662e-06	3.8154e-06	1391.7	381.27	3.4425e-06	4.4453e-06	435.59	143.74	124.08	43.236	3.7485e-06	53.014	0.00045688	0.00046905	0.00013169	1411	5.1021e-06	5.0717e-06	1407.1	386.86	5.3029e-06	5.0935e-06	440.45	146.88	127.39	44.203	5.1133e-06	54.317	-132.385	-61.145	-45.961	-135.147	0.349	-27.584	-135.268	-130.712	-33.563	10.823	-131.334	-127.175	-126.728	-121.583	-19.350	-122.689	-8191	255	
1268.669	1	1	0	0	0.095404	0.022804	0.0696	0.24546	0.17569	0.15163	0.20132	0.22089	0.16971	0.1304	0.2198	0.29322	0.13573	0.17003	0.029698	0.069879	-1.3625	-2.5896	-2.05	-2.0146	-2.625	-1.8958	-2.5875	-2.3708	-1.8396	-2.5271	-2.1104	-1.8687	-2.6646	-1.975	-2.2417	-2.6021	150.517	210.797	22.808	164.438	-116.793	88.136	-136.383	181.585	-19.536	26.673	206.825	209.540	-100.550	204.319	12.018	158.956	0.00031586	0.00055885	0.00017595	1397	2.8357e-06	4.642e-06	1392.1	380.13	4.2907e-06	2.7797e-06	432.92	143.46	123.9	43.235	5.1277e-06	53.125	0.00045949	0.00046699	0.00013412	1408.3	5.1594e-06	5.1695e-06	1406.9	386.61	5.1005e-06	5.0245e-06	440.11	146.61	127.57	44.162	5.1462e-06	54.451	-132.960	-36.192	-68.529	-135.079	15.646	-9.345	-135.239	-130.862	-12.995	-9.970	-131.469	-126.841	-126.875	-121.754	-0.496	-122.341	-8191	255	
1268.765	1	1	0	0	0.027977	0.24985	0.181	0.18526	0.2822	0.17977	0.095995	0.22243	0.032326	0.23626	0.10931	0.1158	0.043792	0.22514	0.079347	0.23853	-1.1917	-2.4667	-2.15	-2.0354	-2.5625	-1.8667	-2.3438	-2.6417	-1.6958	-2.4542	-2.3396	-2	-2.5875	-2.0083	-2.0667	-2.7188	-131.208	2.883	115.391	208.179	164.823	-147.120	96.805	133.634	21.400	123.552	135.825	85.990	3.149	-130.302	60.497	-122.751	0.00034605	0.00050198	0.00014456	1402	2.9294e-06	3.5734e-06	1388.9	380.88	2.5679e-06	5.0911e-06	433.23	142.67	124.53	43.271	3.7533e-06	53.287	0.00046339	0.00045878	0.00012714	1409.3	5.2315e-06	5.1302e-06	1406.8	386.52	5.2927e-06	5.1691e-06	440.24	146.5	127.49	44.134	5.1353e-06	54.316	-129.536	-59.765	-52.616	-135.103	-26.222	2.318	-135.182	-130.952	-59.706	-0.751	-131.204	-127.006	-126.686	-121.622	-13.254	-122.350	-8191	255	
1268.861	1	1	0	0	0.24095	0.28763	0.14892	0.26904	0.12943	0.10416	0.40665	0.21834	0.16071	0.060871	0.12507	0.23766	0.17503	0.024744	0.33871	0.31221	-1.3312	-2.5104	-2.2812	-1.7771	-2.3896	-1.975	-2.125	-2.8667	-1.6229	-2.3271	-2.4188	-1.8312	-2.55	-2.075	-1.9729	-2.6854	71.307	24.373	-46.955	159.140	37.159	-99.818	194.594	177.988	0.328	-0.816	77.189	164.859	105.751	148.192	121.936	136.859	0.00033933	0.0004505	0.00010335	1399.9	3.4353e-06	2.9092e-06	1391.1	380.98	3.1822e-06	7.2375e-06	434.71	143.11	124.49	43.224	4.1851e-06	53.019	0.00045894	0.00047654	0.00012932	1409.1	5.1042e-06	4.9612e-06	1406.2	385.79	5.2392e-06	5.1001e-06	440.41	146.69	127.52	44.13	5.2962e-06	54.246	-125.283	-58.334	-48.493	-135.072	-6.341	1.499	-135.083	-130.979	-17.580	13.805	-131.104	-126.912	-126.738	-121.718	-25.878	-122.304	-8191	255	
1268.958	1	1	0	0	0.006474	0.28396	0.32493	0.24633	0.075511	0.2099	0.34846	0.21719	0.082084	0.20466	0.17917	0.12241	0.050919	0.29781	0.15817	0.17515	-1.1958	-2.3167	-2.2812	-1.7604	-2.3979	-2.1271	-2.0021	-2.7854	-1.7938	-2.0771	-2.6625	-1.8021	-2.5292	-2.3396	-1.5958	-2.8875	139.809	-61.994	-26.307	-118.172	-138.710	-29.193	139.768	-113.452	-32.040	-63.426	105.463	169.446	126.317	177.503	74.033	195.495	0.00034174	0.00052338	0.00018564	1400.8	3.8444e-06	4.3628e-06	1393	381.43	4.8357e-06	5.292e-06	434.41	142.97	124.37	43.308	2.8784e-06	53.114	0.00045608	0.00046601	0.00013045	1408.4	5.0173e-06	5.053e-06	1407.2	387.2	5.289e-06	5.109e-06	439.99	146.74	127.42	44.168	5.2616e-06	54.335	-129.584	-72.095	-54.747	-134.978	-28.958	6.996	-135.172	-130.797	-39.966	-1.454	-130.951	-126.816	-126.221	-121.596	4.623	-122.077	-8191	255	
1269.054	1	1	0	0	0.067661	0.18678	0.022847	0.36671	0.35746	0.16508	0.32309	0.23458	0.15421	0.096828	0.20822	0.37038	0.16542	0.26	0.25121	0.069978	-1.4667	-2.2208	-2.6292	-1.9021	-2.4771	-2.2562	-1.9396	-2.725	-1.8417	-1.9562	-2.7646	-1.7812	-2.1688	-2.4292	-1.7771	-2.7167	199.473	201.716	-130.085	-126.610	-81.786	106.807	168.972	148.254	-28.652	70.658	-104.354	-114.699	-124.556	197.474	-137.183	-49.398	0.00030977	0.00058829	0.00015012	1392.7	4.4961e-06	5.8738e-06	1389.7	381.76	3.4341e-06	3.4864e-06	434.49	143.63	124.3	43.273	2.6352e-06	53.101	0.00045933	0.00046656	0.00012699	1406.9	5.2549e-06	5.2003e-06	1406.8	387.68	5.2916e-06	5.0869e-06	440.94	146.79	127.54	44.214	5.2161e-06	54.359	-132.860	-68.360	-54.086	-135.138	-37.226	17.419	-134.967	-130.747	-25.632	4.353	-131.074	-126.901	-126.535	-121.423	-24.902	-122.364	-8191	255	
1269.150	1	1	0	0	0.13534	0.40295	0.26913	0.10907	0.096401	0.13391	0.25426	0.14561	0.26886	0.19673	0.13732	0.20006	0.079886	0.14501	0.12008	0.20197	-1.5667	-1.8042	-2.5896	-1.8229	-2.2708	-2.3792	-2.0646	-2.8479	-1.9354	-1.8417	-2.6667	-1.7229	-2.3312	-2.5854	-1.9042	-2.5479	-85.360	-53.576	141.886	160.209	142.363	171.338	98.988	206.424	-88.074	16.319	161.922	129.908	173.514	94.914	108.949	96.320	0.00034278	0.00067073	0.00021178	1395.4	4.8735e-06	5.4172e-06	1389.1	380.79	2.4755e-06	5.7387e-06	433.16	142.62	123.97	43.138	2.4395e-06	52.825	0.00046464	0.00047226	0.00012992	1408.4	5.1652e-06	5.188e-06	1404.6	386.19	5.37e-06	5.0518e-06	440.05	146.21	127.34	44.056	5.123e-06	54.221	-128.482	-56.006	-43.290	-135.062	-8.054	-7.527	-135.147	-130.608	-38.965	25.322	-131.210	-127.044	-126.674	-121.724	-27.550	-122.082	-8191	255	
1269.271	1	1	0	0	0.066389	0.26151	0.22606	0.3072	0.15989	0.14695	0.38245	0.31819	0.27097	0.22956	0.47198	0.3216	0.43785	0.16517	0.098442	0.37666	-1.7625	-1.85	-2.3521	-2.0771	-2.3125	-2.5938	-1.8958	-2.6896	-2.1417	-1.9333	-2.8542	-2.0958	-2.2604	-2.8312	-1.8062	-2.5833	180.643	120.558	-142.254	171.861	-76.011	48.648	163.424	84.465	-44.782	124.134	87.098	126.705	-133.766	172.786	105.166	153.584	0.00034908	0.00076423	9.891e-05	1393.5	3.8334e-06	4.3701e-06	1385.9	381.25	3.4881e-06	7.6826e-06	435	143.15	124.44	43.034	4.4793e-06	53.283	0.00045095	0.00047018	0.00012813	1404.2	5.0699e-06	5.1251e-06	1402.4	386.07	5.1459e-06	5.1634e-06	439.75	146.59	127.33	44.056	4.9687e-06	54.335	-127.562	-62.241	-52.736	-135.114	-37.472	3.615	-135.006	-130.719	-15.365	-15.701	-130.736	-127.002	-126.276	-121.702	-2.115	-122.135	-8191	255	
1269.367	1	1	0	0	0.31339	0.15913	0.22923	0.25116	0.18642	0.16966	0.25864	0.25047	0.15086	0.036007	0.25415	0.14658	0.23522	0.32922	0.33419	0.085969	-1.8521	-1.9625	-2.5563	-2.1542	-2.025	-2.6375	-2.2542	-2.6208	-2.3854	-1.8375	-2.7396	-2.1437	-2.15	-2.5792	-1.6313	-2.4042	115.797	5.626	-104.992	185.127	-40.404	171.213	179.539	182.174	85.458	-138.443	142.520	-105.547	-114.436	118.552	148.223	-55.987	0.00034532	0.00046524	0.0001331	1394.5	4.7554e-06	3.4534e-06	1387.4	380.23	3.5997e-06	4.8263e-06	435.4	143.19	123.88	43.351	5.8305e-06	53.141	0.0004604	0.00046457	0.00012931	1406.2	5.1147e-06	5.0382e-06	1404.7	386.26	5.2007e-06	5.1929e-06	440.98	146.41	127.11	44.121	5.1905e-06	54.3	-129.575	-48.792	-89.938	-135.035	-15.860	6.014	-135.219	-130.681	-12.143	29.636	-131.067	-126.849	-126.459	-121.389	-19.906	-121.860	-8191	255	
1269.463	1	1	0	0	0.039635	0.24678	0.1388	0.10193	0.26967	0.13358	0.41772	0.26322	0.084233	0.15582	0.34693	0.11173	0.28013	0.12166	0.11123	0.1431	-2.1937	-1.6542	-2.5938	-2.2396	-1.8396	-2.6688	-2.1083	-2.3167	-2.4792	-1.6542	-2.4479	-2.1896	-1.9146	-2.5771	-1.8708	-2.4667	136.866	-63.736	-74.173	105.098	-97.748	-27.442	161.660	-46.734	-84.809	-81.351	174.226	-113.728	159.023	-59.144	52.358	-47.128	0.00031404	0.0005139	0.0001404	1400.3	2.469e-06	4.8756e-06	1394	380.2	3.7464e-06	6.0159e-06	433.12	142.94	123.96	43.209	5.0367e-06	52.925	0.00046378	0.00046648	0.00013037	1405.8	5.3138e-06	5.0564e-06	1405.8	386.26	5.3016e-06	5.0783e-06	440.34	146.4	127.29	44.145	5.1768e-06	54.168	-128.192	-60.755	-67.872	-135.084	-32.405	-11.655	-135.241	-130.559	-8.900	28.585	-130.894	-126.958	-126.425	-121.480	2.808	-121.884	-8191	255	
1269.559	1	1	0	0	0.097813	0.20601	0.19487	0.40423	0.1884	0.10071	0.22164	0.12642	0.2271	0.068151	0.18456	0.069469	0.085632	0.24995	0.42539	0.31723	-2.2604	-1.7042	-2.4729	-2.2208	-1.8333	-2.7917	-2.025	-2.1625	-2.5667	-1.6063	-2.7042	-2.425	-1.7521	-2.5375	-1.9521	-2.1729	40.061	-148.071	-111.265	201.319	35.001	166.016	167.993	154.112	57.823	145.091	-134.568	13.588	-144.510	-98.254	-112.176	156.903	0.00034208	0.00029991	0.00012377	1395.9	4.4638e-06	5.3676e-06	1387.2	378.91	3.445e-06	7.7477e-06	435.19	143.08	124.09	43.185	5.683e-06	53.199	0.0004499	0.00046413	0.0001321	1406.3	5.2894e-06	5.0382e-06	1404	385.53	5.1654e-06	5.1571e-06	439.42	146.65	127.23	44.087	5.1671e-06	54.2	-129.186	-46.531	-46.901	-134.991	-10.275	-9.639	-135.203	-130.706	-33.801	-6.489	-130.827	-126.920	-126.537	-121.564	-12.287	-121.943	-8191	255	
1269.653	1	1	0	0	0.1741	0.047511	0.098059	0.38767	0.27433	0.23914	0.14351	0.20356	0.12572	0.15029	0.32	0.28072	0.35888	0.24962	0.088704	0.18543	-2.2333	-1.7896	-2.3333	-2.5938	-1.6896	-2.3812	-2.3125	-1.9625	-2.4354	-1.7458	-2.4458	-2.5604	-1.7	-2.8583	-2.0771	-1.9562	132.781	71.157	0.125	210.692	-61.554	104.166	156.222	175.265	210.259	128.104	177.474	173.917	-138.209	-123.452	-124.794	85.020	0.00035134	0.00045005	0.00014052	1392.4	5.1641e-06	3.5168e-06	1391.2	380.1	3.0471e-06	6.7753e-06	434.07	142.98	123.88	43.166	3.805e-06	53.329	0.000444	0.00047415	0.00012792	1404.1	5.3149e-06	5.2336e-06	1405.6	386.1	5.0907e-06	5.1794e-06	440.07	146.38	127.26	44.106	5.1088e-06	54.317	-130.350	-17.799	-68.128	-135.016	-8.169	18.112	-135.068	-130.352	4.549	10.553	-130.899	-127.112	-126.610	-121.353	3.896	-121.776	-8191	255	
1269.750	1	1	0	0	0.37424	0.16361	0.098258	0.18093	0.21346	0.10423	0.34079	0.19827	0.14377	0.096205	0.22858	0.10974	0.25667	0.19	0.095823	0.41461	-2.2625	-1.9167	-2.2062	-2.8396	-1.8333	-2.5729	-2.5604	-1.9375	-2.5521	-1.8208	-2.3167	-2.4375	-1.7271	-2.6125	-2.3479	-2.1083	-118.384	-107.312	177.059	113.130	197.611	205.057	139.087	157.518	74.466	-98.228	154.912	-119.260	209.076	-15.519	-30.258	150.993	0.00033678	0.00065453	0.00013558	1397.1	3.8916e-06	6.4631e-06	1386.5	380.01	4.7436e-06	6.0027e-06	433.57	143.13	124.26	42.889	2.9316e-06	53.312	0.00045961	0.00047195	0.00012875	1407.2	5.2739e-06	5.0987e-06	1404	386.13	5.1939e-06	5.1419e-06	439.82	146.49	127.41	44.012	5.1311e-06	54.443	-129.304	-60.490	-54.997	-134.879	7.910	-2.667	-135.057	-130.664	-29.940	1.580	-130.953	-126.916	-126.844	-121.364	-7.965	-122.210	-8191	255	
1269.846	1	1	0	0	0.10896	0.13806	0.015152	0.14424	0.18951	0.23715	0.06694	0.22491	0.27825	0.1638	0.23229	0.060793	0.19092	0.094348	0.15559	0.28055	-2.1146	-2.0875	-1.9937	-2.9042	-1.6667	-2.3396	-2.4979	-1.8438	-2.4542	-2.0271	-1.8563	-2.5875	-1.7687	-2.4708	-2.3	-1.8542	204.614	-112.147	-135.224	171.756	-97.393	-74.312	-121.905	190.048	155.685	36.291	-119.364	151.602	-6.766	189.243	-76.340	72.080	0.00034063	0.00065696	0.00017416	1392.9	4.1791e-06	4.6802e-06	1388.4	379.95	4.1628e-06	5.8408e-06	433.26	142.63	123.97	43.198	4.0508e-06	53.032	0.00045094	0.00047461	0.00012895	1403.2	5.2282e-06	5.0698e-06	1402.4	385.62	5.1631e-06	5.0012e-06	438.61	146.1	126.97	44.086	5.051e-06	54.188	-129.926	-56.800	-68.526	-135.250	2.061	11.570	-135.272	-130.661	-34.412	0.809	-131.329	-127.105	-126.761	-121.630	-61.473	-122.279	-8191	255	
1269.966	1	1	0	0	0.22344	0.20496	0.19624	0.48017	0.10323	0.23556	0.1166	0.38732	0.077401	0.23585	0.21014	0.082744	0.21597	0.40226	0.13274	0.10407	-2.0917	-2.0958	-1.7167	-2.7875	-1.9688	-2.4333	-2.6104	-1.7104	-2.5875	-2.1167	-1.9708	-2.6729	-1.7667	-2.3542	-2.5021	-1.7604	74.595	125.872	-42.666	194.292	144.893	-129.764	124.187	126.348	31.088	28.439	-86.589	89.360	164.283	157.999	-144.839	186.413	0.00030741	0.00064862	0.00012793	1394.6	2.816e-06	3.9181e-06	1385.6	379.89	4.5602e-06	6.2322e-06	433.75	143.17	123.8	43.02	5.1087e-06	52.944	0.00044184	0.00046102	0.00012728	1403.5	5.2183e-06	5.2443e-06	1401.6	384.99	5.2505e-06	5.0162e-06	438.94	146.41	126.92	44.012	5.1912e-06	54.211	-129.987	-50.568	-53.416	-135.241	-12.848	18.457	-135.441	-130.865	-21.061	-12.994	-130.844	-127.011	-126.840	-121.434	-4.718	-122.112	-8191	255	
1270.062	1	1	0	0	0.2788	0.26093	0.2095	0.4939	0.16515	0.33665	0.17827	0.44509	0.23074	0.025711	0.14153	0.37656	0.18519	0.19487	0.34272	0.23407	-2.1063	-2.05	-1.7333	-2.775	-1.8188	-2.1292	-2.7146	-1.7042	-2.2958	-2.2833	-1.9021	-2.7729	-1.8146	-2.2333	-2.4979	-1.7917	61.615	54.564	-40.540	181.319	184.607	43.023	165.656	-133.438	48.775	-44.849	136.442	123.942	-17.576	-116.925	-73.978	196.757	0.00032944	0.0004118	0.0001805	1395.4	3.4646e-06	5.7176e-06	1382.6	381.08	3.4946e-06	5.2609e-06	432.96	143.68	123.97	43.168	3.8784e-06	52.923	0.00044678	0.00047202	0.00013292	1406.6	5.2222e-06	5.1776e-06	1403.6	386.5	5.1517e-06	5.1306e-06	439.44	146.68	127.03	44.085	5.0609e-06	54.154	-131.427	-30.059	-63.493	-135.047	-26.158	1.097	-135.271	-130.852	-16.761	-32.865	-131.129	-126.948	-126.646	-121.377	-15.894	-122.102	-8191	255	
1270.134	1	1	0	0	0.18503	0.13322	0.030329	0.20262	0.21595	0.27233	0.27586	0.14035	0.084036	0.034184	0.10694	0.27619	0.28948	0.2875	0.086862	0.21508	-1.9917	-2.4021	-1.65	-2.9083	-2.025	-1.8563	-2.8042	-1.9417	-2.2042	-2.4271	-1.7687	-2.6542	-1.9188	-2.0917	-2.7583	-1.85	-101.735	117.114	28.064	200.824	48.981	52.528	131.421	103.339	-36.173	-119.262	-67.592	168.491	39.601	206.962	-129.196	68.968	0.00034805	0.00043968	0.00011947	1394.7	1.769e-06	5.9777e-06	1388.2	380.32	3.4431e-06	5.5934e-06	434.98	143.36	123.35	43.118	5.0967e-06	53.179	0.00045016	0.00046985	0.00013102	1405.3	5.1223e-06	5.2144e-06	1405.4	385.83	5.2123e-06	5.0891e-06	439.09	146.43	126.96	43.992	5.0265e-06	54.226	-132.230	-65.061	-54.034	-135.157	13.391	4.150	-135.077	-130.749	-23.299	33.835	-130.970	-126.858	-126.715	-121.493	-36.758	-122.293	-8191	255	
1270.255	1	1	0	0	0.22105	0.28426	0.18118	0.1343	0.17475	0.13419	0.21753	0.17166	0.12676	0.1387	0.125	0.093453	0.2709	0.17182	0.1199	0.26027	-1.8083	-2.2771	-1.5771	-2.7521	-1.9875	-1.9417	-2.7542	-1.8646	-2.1292	-2.4583	-1.8917	-2.4896	-2.2833	-1.775	-2.5125	-1.9562	-105.635	-26.033	-109.491	-121.668	-61.409	131.197	162.608	131.633	-32.856	161.720	164.111	129.311	187.372	144.719	179.735	170.377	0.00033588	0.00043749	0.00016401	1396.4	4.4368e-06	5.9461e-06	1385.9	380.08	2.1747e-06	6.7372e-06	432.78	143.2	123.32	43.286	5.1609e-06	52.683	0.00045476	0.00044929	0.00013114	1404.9	5.2672e-06	5.0323e-06	1400.3	385.42	5.264e-06	5.241e-06	438.91	146.26	126.8	44.039	5.0799e-06	54.157	-128.825	-69.760	-38.468	-134.935	0.399	-6.918	-135.125	-130.637	-35.196	9.140	-131.129	-126.854	-126.374	-121.450	-0.578	-122.195	-8191	255	
1270.351	1	1	0	0	0.11364	0.10876	0.2956	0.21198	0.17495	0.26408	0.16284	0.40384	0.37879	0.071821	0.024646	0.15798	0.1687	0.25982	0.1297	0.11106	-1.4688	-2.5208	-1.5792	-2.6625	-2.1771	-1.6437	-2.85	-2.0208	-1.9708	-2.3854	-1.8208	-2.5312	-2.3146	-1.9375	-2.5958	-1.9979	-42.049	-49.973	-56.224	208.799	149.779	-66.513	91.637	143.376	-123.964	51.869	167.066	42.962	-131.589	12.471	-30.072	-95.348	0.00035888	0.00054874	7.7133e-05	1391.3	3.2563e-06	5.0976e-06	1386.6	380.04	2.8403e-06	5.7381e-06	432.3	143.05	123.24	43.079	4.5192e-06	52.985	0.00046622	0.00046934	0.00013352	1402.9	5.1033e-06	5.1112e-06	1401.2	385.47	5.2023e-06	4.9872e-06	438.13	146.27	126.95	43.934	5.0943e-06	54.144	-131.292	-39.959	-74.015	-134.916	-14.023	-13.127	-135.073	-130.892	-8.450	8.227	-131.022	-126.640	-126.657	-121.237	16.655	-122.351	-8191	255	
1270.447	1	1	0	0	0.18151	0.14998	0.17295	0.37446	0.13899	0.087642	0.42441	0.35728	0.22336	0.027391	0.12599	0.095604	0.12082	0.16435	0.033305	0.11149	-1.6833	-2.5417	-1.6792	-2.5812	-2.4188	-1.6625	-2.7875	-2.225	-1.8375	-2.6479	-1.8229	-2.3042	-2.5396	-1.8271	-2.4688	-2.3167	-3.354	-132.113	94.568	151.183	177.863	120.853	191.830	156.473	127.141	113.612	54.293	85.750	83.286	159.908	74.255	144.322	0.00032846	0.00042035	0.00017753	1393.5	3.2777e-06	5.8125e-06	1385.7	378.66	3.8247e-06	5.8316e-06	433.28	143.47	123.78	43.014	4.9639e-06	52.919	0.00045814	0.00045763	0.00013128	1404.3	5.1179e-06	5.1201e-06	1399.3	384.85	5.2232e-06	5.122e-06	438.13	146.24	126.93	43.875	5.0746e-06	54.056	-129.370	-60.057	-55.940	-134.931	-8.261	7.842	-135.068	-130.468	-41.531	2.667	-131.023	-126.861	-126.554	-121.627	-11.003	-122.052	-8191	255	
1270.543	1	1	0	0	0.18768	0.038147	0.20416	0.48892	0.18955	0.18525	0.27945	0.054665	0.2204	0.24557	0.22834	0.24247	0.30339	0.27532	0.30409	0.13435	-1.3792	-2.5896	-1.7437	-2.2417	-2.3771	-1.7354	-2.7208	-2.2438	-1.7833	-2.5646	-1.9937	-2.1625	-2.5875	-1.7125	-2.5167	-2.3604	51.161	-39.146	-11.292	191.648	-115.314	-71.988	173.645	-116.392	66.604	51.521	-122.107	130.977	-134.993	-140.718	-34.477	129.394	0.00033509	0.00052419	0.00013511	1395	3.3493e-06	4.669e-06	1388.5	380.74	3.1647e-06	7.8517e-06	434.62	142.91	124.07	42.769	2.3851e-06	53.201	0.00046093	0.00046224	0.00013156	1406	5.1552e-06	5.1512e-06	1401.4	385.61	5.3178e-06	4.9531e-06	438.03	146.19	126.71	43.887	5.1827e-06	54.226	-132.037	-63.422	-58.179	-134.828	-17.080	-9.120	-134.911	-130.589	-23.989	-1.577	-130.964	-126.876	-126.454	-121.631	10.695	-122.048	-8191	255	
1270.662	1	1	0	0	0.18113	0.044302	0.2309	0.22085	0.075178	0.051922	0.32315	0.19619	0.19233	0.075178	0.14826	0.31495	0.074732	0.16631	0.16819	0.04618	-1.3333	-2.6896	-1.8813	-2.2271	-2.5333	-2.0021	-2.6271	-2.4292	-1.775	-2.6458	-2.0687	-1.9854	-2.8354	-1.8479	-2.2271	-2.4167	131.839	93.899	-9.634	144.801	-138.133	154.519	156.516	104.744	81.912	-70.862	91.777	141.971	-43.802	185.955	-19.196	78.196	0.00033053	0.00049213	0.00015334	1393.9	4.1728e-06	5.6845e-06	1384	378.75	2.8761e-06	3.6937e-06	435.21	142.39	123.75	43.049	5.3943e-06	53.059	0.00045659	0.0004555	0.00012953	1405.2	5.1313e-06	5.2531e-06	1400.6	385.05	5.2911e-06	5.1735e-06	439.31	145.94	126.93	43.983	5.1156e-06	54.181	-127.821	-43.508	-66.239	-134.873	-22.612	-7.431	-135.018	-130.651	-27.188	19.861	-131.243	-126.586	-126.522	-121.292	-11.678	-122.058	-8191	255	
1270.734	1	1	0	0	0.12113	0.08343	0.077244	0.26313	0.13003	0.26209	0.22007	0.086897	0.30262	0.13006	0.06254	0.11946	0.040454	0.28343	0.11686	0.049931	-1.3312	-2.6583	-1.8021	-1.9771	-2.6208	-1.625	-2.3896	-2.5708	-1.7875	-2.4646	-2.1042	-1.8979	-2.7396	-1.9062	-2.0979	-2.7271	-44.728	143.003	57.145	173.300	-36.222	-89.293	127.364	109.890	209.737	-43.568	-147.148	161.597	-129.892	116.473	32.082	1.900	0.00035062	0.00062333	0.00019827	1397.2	3.1258e-06	4.7645e-06	1387.2	379.2	3.1099e-06	5.2478e-06	433.28	142.42	123.88	43.05	4.2577e-06	52.775	0.00045252	0.00046559	0.00012933	1404.2	5.1615e-06	5.1808e-06	1402.4	385.24	5.2324e-06	5.1917e-06	438.74	146.32	127.07	44.037	5.1168e-06	54.165	-130.018	-76.330	-54.622	-134.897	3.023	-13.489	-135.026	-130.504	-23.162	4.628	-130.875	-126.803	-126.514	-121.630	-25.739	-122.251	-8191	255	
1270.832	1	1	0	0	0.14365	0.1796	0.06646	0.27771	0.12322	0.083823	0.23726	0.061826	0.22507	0.13438	0.17975	0.36249	0.19989	0.32808	0.30726	0.10295	-1.3104	-2.4792	-2.1604	-1.8771	-2.5729	-1.8625	-2.2	-2.6333	-1.7104	-2.5146	-2.4479	-1.6938	-2.8167	-1.8875	-1.9813	-2.6833	93.634	54.027	-84.520	-143.674	-22.104	157.115	191.041	-131.763	-132.325	-34.186	124.013	107.036	183.989	205.563	-21.496	-144.721	0.00034036	0.00047803	0.00016426	1395.2	3.8142e-06	7.5151e-06	1386	380.7	3.3168e-06	5.0198e-06	431.28	143.57	124.62	43.024	4.4603e-06	53.213	0.00046743	0.00046266	0.00013079	1405	5.1538e-06	5.1517e-06	1401.8	386.16	5.2668e-06	5.1178e-06	438.88	146.44	127.2	43.999	5.1531e-06	54.193	-132.086	-53.957	-50.565	-134.795	-19.035	3.593	-134.838	-130.433	-26.079	-7.073	-131.057	-126.741	-126.468	-121.482	-31.635	-122.068	-8191	255	
1270.951	1	1	0	0	0.20632	0.043651	0.23014	0.1428	0.20727	0.10109	0.24169	0.1802	0.31661	0.16954	0.17137	0.20675	0.037288	0.12264	0.14612	0.14332	-1.4104	-2.2396	-2.3854	-2.0271	-2.4417	-2.0542	-2.2062	-2.8979	-1.6292	-2.2479	-2.5333	-1.7313	-2.4688	-2.0667	-1.8083	-2.6688	66.571	189.939	147.045	106.182	-46.779	-111.281	177.610	106.438	-120.694	-47.515	19.887	-97.648	162.712	-117.772	99.338	137.131	0.00031511	0.00050978	0.00014242	1390.6	3.5404e-06	6.3045e-06	1390.3	379.88	5.222e-06	6.4336e-06	434.2	143.14	124.25	43.194	5.7995e-06	52.948	0.00045428	0.00046319	0.00013276	1403	5.167e-06	5.21e-06	1402.9	385.45	5.3774e-06	5.0029e-06	439.3	146.36	126.99	44.045	5.1514e-06	54.188	-129.356	-54.018	-46.066	-134.858	-35.645	-7.964	-134.815	-130.493	-6.700	-1.152	-131.127	-126.571	-126.173	-121.685	-17.222	-122.256	-8191	255	
1271.047	1	1	0	0	0.18023	0.093222	0.20848	0.20415	0.086614	0.15786	0.25523	0.11931	0.38295	0.39066	0.091903	0.23806	0.098973	0.042941	0.077816	0.28128	-1.4625	-2.325	-2.4083	-1.8062	-2.3937	-2.2	-1.7771	-2.9313	-1.8479	-2.1271	-2.45	-1.7375	-2.4854	-2.2979	-1.7687	-2.5896	-2.533	198.709	22.717	154.878	-61.727	-24.816	93.183	139.824	136.422	23.810	158.625	147.524	-27.739	-1.451	60.268	163.828	0.00036428	0.00044331	0.00012025	1394.1	3.3858e-06	4.1901e-06	1385.5	380.29	5.2146e-06	5.5497e-06	431.61	143	123.48	43.031	3.9011e-06	53.159	0.00045544	0.00046907	0.0001303	1401.7	5.2222e-06	5.0631e-06	1401.1	385.3	5.2897e-06	5.0378e-06	437.95	146.16	126.96	43.968	5.1116e-06	54.202	-128.526	-80.638	-81.317	-134.797	4.463	-7.742	-135.125	-130.541	-17.241	12.216	-130.794	-126.684	-126.373	-121.541	12.852	-121.721	-8191	255	
1271.143	1	1	0	0	0.18948	0.20651	0.11851	0.16954	0.026457	0.24676	0.41687	0.1872	0.08922	0.31775	0.28412	0.097478	0.049175	0.27001	0.23865	0.20888	-1.3083	-2.0812	-2.5187	-1.8875	-2.4188	-2.0271	-1.9229	-2.7396	-1.925	-1.9854	-2.8146	-1.9167	-2.5687	-2.3812	-1.6771	-2.7271	118.270	187.606	-69.203	187.634	112.948	-14.712	195.702	192.730	-145.405	-89.243	184.536	-97.933	-123.810	169.675	-117.626	108.729	0.00031261	0.00060606	0.00017509	1392.6	3.7873e-06	4.2633e-06	1383.3	378.5	3.0313e-06	4.1354e-06	433.86	142.29	123.86	42.986	3.4567e-06	52.821	0.00045456	0.00047002	0.00012892	1401.4	5.0748e-06	4.914e-06	1398.1	384.88	5.1248e-06	5.0299e-06	438.75	145.87	126.77	43.848	5.0957e-06	54.066	-132.035	-47.232	-49.836	-134.698	2.938	-29.853	-134.835	-130.483	-18.696	-6.660	-131.003	-126.858	-125.921	-121.485	-16.094	-121.914	-8191	255	
1271.263	1	1	0	0	0.023163	0.23137	0.14024	0.17632	0.2062	0.137	0.085262	0.27677	0.29201	0.13126	0.032428	0.35747	0.10408	0.19128	0.12151	0.44008	-1.5208	-1.8979	-2.5604	-2.0375	-2.1437	-2.4813	-1.7062	-2.5896	-2	-1.7667	-2.6958	-1.8917	-2.2646	-2.3896	-1.6583	-2.6083	84.346	49.615	207.037	115.126	200.644	11.977	156.307	130.580	114.630	130.830	52.761	198.250	76.112	202.363	30.752	148.309	0.00034981	0.00042448	0.00018431	1390.7	1.8205e-06	4.8224e-06	1387.3	379.96	2.8782e-06	5.234e-06	434.04	143.11	123.36	43.055	3.176e-06	53.206	0.00045219	0.00045676	0.00012657	1399.5	5.1476e-06	5.0305e-06	1400.5	385.06	5.2777e-06	5.0555e-06	438.43	146.47	126.67	43.998	5.2223e-06	54.292	-126.922	-48.547	-55.227	-134.861	0.613	14.638	-134.853	-130.508	-13.328	8.701	-131.010	-126.734	-126.172	-121.311	-10.369	-121.935	-8191	255	
1271.360	1	1	0	0	0.087651	0.088832	0.071953	0.19151	0.16473	0.14719	0.28706	0.29789	0.026716	0.027928	0.091604	0.11353	0.1628	0.25241	0.36588	0.3264	-1.6208	-1.7062	-2.4667	-1.9208	-2.0458	-2.3958	-1.8729	-2.6042	-2.0604	-1.5667	-2.8208	-1.85	-2.0875	-2.5812	-1.7667	-2.4625	-64.381	6.649	-77.287	210.421	-32.830	59.853	151.747	-128.347	-78.313	-129.568	-144.465	177.540	180.119	166.875	-92.046	121.514	0.00033447	0.00047059	0.0001709	1393.9	2.9412e-06	4.4305e-06	1388.4	380.14	4.6148e-06	7.4468e-06	433.95	142.67	124.18	42.843	4.7369e-06	52.64	0.00045674	0.00047974	0.00012771	1403.3	5.0498e-06	5.0991e-06	1400.9	385.14	5.1508e-06	5.1379e-06	438.71	145.89	126.92	43.854	5.1064e-06	53.823	-129.515	-44.395	-83.604	-134.866	-29.063	-9.873	-135.023	-130.319	-21.097	8.891	-130.999	-126.638	-126.188	-121.551	-19.836	-122.049	-8191	255	
1271.431	1	1	0	0	0.17972	0.089476	0.068589	0.067376	0.15738	0.12864	0.36012	0.17912	0.12703	0.035194	0.38724	0.24648	0.13999	0.17489	0.11782	0.16961	-1.7062	-1.7188	-2.475	-2.025	-1.8708	-2.5146	-1.7604	-2.6208	-2.3396	-1.6562	-2.4521	-2.0312	-1.9562	-2.5854	-1.7458	-2.4354	138.917	69.925	158.090	155.953	51.196	-83.468	167.605	176.419	10.754	-14.009	182.513	158.390	-139.853	-47.212	136.376	157.134	0.00033097	0.00044011	0.00023212	1388.2	3.7713e-06	5.5741e-06	1378.4	377.21	3.5051e-06	4.5698e-06	430.46	142.48	123.21	42.994	3.9041e-06	52.774	0.00045228	0.00046047	0.00012476	1398.8	4.9603e-06	4.8351e-06	1393.6	382.77	4.9205e-06	4.9772e-06	437	145.46	126.18	43.807	4.9301e-06	53.837	-129.804	-71.741	-53.179	-135.140	-21.577	13.989	-135.044	-130.493	-37.834	15.212	-130.906	-126.926	-126.171	-121.714	-22.659	-122.310	-8191	255	
1271.552	1	1	0	0	0.074175	0.25245	0.2487	0.46317	0.033299	0.16486	0.13823	0.22407	0.03763	0.19677	0.005487	0.30118	0.18448	0.33726	0.14357	0.30802	-2.0354	-1.6708	-2.5062	-2.0792	-1.7958	-2.7	-2.0333	-2.5187	-2.5354	-1.5875	-2.5208	-2.2521	-1.8021	-2.7958	-1.8792	-2.1417	156.160	56.144	-78.859	198.915	-135.715	-34.496	129.691	142.121	177.103	82.501	-135.113	155.051	154.697	149.508	133.103	87.038	0.00031833	0.00056076	0.0001352	1387.2	2.7602e-06	3.7382e-06	1379.9	378.99	3.8269e-06	2.6308e-06	432.36	143.14	124.02	42.894	4.5584e-06	52.595	0.00044379	0.00046051	0.00012438	1396.6	5.0586e-06	4.9496e-06	1395.6	384	5.1097e-06	4.9158e-06	437.59	145.98	126.75	43.885	5.0806e-06	53.91	-128.452	-58.150	-39.169	-135.094	-23.128	19.515	-135.202	-130.675	-31.437	37.083	-130.874	-126.911	-126.527	-121.635	-15.361	-122.098	-8191	255	
1271.646	1	1	0	0	0.20224	0.14192	0.043319	0.052145	0.22126	0.12793	0.19033	0.094286	0.030862	0.17565	0.19843	0.2435	0.10227	0.15663	0.29163	0.30503	-2.2292	-1.6938	-2.2687	-2.3708	-1.6333	-2.6104	-2.0875	-2.3063	-2.6521	-1.8333	-2.55	-2.3458	-1.6479	-2.7125	-1.9167	-2.1021	-38.298	82.159	194.193	133.069	110.775	82.772	100.217	130.705	194.875	15.698	144.788	-144.385	160.252	-43.570	172.034	130.180	0.00034068	0.00028219	0.00014466	1393.2	4.9259e-06	6.093e-06	1381	379.06	3.7654e-06	2.5054e-06	432.97	142.82	123.63	43.032	4.4065e-06	53.097	0.00045244	0.00046891	0.00012636	1400.7	5.0653e-06	5.0098e-06	1396.6	384.8	5.1652e-06	5.0005e-06	438.47	145.98	126.97	43.957	5.091e-06	54.13	-130.875	-54.278	-40.590	-134.917	-6.064	-4.795	-135.269	-130.550	-23.058	-12.286	-131.283	-127.197	-126.312	-121.625	-8.152	-122.180	-8191	255	
1271.742	1	1	0	0	0.24081	0.048237	0.28906	0.15339	0.16187	0.050164	0.13014	0.11645	0.15035	0.087005	0.24696	0.3841	0.13859	0.12674	0.021343	0.29754	-2.3021	-1.6354	-2.2417	-2.4458	-1.6125	-2.6562	-2.0979	-2.0187	-2.6521	-1.6604	-2.4417	-2.5646	-1.8312	-2.6042	-2.1771	-1.95	70.324	-26.664	-9.289	182.047	-99.499	129.175	80.429	65.220	175.646	-90.908	-126.502	196.486	110.413	128.764	120.606	150.543	0.000325	0.00048721	0.00015707	1390.7	3.6333e-06	4.1469e-06	1383.6	378.7	2.2234e-06	5.9372e-06	433.23	142.88	122.95	42.897	3.9034e-06	53.056	0.00044166	0.00046089	0.00012611	1400.9	5.1121e-06	5.0717e-06	1399.4	384.24	5.1624e-06	5.199e-06	438.14	146.05	126.7	43.877	5.1832e-06	54.116	-126.614	-72.641	-34.344	-135.147	-8.601	-11.977	-135.021	-130.622	-26.062	14.468	-131.182	-127.082	-126.945	-121.679	-4.729	-122.399	-8191	255	
1271.839	1	1	0	0	0.095357	0.031944	0.10705	0.19861	0.10501	0.12059	0.06057	0.23036	0.053899	0.12732	0.2917	0.29744	0.064468	0.20426	0.091872	0.24508	-2.2188	-1.8646	-2.2542	-2.5417	-1.6979	-2.4333	-2.2896	-1.7812	-2.4938	-1.8542	-2.3458	-2.6833	-1.7542	-2.6083	-2.2354	-1.9167	-132.314	83.424	204.204	-144.927	45.242	-65.783	201.228	162.514	-67.280	-93.633	148.771	161.358	189.491	-81.783	43.329	-135.991	0.00032612	0.00057262	0.00015932	1387.3	3.3312e-06	5.4339e-06	1382.5	377.41	4.547e-06	3.7508e-06	429.27	142.04	123.06	42.781	3.9691e-06	52.507	0.00044915	0.00045789	0.0001299	1396.2	5.2106e-06	4.9706e-06	1397.6	383.94	5.1183e-06	4.9615e-06	437.76	145.65	126.37	43.782	4.9159e-06	53.925	-132.926	-65.022	-56.743	-135.536	-1.572	15.562	-135.531	-130.877	-19.155	-9.214	-131.248	-127.375	-126.658	-121.831	6.870	-122.373	-8191	255	
1271.935	1	1	0	0	0.24887	0.041345	0.13089	0.36809	0.042045	0.22222	0.21351	0.23037	0.049804	0.24385	0.23075	0.081183	0.23886	0.21007	0.29213	0.15118	-2.1437	-1.8271	-2.0125	-2.4729	-1.6375	-2.3729	-2.4396	-1.7958	-2.6021	-1.8333	-2.0625	-2.6125	-1.7938	-2.4354	-2.2792	-1.8604	34.561	40.568	89.947	171.693	105.209	33.120	156.153	146.721	203.219	79.229	-43.371	152.057	-94.835	-98.718	35.220	-142.050	0.00033031	0.00042357	0.00013224	1384.3	1.9963e-06	4.7711e-06	1381	378.3	4.4647e-06	5.4863e-06	430.96	141.94	123	42.802	3.6813e-06	52.903	0.00044023	0.00045574	0.00012728	1395	5.11e-06	4.879e-06	1394.4	383.69	5.0859e-06	5.0557e-06	436.32	145.37	126.23	43.8	5.0152e-06	53.829	-129.691	-64.063	-67.821	-135.366	14.464	7.489	-135.464	-130.679	-22.452	-17.754	-131.113	-127.321	-126.739	-121.747	15.748	-122.407	-8191	255	
1272.031	1	1	0	0	0.043606	0.19652	0.17903	0.37318	0.069984	0.1139	0.06328	0.28434	0.066235	0.28647	0.14637	0.11682	0.12626	0.17851	0.078466	0.0093197	-1.9833	-2.025	-1.8875	-2.8333	-1.7021	-2.3104	-2.5833	-1.8333	-2.3292	-1.9917	-2.0167	-2.8375	-1.75	-2.2188	-2.4292	-1.8146	-84.771	174.965	52.618	199.538	151.566	-33.933	110.138	97.323	110.436	6.892	119.288	168.444	-13.742	169.829	75.357	-66.231	0.00033689	0.00057858	0.00017224	1388.3	4.2314e-06	4.6814e-06	1380.3	378.15	3.33e-06	4.2951e-06	433.35	141.8	123.86	42.904	5.8513e-06	52.729	0.00044305	0.0004618	0.00012888	1398.1	5.1633e-06	5.1606e-06	1395.1	383.5	5.1956e-06	5.0545e-06	437.73	145.64	126.55	43.822	5.0526e-06	54.016	-128.207	-45.154	-63.016	-135.370	-7.333	-11.610	-135.379	-130.881	-9.365	-18.688	-131.131	-127.102	-126.742	-121.696	-31.443	-122.271	-8191	255	
1272.127	1	1	0	0	0.39757	0.11045	0.10071	0.060805	0.083633	0.20409	0.17601	0.29981	0.08617	0.16518	0.21858	0.20424	0.13937	0.14577	0.23144	0.22726	-2.2458	-2.1417	-1.6729	-2.725	-1.7417	-2.1937	-2.9021	-1.9896	-2.5167	-2.3958	-1.825	-2.85	-1.9521	-2.1854	-2.5833	-1.8542	-81.217	171.840	78.214	137.175	137.480	68.628	139.893	99.075	48.034	-48.820	193.051	167.958	-90.726	203.529	-20.739	188.912	0.00035343	0.00041435	0.00018515	1386.2	3.6448e-06	5.6477e-06	1383.4	378.13	3.7716e-06	3.6129e-06	431.35	142.28	123	43.002	3.0692e-06	52.725	0.00044798	0.00045579	0.00012884	1397.4	5.0829e-06	5.0429e-06	1396.8	384.22	5.276e-06	5.0535e-06	436.85	145.83	126.25	43.926	4.9495e-06	54.062	-131.891	-47.701	-53.199	-135.128	12.281	10.291	-135.315	-130.955	-24.349	38.935	-131.422	-127.068	-126.983	-121.509	33.250	-122.303	-8191	255	
1272.223	1	1	0	0	0.16518	0.06017	0.19739	0.29156	0.31937	0.17322	0.14815	0.32391	0.085855	0.044117	0.2143	0.27158	0.10857	0.36154	0.23299	0.097105	-2.0687	-2.175	-1.675	-2.7646	-1.9042	-1.8813	-2.7708	-1.7875	-2.1646	-2.3312	-1.8479	-2.7812	-2.0354	-1.9979	-2.5354	-1.7854	93.370	18.558	-84.445	148.573	-48.167	7.155	137.897	198.657	10.707	-70.693	-27.131	202.417	-94.370	177.093	182.031	-126.643	0.00034386	0.00034057	9.1257e-05	1394	4.3172e-06	5.6616e-06	1380.7	379.01	4.0424e-06	4.3773e-06	432.91	142.33	123.31	43.124	4.0993e-06	53.131	0.00044472	0.00045652	0.00012948	1403.3	5.0356e-06	5.0831e-06	1397.8	384.28	5.164e-06	4.944e-06	438.95	145.91	126.93	43.992	5.0611e-06	54.229	-128.994	-84.538	-81.027	-135.006	-32.374	0.607	-135.223	-130.808	-32.628	-5.038	-131.182	-127.125	-126.678	-121.465	-4.027	-122.480	-8191	255	
1272.344	1	1	0	0	0.22073	0.045477	0.23997	0.39977	0.0058381	0.17499	0.20301	0.081393	0.12652	0.0066673	0.32419	0.18607	0.20305	0.1865	0.37004	0.09234	-2.0167	-2.3875	-1.6625	-2.7125	-2.2313	-1.7313	-2.9729	-1.9958	-2.0458	-2.575	-1.7583	-2.6125	-2.1396	-2.0042	-2.5542	-1.9417	-51.306	-22.255	32.131	-139.338	15.911	93.023	144.773	86.074	210.178	-82.187	193.111	-134.210	189.859	166.247	-140.105	-26.801	0.00033161	0.0006126	0.00014412	1396.3	4.2702e-06	4.9908e-06	1380.1	378.32	3.6925e-06	5.3851e-06	432.85	142.96	123.49	42.981	4.769e-06	52.909	0.00045574	0.00046299	0.00013266	1402.4	5.1267e-06	5.1339e-06	1398.2	384.63	5.257e-06	5.0098e-06	438.7	146.21	126.65	44.001	5.1318e-06	54.118	-126.008	-44.698	-49.578	-135.066	-6.175	-4.152	-135.406	-130.626	0.456	35.452	-131.017	-126.856	-126.315	-121.516	9.350	-121.970	-8191	255	
1272.440	1	1	0	0	0.22152	0.36034	0.15336	0.45594	0.18397	0.2255	0.29662	0.12354	0.27887	0.11586	0.1255	0.15283	0.031639	0.07039	0.2866	0.13116	-1.825	-2.4333	-1.5021	-2.5479	-2.075	-1.6167	-2.6958	-2.1188	-2.0458	-2.3958	-1.9062	-2.4604	-2.3125	-1.7208	-2.4313	-2.1042	119.640	-146.130	29.868	180.907	15.547	-3.010	143.520	-99.847	-86.334	-15.555	-99.674	-115.099	80.968	-100.609	-46.999	183.035	0.00034897	0.00048397	0.0001198	1393.4	3.1304e-06	5.6934e-06	1383.8	380.87	4.0156e-06	4.8488e-06	435.18	142.66	123.69	43.132	4.4199e-06	53.022	0.00045752	0.00045501	0.00013241	1403.9	5.0027e-06	5.0651e-06	1401.1	385.49	5.1142e-06	4.9445e-06	439.45	146.36	126.82	44.063	5.155e-06	54.243	-130.790	-65.295	-66.378	-134.878	-14.449	9.226	-135.184	-130.849	-19.154	-15.007	-130.959	-126.869	-126.822	-121.334	-7.753	-122.370	-8191	255	
1272.534	1	1	0	0	0.20588	0.22345	0.22762	0.1977	0.26433	0.24294	0.28989	0.25702	0.14948	0.28502	0.21508	0.19208	0.078832	0.22638	0.25816	0.27619	-1.5229	-2.4771	-1.7958	-2.6292	-2.3125	-1.9146	-2.7854	-2.2125	-1.8229	-2.6146	-1.7646	-2.2333	-2.3375	-1.8521	-2.4479	-2.325	131.104	-14.350	76.944	-144.623	-8.498	-99.366	162.000	101.825	95.711	82.298	199.749	77.548	91.040	153.087	-130.674	172.060	0.00036782	0.00053173	0.00011069	1397.4	5.0615e-06	3.0119e-06	1386	380.42	4.1628e-06	6.443e-06	433.58	142.67	123.94	42.994	3.6957e-06	53.028	0.00047369	0.00046543	0.0001299	1406.1	5.053e-06	5.1268e-06	1402	385.32	5.2858e-06	5.1956e-06	438.94	146.39	127.07	44.009	5.1062e-06	54.163	-132.419	-59.243	-48.688	-134.672	-5.338	-7.643	-135.054	-130.639	-11.259	6.772	-130.961	-126.794	-126.801	-121.352	21.364	-122.206	-8191	255	
1272.632	1	1	0	0	0.30542	0.28563	0.084226	0.23345	0.19409	0.042606	0.30935	0.085089	0.19422	0.075426	0.17534	0.16198	0.2059	0.23041	0.23481	0.28046	-1.3104	-2.5438	-1.8583	-2.1542	-2.3542	-1.6458	-2.6562	-2.2458	-1.6125	-2.5417	-1.9792	-2.2396	-2.5187	-1.8354	-2.4167	-2.4	121.147	33.338	128.904	155.249	168.905	63.124	188.366	36.559	-26.614	108.684	124.341	94.740	-42.515	-99.325	162.633	-10.968	0.00033868	0.00045775	0.00017802	1393	2.4723e-06	5.1408e-06	1385.3	378.19	4.4403e-06	3.8315e-06	431.32	142.58	122.79	43.32	3.9195e-06	52.95	0.00045774	0.00047532	0.00013317	1403.9	5.0915e-06	5.2119e-06	1400.1	385.1	5.2758e-06	5.0451e-06	438.65	146.18	126.54	44.076	5.1856e-06	54.171	-131.984	-46.307	-53.500	-134.815	0.022	11.235	-134.997	-130.737	-43.432	-2.227	-131.085	-127.057	-126.658	-121.610	6.365	-122.405	-8191	255	
1272.727	1	1	0	0	0.22137	0.20903	0.35432	0.061849	0.15188	0.1449	0.31842	0.31765	0.16781	0.048492	0.26015	0.13954	0.23745	0.18966	0.21793	0.080909	-1.4604	-2.5354	-1.8854	-2.2667	-2.4667	-1.5	-2.5729	-2.5917	-1.7271	-2.8438	-2.0083	-1.9583	-2.7229	-1.7917	-2.2792	-2.4542	-125.509	-2.542	-73.643	182.264	163.543	-22.198	134.820	202.106	10.601	137.682	181.355	-131.243	159.029	208.257	205.234	-97.288	0.00031475	0.00030783	0.00017406	1393.5	4.1893e-06	6.145e-06	1382	378.19	4.1682e-06	5.9679e-06	434.2	142.21	123.45	43.069	5.0095e-06	53.164	0.00046068	0.00046344	0.00013399	1403.5	5.2788e-06	5.1996e-06	1399.1	384.65	5.2375e-06	5.065e-06	438.88	145.95	126.66	44.056	5.2875e-06	54.258	-133.187	-52.145	-53.961	-135.004	-2.571	15.354	-135.117	-130.795	-1.229	2.885	-131.071	-126.649	-126.401	-121.441	-5.644	-122.130	-8191	255	
1272.823	1	1	0	0	0.12017	0.23985	0.096563	0.16583	0.19705	0.23305	0.34104	0.21006	0.2078	0.12316	0.10364	0.25759	0.15018	0.18531	0.025688	0.08277	-1.3042	-2.5417	-1.95	-1.9937	-2.5979	-1.6896	-2.4708	-2.5542	-1.5854	-2.2167	-2.2125	-1.8813	-2.6667	-1.8417	-2.2208	-2.5458	13.185	-44.168	160.370	190.315	-114.930	-34.681	184.142	-101.321	192.879	184.991	91.954	35.663	129.091	210.818	103.137	181.726	0.00033772	0.00060631	0.00015602	1397.4	5.0651e-06	5.3634e-06	1384.6	379.07	4.0018e-06	4.7158e-06	434.15	143.23	124.18	43.047	5.9221e-06	53.239	0.00047082	0.00047417	0.00013205	1404.4	5.1617e-06	5.2176e-06	1401.1	385.35	5.3841e-06	5.2241e-06	439.05	146.33	127.29	43.937	5.2894e-06	54.242	-130.364	-58.606	-51.303	-134.911	12.007	-19.050	-135.104	-130.666	-16.050	16.234	-131.149	-127.008	-126.575	-121.625	-23.611	-122.048	-8191	255	
1272.943	1	1	0	0	0.25101	0.2511	0.26517	0.19422	0.091569	0.0543	0.07483	0.37004	0.18823	0.21873	0.039728	0.028089	0.20515	0.11113	0.1124	0.31745	-1.3542	-2.3812	-2.3229	-1.9417	-2.3875	-1.9104	-2.3312	-2.6083	-1.6604	-2.4271	-2.4458	-1.9104	-2.6813	-1.9625	-2.0729	-2.6125	-118.282	8.041	83.730	-130.525	-100.349	-11.059	195.241	173.929	10.596	196.250	-104.102	109.663	64.525	49.046	33.057	114.354	0.00033421	0.00060539	0.00010652	1392.5	4.4785e-06	5.782e-06	1387.2	379.69	3.4035e-06	3.5422e-06	432.77	142.85	123.71	43.149	5.65e-06	52.752	0.00046847	0.00046359	0.00012816	1401.4	5.2078e-06	5.1401e-06	1401.4	385.18	5.2417e-06	5.0189e-06	438.75	146.26	126.85	43.942	5.1706e-06	54.088	-131.209	-57.854	-46.655	-134.869	-21.955	3.302	-134.920	-130.519	-10.035	15.422	-130.942	-126.661	-126.630	-121.631	-15.764	-122.054	-8191	255	
1273.040	1	1	0	0	0.1958	0.17259	0.060223	0.46656	0.028769	0.05335	0.36011	0.11448	0.097171	0.1837	0.14564	0.034731	0.23219	0.12896	0.19384	0.2418	-1.4042	-2.4771	-2.3229	-1.9458	-2.5729	-1.8979	-2.2208	-2.6854	-1.7646	-2.4104	-2.5229	-1.7417	-2.6875	-2.1167	-1.8479	-2.7604	181.212	-17.048	37.727	187.244	117.478	-62.448	147.380	71.585	169.884	79.633	-24.294	143.202	197.685	60.078	35.895	-97.919	0.00034561	0.00064961	0.00014411	1391.7	3.3492e-06	3.5561e-06	1384.8	379.63	2.0388e-06	4.9586e-06	433.08	142.98	123.76	42.976	6.4757e-06	53.209	0.00046564	0.00047308	0.000131	1403.9	5.113e-06	5.2114e-06	1401	385.69	5.1909e-06	5.2039e-06	438.94	146.14	126.93	43.931	5.3626e-06	54.275	-125.806	-54.763	-56.483	-134.524	2.965	-6.841	-134.629	-130.519	-21.408	11.239	-130.472	-126.392	-126.165	-121.340	-16.971	-122.008	-8191	255	
1273.136	1	1	0	0	0.010901	0.33853	0.15636	0.045104	0.22502	0.18586	0.33898	0.21289	0.14452	0.10181	0.14438	0.46686	0.37101	0.082144	0.17709	0.23137	-1.3146	-2.2333	-2.5229	-1.8708	-2.5625	-2.0833	-2.0083	-2.7292	-1.8083	-2.2333	-2.5917	-1.8708	-2.3896	-2.1917	-1.7479	-2.6292	-109.630	-17.597	132.394	41.457	170.319	0.214	146.060	196.175	12.101	78.608	165.314	159.924	-92.205	-58.439	-23.443	-93.512	0.00033854	0.00055415	0.00016629	1393.7	3.854e-06	5.2441e-06	1379.9	380.3	4.136e-06	4.5612e-06	432.11	142.83	123.42	43.109	3.7343e-06	52.927	0.00046604	0.00048346	0.00013118	1403.6	5.2319e-06	5.1098e-06	1398.8	385.05	5.2784e-06	5.2341e-06	438.41	145.85	126.83	43.904	5.2664e-06	54.066	-129.606	-44.024	-84.559	-134.735	-20.998	-8.461	-134.904	-130.421	-36.974	8.334	-130.810	-126.464	-126.093	-121.337	-42.400	-121.974	-8191	255	
1273.232	1	1	0	0	0.19406	0.073581	0.066732	0.06126	0.094967	0.19217	0.085619	0.13518	0.032143	0.17651	0.25706	0.24473	0.10045	0.15312	0.21237	0.16762	-1.6125	-1.9896	-2.525	-1.7521	-2.4333	-2.3708	-1.8687	-2.7	-1.8896	-1.9188	-2.6562	-1.6917	-2.3208	-2.4188	-1.6708	-2.65	201.371	-32.830	190.359	105.043	-83.417	-11.100	191.948	125.319	175.875	37.143	166.302	-86.502	122.494	162.537	111.655	-144.461	0.00035022	0.00043981	0.00013379	1391.5	4.5296e-06	3.6699e-06	1383.2	377.15	3.1988e-06	5.4096e-06	431.48	142.45	122.81	42.804	5.9841e-06	52.719	0.00045871	0.00047397	0.00013019	1400.8	5.2285e-06	5.0515e-06	1398.7	383.93	5.3132e-06	5.1931e-06	437.9	145.85	126.36	43.887	5.1526e-06	54.073	-131.211	-54.928	-45.752	-134.590	-19.502	-22.438	-134.671	-130.426	-0.726	18.019	-130.729	-126.697	-126.225	-121.259	-13.436	-121.645	-8191	255	
1273.328	1	1	0	0	0.14776	0.33391	0.15279	0.37696	0.083915	0.20215	0.10133	0.25972	0.048771	0.17337	0.27133	0.15091	0.14727	0.16889	0.066328	0.101	-1.8062	-1.9083	-2.4104	-2.0125	-2.2271	-2.3646	-1.9375	-2.7083	-2.1312	-1.8333	-2.6708	-2	-2.0354	-2.4729	-1.6375	-2.5083	201.863	127.798	-82.767	179.093	-8.408	157.959	69.779	-141.635	-128.308	179.558	-65.667	-119.963	162.381	208.094	-99.626	-59.040	0.00035107	0.00051925	0.00011757	1389.7	2.2763e-06	4.0539e-06	1387.3	380.56	3.4343e-06	6.4578e-06	431.71	142.79	123.84	42.914	6.3183e-06	53.214	0.00045801	0.00047166	0.00013035	1400.2	5.2037e-06	5.0382e-06	1399.7	385.07	5.1779e-06	5.1188e-06	437.88	145.96	126.66	43.86	5.2372e-06	54.127	-132.726	-48.003	-57.148	-134.684	-24.357	-15.717	-134.630	-130.058	-24.880	8.476	-130.860	-126.675	-126.183	-121.100	-12.336	-121.834	-8191	255	
#DATA ENDS
