BOXY.EXE: ISS Imagent and Oximeter Data Acquisition Program Version 0.80
Ascii Record File

#ACQ INFORMATION
2  Detector Channels 
16  External MUX Channels 
1  Auxiliary Channels 
5000  Waveform (CCF) Frequency (Hz)
1  Waveforms Skipped 
30  Waveforms Averaged 
1  Cycles Averaged 
16  Acquisitions per Waveform 
10.0806  Updata Rate (Hz) 

#FILE INFORMATION
TRUE -- External MUX Channel results are PARSED.
FALSE -- AC DC and Phase are NOT grouped.
TRUE -- Companion Program Settings File CREATED.
FALSE -- AC data not excluded
FALSE -- DC data not excluded
FALSE -- Phase data not excluded
FALSE -- Auxillary Chn. data not excluded
Tab delimiters

#CALIBRATION STATE
TRUE -- Waveform Calibration Values APPLIED.


#AUX CALIBRATION VALUES
Val Type	aux-1	

Term	1.0000e+00	
Factor	0.0000e+00	


#WF CALIBRATION VALUES
A = Detector Channel
Val Type	A-AC1	A-AC2	A-AC3	A-AC4	A-AC5	A-AC6	A-AC7	A-AC8	A-AC9	A-AC10	A-AC11	A-AC12	A-AC13	A-AC14	A-AC15	A-AC16	A-DC1	A-DC2	A-DC3	A-DC4	A-DC5	A-DC6	A-DC7	A-DC8	A-DC9	A-DC10	A-DC11	A-DC12	A-DC13	A-DC14	A-DC15	A-DC16	A-Ph1	A-Ph2	A-Ph3	A-Ph4	A-Ph5	A-Ph6	A-Ph7	A-Ph8	A-Ph9	A-Ph10	A-Ph11	A-Ph12	A-Ph13	A-Ph14	A-Ph15	A-Ph16	

Term	0.00000e+00	0.00000e+00	0.00000e+00	0.00000e+00	0.00000e+00	0.00000e+00	0.00000e+00	0.00000e+00	0.00000e+00	0.00000e+00	0.00000e+00	0.00000e+00	0.00000e+00	0.00000e+00	0.00000e+00	0.00000e+00	0.00000e+00	0.00000e+00	0.00000e+00	0.00000e+00	0.00000e+00	0.00000e+00	0.00000e+00	0.00000e+00	0.00000e+00	0.00000e+00	0.00000e+00	0.00000e+00	0.00000e+00	0.00000e+00	0.00000e+00	0.00000e+00	0.00000e+00	0.00000e+00	0.00000e+00	0.00000e+00	0.00000e+00	0.00000e+00	0.00000e+00	0.00000e+00	0.00000e+00	0.00000e+00	0.00000e+00	0.00000e+00	0.00000e+00	0.00000e+00	0.00000e+00	0.00000e+00	
Factor	1.00000e+00	1.00000e+00	1.00000e+00	1.00000e+00	1.00000e+00	1.00000e+00	1.00000e+00	1.00000e+00	1.00000e+00	1.00000e+00	1.00000e+00	1.00000e+00	1.00000e+00	1.00000e+00	1.00000e+00	1.00000e+00	1.00000e+00	1.00000e+00	1.00000e+00	1.00000e+00	1.00000e+00	1.00000e+00	1.00000e+00	1.00000e+00	1.00000e+00	1.00000e+00	1.00000e+00	1.00000e+00	1.00000e+00	1.00000e+00	1.00000e+00	1.00000e+00	X	X	X	X	X	X	X	X	X	X	X	X	X	X	X	X	

B = Detector Channel
Val Type	B-AC1	B-AC2	B-AC3	B-AC4	B-AC5	B-AC6	B-AC7	B-AC8	B-AC9	B-AC10	B-AC11	B-AC12	B-AC13	B-AC14	B-AC15	B-AC16	B-DC1	B-DC2	B-DC3	B-DC4	B-DC5	B-DC6	B-DC7	B-DC8	B-DC9	B-DC10	B-DC11	B-DC12	B-DC13	B-DC14	B-DC15	B-DC16	B-Ph1	B-Ph2	B-Ph3	B-Ph4	B-Ph5	B-Ph6	B-Ph7	B-Ph8	B-Ph9	B-Ph10	B-Ph11	B-Ph12	B-Ph13	B-Ph14	B-Ph15	B-Ph16	

Term	0.00000e+00	0.00000e+00	0.00000e+00	0.00000e+00	0.00000e+00	0.00000e+00	0.00000e+00	0.00000e+00	0.00000e+00	0.00000e+00	0.00000e+00	0.00000e+00	0.00000e+00	0.00000e+00	0.00000e+00	0.00000e+00	0.00000e+00	0.00000e+00	0.00000e+00	0.00000e+00	0.00000e+00	0.00000e+00	0.00000e+00	0.00000e+00	0.00000e+00	0.00000e+00	0.00000e+00	0.00000e+00	0.00000e+00	0.00000e+00	0.00000e+00	0.00000e+00	-1.66846e+02	-1.34632e+02	-1.19075e+02	-1.82224e+02	-8.02325e+01	-6.67277e+01	-1.58170e+02	-1.62015e+02	-8.35788e+01	-7.02546e+01	-1.73109e+02	-1.72004e+02	-1.81804e+02	-1.76196e+02	-7.46956e+01	-1.49552e+02	
Factor	2.54741e-05	1.34827e-04	4.03306e-05	1.71615e-01	1.32729e-06	1.51022e-06	1.60986e-01	4.50902e-02	1.27164e-06	1.50857e-06	1.00538e-01	2.87464e-02	2.61389e-02	8.32530e-03	1.41169e-06	1.19755e-02	1.21615e-05	1.93802e-05	5.39616e-06	9.17612e-02	1.95703e-07	2.18764e-07	8.09249e-02	2.41910e-02	1.92481e-07	2.16306e-07	5.21031e-02	1.49289e-02	1.41790e-02	4.50723e-03	2.02605e-07	6.27252e-03	X	X	X	X	X	X	X	X	X	X	X	X	X	X	X	X	



#DISTANCE SETTINGS
A = Detector Channel
A-1	A-2	A-3	A-4	A-5	A-6	A-7	A-8	A-9	A-10	A-11	A-12	A-13	A-14	A-15	A-16	

2.5000e+00	3.0000e+00	2.5000e+00	3.0000e+00	2.0000e+00	3.0000e+00	1.5000e+00	3.0000e+00	3.0000e+00	3.0000e+00	3.0000e+00	3.0000e+00	3.0000e+00	3.0000e+00	1.5000e+00	3.0000e+00	

B = Detector Channel
B-1	B-2	B-3	B-4	B-5	B-6	B-7	B-8	B-9	B-10	B-11	B-12	B-13	B-14	B-15	B-16	

1.0000e+01	1.0000e+01	1.0000e+01	1.4400e+00	1.0000e+01	1.0000e+01	1.5100e+00	1.9400e+00	1.0000e+01	1.0000e+01	1.9900e+00	2.4900e+00	2.4100e+00	2.9000e+00	1.0000e+01	2.9800e+00	




#DATA BEGINS
time	group	step	mark	flag	A-AC1	A-AC2	A-AC3	A-AC4	A-AC5	A-AC6	A-AC7	A-AC8	A-AC9	A-AC10	A-AC11	A-AC12	A-AC13	A-AC14	A-AC15	A-AC16	A-DC1	A-DC2	A-DC3	A-DC4	A-DC5	A-DC6	A-DC7	A-DC8	A-DC9	A-DC10	A-DC11	A-DC12	A-DC13	A-DC14	A-DC15	A-DC16	A-Ph1	A-Ph2	A-Ph3	A-Ph4	A-Ph5	A-Ph6	A-Ph7	A-Ph8	A-Ph9	A-Ph10	A-Ph11	A-Ph12	A-Ph13	A-Ph14	A-Ph15	A-Ph16	B-AC1	B-AC2	B-AC3	B-AC4	B-AC5	B-AC6	B-AC7	B-AC8	B-AC9	B-AC10	B-AC11	B-AC12	B-AC13	B-AC14	B-AC15	B-AC16	B-DC1	B-DC2	B-DC3	B-DC4	B-DC5	B-DC6	B-DC7	B-DC8	B-DC9	B-DC10	B-DC11	B-DC12	B-DC13	B-DC14	B-DC15	B-DC16	B-Ph1	B-Ph2	B-Ph3	B-Ph4	B-Ph5	B-Ph6	B-Ph7	B-Ph8	B-Ph9	B-Ph10	B-Ph11	B-Ph12	B-Ph13	B-Ph14	B-Ph15	B-Ph16	aux-1	digaux	

21346.203	1	1	0	768	0.045689	0.072158	0.11843	0.37566	0.19375	0.27858	0.34965	0.23586	0.11128	0.17152	0.069311	0.072011	0.21248	0.30651	0.037984	0.074271	-1.8917	-1.3896	-1.8813	-2.1063	-1.3917	-2.2021	-1.9604	-1.6833	-2.2125	-1.5063	-2.0479	-2.1688	-1.1729	-2.0792	-1.8563	-1.5792	55.560	100.081	-44.192	207.396	-72.600	22.848	193.061	177.610	208.230	195.392	205.769	164.199	147.999	210.264	74.858	137.207	0.00027746	0.00054322	0.00010428	1369	4.3565e-06	3.32e-06	1367.6	369.29	2.8757e-06	4.4847e-06	425	140.57	122.33	42.142	3.1522e-06	52.118	0.00052819	0.00057955	0.00015117	1382.7	6.2821e-06	6.0374e-06	1379.9	375.03	6.0904e-06	6.537e-06	428.71	143.89	124.92	43.113	6.3217e-06	53.306	162.398	-18.828	-1.920	-89.587	36.708	19.787	-89.785	-84.834	11.468	33.588	-85.188	-81.334	-80.811	-76.074	33.818	-76.434	-8191	255	
21346.301	1	1	0	0	0.24184	0.19745	0.19425	0.51115	0.41835	0.25476	0.36166	0.10815	0.23659	0.11424	0.23223	0.054127	0.32887	0.11963	0.21967	0.2734	-1.7417	-1.3563	-1.6354	-2.2604	-1.2958	-2.0792	-1.9521	-1.7292	-2.2646	-1.2604	-1.7979	-2.3063	-1.475	-2.0812	-1.5771	-1.4917	106.767	-58.752	223.130	174.561	84.239	32.588	190.739	254.405	138.357	-79.242	224.173	28.717	163.349	37.864	44.307	178.902	0.00027346	0.00048096	0.00013046	1369.6	3.0184e-06	5.2397e-06	1361.5	369.46	3.5668e-06	4.4206e-06	421.93	140.74	122.19	42.034	4.1217e-06	52.216	0.00051524	0.00056457	0.00015658	1381.9	6.2413e-06	6.0124e-06	1379.4	374.94	6.0519e-06	6.2675e-06	427.71	143.52	124.91	42.993	6.2407e-06	53.386	164.265	-6.123	2.015	-89.505	24.521	40.051	-89.439	-84.803	4.235	54.920	-85.199	-81.274	-80.926	-75.889	11.973	-76.410	-8191	255	
21346.396	1	1	0	0	0.35708	0.48288	0.1606	0.32109	0.079281	0.11952	0.13812	0.06311	0.1404	0.11444	0.24052	0.20677	0.13277	0.34367	0.098082	0.10727	-1.7062	-1.5167	-1.6313	-2.2542	-1.4292	-1.7104	-2.1292	-1.6	-2.1937	-1.4667	-1.5375	-2.1854	-1.4167	-1.9708	-1.7292	-1.5083	-79.068	-88.168	-75.417	199.045	93.306	145.797	181.712	223.960	60.524	-59.262	-59.770	167.841	123.809	166.726	101.985	146.333	0.00029732	0.00047057	0.00016359	1367.8	2.1076e-06	4.7216e-06	1363.8	371.26	2.3361e-06	6.5448e-06	424.31	140.41	122.43	42.166	4.0052e-06	51.912	0.00052718	0.00058068	0.00015187	1382	6.2005e-06	6.0734e-06	1379.6	375.97	6.0884e-06	6.4838e-06	428.57	143.61	124.81	43.112	6.4357e-06	53.23	156.914	-25.768	-2.286	-89.487	24.658	50.718	-89.457	-84.844	8.487	44.432	-85.092	-80.997	-80.545	-75.720	46.362	-76.598	-8191	255	
21346.492	1	1	0	0	0.31048	0.15261	0.15294	0.012068	0.2049	0.1678	0.061947	0.31992	0.18821	0.13294	0.08678	0.31058	0.32423	0.038756	0.17054	0.17199	-1.6979	-1.6854	-1.6	-2.2396	-1.3583	-1.9146	-2.2687	-1.6479	-1.9625	-1.8146	-1.6375	-2.3271	-1.4917	-1.8771	-2.1708	-1.5104	-14.726	93.313	198.845	135.901	54.850	33.045	118.731	222.352	-83.880	170.878	36.422	194.214	-86.817	244.603	57.530	-94.819	0.00029283	0.0005322	0.00015794	1367	1.7706e-06	3.8106e-06	1360	369.88	3.6744e-06	3.6812e-06	422.43	140.95	122.3	42.191	4.3148e-06	52.02	0.00051611	0.0005932	0.00015334	1381.1	6.2132e-06	6.1532e-06	1378.9	374.84	6.0792e-06	6.4009e-06	428.03	143.57	124.82	43.066	6.2014e-06	53.252	154.423	-20.794	-9.189	-89.363	-26.378	48.664	-89.449	-84.632	19.282	31.159	-85.181	-81.261	-80.895	-75.438	41.716	-76.400	-8191	255	
21346.588	1	1	0	0	0.21301	0.10174	0.35799	0.066446	0.13765	0.27297	0.12989	0.092291	0.16269	0.053944	0.14978	0.20079	0.17168	0.16694	0.14847	0.045905	-1.6417	-1.6583	-1.1708	-2.3875	-1.3833	-1.5958	-2.2917	-1.6146	-1.9292	-1.725	-1.5854	-2.2167	-1.6479	-1.5875	-2	-1.5604	161.197	123.254	6.601	211.504	118.722	29.885	203.114	157.518	198.663	153.512	212.550	239.791	135.122	76.047	-24.506	120.401	0.00027537	0.00044313	0.00016508	1368.6	3.1622e-06	4.9829e-06	1362.2	368.09	3.7167e-06	6.6381e-06	421.59	140.39	121.81	41.961	3.9817e-06	51.825	0.00052112	0.00055476	0.00015668	1380.2	6.28e-06	6.1897e-06	1380.7	374.59	6.2043e-06	6.3071e-06	428.07	143.25	124.65	43.047	6.0528e-06	53.281	159.304	-11.451	-1.580	-89.525	15.260	69.061	-89.554	-84.724	0.899	59.541	-85.190	-81.213	-80.697	-75.760	23.973	-76.495	-8191	255	
21346.684	1	1	0	0	0.057927	0.17563	0.20473	0.27903	0.33361	0.041443	0.43307	0.33441	0.35616	0.078443	0.1455	0.26336	0.21071	0.15375	0.32967	0.13171	-1.6479	-1.725	-1.1187	-2.2667	-1.4979	-1.5854	-2.3563	-1.6104	-1.8333	-1.9562	-1.2042	-2.0979	-1.5	-1.5	-2.1958	-1.4688	-90.648	145.458	67.614	255.563	76.570	-55.773	160.528	183.555	46.640	158.251	109.083	155.155	122.758	237.002	72.704	145.915	0.00028277	0.00034235	0.00015038	1368.4	4.0181e-06	6.269e-06	1366.8	369.05	2.905e-06	4.1712e-06	422.43	140.64	121.79	42.238	4.5107e-06	52.219	0.00052469	0.00056606	0.00015833	1381.6	6.3938e-06	6.3369e-06	1380.6	374.9	6.1069e-06	6.2792e-06	428.27	143.74	124.66	43.044	6.0043e-06	53.285	155.407	-17.990	4.277	-89.276	51.687	34.206	-89.256	-84.796	14.919	19.746	-85.067	-80.998	-80.499	-75.710	37.749	-76.655	-8191	255	
21346.805	1	1	0	0	0.09089	0.16554	0.18596	0.076732	0.22159	0.20101	0.45104	0.2332	0.13092	0.039068	0.11061	0.32133	0.21257	0.024129	0.050231	0.18638	-1.4062	-2.0729	-1.1083	-2.1937	-1.8604	-1.1125	-2.3896	-1.5958	-1.6917	-1.9854	-1.3479	-2.0896	-1.8354	-1.3917	-2.2146	-1.5396	-43.049	41.332	205.007	168.545	116.025	211.781	220.183	113.631	30.919	-95.871	129.874	232.456	-88.253	239.794	141.491	163.127	0.00025735	0.0006209	0.00017934	1370.7	3.8842e-06	5.627e-06	1359.8	368.78	3.3244e-06	5.5361e-06	423.79	140.69	121.52	42.131	4.4803e-06	52.146	0.00052211	0.00057414	0.00015635	1382.2	6.384e-06	6.2343e-06	1377.8	374.69	6.1349e-06	6.2914e-06	428.36	143.5	124.87	43.07	6.0245e-06	53.229	161.336	-17.101	-17.747	-89.247	35.561	58.933	-89.073	-84.453	15.482	34.818	-84.933	-80.913	-80.444	-75.536	34.375	-76.337	-8191	255	
21346.900	1	1	0	0	0.1548	0.065138	0.45787	0.39785	0.23804	0.15228	0.33969	0.21671	0.083798	0.057467	0.13811	0.036409	0.16183	0.39537	0.30106	0.16596	-1.1313	-2.1292	-1.1292	-2.2083	-1.9312	-1.2396	-2.3833	-1.5979	-1.5833	-2.075	-1.4333	-2.0354	-2.0875	-1.6083	-2.0604	-1.6479	143.374	-69.187	135.951	221.963	226.183	-30.174	-82.869	241.515	-50.277	15.047	204.536	116.510	-21.184	-60.329	254.234	198.195	0.00024428	0.00043396	0.00017489	1368.2	2.3098e-06	5.6958e-06	1365.4	368.31	3.587e-06	5.0231e-06	420.01	140.27	121.85	42.043	3.9733e-06	51.957	0.0005215	0.00055755	0.00015977	1381.1	6.0749e-06	6.4526e-06	1381	374.33	6.3667e-06	6.171e-06	427.51	143.54	124.95	43.085	5.9507e-06	53.313	160.026	-31.485	0.532	-89.039	26.602	54.906	-89.215	-84.857	-19.262	50.661	-85.009	-80.629	-80.603	-75.499	16.831	-76.179	-8191	255	
21346.994	1	1	0	0	0.20157	0.071917	0.066063	0.26057	0.018829	0.29369	0.072582	0.14194	0.26742	0.11242	0.30095	0.17534	0.23082	0.1032	0.21028	0.15712	-1.2146	-2.0417	-1.4208	-2.0208	-1.9354	-1.3604	-2.2875	-1.7875	-1.6979	-2.2208	-1.5	-1.8708	-2.2812	-1.3354	-2.1833	-1.8875	-24.797	129.614	184.784	162.369	140.099	-100.243	207.310	229.138	72.306	199.045	176.369	170.880	154.631	110.826	-40.081	170.908	0.00029734	0.00056565	0.00015363	1362.9	3.9244e-06	5.8409e-06	1367.6	368.84	2.2903e-06	3.8119e-06	423.14	140.5	121.83	42.177	3.6999e-06	52.267	0.00052193	0.00056574	0.00015625	1379.2	5.9971e-06	6.5287e-06	1380.8	374.78	6.2733e-06	6.3337e-06	428.52	143.71	124.71	43.102	6.1195e-06	53.413	152.783	-10.175	0.112	-89.119	12.222	46.968	-89.098	-84.517	-0.109	41.831	-84.774	-81.179	-80.607	-75.694	50.676	-76.402	-8191	255	
21347.094	1	1	0	0	0.11068	0.38073	0.13998	0.32253	0.3624	0.29818	0.21891	0.26249	0.16503	0.17275	0.24115	0.22187	0.22814	0.55761	0.2665	0.18155	-1.0625	-2.2646	-1.4458	-1.8646	-1.9104	-1.3146	-2.2208	-2.1208	-1.3312	-2.4417	-1.55	-1.7208	-2.2896	-1.3292	-2.0875	-2.0208	210.385	157.005	-77.869	248.591	25.346	120.419	-46.414	220.959	80.435	13.642	237.885	236.208	170.192	233.014	32.245	185.216	0.00028546	0.00047568	0.00014004	1362.2	2.9299e-06	5.0306e-06	1360.9	368.09	1.2871e-06	4.2082e-06	422.79	140.49	122.15	42.095	4.1484e-06	51.701	0.00052994	0.00054329	0.00016073	1379	6.11e-06	6.3856e-06	1379.9	374.37	6.2199e-06	5.9876e-06	428.28	143.58	125.01	43.031	6.1372e-06	53.309	158.162	-3.620	-8.711	-89.171	45.555	57.745	-89.266	-84.812	-34.330	18.371	-85.055	-81.095	-80.776	-75.785	51.669	-76.482	-8191	255	
21347.188	1	1	0	0	0.081831	0.13177	0.17217	0.33717	0.051962	0.27521	0.32495	0.36114	0.19399	0.054952	0.015558	0.25505	0.15819	0.12006	0.01917	0.086237	-1.1208	-2.1229	-1.5771	-1.6667	-2.1458	-1.2833	-2.0104	-1.8312	-1.4438	-2.125	-1.6625	-1.7646	-2.1833	-1.6396	-1.8167	-2.2938	250.047	-83.874	81.833	213.633	0.057	-83.310	186.365	232.218	214.045	-85.207	162.302	-75.102	124.655	2.410	-67.876	-55.643	0.00028633	0.00055752	0.00011713	1372.6	4.1258e-06	5.6347e-06	1362.1	368.8	4.4278e-06	5.6056e-06	422.14	140.4	122.11	42.267	4.9783e-06	52.114	0.00053782	0.00056182	0.00016085	1383	5.9612e-06	6.3774e-06	1379.2	374.42	6.3182e-06	6.0512e-06	428.04	143.61	124.66	43.098	5.9313e-06	53.295	163.257	-13.457	-1.088	-89.094	37.618	40.018	-89.534	-84.936	-1.347	76.150	-85.229	-81.109	-80.804	-75.734	45.828	-76.461	-8191	255	
21347.283	1	1	0	0	0.12034	0.11675	0.16819	0.32026	0.27826	0.20021	0.31479	0.41927	0.32886	0.17928	0.2898	0.23442	0.30833	0.26903	0.33772	0.21822	-0.88958	-2.1458	-1.6167	-1.45	-2.1104	-1.1917	-1.9542	-2.3854	-1.2125	-2.1375	-1.9271	-1.4458	-2.4208	-1.7417	-1.5604	-2.1708	131.448	53.640	252.404	214.612	-73.777	70.514	-78.300	214.513	64.816	33.062	-97.473	-81.980	224.343	-97.528	56.085	43.355	0.0002738	0.0003109	0.00011793	1371.4	3.9058e-06	6.0108e-06	1361	368.16	3.1302e-06	5.423e-06	422.72	140.46	122.31	42.082	4.119e-06	51.978	0.00054342	0.0005508	0.00016067	1380.9	6.183e-06	6.495e-06	1379.1	374.15	6.2099e-06	5.9984e-06	427.98	143.6	124.71	43.079	6.2415e-06	53.216	161.909	-16.772	-14.914	-89.548	35.492	52.726	-89.646	-85.143	1.666	49.183	-85.500	-81.298	-80.914	-76.060	38.087	-76.921	-8191	255	
21347.381	1	1	0	0	0.17419	0.17243	0.11409	0.21298	0.11154	0.20509	0.36831	0.29184	0.48349	0.13894	0.020727	0.10602	0.17183	0.038861	0.065662	0.062866	-0.73958	-1.8646	-1.8917	-1.5187	-2.2438	-1.4604	-1.8396	-2.175	-1.5896	-2.0312	-2.1	-1.55	-2.2979	-1.7354	-1.5667	-2.1917	223.494	-43.251	-75.916	199.854	-40.163	202.523	214.452	165.281	-86.117	100.785	-83.832	24.796	158.459	17.384	190.389	171.464	0.00027287	0.00057529	0.00018373	1364.4	2.3541e-06	5.3151e-06	1357.3	368.37	3.567e-06	3.7669e-06	422.69	140.38	122.36	42.046	4.646e-06	51.998	0.00053838	0.00057414	0.0001597	1380.9	5.8544e-06	6.2234e-06	1378.5	374.91	6.3896e-06	5.8966e-06	428.55	143.29	124.73	42.975	6.2474e-06	53.293	160.712	-17.961	-10.661	-89.536	26.537	46.807	-89.674	-84.975	3.983	41.443	-85.454	-81.293	-80.855	-76.034	48.260	-76.704	-8191	255	
21347.502	1	1	0	0	0.1745	0.109	0.25253	0.20465	0.14691	0.36084	0.30802	0.095716	0.1176	0.15338	0.24099	0.24489	0.35204	0.13237	0.30613	0.11084	-0.87083	-1.7625	-2	-1.5167	-2.1771	-1.7229	-1.7979	-2.4125	-1.4375	-1.725	-2.1083	-1.4292	-2.2771	-1.7646	-1.525	-2.2146	156.218	-98.977	34.684	214.235	-83.433	167.879	125.269	151.793	128.769	-33.664	234.382	202.423	245.420	102.087	-73.464	-41.778	0.00032467	0.00054851	0.00014778	1369.8	4.4743e-06	4.8179e-06	1360.1	369.82	3.3648e-06	5.6329e-06	418.91	140.17	122.02	42.1	4.2865e-06	51.805	0.00054431	0.00054499	0.00015937	1381.7	5.8878e-06	6.2589e-06	1378.9	374.7	6.3274e-06	6.0422e-06	426.85	143.32	124.68	43.021	6.1246e-06	53.235	157.986	-29.107	20.309	-89.579	34.223	56.173	-89.377	-85.207	9.789	38.632	-85.135	-81.225	-80.512	-76.149	37.722	-76.651	-8191	255	
21347.598	1	1	0	0	0.13048	0.2838	0.23134	0.035459	0.13041	0.15131	0.26083	0.24441	0.1787	0.28464	0.074417	0.13854	0.2635	0.18506	0.17971	0.098539	-0.7625	-1.7229	-1.9625	-1.4625	-1.9229	-1.8833	-1.55	-2.2104	-1.375	-1.7563	-2.1979	-1.3292	-2.0542	-1.9333	-1.175	-2.3833	238.822	221.933	-99.138	171.825	222.083	22.480	175.658	163.545	13.712	13.281	-26.809	113.056	-34.679	-40.508	201.654	200.324	0.00029506	0.00053164	0.00014769	1370.3	3.8728e-06	3.2145e-06	1361.5	368.18	2.161e-06	5.9064e-06	422.89	140.42	122.18	42.204	3.9727e-06	51.983	0.00053936	0.0005573	0.00016371	1380.1	6.0909e-06	6.4426e-06	1378.5	374.59	6.4285e-06	6.1183e-06	428.98	143.46	124.87	43.017	6.1474e-06	53.288	165.574	-23.295	1.345	-89.686	22.822	35.517	-89.481	-84.960	26.189	47.263	-85.320	-81.216	-80.912	-76.050	26.297	-76.796	-8191	255	
21347.693	1	1	0	0	0.19015	0.22923	0.1527	0.30101	0.19636	0.47203	0.2714	0.22822	0.14622	0.054014	0.22979	0.18083	0.16851	0.11529	0.16744	0.25942	-1.2333	-1.5938	-2.0646	-1.4292	-1.8604	-1.9458	-1.5458	-2.2458	-1.5229	-1.4854	-2.1646	-1.5854	-1.9708	-2.0958	-1.2792	-2.1104	-36.309	247.585	49.069	175.260	-53.742	146.400	231.960	200.083	64.561	138.911	234.012	212.154	-69.090	6.791	-68.568	120.936	0.00029322	0.00059345	0.0001469	1370.9	2.7595e-06	5.4419e-06	1365.1	369.48	4.3968e-06	4.7211e-06	420.22	139.81	122.15	42.02	4.0861e-06	51.822	0.00052733	0.00056885	0.00015349	1381.4	6.0778e-06	6.3574e-06	1378.8	374.38	6.2328e-06	6.1273e-06	427.14	143.11	124.77	43.035	6.19e-06	53.212	155.279	-16.760	10.836	-89.686	11.444	73.201	-89.597	-85.000	16.718	54.611	-85.358	-81.353	-80.956	-75.949	21.134	-76.466	-8191	255	
21347.766	1	1	0	0	0.048023	0.062031	0.12977	0.24001	0.40759	0.062322	0.38107	0.12159	0.06076	0.15846	0.12481	0.15828	0.3121	0.19122	0.22156	0.10095	-1.2208	-1.3813	-2.2521	-1.5729	-1.8646	-1.9854	-1.6333	-2.2333	-1.7354	-1.2	-2.2042	-1.6375	-1.8458	-2.275	-1.1938	-2.1021	82.665	127.118	66.619	-86.763	-87.517	36.132	245.301	256.252	-102.793	15.230	238.368	-89.839	-95.769	58.329	62.150	215.419	0.00024571	0.00059342	0.00013742	1364	2.9288e-06	4.1672e-06	1364.9	369.86	2.1923e-06	4.9252e-06	421.98	140.01	122.08	42.189	4.8488e-06	51.957	0.00053093	0.00055682	0.00015178	1378	5.9987e-06	6.2521e-06	1379.9	375.04	6.2917e-06	6.0566e-06	427.96	143.19	124.69	43.013	6.0942e-06	53.098	160.578	-23.802	0.360	-89.486	32.278	44.735	-89.558	-84.968	27.313	70.578	-85.449	-81.246	-80.610	-75.870	36.851	-76.665	-8191	255	
21347.885	1	1	0	0	0.11695	0.21036	0.3223	0.22626	0.16696	0.18854	0.074872	0.16503	0.25655	0.11659	0.33234	0.36173	0.26573	0.070246	0.11681	0.15933	-1.3542	-1.4229	-2.2313	-1.7333	-1.4333	-2.1292	-1.6021	-1.9583	-1.7604	-1.2708	-2.2083	-1.55	-1.7042	-2.1729	-1.3	-2.0417	165.562	73.477	176.649	151.591	-76.729	218.099	237.311	218.319	145.411	62.412	78.373	192.668	252.137	-12.170	102.206	228.634	0.00029659	0.00059687	0.0001092	1367.7	4.0293e-06	5.1683e-06	1359	369.34	2.9738e-06	4.0391e-06	423.1	139.85	121.4	41.975	3.2097e-06	52.022	0.00052132	0.0005682	0.00014907	1379.3	5.9441e-06	6.0452e-06	1377.7	374.45	6.1209e-06	5.9236e-06	427.96	143.05	124.49	43.014	6.0625e-06	53.307	163.795	-16.649	5.392	-89.406	50.489	56.254	-89.782	-84.978	5.860	48.090	-85.215	-81.284	-80.733	-75.719	45.785	-76.393	-8191	255	
21347.980	1	1	0	0	0.01493	0.54385	0.26446	0.53599	0.16754	0.054619	0.10494	0.17178	0.1692	0.10954	0.36998	0.17285	0.28187	0.35917	0.16929	0.14487	-1.5812	-1.3646	-1.9271	-1.6938	-1.4354	-2.2521	-1.8271	-2.0125	-1.9604	-1.3	-2.1354	-1.7604	-1.6083	-2.2792	-1.3125	-1.8917	93.165	-67.147	-84.055	232.973	-53.171	196.454	-102.161	208.050	200.822	136.477	-102.778	81.468	216.100	193.250	-35.557	106.943	0.00029297	0.00073552	0.00013852	1372.1	3.6346e-06	4.2513e-06	1360.3	368.71	4.0145e-06	6.7341e-06	423.2	140.11	121.7	42.124	4.7094e-06	51.695	0.00052247	0.00057002	0.000149	1382.6	5.9119e-06	5.9631e-06	1379.4	374.25	5.9729e-06	5.9755e-06	427.91	143.28	124.57	42.997	6.1064e-06	53.116	156.176	-5.395	2.103	-89.616	23.168	48.822	-89.723	-84.869	0.682	47.127	-85.364	-81.201	-80.687	-75.895	26.155	-76.741	-8191	255	
21348.076	1	1	0	0	0.15622	0.094323	0.15561	0.26508	0.30251	0.12959	0.28963	0.10806	0.12937	0.43282	0.18567	0.22579	0.21834	0.30713	0.11291	0.075826	-1.5104	-1.2604	-2.0583	-1.8958	-1.3896	-2.3021	-1.5625	-1.8646	-2.0458	-1.1396	-1.9708	-1.8542	-1.5521	-2.1875	-1.4083	-1.575	64.547	59.748	227.596	196.600	199.027	26.320	202.611	193.272	-77.333	46.396	211.245	166.694	-87.759	222.183	42.547	54.274	0.00026644	0.00039148	6.4645e-05	1365.3	3.5934e-06	3.9001e-06	1363.8	368.81	1.8896e-06	2.9918e-06	423.87	140.25	122.13	42.021	4.3165e-06	51.848	0.00050154	0.00053667	0.00014239	1379.1	5.929e-06	5.7644e-06	1379.6	375.06	5.837e-06	5.8263e-06	427.96	143.25	124.8	42.979	6.0773e-06	53.237	160.132	-24.066	3.549	-89.538	60.435	75.713	-89.601	-84.659	21.051	9.095	-85.012	-81.165	-80.674	-75.897	21.545	-76.390	-8191	255	
21348.174	1	1	0	0	0.29416	0.13608	0.18949	0.08421	0.12331	0.12556	0.1676	0.32801	0.15943	0.19296	0.43251	0.12589	0.26069	0.14753	0.10329	0.31912	-1.5812	-1.2687	-1.8479	-1.9646	-1.175	-2.0771	-1.7083	-1.625	-2.1188	-1.2062	-1.9062	-2.0125	-1.4062	-2.1188	-1.6646	-1.6417	42.597	-71.922	218.730	-36.199	148.846	6.405	185.800	192.216	44.726	208.071	232.052	210.492	219.868	182.396	-97.596	249.200	0.00026806	0.00037231	0.00016048	1370.6	3.7016e-06	5.6411e-06	1361.9	369.02	4.2254e-06	6.1003e-06	424.38	139.78	122.08	42.144	3.7774e-06	51.925	0.00052287	0.00056489	0.0001495	1381.5	6.3122e-06	5.9217e-06	1377.5	374.64	5.9837e-06	6.098e-06	428.44	143.31	124.76	43.096	6.0836e-06	53.173	161.516	-36.410	-25.601	-89.508	30.564	50.555	-89.520	-84.795	-10.626	68.548	-85.308	-81.412	-80.813	-75.731	31.582	-76.250	-8191	255	
21348.293	1	1	0	0	0.085531	0.19939	0.042022	0.10121	0.045403	0.13579	0.14615	0.21051	0.19772	0.057489	0.22756	0.20572	0.25828	0.13513	0.25222	0.23731	-1.8708	-1.2979	-1.7125	-1.9708	-1.1604	-1.9792	-1.9083	-1.8125	-2.1188	-1.3354	-1.8229	-2.1146	-1.5688	-1.9854	-1.8354	-1.5438	-25.936	34.798	40.042	182.519	205.120	254.338	217.128	237.144	-93.379	194.938	-61.145	151.518	250.896	218.878	198.592	210.071	0.00026227	0.00052434	0.00015101	1371.3	3.535e-06	5.9622e-06	1360.5	368.84	1.6041e-06	5.1545e-06	421.8	140.12	122.26	41.989	4.4816e-06	52.057	0.00050014	0.00056837	0.00014556	1382.5	6.1059e-06	6.0078e-06	1379.1	374.67	5.9412e-06	6.1075e-06	427.82	143.29	124.86	43.044	6.2647e-06	53.289	157.632	-25.591	-4.504	-89.756	36.390	48.812	-89.893	-85.105	-5.814	33.349	-85.295	-81.670	-81.169	-76.154	39.313	-76.868	-8191	255	
21348.365	1	1	0	0	0.19369	0.018794	0.074736	0.32557	0.15849	0.24246	0.32161	0.42067	0.047039	0.044776	0.3005	0.088301	0.085614	0.36792	0.090276	0.27484	-1.7417	-1.2479	-1.5417	-2.2729	-1.2354	-1.9333	-2.0271	-1.5875	-2.1396	-1.6542	-1.675	-2.1354	-1.475	-1.9958	-1.7479	-1.3	-40.579	53.787	-44.863	212.026	143.371	-101.633	150.311	236.893	208.164	5.700	253.487	134.754	253.976	187.532	56.014	-96.282	0.00030783	0.00051705	0.00016218	1366.6	1.8237e-06	5.1435e-06	1361.2	368.53	3.0809e-06	3.9545e-06	424	139.81	122	42.081	3.7735e-06	51.976	0.00050757	0.00055678	0.00014658	1381.7	6.1455e-06	5.7932e-06	1378.7	374.6	6.0559e-06	6.1503e-06	428.69	143.23	124.72	43.004	5.9891e-06	53.177	157.719	-9.683	5.144	-89.450	3.039	38.249	-89.914	-85.133	9.811	49.262	-85.365	-81.513	-80.887	-75.908	33.685	-76.585	-8191	255	
21348.484	1	1	0	0	0.17271	0.12956	0.066893	0.13189	0.17715	0.23347	0.17998	0.20632	0.14511	0.10009	0.14398	0.25036	0.38205	0.20558	0.055734	0.32476	-1.8167	-1.5438	-1.7375	-2.175	-1.2708	-1.8375	-2.1208	-1.3583	-2.05	-1.7146	-1.4896	-2.3125	-1.4979	-1.8958	-1.975	-1.3979	144.767	-27.651	7.395	150.583	136.437	181.112	221.771	197.663	219.296	254.692	109.749	224.485	187.348	132.838	0.193	191.108	0.00028423	0.0005036	0.00013758	1368.7	3.233e-06	4.9992e-06	1362.8	368.99	2.0362e-06	5.8243e-06	421.01	140.26	121.75	42.173	3.0407e-06	51.776	0.00051238	0.00057349	0.00015696	1380.5	6.3677e-06	5.9759e-06	1379.6	374.78	6.0435e-06	6.176e-06	427.4	143.6	124.68	43.05	6.2225e-06	53.222	156.957	-10.303	-30.761	-89.735	36.893	19.908	-89.687	-84.988	6.793	44.706	-85.533	-81.248	-80.953	-75.739	28.124	-76.716	-8191	255	
21348.580	1	1	0	0	0.33554	0.16327	0.21432	0.27387	0.17163	0.20904	0.23433	0.24196	0.088767	0.15358	0.22912	0.14595	0.10823	0.070964	0.19759	0.25092	-1.6208	-1.7062	-1.2083	-2.3396	-1.3958	-1.8021	-2.2188	-1.3625	-1.9625	-1.6958	-1.4813	-2.2167	-1.6833	-1.6625	-2.1333	-1.4333	57.129	146.939	66.848	247.708	253.973	105.189	194.633	222.411	21.244	108.410	228.752	154.243	135.809	31.663	2.465	228.450	0.00028799	0.00036307	0.00012698	1364.8	4.302e-06	4.4464e-06	1357.9	369.73	4.32e-06	3.3912e-06	420.93	140.2	121.91	42	3.7861e-06	51.738	0.00051307	0.00057087	0.00015352	1380.9	6.3245e-06	6.191e-06	1378.8	374.7	6.2596e-06	6.3139e-06	427.35	143.33	124.57	42.937	6.0456e-06	53.188	162.563	-45.388	-15.630	-89.517	35.019	40.586	-89.743	-85.144	5.949	22.540	-85.353	-81.440	-80.811	-76.163	4.499	-76.936	-8191	255	
21348.678	1	1	0	0	0.12463	0.22031	0.22854	0.28195	0.038778	0.10645	0.44286	0.12164	0.19657	0.11738	0.15395	0.095297	0.046741	0.0458	0.099264	0.20901	-1.6396	-1.9208	-1.4333	-2.2333	-1.6146	-1.6771	-2.3854	-1.4458	-1.9396	-1.9625	-1.6021	-2.2729	-1.6917	-1.4917	-2.0104	-1.6042	224.777	-0.699	249.018	-86.188	-49.249	156.669	150.616	-24.973	-9.024	-25.954	131.750	56.684	227.506	-8.789	77.192	137.152	0.00029354	0.0005744	0.00014211	1365.5	4.3344e-06	5.2158e-06	1363.9	368.26	2.8243e-06	4.3671e-06	422.92	139.76	121.67	41.978	4.798e-06	52.114	0.00051063	0.00057491	0.000159	1382.5	6.3485e-06	6.011e-06	1380.3	374.38	6.0126e-06	6.3531e-06	428.8	143.33	124.6	42.968	5.9756e-06	53.216	161.611	-27.618	8.564	-89.552	6.717	48.459	-89.559	-85.238	3.072	33.007	-85.431	-81.266	-80.726	-75.962	39.944	-76.821	-8191	255	
21348.773	1	1	0	0	0.076185	0.11269	0.068436	0.25673	0.01921	0.045175	0.17759	0.43098	0.095665	0.094767	0.34869	0.34479	0.17518	0.18363	0.13441	0.23771	-1.5875	-2.0187	-1.2771	-2.4875	-1.7083	-1.3937	-2.3417	-1.5063	-1.6792	-2.2417	-1.3958	-2.1208	-1.7208	-1.2979	-2.0792	-1.5583	150.351	60.558	52.886	168.762	169.514	133.784	122.720	207.408	230.047	145.409	196.396	193.376	236.171	148.775	88.702	43.041	0.00025666	0.00047878	9.4634e-05	1367.4	2.6861e-06	5.524e-06	1361.6	367.99	3.3854e-06	6.5788e-06	420.01	140.79	121.68	41.92	4.3079e-06	51.856	0.00050972	0.00057172	0.00015581	1380.8	6.1593e-06	6.2799e-06	1379.7	374.17	5.9665e-06	6.085e-06	426.88	143.61	124.42	43.023	5.8667e-06	53.16	164.590	-25.924	6.915	-89.616	21.562	67.798	-89.795	-84.908	-14.641	51.560	-85.187	-81.269	-81.244	-75.844	39.805	-76.634	-8191	255	
21348.895	1	1	0	0	0.17256	0.15857	0.27933	0.34845	0.15311	0.18058	0.12372	0.1962	0.22074	0.27134	0.17152	0.02192	0.24195	0.10679	0.13707	0.073386	-1.1646	-2.1125	-1.1167	-2.1375	-1.6708	-1.4479	-2.4146	-1.4542	-1.5917	-2.2667	-1.5729	-2.1458	-2.0729	-1.3833	-2.2583	-1.7875	98.154	23.338	105.659	-100.790	147.662	-64.432	223.366	196.411	9.946	130.734	243.510	-50.919	191.742	210.034	141.078	-63.225	0.00027438	0.00057897	0.00011422	1363.7	1.5121e-06	4.9389e-06	1359	368.09	3.1214e-06	5.2854e-06	421.98	140.55	121.96	42.228	3.3991e-06	51.726	0.00052092	0.00056433	0.00016525	1380.6	6.2951e-06	6.3979e-06	1378.3	374	6.1478e-06	6.1801e-06	427.56	143.56	124.63	43.024	6.0271e-06	53.123	160.221	-27.111	-6.714	-89.545	4.894	49.463	-89.440	-85.048	9.989	41.571	-85.379	-81.249	-80.878	-75.938	32.221	-76.674	-8191	255	
21348.988	1	1	0	0	0.14738	0.17016	0.19294	0.2679	0.20572	0.26896	0.2334	0.15569	0.22165	0.037401	0.14151	0.1979	0.081843	0.18143	0.1796	0.37588	-1.1729	-2.0479	-1.4333	-2.0229	-2.1729	-1.2729	-2.3896	-1.9458	-1.5833	-2.1792	-1.5729	-2.0292	-2.1208	-1.4458	-1.9458	-1.9604	-58.182	103.762	178.185	135.586	77.244	163.341	196.561	-54.976	98.454	-84.642	247.555	217.969	235.412	-64.691	141.454	169.847	0.00027607	0.00048816	0.00011708	1366.3	3.3088e-06	3.3709e-06	1362.9	368.76	3.0325e-06	5.4882e-06	421.53	140.58	121.43	42.172	4.5369e-06	51.713	0.00051595	0.00055682	0.00016345	1380.2	6.0786e-06	6.4823e-06	1379.1	374.34	6.323e-06	6.1152e-06	427.16	143.52	124.34	42.964	6.0524e-06	53.121	163.762	-23.942	13.397	-89.685	44.031	46.734	-89.479	-85.176	9.915	43.626	-85.489	-81.215	-81.116	-75.954	57.910	-76.853	-8191	255	
21349.062	1	1	0	0	0.12745	0.14399	0.29954	0.31665	0.12927	0.11273	0.19523	0.4515	0.24724	0.17553	0.086765	0.023371	0.34444	0.27521	0.095677	0.31432	-1.0167	-2.1146	-1.4188	-2.0354	-1.9646	-1.5438	-2.2292	-2.05	-1.425	-2.1937	-1.5021	-1.775	-2.3042	-1.4833	-2.0583	-2.05	241.544	-33.839	213.486	236.845	223.170	-39.180	204.833	180.406	91.895	192.000	-51.840	-85.748	250.592	198.618	196.286	210.665	0.00028954	0.00048806	0.00015356	1367	4.839e-06	3.8659e-06	1363.2	368.55	3.5255e-06	5.5264e-06	422.71	140.72	121.31	42.128	4.2255e-06	51.794	0.00052264	0.00056122	0.0001619	1380.8	6.2229e-06	6.3401e-06	1378.5	374.23	6.1474e-06	6.0588e-06	427.12	143.29	124.41	43.024	6.0334e-06	53.146	160.151	-16.760	4.978	-89.516	30.012	63.202	-89.489	-85.066	8.498	32.452	-85.398	-81.300	-80.947	-75.817	44.988	-76.507	-8191	255	
21349.182	1	1	0	0	0.068974	0.059785	0.14433	0.091998	0.17562	0.56694	0.057748	0.2458	0.080072	0.065467	0.20303	0.53123	0.26352	0.38732	0.21099	0.20061	-1.0625	-2	-1.5479	-1.6917	-2.0229	-1.225	-2.075	-2.1729	-1.4542	-2.175	-1.8042	-1.4479	-2.2979	-1.5042	-1.8521	-2.1729	-49.087	-38.508	192.046	233.648	184.541	-9.344	220.735	137.744	99.545	-15.483	222.294	250.783	150.710	200.832	242.116	166.209	0.00030377	0.0005226	0.00014372	1363.7	2.8829e-06	4.6747e-06	1364.2	368.33	2.4037e-06	4.5762e-06	422.68	140.93	121.74	41.933	3.6498e-06	51.93	0.00052404	0.00053134	0.00016201	1379.6	6.0582e-06	6.6263e-06	1379.6	374.49	6.2476e-06	5.9619e-06	427.63	143.53	124.68	42.912	5.9654e-06	53.2	156.414	-3.298	1.826	-89.378	7.897	63.171	-89.567	-84.994	-16.974	15.446	-85.418	-81.426	-80.983	-75.891	48.067	-76.818	-8191	255	
21349.277	1	1	0	0	0.34584	0.13284	0.20675	0.18184	0.050689	0.15584	0.37447	0.1885	0.043074	0.17031	0.15711	0.093201	0.096881	0.336	0.018582	0.1354	-0.95208	-2.1188	-1.6437	-1.7042	-2.2708	-1.4021	-2.0062	-2.1458	-1.2313	-2.225	-1.7167	-1.6021	-2.3521	-1.5292	-1.6625	-2.1063	-57.041	-42.854	251.951	243.969	139.579	-20.684	221.860	208.931	189.956	-63.701	225.273	255.174	201.359	247.921	156.248	210.793	0.00027094	0.00043816	0.0001394	1369	2.8918e-06	5.6179e-06	1361.8	370.2	2.7495e-06	4.7236e-06	421.85	140.09	121.5	42.091	2.7436e-06	52.061	0.00053012	0.00055108	0.00015675	1380.9	6.1247e-06	6.4982e-06	1379.8	374.89	6.3214e-06	6.1593e-06	427.01	143.27	124.55	42.976	5.7924e-06	53.251	159.846	-23.773	9.380	-89.539	33.955	34.336	-89.415	-85.004	-17.153	49.180	-85.409	-81.111	-80.834	-75.965	53.251	-76.758	-8191	255	
21349.373	1	1	0	0	0.087719	0.069302	0.07165	0.2787	0.17803	0.19703	0.29664	0.19215	0.35409	0.18666	0.16131	0.19392	0.14847	0.1281	0.2092	0.16615	-0.89792	-2.1979	-1.975	-1.45	-2.3146	-1.5667	-1.8375	-2.325	-1.3021	-2.0687	-1.8813	-1.375	-2.1271	-1.6146	-1.675	-2.2583	-91.757	173.747	66.491	200.986	109.178	216.241	198.637	-57.236	194.415	66.311	21.131	156.940	236.472	183.578	104.780	180.355	0.00025947	0.00046467	0.00013727	1366.5	3.0839e-06	3.5886e-06	1361.7	368.25	1.7068e-06	5.5494e-06	420.2	139.73	122.32	42.034	3.6069e-06	51.843	0.00052804	0.00056481	0.0001533	1378.8	6.0219e-06	6.0256e-06	1378.8	374.03	6.3126e-06	6.0219e-06	427.36	143.34	124.47	42.918	6.1166e-06	53.195	161.878	-40.364	-22.287	-89.442	41.184	54.440	-89.324	-85.114	-0.004	23.034	-85.474	-81.064	-80.721	-75.919	27.689	-76.770	-8191	255	
21349.469	1	1	0	0	0.098685	0.092555	0.091245	0.035249	0.35479	0.2438	0.0098251	0.48319	0.049739	0.2536	0.070669	0.092059	0.13376	0.053803	0.13722	0.11625	-0.90208	-1.9312	-1.9125	-1.5729	-2.225	-1.5958	-1.6979	-2.3396	-1.3417	-1.8333	-2.1208	-1.3792	-2.1104	-1.9396	-1.525	-2.1708	91.544	105.120	7.910	63.767	139.572	16.291	128.637	175.095	144.116	167.047	-53.202	-29.662	-78.734	253.446	-42.885	-65.371	0.00028345	0.00051563	0.00014007	1368.6	2.7654e-06	5.0507e-06	1360.9	370.03	2.4338e-06	3.8116e-06	418.8	139.9	122.21	42.034	4.2195e-06	51.965	0.00053037	0.00053784	0.00015575	1380.1	6.0264e-06	6.3022e-06	1378	375.13	6.3001e-06	6.0241e-06	426.74	143.04	124.57	42.978	6.3719e-06	53.194	160.442	-17.669	10.511	-89.151	34.334	52.624	-89.500	-84.865	8.492	34.474	-85.529	-81.240	-80.425	-75.861	43.412	-76.423	-8191	255	
21349.590	1	1	0	0	0.12105	0.18501	0.063014	0.31049	0.15938	0.15535	0.38188	0.25199	0.21874	0.21449	0.15481	0.34008	0.088333	0.28506	0.12725	0.17189	-1.0688	-1.725	-2.0521	-1.3521	-2.0021	-1.8229	-1.6625	-2.2958	-1.3604	-1.5771	-2.1833	-1.5104	-2.05	-1.8917	-1.5042	-2.2062	151.452	216.977	100.523	193.039	-30.452	17.935	210.343	246.384	-22.913	106.456	-89.965	-74.184	95.009	197.460	22.203	234.238	0.00028947	0.00051043	0.0001256	1366.7	3.7126e-06	4.1806e-06	1360.4	369	3.4063e-06	4.7608e-06	420.86	139.89	121.63	41.988	4.7388e-06	51.916	0.00052946	0.00055936	0.00015316	1379.7	5.825e-06	6.3615e-06	1378.3	374.55	6.3266e-06	6.0809e-06	427.82	143.2	124.4	42.915	6.1271e-06	53.15	158.437	-20.064	12.564	-89.536	16.712	34.140	-89.274	-84.859	9.155	42.548	-85.421	-80.986	-80.754	-75.794	29.764	-76.253	-8191	255	
21349.660	1	1	0	0	0.29939	0.25808	0.19289	0.059879	0.21244	0.16114	0.20027	0.29288	0.37742	0.24439	0.12015	0.2162	0.096398	0.18765	0.12494	0.20593	-1.1396	-1.5438	-1.9104	-1.5417	-1.9604	-1.9438	-1.6688	-2.2354	-1.4042	-1.4729	-2.3875	-1.3667	-1.8104	-1.8937	-1.3312	-2.2188	76.770	0.661	11.906	237.571	65.498	188.907	243.729	254.794	-32.065	109.889	195.090	156.683	181.755	-60.953	-97.756	175.875	0.00027233	0.00048925	0.00010324	1362.9	4.0338e-06	5.8294e-06	1364	368.21	4.9489e-06	3.2475e-06	419.69	139.97	122.17	41.959	4.17e-06	52.097	0.00052951	0.00056534	0.00015207	1378.2	6.1614e-06	6.4777e-06	1377.9	374.18	6.3755e-06	6.0444e-06	426.74	143.04	124.63	42.884	6.174e-06	53.203	158.689	-32.608	-0.733	-89.465	43.585	50.126	-89.348	-84.831	-8.647	51.179	-85.099	-81.156	-80.465	-75.889	15.782	-76.441	-8191	255	
21349.758	1	1	0	0	0.065625	0.48684	0.12886	0.072707	0.29825	0.11645	0.30396	0.15752	0.14992	0.14605	0.12788	0.18326	0.31438	0.12688	0.14126	0.19858	-1.1167	-1.4083	-2.2125	-1.6667	-1.7667	-2.125	-1.6083	-2.1708	-1.5875	-1.3104	-2.2438	-1.5771	-1.7417	-2.1292	-1.2812	-2.1937	21.639	38.296	15.217	-65.106	195.687	88.868	-75.469	194.789	-99.564	117.291	244.548	-28.784	246.976	-70.969	72.500	193.138	0.00030095	0.00047629	0.00011154	1365.5	3.6667e-06	4.8463e-06	1361.3	369.63	2.4308e-06	4.9239e-06	421.44	139.86	122.05	41.913	3.8177e-06	51.811	0.00053822	0.00057147	0.00015073	1377	6.1736e-06	6.145e-06	1378.7	374.6	6.4212e-06	6.1134e-06	426.73	142.96	124.57	42.85	6.2622e-06	53.096	160.138	-33.605	7.927	-89.348	22.607	52.683	-89.324	-84.728	18.390	19.538	-85.190	-81.171	-80.602	-75.768	42.111	-76.449	-8191	255	
21349.854	1	1	0	0	0.17732	0.12748	0.085242	0.14832	0.23291	0.31499	0.56517	0.10638	0.14604	0.23556	0.13219	0.30854	0.26242	0.2875	0.19584	0.31916	-1.4	-1.3229	-2.1521	-1.7104	-1.6938	-2.1083	-1.5458	-2.2167	-1.8104	-1.2958	-2.1042	-1.7687	-1.7812	-2.4042	-1.2896	-2.0104	-21.691	102.965	-77.850	240.986	191.696	45.637	211.901	87.250	-61.116	218.151	10.732	212.599	253.478	234.772	103.891	86.856	0.00022644	0.000612	0.0001614	1363.8	2.0843e-06	3.8734e-06	1361.8	368.57	3.4795e-06	7.1567e-06	421.69	140.4	121.85	42.057	4.658e-06	51.867	0.0005229	0.00055629	0.00015323	1379.5	6.0134e-06	6.3259e-06	1377.8	374.29	6.3362e-06	6.1764e-06	427.53	143.18	124.56	42.963	6.2685e-06	53.143	165.242	-36.757	-13.664	-89.312	37.637	61.045	-89.294	-84.708	18.806	47.330	-84.890	-81.142	-80.410	-75.795	33.369	-76.711	-8191	255	
21349.975	1	1	0	0	0.23706	0.14015	0.12007	0.040886	0.17466	0.080491	0.24587	0.24016	0.10496	0.19778	0.28862	0.15903	0.1944	0.36502	0.057415	0.086158	-1.3125	-1.2417	-2.1521	-1.6354	-1.5979	-2.0312	-1.4958	-2.0917	-1.975	-1.225	-2.25	-1.675	-1.5521	-2.2771	-1.4042	-1.9188	21.693	187.970	136.563	241.960	124.126	-19.331	154.881	218.085	210.427	226.007	145.805	237.814	220.726	238.067	69.034	224.038	0.00029541	0.00034111	0.00014592	1365	2.3704e-06	5.969e-06	1365	369.27	3.8349e-06	4.0296e-06	422.53	139.11	121.67	42.03	2.9775e-06	52.127	0.00052822	0.00057438	0.00015482	1380.8	5.9477e-06	5.9846e-06	1380.2	374.23	6.0668e-06	6.0404e-06	427.64	143.07	124.52	42.945	6.044e-06	53.282	159.910	-46.307	8.037	-89.341	37.933	49.420	-89.176	-84.569	23.799	62.196	-85.249	-81.283	-80.703	-75.755	21.984	-76.230	-8191	255	
21350.068	1	1	0	0	0.16597	0.28592	0.22414	0.063624	0.11407	0.31782	0.28371	0.29361	0.24332	0.27421	0.038523	0.070632	0.10658	0.044079	0.17519	0.1823	-1.6604	-1.0562	-1.9875	-1.9042	-1.3208	-2.1583	-1.6146	-1.95	-1.9542	-1.4167	-2.0771	-2.0104	-1.2771	-2.3	-1.5146	-1.5646	38.651	-41.179	242.042	239.441	146.452	100.640	187.865	191.129	113.078	-34.730	13.566	168.511	229.256	140.405	213.853	-89.173	0.00031126	0.00049058	0.00019576	1363.5	3.9348e-06	4.417e-06	1357.1	369.27	4.2448e-06	4.2507e-06	421.94	140.09	121.54	41.914	3.0794e-06	52.028	0.00051861	0.00056291	0.00015273	1378.3	5.909e-06	5.9363e-06	1376.3	374.35	6.1341e-06	6.3134e-06	427.49	143.23	124.4	42.924	6.1039e-06	53.193	153.190	-19.026	6.591	-89.284	18.323	58.748	-89.271	-84.729	10.820	31.798	-85.185	-81.217	-80.610	-75.690	12.230	-76.518	-8191	255	
21350.168	1	1	0	0	0.30816	0.042129	0.24469	0.33851	0.18696	0.22638	0.48892	0.16714	0.16095	0.10573	0.1921	0.16838	0.30709	0.099087	0.11184	0.51885	-1.7083	-1.3687	-1.9542	-2.1271	-1.4792	-2.175	-1.6875	-1.8146	-2.2292	-1.2667	-2.1083	-1.9375	-1.5083	-2.5104	-1.4625	-1.6146	179.930	68.993	74.440	210.537	21.619	-90.114	191.223	248.185	-52.218	-20.180	255.719	37.621	243.927	-91.831	31.707	211.312	0.00029272	0.0005708	0.00014809	1367.6	4.9015e-06	4.7129e-06	1363.9	369.24	2.818e-06	4.5262e-06	422.65	140.06	122.14	42.147	3.0945e-06	51.818	0.00051464	0.00056477	0.00015429	1380.3	6.1455e-06	6.2052e-06	1379.3	374.63	6.0038e-06	6.496e-06	427.54	143.02	124.61	43.031	6.1676e-06	53.085	156.422	-19.881	7.652	-89.303	46.255	55.243	-89.468	-84.690	-46.899	15.921	-85.147	-81.332	-80.691	-75.660	19.173	-76.556	-8191	255	
21350.262	1	1	0	0	0.16221	0.14058	0.082313	0.078735	0.19456	0.21291	0.18715	0.18475	0.046764	0.048278	0.30405	0.095037	0.2443	0.40119	0.14174	0.16647	-1.8917	-1.4021	-1.8521	-2.2271	-1.4188	-2.0583	-1.8667	-1.5104	-2.2167	-1.2667	-1.9333	-2.2708	-1.7083	-2.1583	-1.7062	-1.4667	-70.387	9.016	193.044	-73.320	-44.085	-91.791	228.530	199.788	-49.424	-15.876	143.090	14.654	-9.915	231.974	121.893	48.988	0.00030777	0.0004423	0.00016891	1372.2	2.5096e-06	7.2075e-06	1359.1	369.27	3.5817e-06	5.1986e-06	422.43	139.79	122.31	42.085	3.4369e-06	51.784	0.00052634	0.00056231	0.00015301	1381.1	6.3257e-06	5.9563e-06	1378.8	374.71	5.9477e-06	6.3905e-06	427.46	143.06	124.66	43.022	6.293e-06	53.146	156.827	-19.632	-5.350	-89.219	26.570	43.168	-89.534	-84.614	-1.940	52.840	-85.012	-81.067	-80.527	-75.592	35.774	-76.267	-8191	255	
21350.357	1	1	0	0	0.24485	0.15636	0.21418	0.24754	0.17076	0.066745	0.3563	0.15898	0.019261	0.11097	0.093714	0.17485	0.15188	0.12769	0.16145	0.31011	-1.8625	-1.5396	-1.9333	-2.1375	-1.2458	-1.8813	-1.9104	-1.6542	-2.1271	-1.6625	-1.8417	-2.1854	-1.4042	-1.9062	-1.8583	-1.4125	112.209	238.852	107.202	-96.803	140.917	-99.461	-70.121	218.029	241.753	96.480	107.005	-82.521	-7.867	161.872	107.925	220.626	0.00029838	0.00054754	0.00016863	1370.9	4.8716e-06	3.6224e-06	1359.1	369.8	3.5061e-06	6.7954e-06	421.17	139.62	121.76	42.081	5.5781e-06	51.917	0.00051241	0.00057402	0.00014886	1382.2	6.4594e-06	6.3419e-06	1377.7	374.87	6.1879e-06	6.2837e-06	427.44	143.21	124.45	43.029	6.2596e-06	53.193	156.957	-23.095	-10.061	-89.234	45.758	35.954	-89.229	-84.549	22.983	47.125	-84.978	-81.060	-80.782	-75.557	47.995	-76.450	-8191	255	
21350.453	1	1	0	0	0.17342	0.099987	0.087968	0.27867	0.14052	0.15989	0.22203	0.36723	0.093362	0.18896	0.37178	0.30062	0.27144	0.19703	0.086524	0.13383	-1.6083	-1.4958	-1.5458	-2.2292	-1.3438	-2.0667	-2.1708	-1.3979	-1.925	-1.5312	-1.5312	-2.2521	-1.6729	-1.9771	-1.9833	-1.3396	174.078	17.287	27.520	204.571	52.577	122.189	242.055	193.788	244.493	-48.513	-62.424	201.286	-37.254	-70.781	152.313	199.751	0.00028846	0.00053191	0.00016879	1369.3	5.9254e-06	5.336e-06	1363.1	369.08	2.7683e-06	4.5856e-06	421.68	140.75	121.95	42.026	3.5257e-06	51.867	0.00051299	0.00057192	0.00015147	1381.7	6.3241e-06	6.1281e-06	1380.6	374.98	6.0724e-06	6.1873e-06	427.8	143.61	124.69	43.039	5.9861e-06	53.274	155.800	-16.141	-10.354	-89.294	22.420	35.671	-89.392	-84.796	12.109	43.988	-84.943	-81.272	-80.452	-75.349	68.617	-76.291	-8191	255	
21350.574	1	1	0	0	0.25649	0.16254	0.10866	0.14696	0.17813	0.12285	0.043385	0.34519	0.25217	0.21088	0.30407	0.24937	0.30912	0.13428	0.2449	0.16136	-1.8583	-1.6812	-1.1938	-2.3792	-1.2146	-1.875	-2.2458	-1.3646	-2.0771	-1.6938	-1.6125	-2.525	-1.6396	-1.925	-2.0583	-1.3667	183.472	253.619	180.551	176.783	-10.587	192.532	109.611	179.442	-53.359	58.036	246.951	237.872	210.598	-45.865	2.438	209.612	0.0002409	0.00052348	0.00016674	1366.7	2.7245e-06	5.9841e-06	1358.5	369.11	3.4588e-06	5.6894e-06	420.84	140.02	122.14	42.138	3.7369e-06	52.089	0.00051385	0.00057628	0.00015137	1380.7	6.216e-06	6.0251e-06	1376.8	374.5	5.9489e-06	6.3594e-06	427.45	143.18	124.72	43.001	6.0482e-06	53.22	158.202	-30.219	-13.977	-89.280	45.900	64.447	-89.158	-84.567	-2.504	58.392	-85.202	-80.840	-80.418	-75.414	20.018	-76.541	-8191	255	
21350.670	1	1	0	0	0.076509	0.1508	0.26743	0.21368	0.30965	0.19201	0.31408	0.29926	0.084113	0.019313	0.19054	0.26348	0.15975	0.19482	0.20055	0.16211	-1.6167	-1.8292	-1.4542	-2.5125	-1.5458	-1.4833	-2.3375	-1.5667	-1.8958	-1.9792	-1.3479	-2.2042	-1.5792	-1.5771	-2.1437	-1.55	222.086	-22.612	-62.142	241.832	-88.158	200.537	154.599	238.245	32.022	102.855	-73.626	93.259	-33.919	185.882	-35.385	144.286	0.00023806	0.00043174	0.00012102	1369.3	4.3077e-06	6.4781e-06	1360.3	368.12	2.9977e-06	4.3187e-06	423.7	140.77	122.26	41.997	4.4375e-06	51.903	0.00050027	0.00055193	0.00015246	1380.4	6.1198e-06	5.826e-06	1379.5	374.07	6.0018e-06	5.8772e-06	427.94	143.57	124.66	42.982	5.9688e-06	53.117	159.028	-20.771	-16.287	-89.154	31.264	47.104	-89.307	-84.856	42.090	43.457	-85.125	-80.992	-80.709	-75.504	1.747	-76.295	-8191	255	
21350.766	1	1	0	0	0.1396	0.17552	0.15406	0.085752	0.24416	0.18691	0.5976	0.096903	0.12438	0.037513	0.030304	0.1091	0.2223	0.28253	0.28732	0.30116	-1.5521	-1.9479	-1.4625	-2.2792	-1.6292	-1.6292	-2.2958	-1.6771	-1.7479	-2.0958	-1.3604	-2.0625	-1.6271	-1.5979	-2.2292	-1.6396	-81.222	-68.851	43.768	-71.634	4.094	-88.509	243.768	231.024	-40.260	107.786	51.198	-13.696	-56.182	222.353	142.683	225.437	0.00029774	0.00054205	0.00010584	1368	4.0913e-06	5.1017e-06	1360.7	368.21	4.4063e-06	3.9572e-06	423.39	139.91	122.06	41.94	4.7954e-06	52.141	0.00050843	0.00054103	0.00015298	1380.7	5.9963e-06	6.0958e-06	1377.7	373.94	5.9252e-06	6.0147e-06	427.58	143.3	124.49	42.914	5.8692e-06	53.218	163.279	-23.515	-16.547	-88.879	13.088	64.758	-89.168	-84.699	16.353	64.916	-85.324	-80.753	-80.576	-75.663	37.187	-76.190	-8191	255	
21350.887	1	1	0	0	0.078089	0.077	0.28977	0.21904	0.25533	0.31022	0.38232	0.37249	0.11414	0.18994	0.32088	0.11214	0.24051	0.37205	0.11488	0.27956	-1.5167	-2.0312	-1.2958	-2.1458	-1.7833	-1.2687	-2.3667	-1.6083	-1.6667	-2.0833	-1.3312	-2.1	-2	-1.3875	-2.2438	-1.5458	189.428	9.751	69.390	146.018	32.087	-50.508	228.050	210.510	-91.121	-80.295	186.606	-100.917	182.508	198.590	-62.061	117.004	0.0002784	0.00071988	0.00012457	1370.8	4.6567e-06	5.5341e-06	1366.3	369.95	3.4284e-06	5.6025e-06	421.76	140.38	121.83	42.209	3.8053e-06	51.89	0.00051046	0.00055504	0.00015531	1380.9	6.0741e-06	5.887e-06	1379.4	375.18	5.8839e-06	6.0066e-06	427.58	143.2	124.25	42.974	6.049e-06	53.147	160.546	-11.517	3.752	-89.064	39.361	57.910	-89.076	-84.502	4.521	59.265	-85.029	-80.753	-80.319	-75.559	64.970	-76.342	-8191	255	
21350.959	1	1	0	0	0.067468	0.027811	0.067072	0.40059	0.068221	0.014932	0.38046	0.36395	0.1871	0.24203	0.085947	0.040427	0.12066	0.27246	0.10166	0.12999	-1.075	-1.95	-1.3458	-2.0958	-1.8312	-1.2979	-2.2812	-1.5042	-1.4146	-2.2313	-1.2604	-1.9979	-1.9854	-1.4833	-2.1854	-1.6729	173.239	-75.781	87.615	245.340	168.848	-67.156	248.209	194.192	163.459	-101.824	192.354	-12.464	97.460	186.127	48.665	197.016	0.00027617	0.00058812	0.00015667	1368.4	3.4562e-06	6.7614e-06	1362.4	369.5	2.5766e-06	6.5057e-06	422.48	140.23	121.78	41.895	5.4217e-06	51.964	0.00051261	0.0005617	0.00015689	1381	6.0868e-06	6.2384e-06	1379.6	374.47	5.936e-06	5.8587e-06	428.11	143.35	124.36	42.858	6.1816e-06	53.144	162.541	-24.490	-9.242	-89.000	48.073	56.869	-89.259	-84.593	4.007	43.735	-84.924	-80.734	-80.542	-75.788	46.678	-76.375	-8191	255	
21351.055	1	1	0	0	0.039288	0.25599	0.12137	0.11422	0.25651	0.11879	0.18742	0.24225	0.051239	0.11509	0.15503	0.22669	0.063806	0.38516	0.27149	0.18625	-1.1542	-2.1021	-1.2958	-2.0104	-2.0417	-1.5	-2.2771	-1.9667	-1.4271	-2.0667	-1.6042	-1.6042	-2.0896	-1.2854	-1.9958	-1.7583	62.856	37.374	199.381	0.236	222.286	201.679	256.905	189.861	145.413	106.010	175.240	207.595	-64.498	228.508	249.764	32.616	0.00031755	0.00044713	9.734e-05	1371.5	3.4518e-06	4.5456e-06	1363.4	369.04	2.8031e-06	5.1238e-06	420.47	140.29	122.37	41.905	3.8336e-06	51.943	0.00052277	0.00055117	0.00015613	1382.8	6.1528e-06	6.0794e-06	1379.6	374.45	6.1028e-06	5.9155e-06	427.91	143.25	124.78	42.924	5.9705e-06	53.107	158.751	3.756	-3.704	-89.318	6.114	68.255	-89.213	-84.671	3.141	24.229	-85.031	-81.116	-80.417	-75.574	31.520	-76.482	-8191	255	
21351.148	1	1	0	0	0.059059	0.081465	0.15459	0.3159	0.13023	0.23043	0.059773	0.17793	0.13722	0.19029	0.37488	0.092166	0.053385	0.1084	0.18378	0.17563	-0.84167	-2.1688	-1.4458	-1.8438	-2.1083	-1.2313	-2.2313	-1.8167	-1.2812	-2.3208	-1.5729	-1.7812	-2.3125	-1.3646	-2.0833	-2.0208	34.003	-5.009	-42.973	218.909	55.305	192.501	74.822	207.100	52.998	221.738	212.944	254.782	146.177	160.974	113.928	237.217	0.00027443	0.00049898	0.00018376	1373.3	3.0645e-06	5.7397e-06	1365.2	369.36	1.772e-06	5.0777e-06	421.05	140.26	121.45	42.127	2.5123e-06	51.911	0.00052525	0.00054329	0.00016032	1383.9	5.9327e-06	6.2608e-06	1381	374.42	6.1722e-06	6.0854e-06	427.65	143.2	124.49	43.017	5.8587e-06	53.196	149.268	-32.766	6.508	-89.223	42.673	49.477	-89.620	-84.837	-17.927	47.039	-85.162	-80.987	-80.615	-75.737	33.765	-76.476	-8191	255	
21351.270	1	1	0	0	0.17736	0.20841	0.32913	0.28576	0.31268	0.14867	0.26659	0.33707	0.24968	0.1598	0.23418	0.043156	0.11821	0.29151	0.20472	0.22015	-0.88333	-2.1146	-1.5854	-1.6	-2.1771	-1.3167	-2.0333	-1.9417	-1.2292	-2.1646	-1.6437	-1.4917	-2.2396	-1.5542	-1.7167	-2.0687	148.412	164.152	-35.964	218.450	13.207	-97.327	211.180	199.852	-54.982	-92.099	187.357	-61.779	-92.465	232.904	-45.172	196.067	0.00026639	0.00063919	0.00016978	1368.7	3.4136e-06	5.4591e-06	1361.9	368.34	3.1695e-06	3.8347e-06	422.28	140.32	122.21	41.992	3.7923e-06	51.656	0.00052839	0.00054204	0.0001574	1380.9	5.9249e-06	6.6445e-06	1379.7	374.28	6.2681e-06	5.8962e-06	426.83	143.25	124.86	42.953	6.0043e-06	53.115	160.964	-27.914	-18.807	-89.068	27.823	29.727	-89.336	-84.798	-7.593	38.602	-85.313	-80.934	-80.616	-75.923	38.538	-76.606	-8191	255	
21351.365	1	1	0	0	0.14558	0.094274	0.15874	0.23278	0.26141	0.23664	0.15457	0.28071	0.21971	0.044654	0.093706	0.2638	0.24277	0.36222	0.054686	0.12925	-0.76875	-2.0104	-1.5958	-1.5229	-2.1292	-1.5708	-1.9312	-2.1292	-1.2	-2.2042	-1.9396	-1.3937	-2.2229	-1.6229	-1.5833	-2.1458	179.796	7.958	57.487	237.743	167.586	253.480	253.219	145.210	129.246	31.642	-46.280	-100.700	236.199	140.415	25.965	211.882	0.00030938	0.00043713	0.00015892	1370.3	2.4245e-06	4.6894e-06	1362.6	367.44	4.6439e-06	4.0055e-06	421.17	140.42	122.05	42.015	3.1212e-06	51.968	0.00053693	0.00054878	0.00015927	1382	5.9498e-06	6.3036e-06	1379.2	373.96	6.1462e-06	6.0273e-06	427.07	143.16	124.54	42.938	6.2381e-06	53.113	153.851	-28.982	-2.667	-89.629	33.573	59.083	-89.467	-85.194	18.358	39.324	-85.420	-81.395	-80.777	-76.195	26.108	-76.546	-8191	255	
21351.463	1	1	0	0	0.15238	0.036229	0.093692	0.31932	0.20545	0.19209	0.24585	0.14778	0.25108	0.14708	0.19225	0.19721	0.16197	0.10807	0.028924	0.27076	-0.83542	-1.8271	-1.7375	-1.5229	-2.1208	-1.5896	-2.0146	-2.3292	-1.1979	-1.8479	-2.0604	-1.525	-2.1646	-1.7687	-1.3687	-2.4333	129.205	-86.767	-46.658	223.115	235.537	119.069	211.643	142.952	193.289	18.052	138.042	41.476	-86.464	187.790	214.584	-101.637	0.00029243	0.00069551	0.00015871	1369.1	4.8498e-06	4.9586e-06	1357	368.32	2.1482e-06	5.1911e-06	420.8	140.3	121.68	41.945	3.2376e-06	51.888	0.00053113	0.00054309	0.00015639	1379.4	5.9824e-06	6.3957e-06	1375.8	374.17	6.3491e-06	5.8862e-06	427.05	143.02	124.2	42.917	6.1773e-06	53.166	158.247	-28.118	-0.708	-89.498	26.669	38.142	-89.614	-84.895	10.333	53.354	-85.330	-81.149	-80.820	-75.806	30.547	-76.593	-8191	255	
21351.533	1	1	0	0	0.11375	0.17189	0.10495	0.12597	0.049477	0.24655	0.17309	0.17162	0.049181	0.28129	0.18675	0.25131	0.22661	0.21567	0.18258	0.15549	-0.99583	-1.6292	-1.9625	-1.4729	-2.0104	-1.8083	-1.6729	-2.3	-1.3667	-1.8083	-2.0812	-1.3896	-2.2208	-1.7458	-1.4958	-2.0271	67.954	-91.256	95.611	-101.814	167.735	66.891	-55.734	174.816	-25.019	-0.836	134.026	222.039	-98.270	204.199	-13.038	-76.503	0.00029102	0.00051671	0.00014604	1362.4	2.1643e-06	4.1752e-06	1359.5	368.81	2.8554e-06	5.2534e-06	419.09	139.61	121.59	42.146	4.5977e-06	51.67	0.00052609	0.00056728	0.000155	1378.1	5.8854e-06	6.1559e-06	1376.7	374.26	6.307e-06	6.1625e-06	427.34	142.77	124.33	42.92	6.2495e-06	53.034	153.377	-20.604	-14.584	-89.224	33.335	60.982	-89.080	-84.684	5.757	54.477	-85.854	-81.535	-80.980	-76.103	44.809	-77.028	-8191	255	
21351.654	1	1	0	0	0.074459	0.15601	0.094432	0.16478	0.35179	0.018057	0.29921	0.085968	0.064866	0.12579	0.13803	0.13677	0.18271	0.26139	0.050131	0.16824	-0.95208	-1.7583	-2.1229	-1.6271	-2.0146	-1.7188	-1.575	-2.225	-1.3417	-1.5229	-2.25	-1.45	-2.0187	-1.9854	-1.2542	-2.1188	186.065	-14.865	41.512	-95.916	166.279	15.900	160.959	122.988	144.780	-13.701	255.622	100.180	-91.006	-76.483	-21.130	-57.227	0.0002869	0.00044261	0.00013542	1361.3	2.8861e-06	5.4098e-06	1359	368.36	2.565e-06	6.1056e-06	419.64	140	121.58	41.913	3.6505e-06	51.948	0.0005176	0.00054588	0.000154	1378.5	5.8169e-06	6.171e-06	1377.5	373.94	6.2288e-06	5.8844e-06	427.1	143.05	124.21	42.863	6.1786e-06	53.085	158.512	-12.435	4.892	-89.676	33.461	57.266	-89.901	-85.107	14.056	52.304	-85.693	-81.696	-81.135	-76.262	35.834	-76.789	-8191	255	
21351.750	1	1	0	0	0.098074	0.14689	0.1948	0.049841	0.17439	0.2385	0.30725	0.39671	0.41245	0.25484	0.11566	0.1296	0.22174	0.16985	0.29502	0.050799	-1.1187	-1.4833	-1.9188	-1.6229	-1.8833	-2.0896	-1.6333	-2.4604	-1.7	-1.5854	-2.4375	-1.4354	-1.9167	-2.1312	-1.3167	-2.0458	133.031	146.555	-20.863	-96.872	124.261	203.405	187.373	237.143	42.969	125.863	226.217	217.529	-94.166	-68.474	-93.848	176.837	0.000283	0.00056342	0.00010143	1359.6	3.7985e-06	4.7053e-06	1359	367.93	3.4277e-06	6.3387e-06	420.33	138.68	121.79	41.916	4.5437e-06	51.835	0.00052404	0.0005332	0.00015034	1374.5	5.929e-06	6.0894e-06	1375.2	373.71	6.1963e-06	6.1174e-06	426.95	142.51	124.34	42.858	6.2466e-06	53.103	152.181	-25.238	-3.068	-89.774	30.025	53.790	-89.927	-85.367	21.528	51.221	-85.680	-81.542	-81.105	-76.367	18.310	-76.857	-8191	255	
21351.848	1	1	0	0	0.10112	0.14023	0.29298	0.15396	0.17947	0.12968	0.29303	0.23698	0.22989	0.33282	0.11357	0.19117	0.22262	0.17506	0.20204	0.10658	-1.1854	-1.2854	-2.1458	-1.575	-1.7333	-2.0417	-1.3937	-2.1375	-1.8687	-1.3708	-2.3125	-1.6979	-1.9458	-2.2625	-1.2896	-2.1063	-65.172	3.118	-4.374	118.794	-83.382	-81.432	156.017	225.402	-12.058	-12.572	15.165	180.013	-31.045	239.607	-49.939	144.654	0.00028752	0.00042837	0.00015342	1360.8	3.344e-06	3.2753e-06	1357.9	368.56	4.4533e-06	4.9399e-06	420.51	139.47	121.64	41.891	2.7266e-06	51.581	0.00052072	0.00054152	0.0001506	1375.2	6.0089e-06	6.2817e-06	1375.4	373.81	6.3326e-06	6.0687e-06	427.55	142.84	124.04	42.795	5.9849e-06	53.04	164.175	-23.619	-6.311	-90.013	15.587	32.433	-89.943	-85.396	8.581	64.323	-85.897	-81.615	-81.208	-76.246	30.489	-77.275	-8191	255	
21351.967	1	1	0	0	0.075101	0.21754	0.3204	0.11616	0.36988	0.21622	0.11856	0.21848	0.25859	0.33542	0.26774	0.13759	0.12638	0.23528	0.15	0.1509	-1.5021	-1.4917	-2.1583	-1.7375	-1.4854	-2.0062	-1.6187	-2.0021	-1.875	-1.3458	-2.1375	-1.6688	-1.5979	-2.1917	-1.4604	-1.8979	79.461	-81.634	113.322	242.562	240.062	150.600	163.779	228.620	-10.228	-25.553	238.943	-3.296	220.288	-97.265	-63.914	200.024	0.00031983	0.00048209	0.0001095	1361	3.3263e-06	5.3145e-06	1357.8	368.76	2.0597e-06	4.8689e-06	418.75	139.54	121.86	42.091	3.5247e-06	51.839	0.00050838	0.00055876	0.00015029	1376.7	5.8442e-06	5.8706e-06	1376.6	374.13	6.151e-06	6.2328e-06	426.68	142.62	124.24	42.941	6.1199e-06	53.064	155.392	-5.787	14.097	-90.065	58.824	34.559	-89.958	-85.248	-43.076	68.846	-85.727	-81.705	-81.166	-76.476	41.381	-77.065	-8191	255	
21352.062	1	1	0	0	0.051973	0.070144	0.21252	0.29918	0.3984	0.3575	0.32119	0.25174	0.11304	0.26918	0.34615	0.37054	0.17033	0.40523	0.12074	0.089705	-1.6354	-1.3729	-1.9542	-1.7563	-1.5646	-2.3271	-1.6771	-1.9833	-2.0125	-1.075	-2.0125	-1.8937	-1.4521	-2.3521	-1.4896	-1.7625	104.440	211.461	-73.862	243.590	-91.945	26.627	205.549	247.623	70.796	88.131	173.628	205.945	238.542	226.871	-62.308	107.606	0.00028836	0.00050707	0.00017645	1362.6	3.7268e-06	4.5866e-06	1355.7	367.83	3.5738e-06	6.2011e-06	421.05	139.28	121.63	41.815	3.814e-06	52.053	0.00052464	0.00055831	0.00014613	1377.2	6.1977e-06	6.0051e-06	1374.6	373.77	6.2043e-06	6.2787e-06	426.61	142.62	124.39	42.904	6.0507e-06	53.17	154.094	-18.530	12.548	-89.896	34.502	45.233	-90.353	-85.479	-5.605	64.459	-85.797	-82.011	-81.373	-76.452	30.827	-77.192	-8191	255	
21352.158	1	1	0	0	0.033793	0.15478	0.089225	0.11714	0.15339	0.038508	0.18817	0.063499	0.048126	0.27663	0.046393	0.10245	0.17842	0.036515	0.21923	0.084886	-1.6542	-1.2521	-1.8563	-1.9188	-1.3771	-2.1188	-1.7583	-1.7729	-2.1104	-1.3979	-2.1333	-1.9583	-1.4729	-2.2479	-1.6521	-1.7271	110.410	7.362	50.178	182.387	107.209	27.573	135.675	180.095	167.038	91.037	216.947	171.447	104.326	155.039	182.915	182.535	0.00032661	0.00061551	0.00015112	1360.6	4.0982e-06	6.5925e-06	1358.8	368.35	3.3211e-06	3.5092e-06	422.23	140.46	121.4	41.83	4.5782e-06	51.651	0.00051892	0.00056732	0.00015158	1376.9	6.141e-06	6.0201e-06	1375.4	373.52	6.1826e-06	6.0277e-06	427.58	142.94	124.17	42.807	6.2035e-06	53.068	153.302	-30.161	2.867	-90.247	16.477	46.230	-90.207	-85.338	25.285	16.598	-86.173	-82.030	-81.313	-76.452	45.026	-77.099	-8191	255	
21352.254	1	1	0	0	0.090148	0.23355	0.25365	0.089545	0.33419	0.10997	0.31238	0.37271	0.14858	0.10417	0.28005	0.14279	0.12678	0.099878	0.24769	0.20149	-1.9042	-1.3667	-1.8312	-2.0604	-1.2833	-2.1083	-1.7417	-1.4917	-2.2229	-1.3937	-2.0208	-2.0896	-1.6	-2.1167	-1.5729	-1.5938	-59.492	199.107	164.889	184.308	204.880	136.191	167.837	236.507	-68.543	73.260	221.974	184.762	-80.885	99.897	-15.377	184.474	0.00029551	0.00049308	0.00017456	1367.1	2.5354e-06	2.3331e-06	1353	370.02	1.4232e-06	5.4568e-06	421.93	139.59	121.45	41.991	3.9461e-06	51.836	0.00051798	0.00057624	0.00014863	1378.2	5.8943e-06	5.8032e-06	1373.4	373.78	6.0158e-06	5.9912e-06	427.27	142.71	124.27	42.886	6.1009e-06	53.167	160.192	-30.370	-11.843	-90.019	18.933	49.411	-90.301	-85.609	2.819	43.856	-85.869	-82.167	-81.353	-76.528	17.388	-77.058	-8191	255	
21352.350	1	1	0	0	0.087483	0.128	0.072285	0.13423	0.26094	0.2457	0.3174	0.24691	0.2316	0.20724	0.25109	0.068754	0.14616	0.1031	0.30897	0.087518	-1.7604	-1.2875	-1.9667	-2.1312	-1.1792	-1.9667	-1.6979	-1.6375	-2.0208	-1.5562	-1.7104	-2.0812	-1.4083	-1.9896	-1.7625	-1.45	59.418	91.353	253.178	122.953	123.929	95.123	153.003	254.184	43.094	143.476	216.525	147.782	-87.902	234.990	-0.777	228.182	0.00029098	0.00052024	0.00015583	1361.2	2.8454e-06	6.7661e-06	1356.9	368.94	1.6742e-06	2.9745e-06	421.94	140.45	121.99	41.993	2.4325e-06	51.539	0.00052741	0.00054838	0.0001534	1377	5.9767e-06	6.0516e-06	1374.1	373.39	5.784e-06	6.0084e-06	426.9	143.15	124.19	42.913	6.1647e-06	53.038	158.542	-29.475	12.999	-89.912	33.765	55.226	-89.908	-85.478	5.265	67.616	-85.691	-81.734	-81.243	-76.279	14.820	-77.097	-8191	255	
21352.445	1	1	0	0	0.20885	0.3946	0.10438	0.27588	0.049394	0.049148	0.17888	0.32235	0.24474	0.1526	0.094456	0.20326	0.30057	0.17276	0.11359	0.25752	-1.7333	-1.3687	-1.5604	-2.1917	-1.3062	-2.0354	-2.0583	-1.5104	-2.125	-1.4021	-1.5729	-2.1542	-1.35	-1.8271	-2.0396	-1.375	214.496	-4.373	47.230	-55.177	3.075	256.225	97.683	192.006	-97.816	23.813	-80.442	205.313	209.117	-80.562	253.332	196.292	0.00028209	0.00046338	0.00014632	1362.8	3.089e-06	3.268e-06	1363.1	367.32	3.5789e-06	6.9139e-06	421.78	139.79	121.79	41.971	4.2538e-06	51.838	0.00050422	0.0005661	0.00015189	1376.9	6.0892e-06	5.7708e-06	1377.8	373.54	5.8699e-06	6.0147e-06	427.24	143.01	124.26	42.949	5.976e-06	53.093	160.878	-8.329	0.995	-90.006	47.954	61.160	-89.859	-85.433	-16.074	43.834	-85.790	-82.041	-81.211	-76.184	47.509	-77.202	-8191	255	
21352.566	1	1	0	0	0.2877	0.20929	0.13478	0.08934	0.10182	0.085206	0.4417	0.029096	0.16254	0.34698	0.11348	0.19109	0.20894	0.098733	0.17653	0.13795	-1.8	-1.4042	-1.4292	-2.2687	-1.2563	-1.7062	-2.0833	-1.3271	-1.9937	-1.6604	-1.5167	-2.1771	-1.55	-1.8208	-2.0125	-1.5417	-62.910	-33.371	-99.185	-63.299	192.318	201.161	194.807	199.721	-89.966	242.731	194.651	171.471	-78.024	-93.498	-100.440	202.257	0.0002999	0.00050674	7.0279e-05	1365.9	2.8848e-06	4.152e-06	1362.2	367.63	2.7057e-06	5.8234e-06	422.16	139.88	121.94	42.016	6.4552e-06	51.61	0.00050093	0.00056409	0.00015069	1378.1	6.0631e-06	5.8141e-06	1376.6	373.56	5.8145e-06	6.1715e-06	426.88	143.17	124.46	43.023	6.1849e-06	53.068	168.698	-30.552	-9.318	-90.020	19.913	36.859	-90.070	-85.523	1.704	47.113	-85.808	-81.614	-81.468	-76.256	37.618	-77.106	-8191	255	
21352.662	1	1	0	0	0.13118	0.054456	0.17241	0.10398	0.16128	0.091819	0.16178	0.21107	0.29124	0.26093	0.38247	0.18136	0.35974	0.34558	0.22673	0.29386	-1.675	-1.7229	-1.2687	-2.1875	-1.5562	-1.7417	-2.1917	-1.2313	-1.9542	-1.8396	-1.4958	-2.2875	-1.6125	-1.7292	-2.025	-1.3479	-47.246	-67.855	22.166	196.698	115.415	244.368	255.588	232.528	184.124	216.225	165.425	173.594	178.099	-83.952	88.111	244.097	0.00029446	0.00050651	0.00012205	1364.8	2.9011e-06	4.5896e-06	1353.5	368.66	2.385e-06	3.627e-06	422.35	139.5	121.34	42.121	3.876e-06	51.982	0.00051484	0.00055888	0.00015696	1378.4	6.1149e-06	5.9951e-06	1376.5	374.62	5.9537e-06	6.121e-06	428.16	143.17	124.54	43.013	5.7966e-06	53.157	164.329	-12.624	1.382	-89.961	10.214	65.796	-89.977	-85.439	-5.848	39.814	-85.511	-81.722	-81.262	-76.649	17.202	-77.148	-8191	255	
21352.760	1	1	0	0	0.036598	0.18837	0.079442	0.53385	0.035636	0.14195	0.33643	0.13292	0.20388	0.098308	0.27753	0.2131	0.097759	0.30424	0.11447	0.050741	-1.5208	-1.9708	-1.2396	-2.3083	-1.4542	-1.4937	-2.2062	-1.5479	-1.9229	-1.7979	-1.1208	-2.3542	-1.5896	-1.7333	-2.1083	-1.4979	41.384	-71.209	83.193	189.495	-28.157	132.457	168.401	256.524	87.281	-53.878	239.398	144.251	-20.046	240.068	-39.926	239.740	0.00029246	0.00044389	0.00012284	1361.2	2.7099e-06	4.2004e-06	1356.4	368.62	2.7248e-06	5.1798e-06	422.25	139.81	121.08	41.911	4.0632e-06	51.871	0.0005141	0.00055714	0.00015413	1377.8	5.9632e-06	6.1796e-06	1378.1	374.12	5.8482e-06	5.9583e-06	428.16	143.14	124.34	43.057	5.8781e-06	53.189	155.826	-17.461	-13.927	-90.018	10.105	60.963	-89.973	-85.276	6.906	40.634	-85.694	-81.666	-81.093	-76.303	39.980	-77.248	-8191	255	
21352.830	1	1	0	0	0.036543	0.2594	0.1628	0.43622	0.17426	0.13366	0.40443	0.31562	0.3418	0.19926	0.22942	0.027512	0.23519	0.052316	0.17793	0.27143	-1.45	-2.0604	-1.425	-2.0583	-1.6938	-1.4854	-2.3125	-1.5354	-1.775	-2.1583	-1.5	-2.1083	-1.7646	-1.5021	-2.2354	-1.7313	-58.446	87.464	96.790	223.351	-81.011	-0.957	236.332	248.957	-37.825	-26.893	-94.519	130.878	-100.513	244.918	221.725	-27.382	0.00029774	0.00046836	0.00014231	1369.3	4.161e-06	5.0248e-06	1358.4	369.85	2.8891e-06	5.4212e-06	420.32	140.09	121.76	41.911	2.925e-06	51.845	0.00050815	0.00053772	0.00014948	1380.9	6.0415e-06	6.1696e-06	1377.9	374.68	6.0555e-06	6.0021e-06	427.12	143.26	124.76	42.977	5.8667e-06	53.155	156.234	-8.715	-5.174	-89.753	29.834	52.348	-89.905	-85.346	-7.643	54.672	-85.621	-81.718	-81.556	-76.382	44.176	-76.966	-8191	255	
21352.949	1	1	0	0	0.25689	0.089622	0.13397	0.18711	0.19059	0.16946	0.23874	0.27944	0.12746	0.1957	0.17786	0.19356	0.077947	0.29301	0.037493	0.34806	-1.3104	-1.9917	-1.2729	-2.1937	-1.7875	-1.3146	-2.3563	-1.5063	-1.6146	-1.9333	-1.3062	-2.0854	-2.1562	-1.3167	-2.1125	-1.7437	-57.583	-27.781	115.656	186.087	-45.870	-28.168	211.076	240.286	-49.339	65.401	254.856	215.171	220.825	-59.179	168.423	215.313	0.00026747	0.00044885	0.00016127	1370.2	3.9457e-06	3.9426e-06	1362.2	369.25	1.3358e-06	6.096e-06	420.75	140.16	122.16	41.973	4.1463e-06	51.969	0.00051907	0.00053094	0.00015676	1381.3	5.8295e-06	5.9212e-06	1379.9	374.91	5.908e-06	5.8989e-06	427.08	143.64	124.82	42.966	5.7565e-06	53.22	164.554	-6.657	2.337	-89.709	24.055	64.821	-90.033	-85.388	-8.548	54.672	-85.920	-81.621	-81.291	-76.257	45.249	-76.931	-8191	255	
21353.047	1	1	0	0	0.11266	0.11515	0.14765	0.30982	0.14827	0.28205	0.22533	0.20152	0.22295	0.2651	0.084341	0.22099	0.062401	0.29213	0.22188	0.2468	-1.1958	-2.2188	-1.3625	-1.8396	-2.1521	-1.3563	-2.1854	-1.8708	-1.5104	-2.0604	-1.4542	-1.8875	-2.0521	-1.4	-1.9854	-1.8042	-16.876	134.254	25.867	187.328	66.549	-73.964	238.433	-94.924	5.222	194.345	-18.387	-73.429	-78.442	204.376	31.932	201.160	0.00026156	0.00042902	0.00011094	1364.6	2.9519e-06	5.3078e-06	1362.4	369.4	1.8145e-06	5.3827e-06	423.02	140.95	121.92	42.085	4.138e-06	52.354	0.00051193	0.00055286	0.00015132	1380.7	6.0802e-06	6.2284e-06	1379.9	374.44	5.932e-06	6.1544e-06	428.15	143.7	124.85	43.033	5.8055e-06	53.304	159.710	-37.284	-6.994	-89.722	49.527	49.073	-89.971	-85.272	52.142	49.996	-85.466	-81.470	-81.395	-76.264	33.969	-77.174	-8191	255	
21353.143	1	1	0	0	0.092958	0.2688	0.080031	0.41066	0.28135	0.31599	0.060671	0.21195	0.24169	0.096274	0.034653	0.13023	0.32927	0.13996	0.19533	0.15549	-0.94167	-2.0812	-1.3292	-1.8417	-1.9438	-1.3687	-2.1417	-1.8312	-1.4625	-2.0958	-1.5542	-1.65	-2.1729	-1.4646	-2.025	-1.85	27.386	75.027	-53.582	-57.583	-92.111	229.678	-39.640	-14.231	22.132	246.232	13.303	206.630	-60.720	239.650	134.781	-54.765	0.00030055	0.00053667	0.00019169	1366.4	2.7757e-06	5.1427e-06	1362.9	367.9	2.2428e-06	4.3786e-06	422.43	140.56	121.72	42.201	3.3919e-06	51.668	0.00052363	0.0005573	0.00015433	1379.6	5.9963e-06	6.2065e-06	1380.6	374.18	6.0271e-06	5.8353e-06	428.38	143.58	124.78	43.13	5.8312e-06	53.216	162.238	-11.610	-25.303	-89.758	35.488	36.980	-89.684	-85.304	-13.126	54.927	-85.617	-81.495	-81.124	-76.178	15.027	-76.828	-8191	255	
21353.238	1	1	0	0	0.38171	0.020264	0.32694	0.15193	0.11122	0.10143	0.11329	0.34004	0.2281	0.25934	0.11377	0.20747	0.082199	0.072786	0.35811	0.087943	-0.92917	-2.0292	-1.4396	-1.5688	-1.9021	-1.3042	-1.9937	-1.9937	-1.1187	-2.2188	-1.8375	-1.6729	-2.3417	-1.4583	-1.8417	-2.05	105.366	-35.507	125.576	16.518	-73.686	-19.394	238.978	156.211	139.471	150.250	247.540	-51.321	-11.417	194.048	-78.434	36.567	0.00030019	0.00043857	0.00010441	1373.5	4.4513e-06	3.6362e-06	1358.5	368.6	2.5477e-06	4.5595e-06	423.3	140.38	121.8	42.166	4.6428e-06	52.217	0.0005248	0.0005204	0.00015085	1383.7	5.9889e-06	6.1619e-06	1379.5	374.64	6.2328e-06	5.669e-06	428.02	143.48	124.72	43.092	5.8848e-06	53.387	152.693	-25.613	1.360	-89.548	22.795	50.178	-89.626	-85.244	-23.476	41.492	-85.582	-81.408	-81.140	-76.276	63.407	-76.775	-8191	255	
21353.334	1	1	0	0	0.11371	0.24889	0.14551	0.19319	0.19736	0.21415	0.086996	0.096112	0.24628	0.18977	0.15602	0.3176	0.28661	0.36726	0.19606	0.25126	-1.0042	-2.0062	-1.6792	-1.6708	-2.125	-1.6167	-2.075	-2.2438	-1.0458	-2.1208	-1.8062	-1.4625	-2.2292	-1.4729	-1.625	-2.0875	180.910	6.943	31.578	243.697	243.809	126.916	197.384	230.608	124.695	-87.144	233.803	244.916	235.175	233.282	-12.144	226.773	0.00030924	0.00042388	0.00012576	1367.9	3.6194e-06	3.7173e-06	1361.7	368.84	1.9576e-06	5.1734e-06	422.15	140.17	122.4	42.145	3.2845e-06	52.037	0.0005176	0.00053368	0.00015536	1381.7	5.8992e-06	6.0219e-06	1379.5	374.66	5.9934e-06	5.656e-06	428.2	143.4	125.03	43.089	5.8747e-06	53.38	159.364	-33.735	8.490	-89.622	24.495	46.451	-89.704	-85.032	-0.559	46.229	-85.504	-81.273	-80.959	-76.102	23.493	-76.870	-8191	255	
21353.430	1	1	0	0	0.082151	0.10641	0.38002	0.13288	0.097535	0.19638	0.45425	0.27124	0.30938	0.22766	0.20701	0.16552	0.11869	0.30744	0.15052	0.14415	-0.98125	-2.0479	-1.9771	-1.5063	-2.2	-1.5292	-1.7021	-2.3354	-1.2021	-1.9729	-1.9271	-1.2938	-2.175	-1.5708	-1.6437	-2.2646	-7.857	191.264	117.371	150.407	215.417	234.405	244.064	197.427	51.249	65.809	42.628	142.753	218.966	-92.613	-33.516	251.639	0.00028865	0.00052995	0.00015261	1374.3	3.1044e-06	4.1766e-06	1361.3	371.23	3.2302e-06	4.874e-06	422.19	140.31	121.82	42.154	4.1121e-06	51.889	0.00051443	0.00052113	0.00015093	1381.7	5.7317e-06	6.197e-06	1379.8	375.18	6.1081e-06	5.8164e-06	427.96	143.28	124.73	43.113	5.6848e-06	53.322	160.467	-22.900	11.409	-89.559	50.365	56.449	-89.605	-85.385	-1.779	41.093	-85.600	-81.520	-80.724	-76.296	33.766	-76.779	-8191	255	
21353.527	1	1	0	0	0.037073	0.017977	0.29573	0.1255	0.47482	0.038672	0.18714	0.25895	0.25998	0.14328	0.11754	0.30357	0.19602	0.15397	0.29313	0.21022	-0.89375	-1.9	-2.0604	-1.5396	-2.1708	-1.5854	-1.7313	-2.2875	-1.4	-1.7875	-2.15	-1.4792	-2.1583	-1.8708	-1.5625	-2.3083	66.764	206.633	108.494	228.604	21.850	61.513	180.757	253.526	-0.878	-63.176	9.919	195.263	-88.637	110.280	180.829	154.038	0.00027358	0.00059577	0.00012872	1370.7	3.5252e-06	5.1221e-06	1360.3	369.37	2.4421e-06	4.2888e-06	422.01	140.61	122.68	42.146	4.8814e-06	51.897	0.00052221	0.00053138	0.00015614	1381.6	5.8087e-06	5.9868e-06	1378.8	374.94	6.0363e-06	5.6857e-06	428.05	143.65	124.99	43.101	6.0714e-06	53.266	159.015	-19.361	-7.750	-89.682	35.723	40.089	-89.588	-85.114	-0.065	30.542	-85.491	-81.400	-80.790	-76.175	6.450	-76.548	-8191	255	
21353.646	1	1	0	0	0.31418	0.15464	0.25057	0.31134	0.20554	0.027551	0.034109	0.35149	0.15746	0.13928	0.16063	0.33172	0.54635	0.12272	0.33062	0.39391	-0.96042	-1.7833	-1.9583	-1.5458	-2.0917	-1.6812	-1.6917	-2.3812	-1.4396	-1.5792	-2.1646	-1.2354	-2.0187	-1.8687	-1.3062	-2.1625	145.870	-96.306	74.248	228.731	107.392	-82.958	30.772	213.045	1.884	-55.884	5.127	128.709	-70.047	248.071	42.166	169.674	0.00029084	0.00051526	0.00012383	1366.1	2.6448e-06	3.8666e-06	1361.6	368.09	3.9484e-06	3.9345e-06	423.19	139.56	121.94	42.041	4.6416e-06	52.068	0.00050777	0.00053582	0.00014762	1380.7	5.657e-06	6.0128e-06	1380.3	374.81	6.1069e-06	5.9674e-06	428.24	143.18	124.93	43.064	5.9372e-06	53.3	160.714	-9.273	-20.739	-89.570	18.132	43.061	-89.444	-85.030	-10.967	29.590	-85.720	-81.423	-80.838	-76.197	41.620	-76.731	-8191	255	
21353.742	1	1	0	0	0.1806	0.3795	0.020815	0.29911	0.28048	0.15213	0.2806	0.18632	0.15919	0.08961	0.16588	0.098879	0.2074	0.15094	0.053733	0.46213	-1.3021	-1.6458	-2.0771	-1.4354	-2.0021	-1.825	-1.4833	-2.5083	-1.5354	-1.5354	-2.0729	-1.2563	-2.0792	-2.0979	-1.2563	-2.0542	233.003	1.272	231.447	199.932	157.101	-34.798	200.740	188.329	-99.520	141.936	46.865	-99.811	55.002	150.320	-102.071	229.115	0.00030977	0.00054081	0.00013063	1365	5.0689e-06	3.0536e-06	1361.3	369.16	3.0463e-06	5.3056e-06	423.09	140.24	122.63	42.271	3.8e-06	52.101	0.0005251	0.00053413	0.00014761	1379.4	5.834e-06	6.0511e-06	1380	375.18	5.9994e-06	5.9462e-06	427.9	143.42	125.22	43.108	5.9211e-06	53.379	159.613	-21.279	-6.351	-89.561	12.878	59.649	-89.475	-84.984	16.021	55.968	-85.614	-81.396	-80.839	-76.143	45.208	-76.631	-8191	255	
21353.840	1	1	0	0	0.058401	0.25119	0.16399	0.20651	0.15263	0.039139	0.1862	0.23173	0.21679	0.1389	0.076079	0.17047	0.34406	0.27266	0.15506	0.23239	-1.0104	-1.4312	-2.1188	-1.4979	-1.5979	-1.9667	-1.4583	-2.0833	-1.5187	-1.3979	-2.4604	-1.6271	-1.7521	-2.3125	-1.2917	-2.1729	156.538	120.540	-13.837	183.279	-47.709	180.427	132.309	218.792	-8.322	8.296	233.224	217.352	253.147	-62.754	86.747	168.781	0.00027387	0.00051472	0.00012093	1369.9	2.2824e-06	4.0884e-06	1361.5	369.73	2.9681e-06	5.0615e-06	421.57	140.55	122.19	42.036	3.2376e-06	51.937	0.00051618	0.00054862	0.00015115	1382.6	5.8054e-06	5.8041e-06	1377.8	374.69	5.9316e-06	5.8322e-06	427.5	143.45	124.79	43.043	5.9059e-06	53.354	163.350	-34.513	-17.044	-89.489	51.404	44.469	-89.809	-84.957	-28.230	28.398	-85.619	-81.491	-80.893	-76.164	11.257	-77.084	-8191	255	
21353.936	1	1	0	0	0.15118	0.090419	0.10516	0.11919	0.016531	0.14286	0.17888	0.291	0.094805	0.11892	0.13459	0.045563	0.15712	0.25553	0.27141	0.031562	-1.1313	-1.4042	-2.1479	-1.7333	-1.4958	-1.9792	-1.5292	-2.1875	-1.7021	-1.2792	-2.2667	-1.5542	-1.7167	-2.0708	-1.2938	-1.9979	69.761	141.713	-38.323	-95.759	142.168	-26.315	195.121	147.344	107.403	-59.911	204.150	112.083	206.925	-52.713	211.303	139.123	0.00026362	0.00038904	0.00014742	1362.9	3.5773e-06	3.4095e-06	1365.5	369.19	2.5437e-06	4.4277e-06	423.5	140.18	122.33	42.099	3.0845e-06	52.087	0.00050448	0.00055815	0.00014492	1378.4	5.8063e-06	6.1286e-06	1381.2	374.32	6.0387e-06	5.7082e-06	428.19	143.34	124.89	42.993	6.0494e-06	53.293	161.038	-23.700	-24.418	-89.601	44.369	52.443	-89.664	-85.159	19.375	41.945	-85.433	-81.527	-80.818	-76.219	34.624	-76.817	-8191	255	
21354.057	1	1	0	0	0.080081	0.13237	0.21997	0.35949	0.13634	0.20256	0.089904	0.3462	0.092802	0.13674	0.099442	0.28538	0.055709	0.082266	0.21486	0.12628	-1.5438	-1.1812	-2.1583	-1.7229	-1.5458	-2.0896	-1.6208	-2.0625	-2.0021	-1.1521	-2.1354	-1.7542	-1.6167	-2.3083	-1.4	-1.9521	226.595	192.319	131.332	198.181	110.017	-37.493	-5.775	-96.652	185.470	-71.062	-82.267	228.632	46.466	-38.820	129.039	32.083	0.0002837	0.00043048	0.00013101	1366.7	2.7673e-06	5.1304e-06	1361.3	369.59	2.0361e-06	3.2184e-06	421.48	139.9	121.6	42.095	5.121e-06	51.965	0.00051339	0.00056812	0.00014471	1380.3	5.9469e-06	5.9563e-06	1377.9	374.82	6.0086e-06	6.3324e-06	427.9	143.29	124.58	43.035	6.1904e-06	53.272	156.412	-26.443	-12.851	-89.595	30.111	47.833	-89.511	-85.079	12.888	34.810	-85.553	-81.415	-80.686	-75.918	33.391	-76.707	-8191	255	
21354.127	1	1	0	0	0.059878	0.10702	0.28662	0.28875	0.2265	0.11017	0.29524	0.40922	0.31406	0.20479	0.22069	0.1961	0.21153	0.055464	0.2178	0.12957	-1.575	-1.1333	-2.0708	-1.8771	-1.325	-2.2	-1.5542	-1.7375	-1.8813	-1.2021	-2	-2.1104	-1.4333	-2.15	-1.4729	-1.6812	228.703	82.066	74.158	192.351	0.925	103.587	206.602	210.341	16.867	189.188	42.375	-45.372	244.608	231.813	138.696	-56.772	0.00027886	0.00059987	0.00011861	1364.3	3.0445e-06	5.131e-06	1362.1	369.75	3.4014e-06	4.8669e-06	420.55	140.41	122.64	41.943	2.5427e-06	51.875	0.00051322	0.0005638	0.00014583	1378.8	6.037e-06	5.7895e-06	1378.7	374.78	6.1734e-06	6.0039e-06	427.38	143.38	124.84	43.008	5.9532e-06	53.16	154.696	-27.936	2.952	-89.610	23.666	51.233	-89.493	-84.779	3.732	29.911	-85.222	-81.469	-80.869	-75.762	42.489	-76.817	-8191	255	
21354.246	1	1	0	0	0.16895	0.17311	0.19487	0.27343	0.084293	0.32187	0.43899	0.16813	0.13675	0.14855	0.24261	0.10242	0.10757	0.12934	0.078981	0.052353	-1.6271	-1.3438	-1.8521	-1.9771	-1.2292	-2.1167	-1.7958	-1.8563	-1.9521	-1.2917	-2.075	-1.9875	-1.3375	-2.375	-1.475	-1.6479	220.835	-67.031	253.962	213.794	189.401	27.293	182.638	108.323	12.512	205.712	140.512	255.175	-16.482	82.224	219.454	121.450	0.00026949	0.00048812	0.00014006	1368.7	4.5784e-06	5.2509e-06	1365.2	370.69	3.6351e-06	4.7539e-06	423.73	139.77	122.34	41.992	3.3356e-06	52.007	0.00051342	0.00057265	0.0001537	1382	6.0419e-06	5.8711e-06	1380.2	375.34	5.8554e-06	6.0949e-06	428.76	143.16	124.63	42.998	6.2056e-06	53.272	158.046	-22.963	-18.292	-89.569	48.266	27.086	-89.592	-84.917	6.812	52.508	-85.170	-81.520	-80.891	-76.123	52.774	-76.654	-8191	255	
21354.344	1	1	0	0	0.15102	0.15571	0.12601	0.12284	0.18085	0.17221	0.12341	0.29905	0.20885	0.23103	0.096403	0.10872	0.13945	0.36255	0.1341	0.14305	-1.6958	-1.1562	-1.8771	-2.1188	-1.1521	-1.95	-1.6292	-1.4958	-2.1437	-1.4167	-1.8312	-2.0104	-1.4021	-2.1833	-1.5708	-1.4792	-74.277	-57.304	-49.842	245.385	242.466	147.434	198.658	156.578	31.747	115.576	-33.480	143.069	-81.181	-84.892	-75.545	239.799	0.00028011	0.00051748	0.0001402	1364.3	3.5288e-06	5.3402e-06	1359.8	369.37	1.7361e-06	5.3542e-06	421.82	139.89	121.9	41.906	2.6858e-06	51.654	0.00050972	0.00055157	0.0001529	1381.2	5.9983e-06	5.9221e-06	1379.5	375.01	5.9372e-06	6.3851e-06	428	143.3	124.73	43.033	5.9895e-06	53.142	155.288	-21.505	-22.610	-89.517	13.465	41.598	-89.715	-84.948	42.760	45.303	-85.862	-82.270	-81.781	-76.673	49.783	-77.428	-8191	255	
21354.439	1	1	0	0	0.12035	0.35605	0.18531	0.24055	0.097849	0.043241	0.45732	0.37673	0.15424	0.11378	0.27138	0.38456	0.028247	0.25317	0.049094	0.057387	-1.8792	-1.4396	-1.6313	-2.1979	-1.1958	-2.0271	-2.1292	-1.6562	-2.025	-1.4604	-1.6042	-2.0625	-1.4792	-2.1146	-1.8104	-1.2583	-83.933	144.002	215.562	253.686	-25.933	97.406	163.380	153.925	154.558	-59.841	207.794	176.963	169.061	-53.241	-83.710	54.154	0.00030782	0.00034344	0.00012209	1359.8	4.3639e-06	5.5617e-06	1360.9	368.92	2.9113e-06	4.6741e-06	421.42	139.83	122.35	42.061	3.1047e-06	51.961	0.00050326	0.00055137	0.00014679	1378.8	6.0138e-06	5.9171e-06	1379.2	374.75	5.8659e-06	6.2413e-06	428.11	143.27	124.8	43.09	6.0055e-06	53.303	153.100	-14.337	-0.350	-90.302	-3.012	47.130	-90.358	-85.491	3.028	45.382	-86.021	-82.183	-81.754	-76.703	13.818	-77.382	-8191	255	
21354.535	1	1	0	0	0.16977	0.036639	0.13237	0.24122	0.23779	0.1505	0.19268	0.26728	0.15287	0.23812	0.022778	0.36763	0.13946	0.31555	0.27172	0.078683	-1.7542	-1.275	-1.5417	-2.3542	-1.5208	-1.8375	-2.1479	-1.5583	-1.9562	-1.5646	-1.6	-2.2458	-1.6104	-1.9813	-1.9354	-1.325	253.849	160.705	48.538	253.429	162.172	-27.931	-88.314	158.528	173.709	145.617	-51.037	143.823	237.922	177.755	137.764	255.606	0.00028406	0.00051222	0.00017084	1362.6	4.0054e-06	3.4667e-06	1358	369.36	2.4287e-06	4.6926e-06	421.41	139.33	122.21	42.012	3.4568e-06	51.971	0.00050848	0.00056073	0.00015297	1380.7	6.0358e-06	5.7786e-06	1377.7	374.74	5.7347e-06	6.0845e-06	427.4	143.19	124.9	43.028	5.8895e-06	53.306	158.289	-6.710	-10.344	-90.237	10.953	57.763	-90.277	-85.774	15.638	39.478	-86.117	-81.879	-81.423	-76.491	30.101	-77.513	-8191	255	
21354.631	1	1	0	0	0.16723	0.06025	0.17077	0.43418	0.15111	0.091898	0.2151	0.091984	0.19591	0.28485	0.13594	0.17567	0.12046	0.18167	0.026338	0.092908	-1.5938	-1.7958	-1.3771	-2.2958	-1.3333	-1.75	-2.1146	-1.5417	-1.9396	-1.6812	-1.3458	-2.1875	-1.4417	-1.8792	-1.9854	-1.4104	-44.192	-66.221	-50.769	222.112	46.711	185.176	203.478	247.623	89.160	169.756	-42.580	176.197	161.996	210.259	65.259	83.486	0.00028081	0.00025601	0.00014578	1370.2	3.3475e-06	6.0534e-06	1362.3	368.3	2.6451e-06	5.271e-06	422.32	140.22	122.2	42.03	3.7912e-06	51.994	0.00050696	0.00052633	0.00015723	1382.2	6.1952e-06	5.7266e-06	1381.3	374.38	5.7135e-06	6.0796e-06	428.03	143.28	124.78	43.026	6.0925e-06	53.282	153.596	-33.395	-21.225	-90.188	30.050	54.811	-90.351	-85.820	-35.912	20.878	-86.006	-81.857	-81.641	-76.581	33.908	-77.292	-8191	255	
21354.729	1	1	0	0	0.2082	0.17097	0.16746	0.206	0.144	0.12353	0.27794	0.31273	0.088899	0.14468	0.25447	0.14987	0.21712	0.30663	0.23435	0.28623	-1.6542	-1.8312	-1.2208	-2.3563	-1.6125	-1.6083	-2.1625	-1.2479	-1.7979	-1.8563	-1.4208	-2.0812	-1.5938	-1.7104	-2.0333	-1.3583	-38.279	-33.656	113.303	-102.159	96.074	165.366	197.894	221.011	-35.498	-28.118	228.273	0.018	250.127	200.042	235.877	241.820	0.00027497	0.00074146	0.00013382	1369.1	2.943e-06	4.4907e-06	1359.5	367.29	1.706e-06	4.7165e-06	419.36	140.86	121.57	41.947	4.0835e-06	51.991	0.00050795	0.00057995	0.00015414	1380.8	6.2931e-06	6.3141e-06	1378	373.75	5.8963e-06	6.3526e-06	427.54	143.68	124.54	43.094	5.946e-06	53.302	160.156	-6.411	-9.098	-90.178	4.611	33.682	-89.994	-85.625	2.023	34.232	-86.078	-81.880	-81.488	-76.591	24.116	-77.579	-8191	255	
21354.824	1	1	0	0	0.15141	0.30616	0.1947	0.1259	0.19371	0.20017	0.19518	0.11992	0.26582	0.095298	0.29355	0.2406	0.20854	0.27783	0.17876	0.20934	-1.5354	-1.8104	-1.1	-2.3688	-1.5396	-1.5146	-2.2854	-1.5146	-1.5708	-1.9021	-1.4292	-2.0062	-1.6375	-1.4312	-2.0875	-1.5438	119.381	241.340	111.838	209.028	73.651	93.019	165.579	209.559	29.527	245.190	47.618	-93.233	199.210	254.479	39.983	170.128	0.00027138	0.00052356	0.00015516	1368	2.318e-06	3.0512e-06	1360	369.41	3.5692e-06	6.0098e-06	421	140.27	121.72	42.231	5.2505e-06	51.757	0.00052502	0.00055956	0.00015675	1382	5.9604e-06	6.1327e-06	1378.9	374.83	5.9673e-06	5.9628e-06	428.02	143.41	124.49	43.122	5.9967e-06	53.122	163.340	-17.376	-0.500	-90.091	28.439	30.572	-90.117	-85.525	10.926	41.811	-86.382	-81.758	-81.761	-76.592	54.560	-77.542	-8191	255	
21354.920	1	1	0	0	0.088454	0.081222	0.19319	0.26598	0.15064	0.22662	0.12962	0.30588	0.15806	0.1987	0.18184	0.28388	0.33756	0.29139	0.16776	0.41532	-1.2771	-1.9104	-1.2042	-2.0292	-1.6688	-1.3	-2.1292	-1.4625	-1.5771	-1.9854	-1.4042	-1.8229	-1.7979	-1.4937	-2.2	-1.5063	155.492	241.044	-21.454	208.037	163.872	-94.720	217.593	217.142	174.552	-53.969	249.640	-97.359	193.178	-101.529	-69.135	-54.029	0.00029897	0.0004241	0.00015097	1364.1	3.9259e-06	5.5301e-06	1358.8	368.86	1.8409e-06	2.7834e-06	420.02	139.82	122.24	42.09	4.5643e-06	52.041	0.00050856	0.0005592	0.00015513	1379.6	6.2144e-06	6.2129e-06	1379.3	374.47	6.0507e-06	6.2368e-06	427.05	142.93	124.58	43.096	5.8709e-06	53.204	157.555	-10.194	1.116	-90.174	59.300	55.797	-90.219	-85.596	-27.949	73.772	-85.913	-81.995	-81.624	-76.451	39.915	-77.234	-8191	255	
21355.016	1	1	0	0	0.39401	0.22736	0.33688	0.18718	0.18161	0.4284	0.33273	0.22806	0.046631	0.18197	0.10254	0.097602	0.13172	0.14545	0.24325	0.28944	-1.1167	-1.9688	-1.2333	-1.9708	-1.9875	-1.3062	-2.1479	-1.6896	-1.4542	-1.9917	-1.5604	-1.9625	-2.0687	-1.2792	-2.1229	-1.5958	-94.715	111.403	-18.221	-102.914	229.659	172.403	183.256	171.133	95.246	144.184	244.992	-100.392	-102.615	-102.730	119.479	164.786	0.00030408	0.00038782	0.00014713	1372.1	4.077e-06	4.9106e-06	1358.3	369.74	4.0302e-06	6.2714e-06	423.62	141.11	121.81	42.012	4.6512e-06	51.956	0.00052703	0.0005441	0.00016132	1383.2	6.1104e-06	6.1692e-06	1377.8	374.51	6.183e-06	5.8412e-06	427.98	143.67	124.47	42.98	5.7932e-06	53.24	159.585	-12.287	0.469	-90.039	1.007	50.887	-90.222	-85.736	-10.971	41.172	-86.050	-81.934	-81.473	-76.510	64.810	-77.257	-8191	255	
21355.135	1	1	0	0	0.31716	0.15269	0.20789	0.16428	0.064591	0.21832	0.1991	0.48073	0.20169	0.12871	0.13762	0.062813	0.1357	0.13908	0.35382	0.16683	-0.8875	-2.1396	-1.3083	-1.9208	-1.9958	-1.2396	-2.1875	-1.6792	-1.4354	-2.0812	-1.4083	-1.6104	-2.2062	-1.3479	-1.8833	-1.7521	186.815	72.068	111.332	228.180	133.183	238.489	141.622	223.055	241.637	67.236	227.585	-43.240	217.382	95.592	-51.441	169.282	0.00027635	0.00054575	0.0001471	1365.2	2.265e-06	4.3026e-06	1362.9	369.12	4.1118e-06	4.8104e-06	421.11	140.04	122.08	42.195	4.218e-06	51.849	0.00051395	0.00055694	0.00015753	1379.6	5.9555e-06	6.1003e-06	1378.6	374.65	6.1702e-06	5.8344e-06	427.61	143.36	124.72	43.061	5.8257e-06	53.208	156.984	-55.934	-9.839	-90.082	40.394	34.061	-89.891	-85.586	-22.321	51.809	-85.784	-82.120	-81.479	-76.389	31.280	-77.356	-8191	255	
21355.230	1	1	0	0	0.49262	0.20618	0.23883	0.33006	0.16157	0.10686	0.20797	0.10997	0.15931	0.13226	0.092124	0.14318	0.29442	0.37547	0.19143	0.1676	-0.78542	-1.9958	-1.4438	-1.625	-2.1542	-1.3458	-2.1188	-1.9854	-1.4708	-2.1188	-1.5396	-1.6292	-2.15	-1.3813	-1.8438	-1.9479	242.019	125.890	227.012	233.805	241.297	-14.712	216.724	114.834	155.433	220.774	176.331	41.985	214.729	249.164	-58.308	205.242	0.0003165	0.00040813	0.00017872	1367.9	2.5466e-06	6.6272e-06	1359.2	367.64	2.6216e-06	4.8371e-06	419.21	140.16	121.95	42.066	3.8728e-06	51.956	0.0005198	0.00051446	0.00015561	1381.4	5.6379e-06	6.0744e-06	1378.3	374.39	6.0126e-06	5.9025e-06	426.53	143.37	124.67	43.061	6.1077e-06	53.178	157.839	-14.986	-1.508	-90.008	20.713	48.864	-90.069	-85.644	39.891	43.850	-86.071	-81.657	-81.504	-76.650	51.130	-77.252	-8191	255	
21355.326	1	1	0	0	0.15095	0.23386	0.030864	0.34933	0.14652	0.14313	0.14538	0.37264	0.15866	0.12152	0.21428	0.1708	0.36251	0.050092	0.1165	0.098187	-0.78125	-2.1208	-1.7354	-1.6021	-2.1188	-1.1938	-2.0438	-1.975	-1.0792	-2.1917	-1.7667	-1.3188	-2.2146	-1.4875	-1.8354	-2.1	189.841	-55.467	153.388	177.498	-79.982	177.541	128.147	201.422	22.537	-48.295	238.420	73.697	228.067	-85.104	158.965	146.392	0.00030561	0.00063661	0.00017584	1370.8	3.1054e-06	5.6647e-06	1364.5	368.62	2.7954e-06	5.8968e-06	420.19	139.31	121.6	41.979	3.4144e-06	51.846	0.00052487	0.00054838	0.00015521	1381.6	5.9592e-06	5.9631e-06	1382	374.04	6.2131e-06	5.8943e-06	427.56	143.35	124.58	43.04	5.9106e-06	53.232	164.506	-35.092	0.068	-90.003	49.205	51.079	-89.993	-85.442	-1.523	49.412	-85.761	-81.859	-81.440	-76.597	35.780	-77.423	-8191	255	
21355.424	1	1	0	0	0.13266	0.17129	0.12329	0.24231	0.1459	0.10194	0.15106	0.059219	0.12254	0.070831	0.44294	0.12067	0.36169	0.31621	0.13678	0.25061	-0.7	-1.9854	-1.5146	-1.6437	-2.2729	-1.4375	-1.8979	-2.1271	-1.3417	-2.0583	-1.9146	-1.4042	-2.1542	-1.4208	-1.425	-2.0167	-57.872	-23.032	192.692	196.579	184.762	240.179	141.456	14.707	228.014	-81.183	245.525	253.567	195.624	254.084	79.052	120.545	0.00028361	0.00058003	0.00014276	1360.1	5.0779e-06	5.6546e-06	1358.8	368.5	2.8357e-06	5.6692e-06	421.47	139.87	122.29	41.995	2.99e-06	52.089	0.00052583	0.00055609	0.00015657	1379.4	5.8723e-06	6.3305e-06	1379.3	374.54	6.1341e-06	5.952e-06	427.69	143.29	124.6	43.01	6.144e-06	53.381	154.760	-15.861	-7.280	-90.133	38.054	52.578	-90.097	-85.633	11.026	38.672	-85.837	-81.749	-81.456	-76.529	29.057	-77.263	-8191	255	
21355.520	1	1	0	0	0.17666	0.052448	0.27037	0.21469	0.30378	0.067208	0.53748	0.20864	0.093271	0.1778	0.10006	0.20487	0.22195	0.45698	0.10994	0.03935	-0.88333	-1.9542	-1.8958	-1.4667	-2.0896	-1.5333	-1.6562	-2.3063	-1.3979	-1.95	-1.9625	-1.4625	-2.0667	-1.4604	-1.6146	-2.2542	-38.612	161.931	-93.664	244.686	146.319	-23.207	175.745	243.752	-1.780	125.438	-99.974	177.472	233.499	211.874	-71.267	189.076	0.00034934	0.00037642	0.00012859	1367.8	3.7138e-06	4.6882e-06	1360.2	368.61	1.6851e-06	5.4324e-06	421.88	140.07	121.69	42.235	4.4375e-06	51.971	0.00053209	0.00053901	0.0001564	1381.8	5.8189e-06	6.2544e-06	1377	374.56	6.2512e-06	6.0516e-06	428.23	143.44	124.53	43.15	5.987e-06	53.338	156.139	-28.245	-0.539	-90.108	10.102	58.543	-89.975	-85.436	2.754	48.478	-86.048	-82.034	-81.542	-76.473	18.966	-77.312	-8191	255	
21355.615	1	1	0	0	0.19456	0.2654	0.27987	0.30446	0.1251	0.088263	0.083774	0.17694	0.10569	0.19471	0.073976	0.19169	0.12655	0.23292	0.38844	0.28438	-0.78542	-1.6542	-1.9667	-1.4188	-1.9354	-1.4979	-1.4438	-2.3125	-1.2979	-1.7833	-1.9813	-1.3937	-2.0104	-1.9042	-1.3875	-2.1063	123.334	-83.936	-77.125	210.672	-92.280	239.185	-70.349	191.372	161.704	72.579	208.272	126.824	129.016	152.233	-96.767	159.675	0.00028704	0.00032557	0.00011791	1362.6	2.7941e-06	6.3213e-06	1363.2	368.7	2.8284e-06	4.8352e-06	420.62	140.19	122.26	41.956	4.0021e-06	51.982	0.00053658	0.00055492	0.0001569	1378.5	6.0448e-06	6.2621e-06	1378.8	374.77	6.3703e-06	6.2093e-06	427.54	143.46	124.77	42.948	6.198e-06	53.278	158.178	-39.123	2.801	-90.026	24.084	41.779	-90.144	-85.579	-6.252	40.627	-86.039	-81.893	-81.445	-76.552	20.293	-77.301	-8191	255	
21355.736	1	1	0	0	0.091886	0.071927	0.26209	0.27793	0.12948	0.12897	0.072996	0.37378	0.17054	0.20995	0.19491	0.093565	0.097057	0.11625	0.20439	0.09645	-0.81458	-1.5562	-2.0167	-1.3292	-1.9167	-1.6792	-1.4771	-2.2938	-1.5146	-1.5042	-2.1625	-1.2687	-1.9813	-1.9458	-1.3729	-2.0792	-53.072	123.983	246.484	194.330	-67.129	-89.650	160.966	203.926	-19.683	95.416	148.870	-54.805	252.359	-11.463	226.278	-67.385	0.0003078	0.00049668	0.00016326	1364.8	2.6728e-06	4.0437e-06	1353.9	368.74	4.2731e-06	6.7232e-06	422.06	140.84	122.1	42.062	3.8151e-06	51.985	0.00052236	0.00057055	0.00015471	1380.1	6.0835e-06	6.2867e-06	1376.1	374.94	6.3302e-06	6.1269e-06	427.93	143.47	124.69	43.054	6.1524e-06	53.273	154.506	-21.676	-3.670	-90.094	44.187	29.362	-90.119	-85.454	-9.924	37.392	-85.910	-82.060	-81.528	-76.604	29.640	-77.135	-8191	255	
21355.832	1	1	0	0	0.33409	0.048265	0.034686	0.22831	0.32333	0.17933	0.3661	0.30484	0.15075	0.21635	0.18335	0.14181	0.23573	0.44782	0.014121	0.21876	-1.1313	-1.4625	-2.1042	-1.5229	-1.8542	-2	-1.5042	-2.15	-1.5	-1.6021	-2.0958	-1.4	-2.0292	-2.1521	-1.4167	-2.1479	110.523	41.264	207.484	235.256	244.614	208.199	114.597	200.751	91.826	220.388	123.088	180.864	-49.843	216.115	31.165	251.732	0.00031778	0.00052383	0.00016849	1367.2	4.683e-06	5.7996e-06	1357.2	369.94	2.8978e-06	6.0681e-06	421.92	140.23	121.62	41.911	3.0013e-06	52.068	0.00053868	0.00054499	0.00015593	1381.3	6.1716e-06	6.1687e-06	1377.6	375.16	6.5592e-06	6.0404e-06	428.72	143.44	124.55	42.955	5.9621e-06	53.259	159.223	-5.581	5.714	-89.982	39.421	33.040	-90.029	-85.329	-3.416	46.883	-86.087	-81.790	-81.291	-76.715	53.483	-76.889	-8191	255	
21355.930	1	1	0	0	0.1156	0.1301	0.24324	0.37674	0.19318	0.19213	0.31844	0.37467	0.092488	0.048607	0.15319	0.22234	0.075688	0.43256	0.22358	0.33491	-1.3438	-1.55	-2.0292	-1.5875	-1.7604	-1.8	-1.5104	-2.2188	-1.7604	-1.5583	-2.0646	-1.3896	-1.6771	-2.1125	-1.3854	-2.0271	-83.872	239.163	-0.050	163.326	8.521	121.122	157.393	171.011	-101.455	21.771	209.794	214.762	-87.172	198.263	59.660	179.343	0.000274	0.0002924	0.00013473	1369.7	3.8322e-06	3.2912e-06	1363.2	369.77	1.7841e-06	5.0948e-06	420.71	140.34	122.18	42.08	4.2575e-06	51.852	0.00052419	0.00055674	0.00015735	1379.7	6.1634e-06	6.2403e-06	1380	375.53	6.2612e-06	6.2476e-06	427.49	143.32	124.82	43.077	6.1942e-06	53.279	156.286	-29.967	-7.211	-90.117	33.597	51.653	-90.168	-85.502	35.799	54.854	-85.914	-81.829	-81.291	-76.331	40.271	-77.195	-8191	255	
21356.025	1	1	0	0	0.11622	0.22184	0.25252	0.27324	0.089592	0.27406	0.094437	0.08733	0.078562	0.12799	0.13063	0.28419	0.23013	0.13534	0.16981	0.12407	-1.35	-1.25	-2.0667	-1.5521	-1.6437	-2.1125	-1.4354	-2.0875	-1.825	-1.1771	-2.1979	-1.45	-1.45	-2.3854	-1.35	-1.9479	56.692	251.231	169.752	253.497	41.710	-30.768	182.519	131.513	228.915	82.132	-86.026	252.936	170.830	-35.189	245.048	175.206	0.00027211	0.00056478	0.000138	1360.7	3.4035e-06	4.6879e-06	1363	370.63	3.0669e-06	3.8919e-06	420.78	140.26	122	42.085	4.1992e-06	51.942	0.00053171	0.00056409	0.0001498	1378.4	6.1051e-06	5.9882e-06	1380.6	375.72	6.1377e-06	6.1697e-06	427.41	143.14	124.71	43.052	5.9616e-06	53.191	156.114	-43.558	2.797	-89.966	62.147	65.235	-90.047	-85.471	-0.511	60.437	-85.713	-81.901	-81.153	-76.490	24.170	-77.165	-8191	255	
#DATA ENDS
