BOXY.EXE: ISS Imagent and Oximeter Data Acquisition Program Version 0.80
Ascii Record File

#ACQ INFORMATION
2  Detector Channels 
16  External MUX Channels 
1  Auxiliary Channels 
5000  Waveform (CCF) Frequency (Hz)
1  Waveforms Skipped 
30  Waveforms Averaged 
1  Cycles Averaged 
16  Acquisitions per Waveform 
10.0806  Updata Rate (Hz) 

#FILE INFORMATION
TRUE -- External MUX Channel results are PARSED.
FALSE -- AC DC and Phase are NOT grouped.
TRUE -- Companion Program Settings File CREATED.
FALSE -- AC data not excluded
FALSE -- DC data not excluded
FALSE -- Phase data not excluded
FALSE -- Auxillary Chn. data not excluded
Tab delimiters

#CALIBRATION STATE
TRUE -- Waveform Calibration Values APPLIED.


#AUX CALIBRATION VALUES
Val Type	aux-1	

Term	1.0000e+00	
Factor	0.0000e+00	


#WF CALIBRATION VALUES
A = Detector Channel
Val Type	A-AC1	A-AC2	A-AC3	A-AC4	A-AC5	A-AC6	A-AC7	A-AC8	A-AC9	A-AC10	A-AC11	A-AC12	A-AC13	A-AC14	A-AC15	A-AC16	A-DC1	A-DC2	A-DC3	A-DC4	A-DC5	A-DC6	A-DC7	A-DC8	A-DC9	A-DC10	A-DC11	A-DC12	A-DC13	A-DC14	A-DC15	A-DC16	A-Ph1	A-Ph2	A-Ph3	A-Ph4	A-Ph5	A-Ph6	A-Ph7	A-Ph8	A-Ph9	A-Ph10	A-Ph11	A-Ph12	A-Ph13	A-Ph14	A-Ph15	A-Ph16	

Term	0.00000e+00	0.00000e+00	0.00000e+00	0.00000e+00	0.00000e+00	0.00000e+00	0.00000e+00	0.00000e+00	0.00000e+00	0.00000e+00	0.00000e+00	0.00000e+00	0.00000e+00	0.00000e+00	0.00000e+00	0.00000e+00	0.00000e+00	0.00000e+00	0.00000e+00	0.00000e+00	0.00000e+00	0.00000e+00	0.00000e+00	0.00000e+00	0.00000e+00	0.00000e+00	0.00000e+00	0.00000e+00	0.00000e+00	0.00000e+00	0.00000e+00	0.00000e+00	0.00000e+00	0.00000e+00	0.00000e+00	0.00000e+00	0.00000e+00	0.00000e+00	0.00000e+00	0.00000e+00	0.00000e+00	0.00000e+00	0.00000e+00	0.00000e+00	0.00000e+00	0.00000e+00	0.00000e+00	0.00000e+00	
Factor	1.00000e+00	1.00000e+00	1.00000e+00	1.00000e+00	1.00000e+00	1.00000e+00	1.00000e+00	1.00000e+00	1.00000e+00	1.00000e+00	1.00000e+00	1.00000e+00	1.00000e+00	1.00000e+00	1.00000e+00	1.00000e+00	1.00000e+00	1.00000e+00	1.00000e+00	1.00000e+00	1.00000e+00	1.00000e+00	1.00000e+00	1.00000e+00	1.00000e+00	1.00000e+00	1.00000e+00	1.00000e+00	1.00000e+00	1.00000e+00	1.00000e+00	1.00000e+00	X	X	X	X	X	X	X	X	X	X	X	X	X	X	X	X	

B = Detector Channel
Val Type	B-AC1	B-AC2	B-AC3	B-AC4	B-AC5	B-AC6	B-AC7	B-AC8	B-AC9	B-AC10	B-AC11	B-AC12	B-AC13	B-AC14	B-AC15	B-AC16	B-DC1	B-DC2	B-DC3	B-DC4	B-DC5	B-DC6	B-DC7	B-DC8	B-DC9	B-DC10	B-DC11	B-DC12	B-DC13	B-DC14	B-DC15	B-DC16	B-Ph1	B-Ph2	B-Ph3	B-Ph4	B-Ph5	B-Ph6	B-Ph7	B-Ph8	B-Ph9	B-Ph10	B-Ph11	B-Ph12	B-Ph13	B-Ph14	B-Ph15	B-Ph16	

Term	0.00000e+00	0.00000e+00	0.00000e+00	0.00000e+00	0.00000e+00	0.00000e+00	0.00000e+00	0.00000e+00	0.00000e+00	0.00000e+00	0.00000e+00	0.00000e+00	0.00000e+00	0.00000e+00	0.00000e+00	0.00000e+00	0.00000e+00	0.00000e+00	0.00000e+00	0.00000e+00	0.00000e+00	0.00000e+00	0.00000e+00	0.00000e+00	0.00000e+00	0.00000e+00	0.00000e+00	0.00000e+00	0.00000e+00	0.00000e+00	0.00000e+00	0.00000e+00	-8.19620e+01	-1.31387e+02	-1.23947e+02	-1.82180e+02	-6.73124e+01	-7.06461e+01	-1.57453e+02	-1.62015e+02	-5.26248e+01	-5.03545e+01	-1.74207e+02	-1.70246e+02	-1.81558e+02	-1.76604e+02	-6.38946e+01	-1.49731e+02	
Factor	1.74277e-05	1.42447e-04	4.46277e-05	1.46431e-01	1.15311e-06	1.52853e-06	1.67333e-01	5.49476e-02	1.18619e-06	1.77604e-06	9.88515e-02	2.93754e-02	2.77491e-02	9.55186e-03	1.29905e-06	1.36949e-02	3.85813e-06	4.49126e-06	1.24776e-06	7.72237e-02	4.81768e-08	4.92794e-08	8.25847e-02	2.90232e-02	4.80511e-08	4.91379e-08	5.01668e-02	1.50227e-02	1.47801e-02	5.06767e-03	4.82509e-08	7.00746e-03	X	X	X	X	X	X	X	X	X	X	X	X	X	X	X	X	



#DISTANCE SETTINGS
A = Detector Channel
A-1	A-2	A-3	A-4	A-5	A-6	A-7	A-8	A-9	A-10	A-11	A-12	A-13	A-14	A-15	A-16	

2.5000e+00	3.0000e+00	2.5000e+00	3.0000e+00	2.0000e+00	3.0000e+00	1.5000e+00	3.0000e+00	3.0000e+00	3.0000e+00	3.0000e+00	3.0000e+00	3.0000e+00	3.0000e+00	1.5000e+00	3.0000e+00	

B = Detector Channel
B-1	B-2	B-3	B-4	B-5	B-6	B-7	B-8	B-9	B-10	B-11	B-12	B-13	B-14	B-15	B-16	

1.0000e+01	1.0000e+01	1.0000e+01	1.4400e+00	1.0000e+01	1.0000e+01	1.5100e+00	1.9400e+00	1.0000e+01	1.0000e+01	1.9900e+00	2.4900e+00	2.4100e+00	2.9000e+00	1.0000e+01	2.9800e+00	




#DATA BEGINS
time	group	step	mark	flag	A-AC1	A-AC2	A-AC3	A-AC4	A-AC5	A-AC6	A-AC7	A-AC8	A-AC9	A-AC10	A-AC11	A-AC12	A-AC13	A-AC14	A-AC15	A-AC16	A-DC1	A-DC2	A-DC3	A-DC4	A-DC5	A-DC6	A-DC7	A-DC8	A-DC9	A-DC10	A-DC11	A-DC12	A-DC13	A-DC14	A-DC15	A-DC16	A-Ph1	A-Ph2	A-Ph3	A-Ph4	A-Ph5	A-Ph6	A-Ph7	A-Ph8	A-Ph9	A-Ph10	A-Ph11	A-Ph12	A-Ph13	A-Ph14	A-Ph15	A-Ph16	B-AC1	B-AC2	B-AC3	B-AC4	B-AC5	B-AC6	B-AC7	B-AC8	B-AC9	B-AC10	B-AC11	B-AC12	B-AC13	B-AC14	B-AC15	B-AC16	B-DC1	B-DC2	B-DC3	B-DC4	B-DC5	B-DC6	B-DC7	B-DC8	B-DC9	B-DC10	B-DC11	B-DC12	B-DC13	B-DC14	B-DC15	B-DC16	B-Ph1	B-Ph2	B-Ph3	B-Ph4	B-Ph5	B-Ph6	B-Ph7	B-Ph8	B-Ph9	B-Ph10	B-Ph11	B-Ph12	B-Ph13	B-Ph14	B-Ph15	B-Ph16	aux-1	digaux	

1915.077	1	1	0	768	0.058249	0.22959	0.12546	0.15796	0.22586	0.14721	0.20908	0.31574	0.27562	0.26835	0.24705	0.46627	0.16349	0.19509	0.21583	0.2452	-0.95625	-2.1979	-2.1042	-1.3979	-2.3	-1.4562	-1.7958	-2.2729	-1.4646	-2.1729	-2.0396	-1.4354	-2.2208	-1.6875	-1.6667	-2.5396	121.885	-97.776	46.515	231.002	42.624	138.692	176.755	158.027	259.246	78.635	186.172	-98.787	-92.582	153.564	71.763	158.120	0.00038201	0.0019426	0.00065959	719.31	2.1437e-05	4.0464e-05	913.94	257.01	4.8315e-06	6.2631e-05	397.84	142.78	87.065	37.339	7.5307e-06	68.559	0.030869	0.035853	0.010004	1311.5	0.00038565	0.0003949	1537.8	478.23	0.00038367	0.00039405	781.25	257.78	200.76	76.325	0.00038748	121.81	211.824	84.904	182.829	-87.124	87.743	110.483	-87.437	-82.296	19.347	16.620	-83.803	-79.011	-77.896	-73.838	45.728	-75.238	-8191	255	
1915.173	1	1	0	0	0.1789	0.19024	0.23388	0.26779	0.14611	0.27772	0.2489	0.20637	0.16063	0.20356	0.12553	0.24051	0.08888	0.33756	0.10413	0.07106	-1.0104	-1.9	-2.0438	-1.575	-2.3646	-1.7583	-1.6792	-2.5042	-1.2646	-1.8062	-2.1625	-1.4208	-2.2083	-1.7687	-1.575	-2.4854	-62.022	4.851	117.906	-91.074	-86.641	28.619	123.279	-23.693	212.934	164.036	-56.313	176.170	241.678	110.026	241.584	154.337	0.0003277	0.0021293	0.00056671	732.26	8.2583e-06	1.5583e-05	928.54	257.64	2.9371e-05	5.1511e-05	398.93	143.64	86.879	37.607	3.4262e-05	69.281	0.030969	0.036003	0.01011	1317.2	0.00038923	0.00039825	1548	479.49	0.00038311	0.00039082	779.32	256.85	199.13	75.998	0.00038151	121.31	-44.884	158.531	239.129	-87.762	21.689	-39.700	-87.768	-82.992	85.921	-39.446	-83.243	-79.014	-78.215	-73.350	-37.240	-75.411	-8191	255	
1915.269	1	1	0	0	0.078228	0.21628	0.13831	0.31834	0.10854	0.016869	0.15824	0.063028	0.16845	0.10877	0.14146	0.33345	0.05383	0.26571	0.0671	0.19489	-0.8875	-1.7812	-2.1917	-1.4083	-2.1417	-1.9542	-1.6917	-2.2104	-1.3167	-1.6958	-2.2792	-1.4813	-1.9792	-2.0646	-1.5708	-2.3187	185.027	46.270	-28.643	255.784	179.018	-23.994	210.386	251.001	210.432	-67.227	245.976	-96.923	-66.788	-82.541	150.231	217.604	0.00042968	0.0030544	0.00023539	730.09	9.4865e-06	5.8062e-05	921.33	258.99	9.236e-06	2.2615e-05	396.91	140.89	85.396	37.204	1.3783e-05	67.866	0.030248	0.035154	0.0098014	1296.6	0.00037193	0.00038273	1519.3	469.28	0.00036809	0.00037626	762.22	250.1	193.94	74.13	0.00036658	117.83	90.675	15.187	-64.851	-87.763	64.689	244.440	-87.889	-82.723	165.311	-55.357	-83.446	-78.873	-78.563	-73.535	-35.190	-75.458	-8191	255	
1915.365	1	1	0	0	0.28932	0.088656	0.35061	0.13132	0.038308	0.08327	0.20265	0.12521	0.027576	0.13693	0.17048	0.077193	0.24936	0.094668	0.20213	0.34961	-1.0187	-1.7708	-2.2396	-1.4146	-1.9292	-1.9583	-1.4521	-2.4167	-1.7188	-1.6333	-2.2896	-1.5438	-2.1208	-1.9958	-1.425	-2.2646	223.841	201.109	-90.731	176.494	167.714	180.389	175.313	177.388	226.631	242.712	169.729	-3.811	104.236	166.032	-97.799	99.674	0.00048838	0.00011943	0.00052192	719.76	1.3845e-05	3.5728e-05	910.42	254.17	7.5782e-06	1.4369e-05	390.8	140.09	84.603	36.788	1.926e-05	67.228	0.029237	0.034141	0.0095562	1272.7	0.0003668	0.00037969	1503	465.39	0.00036882	0.00038043	761.12	250.2	195.25	74.308	0.00037201	118.01	218.273	39.618	-23.296	-87.617	20.221	-36.720	-87.674	-82.577	137.539	-16.081	-83.767	-78.501	-78.386	-73.304	6.401	-75.454	-8191	255	
1915.461	1	1	0	0	0.12723	0.32352	0.19889	0.20186	0.082101	0.17899	0.16256	0.20549	0.29047	0.11336	0.29398	0.13849	0.15956	0.061505	0.20286	0.27865	-1.2771	-1.6271	-2.2333	-1.6708	-2.1375	-2.1875	-1.6375	-2.3417	-1.6542	-1.5521	-2.4292	-1.5542	-2.0563	-2.2562	-1.4208	-2.2687	-54.701	168.189	149.043	158.891	-97.742	62.260	-9.717	221.099	68.455	35.931	244.046	123.930	204.398	85.563	-96.086	65.744	0.00038519	0.0040187	0.000882	714.6	2.7979e-05	6.4549e-06	908.15	252.48	3.635e-05	3.4212e-05	394.83	140.83	84.618	36.75	2.2406e-05	67.59	0.029564	0.034477	0.0096001	1271	0.00036664	0.00037692	1494	460.46	0.00036173	0.00037114	751.34	248.05	192.63	73.793	0.00036523	117.72	220.769	-57.649	106.500	-87.715	-17.475	120.886	-87.349	-82.311	-42.974	133.128	-83.660	-78.854	-77.446	-73.232	-65.018	-75.530	-8191	255	
1915.557	1	1	0	0	0.16114	0.14445	0.035694	0.26842	0.28741	0.34087	0.16634	0.13448	0.22217	0.1541	0.13289	0.081354	0.24251	0.27187	0.1585	0.15349	-1.1521	-1.4833	-2.3083	-1.6562	-1.7667	-2.3125	-1.4375	-2.2667	-2.0083	-1.4813	-2.4688	-1.7188	-1.7687	-2.2979	-1.5063	-2.1979	-52.137	-90.527	238.398	247.659	-2.992	47.540	178.832	164.851	23.812	58.799	128.118	-11.069	169.920	190.046	183.384	233.306	0.00074245	0.0025151	0.00033157	712.12	1.0827e-05	4.4467e-05	911.15	253.4	4.0219e-05	2.0971e-05	393.26	140.45	85.04	37.653	3.0654e-05	68.573	0.029237	0.034063	0.0094683	1265.9	0.00036481	0.00037627	1496.6	462.73	0.00036787	0.00038025	760.45	250.53	194.44	74.188	0.0003635	117.61	236.050	-22.171	-57.674	-87.456	212.124	60.434	-87.529	-82.407	227.759	9.632	-83.775	-78.770	-78.351	-73.437	100.821	-75.206	-8191	255	
1915.678	1	1	0	0	0.086763	0.25666	0.19854	0.18781	0.045364	0.18864	0.24118	0.23087	0.009325	0.17852	0.34604	0.207	0.16961	0.20536	0.20621	0.23014	-1.575	-1.4854	-2.2479	-1.7292	-1.6042	-2.3458	-1.3542	-1.9917	-1.8687	-1.3042	-2.4437	-1.7479	-1.7938	-2.3187	-1.5396	-2.075	-66.557	255.270	83.522	254.235	129.998	23.964	172.118	-90.968	238.112	104.794	157.036	-73.284	97.266	248.765	-40.919	121.059	0.00036651	0.0034825	0.0012556	726.04	2.0201e-05	7.0278e-06	914.67	256.06	1.6626e-05	4.1136e-05	397.49	141.6	85.187	37.16	4.4627e-05	68.228	0.028984	0.033756	0.0093172	1264	0.00036018	0.00037166	1496.3	464.64	0.00036755	0.00037733	760.14	251.98	195.78	74.786	0.00037042	119.4	236.336	155.999	-22.973	-87.074	62.965	110.771	-87.548	-82.493	247.359	51.623	-83.664	-78.593	-77.768	-73.363	74.096	-75.337	-8191	255	
1915.774	1	1	0	0	0.1443	0.22903	0.068658	0.061623	0.16248	0.07054	0.016339	0.35634	0.056541	0.053333	0.1043	0.13416	0.16366	0.11165	0.28951	0.15935	-1.7167	-1.3417	-2.0583	-1.5896	-1.6208	-2.325	-1.6	-1.9417	-2.1083	-1.4312	-2.3937	-1.875	-1.6562	-2.3375	-1.7646	-2.1271	64.984	-86.547	-52.971	86.778	28.976	175.582	209.267	140.302	83.688	-29.265	210.042	225.042	-62.966	175.516	164.688	196.911	0.00045865	0.0030802	0.0006826	709.86	5.7682e-06	3.9886e-05	904.86	251.85	2.5839e-05	3.8584e-05	389.9	139.86	83.329	36.848	1.9073e-05	68.031	0.029926	0.034659	0.0095802	1271.1	0.00036887	0.00037551	1491.6	458.9	0.000361	0.00036675	742.68	246.67	191.48	73.438	0.00036416	117.87	102.029	56.171	-64.484	-87.626	97.620	-35.338	-87.275	-82.134	110.403	-20.557	-83.294	-78.930	-77.463	-73.606	201.958	-74.688	-8191	255	
1915.870	1	1	0	0	0.10361	0.14605	0.19335	0.16957	0.16095	0.20553	0.13273	0.064926	0.051072	0.10262	0.075978	0.1709	0.32643	0.13985	0.088965	0.16568	-1.8375	-1.4333	-2.0646	-1.9417	-1.4333	-2.3187	-1.5583	-1.8563	-2.3479	-1.3667	-2.2667	-2.0479	-1.5479	-2.4417	-1.4771	-1.7938	13.825	240.367	93.290	248.475	170.868	203.826	226.179	222.895	181.086	-48.272	233.775	34.522	192.433	190.718	126.639	159.567	0.00033808	0.0021735	0.00041008	711.16	3.0005e-05	4.3349e-05	902.26	250.99	1.7076e-05	3.8538e-05	387.72	139.53	84.501	36.681	2.1818e-05	68.116	0.029541	0.034325	0.0096022	1274.9	0.0003735	0.00038268	1500.3	463.89	0.00037162	0.00037909	753.02	249.58	194.02	73.895	0.00036678	117.86	178.086	-99.589	157.168	-87.547	88.320	-19.580	-87.355	-81.626	-2.552	130.086	-83.362	-78.778	-77.630	-73.329	2.276	-74.974	-8191	255	
1915.966	1	1	0	0	0.043059	0.058397	0.1731	0.20736	0.17683	0.08235	0.30095	0.36005	0.095034	0.072134	0.20773	0.42443	0.16053	0.18364	0.10911	0.075874	-1.9042	-1.4667	-2.3479	-2.0687	-1.5208	-2.3292	-1.7042	-1.5729	-2.375	-1.5063	-2.1958	-2.2021	-1.5812	-2.3292	-1.6688	-1.7458	143.789	127.300	43.339	-35.547	56.346	17.802	208.754	-81.035	-86.973	217.017	209.292	249.608	240.816	205.793	155.800	147.025	5.7445e-05	0.0068739	0.0011858	715.43	3.6228e-05	3.0607e-05	908.04	252.77	9.5857e-06	3.8254e-05	391.11	140.86	84.21	37.103	3.0532e-06	68.36	0.029429	0.033963	0.009383	1263.5	0.00036194	0.00036987	1483.3	460.38	0.00036376	0.00037271	753.81	249.78	194.41	74.2	0.00037155	119.52	-53.844	4.467	191.212	-87.558	-75.974	135.863	-87.373	-81.900	150.029	101.163	-83.340	-78.598	-77.273	-73.103	252.408	-74.405	-8191	255	
1916.061	1	1	0	0	0.060091	0.1526	0.13023	0.11989	0.19176	0.10731	0.1611	0.22162	0.17446	0.092231	0.16612	0.19314	0.32308	0.14595	0.065656	0.1973	-1.8458	-1.3521	-1.6896	-2.1562	-1.3937	-2.1583	-1.8146	-1.5083	-2.2562	-1.525	-1.9333	-2.1312	-1.4771	-2.4	-1.9521	-1.6542	107.697	124.808	43.826	12.537	138.166	229.743	239.972	88.138	122.544	106.333	240.055	229.378	220.670	220.522	97.369	179.878	0.00035637	0.0020308	0.00070209	718.77	5.2872e-06	3.0409e-05	911.4	255.04	1.677e-05	4.2731e-05	394.63	141.53	84.475	37.579	5.3103e-05	68.834	0.029991	0.03482	0.0097143	1288.4	0.00037898	0.00038792	1531.2	476.4	0.00039116	0.0004033	789.77	261.4	204.98	78.296	0.00040798	125.73	54.998	-49.292	137.704	-87.739	143.804	34.516	-87.116	-81.851	117.719	-20.729	-82.924	-78.882	-77.783	-73.047	105.862	-74.978	-8191	255	
1916.157	1	1	0	0	0.098512	0.21948	0.21267	0.25072	0.15796	0.063864	0.26916	0.24807	0.17838	0.042577	0.1567	0.090649	0.10637	0.11718	0.098505	0.37922	-2.0542	-1.425	-1.7625	-2.3354	-1.4521	-2.2021	-2.1146	-1.5292	-2.3187	-1.5833	-1.75	-2.1104	-1.3229	-2.1833	-2.0187	-1.6625	10.391	19.105	214.124	-89.563	137.016	193.985	187.863	-13.444	40.957	102.735	-14.219	-56.774	255.664	209.319	55.476	160.563	0.00041822	0.0060159	0.00061087	720.11	2.6764e-05	2.3477e-05	917.63	253.54	1.5837e-05	5.5239e-05	398.04	141.16	84.407	37.436	1.7894e-05	68.326	0.032775	0.037927	0.01055	1338.4	0.00040608	0.00041237	1564.9	484.45	0.00039977	0.00041137	793.05	261.75	204.62	78.123	0.00040581	124.57	224.000	13.159	246.927	-86.934	116.306	-73.459	-87.228	-82.142	-17.508	221.364	-83.334	-79.070	-78.217	-72.742	54.436	-74.840	-8191	255	
1916.278	1	1	0	0	0.167	0.21039	0.33161	0.22073	0.13944	0.26698	0.22938	0.24451	0.40175	0.044986	0.10812	0.23475	0.17275	0.12397	0.1177	0.11747	-1.9896	-1.6021	-1.5896	-2.55	-1.5063	-2.1458	-2.1375	-1.4479	-2.3833	-1.7167	-1.7896	-2.5604	-1.4646	-2.2146	-2.2729	-1.6792	159.011	-42.264	51.711	202.738	200.262	173.178	169.249	221.665	145.403	136.269	215.423	145.694	149.901	67.491	92.712	-75.388	0.00029353	0.0021877	0.0012501	714.04	3.4328e-05	2.0388e-05	900.47	249.57	2.4203e-06	3.4245e-05	386.96	139.72	83.679	36.841	3.2946e-05	67.894	0.032418	0.037878	0.010512	1325.3	0.00040266	0.00041251	1556.2	481.75	0.00040067	0.00041271	790.95	260.54	203.86	77.496	0.00040301	123.31	179.135	82.918	-68.546	-87.589	192.045	130.842	-87.722	-82.240	79.271	63.718	-83.026	-79.576	-77.746	-73.096	93.576	-75.040	-8191	255	
1916.374	1	1	0	0	0.21143	0.10809	0.16459	0.13852	0.072578	0.075736	0.28872	0.14389	0.21536	0.15266	0.3259	0.14434	0.083747	0.076073	0.1325	0.15217	-1.8792	-1.8354	-1.5396	-2.4021	-1.4375	-1.7771	-2.1354	-1.3229	-2.1417	-1.8	-1.6625	-2.2812	-1.5896	-1.9562	-1.9937	-1.3854	63.812	144.088	-53.448	223.656	69.150	259.885	212.135	178.086	-41.331	178.097	37.234	179.541	-16.517	78.588	-91.944	110.248	0.00040179	0.0043984	0.000984	707.74	2.0427e-05	3.2854e-05	904.14	247.88	3.5956e-05	3.8893e-05	384.88	139.35	84.138	36.692	3.3616e-05	68.228	0.031996	0.037359	0.010366	1315.3	0.00039828	0.00040708	1547.5	477.83	0.00039572	0.00040649	783.35	257.49	201.63	76.634	0.00039504	122.24	168.275	129.015	163.790	-87.424	-17.228	135.045	-87.401	-82.110	28.328	32.603	-83.599	-78.645	-77.586	-73.129	-88.158	-75.068	-8191	255	
1916.470	1	1	0	0	0.15875	0.11461	0.24032	0.19144	0.27916	0.076132	0.21548	0.037858	0.18499	0.15213	0.23658	0.14083	0.38861	0.1106	0.26011	0.20539	-1.7313	-1.8062	-1.5063	-2.3688	-1.5667	-1.7854	-2.4437	-1.3583	-2.0583	-2.0687	-1.6729	-2.4104	-1.55	-1.7042	-2.3354	-1.5104	-40.324	259.418	-52.962	-86.068	-19.406	-39.413	-7.620	153.876	169.231	-68.045	-67.048	-94.992	-89.718	-10.486	96.149	248.821	0.00027705	0.0016778	0.00095132	713.24	1.6475e-05	2.4321e-05	911.94	248.87	2.6886e-05	6.9341e-05	392.27	140.24	83.282	38.013	2.9093e-05	68.395	0.031424	0.036809	0.010309	1315.3	0.00039844	0.00040834	1558.1	480.13	0.0003998	0.0004126	790.15	260.9	204.65	78.37	0.00040497	124.5	1.196	46.265	168.734	-86.887	32.925	155.513	-87.407	-82.087	185.081	18.076	-83.527	-78.693	-77.603	-72.415	118.894	-74.576	-8191	255	
1916.566	1	1	0	0	0.055227	0.12599	0.22373	0.14068	0.053934	0.031999	0.17207	0.17356	0.14614	0.39943	0.15579	0.44519	0.1786	0.036217	0.12947	0.088354	-1.6187	-1.9979	-1.1708	-2.4292	-1.4729	-1.6479	-2.4979	-1.7062	-1.9813	-2.2479	-1.4979	-2.2396	-1.5562	-1.7729	-2.3771	-1.6896	29.011	93.758	120.275	207.623	-18.831	15.291	165.835	221.079	93.931	69.699	171.786	104.077	-60.912	108.910	151.243	121.047	0.0002826	0.0030231	0.00087749	719.86	1.9668e-05	2.6815e-05	912.99	252.57	2.1523e-05	3.2139e-05	395.45	142.08	85.057	37.953	2.9249e-05	69.46	0.032187	0.03754	0.010419	1319.9	0.00039701	0.00040618	1549.7	477.53	0.00038739	0.00039708	776.96	257	200.41	76.48	0.00038354	121.98	205.519	9.189	236.636	-86.765	-46.047	42.236	-87.146	-81.949	144.598	-84.902	-83.510	-78.292	-77.722	-73.149	135.101	-75.028	-8191	255	
1916.638	1	1	0	0	0.070563	0.11014	0.18373	0.24039	0.12975	0.17943	0.20511	0.10532	0.24361	0.091993	0.1478	0.21348	0.11045	0.15666	0.070153	0.15031	-1.4125	-2.0458	-1.2625	-2.3042	-1.7167	-1.4896	-2.4458	-1.5604	-2.1271	-2.0542	-1.475	-2.3563	-1.9937	-1.4854	-2.5604	-1.7396	121.871	25.990	-8.613	220.993	214.011	66.683	153.504	156.797	252.085	111.391	80.749	-98.084	215.206	226.362	223.253	127.973	0.00038055	0.0033208	0.00016904	717.6	2.8868e-05	5.5353e-05	910.52	250.72	1.8391e-05	5.4327e-05	391.84	139.31	83.352	37.193	7.3121e-06	68.213	0.030691	0.036127	0.010057	1301.7	0.00039083	0.00040377	1543.2	476.51	0.00039515	0.00040736	785.97	258.49	202.74	77.415	0.00039798	122.81	204.920	20.406	-72.756	-87.453	192.211	103.177	-87.062	-82.001	132.363	81.290	-83.503	-79.420	-78.356	-73.322	212.611	-75.101	-8191	255	
1916.758	1	1	0	0	0.1127	0.052703	0.31413	0.15233	0.13134	0.066526	0.23821	0.20996	0.34618	0.16742	0.21036	0.16995	0.2851	0.16683	0.21572	0.040594	-1.55	-2.3083	-1.25	-2.2687	-1.9479	-1.4271	-2.5604	-1.5229	-1.6104	-2.2729	-1.5438	-2.0938	-2.0417	-1.2896	-2.1729	-1.9688	220.707	173.161	45.033	211.482	20.438	28.963	171.819	225.309	-34.944	69.089	-99.198	215.817	13.588	166.422	148.642	-79.426	0.00026688	0.002224	0.00092518	712.79	3.1673e-05	2.4308e-05	900.51	249.32	1.1015e-05	2.73e-05	385.71	138.81	83.021	37.022	1.9654e-05	68.011	0.031995	0.037416	0.010371	1314.5	0.0003998	0.0004063	1537.3	473.89	0.00039097	0.00039933	771.52	254.14	199.15	76.062	0.00038744	120.96	-61.776	33.736	18.201	-87.127	202.597	4.229	-87.127	-82.184	-12.895	-2.085	-83.911	-78.523	-77.876	-73.633	129.283	-75.243	-8191	255	
1916.855	1	1	0	0	0.049543	0.54429	0.24901	0.15169	0.26102	0.092103	0.051475	0.30906	0.087831	0.30709	0.33252	0.057183	0.17761	0.12821	0.076269	0.23787	-1.2625	-2.1437	-1.3646	-2.225	-2.0271	-1.4396	-2.2562	-1.8708	-1.5958	-2.1729	-1.45	-2.1167	-2.0187	-1.4562	-2.1146	-1.8271	235.779	-29.506	243.258	255.714	50.759	116.763	134.566	-75.410	151.798	172.383	246.668	-11.656	92.123	145.620	142.360	213.127	0.00020479	0.0013877	0.00024358	718.75	2.1354e-05	2.784e-05	909.33	249.93	4.0525e-05	3.2952e-05	389.13	138.94	82.823	37.076	2.8508e-05	68.236	0.031138	0.036229	0.010059	1302.2	0.00039001	0.0004	1535.3	473.13	0.00038968	0.00040115	777.15	256.73	201.95	77.03	0.00039518	122.91	-52.373	100.950	-39.359	-86.754	172.213	-25.156	-87.355	-82.685	-78.893	161.346	-83.526	-78.919	-78.085	-73.471	-50.532	-75.060	-8191	255	
1916.951	1	1	0	0	0.09004	0.07745	0.16878	0.13513	0.23814	0.024268	0.10531	0.17445	0.086957	0.0867	0.12747	0.27943	0.14688	0.11282	0.325	0.081886	-1.1292	-2.3021	-1.6042	-1.9354	-2.0792	-1.4542	-2.1875	-1.8396	-1.4458	-2.3812	-1.4042	-2.0604	-2.2167	-1.4854	-1.9813	-1.9146	-22.295	213.385	19.080	-88.780	-24.324	0.998	-84.591	189.247	216.768	116.545	88.014	-94.506	146.229	20.358	21.581	187.900	0.00014303	0.0013706	0.00034059	714.54	3.9518e-05	5.2179e-06	910.59	248.68	1.5909e-05	4.149e-05	389.34	140.74	84.612	37.502	5.8234e-05	68.576	0.031936	0.037053	0.010272	1319.6	0.00039858	0.00040829	1551.4	479.03	0.0003991	0.00041193	792.92	263.57	208.72	79.722	0.00042162	128.09	240.237	-26.761	-87.788	-87.227	23.296	247.739	-87.415	-82.533	209.928	-30.166	-83.228	-78.585	-78.084	-73.408	43.696	-75.122	-8191	255	
1917.047	1	1	0	0	0.22367	0.14469	0.24612	0.20324	0.16945	0.06321	0.29553	0.14875	0.24236	0.099567	0.13812	0.44822	0.24867	0.17864	0.068673	0.17857	-1.1313	-2.0396	-1.5125	-1.7896	-2.2625	-1.4271	-2.2562	-2.0083	-1.2854	-2.1479	-1.7208	-1.7396	-2.4	-1.4688	-1.9646	-2.1104	-83.874	212.480	55.719	-44.150	80.795	6.342	195.889	218.227	70.605	162.401	223.323	257.751	-91.927	247.025	-45.783	-95.954	0.00010848	0.0027206	0.00088524	719.83	6.7228e-06	2.9822e-05	906.38	251.57	2.0941e-05	3.5389e-05	389.59	140.31	84.239	37.488	2.2283e-05	68.596	0.034378	0.039859	0.01115	1376.1	0.0004323	0.0004403	1598.7	494.33	0.00041595	0.00041919	794.39	261.36	204.24	77.415	0.00039351	122.4	230.355	170.801	149.579	-87.212	239.108	50.250	-87.105	-82.529	125.116	200.598	-83.506	-78.414	-77.621	-73.190	-83.850	-75.122	-8191	255	
1917.166	1	1	0	0	0.43882	0.14713	0.24666	0.42392	0.16893	0.20308	0.13695	0.2418	0.15228	0.08912	0.16742	0.3175	0.18325	0.1125	0.034751	0.17063	-1.0542	-2.2354	-1.5958	-1.5875	-2.4042	-1.35	-2.2125	-2.1146	-1.3896	-2.1333	-1.8917	-1.5688	-2.35	-1.6542	-1.7917	-2.2875	252.323	243.889	-37.387	229.701	126.310	212.309	99.440	139.302	86.248	162.704	134.614	181.529	121.459	-69.048	70.915	80.766	0.00012808	0.00074752	0.0015091	710.32	2.0248e-05	3.7102e-05	910.14	245.6	1.2738e-05	3.9295e-05	383.67	138.99	83.337	37.032	2.168e-05	67.672	0.03089	0.03544	0.0097615	1273.1	0.00037065	0.00037433	1477	452.75	0.00035572	0.00036212	737.51	245.67	189.03	72.717	0.00035792	117.3	215.691	-75.890	21.386	-87.165	184.021	33.729	-87.112	-82.300	111.979	168.056	-83.145	-78.612	-77.521	-73.675	127.907	-75.126	-8191	255	
1917.239	1	1	0	0	0.084786	0.11399	0.20993	0.12248	0.19848	0.17001	0.36124	0.14851	0.076308	0.16381	0.38732	0.10853	0.19331	0.1918	0.25973	0.19128	-0.91667	-2.2542	-1.7062	-1.5312	-2.5792	-1.5604	-1.8937	-2.3187	-1.1958	-2.0542	-1.7854	-1.4792	-2.3042	-1.5042	-1.8917	-2.3417	55.866	-22.109	137.241	183.499	-2.071	61.349	220.967	226.590	32.308	259.355	259.395	127.694	138.552	106.601	-92.931	-96.091	0.00017158	0.001944	0.0015831	708.16	2.4234e-05	2.0972e-05	899.66	245.73	2.7328e-05	6.2768e-06	383.46	138.96	82.221	36.871	1.6512e-05	67.455	0.028911	0.033701	0.009446	1258.9	0.00036704	0.00037781	1498.2	461.1	0.00037554	0.00038375	757.21	250.32	194.89	74.891	0.0003802	120.11	139.320	-67.846	13.417	-87.044	-30.420	138.092	-87.061	-82.022	69.128	162.010	-83.191	-79.031	-77.843	-73.493	21.021	-75.145	-8191	255	
1917.358	1	1	0	0	0.20774	0.18288	0.071884	0.034252	0.20331	0.080469	0.21091	0.30304	0.15676	0.11927	0.13247	0.42998	0.20102	0.3316	0.28956	0.096849	-0.96667	-1.9708	-1.9146	-1.5708	-2.1771	-1.5312	-1.9042	-2.3563	-1.4625	-2.0354	-2.0563	-1.3417	-2.2104	-1.7417	-1.6562	-2.3854	-56.355	-55.799	180.461	-89.930	199.848	133.790	170.925	163.242	243.142	49.127	168.155	137.066	-61.038	155.068	60.318	18.300	0.00037711	0.0019239	0.0014497	714.37	1.9002e-05	6.3922e-05	905.87	247.98	1.6796e-05	2.9047e-05	384.41	139.67	83.471	37.135	2.4393e-05	68.398	0.030598	0.035795	0.010058	1302.3	0.00039138	0.0004018	1538.7	472.45	0.00039017	0.00039659	771.3	254.44	197.63	75.813	0.00038311	121.01	120.819	89.680	12.419	-87.444	18.419	-52.183	-87.340	-82.184	118.871	79.988	-83.513	-78.691	-77.616	-73.338	35.702	-75.229	-8191	255	
1917.454	1	1	0	0	0.096414	0.063627	0.063866	0.1352	0.11397	0.20567	0.17385	0.079283	0.012041	0.21128	0.10435	0.11685	0.11035	0.32695	0.049199	0.10728	-0.92708	-2.0875	-1.8021	-1.3917	-2.2646	-1.7958	-1.6833	-2.2833	-1.4042	-1.8333	-2.3021	-1.4583	-2.2188	-1.9312	-1.5354	-2.3792	-77.064	131.184	-75.316	-57.404	-53.778	91.895	183.927	151.856	192.114	49.104	-40.703	115.889	9.345	222.268	100.476	183.181	7.7188e-05	0.0023987	0.00062543	716.6	1.2692e-05	3.0586e-05	917.75	251.01	1.3186e-05	1.359e-05	391.84	140.86	84.554	37.623	5.6032e-05	69.476	0.030406	0.035369	0.0098732	1291.6	0.00038008	0.00038832	1526.3	467.73	0.00037673	0.00038652	768.83	253.57	196.5	75.757	0.00037795	121.11	105.117	-2.962	-59.621	-87.155	47.874	52.795	-87.360	-81.941	8.082	225.242	-83.164	-78.682	-77.373	-73.101	50.076	-75.198	-8191	255	
1917.550	1	1	0	0	0.13741	0.029641	0.21812	0.16529	0.054171	0.11868	0.19355	0.23013	0.13329	0.06252	0.15305	0.359	0.078555	0.14347	0.26697	0.085616	-0.83125	-1.9604	-2.0396	-1.3729	-2.0917	-1.6083	-1.6896	-2.2375	-1.3521	-1.925	-2.2354	-1.3896	-2.1417	-1.9813	-1.4375	-2.6125	186.986	39.630	150.921	173.420	55.211	103.782	160.544	66.568	257.459	-99.967	-30.230	170.323	126.159	224.861	65.803	175.845	4.4613e-05	0.001762	0.00071948	713.79	1.9504e-05	2.1964e-05	914.4	249.22	1.0813e-05	7.8127e-05	386.07	139.29	83.183	37.354	2.3733e-05	68.114	0.030124	0.035074	0.0097763	1283.3	0.00037298	0.00038346	1510.8	461.83	0.00036919	0.00037605	752.65	248.35	191.79	73.862	0.00036329	117.24	-43.559	104.750	52.760	-86.490	-26.755	3.383	-87.126	-82.019	54.644	54.185	-83.120	-78.471	-77.782	-73.128	92.213	-75.041	-8191	255	
1917.647	1	1	0	0	0.20342	0.23314	0.26184	0.18344	0.36852	0.10524	0.19332	0.17974	0.13525	0.21341	0.13671	0.22615	0.10909	0.26196	0.12438	0.074972	-1.1021	-1.6875	-2.125	-1.2417	-1.8521	-1.7896	-1.5438	-2.2062	-1.5208	-1.4937	-2.3271	-1.2917	-1.8979	-1.9688	-1.3375	-2.4125	-68.413	-63.678	120.914	184.264	-35.426	-48.423	228.043	242.191	127.852	215.024	-13.319	238.106	177.561	212.139	121.216	191.465	0.00037515	0.0010268	0.00090485	706.43	5.8162e-06	2.1092e-05	906.38	247.03	2.5776e-05	3.6314e-05	386.34	138.81	83.168	37.062	8.481e-06	67.666	0.028686	0.033262	0.0092871	1242.2	0.00035334	0.00036566	1471.3	450.19	0.0003556	0.00036538	738.61	243.94	188.61	72.781	0.00035599	116.16	244.168	-51.221	-29.126	-86.934	125.407	55.201	-87.252	-81.738	-33.987	7.950	-82.800	-78.126	-77.574	-72.673	175.982	-74.613	-8191	255	
1917.767	1	1	0	0	0.16955	0.18128	0.080398	0.10767	0.11121	0.39855	0.37469	0.12819	0.065144	0.16955	0.14406	0.25552	0.38995	0.43612	0.12213	0.19429	-1.2417	-1.6396	-2.1937	-1.2375	-2.0042	-1.9792	-1.4167	-2.1792	-1.5083	-1.5125	-2.25	-1.4896	-2.0167	-2.1063	-1.2229	-2.1479	74.772	30.058	80.186	190.599	151.877	132.691	199.943	246.422	104.847	109.899	57.916	216.105	204.295	150.659	-18.550	216.968	0.00020387	0.0011858	0.00043289	715.6	2.5138e-05	2.0021e-05	901.17	247.9	1.0822e-05	6.632e-06	384.99	139.12	83.016	36.786	5.1087e-06	68.201	0.028432	0.03334	0.0092965	1250.4	0.00035771	0.00036909	1478.4	454.13	0.00036337	0.00037301	745.93	246.96	191.67	73.721	0.00036632	117.67	-83.259	4.790	-82.440	-87.003	162.811	34.794	-87.481	-82.091	-3.852	2.043	-83.181	-78.809	-77.705	-73.712	226.517	-75.238	-8191	255	
1917.863	1	1	0	0	0.33229	0.11558	0.1146	0.144	0.076623	0.16698	0.11506	0.2442	0.015028	0.21709	0.1611	0.17142	0.15845	0.16809	0.079834	0.037101	-1.2188	-1.4771	-2.1188	-1.4688	-1.7542	-2.225	-1.575	-2.0896	-1.9521	-1.425	-2.2167	-1.4562	-1.6708	-2.1229	-1.3833	-2.1333	-87.873	-71.627	230.599	194.519	39.180	122.608	131.389	-93.773	79.680	-82.795	170.142	-75.829	170.748	195.572	146.808	161.240	0.00014475	0.0032699	0.00064183	714.53	3.9221e-05	3.4687e-05	913.26	251.48	9.0603e-06	4.4862e-05	385.2	140.94	84.107	37.269	3.76e-05	68.72	0.029131	0.033858	0.0093131	1251	0.0003554	0.00036529	1476.4	451.98	0.0003536	0.00036261	735.58	243.81	187.74	72.307	0.00034389	115.06	168.198	259.509	201.964	-87.835	-6.135	26.598	-87.567	-82.339	126.638	81.519	-83.621	-78.872	-78.138	-73.772	-4.233	-75.536	-8191	255	
1917.959	1	1	0	0	0.31135	0.36138	0.30027	0.31429	0.041484	0.2804	0.36095	0.37438	0.01924	0.13394	0.21212	0.19526	0.20415	0.27049	0.2501	0.25263	-1.3792	-1.2646	-2.0917	-1.6583	-1.6146	-1.9813	-1.4292	-2.2188	-1.9042	-1.3854	-2.2125	-1.8667	-1.6958	-2.1729	-1.1917	-2.1583	-29.340	4.121	146.054	169.782	1.815	-40.065	164.666	180.052	-52.582	143.905	204.326	212.630	7.670	213.503	22.598	-95.333	0.00018728	0.0018978	0.001339	720.29	1.7555e-05	1.9911e-05	918.41	251.37	3.3878e-05	1.546e-05	390.67	139.03	83.731	37.353	3.8951e-05	67.904	0.027229	0.031114	0.0085597	1211.8	0.0003269	0.00033459	1430.1	435.4	0.0003247	0.00033431	712.2	237.94	183.52	71.147	0.00033864	114.2	12.859	-96.243	-13.498	-87.628	35.920	-11.105	-87.572	-82.219	55.434	39.842	-83.992	-79.475	-78.121	-73.784	170.947	-75.516	-8191	255	
1918.054	1	1	0	0	0.34431	0.14005	0.19385	0.18416	0.12761	0.2134	0.11543	0.286	0.10606	0.094972	0.26255	0.15363	0.096296	0.22404	0.086592	0.20247	-1.6354	-1.3729	-2.0375	-1.6667	-1.675	-2.0271	-1.5312	-1.8333	-2.2542	-1.3292	-2.3292	-1.8813	-1.4875	-2.3625	-1.4937	-1.875	165.994	228.231	61.058	200.730	-38.503	-61.563	145.681	215.807	-47.937	22.680	-2.512	144.925	136.230	-27.623	170.602	183.530	0.00030114	0.0023001	0.0008936	714.43	1.0678e-05	2.8995e-05	904.85	247.74	1.2172e-05	1.6485e-05	383.58	137.78	82.95	36.45	1.9956e-05	66.716	0.027339	0.031936	0.0088423	1226.6	0.00034038	0.00034685	1441.6	440.51	0.00033745	0.00034601	717.44	237.96	184.54	71.201	0.00034902	114.73	243.898	-75.878	213.514	-87.558	6.227	22.319	-87.834	-82.730	102.388	-10.723	-83.315	-78.926	-78.111	-73.356	-34.813	-75.149	-8191	255	
1918.150	1	1	0	0	0.1146	0.21335	0.17327	0.07357	0.19958	0.21061	0.11555	0.33559	0.072242	0.18739	0.17777	0.13557	0.2046	0.088778	0.18594	0.22368	-1.7875	-1.2625	-2.1312	-1.8542	-1.5125	-2.25	-1.5542	-1.8458	-2.1354	-1.2854	-2.1813	-1.9208	-1.2354	-2.3146	-1.6354	-1.7667	100.474	29.161	173.371	144.044	43.332	93.949	-7.538	194.558	-89.657	253.462	-25.340	186.524	-69.133	58.756	29.816	224.672	0.00041293	0.0016306	0.00039014	707.86	4.2206e-05	1.8993e-05	894.89	247.17	1.2533e-05	3.5898e-05	383.53	136.87	81.806	36.392	2.6184e-05	67.174	0.028431	0.033208	0.0092329	1253	0.00036053	0.00036953	1477.8	455.38	0.00036482	0.0003733	743.9	245.75	191.48	73.383	0.00036734	117.33	207.592	-81.310	115.779	-87.239	33.030	50.305	-87.522	-82.241	135.574	152.360	-83.898	-79.217	-78.373	-73.352	-6.435	-75.096	-8191	255	
1918.246	1	1	0	0	0.078485	0.052052	0.090492	0.25117	0.25058	0.17909	0.18246	0.21233	0.30743	0.23368	0.10814	0.19725	0.14912	0.30363	0.23643	0.1255	-1.8625	-1.4292	-1.9146	-1.8979	-1.2917	-1.9896	-1.6083	-1.7833	-2.2083	-1.3625	-2.0583	-1.9792	-1.3708	-2.3	-1.7292	-1.5875	254.671	19.917	167.727	-76.864	21.184	227.104	126.224	49.176	162.904	7.921	258.772	190.764	97.345	-64.496	50.953	242.646	0.0003489	0.0039486	0.0011601	715.79	6.0448e-06	2.4406e-05	897.96	247.54	3.229e-05	3.9226e-05	384.9	136.79	83.087	36.693	1.5814e-05	66.805	0.029684	0.034722	0.0096706	1284.3	0.00037778	0.00038753	1511.9	466.47	0.00038046	0.00039053	762.1	251.51	196.75	75.093	0.00038325	119.75	238.281	-31.411	168.354	-87.918	65.370	188.066	-87.797	-82.377	-34.947	45.714	-83.249	-79.127	-77.887	-73.178	213.099	-75.044	-8191	255	
1918.342	1	1	0	0	0.23565	0.073028	0.19034	0.11484	0.026171	0.14093	0.24768	0.27028	0.15661	0.12089	0.057267	0.24466	0.18571	0.024052	0.24501	0.054828	-1.9562	-1.3854	-1.9375	-2.2646	-1.3229	-2.1875	-1.5604	-1.5729	-2.3833	-1.3833	-1.9458	-2.2604	-1.2458	-2.0271	-1.8229	-1.3937	-62.356	164.544	164.801	238.370	133.053	72.106	173.452	225.154	-88.231	-18.723	100.930	139.239	-32.344	203.920	-53.693	-39.075	0.00011047	0.0046834	0.0013411	722.69	3.7297e-05	3.2939e-05	906.44	250.83	2.2695e-05	6.0089e-05	384.7	138.73	83.386	37.116	1.1801e-05	67.958	0.030657	0.035371	0.0098282	1286.5	0.00037485	0.00037788	1494.7	457.26	0.00035942	0.00036437	736.54	243.93	188.06	71.999	0.0003499	115.45	193.613	-52.253	107.475	-87.537	184.616	2.322	-87.565	-82.550	203.922	-74.090	-83.533	-79.312	-77.719	-73.212	-25.221	-74.764	-8191	255	
1918.463	1	1	0	0	0.10361	0.1697	0.21743	0.19007	0.21277	0.19216	0.060556	0.4679	0.3131	0.099005	0.37277	0.43669	0.15248	0.09907	0.16861	0.24242	-1.8896	-1.2979	-1.6625	-2.1354	-1.1021	-1.9438	-2.075	-1.2854	-2.25	-1.4354	-1.7812	-2.3729	-1.4458	-2.3271	-1.9979	-1.5125	45.134	20.481	138.974	244.771	-72.055	192.237	148.340	133.975	179.097	216.096	210.494	186.850	254.487	-80.262	7.073	229.606	0.00012404	0.0015858	0.00050627	713.79	2.4653e-05	6.7106e-05	912.55	250.57	1.4137e-05	2.5685e-05	387.86	136.9	82.715	36.713	2.9672e-05	66.49	0.02781	0.032202	0.0089197	1235.2	0.00034336	0.0003478	1447	442.4	0.00033426	0.00034157	714.61	237.05	182.04	70.045	0.00033647	112.73	246.802	5.177	-25.280	-87.306	129.737	256.736	-87.687	-82.220	-19.994	61.127	-83.311	-78.893	-78.897	-73.594	126.699	-75.068	-8191	255	
1918.535	1	1	0	0	0.29421	0.22519	0.39039	0.2136	0.29527	0.06191	0.098958	0.22894	0.16503	0.15788	0.10856	0.07735	0.15497	0.13343	0.070654	0.13101	-1.9583	-1.7333	-1.8813	-2.4083	-1.3854	-1.8792	-2.2271	-1.3333	-2.2	-1.6542	-1.6	-2.4646	-1.4688	-1.9583	-2.125	-1.4229	160.293	134.640	-86.095	242.611	6.172	236.574	159.627	205.089	-80.438	1.440	-80.909	203.373	-73.838	-24.194	38.190	4.384	0.00035493	0.0010942	0.00070551	705.67	3.5817e-05	3.2343e-05	892.66	246.11	2.1203e-05	5.5094e-05	380.8	134.86	81.917	36.022	2.6437e-05	65.088	0.027074	0.031784	0.0089465	1230.8	0.00034818	0.00035984	1464.6	454.74	0.0003671	0.00038375	760.25	251.39	200.1	77.197	0.00041747	124.57	-77.039	-98.623	97.945	-87.717	-58.865	-92.510	-88.204	-82.388	59.637	35.136	-83.235	-79.013	-78.266	-73.076	74.999	-75.291	-8191	255	
1918.631	1	1	0	0	0.096376	0.038351	0.17342	0.073065	0.10154	0.14547	0.21197	0.13322	0.13227	0.13797	0.45267	0.11061	0.15893	0.18196	0.11973	0.15869	-1.8292	-1.6688	-1.3375	-2.45	-1.3583	-1.8333	-2.2292	-1.3	-2.2583	-1.6833	-1.6479	-2.4417	-1.4396	-2.1521	-2.2229	-1.3479	-16.608	-33.414	77.691	122.231	167.190	144.946	151.679	-69.849	15.948	-54.432	-47.351	103.788	-36.464	80.827	98.625	35.525	0.00035153	0.0050128	0.0010786	712.07	4.2028e-05	2.5276e-05	893.7	245.44	2.3371e-05	6.2548e-05	374.89	132.75	79.492	35.556	2.9668e-05	64.973	0.034594	0.041115	0.011626	1406.1	0.00045888	0.00047258	1658.4	515.96	0.00046544	0.00047867	845.32	273.04	218.51	82.034	0.00045515	127.15	-81.855	214.065	107.792	-88.129	-28.423	213.059	-87.862	-82.196	-45.551	116.230	-84.102	-79.331	-78.004	-73.425	81.421	-75.527	-8191	255	
1918.727	1	1	0	0	0.061925	0.14579	0.3892	0.16836	0.244	0.17499	0.24998	0.20859	0.053595	0.31766	0.25248	0.15422	0.16147	0.22876	0.24787	0.033564	-1.6437	-1.5875	-1.5646	-2.4458	-1.5271	-1.8479	-2.4271	-1.2708	-1.9542	-1.9979	-1.4854	-2.3958	-1.6437	-1.8333	-2.3354	-1.2833	-22.930	98.469	48.105	-18.442	-59.300	138.402	124.652	162.215	211.278	47.052	175.090	256.283	-86.385	228.482	183.146	25.463	0.0001518	0.0025929	0.0011516	708.97	6.3635e-06	3.8481e-05	898.18	245.13	1.7304e-05	3.3996e-05	379.63	134.79	80.624	35.605	1.9818e-05	66.172	0.035303	0.04092	0.011343	1372	0.00042925	0.00043774	1586.6	487.37	0.00041549	0.00042529	789.09	256.34	201.56	76.331	0.00039754	119.84	-98.717	44.828	-37.423	-88.168	-57.458	16.623	-87.752	-82.843	231.861	253.622	-83.440	-78.429	-78.819	-73.571	174.584	-75.478	-8191	255	
1918.848	1	1	0	0	0.050226	0.20137	0.19833	0.17061	0.16793	0.1909	0.15082	0.081231	0.090071	0.18364	0.13279	0.056502	0.17769	0.087869	0.19739	0.19723	-1.5771	-2.1813	-1.3625	-2.4521	-1.6958	-1.7229	-2.3708	-1.4667	-1.9833	-2.0458	-1.3625	-2.325	-1.6854	-1.5146	-2.3646	-1.6104	70.171	112.659	-40.317	150.302	-53.989	183.794	106.698	-35.263	115.372	194.169	9.117	180.154	100.721	-81.847	255.126	140.906	0.00033552	0.00069572	0.00094657	713.06	2.4118e-05	1.5027e-05	905.35	248.87	2.241e-05	3.8924e-05	381.64	136.31	81.461	36.362	3.8018e-05	65.803	0.031179	0.036163	0.010013	1292.8	0.00037948	0.00038805	1506.7	463.97	0.00037318	0.00038521	754.77	247.64	194.22	74.433	0.00037664	117.82	58.423	26.109	186.353	-87.245	136.230	80.450	-87.546	-82.181	223.118	90.113	-83.739	-79.075	-78.287	-73.674	174.848	-75.866	-8191	255	
1918.944	1	1	0	0	0.072642	0.22154	0.131	0.047932	0.15819	0.082755	0.059522	0.058878	0.11868	0.13916	0.15629	0.12865	0.26125	0.02202	0.062399	0.22355	-1.5021	-2.0333	-1.4208	-2.1771	-1.6208	-1.4292	-2.5021	-1.425	-1.9792	-2.2	-1.4729	-2.0292	-1.8042	-1.5979	-2.2292	-1.6771	62.571	105.557	19.033	66.739	103.230	34.932	5.991	203.765	-42.058	84.834	-49.004	225.415	203.787	192.314	205.989	185.414	6.6244e-05	0.0022457	0.00092071	712.83	1.5887e-05	3.3913e-05	885.77	245.11	2.7744e-05	6.2784e-06	376.01	134.03	81.08	35.563	1.584e-05	65.189	0.030219	0.035291	0.0097543	1271.7	0.00037329	0.00038074	1479.3	455.99	0.00036548	0.00037656	739.27	242.13	188.94	72.051	0.00035854	114.1	176.526	30.601	156.168	-87.347	-31.148	52.556	-87.630	-82.185	233.131	23.816	-83.423	-78.889	-78.025	-73.270	-11.780	-74.818	-8191	255	
1919.040	1	1	0	0	0.082407	0.1788	0.077926	0.25377	0.11196	0.25928	0.19561	0.43632	0.15061	0.089631	0.061759	0.17225	0.16329	0.1091	0.07661	0.046358	-1.2167	-2.4229	-1.5229	-2.2646	-1.9146	-1.3312	-2.2417	-1.6458	-1.5292	-2.2396	-1.4062	-2.0417	-1.9937	-1.3958	-2.1854	-1.7542	-83.924	90.297	-30.697	-95.822	163.861	109.409	205.352	174.676	-53.856	160.234	102.965	150.820	236.904	-39.831	88.009	48.402	0.00056325	0.002349	0.0008586	699.4	7.3644e-06	1.933e-05	880.33	243.81	1.6033e-05	3.4194e-05	372.71	133.93	80.346	35.026	1.5312e-05	65.014	0.028568	0.03334	0.0091929	1226.6	0.00035191	0.0003621	1442	443.75	0.00035299	0.00036246	723.45	238.62	186.56	71.366	0.00035686	113.85	253.336	-31.699	-55.101	-87.229	-21.154	-14.733	-87.618	-81.671	110.548	134.247	-83.868	-78.665	-77.919	-73.116	151.867	-74.993	-8191	255	
1919.134	1	1	0	0	0.074233	0.12184	0.19283	0.31939	0.25212	0.11015	0.20117	0.15668	0.10877	0.22249	0.074992	0.2781	0.1175	0.11389	0.18591	0.082282	-1.3333	-2.3625	-1.3083	-1.9229	-1.9167	-1.3333	-2.2208	-1.8604	-1.5729	-2.3125	-1.3396	-2.0812	-2.0792	-1.4	-2.2062	-1.9062	-56.975	23.518	254.134	195.079	97.378	42.218	-98.485	244.386	156.777	-21.618	207.342	189.090	208.680	82.810	193.808	59.518	0.00020605	0.0031057	0.00097404	703.64	1.3904e-05	1.7252e-05	888.41	242.82	2.8365e-05	1.9272e-05	378.55	134.06	80.641	35.418	2.351e-05	65.541	0.028735	0.033418	0.0091858	1229.5	0.00035244	0.00035575	1432.1	437.04	0.00033921	0.00034492	708.61	233.33	180.81	69.434	0.00033618	111.67	-58.646	38.625	120.834	-87.399	-37.598	231.342	-87.286	-82.094	103.103	-74.989	-83.715	-78.701	-78.050	-73.228	8.519	-74.706	-8191	255	
1919.230	1	1	0	0	0.24717	0.15418	0.18123	0.14338	0.14161	0.34116	0.29893	0.29799	0.26923	0.14778	0.34351	0.15169	0.31455	0.050873	0.11995	0.26119	-1.1292	-2.3042	-1.5042	-2.0083	-2.225	-1.2729	-2.2104	-2.0208	-1.5729	-2.2479	-1.6083	-2.0292	-2.1521	-1.3625	-1.8771	-1.925	-8.104	13.313	-8.364	240.919	111.249	121.294	171.454	87.246	183.666	56.125	240.134	189.187	-4.321	9.706	-89.515	130.397	0.00076	0.0017791	0.00060263	706.25	2.0517e-05	2.4671e-05	890.05	245.59	1.7643e-05	3.4062e-05	383.88	136.44	82.291	35.969	2.2107e-05	66.519	0.027152	0.031499	0.0087244	1209	0.00033645	0.00034252	1421.9	435.32	0.00033261	0.00034035	709.1	235.58	182.17	69.966	0.00033448	112.39	190.251	-1.410	178.657	-87.302	243.697	108.981	-87.206	-82.376	239.620	84.149	-83.273	-78.870	-78.009	-73.882	29.342	-75.000	-8191	255	
1919.328	1	1	0	0	0.049848	0.10686	0.19223	0.29732	0.31259	0.069999	0.28766	0.11837	0.15919	0.30512	0.15472	0.1365	0.11801	0.1802	0.18347	0.26632	-1.0167	-2.15	-1.4125	-1.7437	-2.2958	-1.2979	-2.1042	-2.0812	-1.2563	-2.275	-1.6917	-1.7563	-2.3	-1.4646	-1.8729	-2.0104	242.792	199.715	74.677	199.030	32.695	105.059	221.921	131.660	215.235	253.788	-62.954	220.398	52.825	69.531	-14.153	225.715	0.00045362	0.0028552	0.00060343	709.54	3.2219e-05	2.1317e-05	894.41	246.33	2.6073e-05	2.6662e-05	378.87	136.05	81.385	35.942	3.4417e-05	65.528	0.026966	0.031284	0.0087053	1216.4	0.00033771	0.00034366	1429.1	438.22	0.00033618	0.00034337	710.77	236.1	181.22	69.606	0.00033392	111.29	-38.202	-94.953	111.461	-87.158	66.168	132.818	-87.192	-82.681	173.556	252.090	-83.244	-78.783	-77.979	-73.199	212.060	-75.086	-8191	255	
1919.447	1	1	0	0	0.056106	0.4842	0.17946	0.27704	0.11601	0.18479	0.097685	0.21703	0.063362	0.22936	0.018766	0.29817	0.047325	0.34382	0.1699	0.12274	-0.87292	-2.1604	-1.4479	-1.6021	-2.1875	-1.4667	-2.1104	-2.1146	-1.2542	-2.2333	-1.9	-1.5938	-2.2604	-1.5583	-1.7563	-2.3375	-44.828	244.393	174.434	165.874	-33.147	149.632	-21.206	214.006	-32.467	211.650	110.805	142.802	80.597	58.641	235.234	193.453	0.00036655	0.0033208	0.00041343	701.61	9.0328e-06	2.7261e-05	883.62	243.31	2.6338e-05	4.8088e-05	378.08	133.85	80.879	35.256	1.8626e-05	65.504	0.02678	0.031118	0.0086539	1203.9	0.00033343	0.00033974	1412.3	434.41	0.0003333	0.00034142	706.41	234.14	181.35	69.519	0.00033784	111.72	243.197	-24.358	66.767	-87.245	17.974	65.887	-87.404	-82.752	109.767	196.497	-83.875	-78.557	-77.626	-73.512	-35.239	-74.964	-8191	255	
1919.543	1	1	0	0	0.12478	0.08291	0.49803	0.056552	0.30457	0.31607	0.32471	0.13483	0.089875	0.23643	0.042426	0.029258	0.10491	0.10061	0.1092	0.11779	-0.94583	-2.05	-1.775	-1.5688	-2.1583	-1.4021	-1.7333	-2.2375	-1.3271	-2.1125	-2.0563	-1.5583	-2.2562	-1.4979	-1.7104	-2.3958	-3.106	-59.692	91.085	-70.358	-23.809	152.251	174.637	220.892	234.860	-99.062	256.679	194.440	130.870	173.189	-43.918	204.646	0.00054724	0.0024595	0.00065939	704.82	2.2856e-05	3.949e-05	884.08	246.04	2.5094e-05	1.1031e-05	379.41	133.45	81.9	35.672	3.6442e-05	65.273	0.027171	0.031509	0.0088218	1212.2	0.00034042	0.00034774	1424.5	437.08	0.00033485	0.00033997	704.71	232.08	178.66	68.44	0.00032667	110.19	244.667	34.094	108.418	-87.311	8.595	36.591	-87.516	-82.151	-1.526	25.213	-84.255	-78.463	-77.134	-73.169	-87.552	-74.934	-8191	255	
1919.639	1	1	0	0	0.38706	0.18803	0.21374	0.40455	0.23548	0.25548	0.37647	0.25228	0.099001	0.21409	0.19208	0.301	0.093416	0.2093	0.13596	0.20282	-0.875	-2.125	-1.9896	-1.2938	-2.3583	-1.7313	-1.8479	-2.2917	-1.2437	-1.8229	-2.0563	-1.5667	-2.2958	-1.7167	-1.5271	-2.2917	-38.657	187.621	137.882	159.242	147.917	20.621	224.680	203.256	204.382	257.989	48.113	148.324	146.839	140.121	226.677	257.352	0.00013006	0.0030303	0.00089197	700.33	9.8482e-06	5.7558e-05	888.22	246.17	1.9445e-05	1.0488e-05	381.32	135.36	80.905	36.073	1.8262e-05	66.625	0.026142	0.0303	0.0085144	1190.3	0.00032638	0.00033558	1410.8	431.98	0.00032716	0.00033524	706.54	234.4	180.22	69.89	0.00033901	112.86	139.755	35.163	-16.202	-87.298	1.284	34.068	-87.129	-82.002	-94.093	171.891	-83.367	-78.953	-78.030	-73.424	47.298	-74.991	-8191	255	
1919.760	1	1	0	0	0.146	0.080295	0.21251	0.12094	0.24105	0.10021	0.077162	0.24267	0.21711	0.098393	0.42622	0.15205	0.093724	0.1858	0.1167	0.061263	-0.66667	-1.9292	-2.0229	-1.3771	-2.3104	-1.8083	-1.8062	-2.3563	-1.3563	-1.9333	-2.2375	-1.3604	-2.2167	-1.7479	-1.4208	-2.2833	201.760	-93.560	200.973	0.714	-81.965	-32.564	121.722	201.063	94.381	168.102	182.708	-89.586	-24.195	101.251	128.653	201.330	0.00037188	0.0042159	0.00063003	708.61	2.1694e-05	3.585e-05	902.39	248.08	1.7746e-05	2.8798e-05	381.91	137.47	82.191	36.112	3.2073e-05	66.731	0.027272	0.031784	0.0089154	1224.9	0.00034139	0.00034962	1439	441.69	0.00033974	0.00034941	724.14	239.65	185.4	71.568	0.00035347	114.98	53.030	14.427	-12.317	-87.626	203.195	-20.791	-87.349	-82.230	18.159	145.001	-83.316	-78.514	-77.801	-73.450	194.617	-75.378	-8191	255	
1919.832	1	1	0	0	0.16176	0.056298	0.12884	0.24604	0.4353	0.092277	0.076607	0.11748	0.17146	0.12941	0.38464	0.30546	0.15175	0.11485	0.14113	0.45237	-0.93333	-1.7771	-2.2104	-1.3021	-1.9396	-1.7646	-1.6167	-2.4479	-1.2229	-1.7708	-2.3312	-1.4292	-2.0042	-1.8687	-1.5354	-2.3417	-46.378	172.132	158.239	-64.798	-84.549	167.391	69.529	169.443	192.791	44.523	209.067	114.989	221.406	51.528	95.241	193.346	0.00058295	0.00022813	0.00071234	709.13	6.6582e-06	1.7297e-05	895.69	243.78	2.5077e-05	3.3743e-05	377.19	134.08	80.885	35.413	1.2151e-05	64.971	0.028392	0.033088	0.0092043	1236.1	0.00035005	0.00035807	1444.3	440.6	0.00034249	0.00034987	714.04	235.46	181.75	70.066	0.00034542	112.57	-89.816	-8.407	-65.237	-87.114	239.759	132.976	-87.455	-82.094	62.677	-46.466	-83.517	-78.986	-78.256	-73.735	184.227	-75.289	-8191	255	
1919.928	1	1	0	0	0.34575	0.12649	0.17459	0.2348	0.23642	0.15857	0.3004	0.11925	0.36464	0.086762	0.13861	0.18765	0.26482	0.13706	0.074357	0.056011	-1.1854	-1.7188	-2.1375	-1.2729	-1.8062	-2.0896	-1.4813	-2.0812	-1.5479	-1.8125	-2.5438	-1.4083	-2.0042	-2.2313	-1.3396	-2.4062	239.699	-73.509	-0.768	119.681	252.238	27.703	108.601	0.864	24.117	106.217	232.657	224.647	-77.585	142.650	-29.795	163.539	0.00032691	0.0017407	0.0012186	699.42	1.1397e-05	2.021e-05	890.99	243.96	3.1016e-05	2.4492e-05	372.66	134.12	79.983	35.219	1.4882e-05	64.871	0.02798	0.032893	0.0091761	1231.4	0.00035047	0.00036188	1448.4	442.8	0.00034826	0.0003558	718.02	235.42	182.93	70.204	0.00034473	111.73	186.213	183.249	-39.212	-87.582	-82.903	245.760	-87.450	-82.015	-42.739	209.595	-83.608	-78.961	-78.297	-73.253	199.076	-74.869	-8191	255	
1920.024	1	1	0	0	0.084639	0.21628	0.14545	0.11328	0.1411	0.18028	0.42434	0.16811	0.12691	0.22292	0.25106	0.093786	0.20552	0.11921	0.1708	0.25032	-1.2604	-1.8438	-2.2604	-1.7167	-1.9333	-1.9688	-1.4875	-2.2854	-1.6	-1.5542	-2.5021	-1.6833	-1.9333	-2.1458	-1.25	-2.2104	255.174	112.945	215.417	85.054	-20.736	34.420	-29.804	235.791	184.644	-4.373	-98.488	212.008	243.804	216.584	247.172	-75.768	0.0005708	0.00082049	0.0012171	705.23	5.8696e-06	2.9938e-05	887.05	245.7	2.0832e-05	1.6685e-05	379.11	133.7	82.375	35.858	2.5931e-05	65.709	0.02753	0.032188	0.0090062	1223.2	0.00034873	0.00036056	1448.5	445.72	0.00035477	0.00036592	733.25	240.03	187.87	71.841	0.00035741	114.14	209.105	76.713	169.984	-86.992	254.693	127.228	-87.538	-82.321	-18.829	103.129	-84.117	-79.270	-78.209	-73.377	-26.266	-75.079	-8191	255	
1920.143	1	1	0	0	0.063278	0.082827	0.073285	0.26721	0.14489	0.12277	0.42001	0.23843	0.19959	0.093106	0.073662	0.09411	0.19261	0.21594	0.1565	0.038584	-1.5271	-1.4021	-2.3083	-1.5583	-1.6917	-2.2208	-1.4792	-1.95	-1.8417	-1.4729	-2.3354	-1.775	-1.5917	-2.1583	-1.4083	-2.0104	-25.767	179.938	-29.976	225.197	68.461	225.982	-24.875	47.009	-56.362	219.637	-38.528	157.755	259.153	201.846	231.356	-7.113	0.00060114	0.0016886	0.00085724	707.91	2.4403e-05	1.7504e-05	901.12	246.01	8.9543e-06	6.1651e-06	383.05	134.37	81.821	36.134	3.3435e-05	66.311	0.028442	0.032981	0.0091388	1235.3	0.00035109	0.00036293	1459.5	447.89	0.00035425	0.00036505	733.8	241.08	188.03	72.221	0.00035582	114.93	-56.716	103.642	257.402	-87.760	-20.290	57.856	-87.759	-82.341	166.919	49.270	-83.546	-79.097	-77.721	-73.156	253.842	-75.207	-8191	255	
1920.239	1	1	0	0	0.018229	0.23565	0.18355	0.08209	0.23935	0.10449	0.070418	0.074176	0.095593	0.13869	0.23036	0.18062	0.1731	0.057165	0.15306	0.020788	-1.4979	-1.4438	-2.3292	-1.6208	-1.55	-2.3708	-1.4792	-2.1271	-2.1792	-1.4833	-2.3229	-1.9708	-1.6646	-2.1688	-1.2979	-1.7812	162.691	211.029	90.163	207.997	159.718	199.605	-9.156	149.283	228.316	175.760	-89.063	127.429	187.555	221.801	19.123	32.038	0.00041429	0.00083135	0.00080592	714.97	3.0429e-05	1.3495e-05	900.56	247.92	1.9816e-05	1.3268e-05	382.23	135.92	81.363	35.913	9.1906e-06	65.568	0.028398	0.032937	0.0090651	1235.6	0.00034898	0.00035732	1448.4	443.92	0.00034701	0.00035525	720.81	238.43	184.7	70.845	0.00034783	113.17	-47.908	176.468	248.891	-87.333	45.158	109.780	-87.076	-82.040	19.674	168.998	-83.568	-79.028	-77.596	-73.450	208.934	-74.954	-8191	255	
1920.335	1	1	0	0	0.2599	0.083589	0.13855	0.34499	0.079984	0.20849	0.10364	0.50337	0.061859	0.19446	0.23629	0.02634	0.52866	0.15538	0.23076	0.23702	-1.4646	-1.2854	-2.0146	-1.7812	-1.4438	-2.2917	-1.5438	-1.8917	-1.8583	-1.2667	-2.2542	-1.8125	-1.5604	-2.3146	-1.4271	-1.9354	17.703	60.916	122.609	153.464	32.879	-54.170	132.682	206.786	-88.964	33.047	-51.200	103.619	253.321	-51.447	1.272	38.713	0.00051905	0.0018566	0.0010409	699.8	7.823e-06	3.1847e-05	887.21	243.68	1.8375e-05	7.6171e-06	378.1	131.63	79.11	34.987	3.1599e-05	64.152	0.027892	0.032361	0.0089694	1220.5	0.00034694	0.00035753	1438.7	443.12	0.00035189	0.00036079	724.32	239.07	187.63	71.875	0.00036216	114.3	-25.765	-86.587	-99.693	-87.491	135.216	85.988	-87.579	-82.501	50.005	189.177	-83.531	-78.907	-77.983	-73.252	-57.923	-74.796	-8191	255	
1920.409	1	1	0	0	0.18612	0.27011	0.1553	0.17478	0.29362	0.25108	0.14665	0.24392	0.066466	0.26826	0.18452	0.29119	0.22093	0.13338	0.11796	0.19471	-1.6229	-1.2875	-1.9729	-1.975	-1.2208	-2.2458	-1.6021	-1.5688	-2.2	-1.3146	-2.0458	-1.9937	-1.3438	-2.3042	-1.5854	-1.6125	-35.875	209.502	225.635	244.976	112.564	167.169	32.056	64.237	90.456	-68.297	-74.593	229.285	130.363	167.141	68.726	205.369	0.00033716	0.0032955	0.00046316	700.26	7.2224e-06	2.2614e-05	877.21	243.57	1.3856e-05	5.0724e-06	372.43	131.81	80.64	35.444	2.3205e-05	64.339	0.029122	0.033736	0.0093439	1246.9	0.00036293	0.00037153	1463.4	451.18	0.00036395	0.00037225	732.86	240.98	188.92	71.755	0.00035978	114.01	239.676	43.276	98.664	-87.496	176.606	172.061	-87.610	-81.966	68.196	119.256	-84.349	-79.324	-78.120	-73.174	230.790	-75.295	-8191	255	
1920.528	1	1	0	0	0.10435	0.15693	0.20319	0.081464	0.10511	0.11229	0.24469	0.20471	0.11648	0.29795	0.08229	0.035179	0.07553	0.031718	0.096929	0.17762	-1.6917	-1.2354	-1.9438	-2.0958	-1.3958	-2.2458	-1.7229	-1.725	-2.25	-1.4583	-1.9146	-1.9646	-1.25	-2.2646	-1.8312	-1.5604	168.179	201.950	153.534	-92.541	1.586	176.489	231.680	-99.617	-11.617	147.043	-49.041	-67.401	191.812	194.301	47.577	216.562	0.00017574	0.001641	0.00080973	705.89	2.4367e-05	2.5672e-05	878.76	243.61	3.2807e-05	5.0905e-05	376.06	132.52	80.067	35.628	2.7157e-05	66.03	0.028847	0.03334	0.0092196	1244.5	0.00035573	0.00036223	1451.1	445.26	0.00035095	0.00035537	717.84	236.28	183.09	70.147	0.000342	112.43	228.758	91.614	-4.365	-87.682	-70.184	21.329	-87.591	-82.742	-22.311	-70.552	-83.657	-78.915	-77.385	-73.495	111.770	-75.480	-8191	255	
1920.624	1	1	0	0	0.28629	0.12312	0.074368	0.31716	0.1066	0.15994	0.14763	0.20014	0.22834	0.39712	0.19483	0.12662	0.16141	0.047052	0.079028	0.19954	-1.9083	-1.4188	-1.7708	-1.9792	-1.2896	-2.2104	-1.7313	-1.4583	-2.0667	-1.45	-1.7542	-2.2958	-1.2437	-2.0375	-1.7167	-1.4479	106.678	128.719	94.311	-10.106	63.976	107.455	-70.797	189.474	235.139	182.397	52.886	-82.833	61.098	102.376	189.868	190.692	0.00012085	0.0011592	0.0007323	705.52	1.3064e-05	2.3968e-05	899.65	244.94	2.2193e-05	6.8974e-06	377.31	134.81	81.461	36.172	1.5438e-05	66.213	0.02733	0.031685	0.0088268	1223.4	0.00034502	0.00035332	1446.7	445.09	0.00034943	0.00035808	726.99	241.09	187.58	72.191	0.00036324	116.89	-59.635	200.368	-18.008	-88.002	25.311	149.717	-87.629	-82.447	150.250	135.126	-83.541	-79.350	-77.776	-73.747	-12.729	-75.041	-8191	255	
1920.720	1	1	0	0	0.19888	0.15018	0.12277	0.22305	0.15667	0.26818	0.12747	0.28033	0.12065	0.2145	0.1781	0.076976	0.060358	0.1436	0.11786	0.12511	-1.7604	-1.3271	-1.7167	-2.2167	-1.4708	-2.0083	-2.0312	-1.5833	-2.2875	-1.5438	-1.8958	-2.3083	-1.4854	-2.0938	-1.9	-1.4521	247.256	-28.719	-65.453	205.040	187.876	232.126	128.291	169.400	171.116	-96.250	-93.586	68.848	225.443	156.460	216.603	238.829	0.0002237	0.0013126	0.00077951	713.75	2.3332e-05	3.1493e-05	894.18	243.18	2.343e-05	3.0306e-05	374.17	132.85	81.163	35.219	1.0135e-05	64.487	0.029645	0.034883	0.0098576	1286	0.00038337	0.00039428	1513.1	467.26	0.00038721	0.00039566	761.43	250.07	197.56	75.333	0.00039776	119.61	-84.139	195.508	-24.657	-87.541	106.491	160.155	-87.920	-82.690	170.166	0.198	-83.869	-79.629	-78.248	-73.309	108.212	-75.174	-8191	255	
1920.840	1	1	0	0	0.21345	0.23483	0.182	0.29691	0.08854	0.1979	0.21517	0.093846	0.097547	0.080196	0.20802	0.11335	0.27318	0.066768	0.21469	0.080358	-1.8729	-1.6208	-1.4937	-2.2667	-1.5125	-1.9792	-2.1937	-1.4958	-2.1083	-1.8333	-1.6187	-2.4583	-1.5083	-2.0563	-2.1771	-1.5208	65.665	6.912	-18.874	-69.850	42.402	188.307	232.377	231.308	-68.788	-23.806	159.069	183.276	-43.462	-82.301	193.065	-92.171	0.00038956	0.0040566	0.00049797	699.4	3.5872e-05	4.788e-05	867.26	238.33	1.3471e-05	5.9256e-05	367.66	130.28	80.201	35.217	2.2657e-05	63.802	0.031803	0.037186	0.010334	1304.6	0.0003979	0.00040814	1519.6	471.33	0.00039523	0.00040754	766.74	250.22	198.44	75.529	0.00040517	120.01	-60.016	25.269	130.767	-87.439	49.744	229.403	-87.471	-81.858	121.193	258.333	-83.902	-78.826	-77.104	-72.859	79.841	-75.417	-8191	255	
1920.937	1	1	0	0	0.18548	0.11355	0.11558	0.057433	0.034433	0.13717	0.35953	0.18001	0.2539	0.19655	0.011882	0.38922	0.15977	0.20546	0.15326	0.10522	-1.7229	-1.8042	-1.2792	-2.3896	-1.4354	-1.8687	-2.1646	-1.3229	-2.2687	-1.9083	-1.5229	-2.45	-1.4667	-1.8687	-2.1188	-1.4646	10.582	-73.900	226.193	-63.654	73.058	194.062	218.816	63.239	19.434	123.733	236.697	137.172	21.711	-32.712	-49.976	-99.988	0.0002431	0.0039259	0.00038882	698.98	2.9053e-05	5.0604e-05	871.04	241.76	3.5493e-06	5.78e-05	372.47	131.17	79.574	35.137	2.9964e-05	63.826	0.032498	0.038167	0.010649	1325	0.00041208	0.00042334	1548.7	479.08	0.00040979	0.00042283	780.55	254.34	202.72	76.995	0.00041293	120.92	-66.345	33.965	-25.285	-87.372	-23.814	143.882	-87.559	-82.216	163.041	69.788	-83.654	-78.801	-77.780	-73.464	-29.627	-75.033	-8191	255	
1921.031	1	1	0	0	0.038437	0.23707	0.20705	0.40787	0.32984	0.096667	0.43947	0.080272	0.1384	0.18408	0.057664	0.10001	0.17427	0.36982	0.061814	0.1939	-1.6604	-2.0271	-1.3333	-2.275	-1.3979	-1.7458	-2.2271	-1.4896	-1.9792	-1.8833	-1.5833	-2.3896	-1.5938	-1.5333	-2.3292	-1.5042	176.165	84.798	-90.179	198.262	242.469	-30.812	210.934	157.140	20.797	97.707	22.527	143.498	202.112	254.377	86.110	205.998	0.00048413	0.0016604	0.0012102	701.23	9.0384e-06	3.9014e-05	890.31	240.96	1.6101e-05	2.0243e-05	374.48	133.87	79.6	35.798	3.2365e-05	65.279	0.0327	0.038104	0.010497	1310.2	0.00039613	0.00040485	1515.1	464.17	0.00038375	0.00039226	753.47	246.53	193.79	74.456	0.00038499	118.3	-26.169	-75.869	54.139	-87.312	-67.138	32.712	-87.507	-82.493	17.779	201.576	-83.269	-79.312	-78.509	-73.121	126.460	-74.768	-8191	255	
1921.129	1	1	0	0	0.079549	0.43884	0.23556	0.24489	0.20655	0.15667	0.085848	0.069333	0.075329	0.15589	0.18842	0.28919	0.22221	0.067222	0.085813	0.1033	-1.8062	-2.0187	-1.3042	-2.2875	-1.6521	-1.4771	-2.3958	-1.4813	-1.9458	-2.0583	-1.3542	-2.2583	-1.6333	-1.7667	-2.225	-1.5604	-45.367	-39.436	12.693	240.814	77.939	152.449	-47.724	139.561	106.523	236.375	178.136	204.785	179.049	241.651	72.824	43.734	0.00036847	0.002244	0.00052663	702.7	3.1045e-06	3.1824e-06	884.76	242.34	6.4231e-06	2.7896e-05	375.67	132.05	79.489	35.284	1.0508e-05	65.153	0.030796	0.036177	0.010032	1292.3	0.00038548	0.00039494	1508.5	463.22	0.00038264	0.00039308	753.46	246.29	192.48	73.806	0.00037588	116.06	226.416	52.856	-66.284	-87.363	21.940	232.803	-87.301	-81.738	166.344	206.669	-83.031	-78.661	-77.328	-72.693	163.354	-75.227	-8191	255	
1921.223	1	1	0	0	0.17903	0.15369	0.20316	0.16168	0.22125	0.36096	0.11277	0.28245	0.064084	0.15046	0.2069	0.1464	0.15789	0.13045	0.17881	0.20481	-1.4208	-2.0479	-1.2146	-2.2917	-1.7354	-1.4021	-2.3667	-1.6271	-1.8667	-2.2188	-1.3813	-2.2604	-1.9062	-1.4458	-2.2479	-1.5146	55.428	85.588	13.678	-98.096	140.323	-84.584	-67.249	182.650	3.664	114.739	164.764	126.495	-92.880	-93.137	245.231	211.826	0.00064194	0.004347	0.00076472	695.56	6.3036e-06	3.6843e-05	869.65	238.36	1.9293e-05	3.1099e-05	366.36	130.79	77.718	35.264	3.8803e-05	63.459	0.029761	0.034555	0.0095902	1255.2	0.00037086	0.00038244	1475.9	453.57	0.00037664	0.00038879	742.66	243.23	191.59	73.441	0.0003781	115.43	-72.111	-35.545	137.134	-87.428	20.366	128.742	-87.121	-82.384	-6.251	193.005	-83.462	-78.395	-77.966	-72.707	181.113	-75.301	-8191	255	
1921.319	1	1	0	0	0.097708	0.16216	0.15692	0.2065	0.18082	0.25725	0.17057	0.17585	0.13423	0.11161	0.22611	0.28609	0.28204	0.09177	0.12929	0.22231	-1.4146	-2.1688	-1.2604	-2.1479	-2.0625	-1.4479	-2.2896	-1.6146	-1.6812	-2.0042	-1.3729	-2.0917	-1.9979	-1.4438	-2.2333	-1.7146	52.169	3.530	-64.714	228.221	119.849	72.159	172.174	167.881	53.875	-59.866	236.547	228.904	231.874	161.462	95.937	248.216	0.0003911	0.0028746	7.6159e-05	692.87	4.1781e-06	2.5775e-05	866.28	236.42	4.5738e-05	5.5445e-05	366.85	130.06	78.365	35.002	3.8893e-05	64.04	0.030168	0.035197	0.0097215	1256.9	0.00037625	0.00038374	1473.2	450.14	0.00037228	0.0003813	731.17	239.67	189.21	72.512	0.00037128	115.24	-88.263	100.523	47.401	-87.224	-95.028	59.549	-87.003	-81.955	28.230	147.428	-83.094	-78.609	-77.807	-73.097	255.997	-74.761	-8191	255	
1921.440	1	1	0	0	0.080982	0.22866	0.036515	0.10675	0.10472	0.18687	0.30432	0.091568	0.24762	0.12115	0.226	0.06374	0.25692	0.12981	0.10913	0.31836	-1.0375	-2.2708	-1.4417	-1.9375	-1.9229	-1.3062	-2.1521	-1.8021	-1.3396	-2.3521	-1.4417	-1.8271	-2.2125	-1.4042	-2.125	-1.7333	155.252	96.263	240.361	238.078	230.690	-33.085	209.417	249.882	214.685	66.564	123.610	-48.158	81.717	-14.860	-75.515	152.951	0.00054834	0.0022321	0.00079676	698.91	4.8336e-05	4.8341e-05	878.77	238.22	1.6178e-05	4.9244e-05	366.47	130.64	79.937	35.419	3.2615e-05	64.047	0.029895	0.034808	0.009626	1260.4	0.00037637	0.00038492	1485.7	456.54	0.0003815	0.00039443	753.94	248.88	198.93	76.562	0.00040961	122.26	234.527	-47.378	57.318	-87.254	142.165	-86.524	-87.152	-82.011	42.043	43.412	-83.523	-78.193	-77.964	-72.927	93.774	-74.853	-8191	255	
1921.536	1	1	0	0	0.055845	0.10593	0.22906	0.038158	0.18428	0.12442	0.11126	0.56774	0.04512	0.088396	0.055607	0.30792	0.188	0.086351	0.046626	0.16157	-1.0271	-2.2417	-1.4833	-1.725	-2.175	-1.325	-2.2083	-2.0125	-1.325	-2.2313	-1.5708	-1.7646	-2.2458	-1.4479	-2.1063	-1.8896	26.086	148.408	10.764	47.402	181.593	131.289	126.392	165.104	245.750	141.192	82.437	203.954	255.138	-55.579	124.917	100.949	0.00087552	0.0020163	0.00071921	704.38	1.0226e-05	5.973e-05	882.67	241.76	2.3476e-05	3.386e-05	373.58	133.34	80.051	36.345	1.1279e-05	65.974	0.033585	0.039152	0.010941	1353.5	0.00042364	0.00043067	1563.8	482.92	0.0004158	0.00042266	784.27	255.72	202.76	76.967	0.00040153	121.42	215.011	-20.937	10.359	-86.551	84.701	-8.711	-87.632	-82.147	-65.870	49.046	-83.402	-78.720	-77.521	-73.498	214.243	-75.192	-8191	255	
1921.632	1	1	0	0	0.12621	0.24033	0.067584	0.31444	0.31405	0.24287	0.29751	0.20958	0.086208	0.24869	0.07876	0.42139	0.29944	0.41183	0.11302	0.074173	-0.88958	-2.1	-1.4062	-1.5854	-2.3937	-1.3792	-2.2854	-2.2208	-1.4292	-2.3896	-1.7021	-1.6271	-2.3271	-1.2812	-1.8333	-2.0708	51.020	106.887	18.778	-76.387	110.244	236.237	237.289	213.172	140.163	-84.027	-10.806	189.049	215.039	206.159	-80.472	211.715	0.00061369	0.0013205	0.0011195	708.37	2.083e-05	4.0368e-05	883.18	242.8	8.0379e-06	2.2545e-05	370.88	131.54	79.471	35.989	1.3671e-05	65.194	0.031872	0.036851	0.010237	1305.7	0.00039273	0.00039805	1507.6	464.17	0.00038161	0.00038817	746.08	244.12	191.31	73.178	0.00037082	115.96	233.862	-11.505	26.408	-86.888	-57.137	50.668	-87.290	-81.542	149.460	-59.015	-83.007	-78.609	-78.091	-72.387	1.176	-74.810	-8191	255	
1921.704	1	1	0	0	0.054433	0.1709	0.15747	0.27925	0.21428	0.091357	0.16558	0.44798	0.17241	0.1351	0.20134	0.15285	0.041457	0.26472	0.12598	0.15815	-0.83333	-2.1646	-1.7958	-1.6667	-2.2938	-1.4104	-2.0354	-2.2042	-1.2521	-2.1937	-1.6646	-1.4917	-2.1292	-1.2854	-1.7375	-2.1646	24.351	-55.525	1.628	-19.210	-96.565	37.328	130.839	189.490	-41.233	-56.055	166.752	-57.461	54.948	195.454	33.260	122.178	0.00018745	0.0034305	0.00072054	710.07	2.4629e-05	4.4213e-05	885.26	243.42	1.0167e-05	4.3624e-05	369.16	130.27	79.864	35.373	2.5601e-05	64.572	0.029713	0.034591	0.009685	1270.7	0.00037713	0.00038719	1486	459.05	0.00037728	0.00038445	742.07	242.93	190.83	72.75	0.00037048	115.39	-22.181	20.415	74.331	-87.334	25.377	129.680	-86.912	-82.219	215.965	-85.693	-83.853	-78.363	-78.033	-72.965	3.382	-74.653	-8191	255	
1921.825	1	1	0	0	0.11573	0.09762	0.26216	0.34881	0.14079	0.25314	0.16237	0.22288	0.022968	0.089124	0.20168	0.13116	0.20044	0.14498	0.26564	0.17624	-0.83542	-2.2438	-1.6271	-1.2521	-2.1771	-1.4542	-1.7	-2.0417	-1.2854	-2.1542	-1.8604	-1.5271	-2.2146	-1.4271	-1.7146	-2.2667	144.566	195.038	-39.217	181.384	35.795	143.058	195.820	127.989	122.286	117.282	154.260	169.693	-91.474	258.969	38.525	81.911	0.00059301	0.0012654	0.0011022	705.21	1.5255e-05	3.8467e-05	878.2	239.67	3.9879e-05	4.031e-05	369.1	131.28	79.547	35.62	4.4021e-06	64.347	0.029561	0.034332	0.0095702	1260.6	0.00036883	0.00037605	1467.2	450.16	0.00036384	0.00037027	730.71	239.77	188.06	72.489	0.00036833	115.37	-3.358	8.032	2.974	-86.744	12.623	70.890	-87.197	-81.551	23.866	129.808	-83.760	-78.819	-77.782	-73.156	-77.746	-74.886	-8191	255	
1921.921	1	1	0	0	0.224	0.21488	0.048213	0.059423	0.043542	0.30828	0.17649	0.32458	0.23293	0.087913	0.19205	0.13672	0.22582	0.063436	0.30614	0.09096	-0.87917	-1.9583	-1.8417	-1.6375	-2.075	-1.5979	-1.6792	-2.3667	-1.2687	-1.8854	-2.0875	-1.4229	-2.1479	-1.6625	-1.5208	-2.4333	64.401	224.949	112.890	218.704	174.058	142.572	98.070	245.578	-43.703	-59.451	243.603	-32.101	74.630	258.791	-81.553	94.895	0.00046065	0.0041647	0.00075103	707.62	1.1578e-05	3.8286e-05	889.58	243.63	2.594e-05	6.966e-05	367.53	131.41	79.958	35.719	1.4679e-05	64.979	0.029717	0.034835	0.0097968	1280	0.00037725	0.00038686	1492.7	460.03	0.00037537	0.00038229	744.22	243.37	190.66	73.093	0.00037008	115.75	-84.139	-83.503	177.193	-86.930	99.683	255.515	-87.156	-81.859	68.545	169.821	-83.447	-79.225	-77.324	-73.098	-12.425	-74.669	-8191	255	
1922.017	1	1	0	0	0.067032	0.19056	0.12053	0.39322	0.20645	0.21281	0.16983	0.17119	0.16266	0.2167	0.058881	0.066224	0.11248	0.10407	0.24732	0.12698	-0.93542	-1.8292	-1.8896	-1.4354	-2.1688	-1.7375	-1.4646	-2.2875	-1.4229	-1.775	-2.2167	-1.5604	-1.9896	-1.8396	-1.4146	-2.2687	31.434	83.402	80.336	177.652	130.883	160.093	156.018	171.884	235.098	207.462	-38.739	-70.167	155.541	85.641	67.002	169.460	0.00039685	0.0052908	0.00050752	717.89	8.8406e-06	2.2432e-05	886.47	245.49	1.1526e-05	5.4125e-06	376.83	132.7	80.805	35.772	3.9672e-05	64.496	0.029392	0.034292	0.0095479	1269.6	0.00036776	0.00038005	1486.8	458.69	0.00037076	0.00037951	742.57	242.45	190.58	73.047	0.0003697	115.65	-85.802	38.926	221.995	-86.687	225.199	-20.632	-87.055	-81.833	25.159	201.876	-83.312	-78.686	-77.533	-72.907	190.113	-74.326	-8191	255	
1922.111	1	1	0	0	0.20058	0.10709	0.24847	0.36348	0.17793	0.28088	0.41818	0.12219	0.043694	0.091679	0.13254	0.31127	0.23822	0.14272	0.099951	0.11206	-1.025	-1.9042	-2.1771	-1.2625	-2.0729	-1.8271	-1.4062	-2.3771	-1.6063	-1.6646	-2.2667	-1.3062	-2.1354	-1.9312	-1.3208	-2.3979	25.563	11.664	219.686	-91.076	55.263	66.697	219.061	21.447	-88.571	142.004	106.120	212.129	228.867	160.052	86.766	-94.104	0.00010229	0.0042094	0.00079174	703.66	2.8179e-05	3.6959e-05	870.57	241.34	4.886e-05	7.5858e-06	366.77	130.58	78.68	34.956	1.158e-05	63.323	0.02958	0.034582	0.0096709	1265.7	0.00036999	0.00038029	1468.7	451.78	0.00036614	0.0003746	731.94	239.71	188.08	72.33	0.00037087	114.46	79.403	-34.495	-75.174	-86.615	48.189	213.433	-86.497	-81.689	68.113	56.397	-82.911	-78.201	-77.194	-72.805	-6.381	-74.644	-8191	255	
1922.209	1	1	0	0	0.041933	0.18977	0.017917	0.19452	0.24459	0.25848	0.313	0.16983	0.25412	0.042595	0.061892	0.14229	0.25109	0.25632	0.11184	0.32434	-1.2021	-1.5958	-2.3167	-1.3042	-2.0667	-1.9333	-1.3979	-2.2771	-1.6958	-1.6479	-2.3167	-1.4167	-1.9125	-2.0979	-1.2042	-2.1146	92.417	175.868	27.009	176.955	81.396	92.003	-60.744	139.240	149.258	142.807	234.739	142.423	-38.919	99.056	191.856	256.192	9.6528e-05	0.0023161	0.0013868	702.57	1.1101e-05	2.8738e-05	870.59	238.93	3.5692e-05	6.7556e-06	362.51	130.3	79.039	34.839	1.0117e-05	62.636	0.029755	0.034926	0.0097412	1265.2	0.00037268	0.00038299	1466.7	450.29	0.00036754	0.00037555	730.17	238.71	188.23	72.074	0.00036848	113.62	-91.048	-35.204	234.986	-86.874	-83.597	80.350	-87.420	-81.587	-85.964	-60.254	-83.155	-78.658	-77.012	-72.769	-38.860	-74.664	-8191	255	
1922.304	1	1	0	0	0.2251	0.28028	0.10567	0.11221	0.18574	0.13994	0.12649	0.16514	0.28559	0.22899	0.27701	0.16372	0.077822	0.050252	0.2106	0.36572	-1.3396	-1.3833	-2.2521	-1.4292	-1.9688	-1.9625	-1.4	-2.1208	-1.8396	-1.3438	-2.3688	-1.2875	-1.8979	-2.1792	-1.2125	-2.3	99.808	12.086	3.588	-98.505	-60.211	30.558	209.922	-90.994	120.305	68.676	257.008	-82.672	-93.234	188.623	35.538	-9.854	0.00044212	0.0026611	0.00086615	698.49	8.0447e-06	2.1383e-05	871.29	241.16	7.021e-06	2.3169e-05	366.63	129.74	78.405	35.539	1.8735e-05	64.035	0.029499	0.034335	0.0095273	1251.1	0.00036499	0.00037588	1458.1	448.76	0.00036431	0.00037582	731.17	239.31	188.53	72.451	0.00036907	114.53	-29.624	111.751	-33.017	-87.082	18.238	61.966	-86.801	-81.440	-62.630	119.119	-83.033	-78.465	-77.591	-72.766	-80.404	-74.586	-8191	255	
1922.400	1	1	0	0	0.12662	0.19923	0.16117	0.10859	0.060598	0.04182	0.30738	0.24243	0.31712	0.066446	0.28125	0.22558	0.073336	0.23622	0.094294	0.20205	-1.4771	-1.7062	-2.15	-1.4875	-1.6958	-2.2562	-1.5667	-2.1708	-1.8458	-1.3042	-2.4583	-1.6625	-1.5688	-2.2875	-1.4813	-2.1229	-76.633	60.632	119.627	191.125	49.366	187.715	223.421	-86.237	38.447	29.628	185.566	255.367	42.099	-86.894	-48.732	188.449	0.00010196	0.0012927	0.0016025	710.22	3.0587e-05	3.2931e-05	877.45	241.64	1.9187e-05	3.4333e-05	368.39	131.64	80.181	35.797	8.815e-06	65.588	0.029404	0.03419	0.0095072	1252.3	0.00036271	0.00037304	1459.7	449.44	0.00036271	0.00037186	728.16	239.9	188.6	72.434	0.00036351	114.75	-45.793	211.649	225.084	-87.192	167.311	-40.441	-86.698	-81.637	120.804	80.424	-83.205	-77.904	-77.734	-71.990	184.818	-74.355	-8191	255	
1922.520	1	1	0	0	0.24004	0.22219	0.10091	0.29895	0.062153	0.21503	0.058681	0.3139	0.25383	0.45708	0.15657	0.044648	0.14828	0.021892	0.048261	0.12819	-1.6333	-1.3937	-2.175	-1.8833	-1.5042	-2.2958	-1.5042	-2.1792	-2.0146	-1.225	-2.2104	-1.7875	-1.5688	-2.3583	-1.4688	-1.9333	148.573	134.477	-77.751	-90.454	215.815	-91.117	254.765	177.121	164.985	114.334	107.885	185.535	60.385	-71.745	220.893	179.717	0.00024932	0.002795	0.00041013	707.6	1.9355e-05	1.0782e-05	876.48	241.08	3.5531e-05	6.8269e-05	367.56	130.97	79.344	35.194	4.1404e-05	63.792	0.028937	0.03375	0.0093335	1250.4	0.00036279	0.0003714	1458.2	448.51	0.00036328	0.00037075	725.86	238.58	186.92	71.56	0.00036058	113.16	97.244	-36.244	213.170	-86.730	16.365	147.523	-86.510	-81.409	168.172	74.252	-82.758	-77.956	-76.939	-72.710	-7.692	-74.170	-8191	255	
1922.617	1	1	0	0	0.18361	0.23594	0.12586	0.29196	0.15528	0.26184	0.064059	0.16667	0.27056	0.11705	0.21524	0.10782	0.10665	0.34393	0.31592	0.074335	-1.7458	-1.1812	-2.1583	-1.7896	-1.4521	-2.5021	-1.6562	-1.7875	-2.0729	-1.2792	-1.8646	-1.8354	-1.6646	-2.4417	-1.5646	-1.9833	198.583	95.148	-84.561	192.659	-7.452	-44.312	208.182	212.815	-16.542	250.390	-39.829	29.248	227.666	225.552	163.447	138.415	9.4364e-05	0.0067149	0.00089813	698.1	1.2837e-05	1.4166e-05	871.21	238.1	1.5663e-05	5.0219e-05	361.97	130.08	78.74	35.032	1.6478e-05	63.568	0.028865	0.033601	0.009306	1241.5	0.00036138	0.0003705	1451.6	446.41	0.00036733	0.00037539	727.88	239.33	189.22	72.426	0.00037251	114.64	77.652	108.459	98.521	-86.782	95.142	-26.662	-86.728	-81.408	1.200	89.832	-82.438	-78.307	-76.744	-72.780	-76.577	-74.425	-8191	255	
1922.713	1	1	0	0	0.12904	0.21763	0.14826	0.053487	0.3081	0.21803	0.066021	0.22581	0.17334	0.041557	0.24242	0.11361	0.14943	0.14375	0.070799	0.33491	-1.8563	-1.575	-1.9521	-2.0208	-1.2333	-2.2812	-1.7188	-1.6083	-2.1437	-1.2479	-2.1562	-1.9167	-1.3875	-2.2646	-1.6437	-1.7604	127.517	131.101	111.557	181.897	14.559	-38.407	211.531	-63.930	214.239	-50.868	79.417	210.167	-28.200	-82.970	-35.884	145.352	0.00049911	0.0031974	0.00017251	696.74	2.0399e-05	1.7705e-05	877.05	238.14	1.9943e-05	1.0247e-05	366.43	128.86	79.459	35.105	2.9212e-05	64.111	0.029987	0.034932	0.0096772	1268.2	0.00037932	0.00038917	1486.7	457.87	0.00038416	0.00039212	746.88	245.01	194.22	74.133	0.00038733	117.43	242.956	-25.323	157.901	-86.967	-54.020	144.616	-86.838	-81.484	-85.261	18.222	-82.828	-78.543	-76.586	-72.353	98.939	-74.123	-8191	255	
1922.809	1	1	0	0	0.51098	0.43324	0.35312	0.01826	0.06992	0.40913	0.14518	0.25485	0.050141	0.32085	0.15805	0.19487	0.18063	0.19885	0.17201	0.19453	-1.9604	-1.3979	-2.0292	-2.0667	-1.375	-2.2562	-1.7667	-1.5625	-2.1646	-1.2646	-2.1479	-2.0271	-1.5604	-2.1604	-1.7812	-1.5833	177.300	-93.659	44.808	143.238	53.002	-47.349	135.777	233.486	177.651	152.944	-60.792	194.451	111.579	29.270	236.132	-68.647	0.0005734	0.0014829	0.00058777	700.72	2.0292e-05	2.5666e-05	875.67	239.22	3.2441e-05	3.9303e-05	366.06	129.76	78.864	35.104	2.8975e-05	64.578	0.031318	0.03649	0.010187	1302.7	0.0003979	0.00040725	1521	470.72	0.00039987	0.00040727	762.44	249.24	197.05	75.069	0.00039264	118.51	210.549	-24.410	67.028	-87.127	-65.644	1.284	-87.510	-81.512	223.960	226.914	-82.598	-78.125	-77.813	-72.397	-2.373	-74.620	-8191	255	
1922.930	1	1	0	0	0.34401	0.16648	0.14219	0.23872	0.20163	0.051232	0.20715	0.14469	0.15433	0.17594	0.18237	0.42472	0.074182	0.068679	0.22892	0.22334	-1.8646	-1.4604	-1.8604	-2.3271	-1.3438	-2.2771	-1.9688	-1.5792	-2.3354	-1.6375	-1.9604	-2.3625	-1.55	-2.2208	-1.7708	-1.4542	-89.457	229.668	44.632	136.954	95.894	189.658	252.166	121.541	84.061	-39.622	233.189	244.055	33.400	-95.302	244.651	-96.694	0.00028688	0.0014691	0.0010038	700.46	1.5322e-05	2.2519e-05	884.55	242.25	4.9452e-05	4.1706e-06	371.14	132.03	80.358	35.845	1.7899e-05	65.05	0.031235	0.036311	0.010071	1299	0.00038964	0.00039913	1512	467.32	0.00038917	0.00039684	755.74	247.98	195	74.524	0.00038246	117.41	192.437	45.452	-41.147	-86.689	79.796	57.493	-86.870	-81.123	93.410	90.729	-82.885	-78.224	-77.158	-72.480	112.904	-73.983	-8191	255	
1923.001	1	1	0	0	0.2416	0.2768	0.18016	0.2756	0.38582	0.056844	0.2613	0.26224	0.15842	0.083504	0.15893	0.10919	0.016588	0.22818	0.19323	0.12205	-1.8729	-1.4625	-1.5896	-2.3875	-1.3417	-2.1167	-2.1854	-1.2729	-2.1292	-1.4979	-1.6667	-2.3583	-1.3125	-2.1	-1.8521	-1.5562	75.629	73.241	-94.756	240.009	218.056	22.658	158.818	194.796	135.069	149.330	210.060	105.428	180.697	-60.327	184.449	65.302	0.00015059	0.0032404	4.1378e-05	704.15	2.5168e-05	2.1194e-05	873.47	242.02	2.9925e-05	3.7073e-05	365.3	130.77	78.884	35.067	1.5888e-05	63.536	0.030165	0.034906	0.0096541	1265	0.00037016	0.00037816	1470.5	454.01	0.00037161	0.00038218	741.43	243.57	192.91	73.707	0.00038677	117.04	91.938	231.272	-82.589	-86.749	-49.993	70.868	-86.794	-81.800	53.470	-63.452	-82.683	-77.560	-76.857	-72.863	94.961	-74.627	-8191	255	
1923.122	1	1	0	0	0.15521	0.28212	0.046819	0.24451	0.20651	0.25958	0.15926	0.29094	0.35063	0.095756	0.026161	0.21394	0.52848	0.16389	0.05253	0.14488	-1.7708	-1.4833	-1.6	-2.3542	-1.3521	-2.0292	-2.3146	-1.5229	-2.1875	-1.8687	-1.5833	-2.2854	-1.5792	-1.8	-2.0125	-1.5604	221.985	60.532	-37.712	-7.208	228.215	219.032	234.946	-85.144	146.457	197.511	-85.692	245.716	241.410	-94.288	192.420	153.734	0.00012275	0.0027047	0.001302	693.57	2.3504e-05	1.0352e-05	869.05	240.65	8.1075e-06	3.3632e-05	367.45	128.79	79.35	35.079	1.3784e-05	63.944	0.031162	0.036433	0.010191	1295.7	0.00039174	0.00040314	1507	466.22	0.00038952	0.00039959	757.41	246.49	195.26	74.361	0.00039171	117.65	23.040	-17.369	52.097	-86.792	55.766	39.963	-86.737	-81.481	74.851	74.874	-82.506	-78.221	-76.992	-72.197	144.275	-74.515	-8191	255	
1923.216	1	1	0	0	0.15427	0.052195	0.20944	0.25827	0.10449	0.22684	0.27514	0.15915	0.33336	0.15815	0.25265	0.11671	0.12727	0.061008	0.096651	0.21189	-1.6875	-1.5792	-1.4521	-2.2979	-1.3708	-1.8417	-2.2208	-1.1875	-2.0583	-1.8813	-1.5708	-2.3833	-1.35	-1.7604	-2.1042	-1.4062	84.398	-43.207	188.003	-60.748	-53.381	118.393	237.706	157.910	-48.913	131.488	-67.414	196.520	205.266	-41.840	77.640	214.345	0.00085239	0.0024745	0.00085963	696.87	2.8741e-05	5.5305e-05	866.15	242.71	1.7369e-05	4.3719e-05	364.49	130.49	79.795	35.167	2.1077e-05	63.613	0.031266	0.036581	0.010209	1294.3	0.00039075	0.0004015	1509	465.77	0.00038989	0.00040255	759.56	247.72	197.41	75.469	0.00040147	119.37	222.482	103.651	-46.630	-86.662	-69.532	183.432	-86.960	-81.561	68.276	137.350	-82.602	-77.654	-77.194	-72.420	-22.185	-74.259	-8191	255	
1923.312	1	1	0	0	0.086362	0.1295	0.2118	0.13487	0.16681	0.13817	0.13879	0.021808	0.12388	0.095343	0.35486	0.2989	0.22737	0.20788	0.056889	0.39288	-1.5312	-1.725	-1.3042	-2.2479	-1.5396	-1.7125	-2.3479	-1.4646	-2.1562	-1.9896	-1.5167	-2.3812	-1.7021	-1.5562	-2.3083	-1.5146	256.483	103.135	-53.513	52.125	201.897	9.072	29.442	140.397	147.182	160.976	254.111	234.384	-92.910	-64.272	23.231	215.519	0.00033244	0.0053912	0.00060409	701.64	2.0762e-05	2.9885e-05	884.71	242	1.7777e-05	4.1037e-05	371.98	130.08	79.106	35.75	3.5752e-05	64.71	0.032292	0.038075	0.010629	1323.9	0.00040888	0.00042104	1548.2	478.14	0.00041094	0.0004233	783.3	254.04	202.44	77.291	0.00041366	122.07	213.807	-15.610	133.826	-86.430	243.555	142.182	-86.410	-81.427	-38.602	-68.759	-83.085	-77.888	-76.739	-72.319	-33.600	-74.198	-8191	255	
1923.409	1	1	0	0	0.16608	0.1135	0.067864	0.066381	0.26077	0.22792	0.31801	0.12092	0.34373	0.086728	0.19501	0.10534	0.27816	0.23776	0.1651	0.17364	-1.7542	-2.1771	-1.4792	-2.1958	-1.7417	-1.6812	-2.475	-1.5104	-1.9021	-2.0042	-1.2271	-2.3354	-1.7313	-1.5063	-2.25	-1.5333	81.085	-53.143	-57.560	-5.084	186.713	184.741	222.077	242.955	66.711	-61.152	176.196	-49.294	233.772	-46.382	3.098	176.682	0.00065037	0.0042612	0.00074668	713.9	3.6889e-05	3.142e-05	883.79	241.75	4.3695e-05	1.0033e-05	369.08	130.26	79.759	35.418	7.888e-06	63.379	0.033043	0.038851	0.01079	1339.7	0.00041445	0.00042602	1554.5	480.52	0.00041288	0.00042436	781.87	253.68	202.16	76.725	0.00040523	119.71	209.663	71.339	36.311	-86.318	-45.789	166.672	-86.864	-81.243	117.669	91.462	-82.379	-77.956	-76.997	-72.500	65.880	-74.379	-8191	255	
1923.505	1	1	0	0	0.085766	0.15726	0.1298	0.23611	0.2047	0.38322	0.17293	0.23299	0.3054	0.2045	0.45981	0.12576	0.10513	0.050785	0.15764	0.25126	-1.4604	-2.3187	-1.2375	-2.1833	-1.6854	-1.3708	-2.25	-1.6417	-1.6958	-2.1083	-1.4312	-2.15	-1.7292	-1.3771	-2.2146	-1.5958	65.738	87.847	244.462	252.745	-27.168	-48.987	144.271	140.826	137.083	201.359	-89.142	-23.022	-28.683	65.840	81.175	-96.672	0.00075317	0.0029077	0.0013602	701.83	5.1927e-06	3.9172e-05	867.91	239.28	1.2937e-05	4.846e-05	366.27	129.47	77.608	34.601	2.513e-05	62.548	0.032336	0.037806	0.010429	1310	0.00040224	0.00041314	1518.5	472.27	0.00040529	0.00042117	776.89	252.97	204.05	77.649	0.00042203	121.64	-90.582	112.092	48.847	-86.833	226.405	179.402	-85.991	-81.425	-7.267	-82.570	-82.556	-77.910	-77.115	-72.133	111.184	-73.803	-8191	255	
1923.601	1	1	0	0	0.26848	0.075509	0.14323	0.44602	0.25532	0.099843	0.26454	0.10988	0.18391	0.08316	0.23735	0.11455	0.13909	0.082061	0.22164	0.26064	-1.1771	-1.9458	-1.2396	-2.0187	-1.9354	-1.2563	-2.3396	-1.6812	-1.5521	-2.1208	-1.3021	-1.9542	-2.1125	-1.3479	-2.0687	-1.7062	213.371	161.751	-10.607	250.879	133.922	39.203	139.557	156.531	187.588	42.083	140.269	-58.025	206.354	233.691	-26.217	99.119	0.00021671	0.0016323	0.00013912	697.64	1.6241e-05	3.0913e-05	871.83	238.86	1.5516e-05	4.0495e-05	361.67	128.62	78.286	34.376	1.17e-05	62.986	0.034033	0.039824	0.011035	1346.6	0.00042678	0.00043723	1556.1	483.68	0.00042238	0.00043323	783.69	254.04	204.97	77.668	0.00042421	121.83	-99.505	101.290	0.860	-86.446	125.748	-3.037	-86.695	-81.526	-28.845	-14.217	-82.871	-77.537	-76.885	-72.306	-40.647	-73.773	-8191	255	
1923.697	1	1	0	0	0.25964	0.083368	0.11008	0.35241	0.072507	0.067153	0.23944	0.047524	0.18152	0.14338	0.039742	0.19556	0.096247	0.33368	0.091715	0.16222	-1.1667	-2.2604	-1.2271	-1.9312	-2.1875	-1.3188	-2.4313	-1.7292	-1.4896	-2.2104	-1.5354	-1.9375	-2.25	-1.2958	-2.0583	-1.9958	253.258	79.038	251.369	192.614	245.838	0.958	168.425	160.594	29.714	-60.845	137.085	252.905	19.730	236.139	93.721	166.929	0.00042826	0.0025752	0.0011477	701.17	1.0835e-05	1.9016e-05	874.06	239.21	2.4859e-05	2.9942e-05	364.08	129.42	78.355	34.898	3.3547e-05	63.248	0.034347	0.039968	0.011108	1355.6	0.0004327	0.0004437	1569.1	486.05	0.00042216	0.00042548	772.32	250.98	200.62	75.907	0.00040393	119.02	-60.299	-86.112	47.459	-85.943	75.703	119.627	-86.560	-81.689	-19.825	229.547	-83.003	-77.953	-77.294	-73.168	229.259	-74.387	-8191	255	
1923.793	1	1	0	0	0.26384	0.11959	0.29392	0.29374	0.09718	0.25352	0.083741	0.18019	0.30269	0.18344	0.248	0.058941	0.24834	0.19481	0.058699	0.19655	-1.0042	-2.2042	-1.5083	-1.7437	-2.0208	-1.3625	-2.2104	-1.7958	-1.5146	-2.2833	-1.7125	-1.9188	-2.1042	-1.3396	-2.0104	-2.0438	58.801	121.907	34.196	255.487	72.450	202.229	190.400	-88.677	240.822	215.635	-31.124	-68.412	-14.638	172.190	-38.319	-60.266	0.00011972	0.0041234	0.00018583	707.65	2.2189e-05	3.3975e-05	873.58	240	2.8683e-05	4.592e-05	370.58	131.08	79.691	35.251	2.5792e-05	63.381	0.032462	0.037691	0.010547	1327	0.00041492	0.00042562	1550.9	483.4	0.00042332	0.00043223	792.44	258.45	207.87	78.888	0.0004304	123.74	142.429	-13.760	217.613	-86.047	42.127	-28.259	-86.039	-81.486	88.686	129.426	-82.752	-77.612	-77.156	-72.428	210.470	-74.661	-8191	255	
1923.889	1	1	0	0	0.19866	0.2564	0.1743	0.22303	0.28157	0.21501	0.3274	0.25977	0.053744	0.16937	0.086144	0.18305	0.095953	0.34517	0.17125	0.090604	-1.0229	-2.2792	-1.4583	-1.8	-2.175	-1.2938	-2.2125	-2.05	-1.3833	-2.0125	-1.6458	-1.6187	-2.2479	-1.3875	-1.7708	-2.175	149.747	-85.267	234.904	-74.628	193.055	-97.365	258.914	192.177	-32.738	2.099	101.284	209.065	143.806	225.870	191.602	177.883	0.00027068	0.00233	0.0010327	704.01	1.4536e-05	2.0528e-05	874.34	240.44	2.0851e-05	4.1503e-05	361.85	127.38	78.258	34.696	8.6523e-06	62.126	0.034641	0.04007	0.011195	1364.5	0.00043467	0.00044525	1580	494	0.00043987	0.00044959	804.52	261.01	210.98	79.523	0.00044236	124.16	221.626	129.919	-60.201	-86.402	-86.575	-18.241	-86.384	-81.295	-38.231	83.728	-82.894	-78.111	-77.707	-72.488	88.418	-74.904	-8191	255	
1924.008	1	1	0	0	0.063694	0.21787	0.10354	0.30043	0.063252	0.085658	0.37383	0.059166	0.28145	0.1411	0.12463	0.25425	0.13016	0.069756	0.20211	0.32405	-1.0167	-2.1667	-1.6021	-1.6021	-2.2833	-1.4542	-1.975	-2.1396	-1.3833	-2.2792	-1.8854	-1.6917	-2.3958	-1.5562	-1.8021	-2.3521	-41.364	-43.593	-74.710	258.571	249.295	95.134	193.758	145.478	93.143	130.220	-36.111	259.487	211.140	75.198	105.803	213.563	0.00039611	0.0014042	0.0005498	698.07	2.1627e-05	5.4032e-05	860.84	234.04	2.5568e-05	2.3015e-05	358.53	126.57	77.18	34.265	3.2166e-06	61.971	0.035481	0.041074	0.01148	1377.1	0.0004421	0.00045289	1583.8	493.11	0.00044182	0.00044795	799.64	257.83	207.8	78.663	0.00043638	122.96	119.526	33.177	53.964	-86.634	-72.024	-25.794	-86.546	-81.638	29.560	232.602	-82.787	-77.583	-76.877	-72.103	-75.778	-74.197	-8191	255	
1924.104	1	1	0	0	0.3183	0.078594	0.15824	0.10128	0.16265	0.070161	0.4616	0.23107	0.10196	0.17679	0.18254	0.23258	0.18037	0.092031	0.15281	0.14004	-0.97708	-2.1521	-1.8979	-1.4854	-2.4313	-1.4937	-1.7479	-2.3125	-1.3062	-2.1562	-1.9583	-1.5854	-2.2333	-1.6917	-1.5729	-2.3917	185.533	154.224	231.822	109.556	37.093	232.817	206.055	226.276	146.786	-19.824	183.535	-75.649	255.288	249.846	205.374	19.992	0.00039467	0.0017003	0.00079714	698.22	1.8535e-05	3.8301e-05	864.93	236.93	2.154e-05	1.2734e-05	361.38	125.82	77.695	34.511	4.3006e-05	62.226	0.035106	0.040939	0.011479	1378.1	0.00044463	0.00045744	1594.5	497.77	0.00045053	0.00046121	816.39	263.09	212.77	80.272	0.00045199	124.97	213.084	-71.024	206.638	-86.453	-24.024	212.611	-86.566	-81.253	10.284	181.602	-82.919	-77.737	-76.810	-72.581	166.309	-74.271	-8191	255	
1924.202	1	1	0	0	0.10655	0.15749	0.15943	0.10524	0.029779	0.1741	0.27608	0.16433	0.070001	0.16265	0.24952	0.13758	0.13736	0.21032	0.13449	0.19569	-1.05	-2.0229	-2.0187	-1.5792	-2.2458	-1.5833	-1.5292	-2.2229	-1.3958	-1.9875	-2.175	-1.4	-2.4604	-1.6958	-1.6167	-2.4	-41.411	-18.858	184.956	-46.706	231.730	-16.017	151.792	28.356	136.029	54.367	224.935	124.237	26.267	-94.629	-24.811	208.240	0.0002903	0.003987	0.00020143	702.37	1.6576e-05	8.6915e-06	868.18	239.64	6.2246e-06	2.5834e-05	359.58	128.34	78.294	34.336	3.203e-05	62.988	0.035968	0.041866	0.011713	1394.7	0.00045146	0.00046413	1615.8	502.32	0.00045284	0.00046504	819.82	265.81	214.11	81.091	0.00045772	126.44	221.087	-28.504	155.154	-86.672	35.996	-19.799	-86.615	-81.300	-47.177	37.516	-83.120	-78.488	-77.351	-73.305	-71.459	-74.925	-8191	255	
1924.297	1	1	0	0	0.12939	0.32479	0.21877	0.14659	0.19385	0.035468	0.28598	0.13852	0.18969	0.10357	0.043648	0.1316	0.014573	0.065087	0.22413	0.051132	-1.0083	-1.9312	-2.1292	-1.4188	-2.175	-1.8125	-1.625	-2.3458	-1.3604	-1.7875	-2.1312	-1.3563	-2.1896	-1.8937	-1.3354	-2.3271	256.109	69.277	8.098	200.652	-20.678	-29.495	180.828	176.108	-66.791	112.959	172.538	189.037	55.284	227.972	-26.370	201.343	0.00053509	0.0015483	0.00098848	701.92	7.8089e-06	1.1592e-05	876.11	237.51	2.7779e-05	5.278e-05	363.2	127.12	77.541	34.75	1.3506e-05	62.644	0.036391	0.042432	0.011854	1399.6	0.00045066	0.0004628	1609.6	498.69	0.00044536	0.00045741	813.13	262.6	211.48	80.409	0.00045116	125.19	193.625	187.859	-24.663	-87.377	252.332	-0.744	-87.392	-82.220	229.039	225.719	-83.466	-78.383	-78.030	-72.982	-63.929	-75.106	-8191	255	
1924.393	1	1	0	0	0.28021	0.17588	0.055216	0.26116	0.27614	0.16277	0.066763	0.20063	0.24352	0.090154	0.25479	0.2897	0.13916	0.081617	0.11928	0.18606	-1.0521	-1.6729	-2.2479	-1.4479	-2	-1.8729	-1.5812	-2.1542	-1.5562	-1.5875	-2.2896	-1.4813	-2.1604	-2.0125	-1.3438	-2.2812	182.763	-52.671	82.671	209.334	196.440	46.941	-8.493	122.040	-97.220	16.817	254.505	214.085	184.629	113.987	166.748	-87.295	0.00037026	0.0014324	0.0009092	699.24	2.4694e-05	1.5486e-05	848.84	236.05	2.7562e-05	1.5303e-05	355.93	125.5	76.463	33.853	3.4209e-05	61.58	0.036064	0.042142	0.011735	1386.8	0.00044736	0.00045851	1582.1	490.86	0.00044027	0.00045043	798.43	257.51	207.55	78.82	0.00044186	122.5	197.009	88.204	-53.841	-87.148	209.934	118.296	-87.460	-82.168	116.014	143.560	-82.798	-78.516	-77.870	-73.286	19.299	-75.089	-8191	255	
1924.489	1	1	0	0	0.094131	0.1817	0.10752	0.15643	0.045157	0.36813	0.079237	0.10438	0.1287	0.098614	0.26613	0.080978	0.2067	0.16896	0.25622	0.1592	-1.0958	-1.6542	-2.1354	-1.4542	-1.925	-1.9479	-1.3896	-2.3271	-1.625	-1.3312	-2.2229	-1.3687	-1.9833	-1.9229	-1.4979	-2.3083	60.670	-68.613	-68.921	237.901	181.108	-43.670	211.261	-47.157	56.382	-69.031	-12.067	242.927	173.344	23.525	121.087	182.590	0.00024092	0.0015977	0.0008513	694.82	2.7492e-05	2.715e-05	858.65	236.19	3.1671e-05	5.6341e-05	356.9	125.6	76.283	33.924	3.176e-05	62.31	0.035061	0.040995	0.011366	1359.1	0.00043381	0.00044533	1563.1	482.96	0.0004296	0.00044081	785.59	253.23	203.55	77.404	0.00042154	120.03	187.647	223.367	251.501	-87.027	222.185	178.208	-87.323	-82.119	-70.234	216.661	-83.757	-78.601	-77.235	-73.199	159.420	-75.444	-8191	255	
1924.610	1	1	0	0	0.22041	0.027476	0.21594	0.32521	0.22422	0.17293	0.13672	0.33018	0.14758	0.092721	0.11003	0.4107	0.11729	0.25874	0.06288	0.38235	-1.3583	-1.525	-2.25	-1.4667	-1.775	-2.1979	-1.4958	-2.1208	-1.8521	-1.3583	-2.2771	-1.6896	-1.8375	-2.1396	-1.3167	-2.2104	62.683	-30.385	-57.946	222.432	-68.284	192.572	172.356	227.089	122.612	-61.133	191.561	256.929	-78.128	257.288	181.267	155.145	0.00033562	0.0027383	0.00090604	698.55	2.2531e-05	1.5505e-05	869.38	234.44	3.0209e-05	3.3005e-06	357.19	125.95	78.129	34.684	4.7128e-05	62.99	0.033584	0.039047	0.010865	1332.2	0.00042099	0.00043482	1551.7	480.45	0.00042307	0.00043514	782.42	253.34	203.52	77.456	0.00041965	120.28	77.222	97.134	34.848	-87.213	79.375	59.883	-87.294	-81.979	217.508	92.641	-83.042	-78.766	-77.504	-72.976	60.364	-74.213	-8191	255	
1924.706	1	1	0	0	0.091408	0.2033	0.30114	0.28489	0.053617	0.11809	0.24242	0.55252	0.10157	0.26962	0.16611	0.19329	0.21419	0.1032	0.12351	0.69051	-1.325	-1.2687	-2.0917	-1.4646	-1.7396	-2.3646	-1.3604	-2.2125	-1.9729	-1.2292	-2.3146	-1.5479	-1.5896	-2.3771	-1.4146	-1.9667	227.547	8.527	-48.584	-77.480	-3.995	-12.299	256.915	206.229	139.697	62.380	245.389	-86.504	190.283	-40.518	-58.838	244.431	0.00043339	0.0011374	0.00078956	705.05	6.3219e-06	2.27e-05	870.43	238.24	2.0162e-05	2.5675e-05	367.18	127.91	77.536	34.918	1.7144e-05	63.129	0.033313	0.03877	0.010737	1329.1	0.00041399	0.00042903	1547.4	481.26	0.00042366	0.00043783	791.03	257.65	207.68	78.864	0.00042941	122.75	255.168	-41.950	37.982	-86.592	-0.243	90.668	-87.183	-81.980	53.060	191.283	-82.320	-78.245	-77.516	-73.233	195.698	-75.121	-8191	255	
1924.802	1	1	0	0	0.11362	0.22009	0.23022	0.29834	0.05649	0.23764	0.0507	0.22216	0.07396	0.32345	0.20232	0.18725	0.13822	0.05465	0.27132	0.29881	-1.6042	-1.2583	-2.1437	-1.7458	-1.5354	-2.3167	-1.5229	-1.8917	-1.9937	-1.3813	-2.2417	-1.6437	-1.5354	-2.2479	-1.2729	-1.9792	0.344	68.848	152.756	58.710	116.665	201.455	52.800	108.022	-22.169	-5.217	105.776	177.258	207.287	204.181	99.463	113.586	0.00010111	0.0020805	0.00089434	702.91	2.1583e-05	4.5346e-05	869.13	236.1	3.6079e-05	5.2076e-05	358.08	126.71	76.53	34.562	1.8331e-05	62.401	0.034483	0.039953	0.011101	1353.3	0.00042885	0.00043931	1560	481.53	0.00042149	0.00042789	774.99	251.1	201.31	76.183	0.00040712	118.56	6.544	176.576	67.846	-87.435	-63.084	107.137	-87.401	-82.541	5.870	-7.122	-83.444	-78.967	-78.218	-73.686	29.069	-74.429	-8191	255	
1924.898	1	1	0	0	0.20508	0.144	0.2286	0.31819	0.22707	0.20648	0.26129	0.13813	0.089381	0.11597	0.19114	0.15649	0.34582	0.098082	0.19979	0.081522	-1.7	-1.4771	-2.0062	-1.7375	-1.2958	-2.2604	-1.5688	-1.8813	-2.0812	-1.2896	-2.2396	-1.8854	-1.4979	-2.1937	-1.4813	-1.7167	55.896	-6.984	246.642	250.458	-74.240	90.386	191.578	197.828	112.468	-43.486	200.853	223.659	242.111	-49.141	255.914	68.026	0.00010693	0.002753	0.0011476	687.3	2.8508e-05	3.4959e-05	856.76	232	1.4757e-05	3.8229e-05	356.31	125.62	77.241	34.519	2.1126e-05	62.008	0.032556	0.037758	0.010452	1308.5	0.00040647	0.00041587	1513.8	468.48	0.00040734	0.00041636	760.37	247.57	197.79	74.92	0.00040122	117.63	118.112	-43.387	100.799	-87.809	233.137	82.342	-87.599	-82.487	9.830	-15.095	-83.448	-78.838	-77.761	-72.890	94.509	-74.584	-8191	255	
#DATA ENDS
