BOXY.EXE: ISS Imagent and Oximeter Data Acquisition Program Version 0.80
Ascii Record File

#ACQ INFORMATION
2  Detector Channels 
16  External MUX Channels 
1  Auxiliary Channels 
5000  Waveform (CCF) Frequency (Hz)
1  Waveforms Skipped 
30  Waveforms Averaged 
1  Cycles Averaged 
16  Acquisitions per Waveform 
10.0806  Updata Rate (Hz) 

#FILE INFORMATION
TRUE -- External MUX Channel results are PARSED.
FALSE -- AC DC and Phase are NOT grouped.
TRUE -- Companion Program Settings File CREATED.
FALSE -- AC data not excluded
FALSE -- DC data not excluded
FALSE -- Phase data not excluded
FALSE -- Auxillary Chn. data not excluded
Tab delimiters

#CALIBRATION STATE
TRUE -- Waveform Calibration Values APPLIED.


#AUX CALIBRATION VALUES
Val Type	aux-1	

Term	1.0000e+00	
Factor	0.0000e+00	


#WF CALIBRATION VALUES
A = Detector Channel
Val Type	A-AC1	A-AC2	A-AC3	A-AC4	A-AC5	A-AC6	A-AC7	A-AC8	A-AC9	A-AC10	A-AC11	A-AC12	A-AC13	A-AC14	A-AC15	A-AC16	A-DC1	A-DC2	A-DC3	A-DC4	A-DC5	A-DC6	A-DC7	A-DC8	A-DC9	A-DC10	A-DC11	A-DC12	A-DC13	A-DC14	A-DC15	A-DC16	A-Ph1	A-Ph2	A-Ph3	A-Ph4	A-Ph5	A-Ph6	A-Ph7	A-Ph8	A-Ph9	A-Ph10	A-Ph11	A-Ph12	A-Ph13	A-Ph14	A-Ph15	A-Ph16	

Term	0.00000e+00	0.00000e+00	0.00000e+00	0.00000e+00	0.00000e+00	0.00000e+00	0.00000e+00	0.00000e+00	0.00000e+00	0.00000e+00	0.00000e+00	0.00000e+00	0.00000e+00	0.00000e+00	0.00000e+00	0.00000e+00	0.00000e+00	0.00000e+00	0.00000e+00	0.00000e+00	0.00000e+00	0.00000e+00	0.00000e+00	0.00000e+00	0.00000e+00	0.00000e+00	0.00000e+00	0.00000e+00	0.00000e+00	0.00000e+00	0.00000e+00	0.00000e+00	0.00000e+00	0.00000e+00	0.00000e+00	0.00000e+00	0.00000e+00	0.00000e+00	0.00000e+00	0.00000e+00	0.00000e+00	0.00000e+00	0.00000e+00	0.00000e+00	0.00000e+00	0.00000e+00	0.00000e+00	0.00000e+00	
Factor	1.00000e+00	1.00000e+00	1.00000e+00	1.00000e+00	1.00000e+00	1.00000e+00	1.00000e+00	1.00000e+00	1.00000e+00	1.00000e+00	1.00000e+00	1.00000e+00	1.00000e+00	1.00000e+00	1.00000e+00	1.00000e+00	1.00000e+00	1.00000e+00	1.00000e+00	1.00000e+00	1.00000e+00	1.00000e+00	1.00000e+00	1.00000e+00	1.00000e+00	1.00000e+00	1.00000e+00	1.00000e+00	1.00000e+00	1.00000e+00	1.00000e+00	1.00000e+00	X	X	X	X	X	X	X	X	X	X	X	X	X	X	X	X	

B = Detector Channel
Val Type	B-AC1	B-AC2	B-AC3	B-AC4	B-AC5	B-AC6	B-AC7	B-AC8	B-AC9	B-AC10	B-AC11	B-AC12	B-AC13	B-AC14	B-AC15	B-AC16	B-DC1	B-DC2	B-DC3	B-DC4	B-DC5	B-DC6	B-DC7	B-DC8	B-DC9	B-DC10	B-DC11	B-DC12	B-DC13	B-DC14	B-DC15	B-DC16	B-Ph1	B-Ph2	B-Ph3	B-Ph4	B-Ph5	B-Ph6	B-Ph7	B-Ph8	B-Ph9	B-Ph10	B-Ph11	B-Ph12	B-Ph13	B-Ph14	B-Ph15	B-Ph16	

Term	0.00000e+00	0.00000e+00	0.00000e+00	0.00000e+00	0.00000e+00	0.00000e+00	0.00000e+00	0.00000e+00	0.00000e+00	0.00000e+00	0.00000e+00	0.00000e+00	0.00000e+00	0.00000e+00	0.00000e+00	0.00000e+00	0.00000e+00	0.00000e+00	0.00000e+00	0.00000e+00	0.00000e+00	0.00000e+00	0.00000e+00	0.00000e+00	0.00000e+00	0.00000e+00	0.00000e+00	0.00000e+00	0.00000e+00	0.00000e+00	0.00000e+00	0.00000e+00	-2.23846e+00	-1.31119e+02	-1.35896e+02	-1.81478e+02	-5.32445e+01	-6.29258e+01	-1.58115e+02	-1.62015e+02	-5.21912e+01	-6.51356e+01	-1.73607e+02	-1.71776e+02	-1.83012e+02	-1.76573e+02	-5.74558e+01	-1.49837e+02	
Factor	3.30459e-05	1.49444e-04	4.39707e-05	1.58432e-01	1.72561e-06	1.36174e-06	1.67435e-01	4.77828e-02	1.66550e-06	1.80684e-06	9.40725e-02	2.82132e-02	5.96618e-02	8.24392e-03	1.74084e-06	1.21984e-02	3.04457e-06	3.32303e-06	9.25805e-07	8.43004e-02	3.58660e-08	3.66680e-08	8.32303e-02	2.54810e-02	3.58404e-08	3.65924e-08	4.79435e-02	1.44760e-02	3.08274e-02	4.42958e-03	3.60998e-08	6.29450e-03	X	X	X	X	X	X	X	X	X	X	X	X	X	X	X	X	



#DISTANCE SETTINGS
A = Detector Channel
A-1	A-2	A-3	A-4	A-5	A-6	A-7	A-8	A-9	A-10	A-11	A-12	A-13	A-14	A-15	A-16	

2.5000e+00	3.0000e+00	2.5000e+00	3.0000e+00	2.0000e+00	3.0000e+00	1.5000e+00	3.0000e+00	3.0000e+00	3.0000e+00	3.0000e+00	3.0000e+00	3.0000e+00	3.0000e+00	1.5000e+00	3.0000e+00	

B = Detector Channel
B-1	B-2	B-3	B-4	B-5	B-6	B-7	B-8	B-9	B-10	B-11	B-12	B-13	B-14	B-15	B-16	

1.0000e+01	1.0000e+01	1.0000e+01	1.4400e+00	1.0000e+01	1.0000e+01	1.5100e+00	1.9400e+00	1.0000e+01	1.0000e+01	1.9900e+00	2.4900e+00	2.4100e+00	2.9000e+00	1.0000e+01	2.9800e+00	




#DATA BEGINS
time	group	step	mark	flag	A-AC1	A-AC2	A-AC3	A-AC4	A-AC5	A-AC6	A-AC7	A-AC8	A-AC9	A-AC10	A-AC11	A-AC12	A-AC13	A-AC14	A-AC15	A-AC16	A-DC1	A-DC2	A-DC3	A-DC4	A-DC5	A-DC6	A-DC7	A-DC8	A-DC9	A-DC10	A-DC11	A-DC12	A-DC13	A-DC14	A-DC15	A-DC16	A-Ph1	A-Ph2	A-Ph3	A-Ph4	A-Ph5	A-Ph6	A-Ph7	A-Ph8	A-Ph9	A-Ph10	A-Ph11	A-Ph12	A-Ph13	A-Ph14	A-Ph15	A-Ph16	B-AC1	B-AC2	B-AC3	B-AC4	B-AC5	B-AC6	B-AC7	B-AC8	B-AC9	B-AC10	B-AC11	B-AC12	B-AC13	B-AC14	B-AC15	B-AC16	B-DC1	B-DC2	B-DC3	B-DC4	B-DC5	B-DC6	B-DC7	B-DC8	B-DC9	B-DC10	B-DC11	B-DC12	B-DC13	B-DC14	B-DC15	B-DC16	B-Ph1	B-Ph2	B-Ph3	B-Ph4	B-Ph5	B-Ph6	B-Ph7	B-Ph8	B-Ph9	B-Ph10	B-Ph11	B-Ph12	B-Ph13	B-Ph14	B-Ph15	B-Ph16	aux-1	digaux	

1054.717	1	1	0	256	0.044739	0.11528	0.13899	0.16425	0.14861	0.28847	0.17701	0.30703	0.21695	0.10837	0.04855	0.026469	0.30265	0.10937	0.1161	0.2423	-0.73125	-2.0667	-1.4292	-1.5938	-2.0563	-1.15	-1.9396	-1.8375	-1.0604	-2.0125	-1.4833	-1.3042	-2.1646	-1.2167	-1.7167	-1.7708	153.340	126.874	138.416	173.276	174.341	59.073	100.728	181.393	-2.896	49.660	28.008	-127.716	93.233	6.567	-126.865	103.066	0.00037334	0.00015689	8.6653e-05	1108.1	4.2875e-06	1.8565e-06	1196.5	224.64	5.3699e-06	2.1131e-06	282.82	79.806	63.414	18.181	2.794e-06	25.092	0.00017805	0.0001624	4.5781e-05	1091.4	1.8302e-06	1.8008e-06	1181.6	223.37	1.8913e-06	1.8112e-06	280.23	79.443	62.48	18.36	1.8779e-06	25.441	-28.711	-80.701	-69.839	-154.706	-59.857	65.177	-155.245	-147.855	-47.453	14.500	-148.309	-141.422	-141.196	-134.261	26.242	-134.595	-8191	255	
1054.814	1	1	0	0	0.10883	0.22745	0.15296	0.10274	0.16529	0.25863	0.20259	0.12259	0.084075	0.15684	0.14993	0.11872	0.049389	0.093726	0.037576	0.36282	-0.53333	-2.0271	-1.5042	-1.3854	-2.0333	-1.1771	-1.7375	-2.1583	-0.87083	-1.8687	-1.5208	-1.2458	-2.0979	-1.3042	-1.5083	-2.0687	-29.205	162.609	-134.100	167.836	137.432	-163.825	135.020	106.438	-122.528	-140.339	100.625	154.575	-158.286	-5.696	179.422	-144.479	0.00041576	0.00029943	2.998e-05	1112.3	3.7204e-06	4.4538e-06	1201.1	225.57	3.7234e-06	4.1222e-06	282.59	79.336	63.881	18.222	2.6808e-06	25.316	0.00018614	0.00016927	4.7689e-05	1095.4	1.9377e-06	1.8564e-06	1181.2	223.83	1.8891e-06	1.8568e-06	281.18	79.211	62.605	18.302	1.8288e-06	25.594	-23.629	-86.198	-72.762	-155.242	-56.275	18.121	-155.249	-148.015	-28.123	19.116	-147.816	-141.753	-141.532	-134.039	-81.176	-134.151	-8191	255	
1054.910	1	1	0	0	0.047775	0.017668	0.19373	0.19057	0.41374	0.21149	0.2369	0.38091	0.018262	0.14693	0.12464	0.12885	0.090926	0.097936	0.1494	0.093088	-0.36042	-1.7208	-1.5187	-1.0104	-1.9604	-1.5063	-1.6979	-1.9875	-1.025	-1.6896	-1.5771	-1.2354	-1.9417	-1.4229	-1.3417	-2.2167	188.190	107.722	3.852	135.278	137.613	120.104	55.044	87.049	68.688	-138.520	134.988	50.391	-20.707	186.877	55.664	110.374	0.00040358	0.00040767	0.00011989	1105.8	4.5034e-06	3.1119e-06	1202	224.58	2.7593e-06	1.4907e-06	283.47	79.308	63.366	18.244	2.1917e-06	25.102	0.00018282	0.00015692	4.5538e-05	1093.2	1.8357e-06	1.7799e-06	1182.8	223.33	1.8222e-06	1.7154e-06	280.65	79.193	62.186	18.366	1.7073e-06	25.481	-29.221	-47.758	-104.089	-155.093	-90.415	-37.724	-155.146	-148.019	2.331	51.608	-148.154	-141.360	-140.687	-133.957	-78.271	-134.652	-8191	255	
1055.030	1	1	0	0	0.19001	0.1869	0.31649	0.14078	0.028419	0.1581	0.23125	0.11242	0.37399	0.079806	0.14784	0.13276	0.094195	0.049763	0.38916	0.29305	-0.70208	-1.7042	-1.7167	-1.2958	-2.0938	-1.2396	-1.2563	-2.2333	-0.88333	-1.6021	-1.7854	-0.91458	-1.7708	-1.5604	-1.2625	-2.1333	153.648	91.050	5.116	95.352	-85.904	-147.199	112.371	180.722	180.505	175.814	153.917	-48.254	-101.031	108.586	-146.530	158.256	0.00038258	0.00027933	4.776e-05	1109.9	2.261e-06	2.9385e-06	1195.8	225.91	4.2864e-06	2.0714e-06	283.67	78.902	63.628	18.179	3.6035e-06	25.191	0.00017655	0.0001598	4.4979e-05	1092	1.7908e-06	1.7446e-06	1180.6	224.01	1.8085e-06	1.7228e-06	280.4	78.999	62.314	18.301	1.7766e-06	25.437	-31.227	-82.289	-60.947	-154.892	-12.044	-74.552	-155.203	-148.089	-2.577	42.692	-148.227	-141.355	-141.244	-134.298	-17.653	-134.647	-8191	255	
1055.102	1	1	0	0	0.2721	0.074625	0.14073	0.029529	0.12056	0.35514	0.2609	0.39104	0.14883	0.071235	0.091245	0.20348	0.29637	0.021347	0.10847	0.2731	-0.71667	-1.4604	-1.8062	-1.2375	-1.9521	-1.5667	-1.3792	-2.1167	-1.0667	-1.4917	-2.0333	-1.1354	-1.8542	-1.7417	-1.0521	-2.3375	147.462	96.951	106.905	-107.486	44.783	50.380	106.052	116.339	120.948	-81.170	13.830	176.793	-125.964	-128.846	12.820	169.389	0.00043139	0.00028842	7.2621e-05	1106.6	1.7555e-06	1.0885e-06	1199.8	225.21	1.8917e-06	9.4091e-07	284.43	79.026	63.917	18.055	2.1943e-06	25.251	0.00017398	0.00016137	4.4018e-05	1092.3	1.7971e-06	1.7676e-06	1180.1	223.78	1.8348e-06	1.7908e-06	280.49	78.977	62.751	18.305	1.8538e-06	25.49	-34.039	-137.254	-16.050	-155.117	31.242	-3.666	-155.247	-148.264	-65.216	13.275	-148.624	-141.606	-141.783	-133.673	21.666	-134.442	-8191	255	
1055.198	1	1	0	0	0.1203	0.25687	0.13324	0.18727	0.065029	0.3663	0.24916	0.053666	0.11939	0.14329	0.17573	0.26874	0.29918	0.27473	0.40721	0.055449	-0.73542	-1.4146	-2.0417	-1.025	-1.7125	-1.8771	-1.3604	-2.0687	-1.3188	-1.3333	-2.0187	-1.1187	-1.8458	-1.9646	-1.0625	-2.2396	134.539	21.222	-92.912	136.786	-153.935	-61.132	-104.501	163.749	93.333	-146.639	160.640	-105.284	-97.608	-162.303	-17.506	135.787	0.00035935	0.00054298	5.4623e-05	1108.8	3.2945e-06	4.8591e-07	1202.4	226.58	2.9608e-06	2.8297e-06	282.86	79.052	63.178	18.021	3.2912e-06	24.975	0.00018602	0.00017104	4.7584e-05	1092.8	1.8824e-06	1.8326e-06	1184	224.39	1.9517e-06	1.8936e-06	280.74	79.327	62.496	18.31	1.887e-06	25.393	-30.858	-90.055	-129.691	-155.009	-2.361	129.944	-155.266	-147.574	-20.334	-85.451	-148.676	-141.696	-141.610	-133.790	47.131	-134.627	-8191	255	
1055.293	1	1	0	0	0.24057	0.24713	0.13828	0.29779	0.11532	0.065717	0.25978	0.19947	0.088378	0.037556	0.15949	0.34833	0.048239	0.33103	0.20951	0.13895	-0.91042	-1.1896	-2.0021	-1.2604	-1.725	-1.6417	-1.4771	-2.0771	-1.4813	-1.2104	-2.225	-1.2667	-1.6583	-2.0208	-1.1708	-2.1937	182.722	68.349	-18.605	117.530	64.274	49.467	75.436	-30.054	98.876	-33.471	-13.226	125.017	14.686	-143.649	-90.967	-51.560	0.00042163	0.00056301	2.8735e-05	1114	6.139e-06	2.2436e-06	1201.3	225.13	3.7616e-06	3.5712e-06	282.13	79.401	63.449	18.169	1.18e-06	25.317	0.0001889	0.00017177	4.7125e-05	1098.5	1.9106e-06	1.8641e-06	1184	223.95	1.9449e-06	1.8716e-06	281.03	79.254	62.347	18.35	1.9229e-06	25.562	-21.721	-83.773	122.354	-155.095	6.947	9.001	-155.078	-147.789	-12.158	6.281	-147.999	-141.645	-140.861	-133.820	-88.659	-134.879	-8191	255	
1055.413	1	1	0	0	0.21513	0.15822	0.16351	0.16747	0.14108	0.20309	0.12568	0.29036	0.25692	0.18172	0.10528	0.22096	0.1314	0.074525	0.20469	0.063151	-1.0417	-1.0292	-2.0146	-1.2271	-1.3625	-1.7792	-1.1396	-1.9792	-1.5688	-1.225	-2.1896	-1.4104	-1.2521	-1.9396	-1.0354	-1.9271	189.185	-55.164	-74.599	143.019	-44.225	162.644	-30.464	81.225	21.547	-89.652	-131.882	-110.122	101.806	148.211	65.958	138.673	0.00036368	0.00040061	9.5208e-05	1118.2	6.2207e-06	1.1124e-06	1196.5	226.99	5.8092e-06	5.9784e-06	283.27	78.78	63.087	18.178	4.8982e-07	25.096	0.00018703	0.00017136	4.7694e-05	1098.7	1.8682e-06	1.8155e-06	1183.5	224.5	1.9081e-06	1.8533e-06	280.79	79.09	62.403	18.335	1.8367e-06	25.517	-24.536	-83.217	-122.166	-155.165	-26.472	-26.863	-155.194	-147.885	-52.906	91.891	-148.176	-141.836	-141.347	-133.896	9.584	-134.745	-8191	255	
1055.509	1	1	0	0	0.20562	0.096231	0.15745	0.35616	0.17748	0.09772	0.19559	0.27437	0.11049	0.216	0.095192	0.19982	0.20412	0.29501	0.18063	0.052074	-1.4062	-0.98125	-2.0687	-1.2563	-1.4042	-1.9521	-1.1792	-1.8813	-1.6167	-1.0708	-2.2417	-1.3208	-1.3813	-1.8542	-1.1083	-1.7542	163.909	-51.228	-105.550	137.016	114.931	-158.353	164.228	-110.222	64.145	119.161	23.365	176.099	50.825	-5.920	37.699	164.392	0.00037712	0.00048913	2.3009e-05	1118	3.4219e-06	2.9404e-06	1207.4	226.29	1.6768e-06	4.1979e-06	284.23	79.172	64.026	18.316	4.2261e-06	25.192	0.00018274	0.00017166	4.4923e-05	1096.6	1.87e-06	1.7521e-06	1185.6	224.41	1.8544e-06	1.8249e-06	281.52	79.135	62.489	18.371	1.8352e-06	25.412	-22.154	-118.220	-39.766	-155.041	9.402	-25.609	-155.187	-147.595	-7.931	2.667	-147.991	-141.496	-140.952	-134.106	-2.083	-134.480	-8191	255	
1055.605	1	1	0	0	0.20653	0.10445	0.23918	0.36323	0.083212	0.12045	0.23137	0.046756	0.032326	0.10756	0.19262	0.29234	0.16716	0.10661	0.17324	0.079311	-1.4708	-1.15	-1.9833	-1.6229	-1.1479	-2.0229	-1.3229	-1.8917	-1.9292	-0.93958	-2.0896	-1.6958	-1.075	-2.25	-0.96458	-1.6167	121.366	127.548	-138.306	14.076	20.536	-69.519	128.271	130.874	-90.190	162.725	-142.397	177.116	-10.648	192.705	-28.628	147.438	0.00039272	0.00028796	8.7951e-05	1115.3	2.4533e-06	2.6204e-06	1206.3	226.54	5.7587e-06	1.2229e-06	284.1	78.894	63.184	18.094	4.4092e-06	25.169	0.00017718	0.00016497	4.5368e-05	1098.1	1.8467e-06	1.7757e-06	1186.8	224.46	1.8233e-06	1.7888e-06	281.13	78.973	62.45	18.327	1.7456e-06	25.442	-31.642	-63.415	-130.089	-155.231	19.917	43.034	-155.376	-147.856	-53.338	30.022	-148.056	-142.020	-140.961	-134.334	17.375	-134.662	-8191	255	
1055.702	1	1	0	0	0.30539	0.18721	0.20745	0.23739	0.14327	0.020334	0.2476	0.25622	0.12994	0.069628	0.39212	0.17488	0.071186	0.19297	0.10487	0.24538	-1.6792	-1.1375	-1.8896	-1.8167	-1.0438	-2.0479	-1.4479	-1.6042	-1.7146	-0.82292	-1.8896	-1.7042	-1.2604	-2.0646	-1.3813	-1.6021	81.977	-66.618	-145.406	186.676	84.390	-144.357	132.160	115.518	-66.898	108.437	192.458	-10.946	173.942	-29.469	-19.152	-85.057	0.00040271	0.00027654	2.9749e-05	1111.3	3.7966e-06	3.5272e-06	1200.5	226.64	4.4247e-06	3.7454e-06	284.05	79.834	63.922	18.129	2.493e-06	25.308	0.00017817	0.00016789	4.3735e-05	1095.4	1.8216e-06	1.6844e-06	1183.8	224.97	1.7729e-06	1.8139e-06	281.3	79.276	62.611	18.311	1.7413e-06	25.444	-29.324	-82.310	-79.690	-155.319	-64.201	-22.311	-155.432	-147.769	-19.958	19.483	-148.130	-141.772	-141.354	-133.637	-57.281	-134.348	-8191	255	
1055.798	1	1	0	0	0.26105	0.062999	0.15494	0.24532	0.22181	0.24709	0.14818	0.36209	0.16293	0.19178	0.2245	0.20228	0.073919	0.24171	0.19246	0.21852	-1.6875	-1.1083	-1.8042	-1.9083	-0.89375	-2.2562	-1.5833	-1.3729	-2.0896	-1.2521	-1.9833	-2.0354	-1.1104	-1.8479	-1.4896	-1.2729	45.997	25.373	-100.286	147.837	119.134	-1.742	154.164	125.425	-113.962	108.257	-17.408	20.973	90.080	183.649	81.973	154.287	0.00042047	0.00025101	5.3486e-05	1117.9	5.8466e-06	3.4925e-06	1196.7	225.82	2.9169e-06	2.7139e-06	283.82	79.323	63.372	18.313	5.5839e-06	25.094	0.00017599	0.0001637	4.5127e-05	1097.8	1.8203e-06	1.7271e-06	1185.1	223.95	1.7722e-06	1.7425e-06	281.48	79.2	62.478	18.407	1.7168e-06	25.43	-39.319	-76.136	-131.802	-155.295	-38.530	8.027	-155.340	-147.864	-35.644	16.517	-147.899	-141.754	-141.458	-133.953	-18.187	-134.544	-8191	255	
1055.894	1	1	0	0	0.084045	0.29351	0.33191	0.27348	0.17773	0.072438	0.29088	0.24268	0.12614	0.13048	0.067057	0.12532	0.18204	0.05583	0.11377	0.15712	-1.8333	-1.1271	-1.625	-2.2229	-1.1417	-2.0062	-1.7208	-1.4292	-2.1833	-1.1896	-1.5042	-2.1146	-1.0063	-1.8729	-1.5125	-1.1521	-86.155	-80.233	-127.701	151.525	191.906	17.783	123.536	126.436	-74.404	49.009	-49.726	149.254	-26.278	182.678	-130.026	63.563	0.0004048	0.00046538	0.00010773	1107.9	3.5999e-06	3.9861e-06	1206.5	226.12	3.6053e-06	4.0102e-06	282.67	79.416	63.817	18.019	2.3411e-06	25.199	0.00016588	0.00015561	4.1113e-05	1096.1	1.7066e-06	1.6244e-06	1184.3	223.86	1.6684e-06	1.6185e-06	280.32	78.824	62.1	18.279	1.5148e-06	25.366	-33.029	-98.425	-95.731	-155.268	-11.313	35.732	-155.281	-147.615	-20.570	63.367	-148.511	-141.351	-140.528	-134.145	-62.044	-134.762	-8191	255	
1055.990	1	1	0	0	0.35595	0.12779	0.2814	0.35681	0.17836	0.12028	0.14654	0.15623	0.15025	0.057468	0.056905	0.098328	0.14566	0.1163	0.28348	0.23614	-1.7542	-1.1063	-1.5021	-1.9146	-0.98958	-1.7458	-1.8937	-1.225	-2.0417	-1.2917	-1.6354	-2.0208	-1.2021	-1.7833	-1.7042	-0.975	27.503	79.633	-36.906	174.499	-118.787	6.888	77.742	159.676	31.028	-101.910	-88.798	-144.676	-86.089	80.703	-30.979	-107.270	0.00044272	0.00016601	0.00015235	1114.2	3.0423e-06	1.7644e-06	1204.1	225.63	5.3229e-06	5.8481e-07	284.54	78.933	63.572	18.092	3.8538e-06	25.141	0.00015423	0.00012826	3.6502e-05	1096.4	1.4654e-06	1.3805e-06	1183.9	224.07	1.3032e-06	1.2433e-06	280.63	78.982	61.906	18.231	1.1518e-06	25.314	-29.097	-69.335	-83.502	-155.590	-16.700	20.282	-155.224	-147.648	-13.383	-81.295	-148.093	-141.690	-140.839	-134.101	-13.405	-134.355	-8191	255	
1056.111	1	1	0	0	0.047988	0.25103	0.16159	0.078779	0.29277	0.15992	0.30802	0.068576	0.21197	0.26727	0.2598	0.36658	0.052084	0.12379	0.18368	0.12009	-1.4896	-1.4479	-1.2229	-2.175	-1.0771	-1.6667	-2.0229	-1.0083	-2.0104	-1.6021	-1.35	-2.2042	-1.1854	-1.6479	-1.9729	-1.15	-120.704	-154.606	14.304	-101.814	-38.999	-42.255	180.677	-70.529	123.556	170.382	113.443	-156.368	-54.597	-2.567	54.733	101.501	0.00034455	0.00016635	3.5772e-05	1116.3	3.9047e-06	1.6366e-06	1203.6	226.16	3.7269e-06	2.5946e-06	284.22	79.22	63.682	18.159	5.1514e-06	25.246	0.00011949	0.00010079	2.7369e-05	1096.8	1.1653e-06	1.0857e-06	1183.9	223.71	1.1485e-06	1.0843e-06	279.98	78.873	62.104	18.28	1.2234e-06	25.384	-29.763	-60.456	-73.698	-155.057	-64.644	-14.692	-155.384	-147.727	-34.414	13.686	-148.048	-141.406	-141.126	-133.645	-6.764	-134.739	-8191	255	
1056.205	1	1	0	0	0.084997	0.066169	0.16714	0.15723	0.19498	0.09454	0.19007	0.27984	0.19572	0.23176	0.1121	0.04356	0.091464	0.016692	0.060882	0.056222	-1.5604	-1.3896	-1.1521	-2.3708	-1.2604	-1.6187	-2.1042	-1.1333	-1.9688	-1.7229	-1.4125	-2.3438	-1.3687	-1.5438	-1.9937	-1.1229	-59.285	-103.206	106.776	169.343	-94.223	-8.715	108.964	178.561	160.537	8.673	114.365	-84.632	29.564	174.285	-77.760	10.072	0.00039584	0.00034655	5.5166e-05	1114.8	1.9516e-06	3.3834e-06	1201.4	226.16	5.387e-06	3.8728e-06	282.92	79.272	63.949	18.15	5.4039e-06	25.043	0.00013863	0.00011786	3.325e-05	1096.3	1.4192e-06	1.3643e-06	1183	223.69	1.4593e-06	1.4048e-06	280.85	79.1	62.26	18.312	1.5014e-06	25.36	-27.688	-82.154	-17.022	-154.963	42.854	8.424	-155.237	-147.376	-52.131	-7.819	-148.129	-141.388	-141.966	-133.523	-7.130	-134.344	-8191	255	
1056.303	1	1	0	0	0.14042	0.28705	0.21026	0.35723	0.11789	0.19541	0.27264	0.13824	0.14788	0.18273	0.14536	0.32002	0.29353	0.17345	0.039667	0.25452	-1.3333	-1.6146	-1.0625	-2.0375	-1.0917	-1.3188	-2.175	-1.1229	-1.7979	-1.7875	-1.1396	-2.1417	-1.4333	-1.3375	-1.9937	-1.1667	21.288	100.681	116.991	168.919	153.892	-72.938	95.676	-144.848	-152.630	83.701	186.419	158.862	-108.739	179.565	-106.179	88.037	0.00033318	0.00033676	6.9806e-05	1113.9	4.7811e-06	2.4311e-06	1202	224.2	5.194e-06	5.3591e-06	284.6	78.811	63.627	18.278	1.5043e-06	25.019	0.00015333	0.00013705	3.7865e-05	1097.4	1.5555e-06	1.5496e-06	1183	223.2	1.5968e-06	1.5839e-06	280.77	78.866	62.077	18.357	1.5498e-06	25.399	-31.202	-80.321	-79.175	-155.138	-17.239	6.604	-155.195	-147.744	-20.689	3.643	-147.974	-141.278	-140.596	-134.195	-28.235	-134.529	-8191	255	
1056.397	1	1	0	0	0.083268	0.31814	0.18156	0.15453	0.23418	0.17078	0.24286	0.10155	0.3166	0.19373	0.066269	0.088165	0.25614	0.25577	0.12999	0.12772	-1.4208	-1.6396	-0.88958	-1.9229	-1.4229	-1.3813	-2.2812	-1.25	-1.6271	-1.8583	-1.2292	-2.1104	-1.4625	-1.3542	-2.175	-1.3667	-162.372	59.141	107.789	-144.283	-23.918	-35.746	-154.566	-18.046	-110.229	70.679	151.683	145.838	149.114	119.342	-11.129	89.675	0.00044896	0.00014505	0.00014657	1111.2	4.4239e-06	1.8545e-06	1203.8	225.42	6.2479e-06	1.2422e-06	283.75	79.301	63.81	18.177	9.1554e-07	25.073	0.00015875	0.00014279	3.9862e-05	1096.7	1.6477e-06	1.5664e-06	1183.9	223.51	1.6233e-06	1.5336e-06	280.6	79.006	62.21	18.283	1.5337e-06	25.382	-34.791	-54.048	-67.037	-155.188	-27.841	24.839	-155.061	-147.517	-28.051	5.373	-148.043	-141.351	-141.631	-133.682	-40.635	-134.369	-8191	255	
1056.494	1	1	0	0	0.28973	0.13614	0.14937	0.1929	0.18468	0.28359	0.070075	0.28944	0.23203	0.27324	0.049752	0.029428	0.11412	0.14334	0.2516	0.23279	-1.0854	-1.9167	-1.1167	-1.9667	-1.6083	-1.0667	-2.2146	-1.3792	-1.5417	-2.0417	-1.1625	-1.8458	-1.5083	-1.2896	-1.9521	-1.4354	30.571	74.296	-85.836	-140.643	130.744	-57.147	122.921	163.158	124.283	123.194	4.879	44.224	-108.308	186.272	-62.431	139.622	0.0004309	0.00048084	0.00013958	1117.1	1.7053e-06	2.8848e-06	1208.9	225.55	4.5331e-06	4.4675e-06	284.28	79.325	63.647	18.178	1.1704e-06	25.264	0.00016108	0.00014301	4.1409e-05	1098.4	1.617e-06	1.6199e-06	1184.5	223.47	1.586e-06	1.502e-06	280.73	79.04	62.285	18.3	1.516e-06	25.447	-33.601	-67.954	-147.602	-154.917	-1.708	-34.195	-155.169	-147.609	-80.049	-15.585	-148.210	-141.484	-141.149	-133.973	-10.088	-134.331	-8191	255	
1056.590	1	1	0	0	0.17343	0.046402	0.18256	0.050514	0.25794	0.14544	0.18228	0.2205	0.30289	0.12962	0.2004	0.15438	0.18132	0.044276	0.19595	0.1675	-0.98125	-2.075	-1.0646	-1.8729	-1.575	-1.2146	-2.175	-1.4167	-1.2875	-1.9208	-1.2521	-2.0229	-1.8	-1.0729	-1.8375	-1.2875	-60.520	169.439	151.385	-97.625	97.173	-94.168	174.265	44.004	-16.020	-164.120	114.378	-123.603	-146.372	-29.949	74.589	-4.205	0.00042204	0.00036442	7.8441e-05	1113.4	4.036e-06	2.5069e-06	1209.2	225.04	3.3891e-06	3.5381e-06	283.15	79.365	63.522	18.133	3.3262e-06	25.286	0.00015866	0.00013899	3.7898e-05	1096.8	1.5002e-06	1.4653e-06	1185.4	223.03	1.491e-06	1.4642e-06	280.13	79.08	62.113	18.267	1.4751e-06	25.416	-26.343	-120.666	-129.554	-154.928	21.337	16.031	-155.025	-147.589	-32.999	-15.054	-147.629	-141.320	-141.757	-133.791	-21.880	-134.186	-8191	255	
1056.710	1	1	0	0	0.078523	0.13981	0.1717	0.089795	0.27862	0.16391	0.21597	0.21574	0.18192	0.22781	0.33468	0.2676	0.11342	0.12347	0.19001	0.11133	-0.77917	-1.9667	-1.0938	-1.7917	-1.85	-1.0479	-2.1896	-1.7958	-1.2604	-2.1417	-1.3417	-1.5688	-2.0896	-1.1562	-1.9625	-1.5792	98.000	127.419	55.250	0.998	3.868	73.467	83.560	20.657	171.409	-151.604	42.270	118.870	95.365	-156.684	46.150	49.976	0.00038638	0.00015431	9.62e-05	1116.3	3.2946e-06	8.9318e-07	1202.6	224.87	4.6542e-06	4.3535e-06	283.55	78.88	62.716	18.13	4.3807e-06	25.243	0.00015063	0.00012778	3.6357e-05	1097.6	1.4509e-06	1.4482e-06	1182.4	222.92	1.4671e-06	1.3723e-06	279.74	78.938	61.708	18.295	1.2293e-06	25.263	-31.904	-70.337	-40.984	-154.968	-34.203	0.665	-154.922	-147.739	-14.780	-38.167	-147.712	-141.372	-141.213	-133.919	-8.713	-134.411	-8191	255	
1056.806	1	1	0	0	0.11535	0.24941	0.30785	0.36952	0.12786	0.10611	0.034343	0.055211	0.11377	0.10104	0.082682	0.046653	0.13328	0.10642	0.049702	0.098364	-0.8	-2.125	-1.3104	-1.6354	-1.8625	-1.0667	-2.05	-1.7208	-1.1271	-1.9854	-1.5063	-1.3479	-2.0271	-1.0958	-1.8438	-1.6208	156.243	-22.401	143.113	108.772	156.344	-106.030	148.431	-146.969	-26.991	-69.642	-119.914	96.710	-109.897	134.252	87.778	71.371	0.00040099	0.00044285	6.8091e-05	1112.1	3.7306e-06	2.4235e-06	1201	226.28	4.2476e-06	2.0322e-06	280.51	79.056	63.587	18.234	3.1455e-06	25.187	0.00013703	0.00011345	3.1169e-05	1095.4	1.2664e-06	1.1735e-06	1180.2	222.97	1.2485e-06	1.0988e-06	279.36	78.763	61.895	18.263	1.1352e-06	25.292	-30.156	-68.668	-87.017	-154.821	18.994	-3.169	-155.266	-147.616	-46.630	-9.203	-148.028	-141.134	-141.065	-133.704	-7.453	-134.751	-8191	255	
1056.903	1	1	0	0	0.16164	0.51588	0.24921	0.40498	0.23356	0.26924	0.11492	0.074743	0.2828	0.023369	0.20097	0.26402	0.2486	0.13359	0.069981	0.23774	-0.86667	-2.0687	-1.3813	-1.5292	-2.1396	-0.97708	-1.9583	-1.9104	-1.1042	-1.9271	-1.4937	-1.5417	-2.0375	-1.175	-1.5708	-2.0187	31.287	-4.537	-45.865	96.594	100.082	149.292	153.076	-22.944	39.958	-126.475	151.124	-161.330	-145.096	181.398	114.507	41.021	0.00038065	0.00034421	4.8392e-05	1113.8	3.118e-06	2.8764e-06	1201.9	225.38	4.3236e-06	3.4822e-06	281.91	79.202	63.961	18.084	2.2483e-06	24.975	0.00012302	9.9227e-05	2.8733e-05	1094.8	1.1946e-06	1.1476e-06	1182	222.98	1.2263e-06	1.1649e-06	279.43	78.773	61.84	18.223	1.2105e-06	25.221	-33.280	-102.160	-71.505	-155.003	-40.429	7.928	-155.209	-147.692	-14.038	-10.540	-148.128	-141.245	-141.355	-134.013	10.005	-134.377	-8191	255	
1056.974	1	1	0	0	0.16737	0.21647	0.12925	0.16352	0.18964	0.049447	0.41624	0.19857	0.15323	0.08724	0.14249	0.12489	0.12012	0.058231	0.047667	0.13088	-0.61667	-2.0667	-1.5125	-1.4333	-2.0187	-1.25	-1.8312	-2.1208	-0.89792	-2.0521	-1.7542	-1.2458	-2.0438	-1.3438	-1.5208	-2.0292	124.291	-9.218	159.493	168.501	-42.063	-157.456	-147.809	105.937	-40.213	15.071	32.714	-47.950	156.239	11.954	-91.210	-148.027	0.0004265	0.00031758	5.903e-05	1113.3	1.5426e-06	4.8058e-06	1198.2	225.11	4.7845e-06	1.6043e-06	283.84	79.319	62.565	18.044	3.1715e-06	25.124	0.00012986	0.00010769	3.1005e-05	1094.4	1.3264e-06	1.252e-06	1181.4	222.99	1.3526e-06	1.2891e-06	280.62	78.87	61.83	18.243	1.3859e-06	25.355	-30.535	-42.940	-100.041	-154.983	-50.091	-44.909	-154.884	-147.828	-24.184	-6.939	-148.072	-141.239	-141.042	-133.860	2.010	-134.402	-8191	255	
1057.093	1	1	0	0	0.33562	0.1768	0.11671	0.10644	0.13926	0.019929	0.062245	0.052445	0.078747	0.035434	0.21288	0.21096	0.18148	0.13581	0.20905	0.094721	-0.64792	-1.8646	-1.7104	-1.1688	-2.0104	-1.4292	-1.7771	-2.1604	-1.2521	-2.0979	-1.8354	-1.1729	-2.2146	-1.5125	-1.3521	-2.2938	-129.863	186.527	98.562	-151.987	-140.646	-109.105	136.052	147.864	-49.213	155.139	181.107	171.467	72.061	-158.130	-85.360	-70.852	0.00040839	0.00030256	9.7349e-05	1110.4	4.3459e-06	2.4344e-06	1201.4	225.99	4.4964e-06	1.7666e-06	280.03	79.005	63.287	17.997	3.9675e-06	25.173	0.00014245	0.00012427	3.5123e-05	1094	1.432e-06	1.4474e-06	1181.7	223.28	1.5297e-06	1.4558e-06	279.01	78.924	62.042	18.226	1.5024e-06	25.366	-30.182	-110.226	-81.568	-155.136	-30.167	27.476	-154.698	-147.673	-38.779	19.125	-147.898	-141.498	-141.098	-133.854	8.828	-134.549	-8191	255	
1057.191	1	1	0	0	0.17388	0.30046	0.14212	0.37644	0.10145	0.10696	0.16785	0.16546	0.15829	0.12934	0.24802	0.095824	0.14293	0.19466	0.21435	0.039203	-1.1375	-1.7854	-1.8021	-1.3438	-1.9813	-1.4896	-1.5187	-2.0896	-1.0167	-1.5875	-2.225	-1.0333	-2.1188	-1.6146	-1.2229	-2.0833	47.875	183.653	-92.916	151.459	129.447	-139.327	-149.130	148.855	7.535	38.471	94.096	40.392	80.939	-157.693	152.539	-38.877	0.00039296	0.00010852	7.0819e-05	1110.7	2.6848e-06	4.2205e-06	1200.7	225.36	3.5074e-06	3.7699e-06	281.72	79.212	63.916	18.224	3.4933e-06	24.97	0.00015649	0.00013905	3.9067e-05	1094.9	1.5679e-06	1.5276e-06	1180.4	223.53	1.5725e-06	1.5028e-06	279.23	78.828	62.238	18.243	1.5661e-06	25.33	-29.873	-95.952	-63.933	-154.968	-50.525	-51.428	-154.925	-147.639	-39.227	42.905	-147.745	-141.621	-140.900	-133.623	-2.070	-133.930	-8191	255	
1057.285	1	1	0	0	0.37463	0.10797	0.17439	0.27747	0.358	0.24004	0.083718	0.22065	0.039326	0.073454	0.284	0.20162	0.21313	0.30114	0.1958	0.20725	-0.78125	-1.5708	-2.0854	-1.2563	-1.9771	-1.6708	-1.2896	-2.1021	-1.2979	-1.4833	-1.9312	-1.0187	-1.8292	-1.7417	-1.1688	-2.3312	-43.921	70.342	7.206	150.031	64.921	-0.659	-136.872	8.725	-66.423	-107.591	155.001	141.747	-90.915	104.470	93.123	73.656	0.00036058	0.0002797	0.00010219	1107.1	4.669e-06	3.6164e-06	1198.8	224.64	1.9418e-06	2.4679e-06	281.24	78.889	63.782	18.163	5.2505e-06	25.011	0.00016179	0.0001388	3.7462e-05	1093.5	1.6397e-06	1.5239e-06	1180	223.65	1.5539e-06	1.59e-06	279.76	78.89	62.085	18.237	1.544e-06	25.327	-31.117	-116.679	-113.395	-155.020	-38.002	-12.820	-154.946	-147.772	-21.869	-30.131	-147.801	-141.530	-141.602	-133.712	-35.277	-134.611	-8191	255	
1057.383	1	1	0	0	0.29523	0.19511	0.20101	0.15956	0.05587	0.17734	0.1185	0.13405	0.2333	0.12071	0.43587	0.11813	0.26264	0.30545	0.17879	0.25659	-0.8375	-1.4458	-2.1042	-1.3188	-1.8354	-1.575	-1.4688	-2.2125	-1.1792	-1.3979	-2.125	-1.1396	-1.9646	-1.8229	-0.99375	-2.0083	-81.231	158.945	137.786	141.057	-50.078	11.132	142.900	190.351	-52.515	-8.339	-31.762	-44.033	-24.959	-144.217	182.508	-139.572	0.00041885	0.00031462	0.00011273	1106.2	4.0647e-06	3.7986e-06	1193.3	224.69	4.1441e-06	4.0604e-06	281.6	79.164	63.776	18.07	3.1915e-06	24.953	0.00015686	0.00014106	3.8712e-05	1092.6	1.5876e-06	1.538e-06	1179.3	223.15	1.5848e-06	1.5687e-06	279.07	78.918	62.258	18.222	1.591e-06	25.311	-37.688	-83.577	-74.566	-154.926	-44.313	-9.370	-155.100	-147.354	-13.236	15.910	-147.998	-141.525	-140.955	-133.979	4.178	-133.986	-8191	255	
1057.502	1	1	0	0	0.16913	0.059399	0.088891	0.30081	0.23683	0.19126	0.11497	0.1845	0.20011	0.14263	0.27228	0.22998	0.16457	0.047501	0.32824	0.32466	-1.0542	-1.1396	-1.7646	-1.3563	-1.8479	-1.9042	-1.2604	-1.9854	-1.4896	-1.2792	-2.2125	-1.4667	-1.7292	-1.9646	-1.1875	-2.0667	148.033	-28.643	89.686	-148.990	100.301	-156.893	-56.848	120.250	114.175	111.895	153.629	193.999	41.438	-90.979	121.836	50.642	0.00043927	0.00029245	7.0732e-05	1109.1	3.966e-06	2.3457e-06	1196.8	225.6	2.3378e-06	3.5112e-06	284.45	78.898	63.311	18.145	1.3506e-06	25.09	0.00015356	0.00014223	3.9204e-05	1092.6	1.6155e-06	1.4704e-06	1180.4	223.34	1.5258e-06	1.4937e-06	280.25	78.674	61.974	18.243	1.5585e-06	25.346	-39.023	-117.914	-72.874	-154.872	4.211	-57.689	-154.968	-147.399	-68.192	26.288	-148.155	-141.442	-140.880	-133.775	127.417	-134.455	-8191	255	
1057.574	1	1	0	0	0.15422	0.10218	0.17691	0.26251	0.28916	0.18479	0.29078	0.17829	0.23538	0.3391	0.055278	0.21439	0.33939	0.17728	0.03607	0.25434	-1.1771	-1.2958	-2.0771	-1.35	-1.8417	-2.0042	-1.3021	-1.9188	-1.5875	-1.3229	-2.3312	-1.3979	-1.5729	-2.2062	-1.1208	-1.6792	95.240	80.949	12.300	158.547	192.152	148.247	150.021	-105.649	82.227	179.469	-27.362	36.756	-94.133	-140.788	115.766	-39.891	0.00046104	8.4381e-05	4.715e-05	1106.9	4.709e-06	3.3622e-06	1193.8	225.47	3.0936e-06	2.3576e-06	281.4	79.086	63.201	18.001	3.4505e-06	25.171	0.00015555	0.00013575	3.785e-05	1092.6	1.5942e-06	1.4992e-06	1176.3	223.78	1.5349e-06	1.5379e-06	279.77	78.592	61.867	18.214	1.4948e-06	25.354	-30.836	41.683	-99.144	-155.014	-37.959	-16.295	-155.073	-147.445	-10.158	24.297	-147.529	-141.276	-141.376	-133.945	11.178	-134.475	-8191	255	
1057.670	1	1	0	0	0.15048	0.1833	0.14854	0.18387	0.074489	0.21797	0.21634	0.30922	0.058307	0.043991	0.021445	0.22782	0.20886	0.22556	0.2097	0.13231	-1.4292	-1.0938	-2.1333	-1.5875	-1.4375	-2.0396	-1.3167	-1.9667	-1.9292	-1.1667	-1.8937	-1.5979	-1.2188	-2.2625	-1.2812	-1.8417	190.861	-155.627	-66.878	193.765	-32.253	-13.811	78.213	-153.048	-118.503	131.549	187.117	-0.849	113.467	-148.654	-13.815	111.641	0.0004359	0.00045444	0.00015357	1109.4	4.5564e-06	1.5741e-06	1196.9	225.75	3.797e-06	3.0087e-06	281.43	79.049	63.022	18.132	2.1519e-06	25.142	0.00015173	0.00014307	3.796e-05	1089.1	1.5898e-06	1.5011e-06	1174.6	223.07	1.5046e-06	1.534e-06	278.99	78.748	61.787	18.208	1.5614e-06	25.324	-33.686	-48.437	-88.467	-154.876	-37.012	-29.011	-155.101	-147.535	-34.917	-20.731	-148.006	-141.348	-140.700	-133.527	-71.252	-134.648	-8191	255	
1057.791	1	1	0	0	0.44632	0.21663	0.16132	0.11138	0.22674	0.26131	0.31892	0.30672	0.057443	0.15692	0.32074	0.31631	0.082675	0.26346	0.20552	0.06711	-1.6688	-1.1625	-1.9083	-1.6479	-1.3604	-2.1312	-1.5208	-1.7771	-2.1063	-0.97917	-2.0042	-1.5729	-1.1333	-2.1125	-1.2583	-1.4937	-35.974	186.591	-73.507	183.915	164.259	172.129	154.057	184.663	174.972	-141.341	-136.025	70.560	188.584	-67.666	-91.408	-4.020	0.00038486	0.00030497	5.0357e-05	1108.4	3.7341e-06	2.0028e-06	1193.8	225.87	3.9274e-06	5.0247e-06	283.76	78.659	62.625	18.102	1.854e-06	25.02	0.00016011	0.00014812	4.084e-05	1090	1.6601e-06	1.6449e-06	1175.5	222.99	1.6995e-06	1.6801e-06	279.51	78.634	61.865	18.246	1.6989e-06	25.34	-29.430	-61.575	-163.035	-154.953	-10.196	18.871	-154.633	-147.662	-44.099	2.210	-147.807	-141.308	-140.711	-133.928	-74.105	-134.828	-8191	255	
1057.887	1	1	0	0	0.15095	0.20488	0.12903	0.2159	0.14705	0.11961	0.14777	0.13195	0.11851	0.21085	0.14265	0.32607	0.059223	0.14666	0.039255	0.11831	-1.7563	-0.92917	-1.9583	-1.7938	-0.94375	-1.9813	-1.5688	-1.2521	-2.1042	-0.98333	-1.7083	-1.7167	-1.1042	-2.3063	-1.4729	-1.5417	0.873	-23.408	4.538	144.083	-111.921	15.390	154.689	10.245	-1.337	37.335	34.048	-44.249	99.879	-50.097	-74.280	-150.694	0.00045244	0.00037168	6.2901e-05	1106.7	5.6757e-06	3.363e-06	1192	225.44	4.4662e-06	4.1713e-06	283.12	78.652	63.751	18.158	2.1348e-06	24.986	0.00016923	0.00015388	4.229e-05	1091.2	1.7243e-06	1.7022e-06	1176.5	223.55	1.7416e-06	1.6819e-06	279.67	78.69	61.942	18.293	1.6919e-06	25.344	-36.952	-80.020	-88.440	-155.248	-3.353	-20.769	-154.930	-147.769	-82.746	-25.334	-148.337	-141.576	-141.456	-133.669	-14.803	-134.828	-8191	255	
1057.983	1	1	0	0	0.23242	0.30517	0.12341	0.16441	0.30508	0.16553	0.25981	0.18044	0.19649	0.1854	0.34918	0.27147	0.22497	0.14739	0.033406	0.10284	-1.6083	-1.3042	-1.75	-2.0208	-1.1437	-2.0479	-1.6313	-1.4917	-2.0854	-1.1125	-1.9417	-1.8229	-1.0646	-2.05	-1.6167	-1.3312	28.191	98.685	190.032	141.420	-115.278	84.484	71.591	169.935	187.505	-99.502	172.044	119.128	-125.295	-68.697	187.836	152.670	0.00038524	0.00025298	0.00010079	1108.3	4.3789e-06	1.0146e-06	1195.3	225.34	5.9075e-06	5.9613e-06	280.73	78.997	63.777	18.268	2.9859e-06	25.002	0.00016467	0.00014669	3.9376e-05	1092.7	1.5954e-06	1.499e-06	1179.2	222.89	1.5428e-06	1.5378e-06	278.89	78.72	61.952	18.285	1.4483e-06	25.287	-27.134	-68.051	-103.482	-155.163	-26.966	19.435	-155.028	-147.516	-25.201	61.242	-148.223	-141.243	-140.636	-133.903	-25.918	-134.473	-8191	255	
1058.104	1	1	0	0	0.11387	0.21363	0.031762	0.39849	0.12085	0.25849	0.2483	0.040415	0.1166	0.23247	0.16749	0.19089	0.21721	0.17802	0.1251	0.094627	-1.7229	-1.0625	-1.8125	-1.9917	-0.94375	-2.0354	-1.7479	-1.2687	-2.1125	-1.2083	-1.7104	-1.9083	-1.1417	-1.8833	-1.5833	-1.2792	20.919	19.994	57.144	149.209	-106.312	174.547	166.604	-6.759	-30.951	-144.473	192.168	85.939	79.091	94.443	-27.208	116.762	0.00042279	0.00012314	8.5446e-05	1107.5	2.299e-06	1.802e-06	1194.3	224.62	5.0035e-06	5.6875e-06	281.09	78.962	63.018	18.12	3.3531e-06	24.996	0.00015075	0.00013718	3.8222e-05	1092	1.5578e-06	1.4873e-06	1175.7	222.83	1.5227e-06	1.4481e-06	278.65	78.619	61.687	18.225	1.442e-06	25.277	-41.891	-39.272	-125.365	-155.016	-39.810	-9.854	-155.246	-147.420	-36.188	7.439	-147.761	-141.227	-141.019	-133.830	34.835	-134.707	-8191	255	
1058.198	1	1	0	0	0.19165	0.22613	0.14653	0.081416	0.21965	0.14206	0.14751	0.12725	0.2472	0.18304	0.15753	0.27011	0.083122	0.14689	0.10166	0.22798	-1.7292	-1.1792	-1.375	-2.1188	-1.1271	-1.7854	-1.8896	-1.2625	-1.9771	-1.4188	-1.5354	-2.15	-1.2042	-1.9958	-1.8604	-1.3354	-115.906	-113.963	-149.442	131.027	68.777	37.688	-86.531	189.365	164.023	71.108	176.120	3.097	74.175	-117.456	-140.197	139.774	0.00042416	0.00050463	6.1081e-05	1103.8	4.4974e-06	3.474e-06	1192	224.68	5.0325e-06	3.0904e-06	282.54	79.023	63.185	18.084	2.3512e-06	25.07	0.00014861	0.00013377	3.6897e-05	1087.6	1.4995e-06	1.4068e-06	1173.4	222.7	1.4651e-06	1.394e-06	279.1	78.428	61.864	18.185	1.3367e-06	25.256	-33.872	-57.265	-70.730	-154.943	-48.250	0.264	-155.065	-147.573	-48.404	1.093	-148.104	-141.060	-141.065	-134.180	-34.342	-134.181	-8191	255	
1058.270	1	1	0	0	0.026353	0.085257	0.031206	0.31768	0.23064	0.059912	0.19333	0.10703	0.11853	0.049772	0.097896	0.22825	0.17615	0.23915	0.10022	0.0978	-1.7771	-1.3292	-1.2271	-2.2167	-1.1396	-1.7958	-2.0458	-1.0542	-1.9312	-1.4854	-1.5042	-2.175	-1.1229	-1.8438	-1.9604	-1.0167	188.133	103.205	-65.648	112.647	1.794	116.187	137.969	77.706	187.411	115.714	180.681	129.095	141.307	-85.330	10.924	118.504	0.00038981	0.00037081	3.1892e-05	1101.9	2.5037e-06	1.9304e-06	1180.3	223.65	4.9723e-06	5.3604e-06	280.78	77.895	62.409	17.976	2.0076e-06	24.954	0.00013761	0.00011382	3.2382e-05	1084.4	1.3266e-06	1.1833e-06	1164.1	221.27	1.2449e-06	1.1557e-06	276.57	77.748	61.18	18.021	1.167e-06	25.032	-38.996	-58.902	-44.136	-154.819	-48.212	-0.975	-155.205	-147.702	-0.685	9.011	-147.998	-141.191	-140.875	-133.395	60.475	-133.540	-8191	255	
1058.390	1	1	0	0	0.17199	0.11833	0.043177	0.35543	0.19619	0.25051	0.16038	0.066629	0.082686	0.13481	0.43132	0.22666	0.25784	0.28493	0.14561	0.045695	-1.5771	-1.5354	-1.1896	-2.2354	-1.2583	-1.5833	-2.0938	-1.1375	-1.9771	-1.6479	-1.2104	-2.3063	-1.4042	-1.5354	-2.0396	-1.0479	167.762	-162.194	-129.493	117.000	98.655	94.802	103.929	55.351	103.030	27.971	93.274	108.942	168.320	132.931	-55.063	77.003	0.00038543	0.00045895	0.00010354	1095.1	1.3047e-06	2.2126e-06	1181.2	221.21	5.8736e-06	5.193e-07	280.68	77.887	62.593	18.011	1.8324e-06	24.824	0.00012513	0.00011217	3.0276e-05	1076.6	1.2489e-06	1.243e-06	1161.5	219.68	1.2989e-06	1.1877e-06	276.56	77.676	61.118	18.022	1.2609e-06	25.044	-32.009	-108.657	-130.718	-154.803	-58.713	-43.450	-154.841	-147.533	-41.507	112.297	-147.769	-141.035	-141.366	-133.321	-0.168	-134.204	-8191	255	
1058.486	1	1	0	0	0.1016	0.10897	0.1107	0.27673	0.16869	0.1136	0.24211	0.046373	0.13948	0.12858	0.27191	0.3169	0.13944	0.20419	0.080846	0.070366	-1.4937	-1.7687	-1.0625	-2.3167	-1.2396	-1.4292	-2.3042	-1.2021	-1.8375	-1.8292	-1.3542	-2.1	-1.4729	-1.2771	-2.1333	-1.1437	-26.560	-29.744	193.739	156.805	152.089	-124.620	157.252	77.124	-99.246	-19.914	-100.639	101.581	-67.317	133.802	95.898	45.110	0.00040172	0.00026377	4.3789e-05	1095.2	1.5932e-06	2.9849e-06	1178.2	221.53	4.2102e-06	3.9067e-06	279.73	78.022	62.589	17.862	3.0569e-06	24.669	0.00013173	0.00011536	3.2002e-05	1078.1	1.309e-06	1.2624e-06	1160.7	219.49	1.2563e-06	1.2039e-06	276.1	77.668	61.158	17.94	1.2126e-06	24.923	-27.827	-47.295	-148.579	-154.658	-24.288	-24.579	-155.091	-147.282	-27.293	-3.873	-147.634	-141.001	-140.924	-133.806	-26.074	-134.123	-8191	255	
1058.583	1	1	0	0	0.47762	0.2238	0.10751	0.31643	0.30283	0.13203	0.28982	0.19481	0.090593	0.2697	0.086988	0.33741	0.014194	0.13101	0.073299	0.086727	-1.3021	-1.8646	-1.0417	-2.15	-1.4813	-1.2479	-2.3417	-1.225	-1.6833	-1.8708	-1.1604	-1.975	-1.5417	-1.1479	-2.2687	-1.275	-117.549	-152.702	61.339	87.221	-42.487	50.582	117.615	-117.456	80.498	-40.664	95.290	135.871	122.973	-106.233	-66.818	18.275	0.00036694	0.00035954	8.1524e-05	1095.1	9.742e-07	4.6999e-06	1178.8	221.87	3.9162e-06	2.6513e-06	281.48	77.702	62.723	17.967	6.8677e-06	24.972	0.00012825	0.00010978	3.123e-05	1074.7	1.2375e-06	1.1996e-06	1158.9	219.7	1.2662e-06	1.2234e-06	276.47	77.736	61.175	18.024	1.24e-06	25.083	-32.489	-81.335	-39.198	-154.515	-104.669	-20.210	-154.704	-147.474	-13.041	-49.253	-147.666	-141.323	-140.580	-133.120	-12.288	-133.954	-8191	255	
1058.679	1	1	0	0	0.15375	0.10563	0.15409	0.19584	0.18831	0.08974	0.19457	0.11673	0.22279	0.22519	0.35617	0.061851	0.12312	0.086594	0.31488	0.32923	-1.2458	-1.9396	-0.99375	-2.175	-1.6771	-1.2083	-2.1917	-1.5375	-1.3917	-2.0417	-1.1833	-2.0083	-1.6604	-1.3021	-2.0021	-1.4104	-164.113	-71.338	121.914	-128.814	63.596	-148.302	142.916	102.470	140.398	188.696	159.334	101.093	-117.041	121.253	-19.456	114.240	0.00040177	0.00014923	6.5776e-05	1092.2	3.0304e-06	2.0439e-06	1184.4	222.23	5.5623e-06	4.8625e-06	279.26	78.178	62.506	18.118	4.5186e-06	24.889	0.00013127	0.00011192	3.2274e-05	1073.8	1.3069e-06	1.2508e-06	1161.9	219.98	1.2853e-06	1.2118e-06	276.46	77.867	61.105	18.087	1.2574e-06	25.109	-26.424	-79.211	-65.471	-154.413	-35.655	-3.869	-154.665	-147.448	-24.291	-18.268	-147.601	-141.131	-140.393	-133.816	-20.190	-134.257	-8191	255	
1058.799	1	1	0	0	0.14324	0.22459	0.14888	0.22094	0.19586	0.080704	0.13386	0.1409	0.13588	0.072783	0.27594	0.24363	0.099435	0.12778	0.26065	0.071572	-0.875	-2.0542	-0.99583	-2.0438	-1.65	-1.0333	-2.1667	-1.4667	-1.3188	-2.1833	-1.4562	-1.9542	-1.8125	-1.0958	-2.0104	-1.5667	7.257	-49.920	183.146	162.310	-109.091	-119.987	-133.477	133.858	39.122	-84.040	106.438	177.452	119.660	191.865	-90.574	124.146	0.00044055	0.00049093	4.7844e-05	1094.8	5.1097e-06	3.0019e-06	1184.8	221.89	2.5742e-06	3.1785e-06	278.35	78.453	62.758	17.961	2.591e-06	24.645	0.00013838	0.00011714	3.3863e-05	1077.5	1.2958e-06	1.3547e-06	1165.1	220.1	1.3389e-06	1.3039e-06	275.87	78.092	61.417	18.011	1.2687e-06	25.007	-35.510	-86.218	-25.136	-154.509	-32.128	-63.175	-155.205	-147.615	11.032	-15.237	-148.083	-140.864	-141.213	-133.652	-21.053	-134.230	-8191	255	
1058.871	1	1	0	0	0.039233	0.27631	0.18055	0.1876	0.037692	0.14467	0.24255	0.22805	0.14183	0.11966	0.12453	0.13535	0.12606	0.17385	0.30882	0.14419	-0.84375	-1.9896	-1.2687	-1.8042	-1.9562	-0.88958	-2.0062	-1.6042	-1.2208	-2.0062	-1.2958	-1.5729	-1.8813	-1.0354	-1.8083	-1.6208	-58.502	-106.334	-74.224	105.721	64.500	-17.629	-157.206	-130.689	132.064	54.899	-119.979	-92.324	-130.594	-14.607	-38.095	-69.078	0.00036654	0.00046536	8.2135e-05	1092.5	4.4649e-06	4.392e-06	1183.2	221.75	3.3608e-06	2.6099e-06	280.57	77.897	62.757	17.854	3.2327e-06	25.12	0.0001388	0.00011851	3.3894e-05	1079.3	1.3377e-06	1.3035e-06	1164.7	220.05	1.3128e-06	1.2391e-06	277.1	77.801	61.08	18.016	1.2983e-06	25.129	-27.647	-77.091	-75.227	-154.703	11.058	25.220	-154.939	-147.488	-58.566	6.229	-147.935	-141.081	-141.200	-133.820	-14.323	-134.517	-8191	255	
1058.967	1	1	0	0	0.18192	0.17453	0.5695	0.36313	0.20163	0.1924	0.22853	0.036539	0.19678	0.17771	0.34363	0.035632	0.173	0.18944	0.10886	0.22837	-0.63125	-2.0125	-1.4188	-1.6125	-1.9062	-1.175	-2.1417	-1.9479	-0.98542	-2.0479	-1.3625	-1.5104	-1.9813	-1.0812	-1.6604	-1.8854	-71.051	89.856	170.514	161.120	105.513	-8.963	156.053	19.775	174.244	-23.622	155.448	119.512	-126.213	-56.358	170.065	18.914	0.00039685	0.00048769	5.5455e-05	1096.7	4.5581e-06	2.8765e-06	1179.7	222.01	4.9365e-06	2.2325e-06	278.98	78.357	62.002	17.921	1.8857e-06	24.927	0.00013752	0.00011876	3.331e-05	1077.3	1.4247e-06	1.3454e-06	1161.6	220.21	1.4588e-06	1.3916e-06	276.88	78.032	61.179	18.018	1.36e-06	25.113	-33.069	-64.564	-84.368	-154.820	-12.747	-6.495	-154.821	-147.568	-43.523	42.211	-147.703	-141.327	-140.835	-133.547	-26.422	-134.387	-8191	255	
1059.063	1	1	0	0	0.22498	0.16396	0.030134	0.19026	0.081217	0.16669	0.37565	0.2204	0.065364	0.22382	0.15359	0.18652	0.071461	0.17441	0.29166	0.071829	-0.89583	-2.0271	-1.3438	-1.4479	-2.225	-1.0854	-1.9	-2.0812	-0.94375	-1.9479	-1.6208	-1.3813	-2.1833	-1.3208	-1.4896	-1.9688	-19.588	-104.898	-44.451	180.744	-68.052	54.112	123.172	122.185	-77.947	-103.304	99.966	135.004	-36.147	-132.926	71.782	169.626	0.00036669	0.00043474	0.00010655	1094.2	4.6146e-06	2.3181e-06	1181.9	222.12	3.4792e-06	1.7671e-06	279.79	78.101	63.35	17.894	2.4744e-06	24.697	0.00014536	0.00012567	3.4652e-05	1078.2	1.4675e-06	1.3926e-06	1161.9	219.95	1.4459e-06	1.3583e-06	275.93	77.816	61.588	17.981	1.3792e-06	24.973	-26.242	-79.160	-73.843	-154.759	26.740	13.957	-154.727	-147.425	-62.320	25.518	-147.655	-141.002	-140.888	-133.566	-55.427	-134.021	-8191	255	
1059.184	1	1	0	0	0.26793	0.24742	0.099957	0.19263	0.049746	0.17377	0.25539	0.020601	0.059419	0.27515	0.29803	0.12679	0.16778	0.17296	0.17779	0.18114	-0.79583	-1.7583	-1.275	-1.3417	-1.9917	-1.2812	-1.7625	-2.0458	-0.99583	-1.9562	-1.6104	-1.1958	-2.0104	-1.3542	-1.3667	-2.1146	-103.559	74.646	33.567	163.634	-38.523	133.990	124.546	-46.502	155.924	-67.584	122.218	-48.779	-140.170	-22.005	-106.909	-144.483	0.00039901	0.00022876	3.7092e-05	1094.2	3.5042e-06	3.853e-06	1174.7	222.43	5.8458e-06	3.0393e-06	279.69	78.515	62.697	17.857	2.8887e-06	24.826	0.000145	0.00012474	3.5923e-05	1076.9	1.4962e-06	1.4304e-06	1161.4	220.56	1.5181e-06	1.4306e-06	276.36	78.161	61.212	18.02	1.5696e-06	25.049	-28.614	-103.729	114.292	-154.688	-36.745	-0.658	-155.102	-147.144	-14.238	-15.209	-147.689	-141.000	-140.950	-133.513	-13.644	-134.654	-8191	255	
1059.278	1	1	0	0	0.17413	0.11918	0.18639	0.10914	0.093003	0.25637	0.29629	0.1553	0.062925	0.27786	0.097591	0.16981	0.26956	0.23085	0.38709	0.23723	-0.55625	-1.6625	-1.5771	-1.2292	-2.2021	-1.5271	-1.3479	-2.0125	-1.1437	-1.6333	-1.7104	-1.2042	-2.1875	-1.3792	-1.4083	-2.0854	193.935	94.179	185.669	188.970	49.590	48.509	98.721	-149.983	33.094	171.186	158.051	-67.990	10.611	-95.138	181.719	161.861	0.00037363	0.00049639	2.2228e-05	1096	3.9477e-06	3.0291e-06	1187.3	222.23	5.9702e-06	5.3019e-06	278.97	78.315	63.248	17.918	4.4295e-06	24.703	0.00015993	0.00013795	3.8976e-05	1080.1	1.6152e-06	1.5786e-06	1165.8	220.56	1.6573e-06	1.5869e-06	276.74	78.09	61.687	18.063	1.6311e-06	25.113	-25.153	-47.691	-64.397	-154.856	-1.851	-41.836	-155.025	-147.179	-35.186	-1.819	-147.933	-141.009	-140.228	-133.179	41.240	-134.244	-8191	255	
1059.375	1	1	0	0	0.25085	0.2831	0.12958	0.44414	0.1583	0.046194	0.28075	0.29027	0.045573	0.069496	0.21615	0.13862	0.094906	0.089091	0.15301	0.19062	-0.55208	-1.5958	-1.9792	-1.35	-1.9125	-1.5833	-1.4438	-2.1562	-1.2062	-1.5375	-1.9688	-1.0938	-1.9229	-1.5521	-1.1146	-2.0979	-2.927	-2.763	-38.623	154.373	-24.099	-108.174	84.882	128.868	-25.439	-101.036	-129.091	168.910	13.870	1.135	-5.606	54.732	0.00043016	0.0001844	7.0307e-05	1101.8	2.832e-06	3.6229e-06	1188.6	222.26	4.9747e-06	3.117e-06	281.13	78.278	62.631	17.882	2.9875e-06	24.949	0.00016131	0.00014159	4.0024e-05	1083.7	1.5962e-06	1.5615e-06	1168.9	220.98	1.6462e-06	1.4712e-06	277.45	78.076	61.571	18.031	1.5139e-06	25.094	-25.228	-80.508	-125.218	-154.532	-40.085	-20.855	-154.819	-147.290	-48.788	6.894	-147.956	-140.997	-140.585	-133.533	-20.878	-133.960	-8191	255	
1059.471	1	1	0	0	0.031497	0.17684	0.275	0.10097	0.091867	0.12042	0.14539	0.187	0.14238	0.26238	0.09338	0.27455	0.21553	0.18396	0.15612	0.038714	-0.78542	-1.4979	-1.8896	-1.1917	-1.775	-1.5083	-1.2583	-2.1333	-1.2667	-1.6667	-2.1188	-1.1688	-1.8333	-1.7563	-1.1187	-2.1813	-40.492	134.369	-37.389	70.968	-21.116	12.441	60.067	103.933	-122.815	144.430	153.011	-133.533	-44.445	-118.676	-34.822	69.813	0.00035521	0.00042541	0.00011604	1097.8	4.3054e-06	2.0831e-06	1187.7	223.04	3.5618e-06	1.9715e-06	280.82	78.336	62.685	17.933	1.9101e-06	25.012	0.00015632	0.00013766	3.7023e-05	1082.1	1.5899e-06	1.5114e-06	1169.3	221.17	1.5402e-06	1.5121e-06	277.23	77.883	61.773	18.046	1.5087e-06	25.153	-26.372	-44.937	-64.394	-154.600	-29.780	6.091	-154.473	-147.274	-29.819	-47.709	-147.980	-140.839	-139.981	-133.739	61.904	-133.817	-8191	255	
1059.567	1	1	0	0	0.12155	0.084014	0.024806	0.32185	0.033155	0.19282	0.29311	0.037917	0.38659	0.31358	0.11838	0.18968	0.2793	0.13506	0.20961	0.11047	-1.1146	-1.3625	-2.0396	-1.2854	-1.7354	-1.7792	-1.3104	-2.2354	-1.2979	-1.3021	-2.1979	-1.2729	-1.8312	-1.7563	-0.90208	-2.1604	53.756	38.135	-9.217	146.139	188.586	-160.141	133.459	53.750	163.383	179.883	83.386	173.508	188.174	140.612	-88.562	144.207	0.00040851	0.00032858	7.6707e-05	1101.5	2.7507e-06	2.7492e-06	1182.2	224.21	4.0656e-06	3.4946e-06	280.44	78.473	62.514	17.928	1.829e-06	24.945	0.00015835	0.00013913	3.9902e-05	1081.8	1.5846e-06	1.5925e-06	1166	221.33	1.6316e-06	1.5925e-06	277.31	78.051	61.403	18.058	1.6219e-06	25.143	-34.965	-94.394	-109.797	-154.375	-123.986	38.233	-154.573	-147.031	-58.075	-49.976	-147.605	-140.804	-141.188	-132.829	-39.604	-134.015	-8191	255	
1059.663	1	1	0	0	0.072119	0.10144	0.33426	0.11925	0.11956	0.28707	0.20092	0.13997	0.1195	0.11435	0.24962	0.168	0.2586	0.018379	0.35952	0.19792	-1.0271	-1.2354	-2.1146	-1.1646	-1.55	-1.8625	-1.0438	-2.1542	-1.6271	-1.4146	-2.2292	-1.4271	-1.5896	-2.0021	-1.0479	-2.1125	67.050	11.675	121.662	116.943	-160.912	-14.077	133.225	173.344	-90.996	157.925	-148.790	88.898	183.121	-136.666	-18.190	188.957	0.00040251	0.00045562	7.6182e-05	1098.6	3.4682e-06	2.5525e-06	1189.3	222.81	4.9999e-06	4.6096e-06	278.25	78.118	62.495	17.945	3.9153e-06	24.871	0.00016288	0.00015649	4.1528e-05	1080.1	1.6653e-06	1.6397e-06	1167.8	221.17	1.632e-06	1.6281e-06	276.92	78.109	61.318	18.077	1.6408e-06	25.059	-35.140	-76.331	-33.579	-154.631	-19.665	-13.809	-154.476	-147.293	-29.151	-14.263	-147.266	-141.116	-140.362	-133.446	-28.873	-134.136	-8191	255	
1059.784	1	1	0	0	0.075423	0.15149	0.15728	0.17831	0.14764	0.075331	0.47911	0.17952	0.13511	0.28967	0.099976	0.123	0.16319	0.18207	0.10834	0.10277	-1.35	-1.1333	-2.1063	-1.3417	-1.5875	-2.0458	-1.2542	-1.8625	-1.6958	-1.1437	-2.2604	-1.6104	-1.5479	-2.0833	-1.1396	-1.8271	-78.424	131.835	169.778	-160.275	-66.090	123.386	66.419	-152.590	75.119	190.087	78.892	-144.749	161.884	-155.515	41.943	26.905	0.00038989	0.00040633	0.00011901	1097.4	3.5649e-06	3.5908e-06	1186.2	223.71	2.2076e-06	2.1776e-06	280.61	78.065	62.479	17.886	4.8581e-06	24.796	0.00016426	0.00014946	4.0016e-05	1079.3	1.6983e-06	1.6075e-06	1167.3	221.29	1.5984e-06	1.6554e-06	277.46	77.795	61.451	18.027	1.6225e-06	25.118	-28.679	-51.851	-43.586	-154.319	-16.182	-5.018	-154.561	-146.856	-43.403	4.556	-147.366	-140.860	-139.937	-133.040	1.606	-133.999	-8191	255	
1059.880	1	1	0	0	0.31162	0.1022	0.045878	0.26752	0.1292	0.12915	0.24407	0.093896	0.16485	0.088397	0.14419	0.081938	0.22074	0.1445	0.23438	0.13397	-1.4542	-0.85208	-2.0583	-1.525	-1.4146	-2.1583	-1.2625	-1.6688	-1.7687	-1.1146	-1.9604	-1.5583	-1.0562	-2.1646	-1.2062	-1.8458	66.912	90.074	-102.717	-147.373	120.906	62.731	54.920	123.952	193.911	-112.218	108.127	-80.443	146.364	115.440	118.655	-111.472	0.00039405	0.00034138	0.00015916	1103	4.7518e-06	2.9468e-06	1188.3	223.7	3.3787e-06	2.8888e-06	280.49	78.139	62.608	17.836	4.8432e-06	24.587	0.00016052	0.00014927	4.0948e-05	1080.1	1.68e-06	1.616e-06	1169.5	221.51	1.6301e-06	1.6197e-06	277.76	78.06	61.39	18.023	1.6067e-06	25.02	-36.726	-79.701	-73.866	-154.548	1.738	-12.579	-154.772	-147.218	-48.675	-49.124	-147.443	-141.128	-140.654	-133.100	-42.186	-133.561	-8191	255	
1059.976	1	1	0	0	0.20259	0.36809	0.11156	0.1012	0.15202	0.2316	0.32102	0.20208	0.31276	0.24765	0.11665	0.11288	0.27519	0.24389	0.23475	0.20676	-1.525	-1.1458	-1.9188	-1.6021	-1.2062	-2.0104	-1.5271	-1.75	-2.0604	-1.0771	-1.8854	-1.6896	-0.97708	-2.2812	-1.2792	-1.5292	162.654	34.432	-79.599	108.857	105.646	-68.631	137.240	188.616	-31.003	-71.048	157.671	-42.782	-78.518	52.667	123.072	41.929	0.00039379	0.00041292	0.00010045	1099.4	4.3965e-06	3.0719e-06	1185	222.89	4.7631e-06	3.0825e-06	278.85	78.143	62.779	18.018	2.5112e-06	24.766	0.00016059	0.00014963	3.8411e-05	1081.5	1.6487e-06	1.5848e-06	1166.1	221.44	1.6231e-06	1.6065e-06	277.51	78.143	61.512	18.144	1.5894e-06	25.061	-29.690	-104.481	-66.522	-154.611	-12.989	-3.892	-154.721	-147.396	-12.721	-30.623	-147.584	-140.691	-140.027	-133.548	39.954	-133.645	-8191	255	
1060.072	1	1	0	0	0.10506	0.048574	0.25136	0.14672	0.27278	0.13823	0.065298	0.12102	0.11352	0.13943	0.038476	0.1596	0.10612	0.17684	0.26592	0.17328	-1.6562	-1.1667	-1.9458	-1.75	-1.2208	-2.0625	-1.4625	-1.6792	-2.1521	-0.93958	-2.0708	-2.0604	-1.175	-2.1229	-1.2292	-1.5146	164.874	-13.875	34.866	164.690	90.188	70.269	-132.196	99.718	126.790	95.831	169.331	22.764	110.484	-116.649	57.025	-143.398	0.0003757	0.00032254	8.6002e-05	1094.1	2.653e-06	2.0199e-06	1181.5	223.55	3.4296e-06	1.3231e-06	280.64	78.792	63.043	17.942	1.555e-06	24.808	0.00015806	0.00014244	3.9887e-05	1080.5	1.6467e-06	1.5708e-06	1164.3	221.41	1.6239e-06	1.6021e-06	277.19	78.316	61.747	18.092	1.6685e-06	25.129	-40.835	-33.334	-50.585	-154.962	-72.684	-43.979	-154.750	-147.167	-52.492	-22.960	-147.402	-141.339	-140.701	-133.229	-3.884	-133.999	-8191	255	
1060.166	1	1	0	0	0.17347	0.20991	0.077081	0.094857	0.1035	0.29808	0.17239	0.18395	0.035196	0.22603	0.14564	0.058592	0.20194	0.091367	0.12509	0.14574	-1.725	-1.0396	-1.7229	-1.8208	-1.0479	-1.9979	-1.6271	-1.3875	-1.9188	-1.0812	-1.8146	-1.8771	-1.0854	-2.0187	-1.4188	-1.2458	145.134	-78.711	14.975	125.734	136.113	127.499	77.589	141.786	72.963	147.027	131.770	181.173	68.991	-125.958	96.277	104.676	0.00036686	0.00039382	0.00011887	1096.6	2.9498e-06	2.1865e-06	1184.4	224.17	2.9011e-06	3.3574e-06	279.76	78.61	62.416	18.038	2.6928e-06	24.884	0.00016321	0.00014557	4.0546e-05	1080.2	1.6983e-06	1.5733e-06	1167	221.62	1.6727e-06	1.6053e-06	277.8	78.218	61.612	18.087	1.6122e-06	25.102	-31.809	-71.242	-83.246	-154.843	-48.895	1.013	-155.035	-146.991	-32.817	-41.841	-147.542	-141.166	-140.825	-133.138	-61.401	-133.657	-8191	255	
1060.263	1	1	0	0	0.16679	0.12043	0.12284	0.12161	0.080654	0.2631	0.2462	0.19046	0.17376	0.27176	0.36642	0.040995	0.20868	0.20325	0.16647	0.17455	-1.6521	-1.1979	-1.5042	-1.9333	-1.0396	-1.9042	-1.7083	-1.2938	-2.1792	-1.525	-1.6646	-2.1146	-1.3042	-1.9292	-1.8354	-1.3042	13.306	182.193	88.755	147.726	92.712	-28.462	-126.332	171.418	-7.772	-48.593	93.896	144.628	-154.499	144.337	101.584	-161.634	0.00041798	0.00018739	5.6294e-05	1098.3	2.4541e-06	3.2307e-06	1177.3	222.31	4.8972e-06	4.6263e-06	280.18	78.391	62.809	18.052	3.7314e-06	24.867	0.00016532	0.0001451	3.9806e-05	1080.7	1.7018e-06	1.5953e-06	1163.8	221.43	1.6099e-06	1.6384e-06	277.81	78.226	61.512	18.107	1.5746e-06	25.062	-28.378	-100.985	-116.633	-154.740	14.143	2.610	-154.613	-147.097	-15.893	-39.348	-147.532	-141.336	-140.428	-133.493	-21.562	-134.100	-8191	255	
1060.359	1	1	0	0	0.1929	0.18133	0.24271	0.28825	0.16913	0.24577	0.20185	0.19467	0.15784	0.14026	0.23041	0.16253	0.29464	0.13322	0.19001	0.27029	-1.7354	-1.5042	-1.3729	-2.0687	-1.0625	-1.7188	-1.9646	-1.1167	-2.15	-1.4625	-1.4188	-2.0729	-1.1854	-1.8396	-1.8021	-1.1458	124.844	192.401	34.415	-138.258	55.282	-15.802	141.116	120.314	-60.573	-71.347	-34.663	-156.155	132.160	81.993	-130.311	115.788	0.00039858	0.00041095	5.6288e-05	1099.4	3.0606e-06	1.6002e-06	1182.9	223.42	2.5865e-06	4.7104e-06	280.7	78.533	62.305	18.033	3.8688e-06	24.997	0.00015655	0.00014155	4.0861e-05	1082.6	1.6377e-06	1.5512e-06	1166.3	221.36	1.6238e-06	1.5713e-06	277.31	78.092	61.527	18.134	1.5967e-06	25.135	-27.457	-26.855	-15.782	-154.683	-14.662	-32.552	-154.812	-147.053	-64.538	22.783	-147.594	-140.814	-140.478	-133.642	-35.125	-134.372	-8191	255	
1060.455	1	1	0	0	0.23759	0.099495	0.16037	0.069312	0.20834	0.1739	0.13897	0.2687	0.20056	0.087856	0.099853	0.092637	0.07165	0.069068	0.19846	0.18276	-1.6229	-1.4667	-1.3271	-2.0083	-1.15	-1.7417	-2.0875	-1.0208	-1.8958	-1.4229	-1.2667	-2.275	-1.2083	-1.6896	-1.9312	-1.2375	71.764	-51.221	-90.591	80.825	-39.506	33.570	103.343	58.465	-24.501	-101.803	-143.977	138.163	-118.888	106.370	108.775	144.498	0.00039048	0.00037651	0.00013925	1096	4.0571e-06	3.9514e-06	1188.8	223.37	6.1764e-06	4.0001e-06	277.92	78.224	62.49	17.988	2.6751e-06	24.902	0.00015797	0.00014181	3.9592e-05	1080	1.6343e-06	1.5396e-06	1168.9	221.52	1.5726e-06	1.5016e-06	277.22	78.087	61.515	18.111	1.5509e-06	25.142	-26.240	-85.616	-68.757	-154.732	-18.949	-29.484	-154.955	-147.471	-45.748	-38.225	-147.912	-141.502	-141.113	-133.695	-27.702	-134.167	-8191	255	
1060.576	1	1	0	0	0.11191	0.13597	0.18447	0.33987	0.22654	0.27516	0.27048	0.28848	0.1833	0.36375	0.12392	0.23737	0.028239	0.29682	0.12136	0.35493	-1.5208	-1.6042	-1.1646	-2.2646	-1.1125	-1.5354	-2.1792	-1.1083	-1.7271	-1.875	-1.2375	-2.3104	-1.3271	-1.5938	-2.0792	-1.2125	123.121	42.407	-73.038	131.518	-58.137	188.475	95.340	129.976	58.143	54.384	-130.795	179.878	-118.162	-123.409	-43.713	139.097	0.00042168	0.00031401	0.00011742	1098.4	2.3452e-06	1.4162e-06	1187.6	223.52	4.4968e-06	4.5089e-06	279.35	77.808	63.149	18.131	4.2085e-06	24.89	0.00015237	0.0001342	3.9163e-05	1082.3	1.5454e-06	1.4547e-06	1167.8	220.98	1.5539e-06	1.4566e-06	277.15	77.971	61.51	18.15	1.5209e-06	25.131	-32.087	-83.824	-96.199	-154.898	-55.929	0.307	-155.040	-147.408	-39.855	-16.797	-147.874	-141.415	-140.710	-133.507	8.861	-134.188	-8191	255	
1060.672	1	1	0	0	0.13212	0.15182	0.30751	0.12877	0.29274	0.069739	0.42687	0.14174	0.22777	0.16192	0.13305	0.3899	0.21769	0.030774	0.21046	0.16923	-1.3833	-1.9271	-1.1125	-2.2229	-1.4667	-1.3729	-2.1813	-1.2938	-1.775	-1.7875	-1.1	-1.9	-1.3042	-1.3458	-1.9604	-1.2979	176.271	40.704	22.829	87.695	186.858	182.698	155.857	88.849	-107.023	-78.883	175.614	160.055	-130.540	152.522	102.470	100.279	0.00032859	0.00048781	0.00015004	1098.5	1.7356e-06	1.9345e-06	1190.4	223.75	4.6946e-06	2.7379e-06	281.22	77.788	63.229	18.105	5.2771e-06	25.023	0.00015433	0.00013195	3.8107e-05	1082	1.5121e-06	1.4811e-06	1169	221.14	1.5066e-06	1.5191e-06	278	78.053	61.644	18.148	1.5321e-06	25.154	-27.974	-84.142	-70.454	-154.784	11.971	84.376	-155.008	-147.206	-33.090	-58.364	-147.620	-141.293	-141.071	-133.409	-11.142	-134.238	-8191	255	
1060.743	1	1	0	0	0.22027	0.18655	0.21746	0.025339	0.041371	0.065375	0.070592	0.075737	0.1237	0.21801	0.15273	0.12713	0.12123	0.14418	0.17136	0.09377	-1.4	-1.9458	-1.025	-2.0625	-1.4813	-1.1458	-2.1792	-1.3604	-1.7354	-2.1021	-1.1313	-2.0312	-1.925	-1.1542	-2.1729	-1.1875	167.488	-12.483	-26.238	-83.776	81.921	-146.133	108.660	80.368	147.040	-30.464	36.825	128.332	155.412	92.613	-99.057	96.755	0.0004203	0.00015121	0.00015862	1098.8	1.5129e-06	3.8752e-06	1183.9	223.43	1.7854e-06	4.8885e-06	281.23	78.324	62.661	18.082	3.6616e-06	24.895	0.00015464	0.0001378	3.769e-05	1082.4	1.627e-06	1.5233e-06	1168.2	221.34	1.544e-06	1.4987e-06	277.8	78.142	61.391	18.172	1.5135e-06	25.125	-32.428	-96.730	-85.018	-154.501	-3.895	17.544	-154.831	-147.280	-98.561	43.811	-147.692	-140.984	-141.033	-132.986	2.513	-134.049	-8191	255	
1060.864	1	1	0	0	0.18157	0.15349	0.069567	0.043081	0.21319	0.33685	0.34336	0.051457	0.081254	0.095587	0.2245	0.073645	0.20363	0.21252	0.14709	0.12857	-1.0729	-2.0229	-1.1542	-2.0833	-1.6396	-1.2208	-2.1646	-1.3563	-1.4521	-2.05	-1.1792	-1.6583	-1.7375	-1.0938	-1.9521	-1.4542	-0.887	177.322	156.660	11.598	-98.994	71.396	88.831	122.379	3.479	-86.598	148.658	71.413	47.412	133.420	99.450	-129.181	0.00043057	6.6983e-05	9.3555e-05	1102.5	2.6345e-06	2.9786e-06	1186.7	223.38	2.6005e-06	8.7473e-06	279.65	78.335	62.58	18.061	2.3507e-06	24.74	0.00016035	0.00014286	4.084e-05	1084.4	1.6338e-06	1.6552e-06	1169.4	221.66	1.6687e-06	1.5938e-06	277.66	78.259	61.433	18.147	1.6298e-06	25.104	-30.560	189.694	-8.243	-154.656	10.760	-28.120	-154.647	-147.467	11.918	-8.247	-147.812	-140.984	-141.138	-133.706	32.600	-134.067	-8191	255	
1060.960	1	1	0	0	0.10587	0.18593	0.14722	0.27458	0.099909	0.20411	0.17427	0.33515	0.13959	0.16212	0.27615	0.049626	0.10815	0.25807	0.29015	0.16409	-0.85417	-1.9937	-1.0625	-1.875	-1.7271	-1.0646	-2.1875	-1.5688	-1.3312	-2.0229	-1.3396	-1.7458	-1.9562	-1.1938	-1.9042	-1.4688	121.832	101.727	20.396	119.270	144.596	-135.355	34.271	107.151	-107.150	-106.168	129.484	-25.677	-126.421	155.397	101.437	-146.849	0.00041688	0.00033077	7.1655e-05	1103.1	3.4135e-06	3.4619e-06	1189.1	222.96	5.2408e-06	6.355e-06	280.94	78.834	62.692	18.052	5.561e-06	24.761	0.00016606	0.00014471	4.0521e-05	1085.3	1.6208e-06	1.6063e-06	1170.1	221.57	1.6712e-06	1.5873e-06	277.92	78.478	61.599	18.178	1.5587e-06	25.133	-29.175	-67.905	-135.843	-154.609	23.964	-14.977	-155.078	-147.581	-34.207	-39.877	-148.086	-141.150	-140.980	-133.426	-9.136	-134.396	-8191	255	
1061.056	1	1	0	0	0.27523	0.05496	0.27179	0.21158	0.30125	0.11205	0.11524	0.26794	0.042795	0.072077	0.2723	0.23094	0.062462	0.17236	0.091179	0.23438	-0.77083	-2.0875	-1.0167	-1.7833	-1.9021	-1.0208	-2.0083	-1.5667	-1.1396	-2.0625	-1.3333	-1.5042	-1.9042	-0.9125	-1.6396	-1.6271	-96.132	30.456	188.169	171.252	-158.251	-88.305	-164.234	-156.177	144.833	-105.680	-163.636	65.452	97.594	-81.795	149.594	-108.179	0.00036181	0.00022764	5.6093e-05	1103.4	4.2619e-06	3.0643e-06	1194	222.78	4.1592e-06	4.7682e-06	281.98	78.294	62.433	17.973	5.0941e-06	24.897	0.00016267	0.00014372	3.9248e-05	1086.4	1.64e-06	1.5942e-06	1173.9	221.4	1.6361e-06	1.5777e-06	278	78.444	61.562	18.155	1.5509e-06	25.153	-27.181	-142.903	-128.336	-154.637	-17.187	-25.982	-154.945	-147.443	-32.157	-0.411	-147.872	-140.972	-141.540	-133.594	16.679	-134.060	-8191	255	
1061.152	1	1	0	0	0.15228	0.25279	0.11901	0.3168	0.27955	0.22993	0.33124	0.47004	0.19005	0.39025	0.24112	0.14294	0.077084	0.3684	0.23542	0.36223	-0.68542	-2.0667	-1.2979	-1.6167	-2.0062	-1.0729	-1.9646	-1.7958	-1.2167	-1.8979	-1.4771	-1.5396	-2.1208	-1.1562	-1.7	-1.6854	-56.983	-80.712	-78.201	157.052	162.209	185.670	122.058	78.795	99.038	170.495	15.739	30.629	-95.432	151.736	-46.320	146.895	0.00041081	8.2144e-05	6.2334e-05	1101.2	1.4749e-06	2.2457e-06	1189.9	224	6.3326e-06	2.1567e-06	279.8	79.005	63.041	17.882	3.3204e-06	25.06	0.0001621	0.00013811	3.9486e-05	1086.6	1.5541e-06	1.5565e-06	1171.1	222.03	1.6307e-06	1.5105e-06	277.54	78.396	61.585	18.088	1.5175e-06	25.176	-31.511	-100.486	-109.426	-154.757	-57.450	83.402	-154.886	-147.722	-33.989	-70.408	-148.019	-141.190	-141.184	-133.768	-3.222	-134.243	-8191	255	
1061.271	1	1	0	0	0.10208	0.38575	0.044499	0.30772	0.16676	0.14239	0.22056	0.20833	0.14953	0.10578	0.13503	0.093755	0.25493	0.17737	0.24857	0.39921	-0.78542	-2.1292	-1.4062	-1.5167	-2.0208	-1.0792	-1.7979	-1.9667	-0.96042	-1.9188	-1.7979	-1.35	-1.9208	-1.0688	-1.3667	-1.7958	69.667	-91.475	101.073	144.344	64.826	12.361	127.656	181.935	98.901	42.970	-124.447	169.865	83.864	-93.481	-147.597	162.803	0.00048332	0.00043251	7.6925e-05	1102.6	4.311e-07	2.6536e-06	1188.6	222.45	4.0432e-06	4.2555e-06	281.14	78.38	62.325	18.094	2.1594e-06	24.68	0.000158	0.00013995	3.8884e-05	1086.5	1.6182e-06	1.5912e-06	1171.8	221.54	1.621e-06	1.4898e-06	277.96	78.31	61.611	18.158	1.5172e-06	25.101	-38.805	-112.073	-144.732	-154.495	105.611	37.228	-154.923	-147.384	-41.269	6.259	-147.916	-141.018	-140.814	-133.822	-3.894	-134.516	-8191	255	
1061.367	1	1	0	0	0.19274	0.032283	0.042981	0.3169	0.091633	0.12639	0.052961	0.39495	0.20542	0.020506	0.19871	0.096782	0.2792	0.12319	0.12382	0.23926	-0.71042	-1.7687	-1.4188	-1.3792	-2.0271	-1.2687	-1.8625	-2.0687	-0.92708	-1.9125	-1.6771	-1.1917	-1.9646	-1.3646	-1.5646	-2.0458	63.851	-11.722	18.731	166.104	127.469	-96.776	-1.226	118.378	-43.411	191.919	126.383	145.592	141.634	-103.524	93.775	-83.744	0.00041836	0.00045715	2.5108e-05	1101.8	2.0965e-06	2.1185e-06	1190.7	224.86	5.2201e-06	1.664e-06	280.58	78.475	63.205	18.1	1.9907e-06	24.953	0.00016079	0.00013669	3.871e-05	1085.7	1.5716e-06	1.5433e-06	1171.9	222.26	1.626e-06	1.494e-06	278.41	78.221	61.666	18.154	1.5238e-06	25.157	-36.819	-89.646	-104.435	-154.619	-149.260	-66.557	-155.012	-147.360	-20.579	89.195	-147.902	-141.169	-141.174	-133.659	-52.190	-134.495	-8191	255	
1061.464	1	1	0	0	0.33143	0.28158	0.23367	0.18464	0.13112	0.24494	0.32455	0.22645	0.12496	0.10908	0.18438	0.20351	0.040034	0.036506	0.16229	0.019655	-0.78125	-1.775	-1.5583	-1.1333	-2.0292	-1.2812	-1.4167	-2.0625	-0.98333	-1.7188	-1.8687	-1.0542	-2.0521	-1.3021	-1.2729	-2.275	-116.149	-80.407	-160.648	153.144	102.677	-157.336	130.064	84.812	-127.292	-115.063	97.404	-61.347	194.245	68.232	-124.209	125.329	0.00038969	0.00011822	6.4498e-05	1100.4	3.3156e-06	9.9383e-07	1192.4	224.24	3.6185e-06	3.06e-06	282.06	78.353	62.961	18.033	2.4659e-06	24.756	0.00015792	0.00014198	3.8188e-05	1084.9	1.6117e-06	1.5862e-06	1174.7	222.38	1.5869e-06	1.5422e-06	278.71	78.22	61.578	18.155	1.5567e-06	25.203	-32.182	-11.355	-68.919	-154.738	-31.998	64.321	-154.912	-147.449	-47.642	-26.188	-147.843	-141.062	-140.887	-133.145	-25.787	-134.064	-8191	255	
1061.560	1	1	0	0	0.13471	0.13962	0.089512	0.38383	0.16917	0.015825	0.13204	0.2091	0.10712	0.17127	0.2467	0.24379	0.1406	0.22394	0.20496	0.1984	-0.89375	-1.6625	-1.75	-1.2167	-2.0312	-1.2167	-1.3813	-2.15	-0.99375	-1.6542	-2.0833	-1	-1.8417	-1.5646	-1.3021	-2.1021	-26.110	0.967	154.082	95.765	-71.208	88.915	177.883	1.095	190.091	-55.201	130.960	151.850	-92.016	-36.948	113.505	168.598	0.00039035	0.00036644	2.9741e-05	1099.5	1.4444e-06	1.7152e-06	1190.2	224.45	7.1301e-06	3.9688e-06	281.41	78.378	63.12	18.042	2.8286e-06	24.856	0.00015855	0.00013626	3.7856e-05	1085.9	1.5546e-06	1.5045e-06	1172.7	222.08	1.5656e-06	1.5325e-06	278.11	78.295	61.8	18.174	1.5271e-06	25.206	-30.347	-88.700	-103.430	-154.679	-47.422	-51.120	-154.829	-147.479	-17.699	-65.953	-147.686	-141.420	-141.117	-133.726	5.498	-134.156	-8191	255	
1061.656	1	1	0	0	0.1785	0.054174	0.10571	0.183	0.12274	0.16341	0.034837	0.37291	0.29938	0.15048	0.20003	0.034841	0.11176	0.22748	0.12325	0.17185	-0.82917	-1.3458	-2.0896	-1.1917	-2.0687	-1.7646	-1.3292	-2.1958	-1.2646	-1.4708	-1.9833	-1.1229	-1.775	-1.7708	-1.1187	-1.9937	107.075	54.746	-155.298	163.102	109.238	162.424	52.581	137.827	-31.871	73.081	97.128	169.841	-62.860	-153.507	-28.379	171.381	0.0003851	0.00034359	6.0857e-05	1102.6	3.0606e-06	3.8974e-06	1195	224.09	2.9064e-06	3.4205e-06	281.66	79.139	63.093	17.998	3.551e-06	24.899	0.00015764	0.00013751	3.8963e-05	1085.5	1.5789e-06	1.5015e-06	1172.3	221.57	1.5566e-06	1.5178e-06	278.19	78.347	61.698	18.073	1.597e-06	25.161	-34.217	-95.458	-105.190	-154.760	-70.086	-14.597	-154.939	-147.333	-26.719	-22.490	-147.854	-141.403	-140.947	-133.717	21.619	-134.055	-8191	255	
1061.752	1	1	0	0	0.12191	0.20535	0.20314	0.26575	0.11632	0.23858	0.24166	0.088761	0.19571	0.11242	0.20072	0.33011	0.13756	0.20748	0.20422	0.24051	-0.91875	-1.3833	-2.0438	-1.225	-1.7208	-1.8583	-1.2938	-1.9396	-1.5312	-1.2667	-2.1271	-1.1938	-1.7646	-1.9104	-1.1812	-2.0271	106.969	-45.058	96.522	111.447	-103.203	129.203	90.907	66.549	71.246	-118.218	83.306	162.791	57.678	-108.482	64.145	113.813	0.00039293	0.00025891	8.2743e-05	1099.6	3.0656e-06	1.685e-06	1190.8	224.3	1.2819e-06	1.8572e-06	279.54	79.084	63.447	18.122	1.1199e-06	24.937	0.00015181	0.00013636	3.6876e-05	1084.2	1.547e-06	1.5002e-06	1171.7	221.97	1.5173e-06	1.5023e-06	277.79	78.495	61.755	18.185	1.49e-06	25.151	-33.933	-26.513	-45.583	-154.816	-77.467	4.700	-154.577	-147.499	-66.895	-84.268	-147.870	-141.440	-140.848	-133.759	-16.960	-133.924	-8191	255	
1061.873	1	1	0	0	0.23403	0.1781	0.11952	0.27599	0.13272	0.021101	0.41745	0.056017	0.17828	0.13461	0.16327	0.24702	0.14305	0.13897	0.15552	0.10867	-1.1938	-1.1	-1.9854	-1.1854	-1.7021	-1.8271	-1.2333	-2.1167	-1.6583	-1.3312	-1.9583	-1.2979	-1.4083	-2.0208	-1.0604	-1.9146	131.925	55.994	-106.677	133.086	-92.051	-36.085	177.908	-99.431	185.690	-106.972	118.835	131.728	52.977	107.346	-147.403	65.116	0.00039432	0.00024957	5.6086e-05	1099.1	2.6817e-06	3.6436e-06	1187.8	224.72	3.9274e-06	3.2891e-06	280	78.204	63.884	17.957	3.7887e-06	25.008	0.0001523	0.00013457	3.6305e-05	1083.2	1.506e-06	1.4398e-06	1171	222.25	1.4651e-06	1.4738e-06	277.46	78.113	61.788	18.147	1.4632e-06	25.165	-29.123	-111.486	-48.610	-154.461	-51.015	-40.708	-154.620	-147.183	-4.715	-30.421	-147.896	-140.716	-140.760	-133.358	-12.438	-134.031	-8191	255	
1061.969	1	1	0	0	0.14319	0.20877	0.077189	0.23217	0.054713	0.12432	0.10673	0.20733	0.18033	0.13227	0.18117	0.24964	0.21316	0.064029	0.25051	0.18843	-1.4208	-1.1708	-1.8917	-1.575	-1.4229	-1.9792	-1.3188	-1.8396	-1.6271	-0.96667	-1.9896	-1.3625	-1.4417	-2.0938	-1.0396	-1.8479	-102.607	-87.993	112.157	133.529	3.005	186.355	159.687	78.295	-74.717	-123.517	130.929	59.174	-95.841	-48.777	178.251	-7.901	0.00042497	0.00050609	8.5866e-05	1104.5	2.2226e-06	2.271e-06	1189.7	223.85	2.4125e-06	3.4876e-06	281.56	78.271	62.558	17.977	4.3843e-06	24.654	0.00014592	0.00013159	3.605e-05	1085.1	1.4013e-06	1.4e-06	1170.5	221.83	1.4065e-06	1.3988e-06	278.15	78.028	61.547	18.088	1.4277e-06	25.044	-25.666	-70.182	-98.261	-154.777	-30.630	-7.935	-154.635	-147.195	-30.244	3.122	-147.314	-141.071	-141.063	-133.637	-26.560	-133.582	-8191	255	
1062.041	1	1	0	0	0.12537	0.19827	0.073181	0.30629	0.084807	0.046175	0.31588	0.21207	0.34718	0.080591	0.10438	0.1541	0.24948	0.32974	0.31268	0.18324	-1.4042	-1.0958	-2.0792	-1.5021	-1.3854	-2.0604	-1.2896	-1.8687	-1.8021	-1.1146	-2.1396	-1.5833	-1.1938	-2.1333	-1.1313	-1.7062	70.341	57.516	153.890	145.716	-14.340	-55.524	152.271	-142.826	178.213	100.708	5.373	161.063	89.725	82.754	-112.848	99.589	0.00035911	0.00031905	7.7684e-05	1098.6	4.3093e-06	3.9327e-06	1189.7	224.29	4.9863e-06	4.0477e-06	280.5	79.181	63.119	17.962	5.0127e-06	24.956	0.00014598	0.00012729	3.3788e-05	1081.8	1.4262e-06	1.3838e-06	1170.8	221.88	1.4407e-06	1.4312e-06	277.77	78.498	61.392	18.09	1.4773e-06	25.193	-30.564	-106.127	-41.912	-154.931	-20.728	-2.151	-154.773	-147.083	-60.849	-61.904	-147.359	-140.821	-140.732	-133.192	-1.624	-133.844	-8191	255	
1062.137	1	1	0	0	0.14733	0.10039	0.068044	0.18211	0.15345	0.26302	0.18253	0.19398	0.11679	0.26224	0.16803	0.17478	0.13949	0.17299	0.30836	0.31945	-1.5479	-0.96667	-1.8312	-1.7188	-1.1938	-2.15	-1.6938	-1.7771	-1.9896	-1.1396	-2.0458	-1.8917	-1.1271	-2.3125	-1.2771	-1.7125	-40.427	157.195	-114.816	189.570	-27.790	-80.568	92.334	-163.875	42.640	3.981	-37.219	-3.682	136.659	193.410	58.612	61.800	0.00043122	0.00025191	9.3113e-05	1099.9	2.3502e-06	1.0261e-06	1188.4	223.44	4.564e-06	5.097e-06	280.59	78.32	63.022	17.962	2.0308e-06	24.947	0.00014396	0.00013145	3.5657e-05	1082.3	1.4671e-06	1.3502e-06	1169.2	221.98	1.4452e-06	1.4071e-06	278.35	78.107	61.601	18.106	1.455e-06	25.192	-37.341	-86.744	-90.678	-154.853	14.098	-74.937	-154.798	-147.040	-18.549	-19.982	-147.213	-141.182	-140.277	-133.386	58.168	-133.724	-8191	255	
1062.256	1	1	0	0	0.21968	0.27023	0.15782	0.34657	0.096315	0.22706	0.10462	0.069026	0.23408	0.16785	0.23358	0.23587	0.22024	0.044602	0.15072	0.49817	-1.7687	-1.0375	-1.9771	-1.8396	-1.2521	-2.2208	-1.4042	-1.2812	-1.8708	-1.1604	-1.8792	-1.8479	-1.2208	-2.0479	-1.3687	-1.3354	-44.013	-11.002	171.433	114.924	-145.414	96.917	-157.060	-113.724	-100.309	-35.076	-124.440	74.768	63.798	-103.861	-142.091	147.939	0.00034227	0.00040627	7.1753e-05	1104.5	6.7701e-06	1.8607e-06	1191.5	225.37	2.411e-06	3.1384e-06	282.34	78.391	63.269	18.196	6.1583e-06	24.956	0.00014658	0.00013152	3.5364e-05	1083.7	1.4995e-06	1.3874e-06	1169.9	221.9	1.4765e-06	1.4231e-06	278.34	78.253	61.664	18.2	1.456e-06	25.194	-35.603	-99.506	-139.516	-154.252	-44.154	-2.577	-154.499	-146.868	-38.133	14.698	-147.409	-140.820	-140.156	-132.904	-24.893	-133.661	-8191	255	
1062.352	1	1	0	0	0.11365	0.22257	0.19743	0.10991	0.15371	0.086801	0.10849	0.17926	0.20916	0.12675	0.066476	0.12148	0.14669	0.21031	0.10288	0.19215	-1.675	-1.2583	-1.9333	-1.9208	-1.1208	-1.8646	-1.5771	-1.4771	-2.0979	-1.2354	-1.8021	-2.0542	-1.2083	-2.0646	-1.4375	-1.3208	145.748	67.688	99.147	178.585	143.685	96.589	100.728	-115.061	-129.703	-0.029	173.794	-98.654	186.438	-125.663	-159.101	82.668	0.00043794	8.2599e-05	2.9729e-05	1095	3.1435e-06	3.1674e-06	1186.4	224.98	2.1999e-06	1.9675e-06	280.32	78.176	62.827	18.128	1.8965e-06	24.97	0.00015085	0.00013296	3.622e-05	1082.2	1.5103e-06	1.3537e-06	1168.7	222.01	1.4814e-06	1.3976e-06	278.22	78.134	61.551	18.161	1.44e-06	25.13	-35.094	-59.488	-74.267	-154.672	-43.017	-22.766	-154.549	-147.048	-51.496	11.446	-147.257	-141.007	-140.892	-132.984	-2.337	-133.593	-8191	255	
1062.448	1	1	0	0	0.14468	0.16279	0.30881	0.32103	0.040192	0.092973	0.15784	0.061097	0.096065	0.25201	0.458	0.072044	0.14137	0.21823	0.33703	0.059007	-1.6354	-1.1896	-1.4896	-2.0833	-0.91458	-1.8479	-1.9292	-1.3354	-2.2271	-1.4146	-1.6396	-2.1583	-1.0875	-2	-1.5708	-1.1667	185.889	140.556	87.794	146.599	191.296	-19.550	68.942	-147.188	-160.286	-1.308	100.227	-135.340	138.634	-161.715	-140.056	-72.463	0.00039794	0.00031226	4.535e-05	1094	1.4792e-06	3.4094e-06	1190.5	223.18	4.9554e-06	5.0182e-06	281.02	78	63.359	17.831	3.2761e-06	24.906	0.00014484	0.00013225	3.5024e-05	1081.6	1.4651e-06	1.4158e-06	1168.7	221.42	1.4162e-06	1.3473e-06	277.7	78.15	61.714	18.094	1.3802e-06	25.208	-27.048	-68.249	-26.634	-154.426	-0.515	-76.640	-155.020	-146.893	-84.308	37.162	-147.540	-140.956	-140.691	-133.191	24.055	-134.262	-8191	255	
1062.544	1	1	0	0	0.13157	0.32711	0.21728	0.052115	0.20878	0.17019	0.17668	0.13149	0.050865	0.14976	0.17832	0.21855	0.21337	0.088137	0.087842	0.11334	-1.6604	-1.2646	-1.4646	-2.1729	-0.98333	-1.7792	-2.0375	-1.1708	-2.0104	-1.4042	-1.4917	-2.3021	-1.2958	-1.7396	-1.8396	-1.1021	-109.184	-123.180	71.995	83.893	96.291	-87.211	-19.411	129.699	-95.228	-27.411	-79.723	-140.171	-83.546	97.576	67.171	-57.696	0.00036538	0.00037456	0.00016531	1100.6	6.7953e-06	3.597e-06	1184.9	224.12	3.8944e-06	2.5857e-06	281.26	78.567	63.153	17.974	2.054e-06	24.884	0.00014226	0.00012535	3.4687e-05	1083.5	1.4608e-06	1.3602e-06	1168	221.74	1.4182e-06	1.3391e-06	277.81	78.196	61.833	18.105	1.3894e-06	25.118	-26.292	-109.902	-95.271	-154.614	-30.630	-16.404	-154.749	-147.145	-39.753	-34.607	-147.735	-141.352	-141.076	-133.582	24.109	-134.352	-8191	255	
1062.640	1	1	0	0	0.083261	0.17253	0.19921	0.14838	0.31164	0.055604	0.30051	0.40656	0.1029	0.11226	0.17519	0.25848	0.053269	0.16798	0.18173	0.2612	-1.6583	-1.4021	-1.2938	-2.1042	-1.0729	-1.6792	-2.2667	-1.0583	-2.0479	-1.6917	-1.2708	-2.2833	-1.2896	-1.525	-2.1292	-1.2708	130.075	81.461	106.683	193.320	-157.786	64.194	132.104	-102.647	66.295	-24.951	-9.884	160.020	44.239	181.703	-99.742	32.910	0.0004422	0.00025744	0.00010726	1098.3	1.6259e-06	1.7752e-06	1185.9	222.94	3.6233e-06	1.9617e-06	281.68	78.663	63.376	18.029	5.7926e-06	24.786	0.00014565	0.00012527	3.5237e-05	1081.5	1.4464e-06	1.3686e-06	1167	221.29	1.4106e-06	1.3606e-06	278.02	78.369	61.628	18.144	1.3995e-06	25.143	-23.453	-1.563	-35.546	-154.421	-24.896	-1.444	-154.695	-147.073	-42.010	4.477	-147.661	-140.675	-140.421	-132.792	-36.407	-134.026	-8191	255	
1062.736	1	1	0	0	0.20865	0.087902	0.23004	0.23516	0.27565	0.049801	0.43043	0.14523	0.13079	0.36119	0.058967	0.098059	0.26608	0.28482	0.11726	0.072056	-1.5167	-1.6812	-1.325	-2.1604	-1.3104	-1.5083	-1.9896	-1.1521	-1.8333	-1.7583	-1.1187	-1.9937	-1.0333	-1.2958	-2.0375	-1.1667	-59.924	-150.802	160.294	-145.388	62.224	-111.952	150.970	6.910	152.704	18.966	-37.694	107.649	129.720	78.484	45.946	-118.568	0.00042929	0.00037888	0.00010675	1096.9	5.386e-06	6.5064e-07	1185.2	224.01	4.0066e-06	3.753e-06	280.81	78.416	62.636	18.134	3.7399e-06	24.978	0.00014047	0.00012317	3.5368e-05	1080.8	1.4284e-06	1.388e-06	1167	221.76	1.4042e-06	1.3681e-06	277.89	78.213	61.429	18.18	1.3393e-06	25.153	-35.360	-77.385	-109.195	-154.449	-45.137	-40.441	-154.669	-147.046	-39.987	-31.127	-147.741	-140.738	-140.553	-133.734	-26.142	-134.144	-8191	255	
1062.832	1	1	0	0	0.22888	0.26256	0.2415	0.047591	0.13426	0.17496	0.37293	0.051848	0.27209	0.17721	0.18826	0.10161	0.16844	0.044871	0.037927	0.084359	-1.2146	-1.7792	-1.2333	-2.0687	-1.4042	-1.1854	-2.4562	-1.3042	-1.8896	-1.7229	-1.1792	-2.1937	-1.6021	-1.3	-2.1917	-1.3312	42.167	-74.163	-70.023	-37.439	-115.869	190.331	80.985	-93.475	20.273	-127.758	105.458	135.120	-90.520	18.441	24.942	185.894	0.00041525	5.0506e-05	7.0443e-05	1098.9	4.8762e-06	2.1675e-06	1191.1	224.09	5.133e-06	4.3534e-06	281.22	78.539	62.506	18.051	3.7949e-06	24.828	0.00014578	0.00012605	3.5561e-05	1080.7	1.4191e-06	1.3706e-06	1168.7	221.33	1.4106e-06	1.3527e-06	277.61	78.22	61.324	18.165	1.3979e-06	25.119	-30.450	-63.914	-74.915	-154.738	0.104	-1.615	-154.761	-147.219	-47.375	8.860	-147.511	-141.035	-140.654	-133.112	4.064	-133.775	-8191	255	
1062.953	1	1	0	0	0.28962	0.137	0.1068	0.28601	0.33141	0.050191	0.23802	0.15667	0.080505	0.23915	0.12709	0.14481	0.21929	0.035125	0.097737	0.083678	-1.3312	-1.8292	-1.2396	-2.1208	-1.6583	-1.0271	-2.1229	-1.275	-1.45	-1.9542	-1.1354	-1.8083	-1.6396	-1.2792	-2.0896	-1.2667	-20.434	180.074	40.773	132.416	-128.166	48.807	101.588	176.491	35.417	129.380	-8.823	-29.869	179.399	30.993	133.975	-136.672	0.00039722	0.00041475	7.2025e-05	1102	3.8102e-06	2.5834e-06	1187.8	222.44	5.5559e-06	3.571e-06	280.94	78.446	62.479	18.011	2.0428e-06	24.869	0.00014533	0.00012173	3.4218e-05	1082.6	1.4022e-06	1.4005e-06	1168.2	221.41	1.4332e-06	1.3692e-06	277.8	78.183	61.45	18.159	1.3489e-06	25.109	-29.318	-82.006	-21.507	-154.574	21.759	-6.910	-154.516	-147.205	-26.141	-26.433	-147.715	-140.561	-140.941	-133.086	-89.324	-133.810	-8191	255	
1063.049	1	1	0	0	0.17605	0.17896	0.059199	0.11232	0.22017	0.056646	0.18043	0.052159	0.08117	0.098472	0.055446	0.25134	0.1843	0.073397	0.071952	0.22827	-1.0063	-1.9271	-0.91042	-2.1354	-1.6021	-1.1688	-2.2083	-1.4333	-1.1917	-1.9958	-1.0417	-2.0125	-1.8792	-1.1167	-1.9896	-1.3354	151.789	-37.621	179.261	166.953	-146.945	-160.464	49.501	-90.445	-74.815	172.218	166.519	157.474	191.433	-104.982	152.293	133.436	0.00046332	0.00027396	4.0191e-05	1102.1	3.3695e-06	3.4574e-06	1186.1	223.55	3.4218e-06	2.544e-06	281.4	78.797	62.45	17.981	2.4551e-06	24.865	0.00014578	0.00011764	3.5535e-05	1083.3	1.3903e-06	1.4084e-06	1167.8	221.5	1.4232e-06	1.388e-06	278.03	78.452	61.224	18.112	1.3595e-06	25.117	-34.450	-38.466	-99.479	-154.268	-10.668	-52.307	-154.544	-147.290	-60.181	-23.486	-147.908	-140.821	-141.136	-133.729	-57.237	-134.194	-8191	255	
1063.145	1	1	0	0	0.094537	0.26092	0.1205	0.15261	0.17356	0.24018	0.21743	0.39602	0.26774	0.28198	0.09429	0.15047	0.20889	0.18724	0.21107	0.34825	-0.92083	-2.1708	-1.0271	-1.75	-1.9146	-1.05	-2.2542	-1.5625	-1.2563	-1.9937	-1.3396	-1.5438	-1.9125	-1.0646	-1.9646	-1.4729	-65.572	177.275	-158.212	66.817	107.118	189.323	126.911	67.619	45.843	141.731	85.530	114.647	127.060	-105.628	109.776	139.866	0.00037614	0.0001614	9.1372e-05	1099.5	3.567e-06	1.2238e-06	1190.6	222.92	5.019e-06	4.662e-06	278.93	78.245	62.367	17.906	3.9893e-06	24.957	0.00014203	0.00012516	3.5503e-05	1082.8	1.4162e-06	1.4092e-06	1168.7	221.58	1.4573e-06	1.3731e-06	277.05	78.35	61.331	18.125	1.361e-06	25.098	-28.675	-135.073	-82.762	-154.789	-36.266	-6.669	-155.259	-147.705	2.126	-48.228	-147.852	-141.326	-141.336	-133.842	-45.645	-134.267	-8191	255	
1063.264	1	1	0	0	0.30495	0.038134	0.026241	0.36046	0.2091	0.23503	0.30453	0.27417	0.22831	0.11822	0.37138	0.19511	0.29137	0.10714	0.091757	0.13032	-0.89375	-2.1771	-1.1437	-1.5354	-1.8667	-1.025	-2.0458	-1.8687	-1.1	-2.1479	-1.3208	-1.6771	-2.1479	-1.15	-1.8708	-1.7563	-126.989	33.518	-107.895	142.296	64.461	151.770	151.921	137.233	-46.912	-25.284	117.572	113.892	157.769	171.371	-159.154	6.463	0.00037919	0.00024839	0.00011751	1102.3	1.1106e-06	2.6411e-06	1187.8	223.08	6.8312e-06	2.7934e-06	281.1	78.588	63.28	18.112	4.4773e-06	24.889	0.00014909	0.00012341	3.5561e-05	1083	1.4477e-06	1.3947e-06	1170	221.3	1.4458e-06	1.3723e-06	278.05	78.351	61.562	18.169	1.3938e-06	25.13	-24.731	-68.570	-105.723	-154.964	-6.092	-2.003	-154.751	-147.609	-19.268	11.499	-148.050	-141.637	-141.656	-133.663	-3.792	-134.146	-8191	255	
1063.336	1	1	0	0	0.073207	0.1034	0.18424	0.24626	0.16015	0.24273	0.19276	0.12178	0.11684	0.032964	0.18834	0.14985	0.19587	0.29778	0.16224	0.070033	-0.75417	-2.1562	-1.2938	-1.6667	-2.0438	-0.98333	-2.0687	-1.9042	-1.1063	-2.0563	-1.6479	-1.4021	-2.0583	-1.25	-1.7583	-2.0021	127.219	77.308	1.924	177.006	161.867	40.755	93.308	39.161	73.009	96.985	108.894	137.120	-130.466	172.261	132.075	-18.251	0.0003882	0.00040278	3.8287e-05	1098.7	1.4425e-06	6.5877e-07	1185.8	222.18	4.0643e-06	2.5198e-06	281.3	78.692	63.15	18.026	4.5056e-06	24.783	0.00014762	0.00012614	3.6546e-05	1082.7	1.4461e-06	1.3786e-06	1168.8	221.05	1.4954e-06	1.3414e-06	277.88	78.331	61.618	18.141	1.3958e-06	25.053	-26.294	-106.088	-116.068	-155.056	-21.094	-15.208	-155.192	-147.805	-31.601	-31.380	-148.248	-141.360	-141.094	-133.639	-50.226	-134.140	-8191	255	
1063.432	1	1	0	0	0.29348	0.1065	0.22916	0.17344	0.24807	0.4567	0.19378	0.24136	0.23984	0.19973	0.040849	0.20825	0.099244	0.22355	0.01523	0.10458	-0.57083	-1.9167	-1.4146	-1.4833	-2.0042	-1.0125	-1.8438	-2.0979	-1.075	-2.0146	-1.5063	-1.3062	-2.075	-1.125	-1.6167	-1.9208	136.571	-156.604	-50.603	-150.497	-116.051	123.021	134.288	104.900	122.822	20.642	120.854	-156.210	5.851	192.884	-68.779	160.924	0.00041398	0.00049388	9.9563e-05	1107.6	3.8609e-06	1.4472e-06	1189.4	222.64	3.6145e-06	3.4951e-06	281.09	78.653	63.065	17.946	3.772e-06	24.885	0.00014656	0.00012732	3.5119e-05	1085.9	1.4581e-06	1.3955e-06	1170.7	221.27	1.4739e-06	1.3767e-06	277.64	78.309	61.566	18.112	1.4e-06	25.132	-27.058	-65.781	-100.436	-154.995	19.419	68.848	-155.048	-147.503	-16.910	-20.231	-147.583	-141.146	-140.817	-133.413	-49.316	-134.272	-8191	255	
1063.553	1	1	0	0	0.096767	0.25166	0.11982	0.15252	0.067607	0.20821	0.18045	0.2003	0.18782	0.12799	0.1961	0.1051	0.13599	0.10679	0.064986	0.08146	-0.72708	-1.9312	-1.5542	-1.2146	-2.1021	-1.4562	-1.6187	-2.1479	-1.1562	-1.9062	-1.8333	-1.325	-2.0896	-1.2542	-1.5312	-1.9521	-27.387	-37.361	-57.483	-125.286	-38.974	68.114	152.047	131.305	118.250	-112.617	51.759	-124.562	-108.353	185.280	-34.428	-11.039	0.0004203	0.00029066	0.00010753	1099.4	2.5217e-06	3.8896e-06	1189.4	223.6	4.8752e-06	4.2368e-06	281.78	78.765	62.868	18.114	2.0249e-06	24.845	0.00014474	0.0001252	3.4083e-05	1082.5	1.4041e-06	1.3878e-06	1169.8	221.59	1.4368e-06	1.3859e-06	277.4	78.5	61.497	18.137	1.3929e-06	25.137	-35.390	-66.065	-78.451	-154.886	13.629	-8.483	-154.856	-147.461	-34.397	15.203	-147.863	-141.342	-141.140	-133.791	-2.987	-134.612	-8191	255	
1063.649	1	1	0	0	0.21016	0.19586	0.34958	0.23089	0.13111	0.22831	0.34006	0.066726	0.13004	0.19526	0.16555	0.2382	0.19914	0.23834	0.1652	0.16102	-0.69375	-1.8417	-1.6708	-1.2083	-1.9875	-1.4917	-1.4854	-2.2771	-1	-1.6396	-2.0104	-1.1146	-1.9188	-1.7104	-1.4062	-2.15	30.132	132.182	76.653	73.874	-117.981	-92.688	160.723	-126.163	7.196	28.697	65.421	-115.156	55.888	-133.057	31.253	104.049	0.00040986	0.00025643	4.9238e-05	1092.3	2.9774e-06	2.0952e-06	1182.6	223.77	5.1298e-06	5.6689e-06	280.99	78.56	63.017	18.03	2.1489e-06	24.931	0.00014561	0.00012436	3.3896e-05	1080.9	1.4067e-06	1.3984e-06	1165.9	221.21	1.4464e-06	1.3689e-06	277.63	78.366	61.58	18.126	1.4132e-06	25.09	-24.907	-106.656	-72.975	-154.753	6.894	8.300	-154.689	-147.787	-27.061	8.597	-148.086	-141.037	-141.008	-133.598	-38.105	-134.077	-8191	255	
1063.745	1	1	0	0	0.11699	0.044297	0.073515	0.2535	0.066616	0.13605	0.255	0.13174	0.1263	0.24928	0.21206	0.22326	0.14285	0.083515	0.11939	0.21441	-0.77917	-1.6771	-1.6875	-1.2979	-1.7479	-1.6083	-1.1854	-2.0021	-1.0875	-1.6729	-1.9125	-1.0875	-1.9562	-1.5125	-1.1708	-2.2167	157.058	186.140	50.874	156.288	49.934	176.675	125.930	191.488	-146.652	-85.674	19.739	113.575	-163.925	-55.913	-158.321	-6.534	0.00038158	0.00024375	0.00010011	1100	8.3133e-07	1.6345e-06	1181.8	223.73	4.1686e-06	2.0023e-06	280.78	78.562	63.35	18.083	4.3002e-06	25.087	0.00014637	0.00012147	3.3861e-05	1081.2	1.3861e-06	1.3401e-06	1166.7	221.5	1.4399e-06	1.333e-06	277.52	78.256	61.673	18.109	1.3732e-06	25.141	-26.124	-97.339	-130.382	-154.817	-98.417	-74.951	-154.691	-147.424	-56.836	30.286	-147.458	-141.001	-141.070	-133.934	-17.452	-134.142	-8191	255	
1063.841	1	1	0	0	0.10314	0.32079	0.10906	0.44338	0.058209	0.15109	0.17371	0.099457	0.16524	0.39321	0.1551	0.34152	0.12662	0.092685	0.25264	0.13963	-0.97917	-1.4333	-2.2875	-1.1604	-2.0833	-1.8271	-1.1333	-1.9729	-1.1604	-1.4146	-1.8937	-1.3021	-1.8771	-1.8	-1.0458	-2.0167	67.118	144.314	165.224	133.804	-89.013	-71.785	95.357	80.875	-67.385	34.983	173.541	189.578	-90.484	-61.355	189.659	-18.972	0.00040769	0.00014012	4.4412e-05	1102.2	3.9898e-06	1.9862e-06	1190.5	224.84	5.2357e-06	4.7309e-06	278.74	78.606	62.935	17.947	2.4205e-06	25.05	0.00014164	0.00012326	3.4278e-05	1083.6	1.3888e-06	1.3466e-06	1169	221.36	1.4382e-06	1.3529e-06	276.81	78.343	61.419	18.107	1.3553e-06	25.231	-32.683	-117.513	-68.855	-154.799	-26.162	-60.372	-154.993	-147.524	-29.538	-21.548	-148.136	-141.492	-140.973	-133.551	-41.761	-134.216	-8191	255	
1063.937	1	1	0	0	0.23596	0.02525	0.2163	0.49171	0.32911	0.2609	0.20787	0.24936	0.1785	0.19406	0.13543	0.086529	0.24232	0.073594	0.082269	0.2532	-0.88958	-1.3521	-1.9771	-1.4458	-1.7563	-1.8042	-1.2854	-1.9813	-1.4771	-1.2604	-2.2208	-1.1083	-1.7208	-1.9521	-0.93125	-1.9125	69.262	143.376	74.964	157.695	-5.816	89.319	-144.959	135.380	-89.116	-142.892	177.354	49.122	53.280	81.316	-87.612	59.582	0.0003942	0.00040489	2.9439e-05	1099.8	4.8035e-06	2.7314e-06	1187.6	224.26	2.9899e-06	2.0808e-06	280.25	78.392	62.57	18.01	3.9967e-06	24.879	0.00014224	0.00012243	3.4153e-05	1082.2	1.4123e-06	1.3437e-06	1166.7	221.66	1.401e-06	1.3413e-06	277.64	78.208	61.308	18.094	1.3839e-06	25.058	-28.813	-56.660	178.735	-154.868	-39.746	-57.620	-154.819	-147.012	-5.320	-0.428	-147.991	-141.383	-140.794	-134.070	-0.378	-134.179	-8191	255	
1064.033	1	1	0	0	0.43039	0.10647	0.12059	0.28867	0.21266	0.17763	0.19304	0.14003	0.17992	0.23636	0.16335	0.18114	0.19176	0.13297	0.38193	0.47782	-1.2938	-1.1917	-2.0729	-1.4	-1.6	-1.9521	-1.2646	-2.1042	-1.6292	-1.2458	-2.1208	-1.2042	-1.4104	-1.8188	-0.97708	-1.8125	53.790	-69.470	155.901	159.824	-63.129	143.461	82.257	134.458	60.235	185.869	134.409	152.025	145.166	-115.034	54.663	-152.891	0.00041635	0.00044427	4.972e-05	1097.1	2.4244e-06	3.8003e-06	1187.3	223.17	2.1131e-06	5.5901e-06	281.32	78.301	62.822	18.063	2.5803e-06	24.76	0.00014268	0.00012533	3.3036e-05	1082	1.4404e-06	1.3147e-06	1168.5	221.39	1.4199e-06	1.3686e-06	277.46	78.239	61.292	18.103	1.4008e-06	25.114	-32.298	-75.334	-80.335	-154.942	-66.550	-15.221	-154.888	-147.230	-26.091	-16.057	-147.995	-141.075	-141.075	-133.499	44.983	-134.320	-8191	255	
1064.130	1	1	0	0	0.074458	0.26004	0.33552	0.038324	0.11407	0.12527	0.34295	0.17454	0.16771	0.11559	0.22793	0.14053	0.31028	0.32128	0.24145	0.16447	-1.2833	-1.0729	-2	-1.4854	-1.3521	-1.9542	-1.3312	-2.0479	-1.7875	-1.1292	-2.0208	-1.5208	-1.5104	-2.2271	-1.1542	-2.0438	116.210	-80.129	120.491	61.750	24.639	-34.288	141.629	57.427	-25.524	43.017	78.885	169.363	110.044	-69.247	40.885	142.158	0.00041584	0.00016658	8.5197e-05	1098.7	2.7731e-06	2.3721e-06	1189.4	224.79	5.9697e-06	1.2264e-06	281.53	78.585	63.359	17.861	4.8634e-06	24.826	0.00014328	0.00012985	3.5345e-05	1082.1	1.4622e-06	1.3586e-06	1167.8	221.9	1.4169e-06	1.4313e-06	278.12	78.241	61.503	18.115	1.4266e-06	25.087	-34.958	-87.969	-127.220	-154.645	-47.638	6.045	-154.398	-147.363	-29.462	125.408	-147.495	-141.297	-140.526	-133.387	15.461	-134.009	-8191	255	
1064.226	1	1	0	0	0.098743	0.064977	0.05627	0.283	0.14583	0.25207	0.2542	0.13289	0.065658	0.37126	0.10243	0.13669	0.091834	0.13276	0.09778	0.2908	-1.6146	-0.96875	-1.9813	-1.575	-1.2729	-1.8875	-1.3125	-1.6375	-1.9625	-1.1042	-1.9771	-1.6	-1.1792	-2.2583	-1.1688	-1.6771	65.219	69.108	138.241	127.853	45.667	13.120	134.304	6.840	-76.947	-46.422	37.820	24.412	8.470	185.276	22.698	-163.240	0.00044079	0.00041613	0.00014336	1103.4	1.1303e-06	4.4383e-06	1187.3	223.09	3.8709e-06	4.8735e-06	284.02	78.749	62.807	17.872	1.7254e-07	24.868	0.00014711	0.00012676	3.5568e-05	1083.1	1.4599e-06	1.336e-06	1168.2	221.07	1.4546e-06	1.4286e-06	278.93	78.357	61.595	18.147	1.3992e-06	25.095	-28.233	-88.791	-75.407	-154.763	-120.280	-23.681	-154.869	-147.321	-8.987	7.324	-147.487	-141.437	-140.397	-133.414	-27.381	-134.232	-8191	255	
1064.345	1	1	0	0	0.14668	0.13502	0.26983	0.14748	0.11434	0.18698	0.18083	0.043513	0.11158	0.045476	0.22268	0.079279	0.12239	0.27229	0.25643	0.53392	-1.5208	-1.1958	-2.0208	-1.625	-1.2042	-2.2667	-1.4312	-1.5146	-2.1458	-1.1812	-1.9729	-1.7021	-1.0917	-2.0625	-1.1917	-1.3854	-31.612	17.824	178.850	-117.534	163.116	173.671	116.220	128.455	-100.509	35.286	117.475	-20.745	91.393	127.675	136.024	-116.232	0.00039132	0.00012059	7.8333e-05	1100.7	2.5808e-06	2.171e-06	1186.1	222.5	3.9988e-06	6.2995e-06	283.05	78.491	63.032	17.951	2.2865e-06	24.779	0.00014419	0.00012245	3.3923e-05	1081.8	1.4813e-06	1.3472e-06	1167.8	221.11	1.4216e-06	1.373e-06	277.88	78.235	61.688	18.081	1.3419e-06	25.093	-30.818	2.210	-107.338	-154.630	-5.938	-9.915	-154.984	-147.157	31.252	-1.350	-147.709	-141.382	-140.616	-133.579	-40.335	-134.153	-8191	255	
1064.441	1	1	0	0	0.075681	0.18072	0.15815	0.20887	0.29476	0.023172	0.35453	0.04688	0.053833	0.20103	0.11878	0.13132	0.33311	0.10901	0.13436	0.080235	-1.6417	-1.0938	-1.9375	-1.9771	-1.2292	-2.1479	-1.4479	-1.4104	-2.0167	-1.1458	-1.8167	-2.1312	-1.0688	-1.9896	-1.3979	-1.4583	-106.181	73.534	-120.881	172.291	54.118	19.920	117.547	106.374	39.563	96.716	-57.500	112.845	-165.047	-111.536	146.778	81.003	0.00040864	0.00030515	2.8858e-05	1101.7	2.9431e-06	2.8549e-06	1189.6	224.13	3.3825e-06	3.5467e-06	281.17	78.739	63.479	17.845	6.4654e-06	25.023	0.00014055	0.00012115	3.2106e-05	1081.9	1.4023e-06	1.269e-06	1168.8	221.66	1.3687e-06	1.3468e-06	277.94	78.291	61.819	18.076	1.3504e-06	25.156	-30.288	-65.299	-70.376	-154.659	-74.714	-0.523	-154.978	-147.261	-53.730	0.496	-147.486	-141.086	-141.124	-133.756	-38.883	-134.158	-8191	255	
1064.537	1	1	0	0	0.071011	0.041438	0.071749	0.18238	0.10014	0.11304	0.18746	0.29127	0.16441	0.015619	0.28887	0.14547	0.2522	0.11089	0.10214	0.17981	-1.7375	-1.2979	-1.7437	-2.1896	-1.1854	-2.0458	-1.8104	-1.2062	-2.1396	-1.4292	-1.7333	-2.2125	-1.075	-2.1208	-1.7479	-1.3146	131.076	69.557	184.749	43.172	8.445	-24.027	151.292	94.908	-143.174	8.479	-106.742	-57.104	-124.268	119.828	141.552	73.989	0.00042141	8.868e-05	3.3123e-05	1099.5	3.4073e-06	2.2936e-06	1187	223.96	4.9963e-06	1.2542e-06	282.59	78.791	63.54	17.968	4.3925e-06	24.931	0.00013844	0.00011678	3.3578e-05	1082.7	1.4095e-06	1.3622e-06	1166.9	221.36	1.3651e-06	1.3228e-06	278.31	78.384	61.7	18.102	1.3588e-06	25.102	-34.840	-50.132	-27.720	-154.388	-2.755	8.710	-154.915	-147.363	-39.474	80.590	-147.495	-141.375	-141.247	-133.318	6.807	-134.414	-8191	255	
#DATA ENDS
