BOXY.EXE: ISS Imagent and Oximeter Data Acquisition Program Version 0.80
Ascii Record File

#ACQ INFORMATION
2  Detector Channels 
16  External MUX Channels 
1  Auxiliary Channels 
5000  Waveform (CCF) Frequency (Hz)
1  Waveforms Skipped 
30  Waveforms Averaged 
1  Cycles Averaged 
16  Acquisitions per Waveform 
10.0806  Updata Rate (Hz) 

#FILE INFORMATION
TRUE -- External MUX Channel results are PARSED.
FALSE -- AC DC and Phase are NOT grouped.
TRUE -- Companion Program Settings File CREATED.
FALSE -- AC data not excluded
FALSE -- DC data not excluded
FALSE -- Phase data not excluded
FALSE -- Auxillary Chn. data not excluded
Tab delimiters

#CALIBRATION STATE
TRUE -- Waveform Calibration Values APPLIED.


#AUX CALIBRATION VALUES
Val Type	aux-1	

Term	1.0000e+00	
Factor	0.0000e+00	


#WF CALIBRATION VALUES
A = Detector Channel
Val Type	A-AC1	A-AC2	A-AC3	A-AC4	A-AC5	A-AC6	A-AC7	A-AC8	A-AC9	A-AC10	A-AC11	A-AC12	A-AC13	A-AC14	A-AC15	A-AC16	A-DC1	A-DC2	A-DC3	A-DC4	A-DC5	A-DC6	A-DC7	A-DC8	A-DC9	A-DC10	A-DC11	A-DC12	A-DC13	A-DC14	A-DC15	A-DC16	A-Ph1	A-Ph2	A-Ph3	A-Ph4	A-Ph5	A-Ph6	A-Ph7	A-Ph8	A-Ph9	A-Ph10	A-Ph11	A-Ph12	A-Ph13	A-Ph14	A-Ph15	A-Ph16	

Term	0.00000e+00	0.00000e+00	0.00000e+00	0.00000e+00	0.00000e+00	0.00000e+00	0.00000e+00	0.00000e+00	0.00000e+00	0.00000e+00	0.00000e+00	0.00000e+00	0.00000e+00	0.00000e+00	0.00000e+00	0.00000e+00	0.00000e+00	0.00000e+00	0.00000e+00	0.00000e+00	0.00000e+00	0.00000e+00	0.00000e+00	0.00000e+00	0.00000e+00	0.00000e+00	0.00000e+00	0.00000e+00	0.00000e+00	0.00000e+00	0.00000e+00	0.00000e+00	0.00000e+00	0.00000e+00	0.00000e+00	0.00000e+00	0.00000e+00	0.00000e+00	0.00000e+00	0.00000e+00	0.00000e+00	0.00000e+00	0.00000e+00	0.00000e+00	0.00000e+00	0.00000e+00	0.00000e+00	0.00000e+00	
Factor	1.00000e+00	1.00000e+00	1.00000e+00	1.00000e+00	1.00000e+00	1.00000e+00	1.00000e+00	1.00000e+00	1.00000e+00	1.00000e+00	1.00000e+00	1.00000e+00	1.00000e+00	1.00000e+00	1.00000e+00	1.00000e+00	1.00000e+00	1.00000e+00	1.00000e+00	1.00000e+00	1.00000e+00	1.00000e+00	1.00000e+00	1.00000e+00	1.00000e+00	1.00000e+00	1.00000e+00	1.00000e+00	1.00000e+00	1.00000e+00	1.00000e+00	1.00000e+00	X	X	X	X	X	X	X	X	X	X	X	X	X	X	X	X	

B = Detector Channel
Val Type	B-AC1	B-AC2	B-AC3	B-AC4	B-AC5	B-AC6	B-AC7	B-AC8	B-AC9	B-AC10	B-AC11	B-AC12	B-AC13	B-AC14	B-AC15	B-AC16	B-DC1	B-DC2	B-DC3	B-DC4	B-DC5	B-DC6	B-DC7	B-DC8	B-DC9	B-DC10	B-DC11	B-DC12	B-DC13	B-DC14	B-DC15	B-DC16	B-Ph1	B-Ph2	B-Ph3	B-Ph4	B-Ph5	B-Ph6	B-Ph7	B-Ph8	B-Ph9	B-Ph10	B-Ph11	B-Ph12	B-Ph13	B-Ph14	B-Ph15	B-Ph16	

Term	0.00000e+00	0.00000e+00	0.00000e+00	0.00000e+00	0.00000e+00	0.00000e+00	0.00000e+00	0.00000e+00	0.00000e+00	0.00000e+00	0.00000e+00	0.00000e+00	0.00000e+00	0.00000e+00	0.00000e+00	0.00000e+00	0.00000e+00	0.00000e+00	0.00000e+00	0.00000e+00	0.00000e+00	0.00000e+00	0.00000e+00	0.00000e+00	0.00000e+00	0.00000e+00	0.00000e+00	0.00000e+00	0.00000e+00	0.00000e+00	0.00000e+00	0.00000e+00	-2.36295e+02	-1.26358e+02	-1.26122e+02	-1.84352e+02	-7.43156e+01	-6.85797e+01	-1.62008e+02	-1.62015e+02	-7.18578e+01	-6.29640e+01	-1.80050e+02	-1.70314e+02	-1.79883e+02	-1.76694e+02	-7.79053e+01	-1.49338e+02	
Factor	5.48273e-05	1.42809e-04	4.33729e-05	1.64603e-01	1.74334e-06	1.73504e-06	1.78629e-01	4.25379e-02	2.29001e-06	1.56306e-06	6.49495e-01	2.52864e-02	2.46878e-02	8.09108e-03	1.65514e-06	1.13705e-02	7.25772e-06	8.82615e-06	2.46127e-06	8.91634e-02	9.29681e-08	9.73902e-08	9.04586e-02	2.32296e-02	9.25378e-08	9.72273e-08	3.24706e-01	1.33849e-02	1.36041e-02	4.45422e-03	9.46605e-08	6.04742e-03	X	X	X	X	X	X	X	X	X	X	X	X	X	X	X	X	



#DISTANCE SETTINGS
A = Detector Channel
A-1	A-2	A-3	A-4	A-5	A-6	A-7	A-8	A-9	A-10	A-11	A-12	A-13	A-14	A-15	A-16	

2.5000e+00	3.0000e+00	2.5000e+00	3.0000e+00	2.0000e+00	3.0000e+00	1.5000e+00	3.0000e+00	3.0000e+00	3.0000e+00	3.0000e+00	3.0000e+00	3.0000e+00	3.0000e+00	1.5000e+00	3.0000e+00	

B = Detector Channel
B-1	B-2	B-3	B-4	B-5	B-6	B-7	B-8	B-9	B-10	B-11	B-12	B-13	B-14	B-15	B-16	

1.0000e+01	1.0000e+01	1.0000e+01	1.4400e+00	1.0000e+01	1.0000e+01	1.5100e+00	1.9400e+00	1.0000e+01	1.0000e+01	1.9900e+00	2.4900e+00	2.4100e+00	2.9000e+00	1.0000e+01	2.9800e+00	




#DATA BEGINS
time	group	step	mark	flag	A-AC1	A-AC2	A-AC3	A-AC4	A-AC5	A-AC6	A-AC7	A-AC8	A-AC9	A-AC10	A-AC11	A-AC12	A-AC13	A-AC14	A-AC15	A-AC16	A-DC1	A-DC2	A-DC3	A-DC4	A-DC5	A-DC6	A-DC7	A-DC8	A-DC9	A-DC10	A-DC11	A-DC12	A-DC13	A-DC14	A-DC15	A-DC16	A-Ph1	A-Ph2	A-Ph3	A-Ph4	A-Ph5	A-Ph6	A-Ph7	A-Ph8	A-Ph9	A-Ph10	A-Ph11	A-Ph12	A-Ph13	A-Ph14	A-Ph15	A-Ph16	B-AC1	B-AC2	B-AC3	B-AC4	B-AC5	B-AC6	B-AC7	B-AC8	B-AC9	B-AC10	B-AC11	B-AC12	B-AC13	B-AC14	B-AC15	B-AC16	B-DC1	B-DC2	B-DC3	B-DC4	B-DC5	B-DC6	B-DC7	B-DC8	B-DC9	B-DC10	B-DC11	B-DC12	B-DC13	B-DC14	B-DC15	B-DC16	B-Ph1	B-Ph2	B-Ph3	B-Ph4	B-Ph5	B-Ph6	B-Ph7	B-Ph8	B-Ph9	B-Ph10	B-Ph11	B-Ph12	B-Ph13	B-Ph14	B-Ph15	B-Ph16	aux-1	digaux	

1277.735	1	1	0	768	0.10273	0.075144	0.14191	0.28316	0.145	0.098634	0.048823	0.18789	0.10212	0.17336	0.19074	0.064967	0.18564	0.070117	0.091148	0.064992	-3.6146	-3.3563	-3.9688	-3.8438	-3.3542	-3.9188	-3.4833	-3.7938	-4.2375	-3.2313	-3.8667	-3.7021	-3.3396	-4.1417	-3.3792	-3.5854	263.959	161.873	315.679	316.060	45.795	17.554	56.921	366.667	326.677	136.262	304.002	130.581	11.646	88.723	320.913	250.542	0.00050896	0.00022417	6.6809e-05	956.21	2.0996e-06	3.6948e-06	1062	199.01	5.5828e-06	1.1318e-06	257.22	72.428	56.161	16.307	5.8573e-06	23.263	0.0002019	0.00019105	4.9543e-05	945.77	1.9446e-06	1.8737e-06	1051.5	198.37	1.9541e-06	1.9883e-06	252.27	72.798	56.349	16.544	1.9167e-06	23.559	26.429	112.169	92.191	18.781	183.446	146.352	18.947	26.855	186.414	103.633	26.604	32.783	34.170	40.312	163.644	39.832	-8191	255	
1277.831	1	1	0	0	0.1531	0.23287	0.11954	0.17515	0.16756	0.10496	0.20623	0.22493	0.032339	0.04695	0.22338	0.31434	0.21493	0.33333	0.11532	0.11388	-3.6167	-3.3396	-3.85	-3.8604	-3.3875	-4.0563	-3.7562	-3.4833	-4.0479	-3.2812	-3.7625	-3.975	-3.2313	-3.8125	-3.4917	-3.4167	220.565	258.907	248.493	333.833	81.057	83.577	309.736	36.858	12.396	270.095	231.103	317.111	313.999	362.050	326.440	268.744	0.00050391	0.00032208	9.08e-05	956.32	4.3471e-06	4.0353e-06	1061.7	198.76	5.174e-06	1.7029e-06	257.38	71.815	55.747	16.404	3.3592e-06	23.23	0.00020288	0.00018454	4.8723e-05	944.43	2.029e-06	1.9689e-06	1050.3	198.34	1.9774e-06	2.0379e-06	252.16	72.819	56.016	16.617	1.8559e-06	23.627	25.579	100.410	61.539	18.871	163.502	168.482	19.189	26.760	157.382	234.261	26.515	32.851	34.044	40.571	135.739	39.940	-8191	255	
1277.928	1	1	0	0	0.28855	0.069932	0.11493	0.13273	0.037856	0.058437	0.18012	0.0080895	0.047566	0.10045	0.17813	0.053349	0.13232	0.22211	0.25182	0.10881	-3.7188	-3.3208	-3.4958	-3.9125	-3.0417	-3.9917	-3.9792	-3.3771	-4.0333	-3.3021	-3.65	-4.0062	-3.325	-3.9104	-3.5396	-3.3063	300.989	109.936	368.359	319.292	287.973	268.223	345.711	274.188	45.603	257.156	177.467	324.908	286.483	321.235	152.091	217.320	0.00054565	0.00025484	9.5831e-05	953.61	3.8292e-06	3.7352e-06	1070.5	199.38	4.8482e-06	3.7503e-06	258.65	72.583	56.081	16.322	3.0417e-06	23.167	0.00020743	0.00018029	4.5236e-05	943.98	2.0904e-06	1.9506e-06	1055.8	198.37	2.0245e-06	2.0314e-06	251.91	72.981	56.446	16.611	1.8417e-06	23.695	35.074	119.354	120.858	18.915	188.849	182.369	18.837	26.858	171.057	127.428	25.597	32.763	33.703	40.749	158.220	39.983	-8191	255	
1278.024	1	1	0	0	0.042375	0.21001	0.24591	0.039292	0.14282	0.087317	0.13113	0.19354	0.07471	0.14371	0.098139	0.20146	0.23549	0.13532	0.30078	0.12539	-3.6708	-3.3021	-3.5292	-4.0896	-3.1479	-3.7417	-3.9042	-3.2875	-4.0354	-3.2083	-3.7396	-3.9021	-3.1458	-3.775	-3.6375	-3.3187	12.148	280.434	286.014	284.112	56.291	268.487	69.096	302.167	229.019	34.156	293.947	332.260	311.851	242.616	110.246	298.360	0.00051217	0.00018868	4.0729e-05	958.51	1.2625e-06	2.728e-06	1063.3	198.37	3.9171e-06	5.8007e-06	260.31	72.491	56.036	16.417	4.095e-06	23.399	0.00021202	0.00017862	4.8159e-05	947.69	2.0964e-06	1.903e-06	1053.8	198.17	1.934e-06	2.0156e-06	250.49	73.181	56.404	16.673	1.8676e-06	23.763	27.934	96.825	49.283	18.835	221.756	169.029	18.967	26.662	178.282	178.877	25.819	32.794	33.719	41.085	179.208	39.818	-8191	255	
1278.120	1	1	0	0	0.2283	0.079319	0.11512	0.21264	0.1388	0.17125	0.1051	0.12817	0.025094	0.11111	0.17346	0.10644	0.12805	0.18625	0.19759	0.272	-3.5563	-3.4313	-3.3187	-4.1875	-3.4917	-3.9708	-4.1521	-3.3458	-4.0687	-3.4208	-3.475	-4.275	-3.3292	-3.8875	-3.9917	-3.2229	144.027	92.861	57.369	10.441	189.724	197.106	360.052	84.383	77.931	311.308	300.136	219.507	177.850	14.633	137.432	323.668	0.00050354	0.00020398	7.6934e-05	960.6	3.3789e-06	1.4862e-06	1061.8	198.62	4.3376e-06	1.1622e-06	259.71	72.492	55.997	16.333	4.1649e-06	23.183	0.00021599	0.00017893	4.9225e-05	949.78	2.1268e-06	1.9582e-06	1053.8	198.12	1.9589e-06	1.8441e-06	254.16	72.863	56.343	16.654	1.9029e-06	23.631	37.062	96.828	94.040	18.944	167.094	173.996	18.930	26.554	127.563	335.718	25.939	32.597	33.760	40.609	145.255	39.702	-8191	255	
1278.216	1	1	0	0	0.1988	0.13931	0.159	0.20845	0.083314	0.13174	0.13758	0.13905	0.037802	0.25659	0.15193	0.34103	0.27143	0.084658	0.22753	0.098482	-3.6521	-3.5604	-3.3021	-4.1708	-3.35	-3.5729	-4.1979	-3.3333	-3.9833	-3.7042	-3.3812	-4.2167	-3.4479	-3.6771	-3.9229	-3.3438	109.026	316.512	308.634	60.268	311.417	84.054	287.793	8.750	267.809	344.058	64.289	312.752	314.402	36.225	108.333	250.936	0.00047256	0.00023191	7.1523e-05	966.25	2.9293e-06	1.8018e-06	1064.9	197.69	4.0906e-06	2.736e-06	259.11	72.67	55.903	16.411	3.7328e-06	23.325	0.00020919	0.00017224	4.9107e-05	949.71	2.067e-06	1.8315e-06	1052.9	198.11	1.9952e-06	1.8747e-06	253.14	73.224	56.371	16.62	1.8589e-06	23.69	35.638	113.709	83.198	18.803	146.806	209.229	18.814	26.374	203.807	177.403	26.212	33.029	33.714	40.630	191.842	40.334	-8191	255	
1278.337	1	1	0	0	0.27388	0.13622	0.27313	0.069036	0.17219	0.19821	0.024322	0.019314	0.057839	0.10117	0.078775	0.22111	0.13211	0.42904	0.051105	0.2054	-3.4729	-3.75	-3.2792	-4.1729	-3.2917	-3.6437	-4.2229	-3.3937	-3.75	-3.85	-3.2458	-4.15	-3.5646	-3.4146	-4.0813	-3.3	66.346	82.726	313.014	340.028	78.852	142.696	70.009	361.665	242.096	343.804	84.205	124.721	301.384	367.619	163.736	321.848	0.00047878	0.00031603	9.5398e-05	959.4	4.4509e-06	4.2068e-06	1071.4	198.6	3.4509e-06	2.5961e-06	262.06	72.558	56.624	16.368	3.9192e-06	23.284	0.00020975	0.0001681	5.0928e-05	948.86	2.0193e-06	1.8516e-06	1056.6	198.62	1.9747e-06	1.8773e-06	254.45	73.059	56.521	16.629	2.0281e-06	23.671	30.824	114.997	82.163	18.990	131.718	141.172	19.054	26.510	175.027	150.645	27.258	32.931	33.624	41.078	155.925	40.119	-8191	255	
1278.433	1	1	0	0	0.049323	0.089203	0.1299	0.13819	0.086469	0.28546	0.2583	0.096493	0.1449	0.083613	0.013574	0.1136	0.21681	0.11521	0.19006	0.03829	-3.3854	-3.8271	-3.1229	-4.0896	-3.6125	-3.4396	-4.4208	-3.5167	-3.825	-3.9437	-3.2396	-4.1583	-3.7375	-3.5125	-4.0167	-3.3979	21.119	251.863	296.942	259.306	111.702	306.986	357.537	235.990	53.287	338.428	116.606	287.183	36.671	274.333	344.669	76.441	0.00041574	0.00012914	0.00012206	959.76	3.3803e-06	1.7844e-06	1069.3	197.9	3.9863e-06	4.0438e-06	256.37	72.785	55.99	16.37	3.5577e-06	23.358	0.00019779	0.00017191	5.1441e-05	947.35	2.0085e-06	1.8453e-06	1056.9	197.98	1.8928e-06	1.9549e-06	252.24	73.167	56.161	16.661	2.0498e-06	23.695	41.768	108.612	116.605	18.833	187.492	88.843	19.101	26.624	167.088	180.700	26.210	33.067	33.633	40.753	161.828	39.531	-8191	255	
1278.529	1	1	0	0	0.074382	0.1556	0.076344	0.28846	0.033473	0.167	0.3662	0.21212	0.13123	0.061695	0.21197	0.10863	0.21116	0.19599	0.079169	0.20012	-3.1375	-4.025	-3.2438	-3.9521	-3.625	-3.4104	-4.2396	-3.5563	-3.6375	-3.9375	-3.1458	-3.9833	-3.8417	-3.3271	-4.0854	-3.4979	178.498	123.992	72.507	227.896	52.621	112.292	320.684	357.962	218.425	230.919	48.801	294.209	188.022	341.012	282.703	339.510	0.0005553	0.00028971	9.6504e-05	964.7	4.7778e-06	2.6773e-06	1066	199.48	4.1139e-06	3.3314e-06	256.07	72.599	56.31	16.46	1.9575e-06	23.458	0.00020282	0.00016461	4.9364e-05	948.45	1.9386e-06	1.9868e-06	1054.5	198.37	1.919e-06	1.9741e-06	252.37	73.142	56.471	16.642	1.9321e-06	23.71	35.531	117.852	76.017	18.692	181.706	154.504	18.898	26.706	193.601	160.306	26.159	33.161	33.226	40.340	134.731	40.003	-8191	255	
1278.625	1	1	0	0	0.38564	0.076664	0.21073	0.048528	0.20193	0.1748	0.20097	0.21195	0.06095	0.12236	0.077786	0.2512	0.29269	0.056362	0.17189	0.10204	-3.1146	-4.0604	-3.2042	-3.9688	-3.8396	-3.225	-4.2729	-3.575	-3.4813	-4.0563	-3.2229	-3.85	-3.8187	-3.2938	-4.05	-3.7792	53.828	353.657	162.449	107.362	250.107	147.653	288.263	347.223	292.449	16.591	220.972	350.269	223.425	129.801	15.313	278.393	0.00051932	0.00030844	6.3079e-05	963.87	4.0658e-06	5.0049e-06	1061.1	198.73	3.6887e-06	3.4279e-06	255.07	72.293	56.237	16.283	2.6199e-06	23.406	0.00020697	0.00018105	5.1835e-05	949.22	1.9622e-06	2.048e-06	1053.8	198.26	1.9497e-06	1.9703e-06	252.12	72.988	56.471	16.59	1.9185e-06	23.63	33.430	90.458	121.654	18.730	177.912	159.716	18.927	26.413	143.210	156.102	25.260	33.077	33.683	40.934	110.812	40.320	-8191	255	
1278.721	1	1	0	0	0.069764	0.15192	0.18905	0.25828	0.068442	0.23113	0.11862	0.1516	0.11868	0.19211	0.25701	0.063855	0.042113	0.11876	0.069159	0.12734	-3.0958	-4.0083	-3.5021	-3.8917	-3.9354	-3.2938	-4.0729	-3.7271	-3.3896	-4.1646	-3.5542	-3.8625	-4.0271	-3.3458	-4.0021	-3.7708	178.825	54.691	109.646	300.577	347.082	47.091	288.501	30.831	29.230	161.632	346.677	15.539	216.404	47.365	316.411	328.964	0.00051891	0.00043373	8.5117e-05	957.34	3.2794e-06	1.8738e-06	1064.3	198.62	1.7809e-06	2.8267e-06	255.6	72.356	56.287	16.449	1.7058e-06	23.268	0.00020595	0.00017958	4.9507e-05	946.72	1.9911e-06	2.0328e-06	1052.8	198.26	2.0559e-06	1.9346e-06	251.06	72.954	56.36	16.676	1.8833e-06	23.662	28.016	130.686	130.342	18.987	174.718	131.868	18.765	26.431	129.477	126.625	26.374	32.806	33.230	40.745	156.154	40.239	-8191	255	
1278.816	1	1	0	0	0.11372	0.15577	0.24702	0.098784	0.24517	0.023588	0.15263	0.30812	0.19639	0.1298	0.27072	0.11152	0.048614	0.11308	0.17631	0.17997	-2.8771	-4.0437	-3.5271	-3.7438	-3.8396	-3.2542	-4.1271	-3.7667	-3.2292	-4.0417	-3.55	-3.6792	-4.1854	-3.4021	-3.9688	-3.8792	146.892	126.111	160.881	232.433	94.661	99.191	339.538	335.615	234.403	36.594	57.872	354.326	364.595	365.487	16.364	316.236	0.00050231	0.00029185	9.5878e-05	958.74	2.6289e-06	2.9626e-06	1059.2	198.7	2.0352e-06	3.042e-06	255.39	72.852	56.181	16.49	2.0682e-06	23.373	0.00021988	0.00017794	4.8533e-05	948.29	2.0848e-06	2.0884e-06	1050.7	198.14	2.0615e-06	1.905e-06	251.36	73.193	56.464	16.71	1.855e-06	23.685	24.711	80.294	98.242	18.883	150.744	123.658	18.978	26.299	124.278	184.802	25.372	33.254	33.144	40.215	159.506	40.114	-8191	255	
1278.912	1	1	0	0	0.15498	0.098476	0.13637	0.050638	0.1856	0.13386	0.095695	0.068198	0.25985	0.1097	0.2289	0.13239	0.28082	0.1615	0.050548	0.070373	-2.8667	-4.1333	-3.6146	-3.6312	-4.0354	-3.2375	-3.9354	-3.9583	-3.1979	-3.9125	-3.5854	-3.4042	-4.1021	-3.3708	-3.7583	-3.9062	283.467	263.536	65.580	30.122	60.674	207.371	26.393	290.320	107.060	109.002	18.825	265.637	256.197	348.134	20.068	225.048	0.00045831	0.00019252	8.958e-05	958.84	3.0925e-06	2.2477e-06	1067.2	198.08	5.3809e-06	2.1006e-06	254.47	72.31	55.95	16.307	3.1597e-06	23.272	0.00021781	0.00017509	4.9661e-05	947.47	2.0751e-06	1.9991e-06	1053.9	198.24	2.1031e-06	1.8574e-06	252.15	72.941	56.238	16.624	1.9465e-06	23.686	42.315	113.101	113.917	19.015	183.649	148.319	19.144	26.594	183.411	199.588	26.437	32.718	33.910	40.767	132.791	40.254	-8191	255	
1279.032	1	1	0	0	0.13595	0.075734	0.25811	0.050522	0.24813	0.059224	0.050397	0.035042	0.2152	0.25074	0.096632	0.14363	0.13296	0.12761	0.34598	0.067835	-2.825	-3.8375	-3.6375	-3.3771	-4.0854	-3.3479	-3.9854	-4.1979	-3.1146	-4.0417	-3.5271	-3.3333	-4.0167	-3.4354	-3.4771	-3.9021	320.801	139.971	44.268	280.083	289.225	158.912	89.836	136.285	296.076	167.659	290.548	305.590	116.753	316.889	297.581	53.739	0.00040222	0.00030618	9.306e-05	957.31	5.4891e-06	3.5151e-06	1065.5	198.07	6.202e-06	4.9927e-06	259.44	72.254	56.695	16.279	1.9145e-06	23.325	0.00021075	0.00018149	4.7513e-05	946.83	2.1237e-06	1.9985e-06	1053.9	198.18	2.1484e-06	1.8467e-06	251.31	72.943	56.591	16.621	1.9368e-06	23.611	30.187	121.328	107.900	18.860	156.954	142.276	19.006	26.613	191.249	179.732	25.768	32.993	34.080	40.279	119.158	39.516	-8191	255	
1279.129	1	1	0	0	0.19743	0.05097	0.051299	0.19708	0.083292	0.13851	0.064761	0.068602	0.19248	0.15512	0.12074	0.13282	0.30224	0.049655	0.25939	0.14848	-2.7208	-3.6375	-3.7229	-3.3729	-3.9854	-3.6208	-3.7083	-4.0604	-3.1521	-3.8625	-3.7958	-3.2812	-4.0417	-3.5438	-3.5563	-4.0375	26.406	183.536	164.147	317.739	280.024	297.187	352.447	265.416	336.854	70.612	40.905	32.596	233.956	219.393	322.042	333.565	0.00052795	0.00016537	8.9353e-05	958.66	4.2474e-06	3.7285e-06	1068	198.79	1.5216e-06	3.8655e-06	255.32	73.098	55.973	16.279	1.6654e-06	23.287	0.00021601	0.00017228	4.9446e-05	947.63	2.013e-06	1.9582e-06	1054.7	198.17	2.0204e-06	1.7829e-06	250.58	73.246	56.267	16.605	2.0932e-06	23.663	32.789	147.525	97.329	18.662	171.285	154.229	18.943	26.557	186.528	180.068	25.650	33.152	33.640	40.869	51.354	39.981	-8191	255	
1279.225	1	1	0	0	0.033381	0.074114	0.19744	0.16259	0.27776	0.1598	0.049923	0.07539	0.050976	0.28998	0.11964	0.074563	0.26934	0.080624	0.037445	0.084789	-2.9229	-3.8083	-3.9062	-3.3146	-4.1146	-3.4604	-3.6104	-4.0583	-3.275	-3.7396	-3.8625	-3.3604	-4.0896	-3.5958	-3.3958	-4.1917	286.433	229.734	128.105	35.347	355.327	348.643	327.400	270.580	325.339	230.684	323.317	280.624	360.891	298.069	321.158	277.752	0.00045482	0.00030898	0.00011876	951.6	3.5414e-06	3.1227e-06	1069.9	198.03	5.2881e-06	2.7514e-06	262.26	72.447	56.065	16.351	3.6195e-06	23.33	0.00020852	0.00016825	5.1723e-05	943.87	1.9841e-06	1.891e-06	1052.9	197.81	2.0586e-06	1.8753e-06	252.18	73.137	56.201	16.597	2.0007e-06	23.609	36.445	96.234	72.623	18.830	165.450	178.188	19.295	26.592	143.698	160.784	25.174	32.555	33.387	40.633	124.775	39.814	-8191	255	
1279.296	1	1	0	0	0.109	0.15346	0.16374	0.17954	0.23112	0.13584	0.059469	0.13191	0.13458	0.11127	0.081928	0.078234	0.24624	0.045919	0.2377	0.16457	-2.875	-3.5917	-3.7625	-3.4333	-4.1417	-3.6375	-3.425	-4.2104	-3.5	-3.6917	-4.1083	-3.3271	-3.9396	-3.8688	-3.1646	-4.1979	21.697	286.358	81.533	332.540	203.323	365.679	220.818	53.447	48.926	195.639	177.229	347.497	88.743	128.746	254.453	233.474	0.00048281	0.00027795	6.7313e-05	959.87	3.4351e-06	3.0409e-06	1069.7	197.86	2.8929e-06	1.9994e-06	254.27	72.517	55.796	16.394	2.3612e-06	23.233	0.00020403	0.00016569	5.2394e-05	945.12	1.9388e-06	1.8535e-06	1054.5	197.96	1.9296e-06	1.8834e-06	250.49	73.083	56.236	16.603	2.0429e-06	23.636	27.648	121.516	202.364	18.986	155.594	127.064	18.773	26.980	211.800	190.448	25.350	32.828	33.719	40.583	147.495	40.432	-8191	255	
1279.417	1	1	0	0	0.086974	0.23847	0.10214	0.17526	0.16385	0.3924	0.30126	0.11306	0.18601	0.13849	0.14528	0.14009	0.25193	0.13155	0.15111	0.1057	-3.0938	-3.4062	-4.1771	-3.2833	-3.9771	-3.8833	-3.3771	-4.15	-3.2458	-3.6708	-4.0021	-3.3021	-3.7375	-3.8458	-3.0312	-3.9521	133.869	196.487	296.979	326.312	13.573	260.069	316.122	297.326	263.962	32.939	310.453	268.265	31.097	351.827	226.188	111.498	0.00039457	0.00019655	7.4328e-05	963.22	2.5107e-06	1.6555e-06	1064	198.56	4.0958e-06	2.6847e-06	258.31	72.551	56.17	16.436	2.2365e-06	23.294	0.00019569	0.00018186	5.142e-05	947.31	1.8958e-06	1.9139e-06	1052.1	198.05	2.0354e-06	2.0179e-06	252.82	72.892	56.289	16.659	2.0533e-06	23.668	36.162	136.548	125.252	18.870	163.185	178.498	18.901	26.303	167.191	158.065	26.388	32.874	34.094	40.800	149.212	39.884	-8191	255	
1279.513	1	1	0	0	0.32192	0.21895	0.15668	0.41268	0.082488	0.15378	0.10963	0.19491	0.22783	0.085254	0.15882	0.17353	0.17751	0.078982	0.14358	0.051006	-3.0896	-3.5396	-3.9062	-3.3625	-3.7167	-3.8563	-3.1333	-4.0917	-3.6375	-3.3979	-4.0875	-3.3208	-3.65	-4.1208	-3.3042	-4.0104	283.320	292.024	277.092	39.807	141.666	75.769	329.270	346.861	31.725	259.407	180.077	331.095	322.348	354.164	285.623	273.772	0.00057941	0.00015964	6.4987e-05	961.47	3.1332e-06	3.9791e-06	1058	198.15	5.6988e-06	4.2245e-07	256.95	72.611	56.125	16.335	2.9458e-06	23.179	0.00019631	0.00017956	5.0528e-05	947.61	1.9299e-06	1.933e-06	1050.8	198	1.9254e-06	2.0108e-06	252.5	73.075	56.392	16.649	2.1097e-06	23.66	31.207	75.605	107.036	18.982	213.538	204.750	19.260	26.733	153.219	136.645	26.672	32.666	33.869	41.025	173.420	39.900	-8191	255	
1279.609	1	1	0	0	0.07789	0.03483	0.086357	0.2098	0.16777	0.13029	0.4919	0.26445	0.32189	0.28935	0.079334	0.098514	0.15541	0.32108	0.10915	0.15604	-3.1042	-3.3208	-4.0542	-3.5771	-3.6562	-3.8333	-3.4583	-4.05	-3.7146	-3.3958	-4.0062	-3.4646	-3.55	-4	-3.1792	-4.0208	306.039	166.641	263.741	238.374	133.889	26.760	282.489	185.909	282.790	69.197	97.714	238.905	311.965	86.539	206.640	96.296	0.00046591	0.00010998	8.7463e-05	954.22	3.9187e-06	3.4914e-06	1064.3	198.6	6.5065e-06	3.2561e-06	259.38	72.358	56.442	16.302	9.1874e-07	23.305	0.00020795	0.00019149	4.8436e-05	942.85	2.0358e-06	1.9596e-06	1052.6	198.01	2.0925e-06	2.1029e-06	251.83	72.919	56.443	16.571	1.9325e-06	23.67	32.550	93.234	75.035	18.904	149.541	170.198	18.951	26.426	206.092	149.043	26.476	32.966	34.031	40.958	192.168	40.480	-8191	255	
1279.730	1	1	0	0	0.074974	0.28548	0.23068	0.28371	0.11648	0.13154	0.245	0.15758	0.045852	0.071861	0.20865	0.13847	0.14946	0.10732	0.15614	0.32952	-3.4667	-3.1917	-4.0958	-3.6312	-3.4729	-4.0104	-3.3958	-3.8625	-3.8271	-3.1875	-3.9896	-3.5312	-3.4625	-4.0354	-3.4	-3.6521	39.912	24.830	256.068	296.076	71.605	53.153	235.764	272.300	282.491	106.582	12.242	50.315	83.948	170.123	250.628	290.402	0.00043965	0.00030725	0.00010784	959.45	2.1975e-06	5.8483e-06	1066.8	199.65	5.2913e-06	2.318e-06	257.38	72.571	55.907	16.359	3.2209e-06	23.289	0.00020975	0.00018607	4.8169e-05	944.74	2.151e-06	1.9657e-06	1053.5	198.43	2.0578e-06	1.9502e-06	250.27	72.972	56.377	16.634	1.9745e-06	23.713	23.358	94.209	102.148	18.656	169.190	164.043	18.971	27.066	176.789	160.163	25.443	33.138	33.638	40.463	157.826	40.224	-8191	255	
1279.824	1	1	0	0	0.045189	0.10501	0.21326	0.17907	0.25263	0.12077	0.076313	0.20873	0.13734	0.097177	0.18232	0.34792	0.16485	0.11767	0.077935	0.23427	-3.45	-3.2646	-3.9333	-3.6083	-3.4875	-4.1167	-3.5125	-3.7271	-3.9729	-3.2292	-3.9437	-3.5583	-3.4208	-4.1854	-3.4333	-3.5875	123.382	12.192	204.406	336.716	211.523	258.461	291.155	247.598	243.019	112.868	230.874	28.979	187.965	259.966	137.056	349.048	0.00057783	0.0002699	4.4309e-05	962.46	2.6982e-06	3.7702e-06	1058.8	198.93	3.7508e-06	2.7354e-06	260.21	72.425	56.044	16.48	4.0354e-06	23.3	0.00021518	0.00018794	4.3893e-05	945.67	2.1263e-06	1.9791e-06	1050.1	198.46	2.085e-06	1.9571e-06	253.47	72.97	56.249	16.628	1.9285e-06	23.706	35.092	131.961	75.229	18.655	145.390	149.303	18.939	26.605	189.428	137.877	26.584	33.053	33.639	40.883	187.397	40.253	-8191	255	
1279.898	1	1	0	0	0.12797	0.058842	0.14458	0.25135	0.26068	0.068136	0.26848	0.079509	0.16547	0.15512	0.24304	0.055009	0.27829	0.32623	0.1764	0.069454	-3.6521	-3.3104	-3.8833	-3.8542	-3.5146	-4.1104	-3.5542	-3.4458	-3.925	-3.2979	-3.8708	-3.6125	-3.2708	-3.925	-3.3833	-3.3563	173.115	316.320	359.831	329.739	67.051	235.761	315.814	336.235	227.235	152.316	228.267	124.667	254.223	36.561	306.357	320.730	0.00052198	0.00036285	7.761e-05	953.83	4.7908e-06	5.2924e-06	1063.3	198.05	7.2845e-06	2.5872e-06	252.62	72.691	55.985	16.319	3.4871e-06	23.508	0.00020328	0.00018305	4.679e-05	944	2.1818e-06	1.8054e-06	1050.8	198.18	2.0811e-06	1.9152e-06	250.22	73.114	56.237	16.531	1.9429e-06	23.813	31.451	100.214	123.766	18.634	166.703	145.562	19.017	26.853	186.227	184.452	27.112	32.951	34.177	40.665	160.861	40.159	-8191	255	
1280.017	1	1	0	0	0.083817	0.21083	0.020362	0.15064	0.11897	0.14295	0.12684	0.16663	0.18357	0.17512	0.05246	0.15137	0.082101	0.26218	0.057038	0.063136	-3.45	-3.2167	-3.7687	-3.8583	-3.4771	-3.975	-3.7729	-3.6667	-4.0687	-3.2062	-3.9354	-3.8375	-3.2188	-4.0271	-3.5167	-3.4125	238.594	328.230	354.913	266.757	91.600	326.777	290.023	40.393	239.727	311.747	51.758	9.334	97.018	32.130	124.024	129.399	0.00047307	0.00028881	9.1521e-05	959.36	4.328e-06	3.0141e-06	1066.3	197.49	3.2319e-06	2.919e-06	257.92	71.975	56.298	16.458	3.4821e-06	23.343	0.00020071	0.00017617	4.7103e-05	943.29	2.0467e-06	1.8948e-06	1053.3	197.96	2.1126e-06	1.9028e-06	252.23	72.834	56.318	16.602	2.0092e-06	23.712	30.582	63.977	104.245	18.843	155.231	162.976	19.048	26.861	183.963	185.382	26.192	32.727	33.927	40.674	164.331	40.159	-8191	255	
1280.113	1	1	0	0	0.20626	0.16597	0.3046	0.085744	0.21279	0.19971	0.13743	0.29347	0.045324	0.015602	0.12999	0.22822	0.094665	0.18935	0.194	0.41721	-3.6521	-3.3021	-3.6417	-4.0354	-3.1396	-3.8312	-3.7062	-3.4458	-4.0604	-3.3729	-3.6354	-4.0417	-3.3292	-3.8542	-3.5875	-3.2021	312.330	143.445	235.188	322.295	170.791	306.330	313.764	341.505	27.322	41.369	56.055	316.452	323.248	321.226	77.982	331.480	0.00045063	0.00041822	2.8488e-05	954.96	3.4577e-06	5.4695e-06	1062.6	199.74	3.3568e-06	3.4009e-06	256.18	71.862	55.897	16.33	2.5916e-06	23.239	0.00019889	0.00017467	4.6031e-05	944.68	2.0546e-06	1.8587e-06	1050.3	198.48	1.8708e-06	1.8603e-06	252.69	72.831	56.24	16.65	2.035e-06	23.67	35.793	89.609	164.345	18.784	152.184	117.712	18.948	26.702	177.260	158.812	25.699	32.841	33.756	40.764	110.157	40.005	-8191	255	
1280.209	1	1	0	0	0.27959	0.15798	0.052561	0.18981	0.074851	0.22063	0.20283	0.077361	0.17547	0.18322	0.1111	0.13563	0.16945	0.18228	0.23832	0.046479	-3.5792	-3.2708	-3.3125	-4.0875	-3.1604	-3.7729	-3.8729	-3.275	-4	-3.3833	-3.325	-4.0604	-3.0854	-3.8583	-3.7979	-3.3375	16.145	108.014	272.020	254.127	260.186	18.285	16.036	185.673	353.572	74.351	321.739	331.162	27.706	241.836	14.029	295.746	0.00054514	0.0003871	8.04e-05	956.15	3.1266e-06	1.1795e-06	1063.9	199.32	4.5466e-06	1.3175e-06	253.76	72.619	55.807	16.226	4.5318e-06	23.311	0.00020183	0.00017349	5.0738e-05	943.75	1.9169e-06	1.8758e-06	1051	198.48	1.8725e-06	1.8224e-06	252.37	73.039	56.159	16.594	2.0934e-06	23.632	29.685	81.626	83.664	18.814	171.191	176.649	18.869	26.788	157.289	164.718	27.082	32.723	34.087	40.664	174.766	39.984	-8191	255	
1280.330	1	1	0	0	0.089211	0.035622	0.26478	0.082034	0.078725	0.059256	0.36344	0.26335	0.11109	0.13834	0.11607	0.068913	0.086371	0.12432	0.16751	0.13027	-3.5083	-3.4479	-3.3771	-4.1833	-3.1354	-3.7854	-3.9938	-3.2917	-3.9896	-3.5646	-3.3458	-4.2583	-3.275	-3.7646	-3.8167	-3.3208	177.652	79.346	224.311	229.561	157.434	32.559	310.758	11.365	250.946	62.329	105.627	226.871	122.117	48.515	123.300	300.706	0.00049849	0.00031972	7.257e-05	957.5	3.0309e-06	3.7632e-06	1065	198.15	1.7933e-06	3.0926e-06	255.69	72.774	56.085	16.365	3.3761e-06	23.183	0.00019603	0.00017948	5.14e-05	945.94	1.9486e-06	1.9462e-06	1051.6	198.2	1.877e-06	1.9474e-06	250.93	73.116	56.223	16.584	2.0147e-06	23.693	30.817	80.828	96.686	18.592	189.990	138.759	19.225	26.830	217.729	170.700	27.433	32.682	33.594	40.732	181.919	40.359	-8191	255	
1280.426	1	1	0	0	0.06731	0.13571	0.12829	0.076458	0.20315	0.12581	0.069572	0.16575	0.15848	0.083348	0.1464	0.13415	0.12379	0.19259	0.22882	0.16966	-3.55	-3.4813	-3.1708	-4.0979	-3.1458	-3.5917	-4.0667	-3.2458	-3.9021	-3.7042	-3.2146	-4.1146	-3.3708	-3.3958	-3.9021	-3.3729	32.777	65.796	238.175	92.674	78.221	338.888	35.203	334.488	302.625	114.313	76.916	229.134	302.334	327.501	29.810	17.986	0.00047345	0.00028319	0.00012544	958.74	2.0441e-06	4.3068e-06	1062.7	199.03	4.6659e-06	2.335e-06	255.23	72.555	56.438	16.507	2.7993e-06	23.292	0.0002004	0.0001811	5.1523e-05	944.92	2.018e-06	1.9719e-06	1050.7	198.3	1.9188e-06	2.0118e-06	252.37	72.856	56.368	16.661	1.9246e-06	23.684	27.554	98.359	110.817	18.864	187.389	185.303	18.851	26.647	153.181	116.419	26.128	32.963	33.311	40.537	202.597	39.961	-8191	255	
1280.522	1	1	0	0	0.20862	0.088776	0.19111	0.12133	0.26283	0.17555	0.20285	0.10875	0.058067	0.03866	0.18904	0.11748	0.20729	0.083353	0.14633	0.25931	-3.2729	-3.8625	-3.225	-4.1146	-3.5146	-3.3937	-4.1271	-3.3958	-3.8125	-3.7708	-3.2042	-4.0292	-3.4958	-3.3958	-3.9813	-3.3854	100.820	59.569	100.032	232.285	240.851	285.146	282.119	297.184	97.691	276.167	352.901	188.232	94.698	11.072	266.949	261.669	0.00054745	0.00018434	6.7431e-05	960.96	2.5186e-06	1.7184e-06	1061.4	198.89	4.2845e-06	3.5114e-06	258.04	71.926	56.712	16.35	3.1981e-06	23.246	0.00021159	0.00018544	5.0005e-05	945.52	2.0827e-06	2.0417e-06	1052	197.99	2.0565e-06	2.026e-06	253.22	72.847	56.543	16.665	1.8968e-06	23.644	13.157	128.951	93.434	18.730	212.717	162.170	19.058	26.849	203.314	136.693	25.571	33.096	33.646	40.350	172.462	39.500	-8191	255	
1280.594	1	1	0	0	0.078017	0.13425	0.1814	0.080606	0.25148	0.13224	0.2451	0.13683	0.21958	0.091175	0.15134	0.10431	0.030607	0.20775	0.16928	0.17045	-3.4146	-3.7271	-3.1688	-4.0229	-3.5625	-3.3563	-4.1896	-3.3896	-3.7479	-3.9875	-3.1771	-3.9854	-3.5938	-3.3417	-3.9771	-3.5187	335.157	98.422	351.890	79.442	180.954	28.103	241.642	22.114	147.179	86.799	329.399	287.947	246.158	299.773	44.594	368.688	0.00048322	0.00027733	5.4066e-05	955.92	1.3621e-06	1.4175e-06	1069.5	197.16	4.9907e-06	1.168e-06	258.06	72.327	55.973	16.432	3.8248e-06	23.061	0.00020121	0.00017058	4.7831e-05	943.72	2.0112e-06	1.9099e-06	1051.9	197.44	2.0324e-06	2.0148e-06	252.82	72.954	56.19	16.673	1.8378e-06	23.538	42.875	93.506	91.443	19.095	123.887	78.437	19.126	26.733	163.579	198.525	26.480	32.741	34.136	41.283	144.929	39.966	-8191	255	
1280.712	1	1	0	0	0.069672	0.21695	0.1244	0.18544	0.17858	0.15757	0.2607	0.3455	0.091155	0.2086	0.14271	0.13362	0.07668	0.21939	0.17134	0.1377	-3.3146	-3.8688	-3.1833	-3.8688	-3.6188	-3.3958	-4.2104	-3.4729	-3.4542	-4.1125	-3.1333	-3.7812	-3.7188	-3.2979	-4.0583	-3.4542	317.261	358.078	91.099	319.323	350.939	37.980	367.196	347.839	100.630	93.641	362.948	311.481	301.575	137.902	72.937	157.608	0.00050415	0.00018655	0.00010723	951.64	4.0488e-06	1.2822e-06	1063.6	198.07	1.5999e-06	3.557e-06	255.59	71.974	56.242	16.287	7.2642e-07	23.452	0.00020095	0.0001781	4.7626e-05	942.36	1.9663e-06	1.8948e-06	1050.5	197.83	2.0158e-06	2.01e-06	251.95	72.955	56.367	16.561	1.7276e-06	23.704	36.748	51.522	74.938	18.995	202.419	218.884	19.171	26.684	53.997	171.680	26.745	33.608	33.462	40.832	215.425	40.254	-8191	255	
1280.809	1	1	0	0	0.19646	0.18522	0.22171	0.2242	0.16031	0.036421	0.16219	0.059973	0.045092	0.14504	0.33618	0.25749	0.064079	0.037008	0.11995	0.12312	-3.1396	-4.1542	-3.1083	-3.9062	-3.7458	-3.2708	-4.15	-3.6104	-3.5396	-3.9792	-3.2667	-3.8729	-3.9208	-3.3479	-3.775	-3.7125	115.234	105.283	360.513	287.264	256.227	89.923	271.563	327.460	76.486	267.360	251.498	64.369	210.268	227.263	250.016	47.400	0.00046546	1.6062e-05	8.1952e-05	954.67	4.971e-06	2.1616e-06	1062	198.64	4.4108e-06	2.7333e-06	254.91	72.747	56.362	16.462	2.1768e-06	23.359	0.00020904	0.00015968	4.8118e-05	942.52	2.017e-06	2.0265e-06	1050.6	197.62	2.1571e-06	1.7764e-06	251.26	72.971	56.533	16.642	1.9305e-06	23.644	34.834	190.640	98.317	19.056	159.556	172.618	19.184	26.735	224.536	160.590	26.034	33.233	34.039	40.950	168.855	40.214	-8191	255	
1280.905	1	1	0	0	0.37224	0.26049	0.39289	0.15007	0.06347	0.11707	0.25896	0.18663	0.20714	0.07466	0.077001	0.28065	0.16074	0.20691	0.093725	0.024566	-3	-4.0854	-3.4396	-3.7833	-3.7604	-3.25	-4.1937	-3.7313	-3.325	-4.0333	-3.3146	-3.7938	-4.0979	-3.3021	-3.9458	-3.7604	165.005	78.979	152.468	262.730	138.036	256.830	266.029	60.261	47.230	25.516	259.005	343.799	341.336	24.848	27.308	289.529	0.00047425	0.00031624	0.00010191	952.05	2.3263e-06	3.1841e-06	1059.5	199.42	5.6621e-06	3.2767e-06	258.65	72.632	55.96	16.426	3.4371e-06	23.203	0.00020789	0.00016251	5.1712e-05	942.01	1.9713e-06	1.9482e-06	1049.5	198.25	2.0844e-06	1.8163e-06	253.12	73.038	56.241	16.622	1.9202e-06	23.684	29.838	109.561	72.520	19.142	147.846	117.765	19.241	26.536	185.362	130.051	25.982	33.325	33.933	40.487	175.044	39.867	-8191	255	
1281.001	1	1	0	0	0.084885	0.14598	0.28796	0.23817	0.054265	0.12169	0.15146	0.18634	0.095541	0.15501	0.15045	0.15458	0.089919	0.24056	0.035382	0.074111	-3.0687	-4.0437	-3.3896	-3.6396	-3.8979	-3.1188	-3.9437	-3.7875	-3.2354	-4.1917	-3.5958	-3.5396	-4.0437	-3.2646	-4.0729	-3.8375	185.998	21.540	351.389	346.105	259.543	365.913	276.402	86.850	181.516	20.551	173.568	358.333	42.342	332.034	87.222	128.468	0.00040644	0.00038129	5.8451e-05	955.85	4.5646e-06	1.8578e-06	1060.7	198.53	1.8951e-06	1.8528e-06	256.96	72.969	56.014	16.369	3.4181e-06	23.252	0.00020802	0.00016475	5.0492e-05	943.74	2.0484e-06	1.8892e-06	1050.2	197.87	2.0347e-06	1.8421e-06	250.36	73.124	56.237	16.667	2.0034e-06	23.664	31.972	118.100	133.422	18.967	178.034	234.807	19.147	26.562	142.522	154.617	25.186	32.793	34.264	40.681	175.712	39.899	-8191	255	
1281.121	1	1	0	0	0.3007	0.049008	0.14788	0.34515	0.013255	0.098227	0.16405	0.1335	0.14921	0.082544	0.084141	0.10316	0.14074	0.26205	0.22199	0.27485	-2.9562	-3.9875	-3.6146	-3.6229	-4.1125	-3.3958	-3.7792	-4.0854	-3.1312	-4.1438	-3.6	-3.3812	-4.0312	-3.3792	-3.9125	-3.9562	173.708	266.478	364.224	301.040	200.901	260.132	26.978	273.656	98.033	81.025	162.258	65.140	130.946	46.916	237.498	174.644	0.00052065	0.00012253	3.017e-05	956.48	3.6444e-06	3.8473e-06	1058.1	198.3	3.9789e-06	1.4431e-06	255.43	73.115	56.28	16.363	2.555e-06	23.332	0.00019969	0.00016065	5.0902e-05	943.43	1.8092e-06	1.8772e-06	1051.5	198.19	2.0312e-06	1.7661e-06	249.3	73.139	56.384	16.626	1.8394e-06	23.701	27.653	46.867	103.733	18.838	167.569	155.903	19.003	26.803	140.232	142.419	26.141	33.082	34.054	40.587	150.202	40.057	-8191	255	
1281.193	1	1	0	0	0.23867	0.27962	0.35262	0.26663	0.076173	0.18761	0.27498	0.21024	0.10522	0.031604	0.11885	0.070829	0.066397	0.041814	0.088344	0.20003	-2.8208	-4.0542	-3.6271	-3.4625	-3.9667	-3.3458	-3.7854	-4.1083	-3.1479	-3.8833	-3.8563	-3.2229	-4.1562	-3.3104	-3.5333	-4.1333	326.603	17.654	45.917	354.877	212.374	71.745	338.132	332.365	272.313	211.256	222.280	49.845	184.758	339.673	291.469	306.776	0.00057241	0.00037144	6.2529e-05	954.39	3.7471e-06	3.0997e-06	1061.1	198.29	5.7247e-07	1.1713e-06	251.48	72.005	55.805	16.383	2.0305e-06	23.22	0.00019582	0.00016851	4.8456e-05	943.1	1.9029e-06	1.9162e-06	1049.1	198.05	1.9323e-06	1.8761e-06	250.04	72.789	56.167	16.648	1.9952e-06	23.651	37.827	124.453	83.315	18.790	154.505	196.458	19.147	26.640	132.425	207.535	26.207	32.961	33.627	40.888	130.263	40.110	-8191	255	
1281.289	1	1	0	0	0.21919	0.26256	0.19907	0.16329	0.13078	0.065742	0.17301	0.088796	0.16472	0.3461	0.10557	0.1732	0.17039	0.11653	0.13975	0.035738	-2.7479	-3.8854	-3.7833	-3.2562	-3.9833	-3.5604	-3.5958	-4.1604	-3.3021	-3.8083	-3.8104	-3.3125	-4.1583	-3.3771	-3.5125	-4.0667	26.463	201.515	285.853	324.024	47.023	334.078	318.693	98.493	258.167	233.618	168.772	337.349	267.536	119.532	189.047	53.524	0.00049867	0.00024879	6.5707e-05	955.88	2.1888e-06	9.481e-07	1065.2	197.74	4.5002e-06	3.2531e-06	253.14	72.736	56.23	16.41	3.8894e-06	23.23	0.00020007	0.00017924	4.9231e-05	941.99	1.9204e-06	1.9711e-06	1051.4	197.47	1.8934e-06	1.8412e-06	250.8	72.978	56.398	16.601	2.064e-06	23.664	25.431	88.066	72.142	18.965	147.581	173.369	19.128	26.716	184.808	137.331	26.109	32.968	34.031	40.862	168.883	39.950	-8191	255	
1281.410	1	1	0	0	0.11778	0.16072	0.12079	0.18279	0.15847	0.19589	0.10744	0.045888	0.19251	0.08663	0.056079	0.14748	0.1252	0.19453	0.2161	0.18748	-2.7812	-3.8917	-3.7875	-3.2125	-3.9146	-3.5396	-3.4021	-4.2708	-3.4021	-3.7521	-3.8625	-3.1437	-3.9542	-3.6562	-3.2208	-4.1271	95.354	291.222	120.869	31.164	89.242	129.519	103.094	60.955	65.610	56.138	39.859	260.159	357.006	319.959	303.640	347.253	0.00044738	0.00029202	0.00012542	956.21	4.3984e-06	3.0087e-06	1058.4	197.72	4.948e-06	2.6329e-06	260.05	71.882	56.302	16.487	5.31e-06	23.163	0.0001985	0.00018035	4.8923e-05	942.9	1.9004e-06	2.0182e-06	1047.4	197.46	2.021e-06	2.0385e-06	253.14	72.846	56.246	16.641	1.9539e-06	23.617	41.432	71.560	118.919	19.098	156.476	138.952	18.804	26.482	174.996	170.116	25.288	33.047	33.670	40.785	200.536	39.689	-8191	255	
1281.506	1	1	0	0	0.10746	0.25195	0.24238	0.12255	0.078862	0.13032	0.35035	0.25416	0.13192	0.102	0.17642	0.14605	0.054533	0.18023	0.10451	0.11076	-2.9188	-3.6708	-3.7896	-3.3375	-3.9271	-3.6875	-3.5604	-4.2333	-3.3479	-3.5729	-4.0312	-3.2375	-3.8208	-3.9146	-3.2354	-4.1875	81.720	58.719	352.922	307.600	306.073	291.612	275.212	288.861	314.592	149.181	202.364	45.301	109.583	270.532	120.893	92.016	0.00050377	0.00019393	8.2763e-05	956.72	4.9857e-06	3.5801e-06	1063	198.77	3.7176e-06	3.0506e-06	254.68	72.805	55.702	16.555	1.7647e-06	23.424	0.00021143	0.00017831	4.7779e-05	943.35	1.9957e-06	2.0178e-06	1050.8	197.84	2.1116e-06	1.8878e-06	250.38	72.96	56.337	16.685	1.8792e-06	23.726	37.488	121.958	96.646	18.771	155.366	149.722	19.071	26.494	137.999	152.251	26.174	32.866	33.709	41.149	173.333	39.367	-8191	255	
1281.602	1	1	0	0	0.1812	0.12435	0.032209	0.13732	0.25595	0.14078	0.086143	0.12868	0.15929	0.044543	0.23972	0.20173	0.32102	0.27653	0.14345	0.16786	-3.0521	-3.425	-4.0271	-3.3458	-3.8979	-3.7958	-3.3812	-3.9625	-3.4125	-3.5333	-4.2083	-3.2896	-3.7958	-3.975	-3.2208	-4.0625	111.678	264.494	278.936	285.562	190.890	319.128	199.642	364.466	136.444	40.947	200.317	323.480	9.563	320.862	11.320	14.750	0.00049185	0.00030644	6.7368e-05	954.84	1.8661e-06	3.2445e-06	1058.3	198.03	5.4332e-06	3.4108e-06	255.57	72.734	56.195	16.557	3.0727e-06	23.182	0.00021066	0.00017419	4.6523e-05	945.32	2.0744e-06	1.8819e-06	1049.6	197.65	2.0179e-06	1.995e-06	251.16	72.96	56.429	16.657	1.9017e-06	23.632	27.912	121.515	123.036	18.779	211.812	144.744	19.021	26.610	140.740	166.340	26.237	33.104	33.823	40.653	193.366	39.731	-8191	255	
1281.698	1	1	0	0	0.093663	0.087826	0.19422	0.14286	0.15283	0.13199	0.14396	0.16583	0.090832	0.29223	0.12679	0.19451	0.13691	0.27521	0.1373	0.020389	-3.1646	-3.3375	-4.0979	-3.3875	-3.7625	-3.9813	-3.3563	-3.9854	-3.525	-3.1771	-3.9375	-3.325	-3.5854	-3.9854	-3.0687	-3.9271	102.836	73.410	48.955	316.286	269.132	29.810	324.107	322.436	65.809	65.840	35.384	316.652	76.846	317.371	310.594	287.544	0.00048094	0.00037066	7.247e-05	953.7	2.7225e-06	3.0821e-06	1063.7	197.82	3.3166e-06	1.762e-06	255.75	72.129	56.685	16.411	3.0011e-06	23.134	0.00020243	0.00017099	4.7128e-05	941.81	2.0744e-06	1.8106e-06	1051	197.34	1.9456e-06	1.9498e-06	251.04	72.935	56.66	16.65	1.9916e-06	23.621	38.994	99.223	86.744	18.965	165.525	178.431	18.877	26.703	194.017	180.171	26.147	32.358	33.808	40.419	125.805	40.221	-8191	255	
1281.793	1	1	0	0	0.086773	0.01169	0.27881	0.15296	0.16831	0.18217	0.16301	0.12639	0.18151	0.11149	0.084775	0.15221	0.14252	0.25407	0.23781	0.12744	-3.2438	-3.2646	-3.9229	-3.4729	-3.6813	-3.9	-3.3375	-4.0208	-3.5687	-3.2	-3.9792	-3.4813	-3.3917	-3.9562	-3.2208	-3.8354	138.183	71.879	41.618	288.050	249.423	48.953	22.161	14.013	160.696	209.541	204.489	82.202	50.674	287.357	265.744	303.044	0.00044716	0.00037058	5.488e-05	954.9	4.9917e-06	2.7706e-06	1056.9	198.7	5.7499e-06	5.7628e-07	255.79	72.483	55.624	16.377	4.3259e-06	22.88	0.00020532	0.00017123	4.6585e-05	942.27	2.0232e-06	1.7358e-06	1047.3	198	2.0339e-06	1.8637e-06	251.23	72.873	56.005	16.592	1.906e-06	23.523	23.214	66.283	145.062	18.997	190.958	180.073	19.021	26.555	157.315	124.245	26.362	33.148	33.420	41.087	174.415	39.964	-8191	255	
1281.889	1	1	0	0	0.20569	0.091368	0.16341	0.3842	0.12377	0.10832	0.10749	0.20228	0.043534	0.11277	0.10511	0.087682	0.21136	0.39126	0.10371	0.27612	-3.3667	-3.2771	-4.0188	-3.5896	-3.2146	-4.1937	-3.4062	-3.9104	-3.9271	-3.1813	-3.9833	-3.5812	-3.4917	-3.9958	-3.1667	-3.5833	119.673	83.535	216.388	350.602	15.537	187.408	41.519	102.100	337.581	117.512	342.326	291.217	182.285	9.217	49.863	293.431	0.00046219	0.00028702	3.3677e-05	955.19	5.2627e-06	2.3139e-06	1055.6	197.98	5.2629e-06	2.2869e-06	259.62	71.905	56.04	16.367	3.7613e-06	23.117	0.00019712	0.00017976	4.762e-05	942.48	2.0662e-06	1.7615e-06	1048.8	197.86	1.9471e-06	1.9198e-06	253.47	72.687	56.17	16.651	2.0597e-06	23.67	37.958	132.428	134.475	18.860	154.169	160.677	18.854	26.883	193.800	171.944	26.553	32.908	33.868	40.670	171.875	39.935	-8191	255	
1282.010	1	1	0	0	0.22062	0.076592	0.11428	0.22729	0.20868	0.16232	0.25901	0.114	0.15215	0.23651	0.16768	0.21301	0.13654	0.024041	0.13948	0.21396	-3.5	-3.0208	-3.7625	-3.6167	-3.2229	-3.8833	-3.3333	-3.7021	-4.0271	-3.2417	-3.8063	-3.8229	-3.3042	-4.1125	-3.4542	-3.6083	316.363	294.822	166.629	363.717	104.747	240.398	331.175	71.232	104.640	216.319	225.582	322.695	12.326	104.279	89.145	339.790	0.00047416	0.00022229	4.5144e-05	951.43	4.3708e-06	3.8705e-06	1059.8	198.65	1.2984e-06	2.5218e-06	256.14	72.467	56.35	16.386	4.7256e-06	23.324	0.00020128	0.00016961	4.8959e-05	940.43	1.8824e-06	1.8368e-06	1048.2	198.23	1.9406e-06	1.9328e-06	253.4	72.848	56.41	16.649	2.0291e-06	23.693	30.614	93.768	73.052	18.797	171.254	145.796	18.750	26.609	174.701	113.980	26.052	33.104	33.557	40.287	132.093	40.132	-8191	255	
1282.106	1	1	0	0	0.0093494	0.2091	0.06897	0.24996	0.19916	0.1431	0.26381	0.39204	0.14532	0.061311	0.20571	0.19282	0.14814	0.098191	0.1405	0.12529	-3.6208	-3.0208	-3.8375	-3.9146	-3.2875	-3.9688	-3.3875	-3.5271	-4.0146	-3.1604	-3.8271	-3.7271	-3.275	-4.0792	-3.4062	-3.6646	193.874	120.037	225.438	287.120	276.434	189.166	324.665	19.048	95.972	92.234	47.018	330.029	354.862	366.350	143.382	66.286	0.00047895	0.00040103	0.00010282	954.13	5.2752e-06	3.6215e-06	1057.7	198.84	3.1943e-06	1.4902e-06	254.16	71.758	55.884	16.365	3.3283e-06	23.218	0.00019358	0.00017079	5.062e-05	941.55	1.9332e-06	1.8173e-06	1050.1	197.91	1.899e-06	2.0272e-06	249.92	72.716	56.305	16.65	2.0701e-06	23.7	16.795	123.458	97.080	18.725	163.920	153.982	18.985	26.441	180.731	94.740	24.968	32.962	34.123	40.845	187.701	40.663	-8191	255	
1282.202	1	1	0	0	0.14302	0.091864	0.20789	0.051217	0.024671	0.10985	0.089765	0.25466	0.22669	0.14982	0.19314	0.047111	0.060319	0.15506	0.24024	0.31166	-3.6292	-3.2979	-3.6896	-3.9729	-3.1917	-3.9688	-3.75	-3.5583	-4.1438	-3.1396	-3.7875	-3.8854	-3.1646	-4.0354	-3.5125	-3.3229	132.165	275.491	24.641	51.743	36.942	51.867	334.304	364.872	163.664	232.053	169.682	103.242	310.991	309.683	306.489	351.489	0.0004838	0.00023531	6.701e-05	954.74	4.4958e-06	3.0264e-06	1060.7	199.37	7.0765e-06	1.2926e-06	260.32	72.244	56.065	16.379	1.8887e-06	23.308	0.00018807	0.00018292	5.0138e-05	942.21	2.0193e-06	1.945e-06	1049	198.24	1.9306e-06	1.9375e-06	252.19	72.827	56.156	16.667	1.9922e-06	23.751	32.173	101.000	100.862	18.682	164.954	143.718	18.616	26.659	150.055	235.458	25.843	32.663	33.799	40.445	96.859	40.197	-8191	255	
1282.298	1	1	0	0	0.095877	0.074473	0.15543	0.06383	0.24311	0.17675	0.23527	0.20678	0.1365	0.069205	0.068949	0.14327	0.30969	0.029666	0.085551	0.20238	-3.5604	-3.3271	-3.6604	-4.1979	-3.1688	-3.8708	-3.7667	-3.5167	-4.1188	-3.1979	-3.4396	-4.0083	-3.1771	-3.9542	-3.7771	-3.3417	166.767	288.496	23.842	137.354	224.844	126.485	310.420	14.173	64.970	214.276	95.851	235.495	349.642	330.073	113.415	76.425	0.00047555	0.00029115	8.9256e-05	953.1	5.7638e-06	3.3423e-06	1053.8	198.23	5.0848e-06	2.5369e-06	252.55	71.753	55.852	16.307	4.9767e-06	23.165	0.00018959	0.00018835	4.7574e-05	941.9	2.0027e-06	1.9192e-06	1046.2	197.63	1.8419e-06	1.8872e-06	251.29	72.739	56.144	16.597	1.8573e-06	23.667	30.056	109.878	118.701	18.824	162.082	147.814	19.253	26.898	185.325	185.184	26.541	32.994	33.780	40.690	168.984	40.023	-8191	255	
1282.419	1	1	0	0	0.088131	0.10757	0.22181	0.11835	0.1571	0.12829	0.2091	0.056559	0.16265	0.21755	0.099136	0.1097	0.059363	0.093129	0.043132	0.09533	-3.7875	-3.3896	-3.6021	-4.0708	-3.1833	-3.8875	-3.7854	-3.2438	-4.0437	-3.4125	-3.5604	-3.9708	-3.2979	-4.0521	-3.825	-3.1896	34.836	53.963	346.655	306.860	211.866	357.174	348.046	307.321	59.996	207.198	55.513	265.462	223.280	24.677	345.630	352.604	0.00052488	0.00020071	0.0001249	954.2	2.5598e-06	2.9856e-06	1057.5	198.28	4.2625e-06	1.301e-06	250.08	72.376	56.206	16.414	2.6001e-06	23.351	0.00020095	0.00017924	4.8954e-05	941.95	1.9977e-06	1.8772e-06	1048.1	198.02	1.9362e-06	2.0073e-06	249.16	72.665	56.318	16.652	1.8277e-06	23.718	28.246	51.420	99.781	18.784	168.286	207.731	19.095	26.674	191.006	133.110	25.952	32.895	33.739	41.348	159.546	40.059	-8191	255	
1282.490	1	1	0	0	0.13215	0.10767	0.039138	0.22113	0.1168	0.040744	0.12943	0.066378	0.097135	0.17302	0.15003	0.025101	0.19649	0.14723	0.083794	0.29703	-3.5729	-3.525	-3.4417	-4.0896	-3.4479	-3.5687	-3.8333	-3.3	-3.8563	-3.5583	-3.3146	-4.0271	-3.225	-3.6792	-3.9083	-3.2562	185.189	174.533	109.389	326.309	257.133	190.602	208.469	260.363	315.988	33.558	173.466	94.187	334.348	329.898	306.406	292.831	0.00040929	0.00036875	9.7929e-05	956.05	4.21e-06	1.3917e-06	1055.5	197.79	3.8323e-06	7.3317e-07	260.99	72.123	55.621	16.356	2.7378e-06	23.133	0.00019404	0.00018778	4.8379e-05	943.04	2.0759e-06	1.8963e-06	1046.7	197.57	1.962e-06	1.8848e-06	250.39	72.829	56.107	16.606	1.8127e-06	23.625	29.368	82.170	103.209	18.771	178.860	199.744	18.787	26.829	199.726	220.103	26.772	33.478	33.488	41.471	173.476	39.845	-8191	255	
1282.586	1	1	0	0	0.068404	0.045333	0.13376	0.054724	0.25852	0.1361	0.092896	0.15774	0.35872	0.073661	0.11024	0.093138	0.076888	0.11109	0.16249	0.1704	-3.8042	-3.6521	-3.3229	-4.1438	-3.3208	-3.8104	-4.0437	-3.1875	-3.9125	-3.6021	-3.3438	-4.0417	-3.4667	-3.3729	-4.1083	-3.2229	128.852	87.194	71.267	92.812	295.464	148.451	295.194	332.669	191.932	50.932	240.816	32.702	49.488	306.261	356.072	342.013	0.00051137	0.00011457	9.6245e-05	952.3	3.383e-06	1.9086e-06	1055	198.32	4.6197e-06	1.9426e-06	254.81	72.801	56.356	16.367	2.7865e-06	23.277	0.00020653	0.00017744	4.9277e-05	941.28	2.0993e-06	1.8837e-06	1046.7	197.77	1.9543e-06	1.8289e-06	253.15	72.917	56.329	16.616	1.9035e-06	23.704	31.131	71.931	97.875	18.586	193.892	131.197	19.119	26.866	174.414	151.966	27.792	33.155	33.541	40.593	113.492	40.155	-8191	255	
1282.683	1	1	0	0	0.15498	0.11067	0.08777	0.15958	0.16146	0.052966	0.1383	0.022731	0.12962	0.11095	0.24262	0.22685	0.071558	0.13784	0.35159	0.055702	-3.5667	-3.8063	-3.1958	-4.1333	-3.2833	-3.4458	-4.1104	-3.4229	-3.6125	-3.8333	-3.1542	-3.8896	-3.6625	-3.3583	-4.0104	-3.4188	359.611	182.276	169.869	290.045	139.212	203.134	358.821	172.135	285.253	80.073	78.528	337.415	112.917	300.989	311.062	271.345	0.00048687	0.00027204	9.341e-05	949.2	2.3415e-06	1.5351e-06	1058.8	197.57	3.0967e-06	3.8601e-06	260.64	72.439	55.847	16.386	3.18e-06	23.081	0.00020683	0.00016829	4.699e-05	940.3	2.023e-06	1.8441e-06	1047.6	197.21	1.9267e-06	1.6563e-06	252.3	72.711	56.057	16.66	1.9299e-06	23.657	38.262	118.670	102.921	18.969	169.818	181.670	19.220	26.839	174.375	177.740	26.675	33.052	33.765	40.896	116.051	40.351	-8191	255	
1282.801	1	1	0	0	0.13606	0.17938	0.098777	0.2261	0.044081	0.19239	0.11501	0.038718	0.21515	0.066278	0.12044	0.27869	0.26557	0.24991	0.050837	0.23054	-3.3896	-3.7583	-3.2771	-4.0958	-3.6229	-3.425	-4.2667	-3.425	-3.7354	-3.9125	-3.1354	-3.8875	-3.7375	-3.3125	-4.0521	-3.4229	361.011	287.704	37.711	35.983	367.876	65.290	333.967	138.871	27.161	146.610	305.586	36.372	333.268	57.967	144.583	339.790	0.00045786	0.00017639	9.4337e-05	948.68	4.0332e-06	3.6687e-06	1059.6	197.9	3.3731e-06	4.0568e-06	256.95	72.331	55.823	16.352	2.303e-06	23.224	0.00020474	0.00016908	5.022e-05	938.96	1.9949e-06	1.9153e-06	1048.1	197.72	2.0046e-06	1.8437e-06	251.73	73.047	55.964	16.593	1.8828e-06	23.616	42.625	42.496	79.143	19.369	167.748	139.732	19.153	26.783	174.366	165.467	25.621	32.957	33.821	41.310	127.703	40.108	-8191	255	
1282.898	1	1	0	0	0.10505	0.16804	0.058062	0.08249	0.13037	0.10461	0.13052	0.14005	0.23992	0.14462	0.071042	0.23433	0.092426	0.17234	0.20107	0.094634	-3.2292	-4.0333	-3.3438	-3.95	-3.5646	-3.3333	-4.1125	-3.4417	-3.5563	-4.0146	-3.2396	-3.8958	-3.7229	-3.3625	-3.9938	-3.5771	13.003	184.356	12.654	24.412	234.222	356.871	273.137	9.758	265.456	164.661	349.717	366.335	84.150	75.161	290.513	182.678	0.00053567	0.00028516	8.3906e-05	954.04	3.5723e-06	3.8506e-06	1057.4	197.02	2.484e-06	3.0349e-06	256.14	72.464	55.832	16.41	2.4468e-06	23.394	0.00020131	0.00016863	5.1748e-05	941.6	1.9364e-06	1.8825e-06	1046.7	196.87	1.9938e-06	1.8542e-06	252.38	72.847	56.018	16.669	1.979e-06	23.66	25.418	111.980	68.094	19.137	145.070	193.756	19.407	26.373	236.591	169.839	26.515	32.887	33.617	40.793	132.509	39.961	-8191	255	
1282.994	1	1	0	0	0.22585	0.16471	0.10841	0.19657	0.25704	0.1343	0.31145	0.10302	0.06788	0.15103	0.28738	0.20379	0.042042	0.28933	0.16442	0.041595	-2.925	-4.0771	-3.2792	-3.8521	-3.7271	-3.2917	-4.1542	-3.5542	-3.3646	-4.0062	-3.1917	-3.7375	-3.7021	-3.2271	-3.975	-3.8375	290.763	362.639	140.973	293.768	291.440	141.264	318.826	192.551	105.795	214.132	326.243	303.548	145.272	340.711	291.134	263.444	0.00044927	0.00024022	9.5153e-05	959.32	4.5389e-06	2.9015e-06	1053.2	199.22	5.8839e-06	1.2783e-06	260.92	71.848	56.098	16.38	2.6579e-06	23.218	0.00020291	0.00017682	5.3389e-05	942.59	1.8778e-06	2.03e-06	1046.9	198.13	1.9703e-06	1.8508e-06	252.48	72.664	56.098	16.648	1.9743e-06	23.662	34.353	117.035	81.004	18.996	172.214	143.408	19.397	26.698	180.238	176.616	26.183	33.162	34.147	41.110	175.124	40.254	-8191	255	
1283.090	1	1	0	0	0.055079	0.2285	0.02148	0.056805	0.22781	0.2586	0.30886	0.17805	0.26033	0.094545	0.045034	0.12876	0.041938	0.23739	0.13354	0.24842	-2.8708	-4.0958	-3.2438	-3.7729	-3.9729	-3.2625	-4.0188	-3.7125	-3.2729	-4.0396	-3.525	-3.6021	-4.0833	-3.25	-3.9292	-3.7146	126.130	227.120	160.861	239.355	162.357	143.782	264.084	310.900	339.243	183.306	132.822	310.067	123.700	63.001	193.637	39.279	0.0004621	0.00029744	2.341e-05	957.11	2.5368e-06	3.085e-06	1059.5	197.36	5.7971e-06	3.9952e-06	256.93	72.804	56.324	16.388	2.7579e-06	23.134	0.00019989	0.0001743	4.9969e-05	942.24	1.92e-06	1.9791e-06	1048.4	197.23	1.9676e-06	2.0104e-06	252.83	72.882	56.389	16.685	1.938e-06	23.629	22.786	111.539	80.375	18.855	200.206	138.473	19.232	26.595	160.337	155.880	26.316	33.000	33.995	40.824	208.270	40.341	-8191	255	
1283.186	1	1	0	0	0.25512	0.15357	0.088495	0.10317	0.18521	0.13073	0.0099305	0.16992	0.1998	0.10541	0.16398	0.17102	0.068966	0.055611	0.25113	0.11636	-2.7771	-3.9521	-3.3	-3.6021	-3.9625	-3.0833	-3.9271	-4.0146	-3.1312	-4.0417	-3.4292	-3.5792	-4.1188	-3.3521	-3.8583	-3.8146	320.631	23.477	107.533	253.856	201.580	19.212	308.441	263.974	121.512	331.128	69.782	197.103	92.561	94.052	311.585	164.064	0.00049045	0.00022618	8.0448e-05	955.03	3.3537e-06	4.0224e-06	1058.8	198.4	1.0468e-06	3.9247e-06	255.16	72.722	56.309	16.293	2.5825e-06	23.285	0.00020319	0.00017981	4.8672e-05	941.64	1.9213e-06	1.9914e-06	1049.2	197.48	2.0183e-06	1.9496e-06	251.32	72.916	56.189	16.615	1.9433e-06	23.612	30.272	125.896	99.240	19.054	141.603	149.227	19.117	26.989	204.785	157.973	27.117	32.899	33.781	40.558	156.234	40.375	-8191	255	
1283.282	1	1	0	0	0.14421	0.010031	0.22021	0.071452	0.13321	0.1103	0.069814	0.050226	0.1731	0.099975	0.36591	0.1934	0.039631	0.11032	0.14882	0.34904	-2.9271	-4.0042	-3.4188	-3.5812	-4.0167	-3.2375	-3.9104	-3.9625	-3.1333	-3.9167	-3.5896	-3.5229	-4.1875	-3.3542	-3.6521	-3.8646	284.370	321.121	313.763	168.609	250.300	308.526	24.212	273.119	339.423	238.715	83.120	302.790	284.828	253.127	163.482	271.965	0.00046519	0.00048139	1.7831e-05	955.76	3.0852e-06	3.5566e-06	1059.6	198.04	6.3242e-06	1.9668e-06	255.77	72.597	55.884	16.555	1.7414e-06	23.164	0.00020134	0.00018167	4.9861e-05	941.2	1.9649e-06	1.947e-06	1047.8	197.6	2.0765e-06	1.8749e-06	250.34	72.787	56.196	16.659	1.9108e-06	23.629	33.547	98.060	112.208	19.306	140.171	168.266	19.568	27.137	173.006	133.501	26.419	32.962	33.657	41.173	160.928	40.098	-8191	255	
1283.378	1	1	0	0	0.044501	0.14202	0.19147	0.27509	0.06725	0.044503	0.14556	0.040276	0.15278	0.21773	0.059761	0.11448	0.060241	0.096107	0.18083	0.22571	-2.6958	-3.9854	-3.6292	-3.3771	-4.0979	-3.5187	-3.6729	-4.0104	-3.1562	-4.0729	-3.8792	-3.3771	-4.0875	-3.525	-3.45	-4.0292	236.280	202.753	71.444	24.259	131.121	249.092	131.954	175.646	341.046	22.608	304.950	257.940	216.070	346.629	318.185	76.493	0.00048264	0.00031588	5.4987e-05	953.83	3.1051e-06	5.0974e-06	1063.3	198.43	5.0455e-06	5.4377e-06	252.82	72.399	55.962	16.311	2.9609e-06	23.248	0.00021335	0.00018671	4.5851e-05	941.41	2.0976e-06	2.0576e-06	1048.9	197.81	2.1274e-06	1.9585e-06	252.67	72.839	56.294	16.575	1.8486e-06	23.665	26.109	80.174	83.370	19.121	189.961	145.410	19.483	26.985	146.861	160.321	25.735	33.055	33.975	40.748	115.533	40.137	-8191	255	
1283.499	1	1	0	0	0.057695	0.067391	0.34827	0.21115	0.084842	0.21147	0.18001	0.27865	0.19182	0.058041	0.12691	0.10317	0.12984	0.11069	0.094703	0.15468	-2.7521	-3.9313	-3.6688	-3.425	-4.1479	-3.4229	-3.6354	-4.0521	-3.2479	-3.6417	-3.8542	-3.2833	-4.1542	-3.5542	-3.3979	-4.1333	38.252	17.430	150.650	58.961	214.509	124.557	252.598	362.202	337.044	309.867	356.771	101.290	295.723	329.986	57.617	186.489	0.00046018	0.000307	9.6733e-05	952.54	1.9568e-06	2.7245e-06	1057.9	197.06	5.0792e-06	3.232e-06	254.69	72.128	56.179	16.441	2.074e-06	23.172	0.00021496	0.00018095	4.6841e-05	941.02	2.004e-06	1.9149e-06	1048.4	197.26	2.1239e-06	1.85e-06	250.54	72.684	56.263	16.602	1.9573e-06	23.692	28.620	57.806	100.457	19.074	177.711	164.183	19.315	26.833	162.312	220.141	26.437	33.127	33.726	41.074	126.205	40.373	-8191	255	
1283.595	1	1	0	0	0.12893	0.092092	0.15752	0.071078	0.084634	0.20501	0.17732	0.22427	0.12162	0.17047	0.13723	0.281	0.22333	0.15753	0.20178	0.35998	-3.025	-3.7083	-3.8958	-3.2125	-4.0312	-3.6771	-3.4729	-4.0083	-3.3667	-3.5375	-3.8625	-3.2979	-4.0521	-3.6312	-3.3771	-4.0375	239.236	224.314	99.861	359.992	28.450	331.336	14.646	349.096	11.178	84.984	233.705	350.818	214.597	265.270	348.340	286.118	0.00056031	0.00042566	0.00015657	953.78	2.905e-06	4.9462e-06	1060	199.18	3.5261e-06	2.5685e-06	257.15	72.533	56.558	16.436	1.3768e-06	23.406	0.00021406	0.00017029	4.859e-05	942.43	2.1216e-06	1.8806e-06	1047.6	198.05	2.016e-06	1.8088e-06	252.08	72.802	56.329	16.692	1.9605e-06	23.76	30.211	108.529	89.601	19.289	145.372	151.384	19.165	26.849	148.113	86.677	27.014	33.108	33.568	40.701	176.586	40.304	-8191	255	
1283.691	1	1	0	0	0.099841	0.12491	0.1732	0.051341	0.047077	0.027639	0.12824	0.12607	0.13165	0.019343	0.21056	0.1762	0.050522	0.16862	0.041666	0.16587	-2.9333	-3.575	-3.9646	-3.275	-3.9146	-3.6937	-3.3479	-4.1083	-3.3771	-3.6104	-3.9625	-3.3333	-3.8146	-3.7021	-3.2833	-4.0563	361.928	199.343	53.289	18.068	137.407	145.569	344.030	45.811	154.240	139.637	64.519	42.485	221.214	217.737	71.712	365.397	0.0004687	0.00014372	9.5212e-05	955.04	1.7952e-06	3.7517e-06	1060	198.04	3.4343e-06	2.528e-06	255.14	71.714	56.187	16.306	2.1735e-06	23.37	0.00020731	0.00017031	4.6631e-05	941.64	1.9963e-06	1.8358e-06	1048.8	197.54	1.9703e-06	1.8528e-06	251.41	72.71	56.215	16.61	2.0646e-06	23.708	33.403	108.184	116.039	19.263	194.204	155.467	19.274	26.950	178.501	175.283	25.985	32.996	33.783	40.757	112.474	40.465	-8191	255	
1283.787	1	1	0	0	0.13287	0.058738	0.16396	0.24621	0.12997	0.21522	0.14112	0.028324	0.1225	0.0086165	0.029639	0.15446	0.14303	0.22439	0.056884	0.24293	-2.9667	-3.5208	-4.0479	-3.4125	-3.6063	-3.8208	-3.3833	-4.0354	-3.4875	-3.4625	-4.0687	-3.4271	-3.8667	-3.8521	-3.2062	-3.9188	107.414	246.885	58.405	213.782	324.536	198.251	320.940	361.041	192.594	24.160	19.516	86.634	52.414	336.840	331.398	86.800	0.0004723	0.00040889	6.249e-05	950.87	4.4083e-06	2.5318e-06	1055.9	197.86	7.1164e-07	1.433e-06	260.48	72.508	55.976	16.438	4.4418e-06	23.351	0.00020004	0.00016961	4.7672e-05	940.27	2.0385e-06	1.8198e-06	1048.3	197.32	1.8986e-06	1.9332e-06	252.45	72.931	56.275	16.592	2.0587e-06	23.716	32.153	102.738	52.270	18.888	168.906	174.519	19.205	26.969	16.151	59.978	27.208	33.045	34.022	41.027	161.703	40.512	-8191	255	
1283.882	1	1	0	0	0.096479	0.04467	0.14083	0.18441	0.16402	0.068266	0.076633	0.25892	0.27063	0.21918	0.19567	0.069873	0.2956	0.033723	0.13529	0.22979	-3.35	-3.3479	-4.0896	-3.5062	-3.5771	-3.9917	-3.4229	-3.9792	-3.5625	-3.3729	-4.0312	-3.4896	-3.4896	-3.875	-3.1083	-3.8812	312.132	215.902	95.841	45.336	142.957	102.030	85.312	286.585	194.499	10.071	82.945	327.283	322.858	265.635	12.819	327.856	0.00050687	0.00023031	6.5352e-05	953.86	3.1968e-06	2.3032e-06	1060.6	198.39	4.8949e-06	4.9859e-06	259.98	72.294	55.978	16.394	2.7312e-06	23.313	0.0001975	0.00018184	5.0025e-05	941.01	1.9113e-06	1.7863e-06	1049.8	197.78	1.8891e-06	2.011e-06	252.79	72.876	56.265	16.62	2.0344e-06	23.727	22.981	115.425	65.149	18.905	190.297	102.837	18.955	27.050	168.152	163.598	27.538	32.952	34.206	40.996	172.323	40.036	-8191	255	
1283.978	1	1	0	0	0.25876	0.19363	0.21394	0.24759	0.26762	0.19124	0.27549	0.15964	0.1732	0.16933	0.12106	0.22038	0.056795	0.22563	0.32855	0.10801	-3.3125	-2.9813	-3.7938	-3.4125	-3.4167	-3.9042	-3.35	-3.9313	-3.6	-3.3146	-4.0958	-3.5292	-3.4604	-4.0542	-3.2562	-3.8292	362.042	217.178	198.081	337.417	322.248	113.815	278.926	253.005	44.430	318.987	292.157	69.542	145.881	54.858	323.175	352.103	0.00042065	0.00025265	4.864e-05	954.87	4.9636e-06	3.7324e-06	1061.8	197.62	2.6949e-06	4.9635e-06	254.3	72.301	56.05	16.423	4.0384e-06	23.297	0.00019602	0.00018941	4.9846e-05	942.42	2.0213e-06	1.9328e-06	1047.5	197.4	1.9946e-06	2.0865e-06	251.96	72.851	56.443	16.634	2.0013e-06	23.668	28.238	108.933	92.652	18.749	164.010	145.523	18.972	26.946	190.942	153.518	26.150	32.941	34.055	40.824	152.278	40.367	-8191	255	
1284.074	1	1	0	0	0.18859	0.21029	0.11259	0.25351	0.17863	0.26019	0.23233	0.065501	0.03677	0.058335	0.1568	0.09061	0.054583	0.094328	0.10121	0.10079	-3.2521	-3.2771	-3.8563	-3.4292	-3.5896	-4.1167	-3.2625	-3.8063	-3.9062	-3.0771	-3.9521	-3.6208	-3.3271	-3.9646	-3.4271	-3.8417	308.079	157.079	77.114	64.962	355.453	185.498	258.983	322.615	139.058	195.313	110.106	66.355	121.541	86.574	20.382	181.071	0.0004106	0.00032706	5.555e-05	952.55	3.2481e-06	2.836e-06	1061.2	199.05	2.5563e-06	7.9098e-07	258.9	72.439	55.956	16.569	4.6498e-06	23.434	0.00019876	0.0001928	4.8302e-05	940.3	1.9618e-06	1.818e-06	1050.6	197.96	2.022e-06	1.8781e-06	251.68	72.868	56.314	16.718	1.907e-06	23.697	32.449	58.125	56.023	19.269	155.131	165.229	19.149	27.105	201.971	162.437	25.770	33.671	34.003	40.815	180.991	40.655	-8191	255	
1284.195	1	1	0	0	0.15616	0.096673	0.17753	0.16472	0.094434	0.13242	0.025128	0.23993	0.023491	0.18383	0.29311	0.10087	0.2073	0.13725	0.33592	0.23171	-3.5229	-3.1458	-3.9417	-3.6437	-3.2604	-3.8354	-3.6125	-3.6208	-3.9083	-3.1104	-3.6833	-3.7313	-3.2792	-3.9375	-3.3312	-3.5979	345.061	366.920	220.579	32.808	172.154	200.457	257.485	359.149	339.809	24.687	266.385	289.311	288.642	37.785	283.250	199.020	0.00047591	0.00028799	4.019e-05	952.04	4.4374e-06	2.2329e-06	1060.4	197.27	4.8397e-06	2.976e-06	255.86	72.453	56.387	16.476	3.8595e-06	23.089	0.00019508	0.00018708	4.6908e-05	941.51	2.0296e-06	1.9338e-06	1047.6	197.42	1.9427e-06	2.0223e-06	251.12	72.811	56.397	16.656	1.8573e-06	23.592	31.688	82.111	92.211	19.247	183.287	138.955	18.947	26.983	168.159	164.120	26.724	33.307	34.128	41.232	167.057	40.422	-8191	255	
1284.291	1	1	0	0	0.26456	0.074863	0.075359	0.023722	0.18653	0.21536	0.10626	0.075936	0.15098	0.080667	0.30832	0.1715	0.32291	0.18997	0.11134	0.20739	-3.6521	-3.2667	-3.7729	-3.9208	-3.3	-4.0208	-3.5187	-3.45	-3.8917	-3.2583	-3.6542	-4.0042	-3.2917	-3.9792	-3.5417	-3.4479	74.642	303.888	28.277	157.695	226.562	162.338	333.641	245.102	62.049	336.100	10.296	325.880	268.143	191.437	98.980	34.949	0.00054195	0.00023398	0.00013551	954.92	3.2091e-06	3.6051e-06	1056.6	198.05	3.6561e-06	2.6254e-06	256.69	72.264	56.174	16.443	1.4912e-06	23.273	0.00020294	0.00018414	4.518e-05	940.52	2.0496e-06	1.8737e-06	1048.5	197.77	2.0223e-06	1.9304e-06	252.92	72.782	56.364	16.664	1.8851e-06	23.693	27.177	147.896	92.235	19.038	189.500	173.334	19.021	26.804	153.805	156.299	26.923	32.902	34.389	40.847	182.846	39.997	-8191	255	
1284.363	1	1	0	0	0.12085	0.16749	0.095122	0.058135	0.025597	0.21766	0.24014	0.057012	0.11376	0.35951	0.084792	0.20323	0.2153	0.21368	0.14051	0.15161	-3.6063	-3.2542	-3.6583	-3.9146	-3.1896	-3.7646	-3.5771	-3.5	-4.0458	-3.2625	-3.6167	-3.9688	-3.1042	-3.9958	-3.5938	-3.325	101.675	81.171	321.574	191.318	225.500	113.868	295.888	291.850	328.646	24.462	162.188	332.282	311.060	307.026	47.544	334.692	0.00051106	0.00025324	9.2223e-05	955.17	5.4355e-06	3.5809e-06	1055.5	197.84	3.242e-06	2.1881e-06	257.37	72.339	55.999	16.404	3.7587e-06	23.186	0.00020235	0.00017	4.6867e-05	940.27	2.0536e-06	1.863e-06	1047.9	197.44	2.075e-06	1.8479e-06	250.85	72.743	56.194	16.669	1.8555e-06	23.692	31.661	111.658	117.303	18.901	169.412	142.036	19.023	27.002	126.481	156.650	25.949	32.986	33.849	41.299	167.231	40.379	-8191	255	
1284.459	1	1	0	0	0.2473	0.047929	0.044095	0.11625	0.20153	0.30725	0.13337	0.21747	0.15866	0.27678	0.1928	0.053793	0.15737	0.079258	0.040532	0.047503	-3.7375	-3.3271	-3.5417	-4.1417	-3.2167	-4.0229	-3.75	-3.5542	-3.9208	-3.4479	-3.5417	-4.0938	-3.2042	-3.8688	-3.8896	-3.1458	19.583	310.442	339.833	364.600	191.643	339.681	110.483	368.385	245.906	60.206	289.697	62.514	56.148	114.562	320.964	152.784	0.00053724	0.00029352	4.3752e-05	951.5	4.5539e-06	2.5612e-06	1063.7	197.91	1.5884e-06	2.6781e-06	256.03	72.667	55.965	16.344	4.5467e-06	23.377	0.00020545	0.00017468	4.9677e-05	939.51	2.1607e-06	1.8037e-06	1048.9	197.52	2.0459e-06	1.8739e-06	252.11	72.806	56.141	16.585	1.9567e-06	23.649	35.969	126.603	140.511	19.154	178.014	185.049	18.954	26.931	285.504	176.600	25.844	33.109	34.046	40.462	132.674	39.725	-8191	255	
1284.579	1	1	0	0	0.41215	0.10777	0.14824	0.049463	0.096198	0.16706	0.07618	0.10864	0.31173	0.10228	0.16086	0.13417	0.068897	0.21982	0.14963	0.074989	-3.6896	-3.5271	-3.3438	-4.0979	-3.2896	-3.675	-3.9708	-3.2729	-4.1062	-3.6042	-3.5271	-4.0312	-3.075	-3.7083	-3.8208	-3.2271	94.959	75.811	180.736	320.062	151.405	266.123	21.530	358.732	225.807	336.817	136.503	266.717	185.944	50.242	44.065	281.296	0.00044208	0.00021921	5.201e-05	945.5	2.7272e-06	2.8598e-06	1059	198.62	3.2026e-06	3.2189e-06	254.07	72.285	55.993	16.463	4.4333e-06	23.387	0.00020169	0.00017584	5.0266e-05	937.39	2.0749e-06	1.8691e-06	1046	197.63	1.8934e-06	1.8143e-06	249.31	72.86	56.191	16.624	1.9323e-06	23.723	31.049	77.878	103.581	19.321	151.713	186.707	19.163	26.862	162.405	139.893	28.095	33.191	34.231	41.287	170.158	40.087	-8191	255	
1284.676	1	1	0	0	0.14383	0.20095	0.12208	0.31474	0.15505	0.18512	0.33193	0.22588	0.16059	0.081951	0.17635	0.32106	0.086923	0.081714	0.049469	0.1454	-3.4958	-3.4542	-3.2542	-4.1271	-3.3542	-3.65	-4.1562	-3.2729	-4.0229	-3.4646	-3.2021	-4.1208	-3.4062	-3.6625	-3.9604	-3.0646	287.748	19.582	148.225	323.457	324.762	188.176	350.927	279.879	318.165	12.397	127.638	21.806	14.622	130.745	181.252	341.105	0.00051489	0.00018373	7.268e-05	954.49	2.9303e-06	3.424e-06	1057.1	199.13	5.1197e-06	4.6356e-06	257	72.533	56.426	16.319	4.1829e-06	23.357	0.00019316	0.0001697	5.2502e-05	940.61	1.9951e-06	1.894e-06	1048.7	197.83	1.9402e-06	1.8807e-06	250.84	72.748	56.366	16.599	1.9932e-06	23.75	29.964	92.765	103.005	19.102	143.298	159.882	18.915	27.015	142.112	163.838	26.092	33.350	34.108	41.317	134.562	40.538	-8191	255	
1284.772	1	1	0	0	0.076462	0.13136	0.28116	0.17814	0.12579	0.13928	0.14378	0.029958	0.11709	0.21463	0.055079	0.21473	0.21765	0.1028	0.031236	0.34362	-3.5042	-3.6188	-3.2438	-4.1271	-3.3146	-3.5417	-4.0938	-3.2104	-3.7562	-3.6667	-3.2542	-4.1271	-3.5646	-3.3563	-4.0646	-3.2375	63.551	109.791	104.109	367.401	26.444	50.230	289.999	281.038	12.433	114.982	301.116	139.201	99.570	328.496	233.685	18.347	0.00044562	0.00029069	3.074e-05	956.48	3.5384e-06	1.354e-06	1057.3	197.41	6.3909e-06	3.0609e-06	252.01	73.158	55.897	16.474	2.4685e-06	23.235	0.00019644	0.00017204	5.3251e-05	941.62	2.0315e-06	1.9297e-06	1045.2	197.35	1.9045e-06	1.8856e-06	251.67	73.104	56.167	16.626	2.0078e-06	23.662	30.763	114.700	107.768	19.189	174.062	139.160	19.147	27.053	172.315	151.006	26.815	33.455	34.361	41.317	93.847	40.448	-8191	255	
1284.891	1	1	0	0	0.18308	0.083621	0.14651	0.23529	0.092233	0.080877	0.29554	0.18162	0.11347	0.29282	0.15409	0.14365	0.024786	0.28927	0.17214	0.062619	-3.3187	-3.8312	-3.1437	-4.0938	-3.4125	-3.3833	-4.15	-3.3958	-3.7646	-3.8021	-3.1688	-3.8625	-3.6667	-3.4062	-3.7146	-3.4562	240.897	197.654	35.411	28.936	76.481	51.333	305.383	281.420	334.360	105.352	340.494	275.122	327.224	348.535	261.547	263.303	0.0004207	0.00020694	7.0237e-05	949.87	2.0067e-06	5.011e-06	1062.2	198.15	6.6268e-06	2.5101e-06	257.92	72.055	55.76	16.442	3.1165e-06	23.431	0.00020009	0.00017994	5.3866e-05	938.94	2.0323e-06	2.0622e-06	1048.6	197.32	1.9207e-06	1.9287e-06	252.6	72.789	56.094	16.656	1.9382e-06	23.705	23.154	51.679	93.362	19.087	102.966	145.157	19.419	26.781	173.946	158.213	26.221	33.238	33.874	41.141	159.695	40.334	-8191	255	
1284.962	1	1	0	0	0.090072	0.03295	0.11388	0.28591	0.1618	0.13601	0.17491	0.16222	0.012995	0.11557	0.029708	0.038911	0.076566	0.094293	0.10696	0.13788	-3.2313	-3.9	-3.1188	-4.0833	-3.4979	-3.3875	-4.1125	-3.4854	-3.5708	-3.8812	-3.2062	-3.8667	-3.6708	-3.1437	-3.7917	-3.4813	245.159	61.145	144.168	346.758	155.012	210.807	339.151	252.351	305.117	167.504	156.707	252.986	38.185	265.572	48.418	272.048	0.0004814	0.000534	3.7781e-05	948.06	3.8459e-06	6.1163e-06	1053.7	198.16	2.8849e-06	3.6019e-06	260.87	71.89	56.204	16.32	3.808e-06	23.333	0.00019805	0.00018031	5.1051e-05	939.1	2.0352e-06	2.0127e-06	1044.3	197.4	1.9605e-06	1.8319e-06	252.34	72.728	56.275	16.656	1.8995e-06	23.664	29.635	105.071	121.807	19.201	168.385	176.681	19.207	26.807	177.783	170.264	27.714	33.660	33.592	41.061	158.502	40.286	-8191	255	
1285.060	1	1	0	0	0.099836	0.11514	0.14253	0.10333	0.32799	0.16893	0.1714	0.12924	0.19278	0.15187	0.046146	0.4884	0.031157	0.16839	0.085447	0.084566	-3.2146	-4.0396	-3.2479	-3.8167	-3.6896	-3.4458	-4.2771	-3.6125	-3.5375	-4.0979	-3.1688	-4.0625	-3.9042	-3.1958	-4.0729	-3.7708	13.324	163.890	150.167	280.810	218.696	317.503	298.312	271.368	318.650	272.921	289.816	300.623	21.662	295.451	20.740	78.264	0.0004519	0.0004016	7.3449e-05	953.33	2.712e-06	1.7585e-06	1061.5	197.59	3.1794e-06	2.266e-06	258.24	72.507	56.23	16.424	2.0596e-06	23.153	0.00020589	0.00017728	5.0241e-05	941.41	2.0453e-06	1.918e-06	1047.6	197.14	1.9799e-06	1.9826e-06	251.28	73.018	56.303	16.664	1.9352e-06	23.627	36.531	67.372	91.210	19.193	180.074	192.285	19.334	27.008	136.408	159.286	25.528	33.478	33.793	40.861	117.780	40.966	-8191	255	
1285.179	1	1	0	0	0.071938	0.12205	0.2265	0.093427	0.20013	0.18542	0.06726	0.084295	0.026029	0.11359	0.076199	0.11126	0.13778	0.20731	0.1383	0.16619	-3.0146	-4.2188	-3.3937	-3.9333	-3.9104	-3.3875	-4.1979	-3.6375	-3.4104	-4.1875	-3.4333	-3.8521	-4.1875	-3.4625	-4.1667	-3.8292	88.809	104.884	28.628	19.559	121.492	70.169	314.796	303.107	136.984	122.016	363.947	230.394	32.601	43.061	149.961	300.016	0.00047232	0.00036119	9.9692e-05	954.09	3.8014e-06	1.6183e-06	1061.1	196.88	3.8011e-06	2.767e-06	259.98	72.011	56.253	16.312	2.3503e-06	23.438	0.00020952	0.00018445	4.8179e-05	941.44	2.128e-06	1.9983e-06	1048.6	197.07	2.1611e-06	1.9808e-06	252.86	72.815	56.4	16.614	1.7703e-06	23.723	34.872	84.634	129.248	19.501	170.608	196.922	19.553	26.956	151.864	162.539	25.924	33.582	34.424	40.773	141.547	40.304	-8191	255	
1285.275	1	1	0	0	0.064402	0.17261	0.072497	0.19578	0.11637	0.21179	0.13568	0.11236	0.053376	0.18796	0.039111	0.22226	0.11132	0.10437	0.16147	0.22743	-3.1104	-4.2063	-3.4125	-3.8563	-3.9062	-3.1875	-4.1354	-4.0854	-3.4688	-4.1333	-3.6813	-3.6333	-4.0896	-3.3396	-3.9167	-3.975	309.990	273.637	243.737	23.466	250.214	151.745	262.290	269.569	176.919	23.796	305.066	200.085	240.306	282.926	289.587	66.533	0.00052668	0.00034411	6.308e-05	958.66	1.1747e-06	2.4211e-06	1065.8	197.43	4.9592e-06	2.5505e-06	258.69	72.914	56.074	16.496	3.2388e-06	23.132	0.00021193	0.00017764	4.6651e-05	941.88	2.111e-06	1.9358e-06	1051.7	197.57	2.0148e-06	1.7671e-06	251.45	73.113	56.162	16.651	1.9386e-06	23.647	29.494	102.923	151.995	19.188	178.733	180.079	19.188	26.983	173.907	118.118	26.924	33.345	34.048	41.321	162.137	40.115	-8191	255	
1285.371	1	1	0	0	0.04564	0.10418	0.03897	0.15561	0.12254	0.10113	0.54259	0.24253	0.18142	0.20243	0.18527	0.071543	0.33206	0.14227	0.22088	0.080037	-2.8458	-3.9917	-3.525	-3.8312	-4.075	-3.3104	-4.1521	-4.1229	-3.2021	-4.0396	-3.5771	-3.4437	-4.1604	-3.3896	-3.775	-3.9333	357.498	316.966	123.273	45.472	351.234	351.562	307.594	305.889	337.603	294.805	306.570	91.550	13.977	31.674	175.809	141.024	0.00053092	8.5944e-05	9.8941e-05	955.17	4.5193e-06	3.8882e-06	1058.4	197.32	2.0633e-06	2.8697e-06	260.74	72.266	56.506	16.286	1.7811e-06	23.293	0.00020633	0.00016823	4.7626e-05	941.56	2.0428e-06	1.894e-06	1047	197.64	2.0914e-06	1.8283e-06	253.24	72.786	56.505	16.625	1.8828e-06	23.716	31.860	119.839	113.318	19.381	167.930	160.046	19.527	27.045	149.936	163.460	26.882	33.483	33.942	40.926	157.090	40.263	-8191	255	
1285.492	1	1	0	0	0.24635	0.15011	0.28757	0.21131	0.28141	0.091787	0.24127	0.18017	0.20038	0.25836	0.35887	0.13705	0.14125	0.051886	0.22398	0.20918	-3.0708	-4.2042	-3.6979	-3.65	-4.1542	-3.3271	-4.0458	-4.1021	-3.125	-3.9688	-3.6854	-3.3396	-4.1854	-3.2687	-3.7146	-4.1896	44.974	60.911	55.376	300.963	280.902	250.021	218.070	364.886	366.586	339.259	46.268	111.605	254.139	346.372	128.396	227.141	0.00055661	0.00027208	0.00011491	953.82	4.0791e-06	3.6928e-06	1066.1	198.46	2.8285e-06	3.4833e-06	258.65	72.915	56.037	16.436	2.3369e-06	23.26	0.00021265	0.00016683	4.9164e-05	941.45	1.9901e-06	1.837e-06	1048.8	197.6	1.9695e-06	1.8489e-06	250.13	73.111	56.495	16.668	1.9622e-06	23.7	30.381	139.896	86.104	19.388	191.372	155.257	19.403	27.160	128.295	156.055	26.507	32.863	33.953	41.142	189.873	39.889	-8191	255	
1285.588	1	1	0	0	0.26881	0.11763	0.10214	0.033115	0.095709	0.032073	0.19131	0.10796	0.11335	0.20161	0.02995	0.22169	0.11976	0.24818	0.12527	0.047691	-3.0458	-4.075	-3.6562	-3.5125	-4.2208	-3.4688	-3.8	-4.0667	-3.3208	-3.8104	-3.7562	-3.4333	-4.2479	-3.6312	-3.5021	-4.1667	250.723	256.634	363.672	315.564	328.791	69.852	49.600	159.433	345.554	59.911	118.257	132.909	257.625	55.773	51.554	261.534	0.00048661	0.00030073	6.9389e-05	954.29	4.4951e-06	5.0154e-06	1058.7	198.25	2.6709e-06	3.0167e-06	257.23	72.261	56.16	16.468	3.7341e-06	23.381	0.00020349	0.00016924	4.9918e-05	941.43	1.8733e-06	1.875e-06	1047.6	197.91	1.9115e-06	1.8094e-06	252.47	72.878	56.257	16.687	2.0423e-06	23.734	27.064	129.853	141.998	19.289	154.733	169.777	19.474	26.926	140.846	160.375	27.429	33.356	34.469	41.154	167.919	40.867	-8191	255	
1285.660	1	1	0	0	0.36503	0.064162	0.095797	0.26543	0.13429	0.183	0.20465	0.061396	0.13255	0.15614	0.11086	0.14173	0.20719	0.20512	0.15167	0.067936	-2.9417	-4.0687	-3.8896	-3.4396	-4.125	-3.4896	-3.5458	-4.2688	-3.2646	-3.9125	-3.8604	-3.325	-4.1979	-3.7979	-3.4313	-4.0708	259.580	279.821	367.116	292.056	279.802	218.832	286.911	330.886	64.236	294.305	76.718	23.071	240.358	235.707	317.541	216.326	0.00046934	0.00023887	5.347e-05	954.46	2.5396e-06	1.4548e-06	1061.2	197.48	3.891e-06	2.9045e-06	254.76	72.18	56.475	16.373	3.9131e-06	23.355	0.0001944	0.00016924	5.1312e-05	942.37	1.8989e-06	1.8066e-06	1048.1	197.61	1.9406e-06	1.9166e-06	251.81	72.841	56.329	16.655	2.0228e-06	23.716	38.601	130.271	18.949	19.503	167.025	117.734	19.690	26.962	207.432	171.591	25.579	33.398	34.441	41.253	157.229	40.682	-8191	255	
1285.756	1	1	0	0	0.21614	0.13941	0.30081	0.27758	0.15293	0.1328	0.13742	0.19473	0.16761	0.10412	0.16	0.32498	0.069713	0.060529	0.090863	0.10084	-2.8958	-3.8125	-3.8896	-3.5125	-4.0437	-3.725	-3.6458	-4.2458	-3.475	-3.5354	-4.1	-3.3438	-4.0208	-3.6917	-3.3375	-4.275	363.870	227.515	87.289	294.934	293.452	355.724	302.251	352.276	197.960	309.026	106.908	17.927	332.653	18.311	127.413	75.226	0.00051149	0.00028206	6.3272e-05	953.87	5.7394e-06	3.9665e-06	1062.8	197.53	2.7062e-06	8.0175e-07	254.8	72.258	56.04	16.51	3.6157e-06	23.209	0.00019732	0.00017213	5.082e-05	940.37	1.9196e-06	1.9235e-06	1050.4	197.16	1.95e-06	2.0215e-06	252.03	72.657	56.244	16.713	2.0096e-06	23.705	34.913	64.893	117.019	19.268	164.163	165.734	19.540	26.955	122.692	135.188	26.060	33.251	34.295	41.356	151.257	40.700	-8191	255	
1285.875	1	1	0	0	0.055824	0.096311	0.23302	0.13872	0.19086	0.15452	0.3134	0.1678	0.092874	0.31059	0.11607	0.054955	0.11201	0.17035	0.18728	0.11506	-3.175	-3.7292	-3.9354	-3.5104	-3.9688	-3.6417	-3.4729	-4.2292	-3.4125	-3.6312	-4.0437	-3.4125	-3.7771	-3.9833	-3.4062	-4.1271	270.157	37.230	119.027	276.357	95.390	343.438	321.827	68.105	337.800	60.598	286.897	265.923	182.854	23.854	108.952	141.267	0.00051848	0.00019379	9.7463e-05	957.3	4.0798e-06	4.7756e-06	1060.9	197.61	6.1828e-06	1.5953e-06	259.15	72.417	56.54	16.337	4.1783e-06	23.306	0.00020468	0.00018802	5.1041e-05	942.49	1.9891e-06	1.9922e-06	1048.7	197.63	1.9992e-06	1.9976e-06	250.2	72.943	56.407	16.61	1.9894e-06	23.683	28.358	88.140	86.278	19.490	162.547	164.823	19.303	27.056	170.638	188.972	27.100	33.115	34.263	41.367	149.422	40.365	-8191	255	
1285.971	1	1	0	0	0.085107	0.29989	0.20202	0.079565	0.10065	0.24978	0.067347	0.26654	0.19341	0.14678	0.28106	0.049446	0.085905	0.064334	0.18585	0.31866	-3.0479	-3.4667	-4.2438	-3.5521	-3.8083	-3.9979	-3.4979	-4.2792	-3.6083	-3.5792	-4.225	-3.6042	-3.7896	-4.0167	-3.3812	-3.9437	337.641	315.600	103.559	171.811	156.992	146.871	19.663	327.832	347.276	135.062	366.914	327.126	363.483	123.911	242.819	290.253	0.00048369	0.00021551	6.5198e-05	956.32	6.5861e-07	4.5782e-06	1062.1	198.06	3.5452e-06	1.0335e-06	254.75	72.307	55.995	16.274	4.8729e-06	23.389	0.00020426	0.00017733	4.658e-05	941.82	1.955e-06	1.9624e-06	1047.8	197.65	1.9603e-06	2.0639e-06	250.88	72.95	56.372	16.607	1.9534e-06	23.789	23.439	131.834	101.881	19.178	129.114	154.552	19.414	27.236	213.191	251.364	27.230	33.387	34.710	41.756	131.739	40.673	-8191	255	
1286.067	1	1	0	0	0.10609	0.15183	0.23243	0.19162	0.11691	0.13464	0.12985	0.12657	0.011006	0.15366	0.15115	0.1097	0.071096	0.089888	0.10118	0.23431	-3.3979	-3.4646	-4.0292	-3.6729	-3.5917	-4.1562	-3.2479	-4.1104	-3.8146	-3.3646	-4.0583	-3.4958	-3.7729	-3.9688	-3.4854	-3.9771	199.852	277.152	39.002	320.775	222.182	102.356	322.447	139.454	274.479	265.938	21.532	219.404	158.443	66.348	167.539	328.391	0.00043752	0.00038934	8.8311e-05	951.64	2.8805e-06	2.3837e-06	1057.3	198.55	4.3573e-06	2.5433e-06	258.31	72.281	55.674	16.439	4.812e-06	23.605	0.00020923	0.0001852	4.4026e-05	939.92	1.9794e-06	1.893e-06	1045.7	198.18	2.0086e-06	1.9938e-06	252.23	72.773	56.259	16.714	1.9843e-06	23.781	32.105	103.306	108.946	19.358	199.637	172.870	19.542	27.164	163.928	160.429	26.673	33.443	34.167	41.265	159.538	40.597	-8191	255	
1286.163	1	1	0	0	0.077155	0.13885	0.17559	0.26867	0.20217	0.18585	0.13132	0.045892	0.13781	0.15101	0.09519	0.10018	0.3649	0.10103	0.12858	0.15305	-3.4417	-3.3917	-4.1729	-3.6208	-3.5604	-4.1167	-3.4938	-4.0083	-3.7646	-3.375	-4.1542	-3.7833	-3.5812	-4.0813	-3.3646	-3.9708	296.510	297.072	125.241	231.965	337.242	282.001	80.258	323.981	301.996	307.836	84.372	312.061	335.276	68.725	358.934	337.967	0.00047075	0.00023871	9.574e-05	954.06	5.1009e-06	1.6115e-06	1061.5	197.65	2.8117e-06	2.0315e-06	258.13	71.965	56.597	16.376	2.1558e-06	23.158	0.00020505	0.00017948	4.2954e-05	939.83	2.0871e-06	2.0168e-06	1047.1	197.45	1.9886e-06	1.9715e-06	252.37	72.861	56.329	16.591	1.9362e-06	23.679	30.212	86.253	131.652	19.402	173.047	197.472	19.636	26.863	174.228	168.358	27.033	33.185	34.365	41.024	179.955	40.623	-8191	255	
1286.259	1	1	0	0	0.14159	0.067464	0.15095	0.12367	0.12787	0.14235	0.27542	0.019893	0.015185	0.14673	0.06569	0.15183	0.13253	0.034689	0.13893	0.090567	-3.7396	-3.4062	-4.2229	-3.8583	-3.3375	-4.3146	-3.5687	-4	-4.125	-3.2854	-4.0917	-3.7167	-3.5208	-4.1687	-3.3771	-3.8854	221.307	199.438	69.614	14.450	52.793	24.216	268.903	235.336	114.192	145.278	34.065	137.144	105.334	54.204	258.867	353.489	0.00053301	0.00018689	3.1077e-05	948.6	3.8852e-06	1.8476e-06	1059.1	198.7	3.9916e-06	3.7546e-06	256.65	72.785	56.652	16.52	1.9785e-06	23.316	0.00020538	0.00017281	4.4046e-05	938.64	2.0767e-06	1.7315e-06	1046.3	198.1	2.0268e-06	1.9599e-06	251.42	73.041	56.518	16.668	1.9752e-06	23.712	33.918	62.291	100.747	19.373	154.121	156.970	19.441	26.904	204.196	156.146	27.573	33.211	34.700	41.074	201.625	40.285	-8191	255	
1286.356	1	1	0	0	0.15676	0.073866	0.042459	0.077209	0.15415	0.10345	0.16757	0.14241	0.048722	0.037742	0.22006	0.13661	0.14775	0.083162	0.13015	0.16159	-3.7104	-3.3167	-4.1896	-3.7917	-3.4375	-4.0958	-3.7167	-3.8146	-4.0271	-3.5	-4.0312	-3.9708	-3.1667	-4.2562	-3.5854	-3.5979	355.888	344.335	326.702	310.886	207.315	16.594	357.979	307.444	326.296	300.376	116.773	188.898	252.243	278.582	45.567	115.566	0.00044926	0.0003135	5.6063e-05	952.95	4.2217e-06	3.9931e-06	1058.9	197.95	4.1228e-06	4.1982e-06	257.89	72.702	56.126	16.51	4.3214e-06	23.496	0.00020382	0.0001684	4.721e-05	939.23	2.0343e-06	1.7557e-06	1046.4	198.11	1.9605e-06	1.882e-06	252.63	72.924	56.302	16.667	1.9749e-06	23.76	32.926	104.245	37.567	19.340	169.151	149.774	19.596	27.172	206.325	170.179	27.288	33.290	34.215	41.111	144.708	40.510	-8191	255	
1286.452	1	1	0	0	0.18751	0.12443	0.11136	0.2851	0.085223	0.068218	0.17011	0.03962	0.038091	0.099396	0.23643	0.10404	0.19464	0.1592	0.12188	0.27363	-3.8104	-3.5208	-4	-3.9542	-3.4479	-4.3896	-3.7958	-3.5292	-4.2	-3.5104	-3.8417	-3.9562	-3.2479	-4.2625	-3.6917	-3.5875	284.007	52.363	48.131	282.534	166.003	89.769	97.631	353.817	60.350	273.889	241.108	214.768	100.746	277.969	316.889	246.044	0.00048437	0.00030858	0.00014576	949.28	3.4154e-06	4.4037e-06	1056.7	199.7	4.9451e-06	3.1104e-06	261.18	72.154	56.145	16.399	1.8528e-06	23.346	0.00019375	0.00016461	4.983e-05	938.74	1.9308e-06	1.8031e-06	1045	198.19	1.9358e-06	1.9616e-06	253.26	72.759	56.265	16.641	1.991e-06	23.702	35.634	107.765	106.973	19.123	189.859	168.249	19.151	27.356	189.120	125.260	25.585	33.626	34.314	40.922	112.310	40.338	-8191	255	
1286.572	1	1	0	0	0.25029	0.10666	0.23563	0.13382	0.16623	0.20533	0.1509	0.35342	0.11342	0.23061	0.14836	0.084972	0.2134	0.11725	0.18066	0.084097	-3.8521	-3.4833	-4.05	-3.9562	-3.425	-4.0958	-3.9917	-3.5542	-4.0188	-3.4688	-3.7854	-4.1146	-3.4167	-4.1458	-3.8667	-3.5	155.347	311.084	303.508	225.254	221.269	195.161	331.466	283.062	254.976	352.864	68.632	311.843	237.295	305.414	292.000	349.828	0.00049213	0.00010995	4.719e-05	950.89	4.8825e-06	2.222e-06	1059.9	198.54	1.9562e-06	1.6918e-06	259.02	72.009	56.225	16.479	2.4696e-06	23.283	0.00019033	0.00017479	4.8005e-05	939.78	1.9002e-06	1.8419e-06	1046.3	197.61	1.8828e-06	1.9697e-06	252.53	72.757	56.223	16.708	2.0311e-06	23.752	26.419	43.285	142.151	19.351	143.785	170.956	19.327	27.158	189.955	169.297	25.989	33.190	33.537	41.110	190.373	40.610	-8191	255	
1286.668	1	1	0	0	0.0875	0.10262	0.36284	0.21089	0.045175	0.13172	0.22903	0.10278	0.15291	0.21003	0.29208	0.18586	0.23129	0.12531	0.12643	0.1265	-3.8292	-3.4646	-3.5563	-4.2229	-3.2667	-4.1375	-3.825	-3.4271	-4.2458	-3.6188	-3.6979	-4.15	-3.3958	-4.0271	-3.8438	-3.4708	58.756	226.801	10.329	365.581	304.269	94.976	37.895	87.675	10.240	361.548	326.177	310.232	10.121	32.876	361.393	105.835	0.00043157	0.0002673	0.00010722	955.12	1.8928e-06	5.636e-06	1060.4	198.19	3.0171e-06	2.1252e-06	254.83	71.971	55.795	16.478	3.1878e-06	23.475	0.0001931	0.00017305	5.0205e-05	941.62	2.0333e-06	1.977e-06	1047.2	197.7	1.8847e-06	1.9711e-06	250.52	72.567	56.19	16.7	1.9238e-06	23.757	30.268	141.879	66.119	19.185	164.623	181.009	19.366	26.948	171.019	147.382	25.559	33.416	34.122	41.320	175.544	40.020	-8191	255	
1286.765	1	1	0	0	0.23388	0.18566	0.14909	0.17719	0.08201	0.21961	0.34112	0.11178	0.1192	0.17104	0.17719	0.035978	0.20629	0.11506	0.097492	0.077766	-3.8146	-3.3958	-3.6458	-4.2896	-3.3875	-3.7438	-4.1438	-3.4042	-4.1375	-3.525	-3.3917	-4.2063	-3.3333	-3.7833	-3.9437	-3.35	181.184	91.789	120.201	122.452	159.092	338.473	53.131	278.377	102.795	55.367	72.362	304.001	292.576	260.979	90.759	41.848	0.0004998	0.00037715	5.6834e-05	954.45	4.0735e-06	3.5481e-06	1058.6	197.74	6.908e-06	7.8664e-07	260.41	71.96	56.225	16.288	1.8912e-06	23.188	0.00019975	0.00017623	5.1271e-05	940.87	1.9897e-06	2.0748e-06	1047.9	197.71	1.9435e-06	1.9656e-06	251.67	72.674	56.257	16.596	1.9916e-06	23.687	23.741	105.138	90.260	19.248	194.862	122.135	19.252	27.017	161.494	77.438	27.112	33.057	34.226	40.938	149.931	40.669	-8191	255	
1286.861	1	1	0	0	0.13544	0.059075	0.20309	0.1027	0.071948	0.14255	0.25077	0.078057	0.09925	0.3317	0.048688	0.15262	0.26467	0.14575	0.14819	0.10111	-3.7146	-3.8479	-3.5438	-4.2729	-3.5458	-3.5958	-4.1813	-3.3083	-3.8354	-3.6854	-3.4688	-4.2937	-3.4792	-3.6437	-3.9604	-3.4167	208.723	222.137	226.941	55.043	165.919	259.671	293.596	125.798	142.877	361.460	202.067	353.047	10.027	41.480	322.029	10.553	0.00052682	0.00011481	8.0965e-05	957.22	3.8065e-06	3.3884e-06	1050.5	197.79	5.0678e-06	2.5356e-06	256.83	72.308	56.22	16.455	3.5793e-06	23.379	0.00020294	0.00017947	4.8349e-05	940.86	1.97e-06	1.8969e-06	1044.4	197.38	1.9639e-06	2.0079e-06	250.92	72.93	56.364	16.671	1.8198e-06	23.749	29.620	121.803	133.196	19.262	175.950	164.901	19.084	27.321	158.850	156.278	27.024	33.318	33.788	41.156	152.699	40.507	-8191	255	
1286.955	1	1	0	0	0.12068	0.25711	0.13289	0.27267	0.23403	0.1598	0.055065	0.23346	0.25319	0.14564	0.065259	0.077173	0.22421	0.087359	0.068614	0.13017	-3.5604	-3.775	-3.5125	-4.1833	-3.4729	-3.6	-4.3208	-3.5687	-3.8479	-3.9688	-3.35	-4.1208	-3.5896	-3.7167	-4.0979	-3.5083	103.182	186.389	26.096	357.109	335.879	123.191	185.863	356.353	192.278	104.019	116.129	238.312	239.838	62.417	78.375	354.767	0.00048374	0.00038807	8.7533e-05	951.74	2.8158e-06	4.0574e-06	1062.5	197.79	4.2905e-06	2.8696e-06	251.59	72.845	55.826	16.436	1.9689e-06	23.436	0.00020051	0.00018277	4.6159e-05	940.1	2.0641e-06	1.9391e-06	1047.6	197.54	2.0846e-06	1.965e-06	251.38	73.026	56.243	16.685	1.6905e-06	23.746	28.394	104.307	72.582	19.169	181.530	166.361	19.503	27.173	176.794	154.731	26.320	33.574	34.016	40.647	160.066	40.684	-8191	255	
1287.051	1	1	0	0	0.25849	0.04317	0.067839	0.069303	0.14624	0.25813	0.14078	0.17333	0.12933	0.12481	0.066265	0.15964	0.21752	0.14812	0.081346	0.28421	-3.5896	-3.8208	-3.3688	-4.3729	-3.7125	-3.3917	-4.325	-3.3937	-3.6437	-4.05	-3.2646	-4.2021	-3.7792	-3.5083	-4.3313	-3.5292	218.953	203.536	42.613	118.337	181.244	14.316	335.613	283.832	210.567	112.228	339.487	196.806	315.159	306.998	150.490	95.039	0.0004547	0.00035611	5.4964e-05	957.59	5.9322e-06	1.5786e-06	1056.7	197.42	6.1904e-06	1.8342e-06	256.73	72.456	56.286	16.441	1.4785e-06	23.332	0.00020557	0.00017126	4.8472e-05	941.8	2.0368e-06	1.889e-06	1045.8	197.12	1.9965e-06	1.8402e-06	251.5	72.942	56.339	16.644	1.7755e-06	23.724	32.970	95.864	123.497	19.428	184.950	136.945	19.226	27.163	158.403	188.661	26.186	33.374	33.556	41.083	164.035	41.025	-8191	255	
1287.172	1	1	0	0	0.30366	0.077569	0.29255	0.21576	0.043062	0.1592	0.087691	0.09871	0.18208	0.21816	0.065475	0.14217	0.088801	0.39098	0.33327	0.22515	-3.4813	-4.025	-2.9792	-4.1417	-3.7875	-3.4458	-4.2083	-3.4667	-3.8187	-4.2667	-3.4062	-4.0958	-3.9146	-3.5521	-4.2312	-3.6833	266.841	271.900	226.275	272.876	358.127	168.771	332.847	368.745	348.733	262.196	192.510	282.417	242.702	323.256	104.181	303.893	0.00043308	0.00027481	0.0001129	957.1	5.0016e-06	2.1886e-06	1059.2	198.44	4.2405e-06	2.5395e-06	254.77	72.772	56.174	16.449	5.3578e-06	23.147	0.00020766	0.00016683	4.8087e-05	942.5	1.9295e-06	1.8608e-06	1046.5	197.72	1.9562e-06	1.8048e-06	250.94	72.941	56.346	16.611	1.8307e-06	23.619	27.670	86.772	105.679	19.357	177.352	125.134	19.388	27.011	175.974	119.871	27.158	33.562	34.029	41.161	131.696	40.878	-8191	255	
1287.268	1	1	0	0	0.081545	0.11619	0.18376	0.12505	0.20187	0.076035	0.23271	0.089474	0.086624	0.14692	0.053484	0.24692	0.20065	0.23666	0.1934	0.14862	-3.2729	-4.0167	-3.4479	-4.0542	-3.8708	-3.4521	-4.2354	-3.7854	-3.6229	-4.3	-3.4792	-4.0062	-3.975	-3.4271	-4.1271	-3.7667	65.313	299.305	313.826	279.264	337.075	277.100	26.600	332.028	43.704	64.934	258.225	367.171	15.365	342.394	189.590	258.695	0.00043106	0.00025839	8.7688e-05	948.65	2.6412e-06	3.2792e-06	1058.4	197.72	5.6332e-06	2.2791e-06	255.26	72.481	56.158	16.5	2.4803e-06	23.289	0.00020795	0.00015698	4.9251e-05	939.16	1.9684e-06	1.9084e-06	1045.6	197.6	1.9639e-06	1.7023e-06	250.63	72.824	56.412	16.689	1.9277e-06	23.688	25.391	50.340	107.052	19.346	177.282	114.286	19.351	26.929	175.268	161.836	25.849	33.164	34.434	41.448	159.967	40.252	-8191	255	
1287.364	1	1	0	0	0.26778	0.32284	0.43249	0.25916	0.088329	0.18653	0.1539	0.26502	0.065647	0.12299	0.22038	0.16285	0.17871	0.25243	0.21297	0.10815	-3.2229	-4.1979	-3.4667	-3.9	-4.075	-3.5146	-4.3021	-3.7292	-3.4437	-4.15	-3.5542	-3.7667	-3.9813	-3.2438	-4.0396	-3.8667	276.751	245.226	75.563	302.226	223.598	248.412	17.843	337.300	242.072	322.273	27.054	259.001	22.669	318.648	277.724	256.028	0.00051872	0.00024296	0.0001134	952.22	3.9649e-06	2.2374e-06	1057.4	197.91	7.2009e-06	1.6773e-06	254.98	72.359	56.361	16.483	3.0505e-06	23.416	0.00019842	0.00015484	4.86e-05	938.99	1.9148e-06	1.7845e-06	1045.4	197.74	1.9803e-06	1.7187e-06	252.32	72.894	56.302	16.692	1.8642e-06	23.75	33.818	157.353	107.621	19.261	160.990	133.550	19.258	26.791	166.965	194.790	27.233	33.803	34.202	41.094	158.114	40.734	-8191	255	
1287.460	1	1	0	0	0.23801	0.2132	0.1842	0.06963	0.18111	0.015719	0.086013	0.13717	0.083978	0.095024	0.18585	0.041908	0.26008	0.15889	0.18883	0.15561	-3.2125	-4.1583	-3.5563	-3.9646	-4.0583	-3.3604	-4.1542	-3.8458	-3.3917	-4.0437	-3.5583	-3.7125	-4.0854	-3.2104	-4.0104	-3.7771	305.254	276.409	171.206	201.346	161.994	136.211	41.018	16.599	343.742	33.867	64.311	202.727	333.403	146.807	54.011	75.503	0.00047923	0.00030834	7.8504e-05	950.95	2.6049e-06	2.6458e-06	1063.7	197.75	5.8877e-06	9.4991e-07	257.56	72.644	56.095	16.451	2.5212e-06	23.204	0.00019966	0.00016124	5.02e-05	939.45	1.9229e-06	1.8212e-06	1046.6	197.49	2.0031e-06	1.8275e-06	252.22	72.878	56.357	16.643	1.9013e-06	23.639	38.465	98.494	125.829	19.225	157.740	174.546	19.666	26.673	170.884	216.945	26.705	33.100	34.119	41.010	152.595	40.402	-8191	255	
1287.557	1	1	0	0	0.10061	0.14904	0.020242	0.31122	0.19581	0.25137	0.26021	0.20943	0.25754	0.16532	0.10512	0.29573	0.091929	0.03764	0.073679	0.14666	-3.0146	-4.0583	-3.5812	-3.6354	-4.0813	-3.3146	-4.0021	-3.9979	-3.3812	-4.1875	-3.4646	-3.275	-4.2375	-3.275	-3.8146	-4.0896	145.090	174.049	164.520	11.576	336.969	368.533	56.332	265.607	31.594	147.704	341.687	38.861	345.587	344.187	174.618	181.872	0.00044837	0.00013823	8.4565e-05	949.44	4.126e-06	2.8562e-06	1055.3	197.15	5.8629e-06	3.6823e-06	260.22	72.849	55.84	16.484	1.543e-06	23.398	0.00020246	0.00017625	4.8877e-05	939.32	1.8809e-06	1.9184e-06	1046	197.03	1.9905e-06	1.8811e-06	252.32	72.976	56.143	16.643	1.8903e-06	23.7	43.746	128.146	117.020	19.448	149.815	164.130	19.295	26.808	194.335	204.254	26.095	33.185	34.444	41.130	150.978	40.087	-8191	255	
#DATA ENDS
