BOXY.EXE: ISS Imagent and Oximeter Data Acquisition Program Version 0.80
Ascii Record File

#ACQ INFORMATION
2  Detector Channels 
16  External MUX Channels 
1  Auxiliary Channels 
5000  Waveform (CCF) Frequency (Hz)
1  Waveforms Skipped 
30  Waveforms Averaged 
1  Cycles Averaged 
16  Acquisitions per Waveform 
10.0806  Updata Rate (Hz) 

#FILE INFORMATION
TRUE -- External MUX Channel results are PARSED.
FALSE -- AC DC and Phase are NOT grouped.
TRUE -- Companion Program Settings File CREATED.
FALSE -- AC data not excluded
FALSE -- DC data not excluded
FALSE -- Phase data not excluded
FALSE -- Auxillary Chn. data not excluded
Tab delimiters

#CALIBRATION STATE
TRUE -- Waveform Calibration Values APPLIED.


#AUX CALIBRATION VALUES
Val Type	aux-1	

Term	1.0000e+00	
Factor	0.0000e+00	


#WF CALIBRATION VALUES
A = Detector Channel
Val Type	A-AC1	A-AC2	A-AC3	A-AC4	A-AC5	A-AC6	A-AC7	A-AC8	A-AC9	A-AC10	A-AC11	A-AC12	A-AC13	A-AC14	A-AC15	A-AC16	A-DC1	A-DC2	A-DC3	A-DC4	A-DC5	A-DC6	A-DC7	A-DC8	A-DC9	A-DC10	A-DC11	A-DC12	A-DC13	A-DC14	A-DC15	A-DC16	A-Ph1	A-Ph2	A-Ph3	A-Ph4	A-Ph5	A-Ph6	A-Ph7	A-Ph8	A-Ph9	A-Ph10	A-Ph11	A-Ph12	A-Ph13	A-Ph14	A-Ph15	A-Ph16	

Term	0.00000e+00	0.00000e+00	0.00000e+00	0.00000e+00	0.00000e+00	0.00000e+00	0.00000e+00	0.00000e+00	0.00000e+00	0.00000e+00	0.00000e+00	0.00000e+00	0.00000e+00	0.00000e+00	0.00000e+00	0.00000e+00	0.00000e+00	0.00000e+00	0.00000e+00	0.00000e+00	0.00000e+00	0.00000e+00	0.00000e+00	0.00000e+00	0.00000e+00	0.00000e+00	0.00000e+00	0.00000e+00	0.00000e+00	0.00000e+00	0.00000e+00	0.00000e+00	0.00000e+00	0.00000e+00	0.00000e+00	0.00000e+00	0.00000e+00	0.00000e+00	0.00000e+00	0.00000e+00	0.00000e+00	0.00000e+00	0.00000e+00	0.00000e+00	0.00000e+00	0.00000e+00	0.00000e+00	0.00000e+00	
Factor	1.00000e+00	1.00000e+00	1.00000e+00	1.00000e+00	1.00000e+00	1.00000e+00	1.00000e+00	1.00000e+00	1.00000e+00	1.00000e+00	1.00000e+00	1.00000e+00	1.00000e+00	1.00000e+00	1.00000e+00	1.00000e+00	1.00000e+00	1.00000e+00	1.00000e+00	1.00000e+00	1.00000e+00	1.00000e+00	1.00000e+00	1.00000e+00	1.00000e+00	1.00000e+00	1.00000e+00	1.00000e+00	1.00000e+00	1.00000e+00	1.00000e+00	1.00000e+00	X	X	X	X	X	X	X	X	X	X	X	X	X	X	X	X	

B = Detector Channel
Val Type	B-AC1	B-AC2	B-AC3	B-AC4	B-AC5	B-AC6	B-AC7	B-AC8	B-AC9	B-AC10	B-AC11	B-AC12	B-AC13	B-AC14	B-AC15	B-AC16	B-DC1	B-DC2	B-DC3	B-DC4	B-DC5	B-DC6	B-DC7	B-DC8	B-DC9	B-DC10	B-DC11	B-DC12	B-DC13	B-DC14	B-DC15	B-DC16	B-Ph1	B-Ph2	B-Ph3	B-Ph4	B-Ph5	B-Ph6	B-Ph7	B-Ph8	B-Ph9	B-Ph10	B-Ph11	B-Ph12	B-Ph13	B-Ph14	B-Ph15	B-Ph16	

Term	0.00000e+00	0.00000e+00	0.00000e+00	0.00000e+00	0.00000e+00	0.00000e+00	0.00000e+00	0.00000e+00	0.00000e+00	0.00000e+00	0.00000e+00	0.00000e+00	0.00000e+00	0.00000e+00	0.00000e+00	0.00000e+00	0.00000e+00	0.00000e+00	0.00000e+00	0.00000e+00	0.00000e+00	0.00000e+00	0.00000e+00	0.00000e+00	0.00000e+00	0.00000e+00	0.00000e+00	0.00000e+00	0.00000e+00	0.00000e+00	0.00000e+00	0.00000e+00	4.17717e+01	-1.31162e+02	-1.22911e+02	-1.83922e+02	-6.30644e+01	-7.02209e+01	-1.56404e+02	-1.62015e+02	-4.52563e+01	-6.41764e+01	-1.71598e+02	-1.69061e+02	-1.81176e+02	-1.77209e+02	-6.47185e+01	-1.50023e+02	
Factor	6.40346e-05	1.52600e-04	4.19047e-05	1.76566e-01	1.85982e-06	1.60018e-06	1.66977e-01	5.01798e-02	2.39878e-06	1.62312e-06	8.77349e-02	2.88353e-02	2.63990e-02	9.67641e-03	1.83296e-06	1.35945e-02	1.77045e-05	2.95731e-05	8.28597e-06	9.26155e-02	2.88225e-07	3.32224e-07	8.18985e-02	2.64251e-02	2.79175e-07	3.33486e-07	4.47295e-02	1.46946e-02	1.40515e-02	5.14846e-03	3.03169e-07	6.99069e-03	X	X	X	X	X	X	X	X	X	X	X	X	X	X	X	X	



#DISTANCE SETTINGS
A = Detector Channel
A-1	A-2	A-3	A-4	A-5	A-6	A-7	A-8	A-9	A-10	A-11	A-12	A-13	A-14	A-15	A-16	

2.5000e+00	3.0000e+00	2.5000e+00	3.0000e+00	2.0000e+00	3.0000e+00	1.5000e+00	3.0000e+00	3.0000e+00	3.0000e+00	3.0000e+00	3.0000e+00	3.0000e+00	3.0000e+00	1.5000e+00	3.0000e+00	

B = Detector Channel
B-1	B-2	B-3	B-4	B-5	B-6	B-7	B-8	B-9	B-10	B-11	B-12	B-13	B-14	B-15	B-16	

1.0000e+01	1.0000e+01	1.0000e+01	1.4400e+00	1.0000e+01	1.0000e+01	1.5100e+00	1.9400e+00	1.0000e+01	1.0000e+01	1.9900e+00	2.4900e+00	2.4100e+00	2.9000e+00	1.0000e+01	2.9800e+00	




#DATA BEGINS
time	group	step	mark	flag	A-AC1	A-AC2	A-AC3	A-AC4	A-AC5	A-AC6	A-AC7	A-AC8	A-AC9	A-AC10	A-AC11	A-AC12	A-AC13	A-AC14	A-AC15	A-AC16	A-DC1	A-DC2	A-DC3	A-DC4	A-DC5	A-DC6	A-DC7	A-DC8	A-DC9	A-DC10	A-DC11	A-DC12	A-DC13	A-DC14	A-DC15	A-DC16	A-Ph1	A-Ph2	A-Ph3	A-Ph4	A-Ph5	A-Ph6	A-Ph7	A-Ph8	A-Ph9	A-Ph10	A-Ph11	A-Ph12	A-Ph13	A-Ph14	A-Ph15	A-Ph16	B-AC1	B-AC2	B-AC3	B-AC4	B-AC5	B-AC6	B-AC7	B-AC8	B-AC9	B-AC10	B-AC11	B-AC12	B-AC13	B-AC14	B-AC15	B-AC16	B-DC1	B-DC2	B-DC3	B-DC4	B-DC5	B-DC6	B-DC7	B-DC8	B-DC9	B-DC10	B-DC11	B-DC12	B-DC13	B-DC14	B-DC15	B-DC16	B-Ph1	B-Ph2	B-Ph3	B-Ph4	B-Ph5	B-Ph6	B-Ph7	B-Ph8	B-Ph9	B-Ph10	B-Ph11	B-Ph12	B-Ph13	B-Ph14	B-Ph15	B-Ph16	aux-1	digaux	

1451.949	1	1	0	768	0.11825	0.13628	0.11271	0.18622	0.13432	0.089177	0.17866	0.24254	0.23476	0.036119	0.13644	0.19538	0.18058	0.12472	0.1105	0.16617	-2.8417	-3.9479	-3.5771	-3.5521	-3.9146	-3.5	-3.6896	-3.9854	-3.3771	-3.825	-3.7271	-3.3	-3.8979	-3.475	-3.575	-4.0333	248.639	132.786	169.789	-26.066	257.188	24.765	176.890	139.930	145.443	41.232	193.782	100.468	249.609	103.499	114.072	277.770	0.00027661	0.00028641	9.7404e-05	1098.4	3.1262e-06	1.8288e-06	1200.1	227.14	4.4123e-06	3.3214e-06	289.29	81.905	64.638	19.09	2.9615e-06	26.788	0.00033119	0.0003826	0.0001029	1085.9	3.9289e-06	3.9514e-06	1183.3	227	4.0806e-06	4.0498e-06	288.33	82.382	64.938	19.535	3.729e-06	27.261	304.358	16.426	41.456	-44.423	112.708	132.394	-44.546	-37.355	116.545	105.239	-37.757	-30.801	-30.288	-23.884	84.263	-23.903	-8191	255	
1452.045	1	1	0	0	0.14019	0.13909	0.12255	0.067441	0.090956	0.074576	0.22851	0.14519	0.1695	0.1225	0.015754	0.21229	0.058353	0.12138	0.062442	0.33577	-2.8438	-3.6521	-3.7146	-3.5083	-3.9958	-3.5687	-3.6583	-4.0479	-3.2229	-3.6479	-3.8479	-3.2729	-4.0979	-3.5187	-3.3521	-3.9021	264.657	19.100	134.771	223.790	193.009	177.687	-38.398	261.085	67.276	-4.003	40.602	300.036	8.126	12.031	125.639	272.055	0.00024137	0.00039059	9.1089e-05	1104	3.2323e-06	1.7929e-06	1193.6	227.19	3.3953e-06	3.769e-06	288.08	81.316	64.116	19.088	3.8637e-06	26.742	0.00032768	0.00036227	9.5893e-05	1088.6	3.6947e-06	3.6295e-06	1182.1	227.04	3.9992e-06	3.8698e-06	288.01	82.274	64.783	19.519	3.6443e-06	27.275	-51.377	54.215	32.811	-44.406	52.617	129.119	-44.498	-36.976	137.891	96.177	-37.487	-30.741	-30.425	-23.956	105.100	-23.692	-8191	255	
1452.141	1	1	0	0	0.18804	0.059605	0.13995	0.16299	0.15482	0.16952	0.17816	0.21124	0.18037	0.31005	0.3144	0.20813	0.24955	0.1409	0.16177	0.14881	-2.7479	-3.6604	-3.7667	-3.275	-3.8458	-3.4896	-3.4	-4.0125	-3.2438	-3.4667	-4.0125	-3.1208	-4.0708	-3.7708	-3.2125	-4.0646	201.976	233.585	106.990	17.903	83.762	137.467	205.338	183.165	134.075	86.087	275.492	289.267	193.141	-12.580	199.436	208.726	0.00024553	0.00031976	7.7088e-05	1101.4	2.6339e-06	2.483e-06	1198.5	227.36	1.6855e-06	3.1852e-06	287.78	81.442	64.513	19.084	2.6746e-06	26.7	0.00033104	0.0003383	8.8815e-05	1085.4	3.6911e-06	3.7652e-06	1181.5	226.8	3.8102e-06	4.0602e-06	287.79	82.211	65.006	19.492	3.7214e-06	27.296	299.605	15.999	32.751	-44.123	128.712	101.209	-44.127	-37.254	102.536	117.119	-37.501	-30.696	-30.261	-23.750	122.418	-23.487	-8191	255	
1452.237	1	1	0	0	0.15881	0.24376	0.29209	0.14697	0.31157	0.018188	0.1489	0.28503	0.12996	0.051874	0.27896	0.045428	0.22677	0.2417	0.43335	0.19275	-3.0104	-3.5146	-3.9167	-3.3792	-3.8125	-3.7646	-3.4333	-4.05	-3.3896	-3.4479	-3.9458	-3.2292	-3.7479	-3.6875	-3.1979	-3.8146	28.545	152.907	260.476	301.364	-7.879	81.865	244.136	236.679	240.023	60.911	255.767	88.814	-44.123	171.744	245.635	272.620	0.00026818	0.00032946	8.8875e-05	1099.3	2.9326e-06	1.912e-06	1192.9	226.48	3.2944e-06	2.886e-06	288.26	81.357	64.601	19.261	4.4932e-06	26.703	0.0003196	0.00034046	8.6744e-05	1085.3	3.6605e-06	3.6877e-06	1180.9	226.61	3.5641e-06	3.8101e-06	287.16	82.072	64.832	19.581	3.7921e-06	27.291	-34.867	32.068	15.024	-44.655	97.612	79.535	-44.635	-37.597	103.171	63.682	-37.727	-30.974	-30.700	-24.159	99.915	-24.305	-8191	255	
1452.332	1	1	0	0	0.14051	0.2171	0.24399	0.074228	0.2251	0.083909	0.16639	0.15565	0.07128	0.11915	0.14243	0.19714	0.25038	0.12111	0.2545	0.030049	-2.8479	-3.3167	-3.9875	-3.3729	-3.6833	-3.9062	-3.375	-3.8896	-3.3771	-3.0875	-4.0396	-3.1833	-3.7146	-3.8792	-3.2354	-3.9708	-8.364	249.241	216.463	4.529	199.602	163.932	260.512	211.210	11.758	84.701	285.272	224.905	2.499	-42.028	74.724	185.933	0.0002807	0.00026177	6.6426e-05	1100.1	1.42e-06	2.2072e-06	1196.6	227.04	3.29e-06	2.4968e-06	287.93	81.856	64.696	19.167	3.3694e-06	27.032	0.00031079	0.00033787	9.1853e-05	1084.4	3.9024e-06	3.5548e-06	1181	226.35	3.8166e-06	3.7413e-06	287.81	82.153	64.889	19.486	3.6425e-06	27.397	-51.625	38.008	26.439	-44.987	121.772	103.175	-44.518	-37.461	156.024	97.478	-37.834	-31.041	-30.767	-24.389	69.843	-24.361	-8191	255	
1452.430	1	1	0	0	0.37155	0.10807	0.14395	0.11589	0.23238	0.094528	0.059384	0.14534	0.179	0.20083	0.22441	0.049356	0.11018	0.27759	0.1355	0.21024	-3.1188	-3.2271	-3.9417	-3.3271	-3.4188	-3.9625	-3.4188	-3.9667	-3.5938	-3.2812	-3.9958	-3.4958	-3.7062	-4.1	-3.2958	-3.8667	-13.357	39.885	65.508	299.044	254.094	188.100	-27.953	289.049	82.653	102.924	271.923	247.986	175.778	217.214	178.990	-3.184	0.00024228	0.00033831	0.00010376	1097.6	2.2468e-06	2.3503e-06	1189.5	228.22	5.3471e-06	2.7381e-06	288.31	80.753	64.352	19.164	2.4759e-06	26.714	0.00031481	0.00034687	9.3045e-05	1082.7	4.046e-06	3.6385e-06	1178.6	226.64	3.5694e-06	3.89e-06	287.85	81.966	64.781	19.472	3.5212e-06	27.16	303.693	37.939	44.760	-44.766	110.650	84.194	-44.806	-37.303	123.096	83.663	-37.821	-30.713	-30.203	-24.034	111.332	-24.076	-8191	255	
1452.549	1	1	0	0	0.32002	0.016072	0.10448	0.2495	0.13757	0.057443	0.17351	0.24766	0.12111	0.15215	0.19866	0.061399	0.26868	0.20274	0.18517	0.27586	-3.1375	-3.1333	-3.8312	-3.6021	-3.3146	-3.8729	-3.5563	-3.8063	-3.7208	-3.3521	-3.975	-3.4958	-3.35	-3.9917	-3.1604	-3.7875	212.712	146.851	-35.921	268.645	-26.026	173.670	224.851	202.693	192.078	11.641	271.490	294.873	257.789	-46.962	216.913	229.093	0.00027356	0.00036285	9.3661e-05	1093.1	2.8071e-06	2.0528e-06	1189.2	227.29	1.8664e-06	3.9362e-06	287.82	81.684	64.005	19.11	3.213e-06	26.685	0.0003043	0.00033781	9.0421e-05	1081.6	3.8832e-06	3.5077e-06	1178.8	226.76	3.4531e-06	3.6677e-06	287.38	82.135	64.741	19.476	3.8111e-06	27.234	-53.901	45.647	62.811	-44.769	120.491	80.518	-44.928	-37.188	139.868	100.166	-37.841	-30.822	-30.214	-24.104	83.457	-24.412	-8191	255	
1452.645	1	1	0	0	0.27527	0.12058	0.057835	0.15445	0.0822	0.15088	0.12757	0.28677	0.046096	0.18175	0.20781	0.12049	0.19397	0.19635	0.33354	0.065624	-3.4896	-3.1063	-3.9083	-3.5312	-3.3812	-3.9292	-3.5583	-3.7833	-3.925	-3.1292	-3.9667	-3.7667	-3.4188	-4.0896	-3.3563	-3.825	224.840	-50.655	237.608	285.075	-41.450	-5.263	57.622	254.914	176.378	58.227	171.970	303.352	277.035	295.508	124.802	146.578	0.00024607	0.00041978	8.7292e-05	1094.2	4.2654e-06	3.3703e-06	1187.4	226.64	3.9061e-06	9.6541e-07	288.08	81.089	64.703	18.95	3.1434e-06	26.604	0.00030352	0.00034865	9.1629e-05	1082.6	3.9445e-06	3.3714e-06	1177.7	225.91	3.4426e-06	3.6072e-06	287.3	82.026	64.615	19.409	3.7921e-06	27.253	-54.174	62.075	13.666	-44.439	98.129	103.711	-44.720	-37.168	118.183	82.105	-37.795	-30.778	-30.604	-23.553	72.538	-24.023	-8191	255	
1452.741	1	1	0	0	0.28493	0.075148	0.14397	0.13171	0.10117	0.076995	0.2389	0.27463	0.042265	0.284	0.18824	0.07608	0.14146	0.11306	0.26364	0.22794	-3.3625	-3.0563	-3.7542	-3.7708	-3.2521	-4.0521	-3.5021	-3.6167	-3.9021	-3.5687	-3.9708	-3.8854	-3.3438	-3.8875	-3.3354	-3.6375	270.208	257.050	134.278	295.387	0.981	-4.287	258.715	203.239	115.282	300.121	-45.050	267.298	-38.152	26.011	-18.403	-54.692	0.00022538	0.00042646	0.00011116	1095.7	3.4449e-06	3.2758e-06	1184	225.85	1.6102e-06	3.7131e-06	288.62	81.336	64.117	18.936	4.2783e-06	26.774	0.00028475	0.00034151	9.1146e-05	1081	3.9337e-06	3.388e-06	1175.1	225.65	3.3693e-06	3.5461e-06	287.27	81.779	64.545	19.389	3.5723e-06	27.209	-45.819	44.877	33.085	-44.783	147.929	109.077	-44.689	-37.409	136.033	100.319	-37.364	-30.777	-30.215	-23.802	113.599	-24.645	-8191	255	
1452.837	1	1	0	0	0.21517	0.1686	0.18165	0.12023	0.12176	0.060499	0.12946	0.24703	0.10713	0.34741	0.26576	0.13397	0.18819	0.11112	0.20608	0.14447	-3.5979	-3.2625	-3.7812	-4.0958	-3.3	-3.9583	-3.725	-3.4604	-4.0188	-3.175	-3.7271	-3.8479	-3.3833	-3.9562	-3.5875	-3.5021	104.872	23.602	221.121	-5.610	-20.048	259.818	249.070	212.706	-13.364	-51.167	-35.188	13.830	-20.613	173.920	113.774	289.296	0.00030268	0.00031899	0.00011922	1094.2	2.8925e-06	3.7349e-06	1191.2	225.87	4.1163e-06	3.2762e-06	288.78	80.976	64.183	19.081	2.473e-06	26.891	0.00030699	0.00033411	9.7257e-05	1081.2	3.7049e-06	3.4247e-06	1178.9	225.52	3.4513e-06	3.6642e-06	287.28	81.898	64.592	19.443	3.2635e-06	27.257	-53.161	23.444	41.932	-44.596	126.225	90.702	-44.757	-37.327	132.465	91.417	-37.497	-30.985	-30.489	-23.945	82.983	-24.097	-8191	255	
1452.933	1	1	0	0	0.33667	0.088647	0.28313	0.18498	0.17616	0.11774	0.13264	0.15525	0.073046	0.16942	0.18441	0.20427	0.048183	0.15042	0.091292	0.13783	-3.7729	-3.3646	-3.6167	-4.0458	-3.1896	-3.8625	-3.8542	-3.3646	-3.9062	-3.3438	-3.7062	-3.8958	-3.2562	-3.9708	-3.7354	-3.45	-32.344	136.551	275.741	236.928	134.211	165.213	-38.370	293.289	78.959	-35.226	-15.269	234.340	-10.993	67.314	48.844	31.904	0.00020419	0.00040243	6.4932e-05	1095.7	3.2993e-06	3.1954e-06	1191.5	225.82	3.1783e-06	3.5941e-06	287.9	81.574	64.088	19.09	1.6045e-06	26.449	0.00029172	0.00032795	9.2458e-05	1081.7	3.7926e-06	3.3998e-06	1178.7	225.27	3.5577e-06	3.5725e-06	286.62	81.981	64.568	19.4	3.3165e-06	27.106	301.513	41.124	84.957	-44.703	121.839	97.014	-44.442	-37.043	97.466	100.400	-37.163	-30.715	-30.421	-23.848	111.234	-23.943	-8191	255	
1453.029	1	1	0	0	0.20434	0.2404	0.13749	0.30253	0.089996	0.1498	0.18722	0.23132	0.22092	0.057405	0.07977	0.14808	0.28289	0.30241	0.14088	0.12078	-3.4958	-3.3667	-3.4083	-3.8896	-3.4	-3.8208	-3.9646	-3.1396	-3.8375	-3.525	-3.6437	-3.9208	-3.2708	-3.8833	-3.8125	-3.3021	121.963	139.374	-19.516	198.032	-44.062	-48.978	169.234	300.336	51.667	304.102	172.004	283.977	246.887	-20.131	49.393	285.854	0.00028904	0.00019125	0.00011817	1095.1	2.5182e-06	3.2049e-06	1187.6	225.11	3.0495e-06	4.177e-06	287.41	81.415	63.98	19.185	3.4877e-06	26.798	0.00029386	0.00033682	9.0921e-05	1081.4	3.9919e-06	3.5776e-06	1175.1	225.33	3.4507e-06	3.6155e-06	286.97	81.951	64.379	19.425	3.3368e-06	27.073	-50.764	39.301	44.204	-44.459	104.074	105.234	-44.565	-37.196	118.980	118.569	-37.686	-30.353	-30.470	-23.548	108.897	-24.217	-8191	255	
1453.125	1	1	0	0	0.158	0.076845	0.10359	0.34241	0.20301	0.27969	0.3921	0.11854	0.2233	0.083078	0.19904	0.17467	0.17403	0.066598	0.16859	0.15945	-3.6312	-3.5958	-3.5062	-4.2417	-3.1854	-3.6167	-3.9979	-3.3229	-3.8792	-3.5417	-3.2271	-4.1687	-3.4417	-3.6271	-3.8458	-3.3771	1.719	242.889	45.995	291.509	-20.740	8.949	254.784	273.949	196.592	248.703	289.579	182.683	297.751	236.048	101.193	232.735	0.00026127	0.00034263	0.00010608	1091.2	3.0128e-06	2.2789e-06	1185.7	226.4	4.0538e-06	1.692e-06	286.73	81.123	63.883	18.916	3.0064e-06	26.495	0.0003033	0.00032691	9.2095e-05	1078.7	3.8256e-06	3.3714e-06	1174.3	225.5	3.599e-06	3.6843e-06	285.94	81.756	64.349	19.312	3.2186e-06	27.088	301.375	42.869	37.961	-44.306	113.488	61.504	-44.554	-36.885	107.736	97.926	-37.635	-30.550	-30.670	-24.030	86.282	-24.091	-8191	255	
1453.244	1	1	0	0	0.075478	0.28822	0.20618	0.16449	0.16951	0.24997	0.20429	0.23936	0.11523	0.1777	0.20208	0.091816	0.14291	0.14988	0.12691	0.074899	-3.4813	-3.6688	-3.3812	-4.0854	-3.3229	-3.6583	-4.0854	-3.3417	-3.8979	-3.7458	-3.2833	-3.9521	-3.4417	-3.3792	-3.8063	-3.2896	159.398	4.287	282.355	253.197	166.799	68.994	199.451	276.277	5.408	79.704	245.169	196.178	49.092	-28.464	-26.050	259.170	0.00027207	0.00034705	5.0073e-05	1090.1	3.8156e-06	3.7482e-06	1187.2	225.81	2.1344e-06	2.8239e-06	286.45	81.242	63.735	18.862	3.3584e-06	26.49	0.00029209	0.0003067	9.3649e-05	1080.7	3.7799e-06	3.804e-06	1175.1	224.84	3.378e-06	3.4669e-06	286.51	81.792	64.328	19.344	3.134e-06	27.132	-54.089	8.865	60.983	-44.924	128.783	108.032	-44.427	-37.293	142.193	111.161	-37.629	-30.625	-30.618	-23.930	104.023	-24.214	-8191	255	
1453.341	1	1	0	0	0.26214	0.11556	0.30319	0.15412	0.20192	0.24001	0.44611	0.1365	0.092994	0.21464	0.10777	0.17752	0.1642	0.068434	0.198	0.15205	-3.3792	-3.8271	-3.1063	-4.2125	-3.3917	-3.3667	-4.0896	-3.3688	-3.8417	-3.9708	-3.2833	-4.075	-3.5333	-3.3042	-3.9958	-3.3396	136.181	-45.965	219.875	163.169	239.059	233.391	216.923	125.517	226.033	134.028	297.761	-20.153	75.037	73.235	170.956	145.964	0.00029149	0.00021483	4.937e-05	1091.9	4.7731e-06	2.8331e-06	1186.6	225.1	4.2162e-06	3.5527e-06	286.69	81.79	64.078	18.982	3.8109e-06	26.636	0.00029246	0.00030288	9.4667e-05	1079	3.8856e-06	3.6455e-06	1174.5	224.88	3.5217e-06	3.2779e-06	285.6	81.773	64.41	19.333	3.4132e-06	27.102	-48.428	34.575	57.055	-44.591	124.988	117.268	-44.391	-37.207	124.596	98.452	-37.500	-30.865	-30.383	-23.679	97.414	-24.270	-8191	255	
1453.437	1	1	0	0	0.28409	0.05615	0.18842	0.131	0.21813	0.1981	0.22718	0.22255	0.060285	0.07597	0.13151	0.17548	0.047386	0.20665	0.1739	0.12441	-3.2583	-3.7917	-3.4437	-3.9708	-3.5687	-3.4208	-4.1875	-3.5	-3.6896	-3.8688	-3.2979	-3.9458	-3.6083	-3.2667	-3.9917	-3.4813	216.635	65.428	72.739	166.545	179.370	73.622	261.377	249.136	85.068	117.926	53.983	295.978	167.637	204.479	-42.369	289.025	0.00026713	0.0002544	7.2281e-05	1091.6	1.5147e-06	4.1308e-06	1187.7	224.74	2.3538e-06	2.7833e-06	284.21	80.758	64.137	18.923	2.334e-06	26.518	0.00030957	0.00029234	8.9471e-05	1078.1	3.5584e-06	3.5742e-06	1173.6	224.19	3.2547e-06	3.3105e-06	284.88	81.479	64.181	19.282	3.4751e-06	27.056	-40.188	19.975	56.344	-44.746	104.842	97.242	-44.635	-37.055	74.138	89.827	-37.507	-30.737	-30.577	-23.491	96.253	-24.423	-8191	255	
1453.510	1	1	0	0	0.049364	0.039916	0.1689	0.13923	0.104	0.11187	0.24677	0.17872	0.13071	0.17182	0.45371	0.22263	0.10853	0.08691	0.11644	0.23859	-3.0854	-3.9333	-3.1229	-3.9104	-3.6771	-3.1208	-4.1417	-3.525	-3.3396	-4.175	-3.3479	-3.9	-3.6729	-3.2708	-4.0312	-3.4938	286.150	260.948	296.635	297.858	6.426	236.853	268.766	-53.641	81.618	295.797	281.983	-48.552	263.249	34.352	-22.775	-29.374	0.00020632	0.0002882	0.0001003	1090.6	3.8448e-06	3.8825e-06	1183.7	224.1	2.9074e-06	3.0416e-06	284.54	79.275	63.473	18.804	3.6248e-06	26.06	0.00029371	0.00030448	9.1232e-05	1077.1	3.5428e-06	3.3748e-06	1171.2	222.87	3.2879e-06	3.4287e-06	283.45	80.596	63.715	18.985	3.1094e-06	26.616	-54.763	45.253	56.826	-44.558	105.809	89.474	-44.261	-37.334	105.990	93.295	-37.748	-30.370	-30.467	-23.527	105.022	-23.709	-8191	255	
1453.629	1	1	0	0	0.1081	0.068708	0.16547	0.22945	0.13434	0.094359	0.088117	0.16188	0.16085	0.21796	0.095544	0.2656	0.10637	0.055661	0.13584	0.16936	-2.8479	-3.9583	-3.4896	-3.9771	-3.825	-3.3896	-4.15	-3.6437	-3.4167	-3.8688	-3.5083	-3.7896	-3.9583	-3.3187	-3.9479	-3.6583	206.722	73.495	132.761	260.870	19.086	299.750	188.013	27.710	286.860	214.910	153.260	260.128	2.258	263.237	-53.622	292.224	0.00020461	0.00021275	7.5299e-05	1085.6	4.493e-06	2.0754e-06	1175.9	221.89	1.6529e-06	2.0866e-06	280.78	79.234	62.001	18.262	2.2187e-06	25.76	0.00030197	0.0002738	8.4569e-05	1072.6	3.4119e-06	3.3001e-06	1163.4	220.78	3.3431e-06	3.0757e-06	280.54	79.921	62.434	18.628	3.0393e-06	26.241	296.735	38.706	64.931	-44.426	93.846	115.228	-44.506	-37.344	149.658	144.651	-37.704	-30.337	-30.355	-23.157	100.795	-23.887	-8191	255	
1453.725	1	1	0	0	0.14525	0.040222	0.26573	0.28067	0.16057	0.13841	0.17516	0.11535	0.12199	0.032084	0.08683	0.21668	0.10185	0.096194	0.15168	0.10636	-3.0792	-4.0896	-3.3063	-3.6813	-3.9833	-3.1042	-4.1604	-3.6146	-3.1833	-4.1917	-3.4188	-3.7292	-3.8854	-3.25	-4.0896	-3.8438	134.600	4.648	200.192	265.162	70.646	99.803	291.368	4.725	152.071	233.720	107.550	247.096	282.450	169.276	246.621	-48.713	0.00027651	0.00026405	9.0108e-05	1068.1	3.0934e-06	3.0344e-06	1166.6	214.88	3.5318e-06	2.2019e-06	274.73	77.504	60.782	18.024	1.9441e-06	25.336	0.00027623	0.00027928	8.6278e-05	1058.4	3.1188e-06	3.3887e-06	1151.6	214.96	3.068e-06	2.6992e-06	274.39	78.014	61.342	18.284	2.6925e-06	25.819	302.239	6.032	43.375	-44.213	148.937	111.726	-44.125	-36.950	132.232	113.329	-37.866	-30.394	-30.037	-23.128	137.800	-23.563	-8191	255	
1453.821	1	1	0	0	0.24906	0.26002	0.1817	0.26009	0.13465	0.085741	0.26419	0.10312	0.033356	0.061121	0.13001	0.065448	0.070196	0.1736	0.13431	0.068023	-2.8104	-3.8833	-3.4354	-3.6083	-4.025	-3.2812	-3.9375	-3.9062	-3.1937	-4.0875	-3.6813	-3.3646	-3.9292	-3.4417	-3.7125	-3.9208	113.978	237.227	282.187	188.941	175.310	184.120	291.210	222.053	82.474	96.129	206.304	216.492	35.688	43.384	134.159	-54.212	0.00026672	0.00012384	0.00014069	1059.4	2.3584e-06	2.8072e-06	1149	213.31	3.68e-06	3.1652e-06	272.55	76.874	60.567	17.73	3.9153e-06	25.073	0.00027523	0.00024583	7.3831e-05	1047.9	2.8012e-06	2.8218e-06	1138.5	212.05	2.9343e-06	2.6804e-06	272.06	77.334	60.897	18.073	2.5308e-06	25.545	302.940	73.649	31.013	-44.458	118.969	94.149	-44.168	-37.006	67.221	80.738	-37.526	-30.310	-30.127	-22.931	103.281	-23.717	-8191	255	
1453.942	1	1	0	0	0.090847	0.15131	0.19484	0.18803	0.14709	0.17	0.18814	0.1717	0.17043	0.15252	0.15444	0.22818	0.053714	0.10897	0.056591	0.092716	-2.8604	-3.8833	-3.5542	-3.4188	-3.9125	-3.2583	-3.8937	-4.0062	-3.1	-3.7875	-3.6479	-3.4271	-3.9646	-3.3812	-3.6354	-3.8812	124.834	88.514	-26.770	210.381	176.097	187.296	186.140	216.067	91.714	32.681	304.802	278.770	194.097	34.384	65.050	61.554	0.00020408	0.00027181	7.9826e-05	1053.1	2.4884e-06	2.6534e-06	1141.7	210.05	3.0771e-06	1.8715e-06	271.27	76.48	59.876	17.756	2.8797e-06	24.933	0.00026394	0.0002242	6.7358e-05	1040.5	2.8e-06	2.7007e-06	1131.2	209.8	2.9383e-06	2.6526e-06	270.11	77.191	60.431	18	2.714e-06	25.499	298.946	26.425	50.821	-44.320	144.286	73.505	-44.273	-36.675	117.806	91.437	-37.327	-30.298	-29.911	-23.169	116.070	-23.707	-8191	255	
1454.038	1	1	0	0	0.074807	0.12697	0.17598	0.25501	0.20977	0.098668	0.1575	0.10871	0.057182	0.1186	0.12464	0.086074	0.19827	0.07396	0.13136	0.11573	-2.8708	-3.8104	-3.8417	-3.3229	-3.8917	-3.3563	-3.6708	-4.0396	-3.3063	-3.7125	-3.7292	-3.2479	-4.0563	-3.5021	-3.4	-4.1521	148.802	225.797	296.206	267.603	144.091	128.308	258.912	273.477	-38.239	209.988	-18.619	275.640	246.087	114.820	200.573	119.885	0.00027505	0.00025299	0.00010871	1053.4	3.1345e-06	2.7517e-06	1141.6	209.5	1.5318e-06	2.6951e-06	271.33	76.18	60.589	17.703	2.772e-06	24.976	0.00027029	0.00023597	6.9792e-05	1041.2	2.86e-06	2.7699e-06	1132.2	209.31	2.8726e-06	2.9131e-06	270.15	76.84	60.673	17.96	2.7083e-06	25.417	-53.586	31.012	26.592	-44.485	95.461	96.655	-44.382	-36.732	143.807	73.726	-37.508	-30.539	-29.810	-22.853	101.402	-23.666	-8191	255	
1454.110	1	1	0	0	0.054568	0.1371	0.21293	0.043608	0.11491	0.089046	0.27035	0.30208	0.26022	0.21578	0.10839	0.11252	0.11086	0.063008	0.11513	0.13456	-2.7979	-3.8479	-3.6479	-3.3708	-3.9104	-3.2625	-3.475	-3.9104	-3.1646	-3.8667	-3.8125	-3.0875	-3.825	-3.5625	-3.3854	-3.9896	305.188	297.543	-46.152	87.582	3.183	266.155	236.912	190.400	224.789	258.325	-16.029	36.573	11.866	80.288	54.373	157.649	0.00031395	0.00040953	8.028e-05	1052.5	2.3883e-06	1.6437e-06	1143.7	210.29	3.0812e-06	2.4417e-06	271.09	76.509	60.123	17.554	3.1271e-06	24.93	0.00026918	0.0002473	6.7876e-05	1038.4	3.0156e-06	2.5381e-06	1130.7	209.26	2.7708e-06	2.5859e-06	269.65	76.614	60.273	17.875	2.81e-06	25.301	-53.769	50.476	0.488	-44.030	142.888	84.705	-43.892	-36.617	130.538	79.419	-37.207	-30.187	-29.939	-22.577	105.919	-23.696	-8191	255	
1454.230	1	1	0	0	0.13528	0.095971	0.12983	0.30858	0.1242	0.028842	0.38023	0.11164	0.16496	0.17819	0.17329	0.39768	0.20811	0.094807	0.08092	0.047195	-2.8583	-3.6271	-3.7271	-3.3	-3.7396	-3.6375	-3.3688	-4.2208	-3.2812	-3.6521	-3.9021	-3.3396	-3.9229	-3.7667	-3.15	-4.0563	42.307	100.623	-50.636	253.138	74.666	254.558	274.404	-26.753	280.561	305.116	123.041	256.854	168.587	91.907	201.671	72.307	0.00021348	0.00041613	8.6071e-05	1052.7	2.2276e-06	3.7702e-06	1141.5	209.13	1.9669e-06	3.6766e-06	269.23	75.82	59.797	17.466	2.775e-06	24.984	0.00025266	0.00024965	6.3992e-05	1039.5	2.8006e-06	2.626e-06	1129.8	208.32	2.7749e-06	2.795e-06	268.78	76.498	60.06	17.798	2.8258e-06	25.345	301.958	13.967	33.314	-44.247	110.479	87.063	-44.279	-36.512	100.658	114.537	-37.171	-29.850	-29.925	-22.853	92.958	-23.173	-8191	255	
1454.325	1	1	0	0	0.075633	0.028642	0.1263	0.1606	0.29467	0.09878	0.24827	0.088113	0.034452	0.088336	0.11633	0.10072	0.13514	0.1461	0.3275	0.07919	-3.0667	-3.6688	-3.9771	-3.4917	-3.7958	-3.7708	-3.6083	-4.0521	-3.4542	-3.3583	-4.0125	-3.3979	-3.7146	-3.9021	-3.3458	-3.8917	290.187	107.659	-14.095	300.898	42.864	112.397	302.997	198.231	28.645	188.257	-8.336	71.595	255.852	124.205	8.427	73.462	0.00023122	0.00033047	7.6623e-05	1052.4	3.5116e-06	1.9958e-06	1140.5	209.32	1.7611e-06	2.2033e-06	266.8	75.546	59.588	17.468	1.7384e-06	24.842	0.00024993	0.0002664	6.287e-05	1039.7	3.0041e-06	2.3719e-06	1128	208.24	2.7656e-06	2.679e-06	268.01	76.268	60.077	17.785	2.8062e-06	25.262	-51.807	13.624	56.548	-44.257	115.127	113.294	-43.953	-36.749	160.258	97.828	-37.334	-30.229	-30.140	-22.613	100.488	-23.908	-8191	255	
1454.421	1	1	0	0	0.1036	0.17325	0.17394	0.11106	0.07691	0.19686	0.21757	0.079588	0.056147	0.24334	0.24968	0.24664	0.13998	0.088294	0.35748	0.072227	-3.1625	-3.375	-3.9604	-3.2958	-3.6375	-3.9146	-3.5042	-3.9771	-3.5812	-3.4333	-4.1354	-3.2583	-3.6167	-3.8521	-3.2208	-4.0292	202.008	23.540	193.680	144.406	281.656	72.296	283.842	-26.323	141.503	111.312	245.180	21.784	221.929	-34.840	252.852	49.982	0.0002397	0.00023655	7.3104e-05	1044.5	2.5162e-06	2.4009e-06	1137.2	209.06	2.1129e-06	3.8845e-06	268.22	75.55	59.432	17.546	3.3245e-06	24.72	0.00024532	0.00026573	6.6633e-05	1033.8	2.9729e-06	2.3083e-06	1126.3	208.05	2.5911e-06	2.8332e-06	268.21	76.231	59.867	17.848	3.0039e-06	25.295	-47.580	26.135	32.852	-44.358	119.352	85.082	-44.190	-36.744	105.337	79.894	-37.202	-30.436	-29.895	-22.976	96.006	-23.425	-8191	255	
1454.542	1	1	0	0	0.052695	0.16053	0.19646	0.23357	0.05762	0.17682	0.25853	0.14929	0.21481	0.14318	0.23396	0.072324	0.058987	0.14615	0.29057	0.16485	-3.0687	-3.2229	-3.9083	-3.3688	-3.4646	-3.8896	-3.2771	-3.9375	-3.5229	-3.3854	-3.9583	-3.3979	-3.3937	-3.8042	-3.2167	-3.7938	84.779	88.721	191.355	272.996	140.221	-28.928	267.343	256.245	158.060	139.137	62.038	74.109	80.027	202.245	263.810	208.123	0.00020986	0.00023104	9.8615e-05	1046.8	2.5899e-06	1.9004e-06	1136	207.83	5.0716e-06	3.7928e-06	266.97	75.514	59.715	17.621	3.1971e-06	25.052	0.00024454	0.0002579	6.3992e-05	1035.5	3.0606e-06	2.4979e-06	1126	207.64	2.7888e-06	2.9534e-06	267.83	76.238	59.896	17.852	2.7506e-06	25.366	-47.851	74.018	39.906	-44.437	143.203	81.598	-44.066	-36.520	137.493	137.970	-37.051	-30.035	-30.009	-22.954	104.743	-23.254	-8191	255	
1454.638	1	1	0	0	0.064268	0.092751	0.11496	0.32543	0.12835	0.1402	0.25511	0.12395	0.05752	0.20015	0.16861	0.20607	0.11155	0.34274	0.12027	0.24202	-3.2667	-3.1646	-3.9708	-3.5438	-3.2604	-3.875	-3.4521	-3.6708	-3.825	-3.1437	-4.025	-3.6271	-3.3042	-4.1583	-3.5021	-3.6979	156.419	240.061	258.285	274.157	-29.673	112.829	255.652	-36.402	12.732	75.933	206.226	229.643	242.694	265.129	173.695	187.588	0.00025017	0.00036169	5.6448e-05	1047.1	3.1291e-06	1.707e-06	1137.9	208	3.5245e-06	2.6309e-06	267.7	75.645	60.07	17.342	3.3152e-06	24.663	0.00024576	0.00027324	6.2421e-05	1036.9	3.0606e-06	2.5429e-06	1128.5	207.49	2.7807e-06	2.9826e-06	267.92	76.2	60.208	17.725	2.9325e-06	25.262	295.537	22.891	62.145	-44.392	129.281	119.455	-44.172	-36.643	130.790	89.931	-37.075	-30.484	-29.666	-22.962	105.362	-23.162	-8191	255	
1454.734	1	1	0	0	0.23936	0.24937	0.1129	0.16165	0.31923	0.30308	0.19403	0.2594	0.1465	0.21275	0.069292	0.13667	0.13841	0.10178	0.11768	0.066216	-3.4062	-3.2896	-3.8042	-3.725	-3.2313	-4.0312	-3.3521	-3.5563	-3.7875	-3.2604	-3.8208	-3.6875	-3.1083	-4.1208	-3.4125	-3.5312	89.404	294.254	57.994	304.710	279.541	137.937	206.529	242.625	284.338	124.054	263.115	216.406	166.828	-15.987	84.521	80.306	0.00024445	0.00031578	9.2075e-05	1049.7	2.7085e-06	2.6497e-06	1142.1	208.05	3.7085e-06	3.0486e-06	267.02	75.487	59.134	17.623	2.7048e-06	24.869	0.00025745	0.00024952	6.6737e-05	1035.4	3.033e-06	2.5277e-06	1127	207.48	2.5021e-06	2.7888e-06	267.4	76.127	59.706	17.879	2.6868e-06	25.256	-51.577	36.082	23.191	-44.182	114.490	93.536	-43.995	-36.914	103.437	68.403	-37.367	-30.267	-29.688	-22.745	112.257	-22.816	-8191	255	
1454.805	1	1	0	0	0.25106	0.18238	0.16314	0.1014	0.18625	0.10309	0.34495	0.17409	0.38579	0.1949	0.013109	0.15448	0.22157	0.11374	0.33982	0.027326	-3.525	-3.2396	-3.8833	-3.9062	-3.3375	-4.0437	-3.6125	-3.4042	-3.9229	-3.075	-3.7875	-3.9271	-3.1979	-4.0104	-3.4562	-3.4771	51.209	92.931	74.800	178.111	49.111	-29.970	219.813	-27.695	165.424	270.033	59.926	256.838	273.257	304.035	177.541	-22.477	0.00020343	0.00037373	8.5005e-05	1050	2.496e-06	1.297e-06	1132.8	208.42	2.972e-06	1.6981e-06	266.93	75.595	59.329	17.495	4.0815e-06	24.846	0.00024133	0.00026757	7.2381e-05	1034.9	3.0618e-06	2.4702e-06	1122.9	207.69	2.683e-06	2.8451e-06	267.36	75.955	59.877	17.799	2.8258e-06	25.256	-50.617	35.551	46.515	-44.224	105.683	63.860	-44.275	-36.604	113.905	72.639	-36.961	-30.166	-30.055	-23.023	89.926	-23.282	-8191	255	
1454.926	1	1	0	0	0.18722	0.20947	0.16588	0.2039	0.28781	0.12228	0.08681	0.083237	0.082264	0.20161	0.13817	0.1206	0.19613	0.14145	0.084406	0.14625	-3.5979	-3.2062	-3.6958	-3.9188	-3.0563	-3.9125	-3.5938	-3.3271	-3.8438	-3.1375	-3.7229	-3.8854	-3.1292	-3.6646	-3.7479	-3.4333	-44.699	93.580	-0.584	240.307	86.769	-39.159	285.637	261.629	77.458	255.292	-45.206	65.476	27.298	201.843	108.847	237.978	0.00025672	0.00031114	8.6619e-05	1047.3	2.3299e-06	3.077e-06	1134.8	206.21	2.4476e-06	2.0301e-06	266.84	75.497	59.423	17.681	2.7203e-06	24.832	0.00024296	0.00026283	6.9222e-05	1036	3.0966e-06	2.5803e-06	1122.5	206.81	2.6609e-06	2.9284e-06	267.44	76.071	59.947	17.876	2.6843e-06	25.246	-50.978	30.943	41.616	-44.305	100.931	89.829	-43.847	-36.543	114.215	111.142	-36.856	-30.098	-29.525	-22.812	86.195	-22.909	-8191	255	
1455.022	1	1	0	0	0.085702	0.061591	0.092957	0.40226	0.13391	0.17562	0.16858	0.13083	0.16446	0.16432	0.13059	0.19778	0.079958	0.07156	0.18295	0.18007	-3.2708	-3.4167	-3.6167	-3.8625	-3.1875	-3.8479	-3.7188	-3.3125	-3.8667	-3.3854	-3.7125	-3.8792	-3.2562	-3.7375	-3.8667	-3.1792	301.317	1.324	-47.775	278.469	269.483	257.051	263.826	259.041	-46.004	100.137	297.695	249.551	119.762	238.277	165.052	226.459	0.00026227	0.00021215	6.6865e-05	1046.6	2.4741e-06	2.1512e-06	1136.5	208.41	2.621e-06	3.81e-06	268.38	76.189	59.397	17.498	2.4818e-06	24.724	0.0002486	0.00025759	6.8532e-05	1034.4	3.1573e-06	2.626e-06	1124	207.24	2.6749e-06	2.7012e-06	267.82	76.405	59.74	17.802	2.6344e-06	25.216	-47.800	31.005	24.885	-44.235	161.174	58.416	-44.010	-36.460	116.002	75.172	-36.911	-30.347	-30.015	-22.627	85.111	-23.442	-8191	255	
1455.118	1	1	0	0	0.098911	0.13069	0.26813	0.39265	0.042996	0.16517	0.12468	0.16088	0.083519	0.15958	0.23637	0.26436	0.33602	0.083541	0.12168	0.25804	-3.5167	-3.2958	-3.4083	-3.9833	-3.2375	-3.6292	-3.9479	-3.2042	-4.0104	-3.5646	-3.3438	-3.9625	-3.1042	-3.6479	-3.9417	-3.2042	160.920	245.997	98.132	-54.313	290.947	-16.344	155.446	224.151	124.631	127.628	183.221	235.522	218.015	288.790	70.059	-28.870	0.00024995	0.00030749	9.4649e-05	1047.3	2.4992e-06	2.9032e-06	1135.7	208.26	4.1098e-06	3.5965e-06	268.24	75.533	59.438	17.488	3.113e-06	24.853	0.00024222	0.00024817	7.4021e-05	1033.8	3.1813e-06	2.5457e-06	1124.1	207.75	2.7225e-06	2.7214e-06	267.72	76.102	59.799	17.822	2.5011e-06	25.238	-39.816	20.479	47.444	-44.137	97.322	112.150	-44.154	-36.524	127.213	94.442	-37.050	-29.903	-29.941	-22.743	95.139	-23.170	-8191	255	
1455.213	1	1	0	0	0.1612	0.042446	0.16212	0.062203	0.11221	0.13728	0.14771	0.13482	0.095276	0.15186	0.11548	0.072076	0.030754	0.10882	0.14864	0.30136	-3.5438	-3.3875	-3.3146	-3.9917	-3.1354	-3.5917	-4.0792	-3.25	-3.8208	-3.6125	-3.4042	-4.1562	-3.3187	-3.4896	-4.0542	-3.4646	-41.756	4.414	250.145	168.528	224.332	-52.360	256.642	69.285	151.980	-26.498	288.504	250.580	90.361	265.944	168.884	239.636	0.00026471	0.00027474	6.9009e-05	1046.1	1.4194e-06	2.8907e-06	1135.5	207.55	1.9892e-06	2.5034e-06	267.53	75.41	59.319	17.576	3.4578e-06	24.823	0.0002503	0.00025347	7.1501e-05	1032.6	3.1765e-06	2.7222e-06	1123.7	207.08	2.8034e-06	2.4622e-06	267.62	76.182	59.76	17.821	2.6414e-06	25.266	-45.633	43.298	63.226	-44.010	98.274	84.155	-43.936	-36.533	88.690	98.172	-36.838	-30.007	-29.823	-22.575	88.289	-23.232	-8191	255	
1455.333	1	1	0	0	0.10529	0.25836	0.13126	0.19119	0.094112	0.079644	0.063014	0.2552	0.18324	0.36996	0.087934	0.20415	0.12495	0.095064	0.17386	0.042566	-3.5542	-3.7146	-3.2354	-4.1271	-3.3688	-3.525	-4.0125	-3.2562	-3.8125	-3.8	-3.3312	-3.9479	-3.5812	-3.5292	-3.9188	-3.3646	274.485	294.518	283.200	290.416	-7.373	166.553	214.054	209.316	263.474	-4.398	251.167	140.139	208.923	265.948	138.607	12.173	0.0002363	0.00032254	6.9715e-05	1043.9	2.4077e-06	2.0715e-06	1136.4	208.37	3.7844e-06	2.877e-06	268.47	76.086	59.687	17.801	2.4277e-06	24.989	0.00024904	0.00025679	7.4039e-05	1034.6	2.9801e-06	2.6149e-06	1123.7	207.31	2.7225e-06	2.7804e-06	267.7	76.368	59.869	17.868	2.4531e-06	25.268	297.613	45.118	30.191	-43.995	109.648	144.055	-43.854	-36.477	126.090	114.281	-37.263	-29.944	-29.698	-22.743	122.919	-23.388	-8191	255	
1455.405	1	1	0	0	0.14128	0.29416	0.17175	0.10329	0.11149	0.17689	0.14751	0.18937	0.18053	0.079887	0.29113	0.098742	0.21547	0.21283	0.17148	0.072935	-3.3208	-3.9104	-3.2958	-4.0521	-3.6146	-3.5812	-4.1125	-3.4917	-3.6292	-3.9396	-3.4437	-3.8187	-3.7542	-3.1542	-4.1125	-3.2458	304.990	13.832	122.566	190.043	-19.753	298.488	-33.500	90.162	180.607	249.627	40.796	228.095	1.638	112.779	41.121	215.267	0.00021117	0.000166	8.1927e-05	1047.3	2.2489e-06	2.1024e-06	1136.4	207.24	1.9988e-06	2.929e-06	267.59	75.249	59.762	17.447	3.443e-06	24.706	0.00023661	0.00024053	7.5333e-05	1032.1	2.9399e-06	2.7035e-06	1123.4	207.09	2.7912e-06	2.5991e-06	267.5	76.158	59.894	17.786	2.5258e-06	25.202	304.798	34.886	36.091	-43.784	141.346	98.287	-43.752	-36.565	148.818	100.736	-37.064	-29.989	-29.758	-22.755	104.351	-23.384	-8191	255	
1455.503	1	1	0	0	0.25605	0.24852	0.23262	0.29968	0.12069	0.01512	0.29149	0.26847	0.30842	0.1762	0.17747	0.23834	0.13202	0.20277	0.13435	0.29058	-3.1729	-3.9583	-3.2771	-3.9917	-3.6333	-3.2396	-4.2792	-3.4583	-3.4375	-3.8708	-3.3646	-3.7833	-3.6562	-3.35	-4.0333	-3.4917	-14.039	281.512	105.026	-53.712	50.387	-2.430	237.161	238.093	242.664	245.360	-39.429	286.383	-32.794	280.912	54.960	232.730	0.00025514	0.00023528	8.4747e-05	1044.3	1.6634e-06	4.3581e-06	1134	208.15	2.2817e-06	2.305e-06	267.2	75.137	59.592	17.298	3.1734e-06	24.806	0.00024904	0.00024934	6.6495e-05	1032.3	2.9213e-06	2.88e-06	1122	207.16	2.8557e-06	2.4206e-06	267.37	75.855	59.924	17.743	2.6332e-06	25.16	-36.431	39.110	50.322	-43.790	124.000	104.834	-44.112	-36.522	102.632	51.160	-37.216	-30.284	-29.877	-22.666	107.066	-23.724	-8191	255	
1455.622	1	1	0	0	0.2203	0.0073809	0.31112	0.07635	0.055614	0.053338	0.039425	0.13994	0.11736	0.18139	0.11045	0.12259	0.23366	0.19666	0.1046	0.072917	-3.2021	-4.0062	-3.2208	-4.0062	-3.8479	-3.275	-4.2688	-3.7042	-3.35	-3.9854	-3.4042	-3.9938	-3.7292	-3.2104	-4.0542	-3.7083	234.379	90.948	75.545	236.253	133.063	154.249	-41.465	232.642	253.012	282.794	216.209	113.659	227.998	70.742	192.328	117.585	0.00025583	0.00034744	5.7415e-05	1041.3	2.6158e-06	2.1661e-06	1134.1	207.41	1.7762e-06	1.6777e-06	266.03	75.521	59.445	17.403	2.9845e-06	24.843	0.00025137	0.00022864	7.0413e-05	1030.7	2.8372e-06	2.8467e-06	1122.1	206.81	2.7068e-06	2.6283e-06	266.93	76.235	59.731	17.808	2.6414e-06	25.246	-45.144	39.639	18.200	-44.130	119.737	96.185	-44.007	-36.836	144.614	66.563	-36.882	-30.115	-30.143	-22.428	86.008	-23.190	-8191	255	
1455.718	1	1	0	0	0.13562	0.059975	0.039938	0.16316	0.09143	0.19423	0.199	0.1955	0.13516	0.067629	0.072455	0.026806	0.34451	0.015945	0.1059	0.036161	-3.0792	-3.9938	-3.2458	-3.8354	-3.8646	-3.2354	-4.0771	-3.7042	-3.4583	-3.9271	-3.4208	-3.5021	-3.7583	-3.1792	-3.9	-3.6708	91.563	258.833	-11.265	264.159	199.244	-54.383	268.278	245.607	59.490	232.688	147.941	245.434	281.545	123.982	85.401	-40.369	0.00027079	0.00027556	7.6919e-05	1046.7	4.0446e-06	2.0636e-06	1138.3	207.12	2.6863e-06	2.663e-06	267.34	75.602	59.13	17.493	2.5358e-06	24.72	0.00026055	0.00021551	6.8325e-05	1032.8	2.9717e-06	2.6066e-06	1122.8	206.98	2.897e-06	2.267e-06	266.72	76.13	59.718	17.763	2.4058e-06	25.264	-49.455	61.030	35.303	-44.175	96.463	102.110	-43.961	-36.501	160.006	109.260	-37.061	-29.894	-29.917	-22.691	118.826	-23.321	-8191	255	
1455.814	1	1	0	0	0.21029	0.040056	0.01013	0.1759	0.21213	0.27743	0.17762	0.34731	0.1874	0.081254	0.21338	0.10385	0.33784	0.091507	0.078577	0.19337	-2.8479	-3.9604	-3.3583	-3.5187	-3.9521	-3.3104	-4.0062	-3.875	-3.2854	-4	-3.5667	-3.4292	-4.0292	-3.3333	-3.8375	-3.7354	95.279	205.131	183.562	305.312	109.615	167.785	-29.097	304.624	226.030	67.346	221.919	-45.815	259.330	-32.204	248.117	80.825	0.00023737	0.00025288	8.6494e-05	1043.2	2.8022e-06	4.0224e-06	1130.4	207.38	3.28e-06	3.5954e-06	268.22	75.935	59.375	17.475	2.8841e-06	24.769	0.00025893	0.00021638	6.684e-05	1031.7	2.8937e-06	2.7049e-06	1120.6	206.76	2.7371e-06	2.6582e-06	266.75	76.097	59.751	17.824	2.5586e-06	25.205	294.792	54.908	44.245	-43.992	118.332	111.477	-43.850	-36.562	138.850	95.327	-37.007	-29.936	-29.392	-22.922	134.181	-23.253	-8191	255	
1455.910	1	1	0	0	0.13848	0.079595	0.16922	0.15114	0.13771	0.11974	0.19182	0.13394	0.20911	0.29215	0.10195	0.15535	0.025457	0.15795	0.05328	0.11709	-2.7292	-3.9313	-3.4854	-3.5125	-4.0979	-3.4625	-3.9104	-3.9417	-3.1729	-4.0604	-3.7021	-3.3563	-4.0917	-3.5062	-3.725	-3.8146	280.259	149.570	-47.210	18.379	38.816	31.924	100.097	2.326	-28.461	278.756	83.052	205.570	77.901	141.443	69.610	118.151	0.00028908	0.00026465	8.7385e-05	1042.1	2.3646e-06	1.8531e-06	1133.4	207.56	3.0315e-06	2.0719e-06	267.83	75.33	59.462	17.466	3.723e-06	24.931	0.00025151	0.00021545	6.4993e-05	1030.2	2.9351e-06	2.6266e-06	1119.6	206.88	2.9273e-06	2.4212e-06	266.54	75.88	59.707	17.765	2.5567e-06	25.275	-35.321	29.446	37.519	-43.984	82.281	94.993	-44.003	-36.500	162.050	88.398	-37.145	-29.871	-29.455	-22.418	100.184	-23.167	-8191	255	
1456.007	1	1	0	0	0.14933	0.19951	0.21698	0.096466	0.069591	0.29942	0.3224	0.16962	0.10465	0.054014	0.20995	0.11234	0.41359	0.15413	0.045219	0.17554	-2.875	-3.9042	-3.7062	-3.6	-4.0375	-3.4813	-3.7917	-3.9396	-3.3125	-3.7667	-3.7625	-3.3125	-4.0729	-3.5896	-3.5604	-4.0375	285.629	109.768	18.653	229.223	52.655	61.396	249.534	260.582	301.630	115.089	181.714	55.626	80.772	64.924	162.932	125.297	0.0002526	0.00032744	7.5929e-05	1043	3.1241e-06	2.6433e-06	1131.6	207.97	1.6234e-06	2.8284e-06	266.62	75.681	59.289	17.689	2.6801e-06	24.848	0.00024447	0.00023467	6.3094e-05	1029.8	2.7706e-06	2.6038e-06	1117.6	206.95	2.8208e-06	2.4741e-06	266.9	76.073	59.801	17.85	2.6736e-06	25.241	-52.047	33.500	69.842	-43.788	112.368	87.127	-43.928	-36.307	76.163	120.770	-36.917	-29.834	-29.572	-22.528	123.415	-23.695	-8191	255	
1456.103	1	1	0	0	0.0090703	0.14252	0.095643	0.13031	0.079368	0.27485	0.42619	0.12664	0.11442	0.087932	0.064281	0.12764	0.18194	0.30222	0.037832	0.24023	-2.9146	-3.9458	-3.7521	-3.625	-4.1479	-3.4875	-3.7062	-4.1292	-3.2958	-3.925	-3.8479	-3.3688	-3.9833	-3.5062	-3.3958	-4.1646	155.159	156.631	-23.402	201.529	271.720	243.423	280.851	186.591	125.985	264.309	71.139	301.929	301.353	303.184	294.817	260.823	0.00024947	0.00030886	0.00010568	1044.2	3.5803e-06	2.3698e-06	1131.6	207.13	2.0225e-06	2.0498e-06	265.64	75.402	59.227	17.543	2.2701e-06	24.748	0.0002517	0.00023732	6.5528e-05	1030.4	2.6307e-06	2.3401e-06	1118.5	206.66	2.6882e-06	2.4317e-06	266.32	75.896	59.696	17.755	2.5826e-06	25.267	-48.809	24.219	25.651	-43.825	106.546	127.265	-43.722	-36.367	94.674	84.416	-36.975	-30.285	-29.338	-22.790	96.284	-23.270	-8191	255	
1456.223	1	1	0	0	0.22799	0.10496	0.10779	0.11209	0.14342	0.185	0.046186	0.12113	0.22402	0.053436	0.1262	0.064305	0.20356	0.099615	0.18704	0.33047	-2.9333	-3.6833	-3.8812	-3.25	-3.7542	-3.6583	-3.6521	-3.9979	-3.4583	-3.8292	-3.95	-3.2417	-3.975	-3.7562	-3.4333	-4.3396	18.756	252.432	180.970	288.521	163.193	143.988	5.679	115.908	-9.288	115.371	183.512	-27.361	-35.705	237.970	-47.039	191.202	0.00025186	0.00052327	6.9662e-05	1045.6	2.015e-06	2.9017e-06	1130.5	207.24	1.5057e-06	2.5287e-06	266.52	75.606	59.445	17.483	3.4313e-06	24.871	0.00025542	0.00025735	5.719e-05	1030.3	2.6571e-06	2.5201e-06	1119.2	207.13	2.7132e-06	2.5039e-06	266.34	76.078	59.674	17.836	2.7999e-06	25.244	304.126	42.534	44.261	-43.885	138.889	103.512	-43.755	-36.298	151.781	96.465	-36.911	-29.654	-29.583	-22.257	90.583	-22.814	-8191	255	
1456.318	1	1	0	0	0.05102	0.22074	0.24221	0.29747	0.21499	0.2493	0.06403	0.093704	0.23794	0.026037	0.059401	0.2458	0.1892	0.095324	0.099199	0.21815	-3.0583	-3.8208	-3.8875	-3.2854	-3.65	-3.8438	-3.5896	-4.0729	-3.4333	-3.5938	-4	-3.3333	-3.9167	-3.7396	-3.3479	-4.2375	80.484	271.710	297.168	222.414	165.739	191.106	198.020	295.038	214.229	-51.231	253.367	258.117	273.207	285.442	-2.123	28.048	0.00020495	0.00035031	7.1003e-05	1045.6	2.631e-06	3.3063e-06	1130.3	207.33	3.2443e-06	2.767e-06	268.07	75.326	59.074	17.615	3.6167e-06	24.761	0.00024967	0.00024644	5.8054e-05	1030.1	2.758e-06	2.5263e-06	1118.3	206.83	2.6626e-06	2.6464e-06	266.67	75.921	59.576	17.83	2.8037e-06	25.187	296.074	44.873	39.928	-43.652	105.178	101.740	-43.577	-36.277	93.074	89.960	-36.942	-29.353	-29.306	-22.457	74.380	-22.907	-8191	255	
1456.414	1	1	0	0	0.14388	0.32956	0.070345	0.13942	0.1503	0.23403	0.1332	0.18588	0.20676	0.21092	0.10513	0.21002	0.19596	0.13604	0.12216	0.24187	-3.2354	-3.5021	-4.0896	-3.5083	-3.8312	-3.9813	-3.4458	-4.0625	-3.3729	-3.5125	-4.1604	-3.3708	-3.8937	-3.9688	-3.4417	-4.0479	52.755	1.464	-14.184	-20.161	257.998	173.413	-35.378	265.845	196.605	82.171	197.026	-29.143	300.745	225.427	287.799	-44.240	0.00029284	0.00029001	7.9337e-05	1039.6	2.3991e-06	2.8903e-06	1127.5	207.23	3.0549e-06	2.7831e-06	266.24	75.481	59.654	17.514	3.2192e-06	24.866	0.00025299	0.00025932	6.2179e-05	1027.9	2.7357e-06	2.509e-06	1117.5	207.05	2.4567e-06	2.6998e-06	266.92	75.803	59.808	17.813	2.7228e-06	25.244	301.900	40.116	48.102	-43.862	125.809	134.595	-43.735	-36.153	136.265	86.307	-36.926	-29.789	-29.462	-22.531	106.919	-22.877	-8191	255	
1456.510	1	1	0	0	0.20923	0.16062	0.11527	0.20288	0.14059	0.18299	0.22019	0.13726	0.11716	0.21938	0.25094	0.16373	0.044058	0.08449	0.28728	0.35915	-3.175	-3.45	-3.9313	-3.4313	-3.5854	-3.8354	-3.5021	-4.0146	-3.6354	-3.4479	-3.9313	-3.4417	-3.7292	-4.0604	-3.3083	-3.8854	169.709	205.767	39.635	253.757	288.120	101.296	258.638	299.108	169.310	146.883	304.490	218.685	251.362	132.644	-15.111	-39.114	0.00025341	0.0003306	8.0702e-05	1037.3	1.8703e-06	2.4632e-06	1127.4	207.59	3.8313e-06	3.9845e-06	267.22	75.141	59.454	17.42	3.0347e-06	24.833	0.0002389	0.00026129	6.4544e-05	1027.6	2.866e-06	2.383e-06	1115.6	206.8	2.7289e-06	2.5678e-06	266.31	76.067	59.761	17.77	2.6692e-06	25.28	294.254	38.034	56.923	-43.757	125.673	112.814	-43.457	-35.976	139.170	101.881	-36.545	-29.238	-29.638	-22.501	97.990	-22.956	-8191	255	
1456.631	1	1	0	0	0.074712	0.019086	0.063745	0.09406	0.13435	0.23981	0.15518	0.098441	0.098667	0.030328	0.097478	0.020609	0.1843	0.14301	0.23392	0.09853	-3.4104	-3.3833	-4.0042	-3.6104	-3.6312	-4.1687	-3.5083	-3.9604	-3.6854	-3.2313	-4.0896	-3.6042	-3.4792	-4.1	-3.3	-4.0062	219.957	103.641	59.090	272.887	197.809	104.630	213.389	74.992	113.965	278.914	182.857	225.489	152.965	234.219	130.327	269.547	0.00022734	0.00023084	7.6171e-05	1039.2	2.892e-06	2.5167e-06	1122.2	208.16	1.7049e-06	2.9096e-06	266.48	75.282	59.809	17.367	3.3984e-06	24.821	0.00023256	0.00024145	6.1195e-05	1027.7	2.8756e-06	2.327e-06	1114.9	206.95	2.5626e-06	2.7276e-06	265.97	75.974	59.865	17.732	2.5915e-06	25.215	-43.886	23.556	40.436	-43.872	136.493	89.198	-43.954	-36.453	128.233	101.434	-36.793	-29.920	-29.817	-22.654	80.191	-23.104	-8191	255	
1456.702	1	1	0	0	0.1234	0.10435	0.077488	0.12777	0.067614	0.31787	0.19024	0.26627	0.13167	0.13267	0.080149	0.13072	0.16847	0.053204	0.13472	0.25357	-3.5417	-3.3854	-3.9792	-3.8229	-3.4854	-4.0563	-3.5958	-3.7313	-3.9479	-3.1604	-3.9542	-3.7333	-3.3312	-3.9417	-3.3521	-3.7896	86.112	-9.194	136.320	163.499	104.157	16.070	-51.975	-38.049	292.370	-11.476	248.169	70.228	-1.106	163.560	-32.771	69.383	0.00022323	0.00033323	7.6859e-05	1038.8	1.8717e-06	2.5023e-06	1127.2	207.38	2.8057e-06	2.9374e-06	267.55	75.537	59.547	17.427	2.8934e-06	24.737	0.00024314	0.00025026	6.1817e-05	1026.1	3.0144e-06	2.266e-06	1113.9	206.68	2.7388e-06	2.9083e-06	266.57	75.965	59.662	17.797	2.4519e-06	25.241	-49.345	33.513	30.756	-44.192	110.919	89.079	-43.833	-36.223	154.578	112.768	-36.954	-29.713	-29.380	-22.389	146.181	-22.862	-8191	255	
1456.798	1	1	0	0	0.16483	0.088142	0.2495	0.22754	0.20566	0.1566	0.453	0.035204	0.064541	0.11538	0.020208	0.035701	0.16567	0.05435	0.13335	0.36428	-3.6396	-3.1688	-3.9813	-3.9188	-3.4125	-3.9604	-3.6646	-3.625	-4.0875	-3.35	-4.0771	-3.8417	-3.375	-4.0229	-3.4625	-3.7271	159.506	212.192	55.162	-23.856	141.184	-3.767	226.646	269.364	263.864	106.143	13.364	239.662	174.461	73.742	108.722	39.184	0.00022129	0.00014621	9.1831e-05	1035	2.0621e-06	2.8159e-06	1127.8	206.83	3.3274e-06	2.8431e-06	268.61	75.136	59.431	17.61	2.1785e-06	24.911	0.00023709	0.00022876	6.1385e-05	1026.6	2.9633e-06	2.237e-06	1115.1	206.64	2.6149e-06	2.5678e-06	267.02	75.713	59.665	17.792	2.5618e-06	25.225	-42.345	34.377	42.733	-44.140	111.868	81.770	-43.853	-36.208	147.456	99.283	-36.771	-29.685	-29.456	-22.280	103.722	-22.664	-8191	255	
1456.895	1	1	0	0	0.11303	0.1113	0.06809	0.2411	0.32571	0.095988	0.26515	0.1241	0.14224	0.071744	0.168	0.15119	0.10009	0.17991	0.0051615	0.16114	-3.7313	-3.3729	-3.7479	-3.9104	-3.4229	-3.9271	-3.7167	-3.775	-4.1438	-3.2667	-3.9146	-3.9625	-3.1958	-4.0854	-3.6646	-3.4375	155.601	271.527	250.006	7.401	172.625	255.390	-20.613	29.788	-13.759	237.835	198.842	-7.515	208.261	-43.706	259.090	-26.311	0.00019956	0.00020092	5.7321e-05	1039.1	2.0072e-06	2.4246e-06	1126	208.13	2.4801e-06	1.88e-06	264.85	75.357	59.285	17.524	2.8507e-06	24.687	0.00023433	0.00022784	6.3025e-05	1026.6	2.6577e-06	2.4432e-06	1113.3	206.68	2.4858e-06	2.5421e-06	266.17	75.793	59.695	17.773	2.6199e-06	25.166	300.443	15.850	55.469	-43.840	97.490	106.059	-44.047	-36.420	120.267	104.018	-36.826	-29.643	-29.420	-22.171	81.151	-22.594	-8191	255	
1457.015	1	1	0	0	0.24124	0.13912	0.070568	0.11685	0.19386	0.16514	0.13919	0.18059	0.029303	0.28059	0.17666	0.1764	0.078536	0.11343	0.12088	0.26617	-3.6854	-3.2708	-3.6792	-4.0792	-3.2604	-3.8646	-3.7771	-3.5521	-4.15	-3.2646	-3.6562	-4.1583	-3.4146	-3.8312	-3.7104	-3.475	54.568	183.498	88.466	-5.502	-42.268	81.527	239.324	247.710	7.756	16.030	189.668	218.358	-29.946	141.185	76.394	219.704	0.00025713	0.0002103	8.5163e-05	1036	3.2743e-06	3.2919e-06	1125.1	207.04	3.4501e-06	2.9678e-06	267.98	75.123	59.152	17.354	2.6271e-06	24.728	0.00023842	0.00023819	6.5373e-05	1024.6	2.7117e-06	2.4377e-06	1113.1	206.52	2.4027e-06	2.7117e-06	266.17	75.697	59.474	17.775	2.5163e-06	25.189	302.622	16.169	42.602	-43.861	110.809	78.401	-43.723	-36.161	140.184	92.616	-36.886	-29.818	-29.554	-22.356	91.318	-22.578	-8191	255	
1457.111	1	1	0	0	0.24746	0.15063	0.14455	0.17861	0.30367	0.22108	0.39038	0.46612	0.070581	0.13582	0.053056	0.05301	0.23757	0.092063	0.1241	0.25031	-3.6	-3.3458	-3.5708	-4.2688	-3.3146	-3.9167	-4.0229	-3.4333	-3.9375	-3.3958	-3.3917	-4.0021	-3.3625	-3.9292	-3.9167	-3.2438	294.476	122.822	112.510	263.935	158.755	232.625	275.984	254.985	10.881	98.281	186.512	110.206	100.232	251.433	9.852	285.734	0.00024655	0.00018149	0.00012479	1038.9	4.1806e-06	2.7101e-06	1125.6	207.43	2.7885e-06	3.5294e-06	264.82	75.213	59.188	17.381	2.2988e-06	24.752	0.00023016	0.00021958	6.7548e-05	1025.5	2.8768e-06	2.518e-06	1112.8	206.49	2.4498e-06	2.5109e-06	265.53	75.847	59.502	17.702	2.4014e-06	25.165	-45.748	26.365	57.917	-43.629	120.200	104.499	-43.611	-36.214	123.473	113.528	-36.678	-29.834	-29.325	-22.526	93.099	-22.907	-8191	255	
1457.206	1	1	0	0	0.13019	0.10454	0.27074	0.15787	0.038401	0.068908	0.11531	0.15446	0.19366	0.091736	0.19472	0.2176	0.13768	0.23159	0.18401	0.28351	-3.7313	-3.4062	-3.5354	-4.0792	-3.2667	-3.7292	-3.8708	-3.2792	-3.9229	-3.5708	-3.4979	-4.1875	-3.3896	-3.6646	-4.0229	-3.3771	104.608	14.800	184.858	270.281	44.592	28.301	26.446	224.716	-5.334	-41.744	256.722	176.472	34.225	-53.300	136.629	98.416	0.00020035	0.00025243	7.7096e-05	1031.9	3.0216e-06	3.0503e-06	1118.8	206.17	3.1857e-06	2.4589e-06	266.93	75.045	59.098	17.452	3.2762e-06	24.492	0.00023359	0.00021052	6.7479e-05	1023.6	3.0678e-06	2.3948e-06	1111.1	206.2	2.5201e-06	2.6491e-06	266.2	75.666	59.505	17.745	2.4986e-06	25.078	-49.986	22.072	37.744	-43.932	101.251	103.242	-43.616	-36.187	161.517	83.369	-36.921	-29.623	-29.242	-22.298	98.785	-23.145	-8191	255	
1457.304	1	1	0	0	0.22464	0.15142	0.25885	0.20731	0.27544	0.066911	0.3035	0.2774	0.31902	0.10194	0.15921	0.056268	0.15418	0.051512	0.090675	0.11472	-3.3958	-3.6042	-3.3833	-4.0813	-3.2313	-3.6979	-4.0792	-3.2938	-3.9229	-3.7083	-3.2979	-4.1083	-3.6125	-3.6083	-4.0979	-3.45	31.123	298.843	73.815	240.123	158.933	221.397	273.409	275.491	21.096	287.912	179.138	252.822	262.651	-50.745	-20.930	114.191	0.00026006	0.00038741	9.0881e-05	1031.1	2.97e-06	2.2865e-06	1120.7	206.22	3.1993e-06	3.1326e-06	264.21	74.766	58.488	17.415	3.8146e-06	24.328	0.00023757	0.0002356	6.3992e-05	1022.5	2.9717e-06	2.619e-06	1111.4	206.32	2.4218e-06	2.4581e-06	264.97	75.588	59.228	17.747	2.4222e-06	25.125	-50.227	36.213	45.514	-43.800	121.809	97.605	-43.666	-36.534	105.617	114.154	-36.909	-29.944	-29.609	-23.095	111.470	-23.248	-8191	255	
1457.400	1	1	0	0	0.12801	0.12673	0.12235	0.14635	0.032605	0.1682	0.21831	0.16133	0.15834	0.17986	0.24722	0.066855	0.13029	0.12061	0.10624	0.17824	-3.5354	-3.6562	-3.3479	-3.95	-3.4521	-3.525	-4.175	-3.2958	-3.8271	-3.9521	-3.2958	-4.1146	-3.5083	-3.5396	-4.1417	-3.3	19.393	-35.224	202.462	-37.701	300.249	72.932	202.308	256.788	218.539	304.766	179.258	99.108	230.836	195.334	19.635	187.306	0.00020986	0.00031283	6.5276e-05	1031.1	2.7125e-06	3.4644e-06	1115.8	204.42	4.3425e-06	2.3106e-06	264.48	74.556	59.125	17.254	4.142e-06	24.496	0.0002365	0.00021459	6.7099e-05	1024.9	2.8144e-06	2.7824e-06	1110.1	205.79	2.4719e-06	2.3393e-06	264.94	75.598	59.464	17.696	2.2567e-06	25.083	296.493	14.634	27.646	-44.008	112.491	110.834	-44.008	-36.700	133.556	104.353	-37.200	-30.176	-29.419	-22.600	128.681	-23.541	-8191	255	
1457.494	1	1	0	0	0.12309	0.021479	0.16159	0.08395	0.12631	0.34098	0.073579	0.21437	0.087975	0.11484	0.19331	0.0098134	0.21843	0.16933	0.13951	0.20324	-3.3458	-3.9375	-3.2479	-4.0188	-3.6937	-3.3771	-4.2417	-3.5708	-3.6229	-3.925	-3.0979	-3.9708	-3.7313	-3.5083	-4.0083	-3.3583	65.916	132.691	141.241	276.804	127.208	138.737	102.410	5.164	59.425	265.687	166.469	273.203	197.634	287.842	-43.394	64.848	0.00024216	0.00021328	6.206e-05	1029.1	2.2088e-06	3.4069e-06	1115.8	204.64	2.7152e-06	2.3184e-06	263.04	74.759	58.292	17.336	4.6641e-06	24.344	0.00024222	0.00023554	6.8187e-05	1023.7	2.7742e-06	2.4778e-06	1109.9	205.76	2.7365e-06	2.2941e-06	265.17	75.655	59.261	17.672	2.1683e-06	25.032	297.612	36.319	22.911	-43.870	105.756	114.059	-43.948	-36.743	116.873	102.344	-37.023	-29.791	-29.578	-22.743	132.566	-23.336	-8191	255	
1457.590	1	1	0	0	0.17926	0.12651	0.40093	0.28109	0.16038	0.3255	0.025218	0.20689	0.18099	0.041655	0.21082	0.096367	0.2414	0.11234	0.051745	0.21593	-3.2271	-3.975	-3.1958	-3.9917	-3.6375	-3.3333	-4.1792	-3.6375	-3.3792	-4.0104	-3.4271	-3.925	-3.9083	-3.4375	-4.0333	-3.5979	168.745	-12.311	69.193	278.987	122.602	73.105	-1.882	285.155	86.209	47.155	13.472	-53.623	-27.109	73.908	279.589	221.302	0.00019918	0.0003042	7.5619e-05	1026.1	3.521e-06	2.531e-06	1118.6	205.81	2.3292e-06	3.4792e-06	264.51	74.802	59.141	17.265	4.6218e-06	24.65	0.00023322	0.00021601	6.6409e-05	1020.8	2.7676e-06	2.5048e-06	1109.5	205.59	2.7132e-06	2.3837e-06	264.67	75.585	59.375	17.685	2.4904e-06	25.158	-44.441	27.542	38.348	-43.882	127.454	63.227	-43.905	-36.417	130.226	112.679	-37.135	-29.826	-29.680	-22.305	72.796	-23.324	-8191	255	
1457.711	1	1	0	0	0.33633	0.28474	0.026716	0.26703	0.02703	0.23694	0.13774	0.12773	0.14557	0.099129	0.11965	0.15343	0.25485	0.095864	0.14376	0.11643	-3.0604	-4.1208	-3.2979	-3.7021	-3.6479	-3.2583	-4.1188	-3.6688	-3.3646	-4.0021	-3.2687	-3.7625	-3.9292	-3.2708	-3.9208	-3.625	-14.685	94.844	138.760	-16.180	220.669	21.469	7.207	-6.207	241.921	183.757	235.764	-52.571	259.380	-32.205	225.629	82.509	0.00023779	0.00020693	7.4608e-05	1026.7	2.0528e-06	2.7734e-06	1114.1	205.13	1.9443e-06	2.3059e-06	265.9	74.129	58.708	17.276	1.7658e-06	24.605	0.00024303	0.0001937	6.5856e-05	1021.7	2.6283e-06	2.5381e-06	1109.6	205.78	2.5318e-06	2.4866e-06	265.57	75.501	59.477	17.72	2.2466e-06	25.081	304.678	20.888	30.198	-43.705	151.496	87.858	-43.952	-36.763	93.654	86.213	-37.036	-29.702	-29.857	-22.521	96.700	-22.900	-8191	255	
1457.807	1	1	0	0	0.051032	0.062402	0.071477	0.15441	0.081385	0.30164	0.17789	0.19366	0.13737	0.064491	0.25233	0.24059	0.078636	0.13442	0.17508	0.039695	-2.8604	-4.1354	-3.3979	-3.7438	-3.9	-3.2458	-4.0333	-3.7896	-3.175	-4.0563	-3.4875	-3.6979	-4.0125	-3.3396	-3.9833	-3.8396	297.515	11.440	134.433	199.472	1.201	1.408	276.901	292.361	221.604	63.157	288.111	160.971	294.422	238.082	286.011	71.478	0.00021806	0.00030127	6.2708e-05	1030.1	4.1504e-06	1.7993e-06	1113.8	205.42	3.5257e-06	1.5177e-06	264.6	75.087	58.427	17.386	2.3722e-06	24.59	0.0002455	0.00020985	6.3301e-05	1020.5	2.7826e-06	2.664e-06	1108.2	205.68	2.6632e-06	2.3497e-06	264.72	75.682	59.283	17.698	2.4001e-06	25.107	299.707	63.496	48.314	-43.930	106.955	51.334	-43.907	-36.105	123.573	82.342	-36.908	-29.964	-29.333	-22.565	127.099	-22.980	-8191	255	
1457.903	1	1	0	0	0.14319	0.059926	0.17005	0.33254	0.17022	0.073556	0.098534	0.44992	0.26149	0.25396	0.23113	0.13259	0.09464	0.14994	0.10945	0.1218	-3.075	-4.1167	-3.4562	-3.8479	-4.0229	-3.2812	-3.8667	-3.9208	-3.1729	-4.1229	-3.5292	-3.5417	-4.0896	-3.3833	-3.8625	-3.9208	132.955	-8.869	156.559	299.989	286.574	148.942	215.198	289.159	186.969	120.772	165.289	25.045	82.048	264.254	38.940	251.726	0.00022411	0.00033885	9.7632e-05	1027.8	2.6636e-06	2.6676e-06	1117.9	205.72	4.1766e-06	3.5529e-06	263.72	74.736	58.935	17.257	2.7402e-06	24.556	0.00025561	0.00022679	6.9464e-05	1022.4	2.6745e-06	2.5429e-06	1109.2	205.57	2.9267e-06	2.2093e-06	264.13	75.54	59.522	17.668	2.6205e-06	25.084	-45.907	41.866	44.000	-43.737	83.714	90.676	-43.583	-36.456	122.931	111.418	-36.923	-29.910	-29.399	-22.475	104.191	-23.013	-8191	255	
1457.999	1	1	0	0	0.17145	0.19635	0.19826	0.20867	0.19335	0.2486	0.15938	0.21899	0.20717	0.058546	0.043505	0.21989	0.088384	0.18437	0.099786	0.063892	-2.8146	-4.0667	-3.7208	-3.5896	-4.0292	-3.4771	-3.7854	-3.9562	-3.1833	-3.8979	-3.8187	-3.4625	-4.0229	-3.3417	-3.6083	-4.0104	290.577	210.952	-16.013	245.523	-22.725	200.813	286.905	189.844	277.482	238.774	12.257	-41.676	-31.383	230.861	15.631	31.627	0.0002597	0.00021128	5.3667e-05	1029.7	3.5699e-06	3.412e-06	1119.5	205.65	2.5266e-06	1.6993e-06	264.19	74.047	58.712	17.299	2.9181e-06	24.444	0.00025458	0.00020264	6.2818e-05	1021.2	2.6258e-06	2.6197e-06	1109.5	205.39	2.9232e-06	2.2726e-06	264.59	75.229	59.4	17.691	2.5435e-06	25.023	303.275	68.774	28.900	-43.658	108.059	93.790	-43.425	-36.197	127.700	98.325	-36.575	-29.487	-29.361	-22.132	107.268	-23.052	-8191	255	
1458.096	1	1	0	0	0.12247	0.041541	0.23761	0.21597	0.085924	0.097674	0.34536	0.11258	0.026202	0.29267	0.31112	0.12085	0.21255	0.31554	0.050214	0.054543	-2.8937	-3.8854	-3.8625	-3.3604	-4.0188	-3.3771	-3.7833	-3.9854	-3.0604	-3.925	-3.8458	-3.3083	-4.175	-3.6125	-3.4646	-4.3208	220.559	152.785	75.085	234.720	170.994	12.318	221.448	-37.750	289.924	204.061	210.679	177.376	249.981	272.794	183.566	157.076	0.00018595	0.00025447	4.6107e-05	1027.9	2.4586e-06	2.5116e-06	1115.5	204.97	4.0792e-06	2.5558e-06	266.51	74.862	59.118	17.285	2.7597e-06	24.62	0.00023322	0.0002112	6.3854e-05	1021.3	2.7303e-06	2.5332e-06	1108.1	205.36	2.8255e-06	2.5616e-06	264.94	75.453	59.469	17.659	2.4595e-06	25.094	-43.108	38.072	43.606	-43.842	157.374	105.169	-43.647	-36.220	109.267	124.144	-36.822	-29.890	-29.495	-22.334	131.275	-23.036	-8191	255	
1458.192	1	1	0	0	0.074306	0.19599	0.062151	0.12361	0.12018	0.20308	0.28283	0.13149	0.030352	0.035392	0.049963	0.25461	0.16045	0.2526	0.043279	0.35456	-2.8979	-3.6833	-3.7042	-3.4104	-4.175	-3.6354	-3.4938	-4.2917	-3.4917	-3.7875	-3.9167	-3.2833	-3.9083	-3.6188	-3.5125	-4.075	36.553	199.343	117.794	10.240	-52.156	73.844	235.713	-11.019	-47.408	225.969	57.552	184.871	192.614	133.612	260.320	137.017	0.00020972	0.00036003	9.3838e-05	1029.3	2.6286e-06	1.1506e-06	1113.5	204.86	2.4779e-06	2.8198e-06	263.99	74.607	58.751	17.412	3.9447e-06	24.45	0.00024052	0.00023849	6.2266e-05	1020.2	2.6541e-06	2.5097e-06	1108.1	205.28	2.7202e-06	2.4893e-06	264.47	75.33	59.307	17.677	2.6578e-06	25.029	-49.493	26.481	42.991	-43.830	99.384	65.357	-43.509	-36.122	153.791	97.978	-36.841	-29.378	-28.898	-22.277	129.522	-22.955	-8191	255	
1458.311	1	1	0	0	0.098177	0.21564	0.15121	0.16456	0.12838	0.17252	0.10512	0.19407	0.034979	0.23149	0.15494	0.22022	0.16093	0.2189	0.15791	0.17493	-3.0833	-3.6271	-3.9417	-3.3479	-3.9458	-3.6896	-3.5146	-4.2854	-3.3604	-3.4437	-4.0792	-3.3812	-3.9458	-3.6437	-3.3125	-4.2604	188.868	-34.832	170.676	236.513	268.091	170.217	233.723	289.910	268.261	-1.242	-44.291	161.860	44.035	184.131	21.165	204.807	0.00027152	0.00028215	4.3837e-05	1023.9	1.992e-06	3.3129e-06	1113.6	205.11	4.6777e-06	2.3319e-06	264.19	74.912	58.56	17.416	2.6026e-06	24.894	0.000242	0.00024373	6.1144e-05	1019.6	2.6325e-06	2.2757e-06	1108.2	205.33	2.8133e-06	2.5942e-06	264.94	75.496	59.171	17.687	2.51e-06	25.14	-43.974	18.697	48.150	-43.666	123.402	104.719	-43.504	-36.450	138.705	110.518	-36.903	-29.795	-29.277	-22.239	124.585	-22.631	-8191	255	
1458.407	1	1	0	0	0.17516	0.086068	0.021854	0.18793	0.14688	0.26214	0.27429	0.20888	0.15812	0.20809	0.13984	0.086311	0.10462	0.013474	0.26236	0.14737	-2.95	-3.5604	-3.9729	-3.3896	-3.9167	-3.7479	-3.5292	-4.0354	-3.3896	-3.4771	-3.9958	-3.4188	-3.7104	-4.0458	-3.2875	-4.1562	240.244	180.336	114.397	-41.106	88.915	205.275	-47.858	200.303	290.114	137.086	31.589	-19.602	286.636	243.617	-3.493	7.807	0.00028652	0.00025577	8.8385e-05	1027.1	3.4741e-06	3.7237e-06	1115.2	206.22	3.6402e-06	3.3851e-06	264.6	74.823	58.704	17.365	2.2538e-06	24.409	0.00024263	0.00023695	5.7536e-05	1019.5	2.6018e-06	2.4522e-06	1107.3	205.8	2.5626e-06	2.5157e-06	264.5	75.472	59.219	17.668	2.6793e-06	25.035	-50.150	34.325	36.479	-43.876	114.584	108.335	-43.750	-36.018	140.322	75.091	-36.810	-29.548	-29.219	-22.881	105.850	-22.462	-8191	255	
1458.503	1	1	0	0	0.12623	0.19836	0.088149	0.108	0.30509	0.18673	0.22194	0.24446	0.33095	0.11741	0.17047	0.11813	0.091988	0.12984	0.18429	0.17066	-3.2042	-3.5938	-4.1333	-3.4062	-3.7604	-3.9271	-3.2875	-4.2021	-3.4896	-3.2938	-4.025	-3.45	-3.6792	-3.9125	-3.1896	-3.8333	66.082	104.087	94.557	187.380	41.653	-17.965	202.833	283.238	149.573	41.610	221.743	7.007	213.979	209.448	265.948	4.009	0.00024385	0.00041505	9.8617e-05	1025.9	9.0326e-07	2.7719e-06	1111.7	204.26	2.0389e-06	2.898e-06	264.54	74.112	58.01	17.188	3.1407e-06	24.508	0.00024513	0.00024065	5.6172e-05	1017.8	2.6649e-06	2.3249e-06	1105	205.19	2.683e-06	2.5053e-06	264.59	75.253	59.18	17.603	2.5473e-06	25.05	302.656	18.433	45.862	-43.693	92.283	114.232	-43.580	-36.011	111.059	113.343	-37.281	-29.565	-29.159	-22.375	95.790	-22.556	-8191	255	
1458.575	1	1	0	0	0.14836	0.050437	0.1991	0.14805	0.090056	0.18309	0.33226	0.25535	0.12826	0.038013	0.084007	0.59912	0.17151	0.11735	0.16429	0.23593	-3.1667	-3.2083	-4.0146	-3.4458	-3.725	-3.8688	-3.3833	-4.0521	-3.825	-3.1667	-4.0854	-3.3833	-3.5042	-4.0979	-3.4167	-3.9333	21.869	198.472	234.282	304.343	171.242	110.018	240.183	230.648	76.690	138.495	243.264	292.667	5.830	272.025	135.265	201.669	0.00026141	0.0002399	6.605e-05	1025.2	3.1859e-06	3.8265e-06	1113.7	205.08	1.4577e-06	2.3765e-06	265.02	74.32	58.349	17.286	4.188e-06	24.672	0.00024248	0.00023954	5.8071e-05	1018.1	2.77e-06	2.3007e-06	1103.8	205.27	2.505e-06	2.6144e-06	264.99	75.191	59.088	17.639	2.5915e-06	25.119	292.935	14.372	37.603	-43.635	143.052	82.798	-43.528	-36.147	105.417	105.543	-36.478	-29.746	-28.910	-22.428	87.556	-22.811	-8191	255	
1458.671	1	1	0	0	0.25045	0.049821	0.15723	0.070456	0.091071	0.10526	0.34336	0.15721	0.17172	0.04987	0.23172	0.20281	0.23957	0.16043	0.11988	0.062274	-3.3854	-3.1937	-3.9083	-3.6229	-3.5062	-3.9583	-3.3146	-3.9021	-3.8583	-3.2917	-3.9271	-3.5792	-3.5	-4.0625	-3.3417	-3.85	160.671	284.658	43.730	73.992	246.260	154.083	185.066	-16.858	7.262	269.483	186.201	13.212	211.669	238.586	-38.529	242.602	0.00030342	0.00028407	5.5136e-05	1027.9	3.6982e-06	1.666e-06	1116.8	204.82	3.0379e-06	2.3503e-06	263.43	74.381	58.445	17.377	3.8345e-06	24.382	0.00023905	0.00023825	5.8623e-05	1018.5	2.7802e-06	2.1788e-06	1105	205.12	2.4422e-06	2.5699e-06	263.86	75.216	59.122	17.636	2.5005e-06	24.999	293.702	35.655	51.919	-43.653	124.106	101.782	-43.718	-35.836	133.571	125.714	-36.437	-29.875	-28.723	-22.010	118.022	-22.835	-8191	255	
1458.791	1	1	0	0	0.2422	0.099823	0.14412	0.19254	0.035809	0.27681	0.24864	0.15864	0.065709	0.064951	0.22959	0.18499	0.19998	0.052095	0.11286	0.13597	-3.5292	-3.1021	-3.8229	-3.7062	-3.2042	-3.9083	-3.4313	-3.6729	-3.8667	-3.2313	-3.8063	-3.8	-3.2667	-4.1562	-3.4479	-3.4396	91.619	-48.783	201.032	304.181	-13.612	232.583	-51.610	-52.219	201.685	98.340	236.279	263.594	204.801	291.259	303.160	-39.043	0.00020573	0.00030249	5.5335e-05	1024.9	2.4194e-06	3.1055e-06	1117.6	203.97	3.4281e-06	2.7582e-06	264.19	74.062	58.391	17.15	3.0151e-06	24.545	0.00022466	0.00022285	6.2628e-05	1016.9	2.8324e-06	2.3394e-06	1105	204.55	2.4469e-06	2.6102e-06	264.35	75.28	59.11	17.605	2.5409e-06	25.019	-37.262	34.580	39.184	-43.570	106.873	93.388	-43.250	-35.957	140.667	120.913	-36.449	-29.623	-29.305	-21.886	82.095	-22.370	-8191	255	
1458.888	1	1	0	0	0.28965	0.15569	0.065617	0.25678	0.22778	0.18674	0.19913	0.31851	0.32952	0.04466	0.14168	0.30284	0.19921	0.035414	0.20241	0.13747	-3.4979	-3.3292	-3.875	-3.8063	-3.2375	-3.8625	-3.5229	-3.3667	-3.8479	-3.2396	-3.8042	-3.6917	-3.3042	-4.0708	-3.4583	-3.3583	148.757	282.699	75.296	221.384	-29.998	73.237	-42.164	248.373	-11.075	205.047	228.823	84.349	253.114	226.361	249.579	265.099	0.00018636	0.00023364	7.2932e-05	1026.1	1.9052e-06	3.0495e-06	1118.1	204.92	2.0505e-06	1.3047e-06	263.05	74.454	58.769	17.275	3.5692e-06	24.596	0.00023366	0.00023819	6.6443e-05	1017.8	2.803e-06	2.2093e-06	1105.2	205.09	2.4108e-06	2.5859e-06	264.14	75.259	59.149	17.658	2.6104e-06	25.043	296.729	41.591	36.624	-43.687	85.531	100.740	-43.309	-35.848	159.307	89.809	-36.864	-29.397	-29.044	-21.820	97.991	-22.657	-8191	255	
1458.984	1	1	0	0	0.14568	0.03412	0.149	0.13192	0.13324	0.060148	0.16045	0.24613	0.046719	0.22324	0.15304	0.13216	0.11834	0.25769	0.072773	0.34018	-3.5292	-3.3	-3.7083	-3.9208	-3.3479	-3.9313	-3.5146	-3.4146	-4.0021	-3.3021	-3.8083	-3.9688	-3.2271	-4.0875	-3.5375	-3.2167	-3.503	179.697	9.477	210.536	56.310	240.192	266.667	275.782	-11.476	-35.597	-36.474	163.552	252.628	246.178	166.542	243.059	0.00020423	0.00024122	5.0911e-05	1028.1	3.0509e-06	2.7347e-06	1112.4	203.78	1.6828e-06	2.6485e-06	262.27	74.546	58.96	17.275	2.3687e-06	24.632	0.00023329	0.00022315	6.104e-05	1017.3	2.7141e-06	2.3124e-06	1103.9	204.89	2.4149e-06	2.547e-06	263.7	75.352	59.336	17.636	2.4026e-06	25.072	-37.348	29.393	51.787	-43.776	85.662	108.591	-43.629	-35.981	118.772	96.386	-36.637	-29.474	-29.063	-22.248	103.101	-22.474	-8191	255	
1459.104	1	1	0	0	0.2066	0.20955	0.063362	0.24671	0.076524	0.15298	0.11781	0.078343	0.10804	0.11454	0.099688	0.25338	0.082385	0.11143	0.27349	0.29297	-3.5938	-3.4042	-3.4188	-4.0271	-3.2812	-3.8167	-3.7938	-3.2875	-3.8417	-3.2208	-3.5938	-3.9479	-3.2104	-3.9042	-3.7313	-3.3354	213.101	-42.404	114.923	142.627	161.077	60.675	226.150	281.320	266.196	163.751	219.016	244.102	188.385	286.864	7.281	238.013	0.00025047	0.00016808	0.00010595	1027.3	2.6856e-06	3.6786e-06	1112.5	203.94	2.8925e-06	2.5068e-06	263.73	74.241	58.694	17.199	2.3553e-06	24.567	0.00023529	0.00023326	6.7013e-05	1020	2.776e-06	2.3733e-06	1102.9	204.35	2.4823e-06	2.6276e-06	263.91	75.302	59.172	17.611	2.3837e-06	24.995	-51.528	57.083	42.800	-43.603	113.183	94.813	-43.544	-36.180	125.288	106.836	-36.764	-29.385	-29.087	-22.250	81.641	-22.616	-8191	255	
1459.176	1	1	0	0	0.13896	0.13451	0.17526	0.17027	0.048364	0.080744	0.26853	0.041578	0.19592	0.10478	0.27233	0.12366	0.18461	0.070926	0.11045	0.061255	-3.5312	-3.6333	-3.4229	-4.0062	-3.2667	-3.6875	-3.9396	-3.1937	-4.0958	-3.3729	-3.4333	-3.9396	-3.3312	-3.7417	-3.7708	-3.2604	128.862	228.208	205.030	271.042	40.503	-47.427	236.089	206.362	147.791	54.736	-34.335	231.119	204.442	229.870	205.829	225.563	0.00019016	0.00033194	6.8529e-05	1026.7	2.6728e-06	2.155e-06	1108.9	205.76	2.5647e-06	3.0626e-06	261.84	74.552	58.764	17.137	2.9414e-06	24.355	0.00022002	0.00022352	6.5356e-05	1019.5	2.815e-06	2.2875e-06	1102.6	204.92	2.323e-06	2.4379e-06	263.36	75.347	59.206	17.615	2.3395e-06	24.904	-50.580	24.665	33.590	-43.536	89.685	124.783	-43.437	-35.784	132.820	98.542	-36.886	-29.448	-29.381	-22.454	98.811	-22.991	-8191	255	
1459.272	1	1	0	0	0.09117	0.14859	0.098903	0.14786	0.12549	0.11904	0.10348	0.29858	0.38892	0.21964	0.2022	0.22434	0.25349	0.03422	0.22004	0.1703	-3.5667	-3.5146	-3.2729	-4.0542	-3.1792	-3.6396	-3.9354	-3.1813	-3.8	-3.6562	-3.4021	-3.9583	-3.2542	-3.5896	-3.9958	-3.1937	114.586	59.868	241.159	272.797	-5.929	102.245	178.026	39.396	135.585	269.867	249.789	218.247	145.505	252.274	224.266	292.332	0.00025051	0.00027726	0.0001059	1025.1	2.2057e-06	2.6838e-06	1111.5	205.2	3.4606e-06	4.3225e-06	264.4	74.251	58.216	17.341	1.959e-06	24.65	0.00022131	0.00023658	6.6978e-05	1018.7	2.9771e-06	2.5353e-06	1103.2	204.8	2.3654e-06	2.6005e-06	263.46	75.203	59.037	17.616	2.2738e-06	25.049	296.134	14.637	31.731	-43.794	97.351	99.691	-43.439	-35.917	109.259	92.875	-36.474	-29.502	-29.260	-22.050	96.733	-22.873	-8191	255	
1459.391	1	1	0	0	0.11701	0.11959	0.13925	0.25584	0.14478	0.28115	0.29867	0.16012	0.10242	0.10189	0.16457	0.091864	0.082209	0.26306	0.074818	0.1473	-3.4542	-3.4667	-3.2938	-4.0188	-3.2229	-3.3937	-4.1208	-3.2979	-3.6813	-3.6792	-3.1979	-4.0938	-3.45	-3.3604	-3.9333	-3.225	16.620	-23.553	-27.788	235.727	236.188	-10.166	173.391	232.560	204.217	-47.348	214.537	282.487	90.171	274.151	213.263	-0.018	0.00025939	0.00017689	8.3337e-05	1029.9	1.6004e-06	2.6097e-06	1111.9	204.79	4.1965e-06	2.7236e-06	262.58	74.097	58.906	17.297	1.7453e-06	24.44	0.0002375	0.00019943	6.6806e-05	1018.8	2.7039e-06	2.3131e-06	1103.4	204.97	2.6051e-06	2.1996e-06	263.55	75.213	59.214	17.652	2.1816e-06	25.001	-43.479	15.616	45.031	-43.373	122.855	109.964	-43.324	-35.921	124.013	83.372	-36.363	-28.994	-29.389	-22.223	85.423	-22.998	-8191	255	
1459.487	1	1	0	0	0.076551	0.042051	0.40536	0.19892	0.065365	0.12799	0.20102	0.26227	0.20963	0.20425	0.22448	0.32747	0.14838	0.10428	0.16523	0.12511	-3.1708	-3.5938	-3.2271	-4.1125	-3.4729	-3.5062	-4.0583	-3.3667	-3.7	-3.9625	-3.3333	-3.9437	-3.5354	-3.3604	-3.9458	-3.2208	-48.258	114.337	99.527	279.869	59.503	84.035	250.685	227.283	-49.007	-12.365	-21.298	290.101	196.268	210.960	16.913	175.960	0.00022675	0.00023091	7.5611e-05	1027.4	2.7535e-06	3.463e-06	1111.9	204.75	3.1512e-06	2.614e-06	264.04	74.093	58.51	17.24	3.7258e-06	24.665	0.00022429	0.00020652	6.3405e-05	1015.8	2.758e-06	2.7498e-06	1103	204.91	2.3823e-06	2.2802e-06	263.76	75.174	59.079	17.605	2.3155e-06	25.008	-43.815	56.590	59.773	-43.376	86.932	97.803	-43.545	-36.313	142.267	117.098	-36.461	-29.303	-29.312	-21.998	119.614	-23.021	-8191	255	
1459.583	1	1	0	0	0.22495	0.14751	0.19749	0.14085	0.18506	0.074889	0.07238	0.18419	0.21355	0.15739	0.24002	0.30818	0.28154	0.18637	0.22662	0.15489	-3.0875	-3.8604	-3.4604	-3.9437	-3.3625	-3.2896	-4.1438	-3.4375	-3.3917	-3.8229	-3.2458	-3.9458	-3.7292	-3.3021	-4.0104	-3.4229	240.743	23.015	25.983	286.052	58.438	233.020	222.590	252.836	274.511	188.637	252.110	236.604	254.504	-6.969	25.526	22.547	0.00026717	0.00030845	6.6144e-05	1027.3	2.0422e-06	2.3731e-06	1110.5	204.38	3.0018e-06	2.899e-06	262.78	74.099	58.379	17.278	3.0791e-06	24.645	0.00024185	0.00019765	6.1385e-05	1018.5	2.6463e-06	2.4412e-06	1103.7	204.52	2.651e-06	2.3052e-06	263.32	75.251	58.976	17.625	2.4178e-06	24.922	-37.082	23.008	37.859	-43.754	134.360	88.020	-44.077	-36.377	120.481	82.773	-37.256	-29.950	-29.592	-22.676	101.871	-23.159	-8191	255	
1459.704	1	1	0	0	0.19613	0.30144	0.08886	0.36159	0.081635	0.17623	0.25792	0.11217	0.061205	0.098205	0.12755	0.26386	0.22305	0.13335	0.10481	0.11139	-3.0229	-4.0062	-3.2708	-3.8187	-3.5708	-3.2417	-4.1438	-3.4104	-3.5187	-4.0146	-3.3	-3.8646	-3.6208	-3.2667	-3.8771	-3.3979	131.619	261.536	74.103	-38.409	228.313	56.456	161.050	281.150	81.421	205.008	-29.630	299.597	248.426	-15.385	70.570	173.524	0.00019839	0.00032569	7.9669e-05	1027.4	3.5502e-06	2.6952e-06	1110.1	204.76	2.2303e-06	1.9838e-06	261.72	74.572	58.583	17.328	2.8588e-06	24.676	0.00022245	0.00020806	6.3111e-05	1018.1	2.6439e-06	2.4245e-06	1103.6	204.53	2.5934e-06	2.2448e-06	263.28	75.18	59.064	17.601	2.3369e-06	25.045	-42.205	44.384	43.652	-43.796	111.817	102.426	-43.719	-36.521	155.087	110.761	-36.678	-29.882	-29.579	-22.129	99.443	-23.350	-8191	255	
1459.800	1	1	0	0	0.036328	0.014698	0.057165	0.2467	0.12718	0.055155	0.17751	0.41544	0.16586	0.20402	0.20384	0.026957	0.15613	0.10331	0.096777	0.11811	-2.8708	-3.9458	-3.3021	-3.8354	-3.9854	-3.2167	-3.9813	-3.5104	-3.4542	-4.0771	-3.3688	-3.575	-3.8896	-3.1667	-3.85	-3.7625	49.426	287.186	45.735	274.829	184.917	32.223	222.980	-47.190	151.531	-4.008	294.527	102.611	23.249	24.088	272.430	297.815	0.00022894	0.00029026	7.3463e-05	1027	2.8496e-06	2.5974e-06	1111.6	204.55	2.1694e-06	3.1412e-06	262.33	74.423	58.168	17.242	1.9808e-06	24.547	0.00023518	0.00023332	6.3129e-05	1017.2	2.504e-06	2.5263e-06	1103.4	204.13	2.5864e-06	2.4338e-06	263.36	75.181	58.897	17.623	2.4519e-06	24.944	-33.747	32.464	33.937	-43.601	95.472	107.024	-43.470	-36.424	176.742	106.445	-36.741	-29.567	-29.502	-22.593	95.176	-22.821	-8191	255	
1459.872	1	1	0	0	0.14323	0.26213	0.032798	0.12626	0.30085	0.13106	0.24928	0.1477	0.081996	0.077261	0.068557	0.029242	0.32008	0.05963	0.25383	0.34696	-2.8708	-3.9396	-3.3646	-3.5583	-3.9583	-3.2062	-3.9458	-3.7062	-3.3208	-3.9125	-3.5062	-3.4354	-4.0083	-3.2521	-3.7958	-3.8187	238.149	32.740	166.018	279.769	231.473	140.479	185.120	213.954	261.541	189.342	99.768	-36.023	251.531	139.274	-52.476	-43.693	0.00027537	0.00036286	7.3413e-05	1030	1.8157e-06	4.3791e-06	1115.8	204.04	3.045e-06	2.3975e-06	262.25	74.317	58.275	17.199	2.9223e-06	24.361	0.00023245	0.00019956	6.7013e-05	1016.7	2.552e-06	2.6848e-06	1103.8	204.06	2.5963e-06	2.1378e-06	263.18	75.107	59.011	17.596	2.462e-06	24.953	-49.565	28.920	49.658	-43.347	117.821	112.107	-43.874	-36.047	117.654	116.071	-36.949	-30.358	-29.750	-22.492	104.533	-22.879	-8191	255	
1459.968	1	1	0	0	0.22535	0.14769	0.13809	0.046886	0.09706	0.15801	0.14219	0.11403	0.030131	0.2578	0.1603	0.17125	0.29649	0.31455	0.16225	0.21322	-2.9354	-3.9542	-3.5104	-3.4667	-3.9313	-3.3187	-3.9979	-3.7583	-3.1333	-4.0479	-3.5042	-3.4979	-3.9958	-3.4375	-3.8458	-3.9958	4.748	30.175	217.831	239.632	92.737	-47.343	300.892	247.684	175.655	131.345	229.508	281.734	210.801	249.945	216.622	265.129	0.00021452	0.00028459	6.135e-05	1026.9	3.3162e-06	2.5849e-06	1113.1	203.57	2.9652e-06	2.7822e-06	264.03	74.218	58.458	17.262	1.9171e-06	24.49	0.0002455	0.00018009	5.9331e-05	1017.4	2.5388e-06	2.4384e-06	1101.4	203.53	2.355e-06	2.2552e-06	263.01	75.086	58.906	17.566	2.3155e-06	24.933	-42.714	39.253	48.470	-43.835	114.712	112.097	-43.639	-36.532	130.054	107.480	-36.834	-29.580	-29.264	-22.459	88.327	-23.134	-8191	255	
1460.089	1	1	0	0	0.034816	0.062379	0.098972	0.4414	0.21582	0.16525	0.175	0.08591	0.18606	0.22237	0.14105	0.14366	0.19053	0.22054	0.098398	0.1339	-2.8292	-3.7604	-3.6208	-3.4708	-3.9354	-3.2708	-3.7625	-3.9437	-3.1917	-3.7875	-3.6292	-3.2667	-4.0271	-3.3	-3.4375	-3.9271	272.054	-39.109	242.313	260.651	207.556	44.324	291.838	77.136	283.768	119.586	120.062	99.725	270.253	-41.602	-22.637	166.499	0.00025983	0.0002354	7.3066e-05	1021	1.8528e-06	1.9383e-06	1105.6	203.82	1.8288e-06	2.9522e-06	264.12	74.648	58.474	17.151	2.6998e-06	24.477	0.00023838	0.00020769	5.9296e-05	1013.2	2.4991e-06	2.5291e-06	1098.8	203.86	2.5393e-06	2.201e-06	263.36	74.956	58.93	17.549	2.3275e-06	24.945	-44.266	24.320	28.421	-43.848	106.684	109.687	-44.049	-36.628	147.521	139.399	-36.831	-29.515	-29.683	-22.548	108.696	-23.338	-8191	255	
1460.183	1	1	0	0	0.23143	0.11547	0.1093	0.088192	0.12482	0.099187	0.12175	0.25001	0.051121	0.086137	0.15914	0.055974	0.04207	0.072523	0.062554	0.031091	-2.75	-3.8563	-3.7396	-3.3021	-4.1562	-3.5479	-3.4646	-3.9792	-3.2604	-3.825	-3.8521	-3.4062	-3.9083	-3.5458	-3.4188	-4.1042	218.945	225.720	179.536	195.380	174.471	100.326	261.644	267.197	179.002	163.304	281.297	64.654	49.010	302.501	54.295	-21.984	0.000191	0.00037256	8.1488e-05	1024.4	3.7823e-06	1.7517e-06	1112.6	203.53	1.0083e-06	3.2058e-06	260.24	74.193	58.37	17.144	1.7094e-06	24.124	0.0002524	0.00020301	6.0073e-05	1013.7	2.4823e-06	2.4668e-06	1100.4	204.02	2.6225e-06	2.5039e-06	261.91	74.89	58.957	17.522	2.3312e-06	24.838	-50.344	56.516	54.067	-43.825	94.173	96.408	-43.522	-36.228	152.124	82.558	-36.847	-29.387	-29.123	-22.691	88.430	-22.836	-8191	255	
1460.279	1	1	0	0	0.27691	0.099379	0.17903	0.19057	0.16636	0.095936	0.37389	0.050116	0.063283	0.13093	0.068406	0.23823	0.13041	0.10358	0.2574	0.23709	-2.8708	-3.6354	-3.8292	-3.3063	-3.8854	-3.5021	-3.2625	-4.0125	-3.2188	-3.5708	-3.9125	-3.3	-3.85	-3.6667	-3.1167	-4.0208	215.623	214.190	267.265	261.474	9.816	221.615	230.304	139.924	47.893	-14.290	150.287	87.098	281.050	-26.062	102.220	132.828	0.00032186	0.00029223	6.4524e-05	1021.8	3.7544e-06	3.1148e-06	1104.7	202.71	3.09e-06	2.9772e-06	263.75	74.093	58.325	17.13	3.8628e-06	24.253	0.00024451	0.00021705	5.3375e-05	1012.4	2.5214e-06	2.2044e-06	1095.9	203.53	2.5201e-06	2.4483e-06	263.09	74.933	58.85	17.544	2.3818e-06	24.766	302.468	24.884	30.642	-43.886	114.011	83.481	-43.873	-36.059	109.605	108.577	-36.691	-30.259	-29.210	-22.661	115.167	-23.200	-8191	255	
1460.375	1	1	0	0	0.077696	0.067233	0.20686	0.25408	0.27058	0.089179	0.07499	0.14307	0.057164	0.30484	0.083915	0.15958	0.17464	0.20121	0.062316	0.088933	-2.9667	-3.5396	-3.9208	-3.3271	-3.6042	-3.8312	-3.4437	-3.9958	-3.275	-3.5396	-4.0271	-3.2771	-3.8604	-3.8729	-3.3646	-3.9729	76.970	192.863	-5.359	-53.298	286.807	-17.402	127.063	289.799	237.055	271.745	158.135	-40.734	-23.602	247.366	248.442	139.341	0.00023484	0.00037706	9.3926e-05	1021.9	2.5178e-06	3.999e-06	1107.1	203.93	1.2971e-06	3.1713e-06	261.64	74.127	57.93	17.168	3.5847e-06	24.324	0.00023263	0.00022248	5.6017e-05	1010.6	2.6066e-06	2.2038e-06	1098.3	203.73	2.5771e-06	2.4101e-06	261.9	74.896	58.719	17.557	2.4658e-06	24.809	304.785	31.794	41.903	-43.626	110.756	100.224	-43.675	-36.208	113.871	93.447	-37.092	-29.701	-29.150	-22.292	99.417	-23.529	-8191	255	
1460.471	1	1	0	0	0.18562	0.24213	0.15557	0.31794	0.089812	0.073816	0.2511	0.064596	0.16467	0.2569	0.1256	0.011515	0.13959	0.04451	0.088184	0.26061	-3.0812	-3.3729	-4.0271	-3.3604	-3.7438	-3.8354	-3.4021	-4.0542	-3.5625	-3.3292	-4.1292	-3.3104	-3.7938	-3.7354	-3.2104	-3.9938	45.108	-37.939	240.438	-18.363	84.244	-42.193	285.664	221.624	136.565	211.354	304.133	197.678	228.032	293.911	-5.517	-13.383	0.000241	0.00025933	7.3042e-05	1020.4	2.6496e-06	1.7388e-06	1107.4	203.94	3.6133e-06	3.7549e-06	259.67	73.884	58.39	17.234	3.4953e-06	24.308	0.00023473	0.00020627	5.4756e-05	1010.5	2.5028e-06	2.246e-06	1097.3	203.87	2.4248e-06	2.4525e-06	261.37	74.711	58.834	17.587	2.4007e-06	24.835	-43.168	32.878	24.569	-44.267	136.049	100.563	-44.100	-36.866	148.083	98.009	-37.205	-29.950	-29.884	-22.707	95.409	-23.330	-8191	255	
1460.568	1	1	0	0	0.2022	0.099561	0.205	0.14798	0.13184	0.2629	0.17172	0.1307	0.095573	0.25492	0.029963	0.1165	0.12201	0.11255	0.0076506	0.055611	-3.2375	-3.2833	-3.9188	-3.4375	-3.8417	-3.8021	-3.4146	-3.8146	-3.7083	-3.3812	-4.0021	-3.5438	-3.6708	-3.9542	-3.1958	-3.9021	284.059	203.684	92.977	-10.089	-10.770	266.336	254.805	248.179	34.854	281.882	178.130	33.725	269.924	150.514	248.529	40.027	0.00019863	0.00028347	5.6679e-05	1020.2	2.2039e-06	2.524e-06	1099.1	203.41	3.9138e-06	2.2493e-06	260.97	73.685	58.034	17.186	4.3126e-06	24.303	0.00024211	0.00022112	5.8243e-05	1010.7	2.4787e-06	2.1387e-06	1093.2	203.18	2.4585e-06	2.3928e-06	261.88	74.584	58.693	17.526	2.5517e-06	24.858	300.929	37.656	33.831	-43.928	103.719	83.252	-44.252	-36.536	132.153	106.500	-37.549	-29.990	-29.439	-22.603	101.768	-22.891	-8191	255	
1460.664	1	1	0	0	0.10661	0.16159	0.14622	0.44241	0.13921	0.12901	0.22597	0.35483	0.081176	0.31833	0.20125	0.10635	0.11491	0.23814	0.18765	0.085427	-3.425	-3.1896	-3.95	-3.5375	-3.6792	-4.1	-3.3125	-3.9021	-3.7938	-3.2562	-4.0792	-3.5229	-3.5208	-3.9354	-3.3708	-3.6042	192.714	6.253	300.319	248.234	90.201	83.433	175.139	198.764	118.018	103.018	60.382	-26.389	297.127	200.450	33.497	-1.568	0.00020637	0.00027374	5.8078e-05	1021.5	3.4552e-06	2.8008e-06	1103.3	202.72	2.9831e-06	2.813e-06	262.18	74.049	58.115	17.115	2.8952e-06	24.168	0.00022688	0.00020904	5.1822e-05	1011.2	2.5976e-06	2.0432e-06	1097.1	203.25	2.2747e-06	2.4011e-06	261.87	74.922	58.72	17.488	2.4399e-06	24.795	-39.511	43.159	52.794	-44.221	128.475	95.068	-44.088	-36.434	139.299	137.319	-36.956	-30.271	-29.589	-23.023	107.870	-23.152	-8191	255	
1460.784	1	1	0	0	0.25666	0.026828	0.030249	0.24761	0.13981	0.17541	0.16019	0.2278	0.059963	0.16258	0.086779	0.15754	0.089457	0.12401	0.19599	0.095297	-3.3958	-3.2229	-3.9833	-3.7083	-3.2	-4.0125	-3.45	-3.7958	-3.9125	-3.1917	-3.9792	-3.5854	-3.3917	-4.1208	-3.175	-3.7042	174.568	161.984	103.273	269.261	234.779	34.869	19.529	274.338	2.208	-13.234	137.917	273.186	185.059	199.705	258.282	295.365	0.00026122	0.00026228	5.5238e-05	1020.2	2.0078e-06	3.3049e-06	1107.4	203.37	4.2488e-06	2.7248e-06	261.56	73.965	58.122	17.099	3.2531e-06	24.379	0.00021943	0.00023942	5.3824e-05	1009.7	2.8114e-06	2.293e-06	1097.7	203.44	2.2933e-06	2.4053e-06	261.55	74.85	58.697	17.515	2.3578e-06	24.798	-51.046	26.227	25.524	-43.901	94.624	86.314	-44.379	-36.368	130.530	114.063	-37.159	-30.466	-30.041	-22.736	86.608	-22.701	-8191	255	
1460.880	1	1	0	0	0.20869	0.04993	0.0531	0.094269	0.10104	0.10329	0.16403	0.17459	0.26141	0.14459	0.1005	0.32616	0.16536	0.18358	0.13583	0.2212	-3.6333	-3.2146	-3.8729	-3.775	-3.325	-4.0125	-3.4542	-3.5563	-3.9958	-3.2521	-4.0437	-3.6708	-3.1875	-3.9188	-3.3479	-3.5271	118.029	132.243	287.292	173.909	17.705	32.050	300.076	301.297	119.008	0.069	269.277	270.421	-9.922	-26.171	36.696	157.757	0.00021949	0.00028238	4.8105e-05	1022	3.2912e-06	2.6299e-06	1108.6	202.53	2.2145e-06	3.0281e-06	260.33	74.288	58.096	17.08	2.9213e-06	24.302	0.00021544	0.00022525	5.9486e-05	1011.4	2.606e-06	2.1567e-06	1096.4	203.27	2.2538e-06	2.4414e-06	262.67	74.834	58.643	17.505	2.3306e-06	24.799	-44.663	29.039	30.769	-44.272	133.948	97.716	-44.346	-36.529	144.981	112.828	-37.204	-30.024	-29.914	-22.552	114.273	-23.192	-8191	255	
1460.977	1	1	0	0	0.23345	0.24281	0.18629	0.32286	0.064654	0.19452	0.30699	0.40675	0.18493	0.25819	0.16875	0.20667	0.20947	0.15069	0.28457	0.16738	-3.5708	-3.15	-3.8396	-3.9646	-3.25	-4.1729	-3.7333	-3.4583	-4.0417	-3.3917	-4.0208	-3.8958	-3.3104	-3.9062	-3.5208	-3.4083	178.510	32.331	250.924	-11.390	298.422	230.820	225.985	199.695	293.233	130.059	-14.170	-25.233	118.228	291.690	175.005	239.352	0.00025402	0.00030952	6.3219e-05	1013.7	1.8305e-06	2.9532e-06	1107.6	202.54	1.8212e-06	2.5578e-06	264.77	73.662	57.632	17.127	2.0092e-06	24.218	0.00022061	0.00022118	5.6828e-05	1007.9	2.9039e-06	2.4425e-06	1096.3	203.05	2.4841e-06	2.4518e-06	262.38	74.673	58.51	17.482	2.2801e-06	24.809	-44.688	35.226	28.522	-44.265	161.058	83.001	-43.946	-36.363	119.574	87.145	-37.017	-30.361	-29.719	-22.907	72.911	-23.556	-8191	255	
1461.073	1	1	0	0	0.068148	0.17263	0.011633	0.17008	0.16304	0.36092	0.28928	0.16439	0.057902	0.20142	0.13366	0.32308	0.23183	0.094911	0.083962	0.24458	-3.5083	-3.3688	-3.5396	-3.8625	-3.0312	-3.9188	-3.7146	-3.3583	-4.0042	-3.4646	-3.6146	-3.8146	-3.2875	-3.7562	-3.6625	-3.4437	148.221	-15.550	145.580	-25.822	105.830	-50.863	262.437	8.766	121.173	-35.691	-18.402	201.244	208.735	256.048	285.266	213.995	0.0002301	0.00022291	7.9482e-05	1017.1	2.9556e-06	2.9529e-06	1110.5	203.31	3.4743e-06	3.17e-06	263.3	73.447	57.988	17.199	2.6604e-06	24.41	0.00022153	0.00022087	5.8502e-05	1008.5	2.6276e-06	2.1546e-06	1096.3	203.47	2.327e-06	2.3962e-06	262.28	74.595	58.655	17.489	2.3451e-06	24.874	302.724	40.886	62.019	-44.094	123.746	100.479	-44.095	-36.287	137.986	96.179	-36.979	-30.389	-29.579	-22.626	111.247	-23.331	-8191	255	
1461.169	1	1	0	0	0.16903	0.22833	0.055691	0.04768	0.334	0.17617	0.10944	0.18711	0.0803	0.24423	0.028362	0.19641	0.082844	0.3584	0.11829	0.31757	-3.5667	-3.3208	-3.4396	-3.9583	-3.2938	-3.8375	-3.8521	-3.2833	-3.9208	-3.5375	-3.5062	-3.9917	-3.2687	-3.7167	-3.6271	-3.2375	271.418	299.907	118.532	-13.888	-3.531	295.803	2.857	214.420	227.429	208.504	67.402	246.818	-42.035	225.267	151.455	93.661	0.00023168	0.00031092	4.8577e-05	1017.5	4.1959e-06	1.713e-06	1107.9	202.91	3.445e-06	2.0709e-06	262.7	73.869	58.016	17.141	2.7402e-06	24.254	0.00021511	0.00022211	5.7104e-05	1008.7	2.7694e-06	2.2619e-06	1097.3	203.01	2.4538e-06	2.2733e-06	262.41	74.621	58.517	17.463	2.258e-06	24.791	-53.677	28.798	46.538	-44.016	110.412	90.247	-44.018	-36.133	100.983	99.739	-36.995	-30.042	-29.443	-22.825	122.344	-23.700	-8191	255	
1461.265	1	1	0	0	0.16143	0.12772	0.089559	0.11113	0.23212	0.12535	0.32083	0.13646	0.21645	0.067855	0.16496	0.1394	0.11987	0.22541	0.17006	0.22432	-3.7729	-3.4542	-3.4292	-4.1896	-3.1917	-3.6521	-3.8729	-3.2604	-4.0583	-3.5354	-3.5646	-3.9354	-3.4729	-3.5417	-4.0271	-3.275	234.986	24.780	259.722	264.311	112.896	201.785	204.568	166.383	32.247	238.313	229.970	296.842	250.234	-46.051	131.908	61.040	0.00027855	0.00032413	7.3198e-05	1017.5	1.6508e-06	3.2143e-06	1105.3	202.45	2.0537e-06	2.4268e-06	261.36	73.967	58.333	17.229	3.506e-06	24.519	0.0002226	0.00023227	5.6137e-05	1009.4	2.6523e-06	2.273e-06	1094	202.7	2.3294e-06	2.3671e-06	261.43	74.804	58.715	17.533	2.2195e-06	24.884	-46.002	54.279	59.020	-44.313	104.585	114.582	-43.955	-36.435	162.438	107.277	-36.970	-29.894	-29.552	-22.186	95.147	-23.176	-8191	255	
1461.384	1	1	0	0	0.042344	0.24862	0.16853	0.23151	0.18844	0.14768	0.2356	0.10578	0.22795	0.24077	0.082459	0.15189	0.16636	0.061341	0.10347	0.051382	-3.4458	-3.5062	-3.3083	-4.2833	-3.3646	-3.6604	-4.0042	-3.1604	-3.8063	-3.6146	-3.2188	-4.0229	-3.3688	-3.6146	-4.1021	-3.2687	202.500	253.084	-20.890	270.446	149.729	-15.645	243.601	156.448	141.487	197.724	243.737	10.881	294.300	114.115	277.910	179.187	0.00020276	0.00023656	7.6769e-05	1024.3	1.5251e-06	2.2308e-06	1107.4	204.91	2.9025e-06	2.6955e-06	262.96	74.404	58.418	17.213	2.3432e-06	24.365	0.00022359	0.00019999	6.375e-05	1010.4	2.5274e-06	2.147e-06	1093	203.38	2.4149e-06	1.9933e-06	262.59	74.916	58.563	17.543	2.2043e-06	24.854	-51.900	13.250	23.489	-44.015	131.150	101.045	-43.989	-36.567	144.031	112.408	-36.739	-30.163	-29.378	-22.778	139.290	-22.781	-8191	255	
1461.480	1	1	0	0	0.17483	0.30306	0.22744	0.056753	0.0076841	0.089862	0.20649	0.21776	0.094516	0.15523	0.17818	0.12611	0.16492	0.19808	0.13264	0.18034	-3.4917	-3.65	-3.4417	-4.0646	-3.2167	-3.35	-3.9875	-3.2354	-3.5292	-3.6479	-3.2333	-4.1583	-3.3042	-3.4021	-4.0083	-3.2958	165.381	243.540	175.901	288.650	20.368	272.905	231.567	276.698	248.724	-11.291	177.349	281.809	-54.408	83.815	-17.898	227.919	0.00027486	0.00023487	6.2834e-05	1024.9	4.3449e-06	1.8895e-06	1110	202.11	2.5218e-06	2.52e-06	262.64	74.576	58.692	17.339	1.8316e-06	24.463	0.00022706	0.0002067	6.7617e-05	1010.5	2.7646e-06	2.2757e-06	1095.2	202.33	2.3672e-06	2.2858e-06	261.8	74.778	58.72	17.551	2.1443e-06	24.867	300.533	53.360	67.903	-43.639	123.226	89.740	-43.900	-36.469	133.902	106.053	-37.228	-29.971	-29.756	-22.378	85.432	-23.470	-8191	255	
1461.576	1	1	0	0	0.16079	0.33244	0.1277	0.1358	0.023057	0.13989	0.12865	0.21117	0.29004	0.181	0.13589	0.30631	0.25189	0.13942	0.13044	0.22423	-3.2958	-3.9938	-3.1417	-3.95	-3.4146	-3.4021	-3.9521	-3.4083	-3.5708	-3.8625	-3.3312	-3.9625	-3.6583	-3.2792	-4.0125	-3.3438	136.400	107.448	305.931	238.770	204.320	275.319	270.658	275.743	257.884	276.492	69.416	-35.242	179.402	4.107	-30.729	8.763	0.00018711	0.00021909	5.843e-05	1025.8	3.4121e-06	1.9613e-06	1109.4	204.24	2.9658e-06	2.2301e-06	263.22	74.346	58.353	17.257	2.6674e-06	24.567	0.00023293	0.00019062	6.0384e-05	1010.3	2.5964e-06	2.5242e-06	1094.5	203.29	2.5294e-06	2.1545e-06	262.14	74.851	58.629	17.5	2.4317e-06	24.828	-42.633	39.506	54.702	-43.897	122.014	108.079	-43.558	-36.014	129.763	115.982	-36.776	-29.859	-29.846	-22.018	99.895	-23.295	-8191	255	
1461.672	1	1	0	0	0.077501	0.020493	0.044054	0.19574	0.065675	0.063974	0.081591	0.12813	0.22844	0.23141	0.071349	0.094483	0.32786	0.22438	0.10568	0.15521	-3.1833	-4.0417	-3.1375	-3.8979	-3.6979	-3.2417	-4.1271	-3.5333	-3.6021	-3.8187	-3.2792	-3.9729	-3.7458	-3.2646	-3.9021	-3.35	141.931	31.518	219.960	246.554	276.812	252.692	54.898	23.471	271.203	39.072	179.329	287.514	68.011	-41.717	149.936	149.682	0.00020231	0.0003909	7.0463e-05	1022.6	3.4793e-06	5.7871e-07	1109.2	203.89	2.4634e-06	2.37e-06	262.56	74.325	58.813	17.265	3.6549e-06	24.498	0.00023086	0.00021286	6.356e-05	1010.6	2.6373e-06	2.5727e-06	1094.8	203.07	2.3294e-06	2.1635e-06	261.63	74.95	58.759	17.507	2.3679e-06	24.866	-54.328	38.290	28.871	-43.757	123.932	106.657	-43.774	-36.444	129.089	111.292	-37.198	-29.940	-29.507	-22.551	99.559	-23.545	-8191	255	
1461.769	1	1	0	0	0.041214	0.19305	0.095244	0.067944	0.0066627	0.16584	0.31498	0.20009	0.09819	0.3049	0.10722	0.042843	0.010768	0.11431	0.15368	0.050694	-3.0396	-4.05	-3.3167	-3.8438	-3.8438	-3.2438	-3.9583	-3.5438	-3.3833	-3.9021	-3.4208	-3.7625	-3.7292	-3.2438	-3.85	-3.5292	-34.121	-47.544	242.670	70.595	126.203	171.814	245.016	264.307	222.824	251.644	291.588	250.560	67.508	203.243	11.579	237.804	0.00028049	0.00033173	2.9947e-05	1027.9	3.1551e-06	2.1759e-06	1111.3	202.91	3.2509e-06	2.1485e-06	263.77	74.525	58.431	17.038	3.6146e-06	24.41	0.00024041	0.00020522	6.2214e-05	1009.9	2.4457e-06	2.4474e-06	1094.8	202.92	2.5137e-06	2.0704e-06	262.26	74.72	58.596	17.445	2.1898e-06	24.828	-49.198	30.701	40.118	-43.774	133.948	93.942	-43.689	-36.093	120.576	102.414	-36.774	-29.496	-29.638	-22.503	90.171	-22.901	-8191	255	
#DATA ENDS
