BOXY.EXE: ISS Imagent and Oximeter Data Acquisition Program Version 0.80
Ascii Record File

#ACQ INFORMATION
2  Detector Channels 
16  External MUX Channels 
1  Auxiliary Channels 
5000  Waveform (CCF) Frequency (Hz)
1  Waveforms Skipped 
30  Waveforms Averaged 
1  Cycles Averaged 
16  Acquisitions per Waveform 
10.0806  Updata Rate (Hz) 

#FILE INFORMATION
TRUE -- External MUX Channel results are PARSED.
FALSE -- AC DC and Phase are NOT grouped.
TRUE -- Companion Program Settings File CREATED.
FALSE -- AC data not excluded
FALSE -- DC data not excluded
FALSE -- Phase data not excluded
FALSE -- Auxillary Chn. data not excluded
Tab delimiters

#CALIBRATION STATE
TRUE -- Waveform Calibration Values APPLIED.


#AUX CALIBRATION VALUES
Val Type	aux-1	

Term	1.0000e+00	
Factor	0.0000e+00	


#WF CALIBRATION VALUES
A = Detector Channel
Val Type	A-AC1	A-AC2	A-AC3	A-AC4	A-AC5	A-AC6	A-AC7	A-AC8	A-AC9	A-AC10	A-AC11	A-AC12	A-AC13	A-AC14	A-AC15	A-AC16	A-DC1	A-DC2	A-DC3	A-DC4	A-DC5	A-DC6	A-DC7	A-DC8	A-DC9	A-DC10	A-DC11	A-DC12	A-DC13	A-DC14	A-DC15	A-DC16	A-Ph1	A-Ph2	A-Ph3	A-Ph4	A-Ph5	A-Ph6	A-Ph7	A-Ph8	A-Ph9	A-Ph10	A-Ph11	A-Ph12	A-Ph13	A-Ph14	A-Ph15	A-Ph16	

Term	0.00000e+00	0.00000e+00	0.00000e+00	0.00000e+00	0.00000e+00	0.00000e+00	0.00000e+00	0.00000e+00	0.00000e+00	0.00000e+00	0.00000e+00	0.00000e+00	0.00000e+00	0.00000e+00	0.00000e+00	0.00000e+00	0.00000e+00	0.00000e+00	0.00000e+00	0.00000e+00	0.00000e+00	0.00000e+00	0.00000e+00	0.00000e+00	0.00000e+00	0.00000e+00	0.00000e+00	0.00000e+00	0.00000e+00	0.00000e+00	0.00000e+00	0.00000e+00	0.00000e+00	0.00000e+00	0.00000e+00	0.00000e+00	0.00000e+00	0.00000e+00	0.00000e+00	0.00000e+00	0.00000e+00	0.00000e+00	0.00000e+00	0.00000e+00	0.00000e+00	0.00000e+00	0.00000e+00	0.00000e+00	
Factor	1.00000e+00	1.00000e+00	1.00000e+00	1.00000e+00	1.00000e+00	1.00000e+00	1.00000e+00	1.00000e+00	1.00000e+00	1.00000e+00	1.00000e+00	1.00000e+00	1.00000e+00	1.00000e+00	1.00000e+00	1.00000e+00	1.00000e+00	1.00000e+00	1.00000e+00	1.00000e+00	1.00000e+00	1.00000e+00	1.00000e+00	1.00000e+00	1.00000e+00	1.00000e+00	1.00000e+00	1.00000e+00	1.00000e+00	1.00000e+00	1.00000e+00	1.00000e+00	X	X	X	X	X	X	X	X	X	X	X	X	X	X	X	X	

B = Detector Channel
Val Type	B-AC1	B-AC2	B-AC3	B-AC4	B-AC5	B-AC6	B-AC7	B-AC8	B-AC9	B-AC10	B-AC11	B-AC12	B-AC13	B-AC14	B-AC15	B-AC16	B-DC1	B-DC2	B-DC3	B-DC4	B-DC5	B-DC6	B-DC7	B-DC8	B-DC9	B-DC10	B-DC11	B-DC12	B-DC13	B-DC14	B-DC15	B-DC16	B-Ph1	B-Ph2	B-Ph3	B-Ph4	B-Ph5	B-Ph6	B-Ph7	B-Ph8	B-Ph9	B-Ph10	B-Ph11	B-Ph12	B-Ph13	B-Ph14	B-Ph15	B-Ph16	

Term	0.00000e+00	0.00000e+00	0.00000e+00	0.00000e+00	0.00000e+00	0.00000e+00	0.00000e+00	0.00000e+00	0.00000e+00	0.00000e+00	0.00000e+00	0.00000e+00	0.00000e+00	0.00000e+00	0.00000e+00	0.00000e+00	0.00000e+00	0.00000e+00	0.00000e+00	0.00000e+00	0.00000e+00	0.00000e+00	0.00000e+00	0.00000e+00	0.00000e+00	0.00000e+00	0.00000e+00	0.00000e+00	0.00000e+00	0.00000e+00	0.00000e+00	0.00000e+00	-1.17792e+02	-1.43843e+02	-1.22546e+02	-1.82203e+02	-6.11667e+01	-7.34980e+01	-1.58195e+02	-1.62015e+02	-5.91422e+01	-6.39027e+01	-1.73093e+02	-1.71855e+02	-1.81390e+02	-1.76301e+02	-7.35693e+01	-1.49454e+02	
Factor	1.69170e-05	1.23924e-04	3.36262e-05	1.80272e-01	1.08088e-06	1.50264e-06	1.68832e-01	4.61094e-02	9.30486e-07	1.40809e-06	1.02341e-01	2.97290e-02	2.73267e-02	8.85118e-03	1.28260e-06	1.26478e-02	2.60707e-06	2.90429e-06	8.06884e-07	9.53293e-02	3.13924e-08	3.17865e-08	8.41259e-02	2.45373e-02	3.13704e-08	3.17759e-08	5.20466e-02	1.52571e-02	1.46120e-02	4.71344e-03	3.16051e-08	6.50126e-03	X	X	X	X	X	X	X	X	X	X	X	X	X	X	X	X	



#DISTANCE SETTINGS
A = Detector Channel
A-1	A-2	A-3	A-4	A-5	A-6	A-7	A-8	A-9	A-10	A-11	A-12	A-13	A-14	A-15	A-16	

2.5000e+00	3.0000e+00	2.5000e+00	3.0000e+00	2.0000e+00	3.0000e+00	1.5000e+00	3.0000e+00	3.0000e+00	3.0000e+00	3.0000e+00	3.0000e+00	3.0000e+00	3.0000e+00	1.5000e+00	3.0000e+00	

B = Detector Channel
B-1	B-2	B-3	B-4	B-5	B-6	B-7	B-8	B-9	B-10	B-11	B-12	B-13	B-14	B-15	B-16	

1.0000e+01	1.0000e+01	1.0000e+01	1.4400e+00	1.0000e+01	1.0000e+01	1.5100e+00	1.9400e+00	1.0000e+01	1.0000e+01	1.9900e+00	2.4900e+00	2.4100e+00	2.9000e+00	1.0000e+01	2.9800e+00	




#DATA BEGINS
time	group	step	mark	flag	A-AC1	A-AC2	A-AC3	A-AC4	A-AC5	A-AC6	A-AC7	A-AC8	A-AC9	A-AC10	A-AC11	A-AC12	A-AC13	A-AC14	A-AC15	A-AC16	A-DC1	A-DC2	A-DC3	A-DC4	A-DC5	A-DC6	A-DC7	A-DC8	A-DC9	A-DC10	A-DC11	A-DC12	A-DC13	A-DC14	A-DC15	A-DC16	A-Ph1	A-Ph2	A-Ph3	A-Ph4	A-Ph5	A-Ph6	A-Ph7	A-Ph8	A-Ph9	A-Ph10	A-Ph11	A-Ph12	A-Ph13	A-Ph14	A-Ph15	A-Ph16	B-AC1	B-AC2	B-AC3	B-AC4	B-AC5	B-AC6	B-AC7	B-AC8	B-AC9	B-AC10	B-AC11	B-AC12	B-AC13	B-AC14	B-AC15	B-AC16	B-DC1	B-DC2	B-DC3	B-DC4	B-DC5	B-DC6	B-DC7	B-DC8	B-DC9	B-DC10	B-DC11	B-DC12	B-DC13	B-DC14	B-DC15	B-DC16	B-Ph1	B-Ph2	B-Ph3	B-Ph4	B-Ph5	B-Ph6	B-Ph7	B-Ph8	B-Ph9	B-Ph10	B-Ph11	B-Ph12	B-Ph13	B-Ph14	B-Ph15	B-Ph16	aux-1	digaux	

28677.564	1	1	0	768	0.15932	0.37367	0.28499	0.11086	0.2299	0.19886	0.14773	0.25673	0.21664	0.22136	0.064134	0.32449	0.095686	0.12007	0.21934	0.32447	-1.7563	-1.3813	-1.8625	-2.075	-1.2979	-2.0458	-1.9021	-1.7583	-2.1937	-1.3521	-1.9771	-2.2687	-1.3687	-2.2458	-1.7437	-1.6667	100.125	188.763	-50.491	227.676	213.103	-14.090	231.191	217.540	-52.851	103.035	243.518	199.603	-93.469	186.678	125.125	203.389	0.00059121	0.0019475	0.00020148	875.39	8.5824e-06	8.882e-06	1264.4	350.15	9.0991e-06	1.6562e-05	578.64	271.36	151.02	73.582	1.1059e-05	134.15	0.0014584	0.0015601	0.00042516	806.24	1.6597e-05	1.6607e-05	1144.6	319.59	1.6545e-05	1.6873e-05	526.05	246.48	139.15	66.191	1.7018e-05	120.11	195.779	-27.044	248.902	-90.539	-31.308	101.472	-91.046	-85.912	17.021	33.574	-85.969	-83.380	-82.961	-78.214	-49.914	-79.375	-8191	255	
28677.660	1	1	0	0	0.12477	0.17161	0.10282	0.066871	0.17715	0.057006	0.25197	0.3303	0.088626	0.19112	0.12691	0.31599	0.25163	0.35999	0.13596	0.29579	-1.9062	-1.5417	-1.8167	-2.1562	-1.3438	-2.0104	-1.95	-1.5562	-2.0792	-1.5771	-1.7875	-2.2354	-1.475	-1.9625	-1.9583	-1.7208	-98.637	9.049	240.987	199.741	147.538	238.823	181.060	214.782	8.720	66.142	159.849	188.826	-96.621	247.556	146.655	187.699	0.0004006	0.00054792	0.00052276	870.85	6.797e-06	6.7817e-06	1263	352.16	6.9494e-06	3.7468e-06	580.38	274.03	149.69	73.028	7.5259e-06	133.02	0.0014303	0.0015355	0.00042114	800.48	1.6396e-05	1.6706e-05	1142.4	320.15	1.6379e-05	1.6952e-05	525.86	246.51	138.79	65.914	1.7356e-05	119.74	188.706	-46.418	-17.542	-90.419	79.372	-46.529	-90.589	-85.977	70.295	43.790	-86.617	-83.313	-82.407	-78.362	43.644	-79.444	-8191	255	
28677.758	1	1	0	0	0.15554	0.081956	0.027133	0.21075	0.18658	0.2811	0.25264	0.20399	0.35005	0.27378	0.31814	0.18793	0.19942	0.12025	0.053449	0.41001	-1.7396	-1.7146	-1.6854	-2.0458	-1.3417	-2.0208	-2.1479	-1.6437	-2.2042	-1.5292	-1.775	-2.4375	-1.55	-1.9875	-1.9583	-1.5479	-44.794	42.508	-47.585	221.533	82.866	-33.023	241.531	203.066	95.181	0.710	-68.620	141.777	-87.137	-65.270	-35.669	178.507	0.00041339	0.0014517	0.00030203	863.27	7.9307e-06	1.8716e-05	1262.5	353.4	1.0385e-05	5.7603e-06	577.72	272.92	149.97	72.881	1.4473e-06	133.35	0.0014575	0.0015776	0.00043525	799.31	1.6918e-05	1.6823e-05	1142	320.23	1.6624e-05	1.7244e-05	525.45	246.48	138.45	65.901	1.7454e-05	119.61	219.974	-29.341	13.485	-90.249	109.548	54.967	-90.976	-85.594	0.232	67.199	-86.347	-83.216	-82.769	-78.167	-65.094	-79.586	-8191	255	
28677.854	1	1	0	0	0.23531	0.14582	0.25074	0.17397	0.16445	0.17414	0.10623	0.41959	0.29423	0.3849	0.1835	0.33464	0.29521	0.19814	0.084656	0.25324	-1.5688	-1.6354	-1.6167	-2.2333	-1.3438	-1.9146	-2.05	-1.45	-1.9833	-1.8208	-1.5625	-2.5229	-1.5438	-2.0917	-2.075	-1.6292	4.831	85.773	-70.779	35.119	223.371	76.237	211.736	217.420	194.619	255.259	147.619	192.318	213.323	251.695	213.179	192.304	0.00048891	0.00068926	5.7864e-05	873.17	1.3265e-05	1.3929e-05	1263.7	356.61	9.4243e-06	1.6245e-05	579.53	276.58	151.98	73.462	6.1685e-06	133.49	0.0014742	0.0015899	0.00043974	804.43	1.7224e-05	1.7102e-05	1147	322.38	1.6715e-05	1.7584e-05	529.93	248.25	140.14	66.45	1.7167e-05	120.39	201.921	15.106	-100.158	-90.816	21.997	55.220	-90.740	-85.946	-48.309	-15.797	-86.643	-83.484	-82.114	-78.051	28.191	-79.306	-8191	255	
28677.949	1	1	0	0	0.24156	0.071688	0.15162	0.2393	0.10715	0.13711	0.21548	0.12518	0.30886	0.15365	0.27629	0.10324	0.23032	0.44949	0.13957	0.14835	-1.8292	-1.9521	-1.2979	-2.2708	-1.7271	-1.7917	-2.4271	-1.5167	-2.0083	-1.9875	-1.5125	-2.5563	-1.7375	-1.9375	-2.2188	-1.5646	73.009	142.795	-32.026	205.577	-23.248	89.253	196.636	-43.431	-5.374	46.311	211.665	214.601	170.025	248.969	17.010	157.684	0.0005654	0.00032235	0.00037841	878.01	3.8421e-06	1.0468e-05	1262.2	354.4	1.5976e-05	1.6005e-05	579.2	273.13	151.62	73.259	1.1879e-05	133.85	0.0014774	0.0016283	0.00045275	808.99	1.7493e-05	1.7511e-05	1148	322.63	1.7424e-05	1.7915e-05	529.03	247.32	139.98	66.342	1.771e-05	120.53	209.966	-12.830	24.544	-90.264	-98.878	223.975	-91.032	-86.026	-6.164	43.306	-86.416	-83.019	-82.463	-77.997	79.834	-79.377	-8191	255	
28678.045	1	1	0	0	0.013003	0.084037	0.23954	0.13459	0.21491	0.34278	0.11912	0.26153	0.17167	0.11381	0.15964	0.32121	0.29494	0.060754	0.093156	0.38696	-1.6146	-1.9333	-1.4042	-2.3688	-1.6479	-1.5312	-2.3083	-1.5271	-1.9625	-2.0333	-1.6437	-2.3854	-1.8292	-1.7104	-2.325	-1.8083	-30.711	84.053	39.544	-61.281	53.341	-58.737	200.678	168.464	38.696	20.293	184.672	218.601	229.486	181.076	36.003	222.293	0.00048731	0.0010052	0.00020201	872.16	1.003e-05	1.2461e-05	1257.3	353.56	5.8263e-06	2.295e-05	577.95	271.52	151.25	72.77	1.3494e-05	133.56	0.0014953	0.001666	0.00044928	804.41	1.7871e-05	1.7555e-05	1142.4	321.64	1.7534e-05	1.7926e-05	526.73	246.06	139.24	65.892	1.7615e-05	119.89	205.447	-3.999	-70.986	-90.323	38.011	35.907	-90.747	-85.598	20.276	64.820	-86.322	-83.148	-82.464	-78.260	32.457	-79.221	-8191	255	
28678.166	1	1	0	0	0.18559	0.18902	0.080201	0.14974	0.19298	0.11722	0.11533	0.15615	0.093185	0.011762	0.43672	0.46118	0.14325	0.31125	0.093388	0.098593	-1.3792	-2.1125	-1.2854	-2.0708	-1.7792	-1.6063	-2.4896	-1.8729	-1.85	-2.1354	-1.3521	-2.4479	-1.9833	-1.6437	-2.3104	-1.8104	-42.901	96.126	183.734	202.398	178.437	65.153	161.039	255.167	164.820	-65.597	202.280	221.521	-43.976	249.582	-45.018	-43.715	0.00058133	0.0010526	0.00019071	874.68	1.2262e-05	1.7203e-05	1263.9	351.98	8.8477e-06	1.6978e-05	577.39	273.73	149.71	72.844	9.6715e-06	131.99	0.0015202	0.0016433	0.00044939	803.49	1.7924e-05	1.7813e-05	1141.4	320.37	1.7784e-05	1.8323e-05	526.05	245.6	138.36	65.758	1.7988e-05	119.04	201.055	-45.205	-26.881	-90.255	70.024	104.743	-90.129	-85.686	37.809	28.838	-86.661	-83.217	-82.422	-78.423	-19.349	-79.501	-8191	255	
28678.262	1	1	0	0	0.20675	0.19498	0.1679	0.22568	0.11994	0.32238	0.12797	0.34628	0.30818	0.063725	0.25461	0.24083	0.06783	0.4572	0.071051	0.40128	-1.3729	-2.3354	-1.5479	-2.1333	-2	-1.3479	-2.375	-2.0042	-1.5667	-2.2438	-1.5729	-2.2646	-2.0625	-1.5521	-1.95	-1.7625	-12.230	-18.975	212.461	200.872	104.510	85.545	183.831	190.820	178.596	-16.049	185.874	248.816	115.455	219.146	-87.697	199.135	0.00058048	0.0013739	0.00030827	880.36	9.0555e-06	7.7204e-06	1266.8	355.89	9.9112e-06	9.3816e-06	586.5	276.76	152.58	73.432	1.165e-05	134.27	0.0015453	0.0016362	0.00045411	808.18	1.7928e-05	1.7707e-05	1148.8	323.07	1.7494e-05	1.7869e-05	530.47	248.62	140.65	66.439	1.7373e-05	120.42	213.446	-41.285	-1.987	-90.089	29.401	25.670	-90.495	-85.822	139.472	20.493	-86.404	-82.963	-82.955	-78.192	-39.065	-79.262	-8191	255	
28678.355	1	1	0	0	0.27096	0.19613	0.060303	0.10572	0.14149	0.2586	0.056366	0.08482	0.07468	0.29817	0.2267	0.25352	0.28683	0.42649	0.22266	0.14799	-1.2958	-2.1854	-1.3979	-1.9875	-1.8229	-1.3771	-2.4875	-1.9792	-1.5312	-2.3187	-1.3833	-2.0542	-2.1833	-1.475	-2.0438	-1.9458	208.365	-2.120	125.662	230.227	210.760	-91.430	160.952	252.332	55.927	8.318	-59.554	221.557	242.316	221.511	186.862	154.398	0.00032505	0.0013726	0.00024591	881.69	7.8685e-06	1.4032e-05	1269.7	357.76	4.5835e-06	1.2374e-05	583.84	276.04	152.28	73.793	6.8241e-06	134.27	0.0015066	0.0015954	0.00044915	813.95	1.7952e-05	1.7613e-05	1152.6	324.65	1.7288e-05	1.7637e-05	530.96	249.23	140.85	66.701	1.7228e-05	120.37	217.786	15.522	-90.796	-89.849	74.290	92.936	-90.373	-86.057	39.201	10.639	-86.496	-83.193	-82.403	-78.143	80.287	-79.403	-8191	255	
28678.453	1	1	0	0	0.30958	0.36559	0.1984	0.13927	0.10769	0.10962	0.072288	0.19804	0.2368	0.32282	0.096241	0.12976	0.059805	0.36409	0.16452	0.54746	-0.78125	-2.1854	-1.5854	-1.775	-2.1354	-1.3	-2.1396	-2.1458	-1.4375	-2.2646	-1.6292	-1.8521	-2.425	-1.4937	-2.1104	-2.2729	237.085	60.028	203.163	3.869	-57.288	84.328	-54.835	196.847	69.827	174.306	154.300	187.593	-63.789	-53.355	-90.929	183.804	0.00029509	0.0011278	0.00019933	883.28	8.2416e-06	6.7929e-06	1270.4	354.22	6.636e-06	7.1687e-06	580.16	274.56	151.03	73.217	1.0255e-05	133.56	0.0015258	0.0016083	0.00045476	813.61	1.7684e-05	1.7879e-05	1149.3	323.01	1.7588e-05	1.7809e-05	529.68	248.46	140.02	66.38	1.7722e-05	119.96	203.671	20.876	14.914	-90.130	-23.869	27.794	-90.822	-85.677	52.037	81.167	-86.296	-83.344	-82.209	-78.186	-13.528	-79.374	-8191	255	
28678.549	1	1	0	0	0.19791	0.24169	0.24264	0.23758	0.16819	0.15895	0.12614	0.13452	0.26616	0.0072713	0.067791	0.1673	0.21481	0.22918	0.06239	0.33271	-1.0958	-2.2812	-1.5625	-1.55	-2.2938	-1.1917	-1.9875	-2.3146	-1.3771	-2.1625	-1.8312	-1.6625	-2.2938	-1.7875	-1.9292	-2.125	93.325	-72.675	164.508	215.450	190.556	126.823	231.697	166.395	177.236	140.718	184.960	227.645	-96.973	239.843	-32.633	194.065	0.00050043	0.00094169	0.00053686	874.61	1.5741e-05	9.7227e-06	1264.4	354.12	2.7159e-06	1.476e-05	578.33	274.74	151.44	72.805	8.4995e-06	133.84	0.0015372	0.0016361	0.00046887	809.61	1.7735e-05	1.8338e-05	1145	321.8	1.7946e-05	1.771e-05	529.11	248.46	140.26	66.003	1.7524e-05	120.13	231.622	-0.475	5.518	-90.619	64.750	46.047	-90.494	-85.691	129.516	114.828	-86.974	-83.072	-82.246	-78.163	77.986	-79.543	-8191	255	
28678.645	1	1	0	0	0.12255	0.09311	0.03949	0.3092	0.12419	0.22581	0.13082	0.20882	0.20683	0.10654	0.29431	0.30222	0.11404	0.30346	0.33612	0.26957	-0.81458	-2.0708	-1.85	-1.6625	-2.3125	-1.3583	-1.7938	-2.2229	-1.4562	-2.2271	-1.9188	-1.5271	-2.1646	-1.7417	-1.7458	-2.4958	133.432	148.097	151.897	239.745	187.756	104.390	-84.104	157.849	-98.048	-73.220	172.146	196.421	152.690	170.385	-88.639	218.413	0.00053349	0.0016308	0.00017512	875.4	1.7488e-05	5.5411e-06	1267	355.32	8.3696e-06	8.3093e-06	579.44	276.83	152.09	73.567	1.2149e-05	135.37	0.0015469	0.0016323	0.00046339	809.92	1.7523e-05	1.8255e-05	1150.3	323.5	1.7685e-05	1.7514e-05	530.82	249.78	140.9	66.739	1.7547e-05	121.7	218.281	-34.606	-37.943	-90.034	56.567	156.731	-90.324	-85.663	20.269	4.309	-86.904	-82.929	-82.523	-78.306	53.042	-79.059	-8191	255	
28678.766	1	1	0	0	0.26078	0.097467	0.031338	0.35554	0.13252	0.26501	0.30946	0.22726	0.34757	0.22371	0.11818	0.21917	0.42562	0.24833	0.14411	0.13477	-0.90625	-2.0062	-1.8479	-1.2542	-2.3354	-1.6833	-1.8396	-2.3417	-1.3146	-1.8625	-2.2104	-1.6125	-2.2542	-1.8375	-1.6354	-2.4271	155.085	209.738	255.359	211.428	189.007	-95.595	183.589	206.803	145.049	-12.914	190.347	153.492	-78.789	105.621	-16.806	144.269	0.00046862	0.00047596	0.00014018	878.53	3.3652e-06	1.8669e-06	1278.8	361.41	4.6178e-06	1.316e-05	584.9	277.92	154.65	74.69	7.4626e-06	136.17	0.0015183	0.001617	0.00045775	813.06	1.7223e-05	1.7982e-05	1156.7	327.41	1.7384e-05	1.7484e-05	535.18	251.76	142.46	67.236	1.7798e-05	121.95	226.688	183.992	251.051	-89.932	-51.563	189.762	-90.579	-85.433	52.893	30.431	-86.751	-83.153	-82.146	-78.347	-73.979	-79.322	-8191	255	
28678.861	1	1	0	0	0.12572	0.11423	0.12189	0.27569	0.25171	0.03099	0.16325	0.12608	0.055598	0.28909	0.12947	0.10944	0.18586	0.29058	0.14135	0.14735	-0.98333	-1.7687	-2.1125	-1.3542	-2.1042	-1.6542	-1.4813	-2.2938	-1.3396	-1.8125	-2.2083	-1.5333	-2.1542	-2.075	-1.3646	-2.625	235.122	119.145	-41.114	-85.601	-52.744	37.070	159.638	221.968	-26.133	-27.523	-65.876	-89.315	118.370	188.185	235.939	255.665	0.00048833	0.001177	0.00035255	884.72	1.2385e-05	4.8629e-06	1269.1	359.39	6.6644e-06	9.8768e-06	584.05	277.04	153.54	73.873	8.8288e-06	134.86	0.0015388	0.0016186	0.00046185	814.15	1.7493e-05	1.8098e-05	1149.9	325.52	1.7497e-05	1.7602e-05	532.28	249.89	141.4	66.987	1.7646e-05	121.47	225.215	26.863	-17.162	-90.552	52.599	175.267	-90.299	-85.717	231.251	25.595	-86.187	-83.141	-82.382	-78.157	122.082	-79.438	-8191	255	
28678.957	1	1	0	0	0.1784	0.15563	0.12995	0.35485	0.13931	0.17943	0.36644	0.13898	0.13635	0.082443	0.33728	0.31305	0.21912	0.092102	0.15845	0.42693	-1.1167	-1.6417	-2.0833	-1.5562	-2.1646	-1.8021	-1.4937	-2.475	-1.4521	-1.5688	-2.4333	-1.4125	-2.0104	-2.1417	-1.4292	-2.4667	-16.782	54.533	148.318	195.687	24.740	207.832	234.671	221.204	-96.674	-19.978	245.360	234.368	252.052	209.380	82.523	189.311	0.00041869	0.0013575	0.00048636	878.46	2.4199e-06	3.2594e-06	1268.3	357.06	5.6472e-06	7.1468e-06	584.99	275.44	152.93	73.575	7.6997e-06	135.52	0.0015265	0.0016114	0.00044671	811.32	1.7337e-05	1.7768e-05	1150.1	324.76	1.761e-05	1.774e-05	532.92	249.84	141.15	66.726	1.7577e-05	121.33	204.740	8.308	-54.388	-90.391	-67.868	114.119	-90.576	-85.588	38.789	93.266	-86.947	-82.964	-82.400	-78.200	96.473	-79.186	-8191	255	
28679.055	1	1	0	0	0.13277	0.15501	0.26845	0.17727	0.15935	0.055488	0.17429	0.20665	0.18857	0.15688	0.15407	0.20743	0.082245	0.21829	0.22656	0.16228	-1.1958	-1.6729	-2.2021	-1.5604	-1.7875	-2.125	-1.5354	-2.1125	-1.6771	-1.5542	-2.4104	-1.5438	-2.0729	-2.3375	-1.3375	-2.2896	160.517	3.094	-93.359	223.166	164.130	225.046	68.351	215.001	228.057	-88.508	216.517	224.019	137.857	240.629	26.926	207.162	0.00043893	0.00064174	0.00028484	880.03	4.1999e-06	2.5767e-06	1273	358.06	2.5277e-06	1.2428e-05	587.1	277.66	152.45	73.885	9.2128e-06	136.3	0.0015571	0.0016149	0.00045058	812.18	1.7394e-05	1.8042e-05	1152.5	325.09	1.797e-05	1.8049e-05	534.05	250.94	141.71	66.876	1.7738e-05	122.04	200.162	-38.101	-2.211	-90.271	3.407	107.434	-90.540	-85.899	107.603	80.439	-86.831	-83.540	-82.677	-78.277	42.285	-79.459	-8191	255	
28679.127	1	1	0	0	0.10705	0.077833	0.15021	0.1207	0.21295	0.1728	0.20334	0.19335	0.030375	0.27851	0.045031	0.067806	0.17158	0.24637	0.33006	0.45319	-1.4792	-1.4688	-2.3063	-1.5479	-1.6771	-2.0438	-1.4937	-2.2396	-1.9125	-1.3229	-2.3812	-1.6354	-1.8396	-2.3458	-1.3146	-2.2229	226.214	52.495	87.184	85.094	159.261	13.323	-99.325	237.449	92.992	179.012	237.349	104.386	138.347	-96.963	-21.174	225.889	0.00049299	0.00053103	0.00037606	883.3	8.3068e-06	9.9046e-06	1278.5	362.74	6.2551e-06	2.3218e-06	592.89	278.46	154	74.507	1.3198e-05	136.48	0.0015698	0.0016563	0.00045241	817.11	1.7808e-05	1.7949e-05	1159.9	328.96	1.7915e-05	1.7702e-05	538.46	252.66	142.87	67.495	1.7816e-05	122.68	187.877	25.418	13.654	-90.284	70.429	38.239	-90.977	-86.002	-44.825	165.314	-86.736	-83.185	-82.810	-78.527	3.091	-79.472	-8191	255	
28679.246	1	1	0	0	0.10818	0.43778	0.18663	0.25113	0.33935	0.2919	0.122	0.18061	0.24085	0.084548	0.36102	0.11826	0.32409	0.37246	0.1437	0.38101	-1.4813	-1.3917	-2.025	-1.5938	-1.4167	-2.1917	-1.425	-2.1896	-1.9271	-1.4271	-2.3521	-1.8229	-1.6562	-2.3458	-1.5229	-1.9958	180.201	-61.417	228.559	136.594	-82.928	86.961	233.776	195.072	190.767	251.142	230.983	237.927	189.352	185.452	184.813	171.154	0.00040168	0.00011156	0.0001015	888.56	1.49e-05	1.2233e-05	1274.5	360.21	4.8676e-06	1.3205e-05	587.57	278.65	154.02	74.277	1.626e-05	135.66	0.0015523	0.0016244	0.00044514	818.63	1.7592e-05	1.797e-05	1157	326.75	1.771e-05	1.7947e-05	536.1	252.02	142.29	67.194	1.7827e-05	121.76	194.261	144.281	173.484	-90.670	87.769	-58.815	-90.474	-85.892	86.287	14.396	-86.309	-83.608	-82.637	-78.541	9.169	-79.483	-8191	255	
28679.342	1	1	0	0	0.23268	0.36359	0.097241	0.10718	0.040384	0.22809	0.33582	0.24343	0.068275	0.15608	0.089825	0.082075	0.078479	0.33079	0.04318	0.17494	-1.6375	-1.3708	-2.0812	-1.7396	-1.5479	-2.1833	-1.5812	-1.9958	-1.9583	-1.3792	-2.1562	-1.8833	-1.5354	-2.2542	-1.5646	-1.9604	228.399	-5.380	215.159	254.718	9.170	225.685	237.880	166.723	169.989	29.341	-63.000	-44.143	138.012	237.216	-33.112	212.436	0.0004647	0.0012988	0.00030434	886.45	3.1071e-06	1.0203e-05	1271.6	360.79	1.033e-05	1.2671e-05	585.59	275	152.68	74.099	1.3265e-05	134.9	0.001568	0.0016329	0.00044588	815.65	1.773e-05	1.8025e-05	1153.9	327.15	1.7859e-05	1.7871e-05	533.89	250.69	141.54	66.808	1.8036e-05	121.44	215.506	17.680	48.706	-90.700	89.396	54.435	-90.732	-85.713	86.982	115.852	-86.801	-83.305	-82.681	-78.072	-54.949	-79.510	-8191	255	
28679.439	1	1	0	0	0.199	0.31886	0.30754	0.27349	0.053842	0.10885	0.26256	0.24158	0.29832	0.22777	0.14749	0.37944	0.06227	0.51027	0.14578	0.12708	-1.6917	-1.2271	-1.9937	-2.0792	-1.5396	-2.2062	-1.7833	-1.775	-2.175	-1.4646	-1.9958	-2.25	-1.3708	-2.4313	-1.6479	-1.8208	116.257	239.235	-69.127	-62.916	174.079	138.447	240.431	165.628	121.500	185.192	246.943	247.830	-49.325	211.063	83.071	-98.221	0.00033385	0.00069829	0.00037791	881.47	1.7483e-05	8.5763e-06	1270.7	357.45	6.7969e-06	1.1172e-05	589.26	276.26	153.33	73.756	8.0888e-06	135.41	0.0015735	0.0016573	0.00045962	814.62	1.7772e-05	1.8065e-05	1155.3	325.37	1.8263e-05	1.8421e-05	535.96	250.8	141.71	66.928	1.8591e-05	122.22	206.741	-16.926	46.572	-90.731	82.742	70.291	-91.050	-85.980	108.920	106.212	-86.616	-83.645	-82.603	-78.143	-64.751	-79.649	-8191	255	
28679.535	1	1	0	0	0.16643	0.12212	0.19296	0.01638	0.09281	0.23853	0.35419	0.38231	0.30605	0.29003	0.13679	0.20959	0.054548	0.3015	0.236	0.19887	-1.8271	-1.6021	-1.6917	-2.0479	-1.3708	-2.1271	-1.9292	-1.5833	-2.2479	-1.45	-2.0271	-2.2	-1.5187	-2.3229	-1.7896	-1.7771	151.485	83.729	86.414	253.124	164.420	204.612	244.210	246.354	-16.612	215.781	197.871	227.242	-71.884	241.913	-82.514	198.383	0.00050046	0.00045263	0.00041373	883.18	9.8568e-06	1.3752e-05	1273.8	362.41	5.2881e-06	8.153e-06	589.05	276.8	153.47	74.155	4.7961e-06	136.39	0.0015988	0.0016945	0.00046406	817.07	1.8598e-05	1.8486e-05	1160.7	328.62	1.8671e-05	1.9251e-05	539.24	252.39	142.56	67.191	1.8833e-05	122.71	205.579	247.939	-7.238	-90.653	-34.037	135.976	-90.759	-85.912	39.160	95.302	-86.817	-83.386	-82.485	-78.401	30.863	-79.561	-8191	255	
28679.654	1	1	0	0	0.24663	0.13688	0.24018	0.2396	0.074473	0.14838	0.1848	0.14513	0.19351	0.26974	0.29361	0.12603	0.27752	0.37899	0.075224	0.066369	-1.725	-1.6688	-1.6167	-2.4958	-1.4583	-2.0771	-2.1083	-1.5229	-1.8458	-1.6375	-1.7188	-2.3667	-1.4771	-2.1979	-1.9062	-1.4583	196.088	85.307	-97.019	253.143	-36.732	228.400	148.666	236.009	193.652	251.978	-86.129	185.299	-100.862	228.225	76.808	221.704	0.00029108	0.0008586	0.00059348	878.9	1.7612e-06	3.9417e-06	1265.1	358.65	4.6631e-06	5.1657e-06	584.38	276.55	152.7	73.863	1.5775e-05	134.83	0.0016153	0.0017438	0.0004768	815.92	1.8643e-05	1.8813e-05	1154.7	326.87	1.8333e-05	1.8904e-05	535.54	251.37	141.58	67.008	1.8876e-05	121.54	194.890	80.046	-25.009	-90.830	154.756	252.024	-91.010	-85.710	30.784	-97.346	-86.616	-83.526	-82.256	-78.406	105.550	-79.624	-8191	255	
28679.727	1	1	0	0	0.076801	0.2593	0.35163	0.50043	0.06039	0.16117	0.27406	0.14072	0.20151	0.16798	0.26094	0.18587	0.12485	0.31975	0.22682	0.26954	-1.7708	-1.6875	-1.4396	-2.0625	-1.5083	-1.8521	-2.1792	-1.4104	-2.1146	-1.6917	-1.5396	-2.4562	-1.55	-2.0125	-2.0458	-1.5938	123.267	28.752	205.618	230.175	23.526	36.341	207.607	156.942	117.859	156.348	247.135	217.439	252.863	-81.746	-10.892	198.359	0.00036853	0.00067192	0.00035302	875.97	1.3075e-05	2.6347e-05	1266.1	355.45	4.3202e-06	8.6255e-06	587.6	276.81	152.32	73.318	7.9282e-06	134.67	0.001585	0.0017465	0.00047217	812.86	1.8137e-05	1.8525e-05	1150.5	324.54	1.7916e-05	1.8631e-05	534.46	250.46	141.47	66.69	1.8364e-05	121.04	213.246	131.519	7.242	-90.525	96.993	47.060	-91.128	-85.883	176.220	40.057	-86.621	-83.391	-82.731	-77.955	14.172	-79.956	-8191	255	
28679.846	1	1	0	0	0.1619	0.040542	0.30726	0.056077	0.027837	0.22107	0.062038	0.11193	0.15421	0.1597	0.31671	0.29893	0.31988	0.21386	0.12393	0.19845	-1.7396	-1.6271	-1.3188	-2.1021	-1.4458	-1.8438	-2.2521	-1.4021	-2.0521	-1.9917	-1.6792	-2.4458	-1.7313	-1.7729	-2.3292	-1.6167	254.810	117.708	214.549	49.230	26.064	-31.227	99.530	211.790	37.515	92.741	-59.981	202.751	224.645	206.097	-55.200	187.575	0.00049493	0.0014108	5.7732e-05	882.3	1.4082e-05	1.2799e-05	1271.5	356.37	1.9883e-06	7.1762e-06	587.11	277.87	151.72	73.443	1.315e-05	135.61	0.0015449	0.0016969	0.00046539	815.55	1.8458e-05	1.8273e-05	1153.4	324.66	1.7716e-05	1.835e-05	534.97	251.47	141.22	66.68	1.8195e-05	121.88	210.089	-38.132	21.965	-90.535	39.447	12.884	-91.263	-86.134	-63.812	-11.973	-86.773	-83.506	-82.884	-78.471	43.650	-79.625	-8191	255	
28679.941	1	1	0	0	0.2305	0.058487	0.21869	0.31696	0.22566	0.22143	0.31051	0.22152	0.31323	0.17738	0.2184	0.14226	0.22343	0.18883	0.15161	0.2615	-1.7062	-1.9104	-1.3687	-2.1813	-1.4854	-1.425	-2.2396	-1.4646	-2.0771	-1.85	-1.5063	-2.3854	-1.7479	-1.7271	-2.2625	-1.5938	17.146	144.098	-57.415	215.381	25.351	242.521	253.292	225.920	-43.246	42.901	-84.727	183.056	232.930	242.012	66.966	205.190	0.00048533	0.00088714	7.3059e-05	879.27	3.0884e-06	1.6638e-05	1283.6	357.77	1.0366e-05	7.5279e-06	592.08	277.56	152.81	73.523	1.3778e-05	135.79	0.0015556	0.001664	0.00045826	813.78	1.8248e-05	1.7857e-05	1157.5	325.27	1.7708e-05	1.8223e-05	536.54	252.12	141.66	66.835	1.7856e-05	121.92	206.521	16.411	154.985	-90.555	130.117	9.355	-90.775	-85.902	-14.197	-21.394	-86.594	-83.733	-82.670	-78.083	9.523	-79.709	-8191	255	
28680.037	1	1	0	0	0.17391	0.14221	0.15333	0.21564	0.29336	0.16638	0.36634	0.21383	0.10788	0.034761	0.20614	0.2269	0.139	0.16916	0.24052	0.054017	-1.5708	-1.8375	-1.2938	-2.1688	-1.6583	-1.7687	-2.4917	-1.7354	-1.8104	-1.9604	-1.5646	-2.3729	-1.9667	-1.6958	-2.2875	-1.7458	-18.574	-85.695	59.351	16.500	21.646	18.795	188.647	176.311	-71.175	175.743	207.699	184.844	-70.937	230.128	-30.379	13.206	0.00049063	0.0014554	0.00021875	878.86	4.2412e-06	1.1944e-05	1269	355.52	6.7899e-06	5.7915e-06	581.6	277.41	150.79	73.273	1.5231e-05	134.94	0.0015262	0.0016751	0.00045948	810.45	1.8022e-05	1.7961e-05	1151.4	323.58	1.7651e-05	1.8328e-05	532.09	250.81	140.3	66.419	1.7522e-05	121.18	207.730	-87.439	-37.915	-90.094	44.491	-28.013	-90.650	-86.088	248.293	119.248	-86.491	-83.177	-82.722	-78.323	43.385	-79.397	-8191	255	
28680.135	1	1	0	0	0.19705	0.16421	0.24375	0.15255	0.10747	0.047284	0.24601	0.23939	0.18525	0.32462	0.054527	0.42775	0.24424	0.32466	0.16054	0.30942	-1.4604	-2.2021	-1.2854	-2.15	-2.1167	-1.35	-2.4896	-1.7083	-1.6583	-2.1771	-1.4792	-2.1688	-1.9667	-1.3667	-2.1417	-1.6271	136.572	-103.475	-73.140	30.560	-44.577	44.595	115.944	194.790	-40.593	-84.588	21.328	240.435	-44.106	-69.342	244.161	181.246	0.00028225	0.00090894	0.00034783	882.39	7.9839e-06	1.6382e-05	1269.8	352.86	5.8e-06	1.0532e-05	585.37	277.11	152.11	73.248	5.9623e-06	134.13	0.0015158	0.0016245	0.00045157	809.26	1.7586e-05	1.7692e-05	1150.2	322.32	1.7127e-05	1.736e-05	531.32	250.39	140.37	66.389	1.7089e-05	120.68	191.352	58.200	15.925	-90.662	33.993	30.429	-90.878	-85.839	107.511	-71.772	-86.693	-83.567	-82.875	-78.544	-94.407	-79.791	-8191	255	
28680.256	1	1	0	0	0.23474	0.13679	0.093591	0.1458	0.27429	0.20832	0.26012	0.13461	0.11097	0.14543	0.14165	0.22591	0.34867	0.071044	0.19852	0.36697	-1.1646	-2.2604	-1.4417	-2.0896	-1.8979	-1.4729	-2.45	-1.9125	-1.3583	-2.125	-1.5479	-1.9729	-1.9958	-1.4562	-2.0583	-1.9292	-97.150	196.235	158.004	180.769	45.925	81.981	197.980	-32.817	28.859	-72.179	169.785	238.257	245.192	193.239	81.561	184.702	0.00037675	0.0007177	0.00018253	879.47	6.5951e-06	1.2605e-05	1269.7	355.95	7.1156e-06	9.4434e-06	586.19	279.18	153.05	72.997	9.0506e-06	135.15	0.0014824	0.0016001	0.00044244	809.13	1.7347e-05	1.7464e-05	1151.4	322.55	1.6988e-05	1.6941e-05	533.46	251.59	140.68	66.342	1.6848e-05	121.2	204.080	-42.015	6.718	-90.587	2.045	17.114	-90.873	-86.312	136.145	90.983	-86.533	-83.706	-82.870	-78.647	63.899	-79.724	-8191	255	
28680.350	1	1	0	0	0.10854	0.19562	0.27174	0.042849	0.043426	0.13319	0.13696	0.061607	0.12464	0.055975	0.038613	0.33597	0.11177	0.17657	0.18894	0.14149	-1.2396	-2.1312	-1.4021	-1.9125	-1.9896	-1.4438	-2.2729	-1.7729	-1.3021	-2.0771	-1.4458	-1.9042	-2.1458	-1.6125	-2.1	-2.2604	16.474	217.807	-103.703	220.101	165.741	27.500	148.442	159.830	247.975	44.882	75.425	194.887	172.468	213.995	162.517	213.756	0.00047439	0.0010799	0.000307	882.31	3.8843e-06	1.1841e-05	1277.4	355.77	5.9006e-06	9.4751e-06	592.83	280.31	152.65	74.124	1.3217e-05	137.04	0.0014956	0.0015763	0.00044282	813.31	1.7291e-05	1.7269e-05	1158	324.43	1.7194e-05	1.7145e-05	537.61	253.39	141.8	66.951	1.694e-05	122.68	208.894	-91.573	-28.671	-90.456	-49.269	5.809	-90.773	-85.961	-7.447	23.630	-86.616	-83.730	-82.534	-78.451	41.378	-79.425	-8191	255	
28680.424	1	1	0	0	0.065217	0.025361	0.24622	0.32313	0.084711	0.38743	0.12383	0.17818	0.18546	0.10237	0.17534	0.22205	0.1234	0.31062	0.27319	0.28438	-0.99167	-2.0333	-1.5125	-1.6729	-2.1479	-1.4083	-1.9979	-2.1625	-1.3604	-2.1458	-1.8417	-1.7292	-2.2729	-1.6667	-2.0604	-2.2687	156.025	249.520	253.499	225.273	63.545	-24.199	210.475	225.724	36.415	146.339	-20.663	175.779	-18.458	250.376	225.749	202.313	0.0003281	0.00060941	0.00022397	884.38	3.8724e-06	1.0421e-05	1289.5	356.86	7.9881e-06	1.6998e-05	589.94	279.22	153.64	73.965	4.247e-06	136.39	0.0014787	0.0015452	0.0004456	815.46	1.7213e-05	1.7324e-05	1163.1	325.56	1.7137e-05	1.6942e-05	535.67	252.88	141.6	67.044	1.6867e-05	122.42	230.130	-2.758	19.771	-90.509	-24.176	-6.169	-90.646	-85.720	-61.467	104.432	-86.502	-83.408	-82.628	-78.459	175.988	-79.340	-8191	255	
28680.543	1	1	0	0	0.38006	0.21828	0.18791	0.32526	0.11411	0.17772	0.26814	0.085628	0.1601	0.042509	0.0971	0.16318	0.10187	0.12573	0.12808	0.29705	-0.93958	-1.925	-1.5104	-1.7125	-2.2417	-1.4083	-1.9458	-2.3979	-1.4312	-2.0687	-1.9792	-1.6792	-2.2208	-1.6771	-1.7833	-2.425	178.782	-63.937	-34.051	249.228	41.295	116.614	-102.453	142.979	144.066	122.537	-27.404	-96.303	64.724	169.092	181.893	102.420	0.00034083	0.00036425	9.3668e-05	885.49	7.0765e-06	8.22e-06	1288	358.77	6.6709e-06	9.5064e-06	593.69	280.23	153.54	73.825	6.8375e-07	136.9	0.0014659	0.0015388	0.00044001	815.94	1.6826e-05	1.7348e-05	1160	325.67	1.6754e-05	1.6646e-05	537.29	253	141.79	66.951	1.6765e-05	122.54	201.346	-88.125	5.746	-90.475	49.700	85.750	-90.835	-85.955	49.070	146.923	-86.745	-83.410	-82.831	-78.507	196.048	-79.442	-8191	255	
28680.639	1	1	0	0	0.056106	0.18899	0.092725	0.25727	0.089205	0.064086	0.16311	0.35263	0.038843	0.22218	0.11451	0.23546	0.27201	0.26121	0.332	0.19606	-1.1146	-2.0687	-1.9458	-1.475	-2.225	-1.5875	-1.7875	-2.3792	-1.4146	-2.0438	-2.1229	-1.8083	-2.1917	-1.8021	-1.6646	-2.4021	104.066	222.267	-56.948	-53.217	-61.262	181.780	231.647	186.319	179.644	145.080	166.632	220.771	-82.499	172.379	-27.218	196.763	0.00056877	0.0008214	0.0003057	887.44	6.1164e-06	1.4426e-05	1278.7	359.94	4.5764e-06	1.5107e-05	591.83	281.02	153.07	73.553	3.2034e-06	136.77	0.00146	0.0015343	0.00043869	816.23	1.694e-05	1.7248e-05	1162.2	326.53	1.7285e-05	1.7056e-05	538.22	253.45	141.26	66.841	1.7362e-05	122.67	202.016	-59.363	-94.391	-90.525	45.698	61.776	-90.511	-86.067	14.771	85.261	-86.886	-83.524	-82.629	-78.331	18.947	-79.640	-8191	255	
28680.734	1	1	0	0	0.078236	0.084746	0.070842	0.12549	0.16383	0.048387	0.10224	0.23164	0.26271	0.080344	0.22991	0.14373	0.31079	0.26046	0.039318	0.40043	-1.0667	-1.9521	-2.0625	-1.6146	-2.1521	-1.9937	-1.8083	-2.2167	-1.4583	-1.8396	-2.3854	-1.5312	-2.3375	-2.0854	-1.275	-2.4979	165.254	240.018	53.666	77.692	95.209	-25.169	133.133	255.020	69.919	-86.626	167.175	181.111	224.648	215.029	-3.194	195.203	0.00044925	0.00020685	0.00039172	892.27	1.1046e-05	1.5471e-05	1291.9	360.88	5.3842e-06	1.4533e-05	591.52	280.75	152.71	73.997	1.4318e-05	137.47	0.0015219	0.0015844	0.00045408	819.58	1.7151e-05	1.7928e-05	1164.4	327.95	1.7953e-05	1.7893e-05	541.83	254.59	141.88	67.081	1.8693e-05	123.28	212.926	143.681	18.181	-90.347	54.103	57.762	-90.769	-86.003	18.376	48.828	-86.499	-83.662	-82.509	-78.304	20.515	-79.183	-8191	255	
28680.830	1	1	0	0	0.34598	0.20789	0.056527	0.036663	0.14862	0.059329	0.11097	0.054136	0.30801	0.049639	0.094216	0.15836	0.046086	0.11535	0.090574	0.46417	-1.0292	-1.8479	-2.2	-1.3396	-2.1667	-1.9	-1.7333	-2.5187	-1.425	-1.6229	-2.15	-1.5521	-2.1437	-1.8375	-1.2958	-2.4729	6.480	242.819	104.919	68.553	216.532	245.500	118.359	5.866	113.147	-58.742	211.252	-77.918	186.341	195.827	212.834	177.807	0.0004267	0.0030924	0.0001307	883.61	7.6311e-06	5.2155e-06	1273.5	358.16	4.7875e-06	1.2719e-05	591.29	278.18	151.58	73.609	4.5566e-06	136.31	0.0016539	0.0017706	0.00049958	819.95	1.9088e-05	1.9721e-05	1160.2	327.5	1.9551e-05	1.9146e-05	540.91	252.29	141.2	66.975	1.9063e-05	122.8	216.023	-51.673	112.316	-90.729	14.650	46.254	-91.057	-85.733	-64.782	52.825	-86.772	-83.272	-82.579	-78.131	-38.764	-79.405	-8191	255	
28680.951	1	1	0	0	0.1997	0.13296	0.076519	0.29015	0.12916	0.14292	0.18878	0.36275	0.22958	0.15374	0.13194	0.12427	0.19257	0.24102	0.14893	0.2707	-1.3813	-1.6479	-2.1375	-1.4188	-1.9646	-1.8062	-1.4188	-2.3292	-1.8229	-1.3687	-2.2646	-1.5104	-1.8104	-1.9833	-1.3646	-2.3583	178.749	153.709	11.074	202.055	90.578	127.854	-101.382	224.742	3.579	4.875	156.864	-79.271	-2.617	212.127	109.458	195.697	0.0005235	0.0020307	0.00029984	876.59	9.7598e-06	7.0731e-06	1267.8	356.28	1.2474e-05	1.7841e-05	589.04	277.66	152.77	73.669	7.7827e-06	135.78	0.0016516	0.0017637	0.00048794	813.49	1.8816e-05	1.9418e-05	1155.2	325.35	1.9009e-05	1.9085e-05	538.28	251.44	141.18	66.867	1.8386e-05	121.93	206.152	-1.784	-28.394	-90.925	75.511	-77.614	-90.425	-86.169	62.204	92.152	-86.453	-83.483	-82.561	-78.579	24.297	-79.426	-8191	255	
28681.021	1	1	0	0	0.27565	0.22745	0.19587	0.28348	0.06274	0.2589	0.10655	0.19039	0.1217	0.11966	0.39855	0.24717	0.29736	0.31489	0.16232	0.42914	-1.2542	-1.4125	-2.2208	-1.5938	-1.7854	-2.2479	-1.5625	-2.2354	-1.9458	-1.3271	-2.4021	-1.6917	-1.925	-2.3979	-1.3333	-2.2646	193.813	21.941	166.709	194.846	-94.206	20.694	201.673	10.433	100.290	173.787	249.884	240.418	234.137	250.441	233.725	189.481	0.00041824	0.00060164	0.00029886	875.52	1.1702e-05	1.9352e-05	1279.6	356.92	7.3979e-07	6.221e-06	594.67	279.81	153.05	73.396	1.0062e-05	135.45	0.0016178	0.0016848	0.00046149	814.69	1.783e-05	1.8286e-05	1159.2	326.09	1.7972e-05	1.7988e-05	538.72	252.76	141.41	66.644	1.7839e-05	121.5	198.655	214.756	-25.471	-90.795	8.868	50.617	-90.436	-85.999	24.240	27.319	-86.842	-83.320	-82.421	-78.572	36.540	-79.319	-8191	255	
28681.119	1	1	0	0	0.30414	0.14281	0.059971	0.16771	0.26738	0.27485	0.25708	0.15372	0.22407	0.20871	0.28537	0.33802	0.2205	0.35875	0.16405	0.24362	-1.6875	-1.325	-2.1979	-1.7208	-1.7062	-2.1167	-1.5187	-2.0583	-2.1167	-1.5063	-2.3979	-1.825	-1.8375	-2.5146	-1.3583	-2.1396	188.718	-61.457	78.688	-81.055	-24.407	134.391	217.584	236.363	9.696	168.338	215.606	-89.016	178.398	231.552	73.920	213.120	0.00041105	0.0014509	0.00033687	885.83	4.5015e-07	1.0893e-05	1281.7	363.96	7.4669e-06	6.7659e-06	594.89	284.71	155.53	75.047	1.4019e-05	138.03	0.0015479	0.0016251	0.0004423	817.65	1.7143e-05	1.752e-05	1164.5	328.77	1.7219e-05	1.7017e-05	541.83	256.44	143.15	67.619	1.7075e-05	123.77	212.250	-31.680	-33.526	-90.598	-23.179	12.898	-90.898	-85.845	31.517	22.968	-86.835	-83.428	-82.462	-78.257	-3.350	-79.249	-8191	255	
28681.215	1	1	0	0	0.16503	0.053861	0.074702	0.16284	0.16396	0.21859	0.26219	0.18146	0.21228	0.089992	0.13931	0.099288	0.24489	0.25533	0.19909	0.25206	-1.8	-1.4292	-2.1375	-1.7229	-1.3854	-2.1583	-1.6708	-1.9562	-2.1792	-1.4208	-2.1792	-1.8792	-1.6292	-2.4896	-1.4896	-2.0938	-31.349	-45.807	48.697	-20.245	48.905	-34.477	213.000	255.900	-32.247	-20.053	253.871	-22.929	-75.186	222.380	137.823	126.340	0.00047787	0.0020805	0.0002704	895.95	9.0127e-06	5.5381e-06	1307.4	365.89	8.8733e-06	1.4304e-05	600.19	288.98	157.33	75.668	9.8873e-06	138.83	0.0014876	0.0015649	0.00042588	822.8	1.697e-05	1.7039e-05	1176.5	331.5	1.6803e-05	1.6809e-05	545.48	259.4	144.63	68.157	1.6679e-05	124.54	192.748	-10.253	-3.886	-90.312	54.669	-28.154	-90.611	-85.757	10.692	79.646	-86.549	-83.206	-82.787	-78.171	-60.195	-79.397	-8191	255	
28681.336	1	1	0	0	0.13011	0.14683	0.21801	0.18806	0.24726	0.41352	0.0071186	0.18283	0.1349	0.1609	0.32934	0.098998	0.33464	0.22468	0.19844	0.56178	-1.625	-1.3542	-1.9896	-1.9167	-1.4292	-2.2	-1.6375	-1.8833	-2.1167	-1.2667	-1.9896	-2.0542	-1.4646	-2.2188	-1.6479	-1.7396	-64.989	-89.654	201.509	253.283	21.982	-95.059	121.389	137.618	-3.648	-102.703	229.714	-20.210	245.983	255.466	-80.258	213.373	0.00059974	0.0006992	0.00026943	894.59	8.1002e-06	3.1401e-06	1298.5	365.03	3.633e-06	2.3227e-05	602.89	287.66	157.49	75.55	4.7217e-06	139.75	0.0014698	0.0015255	0.00041926	822	1.6531e-05	1.6485e-05	1169.8	331.09	1.6647e-05	1.6468e-05	544.67	258.66	144.78	68.006	1.6362e-05	124.6	204.884	-54.216	-9.384	-90.098	53.502	214.883	-90.908	-85.870	16.258	53.451	-86.749	-83.569	-82.474	-78.048	16.257	-79.343	-8191	255	
28681.432	1	1	0	0	0.11513	0.15129	0.14291	0.15851	0.13416	0.17849	0.1111	0.2597	0.17998	0.1121	0.14037	0.066814	0.085239	0.34758	0.077808	0.3584	-1.8687	-1.5312	-1.8563	-2.0312	-1.4333	-2.0542	-1.7708	-1.4458	-2.1562	-1.3937	-1.925	-2.2875	-1.3854	-2.1229	-1.6375	-1.7958	99.049	57.449	-22.949	211.949	-3.731	-36.207	200.991	205.701	17.136	-20.792	9.801	253.252	151.060	-78.594	234.553	232.913	0.00033932	0.0006829	0.00030119	899.61	1.8764e-06	1.5015e-05	1295.4	369.12	5.3099e-06	1.1075e-05	607.08	290.55	159.23	76.208	1.6068e-06	139.89	0.0014091	0.0014711	0.0003977	823.83	1.5291e-05	1.5455e-05	1173.1	332.14	1.5329e-05	1.5323e-05	547.39	261.78	145.77	68.376	1.5027e-05	125.18	209.627	1.148	-32.360	-90.485	149.211	28.266	-90.585	-85.925	-14.575	53.285	-86.335	-83.600	-82.906	-78.141	31.255	-79.438	-8191	255	
28681.527	1	1	0	0	0.17382	0.33922	0.22328	0.20839	0.25202	0.11973	0.1803	0.19214	0.17615	0.239	0.16734	0.26468	0.22339	0.21799	0.19515	0.28933	-1.9896	-1.3833	-1.6708	-2.1521	-1.2417	-2.1125	-2.0563	-1.5917	-2.1479	-1.5292	-1.8417	-2.2125	-1.3813	-2.1104	-1.7646	-1.6854	74.982	105.078	85.071	164.748	10.898	-101.522	220.845	225.081	-11.592	103.309	155.802	206.056	253.301	193.842	160.669	230.555	0.00043836	0.00056635	0.00032299	910.89	5.4556e-06	1.1572e-05	1318.9	372.43	5.179e-06	1.8189e-05	610.23	296.23	161.57	77.066	5.659e-06	140.24	0.0012905	0.0013612	0.00037371	830.39	1.4811e-05	1.4695e-05	1184.1	334.92	1.4907e-05	1.5186e-05	550.01	266.36	147.52	68.837	1.5332e-05	125.14	216.553	-21.156	-55.899	-90.544	87.372	177.788	-90.798	-85.961	18.160	34.820	-86.338	-83.415	-82.599	-78.407	31.870	-79.352	-8191	255	
28681.621	1	1	0	0	0.099205	0.13294	0.056067	0.22107	0.25552	0.082836	0.24804	0.239	0.095836	0.21968	0.41388	0.24629	0.30265	0.33282	0.19145	0.54806	-1.9062	-1.5042	-1.7625	-2.0833	-1.3563	-1.7437	-2.2125	-1.5271	-2.1292	-1.7563	-1.5729	-2.4	-1.5417	-2.0646	-2.0792	-1.6521	-32.860	150.756	160.996	207.960	-4.144	134.914	-39.335	-18.757	87.917	-3.972	-80.493	163.274	173.004	218.579	65.068	204.036	0.00035377	0.00048786	0.00015962	918.15	1.8225e-05	1.463e-05	1334	377.42	4.1985e-06	1.7892e-05	614.38	299.03	164.25	77.013	4.7101e-06	140.81	0.001288	0.0013766	0.00037988	835.16	1.4687e-05	1.4591e-05	1197	338.35	1.4448e-05	1.496e-05	552.77	268.31	148.86	69.175	1.5143e-05	125.69	232.607	-16.925	31.106	-90.036	117.451	126.480	-90.622	-86.032	31.309	59.355	-86.394	-83.394	-82.714	-77.926	20.305	-79.148	-8191	255	
28681.719	1	1	0	0	0.08277	0.19423	0.11859	0.40922	0.13033	0.25398	0.16353	0.4775	0.3738	0.20885	0.18862	0.20283	0.10069	0.23973	0.22789	0.40618	-1.7854	-1.6958	-1.4458	-2.1854	-1.2854	-1.6458	-2.4354	-1.5792	-1.9688	-1.8083	-1.5479	-2.4146	-1.6521	-1.9333	-2.15	-1.5917	93.820	40.370	183.754	207.878	-79.993	176.166	143.745	189.629	127.303	136.545	-100.485	221.792	-44.125	-98.692	105.884	201.651	0.00052693	0.00065016	0.00026175	923.74	4.8338e-06	1.7427e-05	1325.8	373.31	6.506e-06	1.0776e-05	614.52	297.69	162.09	76.532	2.9585e-06	140.04	0.0012846	0.0013929	0.00038158	836.67	1.4979e-05	1.5085e-05	1194.4	336.85	1.456e-05	1.5002e-05	552.77	267.53	148.46	68.906	1.5064e-05	125.23	203.911	-50.638	8.550	-90.520	57.619	-2.976	-90.755	-85.943	70.600	-67.046	-86.399	-83.569	-82.638	-78.341	-31.100	-79.464	-8191	255	
28681.814	1	1	0	0	0.044698	0.3008	0.19346	0.12596	0.2258	0.083167	0.079252	0.20819	0.14255	0.11948	0.2251	0.26029	0.26422	0.27347	0.076743	0.21668	-1.75	-1.8479	-1.4604	-2.3292	-1.6104	-1.6479	-2.3312	-1.5271	-1.9646	-1.6812	-1.6896	-2.4437	-1.7417	-1.7583	-2.0938	-1.7479	100.807	103.770	-95.566	-78.008	112.315	-86.941	227.571	208.750	33.377	-5.817	231.908	157.050	161.769	231.488	38.432	126.832	0.00043284	0.00049124	0.00011898	913.12	6.5244e-06	2.4707e-05	1326.7	369.46	5.0747e-06	5.0165e-06	612.19	296.79	162.45	76.083	6.312e-06	139.21	0.0012874	0.0013989	0.00038447	834.09	1.4945e-05	1.4943e-05	1190.3	334.99	1.4613e-05	1.5469e-05	551.59	266.27	148.16	68.459	1.5288e-05	124.85	214.853	13.403	70.359	-90.029	99.090	10.951	-90.507	-85.853	49.368	38.151	-86.163	-83.266	-82.956	-78.213	-4.066	-79.239	-8191	255	
28681.936	1	1	0	131072	0.1103	0.12649	0.17694	0.23929	0.13187	0.15763	0.29217	0.19714	0.13953	0.062516	0.39992	0.31374	0.23964	0.27225	0.074014	0.40313	-1.5667	-1.9646	-1.5187	-2.2562	-1.5729	-1.5042	-2.4104	-1.6167	-2.0563	-1.9438	-1.4854	-2.5979	-1.8813	-1.6208	-2.1292	-1.8375	-94.062	20.096	-66.061	164.603	155.154	237.804	177.014	165.111	-43.816	54.514	253.133	244.749	155.484	236.015	61.755	164.291	0.00054532	0.00036153	0.00047194	915.78	1.2359e-05	7.5919e-06	1322.1	372.39	4.2071e-06	1.0575e-05	614.67	296.29	161.12	76.707	3.4521e-06	140.35	0.0012828	0.0014228	0.00039017	832.54	1.5237e-05	1.5175e-05	1191.9	335.8	1.5032e-05	1.5617e-05	552.74	266.56	148.49	68.99	1.5449e-05	125.57	226.790	-66.503	-45.717	-90.177	49.618	76.720	-90.292	-85.768	63.513	87.950	-86.327	-83.039	-82.864	-78.201	31.433	-79.310	-8191	255	
28682.031	1	1	0	0	0.34857	0.12754	0.06234	0.45426	0.03177	0.17568	0.44365	0.14791	0.27482	0.16903	0.08087	0.37719	0.15917	0.38882	0.12689	0.25813	-1.4104	-2.2458	-1.3542	-2.1	-1.8854	-1.4062	-2.55	-1.7083	-1.5438	-2.1854	-1.4688	-2.3271	-2.0021	-1.5417	-2.3375	-1.8271	241.677	242.265	-85.572	246.821	85.156	-91.258	239.131	182.511	188.140	-64.685	235.646	190.889	-68.797	-82.726	160.453	196.932	0.00045042	0.00039477	0.00030657	924.53	1.4073e-05	9.8213e-06	1329.7	374.42	3.9753e-06	5.1785e-06	615.77	298.32	162.44	76.795	4.723e-06	140.53	0.0013109	0.001434	0.00039029	838.96	1.5655e-05	1.5678e-05	1196.3	337.44	1.5143e-05	1.5849e-05	555.63	267.9	148.58	69.158	1.5397e-05	125.69	209.365	-86.393	-22.007	-90.264	-6.030	20.999	-90.389	-85.846	95.493	7.790	-86.691	-83.295	-82.692	-77.954	253.365	-79.449	-8191	255	
28682.127	1	1	0	0	0.14951	0.33841	0.23942	0.051872	0.10054	0.25526	0.23605	0.19731	0.18858	0.15839	0.16999	0.31305	0.020419	0.20442	0.24557	0.2628	-1.3167	-2.1667	-1.3604	-2.2479	-1.8604	-1.5396	-2.4833	-1.7542	-1.6854	-2.2812	-1.3521	-2.1229	-2.1979	-1.4875	-2.1354	-1.9833	117.600	204.486	75.603	247.525	103.592	194.466	-92.679	-44.134	147.407	-41.915	253.521	211.592	199.032	253.909	-64.506	225.936	0.00047826	0.00065888	0.00033038	917.81	1.4998e-05	1.4707e-05	1313.4	371.71	5.0097e-06	1.2195e-05	609.01	294.73	160.01	76.563	9.224e-06	140.25	0.0013437	0.0014672	0.00040494	838.15	1.6036e-05	1.5981e-05	1189.1	336.01	1.5873e-05	1.5946e-05	551.86	265.56	147.92	68.651	1.5549e-05	125.2	215.826	-75.416	-0.835	-90.310	-3.493	-1.643	-90.157	-85.801	86.327	56.691	-86.257	-83.518	-82.699	-78.188	87.908	-79.619	-8191	255	
28682.248	1	1	0	0	0.11539	0.077711	0.37238	0.28024	0.044177	0.24704	0.36471	0.030035	0.29775	0.12435	0.16023	0.21248	0.17864	0.0678	0.090241	0.27186	-1.1917	-2.1083	-1.4292	-1.9062	-2.0687	-1.375	-2.3333	-2.0104	-1.4667	-2.2625	-1.7875	-2.0187	-2.2042	-1.4917	-2.1417	-2.2687	239.616	-45.935	-94.597	175.982	-41.117	-73.028	156.407	209.711	95.073	159.530	206.302	215.729	255.415	0.297	165.302	203.751	0.00044864	0.0011065	0.00024055	919.25	9.3624e-06	8.6877e-06	1315	368.84	1.0652e-05	9.5532e-06	610.56	294.68	159.51	75.777	8.1553e-06	139.51	0.0013863	0.001466	0.0004084	837.13	1.6256e-05	1.6158e-05	1186	333.99	1.6049e-05	1.606e-05	550.87	265.31	146.41	68.213	1.5927e-05	125.03	216.895	22.223	44.694	-90.372	41.440	-43.465	-90.225	-85.650	46.168	26.737	-86.062	-83.437	-82.559	-78.199	27.522	-79.552	-8191	255	
28682.320	1	1	0	0	0.045973	0.11105	0.037384	0.28716	0.20046	0.22242	0.33064	0.30737	0.32345	0.12828	0.20134	0.38629	0.29361	0.26973	0.40548	0.43941	-0.925	-2.0875	-1.5708	-1.725	-2.15	-1.3792	-2.3104	-2.3229	-1.4729	-2.2562	-1.8104	-1.8583	-2.5062	-1.6417	-1.8271	-2.325	227.831	157.991	-43.624	-66.107	187.041	-64.891	232.594	181.674	-77.108	29.426	87.778	251.691	204.152	224.517	107.786	197.918	0.00029781	0.0010891	0.00028529	908.98	3.1853e-06	5.6836e-06	1320	369.81	1.5792e-05	8.9753e-06	609.24	295.01	160.26	75.975	3.8428e-06	140.3	0.0014155	0.0014706	0.000418	831.4	1.6403e-05	1.6345e-05	1188.9	333.87	1.6252e-05	1.5979e-05	552.63	265.38	146.75	68.42	1.6059e-05	125.96	223.298	-15.235	56.895	-90.117	148.488	97.469	-90.339	-85.736	37.891	-27.968	-86.332	-83.408	-82.760	-78.300	145.671	-79.226	-8191	255	
28682.416	1	1	0	0	0.24639	0.11233	0.037798	0.23402	0.27357	0.24015	0.12021	0.18348	0.15726	0.23267	0.1783	0.27851	0.29171	0.25553	0.26005	0.32356	-0.95417	-2.0667	-1.7188	-1.5604	-2.425	-1.5396	-2.15	-2.25	-1.3604	-2.1833	-1.8438	-1.6688	-2.2833	-1.5104	-1.8333	-2.5687	-53.305	127.389	201.733	-42.220	204.494	254.493	-61.121	205.571	102.176	-17.865	-46.192	217.077	245.960	192.413	108.847	200.205	0.0004355	0.0023786	0.00030931	908.57	4.8048e-06	2.9889e-06	1329.4	373.68	1.9193e-06	9.7241e-06	612.94	296.27	161.9	76.282	1.2803e-05	141.1	0.0014236	0.0014662	0.00041644	835.67	1.6083e-05	1.6701e-05	1196.5	337.2	1.6508e-05	1.6276e-05	555.84	266.62	148.15	68.773	1.6407e-05	126.47	184.663	-25.589	-55.745	-89.702	97.151	93.916	-90.288	-85.631	68.859	13.946	-86.587	-82.982	-82.541	-78.189	37.693	-79.299	-8191	255	
28682.512	1	1	0	0	0.13402	0.40961	0.047816	0.19761	0.26386	0.18221	0.3532	0.18776	0.22634	0.21322	0.13509	0.27366	0.40825	0.12348	0.20658	0.29469	-1.0187	-2.1729	-1.8625	-1.3854	-2.1813	-1.6083	-1.8729	-2.2479	-1.3479	-1.9021	-2.0875	-1.6313	-2.4771	-1.7583	-1.7708	-2.275	-75.184	14.126	-31.257	4.020	31.907	-74.855	186.077	246.234	69.689	187.752	134.906	-100.842	202.863	247.181	-32.437	153.936	0.00048112	0.0003434	0.0003039	909.69	1.0388e-05	1.5542e-05	1318.5	372.17	7.1084e-06	8.6729e-06	613.89	296.36	160.29	75.647	1.5212e-05	140.01	0.0014306	0.0014899	0.00042973	839.03	1.6084e-05	1.667e-05	1192.3	336.31	1.617e-05	1.6288e-05	554.83	265.47	146.71	68.336	1.6403e-05	125.34	199.545	122.210	39.834	-90.147	70.480	36.436	-90.292	-85.607	45.686	-3.786	-86.437	-83.175	-82.303	-78.158	51.365	-79.116	-8191	255	
28682.631	1	1	0	0	0.16237	0.12005	0.061352	0.19649	0.042649	0.29091	0.35047	0.28056	0.10304	0.24464	0.095976	0.12632	0.25071	0.30963	0.27494	0.34673	-1.025	-2.0354	-2.0271	-1.5063	-2.2146	-1.4729	-1.7375	-2.4188	-1.2812	-1.9188	-2.0729	-1.5375	-2.2854	-1.8813	-1.6958	-2.4792	-79.833	180.499	-2.218	107.438	117.372	240.225	140.022	182.737	-93.522	-52.246	-90.790	91.798	226.393	231.825	238.470	207.285	0.00042283	0.00092277	0.00040513	912.14	5.8845e-06	2.3652e-05	1307.8	367.69	4.0884e-06	1.7291e-05	606.65	290.12	157.49	75.157	5.6414e-06	137.5	0.0014323	0.0015048	0.0004372	838.26	1.6335e-05	1.7278e-05	1185.8	333.16	1.702e-05	1.6965e-05	551.45	261.7	144.96	67.804	1.7493e-05	123.74	194.896	-97.072	255.440	-90.225	17.732	90.051	-90.297	-85.599	63.800	47.459	-86.563	-83.214	-82.112	-78.249	91.210	-79.276	-8191	255	
28682.727	1	1	0	0	0.076656	0.212	0.045999	0.39492	0.35577	0.11461	0.13431	0.26731	0.33699	0.077519	0.30877	0.084927	0.25193	0.42003	0.33337	0.27111	-0.94375	-1.8813	-2.0854	-1.425	-2.1458	-1.6542	-1.6354	-2.3396	-1.3937	-1.9375	-2.2979	-1.3146	-2.2104	-2.2146	-1.2792	-2.4813	162.016	57.798	177.917	210.592	-86.426	148.618	248.633	232.394	-70.273	86.848	141.699	234.689	217.118	-94.511	-50.156	175.365	0.00040978	0.00087337	0.00045032	909.81	6.3435e-06	1.1825e-05	1316.6	366.96	6.1089e-06	9.5339e-06	605.62	287.04	157.13	74.267	7.6016e-06	138.16	0.0015331	0.0015946	0.00045578	837.07	1.7098e-05	1.7978e-05	1188.5	331.34	1.7876e-05	1.7797e-05	548.96	260.84	144.57	67.396	1.7746e-05	124	205.960	17.176	-71.094	-90.189	243.532	92.334	-90.666	-86.209	-19.726	23.081	-86.688	-83.482	-82.321	-78.606	149.774	-79.550	-8191	255	
28682.822	1	1	0	0	0.25017	0.25666	0.26178	0.17124	0.24405	0.1605	0.18444	0.049498	0.18925	0.32356	0.070727	0.2136	0.16128	0.2675	0.18934	0.383	-1.1063	-1.5833	-2.0708	-1.3146	-2.0563	-2.0563	-1.5479	-2.3375	-1.6729	-1.7417	-2.3063	-1.7229	-2.125	-2.1292	-1.2833	-2.4521	-75.757	-2.061	225.766	201.575	214.613	8.500	185.625	-38.298	63.234	214.397	-38.539	-81.606	-91.674	222.932	174.985	208.895	0.000442	0.0016791	0.00032785	912.03	6.1183e-06	1.7715e-05	1311.8	367.61	6.6601e-06	1.187e-05	609.62	288.62	157.04	74.486	1.5181e-06	138.62	0.0015411	0.0016019	0.0004536	840.65	1.7185e-05	1.7974e-05	1191.1	333.15	1.7648e-05	1.7853e-05	551.16	261.14	144.94	67.748	1.8172e-05	124.17	219.109	-19.271	-27.337	-90.447	42.165	17.887	-90.691	-85.981	-5.344	62.918	-86.698	-83.340	-82.903	-78.595	32.830	-79.202	-8191	255	
28682.895	1	1	0	0	0.19359	0.21052	0.11177	0.21571	0.046654	0.17363	0.19428	0.19598	0.27553	0.13007	0.23272	0.37238	0.064599	0.24445	0.21207	0.43968	-1.2271	-1.5562	-2.0604	-1.3875	-1.6458	-1.9958	-1.4958	-1.9917	-1.5688	-1.5	-2.225	-1.675	-1.7812	-2.2333	-1.4104	-2.2771	247.862	225.888	225.081	255.034	-55.171	92.075	145.454	170.997	82.473	-61.065	238.570	-85.442	200.458	243.652	116.562	197.628	0.00050512	0.0010943	0.00032324	901.39	5.2517e-06	4.9214e-06	1312.5	365.31	1.3899e-05	8.1386e-06	600.3	285.59	155.09	73.906	1.5863e-06	136.67	0.0015391	0.001595	0.00044929	832.14	1.6807e-05	1.7835e-05	1186.5	330.75	1.7713e-05	1.7656e-05	545.65	259.03	143.24	66.903	1.7931e-05	122.79	200.502	-14.826	20.428	-90.523	27.752	55.472	-90.828	-86.037	35.960	105.785	-86.792	-83.804	-82.907	-78.471	167.641	-79.368	-8191	255	
28683.016	1	1	0	0	0.1599	0.19285	0.09115	0.16134	0.25019	0.13523	0.1405	0.23448	0.099677	0.10515	0.46569	0.46336	0.28583	0.12275	0.24376	0.091166	-1.4417	-1.4875	-2.0271	-1.575	-1.7354	-2.0792	-1.4854	-2.1354	-1.9292	-1.2563	-2.4542	-1.9104	-1.6729	-2.4083	-1.3146	-2.2833	234.932	-64.445	-92.867	-36.747	122.654	141.741	238.659	213.531	183.883	242.226	-92.972	244.245	224.863	244.619	-63.022	184.961	0.00052261	0.0011016	0.00035506	903.53	1.0853e-05	1.2232e-05	1298.6	360.36	6.0881e-06	1.2192e-05	598.54	284.77	153.88	73.66	1.431e-05	135.96	0.0015538	0.0016054	0.0004369	830.09	1.7276e-05	1.7642e-05	1177	327.64	1.7575e-05	1.7572e-05	542.81	257.79	142.32	66.514	1.7455e-05	121.9	209.893	-36.713	15.536	-90.249	24.252	95.757	-90.107	-86.177	-0.385	6.507	-86.542	-83.327	-82.933	-78.523	41.746	-79.347	-8191	255	
28683.111	1	1	0	0	0.24334	0.13234	0.26857	0.11826	0.28826	0.072551	0.11202	0.28286	0.10183	0.11844	0.097676	0.26517	0.10761	0.32772	0.23286	0.28609	-1.5771	-1.3062	-2.1	-1.6812	-1.5562	-2.1604	-1.525	-2.1021	-1.9979	-1.2229	-2.2958	-1.8	-1.6646	-2.4	-1.4229	-2.2687	-29.484	-25.126	-90.561	255.046	-95.574	-34.808	203.268	186.229	40.235	143.283	-31.357	255.557	215.259	166.040	130.517	200.251	0.00034704	0.0011246	0.0003796	899.68	1.2412e-05	6.8721e-06	1305.7	360.12	2.0811e-06	4.761e-06	599.1	284.16	154.27	73.153	6.0847e-06	135.44	0.001528	0.0016172	0.0004402	828.23	1.734e-05	1.7661e-05	1180	327.28	1.7667e-05	1.7316e-05	541.99	257.64	142.5	66.27	1.7429e-05	121.6	208.189	-70.330	6.379	-90.698	-57.011	18.021	-90.511	-85.475	114.296	33.460	-86.647	-83.672	-82.541	-78.291	128.134	-79.440	-8191	255	
28683.207	1	1	0	0	0.063982	0.12376	0.031812	0.1846	0.10445	0.30774	0.37382	0.17081	0.22695	0.15985	0.25917	0.11528	0.27938	0.27586	0.1887	0.17458	-1.6458	-1.3229	-2.1792	-1.9667	-1.3896	-2.2812	-1.8375	-1.9937	-2.2521	-1.3125	-2.1562	-2.0563	-1.4292	-2.2667	-1.5271	-2.1667	193.604	-1.842	249.114	112.619	-64.779	47.549	151.769	212.127	-47.258	139.640	206.568	-100.873	195.765	223.812	93.020	156.342	0.00056601	0.0015501	0.00025036	900.33	2.5812e-06	9.2446e-06	1301.2	359.93	8.8442e-06	4.3176e-06	597.62	282.48	153.47	73.089	6.4838e-06	134.72	0.0015356	0.0016167	0.00044008	828.91	1.7517e-05	1.7461e-05	1178.4	326.39	1.7702e-05	1.7591e-05	540.9	255.98	141.46	66.082	1.7963e-05	121.2	218.772	-40.585	204.885	-90.760	41.783	31.667	-90.686	-85.935	54.941	64.228	-86.369	-83.421	-82.497	-78.346	-1.328	-79.463	-8191	255	
28683.328	1	1	0	0	0.11504	0.057708	0.13264	0.090635	0.080786	0.34592	0.21473	0.13063	0.027802	0.10225	0.16845	0.23868	0.27531	0.12834	0.044001	0.40034	-1.8208	-1.3792	-2.0062	-2.1312	-1.275	-2.0687	-1.85	-1.6771	-2.1729	-1.3146	-2	-2.2562	-1.5708	-2.3729	-1.6146	-1.9333	30.090	-53.746	229.073	-25.265	137.554	9.426	145.936	-99.177	-59.191	-64.126	183.015	180.978	-73.093	233.312	-48.508	204.426	0.00048253	0.0011087	0.0001702	895.45	8.1381e-06	1.078e-05	1292.6	353.91	6.6367e-06	1.9202e-05	588.68	280.99	152.52	72.442	2.1815e-05	135.07	0.0015426	0.001637	0.00044071	823.98	1.7309e-05	1.7408e-05	1168.2	323.14	1.7267e-05	1.7376e-05	535.5	254.22	140.34	65.516	1.7442e-05	121.29	201.633	-38.984	-5.321	-90.392	98.888	10.627	-90.677	-85.643	53.031	59.251	-86.220	-83.304	-82.852	-78.115	18.175	-79.348	-8191	255	
28683.424	1	1	0	0	0.34751	0.030565	0.27978	0.14018	0.31658	0.21447	0.19639	0.23279	0.34144	0.30333	0.32859	0.1834	0.27167	0.12077	0.095094	0.40091	-1.8667	-1.3	-1.825	-2.1437	-1.3729	-2.2896	-2.0187	-1.7167	-2.3688	-1.3542	-2.0125	-2.4062	-1.4417	-2.2375	-1.9271	-1.9021	44.724	200.972	78.472	231.908	58.517	127.737	209.176	246.053	119.858	163.147	-86.579	210.614	-84.790	220.489	243.300	212.661	0.00051568	0.0019474	0.00010663	880.47	1.2317e-05	1.5862e-05	1279.7	355.03	1.3117e-05	2.0354e-05	590.31	280.79	151.88	72.436	5.6594e-06	135.3	0.0014909	0.001585	0.0004315	816.99	1.7341e-05	1.708e-05	1164.2	323.16	1.7076e-05	1.7373e-05	536.05	254.27	140.34	65.591	1.7562e-05	121.04	221.440	-17.470	83.254	-90.327	46.427	-8.787	-90.864	-86.033	58.715	39.546	-86.645	-83.439	-82.888	-78.595	29.791	-79.290	-8191	255	
28683.520	1	1	0	0	0.39263	0.35239	0.019426	0.046101	0.11015	0.29732	0.22897	0.059276	0.15629	0.17736	0.1058	0.29597	0.31618	0.15435	0.21016	0.23441	-1.9312	-1.5521	-1.7812	-2.2188	-1.4979	-1.9438	-1.9708	-1.4833	-2.1688	-1.5562	-1.9562	-2.4458	-1.4521	-2.0521	-2.0125	-1.6458	-56.445	164.443	-92.400	20.603	255.457	-95.173	188.825	-44.760	26.332	114.653	139.327	213.670	-87.178	215.438	40.863	226.473	0.00051263	0.00097588	4.8801e-05	883.11	1.2252e-05	1.1375e-05	1286.8	356.54	2.4474e-06	8.6043e-06	589.86	282.05	151.75	73.223	3.6747e-06	135.88	0.0014796	0.0016202	0.00044896	817.84	1.7604e-05	1.754e-05	1166.3	323.75	1.7397e-05	1.7781e-05	539.25	255.34	140.71	65.941	1.7622e-05	121.88	208.635	43.384	17.303	-90.574	56.686	40.246	-90.966	-86.128	134.405	140.950	-86.738	-83.455	-82.506	-78.148	-45.901	-79.360	-8191	255	
28683.615	1	1	0	0	0.12869	0.17528	0.046056	0.14832	0.12461	0.15007	0.19012	0.28602	0.040269	0.15336	0.10933	0.10411	0.17801	0.031902	0.27136	0.18251	-1.7437	-1.5688	-1.6854	-2.3583	-1.3292	-1.8542	-1.9625	-1.4271	-2.1521	-1.8229	-1.5771	-2.4771	-1.6979	-2.0625	-2.2521	-1.5792	0.180	102.479	23.307	181.792	-99.452	-65.033	179.730	177.353	-30.820	-88.919	152.332	-7.049	11.623	139.743	144.984	216.985	0.00041374	0.00074399	5.8763e-05	897.32	7.1268e-06	1.4022e-05	1298.8	361.4	6.0322e-06	5.633e-06	598.75	286.68	153.61	73.477	1.2685e-05	137.45	0.0014747	0.001592	0.00044038	825.44	1.7102e-05	1.7011e-05	1176.1	326.93	1.6757e-05	1.7537e-05	543.2	258.39	142.14	66.459	1.7285e-05	123.04	215.125	-32.078	164.862	-90.602	34.892	122.884	-90.787	-85.802	61.824	56.049	-86.183	-83.394	-82.557	-78.008	55.732	-79.611	-8191	255	
28683.711	1	1	0	0	0.30851	0.084266	0.10549	0.23813	0.049719	0.10558	0.22746	0.10849	0.30946	0.29032	0.1682	0.29082	0.23292	0.39431	0.084174	0.14747	-1.6792	-1.8062	-1.4292	-2.3708	-1.5042	-1.7146	-2.3292	-1.6104	-2.2438	-1.75	-1.6854	-2.4729	-1.6437	-1.8396	-2.3125	-1.6854	9.269	87.608	163.046	200.816	61.117	75.783	179.109	159.585	-92.427	162.093	199.869	-94.503	238.740	234.723	-87.822	234.656	0.00048116	0.00078272	0.00020904	898.07	2.8103e-06	1.8326e-05	1299	358.68	1.6985e-06	2.0251e-05	596.72	285.84	153.08	73.18	1.175e-05	136.33	0.0014657	0.0016061	0.0004414	824.45	1.7151e-05	1.7325e-05	1177.7	326.69	1.7081e-05	1.7794e-05	542.67	257.56	141.45	66.28	1.7548e-05	122.19	194.688	-53.149	-56.436	-90.420	135.252	41.957	-90.274	-86.198	-46.732	45.331	-86.037	-83.243	-82.651	-77.909	-30.213	-79.208	-8191	255	
28683.807	1	1	0	0	0.11726	0.14486	0.1841	0.086802	0.18427	0.1337	0.047035	0.026543	0.090614	0.03725	0.52725	0.4564	0.32364	0.19526	0.27591	0.29686	-1.6854	-1.8917	-1.3125	-2.4021	-1.5646	-1.7521	-2.5583	-1.6354	-1.9271	-2.0458	-1.3021	-2.3958	-1.8479	-1.8479	-2.2583	-1.5979	129.171	105.936	-61.001	187.752	190.908	129.562	4.723	23.420	-85.637	163.833	237.000	-102.201	246.498	-67.439	138.141	168.522	0.00035034	0.00058233	0.00033594	890.27	2.2152e-06	7.7963e-06	1289.6	356.18	9.5602e-06	1.713e-05	594.14	284.42	151.98	72.845	1.5608e-06	135.79	0.0014929	0.0016264	0.00044221	820.44	1.7554e-05	1.7352e-05	1168.2	324.28	1.6974e-05	1.7665e-05	539.61	256.02	140.62	66.039	1.7017e-05	121.87	211.094	-94.511	63.321	-90.227	208.711	53.396	-90.383	-85.939	149.078	-10.577	-86.482	-83.293	-82.571	-77.933	112.489	-79.316	-8191	255	
28683.928	1	1	0	0	0.10035	0.17815	0.050839	0.11141	0.04835	0.099309	0.26189	0.45451	0.15349	0.24591	0.068094	0.43307	0.086166	0.40811	0.28389	0.59183	-1.5042	-2.0604	-1.2354	-2.3833	-1.9042	-1.3292	-2.3333	-1.6146	-1.9292	-2.0062	-1.4729	-2.2417	-1.8896	-1.8	-2.1667	-1.75	198.426	-13.638	-31.086	115.168	-67.065	-3.431	175.103	232.686	-63.566	45.404	225.431	186.328	184.115	251.636	-66.989	191.881	0.00032762	0.0012247	0.00020806	890.08	6.3664e-06	9.8569e-06	1289.4	357.12	5.3199e-06	9.8461e-06	595.18	283.02	153.49	73.044	9.0806e-06	135.83	0.0014561	0.0016074	0.00043676	817.67	1.7248e-05	1.6869e-05	1165.8	323.36	1.6376e-05	1.6662e-05	538.29	255.75	141.45	65.938	1.6345e-05	122.2	217.897	-60.764	-50.842	-90.104	76.815	53.990	-90.296	-86.077	61.515	72.194	-86.953	-83.808	-82.877	-78.426	27.352	-79.693	-8191	255	
28684.023	1	1	0	0	0.22289	0.32657	0.20416	0.14593	0.20425	0.32155	0.35614	0.30149	0.14346	0.066921	0.26107	0.21446	0.13597	0.30882	0.13071	0.36732	-1.2854	-2.0833	-1.3771	-2.2812	-1.7729	-1.4896	-2.4646	-1.7167	-1.6354	-2.325	-1.5938	-2.1375	-2.1333	-1.5896	-2.2979	-1.7604	-50.376	-23.588	106.684	-99.979	199.868	-36.270	151.018	227.870	231.922	27.485	200.610	-5.598	107.997	219.611	30.622	233.454	0.00048496	0.00036706	0.00049152	891.74	6.7321e-06	1.2553e-05	1302	360.04	1.4484e-06	1.4361e-05	598.82	287.6	155.33	73.468	8.3588e-06	138.02	0.0014168	0.0015038	0.00041732	819.21	1.6531e-05	1.6607e-05	1172.9	326.4	1.6136e-05	1.6519e-05	543.93	259.66	142.82	66.645	1.6083e-05	123.7	204.988	-96.931	25.065	-90.625	72.170	23.172	-90.781	-86.320	-42.327	9.722	-86.750	-83.613	-82.828	-78.590	-25.657	-79.917	-8191	255	
28684.119	1	1	0	0	0.18765	0.067644	0.092943	0.16356	0.19093	0.34572	0.38564	0.23495	0.088936	0.22716	0.16825	0.4485	0.25869	0.06951	0.1387	0.45932	-1.1229	-2.3958	-1.2979	-2	-2.0271	-1.2729	-2.325	-1.6708	-1.6896	-2.2958	-1.5604	-2.1312	-2.1875	-1.525	-1.9854	-1.8146	-5.964	126.040	-57.607	201.988	212.136	-52.154	174.959	137.067	55.132	108.032	209.443	-85.165	226.730	219.868	166.423	214.626	0.00037708	0.0012665	0.00059319	898.43	3.6569e-06	8.5056e-07	1303.2	362.91	7.8884e-06	3.8948e-06	601.08	287.33	154.87	73.866	9.2405e-06	137.5	0.0014169	0.0014897	0.00041917	824.97	1.6683e-05	1.6376e-05	1177.9	328.73	1.6286e-05	1.6391e-05	545.71	260.35	143.2	66.876	1.5789e-05	123.49	197.041	-25.855	-25.869	-90.725	218.825	72.539	-90.990	-86.497	56.025	-11.117	-87.374	-83.760	-83.329	-78.507	39.372	-79.820	-8191	255	
28684.191	1	1	0	0	0.14415	0.37956	0.040867	0.19538	0.15043	0.084173	0.28124	0.10239	0.30655	0.13986	0.09447	0.36115	0.25486	0.18505	0.060874	0.25399	-1.0875	-2.0146	-1.4125	-1.6396	-2.1542	-1.3146	-2.1917	-1.8771	-1.4125	-2.2583	-1.7437	-1.8563	-2.3604	-1.4708	-2.0438	-1.9354	184.791	141.530	106.806	-103.106	163.177	38.402	148.719	9.862	44.783	26.329	227.961	205.080	255.297	245.446	-92.360	-88.101	0.0004452	0.0013549	0.00040512	902.14	1.3467e-05	2.3577e-05	1295.1	360.9	5.1619e-06	1.2053e-05	601.09	287.62	155.08	73.686	1.0041e-05	137.92	0.001432	0.0014901	0.00041655	824.64	1.6378e-05	1.6496e-05	1174.2	327.74	1.6451e-05	1.621e-05	544.57	259.56	142.72	66.631	1.6064e-05	123.55	206.789	-32.220	-2.611	-90.422	-29.453	57.386	-90.826	-86.392	227.391	29.984	-86.952	-83.424	-82.712	-78.624	-3.626	-79.817	-8191	255	
28684.312	1	1	0	0	0.22915	0.13493	0.11551	0.23305	0.046094	0.1572	0.083159	0.11045	0.22554	0.045865	0.18946	0.37264	0.038163	0.36585	0.052912	0.19405	-0.89583	-1.9646	-1.4667	-1.6417	-2.0542	-1.4354	-2.0333	-2.0667	-1.3521	-2.1104	-1.7771	-1.7625	-2.3208	-1.5708	-1.9312	-2.1667	-12.925	135.009	171.233	191.340	-75.477	37.498	241.170	146.919	121.629	88.952	186.235	187.579	110.086	-95.506	-17.173	169.178	0.00045148	0.00062503	0.00066108	896.71	1.0794e-05	5.1465e-06	1297.2	360.56	1.4881e-05	1.4127e-05	602.72	285.96	155.04	73.269	8.8401e-06	138.05	0.0014532	0.0014984	0.00042942	820.51	1.6551e-05	1.6494e-05	1171.2	326.25	1.6436e-05	1.628e-05	543.49	259.29	142.2	66.377	1.6177e-05	123.89	205.750	-41.642	30.425	-90.281	124.414	88.241	-90.991	-86.296	48.358	62.231	-86.707	-83.735	-82.907	-78.889	47.805	-79.859	-8191	255	
28684.408	1	1	0	0	0.27517	0.18535	0.19979	0.26421	0.32101	0.10345	0.25079	0.28467	0.099815	0.19135	0.19492	0.26745	0.29061	0.25025	0.15217	0.32813	-0.92292	-2.0625	-1.8167	-1.6812	-2.2271	-1.5792	-2.0604	-2.2375	-1.3354	-2.0042	-1.8146	-1.625	-2.2646	-1.6104	-1.5208	-2.5458	8.606	21.269	-56.273	231.506	-93.875	87.433	172.671	184.301	134.591	-6.434	192.679	224.711	187.330	231.379	190.370	168.007	0.00034763	0.0015495	0.00029306	897.91	1.2905e-05	1.1491e-05	1301.9	363.06	5.7135e-06	6.155e-07	602.91	291.28	155.61	74.158	8.8338e-06	138.44	0.0014156	0.0014648	0.00042959	822.95	1.6235e-05	1.6561e-05	1176.1	327.32	1.6055e-05	1.5955e-05	546.37	261.67	143.26	66.939	1.5953e-05	124.23	214.065	-0.579	21.124	-90.440	112.429	59.814	-90.475	-86.275	108.064	164.310	-86.965	-83.536	-82.906	-78.609	48.023	-79.739	-8191	255	
28684.506	1	1	0	0	0.24786	0.21037	0.076094	0.15141	0.146	0.055247	0.30057	0.2313	0.25195	0.20863	0.34431	0.13874	0.10494	0.20692	0.31308	0.25091	-0.82083	-2.075	-1.85	-1.5167	-2.1583	-1.6562	-1.7417	-2.1667	-1.2521	-1.9979	-2.1896	-1.4792	-2.3125	-1.7021	-1.5333	-2.2792	-98.472	172.824	-70.394	-91.566	-21.885	69.054	215.772	248.964	229.304	251.216	231.869	213.317	164.482	-81.306	207.764	174.952	0.00035577	0.00041962	0.00013724	908.52	1.0576e-05	2.8958e-05	1320.2	365.86	6.5142e-06	4.624e-06	608.94	292.85	157.26	75.078	7.3924e-06	139.31	0.0013834	0.0014405	0.00042064	830.57	1.5464e-05	1.611e-05	1189.5	330.11	1.5515e-05	1.5465e-05	549.01	263.58	144.29	67.529	1.5639e-05	124.47	215.684	-43.786	-51.095	-90.147	51.710	80.961	-90.680	-86.084	-41.967	81.854	-87.056	-83.447	-82.926	-78.754	-91.923	-79.893	-8191	255	
28684.600	1	1	0	0	0.12785	0.04775	0.30245	0.32842	0.22293	0.14536	0.44131	0.24234	0.14108	0.081387	0.13099	0.24051	0.37433	0.24421	0.23729	0.49672	-0.98125	-1.7229	-1.9042	-1.45	-2.0938	-1.5958	-1.6521	-2.3146	-1.4438	-1.8208	-2.0958	-1.5479	-2.275	-2.0854	-1.3958	-2.4354	209.688	149.188	59.918	104.035	-1.988	134.336	158.450	-80.278	3.723	209.278	220.178	-101.906	233.074	229.335	-79.217	174.444	0.00042265	0.0014747	0.00066803	905.01	7.4936e-06	4.8003e-06	1318.8	367.57	6.152e-06	5.0559e-06	609.94	291.94	157.17	74.633	3.9465e-06	139.87	0.0013589	0.0014064	0.00040715	828.65	1.5149e-05	1.5884e-05	1190.3	330.73	1.5339e-05	1.5353e-05	549.62	263.09	144.1	67.269	1.5587e-05	125.04	224.185	-16.991	21.188	-90.705	-24.341	132.135	-90.839	-86.209	81.501	-48.650	-87.030	-83.660	-83.125	-78.583	107.219	-79.574	-8191	255	
28684.695	1	1	0	0	0.11891	0.10644	0.17096	0.065066	0.15448	0.29855	0.17337	0.19221	0.069256	0.090973	0.24539	0.025054	0.40857	0.22376	0.10142	0.33132	-1.0771	-1.65	-2.1958	-1.2458	-2.0062	-1.8875	-1.4667	-2.4229	-1.4417	-1.65	-2.3583	-1.4458	-2.0229	-2.1229	-1.4	-2.4125	-48.333	-41.007	79.459	215.422	254.386	-42.691	204.360	186.537	121.618	15.841	-91.879	-75.796	252.257	-52.562	-52.274	204.543	0.00048539	0.0015965	0.00036918	901.21	1.1769e-05	1.0579e-05	1310.7	363.65	1.1541e-05	1.1274e-05	607.05	291.23	156.14	74.409	8.0338e-06	140.48	0.0013825	0.0014443	0.00040396	823.7	1.5296e-05	1.6294e-05	1184.4	328.82	1.5863e-05	1.5816e-05	548.68	262.31	143.27	67.199	1.5796e-05	125.2	202.477	8.818	-2.706	-90.684	77.971	31.588	-90.411	-86.139	-13.552	6.875	-86.668	-83.668	-82.845	-78.850	59.728	-79.723	-8191	255	
28684.791	1	1	0	0	0.22745	0.094853	0.16513	0.22387	0.02161	0.0064083	0.11319	0.48939	0.12657	0.1469	0.012872	0.45753	0.14481	0.60037	0.31605	0.044697	-1.1958	-1.4292	-2.15	-1.4417	-1.7979	-2.05	-1.5	-2.4104	-1.5833	-1.4625	-2.2479	-1.5792	-1.9	-2.0667	-1.2729	-2.3708	119.872	133.010	81.970	182.966	196.207	-10.741	214.792	237.293	28.503	5.611	94.588	230.891	137.008	226.422	28.219	-5.281	0.00041821	0.0013903	0.00032563	894.84	1.22e-05	1.0902e-05	1318.3	365.63	8.5719e-06	1.1585e-05	612.39	293.91	158.1	75.186	1.4631e-05	141.56	0.0013801	0.0014436	0.00040071	823.85	1.5208e-05	1.6136e-05	1189.7	329.44	1.5432e-05	1.5704e-05	553.01	264.7	144.81	67.716	1.5384e-05	126.39	211.684	-36.075	-10.976	-90.606	19.242	-14.267	-90.663	-86.234	73.928	26.093	-87.177	-83.765	-82.480	-78.708	-13.210	-79.720	-8191	255	
28684.889	1	1	0	0	0.14682	0.20422	0.29181	0.25014	0.13872	0.038898	0.24256	0.33444	0.057676	0.085019	0.066336	0.056599	0.14399	0.15927	0.22901	0.2166	-1.2896	-1.4	-2.25	-1.3625	-1.5958	-1.9771	-1.3771	-2.2833	-1.6604	-1.375	-2.1479	-1.6625	-1.825	-2.1479	-1.2812	-2.1667	65.057	50.820	-15.565	233.882	49.262	243.533	195.527	191.189	14.463	80.464	-95.844	181.116	217.271	239.944	-41.243	160.541	0.00037816	0.0017069	0.00018358	914.52	7.2595e-06	1.2681e-05	1331.3	368.82	4.3816e-06	8.351e-06	616.02	296.23	159.05	75.75	2.6958e-06	142.1	0.0013557	0.0014232	0.00038709	835.14	1.5169e-05	1.5644e-05	1198.7	333.78	1.5424e-05	1.5107e-05	554.54	267.22	146.12	68.281	1.5151e-05	126.79	204.196	-26.119	-17.438	-90.444	35.149	61.630	-90.614	-86.162	152.739	31.095	-87.265	-83.602	-82.451	-78.849	16.976	-79.692	-8191	255	
28685.008	1	1	0	0	0.2879	0.16559	0.11251	0.2447	0.23966	0.1176	0.083247	0.16094	0.078403	0.1254	0.15748	0.14021	0.25067	0.034328	0.17338	0.086753	-1.4375	-1.4396	-2.1854	-1.5438	-1.5583	-1.9625	-1.5271	-2.1708	-1.9479	-1.2687	-2.3979	-1.8042	-1.6979	-2.3958	-1.5938	-1.9896	112.500	31.311	195.323	168.238	-97.415	-37.405	163.724	145.709	178.125	85.272	215.510	125.339	-26.388	185.980	-8.088	109.336	0.00039322	0.00051112	0.00031772	914.87	8.7019e-06	2.0749e-05	1334	369.74	1.4963e-05	8.6014e-06	618.97	296.53	159.76	75.677	7.1402e-06	141.74	0.0013324	0.0013778	0.00038183	835.81	1.4949e-05	1.5227e-05	1200.1	333.6	1.4994e-05	1.5216e-05	554.62	266.9	145.96	68.142	1.5056e-05	126.47	198.723	-33.370	-29.935	-90.565	128.631	36.593	-90.581	-86.206	0.216	55.851	-86.559	-83.716	-82.979	-78.784	79.842	-79.599	-8191	255	
28685.104	1	1	0	131072	0.32986	0.19992	0.32788	0.15604	0.14493	0.10985	0.094081	0.15509	0.14222	0.19086	0.031838	0.34159	0.14724	0.25823	0.19769	0.11392	-1.4813	-1.0896	-2.1354	-1.8125	-1.3438	-2.0417	-1.5688	-2.0438	-2.0563	-1.3604	-2.225	-1.7417	-1.6146	-2.2896	-1.4688	-2.025	214.292	191.034	169.946	-83.533	-66.743	44.668	74.178	242.246	19.297	191.852	204.124	-93.875	-27.743	98.786	42.215	81.504	0.00038585	0.0011204	0.0002289	909.75	1.0959e-05	9.9209e-06	1337.1	367.55	9.2909e-08	1.2207e-05	618.17	295	158.89	75.145	7.8941e-06	141.32	0.0013458	0.0013949	0.00037868	832.11	1.5002e-05	1.513e-05	1201.1	332.53	1.5225e-05	1.5175e-05	553.91	265.7	145.38	67.627	1.5352e-05	126.26	210.501	4.734	-54.577	-90.962	55.770	84.685	-90.533	-86.126	118.610	165.582	-86.273	-83.891	-83.173	-78.341	246.018	-79.594	-8191	255	
28685.201	1	1	0	0	0.090018	0.29156	0.41639	0.17681	0.01136	0.055103	0.26833	0.12867	0.17778	0.20476	0.24159	0.1961	0.31612	0.29064	0.31753	0.55102	-1.6958	-1.0729	-1.9771	-1.6771	-1.1688	-2.1167	-1.6625	-1.8687	-2.175	-1.3417	-1.9937	-2.1	-1.3813	-2.3833	-1.4667	-1.8	173.062	76.391	-99.298	208.187	132.100	47.550	218.041	175.699	-74.548	206.820	-97.346	-82.521	-58.152	-48.872	-49.143	202.847	0.00043204	0.00070503	0.00024452	907.05	7.0075e-06	1.6467e-05	1329.7	366.77	1.0837e-05	1.9924e-05	614.09	296.71	159.2	75.493	9.3707e-06	141.36	0.0013509	0.0014053	0.00038001	832.81	1.5134e-05	1.5141e-05	1198	332.15	1.511e-05	1.5265e-05	554.2	266.39	145.69	67.732	1.5289e-05	126.57	206.311	-41.284	-51.178	-90.774	26.666	23.790	-90.796	-86.118	64.411	46.931	-86.193	-83.713	-82.844	-78.591	47.871	-79.259	-8191	255	
28685.297	1	1	0	131072	0.26149	0.11573	0.11711	0.11209	0.11396	0.17122	0.13082	0.2174	0.091158	0.1695	0.16871	0.12756	0.14836	0.15776	0.18417	0.4638	-1.9417	-1.1562	-1.8021	-1.925	-1.4312	-2.1229	-1.7667	-1.6833	-2.0333	-1.3042	-1.9042	-2.2854	-1.4646	-2.2958	-1.5771	-1.6542	221.045	103.368	181.233	146.084	-11.247	-84.855	220.664	-89.699	-77.562	245.912	-103.775	225.060	239.022	180.826	-91.520	172.477	0.00039272	0.0014939	0.00041121	919.33	1.135e-05	1.8437e-05	1329.6	371.04	3.2362e-06	4.4978e-06	618.39	296.87	160.53	76.058	5.0456e-06	142.33	0.0013341	0.0013942	0.00038228	838.4	1.5153e-05	1.5004e-05	1203	334.48	1.5372e-05	1.5479e-05	558.45	268.19	146.45	68.3	1.5631e-05	127.23	220.006	-27.678	-51.429	-90.695	86.171	-1.030	-90.820	-85.824	110.397	1.577	-86.211	-83.487	-82.931	-78.344	-98.678	-79.692	-8191	255	
28685.418	1	1	0	131072	0.17925	0.25836	0.021298	0.071392	0.37038	0.15312	0.39618	0.22454	0.033373	0.24931	0.13725	0.16913	0.11452	0.51229	0.17361	0.42456	-1.7938	-1.4042	-1.7104	-2.2104	-1.4042	-2.0854	-1.9042	-1.5729	-2.0229	-1.4479	-1.9396	-2.1583	-1.5625	-2.0854	-1.6833	-1.7333	149.163	168.061	54.925	111.440	204.320	156.346	177.814	222.976	-89.508	170.362	231.209	214.379	-45.211	217.619	239.533	172.635	0.00051606	0.0011674	0.00033868	922.34	1.1968e-05	2.3061e-05	1335.1	372.24	7.6241e-06	8.7935e-06	616.49	297.66	159.39	75.502	5.5457e-06	141.86	0.0013113	0.0014035	0.00038517	835.92	1.4928e-05	1.5025e-05	1201.7	334.49	1.4977e-05	1.5284e-05	556.12	266.63	145.48	67.83	1.5573e-05	126.54	215.304	25.404	-41.713	-90.400	12.917	49.669	-90.562	-86.080	24.432	48.512	-86.667	-83.685	-82.993	-78.533	59.144	-79.371	-8191	255	
28685.488	1	1	0	131072	0.095374	0.17056	0.070842	0.16223	0.17794	0.11024	0.37539	0.1308	0.13734	0.1753	0.13815	0.21338	0.28791	0.28316	0.31108	0.23784	-1.8417	-1.4667	-1.5229	-2.1271	-1.3771	-1.9083	-2.075	-1.4542	-1.9792	-1.4917	-1.6021	-2.4604	-1.4937	-2.1083	-1.9271	-1.5583	136.431	138.134	-72.410	-91.233	84.983	67.841	197.196	221.318	137.605	206.352	-49.911	223.548	241.027	245.659	248.105	223.260	0.00041853	0.00033976	6.3842e-05	906.68	7.2559e-06	1.6203e-05	1330.4	367.82	1.1167e-05	1.5787e-05	613.09	294.63	158.59	75.089	9.6651e-06	141.86	0.0013216	0.001392	0.00039094	832.27	1.5451e-05	1.5145e-05	1196.2	332.57	1.4863e-05	1.5411e-05	554.25	265.2	144.54	67.523	1.5629e-05	125.79	207.531	-72.649	2.744	-90.681	26.990	24.466	-90.548	-86.454	60.642	95.110	-86.619	-83.631	-82.800	-78.624	52.783	-79.871	-8191	255	
28685.607	1	1	0	0	0.15777	0.1084	0.15976	0.38605	0.1733	0.19584	0.072935	0.20989	0.055992	0.21412	0.32218	0.22142	0.36574	0.3159	0.20598	0.17737	-1.4312	-1.6521	-1.1771	-1.9458	-1.2188	-1.5396	-2.3354	-1.4833	-2.2021	-1.875	-1.5	-2.3312	-1.6229	-1.9479	-2.1521	-1.6146	90.272	110.829	70.491	220.892	187.927	222.354	158.434	240.383	-62.806	108.104	-101.842	225.164	255.270	-97.771	-97.406	218.875	0.00047667	0.00078377	0.000111	913.25	4.3012e-06	7.6013e-06	1319.8	366.13	7.3346e-06	8.9465e-06	615.81	296.09	157.16	74.908	1.3628e-06	140.95	0.0013079	0.001413	0.00038679	830.72	1.5416e-05	1.5533e-05	1194	331.54	1.4956e-05	1.5825e-05	553.98	265.62	144.53	67.492	1.5958e-05	125.91	195.032	6.624	63.263	-90.504	43.918	115.173	-90.782	-86.280	-11.716	61.859	-86.580	-83.362	-82.910	-78.285	-28.912	-79.351	-8191	255	
28685.703	1	1	0	131072	0.23091	0.31606	0.2697	0.22175	0.1728	0.1903	0.31198	0.19658	0.61949	0.091267	0.1415	0.10207	0.2193	0.34335	0.040819	0.30417	-1.625	-1.7229	-1.2604	-2.2417	-1.3521	-1.5792	-2.3375	-1.4937	-1.8896	-1.8937	-1.5646	-2.3563	-1.8479	-1.675	-1.8896	-1.6042	219.348	38.269	-17.171	192.527	46.051	36.954	227.377	170.245	61.991	241.048	58.169	239.582	178.529	-60.490	-93.071	141.435	0.00053411	0.00060057	0.00035746	902.11	4.6739e-06	9.2833e-06	1333.8	370.9	2.1627e-06	1.5332e-05	618	296.94	158.94	75.338	8.142e-06	140.82	0.0013413	0.0014679	0.00040466	829.71	1.5632e-05	1.5851e-05	1200.4	333.12	1.532e-05	1.6199e-05	556.68	266.18	145.21	67.842	1.5813e-05	125.9	200.371	50.730	-9.871	-90.870	64.524	-65.119	-90.987	-85.902	102.937	-6.992	-86.463	-83.816	-83.110	-78.538	74.005	-79.371	-8191	255	
28685.801	1	1	0	0	0.064828	0.25193	0.34782	0.24823	0.14448	0.45668	0.20873	0.19506	0.19984	0.34106	0.068325	0.28867	0.22949	0.26112	0.16424	0.27812	-1.5667	-2.0208	-1.1125	-2.2604	-1.5771	-1.6187	-2.4708	-1.6333	-1.7479	-1.9937	-1.4562	-2.3354	-1.9708	-1.7542	-2.1833	-1.6083	14.215	46.995	145.958	170.357	154.279	86.306	196.581	-69.401	-38.505	-74.074	-85.099	221.041	216.074	237.309	172.077	164.040	0.00046091	0.00020572	0.00032604	915.87	1.2164e-05	1.2036e-05	1323.4	365.78	6.2725e-06	1.4761e-05	609.64	292.43	156.34	74.416	1.7776e-05	139.04	0.0013578	0.0014592	0.00040947	833.24	1.591e-05	1.6037e-05	1194.1	330.56	1.557e-05	1.5954e-05	552.98	263.57	143.69	66.949	1.5704e-05	124.64	218.205	-98.248	105.361	-90.037	84.740	-23.031	-90.761	-85.878	65.817	27.687	-86.660	-83.535	-82.844	-78.458	38.918	-79.552	-8191	255	
28685.896	1	1	0	0	0.23607	0.15228	0.10848	0.058717	0.17972	0.1226	0.16238	0.19998	0.28261	0.22985	0.17341	0.17695	0.11018	0.10178	0.22086	0.27151	-1.2458	-1.9583	-1.3042	-2.1	-1.7188	-1.4896	-2.5062	-1.7208	-1.6958	-1.9813	-1.3083	-2.1646	-2.0396	-1.6479	-1.9604	-1.4833	49.124	103.102	-74.126	108.312	51.571	74.218	184.119	191.766	200.518	44.581	-92.597	246.758	244.070	-48.802	-55.577	220.872	0.00044627	0.0006709	0.00026402	897.42	6.6134e-06	1.7644e-05	1307	363.12	7.6443e-06	8.0059e-06	607.91	289.85	154.83	73.486	2.684e-06	138.17	0.0013759	0.0014875	0.00040699	824.24	1.608e-05	1.612e-05	1185.1	327.76	1.5749e-05	1.6235e-05	547.41	260.95	142.17	66.437	1.5894e-05	123.87	211.533	244.694	24.067	-90.240	17.006	14.142	-90.304	-86.092	35.119	84.593	-86.525	-83.291	-82.611	-78.334	130.277	-79.625	-8191	255	
28685.992	1	1	0	0	0.17665	0.22956	0.32907	0.29876	0.16138	0.14002	0.14015	0.24264	0.21437	0.17622	0.32462	0.56663	0.15174	0.13586	0.089463	0.21141	-1.2208	-2.0771	-1.2875	-1.9604	-2	-1.3	-2.2792	-1.5208	-1.7021	-2.0479	-1.4854	-1.9771	-2.1625	-1.7292	-2.2104	-1.7875	-98.971	211.492	238.243	210.511	62.692	-94.868	199.657	220.683	67.516	142.545	-84.509	202.297	-82.051	237.830	-22.957	100.467	0.00054897	0.0017766	0.00034523	901.28	7.6424e-06	1.8718e-05	1311.6	359.54	6.9225e-06	1.6225e-05	604.92	286.58	153.57	73.373	5.0669e-06	138.07	0.001394	0.001497	0.00041188	822.65	1.6194e-05	1.5985e-05	1183.1	325.76	1.6114e-05	1.6026e-05	546	259.72	141.36	66.153	1.5688e-05	123.79	217.576	-26.809	21.598	-90.289	238.037	67.280	-90.578	-86.167	160.131	28.446	-87.069	-83.637	-83.110	-78.565	20.699	-79.663	-8191	255	
28686.090	1	1	0	0	0.24818	0.090684	0.13589	0.18189	0.13022	0.20095	0.17993	0.22884	0.2158	0.043893	0.31694	0.23567	0.22555	0.22797	0.026224	0.045846	-1.1313	-2.3438	-1.2479	-1.7354	-1.8354	-1.2375	-2.2	-1.925	-1.4708	-2.25	-1.6521	-1.9583	-2.15	-1.4667	-1.9292	-2.1979	139.223	145.417	25.406	-63.085	178.349	-76.597	-98.677	215.897	44.145	49.212	188.418	244.206	198.658	230.710	251.029	211.746	0.00038771	0.00012913	0.00038674	903.71	3.812e-06	5.6818e-06	1310.6	361.31	9.0236e-06	1.7323e-05	600.88	290.22	153.81	73.047	2.6254e-06	138.55	0.0013892	0.0014654	0.00040556	824.23	1.6022e-05	1.5956e-05	1183.4	326.58	1.5816e-05	1.5934e-05	547.35	261.14	141.1	66.05	1.558e-05	123.8	219.397	16.631	-37.396	-90.400	133.037	121.941	-90.456	-86.268	27.473	97.618	-87.131	-83.703	-83.063	-78.734	119.922	-79.909	-8191	255	
28686.186	1	1	0	0	0.19359	0.15279	0.30804	0.10789	0.20239	0.12235	0.074573	0.27088	0.14834	0.12485	0.16285	0.21895	0.24014	0.52224	0.2026	0.33202	-0.86875	-2.1146	-1.3646	-1.4833	-2.0438	-1.2125	-2.1375	-1.9646	-1.4438	-2.0333	-1.7333	-1.6083	-2.25	-1.3979	-1.8333	-2.1437	-40.594	11.500	108.018	42.140	101.015	27.514	157.036	207.539	26.224	105.178	188.469	248.837	165.120	233.022	-12.455	199.286	0.00040564	0.0010607	0.00026862	894.48	9.2781e-06	1.1723e-05	1303	359.23	5.1197e-06	1.2992e-05	599.64	288.42	153.67	72.59	5.9052e-06	137.85	0.0013844	0.0014418	0.00040662	818.61	1.5829e-05	1.5779e-05	1177.3	323.6	1.5928e-05	1.561e-05	543.93	259.05	140.49	65.483	1.5693e-05	123	215.744	34.808	-77.688	-90.251	53.703	24.803	-90.391	-86.271	-28.746	63.073	-86.909	-83.326	-82.666	-78.910	182.943	-79.869	-8191	255	
28686.281	1	1	0	0	0.25557	0.10347	0.24595	0.016064	0.11686	0.23591	0.10964	0.1469	0.035785	0.1921	0.22666	0.27561	0.28744	0.35747	0.09329	0.21326	-0.92708	-2.1063	-1.3375	-1.6625	-2.0729	-1.5083	-1.9875	-2.0833	-1.2771	-1.9625	-1.7292	-1.6542	-2.1479	-1.5875	-1.8583	-2.1417	-37.726	66.020	246.843	96.403	-84.023	247.810	237.795	199.414	234.284	13.493	225.224	220.320	206.916	-98.483	161.538	183.697	0.00040403	0.0010776	0.00023401	888.28	1.1629e-05	4.5236e-07	1305.8	354.66	3.886e-06	1.7235e-05	596.42	282.88	150.82	72.134	5.9862e-06	135.82	0.001365	0.0014222	0.00040245	815.78	1.5596e-05	1.5865e-05	1173.4	322.08	1.583e-05	1.5655e-05	540.32	256.31	139.08	65.242	1.5976e-05	121.81	203.401	26.241	66.050	-90.570	9.389	221.992	-90.496	-86.497	76.620	68.895	-86.704	-83.661	-83.104	-78.774	185.790	-79.764	-8191	255	
28686.377	1	1	0	0	0.17222	0.078334	0.10572	0.13002	0.25446	0.28555	0.42496	0.29166	0.33251	0.030484	0.26669	0.041254	0.20499	0.24008	0.05307	0.30752	-0.95417	-1.8687	-1.65	-1.3333	-2.0542	-1.5083	-1.9854	-2.3875	-1.2542	-1.8604	-1.8813	-1.6458	-2.4208	-1.6063	-1.4833	-2.5021	124.236	45.474	19.533	-44.431	107.367	60.756	234.753	187.569	-97.213	68.860	181.214	192.881	250.950	233.513	-5.174	195.369	0.00048527	0.00051492	0.00018909	880.63	6.031e-06	2.5004e-06	1307.4	355.2	3.6873e-07	7.7393e-06	598.09	284.86	151.67	71.631	1.7005e-05	135.96	0.0014063	0.0014445	0.00042175	812.36	1.5901e-05	1.616e-05	1175.7	321.75	1.6028e-05	1.5992e-05	541.42	256.57	139.02	64.876	1.6368e-05	121.98	207.201	77.626	1.706	-90.388	-43.259	-43.950	-90.585	-86.006	44.976	121.873	-87.349	-83.734	-83.189	-78.604	77.985	-79.612	-8191	255	
28686.496	1	1	0	0	0.25631	0.48898	0.1237	0.14529	0.26811	0.077695	0.5384	0.093345	0.071248	0.20003	0.079076	0.28362	0.19559	0.27051	0.14855	0.29623	-0.77917	-1.9854	-1.9646	-1.4813	-2.0312	-1.3583	-1.7042	-2.3625	-1.4542	-1.8208	-2.0146	-1.5958	-2.1688	-1.7542	-1.5521	-2.4771	135.946	68.107	253.280	-83.783	-21.063	213.688	214.142	184.459	106.445	-2.642	111.796	171.502	253.218	248.913	187.097	191.856	0.00053434	0.00089485	0.00027162	896.8	9.4757e-06	8.7134e-06	1301.3	355.96	7.887e-06	2.6472e-06	600.83	286.65	152.93	72.492	2.473e-05	137.99	0.0013999	0.0014976	0.00043059	820.35	1.5955e-05	1.652e-05	1178	322.32	1.6202e-05	1.637e-05	544.86	258.86	140.63	65.564	1.6359e-05	123.06	198.570	-13.001	20.113	-90.522	94.460	77.546	-90.804	-86.183	41.340	103.092	-86.931	-83.854	-83.007	-78.657	19.420	-79.732	-8191	255	
28686.592	1	1	0	0	0.10776	0.11055	0.039817	0.087982	0.06181	0.039777	0.35487	0.39408	0.12284	0.13809	0.2441	0.2467	0.28092	0.17026	0.0958	0.24561	-1.1771	-1.7917	-2.0062	-1.3813	-1.9667	-1.5625	-1.5938	-2.2021	-1.4646	-1.6958	-2.1583	-1.5083	-2.0458	-2.1333	-1.5208	-2.5687	222.491	120.948	185.285	205.246	2.634	103.939	160.689	200.936	205.185	105.404	192.559	201.230	247.014	151.867	243.598	228.290	0.00040701	0.00092047	0.00033273	895.37	7.0541e-06	3.7636e-06	1309.2	358.43	3.3778e-06	1.4024e-05	602.09	287.25	153.08	72.64	1.6725e-05	137.36	0.0014121	0.0014649	0.0004198	818.65	1.5727e-05	1.6271e-05	1182.2	323.97	1.6138e-05	1.5979e-05	543.89	258.7	140.79	65.726	1.5826e-05	122.74	211.166	-81.178	-44.348	-90.681	11.637	114.794	-90.733	-86.131	-47.653	32.535	-87.014	-83.459	-83.056	-78.990	68.983	-79.767	-8191	255	
28686.688	1	1	0	0	0.07127	0.15452	0.2916	0.21022	0.20466	0.17067	0.19433	0.20407	0.068864	0.19368	0.097742	0.11079	0.04211	0.15524	0.062521	0.46569	-1.1562	-1.5625	-1.9583	-1.5167	-1.9021	-1.85	-1.4813	-2.225	-1.6458	-1.4375	-2.3771	-1.6063	-2.0312	-2.2458	-1.2292	-2.2667	149.392	172.304	119.706	160.022	7.014	50.122	188.872	231.069	-60.935	-12.069	-61.385	206.008	2.918	-92.590	153.349	189.466	0.00026544	0.00079276	0.00037527	897.58	8.4236e-06	6.1048e-06	1304	357.61	5.4946e-06	6.4981e-06	603.39	285.94	151.95	72.721	8.4404e-06	136.75	0.0014	0.0014658	0.00040434	822.11	1.5678e-05	1.6225e-05	1179.4	323.36	1.615e-05	1.6057e-05	543.38	258.4	140.03	65.608	1.6037e-05	122.33	226.135	-18.537	-60.672	-90.591	52.139	150.655	-90.649	-86.124	-33.104	179.890	-86.873	-83.573	-82.992	-78.643	33.616	-79.558	-8191	255	
28686.783	1	1	0	0	0.11495	0.3152	0.17129	0.26044	0.17284	0.19921	0.18997	0.090697	0.064577	0.18131	0.28346	0.21164	0.062463	0.12665	0.27141	0.057858	-1.1667	-1.6021	-2.2271	-1.325	-1.8125	-1.9042	-1.625	-2.2188	-1.7313	-1.3937	-2.2771	-1.5729	-1.9104	-2.2979	-1.2521	-2.3479	97.393	-21.100	21.371	245.839	-53.441	25.497	128.732	184.094	97.478	141.419	176.291	165.767	106.444	224.421	-83.715	180.284	0.00064068	0.001013	0.00019142	893.11	1.2245e-05	8.4974e-06	1298.8	357.34	7.9675e-06	1.0409e-05	601.6	286.59	151.19	73.091	1.5024e-05	137.95	0.0013827	0.0014491	0.00040256	818.17	1.5846e-05	1.6148e-05	1176	323.14	1.6197e-05	1.5828e-05	542.18	258.87	139.92	65.586	1.581e-05	122.99	217.662	27.265	-31.613	-90.438	34.903	64.068	-90.944	-86.108	100.789	66.454	-86.836	-83.506	-82.717	-78.634	22.635	-79.757	-8191	255	
28686.881	1	1	0	0	0.18801	0.19669	0.15784	0.20001	0.3121	0.27342	0.09926	0.32886	0.24099	0.35449	0.12997	0.38067	0.24828	0.1584	0.13974	0.44929	-1.2375	-1.3417	-2.0812	-1.6479	-1.7396	-1.9458	-1.5729	-2.075	-1.8229	-1.3625	-2.3271	-1.7667	-1.75	-2.2708	-1.2604	-1.9854	141.899	127.473	-63.903	196.225	224.876	114.730	219.457	214.529	-2.418	-95.052	158.904	228.287	-65.851	112.072	-5.645	161.619	0.00050576	0.0012015	0.00017498	895.98	9.7114e-06	1.1816e-05	1304.4	359.52	8.589e-06	7.4915e-06	607.73	290.41	152.87	72.818	1.0774e-05	138.7	0.0014062	0.0014476	0.00039963	820.47	1.548e-05	1.6215e-05	1180.9	325.39	1.6251e-05	1.6139e-05	546.22	261.79	141.13	65.904	1.5393e-05	124.18	206.091	-46.270	59.493	-90.487	16.350	55.443	-90.962	-86.259	18.590	75.965	-86.599	-83.720	-82.828	-78.660	35.426	-79.486	-8191	255	
28686.977	1	1	0	0	0.16556	0.33667	0.094347	0.20171	0.13813	0.13997	0.27276	0.1504	0.064017	0.0034552	0.17058	0.3111	0.2272	0.18198	0.19766	0.13376	-1.5958	-1.1125	-2.0417	-1.6271	-1.4896	-2.2812	-1.4229	-2.0479	-1.9937	-1.3563	-2.4583	-2.0042	-1.4125	-2.1271	-1.2021	-2.0042	-13.262	165.537	140.157	-90.446	-97.729	9.260	175.127	205.271	255.841	154.804	180.120	-100.864	-102.670	228.488	182.720	227.018	0.00058127	0.001276	0.00038479	900.49	7.0875e-06	1.3696e-05	1317.9	361.71	1.0639e-06	4.9044e-06	609.47	291.55	155.21	73.172	3.7398e-06	137.19	0.0013949	0.0014071	0.00038941	823.74	1.5411e-05	1.5478e-05	1189	326.66	1.5707e-05	1.5551e-05	548.63	262.35	142.38	66.005	1.5735e-05	122.77	222.606	-85.686	-44.853	-90.654	33.724	59.001	-90.968	-86.044	127.198	50.540	-86.913	-83.790	-82.791	-78.685	87.837	-79.613	-8191	255	
28687.098	1	1	0	0	0.15479	0.27784	0.072447	0.080292	0.26381	0.03235	0.41295	0.25289	0.381	0.25772	0.25761	0.075975	0.033326	0.15222	0.11563	0.29539	-1.5458	-1.3	-2.1958	-1.9417	-1.3917	-2.125	-1.6396	-1.8292	-2.1	-1.3563	-2.2792	-2.0312	-1.5729	-2.3583	-1.6146	-1.9729	86.247	-77.468	215.060	-56.696	-87.796	195.980	228.239	201.047	122.527	47.773	183.730	223.464	121.369	172.571	180.025	-74.523	0.00043343	0.00076808	0.00025047	898.68	2.6814e-06	1.3515e-05	1309.2	358.53	4.4525e-06	7.0059e-06	603.92	289.79	154.85	73.437	4.2324e-06	137	0.0013587	0.0014262	0.00038918	824.6	1.5501e-05	1.5547e-05	1184.2	325.26	1.5588e-05	1.572e-05	545.42	261.29	142.13	66.005	1.5452e-05	122.86	216.850	-60.788	254.125	-90.807	103.849	39.746	-90.831	-86.136	30.348	-22.245	-86.211	-83.709	-82.799	-78.630	12.449	-79.647	-8191	255	
28687.193	1	1	0	0	0.19345	0.29915	0.21119	0.17952	0.17627	0.19656	0.081834	0.22529	0.22589	0.029914	0.24688	0.098358	0.062237	0.33901	0.1629	0.37803	-1.6812	-1.3229	-2.0875	-2.0563	-1.3708	-2.1667	-1.6375	-1.7062	-2.1542	-1.4625	-1.9792	-2.1312	-1.7708	-2.425	-1.6292	-1.9083	240.358	218.461	246.015	208.313	-20.765	218.692	-30.016	181.294	-78.379	-31.534	201.688	232.528	208.671	229.097	197.216	-85.305	0.00045722	0.00087877	0.00014322	901.98	1.4656e-05	1.0146e-05	1316.3	358.54	9.5733e-06	2.189e-05	604.09	290.43	154.46	72.882	1.4854e-05	137.04	0.0013444	0.0014031	0.00038549	823.76	1.5507e-05	1.5387e-05	1185.1	324.74	1.5756e-05	1.56e-05	545.12	260.81	141.39	65.542	1.6129e-05	122.35	222.864	-57.305	16.766	-90.497	93.650	111.387	-91.107	-85.895	12.132	70.115	-86.807	-83.532	-83.314	-78.731	60.145	-79.695	-8191	255	
28687.289	1	1	0	0	0.097576	0.22049	0.067445	0.050064	0.15183	0.15105	0.29395	0.27169	0.24733	0.33024	0.37899	0.31136	0.15526	0.33664	0.31551	0.18723	-1.7938	-1.2875	-2.0208	-2.1771	-1.1625	-2.0125	-1.7417	-1.4688	-2.1979	-1.5958	-1.8604	-2.1771	-1.6833	-2.3271	-1.6375	-1.6583	57.679	199.102	240.167	241.784	-34.907	83.898	190.330	-83.488	185.190	-2.945	173.498	196.548	-67.087	246.297	237.488	197.525	0.00053017	0.0015574	8.0609e-05	895.8	6.4085e-06	1.4694e-05	1313.9	356.51	5.3086e-06	7.9575e-06	607.64	287.74	152.85	72.816	1.4348e-05	137.91	0.0013794	0.0014713	0.00040782	823.27	1.6362e-05	1.5997e-05	1184	324.76	1.626e-05	1.6483e-05	549.22	260.53	141.07	65.767	1.6871e-05	123.45	209.622	-34.118	19.063	-90.717	-4.109	31.668	-90.942	-86.068	-9.257	10.287	-86.432	-83.551	-83.261	-78.763	-14.797	-79.722	-8191	255	
28687.387	1	1	0	0	0.030599	0.16053	0.19427	0.23781	0.17403	0.20035	0.19222	0.23941	0.1112	0.1589	0.37406	0.46501	0.36243	0.12149	0.13846	0.2745	-1.5208	-1.2667	-1.5792	-2.2542	-1.3375	-1.8708	-1.9396	-1.5417	-2.075	-1.4937	-1.7708	-2.3208	-1.3396	-2.2333	-1.9354	-1.5896	-34.928	-98.064	-83.554	231.801	65.627	58.158	-86.612	194.796	28.792	202.369	-66.601	209.913	-81.179	209.784	128.809	215.113	0.00050096	0.00085677	0.00025682	905.32	4.926e-06	9.8316e-06	1322.3	361.85	3.9319e-06	1.3975e-05	605.51	289.53	153.29	72.557	7.5551e-06	136.8	0.0014143	0.0015156	0.00041941	827.99	1.6669e-05	1.639e-05	1189.2	326.69	1.6381e-05	1.6709e-05	549.28	260.86	141.12	65.675	1.6972e-05	122.64	212.006	-80.452	-21.744	-90.623	67.419	99.586	-90.900	-86.141	-27.705	30.410	-86.505	-83.912	-82.779	-78.576	12.239	-79.388	-8191	255	
#DATA ENDS
