BOXY.EXE: ISS Imagent and Oximeter Data Acquisition Program Version 0.80
Ascii Record File

#ACQ INFORMATION
2  Detector Channels 
16  External MUX Channels 
1  Auxiliary Channels 
5000  Waveform (CCF) Frequency (Hz)
1  Waveforms Skipped 
30  Waveforms Averaged 
1  Cycles Averaged 
16  Acquisitions per Waveform 
10.0806  Updata Rate (Hz) 

#FILE INFORMATION
TRUE -- External MUX Channel results are PARSED.
FALSE -- AC DC and Phase are NOT grouped.
TRUE -- Companion Program Settings File CREATED.
FALSE -- AC data not excluded
FALSE -- DC data not excluded
FALSE -- Phase data not excluded
FALSE -- Auxillary Chn. data not excluded
Tab delimiters

#CALIBRATION STATE
TRUE -- Waveform Calibration Values APPLIED.


#AUX CALIBRATION VALUES
Val Type	aux-1	

Term	1.0000e+00	
Factor	0.0000e+00	


#WF CALIBRATION VALUES
A = Detector Channel
Val Type	A-AC1	A-AC2	A-AC3	A-AC4	A-AC5	A-AC6	A-AC7	A-AC8	A-AC9	A-AC10	A-AC11	A-AC12	A-AC13	A-AC14	A-AC15	A-AC16	A-DC1	A-DC2	A-DC3	A-DC4	A-DC5	A-DC6	A-DC7	A-DC8	A-DC9	A-DC10	A-DC11	A-DC12	A-DC13	A-DC14	A-DC15	A-DC16	A-Ph1	A-Ph2	A-Ph3	A-Ph4	A-Ph5	A-Ph6	A-Ph7	A-Ph8	A-Ph9	A-Ph10	A-Ph11	A-Ph12	A-Ph13	A-Ph14	A-Ph15	A-Ph16	

Term	0.00000e+00	0.00000e+00	0.00000e+00	0.00000e+00	0.00000e+00	0.00000e+00	0.00000e+00	0.00000e+00	0.00000e+00	0.00000e+00	0.00000e+00	0.00000e+00	0.00000e+00	0.00000e+00	0.00000e+00	0.00000e+00	0.00000e+00	0.00000e+00	0.00000e+00	0.00000e+00	0.00000e+00	0.00000e+00	0.00000e+00	0.00000e+00	0.00000e+00	0.00000e+00	0.00000e+00	0.00000e+00	0.00000e+00	0.00000e+00	0.00000e+00	0.00000e+00	0.00000e+00	0.00000e+00	0.00000e+00	0.00000e+00	0.00000e+00	0.00000e+00	0.00000e+00	0.00000e+00	0.00000e+00	0.00000e+00	0.00000e+00	0.00000e+00	0.00000e+00	0.00000e+00	0.00000e+00	0.00000e+00	
Factor	1.00000e+00	1.00000e+00	1.00000e+00	1.00000e+00	1.00000e+00	1.00000e+00	1.00000e+00	1.00000e+00	1.00000e+00	1.00000e+00	1.00000e+00	1.00000e+00	1.00000e+00	1.00000e+00	1.00000e+00	1.00000e+00	1.00000e+00	1.00000e+00	1.00000e+00	1.00000e+00	1.00000e+00	1.00000e+00	1.00000e+00	1.00000e+00	1.00000e+00	1.00000e+00	1.00000e+00	1.00000e+00	1.00000e+00	1.00000e+00	1.00000e+00	1.00000e+00	X	X	X	X	X	X	X	X	X	X	X	X	X	X	X	X	

B = Detector Channel
Val Type	B-AC1	B-AC2	B-AC3	B-AC4	B-AC5	B-AC6	B-AC7	B-AC8	B-AC9	B-AC10	B-AC11	B-AC12	B-AC13	B-AC14	B-AC15	B-AC16	B-DC1	B-DC2	B-DC3	B-DC4	B-DC5	B-DC6	B-DC7	B-DC8	B-DC9	B-DC10	B-DC11	B-DC12	B-DC13	B-DC14	B-DC15	B-DC16	B-Ph1	B-Ph2	B-Ph3	B-Ph4	B-Ph5	B-Ph6	B-Ph7	B-Ph8	B-Ph9	B-Ph10	B-Ph11	B-Ph12	B-Ph13	B-Ph14	B-Ph15	B-Ph16	

Term	0.00000e+00	0.00000e+00	0.00000e+00	0.00000e+00	0.00000e+00	0.00000e+00	0.00000e+00	0.00000e+00	0.00000e+00	0.00000e+00	0.00000e+00	0.00000e+00	0.00000e+00	0.00000e+00	0.00000e+00	0.00000e+00	0.00000e+00	0.00000e+00	0.00000e+00	0.00000e+00	0.00000e+00	0.00000e+00	0.00000e+00	0.00000e+00	0.00000e+00	0.00000e+00	0.00000e+00	0.00000e+00	0.00000e+00	0.00000e+00	0.00000e+00	0.00000e+00	4.17717e+01	-1.31162e+02	-1.22911e+02	-1.83922e+02	-6.30644e+01	-7.02209e+01	-1.56404e+02	-1.62015e+02	-4.52563e+01	-6.41764e+01	-1.71598e+02	-1.69061e+02	-1.81176e+02	-1.77209e+02	-6.47185e+01	-1.50023e+02	
Factor	6.40346e-05	1.52600e-04	4.19047e-05	1.76566e-01	1.85982e-06	1.60018e-06	1.66977e-01	5.01798e-02	2.39878e-06	1.62312e-06	8.77349e-02	2.88353e-02	2.63990e-02	9.67641e-03	1.83296e-06	1.35945e-02	1.77045e-05	2.95731e-05	8.28597e-06	9.26155e-02	2.88225e-07	3.32224e-07	8.18985e-02	2.64251e-02	2.79175e-07	3.33486e-07	4.47295e-02	1.46946e-02	1.40515e-02	5.14846e-03	3.03169e-07	6.99069e-03	X	X	X	X	X	X	X	X	X	X	X	X	X	X	X	X	



#DISTANCE SETTINGS
A = Detector Channel
A-1	A-2	A-3	A-4	A-5	A-6	A-7	A-8	A-9	A-10	A-11	A-12	A-13	A-14	A-15	A-16	

2.5000e+00	3.0000e+00	2.5000e+00	3.0000e+00	2.0000e+00	3.0000e+00	1.5000e+00	3.0000e+00	3.0000e+00	3.0000e+00	3.0000e+00	3.0000e+00	3.0000e+00	3.0000e+00	1.5000e+00	3.0000e+00	

B = Detector Channel
B-1	B-2	B-3	B-4	B-5	B-6	B-7	B-8	B-9	B-10	B-11	B-12	B-13	B-14	B-15	B-16	

1.0000e+01	1.0000e+01	1.0000e+01	1.4400e+00	1.0000e+01	1.0000e+01	1.5100e+00	1.9400e+00	1.0000e+01	1.0000e+01	1.9900e+00	2.4900e+00	2.4100e+00	2.9000e+00	1.0000e+01	2.9800e+00	




#DATA BEGINS
time	group	step	mark	flag	A-AC1	A-AC2	A-AC3	A-AC4	A-AC5	A-AC6	A-AC7	A-AC8	A-AC9	A-AC10	A-AC11	A-AC12	A-AC13	A-AC14	A-AC15	A-AC16	A-DC1	A-DC2	A-DC3	A-DC4	A-DC5	A-DC6	A-DC7	A-DC8	A-DC9	A-DC10	A-DC11	A-DC12	A-DC13	A-DC14	A-DC15	A-DC16	A-Ph1	A-Ph2	A-Ph3	A-Ph4	A-Ph5	A-Ph6	A-Ph7	A-Ph8	A-Ph9	A-Ph10	A-Ph11	A-Ph12	A-Ph13	A-Ph14	A-Ph15	A-Ph16	B-AC1	B-AC2	B-AC3	B-AC4	B-AC5	B-AC6	B-AC7	B-AC8	B-AC9	B-AC10	B-AC11	B-AC12	B-AC13	B-AC14	B-AC15	B-AC16	B-DC1	B-DC2	B-DC3	B-DC4	B-DC5	B-DC6	B-DC7	B-DC8	B-DC9	B-DC10	B-DC11	B-DC12	B-DC13	B-DC14	B-DC15	B-DC16	B-Ph1	B-Ph2	B-Ph3	B-Ph4	B-Ph5	B-Ph6	B-Ph7	B-Ph8	B-Ph9	B-Ph10	B-Ph11	B-Ph12	B-Ph13	B-Ph14	B-Ph15	B-Ph16	aux-1	digaux	

1372.401	1	1	0	256	0.10047	0.2614	0.26802	0.11475	0.049116	0.16513	0.1112	0.074876	0.080501	0.17249	0.18111	0.030133	0.21907	0.18544	0.14271	0.031788	-2.9354	-3.7771	-2.9146	-3.6292	-3.6479	-3.0604	-4.0792	-3.3542	-3.2979	-3.8396	-3.1917	-3.6167	-3.7604	-3.0271	-3.6854	-3.3167	207.360	365.051	496.992	369.715	428.322	259.267	487.428	480.635	296.228	354.364	457.779	513.711	183.570	345.374	348.509	454.223	0.00091462	0.00062908	6.1995e-05	1172.3	1.2614e-05	8.5127e-06	1254.9	234.1	6.9712e-06	2.8954e-06	295.51	82.327	66.505	18.788	5.5783e-06	26.087	0.0051322	0.008193	0.0022955	1195.6	8.0421e-05	9.3668e-05	1272.1	241.68	7.8902e-05	9.3104e-05	308.41	86.912	70.453	20.649	8.3734e-05	28.719	374.039	267.831	337.531	171.222	284.558	246.308	171.027	178.379	300.566	366.502	178.130	184.878	185.118	192.644	283.259	192.062	-8191	255	
1372.497	1	1	0	0	0.14152	0.057448	0.12483	0.155	0.15343	0.24524	0.35169	0.26574	0.19237	0.10369	0.10862	0.075186	0.17755	0.047149	0.16507	0.11829	-2.7708	-3.8854	-3.0583	-3.55	-3.6646	-2.9375	-3.8125	-3.2938	-3.0729	-3.8333	-3.0521	-3.6604	-3.6208	-3.0125	-3.6208	-3.5479	366.509	417.652	402.841	187.706	312.539	253.068	476.965	448.070	443.216	446.201	516.183	364.444	185.990	278.023	393.926	287.043	0.00069465	0.00043634	0.00023748	1175.8	8.1589e-06	4.995e-06	1253.8	234.75	9.4798e-06	2.9905e-06	295	82.205	66.217	18.73	3.1498e-06	26.035	0.0050456	0.0081409	0.0022852	1196.6	7.9814e-05	9.1433e-05	1270.6	241.71	7.7879e-05	9.1242e-05	308.32	86.694	70.173	20.579	8.3226e-05	28.649	381.666	232.870	238.205	171.415	224.072	274.094	171.317	178.545	279.040	377.096	178.387	184.453	185.224	192.312	456.299	191.668	-8191	255	
1372.594	1	1	0	0	0.1656	0.10812	0.16106	0.34286	0.038121	0.2119	0.34136	0.07568	0.18447	0.10792	0.17791	0.34891	0.20739	0.17699	0.23625	0.13613	-2.7292	-3.8063	-3.1458	-3.4708	-3.7958	-3.0604	-3.9021	-3.4083	-3.0833	-3.7542	-3.2396	-3.4292	-3.9354	-3.1437	-3.6562	-3.6854	311.170	310.344	383.737	451.955	281.636	403.282	449.711	488.166	224.135	474.769	462.940	429.891	503.380	208.752	386.409	489.604	0.00097682	0.0005635	6.5233e-05	1176.1	7.0001e-06	8.0974e-06	1251.5	233.75	1.3576e-05	4.8176e-06	296.19	82.737	65.909	18.72	6.0624e-06	26.146	0.0050211	0.0079765	0.0022799	1194.9	7.9288e-05	8.9946e-05	1270.4	240.58	7.4794e-05	8.8368e-05	308.31	86.671	69.891	20.57	8.0213e-05	28.634	361.848	223.830	321.217	171.484	358.965	353.701	171.415	178.698	332.843	501.411	177.424	184.525	185.358	192.873	269.915	191.797	-8191	255	
1372.690	1	1	0	0	0.13524	0.044726	0.19174	0.096912	0.14233	0.075219	0.26431	0.16381	0.17369	0.08359	0.2163	0.14575	0.029661	0.19125	0.070678	0.066047	-2.6958	-3.7229	-3.1875	-3.2479	-3.6437	-3.0729	-3.6479	-3.6667	-2.8458	-3.7583	-3.3146	-3.1833	-3.7687	-3.1104	-3.4667	-3.6771	209.823	431.393	264.996	482.535	325.162	269.636	472.816	380.597	203.562	348.432	292.900	183.901	221.883	464.543	421.747	433.238	0.00099917	0.00088941	0.00022857	1175.4	6.4746e-06	7.5202e-07	1250.7	233.39	6.8403e-06	5.5382e-06	294.15	82.187	66.178	18.858	8.2712e-06	25.921	0.0049548	0.007891	0.0022139	1193.3	7.7937e-05	9.0127e-05	1267.6	240.58	7.625e-05	8.8723e-05	306.74	86.572	70.159	20.577	8.2787e-05	28.562	364.308	208.659	291.804	171.332	292.612	331.694	171.190	178.309	349.141	251.118	177.848	184.265	184.620	192.084	324.364	191.343	-8191	255	
1372.786	1	1	0	0	0.15839	0.28326	0.12958	0.051517	0.22274	0.063804	0.27369	0.44066	0.22043	0.20818	0.15881	0.08994	0.072124	0.045894	0.11742	0.038387	-2.625	-3.7521	-3.275	-3.2229	-3.7938	-3.0792	-3.6292	-3.5896	-3.1333	-3.6729	-3.5396	-3.2188	-3.9188	-3.2167	-3.3729	-3.6875	258.968	388.055	173.208	214.577	395.522	399.301	477.628	475.379	261.253	431.277	487.730	497.153	460.544	256.987	252.261	167.822	0.00094953	0.0003776	3.9293e-05	1171.4	7.563e-06	6.5004e-06	1258.5	233.25	9.6544e-06	3.7291e-06	293.27	81.809	65.432	18.702	1.9269e-06	26.03	0.0048683	0.0079137	0.0021882	1192.4	7.6785e-05	8.7763e-05	1267.4	240.57	7.408e-05	8.8017e-05	306.48	86.087	69.663	20.481	7.7815e-05	28.457	359.583	508.970	445.679	170.682	346.841	303.881	170.915	177.962	321.169	307.458	177.940	184.885	184.757	191.956	299.277	191.797	-8191	255	
1372.906	1	1	0	0	0.1801	0.12237	0.074194	0.021711	0.16395	0.1284	0.29715	0.25099	0.061086	0.032965	0.029917	0.37587	0.17743	0.076473	0.066846	0.075908	-2.6625	-3.5583	-3.2438	-3.2354	-3.7313	-3.2083	-3.3833	-3.8438	-3.0625	-3.525	-3.7562	-3.1354	-3.6	-3.2771	-3.2125	-3.9208	404.603	338.234	392.462	194.341	403.351	290.868	442.932	453.681	346.299	269.729	292.270	198.787	487.781	405.389	497.510	516.659	0.00085253	0.00042001	0.00019563	1170.4	8.9109e-06	5.8305e-06	1243	232.61	3.8688e-06	6.0495e-06	291.81	81.794	65.534	18.632	1.564e-06	25.932	0.0046982	0.0075514	0.0020988	1187.7	7.3338e-05	8.4547e-05	1263.6	240.01	7.1513e-05	8.4619e-05	305.27	85.887	69.629	20.445	7.7191e-05	28.412	346.383	196.237	207.838	171.220	278.834	249.219	170.892	178.300	311.475	287.706	177.931	184.465	184.638	192.237	272.755	191.141	-8191	255	
1373.003	1	1	0	0	0.30895	0.2091	0.09478	0.3024	0.090946	0.064478	0.16205	0.12276	0.17956	0.22786	0.10217	0.30065	0.13082	0.02193	0.23506	0.15841	-2.6	-3.3958	-3.6208	-3.2521	-3.7375	-3.3146	-3.4771	-3.9417	-3.05	-3.6104	-3.7167	-3.1437	-3.95	-3.3771	-3.1854	-3.9813	418.417	320.649	275.305	492.026	419.091	434.836	369.879	466.268	444.746	410.117	396.921	168.822	514.139	477.132	493.509	365.454	0.0010009	0.00016244	8.298e-05	1167.7	5.495e-06	7.2011e-06	1246.2	232.68	1.0635e-05	1.474e-06	290.78	81.887	65.653	18.861	3.8274e-06	25.839	0.0047252	0.0076153	0.0021284	1185.9	7.3284e-05	8.3857e-05	1262.6	239.25	7.058e-05	8.4679e-05	305.07	85.83	69.471	20.406	7.4145e-05	28.299	375.338	199.680	303.032	170.931	342.986	260.837	171.055	178.083	360.684	370.800	177.966	184.411	184.694	191.836	343.451	192.059	-8191	255	
1373.074	1	1	0	0	0.093952	0.16193	0.10261	0.32648	0.23572	0.17861	0.12986	0.17243	0.05038	0.10805	0.39195	0.21403	0.089176	0.28635	0.0445	0.12662	-2.6083	-3.4333	-3.7208	-3.0833	-3.6646	-3.2313	-3.3917	-3.8396	-3.2313	-3.4062	-3.6979	-3.1125	-3.6125	-3.6042	-3.1167	-3.8688	361.822	187.170	334.386	447.129	282.912	473.335	496.705	467.507	182.910	185.799	519.751	237.277	231.286	172.810	448.917	281.284	0.00076915	0.00049455	5.2374e-05	1165.9	7.5763e-06	2.0325e-06	1242.2	232.95	1.2236e-05	4.4911e-06	291.49	81.45	65.679	18.827	4.8926e-06	26.023	0.0045583	0.007366	0.0020731	1184.9	7.3331e-05	8.4122e-05	1259	239.72	7.1382e-05	8.5213e-05	305.34	85.794	69.581	20.462	7.7734e-05	28.498	375.016	180.365	335.251	171.033	363.228	404.692	170.997	178.206	286.811	218.754	177.707	184.513	184.882	192.371	278.127	191.641	-8191	255	
1373.195	1	1	0	0	0.19238	0.19062	0.094748	0.40062	0.12037	0.11521	0.26576	0.23947	0.15191	0.14113	0.18303	0.23123	0.19084	0.21651	0.077277	0.26806	-2.6312	-3.2354	-3.6167	-3.1354	-3.6875	-3.4521	-3.0896	-3.7833	-3.0771	-3.325	-3.8417	-3.0187	-3.5146	-3.575	-2.9833	-3.6667	455.331	519.098	301.787	514.412	352.971	170.331	397.751	512.758	503.329	239.096	477.054	436.701	218.301	483.448	260.935	390.630	0.00080928	0.00016849	0.00016594	1163.2	6.4354e-06	4.5062e-06	1243.6	233.36	8.726e-06	5.0359e-06	291.65	81.409	65.858	18.796	3.7728e-06	25.843	0.0046941	0.0076021	0.0021271	1183.4	7.3789e-05	8.4739e-05	1261.8	240.13	7.1e-05	8.3383e-05	304.75	85.829	69.492	20.383	7.6913e-05	28.346	363.493	470.663	230.412	171.185	344.279	225.966	171.062	178.461	346.047	354.759	178.067	184.725	185.000	192.184	299.904	191.739	-8191	255	
1373.289	1	1	0	0	0.14921	0.11133	0.20693	0.16921	0.074995	0.059454	0.35658	0.19459	0.06745	0.074609	0.1603	0.065118	0.0428	0.10748	0.19486	0.15024	-2.8125	-3.1667	-3.7396	-3.2479	-3.5583	-3.6729	-3.0229	-3.7833	-3.3312	-3.2354	-3.8875	-3.1604	-3.4729	-3.6708	-2.8688	-3.9562	169.651	289.301	177.927	494.896	195.428	201.027	490.347	170.129	259.891	377.808	490.734	168.481	374.249	192.997	493.481	171.720	0.00084292	0.00078554	0.00017461	1167.2	1.9709e-06	5.9121e-06	1247.8	234.16	8.1583e-06	1.3343e-06	291.81	81.309	65.745	18.732	6.445e-06	25.898	0.0047453	0.0075676	0.002102	1185.3	7.3532e-05	8.3551e-05	1261.4	239.83	7.0918e-05	8.3488e-05	304.62	85.895	69.55	20.422	7.6626e-05	28.414	369.458	217.428	225.710	171.233	309.889	394.001	171.082	178.711	303.636	439.917	178.275	184.298	185.420	192.326	429.576	192.218	-8191	255	
1373.385	1	1	0	0	0.24033	0.12028	0.10154	0.41004	0.2225	0.17114	0.21191	0.11684	0.14992	0.077463	0.1079	0.13711	0.065763	0.23234	0.15406	0.053051	-2.9188	-3.2771	-3.7521	-3.2438	-3.4479	-3.6979	-3.0833	-3.8583	-3.5896	-3	-3.7458	-3.0854	-3.3438	-3.7021	-3.0521	-3.4521	171.735	327.235	485.495	445.695	442.238	373.538	443.260	490.785	416.112	286.878	516.752	184.553	412.750	513.340	487.845	423.296	0.00082923	0.00031897	7.1913e-05	1165.5	6.0687e-06	4.1158e-06	1243.3	232.02	1.5188e-05	5.3959e-06	290.86	81.59	65.949	18.528	4.1284e-06	25.838	0.0046363	0.0073768	0.0020878	1182.1	7.3139e-05	8.2354e-05	1260.6	239.25	7.0756e-05	8.2976e-05	304.38	85.613	69.406	20.312	7.4737e-05	28.346	357.811	433.938	197.800	171.347	174.683	373.802	170.973	178.836	342.115	377.506	178.187	185.127	185.343	192.333	222.579	191.907	-8191	255	
1373.506	1	1	0	0	0.23764	0.36907	0.12057	0.070674	0.21547	0.11669	0.095698	0.35633	0.14443	0.12528	0.083282	0.11378	0.09689	0.34898	0.088521	0.12603	-3.0417	-2.9979	-3.7438	-3.175	-3.275	-3.6562	-3.3167	-3.5458	-3.6479	-2.8271	-3.7667	-3.3104	-3.325	-3.875	-3.1854	-3.7375	395.173	316.174	365.386	196.748	276.748	448.428	502.678	483.540	245.726	406.095	235.881	201.817	509.618	443.639	439.032	449.766	0.0011	0.00047809	9.7856e-05	1167.1	8.8788e-06	3.084e-06	1238.5	231.37	1.4467e-05	3.8487e-06	291.34	81.638	65.434	18.722	5.2408e-06	25.965	0.0044873	0.0073251	0.0020399	1184.8	7.061e-05	8.0442e-05	1255.7	238.62	6.922e-05	8.2762e-05	304.07	85.645	69.395	20.335	7.6199e-05	28.367	367.729	179.820	313.159	171.532	269.822	299.876	171.557	179.132	337.814	347.662	178.572	185.408	185.343	192.923	249.450	192.280	-8191	255	
1373.602	1	1	0	0	0.11967	0.34404	0.084684	0.24774	0.16579	0.085966	0.18459	0.33979	0.15713	0.27983	0.32217	0.13677	0.24959	0.062275	0.066279	0.058247	-3.2	-2.8354	-3.6292	-3.4771	-3.0792	-3.7396	-3.3292	-3.5687	-3.7188	-3.1604	-3.9479	-3.3125	-3.2562	-3.8563	-3.0854	-3.35	497.286	224.383	398.342	485.341	437.394	335.251	411.268	454.981	393.865	375.590	474.089	354.359	391.407	165.252	190.863	359.549	0.0011177	0.0003413	7.6074e-05	1160.1	2.034e-06	3.44e-06	1242.9	231.98	3.14e-06	2.7353e-06	292.81	81.23	65.347	18.728	3.9361e-06	26.005	0.0046054	0.0074949	0.0020716	1180.3	7.28e-05	8.2468e-05	1257.4	238.8	6.8386e-05	8.2161e-05	304.28	85.371	69.12	20.28	7.46e-05	28.262	383.896	236.918	235.422	171.732	264.138	318.776	171.312	179.204	194.604	428.795	178.124	185.076	185.725	192.773	332.128	192.737	-8191	255	
1373.698	1	1	0	0	0.018778	0.053295	0.18057	0.096895	0.12411	0.16431	0.16499	0.05854	0.017842	0.020103	0.17042	0.20293	0.18841	0.092718	0.025896	0.18411	-3.4458	-2.8937	-3.8125	-3.7083	-3.0854	-3.7875	-3.2833	-3.3833	-3.8937	-3.0104	-3.5812	-3.5938	-3.0875	-3.7854	-3.2208	-3.2604	390.424	193.026	376.215	250.347	339.178	294.782	455.663	435.446	370.564	201.645	507.440	405.342	436.639	426.953	436.471	191.197	0.0011311	4.0774e-05	0.00019901	1161.9	2.5841e-06	7.9721e-06	1239.2	232.36	5.2186e-06	3.3036e-06	290.78	81.997	64.966	18.609	6.4654e-06	25.852	0.0044892	0.0072866	0.0020491	1179.5	7.0062e-05	8.0492e-05	1253.3	238.66	6.8429e-05	8.1468e-05	303.71	85.332	68.959	20.33	7.4705e-05	28.301	360.127	284.341	280.475	171.698	231.241	415.576	171.579	178.779	484.453	318.504	178.771	185.024	185.979	193.142	250.921	192.708	-8191	255	
1373.795	1	1	0	0	0.10351	0.17716	0.075856	0.14081	0.27164	0.23708	0.30825	0.18156	0.19112	0.17047	0.24641	0.15199	0.18683	0.26862	0.066546	0.28334	-3.2771	-3.1396	-3.4875	-3.5708	-2.9875	-3.5917	-3.6417	-3.2208	-3.8083	-2.9708	-3.4417	-3.5625	-2.975	-3.7083	-3.2917	-3.2042	238.271	489.587	314.591	169.271	242.516	302.681	483.051	422.510	442.747	415.544	479.566	421.433	191.669	400.484	342.487	391.577	0.0007565	0.00053599	0.00016726	1163.3	4.052e-06	1.7901e-06	1238	232.59	9.9332e-06	2.3365e-06	290.05	80.956	65.656	18.663	9.9836e-06	26.054	0.0045291	0.0072748	0.0020536	1179.9	7.2053e-05	8.3329e-05	1254.2	238.18	6.9277e-05	8.2291e-05	302.87	85.309	69.146	20.307	7.415e-05	28.268	369.195	236.886	344.899	171.867	345.133	371.236	171.727	179.010	330.799	236.359	178.492	185.162	185.869	193.173	332.202	192.425	-8191	255	
1373.891	1	1	0	0	0.30737	0.18744	0.15122	0.13041	0.32022	0.046091	0.071365	0.25774	0.19052	0.046297	0.18411	0.049222	0.11001	0.11814	0.10634	0.068163	-3.3875	-3.0667	-3.3021	-3.7479	-2.8958	-3.5	-3.6042	-3.2271	-3.9875	-3.1917	-3.4875	-3.7	-3.0312	-3.9042	-3.5125	-3.1417	441.783	499.249	379.603	182.729	294.302	308.325	473.663	193.003	426.038	516.227	399.337	427.974	344.851	167.392	519.201	199.000	0.00075421	0.0004313	0.00013391	1160.8	4.3227e-06	1.0701e-06	1239.7	231.32	9.7837e-06	1.971e-06	289.38	81.403	65.267	18.605	5.1431e-06	25.884	0.0044891	0.0072433	0.0020196	1178	7.0046e-05	7.9111e-05	1254.5	237.32	6.6415e-05	7.7946e-05	301.87	85.162	68.86	20.183	7.1098e-05	28.138	351.633	337.977	306.454	171.984	381.726	371.772	171.568	178.932	347.932	207.298	178.759	185.255	185.714	193.079	375.629	192.852	-8191	255	
1373.987	1	1	0	0	0.14304	0.23099	0.23996	0.28744	0.15433	0.16144	0.2043	0.18651	0.19559	0.19172	0.19954	0.24685	0.16541	0.18066	0.18534	0.15889	-3.4562	-3.1437	-3.2958	-3.8042	-2.9833	-3.7208	-3.8521	-3.0729	-3.7417	-3.1146	-3.4437	-3.8812	-3.0854	-3.6646	-3.6562	-3.0708	487.725	422.520	196.081	517.854	223.271	351.641	445.079	406.283	425.782	168.874	208.771	481.327	463.145	500.053	285.465	428.947	0.00077462	0.00080553	4.5414e-05	1161.6	5.6794e-06	6.3808e-06	1240.5	231.42	7.0177e-06	5.9138e-06	290.53	80.999	64.931	18.66	2.6298e-06	25.774	0.004368	0.0070612	0.0019524	1176.9	6.7863e-05	7.6884e-05	1251.6	236.86	6.5812e-05	7.8843e-05	302.53	85.081	68.83	20.278	7.2358e-05	28.087	347.244	257.363	171.309	171.981	298.818	285.393	171.846	179.399	414.952	270.954	178.860	185.488	185.849	193.110	494.153	192.195	-8191	255	
1374.106	1	1	0	0	0.22948	0.045961	0.11471	0.022252	0.23903	0.25551	0.30466	0.11395	0.073797	0.13297	0.026209	0.1696	0.25845	0.16524	0.26951	0.18316	-3.4458	-3.1125	-3.0208	-3.7958	-3.025	-3.7104	-3.7146	-3.0625	-3.7479	-3.2542	-3.1813	-3.7104	-3.1688	-3.3875	-3.6167	-3.1813	297.994	483.201	306.279	380.147	402.753	327.369	467.018	377.174	352.687	175.536	340.826	420.703	305.885	448.098	383.902	519.946	0.0012586	0.0010667	9.3829e-05	1157.6	8.9542e-06	4.6809e-06	1240	231.5	7.418e-06	4.1294e-06	291.31	81.181	65.028	18.609	9.5072e-06	25.797	0.0043392	0.0070312	0.0019762	1176.9	7.0316e-05	7.9579e-05	1252.6	237.14	6.6305e-05	7.9781e-05	301.76	85.069	68.724	20.165	7.1978e-05	28.113	370.589	269.287	344.337	172.091	247.990	257.357	171.713	179.151	355.057	418.584	178.866	185.228	185.855	192.881	252.111	191.969	-8191	255	
1374.202	1	1	0	0	0.13598	0.177	0.21802	0.099433	0.071771	0.14795	0.08924	0.070563	0.15933	0.15443	0.2219	0.12395	0.12535	0.11485	0.085606	0.068946	-3.3563	-3.2646	-3.0687	-3.8229	-3.2292	-3.4167	-3.9979	-3.1188	-3.6521	-3.5312	-3.2792	-3.8104	-3.0687	-3.2729	-3.6562	-2.9	214.825	393.666	283.882	184.181	475.007	389.394	360.248	473.550	351.085	473.403	217.523	379.045	195.400	395.469	384.957	376.467	0.00090995	0.00044585	6.8136e-05	1154.9	2.4248e-06	9.1712e-07	1237.4	230.3	1.1785e-05	2.0208e-06	291.13	81.264	64.811	18.565	3.5441e-06	25.727	0.0043571	0.0068924	0.0019412	1173.6	6.7813e-05	7.7575e-05	1250.3	236.92	6.7149e-05	7.8082e-05	301.85	84.935	68.706	20.152	7.0779e-05	28.079	377.431	287.421	278.478	171.676	429.221	176.594	171.686	179.066	269.585	270.247	178.794	185.301	185.674	192.896	243.515	192.814	-8191	255	
1374.298	1	1	0	0	0.18635	0.21317	0.31612	0.24284	0.14385	0.081934	0.23587	0.12519	0.2497	0.18523	0.1504	0.11111	0.21917	0.18498	0.24681	0.22139	-3.15	-3.5958	-3.0771	-3.7771	-3.2208	-3.2667	-3.8167	-2.9292	-3.4542	-3.6021	-3.075	-3.6146	-3.1979	-3.175	-3.9604	-3.1437	499.167	315.856	452.567	185.996	290.582	174.098	420.667	169.620	258.196	358.264	465.605	385.859	173.086	400.889	248.896	417.277	0.00095291	9.3506e-05	0.00018806	1160.7	5.6574e-06	1.7957e-06	1236.9	230.5	5.3936e-06	5.5783e-06	288.36	81.012	64.604	18.595	2.7838e-06	25.947	0.0043561	0.0069211	0.0019159	1175.7	6.7833e-05	7.597e-05	1250.7	236.81	6.5496e-05	7.7535e-05	300.97	85.052	68.524	20.175	6.924e-05	28.097	356.231	324.369	245.314	172.087	249.455	319.515	171.487	179.059	339.141	260.993	178.773	185.184	185.237	192.914	316.375	192.367	-8191	255	
1374.370	1	1	0	0	0.068282	0.24899	0.037293	0.24953	0.052928	0.087591	0.12707	0.2298	0.24715	0.088513	0.064811	0.07865	0.07963	0.1153	0.13906	0.18702	-3.3167	-3.6437	-2.9813	-3.8583	-3.3333	-3.1896	-3.9167	-3.1437	-3.45	-3.7146	-3.0563	-4.0167	-3.3438	-3.0958	-4.0042	-3.1562	229.960	508.340	276.832	481.830	384.675	221.457	338.443	510.973	168.846	161.896	452.952	217.742	463.232	383.400	182.616	494.771	0.0011219	0.00029141	0.00014536	1158.8	3.412e-06	2.7007e-06	1238.4	230.66	2.3514e-06	1.1744e-06	287.33	80.732	65.182	18.66	7.2065e-06	25.916	0.0041919	0.006665	0.0018921	1174.8	6.7e-05	7.6968e-05	1248.8	236.25	6.5529e-05	7.608e-05	300.14	84.76	68.461	20.161	6.8228e-05	28.063	358.314	197.839	274.177	171.525	318.187	259.323	171.319	178.714	287.499	418.144	178.148	185.516	185.149	193.011	209.821	192.215	-8191	255	
1374.468	1	1	0	0	0.069871	0.14772	0.035781	0.16774	0.13295	0.061627	0.26968	0.2673	0.17119	0.13581	0.18654	0.32208	0.15242	0.13182	0.027729	0.11349	-2.8854	-3.5667	-3.0542	-3.7646	-3.4938	-3.1375	-4.0021	-3.2313	-3.3604	-3.7875	-3.0125	-3.5625	-3.5479	-3.0792	-3.7542	-3.2208	313.868	350.135	400.752	442.734	428.055	218.405	445.898	390.831	307.248	397.093	284.603	496.245	252.498	378.029	434.495	464.394	0.00063214	0.00036439	8.9897e-05	1160.2	1.5804e-05	9.6222e-07	1236.9	230.27	1.2604e-05	5.7782e-06	289.59	81.626	65.234	18.563	4.5687e-06	25.744	0.0042412	0.0067145	0.001875	1174.3	6.594e-05	7.5488e-05	1248.9	236.28	6.4421e-05	7.6471e-05	300.93	85.037	68.398	20.154	6.9798e-05	28.039	372.811	284.077	190.977	171.655	284.057	433.017	171.376	178.845	327.618	260.915	178.272	185.107	185.240	193.168	317.491	192.222	-8191	255	
1374.586	1	1	0	0	0.25706	0.15052	0.094255	0.34681	0.12869	0.036072	0.048412	0.24498	0.2095	0.22065	0.15754	0.10971	0.0087751	0.16188	0.23494	0.26314	-2.9042	-3.8667	-3.1292	-3.6896	-3.4771	-3	-3.7875	-3.2438	-3.2146	-3.6771	-3.2375	-3.6333	-3.6271	-3.0375	-3.6625	-3.2729	180.374	289.535	200.027	460.793	336.103	305.057	279.947	468.630	478.703	327.095	446.083	476.188	215.133	416.712	444.384	454.454	0.00095374	0.00041772	0.00011636	1158.4	1.8531e-06	6.1323e-06	1230.1	230.46	6.7961e-06	2.5683e-06	288.9	81.047	64.929	18.748	4.5089e-06	25.868	0.0041862	0.0066395	0.0018518	1173.2	6.4462e-05	7.3792e-05	1246	235.94	6.2308e-05	7.4556e-05	300.69	84.583	68.344	20.139	6.9475e-05	27.935	365.277	251.218	509.689	171.920	250.933	299.461	171.373	179.006	346.954	345.595	178.521	185.301	185.642	192.878	271.487	192.647	-8191	255	
1374.683	1	1	0	0	0.094854	0.010534	0.16608	0.16332	0.15694	0.080477	0.19576	0.13317	0.089204	0.19289	0.16666	0.2702	0.16815	0.25964	0.14125	0.31996	-2.8083	-3.7271	-2.9542	-3.6437	-3.7146	-3.0667	-4.0292	-3.5104	-3.0542	-3.9042	-3.1542	-3.3812	-3.6437	-3.0896	-3.4688	-3.4708	464.662	254.166	391.048	506.749	379.082	310.000	465.224	389.893	338.007	394.586	452.637	203.993	506.290	495.863	263.065	178.566	0.0011205	0.00034137	5.542e-05	1160.2	1.5818e-06	3.628e-06	1236.3	229.78	2.3227e-06	4.3068e-06	288.29	81.112	65.031	18.51	2.1878e-06	25.92	0.0042713	0.0069425	0.0019309	1174.1	6.8405e-05	7.8243e-05	1246.5	236.32	6.67e-05	7.7888e-05	299.65	84.901	68.542	20.164	7.1904e-05	28.069	363.533	513.991	305.474	172.066	261.593	376.946	171.527	178.862	399.766	235.434	178.752	185.376	185.604	192.901	230.352	192.179	-8191	255	
1374.779	1	1	0	0	0.12886	0.092797	0.12978	0.32012	0.15046	0.36969	0.53567	0.14213	0.25209	0.10501	0.11482	0.10703	0.2033	0.24158	0.19128	0.17217	-2.7313	-3.7896	-3.1396	-3.3167	-3.7	-3.0104	-3.7208	-3.5854	-3.0062	-3.8208	-3.2167	-3.4062	-3.8729	-2.9437	-3.6646	-3.6167	277.215	358.809	397.439	453.980	505.374	293.394	460.947	491.943	398.562	354.288	441.677	250.104	482.937	413.877	161.816	428.566	0.00099098	0.00021876	6.6647e-05	1159.9	6.6248e-06	5.4099e-06	1235.5	229.64	1.5604e-05	3.736e-06	288.53	81.125	65.561	18.629	3.0402e-06	25.805	0.0043107	0.0068861	0.0019318	1173.2	6.6678e-05	7.7291e-05	1248.9	236.11	6.5939e-05	7.7914e-05	300.43	84.893	68.514	20.172	6.867e-05	27.945	366.655	211.622	340.955	172.070	340.565	250.881	171.724	178.984	372.245	314.104	178.668	185.421	185.707	193.316	287.735	192.303	-8191	255	
1374.875	1	1	0	0	0.17135	0.13129	0.30144	0.14243	0.24796	0.16565	0.12922	0.18754	0.16315	0.26901	0.11619	0.071549	0.21105	0.11844	0.19795	0.2255	-2.5375	-3.6896	-3.0979	-3.1125	-3.6708	-3.0521	-3.5667	-3.6208	-2.8333	-3.7542	-3.4625	-3.1292	-3.7729	-3.1958	-3.4729	-3.7354	431.863	277.207	422.585	380.962	258.843	435.135	459.616	421.234	414.788	369.541	241.327	366.558	181.649	480.085	262.231	474.635	0.00096443	0.00035864	7.8279e-05	1154.3	1.0265e-05	6.4304e-07	1236	230.41	1.3008e-05	8.3523e-06	288.21	81.315	65.114	18.573	4.0378e-06	25.864	0.0041987	0.006588	0.0018713	1171.8	6.4649e-05	7.435e-05	1245.8	235.9	6.1737e-05	7.2871e-05	299.13	84.623	68.379	20.086	6.6519e-05	27.965	379.749	229.827	265.060	172.352	293.856	259.468	172.091	179.089	305.166	367.647	178.665	185.826	186.100	193.065	242.123	192.783	-8191	255	
1374.994	1	1	0	0	0.14013	0.20358	0.12791	0.18459	0.23177	0.27011	0.11935	0.2239	0.074415	0.20592	0.13427	0.26537	0.24166	0.13243	0.25369	0.15156	-2.5958	-3.6188	-3.3708	-3.2375	-3.7958	-3.1625	-3.5521	-3.7917	-3.0896	-3.925	-3.5458	-3.2521	-3.8563	-3.1625	-3.2958	-3.9208	353.347	501.606	510.889	374.352	373.063	433.976	382.851	188.189	252.736	216.678	373.413	404.433	455.851	415.761	279.987	308.350	0.00076365	0.0003204	6.3202e-05	1155.3	3.1121e-06	7.6032e-06	1236	230.41	7.8702e-06	1.1364e-06	287.65	81.08	64.389	18.459	2.5433e-06	25.925	0.0040329	0.0066044	0.0018149	1172.3	6.4505e-05	7.304e-05	1245.2	235.27	6.2989e-05	7.3901e-05	299.8	84.578	68.09	20.027	6.7918e-05	28.005	371.781	246.480	486.924	172.084	254.948	390.895	171.871	179.282	368.657	238.775	178.373	185.456	185.248	192.686	196.343	191.939	-8191	255	
1375.067	1	1	0	0	0.25416	0.076515	0.12706	0.22503	0.10513	0.024128	0.063938	0.19342	0.3164	0.28556	0.18122	0.021457	0.18602	0.12611	0.062065	0.16457	-2.4979	-3.6854	-3.525	-3.1979	-3.6271	-3.2812	-3.4458	-3.9417	-3.0938	-3.5625	-3.6896	-3.1271	-4.0437	-3.2479	-3.2396	-3.6667	203.609	472.280	333.452	180.601	363.616	318.111	459.568	472.046	426.497	168.098	459.633	226.998	172.213	180.200	364.929	438.253	0.00082481	5.7396e-05	0.00013163	1150	9.5592e-06	2.6826e-06	1229.3	229.95	1.0814e-05	4.1134e-06	287.27	80.847	65.18	18.471	5.8318e-06	25.817	0.0040958	0.0067299	0.0018247	1169.2	6.3893e-05	7.2003e-05	1243.5	235.13	6.0476e-05	7.1955e-05	299.64	84.451	68.287	20.028	6.7119e-05	27.837	358.388	500.885	231.494	171.610	308.276	374.007	171.356	178.982	296.158	282.326	178.579	184.962	185.507	192.792	260.604	192.151	-8191	255	
1375.188	1	1	0	0	0.18741	0.046034	0.20211	0.041141	0.035473	0.126	0.17906	0.2021	0.12905	0.17253	0.036181	0.16584	0.081476	0.15249	0.30482	0.19317	-2.6167	-3.5104	-3.5333	-3.2208	-3.7188	-3.4521	-3.2313	-3.7687	-3.1021	-3.4083	-3.7146	-2.9417	-3.7292	-3.4021	-3.0271	-3.8396	506.012	172.391	423.775	473.521	421.287	360.123	501.267	465.491	235.073	184.412	311.583	277.712	247.243	177.337	178.431	435.915	0.00084807	0.00030407	3.0829e-05	1158	3.749e-06	7.4218e-06	1224.9	229.89	1.0578e-05	2.5012e-06	286.04	81.323	64.881	18.652	2.3838e-06	25.697	0.0040328	0.0063769	0.0017959	1171.1	6.1887e-05	7.1259e-05	1241.3	235.26	6.0846e-05	7.1815e-05	298.08	84.554	68.28	20.059	6.6315e-05	27.971	356.985	210.198	224.874	171.627	308.310	312.322	171.204	178.334	311.063	208.353	178.314	185.190	185.638	192.541	231.958	192.122	-8191	255	
1375.282	1	1	0	0	0.014758	0.0080769	0.12085	0.1668	0.26208	0.097248	0.23372	0.15493	0.14517	0.18304	0.30873	0.21743	0.15305	0.19285	0.33207	0.18597	-2.6729	-3.3042	-3.8042	-3.2083	-3.6708	-3.5563	-3.1729	-3.8063	-3.2667	-3.3083	-3.6792	-3.0833	-3.6917	-3.7	-2.8438	-3.8083	193.049	494.293	342.731	199.166	252.990	252.906	486.021	438.533	386.378	262.356	445.157	170.887	213.860	247.726	390.750	462.997	0.00075989	0.00075709	0.00016973	1149.1	6.1835e-06	9.6614e-06	1234.3	229.9	4.5052e-06	4.8271e-06	289.12	80.26	64.836	18.526	5.6786e-06	25.811	0.004015	0.0064629	0.0018015	1166.8	6.3471e-05	7.2002e-05	1242.9	235.38	6.1334e-05	7.3167e-05	299.05	84.129	68.07	20.001	6.4772e-05	27.839	368.159	250.958	185.139	171.501	287.990	356.180	171.347	178.686	307.438	307.952	178.277	184.914	185.656	192.933	365.611	192.348	-8191	255	
1375.378	1	1	0	0	0.19646	0.14862	0.20911	0.0098446	0.18617	0.2683	0.083171	0.37512	0.14721	0.19008	0.21431	0.1442	0.14912	0.04429	0.16726	0.055116	-2.9229	-3.1625	-3.7979	-3.0417	-3.4938	-3.6167	-3.0333	-3.9042	-3.1896	-3.1667	-3.8229	-3.2333	-3.5583	-3.6271	-2.9542	-3.7687	401.836	497.152	210.077	372.991	231.527	486.416	441.054	455.977	448.906	206.261	180.734	186.924	463.550	299.795	515.159	398.944	0.00085047	0.00046304	0.00011524	1152.4	1.8229e-06	5.2241e-06	1227.8	229.38	2.0426e-06	1.7699e-06	287.62	80.626	64.469	18.341	8.2128e-06	25.769	0.0039559	0.006289	0.0017287	1165.7	6.1784e-05	6.9589e-05	1240.8	234.8	5.8637e-05	7.0003e-05	297.87	84.126	67.746	19.902	6.3105e-05	27.794	369.186	256.499	253.364	171.747	173.424	350.711	171.460	179.110	408.232	259.126	178.520	185.168	185.426	193.168	346.269	191.964	-8191	255	
1375.475	1	1	0	0	0.055151	0.084905	0.1639	0.10575	0.058862	0.19713	0.11985	0.3577	0.15735	0.11835	0.10209	0.24701	0.20772	0.13169	0.17054	0.25134	-2.7542	-3.0312	-3.6208	-3.1688	-3.4354	-3.7021	-3.1958	-3.9125	-3.4729	-3.1271	-3.8854	-3.0458	-3.4313	-3.6917	-2.9437	-3.7125	376.702	438.069	466.652	499.522	310.116	300.299	460.475	486.062	362.627	174.359	385.922	405.451	518.701	206.597	480.093	393.684	0.00072563	0.00060392	8.569e-05	1148.7	1.0481e-05	7.097e-06	1226.4	229.25	1.3361e-05	8.9572e-06	287.06	80.131	64.704	18.357	4.4161e-06	25.388	0.0038626	0.0061697	0.0016933	1163.8	6.0456e-05	6.7592e-05	1238.7	234.12	5.7833e-05	6.8605e-05	298.01	83.936	67.83	19.868	6.2327e-05	27.719	364.247	226.236	279.388	171.647	311.779	354.744	171.374	178.921	325.280	268.406	178.705	185.286	185.583	192.904	317.885	191.973	-8191	255	
1375.595	1	1	0	0	0.08496	0.28117	0.14338	0.35227	0.11214	0.16221	0.28712	0.29547	0.17851	0.12906	0.090541	0.044264	0.095848	0.14668	0.35861	0.034766	-2.9708	-3.0854	-3.9042	-3.3896	-3.3563	-3.7646	-3.1375	-3.6979	-3.5167	-3.0333	-3.9313	-3.4417	-3.1875	-3.7354	-2.8896	-3.75	332.745	432.947	488.395	488.802	470.598	221.824	491.143	490.594	332.823	365.826	515.440	465.353	404.763	520.951	465.263	203.190	0.00079405	0.00031198	7.9927e-05	1146.5	8.5705e-06	4.967e-06	1225.1	228.5	1.2004e-05	5.262e-06	283.94	80.389	63.839	18.317	9.0235e-06	25.445	0.0038334	0.0060635	0.0016944	1164.5	5.9922e-05	6.8134e-05	1236.6	233.79	5.7327e-05	6.8568e-05	296.86	83.858	67.633	19.858	5.9199e-05	27.655	374.807	230.261	224.483	171.602	260.845	224.694	171.666	178.945	309.978	307.542	178.839	185.219	185.629	192.795	345.085	192.263	-8191	255	
1375.667	1	1	0	0	0.068606	0.16362	0.21732	0.31585	0.35874	0.24432	0.034229	0.13472	0.24859	0.2209	0.31801	0.10899	0.11851	0.14873	0.10807	0.034298	-3.0896	-2.9729	-3.7125	-3.4125	-3.2667	-3.7896	-3.2396	-3.6146	-3.6417	-3.0833	-3.8896	-3.4521	-3.1667	-3.8646	-3.0292	-3.4896	436.395	478.156	433.626	482.190	422.876	224.132	409.043	443.084	397.506	417.017	171.394	461.754	519.099	179.587	366.162	326.578	0.00083654	0.00059595	0.0001136	1143.1	5.68e-06	9.7099e-06	1222.3	228.15	5.7522e-06	5.9921e-06	286.27	80.206	64.209	18.209	5.7871e-06	25.596	0.0036175	0.0056956	0.0016033	1158.8	5.678e-05	6.3873e-05	1232.2	233.22	5.6005e-05	6.577e-05	297.38	83.527	67.521	19.826	6.0827e-05	27.724	374.724	284.033	300.312	172.236	316.296	320.928	171.722	179.055	414.691	261.167	178.700	185.849	186.052	193.732	420.507	193.004	-8191	255	
1375.763	1	1	0	0	0.13106	0.12994	0.16927	0.21819	0.10031	0.22845	0.3063	0.10228	0.27557	0.089124	0.13815	0.10702	0.11849	0.02552	0.15706	0.09815	-3.3229	-2.9604	-3.8125	-3.3958	-3.1354	-3.8146	-3.3458	-3.2771	-3.7375	-3.1396	-3.5542	-3.5729	-3.1958	-3.5938	-3.2604	-3.3917	261.252	171.772	161.952	474.081	373.037	483.948	424.884	370.917	444.515	420.134	185.594	396.379	245.571	345.096	487.251	319.366	0.00083419	0.00060998	7.7008e-05	1145	5.3451e-06	2.219e-06	1216.9	228.03	5.3544e-06	5.5019e-06	285.24	80.272	64.297	18.52	6.6315e-06	25.569	0.0037798	0.0060816	0.0016853	1160.1	5.9231e-05	6.7596e-05	1232.7	233.41	5.6669e-05	6.7246e-05	296.62	83.837	67.624	19.85	6.1394e-05	27.724	379.964	255.033	467.977	171.978	288.420	403.740	172.033	179.328	330.887	234.417	178.963	185.240	185.972	193.719	274.410	192.820	-8191	255	
1375.884	1	1	0	0	0.080325	0.18678	0.094447	0.28039	0.17148	0.12653	0.098149	0.088808	0.082506	0.050644	0.12564	0.24617	0.051183	0.058974	0.1993	0.044618	-3.4	-3.1813	-3.6625	-3.6958	-2.975	-3.8208	-3.4583	-3.4062	-3.8688	-2.9604	-3.75	-3.6979	-3.1333	-3.7646	-3.2771	-3.3812	382.898	171.787	361.420	479.486	402.839	213.273	453.149	370.317	366.130	500.604	426.514	163.544	473.694	309.854	289.353	469.556	0.00088708	0.00078065	0.0001434	1148.4	5.7443e-06	7.2723e-06	1215.4	227.68	5.4274e-06	2.0358e-06	287.05	80.179	64.409	18.414	4.7595e-06	25.566	0.0036862	0.0058866	0.0016366	1160.9	5.7679e-05	6.5601e-05	1231.2	233.11	5.5452e-05	6.5523e-05	297.07	83.62	67.504	19.799	5.8434e-05	27.581	364.247	247.131	241.775	172.073	335.353	203.278	171.884	179.412	330.625	331.326	178.902	185.490	185.824	193.688	241.859	192.776	-8191	255	
1375.980	1	1	0	0	0.22744	0.24858	0.36028	0.21949	0.13684	0.17683	0.28806	0.15712	0.26473	0.087472	0.19261	0.23892	0.15615	0.074655	0.15702	0.17535	-3.5271	-3.0667	-3.4271	-3.6604	-3.0146	-3.7854	-3.5146	-3.3375	-3.7604	-3.0833	-3.4854	-3.8812	-3.1125	-3.7188	-3.4292	-3.2021	337.869	517.331	228.499	164.471	172.444	389.719	507.924	394.509	201.588	429.162	211.170	450.927	459.680	374.098	178.851	372.900	0.00091696	0.00020721	0.00011294	1139.2	9.5423e-06	4.215e-06	1221	227	7.6963e-06	1.085e-06	285.14	79.517	64.017	18.226	3.9248e-06	25.5	0.0035491	0.0056902	0.0015952	1158.5	5.6454e-05	6.3912e-05	1232.1	232.85	5.5088e-05	6.5065e-05	296.33	83.726	67.542	19.777	6.0518e-05	27.553	361.302	322.171	340.048	171.893	289.814	302.344	171.724	179.357	297.696	443.084	178.935	185.298	185.694	193.691	217.552	192.612	-8191	255	
1376.074	1	1	0	0	0.12897	0.03573	0.25078	0.27764	0.19649	0.22298	0.13072	0.016726	0.10582	0.327	0.17168	0.17781	0.10973	0.13919	0.31574	0.018549	-3.3604	-3.0375	-3.2792	-3.8375	-2.9854	-3.7292	-3.4708	-3.1958	-3.7042	-3.1562	-3.2896	-3.8542	-3.1208	-3.7354	-3.5083	-2.9708	328.624	435.995	301.220	504.944	360.340	278.890	397.837	322.975	170.027	244.347	179.030	380.133	470.775	329.144	194.105	472.388	0.00095656	0.00050018	9.3675e-05	1137.3	2.8981e-06	1.9612e-06	1210.4	227.41	1.1872e-05	8.7212e-06	284.05	79.295	64.172	18.238	7.2454e-07	25.354	0.0036624	0.0059175	0.0016682	1156.6	5.754e-05	6.6246e-05	1229.9	233.5	5.6177e-05	6.7079e-05	296.22	83.532	67.472	19.766	6.0509e-05	27.604	379.791	260.554	325.255	171.858	294.884	517.730	171.638	179.518	297.463	338.133	178.726	185.388	185.725	193.369	214.476	192.209	-8191	255	
1376.170	1	1	0	0	0.19716	0.20498	0.2596	0.22048	0.23324	0.019459	0.1363	0.16647	0.3273	0.16446	0.23911	0.28499	0.025427	0.25538	0.18336	0.096016	-3.4479	-3.2417	-3.1063	-3.9167	-2.9896	-3.5979	-3.6667	-3.0958	-3.7188	-3.1896	-3.2792	-3.9604	-2.9042	-3.5417	-3.6021	-3.1104	492.230	393.837	491.508	479.547	305.802	368.133	404.071	398.571	287.677	386.266	220.820	189.364	484.521	179.932	447.830	322.101	0.00090154	0.00028316	0.00015379	1135.5	6.9147e-06	4.3859e-06	1216	227.16	6.9786e-06	2.4945e-06	281.09	79.58	64.136	18.39	1.211e-05	25.475	0.0037604	0.0058674	0.0016705	1156.2	5.806e-05	6.7184e-05	1231.8	232.97	5.63e-05	6.722e-05	295.41	83.546	67.445	19.808	6.0624e-05	27.627	370.766	508.639	251.334	171.685	309.108	342.399	171.775	179.399	333.555	418.230	178.842	185.513	185.763	193.317	321.753	192.778	-8191	255	
1376.266	1	1	0	0	0.14324	0.070858	0.20382	0.066625	0.17999	0.13037	0.1942	0.12308	0.096215	0.095079	0.18999	0.13222	0.1599	0.27341	0.044115	0.17505	-3.3604	-3.3063	-3.2729	-3.9396	-3.1312	-3.4958	-3.7313	-3.1208	-3.8229	-3.3167	-3.2562	-3.8937	-3.3542	-3.5458	-3.7458	-3.1	257.817	478.932	311.283	353.696	217.926	426.662	508.068	430.646	237.554	450.529	184.153	389.479	202.557	480.516	217.334	277.825	0.0008924	0.00018438	5.644e-05	1136.3	6.6059e-06	1.2791e-05	1209	224.55	8.7895e-06	3.7971e-06	282.67	79.785	63.864	18.317	1.194e-05	25.637	0.0037011	0.005846	0.0016712	1156.5	5.8639e-05	6.6304e-05	1228.3	232.06	5.5921e-05	6.6299e-05	296.12	83.487	67.366	19.813	6.1103e-05	27.648	374.280	238.052	334.656	171.798	253.917	344.818	171.781	179.176	234.481	364.738	178.662	185.545	185.993	193.590	314.533	192.575	-8191	255	
1376.363	1	1	0	0	0.050545	0.21162	0.084779	0.19251	0.050717	0.20601	0.083509	0.16715	0.24151	0.14256	0.074471	0.22465	0.2194	0.099529	0.16555	0.1801	-3.2188	-3.3271	-3.1833	-3.9083	-3.1396	-3.4229	-3.9604	-3.1708	-3.6437	-3.5917	-3.1479	-3.7375	-3.3042	-3.175	-3.8125	-3.1729	512.444	230.385	349.083	405.501	173.189	440.447	229.657	191.246	280.492	211.022	269.069	493.137	181.357	253.308	244.518	173.365	0.00092896	0.00048754	8.6916e-05	1146.1	2.0545e-06	2.26e-06	1219.9	228.58	5.04e-06	7.9404e-06	283.23	80.754	64.377	18.346	5.2174e-06	25.715	0.0037514	0.0059697	0.0016715	1160.7	5.8082e-05	6.779e-05	1231.4	233.33	5.6839e-05	6.7421e-05	296.12	83.616	67.567	19.838	6.0679e-05	27.745	380.998	272.304	210.589	172.243	293.920	450.831	171.884	179.386	297.296	268.927	178.920	185.492	185.902	193.480	315.757	192.624	-8191	255	
1376.459	1	1	0	0	0.14837	0.099715	0.058484	0.23033	0.033746	0.1979	0.079525	0.099051	0.10599	0.17153	0.2219	0.20887	0.25101	0.19379	0.14646	0.046239	-3.1813	-3.6917	-3.175	-3.8542	-3.1896	-3.2542	-3.9896	-3.1583	-3.4583	-3.6854	-3.0667	-3.8312	-3.4083	-3.2875	-3.8063	-3.1708	244.038	301.641	311.317	177.924	456.313	231.157	472.775	180.990	282.822	486.822	168.415	170.130	206.265	255.592	399.112	417.831	0.0011391	0.00018442	0.00013977	1136.5	5.5492e-06	6.7652e-06	1217.1	226.17	4.5766e-06	2.3067e-06	285.53	80.673	64.687	18.354	2.4709e-06	25.584	0.0037459	0.0059548	0.0016763	1157.4	5.828e-05	6.7583e-05	1233.4	232.2	5.693e-05	6.6749e-05	296.24	83.555	67.578	19.818	6.0184e-05	27.633	374.987	298.937	231.772	172.032	303.490	342.072	171.713	179.148	336.215	258.659	179.212	185.813	186.103	193.588	294.477	192.377	-8191	255	
1376.555	1	1	0	0	0.18674	0.17639	0.090757	0.25298	0.31649	0.25176	0.20644	0.15499	0.13123	0.20679	0.18631	0.151	0.18587	0.25872	0.23149	0.40093	-3.0292	-3.6583	-2.9771	-3.8187	-3.5271	-2.9583	-4.0729	-3.2792	-3.4708	-3.7146	-3.1688	-3.7104	-3.7438	-3.1104	-3.7542	-3.2562	425.894	296.298	331.143	463.348	472.288	168.593	400.819	506.210	170.508	164.480	500.724	179.547	337.845	382.533	196.742	503.090	0.00085556	0.00021093	0.00021354	1149.6	4.8524e-06	3.6041e-06	1215.1	227.7	6.4017e-06	5.0446e-06	284.79	80.219	64.709	18.403	4.4546e-06	25.867	0.0036598	0.0057588	0.0016381	1161	5.7113e-05	6.4814e-05	1231.9	232.36	5.6336e-05	6.6483e-05	295.8	83.525	67.537	19.856	6.0593e-05	27.742	367.435	299.123	259.130	172.362	281.342	242.495	172.223	179.207	296.196	269.025	178.977	185.758	186.372	193.727	257.596	192.596	-8191	255	
1376.674	1	1	0	0	0.065341	0.24366	0.11273	0.061673	0.22748	0.19983	0.15193	0.21245	0.20492	0.14534	0.053628	0.20811	0.26913	0.16436	0.075988	0.090006	-2.9542	-3.7479	-2.9188	-3.6937	-3.5042	-3.0542	-3.9375	-3.2833	-3.2438	-3.8708	-3.0417	-3.6771	-3.7146	-3.2354	-3.7542	-3.2396	287.849	497.492	398.187	206.747	280.908	461.503	432.113	179.388	488.644	222.108	300.133	209.240	381.837	182.557	484.825	375.992	0.00098015	0.00073808	0.00012369	1148.1	7.0494e-06	1.6525e-06	1220.1	226.63	1.4987e-05	1.0618e-06	285.45	79.467	64.399	18.305	1.1991e-05	25.535	0.0036513	0.0057858	0.0016335	1158.7	5.7795e-05	6.5526e-05	1232.4	232.65	5.6125e-05	6.6141e-05	295.73	83.431	67.273	19.796	5.8935e-05	27.525	383.629	237.779	204.274	172.178	261.108	289.288	171.866	179.256	290.069	477.414	179.083	185.502	185.831	193.438	362.285	192.488	-8191	255	
1376.770	1	1	0	0	0.14309	0.03088	0.097943	0.13283	0.16162	0.14745	0.22911	0.14346	0.19524	0.098546	0.19603	0.21874	0.18525	0.18163	0.1709	0.13261	-2.8583	-3.6896	-3	-3.675	-3.6604	-3.0646	-3.8438	-3.3479	-3.0792	-3.7104	-3.2417	-3.5917	-3.7167	-3.0792	-3.6375	-3.5021	206.640	383.104	328.400	421.303	207.598	373.614	436.197	448.908	363.901	352.902	323.216	257.162	256.884	178.065	431.396	193.158	0.00083271	0.00055938	0.00016556	1142.8	8.7866e-07	3.2185e-06	1220.9	225.97	8.3305e-06	1.6411e-06	284.84	80.543	64.519	18.517	5.6813e-06	25.32	0.0037119	0.0058222	0.0016311	1157.3	5.64e-05	6.4136e-05	1230.7	231.75	5.3563e-05	6.3239e-05	294.38	83.588	67.381	19.772	5.8188e-05	27.416	371.209	311.228	278.285	172.553	480.435	266.849	172.015	179.434	354.587	444.629	179.039	185.303	186.021	193.757	302.938	192.673	-8191	255	
1376.866	1	1	0	0	0.081546	0.076648	0.13842	0.031333	0.17951	0.15736	0.23711	0.097884	0.11435	0.17214	0.053443	0.12995	0.050375	0.024045	0.091703	0.029276	-2.7167	-3.9938	-3.1688	-3.6437	-3.5792	-3.0771	-3.9188	-3.5292	-2.9875	-3.85	-3.125	-3.4583	-3.7188	-3.0438	-3.5187	-3.6417	438.459	450.380	447.198	480.905	423.908	467.669	386.102	166.203	307.140	431.909	468.549	461.328	496.361	268.747	294.064	515.058	0.00076616	0.0003552	0.00012489	1140.2	6.1503e-06	4.3794e-06	1210.2	225.2	7.8566e-06	3.5803e-06	283.03	79.798	63.705	18.436	5.7503e-06	25.377	0.0035004	0.00558	0.0015668	1156.2	5.4592e-05	6.3384e-05	1226.1	231.33	5.3676e-05	6.2697e-05	294.93	83.279	66.874	19.747	5.7787e-05	27.409	370.652	514.215	328.279	171.990	310.319	310.238	171.065	178.485	271.238	389.464	177.579	184.150	184.726	192.125	359.332	191.216	-8191	255	
1376.962	1	1	0	0	0.13501	0.050162	0.19885	0.13277	0.15689	0.18458	0.24388	0.11816	0.18647	0.17109	0.069442	0.080265	0.17056	0.22254	0.25961	0.10605	-2.5917	-3.7458	-3.2562	-3.325	-3.9146	-2.9917	-3.8875	-3.5187	-2.9125	-3.8896	-3.3042	-3.2562	-3.8688	-3.0958	-3.4938	-3.7062	493.221	393.209	441.696	460.438	360.357	217.063	439.870	508.471	173.510	247.572	296.743	332.777	447.574	489.732	427.304	214.087	0.00081713	0.00045621	7.8033e-05	1134.1	5.9163e-06	3.7284e-06	1210.1	225.64	8.4017e-06	8.5881e-06	283.66	79.016	63.599	18.25	7.2821e-06	25.46	0.0035502	0.0055667	0.0015602	1153.7	5.372e-05	6.2124e-05	1226.4	231.93	5.316e-05	6.2952e-05	294.4	83.034	66.951	19.705	5.5573e-05	27.412	372.942	279.847	449.048	171.159	253.059	204.302	171.210	177.886	298.229	264.580	177.400	184.505	184.904	192.769	326.483	192.370	-8191	255	
1377.058	1	1	0	0	0.12861	0.098966	0.18624	0.23961	0.16294	0.24729	0.20452	0.17441	0.035787	0.042163	0.18808	0.3184	0.1865	0.15574	0.10971	0.07898	-2.6354	-3.75	-3.2875	-3.2396	-3.725	-3.0396	-3.8208	-3.6688	-2.7917	-3.6625	-3.4479	-3.1	-4.0458	-3.3167	-3.5271	-3.6063	248.633	358.663	253.625	510.147	501.082	418.831	483.567	477.271	244.289	254.594	512.614	189.564	503.723	406.131	174.585	244.825	0.00098327	0.00085663	8.8881e-05	1134.1	5.361e-06	2.8766e-06	1208	226.41	8.0707e-06	5.7639e-06	284.59	79.373	64.113	18.279	2.6384e-06	25.601	0.0034417	0.0054255	0.0015151	1153.1	5.3484e-05	6.0556e-05	1223.3	230.98	5.1303e-05	6.025e-05	293.95	83.104	66.989	19.669	5.533e-05	27.454	367.972	226.247	192.607	171.345	289.370	215.383	170.788	178.079	330.335	273.530	177.690	184.387	185.166	192.879	261.778	191.801	-8191	255	
1377.179	1	1	0	0	0.19217	0.066366	0.29878	0.15831	0.1501	0.22728	0.24802	0.17741	0.11859	0.07398	0.089301	0.19908	0.098291	0.16036	0.10572	0.12639	-2.5042	-3.5542	-3.4542	-3.1104	-3.7458	-3.1875	-3.4729	-3.8521	-3.1937	-3.6958	-3.6917	-3.0375	-3.9396	-3.0625	-3.1896	-3.6667	269.194	318.254	308.628	468.215	353.443	514.567	483.845	276.086	200.150	217.165	168.733	488.123	240.286	471.134	386.358	506.618	0.00078605	0.00031795	0.00013778	1137.6	2.9733e-06	3.7368e-06	1214	225.86	3.5556e-06	4.7328e-06	284.85	80.1	64.288	18.299	5.9473e-06	25.282	0.0034548	0.0053883	0.0014949	1152.9	5.2842e-05	6.1347e-05	1223.4	231.51	5.1561e-05	6.2133e-05	293.89	83.057	67.011	19.657	5.7463e-05	27.425	362.000	175.986	203.247	170.869	402.686	325.442	170.663	178.125	462.516	315.827	178.087	184.649	185.580	191.928	275.912	191.110	-8191	255	
1377.275	1	1	0	0	0.059506	0.12488	0.21075	0.15069	0.16873	0.20749	0.19296	0.26479	0.22302	0.085958	0.29994	0.089482	0.076498	0.13268	0.044723	0.22018	-2.6188	-3.4646	-3.5792	-3.0604	-3.6604	-3.2625	-3.3917	-3.9062	-2.9667	-3.5521	-3.7417	-3.1	-3.8167	-3.3958	-3.0208	-3.7438	383.634	331.675	484.179	228.611	454.539	313.472	197.914	326.174	458.267	291.512	497.915	487.659	275.162	410.253	215.845	409.313	0.00088307	0.00024993	8.9052e-05	1134	3.1057e-06	2.3565e-06	1206.5	225.63	8.157e-07	3.0276e-06	281.28	79.463	63.439	18.166	7.575e-06	25.094	0.0034971	0.0055382	0.0015556	1151.5	5.4067e-05	6.1612e-05	1222.6	231.28	5.2515e-05	6.2192e-05	292.97	82.898	66.75	19.587	5.4197e-05	27.343	367.250	208.975	261.586	170.454	300.046	256.028	170.144	177.217	340.560	302.635	177.042	183.706	183.849	191.033	340.811	190.968	-8191	255	
1377.371	1	1	0	0	0.13166	0.16918	0.029966	0.24372	0.25537	0.025203	0.04226	0.086169	0.21395	0.12983	0.028449	0.19125	0.12767	0.19747	0.11486	0.066597	-2.7417	-3.4979	-3.6979	-3.1396	-3.7896	-3.3542	-3.3229	-3.8146	-3.1021	-3.4271	-3.7146	-3.1042	-3.725	-3.475	-2.9667	-3.9188	330.910	167.839	237.793	411.579	306.827	374.150	504.264	233.965	490.967	336.599	398.534	516.294	199.138	178.375	493.320	437.333	0.00080797	0.00023172	8.1606e-05	1132.9	6.1501e-06	4.8416e-06	1202.9	224.92	4.323e-06	1.6991e-06	281.47	79.013	63.538	18.004	1.9747e-06	25.003	0.0033895	0.0053542	0.0014728	1149.5	5.2796e-05	6.0706e-05	1221.7	230.69	5.1407e-05	6.0215e-05	293.04	82.882	66.827	19.532	5.5749e-05	27.319	367.582	173.201	256.310	169.956	266.113	300.190	169.870	177.371	228.239	277.434	176.893	183.482	184.140	191.451	328.920	190.973	-8191	255	
1377.467	1	1	0	0	0.2117	0.12788	0.18105	0.26223	0.23894	0.032523	0.21096	0.13071	0.18493	0.10726	0.055633	0.12554	0.091022	0.11046	0.11686	0.1513	-2.6271	-3.3333	-3.7583	-3.0854	-3.6813	-3.5604	-3.3021	-3.8688	-3.1708	-3.0938	-3.825	-3.1625	-3.4354	-3.4854	-2.9854	-3.9208	184.998	177.366	261.495	210.312	435.736	328.264	443.317	399.087	291.995	350.173	222.090	309.118	185.726	185.050	344.211	364.562	0.00094709	0.00029446	0.00012804	1126.5	6.2146e-06	3.0337e-06	1204.3	224.42	4.4358e-06	3.8328e-06	283.07	79.507	63.374	18.081	6.3063e-06	25.403	0.0034715	0.0055607	0.0015007	1147.4	5.4244e-05	6.0736e-05	1220.2	230.56	5.11e-05	6.088e-05	293.1	82.885	66.734	19.607	5.6488e-05	27.419	366.268	242.222	280.050	170.058	219.581	314.919	169.792	177.401	330.277	278.115	177.128	183.354	184.451	191.462	269.655	191.117	-8191	255	
1377.562	1	1	0	0	0.14294	0.23466	0.091562	0.34155	0.13723	0.18456	0.18153	0.041366	0.15173	0.082597	0.15974	0.1004	0.2429	0.27517	0.15928	0.055696	-2.9062	-3.2167	-3.8833	-3.1208	-3.5646	-3.6333	-3.1729	-3.8417	-3.2792	-2.9	-3.7938	-3.1146	-3.3312	-3.6396	-3.0687	-3.8229	359.231	283.859	184.553	479.401	281.062	515.163	383.758	432.247	312.363	391.282	433.462	401.702	451.659	489.815	213.745	353.781	0.00076196	0.00024581	8.4947e-05	1131	3.3531e-06	4.5927e-06	1206.1	225.82	1.1674e-05	6.937e-06	281.15	79.495	64.095	18.17	3.2539e-06	25.54	0.0034807	0.0054945	0.0015268	1148.5	5.3229e-05	6.0883e-05	1220.2	231.24	5.1377e-05	6.1546e-05	293	82.816	66.768	19.586	5.5776e-05	27.453	361.445	182.086	304.852	170.022	298.118	363.762	169.815	177.250	305.152	337.610	177.266	183.338	184.016	191.606	343.437	190.925	-8191	255	
1377.658	1	1	0	0	0.057503	0.23669	0.15771	0.20442	0.026047	0.14714	0.12751	0.13773	0.17124	0.076766	0.13033	0.10771	0.032065	0.12083	0.01814	0.12036	-2.8208	-3.1896	-3.7583	-3.325	-3.2979	-3.8438	-3.1021	-3.5458	-3.4854	-3.0875	-3.9708	-3.2625	-3.3229	-3.7667	-3.0375	-3.6333	392.189	382.895	232.186	427.194	318.484	239.787	394.927	430.068	476.149	509.983	395.073	513.784	395.108	513.224	166.388	304.890	0.00095531	0.00081525	0.00017286	1129.4	8.6697e-06	2.3547e-06	1197	224.38	7.6448e-06	5.0209e-06	280.81	79.715	63.683	18.301	3.5021e-06	25.437	0.0034382	0.0054436	0.0015215	1147.4	5.3641e-05	6.1089e-05	1217.7	230.45	5.2366e-05	6.1848e-05	292.93	82.887	66.664	19.632	5.6947e-05	27.479	345.699	259.422	301.677	170.257	308.056	340.110	170.111	177.597	303.344	349.733	176.947	183.498	184.394	191.650	221.086	190.973	-8191	255	
1377.754	1	1	0	0	0.13321	0.10301	0.20704	0.016511	0.21912	0.30229	0.19158	0.11297	0.1409	0.24061	0.27669	0.15056	0.1384	0.3029	0.30651	0.071031	-2.9479	-2.9208	-3.775	-3.4021	-3.0812	-3.8229	-3.1354	-3.6479	-3.4979	-3.0708	-3.85	-3.3125	-3.1	-3.7833	-3.0229	-3.6271	247.141	224.584	308.849	165.775	495.212	341.045	420.204	398.567	506.149	221.552	408.286	165.272	379.008	496.808	446.188	338.114	0.001028	0.00035852	7.9829e-05	1130.5	5.5871e-06	3.9123e-06	1205.6	224.66	8.4533e-06	5.5045e-06	282.72	79.503	63.727	18.24	3.0265e-06	25.59	0.0034661	0.0055629	0.0015529	1148	5.5211e-05	6.2328e-05	1220.4	230.95	5.1739e-05	6.1805e-05	293.62	82.748	66.878	19.683	5.6783e-05	27.513	361.135	279.963	283.509	170.287	306.763	394.279	169.849	177.584	264.326	401.864	176.837	183.689	184.219	191.607	307.502	191.177	-8191	255	
1377.850	1	1	0	0	0.19502	0.024297	0.10741	0.163	0.24988	0.044219	0.19207	0.16121	0.068037	0.13183	0.054055	0.01929	0.022848	0.074642	0.29903	0.12061	-3.2521	-2.9562	-3.6021	-3.3438	-3.0312	-3.6188	-3.0833	-3.4292	-3.5812	-3.0125	-3.8979	-3.3917	-3.0563	-3.8375	-3.0125	-3.425	188.454	512.011	433.740	455.679	250.839	415.422	495.424	267.615	427.247	233.364	397.753	389.845	281.492	356.240	187.088	471.056	0.00081779	0.00021764	9.8057e-05	1131.9	4.3557e-06	5.3192e-06	1210.5	224.72	1.0027e-05	8.439e-07	282.48	80.02	63.779	18.195	1.0209e-05	25.37	0.0034966	0.0055759	0.0015798	1149.3	5.4367e-05	6.1281e-05	1221.6	230.81	5.1885e-05	6.0725e-05	293.14	82.809	66.693	19.605	5.5159e-05	27.373	367.689	262.506	350.355	170.161	347.902	369.758	170.048	177.701	288.941	481.476	177.171	183.590	184.264	191.776	176.919	190.830	-8191	255	
1377.946	1	1	0	0	0.37989	0.062388	0.16721	0.39787	0.13538	0.065925	0.28004	0.16426	0.066944	0.1044	0.073878	0.19367	0.20625	0.15044	0.13293	0.20728	-3.2583	-2.95	-3.5396	-3.6917	-3.1104	-3.7125	-3.2583	-3.3792	-3.6896	-2.8646	-3.6542	-3.4188	-2.8542	-3.7625	-3.3667	-3.1292	279.375	175.143	501.878	454.351	290.083	244.227	431.011	455.251	228.056	451.735	360.375	499.288	512.585	420.155	338.516	163.928	0.00090273	0.00078413	9.445e-05	1129.6	5.7399e-06	4.6595e-06	1207.4	225.04	1.549e-05	2.2242e-06	281.53	79.768	63.446	18.226	2.2538e-06	25.48	0.0034288	0.0054379	0.0015375	1145.9	5.3825e-05	6.0895e-05	1220.3	230.83	5.1429e-05	6.041e-05	292.18	82.839	66.751	19.621	5.5847e-05	27.438	349.760	203.071	239.123	170.271	307.187	195.142	170.042	177.456	314.504	326.546	177.169	183.632	184.038	191.905	209.624	191.246	-8191	255	
1378.067	1	1	0	0	0.032727	0.1821	0.17423	0.28271	0.20192	0.062412	0.15715	0.2415	0.29667	0.13301	0.070741	0.23541	0.10686	0.22692	0.052982	0.072838	-3.375	-3.0521	-3.6208	-3.6479	-3.0333	-3.65	-3.4479	-3.2354	-3.5667	-2.9688	-3.625	-3.6271	-2.9542	-3.7396	-3.3271	-3.3229	443.413	437.565	306.836	491.452	464.979	366.114	456.648	519.668	231.774	410.270	294.371	467.355	318.114	500.921	517.768	491.599	0.0010139	0.00044716	0.00010485	1129.3	2.1113e-06	3.8383e-06	1198.6	225.74	1.1641e-05	6.8343e-06	281.44	79.39	63.767	18.343	5.2575e-06	25.341	0.0034182	0.005449	0.0015406	1145.9	5.3469e-05	6.1448e-05	1218.8	231.19	5.2009e-05	6.133e-05	293.03	82.787	66.786	19.709	5.6423e-05	27.351	362.665	262.338	309.189	170.663	266.300	377.850	169.857	177.817	323.118	325.310	177.297	184.079	184.109	191.599	338.776	191.286	-8191	255	
1378.163	1	1	0	0	0.11968	0.15264	0.035666	0.14261	0.22666	0.075001	0.31312	0.080995	0.11571	0.16264	0.11064	0.041797	0.21847	0.1678	0.24931	0.22234	-3.4271	-3.1542	-3.2854	-3.725	-2.8812	-3.725	-3.4354	-3.2417	-3.8375	-3.0917	-3.3729	-3.8125	-2.9917	-3.5792	-3.4417	-3.0104	195.030	231.708	257.422	383.900	332.468	467.735	411.767	509.368	268.004	454.501	514.233	508.131	447.210	318.334	193.249	249.985	0.0008595	9.5996e-05	0.00012337	1131.3	6.6075e-06	8.4426e-06	1207	224.9	6.5486e-06	2.2376e-06	283.02	79.319	63.573	18.284	5.581e-06	25.346	0.003449	0.0054692	0.0015649	1146.1	5.3456e-05	6.079e-05	1219	230.69	5.0683e-05	6.0635e-05	293.32	82.685	66.537	19.644	5.6018e-05	27.395	372.456	424.306	309.688	170.384	269.858	293.934	169.978	177.763	241.058	327.206	177.494	183.666	184.100	191.830	363.751	190.939	-8191	255	
1378.259	1	1	0	0	0.065486	0.26741	0.13177	0.095973	0.33807	0.18321	0.27255	0.046722	0.1147	0.05553	0.10594	0.285	0.06593	0.1184	0.19536	0.079565	-3.4229	-3.1833	-3.1937	-3.6167	-2.7771	-3.6667	-3.4667	-3.0792	-3.6771	-3.0812	-3.1562	-3.8875	-2.9292	-3.4729	-3.6167	-3.0646	368.119	517.647	412.114	434.778	477.821	236.897	464.113	171.569	301.394	166.857	220.468	348.244	240.185	274.246	399.438	208.391	0.0010731	0.00032351	0.00018863	1129.6	4.1833e-06	2.8749e-06	1206.5	225.04	1.23e-05	4.7269e-06	282.04	79.707	63.697	18.224	7.1782e-06	25.343	0.0034391	0.0054914	0.0015433	1148.6	5.4569e-05	6.1346e-05	1218.8	230.66	5.1864e-05	6.3034e-05	293.03	82.733	66.526	19.623	5.5884e-05	27.44	368.165	451.174	172.956	170.411	376.695	270.195	169.977	177.647	310.865	376.440	177.365	183.699	184.302	191.761	283.328	191.150	-8191	255	
1378.356	1	1	0	0	0.17537	0.154	0.11674	0.23137	0.024667	0.11153	0.13578	0.15149	0.14955	0.18475	0.30692	0.068954	0.08178	0.12727	0.14804	0.22629	-3.3792	-3.1542	-3.1104	-3.8	-2.9854	-3.4979	-3.9062	-3.1063	-3.5875	-3.3646	-3.1021	-3.6937	-3.1667	-3.4146	-3.5896	-2.9729	298.195	201.758	243.111	171.424	451.799	396.087	454.972	164.469	258.628	478.637	208.532	221.868	449.269	250.057	478.514	372.290	0.00096823	0.00042239	0.00010519	1131.3	8.2958e-06	3.1651e-06	1205.3	224.46	1.2162e-05	4.8082e-06	282.8	79.583	63.629	18.233	2.4258e-06	25.503	0.0034329	0.0053995	0.0015195	1147.6	5.3577e-05	6.0805e-05	1217.1	230.32	5.1312e-05	6.1314e-05	293.57	82.897	66.818	19.64	5.5667e-05	27.376	362.689	225.298	295.487	170.425	277.417	394.936	170.340	177.792	345.209	363.723	177.205	184.214	184.395	191.739	229.574	190.951	-8191	255	
1378.452	1	1	0	0	0.18417	0.08511	0.18666	0.34789	0.24207	0.14057	0.19982	0.017735	0.070436	0.10132	0.23626	0.31057	0.1306	0.039501	0.04719	0.099948	-3.3729	-3.3521	-3.1354	-3.9729	-3.1417	-3.2667	-3.6979	-2.9729	-3.7	-3.3917	-3.0646	-3.9042	-3.2375	-3.125	-3.6646	-2.9958	479.869	185.393	337.179	478.927	294.952	391.943	400.653	453.724	262.224	468.862	437.967	485.531	339.105	232.639	279.871	428.953	0.00076639	0.0005856	6.6721e-05	1130.6	3.4371e-06	5.1933e-06	1205.9	224.55	1.9718e-06	6.3498e-06	282.79	78.922	63.618	18.147	9.3557e-06	25.38	0.0034166	0.0053591	0.0014902	1147	5.297e-05	6.1088e-05	1220.5	230.2	5.1795e-05	5.9823e-05	292.96	82.563	66.676	19.562	5.5e-05	27.376	364.636	415.406	285.331	170.319	376.008	306.564	170.281	177.603	337.929	263.912	177.548	183.921	184.414	191.842	299.997	190.938	-8191	255	
1378.548	1	1	0	0	0.050483	0.053892	0.18715	0.17104	0.11475	0.27692	0.25211	0.17295	0.089266	0.14764	0.16743	0.45432	0.1287	0.14027	0.095784	0.07727	-3.2021	-3.4792	-2.9917	-3.7562	-3.1604	-3.2854	-3.8333	-3.1458	-3.5146	-3.4313	-2.9396	-3.7104	-3.2583	-3.1854	-3.5458	-2.9146	262.213	218.351	494.381	490.447	262.032	406.895	507.420	483.325	385.101	273.212	470.664	259.550	514.868	250.977	413.470	317.735	0.00095233	0.00061223	4.4519e-05	1128.3	9.8277e-06	4.5317e-06	1208.2	225.14	7.9053e-06	5.0207e-06	282.81	80.03	63.7	18.003	3.6512e-06	25.484	0.0034767	0.0054084	0.0015261	1146.1	5.3711e-05	5.9342e-05	1219.2	230.73	5.1599e-05	6.1206e-05	293.33	82.941	66.738	19.582	5.5192e-05	27.342	376.182	276.339	510.683	170.350	320.218	366.401	170.189	177.631	334.238	334.601	177.473	183.988	184.333	191.957	213.492	191.238	-8191	255	
1378.667	1	1	0	0	0.28529	0.37085	0.17272	0.19789	0.24505	0.21476	0.32142	0.088822	0.14355	0.28101	0.17383	0.16096	0.19655	0.062974	0.096622	0.16071	-3.1792	-3.5938	-3.0438	-3.8937	-3.2583	-3.0604	-3.8917	-3.2	-3.35	-3.7146	-3.0979	-3.7458	-3.4396	-3.1729	-3.7188	-3.075	342.498	466.240	230.756	286.331	501.282	409.287	410.330	509.345	334.961	364.083	510.772	517.374	460.649	236.535	347.166	473.506	0.0010019	0.00061341	4.4254e-05	1136.8	6.2252e-06	3.3962e-06	1209.5	226.07	9.5196e-06	3.9731e-06	283.31	79.23	63.669	18.302	9.2871e-06	25.257	0.0033789	0.0053071	0.0015253	1148.4	5.2355e-05	6.0623e-05	1219.1	230.5	5.2159e-05	6.0802e-05	292.63	82.735	66.64	19.638	5.5652e-05	27.31	370.336	277.961	296.120	170.644	319.442	263.311	170.361	177.549	272.776	409.756	177.235	183.972	184.533	191.424	302.363	191.167	-8191	255	
1378.763	1	1	0	0	0.14549	0.047271	0.07302	0.078745	0.092001	0.14165	0.15276	0.3519	0.095083	0.26154	0.078337	0.091608	0.11264	0.11748	0.28326	0.19339	-2.8792	-3.6125	-3.1229	-3.6521	-3.3354	-3.1146	-3.8167	-3.1437	-3.4021	-3.7479	-3.0021	-3.6021	-3.3708	-3.05	-3.7479	-3.2146	438.020	179.352	313.366	310.142	453.670	301.008	264.655	507.579	393.673	465.537	491.078	168.535	416.710	500.310	339.994	469.221	0.00094163	0.00034215	0.00019743	1133.3	8.5273e-06	4.5554e-06	1203.1	224.81	3.1701e-06	2.166e-06	284.14	79.335	63.869	18.301	2.1878e-06	25.396	0.0034169	0.0053387	0.0015167	1146.8	5.3858e-05	6.0533e-05	1215.9	230.33	5.1568e-05	6.018e-05	293.39	83.022	66.728	19.658	5.5137e-05	27.349	364.810	287.531	192.725	170.493	311.700	457.922	170.095	177.728	432.474	301.596	177.129	184.175	184.237	192.108	337.028	191.160	-8191	255	
1378.859	1	1	0	0	0.17122	0.21689	0.092915	0.11936	0.15401	0.29286	0.17739	0.11002	0.16404	0.098292	0.22663	0.049781	0.1168	0.067435	0.17874	0.043495	-2.8792	-3.8479	-3.0854	-3.8	-3.5312	-2.8792	-3.775	-3.3292	-3.3563	-3.9958	-3.2313	-3.6021	-3.5667	-3.0938	-3.5938	-3.4375	478.600	398.958	443.417	190.360	356.724	517.012	463.628	481.018	403.184	184.957	175.947	503.278	229.144	254.010	174.267	168.135	0.00097116	0.00047493	0.00018804	1135.3	7.0159e-06	4.1119e-06	1207.4	224.73	6.0885e-06	6.7759e-06	281.25	79.341	63.585	18.347	3.1096e-06	25.309	0.0034333	0.0053766	0.0015022	1148.7	5.226e-05	6.0659e-05	1217.7	230.36	5.0667e-05	5.9554e-05	291.85	82.566	66.578	19.619	5.3709e-05	27.347	366.111	203.489	258.000	170.644	299.783	234.248	170.685	177.781	275.201	291.630	177.431	183.987	184.635	191.509	294.985	191.138	-8191	255	
1378.955	1	1	0	0	0.22832	0.1089	0.09529	0.11989	0.2416	0.11017	0.19701	0.086576	0.043506	0.13034	0.099971	0.13023	0.19432	0.12692	0.14984	0.0235	-2.7729	-3.9437	-3.025	-3.5187	-3.6042	-3.1729	-3.8917	-3.3271	-3.1479	-3.9479	-3.3354	-3.5333	-3.7958	-3.2375	-3.6042	-3.5542	430.470	307.159	436.547	318.117	176.631	484.244	463.355	486.545	301.544	413.451	260.239	279.755	458.933	417.744	370.833	358.327	0.00085141	0.0001567	0.00011224	1134.2	5.364e-06	5.8045e-06	1205	224.71	6.3572e-06	1.0912e-06	281.29	79.442	63.775	18.246	8.3139e-06	25.45	0.0032917	0.0051781	0.0014664	1145.4	5.1376e-05	5.8481e-05	1217.4	230.56	5.0263e-05	5.8635e-05	291.99	82.681	66.567	19.576	5.2947e-05	27.273	355.654	370.714	253.405	170.952	298.880	323.029	170.681	178.190	308.081	227.637	177.713	184.348	184.926	192.242	318.226	191.508	-8191	255	
1379.051	1	1	0	0	0.12846	0.18465	0.14052	0.27756	0.32066	0.11121	0.1307	0.015317	0.14984	0.050971	0.033005	0.13105	0.064914	0.13258	0.097694	0.11065	-2.3896	-3.8458	-3.125	-3.4188	-3.6521	-2.9583	-3.5417	-3.5792	-3.1063	-3.7917	-3.3604	-3.0187	-3.8229	-2.9688	-3.5271	-3.5604	341.126	515.798	434.447	162.126	440.518	482.486	509.814	389.430	434.573	502.953	264.402	430.926	207.099	438.661	229.076	467.447	0.00078472	0.00037297	0.00016925	1130.3	5.5594e-06	5.6239e-06	1202.3	225.87	4.681e-06	2.3518e-06	280.42	79.186	63.506	18.054	6.5858e-06	25.457	0.0032219	0.0050803	0.0014399	1144.5	5.0774e-05	5.8519e-05	1216.8	230.2	4.908e-05	5.7992e-05	290.9	82.402	66.686	19.542	5.4335e-05	27.316	366.834	347.695	296.602	171.177	231.173	265.212	170.596	178.195	307.745	334.938	177.621	184.547	185.120	192.374	321.246	191.196	-8191	255	
1379.147	1	1	0	0	0.10851	0.024729	0.12891	0.15084	0.30209	0.25694	0.097692	0.18499	0.20522	0.008083	0.06645	0.18367	0.17604	0.12444	0.063916	0.12605	-2.6958	-3.6708	-3.2729	-3.3667	-3.6979	-2.8375	-3.6667	-3.6	-3.0292	-3.7188	-3.4396	-3.2458	-3.7687	-3.1333	-3.2917	-3.7646	304.978	382.192	392.419	391.543	280.802	391.409	405.472	504.692	190.672	411.996	334.693	471.260	497.838	176.845	230.782	288.449	0.00075182	0.00053673	1.6026e-05	1136.3	3.9887e-06	2.9103e-06	1205.1	225.49	1.1804e-05	3.4466e-06	280.57	79.699	63.955	18.191	2.1898e-06	25.395	0.0032822	0.005161	0.0014537	1146	5.1106e-05	5.8478e-05	1216.2	230.08	5.0007e-05	5.9748e-05	291.7	82.6	66.62	19.538	5.4028e-05	27.33	361.306	274.150	324.401	170.884	275.366	304.090	170.989	178.448	316.478	302.530	177.421	184.032	184.955	192.107	322.308	191.647	-8191	255	
1379.268	1	1	0	0	0.10859	0.049066	0.20266	0.24236	0.23079	0.085124	0.25784	0.36928	0.017577	0.14246	0.098768	0.018674	0.048109	0.14887	0.17698	0.18426	-2.5812	-3.7021	-3.3792	-3.1354	-3.8667	-3.2583	-3.5375	-3.8229	-2.9479	-3.5375	-3.4458	-3.0771	-3.8396	-3.3229	-3.4	-3.6542	250.637	282.140	359.440	177.237	163.388	306.094	340.824	436.734	440.169	463.044	396.638	502.880	319.351	465.367	363.566	276.545	0.00079589	0.0001645	5.5847e-05	1134.4	3.7677e-06	5.3481e-06	1203.4	225.32	3.8916e-06	4.4712e-06	281.66	79.257	64.219	18.202	6.5682e-06	25.508	0.0033409	0.0053856	0.0015029	1146.1	5.2288e-05	5.9505e-05	1216.4	230.18	5.0295e-05	5.927e-05	292.03	82.715	66.623	19.577	5.4475e-05	27.346	365.207	285.108	370.690	170.659	350.098	289.773	170.447	177.418	373.523	299.780	177.387	184.070	184.778	191.504	257.532	190.514	-8191	255	
1379.364	1	1	0	0	0.060039	0.059189	0.0465	0.27555	0.14289	0.087723	0.32459	0.065135	0.030528	0.18521	0.3344	0.16398	0.15185	0.026864	0.10918	0.08172	-2.675	-3.4271	-3.3875	-3.1229	-3.8125	-3.0667	-3.3583	-3.8042	-2.9	-3.4021	-3.5833	-3.1917	-3.7771	-3.2313	-3.2667	-3.7333	506.214	287.785	474.542	499.922	292.191	212.068	161.207	445.100	288.918	374.658	183.986	312.832	416.660	434.447	407.115	211.133	0.0010379	0.00047283	0.0001533	1134.1	1.0414e-05	5.8451e-06	1204.8	224.72	1.5636e-05	5.2404e-06	281.35	79.276	63.751	18.128	6.0872e-06	25.445	0.0033188	0.005249	0.0014599	1147.3	5.3053e-05	6.1064e-05	1216.2	230.22	5.0674e-05	5.9336e-05	291.35	82.521	66.575	19.581	5.455e-05	27.343	365.094	227.021	244.163	170.439	285.611	358.430	170.147	177.846	330.953	323.964	177.467	183.923	183.961	191.436	310.125	190.672	-8191	255	
1379.436	1	1	0	0	0.16002	0.18332	0.1298	0.14269	0.12126	0.13203	0.40974	0.31273	0.2572	0.19655	0.22806	0.038676	0.088371	0.15518	0.20294	0.014398	-2.8292	-3.5708	-3.6542	-3.025	-3.6854	-3.2958	-3.2396	-3.8688	-2.7812	-3.4021	-3.5625	-2.9688	-3.6146	-3.4396	-2.9688	-3.7333	427.864	482.220	439.732	391.145	446.631	344.718	497.271	433.712	261.450	492.425	513.286	457.760	261.313	315.918	327.618	508.286	0.00083728	0.00022274	0.00013775	1129.1	1.0676e-05	5.2129e-06	1200.1	224.65	5.8813e-07	5.2151e-06	282.15	79.199	64.081	18.172	4.6105e-06	25.442	0.0033584	0.0053026	0.0014862	1145.2	5.1673e-05	6.0406e-05	1215.4	229.81	5.1335e-05	6.0176e-05	292.4	82.591	66.773	19.591	5.5949e-05	27.333	382.273	313.802	261.318	170.358	317.579	407.149	169.930	177.845	328.573	290.778	177.009	183.840	184.306	191.115	313.245	191.299	-8191	255	
1379.532	1	1	0	0	0.3301	0.15776	0.088473	0.05321	0.14908	0.24811	0.25118	0.52276	0.0403	0.17375	0.06925	0.22389	0.29711	0.39097	0.086732	0.21765	-2.8083	-3.2313	-3.6292	-3.2458	-3.5542	-3.4396	-3.1208	-3.6917	-3.3	-3.3292	-3.8708	-3.1458	-3.4896	-3.4583	-3.0208	-3.7562	369.696	456.275	512.408	488.616	416.065	170.149	440.244	512.031	491.617	344.495	414.855	406.036	436.991	517.749	498.715	161.429	0.0010244	0.00021268	0.00017707	1127.8	9.8766e-06	4.566e-06	1203.1	224.55	5.1265e-06	3.5337e-06	281.07	79.094	63.76	18.209	4.2354e-06	25.42	0.0033922	0.0053158	0.0014782	1144	5.2868e-05	5.8339e-05	1215.7	229.97	5.0462e-05	5.9379e-05	291.97	82.318	66.619	19.573	5.4229e-05	27.308	359.192	291.502	200.465	170.153	305.788	338.547	170.119	177.900	244.241	327.880	177.136	183.875	184.268	191.532	327.611	190.902	-8191	255	
1379.628	1	1	0	0	0.097392	0.080909	0.19813	0.12435	0.12854	0.43038	0.24894	0.069536	0.096083	0.17704	0.1309	0.018714	0.31624	0.15873	0.10498	0.22683	-2.8021	-3.1417	-3.6333	-3.1167	-3.3958	-3.4708	-3.0542	-3.9188	-3.2479	-3.3063	-3.8187	-2.9979	-3.5979	-3.5875	-2.9708	-3.6958	245.078	516.328	211.803	502.916	283.792	305.372	465.073	367.771	193.871	370.825	382.857	432.539	470.498	500.360	345.518	466.948	0.00086929	0.00045662	7.9341e-05	1133.8	3.2039e-06	5.2072e-06	1204.9	224.24	9.7831e-06	4.3548e-06	281.86	79.128	63.801	18.216	5.0732e-06	25.276	0.0033728	0.0052974	0.0014834	1145.6	5.2557e-05	5.9178e-05	1216.6	229.94	5.0096e-05	5.9899e-05	291.97	82.482	66.73	19.567	5.4087e-05	27.295	355.819	274.926	217.789	170.229	269.218	313.573	170.053	177.935	350.350	293.804	177.212	183.914	183.910	191.833	232.871	191.242	-8191	255	
1379.747	1	1	0	0	0.13728	0.11444	0.31474	0.1769	0.032984	0.17254	0.24316	0.079264	0.23632	0.2098	0.15964	0.071738	0.21331	0.20057	0.20756	0.16197	-2.8417	-2.9813	-3.6083	-3.0667	-3.4854	-3.4979	-3.2479	-3.7479	-3.3688	-3.1271	-3.9	-3.2167	-3.475	-3.9188	-2.85	-3.6125	180.017	423.716	279.739	160.685	175.239	436.030	400.677	498.339	250.841	215.691	441.661	255.379	162.645	266.411	183.356	460.698	0.00099631	0.00013438	4.4164e-05	1130.6	3.3939e-06	6.2362e-06	1198.7	224.04	9.7965e-06	2.7107e-06	282.9	79.091	63.52	18.292	6.2165e-06	25.325	0.0033576	0.0052673	0.0014655	1143.4	5.1978e-05	5.8913e-05	1216	229.82	5.0441e-05	5.987e-05	292.27	82.375	66.545	19.598	5.3957e-05	27.343	359.901	223.306	210.237	170.602	230.640	333.371	170.490	177.789	342.372	368.934	177.517	183.816	184.364	191.932	177.275	191.244	-8191	255	
1379.843	1	1	0	0	0.081584	0.2336	0.10643	0.35002	0.15841	0.12781	0.23754	0.12153	0.21907	0.17422	0.16462	0.024289	0.063078	0.14916	0.30091	0.17715	-2.9625	-3.0521	-3.6667	-3.1958	-3.3438	-3.7646	-3.1104	-3.6917	-3.4688	-2.9313	-3.7438	-3.3125	-3.1958	-3.7521	-3.0187	-3.6646	405.658	464.671	512.329	492.394	425.372	403.364	174.269	519.310	372.466	425.660	450.163	185.922	452.149	253.440	299.504	270.047	0.00093429	0.00038771	8.1683e-05	1127	9.4274e-06	2.1565e-06	1199.3	225	3.0695e-06	6.2943e-06	281.02	79.129	63.768	18.175	8.4174e-06	25.161	0.0032634	0.0051838	0.0014571	1143.5	5.1138e-05	5.7118e-05	1213.6	230.45	4.9008e-05	5.8705e-05	292.03	82.417	66.449	19.539	5.2627e-05	27.22	365.686	179.605	520.017	170.630	305.223	345.977	170.637	178.064	370.297	312.597	177.745	184.166	184.630	191.826	292.844	190.885	-8191	255	
1379.939	1	1	0	0	0.21505	0.10039	0.18988	0.1066	0.10509	0.08151	0.18392	0.1594	0.15943	0.064265	0.22835	0.11365	0.12153	0.24091	0.03933	0.2494	-3.2812	-2.8729	-3.6979	-3.4688	-3.2687	-3.6917	-3.2229	-3.6646	-3.5896	-3.0458	-3.8312	-3.4021	-3.2875	-3.8354	-2.9896	-3.7146	208.525	487.569	314.900	243.392	328.496	343.584	435.792	420.317	337.179	519.841	406.654	434.607	494.747	160.722	357.910	194.115	0.00079766	0.00070086	4.1837e-05	1124.9	6.8485e-06	1.6896e-06	1204.4	224.93	6.6967e-06	6.1669e-06	284.09	80.083	63.075	18.063	6.2051e-06	25.224	0.0032173	0.005222	0.0014357	1142.8	5.0882e-05	5.7438e-05	1213.6	229.91	4.8564e-05	5.8184e-05	292.32	82.63	66.352	19.486	5.2473e-05	27.206	368.265	218.837	286.235	170.920	288.303	320.943	170.584	177.957	321.768	334.924	178.534	184.974	184.913	192.305	295.776	191.333	-8191	255	
1380.060	1	1	0	0	0.26009	0.12429	0.10268	0.11462	0.23624	0.21651	0.24317	0.25524	0.075273	0.1091	0.25	0.22848	0.068263	0.11607	0.0045002	0.049995	-3.2104	-3.0958	-3.725	-3.5125	-3.1937	-3.8896	-3.15	-3.4229	-3.6417	-3.2292	-3.7271	-3.4771	-3.1125	-3.85	-3.2	-3.4396	420.662	330.817	206.893	479.463	318.402	358.107	397.329	278.179	220.048	458.005	260.009	384.641	265.643	341.678	204.489	514.152	0.00088027	0.00062761	0.00016119	1127	7.9674e-06	4.3706e-06	1201.3	223.66	8.6289e-06	4.4648e-06	282.67	79.542	63.502	18.345	4.9776e-06	25.181	0.0031892	0.0050413	0.0014262	1143	5.0322e-05	5.5585e-05	1214	229.49	4.7593e-05	5.6124e-05	291.4	82.26	66.347	19.575	5.1006e-05	27.188	363.504	270.561	257.889	171.082	219.678	266.172	170.957	178.592	351.129	280.080	178.523	185.177	185.113	193.749	254.170	192.477	-8191	255	
1380.132	1	1	0	0	0.10603	0.1611	0.12984	0.08014	0.16753	0.061776	0.4218	0.37239	0.037762	0.23029	0.14197	0.085527	0.11598	0.059894	0.12304	0.21444	-3.425	-3.0333	-3.5521	-3.725	-3.0354	-3.8333	-3.2417	-3.3979	-3.8187	-2.9021	-3.5354	-3.5896	-2.9188	-3.8167	-3.3542	-2.9667	474.263	294.109	412.683	508.759	439.645	210.549	440.898	435.793	484.396	495.227	462.364	448.637	381.489	506.297	481.127	509.784	0.0009707	0.00034505	0.00014834	1128.4	8.8375e-06	6.3843e-06	1197.8	224.33	5.8948e-06	4.1672e-06	282.86	79.173	63.672	18.183	7.1151e-06	25.298	0.0031685	0.0049651	0.00138	1141.7	4.8124e-05	5.5654e-05	1211.3	229.76	4.6304e-05	5.5151e-05	291.88	82.307	66.264	19.479	5.0554e-05	27.218	383.752	220.655	277.362	173.183	306.550	276.366	170.852	178.757	324.510	319.688	178.442	184.925	184.812	192.420	254.450	191.266	-8191	255	
1380.228	1	1	0	0	0.2087	0.068853	0.20768	0.14539	0.13538	0.082007	0.37519	0.28863	0.24684	0.36055	0.017512	0.16968	0.27574	0.089809	0.27094	0.29468	-3.3292	-2.8646	-3.4813	-3.5854	-2.85	-3.5583	-3.5062	-3.2104	-3.6292	-3.1542	-3.6312	-3.7292	-2.9833	-3.7292	-3.1125	-3.1271	213.990	172.268	235.160	437.338	269.880	474.113	412.753	418.099	306.605	240.703	436.609	178.189	446.553	222.067	496.542	407.534	0.00076417	0.00012653	9.0539e-05	1125.8	9.0509e-06	4.0898e-06	1198.5	224.57	6.5889e-06	2.8405e-06	281.13	78.704	63.219	18.169	4.326e-06	25.135	0.0031278	0.0049484	0.001403	1141.6	4.9214e-05	5.578e-05	1212	229.44	4.732e-05	5.6572e-05	291.55	82.158	66.376	19.488	5.1488e-05	27.164	367.715	284.108	264.315	170.484	254.306	362.453	170.300	177.744	269.478	170.734	177.664	183.995	184.199	192.015	346.227	191.526	-8191	255	
1380.349	1	1	0	0	0.10908	0.10246	0.081669	0.43252	0.19454	0.039402	0.25389	0.38514	0.16914	0.059942	0.25721	0.21287	0.05762	0.10305	0.053805	0.17569	-3.2708	-2.9562	-3.5833	-3.8438	-2.9729	-3.5646	-3.5708	-3.1146	-3.8104	-3.0771	-3.2354	-3.6792	-3.1229	-3.5875	-3.5	-2.9688	427.301	328.719	415.146	469.173	221.825	374.114	446.803	458.945	464.882	400.248	500.496	439.111	169.698	438.472	439.506	485.445	0.00097382	0.00021085	0.00012209	1127.2	5.8869e-06	9.0862e-07	1197.4	224.4	5.1923e-07	1.8418e-06	279.58	79.143	63.258	18.131	6.4019e-06	25.323	0.0031465	0.0050042	0.0014012	1141.6	4.8996e-05	5.4885e-05	1212.2	229.34	4.7178e-05	5.6399e-05	290.96	82.19	66.282	19.546	5.1359e-05	27.219	369.984	268.383	267.796	170.385	326.330	320.575	169.986	177.688	212.129	310.201	177.259	183.737	183.952	192.060	376.091	190.952	-8191	255	
1380.445	1	1	0	0	0.16134	0.089373	0.10299	0.24466	0.076418	0.043368	0.15327	0.29163	0.21136	0.19432	0.31789	0.02683	0.16077	0.14951	0.24731	0.33055	-3.3208	-3.1125	-3.0604	-3.95	-2.7771	-3.5708	-3.5583	-2.9396	-3.7542	-3.1562	-3.2667	-3.8375	-2.9875	-3.5479	-3.4771	-2.7875	182.663	429.594	506.223	515.134	475.226	431.791	401.653	417.235	265.133	481.157	474.528	283.382	160.756	463.507	188.173	423.937	0.00096007	0.00042154	0.00012058	1127.1	1.0709e-05	2.8985e-06	1194.8	223.75	1.1444e-05	4.9682e-06	281.29	78.933	63.332	18.396	2.2102e-06	25.37	0.0031392	0.0048554	0.0013795	1140.6	4.8263e-05	5.3937e-05	1210	229.15	4.5604e-05	5.4114e-05	290.84	81.971	66.201	19.523	4.8795e-05	27.186	362.652	264.736	264.641	170.565	313.125	305.075	170.064	178.017	400.391	349.122	177.303	183.884	184.533	191.808	189.865	190.970	-8191	255	
1380.539	1	1	0	0	0.19204	0.20288	0.16886	0.21396	0.08984	0.29969	0.26526	0.11866	0.14833	0.1124	0.097883	0.14622	0.14884	0.30705	0.16589	0.15581	-3.1458	-3.4	-3.0042	-3.9229	-2.9521	-3.375	-3.9021	-2.8625	-3.6417	-3.3167	-3.2146	-3.9688	-3.0667	-3.3625	-3.7375	-2.9188	255.284	214.362	380.846	465.641	413.609	413.970	423.244	225.718	339.331	438.324	279.965	501.047	512.540	501.686	307.880	420.814	0.00092203	0.00022321	0.00013458	1121.3	1.0861e-05	3.2512e-06	1193.7	222.63	8.945e-06	4.3842e-06	278.33	78.444	62.461	18.073	3.0111e-06	25.082	0.0030701	0.0047896	0.0013468	1138.9	4.7266e-05	5.4229e-05	1207.4	228.59	4.6461e-05	5.4472e-05	289.96	81.941	66.024	19.497	4.9429e-05	27.141	364.666	167.912	264.714	170.276	255.800	344.702	169.992	177.369	313.953	267.851	177.289	183.604	184.374	191.890	288.311	190.923	-8191	255	
1380.660	1	1	0	0	0.095539	0.038568	0.30564	0.0935	0.15324	0.1271	0.34761	0.055076	0.17768	0.11503	0.098815	0.24782	0.26215	0.12597	0.14891	0.1057	-3.1417	-3.4354	-2.9625	-3.8771	-3.0542	-3.2667	-3.8271	-3.125	-3.6104	-3.5312	-3.0875	-3.875	-3.3479	-3.0312	-3.7062	-3.0708	232.052	306.110	437.254	209.066	379.449	315.425	421.756	255.865	466.217	382.389	432.134	474.105	211.303	364.415	180.551	298.292	0.00092698	8.0027e-05	2.3688e-05	1122.1	7.8622e-06	2.6569e-06	1188.6	222.26	7.7443e-06	4.4423e-06	278.66	78.427	63.095	18.26	5.0946e-06	25.219	0.0030334	0.0048117	0.0013387	1137.7	4.6498e-05	5.2583e-05	1206.5	228.56	4.4526e-05	5.1581e-05	289.7	81.746	65.885	19.462	4.6713e-05	27.11	374.687	235.800	279.561	170.350	283.392	394.829	169.961	177.768	246.106	320.788	177.066	183.945	184.309	191.629	283.539	191.177	-8191	255	
1380.731	1	1	0	0	0.082097	0.10064	0.20816	0.31104	0.15429	0.38137	0.062866	0.29978	0.16884	0.23893	0.19469	0.034564	0.10148	0.16281	0.16277	0.23083	-3.1063	-3.3771	-2.8354	-3.8417	-3.0729	-3.3	-3.9729	-3.0604	-3.5042	-3.6937	-2.9708	-3.8375	-3.3563	-3.175	-3.8396	-3.1354	324.544	405.688	420.338	491.941	160.180	292.003	429.584	415.611	192.826	402.628	189.624	197.424	229.929	255.955	386.859	180.842	0.00089037	0.00064991	0.00011808	1118	7.4083e-06	3.518e-06	1181.6	223.5	7.011e-06	2.2614e-06	279.66	78.686	62.941	17.976	5.082e-06	25.084	0.0028789	0.0045998	0.0013034	1136.1	4.5396e-05	5.1666e-05	1203.6	228.18	4.4349e-05	5.1829e-05	289.82	81.764	65.795	19.356	4.6793e-05	27.086	365.389	272.749	260.002	170.417	295.659	260.412	170.023	177.509	299.861	241.618	176.978	183.726	184.236	191.788	190.328	190.840	-8191	255	
1380.828	1	1	0	0	0.20046	0.21184	0.21614	0.16087	0.056483	0.34465	0.23362	0.043149	0.19189	0.1057	0.21512	0.064756	0.35952	0.23096	0.087024	0.25535	-2.9583	-3.6708	-2.8896	-3.875	-3.4375	-2.8729	-4.0479	-3.1229	-3.2313	-3.6729	-3.2333	-3.8646	-3.3	-2.9708	-3.6188	-3.275	421.641	249.436	412.414	476.447	363.755	311.450	400.240	442.378	425.754	311.643	466.666	489.335	161.152	179.582	192.106	377.738	0.00084127	0.00027134	0.00016547	1118.5	5.7169e-06	1.833e-06	1195.7	222.85	9.4436e-06	2.9524e-06	279.45	78.571	63.355	18.221	4.6597e-06	25.098	0.0028975	0.0046299	0.0013133	1135.6	4.6337e-05	5.2749e-05	1206.6	228.23	4.4802e-05	5.1659e-05	289.65	81.833	65.944	19.419	4.6501e-05	26.989	377.126	253.642	271.991	170.374	323.404	167.251	170.294	177.554	340.467	327.989	177.138	184.085	184.243	192.051	337.377	190.738	-8191	255	
1380.924	1	1	0	0	0.095282	0.15823	0.036939	0.020264	0.10801	0.15941	0.21317	0.16462	0.21408	0.15575	0.12007	0.12255	0.16152	0.16135	0.023118	0.094054	-2.9437	-3.7875	-3.0375	-3.7521	-3.4167	-3	-3.9417	-3.4688	-3.3375	-3.8167	-3.0146	-3.4938	-3.6375	-3.0146	-3.775	-3.2917	258.638	207.533	354.684	258.522	508.170	392.498	426.326	453.097	516.240	415.149	444.705	460.962	161.150	514.817	499.336	324.747	0.00070826	0.00037739	6.3894e-05	1127.5	3.3206e-06	4.4556e-06	1202.2	224.36	3.9546e-06	3.1306e-06	280.23	78.559	63.09	17.939	5.6883e-06	25.339	0.0029463	0.004552	0.0012967	1137.4	4.4955e-05	5.1352e-05	1207.4	228.5	4.3198e-05	5.0689e-05	289.87	81.71	65.959	19.346	4.6312e-05	27.032	370.285	295.843	518.512	170.686	296.266	293.345	170.157	177.756	358.966	328.023	177.055	184.090	184.051	191.835	410.085	191.291	-8191	255	
1381.044	1	1	0	0	0.18595	0.093499	0.18292	0.18917	0.028851	0.12108	0.22532	0.18301	0.3223	0.089862	0.15072	0.057549	0.059273	0.25959	0.14131	0.14103	-2.7687	-3.6167	-2.8979	-3.3688	-3.6667	-3.0146	-3.9	-3.3083	-2.95	-3.8063	-3.0958	-3.4667	-3.65	-3.075	-3.7271	-3.3521	172.098	375.763	292.668	359.604	376.646	481.482	467.979	486.623	193.153	303.467	174.046	176.345	506.192	444.449	190.178	197.531	0.0010637	0.00025451	2.5685e-05	1118.5	6.3485e-06	1.5835e-06	1191	223.27	8.1024e-06	9.6652e-06	280.63	78.468	63.275	18.097	7.0784e-06	25.054	0.0028313	0.0044602	0.0012535	1134.2	4.3898e-05	5.0888e-05	1204.3	228.16	4.3633e-05	5.0823e-05	289.34	81.634	65.92	19.415	4.7262e-05	27.063	364.452	224.416	359.293	170.290	361.284	299.108	170.102	177.424	304.378	302.480	177.184	183.765	183.829	191.931	329.581	190.770	-8191	255	
1381.140	1	1	0	0	0.22035	0.11324	0.27256	0.24481	0.045611	0.16696	0.16458	0.19433	0.067281	0.10499	0.24323	0.036877	0.067296	0.23373	0.20271	0.0054432	-2.5771	-3.6896	-3.1896	-3.4437	-3.6521	-3.0312	-3.6792	-3.4333	-2.9938	-3.6854	-3.2375	-3.2583	-3.75	-3.2146	-3.4521	-3.3917	330.218	182.639	419.712	462.134	374.735	508.254	417.104	452.774	293.342	184.606	396.418	378.817	333.106	403.386	508.890	426.467	0.00095251	0.00064246	0.00021794	1115	7.4687e-06	6.1172e-06	1186.6	222.17	1.2736e-05	4.1732e-06	279.41	78.652	62.853	18.136	1.5643e-06	25.359	0.00298	0.0046088	0.0013228	1135.4	4.6084e-05	5.3786e-05	1204.1	227.98	4.4167e-05	5.3065e-05	289.26	81.895	65.927	19.443	4.7944e-05	27.091	358.950	210.548	258.529	170.373	273.100	367.153	170.211	177.336	307.071	333.124	177.287	184.075	184.050	191.567	247.477	190.969	-8191	255	
1381.237	1	1	0	0	0.11717	0.10075	0.30738	0.047037	0.16223	0.11637	0.17153	0.31002	0.18651	0.10776	0.18191	0.214	0.054456	0.14144	0.085202	0.066494	-2.6417	-3.8937	-3.15	-3.3125	-3.7333	-3.0583	-3.8167	-3.6229	-2.9354	-3.7625	-3.2188	-3.1021	-3.7104	-3.0375	-3.3375	-3.6646	374.809	329.467	287.722	208.320	214.298	393.816	423.962	462.071	230.393	320.514	480.099	503.690	454.096	233.207	518.497	227.523	0.00079991	0.00051702	9.0446e-05	1121.1	1.1662e-05	4.8921e-06	1196.3	222.36	1.0084e-05	7.3966e-06	280.79	78.987	62.972	18.229	5.6677e-06	25.159	0.0029805	0.0046072	0.0012902	1136.1	4.4989e-05	5.2521e-05	1206.9	228.12	4.3599e-05	5.1028e-05	289.68	81.765	65.762	19.401	4.6618e-05	27.065	367.714	257.285	241.106	170.412	275.373	364.687	170.391	177.671	327.159	324.189	177.324	184.064	184.184	191.841	288.486	190.527	-8191	255	
1381.333	1	1	0	0	0.11794	0.10734	0.20266	0.42176	0.18297	0.2678	0.21218	0.12865	0.23924	0.029392	0.1849	0.15995	0.21308	0.28782	0.10307	0.19034	-2.4688	-3.6104	-3.3063	-3.3646	-3.775	-3.0417	-3.6896	-3.7229	-3.0021	-3.6375	-3.3292	-3.1583	-3.7542	-3.1396	-3.2479	-3.8021	476.232	386.579	161.771	469.761	475.253	284.974	411.728	427.644	236.532	410.159	495.932	160.426	164.003	512.884	190.817	421.254	0.00084409	0.00059902	9.0048e-05	1114.2	2.2938e-06	2.7791e-06	1188.8	221.91	5.5326e-06	3.8069e-06	280.41	79.061	62.619	18.062	5.5879e-06	25.012	0.0028676	0.0044625	0.0012513	1133	4.393e-05	5.0171e-05	1203.8	227.36	4.1825e-05	4.925e-05	288.62	81.79	65.489	19.317	4.4395e-05	26.868	370.598	219.976	243.335	170.459	371.489	294.832	170.094	177.439	300.907	359.200	176.648	183.872	184.320	191.017	339.874	191.065	-8191	255	
1381.429	1	1	0	0	0.090426	0.17275	0.10113	0.30102	0.10257	0.15954	0.21193	0.19992	0.029136	0.051219	0.12065	0.087246	0.039844	0.12897	0.099616	0.078251	-2.5021	-3.5687	-3.5104	-3.3271	-3.6604	-3.0563	-3.4479	-4.0208	-2.9917	-3.7562	-3.6875	-3.0062	-3.9583	-3.1083	-3.0521	-3.7562	448.785	472.220	270.476	516.533	404.866	234.970	466.746	342.539	215.518	274.262	415.117	464.104	368.747	349.297	358.504	486.932	0.00085999	0.00019081	0.0002331	1121.5	4.5093e-06	2.9166e-06	1194.7	222.81	5.2734e-06	1.0075e-06	278.7	78.469	63.298	18.03	8.92e-06	25.192	0.0027145	0.0042718	0.0011785	1132.9	4.1639e-05	4.8354e-05	1204.7	227.51	4.0817e-05	4.8544e-05	288.12	81.398	65.767	19.361	4.4728e-05	26.97	358.920	215.411	227.583	170.436	336.832	280.949	170.502	177.575	275.599	229.139	177.363	183.924	183.991	191.547	289.784	190.945	-8191	255	
1381.525	1	1	0	0	0.24267	0.049789	0.14946	0.14136	0.065752	0.087498	0.1577	0.13456	0.17042	0.13407	0.10602	0.095398	0.12334	0.082639	0.31371	0.24293	-2.4729	-3.3646	-3.5292	-3.0583	-3.6625	-3.3625	-3.2687	-3.6958	-3.1458	-3.6125	-3.7438	-2.9688	-3.6792	-3.2271	-3.1771	-3.8042	169.937	443.113	490.221	382.239	387.472	437.982	420.688	453.627	209.612	238.051	212.483	514.463	193.545	421.714	484.324	199.217	0.0010452	0.00038426	7.8218e-05	1116.4	4.138e-06	3.3477e-06	1189.6	223.09	1.052e-05	4.3022e-06	279.06	78.889	63.132	18.107	2.0483e-06	25.231	0.0027955	0.0043957	0.0011954	1131.7	4.321e-05	4.936e-05	1202.9	227.75	4.2004e-05	4.9041e-05	289.1	81.6	65.651	19.304	4.4661e-05	27.023	373.889	295.736	266.279	170.578	311.838	341.210	170.244	177.457	341.122	192.205	176.898	183.723	184.536	191.494	259.026	191.126	-8191	255	
1381.621	1	1	0	0	0.11035	0.1127	0.11511	0.19761	0.16568	0.10809	0.10328	0.27359	0.05421	0.041161	0.11089	0.087821	0.17476	0.14089	0.23754	0.070386	-2.7146	-3.425	-3.675	-3.1	-3.5646	-3.2812	-3.1042	-3.8063	-3.2062	-3.3063	-3.7854	-2.9125	-3.7687	-3.35	-2.95	-3.775	193.452	269.269	192.938	407.834	375.558	310.716	332.660	431.790	487.634	226.190	261.262	456.070	509.219	193.249	271.106	293.659	0.00095867	0.00017392	8.3832e-05	1118.3	9.1423e-06	3.3863e-06	1188.1	222.5	3.6794e-06	4.8466e-06	279.7	79.018	62.942	18.045	6.0081e-06	25.218	0.0027779	0.0043262	0.0011897	1132.3	4.284e-05	4.8142e-05	1201.2	227.35	4.0492e-05	4.8242e-05	288.58	81.589	65.544	19.272	4.4435e-05	26.949	371.040	172.224	218.461	170.486	284.565	362.907	169.783	177.639	223.588	316.038	177.342	183.847	184.216	192.021	343.414	190.731	-8191	255	
1381.740	1	1	0	0	0.13925	0.18954	0.1451	0.13963	0.11425	0.20625	0.11575	0.21354	0.10744	0.096514	0.094877	0.12731	0.20508	0.27804	0.1865	0.11386	-2.8708	-3.0833	-3.725	-3.2354	-3.5771	-3.4771	-3.2	-3.6292	-3.1312	-3.1667	-3.8354	-3.0583	-3.5229	-3.5146	-2.9562	-3.7625	377.157	308.859	230.046	364.313	268.080	362.192	486.402	512.055	208.985	461.789	442.951	489.015	231.539	518.444	286.224	167.008	0.00088574	0.00027484	0.00013698	1115.9	5.1562e-06	4.359e-06	1191.7	222.23	8.744e-06	5.4153e-06	279.9	79.195	63.256	18.079	1.0326e-06	25.151	0.0027276	0.004245	0.0011783	1131	4.1706e-05	4.7637e-05	1201.4	227.32	4.0469e-05	4.8169e-05	288.45	81.534	65.676	19.308	4.4277e-05	26.939	373.145	315.389	212.172	170.283	237.117	295.996	170.443	177.723	270.523	378.477	177.198	183.918	184.252	191.699	258.249	191.206	-8191	255	
1381.836	1	1	0	0	0.16118	0.24861	0.097754	0.30679	0.15241	0.12868	0.21409	0.14824	0.13843	0.15636	0.15667	0.22329	0.29945	0.17317	0.1656	0.349	-2.9104	-3.125	-3.8146	-3.0917	-3.3812	-3.575	-3.1625	-3.7104	-3.3271	-3.1729	-3.8292	-3.0854	-3.2667	-3.6771	-3.0125	-3.7646	373.907	202.294	462.989	438.788	369.235	365.117	457.755	162.088	274.332	403.503	405.469	201.078	517.547	385.076	373.026	314.440	0.00088478	0.0005058	0.00011494	1122.4	2.8139e-06	7.0272e-06	1187.5	223.29	6.1783e-06	2.9473e-06	280.48	78.765	63.078	18.124	5.4311e-06	25.193	0.0027527	0.0042994	0.001194	1132.5	4.2695e-05	4.7858e-05	1200.9	227.65	4.1778e-05	4.9025e-05	288.54	81.549	65.665	19.326	4.3569e-05	26.951	366.880	303.107	227.039	170.033	244.098	260.556	170.168	177.678	349.391	255.879	177.106	183.879	184.507	191.699	335.286	190.784	-8191	255	
1381.932	1	1	0	0	0.027972	0.031366	0.11271	0.22497	0.18629	0.058415	0.029442	0.096578	0.079148	0.132	0.080868	0.22166	0.063326	0.1328	0.12165	0.18332	-2.7667	-3.075	-3.8146	-3.1417	-3.3271	-3.7104	-2.9875	-3.475	-3.5042	-3.175	-3.8292	-3.1146	-3.1354	-3.7146	-2.8688	-3.7271	242.861	470.107	237.936	446.401	182.814	301.852	291.541	481.657	209.134	461.797	215.477	459.016	256.306	182.184	223.334	182.415	0.00068731	0.00059525	0.00023247	1117.7	1.0378e-05	4.7118e-06	1189.4	222.57	4.9497e-06	6.3546e-06	279.26	78.299	62.927	18.094	6.0711e-06	25.283	0.0027152	0.0042483	0.0011824	1130.4	4.1435e-05	4.7343e-05	1203.4	227.35	4.0682e-05	4.7607e-05	288.06	81.407	65.622	19.305	4.3093e-05	26.946	373.788	261.044	320.002	170.445	317.863	294.013	170.084	177.549	356.659	299.819	177.130	183.826	184.415	191.350	348.790	190.947	-8191	255	
1382.029	1	1	0	0	0.25074	0.13427	0.15427	0.14552	0.027545	0.053656	0.096296	0.076286	0.10472	0.20169	0.13436	0.19967	0.20108	0.10022	0.0969	0.2456	-3.1063	-2.8312	-3.7771	-3.4042	-3.1437	-3.7625	-3.1167	-3.7083	-3.5917	-2.9562	-3.8042	-3.2042	-3.1104	-3.7354	-3.0771	-3.4688	412.422	466.056	211.439	175.790	320.257	466.545	403.108	352.027	303.376	315.379	343.024	291.838	235.570	373.437	186.483	205.917	0.00095892	0.00054201	5.1706e-05	1118.1	5.2968e-06	4.0635e-06	1194.3	222.83	5.8946e-06	5.3438e-06	279.06	78.197	62.602	18.145	6.3254e-06	25.273	0.002704	0.0042145	0.0011743	1129.7	4.0998e-05	4.6826e-05	1201.4	227.05	4.0079e-05	4.7186e-05	288.14	81.22	65.519	19.291	4.3631e-05	26.957	366.065	266.023	245.818	170.368	340.791	219.333	169.997	177.516	231.140	337.732	177.340	183.642	184.344	191.513	290.943	190.852	-8191	255	
1382.125	1	1	0	0	0.28758	0.266	0.051397	0.31675	0.20341	0.11343	0.16019	0.069779	0.11836	0.20432	0.13393	0.19831	0.15473	0.050764	0.080498	0.13424	-3.2062	-3.0354	-3.5625	-3.4729	-2.9229	-3.8563	-3.1646	-3.5542	-3.5729	-2.9437	-3.7562	-3.3937	-3.0896	-3.6562	-3.1042	-3.3542	286.406	517.871	167.285	430.286	359.228	257.667	392.622	506.215	481.115	342.863	419.051	437.453	506.694	182.794	373.488	499.640	0.00084476	0.00013427	0.00017248	1114.3	4.0494e-06	1.7066e-06	1186	223.39	7.568e-06	3.0609e-06	281.2	78.405	63.228	18.064	1.5612e-06	25.151	0.002689	0.0042401	0.0011838	1129.9	4.1593e-05	4.7264e-05	1198.6	227.38	4.0543e-05	4.8262e-05	288.98	81.232	65.568	19.255	4.3552e-05	26.991	371.957	162.529	248.649	170.313	317.425	247.993	170.125	177.279	309.374	389.701	177.146	183.518	184.205	191.261	392.271	190.709	-8191	255	
1382.221	1	1	0	0	0.074921	0.10668	0.22835	0.19961	0.16679	0.11461	0.1817	0.10858	0.16243	0.12229	0.20473	0.19616	0.21717	0.22318	0.2682	0.17284	-3.0417	-3.0187	-3.7604	-3.4521	-2.9437	-3.8229	-3.4792	-3.3417	-3.65	-2.9021	-3.5083	-3.5604	-3.125	-3.6396	-3.1896	-3.2604	343.819	438.321	224.731	454.706	335.899	517.958	391.084	493.768	307.004	290.372	361.827	204.629	177.685	487.885	262.213	468.226	0.001023	0.00030636	0.00023442	1118.3	3.5649e-06	2.4828e-06	1185.7	222.15	6.6427e-06	3.0686e-06	279.9	78.665	62.906	18.148	5.1179e-06	25.067	0.0027009	0.0043289	0.0011905	1129.2	4.2084e-05	4.744e-05	1199.1	227.03	3.9592e-05	4.7427e-05	288.34	81.378	65.522	19.277	4.2256e-05	26.888	361.437	203.335	300.114	170.293	350.135	346.059	170.090	177.618	279.298	389.296	177.295	183.701	184.930	191.488	302.637	191.161	-8191	255	
#DATA ENDS
