BOXY.EXE: ISS Imagent and Oximeter Data Acquisition Program Version 0.80
Ascii Record File

#ACQ INFORMATION
2  Detector Channels 
16  External MUX Channels 
1  Auxiliary Channels 
5000  Waveform (CCF) Frequency (Hz)
1  Waveforms Skipped 
30  Waveforms Averaged 
1  Cycles Averaged 
16  Acquisitions per Waveform 
10.0806  Updata Rate (Hz) 

#FILE INFORMATION
TRUE -- External MUX Channel results are PARSED.
FALSE -- AC DC and Phase are NOT grouped.
TRUE -- Companion Program Settings File CREATED.
FALSE -- AC data not excluded
FALSE -- DC data not excluded
FALSE -- Phase data not excluded
FALSE -- Auxillary Chn. data not excluded
Tab delimiters

#CALIBRATION STATE
TRUE -- Waveform Calibration Values APPLIED.


#AUX CALIBRATION VALUES
Val Type	aux-1	

Term	1.0000e+00	
Factor	0.0000e+00	


#WF CALIBRATION VALUES
A = Detector Channel
Val Type	A-AC1	A-AC2	A-AC3	A-AC4	A-AC5	A-AC6	A-AC7	A-AC8	A-AC9	A-AC10	A-AC11	A-AC12	A-AC13	A-AC14	A-AC15	A-AC16	A-DC1	A-DC2	A-DC3	A-DC4	A-DC5	A-DC6	A-DC7	A-DC8	A-DC9	A-DC10	A-DC11	A-DC12	A-DC13	A-DC14	A-DC15	A-DC16	A-Ph1	A-Ph2	A-Ph3	A-Ph4	A-Ph5	A-Ph6	A-Ph7	A-Ph8	A-Ph9	A-Ph10	A-Ph11	A-Ph12	A-Ph13	A-Ph14	A-Ph15	A-Ph16	

Term	0.00000e+00	0.00000e+00	0.00000e+00	0.00000e+00	0.00000e+00	0.00000e+00	0.00000e+00	0.00000e+00	0.00000e+00	0.00000e+00	0.00000e+00	0.00000e+00	0.00000e+00	0.00000e+00	0.00000e+00	0.00000e+00	0.00000e+00	0.00000e+00	0.00000e+00	0.00000e+00	0.00000e+00	0.00000e+00	0.00000e+00	0.00000e+00	0.00000e+00	0.00000e+00	0.00000e+00	0.00000e+00	0.00000e+00	0.00000e+00	0.00000e+00	0.00000e+00	0.00000e+00	0.00000e+00	0.00000e+00	0.00000e+00	0.00000e+00	0.00000e+00	0.00000e+00	0.00000e+00	0.00000e+00	0.00000e+00	0.00000e+00	0.00000e+00	0.00000e+00	0.00000e+00	0.00000e+00	0.00000e+00	
Factor	1.00000e+00	1.00000e+00	1.00000e+00	1.00000e+00	1.00000e+00	1.00000e+00	1.00000e+00	1.00000e+00	1.00000e+00	1.00000e+00	1.00000e+00	1.00000e+00	1.00000e+00	1.00000e+00	1.00000e+00	1.00000e+00	1.00000e+00	1.00000e+00	1.00000e+00	1.00000e+00	1.00000e+00	1.00000e+00	1.00000e+00	1.00000e+00	1.00000e+00	1.00000e+00	1.00000e+00	1.00000e+00	1.00000e+00	1.00000e+00	1.00000e+00	1.00000e+00	X	X	X	X	X	X	X	X	X	X	X	X	X	X	X	X	

B = Detector Channel
Val Type	B-AC1	B-AC2	B-AC3	B-AC4	B-AC5	B-AC6	B-AC7	B-AC8	B-AC9	B-AC10	B-AC11	B-AC12	B-AC13	B-AC14	B-AC15	B-AC16	B-DC1	B-DC2	B-DC3	B-DC4	B-DC5	B-DC6	B-DC7	B-DC8	B-DC9	B-DC10	B-DC11	B-DC12	B-DC13	B-DC14	B-DC15	B-DC16	B-Ph1	B-Ph2	B-Ph3	B-Ph4	B-Ph5	B-Ph6	B-Ph7	B-Ph8	B-Ph9	B-Ph10	B-Ph11	B-Ph12	B-Ph13	B-Ph14	B-Ph15	B-Ph16	

Term	0.00000e+00	0.00000e+00	0.00000e+00	0.00000e+00	0.00000e+00	0.00000e+00	0.00000e+00	0.00000e+00	0.00000e+00	0.00000e+00	0.00000e+00	0.00000e+00	0.00000e+00	0.00000e+00	0.00000e+00	0.00000e+00	0.00000e+00	0.00000e+00	0.00000e+00	0.00000e+00	0.00000e+00	0.00000e+00	0.00000e+00	0.00000e+00	0.00000e+00	0.00000e+00	0.00000e+00	0.00000e+00	0.00000e+00	0.00000e+00	0.00000e+00	0.00000e+00	-2.23846e+00	-1.31119e+02	-1.35896e+02	-1.81478e+02	-5.32445e+01	-6.29258e+01	-1.58115e+02	-1.62015e+02	-5.21912e+01	-6.51356e+01	-1.73607e+02	-1.71776e+02	-1.83012e+02	-1.76573e+02	-5.74558e+01	-1.49837e+02	
Factor	3.30459e-05	1.49444e-04	4.39707e-05	1.58432e-01	1.72561e-06	1.36174e-06	1.67435e-01	4.77828e-02	1.66550e-06	1.80684e-06	9.40725e-02	2.82132e-02	5.96618e-02	8.24392e-03	1.74084e-06	1.21984e-02	3.04457e-06	3.32303e-06	9.25805e-07	8.43004e-02	3.58660e-08	3.66680e-08	8.32303e-02	2.54810e-02	3.58404e-08	3.65924e-08	4.79435e-02	1.44760e-02	3.08274e-02	4.42958e-03	3.60998e-08	6.29450e-03	X	X	X	X	X	X	X	X	X	X	X	X	X	X	X	X	



#DISTANCE SETTINGS
A = Detector Channel
A-1	A-2	A-3	A-4	A-5	A-6	A-7	A-8	A-9	A-10	A-11	A-12	A-13	A-14	A-15	A-16	

2.5000e+00	3.0000e+00	2.5000e+00	3.0000e+00	2.0000e+00	3.0000e+00	1.5000e+00	3.0000e+00	3.0000e+00	3.0000e+00	3.0000e+00	3.0000e+00	3.0000e+00	3.0000e+00	1.5000e+00	3.0000e+00	

B = Detector Channel
B-1	B-2	B-3	B-4	B-5	B-6	B-7	B-8	B-9	B-10	B-11	B-12	B-13	B-14	B-15	B-16	

1.0000e+01	1.0000e+01	1.0000e+01	1.4400e+00	1.0000e+01	1.0000e+01	1.5100e+00	1.9400e+00	1.0000e+01	1.0000e+01	1.9900e+00	2.4900e+00	2.4100e+00	2.9000e+00	1.0000e+01	2.9800e+00	




#DATA BEGINS
time	group	step	mark	flag	A-AC1	A-AC2	A-AC3	A-AC4	A-AC5	A-AC6	A-AC7	A-AC8	A-AC9	A-AC10	A-AC11	A-AC12	A-AC13	A-AC14	A-AC15	A-AC16	A-DC1	A-DC2	A-DC3	A-DC4	A-DC5	A-DC6	A-DC7	A-DC8	A-DC9	A-DC10	A-DC11	A-DC12	A-DC13	A-DC14	A-DC15	A-DC16	A-Ph1	A-Ph2	A-Ph3	A-Ph4	A-Ph5	A-Ph6	A-Ph7	A-Ph8	A-Ph9	A-Ph10	A-Ph11	A-Ph12	A-Ph13	A-Ph14	A-Ph15	A-Ph16	B-AC1	B-AC2	B-AC3	B-AC4	B-AC5	B-AC6	B-AC7	B-AC8	B-AC9	B-AC10	B-AC11	B-AC12	B-AC13	B-AC14	B-AC15	B-AC16	B-DC1	B-DC2	B-DC3	B-DC4	B-DC5	B-DC6	B-DC7	B-DC8	B-DC9	B-DC10	B-DC11	B-DC12	B-DC13	B-DC14	B-DC15	B-DC16	B-Ph1	B-Ph2	B-Ph3	B-Ph4	B-Ph5	B-Ph6	B-Ph7	B-Ph8	B-Ph9	B-Ph10	B-Ph11	B-Ph12	B-Ph13	B-Ph14	B-Ph15	B-Ph16	aux-1	digaux	

1781.479	1	1	0	768	0.34568	0.13023	0.097059	0.14466	0.29178	0.21491	0.26345	0.12896	0.10292	0.18823	0.069357	0.078383	0.26047	0.054261	0.14728	0.16424	-1.3438	-1.6271	-2.6562	-1.7083	-2.2646	-2.3833	-1.8604	-2.7125	-2.05	-2.0021	-2.5896	-1.7854	-2.125	-2.5167	-1.7229	-2.6042	-2.590	-106.536	-39.669	37.991	-56.973	9.458	-122.103	123.896	162.009	-89.212	109.154	75.773	121.411	184.718	44.018	7.952	0.0005787	0.00033896	0.00034777	691.9	1.6328e-05	1.1652e-05	601.38	248.38	2.8601e-06	8.3139e-06	242.81	95.052	96.822	37.318	6.4158e-06	38.778	0.0020241	0.0021874	0.00061141	738.24	2.403e-05	2.4798e-05	652.12	263.78	2.4501e-05	2.4897e-05	271.74	103.66	114.77	40.383	2.4205e-05	42.791	-22.398	-89.222	-97.733	-137.860	-19.709	-113.376	-139.784	-132.274	-44.485	67.474	-135.192	-131.608	-127.526	-123.464	63.412	-127.141	-8191	255	
1781.575	1	1	0	0	0.098841	0.2831	0.18657	0.19261	0.25388	0.18395	0.16161	0.1191	0.1106	0.25169	0.16149	0.10329	0.091805	0.35518	0.23584	0.068703	-1.7542	-1.8312	-2.7875	-1.9688	-2.1208	-2.5979	-1.7104	-2.5479	-2.1875	-1.6792	-2.525	-1.8208	-1.9688	-2.5792	-1.7021	-2.4604	110.791	-142.307	-100.819	-83.439	55.246	30.988	105.332	-31.889	185.345	140.805	204.364	-18.551	48.694	99.331	175.813	-95.507	0.00082476	0.00057928	0.00012376	675.9	9.7708e-06	7.9201e-06	591.69	244.77	8.0243e-06	1.0654e-05	241.62	94.83	98.019	37.579	1.2883e-05	39.279	0.0020836	0.0022453	0.00061371	725.54	2.3918e-05	2.4529e-05	638.87	260.41	2.3707e-05	2.419e-05	268.89	103.29	114.06	40.509	2.3111e-05	43.064	-28.634	18.291	-64.006	-138.273	91.471	78.343	-140.006	-132.573	-15.406	126.452	-135.799	-131.791	-127.746	-123.461	-33.199	-127.355	-8191	255	
1781.671	1	1	0	0	0.20061	0.053792	0.12199	0.13633	0.13727	0.17275	0.23097	0.2989	0.10269	0.18521	0.29627	0.2243	0.113	0.096827	0.057356	0.066915	-1.9396	-1.5708	-2.4521	-1.8625	-1.9542	-2.4646	-1.7563	-2.5167	-2.175	-1.6562	-2.65	-1.9542	-1.9688	-2.7479	-1.6875	-2.2438	-13.468	-14.959	-139.953	116.775	-6.008	107.218	138.953	122.444	-133.616	151.205	61.962	97.272	-126.882	24.450	20.159	-116.886	0.00038218	0.0011598	0.00024808	670.96	7.2741e-06	4.6435e-06	591.73	245.64	2.6058e-06	3.7184e-06	244.49	95.453	97.807	37.829	1.0016e-05	39.658	0.0019787	0.0021116	0.00058433	716.94	2.2494e-05	2.266e-05	636.34	260.32	2.1836e-05	2.2303e-05	269.76	103.78	113.24	40.621	2.1136e-05	43.178	-49.716	-80.361	23.108	-138.230	-58.842	-80.016	-139.544	-132.137	131.868	-51.301	-135.750	-131.901	-127.815	-123.317	-31.658	-127.121	-8191	255	
1781.767	1	1	0	0	0.085948	0.14815	0.12089	0.34858	0.21633	0.20519	0.089782	0.21404	0.020906	0.13652	0.14726	0.11031	0.038749	0.073945	0.19308	0.2343	-2.0021	-1.5833	-2.4562	-1.9083	-1.9479	-2.6104	-1.6938	-2.225	-2.4771	-1.4896	-2.6562	-2.1729	-1.7396	-2.6396	-1.7417	-2.0521	-73.733	110.139	41.527	97.779	130.101	170.838	-121.574	185.157	24.951	-81.667	-132.829	-138.492	30.945	-97.768	63.725	-32.034	0.00055598	8.5223e-05	0.00024535	675.81	1.0025e-05	3.383e-06	601.57	249.13	1.071e-05	6.5442e-06	251.04	97.879	98.337	38.354	7.0605e-06	39.873	0.0018149	0.0019245	0.00052783	715.3	2.0602e-05	2.0915e-05	642.52	261.6	2.0385e-05	2.0647e-05	273.69	104.88	113.08	40.685	1.976e-05	43.29	-22.136	31.331	189.873	-138.440	-1.794	-29.753	-139.802	-132.431	-12.354	-91.514	-135.904	-131.980	-128.188	-123.191	106.884	-127.342	-8191	255	
1781.863	1	1	0	0	0.20344	0.081251	0.26319	0.088248	0.28301	0.15205	0.11351	0.17866	0.081274	0.03255	0.12218	0.16423	0.045416	0.39562	0.15797	0.14218	-2.1417	-1.6292	-2.5729	-2.2833	-1.5063	-2.4125	-1.8687	-1.9521	-2.4854	-1.6146	-2.4292	-2.1229	-1.75	-2.5583	-1.8312	-1.8667	-10.338	-90.216	196.791	-33.487	184.527	-78.925	154.674	144.103	-126.180	140.950	186.419	187.865	-53.940	57.700	-136.288	208.639	0.00057451	0.001079	0.00014457	682.1	1.2682e-05	5.6192e-06	605.73	249.36	1.0737e-05	4.7636e-06	250.2	97.168	98.673	38.102	9.8874e-06	39.577	0.001704	0.0018177	0.00050727	717.95	1.9851e-05	2.0012e-05	645.06	261.95	1.988e-05	2.0108e-05	271.67	104.2	112.33	40.436	1.9688e-05	42.892	-46.728	-54.228	193.239	-138.416	-55.024	-35.124	-139.803	-132.512	-59.936	-136.366	-135.983	-131.735	-127.945	-123.544	30.298	-127.189	-8191	255	
1781.959	1	1	0	0	0.16709	0.25459	0.068382	0.16157	0.15781	0.08054	0.17912	0.31864	0.30637	0.12909	0.10323	0.16008	0.082827	0.068021	0.18964	0.11954	-2.0729	-1.7896	-2.3438	-2.2875	-1.7479	-2.3937	-1.9562	-1.9979	-2.7771	-1.5375	-2.1625	-2.3417	-1.6271	-2.6	-1.9479	-1.8958	37.630	-94.505	77.860	-27.512	138.102	-137.019	99.759	107.420	-71.824	-52.108	95.734	144.243	137.276	-72.755	53.426	121.903	0.00053445	0.00065408	1.8698e-05	666.48	9.0715e-06	4.5794e-06	590.2	247.43	8.3838e-06	9.4853e-06	249.3	97.472	99.754	38.716	2.3739e-06	40.584	0.0017001	0.0017912	0.00049846	703.17	1.9437e-05	1.9584e-05	627.05	259.51	1.8919e-05	1.9092e-05	269.26	104.25	112.23	40.863	1.8372e-05	43.342	-34.489	-54.855	144.205	-138.127	36.300	-41.050	-139.887	-132.382	-54.722	28.413	-135.839	-131.603	-127.991	-123.133	-61.160	-127.059	-8191	255	
1782.080	1	1	0	0	0.14661	0.12481	0.27603	0.27612	0.12089	0.20922	0.18664	0.21129	0.24223	0.12773	0.23176	0.27331	0.30156	0.088756	0.15555	0.10417	-2.3021	-1.7708	-2.0021	-2.4604	-1.5333	-2.4167	-2.1583	-1.6854	-2.6688	-1.7917	-1.9813	-2.5083	-1.6458	-2.5292	-2.0271	-1.8521	155.669	-21.086	195.400	141.301	80.616	196.378	160.374	192.556	-111.584	152.422	168.360	118.755	33.261	-29.796	134.246	-147.779	0.00058921	0.00088656	0.00033941	663.09	3.502e-06	7.6146e-06	601.99	250.21	5.2044e-06	1.0839e-05	253.73	99.117	100.1	38.741	6.9854e-06	40.535	0.0015716	0.0016312	0.00045622	699.73	1.7229e-05	1.7418e-05	631.75	260.74	1.6733e-05	1.7023e-05	271.93	104.84	111.43	40.769	1.6181e-05	43.29	-35.273	-48.966	-65.752	-138.052	76.715	19.077	-139.732	-132.416	-47.621	-15.493	-135.792	-131.554	-128.056	-122.815	-75.720	-127.018	-8191	255	
1782.176	1	1	0	0	0.47519	0.058237	0.14448	0.16595	0.18048	0.030977	0.17509	0.16552	0.208	0.25589	0.18743	0.15582	0.18714	0.22008	0.25619	0.097988	-2.1146	-1.6104	-1.9146	-2.625	-1.5958	-2.3396	-2.4021	-1.7146	-2.6	-1.7375	-1.7062	-2.6083	-1.7458	-2.4292	-2.4854	-1.7708	-85.087	165.246	-80.915	183.304	-5.083	-84.794	77.860	144.078	116.757	94.888	-94.994	158.522	126.541	139.866	165.284	-18.829	0.00064181	0.00037692	0.00013532	670.01	6.9293e-06	6.3433e-06	610.08	252.04	7.0751e-06	3.8054e-06	256.72	100.23	100.83	38.842	3.7362e-06	40.926	0.0014199	0.0015159	0.00042151	701.03	1.6236e-05	1.6635e-05	640.61	262.65	1.6444e-05	1.6601e-05	275.72	106.08	111.81	40.983	1.6663e-05	43.824	-44.988	-32.762	-57.713	-138.268	19.456	-65.105	-139.834	-132.396	-6.474	187.702	-135.367	-131.646	-127.791	-123.026	-40.820	-127.312	-8191	255	
1782.270	1	1	0	0	0.095339	0.35695	0.20883	0.19059	0.027486	0.024272	0.11672	0.2558	0.040456	0.30501	0.22236	0.090872	0.15519	0.37958	0.082885	0.14247	-2.2562	-1.7458	-1.7458	-2.6771	-1.8083	-2.1188	-2.6458	-1.6917	-2.2958	-1.9771	-1.7958	-2.7333	-1.8146	-2.15	-2.4729	-1.6354	166.709	97.096	87.902	153.661	157.679	-21.460	151.877	151.097	146.893	129.171	103.471	70.934	-126.932	165.947	149.081	40.339	0.00077344	0.00040589	0.0002389	676.97	1.384e-05	7.5639e-06	614.74	253.04	2.6483e-06	1.2229e-05	257.52	100.46	100.51	38.623	9.4377e-06	40.867	0.0014651	0.0015688	0.00044292	709.03	1.7341e-05	1.7996e-05	648.26	264.32	1.7859e-05	1.8356e-05	277.94	106.55	113.46	41.1	1.9144e-05	43.923	-37.627	18.559	-29.423	-138.428	-29.093	-19.322	-139.875	-132.360	130.669	-4.940	-135.852	-131.350	-128.271	-123.301	1.679	-127.062	-8191	255	
1782.368	1	1	0	0	0.099432	0.052176	0.18259	0.15478	0.082749	0.13075	0.16633	0.075501	0.14752	0.14679	0.17382	0.2677	0.30588	0.20002	0.10806	0.091843	-2.0542	-1.95	-1.6354	-2.4917	-1.6875	-2.0458	-2.6167	-1.6708	-2.25	-2.1354	-1.6375	-2.7104	-1.7896	-2.1583	-2.6396	-1.8583	49.662	-53.673	167.962	187.853	193.568	66.966	-137.413	91.558	-24.219	-68.081	-76.092	-86.888	199.375	129.120	130.303	-60.016	0.00061607	0.00085843	0.00015033	662.06	1.7954e-06	6.8202e-06	599.36	251.11	1.0244e-06	6.3133e-06	254.17	99.106	100.61	39.004	6.3535e-06	40.841	0.0016691	0.001792	0.00050549	699.76	1.9852e-05	2.0399e-05	635.87	263.9	2.028e-05	2.083e-05	277.62	106.49	114.69	41.385	2.0816e-05	44.062	-30.952	-108.251	-82.508	-138.134	120.293	110.814	-139.762	-132.454	-56.866	-83.219	-135.926	-131.663	-127.895	-123.436	-12.288	-127.236	-8191	255	
1782.463	1	1	0	0	0.09301	0.032473	0.28584	0.26409	0.25452	0.11982	0.45548	0.15009	0.17018	0.19185	0.23508	0.32042	0.46992	0.02302	0.16909	0.029853	-2.05	-2.1771	-1.6313	-2.6625	-1.85	-1.6917	-2.6625	-1.8333	-2.2625	-2.1437	-1.7646	-2.4688	-2.0312	-1.825	-2.4562	-1.7417	23.183	-25.890	-123.864	207.203	74.108	-40.498	164.599	109.564	-142.558	157.103	73.335	-110.681	72.233	98.120	79.920	36.579	0.00059737	0.00028888	0.00035159	663.43	2.2363e-06	5.9359e-06	597.94	252.01	8.9548e-06	5.0066e-06	253.48	98.704	100.47	38.642	1.0808e-05	40.608	0.0017944	0.0019185	0.00053339	704.5	2.0739e-05	2.1096e-05	639.9	264.98	2.077e-05	2.1148e-05	278.45	106.35	114.53	41.223	2.0757e-05	43.933	-21.797	-117.455	-49.856	-138.053	24.138	-13.619	-139.701	-132.348	-148.612	9.371	-135.738	-131.594	-128.140	-123.147	16.994	-127.243	-8191	255	
1782.559	1	1	0	0	0.25395	0.25947	0.32861	0.22179	0.10848	0.29817	0.26225	0.3794	0.40639	0.10937	0.19639	0.28405	0.06101	0.39353	0.21527	0.21064	-1.85	-2.3604	-1.6063	-2.5146	-2.0583	-1.7021	-2.675	-1.7604	-1.8604	-2.2896	-1.5875	-2.4896	-2.0687	-1.8833	-2.5458	-1.6479	50.367	96.256	156.653	199.448	83.404	188.283	194.617	159.504	5.543	156.372	-38.361	63.784	-31.404	161.158	-144.972	100.465	0.00051196	0.00095703	0.00031126	665.46	7.8861e-06	1.0881e-05	605.34	253.23	1.8485e-05	1.1296e-05	256.21	99.96	100.79	38.651	1.3614e-05	40.821	0.0018023	0.0019287	0.00053283	708.06	2.0712e-05	2.1193e-05	645.86	265.55	2.0695e-05	2.118e-05	280.21	107.23	115.1	41.274	2.0886e-05	44.048	-31.515	-40.222	-35.006	-138.240	-84.213	27.679	-139.596	-132.311	-26.961	52.340	-135.741	-131.300	-128.349	-123.360	68.672	-127.013	-8191	255	
1782.680	1	1	0	0	0.25824	0.075716	0.27561	0.12593	0.13205	0.33526	0.17308	0.13547	0.21326	0.13462	0.41628	0.34243	0.1325	0.080349	0.071511	0.15783	-1.8083	-2.5583	-1.5771	-2.4125	-2.0271	-1.5521	-2.4979	-1.8979	-1.8167	-2.4271	-1.6479	-2.3042	-2.2104	-1.8542	-2.4667	-1.8646	-2.065	5.176	12.944	-114.317	-74.377	75.406	186.455	182.638	102.102	90.627	156.152	-117.809	-75.984	185.448	-62.646	121.169	0.00064318	0.00073433	0.00029926	672.98	9.0687e-06	1.4094e-05	605.31	251.69	1.3526e-06	5.2825e-06	253.57	97.891	99.1	38.127	1.0076e-05	39.996	0.0017993	0.0019087	0.00053598	714.68	2.0632e-05	2.1338e-05	646.31	265	2.0885e-05	2.1365e-05	277.35	105.64	114.32	40.826	2.1185e-05	43.319	-35.169	-48.215	-78.278	-138.391	-6.406	30.642	-140.026	-132.724	-48.785	-38.922	-135.392	-131.627	-128.080	-123.169	15.892	-127.169	-8191	255	
1782.776	1	1	0	0	0.21573	0.33999	0.19433	0.10044	0.096447	0.16277	0.25999	0.24217	0.14993	0.34606	0.20036	0.2074	0.14083	0.20993	0.1438	0.046403	-1.5063	-2.5917	-1.4833	-2.2396	-2.1417	-1.525	-2.5	-2.1021	-1.775	-2.6063	-1.7771	-2.2896	-2.3792	-1.7417	-2.3667	-2.1958	184.794	-139.817	130.895	141.279	88.252	147.906	55.519	120.658	142.722	134.681	-85.347	-122.929	12.869	-82.002	64.052	69.962	0.00063359	0.00087838	0.00030408	658.68	1.1612e-05	5.8993e-06	595.81	249.66	6.1628e-06	7.8295e-06	249.69	97.47	99.493	37.982	5.9101e-06	39.709	0.0018343	0.0019506	0.00054047	703.45	2.0859e-05	2.1149e-05	632.82	262.49	2.0509e-05	2.072e-05	273.25	104.7	113.36	40.628	2.0339e-05	43.108	-25.343	-65.948	-65.024	-137.953	41.242	49.393	-139.696	-132.543	-138.246	33.656	-135.547	-131.261	-128.379	-123.221	-111.686	-127.061	-8191	255	
1782.872	1	1	0	0	0.097755	0.1741	0.37608	0.4033	0.10255	0.18949	0.18626	0.028564	0.067049	0.060651	0.17339	0.20227	0.29763	0.1127	0.27049	0.03984	-1.3604	-2.5271	-1.5063	-2.1771	-2.3812	-1.6063	-2.5646	-2.2375	-1.4479	-2.6646	-1.8229	-2.0917	-2.3875	-1.6708	-2.4271	-2.3604	-120.727	61.034	-25.098	187.410	-75.484	7.226	167.530	176.675	54.086	-2.391	159.068	-148.767	59.668	-123.707	-12.913	37.258	0.00057855	0.0010035	0.00044614	662	8.2787e-06	4.1558e-06	594.5	248.89	1.3785e-05	1.0235e-05	251.46	98.499	98.964	38.152	8.6484e-06	40.009	0.0017759	0.0018676	0.00052182	702.8	2.0025e-05	2.0503e-05	634.11	262.27	2.0003e-05	2.0387e-05	275.06	105.41	113.29	40.773	2.0131e-05	43.346	-28.938	-51.692	-126.344	-138.147	39.963	-81.877	-139.592	-132.499	-57.404	-20.244	-135.557	-131.168	-127.796	-122.989	-129.508	-127.012	-8191	255	
1782.968	1	1	0	0	0.26137	0.18065	0.084823	0.082783	0.24829	0.13714	0.36137	0.1112	0.16723	0.2131	0.27103	0.11415	0.11675	0.11957	0.12533	0.15031	-1.2792	-2.4667	-1.9167	-1.9292	-2.4896	-1.5812	-2.4833	-2.375	-1.5208	-2.6354	-1.9667	-1.8438	-2.4708	-1.8208	-2.1271	-2.4667	155.312	-78.061	75.317	91.836	-1.918	5.902	66.007	-119.582	176.359	156.924	178.801	-133.851	191.807	109.061	-89.451	175.413	0.00069731	0.00070581	0.00027817	662.1	1.0643e-05	4.696e-06	602.82	251.15	1.675e-05	1.6339e-05	255.32	98.775	99.674	38.183	6.4129e-06	40.34	0.0017497	0.0018572	0.0005106	706.36	2.0038e-05	2.0292e-05	640.85	264.41	2.001e-05	2.0621e-05	277.7	106.01	113.81	40.737	2.0122e-05	43.553	-33.759	-102.316	-56.203	-138.068	4.722	4.273	-139.583	-132.541	-91.929	-105.934	-135.884	-130.977	-128.080	-123.129	5.976	-127.013	-8191	255	
1783.040	1	1	0	0	0.18639	0.20162	0.08336	0.13583	0.11561	0.10563	0.26399	0.24268	0.032779	0.095038	0.17593	0.13858	0.22709	0.14821	0.21408	0.059451	-1.2833	-2.5854	-1.7437	-1.9083	-2.5479	-1.6187	-2.3354	-2.5417	-1.6521	-2.5229	-2.0208	-1.6938	-2.7104	-1.7292	-2.1167	-2.4667	92.644	162.743	-51.568	-138.438	209.196	-57.572	146.185	120.418	-20.135	-22.700	-40.093	116.518	-24.398	159.836	-84.997	-104.073	0.00064381	0.0003526	0.00024336	670.34	9.351e-06	2.385e-06	607.93	251.83	8.2094e-06	1.2944e-05	255.21	98.381	99.265	38.317	6.833e-06	40.28	0.0017458	0.0018458	0.0005191	712.79	2.0052e-05	2.0566e-05	646.82	264.87	2.0658e-05	2.0929e-05	278.24	106.2	114.19	40.739	2.1379e-05	43.443	-35.373	205.828	22.926	-138.126	6.673	-41.283	-139.738	-132.702	44.387	55.289	-135.967	-131.456	-127.771	-123.065	-17.361	-127.091	-8191	255	
1783.160	1	1	0	0	0.32567	0.13023	0.20876	0.39792	0.22561	0.095255	0.18329	0.052767	0.063727	0.13249	0.12218	0.055832	0.044308	0.098635	0.20871	0.050177	-1.3479	-2.4979	-2.2	-1.6562	-2.6729	-1.8833	-2.0854	-2.5604	-1.4438	-2.3708	-2.4271	-1.65	-2.6292	-1.8687	-1.7042	-2.6708	124.544	10.620	76.065	-128.604	-27.199	64.087	138.601	180.460	-37.331	99.757	-98.298	-10.694	-6.596	-122.315	24.075	80.542	0.00061761	0.00040004	6.7338e-05	661.97	4.0227e-06	6.5522e-06	590.99	247.47	9.3264e-06	7.8501e-06	247.8	97.364	99.254	37.994	1.0031e-06	39.841	0.0018486	0.0019923	0.00055814	705.27	2.197e-05	2.2519e-05	633.38	261.93	2.2525e-05	2.3055e-05	276.17	105.77	115.46	40.965	2.347e-05	43.774	-26.016	144.815	-112.085	-138.016	-6.112	-89.085	-139.705	-132.447	-55.532	16.279	-135.793	-131.251	-127.837	-123.219	-95.196	-127.033	-8191	255	
1783.256	1	1	0	0	0.081572	0.187	0.14505	0.14946	0.058296	0.18841	0.19991	0.096189	0.069488	0.26557	0.154	0.30655	0.2896	0.18023	0.18143	0.37435	-1.1958	-2.1271	-2.1646	-1.7958	-2.6146	-1.8563	-1.9458	-2.4521	-1.6417	-2.175	-2.4083	-1.65	-2.3	-2.0542	-1.725	-2.6104	142.293	56.738	200.587	66.057	-119.621	156.695	155.744	-82.005	91.942	-107.793	5.756	191.807	-80.948	179.040	-19.157	110.199	0.00056179	0.00057893	0.00021633	657.35	1.1441e-05	7.2328e-06	590.35	248.45	7.4597e-06	5.0563e-06	250.64	98.326	99.404	38.468	8.2938e-06	40.54	0.0020391	0.0021746	0.0006161	706.02	2.412e-05	2.4464e-05	639.44	264.57	2.4555e-05	2.5089e-05	280.84	107.44	116.98	41.509	2.5385e-05	44.618	-32.418	-83.584	-133.124	-138.155	97.889	-13.320	-139.413	-132.490	3.542	76.581	-135.508	-131.394	-127.897	-122.975	51.007	-127.335	-8191	255	
1783.351	1	1	0	0	0.21084	0.17682	0.15236	0.056614	0.22987	0.11768	0.03111	0.060441	0.13674	0.099858	0.12581	0.050248	0.20998	0.23313	0.30428	0.21892	-1.3917	-2.2479	-2.4458	-1.6313	-2.4167	-2.225	-2.05	-2.9375	-1.7896	-2.1667	-2.5625	-1.5146	-2.2812	-2.1333	-1.6583	-2.6875	203.753	-130.961	-82.713	194.628	15.882	61.166	53.229	117.887	58.177	-149.305	108.664	115.554	-95.448	141.769	-141.077	208.140	0.00066017	0.00079583	0.00019503	658.97	7.5278e-06	3.2056e-06	594.95	250.91	1.0991e-05	4.7962e-06	256.89	100.41	100.57	38.693	8.5134e-06	41.031	0.0021864	0.0023379	0.00066	714.61	2.53e-05	2.6074e-05	648.34	267.25	2.5558e-05	2.6308e-05	287.37	109.5	119.26	41.99	2.6174e-05	45.446	-31.381	-57.347	-63.640	-138.238	111.675	-30.037	-139.697	-132.497	-57.923	-48.339	-135.442	-131.152	-128.345	-123.197	107.957	-126.725	-8191	255	
1783.449	1	1	0	0	0.12153	0.14078	0.17407	0.25883	0.25869	0.14505	0.1285	0.20178	0.17881	0.1132	0.078785	0.38343	0.16939	0.37206	0.1542	0.081423	-1.2792	-2.1583	-2.6771	-1.5917	-2.2958	-2.0333	-1.5938	-2.675	-1.7542	-1.9354	-2.6688	-1.7854	-2.2542	-2.4917	-1.5479	-2.6771	-48.105	190.441	203.518	115.529	175.964	13.577	177.738	-127.970	33.485	-26.366	33.495	135.770	184.001	152.882	-38.680	-94.018	0.00087557	0.0011087	0.00018489	668.32	5.8226e-06	7.1347e-06	608.9	253.81	1.0368e-05	8.2958e-06	258.12	100.31	100.4	38.639	7.5151e-06	40.949	0.0022282	0.0023969	0.00067056	724.26	2.6247e-05	2.6848e-05	662.67	271.33	2.6628e-05	2.7753e-05	291.07	110.21	120.62	42.082	2.7904e-05	45.545	-46.644	-53.990	25.856	-138.290	120.064	118.836	-139.576	-132.252	-82.156	-61.650	-135.439	-131.500	-127.924	-123.262	62.590	-127.239	-8191	255	
1783.568	1	1	0	0	0.10165	0.18443	0.19634	0.23781	0.18421	0.08734	0.031175	0.06379	0.082851	0.39327	0.21357	0.1144	0.2055	0.41495	0.14388	0.19595	-1.6083	-1.7625	-2.5833	-1.7479	-1.9271	-2.425	-1.8	-2.5833	-2.0396	-1.6729	-2.6708	-1.7667	-2.2313	-2.5167	-1.5792	-2.6792	39.400	-44.474	21.317	-147.426	24.037	126.271	154.397	-87.909	92.394	-53.078	128.618	56.342	203.495	39.834	-114.519	195.288	0.00069105	0.00062952	0.00019214	661.72	2.4842e-06	3.45e-06	588.35	250.99	1.1477e-05	3.0173e-06	253.85	98.124	99.15	38.362	7.3559e-06	40.576	0.0024095	0.0026073	0.00073085	720.2	2.8385e-05	2.8871e-05	648.27	269.42	2.8676e-05	2.9577e-05	287.69	108.96	121.3	42.085	2.9674e-05	45.433	-20.869	-122.008	-32.633	-138.117	203.749	-43.480	-139.566	-132.473	-6.692	-145.519	-135.204	-131.383	-128.226	-123.037	87.817	-126.985	-8191	255	
1783.641	1	1	0	0	0.15115	0.096945	0.13348	0.23423	0.10896	0.14355	0.40494	0.29111	0.10367	0.33673	0.10367	0.29422	0.063932	0.2445	0.13222	0.1264	-1.6375	-1.8875	-2.7979	-1.7604	-2.2812	-2.5521	-1.7854	-2.4896	-2.1708	-1.7188	-2.6458	-1.7292	-1.9667	-2.8229	-1.5917	-2.5792	181.447	76.880	187.934	166.182	41.455	-107.733	186.356	189.428	-22.446	-149.227	119.787	116.350	159.710	160.702	113.292	139.343	0.00063197	0.00071481	0.00029546	661.79	2.2112e-05	5.6496e-06	589.02	250.75	1.4583e-05	1.0237e-05	254.11	99.049	98.637	38.632	1.1473e-05	40.995	0.0025368	0.0027501	0.00076636	723.53	2.9963e-05	3.0286e-05	650.24	270.44	2.9545e-05	3.0133e-05	290.2	110.16	121.96	42.322	2.9188e-05	45.688	-53.084	-32.615	-34.842	-137.873	-26.066	-133.825	-139.377	-132.180	-74.714	-13.675	-135.134	-131.477	-127.695	-122.961	-89.623	-126.920	-8191	255	
1783.760	1	1	0	0	0.11735	0.16998	0.055124	0.097734	0.14265	0.28373	0.27532	0.29068	0.019681	0.17939	0.049272	0.085228	0.1726	0.14174	0.24395	0.37711	-1.8875	-1.525	-2.5479	-1.9833	-1.8583	-2.4146	-1.5688	-2.5375	-2.1479	-1.4625	-2.5812	-2.0521	-1.9542	-2.525	-1.8021	-2.1875	-63.689	-99.315	-142.986	151.822	-41.707	148.005	81.723	97.879	86.059	93.357	-40.525	-68.788	96.789	180.912	-28.873	154.632	0.00056675	0.00061611	0.00043348	659.95	1.0264e-05	6.3914e-06	599.61	252.22	4.0493e-06	2.2063e-06	255.33	99.578	99.964	38.745	3.1326e-06	41.273	0.0024987	0.0026877	0.00074455	723.8	2.8861e-05	2.9676e-05	657.96	271.54	2.9082e-05	2.9593e-05	291.83	110.64	122.22	42.418	2.9414e-05	45.967	-43.374	-33.033	-61.190	-138.155	-78.931	32.838	-139.625	-132.010	195.691	-117.595	-135.634	-131.300	-127.771	-122.957	16.683	-127.035	-8191	255	
1783.856	1	1	0	0	0.080485	0.056793	0.39233	0.28693	0.13584	0.22068	0.075604	0.10465	0.11995	0.24591	0.14226	0.11307	0.21693	0.34818	0.099562	0.075147	-1.9917	-1.7437	-2.5979	-2.2458	-1.8229	-2.5438	-1.8208	-2.1813	-2.4792	-1.6479	-2.4979	-2.0687	-1.8271	-2.6792	-1.5187	-1.9958	145.441	81.398	74.138	111.832	-78.063	1.375	-138.558	140.146	-134.999	-79.577	-139.682	159.455	-91.073	153.620	16.167	-109.911	0.00060588	0.00024601	0.00025079	667.85	1.1187e-05	4.9607e-06	606.15	254.14	4.8546e-06	9.6387e-06	260.07	100.91	101.2	38.651	2.6518e-06	40.835	0.0025159	0.0027001	0.00075071	728.91	2.9123e-05	2.9717e-05	667.21	273.71	2.8997e-05	2.9479e-05	295.26	111.3	122.18	42.306	2.9577e-05	45.849	-47.518	11.720	-88.404	-138.123	-131.133	64.448	-139.568	-131.984	10.502	95.510	-135.449	-131.474	-128.012	-122.909	149.178	-126.767	-8191	255	
1783.952	1	1	0	0	0.19165	0.084875	0.31768	0.30636	0.34065	0.16906	0.29437	0.24499	0.25176	0.038608	0.11917	0.21821	0.19352	0.13474	0.11573	0.1737	-2.1833	-1.6187	-2.4396	-2.2375	-1.7979	-2.4208	-1.75	-2.1	-2.4479	-1.55	-2.3979	-2.3771	-1.6396	-2.8187	-1.7104	-1.9604	-141.623	-61.544	-92.840	169.824	69.243	199.072	146.117	174.170	3.312	98.459	96.769	120.994	186.134	-119.495	-93.901	158.738	0.00086029	0.00084893	0.00033217	659.61	5.7592e-06	3.4436e-06	589.83	250.74	5.3593e-06	8.9957e-06	253.85	99.226	98.744	38.392	6.5166e-06	40.488	0.0025477	0.0027424	0.00076634	724.95	3.0023e-05	3.0667e-05	652.82	270.68	2.9956e-05	3.036e-05	290.79	110.22	122.02	42.176	3.0263e-05	45.665	-10.947	19.954	-45.707	-138.134	44.764	89.244	-139.662	-132.336	-91.312	-47.268	-135.863	-131.477	-127.488	-123.217	199.158	-126.596	-8191	255	
1784.048	1	1	0	0	0.13508	0.15937	0.24322	0.15243	0.14595	0.236	0.21929	0.051859	0.0945	0.12887	0.096286	0.24122	0.27821	0.28537	0.056972	0.040222	-2.2021	-1.6542	-2.3104	-2.2604	-1.5729	-2.6146	-2.1021	-1.9375	-2.5896	-1.5625	-2.3854	-2.4646	-1.6896	-2.4813	-1.9646	-1.6938	150.464	14.894	52.731	191.179	3.578	-85.555	101.751	184.351	-30.589	207.779	-125.605	114.668	36.400	206.606	199.617	-46.638	0.00055082	0.0013793	0.00016929	659.55	7.8825e-06	3.3282e-06	586.62	250.3	1.0436e-05	6.0416e-06	253.77	98.756	99.352	38.431	4.6183e-06	40.698	0.0026307	0.002815	0.00078892	724.92	3.077e-05	3.1275e-05	652.1	271.2	3.0587e-05	3.1074e-05	291.52	110.08	122.07	42.195	3.0568e-05	45.73	-23.636	-86.025	-60.707	-138.101	46.651	-38.310	-139.943	-132.323	-26.622	196.265	-135.348	-131.584	-127.958	-122.956	87.105	-126.760	-8191	255	
1784.169	1	1	0	0	0.23667	0.064327	0.035254	0.031502	0.26869	0.52246	0.16661	0.10901	0.15355	0.32681	0.055699	0.055348	0.34724	0.082783	0.0234	0.081308	-2.1917	-1.6437	-2.2646	-2.4458	-1.5833	-2.7146	-2.2188	-1.6854	-2.5833	-1.9021	-2.0938	-2.5292	-1.6542	-2.3187	-2.2146	-1.6042	103.885	181.291	-98.806	77.437	32.022	106.682	-56.330	82.340	-127.509	118.489	-91.230	151.061	164.358	124.930	-50.212	-17.334	0.00052543	0.0010022	0.00014662	663.99	4.5572e-06	1.0909e-05	590.55	251.37	5.9023e-06	8.6095e-06	258.22	99.471	99.039	38.537	9.2615e-06	41.107	0.0026076	0.0027946	0.00077494	724.44	2.9647e-05	3.0336e-05	651.93	271.34	2.9178e-05	2.9453e-05	291.82	109.86	120.38	42.138	2.8438e-05	45.785	-30.292	-45.718	-36.729	-138.343	52.817	-23.402	-139.943	-132.383	137.803	4.078	-135.364	-131.541	-128.106	-122.818	11.378	-126.882	-8191	255	
1784.263	1	1	0	0	0.050543	0.20247	0.15195	0.171	0.27905	0.047782	0.32626	0.20701	0.21456	0.07395	0.18798	0.13662	0.21675	0.31439	0.069357	0.09534	-2.3917	-1.7792	-2.0938	-2.4521	-1.6	-2.375	-2.2896	-1.6	-2.3583	-1.825	-2	-2.5042	-1.6604	-2.4229	-2.2917	-1.5479	-23.356	-58.330	-56.418	184.119	-46.394	-69.384	96.330	124.303	-129.655	-82.179	157.356	96.518	205.986	-145.896	19.604	28.206	0.00051995	0.00030525	0.00030996	661.03	4.3675e-06	8.3262e-06	597.86	252.58	2.8701e-06	9.3822e-06	261.49	100.33	99.774	38.972	7.9616e-06	41.342	0.0024226	0.0026048	0.00072983	723	2.7919e-05	2.8454e-05	656.54	271.8	2.7515e-05	2.8074e-05	294.36	110.7	120.11	42.462	2.7433e-05	46.088	-25.669	-93.506	-55.808	-138.269	171.621	74.002	-139.638	-132.786	-89.347	-58.140	-135.752	-131.537	-127.962	-123.378	5.286	-127.266	-8191	255	
1784.337	1	1	0	0	0.10131	0.14274	0.095062	0.10282	0.1767	0.10188	0.305	0.16605	0.27497	0.13716	0.078875	0.13887	0.19633	0.11602	0.12528	0.27116	-2.1792	-1.9146	-1.9583	-2.65	-1.7083	-2.2438	-2.2875	-1.8604	-2.5854	-1.8604	-1.7667	-2.7125	-1.7354	-2.2521	-2.5521	-1.5271	47.969	180.945	-80.458	109.926	35.784	-75.763	85.293	90.075	17.204	42.606	205.846	-4.471	205.432	184.440	190.557	34.490	0.00081962	0.00048689	6.4925e-05	657.97	2.0318e-05	1.5226e-06	589.41	251.05	5.3173e-06	3.0775e-06	255.91	99.905	99.564	38.728	1.7531e-05	41.089	0.0023367	0.0024933	0.00069857	714.62	2.6768e-05	2.7415e-05	644.54	268.52	2.6652e-05	2.7281e-05	288.05	109.59	119.21	42.177	2.6784e-05	45.543	-33.375	-107.937	67.455	-138.272	-1.419	146.768	-139.927	-132.683	39.447	-55.958	-135.535	-131.568	-128.315	-122.954	-48.130	-127.312	-8191	255	
1784.456	1	1	0	0	0.079869	0.12359	0.12666	0.10169	0.15115	0.13534	0.052158	0.27619	0.019619	0.30619	0.04683	0.31606	0.10919	0.16895	0.20463	0.16079	-2.1333	-2.1896	-1.6375	-2.4708	-1.7854	-2.0729	-2.3333	-1.6688	-2.3271	-2.0979	-1.7104	-2.5542	-2.0604	-1.9833	-2.6562	-1.7083	143.766	-16.447	155.650	46.768	29.461	177.131	55.566	139.969	83.385	35.224	191.932	-106.684	114.831	193.704	190.271	50.656	0.00064439	0.001135	9.7001e-05	649.06	3.9719e-06	6.2788e-06	579.24	249.19	8.2372e-06	7.9031e-06	255.09	99.647	99.315	38.714	9.923e-06	40.888	0.0022935	0.0024465	0.00068433	705.41	2.6253e-05	2.6814e-05	632.94	266.49	2.5951e-05	2.6541e-05	285.9	108.73	118.38	41.938	2.587e-05	45.189	-29.398	-4.455	-113.024	-138.124	-91.272	-47.193	-139.851	-132.523	7.217	17.503	-135.486	-131.616	-128.152	-123.090	34.258	-127.045	-8191	255	
1784.552	1	1	0	0	0.22242	0.15392	0.31638	0.25063	0.18304	0.016597	0.25032	0.3709	0.2274	0.31253	0.22256	0.22534	0.1906	0.06117	0.024536	0.15921	-1.9604	-2.15	-1.7042	-2.4708	-1.9771	-1.8062	-2.5479	-1.8521	-2.1042	-2.3146	-1.7896	-2.3979	-1.725	-1.9771	-2.5687	-1.7833	70.859	133.949	-138.326	189.350	-16.933	120.676	208.046	136.480	29.600	-50.760	180.311	141.423	-54.275	60.702	-67.718	121.394	0.00066417	0.0014935	0.00048166	648.09	4.0108e-06	4.3417e-06	578.92	249.14	7.9646e-06	8.2588e-06	256.24	99.546	99.419	38.899	8.6571e-06	41.38	0.0022106	0.0023678	0.00066015	702.07	2.5206e-05	2.5851e-05	632.19	265.23	2.5015e-05	2.5672e-05	285.06	108.89	118.23	42.116	2.5007e-05	45.479	-45.760	-56.510	-81.744	-137.972	-48.469	-72.923	-139.576	-132.610	37.084	73.041	-136.071	-131.566	-128.086	-122.884	137.696	-127.089	-8191	255	
1784.648	1	1	0	0	0.13519	0.21806	0.072967	0.21001	0.31535	0.11417	0.22231	0.227	0.14577	0.30937	0.3043	0.14796	0.017856	0.048436	0.20661	0.33445	-1.7938	-2.5833	-1.7271	-2.5312	-1.9604	-1.7917	-2.8063	-1.8208	-2.2083	-2.4979	-1.6521	-2.6271	-2.0958	-1.9146	-2.4729	-1.9208	103.992	-8.265	117.238	179.658	50.513	-111.807	80.901	47.519	187.972	64.896	193.808	-120.236	-104.055	-65.253	152.784	111.346	0.00072023	0.00057732	0.00033882	650.06	6.2997e-06	1.4555e-06	583.62	249.36	2.3512e-05	6.7722e-06	257.55	101.92	100.64	39.307	6.1439e-06	41.804	0.0021523	0.0023056	0.00064133	703.14	2.4809e-05	2.53e-05	635.84	265.19	2.4039e-05	2.4581e-05	285.83	110.18	117.5	42.237	2.3389e-05	45.667	-22.298	61.669	-95.822	-138.115	73.956	75.676	-139.742	-132.493	16.805	-66.099	-135.795	-131.700	-128.299	-123.020	-102.375	-127.186	-8191	255	
1784.744	1	1	0	0	0.24742	0.13688	0.21633	0.19943	0.057549	0.17468	0.19866	0.12827	0.14143	0.16002	0.20552	0.037902	0.21566	0.35598	0.10373	0.17177	-1.5625	-2.4021	-1.6896	-2.5979	-2.3521	-1.7167	-2.575	-1.8188	-1.8667	-2.4854	-1.7729	-2.4083	-2.2583	-1.7354	-2.4875	-2.0271	-43.005	-78.445	125.944	122.243	-91.965	176.082	104.171	81.517	-134.913	-138.708	130.153	100.642	55.130	173.199	24.842	119.133	0.00065288	0.00077253	0.00017778	649.82	4.9736e-06	7.4237e-06	579.97	245.12	6.6545e-06	8.541e-06	252.01	102.08	100.86	39.771	6.1416e-06	41.593	0.0019851	0.0020638	0.00057182	690.53	2.1796e-05	2.2105e-05	621.3	259.3	2.0974e-05	2.1151e-05	276.37	109.09	115.34	42.28	1.9911e-05	45.132	-24.931	16.379	-29.732	-138.075	167.349	-5.086	-139.723	-132.441	-39.479	-87.514	-135.471	-131.318	-128.133	-123.294	-12.842	-127.237	-8191	255	
1784.865	1	1	0	0	0.096939	0.11637	0.0302	0.29203	0.14162	0.22807	0.019119	0.23723	0.086052	0.15093	0.30804	0.11513	0.32159	0.058551	0.30693	0.16558	-1.4958	-2.3625	-1.6771	-2.2521	-2.3958	-1.5708	-2.5458	-2.0792	-1.7417	-2.5042	-1.7292	-2.3521	-2.5708	-1.8896	-2.5062	-2.0083	73.969	-94.543	-56.458	-148.798	42.007	-103.962	-139.763	191.754	23.044	-149.428	196.444	16.054	159.310	-21.989	92.736	194.461	0.00044956	0.00015007	0.00025147	631.49	1.5437e-06	2.2102e-06	567.84	241.49	1.3079e-05	9.7541e-06	248.7	101.86	102.19	40.462	7.4926e-06	42.266	0.0017181	0.0018026	0.00050013	670.47	1.8695e-05	1.8847e-05	600.83	252.92	1.7508e-05	1.7562e-05	267.84	108.08	113.01	42.495	1.6202e-05	44.936	-44.901	-65.898	-97.062	-138.024	72.128	101.846	-139.890	-132.536	47.265	-7.217	-135.419	-131.680	-127.802	-123.408	-132.190	-127.000	-8191	255	
1784.936	1	1	0	0	0.011802	0.17915	0.049289	0.29643	0.20475	0.035845	0.2377	0.24591	0.051536	0.19313	0.37415	0.13903	0.12836	0.1152	0.12327	0.097813	-1.2667	-2.5104	-1.7708	-2.1229	-2.3104	-1.5292	-2.4208	-2.1208	-1.7458	-2.7479	-1.7854	-2.0708	-2.5583	-1.6146	-2.3688	-2.1458	-31.414	60.851	154.887	-101.508	173.322	-40.240	196.363	130.105	54.195	118.063	143.873	185.543	162.956	203.687	205.908	-120.599	0.00074836	0.00085821	3.1889e-05	620.42	5.7497e-06	5.1728e-06	563.41	238.92	2.8186e-06	5.8145e-06	246.67	102.94	102.87	41.089	9.7072e-06	43.25	0.0014001	0.0014647	0.00040238	652.36	1.5371e-05	1.5405e-05	589.89	248.31	1.448e-05	1.4571e-05	262.01	108.05	110.83	42.819	1.335e-05	45.178	-31.220	-20.356	-77.541	-138.046	-60.835	-30.615	-140.007	-132.490	28.527	-36.641	-135.651	-131.922	-128.622	-123.546	81.478	-127.864	-8191	255	
1785.033	1	1	0	0	0.048855	0.20008	0.22407	0.25162	0.14485	0.1049	0.0362	0.1853	0.091651	0.26744	0.25012	0.14586	0.20015	0.10104	0.05715	0.059396	-1.0938	-2.6437	-1.7042	-1.9354	-2.4875	-1.6125	-2.3854	-2.3667	-1.7229	-2.5083	-1.8687	-2.0146	-2.6958	-1.8229	-2.3187	-2.4354	121.238	-54.700	107.466	170.014	121.004	-136.442	149.275	132.522	-35.609	176.926	194.237	-89.343	125.858	131.571	-130.651	146.889	0.00069107	0.0004254	0.00027613	613.07	1.2145e-05	1.1304e-05	558.78	232.74	4.6767e-06	6.2633e-06	243.15	105.18	103.91	43.213	2.6225e-06	45.795	0.0011348	0.001149	0.000316	636.23	1.1816e-05	1.1801e-05	576.83	239.94	1.1009e-05	1.0943e-05	253.84	108.57	108.98	44.63	1.0103e-05	47.248	-31.008	-103.346	206.594	-138.339	-8.389	-44.189	-139.930	-132.617	-83.413	-18.598	-135.823	-131.537	-128.435	-123.770	41.517	-127.697	-8191	255	
1785.129	1	1	0	0	0.050839	0.12448	0.37293	0.030776	0.12264	0.16592	0.12905	0.20488	0.22278	0.20587	0.09881	0.13252	0.2543	0.22977	0.15688	0.059167	-1.0375	-2.4792	-1.9813	-1.7604	-2.6479	-1.7146	-2.375	-2.5917	-1.5438	-2.5396	-2.1625	-1.7479	-2.5729	-1.8896	-2.1229	-2.6479	146.026	-15.630	119.262	152.166	54.734	114.579	42.748	183.556	111.157	-124.706	-119.704	-12.692	-54.115	150.078	73.559	-7.898	0.0006262	0.00050349	9.8622e-06	593.07	2.7458e-06	7.1537e-06	543.15	215.72	1.3893e-06	2.8835e-06	223.15	100.93	96.945	46.832	6.949e-06	48.768	0.00088549	0.00088855	0.00024662	609.36	9.5187e-06	9.5069e-06	558.2	221.93	9.5088e-06	9.6435e-06	231.5	104.1	101.46	47.986	9.9164e-06	50.218	-35.171	-72.581	61.768	-138.126	-41.177	36.790	-140.035	-132.168	-36.910	-43.235	-135.168	-131.725	-127.665	-124.133	-38.304	-128.296	-8191	255	
1785.249	1	1	0	0	0.024319	0.11727	0.23028	0.080781	0.010604	0.12334	0.13563	0.18603	0.25593	0.15311	0.32393	0.16478	0.18829	0.12121	0.13064	0.085793	-1.1812	-2.5583	-2.1646	-1.5979	-2.4562	-1.8479	-2.0625	-2.4667	-1.7604	-2.3646	-2.1458	-1.7583	-2.6021	-1.9	-2.0438	-2.6708	-73.102	-9.282	-57.313	-22.866	147.730	-88.110	19.876	-137.834	115.295	100.359	-102.979	-19.906	26.844	-98.227	156.009	192.639	0.00082239	0.00067209	0.00021674	584.35	2.6337e-06	5.8373e-06	543.15	194.12	5.8505e-06	8.6268e-06	196.52	86.297	81.8	44.462	2.2805e-06	47.24	0.00087987	0.00091552	0.00025726	601.67	9.9982e-06	1.0274e-05	557.94	199.99	1.0265e-05	1.0437e-05	207.74	89.424	87.565	45.772	1.035e-05	48.643	-23.229	-99.077	-90.337	-138.535	97.511	116.014	-139.573	-132.299	-50.403	-24.180	-135.567	-130.740	-127.606	-124.427	-25.317	-128.361	-8191	255	
1785.344	1	1	0	0	0.28759	0.44646	0.10272	0.23442	0.33839	0.26334	0.20265	0.20992	0.029104	0.19123	0.38724	0.034062	0.22808	0.37574	0.23714	0.44754	-1.2958	-2.4979	-2.2708	-1.7396	-2.5229	-1.875	-2.05	-2.4625	-1.5479	-2.1583	-2.3479	-1.6917	-2.6542	-2.275	-1.7938	-2.7521	102.236	-36.296	79.460	149.010	30.900	96.725	-145.685	143.004	-90.659	205.718	2.264	11.302	122.201	167.652	102.440	-7.622	0.00067858	0.00065118	0.00028851	612.75	7.525e-06	9.0856e-07	586.55	186.89	3.5411e-06	1.7021e-06	195.12	74.61	72.634	40.145	8.9128e-06	43.14	0.0009117	0.00094635	0.00026533	630.75	1.0286e-05	1.054e-05	602.86	192.19	1.0408e-05	1.0642e-05	205.72	77.834	79.015	41.417	1.0888e-05	45.076	-30.383	-114.087	-67.622	-138.315	44.787	-129.153	-139.931	-132.213	79.134	-105.396	-135.538	-130.771	-126.845	-123.962	43.937	-128.051	-8191	255	
1785.442	1	1	0	0	0.29587	0.25578	0.10219	0.22973	0.19149	0.33918	0.043538	0.26327	0.13588	0.21518	0.089732	0.085302	0.24644	0.099336	0.21641	0.09711	-1.4083	-2.1604	-2.5521	-1.7625	-2.4396	-2.0687	-1.9438	-2.725	-1.7062	-2.2687	-2.6417	-1.8813	-2.4562	-2.4146	-1.6479	-2.7062	-122.797	-17.872	141.973	126.113	183.246	-101.892	68.815	158.560	90.755	-110.603	-80.628	126.919	178.997	187.307	191.318	-56.387	0.00071662	0.00044897	7.3382e-05	677.89	5.4079e-06	5.9362e-06	623.31	170.17	2.9263e-06	3.5917e-06	170.2	57.29	55.117	26.061	2.1429e-06	28.483	0.00095447	0.00093789	0.00024438	691.53	9.536e-06	9.7334e-06	639.62	175.51	9.3956e-06	9.7432e-06	178.67	60.538	61.297	27.246	9.5362e-06	30.036	-33.013	26.455	42.525	-138.563	42.818	44.293	-140.377	-132.977	-117.806	188.844	-135.984	-130.618	-128.059	-123.367	26.717	-127.270	-8191	255	
1785.536	1	1	0	0	0.055815	0.17581	0.099082	0.033986	0.14182	0.11626	0.097727	0.085109	0.12495	0.24679	0.10563	0.19299	0.32227	0.10769	0.1764	0.26794	-1.4521	-1.9125	-2.4229	-1.8521	-2.2208	-2.3042	-1.6625	-2.5646	-1.8375	-1.8042	-2.6958	-1.8	-2.4854	-2.1729	-1.5146	-2.4729	100.670	43.315	179.253	125.893	28.086	-63.445	176.723	131.847	136.403	-94.632	-8.240	-134.713	-149.916	152.356	-43.375	65.935	0.00038358	0.00082988	4.7731e-05	636.52	3.9642e-06	4.7458e-06	593.28	165.95	6.5702e-06	5.7017e-06	169.73	53.276	52.229	23.652	4.8793e-06	26.663	0.00081681	0.00084652	0.00023599	650.47	8.9266e-06	8.9876e-06	606.09	169.98	8.6942e-06	8.8474e-06	178.17	56.156	57.951	24.762	8.538e-06	28.063	-34.616	-136.273	-109.659	-138.865	119.722	128.614	-140.499	-133.022	-137.726	-50.748	-136.164	-131.123	-127.728	-122.802	53.862	-126.868	-8191	255	
1785.632	1	1	0	0	0.088689	0.058555	0.28015	0.06948	0.15411	0.14379	0.29318	0.20797	0.22444	0.27411	0.095483	0.18193	0.21157	0.13455	0.22548	0.17665	-1.5542	-1.8062	-2.3708	-1.7854	-2.3458	-2.3646	-1.5771	-2.7313	-1.8958	-1.7667	-2.8479	-1.6979	-2.2792	-2.4938	-1.4458	-2.6625	160.408	43.233	-69.809	203.099	182.122	70.296	89.935	64.512	-71.930	63.385	160.802	80.345	134.142	1.877	190.653	189.541	0.00040377	0.00033442	9.9249e-05	641.7	2.719e-06	8.7216e-06	612.85	170.32	7.6482e-06	1.3928e-06	178.57	55.385	54.285	25.299	6.0064e-06	29.855	0.00074041	0.00078802	0.00021725	655.73	8.3369e-06	8.4466e-06	619.09	175.08	8.2302e-06	8.2474e-06	185.77	58.067	59.15	26.319	8.3483e-06	31.213	-47.766	29.181	-38.979	-138.668	194.449	-44.224	-140.778	-133.265	-51.851	93.213	-136.346	-131.339	-127.502	-122.886	184.333	-127.330	-8191	255	
1785.728	1	1	0	0	0.19812	0.20119	0.33781	0.090549	0.35472	0.17094	0.08331	0.26084	0.1284	0.24184	0.12889	0.114	0.0895	0.2719	0.16384	0.07828	-1.6771	-1.4896	-2.35	-1.9062	-1.9167	-2.575	-1.6896	-2.3979	-2.1188	-1.6125	-2.6042	-1.8625	-1.8896	-2.6354	-1.5229	-2.4208	-87.609	106.087	17.558	186.579	8.014	46.599	141.380	207.397	10.072	-76.006	-139.568	138.655	39.300	191.156	-18.753	11.035	0.00048597	0.00032399	2.1494e-05	616.97	5.6833e-06	2.8031e-06	590.85	174.26	3.7461e-06	5.1258e-06	179.6	59.411	57.863	29.794	3.4824e-06	34.728	0.00074223	0.00077475	0.0002189	627.81	8.8268e-06	8.9225e-06	602.41	178.92	9.2314e-06	9.4141e-06	189.24	62.733	64.209	31.013	1.0741e-05	36.319	-27.603	-33.571	0.107	-138.861	157.502	-38.957	-140.505	-132.929	-3.532	-52.518	-136.157	-131.068	-128.122	-122.976	-59.423	-127.710	-8191	255	
1785.849	1	1	0	0	0.34277	0.20608	0.21237	0.12026	0.14298	0.19723	0.35407	0.18585	0.14981	0.065345	0.0601	0.10229	0.19335	0.24185	0.05921	0.34368	-1.9021	-1.625	-2.5604	-2	-1.7938	-2.7917	-1.7583	-2.4708	-2.2896	-1.7271	-2.7583	-1.8458	-1.9771	-2.8312	-1.6083	-2.3542	122.600	-111.247	196.113	-106.554	50.786	178.578	136.059	-131.510	168.628	31.150	190.207	70.353	-144.240	-76.974	-105.229	58.362	0.00040846	0.00023046	8.89e-05	602.19	8.0682e-06	5.6499e-06	583.36	175.37	4.7464e-06	3.7259e-06	180.37	63.179	60.566	34.128	5.6217e-06	38.29	0.0010085	0.0011122	0.00032741	627.45	1.4264e-05	1.5125e-05	612.85	185.76	1.6857e-05	1.7602e-05	202.27	70.121	75.538	36.498	2.1492e-05	41.949	-19.301	178.533	85.562	-138.712	14.072	64.236	-140.383	-133.303	44.494	-92.510	-136.231	-131.289	-127.290	-123.891	60.574	-128.462	-8191	255	
1785.945	1	1	0	0	0.1356	0.087719	0.13423	0.1373	0.046278	0.062829	0.097663	0.080036	0.093995	0.13974	0.18983	0.17821	0.094012	0.10751	0.2363	0.3502	-2.0833	-1.6917	-2.7458	-2.0896	-1.8	-2.8542	-1.9625	-2.3875	-2.55	-1.6958	-2.6229	-2.1813	-1.8042	-2.6958	-1.7729	-2.3771	8.841	-11.163	-60.159	-33.938	-26.375	89.524	175.444	-37.819	171.320	166.987	199.411	177.939	197.825	131.759	-89.095	145.953	0.0006133	0.00064963	5.7753e-05	588.45	1.7418e-05	6.9966e-06	578.05	180.45	1.2816e-05	1.1298e-05	184.08	70.385	67.916	38.785	1.1316e-05	41.613	0.002002	0.0022303	0.00063855	644.39	2.6736e-05	2.7865e-05	635.41	199.85	2.9326e-05	3.0541e-05	222.76	82.554	92.882	42.821	3.2937e-05	47.23	-19.691	13.814	128.544	-138.875	0.284	106.412	-140.324	-132.709	130.237	135.856	-135.384	-131.291	-128.058	-124.231	42.285	-128.022	-8191	255	
1786.041	1	1	0	0	0.18317	0.063307	0.051802	0.24809	0.10244	0.21976	0.027486	0.094646	0.034065	0.23581	0.046365	0.245	0.2747	0.059113	0.15514	0.15733	-2.2104	-1.5083	-2.3625	-2.3917	-1.6063	-2.7333	-1.9417	-2.2687	-2.5542	-1.9042	-2.3146	-2.3	-1.75	-2.6188	-2.2062	-2.1458	44.330	-92.533	-111.711	177.311	48.887	-76.417	93.585	203.812	-80.920	38.207	19.855	151.994	41.911	-58.216	113.206	71.252	0.00066295	0.00059478	0.00027822	604.44	2.2554e-06	3.7026e-06	579.26	181.7	9.0651e-06	2.2158e-06	181.06	70.045	67.739	38.825	4.5918e-06	41.939	0.0029267	0.0031962	0.00090238	677.71	3.6012e-05	3.7128e-05	654.53	206.02	3.7911e-05	3.9225e-05	232.12	85.577	99.975	43.986	4.24e-05	49.232	-33.671	23.903	-80.178	-138.436	-44.683	60.243	-140.066	-132.429	-20.496	-132.426	-135.963	-131.012	-127.658	-123.888	25.651	-127.976	-8191	255	
1786.162	1	1	0	0	0.11174	0.02996	0.16544	0.24305	0.1168	0.16732	0.039133	0.19383	0.40723	0.10265	0.31427	0.090521	0.15375	0.24247	0.19623	0.15377	-2.2708	-1.6771	-2.1354	-2.575	-1.7563	-2.6583	-2.0708	-1.9229	-2.4875	-1.6562	-2.1562	-2.4542	-1.4542	-2.725	-2.0333	-1.8271	-29.640	138.181	-46.638	146.326	-95.887	-97.012	107.181	124.272	186.594	12.992	-100.207	138.488	-98.316	-129.039	169.142	120.283	0.00042566	0.00072473	6.5573e-05	598.69	3.6994e-06	1.3952e-05	575.13	181.24	1.3287e-05	1.586e-05	186.28	73.207	69.146	41.038	1.3167e-05	44.299	0.0037921	0.0041855	0.0011875	704.14	4.7923e-05	4.9741e-05	682.38	216.17	5.0788e-05	5.2798e-05	252.74	94.856	114.77	48.033	5.7436e-05	54.252	-12.698	-105.626	-3.116	-138.135	-20.100	-44.532	-140.070	-132.362	-45.487	36.437	-135.432	-131.172	-127.381	-123.868	157.940	-128.269	-8191	255	
1786.234	1	1	0	0	0.17847	0.19859	0.041894	0.20261	0.18825	0.063146	0.17073	0.080091	0.27837	0.30876	0.28084	0.16223	0.079498	0.33548	0.054254	0.20597	-2.3125	-1.7333	-2.3104	-2.5083	-1.5208	-2.4083	-2.1229	-1.8521	-2.6083	-1.7854	-2.3417	-2.6688	-1.5458	-2.4417	-2.1312	-1.7583	-0.544	106.736	43.042	-134.343	-110.022	-71.446	122.694	-30.681	6.598	94.084	-53.807	67.483	-5.576	178.372	-57.176	131.446	0.00039838	0.00046042	0.00035281	599.29	1.5499e-05	1.5328e-06	577.55	185.02	8.6844e-06	1.7524e-05	191.62	78.494	73.978	42.984	6.5038e-06	46.13	0.0049841	0.0054496	0.0015361	733.91	5.9756e-05	6.1747e-05	712.5	226.92	6.1384e-05	6.2459e-05	270.71	102.83	122.99	50.43	6.1117e-05	56.653	-25.605	-66.532	-68.882	-138.556	-121.661	150.154	-139.970	-132.386	-19.773	-21.306	-134.943	-131.457	-128.028	-123.987	182.988	-128.105	-8191	255	
1786.330	1	1	0	0	0.08285	0.099787	0.19085	0.11009	0.27084	0.15789	0.28837	0.19626	0.084304	0.1888	0.22429	0.24425	0.2679	0.15504	0.12937	0.11415	-2.225	-1.7729	-1.9958	-2.7375	-1.6375	-2.5	-2.4729	-1.775	-2.55	-2.0208	-2.0146	-2.6146	-1.8417	-2.5229	-2.2438	-1.7625	-91.092	180.454	194.532	185.516	-8.896	82.609	127.470	-82.197	172.781	16.659	-104.311	122.625	161.227	208.849	136.924	177.220	0.00090178	0.00073245	0.00029853	602.06	6.5597e-06	2.1191e-05	580.22	186.22	1.1545e-05	1.7102e-05	191.91	81.366	75.812	43.637	8.3383e-06	46.593	0.0051449	0.0055524	0.0015497	736.48	5.9381e-05	6.051e-05	711.13	227.37	5.9745e-05	6.089e-05	269.64	104.8	123.74	50.858	5.8554e-05	56.479	-31.725	-22.897	6.153	-138.398	-31.859	44.924	-140.233	-132.265	5.482	-85.572	-135.217	-130.784	-127.524	-124.039	-72.066	-128.319	-8191	255	
1786.424	1	1	0	0	0.11646	0.17788	0.18038	0.087652	0.21637	0.20623	0.18322	0.24712	0.065082	0.19094	0.11041	0.28401	0.15088	0.14318	0.059384	0.31176	-2.0646	-1.9917	-1.7917	-2.625	-1.675	-2.1125	-2.5479	-1.7687	-2.7542	-2.1104	-2.0542	-2.6479	-1.8563	-2.3104	-2.6125	-1.8146	148.644	-105.471	-46.473	-63.189	54.064	4.029	-45.294	167.236	104.855	141.321	200.057	-141.528	21.920	-93.467	49.251	93.815	0.00053981	0.00020415	0.00021242	602.25	5.735e-06	9.6557e-06	572.5	187.23	1.0425e-05	2.3544e-05	194.72	85.017	80.575	44.48	2.5744e-05	46.473	0.0049487	0.0053701	0.0015009	728.86	5.8202e-05	5.9826e-05	707.05	228.98	5.9082e-05	6.0822e-05	271.35	108.31	129.31	52.149	6.2157e-05	57.424	-45.053	76.339	-100.629	-138.239	89.015	-61.713	-140.150	-132.158	-17.030	-124.902	-135.817	-131.221	-127.596	-124.030	-6.429	-128.405	-8191	255	
1786.545	1	1	0	0	0.34152	0.14405	0.17965	0.15981	0.27325	0.20347	0.26693	0.19535	0.38306	0.16163	0.07325	0.2943	0.28687	0.1666	0.31034	0.2917	-2.1667	-2.2333	-1.7667	-2.7313	-1.725	-2.0187	-2.6042	-1.6708	-2.4271	-2.3979	-1.5979	-2.5729	-1.7042	-2.0583	-2.5854	-1.65	-70.161	140.020	114.196	3.741	46.013	-8.691	130.389	163.580	206.880	-9.165	0.449	-142.888	-130.878	-143.256	171.403	141.850	0.00077399	0.0010025	0.00045402	608.01	4.4847e-06	6.7664e-06	582.18	194.5	1.163e-05	2.1277e-05	201.06	88.847	84.656	44.63	1.7175e-05	45.702	0.0053736	0.005903	0.0016689	755.19	6.6059e-05	6.8791e-05	737.23	242.93	7.007e-05	7.2499e-05	294.11	117.29	144.04	53.714	7.4177e-05	58.443	-46.132	-108.606	-126.036	-138.112	3.585	47.848	-140.062	-132.096	-46.144	-118.231	-135.102	-131.098	-128.071	-124.434	175.481	-128.259	-8191	255	
1786.641	1	1	0	0	0.42323	0.2961	0.18603	0.023062	0.19939	0.16887	0.27901	0.15857	0.058244	0.21112	0.12215	0.24462	0.32542	0.060142	0.30359	0.10496	-1.9521	-2.1896	-1.5229	-2.3312	-1.9208	-2.0187	-2.6312	-1.6375	-2.3021	-2.4458	-1.4792	-2.6604	-1.95	-1.8792	-2.5708	-1.8	-9.197	93.316	186.205	7.332	44.173	-88.762	121.084	-142.661	-72.640	-90.969	-144.231	128.498	18.341	154.191	112.364	139.565	0.00090479	0.0012134	0.00018781	617.32	5.0192e-06	1.2103e-05	590.19	201.81	1.6606e-05	2.1271e-05	208.47	92.496	87.217	44.118	1.4747e-05	44.869	0.0062849	0.0068604	0.0019058	785.12	7.2687e-05	7.4338e-05	752.39	251.6	7.02e-05	7.11e-05	297.07	118.03	140.11	51.838	6.1878e-05	55.346	-12.072	-20.634	84.930	-138.456	42.061	-112.337	-140.081	-132.368	-22.093	67.450	-135.521	-131.737	-127.883	-124.068	-9.360	-128.018	-8191	255	
1786.737	1	1	0	0	0.081925	0.22638	0.12717	0.14334	0.096581	0.21705	0.26487	0.37717	0.10984	0.19862	0.099115	0.21377	0.21006	0.064424	0.21661	0.52217	-1.9604	-2.6396	-1.6417	-2.7354	-1.9375	-1.6479	-2.7958	-1.8604	-2.05	-2.4208	-1.675	-2.4458	-2.1875	-1.9062	-2.6042	-2.0312	-23.772	-127.698	146.416	202.395	-63.030	43.360	180.018	144.283	69.851	-51.010	95.712	-84.359	13.302	-50.618	58.344	170.836	0.0010006	0.00041688	0.00045958	617.37	1.8674e-05	1.5691e-05	593.42	203.09	1.5497e-05	1.6916e-05	208.36	92.423	88.762	43.021	9.3116e-06	43.76	0.0051166	0.0054944	0.0015087	748.18	5.8545e-05	5.9986e-05	722.06	245.6	5.9507e-05	6.1101e-05	285.34	115.16	135.21	50.311	5.7844e-05	53.608	-55.274	158.566	150.026	-138.455	-12.560	-56.798	-140.123	-132.035	-19.135	92.951	-135.761	-131.056	-128.521	-124.039	-27.477	-127.777	-8191	255	
1786.811	1	1	0	0	0.26471	0.073651	0.19408	0.080732	0.14552	0.028231	0.092249	0.28652	0.11086	0.019246	0.14886	0.18822	0.061872	0.22525	0.3257	0.18032	-1.7604	-2.4479	-1.5646	-2.5667	-2.2646	-1.6583	-2.8104	-1.8667	-2.0396	-2.6063	-1.6437	-2.3479	-2.3125	-1.8646	-2.6104	-1.9375	199.749	168.439	44.383	-59.317	137.894	147.579	125.230	160.663	-63.406	14.079	-146.837	154.203	-130.710	155.003	-107.796	202.171	0.00037533	0.0024513	0.00052431	609.91	2.2535e-06	1.0909e-05	584.08	205.15	2.9409e-05	2.0072e-05	208.18	92.881	89.181	42.212	1.0686e-05	42.439	0.0049067	0.0053013	0.0014812	741.68	5.8362e-05	6.0233e-05	713.74	246.98	6.0751e-05	6.235e-05	288.26	116.99	140.21	50.049	6.4112e-05	53.822	-34.774	-94.368	-101.598	-138.434	103.546	-28.317	-140.235	-132.570	-15.783	17.445	-135.895	-131.723	-128.016	-123.989	54.980	-128.127	-8191	255	
1786.929	1	1	0	0	0.16439	0.1052	0.087901	0.26509	0.12395	0.054488	0.21584	0.20233	0.15029	0.099437	0.12566	0.027993	0.053913	0.22951	0.22348	0.14282	-1.6	-2.6604	-1.7042	-2.4021	-2.3917	-1.825	-2.6771	-1.9833	-1.8021	-2.6042	-1.7625	-2.3083	-2.4708	-1.5458	-2.6083	-2.2729	-107.952	-48.466	-12.645	-114.968	-73.334	187.526	116.084	141.903	-80.912	203.768	33.071	64.345	-120.722	100.938	191.394	-22.687	0.0004426	0.0018997	0.0010395	610	1.3912e-05	8.498e-06	584.33	209.01	1.9443e-06	1.8945e-05	211.09	93.749	89.668	41.238	6.2463e-06	41.95	0.0056823	0.0061519	0.0017285	768.33	6.7178e-05	6.8713e-05	730.09	255.15	6.5892e-05	6.5988e-05	294.62	118.22	140.71	48.842	6.1386e-05	52.61	-20.854	155.026	-96.516	-138.360	-51.459	85.284	-140.089	-132.442	46.872	-68.090	-135.294	-131.356	-129.327	-124.015	96.989	-127.975	-8191	255	
1787.026	1	1	0	0	0.16517	0.11438	0.23826	0.0723	0.092944	0.23451	0.12529	0.15084	0.12234	0.29097	0.15543	0.13016	0.13996	0.09564	0.18608	0.26622	-1.3729	-2.4333	-1.6375	-2.1479	-2.3583	-1.4937	-2.4437	-2.4771	-1.7292	-2.475	-1.8687	-1.9271	-2.5958	-1.7938	-2.3812	-2.3854	193.152	169.096	94.848	133.418	191.211	159.735	96.996	177.325	123.178	-65.632	39.954	158.469	-84.059	208.715	3.027	111.648	0.0005317	0.0011451	0.00044553	613.42	1.0373e-05	4.7093e-06	585.42	212.32	4.4011e-06	2.2645e-06	217.92	94.857	92.198	41.276	6.2787e-06	42.673	0.0051717	0.0055597	0.001544	748.73	6.0312e-05	6.1926e-05	720.58	254.89	6.0885e-05	6.2018e-05	296.43	118.88	140.32	48.9	5.9953e-05	52.795	-51.768	154.282	-4.448	-138.393	-14.573	-46.584	-139.925	-132.757	-4.271	87.262	-135.784	-131.616	-128.069	-123.743	30.319	-127.816	-8191	255	
1787.122	1	1	0	0	0.089936	0.018711	0.2495	0.21489	0.11842	0.31944	0.30008	0.32294	0.058351	0.1623	0.038267	0.24173	0.40409	0.15283	0.33194	0.31729	-1.3625	-2.4458	-1.95	-1.9667	-2.525	-1.7687	-2.4167	-2.2938	-1.6417	-2.5208	-2.1	-1.9208	-2.4854	-1.7625	-2.3042	-2.3792	141.775	-92.569	128.151	66.346	-18.455	51.378	65.994	181.581	206.188	199.671	-33.253	162.220	-146.907	155.353	35.688	89.063	0.00050136	0.0014822	0.0004964	610.92	1.0022e-05	1.0817e-05	583.32	212.83	1.005e-05	3.0474e-06	218.22	94.409	90.287	41.232	2.5292e-05	41.933	0.0050684	0.0054406	0.0015016	742.04	5.6801e-05	5.7846e-05	711.12	252.08	5.568e-05	5.6595e-05	289.05	116.82	135.53	48.114	5.6377e-05	51.84	-59.450	-111.543	-81.951	-138.321	31.957	31.059	-139.975	-132.470	-39.859	183.385	-135.875	-131.597	-128.549	-124.035	-3.282	-127.911	-8191	255	
1787.242	1	1	0	0	0.13817	0.13616	0.13733	0.12588	0.2796	0.32508	0.29948	0.042096	0.14899	0.14224	0.0091514	0.28447	0.1694	0.2608	0.20767	0.17435	-1.1125	-2.3146	-1.9042	-1.8396	-2.6813	-1.5688	-2.4104	-2.3354	-1.4625	-2.3604	-2.3292	-1.7437	-2.5042	-1.9896	-2.0833	-2.3958	-96.947	89.957	-14.811	98.873	110.775	-109.632	138.366	47.246	28.844	-41.892	102.787	151.881	195.035	131.283	-9.259	-98.196	0.0010081	0.00099793	0.00039805	608.9	7.7243e-06	6.4543e-06	577.36	209.97	1.8284e-05	1.0163e-05	214.05	94.097	90.59	41.082	1.8303e-05	42.154	0.0047489	0.0051283	0.0014295	734.05	5.4772e-05	5.5578e-05	697.83	247.99	5.3467e-05	5.4025e-05	281.81	114.63	133.31	47.629	5.3118e-05	51.105	-39.845	-86.558	206.994	-138.090	142.981	-100.998	-139.522	-132.513	42.070	-26.633	-135.856	-131.237	-127.964	-124.175	-101.612	-127.931	-8191	255	
1787.337	1	1	0	0	0.05014	0.17966	0.17035	0.1342	0.16872	0.11071	0.25192	0.4631	0.080059	0.073737	0.087115	0.28641	0.17222	0.093118	0.068268	0.15003	-1.0688	-2.3937	-2.0312	-1.5771	-2.4479	-1.9542	-2.0458	-2.5417	-1.6271	-2.4479	-2.1958	-1.6354	-2.6417	-2.0104	-1.725	-2.6542	-26.700	20.418	-68.188	188.143	152.725	-103.235	140.332	69.703	109.187	62.376	-11.065	115.763	105.805	-18.430	191.951	-59.016	0.00047491	0.00079548	0.00029149	612.38	8.8447e-06	2.7509e-06	583.44	213.4	1.388e-05	1.2257e-05	217.84	94.775	91.947	41.104	5.3161e-06	42.112	0.0044857	0.0048083	0.0013476	728.39	5.1091e-05	5.187e-05	693.38	248.46	4.9523e-05	5.0476e-05	280.22	113.48	129.75	47.153	4.7576e-05	50.258	-37.790	26.984	-76.747	-138.402	30.728	-122.256	-140.151	-132.478	195.350	-56.307	-135.599	-131.470	-128.367	-123.922	-51.786	-127.902	-8191	255	
1787.433	1	1	0	0	0.09673	0.37447	0.14735	0.067255	0.2996	0.051386	0.18868	0.010265	0.082563	0.22988	0.11205	0.041648	0.19108	0.15912	0.25194	0.10007	-1.25	-2.3229	-2.2625	-1.5625	-2.4667	-1.6458	-2.0458	-2.5667	-1.5083	-2.2854	-2.5792	-1.6854	-2.5125	-2.1083	-1.5458	-2.6562	-145.381	88.260	84.869	122.139	144.788	191.438	50.600	-83.600	-147.484	-59.392	116.023	-143.263	92.240	114.746	181.343	133.069	0.00041838	0.0002741	0.00016247	612.66	6.8175e-06	1.015e-05	580.44	213.7	1.1516e-05	1.2631e-05	222.6	96.682	92.102	41.939	1.212e-05	43.223	0.0039377	0.004203	0.001167	710.61	4.4043e-05	4.4975e-05	677.57	244.23	4.2894e-05	4.4251e-05	276.13	112.99	125.69	47.174	4.3198e-05	50.387	-59.088	-17.581	-39.494	-137.960	-85.650	-60.723	-140.093	-132.287	-135.995	180.117	-135.550	-131.658	-128.063	-124.015	0.657	-127.748	-8191	255	
1787.529	1	1	0	0	0.1796	0.22012	0.05322	0.35443	0.15012	0.097209	0.21371	0.43399	0.12499	0.085215	0.10239	0.1185	0.12189	0.22253	0.046138	0.19788	-1.3521	-2.0333	-2.3771	-1.7229	-2.4875	-2.0687	-2.0312	-2.7625	-1.875	-2.0729	-2.4771	-1.7958	-2.6042	-2.1458	-1.6667	-2.6083	-4.430	172.598	-130.992	-146.186	31.335	89.227	-94.525	164.860	169.079	-103.215	100.971	125.135	65.815	193.890	-58.401	204.232	0.0011067	0.00050098	0.00023123	606.84	9.0857e-06	4.3469e-06	581.83	214.28	1.6767e-05	1.016e-05	216.39	95.076	90.845	41.682	1.4775e-05	42.702	0.0036391	0.0039278	0.0010942	702.39	4.2048e-05	4.3302e-05	672.07	242.05	4.1574e-05	4.2211e-05	269.35	110.5	122.43	46.525	3.9695e-05	49.209	-38.812	-148.415	133.921	-138.118	26.805	200.846	-140.202	-132.398	-42.943	-11.822	-135.234	-131.784	-127.991	-124.221	-27.081	-127.638	-8191	255	
1787.625	1	1	0	0	0.20328	0.20797	0.14825	0.18388	0.18574	0.31234	0.15489	0.27817	0.1065	0.050428	0.24874	0.24032	0.28534	0.25571	0.19439	0.23329	-1.4312	-1.95	-2.4333	-1.4937	-2.4021	-2.2333	-1.6083	-2.6854	-1.9104	-1.8333	-2.6292	-1.625	-2.2354	-2.2667	-1.7313	-2.5729	164.495	157.069	193.380	117.065	46.370	181.333	111.219	206.211	-44.621	37.887	-55.923	194.967	-62.554	146.144	-16.493	64.945	0.00050678	0.00036319	9.6989e-05	603.75	4.8127e-06	1.0013e-05	576.54	212.12	2.2554e-05	1.4094e-05	216.8	95.075	91.542	41.511	7.1557e-06	42.346	0.0033427	0.0036269	0.0010043	689.11	3.8585e-05	3.9281e-05	659.51	238.23	3.8041e-05	3.9279e-05	263.5	109.17	121.4	46.346	3.8642e-05	48.794	-21.840	-130.745	-116.694	-138.443	-126.162	-1.440	-139.754	-132.638	-45.999	-43.509	-135.707	-131.566	-128.087	-124.178	71.434	-128.016	-8191	255	
1787.721	1	1	0	0	0.16437	0.072068	0.14212	0.14047	0.16697	0.17389	0.25807	0.21413	0.36424	0.22526	0.090295	0.18284	0.086165	0.14548	0.15296	0.21782	-1.5521	-1.6271	-2.7	-1.9062	-2.3625	-2.4146	-1.7667	-2.6292	-2.2	-1.9312	-2.7146	-1.9125	-2.2292	-2.6208	-1.6938	-2.5271	-25.889	-139.950	144.938	-133.609	31.273	95.936	133.200	167.422	3.449	67.725	-91.604	28.817	-57.689	168.041	-13.874	151.616	0.00064747	0.0005433	3.5698e-05	607.79	1.4009e-06	3.7844e-06	582.37	215.72	1.2423e-05	1.1716e-05	222.72	96.049	92.766	42.067	1.6471e-05	42.962	0.0032506	0.0035078	0.00096771	690.83	3.7457e-05	3.8273e-05	660.16	240.72	3.692e-05	3.7608e-05	268.64	110.52	121.37	46.601	3.7174e-05	49.328	-21.547	-142.000	-55.573	-138.052	37.608	-77.338	-140.020	-132.323	-74.345	-25.184	-135.601	-131.583	-128.382	-124.172	0.683	-127.811	-8191	255	
1787.842	1	1	0	0	0.2289	0.047639	0.10129	0.33418	0.13112	0.19514	0.13311	0.13609	0.23439	0.12779	0.19706	0.22903	0.15933	0.25143	0.083011	0.22235	-1.8417	-1.8292	-2.5708	-1.8854	-2.05	-2.4292	-1.8875	-2.7833	-2.0625	-1.4458	-2.6646	-1.9292	-2.225	-2.6083	-1.7125	-2.5917	-5.683	-87.359	124.806	189.230	127.882	65.368	195.283	166.272	144.024	179.363	28.896	208.653	159.353	140.021	203.308	133.233	0.00073308	0.0016237	0.0003096	616.74	5.7637e-06	8.0113e-06	590.82	222.48	1.1625e-05	1.6183e-05	229.9	98.682	94.329	41.813	2.1026e-05	42.788	0.0032105	0.0035091	0.00097556	701.23	3.8588e-05	3.9801e-05	676.43	248.92	3.8773e-05	4.0027e-05	278.24	113.39	125.06	46.556	3.9316e-05	49.351	-40.249	-109.724	122.028	-138.168	-100.084	8.241	-139.871	-132.245	-42.783	94.857	-135.612	-131.465	-128.215	-123.886	13.549	-127.528	-8191	255	
1787.938	1	1	0	0	0.32799	0.22928	0.10056	0.2152	0.20822	0.16251	0.22752	0.31147	0.1087	0.23304	0.22052	0.31933	0.23544	0.052558	0.35066	0.14682	-1.8771	-1.6667	-2.6479	-1.9542	-1.8438	-2.5208	-1.8021	-2.3833	-2.3333	-1.45	-2.4271	-2.0958	-1.9146	-2.7333	-1.5958	-2.3021	202.535	85.132	187.996	-133.908	200.719	122.252	197.678	178.881	-27.991	55.841	8.756	117.238	172.934	31.535	-6.884	97.714	0.0005223	0.00050366	9.3475e-05	620.82	7.5375e-06	6.634e-06	593.32	223.83	1.0676e-05	1.2072e-05	227.36	97.767	93.626	41.166	8.6554e-06	42.265	0.0033557	0.0036053	0.0010018	706.82	3.9032e-05	4.0106e-05	676.41	250.1	3.9879e-05	4.1292e-05	277.77	113.19	126.37	46.343	4.1231e-05	49.302	-5.569	-136.120	-85.847	-138.113	27.533	40.988	-139.737	-132.131	25.290	-52.827	-135.542	-131.876	-128.035	-123.799	17.365	-127.527	-8191	255	
1788.034	1	1	0	0	0.20326	0.072217	0.2793	0.15023	0.15807	0.090076	0.097351	0.20885	0.10907	0.026955	0.32151	0.15056	0.16098	0.12022	0.006325	0.34902	-2.1167	-1.525	-2.4562	-2.1771	-1.7062	-2.8271	-1.9688	-2.1792	-2.4271	-1.5333	-2.4625	-2.2708	-1.8458	-2.7417	-1.9292	-2.1792	44.684	-90.687	-147.144	83.132	62.754	128.196	111.217	111.102	-139.664	16.916	134.252	77.319	-54.151	88.646	-47.236	169.597	0.00057203	0.0013453	0.00014961	612.94	9.8965e-06	1.5354e-05	588.01	223.6	5.3107e-06	8.3318e-06	229.04	97.806	94.926	41.349	1.327e-05	42.008	0.0035331	0.0037872	0.0010403	706	4.0237e-05	4.1124e-05	675.9	250.49	3.9723e-05	4.0601e-05	278.16	112.6	125.22	46.177	3.8694e-05	48.565	-32.780	-23.846	-81.043	-138.246	16.173	-25.107	-139.746	-132.270	11.050	-65.295	-135.769	-131.276	-127.983	-123.822	59.196	-127.324	-8191	255	
1788.106	1	1	0	0	0.10567	0.22932	0.17262	0.38198	0.2939	0.16707	0.049611	0.16697	0.22471	0.15612	0.15966	0.21174	0.30999	0.05322	0.16219	0.14829	-2.1312	-1.4729	-2.3937	-2.1188	-1.6688	-2.6417	-1.9083	-2.025	-2.4	-1.775	-2.325	-2.2208	-1.7458	-2.5167	-1.9333	-1.8188	-31.798	121.026	-107.845	198.173	89.419	48.357	108.964	105.807	-26.924	131.508	31.982	116.518	114.544	-74.789	115.130	131.882	0.00069548	0.0010616	0.00021865	622.57	4.7667e-06	4.5734e-06	591.48	225.2	1.7592e-06	7.1109e-06	225.13	96.85	93.297	40.768	9.3698e-06	41.334	0.0032684	0.0035086	0.0009745	707.39	3.8192e-05	3.9067e-05	675.84	250.91	3.9056e-05	3.9841e-05	275.21	111.59	124.79	45.597	4.0558e-05	48.223	-44.242	-90.078	-113.806	-138.297	140.824	82.200	-139.771	-132.415	-37.251	4.196	-135.220	-131.586	-128.210	-123.907	-73.291	-127.264	-8191	255	
1788.227	1	1	0	0	0.047044	0.18193	0.13271	0.05423	0.33687	0.085391	0.051115	0.12761	0.18136	0.076466	0.13954	0.0076244	0.28342	0.15042	0.11937	0.2944	-2.1229	-1.5667	-2.1562	-2.2854	-1.6083	-2.8937	-1.9125	-1.9292	-2.6833	-1.5833	-2.2792	-2.6562	-1.5812	-2.6063	-2.1333	-1.8354	30.429	-76.010	110.725	-18.698	113.097	34.409	52.002	153.823	155.016	-51.025	92.276	139.096	126.883	195.063	149.708	110.157	0.00041799	0.0012019	0.00053256	625.34	5.972e-06	8.7229e-06	590.63	221.46	6.7077e-06	1.7637e-05	225.08	95.078	92.617	39.974	1.5359e-05	40.661	0.0035091	0.0038015	0.0010639	714.75	4.1701e-05	4.2917e-05	681.1	251.01	4.2484e-05	4.3485e-05	280.16	111.87	126.72	45.414	4.4346e-05	48.448	-47.418	25.591	-68.706	-138.090	-95.859	-81.233	-139.983	-132.251	-69.834	-5.516	-135.285	-131.567	-128.387	-123.750	-101.508	-127.335	-8191	255	
1788.321	1	1	0	0	0.104	0.20009	0.12552	0.19103	0.20405	0.16978	0.28238	0.1115	0.11059	0.23908	0.072575	0.16642	0.050397	0.28965	0.2668	0.32791	-2.2854	-1.85	-2.1188	-2.6125	-1.8042	-2.4208	-2.0167	-1.825	-2.7708	-1.7604	-2.2146	-2.6792	-1.775	-2.6937	-2.1208	-1.9062	49.376	121.375	43.179	169.733	22.590	91.125	109.962	105.974	-96.767	-40.135	-52.271	-149.697	7.381	-103.552	187.994	-60.511	0.00062407	0.00040679	0.00012471	618.14	1.4069e-05	2.1084e-05	582.5	216.67	3.6666e-06	7.7309e-06	218.08	92.514	90.479	38.951	1.5773e-05	39.672	0.0038156	0.0041324	0.0011627	718.97	4.5227e-05	4.6265e-05	680.23	248.79	4.5145e-05	4.6071e-05	275.17	110.31	126.32	44.664	4.5372e-05	47.414	-10.356	-84.620	206.517	-138.228	142.981	-7.085	-140.131	-132.552	-42.161	-34.448	-135.818	-131.478	-128.220	-123.741	204.874	-127.558	-8191	255	
1788.417	1	1	0	0	0.085491	0.16085	0.07497	0.40412	0.082026	0.070151	0.42747	0.20607	0.040378	0.050433	0.079464	0.066556	0.20141	0.20898	0.34498	0.21258	-2.2687	-1.9146	-1.9375	-2.5521	-1.7104	-2.2021	-2.1271	-1.6688	-2.5729	-1.8375	-1.9438	-2.75	-1.6333	-2.4583	-2.2792	-1.7667	82.118	199.889	-75.435	144.888	198.435	151.686	146.414	116.553	208.316	20.991	152.175	-18.207	-125.835	207.846	84.827	36.698	0.00072024	0.0014017	0.00019144	611.36	4.5118e-06	2.4687e-06	573.38	217.15	4.3303e-06	4.0681e-06	217.67	93.308	90.728	38.973	1.6908e-05	39.941	0.0038895	0.0041796	0.001177	712.33	4.5461e-05	4.6706e-05	672.18	248.24	4.5656e-05	4.665e-05	275.04	110.43	126.2	44.755	4.6115e-05	47.782	-28.496	-37.975	-18.194	-138.556	13.479	49.105	-139.855	-132.413	-28.117	-44.144	-135.536	-131.724	-128.473	-123.749	-84.767	-127.710	-8191	255	
1788.513	1	1	0	0	0.2318	0.058734	0.12389	0.18126	0.13915	0.14583	0.23333	0.13149	0.091204	0.15325	0.15329	0.21	0.21591	0.28835	0.10735	0.037356	-2.1292	-1.8563	-1.9062	-2.7854	-1.675	-2.2333	-2.4188	-1.4604	-2.4542	-2.1333	-1.9979	-2.5521	-1.6729	-2.2583	-2.5521	-1.8396	83.680	203.916	-17.437	3.969	160.016	-127.900	144.298	-133.668	155.649	-54.285	-56.865	144.874	-146.980	198.333	105.637	91.914	0.00080186	0.00048788	0.00021278	603.28	1.2625e-05	7.5072e-06	573.3	218.4	1.4527e-05	1.5454e-05	221.27	94.852	91.808	39.549	8.0014e-06	40.685	0.0038909	0.0042272	0.0011827	707.7	4.5671e-05	4.682e-05	673.51	249.39	4.5292e-05	4.6393e-05	280.66	112.29	127.67	45.312	4.6055e-05	48.412	-43.476	-94.423	-14.985	-138.160	-142.308	26.580	-140.179	-132.578	-17.636	-18.638	-135.550	-131.673	-128.582	-123.701	-55.060	-127.384	-8191	255	
1788.634	1	1	0	0	0.23551	0.11721	0.30065	0.25201	0.24659	0.02346	0.21612	0.3609	0.13222	0.29523	0.14341	0.19778	0.13826	0.26584	0.15203	0.033414	-2.1229	-2.15	-1.8125	-2.7708	-1.8813	-2.1167	-2.8042	-1.6958	-2.4958	-2.1479	-1.7625	-2.5958	-1.8896	-2.0458	-2.6104	-1.65	-44.233	46.057	205.075	-136.274	-142.385	162.441	182.950	105.262	57.148	-135.802	184.463	-64.854	80.038	188.422	-4.467	62.862	0.00066765	0.00059904	0.00022168	606.45	8.2711e-06	6.4501e-06	578.87	219.68	1.19e-05	2.102e-05	227.59	95.754	92.521	39.597	4.6983e-06	40.3	0.0039037	0.0042106	0.0011745	707.99	4.4622e-05	4.5738e-05	675.55	250.92	4.3974e-05	4.4937e-05	282.97	112.59	126.49	45.07	4.3796e-05	47.968	-9.330	-142.940	92.893	-138.183	79.634	7.089	-139.879	-132.258	-100.901	6.868	-135.343	-131.444	-128.627	-123.927	63.923	-127.517	-8191	255	
1788.706	1	1	0	0	0.21423	0.037414	0.18369	0.13205	0.049748	0.33868	0.053082	0.11142	0.41695	0.24885	0.092967	0.15369	0.061272	0.4448	0.089146	0.31967	-2.0042	-2.4292	-1.6562	-2.325	-1.8708	-2.1688	-2.7771	-1.6792	-2.0271	-2.0938	-1.6604	-2.5563	-2.0667	-2.0521	-2.4708	-1.6812	81.269	-53.701	102.255	-43.262	142.026	90.803	57.997	185.275	146.918	167.184	61.407	120.474	-67.006	160.880	-97.104	87.983	0.00051134	0.0010242	0.00037409	603.88	1.3591e-05	1.9089e-06	574.36	217.38	1.8473e-05	1.1633e-05	220.64	93.411	91.184	39.335	1.3152e-05	39.96	0.0037335	0.0040235	0.0011238	701.02	4.3616e-05	4.4284e-05	668.27	247.71	4.3636e-05	4.4772e-05	276.51	110.45	125.75	44.728	4.4534e-05	47.744	-41.647	80.958	-53.542	-137.946	18.645	79.830	-139.803	-132.444	-22.873	107.363	-135.540	-131.744	-128.073	-124.044	182.212	-127.757	-8191	255	
1788.802	1	1	0	0	0.08893	0.11309	0.10088	0.30707	0.060205	0.19846	0.10158	0.16379	0.16361	0.18236	0.29517	0.20415	0.067478	0.038024	0.14537	0.2535	-1.95	-2.3292	-1.55	-2.6042	-2.0812	-1.7292	-2.7313	-1.9396	-2.1333	-2.5083	-1.5938	-2.5417	-2.2062	-1.8521	-2.4813	-1.7125	78.028	-106.246	184.932	-89.726	71.031	84.055	71.043	-9.866	155.148	-129.904	20.352	189.001	-98.300	137.056	200.925	182.094	0.00043653	0.0011071	0.00035053	604.51	1.7598e-05	2.1524e-06	569.44	218.6	1.0419e-05	1.1746e-05	224.54	95.299	93.551	39.896	9.8191e-06	40.959	0.0038353	0.0041687	0.0011625	701.87	4.4621e-05	4.6107e-05	670.53	249.64	4.4837e-05	4.5968e-05	282.25	112.76	128.74	45.589	4.6274e-05	48.785	-14.118	-37.305	-102.872	-138.391	48.318	191.795	-140.224	-132.496	47.436	-13.391	-135.822	-131.743	-128.798	-123.949	-67.806	-127.528	-8191	255	
1788.922	1	1	0	0	0.10061	0.15811	0.15721	0.081469	0.25324	0.27557	0.33571	0.16504	0.24349	0.038215	0.27767	0.33467	0.29941	0.033145	0.14668	0.1505	-1.7125	-2.6208	-1.5646	-2.5958	-2.2042	-1.725	-2.6979	-1.9917	-2.2167	-2.5021	-1.7208	-2.4625	-2.2687	-1.7687	-2.5604	-2.1792	72.385	-101.532	175.942	-99.936	52.933	-122.564	108.684	-27.813	-111.501	-18.356	-104.757	147.018	156.107	-121.053	159.003	122.388	0.00050995	0.0019253	0.00031831	612.69	1.2909e-05	1.828e-05	580.81	223.22	8.5716e-06	7.8904e-06	230.68	97.615	93.658	40.548	1.2246e-05	41.442	0.00402	0.0044279	0.0012301	717.43	4.8943e-05	5.0603e-05	689.34	257.39	5.0452e-05	5.1369e-05	295.42	117.03	134.73	46.794	5.0964e-05	50.31	-13.375	-32.339	21.120	-138.348	-80.092	17.703	-140.344	-132.352	-90.190	47.936	-135.501	-131.560	-128.415	-123.399	40.106	-127.777	-8191	255	
1789.018	1	1	0	0	0.041764	0.11822	0.036128	0.17052	0.3886	0.16657	0.062502	0.17741	0.26056	0.3785	0.42278	0.28777	0.13507	0.27961	0.19587	0.11477	-1.5854	-2.6104	-1.6417	-2.3958	-2.3542	-1.5229	-2.4479	-2.0083	-1.7375	-2.6083	-1.7417	-2.2396	-2.5396	-1.6063	-2.4229	-1.975	-84.914	-90.076	64.115	108.153	-18.475	-56.674	84.500	-124.381	144.587	-48.181	187.973	162.980	116.862	174.254	197.377	-65.282	0.00049838	0.0010341	0.00045162	614.1	2.847e-06	1.0499e-05	586.88	225.54	2.1595e-05	9.8827e-06	235.49	99.034	95.892	40.644	9.0156e-06	41.746	0.0043898	0.0047313	0.0013181	728.02	5.1841e-05	5.3301e-05	702.03	262.03	5.2955e-05	5.4428e-05	303.08	119.91	138.23	47.56	5.494e-05	51.218	-12.196	-78.568	-124.285	-138.309	150.930	158.420	-139.723	-132.404	-7.274	80.130	-135.877	-131.809	-128.401	-123.918	28.907	-127.916	-8191	255	
1789.115	1	1	0	0	0.085617	0.060866	0.36387	0.20933	0.13748	0.02082	0.14072	0.12529	0.084743	0.13099	0.25648	0.1287	0.20821	0.063961	0.21924	0.32334	-1.4042	-2.5687	-1.6396	-2.2271	-2.3542	-1.3875	-2.5187	-2.2146	-1.575	-2.4375	-1.7625	-2.0438	-2.4437	-1.65	-2.2521	-2.2083	-97.409	23.324	116.642	-80.089	-57.458	152.620	137.475	69.568	185.085	182.586	127.301	56.211	61.604	-119.387	90.771	123.245	0.00065128	0.00019902	0.00040391	609.63	1.9761e-05	5.9699e-06	581.21	222.16	1.8649e-05	1.5413e-05	230.96	98.206	95.376	40.92	1.7767e-05	41.7	0.0047493	0.0051662	0.0014508	736.64	5.6975e-05	5.857e-05	707.06	262.7	5.7719e-05	5.9199e-05	305.65	121.21	142.85	48.29	6.0005e-05	52.107	-17.991	40.009	-71.631	-138.131	-38.586	-70.901	-139.671	-132.672	-43.768	-48.379	-135.657	-131.759	-128.448	-123.749	-46.803	-127.686	-8191	255	
1789.211	1	1	0	0	0.05388	0.13014	0.21577	0.17272	0.27925	0.078128	0.33763	0.16919	0.16335	0.22362	0.18148	0.13318	0.20991	0.27319	0.18847	0.20872	-1.3188	-2.7167	-1.6771	-1.8375	-2.4646	-1.5771	-2.5083	-2.3854	-1.5583	-2.5292	-1.9958	-1.8438	-2.5958	-1.8625	-2.0729	-2.4292	-3.191	66.882	29.606	173.021	114.688	175.606	166.191	-69.432	130.809	-113.294	49.007	-79.072	140.324	192.561	57.106	138.374	0.00072354	0.00082869	0.0001446	609.86	2.3701e-06	5.5217e-06	584.77	227.48	7.7893e-06	1.0922e-05	238.36	99.986	97.486	41.471	1.102e-05	42.631	0.0052018	0.0056518	0.001586	751.47	6.2702e-05	6.4788e-05	728	272.65	6.4809e-05	6.6546e-05	322.54	126.61	151.23	49.938	6.7576e-05	54.203	-34.515	152.749	-37.119	-138.340	198.082	-25.658	-139.985	-132.648	152.945	-70.510	-135.926	-131.517	-128.688	-124.024	-109.616	-127.832	-8191	255	
1789.330	1	1	0	0	0.14358	0.089834	0.067169	0.23932	0.18844	0.045543	0.041242	0.015018	0.084939	0.14304	0.14739	0.17792	0.048713	0.054344	0.14469	0.20021	-1.1979	-2.6229	-2.0542	-1.8563	-2.5354	-1.5417	-2.0854	-2.4771	-1.4708	-2.4125	-2.1833	-1.8208	-2.4208	-1.6396	-2.2021	-2.7167	94.881	14.935	72.231	169.141	74.051	149.061	-81.069	40.532	-126.048	84.889	194.496	-108.254	134.593	98.393	129.578	87.574	0.00074814	0.0011765	0.0001743	616.63	1.7386e-05	6.4883e-06	597.54	231.39	1.2699e-05	9.7245e-06	245.73	101.92	98.047	41.929	1.4415e-05	42.884	0.0058102	0.0062848	0.0017747	775.47	6.8871e-05	7.1021e-05	751.59	281.06	7.0327e-05	7.2077e-05	336.48	130.18	156.44	50.819	7.2198e-05	55.306	-47.775	-8.192	-114.632	-138.270	-13.296	41.978	-140.168	-132.780	-43.650	21.599	-135.274	-131.702	-128.264	-123.637	165.000	-127.447	-8191	255	
1789.403	1	1	0	0	0.44887	0.37531	0.10118	0.080973	0.099383	0.35701	0.31425	0.15324	0.10988	0.40605	0.25056	0.2762	0.1084	0.18716	0.2073	0.30862	-1.4312	-2.4667	-2.1813	-1.7917	-2.5125	-1.7417	-1.9542	-2.6729	-1.5208	-2.3979	-2.1771	-1.6583	-2.5479	-1.8771	-1.6083	-2.5563	65.597	41.044	55.863	30.807	194.823	-11.921	-110.762	74.494	48.571	128.546	150.906	185.168	-11.382	161.070	92.613	84.934	0.00051358	0.0014437	0.00049347	622	1.1214e-05	1.1059e-05	599.13	232.49	1.9696e-05	1.3754e-05	242.36	100.36	96.97	41.241	1.3654e-05	41.656	0.0061758	0.0067382	0.0018867	790.8	7.32e-05	7.5405e-05	766.92	285.72	7.53e-05	7.7814e-05	342.65	131.4	160.68	51.037	8.0079e-05	55.677	-10.153	-49.172	-49.345	-138.158	39.395	-63.459	-139.959	-132.823	-58.129	99.168	-136.034	-131.825	-128.399	-124.119	138.362	-127.180	-8191	255	
1789.499	1	1	0	0	0.10946	0.18643	0.10226	0.090919	0.22176	0.02038	0.18024	0.084482	0.40377	0.25822	0.54815	0.11775	0.010795	0.064198	0.21864	0.050917	-1.2542	-2.1937	-2.3375	-1.75	-2.5667	-1.9312	-1.9062	-2.8229	-1.6208	-2.1229	-2.4604	-1.7938	-2.6479	-2.1875	-1.7417	-2.6333	-132.061	-16.901	-129.224	-107.237	-31.141	147.466	105.544	97.386	-139.497	-76.591	152.201	126.809	182.861	-4.450	9.345	124.362	0.00073371	0.00088531	0.00017063	629.39	1.1358e-05	7.6461e-06	598.05	230.53	7.4867e-06	1.9431e-05	235.89	98.363	95.939	40.362	8.6095e-06	40.92	0.0068175	0.0074233	0.0020955	814.99	8.1349e-05	8.3708e-05	782.96	289.06	8.3245e-05	8.5372e-05	344.48	131.29	165.47	50.975	8.5883e-05	55.807	-14.879	-58.974	-37.414	-138.348	16.980	-113.180	-140.179	-132.828	-113.667	65.154	-135.809	-131.753	-127.746	-123.782	182.618	-127.431	-8191	255	
1789.618	1	1	0	0	0.32409	0.057063	0.10363	0.090676	0.069435	0.14315	0.09389	0.11198	0.10626	0.23416	0.26388	0.22239	0.29294	0.1334	0.16618	0.31255	-1.3125	-2.0729	-2.3958	-1.7229	-2.3583	-2.0021	-1.7604	-2.6667	-1.7229	-1.7646	-2.3479	-1.6063	-2.3604	-2.2667	-1.7313	-2.675	-135.196	179.939	123.706	153.429	102.122	59.087	112.692	30.577	-54.909	-35.607	189.652	177.794	200.706	153.359	165.461	205.338	0.00048387	0.0027319	0.00058763	631.24	1.7633e-05	2.5403e-05	594.94	231.99	1.6446e-05	1.1715e-05	236.64	98.206	95.682	40.109	1.5748e-05	40.646	0.0072699	0.0079628	0.0022386	831.78	8.6822e-05	8.91e-05	796.37	293.64	8.7547e-05	8.9888e-05	352.95	133.12	168.79	51.32	8.9145e-05	56.286	-29.150	-41.849	-45.929	-138.649	72.755	32.692	-139.800	-132.754	28.776	-7.939	-135.665	-131.519	-128.166	-123.766	-30.055	-127.573	-8191	255	
1789.714	1	1	0	0	0.073279	0.027017	0.19481	0.24837	0.18504	0.21996	0.23135	0.17494	0.24336	0.02665	0.04067	0.17732	0.23109	0.38623	0.026448	0.019932	-1.525	-2.1104	-2.5521	-1.4937	-2.3958	-2.2625	-1.8563	-2.5479	-1.9	-1.7396	-2.4562	-1.8646	-2.4417	-2.3	-1.2542	-2.5854	175.899	19.193	77.650	72.221	-94.489	61.052	151.332	154.528	1.138	174.538	-127.962	-88.173	179.553	161.930	50.265	121.804	0.00054761	0.0011538	0.00051916	635.4	2.5676e-05	1.8474e-05	603.92	233.34	1.8827e-05	1.6096e-05	240.7	98.382	95.331	40.149	6.2866e-06	40.922	0.0075634	0.0082388	0.0022996	840.44	8.8731e-05	9.1018e-05	804.42	296.82	8.8501e-05	9.1016e-05	357.93	133.97	169.61	51.384	8.9461e-05	56.51	-2.461	-58.692	48.836	-138.481	202.133	1.127	-140.229	-132.397	-38.627	-78.140	-135.668	-131.670	-128.726	-123.845	57.099	-127.455	-8191	255	
1789.810	1	1	0	0	0.10515	0.21194	0.14075	0.26537	0.25302	0.1622	0.36959	0.055356	0.12379	0.32475	0.14575	0.13888	0.077396	0.14369	0.1433	0.21972	-1.7	-1.8104	-2.6813	-1.6854	-2.0917	-2.1625	-1.5875	-2.55	-1.8854	-1.5854	-2.7104	-1.9021	-2.1604	-2.575	-1.3833	-2.5479	163.362	18.349	3.156	6.977	99.613	12.048	120.291	-131.461	76.002	62.310	-18.204	120.055	96.628	-124.345	145.761	129.226	0.0010149	0.00072354	0.00019476	641.03	1.6728e-05	1.5006e-05	599.51	233.49	1.1627e-05	1.2078e-05	237.59	97.458	94.908	39.617	1.0071e-05	40.37	0.0075639	0.00824	0.0022908	843.98	8.832e-05	9.0486e-05	802.41	295.41	8.787e-05	9.0232e-05	351.93	132.23	168.09	50.792	8.9224e-05	55.888	-24.191	139.465	107.932	-138.693	-73.976	-124.205	-139.876	-132.508	80.672	160.380	-135.869	-131.823	-128.448	-123.446	-57.993	-127.461	-8191	255	
1789.931	1	1	0	0	0.17013	0.14701	0.078737	0.22236	0.047047	0.10048	0.16335	0.14604	0.19799	0.10081	0.13616	0.20215	0.13143	0.22029	0.18511	0.22174	-1.7208	-1.6396	-2.6375	-1.9667	-2.0687	-2.3021	-1.7917	-2.4646	-2.0521	-1.5458	-2.6542	-1.825	-2.1792	-2.7438	-1.7104	-2.3854	-126.305	2.686	130.783	139.391	9.902	154.590	199.791	43.079	-85.272	124.171	149.054	105.898	-95.630	201.064	68.072	83.890	0.0005341	0.0022617	0.00051509	633.42	1.6954e-05	1.1395e-05	595.08	230.79	2.2801e-05	1.4657e-05	231.08	95.086	94.412	39.43	2.1872e-05	39.909	0.0076588	0.0083646	0.0023284	840.51	9.0078e-05	9.2671e-05	798.35	293.3	8.9932e-05	9.1779e-05	347.55	130.59	168.06	50.444	8.8739e-05	55.193	-5.035	-137.952	-37.037	-138.438	31.822	-131.075	-140.160	-132.746	-9.001	68.577	-135.623	-131.770	-128.955	-123.975	-24.209	-127.319	-8191	255	
1790.003	1	1	0	0	0.058707	0.15997	0.31108	0.052005	0.13407	0.1059	0.037273	0.042932	0.11713	0.20435	0.10188	0.21136	0.16129	0.12891	0.18898	0.2824	-2.0187	-1.7542	-2.5771	-1.9104	-1.7708	-2.4292	-1.7542	-2.4875	-2.3708	-1.7188	-2.4125	-2.0625	-1.8396	-2.5875	-1.6375	-2.1729	28.294	-14.077	136.083	198.095	167.107	25.748	34.030	142.207	60.311	-83.863	156.819	64.106	91.676	97.394	-128.136	-8.944	0.00081338	0.00090137	0.00022208	638.05	2.3879e-05	1.2776e-05	591.44	230.15	7.8668e-06	7.0301e-06	234.08	96.113	95.514	39.624	1.9007e-05	40.011	0.0074752	0.0080918	0.0022493	833.68	8.6709e-05	8.8587e-05	787.53	291.71	8.6188e-05	8.8098e-05	346.51	130.26	165.8	50.308	8.5981e-05	55.158	-21.060	20.593	-22.736	-138.751	-42.099	23.521	-139.789	-132.549	-15.181	145.327	-136.311	-131.861	-128.148	-123.853	-38.809	-127.322	-8191	255	
1790.099	1	1	0	0	0.079727	0.208	0.07448	0.18046	0.21781	0.1353	0.1238	0.22388	0.26225	0.17053	0.058959	0.073464	0.2361	0.13206	0.20137	0.24928	-2	-1.6896	-2.7146	-2.0479	-1.7396	-2.6271	-1.7625	-2.2375	-2.5687	-1.6042	-2.5062	-2.175	-1.8896	-2.7208	-1.7792	-2.1625	96.343	-5.521	-19.623	-133.365	178.995	-84.099	157.887	128.404	163.228	185.784	-149.183	48.670	162.475	123.171	79.647	53.612	0.00059589	0.00096129	0.00019493	632.59	1.6684e-05	1.7134e-05	596.32	233.09	1.8121e-05	2.4258e-05	239.02	97.702	94.984	39.754	2.8146e-05	40.785	0.0073208	0.007926	0.0021943	828.1	8.4745e-05	8.6284e-05	784.51	291.24	8.3353e-05	8.4869e-05	347.13	130.34	163.38	50.164	8.3168e-05	55.198	-18.799	-6.494	77.418	-138.279	4.402	-10.710	-140.247	-132.489	-45.426	-73.952	-135.432	-131.570	-128.604	-123.804	-29.795	-127.652	-8191	255	
1790.195	1	1	0	0	0.1696	0.068146	0.25212	0.19844	0.20482	0.2102	0.24262	0.33932	0.16081	0.16419	0.058484	0.085292	0.081376	0.38446	0.091429	0.27593	-2.2896	-1.7417	-2.2854	-2.2875	-1.7083	-2.6521	-2.0312	-2.0021	-2.4667	-1.6583	-2.475	-2.3542	-1.8188	-2.5062	-2.0146	-1.95	135.267	-122.599	-127.495	208.318	107.398	50.062	113.745	178.064	20.125	97.160	-94.803	143.090	-148.905	184.381	59.173	116.183	0.00054799	0.0025487	0.00014456	630.21	6.2589e-06	4.929e-06	594.78	232.42	2.2085e-05	1.4002e-05	237.04	96.809	94.785	39.282	1.3839e-05	40.144	0.0070993	0.0076922	0.0021274	824.41	8.2572e-05	8.3806e-05	780.75	289.7	8.2008e-05	8.2897e-05	342.94	129.16	161.58	49.485	8.0843e-05	54.126	-41.703	-36.255	-33.197	-138.253	49.811	-101.840	-139.995	-132.575	-3.940	-36.135	-135.361	-131.799	-128.359	-123.438	9.224	-127.051	-8191	255	
1790.291	1	1	0	0	0.010159	0.13768	0.13888	0.24659	0.19725	0.14906	0.29365	0.18224	0.14381	0.22355	0.22907	0.27692	0.10165	0.25954	0.22026	0.43618	-1.9375	-1.7313	-2.3229	-2.4396	-1.6479	-2.5812	-2.0979	-2.05	-2.3833	-1.8312	-2.1958	-2.4479	-1.7896	-2.4229	-2.1063	-2.0625	35.674	81.081	-76.119	58.762	129.262	41.952	187.003	95.239	39.780	-134.605	-49.353	201.718	101.739	87.558	19.139	140.333	0.00053387	0.0014944	0.00023924	629.38	1.7065e-05	9.8626e-06	588.2	229.84	1.3796e-05	1.8238e-05	234.44	97.066	95.881	39.624	6.2454e-06	40.239	0.0068572	0.0074149	0.0020626	811.76	7.9425e-05	8.1177e-05	768.71	285.81	7.9016e-05	8.0191e-05	336.79	127.69	158.98	49.349	7.7706e-05	53.851	-51.545	-110.069	-130.348	-138.359	-85.038	4.247	-139.642	-132.453	179.016	166.001	-135.621	-131.883	-128.425	-123.242	-134.640	-127.133	-8191	255	
1790.410	1	1	0	0	0.09788	0.15292	0.13423	0.10095	0.45585	0.20416	0.15538	0.23441	0.020859	0.14953	0.1451	0.22574	0.23886	0.065709	0.031914	0.26147	-2.275	-1.7167	-2.1042	-2.5187	-1.4896	-2.4292	-2.1688	-1.6042	-2.5542	-1.6333	-2.1833	-2.6104	-1.7104	-2.5458	-2.2021	-1.6542	30.428	113.581	10.142	160.639	-50.116	-15.607	86.146	130.154	74.781	-10.168	81.608	114.523	-46.541	201.188	85.546	47.422	0.0006841	0.0010902	0.00049719	628.25	1.2553e-05	7.6215e-06	592.61	233.07	1.0523e-05	2.8558e-06	240.86	98.729	96.661	40.291	1.2776e-05	41.031	0.0065455	0.0070539	0.0019611	801.87	7.4911e-05	7.6356e-05	761.81	284.48	7.4101e-05	7.5418e-05	336.61	127.56	155.97	49.291	7.3276e-05	53.638	-39.819	-35.804	-101.021	-138.258	-124.883	-62.086	-139.864	-132.253	70.347	-71.129	-135.552	-131.553	-128.196	-123.504	-126.125	-127.696	-8191	255	
1790.506	1	1	0	0	0.19722	0.2828	0.17728	0.10515	0.2269	0.038694	0.16377	0.20868	0.32153	0.30292	0.19866	0.060677	0.10757	0.31967	0.027448	0.33112	-2.3021	-1.7	-1.9667	-2.4313	-1.55	-2.4083	-2.1937	-1.8375	-2.6354	-1.9979	-1.8875	-2.8438	-1.7042	-2.2562	-2.4396	-1.5438	163.992	24.511	11.411	-137.732	188.387	-2.168	71.939	144.706	42.811	108.079	115.225	-92.545	93.472	204.271	96.228	129.511	0.00031277	0.00082787	0.00024688	623.82	2.1806e-05	1.2676e-05	599.17	232.75	2.3725e-05	1.5504e-05	243.49	99.047	97.291	40.555	1.8785e-05	41.402	0.0061956	0.0066535	0.0018588	791.13	7.1106e-05	7.211e-05	756.09	283.29	6.9828e-05	7.1027e-05	334.83	126.69	153.11	49.121	6.9131e-05	53.3	-62.653	-41.937	74.154	-138.323	-124.873	-138.296	-140.112	-132.678	-53.063	-28.044	-135.605	-131.813	-128.770	-123.841	-103.998	-127.263	-8191	255	
1790.602	1	1	0	0	0.15494	0.23869	0.058793	0.22592	0.2042	0.090368	0.14539	0.20515	0.091365	0.064389	0.13222	0.20217	0.14026	0.064947	0.17563	0.09509	-1.925	-1.8479	-1.8667	-2.4542	-1.5854	-2.1688	-2.3604	-1.7687	-2.5396	-2.2292	-1.9104	-2.7083	-1.6854	-2.1979	-2.4583	-1.7021	106.223	128.247	173.720	130.451	-30.054	111.797	-137.688	125.063	139.339	101.942	-122.521	199.325	179.327	5.849	151.658	135.021	0.00075254	0.0020415	0.00034164	629.92	7.0773e-06	7.3094e-06	592.82	230.79	1.0172e-05	6.6109e-06	237.41	98.524	95.243	39.797	8.3255e-06	40.673	0.0057867	0.0062433	0.0017438	780.02	6.6088e-05	6.7369e-05	741.87	277.27	6.4583e-05	6.5572e-05	319.21	122.97	146.55	47.787	6.2977e-05	51.373	-31.493	-7.085	-92.223	-138.652	-17.292	-1.669	-140.132	-132.678	24.205	-69.806	-135.173	-131.786	-128.294	-123.455	183.841	-127.766	-8191	255	
1790.698	1	1	0	0	0.11763	0.10648	0.12008	0.11952	0.14907	0.25418	0.36579	0.49968	0.23186	0.077726	0.20669	0.17932	0.19816	0.13856	0.21791	0.20394	-2.0354	-2.2583	-1.7062	-2.7979	-1.5938	-2.0042	-2.5458	-1.5708	-2.3688	-2.1667	-1.6208	-2.5625	-1.8563	-2.0771	-2.4313	-1.7292	192.352	130.010	46.724	-73.243	126.497	-144.024	158.961	195.997	-24.539	45.933	193.317	25.508	-60.515	-114.669	-17.114	168.985	0.00057753	0.0018492	0.00023243	620.09	1.3744e-05	1.2791e-05	583.92	229.05	1.0751e-05	1.2449e-05	234.03	96.447	94.271	39.682	5.9611e-06	40.348	0.0053033	0.0057653	0.0015964	758.6	6.0625e-05	6.1974e-05	719.1	270.06	5.8741e-05	6.0032e-05	307.66	119.62	140.99	46.924	5.7443e-05	50.109	-24.891	159.558	-39.912	-138.148	1.157	-101.393	-139.825	-132.280	7.203	195.206	-135.226	-131.428	-128.736	-123.790	105.372	-127.088	-8191	255	
1790.795	1	1	0	0	0.18293	0.11096	0.28273	0.17689	0.13344	0.07688	0.15274	0.11851	0.11868	0.19576	0.17454	0.040481	0.28544	0.14185	0.046359	0.22803	-1.8021	-1.9917	-1.6208	-2.4271	-1.8458	-1.875	-2.7208	-1.7333	-1.9833	-2.3729	-1.8354	-2.5812	-2.1188	-1.9646	-2.525	-1.6958	-106.021	-105.985	120.167	120.619	-116.011	195.014	75.886	99.574	-80.675	161.380	-117.526	-80.925	153.092	24.023	-107.242	-62.552	0.00059453	0.0015284	0.00042852	618.62	1.156e-05	6.3162e-06	586.52	228.38	8.2344e-06	4.7999e-06	233.29	98.262	94.652	39.514	6.5445e-06	40.267	0.0048046	0.0051929	0.0014389	742.49	5.4966e-05	5.6488e-05	706.44	265.81	5.4849e-05	5.6327e-05	305.18	119.32	138.98	46.572	5.5831e-05	50.006	-35.082	21.588	-137.733	-138.315	-117.337	-32.449	-139.767	-132.284	83.915	40.954	-135.668	-131.634	-128.635	-123.502	-60.284	-127.580	-8191	255	
1790.891	1	1	0	0	0.23624	0.23865	0.16155	0.031322	0.26132	0.18878	0.15367	0.1379	0.13773	0.30459	0.097228	0.034146	0.10147	0.22116	0.15954	0.27511	-1.7417	-2.3167	-1.6542	-2.5792	-2.0812	-2.0563	-2.5687	-1.7896	-2.0854	-2.7521	-1.7646	-2.725	-2.4208	-1.8	-2.7604	-2.0542	162.831	126.896	122.671	-135.754	123.799	-36.886	151.109	140.700	11.407	130.192	105.530	77.452	132.187	162.608	-48.730	-25.074	0.00047088	0.00074707	0.00014506	613.67	6.1377e-06	1.0426e-05	584.63	229.02	2.9745e-06	8.0562e-06	239.17	98.732	95.791	40.063	1.6233e-05	41.098	0.0047421	0.005138	0.0014308	738.71	5.519e-05	5.6696e-05	708.16	267.16	5.5268e-05	5.6517e-05	310.58	120.37	140.36	46.817	5.645e-05	50.504	-14.387	-120.043	-50.071	-138.012	137.915	-11.381	-139.880	-132.203	-75.680	38.026	-135.478	-131.568	-127.846	-123.338	-102.533	-127.501	-8191	255	
1791.011	1	1	0	0	0.063273	0.18057	0.10804	0.22451	0.51777	0.12637	0.11207	0.32127	0.32768	0.35915	0.16482	0.28286	0.08742	0.16345	0.21129	0.093663	-1.85	-2.55	-1.6146	-2.5729	-2.1583	-1.4854	-2.8104	-2.0042	-2.0333	-2.5646	-1.55	-2.4875	-2.3604	-1.7167	-2.5708	-1.9667	-3.458	59.511	-114.317	48.791	-106.708	-14.625	66.626	109.603	-118.366	57.902	-106.754	85.380	-121.368	152.875	109.710	56.995	0.00058527	0.00070019	3.8793e-05	615.37	8.4439e-06	5.3074e-06	585.03	228.21	1.8641e-05	1.1121e-05	233.32	96.919	93.869	39.229	1.4137e-05	40.209	0.004827	0.0052489	0.0014596	741.61	5.6888e-05	5.8251e-05	709.9	267.39	5.7638e-05	5.884e-05	307.2	119.25	140.8	46.677	5.8621e-05	50.14	-6.147	87.030	-21.933	-138.234	86.400	89.257	-139.689	-132.628	-27.022	-96.315	-135.532	-131.982	-128.565	-123.349	-76.525	-127.533	-8191	255	
1791.108	1	1	0	0	0.19273	0.064793	0.227	0.11221	0.11742	0.31436	0.20502	0.080966	0.13136	0.32899	0.32862	0.035197	0.30066	0.13833	0.19284	0.16572	-1.3833	-2.6125	-1.7396	-2.2146	-2.3667	-1.6063	-2.7562	-2.0646	-1.8979	-2.5292	-2.0104	-2.3417	-2.4708	-1.7563	-2.5583	-2.25	-7.441	202.208	193.132	167.195	85.866	132.980	31.027	-9.463	20.894	153.769	191.614	48.560	-132.050	141.800	-86.332	-92.542	0.00058998	0.00096963	0.00039434	615.85	1.3261e-05	3.2484e-06	580.28	227.06	7.4051e-06	6.8328e-06	233.44	97.022	93.865	39.53	9.4343e-06	40.085	0.0050306	0.0054313	0.0015164	747.93	5.8918e-05	6.0558e-05	713.43	268.51	5.9724e-05	6.1103e-05	309.72	120.16	142.88	46.997	5.9946e-05	50.6	-18.710	-105.805	53.446	-137.788	57.915	-77.819	-139.749	-132.592	-113.048	4.027	-135.480	-131.447	-128.275	-123.563	103.543	-127.571	-8191	255	
1791.204	1	1	0	0	0.08651	0.23409	0.24015	0.19368	0.33447	0.23471	0.33702	0.11192	0.1441	0.18954	0.22873	0.098816	0.067215	0.085379	0.23676	0.22191	-1.2125	-2.6229	-1.7563	-2.2479	-2.5104	-1.7188	-2.5083	-2.1604	-1.8667	-2.7125	-2.0458	-2.2667	-2.5938	-1.6562	-2.4729	-2.2521	-23.054	-90.127	158.723	91.942	40.037	199.687	174.833	134.198	150.298	-20.450	179.437	180.027	151.153	188.063	206.682	177.354	0.00020954	0.0010758	0.00033754	614.46	1.8566e-05	6.3154e-06	588.31	228.16	1.0358e-05	1.3728e-05	237.44	97.845	95.855	39.926	1.6654e-05	40.572	0.0051384	0.005548	0.0015476	752.15	6.0683e-05	6.196e-05	722.61	272.34	6.1195e-05	6.2792e-05	317.19	122.56	145.94	47.633	6.3336e-05	51.599	-13.430	-91.278	90.586	-137.917	81.626	58.476	-139.990	-132.432	64.134	121.808	-135.405	-131.113	-128.896	-123.814	-27.000	-127.411	-8191	255	
1791.300	1	1	0	0	0.13381	0.13914	0.20264	0.22548	0.17171	0.13092	0.1442	0.21209	0.30248	0.10025	0.083966	0.2679	0.16361	0.1736	0.16877	0.14159	-1.3104	-2.425	-1.8917	-2.2854	-2.4938	-1.6917	-2.5542	-2.6646	-1.6812	-2.6833	-1.9021	-2.0375	-2.6104	-1.6729	-2.1625	-2.3917	-116.617	39.017	100.291	-50.346	128.812	26.809	-135.503	164.284	-70.325	187.528	-25.433	173.682	194.113	-76.344	192.931	-11.521	0.00051812	0.0011716	0.00066535	621.28	1.5969e-05	9.8253e-06	591.75	231.8	2.8911e-06	1.6989e-05	240.62	98.972	95.672	39.918	1.0972e-05	40.558	0.0054219	0.0058893	0.0016353	763.14	6.3515e-05	6.4776e-05	733.65	276.41	6.4126e-05	6.5545e-05	324.55	124.39	148.62	47.981	6.5982e-05	51.899	-41.375	38.266	10.913	-138.149	37.160	18.909	-139.749	-132.542	147.431	51.739	-135.848	-131.591	-128.391	-123.290	-115.996	-127.591	-8191	255	
#DATA ENDS
