BOXY.EXE: ISS Imagent and Oximeter Data Acquisition Program Version 0.80
Ascii Record File

#ACQ INFORMATION
2  Detector Channels 
16  External MUX Channels 
1  Auxiliary Channels 
5000  Waveform (CCF) Frequency (Hz)
1  Waveforms Skipped 
30  Waveforms Averaged 
1  Cycles Averaged 
16  Acquisitions per Waveform 
10.0806  Updata Rate (Hz) 

#FILE INFORMATION
TRUE -- External MUX Channel results are PARSED.
FALSE -- AC DC and Phase are NOT grouped.
TRUE -- Companion Program Settings File CREATED.
FALSE -- AC data not excluded
FALSE -- DC data not excluded
FALSE -- Phase data not excluded
FALSE -- Auxillary Chn. data not excluded
Tab delimiters

#CALIBRATION STATE
TRUE -- Waveform Calibration Values APPLIED.


#AUX CALIBRATION VALUES
Val Type	aux-1	

Term	1.0000e+00	
Factor	0.0000e+00	


#WF CALIBRATION VALUES
A = Detector Channel
Val Type	A-AC1	A-AC2	A-AC3	A-AC4	A-AC5	A-AC6	A-AC7	A-AC8	A-AC9	A-AC10	A-AC11	A-AC12	A-AC13	A-AC14	A-AC15	A-AC16	A-DC1	A-DC2	A-DC3	A-DC4	A-DC5	A-DC6	A-DC7	A-DC8	A-DC9	A-DC10	A-DC11	A-DC12	A-DC13	A-DC14	A-DC15	A-DC16	A-Ph1	A-Ph2	A-Ph3	A-Ph4	A-Ph5	A-Ph6	A-Ph7	A-Ph8	A-Ph9	A-Ph10	A-Ph11	A-Ph12	A-Ph13	A-Ph14	A-Ph15	A-Ph16	

Term	0.00000e+00	0.00000e+00	0.00000e+00	0.00000e+00	0.00000e+00	0.00000e+00	0.00000e+00	0.00000e+00	0.00000e+00	0.00000e+00	0.00000e+00	0.00000e+00	0.00000e+00	0.00000e+00	0.00000e+00	0.00000e+00	0.00000e+00	0.00000e+00	0.00000e+00	0.00000e+00	0.00000e+00	0.00000e+00	0.00000e+00	0.00000e+00	0.00000e+00	0.00000e+00	0.00000e+00	0.00000e+00	0.00000e+00	0.00000e+00	0.00000e+00	0.00000e+00	0.00000e+00	0.00000e+00	0.00000e+00	0.00000e+00	0.00000e+00	0.00000e+00	0.00000e+00	0.00000e+00	0.00000e+00	0.00000e+00	0.00000e+00	0.00000e+00	0.00000e+00	0.00000e+00	0.00000e+00	0.00000e+00	
Factor	1.00000e+00	1.00000e+00	1.00000e+00	1.00000e+00	1.00000e+00	1.00000e+00	1.00000e+00	1.00000e+00	1.00000e+00	1.00000e+00	1.00000e+00	1.00000e+00	1.00000e+00	1.00000e+00	1.00000e+00	1.00000e+00	1.00000e+00	1.00000e+00	1.00000e+00	1.00000e+00	1.00000e+00	1.00000e+00	1.00000e+00	1.00000e+00	1.00000e+00	1.00000e+00	1.00000e+00	1.00000e+00	1.00000e+00	1.00000e+00	1.00000e+00	1.00000e+00	X	X	X	X	X	X	X	X	X	X	X	X	X	X	X	X	

B = Detector Channel
Val Type	B-AC1	B-AC2	B-AC3	B-AC4	B-AC5	B-AC6	B-AC7	B-AC8	B-AC9	B-AC10	B-AC11	B-AC12	B-AC13	B-AC14	B-AC15	B-AC16	B-DC1	B-DC2	B-DC3	B-DC4	B-DC5	B-DC6	B-DC7	B-DC8	B-DC9	B-DC10	B-DC11	B-DC12	B-DC13	B-DC14	B-DC15	B-DC16	B-Ph1	B-Ph2	B-Ph3	B-Ph4	B-Ph5	B-Ph6	B-Ph7	B-Ph8	B-Ph9	B-Ph10	B-Ph11	B-Ph12	B-Ph13	B-Ph14	B-Ph15	B-Ph16	

Term	0.00000e+00	0.00000e+00	0.00000e+00	0.00000e+00	0.00000e+00	0.00000e+00	0.00000e+00	0.00000e+00	0.00000e+00	0.00000e+00	0.00000e+00	0.00000e+00	0.00000e+00	0.00000e+00	0.00000e+00	0.00000e+00	0.00000e+00	0.00000e+00	0.00000e+00	0.00000e+00	0.00000e+00	0.00000e+00	0.00000e+00	0.00000e+00	0.00000e+00	0.00000e+00	0.00000e+00	0.00000e+00	0.00000e+00	0.00000e+00	0.00000e+00	0.00000e+00	-2.44074e+02	-1.38917e+02	-1.23458e+02	-1.83504e+02	-7.80274e+01	-6.98697e+01	-1.57272e+02	-1.62015e+02	-8.48116e+01	-5.88626e+01	-1.72810e+02	-1.70116e+02	-1.79941e+02	-1.76682e+02	-6.23674e+01	-1.49095e+02	
Factor	5.52849e-05	1.45846e-04	3.58442e-05	2.37707e-01	1.66745e-06	1.38744e-06	1.68909e-01	4.60247e-02	2.13902e-06	1.48554e-06	9.57930e-02	2.69634e-02	2.69403e-02	8.48901e-03	1.49846e-06	1.22238e-02	3.61109e-06	3.95243e-06	1.10144e-06	1.23024e-01	4.28733e-08	4.35643e-08	8.25659e-02	2.40976e-02	4.27199e-08	4.34751e-08	4.83216e-02	1.36188e-02	1.41214e-02	4.47111e-03	4.28401e-08	6.21873e-03	X	X	X	X	X	X	X	X	X	X	X	X	X	X	X	X	



#DISTANCE SETTINGS
A = Detector Channel
A-1	A-2	A-3	A-4	A-5	A-6	A-7	A-8	A-9	A-10	A-11	A-12	A-13	A-14	A-15	A-16	

2.5000e+00	3.0000e+00	2.5000e+00	3.0000e+00	2.0000e+00	3.0000e+00	1.5000e+00	3.0000e+00	3.0000e+00	3.0000e+00	3.0000e+00	3.0000e+00	3.0000e+00	3.0000e+00	1.5000e+00	3.0000e+00	

B = Detector Channel
B-1	B-2	B-3	B-4	B-5	B-6	B-7	B-8	B-9	B-10	B-11	B-12	B-13	B-14	B-15	B-16	

1.0000e+01	1.0000e+01	1.0000e+01	1.4400e+00	1.0000e+01	1.0000e+01	1.5100e+00	1.9400e+00	1.0000e+01	1.0000e+01	1.9900e+00	2.4900e+00	2.4100e+00	2.9000e+00	1.0000e+01	2.9800e+00	




#DATA BEGINS
time	group	step	mark	flag	A-AC1	A-AC2	A-AC3	A-AC4	A-AC5	A-AC6	A-AC7	A-AC8	A-AC9	A-AC10	A-AC11	A-AC12	A-AC13	A-AC14	A-AC15	A-AC16	A-DC1	A-DC2	A-DC3	A-DC4	A-DC5	A-DC6	A-DC7	A-DC8	A-DC9	A-DC10	A-DC11	A-DC12	A-DC13	A-DC14	A-DC15	A-DC16	A-Ph1	A-Ph2	A-Ph3	A-Ph4	A-Ph5	A-Ph6	A-Ph7	A-Ph8	A-Ph9	A-Ph10	A-Ph11	A-Ph12	A-Ph13	A-Ph14	A-Ph15	A-Ph16	B-AC1	B-AC2	B-AC3	B-AC4	B-AC5	B-AC6	B-AC7	B-AC8	B-AC9	B-AC10	B-AC11	B-AC12	B-AC13	B-AC14	B-AC15	B-AC16	B-DC1	B-DC2	B-DC3	B-DC4	B-DC5	B-DC6	B-DC7	B-DC8	B-DC9	B-DC10	B-DC11	B-DC12	B-DC13	B-DC14	B-DC15	B-DC16	B-Ph1	B-Ph2	B-Ph3	B-Ph4	B-Ph5	B-Ph6	B-Ph7	B-Ph8	B-Ph9	B-Ph10	B-Ph11	B-Ph12	B-Ph13	B-Ph14	B-Ph15	B-Ph16	aux-1	digaux	

757.559	1	1	0	256	0.30613	0.20063	0.19359	0.15469	0.090464	0.1114	0.27252	0.17297	0.18192	0.31914	0.27435	0.19577	0.098408	0.43273	0.19992	0.11399	-2.7438	-2.3083	-2.9458	-3.0604	-2.3042	-3.3688	-2.9125	-2.825	-3.1583	-2.3563	-3.0271	-3.0354	-2.4667	-3.2854	-2.7104	-2.6417	169.965	-18.176	185.941	180.415	3.627	254.182	245.773	228.676	272.654	54.284	-29.790	260.892	33.143	268.436	214.855	0.182	0.00016551	0.00026659	0.00011514	1003.9	9.5618e-07	1.8661e-06	1097.4	210.34	3.0482e-06	2.2845e-06	273.66	76.996	59.761	18.031	4.1213e-06	25.663	0.00010825	9.8679e-05	2.6233e-05	979.3	1.0689e-06	1.0234e-06	1077.2	207.92	1.0832e-06	1.0928e-06	269.83	77.005	59.673	18.126	1.1226e-06	25.723	34.153	24.691	11.860	-62.411	79.115	70.621	-62.125	-54.666	57.247	75.584	-54.868	-48.030	-48.243	-40.892	62.551	-41.465	-8191	255	
757.655	1	1	0	0	0.14528	0.10028	0.047873	0.072002	0.024163	0.22732	0.072095	0.11419	0.29194	0.20266	0.13642	0.13007	0.26527	0.080405	0.26869	0.18161	-2.8917	-2.4479	-2.7687	-3.0563	-2.4042	-3.3187	-2.8	-2.6188	-3.275	-2.4604	-2.6896	-3.2979	-2.2458	-3.1729	-2.8187	-2.4458	211.210	125.930	250.112	166.986	133.128	198.846	0.776	125.539	-72.420	17.300	147.212	24.677	256.338	266.280	163.553	176.107	0.00020243	0.00029158	0.00011242	996.36	3.2263e-06	4.5829e-06	1095.3	209.54	3.4009e-06	1.8061e-06	272.98	77.51	60.005	18.142	3.9505e-06	25.604	0.0001093	0.00010053	2.7187e-05	976.65	1.1699e-06	1.0214e-06	1077	207.97	1.0679e-06	1.0746e-06	269.51	77.179	59.71	18.177	1.0441e-06	25.643	41.240	25.631	18.770	-62.695	56.777	97.329	-62.350	-54.448	99.105	124.717	-54.954	-48.154	-47.440	-40.735	85.925	-41.388	-8191	255	
757.774	1	1	0	0	0.043906	0.21808	0.12927	0.22891	0.13307	0.27838	0.18614	0.32417	0.29162	0.10392	0.09426	0.25109	0.27752	0.13598	0.085074	0.098534	-2.85	-2.3812	-2.8333	-3.1646	-2.2208	-2.9333	-3.1354	-2.3708	-3.1604	-2.6042	-2.7333	-3.4042	-2.3333	-2.9813	-2.9271	-2.6896	107.507	276.265	55.615	29.469	51.684	-59.394	170.780	268.614	109.381	141.981	287.245	234.542	-69.300	43.055	110.051	237.007	0.00020356	0.0003913	0.00012727	998.52	1.4467e-06	4.4766e-06	1094.6	210.22	2.1139e-06	3.1384e-06	272.27	77.425	59.887	17.956	1.7362e-06	25.613	0.00011094	9.8745e-05	2.6212e-05	975.93	1.1261e-06	1.0451e-06	1076.7	207.97	1.1107e-06	9.9504e-07	269.97	77.124	59.755	18.107	1.0684e-06	25.653	24.018	-24.063	22.971	-62.391	109.930	81.020	-62.475	-54.580	114.061	58.829	-55.150	-48.066	-47.932	-40.732	153.092	-41.475	-8191	255	
757.870	1	1	0	0	0.024784	0.15149	0.23975	0.14967	0.1112	0.13906	0.20684	0.26737	0.3075	0.19813	0.39121	0.29206	0.22792	0.29312	0.24523	0.44161	-2.7354	-2.4625	-2.6729	-3.1771	-2.2646	-2.8167	-3.1667	-2.3396	-3.0771	-2.5	-2.5208	-3.3542	-2.3937	-2.85	-3.0479	-2.4083	76.367	195.956	87.427	258.149	145.535	240.119	260.435	209.373	272.076	88.882	237.687	192.812	234.480	260.238	28.855	171.563	0.00019139	0.00029106	9.037e-05	1002.1	3.3349e-06	2.4173e-06	1094.8	210.76	1.2339e-06	3.8779e-06	272.85	77.43	59.784	18.024	2.0048e-06	25.491	0.0001043	9.7254e-05	2.5643e-05	977.89	1.1399e-06	1.0726e-06	1076.6	207.84	1.0702e-06	1.0369e-06	269.48	77.231	59.636	18.144	1.044e-06	25.658	48.816	29.682	45.231	-62.064	84.949	106.070	-61.978	-54.503	57.466	75.907	-54.859	-48.098	-47.856	-40.196	116.102	-40.828	-8191	255	
757.966	1	1	0	0	0.17315	0.084455	0.32656	0.18676	0.29061	0.38804	0.076645	0.19791	0.076776	0.2311	0.17467	0.24227	0.059917	0.18981	0.098692	0.18667	-3.0104	-2.7438	-2.4833	-3.3312	-2.4917	-2.7854	-3.3667	-2.5083	-3.2667	-2.7313	-2.3937	-3.1562	-2.5354	-2.7833	-3.1896	-2.5	164.106	279.630	49.551	-27.129	1.585	265.117	-49.489	182.357	146.464	38.801	-29.797	256.020	209.279	-50.638	-17.306	-65.279	0.00015163	0.00031955	0.00010658	1004	3.4383e-06	2.7853e-06	1097.6	209.71	2.3177e-06	9.5816e-07	272.29	77.424	59.786	17.94	3.3466e-06	25.481	0.00010875	9.8786e-05	2.6556e-05	978.84	1.0954e-06	1.0517e-06	1076.5	207.98	1.0833e-06	1.0391e-06	269.82	77.128	59.654	18.122	9.9809e-07	25.726	34.471	-4.019	41.722	-62.178	76.273	98.696	-62.189	-54.387	20.660	75.750	-54.668	-47.941	-47.829	-40.594	57.382	-41.003	-8191	255	
758.087	1	1	0	0	0.22028	0.06539	0.086984	0.31848	0.080208	0.11038	0.3358	0.10881	0.2349	0.17917	0.10042	0.20439	0.061057	0.20827	0.3042	0.099033	-2.6208	-2.75	-2.4729	-3.1562	-2.6292	-2.6625	-3.4313	-2.3146	-2.9479	-2.9104	-2.5875	-3.1833	-2.775	-2.4583	-3.2542	-2.4417	25.823	269.890	123.508	205.635	-53.834	-37.337	-48.395	245.992	-39.923	-69.986	231.943	279.953	185.544	104.530	62.504	213.078	0.00026485	0.00027686	7.3017e-05	1003.5	1.5324e-06	3.2978e-06	1099.4	209.69	3.1775e-06	1.7823e-06	272.93	77.434	59.673	18.089	3.2925e-06	25.393	0.00011118	9.2643e-05	2.7015e-05	976.64	1.1168e-06	1.0484e-06	1079.1	207.85	1.1e-06	1.0132e-06	269.54	77.099	59.587	18.142	1.0545e-06	25.636	19.508	13.255	54.775	-62.404	66.871	75.003	-62.161	-54.443	64.340	91.367	-55.148	-48.432	-47.912	-40.907	77.488	-41.743	-8191	255	
758.159	1	1	0	0	0.22515	0.13191	0.16281	0.28883	0.10725	0.17781	0.33982	0.22	0.011598	0.17869	0.16902	0.1911	0.10564	0.15174	0.21923	0.040629	-2.7083	-2.9	-2.4979	-3.4375	-2.625	-2.3646	-3.4542	-2.4854	-2.7375	-3.2562	-2.3354	-3.0521	-2.6958	-2.5438	-3.3396	-2.5312	-44.067	164.750	199.240	219.861	58.601	107.293	232.605	282.063	121.866	194.323	67.753	-9.199	-33.672	-25.566	219.391	-35.835	0.00022695	0.00020398	0.00012984	998.98	1.7464e-06	1.5079e-06	1096.9	209.96	2.8554e-06	1.115e-06	271.58	77.645	60.406	17.983	3.3994e-06	25.542	0.00010781	9.4751e-05	2.6822e-05	977.08	1.057e-06	1.0439e-06	1077.8	207.63	1.0516e-06	9.5899e-07	269.18	77.074	59.764	18.083	1.0041e-06	25.629	55.504	-9.568	26.581	-62.318	71.708	30.997	-62.327	-54.343	21.224	106.766	-55.038	-48.214	-47.781	-40.427	75.636	-41.788	-8191	255	
758.255	1	1	0	0	0.20091	0.19688	0.041895	0.070495	0.26094	0.21261	0.25687	0.11245	0.34885	0.30032	0.047096	0.17323	0.072712	0.23254	0.16856	0.33272	-2.7	-3.0208	-2.325	-3.2667	-2.7896	-2.325	-3.4729	-2.5521	-2.6917	-3.0583	-2.3521	-3.2542	-2.9458	-2.3688	-3.25	-2.5146	62.945	256.510	0.148	29.295	114.815	39.053	213.855	-9.083	34.261	10.026	-33.884	137.879	87.866	152.682	285.192	126.536	0.00019732	0.00034861	4.3538e-05	1001.4	1.8834e-06	2.9349e-06	1092.6	209.93	2.1175e-06	1.6163e-06	272.02	77.023	59.712	18.146	2.057e-06	25.429	0.00011054	8.8123e-05	2.6311e-05	977.62	1.0807e-06	9.6268e-07	1074.4	207.41	1.0903e-06	9.6814e-07	268.2	76.887	59.343	18.091	9.9246e-07	25.575	48.080	-1.112	43.651	-62.338	57.589	83.214	-62.051	-54.639	89.169	100.140	-54.811	-47.619	-47.465	-40.194	92.729	-41.191	-8191	255	
758.351	1	1	0	0	0.09253	0.15694	0.32199	0.097918	0.088612	0.10891	0.14606	0.1899	0.19004	0.10466	0.099508	0.15279	0.24313	0.12691	0.18151	0.10202	-2.2021	-3.1958	-2.2417	-3.0833	-2.95	-2.3958	-3.2812	-2.7396	-2.4562	-3.3521	-2.4833	-2.9688	-3.1688	-2.3729	-2.875	-2.7542	212.661	83.712	-22.221	147.694	13.496	88.286	131.387	172.656	249.531	182.639	-49.129	90.893	20.044	283.373	80.065	147.428	0.00027133	0.00033626	9.6009e-05	994.83	1.862e-06	3.4683e-06	1095	209.35	3.8742e-06	3.5302e-06	270.62	76.596	59.623	17.866	2.5255e-06	25.272	0.00010608	9.1095e-05	2.5783e-05	972.17	1.003e-06	9.949e-07	1070.8	206.54	1.0325e-06	9.7937e-07	267.44	76.608	59.173	17.979	9.4668e-07	25.446	42.391	19.681	21.499	-62.328	94.089	69.684	-62.046	-54.818	25.283	71.894	-55.117	-48.530	-47.913	-40.799	76.011	-41.213	-8191	255	
758.447	1	1	0	0	0.24423	0.1554	0.15717	0.31304	0.18188	0.18917	0.21449	0.10841	0.16998	0.049666	0.14646	0.27328	0.091026	0.11063	0.055322	0.17096	-2.0521	-3.2021	-2.4771	-2.9792	-3.0062	-2.4542	-3.2708	-2.8812	-2.5417	-3.3333	-2.6625	-2.6375	-3.2438	-2.2729	-3.0375	-3.0042	147.867	244.112	242.894	245.871	184.917	224.763	285.789	271.721	142.098	228.429	275.303	-59.179	109.393	120.025	-45.214	165.559	0.00025905	0.0002772	6.9807e-05	993.92	2.624e-06	1.9705e-06	1082	207.78	3.0377e-06	8.3406e-07	268	76.028	58.59	17.767	3.0889e-06	25.157	0.00010312	8.8691e-05	2.4259e-05	968.07	9.6956e-07	9.5714e-07	1062.1	204.84	1.0134e-06	8.8272e-07	265.49	76.157	58.611	17.877	9.2713e-07	25.28	69.044	3.374	44.992	-62.308	79.241	74.902	-62.090	-54.534	73.394	157.644	-54.977	-47.880	-47.107	-40.162	63.436	-40.933	-8191	255	
758.568	1	1	0	0	0.067479	0.10063	0.059023	0.33507	0.26898	0.17629	0.47517	0.13897	0.3163	0.18984	0.035524	0.16482	0.12236	0.059722	0.20336	0.098572	-1.9771	-3.1	-2.7562	-2.8125	-3.3104	-2.3812	-3.3125	-3.0917	-2.4458	-3.3187	-2.5708	-2.7375	-3.2812	-2.3937	-2.9125	-2.9792	222.818	251.900	84.927	255.251	25.695	230.801	195.942	46.568	95.830	-43.171	230.891	-21.758	-60.624	4.153	-19.830	182.987	0.00023373	0.00037283	6.3201e-05	984.18	1.7802e-06	3.6899e-06	1075	205.41	4.0893e-06	2.6156e-06	268.21	75.927	59.333	17.875	2.5852e-06	25.267	0.00010223	7.7789e-05	2.3568e-05	961.06	9.7108e-07	9.4035e-07	1056.7	203.73	9.952e-07	8.9559e-07	264.6	75.876	58.784	17.834	9.3213e-07	25.33	42.075	5.053	-6.952	-62.132	-5.425	77.187	-61.828	-54.351	45.373	108.080	-54.872	-48.262	-48.102	-41.264	59.807	-41.373	-8191	255	
758.664	1	1	0	0	0.243	0.24622	0.26185	0.19035	0.24878	0.28861	0.32461	0.10808	0.16903	0.038612	0.066183	0.065808	0.037799	0.099246	0.21075	0.22349	-1.8667	-3.1979	-2.3854	-2.6167	-3.3187	-2.3604	-3.0458	-3.2167	-2.2854	-3.1292	-2.8292	-2.4542	-3.0917	-2.3375	-2.9062	-3.2417	146.573	242.403	193.201	127.804	243.866	117.770	256.349	-63.407	82.677	55.853	181.451	104.955	37.472	202.646	187.205	146.891	0.00016471	0.00010233	7.8338e-05	981.88	1.4945e-06	3.7047e-06	1072.7	205.49	2.6196e-06	1.9166e-06	270.24	75.886	58.825	17.706	2.6528e-06	25.206	9.8598e-05	8.3759e-05	2.3495e-05	956.88	9.2901e-07	9.1948e-07	1053.5	203.25	9.9929e-07	8.6389e-07	264.63	75.684	58.451	17.756	9.0259e-07	25.231	53.110	-19.425	22.176	-62.333	125.420	94.820	-62.140	-54.786	8.443	98.016	-55.329	-48.169	-47.865	-40.879	54.676	-41.368	-8191	255	
758.735	1	1	0	0	0.16261	0.16201	0.08799	0.23161	0.36284	0.32047	0.37542	0.15073	0.12845	0.18888	0.31096	0.18517	0.1056	0.25887	0.24016	0.13109	-1.9333	-3.0042	-2.8604	-2.6	-3.1917	-2.3792	-3.0167	-3.25	-2.2896	-3.2271	-2.8521	-2.3042	-3.1813	-2.5187	-2.6125	-3.2958	130.206	-5.064	110.102	269.869	18.006	59.888	192.404	243.594	104.857	218.141	68.823	225.488	-43.205	167.628	177.743	60.459	0.00025068	0.00023435	5.9967e-05	979.51	4.7886e-06	1.96e-06	1068.3	204.58	3.3442e-06	1.422e-06	266.18	75.746	58.954	17.757	2.9709e-06	25.17	0.00010231	8.4887e-05	2.3718e-05	954.41	9.2624e-07	9.075e-07	1051.7	203.02	9.9591e-07	9.0772e-07	263.16	75.694	58.562	17.747	9.315e-07	25.189	29.277	19.888	3.458	-62.397	78.141	93.972	-62.021	-54.382	71.177	76.196	-55.013	-48.161	-47.720	-40.857	59.772	-40.975	-8191	255	
758.856	1	1	0	0	0.17906	0.17367	0.08018	0.34087	0.332	0.032024	0.21673	0.22103	0.21258	0.35566	0.10783	0.23996	0.22166	0.25926	0.081863	0.24539	-1.9667	-2.9146	-3.0104	-2.3688	-3.1312	-2.6354	-2.7604	-3.3875	-2.3563	-3.0958	-2.8646	-2.5646	-3.175	-2.6458	-2.5938	-3.2792	90.343	-6.116	64.769	226.389	-18.823	194.664	266.274	-58.135	181.325	-68.010	112.402	40.186	185.146	252.150	24.092	211.222	0.00023594	0.00036077	7.5158e-05	972.22	3.3048e-06	2.5668e-06	1070.7	204.34	1.6588e-06	3.3843e-06	265.71	76.277	58.907	17.606	3.0252e-06	24.971	0.00010225	8.1091e-05	2.3543e-05	950.26	9.5598e-07	8.9334e-07	1048.9	202.51	1.0334e-06	9.2548e-07	262.36	75.456	58.361	17.685	8.9152e-07	25.157	45.650	-17.914	6.636	-61.943	86.323	80.306	-62.255	-54.639	82.903	69.429	-54.908	-47.906	-47.561	-40.329	51.004	-40.781	-8191	255	
758.951	1	1	0	0	0.095317	0.085734	0.10671	0.2502	0.14963	0.079881	0.16531	0.13787	0.055242	0.10496	0.20261	0.27497	0.25911	0.25974	0.40675	0.049563	-2.0312	-2.9938	-3.1125	-2.3187	-3.1396	-2.7021	-2.9021	-3.3333	-2.4958	-2.6979	-3.2062	-2.2812	-3.2833	-2.9188	-2.5687	-3.4437	247.249	217.051	91.950	273.782	-28.187	-69.990	197.619	211.282	-14.374	54.735	261.596	263.880	235.393	271.911	-69.022	7.474	0.00019829	0.00032663	8.9361e-05	969.89	2.8049e-06	1.6357e-06	1068.5	203.4	3.7015e-06	3.0564e-07	265.99	75.907	58.744	17.542	2.2103e-06	25.082	0.00010436	8.1939e-05	2.2575e-05	948.21	9.2419e-07	9.4135e-07	1048.3	201.78	9.9947e-07	9.2647e-07	262.47	75.276	58.163	17.689	9.3963e-07	25.172	29.364	16.540	12.666	-62.219	84.407	87.811	-61.678	-53.929	18.181	133.156	-55.629	-48.692	-47.732	-41.139	81.011	-41.345	-8191	255	
759.047	1	1	0	0	0.1839	0.17728	0.090723	0.17194	0.24708	0.082066	0.19063	0.2213	0.055683	0.15353	0.12894	0.093972	0.22475	0.079187	0.1262	0.1979	-2.0687	-2.8396	-3.0979	-2.4042	-3.0896	-2.9271	-2.6396	-3.3771	-2.3792	-2.6708	-3.3937	-2.4062	-3.0333	-3.0354	-2.375	-3.2729	54.947	127.163	-0.600	-38.359	-6.602	22.438	222.557	283.819	275.708	94.285	101.469	166.717	126.869	200.738	-18.495	-6.524	0.00015722	0.00033325	6.1183e-05	965.08	2.9598e-06	3.5669e-06	1064.6	204.75	7.6082e-07	1.804e-06	265.99	75.831	58.538	17.746	3.0091e-06	25.178	0.00010258	9.1367e-05	2.2098e-05	948.06	9.7778e-07	9.2819e-07	1045.6	202.35	9.9181e-07	9.2095e-07	262.11	75.488	58.166	17.744	9.7792e-07	25.163	63.123	21.997	58.755	-62.244	74.886	97.457	-62.162	-54.250	131.771	87.017	-54.801	-47.935	-47.222	-40.365	69.110	-41.188	-8191	255	
759.167	1	1	0	0	0.16716	0.15383	0.11175	0.1336	0.22922	0.083091	0.39604	0.13611	0.10273	0.14504	0.16174	0.38909	0.097544	0.08719	0.27073	0.049632	-2.4125	-2.4375	-3.1771	-2.5125	-2.925	-2.9646	-2.5792	-3.4292	-2.4104	-2.5021	-3.35	-2.5167	-2.8542	-3.2229	-2.2458	-3.2271	99.623	165.834	195.913	253.813	278.546	28.961	241.707	194.668	73.757	41.535	247.880	236.797	221.007	184.024	202.437	-54.675	0.00022602	0.00036261	0.00012132	971.38	3.078e-06	2.539e-06	1065.2	204.67	2.2105e-06	2.3324e-06	264.58	75.716	58.667	17.67	2.4135e-06	25.159	0.00010275	8.5307e-05	2.4055e-05	948.28	9.4678e-07	9.2456e-07	1045.6	202.57	1.0069e-06	9.3435e-07	261.64	75.604	58.191	17.667	9.9353e-07	25.136	50.252	-21.139	31.077	-62.210	56.299	63.859	-62.116	-54.596	41.365	64.134	-55.315	-48.275	-48.174	-41.046	141.102	-41.501	-8191	255	
759.263	1	1	0	0	0.11287	0.15693	0.13266	0.15441	0.20187	0.1225	0.18962	0.099943	0.19419	0.10324	0.21524	0.25407	0.15907	0.12648	0.23263	0.25361	-2.4917	-2.3063	-3.3521	-2.5	-2.6354	-3.1125	-2.4854	-3.1458	-2.8479	-2.3729	-3.2271	-2.3396	-2.65	-3.1083	-2.3833	-3.0146	134.672	75.393	3.016	-27.555	172.511	23.854	192.573	-18.844	41.397	252.699	160.255	270.318	-56.986	-64.047	257.574	281.801	0.0001622	0.00030774	3.7993e-05	969.98	2.8838e-06	1.9813e-06	1063.6	204.2	3.5596e-06	2.37e-06	265.87	76.023	58.353	17.644	3.5132e-06	24.944	0.00010082	9.0264e-05	2.3399e-05	947.94	9.7787e-07	9.0169e-07	1047.1	202.52	9.6974e-07	9.1116e-07	261.96	75.462	58.249	17.693	9.8809e-07	25.151	26.368	27.241	18.807	-62.440	47.578	75.543	-62.173	-54.490	41.790	100.434	-55.314	-48.678	-47.541	-40.713	68.739	-41.499	-8191	255	
759.360	1	1	0	0	0.21346	0.062535	0.31131	0.19411	0.011051	0.057381	0.10046	0.27536	0.11871	0.33403	0.26679	0.14698	0.14822	0.21424	0.10213	0.15138	-2.375	-2.3104	-3.2812	-2.6458	-2.5021	-2.9188	-2.3708	-3.0604	-2.8937	-2.4229	-3.3438	-2.65	-2.5896	-3.2083	-2.1229	-2.9479	-63.776	5.764	59.251	-28.436	-4.350	48.729	204.717	194.313	11.494	111.220	271.345	-34.074	206.427	-21.946	206.049	24.198	0.00019813	0.00035843	5.1118e-05	968.72	3.7339e-06	2.5348e-06	1067.3	204.03	5.7329e-06	3.2751e-06	267.32	75.148	58.94	17.652	3.9305e-06	25.158	0.00010303	8.6097e-05	2.2664e-05	947.98	9.8367e-07	8.9479e-07	1046.8	202.4	1.0013e-06	9.4594e-07	262.28	75.201	58.303	17.688	9.5774e-07	25.226	45.459	-11.587	-0.203	-62.287	86.829	102.463	-62.295	-54.456	51.122	83.391	-55.252	-48.376	-47.517	-40.782	111.681	-41.241	-8191	255	
759.456	1	1	0	0	0.064326	0.42533	0.14965	0.055904	0.03144	0.24506	0.23081	0.16697	0.19591	0.084995	0.21398	0.064461	0.1099	0.24169	0.065155	0.11367	-2.5625	-2.2438	-3.0042	-2.6958	-2.5438	-3.1042	-2.6646	-2.8438	-2.9833	-2.2958	-2.9854	-2.7687	-2.6417	-3.1479	-2.2812	-2.9104	72.139	235.887	58.476	-63.272	95.826	27.735	170.132	232.155	116.342	59.322	257.254	146.611	35.608	269.248	13.866	-24.425	0.00018635	0.00018518	7.1612e-05	976.18	1.7537e-06	3.4795e-06	1066.8	204.56	3.62e-06	2.8326e-06	267.24	75.776	58.418	17.664	4.2236e-06	25.034	9.9696e-05	8.4961e-05	2.2518e-05	950.27	9.8305e-07	9.5288e-07	1047.5	202.63	9.7597e-07	9.4558e-07	262.79	75.492	58.115	17.695	9.888e-07	25.163	36.750	-19.263	11.254	-62.688	150.913	79.896	-62.401	-54.874	60.303	140.792	-55.118	-48.328	-48.140	-41.077	82.181	-41.508	-8191	255	
759.552	1	1	0	0	0.24719	0.040764	0.06729	0.19747	0.16879	0.21414	0.057538	0.11552	0.065407	0.034976	0.18429	0.07934	0.038415	0.27648	0.10449	0.38896	-2.7979	-2.2021	-3.2313	-2.7708	-2.3	-3.2417	-2.6125	-2.7104	-3.1396	-2.3167	-2.9313	-2.925	-2.3896	-3.4229	-2.6063	-2.5604	227.843	-17.539	2.443	207.976	40.159	157.406	95.024	-31.132	-18.868	211.437	231.559	56.137	99.133	108.326	165.717	249.567	0.00018865	0.00023631	8.5612e-05	971.07	2.303e-06	3.6242e-06	1063.9	205.43	3.4725e-06	3.9936e-06	265.71	75.452	58.787	17.623	1.7817e-06	25.1	0.0001023	8.9959e-05	2.3899e-05	950.04	9.9689e-07	9.1204e-07	1046.8	202.89	1.0002e-06	9.5518e-07	262.28	75.282	58.37	17.726	9.8514e-07	25.18	38.534	-6.928	48.965	-62.519	96.205	61.651	-62.575	-54.752	70.954	79.470	-55.213	-48.671	-48.116	-40.949	43.491	-41.407	-8191	255	
759.648	1	1	0	0	0.079009	0.055002	0.14404	0.28928	0.14848	0.11399	0.1124	0.16994	0.08526	0.14264	0.32137	0.18332	0.23486	0.094451	0.15061	0.15205	-2.8917	-2.3542	-2.9333	-3.0271	-2.1875	-3.0354	-2.7021	-2.5229	-3.2854	-2.3063	-2.9896	-2.8604	-2.5479	-3.0604	-2.8604	-2.5	195.846	-58.551	174.971	-59.983	68.756	119.122	252.072	153.894	253.663	-30.421	41.651	22.981	279.997	244.844	96.219	-39.017	0.00019478	0.00028262	6.8945e-05	971.54	1.9789e-06	2.6537e-06	1064.9	204.18	3.4244e-06	2.2358e-06	266.54	75.806	58.353	17.576	2.2968e-06	25.258	0.00010599	8.8098e-05	2.3757e-05	949.42	1.0198e-06	9.0242e-07	1047.9	202.54	1.0177e-06	9.6315e-07	262.94	75.556	58.137	17.73	9.6515e-07	25.227	38.590	39.379	31.946	-62.745	34.225	86.984	-62.224	-54.622	38.493	148.192	-55.019	-48.341	-47.841	-40.792	79.692	-41.247	-8191	255	
759.744	1	1	0	0	0.087138	0.11144	0.053997	0.080523	0.17593	0.16378	0.17475	0.07057	0.11399	0.11539	0.18381	0.21091	0.24117	0.26793	0.2436	0.21339	-2.9979	-2.2646	-2.9833	-3.0833	-2.2146	-3.1542	-2.925	-2.4813	-3.1937	-2.3208	-2.8812	-3.05	-2.2979	-3.0146	-3.0646	-2.4167	127.205	-24.917	251.200	9.466	-52.484	278.779	239.470	132.612	-1.487	89.110	18.725	-57.699	209.642	215.866	59.586	221.968	0.00022355	0.00028746	8.5381e-05	972.39	1.8109e-06	1.6819e-06	1065.5	205.21	1.8532e-06	2.4854e-06	265.9	75.971	58.661	17.661	1.8028e-06	25.27	0.00010049	8.8526e-05	2.4353e-05	949.59	1.0198e-06	9.546e-07	1048.6	202.83	9.9591e-07	9.9132e-07	262.93	75.619	58.361	17.736	9.8193e-07	25.266	34.535	3.679	25.233	-62.157	92.385	104.346	-61.887	-54.588	127.003	66.116	-55.011	-48.472	-47.829	-40.686	93.214	-41.848	-8191	255	
759.863	1	1	0	0	0.21265	0.31554	0.010344	0.17148	0.11923	0.093642	0.17915	0.056842	0.1461	0.069524	0.29161	0.39477	0.24587	0.095442	0.098362	0.036845	-2.7583	-2.4333	-2.5667	-3.3833	-2.2854	-3.0625	-3.0458	-2.5417	-3.1979	-2.6167	-2.6646	-3.25	-2.375	-2.9875	-2.9208	-2.1479	61.884	-33.233	122.738	-46.731	119.531	11.876	220.448	166.954	263.866	24.802	-23.982	271.481	38.902	251.284	271.434	-66.590	0.00017724	0.00033329	5.6462e-05	972.28	4.0577e-06	9.0195e-07	1066.9	204.37	3.9217e-06	2.7046e-06	267.09	75.756	58.502	17.741	3.2183e-06	25.13	0.00010342	8.7299e-05	2.4509e-05	953.21	1.0044e-06	9.1322e-07	1049.8	202.9	1.012e-06	9.2638e-07	263.05	75.666	58.341	17.804	9.4543e-07	25.177	41.341	16.004	72.049	-62.682	56.826	129.001	-62.616	-54.870	99.311	82.940	-55.352	-48.530	-48.039	-41.061	66.439	-41.629	-8191	255	
759.959	1	1	0	0	0.027287	0.19918	0.14545	0.11163	0.35309	0.12297	0.18518	0.095656	0.065371	0.10497	0.15475	0.18905	0.2881	0.33903	0.072487	0.061136	-2.8646	-2.4771	-2.5167	-3.3333	-2.3729	-2.9188	-3.2917	-2.3271	-3.35	-2.725	-2.45	-3.3688	-2.3792	-2.8167	-3.1229	-2.4875	276.652	89.113	-64.713	232.161	153.777	-53.733	87.567	265.118	18.233	181.430	200.450	42.422	55.065	-46.006	232.727	26.594	0.00021745	0.00028728	3.4732e-05	979.47	2.2508e-06	3.0493e-06	1067.6	204.94	2.2881e-06	3.0421e-06	266.96	75.876	58.848	17.637	2.0447e-06	25.041	0.00010129	8.706e-05	2.4296e-05	953.24	1.0231e-06	9.5279e-07	1050.5	203.12	9.8416e-07	9.1415e-07	262.68	75.651	58.401	17.789	9.4918e-07	25.157	49.431	-33.093	45.956	-62.393	85.873	64.988	-62.277	-54.403	41.018	95.114	-55.285	-48.540	-48.032	-41.297	83.000	-41.653	-8191	255	
760.031	1	1	0	0	0.14301	0.25625	0.11149	0.12177	0.064861	0.028414	0.2261	0.047892	0.18827	0.17692	0.25419	0.14528	0.198	0.12279	0.13209	0.099433	-2.8292	-2.7938	-2.3833	-3.1854	-2.3958	-2.9	-3.1333	-2.0958	-3.0146	-2.7354	-2.1479	-3.25	-2.4958	-2.7812	-3.2667	-2.2667	-10.437	76.274	208.306	206.403	-21.414	82.094	183.633	-58.897	199.720	168.339	34.761	206.192	-71.624	219.084	231.644	225.072	0.00020666	0.00026139	6.1087e-05	977.62	2.0719e-06	2.4399e-06	1073.1	206.13	2.8201e-06	3.1482e-06	265.47	75.742	58.809	17.772	2.8325e-06	25.098	9.9959e-05	9.1746e-05	2.5074e-05	954.74	1.0265e-06	9.3817e-07	1052.8	203.51	1.0306e-06	9.4921e-07	263.03	75.586	58.462	17.829	9.4944e-07	25.185	41.491	11.958	27.322	-62.065	104.171	76.106	-62.274	-54.351	87.368	91.948	-54.739	-48.963	-47.937	-40.276	59.426	-41.392	-8191	255	
760.127	1	1	0	0	0.27807	0.1543	0.17435	0.26078	0.10697	0.19259	0.21933	0.29588	0.21909	0.1612	0.19548	0.16768	0.015532	0.09348	0.092204	0.14352	-2.675	-2.7625	-2.4292	-3.1021	-2.625	-2.3979	-3.2646	-2.5729	-3.0729	-2.9708	-2.2979	-3.2708	-2.7188	-2.5687	-3.0354	-2.5708	266.509	276.260	263.676	182.003	-44.539	66.307	195.135	174.218	139.035	-13.452	215.382	213.026	9.609	213.708	162.756	191.464	0.00012989	0.00033589	6.4151e-05	979.41	3.8537e-06	1.2359e-06	1071.4	204.79	2.6673e-06	1.6975e-06	266.37	75.947	58.862	17.628	2.4911e-06	25.15	0.00010301	8.5125e-05	2.4206e-05	955.08	9.7983e-07	9.5705e-07	1052.8	203.03	9.9867e-07	9.3145e-07	263.28	75.742	58.487	17.764	9.3989e-07	25.25	24.066	-33.916	-0.310	-62.433	60.369	76.010	-62.651	-54.787	90.236	78.025	-55.234	-48.449	-47.892	-40.983	146.612	-41.616	-8191	255	
760.248	1	1	0	0	0.091246	0.13919	0.069737	0.08192	0.22415	0.15618	0.08703	0.22429	0.0986	0.12945	0.11603	0.20344	0.19833	0.13008	0.15308	0.19157	-2.5563	-3.0187	-2.1917	-3.0625	-2.8063	-2.5021	-3.4688	-2.3896	-2.85	-2.9354	-2.2687	-3.2229	-2.7083	-2.3438	-3.2479	-2.4562	250.149	178.269	46.355	211.981	286.996	49.821	273.004	257.366	124.433	136.129	28.725	132.798	251.837	54.577	-42.020	264.480	0.00014723	0.00020859	8.0766e-05	979.33	7.0123e-07	2.0068e-06	1072.3	205.31	3.1238e-06	3.7094e-06	266.75	76.105	58.475	17.738	2.8603e-06	25.208	0.00010394	8.6245e-05	2.4475e-05	957.82	1.0148e-06	9.6849e-07	1055.3	203.06	1.0465e-06	9.147e-07	263.95	75.69	58.395	17.799	9.4052e-07	25.271	55.945	8.912	31.360	-62.286	7.544	116.014	-62.390	-54.783	65.901	117.159	-55.210	-48.549	-48.607	-40.729	70.368	-41.763	-8191	255	
760.344	1	1	0	0	0.44141	0.08838	0.15458	0.11985	0.050155	0.12799	0.09168	0.11556	0.19813	0.046579	0.25882	0.26152	0.064731	0.40674	0.13598	0.045475	-2.1167	-3.0062	-2.2938	-3.175	-2.8792	-2.2958	-3.4875	-2.6542	-2.675	-3.2292	-2.4083	-2.9396	-2.7625	-2.2562	-3.1333	-2.6708	259.168	99.694	59.653	-31.803	173.957	261.234	248.929	-64.607	223.718	-35.141	178.244	248.774	-23.572	266.068	283.889	167.692	0.00022724	0.00040746	8.3584e-05	985.01	3.107e-06	2.7632e-06	1071.1	205.71	3.7701e-06	3.6029e-06	266.24	75.939	59.071	17.799	3.1815e-06	25.094	0.00010666	8.7966e-05	2.5175e-05	957.66	1.0232e-06	9.6468e-07	1055.6	203.09	1.0514e-06	9.5772e-07	262.81	75.588	58.636	17.807	9.4132e-07	25.189	29.526	11.702	27.385	-62.181	70.062	42.013	-62.045	-54.577	63.790	75.805	-55.418	-48.395	-48.076	-40.697	101.352	-41.765	-8191	255	
760.440	1	1	0	0	0.14595	0.11661	0.14504	0.14295	0.10765	0.16736	0.21762	0.26358	0.2899	0.11565	0.1146	0.17457	0.061783	0.19919	0.22159	0.051717	-2.1708	-3.2812	-2.3563	-2.9479	-3.1167	-2.1896	-3.2333	-2.7583	-2.2604	-3.1813	-2.2479	-2.8563	-3.0812	-2.3167	-3.1375	-2.5958	138.202	-16.888	216.954	123.023	80.816	-6.604	196.864	240.584	64.908	171.308	20.425	100.592	177.452	82.023	97.165	85.397	0.00015043	0.00027552	6.4295e-05	975.66	2.2019e-06	3.1881e-06	1072.8	204.65	2.2941e-06	3.0558e-06	266.87	75.735	58.606	17.668	1.8591e-06	25.265	0.00010362	8.4977e-05	2.509e-05	956.28	9.9395e-07	1.015e-06	1056.1	203.26	1.0264e-06	9.4848e-07	263.25	75.778	58.428	17.802	9.7747e-07	25.265	33.070	-16.662	33.471	-62.121	62.884	56.606	-62.282	-54.814	72.848	118.207	-55.144	-48.172	-47.851	-40.847	94.978	-41.628	-8191	255	
760.536	1	1	0	0	0.14952	0.022697	0.097384	0.2603	0.094848	0.23564	0.082759	0.23122	0.11248	0.14369	0.1073	0.10648	0.22211	0.17263	0.16381	0.18629	-2.1042	-3.3479	-2.275	-2.9646	-2.875	-2.2417	-3.1167	-3.0396	-2.2396	-3.2583	-2.3521	-2.7917	-3.0958	-2.3167	-2.9917	-2.6979	268.246	143.605	92.017	221.619	110.208	21.980	160.153	21.964	125.628	238.715	-19.594	252.278	39.845	-51.434	71.956	153.794	0.00015782	0.00034528	3.8562e-05	986.44	3.1446e-06	1.6298e-06	1079.5	206	3.1033e-06	4.1537e-06	268.29	76.076	58.875	17.793	1.8592e-06	25.12	0.00010684	8.7159e-05	2.5441e-05	959.61	1.0226e-06	9.8056e-07	1057.6	203.88	1.1159e-06	9.5265e-07	263.37	75.948	58.716	17.844	9.6042e-07	25.262	26.715	11.263	56.378	-62.362	72.885	90.020	-62.262	-54.921	74.859	64.399	-55.366	-48.247	-48.161	-41.037	147.843	-41.533	-8191	255	
760.655	1	1	0	0	0.10873	0.069293	0.090251	0.05188	0.22894	0.24873	0.20721	0.28261	0.1334	0.13216	0.21589	0.13056	0.267	0.18031	0.087649	0.24486	-2.0958	-3.1417	-2.3958	-2.6437	-3.05	-2.2917	-3.0458	-2.975	-2.5479	-3.2458	-2.675	-2.5458	-3.2542	-2.2062	-2.9854	-3.0208	222.176	114.924	273.721	-17.770	278.124	232.852	213.075	266.771	63.208	129.774	212.047	161.106	227.528	-20.399	100.627	198.509	0.00020669	0.00033171	4.8851e-05	987.28	6.8545e-07	3.3047e-06	1079.7	204.76	2.9667e-06	2.3254e-06	267.24	76.31	59.32	17.636	2.493e-06	25.126	0.00010731	8.7917e-05	2.4154e-05	962.24	9.7787e-07	1.0373e-06	1058.6	203.49	1.0648e-06	9.5256e-07	264.04	75.944	58.675	17.797	9.9425e-07	25.196	43.904	31.818	9.944	-62.428	126.200	84.726	-62.344	-54.721	50.245	117.571	-55.302	-48.550	-48.090	-41.007	73.195	-41.137	-8191	255	
760.728	1	1	0	0	0.21495	0.23799	0.16527	0.10976	0.048295	0.070872	0.026725	0.12868	0.1007	0.23793	0.03932	0.26169	0.14713	0.22739	0.043848	0.034559	-1.8417	-3.1708	-2.7896	-2.7396	-3.1146	-2.5438	-3.0771	-3.1292	-2.2417	-3.0646	-2.7313	-2.4958	-3.1	-2.3708	-2.9188	-3.2021	-33.115	193.701	123.374	-14.915	159.972	34.457	262.335	263.067	97.041	217.025	285.296	170.170	-27.741	272.202	-54.687	138.302	0.0001884	0.00056359	3.7376e-05	986.14	2.9097e-06	3.6992e-06	1069.4	205.64	3.1369e-06	1.1718e-06	266.72	76.163	59.185	17.782	2.0128e-06	25.038	0.00010881	8.7727e-05	2.5455e-05	960.14	1.0249e-06	9.6177e-07	1054.9	203.4	1.0953e-06	9.4015e-07	263.95	75.788	58.704	17.819	1.0341e-06	25.238	32.803	25.276	41.936	-62.078	110.231	68.456	-62.264	-54.495	70.800	84.632	-55.120	-48.019	-47.968	-40.826	94.549	-41.996	-8191	255	
760.849	1	1	0	0	0.13153	0.14248	0.21178	0.18383	0.16315	0.077826	0.36785	0.39145	0.28978	0.2288	0.21623	0.10101	0.22966	0.065329	0.031826	0.19343	-1.9688	-2.9729	-2.625	-2.4042	-3.2167	-2.3771	-2.7917	-3.1146	-2.0917	-3.0083	-3.075	-2.4083	-3.2646	-2.3875	-2.4562	-3.2125	254.361	197.509	95.580	-63.636	161.725	54.040	235.546	231.501	152.221	42.045	123.530	193.876	178.055	186.508	200.088	112.377	0.00023987	0.00033883	6.3879e-05	986.22	2.0754e-06	2.8446e-06	1078.3	204.77	2.4801e-06	2.9589e-06	268.64	75.982	58.872	17.745	2.1372e-06	25.121	0.00011078	8.6501e-05	2.439e-05	960.71	9.9913e-07	1.0078e-06	1057.1	203.49	1.0661e-06	9.6524e-07	264	75.824	58.641	17.815	1.0059e-06	25.176	56.288	25.772	38.759	-62.393	84.022	74.325	-62.164	-54.673	81.893	81.345	-55.251	-48.299	-48.274	-41.002	90.330	-41.439	-8191	255	
760.943	1	1	0	0	0.17198	0.25749	0.27473	0.34205	0.23633	0.24263	0.28972	0.16685	0.24423	0.12142	0.099804	0.36547	0.12402	0.11563	0.20253	0.18339	-1.8521	-2.9208	-2.8688	-2.2896	-3.1	-2.6688	-2.5667	-3.3396	-2.4854	-2.7958	-3.05	-2.3646	-3.2333	-2.7854	-2.3708	-3.1917	67.124	157.599	35.273	46.631	100.354	252.392	198.970	-20.426	183.171	-58.215	140.631	259.678	-37.183	235.689	108.206	208.416	0.00017857	0.0003264	6.5664e-05	981.53	3.2325e-06	2.524e-06	1072	206.18	1.7773e-06	2.1144e-06	267.4	75.974	59.314	17.799	1.8241e-06	25.108	0.00010869	8.9967e-05	2.4576e-05	957.88	1.0107e-06	9.5978e-07	1054.4	203.75	1.0611e-06	9.2113e-07	263.88	75.941	58.679	17.793	9.8702e-07	25.259	26.843	-8.169	3.347	-62.520	46.696	66.650	-62.240	-54.507	87.571	100.073	-55.213	-48.263	-48.004	-40.388	80.844	-41.235	-8191	255	
761.040	1	1	0	0	0.05989	0.21608	0.02961	0.18515	0.12256	0.016784	0.23678	0.18552	0.092878	0.26204	0.20587	0.11124	0.25117	0.10065	0.2515	0.061166	-2.0146	-2.7042	-3.2104	-2.3	-3.0479	-2.7854	-2.6083	-3.3125	-2.4021	-2.7167	-3.2771	-2.2938	-3.2375	-2.7604	-2.4833	-3.1229	86.784	-0.597	-25.808	-49.191	39.794	227.753	244.249	166.128	154.257	-47.982	195.952	234.394	256.948	-1.097	149.037	-14.507	0.00021561	0.00037266	8.6899e-05	980.33	2.3423e-06	2.7407e-06	1072.5	205.72	2.5848e-06	1.658e-06	266.03	76.126	58.837	17.717	4.3457e-06	25.076	0.00010514	8.8633e-05	2.3406e-05	957.19	9.868e-07	9.2892e-07	1056.7	203.59	1.0405e-06	9.416e-07	264.28	75.727	58.568	17.801	9.6488e-07	25.19	35.818	11.665	17.452	-62.356	113.047	73.093	-62.156	-54.435	139.724	67.302	-55.057	-48.153	-48.159	-40.655	63.131	-41.366	-8191	255	
761.136	1	1	0	0	0.11712	0.081132	0.19751	0.29375	0.17516	0.081601	0.19825	0.22755	0.17316	0.10376	0.11921	0.16805	0.12302	0.091898	0.17004	0.15097	-2.0771	-2.4875	-3.2083	-2.3312	-2.9354	-2.8896	-2.625	-3.2021	-2.35	-2.6771	-3.0708	-2.5625	-2.9813	-2.7604	-2.5083	-3.3771	-24.037	184.232	13.316	175.140	233.264	49.903	271.553	-47.040	171.978	31.324	102.894	280.753	252.017	-27.364	55.875	217.661	0.00019579	0.00054867	5.0845e-05	980	3.4145e-06	3.2035e-06	1071.1	207.49	1.3878e-06	2.9049e-06	267.08	75.827	59.39	17.729	3.1886e-06	25.145	0.00010432	9.0115e-05	2.4782e-05	958.21	9.9752e-07	9.1185e-07	1052.9	204	1.0168e-06	9.2692e-07	263.42	75.714	58.545	17.76	1.0063e-06	25.161	43.245	-25.664	-1.934	-62.273	38.423	55.874	-62.316	-54.400	57.182	111.275	-54.673	-48.380	-47.597	-40.824	88.661	-41.609	-8191	255	
761.256	1	1	0	0	0.051708	0.12769	0.21973	0.088939	0.078739	0.12418	0.071627	0.16548	0.029368	0.084127	0.2174	0.15047	0.054673	0.23016	0.21107	0.14847	-2.1562	-2.4021	-3.2271	-2.3583	-2.7708	-2.9958	-2.4583	-3.2604	-2.5604	-2.4146	-3.275	-2.3667	-2.8021	-2.9854	-2.2146	-3.2208	52.600	-40.163	7.301	-48.222	199.010	-4.175	-53.370	248.160	22.470	281.345	-4.866	240.271	263.389	-67.955	-69.234	170.979	0.00018503	0.00029485	5.5115e-05	982.8	2.6126e-06	2.7249e-06	1073	205.83	1.6089e-06	2.9487e-06	268.45	75.977	59.149	17.803	1.0114e-06	25.075	0.00010239	8.6813e-05	2.3256e-05	957.61	9.7921e-07	8.9897e-07	1055.5	203.66	1.0288e-06	9.5681e-07	263.45	75.671	58.388	17.789	9.2633e-07	25.253	31.882	-8.007	7.444	-62.267	40.235	78.309	-62.123	-54.378	63.805	82.355	-55.111	-48.352	-47.674	-40.311	57.087	-40.768	-8191	255	
761.328	1	1	0	0	0.17285	0.13116	0.15111	0.0754	0.19435	0.10505	0.47085	0.15213	0.17877	0.13168	0.07957	0.2115	0.13454	0.13884	0.089094	0.12849	-2.2625	-2.4854	-3.1312	-2.4104	-2.6229	-2.9354	-2.2833	-3.2292	-2.6979	-2.3146	-3.2375	-2.3812	-2.4292	-3.2083	-2.1854	-2.9625	165.612	191.013	233.328	283.146	143.161	271.049	224.459	284.624	18.248	-55.264	63.803	267.917	129.286	66.534	49.886	276.200	0.0002589	0.00032237	4.3833e-05	971.97	3.3831e-06	2.649e-06	1062.3	205.03	3.7506e-06	2.3236e-06	267.64	76.161	58.894	17.537	2.3665e-06	25.165	0.00010417	8.6459e-05	2.2841e-05	953.74	9.8859e-07	8.6584e-07	1050	203.37	9.9938e-07	9.1035e-07	264.02	75.752	58.466	17.716	9.3008e-07	25.105	51.719	13.326	25.188	-62.453	18.396	68.224	-62.427	-54.495	63.845	90.165	-55.714	-48.247	-47.725	-41.034	114.582	-41.637	-8191	255	
761.424	1	1	0	0	0.25768	0.18546	0.2164	0.1934	0.19245	0.21195	0.12298	0.14886	0.12245	0.15997	0.16944	0.090037	0.034168	0.07816	0.20807	0.13212	-2.2375	-2.4188	-3.1625	-2.5833	-2.4354	-3.1063	-2.4833	-3.2208	-2.9417	-2.3979	-3.2208	-2.5854	-2.5396	-3.2083	-2.2833	-3.0917	143.646	58.897	187.927	229.216	199.419	192.495	51.990	230.054	-20.553	32.985	287.123	-18.989	225.699	218.561	172.258	141.320	0.0002084	0.00032936	9.0466e-05	977.7	1.32e-06	2.0265e-06	1073	205.18	8.526e-07	2.4284e-06	266.54	75.609	58.925	17.658	4.1723e-06	25.144	9.9034e-05	8.4203e-05	2.3006e-05	953.84	9.7421e-07	8.7864e-07	1052.4	202.93	9.6672e-07	9.3499e-07	263.09	75.553	58.464	17.67	9.365e-07	25.267	52.915	38.688	27.293	-62.842	71.028	69.919	-62.141	-54.752	111.884	118.682	-55.126	-48.808	-48.086	-40.504	97.052	-41.478	-8191	255	
761.545	1	1	0	0	0.057835	0.097764	0.22133	0.35501	0.082765	0.2457	0.32298	0.21709	0.13191	0.087785	0.019854	0.024957	0.17439	0.061711	0.037479	0.23357	-2.6188	-2.3396	-3.0812	-2.6833	-2.5667	-3.0271	-2.6792	-2.7354	-3.0396	-2.3354	-3.1583	-2.6146	-2.4688	-3.2917	-2.2771	-2.7812	229.035	39.183	-23.992	185.428	-2.508	-62.022	214.308	-31.317	5.299	-56.534	263.970	96.697	4.797	172.613	84.800	78.871	0.00023029	0.00037989	9.8631e-05	975.67	1.8352e-06	3.6882e-06	1075.3	205.19	1.2942e-06	1.0939e-06	267.83	75.564	58.394	17.615	2.8475e-06	25.216	9.54e-05	8.7983e-05	2.3155e-05	954.94	9.8126e-07	8.7873e-07	1052.4	203.11	1.0134e-06	9.6623e-07	263.06	75.484	58.349	17.714	1.0278e-06	25.187	39.231	20.825	33.677	-62.373	89.231	85.987	-62.441	-54.631	124.452	136.955	-54.998	-48.320	-48.196	-40.571	100.390	-41.507	-8191	255	
761.641	1	1	0	0	0.087748	0.092208	0.078745	0.24706	0.094231	0.027408	0.12299	0.10492	0.16501	0.19177	0.065899	0.059471	0.23625	0.15802	0.13094	0.36987	-2.7021	-2.3646	-3.0354	-2.725	-2.2417	-3.1125	-2.5563	-2.8104	-2.9562	-2.15	-3.0854	-2.9458	-2.4333	-3.1813	-2.5062	-2.5687	104.004	266.482	212.113	268.438	268.058	-17.328	141.102	278.395	-25.299	236.294	245.519	-50.223	130.318	153.954	7.048	220.917	0.00021318	0.00017085	0.00011063	979.32	4.957e-06	2.8296e-06	1068.4	205.1	1.8827e-06	2.2135e-06	265.81	75.998	58.808	17.803	1.8354e-06	25.119	0.00010344	8.5496e-05	2.4365e-05	953.32	1.0118e-06	9.1748e-07	1051	203.06	9.8683e-07	9.1443e-07	262.63	75.546	58.257	17.747	9.5266e-07	25.228	44.640	17.515	-6.230	-62.636	89.723	90.016	-62.438	-54.589	115.906	95.657	-55.324	-48.261	-47.940	-40.875	50.378	-41.679	-8191	255	
761.735	1	1	0	0	0.14109	0.12538	0.24665	0.012019	0.062786	0.067186	0.15522	0.042268	0.20062	0.17315	0.27888	0.10608	0.26153	0.17146	0.02719	0.077693	-2.7771	-2.3187	-2.8688	-2.9604	-2.3979	-3.0312	-2.8146	-2.5687	-3.1333	-2.3396	-2.8979	-3.1896	-2.2354	-3.0875	-2.5167	-2.6271	-2.902	36.897	78.048	224.454	136.845	-29.226	-63.941	60.721	93.011	75.786	-54.279	73.692	182.893	211.449	49.524	19.198	0.00028342	0.00036935	5.7966e-05	975.57	3.4221e-06	2.6458e-06	1067.3	204.94	4.6917e-06	3.7612e-06	266.13	75.741	58.614	17.638	5.0451e-06	25.168	0.00010064	8.9292e-05	2.4278e-05	954.55	1.0176e-06	9.7747e-07	1050.9	203.21	9.4731e-07	9.7755e-07	262.99	75.593	58.196	17.713	9.7997e-07	25.141	43.817	26.114	12.425	-62.566	58.020	82.171	-62.665	-54.750	68.317	53.247	-55.424	-48.465	-47.744	-41.007	57.815	-41.305	-8191	255	
761.832	1	1	0	0	0.22347	0.088506	0.18618	0.053114	0.090926	0.12712	0.12059	0.2243	0.15474	0.070966	0.088923	0.26651	0.14601	0.1629	0.35895	0.0884	-2.9771	-2.1896	-2.7125	-3.2146	-2.2354	-3.1521	-2.8458	-2.5167	-3.2521	-2.3729	-2.7521	-3.1396	-2.2396	-3.0979	-2.8812	-2.3438	256.761	274.807	-51.105	273.895	-46.820	26.548	122.876	281.642	140.063	-18.777	-18.866	153.800	-15.672	263.442	267.312	224.593	0.00018397	0.00029997	5.7048e-05	976.37	1.4732e-06	2.2154e-06	1071	204.94	3.4729e-06	1.7321e-06	267.18	75.663	58.454	17.562	2.939e-06	24.951	0.00010237	8.506e-05	2.3871e-05	954.01	1.0336e-06	8.7492e-07	1051	202.7	9.7437e-07	9.3607e-07	263.46	75.523	58.28	17.662	9.3222e-07	25.181	54.072	-17.799	34.586	-62.473	100.419	63.400	-62.388	-54.458	44.918	77.902	-54.989	-48.566	-48.060	-41.211	68.553	-41.276	-8191	255	
761.928	1	1	0	0	0.17493	0.058079	0.31055	0.18322	0.13791	0.015932	0.37649	0.40089	0.28957	0.10037	0.23085	0.33682	0.2149	0.24182	0.092783	0.21672	-2.8875	-2.4417	-2.6729	-3.2958	-2.325	-2.9583	-3.1042	-2.4354	-3.1646	-2.6167	-2.8688	-3.1625	-2.3042	-2.9292	-3.1125	-2.4104	127.102	175.383	24.642	245.370	-53.947	14.742	276.106	238.887	138.109	111.705	177.064	-26.222	68.612	252.878	-40.085	-2.340	0.00022617	0.00027286	8.5551e-05	972.59	8.729e-07	2.6897e-06	1068.3	204.87	2.0324e-06	4.5484e-06	266.88	75.527	58.615	17.643	1.6471e-06	25.101	0.00010238	8.6542e-05	2.5393e-05	952.65	1.0085e-06	9.173e-07	1050.9	203.1	9.6992e-07	9.5808e-07	263.09	75.685	58.418	17.72	9.8363e-07	25.182	38.693	-4.931	25.696	-62.279	90.569	72.184	-62.208	-54.552	72.239	95.954	-54.899	-48.511	-47.644	-40.557	83.350	-41.300	-8191	255	
762.024	1	1	0	0	0.12199	0.20924	0.20835	0.28668	0.15526	0.12969	0.16201	0.24264	0.15919	0.19125	0.15864	0.17167	0.13549	0.18908	0.07768	0.12965	-2.9229	-2.675	-2.5021	-3.175	-2.3417	-2.75	-3.175	-2.2958	-3.0917	-2.6813	-2.5146	-3.2	-2.1417	-2.6	-3.0083	-2.4708	256.628	262.644	95.325	221.913	114.410	43.800	207.858	239.644	-70.027	120.947	191.045	-26.125	77.919	-30.947	280.240	124.561	0.00023454	0.00017989	5.0939e-05	980.54	3.2862e-06	1.4924e-06	1071.4	205.58	3.1479e-06	2.7991e-06	266.16	75.884	58.437	17.687	3.4683e-06	25.002	0.00010202	8.7423e-05	2.4126e-05	955.18	9.8975e-07	9.232e-07	1051	202.96	1.0248e-06	9.473e-07	263.25	75.442	58.159	17.725	9.6506e-07	25.079	20.539	15.537	49.441	-62.417	85.522	123.217	-62.226	-54.619	77.795	72.168	-54.810	-48.290	-48.098	-40.455	78.350	-41.808	-8191	255	
762.120	1	1	0	0	0.070367	0.1277	0.33779	0.22454	0.044059	0.12548	0.27599	0.23027	0.27033	0.39149	0.16209	0.16125	0.14755	0.31982	0.030128	0.25945	-2.5625	-2.575	-2.1604	-3.2042	-2.475	-2.6625	-3.3208	-2.4875	-2.9917	-2.8187	-2.3	-3.1229	-2.5771	-2.6312	-3.0833	-2.475	3.530	-42.523	211.442	-31.201	6.371	157.462	191.986	209.503	256.067	48.034	159.261	147.043	-38.334	-33.108	111.207	178.733	0.00022445	0.0004023	7.9594e-05	976.08	4.9099e-06	3.4255e-06	1073.7	205.42	4.4336e-06	3.3429e-06	266.16	76.167	58.595	17.723	1.9992e-06	24.951	0.0001035	8.9267e-05	2.4057e-05	953.43	1.0052e-06	9.4389e-07	1052.1	202.73	1.0235e-06	9.2348e-07	262.92	75.74	58.337	17.742	9.4819e-07	25.124	70.133	45.800	61.232	-62.108	68.716	65.776	-62.035	-54.676	32.311	103.378	-55.186	-48.112	-48.455	-40.951	91.965	-41.936	-8191	255	
762.216	1	1	0	0	0.10518	0.40531	0.17024	0.42515	0.11933	0.054343	0.12955	0.19864	0.018355	0.069466	0.10167	0.12948	0.27169	0.10219	0.14275	0.062518	-2.6208	-2.7667	-2.3729	-3.1625	-2.5458	-2.6333	-3.2188	-2.3604	-2.9271	-2.8187	-2.3625	-3.1458	-2.5875	-2.6521	-3.2229	-2.4833	219.125	-35.766	155.529	-63.798	94.866	129.556	201.410	245.489	226.120	156.886	-42.917	163.498	63.891	175.422	271.281	189.144	0.0002007	0.00028453	0.00010891	979.86	3.2067e-06	2.4151e-06	1068.7	204.21	1.9416e-06	2.7926e-06	265.49	75.473	58.488	17.641	2.6109e-06	24.89	0.00010198	8.3627e-05	2.3621e-05	954.75	9.8108e-07	9.3128e-07	1050.6	202.92	9.798e-07	8.9577e-07	262.76	75.386	58.283	17.73	9.4909e-07	25.081	38.330	-6.683	28.284	-62.507	78.446	51.050	-62.632	-54.753	-5.627	93.701	-55.085	-48.380	-47.735	-40.469	95.272	-41.899	-8191	255	
762.335	1	1	0	0	0.14504	0.13965	0.26404	0.29606	0.27427	0.014521	0.329	0.054506	0.19801	0.19956	0.25604	0.11049	0.23242	0.072145	0.23034	0.15215	-2.4437	-2.9792	-2.3146	-3.2729	-2.6	-2.3604	-3.2938	-2.4833	-2.4667	-3.0583	-2.25	-3.2417	-2.9458	-2.2938	-3.2333	-2.5792	178.290	89.323	230.132	-68.119	90.430	38.242	240.072	172.658	157.183	246.735	230.985	-65.877	214.417	-8.595	39.412	-36.625	0.00026659	0.00032249	5.7946e-05	972.56	2.8082e-06	1.8164e-06	1068.3	203.7	1.5512e-06	2.4895e-06	266.27	76.079	58.45	17.6	2.8476e-06	24.896	0.00010519	8.6212e-05	2.4218e-05	952.07	9.6474e-07	9.3645e-07	1049.2	202.55	1.0062e-06	8.9948e-07	262.53	75.553	58.23	17.7	9.2731e-07	25.099	28.026	25.165	25.419	-62.176	74.894	68.730	-62.568	-54.938	35.510	99.568	-55.498	-48.484	-48.224	-40.741	53.635	-41.346	-8191	255	
762.431	1	1	0	0	0.15999	0.11174	0.30172	0.073065	0.16092	0.11926	0.20239	0.15992	0.19402	0.056679	0.13642	0.16385	0.2648	0.15843	0.21157	0.21495	-2.4542	-3.1896	-2.5625	-2.8479	-2.6854	-2.5146	-3.3042	-2.5167	-2.6729	-3.175	-2.4146	-3.1083	-2.9979	-2.4042	-3.2771	-2.7125	-44.090	108.134	9.850	168.434	122.802	-30.865	223.308	123.910	278.184	241.868	-26.870	287.287	-9.271	245.416	79.774	-48.132	0.00022468	0.00021445	4.9854e-05	980.92	2.6536e-06	1.4822e-06	1064.7	204.52	3.5229e-06	1.8699e-06	266.59	76.112	58.789	17.591	2.0695e-06	25.012	0.0001047	8.3034e-05	2.4238e-05	953.29	9.5286e-07	9.2129e-07	1049.3	202.89	1.0007e-06	8.8137e-07	262.43	75.585	58.372	17.709	9.0678e-07	25.121	46.337	24.433	-4.809	-62.352	57.123	93.328	-62.458	-54.627	94.333	68.702	-55.157	-48.090	-47.723	-40.751	91.268	-41.864	-8191	255	
762.527	1	1	0	0	0.23228	0.024115	0.25372	0.35528	0.11095	0.041375	0.27372	0.14572	0.19377	0.14595	0.29047	0.13181	0.14698	0.075801	0.18119	0.24153	-2.1417	-3.25	-2.4104	-2.9833	-3.0271	-2.2771	-3.1813	-2.6375	-2.5187	-3.0917	-2.3792	-2.9562	-2.9792	-2.4813	-3	-2.7792	86.561	214.832	-47.242	-56.937	285.011	75.547	233.065	176.149	-46.313	58.261	190.750	271.175	141.107	148.144	137.531	17.874	0.00019396	0.00031525	6.0758e-05	975.25	3.6891e-06	1.2033e-06	1067.7	205.29	4.2258e-06	2.3243e-06	266.4	75.692	58.41	17.534	9.1625e-07	24.93	0.00010271	8.2021e-05	2.4055e-05	952.91	9.5036e-07	9.1803e-07	1051.1	202.66	1.0157e-06	8.8309e-07	262.67	75.438	58.158	17.695	9.5257e-07	25.085	60.395	22.457	77.724	-62.776	78.150	88.585	-62.278	-54.524	43.378	113.871	-55.115	-48.419	-47.980	-40.636	50.083	-41.549	-8191	255	
762.623	1	1	0	0	0.33586	0.2854	0.11825	0.21262	0.18107	0.25546	0.14366	0.14907	0.10733	0.27925	0.16903	0.061725	0.1704	0.22291	0.11298	0.23484	-2.0917	-2.9938	-2.3063	-3.0208	-3.0125	-2.375	-3.3125	-2.9083	-2.4396	-3.225	-2.5333	-2.6813	-3.3208	-2.2021	-2.9479	-2.8167	205.283	-39.119	44.740	218.470	142.280	141.988	107.888	122.525	177.762	198.386	-43.172	275.095	-42.245	-68.682	232.140	46.088	0.00020623	0.00023578	0.00010912	969.65	2.6437e-06	2.54e-06	1066.4	204.88	2.6553e-06	1.5698e-06	266.21	76.207	58.694	17.608	2.4281e-06	25.045	0.00010322	8.5414e-05	2.467e-05	949.97	9.734e-07	9.2765e-07	1048.1	202.87	9.5897e-07	8.926e-07	262.54	75.641	58.254	17.696	8.9813e-07	25.167	30.424	3.957	27.574	-62.479	4.070	61.785	-62.183	-54.879	79.723	100.585	-55.588	-48.148	-48.278	-40.508	131.115	-41.702	-8191	255	
762.720	1	1	0	0	0.20068	0.17979	0.048851	0.085739	0.096544	0.27262	0.1317	0.25	0.10053	0.072363	0.131	0.26525	0.15276	0.14083	0.064871	0.33878	-2.0667	-3.1292	-2.3479	-2.5292	-3.0354	-2.3854	-3.1063	-2.9938	-2.2438	-3.0458	-2.6917	-2.6875	-3.1146	-2.2604	-2.925	-3.0292	168.607	34.561	-18.977	208.575	-16.479	-63.528	39.555	255.211	199.209	-15.795	-51.098	-66.901	8.505	61.786	210.271	222.154	0.00018266	0.0004096	5.3429e-05	977.47	3.4751e-06	1.6571e-06	1068.2	204.45	2.6372e-06	1.8695e-06	265.05	75.422	58.373	17.764	3.6736e-06	25.067	0.00010294	8.5521e-05	2.3114e-05	951.09	9.4946e-07	9.4861e-07	1048.6	202.53	1.0131e-06	9.1361e-07	262.2	75.418	58.342	17.728	9.4007e-07	25.119	36.596	40.503	37.933	-62.666	62.328	80.523	-62.066	-54.861	70.577	47.564	-55.073	-48.677	-47.801	-40.596	99.193	-41.328	-8191	255	
762.840	1	1	0	0	0.10514	0.27986	0.24438	0.23753	0.055369	0.35873	0.10478	0.17121	0.11818	0.14355	0.1447	0.21743	0.16249	0.077777	0.063341	0.065915	-1.95	-3.1188	-2.5979	-2.4375	-2.9792	-2.3167	-3.0417	-3.1604	-2.3479	-3.1854	-2.7729	-2.4146	-3.0646	-2.3812	-2.7771	-3.0583	93.465	109.357	21.416	174.606	-44.222	-26.743	153.830	1.971	255.544	-47.572	-71.379	-66.162	-59.498	113.582	231.491	206.412	0.00018102	0.00038678	3.7285e-05	967.22	1.0188e-06	2.9931e-06	1069	205.56	2.8816e-06	2.743e-06	266.81	75.386	58.512	17.645	1.1404e-06	25.009	9.9877e-05	8.2441e-05	2.4121e-05	949.16	9.6117e-07	9.3454e-07	1050.1	202.71	1.017e-06	8.8952e-07	262.57	75.445	58.2	17.711	8.9357e-07	25.11	51.546	18.943	23.516	-62.333	56.582	69.061	-61.913	-54.772	48.172	69.705	-54.945	-48.535	-48.093	-40.832	54.224	-41.497	-8191	255	
762.936	1	1	0	0	0.28864	0.15783	0.10184	0.33422	0.32834	0.28365	0.29953	0.092421	0.3281	0.036552	0.1892	0.3009	0.18655	0.24957	0.34211	0.056126	-2.0625	-2.925	-2.6604	-2.2646	-3.1271	-2.3479	-3.0187	-3.2354	-2.2521	-3.1604	-3.0062	-2.2917	-3.2667	-2.4896	-2.6083	-3.4646	91.150	171.842	153.314	271.959	-69.088	6.457	228.323	-69.921	54.557	138.400	243.099	271.577	112.818	259.391	259.703	124.273	0.00019302	0.00029262	3.1952e-05	974.92	3.5281e-06	4.8408e-06	1069.5	204.79	4.2368e-06	1.7201e-06	266.24	75.727	58.536	17.727	1.9065e-06	25.061	0.00010157	8.3199e-05	2.2809e-05	949.42	9.1293e-07	9.0704e-07	1049	202.98	9.8719e-07	9.0265e-07	262.34	75.377	58.192	17.729	9.158e-07	25.126	64.120	21.294	3.245	-62.380	86.372	75.570	-62.684	-54.595	47.236	39.435	-54.589	-48.149	-47.758	-40.755	92.512	-41.298	-8191	255	
763.033	1	1	0	0	0.15423	0.28111	0.23844	0.11115	0.17178	0.20398	0.1144	0.32477	0.18497	0.14378	0.32487	0.338	0.21999	0.059597	0.037392	0.03189	-1.8333	-2.8625	-2.9542	-2.3812	-3.3875	-2.6396	-2.7833	-3.3563	-2.3688	-2.9625	-2.9833	-2.375	-3.1813	-2.625	-2.4833	-3.1646	48.589	120.925	171.101	11.774	275.122	99.639	268.309	180.346	117.404	157.591	15.125	286.559	21.992	5.094	258.129	50.064	0.00018113	0.00022438	7.3015e-05	970.4	4.6214e-06	3.7614e-06	1067.2	204.27	2.7181e-06	2.8131e-06	266.25	75.809	58.743	17.575	2.0539e-06	24.972	9.9719e-05	8.422e-05	2.2306e-05	949.36	9.0329e-07	9.0332e-07	1046.3	202.18	9.8639e-07	8.9396e-07	262.14	75.333	58.156	17.635	9.3168e-07	25.06	36.978	27.034	35.049	-62.234	68.471	101.627	-62.095	-54.544	60.923	90.393	-54.905	-47.884	-47.644	-40.671	138.780	-41.317	-8191	255	
763.127	1	1	0	0	0.088303	0.11404	0.12416	0.39031	0.08561	0.20897	0.0049909	0.078671	0.16423	0.18476	0.31135	0.18125	0.24791	0.19653	0.22813	0.16584	-2.0542	-2.7062	-3.0542	-2.1958	-3.1312	-2.6708	-2.7271	-3.3375	-2.4896	-2.7042	-3.1625	-2.3479	-3.2229	-2.7917	-2.5333	-3.2625	-71.584	172.683	116.032	189.283	272.323	96.581	211.350	270.783	101.662	267.329	241.756	-58.643	-39.763	36.995	-58.947	56.896	0.0002328	0.00022069	6.9295e-05	972.17	2.8083e-06	2.3538e-06	1066.4	204.63	3.9859e-06	2.8174e-06	264.98	75.203	58.279	17.577	1.6549e-06	25.008	9.7492e-05	7.8727e-05	2.1843e-05	947.14	8.9516e-07	8.6874e-07	1044.8	202.19	1.0088e-06	8.7059e-07	261.65	75.07	57.954	17.616	9.4784e-07	25.046	41.847	-10.270	18.820	-62.259	72.484	74.477	-62.070	-54.581	64.899	90.832	-55.183	-48.423	-47.710	-40.984	100.317	-41.041	-8191	255	
763.223	1	1	0	0	0.18032	0.16027	0.17586	0.12145	0.36556	0.13776	0.1171	0.22271	0.011259	0.099585	0.22759	0.11687	0.37567	0.029377	0.12172	0.16867	-2.0792	-2.675	-3.3167	-2.4583	-3.0417	-3.0208	-2.5021	-3.1646	-2.6646	-2.8	-3.2333	-2.3083	-3.0167	-2.8625	-2.2208	-3.1813	109.651	181.794	-5.581	32.831	-13.914	77.730	-55.970	244.172	90.105	268.635	260.533	210.980	243.236	-35.865	-32.666	270.214	0.00014325	0.00032384	9.5813e-05	973.93	3.7322e-06	3.7163e-06	1061.3	202.19	1.197e-06	4.3106e-06	266.91	75.319	58.338	17.565	3.334e-06	25.021	9.7672e-05	8.2276e-05	2.2375e-05	946.24	9.408e-07	8.7691e-07	1042.8	201.16	9.4215e-07	8.6715e-07	261.55	75.116	58.001	17.623	9.083e-07	25.084	33.456	-13.035	29.219	-62.662	71.526	79.766	-62.530	-54.546	43.693	82.180	-54.820	-48.194	-48.046	-40.665	118.467	-41.274	-8191	255	
763.319	1	1	0	0	0.25511	0.29546	0.19686	0.22363	0.027664	0.20399	0.27944	0.28544	0.022866	0.033201	0.1941	0.23788	0.12997	0.15353	0.16376	0.082702	-2.2271	-2.475	-3.1917	-2.6375	-2.8667	-3.0229	-2.3833	-3.2854	-2.7708	-2.5687	-3.2812	-2.4542	-2.7333	-3.1437	-2.2542	-3.225	-12.445	128.728	-63.925	206.470	108.919	24.775	207.561	251.440	268.955	43.310	182.245	269.549	223.778	-13.992	21.549	242.469	0.00017399	0.00024575	7.8299e-05	964.04	3.2827e-06	2.1393e-06	1063.2	203.27	2.7208e-06	3.2956e-06	264.1	75.006	58.694	17.63	2.8525e-06	24.939	9.8304e-05	7.9419e-05	2.1473e-05	944.18	9.5438e-07	8.9416e-07	1042.4	201.17	9.5239e-07	8.6606e-07	260.65	74.941	58.039	17.597	9.1821e-07	25.054	31.978	11.729	26.461	-62.678	60.672	43.002	-62.309	-54.376	61.068	98.020	-54.458	-47.902	-47.535	-40.810	90.102	-41.405	-8191	255	
763.415	1	1	0	0	0.12866	0.17259	0.11426	0.13798	0.020924	0.28342	0.28153	0.22138	0.15784	0.18402	0.11672	0.19187	0.093481	0.14784	0.14693	0.17808	-2.3958	-2.4979	-3.2583	-2.5062	-2.725	-3.1729	-2.3688	-3.275	-2.8104	-2.3979	-3.3833	-2.6604	-2.8063	-3.2583	-2.3396	-3.1979	146.131	64.697	123.308	167.073	-17.138	196.342	218.582	264.906	285.752	273.820	-46.658	185.246	146.165	147.845	-46.366	194.060	0.00018834	0.00028294	5.215e-05	969.17	1.3386e-06	2.0898e-06	1058	203.51	2.1411e-06	3.3054e-06	265.5	75.316	58.56	17.482	2.7369e-06	24.83	9.3053e-05	8.086e-05	2.1515e-05	944.76	9.082e-07	8.5586e-07	1039.4	201.57	9.3859e-07	8.7684e-07	261.6	74.967	58.053	17.571	8.9429e-07	25.011	54.327	-8.798	36.706	-62.446	100.465	40.162	-62.044	-54.616	50.384	122.946	-55.118	-48.642	-47.477	-40.313	68.386	-41.285	-8191	255	
763.512	1	1	0	0	0.12607	0.27906	0.10527	0.25925	0.023056	0.22228	0.29376	0.037401	0.26525	0.15693	0.085698	0.19539	0.31671	0.22323	0.31469	0.11089	-2.4313	-2.5667	-3.0854	-2.7375	-2.6604	-3.0812	-2.4458	-2.8646	-3.0271	-2.5812	-3.3312	-2.6042	-2.4437	-3.2417	-2.2479	-2.9188	89.867	245.415	284.450	178.310	188.158	43.028	257.127	-37.458	83.289	-71.031	3.354	-3.822	287.632	214.520	56.939	-10.979	0.00019713	0.00023572	9.5095e-05	961.39	2.2488e-06	1.2479e-06	1060.8	204.42	2.6078e-06	2.594e-06	264.85	75.399	58.418	17.532	3.0994e-06	24.743	9.455e-05	8.0539e-05	2.1916e-05	941.89	9.2017e-07	8.6266e-07	1039.7	201.64	9.3388e-07	8.9414e-07	260.67	75.036	57.976	17.632	8.9848e-07	24.948	37.418	-8.610	16.615	-62.146	98.209	77.697	-62.073	-54.139	78.426	98.231	-54.859	-48.113	-47.833	-40.466	109.025	-41.020	-8191	255	
763.632	1	1	0	0	0.091844	0.23265	0.12384	0.1506	0.11648	0.10195	0.41497	0.081376	0.18397	0.16616	0.12311	0.46898	0.2082	0.070504	0.13345	0.12844	-2.6188	-2.2479	-3.1813	-2.7854	-2.4917	-3.1542	-2.65	-3.05	-2.9896	-2.2667	-3.2229	-2.8646	-2.3167	-3.1917	-2.5229	-2.6437	68.167	-3.388	118.773	-60.467	256.548	272.042	230.650	-50.243	66.829	58.249	272.252	226.895	227.465	-50.679	211.620	264.145	0.0002419	0.00030516	6.8528e-05	964.05	1.8637e-06	2.5113e-06	1058.6	204.08	2.1536e-06	2.4357e-06	265.17	75.118	58.286	17.66	1.7204e-06	25.134	9.5581e-05	7.8933e-05	2.165e-05	942.96	9.266e-07	8.6684e-07	1040	201.36	9.5844e-07	9.0338e-07	261.01	75.059	57.993	17.619	9.0161e-07	25.071	61.522	-1.331	-16.786	-61.985	98.886	99.569	-62.262	-54.348	29.534	65.148	-54.165	-48.428	-47.231	-40.688	90.162	-41.147	-8191	255	
763.728	1	1	0	0	0.18691	0.1509	0.10187	0.20175	0.15209	0.32426	0.33562	0.27571	0.095829	0.17663	0.36259	0.085777	0.16863	0.094697	0.21474	0.068859	-2.8729	-2.2	-3.0792	-2.8771	-2.3646	-3.1396	-2.7562	-2.7083	-3.2708	-2.5229	-3.1958	-3.0208	-2.6312	-3.2417	-2.6521	-2.5708	270.379	-54.283	142.250	217.844	194.233	-8.394	246.592	209.318	-22.090	237.446	-30.124	226.274	-13.110	-50.662	75.849	-64.897	0.00017445	0.00031539	3.4678e-05	964.85	1.4007e-06	1.8267e-06	1059.9	204.12	2.6609e-06	3.2234e-06	266.52	75.226	58.17	17.566	2.2808e-06	24.966	9.6032e-05	8.4401e-05	2.2026e-05	942.75	9.3571e-07	8.6112e-07	1040.5	201.45	9.1465e-07	9.0546e-07	260.96	74.858	57.884	17.597	8.7456e-07	25.049	29.363	-11.180	39.741	-62.415	23.509	70.267	-62.023	-54.299	51.528	77.383	-54.860	-48.122	-47.575	-40.675	105.522	-41.422	-8191	255	
763.824	1	1	0	0	0.18706	0.1795	0.1832	0.11226	0.22808	0.029999	0.28863	0.18822	0.11358	0.084981	0.097757	0.20592	0.19344	0.038318	0.23315	0.11873	-2.9708	-2.2021	-2.9875	-2.8604	-2.3833	-3.1021	-2.6437	-2.225	-3.1312	-2.4313	-2.8958	-2.9708	-2.3521	-3.2083	-2.7792	-2.5021	-61.039	148.669	279.474	152.068	228.521	261.398	197.170	-35.829	28.570	97.849	99.100	275.802	237.017	232.323	53.413	202.406	0.00019616	0.00024682	7.4392e-05	959.88	3.0647e-06	1.6862e-06	1053.9	203.78	2.9105e-06	2.8561e-06	264.21	75.482	58.142	17.601	8.6173e-07	24.797	9.7454e-05	8.5323e-05	2.3146e-05	940.87	9.8117e-07	8.4814e-07	1037	201.65	9.2871e-07	9.3127e-07	260.41	74.89	57.896	17.623	8.9741e-07	25.049	31.547	-19.899	34.720	-62.211	78.903	85.697	-61.936	-54.412	35.524	89.930	-54.659	-48.154	-47.637	-40.587	130.188	-40.940	-8191	255	
763.921	1	1	0	0	0.2009	0.20798	0.32279	0.24236	0.10389	0.22265	0.16474	0.29538	0.15792	0.1372	0.19433	0.082191	0.084789	0.16688	0.081339	0.18369	-2.7458	-2.25	-2.8625	-2.9833	-2.2833	-3.0438	-2.7729	-2.6667	-3.1396	-2.4646	-2.8333	-3.2771	-2.3854	-2.9667	-2.8417	-2.3542	5.351	160.758	197.337	51.903	-0.528	249.390	280.424	-26.362	-15.398	-35.230	2.800	258.603	236.445	253.513	221.506	125.257	0.00011274	0.00027002	7.0416e-05	970.78	2.4155e-06	2.5914e-06	1052.9	203.35	1.6959e-06	1.588e-06	265.24	75.451	58.606	17.432	2.3508e-06	24.925	9.6454e-05	8.2672e-05	2.3048e-05	943.75	9.3866e-07	8.4642e-07	1037.6	201.45	9.2729e-07	8.8472e-07	260.77	74.819	57.896	17.566	8.6876e-07	25.05	60.529	10.162	8.111	-62.127	84.807	75.035	-62.038	-54.420	-41.516	105.303	-55.077	-48.204	-48.000	-40.233	106.343	-41.363	-8191	255	
764.017	1	1	0	0	0.18136	0.22468	0.050893	0.05631	0.13356	0.095566	0.11283	0.12011	0.25915	0.1248	0.11151	0.014188	0.1109	0.24032	0.24914	0.064397	-2.9271	-2.5	-2.6437	-3.2313	-2.3104	-2.9792	-3.0833	-2.4854	-3.225	-2.3312	-2.5708	-3.2875	-2.3979	-2.9708	-2.9896	-2.5292	-32.918	278.590	250.321	266.166	164.167	98.874	27.651	249.378	135.714	67.540	138.778	20.504	-68.902	6.804	212.030	134.161	0.00019517	0.00029539	5.1269e-05	965.04	2.0379e-06	9.7189e-07	1064.6	202.76	2.2188e-06	4.0586e-06	265.08	75.283	58.019	17.596	4.0292e-06	24.713	9.6243e-05	8.1774e-05	2.2605e-05	941.87	9.3794e-07	8.6212e-07	1039.4	201.25	9.3779e-07	8.8164e-07	261.15	75.14	57.864	17.604	8.8188e-07	24.994	40.473	48.121	-12.899	-62.233	48.509	110.663	-62.038	-54.340	96.184	83.762	-54.906	-48.065	-47.583	-40.217	101.399	-40.803	-8191	255	
764.113	1	1	0	0	0.35028	0.26671	0.23105	0.078461	0.15236	0.089396	0.18794	0.15556	0.12219	0.23388	0.12838	0.21123	0.12376	0.037988	0.068872	0.11791	-2.8604	-2.7188	-2.5771	-3.3	-2.4313	-2.8688	-3.1479	-2.3479	-3.0563	-2.6458	-2.6	-3.2396	-2.3438	-2.7146	-3.1646	-2.3187	6.215	259.518	282.489	270.583	177.619	163.154	174.369	245.747	-28.969	253.573	-6.970	-34.653	260.191	242.719	27.312	115.962	0.00021245	0.00027314	6.1686e-05	963.26	9.1193e-07	4.1872e-06	1061	204	1.1626e-06	3.3051e-06	265.52	75.527	58.299	17.479	2.461e-06	25.048	9.4979e-05	8.1329e-05	2.2664e-05	940.76	9.5447e-07	8.9742e-07	1038.9	201.25	9.2453e-07	8.8236e-07	261	74.934	57.889	17.609	8.7679e-07	25.039	30.924	13.027	31.863	-62.279	152.751	126.261	-62.296	-54.405	43.774	59.355	-54.626	-47.850	-47.864	-40.500	74.797	-40.720	-8191	255	
764.209	1	1	0	0	0.27086	0.2535	0.34538	0.038374	0.17351	0.094504	0.21595	0.072809	0.28544	0.31363	0.19365	0.11488	0.25541	0.05693	0.1491	0.24393	-2.8042	-2.5542	-2.5	-3.1271	-2.4646	-2.725	-3.2896	-2.3083	-2.8688	-2.8708	-2.2625	-3.2917	-2.4188	-2.6583	-3.1333	-2.5375	203.484	154.030	1.542	72.177	141.767	123.403	139.233	64.333	216.033	26.201	-45.335	104.516	44.147	255.712	89.798	261.988	0.00023452	0.00032098	9.0075e-05	966.35	1.8853e-06	3.8574e-06	1065.7	202.62	1.4004e-06	1.8487e-06	266.17	75.038	58.624	17.539	3.3189e-06	24.815	9.537e-05	8.3569e-05	2.3424e-05	942.52	9.7037e-07	9.0242e-07	1040.2	200.89	9.5586e-07	8.3916e-07	261.23	74.94	58.016	17.599	8.8902e-07	24.96	45.553	23.481	11.292	-61.771	48.417	89.589	-61.914	-54.510	130.131	61.349	-54.710	-48.075	-47.307	-40.379	96.172	-41.214	-8191	255	
764.328	1	1	0	0	0.16358	0.1503	0.18632	0.15187	0.15483	0.10548	0.17075	0.12958	0.066688	0.049836	0.1926	0.21224	0.057706	0.23361	0.082244	0.071789	-2.6042	-3.0167	-2.2646	-3.0938	-2.5229	-2.5062	-3.2146	-2.3625	-2.8563	-3.0625	-2.3396	-3.3729	-2.7792	-2.4333	-3.1146	-2.5708	230.644	94.855	63.445	-13.750	103.997	130.276	216.549	250.221	-15.815	38.817	168.919	244.241	150.779	185.731	176.788	177.494	0.00019867	0.0004084	7.3769e-05	968.6	2.8695e-06	2.7773e-06	1055.9	203.91	4.1288e-06	1.6758e-06	264.47	75.398	58.38	17.565	3.1612e-06	24.904	9.6852e-05	8.492e-05	2.3061e-05	942.49	9.684e-07	9.2066e-07	1038.5	201.32	9.6618e-07	8.7376e-07	260.53	74.946	57.95	17.595	8.9661e-07	24.974	50.431	3.576	46.583	-62.078	122.921	72.135	-62.115	-53.990	46.532	79.403	-54.800	-47.824	-47.645	-40.095	106.051	-41.576	-8191	255	
764.424	1	1	0	0	0.1252	0.36528	0.28234	0.18656	0.13784	0.17798	0.16735	0.12697	0.29736	0.23772	0.22082	0.22166	0.10854	0.077848	0.18698	0.36152	-2.3958	-3.2083	-2.3187	-3.1771	-2.7667	-2.5875	-3.4771	-2.3688	-2.8792	-3.2208	-2.2729	-3.0417	-2.8167	-2.3708	-3.1729	-2.4146	284.820	209.278	-16.936	249.155	-69.693	196.610	243.913	175.082	88.179	-21.124	-65.803	278.900	252.869	233.361	139.664	197.262	0.00020046	0.00033989	4.2082e-05	964.63	1.8771e-06	2.7344e-06	1058.2	203.72	2.4615e-06	3.5158e-06	264.83	75.085	58.08	17.474	3.4357e-06	25.04	0.00010249	8.3684e-05	2.344e-05	941.7	9.4553e-07	9.0232e-07	1039.6	201.67	9.482e-07	8.6198e-07	260.88	75.013	57.898	17.581	8.6626e-07	25.002	21.127	10.922	-35.356	-61.625	70.704	76.571	-61.698	-54.162	90.621	46.006	-54.971	-48.300	-47.844	-40.578	81.683	-41.497	-8191	255	
764.520	1	1	0	0	0.22148	0.032995	0.11064	0.093214	0.049163	0.17217	0.28408	0.14278	0.083193	0.1603	0.15621	0.12091	0.19941	0.23399	0.062399	0.19709	-2.3458	-3.1104	-2.2687	-3.1271	-2.7958	-2.2896	-3.3167	-2.4896	-2.5354	-3.2042	-2.1542	-3.0208	-2.7146	-2.2958	-3.1813	-2.6312	-21.240	233.056	-39.854	190.818	37.225	143.780	200.789	255.386	192.620	93.970	230.345	-58.703	163.220	232.199	243.697	233.346	0.00020401	0.00024426	6.2196e-05	965.27	3.5584e-06	3.1824e-06	1055.4	203.58	1.5183e-06	2.2972e-06	262.37	75.248	58.257	17.543	2.6114e-06	24.902	9.6634e-05	8.0835e-05	2.3803e-05	942.84	9.5143e-07	9.0287e-07	1038.7	201	9.4812e-07	8.7023e-07	260.11	75.044	57.895	17.599	8.8019e-07	25.01	17.298	10.918	-4.373	-62.211	33.112	57.294	-62.094	-54.546	137.209	89.821	-54.992	-47.841	-48.147	-40.847	86.912	-41.808	-8191	255	
764.616	1	1	0	0	0.10805	0.14669	0.12934	0.2267	0.15598	0.28694	0.31439	0.07902	0.13415	0.068458	0.25991	0.14491	0.14982	0.1055	0.050709	0.19075	-2.2167	-3.1979	-2.275	-2.9646	-2.9375	-2.3333	-3.4292	-2.6	-2.3187	-3.1875	-2.5667	-2.9437	-3.0229	-2.1875	-2.9625	-2.8063	174.890	-33.872	0.815	177.337	234.520	-31.607	245.380	128.466	216.569	35.973	88.435	-49.466	19.204	213.481	247.226	-63.852	0.0001814	0.00012048	7.461e-05	966.93	2.4855e-06	2.5974e-06	1064.9	203.93	3.4674e-06	2.0273e-06	264.72	75.112	58.116	17.553	3.6372e-06	24.695	0.00010015	7.9864e-05	2.3399e-05	943.43	9.3535e-07	8.8463e-07	1041.1	201.4	9.6663e-07	8.503e-07	260.67	74.898	57.732	17.629	9.1473e-07	24.942	39.131	4.194	27.583	-62.310	89.886	74.589	-62.079	-54.648	58.509	112.215	-55.139	-48.154	-47.855	-40.528	111.280	-41.203	-8191	255	
764.713	1	1	0	0	0.10923	0.11418	0.24004	0.10876	0.062074	0.084287	0.12416	0.31714	0.22643	0.076822	0.1207	0.24124	0.21903	0.090533	0.11474	0.1489	-2.0417	-3.0375	-2.5042	-3.0083	-3.1292	-2.2875	-3.3146	-2.8667	-2.3396	-3.1708	-2.5333	-2.6604	-3.125	-2.2708	-2.9479	-2.8688	41.759	280.246	-51.111	165.302	175.156	277.313	171.990	228.213	65.623	110.173	41.809	265.573	281.252	56.096	193.255	138.125	0.00020629	0.00047836	6.4217e-05	968.32	2.5736e-06	2.5994e-06	1057.3	203.81	1.1087e-06	3.6139e-06	265.81	75.753	58.311	17.437	4.0792e-06	24.84	9.8613e-05	7.9609e-05	2.3389e-05	943.33	9.032e-07	9.0686e-07	1040.1	201.17	9.5933e-07	8.6687e-07	261.07	75.045	57.797	17.543	9.0241e-07	25.014	33.196	-0.193	42.237	-62.049	124.445	66.977	-62.134	-54.596	35.648	85.317	-54.965	-48.130	-47.786	-40.624	101.678	-41.452	-8191	255	
764.809	1	1	0	0	0.14119	0.12036	0.015223	0.095691	0.02097	0.063783	0.55447	0.24503	0.06194	0.030941	0.2572	0.26883	0.28447	0.046652	0.35851	0.18761	-1.9396	-3.0104	-2.425	-2.675	-3.1104	-2.175	-3.2271	-2.9729	-2.1771	-3.2167	-2.5521	-2.5271	-3.3125	-2.2958	-2.8854	-2.9896	-54.151	19.435	-30.739	-21.863	233.204	103.117	241.597	281.270	258.076	-56.083	235.067	270.879	57.796	95.105	-69.034	137.685	0.0002093	0.00042137	8.7112e-05	966.45	3.119e-06	3.0365e-06	1060	203.17	2.0687e-06	1.478e-06	262.24	75.55	58.271	17.627	1.1272e-06	24.928	9.9147e-05	7.9666e-05	2.2914e-05	943.98	8.8998e-07	9.2474e-07	1041.4	201.37	9.353e-07	8.0547e-07	260.17	75.058	57.856	17.609	8.8849e-07	24.974	52.023	-9.641	38.899	-62.081	87.105	59.128	-61.829	-54.409	9.336	88.113	-54.888	-48.076	-47.538	-40.370	67.130	-41.740	-8191	255	
764.905	1	1	0	0	0.065845	0.1004	0.059657	0.15883	0.13899	0.33392	0.092303	0.061357	0.2499	0.30154	0.091385	0.065599	0.12667	0.13965	0.18103	0.25438	-1.8833	-3.0917	-2.5729	-2.5104	-3.1771	-2.3042	-2.8896	-3.0979	-2.0896	-3.0042	-2.7875	-2.1625	-3.1583	-2.3688	-2.6854	-2.9958	187.821	284.085	222.675	278.931	28.195	76.314	138.601	262.578	131.633	-15.993	175.661	210.759	129.919	189.696	119.373	-41.425	0.00021646	0.00025196	8.2735e-05	967.46	3.1504e-06	3.1001e-06	1058	204.14	2.6852e-06	2.3486e-06	264.49	74.671	58.393	17.487	1.6882e-06	24.786	9.6566e-05	8.0218e-05	2.1501e-05	941.58	8.5175e-07	9.2402e-07	1040.1	201.55	9.5755e-07	8.5093e-07	260.49	74.857	57.904	17.596	9.0473e-07	25.022	26.784	33.846	23.622	-61.960	75.398	81.632	-61.581	-54.305	16.649	90.630	-54.798	-48.365	-48.030	-40.773	101.646	-41.306	-8191	255	
765.024	1	1	0	0	0.2447	0.074032	0.33555	0.16954	0.081756	0.17548	0.033907	0.10641	0.12695	0.25722	0.20823	0.095393	0.040277	0.31079	0.13176	0.13499	-1.8542	-2.8146	-2.7896	-2.3208	-3.2333	-2.5875	-2.8354	-3.2958	-2.3271	-3.025	-2.9333	-2.4688	-3.2479	-2.5021	-2.5812	-3.0958	227.767	131.586	130.685	-17.467	73.068	18.531	145.228	263.412	220.174	94.929	272.111	224.494	250.338	72.333	224.040	104.783	0.00020868	7.0814e-05	8.0231e-05	965.31	3.3548e-06	2.3685e-06	1053.4	202.62	2.542e-06	2.902e-06	264.48	75.263	59.068	17.52	1.6582e-06	24.846	0.00010082	7.8686e-05	2.2192e-05	940.36	8.9766e-07	9.0015e-07	1037.1	200.99	9.6253e-07	8.5102e-07	260.81	74.96	58.149	17.605	8.8001e-07	24.996	22.830	77.951	25.429	-62.306	56.354	72.416	-61.946	-54.791	47.988	79.150	-55.134	-48.064	-47.452	-40.530	16.180	-41.328	-8191	255	
765.097	1	1	0	0	0.34798	0.080857	0.14991	0.072333	0.22134	0.20876	0.33679	0.087801	0.11604	0.21575	0.062307	0.25863	0.20315	0.20793	0.16192	0.36869	-1.8875	-2.9313	-2.8042	-2.2625	-3.0083	-2.5208	-2.6354	-3.3063	-2.1917	-2.9229	-2.8229	-2.1854	-3.1188	-2.5479	-2.3625	-3.1458	153.730	-21.646	79.022	140.240	187.514	104.100	206.810	172.154	141.881	19.208	132.785	248.092	192.611	-60.629	226.465	283.927	0.00022491	0.00028355	6.6111e-05	965.9	1.4357e-06	2.3372e-06	1051.9	203.09	3.2004e-06	2.5058e-06	264.88	74.998	58.524	17.571	2.3268e-06	24.837	9.6702e-05	8.0103e-05	2.1171e-05	942.35	8.7319e-07	8.4133e-07	1037.3	201.48	9.6743e-07	8.7548e-07	261.39	74.999	57.941	17.598	8.9589e-07	25.038	46.828	17.460	-2.560	-62.054	132.714	86.867	-62.189	-54.477	32.369	122.330	-55.348	-48.301	-47.844	-40.729	70.126	-41.147	-8191	255	
765.193	1	1	0	0	0.078821	0.17428	0.13478	0.10033	0.11185	0.091702	0.058539	0.25037	0.045327	0.21921	0.18232	0.29156	0.13836	0.21655	0.0529	0.11724	-1.8021	-2.9771	-2.875	-2.2208	-2.9604	-2.6688	-2.6458	-3.3708	-2.2333	-2.6688	-3.0479	-2.4292	-3.0563	-2.5542	-2.5104	-3.2896	269.986	-17.923	248.944	-46.835	-35.616	60.937	91.173	135.288	145.898	219.425	258.124	-35.291	103.418	12.019	-21.597	286.039	0.00020711	0.00031508	4.4111e-05	961.57	2.422e-06	3.8307e-06	1051.3	202.13	3.1465e-06	1.5733e-06	263.8	75.164	58.227	17.605	3.2364e-06	24.883	9.7657e-05	7.7262e-05	2.1127e-05	941.92	9.3339e-07	8.2454e-07	1036.9	200.61	9.4838e-07	8.1679e-07	260.19	74.951	57.886	17.553	9.3989e-07	24.975	47.341	18.907	31.106	-61.965	50.525	92.198	-61.849	-54.257	55.059	61.251	-54.826	-48.030	-47.472	-40.777	86.024	-40.894	-8191	255	
765.289	1	1	0	0	0.080442	0.2181	0.13919	0.12074	0.18385	0.032204	0.30081	0.21425	0.095926	0.21824	0.21588	0.10749	0.063649	0.047804	0.13648	0.29729	-2.1146	-2.7667	-3.1729	-2.3042	-3.0771	-2.7229	-2.4625	-3.2708	-2.3833	-2.6771	-3.2708	-2.2604	-3.0271	-2.9146	-2.4542	-3.2125	-33.564	60.263	183.740	-24.389	237.128	154.232	179.190	-66.226	-70.981	24.976	265.077	211.588	84.908	149.273	225.117	161.068	0.00018618	0.00012406	6.2451e-05	965.59	2.711e-06	1.0325e-06	1058.8	203.54	2.0115e-06	2.1949e-06	265.96	75.035	58.548	17.473	1.7954e-06	24.883	9.5972e-05	7.6134e-05	2.1774e-05	941.54	8.923e-07	8.309e-07	1038.2	201.04	9.3245e-07	8.3898e-07	260.65	74.825	58.018	17.516	9.0884e-07	25.014	33.896	-16.553	11.338	-62.103	49.362	163.671	-61.458	-54.103	121.833	129.662	-54.991	-48.267	-47.919	-41.247	109.983	-41.518	-8191	255	
765.408	1	1	0	0	0.37249	0.20205	0.091071	0.34	0.18925	0.052465	0.10177	0.15627	0.12797	0.15346	0.14118	0.21612	0.12768	0.070827	0.23076	0.12865	-2.0729	-2.5917	-3.3417	-2.2687	-2.8771	-2.8688	-2.4813	-3.2167	-2.5729	-2.6	-3.1875	-2.3021	-3.0354	-3.1271	-2.3688	-3.0479	201.939	-26.340	136.957	171.219	135.116	166.981	141.087	-19.356	16.419	21.483	-26.090	15.345	170.029	-13.388	138.735	168.357	0.00026829	0.00030664	0.00014538	963.58	3.9063e-06	1.9059e-06	1056.6	203.46	1.9158e-06	3.7673e-06	265.53	75.212	58.138	17.583	2.0082e-06	24.995	9.6326e-05	8.0086e-05	2.1627e-05	939.97	9.0909e-07	8.702e-07	1036.5	201.2	9.4286e-07	8.849e-07	260.45	74.947	57.725	17.602	8.8483e-07	25.019	46.283	3.502	19.392	-62.334	87.571	92.238	-62.330	-54.338	119.174	83.726	-54.956	-48.495	-48.025	-40.819	88.408	-41.470	-8191	255	
765.504	1	1	0	0	0.21887	0.27177	0.089171	0.12952	0.30311	0.22228	0.040647	0.15659	0.16958	0.013191	0.20929	0.069174	0.18275	0.025404	0.15169	0.182	-2.1667	-2.5792	-3.1937	-2.3479	-2.9104	-2.9813	-2.2854	-3.3083	-2.8896	-2.4583	-3.2938	-2.375	-2.6167	-3.0896	-2.2146	-2.9146	212.817	151.359	207.868	28.550	-72.392	80.374	109.287	-4.908	164.588	265.756	246.055	70.478	-58.028	274.341	39.031	76.973	0.0002083	0.00036224	8.2042e-05	962.22	1.4776e-06	3.2668e-06	1052.4	202.52	1.7828e-06	1.7539e-06	264.36	75.27	58.403	17.578	2.7331e-06	24.975	9.5694e-05	8.4047e-05	2.2226e-05	939.33	9.2044e-07	8.6339e-07	1035.8	200.83	9.1803e-07	8.7294e-07	260.49	74.771	57.803	17.587	9.2071e-07	25.007	48.099	10.268	5.133	-62.596	85.557	78.366	-61.859	-54.471	-8.367	65.501	-54.897	-48.695	-47.809	-41.023	73.647	-41.257	-8191	255	
765.601	1	1	0	0	0.2835	0.098199	0.092863	0.16864	0.18288	0.1892	0.1172	0.1307	0.17918	0.18301	0.13917	0.17158	0.042746	0.20853	0.16158	0.1234	-2.4417	-2.1917	-3.0125	-2.7188	-2.5375	-3.1021	-2.5271	-2.9146	-2.8187	-2.2812	-3.1292	-2.4646	-2.6208	-3.125	-2.4396	-2.925	226.873	-34.178	273.838	277.377	72.561	247.249	172.123	18.679	59.223	14.397	48.502	275.251	100.340	126.641	123.027	-18.411	0.00023194	0.00030535	5.4914e-05	963.71	3.1381e-06	2.1078e-06	1055.8	202.72	4.0525e-07	3.1748e-06	265.75	74.907	58.08	17.571	2.0708e-06	25.211	9.6431e-05	7.9971e-05	2.1489e-05	939.94	9.2526e-07	8.2772e-07	1037.8	200.99	9.4028e-07	9.0319e-07	260.46	74.728	57.777	17.586	9.4927e-07	25.077	53.556	-16.528	24.772	-62.689	85.514	66.169	-62.502	-54.473	185.612	85.148	-55.644	-48.189	-47.840	-41.111	70.681	-41.815	-8191	255	
765.721	1	1	0	0	0.089939	0.26868	0.17631	0.23024	0.10286	0.17641	0.035581	0.1047	0.23368	0.044953	0.05236	0.256	0.14847	0.1269	0.069462	0.12718	-2.575	-2.5062	-3.1792	-2.6458	-2.3812	-3.15	-2.6167	-2.9604	-2.9417	-2.3396	-3.1542	-2.7271	-2.3625	-3.2771	-2.4396	-2.8438	-14.795	126.873	206.978	254.822	-30.123	77.514	-30.138	255.284	-34.072	-57.610	223.411	-7.951	218.151	57.967	241.101	180.945	0.00018474	0.00036415	7.9467e-05	962.12	2.3611e-06	1.5197e-06	1056.8	202.5	2.0063e-06	2.7459e-06	264.13	74.828	58.619	17.505	3.8946e-06	24.994	9.8688e-05	8.4253e-05	2.2107e-05	940.92	9.3205e-07	8.5885e-07	1037.3	200.58	9.5079e-07	9.175e-07	260.66	74.835	57.992	17.603	8.9741e-07	25.046	35.847	-0.827	59.738	-62.380	56.378	75.420	-62.173	-54.353	65.329	123.757	-54.717	-48.394	-48.332	-40.884	100.216	-40.897	-8191	255	
765.793	1	1	0	0	0.12372	0.012025	0.19113	0.15591	0.15829	0.13643	0.36209	0.18411	0.172	0.25273	0.23784	0.17729	0.15242	0.10239	0.19445	0.14542	-2.6604	-2.2687	-3.1437	-2.7146	-2.1792	-3.1042	-2.7	-2.8375	-3.2292	-2.1167	-3.0771	-2.7438	-2.2854	-3.1937	-2.1146	-2.8292	57.016	214.286	-46.619	187.048	255.274	62.992	-44.629	-48.486	101.739	4.491	174.270	74.446	-64.984	172.974	179.010	54.518	0.00025531	0.00035793	5.6107e-05	963.24	3.0268e-06	3.2662e-06	1054.7	203.75	2.5383e-06	2.2323e-06	264.42	75.315	58.083	17.58	3.7463e-06	25.001	9.4046e-05	8.5891e-05	2.1997e-05	942.13	9.3169e-07	8.5422e-07	1038.6	201	8.9854e-07	8.8753e-07	260.94	74.926	57.85	17.607	8.9786e-07	25.006	33.756	31.224	18.042	-62.265	99.847	48.562	-62.303	-54.466	64.722	132.639	-54.734	-48.205	-48.240	-40.735	95.166	-41.511	-8191	255	
765.889	1	1	0	0	0.10722	0.28322	0.18451	0.13561	0.038572	0.15008	0.31828	0.068908	0.17982	0.06384	0.066277	0.1166	0.26399	0.11922	0.21933	0.094954	-3.0042	-2.1271	-3.0042	-2.8646	-2.2438	-3.05	-2.6625	-2.5896	-3.175	-2.3292	-2.9917	-3.0542	-2.3312	-3.2125	-2.5146	-2.45	-62.658	192.294	79.798	189.983	11.591	66.494	260.406	131.222	264.616	150.493	3.088	-19.610	-40.367	185.760	159.013	261.134	0.00019902	0.00029938	5.0471e-05	964.39	2.7359e-06	3.2276e-06	1061	203.31	2.1559e-06	2.5852e-06	263.92	75.461	58.196	17.459	1.7993e-06	24.94	9.5393e-05	8.128e-05	2.1331e-05	942.86	9.7492e-07	8.8127e-07	1040.2	201.12	9.5871e-07	8.5854e-07	260.74	75.144	57.858	17.571	9.0428e-07	25.091	30.617	2.672	1.375	-62.184	52.601	87.490	-61.981	-54.179	159.994	81.667	-55.031	-48.376	-48.102	-40.929	85.945	-41.342	-8191	255	
766.010	1	1	0	0	0.10927	0.0053716	0.10817	0.044641	0.092073	0.24906	0.38335	0.30632	0.23067	0.039029	0.053512	0.18221	0.053477	0.04202	0.2059	0.29104	-2.8917	-2.4062	-2.7979	-3.0771	-2.3125	-3.1479	-2.7542	-2.3979	-3.0292	-2.6292	-2.8688	-3.1437	-2.2271	-3.1667	-2.7958	-2.3625	233.851	179.846	-61.741	223.645	-1.660	-23.524	191.080	246.732	38.931	19.042	229.082	-59.503	-17.993	203.494	228.274	-52.230	0.00017747	0.00042011	6.5233e-05	962.81	2.357e-06	2.5744e-06	1058.1	202.98	3.8011e-06	3.8802e-06	264.84	75.083	58.385	17.471	2.2025e-06	24.698	9.6506e-05	8.3034e-05	2.2217e-05	941.53	9.4607e-07	8.6983e-07	1039.5	201.32	9.1688e-07	8.9079e-07	260.93	74.944	57.842	17.563	8.917e-07	24.996	48.544	24.780	-7.360	-62.195	88.945	63.110	-62.227	-54.311	106.730	88.091	-54.904	-48.021	-47.864	-40.720	115.439	-41.100	-8191	255	
766.106	1	1	0	0	0.22835	0.26012	0.2535	0.18755	0.19943	0.13183	0.052664	0.13119	0.0554	0.19255	0.29346	0.20663	0.10796	0.032835	0.056018	0.058291	-2.725	-2.4	-2.7938	-3.1771	-2.3083	-3.1646	-2.8917	-2.3375	-3.2667	-2.4854	-2.6271	-2.9708	-2.1396	-3.0583	-3.0583	-2.4	-23.404	112.810	287.726	274.578	223.564	149.776	-13.064	253.213	8.858	-4.819	199.745	274.530	271.228	-21.233	39.937	41.856	0.00021627	0.00032174	7.8541e-05	965.95	1.8597e-06	3.0098e-06	1054.2	203	2.1847e-06	2.8003e-06	263.51	74.909	58.167	17.505	3.4557e-06	25.07	9.537e-05	8.072e-05	2.2825e-05	943.34	9.3517e-07	9.0813e-07	1037.3	201.1	8.9356e-07	8.7557e-07	260.8	74.857	57.8	17.639	9.2392e-07	24.993	49.060	13.433	41.300	-62.598	102.642	43.053	-61.896	-54.159	6.494	95.806	-54.619	-48.357	-47.224	-40.571	70.946	-40.964	-8191	255	
766.202	1	1	0	0	0.11723	0.035774	0.22775	0.14058	0.17302	0.16117	0.35195	0.30669	0.12544	0.12288	0.133	0.038845	0.035903	0.17897	0.15882	0.13504	-2.6583	-2.6896	-2.4688	-3.0438	-2.2604	-2.9125	-3.0458	-2.4833	-3.2458	-2.4333	-2.6396	-3.1813	-2.2854	-2.9229	-2.9354	-2.1604	28.063	262.392	210.223	-58.694	5.516	171.548	255.075	215.192	40.647	214.321	277.634	-8.063	237.926	265.431	42.635	139.991	0.00016172	0.00036041	4.718e-05	967.62	2.951e-06	2.7935e-06	1059.2	203.33	2.8548e-06	2.1979e-06	266.15	75.111	58.306	17.657	2.8237e-06	25.071	9.3836e-05	8.5018e-05	2.2451e-05	944.27	9.6009e-07	8.4515e-07	1038.9	200.98	9.5328e-07	8.686e-07	261.53	74.879	57.797	17.648	9.0482e-07	25.084	48.422	0.061	31.474	-62.266	90.196	76.248	-62.249	-54.531	111.278	84.250	-54.745	-48.010	-47.803	-40.415	76.166	-40.976	-8191	255	
766.321	1	1	0	0	0.081451	0.22258	0.2932	0.10936	0.20267	0.15502	0.23421	0.12094	0.1513	0.17808	0.11617	0.15156	0.0045367	0.036323	0.13033	0.19826	-2.725	-2.5854	-2.3625	-3.2812	-2.3396	-2.7625	-3.15	-2.4583	-3.0479	-2.7708	-2.3375	-3.1542	-2.6042	-2.7458	-3.125	-2.1063	-44.279	80.431	25.946	-8.681	17.660	253.094	124.160	238.171	61.877	36.407	282.923	153.511	117.916	-7.578	0.211	218.709	0.00020659	0.00041489	2.4598e-05	964.63	1.9474e-06	3.2289e-06	1061.6	203.3	1.2436e-06	3.0002e-06	264.17	75	58.451	17.478	3.1684e-06	25.204	9.61e-05	7.9806e-05	2.3899e-05	941.65	9.801e-07	8.6865e-07	1041.2	201.32	9.4536e-07	8.7059e-07	261	74.899	57.926	17.632	8.9616e-07	25.118	40.064	14.762	-4.767	-61.926	72.161	110.321	-62.012	-54.164	-34.587	85.620	-54.523	-47.734	-47.940	-40.346	62.498	-41.353	-8191	255	
766.393	1	1	0	0	0.10772	0.37276	0.16878	0.13983	0.26007	0.12463	0.15198	0.23465	0.23752	0.27383	0.12606	0.085517	0.10215	0.10161	0.15003	0.045142	-2.6188	-2.8167	-2.3271	-3.1312	-2.4437	-2.4625	-3.3667	-2.4479	-2.6688	-2.9167	-2.5042	-3.1958	-2.6042	-2.4208	-3.0062	-2.2938	105.257	45.336	272.682	101.272	71.397	243.922	201.769	259.043	255.433	245.783	123.218	-61.667	-9.590	-68.232	53.460	251.396	0.00014351	0.00021196	5.2401e-05	963.21	1.881e-06	3.5031e-06	1060.7	204.95	3.6417e-06	1.2983e-06	264.86	75.302	57.906	17.563	2.4736e-06	25.045	9.8349e-05	7.8703e-05	2.2999e-05	941.82	9.4241e-07	8.9407e-07	1039.7	201.78	9.499e-07	9.1624e-07	261.06	75.044	57.708	17.637	8.8991e-07	25.076	56.962	25.076	39.397	-62.131	88.269	78.876	-62.172	-54.571	100.589	66.896	-55.180	-48.404	-47.900	-40.568	103.387	-41.622	-8191	255	
766.489	1	1	0	0	0.036283	0.22481	0.19081	0.14646	0.024446	0.21803	0.18317	0.28093	0.19978	0.12926	0.16991	0.10583	0.21439	0.15288	0.016822	0.095409	-2.4938	-2.8958	-2.2854	-3.1167	-2.5167	-2.4708	-3.2979	-2.4833	-2.7792	-2.9938	-2.4542	-3.1021	-2.6417	-2.4792	-3.0375	-2.3896	276.231	231.295	168.083	148.442	162.661	22.630	256.337	-49.069	96.356	71.604	104.564	69.435	-6.308	-48.710	10.073	257.893	0.00020908	0.00039746	4.6422e-05	965.51	3.5074e-06	3.709e-06	1066	203.78	2.6358e-06	1.3192e-06	266.84	74.992	58.749	17.579	1.5778e-06	24.89	0.00010199	7.671e-05	2.3176e-05	943.5	9.3687e-07	9.1757e-07	1041.4	201.26	9.9813e-07	8.4323e-07	261.23	74.864	58.029	17.608	9.0419e-07	25.034	42.234	-3.355	40.044	-62.435	86.995	68.349	-62.387	-54.639	30.247	84.822	-55.184	-48.405	-48.101	-40.633	49.972	-41.589	-8191	255	
766.585	1	1	0	0	0.20998	0.13907	0.096726	0.18367	0.21392	0.23434	0.29193	0.075623	0.11591	0.34648	0.1346	0.073851	0.24547	0.29597	0.13386	0.20678	-2.2062	-3.1708	-2.2583	-3.0312	-2.7417	-2.2479	-3.2438	-2.6104	-2.6417	-3.1146	-2.3396	-2.9667	-2.9125	-2.3771	-3.0458	-2.6375	252.916	-44.463	151.975	75.041	68.700	27.571	178.701	187.511	101.166	-46.865	-1.299	-23.427	237.389	251.322	-69.240	20.067	0.00019615	0.00025117	6.2867e-05	966.81	2.2909e-06	3.8418e-06	1058.2	203.59	5.2458e-06	4.6911e-06	264.24	75.621	58.506	17.594	3.3793e-06	24.939	9.9267e-05	7.2708e-05	2.2713e-05	942.74	9.4303e-07	8.9034e-07	1038.3	201.46	9.3405e-07	8.5954e-07	260.25	75.029	57.937	17.627	8.9572e-07	25.01	47.500	8.564	8.480	-62.423	74.118	133.347	-62.480	-54.960	59.774	102.542	-55.487	-48.629	-48.436	-40.373	53.993	-41.566	-8191	255	
766.705	1	1	0	0	0.11934	0.22053	0.27025	0.16278	0.061187	0.20476	0.13921	0.20387	0.14717	0.16353	0.29079	0.06506	0.051917	0.096303	0.11644	0.13598	-2.1583	-2.9417	-2.2042	-2.9375	-3.1333	-2.1479	-3.4292	-2.5396	-2.425	-3.1312	-2.4146	-2.9625	-2.9354	-2.3646	-3.4229	-2.7938	221.348	-56.337	4.797	215.321	61.465	195.511	227.062	238.878	-68.165	29.141	270.784	-55.205	230.514	270.702	249.874	187.232	0.00021712	0.00018312	5.3211e-05	965.67	3.3759e-06	2.7324e-06	1057.4	203.13	3.2976e-06	2.9913e-06	262.94	75.007	58.476	17.509	3.5441e-06	24.862	9.4904e-05	7.834e-05	2.3555e-05	941.87	8.7729e-07	9.0868e-07	1039.2	201.03	9.8532e-07	8.6823e-07	260.08	75.045	57.93	17.614	8.6796e-07	25.031	27.940	4.409	45.692	-62.272	85.092	57.247	-62.178	-54.681	40.901	86.924	-55.108	-48.163	-47.951	-40.912	69.709	-41.258	-8191	255	
766.802	1	1	0	0	0.13729	0.23839	0.18693	0.15491	0.22916	0.11789	0.2959	0.28457	0.37247	0.085181	0.19554	0.20953	0.36549	0.11362	0.22677	0.014454	-2.2229	-3.075	-2.3125	-2.9771	-2.9646	-2.2458	-3.2417	-2.7792	-2.3583	-3.2812	-2.3375	-2.7062	-3.1896	-2.1125	-2.9021	-2.9729	112.742	-0.543	87.524	-48.265	4.671	51.310	200.450	186.693	59.519	-3.563	44.801	240.281	241.793	273.737	7.329	7.502	0.00019871	0.00020139	6.7081e-05	962.56	2.3762e-06	2.7164e-06	1061.1	203.9	1.927e-06	2.6627e-06	264.24	75.475	58.149	17.532	2.2572e-06	24.849	9.7642e-05	7.8727e-05	2.2086e-05	940.73	9.0329e-07	8.76e-07	1039.7	201.42	9.6084e-07	8.4151e-07	260.25	75.091	57.891	17.582	9.033e-07	24.964	32.616	27.143	12.713	-62.334	69.417	60.507	-62.278	-54.305	73.854	72.677	-55.160	-48.268	-47.742	-40.823	35.717	-41.067	-8191	255	
766.898	1	1	0	0	0.14425	0.1467	0.20572	0.084884	0.096198	0.13081	0.24847	0.20927	0.16473	0.16764	0.24335	0.20711	0.17639	0.076211	0.12405	0.13475	-2.0583	-3.2042	-2.4854	-2.7021	-3.1458	-2.3833	-3.2125	-2.9854	-2.3104	-3.2313	-2.6042	-2.6125	-3.2438	-2.3667	-2.8812	-3.0583	-70.835	-23.955	-12.792	-64.935	-46.028	-64.985	212.736	209.997	-49.538	-39.284	106.260	178.759	10.157	103.224	99.905	12.106	0.0001492	0.00052399	0.00011208	960.56	3.6438e-06	1.421e-06	1055.3	202.98	2.7459e-06	2.0311e-06	266.32	75.273	58.304	17.501	2.4973e-06	24.915	9.9515e-05	8.0481e-05	2.3266e-05	940.84	9.2839e-07	9.1058e-07	1037.2	200.91	9.5933e-07	8.7593e-07	261.77	75.047	57.836	17.588	9.0036e-07	25.017	30.816	13.810	43.382	-62.067	54.450	88.748	-62.360	-55.080	32.552	78.398	-55.375	-48.076	-47.594	-40.771	64.344	-41.686	-8191	255	
766.994	1	1	0	0	0.20228	0.28847	0.24489	0.20101	0.18406	0.2294	0.39554	0.16286	0.21409	0.13721	0.061091	0.072466	0.28479	0.29333	0.17062	0.22374	-1.9479	-3.1354	-2.6229	-2.5208	-3.3708	-2.2438	-3.1042	-2.9708	-2.2292	-3.1479	-2.6063	-2.4479	-3.3167	-2.2479	-2.8271	-3.0979	236.454	85.176	105.100	225.565	254.168	149.891	162.649	-5.658	-59.578	-62.852	279.233	107.617	71.102	-71.531	66.091	212.298	0.00022457	0.0004068	5.324e-05	967.15	4.1197e-06	2.5791e-06	1059.6	202.97	2.4906e-06	2.0901e-06	265.54	74.946	58.019	17.551	2.415e-06	24.908	9.9365e-05	8.2614e-05	2.1857e-05	940.96	9.4571e-07	8.9815e-07	1038	200.72	9.5399e-07	8.9704e-07	261.02	74.876	57.846	17.571	8.7644e-07	25.037	27.182	15.042	39.435	-62.663	39.798	92.397	-62.194	-54.709	105.983	85.865	-54.878	-48.046	-47.552	-40.492	65.438	-41.492	-8191	255	
767.090	1	1	0	0	0.11709	0.036855	0.059196	0.16509	0.23142	0.33538	0.2483	0.043882	0.14294	0.14111	0.10861	0.2545	0.13141	0.065836	0.13863	0.14588	-1.8875	-2.9667	-2.7792	-2.4208	-3.2188	-2.4521	-2.8896	-3.0292	-2.3479	-2.9437	-2.9917	-2.3875	-3.1312	-2.5958	-2.5938	-3.25	139.766	49.247	251.184	249.030	164.311	140.925	225.859	265.992	-19.716	94.662	264.101	52.814	29.454	286.702	251.915	265.741	0.00020248	0.00032261	8.4713e-05	960.98	1.2587e-06	1.6735e-06	1058.2	203.39	7.3252e-07	2.2193e-06	264.5	75.064	57.808	17.487	2.7043e-06	24.917	9.8793e-05	7.8785e-05	2.2568e-05	939.35	9.1838e-07	8.8962e-07	1037	200.81	9.6583e-07	8.5229e-07	260.18	74.993	57.751	17.559	8.8492e-07	24.993	35.981	26.072	12.843	-61.894	65.183	93.694	-62.669	-54.987	137.998	84.516	-55.363	-48.657	-48.193	-41.257	53.110	-41.899	-8191	255	
767.186	1	1	0	0	0.33186	0.05075	0.17473	0.13048	0.11155	0.20372	0.16509	0.24724	0.0073908	0.14327	0.0261	0.058292	0.10594	0.33509	0.099749	0.060784	-1.9042	-3.1125	-2.7875	-2.1917	-3.0958	-2.3542	-2.6167	-3.3146	-2.4146	-2.9396	-2.9667	-2.3646	-3.2292	-2.5	-2.4229	-3.275	155.440	-31.623	-61.532	-65.280	80.594	49.202	223.212	-58.807	127.890	-24.904	189.007	277.137	219.606	102.593	149.893	-70.404	0.00021079	0.00033013	7.4362e-05	958.07	2.6953e-06	1.8184e-06	1055.9	203.76	3.0523e-06	3.2976e-06	262.85	75.287	58.143	17.49	5.2521e-06	25.009	0.00010095	8.0457e-05	2.2141e-05	938.28	9.099e-07	8.8798e-07	1036.1	201.05	9.5621e-07	8.734e-07	260.07	74.871	57.734	17.586	9.1187e-07	25.078	41.535	20.955	45.378	-62.740	87.566	82.659	-62.661	-55.221	53.567	85.185	-55.627	-48.767	-48.303	-40.596	64.997	-41.871	-8191	255	
767.282	1	1	0	0	0.078341	0.26921	0.18845	0.17693	0.30956	0.13754	0.06037	0.073758	0.12412	0.18862	0.095706	0.16415	0.1701	0.036546	0.31159	0.30233	-1.9188	-2.8083	-2.8208	-2.3125	-3.0521	-2.4792	-2.5333	-3.1917	-2.3125	-2.8729	-2.9146	-2.3521	-3.0083	-2.9208	-2.5167	-3.1979	-41.606	196.935	78.449	123.327	-71.776	24.118	7.933	122.988	194.162	-19.362	276.109	123.253	-41.223	208.128	153.025	-61.243	0.00016739	0.00035538	4.7881e-05	960.01	3.6635e-06	2.8422e-06	1054.3	201.65	2.6807e-06	2.5976e-06	264.05	75.104	58.001	17.405	1.4766e-06	24.878	9.601e-05	7.7945e-05	2.1212e-05	938.14	9.0114e-07	8.486e-07	1035.6	200.52	9.4349e-07	8.3825e-07	260.29	74.895	57.835	17.527	9.0357e-07	24.956	39.020	2.613	74.558	-62.694	53.019	66.140	-62.370	-54.997	114.820	78.335	-55.631	-48.445	-48.439	-41.076	80.572	-41.842	-8191	255	
767.401	1	1	0	0	0.13816	0.19081	0.12753	0.55411	0.12998	0.15143	0.17593	0.129	0.1942	0.1285	0.36024	0.14656	0.15262	0.12798	0.20985	0.067574	-1.8854	-2.5854	-2.975	-2.4083	-2.8854	-2.9062	-2.5083	-3.2354	-2.4833	-2.5	-3.0292	-2.2188	-3.05	-2.8583	-2.3396	-3.2167	-59.362	158.826	236.770	203.559	-63.058	85.402	244.817	190.323	118.630	75.556	-61.639	83.289	240.514	23.754	-8.753	-51.270	0.00016796	0.00036354	4.8069e-05	965.14	2.7978e-06	2.035e-06	1051.7	203.22	8.8227e-07	4.1525e-06	264.01	75.615	57.907	17.415	4.3564e-06	24.916	9.9237e-05	7.8818e-05	2.2215e-05	940	8.8882e-07	8.6348e-07	1036.3	200.97	9.2168e-07	8.9359e-07	260.04	75.066	57.569	17.549	9.2463e-07	25.017	46.567	31.279	26.393	-62.705	81.207	88.740	-62.407	-55.012	23.391	96.086	-55.843	-48.371	-48.135	-41.307	54.571	-42.056	-8191	255	
#DATA ENDS
