BOXY.EXE: ISS Imagent and Oximeter Data Acquisition Program Version 0.80
Ascii Record File

#ACQ INFORMATION
2  Detector Channels 
16  External MUX Channels 
1  Auxiliary Channels 
5000  Waveform (CCF) Frequency (Hz)
1  Waveforms Skipped 
30  Waveforms Averaged 
1  Cycles Averaged 
16  Acquisitions per Waveform 
10.0806  Updata Rate (Hz) 

#FILE INFORMATION
TRUE -- External MUX Channel results are PARSED.
FALSE -- AC DC and Phase are NOT grouped.
TRUE -- Companion Program Settings File CREATED.
FALSE -- AC data not excluded
FALSE -- DC data not excluded
FALSE -- Phase data not excluded
FALSE -- Auxillary Chn. data not excluded
Tab delimiters

#CALIBRATION STATE
TRUE -- Waveform Calibration Values APPLIED.


#AUX CALIBRATION VALUES
Val Type	aux-1	

Term	1.0000e+00	
Factor	0.0000e+00	


#WF CALIBRATION VALUES
A = Detector Channel
Val Type	A-AC1	A-AC2	A-AC3	A-AC4	A-AC5	A-AC6	A-AC7	A-AC8	A-AC9	A-AC10	A-AC11	A-AC12	A-AC13	A-AC14	A-AC15	A-AC16	A-DC1	A-DC2	A-DC3	A-DC4	A-DC5	A-DC6	A-DC7	A-DC8	A-DC9	A-DC10	A-DC11	A-DC12	A-DC13	A-DC14	A-DC15	A-DC16	A-Ph1	A-Ph2	A-Ph3	A-Ph4	A-Ph5	A-Ph6	A-Ph7	A-Ph8	A-Ph9	A-Ph10	A-Ph11	A-Ph12	A-Ph13	A-Ph14	A-Ph15	A-Ph16	

Term	0.00000e+00	0.00000e+00	0.00000e+00	0.00000e+00	0.00000e+00	0.00000e+00	0.00000e+00	0.00000e+00	0.00000e+00	0.00000e+00	0.00000e+00	0.00000e+00	0.00000e+00	0.00000e+00	0.00000e+00	0.00000e+00	0.00000e+00	0.00000e+00	0.00000e+00	0.00000e+00	0.00000e+00	0.00000e+00	0.00000e+00	0.00000e+00	0.00000e+00	0.00000e+00	0.00000e+00	0.00000e+00	0.00000e+00	0.00000e+00	0.00000e+00	0.00000e+00	0.00000e+00	0.00000e+00	0.00000e+00	0.00000e+00	0.00000e+00	0.00000e+00	0.00000e+00	0.00000e+00	0.00000e+00	0.00000e+00	0.00000e+00	0.00000e+00	0.00000e+00	0.00000e+00	0.00000e+00	0.00000e+00	
Factor	1.00000e+00	1.00000e+00	1.00000e+00	1.00000e+00	1.00000e+00	1.00000e+00	1.00000e+00	1.00000e+00	1.00000e+00	1.00000e+00	1.00000e+00	1.00000e+00	1.00000e+00	1.00000e+00	1.00000e+00	1.00000e+00	1.00000e+00	1.00000e+00	1.00000e+00	1.00000e+00	1.00000e+00	1.00000e+00	1.00000e+00	1.00000e+00	1.00000e+00	1.00000e+00	1.00000e+00	1.00000e+00	1.00000e+00	1.00000e+00	1.00000e+00	1.00000e+00	X	X	X	X	X	X	X	X	X	X	X	X	X	X	X	X	

B = Detector Channel
Val Type	B-AC1	B-AC2	B-AC3	B-AC4	B-AC5	B-AC6	B-AC7	B-AC8	B-AC9	B-AC10	B-AC11	B-AC12	B-AC13	B-AC14	B-AC15	B-AC16	B-DC1	B-DC2	B-DC3	B-DC4	B-DC5	B-DC6	B-DC7	B-DC8	B-DC9	B-DC10	B-DC11	B-DC12	B-DC13	B-DC14	B-DC15	B-DC16	B-Ph1	B-Ph2	B-Ph3	B-Ph4	B-Ph5	B-Ph6	B-Ph7	B-Ph8	B-Ph9	B-Ph10	B-Ph11	B-Ph12	B-Ph13	B-Ph14	B-Ph15	B-Ph16	

Term	0.00000e+00	0.00000e+00	0.00000e+00	0.00000e+00	0.00000e+00	0.00000e+00	0.00000e+00	0.00000e+00	0.00000e+00	0.00000e+00	0.00000e+00	0.00000e+00	0.00000e+00	0.00000e+00	0.00000e+00	0.00000e+00	0.00000e+00	0.00000e+00	0.00000e+00	0.00000e+00	0.00000e+00	0.00000e+00	0.00000e+00	0.00000e+00	0.00000e+00	0.00000e+00	0.00000e+00	0.00000e+00	0.00000e+00	0.00000e+00	0.00000e+00	0.00000e+00	-1.03147e+02	-1.27696e+02	-1.26040e+02	-1.81176e+02	-6.23970e+01	-6.75592e+01	-1.58780e+02	-1.62015e+02	-5.65277e+01	-6.22897e+01	-1.72992e+02	-1.70125e+02	-1.79834e+02	-1.76748e+02	-6.70119e+01	-1.49179e+02	
Factor	1.55199e-05	1.44807e-04	4.06336e-05	1.55882e-01	1.24127e-06	1.48260e-06	1.50087e-01	4.62077e-02	1.01788e-06	1.60599e-06	9.62183e-02	2.73408e-02	4.09599e-02	8.78388e-03	1.32503e-06	1.25402e-02	7.43530e-06	1.06435e-05	2.98820e-06	8.29155e-02	1.11264e-07	1.18464e-07	7.49576e-02	2.47378e-02	1.11329e-07	1.17809e-07	4.95847e-02	1.42385e-02	2.21954e-02	4.73677e-03	1.13755e-07	6.51851e-03	X	X	X	X	X	X	X	X	X	X	X	X	X	X	X	X	



#DISTANCE SETTINGS
A = Detector Channel
A-1	A-2	A-3	A-4	A-5	A-6	A-7	A-8	A-9	A-10	A-11	A-12	A-13	A-14	A-15	A-16	

2.5000e+00	3.0000e+00	2.5000e+00	3.0000e+00	2.0000e+00	3.0000e+00	1.5000e+00	3.0000e+00	3.0000e+00	3.0000e+00	3.0000e+00	3.0000e+00	3.0000e+00	3.0000e+00	1.5000e+00	3.0000e+00	

B = Detector Channel
B-1	B-2	B-3	B-4	B-5	B-6	B-7	B-8	B-9	B-10	B-11	B-12	B-13	B-14	B-15	B-16	

1.0000e+01	1.0000e+01	1.0000e+01	1.4400e+00	1.0000e+01	1.0000e+01	1.5100e+00	1.9400e+00	1.0000e+01	1.0000e+01	1.9900e+00	2.4900e+00	2.4100e+00	2.9000e+00	1.0000e+01	2.9800e+00	




#DATA BEGINS
time	group	step	mark	flag	A-AC1	A-AC2	A-AC3	A-AC4	A-AC5	A-AC6	A-AC7	A-AC8	A-AC9	A-AC10	A-AC11	A-AC12	A-AC13	A-AC14	A-AC15	A-AC16	A-DC1	A-DC2	A-DC3	A-DC4	A-DC5	A-DC6	A-DC7	A-DC8	A-DC9	A-DC10	A-DC11	A-DC12	A-DC13	A-DC14	A-DC15	A-DC16	A-Ph1	A-Ph2	A-Ph3	A-Ph4	A-Ph5	A-Ph6	A-Ph7	A-Ph8	A-Ph9	A-Ph10	A-Ph11	A-Ph12	A-Ph13	A-Ph14	A-Ph15	A-Ph16	B-AC1	B-AC2	B-AC3	B-AC4	B-AC5	B-AC6	B-AC7	B-AC8	B-AC9	B-AC10	B-AC11	B-AC12	B-AC13	B-AC14	B-AC15	B-AC16	B-DC1	B-DC2	B-DC3	B-DC4	B-DC5	B-DC6	B-DC7	B-DC8	B-DC9	B-DC10	B-DC11	B-DC12	B-DC13	B-DC14	B-DC15	B-DC16	B-Ph1	B-Ph2	B-Ph3	B-Ph4	B-Ph5	B-Ph6	B-Ph7	B-Ph8	B-Ph9	B-Ph10	B-Ph11	B-Ph12	B-Ph13	B-Ph14	B-Ph15	B-Ph16	aux-1	digaux	

1420.753	1	1	0	512	0.15579	0.21915	0.043276	0.068298	0.16972	0.038194	0.14406	0.22042	0.18741	0.10311	0.19504	0.24327	0.22655	0.45123	0.17805	0.1753	-1.4729	-2.4917	-2.0771	-2.0833	-2.5563	-1.9062	-2.7271	-2.6708	-1.7812	-2.6708	-2.4292	-2.2125	-2.7583	-1.8167	-2.3604	-2.5854	179.291	175.757	106.415	340.254	208.312	269.246	387.485	341.729	82.270	395.844	271.439	384.048	368.545	72.053	329.876	272.116	0.00035454	0.00037656	0.00011523	1278.8	4.7127e-06	4.2966e-06	1275.2	359.23	5.0565e-06	5.074e-06	411.91	136.51	117.09	40.57	6.1499e-06	51.518	0.00025928	0.00017152	4.8795e-05	1286.9	2.1699e-06	2.0771e-06	1284.8	364.1	2.1793e-06	1.9058e-06	415.56	139.49	119.43	41.492	2.1469e-06	52.314	182.024	135.822	125.370	60.453	200.473	208.227	60.423	64.933	215.824	212.353	64.237	68.679	69.861	73.878	200.269	73.280	-8191	255	
1420.849	1	1	0	0	0.14628	0.17702	0.16295	0.38715	0.18632	0.20519	0.16012	0.074591	0.13812	0.1358	0.23969	0.27875	0.27467	0.12624	0.22209	0.06966	-1.3708	-2.5563	-2.2313	-1.9979	-2.6458	-1.9	-2.5563	-2.9708	-1.7667	-2.5875	-2.4938	-2.0125	-2.7625	-2.1333	-2.0833	-2.7188	156.940	292.484	99.213	91.644	84.983	190.291	354.170	344.046	326.710	253.656	397.462	64.752	377.841	69.263	406.307	100.739	0.0003426	0.00039725	0.00012584	1275.7	5.2682e-06	4.3114e-06	1270.6	358.7	3.7347e-06	6.7718e-06	410.34	136.94	117.43	40.657	4.7057e-06	51.11	0.00026592	0.00018444	5.3233e-05	1286.3	2.1594e-06	2.08e-06	1284.6	364.26	2.2674e-06	1.9836e-06	415.26	139.47	119.23	41.48	2.1348e-06	52.15	178.629	144.587	146.435	60.615	210.443	210.801	60.604	65.027	213.630	199.840	64.367	69.245	69.448	73.833	203.624	73.099	-8191	255	
1420.945	1	1	0	0	0.067803	0.036406	0.1503	0.1376	0.13936	0.33334	0.20317	0.1424	0.13754	0.32317	0.25953	0.20596	0.18528	0.35073	0.11463	0.24008	-1.3292	-2.6375	-2.2188	-1.9354	-2.6979	-2.1063	-2.4167	-2.9292	-1.9813	-2.5333	-2.6063	-2.05	-2.7125	-2.2458	-2.0458	-2.9979	403.877	227.652	367.859	301.113	366.642	163.715	406.435	344.286	180.502	312.652	372.622	373.900	60.470	391.338	169.936	139.564	0.00035963	0.00046905	0.00016605	1272.7	4.6712e-06	5.1364e-06	1272.9	359.63	4.3366e-06	5.6848e-06	409.54	136.89	116.74	40.472	4.0844e-06	51.238	0.00026363	0.00018176	5.3389e-05	1284.2	2.1771e-06	2.0662e-06	1285	364.06	2.2767e-06	1.9934e-06	414.71	139.52	119.38	41.437	2.1436e-06	52.274	183.136	147.203	137.900	60.394	200.275	192.333	60.598	65.015	220.061	209.907	64.500	69.115	69.613	74.160	205.961	73.300	-8191	255	
1421.041	1	1	0	0	0.15725	0.096565	0.19537	0.045227	0.098676	0.29812	0.44571	0.31426	0.15743	0.031157	0.17415	0.28343	0.076376	0.31918	0.45042	0.17894	-1.4896	-2.2917	-2.4896	-2.0479	-2.6625	-2.1917	-2.2021	-2.8271	-1.8833	-2.3896	-2.7708	-1.8479	-2.8146	-2.3021	-1.8208	-2.6979	317.613	212.549	216.641	138.237	388.808	321.816	359.468	320.325	221.073	170.753	342.160	403.885	205.408	63.626	130.092	390.086	0.00034258	0.00060788	0.00012062	1274.5	4.4763e-06	4.6139e-06	1271.4	360.26	4.5897e-06	6.2842e-06	408.74	136.49	117.48	40.808	5.2829e-06	51.345	0.00026643	0.00019467	4.8732e-05	1283.8	2.1831e-06	2.0169e-06	1281.8	364.78	2.2078e-06	1.8918e-06	414.45	139.47	119.46	41.616	2.1656e-06	52.188	184.532	129.758	126.940	60.645	204.582	200.510	60.465	65.261	218.390	192.561	64.674	69.027	70.031	74.093	196.681	73.378	-8191	255	
1421.137	1	1	0	0	0.065717	0.10886	0.10496	0.12799	0.1706	0.026109	0.15207	0.31702	0.088128	0.20712	0.32022	0.29096	0.035594	0.13401	0.19692	0.13224	-1.6063	-1.9937	-2.7021	-2.1042	-2.5375	-2.3438	-2.1333	-2.7604	-2.0354	-1.9604	-2.9437	-1.9854	-2.5875	-2.4813	-1.9062	-2.8708	283.982	93.509	214.408	405.063	112.136	321.650	360.415	345.431	371.328	155.898	56.287	352.743	361.323	330.585	294.019	304.957	0.00036495	0.0005067	0.00015066	1273.6	6.257e-06	4.3837e-06	1270.3	359.38	4.9337e-06	4.9492e-06	411.99	137.08	117.61	40.683	4.4866e-06	51.325	0.00026481	0.00019132	4.9199e-05	1284.3	2.1805e-06	1.9307e-06	1282.1	364.35	2.2737e-06	2.0212e-06	415.91	139.53	119.49	41.501	2.2066e-06	52.262	181.689	146.078	142.529	60.467	217.755	188.131	60.416	65.067	219.650	189.758	64.150	69.106	70.027	74.004	214.914	73.436	-8191	255	
1421.233	1	1	0	0	0.14949	0.18453	0.2866	0.23921	0.13296	0.21688	0.3113	0.12896	0.11768	0.2542	0.051228	0.2632	0.24934	0.29611	0.3372	0.14928	-1.7812	-1.925	-2.9979	-2.0771	-2.4167	-2.5625	-1.9771	-2.8958	-2.0563	-1.9875	-2.9375	-2.0417	-2.4208	-2.6104	-1.7771	-2.7	82.855	215.761	374.418	334.577	167.493	185.341	373.361	336.960	152.718	109.844	223.031	322.059	388.744	376.352	284.131	338.961	0.000364	0.00051495	0.0001557	1279.4	3.9597e-06	5.2083e-06	1270.7	359.31	5.2596e-06	4.9842e-06	410.18	136.33	117.55	40.585	4.0282e-06	51.164	0.00026714	0.0001881	4.9137e-05	1286	2.172e-06	2.0122e-06	1282.9	364.32	2.3323e-06	1.9473e-06	415.38	139.13	119.39	41.445	2.095e-06	52.13	179.047	146.283	143.321	60.600	206.943	190.058	60.515	65.101	211.592	197.539	64.224	69.021	69.708	73.844	217.727	73.320	-8191	255	
1421.352	1	1	0	0	0.2095	0.17802	0.13718	0.16003	0.12123	0.09946	0.27047	0.14375	0.24697	0.0912	0.31378	0.2318	0.11324	0.12698	0.22246	0.17516	-1.7771	-2.0583	-2.8521	-2.2104	-2.2625	-2.6625	-2.0312	-2.7229	-2.3917	-1.8604	-2.7521	-2.1542	-2.2375	-2.7146	-1.8521	-2.7	363.504	67.649	255.985	334.701	279.890	345.684	362.110	391.970	332.009	383.816	358.440	232.241	280.422	392.650	289.457	344.501	0.00034069	0.00038683	0.00011636	1271.9	6.0839e-06	4.5698e-06	1273.8	359.1	3.4244e-06	5.8522e-06	411.21	136.68	117.69	40.725	4.3902e-06	51.366	0.00026051	0.00017957	4.8178e-05	1282.6	2.1694e-06	1.8735e-06	1285.8	364.47	2.2542e-06	2.0646e-06	415.79	139.38	119.54	41.521	2.1794e-06	52.28	179.483	133.370	140.019	60.488	205.465	197.638	60.435	65.175	218.777	215.980	64.490	69.160	70.020	73.981	185.521	73.278	-8191	255	
1421.448	1	1	0	0	0.082957	0.16399	0.066558	0.095405	0.10286	0.14827	0.047582	0.16014	0.069008	0.18679	0.2162	0.20615	0.16725	0.29146	0.10538	0.046906	-1.9688	-1.8854	-2.7917	-2.2292	-2.1375	-2.6104	-2.075	-2.7104	-2.3354	-1.8937	-2.9208	-2.0312	-2.1063	-2.675	-1.9292	-2.5021	185.805	68.387	152.787	76.223	133.846	248.551	346.469	342.916	350.093	166.335	331.327	330.348	358.041	53.601	112.171	59.163	0.00036051	0.00045954	0.00016535	1276.1	4.7314e-06	4.197e-06	1269.9	359.33	4.1175e-06	5.1227e-06	410.79	136.36	117.11	40.604	5.1974e-06	51.081	0.00026812	0.00018688	5.0793e-05	1286.2	2.2735e-06	1.9719e-06	1283	364.49	2.2113e-06	2.0148e-06	414.98	139.46	119.28	41.476	2.214e-06	52.138	180.527	148.376	155.188	60.414	209.614	184.767	60.421	65.183	214.850	208.116	64.317	68.917	69.956	74.184	199.156	73.583	-8191	255	
1421.545	1	1	0	0	0.10319	0.16575	0.16674	0.037058	0.17284	0.2538	0.11059	0.21071	0.10051	0.038739	0.1123	0.16773	0.076553	0.13628	0.23276	0.096497	-2.1021	-1.8167	-2.7833	-2.3208	-1.9917	-2.7917	-2.1333	-2.4771	-2.6042	-1.8396	-2.4396	-2.4688	-2.1437	-2.6958	-1.9438	-2.4021	49.069	188.701	253.846	211.064	317.103	55.328	109.123	406.620	191.507	343.163	124.471	81.278	407.188	383.162	152.597	263.452	0.00034882	0.00052328	0.00013281	1275.5	4.4413e-06	4.5205e-06	1270.2	359.86	4.3361e-06	6.3721e-06	411.49	135.93	117.95	40.55	4.5069e-06	51.141	0.00026273	0.00019464	5.1378e-05	1285	2.258e-06	1.9445e-06	1283.4	365.3	2.1911e-06	2.0248e-06	415.38	139.23	119.59	41.48	2.2083e-06	52.15	179.832	138.274	142.237	60.494	218.072	185.634	60.481	65.358	220.423	177.397	64.804	68.975	70.224	73.848	194.747	73.364	-8191	255	
1421.616	1	1	0	0	0.060038	0.26279	0.32078	0.22942	0.4136	0.023127	0.080776	0.21291	0.41674	0.20499	0.16489	0.14968	0.38649	0.030651	0.23567	0.22471	-2.1625	-1.6938	-2.6792	-2.5271	-1.725	-2.7062	-2.2104	-2.2604	-2.7479	-1.8813	-2.6625	-2.5854	-1.9417	-2.7917	-1.9833	-2.3187	170.690	115.801	393.234	332.188	300.120	331.327	353.539	352.012	324.957	74.707	329.912	81.685	347.530	117.897	130.379	336.908	0.00036473	0.0003393	0.00013611	1272.3	5.502e-06	4.2864e-06	1270.3	359.1	3.4469e-06	4.3088e-06	409.79	136.75	117.01	40.587	3.4219e-06	51.368	0.00025644	0.00018892	4.9884e-05	1282.9	2.2992e-06	2.0173e-06	1281.2	364.46	2.1946e-06	2.031e-06	414.69	139.3	119.2	41.521	2.1421e-06	52.248	179.402	134.384	131.950	60.606	213.191	179.553	60.435	65.076	214.580	202.312	64.401	69.028	69.901	74.065	199.694	73.325	-8191	255	
1421.737	1	1	0	0	0.2973	0.090407	0.34377	0.29636	0.22306	0.15558	0.14515	0.047296	0.11907	0.1872	0.16914	0.12941	0.33888	0.40215	0.18746	0.21109	-2.1708	-1.8125	-2.4	-2.5458	-1.7229	-2.5146	-2.4125	-2.1771	-2.8396	-1.8979	-2.5854	-2.6125	-1.825	-2.8271	-2.2021	-2.1104	155.406	67.615	320.302	338.360	106.490	91.235	86.566	221.500	306.010	253.421	81.382	385.579	347.661	368.132	97.043	332.388	0.00035424	0.0006427	0.00010111	1274.7	5.3827e-06	4.0856e-06	1271.3	357.67	4.5268e-06	3.4972e-06	409.61	135.9	116.8	40.666	4.9056e-06	51.338	0.00026199	0.00019227	5.1596e-05	1285.6	2.3157e-06	1.8537e-06	1281.4	363.86	2.2117e-06	2.0442e-06	414.75	139.09	119.09	41.534	2.1341e-06	52.152	181.038	141.900	139.993	60.615	203.735	195.915	60.743	65.138	212.851	195.497	64.431	69.015	69.916	74.312	206.615	73.650	-8191	255	
1421.833	1	1	0	0	0.1219	0.24615	0.15496	0.30582	0.073942	0.12885	0.35117	0.23891	0.077464	0.13241	0.22994	0.056031	0.39503	0.30804	0.14685	0.13183	-2.3521	-1.6354	-2.3208	-2.8271	-1.8771	-2.6083	-2.5	-2.0792	-2.8542	-2.0229	-2.3854	-2.7875	-1.7167	-2.7646	-2.2438	-2.1042	300.155	140.334	324.297	378.013	381.499	67.809	394.998	337.237	229.342	127.687	350.536	149.491	339.241	323.282	367.051	347.833	0.00035072	0.00048114	0.00015206	1271.4	5.6467e-06	4.0038e-06	1269.6	358.73	4.2466e-06	6.1547e-06	409.55	136.41	118.23	40.53	5.0175e-06	51.42	0.00025918	0.0001897	5.1353e-05	1281.8	2.2561e-06	1.887e-06	1282.1	364.15	2.2185e-06	2.0494e-06	415.13	139.52	119.71	41.397	2.2358e-06	52.268	180.476	144.516	140.368	60.497	218.053	199.593	60.418	65.413	217.198	208.515	64.520	69.171	69.930	74.138	199.859	73.231	-8191	255	
1421.929	1	1	0	0	0.2311	0.1675	0.12375	0.18874	0.037672	0.20989	0.33213	0.22827	0.079761	0.10556	0.31832	0.12411	0.3138	0.12786	0.25879	0.18182	-2.3937	-1.9292	-1.9479	-2.9604	-1.7563	-2.5875	-2.5542	-1.9813	-2.6042	-2.2	-2.1437	-2.9958	-1.7917	-2.5792	-2.4188	-2.1417	295.993	271.799	206.845	70.526	406.010	71.075	352.552	316.628	158.139	353.155	312.720	332.975	239.803	255.177	306.169	66.142	0.00036003	0.00041778	0.00015507	1272.2	4.2487e-06	4.0487e-06	1269.4	358.91	3.7817e-06	5.3346e-06	408.84	136.82	117.05	40.588	3.4432e-06	51.291	0.00026601	0.00019194	5.258e-05	1284.5	2.2195e-06	1.9875e-06	1282.2	364.2	2.234e-06	2.0445e-06	414.81	139.48	119.27	41.4	2.1421e-06	52.164	181.606	138.406	150.827	60.683	222.922	192.271	60.623	65.220	211.732	199.818	64.819	69.379	70.131	74.376	191.512	73.711	-8191	255	
1422.025	1	1	0	0	0.19691	0.39342	0.061133	0.21786	0.16264	0.097908	0.12886	0.17989	0.13706	0.042624	0.048301	0.16062	0.18127	0.076265	0.23195	0.11856	-2.3375	-2.1354	-2.1979	-2.8667	-1.9583	-2.2354	-2.7812	-2.1417	-2.6833	-2.4688	-2.1063	-2.8937	-2.0125	-2.3438	-2.6063	-1.9688	264.935	89.183	109.237	303.600	205.719	210.317	76.381	48.155	168.969	290.862	316.351	378.108	370.361	378.012	369.888	83.699	0.00036898	0.00048115	0.00017193	1271.6	3.5783e-06	3.8775e-06	1266.8	359.99	4.2354e-06	7.4744e-06	409.16	136.77	117.06	40.579	5.1386e-06	51.228	0.00026138	0.00018251	5.5387e-05	1282.9	2.2865e-06	1.9643e-06	1279.9	364.68	2.2029e-06	1.988e-06	414.76	139.33	119.15	41.494	2.0734e-06	52.082	178.074	137.407	136.516	60.734	216.855	195.219	60.678	65.563	216.426	202.135	64.640	69.550	69.957	74.562	217.572	73.911	-8191	255	
1422.121	1	1	0	0	0.16069	0.18887	0.14463	0.1431	0.13097	0.28346	0.23013	0.20903	0.22322	0.061733	0.20053	0.03199	0.26382	0.26612	0.14137	0.062436	-2.025	-2.2625	-2.025	-2.8833	-1.8875	-2.2458	-2.9125	-2.1458	-2.4833	-2.3271	-2.2	-2.9188	-2.0438	-2.2646	-2.8229	-2.0083	326.201	152.847	107.401	369.727	236.140	287.881	342.046	353.508	101.990	222.405	79.135	67.563	350.257	365.613	332.164	342.351	0.00033069	0.00045092	0.0001562	1273.5	5.409e-06	4.8265e-06	1270.8	358.92	3.9624e-06	4.4294e-06	409.25	136.35	116.87	40.442	4.2091e-06	51.432	0.00026305	0.00018132	5.3675e-05	1283.8	2.2253e-06	1.9853e-06	1281.7	364.18	2.2071e-06	1.9686e-06	414.25	139.21	119.28	41.416	2.0556e-06	52.173	183.912	137.605	140.610	60.907	203.628	219.141	60.618	65.514	218.583	213.531	64.696	69.444	69.870	74.219	208.013	73.682	-8191	255	
1422.218	1	1	0	0	0.10546	0.38911	0.25105	0.17534	0.27343	0.030792	0.29617	0.23597	0.14655	0.21355	0.071327	0.21304	0.07621	0.062133	0.052694	0.18763	-2.1896	-2.4542	-1.8937	-2.9625	-2.1688	-2.3875	-2.8438	-1.9417	-2.4708	-2.4313	-2.0312	-2.8125	-2.3771	-2.0438	-2.85	-2.0417	299.447	65.062	134.570	310.179	311.590	160.150	349.988	292.606	329.534	49.283	386.306	311.308	102.374	76.980	328.464	377.080	0.00034882	0.00055815	0.00014853	1271.8	4.7498e-06	6.931e-06	1269	358.47	3.8958e-06	4.7156e-06	410.32	135.74	117.43	40.564	4.2121e-06	51.251	0.00026394	0.00018276	5.3906e-05	1283	2.1889e-06	2.0401e-06	1279.5	363.86	2.1874e-06	1.8741e-06	414.66	138.83	119.29	41.456	2.1113e-06	52.212	179.493	136.715	135.066	60.968	208.177	186.496	60.764	65.528	221.889	206.294	64.701	69.101	69.558	73.802	198.254	72.657	-8191	255	
1422.314	1	1	0	0	0.24652	0.076166	0.17213	0.26633	0.072167	0.066877	0.44363	0.40619	0.31568	0.29536	0.25605	0.10687	0.17148	0.3358	0.23447	0.43717	-1.7771	-2.5563	-1.6896	-2.9062	-2.2583	-2.0146	-2.8937	-2.0375	-2.3604	-2.5896	-1.7458	-2.7771	-2.6333	-1.8417	-2.7354	-2.175	403.226	48.298	315.988	385.761	307.689	181.101	338.618	385.247	86.405	203.426	339.853	313.852	377.722	321.955	384.970	337.344	0.00032687	0.00047718	0.00015618	1273.6	5.1674e-06	5.1474e-06	1268.7	358.61	4.2085e-06	4.6389e-06	407.85	136.42	117.23	40.428	4.9438e-06	51.26	0.00025938	0.00017393	5.3707e-05	1284.5	2.2867e-06	2.027e-06	1281.8	363.82	2.2597e-06	1.9259e-06	414.67	139.26	119.08	41.381	2.0144e-06	52.114	177.110	151.890	153.956	60.283	214.239	174.916	60.091	64.752	213.800	201.900	64.277	68.891	69.439	73.656	198.904	72.750	-8191	255	
1422.433	1	1	0	0	0.1709	0.26456	0.39382	0.45198	0.27748	0.077715	0.19987	0.29218	0.17042	0.052315	0.17867	0.20246	0.38824	0.20173	0.14635	0.2565	-1.8958	-2.5	-1.8396	-2.8021	-2.3854	-1.7417	-2.8438	-2.1771	-2.1646	-2.6375	-2.0125	-2.5271	-2.5187	-1.8458	-2.6583	-2.2021	249.176	63.560	258.417	401.496	57.723	222.190	203.020	333.579	198.678	327.973	334.838	54.612	390.101	56.877	145.699	373.798	0.00035181	0.00048309	9.6361e-05	1274.6	4.0667e-06	4.1463e-06	1268	358.06	3.816e-06	3.9878e-06	410.35	136.2	117.03	40.553	5.1073e-06	50.952	0.00026611	0.00017848	5.431e-05	1283.2	2.1815e-06	2.1321e-06	1281.1	363.97	2.2683e-06	1.9689e-06	414.86	139.29	119.16	41.512	2.0635e-06	52.092	179.288	143.143	132.028	60.097	224.224	204.486	60.093	64.843	213.753	188.677	64.161	68.698	69.657	73.503	200.251	72.967	-8191	255	
1422.529	1	1	0	0	0.10406	0.11591	0.11056	0.17703	0.27161	0.12371	0.3283	0.15236	0.24327	0.14225	0.17185	0.36023	0.17821	0.099888	0.18905	0.17022	-1.6354	-2.7562	-1.8062	-2.5667	-2.5146	-1.9312	-2.8958	-2.3625	-1.7708	-2.9542	-2.0604	-2.4667	-2.55	-1.9146	-2.7542	-2.3625	366.601	280.418	376.756	325.532	325.971	318.621	361.495	359.426	238.533	334.997	386.389	370.666	394.666	390.523	85.514	360.581	0.00037051	0.00061957	0.0001405	1275.7	4.6537e-06	4.2443e-06	1269.2	357.76	4.6358e-06	4.5103e-06	410.47	136.79	117.63	40.364	3.8096e-06	51.211	0.00027089	0.00017985	5.2032e-05	1283	2.2267e-06	1.9211e-06	1280.4	363.83	2.3068e-06	1.8857e-06	415.02	139.61	119.57	41.427	2.0118e-06	52.169	181.559	128.041	135.277	60.226	195.232	202.244	60.276	64.795	206.818	204.916	63.983	68.968	69.470	73.843	199.386	73.016	-8191	255	
1422.625	1	1	0	0	0.24601	0.111	0.060408	0.1865	0.15874	0.26031	0.20324	0.41148	0.097762	0.031811	0.021796	0.14183	0.25002	0.23649	0.11552	0.086744	-1.6437	-2.7667	-2.2042	-2.4146	-2.6562	-1.7875	-2.5521	-2.5229	-1.7354	-2.9396	-2.2375	-2.475	-2.7042	-1.9188	-2.6229	-2.5542	359.977	384.158	112.760	169.010	84.734	268.125	362.007	403.388	52.645	137.136	245.653	55.343	384.423	53.176	229.407	56.270	0.00033743	0.00048684	0.00010724	1276.5	5.1205e-06	4.1125e-06	1266.6	357.28	4.5311e-06	5.2037e-06	408.56	135.71	117.26	40.511	5.6392e-06	51.095	0.00026555	0.00017664	4.712e-05	1284.7	2.1472e-06	2.041e-06	1280	363.72	2.1677e-06	1.923e-06	414.6	139.37	119.2	41.392	2.0862e-06	52.205	181.009	145.779	132.590	60.356	195.702	177.718	60.314	64.826	224.366	193.470	63.896	69.005	69.585	73.613	200.439	73.151	-8191	255	
1422.721	1	1	0	0	0.15199	0.28764	0.091173	0.25083	0.15699	0.16004	0.15346	0.15887	0.18343	0.23091	0.10038	0.3689	0.17349	0.026756	0.15531	0.10581	-1.4958	-2.8792	-1.9625	-2.625	-2.6792	-1.7208	-2.7104	-2.6917	-1.8604	-2.6875	-2.3458	-1.9438	-2.8729	-2.0208	-2.4062	-2.7208	400.430	156.684	90.614	63.068	169.963	239.116	323.863	359.370	232.392	342.870	343.000	377.036	374.419	90.180	405.419	225.464	0.0003475	0.00048728	0.00010766	1275.3	5.4881e-06	4.3822e-06	1268.9	359.12	3.8261e-06	6.1473e-06	407.6	136.61	117	40.689	4.6303e-06	51.33	0.00026645	0.00018156	4.9629e-05	1284.5	2.2179e-06	1.9648e-06	1281.7	364.04	2.2945e-06	2.0455e-06	414.23	139.23	119.36	41.449	2.1602e-06	52.169	180.048	136.702	141.267	60.548	209.847	198.150	60.459	64.824	206.769	212.396	64.180	69.053	69.983	74.141	210.701	73.257	-8191	255	
1422.842	1	1	0	0	0.39158	0.17519	0.21232	0.19638	0.16917	0.017952	0.34908	0.18711	0.11069	0.1501	0.12699	0.41816	0.12486	0.25897	0.20342	0.25609	-1.4229	-2.5687	-2.3208	-2.1771	-2.7938	-2.0187	-2.7062	-2.8917	-1.6812	-2.5875	-2.55	-2.1875	-2.7313	-2.0812	-2.2646	-2.7792	68.283	308.563	248.984	384.751	162.763	197.281	341.430	351.533	234.361	362.559	381.255	366.057	365.538	47.517	333.943	388.743	0.00034807	0.00038732	0.00012339	1274.5	4.8773e-06	5.2304e-06	1269	357.17	4.7702e-06	5.4884e-06	409.5	136.36	116.83	40.565	4.1446e-06	51.118	0.0002645	0.00018227	5.0183e-05	1283.3	2.13e-06	2.0218e-06	1279.8	363.42	2.257e-06	1.8955e-06	414.13	139.33	119.32	41.433	2.1796e-06	52.08	178.509	147.938	135.484	60.499	199.027	196.509	60.542	65.200	209.973	198.606	64.378	69.138	69.620	74.256	209.107	73.288	-8191	255	
1422.913	1	1	0	0	0.093959	0.35053	0.15931	0.17908	0.21503	0.091612	0.18246	0.16605	0.090321	0.12489	0.12375	0.37259	0.13508	0.30874	0.16029	0.18534	-1.4417	-2.5708	-2.3563	-2.0646	-2.7229	-2.0042	-2.4292	-2.7958	-1.8	-2.7271	-2.7	-1.9917	-2.8708	-2.1937	-1.9521	-2.6479	204.004	99.968	175.329	377.475	369.328	380.311	282.196	332.538	253.698	229.459	378.074	374.427	251.358	405.372	166.568	384.364	0.00034686	0.00041896	0.00012454	1271.1	4.9162e-06	5.285e-06	1266.6	358.5	4.4271e-06	4.8303e-06	410.15	137.22	116.51	40.604	3.8434e-06	51.035	0.00026225	0.00018438	5.1808e-05	1283.5	2.2053e-06	1.9687e-06	1281.5	363.94	2.3578e-06	1.9392e-06	414.71	139.43	119.06	41.385	2.118e-06	52.132	179.215	130.508	135.271	60.489	200.750	188.883	60.519	65.055	232.885	208.702	64.220	69.131	69.999	74.066	206.408	73.193	-8191	255	
1423.009	1	1	0	0	0.17179	0.032969	0.17644	0.37306	0.17922	0.069008	0.35364	0.16451	0.20931	0.1264	0.21347	0.13121	0.0033266	0.15568	0.37849	0.11537	-1.4604	-2.4417	-2.4188	-1.9833	-2.6021	-2.3104	-2.5042	-3	-1.9042	-2.5104	-2.7	-1.9083	-2.7479	-2.3604	-2.1188	-2.8792	404.173	383.147	284.082	405.268	238.025	398.918	372.817	375.163	210.115	143.051	69.329	182.718	376.079	335.164	170.159	369.343	0.00035528	0.0005383	0.00010463	1270.1	4.6383e-06	4.7661e-06	1268.9	358.88	4.2239e-06	5.678e-06	409.5	136.58	116.65	40.574	5.6976e-06	51.282	0.00026329	0.00018549	5.2337e-05	1281	2.1887e-06	1.9036e-06	1281.1	363.79	2.2723e-06	2.0062e-06	414.91	139.08	119.13	41.461	2.2057e-06	52.106	180.812	145.659	153.257	60.374	206.350	191.017	60.471	64.985	225.080	206.734	64.335	68.772	69.780	73.838	193.073	73.285	-8191	255	
1423.130	1	1	0	0	0.12544	0.29614	0.13062	0.21823	0.35077	0.21	0.070636	0.17674	0.046917	0.090558	0.09988	0.17186	0.18866	0.027257	0.39462	0.015256	-1.5958	-2.4146	-2.6146	-1.8729	-2.75	-2.3125	-2.35	-3.0563	-2.0667	-2.4125	-2.7208	-2.0479	-2.7125	-2.6333	-2.0417	-3.0125	387.607	391.729	400.083	376.782	357.771	49.016	339.849	313.072	101.519	173.587	250.949	231.626	394.579	144.034	154.045	351.695	0.00036982	0.00047475	0.00013	1270.9	4.4126e-06	4.5171e-06	1266.9	359.37	4.4067e-06	4.4918e-06	409.72	136.73	116.86	40.657	5.4433e-06	51.436	0.00026448	0.00018635	5.0164e-05	1281.9	2.1594e-06	1.89e-06	1280.7	364.3	2.2549e-06	1.9036e-06	414.63	139.25	119.32	41.393	2.1322e-06	52.219	180.172	138.304	142.313	60.390	223.399	206.679	60.608	65.084	201.716	204.194	64.698	69.245	69.698	73.998	201.904	73.474	-8191	255	
1423.226	1	1	0	0	0.083659	0.23396	0.069301	0.2257	0.074763	0.13866	0.25027	0.23019	0.03444	0.17589	0.34949	0.068034	0.14871	0.27091	0.22417	0.25645	-1.6854	-2.2375	-2.7812	-2.0417	-2.5104	-2.7104	-2.1333	-2.9125	-1.8438	-2.0979	-2.9792	-2.1604	-2.4271	-2.4354	-1.9292	-2.9021	200.376	76.766	350.469	357.374	345.184	79.347	401.714	358.208	94.883	252.289	53.953	103.825	320.684	57.422	178.196	366.454	0.00036913	0.00047937	0.00014641	1267.1	4.7374e-06	3.7643e-06	1270.9	358.46	3.7333e-06	5.0022e-06	408.89	136.32	116.83	40.537	3.9902e-06	51.51	0.00026747	0.0001824	4.8197e-05	1281.4	2.1562e-06	1.9305e-06	1282.4	363.84	2.1915e-06	2.0192e-06	414.76	139.37	119.27	41.393	2.1656e-06	52.264	181.321	134.163	146.246	60.495	218.729	187.087	60.645	65.423	226.327	200.096	64.581	69.364	69.867	74.254	204.815	73.506	-8191	255	
1423.321	1	1	0	0	0.036397	0.26339	0.16036	0.26043	0.098604	0.36371	0.30742	0.091811	0.19128	0.08542	0.14026	0.19229	0.28437	0.19805	0.0484	0.30638	-1.7125	-1.9312	-2.6896	-2.1375	-2.2562	-2.6688	-2.1333	-2.9375	-2.2604	-1.9146	-2.9208	-2.2438	-2.3937	-2.7604	-1.7896	-2.6	363.012	259.847	290.517	385.610	390.364	86.342	343.473	338.101	342.918	95.594	261.832	399.297	309.441	325.615	349.747	365.549	0.0003604	0.00056511	0.00015902	1272.7	4.8097e-06	4.0303e-06	1268.7	359.12	4.0203e-06	5.1181e-06	408.18	135.76	116.45	40.752	3.8945e-06	51.565	0.00026637	0.00018533	5.1322e-05	1283.6	2.1868e-06	1.9744e-06	1281.4	363.86	2.2421e-06	2.0486e-06	414.14	138.97	119.29	41.503	2.076e-06	52.294	177.375	135.724	143.843	60.680	210.480	193.975	60.746	65.321	205.745	196.284	64.570	69.133	70.150	73.830	197.199	73.442	-8191	255	
1423.417	1	1	0	0	0.21814	0.28484	0.2699	0.32971	0.20206	0.11277	0.34659	0.25846	0.28241	0.037175	0.084507	0.19183	0.25401	0.21986	0.1089	0.17685	-1.7437	-1.8396	-2.6688	-2.1688	-1.9896	-2.6813	-2.1458	-2.7771	-2.3958	-1.8729	-2.7812	-2.2146	-2.1396	-2.9354	-1.6562	-2.4375	146.860	91.112	238.399	385.735	335.541	141.073	334.584	349.487	67.681	398.163	128.350	365.051	333.969	337.824	225.317	329.769	0.00034329	0.00052824	0.00013968	1275.5	5.2185e-06	5.8137e-06	1265.1	358.1	4.6273e-06	4.464e-06	410.86	135.86	117.34	40.639	4.7905e-06	51.065	0.00026203	0.00019012	4.9367e-05	1281.4	2.191e-06	1.9263e-06	1279.4	363.69	2.1496e-06	2.0072e-06	415.14	138.93	119.4	41.437	2.1293e-06	52.135	182.203	125.108	150.643	60.489	220.642	208.997	60.725	65.438	203.972	191.834	64.612	69.077	69.926	74.048	193.799	73.430	-8191	255	
1423.513	1	1	0	0	0.138	0.027195	0.19346	0.093983	0.1441	0.1629	0.14318	0.43158	0.13145	0.16672	0.18319	0.11026	0.25129	0.25186	0.14162	0.35259	-2.2229	-1.8417	-2.7583	-2.225	-2.0854	-2.9167	-2.0875	-2.6958	-2.6083	-1.5583	-2.8771	-2.4313	-2.2771	-2.8125	-1.8979	-2.3729	372.241	134.640	398.624	74.785	263.056	357.851	374.510	346.571	307.746	164.580	380.341	384.600	369.145	292.365	345.138	396.174	0.00035527	0.00049281	8.2635e-05	1273.7	5.33e-06	4.6934e-06	1271.3	358.75	4.1346e-06	4.1644e-06	409.48	136.69	117.24	40.457	5.1242e-06	51.213	0.00025148	0.00018857	4.8527e-05	1282.8	2.2475e-06	1.8666e-06	1280.2	363.92	2.2064e-06	2.0104e-06	414.76	139.17	119.15	41.434	2.1639e-06	52.143	185.178	123.773	124.536	60.648	210.736	190.669	60.686	65.265	213.082	199.373	64.951	69.271	69.931	74.018	204.183	73.583	-8191	255	
1423.609	1	1	0	0	0.17727	0.071831	0.20255	0.14977	0.28134	0.16796	0.25453	0.14737	0.061982	0.26162	0.23549	0.26403	0.10748	0.24014	0.26158	0.044522	-2.2042	-1.9667	-2.6625	-2.4625	-1.9458	-2.9208	-2.2833	-2.3563	-2.5646	-1.75	-2.6854	-2.4375	-2.0958	-2.8292	-2.0062	-2.2208	361.822	360.087	144.808	328.044	395.315	312.197	292.011	268.654	248.545	291.424	339.641	405.139	107.817	387.488	97.318	206.092	0.00035538	0.00045216	0.00012122	1271.2	4.4498e-06	5.2888e-06	1269.5	359.02	3.494e-06	4.8501e-06	410.11	136.14	117.38	40.534	5.4853e-06	51.164	0.00025852	0.0001924	4.9056e-05	1280.9	2.3613e-06	1.8599e-06	1279.3	364.04	2.1521e-06	1.9708e-06	414.55	139.28	119.22	41.417	2.1597e-06	52.162	181.869	139.835	139.921	60.571	201.219	202.847	60.635	65.381	227.310	201.719	64.858	69.456	70.585	74.318	203.556	73.590	-8191	255	
1423.705	1	1	0	0	0.15308	0.23711	0.18699	0.17714	0.19008	0.0768	0.24349	0.43443	0.38934	0.46602	0.19406	0.14887	0.15133	0.21023	0.19065	0.17706	-2.3083	-2.0042	-2.5958	-2.7375	-2.0646	-2.7229	-2.4	-2.3625	-2.7271	-1.9521	-2.5563	-2.6	-1.9458	-2.7625	-2.1208	-2.0958	98.597	283.251	375.865	322.874	52.833	123.302	346.680	359.615	104.195	129.415	176.698	318.836	355.588	359.260	205.400	340.057	0.00036704	0.00047747	0.00015575	1270.8	5.3546e-06	3.6541e-06	1270.6	358.1	4.575e-06	5.7515e-06	410.58	135.7	116.52	40.556	5.6362e-06	51.364	0.00026276	0.00019398	4.9841e-05	1281	2.1965e-06	1.965e-06	1281.5	363.82	2.1851e-06	2.0057e-06	415.37	138.75	119	41.379	2.1438e-06	52.066	179.754	150.941	132.726	60.517	213.840	204.500	60.818	65.601	213.107	201.401	64.820	69.346	70.190	74.327	203.095	73.573	-8191	255	
1423.801	1	1	0	0	0.23501	0.27539	0.14896	0.34865	0.047382	0.077869	0.2763	0.39642	0.33271	0.087431	0.29309	0.22987	0.17656	0.35632	0.23371	0.20085	-2.4042	-1.9896	-2.4771	-2.7812	-1.8563	-2.7271	-2.4854	-2.0354	-2.7625	-1.9813	-2.3771	-2.6958	-2.0417	-2.825	-2.3292	-2.0667	237.505	342.734	282.227	384.147	256.754	105.364	293.663	365.707	386.636	333.792	60.898	338.601	347.041	347.864	96.567	247.967	0.00035495	0.00050505	0.00016638	1269.4	5.1769e-06	4.4794e-06	1269.5	359.23	4.6979e-06	5.5871e-06	411.72	136.39	116.33	40.496	4.6674e-06	51.307	0.00025972	0.00018821	5.1789e-05	1280.6	2.3701e-06	1.9737e-06	1279.4	364.13	2.2161e-06	1.9618e-06	415.19	139.13	119.26	41.43	2.0865e-06	52.129	181.837	148.389	145.943	60.764	209.697	198.899	60.543	65.491	220.946	205.758	64.736	69.009	69.602	74.277	198.107	73.259	-8191	255	
1423.922	1	1	0	0	0.11634	0.21318	0.17738	0.19423	0.094984	0.052958	0.30969	0.29565	0.080703	0.096506	0.25511	0.038562	0.14095	0.15955	0.1802	0.097688	-2.425	-1.8771	-2.2354	-2.7771	-1.8687	-2.4917	-2.6125	-2.2604	-2.7604	-2.0792	-2.0292	-2.8771	-1.9854	-2.6792	-2.3854	-1.9979	89.614	99.249	198.757	371.853	174.274	374.177	354.194	349.956	57.180	65.610	377.326	296.209	135.202	364.891	379.137	67.189	0.00035898	0.00050915	0.00013626	1271.5	5.3852e-06	4.5737e-06	1265.6	357.83	3.8527e-06	5.8446e-06	410.2	136.57	117.19	40.725	3.7081e-06	51.132	0.00025308	0.00018118	5.0569e-05	1281.9	2.3305e-06	1.8661e-06	1280.4	363.85	2.1934e-06	2.0673e-06	415.09	139.43	118.95	41.466	2.1623e-06	52.155	182.517	138.631	139.977	60.311	204.177	197.668	60.674	65.219	223.172	213.007	64.390	68.768	69.908	74.151	191.063	73.104	-8191	255	
1424.018	1	1	0	0	0.056524	0.19216	0.23464	0.46355	0.20332	0.10927	0.39414	0.23288	0.38163	0.079208	0.10723	0.23796	0.39765	0.17942	0.129	0.15773	-2.3708	-2.0229	-2.2917	-2.9437	-1.9333	-2.4542	-2.7396	-1.8875	-2.7208	-2.1604	-2.2125	-2.9062	-1.9312	-2.3854	-2.575	-1.8896	329.572	155.898	395.081	354.543	209.957	296.449	360.381	324.560	154.104	142.728	333.075	312.924	365.791	70.107	353.159	368.186	0.00036253	0.00047943	0.00013601	1274.7	4.1529e-06	4.8053e-06	1264.8	358	4.066e-06	6.6831e-06	408.85	136.11	116.65	40.487	5.0219e-06	51.234	0.00026146	0.00018167	5.1889e-05	1283.5	2.21e-06	1.9231e-06	1279.7	363.84	2.1294e-06	1.9927e-06	414.11	139.2	119.2	41.461	2.0011e-06	52.068	178.787	133.472	130.597	60.347	221.143	208.544	60.439	65.071	223.263	186.049	64.631	69.018	69.869	74.053	182.872	73.346	-8191	255	
1424.114	1	1	0	0	0.16601	0.0677	0.12249	0.11996	0.10833	0.4565	0.28368	0.17426	0.31411	0.29411	0.21081	0.19429	0.15725	0.19367	0.11427	0.15717	-2.3833	-1.9708	-1.9937	-2.9042	-2.0542	-2.3625	-2.7833	-2.0062	-2.5042	-2.35	-1.9438	-3.0625	-1.9229	-2.5625	-2.5896	-2.0375	265.812	154.956	280.262	127.756	75.640	215.381	380.268	335.778	347.807	133.881	114.619	383.181	121.092	64.181	301.657	321.689	0.00036504	0.00050373	0.00014736	1271.1	4.7341e-06	3.5452e-06	1269.3	358.58	4.266e-06	3.7541e-06	409.43	136.22	116.66	40.502	5.4776e-06	51.034	0.00025901	0.00017653	5.0862e-05	1282.1	2.2971e-06	1.9784e-06	1280.7	363.93	2.0916e-06	1.9463e-06	414.42	139.06	119.08	41.447	2.0085e-06	52.069	180.273	138.980	126.051	60.583	233.147	201.615	60.448	65.172	230.438	197.495	64.731	69.380	69.903	73.933	207.839	73.428	-8191	255	
1424.210	1	1	0	0	0.18811	0.033452	0.13721	0.26385	0.32501	0.018909	0.23551	0.36829	0.13722	0.26302	0.20904	0.16483	0.21843	0.28278	0.20809	0.3351	-2.1229	-2.5187	-1.8458	-2.9729	-1.8979	-2.1854	-2.8438	-2.0167	-2.3812	-2.3604	-1.9229	-2.7417	-1.9625	-2.0667	-2.7417	-1.8958	248.624	250.324	369.107	384.649	352.727	95.672	398.068	360.655	225.635	385.130	323.659	305.008	63.878	107.532	201.073	332.499	0.00035899	0.00042205	0.00012001	1271.6	5.9811e-06	4.0694e-06	1270	358.07	3.1806e-06	5.3002e-06	408.47	136.45	117.5	40.454	4.1077e-06	51.011	0.00025897	0.00017808	5.1011e-05	1282.4	2.2603e-06	1.9749e-06	1280.9	363.04	2.1642e-06	1.9743e-06	414.06	139.22	119.2	41.37	2.153e-06	52.133	181.374	140.660	149.066	60.418	222.386	195.934	60.528	65.097	219.621	211.562	64.329	68.969	69.754	74.205	202.103	73.563	-8191	255	
1424.307	1	1	0	0	0.078102	0.16808	0.12083	0.13819	0.15364	0.092418	0.23731	0.30648	0.20653	0.073405	0.14781	0.2272	0.12856	0.24155	0.064106	0.37555	-2.2	-2.3333	-1.7812	-2.8229	-2.1625	-1.8917	-2.9979	-2.2146	-2.1708	-2.6521	-1.8229	-2.7396	-2.3042	-2.0458	-2.5958	-2.2188	268.397	173.196	119.126	161.186	273.349	400.643	324.609	314.637	378.833	57.683	202.783	396.070	87.207	387.608	105.736	381.093	0.00034475	0.00042456	0.0001402	1270.8	5.6994e-06	4.9686e-06	1271.4	359.31	4.2622e-06	5.2234e-06	409.63	136.38	116.15	40.612	4.6573e-06	51.02	0.00025717	0.00018271	5.408e-05	1282.7	2.2362e-06	2.0544e-06	1280.6	363.82	2.2597e-06	1.974e-06	414.63	139.01	118.99	41.446	2.0054e-06	52.095	179.290	138.377	136.783	60.607	193.831	198.823	60.435	65.103	214.024	199.960	64.416	69.196	69.631	73.895	204.561	73.188	-8191	255	
1424.403	1	1	0	0	0.20125	0.31932	0.19703	0.16448	0.15325	0.23424	0.030756	0.32693	0.099124	0.1428	0.14425	0.29123	0.22701	0.24712	0.20305	0.36264	-1.6063	-2.6583	-2.0458	-2.6875	-2.1542	-2.0521	-2.9854	-2.2792	-2.1125	-2.6708	-2.0604	-2.4979	-2.4271	-1.975	-2.7396	-2.0833	64.337	383.509	242.045	50.978	174.765	222.030	126.458	329.599	344.685	93.185	102.406	323.671	296.310	378.292	203.736	309.481	0.0003604	0.00042312	0.00014136	1271.1	5.2837e-06	4.7006e-06	1267.7	358.83	4.5013e-06	4.3857e-06	408.63	136.41	117.11	40.716	4.264e-06	51.157	0.00027037	0.00017948	5.3557e-05	1282.8	2.159e-06	1.9858e-06	1279.4	363.87	2.2296e-06	1.9762e-06	414.45	139.18	119.18	41.388	2.008e-06	52.082	181.605	121.566	128.356	60.546	218.218	197.442	60.680	64.965	228.300	201.509	64.361	69.270	69.975	74.098	213.479	73.379	-8191	255	
1424.522	1	1	0	0	0.19331	0.14322	0.24065	0.22081	0.3003	0.22804	0.24952	0.3153	0.13103	0.23183	0.19243	0.14917	0.15698	0.22928	0.11789	0.14667	-1.75	-2.8542	-1.8125	-2.8271	-2.1375	-1.8292	-2.8208	-2.2521	-2.0896	-2.7271	-1.875	-2.4208	-2.5479	-1.8479	-2.5042	-2.3583	259.135	315.223	74.146	360.440	304.527	360.408	357.821	280.237	314.320	406.621	90.999	54.280	154.826	391.481	279.112	391.479	0.00035348	0.00066417	0.00015669	1273.6	5.1365e-06	3.5267e-06	1272.4	359.03	4.2087e-06	4.1396e-06	408.53	136.52	116.2	40.617	4.6198e-06	51.396	0.00026189	0.00018557	5.3047e-05	1283.1	2.1729e-06	2.0504e-06	1281.8	363.7	2.2577e-06	1.9274e-06	413.7	139.24	119.03	41.422	2.0983e-06	52.126	181.042	133.489	152.345	60.349	204.779	186.666	60.500	65.023	210.971	190.999	64.062	68.947	69.705	74.125	205.048	73.427	-8191	255	
1424.618	1	1	0	0	0.15987	0.14512	0.23986	0.47601	0.21333	0.30279	0.40229	0.21166	0.22839	0.18333	0.2413	0.34237	0.20094	0.2109	0.21653	0.19275	-1.5896	-2.6937	-2.025	-2.5312	-2.5042	-1.9042	-2.7042	-2.6146	-1.8146	-2.8167	-2.1917	-2.2729	-2.7875	-2.125	-2.4146	-2.3521	108.306	78.545	192.814	75.182	301.917	195.575	332.718	406.366	399.472	398.048	371.267	382.067	386.476	310.947	121.282	349.287	0.00035405	0.00047763	0.00010235	1274.7	3.4447e-06	4.5378e-06	1270.4	356.52	4.1694e-06	4.4411e-06	410.22	136.18	116.96	40.396	4.3983e-06	51.321	0.0002679	0.00018593	5.0488e-05	1282.7	2.1988e-06	1.967e-06	1280.2	363.29	2.2883e-06	1.8778e-06	414.46	139.23	119.12	41.362	2.0933e-06	52.115	182.588	135.502	135.544	60.510	214.365	198.199	60.523	64.886	214.902	194.213	64.278	68.805	69.402	74.169	209.213	73.143	-8191	255	
1424.714	1	1	0	0	0.13855	0.17144	0.16092	0.22001	0.11417	0.088461	0.30004	0.11531	0.27464	0.15668	0.28154	0.20817	0.099069	0.076487	0.34779	0.12552	-1.5208	-2.5521	-2.0979	-2.2625	-2.675	-1.8979	-2.6604	-2.5563	-1.9229	-2.8708	-2.1833	-2.1896	-2.7292	-1.9813	-2.3667	-2.675	331.516	69.986	312.898	299.207	383.232	310.540	366.505	93.516	154.887	293.923	362.290	305.090	199.670	313.988	346.139	137.356	0.0003744	0.0006134	0.00013859	1266.6	5.512e-06	4.764e-06	1270	358.32	4.3737e-06	5.5405e-06	409.23	136.19	117.42	40.532	4.3161e-06	51.172	0.00026597	0.00017402	5.0158e-05	1279	2.2369e-06	2.1084e-06	1281.4	363.38	2.2611e-06	1.8913e-06	415.22	139.18	119.32	41.398	2.1464e-06	52.062	179.950	132.015	142.623	60.453	220.277	207.664	60.567	65.115	228.352	199.019	64.328	69.162	70.067	74.062	192.451	73.203	-8191	255	
1424.810	1	1	0	0	0.23916	0.1992	0.24811	0.10718	0.07365	0.054591	0.36191	0.37068	0.18857	0.24325	0.27125	0.07787	0.037596	0.11948	0.056099	0.15916	-1.3875	-2.6979	-1.9958	-2.1896	-2.6917	-1.8875	-2.6958	-2.5625	-1.8083	-2.6896	-2.2833	-2.1417	-2.8271	-1.9729	-2.2646	-2.6312	203.534	387.109	61.282	403.381	289.934	350.575	329.664	403.591	387.386	342.470	259.927	392.368	368.907	312.130	82.267	348.860	0.00035735	0.00043335	0.00015579	1264.7	3.9435e-06	4.7612e-06	1268.8	358.79	4.1876e-06	4.8929e-06	411.48	136.63	116.68	40.545	4.063e-06	50.907	0.0002708	0.00018269	5.0395e-05	1279.1	2.1381e-06	2.0487e-06	1281.4	363.58	2.2843e-06	1.9478e-06	414.81	139.2	118.93	41.369	2.0137e-06	51.995	178.976	151.999	118.715	60.611	194.415	186.665	60.594	65.102	216.685	197.851	64.208	69.098	69.666	74.029	216.265	73.452	-8191	255	
1424.906	1	1	0	0	0.24606	0.088308	0.24703	0.35193	0.17038	0.3577	0.30143	0.075914	0.21978	0.13159	0.17497	0.082235	0.11724	0.27248	0.25354	0.24155	-1.3271	-2.4833	-2.2375	-2.1167	-2.5312	-1.9312	-2.4146	-2.7875	-1.775	-2.6958	-2.4	-2.0708	-2.8083	-2.0604	-2.1958	-2.7667	150.051	100.962	370.757	398.959	165.116	216.148	49.561	145.057	236.995	233.513	96.577	395.730	375.497	333.477	241.092	351.404	0.00034255	0.00038567	0.00013536	1271.1	4.4149e-06	4.3937e-06	1264.7	359.47	3.9434e-06	5.7582e-06	407.75	136.19	117.37	40.621	4.8244e-06	50.85	0.00025486	0.00017562	5.1627e-05	1281.5	2.1472e-06	2.0104e-06	1279.8	364.39	2.227e-06	1.9308e-06	413.35	139.09	119.25	41.471	2.1331e-06	51.991	179.964	136.516	142.159	60.790	216.076	199.212	60.650	65.176	211.654	192.639	64.256	69.216	70.072	73.874	203.989	73.386	-8191	255	
1425.002	1	1	0	0	0.14541	0.31436	0.066271	0.35822	0.22502	0.024263	0.18644	0.21144	0.19786	0.15104	0.18501	0.29557	0.22891	0.24322	0.24912	0.31145	-1.4188	-2.5792	-2.3854	-2.0854	-2.6042	-2.2583	-2.3333	-2.7396	-2.1562	-2.2542	-2.6	-1.95	-2.7479	-2.4083	-1.7333	-2.7625	224.192	49.751	312.077	355.461	315.167	311.131	347.922	367.501	341.454	294.607	59.639	329.902	99.289	396.797	286.598	294.338	0.00036796	0.00030543	0.00013086	1269.3	5.6277e-06	5.2245e-06	1267.4	358.17	3.8137e-06	4.4334e-06	410.65	136.27	116.89	40.373	4.8219e-06	51.067	0.00026928	0.00018229	5.0339e-05	1280.5	2.1532e-06	2.0595e-06	1280.3	363.75	2.2066e-06	1.937e-06	414.68	139.1	119.14	41.332	2.072e-06	52.072	180.087	144.819	129.259	60.646	221.978	215.880	60.740	65.332	200.586	189.421	64.302	69.142	69.968	74.016	197.387	73.211	-8191	255	
1425.099	1	1	0	0	0.072241	0.07297	0.15	0.092955	0.13848	0.11693	0.36646	0.12412	0.0024529	0.054491	0.07798	0.18008	0.27104	0.30893	0.11045	0.055132	-1.3563	-2.1333	-2.3646	-1.775	-2.5812	-2.1562	-2.1437	-2.6979	-1.8167	-2.2729	-2.7208	-1.7167	-2.6771	-2.2417	-1.8687	-2.7021	277.479	239.347	210.478	251.869	300.611	240.313	307.701	322.779	180.000	335.785	98.918	330.490	383.621	354.494	254.962	222.723	0.00036622	0.00061841	0.00013994	1270.1	3.8452e-06	4.2574e-06	1268.3	358.18	4.786e-06	5.589e-06	409.03	136.35	116.95	40.564	4.092e-06	51.331	0.00027049	0.00018879	4.9417e-05	1281.8	2.1291e-06	2.0213e-06	1280.6	363.89	2.2832e-06	1.976e-06	414.94	139.3	119.27	41.485	2.0933e-06	52.173	181.676	142.133	148.059	60.370	211.773	202.203	60.555	65.087	204.732	198.379	64.431	69.028	69.852	73.951	193.305	73.402	-8191	255	
1425.217	1	1	0	0	0.2253	0.30956	0.31672	0.28605	0.1993	0.15713	0.20364	0.19928	0.088109	0.21459	0.084707	0.24028	0.38764	0.26569	0.064325	0.25763	-1.3583	-2.1813	-2.4125	-1.8625	-2.2687	-2.1063	-2.0563	-2.6021	-1.7271	-2.0687	-2.625	-1.7979	-2.2583	-2.4229	-1.4542	-2.6542	228.563	350.901	399.788	314.410	368.497	113.930	384.396	277.427	56.195	91.710	120.026	90.174	348.221	64.605	203.485	381.120	0.00036274	0.00053464	0.00015795	1271.9	3.5563e-06	3.8278e-06	1269.8	358.58	3.5683e-06	4.9658e-06	410.07	136.6	117.19	40.523	4.879e-06	51.129	0.00026583	0.00018349	5.0239e-05	1281.4	2.0901e-06	1.9431e-06	1281.6	364.06	2.2319e-06	2.0189e-06	414.95	139.09	119.32	41.385	2.1355e-06	52.043	181.246	143.027	128.350	60.619	208.578	188.718	60.421	64.896	216.683	201.241	64.295	68.937	69.669	73.926	197.529	73.269	-8191	255	
1425.314	1	1	0	0	0.25669	0.12738	0.1582	0.24717	0.26997	0.14223	0.36522	0.38419	0.20711	0.19151	0.1849	0.074207	0.39219	0.10358	0.16654	0.075087	-1.5688	-1.8604	-2.5917	-1.9292	-2.2917	-2.3479	-2	-2.6771	-2.05	-2.025	-2.625	-1.8417	-2.3	-2.7188	-1.7292	-2.6417	311.433	295.542	298.279	365.435	134.721	171.504	337.268	379.664	240.838	230.755	63.947	357.926	341.767	356.180	205.870	95.765	0.00036272	0.00062605	0.00011195	1270.1	4.4674e-06	4.2396e-06	1265.1	359.84	5.1597e-06	4.6179e-06	409.16	136.49	117.6	40.513	4.8712e-06	51.388	0.00025822	0.0001795	4.9536e-05	1282	2.1808e-06	1.9263e-06	1280.7	364.08	2.2651e-06	1.9519e-06	414.54	139.08	119.31	41.454	2.1514e-06	52.152	180.860	126.190	132.109	60.415	219.029	196.705	60.282	64.916	211.136	200.860	64.328	69.118	69.653	73.904	185.024	73.216	-8191	255	
1425.387	1	1	0	0	0.20249	0.10858	0.20293	0.16775	0.06378	0.14782	0.084784	0.34198	0.10328	0.10604	0.2901	0.19088	0.27574	0.25089	0.080982	0.15362	-1.7208	-1.7167	-2.4542	-1.825	-1.9188	-2.5354	-1.6646	-2.45	-2.1479	-1.6667	-2.6708	-1.7313	-1.9312	-2.675	-1.5854	-2.2438	242.871	66.524	270.690	385.342	263.405	177.573	167.022	344.651	340.297	312.548	357.372	378.709	402.944	373.822	129.056	386.689	0.00034341	0.00052809	9.8829e-05	1273.9	5.4506e-06	4.8276e-06	1270.6	358.38	4.5506e-06	5.2378e-06	410.69	136.48	118.04	40.558	4.6369e-06	51.157	0.00026093	0.00019396	4.8919e-05	1283.5	2.2955e-06	1.966e-06	1282	363.9	2.2525e-06	1.9959e-06	415.03	139.22	119.46	41.453	2.1649e-06	52.098	183.043	152.686	137.304	60.276	203.150	196.068	60.201	64.813	219.854	202.043	64.370	68.877	69.506	73.533	210.053	73.420	-8191	255	
1425.483	1	1	0	0	0.11083	0.27174	0.064718	0.05211	0.049786	0.011971	0.11462	0.13942	0.053383	0.12587	0.18573	0.14866	0.17676	0.10581	0.19616	0.31458	-1.8083	-1.5354	-2.3563	-2.0563	-2.1042	-2.5375	-1.9375	-2.3854	-2.3312	-1.6812	-2.5875	-2.0708	-1.8438	-2.6396	-1.7417	-2.3604	330.810	286.541	287.370	257.764	124.132	63.255	350.635	385.198	243.541	247.223	91.740	72.101	319.151	58.792	405.924	375.746	0.00034567	0.00037787	0.00010645	1271.5	5.1497e-06	5.6531e-06	1270.1	358.71	5.2328e-06	4.4872e-06	412.7	136.23	117.89	40.44	4.9619e-06	51.419	0.00026169	0.00017894	4.9697e-05	1282.4	2.2148e-06	1.9233e-06	1281.2	364.1	2.1925e-06	1.9745e-06	415.69	139.23	119.48	41.408	2.1315e-06	52.207	176.904	151.843	130.818	60.190	212.502	192.124	60.145	64.954	221.324	197.509	64.346	68.655	69.669	74.100	200.773	73.262	-8191	255	
1425.602	1	1	0	0	0.18341	0.29017	0.18692	0.17885	0.030778	0.16328	0.2674	0.30103	0.059022	0.14627	0.14862	0.1604	0.1878	0.325	0.30138	0.07893	-1.9604	-1.6271	-2.3604	-2.1521	-1.8771	-2.4167	-1.9875	-2.2833	-2.2833	-1.6125	-2.6	-2.0938	-2.0396	-2.7542	-1.6021	-2.0667	317.045	250.764	171.503	349.173	184.394	113.574	371.956	356.320	137.343	298.202	327.011	94.013	314.016	406.684	83.586	143.883	0.00034474	0.00048138	0.00014789	1272.9	6.4128e-06	5.088e-06	1265.7	358.06	3.0329e-06	4.5752e-06	410.55	135.96	117.12	40.523	4.1268e-06	51.154	0.00025117	0.00019003	4.9143e-05	1283.4	2.2123e-06	1.9134e-06	1280.6	363.89	2.1373e-06	1.8994e-06	415.82	139.17	119.5	41.471	2.1149e-06	52.164	181.891	127.482	141.871	60.231	205.711	197.913	60.369	64.935	231.391	207.361	64.379	69.050	69.812	74.041	189.540	73.226	-8191	255	
1425.698	1	1	0	0	0.26438	0.19889	0.25365	0.17457	0.31371	0.096495	0.35014	0.21	0.2602	0.10988	0.090624	0.055951	0.22434	0.19252	0.18186	0.084275	-2.0312	-1.8229	-2.2854	-2.1583	-1.6208	-2.5938	-2.0292	-2.2625	-2.4854	-1.8	-2.7729	-2.2521	-1.625	-2.625	-1.8583	-2.0875	159.374	370.167	103.209	371.479	167.153	133.392	289.157	290.232	308.865	287.579	289.391	357.788	94.600	385.898	296.379	151.816	0.00036814	0.00051952	0.00014991	1275.2	6.3741e-06	6.2143e-06	1271	357.79	4.6654e-06	6.6714e-06	409.34	136.79	116.79	40.603	5.5608e-06	51.11	0.00025649	0.00018462	4.8882e-05	1282.5	2.2116e-06	2.008e-06	1283.1	363.91	2.1774e-06	2.0123e-06	415.37	139.42	119.53	41.499	2.0829e-06	52.124	183.517	130.855	136.193	60.146	208.694	198.710	60.121	65.202	221.975	197.826	64.163	68.936	69.878	73.897	196.920	73.215	-8191	255	
1425.794	1	1	0	0	0.11	0.34866	0.18163	0.16467	0.092018	0.22348	0.10069	0.077467	0.24955	0.16937	0.20924	0.26588	0.2684	0.22578	0.15324	0.22081	-1.9937	-1.8021	-2.2646	-2.4458	-1.55	-2.4708	-2.2	-2.0146	-2.5708	-1.6333	-2.4646	-2.4792	-1.7333	-2.5979	-1.9188	-1.9667	251.959	104.243	129.532	395.070	356.237	287.851	174.431	347.390	151.446	389.913	384.151	405.748	400.270	55.858	144.420	358.928	0.00034426	0.0003674	0.00012525	1269.4	4.7942e-06	5.6087e-06	1266.5	359.96	3.4766e-06	3.3046e-06	410	136.24	117.59	40.56	4.8521e-06	51.14	0.00025119	0.00018475	5.037e-05	1282.3	2.1778e-06	1.8742e-06	1281.1	364.53	2.0809e-06	1.9915e-06	414.99	139.15	119.63	41.405	2.1478e-06	52.162	179.464	134.733	140.000	60.363	203.297	204.998	60.326	65.054	211.803	184.288	64.525	68.799	69.312	74.109	198.388	73.055	-8191	255	
1425.915	1	1	0	0	0.2094	0.19564	0.1344	0.23706	0.13618	0.3027	0.24619	0.20458	0.21525	0.28153	0.30315	0.14578	0.29691	0.11627	0.11254	0.18413	-2.3104	-1.9146	-2.375	-2.6125	-1.5521	-2.5563	-2.2729	-1.7979	-2.4604	-1.7896	-2.0854	-2.4854	-1.525	-2.45	-2.0812	-1.9729	143.717	143.056	350.421	403.477	303.982	87.211	273.839	304.237	192.229	211.815	368.357	66.296	363.655	250.619	329.765	293.433	0.00035246	0.00051773	0.00013122	1268.3	5.9491e-06	4.9774e-06	1271.3	360.66	4.0121e-06	4.8054e-06	408.72	136.74	117.27	40.606	5.713e-06	51.385	0.00025697	0.0001848	4.8284e-05	1283	2.2441e-06	1.9218e-06	1282	365.11	2.1524e-06	2.0693e-06	414.82	139.41	119.44	41.482	2.009e-06	52.278	179.227	146.190	142.812	60.278	200.997	198.273	60.453	64.964	215.387	186.201	64.415	68.928	69.723	74.281	202.504	73.554	-8191	255	
1426.011	1	1	0	0	0.2192	0.13397	0.12631	0.32174	0.032634	0.16796	0.31635	0.068394	0.060363	0.071763	0.15942	0.13474	0.16444	0.222	0.20605	0.12553	-2.2458	-1.7917	-2.0458	-2.6083	-1.5812	-2.4958	-2.4083	-1.9146	-2.35	-1.8271	-2.1333	-2.4604	-1.9021	-2.3229	-2.3646	-1.7958	49.041	166.090	228.281	340.556	207.212	128.671	351.635	162.614	327.735	262.593	69.487	359.267	56.474	387.244	50.519	113.168	0.00036795	0.00054169	0.00013818	1275.3	5.1041e-06	3.7783e-06	1269.4	357.46	3.3147e-06	3.9657e-06	410.79	136.1	117.29	40.534	4.41e-06	51.111	0.00025802	0.00018169	4.9685e-05	1284.9	2.1905e-06	2.0112e-06	1281.6	363.86	2.1025e-06	1.9843e-06	415.04	139.29	119.53	41.438	2.0376e-06	52.157	181.498	135.235	135.570	60.477	200.060	211.709	60.495	65.286	215.790	179.020	64.593	69.133	70.054	74.132	207.537	73.486	-8191	255	
1426.083	1	1	0	0	0.20768	0.092209	0.14585	0.060398	0.30486	0.31058	0.33132	0.29797	0.062604	0.088298	0.059286	0.28082	0.25286	0.15514	0.23189	0.04163	-2.1896	-1.95	-1.7917	-2.6667	-1.7708	-2.0875	-2.5958	-1.6938	-2.5271	-2.1604	-1.8542	-2.9042	-1.7021	-2.3896	-2.4521	-1.9271	274.722	234.192	175.479	285.339	281.327	140.576	283.072	360.563	369.451	307.447	275.926	382.640	128.581	54.413	238.060	181.751	0.00036697	0.0005776	0.00013878	1267.8	4.9126e-06	3.864e-06	1266.2	357.99	3.9595e-06	5.1437e-06	412.08	136.98	117.25	40.618	3.7671e-06	51.173	0.00025379	0.00018748	5.3171e-05	1281	2.1467e-06	1.8893e-06	1279.6	363.89	2.1707e-06	1.9465e-06	415.33	139.43	119.52	41.479	1.9789e-06	52.121	182.191	130.440	151.027	60.545	212.593	180.847	60.850	65.177	218.770	208.165	64.551	69.285	69.765	74.326	207.105	73.422	-8191	255	
1426.203	1	1	0	0	0.040601	0.13336	0.25852	0.26368	0.30823	0.056428	0.14337	0.3054	0.15163	0.037438	0.16181	0.17517	0.042113	0.056497	0.18468	0.33269	-2.1292	-2.1333	-1.6146	-2.8583	-1.6271	-2.0042	-2.6354	-1.6833	-2.3312	-2.1792	-1.9229	-2.7104	-1.9188	-2.1813	-2.4083	-1.9771	237.888	376.144	239.906	357.315	266.206	236.785	340.424	353.680	234.735	305.013	74.293	352.646	122.507	126.851	253.645	384.465	0.00034604	0.00046295	0.00011625	1270.6	5.4258e-06	5.1795e-06	1269	358.07	4.8487e-06	5.2878e-06	409.13	136.5	117.63	40.767	5.1031e-06	51.232	0.00026064	0.00018249	5.3072e-05	1281.2	2.2587e-06	1.9401e-06	1279.7	363.7	2.2328e-06	1.8842e-06	415.26	139.44	119.45	41.458	2.09e-06	52.165	179.451	147.191	123.482	60.641	215.988	203.567	60.427	65.130	225.622	192.249	64.775	69.363	70.225	73.960	218.270	73.342	-8191	255	
1426.298	1	1	0	0	0.11567	0.10411	0.2715	0.12905	0.094784	0.036481	0.35772	0.13967	0.091958	0.075689	0.095821	0.23598	0.20453	0.11121	0.12845	0.20499	-1.9479	-2.3708	-1.7646	-2.7229	-2.0187	-1.8958	-2.8333	-1.8542	-2.275	-2.2958	-1.975	-2.7417	-1.9062	-1.9646	-2.4792	-1.925	54.751	300.278	400.718	396.072	153.717	108.754	318.833	355.652	87.173	372.251	322.336	392.545	362.745	397.924	220.718	393.519	0.00036557	0.00059506	0.00011007	1270.4	4.8579e-06	5.312e-06	1267	358.45	4.3772e-06	3.8909e-06	410.79	136.73	117.38	40.559	4.9714e-06	51.064	0.00025858	0.00017256	4.8253e-05	1282.2	2.1363e-06	1.9843e-06	1279.7	363.8	2.1584e-06	1.8491e-06	415.41	139.48	119.43	41.49	2.0402e-06	52.052	179.533	136.471	147.753	60.609	196.564	192.470	60.475	65.170	220.521	204.967	64.526	69.352	70.223	74.125	199.066	73.497	-8191	255	
1426.394	1	1	0	0	0.011856	0.20039	0.36206	0.24171	0.17006	0.24113	0.34525	0.185	0.098699	0.056859	0.27589	0.31869	0.24508	0.073857	0.12733	0.2008	-1.8062	-2.3521	-1.7146	-2.6979	-2.15	-2.0354	-2.7625	-2.0583	-2.2771	-2.6312	-1.8125	-2.5021	-2.2229	-1.9667	-2.6562	-1.9937	287.185	245.884	317.245	365.713	185.705	386.792	391.618	372.473	328.131	177.034	326.540	397.137	370.559	135.492	290.712	295.309	0.0003788	0.00048959	0.00014326	1270.1	5.5617e-06	4.4346e-06	1269.3	358.98	3.7762e-06	4.8685e-06	409.89	136.39	116.47	40.53	6.0838e-06	51.06	0.00025584	0.000176	4.9853e-05	1282.1	2.1279e-06	2.0349e-06	1279.8	363.88	2.1292e-06	1.8314e-06	414.17	139.49	118.95	41.416	2.0583e-06	52.117	181.171	130.811	142.624	60.299	212.223	222.791	60.485	64.839	212.335	199.845	64.407	69.240	69.675	73.852	200.160	73.207	-8191	255	
1426.515	1	1	0	0	0.10327	0.039429	0.28766	0.076559	0.10486	0.19959	0.20643	0.35926	0.29517	0.11237	0.27971	0.16361	0.22138	0.072166	0.19777	0.11516	-1.6812	-2.4542	-1.5396	-2.4708	-2.4208	-1.6292	-2.7833	-1.9521	-2.0125	-2.6333	-1.7479	-2.3479	-2.4354	-1.8396	-2.5271	-1.9979	168.513	136.924	155.323	297.847	271.815	215.340	321.288	319.939	400.470	65.433	252.669	56.296	85.109	263.770	263.371	262.357	0.00036562	0.00053517	0.0001235	1276.1	4.7629e-06	3.7218e-06	1273.2	358.95	3.4041e-06	4.5252e-06	408.55	136.88	117.78	40.47	4.9523e-06	51.094	0.0002634	0.00017005	5.0781e-05	1283.6	2.1636e-06	1.9601e-06	1281.9	363.36	2.244e-06	1.8967e-06	414.45	139.38	119.38	41.37	2.0142e-06	52.034	181.074	140.173	147.098	60.365	204.139	189.824	60.437	65.038	229.398	206.750	64.398	69.055	69.762	74.166	212.772	73.251	-8191	255	
1426.611	1	1	0	0	0.25077	0.22476	0.08727	0.04648	0.050845	0.30347	0.18204	0.40471	0.079685	0.015156	0.24789	0.067047	0.067558	0.37647	0.3001	0.2975	-1.5312	-2.5833	-1.8062	-2.4729	-2.4938	-1.6458	-2.6708	-2.1542	-1.7979	-2.6437	-1.9667	-2.1375	-2.4729	-1.6271	-2.3104	-2.2021	115.760	77.988	371.437	368.205	218.165	313.342	331.602	344.409	369.694	141.283	236.040	330.908	105.615	349.001	72.196	308.274	0.00035457	0.00047531	0.00015045	1275	4.4492e-06	4.1697e-06	1262.9	358.35	3.6331e-06	4.4948e-06	409.43	136.04	117.09	40.441	5.2715e-06	51.105	0.00026118	0.00017143	5.1571e-05	1281.8	2.1033e-06	2.0423e-06	1278.6	364.02	2.2375e-06	1.8825e-06	414.44	139.13	119.13	41.33	2.0393e-06	52.009	179.511	152.154	141.323	60.538	225.187	194.099	60.728	65.182	224.496	206.018	64.275	69.101	69.576	73.992	192.370	73.131	-8191	255	
1426.682	1	1	0	0	0.13902	0.37304	0.24462	0.27586	0.17068	0.21352	0.074825	0.18941	0.10604	0.26719	0.28208	0.1529	0.17792	0.28206	0.29148	0.11347	-1.4542	-2.6604	-1.8479	-2.4542	-2.5021	-1.7792	-2.5312	-2.4958	-1.8271	-2.5771	-2.1188	-2.25	-2.5	-1.7375	-2.4583	-2.2521	306.345	376.234	170.765	395.638	69.152	192.642	328.468	361.052	79.998	75.160	330.986	272.048	321.097	48.234	66.186	77.090	0.00035035	0.00053447	0.00014344	1273.8	4.9975e-06	4.5646e-06	1265.8	358.93	4.4411e-06	5.9319e-06	407.62	136.75	116.49	40.456	5.2108e-06	51.032	0.00026304	0.00018267	5.055e-05	1282.2	2.0725e-06	1.9263e-06	1279.6	363.94	2.2082e-06	1.9804e-06	413.54	139.18	118.81	41.36	2.0379e-06	51.945	180.853	120.377	137.860	60.592	212.945	196.400	60.659	65.062	214.243	191.853	64.486	68.913	69.977	74.270	211.412	73.361	-8191	255	
1426.779	1	1	0	0	0.04839	0.31519	0.16246	0.15466	0.12898	0.020982	0.05635	0.18903	0.22104	0.29723	0.31346	0.25291	0.026646	0.12116	0.34452	0.15629	-1.4792	-2.5583	-1.8458	-2.2229	-2.4188	-1.6688	-2.5812	-2.5312	-1.8042	-2.7646	-2.0271	-1.9667	-2.7438	-1.8229	-2.25	-2.3792	306.342	131.311	183.062	345.184	155.980	131.487	326.482	54.831	325.461	361.998	327.794	345.357	91.693	261.405	383.465	385.540	0.00035849	0.00044853	0.00017536	1273.6	4.9624e-06	3.3906e-06	1268.8	358.22	4.5885e-06	5.0692e-06	410.68	136.48	117.18	40.461	4.6837e-06	51.131	0.00026795	0.00017458	5.1932e-05	1282.1	2.1949e-06	1.8836e-06	1280.1	363.61	2.2901e-06	1.9002e-06	414.44	139.04	119.13	41.343	2.0874e-06	52.076	179.987	119.507	134.486	60.688	206.064	197.487	60.661	64.961	223.439	181.248	64.357	69.136	70.015	74.374	204.582	73.442	-8191	255	
1426.899	1	1	0	0	0.17426	0.094858	0.15332	0.3558	0.026495	0.20636	0.51189	0.33656	0.28762	0.23136	0.16065	0.12822	0.050374	0.23714	0.19183	0.21614	-1.2687	-2.5542	-2.0812	-1.8312	-2.6271	-1.7729	-2.4021	-2.5875	-1.6479	-2.3979	-2.2271	-1.8417	-2.7208	-1.7958	-2.0708	-2.5521	349.262	119.575	253.558	290.040	119.004	96.019	324.992	48.762	146.496	346.989	318.000	104.375	178.834	374.068	184.113	385.855	0.00035194	0.00052377	0.00012275	1268	6.0967e-06	5.0062e-06	1266.3	358.38	4.1592e-06	5.7458e-06	409.38	136.55	117.03	40.376	4.7684e-06	50.968	0.00026431	0.00016954	4.9094e-05	1281.4	2.0962e-06	2.026e-06	1279.1	363.72	2.1695e-06	1.7956e-06	414.7	139.21	119.2	41.375	2.1327e-06	52.041	181.367	136.229	144.730	60.623	203.448	199.312	60.433	64.956	226.640	204.153	64.442	69.140	69.681	73.773	207.607	73.394	-8191	255	
1426.995	1	1	0	0	0.16127	0.19578	0.057726	0.14284	0.077581	0.19063	0.20628	0.27123	0.026077	0.23112	0.25243	0.41153	0.050978	0.2537	0.10113	0.31503	-1.25	-2.2938	-2.1104	-1.9729	-2.6813	-1.9688	-2.1312	-2.5708	-1.4312	-2.3271	-2.3146	-1.9833	-2.7104	-1.9042	-1.8563	-2.5458	217.611	87.378	215.826	348.143	213.001	181.268	331.550	354.344	79.744	298.223	405.861	332.984	111.396	194.575	90.084	87.508	0.00036905	0.00041113	0.0001371	1271.5	4.1749e-06	4.9093e-06	1266.9	357.45	4.5243e-06	6.3192e-06	408.36	136.58	116.85	40.443	4.7854e-06	51.065	0.00027075	0.00017899	4.971e-05	1280.9	2.0823e-06	1.9858e-06	1279.5	363.52	2.2556e-06	1.9291e-06	414.37	139.22	119.29	41.371	2.0284e-06	52.054	180.478	134.944	146.870	60.704	195.200	198.137	60.744	65.063	217.346	223.252	64.383	69.235	70.263	74.064	209.531	73.001	-8191	255	
1427.092	1	1	0	0	0.29402	0.17315	0.11343	0.17758	0.10805	0.13299	0.088658	0.08974	0.058721	0.26324	0.37396	0.30517	0.23787	0.17535	0.20287	0.085364	-1.0896	-2.2583	-2.2896	-1.8833	-2.6271	-1.9583	-2.1167	-2.7	-1.7437	-2.2271	-2.5875	-1.9562	-2.6854	-2.1937	-1.6375	-2.7729	284.275	314.016	260.902	377.789	291.740	374.338	103.451	313.241	287.857	264.725	391.684	347.381	348.686	73.331	286.445	371.426	0.00032908	0.00035613	0.00013343	1273.5	4.8402e-06	4.4683e-06	1269.3	358.71	4.5233e-06	5.3362e-06	408.71	136.3	117.29	40.61	4.0274e-06	51.266	0.0002548	0.00017575	4.9853e-05	1282.4	2.0765e-06	1.9867e-06	1280.8	364.23	2.2365e-06	1.937e-06	414.14	139.05	119.28	41.398	1.9886e-06	52.053	181.019	140.141	131.558	60.586	209.727	201.115	60.704	64.950	214.332	213.758	64.380	68.893	69.809	73.930	189.643	72.885	-8191	255	
1427.188	1	1	0	0	0.14123	0.22824	0.24705	0.18468	0.16029	0.14425	0.21856	0.223	0.057433	0.23183	0.10529	0.11225	0.27669	0.14519	0.036473	0.37402	-1.1729	-2.1021	-2.325	-1.925	-2.3354	-2.3208	-1.8104	-2.6729	-1.9521	-2.1125	-2.7771	-1.6854	-2.5208	-2.3875	-1.65	-2.5229	236.937	334.380	81.163	349.845	247.708	129.451	407.070	348.708	313.585	121.598	391.714	212.995	85.394	359.740	195.855	156.445	0.00034659	0.00044455	0.00015171	1268.8	4.9911e-06	4.3919e-06	1266.2	358.99	4.4993e-06	4.4149e-06	408.55	136.7	116.71	40.44	3.7762e-06	50.826	0.00026033	0.0001738	4.8938e-05	1280.1	2.121e-06	1.9092e-06	1279.6	363.77	2.1398e-06	1.8935e-06	413.69	139.19	119.32	41.371	2.0867e-06	52.034	180.569	158.922	140.275	60.315	201.575	220.422	60.418	65.082	226.705	212.408	64.401	68.953	69.589	73.672	213.742	73.197	-8191	255	
1427.307	1	1	0	0	0.15102	0.16275	0.11794	0.2565	0.36622	0.10807	0.27398	0.45749	0.10129	0.16693	0.086784	0.053884	0.14244	0.23195	0.12867	0.13954	-1.6417	-1.825	-2.5542	-1.8375	-2.3521	-2.3292	-1.9375	-2.7438	-1.7917	-2.0396	-2.5896	-1.7708	-2.3375	-2.3625	-1.7	-2.7146	172.462	211.150	339.248	53.836	213.357	272.067	345.301	373.307	248.652	194.075	222.405	94.112	188.894	362.123	335.374	323.622	0.00034676	0.00039722	0.00016283	1273.4	4.6173e-06	3.8586e-06	1266.2	359.06	3.2071e-06	4.092e-06	410.72	136.29	117.03	40.361	4.7877e-06	50.97	0.00025498	0.00018775	5.0133e-05	1282.1	2.0797e-06	1.9482e-06	1280.3	363.8	2.227e-06	1.9188e-06	414.93	139.22	119.32	41.339	2.1649e-06	52.024	181.499	136.673	129.969	60.470	217.753	174.820	60.081	65.134	205.220	198.727	64.370	68.895	69.697	73.898	207.299	73.175	-8191	255	
1427.380	1	1	0	0	0.050741	0.10599	0.19452	0.20008	0.19227	0.14238	0.31814	0.40031	0.1293	0.29613	0.26988	0.16424	0.1623	0.23011	0.36406	0.26617	-1.6562	-2.0479	-2.6458	-1.8875	-2.075	-2.5625	-1.7167	-2.6521	-2.0479	-1.7854	-2.7292	-1.9646	-2.1396	-2.6958	-1.7396	-2.5292	235.118	187.181	326.792	288.718	48.935	374.769	353.756	374.407	152.460	300.399	391.989	146.927	361.035	59.365	282.488	384.709	0.00036694	0.00044796	0.00015968	1268.8	5.4648e-06	4.1052e-06	1267	359.66	4.1555e-06	5.3661e-06	408.35	135.85	116.72	40.512	4.6207e-06	51.209	0.00026374	0.0001852	5.1478e-05	1278	2.2735e-06	1.9927e-06	1279.2	364.33	2.1939e-06	2.0369e-06	414.08	138.97	119.02	41.362	2.168e-06	52.043	181.006	134.135	139.013	60.329	212.377	179.559	60.258	65.057	217.797	186.088	64.421	68.728	69.795	73.924	209.158	73.158	-8191	255	
1427.476	1	1	0	0	0.11037	0.055838	0.29635	0.060774	0.043756	0.27653	0.13581	0.057847	0.19768	0.21152	0.15366	0.2828	0.046724	0.2418	0.18085	0.063763	-1.9062	-1.6938	-2.5708	-1.9208	-2.0229	-2.5521	-1.9854	-2.475	-2.2021	-1.7708	-2.7313	-2.0583	-2.0312	-2.6562	-1.7125	-2.5	151.909	380.423	159.495	126.616	170.240	343.487	357.362	238.061	397.028	400.712	95.873	403.234	219.777	84.669	75.573	210.415	0.0003567	0.00038767	0.00015014	1269.3	5.2126e-06	4.1777e-06	1269.3	358.75	4.9514e-06	3.9964e-06	408.8	136.18	117.1	40.365	4.9685e-06	51.262	0.00025656	0.00017988	4.9305e-05	1281.9	2.1972e-06	1.9001e-06	1281.5	363.96	2.2085e-06	1.9406e-06	414.43	138.99	119.3	41.336	2.191e-06	52.062	181.193	142.876	129.988	60.265	203.252	197.570	60.155	64.705	226.060	199.927	64.224	68.790	69.658	73.652	202.908	73.167	-8191	255	
1427.595	1	1	0	0	0.02902	0.29459	0.23538	0.29315	0.26064	0.063588	0.3161	0.27124	0.10031	0.19628	0.14217	0.062162	0.20256	0.22818	0.12443	0.33991	-1.8354	-1.6437	-2.4979	-2.1854	-1.7021	-2.7062	-1.8458	-2.6042	-2.2771	-1.8229	-2.5854	-2.2354	-1.9875	-2.5979	-1.7104	-2.2792	402.815	225.134	171.969	378.598	362.575	101.016	336.132	310.282	325.341	170.901	332.073	234.296	54.209	69.065	187.613	292.102	0.00035557	0.00050798	0.00014384	1273.3	5.9517e-06	5.4465e-06	1264.3	357.35	3.7148e-06	4.2261e-06	410.7	136.74	117.07	40.481	5.2901e-06	51.366	0.00025862	0.00018613	4.9112e-05	1281.8	2.1824e-06	1.8505e-06	1280.6	363.34	2.119e-06	1.9389e-06	415.13	139.18	119.38	41.367	2.1239e-06	52.196	180.012	142.029	144.331	60.045	205.393	196.623	60.064	64.823	218.518	197.518	64.292	68.616	69.510	73.586	190.896	73.032	-8191	255	
1427.691	1	1	0	0	0.21383	0.25662	0.10469	0.26621	0.14816	0.11595	0.24136	0.17727	0.17737	0.25722	0.088985	0.0099675	0.14748	0.28056	0.11374	0.18193	-1.9854	-1.65	-2.5458	-2.2687	-1.7958	-2.3375	-2.0021	-2.2729	-2.4958	-1.6104	-2.5062	-2.3104	-1.6771	-2.9396	-1.9104	-2.0687	268.531	126.843	163.947	294.626	272.419	231.207	345.417	347.142	391.965	267.085	336.246	352.948	350.004	314.409	296.263	302.918	0.00036457	0.00037294	0.0001782	1267.4	5.4348e-06	5.379e-06	1267.8	359.07	4.0464e-06	4.2435e-06	409.86	136.36	116.69	40.433	5.5523e-06	50.993	0.00025615	0.00018952	4.9168e-05	1281.2	2.165e-06	1.8601e-06	1279.9	364.33	2.1628e-06	1.963e-06	415.18	139.09	118.98	41.359	2.0857e-06	52.019	182.088	139.389	149.092	60.104	200.108	204.050	60.198	64.930	218.556	202.836	64.151	68.974	69.741	74.076	202.101	73.207	-8191	255	
1427.787	1	1	0	0	0.087358	0.19336	0.15115	0.4106	0.25261	0.19885	0.20697	0.3258	0.26481	0.051426	0.18824	0.34336	0.31263	0.17531	0.1197	0.068127	-1.95	-1.75	-2.3958	-2.3563	-1.3708	-2.4125	-2.1208	-2.0938	-2.5792	-1.5917	-2.4021	-2.3917	-1.8375	-2.3583	-1.9125	-1.9292	376.263	90.515	306.371	387.006	272.638	400.784	306.244	337.935	240.253	379.753	357.312	366.803	59.217	374.904	299.162	47.355	0.00037587	0.0005364	0.0001106	1274.9	4.9644e-06	4.1029e-06	1266.7	358.04	3.4804e-06	5.6197e-06	410.34	136.48	117.11	40.539	5.5398e-06	50.769	0.00026028	0.00017469	4.8228e-05	1282.2	2.1961e-06	1.8651e-06	1280.2	363.88	2.093e-06	2.0266e-06	414.07	139.14	119.44	41.434	2.0537e-06	51.992	180.199	135.065	146.299	60.199	215.330	177.772	60.227	64.880	224.345	198.866	64.482	69.056	69.578	73.826	195.473	73.463	-8191	255	
1427.883	1	1	0	0	0.25987	0.12214	0.035187	0.42712	0.099049	0.10272	0.35331	0.21645	0.35401	0.095147	0.28796	0.14107	0.15822	0.26851	0.24193	0.091633	-2.1792	-1.8021	-2.1458	-2.5354	-1.3417	-2.6521	-2.2104	-2.0438	-2.5667	-1.9979	-2.2812	-2.5458	-1.7542	-2.4437	-2.1188	-1.6771	377.617	262.231	332.233	370.874	400.006	191.851	302.404	377.036	130.181	303.325	355.746	405.215	398.722	382.108	84.673	328.995	0.00035082	0.00050076	0.00012816	1269.5	5.7734e-06	3.6473e-06	1269.8	358.29	3.8707e-06	4.7776e-06	409.07	136.77	117.1	40.427	4.8597e-06	51.233	0.00025424	0.0001828	4.8963e-05	1281.5	2.1947e-06	1.8976e-06	1279.4	363.46	2.0876e-06	1.922e-06	414.59	139.17	119.28	41.335	2.076e-06	52.085	178.193	127.833	134.545	60.385	203.735	196.425	60.166	65.078	221.069	200.523	64.525	68.778	69.526	74.254	188.740	73.241	-8191	255	
1427.980	1	1	0	0	0.029465	0.084503	0.024177	0.3728	0.13993	0.084962	0.3098	0.3019	0.23716	0.11654	0.076943	0.22404	0.19674	0.023964	0.28901	0.12455	-2.2812	-1.9333	-1.8667	-2.5938	-1.4917	-2.6292	-2.3333	-1.7729	-2.5812	-1.8979	-2.3333	-2.3771	-1.7083	-2.375	-2.3208	-1.7437	317.960	177.632	253.567	59.243	206.542	288.468	326.175	367.203	206.058	156.550	273.265	372.571	146.724	399.281	253.979	378.249	0.00036956	0.00046359	0.00011228	1270.6	4.2441e-06	5.0162e-06	1269	358.06	3.8373e-06	4.1743e-06	407.73	136.48	117.05	40.49	4.9572e-06	51.035	0.00025698	0.00017659	5.0046e-05	1280.5	2.2519e-06	1.89e-06	1279.5	363.92	2.1053e-06	1.9912e-06	414.16	139.2	119.25	41.42	2.0651e-06	52.102	184.219	132.963	125.601	60.431	217.629	188.380	60.412	64.913	209.366	211.485	64.097	69.006	69.613	73.919	200.090	73.398	-8191	255	
1428.076	1	1	0	0	0.21126	0.19436	0.13036	0.015079	0.25841	0.13226	0.11137	0.24589	0.16031	0.021722	0.044906	0.15117	0.37155	0.19978	0.22706	0.24021	-2.125	-1.8375	-1.7104	-2.7188	-1.7354	-2.1771	-2.5312	-1.825	-2.5625	-1.8771	-2.0146	-2.5125	-1.7521	-2.2938	-2.1479	-1.7938	152.736	341.006	208.427	96.806	182.389	297.280	330.101	357.145	389.456	137.522	94.546	332.721	88.785	379.883	237.023	323.471	0.00035152	0.000519	0.00013368	1270.6	4.4615e-06	4.3532e-06	1266.9	358.68	3.6473e-06	4.3881e-06	408.61	137.06	117.17	40.691	5.0743e-06	51.094	0.00025116	0.0001877	5.0195e-05	1281.6	2.165e-06	1.8996e-06	1280.7	364.01	2.0853e-06	1.8275e-06	414.65	139.39	119.21	41.523	2.0609e-06	52.142	181.290	128.587	136.229	60.106	215.669	204.920	60.014	64.720	221.659	198.451	63.942	68.833	69.531	73.539	202.622	73.028	-8191	255	
1428.196	1	1	0	0	0.11371	0.14006	0.080142	0.22478	0.21904	0.16832	0.21056	0.15608	0.11785	0.17824	0.39502	0.11587	0.14073	0.29023	0.069717	0.072749	-2.2375	-1.9729	-1.6333	-2.6521	-1.875	-2.2521	-2.5333	-1.7708	-2.3208	-1.9312	-2.0438	-2.7021	-1.8083	-2.1354	-2.2854	-1.7604	303.629	370.965	178.643	47.356	141.129	97.473	325.054	315.164	80.823	363.702	390.882	362.032	72.258	367.062	400.033	264.805	0.0003546	0.00050517	0.00015949	1270.8	4.9898e-06	5.3016e-06	1264.7	358.8	4.313e-06	4.7486e-06	409.24	136.63	117.45	40.728	3.8269e-06	51.176	0.00025729	0.00017635	5.0818e-05	1281	2.0931e-06	1.9761e-06	1280.3	364.35	2.1883e-06	1.9512e-06	415.37	139.69	119.48	41.48	2.0218e-06	52.08	176.690	133.883	153.567	59.978	204.903	193.238	60.136	64.593	215.496	180.588	63.985	68.699	69.340	73.330	209.208	72.759	-8191	255	
1428.291	1	1	0	0	0.23009	0.14522	0.17891	0.2997	0.20007	0.19118	0.11506	0.080003	0.0024454	0.19031	0.18101	0.06984	0.20545	0.17379	0.05182	0.12976	-2.0625	-2.3625	-1.7	-2.6104	-1.7938	-2.0125	-2.6792	-1.85	-2.4188	-2.2208	-1.6167	-2.6063	-1.8208	-1.8542	-2.5896	-1.8354	236.857	101.653	232.791	394.303	58.969	80.368	324.354	54.353	66.977	354.832	102.639	363.006	271.145	364.885	324.807	341.052	0.00036685	0.00051653	0.00014949	1271.8	4.8439e-06	4.0734e-06	1266.9	358.8	4.1614e-06	4.8401e-06	408.8	136.62	116.94	40.713	5.174e-06	51.349	0.00025235	0.00017396	5.0444e-05	1282.8	2.1467e-06	1.9648e-06	1280.5	363.98	2.1999e-06	1.8101e-06	414.9	139.44	119.3	41.516	1.9886e-06	52.278	181.187	123.727	138.556	60.234	219.678	199.284	60.047	64.606	219.233	195.330	64.110	68.333	69.334	73.773	204.338	72.993	-8191	255	
1428.387	1	1	0	0	0.11852	0.14782	0.14653	0.23215	0.30011	0.20419	0.19135	0.48902	0.17124	0.23936	0.1987	0.25207	0.28968	0.33941	0.22669	0.24835	-1.7812	-2.3354	-1.8708	-2.7271	-2.1021	-1.7271	-2.65	-1.7958	-2.1688	-2.3875	-1.7458	-2.4917	-2.1542	-1.675	-2.4813	-1.8542	262.530	319.099	132.933	370.799	376.789	389.387	390.393	369.846	276.247	265.787	304.807	220.385	92.685	67.644	50.560	55.407	0.00037064	0.00059077	0.0001599	1270.3	5.5953e-06	3.5929e-06	1269.1	358.14	4.192e-06	4.5788e-06	410.83	136.51	116.24	40.506	5.3588e-06	51.281	0.00025576	0.00018121	5.0924e-05	1282.5	2.1676e-06	1.8935e-06	1281.2	364.13	2.1361e-06	1.9988e-06	415.06	139.33	119	41.338	2.0111e-06	52.127	178.686	127.630	137.540	60.097	208.286	201.101	60.002	64.874	217.528	194.910	64.100	68.703	69.078	73.600	202.171	73.012	-8191	255	
1428.483	1	1	0	0	0.019342	0.25828	0.12059	0.184	0.16648	0.29121	0.33704	0.08068	0.23302	0.14436	0.1127	0.083956	0.13302	0.059418	0.19204	0.13384	-1.6938	-2.5312	-1.575	-2.6479	-2.2104	-1.6792	-2.7	-1.9854	-2.1042	-2.6917	-1.8188	-2.2979	-2.1229	-1.7021	-2.5438	-1.95	126.285	110.328	340.906	388.717	299.031	187.044	349.117	146.883	213.054	167.103	97.783	309.676	101.202	379.286	261.646	57.635	0.00037177	0.00047499	0.00013835	1270.2	4.8015e-06	3.761e-06	1268.5	358.17	3.3625e-06	5.404e-06	409.55	136.67	116.95	40.4	5.2041e-06	51.027	0.00026123	0.00017127	4.9716e-05	1281.5	2.0783e-06	1.9369e-06	1280.3	363.92	2.1915e-06	1.9038e-06	414.43	139.25	119.33	41.362	2.0471e-06	52.023	181.959	127.500	138.775	60.118	203.613	184.647	60.197	64.701	231.305	187.717	63.945	68.563	69.195	73.942	198.994	72.582	-8191	255	
1428.579	1	1	0	0	0.18025	0.27885	0.19983	0.21285	0.12431	0.13783	0.14161	0.17006	0.19268	0.15073	0.28905	0.17576	0.075672	0.19572	0.13834	0.35898	-1.5208	-2.5271	-1.6812	-2.4979	-2.1813	-1.6021	-2.625	-2.0208	-1.7458	-2.5938	-1.7583	-2.1104	-2.3187	-1.6479	-2.4979	-2.1354	221.166	352.028	62.652	283.465	235.987	276.892	341.987	282.847	176.534	161.973	64.482	385.313	391.036	117.425	368.218	253.639	0.00036803	0.00053969	0.00016541	1279.5	4.9768e-06	5.3574e-06	1268.4	358.97	3.8468e-06	4.8594e-06	411.81	136.85	117.22	40.56	4.05e-06	51.21	0.00026409	0.00017453	5.0886e-05	1287.2	2.1126e-06	1.9529e-06	1282.2	363.74	2.1433e-06	1.893e-06	415.69	139.48	119.19	41.481	1.9696e-06	52.065	181.526	137.065	153.052	60.041	210.821	185.571	60.303	64.698	218.367	209.341	63.966	68.969	69.688	73.711	204.892	72.884	-8191	255	
1428.675	1	1	0	0	0.29033	0.14144	0.13817	0.087272	0.053905	0.29462	0.22135	0.24581	0.08558	0.18653	0.25079	0.048348	0.15008	0.088691	0.27808	0.06377	-1.4062	-2.5208	-1.5479	-2.4146	-2.5438	-1.5979	-2.6667	-2.2521	-1.725	-2.5792	-1.9042	-2.1562	-2.3958	-1.5312	-2.4625	-2.2354	97.167	351.162	74.319	324.284	388.785	299.286	383.365	83.938	203.519	109.753	395.082	125.593	346.879	50.216	86.677	46.816	0.00036913	0.00061509	0.00011508	1268.9	4.5844e-06	3.9012e-06	1269.9	358.71	4.7937e-06	5.1414e-06	409.5	136.56	117.4	40.663	4.1356e-06	51.039	0.00025988	0.00017027	5.1017e-05	1284.2	2.1731e-06	1.9833e-06	1282.7	363.71	2.3191e-06	1.8744e-06	415.02	139.34	119.35	41.498	2.0158e-06	52.149	180.685	132.834	145.590	60.405	203.457	192.932	60.179	64.800	205.378	208.206	64.216	68.706	69.343	73.554	198.681	72.853	-8191	255	
1428.772	1	1	0	0	0.25256	0.33081	0.17884	0.30807	0.30097	0.065229	0.18495	0.28645	0.24836	0.25741	0.18715	0.11795	0.14461	0.40606	0.10036	0.051403	-1.1521	-2.3167	-1.8354	-2.0062	-2.6667	-1.5708	-2.5187	-2.1667	-1.7542	-2.4062	-1.9688	-2.075	-2.6667	-1.7979	-2.1646	-2.2812	324.725	285.025	146.623	386.027	81.980	398.571	340.721	286.974	135.204	105.056	376.744	150.751	326.679	381.635	394.589	304.222	0.0003522	0.00048323	0.00015262	1274.7	5.3438e-06	5.0262e-06	1269.7	358.73	3.9899e-06	5.0579e-06	410.24	136.94	117.53	40.598	5.409e-06	51.227	0.00026501	0.00017779	5.2269e-05	1283.8	2.1599e-06	1.9917e-06	1283.4	364.3	2.2855e-06	1.8535e-06	415.29	139.74	119.55	41.541	2.0969e-06	52.193	180.244	140.569	139.975	60.093	218.555	191.201	60.404	64.686	215.605	199.992	64.214	68.779	69.596	73.855	195.432	73.231	-8191	255	
1428.868	1	1	0	0	0.24405	0.20145	0.19607	0.30873	0.1502	0.28501	0.24363	0.36233	0.10269	0.17096	0.18026	0.22116	0.14611	0.16186	0.10692	0.027281	-1.2437	-2.6167	-1.8458	-2.0625	-2.4604	-1.7313	-2.3417	-2.3937	-1.6313	-2.5021	-2.0812	-1.8438	-2.5604	-1.8146	-2.0833	-2.6792	86.263	48.728	326.187	363.679	406.513	205.903	321.820	356.057	272.470	135.043	145.447	367.247	351.746	50.446	233.868	82.659	0.0003558	0.00056528	0.00011369	1271.8	3.9021e-06	4.9323e-06	1273.7	357.29	3.8435e-06	4.5112e-06	411.04	136.61	117.41	40.311	5.6565e-06	50.861	0.00026143	0.00018611	5.0557e-05	1283.8	2.0565e-06	2.0003e-06	1283.2	363.78	2.2352e-06	1.9019e-06	415.25	139.48	119.38	41.363	2.1469e-06	52.03	183.116	141.721	117.954	60.400	205.316	211.328	60.556	64.749	202.297	184.004	64.273	68.985	69.785	73.750	217.142	73.095	-8191	255	
1428.964	1	1	0	0	0.17961	0.13416	0.31103	0.2137	0.23767	0.15059	0.31356	0.1753	0.13007	0.24661	0.070495	0.23516	0.19589	0.095843	0.22248	0.099984	-1.1333	-2.4271	-2.1979	-1.9583	-2.5979	-1.7062	-2.1937	-2.5125	-1.5938	-2.3792	-2.425	-1.85	-2.775	-1.7667	-1.9083	-2.6146	156.647	269.691	398.214	378.801	339.100	284.622	329.445	361.355	120.629	185.044	287.347	71.300	75.765	368.802	219.360	332.954	0.00034834	0.00050233	0.00014195	1272.3	4.2702e-06	5.41e-06	1274.6	359.09	3.737e-06	5.3942e-06	411.41	136.94	117.7	40.543	4.9588e-06	51.307	0.00026344	0.00018832	5.0308e-05	1283.9	2.0517e-06	1.9825e-06	1284.6	364.62	2.2236e-06	1.9576e-06	415.96	139.59	119.72	41.519	2.0777e-06	52.176	184.083	143.275	122.701	60.472	202.462	190.845	60.467	64.955	220.709	192.126	63.888	68.988	69.783	73.876	192.569	73.148	-8191	255	
1429.084	1	1	0	0	0.044646	0.40788	0.20893	0.51662	0.25841	0.02996	0.54624	0.0382	0.28248	0.25104	0.24052	0.19716	0.20947	0.098396	0.31704	0.32158	-1.3021	-2.2646	-2.2	-1.9729	-2.3146	-1.9271	-2	-2.8354	-1.75	-2.2792	-2.4562	-1.7229	-2.7021	-2.0958	-1.8458	-2.8729	110.506	274.529	282.110	391.651	111.366	234.157	339.757	332.854	64.635	162.575	346.634	85.096	385.344	57.327	84.865	333.210	0.00035386	0.00040512	0.00013796	1274.6	5.4661e-06	4.7559e-06	1270.4	359.73	4.5213e-06	5.724e-06	410.29	136.4	117.55	40.889	5.3232e-06	51.211	0.00026916	0.00018149	5.2094e-05	1285.4	2.2123e-06	1.9611e-06	1282.5	364.63	2.2328e-06	1.9735e-06	415.7	139.52	119.59	41.597	2.159e-06	52.167	182.721	123.111	132.221	60.393	198.261	195.390	60.214	64.952	215.372	193.934	64.032	68.718	69.656	74.037	202.186	72.927	-8191	255	
1429.181	1	1	0	0	0.41001	0.16416	0.19009	0.23313	0.19764	0.096384	0.29295	0.22168	0.27859	0.1407	0.21867	0.23065	0.26471	0.22748	0.13066	0.26141	-1.2021	-2.2208	-2.3479	-1.9396	-2.3875	-1.9375	-1.9979	-2.6542	-1.6208	-2.1542	-2.3708	-1.8333	-2.6229	-2.1354	-1.6854	-2.6729	106.913	349.801	300.928	77.350	361.095	200.542	362.969	378.960	223.850	333.936	399.370	168.025	380.681	132.058	175.297	368.740	0.00035279	0.00057495	0.00013292	1277.5	4.4719e-06	3.9269e-06	1269.3	359.29	3.906e-06	4.3048e-06	411.31	137.22	118.04	40.582	4.6283e-06	51.138	0.00026739	0.00018263	4.8284e-05	1285.4	2.1089e-06	1.9253e-06	1282.6	364.57	2.2319e-06	1.9892e-06	415.46	139.56	120.01	41.466	2.0902e-06	52.24	178.409	135.739	129.311	60.251	216.028	207.163	60.551	65.004	205.879	186.215	64.227	68.797	70.018	73.733	188.015	73.138	-8191	255	
1429.277	1	1	0	0	0.22621	0.21261	0.32371	0.17951	0.1179	0.066668	0.38413	0.21117	0.15869	0.018436	0.18886	0.271	0.099777	0.26899	0.14407	0.20852	-1.4396	-1.9	-2.4	-1.9417	-2.3979	-2.2854	-1.9	-2.775	-1.9271	-1.9583	-2.6437	-1.8042	-2.3417	-2.3125	-1.6458	-2.7188	274.531	64.207	323.461	311.509	227.045	135.742	322.944	386.330	122.192	151.939	140.037	344.800	364.864	342.945	154.510	404.031	0.00033949	0.00055465	0.00011479	1272.6	3.8021e-06	4.1897e-06	1271.3	358.99	4.156e-06	5.6271e-06	409.39	136.21	118.01	40.447	5.2531e-06	51.415	0.00025889	0.00018212	4.7543e-05	1283.1	2.1694e-06	1.9174e-06	1284.3	365.04	2.2384e-06	1.9608e-06	415.11	139.38	119.66	41.399	2.2341e-06	52.202	182.811	149.812	136.819	60.311	208.938	189.581	60.229	64.889	217.691	218.129	63.927	68.641	69.827	73.582	208.762	73.001	-8191	255	
1429.371	1	1	0	0	0.13471	0.15779	0.34994	0.47732	0.17626	0.17912	0.35079	0.3984	0.14042	0.3256	0.21708	0.21652	0.056853	0.23034	0.17373	0.056309	-1.6313	-1.9062	-2.5917	-1.7604	-2.1854	-2.1875	-1.9542	-2.6271	-2.0938	-1.8271	-2.5187	-1.9562	-2.2438	-2.6271	-1.6938	-2.5667	131.408	383.552	375.104	319.396	308.751	309.951	341.921	331.069	406.685	395.055	365.900	378.204	216.172	334.110	72.307	62.737	0.00035108	0.00057002	0.0001486	1279.2	5.4229e-06	4.7991e-06	1278.3	360.02	4.1539e-06	4.297e-06	410.39	136.77	117.08	40.682	5.4172e-06	51.034	0.00026332	0.00018943	4.8521e-05	1287.5	2.2044e-06	1.931e-06	1287.3	365.08	2.2463e-06	1.9554e-06	415.71	139.62	119.63	41.517	2.1379e-06	52.086	181.836	138.807	130.065	60.208	211.401	189.917	60.490	64.811	209.268	209.203	64.266	68.769	69.585	73.653	214.422	73.309	-8191	255	
1429.467	1	1	0	0	0.41393	0.11171	0.37816	0.26631	0.15258	0.16194	0.25232	0.25219	0.051979	0.18347	0.24929	0.15537	0.435	0.28667	0.29793	0.08844	-1.6854	-1.7938	-2.5292	-1.9021	-2.1813	-2.4437	-2.0208	-2.525	-2.0958	-1.7896	-2.7583	-1.9729	-2.0542	-2.45	-1.5896	-2.5771	225.034	275.101	341.233	373.786	303.385	58.531	254.721	319.534	302.690	343.308	356.234	92.019	50.885	115.156	64.734	88.817	0.0003648	0.00054983	0.00017181	1275.4	4.6024e-06	4.8155e-06	1272.7	359.55	3.8773e-06	5.5689e-06	412.17	137	117.9	40.675	4.5847e-06	51.218	0.00026561	0.0001911	5.1341e-05	1288.9	2.2573e-06	1.9887e-06	1286.5	365.38	2.24e-06	1.976e-06	416.21	139.68	119.78	41.573	2.1886e-06	52.26	180.485	142.651	141.912	60.103	201.862	195.810	60.440	64.914	217.063	204.116	64.430	68.856	69.859	73.827	204.233	73.322	-8191	255	
1429.565	1	1	0	0	0.26837	0.034852	0.064795	0.24504	0.066632	0.073765	0.2051	0.32042	0.087484	0.19415	0.3567	0.18159	0.18431	0.1667	0.30636	0.11112	-1.7979	-1.725	-2.4688	-2.1083	-2.0062	-2.6771	-1.9688	-2.5604	-2.2938	-1.6708	-2.8667	-2.0917	-2.0812	-2.6271	-1.9229	-2.4	288.502	94.934	301.194	394.433	361.714	271.734	322.562	313.447	308.671	236.318	73.226	338.943	84.416	72.856	252.932	343.831	0.00034873	0.00051429	9.4522e-05	1278.4	5.3384e-06	4.7607e-06	1273.7	360.1	4.2893e-06	5.756e-06	410.16	136.4	118.38	40.616	4.6821e-06	51.462	0.00026515	0.00019161	5.1198e-05	1289.1	2.2751e-06	1.9759e-06	1287.2	365.42	2.2414e-06	2.0533e-06	416.03	139.54	119.85	41.411	2.0739e-06	52.237	184.817	136.661	157.740	60.432	213.369	197.841	60.594	64.972	209.109	188.328	64.591	69.088	70.154	73.947	203.119	73.467	-8191	255	
1429.684	1	1	0	0	0.13554	0.18628	0.14898	0.28184	0.34568	0.2142	0.20359	0.39276	0.050608	0.050981	0.4312	0.16109	0.14581	0.26613	0.15969	0.2082	-1.9	-1.3125	-2.4917	-2.2833	-1.8312	-2.5083	-2.0375	-2.3958	-2.3167	-1.6708	-2.5438	-2.4146	-1.7729	-2.6771	-1.7583	-2.2208	206.068	388.980	385.015	89.462	107.826	403.628	356.915	396.339	193.870	339.088	321.791	68.028	319.366	340.707	391.523	374.648	0.00032702	0.00053172	0.0001511	1278.9	5.374e-06	4.2875e-06	1274.8	360.14	4.6794e-06	4.8235e-06	413.26	136.26	117.75	40.638	4.6382e-06	50.81	0.0002523	0.00018788	4.8322e-05	1289.3	2.2373e-06	1.9589e-06	1288.3	365.31	2.1922e-06	1.9907e-06	417.48	139.56	119.78	41.526	2.141e-06	52.181	182.117	134.459	131.973	60.530	208.693	195.697	60.597	65.402	223.590	207.270	64.580	69.041	69.856	74.026	217.084	73.577	-8191	255	
1429.780	1	1	0	0	0.16904	0.026957	0.20563	0.21419	0.11038	0.21381	0.10384	0.25187	0.23148	0.29733	0.1891	0.15222	0.17542	0.23955	0.26824	0.098749	-2.125	-1.7375	-2.5	-2.4604	-1.4146	-2.6896	-1.9958	-2.1229	-2.5292	-1.7146	-2.5563	-2.375	-1.7188	-2.6208	-2.1125	-2.1104	80.114	122.230	320.547	336.432	292.636	302.602	383.926	405.249	332.767	304.871	88.906	386.648	97.020	54.013	113.426	333.775	0.00035233	0.00050944	0.00011318	1278.9	3.8447e-06	5.0366e-06	1273.1	359.44	4.1318e-06	4.6494e-06	410.73	137.32	117.47	40.65	4.3206e-06	51.096	0.00026144	0.0001856	5.2156e-05	1289.8	2.3528e-06	1.9835e-06	1286.1	365.26	2.1832e-06	2.0192e-06	416.56	139.59	119.83	41.485	2.1327e-06	52.107	180.927	135.462	130.164	60.436	209.274	193.457	60.557	65.433	219.046	182.611	64.760	69.128	70.157	73.974	211.396	73.508	-8191	255	
1429.876	1	1	0	0	0.4157	0.071088	0.13571	0.17932	0.10829	0.071523	0.33493	0.20601	0.1548	0.14053	0.047219	0.17332	0.12796	0.079969	0.12623	0.1595	-2.0521	-1.7125	-2.3063	-2.4542	-1.5208	-2.5729	-2.1813	-2.0812	-2.5042	-1.7	-2.3833	-2.4021	-1.5146	-2.5083	-1.8729	-1.8854	102.511	56.179	109.720	336.784	362.599	386.806	364.167	393.303	221.487	132.422	284.844	311.606	346.412	379.231	54.065	320.696	0.00035135	0.00036708	0.0001273	1282.6	5.0396e-06	4.1721e-06	1274.1	360.91	5.2255e-06	4.4142e-06	411.84	137.54	117.03	40.673	4.5355e-06	51.497	0.00026299	0.00019895	4.9025e-05	1289.6	2.2429e-06	1.8999e-06	1287.7	365.9	2.2577e-06	1.9784e-06	416.42	139.72	119.45	41.518	2.0713e-06	52.2	177.858	130.843	143.921	60.696	193.306	213.689	60.567	65.320	214.859	197.291	64.427	69.538	70.194	74.197	217.956	73.499	-8191	255	
1429.973	1	1	0	0	0.1053	0.031561	0.19589	0.14862	0.117	0.28677	0.29576	0.50962	0.19864	0.27251	0.21523	0.28842	0.082278	0.27641	0.032787	0.2289	-2.1312	-1.6521	-1.9521	-2.5667	-1.3292	-2.5354	-2.2667	-1.8917	-2.475	-1.6958	-2.0396	-2.4042	-1.6729	-2.4771	-2.175	-1.7708	233.513	162.642	61.548	373.530	151.864	214.692	344.816	351.071	198.416	264.365	99.471	73.250	128.943	386.725	133.495	355.473	0.00037058	0.00045364	0.00012796	1279.4	5.2299e-06	3.1192e-06	1274	360.91	4.6504e-06	5.8148e-06	412.96	137.04	117.05	40.666	4.5305e-06	51.381	0.00026116	0.00018941	5.243e-05	1289.9	2.2772e-06	2.0112e-06	1288.3	366.04	2.2198e-06	2.0408e-06	416.87	139.72	119.69	41.576	2.1177e-06	52.343	180.553	135.190	143.564	60.492	200.640	195.854	60.690	65.122	212.947	205.431	64.145	69.125	69.782	74.120	211.626	73.729	-8191	255	
1430.069	1	1	0	0	0.10196	0.09898	0.16535	0.088379	0.18956	0.090001	0.24752	0.22578	0.027577	0.082312	0.23416	0.31393	0.20386	0.27915	0.22143	0.20922	-2.1021	-1.6562	-1.8375	-2.7583	-1.6708	-2.4083	-2.5646	-1.7	-2.4688	-1.9813	-1.7083	-2.6542	-1.8188	-2.3375	-2.3042	-1.6208	160.408	155.502	278.015	338.156	239.483	201.678	332.396	281.897	356.310	210.093	330.071	48.186	173.891	74.630	313.433	309.293	0.00035608	0.00047903	0.00011695	1281.9	3.7328e-06	4.7369e-06	1276.8	360.64	3.4784e-06	4.5774e-06	411.7	136.7	117.49	40.505	3.7402e-06	51.2	0.00026234	0.00018952	5.1372e-05	1290.9	2.2981e-06	1.9194e-06	1288.3	365.75	2.2089e-06	1.9902e-06	416.45	139.42	119.82	41.484	2.1011e-06	52.165	179.450	145.474	139.661	60.728	218.566	200.947	60.464	65.115	222.413	191.317	64.782	69.264	69.768	74.285	215.182	73.490	-8191	255	
1430.165	1	1	0	0	0.076386	0.13502	0.20449	0.40873	0.074222	0.21611	0.32123	0.27856	0.053184	0.26511	0.1285	0.25312	0.34799	0.24084	0.24415	0.26633	-2.0312	-2.1083	-1.9562	-2.7375	-1.7146	-1.8979	-2.5271	-1.6792	-2.5229	-2.0979	-1.8458	-2.6854	-1.8771	-2.2542	-2.5021	-1.5812	231.448	211.142	180.511	374.551	395.909	145.587	313.145	397.301	78.440	383.896	393.263	403.755	354.156	398.362	293.440	278.891	0.00038423	0.0004811	0.00013095	1282.3	3.9115e-06	4.3698e-06	1277.7	360.87	3.7755e-06	5.417e-06	411.36	136.56	117.42	40.641	3.4813e-06	51.39	0.0002671	0.00019158	5.1117e-05	1291.7	2.3131e-06	2.1136e-06	1289.2	366.13	2.2349e-06	2.0084e-06	416.52	139.6	119.68	41.528	2.0052e-06	52.278	180.074	144.231	135.372	60.370	200.642	188.415	60.668	65.377	213.868	213.027	64.690	69.132	69.670	74.131	200.232	72.942	-8191	255	
1430.285	1	1	0	0	0.28509	0.14423	0.083673	0.30361	0.17094	0.13305	0.21651	0.51805	0.12109	0.15216	0.27983	0.27312	0.21558	0.14254	0.15556	0.13728	-2.0896	-1.9813	-1.7167	-2.5292	-1.6667	-2.0458	-2.7167	-1.675	-2.4771	-2.2479	-1.9333	-2.6292	-1.8813	-1.9646	-2.6646	-1.8208	377.145	68.586	105.394	394.011	215.368	207.608	297.198	400.849	240.430	64.985	57.521	47.301	395.390	311.796	50.541	168.763	0.00034104	0.00039712	0.00014585	1284.5	4.8959e-06	6.2302e-06	1279.7	359.75	3.3176e-06	5.9207e-06	413.16	137.22	117.06	40.594	4.9818e-06	51.413	0.00025498	0.00018761	5.3215e-05	1292.4	2.2364e-06	2.0057e-06	1290.9	365.87	2.263e-06	1.9927e-06	417.5	139.67	119.8	41.512	2.0545e-06	52.317	183.504	120.111	145.656	60.323	200.993	210.328	59.952	64.872	219.977	201.106	64.187	68.654	69.320	73.857	203.819	73.019	-8191	255	
1430.380	1	1	0	0	0.18931	0.19741	0.069933	0.085339	0.12615	0.038979	0.22662	0.31849	0.04006	0.21938	0.35823	0.12043	0.075433	0.1759	0.11318	0.18168	-1.9229	-2.0979	-1.575	-2.6104	-1.9479	-1.7854	-2.7104	-1.8583	-2.275	-2.3542	-1.7354	-2.6083	-2.0563	-1.9521	-2.6292	-1.8396	271.191	90.190	60.447	293.011	204.864	100.923	331.993	310.385	234.643	247.910	52.132	102.236	296.565	250.725	173.370	385.369	0.00033587	0.00042091	0.00015836	1284.4	5.0874e-06	5.2824e-06	1279.9	359.85	4.5289e-06	5.2777e-06	410.6	136.94	117.77	40.71	4.7322e-06	50.887	0.00025691	0.0001779	5.2611e-05	1294	2.225e-06	2.0186e-06	1290.2	365.7	2.3523e-06	1.9667e-06	416.55	139.73	119.78	41.616	2.0739e-06	52.147	180.673	141.697	132.398	60.292	214.651	204.530	60.221	64.834	218.549	206.183	64.147	68.823	69.239	73.893	202.875	73.195	-8191	255	
1430.476	1	1	0	0	0.21078	0.23279	0.2448	0.2338	0.14326	0.18553	0.25573	0.32593	0.44743	0.17217	0.10978	0.28958	0.20283	0.097606	0.1797	0.28285	-1.6437	-2.4604	-1.6875	-2.6708	-2.0604	-1.6437	-2.7292	-1.9958	-2.1167	-2.3937	-1.85	-2.5708	-2.3812	-1.8312	-2.6042	-2.0312	182.223	305.762	402.993	333.571	61.646	312.981	346.541	353.330	373.420	402.327	406.858	364.154	52.872	51.735	70.459	291.720	0.00037005	0.00046771	0.00013667	1284.6	5.4344e-06	5.3143e-06	1277.1	360.97	3.8867e-06	4.0589e-06	414.26	136.37	117.04	40.656	5.2095e-06	51.433	0.00026597	0.00018207	5.5406e-05	1294.1	2.1685e-06	2.0334e-06	1290.4	366.11	2.3066e-06	1.9249e-06	417.9	139.6	119.66	41.505	2.0559e-06	52.27	179.016	140.237	142.852	60.444	207.192	202.104	60.250	64.914	219.797	203.794	64.248	69.153	69.669	74.201	197.292	73.010	-8191	255	
1430.548	1	1	0	0	0.017079	0.34485	0.17789	0.28896	0.22683	0.1383	0.11603	0.15933	0.1096	0.096654	0.33562	0.25807	0.03595	0.11147	0.21711	0.082695	-1.8292	-2.4813	-1.6396	-2.625	-2.2188	-1.7667	-2.7604	-2.0646	-1.9042	-2.5604	-1.8563	-2.4896	-2.25	-1.7687	-2.4458	-1.9458	236.950	223.973	246.960	386.673	143.024	250.818	302.315	367.355	86.368	292.302	358.025	332.996	328.902	116.458	63.028	387.607	0.00036333	0.00046054	0.00012674	1283.7	4.3203e-06	4.5813e-06	1278.7	361.69	4.3885e-06	4.4404e-06	411.79	136.85	117.99	40.651	3.8337e-06	51.498	0.00026474	0.0001746	5.0731e-05	1294	2.1771e-06	1.9974e-06	1289.3	366.41	2.244e-06	1.8832e-06	416.9	139.72	119.88	41.515	2.0827e-06	52.262	179.663	126.520	135.869	60.581	200.907	197.016	60.579	65.179	218.540	200.957	64.279	69.009	69.636	73.764	210.784	73.076	-8191	255	
#DATA ENDS
