BOXY.EXE: ISS Imagent and Oximeter Data Acquisition Program Version 0.80
Ascii Record File

#ACQ INFORMATION
2  Detector Channels 
16  External MUX Channels 
1  Auxiliary Channels 
5000  Waveform (CCF) Frequency (Hz)
1  Waveforms Skipped 
30  Waveforms Averaged 
1  Cycles Averaged 
16  Acquisitions per Waveform 
10.0806  Updata Rate (Hz) 

#FILE INFORMATION
TRUE -- External MUX Channel results are PARSED.
FALSE -- AC DC and Phase are NOT grouped.
TRUE -- Companion Program Settings File CREATED.
FALSE -- AC data not excluded
FALSE -- DC data not excluded
FALSE -- Phase data not excluded
FALSE -- Auxillary Chn. data not excluded
Tab delimiters

#CALIBRATION STATE
TRUE -- Waveform Calibration Values APPLIED.


#AUX CALIBRATION VALUES
Val Type	aux-1	

Term	1.0000e+00	
Factor	0.0000e+00	


#WF CALIBRATION VALUES
A = Detector Channel
Val Type	A-AC1	A-AC2	A-AC3	A-AC4	A-AC5	A-AC6	A-AC7	A-AC8	A-AC9	A-AC10	A-AC11	A-AC12	A-AC13	A-AC14	A-AC15	A-AC16	A-DC1	A-DC2	A-DC3	A-DC4	A-DC5	A-DC6	A-DC7	A-DC8	A-DC9	A-DC10	A-DC11	A-DC12	A-DC13	A-DC14	A-DC15	A-DC16	A-Ph1	A-Ph2	A-Ph3	A-Ph4	A-Ph5	A-Ph6	A-Ph7	A-Ph8	A-Ph9	A-Ph10	A-Ph11	A-Ph12	A-Ph13	A-Ph14	A-Ph15	A-Ph16	

Term	0.00000e+00	0.00000e+00	0.00000e+00	0.00000e+00	0.00000e+00	0.00000e+00	0.00000e+00	0.00000e+00	0.00000e+00	0.00000e+00	0.00000e+00	0.00000e+00	0.00000e+00	0.00000e+00	0.00000e+00	0.00000e+00	0.00000e+00	0.00000e+00	0.00000e+00	0.00000e+00	0.00000e+00	0.00000e+00	0.00000e+00	0.00000e+00	0.00000e+00	0.00000e+00	0.00000e+00	0.00000e+00	0.00000e+00	0.00000e+00	0.00000e+00	0.00000e+00	0.00000e+00	0.00000e+00	0.00000e+00	0.00000e+00	0.00000e+00	0.00000e+00	0.00000e+00	0.00000e+00	0.00000e+00	0.00000e+00	0.00000e+00	0.00000e+00	0.00000e+00	0.00000e+00	0.00000e+00	0.00000e+00	
Factor	1.00000e+00	1.00000e+00	1.00000e+00	1.00000e+00	1.00000e+00	1.00000e+00	1.00000e+00	1.00000e+00	1.00000e+00	1.00000e+00	1.00000e+00	1.00000e+00	1.00000e+00	1.00000e+00	1.00000e+00	1.00000e+00	1.00000e+00	1.00000e+00	1.00000e+00	1.00000e+00	1.00000e+00	1.00000e+00	1.00000e+00	1.00000e+00	1.00000e+00	1.00000e+00	1.00000e+00	1.00000e+00	1.00000e+00	1.00000e+00	1.00000e+00	1.00000e+00	X	X	X	X	X	X	X	X	X	X	X	X	X	X	X	X	

B = Detector Channel
Val Type	B-AC1	B-AC2	B-AC3	B-AC4	B-AC5	B-AC6	B-AC7	B-AC8	B-AC9	B-AC10	B-AC11	B-AC12	B-AC13	B-AC14	B-AC15	B-AC16	B-DC1	B-DC2	B-DC3	B-DC4	B-DC5	B-DC6	B-DC7	B-DC8	B-DC9	B-DC10	B-DC11	B-DC12	B-DC13	B-DC14	B-DC15	B-DC16	B-Ph1	B-Ph2	B-Ph3	B-Ph4	B-Ph5	B-Ph6	B-Ph7	B-Ph8	B-Ph9	B-Ph10	B-Ph11	B-Ph12	B-Ph13	B-Ph14	B-Ph15	B-Ph16	

Term	0.00000e+00	0.00000e+00	0.00000e+00	0.00000e+00	0.00000e+00	0.00000e+00	0.00000e+00	0.00000e+00	0.00000e+00	0.00000e+00	0.00000e+00	0.00000e+00	0.00000e+00	0.00000e+00	0.00000e+00	0.00000e+00	0.00000e+00	0.00000e+00	0.00000e+00	0.00000e+00	0.00000e+00	0.00000e+00	0.00000e+00	0.00000e+00	0.00000e+00	0.00000e+00	0.00000e+00	0.00000e+00	0.00000e+00	0.00000e+00	0.00000e+00	0.00000e+00	4.17717e+01	-1.31162e+02	-1.22911e+02	-1.83922e+02	-6.30644e+01	-7.02209e+01	-1.56404e+02	-1.62015e+02	-4.52563e+01	-6.41764e+01	-1.71598e+02	-1.69061e+02	-1.81176e+02	-1.77209e+02	-6.47185e+01	-1.50023e+02	
Factor	6.40346e-05	1.52600e-04	4.19047e-05	1.76566e-01	1.85982e-06	1.60018e-06	1.66977e-01	5.01798e-02	2.39878e-06	1.62312e-06	8.77349e-02	2.88353e-02	2.63990e-02	9.67641e-03	1.83296e-06	1.35945e-02	1.77045e-05	2.95731e-05	8.28597e-06	9.26155e-02	2.88225e-07	3.32224e-07	8.18985e-02	2.64251e-02	2.79175e-07	3.33486e-07	4.47295e-02	1.46946e-02	1.40515e-02	5.14846e-03	3.03169e-07	6.99069e-03	X	X	X	X	X	X	X	X	X	X	X	X	X	X	X	X	



#DISTANCE SETTINGS
A = Detector Channel
A-1	A-2	A-3	A-4	A-5	A-6	A-7	A-8	A-9	A-10	A-11	A-12	A-13	A-14	A-15	A-16	

2.5000e+00	3.0000e+00	2.5000e+00	3.0000e+00	2.0000e+00	3.0000e+00	1.5000e+00	3.0000e+00	3.0000e+00	3.0000e+00	3.0000e+00	3.0000e+00	3.0000e+00	3.0000e+00	1.5000e+00	3.0000e+00	

B = Detector Channel
B-1	B-2	B-3	B-4	B-5	B-6	B-7	B-8	B-9	B-10	B-11	B-12	B-13	B-14	B-15	B-16	

1.0000e+01	1.0000e+01	1.0000e+01	1.4400e+00	1.0000e+01	1.0000e+01	1.5100e+00	1.9400e+00	1.0000e+01	1.0000e+01	1.9900e+00	2.4900e+00	2.4100e+00	2.9000e+00	1.0000e+01	2.9800e+00	




#DATA BEGINS
time	group	step	mark	flag	A-AC1	A-AC2	A-AC3	A-AC4	A-AC5	A-AC6	A-AC7	A-AC8	A-AC9	A-AC10	A-AC11	A-AC12	A-AC13	A-AC14	A-AC15	A-AC16	A-DC1	A-DC2	A-DC3	A-DC4	A-DC5	A-DC6	A-DC7	A-DC8	A-DC9	A-DC10	A-DC11	A-DC12	A-DC13	A-DC14	A-DC15	A-DC16	A-Ph1	A-Ph2	A-Ph3	A-Ph4	A-Ph5	A-Ph6	A-Ph7	A-Ph8	A-Ph9	A-Ph10	A-Ph11	A-Ph12	A-Ph13	A-Ph14	A-Ph15	A-Ph16	B-AC1	B-AC2	B-AC3	B-AC4	B-AC5	B-AC6	B-AC7	B-AC8	B-AC9	B-AC10	B-AC11	B-AC12	B-AC13	B-AC14	B-AC15	B-AC16	B-DC1	B-DC2	B-DC3	B-DC4	B-DC5	B-DC6	B-DC7	B-DC8	B-DC9	B-DC10	B-DC11	B-DC12	B-DC13	B-DC14	B-DC15	B-DC16	B-Ph1	B-Ph2	B-Ph3	B-Ph4	B-Ph5	B-Ph6	B-Ph7	B-Ph8	B-Ph9	B-Ph10	B-Ph11	B-Ph12	B-Ph13	B-Ph14	B-Ph15	B-Ph16	aux-1	digaux	

1862.734	1	1	0	768	0.17666	0.08002	0.043211	0.10056	0.26818	0.0831	0.17752	0.17195	0.2092	0.12685	0.1508	0.45086	0.030781	0.10692	0.22797	0.34569	-2.2292	-3.5021	-2.9458	-3.0625	-3.3792	-2.7792	-3.2938	-3.5521	-2.8042	-3.3792	-3.2917	-3.0833	-3.5333	-2.9021	-3.15	-3.5833	251.359	310.514	95.685	332.489	84.859	297.349	329.884	359.967	344.593	178.981	402.798	373.785	395.998	310.830	358.548	334.961	0.0025473	0.00042189	0.00021508	935.43	9.0027e-06	6.1657e-06	1246	275	1.164e-05	5.73e-06	469.17	196.42	98.723	47.493	6.1062e-06	105.07	0.00079073	0.00035802	9.9294e-05	851.54	3.7055e-06	3.6448e-06	1135.6	251.97	3.9003e-06	3.5072e-06	431.16	180.17	90.575	43.989	3.7359e-06	97.259	323.686	114.521	132.780	60.106	191.345	194.315	60.096	65.243	230.533	206.282	64.379	69.277	70.546	73.957	194.737	71.718	-8191	255	
1862.830	1	1	0	0	0.19647	0.14582	0.22175	0.20517	0.13778	0.085233	0.36972	0.071628	0.052585	0.16348	0.17041	0.12283	0.030855	0.2973	0.062577	0.20494	-2.2625	-3.5062	-3.0062	-2.9125	-3.5438	-2.9625	-3.2812	-3.5229	-2.7292	-3.3479	-3.4646	-2.8312	-3.5958	-3.0167	-2.9604	-3.7625	198.739	259.677	141.468	272.331	348.767	268.334	329.138	80.697	147.859	138.549	332.287	400.499	372.948	393.756	248.688	330.028	0.0025734	0.00086182	0.00022	929.93	9.1157e-06	4.9641e-06	1250.3	275.93	1.2334e-05	7.0251e-06	472.52	198.03	99.062	47.737	8.3918e-06	105.56	0.00077723	0.00036091	8.6778e-05	850.12	3.5878e-06	3.5998e-06	1137.4	252.27	3.8631e-06	3.6329e-06	434.15	181.04	90.707	44.226	4.0334e-06	97.795	324.882	124.609	146.439	60.351	196.432	199.220	60.064	65.496	214.536	203.815	64.172	69.221	70.172	74.066	206.116	72.066	-8191	255	
1862.927	1	1	0	0	0.12732	0.22507	0.007563	0.28676	0.16264	0.17407	0.10803	0.13578	0.08481	0.15308	0.20031	0.054766	0.20489	0.0058713	0.14929	0.47892	-2.5417	-3.3521	-3.3542	-3.0167	-3.5854	-3.0312	-3.1708	-3.3063	-2.5896	-3.1917	-3.425	-2.7333	-3.5229	-3.2021	-3.0062	-3.6979	355.921	54.160	289.552	52.270	392.620	361.104	390.912	153.763	75.656	363.541	301.703	106.851	316.600	165.041	88.406	369.908	0.0025446	0.00071361	0.00020155	932.95	1.1323e-05	5.8468e-06	1237.9	274.65	1.1664e-05	8.0221e-06	468.52	194.2	98.58	46.948	7.2422e-06	103.75	0.00076945	0.00033467	9.3407e-05	852.22	3.8532e-06	3.415e-06	1132.7	251.33	3.6479e-06	3.7218e-06	430.48	178.86	89.838	43.45	3.9728e-06	96.203	325.930	127.771	149.151	59.890	196.762	201.041	59.773	65.882	222.559	197.077	64.157	69.181	70.315	74.059	196.788	72.003	-8191	255	
1863.023	1	1	0	0	0.073507	0.11829	0.1215	0.089342	0.13867	0.20127	0.33453	0.10047	0.16211	0.14139	0.19897	0.13017	0.2651	0.043078	0.080591	0.17403	-2.3208	-3.1312	-3.3625	-2.8083	-3.3458	-3.1792	-2.9437	-3.5187	-2.9021	-3.2646	-3.7167	-2.7562	-3.4333	-3.2729	-2.9375	-3.7208	125.066	226.412	312.449	381.671	244.068	65.874	298.967	391.427	209.668	387.956	369.020	348.931	100.009	401.404	384.986	313.030	0.0023342	0.00057161	0.00020353	918.03	1.0045e-05	5.5123e-06	1230.6	270.66	1.2075e-05	6.7162e-06	462.66	193.09	97.057	46.663	8.9641e-06	103.3	0.0007513	0.00030454	8.847e-05	838.79	3.5806e-06	3.5638e-06	1122.6	248.32	3.7532e-06	3.6093e-06	426.32	177.79	89.193	43.27	3.9431e-06	95.758	324.181	131.950	149.537	60.376	212.870	194.942	59.973	65.576	222.372	204.703	64.302	69.434	70.251	74.273	203.201	71.948	-8191	255	
1863.119	1	1	0	0	0.29856	0.1487	0.14548	0.32675	0.038179	0.11364	0.46109	0.156	0.14439	0.20428	0.2743	0.23874	0.19035	0.20758	0.16071	0.23404	-2.2979	-2.9604	-3.4188	-2.6958	-3.3104	-3.1854	-3.0563	-3.6625	-2.7542	-2.9375	-3.5625	-2.8833	-3.3458	-3.3812	-2.7146	-3.6396	379.794	180.887	130.420	350.956	206.793	374.562	298.076	79.335	194.726	365.866	360.621	295.092	119.299	341.418	352.012	353.454	0.0024669	0.00078105	0.00021493	918.12	8.7698e-06	7.1369e-06	1223	271.36	1.2938e-05	7.1334e-06	465.98	194.13	97.356	46.663	7.7685e-06	103.57	0.00075233	0.0003481	8.9005e-05	837.83	3.6214e-06	3.2613e-06	1119.9	248.4	3.5048e-06	3.6906e-06	426.97	177.93	88.894	43.363	3.8338e-06	95.958	322.638	127.566	126.963	60.051	190.924	202.979	60.165	65.520	220.518	181.953	64.690	69.278	70.164	74.310	204.373	72.138	-8191	255	
1863.215	1	1	0	0	0.22674	0.21581	0.033765	0.10602	0.3001	0.26786	0.04464	0.067944	0.15559	0.07676	0.3797	0.091261	0.19443	0.33891	0.10418	0.095137	-2.4667	-2.9062	-3.3208	-2.8667	-3.3396	-3.3833	-2.9417	-3.5354	-2.9437	-2.7979	-3.5875	-2.9604	-3.2771	-3.5021	-2.6854	-3.5354	225.376	168.487	208.578	329.665	212.971	54.333	311.865	340.615	301.050	189.819	370.138	327.400	368.859	56.886	87.363	369.319	0.0023291	0.00057223	0.00016711	918.91	7.7638e-06	6.2364e-06	1227.5	271.66	1.1254e-05	6.1614e-06	467.23	192.95	96.738	46.188	8.4823e-06	102.78	0.00073876	0.00034434	8.7089e-05	836.58	3.5806e-06	3.4274e-06	1119.5	248.09	3.738e-06	3.8219e-06	428.03	176.95	88.66	42.764	3.8635e-06	95.094	324.362	129.497	148.465	60.292	201.134	206.844	60.152	65.845	226.499	196.198	65.002	69.268	70.364	74.024	195.049	72.232	-8191	255	
1863.336	1	1	0	0	0.23144	0.034147	0.23381	0.12903	0.31356	0.020897	0.28638	0.51193	0.055939	0.15061	0.31515	0.059784	0.1098	0.13172	0.22933	0.23965	-2.6375	-2.6729	-3.5021	-2.95	-3.0563	-3.3646	-2.9208	-3.3937	-3.2604	-2.8646	-3.5667	-3.0979	-2.9708	-3.4979	-2.8146	-3.4396	293.363	195.697	394.711	321.621	186.714	346.755	348.804	399.446	277.764	52.055	51.944	264.049	337.356	313.415	60.417	327.316	0.0026005	0.00073417	0.00015842	927.97	1.1277e-05	7.8107e-06	1274.4	275.53	1.1144e-05	6.0525e-06	474.7	192.62	96.585	45.607	7.3987e-06	101.11	0.00073721	0.00035118	8.5708e-05	846.99	3.7469e-06	3.4676e-06	1158.6	253.14	3.6688e-06	3.5648e-06	436.29	176.37	88.194	42.16	4.0625e-06	93.979	326.720	138.636	143.687	60.376	200.666	185.111	59.935	65.890	213.665	188.665	64.726	69.220	70.524	74.413	194.409	72.505	-8191	255	
1863.432	1	1	0	0	0.09518	0.17782	0.035821	0.18619	0.15781	0.12104	0.035491	0.11699	0.082664	0.1429	0.093155	0.2214	0.090966	0.13059	0.084387	0.068907	-2.8542	-2.6479	-3.5021	-3.0083	-2.9188	-3.5417	-2.7917	-3.3271	-3.3583	-2.7208	-3.7479	-3.1875	-2.9875	-3.65	-2.8625	-3.3229	372.531	207.350	394.248	381.568	195.211	245.624	257.303	311.420	90.633	386.718	112.464	380.139	76.950	343.588	121.580	292.841	0.0024585	0.0006878	0.00015472	939.86	7.9518e-06	4.8645e-06	1289.3	277.96	9.1414e-06	6.3328e-06	474.12	192.09	95.351	45.384	7.5704e-06	102.21	0.00073533	0.00036948	7.8113e-05	858.62	3.4251e-06	3.2551e-06	1167.7	253.06	3.3455e-06	3.3529e-06	434.96	176.09	87.562	42.25	3.7662e-06	94.739	324.320	139.296	134.935	60.091	186.433	185.968	59.861	65.554	215.666	192.602	64.371	68.807	70.635	74.234	188.534	71.980	-8191	255	
1863.528	1	1	0	0	0.27653	0.029151	0.11612	0.13646	0.13664	0.18373	0.14772	0.18611	0.30925	0.2273	0.21579	0.17587	0.13162	0.13197	0.017689	0.35289	-2.9062	-2.6688	-3.4792	-3.2833	-2.8563	-3.5417	-3.1063	-3.2646	-3.425	-2.8229	-3.5833	-3.2438	-2.8229	-3.5833	-2.8604	-3.0917	73.510	204.819	91.316	383.829	326.932	246.776	320.204	87.807	288.142	320.252	72.736	315.854	348.870	184.588	154.784	318.551	0.0024273	0.00059106	0.00021099	942.41	8.7096e-06	6.0835e-06	1276	274.05	1.0495e-05	7.5813e-06	468.23	192.21	95.457	46.097	8.4287e-06	103.16	0.00073127	0.00032875	8.6865e-05	858.85	3.4881e-06	3.172e-06	1166.5	251.47	3.2885e-06	3.8393e-06	430.97	176.42	87.66	42.612	4.034e-06	95.446	324.512	120.535	150.417	60.398	208.610	180.266	60.118	65.581	238.390	202.034	64.379	69.384	70.305	74.467	214.636	72.323	-8191	255	
1863.624	1	1	0	0	0.23962	0.11331	0.10339	0.24197	0.14663	0.20073	0.19348	0.15187	0.086828	0.038973	0.036833	0.30544	0.04562	0.10434	0.088076	0.19344	-2.9437	-2.7542	-3.4562	-3.25	-2.7562	-3.4979	-3.1937	-3.3354	-3.5563	-2.7583	-3.425	-3.2542	-2.8937	-3.7104	-3.0375	-3.0875	205.909	402.411	117.553	362.472	363.623	351.475	406.514	237.796	343.191	69.899	217.473	357.567	406.980	391.516	248.703	272.568	0.0025184	0.00058547	0.00021947	938.39	7.077e-06	6.7234e-06	1284.8	274.65	1.0995e-05	7.0853e-06	469.55	192.54	95.946	46.073	8.7963e-06	104.3	0.00072655	0.00033411	9.2544e-05	858.54	3.4689e-06	2.8786e-06	1169	251.92	3.4856e-06	3.6037e-06	431.85	176.6	87.74	42.805	3.8572e-06	96.523	325.262	138.704	153.840	60.126	202.727	202.479	59.864	65.379	221.027	211.763	64.630	69.002	70.801	74.500	202.403	72.279	-8191	255	
1863.718	1	1	0	0	0.12739	0.13212	0.15537	0.2076	0.1932	0.027799	0.34621	0.05621	0.31717	0.18331	0.37657	0.2143	0.035702	0.10069	0.12532	0.20743	-3.1229	-2.7667	-3.0917	-3.4354	-2.7687	-3.4708	-3.3396	-3.0021	-3.4458	-2.7625	-3.175	-3.3625	-2.9833	-3.525	-3.1542	-2.9854	299.955	236.078	318.491	130.460	237.196	362.987	364.751	395.970	290.352	193.445	397.922	90.922	163.556	346.776	160.014	362.674	0.0025211	0.00050667	0.0002281	941.1	8.6805e-06	6.0544e-06	1282.8	274.13	1.2913e-05	5.729e-06	467.82	194.15	97.148	46.564	8.1893e-06	104.28	0.00075558	0.00032771	9.4909e-05	859.72	3.9751e-06	3.5147e-06	1166.5	251.05	3.4112e-06	3.4384e-06	429.73	178.06	88.758	42.971	3.6551e-06	96.559	324.309	142.663	135.829	60.003	202.756	204.427	59.861	65.533	213.080	194.490	64.333	69.105	70.347	74.571	213.227	72.516	-8191	255	
1863.815	1	1	0	0	0.18975	0.28521	0.13094	0.15467	0.020783	0.058806	0.42966	0.33942	0.134	0.20958	0.10338	0.25707	0.19375	0.24101	0.085883	0.26362	-3.1312	-2.85	-2.875	-3.5229	-2.8208	-3.5146	-3.3521	-2.9292	-3.5979	-2.9208	-3.0208	-3.4729	-2.6354	-3.3375	-2.8125	-2.9938	98.808	379.746	181.973	83.908	192.082	163.874	349.745	393.489	152.457	195.013	264.083	361.797	268.107	57.991	388.747	308.375	0.0024622	0.00068848	0.00015867	928.99	8.8745e-06	6.5362e-06	1258.7	275.43	1.081e-05	5.6583e-06	468.16	196.14	97.198	46.283	9.1715e-06	104.94	0.00074108	0.00035937	8.5691e-05	848.45	3.7818e-06	3.2316e-06	1143.8	251.25	3.5066e-06	3.4405e-06	430.78	179.58	89.181	42.934	3.9842e-06	97.029	325.077	126.048	139.610	60.127	202.283	194.845	59.920	65.539	229.558	186.249	64.459	68.967	70.364	74.852	197.425	72.335	-8191	255	
1863.935	1	1	0	0	0.056516	0.088177	0.15727	0.26894	0.13037	0.17855	0.15751	0.074369	0.042634	0.18949	0.2133	0.10995	0.080549	0.13697	0.16205	0.25722	-3.1979	-2.9875	-2.6771	-3.4104	-2.6562	-3.2708	-3.5229	-2.8146	-3.5271	-2.8229	-3.2854	-3.5125	-2.7354	-3.5062	-3.4583	-2.7875	106.343	334.619	235.768	405.951	125.202	278.810	296.224	61.825	337.341	375.988	293.385	90.471	226.467	191.884	368.531	49.534	0.0024747	0.00053368	0.00018063	932.38	6.8432e-06	7.2118e-06	1261.7	275.34	1.3709e-05	6.9988e-06	470.67	196.83	98.419	47.141	8.4891e-06	105.21	0.00075816	0.00034859	9.4063e-05	847.79	3.7241e-06	3.478e-06	1144	252.47	3.8759e-06	3.7295e-06	433.3	181.25	90.046	43.562	3.5806e-06	97.852	322.769	134.763	136.676	60.438	197.278	179.745	60.146	65.511	228.758	202.335	64.493	69.361	70.438	74.304	208.552	71.947	-8191	255	
1864.031	1	1	0	0	0.14875	0.28678	0.28491	0.17146	0.086698	0.045228	0.084258	0.1005	0.22216	0.08713	0.2042	0.12432	0.25658	0.189	0.075076	0.09253	-3.1021	-2.9479	-2.9	-3.4167	-2.7646	-3.1437	-3.4833	-2.8208	-3.3875	-3.1146	-2.9958	-3.6854	-2.9437	-3.1937	-3.35	-2.8937	160.562	83.789	300.532	302.602	324.709	308.731	310.272	363.001	310.569	306.685	367.502	393.643	344.606	71.459	72.433	326.059	0.0026338	0.00062451	0.00021936	928.62	1.0471e-05	6.7161e-06	1259.1	277.1	1.1819e-05	8.5445e-06	477.23	199	98.913	47.373	8.6949e-06	106.73	0.00078339	0.00034311	8.9212e-05	848.77	3.8364e-06	3.6247e-06	1150.9	253.81	3.7351e-06	3.6169e-06	438.53	182.94	90.492	43.802	3.8837e-06	98.722	321.371	134.385	143.566	60.528	205.773	190.933	59.988	65.422	233.710	199.711	64.732	69.459	70.112	74.367	199.627	72.446	-8191	255	
1864.128	1	1	0	0	0.23531	0.1257	0.12691	0.32946	0.16301	0.10452	0.037619	0.050574	0.17454	0.14294	0.15148	0.24912	0.21481	0.32372	0.18265	0.21293	-3.0042	-3.1208	-2.7417	-3.6063	-2.8708	-3.0563	-3.6021	-2.8667	-3.4083	-3.3208	-2.8229	-3.5771	-2.8854	-2.9417	-3.6125	-2.7687	120.262	257.891	401.116	368.419	51.006	290.712	111.440	63.290	140.218	314.876	138.723	380.829	355.602	339.367	90.631	309.317	0.0024922	0.00074322	0.00018754	933.85	7.4591e-06	7.0619e-06	1268.2	276.76	1.0313e-05	5.73e-06	473.45	200.01	99.1	47.022	7.9022e-06	106.08	0.00075963	0.00034674	9.8551e-05	850.77	3.7908e-06	3.6205e-06	1153.6	253.42	3.6002e-06	3.6044e-06	437.1	182.89	90.492	43.576	3.4504e-06	98.108	322.893	132.843	147.323	60.244	186.045	187.247	59.877	65.565	227.621	188.429	64.747	69.596	70.527	74.607	196.742	72.305	-8191	255	
1864.224	1	1	0	0	0.32276	0.22255	0.11862	0.17576	0.14564	0.19212	0.12676	0.17596	0.13852	0.080193	0.20959	0.1782	0.2027	0.38292	0.21565	0.37101	-2.8625	-3.3542	-2.7875	-3.575	-3.0458	-2.8563	-3.6875	-2.8229	-3.2875	-3.3021	-2.8521	-3.4271	-3.0667	-2.8833	-3.4208	-2.8729	112.535	393.013	94.098	121.165	160.490	251.098	403.079	51.808	338.744	185.733	391.282	278.646	258.899	57.675	268.024	348.561	0.0023376	0.00066727	0.00019467	926.27	6.7196e-06	5.7496e-06	1250.9	276.21	1.0623e-05	7.8987e-06	477.11	200.31	98.832	47.499	8.9473e-06	106.82	0.00072832	0.00035112	9.3045e-05	847.67	3.3116e-06	3.9334e-06	1145.8	253.04	3.5479e-06	3.5113e-06	436.74	183.53	90.595	43.883	3.734e-06	98.74	324.796	126.169	139.910	60.292	208.301	201.553	60.278	65.556	219.968	215.839	64.960	69.359	70.048	74.419	206.202	72.100	-8191	255	
1864.295	1	1	0	0	0.17378	0.19827	0.19014	0.15912	0.38821	0.10203	0.12541	0.39539	0.043051	0.1858	0.20904	0.12137	0.24369	0.21421	0.049769	0.3232	-2.6063	-3.3792	-2.6562	-3.4604	-2.9729	-2.9958	-3.5708	-3.0521	-2.9083	-3.3896	-2.8708	-3.4229	-3.3042	-2.9083	-3.4646	-2.9792	406.495	260.367	357.847	376.363	121.971	378.809	59.120	324.395	256.686	86.545	333.885	373.279	366.292	304.121	123.803	53.610	0.0026559	0.00058728	0.00018753	930.42	8.3686e-06	7.226e-06	1258	277.51	1.1625e-05	7.9907e-06	479.75	203.86	100.37	48.123	8.4578e-06	108.31	0.00077476	0.00032111	9.9017e-05	850.94	3.858e-06	3.9562e-06	1151	254.41	3.6927e-06	3.4134e-06	439.32	186.71	92.053	44.583	3.4947e-06	100.35	322.844	125.663	148.206	60.601	204.129	202.512	60.097	65.381	215.139	200.184	64.663	69.465	70.509	74.362	206.076	72.239	-8191	255	
1864.416	1	1	0	0	0.15503	0.15661	0.17601	0.057532	0.11448	0.15222	0.27387	0.15377	0.050166	0.17803	0.29476	0.15164	0.28198	0.099297	0.29126	0.19921	-2.4917	-3.2792	-2.7167	-3.3063	-3.075	-2.7687	-3.5438	-2.9229	-2.9375	-3.5	-2.85	-3.4417	-3.3021	-2.6688	-3.5062	-3.3104	385.108	330.948	275.096	210.266	304.406	280.822	272.702	393.583	162.294	348.622	404.783	388.633	318.017	246.040	90.757	373.914	0.0026143	0.00071971	0.00020881	939.36	9.0323e-06	4.9857e-06	1261.3	280.01	1.2701e-05	6.0282e-06	483	206.04	102.77	48.917	7.9741e-06	109.9	0.00077988	0.0003314	0.00010181	854.15	3.5878e-06	3.5223e-06	1152.5	255.67	3.8788e-06	3.5551e-06	443.66	189.49	93.981	45.216	3.7612e-06	101.75	324.599	135.288	136.398	60.370	194.557	195.161	60.224	65.739	224.119	200.479	64.771	69.483	70.321	74.153	200.388	72.210	-8191	255	
1864.512	1	1	0	0	0.12196	0.040237	0.063502	0.33789	0.10449	0.15614	0.14067	0.1118	0.16143	0.13408	0.30335	0.075358	0.051888	0.1657	0.15917	0.33104	-2.2979	-3.5583	-2.7125	-3.4208	-3.3063	-2.7958	-3.4146	-3.0438	-2.7083	-3.6521	-2.9167	-3.1417	-3.3833	-2.7125	-3.3875	-3.2458	383.481	139.933	284.325	397.073	279.032	144.130	395.864	97.960	358.379	308.727	376.539	356.951	336.910	81.361	155.404	347.384	0.0025135	0.00071839	0.00016184	930.87	7.3528e-06	6.09e-06	1263.7	279.44	1.2426e-05	5.3758e-06	480.76	206.27	102.82	48.776	9.9292e-06	108.88	0.00076878	0.00032734	9.9432e-05	851.75	3.5932e-06	3.8268e-06	1149.3	255.62	3.8968e-06	3.5447e-06	441.11	189.38	93.963	44.924	3.777e-06	100.79	324.752	145.824	139.128	60.300	205.508	196.748	60.223	65.473	226.451	204.095	64.364	69.465	70.042	73.890	193.105	72.279	-8191	255	
1864.608	1	1	0	0	0.040979	0.01067	0.088128	0.30095	0.20731	0.071974	0.3214	0.15941	0.13828	0.16612	0.098892	0.35356	0.14884	0.11418	0.075402	0.057282	-2.5312	-3.3708	-3.0167	-3.0958	-3.4813	-2.8042	-3.5521	-3.4146	-2.7062	-3.4708	-3.1146	-3.2396	-3.6354	-2.7083	-3.1479	-3.4521	363.795	302.487	148.926	343.974	73.071	399.780	319.270	263.343	78.268	257.852	353.229	344.238	64.144	359.031	404.546	370.920	0.0026027	0.00066133	0.0002064	927.75	5.8999e-06	8.3269e-06	1250.8	276.61	8.6008e-06	9.3445e-06	476.57	206.51	102.86	48.73	9.2068e-06	109.74	0.00080176	0.00034724	9.6635e-05	845.14	3.2623e-06	4.1106e-06	1138.2	253.18	3.5118e-06	3.6294e-06	437.99	189.36	93.802	45.118	3.8484e-06	101.24	321.295	132.181	146.630	60.558	215.010	199.723	60.184	65.596	237.971	191.062	64.489	69.494	70.710	74.126	212.982	72.212	-8191	255	
1864.729	1	1	0	0	0.2093	0.21148	0.15424	0.10839	0.32653	0.060014	0.44654	0.14102	0.25622	0.10415	0.022197	0.19072	0.3069	0.11863	0.19956	0.23654	-2.4146	-3.5104	-2.9188	-3.0292	-3.3937	-2.8729	-3.3667	-3.2917	-2.6646	-3.4729	-3.1104	-3.0208	-3.7208	-2.9771	-3.1312	-3.4583	163.027	164.686	313.041	70.591	235.535	181.470	348.939	364.597	201.486	223.019	207.440	292.272	79.312	391.555	294.152	50.050	0.0024645	0.0005915	0.00019306	925.12	7.9821e-06	8.5727e-06	1248	278.34	1.1675e-05	6.5439e-06	480.48	208.05	103.42	49.499	9.3928e-06	111	0.0007593	0.00033202	9.3148e-05	844.51	3.4995e-06	3.7611e-06	1139.4	254.31	3.9282e-06	3.3217e-06	440.43	190.81	95.021	45.835	3.9103e-06	102.79	325.463	143.174	133.271	60.439	190.058	188.907	60.250	65.790	226.125	204.481	64.258	69.317	70.074	74.046	198.290	72.108	-8191	255	
1864.823	1	1	0	0	0.39192	0.11869	0.27504	0.27696	0.071673	0.083433	0.1577	0.23177	0.17387	0.26399	0.084507	0.04927	0.14897	0.37762	0.21816	0.18189	-2.5042	-3.3583	-3.2104	-2.8917	-3.5625	-2.775	-3.2979	-3.7458	-2.9313	-3.3792	-3.2104	-2.9458	-3.6021	-2.875	-2.9938	-3.6562	47.934	124.686	61.794	49.800	258.997	237.386	286.727	344.935	79.630	367.678	81.831	358.615	57.022	383.475	75.871	332.532	0.002688	0.00077986	0.00013902	921.1	9.6005e-06	5.6295e-06	1238.5	278.48	1.1374e-05	7.3297e-06	482.22	210.52	104.87	50.328	8.5668e-06	112.14	0.00079781	0.00034163	8.9868e-05	843.05	3.8352e-06	3.6974e-06	1136.1	255.12	3.6944e-06	3.8538e-06	441.93	193.1	96.156	46.508	3.8345e-06	103.91	324.670	132.480	149.014	60.543	207.241	168.539	60.155	65.414	219.365	192.075	64.122	69.262	69.924	73.696	209.746	71.936	-8191	255	
1864.897	1	1	0	0	0.079843	0.30627	0.089772	0.18924	0.20953	0.18606	0.22254	0.18269	0.22957	0.0078932	0.037779	0.22386	0.095553	0.15843	0.11247	0.1707	-2.2854	-3.3917	-3.1125	-3.0104	-3.5229	-3.025	-3.0917	-3.4958	-2.6229	-3.4167	-3.2042	-2.8458	-3.5729	-3.0229	-2.9167	-3.675	63.054	165.281	223.215	332.789	66.692	103.661	387.271	62.410	361.951	209.213	180.939	400.244	298.840	235.028	281.940	374.174	0.002707	0.00075394	0.00017106	934.4	8.6987e-06	7.2523e-06	1241.2	276.63	1.3766e-05	8.2292e-06	478.75	209.21	104.6	49.79	6.0048e-06	111.64	0.00082101	0.00034446	9.0749e-05	845.72	3.7361e-06	3.7943e-06	1130.7	253.7	3.9457e-06	3.5648e-06	439.07	191.83	95.556	46.08	3.9292e-06	103.12	321.803	138.282	145.808	60.364	198.087	193.466	60.093	65.379	230.205	184.979	64.360	69.178	70.349	73.682	193.976	71.904	-8191	255	
1865.016	1	1	0	0	0.22834	0.1021	0.04004	0.12645	0.091382	0.25658	0.1591	0.24491	0.083231	0.10313	0.39227	0.16897	0.15246	0.19563	0.3691	0.39166	-2.3167	-3.3354	-3.2396	-2.9208	-3.5354	-3.2021	-3.1521	-3.5667	-2.8458	-3.1813	-3.6167	-2.7875	-3.3875	-3.2125	-2.8146	-3.7917	51.045	339.553	224.672	84.852	197.293	213.866	289.239	344.182	203.814	74.931	326.089	329.471	247.906	310.175	211.956	371.345	0.0025652	0.0008732	0.0001808	919.9	8.2466e-06	7.5705e-06	1231.4	276.69	1.2579e-05	6.8775e-06	471.83	208.5	104.2	49.802	8.289e-06	110.94	0.00079165	0.00033239	9.2285e-05	834.62	3.7583e-06	3.7382e-06	1123.8	252.34	3.7636e-06	3.6267e-06	435.16	191.06	95.007	45.951	3.818e-06	102.88	324.862	135.210	119.151	60.425	197.225	177.139	60.073	65.063	227.355	203.271	64.536	69.254	70.314	74.166	214.826	72.213	-8191	255	
1865.112	1	1	0	0	0.14779	0.17501	0.19753	0.092559	0.10774	0.096986	0.38009	0.30954	0.30235	0.086887	0.18349	0.066352	0.33742	0.14226	0.18244	0.10077	-2.3396	-3.2646	-3.4938	-2.8229	-3.3979	-3.2292	-3.0042	-3.6562	-2.825	-2.9854	-3.6875	-2.925	-3.4021	-3.3	-2.8167	-3.6375	135.415	301.503	64.908	375.099	69.408	242.637	333.019	309.363	299.270	111.811	358.585	58.117	184.746	366.222	339.093	371.789	0.0025732	0.00066715	0.00017516	910.88	7.7938e-06	6.4274e-06	1237	274.19	1.1888e-05	7.4975e-06	477.54	208.09	103.6	49.49	8.2257e-06	111.17	0.00081356	0.000342	9.0369e-05	832.46	3.302e-06	3.5763e-06	1128	252.37	3.5967e-06	3.8323e-06	436.48	190.91	94.479	45.797	4.0618e-06	103.28	322.509	127.517	152.105	60.591	204.337	207.386	60.480	65.797	225.207	194.217	64.563	69.263	70.699	73.959	205.091	72.095	-8191	255	
1865.208	1	1	0	0	0.41258	0.058549	0.083681	0.33585	0.14852	0.10731	0.26536	0.21141	0.32465	0.1143	0.049405	0.10215	0.40408	0.06635	0.089999	0.23747	-2.4208	-2.9083	-3.5062	-2.7729	-3.1667	-3.3583	-2.7875	-3.5292	-2.875	-2.9542	-3.5833	-2.7167	-3.1167	-3.3354	-2.9062	-3.5438	171.441	246.347	310.015	288.632	179.053	354.962	63.857	60.661	284.172	81.833	340.641	131.130	294.917	194.811	395.651	375.219	0.0024611	0.00078096	0.00019219	914.38	8.813e-06	6.4174e-06	1246.8	274.92	1.134e-05	8.1928e-06	478.36	207.87	102.27	49.237	7.9107e-06	111.53	0.00075484	0.00037681	8.9609e-05	836.5	3.7223e-06	3.6891e-06	1134.2	252.93	3.5758e-06	3.7545e-06	439.75	190.33	93.814	45.579	4.1313e-06	102.88	322.642	141.333	139.986	60.415	210.703	207.153	60.483	65.755	222.962	190.205	64.715	69.142	70.381	74.039	200.366	72.250	-8191	255	
1865.329	1	1	0	0	0.11227	0.19517	0.16506	0.10776	0.078916	0.13298	0.15097	0.17288	0.24223	0.13487	0.25817	0.062555	0.15305	0.28425	0.15427	0.14933	-2.6875	-2.8937	-3.4062	-3.025	-3.25	-3.3271	-2.8042	-3.3417	-3.0521	-2.9333	-3.6271	-3.1146	-3.3521	-3.4229	-2.8042	-3.5167	326.070	330.097	274.077	373.364	282.518	300.071	333.202	338.908	146.952	310.958	330.092	367.626	355.220	362.631	221.876	344.437	0.0025905	0.00051914	0.00019195	921.82	6.8871e-06	6.9913e-06	1242.4	273.52	1.1761e-05	4.651e-06	469.53	203.31	100.93	48.4	8.4859e-06	109.46	0.0008012	0.00036634	9.1094e-05	839.86	3.7331e-06	3.2537e-06	1134.6	251.61	3.766e-06	3.3585e-06	433.05	186.92	92.449	44.988	3.8711e-06	101.51	324.155	129.421	139.287	60.098	198.557	187.484	59.859	65.420	214.915	211.181	64.586	68.926	70.484	74.090	211.313	72.401	-8191	255	
1865.425	1	1	0	0	0.19308	0.1349	0.058202	0.21366	0.12806	0.099481	0.35152	0.3602	0.066474	0.23309	0.20971	0.21728	0.05715	0.13987	0.19668	0.20858	-2.9042	-2.7896	-3.6021	-2.9917	-3.1063	-3.3604	-3	-3.5312	-3.0812	-2.7208	-3.7042	-3.1063	-3.1688	-3.6396	-3.0042	-3.3583	198.230	59.586	131.567	65.244	258.318	375.797	349.790	366.836	310.015	293.035	359.552	89.740	85.781	241.541	404.981	341.772	0.0028223	0.00057984	0.00023038	912.49	9.4863e-06	6.3707e-06	1239	272.45	1.1694e-05	6.2095e-06	466.54	199.85	99.018	48.334	8.1098e-06	109.52	0.00081666	0.00037003	9.1301e-05	833.04	3.7301e-06	3.3658e-06	1129.2	249.88	3.6304e-06	3.5759e-06	429.75	184.12	90.679	44.678	3.9324e-06	101.36	325.741	136.992	140.669	60.132	202.786	196.111	60.269	65.902	215.551	200.992	64.474	69.131	70.693	74.557	218.080	72.440	-8191	255	
1865.521	1	1	0	0	0.11521	0.0904	0.14288	0.29625	0.11561	0.099944	0.33193	0.10905	0.29936	0.16647	0.22399	0.21768	0.063375	0.056481	0.14555	0.049144	-2.8438	-2.75	-3.4896	-3.0375	-2.8167	-3.5417	-2.9583	-3.2042	-3.2917	-2.8083	-3.6604	-3.0875	-2.9292	-3.5604	-2.6896	-3.2875	114.402	151.995	276.328	135.097	134.254	144.413	316.273	199.919	119.465	344.206	267.416	321.968	316.784	308.137	206.509	305.843	0.0024697	0.00065319	0.00017109	909.48	7.5703e-06	6.5147e-06	1242.8	271.46	9.3639e-06	6.8237e-06	470.83	202.35	99.746	48.463	7.7522e-06	109.99	0.00075823	0.00037219	8.6036e-05	833.22	3.6545e-06	3.7209e-06	1132.4	249.53	3.4554e-06	3.6753e-06	432.28	185.14	90.897	44.905	3.8199e-06	101.76	324.915	130.544	153.410	60.590	200.919	190.583	60.246	65.692	217.433	181.231	64.675	69.453	70.320	74.494	202.535	72.027	-8191	255	
1865.593	1	1	0	0	0.079336	0.40278	0.19656	0.30737	0.087446	0.22118	0.24282	0.18852	0.12301	0.13488	0.12788	0.2627	0.2072	0.35133	0.11874	0.19385	-2.9542	-2.6	-3.3625	-3.4208	-2.675	-3.5583	-2.8833	-3.05	-3.3083	-2.7687	-3.5083	-3.3208	-2.8208	-3.6729	-2.8187	-3.3125	58.611	161.275	366.301	380.024	368.214	383.628	365.733	361.659	90.152	235.721	294.439	331.655	114.981	403.031	383.937	348.679	0.0026522	0.00084356	0.00014429	910.95	8.2641e-06	6.4534e-06	1232.1	273.04	1.1e-05	4.6873e-06	472.06	203.03	100.05	48.422	5.851e-06	109.45	0.00078556	0.00037619	8.778e-05	833.49	3.7469e-06	3.48e-06	1129.8	249.91	3.5409e-06	3.7385e-06	433.75	186.53	91.397	45.073	3.8698e-06	101.86	323.638	146.221	147.178	60.483	201.101	199.896	60.030	65.696	222.838	204.917	64.690	69.248	70.650	74.169	197.763	72.490	-8191	255	
1865.711	1	1	0	0	0.041436	0.061924	0.21164	0.062111	0.093359	0.1331	0.24465	0.18388	0.065318	0.15856	0.15197	0.070667	0.14289	0.4131	0.21907	0.21268	-3.0708	-2.6979	-3.4646	-3.425	-2.6458	-3.6562	-3.0208	-3.1854	-3.5667	-2.5354	-3.3271	-3.3625	-2.6937	-3.6396	-3.0979	-3.2604	113.188	289.142	218.560	64.904	227.614	354.442	330.583	66.452	311.598	245.621	50.989	217.743	382.133	311.107	394.581	234.854	0.0028476	0.00070802	0.00022421	909.4	8.6694e-06	7.4813e-06	1229.7	273.01	9.5125e-06	7.1069e-06	468.96	201.41	99.108	48.141	8.0884e-06	108.93	0.00081397	0.00036147	9.503e-05	829.67	3.6821e-06	3.1139e-06	1124.2	248.72	3.36e-06	3.6621e-06	428.74	184.75	90.908	44.558	3.9564e-06	100.98	322.716	132.729	156.808	60.443	216.954	194.380	60.253	65.830	221.260	213.452	64.483	69.296	70.096	74.005	186.501	72.029	-8191	255	
1865.808	1	1	0	0	0.24458	0.1755	0.13854	0.38207	0.23938	0.09077	0.2357	0.18222	0.056013	0.3221	0.2568	0.060179	0.15666	0.25675	0.050268	0.27266	-2.9979	-2.6604	-3.2875	-3.6208	-2.9062	-3.4562	-3.3375	-3.075	-3.7562	-2.8521	-3.3125	-3.5583	-2.8438	-3.4479	-3.0167	-3.0333	305.499	119.744	387.748	314.975	203.407	182.762	358.170	324.852	91.038	231.044	367.756	77.790	360.101	385.288	248.869	310.007	0.0027127	0.00048993	0.00019718	898.94	7.3236e-06	5.2384e-06	1225.2	269.78	8.4451e-06	4.6573e-06	463.11	201.72	99.27	48.564	8.0699e-06	109.85	0.00079936	0.00032327	9.4598e-05	820.85	3.7409e-06	3.1804e-06	1113.3	246.96	3.3519e-06	3.5322e-06	427.9	185.28	91.356	44.934	3.8086e-06	101.64	322.494	123.426	130.915	60.318	219.498	200.006	60.173	65.902	202.701	200.671	64.695	68.928	70.454	74.083	192.494	72.127	-8191	255	
1865.904	1	1	0	0	0.089575	0.083859	0.13278	0.29512	0.19798	0.10018	0.22817	0.15696	0.080552	0.17248	0.084126	0.21868	0.044764	0.30049	0.067264	0.27589	-3.1458	-2.8375	-3.0646	-3.4646	-2.8708	-3.4104	-3.4437	-2.9104	-3.6188	-3.0125	-3.0771	-3.6125	-2.8312	-3.45	-3.1771	-2.9896	164.758	266.784	197.149	388.020	400.236	122.309	381.342	182.310	58.435	80.766	326.581	346.499	394.965	397.535	235.759	381.029	0.0027042	0.00078493	0.00018388	905.57	8.4888e-06	6.5092e-06	1218.8	270.06	9.5525e-06	6.2903e-06	467.67	204.76	101.4	49.117	8.1364e-06	111.28	0.00078863	0.00036282	9.3355e-05	824.3	3.9241e-06	3.5001e-06	1115.9	247.97	3.4949e-06	3.783e-06	430.45	188.09	92.886	45.434	3.7031e-06	102.92	320.780	129.525	132.218	60.133	214.118	181.577	59.711	65.199	225.373	203.486	64.089	68.789	70.061	73.676	207.224	71.763	-8191	255	
1866.000	1	1	0	0	0.11464	0.095185	0.044903	0.10285	0.11045	0.19597	0.20673	0.28503	0.12008	0.11969	0.14469	0.089969	0.14726	0.013132	0.14207	0.26778	-3.1833	-2.9208	-3.0375	-3.7146	-2.6437	-3.4167	-3.6229	-2.8354	-3.5312	-3.1688	-3.1125	-3.7083	-2.9813	-3.2375	-3.3083	-2.9062	314.483	245.266	296.405	343.307	290.798	358.244	345.707	50.083	88.273	347.590	346.090	360.619	374.343	267.466	199.252	373.472	0.0026608	0.00058642	0.000202	903.83	8.111e-06	6.492e-06	1234.3	271.02	1.2332e-05	7.4414e-06	471.72	205.91	101.38	49.185	9.0584e-06	110.81	0.00078213	0.00035414	0.00010181	822.92	3.6328e-06	3.4745e-06	1121.5	248.61	3.5141e-06	3.5037e-06	434.04	189.68	93.078	45.61	3.8319e-06	102.89	323.615	119.341	138.856	59.399	200.888	193.611	59.580	65.201	223.039	202.074	63.965	68.690	69.932	73.633	207.346	71.343	-8191	255	
1866.120	1	1	0	0	0.099003	0.18013	0.037136	0.17106	0.14117	0.32687	0.27524	0.22189	0.093073	0.39823	0.16732	0.14653	0.34299	0.051779	0.012186	0.28529	-3.0062	-2.8542	-2.7375	-3.6063	-2.7396	-3.1188	-3.6208	-2.9104	-3.5583	-3.1979	-2.7917	-3.6042	-2.9979	-3.0438	-3.5979	-2.9708	195.924	135.438	390.698	390.585	308.759	243.714	339.282	272.035	172.153	192.023	315.078	283.881	74.851	400.316	117.587	78.788	0.0025292	0.00064467	0.00018817	900.48	7.9966e-06	4.5277e-06	1226.7	270.31	1.2313e-05	6.5036e-06	469.22	204.84	101.23	48.663	8.4747e-06	109.83	0.00076568	0.00032635	9.7619e-05	821.33	3.6106e-06	3.8448e-06	1116.2	247.78	3.7066e-06	3.3675e-06	430.47	188.63	92.777	45.236	3.7517e-06	102.15	322.949	138.541	149.356	59.823	197.269	199.873	59.801	65.136	221.690	216.205	64.343	68.606	69.782	73.919	206.649	71.622	-8191	255	
1866.192	1	1	0	0	0.13803	0.1308	0.1152	0.20868	0.054292	0.035003	0.26032	0.15087	0.17253	0.13835	0.10025	0.082709	0.039013	0.13288	0.27394	0.20244	-3.0812	-3.4167	-2.7917	-3.6333	-2.9396	-2.9396	-3.7562	-2.8771	-3.3937	-3.2958	-2.6583	-3.6542	-3.2354	-3.0896	-3.4813	-3	139.382	151.852	299.291	390.856	70.047	97.922	338.260	370.220	186.825	135.128	104.211	48.971	382.726	54.254	103.422	95.841	0.0024694	0.00074078	0.00020632	895.3	8.001e-06	5.1325e-06	1223	269.13	1.3866e-05	7.207e-06	466.13	205.26	100.38	48.849	9.3919e-06	110.71	0.00073898	0.00034237	9.2751e-05	819.06	3.7667e-06	3.4496e-06	1111	246.94	3.7491e-06	3.4474e-06	430.05	188.33	92.513	45.34	3.8079e-06	102.64	325.233	142.332	148.350	60.340	198.679	190.104	59.839	65.363	217.884	206.970	63.755	68.870	69.702	73.703	209.198	71.759	-8191	255	
1866.288	1	1	0	0	0.2522	0.15475	0.20433	0.27619	0.090503	0.027027	0.35044	0.10422	0.12502	0.15878	0.26379	0.15972	0.15666	0.095421	0.24162	0.050864	-2.7479	-3.3125	-2.5833	-3.625	-3.0042	-2.9625	-3.7062	-2.9208	-2.95	-3.2958	-2.9125	-3.5896	-3.1396	-2.8583	-3.55	-3.0333	214.990	87.545	241.193	266.704	336.276	94.224	379.712	189.398	253.489	161.541	356.177	149.260	96.599	375.186	352.113	401.722	0.0025757	0.00064683	0.00014357	895.69	9.6184e-06	8.2141e-06	1220.7	270.6	1.3315e-05	5.1781e-06	469.65	205.35	101.08	49.491	9.3563e-06	111.61	0.00077782	0.00031286	9.2544e-05	818.56	3.7505e-06	3.8856e-06	1113.8	247.34	3.6147e-06	3.248e-06	431.54	189.32	93.124	45.734	3.5477e-06	103.5	326.750	122.246	135.175	60.160	207.279	189.611	59.683	64.962	231.379	212.767	64.075	68.714	69.639	73.667	198.874	71.472	-8191	255	
1866.409	1	1	0	0	0.17472	0.23648	0.095393	0.085392	0.30541	0.11068	0.31426	0.052972	0.14325	0.054231	0.021101	0.3599	0.17756	0.12862	0.33469	0.099289	-2.6667	-3.3479	-2.6604	-3.5208	-3.1979	-2.7271	-3.6	-3.0271	-2.9917	-3.5187	-2.8354	-3.4146	-3.3063	-2.8521	-3.5	-3.0479	161.125	186.868	54.379	75.128	240.706	221.755	361.420	71.115	119.505	213.559	67.125	377.492	270.881	302.224	263.616	244.020	0.002646	0.00056297	0.00020627	901.5	6.4552e-06	7.3497e-06	1229.8	270.06	1.1918e-05	6.3046e-06	471.27	206.68	101.56	49.306	9.2834e-06	111.02	0.00078697	0.00029629	0.0001047	821.1	3.4725e-06	3.6835e-06	1120	247.73	3.7939e-06	3.0354e-06	433.63	189.85	93.006	45.76	3.705e-06	103.2	323.100	133.422	137.895	59.521	202.219	187.851	59.790	65.119	215.078	204.744	64.070	68.597	69.745	73.616	205.658	71.300	-8191	255	
1866.505	1	1	0	0	0.45152	0.1216	0.095043	0.088575	0.038091	0.24018	0.046082	0.34247	0.16062	0.12217	0.10088	0.16426	0.15515	0.19448	0.32998	0.1417	-2.4271	-3.4417	-2.7229	-3.3812	-3.4521	-2.8042	-3.6354	-3.1	-3.0625	-3.5812	-2.8979	-3.3333	-3.2958	-2.9167	-3.425	-3.2313	356.166	251.521	253.097	69.653	113.115	367.349	349.473	385.986	93.825	371.778	331.812	400.437	384.998	379.320	248.559	397.263	0.0025348	0.00059092	0.00018055	892.19	1.0395e-05	7.3763e-06	1211.7	270.7	1.0224e-05	5.5995e-06	464.34	202.76	100.13	48.535	7.4546e-06	109.88	0.00079353	0.00032808	9.2717e-05	816.06	3.5608e-06	3.7209e-06	1108.2	246.31	3.3961e-06	3.1973e-06	425.59	186.62	91.537	45.176	3.4144e-06	101.89	322.302	146.259	137.621	60.086	212.745	189.032	59.455	65.008	222.510	183.204	64.087	69.007	69.515	73.591	216.189	71.570	-8191	255	
1866.601	1	1	0	0	0.10757	0.11812	0.095051	0.36646	0.068981	0.19312	0.30704	0.26796	0.24721	0.2109	0.24956	0.26645	0.12919	0.2057	0.16818	0.27627	-2.4979	-3.5042	-2.8729	-3.1833	-3.3896	-2.8833	-3.6583	-3.3792	-2.8792	-3.6042	-3.0229	-3.0875	-3.4521	-2.7833	-3.4354	-3.3333	110.910	164.541	195.466	65.791	406.909	226.619	349.158	319.925	239.079	358.220	383.800	346.557	369.543	176.690	274.236	372.711	0.0025578	0.00078992	0.00018546	894.36	9.0244e-06	5.9974e-06	1207.9	267.21	1.0594e-05	5.8935e-06	462.4	202.91	99.471	48.545	7.4445e-06	109.89	0.0007617	0.00031446	9.2924e-05	811.79	3.6172e-06	3.5929e-06	1103.7	244.76	3.6339e-06	3.421e-06	425.24	186.32	91.137	44.987	3.5616e-06	101.83	326.012	135.917	135.664	60.186	199.622	199.205	59.635	65.165	218.558	192.521	63.868	68.788	69.972	73.467	204.390	71.588	-8191	255	
1866.697	1	1	0	0	0.26168	0.27927	0.15527	0.26464	0.402	0.1485	0.12552	0.15595	0.12432	0.035965	0.12409	0.37029	0.19512	0.30633	0.047983	0.079748	-2.4271	-3.4813	-2.9375	-3.1229	-3.4104	-2.5521	-3.3479	-3.225	-2.675	-3.4896	-3.0542	-3.0542	-3.5812	-2.8667	-3.1167	-3.3563	224.366	157.272	117.667	367.938	182.761	277.922	399.054	296.902	281.558	118.618	208.566	47.982	142.206	82.238	299.256	243.868	0.0025229	0.00064916	0.00022818	892.87	8.8285e-06	6.8148e-06	1214.9	265.07	1.2187e-05	7.8824e-06	463.49	204.15	99.834	48.613	7.8798e-06	110.63	0.00076897	0.00031588	9.3459e-05	815.16	3.272e-06	3.4821e-06	1108.2	244.03	3.7904e-06	3.5655e-06	426.75	186.84	91.331	45.098	3.926e-06	102.3	325.444	124.857	135.725	59.870	205.601	189.142	60.018	65.171	206.184	199.473	63.986	68.913	69.807	73.521	191.850	71.524	-8191	255	
1866.792	1	1	0	0	0.077515	0.13182	0.062386	0.31111	0.021792	0.27521	0.36203	0.17717	0.16467	0.091894	0.14348	0.1302	0.032861	0.24673	0.1066	0.12221	-2.3438	-3.5625	-2.9604	-3.1146	-3.5146	-2.7917	-3.5187	-3.3937	-2.7604	-3.4375	-3.0646	-2.6979	-3.5583	-2.7188	-3.2375	-3.5271	262.326	72.461	187.168	375.866	182.388	360.062	50.444	352.336	130.933	235.732	373.939	398.109	69.772	331.654	165.022	356.849	0.0026167	0.00068662	0.00018119	888.23	7.2413e-06	4.8094e-06	1218.6	269.4	1.1917e-05	7.3295e-06	465.04	203.32	99.637	48.251	7.6446e-06	109.57	0.00079921	0.00031255	8.6657e-05	816.83	3.3242e-06	3.5181e-06	1113.2	246.26	3.7223e-06	3.4544e-06	427.43	186.8	91.465	44.852	3.8092e-06	101.84	322.747	132.008	136.157	60.191	193.073	194.846	59.619	64.717	221.810	204.052	63.791	68.819	70.120	73.634	202.397	71.570	-8191	255	
1866.888	1	1	0	0	0.056079	0.12209	0.12951	0.21202	0.29167	0.15885	0.22815	0.20374	0.031586	0.048468	0.097833	0.037862	0.33931	0.069965	0.17512	0.29386	-2.2938	-3.3958	-2.9208	-2.8979	-3.1896	-2.8229	-3.2812	-3.3854	-2.6875	-3.3438	-3.3	-2.7917	-3.4917	-2.9604	-2.9271	-3.4333	89.567	386.778	128.702	140.546	164.550	328.479	344.672	99.226	221.272	120.315	292.255	396.224	354.822	172.579	180.631	391.251	0.0025593	0.00076655	0.00012221	886.19	8.9307e-06	4.989e-06	1211.3	267.71	1.28e-05	8.5166e-06	458.99	200.47	98.133	47.991	9.6839e-06	108.61	0.00079523	0.00032074	8.6502e-05	812.83	3.5308e-06	3.4766e-06	1106.6	244.17	3.6508e-06	3.4023e-06	422.49	184.01	89.931	44.484	3.9298e-06	100.92	324.325	132.965	145.740	59.874	199.621	192.816	59.717	65.205	225.726	209.571	63.952	68.895	70.183	73.344	209.455	71.626	-8191	255	
1867.009	1	1	0	0	0.15715	0.17005	0.061426	0.31525	0.30018	0.23146	0.22499	0.09383	0.1295	0.14045	0.28986	0.19287	0.28547	0.1807	0.16965	0.10413	-2.175	-3.2479	-3.3917	-2.8375	-3.5333	-2.8937	-3.025	-3.5542	-2.7125	-3.2188	-3.2896	-2.8479	-3.4875	-3.2042	-2.7917	-3.5917	166.003	240.829	381.324	68.407	361.501	299.215	377.216	387.561	128.665	230.134	131.320	274.174	74.108	331.797	172.784	69.890	0.0026075	0.00072322	0.00017345	886.01	7.944e-06	7.4827e-06	1208.5	264.63	9.6273e-06	5.3289e-06	459.93	200.04	99.214	47.915	7.7121e-06	109.45	0.00078354	0.00034564	9.0214e-05	809.2	3.5434e-06	3.5569e-06	1105.8	243.21	3.4403e-06	3.4509e-06	423.59	184.14	90.566	44.603	3.8218e-06	101.68	323.076	132.077	125.420	59.804	202.776	191.341	59.877	65.181	208.936	207.319	64.053	69.010	69.725	73.755	193.572	71.576	-8191	255	
1867.105	1	1	0	0	0.099788	0.079233	0.16814	0.14869	0.10127	0.14149	0.42295	0.19945	0.12658	0.16355	0.075626	0.14594	0.22155	0.17566	0.10542	0.35816	-2.2854	-3.0271	-3.3104	-2.6854	-3.4646	-2.9708	-2.9562	-3.6	-2.8917	-3.175	-3.4167	-2.975	-3.4271	-3.2354	-2.8563	-3.7542	213.233	73.935	324.424	166.705	135.234	117.234	356.425	337.814	130.459	240.946	164.929	305.928	303.328	315.524	280.874	346.161	0.0025763	0.0006983	0.00020591	890.42	7.4978e-06	7.9607e-06	1221.5	266.61	9.3665e-06	6.9266e-06	466.22	203.18	98.69	48.111	8.9979e-06	110.68	0.00077601	0.00035574	9.3787e-05	814.09	3.4467e-06	3.7237e-06	1110.7	244.98	3.4065e-06	3.3536e-06	427.14	186.35	91.079	44.78	4.2096e-06	102.66	323.936	138.227	141.717	60.204	207.625	199.802	59.767	65.050	216.339	184.657	64.117	68.832	70.268	73.478	199.332	71.666	-8191	255	
1867.201	1	1	0	0	0.19266	0.27028	0.14815	0.20373	0.020666	0.087887	0.18843	0.24616	0.27321	0.080856	0.11996	0.31995	0.11004	0.22204	0.21063	0.4771	-2.2875	-3.1771	-3.275	-2.7667	-3.2646	-3.3208	-3.05	-3.4354	-2.8458	-2.9667	-3.5354	-2.875	-3.2625	-3.3667	-2.7125	-3.7208	304.883	272.079	97.530	385.679	335.988	246.718	326.573	339.254	172.337	235.696	339.924	337.573	51.732	392.033	385.212	338.723	0.0025046	0.00058149	0.00018461	895.83	7.6256e-06	7.6603e-06	1223.4	269.78	1.2167e-05	6.1068e-06	468.44	203.03	99.102	48.4	9.2577e-06	109.92	0.00077944	0.00031033	9.3045e-05	817.85	3.6815e-06	3.5195e-06	1116.3	246.57	3.6584e-06	3.4029e-06	428.79	186.59	90.907	45.019	3.7675e-06	102	326.284	143.311	133.349	59.951	200.014	198.305	59.780	65.056	221.125	202.293	64.246	68.930	70.252	73.500	194.581	71.978	-8191	255	
1867.297	1	1	0	0	0.19967	0.080516	0.13227	0.16957	0.088985	0.33438	0.23562	0.10131	0.047913	0.13501	0.20675	0.049708	0.25363	0.13405	0.068258	0.23606	-2.5812	-2.925	-3.4792	-2.7667	-3.2896	-3.275	-2.9333	-3.6188	-3.0875	-2.9729	-3.5729	-2.9917	-3.2687	-3.5854	-2.7229	-3.6521	47.930	342.839	405.024	342.412	64.494	132.186	356.590	48.398	335.783	105.016	298.107	400.341	355.156	338.138	69.002	364.527	0.0023991	0.00068056	0.00016096	884.55	8.0555e-06	7.2449e-06	1205.1	265.58	7.6123e-06	7.0848e-06	459.28	199.2	98.154	47.921	7.5797e-06	109.27	0.00073876	0.00034021	8.9696e-05	811.14	3.5091e-06	3.3949e-06	1101.4	243.03	3.4414e-06	3.5495e-06	421.38	183.2	89.953	44.439	3.801e-06	100.96	324.960	126.553	142.298	60.050	202.659	195.687	59.548	65.317	215.918	194.016	64.439	69.086	70.060	73.751	192.672	71.507	-8191	255	
1867.418	1	1	0	0	0.33832	0.10978	0.016123	0.17643	0.0081717	0.1661	0.27727	0.30206	0.039281	0.23805	0.30818	0.21027	0.025863	0.10031	0.11335	0.11418	-2.5875	-2.8333	-3.45	-2.9792	-3.0917	-3.4292	-2.775	-3.4875	-3.1896	-2.8646	-3.5979	-3.1771	-3.0812	-3.5625	-2.8937	-3.3958	384.689	136.500	317.383	385.870	117.375	49.346	405.675	378.365	371.505	220.940	397.699	352.678	226.479	367.937	86.987	401.011	0.0024188	0.00063206	0.00017623	887.59	9.32e-06	8.5326e-06	1209.1	265.28	1.3315e-05	5.7792e-06	456.5	198.8	97.69	48.233	1.0257e-05	109.29	0.00073979	0.00034607	9.0645e-05	809.34	3.6725e-06	3.9936e-06	1101.4	243.2	3.5083e-06	3.2973e-06	421.63	183.51	89.776	44.534	3.7612e-06	101.11	322.456	137.993	137.353	60.184	210.462	201.341	60.139	65.305	231.482	205.569	64.191	68.750	70.301	73.912	202.069	71.744	-8191	255	
1867.489	1	1	0	0	0.22899	0.15919	0.027078	0.060777	0.17547	0.25516	0.23134	0.054735	0.2796	0.035561	0.18155	0.15573	0.1902	0.20772	0.16441	0.070287	-2.8312	-2.6312	-3.4042	-3.1104	-2.8875	-3.5208	-2.8646	-3.3937	-3.2875	-2.7229	-3.4333	-3.1229	-2.9417	-3.5	-2.7042	-3.4125	101.836	216.252	365.539	228.305	78.985	356.710	310.277	99.796	189.185	212.506	385.136	349.814	333.188	387.327	159.624	79.694	0.0024856	0.00063361	0.0002283	884.33	8.7185e-06	6.6352e-06	1204.8	264.47	1.1801e-05	6.4601e-06	462.18	200.65	99.356	47.909	6.9509e-06	109.59	0.00075388	0.00033572	9.5841e-05	808.6	3.5476e-06	3.3257e-06	1101.4	243.18	3.5932e-06	3.5864e-06	424.4	184.53	90.759	44.527	3.8793e-06	101.59	324.863	132.720	134.986	60.204	205.244	200.339	59.593	65.491	232.635	187.066	64.208	68.581	69.931	73.749	181.817	71.807	-8191	255	
1867.585	1	1	0	0	0.13238	0.1155	0.15637	0.146	0.11443	0.12958	0.047544	0.22429	0.20512	0.11663	0.23325	0.25315	0.18093	0.18189	0.28678	0.26297	-2.7938	-2.6333	-3.4542	-3.0292	-2.7583	-3.4854	-2.9396	-3.1937	-3.2833	-2.7771	-3.35	-3.1354	-2.8458	-3.5271	-2.8104	-3.3792	69.870	59.291	387.554	267.099	65.053	350.156	364.122	372.218	398.660	123.548	382.900	331.613	380.552	400.801	176.438	354.597	0.0026514	0.00074887	0.00022991	889.76	8.8632e-06	7.1544e-06	1210.7	266.44	1.3625e-05	7.5328e-06	463.2	203.56	98.976	48.017	8.6647e-06	109.42	0.00078191	0.00034218	9.3062e-05	811.23	3.7781e-06	3.496e-06	1107.6	244.24	3.5147e-06	3.6183e-06	424.99	185.52	90.491	44.468	3.9993e-06	101.34	325.232	134.831	153.882	60.150	210.706	199.110	59.645	65.451	212.631	196.270	64.238	68.926	70.199	73.987	214.943	71.761	-8191	255	
1867.682	1	1	0	0	0.2191	0.14747	0.049785	0.027115	0.047991	0.04441	0.17304	0.34152	0.22602	0.22663	0.18451	0.13585	0.20102	0.22156	0.27592	0.31593	-2.8958	-2.5792	-3.2667	-3.3	-2.6854	-3.375	-2.9938	-3.2854	-3.5333	-2.85	-3.2562	-3.3854	-3.0438	-3.675	-2.9479	-3.1229	131.582	404.997	406.552	62.938	193.698	319.747	323.922	368.471	62.769	251.042	385.875	297.499	350.235	382.245	84.115	325.051	0.0025773	0.00065284	0.00017122	884.09	7.2883e-06	6.5426e-06	1205.5	265.04	1.3355e-05	6.2973e-06	460.91	200.1	98.238	47.193	7.8205e-06	108.88	0.00077479	0.00031871	9.2682e-05	806.48	3.568e-06	3.1769e-06	1099.7	242.33	3.5327e-06	3.5871e-06	422.57	183.7	89.736	44.076	3.6974e-06	100.84	326.434	134.387	131.745	59.942	208.988	178.267	59.520	65.156	221.949	186.084	64.231	68.816	70.003	74.233	198.638	71.554	-8191	255	
1867.800	1	1	0	0	0.020254	0.1984	0.23114	0.14201	0.18198	0.12519	0.21131	0.18422	0.20981	0.15867	0.16558	0.12501	0.072283	0.30035	0.054748	0.063668	-2.9958	-2.6604	-3.1208	-3.3625	-2.7958	-3.375	-3.1729	-2.9542	-3.5312	-2.6021	-3.2833	-3.4667	-2.8021	-3.5771	-3.0979	-3.0083	294.055	370.672	329.499	359.314	362.870	81.751	387.076	305.077	158.488	265.490	263.910	363.961	305.644	345.957	248.002	127.303	0.0025825	0.00064521	0.00018583	883.12	9.2485e-06	7.0503e-06	1205.2	263.7	9.2201e-06	8.3921e-06	463.48	201.51	97.923	47.621	6.8515e-06	109.4	0.00077472	0.00035882	8.6537e-05	807.35	3.8556e-06	3.2122e-06	1103.1	242.44	3.2669e-06	3.9344e-06	426.22	184.92	90.059	44.232	3.4252e-06	101.4	322.989	135.701	160.404	59.981	214.547	194.382	60.008	65.456	219.602	189.800	64.351	68.783	70.084	73.647	207.564	72.125	-8191	255	
1867.897	1	1	0	0	0.0644	0.052067	0.34993	0.12577	0.14661	0.12203	0.31399	0.091976	0.24696	0.15023	0.081665	0.13187	0.12606	0.14621	0.27565	0.28199	-3.2271	-2.8083	-3.1604	-3.5271	-2.6354	-3.3979	-3.1458	-2.8875	-3.4354	-2.7125	-3.3292	-3.5667	-2.7146	-3.3229	-3.0229	-2.8812	401.533	279.060	224.836	350.041	312.377	396.729	325.956	349.542	66.273	138.599	196.869	305.797	143.301	302.654	135.234	386.272	0.0026055	0.00056416	0.00018537	885.12	9.6161e-06	8.6456e-06	1219.3	266.19	9.4206e-06	7.4651e-06	468.48	202.99	99.782	48.39	8.3928e-06	109.76	0.00076413	0.00032481	9.0593e-05	808.25	3.8508e-06	3.6129e-06	1110.4	243.62	3.4914e-06	3.7698e-06	429.4	186.99	91.063	44.707	3.7302e-06	102.15	326.368	135.606	144.243	60.050	204.361	187.529	59.895	65.396	225.365	199.310	64.565	68.956	70.022	73.663	204.615	71.959	-8191	255	
1867.993	1	1	0	0	0.22687	0.26408	0.04243	0.08214	0.20909	0.13111	0.051514	0.47172	0.093744	0.21924	0.17778	0.15548	0.33209	0.029358	0.1553	0.38067	-3.1375	-2.7812	-3.0375	-3.6021	-2.6104	-3.2479	-3.3354	-2.875	-3.4583	-2.9667	-3.0625	-3.6375	-2.8	-3.3021	-3.2292	-2.8542	280.840	269.253	191.074	264.364	88.818	345.655	279.407	378.034	55.597	166.376	91.993	358.136	403.024	360.431	139.905	324.863	0.0027459	0.00074937	0.00022754	887.72	8.0434e-06	6.3314e-06	1226.6	267.89	1.1558e-05	6.623e-06	463.58	202.65	98.149	47.89	8.7969e-06	109.8	0.00079788	0.0003473	0.00010081	814.1	3.5656e-06	3.779e-06	1115.3	245.01	3.5228e-06	3.5322e-06	427.08	186.24	90.292	44.299	3.6008e-06	101.57	324.740	121.779	144.255	60.127	197.654	196.358	59.862	65.406	234.538	193.853	64.382	68.740	69.986	73.669	200.386	71.770	-8191	255	
1868.089	1	1	0	0	0.22184	0.23325	0.050796	0.10638	0.19032	0.20648	0.43254	0.29982	0.12757	0.18635	0.2672	0.14869	0.19185	0.080915	0.14147	0.23395	-2.9896	-3.0312	-2.8708	-3.5583	-2.7	-3.1271	-3.6896	-2.8812	-3.3458	-3.0104	-2.7625	-3.5792	-2.8937	-3.1542	-3.4562	-2.9062	97.088	289.426	70.806	240.517	82.366	69.797	376.854	394.814	134.063	289.397	379.027	350.111	168.479	262.562	247.041	342.691	0.0025902	0.00076634	0.00016095	887.35	7.9794e-06	5.7474e-06	1204	264.8	1.4392e-05	5.5471e-06	462.08	200.99	98.252	47.484	7.3628e-06	108.03	0.00075986	0.00035001	9.5565e-05	809.06	3.7872e-06	3.5257e-06	1102.6	242.32	3.7072e-06	3.6176e-06	423.23	184.45	89.732	43.986	3.6273e-06	100.6	324.937	132.679	144.146	60.342	199.346	205.499	59.803	65.275	222.452	197.543	64.441	69.118	70.111	73.667	199.860	71.924	-8191	255	
1868.185	1	1	0	0	0.2305	0.10288	0.1397	0.32	0.27669	0.2714	0.24844	0.2863	0.10527	0.16932	0.13418	0.17487	0.1792	0.19182	0.33943	0.22945	-2.9104	-2.9875	-2.6437	-3.625	-2.9104	-3.2125	-3.6458	-2.8542	-3.4042	-3.15	-2.8833	-3.7271	-3.0021	-3.0521	-3.5333	-2.9021	211.681	146.500	247.518	320.908	57.547	338.433	375.403	306.303	208.926	180.249	363.602	355.566	292.167	255.281	283.258	297.093	0.0026233	0.00063663	0.00014005	887.22	7.868e-06	4.2206e-06	1210.1	263.88	1.1174e-05	6.9577e-06	461.48	201.38	97.554	47.447	7.9622e-06	108.9	0.00078837	0.0003253	9.8206e-05	806.55	3.6707e-06	3.3368e-06	1103.8	241.99	3.4821e-06	3.4947e-06	424.26	184.55	89.504	44.054	3.6589e-06	100.69	326.470	137.552	142.516	60.167	203.853	201.200	59.849	65.632	228.666	191.310	64.414	69.349	70.014	73.872	196.460	71.801	-8191	255	
1868.281	1	1	0	0	0.16236	0.18192	0.085075	0.10061	0.26357	0.16392	0.22234	0.29131	0.18738	0.17163	0.15894	0.34593	0.30882	0.12426	0.098146	0.18901	-2.8958	-3.2708	-2.725	-3.5646	-2.9396	-2.7833	-3.6958	-2.8875	-3.3083	-3.4854	-2.7896	-3.4479	-2.9729	-3.1437	-3.4958	-2.9604	294.280	201.729	88.272	177.501	184.590	318.117	336.027	89.412	244.256	99.210	338.735	335.594	100.012	352.608	254.175	300.329	0.0026469	0.00058023	0.00023554	887.63	1.0133e-05	9.2658e-06	1213.8	264.66	1.1419e-05	5.6977e-06	463.77	202.02	98.382	47.855	7.5849e-06	109.62	0.00078689	0.00033664	9.3977e-05	807.69	3.6995e-06	3.8794e-06	1105.8	242.64	3.3908e-06	3.23e-06	424.16	185.2	89.924	44.07	3.3854e-06	101.33	321.686	129.858	137.357	60.396	201.233	190.480	60.044	65.273	239.955	189.189	64.991	69.176	70.145	73.823	202.763	71.757	-8191	255	
1868.377	1	1	0	0	0.12904	0.033968	0.28004	0.16968	0.10008	0.26024	0.10858	0.24927	0.17727	0.047124	0.21412	0.16417	0.32469	0.096448	0.14858	0.31804	-2.7146	-3.3792	-2.7229	-3.525	-3.1	-2.7729	-3.6312	-2.9875	-3.0854	-3.4271	-2.8312	-3.5812	-3.1125	-2.8521	-3.3604	-2.8854	158.172	285.333	254.766	370.215	344.866	401.114	338.469	381.148	335.677	153.408	59.788	389.010	74.751	355.368	385.355	355.247	0.0025669	0.00066808	0.00019076	885.31	7.8899e-06	6.7407e-06	1212.9	265.14	1.1252e-05	5.9889e-06	462.02	201.53	98.459	47.536	1.081e-05	108.76	0.00077701	0.00033294	9.3269e-05	808.42	3.5235e-06	3.5423e-06	1108.7	241.9	3.5793e-06	3.3099e-06	425.34	185.17	89.981	43.935	3.7637e-06	100.41	325.955	130.244	146.148	60.229	197.991	193.025	60.092	65.248	228.073	198.917	64.289	69.188	70.109	73.806	208.674	71.958	-8191	255	
1868.498	1	1	0	0	0.19768	0.2549	0.054923	0.27895	0.11533	0.26775	0.31621	0.37392	0.008879	0.18731	0.21361	0.19807	0.13928	0.21524	0.233	0.12847	-2.4938	-3.4708	-2.5104	-3.3292	-3.2687	-2.7521	-3.5708	-3.0083	-2.9188	-3.325	-2.9188	-3.3083	-3.3208	-2.9042	-3.4437	-2.8063	64.463	205.712	166.959	258.993	244.062	291.508	373.190	342.344	167.490	252.218	315.606	323.852	164.542	130.421	208.900	49.245	0.002552	0.00064601	0.00019723	884.66	9.4596e-06	5.9583e-06	1211.7	262.98	1.1135e-05	6.105e-06	458.22	201.2	97.872	47.256	6.214e-06	108.64	0.00076963	0.00031717	9.8154e-05	805.64	3.5296e-06	3.6808e-06	1101.6	240.37	3.6607e-06	3.3231e-06	423.07	184.86	89.875	43.83	3.6753e-06	100.6	325.105	127.028	142.998	60.569	208.383	191.328	59.768	65.550	219.561	217.098	64.213	69.320	70.034	73.792	197.237	71.826	-8191	255	
1868.594	1	1	0	0	0.051164	0.2251	0.22566	0.03873	0.10671	0.2082	0.32172	0.074545	0.015709	0.2599	0.25768	0.33364	0.18574	0.24698	0.15138	0.11382	-2.4125	-3.4708	-2.7271	-3.1562	-3.2146	-2.7021	-3.5021	-3.0979	-2.7417	-3.4437	-2.7792	-3.2562	-3.3729	-2.8333	-3.4062	-3.3167	62.589	228.097	279.847	211.165	403.254	109.130	339.551	390.983	381.660	201.418	360.145	266.105	394.344	114.483	327.645	61.428	0.0025529	0.00096945	0.000202	882.65	8.0941e-06	6.1372e-06	1209.6	263.87	1.2059e-05	6.5875e-06	462.16	203.07	99.293	47.752	6.4961e-06	110.06	0.0007759	0.00032056	0.00010328	805.61	3.553e-06	3.7597e-06	1104.4	241.79	3.67e-06	3.6558e-06	424.61	186.29	90.705	44.175	3.6747e-06	101.41	324.692	134.365	136.323	60.423	202.289	200.330	60.379	65.620	236.611	205.360	64.137	69.066	70.508	73.946	203.352	71.846	-8191	255	
1868.690	1	1	0	0	0.13626	0.13455	0.2914	0.20224	0.30946	0.12597	0.16512	0.086448	0.067803	0.15407	0.23811	0.41833	0.19775	0.25223	0.10035	0.11736	-2.2917	-3.6333	-2.75	-3.2396	-3.6188	-2.7729	-3.5938	-3.1917	-2.8125	-3.375	-2.95	-3.0625	-3.4104	-2.7396	-3.2188	-3.3187	175.865	119.827	150.732	68.360	199.913	361.016	390.032	335.987	352.974	188.751	339.477	406.373	66.514	68.861	327.236	303.417	0.0027116	0.0006994	0.0002009	888.93	9.4226e-06	6.282e-06	1219	266.5	1.3544e-05	6.6411e-06	466.25	205.46	100.78	48.132	7.0098e-06	110.51	0.00079268	0.00032586	9.8966e-05	810.43	3.4713e-06	3.6212e-06	1112.5	244.22	3.9102e-06	3.4252e-06	429.87	188.43	91.81	44.656	3.8578e-06	102.45	322.064	132.200	119.403	60.419	200.000	200.325	60.375	65.387	225.022	213.170	64.130	69.229	70.147	73.816	194.295	71.975	-8191	255	
1868.786	1	1	0	0	0.14087	0.044041	0.17996	0.16567	0.14799	0.20576	0.40959	0.14742	0.044526	0.2191	0.1921	0.20975	0.080186	0.12929	0.19924	0.32396	-2.3104	-3.5583	-2.6646	-3.0333	-3.4625	-2.5729	-3.3521	-3.3042	-2.6875	-3.5646	-3.05	-3.0667	-3.5979	-2.6688	-3.2646	-3.4125	314.698	191.668	67.964	403.537	167.590	388.049	367.314	273.652	224.151	174.611	86.997	317.047	354.518	331.706	278.149	372.748	0.0027145	0.00066869	0.00019931	893.19	8.9779e-06	7.2394e-06	1222.2	266.66	1.1161e-05	7.6327e-06	466.69	202.89	99.213	47.6	6.2756e-06	109.05	0.0008202	0.00032524	9.6514e-05	812.31	3.5368e-06	3.3818e-06	1114.3	243.7	3.513e-06	3.3446e-06	427.75	186.64	90.777	44.068	4.0202e-06	101.06	324.783	144.094	141.335	60.344	200.296	196.278	60.251	65.340	223.801	190.694	64.404	69.208	70.283	74.293	181.768	71.871	-8191	255	
1868.881	1	1	0	0	0.26717	0.14084	0.31074	0.24585	0.30509	0.19697	0.30966	0.16652	0.077982	0.12227	0.27966	0.15624	0.09828	0.14214	0.11049	0.19217	-2.2896	-3.575	-3.1937	-3.0792	-3.5771	-2.8875	-3.3208	-3.3542	-2.8417	-3.3563	-3.2792	-3.0062	-3.575	-2.8458	-3.0062	-3.6292	113.282	391.913	148.623	348.012	65.368	98.798	357.440	291.631	252.586	113.887	48.137	382.042	62.077	104.245	401.832	350.699	0.0025512	0.00059433	0.00021228	881.62	8.8327e-06	6.3879e-06	1209.1	262.04	1.1291e-05	7.0062e-06	461.75	201.82	98.142	47.051	6.2205e-06	108.01	0.00078239	0.00031304	8.9178e-05	804.91	3.35e-06	3.5091e-06	1103.4	241.1	3.734e-06	3.4391e-06	424.09	184.96	89.789	43.672	3.621e-06	100.27	322.332	131.354	122.839	60.393	203.860	196.976	60.001	65.580	231.691	208.418	64.614	69.197	70.264	74.088	192.981	71.833	-8191	255	
1868.977	1	1	0	0	0.071212	0.16704	0.24847	0.16364	0.2116	0.057314	0.33092	0.22861	0.12556	0.045454	0.3421	0.2192	0.22057	0.12737	0.095867	0.26276	-2.2583	-3.4437	-3.1562	-2.9417	-3.4417	-2.9646	-3.1083	-3.5646	-2.6083	-3.4542	-3.4292	-2.9708	-3.5563	-2.8979	-3.1417	-3.6083	185.011	118.503	325.895	136.175	381.744	132.515	297.665	345.661	66.153	149.775	97.434	371.335	113.243	186.166	211.999	326.499	0.0025504	0.00070026	0.0001892	883.38	5.9872e-06	8.3677e-06	1216.6	265.1	1.1566e-05	5.8804e-06	464.3	202.63	99.173	47.535	1.0163e-05	108.69	0.00078346	0.00032013	8.7676e-05	805.69	3.0384e-06	3.642e-06	1107.4	241.95	3.6601e-06	3.3488e-06	424.77	185.22	90.228	43.846	3.9715e-06	100.81	323.708	133.955	139.788	60.341	205.485	200.330	59.820	65.508	211.867	205.939	64.347	69.496	70.387	74.069	196.720	71.994	-8191	255	
1869.073	1	1	0	0	0.1672	0.20835	0.043801	0.061528	0.071116	0.27644	0.12615	0.17824	0.21848	0.20277	0.07076	0.42258	0.027521	0.20249	0.20889	0.2853	-2.375	-3.2542	-3.4083	-2.8479	-3.4479	-2.9125	-2.8896	-3.5542	-2.8	-3.175	-3.5604	-2.8583	-3.3563	-3.2021	-2.7417	-3.6125	206.992	362.038	349.883	314.418	396.823	219.855	377.113	52.300	173.498	385.283	380.672	352.969	295.879	52.504	291.244	351.986	0.0026261	0.00077243	0.00023355	888.41	8.6461e-06	6.5056e-06	1219	264.6	1.276e-05	8.5946e-06	464.46	203.87	98.863	47.501	9.7491e-06	109.9	0.00077572	0.00032124	9.3269e-05	807.64	3.4689e-06	3.6268e-06	1111.7	242.47	3.6473e-06	3.7066e-06	427.39	186.78	90.366	44.004	3.597e-06	101.78	323.197	130.779	153.770	60.565	193.091	202.812	60.266	65.466	228.273	205.915	65.006	69.211	70.706	74.369	206.645	72.013	-8191	255	
1869.194	1	1	0	0	0.083744	0.032834	0.13448	0.13885	0.2888	0.13559	0.18035	0.16921	0.094259	0.24767	0.1166	0.20825	0.25054	0.30941	0.08768	0.048986	-2.4708	-3.0604	-3.4542	-2.8333	-3.5375	-3.2438	-2.9417	-3.5354	-2.8042	-3.0896	-3.5583	-2.9229	-3.5208	-3.25	-2.9396	-3.7208	216.562	189.534	285.982	85.658	248.434	123.550	283.244	106.390	364.328	184.075	399.567	61.570	381.023	381.122	355.625	353.682	0.0026901	0.00070398	0.0002115	886.23	7.3537e-06	4.9506e-06	1218.5	266.91	1.1684e-05	5.6771e-06	465.42	201.89	97.847	46.896	7.3032e-06	108.7	0.00081769	0.00035093	8.7797e-05	810.72	3.6647e-06	3.397e-06	1113.7	243.06	3.7136e-06	3.4043e-06	426.69	185.19	89.618	43.471	3.8263e-06	100.42	323.407	137.589	147.632	60.270	207.278	183.695	60.372	65.699	225.643	207.152	64.384	69.698	70.454	73.932	201.437	72.482	-8191	255	
1869.290	1	1	0	0	0.13969	0.055344	0.16429	0.067306	0.13526	0.25111	0.21327	0.22932	0.39946	0.19899	0.13497	0.15739	0.14585	0.23454	0.15517	0.39411	-2.5812	-2.9729	-3.4583	-2.9792	-3.2771	-3.3229	-2.8521	-3.5833	-2.9708	-2.8979	-3.5771	-2.6354	-3.2938	-3.35	-2.6479	-3.5292	196.289	255.998	234.719	334.744	275.524	186.566	334.881	364.104	357.701	50.637	62.977	270.275	371.326	49.797	117.623	336.883	0.0024038	0.00071612	0.00020483	880.02	8.6575e-06	6.1347e-06	1213.5	264.42	1.1368e-05	7.5566e-06	459.95	200.51	97.585	47	8.6114e-06	108.1	0.0007468	0.0003375	8.8332e-05	804.76	3.6208e-06	3.1423e-06	1107.8	241.36	3.4478e-06	3.7469e-06	424.03	184.11	89.441	43.537	3.9134e-06	100.34	324.757	119.963	151.969	60.392	209.793	201.382	60.260	65.697	235.174	192.637	64.641	69.311	70.377	73.988	211.435	72.239	-8191	255	
1869.362	1	1	0	0	0.29101	0.11972	0.16016	0.2921	0.088388	0.042101	0.19473	0.047736	0.27778	0.18948	0.3538	0.11763	0.18063	0.23207	0.18909	0.030968	-2.6771	-2.725	-3.55	-2.8292	-3.2917	-3.1688	-2.9083	-3.3875	-3.2708	-2.8708	-3.6958	-2.9396	-3.1625	-3.4792	-2.7375	-3.4875	102.034	85.955	272.169	381.259	220.850	320.628	366.272	345.354	119.846	168.149	391.975	370.660	310.388	304.909	380.913	51.905	0.0026032	0.00063352	0.0002255	885.06	6.8767e-06	5.8617e-06	1213.3	263.97	1.0562e-05	8.3077e-06	463.97	202.37	98.031	47.272	8.5275e-06	109.85	0.00077096	0.0003404	8.702e-05	805.36	3.619e-06	3.316e-06	1107.2	242.05	3.6997e-06	3.956e-06	426.36	185.87	89.924	43.814	4.1559e-06	101.6	324.804	125.015	137.401	60.467	214.705	205.669	60.368	65.761	225.572	200.968	64.858	69.225	70.799	74.164	200.613	72.527	-8191	255	
1869.458	1	1	0	0	0.19658	0.15739	0.24112	0.055908	0.22647	0.35015	0.2979	0.045684	0.17147	0.038544	0.22038	0.21648	0.089682	0.25296	0.075309	0.11387	-2.9396	-2.7708	-3.5333	-2.9688	-3.0896	-3.4021	-2.8875	-3.3812	-3.2417	-2.8896	-3.4188	-2.9562	-3.1396	-3.4479	-2.6917	-3.5167	121.964	247.524	395.305	312.989	153.917	232.109	367.153	391.189	318.320	388.268	369.685	393.156	127.187	308.509	77.430	79.845	0.002738	0.00075191	0.00016254	885.92	7.6016e-06	7.729e-06	1220.6	267.08	9.7938e-06	7.399e-06	467.16	204.97	99.355	47.727	7.8648e-06	110.07	0.0007873	0.00034379	9.2786e-05	808.89	3.7541e-06	3.6019e-06	1113.7	244.03	3.5705e-06	3.7469e-06	429.26	187.77	90.687	44.138	4.0082e-06	102.06	323.865	125.267	126.391	60.400	213.751	207.437	60.446	65.821	235.247	202.404	64.701	69.340	71.137	74.097	207.651	72.692	-8191	255	
1869.578	1	1	0	0	0.21232	0.08292	0.15337	0.036851	0.28126	0.092629	0.065492	0.090459	0.058865	0.039329	0.28769	0.18229	0.046448	0.26973	0.21571	0.24715	-2.5917	-2.5625	-3.3792	-3.0542	-2.9479	-3.5229	-2.8979	-3.2271	-3.2708	-2.8187	-3.4292	-3.3	-2.8438	-3.3042	-2.6208	-3.3854	301.965	382.552	255.325	393.833	228.076	134.682	270.667	55.006	199.341	278.834	359.606	354.014	358.321	406.895	284.838	384.646	0.0025494	0.00065594	0.00019343	885.26	9.7214e-06	7.1576e-06	1220.4	264.25	1.2784e-05	7.5598e-06	464.82	202.38	98.154	47.42	9.3877e-06	108.91	0.00076657	0.00032617	9.0731e-05	809.65	3.7799e-06	3.3264e-06	1116.2	242.61	3.6944e-06	3.5627e-06	426.88	185.73	89.894	43.825	3.8907e-06	100.77	324.692	127.753	133.113	60.883	210.344	198.532	60.375	65.877	221.924	186.145	65.060	69.594	70.744	74.582	210.521	72.586	-8191	255	
1869.675	1	1	0	0	0.11745	0.17297	0.13205	0.27028	0.11632	0.16641	0.16763	0.15976	0.21432	0.30071	0.055361	0.1439	0.28862	0.2698	0.19746	0.082748	-2.9437	-2.7521	-3.3542	-3.2833	-2.8125	-3.3375	-2.9521	-3.1312	-3.4292	-2.6896	-3.3312	-3.3125	-2.775	-3.4562	-2.8417	-3.1354	267.015	315.159	370.554	395.266	257.232	399.239	339.804	332.694	388.933	405.293	164.352	259.917	108.177	354.458	345.220	315.128	0.002632	0.00075476	0.00018138	877.25	7.9181e-06	8.0468e-06	1219.9	263.83	1.2017e-05	7.1332e-06	465.87	202.51	98.107	47.175	7.5143e-06	109.04	0.00079276	0.00034101	9.0541e-05	804.09	3.4533e-06	3.0537e-06	1107.9	241.29	3.4693e-06	3.6135e-06	425.41	185.22	89.664	43.674	3.7713e-06	100.66	324.475	132.108	140.275	60.143	210.215	204.635	60.451	65.903	221.882	203.893	64.887	69.136	70.819	74.842	197.739	72.166	-8191	255	
1869.771	1	1	0	0	0.20478	0.15159	0.074958	0.14301	0.29628	0.058783	0.1433	0.23524	0.075635	0.18071	0.32519	0.18372	0.2025	0.15755	0.13393	0.31056	-3.1146	-2.7896	-3.175	-3.1375	-2.8854	-3.4292	-3.0146	-3.1646	-3.4667	-2.7208	-3.4333	-3.2042	-2.7375	-3.4896	-3.0812	-3.0146	94.827	208.930	261.336	343.184	326.787	97.583	388.607	322.394	110.550	135.100	328.472	78.043	254.329	226.855	267.148	335.371	0.0025389	0.00063375	0.00013863	885.76	8.1352e-06	7.2054e-06	1216.7	264.97	1.0553e-05	9.2754e-06	469.51	203.97	99.045	47.544	8.4357e-06	109.72	0.00075864	0.00033917	8.9782e-05	803.65	3.7229e-06	3.2516e-06	1105.8	241.83	3.4071e-06	3.9018e-06	428.66	186.48	90.299	43.853	3.9797e-06	101.35	325.447	123.339	148.035	60.745	207.460	198.773	60.401	66.279	231.432	209.463	65.006	69.445	70.825	74.381	204.265	72.549	-8191	255	
1869.890	1	1	0	0	0.076514	0.24041	0.016201	0.27685	0.082394	0.14641	0.19806	0.1187	0.2126	0.042088	0.16855	0.34175	0.12618	0.10804	0.28765	0.20593	-3.0708	-2.6458	-3.2417	-3.3375	-2.7313	-3.3646	-3.1958	-2.9854	-3.4979	-2.6708	-3.1646	-3.5625	-2.9104	-3.4917	-3.025	-3.0542	168.266	174.463	300.284	54.596	224.194	265.365	365.871	253.471	233.666	167.706	362.944	323.467	247.861	263.150	103.915	350.901	0.0025677	0.00075124	0.00016004	889.26	8.4936e-06	7.7511e-06	1227.3	267.4	1.0815e-05	7.173e-06	470.65	204.52	99.258	47.644	1.0163e-05	110.36	0.00076934	0.00035291	9.3148e-05	808.95	3.5163e-06	3.4067e-06	1116.2	243.51	3.3774e-06	3.7406e-06	431.22	187.82	90.644	43.976	3.7454e-06	101.64	324.208	130.957	153.293	60.621	192.822	190.237	60.506	65.975	219.570	205.214	65.048	69.675	70.796	74.557	199.221	72.367	-8191	255	
1869.961	1	1	0	0	0.13044	0.30642	0.18176	0.11544	0.12692	0.35562	0.22647	0.22555	0.020231	0.12822	0.050676	0.2487	0.18116	0.31248	0.19372	0.16013	-2.9938	-2.875	-3.1625	-3.6042	-2.7604	-3.4042	-3.3604	-2.8021	-3.3375	-2.9042	-3.0667	-3.5563	-2.8917	-3.4542	-3.2417	-2.825	307.021	94.098	280.417	94.753	256.672	324.380	317.353	325.042	65.535	139.772	60.912	345.409	368.118	309.558	170.258	363.085	0.0027255	0.00064583	0.00020058	888.51	7.1242e-06	6.6855e-06	1228	266.57	1.4347e-05	7.878e-06	466.64	202.43	98.726	47.044	9.6495e-06	108.34	0.00079582	0.00032845	0.00010007	809.59	3.7824e-06	3.4461e-06	1116.8	243.08	3.7619e-06	3.4182e-06	428.03	185.73	90.09	43.385	3.7069e-06	100.43	321.096	133.771	149.067	60.732	207.268	205.006	60.282	65.787	225.002	202.306	65.244	69.853	70.965	74.276	198.295	72.528	-8191	255	
1870.057	1	1	0	0	0.18006	0.17733	0.093421	0.21557	0.065688	0.12583	0.052439	0.25284	0.11963	0.16045	0.13846	0.14285	0.11859	0.062333	0.0279	0.24118	-3.1458	-2.7271	-3.0229	-3.6146	-2.7833	-3.2833	-3.3729	-2.8708	-3.4729	-2.8979	-3.0021	-3.5333	-2.9917	-3.3125	-3.225	-2.8667	308.258	296.516	322.909	378.437	333.058	99.917	347.086	338.093	118.978	153.540	385.091	138.499	90.635	238.065	304.425	281.246	0.0025862	0.00074494	0.00020292	887.86	9.1468e-06	6.1605e-06	1220.1	263.25	9.2664e-06	8.5175e-06	468.92	203.58	97.996	46.963	8.1292e-06	108.88	0.00075056	0.00034477	9.2078e-05	806.87	3.5566e-06	3.3603e-06	1111.8	241.71	3.4106e-06	3.6475e-06	428.53	186.23	89.711	43.36	3.5483e-06	100.46	325.535	139.361	136.525	60.561	209.418	185.678	60.581	65.807	227.708	193.108	64.765	69.605	70.821	74.700	204.060	72.763	-8191	255	
1870.178	1	1	0	0	0.19734	0.11403	0.1112	0.1155	0.10706	0.065766	0.1889	0.16482	0.10146	0.098939	0.19592	0.15374	0.27623	0.37152	0.22347	0.10463	-3.1521	-3.0667	-2.8417	-3.6458	-2.8042	-3.2375	-3.4875	-2.7896	-3.4375	-3.0875	-2.9062	-3.4646	-2.8229	-3.0875	-3.4167	-2.5938	167.027	389.555	329.422	341.561	120.052	235.021	385.883	390.152	183.746	230.077	348.567	330.855	385.277	349.725	203.207	349.706	0.0026964	0.00071001	0.00016916	885.43	1.0928e-05	6.7457e-06	1232.1	265.89	1.4756e-05	6.5675e-06	472.54	204.63	98.517	47.209	7.6978e-06	109.38	0.000778	0.00034305	9.4046e-05	808.38	3.6599e-06	3.2772e-06	1118.7	242.76	3.4827e-06	3.4495e-06	431.56	187.14	89.945	43.606	3.7252e-06	101.31	327.360	142.930	138.392	60.573	185.758	196.261	60.418	66.298	231.689	194.331	65.203	69.567	70.850	74.680	203.688	72.588	-8191	255	
1870.274	1	1	0	0	0.12237	0.20776	0.023741	0.32534	0.040533	0.52408	0.20363	0.17103	0.052556	0.21941	0.038379	0.16233	0.13928	0.4079	0.17336	0.23392	-2.8625	-3.2979	-2.8688	-3.5083	-2.9021	-2.9417	-3.4229	-2.8458	-3.3375	-3.3583	-2.8771	-3.5938	-3.05	-2.9938	-3.6104	-2.9146	198.419	288.638	173.820	327.305	188.781	325.902	348.880	349.987	325.927	272.009	307.303	367.564	152.797	406.885	72.993	404.370	0.0026088	0.00071026	0.00019418	895.02	9.3983e-06	5.8866e-06	1234.3	266.78	8.9064e-06	6.2105e-06	472.63	205.2	98.662	47.334	7.7474e-06	110.09	0.00079519	0.00032795	9.8966e-05	814.45	3.903e-06	3.6545e-06	1124.9	244.46	3.5409e-06	3.1778e-06	433.18	188.3	90.478	43.821	3.7801e-06	101.68	322.749	140.414	147.921	60.341	211.884	189.985	60.484	66.048	221.026	204.123	64.803	69.663	70.667	74.631	200.824	72.633	-8191	255	
1870.370	1	1	0	0	0.35613	0.21111	0.070291	0.10135	0.10193	0.10733	0.08792	0.14742	0.13359	0.028465	0.13344	0.16887	0.070665	0.12388	0.085154	0.15245	-2.7354	-3.3042	-2.9583	-3.5979	-2.8896	-2.9917	-3.65	-2.9583	-3.0979	-3.3521	-2.7604	-3.5333	-3.2271	-2.9688	-3.4917	-2.9854	279.728	319.610	229.685	87.715	178.054	349.060	286.227	67.277	367.014	378.007	343.355	93.549	380.473	323.505	169.624	401.386	0.0026118	0.00066687	0.00017246	896.1	8.8641e-06	6.6197e-06	1228.1	265.42	1.1073e-05	5.6426e-06	469.5	203.73	98.237	46.75	8.6507e-06	108.24	0.00079313	0.0003319	9.8033e-05	815.56	3.8208e-06	3.498e-06	1120.5	242.9	3.5665e-06	3.6815e-06	429.75	185.78	89.343	43.127	3.6873e-06	99.921	323.612	133.171	131.273	61.026	198.376	196.682	60.581	65.617	219.246	198.610	65.020	69.550	70.755	74.400	192.133	72.343	-8191	255	
1870.491	1	1	0	0	0.1746	0.14797	0.13714	0.32544	0.18476	0.341	0.34738	0.32225	0.087381	0.34379	0.25709	0.27265	0.11725	0.12778	0.1386	0.15847	-2.6646	-3.2812	-2.6792	-3.5458	-3.1208	-2.7146	-3.6875	-2.7667	-2.8667	-3.5563	-2.8167	-3.4417	-3.2104	-2.7521	-3.4167	-3.1	140.903	145.723	80.461	377.269	107.641	210.467	370.150	323.360	259.246	93.725	351.703	356.270	95.327	176.583	350.333	380.463	0.002505	0.00079581	0.00020869	887.67	1.0141e-05	6.8431e-06	1215.3	263.46	8.426e-06	5.432e-06	467.53	201.91	97.349	46.525	7.8839e-06	107.99	0.00074599	0.00032358	9.263e-05	808.26	3.5986e-06	3.7361e-06	1110.1	240.77	3.574e-06	3.5426e-06	427.33	184.68	88.832	42.969	3.5995e-06	99.683	325.920	138.637	147.362	60.468	215.950	176.564	60.380	65.520	208.725	193.945	64.991	69.620	70.529	74.235	193.154	72.269	-8191	255	
1870.587	1	1	0	0	0.16534	0.036186	0.14309	0.14735	0.16113	0.16916	0.13942	0.14431	0.27236	0.23483	0.12702	0.036624	0.095799	0.1755	0.16954	0.29633	-2.5354	-3.3063	-2.7729	-3.4188	-3.1813	-2.6771	-3.6125	-3.0604	-2.9396	-3.5563	-2.7979	-3.4375	-3.4958	-2.6604	-3.4333	-3.2687	280.214	63.986	247.963	395.712	134.733	361.790	302.086	371.970	200.811	169.129	249.513	95.118	379.123	299.320	239.386	349.987	0.002539	0.00052961	0.00013634	884.25	7.0108e-06	5.5974e-06	1223.4	265.1	1.2592e-05	5.6661e-06	467.12	203.54	97.159	46.616	7.7551e-06	108.55	0.00076539	0.00032986	9.3821e-05	807.44	3.3698e-06	3.7451e-06	1112.6	241.9	3.5938e-06	3.2557e-06	427.8	185.34	89.024	43.103	3.71e-06	100.46	324.960	135.354	131.468	60.817	199.800	200.621	60.431	65.888	210.515	212.186	64.888	69.654	70.510	74.280	210.450	72.377	-8191	255	
1870.659	1	1	0	0	0.076078	0.10654	0.045586	0.050995	0.12319	0.018847	0.14193	0.28795	0.18023	0.092016	0.07995	0.12024	0.23608	0.27261	0.10595	0.11494	-2.3229	-3.3333	-2.675	-3.2083	-3.3958	-2.6479	-3.5708	-3.0458	-2.6521	-3.6667	-2.9729	-3.4042	-3.5083	-2.7604	-3.4396	-3.2708	323.662	72.008	258.002	361.803	163.654	403.588	264.219	349.275	205.178	288.384	292.007	314.132	94.581	63.239	84.304	377.465	0.0025616	0.00062652	0.00021883	883.6	9.0681e-06	3.8047e-06	1235.8	265.81	1.3487e-05	6.4065e-06	471.73	205.27	98.553	46.881	8.4015e-06	109.03	0.00078092	0.00030115	0.00010157	808.36	3.6028e-06	3.4226e-06	1120.5	242.88	3.9119e-06	3.1987e-06	432.57	186.98	89.979	43.394	3.8263e-06	100.97	322.573	124.473	148.690	60.789	201.644	181.623	60.587	65.946	224.926	210.616	65.101	69.724	70.807	74.368	197.327	72.567	-8191	255	
1870.779	1	1	0	0	0.16896	0.14731	0.14674	0.17599	0.22593	0.04932	0.24343	0.25426	0.12957	0.13793	0.49082	0.25703	0.09744	0.14731	0.10403	0.10963	-2.3438	-3.5146	-2.9437	-3.1896	-3.425	-2.725	-3.4896	-3.225	-2.7021	-3.4479	-3.1521	-3.075	-3.55	-2.7583	-3.2375	-3.4854	135.845	173.361	140.771	80.555	58.357	366.271	402.414	350.228	136.324	222.886	264.547	356.037	185.145	152.179	138.647	355.764	0.0026311	0.00082163	0.00018124	890.09	1.1155e-05	5.5187e-06	1232.1	266.93	1.1785e-05	6.9138e-06	469.61	202.35	97.396	46.559	8.0761e-06	108.59	0.00080733	0.00032438	8.8902e-05	810.63	3.7565e-06	3.3091e-06	1120	242.59	3.5199e-06	3.1494e-06	428.19	185.36	89.078	43.021	3.818e-06	100.08	321.868	124.895	140.746	61.019	196.033	191.762	60.587	65.609	232.252	185.163	64.716	69.832	70.990	74.370	205.646	72.455	-8191	255	
1870.874	1	1	0	0	0.22018	0.10849	0.19554	0.18557	0.21958	0.10718	0.14547	0.31745	0.25099	0.12346	0.10429	0.12773	0.20793	0.28279	0.082748	0.27337	-2.3312	-3.3833	-2.9333	-3.2438	-3.4062	-2.8104	-3.2708	-3.3937	-2.6917	-3.4646	-3.1771	-3.0396	-3.5083	-2.9208	-3.1396	-3.4917	93.054	295.886	84.817	394.749	305.516	393.868	313.325	330.291	69.995	303.989	345.520	272.547	71.365	58.125	201.206	346.936	0.0025833	0.00053329	0.00019877	882.44	1.0159e-05	5.6492e-06	1227	264.08	1.4122e-05	7.3925e-06	468.67	202.47	98.415	46.734	7.9375e-06	109.22	0.00078866	0.000312	9.5392e-05	806.32	3.4137e-06	3.4731e-06	1118.1	242.02	3.6514e-06	3.4787e-06	430.26	185.92	89.621	43.234	3.722e-06	100.78	325.958	130.699	144.619	60.871	199.105	197.186	60.880	65.813	217.703	198.172	64.981	69.686	70.788	74.540	211.054	72.552	-8191	255	
1870.970	1	1	0	0	0.25145	0.13842	0.2572	0.25302	0.037075	0.23423	0.094587	0.13147	0.074193	0.097097	0.055117	0.20076	0.14447	0.13027	0.16496	0.20379	-2.3167	-3.3271	-3.1458	-2.7812	-3.4542	-2.875	-3.1083	-3.3187	-2.6688	-3.3458	-3.3438	-2.8458	-3.6167	-2.9896	-2.9813	-3.6312	311.132	355.728	200.146	348.456	374.305	377.083	325.436	401.955	97.803	194.689	384.449	330.465	400.939	55.190	179.265	288.133	0.0025724	0.00055865	0.00020153	891.94	8.4956e-06	6.983e-06	1233.3	266.01	8.344e-06	4.9677e-06	472.73	205.35	98.906	47.1	6.9848e-06	109.73	0.0007738	0.00031964	9.3839e-05	811.73	3.5986e-06	3.543e-06	1122.2	243.01	3.4094e-06	3.4467e-06	432.39	188.26	90.402	43.503	3.6153e-06	101.69	324.145	136.848	140.685	61.005	215.417	179.984	60.702	65.850	230.954	200.033	65.244	69.846	70.690	74.658	189.394	72.673	-8191	255	
1871.066	1	1	0	0	0.21764	0.13744	0.15575	0.068132	0.33465	0.031752	0.23656	0.1609	0.17737	0.22068	0.05617	0.17919	0.24584	0.036039	0.087603	0.050225	-2.2062	-3.2917	-3.2375	-2.8542	-3.5708	-2.85	-3.0438	-3.5417	-2.7104	-3.2167	-3.5271	-2.9125	-3.4396	-2.9604	-3.0854	-3.6708	178.818	262.126	191.606	55.539	128.956	245.586	318.800	128.015	177.653	273.707	278.242	373.789	106.740	110.835	67.673	358.748	0.0024995	0.00053371	0.00021694	886.83	1.0675e-05	7.6497e-06	1236.9	267.75	9.3321e-06	7.4355e-06	475.46	207.35	99.727	47.694	6.8275e-06	111.19	0.00077715	0.00033941	8.9972e-05	812.6	3.7691e-06	3.6233e-06	1128	244.58	3.7113e-06	3.6586e-06	436.15	189.8	90.989	43.997	4.0277e-06	102.17	322.092	128.949	137.676	61.239	204.622	186.211	60.676	65.998	232.384	201.595	65.249	69.894	71.018	74.588	196.823	72.519	-8191	255	
1871.162	1	1	0	0	0.073491	0.10655	0.061358	0.21114	0.15186	0.33581	0.094202	0.23088	0.15342	0.1453	0.019492	0.10833	0.24201	0.25466	0.50131	0.1993	-2.2479	-2.9688	-3.3729	-2.825	-3.4333	-3.0479	-2.9396	-3.6292	-2.85	-3.2479	-3.5	-2.9313	-3.425	-3.2979	-2.9729	-3.7521	213.268	74.425	302.297	376.827	264.312	311.443	313.585	298.279	105.878	224.722	353.987	342.050	368.741	407.792	398.139	84.638	0.0026187	0.00063488	0.00019777	890.67	6.9044e-06	6.4355e-06	1235.1	266.51	1.2092e-05	7.2823e-06	469.92	203.23	97.59	46.44	6.6011e-06	108.41	0.00079766	0.000329	9.4495e-05	811.71	3.356e-06	3.3506e-06	1122.2	243.31	3.7793e-06	3.8129e-06	429.85	186.3	89.464	43.009	3.8458e-06	100.24	323.806	121.671	155.156	61.110	211.490	182.630	60.551	66.310	236.926	198.549	65.592	69.945	70.949	74.375	202.149	72.756	-8191	255	
1871.258	1	1	0	0	0.12754	0.34302	0.1851	0.19858	0.16787	0.098079	0.26504	0.21886	0.29361	0.25589	0.090152	0.16625	0.081334	0.24816	0.14265	0.21246	-2.3063	-2.9083	-3.3521	-2.725	-3.3625	-3.2875	-2.9437	-3.5708	-2.9521	-3.0208	-3.6604	-3.0062	-3.2521	-3.2979	-2.7	-3.7521	288.730	193.858	321.939	374.062	269.473	367.760	381.702	58.400	366.118	284.432	225.452	317.638	327.875	404.754	148.217	301.089	0.002453	0.0006375	0.00017776	884.44	1.0229e-05	4.0583e-06	1221.8	264.76	1.1116e-05	5.9293e-06	468.32	201.85	97.191	46.279	9.1681e-06	108.76	0.00074617	0.00033824	8.9022e-05	805.38	3.5175e-06	3.1845e-06	1114.7	241.65	3.631e-06	3.3376e-06	427.28	185.15	88.789	42.863	4.1218e-06	100.29	325.370	127.610	132.453	60.936	211.761	195.816	60.920	66.213	227.548	208.954	65.124	69.657	71.224	74.509	211.426	72.674	-8191	255	
1871.355	1	1	0	0	0.11154	0.32347	0.13677	0.15415	0.013368	0.32999	0.25388	0.26711	0.098328	0.089647	0.13395	0.15036	0.19866	0.057737	0.15242	0.14956	-2.4792	-3.0458	-3.5042	-2.8937	-3.4375	-3.3896	-2.8229	-3.3896	-3.0062	-2.8646	-3.7292	-2.8646	-3.2583	-3.4062	-2.6625	-3.5375	351.635	313.336	221.362	388.279	195.253	216.807	305.382	324.803	97.972	138.714	398.450	54.242	364.709	49.712	189.637	295.857	0.0026504	0.0007499	0.0001868	881.9	1.067e-05	6.9099e-06	1227.1	264.37	9.9002e-06	7.3189e-06	469.54	202.96	98.235	46.903	8.3663e-06	109.33	0.00077841	0.00033264	8.7693e-05	805.72	3.7403e-06	3.4039e-06	1117.3	241.9	3.4664e-06	3.6857e-06	430.18	186.06	89.44	43.133	3.873e-06	100.91	325.499	130.686	133.510	60.909	201.118	192.316	60.929	66.361	219.135	191.353	65.247	70.168	70.895	74.636	218.785	72.937	-8191	255	
1871.451	1	1	0	0	0.033314	0.11352	0.027194	0.30107	0.086446	0.11593	0.10544	0.09742	0.15214	0.23018	0.12641	0.31788	0.15873	0.24754	0.23284	0.21295	-2.5375	-2.8854	-3.4729	-2.9333	-3.1792	-3.4771	-2.9688	-3.4958	-3.125	-2.8	-3.725	-3.0062	-3.2021	-3.4625	-2.7625	-3.5458	103.532	140.808	282.923	347.264	165.839	250.680	329.823	145.303	296.948	240.680	251.907	60.703	158.322	141.650	53.818	311.578	0.0026514	0.00053361	0.00018084	889.88	1.0085e-05	7.3129e-06	1244.1	267.06	1.302e-05	6.5335e-06	471.45	201.9	97.186	46.848	9.2487e-06	108.46	0.0007839	0.00035013	9.4063e-05	809.83	3.8514e-06	3.5209e-06	1124.5	243.2	3.7305e-06	3.7086e-06	432.12	185.9	88.876	43.068	3.8004e-06	100.43	324.854	135.102	122.639	60.658	198.869	198.432	60.857	66.303	223.723	200.459	64.921	69.741	71.439	74.710	204.341	72.887	-8191	255	
1871.571	1	1	0	0	0.12071	0.32838	0.13588	0.057668	0.22335	0.1639	0.052886	0.10592	0.079634	0.065385	0.30423	0.2429	0.26723	0.36177	0.15593	0.17423	-2.8812	-2.7104	-3.45	-3.0458	-2.9979	-3.55	-3.0563	-3.4896	-3.2229	-2.8875	-3.6625	-3.0187	-2.8	-3.3958	-2.7542	-3.2562	159.537	219.000	304.896	351.667	265.476	355.396	370.376	189.465	210.195	236.146	370.885	309.436	75.987	388.894	362.968	316.724	0.002579	0.00069238	0.00017651	884.28	9.4764e-06	7.5443e-06	1227.3	263.46	1.2737e-05	5.4993e-06	467.03	200.13	95.768	45.944	7.7561e-06	108.08	0.00077752	0.00034034	9.1646e-05	805.66	3.6797e-06	3.842e-06	1119.9	240.67	3.4333e-06	3.4662e-06	427.87	183.31	87.585	42.463	3.9999e-06	99.581	321.994	127.379	148.976	60.907	201.900	199.349	60.785	66.163	225.392	189.225	65.235	69.706	70.871	74.714	186.564	73.295	-8191	255	
1871.666	1	1	0	0	0.1911	0.1014	0.084092	0.15554	0.078922	0.1875	0.1138	0.24628	0.14644	0.17347	0.13907	0.089921	0.14259	0.060237	0.17274	0.21533	-2.8333	-2.8542	-3.5958	-2.9667	-2.7708	-3.5062	-3.1875	-3.4021	-3.4354	-2.6521	-3.6604	-3.4146	-2.825	-3.5521	-2.7833	-3.1125	399.142	300.744	398.212	348.239	217.598	131.131	396.001	319.051	100.569	339.304	404.569	401.218	284.423	393.631	213.557	343.463	0.0025459	0.00077513	0.00019104	881.64	9.197e-06	6.1891e-06	1227.2	264.54	1.2765e-05	5.7886e-06	464.44	201.37	95.795	46.027	8.3479e-06	108.71	0.00076188	0.00033553	8.3326e-05	803.01	3.6022e-06	3.2475e-06	1118.3	240.7	3.4315e-06	3.8796e-06	426.39	183.87	87.667	42.684	3.5193e-06	100.24	323.428	135.025	134.680	60.748	205.018	181.411	60.603	66.004	224.754	205.964	65.054	69.745	71.026	74.133	213.357	72.518	-8191	255	
1871.762	1	1	0	0	0.14217	0.039256	0.031535	0.15032	0.20157	0.085728	0.28567	0.12871	0.038936	0.20543	0.18223	0.34198	0.11335	0.16193	0.27427	0.38704	-3.1625	-2.6833	-3.325	-3.1333	-2.7354	-3.4854	-3.1312	-3.2208	-3.4271	-2.7188	-3.5062	-3.3896	-2.9667	-3.5583	-2.9208	-3.0625	148.366	353.921	66.404	356.623	277.815	194.979	336.809	378.050	339.858	199.514	372.638	340.743	147.633	249.760	266.700	300.985	0.0026002	0.00077657	0.00014987	886.25	8.0362e-06	6.5737e-06	1236.1	265.47	1.067e-05	6.3757e-06	469.99	203.43	98.524	46.73	9.001e-06	110.88	0.00075314	0.00036837	8.9385e-05	807.56	3.7769e-06	3.561e-06	1122.4	242.19	3.5118e-06	3.774e-06	431.77	186.27	89.271	43.194	4.228e-06	101.9	324.935	136.623	143.877	60.740	205.771	204.459	60.527	66.376	230.107	184.592	65.038	69.673	71.004	74.737	196.387	72.743	-8191	255	
1871.860	1	1	0	0	0.092692	0.20713	0.14923	0.079517	0.24695	0.063376	0.22976	0.31665	0.25851	0.19412	0.063416	0.32067	0.1665	0.19367	0.17849	0.3177	-3.1	-2.8042	-3.0812	-3.1958	-2.6271	-3.4792	-3.0458	-3.0104	-3.4333	-2.8542	-3.3604	-3.3667	-2.7292	-3.4604	-3.1292	-3.1396	218.536	76.333	112.194	346.922	280.901	320.786	399.121	350.778	343.131	326.438	265.416	360.129	357.226	356.867	198.112	363.467	0.0025983	0.00076647	0.0001735	889.59	8.782e-06	7.4476e-06	1243	267.7	1.2586e-05	6.2699e-06	475.58	205.67	98.498	47.14	8.4394e-06	110.48	0.00078527	0.00035124	9.4736e-05	809.51	3.7619e-06	3.5721e-06	1130	244.16	3.3228e-06	3.7788e-06	435.5	188.67	89.928	43.66	3.9936e-06	102.07	323.959	122.082	129.247	60.834	200.874	196.367	60.394	66.058	224.814	198.097	65.085	69.818	70.974	74.815	209.687	72.850	-8191	255	
1871.954	1	1	0	0	0.20656	0.18419	0.26943	0.28504	0.40671	0.29578	0.2138	0.12691	0.13922	0.090228	0.11468	0.4992	0.22001	0.12709	0.15058	0.083692	-3.1542	-2.7687	-3.1208	-3.3958	-2.7833	-3.3479	-3.3917	-2.8292	-3.5542	-2.8042	-3.1813	-3.4896	-2.7792	-3.3979	-3.1437	-2.9042	346.517	350.371	90.136	360.029	183.655	119.584	352.396	397.647	379.827	232.897	328.364	349.190	381.702	398.760	317.349	343.153	0.0027937	0.00065685	0.00020954	889.69	8.8035e-06	7.4242e-06	1229.3	263.29	1.3199e-05	5.1453e-06	469.8	203.07	97.655	46.834	9.2213e-06	109.08	0.00081791	0.00033855	8.7331e-05	808.52	3.6244e-06	3.4787e-06	1119.9	241.79	3.2367e-06	3.4669e-06	430.44	186.55	89.115	43.162	3.7227e-06	100.84	323.027	144.466	128.600	60.669	201.646	191.321	60.510	65.817	234.627	203.777	65.308	69.813	70.960	74.842	200.444	73.246	-8191	255	
1872.050	1	1	0	0	0.056683	0.10147	0.15478	0.041774	0.15624	0.18189	0.13416	0.36804	0.21794	0.22745	0.073972	0.22871	0.3449	0.15298	0.084545	0.27063	-3.1312	-2.7771	-3	-3.5021	-2.5917	-3.3021	-3.5583	-2.8708	-3.4625	-2.9958	-3.0667	-3.5896	-2.9146	-3.2417	-3.2146	-2.9417	177.674	315.903	315.687	190.864	152.514	82.224	369.277	353.839	258.570	257.589	123.334	367.372	291.797	328.977	400.029	54.487	0.0026509	0.00063852	0.00018597	890.88	8.9687e-06	7.2993e-06	1223.2	263.55	1.0781e-05	6.1407e-06	467.82	204.72	97.438	46.384	6.1849e-06	109.24	0.00078615	0.00033411	9.4719e-05	804.82	3.6298e-06	3.4655e-06	1113.8	240.71	3.3582e-06	3.5023e-06	428.67	186.41	88.997	42.928	3.3867e-06	100.89	322.278	136.532	152.388	60.833	205.557	195.737	60.687	66.286	236.549	202.288	65.155	69.716	70.872	74.391	216.889	72.684	-8191	255	
1872.171	1	1	0	0	0.20651	0.06708	0.18044	0.10901	0.050306	0.23386	0.24254	0.19176	0.052342	0.25358	0.27476	0.059809	0.28411	0.085425	0.26692	0.093814	-3.1312	-3.0271	-2.9979	-3.5521	-2.8979	-3.2667	-3.6104	-2.9354	-3.6042	-2.975	-2.9625	-3.6833	-2.8875	-3.3146	-3.3604	-2.9396	400.935	215.011	267.141	339.753	307.383	310.150	309.434	251.974	398.178	291.434	329.758	57.433	307.210	202.174	397.390	316.096	0.0026741	0.00071608	0.00024553	884.78	8.0739e-06	7.9037e-06	1230.5	264.61	1.369e-05	7.0152e-06	469.71	203.74	97.759	46.54	8.8776e-06	109.11	0.00076196	0.00032758	9.0334e-05	804.97	3.9745e-06	3.6233e-06	1116.4	241.33	3.5095e-06	3.3599e-06	431.64	186.57	89.397	43.184	3.5237e-06	101.13	322.666	131.163	142.036	60.879	198.951	212.937	60.632	66.343	232.155	204.798	65.106	69.855	70.583	74.733	212.709	72.730	-8191	255	
1872.267	1	1	0	0	0.17135	0.099779	0.10181	0.23796	0.1296	0.13363	0.1487	0.31793	0.09467	0.059717	0.20509	0.23965	0.10881	0.05985	0.14342	0.21339	-3.1854	-3.2458	-2.8583	-3.75	-2.9625	-3.1562	-3.6167	-2.7562	-3.3937	-3.2812	-2.8187	-3.6479	-2.8875	-3.1417	-3.6208	-3.05	264.715	230.619	125.791	64.372	360.293	387.958	404.175	374.453	244.845	350.360	330.874	60.383	135.255	384.837	237.890	327.245	0.0027632	0.00060121	0.00013435	887.73	8.5949e-06	6.688e-06	1236.9	263.82	1.0413e-05	8.7676e-06	471.99	204.07	97.885	46.765	7.642e-06	109.21	0.00079788	0.00034329	9.339e-05	806.28	3.5187e-06	3.4018e-06	1120	241.42	3.36e-06	3.6531e-06	432.01	186.57	88.937	43.118	3.998e-06	100.94	323.067	136.139	120.838	60.972	208.597	191.979	60.555	66.099	220.335	179.405	65.290	69.702	70.558	74.796	202.070	72.634	-8191	255	
1872.363	1	1	0	0	0.12338	0.14965	0.25753	0.081598	0.10282	0.17738	0.22995	0.16748	0.20622	0.11264	0.26321	0.045481	0.10612	0.03155	0.052654	0.10605	-3.0521	-3.2979	-2.7646	-3.6896	-2.8688	-2.8875	-3.7208	-2.9437	-3.3812	-3.375	-2.7042	-3.4917	-3.0792	-2.9875	-3.55	-2.8896	267.311	261.206	379.206	237.575	230.766	119.230	296.998	260.191	177.699	212.058	317.872	160.304	386.947	106.993	293.686	403.830	0.0025888	0.00077193	0.00020864	880.68	9.9031e-06	5.822e-06	1228.2	262.27	1.2487e-05	6.2994e-06	465.97	201.87	96.507	46.132	6.6279e-06	108.11	0.00077155	0.00031292	9.9466e-05	803.1	3.7067e-06	3.4489e-06	1116.1	240.03	3.6281e-06	3.3328e-06	427.04	184.34	88.18	42.649	3.3323e-06	99.976	324.966	133.758	140.362	61.096	203.011	196.824	60.962	66.219	241.161	200.909	65.331	69.874	71.225	74.506	201.210	72.449	-8191	255	
1872.459	1	1	0	0	0.13948	0.1594	0.064989	0.39549	0.217	0.14574	0.26395	0.2916	0.11422	0.18324	0.26924	0.29975	0.18796	0.046191	0.15849	0.17486	-2.8875	-3.4042	-2.7583	-3.5771	-2.9813	-2.7729	-3.7458	-2.875	-2.9854	-3.325	-2.9125	-3.7313	-3.2354	-2.925	-3.5125	-3.0687	254.532	282.667	50.632	347.479	173.643	135.298	346.424	387.247	166.628	322.387	333.856	316.626	346.630	318.225	216.601	102.867	0.0024996	0.00085047	0.00019055	880.56	6.8066e-06	6.0505e-06	1223.8	262.09	1.3682e-05	8.2517e-06	465.66	201.05	96.269	46.023	7.2466e-06	109.43	0.00075904	0.00035106	9.9242e-05	798.68	3.4185e-06	3.5271e-06	1112.4	239.31	3.8195e-06	3.4356e-06	427.84	184.73	88.06	42.792	3.4966e-06	100.83	325.013	115.343	139.528	61.115	206.830	214.703	60.761	65.440	217.496	207.513	65.112	69.858	71.037	74.910	213.161	72.337	-8191	255	
1872.556	1	1	0	0	0.24116	0.31562	0.090962	0.1085	0.27581	0.20107	0.067369	0.28651	0.28753	0.076713	0.42854	0.29956	0.22463	0.25205	0.26888	0.30519	-2.7604	-3.4292	-2.7292	-3.3812	-3.1708	-2.9417	-3.6292	-3.1562	-3.075	-3.4354	-2.7979	-3.3937	-3.1625	-2.7292	-3.4708	-3.1458	322.626	269.053	138.877	351.329	111.449	192.784	145.204	363.077	304.210	269.446	58.789	385.741	392.036	402.988	188.045	341.768	0.0026791	0.00062652	0.00020398	877.49	9.1593e-06	4.4678e-06	1229.3	263.54	8.068e-06	6.5124e-06	469.16	204.74	97.503	47.006	9.3186e-06	109.65	0.00079014	0.00031317	9.8482e-05	799.52	3.4485e-06	3.6731e-06	1118.7	240.45	3.5775e-06	3.494e-06	431.09	187.29	89.106	43.182	3.8332e-06	101.41	323.714	151.674	139.954	61.265	201.180	185.185	60.603	66.043	243.193	205.257	65.199	69.930	70.953	74.753	201.417	72.605	-8191	255	
#DATA ENDS
