BOXY.EXE: ISS Imagent and Oximeter Data Acquisition Program Version 0.80
Ascii Record File

#ACQ INFORMATION
2  Detector Channels 
16  External MUX Channels 
1  Auxiliary Channels 
5000  Waveform (CCF) Frequency (Hz)
1  Waveforms Skipped 
30  Waveforms Averaged 
1  Cycles Averaged 
16  Acquisitions per Waveform 
10.0806  Updata Rate (Hz) 

#FILE INFORMATION
TRUE -- External MUX Channel results are PARSED.
FALSE -- AC DC and Phase are NOT grouped.
TRUE -- Companion Program Settings File CREATED.
FALSE -- AC data not excluded
FALSE -- DC data not excluded
FALSE -- Phase data not excluded
FALSE -- Auxillary Chn. data not excluded
Tab delimiters

#CALIBRATION STATE
TRUE -- Waveform Calibration Values APPLIED.


#AUX CALIBRATION VALUES
Val Type	aux-1	

Term	1.0000e+00	
Factor	0.0000e+00	


#WF CALIBRATION VALUES
A = Detector Channel
Val Type	A-AC1	A-AC2	A-AC3	A-AC4	A-AC5	A-AC6	A-AC7	A-AC8	A-AC9	A-AC10	A-AC11	A-AC12	A-AC13	A-AC14	A-AC15	A-AC16	A-DC1	A-DC2	A-DC3	A-DC4	A-DC5	A-DC6	A-DC7	A-DC8	A-DC9	A-DC10	A-DC11	A-DC12	A-DC13	A-DC14	A-DC15	A-DC16	A-Ph1	A-Ph2	A-Ph3	A-Ph4	A-Ph5	A-Ph6	A-Ph7	A-Ph8	A-Ph9	A-Ph10	A-Ph11	A-Ph12	A-Ph13	A-Ph14	A-Ph15	A-Ph16	

Term	0.00000e+00	0.00000e+00	0.00000e+00	0.00000e+00	0.00000e+00	0.00000e+00	0.00000e+00	0.00000e+00	0.00000e+00	0.00000e+00	0.00000e+00	0.00000e+00	0.00000e+00	0.00000e+00	0.00000e+00	0.00000e+00	0.00000e+00	0.00000e+00	0.00000e+00	0.00000e+00	0.00000e+00	0.00000e+00	0.00000e+00	0.00000e+00	0.00000e+00	0.00000e+00	0.00000e+00	0.00000e+00	0.00000e+00	0.00000e+00	0.00000e+00	0.00000e+00	0.00000e+00	0.00000e+00	0.00000e+00	0.00000e+00	0.00000e+00	0.00000e+00	0.00000e+00	0.00000e+00	0.00000e+00	0.00000e+00	0.00000e+00	0.00000e+00	0.00000e+00	0.00000e+00	0.00000e+00	0.00000e+00	
Factor	1.00000e+00	1.00000e+00	1.00000e+00	1.00000e+00	1.00000e+00	1.00000e+00	1.00000e+00	1.00000e+00	1.00000e+00	1.00000e+00	1.00000e+00	1.00000e+00	1.00000e+00	1.00000e+00	1.00000e+00	1.00000e+00	1.00000e+00	1.00000e+00	1.00000e+00	1.00000e+00	1.00000e+00	1.00000e+00	1.00000e+00	1.00000e+00	1.00000e+00	1.00000e+00	1.00000e+00	1.00000e+00	1.00000e+00	1.00000e+00	1.00000e+00	1.00000e+00	X	X	X	X	X	X	X	X	X	X	X	X	X	X	X	X	

B = Detector Channel
Val Type	B-AC1	B-AC2	B-AC3	B-AC4	B-AC5	B-AC6	B-AC7	B-AC8	B-AC9	B-AC10	B-AC11	B-AC12	B-AC13	B-AC14	B-AC15	B-AC16	B-DC1	B-DC2	B-DC3	B-DC4	B-DC5	B-DC6	B-DC7	B-DC8	B-DC9	B-DC10	B-DC11	B-DC12	B-DC13	B-DC14	B-DC15	B-DC16	B-Ph1	B-Ph2	B-Ph3	B-Ph4	B-Ph5	B-Ph6	B-Ph7	B-Ph8	B-Ph9	B-Ph10	B-Ph11	B-Ph12	B-Ph13	B-Ph14	B-Ph15	B-Ph16	

Term	0.00000e+00	0.00000e+00	0.00000e+00	0.00000e+00	0.00000e+00	0.00000e+00	0.00000e+00	0.00000e+00	0.00000e+00	0.00000e+00	0.00000e+00	0.00000e+00	0.00000e+00	0.00000e+00	0.00000e+00	0.00000e+00	0.00000e+00	0.00000e+00	0.00000e+00	0.00000e+00	0.00000e+00	0.00000e+00	0.00000e+00	0.00000e+00	0.00000e+00	0.00000e+00	0.00000e+00	0.00000e+00	0.00000e+00	0.00000e+00	0.00000e+00	0.00000e+00	-1.17792e+02	-1.43843e+02	-1.22546e+02	-1.82203e+02	-6.11667e+01	-7.34980e+01	-1.58195e+02	-1.62015e+02	-5.91422e+01	-6.39027e+01	-1.73093e+02	-1.71855e+02	-1.81390e+02	-1.76301e+02	-7.35693e+01	-1.49454e+02	
Factor	1.69170e-05	1.23924e-04	3.36262e-05	1.80272e-01	1.08088e-06	1.50264e-06	1.68832e-01	4.61094e-02	9.30486e-07	1.40809e-06	1.02341e-01	2.97290e-02	2.73267e-02	8.85118e-03	1.28260e-06	1.26478e-02	2.60707e-06	2.90429e-06	8.06884e-07	9.53293e-02	3.13924e-08	3.17865e-08	8.41259e-02	2.45373e-02	3.13704e-08	3.17759e-08	5.20466e-02	1.52571e-02	1.46120e-02	4.71344e-03	3.16051e-08	6.50126e-03	X	X	X	X	X	X	X	X	X	X	X	X	X	X	X	X	



#DISTANCE SETTINGS
A = Detector Channel
A-1	A-2	A-3	A-4	A-5	A-6	A-7	A-8	A-9	A-10	A-11	A-12	A-13	A-14	A-15	A-16	

2.5000e+00	3.0000e+00	2.5000e+00	3.0000e+00	2.0000e+00	3.0000e+00	1.5000e+00	3.0000e+00	3.0000e+00	3.0000e+00	3.0000e+00	3.0000e+00	3.0000e+00	3.0000e+00	1.5000e+00	3.0000e+00	

B = Detector Channel
B-1	B-2	B-3	B-4	B-5	B-6	B-7	B-8	B-9	B-10	B-11	B-12	B-13	B-14	B-15	B-16	

1.0000e+01	1.0000e+01	1.0000e+01	1.4400e+00	1.0000e+01	1.0000e+01	1.5100e+00	1.9400e+00	1.0000e+01	1.0000e+01	1.9900e+00	2.4900e+00	2.4100e+00	2.9000e+00	1.0000e+01	2.9800e+00	




#DATA BEGINS
time	group	step	mark	flag	A-AC1	A-AC2	A-AC3	A-AC4	A-AC5	A-AC6	A-AC7	A-AC8	A-AC9	A-AC10	A-AC11	A-AC12	A-AC13	A-AC14	A-AC15	A-AC16	A-DC1	A-DC2	A-DC3	A-DC4	A-DC5	A-DC6	A-DC7	A-DC8	A-DC9	A-DC10	A-DC11	A-DC12	A-DC13	A-DC14	A-DC15	A-DC16	A-Ph1	A-Ph2	A-Ph3	A-Ph4	A-Ph5	A-Ph6	A-Ph7	A-Ph8	A-Ph9	A-Ph10	A-Ph11	A-Ph12	A-Ph13	A-Ph14	A-Ph15	A-Ph16	B-AC1	B-AC2	B-AC3	B-AC4	B-AC5	B-AC6	B-AC7	B-AC8	B-AC9	B-AC10	B-AC11	B-AC12	B-AC13	B-AC14	B-AC15	B-AC16	B-DC1	B-DC2	B-DC3	B-DC4	B-DC5	B-DC6	B-DC7	B-DC8	B-DC9	B-DC10	B-DC11	B-DC12	B-DC13	B-DC14	B-DC15	B-DC16	B-Ph1	B-Ph2	B-Ph3	B-Ph4	B-Ph5	B-Ph6	B-Ph7	B-Ph8	B-Ph9	B-Ph10	B-Ph11	B-Ph12	B-Ph13	B-Ph14	B-Ph15	B-Ph16	aux-1	digaux	

28574.365	1	1	0	768	0.15861	0.073421	0.14854	0.27517	0.33477	0.068317	0.26898	0.19629	0.10491	0.14379	0.092558	0.090929	0.10198	0.35213	0.25516	0.2956	-1.4604	-2.0146	-2.3187	-1.6583	-2.1396	-1.7792	-1.9104	-2.5354	-1.6667	-2.0292	-2.5938	-1.7125	-2.1896	-2.1875	-1.4667	-2.6417	20.458	206.497	-42.562	197.959	-142.378	89.581	163.645	111.971	116.103	-111.006	119.314	189.248	163.137	183.324	192.330	169.985	0.0006447	0.0020335	7.4952e-05	1059.8	2.6277e-05	4.5118e-05	1564.8	318.15	8.0293e-06	4.1307e-05	571.6	197.85	99.347	38.429	1.4662e-05	88.889	0.0048029	0.0052949	0.0014848	1051.5	5.7413e-05	5.8737e-05	1465.9	309.41	5.8158e-05	5.8815e-05	565.21	193.47	109.24	40.56	5.7585e-05	85.674	-112.035	57.008	130.463	-134.120	67.213	24.604	-134.449	-129.868	5.802	40.905	-130.058	-125.944	-125.351	-120.877	16.023	-122.373	-8191	255	
28574.463	1	1	0	0	0.24993	0.026474	0.2581	0.15032	0.15885	0.18222	0.15911	0.21343	0.083872	0.060434	0.17366	0.15888	0.21639	0.079726	0.10385	0.31565	-1.4333	-1.7313	-2.3042	-1.7729	-2.1396	-2.4021	-1.7313	-2.4146	-1.6292	-1.6542	-2.4313	-1.6958	-2.0604	-2.1896	-1.4	-2.3271	-119.690	-114.909	79.011	10.077	-95.785	75.673	118.157	184.518	185.723	158.342	-103.255	174.559	-129.909	-127.062	168.693	90.665	0.00046392	0.0016266	0.0008877	1056.5	4.7984e-06	3.5653e-05	1565	316.45	1.4678e-05	1.5426e-05	566.69	196.11	99.143	38.29	1.229e-05	87.37	0.0048095	0.0052966	0.0014715	1043.9	5.6412e-05	5.7875e-05	1456.6	306.9	5.5951e-05	5.6707e-05	558.01	190.79	107.85	39.944	5.5228e-05	84.328	-144.506	-58.682	-14.225	-134.552	158.363	-8.494	-134.714	-129.775	7.577	101.924	-130.002	-126.636	-125.754	-120.809	167.303	-122.143	-8191	255	
28574.559	1	1	0	0	0.063557	0.10189	0.28081	0.28695	0.19209	0.041016	0.29468	0.42947	0.019681	0.34612	0.07861	0.14689	0.31926	0.25722	0.080349	0.29725	-1.475	-1.5417	-2.3729	-1.6562	-1.9333	-2.2167	-1.7229	-2.4667	-1.9875	-1.6875	-2.3979	-1.7604	-1.9	-2.275	-1.6042	-2.2667	-78.852	-72.405	37.079	195.131	-6.794	191.722	143.111	-147.297	-35.621	119.658	190.567	71.844	130.172	159.788	93.631	145.885	0.00049894	0.0016108	0.00039787	1061.9	1.4614e-05	2.6913e-05	1573.3	314.33	1.4848e-05	2.1516e-05	564.21	196.04	99.078	38.258	1.5065e-05	87.164	0.0045753	0.0050049	0.0013731	1038.5	5.3266e-05	5.4567e-05	1448.2	303.09	5.2972e-05	5.3864e-05	554.37	189.38	106.18	39.529	5.203e-05	83.189	-88.687	-4.102	49.904	-134.696	104.749	141.408	-134.688	-129.677	-141.169	17.177	-130.099	-126.732	-126.014	-121.432	49.069	-121.932	-8191	255	
28574.654	1	1	0	0	0.28361	0.19618	0.11617	0.12311	0.13646	0.21296	0.14358	0.11245	0.20036	0.094164	0.20341	0.18932	0.28841	0.16732	0.24644	0.009342	-1.7563	-1.3687	-2.3521	-1.8708	-1.8417	-2.3604	-1.7687	-2.2375	-1.9333	-1.5896	-2.425	-2.1375	-1.7437	-2.2313	-1.5063	-2.1333	83.935	-80.216	151.277	196.337	29.921	-51.895	156.658	85.318	83.802	85.462	135.180	121.842	181.917	128.306	17.760	16.107	0.0004336	0.0026002	0.00050176	1055.9	2.5182e-05	1.8586e-05	1559	316	1.3718e-05	1.2423e-05	568.58	197.07	99.175	38.062	1.0325e-05	87.121	0.0043678	0.0048359	0.0013218	1029.8	5.1691e-05	5.2789e-05	1441.4	302.7	5.1577e-05	5.2185e-05	553.57	189.31	105.73	39.32	5.2463e-05	83.722	-97.971	-73.483	-32.406	-135.000	193.981	-6.599	-134.105	-129.583	-28.107	52.254	-130.248	-126.338	-125.932	-120.735	87.778	-121.814	-8191	255	
28574.750	1	1	0	0	0.1255	0.065954	0.078168	0.24724	0.12284	0.24387	0.30204	0.42212	0.15422	0.20838	0.16941	0.16313	0.19427	0.27589	0.29942	0.2748	-1.7563	-1.5583	-2.1792	-1.9937	-1.6187	-2.2313	-1.8625	-2.1188	-2.2396	-1.6146	-2.35	-2.1	-1.6083	-2.5542	-1.5646	-2.2104	163.116	116.187	199.298	90.523	72.642	29.622	116.024	135.103	-100.541	134.675	106.344	206.308	-123.942	164.122	182.086	194.826	0.00070503	0.0015629	0.0011195	1051.6	4.5662e-06	1.4734e-05	1563.4	314.44	1.7106e-06	2.7313e-05	568	195.6	98.481	37.698	1.1218e-05	87.132	0.0044129	0.0048368	0.0013383	1028.7	5.2336e-05	5.3302e-05	1443.8	303.43	5.343e-05	5.411e-05	554.3	189.75	106.43	39.241	5.387e-05	83.668	210.047	-47.123	-131.762	-134.884	98.675	-95.476	-134.354	-130.012	-86.716	-54.362	-129.686	-126.341	-125.674	-120.785	5.078	-122.204	-8191	255	
28574.846	1	1	0	0	0.20532	0.1211	0.15523	0.029195	0.11778	0.082657	0.089901	0.072692	0.17901	0.18215	0.14845	0.065266	0.248	0.28457	0.21472	0.14702	-1.8458	-1.4479	-2.2438	-2.0583	-1.7771	-2.3271	-1.8771	-2.0187	-2.4958	-1.5667	-2.1479	-2.1396	-1.3979	-2.4417	-1.8729	-1.9896	56.146	59.348	48.155	46.034	-28.490	137.671	101.426	95.323	197.089	194.673	118.464	81.405	-127.798	145.470	104.679	131.372	0.0004387	0.0010462	0.00061997	1043.4	1.214e-05	1.7703e-05	1550.4	313.04	1.3176e-05	1.8517e-05	561.52	194.66	98.099	37.719	7.2686e-06	86.536	0.0045221	0.0049683	0.0013837	1032.6	5.4166e-05	5.4899e-05	1438.7	303.22	5.4921e-05	5.5249e-05	554.99	189.46	106.74	39.359	5.5678e-05	83.435	-139.805	-105.852	-107.993	-135.240	50.476	-131.323	-134.523	-129.612	66.311	-77.530	-130.307	-126.347	-125.499	-120.984	-127.608	-122.240	-8191	255	
28574.965	1	1	0	0	0.22218	0.10307	0.13655	0.091856	0.1074	0.3021	0.16083	0.18958	0.26009	0.11907	0.12001	0.075844	0.034438	0.26339	0.091769	0.20807	-1.8792	-1.65	-2.0187	-2.0958	-1.5479	-2.2521	-2.1396	-1.6375	-2.5917	-1.6875	-2.1	-2.4	-1.6771	-2.3667	-1.8396	-1.6458	94.458	195.692	-117.366	110.641	-86.546	-128.240	206.414	25.802	103.272	-70.789	-126.016	-96.222	57.501	197.274	-129.425	128.705	0.00089553	0.0024813	0.00076451	1039.9	1.6564e-05	1.862e-05	1542.6	312.24	4.6832e-06	8.1939e-06	566.46	194.53	97.569	37.53	7.5428e-06	86.55	0.0046373	0.005106	0.0014213	1027.5	5.5106e-05	5.5335e-05	1437.7	302.76	5.4342e-05	5.466e-05	553.82	189.39	105.75	39.149	5.4594e-05	83.524	-137.511	-1.361	187.987	-134.876	-29.175	100.981	-134.715	-129.671	68.266	-63.961	-130.330	-125.981	-125.004	-121.087	1.003	-122.290	-8191	255	
28575.061	1	1	0	0	0.10512	0.23824	0.4065	0.46444	0.28759	0.24172	0.299	0.15993	0.16075	0.27796	0.074313	0.27232	0.13481	0.27807	0.1793	0.35122	-1.8042	-1.6396	-1.8937	-2.4521	-1.4813	-2.2521	-2.325	-1.6979	-2.2354	-1.5562	-2.025	-2.5104	-1.7417	-2.2708	-2.0958	-1.8646	-20.097	-85.352	-88.405	160.273	-83.809	-122.860	150.859	-135.757	-92.858	-98.433	134.012	191.771	160.725	-124.047	-45.285	193.312	0.00067393	0.0042196	0.0007714	1047.4	1.0169e-05	3.6966e-05	1557.7	312.33	5.8753e-06	9.1131e-06	565.38	195.93	97.466	37.42	4.3119e-07	86.633	0.0046011	0.0050655	0.0014081	1029.9	5.5017e-05	5.5448e-05	1439.8	303	5.5491e-05	5.6151e-05	556.07	190.21	106.4	39.449	5.584e-05	83.801	-141.595	6.740	-49.319	-135.149	-17.666	-34.360	-134.662	-129.948	-119.570	-93.961	-130.133	-126.682	-125.741	-121.040	-36.883	-121.891	-8191	255	
28575.156	1	1	0	0	0.056929	0.1785	0.12118	0.084286	0.020493	0.12394	0.18124	0.18041	0.098568	0.32282	0.20608	0.34813	0.13076	0.29678	0.083885	0.12036	-2.0729	-1.8208	-1.8583	-2.6708	-1.5792	-2.1312	-2.2854	-1.6854	-2.45	-1.8521	-1.9021	-2.3646	-1.5896	-2.1896	-2.3208	-1.5021	-56.814	100.603	102.993	47.272	125.683	-10.933	168.687	181.911	-38.165	35.251	153.368	198.569	-142.592	194.019	-7.206	114.285	0.00057987	0.0022289	0.00052831	1040.5	1.3208e-05	1.6425e-05	1561.5	311.94	7.0104e-06	1.8681e-05	567.75	198.29	98.277	38.435	4.8993e-06	88.611	0.0046048	0.005088	0.0014162	1029.3	5.3826e-05	5.4547e-05	1444.8	302.67	5.2257e-05	5.3093e-05	554.92	190.42	106.24	39.613	5.3095e-05	84.389	-126.162	-123.476	-10.940	-134.951	-6.495	-12.170	-134.893	-129.976	-27.811	-11.158	-129.782	-126.621	-125.638	-120.509	98.871	-122.276	-8191	255	
28575.254	1	1	0	0	0.045547	0.1123	0.19615	0.34794	0.15442	0.14402	0.14091	0.19397	0.20263	0.16075	0.36789	0.17907	0.22803	0.30035	0.13422	0.041948	-1.8021	-1.75	-1.6667	-2.4146	-1.4979	-1.9708	-2.4562	-1.5833	-2.225	-1.9292	-1.6979	-2.5271	-1.8667	-2.2188	-2.225	-1.6562	146.846	-4.198	-17.076	190.345	-77.488	110.582	162.450	131.903	-89.010	-23.915	-97.497	169.200	163.972	142.997	-74.820	-1.450	0.00058029	0.0027886	0.00029105	1059.1	2.0083e-05	9.287e-06	1565.5	316.4	2.1366e-05	1.1857e-05	563.11	197.71	99.523	38.486	8.0618e-06	87.773	0.004393	0.0049116	0.00137	1030.8	5.2574e-05	5.3125e-05	1444.2	304.08	5.1723e-05	5.3111e-05	554.37	190.22	106.72	39.766	5.2803e-05	84.012	-143.147	-34.534	78.814	-134.583	-15.161	-26.464	-134.527	-129.983	-65.223	-83.396	-129.765	-125.937	-125.975	-120.335	39.211	-122.074	-8191	255	
28575.350	1	1	0	0	0.16335	0.40805	0.40797	0.25678	0.45563	0.19512	0.017802	0.11852	0.344	0.26598	0.071889	0.085213	0.12457	0.21828	0.13249	0.42464	-1.8062	-2.0458	-1.5083	-2.3979	-1.6896	-1.8208	-2.5021	-1.6333	-2.0271	-2.0583	-1.7896	-2.3979	-1.7667	-2.0208	-2.4542	-1.6667	-108.068	60.211	-98.356	178.792	164.680	198.826	-37.013	159.134	-107.884	52.792	42.502	-23.162	68.631	-136.248	131.109	118.545	0.00094994	0.00062279	0.00082325	1059.7	7.8261e-06	2.9732e-05	1562.2	316.05	5.6364e-06	3.1385e-06	565.62	198.02	99.442	38.12	1.5328e-05	87.719	0.0043812	0.0048972	0.0013477	1029.8	5.2299e-05	5.3012e-05	1441.3	303.3	5.1901e-05	5.3093e-05	555.08	190.01	106.28	39.578	5.2539e-05	84.075	-133.608	133.303	-55.433	-134.759	-86.713	4.285	-134.558	-129.612	111.400	194.567	-129.936	-126.249	-126.591	-119.976	32.174	-122.077	-8191	255	
28575.445	1	1	0	0	0.44454	0.28444	0.2134	0.15092	0.1654	0.22003	0.028307	0.34869	0.11042	0.12313	0.19766	0.095654	0.10364	0.34751	0.29334	0.16536	-1.6646	-2.1042	-1.3042	-2.3521	-1.9167	-1.6604	-2.4458	-1.6063	-2.0229	-2.3	-1.475	-2.4229	-1.9229	-1.5812	-2.4229	-1.8188	128.744	159.292	-66.206	106.318	92.783	-118.041	197.965	173.074	-96.736	47.276	134.645	-113.850	-8.773	176.546	17.050	156.322	0.00041272	0.0022614	0.0006597	1054.8	1.874e-05	1.442e-05	1566.2	318.28	1.7311e-05	1.23e-05	569.96	198.66	99.681	39.012	1.3961e-05	88.45	0.0043838	0.0048698	0.0013397	1028.7	5.2214e-05	5.2684e-05	1439.8	304.4	5.1877e-05	5.2342e-05	554.82	190.92	106.62	39.759	5.1252e-05	84.385	199.319	-141.268	-37.340	-134.921	-115.612	99.538	-134.473	-130.186	-83.800	92.681	-130.059	-126.403	-126.359	-120.762	-43.700	-122.555	-8191	255	
28575.566	1	1	0	0	0.22153	0.12252	0.19209	0.23548	0.27415	0.035464	0.27517	0.1756	0.10507	0.088445	0.27376	0.22703	0.19917	0.054959	0.11521	0.15369	-1.55	-2.1958	-1.5729	-2.375	-1.8354	-1.5729	-2.4167	-1.5396	-1.8896	-2.4646	-1.7854	-2.3979	-2.2667	-1.4833	-2.3521	-1.7646	183.980	106.463	45.972	192.751	-37.464	9.860	177.916	-101.237	194.373	-113.031	177.777	-129.301	190.182	-136.304	111.038	209.626	0.00052572	0.0012981	9.164e-05	1066.1	1.2215e-05	1.8171e-05	1583.4	321.51	6.6332e-06	1.6653e-05	575.16	201.59	100.21	39.103	2.6242e-05	89.474	0.0042774	0.0047183	0.0012987	1036	5.0394e-05	5.1702e-05	1454.4	306.84	5.0499e-05	5.1623e-05	557.83	192.26	107.48	40.066	5.0902e-05	85.07	-145.315	-54.688	206.672	-134.263	-51.576	-82.985	-134.455	-129.608	190.342	4.030	-129.983	-126.132	-126.002	-120.475	112.805	-121.757	-8191	255	
28575.662	1	1	0	0	0.036976	0.37238	0.19024	0.12152	0.072086	0.34929	0.13218	0.26873	0.16451	0.082668	0.035581	0.22148	0.10725	0.062118	0.074959	0.18705	-1.3854	-2.2854	-1.5708	-2.2083	-2.1375	-1.5167	-2.4437	-1.9333	-1.6521	-2.4729	-1.7875	-2.2667	-2.2604	-1.5938	-2.1979	-2.0917	-104.857	176.308	34.951	-142.200	-142.887	3.882	206.481	183.931	138.470	170.736	158.160	194.651	-133.740	-123.935	32.542	117.986	0.00078485	0.0028028	0.00037074	1071	4.6947e-06	2.7022e-05	1582.7	318.94	1.5462e-05	1.4173e-05	575.44	200.42	100.66	38.872	4.2189e-05	88.477	0.00432	0.0047778	0.0013341	1039.4	5.2622e-05	5.3287e-05	1455.2	307.72	5.2497e-05	5.3038e-05	561.58	193.09	108.09	40.246	5.3831e-05	85.026	-143.743	2.383	-75.829	-134.668	-108.985	-15.849	-134.554	-129.392	90.524	125.472	-129.859	-125.984	-125.644	-120.624	-10.650	-122.340	-8191	255	
28575.760	1	1	0	0	0.10466	0.08809	0.1173	0.29212	0.23247	0.24509	0.19768	0.1044	0.21702	0.13457	0.29462	0.273	0.43031	0.30794	0.15322	0.16357	-1.2021	-2.3187	-1.5875	-2.0375	-2.1688	-1.3604	-2.4375	-2.0125	-1.6167	-2.2375	-1.9229	-1.9875	-2.3167	-1.5771	-2.1583	-2.0417	-7.079	56.012	16.825	211.072	144.706	137.096	140.135	164.251	89.338	197.918	-141.423	183.742	145.259	208.528	-130.878	171.766	0.0005498	0.0020848	0.00050665	1063.9	1.656e-06	2.7245e-05	1567.9	321.85	7.4815e-06	7.7116e-06	571.28	200.2	100.82	38.72	8.7501e-06	88.625	0.0045503	0.0049996	0.001384	1041.5	5.4451e-05	5.4285e-05	1454.2	308.54	5.3381e-05	5.3505e-05	559.11	192.39	107.86	39.908	5.1909e-05	84.55	210.131	-53.560	-99.221	-134.791	-30.286	-19.072	-134.202	-129.900	-12.565	29.672	-130.073	-125.902	-126.215	-120.825	164.722	-121.705	-8191	255	
28575.854	1	1	0	0	0.031905	0.12678	0.12537	0.15942	0.16894	0.028443	0.34267	0.41999	0.10274	0.030936	0.30542	0.15553	0.17116	0.12183	0.27162	0.11963	-1.2125	-2.1562	-1.7792	-1.9396	-2.3583	-1.5771	-2.3708	-2.1396	-1.4167	-2.1958	-1.8771	-1.7938	-2.5021	-1.6104	-2.0667	-2.5083	206.372	163.847	22.631	206.676	-52.993	-62.457	126.780	209.038	77.616	42.855	209.088	64.859	-143.993	47.369	36.557	185.826	0.00077615	0.0018109	0.00030205	1058.9	1.2446e-05	2.8309e-05	1589	321.35	1.714e-05	2.7516e-05	576.6	201.39	101.86	39.324	1.5381e-05	89.883	0.0043345	0.0047762	0.0013238	1038.2	5.1825e-05	5.2078e-05	1454.5	307.42	5.1123e-05	5.2062e-05	560.74	193.24	107.5	40.08	5.0495e-05	85.304	-137.468	0.568	191.008	-134.468	149.887	148.322	-134.390	-130.257	160.945	-8.749	-130.354	-125.895	-125.506	-121.019	191.069	-122.786	-8191	255	
28575.928	1	1	0	0	0.16504	0.24654	0.39932	0.075234	0.17355	0.23287	0.14606	0.18728	0.096738	0.11951	0.18734	0.12849	0.14022	0.11051	0.196	0.21219	-0.96667	-2.15	-1.6917	-1.5646	-2.0958	-1.3917	-2.0604	-2.2687	-1.5667	-2.0833	-2.1063	-1.8125	-2.4646	-1.55	-2.0042	-2.4625	205.384	58.361	-102.157	-79.271	51.259	-132.954	172.807	189.551	-21.637	-10.762	170.961	-144.932	150.100	183.354	-119.473	197.392	0.00057404	0.0029234	0.00080564	1081.4	1.3879e-05	2.0538e-05	1592.2	327.28	1.6873e-06	2.6282e-05	582.76	202.9	102.6	39.886	2.1586e-05	91.046	0.0042705	0.0046238	0.00128	1043.3	4.9533e-05	5.0434e-05	1461.7	309.18	4.9277e-05	4.9732e-05	561.69	193.68	107.89	40.317	4.8738e-05	85.85	209.178	-15.977	-65.475	-134.573	9.801	75.400	-134.425	-130.012	-121.263	-119.447	-130.141	-126.097	-125.536	-120.872	72.009	-121.797	-8191	255	
28576.047	1	1	0	0	0.060579	0.21373	0.37487	0.19876	0.20471	0.16527	0.44806	0.22066	0.17161	0.1353	0.16588	0.16268	0.090569	0.26984	0.25109	0.0079864	-0.9875	-1.9771	-1.8646	-1.5063	-2.1146	-1.6562	-1.7521	-2.6167	-1.5354	-2.0062	-2.1792	-1.7333	-2.4708	-1.8396	-1.85	-2.4	-131.322	144.169	194.178	-42.523	-6.665	125.769	157.902	96.769	-42.094	24.700	194.431	104.204	-36.395	-146.676	4.776	152.528	0.000741	0.00169	0.00020213	1087.4	4.9949e-06	2.0512e-05	1604.1	324.96	1.553e-05	2.9381e-05	585.45	202.36	102.41	39.796	3.8192e-06	90.636	0.0040823	0.0044577	0.0012453	1044.1	4.7382e-05	4.8778e-05	1463.5	308.17	4.7163e-05	4.8229e-05	561.36	193.3	107.64	40.199	4.7533e-05	85.144	208.357	183.694	-99.717	-134.417	-30.948	29.214	-134.507	-130.110	-12.949	-79.822	-130.453	-125.763	-126.061	-120.455	-68.854	-121.526	-8191	255	
28576.143	1	1	0	0	0.050615	0.15215	0.13306	0.14313	0.2768	0.051965	0.26538	0.35555	0.092047	0.19293	0.22006	0.21276	0.48607	0.28531	0.21499	0.22058	-0.95	-2.0375	-2.0333	-1.6333	-2.0521	-1.9062	-1.7437	-2.1875	-1.5354	-1.9604	-2.3542	-1.6271	-2.4188	-1.8854	-1.7229	-2.5354	163.478	87.626	10.910	159.376	-81.183	15.498	127.630	185.204	-1.116	6.513	209.026	154.105	-143.519	171.810	-21.116	154.907	0.00041958	0.0022353	0.0002639	1085.2	3.4371e-06	1.2563e-05	1612	329.42	1.1984e-05	1.0427e-05	587.64	205.53	102.85	39.561	1.6862e-05	90.287	0.0039816	0.0043586	0.0012196	1041	4.7029e-05	4.7388e-05	1464.6	310.11	4.5764e-05	4.6816e-05	559.9	193.33	107.03	39.788	4.6584e-05	84.425	211.931	-147.834	-78.441	-134.512	8.912	-76.314	-134.514	-130.013	-12.987	95.234	-130.300	-126.056	-125.487	-121.088	43.948	-122.000	-8191	255	
28576.238	1	1	0	0	0.29522	0.036993	0.11784	0.13747	0.23702	0.14573	0.40658	0.19572	0.18904	0.32639	0.10275	0.080505	0.25091	0.12662	0.11474	0.15718	-1.2271	-1.9208	-2.1896	-1.3958	-2.0125	-1.8979	-1.7083	-2.4604	-1.7542	-1.9792	-2.5021	-1.4042	-2.2562	-2.125	-1.5729	-2.3458	-83.880	188.929	75.453	-122.266	197.657	-135.073	146.170	157.907	27.082	-107.742	183.275	-138.122	202.839	127.815	101.985	-120.041	0.00032539	0.0020685	0.00019974	1090.3	1.1165e-05	2.2991e-05	1611	329.31	7.4074e-06	3.2906e-05	586.58	205.85	104.39	39.535	3.948e-05	90.425	0.0038136	0.004207	0.0011672	1037.4	4.5092e-05	4.6037e-05	1460.6	308.67	4.541e-05	4.6323e-05	559.22	194.08	107.28	39.885	4.621e-05	84.925	208.636	12.060	-53.869	-134.760	90.302	5.129	-134.416	-129.356	-8.820	-17.791	-130.084	-126.430	-125.772	-120.749	12.811	-121.892	-8191	255	
28576.357	1	1	0	0	0.26546	0.14238	0.1213	0.11275	0.17348	0.15749	0.29411	0.12808	0.22682	0.077241	0.20472	0.43855	0.13659	0.24572	0.3295	0.12058	-1.3208	-1.7708	-2.1854	-1.6271	-1.9229	-2.075	-1.8312	-2.3958	-1.8188	-1.6375	-2.5667	-1.5917	-2.1979	-2.5396	-1.6437	-2.6104	34.627	-45.172	-57.494	195.335	198.756	90.121	-114.264	-93.660	-89.883	-95.816	200.937	196.614	159.726	156.133	-33.345	114.258	0.00059555	0.00087229	0.00045517	1097.2	1.4118e-06	1.5577e-05	1610.3	330.48	2.7181e-06	1.0224e-05	593.36	206.01	104.18	40.408	1.2049e-05	91.936	0.0038709	0.0042965	0.0011897	1045.2	4.6213e-05	4.7147e-05	1469.4	311.03	4.6236e-05	4.7182e-05	564.61	194.84	108.43	40.494	4.711e-05	85.794	199.234	2.397	58.084	-134.424	150.332	-124.700	-134.361	-129.636	101.255	154.418	-129.727	-126.207	-125.517	-120.647	167.223	-122.163	-8191	255	
28576.455	1	1	0	0	0.036653	0.10064	0.18405	0.26741	0.1566	0.086319	0.29909	0.12301	0.34864	0.2124	0.3486	0.46082	0.28327	0.32103	0.11029	0.11403	-1.4813	-1.6375	-2.2875	-1.5542	-1.875	-2.3312	-1.5312	-2.4521	-2.0104	-1.5812	-2.5292	-1.8542	-1.8875	-2.2771	-1.25	-2.3438	33.264	177.067	106.991	165.574	-28.544	-44.414	177.794	-83.963	32.638	-124.924	162.470	167.330	99.973	148.525	-138.142	139.198	0.00041701	0.0010551	0.00073603	1099	1.4562e-05	3.8565e-06	1623.1	331.19	9.4882e-06	1.0614e-05	600.02	206.29	104	40.302	4.8521e-06	91.386	0.0039332	0.0043314	0.0012035	1046.9	4.6619e-05	4.7073e-05	1473.9	311.91	4.6561e-05	4.7543e-05	568.52	195.31	108.67	40.536	4.7267e-05	85.652	-100.798	-22.608	-61.250	-135.097	-62.752	-57.120	-134.113	-129.831	28.889	-41.156	-129.982	-125.896	-125.188	-120.617	-30.892	-121.759	-8191	255	
28576.525	1	1	0	0	0.23339	0.18765	0.1516	0.21234	0.36707	0.073607	0.23047	0.32224	0.12886	0.050168	0.22441	0.31266	0.080373	0.43262	0.26757	0.21875	-1.6167	-1.5125	-2.3312	-1.7458	-1.8708	-2.3646	-1.7979	-2.2229	-1.8854	-1.5708	-2.45	-1.9583	-1.7708	-2.2938	-1.6229	-2.325	60.155	12.623	130.933	127.689	-16.579	-71.715	156.197	112.966	79.423	-22.043	166.521	164.722	187.359	174.481	-121.345	149.231	0.0002156	0.0025038	0.00053341	1097.5	2.5936e-05	2.5098e-05	1615.1	332.45	9.5994e-06	1.9378e-05	592.31	207.84	104.28	39.845	6.6029e-06	91.201	0.0040338	0.0044057	0.0012234	1046.5	4.7855e-05	4.8841e-05	1470.1	312.56	4.8003e-05	4.797e-05	565.61	196.01	108.82	40.313	4.7048e-05	85.502	-145.773	-31.070	186.282	-134.370	-56.137	13.621	-134.456	-129.758	-82.553	-43.962	-129.998	-126.331	-125.307	-120.022	20.927	-121.734	-8191	255	
28576.646	1	1	0	0	0.32328	0.29326	0.041188	0.12626	0.042334	0.14474	0.3235	0.092844	0.047482	0.13405	0.18544	0.2041	0.097016	0.14276	0.29069	0.13215	-1.9542	-1.4542	-2.3354	-1.8687	-1.8396	-2.3	-1.8667	-2.2458	-2.2271	-1.5167	-2.4	-2.0062	-1.5146	-2.4979	-1.6417	-2.0667	-116.993	-104.954	154.478	-86.493	28.347	13.004	137.600	52.757	114.783	137.472	208.164	147.342	147.252	136.834	-73.267	132.770	0.00061928	0.00086066	0.0004222	1083.7	1.4795e-05	2.7453e-05	1610.2	330.84	7.065e-06	2.2591e-05	590.27	206.61	104.74	40.295	5.971e-06	91.123	0.0039989	0.0042926	0.0011864	1039.9	4.6577e-05	4.7312e-05	1465.4	311.51	4.675e-05	4.7363e-05	562.69	194.87	108.53	40.479	4.7492e-05	85.61	207.343	-108.067	-100.318	-134.543	34.037	-130.984	-134.367	-129.832	73.555	17.901	-129.899	-126.376	-125.618	-120.772	117.931	-121.567	-8191	255	
28576.742	1	1	0	0	0.11043	0.14959	0.16302	0.45809	0.26257	0.10805	0.19452	0.11637	0.31345	0.021124	0.31789	0.43049	0.051733	0.061959	0.30714	0.14638	-1.8333	-1.5042	-2.2188	-2.1542	-1.6667	-2.3125	-1.7604	-1.9729	-2.3542	-1.5521	-2.2521	-2.1729	-1.7062	-2.3	-1.5792	-1.9458	25.689	119.565	10.261	143.306	20.116	172.777	200.150	-44.176	-58.733	79.668	-135.928	175.838	111.999	-129.414	-99.276	120.736	0.00063428	0.002587	0.00025019	1096	9.1816e-06	3.8852e-05	1620.3	331.75	8.2971e-06	2.0927e-05	595.57	208.35	104.32	40.549	5.7716e-06	91.648	0.0040181	0.0044196	0.0012104	1049.2	4.7879e-05	4.8183e-05	1470.2	312.96	4.7689e-05	4.9027e-05	569.61	197.41	109.67	40.84	4.9383e-05	86.675	-141.059	-61.883	177.173	-134.378	123.139	10.104	-134.474	-129.266	162.252	159.878	-130.064	-125.968	-125.566	-120.495	16.746	-121.495	-8191	255	
28576.840	1	1	0	0	0.083936	0.24549	0.16271	0.23478	0.15083	0.092705	0.27379	0.2525	0.11623	0.040742	0.059597	0.48416	0.26917	0.34039	0.10276	0.30871	-1.8542	-1.5792	-2.0438	-2.4625	-1.5125	-2.4542	-2.1604	-1.9167	-2.5646	-1.6458	-2.1292	-2.2313	-1.45	-2.4313	-1.7771	-1.8188	136.791	-52.276	197.382	-147.526	117.391	10.806	169.003	49.453	56.240	-89.908	-2.450	141.225	-144.771	196.151	34.399	118.705	0.00044928	0.0020011	0.00065514	1099	1.0938e-05	2.6267e-05	1605.4	331.86	9.3612e-06	4.8667e-06	591.72	208.53	105.19	40.782	1.0165e-05	91.996	0.0040672	0.0045134	0.001248	1055.8	4.8334e-05	4.9055e-05	1475.5	314.14	4.7839e-05	4.8435e-05	569.06	196.86	109.31	40.836	4.7556e-05	86.426	-128.467	-56.974	-36.249	-134.679	52.310	-38.595	-134.196	-129.772	157.818	-66.117	-129.614	-126.569	-125.553	-120.520	41.237	-121.818	-8191	255	
28576.957	1	1	0	0	0.16664	0.14551	0.12811	0.10727	0.15539	0.15515	0.24584	0.18772	0.20135	0.27874	0.37258	0.33142	0.17557	0.01962	0.25408	0.093514	-2.1208	-1.7167	-2.0708	-2.4917	-1.5312	-2.3208	-2.1021	-1.7625	-2.4396	-1.5354	-2.1521	-2.4771	-1.4396	-2.3125	-1.9896	-1.6146	111.072	99.583	-28.158	206.774	156.008	175.263	153.229	209.097	212.067	77.510	190.322	181.952	-141.177	94.968	184.657	110.985	0.00046565	0.00014411	0.000154	1098.3	8.4406e-06	2.4101e-05	1616.9	332.66	1.3366e-05	8.3974e-06	592.29	206.98	105.08	40.544	5.1111e-06	92.102	0.0039486	0.0043282	0.0011998	1049.5	4.6318e-05	4.6991e-05	1470	312.3	4.6232e-05	4.7113e-05	563.9	195.56	108.67	40.56	4.634e-05	86.217	-146.661	12.404	-139.212	-134.988	49.863	65.358	-134.363	-129.213	-27.370	142.005	-129.983	-126.368	-125.329	-120.426	180.287	-122.151	-8191	255	
28577.055	1	1	0	0	0.032591	0.14231	0.21767	0.12346	0.29592	0.14737	0.14817	0.16801	0.19169	0.20306	0.18393	0.12561	0.099188	0.20661	0.053587	0.26782	-2.1792	-1.5958	-1.8937	-2.4229	-1.575	-2.1333	-2.3458	-1.6313	-2.2792	-1.8979	-1.8937	-2.5604	-1.5604	-2.2562	-2.2313	-1.7854	35.901	67.574	163.336	50.374	-36.227	55.010	133.764	207.276	-97.565	170.487	184.250	-43.096	203.279	203.150	146.303	113.086	0.00073686	0.00086433	0.00066059	1092	1.3859e-05	9.6095e-06	1613.8	329.63	1.1446e-05	1.4942e-05	592.73	207.12	104.04	40.129	1.3089e-05	91.771	0.0038775	0.0043166	0.0012118	1047.1	4.6181e-05	4.7063e-05	1466.5	310.81	4.7043e-05	4.7388e-05	564.94	195.52	108.48	40.52	4.8488e-05	86.221	-138.779	137.396	49.398	-134.201	13.800	22.961	-134.238	-129.491	-94.186	146.023	-129.593	-126.192	-125.728	-120.600	44.748	-121.237	-8191	255	
28577.150	1	1	0	0	0.065414	0.12068	0.15998	0.24501	0.27785	0.15006	0.77043	0.1844	0.12793	0.038627	0.10027	0.23131	0.10056	0.27395	0.20227	0.23593	-1.725	-1.8042	-1.6208	-2.5438	-1.5	-1.9083	-2.4208	-1.6646	-2.3021	-1.8896	-1.8271	-2.4896	-1.6479	-2	-2.2687	-1.5458	-23.661	-6.104	111.749	162.352	14.536	59.492	138.173	141.214	-57.616	156.001	79.398	-147.439	164.207	178.271	190.748	106.839	0.00066192	0.0026383	0.0004025	1090	2.7438e-05	2.6774e-05	1603	330.63	1.0966e-05	1.2084e-05	594.76	205.34	103.16	40.603	2.3387e-05	91.486	0.0040584	0.0044632	0.0012436	1048.2	4.8668e-05	4.9536e-05	1471.7	313.25	4.9093e-05	5.0372e-05	569.44	196.27	108.94	40.967	4.9492e-05	86.817	204.375	63.243	189.631	-134.283	-66.686	184.176	-134.544	-129.486	-120.514	-107.930	-129.911	-126.117	-125.501	-120.157	-7.790	-121.708	-8191	255	
28577.223	1	1	0	0	0.1217	0.20967	0.14847	0.21299	0.38274	0.1845	0.31115	0.31848	0.26908	0.31912	0.56385	0.32706	0.31216	0.28811	0.06503	0.15925	-1.8542	-2.0479	-1.5792	-2.5417	-1.5729	-1.9917	-2.65	-1.45	-2.3187	-2.1146	-1.7708	-2.3667	-1.9062	-1.8979	-2.3146	-1.5896	-140.707	13.526	-125.214	199.149	-99.116	-92.326	137.010	201.324	24.011	7.256	204.860	-134.856	110.441	145.540	-107.750	173.448	0.00060635	0.00039778	0.00021149	1092.1	6.7981e-06	2.7063e-06	1604.4	332.25	6.1197e-06	7.5349e-06	593.44	206.66	103.07	40.962	1.2273e-05	92.055	0.0041009	0.0045584	0.0012636	1051.1	4.8709e-05	4.9521e-05	1470.9	313.33	4.7985e-05	4.9749e-05	567.39	196.64	108.83	41.113	4.8785e-05	86.996	170.336	132.151	83.353	-134.189	71.277	70.915	-134.068	-129.290	-25.036	-132.293	-129.235	-125.546	-125.182	-120.191	-80.617	-121.578	-8191	255	
28577.344	1	1	0	0	0.18722	0.25181	0.18074	0.072117	0.070798	0.30735	0.31962	0.045518	0.017164	0.1401	0.031154	0.28628	0.085046	0.045695	0.18388	0.35216	-1.7646	-2.1271	-1.4625	-2.4167	-1.8354	-1.6875	-2.4958	-1.5562	-1.875	-2.2292	-1.6458	-2.4375	-1.9167	-1.6292	-2.2833	-1.8438	-94.584	-86.599	-94.518	-3.059	133.145	-53.131	167.547	-46.990	147.106	-14.630	22.019	-122.047	-37.118	-62.706	-24.518	194.462	0.00030143	0.00062262	0.00040222	1089.3	7.2256e-06	1.8969e-05	1608.6	328.53	2.2181e-05	1.5281e-05	592.68	207.08	104.2	40.584	1.732e-05	91.408	0.0040665	0.0044941	0.0012547	1047.9	4.8583e-05	4.8976e-05	1468.3	310.41	4.7872e-05	4.8723e-05	567.96	194.81	108.53	40.631	4.7931e-05	86.113	-118.573	-117.542	70.972	-134.438	173.039	-19.634	-134.059	-129.418	19.630	126.442	-129.870	-126.058	-125.614	-120.043	-2.245	-121.970	-8191	255	
28577.439	1	1	0	0	0.026883	0.23302	0.22363	0.42627	0.11042	0.1526	0.48031	0.25678	0.10954	0.060391	0.36226	0.24197	0.30452	0.073445	0.089041	0.28853	-1.6313	-2.1729	-1.4958	-2.3125	-1.9208	-1.6271	-2.6646	-1.6333	-1.7146	-2.5146	-1.6729	-2.3875	-2.1188	-1.8146	-2.5542	-1.9708	-119.632	90.940	47.802	110.267	-54.757	118.101	157.312	172.631	-31.852	142.214	167.714	176.038	165.313	-21.311	131.686	165.118	0.00047442	0.001651	0.00061971	1091.3	2.1541e-05	2.2997e-05	1617.4	329.92	4.8083e-06	1.0261e-05	591.31	203.64	103.25	40.03	1.0629e-05	91.231	0.0040127	0.0044369	0.0012305	1044.4	4.7623e-05	4.8486e-05	1466	310.13	4.7868e-05	4.8099e-05	565.34	193.65	107.95	40.276	4.7599e-05	85.826	-121.693	-79.564	-23.008	-133.953	-72.321	-82.716	-134.042	-129.666	158.749	36.963	-129.399	-125.823	-125.551	-120.143	-64.485	-121.749	-8191	255	
28577.535	1	1	0	0	0.13151	0.20698	0.28263	0.18562	0.20377	0.1668	0.10041	0.22506	0.26787	0.35722	0.28053	0.1696	0.16146	0.23462	0.094155	0.24952	-1.3021	-2.1792	-1.375	-2.3063	-2.2188	-1.5125	-2.5958	-2.025	-1.8146	-2.4	-1.6938	-2.2354	-2.2167	-1.925	-2.3229	-2.1292	-41.717	-15.519	153.145	200.247	-22.532	187.279	60.097	190.078	59.937	-113.411	162.678	161.551	116.435	154.059	-52.555	162.634	0.00055875	0.0015645	0.00026125	1086.1	1.3092e-05	1.3246e-05	1605.9	329.5	7.6634e-06	9.4387e-06	590.19	204.29	101.4	40.07	3.5393e-05	90.406	0.0040416	0.0044233	0.0012238	1041.7	4.8139e-05	4.9111e-05	1465.3	310.13	4.8352e-05	4.901e-05	564.67	194.54	107.82	40.401	4.8268e-05	85.529	-145.370	-4.275	173.043	-133.923	-87.494	-41.013	-133.728	-129.227	-146.319	-7.955	-129.758	-125.379	-125.974	-120.737	-24.369	-121.632	-8191	255	
28577.631	1	1	0	0	0.061792	0.21089	0.11169	0.19138	0.23764	0.14011	0.29424	0.2145	0.22348	0.07647	0.43993	0.08366	0.24256	0.19325	0.23167	0.22325	-1.2958	-2.2979	-1.7417	-2.2292	-2.1146	-1.5917	-2.2333	-2.05	-1.7875	-2.3812	-1.7521	-2.0042	-2.5125	-1.5458	-2.2687	-2.1688	64.521	45.351	10.402	129.340	-144.901	162.247	122.753	177.589	-123.688	142.247	181.348	15.173	179.380	-115.259	-101.536	125.541	0.00044159	0.0017972	8.7749e-05	1079.1	1.3105e-05	1.4474e-05	1607.4	323	8.8858e-06	2.2554e-05	587.48	202.79	101.6	39.861	1.0657e-05	91.886	0.0040538	0.0044705	0.0012511	1042.1	4.9161e-05	4.8785e-05	1467.2	307.68	4.8867e-05	4.8749e-05	562.01	194.36	107.47	40.336	4.9133e-05	86.199	212.062	-23.362	-142.317	-134.120	194.950	95.235	-134.041	-129.600	203.588	5.823	-129.515	-125.758	-125.141	-120.170	70.619	-121.604	-8191	255	
28577.750	1	1	0	0	0.15285	0.17479	0.14073	0.33754	0.10989	0.3049	0.26426	0.33989	0.2466	0.14439	0.34264	0.26922	0.19562	0.38128	0.14352	0.28653	-1.3604	-2.3375	-1.7146	-1.9479	-2.3104	-1.6646	-2.3563	-2.1125	-1.5854	-2.3021	-1.8458	-1.8667	-2.4562	-1.7646	-2.1562	-2.0708	115.015	186.093	36.930	185.489	73.347	150.355	61.100	120.403	184.273	112.168	173.757	106.616	152.255	-138.527	-126.319	179.505	0.00047167	0.00076975	0.00025215	1082.6	2.8451e-06	2.7341e-05	1614.1	323.5	2.0676e-05	2.2154e-05	581.32	203.14	101.8	39.065	1.7507e-05	89.911	0.0041847	0.0045104	0.0012689	1043.5	4.9552e-05	4.9881e-05	1467.6	307.87	4.9066e-05	4.931e-05	560.14	193.52	107.51	39.957	4.9598e-05	85.2	-136.085	-56.948	128.711	-134.234	-12.451	163.781	-133.901	-129.165	-3.871	40.943	-129.900	-125.534	-124.685	-120.018	-120.271	-121.523	-8191	255	
28577.822	1	1	0	0	0.017124	0.24392	0.01533	0.088313	0.21269	0.13	0.043845	0.22304	0.21259	0.31698	0.15533	0.20497	0.14265	0.16984	0.12731	0.34903	-1.05	-2.3521	-1.7479	-1.7208	-2.4583	-1.4458	-2.3875	-2.3583	-1.6792	-2.2708	-2.0146	-1.8396	-2.4604	-1.6208	-1.9125	-2.4562	89.680	-117.949	19.902	-107.677	-59.167	-80.468	83.119	205.537	-133.434	142.731	162.684	120.492	210.625	-146.041	-126.576	171.817	0.00026976	0.00095334	0.00040941	1073.5	7.9581e-06	1.6724e-05	1599.4	324.76	9.3498e-06	1.4778e-05	578.09	204.06	101.83	39.512	1.2146e-05	89.788	0.0041136	0.0045598	0.0012671	1037.4	4.8602e-05	4.924e-05	1459.8	306.81	4.8785e-05	4.8965e-05	559.57	193.38	106.36	39.912	4.8579e-05	85.114	203.126	-45.913	11.678	-134.654	-7.545	-116.137	-133.664	-129.595	-121.022	58.506	-129.590	-125.646	-125.003	-120.623	95.445	-121.488	-8191	255	
28577.920	1	1	0	0	0.22782	0.15952	0.11706	0.33089	0.30023	0.10667	0.33269	0.31744	0.24303	0.20123	0.27456	0.41355	0.17982	0.22084	0.039339	0.24787	-1.1771	-2.4229	-1.9146	-1.7042	-2.2646	-1.5875	-2.1375	-2.2938	-1.4708	-2.2542	-2.0396	-1.9583	-2.5146	-1.7542	-1.6708	-2.4688	-123.432	-89.544	42.207	197.263	164.996	19.806	176.831	211.052	164.981	-119.833	208.306	175.849	119.517	159.727	-107.606	92.547	0.0007318	0.0013096	0.00070095	1075.1	8.0676e-06	3.8815e-05	1592.8	324.53	6.8813e-06	1.2514e-05	586.06	203.67	101.65	39.7	1.1954e-05	90.611	0.0040654	0.0044248	0.0012506	1031.5	4.7242e-05	4.8296e-05	1456	306.02	4.7103e-05	4.7825e-05	558.93	193.05	106.21	40.015	4.7586e-05	85.183	-138.120	-79.540	-53.962	-134.188	42.746	-42.753	-133.704	-128.820	-11.565	-14.580	-129.831	-125.672	-125.017	-120.276	126.081	-121.381	-8191	255	
28578.037	1	1	0	0	0.22648	0.031552	0.085313	0.17805	0.2221	0.072264	0.28575	0.24574	0.22964	0.127	0.16064	0.15398	0.10311	0.032654	0.30725	0.13974	-1.2417	-2.0833	-2.1458	-1.6229	-2.2313	-1.6792	-1.8104	-2.5104	-1.6375	-2.2417	-2.4313	-1.7396	-2.2771	-1.8708	-1.5396	-2.5875	106.910	130.909	-117.955	97.996	183.940	180.801	109.159	211.171	-64.071	162.406	-141.719	55.836	-139.127	148.137	61.671	160.479	0.00042947	0.00057296	0.00016075	1078.1	1.1536e-05	1.6794e-05	1606.6	327.96	1.1633e-05	3.0301e-06	584.06	205.31	102.66	39.755	1.0705e-05	91.773	0.0039721	0.0043642	0.0012268	1032.7	4.7211e-05	4.8287e-05	1465	308.08	4.7611e-05	4.8206e-05	562.63	194.24	106.77	40.254	4.9589e-05	86.067	193.454	-34.376	66.581	-134.068	-135.353	91.066	-133.970	-129.669	44.181	-137.480	-129.198	-125.530	-125.803	-120.517	197.354	-121.511	-8191	255	
28578.135	1	1	0	0	0.16066	0.10991	0.083772	0.24578	0.24254	0.32922	0.19044	0.26777	0.15103	0.23639	0.52733	0.34461	0.22883	0.10705	0.067538	0.12912	-1.2563	-1.8958	-2.1625	-1.6208	-2.2042	-1.9896	-1.8146	-2.4604	-1.5562	-1.9708	-2.4417	-1.8667	-2.2604	-1.9875	-1.7146	-2.5708	-25.646	192.505	166.780	161.870	-77.543	122.209	145.402	157.955	118.248	195.659	140.584	161.188	194.665	-141.700	78.415	40.496	0.00053137	0.00055389	0.00037429	1079.1	1.1889e-05	8.4187e-06	1589	323.23	2.1301e-05	1.5421e-05	591.25	203.19	101.18	39.191	1.8596e-05	91.059	0.0041167	0.0045745	0.0012778	1040.3	4.9917e-05	5.1531e-05	1461.8	307.53	5.0683e-05	5.1854e-05	567.1	194.23	107.53	40.437	5.1943e-05	86.402	-142.991	-112.315	161.218	-134.295	14.355	-77.426	-133.428	-129.349	-39.812	136.104	-129.221	-125.639	-125.349	-120.056	110.928	-121.206	-8191	255	
28578.230	1	1	0	0	0.25895	0.073375	0.37304	0.17924	0.14837	0.10783	0.15286	0.4183	0.13716	0.28596	0.35852	0.38971	0.22613	0.33677	0.045716	0.24853	-1.5521	-1.9562	-2.3417	-1.6437	-2.1292	-2.0396	-1.8208	-2.5417	-1.8167	-1.9375	-2.5229	-1.8604	-2.1146	-2.2062	-1.5063	-2.575	-40.608	87.839	10.760	172.552	145.419	76.647	30.088	143.923	75.011	-110.567	-111.354	181.627	-134.025	150.103	-28.744	171.099	0.00067742	0.00044371	0.0003008	1067.4	1.7672e-05	2.9739e-05	1593.3	323.36	3.2603e-05	2.1276e-05	585.77	201.5	100.68	39.463	6.947e-06	90.221	0.0043555	0.0048193	0.0013391	1039.7	5.1921e-05	5.3684e-05	1463.2	308.61	5.2367e-05	5.2908e-05	567.46	194.08	108.11	40.624	5.375e-05	86.549	-123.663	145.887	202.872	-134.137	-37.079	-82.749	-134.135	-129.314	-38.231	7.157	-129.456	-125.607	-125.310	-120.100	-130.067	-121.421	-8191	255	
28578.326	1	1	0	0	0.20976	0.279	0.1186	0.18174	0.14818	0.26652	0.19325	0.20414	0.057937	0.32484	0.22376	0.2187	0.093225	0.34687	0.11715	0.23401	-1.3833	-1.6104	-2.3979	-1.5979	-2.0042	-2.2938	-1.7875	-2.3167	-1.9937	-1.6	-2.4896	-1.9708	-1.9062	-2.2771	-1.6646	-2.3438	75.876	56.932	-127.439	130.620	149.887	88.391	165.240	-129.761	63.975	-60.202	183.375	190.728	99.930	145.549	-134.249	138.960	0.00032063	0.0032819	0.00085708	1064.7	3.1531e-06	9.1692e-06	1597.6	322.87	9.1619e-06	1.4926e-05	579.41	203.15	101.07	39.468	1.6439e-05	91.698	0.0045196	0.0049876	0.0013908	1044	5.4089e-05	5.4514e-05	1471.5	309.78	5.3827e-05	5.4837e-05	570.02	196	108.81	40.941	5.4555e-05	87.106	-132.738	-118.677	-71.348	-134.412	-73.073	-42.195	-133.915	-129.431	51.879	5.006	-129.542	-125.559	-125.445	-119.750	192.799	-121.273	-8191	255	
28578.424	1	1	0	0	0.12922	0.32027	0.19885	0.14419	0.22484	0.12051	0.18795	0.48275	0.29025	0.033761	0.20215	0.48039	0.28246	0.014291	0.30856	0.23992	-1.575	-1.6812	-2.4792	-1.8646	-1.7604	-2.4188	-1.6854	-2.4125	-1.9917	-1.4979	-2.3083	-1.7896	-1.7563	-2.4938	-1.6521	-2.1479	-33.838	-110.390	-46.278	158.859	151.579	-79.322	172.512	211.709	-3.080	204.461	109.093	177.115	-6.592	141.226	29.280	123.661	0.00052963	0.0024371	0.00089469	1068.1	1.5313e-05	1.1924e-05	1593.8	320.2	1.2635e-05	2.4505e-05	586.3	203.33	99.749	39.424	1.0042e-05	92.26	0.0046249	0.0051098	0.0014149	1048.4	5.5064e-05	5.6399e-05	1478.4	311.23	5.5408e-05	5.5592e-05	573.29	196.94	109.38	41.428	5.6404e-05	87.889	192.389	-14.820	9.026	-133.732	-102.415	136.401	-134.050	-128.978	38.143	53.173	-129.338	-125.135	-125.241	-120.142	-75.505	-121.363	-8191	255	
28578.520	1	1	0	0	0.18952	0.054196	0.22092	0.35174	0.10591	0.39034	0.42372	0.27003	0.24499	0.2027	0.13596	0.16515	0.1274	0.045673	0.25646	0.38791	-1.9292	-1.4229	-2.3521	-2.0604	-1.8687	-2.6437	-2.0021	-2.1083	-2.1125	-1.4583	-2.4167	-1.9625	-1.775	-2.2646	-1.8062	-2.1458	61.166	4.934	-24.452	198.726	-140.480	112.518	107.709	147.866	35.389	-97.511	-145.313	182.518	146.463	182.353	-139.437	174.231	0.00053659	0.0010231	0.00055573	1073.4	6.1989e-06	1.936e-05	1590.8	322.59	7.4385e-06	8.0689e-06	585.17	201.54	101.16	39.741	8.0284e-06	91.32	0.0047696	0.0052649	0.0014358	1056.1	5.7087e-05	5.7285e-05	1477.9	312.44	5.7018e-05	5.7631e-05	573.49	196.52	109.75	41.182	5.6697e-05	87.572	-101.925	-27.553	-64.893	-134.404	134.745	-58.250	-133.869	-129.108	104.287	69.938	-129.283	-125.353	-125.036	-119.687	-51.638	-120.928	-8191	255	
28578.641	1	1	0	0	0.21331	0.11034	0.03443	0.11156	0.14217	0.23593	0.46124	0.35218	0.19536	0.11437	0.46558	0.26673	0.28602	0.2849	0.17943	0.14523	-1.7938	-1.6729	-2.05	-1.8458	-1.3979	-2.4042	-1.8438	-1.9792	-2.1813	-1.6646	-2.1792	-2.0833	-1.6708	-2.3146	-1.8729	-2.0229	171.566	196.048	-59.959	36.887	147.820	-67.881	196.518	212.593	-103.899	179.498	161.685	166.012	-121.311	100.776	-146.489	10.969	0.00063206	0.00044119	0.0003579	1058.9	1.2847e-06	3.4749e-06	1584.1	322.05	7.4114e-06	3.1119e-05	582.27	202.68	101	39.225	1.0178e-05	91.375	0.0047378	0.0052097	0.0014443	1048.3	5.6001e-05	5.6156e-05	1472.4	311.25	5.6011e-05	5.6244e-05	569.26	195.54	109.34	40.892	5.5933e-05	87.323	200.108	-64.627	212.853	-134.315	32.746	200.816	-133.678	-129.080	20.925	-6.962	-129.034	-125.287	-125.359	-120.195	10.212	-121.082	-8191	255	
28578.736	1	1	0	0	0.06447	0.2164	0.18176	0.18099	0.033778	0.15402	0.31398	0.21979	0.10858	0.10631	0.092136	0.21534	0.29429	0.084295	0.19743	0.23866	-1.8875	-1.4188	-2.1125	-2.1646	-1.3833	-2.5312	-2.0208	-1.8646	-2.4083	-1.8062	-2.1604	-2.4021	-1.75	-2.4917	-2.0104	-1.8625	-47.163	138.009	150.530	-41.275	-138.082	-115.385	132.012	-82.741	37.084	61.410	-52.394	159.354	205.077	-118.250	125.917	191.692	0.00051566	0.00061152	0.00034218	1061.8	1.4716e-05	1.4352e-05	1587.9	323.15	5.3204e-06	2.2594e-05	583.59	202.63	100.7	39.481	1.0823e-05	91.002	0.004646	0.005116	0.0014165	1046.5	5.5299e-05	5.5926e-05	1472	310.71	5.5421e-05	5.597e-05	572.6	196.14	109.12	40.868	5.5362e-05	87.108	-137.579	28.634	-44.679	-133.982	118.118	89.388	-134.090	-128.965	-76.750	22.974	-129.039	-125.447	-124.456	-119.796	-103.885	-120.713	-8191	255	
28578.830	1	1	0	0	0.20632	0.051551	0.031299	0.39484	0.1623	0.20232	0.13967	0.3749	0.30533	0.15303	0.23396	0.13301	0.31518	0.26655	0.21332	0.32426	-1.9625	-1.7292	-1.9312	-2.3125	-1.4958	-2.3812	-2.1708	-1.7896	-2.3333	-1.7396	-2.0812	-2.5146	-1.7667	-2.3187	-2.0729	-1.8583	107.607	148.010	98.131	204.175	171.346	-121.483	167.600	188.349	-30.733	-146.327	169.013	208.768	-56.758	205.135	-105.149	14.166	0.00041067	0.00039095	0.00015636	1063.3	1.5976e-05	1.4302e-05	1615.1	323.54	5.6673e-07	1.8127e-05	581.54	203.12	100.69	39.948	2.0003e-05	91.738	0.0045521	0.0050321	0.0014057	1051.2	5.4068e-05	5.4568e-05	1480.2	311.17	5.3713e-05	5.4565e-05	571.45	196.11	108.9	41.037	5.4989e-05	87.542	-128.218	101.308	135.841	-133.768	90.278	49.730	-133.586	-128.719	-104.317	4.843	-129.345	-125.479	-124.979	-119.434	196.294	-121.428	-8191	255	
28578.928	1	1	0	0	0.15514	0.16235	0.17671	0.26162	0.13587	0.15662	0.32606	0.2287	0.16899	0.022292	0.48529	0.153	0.31782	0.12774	0.10327	0.38117	-1.9562	-1.7875	-1.775	-2.3771	-1.5083	-2.1375	-2.3104	-1.6646	-2.3667	-1.925	-1.8667	-2.4604	-1.6792	-2.1688	-2.3729	-1.7167	67.987	-108.893	-142.198	164.000	-66.110	-62.340	169.770	200.605	208.435	-95.357	177.644	152.873	172.231	-105.232	-125.677	191.405	0.00041546	0.00069693	0.00028256	1078.7	2.1958e-05	1.2943e-05	1607.2	323.93	3.867e-06	1.313e-05	585.13	205.13	100.09	39.673	1.1666e-05	91.609	0.0045006	0.0049608	0.0013697	1051.6	5.2987e-05	5.3851e-05	1480.3	311.23	5.2655e-05	5.4179e-05	571.12	196.28	108.36	41.075	5.429e-05	87.584	-113.900	-101.571	100.459	-134.241	-37.298	84.947	-133.465	-128.806	79.813	-37.311	-129.272	-125.229	-125.324	-119.649	-36.449	-120.914	-8191	255	
28579.047	1	1	0	0	0.13206	0.092812	0.25973	0.067005	0.085997	0.2877	0.38299	0.20993	0.11756	0.078423	0.14151	0.18985	0.094897	0.2224	0.12434	0.35843	-2.0208	-1.8958	-1.8	-2.5521	-1.5646	-2.075	-2.1854	-1.5208	-2.3688	-1.9167	-1.6292	-2.6833	-1.5917	-2.0042	-2.3271	-1.6187	198.932	-104.395	93.956	-28.873	-81.929	-32.268	169.700	116.068	140.496	-71.303	-5.347	-13.206	166.107	-93.479	128.897	-140.753	0.00036749	0.0021635	0.00048476	1071	2.4903e-05	1.6735e-05	1602.1	322.43	7.9592e-06	2.016e-05	586.01	202.75	100.15	39.305	1.8697e-05	91.181	0.0045133	0.0049773	0.0013843	1049	5.4521e-05	5.4953e-05	1480.5	310.28	5.4998e-05	5.6217e-05	573.47	196.28	109.3	41.169	5.7135e-05	87.69	207.046	62.670	2.946	-134.140	-52.423	-45.312	-133.783	-128.974	124.565	17.311	-129.101	-125.743	-124.914	-119.649	-97.675	-121.247	-8191	255	
28579.119	1	1	0	0	0.099719	0.066708	0.20548	0.13801	0.066597	0.11655	0.29123	0.13218	0.21584	0.0028634	0.21953	0.34684	0.051092	0.13493	0.28753	0.47752	-1.8813	-2.0354	-1.5625	-2.4792	-1.6521	-1.7708	-2.7188	-1.7042	-2.2604	-2.3083	-1.825	-2.4396	-1.925	-1.9521	-2.2542	-1.7812	206.962	189.465	86.425	-109.990	26.533	208.235	140.096	176.672	-67.895	-5.761	-145.996	136.694	137.881	149.656	-74.571	139.777	0.00045442	0.0016338	0.00034862	1074.4	1.3073e-05	1.9949e-05	1578.4	318.21	4.0757e-06	1.0426e-05	579.4	203.27	100.89	39.249	6.6048e-06	91.25	0.0047648	0.0053341	0.0014788	1055.6	5.6928e-05	5.7821e-05	1477.3	310.36	5.7748e-05	5.8969e-05	574.29	196.38	110.04	41.473	5.948e-05	88.047	-112.894	-22.621	207.278	-133.772	-125.762	63.544	-133.427	-129.001	142.149	171.076	-128.977	-125.054	-124.825	-119.192	-85.593	-120.840	-8191	255	
28579.215	1	1	0	0	0.1535	0.1291	0.14163	0.12294	0.3314	0.27282	0.46614	0.47372	0.24374	0.20271	0.28333	0.055351	0.20442	0.29805	0.084433	0.24751	-1.9167	-2.1063	-1.5958	-2.5458	-1.9708	-1.7708	-2.4688	-1.6042	-2	-2.3354	-1.6792	-2.4708	-1.8708	-1.7708	-2.4604	-1.9625	-29.411	78.484	-127.492	158.373	21.944	-48.954	192.568	121.079	-134.117	186.822	209.191	204.859	-46.121	-132.752	213.277	-89.925	0.00038142	0.00010442	0.00033417	1063.8	1.5689e-05	1.8167e-05	1597.2	321.88	1.0511e-05	2.6845e-05	587.82	203.44	99.637	39.618	5.5598e-06	92.777	0.0049046	0.0054737	0.0015106	1060.2	5.8694e-05	5.9128e-05	1487.5	312.22	5.7717e-05	5.8798e-05	576.29	197.6	109.6	41.474	5.7488e-05	88.534	209.631	-134.803	92.135	-133.753	130.271	110.595	-133.476	-128.475	118.421	-143.218	-129.068	-124.699	-124.583	-119.818	-102.118	-121.002	-8191	255	
28579.311	1	1	0	0	0.16898	0.11285	0.19912	0.10707	0.27385	0.20758	0.159	0.27361	0.36699	0.29697	0.12212	0.19821	0.1451	0.11719	0.31091	0.59469	-1.7	-2.2625	-1.4188	-2.3812	-2.0438	-1.6708	-2.5458	-1.7854	-1.8813	-2.2146	-1.5417	-2.5125	-2.15	-1.65	-2.4313	-1.8771	-99.135	-53.790	-98.288	26.359	-53.074	112.248	-146.118	116.342	15.625	-85.125	200.040	144.987	-103.808	118.275	-32.846	157.067	0.00073953	0.0017687	0.00018813	1071	9.4323e-06	1.7739e-05	1605.2	320.61	5.9141e-06	1.0749e-05	582.61	202.34	99.999	40.028	1.5763e-05	91.905	0.0047987	0.0053315	0.0014639	1057.6	5.7384e-05	5.7817e-05	1487.3	310.72	5.7066e-05	5.8202e-05	577.17	197.15	110.03	41.574	5.8337e-05	88.307	-142.777	-74.768	52.433	-133.991	164.913	98.810	-133.627	-128.992	7.158	-39.618	-129.141	-125.371	-124.455	-119.375	48.526	-121.373	-8191	255	
28579.432	1	1	0	0	0.059293	0.091145	0.17636	0.23912	0.088183	0.11809	0.31113	0.22768	0.27789	0.10081	0.17009	0.44739	0.065308	0.21234	0.15306	0.199	-1.4937	-2.3354	-1.5771	-2.2979	-2.0104	-1.5979	-2.6063	-1.7313	-1.7167	-2.4	-1.7521	-2.1354	-2.2229	-1.6167	-2.4729	-2.1562	-107.935	-5.766	-44.012	-140.092	135.031	-61.889	131.747	137.678	-124.197	186.596	-111.956	163.172	-67.651	-120.540	-59.688	91.527	0.00070708	0.0013375	0.00056549	1067.6	1.4352e-05	1.4847e-05	1598.6	320.99	1.1436e-05	7.5452e-06	577.47	201.6	99.818	39.315	6.6008e-06	90.526	0.004901	0.0054185	0.0014985	1059.2	5.9048e-05	6e-05	1490.6	312.25	5.9157e-05	6.0051e-05	576.25	197.2	110.32	41.557	6.0401e-05	88.016	-146.133	-144.951	-124.284	-134.196	-45.678	95.106	-133.742	-129.103	102.481	136.157	-128.972	-125.624	-124.928	-119.468	40.884	-121.085	-8191	255	
28579.527	1	1	0	0	0.14023	0.090566	0.18278	0.32918	0.27291	0.18556	0.27082	0.30834	0.028748	0.20268	0.17743	0.22676	0.14894	0.13221	0.14535	0.13653	-1.3958	-2.4708	-1.7938	-2.2208	-2.4062	-1.5979	-2.4792	-2.0917	-1.6771	-2.4042	-1.7604	-2.1333	-2.3917	-1.6562	-2.3271	-2.2208	106.454	44.590	2.001	140.918	-104.764	-25.585	94.682	166.694	-60.282	-18.813	68.367	179.855	119.392	152.996	29.118	141.751	0.00080613	0.0002235	0.00071226	1073.7	1.0298e-05	2.3718e-05	1604.9	319.49	3.5143e-06	6.3924e-06	582.14	202.95	99.86	39.179	5.5587e-06	90.749	0.005032	0.0056052	0.0015419	1063.1	6.0532e-05	6.1082e-05	1490.3	312.24	5.9989e-05	6.0744e-05	577.51	197.78	110.32	41.427	5.9448e-05	87.754	207.574	-68.437	-50.276	-133.707	-17.042	-5.552	-133.568	-129.175	112.047	-102.599	-129.105	-125.123	-125.053	-119.427	-55.594	-121.369	-8191	255	
28579.623	1	1	0	0	0.1718	0.34136	0.34677	0.42398	0.2546	0.10283	0.49685	0.24432	0.13442	0.26592	0.3242	0.3008	0.091844	0.25242	0.20064	0.067386	-1.4583	-2.4104	-1.775	-1.9854	-2.35	-1.6	-2.375	-2.2313	-1.4917	-2.3146	-1.9833	-2.1479	-2.3458	-1.6708	-2.225	-2.1729	75.393	-119.674	-15.021	104.400	86.972	-126.370	198.232	168.204	-93.021	8.416	-122.573	184.388	-103.271	115.000	63.532	-55.911	0.00057004	0.00045221	0.00038952	1069.3	8.3722e-06	1.9094e-06	1606.1	322.6	1.1604e-05	2.6704e-05	585.86	205.26	101.15	39.489	1.9838e-05	91.418	0.0049099	0.005375	0.001496	1058.2	5.7504e-05	5.8104e-05	1487.5	311.94	5.6549e-05	5.6953e-05	574.76	197.87	109.94	41.078	5.5621e-05	87.812	-139.622	122.244	27.013	-133.528	-7.547	126.640	-133.632	-129.194	-100.183	4.799	-128.837	-125.107	-125.389	-120.244	128.912	-120.890	-8191	255	
28579.721	1	1	0	0	0.090884	0.067296	0.20129	0.20133	0.031326	0.23598	0.58016	0.051766	0.24247	0.1339	0.073925	0.24801	0.18814	0.035398	0.076839	0.20092	-1.25	-2.3688	-1.7437	-1.7792	-2.3833	-1.4896	-2.0375	-2.2875	-1.5479	-2.2375	-2.0292	-1.7417	-2.4208	-1.7625	-1.9937	-2.3667	62.613	82.178	170.610	-138.263	-98.847	-120.698	153.221	123.144	115.872	27.175	-58.860	143.382	-141.744	120.755	150.333	160.391	0.00050348	0.0021174	3.7738e-05	1070.4	1.0661e-05	1.837e-05	1607.4	320.62	7.7042e-06	1.8997e-05	588.88	205.13	101.37	39.492	1.2087e-05	91.594	0.0047053	0.0051096	0.0014432	1055.6	5.614e-05	5.662e-05	1488.1	311.22	5.6328e-05	5.7043e-05	577.77	198.25	109.91	41.335	5.7728e-05	88.219	-106.656	-14.819	149.501	-133.848	-0.434	-97.199	-133.556	-129.379	-67.036	50.357	-129.226	-125.113	-125.367	-120.259	79.534	-121.252	-8191	255	
28579.816	1	1	0	0	0.07238	0.073689	0.096756	0.11257	0.10939	0.032699	0.39468	0.052234	0.15785	0.064798	0.036402	0.23031	0.21755	0.14187	0.013678	0.24584	-1.2333	-2.1167	-1.8875	-1.7062	-2.4688	-1.7646	-2.1125	-2.4688	-1.5417	-2.2667	-2.1354	-1.7646	-2.5708	-1.7979	-1.7125	-2.4875	105.626	97.071	7.403	197.426	-97.879	66.853	149.110	100.250	-118.001	-15.830	-81.029	156.666	187.677	79.540	92.784	199.536	0.00047066	0.0017799	0.0008023	1068.5	1.1342e-05	9.6992e-06	1601.2	319.92	9.4724e-06	3.3241e-05	583.23	203.14	99.755	39.33	1.7967e-05	90.841	0.0048095	0.0053417	0.0014878	1059.1	5.8008e-05	5.921e-05	1488	311.86	5.8465e-05	5.8965e-05	578.78	197.88	109.63	41.403	5.9425e-05	87.798	-128.923	-89.207	197.363	-134.218	18.346	-90.391	-133.290	-129.256	-29.317	25.854	-129.308	-125.189	-124.721	-120.121	158.930	-121.189	-8191	255	
28579.910	1	1	0	0	0.36608	0.043719	0.18368	0.23002	0.19131	0.17315	0.22815	0.23678	0.057264	0.14504	0.03802	0.11315	0.089725	0.23906	0.1844	0.068503	-1.275	-2.0958	-2.1063	-1.6958	-2.3167	-1.7354	-2.1312	-2.5146	-1.5125	-2.1375	-2.3708	-1.6437	-2.5396	-1.8479	-1.6708	-2.65	-70.678	42.074	-140.905	126.850	188.473	-50.280	162.324	136.287	95.874	-5.224	82.797	125.469	-88.790	100.801	205.922	82.139	0.00044413	0.0014533	0.00075161	1057.1	9.2716e-06	2.4211e-05	1586	318.52	1.2959e-05	7.6514e-06	576.91	200.89	99.117	38.875	6.627e-06	90.999	0.0049675	0.0054407	0.0015309	1054.2	5.8735e-05	6.058e-05	1486.2	311.29	5.964e-05	5.9819e-05	574.76	196.63	109.48	41.128	6.0025e-05	87.945	212.910	-31.650	62.487	-134.030	-51.968	114.434	-133.335	-128.771	-68.894	42.563	-129.220	-125.319	-124.948	-119.646	-51.604	-121.215	-8191	255	
28580.010	1	1	0	0	0.044725	0.13402	0.23693	0.22822	0.16649	0.17877	0.11988	0.19537	0.23645	0.13578	0.18346	0.11611	0.15766	0.1866	0.090511	0.38311	-1.2396	-1.9104	-2.2875	-1.5229	-2.2625	-1.9875	-1.825	-2.4583	-1.7375	-1.9625	-2.5042	-1.7417	-2.3208	-2.0563	-1.5521	-2.5375	-122.767	-36.758	67.067	-115.743	-58.926	-9.586	82.139	173.799	170.337	-80.113	44.187	-121.439	151.327	184.331	-30.123	198.494	0.00048344	0.0024855	0.00065695	1063.4	9.7918e-06	1.9397e-05	1592.7	317.56	2.4422e-05	2.1111e-05	579.84	201.87	99.559	39.458	1.8022e-05	91.647	0.0049869	0.0055202	0.0015431	1057.2	5.9441e-05	6.065e-05	1489.9	310.95	5.9491e-05	6.0192e-05	576.88	197.11	109.74	41.44	5.9947e-05	88.396	-146.155	-138.955	-7.826	-133.923	65.577	23.201	-133.814	-128.873	48.028	-69.703	-129.538	-125.312	-124.683	-119.840	-14.134	-121.486	-8191	255	
28580.129	1	1	0	0	0.14593	0.2344	0.14464	0.15758	0.072829	0.22412	0.19518	0.029553	0.048477	0.069747	0.28289	0.20939	0.32214	0.28906	0.32338	0.16023	-1.3875	-1.8354	-2.3917	-1.7646	-2.1937	-2.1292	-1.8292	-2.5542	-1.6667	-1.8229	-2.6021	-1.6688	-2.175	-2.4229	-1.5917	-2.5583	-66.056	56.167	169.476	181.086	172.879	-92.329	169.883	-5.767	50.948	6.895	119.630	191.873	130.175	200.273	33.421	91.533	0.00060282	0.0016924	0.00033626	1058.7	1.6508e-05	2.1124e-05	1604.1	318.41	9.8434e-06	8.0553e-06	578.2	201.34	99.184	39.36	1.3558e-05	91.79	0.004981	0.005446	0.0015174	1056.3	5.8321e-05	5.96e-05	1492.9	310.39	5.8012e-05	5.9467e-05	575.23	196.85	109.63	41.351	5.8887e-05	88.626	195.774	-61.553	-51.184	-133.714	-95.515	-110.781	-133.523	-128.959	-46.438	156.496	-129.226	-125.466	-125.474	-119.729	49.886	-121.337	-8191	255	
28580.225	1	1	0	0	0.24145	0.21904	0.035496	0.23902	0.037881	0.29065	0.12112	0.31924	0.26103	0.23924	0.096016	0.3726	0.30469	0.34443	0.017454	0.082562	-1.5479	-1.7896	-2.3708	-1.7979	-2.1271	-2.3292	-1.8229	-2.3563	-1.8708	-1.7396	-2.5896	-1.8104	-2.1896	-2.3042	-1.4312	-2.3542	15.113	31.644	-70.671	194.374	-34.434	151.018	105.612	143.933	211.637	-6.360	154.243	139.248	-134.140	143.253	124.805	150.731	0.00087404	0.0017792	0.00044023	1058.6	1.9002e-05	9.8618e-06	1595.1	318.5	1.1032e-05	1.0918e-05	584.05	202.52	98.576	38.818	2.4857e-05	91.5	0.0048731	0.0053959	0.0014795	1054.7	5.7122e-05	5.8496e-05	1483	309.43	5.7007e-05	5.7964e-05	574.15	195.85	108.36	41.034	5.7175e-05	87.787	-137.674	-39.876	-127.814	-133.413	118.604	-31.933	-133.480	-128.850	197.920	-66.346	-129.041	-125.204	-125.054	-119.551	76.150	-121.312	-8191	255	
28580.320	1	1	0	0	0.26744	0.1401	0.24228	0.32428	0.12801	0.087013	0.27788	0.10883	0.3559	0.20829	0.021413	0.34356	0.42218	0.30507	0.21982	0.15553	-1.6313	-1.6604	-2.4	-1.7354	-1.925	-2.2292	-1.9729	-2.3125	-2.0417	-1.5521	-2.3875	-1.8875	-1.8146	-2.4813	-1.5812	-2.4896	200.146	-35.299	147.678	-141.664	63.272	-146.197	153.506	163.822	86.687	4.675	104.257	155.248	206.050	-145.438	204.048	-140.725	0.00034577	0.001403	6.6886e-05	1056.3	5.2056e-06	2.6143e-05	1591.1	317.88	8.3278e-06	1.5878e-05	577.32	199.43	99.934	39.065	1.0782e-05	91.662	0.0047439	0.0052474	0.0014376	1045.9	5.6445e-05	5.7003e-05	1474.6	307.46	5.5756e-05	5.6898e-05	568.3	194.34	107.97	40.737	5.6022e-05	87.338	189.327	-99.764	85.020	-134.073	-134.871	197.222	-133.859	-128.874	-50.587	89.654	-129.239	-125.330	-125.116	-120.055	-76.463	-121.103	-8191	255	
28580.416	1	1	0	0	0.10779	0.15667	0.10209	0.36616	0.24039	0.16252	0.28949	0.084258	0.22944	0.034431	0.28685	0.46976	0.38013	0.20532	0.18059	0.094379	-1.8771	-1.6375	-2.225	-1.9896	-1.6708	-2.3333	-1.8021	-2.1021	-2.3187	-1.6979	-2.2021	-2.0875	-1.6313	-2.5646	-1.6646	-2.1542	208.958	-5.974	-75.731	154.488	-138.039	11.953	167.183	55.362	64.269	128.787	-124.568	-134.348	-117.491	174.361	139.271	86.775	0.00076317	0.0012868	0.00098902	1052.4	1.4813e-05	3.588e-05	1583.1	315.97	1.2503e-05	2.2279e-05	575.69	201.06	97.61	38.67	3.7474e-05	90.827	0.0046474	0.0051732	0.0014148	1039.6	5.5271e-05	5.5731e-05	1467.4	305.74	5.5735e-05	5.6341e-05	565.64	194.36	107.36	40.453	5.6543e-05	87.238	-124.078	48.860	-60.270	-133.904	-27.741	-8.583	-133.322	-129.473	171.436	-9.358	-128.972	-125.021	-124.950	-119.435	-31.624	-120.941	-8191	255	
28580.512	1	1	0	0	0.31056	0.029211	0.16218	0.24868	0.28286	0.16184	0.4	0.19937	0.15355	0.14072	0.057703	0.2569	0.092311	0.39127	0.14289	0.2366	-1.7812	-1.3104	-2.4188	-2.2521	-1.6187	-2.3667	-1.8104	-2.0854	-2.2313	-1.4625	-2.4292	-2.2542	-1.6208	-2.3792	-1.6625	-1.9854	137.569	86.112	148.683	198.266	178.628	-124.100	170.818	61.383	-49.765	-101.057	133.290	178.619	154.798	157.802	-96.483	109.370	0.00037971	0.0037669	0.00058684	1042.9	1.5417e-05	2.8888e-06	1576.2	314.37	8.7432e-06	1.1341e-05	574.37	200.43	98.664	38.431	1.4003e-05	90.897	0.0047089	0.0051883	0.0014208	1038.1	5.5307e-05	5.6204e-05	1468	305.34	5.4921e-05	5.5768e-05	564.57	193.71	106.65	40.079	5.4232e-05	86.859	202.635	-82.702	-61.957	-133.561	142.350	146.022	-133.546	-129.239	4.709	208.239	-129.243	-125.614	-125.007	-119.560	-133.689	-121.479	-8191	255	
28580.607	1	1	0	0	0.081861	0.33668	0.21687	0.2457	0.036602	0.22614	0.35084	0.23641	0.37568	0.17824	0.23414	0.092198	0.076038	0.34712	0.21455	0.16275	-2.0458	-1.5688	-2.2979	-2.2292	-1.4396	-2.5687	-1.9625	-1.8896	-2.3229	-1.4104	-2.2417	-2.0312	-1.4833	-2.2833	-1.8208	-1.8708	27.652	108.106	-135.764	195.786	24.246	72.857	140.832	140.946	67.859	-1.649	189.756	-28.270	-109.633	138.662	8.908	192.984	0.00068542	0.0010332	0.00029248	1054.5	1.3455e-05	9.0603e-06	1576	314.81	1.147e-05	9.1179e-06	565.11	198.76	96.474	38.346	1.0608e-05	89.885	0.0045434	0.0049855	0.0013735	1031	5.2968e-05	5.3447e-05	1460.2	302.7	5.2814e-05	5.3577e-05	554.57	191.39	104.94	39.695	5.3843e-05	85.908	-138.076	-74.500	-141.130	-134.129	93.021	11.391	-133.767	-128.889	48.935	-18.965	-129.330	-125.590	-124.714	-119.489	72.424	-121.367	-8191	255	
28580.729	1	1	0	0	0.33853	0.20573	0.085105	0.32451	0.18898	0.20101	0.2773	0.042861	0.063972	0.09159	0.28375	0.10537	0.28592	0.13049	0.13969	0.23556	-1.7563	-1.5458	-2.0667	-2.2875	-1.4375	-2.3438	-2.1063	-1.7687	-2.2208	-1.8375	-2.0375	-2.2875	-1.5083	-2.4313	-1.9562	-1.725	139.859	88.432	204.166	161.812	129.123	38.864	153.443	-32.902	190.624	119.189	-141.257	63.788	157.660	172.480	78.306	90.789	0.00046635	0.0016002	0.00025746	1040.1	2.0268e-06	8.4565e-06	1565.6	308.83	2.1991e-05	2.5259e-05	570.92	197.58	96.35	38.377	1.6711e-05	90.179	0.004454	0.0049306	0.0013683	1025.5	5.3378e-05	5.4087e-05	1450.6	300.08	5.333e-05	5.4094e-05	558.45	191.08	105.03	39.925	5.477e-05	86.575	-128.288	144.422	76.622	-133.696	124.878	-74.810	-133.958	-128.892	12.047	-57.157	-129.428	-125.375	-124.710	-120.212	-77.161	-121.357	-8191	255	
28580.822	1	1	0	0	0.073198	0.21186	0.26721	0.38333	0.095423	0.1592	0.4301	0.11164	0.3437	0.12404	0.32446	0.14033	0.080252	0.3553	0.062739	0.37499	-1.9771	-1.7625	-1.7146	-2.4875	-1.4646	-2.2917	-2.1937	-1.5375	-2.4167	-1.6854	-1.9354	-2.4271	-1.5646	-2.2229	-2.05	-1.9	199.043	57.878	77.475	202.478	71.774	-14.289	179.867	-117.242	51.292	-16.114	-130.666	147.681	65.231	211.893	202.536	153.177	0.00053031	0.00067812	0.00033089	1047.3	1.262e-05	1.3906e-05	1576.1	309.29	3.0699e-06	5.3253e-06	565.47	198.34	96.472	38.814	1.6474e-05	90.649	0.0045739	0.0050636	0.0014272	1029.3	5.4088e-05	5.5451e-05	1459.1	299.03	5.3135e-05	5.4594e-05	555.75	191.01	104.36	39.957	5.383e-05	86.623	-131.187	161.117	44.481	-134.322	198.438	-128.741	-133.676	-128.870	38.930	57.405	-129.399	-125.619	-124.933	-119.550	79.861	-121.180	-8191	255	
28580.920	1	1	0	0	0.11328	0.17211	0.20267	0.41275	0.026605	0.028513	0.22237	0.19169	0.29974	0.21971	0.12084	0.14842	0.39843	0.18061	0.26258	0.28335	-1.8563	-1.7125	-1.5708	-2.4062	-1.4479	-1.9333	-2.2917	-1.7354	-2.2958	-1.8521	-1.9771	-2.4792	-1.7208	-2.0438	-2.1688	-1.8021	152.613	88.749	138.909	-125.915	14.779	6.701	106.520	179.020	185.314	56.171	-126.153	147.611	174.353	-19.861	-28.213	173.456	0.00075546	0.0021805	0.00037577	1047.4	1.9572e-05	2.927e-05	1566.8	310.06	1.3835e-05	2.1433e-05	562.25	198.36	97.287	38.295	5.3172e-06	91.258	0.0044377	0.004942	0.0013645	1022.1	5.342e-05	5.4171e-05	1452	298.88	5.3383e-05	5.4478e-05	555.48	191.55	104.62	39.978	5.4626e-05	86.749	211.517	7.690	-131.592	-133.468	-50.529	-106.166	-133.670	-129.216	39.619	128.738	-129.221	-125.453	-124.608	-119.515	-131.924	-121.392	-8191	255	
28580.990	1	1	0	0	0.14697	0.29031	0.15773	0.34874	0.20405	0.33641	0.15643	0.32567	0.13482	0.055836	0.057934	0.31596	0.39045	0.31398	0.18002	0.34733	-1.7417	-1.8542	-1.6604	-2.5333	-1.5083	-1.8354	-2.4021	-1.8958	-2.1958	-1.9667	-1.825	-2.4313	-1.7375	-1.8833	-2.3771	-1.6313	-65.844	-42.970	-138.220	178.633	20.898	96.570	169.388	89.016	-107.715	-61.844	75.277	180.163	156.480	146.235	-49.889	174.368	0.00094897	0.001486	0.00070514	1045.9	1.0206e-05	2.8335e-05	1566.3	308.39	1.0223e-05	2.7091e-05	565.15	196.73	95.157	38.304	5.3816e-06	89.971	0.0045021	0.0049786	0.0013891	1022.1	5.4328e-05	5.4836e-05	1450.2	297.58	5.4008e-05	5.5231e-05	555.04	189.88	103.91	39.901	5.5116e-05	86.169	183.717	149.861	188.513	-133.756	11.931	21.318	-133.925	-128.827	-30.560	47.678	-128.445	-125.678	-125.337	-119.612	28.634	-121.557	-8191	255	
28581.111	1	1	0	0	0.15239	0.15031	0.023133	0.11738	0.09488	0.16165	0.24359	0.16869	0.18675	0.088158	0.26639	0.34434	0.22174	0.069346	0.065963	0.02517	-1.8771	-2.0875	-1.3833	-2.3792	-1.5667	-1.6375	-2.5396	-1.7625	-2.2875	-2.2875	-1.525	-2.3854	-1.8625	-1.7333	-2.4458	-1.7479	173.215	-27.288	164.519	133.729	140.647	-25.745	137.418	130.912	45.182	-53.714	118.142	123.194	-102.917	60.979	-90.115	-84.399	0.00089622	0.0025536	0.00087268	1036.6	8.4955e-06	1.9705e-05	1573.3	308.31	2.5321e-05	8.48e-06	561.05	195.16	95.651	38.232	2.3434e-05	91.08	0.0045785	0.0051629	0.0014226	1018.7	5.4936e-05	5.5888e-05	1452.7	297.79	5.5027e-05	5.601e-05	552.13	189.79	104.82	40.027	5.638e-05	87.04	-117.907	-24.373	-82.595	-134.232	58.168	1.081	-133.472	-128.773	2.483	-38.540	-129.081	-125.193	-124.395	-119.669	3.225	-121.236	-8191	255	
28581.207	1	1	0	0	0.1406	0.2349	0.086564	0.22587	0.17496	0.2917	0.25773	0.17164	0.12264	0.20259	0.28766	0.31186	0.45497	0.14276	0.067971	0.13567	-1.525	-2.3708	-1.5604	-2.3771	-1.8792	-1.475	-2.7458	-1.6688	-2.0417	-2.1833	-1.4792	-2.3	-1.8875	-1.7125	-2.3604	-1.9479	-97.918	-44.425	-117.573	144.500	-38.798	-33.927	138.409	211.072	193.398	-3.029	-106.328	140.373	185.969	-86.401	-60.595	144.310	0.00052272	0.0020722	0.00045968	1038	9.6712e-06	3.4142e-05	1556	306.24	1.3042e-05	2.7715e-05	563.29	194.64	94.267	38.479	1.2946e-05	91.398	0.0046869	0.0052115	0.0014363	1020.8	5.6484e-05	5.6986e-05	1446.9	297.56	5.6585e-05	5.7782e-05	556.48	190.43	105.05	40.758	5.7965e-05	88.173	-121.998	97.307	171.051	-133.700	-49.980	152.833	-133.947	-129.063	31.197	99.855	-129.027	-125.523	-124.941	-119.887	153.139	-121.425	-8191	255	
28581.305	1	1	0	0	0.27001	0.036222	0.07042	0.1857	0.12817	0.10675	0.23698	0.21882	0.044549	0.10756	0.23268	0.097037	0.18549	0.27718	0.19758	0.052465	-1.4042	-2.2375	-1.4312	-2.2854	-2.0833	-1.5	-2.575	-1.8375	-1.6854	-2.3917	-1.5896	-2.1979	-2.2708	-1.55	-2.4021	-1.9562	-97.218	156.712	206.399	-54.419	51.886	21.536	69.000	-1.567	188.365	-138.471	-65.819	54.171	192.471	173.399	151.009	141.339	0.00022092	0.0012659	0.00061274	1039.5	5.5234e-06	8.4911e-06	1564	305.93	8.6555e-06	2.5527e-05	563.87	196	96.057	38.869	2.641e-05	92.438	0.0048598	0.0053812	0.0014964	1032.4	5.7794e-05	5.8867e-05	1458	299.86	5.7413e-05	5.8895e-05	556.86	192.24	106.01	40.981	5.7244e-05	88.78	147.313	26.563	4.935	-133.950	-27.203	211.132	-133.327	-129.030	123.721	-41.506	-129.133	-125.732	-125.376	-119.998	1.823	-121.069	-8191	255	
28581.400	1	1	0	0	0.19655	0.1552	0.085588	0.36036	0.32063	0.12654	0.24993	0.26918	0.094979	0.36641	0.32702	0.10048	0.17285	0.39748	0.18157	0.034819	-1.3167	-2.375	-1.5833	-2.2604	-2.2958	-1.5021	-2.3312	-1.9917	-1.5562	-2.3979	-1.6229	-2.1458	-2.4188	-1.4667	-2.1771	-2.0979	-62.058	-136.729	39.102	173.730	-81.446	-68.171	143.595	139.037	147.075	-19.251	193.518	-122.550	148.279	146.401	-27.567	186.287	0.00060848	0.0014394	0.00037155	1034.8	1.3392e-05	4.5375e-05	1574.7	306.33	1.818e-05	1.9142e-05	563.32	196.64	95.651	39.385	1.2778e-05	91.648	0.0048699	0.0053016	0.0014626	1028.5	5.7662e-05	5.8063e-05	1460.1	299.57	5.6911e-05	5.7648e-05	555.61	192.28	105.88	40.96	5.6502e-05	88.231	-135.075	113.020	-18.821	-133.899	81.068	30.493	-134.117	-129.503	-91.500	-132.771	-129.436	-125.052	-125.553	-119.654	153.607	-121.222	-8191	255	
28581.521	1	1	0	0	0.24516	0.1631	0.25758	0.26798	0.22554	0.16986	0.16979	0.33738	0.066972	0.17325	0.14064	0.34374	0.24776	0.11106	0.10802	0.24255	-1.2604	-2.3583	-1.5438	-1.9979	-2.1792	-1.4771	-2.2667	-2.0062	-1.5146	-2.1479	-1.6812	-1.9458	-2.1875	-1.6042	-2.0583	-2.3083	-123.411	-1.233	-66.372	142.823	-0.599	156.760	-111.468	177.563	162.163	36.103	200.388	-124.201	178.488	-137.571	18.298	158.015	0.00063082	0.0018158	0.00073249	1041.4	8.0714e-06	5.091e-05	1574	307.19	1.8296e-06	2.9692e-05	558.36	195.85	95.083	38.74	1.0677e-05	91.932	0.0047845	0.0052003	0.0014463	1026.9	5.6003e-05	5.722e-05	1457.3	299.08	5.668e-05	5.679e-05	554.98	191.11	105.28	40.486	5.6081e-05	88.134	209.021	-80.670	-4.789	-134.205	-29.908	-21.703	-133.789	-129.789	107.413	130.489	-129.689	-125.043	-125.561	-120.141	-48.504	-121.183	-8191	255	
28581.594	1	1	0	0	0.26718	0.17757	0.050182	0.1206	0.097376	0.20551	0.088956	0.06588	0.18764	0.2198	0.19605	0.080016	0.19557	0.060474	0.12873	0.11766	-0.98542	-2.2792	-1.4604	-1.6833	-2.3646	-1.6021	-2.3292	-2.1167	-1.5271	-2.2229	-1.9917	-1.8583	-2.4167	-1.6063	-1.9625	-2.4688	0.381	-40.926	-127.983	-9.486	-92.192	117.734	168.486	22.956	190.508	195.796	116.177	-14.638	-84.487	42.231	27.125	92.116	0.00058762	0.00089921	0.00042667	1043.1	1.7624e-05	1.9594e-05	1563.4	305.12	9.6944e-06	1.1891e-05	557.73	197.39	96.206	38.583	8.3432e-06	91.639	0.0047171	0.0051667	0.0014389	1025.4	5.559e-05	5.5866e-05	1452.7	297.69	5.4659e-05	5.5218e-05	554.52	191.84	105.24	40.35	5.4558e-05	87.614	-140.272	-62.028	-68.256	-134.027	9.166	200.990	-133.483	-129.096	-41.042	180.491	-129.428	-124.851	-125.483	-120.193	115.869	-121.360	-8191	255	
28581.689	1	1	0	0	0.32932	0.2519	0.068054	0.16799	0.11003	0.17496	0.32182	0.40077	0.16172	0.20797	0.40803	0.30131	0.048076	0.092833	0.20384	0.16633	-1.1646	-2.3104	-1.875	-1.4458	-2.375	-1.4417	-2.075	-2.2771	-1.4771	-2.1396	-1.9708	-1.7146	-2.3438	-1.7083	-1.8208	-2.325	-133.848	129.592	-47.455	211.847	172.246	66.738	161.217	178.511	-137.459	193.530	-72.456	106.197	204.965	208.134	0.393	158.166	0.00056484	0.0013809	0.00016501	1056.7	3.0072e-05	2.1819e-05	1577.5	309.06	1.6513e-05	1.4131e-05	566.51	199.34	97.269	39.424	2.3933e-05	93.037	0.0045678	0.0049718	0.0013841	1031.3	5.3526e-05	5.4212e-05	1463.4	299.3	5.4325e-05	5.4438e-05	557.91	193.07	105.49	40.752	5.5322e-05	88.609	-124.588	-109.769	37.687	-134.074	3.327	27.566	-133.463	-129.447	99.668	107.318	-129.313	-125.740	-125.057	-119.986	50.904	-121.443	-8191	255	
28581.809	1	1	0	0	0.034363	0.2335	0.073575	0.30042	0.036037	0.30923	0.2883	0.2234	0.21534	0.13316	0.14618	0.14665	0.015564	0.32316	0.22485	0.12716	-0.91042	-2.1542	-2.0187	-1.6521	-2.2625	-1.5792	-1.7812	-2.3625	-1.5417	-1.9104	-2.1833	-1.6458	-2.3979	-2.0438	-1.6958	-2.5146	-94.041	102.597	-33.590	-104.745	72.487	208.740	122.430	-142.116	-145.272	145.972	179.931	134.193	122.320	156.911	-124.740	164.976	0.00054403	0.0015937	0.00024008	1055.1	5.1062e-06	1.877e-05	1585.9	311.28	9.8748e-06	2.7802e-05	565.94	199.47	96.439	39.123	7.6469e-06	92.129	0.004636	0.0050602	0.0014404	1037.8	5.499e-05	5.5541e-05	1465.3	301.38	5.4218e-05	5.4888e-05	557.26	192.92	105.66	40.547	5.4858e-05	87.987	206.333	-70.729	206.481	-133.776	13.563	6.479	-133.629	-129.116	-114.782	66.555	-129.751	-125.615	-125.110	-119.832	-39.040	-120.941	-8191	255	
28581.904	1	1	0	0	0.067958	0.2448	0.32587	0.2213	0.17517	0.17469	0.12993	0.22866	0.1752	0.25755	0.30384	0.26464	0.24538	0.24245	0.11708	0.28299	-1.2875	-2.0687	-2.0042	-1.6833	-2.2354	-1.9417	-1.7646	-2.2938	-1.5604	-1.9583	-2.3438	-1.3667	-2.1542	-1.9667	-1.5208	-2.6604	157.451	162.555	-37.539	147.084	141.637	-78.586	165.125	-95.295	-72.384	86.819	-144.314	129.514	190.428	106.191	17.720	119.007	0.00062937	0.00053223	0.0003421	1048.2	1.3023e-05	2.0806e-05	1578.5	308.37	6.9476e-06	8.5773e-06	563.99	199.46	95.936	39.062	4.3863e-05	92.635	0.0045434	0.0049334	0.0013866	1028.6	5.2955e-05	5.4233e-05	1461.1	298.28	5.2823e-05	5.371e-05	552.65	191.72	104.67	40.394	5.4629e-05	87.98	-125.698	-61.363	-100.038	-133.758	51.598	-142.206	-133.556	-129.186	210.718	-41.044	-129.208	-125.504	-125.356	-120.376	-14.122	-121.366	-8191	255	
28582.000	1	1	0	0	0.1865	0.073969	0.089427	0.34383	0.11287	0.19569	0.24849	0.37216	0.076092	0.10566	0.19985	0.40028	0.15408	0.15794	0.38047	0.10675	-0.95833	-1.7042	-2.2812	-1.5167	-2.3333	-2.0292	-1.8375	-2.5563	-1.7042	-1.6812	-2.4104	-1.7917	-2.1646	-2.1854	-1.35	-2.4208	146.935	6.519	18.232	144.397	167.606	-122.806	183.880	136.461	-128.079	-21.383	202.150	192.765	-87.020	155.425	162.943	160.552	0.00061726	0.00016282	0.00013339	1047.3	1.9757e-05	2.2596e-05	1574.9	307.49	6.5307e-07	2.4291e-05	563	197.63	97.292	38.814	2.1646e-05	92.448	0.0045207	0.004992	0.0013789	1028.9	5.3521e-05	5.5314e-05	1460.5	297.91	5.3763e-05	5.56e-05	556.58	191.88	105.41	40.654	5.5688e-05	88.481	-139.235	206.101	-74.996	-134.153	94.446	-20.118	-133.686	-129.560	-20.729	31.390	-129.690	-125.349	-125.190	-120.088	-5.218	-121.182	-8191	255	
28582.121	1	1	0	0	0.25497	0.14866	0.24955	0.1144	0.072815	0.14309	0.15964	0.23892	0.19606	0.071735	0.29275	0.049091	0.25346	0.39745	0.10292	0.36152	-1.4021	-1.6063	-2.3021	-1.6	-1.9896	-2.0604	-1.6667	-2.4333	-1.8146	-1.6688	-2.4729	-1.775	-2.0667	-2.45	-1.3208	-2.3021	-145.714	-97.672	189.216	-139.231	-50.348	-143.038	186.645	71.986	128.455	-82.590	185.586	172.441	-34.684	202.332	115.580	147.425	0.0007382	0.0019455	6.0524e-05	1056.6	8.1916e-06	1.2785e-05	1590.1	308.6	1.5202e-05	4.6417e-06	567.15	199.76	97.175	39.502	1.1995e-05	93.051	0.0046852	0.0051619	0.0014193	1036	5.537e-05	5.6383e-05	1469.4	299.81	5.524e-05	5.6545e-05	557.07	193.33	106.77	41.176	5.5595e-05	88.885	202.114	179.172	-87.064	-134.417	125.002	186.906	-133.769	-129.503	2.239	49.024	-129.351	-125.801	-125.506	-119.967	185.358	-121.471	-8191	255	
28582.217	1	1	0	0	0.06394	0.11268	0.056156	0.17496	0.21787	0.21664	0.45885	0.26611	0.054735	0.13299	0.16553	0.24793	0.1487	0.21119	0.40854	0.27195	-1.5896	-1.5875	-2.375	-1.4937	-1.7875	-2.225	-1.6958	-2.3417	-1.9542	-1.4292	-2.5687	-1.9562	-1.8604	-2.3292	-1.5125	-2.2167	147.574	-105.164	68.090	209.860	190.519	-16.891	161.125	207.675	2.838	-25.713	210.000	175.140	211.651	-84.422	77.550	121.089	0.00065566	0.0025905	0.00015945	1056.4	1.0011e-05	3.7263e-05	1580.3	310.78	3.6434e-06	1.5654e-05	569.61	198.69	96.383	39.363	9.9025e-06	92.893	0.0046371	0.0051133	0.0014096	1038.2	5.4881e-05	5.6444e-05	1468.2	301.59	5.5686e-05	5.6081e-05	561.57	194.37	105.96	41.059	5.614e-05	88.951	-143.269	-130.859	-2.655	-134.172	-9.812	83.624	-133.733	-128.962	88.652	-60.201	-129.587	-125.795	-125.194	-120.189	111.736	-121.364	-8191	255	
28582.287	1	1	0	0	0.11791	0.18906	0.16428	0.048842	0.099959	0.14416	0.14137	0.06651	0.029688	0.2805	0.17435	0.15326	0.17465	0.095373	0.23428	0.36861	-1.6333	-1.5042	-2.0438	-1.7625	-1.6604	-2.2313	-1.6667	-2.2625	-2.2854	-1.5688	-2.5042	-1.9646	-1.8563	-2.4896	-1.7083	-2.1125	170.003	33.184	59.742	-143.521	45.770	16.436	152.733	53.264	-105.498	113.674	158.864	187.721	-125.929	134.260	67.855	158.482	0.00076009	0.0022046	0.00023661	1047.3	2.2744e-05	2.0529e-05	1581.1	309.3	8.1291e-06	3.4046e-05	565.77	199.11	97.215	38.847	8.6475e-06	91.616	0.0047142	0.0052001	0.0014276	1040.7	5.6396e-05	5.6929e-05	1467.8	301.49	5.6647e-05	5.7673e-05	560.02	194.14	107.04	40.826	5.8327e-05	88.458	-141.196	111.548	174.863	-134.026	-3.417	75.055	-134.140	-129.371	86.771	150.651	-129.607	-125.409	-124.946	-120.153	-4.213	-121.085	-8191	255	
28582.385	1	1	0	0	0.19488	0.071728	0.15971	0.22337	0.21521	0.1216	0.031083	0.20086	0.089605	0.28878	0.15541	0.16482	0.14552	0.21835	0.1234	0.16971	-1.7958	-1.4792	-2.3312	-2.1167	-1.55	-2.4875	-1.6625	-2.0563	-2.35	-1.4396	-2.4062	-2.0312	-1.6396	-2.5479	-1.4896	-1.7437	111.970	-131.642	-117.831	-73.519	94.346	154.215	40.572	205.119	53.306	-47.115	155.078	172.786	208.663	-144.800	-22.178	-92.864	0.00067032	0.0020552	0.00038011	1036.6	1.9154e-05	2.1401e-05	1577.9	309.19	2.0929e-05	1.3272e-05	563.78	198.36	94.736	38.87	2.1991e-05	91.72	0.0049326	0.0054024	0.00149	1041.3	5.9275e-05	6.0309e-05	1470.3	303.53	5.9726e-05	6.0164e-05	564.07	194.5	107.65	41.211	6.1125e-05	88.948	-121.739	-126.776	-60.839	-134.287	7.390	2.539	-133.929	-128.932	-19.004	14.827	-129.258	-125.551	-125.196	-119.705	-137.143	-121.258	-8191	255	
28582.506	1	1	0	0	0.22529	0.32637	0.25577	0.17404	0.22605	0.35839	0.49112	0.28989	0.19386	0.1978	0.18146	0.25371	0.22571	0.11969	0.13125	0.15318	-1.9479	-1.4937	-2.1708	-2.1396	-1.4604	-2.4917	-1.9521	-1.875	-2.3042	-1.4917	-2.325	-2.3208	-1.5542	-2.3229	-1.7167	-1.8417	-95.547	9.586	171.795	200.167	-72.692	164.394	146.051	163.791	78.973	-70.722	187.567	172.311	-93.499	149.755	-116.104	-143.755	0.00047837	0.0018887	0.00030202	1052.1	2.1614e-05	1.7961e-05	1569.9	307.77	1.9133e-05	9.1143e-06	562.7	198.95	96.45	39.276	8.2836e-06	92.637	0.0051152	0.0055961	0.001568	1047	6.0493e-05	6.0733e-05	1471.4	302.85	6.0743e-05	6.0922e-05	566.1	195.14	107.89	41.395	6.083e-05	89.816	-141.127	124.983	-113.983	-134.057	-20.973	40.979	-133.715	-129.240	-1.399	-23.876	-129.442	-125.439	-125.104	-119.786	23.448	-121.104	-8191	255	
28582.602	1	1	0	0	0.0093387	0.062499	0.025119	0.14861	0.16967	0.074143	0.23409	0.34805	0.22738	0.051893	0.15925	0.15574	0.20544	0.031387	0.16334	0.15058	-2.0104	-1.5688	-1.9979	-2.2792	-1.4312	-2.3083	-1.9396	-1.8333	-2.4854	-1.6063	-1.975	-2.2271	-1.5458	-2.2021	-1.9875	-1.7	81.845	203.776	-18.307	192.234	-145.715	95.686	138.561	182.568	-127.510	-53.310	-2.560	196.360	-137.904	-94.674	119.963	188.254	0.00069879	0.0017541	0.00034992	1048.2	1.6347e-05	2.36e-05	1583.2	307.47	1.3493e-05	2.4634e-05	563.18	199.63	96.216	38.804	1.649e-05	92.066	0.005058	0.0055098	0.0015533	1046.5	6.027e-05	6.0025e-05	1477.8	302.08	5.9353e-05	5.9845e-05	564.03	195.02	107.28	41.139	5.9913e-05	89.146	-133.968	156.557	57.396	-134.130	86.231	156.218	-133.858	-128.831	54.220	85.336	-128.855	-125.400	-125.248	-120.111	-123.210	-121.137	-8191	255	
28582.697	1	1	0	0	0.29251	0.06109	0.10445	0.22441	0.13711	0.21254	0.24122	0.16788	0.059876	0.29149	0.071627	0.18838	0.12603	0.11709	0.1483	0.34441	-1.9646	-1.4729	-1.7708	-2.1604	-1.4833	-2.1854	-2.2146	-1.6479	-2.3688	-1.7021	-1.7833	-2.4542	-1.5479	-2.1937	-2.0604	-1.525	-66.388	-35.053	7.970	-143.221	48.211	-56.467	122.109	105.987	103.976	-49.630	-132.584	-113.115	100.594	-140.877	-84.754	179.774	0.00066899	0.0010457	0.0005614	1055.5	9.9031e-06	1.8373e-05	1575.2	308.8	1.2682e-05	1.9732e-05	558.71	198	94.943	38.726	1.432e-05	91.866	0.004951	0.0054825	0.0015317	1047.2	5.9418e-05	5.985e-05	1472.4	302.52	5.9029e-05	6.0143e-05	562.16	194.46	107.01	41.168	6.1138e-05	88.945	-104.381	-50.768	-116.707	-134.271	141.374	199.913	-134.047	-129.526	32.644	-109.445	-129.812	-125.666	-125.168	-120.577	30.716	-121.720	-8191	255	
28582.795	1	1	0	0	0.26239	0.096834	0.054338	0.23367	0.11864	0.2056	0.32182	0.17131	0.18872	0.17213	0.070127	0.25724	0.2089	0.32453	0.14727	0.33548	-1.925	-1.5938	-1.6125	-2.4167	-1.2854	-2.1104	-2.3208	-1.5063	-2.225	-1.7229	-1.7479	-2.5208	-1.575	-1.9708	-2.1167	-1.8062	98.910	159.236	57.674	187.445	60.015	131.089	154.120	150.395	-140.141	22.769	13.629	185.067	69.978	178.333	102.236	186.113	0.00057234	0.0020488	0.00042255	1046.8	6.6966e-06	8.8131e-06	1572.1	302.32	1.6946e-05	4.2734e-06	557.8	198.19	96.138	38.258	1.2972e-05	91.349	0.0050475	0.0056036	0.0015799	1048	6.0799e-05	6.1751e-05	1471.6	301.03	6.0655e-05	6.2038e-05	562.31	194.44	107.82	41.022	6.2041e-05	88.744	-143.530	-118.102	57.930	-134.484	144.115	-10.491	-133.970	-129.578	179.217	140.702	-129.274	-125.745	-125.451	-119.945	-99.110	-121.646	-8191	255	
28582.891	1	1	0	0	0.057605	0.069366	0.39833	0.065589	0.25692	0.23885	0.081727	0.20993	0.065265	0.2952	0.37689	0.11844	0.25874	0.21782	0.10773	0.15777	-2.0417	-1.8104	-1.4813	-2.5479	-1.4646	-1.9188	-2.4062	-1.4771	-2.1542	-1.8833	-1.8208	-2.3979	-1.8646	-2	-2.3458	-1.5688	201.624	-120.473	109.497	17.705	-56.358	-42.854	133.694	-87.672	39.659	-21.384	-139.666	60.529	-80.018	148.419	-92.233	-62.472	0.00067475	0.0017092	0.00044116	1040.2	8.485e-06	1.6524e-05	1570.1	303.71	1.278e-05	1.0149e-05	560.54	196.64	94.853	37.894	1.2498e-05	91.448	0.0051804	0.0058195	0.0016208	1044.8	6.29e-05	6.3631e-05	1478.9	301.89	6.3014e-05	6.51e-05	566.24	194.88	108.71	41.259	6.5082e-05	89.666	-111.456	29.321	121.003	-134.328	-94.325	57.405	-133.644	-129.694	17.152	-20.374	-129.122	-125.929	-125.206	-119.701	-31.896	-121.548	-8191	255	
28582.984	1	1	0	0	0.2726	0.25566	0.0061942	0.30826	0.044997	0.08818	0.17943	0.11448	0.25665	0.04217	0.20568	0.3544	0.24522	0.20123	0.099059	0.19799	-1.6646	-2.0833	-1.6083	-2.4792	-1.7625	-1.8896	-2.5708	-1.8312	-1.9875	-2.1708	-1.6125	-2.5125	-1.9438	-1.8042	-2.2229	-1.7646	118.703	22.251	133.222	197.026	140.987	15.607	145.865	155.476	-9.029	-94.760	-137.257	161.324	190.275	80.042	18.016	131.502	0.00056259	0.00092255	0.00041978	1031.9	1.5198e-05	2.9558e-05	1564	302.07	6.7397e-06	2.2733e-05	557.84	198.7	94.778	38.204	2.0302e-05	91.344	0.00545	0.0060513	0.001684	1052.9	6.5541e-05	6.6723e-05	1485.3	303.3	6.5621e-05	6.7526e-05	572.12	197.03	109.52	41.564	6.6717e-05	89.47	180.630	193.705	-115.093	-134.584	-76.985	86.434	-133.934	-129.238	120.862	103.184	-129.180	-125.297	-124.886	-119.610	-135.911	-121.523	-8191	255	
28583.082	1	1	0	0	0.3737	0.14231	0.1078	0.22065	0.21118	0.15912	0.11913	0.14199	0.19722	0.18092	0.21898	0.12836	0.12883	0.044597	0.13299	0.26319	-1.5521	-2.0604	-1.675	-2.5396	-1.8312	-1.7521	-2.5875	-1.6125	-1.9708	-2.3125	-1.6354	-2.3729	-1.9021	-1.7333	-2.3937	-1.9062	-83.812	-92.713	-32.268	152.183	152.179	196.927	184.799	-138.486	155.922	11.967	165.008	103.322	21.290	-119.464	-78.825	133.180	0.00058286	0.00095435	0.00071996	1032.5	1.3739e-05	2.796e-05	1562.4	303.81	6.3411e-06	1.5009e-05	560.62	195.26	94.234	37.59	1.7015e-05	89.93	0.0054799	0.0060323	0.0016653	1050	6.4849e-05	6.5796e-05	1474.8	302.36	6.4408e-05	6.6057e-05	566.76	194.61	108.67	41.077	6.5328e-05	88.26	211.551	30.415	124.642	-134.010	-37.372	41.677	-133.818	-129.123	46.686	87.905	-129.449	-125.625	-124.834	-119.844	-25.376	-120.991	-8191	255	
28583.201	1	1	0	0	0.12849	0.15944	0.028502	0.14491	0.15469	0.18195	0.38018	0.18685	0.2473	0.060388	0.1597	0.22669	0.27845	0.31869	0.27634	0.28691	-1.3521	-2.2562	-1.6146	-2.5771	-2.0875	-1.6167	-2.5396	-2.0354	-1.8396	-2.3812	-1.6021	-2.5479	-2.2729	-1.5646	-2.3792	-1.7604	170.627	-140.112	-46.805	117.605	178.370	-38.503	196.982	181.996	-86.130	-100.040	122.361	205.879	187.478	184.330	-134.246	103.983	0.00028699	0.0013511	0.00048939	1032.5	4.934e-06	2.1573e-05	1560.4	302.49	2.0141e-05	1.2978e-05	553.56	194.81	94.622	37.842	2.3636e-05	90.244	0.0054827	0.0060452	0.0016783	1046.9	6.5433e-05	6.5802e-05	1473.5	301.5	6.3807e-05	6.4416e-05	561.37	193.75	107.38	40.531	6.2571e-05	87.682	-136.448	-123.027	143.583	-133.739	29.130	9.225	-133.540	-129.134	-112.115	17.376	-129.393	-125.157	-124.900	-119.894	181.149	-121.740	-8191	255	
28583.297	1	1	0	0	0.21004	0.14249	0.22659	0.17657	0.19895	0.26351	0.33315	0.039849	0.30888	0.11205	0.30675	0.16999	0.14299	0.23833	0.043326	0.095457	-1.1417	-2.2292	-1.6458	-2.1792	-2.2938	-1.5667	-2.5167	-2.0687	-1.5562	-2.325	-1.6958	-2.2125	-2.2646	-1.575	-2.2917	-2.1729	164.738	6.737	9.620	156.187	177.951	99.707	181.167	122.883	86.036	76.113	190.896	193.411	110.634	-142.624	-12.405	-133.071	0.00021322	0.0020416	0.00024017	1025.2	1.283e-05	2.5474e-05	1562.4	301.8	2.0111e-05	2.5305e-05	552.65	196.23	93.378	37.57	2.5262e-05	89.854	0.0052117	0.0056735	0.001567	1032	6.0596e-05	6.0932e-05	1457	296.47	5.9052e-05	5.9126e-05	553.25	191.41	104.97	40.003	5.7544e-05	86.831	194.004	173.975	-93.313	-133.987	57.557	-103.059	-134.024	-129.371	175.855	21.862	-129.422	-125.274	-125.655	-119.891	-3.488	-121.522	-8191	255	
28583.393	1	1	0	0	0.1296	0.24327	0.22116	0.1904	0.094406	0.052351	0.27263	0.30472	0.50683	0.13541	0.1291	0.26185	0.25452	0.085184	0.32817	0.28985	-1.225	-2.5396	-1.5292	-1.9896	-2.3542	-1.65	-2.3833	-2.1521	-1.5312	-2.3312	-1.85	-2	-2.2625	-1.7271	-2.2062	-2.3146	117.975	82.205	59.509	-33.017	-69.622	-121.115	123.411	193.696	58.007	62.663	126.494	-127.450	-136.150	-88.886	77.867	160.049	0.00046174	0.00076786	0.0006207	1032.4	8.6982e-06	2.0455e-05	1560.9	302.84	1.2332e-05	2.0197e-05	555.13	195.61	93.778	37.717	8.8407e-06	89.912	0.0048619	0.0052927	0.0014667	1025.8	5.731e-05	5.7447e-05	1454.9	295.99	5.7409e-05	5.7619e-05	552.68	191.4	104.87	39.807	5.8667e-05	86.787	172.987	-123.106	-45.410	-133.885	150.533	-134.909	-134.241	-130.005	-2.578	-69.715	-129.985	-125.859	-125.626	-120.320	-109.686	-121.496	-8191	255	
28583.488	1	1	0	0	0.072394	0.064717	0.034046	0.30683	0.15474	0.18958	0.14546	0.42245	0.16815	0.12985	0.21158	0.14849	0.10212	0.16517	0.10709	0.11132	-1.0729	-2.2812	-1.5208	-1.6187	-2.3042	-1.6729	-2.2188	-2.2562	-1.5229	-2.2479	-2.0875	-1.8438	-2.5375	-1.5792	-2.0542	-2.425	163.126	-38.271	-121.652	95.733	198.418	156.131	178.937	70.015	101.245	149.149	150.603	188.405	-121.859	-58.102	-86.647	186.026	0.00044863	0.0016088	0.00047925	1022.6	3.1574e-05	1.8398e-05	1543.7	297.97	7.4565e-06	1.8054e-05	544.84	195.24	94.033	37.302	2.2234e-05	89.272	0.0049107	0.0054162	0.0015048	1024.6	5.8519e-05	5.9223e-05	1446	293.48	5.756e-05	5.8236e-05	546.85	190.19	103.89	39.373	5.7241e-05	86.099	-130.884	-82.108	-29.809	-134.381	-62.981	122.917	-134.252	-129.745	25.644	168.021	-129.595	-125.932	-125.137	-120.307	-55.617	-121.627	-8191	255	
28583.586	1	1	0	0	0.27094	0.20686	0.053659	0.16012	0.16346	0.19026	0.12744	0.24613	0.14667	0.20764	0.15643	0.12667	0.30799	0.073047	0.15174	0.33742	-0.95625	-2.1	-1.7521	-1.8542	-2.2604	-1.4354	-2.1312	-2.3896	-1.5521	-2.525	-2.0396	-1.6271	-2.4917	-1.7854	-1.6896	-2.4833	-22.744	189.602	-80.144	99.678	167.213	-15.517	72.302	196.555	112.354	153.613	56.164	193.431	169.481	-99.588	68.829	120.245	0.0004626	0.0026686	0.00037327	1019.1	1.3474e-05	2.4562e-05	1537.4	298.69	8.8335e-06	2.0581e-06	549.88	193.04	92.932	37.028	1.3134e-05	87.95	0.0048215	0.0052991	0.0014685	1014.6	5.6666e-05	5.7552e-05	1434.7	292.38	5.671e-05	5.7095e-05	545.17	188.98	102.72	39.033	5.6287e-05	85.11	-147.074	199.663	197.078	-134.640	132.978	69.886	-134.231	-129.703	-48.836	27.099	-130.288	-125.408	-125.361	-120.718	147.649	-121.807	-8191	255	
28583.682	1	1	0	0	0.16729	0.20924	0.10907	0.23629	0.080748	0.15772	0.3589	0.37103	0.47739	0.12891	0.41064	0.26522	0.14804	0.24393	0.10678	0.10432	-1.2792	-2.1667	-2.0083	-1.6458	-2.4333	-1.775	-2.0208	-2.4062	-1.4854	-2.1771	-2.2667	-1.6958	-2.375	-1.7854	-1.8958	-2.4833	74.484	-47.729	140.951	161.197	137.691	105.550	165.993	137.468	-82.328	-115.782	126.496	156.750	0.492	197.470	-35.294	15.708	0.00036566	0.0021023	0.00061976	1012.8	1.4605e-05	1.4446e-05	1539.7	297.21	4.7655e-06	7.2594e-06	547.64	194.62	92.179	36.835	3.6267e-05	87.963	0.0047542	0.0052352	0.0014618	1008.3	5.6568e-05	5.7524e-05	1433	291.12	5.6859e-05	5.7341e-05	545.58	188.98	103.2	39.059	5.786e-05	85.171	-141.498	-147.206	-87.267	-134.316	76.611	-5.546	-134.312	-129.964	-121.467	-69.865	-129.986	-125.906	-125.874	-120.388	69.857	-121.848	-8191	255	
28583.803	1	1	0	0	0.33175	0.2559	0.22844	0.13293	0.27779	0.27355	0.31907	0.13649	0.027259	0.01779	0.31528	0.30358	0.12839	0.058013	0.037513	0.29197	-1.1292	-2.1021	-2.2458	-1.5896	-2.2354	-1.8458	-1.7437	-2.5729	-1.7333	-2.0479	-2.1875	-1.7021	-2.5208	-2.0896	-1.6667	-2.5312	15.774	136.776	-85.332	153.726	81.307	202.555	143.097	152.913	93.814	181.753	185.687	173.773	209.135	-75.593	-8.746	157.459	0.00068003	0.00088926	0.00043031	1015.9	3.1915e-05	6.0091e-06	1534.3	295.51	6.0986e-06	1.1712e-05	549.07	192.03	91.977	36.384	4.3383e-06	88.265	0.0048012	0.0053518	0.0014993	1009.2	5.7564e-05	5.8341e-05	1432.9	291.1	5.7806e-05	5.8218e-05	546.25	188.83	102.93	39.002	5.8198e-05	85.036	190.705	-75.580	-115.300	-134.838	-58.572	131.765	-134.244	-129.861	-84.605	-48.870	-130.199	-126.056	-126.123	-121.209	17.366	-122.014	-8191	255	
28583.898	1	1	0	0	0.18036	0.043662	0.094965	0.27345	0.07103	0.31619	0.24926	0.11054	0.29695	0.11002	0.2135	0.33539	0.2453	0.29917	0.41128	0.29962	-1.2125	-1.8813	-2.3917	-1.4937	-2.1833	-2.0354	-1.8354	-2.5104	-1.6417	-1.7729	-2.4146	-1.7833	-2.2708	-2.2792	-1.6042	-2.5854	158.812	142.510	79.598	166.861	-128.346	175.260	161.480	169.058	83.766	9.999	-115.302	145.517	-50.349	186.077	-25.024	128.275	0.00049313	0.00163	0.00056903	1001	6.5348e-06	1.7451e-05	1526.4	292.99	3.7691e-06	1.2025e-05	542.69	191.94	90.301	36.367	1.3377e-05	86.276	0.0048845	0.0053456	0.001489	1007.3	5.7444e-05	5.8698e-05	1425	288.58	5.7152e-05	5.7867e-05	543.26	188.17	102	38.644	5.7376e-05	83.699	196.834	-46.445	-127.981	-134.782	-73.128	171.757	-134.123	-129.455	-8.606	137.327	-129.926	-126.118	-125.243	-120.341	-110.895	-121.922	-8191	255	
28583.992	1	1	0	0	0.43573	0.093206	0.15788	0.14441	0.18114	0.11023	0.17865	0.24168	0.39007	0.21778	0.21866	0.186	0.15028	0.090267	0.14435	0.18931	-1.4083	-1.825	-2.3917	-1.6708	-2.1292	-2.0521	-1.5354	-2.4604	-1.7271	-1.6896	-2.45	-1.7875	-2.2562	-2.2979	-1.5875	-2.3167	5.083	-70.096	20.125	209.141	181.168	-43.475	155.045	186.009	-1.528	202.127	65.125	196.952	-90.765	17.157	-101.921	91.340	0.00058808	0.0035266	0.00018605	1009	5.4499e-06	1.4813e-05	1523.7	292.52	7.7323e-06	1.5233e-05	547.66	192.19	91.249	35.888	2.5972e-05	86.416	0.0047323	0.0052221	0.0014437	997.24	5.5583e-05	5.7312e-05	1420.8	286.42	5.4944e-05	5.6107e-05	541.12	187.09	101.29	38.104	5.45e-05	83.379	-141.289	-143.288	-37.674	-134.400	114.321	-135.777	-134.135	-129.886	-32.807	-127.916	-129.942	-125.800	-125.658	-120.453	-15.264	-121.825	-8191	255	
28584.090	1	1	0	0	0.082107	0.14376	0.23378	0.28289	0.081734	0.11624	0.18633	0.1492	0.18265	0.24564	0.17504	0.21758	0.16646	0.11739	0.044383	0.18289	-1.625	-1.4688	-2.3	-1.7125	-1.8833	-2.1063	-1.7042	-2.25	-2	-1.4729	-2.5042	-1.6917	-1.8271	-2.1896	-1.4021	-2.1708	84.954	-90.028	55.885	175.152	48.962	94.705	140.283	49.261	-40.491	-5.868	207.485	151.751	144.122	-62.240	133.126	141.762	0.00035501	0.0028301	0.00040069	991.39	1.4058e-05	1.0978e-05	1532	293.5	9.8613e-06	1.2931e-05	543.69	191.95	90.417	36.474	3.103e-05	87.027	0.0045822	0.0050101	0.0013951	988.49	5.4243e-05	5.5039e-05	1412.4	285.92	5.4839e-05	5.4941e-05	535.96	186.96	100.86	38.249	5.5143e-05	84.171	208.576	-97.410	-95.862	-134.749	54.216	31.070	-134.644	-129.568	-34.091	-93.214	-130.183	-126.277	-126.438	-120.539	-46.693	-121.660	-8191	255	
28584.186	1	1	0	0	0.075992	0.13122	0.18541	0.081416	0.045833	0.062657	0.17801	0.12537	0.080099	0.086823	0.11295	0.13533	0.13054	0.24156	0.15736	0.024784	-1.5562	-1.2687	-2.3438	-1.7583	-1.5229	-2.3104	-1.7062	-2.2167	-1.9417	-1.4562	-2.2792	-1.9458	-1.7167	-2.3958	-1.5854	-2.0958	122.617	-115.871	-121.568	186.718	107.630	87.136	210.169	-33.083	-76.300	-11.525	-13.331	164.174	-142.788	204.027	-136.942	172.443	0.00047086	0.0010097	0.00032451	1001.5	2.3356e-05	1.0817e-05	1530.1	296.02	2.709e-06	5.7371e-06	545.98	194.29	92.464	36.554	1.3797e-05	88.6	0.0046199	0.0050915	0.0014074	998.74	5.5011e-05	5.6001e-05	1423.9	288.75	5.5586e-05	5.5845e-05	542.43	188.93	103.04	38.725	5.5941e-05	85.151	-129.549	162.221	-1.176	-134.394	6.162	-145.105	-134.454	-129.708	201.062	147.033	-130.066	-126.316	-125.895	-120.535	172.031	-122.010	-8191	255	
#DATA ENDS
