BOXY.EXE: ISS Imagent and Oximeter Data Acquisition Program Version 0.80
Ascii Record File

#ACQ INFORMATION
2  Detector Channels 
16  External MUX Channels 
1  Auxiliary Channels 
5000  Waveform (CCF) Frequency (Hz)
1  Waveforms Skipped 
30  Waveforms Averaged 
1  Cycles Averaged 
16  Acquisitions per Waveform 
10.0806  Updata Rate (Hz) 

#FILE INFORMATION
TRUE -- External MUX Channel results are PARSED.
FALSE -- AC DC and Phase are NOT grouped.
TRUE -- Companion Program Settings File CREATED.
FALSE -- AC data not excluded
FALSE -- DC data not excluded
FALSE -- Phase data not excluded
FALSE -- Auxillary Chn. data not excluded
Tab delimiters

#CALIBRATION STATE
TRUE -- Waveform Calibration Values APPLIED.


#AUX CALIBRATION VALUES
Val Type	aux-1	

Term	1.0000e+00	
Factor	0.0000e+00	


#WF CALIBRATION VALUES
A = Detector Channel
Val Type	A-AC1	A-AC2	A-AC3	A-AC4	A-AC5	A-AC6	A-AC7	A-AC8	A-AC9	A-AC10	A-AC11	A-AC12	A-AC13	A-AC14	A-AC15	A-AC16	A-DC1	A-DC2	A-DC3	A-DC4	A-DC5	A-DC6	A-DC7	A-DC8	A-DC9	A-DC10	A-DC11	A-DC12	A-DC13	A-DC14	A-DC15	A-DC16	A-Ph1	A-Ph2	A-Ph3	A-Ph4	A-Ph5	A-Ph6	A-Ph7	A-Ph8	A-Ph9	A-Ph10	A-Ph11	A-Ph12	A-Ph13	A-Ph14	A-Ph15	A-Ph16	

Term	0.00000e+00	0.00000e+00	0.00000e+00	0.00000e+00	0.00000e+00	0.00000e+00	0.00000e+00	0.00000e+00	0.00000e+00	0.00000e+00	0.00000e+00	0.00000e+00	0.00000e+00	0.00000e+00	0.00000e+00	0.00000e+00	0.00000e+00	0.00000e+00	0.00000e+00	0.00000e+00	0.00000e+00	0.00000e+00	0.00000e+00	0.00000e+00	0.00000e+00	0.00000e+00	0.00000e+00	0.00000e+00	0.00000e+00	0.00000e+00	0.00000e+00	0.00000e+00	0.00000e+00	0.00000e+00	0.00000e+00	0.00000e+00	0.00000e+00	0.00000e+00	0.00000e+00	0.00000e+00	0.00000e+00	0.00000e+00	0.00000e+00	0.00000e+00	0.00000e+00	0.00000e+00	0.00000e+00	0.00000e+00	
Factor	1.00000e+00	1.00000e+00	1.00000e+00	1.00000e+00	1.00000e+00	1.00000e+00	1.00000e+00	1.00000e+00	1.00000e+00	1.00000e+00	1.00000e+00	1.00000e+00	1.00000e+00	1.00000e+00	1.00000e+00	1.00000e+00	1.00000e+00	1.00000e+00	1.00000e+00	1.00000e+00	1.00000e+00	1.00000e+00	1.00000e+00	1.00000e+00	1.00000e+00	1.00000e+00	1.00000e+00	1.00000e+00	1.00000e+00	1.00000e+00	1.00000e+00	1.00000e+00	X	X	X	X	X	X	X	X	X	X	X	X	X	X	X	X	

B = Detector Channel
Val Type	B-AC1	B-AC2	B-AC3	B-AC4	B-AC5	B-AC6	B-AC7	B-AC8	B-AC9	B-AC10	B-AC11	B-AC12	B-AC13	B-AC14	B-AC15	B-AC16	B-DC1	B-DC2	B-DC3	B-DC4	B-DC5	B-DC6	B-DC7	B-DC8	B-DC9	B-DC10	B-DC11	B-DC12	B-DC13	B-DC14	B-DC15	B-DC16	B-Ph1	B-Ph2	B-Ph3	B-Ph4	B-Ph5	B-Ph6	B-Ph7	B-Ph8	B-Ph9	B-Ph10	B-Ph11	B-Ph12	B-Ph13	B-Ph14	B-Ph15	B-Ph16	

Term	0.00000e+00	0.00000e+00	0.00000e+00	0.00000e+00	0.00000e+00	0.00000e+00	0.00000e+00	0.00000e+00	0.00000e+00	0.00000e+00	0.00000e+00	0.00000e+00	0.00000e+00	0.00000e+00	0.00000e+00	0.00000e+00	0.00000e+00	0.00000e+00	0.00000e+00	0.00000e+00	0.00000e+00	0.00000e+00	0.00000e+00	0.00000e+00	0.00000e+00	0.00000e+00	0.00000e+00	0.00000e+00	0.00000e+00	0.00000e+00	0.00000e+00	0.00000e+00	-1.03147e+02	-1.27696e+02	-1.26040e+02	-1.81176e+02	-6.23970e+01	-6.75592e+01	-1.58780e+02	-1.62015e+02	-5.65277e+01	-6.22897e+01	-1.72992e+02	-1.70125e+02	-1.79834e+02	-1.76748e+02	-6.70119e+01	-1.49179e+02	
Factor	1.55199e-05	1.44807e-04	4.06336e-05	1.55882e-01	1.24127e-06	1.48260e-06	1.50087e-01	4.62077e-02	1.01788e-06	1.60599e-06	9.62183e-02	2.73408e-02	4.09599e-02	8.78388e-03	1.32503e-06	1.25402e-02	7.43530e-06	1.06435e-05	2.98820e-06	8.29155e-02	1.11264e-07	1.18464e-07	7.49576e-02	2.47378e-02	1.11329e-07	1.17809e-07	4.95847e-02	1.42385e-02	2.21954e-02	4.73677e-03	1.13755e-07	6.51851e-03	X	X	X	X	X	X	X	X	X	X	X	X	X	X	X	X	



#DISTANCE SETTINGS
A = Detector Channel
A-1	A-2	A-3	A-4	A-5	A-6	A-7	A-8	A-9	A-10	A-11	A-12	A-13	A-14	A-15	A-16	

2.5000e+00	3.0000e+00	2.5000e+00	3.0000e+00	2.0000e+00	3.0000e+00	1.5000e+00	3.0000e+00	3.0000e+00	3.0000e+00	3.0000e+00	3.0000e+00	3.0000e+00	3.0000e+00	1.5000e+00	3.0000e+00	

B = Detector Channel
B-1	B-2	B-3	B-4	B-5	B-6	B-7	B-8	B-9	B-10	B-11	B-12	B-13	B-14	B-15	B-16	

1.0000e+01	1.0000e+01	1.0000e+01	1.4400e+00	1.0000e+01	1.0000e+01	1.5100e+00	1.9400e+00	1.0000e+01	1.0000e+01	1.9900e+00	2.4900e+00	2.4100e+00	2.9000e+00	1.0000e+01	2.9800e+00	




#DATA BEGINS
time	group	step	mark	flag	A-AC1	A-AC2	A-AC3	A-AC4	A-AC5	A-AC6	A-AC7	A-AC8	A-AC9	A-AC10	A-AC11	A-AC12	A-AC13	A-AC14	A-AC15	A-AC16	A-DC1	A-DC2	A-DC3	A-DC4	A-DC5	A-DC6	A-DC7	A-DC8	A-DC9	A-DC10	A-DC11	A-DC12	A-DC13	A-DC14	A-DC15	A-DC16	A-Ph1	A-Ph2	A-Ph3	A-Ph4	A-Ph5	A-Ph6	A-Ph7	A-Ph8	A-Ph9	A-Ph10	A-Ph11	A-Ph12	A-Ph13	A-Ph14	A-Ph15	A-Ph16	B-AC1	B-AC2	B-AC3	B-AC4	B-AC5	B-AC6	B-AC7	B-AC8	B-AC9	B-AC10	B-AC11	B-AC12	B-AC13	B-AC14	B-AC15	B-AC16	B-DC1	B-DC2	B-DC3	B-DC4	B-DC5	B-DC6	B-DC7	B-DC8	B-DC9	B-DC10	B-DC11	B-DC12	B-DC13	B-DC14	B-DC15	B-DC16	B-Ph1	B-Ph2	B-Ph3	B-Ph4	B-Ph5	B-Ph6	B-Ph7	B-Ph8	B-Ph9	B-Ph10	B-Ph11	B-Ph12	B-Ph13	B-Ph14	B-Ph15	B-Ph16	aux-1	digaux	

1290.205	1	1	0	256	0.19568	0.2009	0.11651	0.038783	0.087185	0.33624	0.25658	0.10107	0.16356	0.17955	0.15786	0.072355	0.2871	0.28109	0.11678	0.22097	-1.8208	-1.7583	-2.4542	-2.1542	-1.8875	-2.6667	-1.8979	-2.2354	-2.3042	-1.7271	-2.6625	-2.0229	-1.8104	-2.5729	-1.7229	-2.2042	-136.689	9.177	161.457	98.157	37.721	15.222	146.629	16.969	12.562	103.369	124.097	-66.084	154.136	-44.394	192.112	149.965	0.00013886	0.00026197	4.7667e-05	1003.2	1.2504e-06	2.5442e-06	1087.1	211.16	2.3112e-06	8.957e-07	266.96	74.599	58.058	17.16	2.4032e-06	24.37	0.00015193	0.00013677	3.5908e-05	983.18	1.608e-06	1.4806e-06	1071.5	209.53	1.492e-06	1.3977e-06	262.4	74.873	58.579	17.254	1.5068e-06	24.557	-124.184	-34.724	-71.280	-131.898	-5.300	2.077	-131.867	-124.331	-10.516	46.006	-124.777	-118.714	-118.597	-110.951	-22.199	-111.424	-8191	255	
1290.301	1	1	0	0	0.070664	0.23579	0.22074	0.22394	0.1289	0.15649	0.19804	0.052019	0.058962	0.12987	0.22206	0.31126	0.24027	0.38571	0.030323	0.16636	-2.1583	-1.7188	-2.4188	-2.2	-1.6562	-2.5354	-1.7021	-2.1771	-2.5125	-1.6187	-2.575	-2.3167	-1.7167	-2.5	-1.8188	-2.1583	-113.700	178.557	196.912	146.749	86.595	105.990	103.656	129.537	24.592	133.128	171.295	171.881	192.886	139.684	100.389	8.228	0.00012892	0.00037584	7.6695e-05	1002.4	1.8622e-06	2.7654e-06	1084.4	210.65	2.2005e-06	2.8865e-06	263.95	73.89	58.152	17.167	2.0623e-06	24.266	0.00014302	0.00013752	3.429e-05	982.13	1.6293e-06	1.4216e-06	1069.3	209.44	1.5424e-06	1.5241e-06	262.18	74.701	58.554	17.241	1.4459e-06	24.441	-122.314	-73.740	-27.565	-132.610	-4.754	10.302	-132.523	-125.000	-16.532	17.922	-125.714	-118.887	-118.488	-110.875	25.518	-111.415	-8191	255	
1290.397	1	1	0	0	0.1121	0.19924	0.3192	0.17959	0.10426	0.10398	0.14759	0.23686	0.1639	0.095569	0.26124	0.15484	0.24108	0.075687	0.11504	0.13423	-2.1479	-1.6229	-2.3812	-2.3688	-1.5979	-2.5917	-2.1458	-2.0104	-2.4396	-1.8667	-2.325	-2.3521	-1.7854	-2.4896	-1.9792	-1.9688	207.576	-60.171	-68.863	146.237	68.412	63.258	170.534	-17.696	124.297	74.871	-81.916	-120.384	160.958	80.115	77.589	-76.305	0.00012161	0.00032599	6.9756e-05	1005.9	1.9248e-06	3.4768e-06	1081.8	211.72	1.4468e-06	2.9246e-06	266.07	74.569	58.275	17.104	1.4951e-06	24.178	0.00014586	0.00014196	3.6493e-05	982.73	1.6701e-06	1.3108e-06	1069.3	209.53	1.5222e-06	1.4662e-06	263.17	74.794	58.632	17.21	1.4366e-06	24.377	-123.604	-52.146	-55.851	-132.424	-19.851	2.765	-132.210	-125.112	-12.968	12.240	-125.012	-118.879	-118.638	-111.249	14.723	-111.348	-8191	255	
1290.493	1	1	0	0	0.14569	0.16367	0.072985	0.12619	0.11173	0.14227	0.17059	0.38526	0.071261	0.22781	0.064134	0.081639	0.096885	0.068955	0.21997	0.089869	-1.9875	-1.8521	-2.0583	-2.5396	-1.6437	-2.4604	-2.3792	-1.8188	-2.5333	-1.6875	-2.0938	-2.3229	-1.65	-2.4417	-2.2458	-1.8771	36.661	56.227	161.906	-127.992	-90.542	-52.890	198.166	209.052	58.424	96.228	-54.356	146.819	30.614	117.240	25.250	-39.709	0.00013981	0.00027422	5.9878e-05	1007.9	1.7931e-06	1.7575e-06	1086.8	212.29	2.7403e-06	2.7886e-06	267.1	73.793	58.532	16.922	2.2227e-06	24.246	0.00014223	0.00014147	3.5335e-05	983.34	1.7095e-06	1.3999e-06	1068.5	209.71	1.5618e-06	1.5357e-06	262.68	74.669	58.602	17.167	1.4146e-06	24.433	-135.225	-62.309	-66.609	-132.265	0.102	49.325	-132.245	-124.897	-13.859	48.587	-124.846	-118.975	-118.640	-110.611	-3.591	-110.786	-8191	255	
1290.590	1	1	0	0	0.1879	0.17983	0.17946	0.20788	0.2234	0.11946	0.2709	0.16277	0.16802	0.21173	0.1399	0.11772	0.092381	0.18881	0.14594	0.31859	-2.1312	-1.7854	-2.0062	-2.5125	-1.7854	-2.4979	-2.2875	-1.8188	-2.6	-1.7	-1.9708	-2.6083	-1.7417	-2.3333	-2.1688	-1.7458	-69.925	80.980	190.497	-137.523	101.660	12.703	131.621	-135.855	193.240	83.479	-73.236	192.425	-14.196	194.965	-141.298	187.448	0.00011996	0.00036193	4.2183e-05	1000.7	1.4875e-06	2.0748e-06	1085	211.63	1.2468e-06	1.9414e-06	263.78	74.713	58.108	16.988	2.4927e-06	24.19	0.00014728	0.00013347	3.7657e-05	980.72	1.56e-06	1.2661e-06	1067.3	209.5	1.489e-06	1.4235e-06	262.45	74.834	58.447	17.127	1.402e-06	24.364	-124.932	-60.954	-31.303	-132.166	28.628	-16.054	-132.199	-124.470	21.570	29.066	-124.889	-118.540	-118.332	-110.287	-10.849	-109.962	-8191	255	
1290.686	1	1	0	0	0.096442	0.13708	0.11903	0.047418	0.009615	0.1705	0.13275	0.31186	0.21063	0.35012	0.072081	0.18505	0.14422	0.3479	0.22876	0.23702	-2.0792	-1.9146	-2.0125	-2.5833	-1.7375	-2.2229	-2.5167	-1.5646	-2.3688	-1.8438	-1.9667	-2.5625	-1.6208	-2.2562	-2.4	-1.8271	-111.395	-62.284	-125.375	37.254	-137.007	137.225	115.954	97.748	-29.818	-87.454	-127.886	168.720	-20.049	201.881	127.036	169.851	0.00012839	0.00015233	8.2553e-05	1006.9	1.3926e-06	3.0481e-06	1084.4	211.11	1.67e-06	2.9318e-06	265.86	74.642	58.192	17.119	3.0347e-06	23.764	0.00014607	0.00013826	3.8349e-05	981.44	1.7081e-06	1.41e-06	1069	209.45	1.5268e-06	1.4274e-06	262.79	74.855	58.477	17.145	1.3527e-06	24.248	-131.002	-39.325	-55.244	-131.867	7.072	48.604	-131.666	-124.141	14.488	-9.805	-123.339	-118.187	-117.117	-109.020	-3.737	-108.728	-8191	255	
1290.782	1	1	0	0	0.16118	0.14091	0.13749	0.35546	0.070093	0.1837	0.23698	0.1076	0.20785	0.080667	0.1004	0.2841	0.071083	0.21818	0.073194	0.18878	-2.1375	-1.9333	-1.8375	-2.6	-1.7	-2.2188	-2.6333	-1.8188	-2.3417	-2.0333	-1.7479	-2.6333	-1.8625	-1.9438	-2.4354	-1.7646	62.557	99.465	-15.552	173.397	194.621	-124.805	87.415	159.966	58.345	-85.111	112.065	163.722	42.407	-95.679	155.422	-96.543	0.00012863	0.00014198	6.5568e-05	997.73	1.9516e-06	2.1469e-06	1085.3	211.65	1.3169e-06	2.1231e-06	266.08	74.326	58.461	16.936	3.0867e-06	24.106	0.00014249	0.00013626	3.8641e-05	980.44	1.6648e-06	1.4413e-06	1067.7	209.24	1.5593e-06	1.4419e-06	262.05	75.001	58.581	17.014	1.3788e-06	24.211	-127.721	-73.059	-55.676	-131.039	5.001	-0.355	-131.803	-124.727	-13.699	-17.460	-125.415	-119.209	-118.884	-110.868	-0.828	-110.736	-8191	255	
1290.903	1	1	0	0	0.080818	0.12469	0.092924	0.032342	0.20981	0.18916	0.26424	0.098107	0.29277	0.31938	0.23222	0.18579	0.049473	0.049025	0.23415	0.024707	-1.8854	-2.1604	-1.6333	-2.725	-1.825	-2.0917	-2.6396	-1.8042	-2.1917	-2.1708	-1.6063	-2.4708	-1.9188	-2.0563	-2.3917	-1.6958	36.313	-142.812	168.702	-61.297	-105.511	38.819	113.822	-127.896	50.808	-8.195	121.914	-37.836	155.389	-76.681	201.755	202.001	0.00012841	0.00010006	8.2795e-05	995.57	1.9456e-06	2.9529e-06	1086.3	211.18	1.0094e-06	2.6858e-06	264.7	74.092	58.327	17.039	1.5742e-06	23.979	0.00015385	0.00012996	3.6711e-05	980.41	1.6652e-06	1.4075e-06	1066.9	209.2	1.5073e-06	1.467e-06	262.16	74.751	58.4	17.041	1.3769e-06	24.143	-133.405	-47.607	-59.844	-132.704	-22.738	21.527	-132.330	-125.227	-2.422	14.523	-125.754	-119.256	-119.097	-111.081	-23.475	-111.360	-8191	255	
1290.997	1	1	0	0	0.35506	0.063509	0.050766	0.35118	0.11062	0.1586	0.14761	0.18087	0.15937	0.061723	0.015375	0.045504	0.26304	0.24324	0.2417	0.15533	-1.8771	-2.2167	-1.6458	-2.5021	-2.0146	-1.8438	-2.7687	-1.5917	-2.2208	-2.4042	-1.5938	-2.4917	-1.8375	-1.7875	-2.3979	-1.9229	-108.055	-140.776	181.757	136.823	1.587	-101.429	-118.796	200.237	167.613	-27.952	188.766	-62.899	19.843	-53.753	75.962	123.821	0.00013508	0.00037191	8.6001e-05	1002.3	1.8241e-06	1.3342e-06	1086.3	210.1	2.2077e-06	1.5197e-06	263.14	73.871	58.177	16.923	3.4843e-06	23.909	0.00014637	0.00013389	3.7545e-05	981.71	1.6367e-06	1.5186e-06	1069.6	208.78	1.5813e-06	1.4208e-06	261.97	74.546	58.335	17.037	1.4817e-06	24.066	-127.537	-59.282	-43.891	-132.618	13.551	46.524	-132.582	-125.456	-18.611	26.778	-126.077	-119.521	-118.747	-111.513	14.624	-112.071	-8191	255	
1291.070	1	1	0	0	0.27018	0.12194	0.090038	0.19869	0.3287	0.22017	0.15699	0.1588	0.22001	0.18919	0.22735	0.20775	0.31743	0.19186	0.11105	0.23109	-1.6417	-2.4646	-1.5875	-2.6479	-2.0083	-1.8792	-2.7	-1.8729	-1.9458	-2.3542	-1.6437	-2.3167	-2.1375	-1.7417	-2.625	-1.8062	97.634	147.127	32.822	135.172	-61.218	86.402	187.993	112.925	88.521	20.387	-42.155	204.014	167.700	63.174	-21.922	132.902	0.00012509	0.00026176	7.9122e-05	1001.1	1.2983e-06	2.8475e-06	1084.9	210.24	2.5207e-06	3.8198e-06	264.76	74.196	57.861	16.888	6.9666e-07	23.714	0.00014615	0.00012568	3.8641e-05	982.91	1.7209e-06	1.5326e-06	1069.5	209.19	1.6825e-06	1.4665e-06	262.56	74.558	58.25	17.013	1.4087e-06	23.975	-133.064	-42.748	-68.844	-132.974	11.393	-14.021	-132.585	-125.472	5.223	46.483	-125.618	-119.085	-118.969	-111.448	-48.690	-112.090	-8191	255	
1291.191	1	1	0	0	0.23114	0.11532	0.23797	0.18631	0.25741	0.032998	0.080848	0.33039	0.122	0.30534	0.11401	0.26033	0.040468	0.24136	0.23219	0.14183	-1.425	-2.5583	-1.6708	-2.4792	-2.3583	-1.7687	-2.6771	-1.8563	-1.8083	-2.3688	-1.8	-2.425	-2.2875	-1.6583	-2.325	-2.0521	-53.293	-102.882	66.528	-108.331	101.612	23.839	215.043	184.670	-13.860	-28.885	-122.379	214.773	-136.217	91.610	-63.720	92.149	0.00013783	0.00027868	8.7921e-05	998.49	1.6866e-06	2.0357e-06	1085.5	210.59	1.1443e-06	2.1159e-06	262.5	74.365	58.653	16.844	2.2771e-06	23.667	0.00014742	0.00012282	4.0079e-05	982.16	1.6029e-06	1.4699e-06	1071.4	209.48	1.6331e-06	1.4171e-06	261.45	74.723	58.547	16.972	1.4615e-06	23.983	-128.841	-49.898	-45.581	-132.641	-20.301	10.062	-132.578	-125.582	-10.650	45.947	-125.697	-119.183	-119.160	-111.246	14.932	-111.936	-8191	255	
1291.285	1	1	0	0	0.11994	0.099041	0.063772	0.079105	0.24022	0.27573	0.36239	0.23835	0.16851	0.32738	0.12694	0.25589	0.32208	0.059456	0.029248	0.27257	-1.3771	-2.6188	-1.6667	-2.2062	-2.3937	-1.7292	-2.5458	-2.1042	-1.7271	-2.4375	-1.775	-2.1063	-2.5708	-1.6604	-2.4708	-2.1104	187.427	160.727	-108.116	136.114	46.573	-69.313	172.301	147.110	92.080	-58.759	-126.248	151.892	197.539	183.445	-57.425	77.152	0.00015665	0.00026227	9.6315e-05	1000.2	1.5244e-06	2.4854e-06	1083.1	210.75	2.6796e-06	3.0258e-06	265.21	74.425	58.064	16.892	2.5546e-06	23.768	0.00015388	0.00012094	3.9127e-05	984.44	1.5487e-06	1.504e-06	1070.6	209.37	1.6066e-06	1.3482e-06	262.41	74.781	58.333	17.014	1.3821e-06	24.029	-124.891	-90.525	-24.800	-132.714	-12.453	2.530	-132.662	-125.335	-21.579	37.791	-125.678	-118.862	-118.244	-111.323	10.519	-112.061	-8191	255	
1291.382	1	1	0	0	0.29944	0.044741	0.13226	0.21659	0.20369	0.073589	0.082739	0.14904	0.23185	0.1262	0.21443	0.22053	0.27434	0.20728	0.17002	0.16952	-1.4917	-2.6708	-1.7062	-2.2771	-2.4458	-1.5083	-2.4708	-2.3958	-1.7625	-2.4833	-1.9896	-1.8687	-2.4833	-1.5875	-2.3542	-2.1917	103.203	-92.688	160.068	149.688	13.025	200.564	145.515	119.415	183.480	94.152	144.987	187.002	-142.137	37.234	-61.681	117.557	0.00013675	0.00022577	6.099e-05	1002.1	1.5036e-06	2.7596e-06	1091.3	210.92	1.2092e-06	1.2415e-06	265.09	74.216	58.493	16.873	2.1746e-06	24.124	0.00015651	0.0001212	3.7116e-05	982.15	1.497e-06	1.4702e-06	1070	209.34	1.5973e-06	1.4395e-06	262.38	74.69	58.499	17.003	1.493e-06	24.072	-128.512	-48.462	-38.451	-132.741	28.027	11.554	-132.519	-125.430	-14.227	-15.473	-125.616	-118.758	-118.363	-111.376	-1.598	-111.497	-8191	255	
1291.478	1	1	0	0	0.17842	0.27077	0.071826	0.26518	0.14603	0.12287	0.38153	0.034785	0.040281	0.17776	0.25629	0.18646	0.16881	0.24964	0.16665	0.15095	-1.1167	-2.4333	-1.9417	-2.0042	-2.4896	-1.7958	-2.5563	-2.3187	-1.6604	-2.5062	-1.9979	-1.9229	-2.6646	-1.7125	-2.1896	-2.5792	-84.718	210.383	7.915	130.359	-16.999	-117.237	114.220	49.738	84.594	148.284	-140.640	-131.527	177.929	214.486	198.217	108.195	0.00015016	0.00032982	8.3359e-05	1005.2	1.7718e-06	2.2863e-06	1082.5	210.6	1.6473e-06	3.2853e-06	265.63	73.912	57.739	16.923	1.6506e-06	23.915	0.0001481	0.0001297	3.7801e-05	983.75	1.5324e-06	1.5479e-06	1069.6	209.31	1.6261e-06	1.33e-06	262.85	74.467	58.316	17.075	1.4127e-06	24.085	-131.330	-53.720	-62.555	-132.703	-25.157	0.493	-132.478	-125.520	-27.845	37.561	-125.713	-118.775	-118.536	-111.028	-3.078	-112.076	-8191	255	
1291.598	1	1	0	0	0.27821	0.13933	0.026634	0.058875	0.13918	0.069199	0.18821	0.33077	0.12225	0.1105	0.18578	0.28992	0.17659	0.18314	0.30653	0.26356	-1.2437	-2.4313	-2.1312	-1.95	-2.4875	-1.8438	-2.3958	-2.6458	-1.7729	-2.4792	-2.0854	-1.6854	-2.4688	-1.9688	-1.9813	-2.5333	73.055	148.101	-41.851	-105.734	-69.265	77.535	125.761	-125.957	-81.174	151.663	129.882	170.655	108.184	60.507	-85.011	-88.622	0.0001149	0.00019888	8.0253e-05	1002.9	1.0731e-06	1.2593e-06	1092.2	210	1.4908e-06	2.6607e-06	264.64	74.165	58.154	17.006	1.8633e-06	23.784	0.00015166	0.00013247	3.6468e-05	982.88	1.4295e-06	1.5099e-06	1072.2	209.2	1.5612e-06	1.4849e-06	262.64	74.637	58.38	17.051	1.4854e-06	24.056	-123.275	-36.909	-38.426	-132.713	-4.566	-13.705	-132.602	-125.120	-47.754	-15.287	-125.796	-119.056	-118.826	-111.160	59.046	-111.719	-8191	255	
1291.694	1	1	0	0	0.15166	0.13125	0.14701	0.34555	0.31372	0.034514	0.15048	0.20559	0.32072	0.05326	0.21419	0.36871	0.1719	0.22005	0.19573	0.12134	-1.025	-2.4042	-2.3438	-1.8792	-2.5104	-1.8917	-2.1021	-2.5208	-1.6063	-2.4125	-2.2167	-1.4583	-2.525	-1.9604	-1.7979	-2.5708	142.212	-20.464	192.701	168.577	85.697	4.495	143.288	105.705	5.095	190.787	145.470	140.188	60.851	192.622	68.394	133.913	0.00013491	0.00040852	0.00010007	1003	1.8393e-06	2.4476e-06	1090.9	211.51	1.3617e-06	1.5944e-06	263.88	73.562	58.251	16.955	1.5157e-06	23.593	0.00014641	0.00012956	3.6051e-05	984.29	1.5257e-06	1.4356e-06	1072.9	209.84	1.6196e-06	1.3762e-06	262.53	74.396	58.522	17.034	1.3809e-06	24.054	-126.897	-36.503	-39.032	-132.531	-25.000	-18.109	-132.466	-125.447	-0.663	44.537	-125.305	-118.716	-118.534	-111.690	13.316	-111.473	-8191	255	
1291.791	1	1	0	0	0.22064	0.25279	0.082837	0.26114	0.14788	0.22483	0.095588	0.34739	0.25489	0.1445	0.16829	0.27484	0.14416	0.18906	0.16362	0.054532	-1.1292	-2.2833	-2.2438	-1.9042	-2.5187	-2.0333	-2.05	-2.8083	-1.6667	-2	-2.5396	-1.7375	-2.6042	-2.025	-1.7771	-2.7542	172.630	92.011	191.426	114.632	-128.340	-13.303	15.546	-137.180	74.099	-100.198	-128.808	195.022	191.267	207.793	118.809	121.617	0.00012695	0.00029949	8.6213e-05	1003.9	2.1474e-06	2.0655e-06	1089.1	212.03	2.2659e-06	2.4302e-06	262.75	74.228	57.663	16.872	2.0451e-06	23.893	0.00014692	0.00012493	3.6226e-05	983.31	1.6071e-06	1.3707e-06	1072.4	209.58	1.6015e-06	1.4434e-06	262.21	74.737	58.291	17.06	1.5212e-06	24.088	-123.643	-61.706	-41.507	-132.470	-7.097	17.626	-132.437	-125.295	17.329	31.032	-125.932	-119.172	-118.729	-111.364	-27.413	-111.730	-8191	255	
1291.887	1	1	0	0	0.23643	0.22619	0.17151	0.14752	0.019696	0.10875	0.20066	0.2435	0.25707	0.24074	0.02078	0.035626	0.04564	0.24826	0.19515	0.40787	-1.3708	-1.8937	-2.4542	-2.0021	-2.5625	-1.9813	-1.7604	-2.5312	-1.7833	-1.9937	-2.4271	-1.7125	-2.2521	-2.2521	-1.7896	-2.65	15.549	-63.584	82.748	170.871	92.305	-1.780	-125.661	181.652	142.987	-69.858	114.952	155.655	-63.700	123.968	-13.047	111.188	0.00014383	0.00018876	0.00011739	1002.8	2.9941e-06	1.8012e-06	1090.4	211.43	2.0935e-06	3.2812e-06	265.11	74.248	58.29	16.913	2.6351e-06	23.84	0.00014521	0.00012812	3.5771e-05	984.02	1.5633e-06	1.3902e-06	1072.1	209.67	1.6043e-06	1.4756e-06	262.73	74.694	58.589	17.026	1.5032e-06	24.046	-136.471	-83.282	-47.554	-132.697	-2.745	50.497	-132.590	-125.145	-24.365	3.253	-125.897	-119.149	-118.785	-111.220	-23.320	-111.777	-8191	255	
1291.983	1	1	0	0	0.1452	0.1382	0.11161	0.25046	0.053972	0.10567	0.32665	0.165	0.031509	0.084728	0.17463	0.056399	0.10944	0.14667	0.20289	0.17753	-1.4979	-1.7542	-2.7146	-2.0146	-2.3	-2.3229	-1.8042	-2.5667	-1.9167	-1.8	-2.5563	-1.6313	-2.15	-2.4083	-1.5875	-2.5563	56.589	-97.588	-69.170	113.607	85.112	-121.677	156.851	3.892	152.511	124.896	-132.284	-82.471	-22.130	40.096	-134.853	68.518	0.00015372	0.00028393	9.8882e-05	999.94	1.9427e-06	2.2258e-06	1086.6	211.82	1.9244e-06	1.6961e-06	264.22	74.598	58.298	16.924	3.0104e-06	23.82	0.0001532	0.0001267	3.4676e-05	982.75	1.5735e-06	1.3643e-06	1072	209.98	1.6639e-06	1.493e-06	261.81	74.851	58.634	17.04	1.5395e-06	24.018	-129.745	-41.686	-27.440	-132.554	30.801	19.322	-132.667	-125.434	-6.410	2.431	-125.584	-119.017	-119.223	-111.118	3.292	-111.329	-8191	255	
1292.079	1	1	0	0	0.3364	0.18579	0.15574	0.50734	0.29171	0.23088	0.20688	0.24406	0.074891	0.25775	0.30047	0.073988	0.15394	0.10622	0.21829	0.11624	-1.6333	-1.8625	-2.4667	-1.9667	-2.1125	-2.5	-1.7833	-2.5896	-2.0042	-1.8729	-2.6958	-1.8979	-2.0438	-2.5771	-1.7958	-2.5646	-21.166	198.496	197.740	204.344	-125.636	107.538	117.847	205.561	-66.573	212.179	177.973	174.451	-95.555	191.026	19.282	-132.906	0.00015613	0.00031572	9.3777e-05	1004.2	3.1277e-06	2.2668e-06	1085.3	210.84	2.4832e-06	3.3728e-06	265.16	74.186	57.981	16.933	2.4945e-06	23.849	0.00015019	0.0001432	3.396e-05	984.67	1.5855e-06	1.3878e-06	1071.4	209.18	1.5649e-06	1.4927e-06	262.67	74.587	58.515	17.046	1.5174e-06	24.094	-127.137	-37.707	-28.058	-132.835	-0.398	25.597	-132.439	-125.158	-1.282	32.094	-125.554	-119.269	-119.157	-110.942	-3.125	-111.241	-8191	255	
1292.198	1	1	0	0	0.12421	0.37846	0.059459	0.022453	0.19379	0.18034	0.06634	0.071967	0.15652	0.090644	0.10104	0.20388	0.18247	0.11829	0.114	0.19822	-1.7812	-1.8625	-2.3708	-1.7917	-1.8333	-2.4167	-1.8229	-2.4146	-2.0979	-1.8271	-2.6917	-1.8125	-1.9771	-2.3771	-1.6979	-2.1417	-8.391	-127.955	63.926	99.645	-79.423	-125.568	173.899	-74.793	-78.888	-53.509	26.956	203.989	-141.381	-88.068	102.538	87.988	0.00012549	0.00015973	6.3543e-05	1003.5	1.6391e-06	1.8326e-06	1085.6	212.07	2.4929e-06	2.1445e-06	264.56	74.475	58.082	16.939	2.5193e-06	23.787	0.00014699	0.00013823	3.4153e-05	984.73	1.6817e-06	1.3569e-06	1069.2	210.25	1.6349e-06	1.5102e-06	262.34	74.724	58.558	17.034	1.521e-06	23.975	-124.717	-35.164	-35.472	-132.558	8.339	33.689	-132.652	-125.132	-9.979	70.080	-125.264	-119.097	-118.871	-111.451	2.932	-111.399	-8191	255	
1292.294	1	1	0	0	0.41404	0.047048	0.14332	0.18055	0.18445	0.25366	0.2341	0.26636	0.11764	0.16378	0.3236	0.14801	0.13283	0.28004	0.11276	0.11445	-1.9729	-1.5312	-2.5104	-2.0729	-1.6938	-2.475	-1.975	-2.2729	-2.3479	-1.6646	-2.4708	-2.1937	-1.575	-2.4542	-1.6271	-2.2021	-138.315	-131.463	-64.317	176.305	91.646	76.027	-130.329	157.672	10.363	-83.112	12.606	-56.900	-63.372	142.704	-92.192	210.090	0.00012239	0.00027273	7.6463e-05	1007.8	1.5458e-06	1.5342e-06	1086.8	211.62	1.9654e-06	3.5125e-06	265.74	74.262	57.391	16.984	2.0618e-06	23.909	0.0001462	0.00013976	3.6618e-05	986.02	1.6887e-06	1.3875e-06	1072.1	210	1.6059e-06	1.5202e-06	262.2	74.68	58.43	17.092	1.5065e-06	24.05	-126.938	-36.519	-3.281	-132.753	9.921	8.384	-132.285	-124.954	-23.800	10.161	-125.513	-118.930	-118.513	-110.935	-22.881	-111.361	-8191	255	
1292.366	1	1	0	0	0.058193	0.10474	0.17617	0.26779	0.15085	0.20346	0.27499	0.14773	0.11232	0.13645	0.21097	0.041035	0.20283	0.17739	0.26324	0.1661	-2.0417	-1.6729	-2.4938	-2.2458	-1.7042	-2.5771	-1.9833	-2.1646	-2.4396	-1.6479	-2.5125	-2.1875	-1.7833	-2.5979	-1.575	-2.2125	38.486	-45.561	-14.411	184.566	-82.089	-76.368	193.665	170.393	110.707	-87.461	205.029	0.381	-107.097	-116.087	215.800	140.935	0.00014489	0.00016088	7.9727e-05	1006.8	1.927e-06	2.7519e-06	1086.2	211.48	1.7744e-06	1.5705e-06	266.11	74.121	57.857	16.884	2.6487e-06	23.831	0.00015137	0.00013258	3.6107e-05	984.71	1.726e-06	1.4221e-06	1070.5	209.81	1.5512e-06	1.467e-06	262.75	74.641	58.431	17.038	1.4546e-06	24.053	-124.066	-71.086	-18.340	-132.506	16.945	1.893	-132.395	-124.840	-23.021	-9.765	-124.760	-118.973	-118.659	-110.834	-17.476	-111.006	-8191	255	
1292.462	1	1	0	0	0.13999	0.33084	0.318	0.13273	0.25668	0.26077	0.098617	0.26126	0.28614	0.074153	0.14751	0.12808	0.078166	0.10074	0.23235	0.18223	-2.0792	-1.8708	-2.2188	-2.2875	-1.5292	-2.525	-2.1479	-2.1167	-2.5896	-1.6417	-2.3063	-2.4625	-1.6187	-2.4542	-1.8208	-1.9062	105.687	85.119	110.689	202.816	154.720	190.685	51.224	181.118	-131.096	-57.481	170.555	-31.961	142.142	144.415	150.402	-86.020	0.00012772	0.00033816	8.8774e-05	1006.6	2.7283e-06	2.0504e-06	1088.1	212.03	2.0556e-06	2.4785e-06	264.57	74.146	58.214	17.041	2.1148e-06	23.948	0.00015501	0.0001338	3.6107e-05	985.29	1.7492e-06	1.4033e-06	1071.1	210.18	1.5528e-06	1.5057e-06	262.94	74.608	58.536	17.109	1.3878e-06	24.092	-117.053	-74.202	-30.627	-132.452	-2.150	-6.176	-132.273	-125.157	-36.875	33.052	-125.154	-118.729	-118.416	-110.907	-28.362	-111.099	-8191	255	
1292.583	1	1	0	0	0.19502	0.1734	0.16573	0.093524	0.13761	0.19053	0.22265	0.092043	0.097322	0.10571	0.22224	0.078044	0.22255	0.15198	0.31317	0.21001	-2.3063	-1.7917	-2.125	-2.4479	-1.7583	-2.4479	-2.1937	-1.8729	-2.4958	-1.7896	-2.3167	-2.475	-1.3917	-2.3375	-2.0833	-1.9042	212.824	58.856	206.022	-134.564	129.408	-86.826	108.808	207.332	111.731	34.164	142.647	76.222	216.585	-120.320	-112.302	-38.942	0.00013128	0.00033553	4.614e-05	1010.2	2.1425e-06	2.1134e-06	1084.9	212.68	1.1137e-06	1.7154e-06	265.08	74.488	57.833	17.082	3.0369e-06	23.931	0.00014612	0.0001365	3.5261e-05	985.88	1.5653e-06	1.4263e-06	1071.2	210.51	1.518e-06	1.3577e-06	262.43	74.819	58.41	17.094	1.5212e-06	24.153	-125.889	-32.046	-70.951	-132.260	-38.644	8.419	-132.257	-124.968	-20.315	21.379	-125.023	-118.678	-118.326	-110.968	-18.224	-111.370	-8191	255	
1292.679	1	1	0	0	0.068962	0.083475	0.22381	0.27619	0.23673	0.21016	0.19528	0.064999	0.13562	0.096032	0.22507	0.35427	0.29676	0.17534	0.26132	0.1499	-2.0854	-1.8333	-1.95	-2.6104	-1.4667	-2.5812	-2.3417	-1.6812	-2.5438	-2.0354	-2.0729	-2.4208	-1.7188	-2.5375	-2.0979	-1.65	-14.172	-17.960	-40.784	182.042	72.740	70.022	136.046	-142.177	166.306	38.866	71.524	65.595	168.578	-108.246	-13.177	-19.365	0.00013633	0.00027945	3.2611e-05	1004	1.5031e-06	1.6285e-06	1088.3	211.24	2.3632e-06	1.8595e-06	265.86	74.251	58.629	16.875	1.942e-06	23.735	0.00015146	0.00014098	3.6574e-05	984.44	1.6659e-06	1.3498e-06	1072	210.05	1.46e-06	1.478e-06	262.96	74.709	58.73	17.06	1.4769e-06	24.106	-131.477	-33.854	-58.854	-132.429	-43.038	12.632	-132.461	-124.947	-15.980	20.447	-125.367	-118.916	-118.576	-110.954	29.645	-111.216	-8191	255	
1292.775	1	1	0	0	0.15063	0.071111	0.24192	0.1865	0.21023	0.078942	0.20541	0.33342	0.15219	0.10101	0.10976	0.017019	0.092108	0.055463	0.30004	0.2292	-2.0458	-1.7146	-1.725	-2.525	-1.6979	-2.1208	-2.5187	-1.7812	-2.3063	-1.9479	-1.9604	-2.5917	-1.7271	-2.1292	-2.5417	-1.5167	45.571	-95.017	215.620	135.642	158.262	-43.672	205.121	175.404	-86.216	81.285	149.097	187.097	197.798	-3.335	-39.463	213.686	0.00013324	0.00024197	6.4368e-05	1004.9	7.6835e-07	3.5291e-06	1091.4	212.25	1.8612e-06	1.9461e-06	265.18	74.576	58.16	17.026	2.7602e-06	23.862	0.00014277	0.00014129	3.9313e-05	986.71	1.652e-06	1.4717e-06	1074.5	210.19	1.6061e-06	1.4721e-06	262.89	74.83	58.575	17.107	1.5291e-06	24.136	-124.626	-74.650	-42.860	-132.623	-7.828	-10.643	-132.193	-124.833	-37.901	17.234	-124.772	-118.897	-118.758	-110.756	17.105	-111.402	-8191	255	
1292.871	1	1	0	0	0.092652	0.094504	0.047341	0.12933	0.18443	0.17193	0.13115	0.23815	0.12213	0.25246	0.11203	0.25565	0.1159	0.16481	0.13613	0.071349	-1.9646	-2.0854	-1.7854	-2.7708	-1.8625	-2.1	-2.7521	-1.7583	-2.6312	-2.0354	-1.8125	-2.6854	-1.7208	-2.225	-2.4917	-1.6729	78.775	-126.198	8.384	180.009	-47.499	199.650	139.119	194.421	91.960	66.007	195.598	188.103	51.060	215.952	149.946	75.297	0.00011003	0.00029309	9.3596e-05	1004.4	9.5397e-07	2.272e-06	1088.5	213.28	2.1532e-06	2.6872e-06	267.25	74.476	57.866	17.056	2.8603e-06	24.113	0.00014604	0.00013865	3.8137e-05	986.68	1.5512e-06	1.4862e-06	1074.6	210.78	1.5936e-06	1.4314e-06	264.3	74.979	58.57	17.128	1.5153e-06	24.177	-134.408	-70.695	-36.601	-132.419	35.900	34.101	-132.213	-124.767	-9.654	4.539	-125.280	-118.829	-118.397	-111.134	1.767	-111.152	-8191	255	
1292.967	1	1	0	0	0.20602	0.24715	0.16243	0.38323	0.3617	0.11599	0.18397	0.069482	0.21845	0.060252	0.13894	0.10929	0.1805	0.097476	0.20787	0.33098	-1.9271	-2.2812	-1.7021	-2.7958	-1.8229	-2.0458	-2.4958	-1.4312	-2.2292	-2.2583	-1.7917	-2.5479	-1.9312	-1.9354	-2.6042	-1.7938	-38.360	36.782	-35.874	-139.413	101.356	38.312	154.726	37.813	56.534	36.901	155.229	39.593	111.355	-29.979	0.740	198.723	0.00012509	0.00028285	7.0239e-05	1011.1	1.9599e-06	2.6248e-06	1095.1	212.12	1.2051e-06	2.4441e-06	266.36	74.479	58.255	17.045	2.2104e-06	23.961	0.00014837	0.00012657	3.7303e-05	988.44	1.6759e-06	1.5062e-06	1075.6	210.39	1.5874e-06	1.4434e-06	263.57	74.831	58.611	17.096	1.4663e-06	24.139	-128.395	-52.259	-51.688	-132.254	12.292	26.852	-132.104	-124.838	-25.222	16.681	-125.376	-118.614	-118.451	-110.599	-10.177	-111.537	-8191	255	
1293.063	1	1	0	0	0.17909	0.1985	0.27818	0.16645	0.097718	0.22239	0.062594	0.1707	0.058562	0.070025	0.11365	0.17936	0.11731	0.41062	0.12092	0.076209	-2.0458	-2.3167	-1.7542	-2.8104	-1.7896	-2.0917	-2.6833	-1.8833	-1.9021	-2.4833	-1.7667	-2.5083	-2.0396	-1.8438	-2.2542	-2.0104	216.548	-97.885	196.094	-88.395	-23.007	3.108	118.059	90.246	171.302	161.462	154.169	185.081	72.744	-141.785	214.651	209.885	0.00013377	0.00041213	7.018e-05	1009.8	1.7303e-06	8.4188e-07	1088.9	212.2	2.5144e-06	2.7055e-06	266.24	74.725	58.149	17.022	2.5585e-06	23.894	0.00015098	0.00013287	3.978e-05	988.38	1.6933e-06	1.4736e-06	1074.6	210.57	1.6477e-06	1.3946e-06	263.66	75.061	58.697	17.121	1.4665e-06	24.147	-124.692	-57.077	-61.692	-132.305	-27.764	-13.802	-132.237	-124.915	1.892	25.143	-125.199	-118.623	-118.305	-110.594	-1.956	-110.839	-8191	255	
1293.159	1	1	0	0	0.24241	0.11948	0.13598	0.27245	0.088073	0.21639	0.30244	0.15127	0.16393	0.34557	0.25601	0.24823	0.058072	0.11329	0.25249	0.17131	-1.8354	-2.4333	-1.6562	-2.5083	-2.2104	-1.6667	-2.8229	-1.8458	-2.0917	-2.3167	-1.6583	-2.4958	-2.2438	-1.7667	-2.6708	-1.9625	200.868	185.591	41.160	-112.019	164.934	-90.392	129.611	169.441	-117.120	119.369	-41.130	131.103	82.565	-117.339	-130.758	186.940	0.00013835	0.00025016	7.3761e-05	1008.9	2.4358e-06	3.0856e-06	1090.6	212.52	2.4611e-06	2.2989e-06	266.85	74.886	58.937	16.965	3.1442e-06	23.95	0.00015276	0.00012621	4.0434e-05	988.05	1.6235e-06	1.639e-06	1074.3	210.6	1.5537e-06	1.3442e-06	263.86	75.108	58.753	17.065	1.4909e-06	24.062	-130.598	-25.397	-47.119	-132.003	-17.448	8.894	-132.254	-124.911	11.497	39.741	-125.370	-118.966	-118.447	-110.768	5.985	-111.179	-8191	255	
1293.278	1	1	0	0	0.091616	0.19958	0.24737	0.26327	0.15686	0.18515	0.24263	0.10304	0.082846	0.33719	0.36136	0.096673	0.069721	0.22212	0.29424	0.11919	-1.6458	-2.5938	-1.5083	-2.3729	-2.0271	-1.7083	-2.7687	-2.0938	-1.6896	-2.4396	-1.6375	-2.2958	-2.3	-1.6729	-2.4062	-2.0167	165.624	119.355	204.863	142.044	-96.906	-35.389	195.649	190.862	-97.941	147.147	-129.968	49.914	188.643	149.194	-119.924	103.562	0.00013086	0.00028472	5.9107e-05	1011.1	2.165e-06	1.6083e-06	1096.7	212.86	2.0075e-06	3.2425e-06	265.56	74.995	58.28	16.895	2.9091e-06	23.867	0.00015371	0.00013245	3.7303e-05	990.65	1.6683e-06	1.4576e-06	1078.3	211	1.6716e-06	1.3688e-06	263.52	75.026	58.822	17.051	1.4471e-06	24.014	-127.458	-53.471	-59.152	-132.423	20.921	16.666	-131.980	-125.133	-18.852	10.226	-124.906	-118.677	-118.609	-110.536	-22.925	-111.007	-8191	255	
1293.374	1	1	0	0	0.097543	0.18281	0.021972	0.15775	0.2704	0.032787	0.12165	0.042541	0.34343	0.13545	0.068269	0.04996	0.063431	0.084852	0.19009	0.22607	-1.4625	-2.5104	-1.6313	-2.2812	-2.1813	-1.5333	-2.4146	-2.0375	-1.7792	-2.4625	-1.8708	-2.1146	-2.5771	-1.7583	-2.425	-2.1396	-99.393	51.824	5.499	75.002	122.576	144.523	206.631	213.147	-22.634	206.461	170.040	54.261	-136.148	-11.107	21.756	129.147	0.00014497	0.00028634	7.9182e-05	1012.6	1.6473e-06	2.8404e-06	1091.1	211.92	2.5772e-06	3.2048e-06	265.43	74.908	58.426	16.942	1.3942e-06	23.777	0.00015555	0.00013402	3.8043e-05	990.16	1.6085e-06	1.5381e-06	1077.8	210.75	1.6099e-06	1.4301e-06	263.79	74.99	59.006	17.017	1.4629e-06	24.004	-126.675	-68.123	-61.256	-131.871	32.362	16.802	-132.112	-124.825	-7.430	17.836	-125.046	-118.712	-118.191	-110.500	-85.518	-110.987	-8191	255	
1293.471	1	1	0	0	0.15537	0.031399	0.099197	0.20735	0.19283	0.33391	0.18928	0.15122	0.033151	0.11879	0.22182	0.11678	0.36378	0.21589	0.23376	0.1237	-1.3937	-2.5833	-1.7354	-2.2229	-2.4292	-1.8229	-2.5479	-2.2375	-1.6063	-2.425	-1.925	-2.0687	-2.3208	-1.5333	-2.3083	-2.4875	75.752	-25.887	125.791	184.056	32.158	26.536	180.753	124.597	11.423	-101.973	5.554	132.839	181.055	-107.999	-84.329	141.980	0.00013953	0.0001633	5.79e-05	1008.7	2.9071e-06	4.4138e-06	1100.4	212.83	2.5406e-06	3.3081e-06	265.04	74.531	58.276	16.915	2.442e-06	23.856	0.0001584	0.00013307	3.8305e-05	989.24	1.602e-06	1.5961e-06	1081.2	210.83	1.7854e-06	1.3271e-06	263.7	74.924	58.727	16.987	1.5492e-06	24.06	-125.577	-25.108	-50.935	-131.767	-4.269	2.593	-132.027	-124.665	6.230	12.823	-124.870	-118.300	-118.230	-111.335	26.390	-111.848	-8191	255	
1293.591	1	1	0	0	0.14052	0.22686	0.13947	0.43575	0.22999	0.056874	0.11179	0.042291	0.10796	0.10441	0.10342	0.143	0.24703	0.066302	0.21081	0.16592	-1.3062	-2.5167	-1.9333	-2.1312	-2.4542	-1.625	-2.4188	-2.3479	-1.6375	-2.2833	-2.0833	-1.9104	-2.6792	-1.5896	-2.1417	-2.3458	143.128	-83.837	3.430	140.191	129.780	209.203	134.838	196.053	-21.144	40.113	104.440	0.033	187.907	-60.440	59.820	133.073	0.00013689	0.00027167	6.9815e-05	1013.6	2.4984e-06	3.051e-06	1089	212.37	1.5802e-06	3.2801e-06	268.32	74.608	58.937	16.963	3.6022e-06	23.79	0.00015636	0.00012954	3.8268e-05	991.48	1.5792e-06	1.5864e-06	1076.7	210.71	1.7026e-06	1.3624e-06	264.53	75.223	58.931	17.015	1.5433e-06	23.985	-124.165	-63.740	-58.578	-132.096	-16.506	-10.905	-132.160	-125.004	10.375	-8.339	-124.968	-118.629	-118.408	-110.473	-6.182	-111.501	-8191	255	
1293.663	1	1	0	0	0.22231	0.14014	0.085964	0.040445	0.15169	0.07237	0.13048	0.034542	0.12522	0.21749	0.29139	0.22086	0.2729	0.1922	0.040939	0.084889	-1.1958	-2.4437	-1.9271	-1.9771	-2.4125	-1.7417	-2.2521	-2.5104	-1.5146	-2.4979	-2.2292	-1.7917	-2.4479	-1.8417	-2.0417	-2.6479	185.313	-5.105	-74.438	176.871	-17.097	-8.413	-132.619	169.409	101.590	-22.908	-13.184	-29.660	196.732	-64.117	107.826	-16.472	0.00013115	0.00014008	4.5811e-05	1007.1	1.972e-06	2.8986e-06	1095.5	212.46	6.173e-07	2.101e-06	265.77	74.747	58.174	16.835	2.1789e-06	23.828	0.00015633	0.00012872	3.9133e-05	988.62	1.6548e-06	1.5474e-06	1078.4	210.73	1.6289e-06	1.369e-06	263.68	75.124	58.793	16.961	1.5746e-06	24.059	-125.664	-34.745	-44.381	-132.183	1.106	11.578	-132.082	-124.922	-36.536	48.080	-125.477	-118.522	-118.861	-110.868	-2.018	-111.192	-8191	255	
1293.759	1	1	0	0	0.24167	0.10741	0.33949	0.2387	0.2125	0.17966	0.26526	0.02789	0.21834	0.099725	0.28997	0.40953	0.24465	0.15037	0.052258	0.28011	-1.3354	-2.2562	-2.0333	-1.8375	-2.6625	-1.8271	-2.175	-2.4583	-1.7208	-2.2562	-2.2833	-1.5875	-2.4729	-2.0938	-2.1	-2.4833	-97.376	138.852	125.162	192.506	119.856	-14.296	121.097	144.434	205.663	-76.011	-57.327	-125.871	-74.383	146.400	-88.174	104.163	0.00013724	0.0003204	9.9823e-05	1011.3	6.6016e-07	4.4254e-06	1095.5	211.45	1.867e-06	2.6783e-06	266.27	74.734	58.26	16.91	2.7218e-06	23.786	0.00015476	0.00013163	3.7882e-05	990.12	1.6256e-06	1.4255e-06	1077.6	210.08	1.6444e-06	1.4085e-06	263.26	75.152	58.679	16.977	1.5257e-06	23.988	-125.511	-46.486	-39.791	-132.383	-12.304	-14.415	-131.808	-124.939	-33.870	0.039	-124.810	-118.683	-118.426	-110.470	3.899	-110.815	-8191	255	
1293.880	1	1	0	0	0.014699	0.18411	0.12901	0.2328	0.16137	0.23585	0.27234	0.22028	0.35752	0.28588	0.26693	0.33348	0.17568	0.10381	0.19667	0.083966	-1.4271	-2.3979	-2.3438	-1.9438	-2.3229	-1.9604	-2.0646	-2.6771	-1.7979	-2.2687	-2.3708	-1.6979	-2.5792	-2.2375	-1.8917	-2.6562	170.624	-79.189	77.680	-108.852	-78.367	-129.402	193.535	-109.591	74.419	-0.487	162.977	123.284	67.021	150.415	-27.034	-60.145	0.00013568	0.00025343	7.9539e-05	1010.7	1.9495e-06	2.2102e-06	1091.8	213.25	1.4374e-06	2.2409e-06	266.98	74.515	58.621	16.836	1.3692e-06	23.905	0.00015117	0.00013364	3.5211e-05	990.99	1.5262e-06	1.4588e-06	1079.9	211.13	1.705e-06	1.4046e-06	263.56	74.936	58.753	16.969	1.5501e-06	24.068	-124.963	-47.508	-40.848	-132.017	-41.936	14.498	-131.996	-124.565	-17.220	41.074	-124.978	-118.204	-117.484	-110.682	35.613	-110.984	-8191	255	
1293.976	1	1	0	0	0.18493	0.11882	0.1936	0.47955	0.075934	0.14602	0.1462	0.098494	0.098747	0.11526	0.27464	0.12374	0.088022	0.15267	0.31839	0.052371	-1.2208	-2.2833	-2.3958	-1.6917	-2.4604	-2.0417	-1.8958	-2.8833	-2.0292	-1.9937	-2.3937	-1.5458	-2.4646	-2.2167	-1.6688	-2.55	-58.581	150.124	-58.873	169.443	-137.998	182.198	82.410	-129.890	8.128	89.988	209.534	116.898	196.840	1.940	115.255	-134.208	0.00012343	0.00033398	5.6849e-05	1012.3	2.4049e-06	3.0715e-06	1095.1	212.25	2.3009e-06	1.6041e-06	266.42	74.934	58.637	16.869	2.732e-06	23.799	0.00015317	0.00013965	3.6456e-05	992.49	1.6136e-06	1.4371e-06	1078.8	210.67	1.7365e-06	1.49e-06	264.08	75.21	58.798	16.971	1.5475e-06	24.026	-129.488	-63.510	-79.999	-131.651	-29.988	23.908	-131.678	-124.845	-17.006	1.387	-124.810	-118.447	-118.631	-110.655	-2.737	-110.946	-8191	255	
1294.070	1	1	0	0	0.29714	0.16565	0.13154	0.38794	0.091807	0.2055	0.22937	0.4053	0.16734	0.28709	0.047757	0.28359	0.064538	0.15755	0.017289	0.08006	-1.5229	-1.8438	-2.5854	-1.7104	-2.3229	-2.1354	-1.8438	-2.6167	-1.6875	-1.9625	-2.6646	-1.7396	-2.1354	-2.3604	-1.5562	-2.6354	-61.442	175.198	143.257	202.005	-90.780	147.257	191.598	138.654	-81.299	178.604	99.751	79.118	-87.825	184.114	-38.564	174.363	0.00012537	0.00020994	0.00011216	1009.8	2.7302e-06	2.416e-06	1092.7	213.02	1.2216e-06	2.5392e-06	267.96	74.415	58.753	16.813	4.6583e-07	24	0.00015586	0.0001326	3.551e-05	990.01	1.6836e-06	1.5218e-06	1078.6	211.16	1.6495e-06	1.4856e-06	264.64	75.075	58.963	16.97	1.571e-06	24.044	-125.998	-33.391	-61.831	-132.140	16.828	-3.000	-131.767	-124.574	-18.432	-5.093	-124.778	-118.525	-118.457	-110.663	14.654	-110.915	-8191	255	
1294.166	1	1	0	0	0.06528	0.14133	0.14564	0.28037	0.13611	0.11602	0.24563	0.081434	0.095134	0.13618	0.22891	0.16459	0.19217	0.12991	0.18913	0.070444	-1.6146	-1.6333	-2.6063	-1.7729	-2.2042	-2.4708	-1.9104	-2.6562	-1.9458	-1.8271	-2.6854	-1.8188	-2.1208	-2.3937	-1.5063	-2.5042	-87.637	165.047	79.270	-125.484	-33.559	125.754	-99.772	-25.303	-78.787	55.642	87.269	137.068	130.168	166.675	101.034	-116.073	0.0001285	0.0004079	6.9017e-05	1014.4	2.5123e-06	1.8793e-06	1098.2	212.74	1.2917e-06	2.7283e-06	265.58	74.475	58.186	16.869	1.5892e-06	23.797	0.00015163	0.0001416	3.6026e-05	991.19	1.5765e-06	1.4487e-06	1079.4	211.38	1.6613e-06	1.4625e-06	264.12	75.114	58.841	16.969	1.5459e-06	24.022	-130.294	-53.847	-42.344	-132.047	-38.807	-4.005	-131.952	-124.566	-13.732	19.880	-125.287	-118.767	-118.625	-110.885	13.757	-111.113	-8191	255	
1294.263	1	1	0	0	0.049839	0.080494	0.090054	0.13263	0.042826	0.22843	0.18943	0.28378	0.12385	0.16864	0.15605	0.11318	0.1239	0.12044	0.23579	0.13338	-1.6417	-1.6063	-2.6063	-1.9813	-1.7604	-2.5104	-1.9521	-2.3958	-2.1229	-1.5792	-2.6083	-1.9125	-2.0396	-2.75	-1.625	-2.4396	-34.553	-24.594	-38.897	-65.333	192.981	-90.639	-133.432	203.280	-116.300	111.404	-68.990	104.937	172.167	-48.274	71.778	-136.666	0.00014338	0.00024904	8.9384e-05	1011.3	1.3821e-06	2.4451e-06	1094.4	212.31	2.6441e-06	4.095e-06	265.99	74.821	58.58	16.935	1.384e-06	23.97	0.00014708	0.00013905	3.5205e-05	990.11	1.6235e-06	1.4297e-06	1077.8	211.1	1.736e-06	1.531e-06	264.12	75.128	58.864	16.958	1.543e-06	24.078	-127.603	-62.253	-68.874	-132.774	-15.437	21.578	-132.252	-125.189	-14.852	6.333	-125.504	-118.884	-118.415	-111.084	18.967	-111.066	-8191	255	
1294.359	1	1	0	0	0.076219	0.038215	0.084271	0.071597	0.34166	0.11691	0.086352	0.11304	0.20471	0.08665	0.075354	0.24606	0.034063	0.24186	0.071702	0.21065	-1.8021	-1.575	-2.5312	-2.1437	-1.9062	-2.4604	-2.0229	-2.3583	-2.4188	-1.4854	-2.6271	-2.0354	-1.8458	-2.8104	-1.8062	-2.1854	-36.505	-40.229	174.935	-76.523	32.911	-10.779	-108.985	94.997	28.431	-66.087	25.237	62.930	169.229	-88.963	1.509	91.351	0.00013069	0.00025822	4.3924e-05	1012.7	1.2075e-06	2.5036e-06	1097.5	212.88	2.0161e-06	3.0639e-06	265.87	74.494	59.249	16.784	2.031e-06	23.974	0.00015117	0.00013539	3.691e-05	990.74	1.7176e-06	1.3996e-06	1079.6	211	1.5598e-06	1.5183e-06	264.57	75.065	59.085	16.923	1.6144e-06	24.068	-127.401	-58.691	-68.730	-132.030	-0.775	22.870	-132.041	-124.811	-38.726	24.972	-125.124	-118.983	-118.456	-110.427	-13.919	-110.770	-8191	255	
1294.455	1	1	0	0	0.321	0.24306	0.069293	0.0097181	0.23496	0.22499	0.11675	0.14213	0.14017	0.15935	0.15664	0.19181	0.053448	0.088098	0.17418	0.2159	-2.0333	-1.6583	-2.4854	-2.025	-1.8	-2.5542	-1.8146	-2.1042	-2.5583	-1.5146	-2.4938	-2.4396	-1.6646	-2.6083	-1.9604	-2.2062	75.898	-21.632	159.456	46.923	155.006	158.224	-110.008	150.017	35.115	182.364	106.344	-124.721	67.771	-32.965	-104.048	-11.421	0.00011708	0.00030066	5.8133e-05	1008.1	2.2721e-06	1.2737e-06	1096.2	213.82	2.1311e-06	3.9815e-06	267.58	74.984	58.961	16.92	2.1716e-06	23.813	0.00014562	0.00013817	3.8541e-05	990.47	1.713e-06	1.4314e-06	1081	211.46	1.6275e-06	1.5978e-06	264.29	75.191	58.945	16.947	1.5456e-06	24.064	-136.830	-54.535	-65.374	-131.987	-6.895	29.764	-132.032	-124.550	-16.681	19.980	-124.730	-118.151	-117.747	-111.021	55.871	-110.843	-8191	255	
1294.551	1	1	0	0	0.18968	0.078766	0.2955	0.044189	0.29191	0.23628	0.22813	0.029587	0.038577	0.15052	0.12336	0.059133	0.11172	0.29775	0.14414	0.09857	-2.0958	-1.5375	-2.4604	-2.5104	-1.6917	-2.4917	-2.0979	-2.1583	-2.6646	-1.6938	-2.2896	-2.2875	-1.7417	-2.5396	-1.9667	-2.0875	66.887	16.292	86.910	92.053	-87.157	-131.103	123.162	-109.338	52.881	-24.473	141.492	-130.348	4.222	99.615	77.190	-123.145	0.0001239	0.00033927	8.1687e-05	1012.4	1.8315e-06	2.4297e-06	1095.5	213.32	1.382e-06	2.7084e-06	266.77	74.945	58.022	16.794	1.7909e-06	23.991	0.00014595	0.00013945	3.7583e-05	992.14	1.7814e-06	1.3853e-06	1079.3	211.04	1.5969e-06	1.5151e-06	265.27	75.169	58.745	16.89	1.5625e-06	24.134	-129.037	-35.666	-52.036	-132.030	-36.130	13.683	-132.057	-124.545	24.973	25.964	-124.597	-118.243	-118.485	-110.851	10.973	-110.907	-8191	255	
1294.672	1	1	0	0	0.36688	0.096298	0.17975	0.13336	0.15017	0.1125	0.17793	0.2427	0.21055	0.09248	0.27726	0.17275	0.17434	0.12278	0.066654	0.30635	-2.1396	-1.55	-2.2792	-2.3937	-1.7062	-2.325	-2.1458	-1.9417	-2.6271	-1.7896	-2.2313	-2.5458	-1.4896	-2.6146	-2.0792	-1.6604	-16.228	7.468	176.592	-112.963	22.390	-117.985	133.338	103.002	61.310	100.265	188.559	176.004	-114.218	-129.472	43.037	-121.957	0.00012533	0.00038984	7.3019e-05	1016.4	2.4994e-06	3.6111e-06	1099.5	214.06	1.4181e-06	3.3714e-06	268.99	74.585	58.606	16.897	1.9724e-06	24.089	0.00015125	0.00014457	3.668e-05	992.43	1.7503e-06	1.463e-06	1080.4	212.04	1.6189e-06	1.5136e-06	265.19	75.103	58.805	16.941	1.5108e-06	24.094	-123.317	-57.838	-48.547	-131.984	-4.298	1.045	-131.698	-124.398	-24.642	23.893	-124.711	-118.174	-117.749	-110.309	-3.403	-110.209	-8191	255	
1294.768	1	1	0	0	0.31269	0.22449	0.13773	0.16765	0.34104	0.26661	0.21242	0.18567	0.20967	0.14097	0.21332	0.049796	0.25063	0.27835	0.086052	0.27222	-2.225	-1.6646	-2.1292	-2.5375	-1.7521	-2.2542	-2.3583	-1.6604	-2.6458	-1.875	-1.9479	-2.5417	-1.6521	-2.3771	-2.2458	-1.7437	-128.210	-61.134	197.344	125.685	165.248	-66.879	135.335	124.150	-119.094	144.494	29.056	76.095	-118.386	126.742	179.506	207.234	0.00013456	0.00027812	4.2688e-05	1014.3	2.9125e-06	1.5335e-06	1097.6	212.28	1.8549e-06	2.1813e-06	266.07	74.555	57.977	16.768	2.7152e-06	24.03	0.00014411	0.00013746	3.8585e-05	993.29	1.6305e-06	1.4438e-06	1080.1	210.94	1.573e-06	1.586e-06	264.36	75.187	58.731	16.887	1.4764e-06	24.15	-130.092	-53.598	-66.383	-131.646	-36.114	30.237	-131.853	-124.342	-8.628	44.290	-124.678	-118.512	-117.380	-110.543	15.300	-110.731	-8191	255	
1294.864	1	1	0	0	0.11752	0.13136	0.10744	0.2357	0.23921	0.22629	0.21267	0.24685	0.063932	0.28696	0.16942	0.14647	0.15532	0.259	0.095042	0.32141	-2.3146	-1.8104	-2.125	-2.7188	-1.5604	-2.4854	-2.4042	-1.8208	-2.6292	-1.925	-1.8125	-2.3438	-1.6562	-2.2667	-2.5	-1.8104	116.322	51.453	165.111	-118.560	3.880	114.557	114.684	-66.099	92.182	6.820	-10.642	55.578	-60.959	192.950	71.018	216.415	0.00011808	0.00021059	4.8214e-05	1011.4	7.6682e-07	2.4882e-06	1096.3	214.01	2.0182e-06	3.0129e-06	268.12	74.759	58.843	16.798	2.123e-06	23.899	0.00014643	0.0001428	4.0322e-05	991.88	1.7186e-06	1.4806e-06	1080	211.55	1.602e-06	1.521e-06	264.67	75.193	59.022	16.885	1.5087e-06	24.062	-130.405	-49.355	-64.655	-131.668	-21.450	-3.112	-131.500	-124.298	-18.816	48.053	-124.631	-117.874	-117.775	-110.172	24.041	-110.290	-8191	255	
1294.960	1	1	0	0	0.10189	0.19089	0.082965	0.15288	0.22818	0.2951	0.2111	0.04401	0.045838	0.31354	0.18393	0.14339	0.158	0.12431	0.1181	0.056896	-2.05	-1.7917	-1.85	-2.7417	-1.7062	-2.1646	-2.7979	-1.5667	-2.4625	-1.9229	-1.7396	-2.5563	-1.825	-2.1437	-2.5521	-1.8458	73.116	-5.753	-93.150	120.818	124.779	-35.342	131.380	188.139	96.212	-76.740	156.609	94.953	142.986	84.952	195.595	137.867	0.00011516	0.0003556	8.3455e-05	1015.6	2.2182e-06	2.8468e-06	1092.2	213.99	2.3528e-06	2.2552e-06	267.24	74.563	58.998	16.876	2.2244e-06	23.83	0.00015365	0.00013768	3.8479e-05	993.87	1.6801e-06	1.5316e-06	1079.1	211.85	1.6595e-06	1.4871e-06	264.55	75	59.021	16.892	1.5087e-06	23.979	-123.887	-46.949	-41.690	-131.843	-16.294	3.776	-131.972	-124.585	-23.643	8.477	-124.220	-117.924	-117.790	-109.707	-10.269	-110.295	-8191	255	
1295.056	1	1	0	0	0.28926	0.032111	0.28807	0.17497	0.16387	0.19514	0.12368	0.21969	0.23491	0.13593	0.23709	0.077621	0.3355	0.11562	0.2431	0.17795	-2.025	-2.2125	-1.7	-2.6562	-1.7229	-1.8625	-2.4688	-1.5875	-2.4188	-2.1813	-1.8375	-2.6958	-1.8563	-1.9021	-2.6646	-1.6812	-21.054	98.130	77.167	127.962	15.976	-132.546	-142.502	129.066	58.016	-135.725	-56.191	156.049	199.493	-70.475	98.631	52.623	0.00013618	0.00041084	7.0917e-05	1014.3	2.2196e-06	2.3418e-06	1098.2	213.29	1.3535e-06	2.7889e-06	267.86	74.553	58.96	16.866	1.667e-06	23.988	0.00015306	0.00013859	3.9525e-05	993.79	1.8013e-06	1.4926e-06	1082.2	211.32	1.6906e-06	1.5683e-06	264.91	75.188	59.064	16.919	1.4795e-06	24.073	-125.560	-74.164	-55.837	-131.705	-3.289	-13.802	-132.016	-124.658	13.562	31.650	-124.983	-118.545	-118.832	-110.763	26.558	-111.421	-8191	255	
1295.152	1	1	0	0	0.098811	0.15819	0.10985	0.29031	0.12326	0.16599	0.35228	0.1884	0.17792	0.10157	0.29976	0.14031	0.38423	0.19897	0.12703	0.10438	-2	-2.2229	-1.6458	-2.6042	-1.8604	-1.8604	-2.8	-1.7833	-2.2562	-2.4938	-1.6437	-2.4688	-2.075	-1.8896	-2.4125	-1.7792	-114.356	4.906	89.831	202.178	209.507	130.513	155.032	195.049	-6.917	197.346	-115.709	196.920	146.558	-96.125	117.464	-115.974	0.00011617	0.00027951	9.5918e-05	1014.9	1.9726e-06	1.8745e-06	1094.7	214.9	2.112e-06	3.4072e-06	265.46	74.678	58.538	16.816	1.0997e-06	23.732	0.00014819	0.00013577	3.8772e-05	994.64	1.7132e-06	1.5418e-06	1080.6	211.93	1.6634e-06	1.4103e-06	264.16	75.212	58.96	16.886	1.4591e-06	23.958	-129.137	-50.935	-39.366	-132.072	-22.031	-9.714	-131.680	-124.326	-45.211	30.053	-125.440	-119.184	-118.915	-111.290	0.472	-111.414	-8191	255	
1295.271	1	1	0	0	0.069931	0.15355	0.18487	0.32114	0.077127	0.2255	0.30633	0.083752	0.19701	0.13678	0.059711	0.058757	0.057901	0.077962	0.1167	0.15495	-1.7083	-2.3146	-1.5938	-2.5938	-1.8417	-1.9208	-2.7667	-1.8354	-2.025	-2.3688	-1.7625	-2.4271	-2.2396	-1.7167	-2.4521	-1.9083	-3.976	-53.892	126.124	176.303	17.194	-139.639	87.480	89.445	126.223	116.372	121.520	155.164	203.877	-102.134	187.602	-77.129	0.00011705	0.00027971	5.9472e-05	1012.9	7.8068e-07	2.2152e-06	1100.8	213.85	2.8715e-06	3.3219e-06	267.69	74.584	58.488	16.805	1.7466e-06	23.854	0.00015213	0.00013065	4.0745e-05	995.38	1.6606e-06	1.5447e-06	1082.6	211.56	1.6683e-06	1.4169e-06	265.31	75.223	58.794	16.88	1.4674e-06	23.962	-127.877	-48.025	-95.383	-132.270	-19.310	-11.949	-132.236	-124.840	-34.797	15.424	-124.878	-118.029	-119.287	-111.174	16.195	-111.421	-8191	255	
1295.367	1	1	0	0	0.06099	0.17665	0.12193	0.41194	0.11813	0.29731	0.085086	0.17676	0.14271	0.24623	0.36115	0.041234	0.18899	0.10903	0.075864	0.20848	-1.6396	-2.475	-1.5792	-2.4646	-2.2938	-1.6771	-2.6937	-1.8396	-2.0438	-2.6417	-1.925	-2.4667	-2.1667	-1.5625	-2.6562	-2.0833	-18.584	-95.960	77.126	-123.848	95.134	-114.579	137.572	159.540	131.985	-69.878	-125.123	-114.616	188.243	11.904	92.124	89.041	0.00012409	0.00026023	6.4695e-05	1016.3	2.105e-06	1.9792e-06	1107	213.8	2.4583e-06	3.8878e-06	266.93	74.853	58.371	16.712	2.8789e-06	23.698	0.00015478	0.00013358	4.0359e-05	996.34	1.678e-06	1.6012e-06	1084.7	211.53	1.739e-06	1.4861e-06	264.21	75.326	58.909	16.837	1.5682e-06	23.929	-124.002	-33.898	-81.460	-132.529	6.472	27.347	-132.154	-124.956	-37.846	26.478	-125.220	-118.713	-118.565	-110.662	-8.315	-111.258	-8191	255	
1295.464	1	1	0	0	0.1896	0.0079393	0.12773	0.18173	0.26627	0.19227	0.19917	0.10812	0.082614	0.14889	0.14074	0.090996	0.33371	0.31446	0.32821	0.18894	-1.4562	-2.4875	-1.7833	-2.3521	-2.5958	-1.6396	-2.6125	-2.2	-1.6771	-2.4188	-1.8208	-2.2167	-2.4771	-1.7833	-2.4167	-2.1458	118.201	-16.788	34.701	201.556	-98.271	80.323	45.384	81.053	91.428	-9.181	118.957	126.008	190.503	-122.087	142.419	158.228	0.00011597	0.00018663	7.863e-05	1011.2	1.9719e-06	3.1971e-06	1098.6	213.78	1.5796e-06	2.3487e-06	267.77	74.616	58.298	16.797	2.4785e-06	23.813	0.00016085	0.00013531	3.8635e-05	993.69	1.6446e-06	1.5398e-06	1081.7	211.86	1.7107e-06	1.4824e-06	264.54	75.42	58.957	16.848	1.4523e-06	23.945	-124.211	-28.922	-44.729	-131.918	-3.727	2.926	-132.377	-125.242	-2.359	12.798	-125.288	-118.668	-118.884	-110.743	17.712	-111.264	-8191	255	
1295.560	1	1	0	0	0.047329	0.18103	0.26401	0.16655	0.29162	0.078283	0.26589	0.25267	0.24873	0.17277	0.052633	0.11374	0.15426	0.087503	0.045747	0.32834	-1.4833	-2.5792	-1.9271	-2.1792	-2.4375	-1.7792	-2.5	-2.275	-1.5833	-2.8333	-1.9271	-2.0771	-2.4771	-1.8042	-2.3812	-2.3146	161.781	-4.255	-97.862	-133.069	117.770	16.873	147.562	155.205	135.650	-38.961	114.967	166.734	21.176	-97.431	-142.467	187.538	0.0001337	0.00029756	6.4568e-05	1020.3	2.67e-06	2.1748e-06	1094.4	213.65	1.7203e-06	2.7654e-06	267.26	75.207	58.364	16.78	2.0678e-06	23.625	0.00016223	0.00013018	4.2594e-05	997.22	1.6198e-06	1.5803e-06	1080.6	211.71	1.8237e-06	1.5043e-06	265.11	75.511	58.924	16.863	1.5347e-06	23.975	-123.529	-35.894	-52.779	-131.581	3.251	9.419	-131.735	-124.573	15.626	13.623	-125.050	-118.822	-118.376	-110.821	-57.023	-111.162	-8191	255	
1295.656	1	1	0	0	0.14707	0.010366	0.15119	0.10194	0.041082	0.17329	0.147	0.25206	0.16837	0.14736	0.16263	0.24144	0.20845	0.19443	0.052145	0.14275	-1.4438	-2.4896	-1.7563	-2.05	-2.6479	-1.8229	-2.4979	-2.3833	-1.6771	-2.4875	-1.8375	-1.9229	-2.4938	-1.5438	-2.1917	-2.4354	206.252	66.384	-87.820	-6.312	-43.648	-38.050	108.717	115.968	-8.066	-23.285	86.783	138.928	127.769	182.396	144.645	-105.443	0.00012958	0.00022233	0.00010416	1012	3.0612e-06	2.9052e-06	1100.9	214.56	2.1932e-06	2.5768e-06	267.26	75.338	58.428	16.686	2.5979e-06	23.783	0.00015453	0.00013701	3.8199e-05	994.58	1.6154e-06	1.5571e-06	1083.5	212.24	1.6836e-06	1.5511e-06	264.6	75.559	58.749	16.859	1.5741e-06	23.922	-126.977	-75.281	-30.113	-131.733	4.433	12.377	-131.951	-124.990	-41.181	21.042	-125.039	-118.465	-118.835	-110.506	4.512	-111.142	-8191	255	
1295.752	1	1	0	0	0.13418	0.12214	0.21263	0.13249	0.066878	0.21068	0.16536	0.30622	0.29668	0.24993	0.22583	0.12559	0.13302	0.085865	0.050005	0.060432	-1.2625	-2.5479	-2.0292	-1.9188	-2.6896	-1.75	-2.4021	-2.425	-1.5667	-2.4938	-2.1917	-1.7271	-2.4708	-1.8104	-2.2021	-2.4792	-125.582	142.310	-0.874	176.658	-64.330	32.165	-50.857	151.231	77.539	-37.507	106.629	75.053	116.627	-97.296	40.577	-108.403	0.00013468	0.00029908	8.0023e-05	1015.9	2.433e-06	2.3857e-06	1102.2	214.05	2.2227e-06	2.307e-06	265.87	74.786	58.42	16.693	1.691e-06	23.701	0.0001565	0.00013466	4.0135e-05	994.21	1.6041e-06	1.662e-06	1083.4	211.58	1.7917e-06	1.5585e-06	264.31	75.347	58.901	16.857	1.5525e-06	23.888	-126.983	-63.396	-44.265	-131.614	8.149	-13.232	-131.707	-124.476	-10.435	12.498	-124.888	-118.259	-117.767	-110.929	7.432	-111.608	-8191	255	
1295.848	1	1	0	0	0.081756	0.068462	0.14177	0.10696	0.122	0.12253	0.064558	0.29314	0.36589	0.087683	0.14285	0.13965	0.18655	0.27408	0.14626	0.047906	-1.2208	-2.3438	-2.1104	-1.7396	-2.5646	-1.7104	-2.1729	-2.6417	-1.4937	-2.3063	-2.3479	-1.8271	-2.5271	-2.0771	-1.9208	-2.5167	32.541	10.332	124.003	167.121	41.312	157.367	-67.939	-105.628	26.245	213.250	-88.928	-79.368	-66.036	94.637	-51.800	-36.851	0.00014504	0.00028807	8.4437e-05	1014	8.455e-07	3.4182e-06	1094.7	213.72	1.9118e-06	3.148e-06	267.72	75.164	58.834	16.72	1.3635e-06	23.781	0.00015599	0.00013464	3.6456e-05	995.94	1.6877e-06	1.5785e-06	1081.4	212.31	1.7745e-06	1.5514e-06	264.92	75.524	59.068	16.827	1.6374e-06	23.903	-131.651	-75.421	-34.684	-132.724	-74.377	47.886	-132.745	-125.386	-22.380	3.443	-126.083	-119.404	-119.219	-111.580	12.275	-112.007	-8191	255	
1295.969	1	1	0	0	0.31053	0.20481	0.28886	0.30797	0.04163	0.14395	0.29889	0.056037	0.032561	0.20391	0.12344	0.14473	0.069178	0.21623	0.15147	0.065806	-1.4792	-2.2542	-2.2938	-1.8875	-2.5333	-2.0812	-1.9937	-2.6146	-1.7833	-2.2458	-2.4354	-1.7313	-2.475	-1.8521	-1.8271	-2.625	-0.070	181.541	45.378	-140.479	-63.380	-20.300	134.576	192.350	46.053	71.220	98.695	137.771	-123.957	-105.942	48.504	-102.566	0.00013206	0.00028868	6.2178e-05	1012.6	1.0929e-06	1.7109e-06	1092.5	213.01	2.4079e-06	3.2633e-06	267.45	75.108	58.699	16.662	2.8733e-06	23.494	0.00015529	0.00014599	4.0814e-05	994.51	1.6729e-06	1.5539e-06	1081.4	211.68	1.7261e-06	1.5077e-06	265.33	75.394	59.003	16.821	1.6447e-06	23.843	-126.685	-65.357	-47.148	-133.036	-6.669	40.518	-133.049	-125.568	-35.102	-11.873	-126.409	-119.516	-119.590	-111.687	9.883	-111.673	-8191	255	
1296.063	1	1	0	0	0.27968	0.13415	0.02296	0.19095	0.1815	0.26743	0.28252	0.22166	0.27317	0.1254	0.28601	0.06784	0.18048	0.13681	0.1038	0.46888	-1.3937	-2.0667	-2.45	-1.8896	-2.3688	-2.2708	-2.0396	-2.5229	-1.8354	-2.0812	-2.625	-1.7125	-2.4292	-2.2521	-1.6833	-2.7438	-122.393	-50.881	159.758	210.075	-140.495	-44.014	149.298	140.297	-125.070	44.075	59.834	150.962	165.555	100.064	-1.093	148.772	0.00013976	0.00038375	6.7797e-05	1012.2	1.6893e-06	2.6456e-06	1097	212.57	1.782e-06	3.1753e-06	265.74	74.856	59.002	16.647	2.5349e-06	23.49	0.00015354	0.00014229	3.6867e-05	994.44	1.6316e-06	1.6269e-06	1081.7	211.75	1.7247e-06	1.5232e-06	264.74	75.426	59.069	16.777	1.589e-06	23.862	-127.694	-56.511	-42.644	-133.063	3.789	-1.042	-132.845	-125.555	-30.425	16.024	-125.993	-119.536	-119.409	-112.111	-18.546	-111.965	-8191	255	
1296.137	1	1	0	0	0.26086	0.043507	0.19438	0.30485	0.19377	0.23546	0.23253	0.28386	0.18018	0.12957	0.25998	0.073424	0.14258	0.0066066	0.23855	0.15358	-1.6875	-1.9562	-2.7271	-1.8854	-2.3833	-2.1417	-1.6396	-2.6396	-2.0417	-2.1021	-2.6562	-1.8125	-2.3896	-2.2292	-1.6	-2.5438	-11.514	44.375	-38.584	139.319	62.213	103.928	73.056	199.124	211.061	61.541	121.081	194.422	-120.442	110.110	99.018	-11.957	0.00013941	0.00040561	8.1788e-05	1014.6	2.0017e-06	2.3518e-06	1101.6	214.06	1.4731e-06	3.322e-06	268.36	74.76	58.655	16.783	1.8681e-06	23.451	0.00015337	0.00014202	3.899e-05	994.52	1.5825e-06	1.4527e-06	1082.4	212.04	1.7179e-06	1.5946e-06	265.48	75.243	59.074	16.872	1.6148e-06	23.811	-124.763	-51.878	-56.558	-132.926	29.168	-31.797	-133.073	-125.787	-39.650	13.923	-125.902	-119.458	-119.268	-111.999	-11.295	-111.770	-8191	255	
1296.233	1	1	0	0	0.13944	0.21264	0.17657	0.23824	0.049979	0.16452	0.31881	0.070663	0.072801	0.14383	0.31852	0.084484	0.035366	0.23572	0.17015	0.24341	-1.6437	-1.8021	-2.4917	-1.9646	-2.1312	-2.3937	-1.8667	-2.5229	-1.9312	-1.9292	-2.6375	-1.6667	-2.2875	-2.525	-1.5958	-2.5833	185.087	-24.638	-60.889	-143.465	-6.823	213.139	141.261	-88.952	144.900	31.370	-123.585	202.566	190.429	-12.302	-136.381	-18.955	0.00012701	0.00024764	8.73e-05	1010.9	8.8145e-07	3.1178e-06	1087.4	213.33	1.1622e-06	3.1532e-06	266.63	74.593	58.287	16.727	1.1681e-06	23.721	0.00015338	0.00013491	3.828e-05	992.7	1.6833e-06	1.5223e-06	1079.7	211.83	1.7091e-06	1.626e-06	265.2	75.048	59.137	16.817	1.6153e-06	23.854	-126.119	-41.558	-71.691	-133.165	-27.474	40.002	-132.865	-125.823	-67.461	11.437	-126.090	-119.375	-119.353	-111.299	26.907	-111.725	-8191	255	
1296.352	1	1	0	0	0.26037	0.15346	0.11665	0.20008	0.11761	0.11978	0.24603	0.37261	0.28508	0.10434	0.17139	0.22728	0.12562	0.27195	0.17309	0.16083	-1.75	-1.6625	-2.5563	-1.8771	-1.8625	-2.5979	-1.8958	-2.3312	-2.1604	-1.8438	-2.4479	-1.7667	-2.1	-2.6667	-1.6354	-2.3792	70.377	-114.464	116.058	161.049	116.142	-14.070	-88.443	54.217	-125.581	-113.268	123.475	-89.275	-27.295	177.284	189.883	-116.743	0.00013967	0.00025447	8.1083e-05	1011.8	4.9411e-07	4.7595e-06	1097.8	213.58	2.2372e-06	2.6228e-06	265.85	75.083	58.496	16.631	2.7933e-06	23.8	0.00015352	0.00014872	3.6886e-05	994.27	1.7086e-06	1.5353e-06	1081.8	212.26	1.7323e-06	1.5438e-06	264.86	75.567	58.9	16.754	1.5885e-06	23.873	-125.125	-42.632	-54.623	-133.091	-26.548	-11.411	-133.104	-125.395	-0.347	-39.394	-125.932	-119.761	-118.805	-111.775	-9.121	-111.889	-8191	255	
1296.448	1	1	0	0	0.21034	0.17932	0.10295	0.2177	0.22768	0.33322	0.17419	0.13998	0.1267	0.19333	0.095199	0.072451	0.16547	0.084545	0.09509	0.071921	-1.8937	-1.6437	-2.5521	-2.0062	-1.9125	-2.525	-1.7396	-2.5396	-2.2854	-1.6771	-2.6271	-2.0521	-1.9104	-2.7104	-2.025	-2.1854	181.323	-71.251	182.473	140.121	195.969	182.916	160.293	-121.719	28.524	-138.119	-127.466	117.195	-13.305	92.154	69.706	-100.760	0.00013602	0.00033953	8.1892e-05	1012.7	1.5746e-06	1.5379e-06	1090.5	214.3	2.0815e-06	2.6181e-06	267.36	74.523	58.65	16.645	2.0755e-06	23.365	0.00015794	0.00014559	3.7732e-05	993.34	1.6657e-06	1.4828e-06	1080.1	212.27	1.618e-06	1.5568e-06	265.32	75.387	59.006	16.806	1.6293e-06	23.773	-124.857	-27.602	-45.946	-133.213	-5.026	-3.427	-133.171	-125.732	-29.616	45.719	-126.328	-119.706	-119.523	-112.013	-11.928	-112.071	-8191	255	
1296.544	1	1	0	0	0.088618	0.1337	0.073876	0.42319	0.26396	0.26325	0.13207	0.17092	0.065503	0.04504	0.051461	0.086808	0.11802	0.11198	0.12771	0.024209	-1.9833	-1.5646	-2.5375	-2.0417	-1.8083	-2.5833	-1.9021	-2.1	-2.3917	-1.6083	-2.3917	-2.0625	-1.4146	-2.6063	-1.8333	-2.2042	123.459	-1.004	73.157	152.869	13.353	107.696	193.447	207.097	96.619	27.006	-104.760	18.793	187.666	104.511	71.511	89.285	0.00012394	0.00021101	7.0663e-05	1015.2	1.1896e-06	3.4557e-06	1096.2	212.91	1.9595e-06	2.6622e-06	267.92	74.256	58.964	16.672	2.6152e-06	23.582	0.00015647	0.00014127	3.9556e-05	994.32	1.6859e-06	1.584e-06	1079.3	211.94	1.6829e-06	1.5467e-06	265.57	75.038	59.153	16.776	1.6227e-06	23.813	-128.275	-53.988	-36.028	-133.157	43.002	1.106	-132.801	-125.777	-3.804	50.321	-125.843	-119.637	-119.758	-111.887	-1.462	-111.746	-8191	255	
1296.640	1	1	0	0	0.026128	0.11552	0.14779	0.25095	0.031964	0.093196	0.31447	0.095132	0.1663	0.18537	0.19394	0.21678	0.039238	0.24683	0.12509	0.06813	-2.0417	-1.5583	-2.4833	-2.3771	-1.6667	-2.6833	-2.0125	-2.0396	-2.5583	-1.525	-2.3604	-2.3646	-1.4771	-2.3396	-1.8896	-1.8646	-132.382	110.942	208.300	211.057	-10.470	51.514	145.550	167.904	-82.062	115.024	111.817	113.364	-86.471	-86.315	77.472	206.247	0.00012919	0.0003078	6.8336e-05	1014.1	1.8567e-06	3.4887e-06	1090.7	214.3	1.812e-06	2.6087e-06	267.72	74.871	58.008	16.67	1.8642e-06	23.276	0.00015332	0.00014393	3.739e-05	992.92	1.6363e-06	1.565e-06	1077.7	211.99	1.6982e-06	1.519e-06	264.75	75.237	58.786	16.73	1.5928e-06	23.706	-125.678	-47.025	-52.827	-133.391	21.017	-23.898	-132.964	-125.830	-57.707	-1.284	-126.434	-120.316	-119.066	-111.714	-15.246	-112.002	-8191	255	
1296.761	1	1	0	0	0.10295	0.1851	0.28411	0.16824	0.046143	0.10579	0.25989	0.1291	0.16389	0.22908	0.20229	0.068281	0.25114	0.1974	0.1476	0.20304	-2.1896	-1.8521	-2.3104	-2.3646	-1.6521	-2.5167	-2.0563	-1.9229	-2.725	-1.6562	-2.1333	-2.2958	-1.5292	-2.3979	-2.0625	-1.8875	12.012	27.419	54.893	161.307	10.152	100.232	170.194	142.253	-13.610	-86.532	-78.453	-43.038	-3.062	194.724	147.898	42.860	0.00013026	0.00025527	9.4157e-05	1010.4	2.8713e-06	2.2276e-06	1093.3	212.98	1.4824e-06	2.6466e-06	266.94	74.88	58.471	16.68	1.7206e-06	23.486	0.00015026	0.00014269	3.9961e-05	989.66	1.7545e-06	1.5023e-06	1077.6	211.33	1.5377e-06	1.5232e-06	264.74	75.235	58.907	16.814	1.4622e-06	23.715	-126.718	-42.730	-32.747	-133.153	-13.277	20.825	-133.105	-125.954	-0.618	3.780	-125.659	-119.712	-118.959	-111.637	-31.592	-111.998	-8191	255	
1296.832	1	1	0	0	0.10899	0.16763	0.098872	0.14679	0.23697	0.14435	0.21289	0.083959	0.071411	0.062985	0.018562	0.13076	0.16234	0.22267	0.067576	0.026787	-1.9417	-1.6729	-2.1063	-2.5417	-1.5312	-2.2771	-2.1479	-1.8542	-2.3854	-1.8	-2.0792	-2.275	-1.5479	-2.3396	-2.1875	-1.5042	204.789	134.952	-21.239	-113.653	94.441	126.173	141.121	89.741	31.891	-7.372	94.048	-100.208	122.320	159.793	210.018	8.741	0.00013244	0.00022424	0.00011632	1009.8	1.6614e-06	3.2412e-06	1093.3	213.47	1.7618e-06	2.8987e-06	267.69	74.407	58.293	16.586	1.5192e-06	23.678	0.00014962	0.0001377	3.8236e-05	991.11	1.6671e-06	1.3838e-06	1077.8	211.64	1.585e-06	1.507e-06	265.42	74.965	58.787	16.777	1.6201e-06	23.695	-130.524	-47.028	-51.786	-133.134	-28.701	9.734	-132.913	-125.767	-14.092	7.161	-125.853	-119.365	-119.123	-111.729	-2.157	-111.895	-8191	255	
1296.953	1	1	0	0	0.10641	0.09646	0.15983	0.17516	0.33731	0.25283	0.12324	0.11067	0.34023	0.23918	0.18651	0.18941	0.06685	0.41531	0.13817	0.33455	-1.9604	-1.675	-1.8646	-2.6104	-1.4875	-2.4313	-2.5417	-1.8687	-2.4	-1.7313	-2.0979	-2.3979	-1.8542	-2.2625	-2.2417	-1.5896	-2.982	-109.103	-50.000	-77.136	-121.109	18.199	194.115	185.882	-136.470	-70.793	161.052	-87.200	-63.003	200.961	195.259	159.141	0.00013037	0.00029388	4.9949e-05	1012.4	9.5766e-07	2.8471e-06	1093.9	213.84	4.1382e-07	1.9324e-06	266.38	74.791	58.635	16.448	2.7026e-06	23.588	0.00015098	0.00013852	3.7726e-05	991.45	1.6935e-06	1.5186e-06	1077.8	211.54	1.6586e-06	1.5008e-06	264.34	75.131	58.821	16.693	1.5909e-06	23.723	-124.730	-35.096	-34.121	-132.897	31.696	1.862	-133.020	-125.791	7.823	52.563	-126.092	-120.014	-119.145	-111.505	-7.033	-111.852	-8191	255	
1297.049	1	1	0	0	0.27549	0.045057	0.043366	0.15068	0.06011	0.15595	0.42546	0.10905	0.1347	0.072512	0.041013	0.049157	0.45704	0.16912	0.11645	0.083634	-2.0938	-1.6917	-1.9042	-2.6875	-1.5042	-2.1854	-2.4583	-1.7354	-2.3771	-2.1813	-2.0062	-2.4792	-1.6938	-2.1167	-2.5187	-1.4771	207.592	61.652	-82.139	-84.674	-21.945	120.551	166.749	124.064	74.589	-26.989	-49.975	95.872	-116.074	41.279	4.738	26.126	0.00014576	0.00013351	7.0095e-05	1013	2.1917e-06	2.641e-06	1087.8	212.79	2.1984e-06	2.7689e-06	266.05	74.64	58.624	16.689	1.9276e-06	23.334	0.00015191	0.00013708	4.1841e-05	991.81	1.7339e-06	1.5388e-06	1074.9	211.39	1.6266e-06	1.479e-06	264.23	75.202	58.837	16.758	1.4885e-06	23.663	-120.626	-48.774	-62.887	-133.020	5.890	12.683	-132.956	-125.646	-6.509	-22.567	-126.091	-119.458	-119.114	-111.498	32.363	-111.779	-8191	255	
1297.144	1	1	0	0	0.37036	0.10953	0.0095239	0.057786	0.35009	0.10171	0.20325	0.17745	0.063317	0.049309	0.23973	0.12917	0.24768	0.2274	0.2691	0.30528	-2.0583	-2.1958	-1.6562	-2.6104	-1.7146	-1.9937	-2.5687	-1.7188	-2.3917	-1.9354	-1.6896	-2.4521	-1.7062	-1.9104	-2.3812	-1.5354	-50.379	65.455	6.522	3.136	-35.233	-113.887	153.115	176.013	96.645	-69.760	-64.506	31.548	194.385	-91.694	209.768	67.908	0.00012612	0.00034018	5.6095e-05	1004.7	9.3558e-07	1.8804e-06	1094.1	212.87	2.4273e-06	3.3989e-06	266.95	74.173	59.09	16.582	1.8908e-06	23.416	0.00014607	0.00013881	4.0926e-05	988.32	1.7209e-06	1.5435e-06	1078.1	211.11	1.6553e-06	1.3906e-06	264.65	75.04	59.015	16.754	1.557e-06	23.686	-127.677	-59.644	-71.883	-132.863	-30.629	16.789	-133.057	-125.936	-8.312	15.238	-125.833	-119.363	-119.770	-111.244	28.607	-111.994	-8191	255	
1297.241	1	1	0	0	0.215	0.04729	0.11062	0.13151	0.11729	0.13997	0.22342	0.41654	0.090864	0.30557	0.20163	0.090454	0.096592	0.17697	0.16972	0.085458	-2.025	-2.2104	-1.5938	-2.4396	-1.8979	-1.7208	-2.5917	-1.6396	-2.2333	-2.1688	-1.5083	-2.4021	-1.8875	-1.5833	-2.4917	-1.7042	-89.401	-3.794	-44.283	157.521	-134.762	152.013	155.441	188.709	184.357	148.088	-39.619	-57.162	-91.214	197.259	78.754	-69.200	0.00011936	0.00015746	6.4242e-05	1007.4	2.3567e-06	2.6316e-06	1097.3	213.72	2.1515e-06	2.8928e-06	266.2	74.888	58.739	16.625	1.5344e-06	23.499	0.000151	0.00013879	3.9008e-05	990.58	1.7016e-06	1.5539e-06	1079.2	211.38	1.6045e-06	1.5094e-06	264.67	75.133	58.756	16.727	1.4918e-06	23.747	-125.000	-89.382	-39.281	-133.378	2.380	13.408	-132.902	-125.722	-38.819	22.204	-125.791	-120.057	-119.290	-111.741	34.262	-112.301	-8191	255	
1297.360	1	1	0	0	0.11201	0.061061	0.18576	0.04262	0.088588	0.13028	0.26865	0.17742	0.12319	0.23628	0.19531	0.18058	0.22583	0.075076	0.24738	0.16995	-1.7896	-2.2583	-1.4292	-2.4792	-2.075	-1.5604	-2.6458	-1.6021	-1.9604	-2.4479	-1.6146	-2.4146	-2.0062	-1.7104	-2.4313	-1.8958	49.743	33.987	-103.018	106.455	117.417	151.740	152.407	181.100	59.143	214.721	-137.408	-125.293	-139.690	172.119	-114.239	78.988	0.0001271	0.00032348	8.425e-05	1010.1	2.0657e-06	2.4091e-06	1088.7	212.59	2.1713e-06	2.6863e-06	267.83	75.192	58.401	16.671	1.632e-06	23.49	0.00015715	0.00014502	3.7844e-05	990.7	1.7325e-06	1.5714e-06	1077.3	211.4	1.7131e-06	1.4525e-06	264.35	75.355	58.792	16.748	1.4845e-06	23.761	-133.944	-73.210	-45.738	-133.092	-10.723	20.815	-132.844	-125.740	-5.961	24.442	-126.054	-119.283	-119.592	-111.592	6.159	-112.067	-8191	255	
1297.432	1	1	0	0	0.17326	0.10043	0.045132	0.037107	0.2358	0.11284	0.1272	0.13588	0.19151	0.11619	0.17245	0.38348	0.3029	0.092953	0.20802	0.18782	-1.6729	-2.3229	-1.6479	-2.4188	-2.1146	-1.7437	-2.5854	-1.8458	-1.725	-2.4813	-1.475	-2.325	-2.2583	-1.7208	-2.3521	-2.0146	151.532	-46.568	-99.762	-47.197	-16.036	-115.776	-44.230	120.058	-9.738	82.013	195.175	-76.157	86.439	-51.846	202.768	105.798	0.00013134	0.00041795	4.7731e-05	1010.4	1.2908e-06	2.5161e-06	1095.5	213.21	1.8503e-06	3.803e-06	265.67	74.199	58.19	16.685	1.1778e-06	23.548	0.00015383	0.00013187	3.955e-05	992.27	1.6465e-06	1.56e-06	1078.8	210.86	1.6671e-06	1.467e-06	264.43	74.908	58.911	16.775	1.5279e-06	23.783	-123.736	-45.408	-32.020	-133.365	-32.721	-2.406	-133.011	-125.810	-31.347	-14.105	-126.503	-119.656	-119.482	-111.997	-3.282	-111.884	-8191	255	
1297.528	1	1	0	0	0.13602	0.17047	0.21147	0.1727	0.08668	0.17773	0.35165	0.10159	0.30526	0.13427	0.13084	0.12869	0.29059	0.13685	0.25139	0.23868	-1.425	-2.3187	-1.6854	-2.3333	-2.3792	-1.3292	-2.625	-2.0521	-1.6896	-2.3854	-1.8687	-1.9771	-2.3292	-1.4937	-2.4604	-2.0729	-1.676	24.201	-105.534	207.484	201.476	-32.859	139.069	81.431	-42.122	193.683	-131.674	-75.020	-22.023	115.073	-91.867	14.671	0.00011994	0.00029249	7.4706e-05	1011.6	1.9177e-06	2.479e-06	1091	213.72	2.3509e-06	3.0236e-06	267.16	74.732	58.188	16.733	1.99e-06	23.279	0.00015839	0.00014025	4.1044e-05	992.75	1.6799e-06	1.5734e-06	1077.5	211.65	1.7738e-06	1.4785e-06	264.87	75.192	58.808	16.762	1.5364e-06	23.671	-129.313	-61.489	-34.800	-132.908	21.685	0.919	-133.050	-125.851	-54.461	14.647	-126.271	-119.621	-119.012	-112.019	6.750	-112.134	-8191	255	
1297.624	1	1	0	0	0.10757	0.081562	0.13	0.24725	0.13041	0.32757	0.33928	0.1345	0.26531	0.21962	0.12404	0.054237	0.11294	0.28325	0.19543	0.073582	-1.3563	-2.3708	-1.8521	-2.1354	-2.3792	-1.7042	-2.5229	-2.1333	-1.8479	-2.6417	-1.9271	-1.8667	-2.2521	-1.7146	-2.2625	-2.3646	44.325	-0.700	-11.860	167.537	143.386	-32.106	173.478	159.610	115.355	-86.185	122.946	25.942	215.196	-73.641	20.179	175.564	0.00012527	0.00029691	3.7916e-05	1010.1	2.5957e-06	1.8048e-06	1095.1	214.11	2.2533e-06	2.3675e-06	265.9	74.883	58.147	16.647	2.176e-06	23.535	0.00015492	0.00013271	3.9587e-05	991.13	1.6397e-06	1.5674e-06	1078.9	211.94	1.7973e-06	1.454e-06	264.77	75.18	58.725	16.778	1.5703e-06	23.761	-126.787	-50.698	-60.258	-132.874	-7.218	-16.676	-133.069	-125.911	-0.981	-2.748	-126.096	-119.448	-119.637	-111.746	-30.995	-112.434	-8191	255	
1297.745	1	1	0	0	0.12436	0.22181	0.2774	0.16825	0.076155	0.31282	0.30517	0.26898	0.082975	0.12926	0.11705	0.095798	0.053888	0.13784	0.40913	0.051853	-1.375	-2.4771	-1.8583	-2.0771	-2.4396	-1.5958	-2.4437	-2.3271	-1.5042	-2.4542	-1.9542	-1.8312	-2.3833	-1.6812	-2.0896	-2.1604	-38.528	161.570	54.524	-20.938	71.045	106.449	126.941	109.025	-18.842	151.600	117.716	64.977	-21.029	97.418	-111.340	193.142	0.00013381	0.00028331	0.00010049	1014	2.1882e-06	3.5497e-06	1091.4	212.4	2.1233e-06	2.5071e-06	269.59	75.043	58.077	16.664	2.8371e-06	23.704	0.00015442	0.00013777	4.3646e-05	992.17	1.6799e-06	1.5519e-06	1079.4	210.97	1.7256e-06	1.4952e-06	264.92	75.207	58.651	16.76	1.5364e-06	23.761	-132.398	-65.876	-24.134	-133.299	-3.019	-17.591	-133.007	-125.880	-6.404	17.820	-126.211	-119.520	-119.223	-111.833	36.537	-111.968	-8191	255	
1297.841	1	1	0	0	0.042635	0.1963	0.028212	0.16906	0.11311	0.27524	0.17378	0.13136	0.045002	0.11603	0.17074	0.12765	0.098935	0.072929	0.030799	0.20581	-1.3021	-2.4458	-1.8687	-1.7771	-2.5646	-1.6104	-2.3312	-2.4417	-1.4854	-2.5312	-2.1271	-1.6875	-2.4083	-1.8292	-1.8896	-2.4833	189.318	143.050	143.437	173.661	96.998	-102.881	-64.470	22.112	-49.343	156.872	-71.674	-61.629	163.308	-53.169	199.062	-115.275	0.00011692	0.00019245	7.2778e-05	1004.3	1.4915e-06	2.4163e-06	1095.6	213.23	1.8796e-06	4.4915e-06	266.54	75.15	58.22	16.423	2.7897e-06	23.519	0.00015239	0.00013779	3.818e-05	990.22	1.6625e-06	1.6553e-06	1078.9	211.42	1.7073e-06	1.521e-06	264.45	75.304	58.932	16.694	1.571e-06	23.704	-129.058	-29.175	-61.579	-132.969	10.161	-2.520	-132.979	-125.907	-54.069	33.545	-126.150	-119.571	-119.473	-111.950	14.905	-112.476	-8191	255	
1297.937	1	1	0	0	0.25177	0.13829	0.057719	0.15728	0.062073	0.29485	0.25836	0.12055	0.35017	0.1432	0.3443	0.013945	0.24063	0.090653	0.16829	0.21875	-0.99583	-2.2896	-1.9438	-1.6396	-2.4292	-1.7687	-2.1167	-2.6292	-1.4917	-2.4	-2.1708	-1.7313	-2.3521	-1.8083	-1.9521	-2.6063	107.143	147.598	173.112	162.852	202.530	181.675	143.334	155.441	71.383	45.954	188.323	186.321	94.612	7.444	174.581	-143.895	0.00011749	0.00039351	8.1075e-05	1014.3	1.4219e-06	3.0927e-06	1098.2	212.54	1.9588e-06	3.3385e-06	267.3	74.589	58.867	16.471	1.0072e-06	23.51	0.00015185	0.00013426	4.0496e-05	992.03	1.6903e-06	1.5539e-06	1081.2	211.29	1.7569e-06	1.4478e-06	264.61	75.099	59.115	16.633	1.4876e-06	23.702	-131.019	-50.030	-66.866	-133.196	-46.580	-7.223	-133.064	-126.030	-24.497	-4.017	-125.878	-119.450	-119.313	-111.573	34.543	-112.438	-8191	255	
1298.033	1	1	0	0	0.33598	0.062336	0.25987	0.12956	0.082248	0.12471	0.28411	0.13091	0.13493	0.066396	0.15426	0.16696	0.048587	0.21823	0.33237	0.1925	-1.0479	-2.1521	-1.9667	-1.6146	-2.5229	-1.7875	-1.9354	-2.4688	-1.5229	-2.1583	-2.3729	-1.6021	-2.5208	-1.7833	-1.7542	-2.5125	116.142	-71.514	159.499	126.415	-89.298	-35.116	157.486	166.727	29.625	-133.044	-96.653	-141.016	-103.670	146.069	132.185	188.996	0.00012548	0.00019835	8.2805e-05	1009.2	1.7313e-06	3.9598e-06	1096	213.63	1.4285e-06	2.3051e-06	264.96	74.853	58.425	16.544	2.6485e-06	23.651	0.00015535	0.00014214	3.884e-05	990.11	1.6678e-06	1.5497e-06	1077.3	211.81	1.7179e-06	1.5028e-06	263.79	75.222	58.848	16.709	1.6246e-06	23.747	-124.049	-87.987	-71.862	-132.915	27.703	22.638	-132.975	-126.055	-1.120	-3.320	-126.509	-119.693	-119.788	-111.563	12.306	-112.203	-8191	255	
1298.128	1	1	0	0	0.22201	0.37404	0.045662	0.16005	0.065368	0.089887	0.24067	0.042327	0.10715	0.044579	0.25887	0.1383	0.23697	0.15176	0.22035	0.10958	-1.425	-1.9208	-2.3063	-1.7125	-2.5354	-1.9312	-2.0104	-2.4729	-1.4813	-1.9833	-2.4208	-1.4146	-2.4542	-2.075	-1.6688	-2.5125	-142.858	-86.129	215.812	80.024	-110.667	-14.797	162.402	60.697	73.600	154.787	197.194	104.898	119.417	-10.878	30.282	138.131	0.00013868	0.00021131	7.9608e-05	1009	3.1634e-06	2.357e-06	1093	212.74	2.0479e-06	1.5078e-06	266.51	74.751	58.111	16.564	3.2189e-06	23.524	0.00015408	0.00014546	3.8622e-05	989.29	1.6085e-06	1.5072e-06	1078.6	211.62	1.7233e-06	1.5494e-06	264.51	75.033	58.748	16.721	1.6317e-06	23.767	-118.048	-83.855	-69.579	-133.138	-3.659	8.858	-132.829	-125.947	-30.576	-26.898	-126.620	-119.320	-119.278	-111.780	-7.014	-112.274	-8191	255	
1298.224	1	1	0	0	0.14018	0.11023	0.25084	0.24731	0.12481	0.2072	0.23172	0.058674	0.24043	0.093751	0.066138	0.19051	0.20002	0.1045	0.054105	0.37136	-1.3563	-1.9875	-2.3333	-1.8563	-2.3125	-2.0896	-1.7458	-2.7125	-1.7479	-2.0229	-2.5812	-1.8542	-2.3646	-2.1417	-1.7125	-2.4896	-118.953	154.209	-91.482	-45.943	-27.625	-67.683	62.982	96.849	33.130	46.453	97.627	70.877	33.352	-17.874	40.604	-58.368	0.00011344	0.00022908	0.00010295	1007.2	2.0039e-06	2.1673e-06	1094.9	213.33	2.8689e-06	2.5034e-06	267.99	74.495	58.297	16.765	2.5458e-06	23.349	0.00015142	0.00014045	3.7857e-05	989.92	1.6152e-06	1.4053e-06	1078.7	211.56	1.7043e-06	1.5183e-06	264.78	75.063	58.89	16.779	1.6208e-06	23.65	-120.886	-39.551	-62.004	-133.183	-12.848	-17.857	-133.145	-125.771	-21.259	-22.590	-126.069	-120.057	-119.146	-111.782	-2.269	-112.108	-8191	255	
1298.345	1	1	0	0	0.17011	0.065082	0.12562	0.12689	0.32053	0.23461	0.31374	0.075102	0.37977	0.23083	0.14046	0.14179	0.099109	0.19765	0.14141	0.13748	-1.4333	-1.7146	-2.425	-1.5896	-2.0771	-2.2396	-1.7521	-2.6729	-2.0583	-1.6396	-2.625	-1.6979	-2.025	-2.3146	-1.5521	-2.4146	36.278	205.551	108.403	-119.281	121.246	-61.388	175.909	-41.542	203.470	32.633	146.368	207.590	147.340	97.671	-21.525	-38.295	0.00012796	0.00031865	7.1384e-05	1009.2	2.3362e-06	1.3313e-06	1094.7	213.9	1.1042e-06	2.7122e-06	266.25	74.65	58.282	16.509	2.6988e-06	23.505	0.00015523	0.00013845	3.6132e-05	990.65	1.7471e-06	1.4793e-06	1078.6	212.24	1.7161e-06	1.5271e-06	264.43	75.094	58.928	16.725	1.6198e-06	23.716	-125.606	-38.828	-30.742	-132.977	-11.227	49.488	-132.924	-125.948	-38.056	-12.443	-126.153	-119.902	-119.184	-111.874	-1.264	-111.916	-8191	255	
1298.441	1	1	0	0	0.34544	0.080204	0.13627	0.10642	0.10617	0.11009	0.098491	0.11643	0.024514	0.15849	0.3025	0.091239	0.092062	0.12456	0.18163	0.076551	-1.6917	-1.625	-2.4396	-1.6667	-1.9917	-2.4521	-1.6896	-2.5542	-1.9188	-1.7625	-2.5646	-1.8333	-1.9875	-2.6458	-1.4896	-2.4458	114.205	-102.878	35.703	86.322	-1.938	93.659	127.166	16.490	21.743	167.880	124.776	-128.442	12.390	207.218	180.843	-84.008	0.00013172	0.00023053	7.587e-05	1011.4	1.8123e-06	3.7497e-06	1084.8	214.03	2.3679e-06	3.2168e-06	266.17	74.057	58.371	16.657	2.6369e-06	23.394	0.00015526	0.00013936	3.8367e-05	989.9	1.6444e-06	1.4517e-06	1075.4	211.8	1.6528e-06	1.6363e-06	264.77	75.124	59.053	16.787	1.6212e-06	23.744	-119.517	-26.616	-51.636	-133.165	-32.434	1.707	-133.134	-125.633	-11.608	34.172	-126.063	-120.036	-119.037	-111.826	8.866	-111.845	-8191	255	
1298.535	1	1	0	0	0.19373	0.1129	0.052003	0.35368	0.16004	0.35747	0.56404	0.26055	0.12698	0.14288	0.072834	0.066994	0.21046	0.062047	0.23753	0.27131	-1.9167	-1.7083	-2.5854	-2.1854	-2.0271	-2.5417	-1.6688	-2.2792	-2.2375	-1.5938	-2.3771	-1.9375	-1.7458	-2.5083	-1.7292	-2.1917	-28.887	146.779	30.705	153.604	109.986	-36.647	131.580	209.622	199.196	94.327	118.794	208.837	-125.119	148.026	97.258	-118.432	0.00012179	0.00035111	8.1453e-05	1010.3	1.9159e-06	2.2542e-06	1088.2	213.84	1.6273e-06	1.7374e-06	266.79	74.444	58.867	16.454	3.2794e-06	23.448	0.00014686	0.00014269	3.8305e-05	989.83	1.6143e-06	1.4791e-06	1076.7	211.73	1.6521e-06	1.5592e-06	264.42	75.214	59.056	16.701	1.6006e-06	23.715	-124.139	-55.465	-51.134	-133.022	6.548	18.143	-132.967	-125.604	-3.773	-31.268	-126.091	-119.814	-119.827	-111.881	16.081	-111.850	-8191	255	
1298.633	1	1	0	0	0.15431	0.14639	0.22732	0.59909	0.2015	0.14795	0.22501	0.26263	0.1975	0.13332	0.25702	0.14341	0.084857	0.26758	0.11145	0.09839	-1.8979	-1.6854	-2.4458	-2.2583	-1.7854	-2.6021	-1.8292	-2.0729	-2.4021	-1.6333	-2.5292	-2.0792	-1.7125	-2.475	-1.8583	-2.0479	164.192	-12.076	-26.888	167.468	209.976	157.698	71.613	175.630	111.769	-23.198	197.778	187.137	-120.526	-27.818	-76.513	47.487	0.00013185	0.00022852	9.2747e-05	1007.9	2.1685e-06	2.1935e-06	1091.6	212.91	1.8296e-06	2.7683e-06	268.48	74.151	58.738	16.665	2.6839e-06	23.574	0.00014942	0.00014712	3.6742e-05	990.39	1.6801e-06	1.3544e-06	1076.7	211.96	1.6695e-06	1.4814e-06	264.81	74.873	59	16.748	1.6603e-06	23.71	-134.516	-67.233	-69.301	-133.259	-15.662	-17.331	-133.069	-125.793	-15.269	14.594	-126.301	-119.950	-119.567	-111.769	-11.918	-111.675	-8191	255	
1298.727	1	1	0	0	0.17521	0.4146	0.15204	0.13313	0.10836	0.0378	0.095974	0.20304	0.1278	0.11718	0.16911	0.17917	0.052417	0.089918	0.17776	0.11926	-2.1229	-1.6313	-2.3187	-2.1583	-1.875	-2.5729	-1.8583	-2.0167	-2.4938	-1.6229	-2.4854	-2.1896	-1.6521	-2.5771	-1.8521	-1.9167	-20.673	-60.819	-112.296	187.204	40.411	11.965	39.026	127.944	45.298	25.590	-73.884	-84.082	68.037	154.043	-59.144	204.596	0.00012806	0.00025215	7.0926e-05	1010.5	3.2289e-06	2.0323e-06	1091.6	212.84	1.1843e-06	1.6945e-06	267.96	74.686	59.039	16.73	1.2241e-06	23.351	0.00015421	0.00014719	3.8716e-05	989.95	1.793e-06	1.5361e-06	1077.6	211.95	1.6375e-06	1.5008e-06	264.98	74.924	59.075	16.806	1.6047e-06	23.711	-126.441	-68.805	-63.063	-133.371	27.452	-24.528	-132.990	-125.781	41.701	-32.901	-126.066	-119.840	-119.198	-111.700	4.620	-111.867	-8191	255	
1298.824	1	1	0	0	0.17953	0.251	0.16901	0.13557	0.11504	0.16991	0.12327	0.15217	0.11134	0.14655	0.1023	0.14735	0.25009	0.14695	0.16898	0.2268	-2.3292	-1.4688	-2.35	-2.4437	-1.4917	-2.5271	-2.2687	-1.9646	-2.4854	-1.6708	-2.2313	-2.4188	-1.5812	-2.5563	-1.9479	-1.7708	-115.517	118.219	25.826	176.520	-19.760	210.332	89.358	162.124	139.441	-21.337	20.501	181.608	-140.435	67.002	176.180	-65.248	0.00012173	0.0004244	6.0932e-05	1006.2	1.695e-06	2.6622e-06	1092.1	213.26	1.5737e-06	2.7621e-06	268.27	74.483	58.034	16.603	2.8302e-06	23.64	0.00014947	0.0001428	4.0714e-05	989.62	1.7271e-06	1.4956e-06	1077.9	211.47	1.5999e-06	1.5961e-06	265.47	75.093	58.709	16.721	1.6165e-06	23.74	-123.141	-56.364	-30.635	-133.381	30.028	1.935	-132.968	-125.641	15.204	0.292	-126.262	-119.606	-119.555	-111.467	33.319	-111.923	-8191	255	
1298.944	1	1	0	0	0.11617	0.096224	0.085643	0.18193	0.1722	0.23587	0.22265	0.18133	0.1222	0.04213	0.1526	0.33889	0.062941	0.092416	0.2877	0.10415	-2.1354	-1.7812	-2.1417	-2.4979	-1.525	-2.525	-2.2062	-1.7833	-2.5521	-1.8271	-2.2458	-2.5417	-1.7375	-2.3187	-2.2521	-1.7687	-123.011	23.805	-125.358	81.382	-27.561	-99.123	206.512	152.001	197.153	6.320	174.723	177.180	-46.266	-83.067	114.372	-120.575	0.00014836	0.00017432	4.9978e-05	1008	1.8352e-06	3.0226e-06	1093.1	212.71	1.6693e-06	3.1371e-06	268.37	74.434	58.513	16.573	1.8563e-06	23.625	0.00015154	0.00015003	3.9382e-05	989.2	1.7849e-06	1.5033e-06	1076.8	211.66	1.6307e-06	1.5784e-06	264.93	74.914	58.966	16.743	1.5449e-06	23.757	-115.287	-56.748	-73.994	-133.084	-22.970	24.239	-133.110	-125.511	-8.927	14.569	-126.206	-119.510	-119.181	-111.288	-1.388	-112.316	-8191	255	
1299.040	1	1	0	0	0.19982	0.24271	0.067778	0.14937	0.21714	0.10362	0.10863	0.20787	0.30179	0.080896	0.26547	0.055178	0.20831	0.18601	0.065064	0.16076	-2.1708	-1.7896	-1.9271	-2.7396	-1.5	-2.4542	-2.5438	-1.7437	-2.5187	-1.8854	-1.9375	-2.4667	-1.4667	-2.3083	-2.3458	-1.7354	-8.390	73.259	117.271	125.320	-114.680	125.342	85.950	190.377	213.175	72.291	194.179	-46.067	166.308	125.813	181.231	-17.374	0.00012218	0.00026309	5.1379e-05	1004.4	2.0457e-06	4.3286e-06	1088.4	213.48	1.9344e-06	3.3219e-06	267.03	74.827	58.664	16.673	1.7288e-06	23.392	0.00015041	0.00014826	3.8678e-05	988.18	1.8616e-06	1.503e-06	1076	211.68	1.65e-06	1.5914e-06	264.77	75.119	59.078	16.799	1.5914e-06	23.672	-121.147	-54.955	-37.923	-132.879	-1.462	-8.433	-133.254	-125.779	-2.371	44.414	-125.773	-119.716	-119.270	-111.710	10.246	-112.026	-8191	255	
1299.137	1	1	0	0	0.18619	0.39416	0.1711	0.11886	0.068929	0.22497	0.27594	0.11216	0.24838	0.10399	0.061835	0.57589	0.14191	0.028443	0.2559	0.20346	-2.1417	-1.7667	-1.8813	-2.6396	-1.5979	-2.3958	-2.4021	-1.775	-2.3896	-2.0146	-1.8958	-2.5375	-1.6812	-2.2313	-2.3312	-1.6271	58.317	19.805	-88.522	-106.741	23.491	62.232	136.255	130.102	48.886	-44.931	13.994	199.705	151.477	-32.269	137.393	188.137	0.00012322	0.00033167	9.6918e-05	1005.4	2.1086e-06	1.4092e-06	1084.4	213.31	1.5951e-06	1.1767e-06	268.88	74.97	58.645	16.593	4.2191e-06	23.323	0.000158	0.00014748	4.0739e-05	988.41	1.8219e-06	1.5309e-06	1074.7	211.46	1.6194e-06	1.6287e-06	265.39	75.18	58.86	16.749	1.5452e-06	23.685	-128.516	-56.229	-43.644	-133.062	-8.212	16.909	-133.055	-125.853	-10.010	25.096	-126.261	-119.806	-118.975	-111.490	4.251	-112.268	-8191	255	
1299.233	1	1	0	0	0.097748	0.1976	0.24606	0.22784	0.12954	0.21662	0.08993	0.11947	0.21241	0.039096	0.083408	0.20493	0.31988	0.13999	0.18344	0.29901	-2.2021	-1.9396	-1.6021	-2.6271	-1.7854	-1.9438	-2.6104	-1.5812	-2.2771	-2.0875	-1.4667	-2.7562	-1.7917	-1.925	-2.3896	-1.6271	214.696	-83.494	-40.793	173.963	-104.566	211.698	72.784	99.099	2.247	53.757	130.071	50.667	140.343	113.774	-48.152	-53.621	0.0001355	0.00018442	8.0354e-05	1007.9	2.478e-06	9.6764e-07	1089	213.49	1.277e-06	2.8756e-06	267.25	74.804	58.549	16.691	2.4146e-06	23.485	0.00015211	0.00013941	4.3173e-05	988.99	1.8389e-06	1.58e-06	1075	211.51	1.666e-06	1.478e-06	264.49	75.184	59.078	16.784	1.5719e-06	23.654	-129.992	-48.842	-52.887	-132.947	17.214	-2.728	-133.022	-125.911	5.413	-19.878	-126.102	-119.637	-119.819	-111.743	-10.645	-112.333	-8191	255	
1299.304	1	1	0	0	0.086139	0.10408	0.093705	0.30382	0.091062	0.079452	0.30699	0.26705	0.02555	0.2529	0.28437	0.11733	0.13151	0.11249	0.051878	0.14954	-2.0604	-2.2729	-1.6729	-2.6125	-1.7854	-1.7313	-2.5854	-1.7833	-2.1271	-2.0979	-1.6437	-2.4042	-1.9688	-1.8375	-2.4667	-1.6542	138.662	189.885	117.560	97.884	142.269	-106.010	173.741	176.913	10.298	-15.346	167.336	-116.051	173.644	176.969	150.712	-93.480	0.00012022	0.00028244	5.6216e-05	1010.4	2.0854e-06	3.1281e-06	1083.8	212.34	1.4688e-06	1.8093e-06	265.04	74.891	58.927	16.637	2.4999e-06	23.444	0.00015297	0.00013584	4.1106e-05	990.66	1.7448e-06	1.6267e-06	1074.2	211.22	1.6964e-06	1.5723e-06	263.9	75.243	58.969	16.736	1.644e-06	23.716	-119.009	-80.424	-58.886	-133.389	-8.435	11.620	-133.038	-125.849	-10.632	-10.395	-125.813	-119.742	-119.263	-111.728	-1.311	-112.108	-8191	255	
1299.425	1	1	0	0	0.094442	0.075588	0.19925	0.072331	0.17381	0.14957	0.015247	0.11384	0.24591	0.22841	0.12101	0.099723	0.069305	0.16454	0.14678	0.080465	-1.9104	-2.4562	-1.7938	-2.8417	-1.975	-1.8667	-2.5604	-1.9188	-2.2438	-2.3937	-1.5875	-2.5271	-2.0604	-1.7604	-2.3958	-1.7729	119.340	-40.256	190.606	-131.008	108.680	153.387	-78.143	194.620	22.250	-109.245	-122.240	26.359	106.617	-143.812	117.852	172.983	0.0001419	0.00033788	5.0751e-05	1013.6	1.247e-06	2.5754e-06	1089.4	213.11	1.8304e-06	2.6322e-06	266.18	74.504	58.502	16.481	2.1306e-06	23.431	0.00016088	0.00014094	3.9083e-05	990.46	1.7341e-06	1.6101e-06	1076.6	211.78	1.6801e-06	1.5411e-06	264.2	75.151	58.81	16.684	1.5743e-06	23.616	-130.956	-66.128	-43.445	-132.995	6.087	21.056	-132.865	-125.933	-34.759	19.741	-125.952	-119.661	-119.532	-111.491	-7.056	-112.323	-8191	255	
1299.521	1	1	0	0	0.22685	0.14787	0.34892	0.12494	0.069643	0.25371	0.2675	0.34379	0.22733	0.17284	0.2336	0.16699	0.063422	0.19635	0.064003	0.087755	-1.6729	-2.4437	-1.6187	-2.5583	-2.1729	-1.6604	-2.5979	-1.7333	-2.2146	-2.4917	-1.6187	-2.4792	-2.2396	-1.6125	-2.4958	-1.7646	157.141	-23.706	214.012	132.609	-128.942	1.785	171.055	106.717	102.088	-51.238	97.776	114.006	150.311	-27.742	141.513	93.168	0.00013618	0.00034826	9.7953e-05	1012.7	2.0447e-06	2.2863e-06	1091.3	213.53	2.1058e-06	3.0015e-06	266.42	74.563	58.607	16.656	2.2082e-06	23.31	0.00015822	0.00014202	4.2271e-05	990.33	1.7645e-06	1.6047e-06	1075.4	211.39	1.6646e-06	1.6461e-06	264.51	75.056	58.882	16.764	1.4869e-06	23.62	-129.576	-40.606	-62.920	-133.129	-19.875	0.990	-133.164	-125.851	12.264	26.186	-125.937	-119.595	-118.881	-111.442	-12.049	-112.113	-8191	255	
1299.617	1	1	0	0	0.30448	0.090966	0.19381	0.13501	0.091053	0.12762	0.21636	0.32504	0.25524	0.089072	0.2746	0.095456	0.16072	0.20236	0.1223	0.13169	-1.3875	-2.3792	-1.6042	-2.5333	-2.2917	-1.5854	-2.55	-1.9937	-1.9354	-2.4646	-1.7917	-2.25	-2.35	-1.6187	-2.5083	-2.1437	68.042	129.807	62.668	-116.579	33.379	12.627	155.123	167.712	98.398	137.812	200.443	-102.205	-133.799	170.702	114.307	-141.115	0.00013721	0.00033297	8.2671e-05	1013.3	1.2422e-06	3.0126e-06	1088.4	212.47	1.2299e-06	2.6626e-06	267.02	74.658	58.68	16.476	1.9187e-06	23.593	0.00015337	0.00014639	4.1623e-05	989.74	1.6469e-06	1.6111e-06	1076.1	210.99	1.6746e-06	1.4117e-06	264.48	75.113	58.836	16.681	1.608e-06	23.71	-133.648	-64.761	-65.262	-133.085	-7.212	-2.644	-133.044	-125.976	-40.504	-3.677	-126.439	-119.441	-119.053	-111.574	22.755	-112.233	-8191	255	
1299.713	1	1	0	0	0.14971	0.28095	0.16956	0.31948	0.057995	0.25841	0.065315	0.12731	0.11568	0.1042	0.19358	0.12073	0.045224	0.2245	0.20557	0.17639	-1.45	-2.5875	-1.85	-2.2396	-2.3521	-1.6771	-2.5354	-2.0792	-1.7833	-2.4833	-1.8458	-1.95	-2.4333	-1.5896	-2.1979	-2.0729	-139.005	-112.641	-140.910	187.873	93.989	-73.905	109.945	148.820	12.331	86.735	175.842	-12.998	92.645	-26.197	-9.211	87.651	0.00012952	0.00038288	6.7417e-05	1002.9	2.0531e-06	1.8459e-06	1092	213.05	2.2814e-06	4.1236e-06	267.17	74.631	59.02	16.484	1.252e-06	23.234	0.00015833	0.00013684	4.0253e-05	987.52	1.6344e-06	1.6035e-06	1077	211.37	1.7061e-06	1.4517e-06	264.7	75.204	58.994	16.704	1.6037e-06	23.704	-129.123	-59.665	-59.230	-132.750	15.363	-19.086	-133.008	-126.011	-48.090	9.781	-126.119	-119.591	-119.105	-111.809	-26.545	-112.492	-8191	255	
1299.832	1	1	0	0	0.33579	0.01031	0.14736	0.25045	0.05683	0.28179	0.26679	0.21951	0.018817	0.069594	0.1563	0.12633	0.26091	0.073539	0.32141	0.16429	-1.2437	-2.4354	-1.9458	-2.1771	-2.375	-1.4375	-2.4646	-2.3042	-1.6313	-2.5438	-1.9479	-1.9562	-2.3958	-1.5729	-2.2062	-2.4021	-125.246	-35.780	-141.592	-142.768	46.955	-100.746	177.295	196.415	-30.840	-0.606	119.726	23.813	33.491	131.493	-79.031	76.536	0.0001239	0.00026175	8.1555e-05	1004	1.7813e-06	2.2738e-06	1088	213.5	2.3698e-06	2.4626e-06	266.21	74.768	58.56	16.647	1.9448e-06	23.682	0.00015247	0.00015054	3.7191e-05	988.12	1.7232e-06	1.5743e-06	1074.6	211.22	1.7152e-06	1.4957e-06	264.27	75.284	58.798	16.707	1.5388e-06	23.698	-133.558	-64.462	-55.436	-133.124	35.892	-10.557	-133.011	-125.783	-6.626	15.037	-126.065	-119.417	-119.401	-111.853	-31.498	-112.340	-8191	255	
1299.928	1	1	0	0	0.20231	0.25106	0.26825	0.36168	0.067214	0.24249	0.11548	0.23663	0.082918	0.12109	0.10771	0.19326	0.13572	0.0086351	0.083346	0.35531	-1.2292	-2.3208	-1.7479	-1.9188	-2.5396	-1.5938	-2.4521	-2.6354	-1.6	-2.4979	-2	-1.6792	-2.4062	-1.8396	-2.0708	-2.4083	74.698	214.697	-46.030	147.377	166.496	126.402	49.734	-135.967	139.149	-76.760	-136.337	-126.055	-142.874	94.715	119.967	128.461	0.00015232	0.0002731	7.4024e-05	1004	2.8006e-06	2.7229e-06	1091.2	212.51	2.3187e-06	2.1038e-06	268.01	74.561	58.211	16.547	1.6085e-06	23.573	0.00015616	0.00013894	3.8566e-05	987.57	1.6217e-06	1.6602e-06	1075.2	211.23	1.7711e-06	1.519e-06	264.63	75.041	58.848	16.739	1.5674e-06	23.722	-132.137	-45.576	-60.019	-132.859	3.822	44.103	-132.763	-125.922	-26.503	-13.022	-126.367	-119.328	-119.055	-112.026	-17.529	-111.876	-8191	255	
1300.025	1	1	0	0	0.20309	0.052949	0.17032	0.13859	0.13301	0.19355	0.074437	0.062878	0.038565	0.14204	0.15514	0.21716	0.049774	0.28167	0.16874	0.082181	-1.1771	-2.3125	-1.9729	-2.0271	-2.4896	-1.8438	-2.3438	-2.5104	-1.6812	-2.3396	-2.0417	-1.8729	-2.5521	-1.8625	-1.8271	-2.4417	124.576	-60.649	82.977	-41.427	-6.763	95.043	106.098	-126.714	113.148	200.900	210.711	-99.688	-129.415	-118.512	-64.603	164.765	0.00012677	0.0002401	7.0994e-05	1005.4	1.9462e-06	1.4748e-06	1088.8	213.02	2.0856e-06	4.0925e-06	267.13	74.475	58.57	16.549	2.5248e-06	23.472	0.00015448	0.0001326	3.8847e-05	987.02	1.6525e-06	1.546e-06	1075.9	211.42	1.6579e-06	1.4854e-06	264.32	74.973	58.775	16.727	1.5975e-06	23.684	-129.335	-58.965	-45.204	-132.788	-14.428	-9.270	-132.984	-125.678	-2.092	6.284	-126.100	-119.108	-119.280	-111.402	16.492	-111.856	-8191	255	
#DATA ENDS
