BOXY.EXE: ISS Imagent and Oximeter Data Acquisition Program Version 0.80
Ascii Record File

#ACQ INFORMATION
2  Detector Channels 
16  External MUX Channels 
1  Auxiliary Channels 
5000  Waveform (CCF) Frequency (Hz)
1  Waveforms Skipped 
30  Waveforms Averaged 
1  Cycles Averaged 
16  Acquisitions per Waveform 
10.0806  Updata Rate (Hz) 

#FILE INFORMATION
TRUE -- External MUX Channel results are PARSED.
FALSE -- AC DC and Phase are NOT grouped.
TRUE -- Companion Program Settings File CREATED.
FALSE -- AC data not excluded
FALSE -- DC data not excluded
FALSE -- Phase data not excluded
FALSE -- Auxillary Chn. data not excluded
Tab delimiters

#CALIBRATION STATE
TRUE -- Waveform Calibration Values APPLIED.


#AUX CALIBRATION VALUES
Val Type	aux-1	

Term	1.0000e+00	
Factor	0.0000e+00	


#WF CALIBRATION VALUES
A = Detector Channel
Val Type	A-AC1	A-AC2	A-AC3	A-AC4	A-AC5	A-AC6	A-AC7	A-AC8	A-AC9	A-AC10	A-AC11	A-AC12	A-AC13	A-AC14	A-AC15	A-AC16	A-DC1	A-DC2	A-DC3	A-DC4	A-DC5	A-DC6	A-DC7	A-DC8	A-DC9	A-DC10	A-DC11	A-DC12	A-DC13	A-DC14	A-DC15	A-DC16	A-Ph1	A-Ph2	A-Ph3	A-Ph4	A-Ph5	A-Ph6	A-Ph7	A-Ph8	A-Ph9	A-Ph10	A-Ph11	A-Ph12	A-Ph13	A-Ph14	A-Ph15	A-Ph16	

Term	0.00000e+00	0.00000e+00	0.00000e+00	0.00000e+00	0.00000e+00	0.00000e+00	0.00000e+00	0.00000e+00	0.00000e+00	0.00000e+00	0.00000e+00	0.00000e+00	0.00000e+00	0.00000e+00	0.00000e+00	0.00000e+00	0.00000e+00	0.00000e+00	0.00000e+00	0.00000e+00	0.00000e+00	0.00000e+00	0.00000e+00	0.00000e+00	0.00000e+00	0.00000e+00	0.00000e+00	0.00000e+00	0.00000e+00	0.00000e+00	0.00000e+00	0.00000e+00	0.00000e+00	0.00000e+00	0.00000e+00	0.00000e+00	0.00000e+00	0.00000e+00	0.00000e+00	0.00000e+00	0.00000e+00	0.00000e+00	0.00000e+00	0.00000e+00	0.00000e+00	0.00000e+00	0.00000e+00	0.00000e+00	
Factor	1.00000e+00	1.00000e+00	1.00000e+00	1.00000e+00	1.00000e+00	1.00000e+00	1.00000e+00	1.00000e+00	1.00000e+00	1.00000e+00	1.00000e+00	1.00000e+00	1.00000e+00	1.00000e+00	1.00000e+00	1.00000e+00	1.00000e+00	1.00000e+00	1.00000e+00	1.00000e+00	1.00000e+00	1.00000e+00	1.00000e+00	1.00000e+00	1.00000e+00	1.00000e+00	1.00000e+00	1.00000e+00	1.00000e+00	1.00000e+00	1.00000e+00	1.00000e+00	X	X	X	X	X	X	X	X	X	X	X	X	X	X	X	X	

B = Detector Channel
Val Type	B-AC1	B-AC2	B-AC3	B-AC4	B-AC5	B-AC6	B-AC7	B-AC8	B-AC9	B-AC10	B-AC11	B-AC12	B-AC13	B-AC14	B-AC15	B-AC16	B-DC1	B-DC2	B-DC3	B-DC4	B-DC5	B-DC6	B-DC7	B-DC8	B-DC9	B-DC10	B-DC11	B-DC12	B-DC13	B-DC14	B-DC15	B-DC16	B-Ph1	B-Ph2	B-Ph3	B-Ph4	B-Ph5	B-Ph6	B-Ph7	B-Ph8	B-Ph9	B-Ph10	B-Ph11	B-Ph12	B-Ph13	B-Ph14	B-Ph15	B-Ph16	

Term	0.00000e+00	0.00000e+00	0.00000e+00	0.00000e+00	0.00000e+00	0.00000e+00	0.00000e+00	0.00000e+00	0.00000e+00	0.00000e+00	0.00000e+00	0.00000e+00	0.00000e+00	0.00000e+00	0.00000e+00	0.00000e+00	0.00000e+00	0.00000e+00	0.00000e+00	0.00000e+00	0.00000e+00	0.00000e+00	0.00000e+00	0.00000e+00	0.00000e+00	0.00000e+00	0.00000e+00	0.00000e+00	0.00000e+00	0.00000e+00	0.00000e+00	0.00000e+00	-1.03147e+02	-1.27696e+02	-1.26040e+02	-1.81176e+02	-6.23970e+01	-6.75592e+01	-1.58780e+02	-1.62015e+02	-5.65277e+01	-6.22897e+01	-1.72992e+02	-1.70125e+02	-1.79834e+02	-1.76748e+02	-6.70119e+01	-1.49179e+02	
Factor	1.55199e-05	1.44807e-04	4.06336e-05	1.55882e-01	1.24127e-06	1.48260e-06	1.50087e-01	4.62077e-02	1.01788e-06	1.60599e-06	9.62183e-02	2.73408e-02	4.09599e-02	8.78388e-03	1.32503e-06	1.25402e-02	7.43530e-06	1.06435e-05	2.98820e-06	8.29155e-02	1.11264e-07	1.18464e-07	7.49576e-02	2.47378e-02	1.11329e-07	1.17809e-07	4.95847e-02	1.42385e-02	2.21954e-02	4.73677e-03	1.13755e-07	6.51851e-03	X	X	X	X	X	X	X	X	X	X	X	X	X	X	X	X	



#DISTANCE SETTINGS
A = Detector Channel
A-1	A-2	A-3	A-4	A-5	A-6	A-7	A-8	A-9	A-10	A-11	A-12	A-13	A-14	A-15	A-16	

2.5000e+00	3.0000e+00	2.5000e+00	3.0000e+00	2.0000e+00	3.0000e+00	1.5000e+00	3.0000e+00	3.0000e+00	3.0000e+00	3.0000e+00	3.0000e+00	3.0000e+00	3.0000e+00	1.5000e+00	3.0000e+00	

B = Detector Channel
B-1	B-2	B-3	B-4	B-5	B-6	B-7	B-8	B-9	B-10	B-11	B-12	B-13	B-14	B-15	B-16	

1.0000e+01	1.0000e+01	1.0000e+01	1.4400e+00	1.0000e+01	1.0000e+01	1.5100e+00	1.9400e+00	1.0000e+01	1.0000e+01	1.9900e+00	2.4900e+00	2.4100e+00	2.9000e+00	1.0000e+01	2.9800e+00	




#DATA BEGINS
time	group	step	mark	flag	A-AC1	A-AC2	A-AC3	A-AC4	A-AC5	A-AC6	A-AC7	A-AC8	A-AC9	A-AC10	A-AC11	A-AC12	A-AC13	A-AC14	A-AC15	A-AC16	A-DC1	A-DC2	A-DC3	A-DC4	A-DC5	A-DC6	A-DC7	A-DC8	A-DC9	A-DC10	A-DC11	A-DC12	A-DC13	A-DC14	A-DC15	A-DC16	A-Ph1	A-Ph2	A-Ph3	A-Ph4	A-Ph5	A-Ph6	A-Ph7	A-Ph8	A-Ph9	A-Ph10	A-Ph11	A-Ph12	A-Ph13	A-Ph14	A-Ph15	A-Ph16	B-AC1	B-AC2	B-AC3	B-AC4	B-AC5	B-AC6	B-AC7	B-AC8	B-AC9	B-AC10	B-AC11	B-AC12	B-AC13	B-AC14	B-AC15	B-AC16	B-DC1	B-DC2	B-DC3	B-DC4	B-DC5	B-DC6	B-DC7	B-DC8	B-DC9	B-DC10	B-DC11	B-DC12	B-DC13	B-DC14	B-DC15	B-DC16	B-Ph1	B-Ph2	B-Ph3	B-Ph4	B-Ph5	B-Ph6	B-Ph7	B-Ph8	B-Ph9	B-Ph10	B-Ph11	B-Ph12	B-Ph13	B-Ph14	B-Ph15	B-Ph16	aux-1	digaux	

1694.952	1	1	0	512	0.16447	0.12173	0.11107	0.24952	0.16529	0.1367	0.12778	0.28077	0.071645	0.2438	0.29859	0.092338	0.27556	0.16856	0.24892	0.3064	-2.2604	-1.7	-2.3312	-2.4104	-1.8125	-2.5208	-2.0812	-1.9792	-2.4542	-1.675	-2.3104	-2.4688	-1.8125	-2.4083	-1.9833	-2.0438	235.590	128.314	195.794	6.589	-41.450	-10.238	236.179	-56.951	184.741	119.358	-88.678	-91.344	119.689	234.823	-37.032	191.053	0.00015209	0.0020524	0.00035091	630.21	1.886e-05	2.2448e-05	880.52	189.6	1.5453e-06	2.5589e-05	335.22	130.99	65.189	24.88	1.638e-05	56.016	0.036945	0.052747	0.014849	1024.6	0.00055055	0.00058503	1225.6	304.44	0.00054253	0.0005708	564.25	197.07	170.26	46.531	0.00053353	85.207	174.826	-55.431	41.469	-85.613	54.912	113.803	-85.577	-81.403	175.699	112.192	-81.449	-77.560	-77.008	-72.761	36.006	-72.987	-8191	255	
1695.073	1	1	0	0	0.24985	0.24309	0.16918	0.12546	0.059385	0.0864	0.42884	0.21851	0.20457	0.29478	0.14992	0.32326	0.43328	0.031871	0.15809	0.19522	-2.225	-1.7437	-2.2792	-2.4646	-1.7458	-2.5104	-2.2521	-1.9271	-2.7708	-1.7333	-2.2125	-2.4437	-1.6437	-2.3354	-2.0458	-1.8917	-40.160	-43.226	242.777	-3.457	219.344	236.295	154.239	104.754	103.664	89.301	21.390	256.017	-24.119	19.396	118.859	197.548	0.00022874	0.0021994	0.00045483	627.02	1.8692e-05	1.0514e-05	870.55	184.4	1.9409e-05	1.1176e-05	327.76	130.24	64.312	24.961	1.9515e-05	57.205	0.034529	0.049212	0.013718	983.8	0.00050643	0.00053807	1180.7	290.22	0.00049882	0.00052744	539.45	190.9	162.09	45.339	0.0005037	84.362	218.681	5.246	8.164	-85.786	79.712	65.328	-85.672	-81.675	119.447	56.302	-81.825	-77.617	-77.347	-72.681	6.391	-73.284	-8191	255	
1695.167	1	1	0	0	0.39018	0.37628	0.15914	0.37539	0.04883	0.043323	0.12712	0.094188	0.25337	0.0059894	0.32644	0.16442	0.26375	0.12998	0.15802	0.087477	-2.0354	-1.7938	-2.0708	-2.5792	-1.5604	-2.3604	-2.4875	-1.6313	-2.5062	-1.6854	-2.0708	-2.6833	-1.7125	-2.3312	-2.3625	-1.9542	258.751	209.107	28.580	218.627	6.181	-70.464	50.244	-31.775	-43.296	139.813	229.797	211.639	246.900	-59.821	69.529	236.253	0.00010831	0.0013418	0.00098507	616.27	1.644e-05	3.3235e-05	857.15	181.55	1.2314e-05	1.4196e-05	327.54	130.39	64.852	25.068	1.5772e-06	56.891	0.032995	0.046961	0.013192	957.49	0.00049201	0.00052471	1163.1	286.29	0.00049553	0.00052837	539.82	192.3	163.44	45.817	0.00051401	84.943	-94.252	22.839	46.777	-85.689	38.849	24.613	-85.831	-81.055	-39.593	79.483	-82.409	-78.020	-78.426	-72.680	63.386	-73.646	-8191	255	
1695.239	1	1	0	0	0.11765	0.14575	0.13619	0.15439	0.13813	0.20659	0.28939	0.29423	0.11287	0.32392	0.11502	0.23005	0.13298	0.16831	0.084777	0.12096	-2.0958	-1.8542	-1.8583	-2.8896	-1.7958	-2.2521	-2.675	-1.7	-2.4458	-1.9562	-1.9	-2.6896	-1.7292	-2.1458	-2.4771	-1.7458	-41.107	21.291	124.826	237.321	132.089	186.901	191.561	218.087	11.241	136.407	222.605	241.799	230.947	10.513	235.493	163.533	9.8835e-05	0.0034489	0.00052399	623.91	3.8109e-05	2.909e-05	868.72	182.48	1.9033e-05	1.6834e-05	330.15	129.6	65.087	24.473	1.4207e-05	55.556	0.033892	0.048334	0.013575	977.48	0.00050484	0.00053639	1182.3	290.58	0.00050325	0.00053114	542.51	191.34	163.31	45.21	0.00051321	83.715	6.307	0.405	205.532	-85.628	42.573	-3.525	-85.696	-81.599	80.441	-27.137	-82.263	-77.779	-78.451	-72.944	257.309	-73.431	-8191	255	
1695.335	1	1	0	0	0.012695	0.21595	0.20691	0.19452	0.16028	0.2161	0.13013	0.39297	0.21265	0.18959	0.21739	0.26942	0.20266	0.15007	0.13323	0.13538	-2.0625	-1.9583	-1.8271	-2.4208	-1.7979	-2.2292	-2.6312	-1.7896	-2.2812	-2.1854	-1.8479	-2.5375	-1.8479	-1.925	-2.5646	-1.5917	-88.199	208.294	45.082	102.175	215.601	209.904	206.893	208.007	118.992	124.304	182.599	-64.632	-65.706	255.691	174.347	177.477	0.00017877	0.00097859	0.00077847	636.04	9.7959e-06	3.052e-05	887.82	188.56	2.4164e-05	1.0837e-05	339.36	131.42	65.75	24.272	1.1332e-05	55.328	0.034153	0.048925	0.013843	1001.7	0.00052522	0.00056281	1220.1	301.49	0.00053532	0.00056852	567.48	198.41	172.39	46.539	0.00055096	85.38	154.933	40.443	199.630	-85.701	122.323	-8.702	-85.632	-81.913	191.729	-21.430	-81.813	-77.873	-77.985	-73.435	-55.193	-73.259	-8191	255	
1695.456	1	1	0	0	0.16556	0.17203	0.047933	0.23636	0.23888	0.060027	0.32458	0.0203	0.10183	0.16216	0.016685	0.16891	0.067832	0.20095	0.19746	0.12171	-2.0396	-2.2792	-1.6604	-2.4833	-1.9937	-1.7479	-2.6188	-1.7667	-2.0687	-2.4333	-1.7229	-2.8104	-2.0687	-1.7708	-2.4542	-1.6208	27.965	88.243	236.018	249.069	228.386	246.263	257.246	242.898	254.712	-73.042	30.128	201.211	-33.454	49.715	-28.616	69.833	0.00041614	0.00099877	0.00013722	639.07	3.7323e-05	1.8231e-05	889.05	188.73	1.4184e-05	2.2596e-05	336.05	131.92	66.671	24.32	1.0838e-05	55.76	0.03611	0.051747	0.014522	1023.3	0.0005429	0.00058044	1227.7	304.59	0.00054554	0.00057862	569.55	199.59	173.45	46.942	0.00054709	85.686	-78.516	127.960	30.637	-85.956	-88.275	220.670	-85.964	-81.735	100.332	250.574	-81.822	-77.961	-78.104	-73.276	195.298	-73.454	-8191	255	
1695.552	1	1	0	0	0.33363	0.11196	0.057183	0.27005	0.097788	0.14948	0.046851	0.34828	0.27302	0.22619	0.082891	0.16324	0.054248	0.10114	0.079409	0.10389	-1.9438	-2.1917	-1.6021	-2.4729	-2.1688	-1.7896	-2.625	-1.7375	-2.0917	-2.4188	-1.7896	-2.3625	-2.0875	-1.6958	-2.5687	-1.8563	239.969	208.217	-68.042	90.334	-52.950	82.363	-38.686	-90.913	-93.988	155.741	207.714	21.122	-4.893	145.940	87.121	213.438	0.00021205	0.0028998	0.00071201	624.96	1.776e-05	1.0128e-05	856.81	181.59	9.3453e-06	3.2919e-05	325.23	129.96	64.127	24.998	2.6441e-05	57.471	0.035264	0.049829	0.013817	979.91	0.00050269	0.00052943	1164.4	285.43	0.00048757	0.00051334	528.82	188.5	157.5	44.469	0.00048252	83.407	147.395	31.531	93.704	-85.661	-13.147	-40.323	-85.610	-81.280	178.657	2.412	-81.775	-77.700	-77.848	-73.402	161.522	-73.507	-8191	255	
1695.648	1	1	0	0	0.25896	0.25493	0.24705	0.38634	0.17872	0.12778	0.07069	0.20768	0.1378	0.33685	0.28246	0.20604	0.13492	0.29352	0.2554	0.35946	-1.7146	-2.2833	-1.6208	-2.4146	-2.0729	-1.6854	-2.7083	-1.8583	-2.0396	-2.6	-1.8312	-2.5417	-2.3729	-1.7938	-2.5667	-2.0792	204.705	24.896	236.702	257.051	121.790	-39.888	200.762	-50.226	130.716	69.869	147.677	-71.290	115.169	180.364	82.612	237.725	0.00014953	0.0011852	0.00093845	609.3	5.9481e-06	1.0406e-05	844.54	178.28	1.3295e-05	4.4562e-05	322.5	130.4	63.684	25.371	1.1368e-05	58.044	0.031556	0.045137	0.01271	938.2	0.00047157	0.00050368	1136.7	278.59	0.00047846	0.00050754	528.33	190.45	160.79	45.716	0.0005081	85.858	255.578	249.783	-12.096	-85.925	237.491	74.245	-85.862	-81.797	160.916	78.937	-81.882	-77.144	-77.543	-72.658	218.460	-73.398	-8191	255	
1695.744	1	1	0	0	0.070828	0.063905	0.16651	0.16016	0.083355	0.35185	0.11433	0.082656	0.05713	0.27338	0.085682	0.34383	0.26225	0.16824	0.32003	0.33751	-1.2938	-2.5625	-1.6063	-2.3042	-2.3563	-1.4771	-2.7604	-1.9937	-1.7687	-2.4771	-1.8333	-2.3479	-2.4583	-1.6646	-2.5167	-2.0458	86.122	-85.706	-13.730	219.495	68.761	238.466	-54.387	206.972	93.187	169.892	212.529	-93.069	193.992	-95.493	208.975	212.946	9.5834e-05	0.0027109	0.00032234	611.94	2.5798e-06	6.7615e-06	845.35	180.27	2.16e-06	1.4386e-05	324.67	131.76	65.583	25.626	1.2076e-05	57.919	0.033864	0.048466	0.013694	970.14	0.00051022	0.00054659	1169	289.7	0.0005157	0.00054492	544.46	195.53	166.43	46.714	0.00052273	86.669	159.253	41.832	58.363	-85.700	177.568	77.079	-85.669	-81.731	102.771	-33.457	-82.379	-77.830	-77.197	-72.898	-59.344	-73.602	-8191	255	
1695.840	1	1	0	0	0.17488	0.071807	0.073809	0.22176	0.22718	0.18172	0.20968	0.10366	0.051762	0.18044	0.10034	0.25691	0.36428	0.1195	0.086109	0.18413	-1.3604	-2.4896	-1.9396	-2.2604	-2.3917	-1.6833	-2.7062	-2.1667	-1.875	-2.5271	-1.7458	-2.0333	-2.6896	-1.7083	-2.5458	-2.3896	189.984	-96.552	-83.341	165.436	233.623	-10.028	199.145	78.625	-73.072	-41.786	239.950	240.839	-21.597	253.623	224.708	67.552	0.00036784	0.001156	0.00028816	606.76	1.7499e-05	3.3386e-05	842.73	180.22	2.1175e-05	2.2789e-05	325.92	131.18	65.53	25.737	2.4722e-05	58.624	0.034087	0.04895	0.013718	964.8	0.00050982	0.00054352	1164.5	289.07	0.00051509	0.00054695	546.74	195.69	167.47	47.059	0.00052914	87.462	255.517	-43.399	-38.788	-85.854	65.780	47.723	-85.531	-81.767	144.659	218.976	-82.114	-77.626	-78.159	-73.177	64.052	-73.693	-8191	255	
1695.936	1	1	0	0	0.20979	0.22294	0.072205	0.040184	0.091236	0.10782	0.2267	0.45144	0.073057	0.19855	0.17573	0.068108	0.2553	0.35601	0.14517	0.11705	-1.35	-2.4958	-1.7979	-2.0187	-2.3979	-1.5854	-2.5271	-2.4646	-1.5979	-2.5312	-1.9708	-2.025	-2.6521	-1.7125	-2.0167	-2.2562	91.942	208.971	121.600	184.572	107.377	12.713	-97.084	258.153	151.812	117.233	253.836	14.464	141.656	250.774	-6.388	147.438	0.00020349	0.0018409	0.0007421	604.8	3.5365e-05	8.2088e-06	845.27	180.28	1.3282e-05	1.4367e-05	328.29	131.74	64.65	25.703	6.5818e-06	58.779	0.034516	0.049363	0.013738	966.5	0.00050898	0.0005405	1161.6	286.72	0.0005044	0.00053403	539.92	193.85	163.49	46.405	0.00051037	86.33	241.942	252.617	-17.942	-85.357	80.709	121.629	-85.227	-81.391	-24.398	-74.594	-81.885	-77.722	-78.946	-73.686	110.568	-73.792	-8191	255	
1696.032	1	1	0	0	0.17853	0.10935	0.13239	0.096245	0.11173	0.15795	0.1345	0.18773	0.42595	0.29256	0.04913	0.085595	0.090798	0.43044	0.29181	0.053285	-1.0812	-2.3625	-1.9208	-1.8104	-2.5187	-1.6187	-2.4292	-2.3937	-1.7458	-2.3292	-2.0875	-1.8979	-2.7812	-1.8167	-1.9417	-2.8146	-76.664	245.471	-92.455	47.953	50.262	33.930	28.836	250.928	99.375	-15.969	158.864	252.469	-76.972	-64.040	193.942	131.219	0.00037623	0.0013871	0.00053958	607.83	8.253e-06	1.8382e-05	847.98	180.76	6.8127e-06	4.2832e-05	324.63	130.71	65.321	25.274	7.6572e-06	57.769	0.033151	0.047519	0.013274	953.59	0.00049143	0.00052064	1151.6	283.32	0.00048321	0.00051099	528.65	188.97	157.97	44.972	0.00048257	83.89	146.291	251.905	-64.373	-86.016	97.856	125.328	-85.535	-81.732	-20.461	235.391	-81.964	-77.688	-77.045	-72.823	94.771	-73.420	-8191	255	
1696.153	1	1	0	0	0.17999	0.18965	0.093367	0.24015	0.24761	0.19001	0.17143	0.3593	0.10285	0.035809	0.27132	0.37376	0.18372	0.17183	0.33303	0.083129	-1.2292	-2.3271	-2.0917	-1.6771	-2.5312	-1.6313	-2.0583	-2.4167	-1.7604	-2.2292	-2.3292	-1.8917	-2.6792	-1.9104	-1.8042	-2.4229	-3.727	222.612	149.683	-77.794	51.439	-55.990	244.904	191.363	-5.240	-6.303	-84.425	208.863	167.301	-58.656	124.779	-90.717	0.00019876	0.0010841	0.00058806	613.15	1.2139e-05	1.7858e-05	859.49	181.75	2.213e-05	2.6911e-05	326.33	130.28	65.579	25.148	2.9696e-06	57.579	0.031522	0.044937	0.01267	943.5	0.00047361	0.00050744	1154.2	284.47	0.00048459	0.00051751	537.22	191.43	162.78	45.701	0.00050989	85.29	196.855	196.409	13.601	-85.625	79.223	-82.512	-85.757	-81.393	28.610	88.007	-81.809	-77.735	-78.682	-73.246	188.558	-73.346	-8191	255	
1696.247	1	1	0	0	0.11365	0.17741	0.031002	0.25004	0.098755	0.10414	0.35363	0.050061	0.098709	0.026576	0.26855	0.26889	0.090111	0.097301	0.39697	0.15504	-1.3854	-2.3312	-2.2167	-1.8563	-2.4125	-1.9188	-2.0604	-2.5104	-1.4917	-2.1396	-2.5375	-1.7458	-2.5771	-1.8792	-1.9208	-2.5979	-3.018	181.389	205.470	-62.541	23.516	182.489	119.064	196.845	60.117	-87.818	239.581	185.156	133.445	121.256	166.706	130.230	0.00026831	0.0015085	0.00052522	624.57	1.404e-05	2.0676e-05	873.99	185.23	1.6699e-05	1.5946e-05	331.68	131.84	65.794	25.071	3.1667e-05	57.437	0.033685	0.048575	0.013635	981.58	0.00051077	0.00054551	1192.5	295.01	0.00051727	0.0005497	553.92	195.83	168.82	46.748	0.00053116	86.383	193.645	65.020	30.165	-85.709	82.286	107.033	-86.028	-81.870	-49.674	233.951	-81.895	-78.093	-78.579	-73.670	59.832	-73.679	-8191	255	
1696.344	1	1	0	0	0.17986	0.15589	0.08812	0.047973	0.24864	0.49383	0.11065	0.20586	0.11967	0.27982	0.17228	0.065279	0.19093	0.17679	0.1236	0.27349	-1.2437	-2.3479	-2.4458	-1.7687	-2.4313	-2.0917	-1.8687	-2.6146	-1.8563	-2.2542	-2.5187	-1.6896	-2.5	-2.2458	-1.6542	-2.5812	-7.711	62.140	125.945	37.523	-64.368	3.286	-41.431	103.546	206.832	173.964	45.753	99.795	-3.619	205.132	189.508	158.950	0.00026883	0.00080738	0.00061934	626.14	3.419e-05	1.2775e-05	873.95	187.32	7.62e-06	2.3021e-05	331.45	132.52	66.539	25.444	1.9786e-05	57.389	0.034541	0.049276	0.013778	985.95	0.00051459	0.00054831	1197.8	297.51	0.00052236	0.00055494	559.19	197.93	171.52	47.283	0.00054579	87.484	179.822	-21.431	-87.387	-86.148	151.499	-37.113	-85.983	-81.780	229.590	55.885	-81.827	-78.120	-78.757	-73.167	108.830	-73.573	-8191	255	
1696.464	1	1	0	0	0.025981	0.34749	0.2019	0.091743	0.091635	0.10248	0.037979	0.073515	0.26443	0.23657	0.16519	0.032707	0.18693	0.22125	0.11624	0.10195	-1.2604	-1.7729	-2.4688	-1.7	-2.2708	-2.3875	-1.7208	-2.6979	-1.75	-1.9354	-2.7812	-1.6646	-2.2667	-2.2042	-1.6479	-2.5917	-30.776	124.111	93.328	47.820	91.541	223.755	80.728	208.013	4.577	99.850	-40.160	-45.024	246.687	223.831	68.918	-72.975	0.00024857	0.0012022	0.0004599	633.1	2.5629e-05	1.0564e-05	880.32	187.99	4.9096e-06	8.5528e-06	334.96	134.07	67.114	25.465	1.6031e-05	58.027	0.035797	0.051308	0.014358	1010.4	0.00053599	0.00057097	1217.5	303.15	0.00053867	0.00057414	568.76	201.42	175.21	48.229	0.00056698	88.869	-81.990	200.119	-67.950	-85.740	74.183	88.458	-85.574	-81.807	54.816	102.262	-82.402	-77.818	-78.034	-73.204	200.282	-73.827	-8191	255	
1696.536	1	1	0	0	0.099448	0.13601	0.29812	0.21102	0.33121	0.18835	0.26047	0.10871	0.12394	0.19013	0.19992	0.094742	0.11084	0.35817	0.11209	0.30925	-1.6208	-1.8417	-2.3542	-1.6479	-2.0771	-2.3438	-1.7875	-2.5146	-2.1667	-1.8875	-2.6854	-1.8333	-2.2646	-2.6021	-1.5625	-2.7125	63.177	61.725	-75.273	119.735	13.872	140.297	-85.440	3.292	-98.406	158.986	145.918	213.332	141.521	159.836	185.632	246.847	0.00022814	0.0022286	0.00084878	637.66	1.9908e-05	1.6833e-05	887.45	192.94	1.3672e-05	3.7063e-05	345.69	135.81	69.059	25.625	6.8116e-06	57.431	0.037453	0.053841	0.015245	1042.7	0.00057211	0.00061554	1258	316.09	0.00058441	0.0006257	596.64	209.92	187.26	50.728	0.00061795	92.282	-39.862	34.036	239.366	-86.057	50.640	22.557	-85.931	-81.746	45.517	-2.111	-82.206	-78.001	-77.853	-74.149	147.363	-73.553	-8191	255	
1696.632	1	1	0	0	0.21018	0.18377	0.085271	0.13714	0.022977	0.16441	0.27912	0.13858	0.2397	0.099226	0.42531	0.31367	0.25069	0.082463	0.19281	0.20413	-1.7437	-1.8062	-2.5979	-1.7729	-2.1979	-2.6271	-1.9208	-2.4958	-2.3729	-1.85	-2.8083	-2.0979	-2.1437	-2.6042	-1.7167	-2.55	-35.454	229.657	215.364	222.152	-94.079	127.426	187.685	145.744	8.575	119.285	216.755	35.855	219.342	149.937	-71.831	180.584	0.00030904	0.0029888	0.0008389	651.75	2.3585e-05	3.6806e-05	908.52	196.6	2.2602e-05	1.0305e-05	348.24	138.94	71.633	25.695	2.4719e-05	58.083	0.040901	0.058962	0.016651	1093.9	0.0006237	0.00067163	1311.5	333.46	0.00063031	0.00067267	620.09	216.55	195.13	51.832	0.00064007	93.441	254.935	160.038	-96.200	-86.288	218.859	86.439	-86.082	-82.274	187.358	189.035	-81.896	-78.258	-78.751	-73.689	90.052	-73.994	-8191	255	
1696.753	1	1	0	0	0.35808	0.1474	0.054162	0.10929	0.24684	0.086559	0.076355	0.27691	0.16258	0.17478	0.073997	0.14815	0.1691	0.22854	0.20582	0.11446	-2.0604	-1.4792	-2.4646	-1.9438	-1.875	-2.5667	-1.7188	-2.1896	-2.5	-1.5854	-2.5396	-1.9625	-1.9333	-2.5292	-1.725	-2.45	16.697	169.831	44.462	-82.551	251.104	3.503	142.829	218.526	145.213	-21.614	56.109	235.902	-18.547	217.658	218.735	215.422	9.4813e-05	0.0029737	0.0003412	657.13	1.3667e-05	2.1753e-05	912.49	197.09	2.6355e-06	8.442e-06	348.97	138.74	70.934	25.867	1.4658e-05	58.794	0.041668	0.059795	0.016869	1101.8	0.00062469	0.00066863	1309.1	330.92	0.00062745	0.00066578	619.77	217.23	195.97	52.328	0.00064897	94.407	9.586	-45.366	-19.003	-85.997	210.549	-60.979	-85.769	-82.217	-48.603	-12.520	-82.319	-78.090	-77.857	-73.508	203.623	-73.642	-8191	255	
1696.849	1	1	0	0	0.26286	0.14496	0.068126	0.34409	0.092063	0.17857	0.11484	0.15762	0.077223	0.026762	0.096612	0.44105	0.45654	0.1221	0.05214	0.11851	-1.9438	-1.5375	-2.6396	-2.3083	-1.7729	-2.7104	-1.9625	-2.1479	-2.5854	-1.725	-2.5312	-2.1583	-1.5729	-2.6896	-1.9771	-2.0979	120.816	-30.683	-26.095	160.691	224.291	-74.595	154.341	211.901	-57.778	70.966	93.599	210.818	-84.986	203.579	32.110	235.664	0.00069193	0.0029126	0.00042527	656.65	2.2216e-05	1.4603e-05	916.22	200.38	2.2142e-05	1.5012e-05	354.13	141.36	71.516	26.023	1.2091e-05	59.41	0.042321	0.060502	0.017005	1106.2	0.00063695	0.00068281	1320.6	338.09	0.00064857	0.00069035	635.83	222.27	202.09	53.713	0.00067688	96.787	252.627	106.177	209.549	-86.173	30.765	63.734	-85.902	-82.090	18.498	245.518	-82.494	-78.489	-78.813	-73.481	-50.836	-73.939	-8191	255	
1696.945	1	1	0	0	0.11078	0.086525	0.21653	0.32751	0.19734	0.13975	0.12158	0.2124	0.13578	0.30701	0.27601	0.26297	0.037931	0.26144	0.11197	0.16035	-2.1104	-1.4958	-2.1417	-2.3271	-1.5292	-2.5354	-1.9208	-2.0208	-2.35	-1.6063	-2.2833	-2.25	-1.6083	-2.7062	-2.1229	-2.1562	-94.251	215.616	72.189	208.276	47.315	172.847	254.623	166.417	211.170	136.625	237.775	199.069	106.656	6.568	-50.931	228.741	0.00041569	0.00095311	0.00034154	661.35	1.2201e-05	1.7194e-05	918.8	200.99	1.2853e-05	2.1386e-05	352.37	140.73	71.727	26.238	2.3524e-05	59.201	0.044436	0.063755	0.017938	1136.6	0.00066488	0.00070818	1339.4	342.14	0.00065966	0.00069572	634.18	221.44	199.41	52.792	0.00065006	94.245	223.663	-66.239	12.328	-86.301	-61.889	-4.233	-86.035	-82.451	8.777	211.940	-81.895	-78.783	-78.577	-73.650	222.425	-73.854	-8191	255	
1697.041	1	1	0	0	0.2586	0.40935	0.10739	0.22999	0.20151	0.18155	0.12299	0.28963	0.15092	0.24921	0.12794	0.08444	0.25447	0.099222	0.13708	0.22705	-2.275	-1.7708	-2.2333	-2.2667	-1.6187	-2.6208	-2.2083	-1.8917	-2.6167	-1.8083	-2.2917	-2.5396	-1.5375	-2.6667	-2.1042	-1.8771	111.861	250.297	-57.313	258.475	-19.964	236.477	137.344	192.474	127.497	168.077	187.868	235.603	219.092	90.200	-67.689	173.608	0.00022232	0.0016533	0.00055016	649.87	2.3034e-05	7.5486e-06	903.97	195.32	1.8881e-05	4.203e-05	348.47	137.21	70.307	25.965	1.6237e-05	57.735	0.042153	0.059915	0.016697	1088.5	0.00061444	0.00065314	1284.6	324.15	0.00060292	0.00063697	604.17	211.46	188.41	50.556	0.00061108	91.582	122.236	217.106	153.807	-85.817	183.941	137.275	-85.907	-81.867	115.986	251.599	-82.216	-78.042	-77.411	-73.370	239.984	-74.054	-8191	255	
1697.113	1	1	0	0	0.22002	0.18113	0.31582	0.29582	0.0052794	0.10212	0.10153	0.055941	0.20408	0.2932	0.098277	0.16829	0.36548	0.13298	0.19436	0.10434	-2.2104	-1.8771	-2.0563	-2.6896	-1.6437	-2.4042	-2.0938	-1.6313	-2.6437	-1.7771	-2.1208	-2.6333	-1.7833	-2.3667	-2.2833	-1.8604	40.738	-36.020	-11.198	258.639	204.268	-92.338	86.288	144.071	24.714	207.512	112.269	203.446	224.168	214.961	194.219	-68.275	0.00028304	0.0028053	0.0010005	650.32	1.1234e-05	1.6854e-05	899.71	195.91	2.071e-05	4.0531e-05	349.4	137.71	70.092	25.686	3.4898e-05	58.28	0.040012	0.05721	0.016095	1071.4	0.00059583	0.00063744	1273.9	322.3	0.00059426	0.00063208	603.3	212	187.31	50.365	0.00060416	91.377	250.406	-9.046	2.615	-86.502	74.620	139.138	-85.966	-82.063	163.219	185.072	-81.799	-78.213	-78.762	-73.467	123.291	-73.497	-8191	255	
1697.232	1	1	0	0	0.15148	0.18008	0.24071	0.097801	0.24373	0.23476	0.25195	0.22732	0.15756	0.21165	0.19117	0.05089	0.17401	0.15417	0.23186	0.44498	-2.275	-2.05	-2	-2.5938	-1.8375	-2.3979	-2.5062	-1.7354	-2.325	-1.9438	-1.9333	-2.8	-1.8062	-2.4479	-2.4542	-1.7375	-20.993	148.518	240.196	250.993	59.413	154.158	225.789	179.747	-82.281	88.791	144.249	134.171	-73.669	255.405	170.496	221.713	0.00020254	0.0011416	0.0006146	646.7	2.1834e-05	1.3404e-05	897.25	193.12	6.4442e-06	6.8765e-06	344.07	137.69	68.566	25.361	2.6904e-05	57.843	0.039369	0.056152	0.015683	1056.6	0.00057638	0.00061057	1256.4	314.07	0.00056453	0.00059684	583.69	206.22	177.73	48.254	0.0005591	88.118	90.183	-34.593	39.339	-85.987	38.476	181.791	-85.718	-81.909	-86.562	-41.091	-81.981	-78.186	-77.773	-73.086	-8.848	-73.520	-8191	255	
1697.328	1	1	0	0	0.27479	0.29761	0.32921	0.23318	0.1022	0.21155	0.24165	0.083138	0.23402	0.083884	0.32188	0.23455	0.22986	0.3257	0.10263	0.4103	-2.1646	-1.9292	-1.8083	-2.6083	-1.7812	-2.0292	-2.5854	-1.8479	-2.3854	-2.0583	-1.8583	-2.7896	-1.8104	-2.0917	-2.625	-1.825	229.194	13.932	218.615	-50.530	-17.231	206.861	198.956	125.652	-63.620	254.537	224.840	-4.067	-87.726	209.705	-61.085	251.447	0.00010548	0.002425	0.00079564	631.96	1.0252e-05	2.4793e-05	874.21	187.56	1.8145e-05	6.0306e-06	335.83	133.69	66.99	25.118	2.1391e-05	57.376	0.036013	0.051013	0.014268	1000.1	0.00052212	0.00055321	1195.7	295.89	0.00050765	0.00053661	550.23	195.57	164.7	45.631	0.00050727	84.758	224.293	175.791	191.983	-85.221	68.970	110.402	-85.775	-81.545	71.385	122.170	-82.120	-77.782	-77.735	-73.297	109.132	-73.662	-8191	255	
1697.424	1	1	0	0	0.10209	0.094198	0.10836	0.20094	0.36499	0.070011	0.11468	0.18519	0.10318	0.22661	0.11306	0.080817	0.39279	0.013278	0.21189	0.073865	-1.9167	-2.2125	-1.6063	-2.6542	-1.7875	-2.1021	-2.6083	-1.6229	-2.2625	-2.1333	-1.7375	-2.5292	-2.0271	-1.8833	-2.5646	-1.8208	243.063	155.058	246.342	-84.738	102.459	209.289	192.684	-91.575	-37.581	103.488	212.687	140.527	-51.340	-0.329	65.353	69.551	0.00026278	0.0026721	0.0002995	625.94	1.3505e-05	4.7742e-06	861.08	185.24	8.5353e-06	1.4544e-05	333.38	133.88	66.346	25.588	7.2739e-06	58.024	0.033023	0.047156	0.013212	967.31	0.00049068	0.00052421	1167.9	289.77	0.00049492	0.00052549	546.07	195.47	165.66	46.16	0.00051676	86.135	203.202	182.740	25.449	-85.927	-46.327	44.939	-85.809	-81.340	-87.401	35.697	-82.033	-77.918	-78.412	-73.499	82.485	-73.399	-8191	255	
1697.545	1	1	0	0	0.15291	0.20783	0.19135	0.10352	0.043237	0.21214	0.14212	0.34619	0.13266	0.059325	0.25652	0.32462	0.20664	0.025891	0.1581	0.056411	-1.7958	-2.2604	-1.4438	-2.5042	-2.0938	-1.7437	-2.6688	-1.9479	-1.9937	-2.3812	-1.5583	-2.5021	-2.0729	-1.8729	-2.5563	-1.7708	-29.462	91.395	79.042	223.566	-41.649	214.544	244.437	185.837	16.653	-6.481	4.053	246.169	248.417	49.111	37.169	-49.361	4.2449e-05	0.00063891	0.00079258	634.66	3.1207e-05	8.7085e-06	874.92	187.72	7.6156e-06	3.506e-05	339.2	136.31	67.901	25.779	2.822e-05	58.19	0.034138	0.049162	0.013935	995.21	0.00052718	0.00056532	1210	302.77	0.0005358	0.00056844	568	202.71	173.24	47.911	0.00054623	88.105	-82.610	121.624	22.362	-85.851	210.560	-83.520	-85.837	-82.088	67.226	100.807	-81.968	-77.619	-77.661	-73.274	-67.526	-73.501	-8191	255	
1697.641	1	1	0	0	0.18561	0.16803	0.26749	0.19326	0.33379	0.15004	0.36758	0.28335	0.06844	0.099047	0.48924	0.30034	0.20431	0.22261	0.27561	0.1308	-1.6521	-2.4437	-1.6604	-2.4458	-2.2833	-1.8625	-2.6042	-1.9354	-2.025	-2.4729	-1.825	-2.4958	-2.0417	-1.7292	-2.5458	-1.9479	-16.112	201.416	171.338	-61.824	247.393	27.570	157.391	115.077	235.679	251.146	-91.151	186.575	13.433	206.990	241.905	157.286	0.00022887	0.00085994	0.00026319	635.88	9.122e-06	1.9757e-05	881.65	188.99	1.7146e-05	2.4128e-05	336.12	137.06	68.166	25.913	1.3391e-05	58.821	0.035543	0.050782	0.014252	1004.4	0.00052665	0.00056184	1209.8	300.79	0.0005259	0.00055718	562.92	201.41	171.8	47.522	0.00053689	88.046	228.666	229.378	43.432	-85.348	-20.684	120.891	-85.504	-82.018	74.038	-43.116	-82.007	-77.896	-78.132	-73.177	247.018	-73.672	-8191	255	
1697.737	1	1	0	0	0.14893	0.13537	0.055035	0.23198	0.13678	0.28916	0.18351	0.21326	0.20343	0.070333	0.19418	0.28302	0.15955	0.1503	0.12815	0.26628	-1.3792	-2.6021	-1.7125	-2.5146	-2.3396	-1.7417	-2.6771	-2.1208	-1.9667	-2.6562	-1.7979	-2.3021	-2.4979	-1.8625	-2.4375	-2.1167	18.840	138.710	26.124	233.880	154.356	208.942	212.073	170.517	-60.216	207.792	184.142	202.566	-2.461	160.373	137.911	179.619	0.00040198	0.00055803	0.00062286	630.25	1.355e-05	1.0211e-05	876.88	188.73	2.0036e-05	7.4119e-06	340.13	135.99	68.523	25.876	2.1488e-06	58.432	0.035316	0.050288	0.014171	1002.7	0.00053018	0.00056667	1210.1	302.55	0.00053594	0.00056847	570.1	203.37	175.42	48.338	0.00055545	89.043	-65.304	183.640	-25.518	-85.959	19.781	-93.783	-85.644	-81.592	25.217	95.852	-81.922	-77.829	-78.081	-73.109	-81.999	-73.887	-8191	255	
1697.833	1	1	0	0	0.2431	0.028297	0.17421	0.092517	0.11047	0.23169	0.19534	0.11925	0.20032	0.28875	0.021136	0.064783	0.13345	0.21576	0.14229	0.21513	-1.3292	-2.6979	-1.6187	-2.3979	-2.3438	-1.5104	-2.5896	-2.2208	-1.6167	-2.4417	-1.9	-2.1375	-2.4271	-1.7125	-2.3292	-2.2104	203.754	-35.165	106.881	1.795	-84.458	159.647	116.920	234.581	154.467	113.736	132.288	188.636	40.817	-60.153	-48.981	165.760	0.00029393	0.0032531	0.00057009	635.76	8.4445e-06	1.9016e-05	883.26	191.1	7.2335e-06	2.8898e-05	339.97	137.42	69.171	25.867	9.24e-06	58.031	0.036663	0.052509	0.014751	1022.9	0.00055138	0.00058875	1230.1	308.28	0.00055282	0.00058576	577.16	205.11	177.04	48.454	0.00055866	88.616	-97.745	-8.009	248.436	-85.415	-22.942	127.304	-85.812	-81.955	18.053	12.482	-82.488	-77.843	-78.312	-73.434	156.084	-73.636	-8191	255	
1697.929	1	1	0	0	0.21454	0.12147	0.10787	0.22471	0.20294	0.32481	0.15289	0.18241	0.24797	0.029268	0.19447	0.22641	0.22704	0.067584	0.12549	0.35467	-1.2333	-2.5229	-2.0417	-1.925	-2.5833	-1.6146	-2.4667	-2.3417	-1.6854	-2.5354	-2.0333	-1.9833	-2.6937	-1.9	-2.3125	-2.7521	98.047	-72.096	254.789	259.887	30.406	-3.443	214.333	220.859	-34.845	-33.712	113.075	-89.452	211.329	180.993	99.547	-76.061	0.00030289	0.00072515	0.00049834	637.97	4.7344e-06	1.7256e-05	879.49	190.74	9.4061e-06	4.2681e-05	338.97	135.15	67.468	25.306	3.1499e-05	57.463	0.036294	0.051524	0.014391	1012.2	0.00053092	0.00056355	1212.1	300.98	0.0005219	0.00055053	559.59	198.54	168.93	46.288	0.00051969	85.69	151.784	18.846	23.779	-85.632	-89.248	143.432	-85.791	-81.758	182.755	210.829	-82.498	-78.047	-77.957	-73.202	60.435	-73.694	-8191	255	
1698.025	1	1	0	0	0.084458	0.45131	0.11763	0.11957	0.10616	0.42876	0.25591	0.20705	0.24657	0.40221	0.28275	0.34039	0.21112	0.096121	0.096609	0.20998	-1.3958	-2.3396	-2.0375	-2.0229	-2.5708	-1.7271	-2.2604	-2.5125	-1.7146	-2.5104	-2.2854	-1.6625	-2.4208	-1.5479	-1.9312	-2.4625	-22.169	-14.438	192.570	210.040	108.938	-66.758	180.897	112.596	-50.510	211.736	-35.161	256.132	120.341	-12.143	105.508	195.646	0.00017586	0.0024872	0.00034111	636.96	2.1678e-05	9.861e-06	876.19	187.7	1.0712e-05	1.7228e-05	337.23	135.39	66.664	24.976	2.1341e-05	57.503	0.033655	0.047986	0.013392	983.31	0.00049514	0.00052613	1186.1	291.13	0.00048965	0.00052011	546.21	195.35	164.53	45.679	0.00051122	85.408	91.637	-48.492	92.254	-85.680	-59.301	259.454	-85.667	-81.778	45.105	248.456	-81.920	-77.700	-78.095	-73.464	12.866	-73.134	-8191	255	
1698.146	1	1	0	0	0.054511	0.092144	0.29597	0.35751	0.11142	0.15394	0.22702	0.035474	0.070846	0.20062	0.16437	0.17852	0.29093	0.06251	0.32898	0.12453	-1.1979	-2.425	-1.9896	-1.9396	-2.6333	-1.8625	-2.2229	-2.6917	-1.7021	-2.475	-2.2979	-1.8417	-2.5667	-1.9833	-2.0125	-2.6333	243.309	121.659	-60.189	156.398	257.277	172.028	-79.505	244.780	42.049	186.565	176.961	236.779	-76.605	220.633	52.315	122.325	0.00023067	0.0021634	0.00068835	628.84	2.5318e-05	1.2382e-05	871.4	186.72	2.3139e-05	1.9155e-05	337.38	134.58	67.521	25.293	1.7409e-05	57.491	0.033337	0.04779	0.013398	981.04	0.0004986	0.00053146	1184.1	292.76	0.00049841	0.0005297	548.32	195.86	165.9	45.927	0.00051395	85.687	163.078	39.876	1.436	-85.866	-13.638	-67.085	-85.828	-81.435	121.700	19.549	-82.056	-77.603	-78.914	-73.244	-4.706	-73.518	-8191	255	
1698.240	1	1	0	0	0.11471	0.31226	0.13947	0.16367	0.043484	0.20997	0.1307	0.19762	0.12878	0.198	0.11859	0.31585	0.37639	0.14252	0.33162	0.26494	-1.15	-2.325	-2.3021	-1.6625	-2.45	-2.0417	-2.0521	-2.5083	-1.8167	-2.2854	-2.4458	-1.7375	-2.5479	-2.1333	-1.8333	-2.6854	71.564	144.403	37.305	237.648	40.249	37.637	254.220	198.176	117.855	184.964	228.133	-54.424	238.471	-93.026	240.973	175.622	6.2728e-05	0.002836	0.00017509	633.16	7.1408e-06	2.0298e-05	875.11	188.28	6.1787e-06	3.3713e-05	338.81	136.14	68.278	25.036	7.8565e-06	57.179	0.03365	0.048127	0.013531	983.01	0.00050366	0.00053852	1191.1	295.57	0.00050895	0.00054299	555.9	198.82	169.01	46.405	0.00052839	86.225	145.494	59.940	51.132	-85.900	44.449	126.313	-85.721	-81.279	45.729	-56.530	-81.879	-77.791	-77.554	-73.621	2.751	-73.470	-8191	255	
1698.337	1	1	0	0	0.16386	0.13217	0.10005	0.23741	0.025714	0.27541	0.071789	0.28512	0.062819	0.12228	0.091009	0.31938	0.1177	0.031205	0.14967	0.13205	-1.3042	-2.0958	-2.2604	-1.8354	-2.4938	-2.2083	-1.9604	-2.6271	-1.8792	-2.2458	-2.4646	-1.7146	-2.2833	-2.1521	-1.7729	-2.75	110.554	212.354	11.641	253.073	79.268	41.804	-64.915	201.785	-15.699	243.774	182.749	196.408	-28.235	19.673	98.900	206.219	3.0959e-05	0.0003328	0.00041123	639.29	7.3926e-06	1.6437e-05	896.27	190.87	3.2122e-06	4.3263e-05	340.6	135.22	68.053	25.156	4.0053e-05	57.741	0.034879	0.049659	0.013996	1004.7	0.00052063	0.00055562	1214.5	301.4	0.00052042	0.0005515	562.69	199.89	170.75	46.536	0.0005307	86.424	148.326	-92.342	100.204	-85.757	14.728	14.003	-85.634	-81.908	59.184	72.431	-81.869	-78.261	-77.651	-73.617	43.979	-73.683	-8191	255	
1698.433	1	1	0	0	0.20881	0.18616	0.1367	0.10511	0.206	0.13256	0.075728	0.24402	0.35331	0.17827	0.094031	0.17676	0.24984	0.10663	0.20709	0.14743	-1.3771	-1.9646	-2.475	-1.7271	-2.3771	-2.4375	-1.9042	-2.6562	-1.7729	-2.05	-2.6771	-1.6604	-2.3292	-2.2417	-1.8062	-2.5604	113.987	16.955	49.264	221.838	119.921	128.741	-92.803	259.743	143.985	-8.843	-63.220	196.103	242.250	-31.650	110.535	166.364	0.00048285	0.00057199	0.00035985	632.53	2.233e-05	2.0655e-05	889.41	189.77	5.8372e-06	1.1747e-05	340.63	137.17	67.15	25.481	1.1599e-05	57.751	0.034675	0.049524	0.013949	1000.6	0.00051834	0.00055145	1208.3	299.89	0.00051317	0.0005427	558.18	199.04	168.23	46.228	0.00051627	85.921	122.071	38.426	197.968	-85.295	64.379	-34.683	-85.654	-81.003	-61.140	55.305	-81.743	-77.802	-78.118	-73.136	224.004	-73.683	-8191	255	
1698.529	1	1	0	0	0.050212	0.14423	0.1867	0.41092	0.31041	0.20526	0.07337	0.22223	0.12518	0.03267	0.053285	0.2768	0.061247	0.14581	0.20066	0.12236	-1.5521	-1.8813	-2.5812	-1.6917	-2.1896	-2.4042	-1.6729	-2.5542	-2.0792	-1.9146	-2.8	-1.7729	-2.0438	-2.4167	-1.6688	-2.5312	-50.993	-69.747	93.245	232.843	-27.034	129.876	200.954	-97.796	247.236	-19.273	12.360	185.087	187.095	128.190	-43.009	-4.737	0.00045959	0.0019226	0.00033592	633.17	2.5489e-05	3.1928e-05	880.21	189.59	2.0406e-05	2.1714e-05	339.15	136.52	67.93	25.676	2.3856e-05	58.086	0.033841	0.04838	0.013596	989.48	0.00050971	0.00054465	1198.3	297.71	0.00051623	0.00054989	561.23	199.94	171.37	47.108	0.00053519	87.297	152.794	43.862	37.146	-86.035	129.884	237.134	-85.356	-81.739	-15.213	53.509	-81.826	-77.441	-77.822	-73.218	11.910	-73.255	-8191	255	
1698.625	1	1	0	0	0.36899	0.079215	0.21727	0.018533	0.13493	0.24889	0.27481	0.2177	0.19797	0.14612	0.174	0.14461	0.2303	0.10687	0.24873	0.20496	-1.725	-1.9292	-2.5187	-2.0625	-2.2354	-2.625	-1.8083	-2.5687	-2.3167	-1.5479	-2.5396	-2.0208	-1.9562	-2.5542	-1.4688	-2.4958	-69.564	218.250	1.407	-60.920	-76.456	13.647	-75.956	252.737	122.998	-20.377	217.058	-16.058	-31.653	196.624	-63.446	170.492	0.00021461	0.0026082	0.0010691	634.59	1.8696e-05	7.477e-07	876.87	190.29	1.41e-05	1.6457e-05	337.99	136.3	68.706	25.563	4.0728e-05	58.511	0.035126	0.050404	0.014125	1002.9	0.0005275	0.00056204	1206.8	302.75	0.00052866	0.00056296	566.75	201.56	172.7	47.494	0.0005382	87.623	200.522	60.927	80.978	-85.902	58.566	254.243	-85.418	-81.647	130.351	53.068	-81.808	-77.782	-77.571	-73.253	33.020	-73.265	-8191	255	
1698.721	1	1	0	0	0.077826	0.30013	0.40282	0.11143	0.046436	0.19564	0.26896	0.07206	0.14858	0.25582	0.15787	0.20673	0.29158	0.24428	0.14631	0.25005	-2.025	-1.7854	-2.4292	-1.9917	-1.9042	-2.5479	-1.8083	-2.3	-2.35	-1.7792	-2.6854	-2.1875	-1.8687	-2.5583	-1.7854	-2.25	92.465	251.873	49.616	169.750	159.842	252.708	111.770	254.806	68.325	64.481	-89.746	167.108	202.966	221.820	155.153	139.926	0.00026194	0.00014889	0.00024389	630.03	1.7015e-05	2.0822e-05	873.7	189.49	1.4748e-05	1.0419e-05	338.9	135.72	68.573	25.972	1.1365e-05	58.389	0.035124	0.050322	0.014104	995.89	0.00052058	0.00055575	1199.1	299.58	0.00052444	0.00055795	564.29	201.03	172.72	47.724	0.00054339	88.458	226.261	70.159	56.232	-85.274	11.349	37.527	-85.559	-81.434	71.210	50.037	-82.300	-77.864	-78.027	-73.786	172.645	-73.116	-8191	255	
1698.842	1	1	0	0	0.034805	0.11033	0.2126	0.24567	0.18398	0.06953	0.20356	0.12667	0.31614	0.19633	0.4087	0.095453	0.13606	0.13535	0.18394	0.066387	-1.9729	-1.6875	-2.4271	-2.2167	-1.7542	-2.6	-1.7979	-2.2188	-2.3854	-1.7646	-2.3667	-2.2771	-1.7354	-2.6229	-1.8708	-2.0646	-88.625	24.147	204.279	237.267	28.618	83.050	162.027	-64.540	-3.123	-49.914	119.865	131.704	-81.578	136.391	-0.043	-94.471	9.7525e-05	0.0020819	0.0005763	628.78	4.6356e-06	2.6337e-05	880.41	189.34	1.835e-05	1.2393e-05	339.31	135.5	68.103	25.792	4.906e-06	58.325	0.03558	0.050873	0.014237	1003.5	0.00052521	0.00055676	1206.6	299.91	0.00052104	0.00055071	560.53	199.61	169.88	46.852	0.00052678	87.296	126.716	99.356	-68.558	-85.428	29.289	48.788	-85.883	-81.543	-91.373	142.089	-81.808	-77.680	-77.927	-72.785	162.357	-73.674	-8191	255	
1698.938	1	1	0	0	0.17635	0.20747	0.28213	0.21775	0.25924	0.21968	0.087222	0.26889	0.10156	0.1723	0.076159	0.18278	0.16273	0.081452	0.094204	0.14675	-2.2021	-1.7542	-2.3146	-2.1937	-1.6792	-2.4771	-1.9833	-1.8438	-2.7354	-1.7271	-2.4542	-2.2729	-1.575	-2.5146	-1.8875	-2.1375	-42.005	44.242	-37.096	231.158	36.882	116.212	52.647	226.442	-21.196	-33.083	-79.813	103.805	11.814	-8.482	-19.237	223.805	0.00016041	0.0015795	0.00085916	642.49	1.2573e-05	1.0188e-05	881.13	190	1.5419e-05	1.5234e-05	343.99	136.13	68.123	25.461	2.8442e-05	57.887	0.034493	0.049435	0.013912	1000.6	0.0005174	0.00054948	1206.4	299.99	0.00051572	0.00054386	560.56	199.23	169.91	46.78	0.00052892	87.038	-8.371	235.758	39.638	-86.114	109.771	-47.269	-85.707	-81.457	167.808	-98.810	-82.170	-77.916	-77.978	-73.396	-37.066	-73.154	-8191	255	
1699.010	1	1	0	0	0.085878	0.11187	0.032343	0.1476	0.093631	0.063677	0.2557	0.17912	0.10161	0.21603	0.48815	0.081912	0.27042	0.048816	0.18584	0.20528	-2.2333	-1.7417	-2.125	-2.4917	-1.7083	-2.5604	-2.0438	-1.9333	-2.4729	-1.6042	-2.2604	-2.4958	-1.5417	-2.5979	-1.9292	-1.9229	-75.071	123.425	-2.708	151.243	162.145	-95.076	194.415	230.705	108.102	69.253	240.508	215.741	-96.660	18.249	52.372	218.793	0.00044195	0.0042332	0.00068129	641.74	6.7912e-06	2.9493e-05	891.56	191.7	7.3368e-06	3.5476e-06	345	136	69.531	25.625	1.305e-05	57.448	0.034911	0.049992	0.014119	1007.6	0.00052728	0.00056331	1221.3	304.69	0.00053474	0.00056673	572.01	202.86	174.87	47.628	0.00054795	87.896	232.066	20.835	-23.645	-85.628	-46.598	33.387	-85.553	-81.874	35.807	145.085	-81.923	-78.440	-78.751	-73.568	-14.032	-73.637	-8191	255	
1699.106	1	1	0	0	0.056166	0.19528	0.035009	0.079765	0.2033	0.1095	0.16376	0.13282	0.20776	0.3618	0.168	0.057802	0.15722	0.16503	0.18547	0.31028	-2.2833	-1.7563	-1.9479	-2.5812	-1.5938	-2.4167	-2.2562	-1.6812	-2.55	-1.8208	-2.0625	-2.6458	-1.6667	-2.4083	-2.1437	-1.8104	230.285	16.095	252.773	-80.121	-60.506	-95.424	180.324	-92.023	73.878	-32.138	166.116	223.018	93.416	232.739	125.196	-47.351	0.000324	0.00056666	0.00013337	642.06	1.7933e-05	8.2303e-06	894.18	191.65	1.3134e-05	2.061e-05	344.9	137.34	69.577	25.41	1.5834e-05	57.532	0.035855	0.051398	0.014444	1016.7	0.00053403	0.00056862	1223	304.9	0.00053205	0.00056419	572.94	202.84	174.37	47.541	0.00054631	87.723	240.245	74.383	249.576	-85.989	-17.661	234.262	-85.845	-81.543	-75.522	106.787	-81.678	-77.715	-77.583	-73.174	-61.172	-73.440	-8191	255	
1699.226	1	1	0	0	0.127	0.094556	0.33382	0.17184	0.16116	0.051033	0.045113	0.25582	0.3314	0.027389	0.33922	0.23833	0.21639	0.28817	0.13719	0.17917	-2.1521	-1.775	-1.9042	-2.5792	-1.6542	-2.2646	-2.4896	-1.7833	-2.4833	-1.8125	-1.8875	-2.8187	-1.9292	-2.225	-2.4042	-1.7375	-58.444	-5.668	24.559	7.907	164.969	-67.324	185.376	73.059	247.078	-76.268	232.758	248.264	75.790	173.386	240.987	222.890	0.00019866	0.0016929	0.00050985	646.2	2.843e-05	2.7374e-05	896.11	193.04	1.3885e-05	1.2348e-05	344.35	137.8	69.743	24.863	1.2706e-05	57.817	0.036102	0.051625	0.014511	1024.8	0.00053701	0.00057518	1234.6	307.9	0.00053679	0.00056864	575.06	203.31	173.96	47.349	0.00054569	87.675	219.023	77.262	152.917	-85.735	106.158	-49.733	-85.503	-81.475	199.487	123.121	-81.891	-77.967	-78.074	-73.271	207.703	-73.617	-8191	255	
1699.321	1	1	0	0	0.15242	0.15817	0.15662	0.087949	0.051951	0.10819	0.17578	0.083671	0.26359	0.17211	0.19163	0.47705	0.099681	0.17523	0.24671	0.095849	-2.0646	-1.9062	-1.7208	-2.5938	-1.8312	-2.1583	-2.55	-1.6458	-2.6688	-2.0125	-1.9833	-2.6104	-1.5729	-1.9146	-2.3208	-1.7354	22.435	-66.644	199.303	66.413	57.739	147.553	203.702	22.254	78.504	151.493	-21.431	236.578	-61.253	243.716	23.450	202.940	0.00035062	0.0035582	0.00031157	645.53	2.7943e-05	3.2068e-05	892.67	192.51	1.6599e-05	5.5455e-06	344.12	137.44	68.398	25.572	5.5779e-06	57.245	0.035739	0.051162	0.014365	1021.3	0.0005369	0.00057323	1228.8	307.4	0.00054	0.00057052	575.06	203.86	175.15	47.721	0.00055193	87.864	185.343	-49.394	230.786	-85.889	220.147	122.340	-85.813	-81.806	128.292	226.565	-81.737	-77.859	-77.657	-72.827	51.720	-73.549	-8191	255	
1699.417	1	1	0	0	0.11967	0.030267	0.13309	0.4668	0.049183	0.094681	0.28514	0.20929	0.10434	0.1948	0.29482	0.16681	0.23213	0.17914	0.12023	0.11715	-1.8917	-2.2	-1.3667	-2.7188	-1.8646	-2.0563	-2.6771	-1.6583	-2.3083	-2.1479	-1.6354	-2.8063	-2.0312	-2.0729	-2.5354	-1.7708	86.649	60.808	39.203	14.883	-74.161	6.479	182.828	190.237	258.869	40.856	160.300	110.161	235.611	0.926	-8.111	115.349	5.4837e-05	0.0022585	0.0005452	642.82	2.9376e-05	3.3703e-05	881.4	191.36	2.2716e-05	1.1436e-05	343.14	136.47	67.935	25.673	2.1975e-05	57.416	0.036284	0.051755	0.014596	1020.8	0.00054108	0.00057673	1223.6	305.62	0.00053879	0.00057046	571.31	202.54	173.78	47.699	0.0005471	87.718	61.504	197.523	67.518	-85.812	-76.622	-92.488	-85.714	-81.726	-95.939	65.786	-82.047	-77.760	-77.833	-73.101	-87.721	-73.443	-8191	255	
1699.513	1	1	0	0	0.32356	0.2714	0.11525	0.1756	0.16607	0.16948	0.13947	0.31618	0.1222	0.28814	0.13183	0.13539	0.097354	0.24944	0.20816	0.26972	-1.9042	-2.3438	-1.725	-2.6063	-1.9146	-1.8646	-2.775	-1.7854	-2.2313	-2.4771	-1.6604	-2.3333	-1.8958	-1.6375	-2.5333	-1.9062	98.925	-76.636	76.492	206.328	116.617	-10.430	142.290	186.828	-81.774	-24.932	229.507	158.432	-15.242	-92.592	234.022	163.439	0.0001409	0.0020851	0.00020414	641.25	1.6723e-05	1.1039e-05	891.51	192.51	3.1098e-06	3.9662e-05	344.77	136.72	68.111	25.423	1.4493e-05	57.745	0.036009	0.051558	0.014471	1019.2	0.00053888	0.00057532	1231.3	306.48	0.00053927	0.00057109	572.55	202.77	174.12	47.56	0.00054838	87.691	250.556	7.070	70.516	-85.551	-32.923	167.259	-85.793	-81.839	166.605	-84.713	-82.224	-77.798	-78.642	-73.442	-34.829	-73.385	-8191	255	
1699.634	1	1	0	0	0.19928	0.052968	0.34257	0.19496	0.14979	0.21048	0.23084	0.35482	0.1447	0.21248	0.063974	0.3037	0.084088	0.12709	0.23028	0.091487	-1.7979	-2.5104	-1.6021	-2.3604	-2.0792	-1.7792	-2.6917	-1.8646	-1.9021	-2.6833	-1.7104	-2.225	-2.2938	-1.5208	-2.3958	-1.975	-47.373	-91.888	161.351	221.192	29.247	117.728	230.755	-87.994	-30.914	3.657	-27.948	230.617	96.665	113.941	2.687	-10.303	0.00013784	0.003605	0.00067849	639.4	2.524e-05	2.9623e-06	896.92	192.4	1.3396e-05	4.2636e-05	344.84	137.22	68.892	25.465	2.0544e-05	58.38	0.035676	0.050777	0.014257	1011.3	0.00052842	0.00056118	1225	304.98	0.00053151	0.00056398	573.63	203.17	174.95	47.775	0.00055203	88.467	122.808	118.596	-97.043	-85.731	66.463	63.299	-85.571	-81.722	198.875	-91.466	-81.815	-77.831	-78.303	-72.765	-27.774	-73.430	-8191	255	
1699.705	1	1	0	0	0.2323	0.27174	0.081402	0.2588	0.18403	0.3213	0.10697	0.28776	0.13325	0.036811	0.22953	0.29	0.10794	0.15949	0.16078	0.075172	-1.4583	-2.4333	-1.5375	-2.4875	-2.2854	-1.6021	-2.7479	-1.9813	-1.7333	-2.6354	-1.6542	-2.4437	-2.3688	-1.825	-2.5104	-1.975	-27.598	-56.387	208.536	248.280	110.841	-72.285	179.063	227.359	222.419	194.929	231.897	-51.404	165.476	127.165	-57.227	159.710	0.00012278	0.00067576	0.00024315	654.15	8.2068e-06	3.4045e-05	907.98	194.31	2.7685e-06	6.2928e-06	344.74	137.49	68.416	25.418	2.9178e-05	57.916	0.036356	0.052169	0.01465	1035.4	0.00054194	0.00057855	1244.1	309.06	0.00053884	0.00056775	573.49	202.14	172.43	47.005	0.00053341	87.087	-15.537	46.508	118.618	-85.818	165.273	64.652	-85.449	-81.504	150.767	-3.884	-81.636	-77.374	-78.444	-72.692	-47.252	-73.129	-8191	255	
1699.826	1	1	0	0	0.26148	0.28214	0.18124	0.019519	0.3576	0.16766	0.10878	0.11032	0.067645	0.11479	0.056693	0.21094	0.24508	0.19088	0.33457	0.23224	-1.4917	-2.5479	-1.7042	-2.3771	-2.4229	-1.6979	-2.6	-2.1104	-1.7583	-2.6125	-1.8771	-2.4188	-2.5271	-1.7271	-2.2792	-2.1667	-0.057	38.904	19.269	-4.773	147.519	223.718	236.602	-77.287	36.949	-25.263	207.281	-93.639	-68.574	-67.739	113.279	220.347	0.00013729	0.00093603	0.00058242	642.49	1.4063e-05	1.413e-05	904.79	193.11	1.5397e-06	1.7614e-05	345.81	135.94	69.577	25.44	1.8282e-05	57.845	0.034895	0.050009	0.014032	1010.2	0.00052498	0.00056011	1228.2	305.29	0.0005311	0.00056328	571.59	202.34	174.63	47.606	0.000553	87.906	-23.508	191.398	-55.510	-85.364	39.719	113.132	-85.373	-81.702	60.636	-88.278	-82.031	-77.657	-77.423	-72.811	52.398	-73.669	-8191	255	
1699.922	1	1	0	0	0.29449	0.021749	0.18633	0.32267	0.12401	0.050053	0.24803	0.14468	0.18816	0.11097	0.11256	0.10899	0.01357	0.081098	0.073363	0.17807	-1.4396	-2.5854	-1.8375	-1.9042	-2.5479	-1.6896	-2.5333	-2.175	-1.6167	-2.6021	-1.9646	-2.0458	-2.5979	-1.825	-2.2729	-2.5021	-38.894	45.181	169.145	-45.194	86.405	-86.748	222.728	222.769	50.395	7.615	176.425	20.616	64.538	-30.672	218.066	114.400	0.0002708	0.00027451	0.00034206	652.27	1.3922e-05	1.7337e-05	901.81	194.16	1.4434e-05	3.8331e-08	344.01	137.97	69.718	25.32	1.6682e-05	58.013	0.036312	0.052189	0.014673	1035.3	0.00054825	0.00058475	1244.1	311.29	0.00055359	0.00058798	584.38	207.21	180.43	48.713	0.00057291	89.415	-98.929	158.854	227.757	-85.446	38.782	-44.677	-85.426	-81.830	25.672	150.788	-81.803	-77.620	-77.888	-73.316	-76.063	-73.299	-8191	255	
1700.018	1	1	0	0	0.090267	0.0085994	0.27592	0.15039	0.071571	0.27351	0.43719	0.16814	0.049712	0.16646	0.088229	0.19841	0.14646	0.23714	0.56032	0.1398	-1.2729	-2.5042	-1.8667	-1.8813	-2.5875	-1.8563	-2.1937	-2.5917	-1.6083	-2.5792	-2.1854	-1.9521	-2.4979	-1.9479	-2.2188	-2.35	213.276	44.398	106.098	132.517	164.433	78.768	-97.905	223.601	36.414	106.484	197.942	214.505	175.955	243.211	3.839	89.887	0.00030473	0.00205	0.00056955	651.13	1.9093e-05	2.1305e-05	911.5	197.27	2.0016e-05	8.5388e-06	349.94	138.19	70.439	25.498	2.3326e-05	57.971	0.037702	0.053792	0.015144	1053.1	0.00056555	0.00060197	1264.4	316.71	0.00056516	0.00059878	589.61	207.74	180.62	48.675	0.00056751	89.051	241.250	205.535	-17.231	-85.655	-41.085	-35.295	-85.120	-81.288	42.232	92.880	-82.101	-77.866	-77.843	-73.120	43.425	-73.419	-8191	255	
1700.114	1	1	0	0	0.30178	0.24503	0.13799	0.11692	0.16823	0.1345	0.25913	0.12883	0.1481	0.23468	0.13481	0.086431	0.15962	0.20396	0.24976	0.20017	-1.3833	-2.4313	-2.2438	-1.7771	-2.5771	-1.8354	-1.9833	-2.5667	-1.7437	-2.3167	-2.2604	-1.9937	-2.6854	-1.8	-1.9354	-2.7938	77.257	148.411	189.100	144.760	220.470	4.140	208.333	235.696	68.760	124.365	198.462	-61.631	205.659	156.765	55.542	127.880	0.00012714	0.00093086	0.00075125	640.67	8.5005e-06	2.9567e-05	886.91	193.18	1.0704e-05	2.183e-05	341.78	137.33	68.434	25.49	1.4788e-05	58.123	0.036766	0.05229	0.014674	1023	0.00053993	0.0005711	1227.1	305.08	0.00053071	0.00056142	566.22	201.15	171.62	47.208	0.00053468	87.706	52.270	121.190	33.307	-85.433	79.546	-12.764	-85.689	-81.585	207.565	-75.644	-81.815	-77.642	-77.843	-72.926	-82.866	-73.354	-8191	255	
1700.233	1	1	0	0	0.058686	0.21225	0.16081	0.060899	0.25216	0.17039	0.1045	0.07669	0.14639	0.11637	0.13625	0.066322	0.088022	0.2282	0.23425	0.13054	-1.3417	-2.2896	-2.275	-1.8021	-2.5333	-2.1021	-2.0167	-2.5167	-1.6625	-2.2438	-2.4021	-1.7604	-2.6	-2.1208	-1.8687	-2.7479	79.767	247.315	230.350	-80.772	-38.722	-67.738	222.321	-33.788	219.597	253.071	224.527	147.004	-39.533	45.167	187.198	104.158	0.00030771	0.0011724	0.00051327	634.37	2.7528e-05	4.3354e-05	880.31	189.06	1.5605e-05	1.6823e-05	339.21	136.57	68.215	25.673	1.345e-05	58.186	0.034826	0.050003	0.014	996.57	0.00051901	0.00055389	1200	298.45	0.00052114	0.00055391	562.29	200.4	172.24	47.496	0.00054425	88.568	177.447	119.116	59.410	-85.352	66.513	102.837	-85.318	-81.626	249.745	129.995	-81.596	-77.717	-78.207	-73.809	-18.923	-73.389	-8191	255	
1700.305	1	1	0	0	0.16875	0.15257	0.31198	0.17524	0.16768	0.020307	0.43455	0.18611	0.22257	0.14035	0.091771	0.11791	0.12866	0.328	0.12815	0.26185	-1.4333	-2.3229	-2.5083	-1.875	-2.3875	-2.1229	-1.9104	-2.6521	-1.8687	-2.2458	-2.3771	-1.7313	-2.3688	-2.0604	-1.7563	-2.7604	191.652	187.623	-60.036	196.594	62.211	141.994	160.173	-92.939	230.262	62.485	-83.153	167.243	-69.952	189.184	217.985	219.878	3.7364e-05	0.0021356	0.00026748	641.13	1.8871e-05	1.945e-05	896.45	194.62	6.8467e-06	2.1157e-05	348.11	138.88	71.183	26.086	2.5281e-05	58.941	0.035982	0.051988	0.014672	1028.4	0.00055258	0.00059294	1249.1	315.06	0.00056713	0.00060431	594.31	210.48	184.22	49.821	0.00059163	91.381	157.916	253.745	-53.940	-85.878	209.036	-13.193	-85.842	-81.698	2.020	-54.341	-81.848	-77.811	-78.710	-72.784	123.906	-73.378	-8191	255	
1700.401	1	1	0	0	0.15182	0.14441	0.1498	0.21969	0.11974	0.048068	0.19703	0.19279	0.15464	0.13132	0.13101	0.30669	0.22092	0.11744	0.18309	0.081536	-1.4438	-1.9958	-2.3625	-1.8438	-2.3312	-2.4313	-1.7792	-2.6521	-1.9042	-2.0938	-2.675	-1.8312	-2.2917	-2.3854	-1.6313	-2.7375	56.125	-29.602	221.003	-35.059	150.743	119.061	210.422	229.909	67.010	-91.671	179.290	223.182	-62.985	199.955	256.092	149.621	0.00055786	0.001187	0.00045876	652.52	2.5682e-05	1.1567e-05	916.12	197.57	1.3412e-05	1.6709e-05	351.08	139.04	70.706	25.994	9.4303e-06	58.886	0.038816	0.055588	0.015613	1067.3	0.00057931	0.00061987	1279.1	321.61	0.0005755	0.00061047	598.37	210.45	183.83	49.486	0.00058144	90.488	218.408	-42.976	-11.535	-85.957	-73.202	178.893	-85.738	-81.479	5.306	-25.182	-81.895	-78.067	-78.184	-73.677	11.505	-73.387	-8191	255	
1700.497	1	1	0	0	0.24055	0.19066	0.27998	0.19995	0.18218	0.16101	0.13913	0.065518	0.039233	0.25555	0.31357	0.36525	0.17881	0.21478	0.36895	0.3131	-1.6583	-1.7979	-2.6479	-1.6917	-2.0917	-2.3563	-1.8104	-2.6063	-2.0979	-1.7958	-2.5542	-1.8687	-2.2313	-2.4146	-1.6313	-2.4854	-29.714	-75.049	70.817	-70.552	-53.603	177.312	256.569	77.491	-5.744	48.598	-80.810	-69.260	16.973	84.329	254.306	221.470	0.00039583	0.0021717	0.00072238	658.58	2.1783e-05	2.1539e-05	911.73	196.17	6.677e-06	5.4527e-05	347.39	137.64	69.13	25.44	6.5418e-06	57.903	0.037786	0.053897	0.014999	1047.7	0.00055247	0.00058658	1252.2	311.05	0.00053656	0.00056743	574.48	202.85	174.19	47.174	0.00053797	87.414	219.304	-10.770	79.368	-85.383	170.955	-53.759	-85.278	-81.520	139.685	137.765	-81.792	-77.468	-78.563	-73.189	257.104	-73.433	-8191	255	
1700.618	1	1	0	0	0.22756	0.23831	0.074145	0.21052	0.027821	0.18757	0.21687	0.16721	0.21221	0.086965	0.1263	0.19565	0.19109	0.074938	0.16227	0.4276	-1.6104	-1.8708	-2.5625	-2.1729	-2.1792	-2.4875	-1.9312	-2.5604	-2.0938	-1.8188	-2.7	-2.1417	-2.1729	-2.5792	-1.7146	-2.4875	176.001	148.279	67.858	1.112	193.245	83.389	202.126	254.663	211.107	175.842	203.534	70.302	-60.379	29.766	61.199	-76.526	0.00038332	0.00071046	0.00054526	641.69	2.2356e-05	1.4815e-05	891.5	193.12	4.466e-06	3.1955e-06	344.92	135.17	68.012	25.006	1.4368e-05	57.554	0.035072	0.050134	0.014024	1009.1	0.0005199	0.00054969	1211.7	301.14	0.00051459	0.00054268	561.62	198.82	169.72	46.366	0.00052896	86.277	171.312	247.341	20.177	-85.363	63.627	58.254	-85.579	-81.430	-59.062	127.760	-81.542	-77.648	-77.942	-73.100	9.954	-73.284	-8191	255	
1700.714	1	1	0	0	0.32013	0.17611	0.10831	0.16437	0.3178	0.24191	0.13447	0.22133	0.24905	0.21802	0.2301	0.099362	0.095245	0.071397	0.15753	0.34867	-2.0104	-1.6875	-2.5	-2.2208	-2.0021	-2.6063	-1.7792	-2.2771	-2.3479	-1.6562	-2.3979	-2.1188	-1.9062	-2.6146	-1.9667	-2.2354	-18.462	217.667	-42.854	237.842	251.368	237.811	119.273	203.592	-84.063	182.277	250.385	193.054	164.030	-43.441	212.911	161.988	0.00030896	0.0024114	0.00092221	653.97	1.4274e-05	9.7255e-06	907.54	196.21	9.6351e-06	3.6762e-05	347.95	136.55	68.514	25.3	1.722e-05	56.469	0.034941	0.049964	0.014066	1018.9	0.00052637	0.0005623	1236.1	306.81	0.0005296	0.00056058	573.87	202.22	174.24	47.207	0.00054857	87.227	215.928	55.694	0.488	-85.515	169.054	-80.012	-85.447	-81.377	38.730	-56.968	-81.721	-77.658	-78.209	-73.149	162.063	-73.021	-8191	255	
1700.810	1	1	0	0	0.24474	0.092843	0.15352	0.18781	0.30786	0.067335	0.19212	0.12352	0.2512	0.17918	0.2023	0.32082	0.18964	0.32277	0.13029	0.12086	-2.0667	-1.5104	-2.4146	-2.1667	-1.7333	-2.6708	-1.8104	-2.25	-2.4729	-1.65	-2.5583	-2.0583	-1.8646	-2.7417	-1.7917	-2.2479	106.161	228.428	200.925	224.226	215.998	196.931	184.137	-46.350	231.166	151.607	248.880	194.386	172.324	232.973	249.957	196.572	0.00049343	0.0035033	0.0014821	656.29	1.7981e-05	1.9778e-05	914.86	196.93	1.6869e-05	1.3937e-05	349.58	138.28	69.735	25.1	7.2919e-06	57.312	0.03614	0.051948	0.014629	1040.5	0.00054546	0.00058135	1256.7	313.02	0.00054545	0.00057815	585.77	206.02	178.4	47.885	0.00056419	88.35	212.369	30.374	-15.524	-86.094	-64.794	173.750	-85.022	-81.155	110.648	-75.448	-81.758	-77.777	-77.691	-72.610	44.167	-73.049	-8191	255	
1700.906	1	1	0	0	0.086798	0.37151	0.091767	0.29195	0.1597	0.045465	0.092019	0.072002	0.21241	0.2398	0.16832	0.15672	0.085184	0.25753	0.077054	0.24846	-2.35	-1.7396	-2.5417	-2.3729	-1.9167	-2.6042	-1.9833	-2.0375	-2.4896	-1.9208	-2.4083	-2.4708	-1.7417	-2.6604	-1.8167	-1.9917	-89.644	171.182	13.107	260.066	51.131	45.000	246.077	-37.043	25.235	253.570	222.006	98.344	190.121	253.795	-40.303	-54.121	0.00016491	0.0029976	0.0008866	663.7	2.9177e-05	1.4808e-05	929.2	198.25	9.0262e-06	2.2624e-05	351.7	138.3	68.834	24.799	8.137e-06	57.24	0.03702	0.053008	0.014973	1055.3	0.00055679	0.00058974	1270.5	315.97	0.00054878	0.00058222	586.53	205.57	176.74	47.253	0.00055141	87.379	225.570	-36.616	-86.783	-85.242	30.548	-80.234	-85.642	-81.388	-44.293	-4.980	-81.249	-78.049	-77.696	-72.824	24.092	-73.331	-8191	255	
1701.001	1	1	0	0	0.042	0.27512	0.094457	0.051601	0.043673	0.17276	0.25105	0.36182	0.15614	0.20176	0.04395	0.071194	0.15959	0.2171	0.092905	0.15724	-2.1188	-1.7604	-2.1583	-2.6521	-1.5854	-2.5146	-2.25	-2.0083	-2.4062	-1.6187	-2.175	-2.6479	-1.7021	-2.5521	-2.3458	-1.7958	226.005	97.708	190.150	-92.016	139.501	180.937	155.290	221.009	162.373	67.829	-63.747	89.261	223.532	242.732	129.529	217.778	0.00026621	0.0031623	0.0002454	666.56	2.6075e-05	1.1512e-05	922.68	197.76	1.9726e-05	3.5727e-05	351.85	138.79	69.563	24.857	2.0208e-05	56.342	0.036083	0.051647	0.01458	1045.7	0.0005447	0.00058356	1262.7	314.8	0.00055335	0.00058737	589.9	206.85	179.24	47.876	0.00056065	87.753	239.019	-37.776	177.056	-85.332	6.548	-3.736	-85.416	-81.846	82.678	61.369	-81.794	-78.018	-77.298	-72.871	188.335	-73.252	-8191	255	
1701.097	1	1	0	0	0.14597	0.12115	0.19158	0.13046	0.06398	0.03364	0.34715	0.22174	0.14225	0.21321	0.065933	0.25499	0.087154	0.1521	0.20914	0.27601	-2.0333	-1.6896	-2.1042	-2.4854	-1.8271	-2.4729	-2.1021	-1.7979	-2.4354	-1.9104	-2.2542	-2.575	-1.75	-2.3479	-2.2792	-1.6875	150.655	122.566	-70.695	37.278	251.372	242.004	180.639	183.484	177.253	26.340	9.496	171.358	194.298	93.967	184.398	216.743	0.00025613	0.0014107	0.0011914	659.45	1.5905e-05	2.4524e-05	911.39	197.51	1.0546e-05	1.0243e-05	347.38	138.79	69.499	25.083	1.7991e-05	56.828	0.036401	0.051911	0.014545	1038.2	0.00053912	0.00057236	1248.7	309.81	0.00053532	0.00056755	578.68	204.48	175.01	47.118	0.00054667	87.101	245.969	111.953	-97.416	-85.702	-37.210	251.219	-85.339	-81.475	-21.597	133.554	-81.347	-77.326	-78.292	-73.351	93.456	-73.346	-8191	255	
1701.218	1	1	0	0	0.10702	0.31663	0.24225	0.20049	0.20119	0.12617	0.10822	0.40076	0.25128	0.10204	0.10522	0.12351	0.085956	0.19935	0.14881	0.13243	-2.1688	-2	-1.8333	-2.6646	-1.6604	-2.3563	-2.4708	-1.6854	-2.625	-2.1667	-1.8729	-2.6813	-1.6771	-2.3146	-2.2833	-1.6458	83.792	61.875	-3.856	-85.439	197.641	74.651	223.306	167.555	40.195	83.737	135.470	120.148	174.143	-66.772	-60.991	169.999	6.9874e-05	0.0022181	0.00077941	662.27	1.0067e-05	1.2068e-05	915.06	196.32	1.2e-05	3.4382e-05	352.11	138.07	69.806	25.093	1.5245e-05	57.511	0.035847	0.050948	0.014344	1031.5	0.00053408	0.00056731	1247.4	308.14	0.00052967	0.00055773	574.25	202.65	172.69	46.631	0.00053421	86.825	194.999	-71.327	230.189	-85.784	252.170	-36.044	-85.363	-81.812	192.976	-0.028	-81.793	-77.859	-77.983	-73.136	-36.179	-73.289	-8191	255	
1701.314	1	1	0	0	0.10811	0.27509	0.10227	0.21717	0.17989	0.088023	0.24599	0.43574	0.18563	0.26925	0.2366	0.17968	0.26098	0.25211	0.050662	0.15652	-2.1312	-2.0271	-1.8354	-2.6104	-1.7417	-2.2375	-2.4688	-1.6479	-2.4979	-2.2208	-1.9917	-2.6292	-1.8438	-1.9729	-2.3604	-1.7396	125.125	84.635	117.822	171.518	74.524	251.362	175.857	-83.901	92.500	111.857	225.599	166.256	132.764	-53.643	173.309	-52.186	0.00010833	0.0016214	0.00039216	660.87	2.8873e-05	2.1331e-05	916.01	197.94	2.1715e-05	1.9523e-05	351.6	139.55	70.492	25.135	2.0105e-05	57.823	0.034976	0.050227	0.014141	1027.1	0.00052796	0.00056327	1246.3	309.44	0.00052967	0.00056376	579.65	205.29	175.85	47.267	0.00054465	87.656	49.531	109.915	3.340	-85.766	105.425	93.989	-85.143	-81.716	30.531	37.857	-81.656	-78.132	-77.938	-73.186	233.712	-73.403	-8191	255	
1701.410	1	1	0	0	0.076702	0.19656	0.062583	0.30458	0.066552	0.16902	0.15367	0.25463	0.18531	0.17651	0.14726	0.17573	0.27573	0.14473	0.10003	0.23934	-2.1104	-2.1167	-1.8917	-2.7146	-2.0167	-2.1458	-2.5042	-1.5979	-2.3125	-2.225	-1.8438	-2.9333	-1.8438	-1.9979	-2.3083	-1.8813	6.515	103.668	-33.310	-71.460	98.658	177.993	181.827	51.948	79.952	-27.722	220.333	178.372	-13.976	105.742	58.046	26.577	0.00015641	0.0024838	0.00088222	656.14	1.9597e-05	2.8449e-05	903.09	194.26	7.7897e-06	4.2718e-05	349.16	138.23	69.759	25.197	1.4126e-05	57.456	0.035719	0.051034	0.014253	1027.8	0.00052476	0.0005593	1230.6	305.66	0.00051925	0.00055001	567.95	201.98	170.96	46.233	0.00052138	85.843	248.998	-87.854	259.072	-85.274	57.058	-76.064	-85.355	-81.494	-47.097	-45.353	-81.898	-77.889	-77.418	-73.409	132.567	-73.626	-8191	255	
1701.506	1	1	0	0	0.21128	0.21246	0.12479	0.12348	0.22456	0.033663	0.2251	0.17394	0.10395	0.093894	0.070154	0.15512	0.096203	0.31997	0.071919	0.26042	-1.8458	-2.2958	-1.5125	-2.6417	-2.0458	-2.0208	-2.6667	-1.7354	-2.1833	-2.575	-1.8854	-2.5229	-2.2396	-1.9188	-2.525	-2.0563	-77.546	211.324	-42.745	-77.103	-37.235	103.822	241.474	146.989	122.237	-81.260	12.310	243.705	242.023	216.064	-7.662	181.563	0.00036115	0.0025582	0.00097173	647.8	1.0754e-05	1.9295e-05	896.72	193.44	3.4564e-06	5.5249e-06	345.51	137.39	67.905	24.944	5.2674e-06	57.254	0.033994	0.048237	0.013452	997.44	0.00049739	0.00052937	1205.2	297.3	0.00049085	0.00051903	552.29	196.88	163.51	44.703	0.00048764	83.632	217.575	38.666	4.179	-85.942	172.475	72.420	-85.220	-81.063	-65.920	41.481	-81.654	-77.660	-77.797	-72.753	161.523	-73.121	-8191	255	
1701.600	1	1	0	0	0.12476	0.064919	0.065158	0.2527	0.070167	0.2678	0.24037	0.13289	0.13771	0.11684	0.14088	0.39231	0.18556	0.17099	0.11671	0.25176	-1.5917	-2.475	-1.5812	-2.4792	-1.9625	-1.675	-2.6833	-1.9229	-2.1125	-2.3521	-1.725	-2.4	-2.1354	-1.5083	-2.5708	-1.95	180.959	-90.595	19.125	78.507	96.406	232.113	217.975	61.751	-32.075	48.194	253.093	250.353	148.243	147.835	-55.600	125.503	0.00012569	0.0015329	4.1321e-05	646.38	1.0502e-05	5.913e-06	901.57	193.93	1.1443e-05	3.223e-05	347.48	137.45	69.616	24.942	1.4606e-05	57.279	0.031757	0.045084	0.012626	973.59	0.00046792	0.00049843	1184.4	290.8	0.00046468	0.00049017	542.51	194.22	160.28	44.055	0.00047722	83.195	187.785	20.022	74.060	-85.077	-87.330	-42.504	-85.077	-81.522	177.128	16.022	-81.609	-77.534	-78.375	-73.059	169.778	-73.360	-8191	255	
1701.697	1	1	0	0	0.14283	0.13087	0.26263	0.18741	0.19915	0.21771	0.21998	0.20566	0.19582	0.049696	0.26778	0.044276	0.19787	0.41305	0.15298	0.092862	-1.5604	-2.5229	-1.8375	-2.3833	-2.3854	-1.6667	-2.7854	-1.9833	-1.8104	-2.6646	-1.7542	-2.325	-2.3771	-1.6833	-2.4375	-2.1729	182.477	65.400	146.595	222.615	-45.254	107.324	170.874	189.290	-88.282	250.330	181.925	157.554	257.828	-82.296	13.572	-5.444	0.00032946	0.003269	0.00036992	654.79	2.7293e-05	4.0256e-05	912.51	195.83	6.3874e-06	1.8818e-05	351.87	139.66	70.097	25.031	1.639e-05	57.623	0.031488	0.045042	0.01269	984.2	0.00047325	0.00050831	1205.6	297.02	0.00048402	0.00051533	557.7	200.01	167.09	45.469	0.00050687	85.371	186.757	21.605	111.931	-85.142	51.350	-89.617	-85.247	-81.389	163.973	86.580	-81.552	-77.449	-78.144	-72.970	252.557	-73.395	-8191	255	
1701.817	1	1	0	0	0.07444	0.11271	0.22166	0.15041	0.058247	0.14231	0.42927	0.41262	0.12433	0.063147	0.19717	0.2005	0.266	0.11455	0.24618	0.13467	-1.5708	-2.4729	-1.8375	-2.2396	-2.3917	-1.6542	-2.5375	-2.1708	-1.8896	-2.7062	-1.6479	-2.2521	-2.3958	-1.5979	-2.4188	-2.2313	-82.501	187.979	70.792	-50.105	48.194	-65.340	175.649	192.376	114.298	-31.408	252.893	157.705	120.877	-37.731	-20.273	-23.772	0.00029428	0.0019484	0.00035231	663.87	1.2195e-05	2.1106e-05	918.08	198.85	1.512e-05	1.5997e-05	353.15	141.5	71.401	24.928	2.6634e-05	57.751	0.033413	0.047934	0.013466	1014.1	0.00050397	0.00053912	1232.1	306.36	0.0005114	0.00054206	572.27	204.84	172.37	46.346	0.00052317	86.28	-65.890	-53.281	-21.505	-85.624	56.169	34.233	-85.127	-81.547	152.428	-13.220	-81.469	-77.498	-78.096	-73.729	132.694	-73.229	-8191	255	
1701.913	1	1	0	0	0.22259	0.25279	0.13699	0.18775	0.15588	0.31652	0.24581	0.23927	0.13161	0.24695	0.31049	0.33864	0.25011	0.10862	0.27218	0.13908	-1.2729	-2.7792	-1.6958	-2.1271	-2.6479	-1.8667	-2.4396	-2.2875	-1.8438	-2.4375	-2.0229	-2.1292	-2.5708	-1.8917	-2.1063	-2.2083	-61.003	22.448	155.033	-85.511	12.638	-86.053	224.409	-68.230	-34.916	117.486	178.295	174.328	-42.215	231.321	138.016	189.013	0.00024944	0.0059962	0.00055917	661.77	2.9341e-05	1.616e-06	914.08	199.37	2.9034e-05	1.9077e-05	355.7	141.16	70.001	24.909	1.6217e-05	56.984	0.034307	0.049013	0.013723	1016.7	0.00050843	0.00054026	1229.3	304.86	0.00050296	0.00053311	566.23	202.75	169.29	45.603	0.00051094	85.216	211.182	-48.597	245.197	-85.302	164.061	-39.554	-85.491	-81.158	179.329	126.142	-81.425	-77.387	-77.862	-72.965	88.612	-73.105	-8191	255	
1702.009	1	1	0	0	0.17117	0.092703	0.19673	0.23367	0.087439	0.12778	0.25328	0.11714	0.1266	0.051366	0.13557	0.14708	0.22386	0.065202	0.10112	0.16677	-1.3937	-2.3729	-2.0229	-1.9792	-2.5375	-1.7729	-2.4062	-2.35	-1.6042	-2.5646	-2.1688	-2.0125	-2.5417	-1.7	-1.9104	-2.4646	96.010	-8.035	-11.172	252.587	152.884	-44.195	202.644	242.733	156.068	122.555	74.343	239.711	182.361	-84.118	214.844	151.851	9.2775e-05	0.00082833	0.00029503	662.4	5.3524e-06	2.2976e-05	919.76	198.39	1.7121e-05	9.5911e-06	356.21	141.94	70.596	24.936	1.3808e-05	57.485	0.033269	0.047549	0.013367	1009.8	0.00049751	0.00052949	1226.6	303.57	0.00050086	0.00053199	568.73	203.34	170.27	45.762	0.00051635	85.671	-61.552	177.950	200.486	-85.266	220.584	2.550	-85.026	-81.016	164.285	-0.834	-81.550	-77.509	-77.259	-72.820	29.559	-73.192	-8191	255	
1702.106	1	1	0	0	0.040016	0.17122	0.15656	0.18755	0.21472	0.24234	0.34393	0.053395	0.26912	0.18319	0.19362	0.25683	0.28806	0.12662	0.14295	0.094746	-1.1917	-2.4667	-2.1188	-1.7542	-2.6104	-1.7125	-2.0208	-2.6875	-1.7958	-2.4042	-2.2	-1.8792	-2.5875	-1.9604	-1.9667	-2.7	84.426	121.121	126.699	206.609	132.835	226.562	176.563	-95.146	-93.073	47.575	253.419	-87.596	-66.235	82.335	123.914	-96.416	0.00024161	0.00062291	0.0004003	668.42	1.5154e-05	1.7581e-05	919.87	199.37	7.8771e-06	1.8509e-05	357.53	142.09	70.662	24.796	3.774e-06	57.288	0.033915	0.048591	0.013626	1022.5	0.00050884	0.00054323	1237.4	306.43	0.00050952	0.00053829	572.15	204.27	171.37	45.875	0.00052154	85.909	238.538	45.916	108.845	-85.114	179.244	178.187	-85.099	-81.413	-39.331	34.216	-81.538	-77.358	-77.297	-73.048	102.906	-72.963	-8191	255	
1702.177	1	1	0	0	0.08574	0.10857	0.13075	0.15548	0.24054	0.15728	0.10536	0.17981	0.11035	0.29924	0.26026	0.09677	0.25452	0.3463	0.043334	0.11946	-1.3188	-2.2292	-2.1229	-1.6917	-2.5167	-1.8062	-2.0833	-2.6229	-1.5833	-2.2458	-2.4062	-1.8229	-2.5521	-2.0875	-1.5729	-2.7542	158.543	238.517	15.654	214.115	-74.988	64.776	114.284	222.696	140.125	151.350	172.488	197.522	-81.043	-92.923	-89.395	-60.258	0.00028815	0.0017769	0.0012313	663.65	1.8922e-05	1.5924e-05	915.25	199.83	1.542e-05	2.0388e-05	351.22	140.04	70.235	24.912	4.3549e-05	57.206	0.033924	0.048704	0.013639	1014.6	0.00050461	0.00053478	1226.7	303.28	0.00050064	0.00052892	564.27	201.1	168.13	45.42	0.00050751	84.782	219.976	75.331	37.300	-85.450	67.691	79.439	-84.672	-81.057	73.923	-53.315	-81.275	-77.773	-77.409	-73.193	106.556	-73.106	-8191	255	
1702.298	1	1	0	0	0.12773	0.067366	0.15156	0.1096	0.094483	0.13846	0.30697	0.14553	0.011879	0.080932	0.2455	0.19766	0.048887	0.23844	0.13071	0.27935	-1.3333	-2.1125	-2.5062	-1.6375	-2.4854	-2.0958	-1.8667	-2.5667	-1.6562	-2.0687	-2.4813	-1.8312	-2.5875	-2.2479	-1.7437	-2.6688	29.610	230.402	186.361	204.414	40.648	250.254	190.945	191.657	163.457	56.835	249.643	-96.090	-40.583	215.845	174.911	131.225	0.00046375	0.0014502	0.00027557	654.95	1.755e-05	3.4048e-05	905.58	195.43	7.6962e-06	9.5211e-06	353.1	138.62	68.972	24.447	1.8534e-05	56.733	0.03302	0.047272	0.013219	995.43	0.00049	0.00051993	1208.6	298.19	0.00048583	0.00051524	555.91	198.7	164.97	44.726	0.00049886	83.858	252.109	18.775	140.868	-85.542	38.029	95.810	-85.430	-81.192	-94.411	11.012	-81.633	-77.519	-77.477	-73.044	-23.864	-73.119	-8191	255	
1702.394	1	1	0	0	0.093341	0.050098	0.20195	0.38174	0.34392	0.040998	0.254	0.15825	0.2077	0.34077	0.24282	0.064696	0.21905	0.36388	0.16809	0.25409	-1.6271	-1.9771	-2.5667	-1.6708	-2.5	-2.2438	-1.9396	-2.5708	-1.8937	-1.9521	-2.5687	-1.6792	-2.2938	-2.4021	-1.5083	-2.7604	52.097	-3.233	254.863	217.640	113.709	-83.240	210.750	42.385	219.727	147.074	-95.660	-94.681	172.557	-82.679	-82.550	252.274	0.00036043	0.0017195	0.00059305	665.05	3.2439e-05	3.4938e-05	910.72	197.35	3.5214e-05	9.596e-06	351.96	138.89	69.616	24.566	3.1477e-05	56.695	0.032544	0.046443	0.01303	997.89	0.00048659	0.00051915	1212.8	299.93	0.00049211	0.00052037	559.09	199.49	166.67	44.9	0.00050326	84.381	213.694	58.674	81.019	-85.209	85.697	152.962	-84.868	-81.385	212.007	60.178	-81.508	-77.711	-77.504	-72.328	164.088	-72.781	-8191	255	
1702.490	1	1	0	0	0.11873	0.086587	0.18212	0.029739	0.41867	0.3228	0.22871	0.10081	0.37314	0.061365	0.12488	0.449	0.1403	0.11992	0.15539	0.23074	-1.3083	-1.8521	-2.6	-1.7729	-1.9625	-2.3646	-1.8125	-2.6021	-2.0125	-1.95	-2.7812	-1.9667	-2.2354	-2.5396	-1.7	-2.6271	180.253	-35.268	46.703	136.594	245.385	220.196	205.774	5.750	24.232	-45.075	211.444	246.314	242.736	-53.803	90.393	203.225	0.00035725	0.00074186	0.00064294	661.79	8.3024e-06	3.0256e-05	925.71	199.15	7.8688e-06	1.3637e-05	354.36	139.7	69.583	24.397	1.8942e-05	56.667	0.033055	0.047433	0.013305	1004.3	0.00049497	0.00052457	1223	301.61	0.00048926	0.00051975	560.74	199.08	165.88	44.508	0.00049692	83.622	215.420	47.237	189.498	-85.306	-7.753	57.511	-84.933	-80.919	-35.262	129.868	-80.995	-76.835	-77.856	-72.604	-82.944	-72.097	-8191	255	
1702.586	1	1	0	0	0.057642	0.12319	0.059278	0.19009	0.32236	0.22925	0.14586	0.44552	0.10559	0.30098	0.22475	0.42051	0.031944	0.090183	0.15948	0.2906	-1.5938	-1.7979	-2.4042	-1.7208	-2.0667	-2.5708	-1.6521	-2.475	-2.1333	-1.7104	-2.5979	-1.9792	-2.1208	-2.425	-1.4667	-2.3771	254.798	104.963	-55.225	178.180	171.708	-65.461	221.116	206.634	-58.910	191.301	-62.599	154.588	77.351	140.414	220.231	180.090	0.00023092	0.0025281	0.0010126	660.07	1.6789e-05	1.7379e-05	917.51	196.08	1.6213e-05	1.317e-05	348.33	138.69	70.414	24.252	1.63e-05	56.513	0.032494	0.046332	0.013001	995.16	0.00048286	0.00051297	1214.7	298.45	0.00048391	0.0005152	556.96	198.04	165.58	44.593	0.00050355	83.933	-12.124	167.501	8.792	-85.374	47.294	141.150	-84.984	-81.001	-10.247	71.578	-81.306	-77.614	-77.201	-72.790	154.501	-72.970	-8191	255	
1702.705	1	1	0	0	0.20058	0.12129	0.16504	0.20629	0.051822	0.19594	0.24331	0.079534	0.082031	0.24626	0.1374	0.10585	0.21466	0.026461	0.14943	0.18482	-1.8687	-1.575	-2.5729	-2.1167	-1.8375	-2.6958	-1.825	-2.3458	-2.2292	-1.6021	-2.5708	-2.2104	-1.9646	-2.7812	-1.7375	-2.4896	112.618	-3.256	56.308	259.876	8.205	225.689	-98.972	245.586	-22.698	9.930	-16.136	223.334	96.778	246.595	64.576	179.642	0.00040418	0.0018075	0.000403	659.14	1.0066e-05	1.4521e-05	912.75	197.28	1.0569e-05	1.168e-05	350.16	139.39	70.38	24.461	4.075e-06	56.491	0.033322	0.047977	0.013504	1009.5	0.0005025	0.00053769	1226.7	303.96	0.00050537	0.0005387	568.33	201.82	170.98	45.68	0.00052607	85.317	216.813	-15.014	111.759	-85.399	-89.177	88.546	-84.917	-81.255	2.405	2.175	-81.617	-77.560	-78.548	-73.245	2.699	-73.198	-8191	255	
1702.801	1	1	0	0	0.10673	0.27979	0.25024	0.2522	0.021016	0.085467	0.32236	0.11139	0.17598	0.18363	0.1873	0.38652	0.18003	0.15356	0.033951	0.14436	-2.0021	-1.7146	-2.3375	-2.1583	-1.7271	-2.55	-2.025	-2	-2.4729	-1.7313	-2.5687	-2.3187	-1.8229	-2.5667	-1.8208	-2.1354	28.667	176.384	203.420	216.767	186.028	-93.679	206.651	24.666	68.737	-65.007	-81.296	193.347	-77.373	202.528	-26.857	105.558	0.00046432	0.002228	0.00030997	660.53	1.3708e-05	2.8295e-05	919.69	197.85	6.127e-06	2.6225e-06	354.49	139.52	70.105	24.409	2.2468e-05	56.321	0.034544	0.049448	0.013877	1021.4	0.00051378	0.00054819	1237.9	306.37	0.00051193	0.00054313	570.62	201.57	170.11	45.354	0.0005182	84.478	140.543	-16.977	169.577	-85.692	77.116	47.511	-85.279	-81.316	-41.263	107.365	-81.483	-78.033	-77.865	-72.871	176.519	-73.313	-8191	255	
1702.898	1	1	0	0	0.043897	0.17457	0.050853	0.081333	0.20713	0.39779	0.33788	0.092822	0.1451	0.30061	0.25422	0.26392	0.2125	0.11669	0.16777	0.08976	-2.1458	-1.6354	-2.4562	-2.3688	-1.6042	-2.5604	-1.9875	-2.1771	-2.4917	-1.6854	-2.2896	-2.4792	-1.7208	-2.4833	-2.0396	-1.8083	-49.900	100.447	-97.183	173.253	170.928	56.481	230.238	106.504	114.305	-44.485	249.338	-95.760	-4.552	76.901	252.043	75.840	0.00033994	0.0018002	0.00057415	665.34	2.2782e-05	5.3907e-06	931.33	200.46	2.0509e-05	3.9082e-05	353.25	139.47	69.174	24.609	2.1086e-05	56.415	0.033802	0.048329	0.013579	1016.7	0.00050594	0.00054053	1242	306.11	0.00050977	0.00054091	572.33	202.58	171.19	45.745	0.00052724	85.098	-82.480	53.918	119.453	-85.223	135.700	-31.982	-85.259	-80.804	87.255	-22.866	-81.157	-77.834	-77.820	-72.688	150.482	-73.040	-8191	255	
1702.994	1	1	0	0	0.28077	0.22277	0.35401	0.029033	0.26379	0.18074	0.26769	0.0884	0.034441	0.29197	0.1785	0.19497	0.027802	0.19092	0.061814	0.27978	-2.2	-1.75	-2.1937	-2.4354	-1.5812	-2.4646	-2.1167	-1.7896	-2.6437	-1.8167	-2.2146	-2.2792	-1.5812	-2.4292	-2.0917	-1.8188	-9.044	164.953	-27.316	154.164	63.112	-16.754	-49.114	232.742	79.889	-75.178	144.015	240.663	25.064	224.946	-54.815	170.423	0.00018519	0.001051	0.00049115	662.84	3.1575e-05	2.5544e-05	924.31	198.02	1.148e-05	3.5249e-05	355.28	140.32	69.883	24.379	1.4501e-05	56.177	0.034452	0.049475	0.013905	1028.2	0.00051756	0.00055078	1245	307.87	0.00051944	0.00055262	578.98	204.86	174.06	46.198	0.00053847	85.637	173.485	203.763	58.224	-85.208	64.050	128.013	-85.766	-81.374	124.545	4.034	-81.510	-77.770	-78.272	-72.724	138.794	-73.173	-8191	255	
1703.090	1	1	0	0	0.10084	0.17316	0.30245	0.2093	0.23985	0.043123	0.28346	0.11423	0.1969	0.14295	0.061317	0.12439	0.093655	0.15291	0.2508	0.14999	-2.1271	-1.9562	-2.0812	-2.5187	-1.675	-2.2125	-2.3875	-1.85	-2.5979	-1.9479	-2.0667	-2.5896	-1.6292	-2.3708	-2.2646	-1.8521	-58.712	203.102	227.425	-56.995	82.249	-33.711	182.753	142.553	-39.970	40.738	-7.593	235.633	125.880	-3.812	200.327	151.976	0.00018018	0.0010588	0.00061082	661.71	1.8219e-05	1.8252e-05	923.97	197.84	1.3698e-05	1.4367e-05	351.02	138.15	68.867	24.318	1.169e-05	55.764	0.035261	0.050319	0.014059	1030.2	0.00051908	0.00055332	1239.6	306.82	0.00051238	0.00054297	570.09	200.51	169.45	45.2	0.00051745	83.873	241.912	230.681	222.213	-85.443	-34.700	141.824	-85.496	-81.419	200.593	222.298	-81.477	-77.809	-77.903	-72.211	-35.043	-72.640	-8191	255	
1703.186	1	1	0	0	0.20264	0.1089	0.31722	0.27889	0.15703	0.22187	0.18682	0.11187	0.27967	0.04518	0.037273	0.036669	0.085045	0.094934	0.2197	0.078125	-2.3125	-1.8687	-1.7646	-2.4646	-1.7354	-2.425	-2.4583	-1.7583	-2.5896	-1.7479	-2.0021	-2.5354	-1.7125	-2.3667	-2.2958	-1.85	206.879	183.235	127.575	-52.617	59.649	-10.317	103.322	148.248	230.128	201.306	43.202	117.209	48.923	-67.331	226.668	48.489	0.0001364	0.00056719	0.00022979	669.36	4.6486e-06	9.3687e-06	920.57	197.12	9.0124e-06	3.7642e-05	351.08	137.53	69.345	24.198	3.0255e-05	55.843	0.03386	0.048182	0.013557	1015.4	0.00050105	0.00053501	1230.7	302.19	0.00050016	0.00052733	565.81	199.19	168.85	45.028	0.00051985	84.205	90.948	-7.843	-67.089	-85.510	228.141	33.833	-85.112	-81.460	15.317	86.967	-81.298	-77.696	-77.893	-72.594	128.085	-73.150	-8191	255	
1703.307	1	1	0	0	0.073567	0.26404	0.13478	0.13979	0.26442	0.16992	0.22919	0.28392	0.1222	0.17803	0.22909	0.32535	0.27897	0.25215	0.18924	0.23429	-2.1688	-2.0354	-1.6854	-2.6083	-1.8146	-2.1479	-2.6771	-1.7396	-2.475	-2.0625	-1.9312	-2.6083	-2.0687	-2.0646	-2.4688	-1.7646	40.732	106.185	158.909	-93.907	-91.788	96.974	183.319	243.036	113.445	28.268	181.347	246.681	190.460	-87.028	176.154	222.854	0.00010038	0.0024831	0.00036702	667.79	1.826e-05	1.2549e-05	933.74	199.5	1.1991e-05	1.4019e-05	356.31	139.91	71.431	24.249	3.3945e-05	56.484	0.034158	0.048811	0.013736	1023.8	0.0005105	0.00054569	1249.6	308.58	0.00051835	0.00054984	579.74	204.4	174.31	46.242	0.00053968	86.005	-37.060	68.686	247.707	-85.616	-44.724	22.961	-85.622	-80.950	212.325	36.232	-81.488	-77.795	-78.771	-73.163	-0.915	-73.358	-8191	255	
1703.403	1	1	0	0	0.059261	0.098504	0.10733	0.19822	0.13173	0.088889	0.16783	0.15408	0.16692	0.12972	0.20948	0.21883	0.15144	0.1063	0.062384	0.16005	-2.1354	-2.2708	-1.8083	-2.8583	-1.8479	-2.1	-2.65	-1.8687	-2.3958	-2.4104	-1.7687	-2.5833	-1.925	-2.0792	-2.6229	-2.0271	-14.422	187.813	123.166	198.338	219.219	-69.558	118.436	170.369	86.314	-18.126	-89.607	-49.422	66.567	28.600	232.150	101.954	0.00015052	0.00081279	0.00049543	680.21	5.6488e-06	3.2361e-05	946.64	202.26	5.6403e-06	2.02e-05	361.3	142.2	71.357	24.522	1.614e-05	55.81	0.035637	0.051115	0.014421	1056.1	0.00053733	0.0005748	1280.8	317.85	0.0005409	0.00057614	592.41	208.97	178.5	46.838	0.00054957	85.868	168.254	190.771	-9.267	-85.529	122.136	210.706	-85.360	-81.401	88.389	-79.405	-81.229	-77.849	-78.564	-72.498	118.947	-72.953	-8191	255	
1703.474	1	1	0	0	0.17828	0.13239	0.033341	0.086742	0.10811	0.34796	0.12117	0.15096	0.064646	0.26081	0.13858	0.10405	0.043492	0.14383	0.14673	0.068153	-2.0354	-2.5125	-1.8458	-2.8583	-2.2083	-1.9813	-2.7208	-2.1208	-2.3125	-2.4292	-1.7729	-2.7271	-2.2062	-1.9312	-2.525	-1.7208	145.129	47.541	114.467	228.536	28.955	-73.974	196.110	149.489	3.326	175.355	257.400	-11.050	11.361	-90.359	-57.441	-13.516	0.00027877	0.001861	0.00045267	677.06	3.3723e-05	1.5228e-05	934.78	199.35	1.5963e-05	1.7385e-05	352.55	137.87	70.388	23.991	2.5017e-05	55.071	0.035596	0.050778	0.014157	1043.1	0.00051837	0.00055317	1254.2	307.82	0.00051243	0.00053997	571.06	200.46	169.75	44.837	0.00051866	83.407	125.793	-65.932	19.904	-85.028	34.499	-94.511	-85.211	-81.332	90.523	-4.303	-80.941	-77.234	-77.938	-72.549	249.445	-72.981	-8191	255	
1703.595	1	1	0	0	0.30888	0.18337	0.24173	0.22032	0.17624	0.29475	0.31862	0.39211	0.10169	0.030834	0.16371	0.11825	0.37754	0.11238	0.069732	0.139	-1.7271	-2.4292	-1.5833	-2.5167	-2.0812	-1.6958	-2.6771	-1.7104	-2.0854	-2.6479	-1.8125	-2.4167	-2.1396	-1.8208	-2.5062	-2.0396	171.766	188.085	23.228	237.637	192.100	252.507	223.305	116.627	-42.483	-14.101	244.150	96.535	-43.879	241.338	-34.020	69.750	0.0001669	0.0018195	0.0003371	672.72	2.2154e-05	1.3017e-05	933.27	199.12	7.6709e-06	8.3573e-06	355.7	139.18	70.102	23.958	2.5326e-05	55.323	0.034046	0.048606	0.013697	1025.9	0.00050888	0.00054325	1249.9	306.54	0.00051077	0.00053957	570.51	200.99	170	44.941	0.00052251	83.747	202.485	-86.720	-41.225	-84.962	54.412	-9.118	-85.014	-81.007	178.500	-9.192	-81.327	-77.296	-78.041	-72.527	160.502	-72.690	-8191	255	
1703.690	1	1	0	0	0.11566	0.30564	0.25685	0.27179	0.1332	0.18786	0.25829	0.13794	0.11817	0.15673	0.09364	0.34535	0.062308	0.16102	0.10597	0.067723	-1.3062	-2.6083	-1.6104	-2.4208	-2.4437	-1.8521	-2.65	-2.3458	-2.0042	-2.6354	-1.7812	-2.2667	-2.5875	-1.7313	-2.6854	-2	226.732	-50.211	-22.746	224.699	208.325	107.990	205.990	238.371	152.029	162.548	-65.879	226.538	16.441	-63.911	-39.202	230.464	0.00023705	0.003367	0.00080466	673.23	2.413e-05	3.1986e-05	934.53	199.08	1.4379e-05	3.7806e-05	355.39	139.12	70.528	24.03	1.461e-05	55.199	0.034264	0.04897	0.013742	1029.7	0.00051377	0.00054847	1252.8	308.4	0.00051802	0.00055028	577.31	203.23	172.83	45.635	0.00053004	84.234	199.925	75.393	174.997	-84.789	-94.994	60.109	-85.029	-80.834	-18.227	124.241	-81.297	-77.553	-76.797	-72.762	97.804	-72.655	-8191	255	
1703.786	1	1	0	0	0.098717	0.098483	0.072815	0.24779	0.11999	0.17709	0.15709	0.35108	0.18771	0.09912	0.094543	0.087155	0.17668	0.11349	0.078739	0.07598	-1.4396	-2.5583	-1.6125	-2.2771	-2.4813	-1.7125	-2.6417	-2.0583	-1.7687	-2.6021	-1.875	-2.3563	-2.4708	-1.8625	-2.4	-2.2354	129.570	-73.312	256.700	201.071	178.921	18.693	-15.916	166.491	157.602	47.246	102.287	257.282	203.405	234.310	-22.738	97.915	0.00022495	0.002059	0.00087037	671.82	1.221e-05	1.8455e-05	931.66	198	2.225e-06	1.5482e-05	351.04	137.76	68.767	23.732	1.3791e-05	54.817	0.034692	0.049545	0.01392	1032.7	0.00051257	0.00054578	1250.3	304.79	0.00050637	0.00053705	566.68	199.32	168.07	44.492	0.00051531	82.799	-74.306	76.745	13.482	-85.318	94.575	77.572	-84.870	-81.021	16.784	223.342	-82.110	-77.235	-77.904	-72.872	-48.178	-72.634	-8191	255	
1703.882	1	1	0	0	0.10127	0.29093	0.047981	0.25111	0.10969	0.044973	0.030625	0.1573	0.16775	0.12188	0.2099	0.09261	0.18923	0.21534	0.13505	0.1122	-1.4688	-2.6188	-1.7375	-2.0708	-2.5167	-1.5167	-2.5208	-2.2396	-1.6708	-2.6042	-1.9708	-2.0333	-2.4062	-1.5938	-2.4104	-2.4375	-89.091	145.869	251.198	223.935	-49.664	235.789	135.728	-98.643	29.587	85.923	257.298	162.339	190.352	-38.387	-36.670	115.525	0.00013276	0.0026649	0.00046149	667.36	6.3206e-06	2.3593e-05	930.99	196.23	1.6842e-05	3.881e-05	348.9	136.54	68.408	23.285	1.4154e-05	54.34	0.033668	0.048262	0.013579	1017	0.00050393	0.00053787	1238.1	302.79	0.00050563	0.00053539	564.39	198.49	167.86	44.315	0.00051718	82.696	194.090	146.654	31.401	-84.823	-42.565	65.156	-85.265	-81.140	171.457	-52.673	-81.427	-77.312	-78.017	-73.445	72.135	-72.864	-8191	255	
1704.002	1	1	0	0	0.26556	0.11159	0.09011	0.14198	0.091176	0.17884	0.18156	0.23805	0.18706	0.14694	0.1888	0.10045	0.20723	0.2753	0.22826	0.12604	-1.2896	-2.3271	-2.0229	-1.9292	-2.5208	-1.75	-2.4521	-2.3312	-1.5417	-2.3958	-2.1104	-1.8708	-2.5458	-1.7292	-2.1375	-2.4146	248.668	-78.346	-80.845	116.557	24.853	173.467	172.048	184.188	163.360	250.207	181.619	212.102	180.321	67.757	146.951	-26.790	0.00031462	0.0036226	0.001085	665.58	1.7707e-05	3.233e-05	928.45	196.49	6.8608e-06	2.7247e-05	349.8	135.95	68.267	23.567	1.1627e-05	54.629	0.033828	0.048443	0.013514	1016.1	0.00050494	0.00053995	1236.7	302.57	0.00050335	0.0005326	561.75	198.13	167.1	44.258	0.0005104	82.563	-86.776	-24.109	-88.354	-84.870	-56.884	-28.869	-84.704	-81.267	-75.490	54.595	-81.734	-77.360	-77.320	-72.375	144.727	-72.691	-8191	255	
1704.099	1	1	0	0	0.13531	0.13735	0.26891	0.040426	0.23757	0.10635	0.29406	0.065277	0.19277	0.13526	0.29164	0.24409	0.17064	0.058281	0.13134	0.14748	-1.2896	-2.3896	-1.9937	-1.7687	-2.5542	-1.7062	-2.2771	-2.5083	-1.7646	-2.3563	-2.4104	-1.7792	-2.5958	-1.8062	-2.0146	-2.5646	66.602	166.181	118.087	13.242	-29.963	248.593	207.542	157.127	-89.787	99.784	214.307	222.166	124.332	86.721	138.694	207.723	0.00017198	0.0023449	0.00053031	660.37	2.0247e-05	1.6515e-05	918.99	196.94	2.1296e-06	5.4377e-06	347.91	134.93	68.484	23.415	2.1115e-05	54.426	0.033214	0.047246	0.013208	1001	0.00048544	0.00051521	1213	295.87	0.00047631	0.00050301	548.34	192.3	160.44	42.86	0.00047702	80.507	136.257	133.790	39.331	-85.237	16.174	66.002	-85.121	-81.244	258.622	235.733	-81.891	-77.320	-76.769	-72.486	176.690	-73.160	-8191	255	
1704.170	1	1	0	0	0.10038	0.15742	0.19719	0.2778	0.12658	0.15012	0.34881	0.13605	0.18296	0.28742	0.13509	0.034713	0.26675	0.16268	0.10627	0.078799	-1.0896	-2.2625	-2.3	-1.7604	-2.5563	-1.8146	-2.1542	-2.7167	-1.5938	-2.1479	-2.2854	-1.6729	-2.4938	-2.1417	-1.75	-2.5542	198.240	-27.482	136.624	205.169	-34.308	13.921	145.406	114.923	165.897	-31.774	204.984	102.991	258.570	128.138	162.026	-27.185	0.00022071	0.00028893	0.00021859	659.63	2.0838e-05	1.7803e-05	913.83	194	1.4469e-05	3.0652e-05	345.81	134.63	66.975	23.445	2.5505e-05	54.47	0.03126	0.04442	0.012404	976.9	0.00046093	0.00049252	1196.9	289.89	0.00045911	0.00048527	539.73	190	157.66	42.362	0.0004695	79.949	247.462	-69.512	-14.867	-84.650	87.296	-16.145	-84.684	-80.608	-83.824	14.009	-81.336	-77.124	-77.285	-72.853	66.650	-72.691	-8191	255	
1704.266	1	1	0	0	0.16118	0.024242	0.11518	0.36358	0.10155	0.20006	0.045871	0.092954	0.15226	0.26099	0.23461	0.33007	0.16936	0.10023	0.10937	0.35885	-1.2292	-2.325	-2.2521	-1.7021	-2.3271	-2.0771	-2.0125	-2.525	-1.6521	-2.0729	-2.4958	-1.7833	-2.3396	-2.2938	-1.6542	-2.7354	-8.808	91.864	70.797	209.241	127.871	254.931	19.287	7.780	85.368	-20.065	-77.038	188.195	-17.944	195.252	-54.874	-67.063	0.00023511	0.0018445	0.00094778	656.14	7.2518e-06	1.1608e-05	915.01	193.61	4.4392e-06	8.2374e-06	346.19	135.04	67.394	23.31	1.1587e-05	54.351	0.030801	0.044024	0.012393	973.54	0.00046263	0.00049254	1194.5	291.32	0.00046764	0.00049732	545.32	192.84	161.29	43.154	0.00048898	81.142	173.163	127.134	253.137	-85.375	159.359	20.757	-85.261	-81.024	13.655	119.087	-81.535	-77.625	-77.102	-73.165	-76.549	-73.293	-8191	255	
1704.387	1	1	0	0	0.17871	0.31581	0.16835	0.23951	0.078811	0.22575	0.16305	0.2183	0.14242	0.066821	0.10438	0.10157	0.30418	0.090525	0.17476	0.19629	-1.3479	-2.0333	-2.3792	-1.7167	-2.3708	-2.1875	-2.075	-2.7729	-2.0396	-1.9917	-2.6542	-1.8021	-2.4083	-2.3396	-1.6396	-2.5542	125.978	165.498	144.199	-12.398	256.496	147.783	228.871	231.017	125.560	101.139	41.326	250.010	219.304	-61.627	229.291	-55.296	0.0001732	0.00077419	0.00034165	655.95	1.4221e-05	3.1229e-05	908.43	194.17	1.0867e-05	1.5075e-05	344.64	133.92	66.969	23.358	2.2556e-05	54.285	0.032156	0.046089	0.012881	988.08	0.00047863	0.000508	1201.7	293.6	0.00047288	0.00050165	546	192.06	160.12	42.742	0.00047873	80.457	-94.244	100.160	228.915	-85.121	108.445	101.326	-85.212	-81.559	94.571	184.394	-81.718	-77.453	-77.242	-73.267	38.862	-72.873	-8191	255	
1704.483	1	1	0	0	0.050858	0.14641	0.1928	0.32014	0.10029	0.13373	0.12618	0.24266	0.16634	0.24487	0.21269	0.11376	0.25906	0.14333	0.18511	0.2655	-1.5396	-1.9521	-2.4833	-1.6833	-2.1979	-2.3792	-1.9625	-2.6562	-2.0625	-1.8667	-2.6625	-1.9646	-2.1396	-2.4188	-1.5625	-2.6271	174.545	55.205	165.628	174.638	168.846	71.820	129.983	200.250	-73.338	97.048	248.931	227.912	187.386	155.875	236.093	178.254	6.1892e-05	0.00065124	0.00059673	652.19	1.9468e-05	1.3822e-05	904.95	191.91	7.5589e-06	1.1261e-05	343.16	133.75	67.248	23.563	3.2477e-06	54.946	0.031364	0.0445	0.012456	971.22	0.00045997	0.00048779	1182.7	286.8	0.00045621	0.00048432	535.2	189.75	157.1	42.43	0.00047191	80.445	239.600	145.307	200.355	-85.469	91.388	101.304	-85.111	-81.408	168.312	40.110	-81.403	-77.352	-77.675	-72.525	123.586	-73.078	-8191	255	
1704.579	1	1	0	0	0.037267	0.24739	0.059026	0.099026	0.34179	0.16773	0.19746	0.034984	0.2762	0.39629	0.33848	0.11121	0.091887	0.20782	0.33966	0.19126	-1.75	-1.6354	-2.4875	-2.1042	-2.0646	-2.45	-1.7313	-2.4833	-2.2979	-1.6271	-2.6458	-2.0438	-1.9937	-2.3354	-1.5979	-2.5062	215.992	130.906	233.552	222.521	205.354	239.199	149.241	-98.301	-88.538	71.793	201.671	169.644	152.833	228.558	74.311	40.692	5.4594e-05	0.0028187	0.00021458	648.89	1.9043e-05	8.3871e-06	899.02	191.78	7.9784e-06	2.446e-05	341.65	134.72	68.38	23.771	1.9929e-05	55.54	0.030935	0.044208	0.012429	969.89	0.0004634	0.00049678	1188.4	290.25	0.00047006	0.0005018	544.44	193.18	161.86	43.716	0.00049149	82.21	203.580	-11.441	64.286	-85.131	-98.281	103.077	-85.318	-81.100	-85.767	55.052	-81.698	-77.207	-77.424	-72.688	-58.139	-72.792	-8191	255	
1704.698	1	1	0	0	0.36606	0.16957	0.11137	0.24642	0.037484	0.18297	0.25435	0.38186	0.39167	0.25518	0.15509	0.21459	0.038038	0.24918	0.18834	0.12445	-1.9312	-1.6688	-2.4708	-2.0146	-1.8	-2.5125	-1.8813	-2.3187	-2.0792	-1.6375	-2.6146	-2.0479	-1.9167	-2.5792	-1.6042	-2.3187	248.910	-64.319	222.764	139.333	225.249	-71.549	231.214	207.302	122.666	-5.096	231.322	-89.515	-48.945	101.963	-65.796	177.750	0.00015944	0.0016923	0.00037149	647.6	1.4366e-05	3.0615e-05	895.17	192.66	1.9174e-05	3.1481e-05	342.62	134.35	66.511	23.63	3.0374e-05	54.731	0.032228	0.046364	0.013007	984.04	0.00048301	0.00051351	1196.7	292.71	0.00047841	0.00050608	543.75	192	159.33	42.883	0.0004771	80.506	73.823	238.647	217.456	-85.279	32.724	192.299	-85.069	-80.999	165.470	111.892	-81.151	-77.350	-77.810	-72.413	70.056	-72.614	-8191	255	
1704.770	1	1	0	0	0.31604	0.10481	0.12802	0.065459	0.23806	0.26201	0.1982	0.10868	0.27504	0.061396	0.034728	0.095793	0.19688	0.079606	0.2678	0.23214	-2.0646	-1.5333	-2.3458	-2.1479	-1.8208	-2.6083	-1.7521	-2.0438	-2.3625	-1.6354	-2.5292	-2.1417	-1.7896	-2.5438	-1.8021	-2.1229	221.458	-69.825	-53.862	240.391	-33.479	32.334	230.288	-86.188	-6.257	-91.297	93.750	-78.583	87.538	227.739	10.081	230.688	0.00016682	0.0012429	0.00068776	641.16	6.7174e-06	3.3639e-05	898.26	191.34	1.8809e-05	2.7332e-05	339.77	132.85	66.396	23.664	1.1693e-05	54.639	0.031011	0.044215	0.012413	959.55	0.00045943	0.00048769	1176.3	286.16	0.00045551	0.00048051	531.18	187.99	154.9	41.988	0.00045667	79.448	223.200	-43.299	196.616	-85.259	220.371	150.189	-84.696	-80.686	14.049	-50.701	-81.347	-77.286	-77.823	-72.988	172.227	-72.641	-8191	255	
#DATA ENDS
