BOXY.EXE: ISS Imagent and Oximeter Data Acquisition Program Version 0.80
Ascii Record File

#ACQ INFORMATION
2  Detector Channels 
16  External MUX Channels 
1  Auxiliary Channels 
5000  Waveform (CCF) Frequency (Hz)
1  Waveforms Skipped 
30  Waveforms Averaged 
1  Cycles Averaged 
16  Acquisitions per Waveform 
10.0806  Updata Rate (Hz) 

#FILE INFORMATION
TRUE -- External MUX Channel results are PARSED.
FALSE -- AC DC and Phase are NOT grouped.
TRUE -- Companion Program Settings File CREATED.
FALSE -- AC data not excluded
FALSE -- DC data not excluded
FALSE -- Phase data not excluded
FALSE -- Auxillary Chn. data not excluded
Tab delimiters

#CALIBRATION STATE
TRUE -- Waveform Calibration Values APPLIED.


#AUX CALIBRATION VALUES
Val Type	aux-1	

Term	1.0000e+00	
Factor	0.0000e+00	


#WF CALIBRATION VALUES
A = Detector Channel
Val Type	A-AC1	A-AC2	A-AC3	A-AC4	A-AC5	A-AC6	A-AC7	A-AC8	A-AC9	A-AC10	A-AC11	A-AC12	A-AC13	A-AC14	A-AC15	A-AC16	A-DC1	A-DC2	A-DC3	A-DC4	A-DC5	A-DC6	A-DC7	A-DC8	A-DC9	A-DC10	A-DC11	A-DC12	A-DC13	A-DC14	A-DC15	A-DC16	A-Ph1	A-Ph2	A-Ph3	A-Ph4	A-Ph5	A-Ph6	A-Ph7	A-Ph8	A-Ph9	A-Ph10	A-Ph11	A-Ph12	A-Ph13	A-Ph14	A-Ph15	A-Ph16	

Term	0.00000e+00	0.00000e+00	0.00000e+00	0.00000e+00	0.00000e+00	0.00000e+00	0.00000e+00	0.00000e+00	0.00000e+00	0.00000e+00	0.00000e+00	0.00000e+00	0.00000e+00	0.00000e+00	0.00000e+00	0.00000e+00	0.00000e+00	0.00000e+00	0.00000e+00	0.00000e+00	0.00000e+00	0.00000e+00	0.00000e+00	0.00000e+00	0.00000e+00	0.00000e+00	0.00000e+00	0.00000e+00	0.00000e+00	0.00000e+00	0.00000e+00	0.00000e+00	0.00000e+00	0.00000e+00	0.00000e+00	0.00000e+00	0.00000e+00	0.00000e+00	0.00000e+00	0.00000e+00	0.00000e+00	0.00000e+00	0.00000e+00	0.00000e+00	0.00000e+00	0.00000e+00	0.00000e+00	0.00000e+00	
Factor	1.00000e+00	1.00000e+00	1.00000e+00	1.00000e+00	1.00000e+00	1.00000e+00	1.00000e+00	1.00000e+00	1.00000e+00	1.00000e+00	1.00000e+00	1.00000e+00	1.00000e+00	1.00000e+00	1.00000e+00	1.00000e+00	1.00000e+00	1.00000e+00	1.00000e+00	1.00000e+00	1.00000e+00	1.00000e+00	1.00000e+00	1.00000e+00	1.00000e+00	1.00000e+00	1.00000e+00	1.00000e+00	1.00000e+00	1.00000e+00	1.00000e+00	1.00000e+00	X	X	X	X	X	X	X	X	X	X	X	X	X	X	X	X	

B = Detector Channel
Val Type	B-AC1	B-AC2	B-AC3	B-AC4	B-AC5	B-AC6	B-AC7	B-AC8	B-AC9	B-AC10	B-AC11	B-AC12	B-AC13	B-AC14	B-AC15	B-AC16	B-DC1	B-DC2	B-DC3	B-DC4	B-DC5	B-DC6	B-DC7	B-DC8	B-DC9	B-DC10	B-DC11	B-DC12	B-DC13	B-DC14	B-DC15	B-DC16	B-Ph1	B-Ph2	B-Ph3	B-Ph4	B-Ph5	B-Ph6	B-Ph7	B-Ph8	B-Ph9	B-Ph10	B-Ph11	B-Ph12	B-Ph13	B-Ph14	B-Ph15	B-Ph16	

Term	0.00000e+00	0.00000e+00	0.00000e+00	0.00000e+00	0.00000e+00	0.00000e+00	0.00000e+00	0.00000e+00	0.00000e+00	0.00000e+00	0.00000e+00	0.00000e+00	0.00000e+00	0.00000e+00	0.00000e+00	0.00000e+00	0.00000e+00	0.00000e+00	0.00000e+00	0.00000e+00	0.00000e+00	0.00000e+00	0.00000e+00	0.00000e+00	0.00000e+00	0.00000e+00	0.00000e+00	0.00000e+00	0.00000e+00	0.00000e+00	0.00000e+00	0.00000e+00	-1.03147e+02	-1.27696e+02	-1.26040e+02	-1.81176e+02	-6.23970e+01	-6.75592e+01	-1.58780e+02	-1.62015e+02	-5.65277e+01	-6.22897e+01	-1.72992e+02	-1.70125e+02	-1.79834e+02	-1.76748e+02	-6.70119e+01	-1.49179e+02	
Factor	1.55199e-05	1.44807e-04	4.06336e-05	1.55882e-01	1.24127e-06	1.48260e-06	1.50087e-01	4.62077e-02	1.01788e-06	1.60599e-06	9.62183e-02	2.73408e-02	4.09599e-02	8.78388e-03	1.32503e-06	1.25402e-02	7.43530e-06	1.06435e-05	2.98820e-06	8.29155e-02	1.11264e-07	1.18464e-07	7.49576e-02	2.47378e-02	1.11329e-07	1.17809e-07	4.95847e-02	1.42385e-02	2.21954e-02	4.73677e-03	1.13755e-07	6.51851e-03	X	X	X	X	X	X	X	X	X	X	X	X	X	X	X	X	



#DISTANCE SETTINGS
A = Detector Channel
A-1	A-2	A-3	A-4	A-5	A-6	A-7	A-8	A-9	A-10	A-11	A-12	A-13	A-14	A-15	A-16	

2.5000e+00	3.0000e+00	2.5000e+00	3.0000e+00	2.0000e+00	3.0000e+00	1.5000e+00	3.0000e+00	3.0000e+00	3.0000e+00	3.0000e+00	3.0000e+00	3.0000e+00	3.0000e+00	1.5000e+00	3.0000e+00	

B = Detector Channel
B-1	B-2	B-3	B-4	B-5	B-6	B-7	B-8	B-9	B-10	B-11	B-12	B-13	B-14	B-15	B-16	

1.0000e+01	1.0000e+01	1.0000e+01	1.4400e+00	1.0000e+01	1.0000e+01	1.5100e+00	1.9400e+00	1.0000e+01	1.0000e+01	1.9900e+00	2.4900e+00	2.4100e+00	2.9000e+00	1.0000e+01	2.9800e+00	




#DATA BEGINS
time	group	step	mark	flag	A-AC1	A-AC2	A-AC3	A-AC4	A-AC5	A-AC6	A-AC7	A-AC8	A-AC9	A-AC10	A-AC11	A-AC12	A-AC13	A-AC14	A-AC15	A-AC16	A-DC1	A-DC2	A-DC3	A-DC4	A-DC5	A-DC6	A-DC7	A-DC8	A-DC9	A-DC10	A-DC11	A-DC12	A-DC13	A-DC14	A-DC15	A-DC16	A-Ph1	A-Ph2	A-Ph3	A-Ph4	A-Ph5	A-Ph6	A-Ph7	A-Ph8	A-Ph9	A-Ph10	A-Ph11	A-Ph12	A-Ph13	A-Ph14	A-Ph15	A-Ph16	B-AC1	B-AC2	B-AC3	B-AC4	B-AC5	B-AC6	B-AC7	B-AC8	B-AC9	B-AC10	B-AC11	B-AC12	B-AC13	B-AC14	B-AC15	B-AC16	B-DC1	B-DC2	B-DC3	B-DC4	B-DC5	B-DC6	B-DC7	B-DC8	B-DC9	B-DC10	B-DC11	B-DC12	B-DC13	B-DC14	B-DC15	B-DC16	B-Ph1	B-Ph2	B-Ph3	B-Ph4	B-Ph5	B-Ph6	B-Ph7	B-Ph8	B-Ph9	B-Ph10	B-Ph11	B-Ph12	B-Ph13	B-Ph14	B-Ph15	B-Ph16	aux-1	digaux	

1899.256	1	1	0	256	0.27258	0.19777	0.046438	0.056612	0.13587	0.219	0.10801	0.069832	0.38446	0.29631	0.20927	0.18351	0.11055	0.12456	0.23505	0.18845	-1.0104	-2.1875	-2.1792	-1.6104	-2.4333	-1.8833	-1.9167	-2.4958	-1.4521	-2.1333	-2.3042	-1.5375	-2.5875	-1.7917	-1.7979	-2.6708	202.162	88.010	149.576	199.951	232.928	240.737	-74.048	17.219	255.161	228.080	132.064	84.474	-67.911	8.559	4.898	39.098	6.134e-05	0.00017744	4.1647e-05	337.66	1.2445e-06	1.6826e-06	573.74	78.823	1.1935e-06	2.4357e-06	167.51	53.22	19.31	7.0763	1.8014e-06	24.304	8.7535e-05	5.5879e-05	1.3627e-05	322.96	5.5215e-07	5.4025e-07	550.65	75.985	6.9905e-07	6.0917e-07	162.04	51.92	18.719	6.8938	5.7257e-07	23.587	203.925	-1.468	7.800	-74.915	97.743	40.554	-74.703	-70.253	109.383	56.274	-70.496	-64.478	-64.484	-59.440	48.116	-60.450	-8191	255	
1899.327	1	1	0	0	0.13236	0.076699	0.16667	0.15744	0.41077	0.064619	0.22315	0.32845	0.098184	0.095699	0.063324	0.054522	0.20384	0.1547	0.21729	0.084319	-1.1521	-2.2188	-2.1125	-1.5542	-2.175	-1.7687	-1.7687	-2.3979	-1.5875	-1.9208	-2.1979	-1.5271	-2.2917	-1.9833	-1.5083	-2.4062	134.175	100.947	191.269	122.100	208.376	229.320	-69.227	233.077	209.631	10.473	140.495	141.887	-48.532	249.436	247.180	-4.763	6.2557e-05	0.00019104	6.1146e-05	336.94	2.7823e-06	2.2597e-06	576.21	79.6	1.2849e-06	1.2939e-06	170.66	53.26	19.165	7.0972	1.4274e-06	24.291	8.4127e-05	5.2109e-05	1.3715e-05	322.97	5.7254e-07	6.2194e-07	552.59	76.225	6.2877e-07	5.4953e-07	163.24	51.924	18.799	6.871	6.285e-07	23.619	214.744	-9.273	-6.423	-74.434	87.640	60.800	-74.968	-69.607	94.375	45.627	-70.160	-64.807	-64.630	-59.541	74.711	-60.032	-8191	255	
1899.448	1	1	0	0	0.12242	0.15967	0.067129	0.13483	0.1002	0.10781	0.083558	0.21417	0.11564	0.20428	0.12363	0.15103	0.2378	0.13394	0.16795	0.2635	-1.225	-1.9146	-2.3021	-1.4542	-2.2687	-2.1854	-1.7354	-2.4104	-1.6437	-1.8604	-2.2896	-1.6396	-2.2354	-2.0354	-1.4604	-2.4417	195.590	-1.552	30.413	-69.263	-78.968	225.487	184.379	-81.942	217.103	174.436	-75.306	-66.699	140.662	268.286	129.430	182.326	6.6177e-05	0.0001549	3.4392e-05	337.95	1.6133e-06	1.1246e-06	578.6	79.023	1.5753e-06	1.9278e-06	169.46	53.583	19.202	7.1041	7.3869e-07	24.515	8.1463e-05	5.7719e-05	1.4206e-05	324.25	6.0221e-07	5.4419e-07	552.65	76.275	6.682e-07	5.7186e-07	163.19	52.16	18.896	6.9025	6.6357e-07	23.771	203.009	18.251	-23.634	-74.734	64.346	39.079	-74.884	-70.026	76.403	55.770	-70.340	-64.606	-64.875	-59.499	28.536	-59.937	-8191	255	
1899.542	1	1	0	0	0.19854	0.19929	0.099859	0.21129	0.24043	0.20185	0.18585	0.22417	0.21204	0.20499	0.13567	0.14674	0.10841	0.24209	0.10789	0.034556	-1.2792	-1.7333	-2.4146	-1.6229	-2.2125	-2.0979	-1.4625	-2.2812	-1.7479	-1.6667	-2.375	-1.5208	-2.0333	-2.1792	-1.3729	-2.3812	125.332	102.654	138.079	-44.810	253.325	254.559	206.755	104.717	40.816	172.425	124.744	-19.626	247.937	80.929	-35.026	202.542	6.2915e-05	0.00021439	5.5886e-05	340.06	5.0821e-07	2.0953e-06	576.19	79.142	8.7715e-07	1.9614e-06	171.73	53.354	19.259	7.1969	1.2304e-06	24.568	8.2129e-05	5.8007e-05	1.2401e-05	324.54	5.9062e-07	5.4691e-07	553.71	76.3	6.3133e-07	5.6573e-07	163.95	51.946	18.916	6.8776	6.2447e-07	23.642	207.960	-8.244	-8.638	-74.448	31.863	46.764	-74.533	-70.287	89.419	59.131	-70.035	-64.509	-64.402	-58.890	77.533	-60.047	-8191	255	
1899.638	1	1	0	0	0.20154	0.19557	0.23544	0.30724	0.090198	0.18435	0.13697	0.22006	0.3094	0.2163	0.10975	0.16861	0.23945	0.18423	0.16205	0.28652	-1.5854	-1.725	-2.3979	-1.575	-2.1479	-2.2667	-1.4271	-2.2604	-1.7917	-1.625	-2.3208	-1.7896	-1.75	-2.1271	-1.2104	-2.275	85.554	27.704	68.665	59.049	17.093	170.719	-79.072	264.133	212.758	45.072	-87.150	222.214	-61.922	227.939	-20.424	134.711	6.0702e-05	0.00017217	4.9053e-05	339.11	4.9074e-07	2.5645e-06	575.86	78.916	9.0875e-07	1.3564e-06	170.21	53.875	19.176	7.1963	1.0434e-06	24.521	7.3098e-05	5.7165e-05	1.4275e-05	323.75	6.604e-07	5.0323e-07	552.37	76.065	6.5707e-07	6.0205e-07	163.66	52.137	18.9	6.9183	5.9769e-07	23.601	212.580	23.326	-0.017	-74.513	79.328	66.532	-74.286	-70.095	54.204	98.252	-70.655	-64.441	-63.399	-58.487	43.234	-59.655	-8191	255	
1899.735	1	1	0	0	0.086037	0.13595	0.16271	0.10593	0.16757	0.21414	0.30707	0.057959	0.19863	0.084691	0.10497	0.10524	0.045975	0.067751	0.15042	0.17557	-1.4583	-1.5104	-2.3563	-1.8438	-1.7917	-2.4979	-1.5312	-2.1208	-1.95	-1.4729	-2.5583	-1.7292	-1.8333	-2.2646	-1.4875	-2.1083	-52.724	191.286	120.565	-78.094	-35.420	-69.106	192.478	-59.905	80.123	-38.050	236.946	266.834	-32.564	-57.668	181.602	221.450	5.8948e-05	0.0001814	6.2326e-05	336.95	1.3843e-06	1.4094e-06	579.75	79.86	7.791e-07	1.2109e-06	169.74	53.888	19.361	7.2023	1.9041e-06	24.788	8.2578e-05	5.905e-05	1.4107e-05	324.12	7.2159e-07	5.6172e-07	554.16	76.705	6.3272e-07	6.3298e-07	163.52	52.235	18.893	6.9457	6.1949e-07	23.794	210.488	7.487	-12.479	-74.583	32.365	64.222	-74.611	-69.598	90.366	20.550	-70.381	-64.693	-64.310	-59.480	56.452	-60.592	-8191	255	
1899.855	1	1	0	0	0.26058	0.10218	0.20885	0.051736	0.17485	0.22339	0.11372	0.035202	0.1673	0.20163	0.11085	0.18444	0.17141	0.25314	0.10629	0.32112	-1.8292	-1.3854	-2.2958	-1.8417	-1.6625	-2.3792	-1.525	-2.0062	-2.0958	-1.3958	-2.3917	-1.7979	-1.6271	-2.3646	-1.4917	-1.8833	91.684	59.042	86.250	186.057	-37.668	-57.278	238.797	122.063	232.387	142.402	109.803	229.125	-55.952	-75.073	104.594	253.823	5.5787e-05	0.00013707	4.8581e-05	341.9	1.1812e-06	1.5042e-06	580.48	79.519	3.9324e-07	1.8444e-06	170.47	54.074	19.418	7.2235	8.5942e-07	24.627	8.0658e-05	5.63e-05	1.4518e-05	325.38	6.3629e-07	4.7188e-07	555.01	76.466	5.8888e-07	6.0696e-07	163.75	52.438	18.928	6.9108	5.6119e-07	23.797	203.896	31.455	32.609	-74.156	57.698	46.905	-74.547	-69.630	14.192	66.978	-70.480	-64.767	-65.367	-58.916	46.952	-60.064	-8191	255	
1899.927	1	1	0	0	0.17838	0.32823	0.22851	0.10041	0.20449	0.085224	0.089345	0.1577	0.11214	0.33543	0.19028	0.16572	0.088318	0.14441	0.38189	0.12963	-1.8917	-1.4708	-1.9604	-1.9083	-1.4708	-2.4688	-1.6396	-1.9667	-2.2062	-1.4271	-2.2938	-2.275	-1.5833	-2.2521	-1.6042	-1.7521	-23.253	17.305	135.701	118.853	-77.478	212.243	236.152	225.881	-65.153	226.156	204.624	-5.443	244.358	-44.949	271.449	155.651	6.167e-05	0.00017436	7.3473e-05	340.23	1.4009e-06	2.2812e-06	577.56	80.041	5.8364e-07	1.7789e-06	170.94	53.628	19.232	7.1647	1.4806e-06	24.373	8.2098e-05	6.2265e-05	1.2289e-05	324.94	7.1023e-07	5.5653e-07	554.12	76.693	5.4992e-07	6.0279e-07	163.68	52.121	18.873	6.9039	6.0337e-07	23.563	213.047	-8.775	-3.704	-74.743	101.931	74.868	-74.425	-70.168	98.709	89.487	-70.447	-64.310	-63.967	-59.311	60.066	-59.453	-8191	255	
1900.048	1	1	0	0	0.054684	0.35089	0.23258	0.15771	0.14695	0.20298	0.35995	0.20523	0.019929	0.037162	0.21512	0.2275	0.17489	0.079242	0.18123	0.23603	-1.9146	-1.6125	-2.3187	-1.9833	-1.4396	-2.4604	-1.6646	-1.6083	-2.3438	-1.6	-2.0396	-2.2021	-1.3813	-2.3979	-1.7563	-1.5542	172.630	-55.310	5.769	144.239	-21.580	127.977	157.950	-52.026	-15.312	39.537	212.357	90.877	155.790	175.769	-14.597	183.438	6.3674e-05	0.00011947	4.8182e-05	339.84	9.8559e-07	2.6366e-06	574.82	78.977	1.0683e-06	1.5736e-06	169.64	53.552	18.774	7.0471	1.0635e-06	24.466	7.4477e-05	5.8118e-05	1.3067e-05	323.54	6.9633e-07	5.1483e-07	550.08	76.121	5.7288e-07	6.3101e-07	162.63	51.834	18.658	6.8275	6.4556e-07	23.633	203.733	5.494	-4.473	-74.552	48.074	74.929	-74.519	-69.426	45.802	62.770	-69.886	-64.825	-63.607	-58.380	79.285	-60.180	-8191	255	
1900.144	1	1	0	0	0.087678	0.10616	0.17762	0.17341	0.023082	0.27228	0.18875	0.10579	0.034	0.11805	0.12882	0.069956	0.13518	0.12923	0.094797	0.10447	-2.1542	-1.5333	-2.0062	-2.2333	-1.1979	-2.2771	-2.0438	-1.5438	-2.4271	-1.5417	-2.0812	-2.4896	-1.6042	-2.1458	-2.0042	-1.4729	0.476	260.421	-72.689	200.658	84.635	-49.073	154.751	157.367	240.442	67.046	267.345	86.480	47.500	-27.290	72.314	52.768	6.463e-05	0.00022149	6.0381e-05	337.98	1.5951e-06	1.2355e-06	572.62	78.385	3.0372e-07	2.8316e-06	169.47	53.444	19.24	7.1795	1.8317e-06	24.558	7.6955e-05	6.0757e-05	1.2719e-05	323.08	6.9563e-07	4.9804e-07	549.88	76.109	6.0164e-07	5.8561e-07	162.47	51.963	18.842	6.8759	6.0077e-07	23.623	211.087	-2.562	29.911	-74.443	53.856	58.442	-74.568	-69.507	97.656	54.788	-70.128	-64.094	-64.045	-58.643	52.377	-59.772	-8191	255	
1900.240	1	1	0	0	0.12673	0.091164	0.34118	0.14023	0.19601	0.21045	0.28217	0.10123	0.22679	0.19941	0.31729	0.18678	0.060124	0.28699	0.032484	0.16939	-2.1417	-1.7104	-1.7812	-2.3042	-1.4708	-2.4083	-2.0333	-1.4292	-2.475	-1.6083	-1.9583	-2.5646	-1.3125	-2.1917	-2.0938	-1.7042	-35.284	117.299	250.186	176.494	-80.725	210.441	-20.698	133.295	-14.911	172.951	261.104	239.233	247.753	135.090	4.746	-57.589	5.9401e-05	5.0089e-05	6.2999e-05	340.91	1.5476e-06	1.809e-06	577.91	79.139	1.364e-06	1.2513e-06	169.88	53.643	19.035	7.0664	1.9733e-06	24.464	8.0642e-05	5.4925e-05	1.3696e-05	324.01	7.2159e-07	4.7065e-07	553.93	76.113	6.2924e-07	5.8659e-07	163.06	52.198	18.755	6.8709	5.7612e-07	23.714	214.622	-44.199	-11.550	-74.750	42.885	58.993	-74.481	-69.600	47.893	48.966	-69.661	-64.429	-65.886	-58.229	96.631	-60.147	-8191	255	
1900.336	1	1	0	0	0.040514	0.043973	0.31413	0.093458	0.019364	0.20681	0.089215	0.29266	0.18587	0.086894	0.055204	0.11352	0.26048	0.27342	0.16668	0.12965	-2.05	-1.6812	-1.7437	-2.3896	-1.6146	-2.0812	-2.3125	-1.5021	-2.3458	-1.8625	-1.6354	-2.4688	-1.4854	-1.9375	-2.3	-1.475	64.541	245.534	45.214	-7.749	60.477	199.981	260.700	201.529	128.677	-46.543	-34.881	44.497	-13.419	-20.905	252.896	84.546	6.2136e-05	0.00022299	6.0035e-05	341.8	1.9632e-06	2.0104e-06	579.35	78.81	2.3349e-07	1.4105e-06	169.67	53.529	19.085	7.1984	1.6501e-06	24.499	7.6692e-05	5.222e-05	1.5893e-05	325.15	6.5831e-07	5.479e-07	552.97	75.995	5.8378e-07	5.2646e-07	163.02	52.246	18.682	6.8855	5.7162e-07	23.637	212.150	8.141	6.588	-74.787	57.342	39.349	-74.112	-69.145	46.851	65.605	-69.646	-63.767	-63.276	-58.993	48.801	-59.781	-8191	255	
1900.432	1	1	0	0	0.15975	0.014683	0.20684	0.29403	0.051418	0.19638	0.33182	0.24714	0.14442	0.18453	0.25184	0.33047	0.22193	0.14067	0.12851	0.3485	-1.8563	-1.9083	-1.6292	-2.525	-1.4729	-1.9688	-2.3167	-1.4708	-2.25	-2.1937	-1.6042	-2.2521	-1.5771	-1.8312	-2.0687	-1.6083	-42.026	203.730	85.666	-42.423	240.775	187.489	237.676	8.690	54.002	-74.626	227.545	-74.061	127.877	259.370	258.106	232.635	5.6413e-05	7.8398e-05	6.2614e-05	340.52	1.3672e-06	1.6718e-06	577.15	77.994	7.3496e-07	1.4765e-06	170.61	53.395	18.828	7.1361	8.1847e-07	24.658	7.6677e-05	5.0246e-05	1.585e-05	324.35	6.5993e-07	5.5604e-07	551.3	75.816	5.8587e-07	5.5615e-07	163.2	52.313	18.616	6.9209	5.6712e-07	23.72	210.234	18.257	3.628	-73.982	51.887	56.538	-73.798	-69.479	86.655	60.450	-69.532	-64.147	-64.447	-59.328	-2.973	-59.990	-8191	255	
1900.551	1	1	0	0	0.20662	0.24165	0.38382	0.028906	0.074364	0.04282	0.23917	0.39515	0.092103	0.13605	0.17326	0.042192	0.28043	0.2068	0.12247	0.03699	-1.8687	-2.0458	-1.3667	-2.3729	-1.6375	-1.75	-2.3854	-1.3875	-1.9667	-2.0479	-1.5312	-2.3458	-1.6583	-1.75	-2.2521	-1.6708	236.273	28.691	59.210	161.441	-46.509	-72.357	216.161	205.694	212.389	216.356	240.741	49.985	229.954	235.095	58.745	190.308	5.4869e-05	0.00018154	6.4925e-05	340.67	4.3269e-07	2.1734e-06	587.42	81.128	1.2351e-06	1.7263e-06	175.07	54.631	19.482	7.3491	1.8972e-06	25.331	8.0859e-05	4.916e-05	1.7263e-05	325.27	6.349e-07	6.017e-07	559.19	77.637	6.4501e-07	5.1394e-07	168.05	53.201	19.206	7.085	5.5242e-07	24.439	214.582	-2.853	0.453	-74.515	81.747	71.146	-74.446	-70.081	67.003	61.521	-70.411	-64.498	-64.383	-59.146	28.091	-60.095	-8191	255	
1900.623	1	1	0	0	0.42581	0.14393	0.080098	0.25967	0.07999	0.16172	0.12645	0.21011	0.16666	0.2	0.018531	0.17984	0.2234	0.097491	0.28701	0.15825	-1.8021	-2.1729	-1.4458	-2.3042	-1.7521	-1.6292	-2.6083	-1.5792	-2.1813	-2.2812	-1.4167	-2.55	-1.7792	-1.5375	-2.3063	-1.7896	169.311	213.500	270.382	-25.135	-20.246	231.205	224.475	20.749	90.933	245.010	220.326	-49.767	-73.471	-3.730	12.223	154.357	6.0287e-05	0.00010803	2.6924e-05	347.42	1.1174e-06	1.7586e-06	591	82.915	1.1477e-06	2.1967e-06	178.6	56.24	19.97	7.5096	1.3515e-06	25.761	8.3895e-05	5.2375e-05	1.684e-05	330.15	6.4116e-07	6.3921e-07	566.55	79.762	6.9232e-07	5.4658e-07	171.07	54.444	19.666	7.2629	5.8607e-07	24.921	217.285	-3.500	-2.998	-74.678	65.695	48.186	-74.718	-70.491	30.482	63.045	-70.747	-64.775	-64.598	-59.271	70.056	-59.988	-8191	255	
1900.719	1	1	0	0	0.078147	0.018213	0.14762	0.15743	0.13351	0.19582	0.46316	0.29115	0.075801	0.20352	0.22746	0.089607	0.17529	0.10877	0.049655	0.055308	-1.5604	-2.2646	-1.4438	-2.4458	-2.05	-1.6104	-2.4625	-1.6729	-1.9667	-2.4	-1.7062	-2.3583	-2.1083	-1.6458	-2.35	-1.7125	243.780	181.341	90.581	-71.890	153.346	3.468	240.687	197.406	90.911	207.153	-28.298	253.069	117.759	-14.413	125.927	152.204	6.7223e-05	0.00020394	5.1804e-05	341.24	2.2764e-06	1.5579e-06	591.81	82.257	1.1286e-06	1.6915e-06	176.87	55.398	19.644	7.4247	7.3858e-07	25.295	9.2941e-05	5.3218e-05	1.8116e-05	329.42	6.7477e-07	5.9948e-07	568.04	79.342	6.8003e-07	5.7235e-07	169.96	54.158	19.396	7.2141	5.5527e-07	24.604	199.289	-4.509	28.003	-74.577	80.604	74.299	-74.355	-70.062	95.379	85.644	-70.411	-64.735	-64.590	-58.530	95.232	-60.326	-8191	255	
1900.815	1	1	0	0	0.18198	0.28093	0.12848	0.20533	0.10855	0.26846	0.071609	0.077642	0.20403	0.19934	0.18285	0.10617	0.10217	0.24354	0.25217	0.15553	-1.2812	-2.4542	-1.5333	-2.2583	-2.3271	-1.5083	-2.5083	-1.8083	-1.7188	-2.4292	-1.5938	-2.125	-2.1875	-1.6479	-2.1854	-1.7896	-76.996	179.265	53.338	71.287	46.185	242.344	-87.086	80.712	182.679	56.492	31.222	79.957	49.453	-57.439	-57.636	-80.230	6.6253e-05	0.00028264	5.5201e-05	348	1.5676e-06	1.0411e-06	591.63	82.864	1.4925e-06	2.2882e-06	180.51	55.573	19.791	7.38	1.9786e-06	25.334	8.5506e-05	5.2796e-05	1.806e-05	331.1	6.4185e-07	6.4217e-07	568.57	80.027	7.619e-07	5.2228e-07	171.4	53.943	19.408	7.1462	5.702e-07	24.497	207.209	-20.812	-8.345	-74.591	114.236	79.395	-74.257	-70.288	49.729	65.363	-70.218	-64.529	-65.358	-58.990	74.788	-60.129	-8191	255	
1900.936	1	1	0	0	0.10543	0.15381	0.23655	0.11949	0.27364	0.21852	0.23703	0.1125	0.16293	0.24892	0.055616	0.14087	0.18888	0.42573	0.16353	0.037262	-0.94583	-2.2604	-1.7646	-1.8271	-2.1875	-1.5583	-2.3917	-1.8375	-1.5958	-2.475	-1.5667	-1.7708	-2.4208	-1.5562	-2.1437	-2.0625	207.454	252.178	236.765	127.324	164.096	262.957	216.903	69.935	-23.620	-5.801	24.942	-62.143	-81.773	64.458	249.121	171.842	5.7753e-05	0.000211	3.2441e-05	340.85	8.0893e-07	2.0272e-06	589.16	81.592	7.8568e-07	1.5663e-06	174.71	54.818	19.59	7.3114	1.2734e-06	25.299	8.5041e-05	4.8517e-05	1.6043e-05	327.58	5.9016e-07	6.6439e-07	565.21	78.006	6.5707e-07	5.186e-07	167.16	53.436	19.126	7.1049	5.6569e-07	24.469	210.746	13.656	-10.420	-74.088	120.353	63.698	-74.126	-69.933	80.783	69.839	-70.243	-64.324	-64.618	-58.399	74.540	-59.961	-8191	255	
1901.032	1	1	0	0	0.2902	0.13314	0.054114	0.11186	0.1372	0.084436	0.14369	0.057956	0.33059	0.2682	0.08896	0.26748	0.16161	0.092033	0.070604	0.034824	-1.0208	-2.2875	-1.6646	-1.8875	-2.3688	-1.525	-2.2792	-2.1	-1.5	-2.3292	-1.8021	-1.8708	-2.3854	-1.4146	-2.15	-2.1458	35.754	17.743	210.253	2.038	263.747	-29.248	222.204	75.814	-30.900	230.388	29.665	227.051	50.528	233.282	165.608	60.349	6.5638e-05	0.00019405	5.9257e-05	344.23	5.9192e-07	2.1861e-06	587.11	80.708	1.5342e-06	2.5973e-06	175.03	55.452	19.395	7.3258	1.8585e-06	25.236	8.4762e-05	4.9869e-05	1.5775e-05	328.06	5.7115e-07	6.0343e-07	562.45	77.551	6.8142e-07	5.2965e-07	167.63	53.798	19.155	7.1259	5.9792e-07	24.484	208.711	20.974	-6.044	-73.995	13.513	52.162	-74.311	-69.258	64.241	69.276	-69.466	-64.272	-63.894	-58.394	71.489	-59.769	-8191	255	
1901.128	1	1	0	0	0.30725	0.16681	0.11744	0.28805	0.12724	0.25111	0.087476	0.094445	0.17351	0.15671	0.16179	0.061669	0.37539	0.2763	0.16029	0.098678	-1.0875	-2.3479	-1.7188	-1.6833	-2.4437	-1.4375	-2.2271	-2.3	-1.65	-2.2687	-1.85	-1.675	-2.5958	-1.5354	-1.9292	-2.2521	263.199	-52.668	134.295	-79.907	-9.972	249.965	-62.574	89.402	-50.838	188.673	86.640	143.900	31.261	254.349	147.248	77.734	5.8707e-05	0.00019629	5.0412e-05	343.6	9.2833e-07	1.8915e-06	585.79	80.359	1.1546e-06	1.8474e-06	175.97	54.806	19.468	7.2691	1.3551e-06	24.846	8.4344e-05	5.1488e-05	1.5315e-05	328.04	5.6536e-07	5.7134e-07	561.46	77.524	7.2039e-07	4.8792e-07	167.54	53.072	18.978	6.98	5.7185e-07	23.992	209.259	3.502	17.461	-74.367	91.970	90.196	-74.069	-69.873	61.291	74.985	-70.171	-64.358	-64.746	-59.269	86.370	-59.599	-8191	255	
1901.224	1	1	0	0	0.079285	0.15378	0.104	0.34081	0.20801	0.21065	0.16258	0.22414	0.25323	0.3697	0.24184	0.20664	0.065055	0.28904	0.06585	0.22116	-1.0375	-2.3833	-1.7479	-1.6313	-2.4354	-1.7354	-2.0042	-2.3625	-1.4312	-2.1083	-1.9771	-1.4958	-2.4583	-1.6938	-1.8	-2.3854	-30.298	210.663	88.483	241.299	148.538	202.987	231.199	176.970	-74.063	234.968	78.043	217.564	-25.877	-26.219	-9.177	-33.662	6.1924e-05	0.00022441	3.814e-05	341.65	1.3242e-06	2.0393e-06	580.68	80.037	1.0496e-06	1.1889e-06	173.82	54.287	19.656	7.1389	1.5026e-06	24.921	8.4391e-05	5.2153e-05	1.4294e-05	326.31	5.9827e-07	6.6291e-07	558.13	77.326	6.7331e-07	5.4511e-07	166.19	52.778	19.105	6.9484	5.7304e-07	24.064	215.178	4.758	5.460	-73.987	71.829	64.508	-73.902	-69.736	72.586	61.065	-69.866	-63.917	-64.664	-58.612	56.814	-59.785	-8191	255	
1901.320	1	1	0	0	0.057222	0.25456	0.26129	0.077618	0.04569	0.2821	0.39834	0.080505	0.023923	0.24147	0.23227	0.42582	0.25397	0.14337	0.3703	0.070419	-0.95833	-2.1667	-1.9708	-1.55	-2.3667	-1.7188	-1.8854	-2.3146	-1.5438	-2.1063	-2.0396	-1.4833	-2.2979	-1.6667	-1.6333	-2.6021	109.431	86.311	-49.810	216.188	-2.531	107.420	-59.749	-76.384	70.840	-15.149	193.147	-82.957	209.694	150.651	99.266	234.283	6.3888e-05	0.00015275	5.0236e-05	342.29	1.2564e-06	1.1581e-06	588.73	80.644	1.5914e-06	1.5855e-06	173.16	54.877	19.521	7.3337	8.3583e-07	25.404	8.5367e-05	5.508e-05	1.2631e-05	327.33	5.839e-07	5.8344e-07	562.43	77.771	6.6194e-07	5.5321e-07	167.16	53.502	19.138	7.068	6.3774e-07	24.513	216.562	5.509	-17.973	-74.146	54.999	36.873	-73.769	-69.881	82.179	70.681	-69.749	-63.883	-63.138	-59.050	41.598	-59.385	-8191	255	
1901.416	1	1	0	0	0.16992	0.15095	0.32917	0.27405	0.10265	0.21041	0.11491	0.090837	0.16911	0.2193	0.20139	0.22412	0.24296	0.27532	0.15107	0.10437	-1.2229	-1.9833	-2.25	-1.6083	-2.3896	-1.7333	-1.7167	-2.4729	-1.7833	-2.2042	-2.3646	-1.525	-2.4479	-1.8958	-1.4583	-2.4625	129.854	80.339	-76.906	82.336	156.105	6.159	224.692	175.630	123.694	-48.008	149.251	-73.340	-64.889	-67.014	76.153	117.321	5.7904e-05	0.00017414	7.0177e-05	345.44	4.1439e-07	1.3406e-06	594.84	82.1	4.9836e-07	1.7378e-06	177.25	55.694	19.637	7.3917	1.6178e-06	25.659	8.5196e-05	5.4615e-05	1.519e-05	329.61	6.2006e-07	6.1725e-07	566.42	79.185	6.5243e-07	5.7039e-07	170.58	54.108	19.428	7.1471	6.3205e-07	24.687	209.402	34.771	-3.522	-74.040	2.366	42.862	-73.996	-69.457	75.201	123.915	-70.034	-64.214	-64.123	-59.074	75.195	-59.684	-8191	255	
1901.535	1	1	0	0	0.16783	0.054485	0.21294	0.12061	0.29934	0.2375	0.24958	0.3349	0.27594	0.22411	0.22481	0.17778	0.21759	0.27475	0.434	0.10394	-1.2854	-1.8042	-2.4688	-1.4479	-2.2687	-1.975	-1.7271	-2.3667	-1.7104	-1.8771	-2.2708	-1.7188	-2.2875	-2.1937	-1.3312	-2.3375	48.935	12.395	-75.145	131.515	193.299	213.632	217.903	-76.477	210.516	62.606	-47.402	83.990	-26.730	245.580	72.324	122.337	5.7591e-05	0.00018601	0.00010477	344.91	2.2237e-06	1.472e-06	595.43	82.316	1.3321e-06	1.1681e-06	176.75	55.532	19.545	7.4718	2.1347e-06	25.424	8.5088e-05	5.7143e-05	1.5327e-05	329.68	6.8103e-07	5.2889e-07	569.36	79.534	6.6635e-07	5.8242e-07	170.4	53.805	19.255	7.1762	7.131e-07	24.549	216.904	-13.899	-3.220	-74.285	80.736	47.738	-73.914	-69.682	56.021	58.876	-69.674	-64.386	-63.460	-59.148	50.261	-59.464	-8191	255	
1901.631	1	1	0	0	0.10738	0.014811	0.20427	0.080655	0.13918	0.33313	0.06227	0.15787	0.13686	0.22151	0.30692	0.064754	0.11437	0.12028	0.15683	0.14735	-1.4958	-1.6187	-2.4667	-1.5312	-2.2667	-2.275	-1.6479	-2.4062	-1.8729	-1.6417	-2.4104	-1.6896	-2.0396	-2.2208	-1.4354	-2.4146	111.529	74.039	136.537	247.799	93.313	116.488	228.353	-0.671	195.755	87.729	44.115	-1.333	196.539	86.493	240.357	208.209	4.9832e-05	0.00034286	4.2004e-05	344.41	1.7588e-06	1.9347e-06	588.24	80.879	8.715e-07	1.9213e-06	173.62	54.25	19.489	7.2781	1.9334e-06	24.771	8.5754e-05	5.763e-05	1.4132e-05	327.83	6.5205e-07	5.7727e-07	564	77.858	6.1138e-07	6.1849e-07	167.38	53.174	19.015	7.0186	6.0693e-07	24.154	209.743	10.629	7.420	-74.322	48.185	40.309	-74.214	-69.791	71.191	99.033	-69.810	-64.285	-64.607	-58.417	57.874	-59.306	-8191	255	
1901.728	1	1	0	0	0.15544	0.088067	0.31801	0.28852	0.082348	0.12059	0.053031	0.11397	0.21953	0.10644	0.050734	0.17359	0.016521	0.11217	0.36431	0.11311	-1.5583	-1.6354	-2.5333	-1.5021	-1.8208	-2.3854	-1.5938	-2.2333	-1.8563	-1.6063	-2.4792	-1.6333	-1.7729	-2.3458	-1.6375	-2.3021	33.335	30.106	198.650	241.263	-11.813	-14.289	-34.447	210.977	-41.221	-54.393	99.955	121.986	61.776	233.958	182.459	-38.648	6.5942e-05	0.00016219	5.4195e-05	342.79	1.7266e-06	1.5769e-06	579.98	79.818	1.0297e-06	1.9685e-06	170.69	54.208	18.587	7.1251	9.295e-07	24.99	8.3136e-05	6.1555e-05	1.1529e-05	325.5	6.3861e-07	5.1038e-07	557.11	76.304	5.8517e-07	5.645e-07	164.28	52.608	18.645	6.9168	6.0006e-07	24.066	203.427	-6.283	3.256	-74.636	87.426	62.471	-74.266	-69.430	63.641	45.804	-69.922	-64.379	-64.234	-58.025	53.468	-59.668	-8191	255	
1901.824	1	1	0	0	0.11864	0.39284	0.14168	0.0786	0.0787	0.085554	0.10622	0.17794	0.27763	0.42053	0.035245	0.23873	0.12346	0.26839	0.11393	0.032462	-1.6938	-1.5833	-2.4792	-1.8563	-1.925	-2.425	-1.6417	-2.2229	-2.0646	-1.4333	-2.3583	-1.7083	-1.7167	-2.3937	-1.3146	-2.0292	-62.083	98.828	222.666	134.383	241.723	-65.586	175.973	97.564	-27.376	38.253	272.547	-0.389	111.276	-4.639	38.356	85.961	6.4607e-05	0.00028644	5.4407e-05	338.16	1.2252e-06	8.5769e-07	580.32	79.749	3.0116e-07	2.2937e-06	172.5	54.232	18.988	7.1159	1.7091e-06	24.849	8.1138e-05	5.6721e-05	1.1598e-05	323.9	6.2748e-07	5.1384e-07	556.68	76.608	5.7821e-07	5.6376e-07	165.09	52.927	18.882	6.978	6.138e-07	24.176	200.771	-2.269	-0.363	-74.392	86.119	77.537	-74.163	-69.043	74.424	59.944	-69.773	-64.611	-65.418	-58.036	83.863	-59.818	-8191	255	
1901.920	1	1	0	0	0.08728	0.11946	0.090535	0.17335	0.34198	0.16117	0.49242	0.16153	0.3154	0.026642	0.11435	0.29371	0.11956	0.15524	0.11804	0.17747	-1.8667	-1.5583	-2.0896	-2.0083	-1.6292	-2.3208	-1.4813	-2.0563	-2.2958	-1.3813	-2.3229	-1.8563	-1.4458	-2.2938	-1.4333	-2.0479	-64.493	-78.068	-64.736	125.155	121.644	129.877	168.331	90.678	-30.828	4.557	166.546	265.010	191.226	270.868	2.385	213.792	6.0859e-05	0.00012437	3.3276e-05	341.39	1.3261e-06	1.8888e-06	583.48	79.751	1.2574e-06	2.4207e-06	173.98	54.735	19.431	7.1915	1.7477e-06	24.93	8.2408e-05	5.7542e-05	1.3385e-05	325.96	6.6828e-07	5.4469e-07	559.38	77.318	5.8703e-07	6.1678e-07	166.81	53.281	19.036	6.9514	6.2707e-07	24.16	207.327	-5.148	15.840	-74.454	92.371	45.169	-73.885	-68.945	42.818	63.017	-69.769	-65.020	-63.589	-59.158	83.897	-59.362	-8191	255	
1902.016	1	1	0	0	0.33515	0.13851	0.22949	0.17885	0.21053	0.27291	0.022989	0.065374	0.23939	0.031429	0.124	0.14492	0.083264	0.10293	0.11864	0.21233	-2.0229	-1.5167	-2.0542	-2.1562	-1.45	-2.4125	-1.8771	-1.8312	-2.1854	-1.4188	-2.2417	-2.1792	-1.6104	-2.4104	-1.7604	-1.8771	-63.642	146.957	131.670	16.159	201.864	71.292	81.587	268.826	-79.354	-24.889	249.125	177.174	98.431	30.431	221.959	65.070	6.702e-05	0.00022027	5.9318e-05	344.13	1.9772e-06	8.1211e-07	586.74	80.552	1.0278e-06	2.7373e-06	174.01	53.911	19.227	7.0379	2.3222e-06	24.741	7.9232e-05	6.1466e-05	1.3982e-05	325.64	6.6944e-07	5.4074e-07	560.9	77.341	5.6082e-07	6.2978e-07	166.47	52.53	18.903	6.8781	6.1428e-07	23.917	211.447	11.462	17.156	-74.376	59.778	22.227	-74.185	-69.698	81.746	50.237	-69.970	-64.633	-65.466	-58.591	27.111	-59.702	-8191	255	
1902.112	1	1	0	0	0.056903	0.22055	0.24232	0.065222	0.08105	0.054782	0.068752	0.15275	0.36265	0.043538	0.024938	0.21677	0.11223	0.23618	0.20092	0.1916	-1.9438	-1.4312	-2.2208	-2.1521	-1.5812	-2.2979	-1.7625	-1.6812	-2.3229	-1.5292	-1.975	-2.25	-1.5729	-2.3208	-1.7542	-1.5771	-65.863	40.275	-44.833	-48.350	176.743	-87.412	220.805	206.358	90.509	115.128	144.440	143.991	215.744	129.647	67.152	251.244	4.8242e-05	0.00022648	4.0906e-05	342.23	1.062e-06	1.9547e-06	588.5	80.453	1.1324e-06	2.5449e-06	173.66	54.077	19.096	7.1089	1.1541e-06	24.771	7.6088e-05	5.8584e-05	1.3447e-05	325.11	6.5321e-07	5.2519e-07	562.01	77.475	6.0674e-07	6.1089e-07	166.57	52.623	18.851	6.9009	6.183e-07	23.903	194.639	-20.425	-11.870	-74.173	70.141	81.810	-74.209	-69.519	73.467	35.452	-70.146	-64.310	-64.991	-58.622	43.045	-59.802	-8191	255	
1902.233	1	1	0	0	0.28065	0.054649	0.10882	0.20347	0.14517	0.22032	0.2407	0.1123	0.34201	0.40216	0.16179	0.25272	0.16753	0.23368	0.22151	0.27647	-1.9583	-1.6354	-1.9542	-2.2542	-1.3521	-2.2313	-2.0271	-1.675	-2.4	-1.6104	-1.9125	-2.2833	-1.3604	-2.2396	-2.0521	-1.7354	229.868	259.446	-24.000	-42.176	120.080	131.488	191.407	122.684	-42.935	76.791	271.498	222.944	245.954	253.657	173.527	232.555	6.273e-05	0.0001857	5.8477e-05	340.61	7.5222e-07	1.8656e-07	589.19	81.337	1.1088e-06	1.6711e-06	175.46	53.74	19.267	7.1747	6.2933e-07	25.028	8.4592e-05	5.5302e-05	1.5041e-05	325.72	6.5252e-07	4.862e-07	562.36	77.783	5.8679e-07	5.9052e-07	168.09	52.715	18.892	6.9286	5.9153e-07	24.064	200.118	-1.143	9.888	-74.125	101.971	-61.910	-73.999	-69.441	72.728	66.717	-69.162	-64.408	-64.919	-57.768	31.847	-59.919	-8191	255	
1902.329	1	1	0	0	0.099528	0.080083	0.26219	0.19796	0.30996	0.061992	0.042749	0.30484	0.21108	0.25878	0.29862	0.068511	0.086443	0.27783	0.049806	0.14371	-1.9271	-1.6146	-1.8875	-2.4562	-1.3229	-2.1604	-2.1625	-1.475	-2.25	-1.6729	-1.9146	-2.5708	-1.4729	-1.9958	-2.1021	-1.5521	165.676	121.135	47.678	88.738	178.857	159.273	232.302	222.368	-83.351	171.544	119.269	248.815	-85.507	240.529	15.367	133.470	4.4594e-05	0.00015484	5.7256e-05	344.64	1.6366e-06	1.7069e-06	589.84	81.73	1.1289e-06	1.46e-06	176.7	54.347	19.478	7.1393	6.8175e-07	24.748	7.8442e-05	5.3794e-05	1.5333e-05	328.04	7.0166e-07	5.4271e-07	566.19	78.556	6.3736e-07	5.7333e-07	169.99	52.938	19.1	6.9074	5.3986e-07	24.049	213.342	6.050	7.118	-74.447	52.156	107.325	-74.703	-69.928	58.068	46.177	-70.112	-64.986	-65.146	-59.134	14.612	-60.130	-8191	255	
1902.425	1	1	0	0	0.20594	0.090105	0.12451	0.14076	0.16022	0.059249	0.12325	0.043029	0.029485	0.33779	0.06615	0.10758	0.076556	0.1688	0.44662	0.43278	-2.0812	-1.8312	-1.6063	-2.4167	-1.6604	-1.9646	-2.3333	-1.4208	-2.2812	-1.9396	-1.5396	-2.4313	-1.4854	-2.0646	-2.2229	-1.4188	37.147	-35.763	-85.131	-6.371	-81.323	-59.433	-48.555	154.470	44.043	-44.152	122.738	203.563	-65.496	195.326	-13.472	252.871	5.3701e-05	0.00016336	5.1732e-05	344.94	1.6275e-06	2.5551e-06	590.94	82.264	1.4317e-06	1.6536e-06	178.43	53.73	18.889	7.0148	1.5407e-06	24.398	8.1215e-05	5.4371e-05	1.5613e-05	329.27	6.4324e-07	5.4173e-07	566.52	79.468	6.5429e-07	6.131e-07	170.09	52.267	18.819	6.7922	5.4626e-07	23.648	216.478	-4.430	9.651	-75.361	51.611	60.644	-74.436	-70.331	74.354	56.244	-70.500	-64.876	-64.824	-59.675	69.930	-59.929	-8191	255	
1902.497	1	1	0	0	0.1101	0.26031	0.18932	0.11929	0.052127	0.080253	0.1813	0.18056	0.073358	0.13896	0.29315	0.049275	0.07638	0.21577	0.056371	0.090659	-1.925	-1.9583	-1.575	-2.4583	-1.5417	-1.8208	-2.45	-1.3896	-2.3104	-2.0167	-1.4667	-2.4	-1.6854	-1.6896	-2.2292	-1.5917	6.706	166.580	269.107	-77.705	117.353	-49.455	157.857	19.325	20.171	56.440	195.279	192.219	174.144	142.063	-25.653	215.773	7.0844e-05	0.00027997	3.076e-05	343.89	1.4644e-06	1.2416e-06	589.78	81.123	1.2401e-06	9.5104e-07	174.54	53.576	19.074	6.9131	1.9294e-06	24.183	7.6816e-05	5.4659e-05	1.707e-05	327.1	7.0143e-07	6.4119e-07	564.5	78.204	6.0651e-07	5.7923e-07	167.26	52.146	18.723	6.7278	5.0384e-07	23.55	210.934	23.161	7.805	-74.453	96.112	58.117	-74.622	-70.439	71.921	62.539	-69.765	-64.887	-63.813	-59.184	63.022	-59.702	-8191	255	
1902.616	1	1	0	0	0.19582	0.13811	0.17985	0.3234	0.15678	0.10811	0.22315	0.042972	0.12878	0.43211	0.27059	0.29193	0.13462	0.21282	0.14698	0.053801	-1.7083	-2.0312	-1.3354	-2.2417	-1.4604	-1.8396	-2.45	-1.5063	-2.3	-2.225	-1.3458	-2.375	-1.85	-1.5521	-2.2438	-1.7271	159.696	185.676	64.863	172.111	174.345	261.718	59.075	-22.309	-71.762	100.436	201.792	163.434	-23.054	125.368	183.431	111.911	4.6512e-05	0.0002197	6.447e-05	342.98	1.0736e-06	2.8907e-06	590.36	81.325	7.9973e-07	1.7553e-06	176.79	53.698	18.945	7.0149	2.0862e-06	24.168	7.6568e-05	5.0646e-05	1.7587e-05	327.28	6.4232e-07	5.8196e-07	565.49	78.379	5.7682e-07	5.7898e-07	168.58	52.099	18.636	6.7773	5.491e-07	23.423	199.135	0.436	14.214	-74.153	62.796	82.159	-74.354	-70.050	64.717	24.922	-70.205	-64.954	-64.423	-59.144	93.116	-59.865	-8191	255	
1902.712	1	1	0	0	0.24386	0.23939	0.132	0.27489	0.044334	0.286	0.10435	0.023808	0.22533	0.25091	0.012085	0.11648	0.07078	0.35396	0.34473	0.19214	-1.5042	-2.3417	-1.4417	-2.1542	-1.8937	-1.5875	-2.4667	-1.4354	-1.725	-2.2875	-1.4604	-2.3042	-1.8771	-1.4333	-2.3438	-1.5688	-86.956	159.204	-1.760	186.233	194.496	-38.373	198.684	127.981	148.460	237.632	-40.445	47.367	-23.023	177.783	176.138	214.927	6.9598e-05	8.5459e-05	6.9414e-05	342.73	1.1469e-06	1.5473e-06	588.98	81.059	4.8741e-07	1.4234e-06	172.89	53.287	18.823	7.0379	1.6937e-06	24.292	8.0905e-05	4.8162e-05	1.8097e-05	326.46	6.0268e-07	5.9849e-07	564.17	77.911	6.246e-07	5.2719e-07	166.95	51.873	18.661	6.7547	5.4508e-07	23.468	212.081	-18.956	7.249	-74.337	38.163	64.022	-74.303	-69.728	40.498	75.935	-70.295	-64.398	-64.915	-58.756	35.879	-59.639	-8191	255	
1902.808	1	1	0	0	0.064488	0.13172	0.10189	0.1797	0.076592	0.19808	0.11724	0.1155	0.16109	0.23663	0.13221	0.12164	0.0046936	0.22057	0.098859	0.25072	-1.5167	-2.2167	-1.25	-2.0979	-1.9854	-1.5146	-2.4021	-1.7792	-1.6708	-2.1771	-1.6292	-2.0583	-2.0187	-1.3708	-2.3396	-1.8188	232.087	199.704	1.871	207.913	258.687	219.615	250.911	56.022	241.608	199.722	268.696	-76.892	-49.179	196.145	201.763	105.197	5.5914e-05	0.00027583	7.6007e-05	337.96	1.5643e-06	1.7141e-06	581.63	79.434	1.1448e-06	1.3794e-06	172.33	53.122	18.167	6.8835	1.8074e-06	24.011	8.1169e-05	4.9138e-05	1.7599e-05	323.74	5.8112e-07	6.2243e-07	557.97	76.736	6.4199e-07	4.9823e-07	164.75	51.54	18.205	6.6724	4.7469e-07	23.196	211.448	28.535	-6.524	-74.296	59.651	78.185	-74.288	-69.790	57.060	50.934	-69.471	-63.977	-64.365	-59.308	37.559	-60.276	-8191	255	
1902.929	1	1	0	0	0.18689	0.07311	0.20064	0.21743	0.10863	0.12588	0.1828	0.037093	0.26208	0.17015	0.043735	0.23275	0.16255	0.11546	0.085466	0.060746	-1.2729	-2.3833	-1.4792	-2.1229	-2.1479	-1.4188	-2.45	-1.8375	-1.7875	-2.4896	-1.55	-2.0771	-2.1083	-1.35	-2.2875	-1.9292	37.934	203.907	138.077	171.353	136.577	124.938	247.618	156.385	47.058	221.658	50.564	-80.781	179.519	257.509	43.776	-65.160	6.9207e-05	0.00015959	2.4335e-05	338.79	1.8173e-06	1.9193e-06	579.75	79.76	9.2223e-07	2.1922e-06	171.38	53.065	18.477	6.7611	1.1361e-06	23.951	7.6847e-05	4.7608e-05	1.5445e-05	323.07	5.737e-07	5.595e-07	557.34	76.589	6.6101e-07	5.1811e-07	164.99	51.352	18.237	6.5853	5.4318e-07	23.172	217.487	10.860	46.280	-74.031	74.876	41.918	-73.703	-69.855	91.519	69.880	-69.901	-64.316	-65.084	-58.732	30.769	-59.370	-8191	255	
1903.025	1	1	0	0	0.097749	0.18262	0.10234	0.29933	0.18618	0.13589	0.095034	0.067507	0.29652	0.35097	0.18374	0.057639	0.1628	0.49413	0.16711	0.18895	-1.1229	-2.5542	-1.6542	-1.8792	-2.3604	-1.6	-2.2938	-2.0083	-1.3667	-2.4417	-1.8479	-1.8521	-2.4104	-1.5229	-2.0979	-2.1729	153.211	-45.015	151.394	243.908	-30.503	-87.334	-48.681	-79.808	-64.835	-81.204	207.246	15.769	161.281	230.294	84.405	-63.128	5.977e-05	0.00015661	3.6253e-05	341.58	1.5426e-06	2.2851e-06	590.31	80.556	7.1249e-07	1.4528e-06	174.46	53.167	18.667	6.8607	1.6935e-06	23.988	8.0208e-05	4.692e-05	1.4972e-05	325.48	6.3165e-07	6.5229e-07	562.49	77.668	6.0442e-07	5.483e-07	166.83	51.641	18.516	6.6527	5.6569e-07	23.325	210.568	29.267	-10.315	-73.778	52.855	47.533	-73.594	-69.805	94.113	89.900	-69.841	-64.410	-64.098	-58.781	71.607	-60.041	-8191	255	
1903.096	1	1	0	0	0.14397	0.13922	0.13679	0.078093	0.11849	0.1424	0.25701	0.22971	0.12292	0.078971	0.10496	0.13833	0.27219	0.17653	0.12952	0.024052	-1.0583	-2.3917	-1.6729	-1.9146	-2.1354	-1.4688	-2.3479	-2.1229	-1.6729	-2.1729	-1.8958	-1.6562	-2.2979	-1.6562	-2.1063	-2.3271	228.816	203.190	229.178	60.245	11.950	114.533	269.697	209.369	207.791	67.304	22.723	-48.898	244.632	140.760	-66.939	250.820	5.0271e-05	0.00022738	6.8152e-05	344.12	1.3886e-06	1.4904e-06	589	81.688	1.1152e-06	1.9542e-06	175.54	53.015	18.691	6.966	1.5592e-06	24.065	8.1138e-05	4.4082e-05	1.6715e-05	327.49	5.5261e-07	5.6937e-07	564.16	77.848	6.4315e-07	4.9578e-07	167.85	51.436	18.486	6.7054	6.0835e-07	23.383	202.158	10.967	-0.621	-74.008	64.685	64.895	-73.859	-69.526	65.600	60.898	-69.421	-64.196	-64.383	-58.655	65.982	-59.892	-8191	255	
1903.217	1	1	0	0	0.10602	0.081789	0.18359	0.09671	0.049436	0.060378	0.069751	0.226	0.12009	0.15525	0.025237	0.18258	0.11966	0.086504	0.15855	0.2445	-1.0438	-2.1875	-2.0125	-1.7125	-2.2833	-1.6313	-2.0708	-2.3667	-1.2979	-2.1458	-2.0167	-1.6604	-2.3521	-1.875	-1.9354	-2.3229	202.707	243.388	15.192	-52.347	53.091	104.349	-62.779	164.175	35.956	-12.265	-63.321	141.560	4.479	173.141	38.082	-43.110	6.4292e-05	0.00018894	5.853e-05	345.13	8.7442e-07	1.9635e-06	585.11	80.733	1.0209e-06	3.0304e-06	175.04	53.334	18.747	6.9435	1.4152e-06	24.094	8.7272e-05	4.6854e-05	1.3434e-05	327.61	5.5493e-07	5.6863e-07	562.57	78.079	6.9511e-07	5.7824e-07	167.93	51.688	18.55	6.6781	5.7896e-07	23.198	209.885	1.488	-5.040	-74.197	71.082	69.639	-73.710	-69.837	66.872	58.866	-70.011	-64.281	-64.731	-59.159	54.758	-59.541	-8191	255	
1903.313	1	1	0	0	0.13757	0.28877	0.03875	0.090422	0.16078	0.12566	0.043918	0.16147	0.14753	0.14724	0.1855	0.21729	0.22147	0.25106	0.10279	0.1031	-1.1917	-2.2271	-1.9625	-1.3229	-2.4604	-1.7687	-1.8687	-2.2625	-1.7313	-2.2146	-2.1146	-1.4583	-2.2646	-1.6146	-1.6875	-2.4146	179.105	140.266	66.112	8.999	246.755	129.652	12.059	255.015	241.513	112.826	-85.158	95.613	112.340	187.927	180.871	145.963	6.3264e-05	0.0001632	7.0109e-05	341.02	1.6112e-06	7.8026e-07	585.98	80.551	1.1491e-06	2.7367e-06	174.46	52.951	18.952	6.8865	1.2351e-06	24.034	8.3461e-05	5.2131e-05	1.5221e-05	325.79	6.1705e-07	5.7702e-07	563.12	77.55	6.7377e-07	5.8462e-07	167.58	51.49	18.448	6.6543	6.5006e-07	23.167	214.319	-3.428	12.206	-73.831	10.534	118.219	-73.960	-69.407	54.368	42.283	-70.121	-64.324	-64.121	-58.496	118.982	-59.577	-8191	255	
1903.409	1	1	0	0	0.24472	0.13443	0.24882	0.12324	0.21509	0.16618	0.16967	0.073084	0.038373	0.20396	0.18949	0.25684	0.0097956	0.16512	0.046146	0.14452	-1.125	-2.1437	-2.2917	-1.3542	-2.2917	-1.8062	-1.6396	-2.3125	-1.4	-2.0583	-2.1312	-1.2854	-2.1521	-1.7083	-1.6104	-2.5062	206.335	-12.837	157.154	-37.923	61.946	-61.664	155.710	192.229	90.135	157.596	112.789	190.615	37.780	-11.747	161.639	-47.348	5.8303e-05	0.00019283	4.4447e-05	339.79	1.9091e-06	2.6402e-06	590.34	80.339	4.454e-07	2.9882e-06	174.02	53.118	18.868	6.8292	1.6808e-06	23.943	8.4127e-05	4.8761e-05	1.3248e-05	325.07	5.8413e-07	6.0787e-07	563.5	77.829	6.5869e-07	5.6646e-07	167.47	51.642	18.474	6.6255	6.631e-07	23.216	199.094	0.401	18.437	-74.406	98.260	52.250	-73.760	-69.376	132.457	87.075	-70.232	-64.787	-64.267	-59.033	93.035	-59.374	-8191	255	
1903.528	1	1	0	0	0.12687	0.2592	0.21339	0.09847	0.23319	0.11177	0.27178	0.1585	0.23926	0.0065116	0.15027	0.093926	0.23923	0.30425	0.18875	0.18832	-1.3104	-1.8292	-2.25	-1.6979	-2.3438	-1.9354	-1.6604	-2.4896	-1.5812	-1.8958	-2.2958	-1.6021	-2.2729	-2.1813	-1.4583	-2.4417	-7.757	-71.418	4.685	268.623	-77.824	48.508	256.075	38.698	249.387	-81.220	-3.831	-57.548	-77.621	97.138	246.043	270.580	6.952e-05	0.00016309	6.3635e-05	343.93	9.8562e-07	2.3925e-06	595.25	82.402	5.8229e-07	8.4696e-07	177.32	53.365	19.144	6.9095	1.4309e-06	24.123	8.1448e-05	4.9914e-05	1.2868e-05	327.57	5.6999e-07	5.1483e-07	567.57	78.99	6.6101e-07	5.8291e-07	170	51.865	18.705	6.6578	6.1214e-07	23.302	223.707	19.689	-10.197	-73.911	99.245	61.404	-73.417	-68.997	29.606	64.961	-69.617	-64.154	-63.170	-58.187	74.045	-59.131	-8191	255	
1903.624	1	1	0	0	0.17594	0.13914	0.16267	0.054127	0.20606	0.14046	0.16034	0.096198	0.20303	0.19096	0.035708	0.07354	0.1621	0.16589	0.037155	0.094974	-1.2792	-1.6208	-2.2938	-1.5146	-2.1417	-2.2646	-1.5312	-2.1958	-1.775	-1.6625	-2.5479	-1.5312	-2.0417	-2.1104	-1.4062	-2.2792	88.910	260.984	-16.942	116.849	250.861	87.982	-80.863	-75.222	103.341	0.136	6.685	-72.343	60.174	-25.333	-47.613	208.366	5.7468e-05	0.00014178	3.8185e-05	347.04	1.1978e-06	1.0423e-06	592.51	82.675	5.221e-07	2.2591e-06	178.21	53.205	18.967	6.9454	1.5717e-06	24.13	7.7807e-05	6.0557e-05	1.3067e-05	329.53	6.2864e-07	5.1458e-07	568.71	79.649	6.3921e-07	6.0917e-07	170.37	51.901	18.574	6.6716	6.8371e-07	23.246	215.717	-7.018	17.930	-74.041	96.967	28.103	-73.982	-69.981	74.543	61.284	-70.249	-64.447	-64.402	-58.893	33.668	-59.613	-8191	255	
1903.720	1	1	0	0	0.38589	0.11231	0.17334	0.05724	0.10859	0.13719	0.23242	0.098943	0.14787	0.16492	0.021365	0.074017	0.14835	0.051936	0.30078	0.11628	-1.4083	-1.6042	-2.35	-1.5771	-1.9896	-2.2521	-1.6396	-2.4062	-1.7062	-1.5458	-2.3521	-1.55	-1.6646	-2.2771	-1.4312	-2.3438	188.655	222.778	250.260	79.300	-30.886	125.181	197.870	141.400	137.664	143.524	133.472	-80.444	241.303	79.790	77.659	247.962	6.2326e-05	0.00016469	6.7941e-05	343.66	6.8156e-07	2.2433e-06	591.48	82.124	1.4632e-06	1.7712e-06	178.94	53.091	18.772	6.8393	1.469e-06	24.018	7.9821e-05	5.8495e-05	1.4206e-05	328.08	6.4857e-07	5.0125e-07	567.66	79.164	6.2251e-07	6.05e-07	170.43	51.623	18.573	6.6495	6.631e-07	23.166	208.616	-15.647	9.429	-74.450	84.071	59.217	-74.093	-70.352	51.178	84.752	-70.802	-64.604	-64.586	-59.154	54.490	-59.593	-8191	255	
1903.792	1	1	0	0	0.13672	0.23035	0.24281	0.17998	0.18322	0.12514	0.1786	0.17524	0.12737	0.23146	0.23288	0.12524	0.1594	0.15051	0.18254	0.18081	-1.5229	-1.3958	-2.1833	-1.7917	-1.9	-2.3333	-1.6104	-2.1396	-2.0083	-1.4521	-2.3563	-1.5688	-1.6562	-2.2375	-1.5479	-2.2167	161.564	-87.125	150.775	150.813	35.455	142.613	256.882	-60.143	135.378	99.724	251.273	102.224	84.989	114.395	112.689	219.719	5.1636e-05	0.00024942	4.4715e-05	343.48	1.8134e-06	1.5876e-06	585.91	81.617	1.1042e-06	1.7677e-06	175.1	52.605	18.745	6.7949	1.5057e-06	23.971	8.3972e-05	6.4992e-05	1.26e-05	327.7	6.8659e-07	5.3358e-07	563.78	78.458	6.4478e-07	5.861e-07	168.11	51.291	18.311	6.5722	6.0456e-07	23.165	213.838	-7.334	44.448	-74.544	39.000	45.051	-74.218	-69.876	51.782	39.648	-69.852	-64.930	-64.687	-59.369	62.717	-59.509	-8191	255	
1903.913	1	1	0	0	0.19256	0.15026	0.1138	0.16339	0.048442	0.10162	0.20886	0.18001	0.27565	0.1272	0.017798	0.066491	0.18663	0.237	0.14376	0.17919	-1.75	-1.5646	-2.2271	-1.9375	-1.5812	-2.5625	-1.6104	-2.0208	-2.1667	-1.4604	-2.2646	-1.9417	-1.8354	-2.2938	-1.4208	-2.1833	-84.315	110.093	217.678	185.821	152.128	130.183	226.031	145.033	83.275	211.585	79.154	200.797	-58.511	50.102	-68.087	-81.202	6.2318e-05	0.00024532	4.3659e-05	338.58	1.8831e-06	1.7247e-06	586.54	79.204	4.4399e-07	1.8124e-06	171.29	52.402	18.764	6.8453	1.3646e-06	24.045	7.9651e-05	5.4659e-05	1.2009e-05	323.91	6.6109e-07	4.7435e-07	560.46	76.539	5.6894e-07	6.077e-07	164.94	51.143	18.282	6.5921	5.9792e-07	23.239	207.760	-1.736	21.692	-74.136	72.945	72.458	-74.244	-69.627	77.172	51.366	-70.039	-64.642	-64.640	-59.123	40.845	-60.270	-8191	255	
1904.009	1	1	0	0	0.24388	0.19237	0.15274	0.10484	0.17122	0.14536	0.23614	0.060376	0.18756	0.0094181	0.01402	0.23264	0.14081	0.29089	0.26657	0.25209	-1.6646	-1.2938	-2.25	-2.0125	-1.5292	-2.3312	-1.6729	-1.95	-2.3375	-1.5542	-2.3812	-1.7646	-1.6604	-2.4792	-1.5646	-1.7042	112.603	-13.606	12.285	108.385	40.264	83.224	259.084	-12.735	219.859	53.206	207.211	-16.421	200.602	-73.222	264.577	-59.569	5.8995e-05	0.00018177	7.6707e-05	335.88	1.1435e-06	1.5121e-06	577.39	77.624	1.2803e-06	2.4187e-06	169.11	52.208	18.254	6.9409	1.7892e-06	23.721	7.1239e-05	5.3528e-05	1.2781e-05	320.95	6.3606e-07	4.5707e-07	551.7	75.017	5.8517e-07	5.8291e-07	161.45	50.841	18.126	6.5953	5.9176e-07	23.06	207.038	19.215	11.125	-74.799	17.504	64.905	-74.512	-69.873	29.936	58.411	-70.482	-64.696	-64.640	-59.469	-1.470	-60.108	-8191	255	
1904.105	1	1	0	0	0.12613	0.34556	0.21605	0.075168	0.21557	0.22714	0.012975	0.045291	0.089642	0.16196	0.23676	0.1827	0.26368	0.1292	0.18598	0.22362	-1.8563	-1.5625	-2.1562	-2.0729	-1.6292	-2.3146	-1.7521	-1.8333	-2.3563	-1.4104	-1.9729	-2.0771	-1.4354	-2.3	-1.7708	-1.8	240.565	118.634	60.187	117.545	41.012	266.989	201.972	-5.544	-34.266	115.888	-81.219	178.185	180.516	171.151	185.826	216.969	5.8966e-05	0.00017335	3.9484e-05	337.49	1.1773e-06	7.1585e-07	572.83	78.27	1.2316e-06	1.2226e-06	170.58	52.92	18.631	6.814	7.6794e-07	24.19	7.5159e-05	5.6544e-05	1.2594e-05	321.39	6.1195e-07	4.9409e-07	551.2	75.18	5.9074e-07	6.1923e-07	163.31	51.312	18.183	6.6171	5.6617e-07	23.274	206.597	11.919	2.211	-74.747	59.853	63.584	-74.793	-69.875	88.537	44.281	-70.357	-64.657	-65.556	-59.278	79.542	-60.489	-8191	255	
1904.201	1	1	0	0	0.067135	0.28739	0.22635	0.11558	0.32764	0.1287	0.27626	0.098287	0.15052	0.28183	0.1702	0.086832	0.29072	0.20422	0.11112	0.1474	-2.0458	-1.5604	-2.0875	-2.0979	-1.4146	-2.1396	-1.8521	-1.5854	-2.4125	-1.6646	-2.1354	-2.2896	-1.3583	-2.2542	-1.9583	-1.7021	49.649	103.744	-81.764	230.037	94.461	258.098	202.481	-46.056	-9.188	235.047	199.724	234.995	239.650	11.317	101.290	126.134	5.6734e-05	0.00015655	3.9592e-05	337.84	8.5437e-07	1.596e-06	577.11	78.226	8.3475e-07	1.7964e-06	169.07	52.543	18.366	6.8477	8.1546e-07	24.168	7.8272e-05	5.4326e-05	1.4343e-05	322.05	6.2841e-07	5.2346e-07	553.79	75.382	5.353e-07	6.05e-07	162.63	51.218	18.156	6.656	4.8204e-07	23.338	209.286	-6.231	12.061	-75.342	76.624	72.547	-74.789	-69.829	69.662	77.876	-70.532	-64.446	-65.241	-58.854	32.462	-59.878	-8191	255	
1904.320	1	1	0	0	0.074033	0.21728	0.30765	0.078457	0.12167	0.17419	0.18463	0.21393	0.13918	0.088036	0.43043	0.19799	0.21382	0.18305	0.10379	0.20926	-1.9937	-1.6521	-1.9708	-2.4813	-1.4646	-2.2979	-1.9688	-1.575	-2.2854	-1.8062	-2.0146	-2.2438	-1.5438	-2.1083	-2.05	-1.5125	144.609	-18.595	205.268	-62.398	-47.825	142.977	262.767	47.356	128.171	150.268	-52.915	227.774	-55.722	225.069	-28.701	239.049	5.4186e-05	0.00019685	4.7661e-05	338.32	1.1478e-06	1.1148e-06	574	78.28	1.2921e-06	2.8043e-06	171.08	52.99	18.483	6.9352	1.5517e-06	24.11	7.742e-05	5.0623e-05	1.2345e-05	322.14	7.0212e-07	5.2791e-07	553.24	75.066	5.1397e-07	5.537e-07	163.13	51.576	18.25	6.6951	5.4863e-07	23.383	209.247	11.846	35.841	-74.881	101.534	76.098	-74.538	-70.297	80.558	55.030	-70.353	-64.731	-65.153	-59.650	53.223	-60.188	-8191	255	
1904.394	1	1	0	0	0.14931	0.18153	0.21969	0.080521	0.037836	0.076203	0.026425	0.11162	0.14555	0.1909	0.34101	0.078048	0.353	0.066211	0.14863	0.25214	-1.8771	-1.7333	-1.7042	-2.1875	-1.4875	-2.1104	-2.3375	-1.4521	-2.3833	-1.8792	-1.6208	-2.3104	-1.6542	-2.1104	-2.3625	-1.3458	266.329	176.389	-8.334	250.222	145.563	-83.180	191.685	76.197	-33.568	204.371	94.414	-40.640	59.817	139.695	98.232	-75.549	6.9136e-05	0.00020681	4.2213e-05	339.88	1.2807e-06	1.9631e-06	577.57	78.286	1.0802e-06	1.4947e-06	169.69	52.64	18.58	6.9346	2.1794e-06	23.862	7.694e-05	5.1067e-05	1.5146e-05	324.72	7.2831e-07	5.0446e-07	554.75	75.449	5.7427e-07	5.1001e-07	163.04	51.302	18.188	6.6491	4.9104e-07	23.181	215.250	-0.260	-8.075	-74.662	66.343	67.940	-74.678	-69.786	61.705	101.272	-70.335	-64.934	-65.068	-58.652	64.790	-60.619	-8191	255	
1904.490	1	1	0	0	0.16919	0.046595	0.31714	0.13059	0.11297	0.17247	0.12029	0.25445	0.21573	0.22375	0.25583	0.24946	0.21278	0.11304	0.21908	0.035739	-1.9646	-1.9354	-1.625	-2.4958	-1.6271	-2.0167	-2.3125	-1.5917	-2.1208	-1.8062	-1.5438	-2.3854	-1.6625	-1.8396	-2.1396	-1.7708	85.166	-0.118	16.869	250.181	144.151	266.716	-26.785	170.855	132.393	172.538	-6.140	233.150	18.113	-13.348	-22.858	60.102	6.8986e-05	0.00020478	6.1197e-05	336.42	1.0299e-06	1.7058e-06	577.35	77.229	1.4416e-06	1.6393e-06	169.47	52.585	18.263	6.7874	1.2742e-06	23.867	7.079e-05	5.0003e-05	1.4057e-05	322.02	6.0221e-07	5.247e-07	552.38	74.764	5.9004e-07	5.5812e-07	162.09	50.993	18.024	6.6086	5.2896e-07	23.03	214.243	-4.502	17.140	-74.999	71.168	89.482	-74.577	-70.188	82.819	56.317	-70.153	-64.842	-64.881	-59.631	69.820	-60.198	-8191	255	
1904.609	1	1	0	0	0.060317	0.060738	0.074822	0.22958	0.072673	0.30038	0.21596	0.20437	0.12061	0.13292	0.090628	0.26178	0.3224	0.14991	0.20616	0.211	-2.0417	-1.8542	-1.3937	-2.3458	-1.6833	-1.8625	-2.4688	-1.4896	-2.0646	-2.1146	-1.5562	-2.4271	-1.6604	-1.8604	-2.3979	-1.35	151.621	56.927	115.484	33.630	-64.522	235.133	254.211	-65.072	262.730	161.796	218.110	261.647	147.389	65.551	44.572	181.245	4.6547e-05	0.00021825	4.522e-05	339.43	1.2299e-06	1.852e-06	579.38	78.111	1.0707e-06	1.7109e-06	168.33	52.886	18.254	6.8572	2.3785e-06	23.951	7.852e-05	4.3328e-05	1.4038e-05	322.69	6.3189e-07	5.6493e-07	553.5	75.175	5.3299e-07	4.975e-07	161.69	51.312	18.091	6.6162	5.2517e-07	23.136	220.567	6.508	-30.673	-75.031	89.099	38.472	-74.745	-70.110	113.635	69.357	-70.123	-64.739	-65.250	-59.599	51.018	-60.621	-8191	255	
1904.705	1	1	0	0	0.22593	0.049131	0.073667	0.12055	0.25397	0.14575	0.11398	0.18399	0.22766	0.16458	0.15153	0.11422	0.054919	0.22692	0.27297	0.22254	-1.6875	-2.0375	-1.4688	-2.3896	-1.625	-1.5688	-2.5687	-1.4417	-1.9937	-2.2896	-1.5729	-2.4437	-2.0083	-1.6583	-2.2	-1.7146	46.079	95.613	111.958	-75.137	-63.576	12.349	158.777	232.753	-18.015	151.749	-31.490	-75.168	-29.505	74.592	112.317	194.052	6.5974e-05	9.4586e-05	4.2792e-05	335.57	2.7895e-07	2.1912e-06	578.24	77.636	1.3886e-06	1.8564e-06	167.72	52.626	18.607	6.7976	9.839e-07	23.951	8.0859e-05	4.4769e-05	1.5028e-05	321.38	5.4844e-07	5.9504e-07	553.7	74.724	6.2901e-07	4.6093e-07	161.78	51.052	18.007	6.5548	5.1664e-07	23.049	207.470	14.348	-3.729	-74.755	47.650	59.576	-74.630	-70.130	72.683	87.085	-70.275	-64.698	-64.807	-59.337	73.398	-60.095	-8191	255	
1904.801	1	1	0	0	0.17133	0.3303	0.22658	0.14954	0.11643	0.12674	0.059128	0.14795	0.38273	0.17189	0.18686	0.085611	0.14659	0.19071	0.30162	0.15229	-1.6021	-2.3688	-1.4979	-2.1146	-2.0563	-1.725	-2.5375	-1.6771	-1.8083	-2.2771	-1.6396	-2.2438	-2.1312	-1.4333	-2.4708	-1.5646	-22.648	136.503	-60.809	52.686	166.205	45.899	154.558	51.996	236.071	126.501	218.607	-33.931	171.875	7.033	-42.498	164.626	5.4903e-05	0.00018837	3.4421e-05	340.23	1.3659e-06	2.1007e-06	582.38	79.788	4.3948e-07	1.4544e-06	172.23	52.49	18.733	6.8762	1.6478e-06	24.028	7.694e-05	4.814e-05	1.4711e-05	324.41	6.1496e-07	6.1231e-07	558	76.485	5.8819e-07	4.111e-07	166.3	51.404	18.397	6.5879	5.5337e-07	23.167	204.996	10.361	-5.499	-74.651	40.954	69.817	-74.166	-69.715	48.026	89.508	-70.711	-64.498	-65.043	-59.614	70.614	-60.361	-8191	255	
1904.897	1	1	0	0	0.15948	0.38296	0.14422	0.08551	0.05763	0.22452	0.22728	0.046242	0.15747	0.037123	0.1077	0.04665	0.32565	0.18339	0.13317	0.27013	-1.3354	-2.4479	-1.575	-2.0958	-2.1375	-1.5375	-2.3688	-1.6854	-1.7833	-2.3667	-1.45	-2.1375	-2.0208	-1.5	-2.2292	-1.7625	262.916	-46.123	188.634	270.376	266.300	-9.313	175.918	-58.062	9.398	8.014	67.040	-30.795	52.824	86.595	253.977	154.751	6.3088e-05	0.0001777	4.9299e-05	340.37	1.7017e-06	1.3969e-06	583.85	80.107	9.648e-07	2.1678e-06	174.28	52.588	18.472	6.8377	1.562e-06	23.804	7.7916e-05	5.1599e-05	1.7786e-05	325.06	6.2285e-07	6.059e-07	562.12	77.778	6.6681e-07	5.1811e-07	167.26	51.161	18.24	6.5736	5.1806e-07	23.035	198.175	6.448	-26.125	-74.689	54.742	73.268	-74.849	-70.681	46.022	71.108	-70.214	-64.957	-65.166	-59.297	82.134	-59.887	-8191	255	
1904.993	1	1	0	0	0.068214	0.12165	0.19393	0.033763	0.0054773	0.045285	0.055074	0.047263	0.17424	0.088439	0.19064	0.17647	0.13557	0.22239	0.094199	0.1054	-1.1604	-2.4688	-1.4917	-2.0708	-2.1104	-1.45	-2.3708	-1.8	-1.5479	-2.3646	-1.4083	-1.8625	-2.0458	-1.4438	-1.9417	-2.1104	-19.140	-56.726	244.956	-45.505	-14.464	127.831	263.016	-60.531	238.437	243.727	116.765	88.511	168.663	-4.360	231.211	-69.166	6.3805e-05	0.00024522	5.1854e-05	337.99	1.4209e-06	1.8481e-06	581.98	79.946	6.7098e-07	2.1673e-06	173.45	52.63	18.395	6.8536	2.1913e-06	23.903	8.0022e-05	5.1222e-05	1.3727e-05	323.61	5.8158e-07	6.6957e-07	559.65	76.637	6.4176e-07	5.5566e-07	165.86	51.112	18.135	6.6005	5.183e-07	23.074	209.953	0.912	7.708	-74.736	47.715	81.623	-74.359	-70.393	102.290	51.056	-70.373	-65.052	-65.348	-58.673	91.218	-60.291	-8191	255	
1905.089	1	1	0	0	0.072572	0.21553	0.085021	0.19454	0.059178	0.2025	0.12768	0.049952	0.21389	0.22813	0.25818	0.2229	0.35716	0.34963	0.14941	0.1869	-0.875	-2.4958	-1.5208	-1.7042	-2.2083	-1.5333	-2.2021	-1.9792	-1.5417	-2.4104	-1.9	-1.7854	-2.2958	-1.4562	-2.0167	-2.0417	23.487	-51.224	269.616	84.009	-60.089	169.261	-82.426	-7.628	-22.617	131.854	-51.946	-86.312	235.817	111.701	155.071	209.260	5.5144e-05	0.00020887	4.8713e-05	339.36	9.9204e-07	1.8438e-06	587.58	80.206	1.379e-06	2.5477e-06	173.69	52.885	18.649	6.8315	1.1326e-06	23.96	8.1246e-05	4.5124e-05	1.4717e-05	325.11	5.489e-07	5.7751e-07	560.82	77.061	6.6658e-07	5.2916e-07	166.49	51.432	18.293	6.6192	5.7138e-07	23.162	215.385	16.775	50.034	-74.162	54.971	59.278	-74.247	-70.010	60.995	71.764	-70.430	-64.993	-65.377	-59.760	27.588	-59.813	-8191	255	
1905.210	1	1	0	0	0.15632	0.087875	0.091592	0.18929	0.15561	0.11337	0.2253	0.1363	0.02572	0.19634	0.12136	0.10709	0.31709	0.10688	0.052857	0.058216	-0.92917	-2.225	-1.825	-1.8396	-2.3146	-1.3625	-2.0792	-2.0729	-1.5396	-2.5042	-1.95	-1.8208	-2.3771	-1.6063	-2.0729	-2.3187	182.529	-63.122	34.588	19.307	24.755	228.691	263.579	268.376	263.061	29.227	44.142	245.349	-8.303	69.705	87.723	-34.155	6.3139e-05	0.00011979	6.115e-05	341.04	1.8743e-06	1.6533e-06	586.06	79.891	1.1192e-06	1.1603e-06	172.86	53.083	18.686	6.768	1.5442e-06	23.721	8.343e-05	4.8783e-05	1.5178e-05	324.94	5.8784e-07	5.9948e-07	562.69	77.144	6.8861e-07	5.1934e-07	166.67	51.38	18.338	6.5671	5.4413e-07	23.002	202.932	8.238	-7.782	-74.633	72.001	30.869	-74.481	-70.297	41.552	66.069	-70.110	-64.928	-65.119	-58.993	27.148	-60.287	-8191	255	
1905.306	1	1	0	0	0.23191	0.21268	0.079285	0.27684	0.1919	0.098655	0.18615	0.14794	0.096791	0.074406	0.13483	0.14899	0.023451	0.22211	0.44265	0.10827	-1.0354	-2.1854	-1.9646	-1.6688	-2.3417	-1.6688	-1.7812	-2.2104	-1.6125	-2.2729	-2.0375	-1.525	-2.575	-1.7062	-1.9229	-2.4021	37.280	46.682	89.466	214.023	-24.016	259.810	-4.987	209.167	172.073	35.995	139.792	9.180	65.766	67.161	141.700	156.016	5.4287e-05	0.00018098	6.3118e-05	338.35	1.7376e-06	2.1629e-06	584.52	80.274	1.7184e-06	1.8174e-06	174.14	52.425	18.415	6.6521	1.0925e-06	23.418	8.4112e-05	4.7297e-05	1.4804e-05	323.3	5.6582e-07	5.9232e-07	562.05	77.539	6.8142e-07	5.375e-07	166.46	50.889	17.983	6.5029	5.2304e-07	22.659	206.281	21.778	-7.345	-74.558	84.753	56.019	-74.499	-70.630	55.899	78.714	-70.835	-64.900	-64.632	-59.907	93.340	-60.490	-8191	255	
1905.400	1	1	0	0	0.058437	0.12569	0.25453	0.17719	0.15694	0.096563	0.17563	0.10504	0.048077	0.096788	0.29648	0.13962	0.122	0.033403	0.12395	0.05529	-1.0521	-2.4208	-2.1188	-1.7583	-2.4	-1.7917	-1.7979	-2.2896	-1.5938	-2.2083	-2.2625	-1.4417	-2.4125	-1.825	-1.8417	-2.5854	91.990	257.601	35.509	164.454	-19.431	22.482	234.234	194.682	234.161	136.913	-4.482	-62.505	27.804	248.084	227.418	144.577	6.2875e-05	0.00015258	4.6597e-05	338.3	9.3302e-07	1.9895e-06	585.84	79.82	9.3889e-07	1.1089e-06	173.45	51.985	18.372	6.682	1.174e-06	23.472	7.8582e-05	5.2309e-05	1.2669e-05	324.43	5.6188e-07	5.5752e-07	559.67	76.901	7.1204e-07	5.3456e-07	166.18	50.447	18.065	6.4645	5.5882e-07	22.727	210.281	-17.757	27.470	-74.859	54.446	55.408	-74.709	-69.887	66.528	52.210	-70.245	-64.763	-64.481	-59.590	27.164	-59.727	-8191	255	
1905.497	1	1	0	0	0.068089	0.22955	0.13797	0.17752	0.08362	0.08726	0.32814	0.13877	0.27837	0.32835	0.087458	0.097057	0.032988	0.060988	0.33067	0.24152	-1.1104	-2.1458	-2.2771	-1.6229	-2.2333	-1.8417	-1.8604	-2.5187	-1.6333	-2.0271	-2.2396	-1.5333	-2.3542	-2.1167	-1.7437	-2.4417	84.073	-66.283	137.806	97.739	55.926	160.517	-70.305	91.586	91.918	201.429	169.475	16.675	200.926	-15.250	125.192	7.385	5.7766e-05	0.00012753	4.8545e-05	342.31	9.3669e-07	2.4428e-06	590.37	80.622	6.6203e-07	2.2769e-06	176.68	52.894	18.574	6.7925	1.7832e-06	23.741	7.9279e-05	5.0978e-05	1.4399e-05	324.93	5.9016e-07	5.9973e-07	563.5	78.033	6.1973e-07	5.1541e-07	168.9	51.267	18.214	6.5364	6.1688e-07	22.877	211.955	-20.695	12.353	-74.539	53.421	71.072	-74.325	-70.159	71.601	81.658	-71.148	-64.430	-64.267	-58.628	71.958	-60.223	-8191	255	
1905.617	1	1	0	0	0.25598	0.056715	0.44187	0.12749	0.15673	0.34247	0.27608	0.06738	0.10273	0.046582	0.15141	0.031091	0.035362	0.087308	0.12744	0.17847	-1.2583	-1.9771	-2.1521	-1.4562	-2.2542	-2.0729	-1.7062	-2.5292	-1.5479	-1.8208	-2.5062	-1.5771	-2.1542	-2.1167	-1.4542	-2.3625	12.094	67.272	-24.478	-57.111	258.499	118.158	232.744	-85.900	126.021	207.593	259.117	-71.474	138.569	210.785	-38.792	56.279	5.386e-05	0.00015301	5.2095e-05	341.46	1.273e-06	1.7204e-06	587.9	81.089	1.4893e-06	1.9536e-06	173.9	52.179	18.483	6.7435	1.5041e-06	23.189	8.0053e-05	5.5679e-05	1.2905e-05	326.35	6.101e-07	5.8837e-07	563.25	78.078	6.5893e-07	5.5542e-07	167.09	50.717	18.144	6.5001	7.0362e-07	22.663	205.865	10.214	-8.596	-74.638	70.030	51.935	-74.188	-69.956	50.247	51.695	-69.971	-64.697	-64.180	-59.281	69.779	-59.845	-8191	255	
1905.689	1	1	0	0	0.15874	0.19321	0.33781	0.16858	0.059315	0.050071	0.16348	0.23863	0.14807	0.048913	0.051847	0.35266	0.12469	0.12267	0.12939	0.077039	-1.4604	-1.8542	-2.4583	-1.5229	-2.075	-2.2667	-1.6187	-2.3958	-1.9458	-1.6021	-2.5833	-1.4708	-2.0125	-2.2917	-1.5562	-2.3604	250.773	105.580	72.207	243.784	-43.379	63.291	164.975	-73.215	264.410	144.546	-85.667	-21.532	5.717	19.741	-16.199	-61.151	4.8896e-05	0.00022231	3.3124e-05	339.43	2.0205e-06	7.19e-07	582.83	79.708	6.0984e-07	1.823e-06	172.87	52.094	18.577	6.5601	1.1056e-06	23.068	7.8752e-05	5.4171e-05	1.1766e-05	321.92	5.8529e-07	4.5411e-07	557.69	76.519	5.9793e-07	6.0647e-07	165.42	50.243	18.032	6.3783	5.8726e-07	22.412	199.389	5.409	38.386	-74.184	67.918	80.450	-74.338	-70.130	103.697	40.163	-70.427	-65.015	-65.348	-59.172	60.125	-60.009	-8191	255	
1905.785	1	1	0	0	0.16648	0.11762	0.19714	0.10659	0.33966	0.32132	0.1613	0.21656	0.18333	0.24377	0.19033	0.1783	0.10749	0.10549	0.039007	0.11566	-1.625	-1.6812	-2.3771	-1.5333	-2.0167	-2.1833	-1.625	-2.4083	-1.9937	-1.7437	-2.3937	-1.8312	-1.9562	-2.4562	-1.4854	-2.2167	70.714	73.985	107.333	-80.670	-20.749	84.678	100.245	195.014	241.378	212.083	-57.201	170.402	88.204	-19.661	-40.277	144.253	5.3546e-05	0.00026967	6.8561e-05	336.76	8.1989e-07	1.8397e-06	585.63	79.407	1.126e-06	1.6906e-06	172.05	52.038	18.263	6.6789	9.2981e-07	23.652	7.68e-05	5.1222e-05	1.3198e-05	321.37	5.5632e-07	5.3951e-07	559.59	76.561	6.3225e-07	6.104e-07	165.16	50.552	18.005	6.4975	5.5408e-07	22.814	214.506	-2.510	20.448	-74.588	62.210	89.944	-74.246	-69.763	95.068	78.622	-70.560	-64.692	-64.189	-58.681	88.103	-60.773	-8191	255	
1905.881	1	1	0	0	0.20943	0.21927	0.030769	0.083285	0.27792	0.15089	0.0975	0.08708	0.13954	0.19852	0.19072	0.16163	0.20123	0.083187	0.14773	0.19953	-1.5646	-1.7146	-2.4	-1.875	-1.7958	-2.3958	-1.6042	-2.0625	-1.9542	-1.475	-2.4333	-1.8833	-1.7979	-2.3458	-1.6271	-2.1208	-64.892	160.703	-51.418	125.016	-68.601	70.319	19.354	-2.859	25.587	156.991	0.616	-68.574	-31.184	251.295	38.305	199.206	4.5726e-05	0.00011276	6.6807e-05	338.84	1.3026e-06	2.5125e-06	584.91	80.134	1.0061e-06	1.4559e-06	173.1	52.376	18.715	6.7162	2.0248e-06	23.594	7.6398e-05	5.4038e-05	1.3129e-05	322.27	5.9943e-07	4.9385e-07	560.41	76.88	6.2042e-07	5.753e-07	165.42	50.759	18.142	6.5143	6.8561e-07	22.91	209.064	-7.988	18.767	-74.416	109.032	64.822	-74.718	-70.081	79.679	79.456	-70.588	-65.125	-65.330	-60.443	38.724	-60.118	-8191	255	
1905.977	1	1	0	0	0.0064106	0.06129	0.35775	0.21365	0.026826	0.12589	0.07873	0.11623	0.1594	0.31657	0.30116	0.18961	0.11784	0.20553	0.2419	0.16744	-1.7458	-1.4375	-2.3604	-1.6417	-1.7229	-2.4083	-1.65	-2.1104	-2.2458	-1.5875	-2.3083	-1.7875	-1.7667	-2.425	-1.5104	-2.1063	257.740	101.041	165.579	250.312	254.478	188.494	83.946	78.321	5.658	239.728	226.118	179.209	57.699	180.981	-46.743	75.885	5.5059e-05	0.00013836	4.8208e-05	336.03	8.9713e-07	2.4668e-06	585.02	80.489	6.4334e-07	1.5339e-06	172.91	51.871	18.241	6.6231	1.7326e-06	23.317	7.7002e-05	5.5457e-05	1.3945e-05	322.93	6.3351e-07	4.1537e-07	560.91	77.235	5.6082e-07	5.7628e-07	165.72	50.598	17.972	6.4333	6.1878e-07	22.62	209.806	12.717	-42.142	-74.231	57.121	87.910	-74.290	-70.038	69.614	95.274	-70.473	-64.610	-64.056	-58.882	74.865	-60.111	-8191	255	
1906.098	1	1	0	0	0.1191	0.024794	0.13363	0.26702	0.13758	0.33251	0.22551	0.35737	0.11048	0.14033	0.1519	0.091674	0.35199	0.18978	0.098421	0.057359	-1.9042	-1.5083	-2.4104	-2.2125	-1.6625	-2.5417	-1.8271	-1.7563	-2.4854	-1.5812	-2.1521	-2.1167	-1.5625	-2.4062	-1.5604	-1.8542	-45.112	212.313	107.019	259.198	182.082	52.035	211.989	129.036	10.835	147.953	-62.506	232.057	-30.041	0.557	254.046	-39.598	5.6866e-05	0.00020475	4.5188e-05	340.17	1.6654e-06	1.9891e-06	581.98	79.374	1.1242e-06	2.4648e-06	171.86	51.576	17.817	6.5434	1.7107e-06	23.115	8.0689e-05	5.5413e-05	1.3895e-05	322.55	7.0421e-07	4.973e-07	557.79	76.526	5.3762e-07	5.8242e-07	164.38	50.157	17.729	6.3889	4.8251e-07	22.422	199.475	-22.663	14.946	-74.608	50.917	100.267	-74.556	-69.982	79.269	69.836	-70.454	-64.709	-65.005	-59.431	101.936	-59.968	-8191	255	
1906.194	1	1	0	0	0.067435	0.13641	0.31147	0.14374	0.083207	0.23892	0.08782	0.27867	0.16087	0.14257	0.25969	0.25379	0.42016	0.24143	0.18058	0.18345	-1.9417	-1.5812	-2.1083	-2.1333	-1.5187	-2.5271	-1.9604	-1.6479	-2.3417	-1.6333	-2.1208	-2.3187	-1.5833	-2.3854	-1.8229	-1.5792	85.293	32.193	91.688	-32.879	-67.343	180.783	-32.876	205.741	-37.980	42.676	177.025	224.950	123.245	184.443	104.270	181.588	6.1007e-05	0.00022706	4.1101e-05	334.52	6.9641e-07	1.829e-06	575.18	79.185	7.901e-07	7.0961e-07	168.69	51.586	17.927	6.6437	6.2853e-07	23.512	7.7002e-05	5.7497e-05	1.4929e-05	320.67	6.5298e-07	4.936e-07	553.95	75.547	5.3554e-07	5.2155e-07	162.59	50.154	17.716	6.3929	5.5858e-07	22.607	212.921	-2.082	16.290	-74.341	87.139	70.102	-74.124	-69.688	98.348	59.469	-69.967	-64.934	-64.452	-58.972	45.608	-59.829	-8191	255	
1906.290	1	1	0	0	0.14242	0.16278	0.042338	0.20425	0.073641	0.20863	0.15427	0.13499	0.23876	0.16512	0.033161	0.18186	0.18354	0.0817	0.20364	0.2209	-2.15	-1.5146	-1.9667	-2.2687	-1.4021	-2.35	-1.8208	-1.6875	-2.3208	-1.5833	-1.925	-2.1854	-1.4521	-2.1667	-1.9	-1.65	241.504	172.884	165.670	229.322	-59.490	-28.683	244.998	138.947	-71.754	-34.056	88.907	69.052	-31.401	-46.483	23.123	-42.256	5.5939e-05	0.00016667	2.6665e-05	333.95	1.1545e-06	1.3447e-06	577.6	78.5	1.8502e-06	1.8845e-06	169.56	51.658	18.074	6.6911	7.0383e-07	23.684	7.1131e-05	5.712e-05	1.3322e-05	319.72	6.6457e-07	4.7435e-07	553.66	74.998	6.5568e-07	5.7456e-07	162.71	50.465	17.908	6.4404	5.1593e-07	22.808	222.240	26.072	-10.889	-74.320	88.531	54.975	-74.089	-69.864	66.092	47.506	-69.914	-64.946	-64.193	-59.604	96.484	-60.482	-8191	255	
1906.386	1	1	0	0	0.080413	0.23469	0.13668	0.06818	0.10738	0.15813	0.25257	0.10847	0.23081	0.13415	0.12999	0.18151	0.22857	0.30116	0.24119	0.26711	-2.0792	-1.4438	-1.8125	-2.4229	-1.4937	-1.9562	-2.2396	-1.4958	-2.2708	-1.5812	-1.9021	-2.3521	-1.4875	-2.1833	-2.0479	-1.3396	118.226	-9.883	111.935	253.609	100.733	241.041	199.014	178.169	134.376	-4.198	168.861	265.910	191.078	-55.920	47.351	161.230	4.8432e-05	0.00025265	2.9165e-05	335.35	6.6399e-07	1.4292e-06	577.41	78.049	1.4944e-06	1.2808e-06	168.86	51.847	18.228	6.6727	1.3016e-06	23.43	7.1549e-05	5.6766e-05	1.3839e-05	320.66	6.3119e-07	4.9829e-07	554.55	75.253	5.7265e-07	5.3554e-07	163.18	50.564	17.822	6.4634	5.2185e-07	22.725	203.626	-7.614	-22.289	-74.319	88.344	66.404	-74.369	-69.295	31.708	92.993	-69.953	-64.783	-64.008	-58.691	79.319	-59.817	-8191	255	
1906.483	1	1	0	0	0.16234	0.14229	0.1578	0.29177	0.046586	0.13445	0.060551	0.083502	0.16587	0.081388	0.16484	0.1641	0.22902	0.23707	0.041012	0.22524	-2.0354	-1.9062	-1.4604	-2.4979	-1.4396	-2.1625	-2.2687	-1.4792	-2.3958	-1.9333	-1.6354	-2.425	-1.5271	-2.0333	-2.2062	-1.4979	-48.534	246.697	101.855	228.654	231.366	-55.374	70.796	191.316	220.432	-51.707	-83.222	79.839	116.165	-55.088	143.279	193.545	6.2635e-05	8.5464e-05	4.179e-05	337.39	9.9383e-07	1.4762e-06	580.58	78.11	1.2448e-06	2.4711e-06	170.01	51.519	17.86	6.7232	9.0574e-07	23.727	7.4384e-05	5.2774e-05	1.5414e-05	322	6.0546e-07	5.3161e-07	556.61	75.594	6.2066e-07	5.5247e-07	163.82	50.344	17.828	6.5185	5.1237e-07	22.792	205.744	18.956	11.092	-74.167	6.315	78.204	-74.814	-70.104	73.086	59.663	-70.266	-65.321	-65.246	-59.013	86.924	-60.137	-8191	255	
1906.579	1	1	0	0	0.17042	0.25034	0.14196	0.2083	0.32401	0.30649	0.25879	0.13229	0.086473	0.19563	0.052398	0.14134	0.1152	0.15983	0.25879	0.26009	-1.95	-1.7542	-1.5229	-2.2062	-1.4813	-2.1	-2.4917	-1.3646	-2.1792	-2	-1.6958	-2.2979	-1.6792	-1.9375	-2.3646	-1.5417	-23.046	2.605	-21.903	165.394	9.331	89.614	-23.868	150.566	31.424	248.958	120.900	97.862	181.606	137.498	26.656	210.946	6.1912e-05	0.00019095	4.3373e-05	335.09	1.0685e-06	1.7108e-06	579.02	78.207	1.1309e-06	1.4677e-06	168.35	52.228	18.152	6.7571	2.1929e-06	23.683	7.6909e-05	5.1289e-05	1.5103e-05	320.71	6.0662e-07	4.9212e-07	554.49	75.393	5.302e-07	4.6338e-07	162.93	50.708	18.004	6.5209	4.7185e-07	22.989	211.513	0.938	21.238	-73.869	91.622	61.335	-74.373	-70.420	54.703	34.755	-70.253	-64.157	-64.593	-59.440	41.897	-60.071	-8191	255	
1906.698	1	1	0	0	0.18714	0.11828	0.20578	0.12701	0.20759	0.11906	0.15116	0.23354	0.22088	0.10079	0.14938	0.17035	0.1383	0.36559	0.2441	0.22144	-1.8479	-2.1063	-1.4583	-2.4292	-1.7062	-1.8292	-2.2167	-1.625	-2.1625	-1.9792	-1.4542	-2.4896	-1.7854	-1.6292	-2.3458	-1.6125	173.868	255.229	32.440	93.911	252.801	249.088	228.617	141.220	121.517	110.452	247.541	209.249	-63.040	220.589	6.298	187.074	6.3375e-05	0.00013848	2.2725e-05	338.03	8.5672e-07	1.4524e-06	575.97	78.447	5.4195e-07	1.7138e-06	169.25	52.33	18.176	6.7808	1.2551e-06	24.202	8.2346e-05	5.1976e-05	1.2899e-05	322.01	6.0569e-07	6.2441e-07	554.24	75.411	5.3948e-07	5.4339e-07	163.45	51.095	18.072	6.5661	4.7896e-07	23.206	204.488	-8.830	35.758	-74.035	73.058	55.866	-74.379	-70.194	71.001	72.318	-70.335	-64.368	-65.467	-59.308	71.322	-60.130	-8191	255	
1906.794	1	1	0	0	0.098851	0.033928	0.048474	0.019973	0.41961	0.077884	0.25212	0.20801	0.11735	0.11107	0.19435	0.24489	0.098403	0.1652	0.11581	0.10533	-1.5771	-2.2146	-1.4479	-2.325	-1.9292	-1.6271	-2.5542	-1.5729	-1.8312	-2.2979	-1.5917	-2.3521	-1.9396	-1.6771	-2.3208	-1.7687	155.789	201.642	153.003	81.713	4.053	66.651	237.815	-41.417	233.062	-3.542	-45.788	-46.432	106.861	165.098	96.835	197.760	5.7494e-05	0.0001641	4.931e-05	339.65	1.2e-06	1.3422e-06	581.47	78.74	9.7604e-07	1.7234e-06	171.91	53.184	18.401	6.7365	2.5562e-06	23.924	7.8195e-05	4.3905e-05	1.4941e-05	323.23	6.0986e-07	5.5999e-07	559.01	75.513	6.0025e-07	4.5307e-07	164.32	51.476	18.087	6.5777	5.1948e-07	23.072	213.970	4.996	-3.411	-74.494	24.052	57.273	-74.229	-69.705	64.140	57.833	-69.500	-64.804	-64.583	-59.606	80.068	-60.461	-8191	255	
1906.890	1	1	0	0	0.1865	0.37308	0.10963	0.16051	0.22838	0.19514	0.22164	0.3017	0.20508	0.068693	0.098507	0.041421	0.20621	0.19107	0.14609	0.091131	-1.4438	-2.2771	-1.3604	-2.1604	-2.1854	-1.6708	-2.3438	-1.7812	-1.9292	-2.3937	-1.4167	-2.0875	-2.1229	-1.4062	-2.2229	-1.8563	-29.080	145.033	103.299	30.639	53.861	179.029	257.909	179.387	69.040	135.660	220.844	156.886	240.774	267.351	208.177	67.664	5.7631e-05	0.00015326	6.78e-05	339	1.1031e-06	1.9424e-06	579.38	78.074	1.0174e-06	2.6235e-06	167.52	51.907	18.402	6.6208	8.9098e-07	23.685	7.522e-05	4.3838e-05	1.5794e-05	322.65	5.6188e-07	6.4612e-07	555.12	75.118	6.1439e-07	4.7737e-07	161.72	50.837	17.973	6.4582	4.4886e-07	22.855	204.507	-34.634	5.979	-74.842	73.105	63.326	-74.692	-70.574	63.240	77.818	-70.252	-64.873	-64.797	-59.400	90.148	-60.610	-8191	255	
1906.986	1	1	0	0	0.31335	0.02847	0.18703	0.18992	0.10299	0.19434	0.15115	0.13129	0.16862	0.22023	0.085225	0.26607	0.12921	0.073408	0.077145	0.28239	-1.3792	-2.2292	-1.4125	-2.0479	-2.0229	-1.4708	-2.4583	-1.8479	-1.5125	-2.2438	-1.525	-2.0771	-2.2271	-1.4667	-2.3354	-2.1271	-35.308	65.444	99.828	188.433	244.188	-36.521	181.106	-23.361	-12.028	-51.228	268.942	269.105	83.987	-64.605	204.806	168.258	5.7429e-05	0.00011493	7.1163e-05	338.27	1.6973e-06	2.36e-06	577.85	78.372	1.2279e-06	1.9807e-06	168.78	51.858	17.942	6.7212	1.563e-06	23.727	7.8055e-05	4.4792e-05	1.4717e-05	322.33	5.7069e-07	5.6221e-07	554.46	74.853	5.8958e-07	4.5798e-07	162.53	50.679	17.797	6.4787	5.2872e-07	22.805	218.946	3.270	12.258	-75.005	81.249	74.729	-74.683	-70.606	68.786	58.130	-70.483	-64.680	-64.701	-59.918	60.983	-60.409	-8191	255	
1907.082	1	1	0	0	0.20158	0.079373	0.1001	0.21844	0.056838	0.23598	0.30262	0.23871	0.22981	0.10846	0.26457	0.06528	0.16535	0.080686	0.11658	0.17098	-1.2062	-2.3771	-1.7729	-2.1875	-2.2979	-1.5458	-2.4083	-1.9146	-1.375	-2.4875	-1.6167	-1.9292	-2.4083	-1.7313	-2.2396	-2.0438	-80.993	245.924	68.302	233.767	53.815	155.402	-13.748	-35.043	26.718	54.409	34.609	101.317	56.153	49.025	96.936	264.766	6.159e-05	0.00019008	2.738e-05	338.79	1.186e-06	1.8486e-06	578.45	78.277	5.7271e-07	1.7006e-06	170.51	52.26	18.396	6.7688	1.1418e-06	23.717	8.0379e-05	4.2086e-05	1.5588e-05	321.74	5.8135e-07	6.1058e-07	554.59	74.951	6.58e-07	4.3884e-07	162.96	50.901	17.983	6.4986	5.2683e-07	22.868	215.208	7.139	-39.762	-74.637	99.104	62.076	-74.669	-70.163	48.141	50.622	-69.884	-64.751	-64.628	-59.653	78.199	-60.215	-8191	255	
1907.178	1	1	0	0	0.20339	0.27704	0.21909	0.22487	0.1666	0.05311	0.14037	0.13785	0.12591	0.32345	0.083285	0.11625	0.052386	0.32951	0.092534	0.15967	-1.2062	-2.35	-1.6708	-1.8	-2.3396	-1.525	-2.0667	-2.2833	-1.5375	-2.525	-1.8792	-1.8708	-2.2917	-1.6	-2.0417	-2.1375	188.923	164.640	266.371	44.738	165.770	164.223	116.723	176.417	209.910	-70.066	207.738	150.949	244.887	-80.634	222.479	269.053	6.3792e-05	0.00029587	3.7141e-05	337.43	7.5593e-07	1.5739e-06	578.2	77.342	9.668e-07	1.9218e-06	169.17	52.431	18.324	6.7218	1.6199e-06	23.961	7.9589e-05	4.7275e-05	1.4057e-05	322.36	5.5122e-07	5.5555e-07	554.78	74.766	6.348e-07	4.7811e-07	162.33	51.016	18.037	6.5034	5.2304e-07	23.01	204.210	-17.972	22.015	-74.854	53.929	89.553	-74.674	-70.305	48.562	60.941	-69.858	-64.925	-64.659	-59.842	34.886	-60.669	-8191	255	
1907.275	1	1	0	0	0.13954	0.10087	0.40113	0.23371	0.086343	0.32622	0.31138	0.080816	0.12974	0.3809	0.098311	0.18179	0.23132	0.068643	0.12536	0.099048	-1.2687	-2.5271	-1.7833	-1.7542	-2.4021	-1.6167	-2.1063	-2.0583	-1.2646	-2.1958	-1.9146	-1.5479	-2.2292	-1.5312	-2.0667	-2.2458	159.348	-17.352	42.067	-42.417	46.111	-18.241	232.587	90.133	-36.482	257.991	167.589	80.700	156.485	69.854	98.950	-77.585	6.0077e-05	0.0001347	4.1138e-05	337.2	7.6e-07	1.2733e-06	577.06	77.544	1.0356e-06	2.4849e-06	169.73	51.907	18.294	6.6499	6.858e-07	23.414	7.821e-05	4.4082e-05	1.3758e-05	321.28	5.5771e-07	5.5752e-07	554.57	74.522	6.5614e-07	4.8032e-07	162.62	50.534	17.936	6.4427	5.0265e-07	22.67	200.825	-8.032	32.854	-74.786	47.963	47.965	-74.244	-70.064	41.156	57.695	-70.523	-64.823	-65.489	-59.111	104.041	-59.927	-8191	255	
1907.393	1	1	0	0	0.20885	0.075557	0.14274	0.1573	0.17724	0.11787	0.16096	0.36776	0.074688	0.24539	0.1039	0.34594	0.18167	0.32171	0.17071	0.16623	-0.96875	-2.15	-1.9625	-1.5375	-2.325	-1.6688	-1.8854	-2.2896	-1.4104	-2.3271	-2.3229	-1.5083	-2.4604	-1.6354	-1.7	-2.4333	-28.179	-1.860	58.967	267.513	-82.489	214.804	231.863	247.260	-73.469	203.684	-51.432	210.088	-22.542	118.680	179.534	-5.819	6.4119e-05	0.00016529	6.1209e-05	339.55	1.4679e-06	1.1949e-06	579.6	78.003	1.0885e-06	1.8743e-06	169.85	52.185	17.967	6.685	9.5944e-07	23.657	8.4251e-05	4.2862e-05	1.5165e-05	321.21	5.0764e-07	5.5579e-07	554.43	74.818	6.2785e-07	4.6559e-07	162.69	50.696	17.788	6.4536	5.6072e-07	22.839	209.195	-4.272	19.316	-74.447	110.542	79.958	-74.234	-70.318	97.234	72.068	-70.757	-64.282	-64.501	-59.312	64.536	-60.132	-8191	255	
1907.490	1	1	0	0	0.11191	0.12553	0.23427	0.23073	0.1244	0.15164	0.17065	0.13025	0.17531	0.13277	0.27688	0.251	0.05978	0.19787	0.14242	0.17679	-1.0417	-1.9667	-2.2104	-1.5292	-2.2583	-1.7771	-1.85	-2.525	-1.6292	-2.125	-2.3729	-1.3979	-2.2188	-1.8896	-1.7229	-2.4688	258.988	-1.004	-81.837	190.370	87.869	199.199	195.934	203.221	261.186	-15.687	232.040	269.359	215.537	254.835	-14.095	130.102	6.4967e-05	0.00017489	4.9741e-05	337.91	1.8901e-06	1.6048e-06	580.92	77.966	6.5043e-07	1.4565e-06	169.38	53.057	18.405	6.7496	5.2047e-07	23.812	8.1355e-05	4.5612e-05	1.3708e-05	321.53	5.2758e-07	4.8101e-07	555.72	74.992	5.8563e-07	5.5198e-07	162.44	51.221	18.052	6.52	6.1072e-07	22.926	202.405	6.147	9.249	-74.750	72.085	69.175	-74.627	-70.522	50.311	64.476	-70.558	-64.841	-64.666	-59.621	68.001	-59.866	-8191	255	
1907.563	1	1	0	0	0.31142	0.1492	0.19504	0.17091	0.20928	0.24495	0.15507	0.25013	0.16706	0.17123	0.23875	0.054038	0.12666	0.17487	0.29327	0.026438	-1.1417	-1.95	-2.3417	-1.5729	-2.2729	-1.7125	-1.6187	-2.4708	-1.6208	-1.95	-2.2708	-1.4042	-2.1667	-2.1583	-1.4042	-2.3958	72.868	-17.966	110.956	130.245	185.479	18.525	181.706	258.992	14.763	-85.496	215.231	78.036	185.019	76.396	-56.402	-83.063	6.6873e-05	0.00017343	2.9053e-05	339.92	2.0798e-06	1.573e-06	583.17	77.877	9.0064e-07	2.2082e-06	172.1	52.774	18.492	6.7564	1.785e-06	23.845	8.0208e-05	5.1045e-05	1.2806e-05	322.41	6.3698e-07	5.3951e-07	558.96	75.306	6.6032e-07	5.4486e-07	163.31	51.087	18.106	6.5193	5.4934e-07	22.983	211.622	-1.323	55.822	-75.023	65.583	58.607	-74.580	-70.314	69.278	65.068	-70.420	-64.556	-64.265	-59.361	74.985	-60.373	-8191	255	
1907.659	1	1	0	0	0.10852	0.15953	0.1879	0.17057	0.45292	0.17428	0.21385	0.1675	0.12287	0.15809	0.27081	0.10129	0.22457	0.30478	0.13082	0.11358	-1.3	-1.7583	-2.3563	-1.5187	-2.2042	-2.1833	-1.6125	-2.1625	-1.9	-1.6771	-2.3417	-1.5729	-2.2021	-1.9479	-1.4062	-2.5042	152.743	264.594	263.108	208.881	249.949	200.437	175.824	128.861	176.100	246.550	229.642	241.107	26.961	23.408	-70.309	159.470	5.7664e-05	0.00016326	4.1844e-05	337.73	1.1939e-06	2.0006e-06	576.3	78.368	7.8713e-07	1.9601e-06	169.06	52.383	18.316	6.6713	1.3311e-06	23.568	7.5747e-05	4.9271e-05	1.0919e-05	322.99	5.584e-07	5.3358e-07	553.48	75.198	5.7033e-07	5.4462e-07	162.21	50.761	17.829	6.4617	5.491e-07	22.806	204.649	-15.961	3.199	-74.685	66.007	77.463	-74.452	-70.236	115.723	61.493	-69.844	-64.919	-64.814	-60.473	50.185	-60.497	-8191	255	
1907.778	1	1	0	0	0.26538	0.22032	0.11442	0.1349	0.13098	0.10507	0.24917	0.19284	0.21775	0.099765	0.10418	0.16893	0.35439	0.028342	0.24128	0.13326	-1.6854	-1.3979	-2.3729	-1.6333	-2.0042	-2.2333	-1.5792	-2.4458	-1.8229	-1.5042	-2.3812	-1.6479	-2.0854	-2.1271	-1.3438	-2.2792	17.119	194.421	117.419	197.789	262.106	248.526	-27.301	184.195	13.645	-25.922	62.454	231.971	-76.349	224.117	17.391	235.482	6.0455e-05	0.00018269	4.5372e-05	335.15	1.085e-06	2.0293e-06	576.47	77.038	7.6828e-07	2.474e-06	168.8	52.246	18.294	6.6296	1.0884e-06	23.463	7.8768e-05	5.2286e-05	1.2918e-05	319.51	5.8761e-07	4.8595e-07	553.35	74.286	5.3762e-07	5.6646e-07	161.9	50.736	18.014	6.4498	5.5455e-07	22.76	216.873	-4.715	10.998	-75.110	62.217	68.909	-74.330	-70.211	78.480	77.848	-70.369	-64.683	-63.917	-59.605	45.919	-60.636	-8191	255	
1907.874	1	1	0	0	0.16252	0.2104	0.31555	0.29968	0.1497	0.18014	0.059772	0.061606	0.17634	0.18659	0.084217	0.097005	0.1373	0.12614	0.30325	0.18894	-1.4979	-1.5708	-2.2396	-1.5646	-1.775	-2.3187	-1.5833	-2.2875	-2.0271	-1.6187	-2.4104	-1.6958	-1.8917	-2.3646	-1.4625	-2.1312	113.782	140.015	205.995	228.609	110.634	99.903	225.428	169.018	2.002	30.736	-27.709	234.458	140.338	214.641	-52.707	226.880	5.1272e-05	0.0001468	5.2625e-05	338.85	1.3623e-06	1.9604e-06	577.72	77.341	3.5734e-07	8.1932e-07	168.29	52.467	18.1	6.7508	1.6103e-06	23.584	7.7064e-05	5.0313e-05	1.2887e-05	320.77	5.6744e-07	4.2474e-07	553.91	74.519	6.1555e-07	5.8487e-07	161.7	50.785	17.96	6.4906	5.8631e-07	22.83	212.249	-37.631	18.393	-74.598	53.150	34.742	-74.341	-69.843	79.543	59.727	-70.841	-64.673	-64.548	-59.976	70.197	-59.912	-8191	255	
1907.970	1	1	0	0	0.3435	0.37356	0.2105	0.40011	0.21701	0.12046	0.3051	0.33429	0.29858	0.23954	0.20518	0.23215	0.27891	0.052828	0.06865	0.096313	-1.5667	-1.5354	-2.2062	-1.7812	-1.6354	-2.4667	-1.75	-2.0729	-2.1604	-1.6437	-2.3292	-1.9375	-1.6083	-2.55	-1.6479	-1.9667	-3.331	143.132	250.672	182.890	-84.412	79.396	156.313	221.914	259.976	-10.262	154.448	257.562	32.554	221.263	-34.937	239.146	5.8029e-05	0.00018105	3.4932e-05	333.35	1.1359e-06	1.7507e-06	577.52	77.433	1.1129e-06	2.7957e-06	170.14	52.633	18.286	6.7506	1.5796e-06	23.775	7.3842e-05	5.8584e-05	1.077e-05	319.9	6.2771e-07	4.7608e-07	554.64	74.741	5.142e-07	5.2621e-07	162.51	51.1	17.906	6.5152	5.8844e-07	22.937	205.967	8.282	-2.413	-74.381	77.513	80.392	-74.461	-69.546	78.026	65.797	-70.267	-64.812	-65.627	-59.275	36.614	-60.096	-8191	255	
1908.091	1	1	0	0	0.091188	0.1869	0.15	0.11928	0.11261	0.24502	0.043087	0.13465	0.1698	0.2595	0.12261	0.17052	0.26527	0.21143	0.083502	0.29143	-1.8937	-1.5521	-2.2062	-2.0104	-1.6875	-2.5083	-1.6792	-2.0729	-2.2604	-1.5104	-2.4208	-2.0958	-1.4667	-2.3542	-1.6875	-1.9625	168.532	-87.148	80.770	157.860	265.671	204.802	180.284	-82.565	221.884	17.268	163.686	37.349	-85.491	225.067	132.425	-84.100	7.1089e-05	0.00013621	3.8514e-05	338.69	1.0634e-06	1.3861e-06	579.98	77.718	9.3355e-07	1.2657e-06	169.14	52.481	18.206	6.6998	1.967e-06	23.692	6.9876e-05	5.6012e-05	1.2102e-05	321.8	6.3791e-07	5.052e-07	553.86	74.732	5.3971e-07	5.7063e-07	162.05	50.829	17.982	6.4727	5.8892e-07	22.745	215.213	-23.897	-0.912	-74.888	84.746	69.354	-74.455	-69.472	37.856	28.009	-70.076	-64.722	-65.866	-59.201	64.315	-60.002	-8191	255	
1908.163	1	1	0	0	0.06883	0.22752	0.15555	0.036037	0.3061	0.12986	0.21753	0.17572	0.16264	0.14253	0.096273	0.2168	0.18679	0.1079	0.059863	0.13842	-2.075	-1.6604	-2.2562	-2.1396	-1.5604	-2.2604	-1.7625	-1.9083	-2.3229	-1.5667	-2.2333	-2.2271	-1.5333	-2.5354	-1.7708	-1.8813	163.302	217.999	68.241	78.004	268.874	-41.042	122.884	90.128	93.420	-52.468	251.411	-83.106	-41.905	-35.798	-71.422	265.590	5.7053e-05	0.00026957	4.7228e-05	336.55	1.667e-06	2.5269e-06	576.95	77.661	1.5718e-06	2.065e-06	168.93	52.354	18.488	6.6166	1.2132e-06	23.401	7.1023e-05	5.6854e-05	1.3067e-05	320.44	6.1798e-07	4.63e-07	552.85	74.448	5.5386e-07	5.6303e-07	161.66	50.476	18.006	6.4158	5.4318e-07	22.576	215.430	-15.578	10.030	-74.785	68.180	37.459	-74.337	-69.588	73.427	66.176	-69.945	-64.756	-64.399	-59.032	71.871	-60.674	-8191	255	
1908.259	1	1	0	0	0.10092	0.16076	0.36939	0.049051	0.12024	0.15378	0.22143	0.025026	0.089359	0.056343	0.2432	0.076922	0.15779	0.10989	0.11713	0.1112	-1.9875	-1.4	-2.1958	-2.1813	-1.6792	-2.3958	-2.0396	-1.7729	-2.4813	-1.7229	-2.15	-2.2917	-1.4167	-2.3146	-1.9271	-1.5187	-72.351	-26.811	161.206	186.167	-7.849	-10.247	143.893	182.804	-31.009	228.884	-13.798	10.527	81.649	121.796	-23.628	208.050	5.8451e-05	0.00017092	3.6845e-05	335.58	8.259e-07	1.293e-06	574.01	77.74	1.1043e-06	1.9103e-06	169.81	52.344	18.244	6.6958	7.7324e-07	23.49	6.9938e-05	5.2065e-05	1.2077e-05	320.59	6.6271e-07	4.5066e-07	549.83	74.631	5.0446e-07	6.0377e-07	161.48	50.565	17.822	6.4555	5.3797e-07	22.798	214.714	14.722	4.024	-74.447	49.974	59.441	-74.566	-69.538	45.969	53.385	-69.874	-64.721	-64.020	-59.647	74.210	-59.777	-8191	255	
1908.379	1	1	0	0	0.22286	0.25089	0.096496	0.18179	0.012882	0.18321	0.072133	0.096444	0.1621	0.28126	0.058725	0.10586	0.21799	0.19872	0.12946	0.19585	-2.1562	-1.7208	-1.9604	-2.4521	-1.5604	-2.2646	-2.2	-1.6396	-2.4479	-1.85	-1.9375	-2.4	-1.4646	-2.0583	-2.1083	-1.7521	-71.819	163.150	65.855	252.818	-85.306	113.831	212.058	196.751	108.157	191.914	149.347	243.955	264.091	203.318	240.826	265.743	5.6423e-05	0.00021017	2.6349e-05	336.3	1.3157e-06	1.6726e-06	576.6	77.336	9.2546e-07	1.3293e-06	169.56	51.788	18.411	6.6806	1.6002e-06	23.515	7.1983e-05	4.967e-05	1.3715e-05	320.92	6.5576e-07	4.5757e-07	552	74.554	5.2301e-07	5.5493e-07	162.1	50.668	18.042	6.4651	5.2635e-07	22.868	227.979	-13.545	38.330	-74.637	50.841	38.288	-74.401	-69.885	88.560	55.475	-70.308	-65.131	-64.866	-59.850	41.486	-60.632	-8191	255	
1908.476	1	1	0	0	0.24869	0.10848	0.22048	0.084227	0.24133	0.2259	0.1735	0.11136	0.14296	0.20441	0.25779	0.1646	0.038967	0.14844	0.245	0.20036	-2.0062	-1.5667	-1.7687	-2.3583	-1.5312	-2.2125	-2.275	-1.5292	-2.3375	-1.8625	-1.8375	-2.4167	-1.5708	-2.1542	-2.1937	-1.5021	-58.507	128.105	-53.533	140.533	244.815	57.000	9.134	86.642	-38.292	0.808	57.891	170.855	-3.359	125.591	236.321	-33.839	5.5054e-05	0.00011602	4.9245e-05	337.8	1.0038e-06	2.4185e-06	576.42	76.755	3.7315e-07	1.8341e-06	167.44	52.069	17.975	6.5845	1.3262e-06	23.187	6.8079e-05	4.5945e-05	1.341e-05	320.74	6.1728e-07	5.1236e-07	551.5	74.176	5.52e-07	4.7909e-07	161.18	50.437	17.892	6.3807	4.8322e-07	22.529	202.830	32.296	15.363	-74.719	80.470	56.960	-74.958	-70.361	99.586	53.134	-70.439	-65.215	-65.118	-60.402	47.883	-60.648	-8191	255	
1908.572	1	1	0	0	0.22931	0.10444	0.33699	0.0069944	0.4314	0.18305	0.13855	0.24172	0.42847	0.10499	0.091507	0.093368	0.13188	0.038571	0.31317	0.093312	-1.9979	-1.9104	-1.4917	-2.4938	-1.4833	-1.8896	-2.4417	-1.4479	-2.2833	-1.8625	-1.6562	-2.3375	-1.7104	-1.8792	-2.4521	-1.5208	218.376	105.102	15.567	128.453	102.678	221.837	208.586	239.763	119.594	47.608	217.869	-56.706	30.146	183.262	96.066	197.569	6.0259e-05	0.00022873	4.6999e-05	336.37	1.2421e-06	2.1792e-06	572.71	76.74	1.2886e-06	2.3434e-06	168.61	51.252	18.123	6.6318	1.8432e-06	23.174	6.8916e-05	4.7563e-05	1.3459e-05	320.55	6.1798e-07	4.9977e-07	549.63	74.095	5.6522e-07	4.732e-07	160.5	50.159	17.793	6.3679	5.0905e-07	22.431	210.203	9.234	19.094	-74.923	100.271	74.915	-74.818	-70.210	48.506	73.345	-70.383	-65.075	-65.852	-59.582	91.069	-60.808	-8191	255	
1908.691	1	1	0	0	0.15609	0.13622	0.19891	0.21246	0.3038	0.13681	0.11258	0.1494	0.23039	0.23159	0.35077	0.3287	0.12338	0.2036	0.072988	0.10661	-1.8083	-2.0021	-1.5479	-2.5583	-1.6146	-1.9396	-2.4896	-1.4062	-2.2354	-2.0979	-1.5583	-2.35	-1.725	-1.7521	-2.3042	-1.65	-55.456	2.442	-20.270	267.532	163.101	115.513	96.785	139.249	-86.832	40.828	-87.577	211.610	147.154	207.119	68.243	-44.088	4.8922e-05	0.00017987	4.5985e-05	334.9	9.0314e-07	1.57e-06	573.66	76.858	1.1222e-06	9.1564e-07	167.24	51.893	18.006	6.5701	1.4579e-06	23.085	7.5995e-05	4.4016e-05	1.5016e-05	318.88	5.9781e-07	5.4494e-07	549.56	73.936	5.4922e-07	4.759e-07	160.61	50.373	17.682	6.3495	4.7919e-07	22.434	212.401	-6.787	33.249	-75.032	24.996	54.902	-74.996	-70.443	45.920	1.148	-70.675	-65.125	-65.136	-59.737	110.104	-60.759	-8191	255	
1908.787	1	1	0	0	0.088706	0.18784	0.13125	0.077085	0.23984	0.21579	0.35191	0.23845	0.15674	0.18912	0.11519	0.24456	0.12242	0.21061	0.14984	0.19901	-1.7542	-2.125	-1.3604	-2.2646	-1.7083	-1.7896	-2.5667	-1.5771	-1.8458	-2.2167	-1.5208	-2.3292	-1.8958	-1.6479	-2.4313	-1.6208	149.162	-80.894	164.661	85.061	55.665	79.087	187.486	233.411	88.113	-53.922	194.724	148.055	42.201	199.781	202.598	223.326	6.038e-05	0.0001185	5.016e-05	338.96	6.8807e-07	2.2254e-06	575.15	77.482	1.496e-06	2.2783e-06	167.09	51.952	18.178	6.5761	7.4158e-07	23.394	7.347e-05	4.7475e-05	1.3559e-05	321.57	6.0569e-07	5.9652e-07	552.17	74.598	6.1208e-07	4.3147e-07	161.31	50.488	17.882	6.3892	4.7398e-07	22.615	216.902	-15.568	42.514	-75.011	59.392	69.580	-74.449	-70.246	79.705	62.923	-70.311	-64.888	-64.458	-59.703	81.055	-60.636	-8191	255	
1908.858	1	1	0	0	0.10959	0.094516	0.34428	0.14536	0.15447	0.13536	0.08907	0.1071	0.17021	0.065484	0.23377	0.1845	0.22616	0.18225	0.17648	0.23173	-1.5292	-2.1167	-1.3229	-2.15	-1.9833	-1.3354	-2.4938	-1.4438	-1.8104	-2.3771	-1.4104	-2.3187	-2.0708	-1.575	-2.2833	-1.7708	55.743	220.870	-83.116	109.308	56.553	21.497	166.328	262.879	237.840	136.863	-80.101	-87.265	162.027	40.059	-30.579	83.548	6.1444e-05	0.00017235	4.6415e-05	342.34	9.068e-07	2.0674e-06	578.79	78.293	8.9383e-07	2.4438e-06	169.64	51.919	17.965	6.6594	1.718e-06	23.367	7.2727e-05	4.335e-05	1.5862e-05	323.5	5.9062e-07	5.9898e-07	555.11	75.127	5.4876e-07	5.0093e-07	162.61	50.584	17.689	6.4656	4.8535e-07	22.593	204.121	-11.582	4.439	-75.017	59.415	52.210	-74.915	-70.493	47.673	66.776	-69.916	-65.471	-64.706	-59.761	58.808	-60.256	-8191	255	
1908.979	1	1	0	0	0.32893	0.43133	0.10164	0.12084	0.16944	0.17633	0.16858	0.12379	0.02818	0.23798	0.26509	0.18674	0.12996	0.090543	0.071698	0.038946	-1.3896	-2.2354	-1.4062	-2.1708	-1.8958	-1.5083	-2.4437	-1.6021	-1.6187	-2.2458	-1.4229	-2.2854	-2.2083	-1.4083	-2.1396	-1.7271	219.980	13.083	67.680	270.191	91.713	-6.238	271.658	-68.485	171.856	60.388	95.195	251.748	129.462	-13.846	-63.416	216.586	4.1354e-05	0.00016519	6.1266e-05	338.82	1.8023e-06	6.725e-07	577.33	77.718	4.7215e-07	1.3877e-06	167.77	52.081	18.118	6.6779	2.4955e-06	23.141	8.0007e-05	3.8361e-05	1.5476e-05	321.78	5.2989e-07	5.326e-07	553.52	75.23	5.8053e-07	5.2253e-07	162.05	50.497	17.92	6.4199	5.0787e-07	22.482	216.168	-6.273	-19.132	-74.616	85.264	6.132	-74.726	-70.254	91.652	67.747	-70.612	-65.218	-65.602	-59.886	57.620	-60.580	-8191	255	
1909.075	1	1	0	0	0.13759	0.15192	0.20227	0.13208	0.26609	0.1842	0.18674	0.19528	0.25291	0.029271	0.18122	0.24831	0.30497	0.25807	0.17478	0.031764	-1.2042	-2.4396	-1.4167	-2.1	-2.2229	-1.2854	-2.2854	-1.775	-1.6208	-2.3833	-1.5854	-1.9542	-2.2562	-1.6583	-2.2583	-1.8229	238.044	-66.201	103.456	160.899	244.879	-39.661	251.858	252.066	2.583	-31.716	-5.495	50.081	-72.252	-36.939	-36.271	40.725	6.5038e-05	0.00015621	4.871e-05	337.57	6.3393e-07	1.7285e-06	581.35	78.227	6.3958e-07	2.1563e-06	170.23	51.754	18.371	6.7954	4.0064e-07	23.496	7.5794e-05	4.5834e-05	1.4524e-05	322.01	5.7231e-07	6.1305e-07	557.18	75.334	5.9514e-07	4.7663e-07	163.16	50.492	18.032	6.4862	4.6165e-07	22.69	210.542	-0.301	-30.384	-74.675	40.868	87.386	-74.359	-70.021	115.713	74.793	-70.593	-65.000	-65.287	-59.186	-12.950	-60.001	-8191	255	
#DATA ENDS
