BOXY.EXE: ISS Imagent and Oximeter Data Acquisition Program Version 0.80
Ascii Record File

#ACQ INFORMATION
2  Detector Channels 
16  External MUX Channels 
1  Auxiliary Channels 
5000  Waveform (CCF) Frequency (Hz)
1  Waveforms Skipped 
30  Waveforms Averaged 
1  Cycles Averaged 
16  Acquisitions per Waveform 
10.0806  Updata Rate (Hz) 

#FILE INFORMATION
TRUE -- External MUX Channel results are PARSED.
FALSE -- AC DC and Phase are NOT grouped.
TRUE -- Companion Program Settings File CREATED.
FALSE -- AC data not excluded
FALSE -- DC data not excluded
FALSE -- Phase data not excluded
FALSE -- Auxillary Chn. data not excluded
Tab delimiters

#CALIBRATION STATE
TRUE -- Waveform Calibration Values APPLIED.


#AUX CALIBRATION VALUES
Val Type	aux-1	

Term	1.0000e+00	
Factor	0.0000e+00	


#WF CALIBRATION VALUES
A = Detector Channel
Val Type	A-AC1	A-AC2	A-AC3	A-AC4	A-AC5	A-AC6	A-AC7	A-AC8	A-AC9	A-AC10	A-AC11	A-AC12	A-AC13	A-AC14	A-AC15	A-AC16	A-DC1	A-DC2	A-DC3	A-DC4	A-DC5	A-DC6	A-DC7	A-DC8	A-DC9	A-DC10	A-DC11	A-DC12	A-DC13	A-DC14	A-DC15	A-DC16	A-Ph1	A-Ph2	A-Ph3	A-Ph4	A-Ph5	A-Ph6	A-Ph7	A-Ph8	A-Ph9	A-Ph10	A-Ph11	A-Ph12	A-Ph13	A-Ph14	A-Ph15	A-Ph16	

Term	0.00000e+00	0.00000e+00	0.00000e+00	0.00000e+00	0.00000e+00	0.00000e+00	0.00000e+00	0.00000e+00	0.00000e+00	0.00000e+00	0.00000e+00	0.00000e+00	0.00000e+00	0.00000e+00	0.00000e+00	0.00000e+00	0.00000e+00	0.00000e+00	0.00000e+00	0.00000e+00	0.00000e+00	0.00000e+00	0.00000e+00	0.00000e+00	0.00000e+00	0.00000e+00	0.00000e+00	0.00000e+00	0.00000e+00	0.00000e+00	0.00000e+00	0.00000e+00	0.00000e+00	0.00000e+00	0.00000e+00	0.00000e+00	0.00000e+00	0.00000e+00	0.00000e+00	0.00000e+00	0.00000e+00	0.00000e+00	0.00000e+00	0.00000e+00	0.00000e+00	0.00000e+00	0.00000e+00	0.00000e+00	
Factor	1.00000e+00	1.00000e+00	1.00000e+00	1.00000e+00	1.00000e+00	1.00000e+00	1.00000e+00	1.00000e+00	1.00000e+00	1.00000e+00	1.00000e+00	1.00000e+00	1.00000e+00	1.00000e+00	1.00000e+00	1.00000e+00	1.00000e+00	1.00000e+00	1.00000e+00	1.00000e+00	1.00000e+00	1.00000e+00	1.00000e+00	1.00000e+00	1.00000e+00	1.00000e+00	1.00000e+00	1.00000e+00	1.00000e+00	1.00000e+00	1.00000e+00	1.00000e+00	X	X	X	X	X	X	X	X	X	X	X	X	X	X	X	X	

B = Detector Channel
Val Type	B-AC1	B-AC2	B-AC3	B-AC4	B-AC5	B-AC6	B-AC7	B-AC8	B-AC9	B-AC10	B-AC11	B-AC12	B-AC13	B-AC14	B-AC15	B-AC16	B-DC1	B-DC2	B-DC3	B-DC4	B-DC5	B-DC6	B-DC7	B-DC8	B-DC9	B-DC10	B-DC11	B-DC12	B-DC13	B-DC14	B-DC15	B-DC16	B-Ph1	B-Ph2	B-Ph3	B-Ph4	B-Ph5	B-Ph6	B-Ph7	B-Ph8	B-Ph9	B-Ph10	B-Ph11	B-Ph12	B-Ph13	B-Ph14	B-Ph15	B-Ph16	

Term	0.00000e+00	0.00000e+00	0.00000e+00	0.00000e+00	0.00000e+00	0.00000e+00	0.00000e+00	0.00000e+00	0.00000e+00	0.00000e+00	0.00000e+00	0.00000e+00	0.00000e+00	0.00000e+00	0.00000e+00	0.00000e+00	0.00000e+00	0.00000e+00	0.00000e+00	0.00000e+00	0.00000e+00	0.00000e+00	0.00000e+00	0.00000e+00	0.00000e+00	0.00000e+00	0.00000e+00	0.00000e+00	0.00000e+00	0.00000e+00	0.00000e+00	0.00000e+00	-5.89530e+01	-1.44325e+02	-1.41559e+02	-1.84369e+02	-4.86945e+01	-5.85597e+01	-1.57614e+02	-1.62015e+02	-4.53572e+01	-6.62197e+01	-1.71602e+02	-1.75721e+02	-1.84363e+02	-1.78174e+02	-3.82637e+01	-1.51058e+02	
Factor	1.74409e-05	1.37167e-04	4.48531e-05	1.56697e-01	1.36677e-06	1.62039e-06	1.61842e-01	5.41531e-02	1.20590e-06	1.56273e-06	1.95242e-01	3.23254e-02	2.24676e-02	8.29018e-03	1.30207e-06	1.20306e-02	2.34633e-06	2.56913e-06	7.14760e-07	8.26814e-02	2.78632e-08	2.81195e-08	8.00935e-02	2.86359e-02	2.76972e-08	2.79876e-08	9.66539e-02	1.63464e-02	1.19456e-02	4.40738e-03	2.77585e-08	6.14047e-03	X	X	X	X	X	X	X	X	X	X	X	X	X	X	X	X	



#DISTANCE SETTINGS
A = Detector Channel
A-1	A-2	A-3	A-4	A-5	A-6	A-7	A-8	A-9	A-10	A-11	A-12	A-13	A-14	A-15	A-16	

2.5000e+00	3.0000e+00	2.5000e+00	3.0000e+00	2.0000e+00	3.0000e+00	1.5000e+00	3.0000e+00	3.0000e+00	3.0000e+00	3.0000e+00	3.0000e+00	3.0000e+00	3.0000e+00	1.5000e+00	3.0000e+00	

B = Detector Channel
B-1	B-2	B-3	B-4	B-5	B-6	B-7	B-8	B-9	B-10	B-11	B-12	B-13	B-14	B-15	B-16	

1.0000e+01	1.0000e+01	1.0000e+01	1.4400e+00	1.0000e+01	1.0000e+01	1.5100e+00	1.9400e+00	1.0000e+01	1.0000e+01	1.9900e+00	2.4900e+00	2.4100e+00	2.9000e+00	1.0000e+01	2.9800e+00	




#DATA BEGINS
time	group	step	mark	flag	A-AC1	A-AC2	A-AC3	A-AC4	A-AC5	A-AC6	A-AC7	A-AC8	A-AC9	A-AC10	A-AC11	A-AC12	A-AC13	A-AC14	A-AC15	A-AC16	A-DC1	A-DC2	A-DC3	A-DC4	A-DC5	A-DC6	A-DC7	A-DC8	A-DC9	A-DC10	A-DC11	A-DC12	A-DC13	A-DC14	A-DC15	A-DC16	A-Ph1	A-Ph2	A-Ph3	A-Ph4	A-Ph5	A-Ph6	A-Ph7	A-Ph8	A-Ph9	A-Ph10	A-Ph11	A-Ph12	A-Ph13	A-Ph14	A-Ph15	A-Ph16	B-AC1	B-AC2	B-AC3	B-AC4	B-AC5	B-AC6	B-AC7	B-AC8	B-AC9	B-AC10	B-AC11	B-AC12	B-AC13	B-AC14	B-AC15	B-AC16	B-DC1	B-DC2	B-DC3	B-DC4	B-DC5	B-DC6	B-DC7	B-DC8	B-DC9	B-DC10	B-DC11	B-DC12	B-DC13	B-DC14	B-DC15	B-DC16	B-Ph1	B-Ph2	B-Ph3	B-Ph4	B-Ph5	B-Ph6	B-Ph7	B-Ph8	B-Ph9	B-Ph10	B-Ph11	B-Ph12	B-Ph13	B-Ph14	B-Ph15	B-Ph16	aux-1	digaux	

1463.228	1	1	0	256	0.10121	0.18707	0.18012	0.18428	0.12917	0.053288	0.19903	0.30028	0.068949	0.076629	0.1466	0.13337	0.15313	0.34898	0.26565	0.14551	-3.2917	-2.725	-3.0875	-3.7667	-2.7896	-3.4083	-3.3271	-3.1229	-3.75	-3.0375	-3.2812	-3.5146	-2.9146	-3.5396	-3.1542	-2.875	72.227	272.065	321.791	357.214	193.719	283.810	273.628	290.825	189.699	14.821	128.225	12.491	336.894	38.665	52.999	12.308	0.00015847	0.00011129	0.00023959	1083.6	2.5738e-06	1.4715e-06	1185	229.83	3.5327e-06	2.866e-06	290.98	80.487	63.313	18.29	4.5525e-06	25.641	0.00036645	0.0003785	0.00010574	1071	4.1902e-06	4.1329e-06	1163.8	229.13	4.1434e-06	4.13e-06	291.58	81.373	63.889	18.93	4.1253e-06	26.255	200.691	271.443	105.281	20.968	197.572	286.622	21.464	29.075	192.460	306.819	28.610	35.243	35.993	42.919	170.883	42.321	-8191	255	
1463.323	1	1	0	0	0.021106	0.27539	0.27924	0.098844	0.27855	0.14518	0.18822	0.33449	0.11102	0.15701	0.40792	0.11255	0.017663	0.096645	0.17752	0.14924	-3.2146	-2.9625	-3.1021	-3.6688	-2.7812	-3.4938	-3.5229	-2.9562	-3.5458	-3.1146	-3.1208	-3.6188	-2.8417	-3.5	-3.4146	-2.925	25.534	117.258	83.198	352.584	207.000	141.679	222.015	18.760	354.837	348.549	300.050	83.870	97.364	327.323	221.625	319.646	0.00023096	0.00021291	7.2959e-05	1086.1	5.114e-06	1.8501e-06	1180.9	229.49	5.7987e-06	5.9011e-06	290.41	80.489	63.258	18.426	7.8903e-06	25.575	0.00036706	0.0003787	0.00010446	1071.2	4.2478e-06	4.1612e-06	1162.2	229.36	4.0848e-06	4.1497e-06	291.61	81.288	63.928	18.891	4.1674e-06	26.232	217.691	363.795	120.840	21.206	175.752	25.902	21.480	29.255	225.312	160.374	28.866	35.554	36.046	42.746	262.116	42.627	-8191	255	
1463.419	1	1	0	0	0.12995	0.13176	0.045612	0.18943	0.11222	0.12133	0.19864	0.11024	0.084404	0.14328	0.072436	0.1882	0.055438	0.13734	0.14244	0.11689	-3.1125	-3.0583	-3.1333	-3.6437	-2.8979	-3.3146	-3.5646	-2.9625	-3.4729	-3.1646	-2.9479	-3.6521	-2.9375	-3.2354	-3.4583	-3.0083	44.658	281.296	336.419	300.709	305.352	243.834	255.518	68.563	56.625	252.246	133.078	258.000	152.348	293.315	322.353	313.817	0.0001997	0.00035483	0.00020901	1087.5	4.4508e-06	8.5413e-07	1181.5	229.92	5.0261e-06	2.7129e-06	294.95	80.84	63.496	18.402	2.2402e-06	25.645	0.00036781	0.00038479	0.00010723	1071.4	4.2436e-06	4.1822e-06	1164.6	229.34	4.1213e-06	4.1451e-06	292.45	81.446	64.001	18.951	4.0451e-06	26.201	208.859	44.185	33.525	21.064	240.802	259.562	21.845	29.241	178.424	157.180	28.407	35.514	35.671	42.618	296.117	42.611	-8191	255	
1463.539	1	1	0	0	0.018103	0.10357	0.043643	0.11905	0.25469	0.12991	0.18658	0.22247	0.088545	0.18174	0.056251	0.17983	0.11378	0.10821	0.036552	0.13046	-3.1958	-3.05	-2.975	-3.6375	-3.075	-3.2396	-3.5312	-2.8375	-3.6167	-3.1625	-2.85	-3.6312	-2.9854	-3.1625	-3.5354	-2.8792	217.272	52.394	287.592	29.252	286.400	187.717	19.747	303.296	201.319	312.492	174.682	105.256	326.867	214.485	116.852	341.314	0.00013309	0.0002077	3.9805e-05	1088.2	2.2265e-06	7.9326e-07	1188.1	229.07	1.4472e-06	4.5434e-06	294	80.732	63.185	18.322	4.1637e-07	25.584	0.00036063	0.00037117	0.00010372	1069.9	4.0486e-06	4.0703e-06	1165.3	228.95	3.9363e-06	3.9397e-06	292.23	81.51	63.859	18.809	3.927e-06	26.125	216.158	85.206	47.558	21.310	131.466	202.507	21.367	28.830	144.011	359.707	28.473	35.381	35.581	42.883	311.884	42.320	-8191	255	
1463.611	1	1	0	0	0.25213	0.1368	0.19068	0.27798	0.23006	0.10583	0.22729	0.19405	0.10412	0.1887	0.167	0.053275	0.1929	0.10281	0.21013	0.17564	-3.0583	-3.2479	-2.6437	-3.5083	-2.9875	-3.1917	-3.6917	-2.8917	-3.3979	-3.4104	-2.7292	-3.675	-3.2062	-3.0396	-3.5458	-2.9313	209.472	315.520	264.461	339.450	64.119	133.736	340.718	320.840	341.147	369.360	326.855	78.969	264.110	282.265	198.402	266.865	0.00016815	0.0004659	0.00018761	1083.9	6.1446e-06	2.015e-06	1184.8	228.08	3.6742e-06	6.4138e-06	292.13	80.682	63.032	18.285	1.67e-06	25.575	0.00035138	0.00035956	9.9848e-05	1068.4	3.9249e-06	3.9155e-06	1162.2	228.31	3.9076e-06	3.886e-06	290.68	81.23	63.72	18.815	3.9621e-06	26.162	200.456	354.612	68.510	21.405	240.740	60.703	21.638	29.155	235.585	263.623	28.544	35.364	35.763	42.672	111.383	42.474	-8191	255	
1463.707	1	1	0	0	0.052345	0.30499	0.19174	0.20511	0.14585	0.13198	0.12575	0.1066	0.023625	0.091131	0.13858	0.30785	0.081047	0.1469	0.02442	0.082644	-2.9354	-3.3833	-2.6875	-3.6146	-3.175	-2.9146	-3.8042	-2.7625	-3.2562	-3.5125	-2.7958	-3.6333	-3.2458	-3.0563	-3.6271	-3.1729	183.491	57.771	206.577	302.735	207.611	135.697	344.642	269.384	138.350	18.670	203.221	310.306	28.339	301.711	18.641	78.335	0.00020457	0.00031866	0.00010388	1092.2	6.2273e-06	1.6685e-06	1177.4	229.65	1.2949e-06	5.5873e-06	292.55	79.718	62.852	18.378	3.2138e-06	25.736	0.00034893	0.00036395	0.00010269	1070.3	3.9304e-06	3.9522e-06	1160.7	228.52	4.0048e-06	3.9246e-06	289.79	80.896	63.806	18.79	3.8969e-06	26.103	218.137	53.296	349.058	21.614	203.488	50.577	21.742	28.900	253.488	156.400	28.218	35.857	36.173	43.327	205.008	42.101	-8191	255	
1463.803	1	1	0	0	0.086852	0.048016	0.1431	0.087964	0.043713	0.22033	0.19529	0.13498	0.24565	0.32043	0.39064	0.078665	0.053392	0.17093	0.12597	0.10987	-2.8021	-3.5875	-2.6896	-3.6042	-3.3563	-2.975	-3.7854	-2.9583	-3.0292	-3.5729	-2.8854	-3.4875	-3.5104	-2.8042	-3.5958	-3.0479	368.477	79.305	165.096	342.060	202.721	364.219	309.627	311.405	196.123	94.036	39.786	25.262	207.434	31.039	193.145	75.681	0.00017693	0.00032706	1.8223e-05	1089.1	2.04e-06	5.0894e-06	1179.3	230.49	1.4907e-06	3.5606e-06	291.76	80.285	63.026	18.259	2.3435e-06	25.355	0.00034741	0.00035562	9.8802e-05	1069.3	3.9068e-06	3.8583e-06	1160.9	228.71	3.9118e-06	3.7757e-06	290.36	80.902	63.675	18.767	3.769e-06	26.043	205.368	77.783	62.992	21.323	103.735	173.379	21.466	28.907	280.967	144.713	28.443	35.525	35.833	43.146	199.662	42.283	-8191	255	
1463.924	1	1	0	0	0.21746	0.1392	0.20773	0.17618	0.11259	0.10728	0.14233	0.22517	0.18337	0.1385	0.20033	0.28128	0.055406	0.20864	0.16158	0.15083	-2.6479	-3.5729	-2.8146	-3.4208	-3.4229	-2.875	-3.7625	-3.1833	-3.0146	-3.6292	-2.9229	-3.3354	-3.5125	-2.9542	-3.5167	-3.2271	230.251	88.405	341.594	326.779	137.735	163.938	310.234	323.783	324.847	203.728	239.619	254.207	138.584	25.625	297.332	290.118	0.00016017	0.00064948	0.00017406	1079.8	5.7219e-06	1.4209e-06	1174.1	228.06	4.399e-06	6.5376e-06	292.12	80.335	63.406	18.315	4.0891e-06	25.469	0.00033975	0.00035005	9.7959e-05	1065.6	3.7376e-06	3.8089e-06	1157.6	228.11	3.8573e-06	3.8271e-06	290.55	81.233	63.717	18.772	3.7891e-06	26.028	225.088	58.486	106.459	21.578	154.925	179.297	21.814	28.991	219.851	190.278	28.887	35.053	35.966	43.319	193.005	42.287	-8191	255	
1464.020	1	1	0	0	0.061027	0.10344	0.34742	0.33641	0.24858	0.1798	0.080746	0.070338	0.089403	0.16655	0.18568	0.026911	0.050174	0.021161	0.077819	0.061371	-2.5563	-3.7062	-2.9208	-3.525	-3.5125	-2.6896	-3.6646	-3.2708	-2.8187	-3.7417	-2.9708	-3.1604	-3.4708	-2.8937	-3.5479	-3.2625	72.132	57.890	100.971	338.870	127.783	63.690	203.800	269.019	112.230	317.072	249.377	300.833	49.410	110.727	244.236	214.359	0.00013151	0.00046206	0.00012986	1085.7	8.2378e-06	6.2861e-06	1181.9	228	5.3313e-06	5.6093e-06	293.56	80.173	63.459	18.401	4.4284e-06	25.318	0.00034229	0.00034492	9.5754e-05	1067.1	3.8523e-06	3.822e-06	1159.5	228.08	3.8448e-06	3.836e-06	290.71	80.693	63.662	18.804	3.7105e-06	26.028	221.976	87.098	96.967	21.533	200.639	201.687	21.948	29.211	176.439	172.688	28.850	35.432	36.169	42.881	209.679	42.635	-8191	255	
1464.116	1	1	0	0	0.13108	0.29227	0.1017	0.21512	0.051642	0.12058	0.24067	0.30275	0.076061	0.20991	0.080357	0.023295	0.24471	0.2022	0.28149	0.27076	-2.4292	-3.7167	-2.8729	-3.2292	-3.5854	-2.8	-3.6583	-3.4458	-2.7812	-3.5438	-3.0583	-3.1521	-3.5917	-2.7771	-3.4896	-3.3396	350.925	38.612	62.474	81.163	86.091	33.781	233.561	347.475	143.284	297.030	188.416	232.994	314.202	52.536	118.928	306.693	0.00015376	0.00014927	2.3217e-05	1082.6	2.7199e-06	3.0042e-06	1179.9	229.09	5.0914e-06	5.3575e-06	293.99	80.409	63.14	18.165	3.3931e-06	25.791	0.00033232	0.00034742	9.6661e-05	1065.9	3.782e-06	3.7893e-06	1159.1	228.23	3.7032e-06	3.7383e-06	288.65	81.029	63.652	18.676	3.669e-06	26.145	208.266	25.368	106.218	21.425	136.186	147.856	21.563	29.259	225.316	122.249	28.169	35.583	36.192	43.101	206.561	42.380	-8191	255	
1464.212	1	1	0	0	0.090168	0.18365	0.18949	0.082013	0.086346	0.08375	0.13913	0.1135	0.038663	0.16919	0.23324	0.22917	0.14161	0.15641	0.17182	0.16173	-2.5167	-3.5438	-3.1437	-3.0396	-3.6021	-2.8292	-3.3792	-3.5854	-2.6625	-3.6333	-3.2062	-3.0167	-3.6917	-2.8458	-3.2479	-3.6063	151.744	216.155	293.275	192.023	327.971	332.270	347.350	342.713	162.056	98.202	319.380	249.250	12.572	277.330	48.663	343.002	0.00014736	0.0002471	9.8727e-05	1079.7	1.2754e-06	1.2016e-06	1177.7	227.77	2.6742e-06	3.5038e-06	290.24	79.896	62.842	18.279	3.1501e-06	25.741	0.00033148	0.0003411	9.5499e-05	1064.6	3.7288e-06	3.7399e-06	1157.6	227.22	3.6415e-06	3.6312e-06	288.46	80.659	63.461	18.677	3.6544e-06	26.042	222.794	114.769	75.253	21.690	179.749	16.958	21.855	29.238	182.089	185.304	28.946	35.492	36.031	42.809	210.061	42.541	-8191	255	
1464.307	1	1	0	0	0.15982	0.34037	0.14228	0.3023	0.11532	0.12602	0.38106	0.13076	0.23743	0.3314	0.30527	0.19615	0.12804	0.13976	0.054927	0.14097	-2.3667	-3.5625	-3.1188	-2.8771	-3.7125	-3.075	-3.4021	-3.5917	-2.7854	-3.5167	-3.3563	-3.0083	-3.6437	-3.0167	-2.9896	-3.625	53.521	279.663	195.264	343.501	180.006	156.924	309.006	240.231	356.682	90.421	154.287	297.437	352.853	223.864	303.310	215.309	0.00018438	0.00013546	0.00013363	1078	7.3509e-06	5.3785e-06	1174.7	227.66	1.8905e-06	2.1374e-06	289.51	79.974	63.055	18.32	3.3649e-06	25.748	0.00032174	0.00033225	9.3467e-05	1063	3.7079e-06	3.7107e-06	1156.5	227.42	3.6824e-06	3.6521e-06	287.97	80.807	63.415	18.759	3.6104e-06	26.008	224.005	74.735	104.717	21.372	193.156	265.177	22.018	29.335	163.664	227.753	28.831	35.560	35.762	42.824	176.694	42.077	-8191	255	
1464.403	1	1	0	0	0.048844	0.14189	0.1583	0.1591	0.12514	0.24256	0.26109	0.2603	0.091536	0.19687	0.087896	0.022725	0.21143	0.057372	0.16358	0.11125	-2.5563	-3.3479	-3.4583	-2.8792	-3.4771	-3.1208	-3.1729	-3.6688	-2.6625	-3.2521	-3.3583	-2.8333	-3.6375	-3.0604	-3	-3.6125	287.015	295.575	265.535	62.246	369.215	171.952	291.008	255.745	251.848	293.856	182.790	323.806	257.761	355.940	270.798	174.881	0.0001721	0.0003735	9.2162e-05	1078.9	3.6571e-06	1.6841e-06	1177.8	227.66	4.9698e-06	4.1472e-06	291.33	80.144	62.937	18.212	3.046e-06	25.528	0.00033481	0.00033998	9.4923e-05	1061.9	3.6896e-06	3.6936e-06	1155.4	227.26	3.7544e-06	3.6615e-06	288.95	80.77	63.486	18.656	3.6634e-06	26.015	239.248	103.021	229.819	21.309	218.631	170.078	21.516	29.021	189.954	96.627	27.888	35.547	36.005	42.862	177.334	42.362	-8191	255	
1464.524	1	1	0	0	0.21901	0.11956	0.13114	0.36564	0.14514	0.3808	0.2146	0.059066	0.15657	0.2289	0.081408	0.087368	0.11998	0.22249	0.21441	0.21384	-2.3896	-3.2917	-3.35	-2.85	-3.6063	-3.1667	-3.075	-3.7667	-2.8438	-3.2438	-3.4646	-2.8438	-3.5646	-3.2604	-2.9479	-3.5854	360.720	340.154	89.329	323.274	141.398	268.069	293.494	132.036	102.984	313.222	203.617	357.585	216.272	92.545	291.729	47.467	0.00012228	0.00029084	6.3743e-05	1083.2	3.0651e-06	4.905e-06	1171.6	229.21	2.6084e-06	2.7969e-06	294.21	79.782	62.863	18.274	1.3491e-06	25.547	0.00032715	0.00034501	9.2302e-05	1065.9	3.7043e-06	3.6989e-06	1154.6	227.46	3.6821e-06	3.5956e-06	289.24	80.677	63.274	18.718	3.6527e-06	26.002	210.856	210.705	151.609	21.504	166.840	296.078	21.527	29.135	206.238	106.407	28.394	35.419	36.366	42.840	166.113	42.163	-8191	255	
1464.620	1	1	0	0	0.17752	0.19684	0.2101	0.15944	0.06991	0.051708	0.14213	0.30556	0.041532	0.36664	0.27551	0.034161	0.25331	0.17793	0.15395	0.1813	-2.6021	-3.0917	-3.5542	-2.9292	-3.4229	-3.2917	-2.8375	-3.575	-3.0333	-3.1104	-3.3458	-2.8688	-3.425	-3.4646	-2.7458	-3.6875	221.893	267.926	327.566	340.179	268.064	295.319	48.251	313.456	137.545	144.549	294.189	208.693	274.845	310.890	333.819	326.834	0.00016088	0.00050571	0.00014912	1078.8	6.4209e-06	3.2253e-06	1175.5	228.33	2.3769e-06	1.6839e-06	291.62	80.287	63.233	18.24	1.0402e-06	25.362	0.00032537	0.0003381	9.296e-05	1063.5	3.6824e-06	3.6674e-06	1154.1	227.34	3.6053e-06	3.6147e-06	288.75	80.801	63.456	18.644	3.7049e-06	25.961	221.438	40.516	81.884	21.275	271.345	214.678	21.647	29.184	233.112	179.933	28.193	35.342	35.919	43.284	241.425	42.238	-8191	255	
1464.714	1	1	0	0	0.13118	0.14895	0.18831	0.37835	0.14585	0.22471	0.17423	0.16633	0.11248	0.13896	0.29012	0.27068	0.11494	0.063734	0.16187	0.059473	-2.6625	-3.0521	-3.5854	-2.9896	-3.4542	-3.3229	-2.8896	-3.5583	-3.1833	-3.1458	-3.5667	-2.8542	-3.1063	-3.5042	-2.8208	-3.6396	18.973	314.572	351.361	290.391	62.393	149.877	366.861	294.139	112.161	15.359	294.015	364.404	300.660	281.060	154.294	53.919	0.00015804	0.00017686	0.00012166	1081.2	1.6049e-06	4.1999e-06	1173.8	227.68	7.0719e-07	1.8606e-06	292.49	79.799	62.894	18.381	1.9979e-06	25.56	0.00033477	0.00034446	9.6362e-05	1062.8	3.7346e-06	3.6995e-06	1154.5	227.19	3.6509e-06	3.7154e-06	288.87	80.635	63.369	18.736	3.79e-06	26.091	213.580	149.003	87.906	21.506	193.406	144.039	21.888	28.944	208.004	111.669	28.534	35.657	35.912	43.010	59.454	42.424	-8191	255	
1464.812	1	1	0	0	0.21385	0.15561	0.27618	0.40406	0.10704	0.074308	0.2003	0.094533	0.10538	0.035483	0.043319	0.049119	0.1531	0.12219	0.15019	0.1965	-2.7271	-2.7833	-3.7313	-3.1104	-3.2458	-3.4333	-3.0042	-3.4667	-3.1604	-2.8167	-3.5708	-2.9333	-3.1583	-3.4542	-2.8354	-3.5229	13.132	23.241	359.260	315.613	273.830	128.599	281.483	335.421	117.957	299.969	231.552	43.845	208.680	92.287	231.303	274.208	0.00022496	0.00031838	0.00011361	1076.2	4.2269e-06	1.675e-06	1176.8	228.04	4.2617e-06	3.0025e-06	290.17	79.983	63.251	18.208	3.1117e-06	25.36	0.00034368	0.00034896	9.6957e-05	1062.7	3.7836e-06	3.799e-06	1156.8	227.31	3.7465e-06	3.7697e-06	288.08	80.72	63.562	18.714	3.7056e-06	25.976	218.299	314.241	75.266	21.441	227.605	255.684	21.701	29.185	140.307	229.078	28.597	35.597	36.313	42.586	163.929	42.597	-8191	255	
1464.907	1	1	0	0	0.10692	0.2568	0.19579	0.24063	0.042936	0.13475	0.20276	0.14165	0.063554	0.37141	0.38563	0.019308	0.079827	0.12727	0.12504	0.14117	-2.7562	-2.6792	-3.5583	-3.2729	-3.0604	-3.7271	-2.9667	-3.3729	-3.2792	-2.8896	-3.8083	-2.9729	-3.0729	-3.6063	-2.7042	-3.4125	224.488	153.384	83.731	356.019	99.767	177.782	320.537	296.293	50.944	30.629	343.067	190.539	370.475	132.090	125.340	259.010	0.00016746	0.00034457	0.00020738	1079.1	3.4332e-06	4.4299e-07	1177.5	226.7	4.7062e-06	7.6848e-07	291.75	79.689	62.58	18.27	3.7537e-06	25.473	0.0003374	0.00034867	9.6994e-05	1062	3.879e-06	3.8379e-06	1154.8	227.29	3.8619e-06	3.7954e-06	289.63	80.557	63.448	18.727	3.8004e-06	25.99	201.521	130.775	110.567	21.495	174.465	202.803	21.646	29.236	219.425	134.955	28.856	35.684	36.117	42.838	194.928	42.571	-8191	255	
1465.003	1	1	0	0	0.057212	0.020341	0.090231	0.16068	0.11193	0.14641	0.1973	0.10488	0.072284	0.18499	0.14688	0.12062	0.14004	0.28827	0.1354	0.099275	-3.0208	-2.6792	-3.5292	-3.3271	-3.0667	-3.5375	-2.9833	-3.2146	-3.3875	-2.7042	-3.4813	-3.2417	-3.0687	-3.7083	-2.8688	-3.4479	122.560	267.802	153.428	282.243	186.939	362.732	99.692	58.902	227.335	210.319	268.824	181.074	352.157	21.351	155.322	25.155	0.00013089	0.00073296	0.00016164	1081	3.327e-06	1.3311e-06	1167.7	227.53	3.2453e-06	4.793e-06	290	79.64	62.481	18.302	1.3632e-06	25.376	0.00033968	0.00035345	9.6835e-05	1063.7	3.9215e-06	3.9026e-06	1152.7	227.2	3.9037e-06	3.8711e-06	289.53	80.717	63.337	18.776	3.8317e-06	25.963	223.612	75.981	12.317	21.378	170.582	71.442	21.642	29.353	246.694	184.083	28.287	35.510	36.247	42.955	259.911	42.530	-8191	255	
1465.099	1	1	0	0	0.2147	0.08941	0.15535	0.27947	0.19806	0.18329	0.25766	0.091714	0.1197	0.087149	0.067109	0.094356	0.25995	0.13825	0.19452	0.070997	-3.3729	-2.8646	-3.4188	-3.3312	-2.7562	-3.8833	-3.2438	-3.1667	-3.7562	-2.8812	-3.6312	-3.4875	-3.0167	-3.6979	-3	-3.15	247.415	91.585	187.600	324.500	18.827	153.218	278.993	367.296	280.752	181.211	64.422	332.808	340.248	45.357	276.038	212.631	0.00016981	0.00033581	5.9966e-05	1083.6	4.1746e-06	3.1834e-06	1168.2	228.08	5.7715e-06	4.4371e-06	291.93	80.338	62.723	18.22	5.0918e-06	25.442	0.00034647	0.00035873	9.7974e-05	1064.1	3.8923e-06	3.7267e-06	1153.5	227.45	3.8076e-06	3.8162e-06	289.9	80.855	63.369	18.735	3.7756e-06	25.974	212.035	30.873	40.346	21.476	179.155	202.926	21.620	29.126	206.129	200.544	28.922	35.746	36.042	42.882	189.009	42.161	-8191	255	
1465.219	1	1	0	0	0.15138	0.24259	0.21531	0.17923	0.16623	0.19597	0.065176	0.077182	0.29056	0.15288	0.23197	0.029286	0.32911	0.40721	0.27817	0.24566	-3.15	-2.8417	-3.2896	-3.5187	-2.8833	-3.5292	-3.2792	-3.1833	-3.5125	-2.875	-3.3812	-3.3625	-2.8125	-3.6417	-3.1875	-3.0375	307.374	181.040	300.841	369.434	323.098	79.421	336.781	352.678	235.224	91.359	123.252	262.123	84.957	297.744	353.901	327.481	0.00013617	0.00070659	0.00021524	1077.8	3.0521e-06	6.2845e-06	1172.8	227.9	4.7382e-06	2.3059e-06	291.78	80.138	62.274	18.223	2.5365e-06	25.39	0.000332	0.00033955	9.6086e-05	1062.8	3.7613e-06	3.6142e-06	1155.1	227	3.6189e-06	3.6675e-06	288.36	80.563	63.16	18.662	3.564e-06	25.909	215.192	86.941	58.323	21.420	191.033	185.451	21.576	29.657	206.082	170.996	28.631	35.733	36.180	43.113	219.351	42.124	-8191	255	
1465.316	1	1	0	0	0.10407	0.11504	0.16393	0.22196	0.10664	0.044378	0.074658	0.091045	0.1644	0.3608	0.22471	0.27612	0.34065	0.13563	0.091456	0.14289	-3.1937	-2.9229	-3.2313	-3.6208	-2.6646	-3.5125	-3.5	-2.9	-3.4542	-2.8417	-3.2458	-3.5708	-2.8812	-3.5417	-3.3187	-2.9333	284.738	343.931	181.979	339.001	370.543	215.688	81.249	139.271	230.592	276.055	28.085	339.822	359.735	287.513	270.191	316.567	0.00016904	0.00023831	9.575e-05	1079.2	5.4595e-06	2.1889e-06	1173.6	226.94	2.0544e-06	4.5884e-06	288.87	80.223	62.04	18.314	4.3797e-06	25.494	0.00032164	0.00033042	9.0786e-05	1061.3	3.6449e-06	3.5936e-06	1153.3	226.61	3.6026e-06	3.6722e-06	287.83	80.492	63.033	18.688	3.6993e-06	25.962	227.413	199.360	88.159	21.761	205.133	170.965	21.835	29.360	207.322	93.956	29.098	35.793	36.290	43.185	144.262	42.708	-8191	255	
1465.412	1	1	0	0	0.29907	0.27814	0.20232	0.089649	0.11605	0.29831	0.16809	0.11899	0.21519	0.2419	0.15232	0.18913	0.1337	0.17433	0.090295	0.23043	-3.35	-2.6979	-2.9854	-3.5083	-2.7958	-3.4833	-3.5896	-2.8042	-3.6542	-3.0604	-3.1083	-3.7562	-2.825	-3.4021	-3.3042	-2.8396	348.871	330.938	80.396	62.335	259.002	143.319	343.167	319.663	255.007	41.549	271.072	347.254	274.210	335.732	315.453	339.238	0.00014974	0.00021251	0.00015393	1074.3	4.9726e-06	5.328e-07	1168.9	227.45	2.7692e-06	5.2646e-06	289.8	79.413	62.866	18.336	4.7618e-06	25.491	0.00032598	0.00033209	9.4682e-05	1060.3	3.7546e-06	3.7038e-06	1151.8	227.13	3.7335e-06	3.7202e-06	288.64	80.423	63.265	18.714	3.7705e-06	25.977	205.725	62.817	125.041	21.701	186.515	154.879	21.759	29.515	206.275	105.606	29.091	36.096	36.440	43.419	217.262	42.715	-8191	255	
1465.483	1	1	0	0	0.13756	0.23763	0.18139	0.14591	0.41809	0.17806	0.17379	0.12759	0.13213	0.30183	0.17261	0.19991	0.28787	0.17927	0.049603	0.21447	-3.1604	-2.9437	-2.9229	-3.6771	-2.8333	-3.2188	-3.6083	-2.9229	-3.5062	-3.2833	-2.9771	-3.6479	-3.0792	-3.2896	-3.5125	-2.8417	36.410	247.810	80.263	323.826	366.813	54.361	247.277	296.940	76.602	75.438	350.069	208.641	268.109	209.151	335.231	261.845	0.00017304	0.00040346	7.7815e-05	1076.7	3.1081e-06	1.6775e-06	1172.5	227.81	3.8205e-06	4.544e-06	290.99	79.942	62.368	18.202	1.3153e-06	25.473	0.00033723	0.0003427	9.628e-05	1061.4	3.7617e-06	3.7651e-06	1154.1	226.64	3.7889e-06	3.7436e-06	289.56	80.624	63.242	18.69	3.7111e-06	26.037	221.092	75.059	73.257	21.756	166.800	205.667	22.023	29.352	197.098	163.439	28.808	35.672	36.155	43.474	45.029	42.509	-8191	255	
1465.604	1	1	0	0	0.28337	0.17232	0.162	0.4282	0.10331	0.27163	0.15667	0.22828	0.23835	0.1066	0.21319	0.13224	0.17732	0.17673	0.32088	0.061013	-3.0646	-3.2979	-2.7542	-3.7375	-3.0792	-3.1271	-3.9479	-2.9437	-3.4375	-3.3708	-2.7833	-3.5312	-3.0896	-3.0771	-3.5417	-2.8896	75.929	93.185	238.723	341.880	36.765	352.394	284.567	78.510	91.374	356.186	222.444	246.514	292.174	192.777	167.767	98.219	0.00020878	0.0001045	8.0237e-05	1076.3	1.8438e-06	3.2205e-06	1171.6	226.18	4.5212e-06	1.1498e-06	287.6	79.645	62.326	18.423	4.7647e-06	25.477	0.00033231	0.00034419	9.5876e-05	1061.1	3.8232e-06	3.807e-06	1153.9	226.83	3.6635e-06	3.7015e-06	287.67	80.586	63.294	18.747	3.6335e-06	25.999	218.713	31.542	159.043	21.842	82.843	183.603	21.984	29.032	242.727	73.186	29.132	35.866	36.379	43.193	157.222	42.797	-8191	255	
1465.700	1	1	0	0	0.13504	0.22328	0.072608	0.20798	0.15562	0.27173	0.11422	0.32395	0.22516	0.051838	0.27496	0.063435	0.10947	0.12105	0.172	0.22686	-3.0292	-3.3146	-2.6562	-3.7354	-2.9833	-2.9188	-3.7625	-2.8521	-3.3771	-3.3979	-2.7542	-3.5521	-3.1688	-3.1437	-3.7271	-2.9896	62.561	120.730	115.871	291.129	25.626	77.461	191.016	321.024	53.005	69.807	81.554	321.832	204.120	197.001	102.165	237.175	0.00017679	0.00020808	6.5526e-05	1077.5	2.0858e-06	5.848e-06	1174.6	227.56	2.2062e-06	4.8711e-06	289.25	80.226	62.527	18.224	5.5189e-06	25.34	0.00032537	0.00033984	9.4311e-05	1060.9	3.6615e-06	3.6862e-06	1154.3	226.41	3.5736e-06	3.5317e-06	286.86	80.593	63.154	18.682	3.5742e-06	25.885	207.732	133.427	70.628	21.726	229.660	197.912	22.100	29.507	161.502	148.435	29.248	35.841	36.316	43.107	251.406	43.010	-8191	255	
1465.796	1	1	0	0	0.17655	0.23801	0.13394	0.22242	0.19035	0.22682	0.27688	0.1077	0.11492	0.13569	0.14411	0.13325	0.11888	0.1563	0.19921	0.10719	-2.7479	-3.4375	-2.7375	-3.3688	-3.1021	-2.9375	-3.6667	-3.0979	-3.1708	-3.5563	-2.9875	-3.5375	-3.4021	-3.0312	-3.6125	-3	278.094	59.766	89.441	318.704	211.572	355.972	328.346	252.244	279.324	180.627	357.303	43.356	339.562	268.884	82.271	347.524	0.00017673	0.00043807	2.4948e-05	1079.6	6.4506e-06	5.8753e-06	1173.8	228.43	2.0411e-06	3.453e-06	290.04	79.769	63.018	18.174	5.1498e-06	25.581	0.00032212	0.00032826	8.9899e-05	1059.8	3.65e-06	3.549e-06	1152.4	226.62	3.5422e-06	3.503e-06	286.45	80.302	63.109	18.617	3.4403e-06	25.909	212.812	108.061	261.171	21.778	178.486	217.670	21.945	29.407	234.338	139.649	28.987	35.634	36.076	43.125	179.409	42.387	-8191	255	
1465.892	1	1	0	0	0.34444	0.11732	0.054349	0.12033	0.23881	0.13918	0.036414	0.086272	0.0083571	0.15104	0.16805	0.084001	0.088332	0.076635	0.055632	0.030432	-2.8063	-3.4583	-2.7229	-3.4208	-3.1792	-3.0354	-3.7042	-3.125	-3.0583	-3.5917	-2.7958	-3.4417	-3.4062	-2.7833	-3.65	-3.1958	337.622	177.618	282.069	17.659	238.938	260.930	149.848	17.843	72.212	336.481	158.397	238.493	299.115	132.712	73.807	179.027	0.00020275	0.00012762	0.00022224	1075.7	1.6849e-06	2.7683e-06	1167.1	227.02	7.4763e-06	7.179e-06	290.4	79.503	62.642	18.054	4.5462e-06	25.486	0.00031358	0.00031281	8.8487e-05	1059.3	3.4957e-06	3.3906e-06	1149.7	226.09	3.4394e-06	3.3788e-06	286.25	79.954	62.938	18.513	3.4077e-06	25.873	214.184	132.842	80.172	21.549	213.659	185.848	22.033	29.414	241.344	100.610	28.856	35.640	36.287	43.302	231.095	42.896	-8191	255	
1466.011	1	1	0	0	0.35164	0.28722	0.19118	0.13672	0.16003	0.20097	0.12248	0.084541	0.21031	0.14755	0.30068	0.11103	0.18782	0.15666	0.23922	0.2941	-2.5833	-3.5875	-2.7083	-3.3729	-3.3563	-2.9021	-3.5687	-3.2417	-3.0708	-3.7125	-2.9479	-3.2458	-3.3812	-2.7292	-3.5396	-3.2104	179.958	289.460	257.600	168.216	113.559	78.864	336.987	168.765	350.515	38.280	22.309	180.105	321.233	81.263	97.119	220.451	0.00023331	0.00041389	0.00014942	1074.1	1.9348e-06	2.4927e-06	1170.6	226.62	2.015e-06	2.6384e-06	289.97	79.792	62.418	18.214	4.6624e-06	25.424	0.00030063	0.00030637	8.7153e-05	1058.8	3.4077e-06	3.3313e-06	1150.2	225.37	3.3123e-06	3.3905e-06	286.15	80.104	62.926	18.594	3.3179e-06	25.793	212.905	32.764	57.647	21.707	106.383	219.034	21.993	29.271	261.527	83.224	28.760	36.084	36.141	43.063	153.084	42.654	-8191	255	
1466.108	1	1	0	0	0.44081	0.098059	0.26475	0.4172	0.24315	0.072499	0.28706	0.1654	0.10167	0.18971	0.21384	0.022478	0.17447	0.10659	0.17934	0.1127	-2.2812	-3.5771	-3.0167	-3.3042	-3.6354	-2.8458	-3.6667	-3.4938	-2.9896	-3.6292	-3.2021	-3.1021	-3.6375	-2.9458	-3.4125	-3.5271	324.934	225.217	243.466	303.120	91.892	295.441	349.789	306.797	118.672	120.948	343.605	25.702	358.937	110.301	115.167	230.442	0.0002105	0.00051941	0.00012813	1075.6	3.304e-06	7.1415e-07	1168.9	225.44	2.7742e-06	2.907e-06	290.87	78.938	62.938	18.105	3.4796e-06	25.449	0.00030264	0.000303	8.472e-05	1057.7	3.3562e-06	3.2989e-06	1149.6	225.17	3.3496e-06	3.3303e-06	285.11	79.894	62.994	18.547	3.3034e-06	25.809	203.785	121.281	81.542	21.827	191.260	77.108	22.092	29.722	214.559	106.097	28.499	35.896	36.439	43.377	208.012	42.689	-8191	255	
1466.204	1	1	0	0	0.13023	0.14954	0.12283	0.22455	0.14544	0.12864	0.11694	0.084992	0.38404	0.035381	0.074366	0.076406	0.054029	0.14288	0.047569	0.1228	-2.5417	-3.4833	-3.2313	-3.2062	-3.5333	-3.0438	-3.6771	-3.4708	-2.7896	-3.5687	-3.0583	-2.8896	-3.8521	-2.9771	-3.4146	-3.5667	199.328	117.948	302.326	306.634	201.078	258.632	320.478	191.108	284.368	341.824	140.503	237.024	29.239	53.418	286.058	233.048	0.00017021	0.00041864	0.00025122	1072.9	1.9011e-06	5.3861e-06	1172.7	225.95	2.7131e-06	3.2275e-06	292.4	79.811	62.224	18.276	2.5134e-06	25.201	0.00029811	0.00030226	8.4549e-05	1054.4	3.3908e-06	3.3337e-06	1149.1	224.98	3.2832e-06	3.3204e-06	286.12	80.064	62.816	18.594	3.2224e-06	25.73	199.846	154.438	69.333	21.747	124.469	161.223	22.127	29.190	121.905	205.335	28.905	36.106	36.826	43.097	163.724	42.400	-8191	255	
1466.300	1	1	0	0	0.20074	0.096671	0.22969	0.40908	0.1506	0.25049	0.24156	0.3419	0.1617	0.11334	0.15799	0.22658	0.088482	0.21877	0.25864	0.2243	-2.4354	-3.6229	-3.2583	-3.0521	-3.6937	-2.9229	-3.5292	-3.6875	-2.8042	-3.6083	-3.3146	-2.9104	-3.5667	-3.0062	-3.1437	-3.7375	94.716	169.696	361.369	317.955	316.342	54.899	330.229	361.732	81.195	90.465	23.757	353.124	99.953	20.684	228.124	290.428	0.00014219	0.00026865	8.367e-05	1069.1	3.1169e-06	4.4641e-06	1168.4	226.6	6.333e-06	4.7952e-06	288.38	78.912	62.665	18.092	3.1203e-06	25.264	0.00029143	0.00029619	8.2605e-05	1054.2	3.2459e-06	3.2019e-06	1148.4	224.9	3.2062e-06	3.1881e-06	284.57	79.647	62.885	18.498	3.191e-06	25.771	209.357	100.519	99.620	22.060	191.427	201.312	22.191	29.607	195.458	137.337	28.706	36.221	36.817	43.363	295.862	43.211	-8191	255	
1466.396	1	1	0	0	0.22417	0.096229	0.13449	0.080724	0.27797	0.17246	0.25951	0.071998	0.17338	0.039357	0.25587	0.23964	0.13939	0.14671	0.26377	0.20417	-2.5292	-3.5687	-3.3042	-3.1208	-3.5354	-2.9688	-3.2771	-3.6229	-2.8292	-3.2979	-3.3625	-2.8875	-3.7062	-3.1229	-3.0354	-3.8312	186.751	219.586	126.086	262.422	244.197	81.263	361.616	163.814	96.400	108.569	307.254	246.120	352.275	196.936	212.443	366.662	0.00020698	0.00010027	0.00014002	1073.8	3.9397e-06	3.1371e-06	1165	226.42	3.8069e-06	1.1369e-06	287.3	79.506	62.423	18.246	1.2717e-06	25.285	0.00028814	0.0002922	8.1218e-05	1056.8	3.1552e-06	3.1319e-06	1145.6	225.15	3.1289e-06	3.0925e-06	284.37	79.818	62.708	18.501	3.1426e-06	25.743	209.347	71.928	23.009	22.013	208.567	190.437	22.342	29.678	178.815	322.681	29.726	36.255	36.878	43.348	156.720	42.699	-8191	255	
1466.492	1	1	0	0	0.23412	0.15946	0.20927	0.21935	0.23337	0.25893	0.1376	0.22113	0.1392	0.25442	0.12902	0.061313	0.24454	0.1592	0.17633	0.16384	-2.3625	-3.2042	-3.4167	-2.8854	-3.5812	-3.1437	-3.1333	-3.6583	-2.8833	-3.2521	-3.6354	-3.025	-3.6604	-3.2812	-2.8771	-3.825	185.796	274.395	234.928	261.282	119.404	303.607	43.975	22.406	56.199	279.534	37.382	339.593	222.779	352.396	96.386	286.091	0.00016917	0.00037405	0.00018786	1072.3	4.2193e-06	4.1615e-06	1165.4	226.52	1.34e-06	3.1617e-06	292.83	79.538	62.143	18.241	1.3953e-06	25.245	0.00029001	0.00030128	8.1231e-05	1053.7	3.3178e-06	3.2094e-06	1145.4	225.36	3.3377e-06	3.2959e-06	286.79	79.981	62.84	18.569	3.3611e-06	25.83	211.105	128.731	75.725	22.155	234.945	192.432	22.467	29.612	164.778	314.276	29.396	36.413	36.574	43.170	160.391	43.099	-8191	255	
1466.613	1	1	0	0	0.20782	0.028631	0.13918	0.33162	0.081532	0.12247	0.12979	0.085396	0.21506	0.030908	0.11913	0.081534	0.29261	0.08597	0.17457	0.17534	-2.7146	-3.1646	-3.5917	-2.9521	-3.6417	-3.3333	-3.1625	-3.7146	-2.7854	-3.1604	-3.5229	-2.9104	-3.5042	-3.3771	-2.9688	-3.6646	27.181	317.574	160.428	69.521	166.073	346.025	344.608	323.628	110.042	307.682	317.581	106.954	32.006	348.459	185.575	148.517	0.00020263	0.00031762	0.00014353	1075.2	4.6825e-06	3.1514e-06	1167.4	225.73	3.4206e-06	2.5589e-06	290.43	78.676	62.687	18.222	2.2228e-06	25.542	0.00030094	0.00030555	8.2899e-05	1055.1	3.2572e-06	3.1747e-06	1145.5	224.77	3.2099e-06	3.2182e-06	285.51	79.765	63	18.512	3.1964e-06	25.813	221.603	53.533	119.293	21.897	199.112	317.755	22.150	29.610	188.978	190.242	28.816	35.808	36.940	43.048	173.108	42.792	-8191	255	
1466.707	1	1	0	0	0.20419	0.089184	0.090498	0.068649	0.038704	0.14216	0.43083	0.20758	0.16877	0.30189	0.29659	0.058598	0.27716	0.19398	0.20262	0.038951	-2.4458	-3.1354	-3.7292	-3.1562	-3.4042	-3.4625	-3.1208	-3.65	-3.0625	-3.1542	-3.7479	-3.0583	-3.4188	-3.5667	-3.0333	-3.5583	370.881	133.451	72.092	283.276	205.144	332.877	309.763	325.170	346.305	24.106	250.707	235.842	290.166	261.881	321.494	105.009	0.00014692	0.00029674	0.00021317	1072.9	5.0815e-06	6.8226e-06	1168.5	227.12	2.7464e-06	3.3661e-06	287.51	79.047	62.562	18.214	7.0827e-06	25.433	0.00029201	0.00029299	8.2379e-05	1053.9	3.2716e-06	3.2967e-06	1145.2	225.26	3.2692e-06	3.3066e-06	284.93	79.778	62.916	18.531	3.3277e-06	25.76	217.456	85.764	119.053	21.900	188.723	198.394	22.245	29.887	184.265	108.552	29.121	35.967	36.704	43.545	180.073	43.100	-8191	255	
1466.781	1	1	0	0	0.17687	0.17156	0.13744	0.28561	0.202	0.21347	0.064547	0.10447	0.053248	0.055401	0.046899	0.28784	0.13309	0.17625	0.18011	0.047545	-2.7729	-2.9042	-3.6542	-3.1708	-3.2167	-3.5792	-3.0083	-3.4583	-3.2896	-3.1063	-3.7896	-2.9896	-3.4167	-3.6625	-2.7417	-3.6854	166.147	307.710	136.137	284.157	211.060	351.062	370.295	245.108	139.804	321.065	34.701	39.876	367.540	366.834	359.465	165.094	0.00018883	0.00041269	0.00010619	1073.3	4.4874e-06	4.0591e-06	1170.8	225.64	3.7176e-06	4.6284e-06	290.91	79.359	62.531	18.239	2.8018e-06	25.361	0.00029607	0.00030731	8.334e-05	1053.2	3.36e-06	3.344e-06	1147.3	225.11	3.3092e-06	3.4588e-06	286.99	79.676	62.824	18.57	3.401e-06	25.846	217.095	95.380	118.260	21.966	214.368	24.597	22.199	29.444	174.118	191.619	29.039	36.150	36.712	43.336	77.830	42.710	-8191	255	
1466.899	1	1	0	0	0.18254	0.14349	0.1143	0.31662	0.17579	0.051407	0.09001	0.32439	0.22362	0.060966	0.14803	0.13482	0.077979	0.12138	0.15631	0.068602	-2.9833	-2.9396	-3.4604	-3.2271	-3.1354	-3.5833	-2.9729	-3.6521	-3.4333	-2.8	-3.6146	-3.1125	-3.0958	-3.5	-2.8708	-3.4396	107.842	64.616	230.091	348.411	253.989	94.994	195.603	367.872	258.557	106.719	337.466	274.787	181.316	251.438	311.771	144.368	0.0001158	0.00015298	3.4106e-05	1074.5	3.0473e-06	4.6759e-06	1169.5	226.02	4.0213e-06	3.8063e-06	289.46	79.894	62.701	18.238	5.9494e-06	25.497	0.00029826	0.0003163	8.4717e-05	1056.4	3.4167e-06	3.3921e-06	1147.3	224.73	3.3722e-06	3.3336e-06	285.42	80.211	62.882	18.532	3.2468e-06	25.809	211.856	232.633	147.615	22.052	186.505	181.852	22.287	29.752	228.527	79.072	29.620	35.843	36.500	43.413	193.430	43.032	-8191	255	
1466.996	1	1	0	0	0.22514	0.2256	0.2618	0.24481	0.23298	0.24754	0.13528	0.053458	0.050365	0.16532	0.17652	0.0063148	0.10437	0.046174	0.12039	0.16921	-3.1875	-2.8583	-3.7188	-3.2104	-3.0646	-3.6667	-3.1375	-3.2708	-3.5563	-2.8604	-3.5146	-3.0667	-3.0521	-3.5979	-2.9271	-3.3375	94.813	237.895	279.253	307.490	13.419	283.808	347.044	41.631	150.868	63.933	66.555	187.224	21.506	299.352	184.671	325.443	0.00015507	0.00026799	0.00012715	1072.5	3.8169e-06	3.4315e-06	1168.1	226.12	2.319e-06	5.3827e-06	285.58	79.341	62.728	18.106	9.1094e-07	25.504	0.00029122	0.00030392	8.1897e-05	1054.1	3.3009e-06	3.2221e-06	1144.4	225.16	3.2439e-06	3.2192e-06	283.45	79.632	62.903	18.545	3.245e-06	25.812	200.077	119.201	155.433	21.786	277.080	92.987	22.177	29.614	54.317	76.499	29.178	36.112	36.526	43.640	78.175	42.700	-8191	255	
1467.092	1	1	0	0	0.20835	0.1903	0.11128	0.087897	0.15885	0.21048	0.25802	0.08547	0.18368	0.089974	0.19467	0.13748	0.24993	0.14743	0.084556	0.26791	-3.0958	-2.7854	-3.5146	-3.525	-2.9938	-3.7188	-3.0312	-3.2375	-3.4667	-2.7479	-3.3917	-3.2646	-2.8229	-3.5792	-2.9813	-3.3312	132.182	318.364	190.085	331.475	338.293	109.470	315.198	303.199	257.069	156.478	324.713	89.451	305.501	263.552	148.685	335.019	0.00018726	0.0004504	5.1438e-05	1071.6	5.4898e-06	7.2489e-06	1162	225.69	3.8334e-06	2.0419e-06	290.23	79.308	62.633	18.205	4.3489e-06	25.546	0.00029076	0.00029304	8.276e-05	1054.1	3.33e-06	3.2641e-06	1143.5	225.15	3.2407e-06	3.2828e-06	286.24	79.914	62.774	18.5	3.2475e-06	25.815	193.842	123.400	134.851	21.722	218.970	190.634	22.292	29.911	165.486	166.853	29.346	36.241	36.959	43.624	155.966	42.999	-8191	255	
1467.188	1	1	0	0	0.13454	0.15975	0.089655	0.30671	0.16581	0.098947	0.31076	0.10023	0.066404	0.16961	0.16351	0.21605	0.23267	0.13872	0.23692	0.089538	-3.4229	-2.9104	-3.5563	-3.4771	-3.1667	-3.7958	-3.0854	-3.0646	-3.75	-3	-3.4792	-3.475	-2.7979	-3.5625	-3.1271	-3.2896	292.387	115.031	58.256	340.293	179.308	316.497	220.644	298.888	360.562	115.982	25.606	252.535	262.669	65.400	167.186	276.226	0.00019241	0.00055124	0.00013363	1071.2	3.1989e-06	9.8637e-07	1162.2	226.17	1.1069e-06	1.3366e-06	290.23	79.192	62.094	18.354	4.9678e-06	25.314	0.0002908	0.0002965	8.2306e-05	1052.3	3.2731e-06	3.2167e-06	1143.8	224.69	3.1758e-06	3.2226e-06	285.44	79.932	62.703	18.559	3.2255e-06	25.764	214.605	101.626	146.238	21.933	267.232	287.673	22.270	29.972	167.863	317.861	29.552	36.158	36.661	43.681	182.247	43.006	-8191	255	
1467.309	1	1	0	0	0.30591	0.16943	0.12648	0.4463	0.25845	0.092325	0.21064	0.035671	0.16918	0.35035	0.085138	0.24264	0.22004	0.16282	0.074629	0.26391	-3.2333	-2.8625	-3.2604	-3.5083	-3.0333	-3.5438	-3.3125	-2.9437	-3.6188	-3.0312	-3.2875	-3.6312	-2.8542	-3.4604	-3.2	-2.9354	182.546	220.754	351.377	345.111	197.248	199.196	278.890	163.208	126.357	363.497	337.360	350.282	27.217	15.016	36.367	358.532	0.00016044	0.00018054	0.00022767	1075.4	1.0345e-06	2.4968e-06	1160.6	225.93	4.1112e-06	3.5758e-06	291.94	78.981	62.214	18.137	1.3372e-06	25.502	0.00028328	0.00029142	8.004e-05	1054.7	3.2651e-06	3.1228e-06	1142.1	224.73	3.1015e-06	3.0873e-06	285.32	79.69	62.565	18.504	3.1113e-06	25.778	228.890	34.630	155.703	21.973	225.160	355.738	22.389	29.763	177.572	168.183	28.852	36.576	36.882	43.558	300.733	43.006	-8191	255	
1467.405	1	1	0	0	0.027539	0.13858	0.15062	0.28664	0.12669	0.096315	0.25873	0.25877	0.22322	0.32086	0.048562	0.28228	0.17212	0.077963	0.18399	0.083726	-3.1667	-2.9479	-2.8833	-3.625	-2.725	-3.5917	-3.2687	-2.8479	-3.6042	-3.1104	-3.1354	-3.4896	-2.7104	-3.2604	-3.3708	-2.9875	53.924	89.203	310.888	342.156	62.428	281.365	321.156	321.093	245.411	178.923	157.180	367.180	224.091	141.961	191.080	201.285	0.00015179	0.0005139	0.00011893	1069.7	2.015e-06	6.0404e-07	1166.8	225.88	1.7273e-06	3.931e-06	292.53	79.28	62.8	18.136	4.3557e-06	25.135	0.0002779	0.00028639	7.8641e-05	1052	3.0759e-06	3.0273e-06	1142.8	224.36	2.9619e-06	3.0214e-06	284.89	79.71	62.68	18.429	3.0554e-06	25.741	213.344	150.408	33.668	21.965	233.037	199.768	22.191	29.693	241.783	140.242	29.378	35.703	36.932	43.868	217.867	43.632	-8191	255	
1467.476	1	1	0	0	0.11471	0.11382	0.043285	0.14171	0.082576	0.1343	0.089252	0.10306	0.12344	0.069777	0.2504	0.27647	0.24226	0.21551	0.21143	0.14318	-3.125	-3.2167	-2.7667	-3.8187	-2.9583	-3.4458	-3.7	-2.9813	-3.5646	-3.3375	-2.8917	-3.9	-3.0271	-3.2271	-3.3125	-2.9292	294.081	134.217	212.600	115.682	125.292	216.748	243.479	219.260	228.138	319.686	286.509	214.636	52.322	232.222	23.825	46.568	0.00015843	0.00049535	0.00015981	1071.1	7.7889e-07	2.6147e-06	1167.8	225.72	4.9645e-06	5.2819e-06	287.3	79.82	62.28	18.024	1.9577e-06	25.261	0.00027222	0.00027723	7.5365e-05	1050.1	3.0755e-06	2.9907e-06	1143.2	224.04	3.0333e-06	2.976e-06	283.92	79.574	62.556	18.459	3.009e-06	25.677	201.203	62.484	366.671	22.111	92.133	145.400	22.419	29.923	216.020	179.380	29.367	36.345	36.925	43.822	184.911	43.407	-8191	255	
1467.572	1	1	0	0	0.34523	0.307	0.17526	0.11597	0.10389	0.11744	0.067513	0.083572	0.075802	0.10241	0.18414	0.13849	0.33236	0.10323	0.17814	0.17539	-3.075	-3.2979	-2.9958	-3.7854	-2.9625	-3.2687	-3.8292	-2.9896	-3.4979	-3.4333	-2.9813	-3.7042	-3.2708	-3.1271	-3.6063	-3.0417	295.254	185.250	177.246	325.666	146.450	186.512	326.288	296.117	125.649	241.164	280.254	299.261	268.037	144.968	115.198	226.841	0.00019843	0.00036718	8.3233e-05	1072.7	2.6823e-06	1.388e-06	1166.3	224.6	2.6203e-06	3.385e-06	286.96	79.92	62.148	18.155	2.3208e-06	25.488	0.0002756	0.0002762	7.7933e-05	1051.9	2.9986e-06	3.028e-06	1142.2	223.77	2.9627e-06	2.9745e-06	283.24	79.864	62.429	18.476	2.939e-06	25.743	205.498	57.683	97.762	22.416	314.619	158.853	22.390	30.334	272.169	164.925	30.010	36.123	37.076	43.819	129.263	43.275	-8191	255	
1467.693	1	1	0	0	0.18698	0.21406	0.067246	0.24464	0.11128	0.14046	0.17972	0.13454	0.14593	0.06609	0.060748	0.01889	0.12172	0.21397	0.10317	0.16802	-3.0104	-3.1625	-2.8708	-3.6917	-3.075	-3.1167	-3.6437	-2.8229	-3.3333	-3.4583	-2.9583	-3.5646	-3.1104	-2.9729	-3.5146	-2.9083	341.023	306.493	261.989	360.809	34.381	86.164	265.101	70.022	21.359	77.134	248.258	180.354	306.276	105.515	354.731	106.338	0.00014268	0.00023332	6.1637e-05	1070.2	4.4979e-06	4.8409e-06	1161.5	225.12	3.9955e-06	3.8117e-06	289.91	79.744	62.707	18.138	3.0433e-06	25.168	0.0002638	0.00027203	7.5645e-05	1049	3.0108e-06	2.9329e-06	1139.7	224.28	2.8856e-06	2.8865e-06	283.42	79.709	62.535	18.392	2.8959e-06	25.55	215.950	201.923	351.105	22.414	226.055	175.444	22.468	30.053	237.300	161.075	29.351	36.728	37.017	44.342	365.108	43.396	-8191	255	
1467.788	1	1	0	0	0.057957	0.064736	0.17522	0.19506	0.063565	0.19156	0.15573	0.20053	0.13355	0.18303	0.21088	0.17169	0.12185	0.075791	0.063477	0.058321	-2.7938	-3.4917	-2.6375	-3.7083	-3.2833	-2.8708	-3.7667	-3.0833	-3.1354	-3.6333	-2.9	-3.6208	-3.4062	-2.9062	-3.5542	-3.0125	38.891	239.926	177.972	343.457	222.180	317.063	221.078	268.695	300.796	291.791	298.214	278.084	151.594	81.997	354.625	341.410	0.00015633	0.0001457	0.00019758	1067.3	6.0957e-06	2.7159e-06	1161.6	224.72	3.0869e-06	1.9606e-06	287.86	79.384	61.92	18.147	2.5166e-06	25.273	0.00026382	0.0002666	7.4049e-05	1048.7	2.9255e-06	2.9353e-06	1139.8	223.51	2.9521e-06	2.8469e-06	283.26	79.483	62.24	18.434	2.7542e-06	25.614	208.438	105.589	62.203	22.650	201.654	319.348	22.835	30.283	231.405	199.695	30.021	36.972	37.264	43.962	93.645	43.774	-8191	255	
1467.885	1	1	0	0	0.16893	0.062121	0.026407	0.18529	0.027698	0.090215	0.1294	0.43859	0.11633	0.20831	0.13358	0.1205	0.19618	0.10253	0.15222	0.13859	-2.7833	-3.6646	-2.9708	-3.4875	-3.3792	-2.7583	-3.7458	-3.0854	-2.8771	-3.5104	-2.8729	-3.525	-3.3583	-2.7687	-3.625	-3.2125	71.345	296.572	299.379	271.254	19.638	213.050	15.771	318.632	182.159	334.287	101.566	369.145	310.696	169.604	200.653	113.024	0.00018958	0.00017859	0.00012302	1069.6	3.3685e-06	3.4672e-06	1162.4	224.67	1.3569e-06	1.4577e-06	285.82	79.265	61.769	18.155	2.2305e-06	25.253	0.00026003	0.00025027	7.3209e-05	1048.7	2.845e-06	2.7565e-06	1139.2	223.89	2.8401e-06	2.7644e-06	281.4	79.31	62.169	18.38	2.7551e-06	25.577	195.590	122.824	75.724	22.546	161.934	160.942	22.831	30.381	166.364	105.600	29.810	36.923	37.426	44.223	205.960	43.752	-8191	255	
1468.004	1	1	0	0	0.19542	0.1209	0.20831	0.17532	0.03776	0.050075	0.1041	0.15113	0.078203	0.091797	0.15694	0.15965	0.067062	0.043635	0.11096	0.2996	-2.6583	-3.5917	-2.8438	-3.5312	-3.3146	-2.8396	-3.7542	-3.4062	-3.0729	-3.725	-2.8854	-3.2625	-3.5729	-2.6729	-3.5542	-3.2479	29.592	36.528	112.208	312.801	170.902	57.352	209.633	165.652	244.141	83.805	366.216	14.155	334.363	270.284	358.893	337.399	0.00017553	0.00032154	0.00019203	1069.9	3.6495e-06	4.051e-06	1160.5	225.07	1.9576e-06	2.6925e-06	287.1	79.137	62.255	17.912	2.5721e-06	25.245	0.00025024	0.0002546	6.9229e-05	1047.3	2.7949e-06	2.8896e-06	1140.3	222.91	2.8618e-06	2.7392e-06	281.74	79.2	62.342	18.314	2.744e-06	25.564	201.009	149.500	66.928	22.905	227.309	138.612	23.173	30.516	187.225	163.270	29.860	36.656	37.709	44.236	220.392	43.319	-8191	255	
1468.076	1	1	0	0	0.093289	0.21937	0.057066	0.015551	0.18209	0.069354	0.32071	0.17026	0.10762	0.21209	0.059418	0.11898	0.077694	0.10062	0.097948	0.053739	-2.6063	-3.5563	-2.9125	-3.2458	-3.525	-2.8021	-3.5833	-3.1562	-3	-3.6646	-3.1042	-3.225	-3.5417	-2.8208	-3.4375	-3.3646	301.695	305.069	127.190	47.624	183.369	219.907	354.550	329.758	271.498	173.378	339.893	44.748	74.922	102.732	365.481	267.705	0.00021842	0.00029826	0.00019925	1070.2	1.7399e-06	3.0327e-06	1159	225.32	2.77e-06	2.9447e-06	286.08	78.603	62.529	18.138	1.6783e-06	25.46	0.00025056	0.00026098	7.1001e-05	1049	2.8286e-06	2.7708e-06	1138.8	223.76	2.8516e-06	2.7986e-06	280.92	79.213	62.452	18.4	2.8089e-06	25.65	229.965	39.931	63.908	22.560	207.169	207.046	23.068	30.460	222.284	201.852	29.440	36.620	37.220	43.798	163.072	43.281	-8191	255	
1468.172	1	1	0	0	0.10613	0.42758	0.12648	0.33683	0.13168	0.1175	0.33794	0.063066	0.10674	0.083596	0.26488	0.20752	0.099903	0.063787	0.045757	0.037743	-2.5521	-3.5812	-2.8979	-3.1813	-3.5917	-2.9562	-3.5208	-3.4188	-2.7021	-3.6437	-3.0187	-3.0083	-3.5604	-2.7313	-3.4021	-3.3625	321.456	223.772	209.750	345.135	49.314	124.964	310.198	231.295	116.423	302.907	300.708	358.202	283.478	67.153	298.707	19.636	0.0001931	0.00031377	0.00010544	1064.1	2.018e-06	3.2784e-06	1164.7	225.3	2.7186e-06	1.1589e-06	286.56	79.556	62.149	18.225	3.4795e-06	25.317	0.00025216	0.00025657	7.109e-05	1046.9	2.8595e-06	2.8568e-06	1140.9	223.59	2.8631e-06	2.8128e-06	281.86	79.44	62.295	18.407	2.8046e-06	25.619	211.479	109.962	135.399	22.751	174.946	203.758	22.869	30.424	188.895	184.488	29.678	36.515	36.955	43.828	186.036	43.260	-8191	255	
1468.293	1	1	0	0	0.22335	0.13833	0.23533	0.15007	0.055048	0.041557	0.21	0.12613	0.21664	0.079683	0.034273	0.11751	0.20873	0.070095	0.1846	0.24567	-2.4021	-3.5458	-2.9667	-3.0542	-3.7104	-2.8417	-3.4021	-3.5896	-2.7375	-3.5479	-3.2792	-2.9354	-3.5583	-3.0354	-3.2125	-3.4583	111.377	311.491	61.489	352.996	159.638	89.736	338.533	371.693	134.076	363.763	26.928	317.753	302.812	56.351	307.056	199.937	0.0001526	0.00028084	0.000113	1066.2	2.9644e-06	5.2452e-06	1163.9	224.12	3.2784e-06	4.7914e-06	288.62	79.482	62.104	17.941	3.5147e-06	25.327	0.0002583	0.00026126	7.058e-05	1047.6	2.838e-06	2.7984e-06	1138.9	223.46	2.769e-06	2.7886e-06	282.97	79.321	62.287	18.341	2.7784e-06	25.546	203.758	45.234	170.922	22.505	205.520	150.746	22.947	30.089	191.633	160.155	29.992	36.803	37.581	44.036	254.727	43.314	-8191	255	
1468.389	1	1	0	0	0.18116	0.22094	0.12041	0.37671	0.15068	0.26585	0.16649	0.14783	0.12178	0.11278	0.18033	0.15699	0.079474	0.13899	0.054436	0.081185	-2.3375	-3.4	-3.1854	-2.9542	-3.7562	-3.0687	-3.2417	-3.7604	-2.7687	-3.3896	-3.2375	-2.7938	-3.5958	-2.875	-2.9583	-3.6521	254.715	85.702	73.851	289.809	320.234	17.033	337.323	285.508	116.322	320.746	40.931	205.443	123.915	99.111	294.655	21.042	0.00017389	0.00016517	0.00010453	1065.5	3.2619e-07	2.0099e-06	1164.5	225.16	3.4264e-06	2.1044e-06	285.08	79.233	62.027	18.048	3.1942e-06	25.264	0.00025786	0.00025484	7.2514e-05	1047.6	2.8089e-06	2.8457e-06	1140.5	223.47	2.838e-06	2.7928e-06	281.48	79.344	62.317	18.38	2.8271e-06	25.645	206.670	131.916	52.985	22.868	174.326	124.658	23.272	30.299	179.791	121.148	29.522	35.803	36.301	43.164	246.325	42.593	-8191	255	
1468.485	1	1	0	0	0.060537	0.062514	0.099526	0.27898	0.13692	0.11325	0.27205	0.18424	0.13272	0.19088	0.24808	0.021856	0.24286	0.1464	0.055236	0.059442	-2.4396	-3.3063	-3.2854	-2.9208	-3.5792	-3.2667	-3.2042	-3.7417	-2.9958	-3.3667	-3.5687	-2.9583	-3.5792	-3.3354	-2.8583	-3.5896	363.677	277.128	327.728	271.594	80.203	327.111	286.354	323.137	185.914	332.658	93.533	119.159	339.658	82.985	28.019	233.199	0.00014763	0.00062675	0.00010931	1067	6.5312e-06	4.8656e-06	1165.8	225.03	2.361e-06	5.7933e-06	288.82	79.454	62.035	17.984	3.9089e-06	25.378	0.00026058	0.0002638	7.3911e-05	1048.2	2.8836e-06	2.9352e-06	1142.5	223.67	2.9481e-06	2.9686e-06	283.53	79.511	62.506	18.389	2.9989e-06	25.662	215.440	101.361	143.629	21.676	189.094	168.342	21.763	29.503	170.823	134.314	28.540	35.659	36.245	43.096	204.911	42.235	-8191	255	
1468.606	1	1	0	0	0.018901	0.057198	0.13349	0.1793	0.21852	0.066056	0.18268	0.4175	0.19995	0.13264	0.22352	0.23453	0.32663	0.14074	0.15647	0.21073	-2.4833	-3.2562	-3.4104	-2.9437	-3.5875	-3.2188	-3.0125	-3.7125	-2.925	-3.225	-3.5396	-2.8896	-3.5708	-3.4167	-3.0312	-3.6021	147.197	269.398	265.786	78.433	249.763	280.600	98.520	122.717	291.029	314.916	178.061	323.720	367.182	343.966	282.220	310.412	0.00018498	0.00014199	0.00021362	1066.4	1.827e-07	5.2512e-06	1160	224.17	3.5947e-06	1.514e-06	288.31	79.498	61.966	18.007	3.9295e-06	25.091	0.00027001	0.00027655	7.512e-05	1047.8	3.0903e-06	3.0491e-06	1141.9	223.23	3.0113e-06	2.9975e-06	283.59	79.298	62.344	18.365	2.958e-06	25.59	209.031	330.951	65.871	21.428	184.892	142.193	21.916	29.449	237.825	59.695	28.818	35.746	36.330	42.995	190.150	42.848	-8191	255	
1468.677	1	1	0	0	0.25188	0.099909	0.31808	0.31018	0.21744	0.15992	0.2478	0.063487	0.1513	0.095341	0.19755	0.13629	0.23837	0.21163	0.19738	0.22041	-2.8063	-3.0396	-3.5229	-2.9583	-3.3542	-3.5021	-2.9292	-3.7604	-3.0833	-3.0167	-3.5917	-2.8375	-3.5083	-3.3958	-2.7479	-3.7479	40.220	41.693	365.688	362.015	345.352	104.297	302.399	254.476	247.288	35.104	173.513	317.948	202.649	219.990	137.946	237.113	0.00011654	0.00035641	3.0621e-05	1064.7	3.7031e-06	1.7326e-06	1160	225.42	3.9584e-06	3.7138e-06	286.44	79.001	62.095	18.166	4.0734e-07	25.372	0.00026532	0.00028091	7.6569e-05	1049.1	3.0259e-06	3.0217e-06	1141.8	224.38	3.079e-06	3.0862e-06	284.2	79.597	62.579	18.464	3.0409e-06	25.692	211.139	93.627	127.415	21.839	254.669	118.400	21.923	29.182	201.158	142.177	28.954	35.583	36.496	43.422	97.094	42.406	-8191	255	
1468.774	1	1	0	0	0.11237	0.24275	0.10113	0.18588	0.13075	0.11976	0.16193	0.21434	0.080848	0.12194	0.20691	0.17739	0.18568	0.18496	0.18587	0.13268	-2.6896	-3.1958	-3.6646	-3.1729	-3.3208	-3.4042	-2.9104	-3.5187	-3.1771	-3.0167	-3.5604	-2.8979	-3.3063	-3.5083	-2.7667	-3.5104	74.361	254.066	184.849	341.953	341.800	224.581	344.486	347.690	33.004	368.349	296.758	365.935	298.490	197.438	354.296	317.328	0.00016002	0.00047132	0.00010872	1070.4	7.9903e-07	4.211e-06	1162.5	225.3	1.9351e-06	1.4357e-06	287.19	79.074	61.903	18.169	4.9004e-06	25.227	0.00027338	0.00028259	7.8948e-05	1049	3.1278e-06	3.1257e-06	1140	223.83	3.1684e-06	3.0796e-06	284	79.676	62.328	18.452	3.1202e-06	25.66	219.171	112.513	172.503	21.848	270.906	255.258	22.181	29.750	156.003	322.653	29.175	35.496	36.248	42.768	228.307	42.852	-8191	255	
1468.868	1	1	0	0	0.16987	0.22623	0.04888	0.28033	0.059054	0.18518	0.036199	0.27519	0.060642	0.23022	0.0813	0.35591	0.42929	0.054154	0.0957	0.25474	-2.7833	-2.9583	-3.4708	-3.0167	-3.0646	-3.475	-2.9167	-3.5729	-3.2479	-2.9625	-3.5667	-3.1	-3.1188	-3.6479	-2.9396	-3.5646	239.528	52.629	353.749	334.826	44.956	60.184	156.902	65.215	196.261	36.699	222.960	17.865	18.757	179.779	358.743	131.145	0.00014655	0.00032141	0.00014015	1070.6	4.4834e-06	3.7777e-06	1165.5	225.53	3.6826e-06	2.9097e-06	287.65	79.225	62.36	18.222	2.9954e-06	25.195	0.00028158	0.00028992	7.8058e-05	1050.7	3.1725e-06	3.0912e-06	1140.6	224.01	3.064e-06	3.0848e-06	283.39	79.596	62.462	18.516	3.1238e-06	25.668	220.354	169.170	92.279	21.443	161.180	179.214	21.665	29.309	174.154	151.482	29.042	35.924	36.440	43.131	249.258	42.553	-8191	255	
1468.989	1	1	0	0	0.143	0.23135	0.26352	0.064124	0.11202	0.13765	0.29107	0.19803	0.20634	0.14465	0.060028	0.33073	0.15476	0.17939	0.063074	0.045394	-3.0917	-2.8958	-3.4875	-3.1833	-2.9875	-3.4938	-3.0083	-3.3	-3.1958	-2.9146	-3.5792	-3.1958	-3.1104	-3.6375	-2.8063	-3.4188	175.940	114.083	317.542	327.670	181.025	244.095	294.286	248.431	329.657	298.111	183.948	69.824	164.283	344.875	71.295	226.121	0.00021104	0.00050033	0.00011636	1065.8	5.1681e-06	2.6674e-06	1157.4	224.59	3.3215e-06	6.1637e-06	286.37	79.175	61.928	18.086	2.9611e-06	25.434	0.000279	0.00028722	7.8911e-05	1047.5	3.1199e-06	3.1377e-06	1139.7	223.36	3.0735e-06	3.0619e-06	283.38	79.447	62.608	18.427	3.0756e-06	25.713	213.613	95.273	114.736	21.488	208.897	246.973	21.522	29.231	203.549	163.720	28.558	35.340	36.284	42.895	154.497	42.502	-8191	255	
1469.085	1	1	0	0	0.29187	0.28455	0.32138	0.18133	0.11848	0.0060317	0.086209	0.10859	0.17569	0.019113	0.054186	0.12561	0.17227	0.080978	0.17758	0.059829	-3.0875	-2.825	-3.5583	-3.2208	-2.7375	-3.6354	-3.0479	-3.2271	-3.5667	-2.7687	-3.4958	-3.3812	-2.9646	-3.7208	-3.0771	-3.3167	80.859	154.321	82.979	64.826	160.880	327.790	355.747	245.511	317.127	111.843	241.866	38.504	246.173	319.327	311.114	169.749	0.00017114	0.00013658	6.6434e-05	1068.6	4.2246e-06	3.0647e-06	1160.3	224.57	2.4068e-06	3.0744e-06	286.91	79.018	62.156	18.131	1.6067e-06	25.31	0.00027514	0.00028361	7.7814e-05	1048.6	3.1358e-06	3.0047e-06	1138.2	223.72	3.1002e-06	3.0063e-06	283.77	79.584	62.35	18.466	3.003e-06	25.68	220.182	163.808	319.472	21.402	201.023	162.072	21.632	28.985	182.356	369.810	28.397	35.498	36.200	42.667	230.487	42.149	-8191	255	
1469.181	1	1	0	0	0.10049	0.1917	0.16256	0.29334	0.079111	0.20156	0.088221	0.20202	0.2219	0.1845	0.1164	0.14811	0.16211	0.19745	0.073553	0.33796	-3.1521	-2.7458	-3.5625	-3.2917	-3.0646	-3.7188	-3.1042	-3.0333	-3.4688	-2.85	-3.4396	-3.4979	-2.9042	-3.6354	-3.1312	-3.0646	256.904	210.785	109.170	304.085	20.098	129.928	219.297	330.769	30.217	246.822	347.415	310.884	296.393	260.926	315.699	370.279	0.00020579	0.00012559	6.476e-05	1063.4	9.2905e-07	1.1296e-06	1162.3	223.63	1.7868e-06	2.9312e-06	289.66	79.323	61.959	18.197	2.1488e-06	25.205	0.00027218	0.00027907	7.7385e-05	1046.3	3.1088e-06	3.0651e-06	1139.4	223.16	3.0845e-06	3.1066e-06	284.24	79.777	62.415	18.484	3.0522e-06	25.647	203.741	76.651	97.326	21.317	276.814	89.787	21.503	29.208	206.668	165.948	28.494	35.237	36.242	43.103	193.903	42.251	-8191	255	
1469.277	1	1	0	0	0.13583	0.39962	0.066684	0.13282	0.15615	0.049291	0.5317	0.13917	0.088785	0.10603	0.060159	0.26846	0.10843	0.078965	0.2077	0.32815	-3.1625	-2.9708	-3.4833	-3.6937	-2.8146	-3.5438	-3.1312	-3.0438	-3.6396	-2.7979	-3.35	-3.4583	-2.8688	-3.5125	-3.3063	-2.8292	317.385	254.503	89.421	368.753	317.184	243.402	292.081	239.470	96.457	268.623	317.762	155.957	94.868	55.461	362.661	230.359	0.00020483	0.00036994	0.00011207	1065.2	1.1288e-06	2.2233e-06	1158	224.77	3.5369e-06	3.3075e-06	289.11	79.242	62.68	18.119	4.6749e-06	25.175	0.00028313	0.00027891	7.8341e-05	1047.8	3.231e-06	3.1104e-06	1137.9	223.68	3.1275e-06	3.1234e-06	284.54	79.529	62.71	18.462	3.1425e-06	25.654	207.810	328.390	56.370	21.171	132.319	325.209	21.803	28.986	193.873	154.994	28.820	35.300	35.906	43.056	214.289	43.134	-8191	255	
1469.373	1	1	0	0	0.18499	0.24646	0.039748	0.20241	0.35676	0.08439	0.045901	0.11938	0.3092	0.10879	0.082325	0.13738	0.06482	0.22771	0.1263	0.25082	-3.2083	-2.9854	-3.1125	-3.6292	-2.7979	-3.4771	-3.3979	-2.7208	-3.5979	-2.9083	-3.0292	-3.5854	-2.9042	-3.4958	-3.3563	-2.8896	71.279	100.872	102.860	315.599	125.781	304.467	67.930	343.600	277.477	152.436	16.933	295.586	59.088	33.761	331.071	314.006	0.00013065	0.0002709	0.00015996	1066.3	6.7051e-06	5.3386e-06	1162.4	225.25	5.0753e-06	4.5118e-06	287.42	78.942	62.213	18.094	3.0958e-06	25.289	0.00028412	0.00028494	8.0044e-05	1048.5	3.125e-06	3.2033e-06	1139.6	224.07	3.1469e-06	3.1278e-06	283.6	79.516	62.54	18.432	3.0593e-06	25.672	206.340	54.395	166.828	21.398	187.682	163.153	21.601	29.336	228.985	92.155	29.240	35.355	35.838	42.860	161.126	42.577	-8191	255	
1469.469	1	1	0	0	0.23103	0.26447	0.31662	0.24846	0.074122	0.15375	0.1544	0.12171	0.075925	0.24748	0.032713	0.12618	0.11473	0.02738	0.28356	0.1229	-3.1542	-3.0667	-3.1854	-3.6958	-2.9375	-3.2292	-3.5187	-2.9583	-3.5104	-3.0667	-3.1375	-3.5438	-2.8271	-3.3896	-3.3563	-2.8167	217.891	315.379	254.275	368.226	203.784	345.152	337.879	18.754	110.750	22.521	91.738	243.339	24.871	249.643	289.333	217.446	0.00014212	0.00078084	9.0276e-05	1063.8	2.782e-06	2.0399e-06	1160.9	225.02	4.3254e-06	3.9246e-06	287.79	79.001	62.566	18.12	2.5931e-06	25.486	0.00027574	0.00029074	7.8905e-05	1048	3.1196e-06	3.0517e-06	1139	224.08	3.024e-06	3.0377e-06	282.8	79.519	62.659	18.454	3.0792e-06	25.696	214.804	93.926	176.571	21.752	182.120	104.310	21.804	29.454	182.312	177.773	28.529	35.700	36.081	42.953	166.598	42.496	-8191	255	
1469.565	1	1	0	0	0.13468	0.23996	0.13953	0.22101	0.082258	0.15564	0.2037	0.23635	0.1019	0.14896	0.13404	0.31631	0.15151	0.12723	0.15256	0.21161	-3.1979	-3.0896	-2.9521	-3.6979	-2.8438	-3.2333	-3.6542	-2.9646	-3.575	-3.2021	-2.7667	-3.6458	-3.2021	-3.2396	-3.6104	-2.9396	286.553	320.357	172.068	325.074	45.333	27.859	264.793	314.879	201.315	196.942	138.643	147.546	262.219	72.846	154.794	326.493	0.00016416	0.00078184	3.4384e-05	1058.8	4.7781e-06	1.401e-06	1159.6	225.16	4.4449e-06	5.1538e-06	287.77	79.442	61.852	18.087	2.4007e-06	25.216	0.00027081	0.00028241	7.8327e-05	1045.3	3.0585e-06	3.0723e-06	1138.7	224.18	3.0831e-06	2.9954e-06	283.95	79.606	62.331	18.459	2.9693e-06	25.647	217.067	78.316	38.139	21.420	138.977	125.990	21.691	29.277	290.093	149.815	28.931	35.648	36.379	43.415	114.475	42.495	-8191	255	
1469.686	1	1	0	0	0.17779	0.098766	0.031603	0.14145	0.12271	0.14023	0.25004	0.33027	0.15019	0.12265	0.14998	0.27776	0.14522	0.21334	0.059935	0.23425	-3.0979	-3.2375	-2.6917	-3.7583	-3.1479	-3	-3.525	-2.9354	-3.4292	-3.3875	-3.0292	-3.6417	-2.9833	-3.1333	-3.7104	-2.9271	19.780	146.323	290.940	320.534	324.203	186.021	274.847	72.529	198.131	259.414	338.318	77.191	32.517	162.314	284.900	95.989	0.0001512	0.00029369	1.5578e-05	1067.4	1.5308e-06	8.3628e-06	1153.3	225.14	5.6468e-06	7.6154e-06	289.42	79.461	62.141	18.272	4.2191e-06	25.208	0.0002738	0.00027865	7.7572e-05	1048.5	3.0589e-06	3.0311e-06	1137.3	223.49	3.0304e-06	3.0495e-06	284.3	79.314	62.473	18.438	3.1169e-06	25.635	211.097	203.738	333.596	21.465	87.050	214.313	21.932	29.119	198.263	185.492	29.095	35.715	36.330	42.892	228.806	42.424	-8191	255	
1469.782	1	1	0	0	0.1438	0.071168	0.096071	0.038869	0.11745	0.17093	0.10108	0.24955	0.097224	0.24188	0.37158	0.06052	0.25174	0.14276	0.21973	0.18221	-3.0479	-3.4854	-2.9625	-3.5583	-3.15	-2.9792	-3.8333	-3.0083	-3.1979	-3.3333	-2.875	-3.675	-3.125	-3.0958	-3.7646	-2.9396	145.311	25.597	350.255	272.283	365.162	342.640	297.562	336.209	213.946	162.008	30.578	185.319	185.493	48.763	281.747	221.077	0.0001919	0.00047286	8.0761e-05	1061	2.0574e-06	6.5952e-06	1159.4	225.2	1.6631e-06	6.7173e-07	287.5	78.536	62.217	18.161	4.2733e-06	25.313	0.00027524	0.00028477	8.0113e-05	1046.6	3.1683e-06	3.1037e-06	1139.7	223.77	3.0755e-06	3.0148e-06	283.57	79.312	62.497	18.472	3.0201e-06	25.69	207.527	59.287	167.148	21.734	184.905	192.138	21.760	29.295	177.758	219.985	28.746	36.024	36.187	43.250	246.912	42.015	-8191	255	
1469.877	1	1	0	0	0.2398	0.11953	0.10867	0.21544	0.13797	0.15915	0.043985	0.19349	0.014801	0.15947	0.36296	0.12491	0.1418	0.17431	0.10468	0.082716	-2.7958	-3.475	-2.7417	-3.5917	-3.1875	-2.8083	-3.7313	-2.8979	-2.9125	-3.3854	-2.6729	-3.4188	-3.3125	-2.9354	-3.5229	-2.9833	315.193	12.816	135.003	286.381	121.098	283.836	299.928	348.420	168.249	367.489	16.417	329.732	360.521	333.010	367.233	309.242	0.0001765	0.00039681	4.8846e-05	1064.2	5.1667e-06	6.8038e-06	1158.5	226.32	2.4907e-06	5.0954e-06	287.28	79.284	61.999	18.252	2.5579e-06	25.178	0.00027642	0.00028175	7.8132e-05	1048.3	3.1219e-06	3.0948e-06	1139.4	224.18	3.0225e-06	3.0471e-06	283.44	79.621	62.354	18.467	2.9824e-06	25.647	224.767	120.475	52.512	21.691	213.252	178.827	21.756	29.115	205.829	189.736	28.705	35.624	36.132	43.273	201.983	42.341	-8191	255	
1469.973	1	1	0	0	0.23844	0.059371	0.20255	0.26044	0.087511	0.26142	0.13747	0.022136	0.065472	0.14234	0.20778	0.10396	0.079671	0.28502	0.142	0.29113	-2.6083	-3.7	-2.8688	-3.5167	-3.625	-2.8125	-3.7875	-3.2208	-2.9292	-3.6292	-3.0271	-3.3063	-3.6375	-2.9562	-3.5542	-3.4083	221.756	140.520	49.454	305.395	91.671	133.026	24.234	139.692	142.259	72.805	317.878	281.120	65.633	233.563	238.179	139.598	0.00015945	0.00032352	0.00019106	1063.6	4.2585e-06	3.3057e-06	1161.3	225.62	4.4896e-06	4.03e-06	286.59	79.49	62.071	18.015	6.2987e-06	25.165	0.00027156	0.00027891	7.5642e-05	1047.1	3.0866e-06	3.076e-06	1139.3	224.02	3.0396e-06	3.0232e-06	283.23	79.795	62.426	18.393	3.0245e-06	25.692	215.132	89.071	85.722	21.758	171.716	122.865	21.839	29.243	213.154	151.232	28.620	35.676	35.979	43.280	216.314	42.532	-8191	255	
1470.069	1	1	0	0	0.2001	0.3288	0.11065	0.12827	0.20254	0.29581	0.28862	0.1246	0.14188	0.12476	0.20901	0.028844	0.20421	0.33145	0.15786	0.044571	-2.5229	-3.5542	-2.8042	-3.275	-3.4958	-2.7375	-3.6375	-3.3167	-2.9792	-3.4792	-3.0104	-3.2729	-3.5083	-2.9625	-3.5687	-3.3771	191.660	285.936	137.869	322.670	189.501	102.705	312.632	31.132	115.079	191.747	316.458	258.451	18.706	266.657	347.341	196.716	0.00016171	0.00041662	0.00013351	1070.8	4.5939e-06	4.339e-06	1162.2	224.74	9.0242e-07	3.4208e-06	286.47	79.461	62.096	18.083	3.4153e-06	25.412	0.00028008	0.00027824	7.7298e-05	1048.9	3.1486e-06	3.0692e-06	1140.2	223.87	3.0979e-06	3.0351e-06	282.1	79.609	62.471	18.396	2.9848e-06	25.684	216.506	173.060	110.129	21.667	161.380	191.872	22.014	29.136	71.683	156.110	28.782	36.065	36.657	43.123	234.723	42.388	-8191	255	
1470.165	1	1	0	0	0.024913	0.028022	0.31026	0.29801	0.11365	0.094219	0.24743	0.30812	0.14534	0.19933	0.16145	0.27511	0.2	0.1778	0.20343	0.086897	-2.3646	-3.5979	-3.0083	-3.3917	-3.4396	-2.8917	-3.6021	-3.4292	-2.8438	-3.7125	-3.1562	-3.0438	-3.7896	-2.8771	-3.2708	-3.5375	362.781	297.407	120.369	357.503	258.245	145.712	12.593	29.472	33.377	174.443	265.927	365.041	252.128	319.894	207.501	134.494	0.00017171	0.00022304	4.2171e-05	1071.4	2.5087e-06	2.0996e-06	1161.2	227.07	2.607e-06	5.5273e-06	286.31	78.964	62.004	18.148	2.16e-06	25.221	0.00027103	0.00027185	7.5559e-05	1049.5	3.0151e-06	2.9567e-06	1140.4	224.21	2.9489e-06	2.9151e-06	282.89	79.567	62.361	18.399	2.9672e-06	25.577	205.809	80.548	362.836	21.700	153.757	258.983	22.181	29.659	241.831	136.521	29.303	36.191	36.569	44.052	168.351	42.804	-8191	255	
1470.286	1	1	0	0	0.23717	0.28896	0.084488	0.16179	0.13871	0.1388	0.13441	0.098473	0.24049	0.19312	0.1034	0.1708	0.1077	0.39003	0.25742	0.17573	-2.5729	-3.5646	-3.1104	-2.975	-3.5187	-2.95	-3.6104	-3.4562	-2.9083	-3.6292	-3.1312	-2.8854	-3.7438	-2.8271	-3.2271	-3.5187	358.758	127.441	92.546	333.853	189.584	120.756	340.980	70.340	335.422	321.497	296.091	336.158	27.238	304.094	105.956	351.949	0.00018264	0.00025359	0.00010281	1071.4	3.4545e-06	4.39e-06	1160.7	224.25	2.4049e-06	7.0059e-06	288.28	78.707	62.081	18.092	4.5038e-06	25.274	0.00026381	0.00026147	7.2542e-05	1050.1	2.9443e-06	2.9492e-06	1139.9	223.25	2.911e-06	2.8769e-06	283.03	79.242	62.329	18.393	2.8265e-06	25.595	216.077	28.640	81.966	21.945	199.799	163.542	22.112	29.616	207.087	163.426	29.345	36.190	36.565	43.043	166.269	42.615	-8191	255	
1470.382	1	1	0	0	0.034622	0.15861	0.21224	0.24281	0.055411	0.097942	0.34477	0.047912	0.35272	0.1826	0.25989	0.11857	0.17665	0.094859	0.23624	0.29369	-2.2313	-3.3396	-3.25	-3.0417	-3.5646	-2.9667	-3.45	-3.8833	-2.9146	-3.6083	-3.3333	-3.1375	-3.7062	-3.0833	-3.0729	-3.675	184.533	123.814	145.090	70.516	168.178	101.177	287.335	332.327	102.834	299.871	46.141	320.703	368.488	328.616	32.956	317.198	0.00019269	0.00043438	0.00012053	1065.8	4.4366e-06	2.9631e-06	1165.1	224.93	3.6811e-06	2.2202e-06	287.34	78.712	62.107	18.011	4.524e-06	25.238	0.00025705	0.00025764	7.2072e-05	1046.1	2.8144e-06	2.8228e-06	1140.6	223.47	2.7413e-06	2.7742e-06	282.55	79.213	62.267	18.356	2.7233e-06	25.545	214.021	119.779	108.475	21.956	190.522	128.384	21.930	29.137	217.773	149.295	28.671	35.715	36.436	42.949	223.108	42.548	-8191	255	
1470.478	1	1	0	0	0.30673	0.1141	0.2179	0.26719	0.21235	0.023527	0.41743	0.21913	0.18277	0.27543	0.11294	0.22717	0.34085	0.20972	0.16958	0.20661	-2.45	-3.3438	-3.4437	-2.9813	-3.5771	-3.2313	-3.1708	-3.8063	-2.9188	-3.3438	-3.5	-3.0875	-3.5938	-3.2854	-2.9729	-3.7396	334.570	234.415	98.356	313.399	96.763	212.079	344.688	214.482	171.131	128.385	88.106	81.962	58.973	70.338	35.250	13.612	0.00016937	0.00036595	0.00013146	1067.1	3.4819e-06	4.1486e-06	1154.8	224.11	1.5785e-06	6.9249e-07	287.15	78.716	61.919	18.111	2.8492e-06	25.378	0.00024677	0.00024765	6.9543e-05	1045.2	2.7325e-06	2.6807e-06	1137.2	223.22	2.6835e-06	2.6007e-06	282.24	79.192	62.175	18.3	2.6351e-06	25.563	209.040	97.840	96.146	21.622	211.775	150.213	22.082	29.402	315.141	46.943	29.179	36.097	36.539	43.555	216.939	42.624	-8191	255	
1470.574	1	1	0	0	0.13054	0.13073	0.13517	0.22707	0.11162	0.10511	0.17842	0.12702	0.086808	0.12858	0.18953	0.11971	0.20306	0.10626	0.19003	0.12365	-2.6354	-3.3083	-3.4729	-2.9125	-3.4771	-3.1042	-3.1042	-3.6417	-2.8271	-3.3187	-3.475	-2.8333	-3.6312	-3.1292	-2.9854	-3.7	12.387	233.464	99.512	337.270	236.838	148.901	361.917	114.395	217.988	105.317	315.813	292.091	244.387	39.539	229.020	287.344	0.00013242	0.00033254	6.8065e-05	1060.6	2.0789e-06	4.0931e-06	1157.8	225.12	4.1559e-06	2.7967e-06	288.4	78.551	62.422	17.92	5.3903e-07	25.268	0.00023989	0.00023923	6.7365e-05	1044.2	2.7308e-06	2.7185e-06	1137	223.38	2.8544e-06	2.8577e-06	283.13	79.418	62.393	18.369	3.1043e-06	25.629	204.196	103.696	51.863	21.599	162.373	161.711	22.397	29.736	215.187	182.927	28.956	35.596	36.669	43.474	223.099	43.042	-8191	255	
1470.646	1	1	0	0	0.12227	0.15974	0.066769	0.13087	0.0051528	0.10598	0.25218	0.092401	0.30989	0.076666	0.039847	0.062497	0.0077934	0.24823	0.16382	0.091476	-2.5583	-3.2979	-3.5771	-2.9813	-3.45	-3.25	-3.0208	-3.5625	-2.9271	-3.1292	-3.4208	-2.8854	-3.4875	-3.4667	-2.8083	-3.5708	75.924	164.801	85.446	17.974	171.986	42.936	302.319	274.012	123.072	362.028	326.051	63.943	328.555	55.796	339.957	200.198	0.00018122	0.00050838	0.00016848	1066.9	6.1604e-07	5.1065e-06	1157.2	225.13	7.1695e-06	2.8672e-06	293.28	79.168	62.28	18.199	3.2707e-06	25.519	0.0002754	0.00028242	7.84e-05	1046.8	3.1078e-06	3.0152e-06	1138.8	223.9	2.8879e-06	2.8554e-06	284.15	79.482	62.361	18.435	2.7248e-06	25.657	211.850	115.285	96.203	21.537	212.991	187.415	22.013	29.621	195.403	235.140	28.819	36.041	36.056	43.197	226.912	42.810	-8191	255	
1470.765	1	1	0	0	0.15891	0.21477	0.075162	0.14112	0.099895	0.10928	0.16417	0.0304	0.096139	0.017154	0.11218	0.10526	0.052907	0.10738	0.25814	0.21784	-2.6604	-2.8917	-3.5792	-3.0125	-3.2417	-3.5062	-3.1375	-3.5021	-3.0521	-2.8833	-3.7188	-3.0854	-3.3375	-3.5	-2.8563	-3.5083	352.720	154.080	130.959	319.763	284.385	336.104	263.347	184.704	254.212	303.931	204.722	85.672	258.766	359.257	269.504	83.756	0.00016409	0.00026587	4.9694e-05	1065.7	3.7419e-06	2.0182e-06	1163.1	224.71	2.7555e-06	2.4065e-06	290.89	78.743	62.471	18.06	5.1305e-06	25.206	0.00025052	0.00025393	6.9225e-05	1047.8	2.7112e-06	2.6921e-06	1139.8	223.33	2.6664e-06	2.604e-06	282.86	79.324	62.334	18.357	2.545e-06	25.544	199.304	367.888	108.436	21.760	196.022	172.958	22.168	29.685	107.136	184.476	29.067	36.194	36.185	43.666	256.912	42.784	-8191	255	
1470.861	1	1	0	0	0.1383	0.14315	0.30393	0.13347	0.17137	0.17145	0.29302	0.10536	0.11309	0.036746	0.052836	0.075499	0.27542	0.18894	0.1246	0.20352	-2.7375	-2.6771	-3.4979	-3.1083	-3.0625	-3.4042	-2.9458	-3.4021	-3.1979	-3.0729	-3.5292	-2.9083	-3.1167	-3.6021	-2.7562	-3.5417	103.333	23.223	241.195	326.607	167.902	256.563	305.397	264.974	107.887	251.025	39.376	245.037	359.741	357.292	82.832	224.604	0.00017683	0.00056111	3.3512e-05	1066.5	3.7572e-06	3.1467e-06	1154.7	224.73	2.8967e-06	5.9898e-06	286.9	79.104	62.128	18.071	1.4186e-06	25.22	0.00023236	0.00023638	6.1764e-05	1044.9	2.5475e-06	2.4537e-06	1134.6	222.78	2.405e-06	2.3701e-06	281.08	78.962	62.106	18.26	2.3742e-06	25.466	212.472	120.391	52.255	21.801	150.173	178.027	22.281	29.614	194.230	126.252	28.823	36.089	36.727	43.007	265.742	43.001	-8191	255	
1470.957	1	1	0	0	0.18146	0.078198	0.084734	0.28108	0.20109	0.16627	0.0602	0.10802	0.1779	0.12552	0.12475	0.21079	0.22699	0.11781	0.083611	0.19875	-2.8833	-2.7875	-3.5208	-3.0896	-3.0729	-3.7333	-3.0229	-3.4708	-3.3333	-2.7479	-3.7292	-3.2667	-2.9708	-3.6979	-2.9021	-3.325	207.675	125.914	36.247	361.803	315.023	250.919	36.349	251.677	48.899	177.998	228.115	243.728	354.712	205.114	252.850	330.997	0.0001889	0.00013761	0.00013198	1064.3	3.6128e-06	2.684e-06	1154.6	225.27	3.5839e-06	3.3005e-06	287.21	79.192	61.889	18.033	2.0085e-06	25.337	0.00022297	0.00021762	6.0991e-05	1043.6	2.4232e-06	2.4098e-06	1132.6	223.02	2.4927e-06	2.5405e-06	281.61	78.983	62.282	18.31	2.6276e-06	25.507	212.509	69.896	67.817	22.063	216.869	186.997	22.109	29.519	183.758	164.767	28.901	36.288	36.490	43.417	170.971	42.640	-8191	255	
1471.053	1	1	0	0	0.23319	0.30762	0.20631	0.40544	0.3286	0.10168	0.15007	0.1033	0.070444	0.13797	0.07183	0.077388	0.074545	0.09133	0.13285	0.13924	-3.0604	-2.8417	-3.6125	-3.1833	-2.775	-3.4542	-2.975	-3.2479	-3.5563	-2.8708	-3.55	-3.45	-2.8271	-3.5625	-3.1063	-3.2333	208.215	303.277	43.438	326.976	167.938	239.414	220.889	295.701	45.895	322.944	13.635	69.003	70.815	142.757	368.638	108.888	0.00018369	0.00025223	0.00015061	1066.1	3.4022e-06	4.5125e-06	1160.3	225.4	1.4271e-06	3.0587e-06	290.17	79.045	62.248	17.971	1.3461e-06	25.341	0.00024549	0.00024819	7.0383e-05	1044.5	2.7259e-06	2.6773e-06	1136.2	223.24	2.666e-06	2.6442e-06	282.65	79.05	62.239	18.316	2.5782e-06	25.568	202.607	112.465	62.571	21.697	244.004	153.033	22.102	29.405	187.511	94.441	29.460	35.944	36.566	43.363	170.101	43.197	-8191	255	
1471.174	1	1	0	0	0.25099	0.020058	0.19154	0.1418	0.11784	0.12664	0.21049	0.072153	0.10594	0.032428	0.155	0.19248	0.10704	0.26361	0.039624	0.27475	-3.1146	-2.8271	-3.4354	-3.2833	-2.9646	-3.6792	-3.2083	-3.2229	-3.5458	-2.975	-3.2854	-3.2417	-2.7417	-3.6479	-3.0875	-3.1396	81.080	144.754	141.598	40.563	179.009	137.239	351.149	257.172	110.554	218.115	13.520	28.185	144.170	335.177	32.636	309.121	0.0001577	0.00074987	4.5021e-05	1058.3	2.5773e-06	4.2864e-06	1157.9	224.63	2.2123e-06	2.405e-06	286.76	78.673	62.185	18.021	9.6629e-07	25.32	0.00023204	0.00023548	6.5207e-05	1042.2	2.5516e-06	2.5459e-06	1134.6	222.57	2.4749e-06	2.4947e-06	280.95	78.968	62.114	18.286	2.4222e-06	25.448	208.917	104.575	137.557	21.883	258.221	75.568	22.007	29.593	291.858	200.107	28.922	36.001	36.330	43.009	279.188	42.892	-8191	255	
1471.245	1	1	0	0	0.066997	0.09327	0.21599	0.23451	0.29478	0.28836	0.2242	0.061651	0.1024	0.029359	0.06444	0.21207	0.17049	0.057695	0.14952	0.17386	-3.1875	-2.7375	-3.3271	-3.5208	-2.8812	-3.5417	-3.1792	-3.0646	-3.6021	-2.8792	-3.3	-3.4125	-2.8063	-3.5563	-3.1063	-3.0083	300.944	99.514	358.113	326.767	53.176	183.626	286.811	341.561	69.208	141.666	23.236	359.801	338.447	138.389	295.339	364.794	0.00018415	0.00024066	3.4001e-05	1056.6	2.2012e-06	2.9515e-06	1158.4	223.91	2.4849e-06	3.5581e-06	286.64	79.317	61.893	18.094	8.15e-07	25.306	0.00022065	0.00022214	6.1581e-05	1040.3	2.5123e-06	2.3943e-06	1133.7	222.96	2.3963e-06	2.361e-06	280.27	79.051	61.99	18.291	2.3702e-06	25.466	213.862	89.388	284.734	21.601	45.740	113.428	21.994	29.442	263.400	175.461	29.035	36.006	36.129	43.588	60.862	43.036	-8191	255	
1471.366	1	1	0	0	0.086531	0.16512	0.25232	0.25334	0.18771	0.055514	0.13817	0.071904	0.29922	0.2499	0.24393	0.07644	0.29295	0.19298	0.39311	0.4421	-3.2062	-2.8625	-3.2938	-3.4583	-2.7292	-3.65	-3.2333	-2.9021	-3.5417	-2.9583	-3.1896	-3.5146	-3.0563	-3.4	-3.3542	-2.9	59.089	347.392	270.879	260.829	39.240	367.376	316.324	54.148	84.260	59.544	179.416	35.751	361.836	40.820	222.407	305.341	0.00020023	0.00024458	0.00013227	1062.6	3.463e-06	4.2833e-06	1156.6	225.66	2.7682e-06	3.4038e-06	285.03	79.119	62.174	18.141	1.0608e-06	25.383	0.00021959	0.00022384	6.1264e-05	1041.6	2.4651e-06	2.3587e-06	1133.2	222.82	2.396e-06	2.3946e-06	280.23	79.116	62.051	18.318	2.3666e-06	25.505	198.045	64.390	138.506	21.602	151.006	183.842	21.993	29.413	333.059	120.600	28.441	35.923	36.696	43.232	112.471	42.420	-8191	255	
1471.462	1	1	0	0	0.18542	0.24911	0.18109	0.11382	0.067656	0.18897	0.093704	0.066114	0.042281	0.17211	0.11718	0.20921	0.19734	0.12149	0.15943	0.18818	-3.1937	-3.1167	-2.875	-3.6896	-2.9042	-3.3333	-3.3937	-2.9437	-3.5917	-3.0646	-3.0583	-3.5438	-2.8479	-3.4688	-3.4042	-2.8521	190.876	284.785	112.871	111.723	155.244	43.774	331.546	38.987	117.392	164.107	88.042	262.842	14.574	32.051	316.301	88.196	0.00015055	0.00038195	9.4895e-05	1065.7	1.4471e-06	2.0196e-06	1158.4	223.88	3.7017e-06	5.1814e-06	285.72	78.79	62.037	18.119	1.689e-06	25.167	0.00021927	0.0002187	6.0886e-05	1042.5	2.4139e-06	2.3627e-06	1135.3	222.57	2.3558e-06	2.3667e-06	280.36	78.76	61.948	18.317	2.2731e-06	25.48	200.955	92.333	74.173	21.729	158.258	117.868	22.098	29.603	226.248	167.499	28.632	35.800	36.577	43.399	173.751	42.891	-8191	255	
1471.558	1	1	0	0	0.31288	0.19495	0.056794	0.17219	0.12885	0.16309	0.07209	0.27522	0.14731	0.091609	0.10764	0.14605	0.10823	0.16415	0.053127	0.27953	-3.2458	-3.0062	-2.9562	-3.7333	-2.8604	-3.3729	-3.575	-2.9271	-3.6	-3.3167	-3.1958	-3.7875	-2.9125	-3.1479	-3.5292	-2.8396	352.559	75.255	192.680	337.813	260.172	319.624	69.956	23.726	140.756	44.739	56.679	301.394	323.838	333.399	34.821	334.655	0.0001569	0.00045695	0.00013138	1060.3	1.3938e-06	6.174e-06	1165.4	224.95	2.0365e-06	3.9835e-06	289.85	78.957	61.933	18.088	3.3741e-06	25.313	0.0002143	0.00021321	6.0787e-05	1042	2.4238e-06	2.3836e-06	1137.1	223.02	2.442e-06	2.3974e-06	281.4	79.043	61.99	18.337	2.4016e-06	25.493	205.416	78.584	79.121	21.816	145.595	188.479	22.142	29.407	241.535	149.640	29.051	36.102	36.294	43.581	324.085	43.108	-8191	255	
1471.655	1	1	0	0	0.0545	0.12271	0.28251	0.13623	0.30035	0.22804	0.18661	0.10658	0.265	0.16501	0.12876	0.17542	0.104	0.084714	0.16624	0.21279	-3.1125	-3.1792	-2.95	-3.7438	-3.0187	-3.1896	-3.6875	-2.95	-3.4792	-3.3812	-2.9208	-3.7417	-3.0438	-2.9562	-3.4521	-2.7292	105.336	54.053	299.994	36.937	114.572	235.013	317.721	371.284	85.181	355.534	14.932	43.677	35.627	25.985	92.935	301.483	0.00012031	0.00067533	2.941e-05	1061.5	3.5262e-06	4.2101e-06	1157.2	223.15	3.3411e-06	3.7758e-06	288.12	79.033	61.723	18.215	3.0697e-06	25.412	0.00022939	0.00022912	6.3341e-05	1042.4	2.5078e-06	2.4962e-06	1135	222.44	2.4842e-06	2.4775e-06	281.7	79.076	62.056	18.36	2.5365e-06	25.573	214.449	52.254	92.916	22.072	205.617	254.296	22.257	29.347	280.854	148.239	28.993	36.061	36.558	43.118	239.198	43.040	-8191	255	
1471.775	1	1	0	0	0.22622	0.11856	0.14589	0.22457	0.092786	0.1112	0.27105	0.11535	0.0040042	0.14099	0.13705	0.22747	0.15765	0.087376	0.096917	0.22471	-2.9479	-3.3708	-2.6521	-3.7021	-3.075	-3.0771	-3.9229	-2.9708	-3.3792	-3.5958	-2.8542	-3.7417	-3.2958	-2.9625	-3.5958	-2.9729	82.329	41.399	208.265	359.287	188.739	90.375	294.392	270.171	121.640	232.217	15.756	255.740	80.273	233.222	165.758	270.987	0.00022553	0.00037826	0.00015219	1068.8	3.2566e-06	5.1814e-06	1161.9	225.17	2.7623e-06	2.2107e-06	286.62	78.44	61.947	18.088	2.865e-06	25.283	0.00023407	0.00023414	6.4406e-05	1045.9	2.6252e-06	2.5374e-06	1136.7	222.71	2.5672e-06	2.5477e-06	280.96	78.759	62.164	18.305	2.5176e-06	25.499	209.034	130.018	118.561	21.989	169.717	135.008	22.322	29.674	230.404	182.719	28.799	36.131	36.581	43.633	229.798	42.901	-8191	255	
1471.847	1	1	0	0	0.10097	0.16439	0.10471	0.13701	0.33336	0.12377	0.24824	0.078117	0.23617	0.069506	0.13166	0.11092	0.028513	0.19558	0.25408	0.19455	-3.0292	-3.5771	-2.8688	-3.6479	-3.3771	-2.9958	-3.7375	-2.8521	-3.125	-3.525	-2.9	-3.8042	-3.3458	-2.8792	-3.5292	-3.05	26.900	112.118	231.171	97.101	99.807	206.139	284.778	361.166	263.915	237.402	351.356	25.185	86.417	192.586	63.130	55.454	0.00014715	0.00048252	6.8683e-05	1061.5	4.6264e-06	5.4414e-06	1157.8	225.44	2.5736e-06	4.0543e-06	286.91	79.547	62.187	18.109	1.7708e-06	25.43	0.00023343	0.00023577	6.7009e-05	1043.6	2.6188e-06	2.5708e-06	1135.9	223.25	2.6622e-06	2.5809e-06	281.33	79.316	62.146	18.318	2.6031e-06	25.583	196.628	62.460	98.623	21.727	99.538	163.664	22.073	29.506	218.717	139.635	28.815	35.821	36.494	43.736	179.652	42.428	-8191	255	
1471.941	1	1	0	0	0.19329	0.22112	0.4058	0.28404	0.26886	0.07824	0.064249	0.26028	0.042609	0.25466	0.23329	0.21377	0.049563	0.25733	0.16777	0.045865	-2.7687	-3.4979	-2.6979	-3.5812	-3.2479	-3.0521	-3.7708	-3.1125	-2.9292	-3.6833	-2.9271	-3.3104	-3.5312	-2.8354	-3.7438	-3.2562	300.206	204.821	293.710	303.904	215.901	163.367	210.446	274.860	146.446	93.761	170.626	19.216	83.068	349.065	40.133	353.752	0.00018647	0.00020358	5.9948e-05	1069.4	8.7348e-07	1.4815e-06	1159.3	224.29	2.2511e-06	4.3602e-06	288.24	78.446	61.855	18.082	3.0845e-06	25.307	0.00024945	0.00023788	7.038e-05	1044.9	2.7331e-06	2.7101e-06	1138.3	222.97	2.7899e-06	2.7165e-06	281.55	79.043	62.139	18.351	2.7569e-06	25.616	214.277	117.493	80.978	21.816	312.066	177.077	22.162	29.582	171.875	146.163	29.061	36.132	36.330	43.714	236.654	43.200	-8191	255	
1472.062	1	1	0	0	0.12963	0.37294	0.17067	0.12267	0.13298	0.16372	0.28006	0.3094	0.11006	0.082827	0.24033	0.091226	0.21892	0.18202	0.17497	0.2105	-2.6437	-3.6021	-2.975	-3.6063	-3.5542	-2.95	-3.7354	-3.2333	-2.9667	-3.75	-3.0208	-3.4354	-3.5042	-2.9646	-3.6	-3.2292	153.451	171.076	179.400	255.353	145.409	147.785	278.027	278.665	214.137	149.459	51.315	104.231	48.651	12.941	175.851	22.878	0.0001206	0.00035502	0.00019102	1066.1	5.8174e-06	8.2539e-07	1158.7	224.4	5.7998e-06	7.4617e-06	283.56	78.953	62.101	18.269	4.2244e-06	25.194	0.00025046	0.00025751	7.2422e-05	1046.7	2.877e-06	2.8983e-06	1138.9	223.29	2.9233e-06	2.8589e-06	281.94	79.349	62.168	18.46	2.8622e-06	25.556	210.758	38.013	23.177	21.816	183.072	92.168	22.018	29.706	207.592	193.653	29.090	36.018	36.152	43.462	259.254	42.557	-8191	255	
1472.158	1	1	0	0	0.10088	0.19962	0.10854	0.1635	0.058169	0.095571	0.14139	0.081943	0.043335	0.26774	0.093196	0.21747	0.036276	0.14788	0.1936	0.18102	-2.4	-3.7417	-3.0604	-3.3958	-3.5875	-2.7583	-3.5667	-3.3958	-2.8042	-3.6375	-3.0229	-3.1521	-3.6417	-2.8396	-3.3875	-3.1917	316.694	239.188	75.945	335.892	159.609	226.608	11.850	225.697	270.346	169.764	184.361	352.814	59.914	76.295	242.012	271.898	0.00018629	0.00053464	0.00022162	1066.1	2.1174e-06	4.4299e-06	1159.8	224.5	8.7067e-07	1.6677e-06	291.94	79.914	62.046	18.132	4.6607e-06	25.344	0.00025781	0.00026434	7.2107e-05	1047.9	2.8501e-06	2.7779e-06	1139.5	223.21	2.8654e-06	2.7965e-06	282.91	79.613	62.12	18.369	2.787e-06	25.696	208.263	131.729	103.352	21.659	202.840	147.960	22.185	29.675	240.869	121.144	28.826	36.080	36.340	43.082	197.269	43.088	-8191	255	
1472.254	1	1	0	0	0.21052	0.19487	0.089251	0.051049	0.20642	0.15565	0.32419	0.12613	0.12105	0.068349	0.12433	0.28737	0.2682	0.043528	0.19492	0.11245	-2.2562	-3.5167	-3.05	-3.2125	-3.5062	-2.7812	-3.4938	-3.3958	-2.8042	-3.6083	-3.1188	-3.1667	-3.6333	-2.9354	-3.4437	-3.5771	152.848	268.498	99.894	76.901	256.721	215.742	329.630	300.844	13.435	346.234	57.921	198.364	367.533	135.734	105.560	236.984	0.00012895	4.5877e-05	0.00010014	1068.5	4.5095e-06	7.0615e-07	1164.5	225.85	4.774e-06	9.6884e-07	287.93	79.412	62.31	17.979	2.0882e-07	25.231	0.00025125	0.00024811	7.2362e-05	1047.2	2.8522e-06	2.7579e-06	1138.6	223.47	2.8064e-06	2.6975e-06	281.86	79.256	62.229	18.354	2.7988e-06	25.559	231.462	107.308	346.446	21.697	169.162	154.310	21.995	29.290	105.665	209.688	28.882	35.779	36.290	43.078	108.294	41.591	-8191	255	
1472.350	1	1	0	0	0.39964	0.070617	0.097462	0.26609	0.13686	0.29952	0.21066	0.13277	0.26186	0.17147	0.058532	0.027617	0.099407	0.13716	0.20753	0.18345	-2.3625	-3.4521	-3.1333	-3.0896	-3.625	-3.05	-3.3917	-3.5229	-2.8563	-3.6104	-2.9833	-3.0396	-3.5167	-2.9125	-3.2292	-3.6583	252.036	213.360	51.738	309.602	271.372	329.673	287.201	23.272	233.266	256.093	56.009	265.287	49.461	252.489	202.479	233.855	0.00022203	0.00012528	0.00018354	1065.3	6.514e-06	3.9008e-06	1162.1	226.1	3.0446e-06	5.0697e-06	288.38	78.617	62.293	18.145	4.3225e-06	25.247	0.00025003	0.00025499	6.8665e-05	1046.8	2.8104e-06	2.7854e-06	1139.1	222.91	2.7541e-06	2.6871e-06	282.25	78.901	62.129	18.359	2.7e-06	25.513	214.661	128.913	119.396	21.971	231.224	220.903	22.038	29.000	201.626	239.034	28.369	35.528	35.942	43.019	265.260	42.601	-8191	255	
1472.471	1	1	0	0	0.093314	0.17101	0.1655	0.08716	0.11864	0.099553	0.19001	0.14899	0.26989	0.02655	0.082603	0.098958	0.29194	0.26253	0.10058	0.20527	-2.3083	-3.5375	-3.4042	-3.0542	-3.55	-3.0354	-3.1813	-3.6063	-2.8333	-3.4146	-3.4792	-2.9771	-3.5812	-3.1042	-2.8854	-3.5917	315.234	340.887	99.348	139.503	113.269	102.429	332.396	72.224	336.335	271.876	157.391	112.811	89.054	340.803	95.783	350.491	0.0001718	0.00030875	5.3226e-05	1064.1	5.5742e-06	3.4787e-06	1161.2	225.22	3.1619e-06	4.5184e-06	287.11	78.449	61.838	18.076	2.2342e-06	25.4	0.00025162	0.00024499	6.8885e-05	1044	2.7109e-06	2.7468e-06	1139	223.19	2.8036e-06	2.7743e-06	281.76	79.056	62.116	18.351	2.6934e-06	25.548	219.532	101.889	183.231	21.693	246.464	145.007	21.839	29.078	246.701	131.098	28.775	35.246	36.260	43.127	187.429	41.890	-8191	255	
1472.543	1	1	0	0	0.042835	0.18643	0.23402	0.068296	0.047005	0.16238	0.20478	0.1612	0.05525	0.12453	0.071609	0.080993	0.13691	0.28459	0.18797	0.17026	-2.2792	-3.2687	-3.4458	-3.025	-3.5104	-3.1375	-3.0792	-3.6604	-2.7667	-3.1063	-3.4375	-2.7771	-3.4813	-3.1708	-2.8208	-3.7708	12.104	55.868	353.820	369.463	204.407	197.057	258.797	318.130	41.415	288.556	36.427	250.982	252.300	292.462	137.381	276.518	0.00015771	0.00042221	8.159e-05	1064.3	4.9819e-06	2.9077e-06	1156.8	224.17	4.0471e-06	1.7736e-06	286.55	79.299	62.053	18.043	1.1435e-06	25.344	0.00024764	0.00024414	6.8078e-05	1044	2.7464e-06	2.706e-06	1136.9	223.34	2.6418e-06	2.5953e-06	281.03	79.291	62.187	18.346	2.6491e-06	25.526	217.572	21.788	124.483	21.317	196.370	147.965	21.632	28.644	264.464	212.745	28.129	35.221	35.708	42.813	90.870	42.022	-8191	255	
1472.639	1	1	0	0	0.13789	0.09644	0.26464	0.17109	0.163	0.22388	0.22454	0.12634	0.1972	0.09622	0.16633	0.25994	0.087578	0.070946	0.13546	0.044396	-2.5125	-3.2792	-3.4792	-2.9208	-3.4396	-3.1792	-3.0729	-3.6354	-3.0667	-3.1813	-3.6917	-2.9083	-3.4437	-3.3458	-2.6833	-3.675	54.008	342.890	321.670	320.819	17.937	288.967	282.989	18.035	40.422	106.146	116.118	248.786	23.973	275.386	304.897	232.299	0.00016255	0.00028127	4.3348e-05	1066.2	1.665e-06	6.1043e-06	1161.1	224.66	4.2912e-06	6.9075e-06	288.07	79.07	62.313	17.976	2.5674e-06	25.22	0.00024215	0.00024271	6.7044e-05	1044.6	2.6641e-06	2.634e-06	1136.3	223.01	2.6644e-06	2.6266e-06	281.18	79.21	62.393	18.293	2.7044e-06	25.523	214.445	70.553	108.245	21.130	233.479	139.661	21.443	29.094	239.407	235.307	28.953	35.340	35.741	43.022	197.876	42.294	-8191	255	
1472.735	1	1	0	0	0.018315	0.20781	0.10261	0.28772	0.34838	0.081525	0.084675	0.11132	0.20825	0.020066	0.17072	0.17774	0.30118	0.1298	0.13449	0.18911	-2.5583	-3.0917	-3.6042	-2.9479	-3.2625	-3.4667	-2.9125	-3.5833	-3.1021	-3.1	-3.6562	-3.0146	-3.2667	-3.5187	-2.8771	-3.6208	268.711	89.614	182.979	330.093	210.235	85.897	321.814	261.791	204.172	87.810	244.024	244.189	25.702	282.480	273.963	112.676	0.00017277	0.00017813	0.00017276	1065	9.0625e-07	4.2386e-06	1162.2	225.24	5.9299e-06	5.2188e-07	288.66	79.03	61.923	18.191	3.166e-06	25.227	0.00024891	0.00025138	6.8455e-05	1045.1	2.7538e-06	2.6654e-06	1138.2	223.21	2.7098e-06	2.6547e-06	282.3	79.089	62.312	18.374	2.7582e-06	25.483	199.010	55.510	108.869	21.258	174.340	219.310	21.630	29.181	235.334	111.193	28.428	35.053	36.402	42.957	189.626	42.479	-8191	255	
1472.854	1	1	0	0	0.08304	0.01225	0.22107	0.25682	0.041123	0.068595	0.17362	0.12609	0.12098	0.24198	0.035387	0.079763	0.24374	0.05672	0.13442	0.13085	-2.7042	-2.8521	-3.6792	-3.0646	-3.2729	-3.5354	-2.9958	-3.7521	-3.2625	-2.975	-3.7	-2.9479	-3.0667	-3.5625	-2.9271	-3.6271	158.002	49.888	270.099	320.175	122.590	88.157	297.411	289.863	276.240	89.473	209.630	271.426	312.764	37.477	28.957	128.401	0.00016171	0.00020586	5.7961e-05	1061.1	3.6593e-06	3.4323e-06	1159.4	224.47	2.7746e-06	4.3144e-06	285.88	78.696	62.42	18.105	3.0294e-06	25.286	0.00025205	0.00025746	7.007e-05	1044.4	2.8594e-06	2.7629e-06	1136.7	222.89	2.7833e-06	2.8266e-06	281.33	79.009	62.307	18.36	2.8389e-06	25.611	220.059	95.366	150.628	21.293	174.224	287.387	21.578	29.032	225.323	168.186	28.396	35.420	36.270	42.997	142.370	42.776	-8191	255	
1472.950	1	1	0	0	0.048944	0.063868	0.13738	0.38584	0.094085	0.19193	0.2051	0.23944	0.20181	0.35372	0.25077	0.17905	0.060776	0.17997	0.10716	0.13394	-2.7938	-2.7625	-3.5896	-3.15	-3.0417	-3.5021	-2.9729	-3.5333	-3.2792	-2.8458	-3.5875	-3.0833	-3.0646	-3.3958	-2.7208	-3.2896	336.219	325.903	75.777	332.389	368.699	129.538	30.612	364.959	39.782	54.075	59.544	318.654	83.542	308.705	118.156	295.212	0.00015164	0.00040995	0.00011334	1067.3	3.7554e-06	3.552e-06	1159.2	225.01	2.8324e-06	2.8871e-06	287.83	79.306	61.938	17.996	3.1481e-06	25.373	0.00025643	0.00026388	7.0326e-05	1046.7	2.7725e-06	2.7633e-06	1136	222.91	2.7078e-06	2.6812e-06	282.22	79.214	62.131	18.329	2.663e-06	25.571	221.331	76.789	22.124	21.661	178.807	164.562	21.727	29.357	201.976	78.652	28.752	35.983	36.330	43.186	194.834	42.745	-8191	255	
1473.046	1	1	0	0	0.17637	0.29758	0.13643	0.10274	0.068654	0.20164	0.20707	0.089027	0.096723	0.0965	0.16098	0.08946	0.31425	0.11256	0.088376	0.070761	-2.9417	-2.725	-3.6813	-3.2354	-2.9625	-3.4521	-2.9729	-3.3563	-3.4396	-2.8167	-3.7271	-3.2583	-3.0542	-3.5729	-3.0417	-3.3125	249.839	87.619	222.336	184.289	302.378	83.446	298.878	275.322	363.997	89.167	265.423	250.553	291.650	15.579	234.033	198.158	0.00014886	0.00032451	0.00011514	1061.8	4.2626e-06	2.8201e-07	1161	224.25	4.281e-06	7.6897e-06	287.52	78.962	62.122	18.053	3.4224e-06	25.218	0.00024516	0.00024359	6.739e-05	1044.8	2.7191e-06	2.5977e-06	1135.4	222.77	2.6135e-06	2.6038e-06	281.72	79.115	62.141	18.33	2.5371e-06	25.5	206.360	92.744	34.633	21.434	190.173	223.881	21.486	29.145	242.662	180.145	28.782	35.466	36.023	43.023	157.896	42.481	-8191	255	
#DATA ENDS
