BOXY.EXE: ISS Imagent and Oximeter Data Acquisition Program Version 0.80
Ascii Record File

#ACQ INFORMATION
2  Detector Channels 
16  External MUX Channels 
1  Auxiliary Channels 
5000  Waveform (CCF) Frequency (Hz)
1  Waveforms Skipped 
30  Waveforms Averaged 
1  Cycles Averaged 
16  Acquisitions per Waveform 
10.0806  Updata Rate (Hz) 

#FILE INFORMATION
TRUE -- External MUX Channel results are PARSED.
FALSE -- AC DC and Phase are NOT grouped.
TRUE -- Companion Program Settings File CREATED.
FALSE -- AC data not excluded
FALSE -- DC data not excluded
FALSE -- Phase data not excluded
FALSE -- Auxillary Chn. data not excluded
Tab delimiters

#CALIBRATION STATE
TRUE -- Waveform Calibration Values APPLIED.


#AUX CALIBRATION VALUES
Val Type	aux-1	

Term	1.0000e+00	
Factor	0.0000e+00	


#WF CALIBRATION VALUES
A = Detector Channel
Val Type	A-AC1	A-AC2	A-AC3	A-AC4	A-AC5	A-AC6	A-AC7	A-AC8	A-AC9	A-AC10	A-AC11	A-AC12	A-AC13	A-AC14	A-AC15	A-AC16	A-DC1	A-DC2	A-DC3	A-DC4	A-DC5	A-DC6	A-DC7	A-DC8	A-DC9	A-DC10	A-DC11	A-DC12	A-DC13	A-DC14	A-DC15	A-DC16	A-Ph1	A-Ph2	A-Ph3	A-Ph4	A-Ph5	A-Ph6	A-Ph7	A-Ph8	A-Ph9	A-Ph10	A-Ph11	A-Ph12	A-Ph13	A-Ph14	A-Ph15	A-Ph16	

Term	0.00000e+00	0.00000e+00	0.00000e+00	0.00000e+00	0.00000e+00	0.00000e+00	0.00000e+00	0.00000e+00	0.00000e+00	0.00000e+00	0.00000e+00	0.00000e+00	0.00000e+00	0.00000e+00	0.00000e+00	0.00000e+00	0.00000e+00	0.00000e+00	0.00000e+00	0.00000e+00	0.00000e+00	0.00000e+00	0.00000e+00	0.00000e+00	0.00000e+00	0.00000e+00	0.00000e+00	0.00000e+00	0.00000e+00	0.00000e+00	0.00000e+00	0.00000e+00	0.00000e+00	0.00000e+00	0.00000e+00	0.00000e+00	0.00000e+00	0.00000e+00	0.00000e+00	0.00000e+00	0.00000e+00	0.00000e+00	0.00000e+00	0.00000e+00	0.00000e+00	0.00000e+00	0.00000e+00	0.00000e+00	
Factor	1.00000e+00	1.00000e+00	1.00000e+00	1.00000e+00	1.00000e+00	1.00000e+00	1.00000e+00	1.00000e+00	1.00000e+00	1.00000e+00	1.00000e+00	1.00000e+00	1.00000e+00	1.00000e+00	1.00000e+00	1.00000e+00	1.00000e+00	1.00000e+00	1.00000e+00	1.00000e+00	1.00000e+00	1.00000e+00	1.00000e+00	1.00000e+00	1.00000e+00	1.00000e+00	1.00000e+00	1.00000e+00	1.00000e+00	1.00000e+00	1.00000e+00	1.00000e+00	X	X	X	X	X	X	X	X	X	X	X	X	X	X	X	X	

B = Detector Channel
Val Type	B-AC1	B-AC2	B-AC3	B-AC4	B-AC5	B-AC6	B-AC7	B-AC8	B-AC9	B-AC10	B-AC11	B-AC12	B-AC13	B-AC14	B-AC15	B-AC16	B-DC1	B-DC2	B-DC3	B-DC4	B-DC5	B-DC6	B-DC7	B-DC8	B-DC9	B-DC10	B-DC11	B-DC12	B-DC13	B-DC14	B-DC15	B-DC16	B-Ph1	B-Ph2	B-Ph3	B-Ph4	B-Ph5	B-Ph6	B-Ph7	B-Ph8	B-Ph9	B-Ph10	B-Ph11	B-Ph12	B-Ph13	B-Ph14	B-Ph15	B-Ph16	

Term	0.00000e+00	0.00000e+00	0.00000e+00	0.00000e+00	0.00000e+00	0.00000e+00	0.00000e+00	0.00000e+00	0.00000e+00	0.00000e+00	0.00000e+00	0.00000e+00	0.00000e+00	0.00000e+00	0.00000e+00	0.00000e+00	0.00000e+00	0.00000e+00	0.00000e+00	0.00000e+00	0.00000e+00	0.00000e+00	0.00000e+00	0.00000e+00	0.00000e+00	0.00000e+00	0.00000e+00	0.00000e+00	0.00000e+00	0.00000e+00	0.00000e+00	0.00000e+00	-2.44074e+02	-1.38917e+02	-1.23458e+02	-1.83504e+02	-7.80274e+01	-6.98697e+01	-1.57272e+02	-1.62015e+02	-8.48116e+01	-5.88626e+01	-1.72810e+02	-1.70116e+02	-1.79941e+02	-1.76682e+02	-6.23674e+01	-1.49095e+02	
Factor	5.52849e-05	1.45846e-04	3.58442e-05	2.37707e-01	1.66745e-06	1.38744e-06	1.68909e-01	4.60247e-02	2.13902e-06	1.48554e-06	9.57930e-02	2.69634e-02	2.69403e-02	8.48901e-03	1.49846e-06	1.22238e-02	3.61109e-06	3.95243e-06	1.10144e-06	1.23024e-01	4.28733e-08	4.35643e-08	8.25659e-02	2.40976e-02	4.27199e-08	4.34751e-08	4.83216e-02	1.36188e-02	1.41214e-02	4.47111e-03	4.28401e-08	6.21873e-03	X	X	X	X	X	X	X	X	X	X	X	X	X	X	X	X	



#DISTANCE SETTINGS
A = Detector Channel
A-1	A-2	A-3	A-4	A-5	A-6	A-7	A-8	A-9	A-10	A-11	A-12	A-13	A-14	A-15	A-16	

2.5000e+00	3.0000e+00	2.5000e+00	3.0000e+00	2.0000e+00	3.0000e+00	1.5000e+00	3.0000e+00	3.0000e+00	3.0000e+00	3.0000e+00	3.0000e+00	3.0000e+00	3.0000e+00	1.5000e+00	3.0000e+00	

B = Detector Channel
B-1	B-2	B-3	B-4	B-5	B-6	B-7	B-8	B-9	B-10	B-11	B-12	B-13	B-14	B-15	B-16	

1.0000e+01	1.0000e+01	1.0000e+01	1.4400e+00	1.0000e+01	1.0000e+01	1.5100e+00	1.9400e+00	1.0000e+01	1.0000e+01	1.9900e+00	2.4900e+00	2.4100e+00	2.9000e+00	1.0000e+01	2.9800e+00	




#DATA BEGINS
time	group	step	mark	flag	A-AC1	A-AC2	A-AC3	A-AC4	A-AC5	A-AC6	A-AC7	A-AC8	A-AC9	A-AC10	A-AC11	A-AC12	A-AC13	A-AC14	A-AC15	A-AC16	A-DC1	A-DC2	A-DC3	A-DC4	A-DC5	A-DC6	A-DC7	A-DC8	A-DC9	A-DC10	A-DC11	A-DC12	A-DC13	A-DC14	A-DC15	A-DC16	A-Ph1	A-Ph2	A-Ph3	A-Ph4	A-Ph5	A-Ph6	A-Ph7	A-Ph8	A-Ph9	A-Ph10	A-Ph11	A-Ph12	A-Ph13	A-Ph14	A-Ph15	A-Ph16	B-AC1	B-AC2	B-AC3	B-AC4	B-AC5	B-AC6	B-AC7	B-AC8	B-AC9	B-AC10	B-AC11	B-AC12	B-AC13	B-AC14	B-AC15	B-AC16	B-DC1	B-DC2	B-DC3	B-DC4	B-DC5	B-DC6	B-DC7	B-DC8	B-DC9	B-DC10	B-DC11	B-DC12	B-DC13	B-DC14	B-DC15	B-DC16	B-Ph1	B-Ph2	B-Ph3	B-Ph4	B-Ph5	B-Ph6	B-Ph7	B-Ph8	B-Ph9	B-Ph10	B-Ph11	B-Ph12	B-Ph13	B-Ph14	B-Ph15	B-Ph16	aux-1	digaux	

885.063	1	1	0	256	0.070803	0.090643	0.07874	0.31415	0.23601	0.31131	0.10761	0.12954	0.22191	0.25859	0.22945	0.067466	0.28943	0.13377	0.06781	0.18476	-3.5479	-3.3125	-3.85	-3.8396	-3.3271	-4.0604	-3.5979	-3.4729	-3.9875	-3.3854	-4.0188	-3.8771	-3.3312	-4.2083	-3.675	-3.5687	253.442	102.115	54.831	306.140	222.508	137.255	230.239	226.774	46.329	-39.642	210.982	-0.350	75.762	39.307	181.250	49.470	0.00023473	0.00025379	9.5854e-05	984.88	2.277e-06	3.7732e-06	1075.8	204.67	4.1099e-06	2.4854e-06	264.38	75.126	58.951	17.632	2.0228e-06	24.904	8.3416e-05	6.7504e-05	1.6882e-05	964.83	8.0664e-07	6.6163e-07	1057.5	202.02	7.257e-07	6.7966e-07	260.91	74.828	58.46	17.714	6.9615e-07	25.071	0.358	56.415	47.784	-31.416	98.926	94.670	-31.107	-23.676	147.873	130.067	-23.884	-17.424	-17.064	-9.441	139.823	-10.206	-8191	255	
885.159	1	1	0	0	0.045985	0.28507	0.087925	0.11723	0.15541	0.075291	0.36924	0.19864	0.17645	0.17357	0.16983	0.20256	0.084524	0.11208	0.080605	0.15079	-3.625	-3.2562	-3.7729	-3.8417	-3.2875	-4.1583	-3.6479	-3.3583	-3.9979	-3.3396	-3.8146	-3.9938	-3.2062	-4.0583	-3.5792	-3.3208	271.277	231.362	12.502	51.395	0.751	28.761	224.536	247.492	69.269	217.221	201.652	7.584	99.230	157.472	44.522	13.325	0.00030761	0.00034772	8.5037e-05	980.92	2.8359e-06	1.6535e-06	1079.3	203.64	7.6847e-07	1.4255e-06	264.58	74.894	58.561	17.441	3.0036e-06	24.779	8.158e-05	6.5372e-05	1.7221e-05	962.04	7.5046e-07	6.4938e-07	1058.6	201.52	7.0782e-07	6.7821e-07	261.04	74.833	58.327	17.651	7.0758e-07	25.011	12.670	50.092	55.174	-31.035	105.079	123.183	-31.329	-23.779	70.449	139.165	-24.219	-17.497	-17.122	-9.611	136.457	-10.617	-8191	255	
885.255	1	1	0	0	0.065406	0.12282	0.094091	0.24641	0.20437	0.14316	0.32561	0.14803	0.12564	0.11423	0.15215	0.19679	0.07606	0.028828	0.089938	0.16916	-3.8479	-3.3417	-3.7313	-4.1062	-3.2313	-4.0021	-3.9125	-3.3937	-4.1042	-3.3417	-3.6354	-4.0312	-3.1542	-3.9229	-3.8208	-3.2271	168.297	-29.379	143.706	249.476	175.531	245.581	252.606	285.341	109.148	285.996	-0.735	299.015	50.692	283.673	227.215	-37.759	0.00027774	0.00017228	6.8173e-05	981.38	2.4686e-06	4.6047e-06	1074.1	204.22	1.051e-06	2.5446e-06	264.72	75.374	58.488	17.692	3.4331e-06	24.998	7.9978e-05	6.4952e-05	1.7332e-05	963.2	7.8092e-07	7.0583e-07	1057.6	201.81	7.4751e-07	7.2114e-07	260.38	74.94	58.182	17.713	7.2587e-07	25.081	12.031	50.505	67.895	-31.295	76.341	113.376	-31.370	-23.391	58.540	118.969	-24.242	-17.438	-16.303	-9.706	107.981	-10.219	-8191	255	
885.376	1	1	0	0	0.16666	0.036776	0.060777	0.35004	0.088576	0.034325	0.21703	0.1785	0.10147	0.10762	0.326	0.09615	0.099453	0.32886	0.049614	0.098683	-3.7083	-3.3979	-3.6104	-3.9729	-3.3667	-3.9958	-3.9729	-3.4104	-4.1021	-3.5521	-3.6542	-4.2167	-3.2542	-3.8875	-3.9229	-3.3958	314.715	251.830	38.554	205.725	151.675	74.663	306.078	202.548	31.560	183.712	78.364	205.171	-34.813	137.769	307.750	294.637	0.00025911	0.00031289	7.8017e-05	987.59	3.6928e-06	2.1608e-06	1079.9	204.44	1.5472e-06	3.319e-06	264.27	75.442	58.574	17.619	2.2453e-06	24.84	8.0866e-05	6.6047e-05	1.7162e-05	964.54	7.2563e-07	6.8695e-07	1058.1	201.84	7.3443e-07	7.1145e-07	260.19	75.06	58.297	17.741	6.8946e-07	24.996	6.060	26.364	51.517	-31.443	92.058	105.158	-31.327	-23.391	160.854	96.788	-23.699	-17.318	-16.870	-9.546	134.073	-10.176	-8191	255	
885.448	1	1	0	0	0.10177	0.044228	0.099615	0.061163	0.10724	0.26686	0.12288	0.075879	0.090434	0.068478	0.24857	0.23564	0.21989	0.18783	0.1004	0.12797	-3.5854	-3.5958	-3.3812	-4.3	-3.2938	-3.7917	-4.0479	-3.2375	-4.0042	-3.7583	-3.4146	-4.2063	-3.4437	-3.6708	-4.1333	-3.2521	-35.753	-36.172	220.908	41.712	257.391	198.547	237.926	-29.019	250.415	112.620	246.449	273.601	155.450	210.220	106.510	227.625	0.00029812	0.00032224	6.6141e-05	983.56	3.1122e-06	2.3309e-06	1074.8	203.37	1.4424e-06	2.0659e-06	264.57	75.24	58.469	17.573	2.4295e-06	24.834	8.0053e-05	6.2951e-05	1.7742e-05	962.93	7.8306e-07	6.8269e-07	1057.3	201.21	7.1947e-07	6.6218e-07	260.91	74.974	58.294	17.694	6.6741e-07	25.047	20.262	45.808	54.334	-31.393	104.926	101.005	-31.382	-23.351	92.432	168.780	-23.701	-17.173	-16.374	-9.408	136.267	-10.164	-8191	255	
885.544	1	1	0	0	0.15005	0.028076	0.23277	0.32348	0.29882	0.14404	0.2368	0.0098247	0.14406	0.21371	0.10793	0.022398	0.15479	0.078004	0.17486	0.14921	-3.6708	-3.4958	-3.3438	-4.0729	-3.4479	-3.4813	-4.2063	-3.2833	-3.7938	-3.8479	-3.3792	-4.0625	-3.4542	-3.6104	-4.1271	-3.2583	301.530	89.168	201.036	-7.832	249.952	-26.240	200.542	40.790	46.467	15.570	11.512	112.480	313.504	294.834	168.428	-16.964	0.00029018	0.00030613	9.8426e-05	984.24	3.8091e-06	2.5111e-06	1072.7	203.02	2.816e-06	2.6085e-06	265.33	75.513	58.586	17.445	3.7239e-06	24.973	7.9579e-05	6.2119e-05	1.8747e-05	962.56	7.7922e-07	7.1291e-07	1055.3	201.14	7.0693e-07	6.3564e-07	260.69	75.211	58.22	17.647	7.1597e-07	25.055	19.780	34.903	59.109	-31.296	93.248	86.711	-31.221	-23.504	151.582	119.925	-24.015	-16.729	-16.817	-9.523	131.342	-10.617	-8191	255	
885.640	1	1	0	0	0.056122	0.16547	0.098067	0.22624	0.05593	0.087867	0.25547	0.13039	0.042682	0.24795	0.11394	0.11204	0.2158	0.14546	0.016719	0.22428	-3.4146	-3.8396	-3.1958	-4.1438	-3.2479	-3.575	-4.1875	-3.425	-3.8604	-4.0021	-3.2292	-4.0375	-3.5563	-3.4458	-4.1708	-3.2979	262.751	172.076	37.103	26.287	110.551	9.760	256.963	295.637	164.063	82.632	-35.478	159.059	27.447	131.803	148.573	101.116	0.00027968	0.0002605	7.7516e-05	984.07	3.1247e-06	1.9713e-06	1073	203.01	3.0442e-06	1.5229e-06	262.69	74.802	58.885	17.519	2.4186e-06	24.915	7.7879e-05	6.3568e-05	1.8399e-05	962.82	7.3822e-07	7.0783e-07	1054.3	201.3	7.2597e-07	6.3392e-07	259.75	74.858	58.239	17.672	6.6938e-07	24.989	6.325	56.031	64.973	-31.189	116.457	101.171	-31.212	-23.439	84.727	94.370	-24.014	-17.264	-16.564	-9.768	127.035	-10.590	-8191	255	
885.759	1	1	0	0	0.047623	0.089669	0.16273	0.26557	0.084243	0.019008	0.13166	0.074962	0.12434	0.1569	0.14774	0.095132	0.041196	0.28536	0.16173	0.16323	-3.3104	-3.9062	-3.3021	-4.0125	-3.5812	-3.3563	-4.125	-3.4813	-3.5354	-3.9979	-3.1646	-3.8708	-3.7458	-3.2646	-4	-3.3375	9.030	23.430	124.233	285.384	262.298	119.418	-24.388	103.052	36.083	214.184	117.161	76.717	11.214	25.826	291.389	300.653	0.00024012	0.00024238	8.8442e-05	982.84	2.5427e-06	2.4523e-06	1078.8	202.3	3.9913e-06	1.7899e-06	262.19	75.38	58.014	17.626	2.9287e-06	24.739	7.8436e-05	5.9838e-05	1.7917e-05	960.53	7.3376e-07	7.002e-07	1056.3	201.01	7.3585e-07	6.1164e-07	260.09	75.079	57.943	17.615	6.5885e-07	24.981	32.886	46.476	45.865	-31.844	84.736	89.061	-31.608	-23.990	149.758	91.810	-24.365	-17.456	-17.225	-9.970	131.051	-11.010	-8191	255	
885.855	1	1	0	0	0.16502	0.18919	0.022041	0.18981	0.13264	0.24846	0.16348	0.20432	0.28461	0.31211	0.13115	0.31104	0.27388	0.096409	0.20211	0.16711	-3.3229	-4.1708	-2.9083	-3.8833	-3.8125	-3.3917	-4.1813	-3.5333	-3.6083	-3.8854	-3.1104	-3.8937	-3.8646	-3.3083	-3.9083	-3.5792	4.753	255.845	166.051	251.040	128.681	123.180	136.154	292.860	-9.143	290.597	205.232	-23.192	140.976	261.918	45.012	238.344	0.00028688	0.00012072	9.757e-05	983.73	2.8969e-06	2.7547e-06	1068.8	202.19	3.7579e-06	3.7982e-06	261.25	75.301	58.425	17.513	3.2892e-06	24.829	7.9933e-05	5.5919e-05	1.7538e-05	960.77	6.8749e-07	6.6308e-07	1052.6	200.87	7.5338e-07	6.3899e-07	259.07	74.859	58.017	17.641	6.6634e-07	24.949	20.197	40.717	76.597	-31.595	115.890	102.036	-31.647	-23.919	73.591	122.403	-24.513	-17.703	-16.647	-9.755	134.858	-10.630	-8191	255	
885.951	1	1	0	0	0.29298	0.21942	0.095102	0.26538	0.12531	0.28705	0.15672	0.13488	0.21311	0.09897	0.14294	0.06292	0.086293	0.36736	0.027827	0.073643	-3.0458	-4.0312	-3.2	-3.8146	-3.9229	-3.3292	-4.1229	-3.575	-3.2896	-4.1958	-3.325	-3.7062	-3.925	-3.2708	-3.9583	-3.6167	81.064	92.575	157.869	272.605	51.189	317.322	-29.210	-4.705	308.485	-41.258	107.576	177.809	68.706	52.397	276.838	-33.821	0.00026681	0.00015165	0.00013117	980.72	3.6938e-06	3.9031e-06	1065.2	201.96	2.6023e-06	3.1172e-06	261.65	74.927	58.694	17.547	4.711e-06	24.638	8.0933e-05	6.0159e-05	1.7515e-05	959.07	6.774e-07	6.4421e-07	1049.7	200.47	7.2348e-07	5.9008e-07	259.42	74.732	58.026	17.645	6.7009e-07	24.863	17.468	6.058	55.052	-31.378	102.504	122.116	-31.598	-23.969	93.648	119.487	-24.518	-17.220	-17.057	-9.605	104.119	-10.623	-8191	255	
886.047	1	1	0	0	0.35052	0.071325	0.15746	0.23355	0.19091	0.15618	0.29832	0.087586	0.17742	0.057606	0.099236	0.22258	0.17676	0.12382	0.35761	0.089005	-2.9333	-4.0854	-3.3042	-3.6688	-4.0271	-3.2521	-4.0813	-3.7167	-3.575	-4.0333	-3.4813	-3.575	-3.9792	-3.1937	-3.9208	-3.7021	45.292	68.869	175.730	256.114	90.269	143.671	197.333	157.527	209.652	131.714	75.624	188.653	-23.028	229.154	295.200	217.672	0.00032685	0.00026514	7.1861e-05	984.68	3.6287e-06	2.7515e-06	1066.3	201.42	4.3406e-06	2.2506e-06	262.15	74.114	58.444	17.469	2.8783e-06	24.729	8.0166e-05	5.8636e-05	1.7421e-05	960.52	6.7079e-07	6.3531e-07	1049.1	199.99	7.3211e-07	6.1363e-07	258.52	74.45	57.983	17.541	6.3082e-07	24.891	12.750	48.499	81.539	-31.366	107.650	130.129	-31.595	-23.871	113.746	82.180	-24.112	-17.076	-17.003	-9.782	111.147	-10.953	-8191	255	
886.143	1	1	0	0	0.33728	0.19528	0.2348	0.176	0.011597	0.19876	0.16765	0.27418	0.22638	0.12078	0.11493	0.094151	0.15715	0.17122	0.18296	0.042636	-2.8146	-4.0021	-3.6708	-3.5896	-4.0042	-3.1396	-3.9917	-3.8979	-3.1833	-3.9792	-3.5958	-3.5625	-4.0667	-3.4062	-3.6896	-3.6771	305.980	186.863	80.324	128.535	153.122	116.312	304.198	164.801	90.204	201.556	73.132	310.122	192.374	274.255	192.024	134.613	0.0002398	0.00031305	7.5652e-05	980.73	4.8103e-06	2.9755e-06	1062.8	201.38	3.2394e-06	2.3764e-06	261.24	75.231	58.262	17.493	3.4412e-06	24.914	8.3251e-05	5.7187e-05	1.6728e-05	957.63	6.623e-07	6.5846e-07	1048.4	199.91	7.3532e-07	6.274e-07	258.52	74.608	58.083	17.573	6.6063e-07	24.921	17.530	12.908	53.306	-31.613	142.536	95.639	-31.461	-23.955	136.326	117.845	-24.635	-17.450	-16.734	-9.679	115.537	-10.628	-8191	255	
886.239	1	1	0	0	0.25125	0.08223	0.076925	0.30927	0.090129	0.17983	0.24464	0.19035	0.17145	0.31741	0.31697	0.16854	0.14597	0.16061	0.049866	0.13242	-2.825	-4.0042	-3.6208	-3.6104	-4.1271	-3.4333	-3.8542	-3.8396	-3.1729	-4.0458	-3.6188	-3.3729	-4.1	-3.3375	-3.6375	-3.9958	121.382	196.565	311.758	213.224	307.824	304.452	242.013	75.719	-8.295	94.239	295.004	308.159	205.582	168.439	6.963	109.434	0.00024196	0.00030372	5.4979e-05	974.57	2.8977e-06	3.6236e-06	1069	202.98	4.0644e-06	3.7243e-06	259.59	74.192	58.614	17.376	2.847e-06	24.771	7.821e-05	5.8759e-05	1.6304e-05	955	6.8338e-07	6.6553e-07	1047.7	200.34	7.1146e-07	6.3021e-07	258.79	74.288	57.979	17.607	6.6509e-07	24.886	13.815	48.219	57.669	-31.516	118.353	123.202	-31.335	-23.492	147.272	85.391	-24.329	-16.967	-16.838	-9.800	92.062	-10.494	-8191	255	
886.336	1	1	0	0	0.10615	0.18651	0.17091	0.17097	0.038143	0.13673	0.37084	0.079495	0.079654	0.17004	0.18496	0.13559	0.071774	0.28524	0.042293	0.15879	-2.9875	-3.9188	-3.7062	-3.4875	-4.2083	-3.3896	-3.7021	-4.2125	-3.2854	-3.9875	-3.8104	-3.3354	-4.1062	-3.6083	-3.4375	-4.0083	-20.439	140.958	171.462	46.694	-28.831	255.518	272.548	304.780	-15.065	180.771	140.322	306.751	114.206	22.955	-25.408	193.297	0.00028164	0.00018258	6.4298e-05	976.35	1.9152e-06	2.3004e-06	1062.3	200.95	2.0146e-06	2.1345e-06	260.72	75.211	58.512	17.643	3.3976e-06	24.766	7.8925e-05	5.3992e-05	1.5273e-05	954.89	6.8669e-07	6.4112e-07	1046	200.06	6.9108e-07	6.485e-07	257.92	74.59	57.843	17.558	6.493e-07	24.837	24.049	74.219	61.252	-31.695	136.649	110.151	-31.113	-23.457	144.763	109.136	-24.561	-16.874	-16.619	-10.113	124.276	-10.552	-8191	255	
886.456	1	1	0	0	0.036787	0.04139	0.12733	0.39191	0.073362	0.020473	0.16474	0.21432	0.11209	0.13549	0.15799	0.27764	0.072458	0.18203	0.13933	0.13445	-3.0167	-3.9	-3.6896	-3.4375	-4.1146	-3.5812	-3.6688	-4.1479	-3.2021	-3.9188	-3.9625	-3.4437	-4.1438	-3.6271	-3.3896	-4.0729	163.005	200.776	206.491	310.408	16.239	-37.881	229.262	293.743	283.075	135.373	187.539	317.335	171.683	232.572	167.263	164.097	0.00031005	0.0003761	6.1017e-05	974.63	3.2362e-06	2.2113e-06	1066.9	201.74	2.3586e-06	6.635e-07	262.51	74.685	58.124	17.379	4.1117e-06	24.686	7.8812e-05	5.6042e-05	1.5991e-05	955.54	6.7713e-07	6.1516e-07	1047.8	200.07	7.1298e-07	5.9135e-07	258.63	74.355	57.806	17.505	6.526e-07	24.817	19.762	43.425	52.593	-31.433	135.167	165.446	-31.547	-23.519	104.546	72.565	-24.207	-17.574	-16.490	-9.576	123.770	-10.478	-8191	255	
886.552	1	1	0	0	0.25814	0.15797	0.066004	0.27805	0.18781	0.066109	0.11951	0.17067	0.10441	0.11733	0.052225	0.12346	0.11276	0.088924	0.16867	0.1574	-2.9875	-3.8125	-3.9688	-3.1063	-4.0125	-3.6417	-3.4167	-4.225	-3.4125	-3.6312	-4.1083	-3.3479	-4.0521	-3.6458	-3.375	-4.3042	136.780	191.435	-1.682	-27.479	172.672	263.947	162.370	23.955	171.293	143.364	317.069	250.393	130.211	242.903	301.772	253.330	0.00032104	0.00038292	6.2835e-05	971.26	3.7868e-06	2.489e-06	1067.7	201.02	3.5329e-06	2.0703e-06	262.48	74.731	58.316	17.552	4.3269e-06	24.826	8.1392e-05	6.0192e-05	1.5377e-05	951.76	6.5301e-07	6.2787e-07	1045.4	199.44	7.0586e-07	6.3609e-07	258.5	74.297	57.792	17.579	6.4189e-07	24.857	6.195	37.747	101.399	-31.482	116.721	105.229	-31.374	-23.460	114.760	81.221	-24.027	-17.306	-16.470	-9.026	115.635	-10.654	-8191	255	
886.649	1	1	0	0	0.17825	0.21549	0.1579	0.13414	0.10131	0.25027	0.12448	0.14427	0.028643	0.17462	0.043717	0.1736	0.13998	0.087642	0.28539	0.26468	-3.2104	-3.6958	-4.1271	-3.3583	-3.9313	-3.8708	-3.5521	-4.1792	-3.4417	-3.5479	-4.0375	-3.275	-3.8167	-3.9604	-3.3917	-4.2104	226.189	22.603	130.321	235.453	127.372	-30.527	195.445	292.146	116.817	13.522	104.407	-5.861	121.308	61.259	61.877	-3.044	0.00028958	0.00027128	8.4985e-05	979.76	2.5263e-06	2.8785e-06	1065.4	201.6	3.5881e-06	1.9934e-06	261.98	74.392	57.672	17.41	4.0691e-06	24.607	7.8045e-05	5.6157e-05	1.506e-05	954.21	6.4551e-07	6.1898e-07	1045.9	199.46	6.8601e-07	6.1418e-07	258.06	74.236	57.575	17.473	6.4814e-07	24.799	15.261	57.109	65.787	-31.586	94.224	117.425	-30.851	-22.971	90.631	120.519	-23.874	-17.200	-16.100	-9.688	143.822	-11.036	-8191	255	
886.745	1	1	0	0	0.35228	0.16679	0.18383	0.2328	0.14381	0.2476	0.21093	0.061842	0.23965	0.042709	0.024826	0.21643	0.19518	0.095598	0.32294	0.17944	-3.1083	-3.4292	-4.1229	-3.3187	-3.8312	-4.0479	-3.4833	-4.0229	-3.5604	-3.2875	-4.1583	-3.2833	-3.6667	-4.0417	-3.225	-4.0667	297.747	250.760	146.359	298.164	188.273	133.143	291.477	-6.156	99.027	48.134	203.828	129.051	269.457	283.211	61.825	318.567	0.00027757	0.00036153	9.2313e-05	968.62	1.4054e-06	3.362e-06	1065.1	200.62	3.6742e-06	3.3739e-06	261.71	74.056	58.197	17.536	6.5793e-07	24.712	7.8466e-05	5.8825e-05	1.4615e-05	948.87	6.3988e-07	6.1507e-07	1045.1	199.15	6.8877e-07	5.9905e-07	257.77	74.162	57.683	17.52	6.675e-07	24.808	17.437	80.797	61.600	-31.491	126.139	114.837	-31.351	-23.383	58.764	114.627	-23.941	-17.221	-16.507	-9.624	111.753	-10.193	-8191	255	
886.839	1	1	0	0	0.01364	0.21079	0.15996	0.098713	0.13986	0.17636	0.34009	0.13353	0.29435	0.021199	0.19173	0.26439	0.1031	0.15249	0.15043	0.16703	-3.2687	-3.4917	-4.0354	-3.4458	-3.5563	-3.9062	-3.4792	-3.9583	-3.6188	-3.3583	-4.1229	-3.4917	-3.5208	-4.0875	-3.2042	-4.0271	245.320	63.545	131.507	216.172	92.300	16.652	207.291	135.862	191.870	281.160	317.496	266.081	82.971	219.374	270.703	312.324	0.00026181	0.00016635	8.3021e-05	972.18	3.5805e-06	2.7174e-06	1068.6	201.97	2.2598e-06	3.7014e-06	263.22	74.56	58.168	17.51	1.7917e-06	24.684	7.6909e-05	5.8743e-05	1.6118e-05	951.06	6.9696e-07	6.0727e-07	1045.6	199.72	6.756e-07	6.3111e-07	257.87	74.179	57.72	17.516	6.6188e-07	24.798	6.944	35.700	58.484	-32.086	95.218	108.900	-31.601	-23.678	72.108	102.879	-24.097	-17.132	-16.829	-9.838	123.225	-10.674	-8191	255	
886.935	1	1	0	0	0.068856	0.19026	0.034571	0.14749	0.058416	0.11275	0.1149	0.32185	0.17508	0.19932	0.18158	0.31954	0.21024	0.14614	0.27157	0.078274	-3.4104	-3.1021	-4.0354	-3.4625	-3.3792	-4.0208	-3.3688	-3.7542	-3.8354	-3.2833	-4.0833	-3.6312	-3.4854	-4.1937	-3.4271	-3.925	137.823	184.822	162.495	-32.195	277.690	245.478	-14.166	288.028	82.243	215.138	268.478	263.517	185.902	71.135	35.884	1.576	0.00026319	0.00026495	3.8508e-05	966.54	3.0449e-06	2.3301e-06	1058.2	201.31	4.4735e-06	4.2076e-06	261.59	74.564	58.481	17.564	8.683e-07	24.556	7.6141e-05	5.7302e-05	1.4711e-05	947.46	6.7936e-07	6.2079e-07	1042.9	199.58	6.8503e-07	6.2948e-07	258.14	74.224	57.84	17.532	6.3894e-07	24.777	18.248	41.753	48.072	-31.810	92.471	119.913	-31.771	-23.719	105.755	120.414	-24.674	-17.842	-17.212	-10.150	104.795	-10.382	-8191	255	
887.056	1	1	0	0	0.10627	0.16769	0.23471	0.15557	0.17995	0.047895	0.1742	0.17573	0.060323	0.19163	0.035435	0.057668	0.068571	0.090294	0.25608	0.099333	-3.4062	-3.1792	-3.8896	-3.6771	-3.4708	-4.0646	-3.3271	-3.8187	-3.9729	-3.0875	-4.1333	-3.6854	-3.3542	-3.9979	-3.3208	-3.6625	210.809	302.440	156.528	186.368	107.928	167.841	238.235	-11.810	252.201	-30.058	307.394	263.755	195.434	-6.293	-26.708	-19.794	0.00023316	0.00030031	8.6809e-05	972.15	2.6355e-06	2.9617e-06	1063.3	200.69	1.8129e-06	2.6026e-06	261.36	74.751	58.211	17.652	1.7255e-06	24.636	7.59e-05	5.9155e-05	1.4975e-05	949.68	7.0652e-07	5.8848e-07	1042.2	199.21	6.8566e-07	6.0657e-07	257.96	74.429	57.73	17.58	6.4573e-07	24.763	18.451	39.983	71.268	-31.687	106.111	124.062	-31.706	-24.004	154.836	124.541	-24.595	-17.556	-16.672	-10.147	168.055	-10.595	-8191	255	
887.152	1	1	0	0	0.071179	0.28296	0.069354	0.066696	0.42317	0.19993	0.38746	0.13783	0.06953	0.38161	0.076606	0.13387	0.257	0.072789	0.21278	0.42634	-3.6583	-3.1688	-3.9062	-3.7562	-3.35	-4.1271	-3.4729	-3.6625	-3.9729	-3.3063	-3.9375	-3.8542	-3.1937	-4.1854	-3.2708	-3.5854	300.551	134.545	288.636	-36.841	281.503	74.712	270.226	231.402	133.197	53.293	217.790	-1.535	-5.393	288.048	127.802	258.453	0.00026336	0.00033207	5.6151e-05	970.39	2.7976e-06	3.0429e-06	1061.1	201.57	3.7396e-06	3.6424e-06	261.72	74.379	58.065	17.539	1.6312e-06	24.69	7.1454e-05	5.9221e-05	1.5282e-05	950.29	6.7856e-07	5.7704e-07	1039.7	199.64	6.5451e-07	6.3682e-07	257.57	74.02	57.525	17.542	6.1966e-07	24.839	27.953	38.005	47.606	-32.023	94.262	117.228	-31.510	-23.854	105.314	147.665	-24.448	-17.792	-16.858	-9.858	104.011	-10.892	-8191	255	
887.248	1	1	0	0	0.047541	0.14129	0.34434	0.14724	0.10057	0.10025	0.29781	0.20218	0.040946	0.070978	0.12326	0.30962	0.1286	0.29992	0.30036	0.1187	-3.5375	-3.25	-3.8438	-3.9625	-3.2042	-3.9437	-3.6292	-3.6	-4.1604	-3.3375	-3.8521	-3.9542	-3.2854	-4.0437	-3.5021	-3.5542	-31.629	140.485	222.749	58.573	-12.446	281.398	304.478	-10.920	175.643	-29.368	268.508	193.182	267.272	284.811	112.790	23.754	0.00023844	0.00029996	6.8256e-05	972.15	3.5921e-06	3.1694e-06	1057.5	200.9	3.253e-06	3.7197e-06	259.6	74.522	58.421	17.466	3.2385e-06	24.696	7.4449e-05	5.5812e-05	1.436e-05	947.82	6.5016e-07	5.608e-07	1039	199	6.303e-07	6.0756e-07	257.28	73.956	57.77	17.476	6.3716e-07	24.733	3.290	57.044	70.971	-31.851	91.647	129.950	-31.820	-23.629	120.301	110.222	-24.219	-17.454	-16.760	-9.802	133.429	-10.370	-8191	255	
887.320	1	1	0	0	0.041223	0.16615	0.21389	0.15234	0.13759	0.13689	0.23554	0.17186	0.1709	0.048085	0.22974	0.14336	0.13221	0.24612	0.21277	0.053676	-3.6396	-3.2354	-3.85	-4.0312	-3.0854	-3.9479	-3.775	-3.3792	-3.9062	-3.4083	-3.6937	-4.0896	-3.3479	-3.8521	-3.6646	-3.4542	24.681	36.405	151.046	311.236	272.947	-13.019	247.596	-9.273	53.291	49.933	237.735	212.019	-27.265	59.598	118.825	146.172	0.00026483	0.00025042	6.8886e-05	967.69	3.5322e-06	2.3161e-06	1054.7	201.2	4.61e-06	1.2085e-06	261.24	73.966	57.717	17.459	3.0982e-06	24.642	7.332e-05	5.5029e-05	1.5202e-05	947.4	6.7132e-07	5.7505e-07	1037.7	198.98	6.3457e-07	6.0376e-07	257.12	73.951	57.466	17.479	6.2243e-07	24.739	12.860	25.453	66.345	-31.862	95.181	112.339	-31.679	-23.522	103.654	130.728	-24.191	-17.439	-16.896	-9.771	92.767	-10.873	-8191	255	
887.440	1	1	0	0	0.066512	0.13385	0.17818	0.095998	0.10886	0.21443	0.1529	0.080468	0.10793	0.1898	0.15707	0.0029814	0.21101	0.38222	0.21717	0.033935	-3.5146	-3.3646	-3.5458	-3.9792	-3.2021	-3.9375	-3.8125	-3.2854	-3.9708	-3.3771	-3.6	-4.0458	-3.2375	-3.9125	-3.9333	-3.1979	78.073	250.941	295.825	254.311	297.567	308.765	265.734	222.656	282.827	-4.549	-19.574	285.305	301.114	-40.544	193.989	72.918	0.00034662	0.00028141	4.3853e-05	970.82	2.6251e-06	2.1501e-06	1054.6	200.66	2.2656e-06	2.1874e-06	261.83	73.897	57.778	17.375	3.6007e-06	24.594	7.4148e-05	5.4519e-05	1.5709e-05	946.72	6.8776e-07	5.5526e-07	1037.5	198.97	6.3386e-07	5.9796e-07	257.72	74	57.442	17.503	6.0003e-07	24.719	15.439	10.937	62.935	-31.783	91.491	101.784	-31.713	-23.428	92.512	123.891	-24.295	-17.423	-16.904	-10.076	96.969	-10.464	-8191	255	
887.537	1	1	0	0	0.057085	0.16313	0.10026	0.031281	0.044881	0.098844	0.16473	0.097722	0.041345	0.01691	0.28703	0.18982	0.13274	0.30167	0.032606	0.074633	-3.5958	-3.6229	-3.4167	-4.0563	-3.3604	-3.6813	-4.1438	-3.2417	-4.1	-3.5229	-3.3312	-4.1312	-3.3396	-3.8604	-3.8063	-3.325	116.358	124.040	237.102	230.341	296.550	271.499	205.133	269.994	34.637	-12.317	306.760	274.309	286.970	-29.894	35.045	168.072	0.00033523	0.00036997	5.5966e-05	967.17	2.1862e-06	3.6693e-06	1055.9	200.95	2.6117e-06	1.9466e-06	259.31	74.204	57.857	17.393	3.6468e-06	24.545	7.3004e-05	5.5877e-05	1.5303e-05	944.6	6.6739e-07	6.3522e-07	1037.8	198.91	6.157e-07	5.8338e-07	256.83	74.018	57.484	17.475	5.8289e-07	24.663	7.011	26.482	51.841	-31.454	114.724	120.679	-31.572	-23.579	130.454	121.747	-24.185	-17.298	-16.860	-9.894	115.311	-10.571	-8191	255	
887.633	1	1	0	0	0.18899	0.16892	0.092674	0.33255	0.13474	0.072116	0.21219	0.050828	0.046332	0.1375	0.16401	0.25509	0.039752	0.081054	0.17554	0.15923	-3.7167	-3.6667	-3.4583	-4.1687	-3.4313	-3.6604	-4.0417	-3.3229	-4.0125	-3.6917	-3.4229	-4.0771	-3.4	-3.5563	-3.9646	-3.2354	-16.987	24.804	289.019	-32.381	300.666	-25.828	266.054	13.308	86.526	35.188	50.449	14.425	57.966	198.007	140.471	256.027	0.00029323	0.00028212	7.2797e-05	964.8	2.9823e-06	2.578e-06	1054.8	200.4	3.3134e-06	3.2515e-06	260.26	74.681	57.699	17.514	1.7033e-06	24.548	7.4065e-05	5.4305e-05	1.4583e-05	942.99	6.4042e-07	5.6761e-07	1036.6	198.48	6.4739e-07	5.6264e-07	256.7	74.254	57.499	17.493	5.5308e-07	24.715	15.354	43.356	42.236	-31.614	96.590	100.160	-31.211	-23.826	112.603	108.888	-24.097	-17.775	-16.776	-9.506	123.102	-10.705	-8191	255	
887.729	1	1	0	0	0.095917	0.11954	0.24339	0.22159	0.095874	0.22692	0.39943	0.050717	0.19867	0.075793	0.34549	0.12848	0.32201	0.11307	0.061696	0.22817	-3.5667	-3.7313	-3.225	-4.2688	-3.4062	-3.5271	-4.3208	-3.3417	-3.7542	-3.9375	-3.2042	-4.2354	-3.4292	-3.4521	-4.1208	-3.4083	283.065	173.696	138.245	-39.996	6.591	318.017	281.489	172.009	293.958	187.370	209.009	-22.923	302.876	300.328	-11.696	294.817	0.00025407	0.00015275	5.253e-05	964.19	2.9732e-06	2.2859e-06	1057.8	199.85	3.4027e-06	3.2665e-06	260.74	74.534	57.739	17.399	3.6937e-06	24.538	7.1417e-05	5.4222e-05	1.5574e-05	943.19	6.5873e-07	5.961e-07	1036.9	198.13	6.2994e-07	5.9742e-07	256.71	74.048	57.278	17.447	5.7076e-07	24.751	16.411	26.131	27.959	-31.510	109.131	109.798	-31.488	-23.414	103.322	141.534	-24.280	-17.239	-17.159	-9.782	127.559	-10.080	-8191	255	
887.848	1	1	0	0	0.12606	0.13999	0.072724	0.1527	0.11609	0.25563	0.27214	0.24654	0.25285	0.16472	0.15843	0.06783	0.30185	0.1308	0.22082	0.052438	-3.4354	-3.7646	-3.2208	-4.1458	-3.5917	-3.425	-4.2125	-3.2146	-3.5854	-4.0458	-3.3229	-4.0938	-3.5438	-3.3771	-3.9896	-3.2313	80.379	-39.888	242.697	238.286	168.862	227.241	244.816	266.392	223.669	-3.884	315.345	50.797	17.825	300.975	119.268	283.574	0.00034033	0.00031028	6.3658e-05	966.61	3.6009e-06	2.6286e-06	1061.4	199.97	2.3222e-06	3.2615e-06	257.52	73.837	57.953	17.381	2.2511e-06	24.54	7.4509e-05	5.246e-05	1.4385e-05	943.84	6.3301e-07	5.7677e-07	1037.1	198.28	6.3929e-07	5.6626e-07	256.33	73.707	57.382	17.455	5.8923e-07	24.672	13.193	38.831	76.042	-31.337	127.101	106.154	-31.275	-23.268	72.888	158.692	-24.151	-17.088	-16.725	-9.666	149.969	-10.204	-8191	255	
887.919	1	1	0	0	0.063005	0.12901	0.10678	0.16331	0.23521	0.10448	0.11773	0.29625	0.14228	0.1286	0.24523	0.2847	0.05766	0.074879	0.18569	0.19537	-3.1521	-4.0167	-3.2896	-3.9854	-3.6271	-3.2667	-4.1687	-3.5312	-3.5708	-4.0396	-3.0958	-3.9437	-3.8771	-3.2042	-4.0646	-3.4646	147.118	94.510	193.900	265.622	81.777	202.023	249.768	230.117	226.672	57.029	238.407	258.588	307.956	244.598	294.593	208.494	0.00032064	0.00017623	5.2261e-05	965.31	3.1731e-06	2.641e-06	1052	200.64	4.6132e-06	2.511e-06	259.91	73.966	58.179	17.41	3.5687e-06	24.563	7.1116e-05	5.1826e-05	1.5126e-05	942.07	6.2425e-07	5.6942e-07	1035.2	198.3	6.7008e-07	5.2695e-07	256.46	73.751	57.52	17.456	5.9878e-07	24.666	11.910	61.917	37.177	-31.322	109.798	123.122	-31.004	-23.205	80.256	144.743	-23.921	-16.985	-16.328	-9.487	124.181	-9.625	-8191	255	
888.017	1	1	0	0	0.13521	0.17228	0.25668	0.1298	0.22385	0.13762	0.22137	0.13047	0.16306	0.15894	0.18933	0.15623	0.12639	0.014829	0.090053	0.086138	-3.2354	-3.9125	-3.2125	-3.9271	-3.9125	-3.1271	-4.2021	-3.5417	-3.4979	-4.0604	-3.5042	-3.9292	-3.875	-3.3708	-4.075	-3.6083	85.494	189.736	69.721	268.440	137.296	224.118	281.812	193.113	122.159	167.995	28.597	305.482	95.752	196.641	266.384	171.113	0.00026469	0.00018012	8.4019e-05	965.71	3.2167e-06	2.0403e-06	1052.3	200.27	4.0002e-06	2.6267e-06	259.27	74.512	58.031	17.276	2.1944e-06	24.563	7.1545e-05	4.9471e-05	1.5475e-05	943.56	6.1112e-07	6.187e-07	1034.2	198.1	6.198e-07	5.3112e-07	256.52	73.837	57.41	17.384	5.8289e-07	24.676	18.005	25.393	59.374	-31.377	127.220	100.866	-31.197	-23.613	87.890	127.774	-24.097	-17.316	-16.527	-9.600	133.594	-10.493	-8191	255	
888.136	1	1	0	0	0.22922	0.31629	0.083465	0.47136	0.18399	0.18756	0.21289	0.14513	0.19523	0.13232	0.22151	0.30332	0.082706	0.24839	0.082911	0.33402	-3.1271	-4.125	-3.2792	-3.7062	-3.9833	-3.2354	-4.1521	-3.6688	-3.3125	-4.2229	-3.5271	-3.8	-4.0104	-3.075	-3.8229	-3.7167	154.456	-22.165	56.898	277.931	214.913	-40.458	255.334	219.323	268.340	228.940	73.357	7.506	193.160	95.021	11.618	254.299	0.00030728	0.00025386	6.9436e-05	966.28	4.0613e-06	2.6671e-06	1051.9	199.31	3.2953e-06	2.5402e-06	259.63	74.013	58.004	17.368	2.0792e-06	24.5	7.1221e-05	4.8458e-05	1.5335e-05	943.07	5.9094e-07	5.7904e-07	1033.9	197.92	6.7373e-07	5.5847e-07	256.31	73.795	57.409	17.423	6.0137e-07	24.587	15.200	37.617	48.588	-31.128	115.971	79.250	-31.277	-23.507	107.254	117.033	-24.131	-16.806	-16.898	-9.377	125.615	-10.052	-8191	255	
888.232	1	1	0	0	0.20406	0.40007	0.19809	0.26401	0.13369	0.11021	0.072628	0.24067	0.3124	0.1083	0.027302	0.16654	0.23228	0.051831	0.19294	0.22233	-2.9292	-4.1312	-3.4229	-3.6083	-3.9958	-3.2188	-4.0188	-3.7562	-3.35	-4.0167	-3.55	-3.4396	-4.2208	-3.175	-3.9375	-3.95	298.980	212.497	13.573	316.064	318.245	182.221	253.995	4.536	299.196	21.090	311.455	110.947	56.664	15.147	57.594	210.364	0.00024353	0.00026041	5.1129e-05	960.04	2.3413e-06	1.7998e-06	1053	199.21	4.6555e-06	2.1156e-06	258.74	74.308	57.911	17.396	3.379e-06	24.582	7.3471e-05	4.677e-05	1.4009e-05	940.52	6.0639e-07	5.9583e-07	1034.3	197.79	6.8343e-07	5.4253e-07	255.71	73.781	57.403	17.408	5.745e-07	24.669	21.097	37.495	29.943	-31.342	122.415	124.141	-31.187	-23.371	102.979	126.367	-24.219	-16.985	-16.168	-9.521	120.674	-10.408	-8191	255	
888.329	1	1	0	0	0.049872	0.11645	0.26024	0.32469	0.22445	0.10064	0.28334	0.20214	0.1006	0.092466	0.13175	0.18274	0.072543	0.2641	0.12497	0.061099	-2.9062	-4.025	-3.4917	-3.4875	-3.9604	-3.2854	-3.6604	-3.8646	-3.2062	-4.0771	-3.6167	-3.5021	-4.05	-3.3521	-3.7458	-4.0229	169.460	215.851	30.950	-18.873	29.087	52.538	280.296	260.928	106.873	133.461	-20.460	149.783	153.691	35.027	86.793	212.042	0.00028037	0.00029315	8.0541e-05	965.72	3.2593e-06	2.6596e-06	1047.4	199.37	2.9275e-06	2.8678e-06	257.96	74.052	58.147	17.332	1.8411e-06	24.636	7.1988e-05	5.0418e-05	1.4734e-05	939.46	5.8102e-07	6.0672e-07	1030.6	197.81	6.5068e-07	5.3982e-07	255.66	73.752	57.384	17.407	5.8628e-07	24.642	22.771	40.260	58.010	-31.283	120.345	116.025	-31.128	-23.493	121.604	126.825	-23.957	-17.058	-16.412	-9.544	98.061	-10.376	-8191	255	
888.449	1	1	0	0	0.14334	0.18045	0.12232	0.32531	0.1791	0.2735	0.10659	0.20991	0.28793	0.088656	0.079027	0.24468	0.28877	0.11766	0.16593	0.11693	-2.9521	-4.0208	-3.5687	-3.4333	-4.0896	-3.3625	-3.7854	-4.0667	-3.1208	-4.0208	-3.7396	-3.3812	-4.2271	-3.3458	-3.6146	-4.1333	99.973	67.185	222.239	295.972	96.277	63.687	307.694	-39.508	315.871	87.326	82.622	157.393	278.823	-38.745	12.832	158.921	0.00028295	0.00022744	7.9627e-05	959.77	2.6014e-06	1.841e-06	1046	200.47	1.7785e-06	1.8531e-06	258.65	73.786	57.529	17.242	1.9811e-06	24.509	7.5291e-05	5.111e-05	1.5257e-05	938.66	6.0264e-07	6.0808e-07	1032	197.75	6.3733e-07	5.2922e-07	255.32	73.64	57.21	17.346	6.1913e-07	24.595	8.485	29.705	58.947	-31.104	128.343	82.964	-30.922	-23.374	96.839	136.136	-23.988	-16.746	-16.372	-9.345	133.882	-10.063	-8191	255	
888.545	1	1	0	0	0.26607	0.11986	0.08214	0.1192	0.079283	0.20905	0.1493	0.10412	0.025663	0.15878	0.12709	0.038505	0.096929	0.35972	0.11101	0.0669	-2.9188	-3.8271	-3.7917	-3.4542	-4.1792	-3.5938	-3.7188	-4.0521	-3.0958	-3.9437	-4.0062	-3.3125	-4.2958	-3.6625	-3.4146	-4.1729	296.828	5.178	92.752	30.234	86.516	64.101	196.883	114.010	104.271	53.977	42.321	279.215	75.655	209.723	90.423	-7.095	0.00038174	0.00026552	8.632e-05	961.65	2.3212e-06	2.296e-06	1048.2	199.31	2.4737e-06	3.0378e-06	260.71	73.954	57.58	17.233	2.6839e-06	24.566	7.3222e-05	4.8887e-05	1.4523e-05	939.01	5.9451e-07	5.7105e-07	1031.3	197.39	6.9429e-07	5.621e-07	256.1	73.691	57.31	17.347	6.2654e-07	24.603	5.959	35.283	72.620	-30.792	89.758	55.017	-30.918	-23.311	125.997	109.136	-24.205	-16.789	-16.324	-9.632	119.281	-10.206	-8191	255	
888.617	1	1	0	0	0.10514	0.2034	0.065627	0.096532	0.11452	0.01416	0.16712	0.32323	0.20184	0.13507	0.25299	0.17954	0.13017	0.12959	0.030936	0.020987	-2.9771	-3.9104	-3.9208	-3.4	-4	-3.7021	-3.4562	-4.125	-3.4417	-3.8063	-3.9938	-3.3438	-4.1583	-3.725	-3.4688	-4.2979	117.730	268.297	-24.653	285.407	18.971	256.872	258.688	221.767	178.728	242.868	307.536	27.436	244.026	246.399	53.315	190.016	0.00029741	0.00031566	7.3648e-05	959.81	4.104e-06	2.5202e-06	1048.2	199.42	1.7445e-06	1.7219e-06	260.36	74.245	57.782	17.307	2.7101e-06	24.431	7.4471e-05	5.3094e-05	1.3791e-05	937.77	6.1693e-07	5.8049e-07	1030	197.45	6.8281e-07	5.7278e-07	256.35	73.561	57.367	17.286	6.4876e-07	24.644	23.890	18.691	45.018	-31.064	110.935	81.661	-30.936	-23.236	112.353	101.846	-23.852	-16.487	-16.633	-8.942	140.046	-9.450	-8191	255	
888.738	1	1	0	0	0.049893	0.082065	0.38998	0.2642	0.18263	0.17735	0.11842	0.15482	0.163	0.13653	0.07357	0.21143	0.06302	0.088598	0.056873	0.13875	-2.8729	-3.7021	-3.7625	-3.3458	-3.9833	-3.7687	-3.5042	-4.2646	-3.3646	-3.6604	-4.075	-3.3083	-3.9688	-3.9667	-3.2354	-4.1229	7.680	6.424	118.189	303.529	99.118	121.817	279.429	235.116	204.068	83.994	196.335	-29.677	265.264	207.054	206.894	261.132	0.00028174	0.00023638	6.2394e-05	964.66	3.4269e-06	2.1563e-06	1045.4	199.6	2.4757e-06	2.2389e-06	257.62	73.887	57.804	17.301	2.1804e-06	24.429	7.3124e-05	5.3621e-05	1.4424e-05	940.12	6.3354e-07	5.3312e-07	1029.2	197.46	6.5451e-07	5.755e-07	254.86	73.607	57.132	17.345	6.3305e-07	24.573	21.632	29.369	64.689	-30.850	136.423	111.193	-31.032	-23.016	114.780	125.324	-23.825	-16.990	-16.209	-8.793	116.005	-10.001	-8191	255	
888.832	1	1	0	0	0.13558	0.067387	0.32622	0.1023	0.041245	0.19687	0.21993	0.19366	0.019927	0.024061	0.32938	0.13217	0.18019	0.073181	0.47745	0.08058	-3.0604	-3.4583	-4.1729	-3.4042	-3.7458	-3.6479	-3.4562	-3.9417	-3.5312	-3.3646	-4.1521	-3.2521	-3.825	-3.9396	-3.4188	-4.0938	-15.827	251.946	124.236	-4.078	279.627	145.257	298.560	308.074	315.506	226.749	10.556	305.430	181.896	30.991	197.415	269.492	0.00032396	0.00036965	5.298e-05	958.94	3.1364e-06	2.9283e-06	1045.1	198.78	3.6106e-06	3.3138e-06	259.64	74.055	57.583	17.348	3.011e-06	24.499	7.2402e-05	5.4502e-05	1.4346e-05	937.01	6.3059e-07	5.5299e-07	1028.4	197.12	6.7328e-07	5.9525e-07	255.35	73.611	57.071	17.353	5.9905e-07	24.561	16.652	44.916	49.546	-30.904	96.323	94.376	-31.161	-23.436	117.175	143.231	-24.029	-17.046	-16.171	-9.547	96.753	-10.332	-8191	255	
888.928	1	1	0	0	0.089406	0.24038	0.17733	0.19052	0.14692	0.036121	0.21886	0.067344	0.10951	0.11286	0.088777	0.12742	0.29722	0.13861	0.31981	0.033917	-3.0771	-3.3917	-4.0958	-3.4417	-3.5583	-4.0146	-3.3104	-4.0583	-3.7292	-3.3333	-4.0312	-3.4167	-3.5646	-3.8583	-3.2313	-4.0896	35.730	19.110	-11.093	-39.740	285.698	79.027	196.497	-38.967	73.343	235.220	186.641	95.952	302.400	-25.386	24.061	232.113	0.0003408	0.00028723	5.7531e-05	957.25	4.5034e-06	3.3658e-06	1051.4	199.71	3.6075e-06	2.5574e-06	259.75	74.019	57.36	17.201	1.9885e-06	24.611	7.6194e-05	5.0377e-05	1.3403e-05	936.49	6.2229e-07	5.4737e-07	1029.9	197.26	6.6483e-07	5.8728e-07	255.3	73.523	57.168	17.311	6.0895e-07	24.63	17.837	61.690	68.928	-31.457	112.012	122.270	-31.038	-23.447	116.883	142.857	-23.752	-17.274	-16.206	-9.637	109.986	-9.819	-8191	255	
889.024	1	1	0	0	0.075913	0.22329	0.23273	0.18872	0.052807	0.11398	0.21359	0.34784	0.056789	0.22307	0.07906	0.20131	0.10407	0.24995	0.18051	0.12604	-3.3438	-3.3146	-4.0917	-3.5458	-3.7021	-4.0687	-3.4625	-3.9646	-3.9604	-3.3563	-4.2146	-3.6312	-3.5458	-4.1146	-3.3063	-3.875	43.256	103.230	-36.105	27.934	-32.589	-35.684	51.833	274.194	141.650	86.966	282.838	-37.384	17.979	-21.602	81.728	262.573	0.00026267	0.00019428	7.9942e-05	960.07	2.3096e-06	1.6647e-06	1050.6	199.65	3.5007e-06	2.3586e-06	261.31	74.031	57.58	17.218	2.0452e-06	24.64	7.0702e-05	5.3646e-05	1.431e-05	937.6	5.8192e-07	5.3366e-07	1029.1	197.18	6.3208e-07	5.9488e-07	255.18	73.504	57.105	17.325	6.0574e-07	24.633	14.508	61.766	65.981	-31.244	135.766	95.112	-31.051	-23.069	136.257	116.242	-24.037	-16.670	-16.709	-9.215	142.671	-10.154	-8191	255	
889.145	1	1	0	0	0.16037	0.15665	0.19286	0.06893	0.12096	0.043533	0.16247	0.25118	0.20613	0.075129	0.060591	0.19078	0.25415	0.086093	0.072161	0.2023	-3.3708	-3.2021	-4.15	-3.5812	-3.5875	-4.1875	-3.3187	-3.8083	-3.8146	-3.2687	-4.025	-3.6375	-3.3875	-4.1687	-3.3771	-3.7875	-36.768	62.098	35.864	299.936	-32.907	45.357	268.822	276.680	140.697	119.367	281.902	26.361	224.992	271.334	143.679	264.519	0.00025701	0.00040277	9.3086e-05	959.58	4.6885e-06	2.3784e-06	1043.6	199.38	3.3272e-06	2.5911e-06	256.96	74.045	57.163	17.174	2.7915e-06	24.565	7.0589e-05	5.2872e-05	1.3837e-05	937.13	6.5346e-07	5.3148e-07	1027.8	197.42	6.246e-07	5.7921e-07	254.77	73.554	57.006	17.318	6.0637e-07	24.626	10.868	61.066	53.881	-31.057	106.596	126.394	-30.992	-23.065	118.426	106.409	-23.769	-16.896	-16.473	-9.779	87.166	-9.935	-8191	255	
889.217	1	1	0	0	0.083495	0.26391	0.055504	0.26011	0.1871	0.24517	0.083894	0.16418	0.31426	0.18942	0.18981	0.27007	0.14115	0.20307	0.11388	0.19159	-3.4437	-3.2417	-3.9979	-3.6021	-3.2292	-4.175	-3.5917	-3.6625	-3.8812	-3.2125	-4.0375	-3.725	-3.1604	-4.0979	-3.2917	-3.6063	55.670	88.682	184.831	221.146	158.311	144.510	144.443	273.698	218.915	10.398	298.857	46.863	236.927	247.261	161.700	-31.994	0.00026886	0.00024558	4.5896e-05	951.86	2.4885e-06	1.6025e-06	1047.4	199.53	2.6736e-06	3.2098e-06	259.08	73.563	57.65	17.106	1.8767e-06	24.335	6.6188e-05	5.2584e-05	1.3557e-05	933.91	6.2827e-07	5.3865e-07	1028.1	197.19	5.801e-07	5.4552e-07	255.24	73.318	57.061	17.292	6.0297e-07	24.556	7.332	58.481	68.160	-30.886	51.901	109.520	-31.159	-22.891	108.768	108.629	-23.594	-16.913	-16.322	-8.801	138.370	-10.473	-8191	255	
889.313	1	1	0	0	0.16292	0.24528	0.16193	0.078261	0.065071	0.11088	0.25282	0.38783	0.12105	0.17238	0.1927	0.05673	0.13233	0.22903	0.22195	0.1569	-3.7625	-3.3771	-3.9313	-3.7479	-3.4042	-3.9854	-3.4771	-3.6021	-3.9396	-3.4333	-4.0375	-3.9542	-3.2979	-4.0563	-3.4833	-3.5104	280.035	260.155	80.600	153.702	62.234	92.873	293.106	243.744	95.519	206.311	16.386	125.894	161.152	261.536	89.165	-34.169	0.00028996	0.00038645	0.00011858	953.46	2.4953e-06	2.6772e-06	1047.3	197.34	4.119e-06	3.208e-06	258.84	73.82	57.284	17.385	2.0952e-06	24.565	6.6956e-05	5.5672e-05	1.3591e-05	934.04	5.9478e-07	5.2595e-07	1027.1	196.47	5.8598e-07	5.4371e-07	255.07	73.451	56.983	17.358	5.9146e-07	24.568	17.567	19.495	69.208	-30.877	136.443	115.125	-31.059	-22.831	69.974	105.502	-23.638	-16.658	-16.342	-8.715	125.139	-9.687	-8191	255	
889.409	1	1	0	0	0.14408	0.20865	0.12008	0.16099	0.14641	0.1914	0.27579	0.318	0.061049	0.088944	0.33842	0.050833	0.18681	0.17633	0.17879	0.22853	-3.5771	-3.2354	-3.85	-3.8875	-3.1229	-4.0458	-3.5521	-3.3875	-4.0521	-3.2854	-3.8042	-4.1312	-3.2417	-3.9854	-3.7354	-3.4125	194.934	212.599	289.891	258.208	205.424	91.200	204.349	207.856	87.477	48.219	127.684	226.359	90.368	315.224	208.259	296.537	0.00024584	0.00018002	8.6765e-05	958.06	3.347e-06	2.2665e-06	1052	198.82	3.0109e-06	3.2835e-06	260.08	73.816	57.495	17.247	2.0256e-06	24.311	6.7633e-05	5.2016e-05	1.3952e-05	935.19	6.0692e-07	5.3938e-07	1029.4	196.83	6.2887e-07	5.2831e-07	255.51	73.413	56.973	17.335	6.0485e-07	24.567	20.847	56.088	57.823	-31.005	123.210	108.992	-30.887	-22.746	101.217	130.329	-23.547	-16.899	-16.029	-9.122	139.434	-9.825	-8191	255	
889.530	1	1	0	0	0.40328	0.13359	0.16403	0.18339	0.16432	0.19169	0.1213	0.16556	0.1548	0.22799	0.10836	0.13676	0.12272	0.051749	0.039191	0.082067	-3.6417	-3.3958	-3.6604	-3.9458	-3.1708	-4.0333	-3.8396	-3.3042	-4.2271	-3.4396	-3.6646	-4.0083	-3.1542	-3.975	-3.8063	-3.3354	9.940	6.187	132.675	254.741	104.055	78.673	244.665	251.426	-37.914	207.865	79.063	68.353	242.491	239.231	282.740	76.266	0.0002951	0.00038804	4.9808e-05	957.55	3.0187e-06	1.7905e-06	1048.8	199.6	2.5677e-06	3.0718e-06	259.04	74.124	57.649	17.34	2.1599e-06	24.346	6.6587e-05	5.0591e-05	1.3451e-05	935.5	6.0273e-07	5.1515e-07	1027	197.07	5.8731e-07	5.5141e-07	254.61	73.506	57.207	17.347	5.662e-07	24.545	17.818	27.592	40.482	-30.972	124.412	144.056	-30.768	-22.607	103.637	102.354	-23.679	-16.748	-16.125	-8.973	127.111	-9.873	-8191	255	
889.626	1	1	0	0	0.14841	0.20131	0.13152	0.12608	0.097449	0.21609	0.18618	0.035433	0.084324	0.19294	0.093623	0.23188	0.077049	0.17232	0.046109	0.011142	-3.8167	-3.5958	-3.5917	-4.2729	-3.3708	-3.9313	-4.0896	-3.3083	-3.9938	-3.4167	-3.4188	-4.1792	-3.3833	-3.7	-3.875	-3.2562	99.072	24.701	202.247	269.042	230.543	36.106	274.952	189.916	54.715	-29.287	-31.196	6.009	4.172	298.121	186.397	148.038	0.00028291	0.00028361	4.6761e-05	961.63	2.8936e-06	2.2585e-06	1046.2	198.77	3.666e-06	3.3305e-06	258.02	73.619	57.966	17.348	3.1358e-06	24.44	6.8746e-05	5.0188e-05	1.3997e-05	937.76	6.3042e-07	5.51e-07	1026.8	196.93	5.7761e-07	5.3203e-07	254.37	73.495	57.129	17.376	5.4104e-07	24.515	17.982	70.176	74.012	-30.988	78.295	86.576	-30.938	-23.039	87.611	125.892	-23.491	-16.574	-16.144	-8.924	149.600	-9.698	-8191	255	
889.722	1	1	0	0	0.24101	0.14771	0.23472	0.12081	0.32871	0.13502	0.093917	0.14264	0.26976	0.11645	0.28018	0.27255	0.21972	0.076462	0.104	0.053668	-3.65	-3.5396	-3.5292	-4.1542	-3.3021	-3.6208	-3.9917	-3.2083	-3.9167	-3.6667	-3.3417	-4.1167	-3.475	-3.5542	-3.9958	-3.3625	307.319	19.186	103.000	270.424	76.765	303.883	217.916	243.378	318.749	81.493	281.361	11.693	276.155	29.545	211.421	172.596	0.00031664	0.00016862	4.5989e-05	961.85	4.3639e-06	2.5616e-06	1047.9	198.54	4.1224e-06	3.1824e-06	259.8	74.054	57.484	17.374	3.8704e-06	24.493	7.098e-05	4.7182e-05	1.3892e-05	934.38	6.1916e-07	5.3475e-07	1027.5	196.37	6.0707e-07	5.5748e-07	254.37	73.307	56.998	17.376	5.3345e-07	24.552	24.110	55.039	26.244	-30.626	121.371	108.666	-30.752	-23.207	104.490	114.303	-23.466	-16.447	-16.256	-8.927	126.023	-9.527	-8191	255	
889.818	1	1	0	0	0.034063	0.12883	0.11294	0.057739	0.038499	0.046294	0.018714	0.080117	0.13308	0.057665	0.2684	0.1401	0.16663	0.20316	0.21412	0.12944	-3.3854	-3.7792	-3.3271	-4.2146	-3.2646	-3.5021	-4.1208	-3.325	-3.7625	-3.7188	-3.2958	-4.2208	-3.3937	-3.4917	-4.1146	-3.1667	310.819	62.611	120.660	138.170	294.923	302.444	71.569	111.412	115.694	163.454	261.315	319.129	184.973	278.539	167.462	280.536	0.00020279	0.00027636	9.3152e-05	959.76	3.378e-06	3.6251e-06	1047.4	197.99	4.0047e-06	3.6444e-06	258.93	73.826	57.418	17.379	3.2276e-06	24.363	6.8829e-05	5.0221e-05	1.422e-05	936.63	5.7611e-07	5.4383e-07	1028.5	196.02	6.0876e-07	5.2505e-07	254.56	73.564	56.931	17.359	5.4594e-07	24.534	4.904	44.409	58.881	-30.738	110.949	105.439	-30.865	-22.658	117.187	108.985	-23.199	-16.821	-16.224	-8.857	137.531	-9.642	-8191	255	
889.912	1	1	0	0	0.10084	0.21254	0.28574	0.28269	0.22562	0.24592	0.15906	0.10551	0.30171	0.053451	0.24297	0.23226	0.040027	0.15128	0.11614	0.0859	-3.3667	-3.8792	-3.3458	-4	-3.4562	-3.3875	-4.0896	-3.2854	-3.6979	-3.9083	-3.3083	-4	-3.4813	-3.3271	-4.0208	-3.3438	205.944	109.420	-29.054	312.433	95.609	279.523	180.216	224.669	73.851	258.525	-36.188	190.190	55.990	146.466	145.730	215.452	0.00025068	0.0001657	4.9596e-05	956.26	3.0843e-06	2.8352e-06	1047.5	198.96	4.2277e-06	2.1572e-06	258.51	73.726	57.14	17.246	3.0159e-06	24.325	6.9498e-05	4.5873e-05	1.461e-05	935.62	5.9272e-07	5.6243e-07	1026	196.35	5.6987e-07	5.2496e-07	254.83	73.435	56.917	17.309	5.7013e-07	24.499	21.603	41.518	74.587	-30.896	110.853	122.761	-30.679	-22.999	156.348	113.795	-23.580	-16.896	-16.296	-8.442	118.553	-9.774	-8191	255	
890.010	1	1	0	0	0.10055	0.24865	0.21101	0.049251	0.14386	0.32384	0.24006	0.19446	0.12485	0.037624	0.24104	0.090644	0.071125	0.10548	0.071556	0.18979	-3.3417	-3.9021	-3.1292	-4.0958	-3.65	-3.2729	-4.1833	-3.4792	-3.5958	-4	-3.225	-3.8812	-3.6771	-3.3729	-4.1167	-3.4354	30.068	69.270	260.715	257.720	178.438	213.514	273.491	223.758	-11.472	-37.282	2.091	287.330	94.478	232.590	-24.568	230.453	0.00025345	0.00017834	6.9423e-05	958.74	2.179e-06	2.2831e-06	1047.3	198.47	2.3515e-06	2.1686e-06	258.36	73.699	57.487	17.261	3.4055e-06	24.462	7.1409e-05	4.7701e-05	1.4688e-05	936.31	6.0067e-07	5.5862e-07	1028.9	196.49	6.0271e-07	5.6065e-07	254.68	73.429	57.027	17.303	5.397e-07	24.579	4.851	50.174	56.821	-30.885	142.083	122.917	-30.762	-22.732	78.578	98.928	-23.496	-16.371	-16.042	-8.664	124.677	-9.861	-8191	255	
890.129	1	1	0	0	0.18293	0.13945	0.1385	0.2864	0.18269	0.085779	0.15279	0.083653	0.058389	0.084334	0.23936	0.20846	0.084656	0.17826	0.18059	0.23474	-3.3187	-4.0792	-3.2333	-4.0292	-3.7042	-3.2729	-4.2688	-3.4375	-3.4521	-4.1396	-3.3521	-3.8229	-3.9104	-3.2	-4.0354	-3.6875	67.831	70.121	300.885	283.903	61.249	-15.971	221.629	277.965	130.807	249.666	112.019	297.849	296.346	233.000	265.050	221.163	0.00025052	0.00028548	8.5664e-05	957.36	7.0154e-07	1.9588e-06	1049.3	199.14	3.7684e-06	3.0802e-06	257.99	73.906	57.557	17.395	2.1037e-06	24.525	7.1214e-05	4.8409e-05	1.5028e-05	934.35	5.7021e-07	5.6443e-07	1029.4	196.87	6.1908e-07	5.1455e-07	254.61	73.552	57.093	17.383	5.7459e-07	24.584	10.110	25.061	75.916	-30.609	121.547	113.903	-30.650	-22.802	133.809	122.829	-23.202	-16.490	-15.986	-8.724	95.905	-9.308	-8191	255	
890.225	1	1	0	0	0.26854	0.099906	0.083217	0.24896	0.043169	0.20988	0.082522	0.10913	0.098665	0.24811	0.17036	0.21429	0.14749	0.071361	0.040008	0.075147	-3.0979	-4.1708	-3.2083	-3.6229	-3.9021	-3.2083	-4.2167	-3.3854	-3.4646	-4.1979	-3.4625	-3.6667	-3.9729	-3.3917	-4.0021	-3.7729	86.046	213.891	-23.802	280.153	-3.659	301.416	262.612	61.570	128.596	42.000	292.934	312.653	-28.886	115.373	41.677	-21.976	0.00025532	0.00024099	6.8914e-05	956.86	1.5112e-06	3.3108e-06	1046.1	197.34	4.331e-06	3.2737e-06	259.5	73.946	57.252	17.358	2.5416e-06	24.461	7.0679e-05	4.9924e-05	1.4752e-05	934.43	5.7263e-07	5.8884e-07	1026.5	195.93	6.2665e-07	5.4942e-07	254.89	73.326	56.906	17.349	5.521e-07	24.535	21.105	27.009	7.962	-31.275	123.291	123.528	-31.261	-23.314	92.293	132.161	-24.062	-17.051	-16.765	-9.564	127.927	-10.610	-8191	255	
890.321	1	1	0	0	0.048703	0.056702	0.097474	0.14795	0.17648	0.0098296	0.12149	0.063466	0.043642	0.18899	0.13419	0.27078	0.13187	0.10657	0.032232	0.16117	-2.8958	-4.075	-3.3417	-3.7146	-4.1896	-3.2562	-4.175	-3.7583	-3.2625	-3.9646	-3.4938	-3.5417	-4.0542	-3.3688	-3.8812	-3.8063	276.739	72.160	300.328	-37.042	238.553	170.518	-1.586	176.642	166.368	222.733	-39.138	-11.584	16.121	-23.328	244.254	12.522	0.00021757	0.00047404	5.69e-05	960.62	2.3731e-06	3.4408e-06	1046	198.85	3.0053e-06	2.469e-06	258.22	73.712	57.618	17.161	2.1762e-06	24.537	7.3696e-05	4.9348e-05	1.4888e-05	935.54	5.6021e-07	5.5753e-07	1027.5	196.79	6.3199e-07	5.246e-07	254.61	73.351	57.001	17.262	5.7977e-07	24.62	21.540	52.710	50.840	-31.538	99.218	97.452	-31.292	-23.675	108.494	131.937	-24.170	-17.594	-16.402	-9.622	123.219	-10.519	-8191	255	
890.418	1	1	0	0	0.37124	0.08772	0.19125	0.34294	0.13402	0.04694	0.22321	0.027975	0.26062	0.1818	0.10665	0.1816	0.14029	0.3777	0.045884	0.042404	-2.9188	-4.3292	-3.4708	-3.5062	-4.1062	-3.3875	-4.0354	-4.0938	-3.4167	-4.0229	-3.4792	-3.5042	-4.0708	-3.2833	-3.9375	-3.8833	256.146	292.223	252.258	244.864	157.319	25.523	207.016	180.653	115.592	117.227	209.422	48.711	129.010	18.397	-7.564	-0.896	0.00025933	0.0002719	3.7883e-05	955.52	3.9833e-06	1.2457e-06	1042.6	198.59	1.7954e-06	2.7236e-06	258.07	73.652	57.943	17.166	3.9145e-06	24.57	7.3049e-05	5.0459e-05	1.4121e-05	936.44	6.088e-07	5.412e-07	1026.2	196.53	6.3083e-07	5.2958e-07	254.91	73.359	57.24	17.307	5.6451e-07	24.549	11.338	55.679	67.273	-31.175	112.880	96.651	-31.070	-23.605	101.495	107.718	-24.063	-17.020	-16.775	-9.676	99.243	-10.353	-8191	255	
890.514	1	1	0	0	0.087442	0.052561	0.13021	0.051672	0.10715	0.067179	0.11888	0.03972	0.28405	0.10837	0.19163	0.30376	0.32624	0.20718	0.12752	0.014135	-2.875	-4.0792	-3.4667	-3.5375	-4.1438	-3.1479	-3.8438	-4.1292	-3.2542	-4.0687	-3.9021	-3.2729	-4.1833	-3.325	-3.7583	-3.8917	81.077	56.943	103.521	221.573	263.082	270.693	249.691	-5.923	315.146	152.449	4.974	180.935	252.937	100.282	130.574	-41.133	0.00027808	0.00035819	7.6044e-05	961.23	3.8426e-06	3.3733e-06	1045.2	197.97	1.4252e-06	2.9775e-06	259.07	73.975	57.483	17.369	3.7352e-06	24.547	7.4464e-05	4.7339e-05	1.3761e-05	936.81	5.8308e-07	5.7341e-07	1027.8	196.57	6.5237e-07	5.5512e-07	255.01	73.434	57.023	17.369	5.5549e-07	24.54	25.448	32.074	51.602	-31.197	119.392	108.418	-30.956	-23.255	138.907	137.036	-23.924	-16.956	-16.328	-8.774	99.298	-10.256	-8191	255	
890.610	1	1	0	0	0.10224	0.073577	0.093593	0.13695	0.31695	0.14262	0.36882	0.10577	0.082476	0.03153	0.08096	0.17769	0.037985	0.29312	0.12602	0.22718	-2.9062	-4.0375	-3.7188	-3.2583	-4.1875	-3.4542	-3.6958	-3.9167	-3.2646	-3.8187	-3.7313	-3.425	-4.1229	-3.5375	-3.5917	-4.1979	257.337	-7.886	254.850	268.251	10.752	41.383	-35.409	279.814	62.230	94.967	139.957	-39.299	229.665	21.894	141.752	245.909	0.0002741	0.00020907	5.73e-05	952.69	3.1674e-06	1.7335e-06	1046.5	198.54	2.8158e-06	2.0331e-06	256.44	73.547	57.35	17.241	2.4134e-06	24.452	6.9717e-05	5.2427e-05	1.4706e-05	933.47	5.7406e-07	5.4337e-07	1028.1	196.42	6.5406e-07	5.121e-07	254.47	73.451	57.077	17.331	5.8512e-07	24.579	12.194	55.482	66.071	-31.180	110.674	121.265	-31.092	-23.199	88.908	124.569	-24.172	-16.781	-16.527	-9.430	101.978	-10.154	-8191	255	
890.706	1	1	0	0	0.25582	0.16443	0.077996	0.20464	0.13038	0.22191	0.31576	0.14145	0.081812	0.13338	0.26191	0.23312	0.22544	0.085991	0.12667	0.051797	-2.7687	-3.7667	-3.8875	-3.3	-4.0792	-3.6813	-3.775	-4.0917	-3.325	-3.7521	-4.0604	-3.3688	-4.0083	-3.6292	-3.2458	-4.0604	227.469	17.480	239.322	89.274	253.906	98.772	194.954	24.423	259.414	72.098	225.012	177.035	312.031	83.089	261.446	162.089	0.00020159	0.00015075	6.3387e-05	954.23	1.9306e-06	3.46e-06	1044.3	198.99	2.8391e-06	4.044e-06	258.62	73.649	57.233	17.226	3.0196e-06	24.444	7.493e-05	4.7289e-05	1.3451e-05	934.6	5.9639e-07	5.5971e-07	1026	196.48	6.206e-07	5.3646e-07	254.43	73.412	56.937	17.232	5.8887e-07	24.477	24.807	53.329	46.985	-31.016	99.063	87.034	-30.935	-23.281	104.061	120.329	-24.032	-17.064	-15.823	-9.449	87.815	-10.191	-8191	255	
890.827	1	1	0	0	0.14907	0.068395	0.023275	0.18247	0.15548	0.16166	0.37487	0.18015	0.058821	0.26086	0.10564	0.074793	0.2057	0.19373	0.13307	0.19272	-3.0146	-3.8104	-4.0354	-3.2375	-3.8417	-3.4896	-3.6042	-4.1687	-3.4979	-3.6208	-4.2312	-3.3646	-3.8958	-3.7771	-3.3583	-4.1854	157.878	92.084	-25.590	47.352	60.872	314.679	306.316	-6.675	140.610	300.425	216.414	274.963	196.561	270.091	47.117	218.866	0.00025264	0.0002401	6.0552e-05	959.69	3.1907e-06	3.56e-06	1047	197.82	3.2849e-06	2.9192e-06	258.84	73.51	57.521	17.107	3.1506e-06	24.472	7.3185e-05	5.251e-05	1.3747e-05	936.6	6.1059e-07	5.6543e-07	1026.7	196.16	6.3964e-07	5.505e-07	254.53	73.188	57.013	17.276	5.9887e-07	24.564	18.621	45.419	87.609	-31.232	108.555	117.194	-31.045	-23.238	100.394	149.814	-23.990	-16.710	-16.023	-9.210	126.228	-9.454	-8191	255	
890.921	1	1	0	0	0.20142	0.24552	0.16769	0.13988	0.064864	0.040478	0.12859	0.1205	0.25803	0.16231	0.12113	0.17276	0.16351	0.34089	0.21134	0.086946	-3.1875	-3.5021	-3.975	-3.3667	-3.9271	-3.7521	-3.3875	-4.1396	-3.5417	-3.4583	-4.0229	-3.4313	-3.8479	-3.9062	-3.3063	-4.0687	77.927	37.015	-30.086	-38.885	314.010	216.522	304.463	240.597	309.184	185.264	284.108	188.865	290.237	292.607	-13.133	268.935	0.00028589	0.00023794	8.0219e-05	959.47	2.5588e-06	2.1641e-06	1040.1	197.95	2.3364e-06	3.2681e-06	258.62	73.865	57.429	17.19	9.8022e-07	24.542	7.1522e-05	5.0262e-05	1.4326e-05	936.37	5.712e-07	5.3557e-07	1026.8	196.72	5.9844e-07	5.5911e-07	254.36	73.422	57.033	17.314	5.8173e-07	24.558	19.824	60.675	62.495	-30.906	101.118	78.845	-30.787	-22.747	132.384	124.390	-23.417	-16.343	-15.954	-9.074	121.566	-9.828	-8191	255	
891.017	1	1	0	0	0.16737	0.13119	0.14755	0.2084	0.12407	0.21109	0.13797	0.09917	0.14144	0.0547	0.13934	0.30734	0.086413	0.11714	0.16377	0.17608	-3.25	-3.55	-4.0021	-3.5083	-3.8937	-4.15	-3.4396	-4.2375	-3.6271	-3.4062	-4.1208	-3.3958	-3.6854	-4.0125	-3.2792	-4.2021	20.371	299.065	103.639	272.469	37.116	63.332	64.700	217.895	292.402	203.898	260.028	257.361	-39.828	226.571	234.264	-12.695	0.00029308	0.00030452	9.5505e-05	958.2	4.0754e-06	3.3636e-06	1043.9	198.27	2.9721e-06	2.5293e-06	257.82	73.785	57.626	17.227	2.9268e-06	24.363	7.3042e-05	5.3646e-05	1.3628e-05	934.59	5.9647e-07	5.294e-07	1025.7	196.41	6.23e-07	5.3864e-07	253.59	73.343	57.116	17.288	6.3207e-07	24.508	9.602	48.844	66.823	-30.715	125.713	116.471	-30.574	-22.876	107.275	141.878	-23.466	-16.433	-16.086	-9.319	105.250	-9.810	-8191	255	
891.091	1	1	0	0	0.058028	0.026161	0.23963	0.052367	0.073126	0.085462	0.33417	0.25534	0.2365	0.18058	0.22173	0.10223	0.23704	0.040863	0.11253	0.24613	-3.2729	-3.4292	-4.0792	-3.5563	-3.7125	-3.9167	-3.2729	-3.9958	-3.7	-3.3104	-4.1188	-3.6312	-3.6	-4.2417	-3.2833	-3.8187	199.565	183.773	142.077	213.424	47.849	269.930	283.167	277.107	-13.197	-30.345	291.109	63.332	-5.658	146.276	130.759	276.235	0.00030501	0.00020633	4.2346e-05	957.34	2.0786e-06	3.1117e-06	1043.5	198.94	3.807e-06	1.213e-06	259.32	74.235	57.395	17.149	2.7361e-06	24.435	7.2079e-05	5.3613e-05	1.3229e-05	933.79	5.9397e-07	5.4528e-07	1024.8	196.79	6.1463e-07	5.7967e-07	254.61	73.422	57.102	17.285	5.7843e-07	24.501	11.611	57.629	65.585	-30.534	96.522	129.793	-30.534	-22.546	88.071	137.387	-23.534	-16.557	-16.051	-9.337	99.781	-9.502	-8191	255	
891.210	1	1	0	0	0.23643	0.20783	0.15069	0.36832	0.18862	0.11406	0.022316	0.22918	0.18069	0.11307	0.16436	0.20808	0.16832	0.17396	0.083324	0.15466	-3.45	-3.3271	-3.9917	-3.425	-3.6146	-4.1188	-3.4083	-3.9646	-3.8438	-3.2208	-4.0708	-3.7812	-3.5687	-4.1042	-3.2583	-3.925	110.834	71.339	264.642	168.231	137.265	216.970	-32.683	273.939	35.436	1.866	310.721	-17.874	288.916	153.120	47.186	-4.306	0.00028113	0.00030425	6.5857e-05	954.34	1.6642e-06	2.4358e-06	1048	198.1	1.9876e-06	1.6384e-06	259.4	73.634	57.109	17.276	3.2541e-06	24.59	6.8528e-05	5.0896e-05	1.3935e-05	934.43	6.0112e-07	5.097e-07	1026.5	196.56	6.165e-07	5.957e-07	254.9	73.429	56.972	17.293	5.8968e-07	24.618	32.447	59.206	68.968	-30.958	144.897	132.402	-30.693	-22.685	112.294	127.117	-23.244	-17.009	-16.191	-8.909	139.235	-9.486	-8191	255	
891.306	1	1	0	0	0.15097	0.040633	0.015644	0.28023	0.22943	0.14259	0.14843	0.0507	0.17924	0.09373	0.10403	0.43216	0.10519	0.15228	0.058759	0.12358	-3.5125	-3.2729	-3.9833	-3.625	-3.6437	-4.225	-3.2687	-3.6188	-4.0417	-3.2292	-4.1333	-3.7854	-3.3396	-4.2958	-3.5083	-3.5833	254.346	227.964	119.400	296.711	232.333	92.545	-27.925	215.060	-17.520	265.819	8.413	182.466	244.787	-13.451	137.732	136.288	0.00030914	0.00033657	6.8238e-05	956.99	4.2064e-06	1.9774e-06	1044.5	198.09	2.6582e-06	1.5185e-06	259.56	73.809	57.732	17.248	3.6955e-06	24.309	7.0777e-05	5.2469e-05	1.3373e-05	933.16	6.0871e-07	5.3321e-07	1024.3	196.29	5.7521e-07	5.3348e-07	255.43	73.425	57.128	17.337	5.8468e-07	24.513	5.575	51.459	67.412	-30.925	122.983	89.572	-30.757	-23.048	111.332	98.054	-23.539	-16.836	-15.966	-9.001	126.022	-9.117	-8191	255	
891.402	1	1	0	0	0.18971	0.11941	0.23543	0.25651	0.077823	0.3004	0.39486	0.16999	0.09044	0.12422	0.13888	0.19469	0.35659	0.10105	0.059593	0.11216	-3.5479	-3.3542	-3.9833	-3.9062	-3.275	-4.0563	-3.4938	-3.5438	-4.075	-3.2979	-4.0437	-3.8854	-3.3375	-4.0042	-3.2729	-3.575	121.458	259.214	127.819	-23.010	71.656	286.592	256.231	269.965	115.085	14.525	221.998	201.850	-3.279	244.393	50.065	238.647	0.00026614	0.00042649	8.6221e-05	956.42	3.4603e-06	1.3859e-06	1046.8	198.71	3.1566e-06	2.3552e-06	257.6	73.742	56.915	17.33	2.4697e-06	24.549	7.2274e-05	5.4519e-05	1.3835e-05	932.39	6.4292e-07	5.0217e-07	1024.5	196.89	6.2024e-07	5.4244e-07	254.52	73.239	56.889	17.34	5.878e-07	24.537	22.767	32.379	71.045	-30.894	127.001	73.851	-30.876	-22.922	128.172	100.231	-23.672	-16.801	-16.436	-9.144	118.653	-9.962	-8191	255	
891.498	1	1	0	0	0.029965	0.11799	0.1647	0.12346	0.083036	0.29137	0.2355	0.12873	0.11899	0.14056	0.20275	0.11905	0.17233	0.09092	0.20383	0.11694	-3.6292	-3.4333	-3.9146	-3.9437	-3.2167	-4.0042	-3.6271	-3.6833	-4.1375	-3.4146	-3.9208	-3.9938	-3.3	-4.1396	-3.7271	-3.5333	72.654	23.609	171.661	269.419	209.545	53.513	287.434	279.179	-37.526	278.410	180.464	184.357	37.587	-17.569	24.881	269.849	0.00029888	0.00032305	8.0155e-05	950.77	2.415e-06	1.6369e-06	1040.3	199.39	1.6263e-06	3.0352e-06	259.08	73.472	57.383	17.307	1.3672e-06	24.268	6.7542e-05	5.1077e-05	1.3054e-05	932.5	6.1318e-07	5.3185e-07	1026.2	196.47	6.0057e-07	5.4987e-07	254.23	73.269	57.048	17.292	5.5121e-07	24.473	4.207	26.618	57.243	-30.751	128.020	107.037	-30.932	-23.005	131.597	121.776	-23.680	-16.986	-16.469	-8.965	114.692	-9.539	-8191	255	
891.619	1	1	0	0	0.21618	0.10057	0.21488	0.19262	0.18117	0.16018	0.20251	0.25726	0.11367	0.26839	0.29069	0.34181	0.16917	0.18758	0.024651	0.21727	-3.6458	-3.2438	-3.7167	-4.1167	-3.3292	-3.9125	-3.7542	-3.3875	-3.9479	-3.1542	-3.5875	-4.1062	-3.2396	-3.9333	-3.8083	-3.3542	307.835	75.175	27.335	-35.283	152.264	19.148	253.934	253.343	292.714	84.830	267.575	311.194	66.040	194.349	116.244	289.524	0.00031792	0.00026878	7.7156e-05	953.48	2.1945e-06	1.5781e-06	1048.7	198.49	2.9965e-06	3.2389e-06	257.49	73.64	57.164	17.29	1.5514e-06	24.228	6.9318e-05	5.111e-05	1.4303e-05	933.09	6.4855e-07	4.8511e-07	1025.1	196.32	5.9034e-07	5.2451e-07	254.33	73.278	56.958	17.326	5.3372e-07	24.508	12.449	35.835	53.918	-31.523	139.374	116.179	-31.692	-23.516	127.566	109.558	-24.221	-16.943	-16.764	-10.074	103.225	-10.389	-8191	255	
891.713	1	1	0	0	0.28484	0.09439	0.090545	0.3904	0.10425	0.10592	0.050746	0.13312	0.27654	0.11535	0.27293	0.25594	0.19196	0.49389	0.034917	0.13614	-3.7521	-3.4813	-3.5875	-4.0813	-3.2188	-3.8417	-3.8958	-3.4417	-4.1937	-3.5687	-3.6729	-4.0583	-3.2208	-4.0354	-3.825	-3.3063	7.325	313.077	130.416	278.570	205.563	94.813	163.876	101.850	237.988	-6.821	-32.541	298.528	87.597	250.068	202.262	76.997	0.00025562	0.00040708	5.8423e-05	957.3	3.5285e-06	2.4151e-06	1046.3	198.43	2.9551e-06	3.0005e-06	258.1	73.589	57.189	17.271	2.156e-06	24.516	6.7873e-05	4.864e-05	1.3952e-05	934.3	6.0282e-07	5.2767e-07	1026.3	196.62	5.7868e-07	5.2143e-07	254.44	73.311	56.819	17.366	5.3845e-07	24.561	-2.261	47.124	65.899	-31.249	119.861	137.125	-30.995	-23.291	117.214	124.282	-23.680	-16.550	-16.002	-9.273	137.961	-9.578	-8191	255	
891.811	1	1	0	0	0.22701	0.17493	0.07728	0.21074	0.14992	0.12468	0.172	0.28059	0.23057	0.10748	0.2076	0.031892	0.23257	0.18467	0.0070543	0.21006	-3.7208	-3.5604	-3.4208	-4.2333	-3.2625	-3.7562	-4.1896	-3.3688	-4.0958	-3.6833	-3.4604	-4.1646	-3.2146	-3.6813	-4	-3.2667	65.104	35.233	259.682	235.183	234.282	134.832	284.039	-31.072	153.810	-14.059	300.579	218.984	104.341	122.922	195.391	237.901	0.00027406	0.00027088	3.392e-05	960.29	2.4712e-06	3.0124e-06	1050	199.36	1.0314e-06	4.1453e-06	258.68	73.847	57.11	17.176	3.5631e-06	24.51	6.8851e-05	5.1867e-05	1.3644e-05	935.11	6.0246e-07	5.0725e-07	1027.4	196.66	5.866e-07	5.4054e-07	254.65	73.515	56.869	17.264	5.231e-07	24.568	23.195	36.465	53.715	-30.423	106.999	102.200	-30.766	-22.886	117.437	119.866	-22.927	-16.840	-16.617	-9.820	114.676	-10.154	-8191	255	
891.907	1	1	0	0	0.098099	0.18273	0.17886	0.049522	0.033639	0.21995	0.15109	0.17854	0.17259	0.13902	0.21432	0.15065	0.13872	0.16285	0.10708	0.055083	-3.6979	-3.6458	-3.2417	-4.0396	-3.3354	-3.5187	-4.0083	-3.3292	-3.9729	-3.6833	-3.3417	-4.1188	-3.3125	-3.3792	-3.9792	-3.3042	6.202	289.554	96.939	246.082	158.613	215.041	-29.460	32.885	164.918	-27.890	202.530	236.231	123.961	301.172	239.405	132.320	0.00030513	0.00048313	6.2422e-05	957.46	2.6667e-06	1.7551e-06	1043.4	197.97	3.0426e-06	1.512e-06	259.72	73.286	57.403	17.216	2.9145e-06	24.578	6.9769e-05	4.8565e-05	1.3768e-05	934.77	6.0996e-07	5.274e-07	1025.9	196.36	6.2522e-07	5.505e-07	254.87	73.413	56.897	17.315	5.3193e-07	24.54	14.932	53.241	55.908	-31.434	111.209	105.564	-31.622	-23.604	71.789	139.907	-24.537	-17.074	-16.704	-10.039	125.258	-10.705	-8191	255	
892.001	1	1	0	0	0.008604	0.16304	0.14736	0.19166	0.03267	0.15756	0.15791	0.26087	0.17231	0.065281	0.17244	0.28069	0.089067	0.13055	0.086648	0.18749	-3.5583	-3.6542	-3.2521	-4.1292	-3.3771	-3.4521	-4.175	-3.3937	-3.8708	-3.8604	-3.2729	-3.9979	-3.5479	-3.3917	-4.0875	-3.3417	140.536	247.206	186.266	184.124	213.450	223.191	-9.343	244.209	7.771	225.868	302.365	267.132	243.947	137.221	244.362	129.723	0.00029327	0.00024044	5.5278e-05	960.18	2.9882e-06	1.2045e-06	1041.3	198.74	2.169e-06	2.4539e-06	257.41	73.66	57.598	17.197	1.695e-06	24.561	7.098e-05	4.4432e-05	1.288e-05	936.25	6.0925e-07	5.5517e-07	1025.3	196.74	5.8313e-07	4.8049e-07	254.23	73.53	57.023	17.345	5.2015e-07	24.55	19.785	27.788	48.935	-31.313	81.942	90.837	-31.451	-23.537	147.167	100.595	-24.296	-17.011	-16.556	-9.792	121.738	-10.552	-8191	255	
892.098	1	1	0	0	0.050354	0.067249	0.11273	0.10589	0.16613	0.14187	0.15768	0.15437	0.21225	0.040632	0.26541	0.084655	0.31349	0.22248	0.13178	0.12218	-3.3	-4.0271	-3.1208	-4.0229	-3.4229	-3.2958	-4.2625	-3.5354	-3.7646	-4.1021	-3.3771	-4.1146	-3.6729	-3.3417	-4.1625	-3.5208	10.059	240.520	-28.711	263.833	220.729	161.879	188.965	300.921	95.589	150.166	221.045	-18.271	275.182	251.671	149.345	317.515	0.00027944	0.00025567	6.8148e-05	957.06	4.5457e-06	2.4795e-06	1044.9	199.14	1.5475e-06	2.5365e-06	257.37	73.591	57.381	17.398	3.4684e-06	24.389	6.9859e-05	4.9636e-05	1.3979e-05	934.14	5.8308e-07	5.1941e-07	1025.4	196.84	5.8526e-07	4.4915e-07	253.98	73.408	56.905	17.359	5.3024e-07	24.501	19.947	36.831	52.430	-31.530	115.432	117.267	-31.340	-23.547	116.021	123.511	-23.969	-17.298	-16.838	-9.542	115.327	-10.565	-8191	255	
892.218	1	1	0	0	0.13965	0.11205	0.13212	0.17689	0.21851	0.25594	0.2921	0.15427	0.17932	0.21394	0.11388	0.24512	0.16167	0.2155	0.19378	0.059995	-3.2792	-3.9562	-3.1896	-3.9021	-3.7542	-3.3458	-4.2958	-3.4646	-3.5917	-4.2292	-3.1625	-3.8688	-4.0354	-3.2083	-4.1417	-3.6396	240.631	135.393	-32.145	-2.063	117.563	109.166	268.497	189.536	-0.882	155.996	313.012	297.626	135.312	306.833	112.199	194.941	0.00028573	0.00030917	5.5878e-05	958.55	2.262e-06	2.1016e-06	1042	198.21	3.0943e-06	2.7335e-06	259.3	73.938	57.19	17.25	2.8514e-06	24.383	6.9987e-05	4.9562e-05	1.4073e-05	936.08	5.6905e-07	5.3493e-07	1026.6	196.52	5.7672e-07	5.1491e-07	254.49	73.254	57.017	17.352	5.0605e-07	24.475	32.240	27.985	26.446	-31.112	145.080	118.289	-31.231	-23.622	136.568	121.814	-24.299	-17.128	-16.417	-9.854	144.224	-10.841	-8191	255	
892.314	1	1	0	0	0.2325	0.16619	0.056132	0.13848	0.17466	0.16294	0.026671	0.091866	0.20429	0.12535	0.089458	0.060403	0.24466	0.17341	0.31866	0.15458	-3.0958	-4.0396	-3.1458	-3.8104	-3.7938	-3.3417	-4.175	-3.7396	-3.4208	-4.0417	-3.3937	-3.8604	-3.9917	-3.1354	-4.0333	-3.6813	116.395	125.184	209.176	34.105	90.384	302.063	-20.673	223.696	120.015	181.702	183.818	-39.725	11.251	-40.313	103.427	88.699	0.00030572	0.00034246	9.6537e-05	953.55	3.4328e-06	1.8353e-06	1047.3	198.56	1.9114e-06	3.4912e-06	257.97	73.78	57.449	17.315	2.2982e-06	24.629	6.6707e-05	4.5165e-05	1.4431e-05	935.01	5.6316e-07	5.3357e-07	1026.9	196.89	6.0796e-07	4.7343e-07	254.9	73.582	56.988	17.393	5.5326e-07	24.551	11.029	38.259	49.014	-31.289	105.404	93.034	-31.155	-23.437	91.130	119.088	-24.331	-16.804	-16.549	-9.518	117.440	-9.844	-8191	255	
892.386	1	1	0	0	0.2238	0.14106	0.2257	0.41873	0.16529	0.12877	0.18802	0.13128	0.10865	0.30232	0.070794	0.3388	0.095142	0.24554	0.12847	0.14738	-2.8708	-4.0813	-3.1979	-3.7375	-3.9167	-3.3792	-4.0896	-3.8438	-3.35	-4.0312	-3.5479	-3.6625	-3.8542	-3.2208	-3.9437	-3.8521	128.257	181.610	105.243	273.719	17.173	8.766	271.438	192.141	-20.002	255.204	170.899	282.016	270.237	312.935	121.414	111.893	0.00028057	0.00037614	4.1071e-05	960.22	2.7171e-06	2.2824e-06	1044.1	197.45	3.8651e-06	2.4722e-06	258.93	73.797	57.517	17.154	2.8442e-06	24.432	6.7016e-05	4.5445e-05	1.3561e-05	936.39	5.2162e-07	5.1705e-07	1026.8	196.66	6.0502e-07	4.5386e-07	254.24	73.395	57.082	17.281	5.4353e-07	24.489	3.672	46.409	84.066	-31.282	106.403	113.705	-31.183	-23.577	138.777	105.740	-23.840	-17.280	-16.593	-9.657	119.364	-10.334	-8191	255	
892.482	1	1	0	0	0.28035	0.31009	0.25068	0.23241	0.24536	0.26749	0.18047	0.081623	0.059685	0.11826	0.093862	0.35065	0.15844	0.090042	0.13786	0.33147	-2.9104	-4.075	-3.2292	-3.6813	-4.1312	-3.2062	-3.9688	-3.7792	-3.2188	-4.1208	-3.5667	-3.5771	-4.1562	-3.3292	-3.7875	-3.9771	46.765	127.216	-32.411	230.989	6.151	-0.590	305.753	107.509	22.707	110.013	234.206	-29.413	230.450	313.272	7.610	283.210	0.00031735	0.00030634	5.9364e-05	959.96	3.3493e-06	2.0066e-06	1046.2	198.93	3.0299e-06	3.0091e-06	257.1	73.937	57.519	17.4	3.648e-06	24.627	6.9942e-05	4.7182e-05	1.3325e-05	936.21	5.8227e-07	5.4446e-07	1027.4	196.72	6.1036e-07	5.0857e-07	254.72	73.503	57.106	17.367	5.2095e-07	24.589	20.530	33.134	60.330	-31.131	111.236	111.754	-31.179	-23.420	100.806	143.481	-24.229	-16.854	-16.746	-9.658	100.765	-10.792	-8191	255	
892.603	1	1	0	0	0.11362	0.29211	0.17149	0.0069003	0.10336	0.024295	0.2392	0.26349	0.26066	0.14618	0.2303	0.11829	0.10467	0.071958	0.018657	0.053116	-2.8417	-4.1542	-3.3854	-3.5833	-4.1979	-3.2521	-3.9708	-4.0563	-3.2979	-3.9479	-3.6646	-3.5333	-4.2625	-3.5146	-3.7146	-3.9771	304.459	141.231	48.124	-12.941	151.112	307.640	209.252	22.847	-1.952	149.886	136.240	216.641	139.186	298.918	-13.209	70.481	0.00024266	0.0003131	6.9223e-05	963.2	2.5441e-06	2.6887e-06	1048.9	198.84	3.2037e-06	2.2496e-06	256.19	73.457	57.405	17.198	2.2791e-06	24.584	7.0002e-05	4.5823e-05	1.3605e-05	934.01	5.7298e-07	5.0553e-07	1028.7	196.59	5.9336e-07	5.1609e-07	254.12	73.427	57.045	17.307	5.6058e-07	24.558	19.887	51.895	61.546	-31.362	110.722	93.957	-31.198	-23.374	132.530	123.288	-24.036	-16.830	-16.719	-8.973	114.673	-10.187	-8191	255	
892.699	1	1	0	0	0.030749	0.065209	0.070233	0.099034	0.2849	0.047212	0.27055	0.098529	0.24525	0.051817	0.14869	0.27484	0.22417	0.25575	0.14874	0.086619	-2.7479	-3.9271	-3.6229	-3.4271	-4.0104	-3.3167	-3.8479	-4.0833	-3.1562	-3.9062	-3.9208	-3.2479	-4.1583	-3.4813	-3.4729	-4.1854	64.145	266.896	147.878	228.240	201.134	153.944	271.348	54.264	7.855	254.383	87.755	-28.677	224.552	108.639	198.118	138.012	0.00033418	0.00022217	4.915e-05	956.29	1.4187e-06	1.5804e-06	1049.3	198.1	3.3218e-06	2.2139e-06	259.24	73.453	57.689	17.222	1.3691e-06	24.502	6.9295e-05	4.6079e-05	1.3738e-05	933.97	5.4869e-07	5.1678e-07	1028.4	196.39	6.1908e-07	5.1373e-07	254.38	73.309	57.159	17.294	5.5157e-07	24.5	19.552	52.894	83.114	-30.967	139.110	133.337	-30.830	-23.469	111.451	107.713	-24.092	-17.168	-16.762	-9.436	109.963	-9.764	-8191	255	
892.793	1	1	0	0	0.23058	0.21938	0.18214	0.22365	0.23324	0.048102	0.2028	0.18036	0.15708	0.21047	0.058999	0.1256	0.13812	0.071603	0.20673	0.057562	-2.7625	-3.7792	-3.9729	-3.3625	-4.1042	-3.3104	-3.6104	-4.0458	-3.2729	-3.9083	-3.9521	-3.3688	-3.9208	-3.6104	-3.4375	-4.2604	82.762	209.114	102.870	87.738	242.099	273.835	284.078	92.521	279.746	158.426	105.013	310.486	185.831	258.370	230.622	231.129	0.00026028	0.00026465	8.2711e-05	953.76	2.399e-06	2.1794e-06	1046.9	198.25	4.831e-06	3.7084e-06	257.62	73.495	57.65	17.182	2.5062e-06	24.466	6.8362e-05	4.7742e-05	1.3006e-05	935.62	5.5155e-07	5.2241e-07	1027	196.26	6.2745e-07	5.1835e-07	254.76	73.345	57.096	17.287	5.7415e-07	24.496	15.285	42.858	52.043	-31.024	132.460	124.719	-30.831	-23.337	108.970	110.824	-24.188	-16.925	-16.415	-9.806	126.894	-10.041	-8191	255	
892.891	1	1	0	0	0.078828	0.03853	0.099423	0.27547	0.31126	0.26956	0.20988	0.027348	0.19984	0.077335	0.27908	0.26903	0.30318	0.22061	0.1568	0.072169	-2.9521	-3.8187	-3.9875	-3.2687	-3.9938	-3.5542	-3.5	-4.2146	-3.2562	-3.5771	-4.1	-3.3729	-4.0854	-3.6813	-3.2292	-4.1042	60.775	115.526	318.697	274.372	164.361	226.600	279.722	151.841	80.603	236.475	-12.626	218.363	109.916	134.523	255.260	192.552	0.00027098	0.0002491	6.2266e-05	956.81	1.7386e-06	2.2719e-06	1047	198.97	1.9286e-06	2.6381e-06	258.59	73.977	57.628	17.363	1.81e-06	24.551	6.8167e-05	4.8936e-05	1.3284e-05	935.22	5.871e-07	5.294e-07	1027	196.58	6.2647e-07	5.4172e-07	253.77	73.305	57.066	17.344	5.8307e-07	24.545	5.498	-6.889	49.368	-31.177	114.904	94.228	-30.819	-23.151	119.460	113.728	-23.495	-16.687	-16.302	-9.357	124.388	-10.001	-8191	255	
892.986	1	1	0	0	0.16187	0.15777	0.2459	0.19111	0.062172	0.068385	0.23786	0.11479	0.10619	0.34232	0.30033	0.035502	0.071902	0.060389	0.14835	0.1963	-3.0354	-3.5812	-3.8833	-3.2708	-3.9354	-3.7562	-3.4667	-4.175	-3.5792	-3.5167	-4.1896	-3.3854	-3.8729	-3.9167	-3.1667	-4.0333	254.631	267.796	170.652	255.713	7.166	46.941	242.372	-34.715	213.945	293.542	305.070	149.939	286.815	223.782	276.689	148.208	0.00025734	0.00023986	6.5255e-05	958.4	2.8691e-06	3.458e-06	1052	199.55	2.7038e-06	3.0442e-06	258.47	74.006	57.302	17.251	4.1569e-06	24.481	6.9483e-05	4.8236e-05	1.3832e-05	933.87	5.7486e-07	5.5299e-07	1029	196.85	5.8028e-07	5.5349e-07	254.45	73.44	56.887	17.319	5.4559e-07	24.525	16.524	55.076	52.155	-30.886	140.681	104.167	-30.681	-23.041	164.347	116.965	-24.007	-16.913	-16.158	-9.454	128.421	-10.122	-8191	255	
893.082	1	1	0	0	0.22888	0.20222	0.18473	0.064371	0.076843	0.073663	0.086837	0.097296	0.018483	0.23835	0.098204	0.24464	0.14943	0.099264	0.14046	0.17248	-3.1729	-3.2812	-3.9833	-3.1813	-3.8833	-4.0042	-3.4188	-4.1042	-3.3812	-3.4917	-4.0771	-3.3771	-3.7896	-3.9479	-3.1479	-4.0604	185.165	-6.979	-40.465	6.311	50.320	99.592	22.917	211.948	285.292	181.933	111.552	248.909	-30.118	41.491	-19.810	286.688	0.00026231	0.00019564	8.4437e-05	960.21	1.2686e-06	2.2636e-06	1047.1	198.93	2.4779e-06	1.9346e-06	258.48	73.81	57.326	17.33	2.4606e-06	24.579	6.9167e-05	4.6919e-05	1.3692e-05	934.41	5.9326e-07	5.2604e-07	1026.4	196.75	6.0182e-07	5.2252e-07	253.95	73.482	56.958	17.346	5.6915e-07	24.552	13.518	51.234	35.226	-31.082	117.351	90.786	-31.102	-23.111	85.890	95.115	-23.775	-16.648	-16.357	-9.055	123.355	-10.150	-8191	255	
893.178	1	1	0	0	0.18162	0.18254	0.12442	0.21685	0.087374	0.12103	0.2519	0.28323	0.15252	0.19761	0.16286	0.21009	0.21222	0.18736	0.27121	0.15973	-3.2938	-3.2542	-4.1229	-3.2792	-3.6854	-3.9562	-3.4292	-3.9854	-3.6854	-3.4042	-4.1708	-3.4042	-3.8438	-4.1042	-3.35	-3.9813	31.995	48.325	268.723	216.599	300.035	178.482	264.142	288.901	44.710	120.759	165.522	190.679	53.693	65.181	218.927	17.612	0.00024935	0.00033139	0.00011258	955.36	3.134e-06	3.2505e-06	1042.8	199.67	2.3285e-06	2.9922e-06	256.65	73.682	57.517	17.348	1.4288e-06	24.421	6.752e-05	4.929e-05	1.335e-05	933.86	5.9522e-07	4.7993e-07	1026.4	197.07	5.9772e-07	5.3121e-07	253.78	73.424	57.005	17.362	5.214e-07	24.559	17.874	33.461	70.406	-30.933	112.354	82.873	-30.849	-23.137	103.221	106.930	-23.818	-16.797	-16.232	-9.256	97.971	-9.895	-8191	255	
893.299	1	1	0	0	0.31606	0.26288	0.13645	0.19502	0.15847	0.093309	0.20504	0.0022397	0.074107	0.20013	0.19403	0.03884	0.066777	0.23103	0.04963	0.18702	-3.5	-3.3396	-4.2125	-3.5167	-3.5958	-4.1208	-3.2646	-4.0396	-3.7083	-3.175	-4.1458	-3.675	-3.4688	-4.1583	-3.3646	-4.0167	-38.450	-11.295	26.788	-14.543	304.964	281.865	191.706	180.000	296.694	19.770	278.109	316.557	313.024	312.914	159.120	-22.232	0.00028497	0.00040291	5.1214e-05	954.63	1.9065e-06	3.5833e-06	1049.6	199.08	3.1444e-06	3.3445e-06	256.83	73.51	57.406	17.368	4.1065e-06	24.43	7.1138e-05	4.9694e-05	1.2591e-05	934.51	5.6905e-07	5.2277e-07	1028	197.09	5.8482e-07	5.563e-07	253.9	73.343	57.115	17.355	5.9887e-07	24.585	16.667	41.611	28.025	-30.948	104.890	121.218	-30.807	-23.155	74.787	114.284	-23.601	-16.667	-16.131	-9.220	113.021	-9.786	-8191	255	
893.395	1	1	0	0	0.23532	0.14184	0.057848	0.12705	0.020403	0.0917	0.15435	0.12674	0.14975	0.30397	0.10643	0.24385	0.24694	0.16468	0.23038	0.22565	-3.5229	-3.2646	-4.0563	-3.9042	-3.3396	-4.1083	-3.4062	-3.9125	-4.1125	-3.2229	-3.9833	-3.7188	-3.3937	-3.9854	-3.3146	-3.6625	157.819	-35.973	219.100	302.873	274.516	257.288	4.074	39.138	194.200	26.989	119.982	259.993	264.594	65.990	294.484	305.663	0.00025737	0.00020908	5.4879e-05	961.38	2.1258e-06	2.3516e-06	1045.5	198.91	3.7033e-06	2.2648e-06	259.81	73.763	57.526	17.389	2.4676e-06	24.537	6.7994e-05	4.9002e-05	1.3093e-05	935.99	5.7307e-07	5.117e-07	1025.8	196.61	5.5705e-07	5.64e-07	255.31	73.41	57.091	17.338	5.455e-07	24.573	12.728	62.511	77.308	-31.114	120.371	96.577	-30.742	-22.987	103.637	140.664	-23.703	-17.038	-16.272	-8.813	124.634	-9.563	-8191	255	
893.491	1	1	0	0	0.11841	0.11425	0.071284	0.2754	0.18072	0.11005	0.39532	0.13602	0.096504	0.11415	0.0021443	0.15997	0.20625	0.14217	0.054338	0.17459	-3.7271	-3.1583	-4.0396	-3.8187	-3.3563	-4.1208	-3.4938	-3.7146	-4.0229	-3.4188	-3.9688	-3.6646	-3.3292	-4.0938	-3.5229	-3.7188	96.982	173.227	-4.833	284.988	84.673	44.343	296.781	278.864	66.897	253.520	272.277	-19.706	269.087	216.883	-28.788	240.329	0.00025341	0.00024421	5.2117e-05	956.74	2.5811e-06	2.0784e-06	1040.2	198.87	4.1959e-06	2.737e-06	257.21	73.442	57.302	17.19	2.524e-06	24.404	6.7114e-05	4.892e-05	1.3135e-05	935.21	6.0844e-07	4.793e-07	1024.9	196.7	5.7378e-07	4.9933e-07	254.31	73.326	57.064	17.319	5.3827e-07	24.536	9.295	48.640	51.253	-31.446	91.970	105.070	-31.296	-23.667	113.639	109.537	-24.177	-17.457	-16.457	-9.730	138.898	-9.916	-8191	255	
893.612	1	1	0	0	0.18651	0.11158	0.19636	0.24486	0.060672	0.0087903	0.30211	0.22839	0.29291	0.24845	0.14166	0.10135	0.1855	0.10437	0.22535	0.074296	-3.6958	-3.2542	-3.8854	-3.8729	-3.2917	-4.1312	-3.5104	-3.6083	-4.2188	-3.2354	-3.875	-3.975	-3.2917	-3.8688	-3.4896	-3.3417	164.752	71.554	232.066	239.757	55.598	255.536	292.774	-13.326	269.943	62.875	-6.067	224.364	156.081	86.846	48.553	248.841	0.00031929	0.00029465	7.0614e-05	956.66	2.9089e-06	2.8782e-06	1051.9	198.08	3.3959e-06	3.4357e-06	257.28	74.489	57.796	17.292	2.5441e-06	24.398	6.597e-05	4.9265e-05	1.346e-05	933.92	5.8317e-07	4.8692e-07	1027.9	196.34	5.2848e-07	5.4271e-07	254.41	73.741	57.304	17.344	5.2658e-07	24.541	15.141	50.196	51.891	-31.359	85.666	119.641	-31.537	-23.250	91.920	111.950	-24.034	-17.202	-16.851	-9.426	121.259	-10.070	-8191	255	
893.683	1	1	0	0	0.11871	0.10437	0.12609	0.16581	0.12139	0.21856	0.40007	0.10862	0.26309	0.14201	0.31255	0.18944	0.23459	0.15681	0.085217	0.16152	-3.6312	-3.2604	-3.6417	-3.9104	-3.2083	-4.0354	-3.7125	-3.5229	-4.1	-3.3812	-3.7458	-4.0021	-3.2	-4.0458	-3.5187	-3.4375	46.632	309.782	94.367	314.361	274.549	288.550	312.450	302.206	270.181	85.034	5.607	-18.309	67.798	142.995	93.608	214.085	0.00025503	0.00024344	7.3629e-05	961.01	1.5984e-06	2.0098e-06	1050.6	198.52	2.4226e-06	2.4919e-06	258.59	73.445	57.545	17.378	3.2442e-06	24.562	6.5097e-05	4.4564e-05	1.2644e-05	935.17	5.8352e-07	4.8048e-07	1027.9	196.83	5.7601e-07	5.0811e-07	255.03	73.445	57.069	17.381	5.1444e-07	24.577	5.925	32.960	41.398	-31.282	103.426	120.255	-31.331	-23.106	75.968	127.229	-24.124	-16.961	-16.728	-9.613	103.224	-9.653	-8191	255	
893.779	1	1	0	0	0.21591	0.21361	0.10346	0.28539	0.11045	0.17398	0.24272	0.1598	0.26458	0.27486	0.18274	0.099975	0.13901	0.1564	0.14824	0.04227	-3.6458	-3.3937	-3.5938	-4.1104	-3.2104	-4.0729	-3.9021	-3.4792	-4	-3.3958	-3.7104	-4.1875	-3.2708	-4.0021	-3.8312	-3.2458	305.927	273.222	66.591	141.465	195.930	67.975	-28.730	180.218	117.383	2.842	270.947	289.493	256.584	283.471	40.155	169.624	0.00028658	0.00031542	5.1674e-05	960.9	3.6872e-06	1.9509e-06	1046.7	198.8	2.5887e-06	1.1461e-06	259.8	73.849	57.683	17.312	3.3601e-06	24.455	6.269e-05	4.6754e-05	1.2928e-05	936.28	5.7004e-07	4.6577e-07	1027.1	196.61	5.6017e-07	5.1944e-07	255.52	73.581	57.183	17.363	5.023e-07	24.544	14.988	49.909	45.125	-31.064	113.009	131.578	-31.047	-23.296	123.118	85.429	-24.058	-17.014	-16.595	-9.500	123.684	-10.123	-8191	255	
893.898	1	1	0	0	0.12758	0.13508	0.19296	0.087755	0.17698	0.068094	0.17339	0.04063	0.15836	0.25728	0.078022	0.12877	0.08617	0.26343	0.1142	0.37458	-3.7375	-3.4583	-3.6104	-4.0958	-3.3021	-3.6917	-3.9917	-3.1875	-4.1042	-3.4062	-3.5312	-4.2104	-3.4771	-3.8875	-3.8396	-3.1208	258.730	105.184	-32.042	39.844	33.403	-1.701	-25.024	4.021	280.747	-29.096	170.466	280.126	14.892	134.550	90.812	133.849	0.00029333	0.00031821	8.3252e-05	956.74	2.5647e-06	2.0145e-06	1044.2	199.41	1.9678e-06	2.6187e-06	258.79	74.269	57.524	17.392	2.9971e-06	24.61	6.4939e-05	4.7742e-05	1.3132e-05	935.76	5.795e-07	4.9899e-07	1026	196.78	5.3498e-07	5.1319e-07	255.03	73.585	57.136	17.394	4.8615e-07	24.63	14.431	32.731	64.022	-31.321	112.586	71.221	-30.798	-23.351	133.241	139.431	-23.511	-17.099	-16.406	-9.083	138.298	-10.106	-8191	255	
893.994	1	1	0	0	0.12729	0.27947	0.14985	0.057179	0.064751	0.061715	0.093262	0.11761	0.032332	0.1558	0.12092	0.078229	0.066122	0.032677	0.14974	0.18952	-3.4979	-3.4792	-3.2604	-4.1333	-3.2938	-3.6312	-4.1375	-3.2771	-4.0542	-3.85	-3.4271	-3.9542	-3.3708	-3.5958	-3.8458	-3.3208	46.052	252.654	268.687	40.460	199.266	217.487	-13.953	152.127	-14.058	-38.839	258.291	152.456	144.515	106.159	4.952	306.078	0.00029626	0.00039622	7.6881e-05	959.76	3.6381e-06	2.6189e-06	1043.4	199.27	1.5665e-06	3.7572e-06	259.45	74	57.41	17.375	2.6507e-06	24.347	6.3751e-05	4.6655e-05	1.3389e-05	935.38	5.7852e-07	5.0752e-07	1024.1	197.11	5.72e-07	4.8574e-07	255	73.609	57.099	17.343	5.3514e-07	24.573	8.744	24.064	42.631	-30.964	96.973	90.142	-31.322	-23.330	79.996	126.266	-23.799	-17.192	-16.445	-9.043	106.996	-10.445	-8191	255	
894.091	1	1	0	0	0.11249	0.18053	0.0085792	0.29083	0.19679	0.2403	0.1835	0.054333	0.22138	0.044902	0.20738	0.094335	0.17307	0.19509	0.10095	0.26496	-3.7104	-3.6667	-3.0604	-4.0833	-3.5312	-3.6479	-4.1562	-3.3542	-3.875	-3.8417	-3.3375	-3.9979	-3.3375	-3.6292	-4.0542	-3.3917	271.307	102.750	-34.694	-20.792	188.840	87.373	158.687	257.140	-12.486	317.561	76.892	58.053	47.536	266.586	242.982	288.481	0.00027541	0.00027452	3.3726e-05	957.69	3.2776e-06	3.0508e-06	1042.3	198.55	3.7097e-06	2.2085e-06	258.45	73.982	57.62	17.354	2.9822e-06	24.348	6.509e-05	4.5469e-05	1.3408e-05	935.6	5.5717e-07	4.6832e-07	1027.5	196.61	5.7111e-07	4.9335e-07	255.09	73.634	57.016	17.389	5.2051e-07	24.516	3.105	51.364	66.227	-31.081	90.403	95.337	-31.004	-23.082	133.898	138.998	-23.816	-17.055	-16.687	-9.668	137.191	-10.206	-8191	255	
894.187	1	1	0	0	0.1937	0.066949	0.13917	0.11597	0.035342	0.21837	0.13013	0.1538	0.27453	0.16079	0.27427	0.18465	0.13551	0.14067	0.14102	0.16937	-3.3146	-3.7771	-3.2417	-4.1896	-3.5396	-3.4229	-4.1521	-3.3521	-3.7417	-3.8479	-3.3479	-4.1125	-3.5563	-3.3396	-4.0917	-3.5167	-7.310	17.100	84.449	-28.485	241.510	221.264	288.018	260.596	233.073	92.513	246.997	-19.301	180.738	100.790	317.322	208.043	0.00034742	0.00029949	7.3246e-05	957.74	2.8146e-06	2.2279e-06	1044.4	199.34	2.7548e-06	2.8536e-06	257.42	73.788	57.239	17.261	2.131e-06	24.484	6.6015e-05	4.5066e-05	1.3447e-05	934.21	5.7379e-07	5.1587e-07	1026.9	196.5	5.8135e-07	4.7669e-07	254.66	73.541	57.013	17.334	5.0043e-07	24.507	4.723	58.665	40.986	-31.061	90.430	104.613	-31.181	-23.335	69.055	108.974	-23.985	-16.949	-16.504	-9.440	120.275	-10.229	-8191	255	
894.283	1	1	0	0	0.2798	0.15027	0.13598	0.20719	0.029598	0.16111	0.15468	0.21256	0.022843	0.18366	0.26301	0.11746	0.37157	0.20285	0.22728	0.074532	-3.2896	-3.9896	-3.1875	-4.05	-3.5833	-3.3979	-4.2312	-3.4062	-3.7062	-4.1979	-3.2208	-3.9229	-4.0375	-3.3271	-3.9958	-3.5125	23.454	230.605	73.558	9.694	38.516	5.259	249.047	225.762	250.708	198.375	308.753	181.307	152.637	244.535	168.643	269.406	0.00022012	0.00027085	9.2486e-05	955.79	2.5988e-06	3.4129e-06	1049.8	197.75	3.2438e-06	2.1733e-06	258.07	74.126	57.535	17.23	2.5785e-06	24.463	6.9468e-05	4.5486e-05	1.3986e-05	934.85	5.6101e-07	5.254e-07	1027.8	196.33	6.028e-07	4.4834e-07	254.09	73.613	57.162	17.307	5.0266e-07	24.569	19.141	19.881	39.573	-31.119	99.807	94.755	-30.827	-23.390	110.545	114.083	-23.789	-16.447	-16.460	-9.058	91.103	-10.003	-8191	255	
894.379	1	1	0	0	0.30489	0.11618	0.021745	0.14726	0.068434	0.059965	0.037614	0.13712	0.034143	0.1439	0.097455	0.057668	0.24806	0.1796	0.069461	0.097347	-3.0417	-3.7833	-3.3125	-3.9188	-3.8708	-3.4042	-4.1937	-3.5646	-3.4833	-4.1958	-3.4521	-3.8583	-3.8896	-3.2417	-4.0792	-3.8354	152.189	265.911	-1.116	59.246	239.067	-6.772	225.547	-30.282	34.565	13.769	25.585	191.868	250.747	255.303	-4.722	313.704	0.00022091	0.00034561	0.00010005	951.42	2.4999e-06	1.4443e-06	1049.6	199.15	2.3585e-06	1.8467e-06	259.63	74.035	57.762	17.313	2.5128e-06	24.481	6.9942e-05	4.3921e-05	1.3203e-05	933.94	5.3842e-07	4.9146e-07	1027.3	196.7	5.9354e-07	4.7922e-07	255.12	73.65	57.052	17.342	5.0605e-07	24.571	12.339	40.325	45.887	-31.055	121.401	68.931	-30.450	-22.914	82.300	93.656	-23.703	-16.227	-16.064	-9.362	132.664	-10.083	-8191	255	
894.475	1	1	0	0	0.29524	0.03748	0.049994	0.12017	0.041927	0.070723	0.19086	0.077674	0.040918	0.12486	0.049709	0.10118	0.013225	0.11338	0.2386	0.363	-2.9729	-3.9896	-3.2958	-3.9646	-4.0312	-3.0104	-4.0979	-3.7854	-3.2083	-4.1333	-3.4646	-3.8312	-4.0396	-3.3854	-3.925	-3.7354	293.476	46.032	3.069	224.487	132.332	7.444	232.148	-10.634	236.251	36.827	-37.414	242.785	98.255	83.018	280.196	51.223	0.00030688	0.00038599	5.8241e-05	953.9	2.1573e-06	2.2804e-06	1049.5	197.98	2.4958e-06	2.5668e-06	258.79	73.984	57.56	17.209	1.7909e-06	24.412	6.9867e-05	4.7907e-05	1.3068e-05	933.69	5.5825e-07	4.9146e-07	1029.8	196.03	5.9808e-07	5.0259e-07	254.31	73.55	57.094	17.301	5.2479e-07	24.538	11.350	41.055	41.471	-30.699	138.918	128.159	-30.838	-22.708	143.796	126.332	-23.737	-16.563	-16.248	-8.785	115.067	-9.841	-8191	255	
894.571	1	1	0	0	0.034104	0.14834	0.1722	0.44511	0.40557	0.13554	0.25364	0.28383	0.16288	0.030943	0.12936	0.10687	0.19381	0.25336	0.1898	0.14629	-3.1583	-4.2104	-3.4562	-3.7313	-4.0354	-3.275	-4.0813	-3.7958	-3.3063	-4.0625	-3.6125	-3.3958	-4.0042	-3.2979	-3.9688	-3.7917	56.148	234.777	57.146	228.339	182.704	245.767	250.884	268.484	172.622	275.788	203.873	307.939	28.636	-15.791	193.883	314.738	0.00029022	0.00028959	6.8062e-05	954.06	3.8757e-06	2.0757e-06	1049.1	198.04	4.3352e-06	2.1028e-06	259.26	74.013	57.781	17.347	2.9152e-06	24.593	6.6978e-05	4.5148e-05	1.2311e-05	935.22	5.4092e-07	4.9209e-07	1028.4	196.48	5.9523e-07	4.8366e-07	254.68	73.549	57.037	17.35	5.4969e-07	24.524	20.799	27.412	57.380	-30.985	107.938	83.996	-30.734	-23.153	110.536	136.791	-23.905	-16.695	-16.466	-9.104	135.972	-10.062	-8191	255	
894.690	1	1	0	0	0.20298	0.084658	0.022215	0.18748	0.1855	0.24751	0.10451	0.20702	0.038091	0.25438	0.25432	0.14853	0.10883	0.26882	0.14403	0.095807	-2.8625	-4.0958	-3.625	-3.4458	-4.2458	-3.3417	-3.9042	-3.9062	-3.3167	-4.1292	-3.5187	-3.5542	-3.9479	-3.3708	-3.7729	-4.0021	313.788	283.236	85.004	274.055	46.358	2.034	121.598	136.803	-4.601	138.045	69.689	308.908	230.159	310.148	-13.957	303.527	0.00032313	0.00031731	6.7278e-05	963.89	3.4058e-06	2.7681e-06	1046	197.47	2.4474e-06	2.9333e-06	257.8	73.818	57.524	17.295	2.5057e-06	24.275	7.0266e-05	4.7429e-05	1.33e-05	937.63	5.5619e-07	5.1678e-07	1029.7	196.28	5.9043e-07	5.0069e-07	254.26	73.405	57.094	17.32	5.2497e-07	24.509	8.807	26.589	57.138	-30.729	133.525	102.029	-30.827	-23.252	106.650	124.749	-23.630	-16.791	-16.512	-9.076	86.352	-10.459	-8191	255	
894.786	1	1	0	0	0.17901	0.32886	0.11938	0.055799	0.084051	0.11261	0.034936	0.13972	0.1342	0.21953	0.17299	0.12441	0.073587	0.042822	0.051074	0.11469	-2.875	-4.025	-3.6396	-3.4354	-4.1083	-3.2792	-3.7667	-4.1542	-3.3604	-4.0125	-3.85	-3.4062	-4.1146	-3.3563	-3.4938	-4.0896	59.838	203.461	97.341	225.664	83.525	109.414	305.982	312.907	52.499	-1.738	-35.892	-24.063	96.992	212.783	107.000	80.550	0.00024555	0.00040877	7.8754e-05	953.59	1.3501e-06	2.1019e-06	1045.2	198.63	4.0669e-06	2.6583e-06	259.36	73.547	57.412	17.226	3.0323e-06	24.268	6.7678e-05	4.5502e-05	1.3112e-05	936.67	5.3976e-07	5.2132e-07	1027.9	196.42	6.2024e-07	4.8565e-07	254.77	73.33	56.997	17.302	5.3354e-07	24.579	20.887	40.522	60.988	-30.798	63.149	123.736	-30.728	-23.074	121.728	131.849	-23.729	-16.651	-16.030	-9.261	105.462	-10.000	-8191	255	
894.882	1	1	0	0	0.099043	0.20779	0.21492	0.030455	0.29128	0.15453	0.16156	0.0071176	0.1215	0.062694	0.15469	0.19808	0.12117	0.051954	0.30703	0.098415	-3.0083	-4.0021	-3.7812	-3.4667	-4.0729	-3.3875	-3.6792	-4.2562	-3.0354	-3.9333	-3.9146	-3.3396	-4.0854	-3.3833	-3.4667	-4.1521	296.475	63.065	52.161	283.151	-26.646	289.595	212.914	287.565	140.517	17.219	248.320	293.027	0.647	86.186	147.413	-18.148	0.00029971	0.00028836	4.6725e-05	955.85	4.5446e-06	2.5975e-06	1051.3	199.41	2.4162e-06	2.7436e-06	258.12	74.08	57.546	17.296	2.8155e-06	24.545	7.0529e-05	4.5963e-05	1.2708e-05	935.86	5.6369e-07	5.0498e-07	1030	196.76	6.068e-07	4.9226e-07	254.44	73.457	57.092	17.332	5.3416e-07	24.56	16.731	66.044	55.166	-30.748	133.520	125.987	-30.907	-22.797	58.982	99.834	-23.539	-16.978	-16.149	-9.209	110.213	-9.829	-8191	255	
#DATA ENDS
