BOXY.EXE: ISS Imagent and Oximeter Data Acquisition Program Version 0.80
Ascii Record File

#ACQ INFORMATION
2  Detector Channels 
16  External MUX Channels 
1  Auxiliary Channels 
5000  Waveform (CCF) Frequency (Hz)
1  Waveforms Skipped 
30  Waveforms Averaged 
1  Cycles Averaged 
16  Acquisitions per Waveform 
10.0806  Updata Rate (Hz) 

#FILE INFORMATION
TRUE -- External MUX Channel results are PARSED.
FALSE -- AC DC and Phase are NOT grouped.
TRUE -- Companion Program Settings File CREATED.
FALSE -- AC data not excluded
FALSE -- DC data not excluded
FALSE -- Phase data not excluded
FALSE -- Auxillary Chn. data not excluded
Tab delimiters

#CALIBRATION STATE
TRUE -- Waveform Calibration Values APPLIED.


#AUX CALIBRATION VALUES
Val Type	aux-1	

Term	1.0000e+00	
Factor	0.0000e+00	


#WF CALIBRATION VALUES
A = Detector Channel
Val Type	A-AC1	A-AC2	A-AC3	A-AC4	A-AC5	A-AC6	A-AC7	A-AC8	A-AC9	A-AC10	A-AC11	A-AC12	A-AC13	A-AC14	A-AC15	A-AC16	A-DC1	A-DC2	A-DC3	A-DC4	A-DC5	A-DC6	A-DC7	A-DC8	A-DC9	A-DC10	A-DC11	A-DC12	A-DC13	A-DC14	A-DC15	A-DC16	A-Ph1	A-Ph2	A-Ph3	A-Ph4	A-Ph5	A-Ph6	A-Ph7	A-Ph8	A-Ph9	A-Ph10	A-Ph11	A-Ph12	A-Ph13	A-Ph14	A-Ph15	A-Ph16	

Term	0.00000e+00	0.00000e+00	0.00000e+00	0.00000e+00	0.00000e+00	0.00000e+00	0.00000e+00	0.00000e+00	0.00000e+00	0.00000e+00	0.00000e+00	0.00000e+00	0.00000e+00	0.00000e+00	0.00000e+00	0.00000e+00	0.00000e+00	0.00000e+00	0.00000e+00	0.00000e+00	0.00000e+00	0.00000e+00	0.00000e+00	0.00000e+00	0.00000e+00	0.00000e+00	0.00000e+00	0.00000e+00	0.00000e+00	0.00000e+00	0.00000e+00	0.00000e+00	0.00000e+00	0.00000e+00	0.00000e+00	0.00000e+00	0.00000e+00	0.00000e+00	0.00000e+00	0.00000e+00	0.00000e+00	0.00000e+00	0.00000e+00	0.00000e+00	0.00000e+00	0.00000e+00	0.00000e+00	0.00000e+00	
Factor	1.00000e+00	1.00000e+00	1.00000e+00	1.00000e+00	1.00000e+00	1.00000e+00	1.00000e+00	1.00000e+00	1.00000e+00	1.00000e+00	1.00000e+00	1.00000e+00	1.00000e+00	1.00000e+00	1.00000e+00	1.00000e+00	1.00000e+00	1.00000e+00	1.00000e+00	1.00000e+00	1.00000e+00	1.00000e+00	1.00000e+00	1.00000e+00	1.00000e+00	1.00000e+00	1.00000e+00	1.00000e+00	1.00000e+00	1.00000e+00	1.00000e+00	1.00000e+00	X	X	X	X	X	X	X	X	X	X	X	X	X	X	X	X	

B = Detector Channel
Val Type	B-AC1	B-AC2	B-AC3	B-AC4	B-AC5	B-AC6	B-AC7	B-AC8	B-AC9	B-AC10	B-AC11	B-AC12	B-AC13	B-AC14	B-AC15	B-AC16	B-DC1	B-DC2	B-DC3	B-DC4	B-DC5	B-DC6	B-DC7	B-DC8	B-DC9	B-DC10	B-DC11	B-DC12	B-DC13	B-DC14	B-DC15	B-DC16	B-Ph1	B-Ph2	B-Ph3	B-Ph4	B-Ph5	B-Ph6	B-Ph7	B-Ph8	B-Ph9	B-Ph10	B-Ph11	B-Ph12	B-Ph13	B-Ph14	B-Ph15	B-Ph16	

Term	0.00000e+00	0.00000e+00	0.00000e+00	0.00000e+00	0.00000e+00	0.00000e+00	0.00000e+00	0.00000e+00	0.00000e+00	0.00000e+00	0.00000e+00	0.00000e+00	0.00000e+00	0.00000e+00	0.00000e+00	0.00000e+00	0.00000e+00	0.00000e+00	0.00000e+00	0.00000e+00	0.00000e+00	0.00000e+00	0.00000e+00	0.00000e+00	0.00000e+00	0.00000e+00	0.00000e+00	0.00000e+00	0.00000e+00	0.00000e+00	0.00000e+00	0.00000e+00	-2.23846e+00	-1.31119e+02	-1.35896e+02	-1.81478e+02	-5.32445e+01	-6.29258e+01	-1.58115e+02	-1.62015e+02	-5.21912e+01	-6.51356e+01	-1.73607e+02	-1.71776e+02	-1.83012e+02	-1.76573e+02	-5.74558e+01	-1.49837e+02	
Factor	3.30459e-05	1.49444e-04	4.39707e-05	1.58432e-01	1.72561e-06	1.36174e-06	1.67435e-01	4.77828e-02	1.66550e-06	1.80684e-06	9.40725e-02	2.82132e-02	5.96618e-02	8.24392e-03	1.74084e-06	1.21984e-02	3.04457e-06	3.32303e-06	9.25805e-07	8.43004e-02	3.58660e-08	3.66680e-08	8.32303e-02	2.54810e-02	3.58404e-08	3.65924e-08	4.79435e-02	1.44760e-02	3.08274e-02	4.42958e-03	3.60998e-08	6.29450e-03	X	X	X	X	X	X	X	X	X	X	X	X	X	X	X	X	



#DISTANCE SETTINGS
A = Detector Channel
A-1	A-2	A-3	A-4	A-5	A-6	A-7	A-8	A-9	A-10	A-11	A-12	A-13	A-14	A-15	A-16	

2.5000e+00	3.0000e+00	2.5000e+00	3.0000e+00	2.0000e+00	3.0000e+00	1.5000e+00	3.0000e+00	3.0000e+00	3.0000e+00	3.0000e+00	3.0000e+00	3.0000e+00	3.0000e+00	1.5000e+00	3.0000e+00	

B = Detector Channel
B-1	B-2	B-3	B-4	B-5	B-6	B-7	B-8	B-9	B-10	B-11	B-12	B-13	B-14	B-15	B-16	

1.0000e+01	1.0000e+01	1.0000e+01	1.4400e+00	1.0000e+01	1.0000e+01	1.5100e+00	1.9400e+00	1.0000e+01	1.0000e+01	1.9900e+00	2.4900e+00	2.4100e+00	2.9000e+00	1.0000e+01	2.9800e+00	




#DATA BEGINS
time	group	step	mark	flag	A-AC1	A-AC2	A-AC3	A-AC4	A-AC5	A-AC6	A-AC7	A-AC8	A-AC9	A-AC10	A-AC11	A-AC12	A-AC13	A-AC14	A-AC15	A-AC16	A-DC1	A-DC2	A-DC3	A-DC4	A-DC5	A-DC6	A-DC7	A-DC8	A-DC9	A-DC10	A-DC11	A-DC12	A-DC13	A-DC14	A-DC15	A-DC16	A-Ph1	A-Ph2	A-Ph3	A-Ph4	A-Ph5	A-Ph6	A-Ph7	A-Ph8	A-Ph9	A-Ph10	A-Ph11	A-Ph12	A-Ph13	A-Ph14	A-Ph15	A-Ph16	B-AC1	B-AC2	B-AC3	B-AC4	B-AC5	B-AC6	B-AC7	B-AC8	B-AC9	B-AC10	B-AC11	B-AC12	B-AC13	B-AC14	B-AC15	B-AC16	B-DC1	B-DC2	B-DC3	B-DC4	B-DC5	B-DC6	B-DC7	B-DC8	B-DC9	B-DC10	B-DC11	B-DC12	B-DC13	B-DC14	B-DC15	B-DC16	B-Ph1	B-Ph2	B-Ph3	B-Ph4	B-Ph5	B-Ph6	B-Ph7	B-Ph8	B-Ph9	B-Ph10	B-Ph11	B-Ph12	B-Ph13	B-Ph14	B-Ph15	B-Ph16	aux-1	digaux	

1886.541	1	1	0	256	0.052742	0.12809	0.077702	0.12039	0.27148	0.35074	0.29032	0.045099	0.21794	0.17885	0.063741	0.074306	0.21038	0.20523	0.3	0.21883	-1.1333	-2.1396	-2.2583	-1.4438	-2.3042	-1.9	-1.7229	-2.4833	-1.3667	-2.0333	-2.4	-1.5667	-2.4396	-2.3333	-1.5792	-2.6021	45.439	-59.219	-38.746	125.567	159.339	-157.196	-162.671	-56.705	-127.011	160.004	124.162	56.188	190.074	-131.296	140.589	-44.661	0.0010071	0.00071255	0.00025945	1242.1	1.0386e-05	1.2293e-05	1564.2	466.12	6.4009e-06	5.8368e-06	594	192.81	164.19	64.34	1.7429e-05	79.673	0.00083412	0.00081823	0.00022675	1071.3	8.6735e-06	8.6657e-06	1336.4	399.38	8.2959e-06	8.2871e-06	510.18	165.91	141.67	55.705	7.7886e-06	68.831	-32.470	-73.238	-41.759	-150.819	-12.337	-12.226	-152.586	-146.694	19.695	-48.937	-149.637	-144.946	-141.585	-136.767	12.042	-140.891	-8191	255	
1886.660	1	1	0	0	0.16628	0.37887	0.25672	0.39629	0.030874	0.17132	0.25699	0.083066	0.23016	0.28227	0.14755	0.33815	0.28575	0.38661	0.22683	0.0068133	-1.4875	-1.8042	-2.5208	-1.6688	-2.2542	-1.9583	-1.9458	-2.5938	-1.6646	-1.8229	-2.5833	-1.6479	-2.3458	-2.2313	-1.5292	-2.7188	-155.436	112.899	-91.016	145.944	116.052	-96.773	99.031	56.571	111.800	160.116	77.748	151.079	191.740	-138.766	103.167	189.164	0.0011392	0.0006301	0.00044555	1254.6	1.2615e-05	5.9203e-06	1586.7	474.07	1.7222e-05	7.2371e-06	598.25	196.15	169.86	65.914	4.9008e-06	81.251	0.00074877	0.00072256	0.00019907	1080.8	7.7497e-06	8.0297e-06	1352.6	405.72	7.9272e-06	7.8732e-06	514.26	168.76	145.54	56.985	7.6022e-06	70.091	-17.771	-65.511	-90.862	-150.931	27.738	47.542	-152.751	-147.268	-38.680	24.498	-149.561	-145.433	-142.366	-136.673	-35.983	-141.004	-8191	255	
1886.756	1	1	0	0	0.2234	0.022499	0.28975	0.09419	0.080813	0.13418	0.18477	0.28478	0.16565	0.34042	0.085634	0.27385	0.19176	0.4484	0.13286	0.11743	-1.3125	-1.7729	-2.6063	-1.8146	-2.2458	-2.25	-1.7938	-2.5271	-1.8875	-1.5688	-2.6521	-1.7604	-2.1354	-2.4062	-1.3813	-2.525	191.811	-164.564	-115.011	122.542	-90.972	118.230	138.994	141.525	77.255	-48.338	26.799	-158.964	-108.500	-157.064	83.014	113.170	0.0012413	0.00050483	0.00031294	1255.3	1.2967e-05	5.4027e-06	1513.7	436.63	1.1419e-05	7.6751e-06	523.16	176.76	150.12	62.559	7.6438e-06	76.057	0.00072761	0.00068582	0.00019165	1072	7.4624e-06	7.4836e-06	1297.6	373.88	7.2398e-06	7.1603e-06	449	151.18	128.88	53.871	6.443e-06	65.29	-37.543	-85.423	-77.884	-151.048	-17.749	-53.153	-152.929	-146.906	-47.517	-42.495	-149.388	-144.478	-140.676	-136.371	-42.249	-140.210	-8191	255	
1886.852	1	1	0	0	0.20655	0.28502	0.13657	0.45217	0.25002	0.16646	0.092963	0.16904	0.12583	0.14553	0.059262	0.35369	0.30345	0.070341	0.25708	0.17714	-1.6021	-1.6812	-2.4771	-1.8333	-1.9917	-2.2354	-1.5979	-2.3604	-1.9562	-1.6667	-2.6	-1.6521	-1.9667	-2.5729	-1.4375	-2.3625	-102.139	21.030	55.041	97.441	-0.961	-130.007	78.366	143.858	17.603	192.444	72.106	134.383	172.646	193.856	-89.357	165.727	0.0010319	0.00097551	0.00030008	1111.9	4.5642e-06	7.82e-06	1359.5	379.95	9.4196e-06	1.6426e-05	475.62	170.87	148.55	60.449	1.2518e-05	74.131	0.0005977	0.00056819	0.00015743	950.88	6.2701e-06	6.4762e-06	1163.7	325.25	6.2239e-06	6.5747e-06	408.79	145.95	126.78	52.355	6.627e-06	63.99	-33.437	-75.823	-117.446	-151.167	-1.070	-7.443	-152.974	-145.393	-56.899	-7.000	-148.848	-144.207	-140.129	-136.106	-38.183	-140.305	-8191	255	
1886.973	1	1	0	0	0.13883	0.10016	0.26109	0.26394	0.13881	0.090057	0.21761	0.15795	0.19357	0.079241	0.1233	0.27995	0.2354	0.2965	0.14626	0.16012	-1.6042	-1.6146	-2.5417	-1.8188	-1.7271	-2.4271	-1.6938	-2.2708	-2.1833	-1.45	-2.4792	-1.9479	-1.7104	-2.6771	-1.6542	-2.3146	151.257	26.716	-47.881	161.563	169.312	-55.510	157.298	106.084	48.881	-142.180	162.113	186.996	-151.185	115.493	-28.138	-126.240	0.0010271	0.00046098	0.0003049	1111.9	2.2396e-06	4.1779e-06	1389.6	385.33	2.1501e-05	1.0413e-05	491.26	176.24	149.79	62.998	8.9014e-06	77.513	0.0006405	0.00062907	0.00017748	952.72	7.1308e-06	7.2487e-06	1185.2	330.97	7.6143e-06	7.9232e-06	422.5	150.8	130.13	54.483	8.7595e-06	67.523	-34.453	179.480	-79.250	-150.794	-17.520	-125.280	-152.907	-145.642	-63.365	44.900	-148.933	-144.329	-140.284	-136.323	60.100	-140.745	-8191	255	
1887.069	1	1	0	0	0.089522	0.16598	0.088299	0.46955	0.049912	0.12513	0.3212	0.31093	0.20095	0.27637	0.12926	0.26476	0.12071	0.20661	0.029692	0.14258	-1.7208	-1.3771	-2.3521	-1.8958	-1.6271	-2.5479	-1.8937	-2.0333	-2.2125	-1.5396	-2.2083	-2.1979	-1.5854	-2.5208	-1.525	-1.9271	190.160	-15.002	-79.282	183.797	94.159	-94.565	174.699	80.270	147.654	61.427	54.032	-112.279	94.758	193.749	-6.126	98.042	0.0011361	0.0001919	0.00040424	1188.5	1.0439e-05	9.1152e-06	1508.4	436.16	3.3447e-06	5.6497e-06	572.7	191.08	164.82	65.896	2.7271e-06	81.089	0.00084305	0.00087417	0.00024646	1024.7	1.0009e-05	1.0148e-05	1290.4	377.7	1.0197e-05	1.0693e-05	497.25	164.3	144.51	57.535	1.132e-05	70.853	-24.905	151.522	-99.949	-151.086	-102.274	-20.520	-153.045	-146.327	191.292	-31.757	-149.391	-145.291	-141.216	-136.244	26.181	-140.938	-8191	255	
1887.141	1	1	0	0	0.13325	0.052496	0.23644	0.18754	0.18442	0.23938	0.24461	0.35474	0.11394	0.27665	0.42592	0.29819	0.15514	0.10116	0.22128	0.053176	-2.2125	-1.3521	-2.3688	-2.175	-1.4625	-2.5667	-1.8125	-1.9813	-2.4771	-1.2375	-2.1833	-2.2417	-1.5417	-2.425	-1.6229	-1.8083	121.827	52.657	149.964	144.019	-105.110	-0.707	145.715	168.157	162.038	78.927	189.052	143.432	124.834	185.936	114.881	-74.206	0.0013606	0.00075327	0.00025049	1305	1.2347e-05	1.2354e-05	1631.6	488.85	1.2058e-05	2.3951e-05	619.75	214.13	184.19	69.003	1.9483e-05	84.955	0.001026	0.0010643	0.0002968	1128	1.1953e-05	1.2154e-05	1400	421.41	1.2098e-05	1.233e-05	538.27	185.64	162.87	60.352	1.3047e-05	74.296	-24.650	-70.338	-113.079	-150.847	6.626	47.864	-153.048	-146.834	-5.151	-41.638	-149.631	-145.813	-142.508	-136.574	-68.167	-141.073	-8191	255	
1887.261	1	1	0	0	0.10159	0.17745	0.18384	0.29384	0.12347	0.10918	0.41652	0.4484	0.088244	0.076341	0.17303	0.060043	0.014184	0.083896	0.10848	0.19222	-2.0979	-1.3438	-2.0896	-2.2396	-1.6604	-2.375	-1.925	-1.85	-2.3438	-1.5562	-2.1021	-2.3958	-1.3125	-2.5604	-1.7208	-1.5479	84.556	-138.915	42.457	169.675	-6.390	108.693	128.388	174.711	194.753	-130.558	-123.618	174.358	-69.896	-124.943	-42.438	37.427	0.0011453	0.00030373	0.00011666	1379.7	1.1865e-05	4.5575e-06	1701.4	511.6	9.5046e-06	1.3352e-05	644.53	238.24	206.32	72.11	1.3323e-05	89.119	0.0011656	0.0011775	0.00033385	1193.4	1.3052e-05	1.3207e-05	1460.9	442.78	1.3211e-05	1.3682e-05	562.49	207.04	180.8	63.216	1.4908e-05	77.891	-38.879	-65.403	-93.837	-151.207	37.946	4.062	-153.115	-146.891	18.325	-47.015	-149.621	-146.492	-143.726	-137.367	-11.236	-141.125	-8191	255	
1887.357	1	1	0	0	0.17806	0.13349	0.093476	0.33968	0.19447	0.059415	0.28253	0.39399	0.30632	0.23719	0.021971	0.12766	0.27062	0.23831	0.19982	0.3176	-2.0333	-1.5333	-2.1458	-2.3479	-1.4062	-2.1562	-2.1667	-1.8312	-2.3438	-1.6604	-2.0563	-2.4229	-1.4438	-2.4833	-2.0896	-1.7125	130.210	-71.647	49.662	190.626	24.365	98.262	64.831	153.341	119.066	29.117	51.356	-107.062	137.013	192.317	-131.644	167.277	0.0014856	0.0015993	0.00070686	1414.1	2.5675e-05	1.9005e-05	1700.4	499.83	1.6828e-05	1.7038e-05	599.82	206.2	180.23	70.775	1.005e-05	87.336	0.0013968	0.0014318	0.00040096	1232.3	1.602e-05	1.62e-05	1465.1	436.45	1.6188e-05	1.6366e-05	527.1	180.57	160.84	62.404	1.5462e-05	76.344	-30.288	-139.009	-89.748	-151.263	10.275	-21.972	-153.325	-147.138	68.067	-16.104	-149.896	-145.161	-141.762	-136.605	-78.905	-140.906	-8191	255	
1887.452	1	1	0	0	0.10787	0.098584	0.18956	0.33114	0.35558	0.22882	0.1968	0.46412	0.10347	0.16846	0.094056	0.29016	0.090512	0.16569	0.14621	0.12286	-2.2062	-1.6104	-1.7458	-2.5458	-1.2833	-2.1146	-2.2708	-1.6583	-2.4021	-1.7458	-1.9688	-2.3667	-1.6229	-2.2729	-2.0563	-1.6167	-110.267	52.215	155.599	159.143	184.516	67.577	100.551	157.406	152.003	165.054	-113.613	187.446	173.931	170.146	-88.074	171.485	0.0014335	5.1357e-05	0.00021027	1261.6	6.6846e-06	1.3306e-05	1488	409.56	2.1606e-05	1.8465e-05	495.99	179.3	153.71	65.891	6.1794e-06	80.676	0.0013598	0.0014322	0.00039765	1098.6	1.4952e-05	1.5371e-05	1287.9	358.13	1.5477e-05	1.5797e-05	438.01	157.43	140.2	58.266	1.6385e-05	71.378	-29.020	-49.089	-59.850	-151.598	17.616	-60.424	-153.652	-145.747	23.437	-63.790	-148.858	-144.404	-140.325	-136.138	-69.462	-140.770	-8191	255	
1887.572	1	1	0	0	0.1137	0.26791	0.10442	0.24515	0.17789	0.096051	0.24353	0.30608	0.1853	0.1194	0.40319	0.37688	0.20085	0.40213	0.18787	0.10022	-2.0042	-1.6833	-1.6917	-2.55	-1.6833	-2	-2.2917	-1.7146	-2.2833	-1.6604	-1.5271	-2.2792	-1.6562	-2.1	-2.0271	-1.5292	112.689	-141.900	104.631	142.651	-116.320	21.368	116.239	-161.207	-27.834	107.015	-152.978	101.659	-156.601	148.008	140.228	145.660	0.0013849	0.0017612	0.00017724	1145.3	1.5699e-05	9.8448e-06	1381.5	384.35	8.2932e-06	7.509e-06	481.21	175.33	152	63.703	2.1621e-05	78.598	0.0014553	0.0015442	0.00043078	1004.6	1.671e-05	1.7005e-05	1203.3	337.18	1.6847e-05	1.693e-05	425.4	154.88	138.79	56.6	1.6081e-05	69.189	-36.694	-158.958	-56.431	-151.081	-29.275	133.435	-153.066	-145.622	-145.920	-33.909	-148.511	-144.242	-140.290	-135.965	3.839	-140.674	-8191	255	
1887.669	1	1	0	0	0.1281	0.12581	0.10259	0.11634	0.080456	0.19693	0.28762	0.26362	0.18742	0.18395	0.14692	0.2857	0.16827	0.11462	0.26734	0.1273	-1.9312	-1.7958	-1.5792	-2.5187	-1.5479	-2.2292	-2.2917	-1.6958	-2.3208	-2.0604	-1.5604	-2.5771	-1.7104	-1.9646	-2.3917	-1.7167	-163.047	23.698	66.195	112.887	-120.866	122.254	67.794	148.095	138.768	149.218	134.684	186.244	28.052	72.291	-12.063	193.072	0.0010661	0.0007774	0.00033851	1156.6	1.2215e-05	1.9933e-05	1400	387.18	1.1427e-05	8.5389e-06	476.5	172.64	148.67	61.608	4.5958e-06	75.083	0.0013859	0.001425	0.00038107	1004.8	1.4454e-05	1.4575e-05	1213.7	337.1	1.4098e-05	1.4119e-05	418.78	150.81	134.34	54.189	1.3818e-05	65.778	-23.002	-1.483	-117.987	-150.993	3.679	-7.826	-152.989	-145.299	-60.722	16.866	-148.499	-144.385	-140.187	-135.900	195.863	-140.348	-8191	255	
1887.765	1	1	0	0	0.23301	0.074666	0.044777	0.43053	0.2673	0.22206	0.35752	0.19446	0.055473	0.22548	0.20207	0.19574	0.12173	0.2343	0.1074	0.26805	-1.8854	-2.0167	-1.3792	-2.7625	-1.7625	-1.8271	-2.7	-1.4167	-2.2562	-2.1083	-1.6063	-2.5312	-1.9229	-1.8354	-2.3625	-1.6688	63.081	46.277	120.024	163.867	-28.719	-143.926	124.633	126.886	-51.414	-20.353	-140.811	-153.822	-132.955	76.719	47.791	155.471	0.0010189	0.00145	0.00020125	1094	1.5727e-05	6.7883e-06	1302.2	363.81	9.7368e-06	5.9525e-06	455.84	166.13	144.04	58.356	1.6637e-05	72.439	0.0012172	0.001231	0.00033511	950.58	1.2669e-05	1.2945e-05	1128	316.45	1.2219e-05	1.2401e-05	397.45	144.01	126.62	51.054	1.1647e-05	63.158	-18.468	-46.207	109.896	-150.738	-51.974	44.008	-152.862	-145.030	-25.670	-6.794	-148.278	-143.814	-140.217	-135.636	-48.748	-140.545	-8191	255	
1887.836	1	1	0	0	0.10682	0.088881	0.28309	0.11914	0.20347	0.28309	0.25465	0.34101	0.049106	0.28375	0.10265	0.14588	0.29397	0.2614	0.13556	0.18339	-1.7875	-2.2687	-1.4042	-2.6375	-1.7188	-1.5354	-2.7188	-1.8292	-2.0458	-2.2521	-1.7458	-2.6729	-2.0771	-1.7417	-2.5729	-1.6604	-109.652	2.617	-59.808	127.471	0.631	-73.862	121.542	138.162	59.257	-0.078	-153.404	-89.102	166.931	178.793	-82.753	126.902	0.00088413	0.00028129	0.00013252	1062.5	1.2609e-05	4.1488e-06	1291.6	379.34	1.6496e-05	6.472e-06	471.89	172.61	148.62	61.415	2.2268e-05	74.617	0.001066	0.0011336	0.00032204	921.22	1.2554e-05	1.2858e-05	1113.3	328.49	1.2821e-05	1.3291e-05	412.03	150.81	133.46	53.993	1.3932e-05	65.557	-21.167	109.801	4.996	-150.669	-83.946	-11.703	-152.815	-145.238	-21.634	-22.188	-148.360	-143.746	-140.547	-135.665	-19.211	-140.227	-8191	255	
1887.957	1	1	0	0	0.30292	0.20193	0.071663	0.25554	0.17553	0.22993	0.29888	0.533	0.095795	0.32568	0.10307	0.015019	0.15649	0.21939	0.30249	0.38298	-1.7354	-2.2396	-1.3875	-2.625	-1.9896	-1.6396	-2.7812	-1.9521	-2.0729	-2.4875	-1.6125	-2.3271	-2.1458	-1.7667	-2.5438	-1.8917	-79.484	52.885	-36.697	86.609	59.079	189.070	135.767	133.219	-93.996	102.709	125.655	-86.236	64.083	142.215	26.047	146.839	0.0010569	0.0012274	0.00042099	1110.2	3.6005e-06	1.3137e-05	1402.1	383.6	2.8595e-06	1.7432e-05	482.7	167.14	143.31	59.758	4.7527e-06	73.172	0.0012478	0.0013061	0.00035666	969.67	1.3959e-05	1.4344e-05	1213.6	334.71	1.4796e-05	1.5171e-05	423.48	146.14	130.13	52.764	1.5478e-05	64.659	-39.732	-155.513	-44.733	-150.452	159.433	35.480	-152.238	-145.859	189.669	3.849	-148.813	-143.575	-140.015	-135.463	-54.243	-140.228	-8191	255	
1888.053	1	1	0	0	0.052882	0.16928	0.18493	0.18257	0.061385	0.092727	0.17904	0.20426	0.14921	0.2534	0.28688	0.16173	0.011176	0.16891	0.20126	0.13723	-1.4688	-2.3187	-1.6292	-2.3771	-2.2708	-1.4958	-2.8021	-2.0938	-1.7208	-2.4979	-1.8229	-2.2958	-2.1708	-1.6521	-2.3792	-2.0812	-24.292	149.434	103.153	140.408	-65.081	-43.977	148.576	141.767	109.086	-24.407	177.140	-73.755	-145.962	184.932	179.729	-14.390	0.0009021	0.00037838	0.00013026	1149.1	1.8074e-05	8.4614e-06	1454.1	401.86	1.5751e-05	3.0638e-05	521.72	164.92	139.46	57.086	5.0585e-06	69.652	0.0013624	0.0014487	0.00040027	1005	1.5531e-05	1.5925e-05	1258.7	351.5	1.5589e-05	1.6003e-05	457.46	144.62	127.57	50.29	1.5666e-05	61.551	-23.992	-163.264	70.148	-150.208	-26.317	47.258	-152.361	-146.200	-53.196	3.367	-148.965	-143.722	-140.347	-135.186	57.402	-140.197	-8191	255	
1888.149	1	1	0	0	0.10501	0.23565	0.18753	0.33281	0.17272	0.28398	0.13536	0.4878	0.10423	0.21066	0.37145	0.2321	0.11839	0.17773	0.021406	0.30111	-1.5896	-2.4125	-1.7833	-2.1667	-2.4229	-1.5292	-2.6792	-2.1312	-1.7375	-2.2979	-1.925	-2.2583	-2.3417	-1.7125	-2.2896	-2.1063	-91.468	-155.597	88.347	143.668	-79.308	175.916	162.563	163.168	-95.912	173.872	114.281	55.037	-96.297	184.567	125.247	140.124	0.00076031	0.001293	0.00029072	1184.2	1.3865e-05	8.515e-06	1531.8	442.05	1.4759e-05	1.8496e-05	586.79	162.63	137.63	52.826	5.0184e-06	65.59	0.0013652	0.0014135	0.00039514	1031.9	1.5478e-05	1.6054e-05	1332.9	384.62	1.6188e-05	1.6509e-05	515.36	144.07	127.34	46.96	1.7244e-05	58.6	-44.279	143.678	42.049	-150.357	-99.426	83.632	-151.980	-146.795	141.624	-48.993	-149.485	-143.883	-140.895	-135.377	-35.822	-139.746	-8191	255	
1888.246	1	1	0	0	0.1338	0.11019	0.12246	0.23428	0.14984	0.28071	0.22374	0.17932	0.026066	0.11259	0.19134	0.19298	0.067491	0.20964	0.3161	0.15496	-1.2083	-2.2313	-1.7062	-2.0771	-2.4542	-1.5625	-2.5146	-2.3958	-1.5146	-2.4979	-1.725	-1.8854	-2.4938	-1.6792	-2.2708	-2.2	150.174	-23.506	-7.719	174.150	-108.508	-115.618	176.991	121.725	-88.673	-44.602	184.903	182.892	-111.338	167.624	170.163	46.113	0.0010931	0.0018768	0.00036034	1245.9	2.6552e-06	7.4717e-06	1616.2	471.85	4.6548e-06	1.1273e-05	600.96	158.66	132.31	51.439	1.3436e-05	64.014	0.0015487	0.0016096	0.00045619	1091	1.7723e-05	1.8205e-05	1403.9	411.45	1.8137e-05	1.8194e-05	526.39	139.95	124.07	45.893	1.8111e-05	57.173	-39.502	-78.251	170.761	-149.957	132.902	125.679	-152.277	-146.923	-14.535	13.693	-150.031	-144.134	-141.000	-135.351	-15.535	-139.651	-8191	255	
1888.364	1	1	0	0	0.17224	0.30894	0.24077	0.29101	0.22573	0.076798	0.26418	0.34281	0.14954	0.028645	0.05976	0.218	0.13557	0.14618	0.18399	0.19293	-1.3479	-2.5625	-1.7458	-2.0104	-2.4083	-1.5208	-2.5	-2.2979	-1.225	-2.5042	-2.1146	-1.9792	-2.5854	-1.7375	-2.1354	-2.4708	148.378	-135.983	44.192	149.408	35.987	60.300	106.281	179.318	70.869	100.520	-47.891	113.290	138.144	-121.921	-103.292	106.637	0.0010894	0.00089005	0.00018912	1204.2	1.1889e-05	9.2097e-06	1541.5	387.99	1.0271e-05	1.3897e-05	461.05	144.18	121.4	50.151	1.0759e-05	61.091	0.0015624	0.0016254	0.0004431	1054.4	1.7405e-05	1.775e-05	1334.1	340.91	1.665e-05	1.6852e-05	410.61	128.36	113.27	44.547	1.6829e-05	54.641	-23.023	-34.865	-122.379	-149.953	-66.225	74.235	-152.218	-146.636	16.699	52.660	-149.119	-143.459	-140.015	-135.075	15.638	-139.745	-8191	255	
1888.438	1	1	0	0	0.37655	0.12113	0.080305	0.11702	0.1102	0.089793	0.20399	0.09149	0.31064	0.12042	0.063906	0.1602	0.2329	0.091003	0.20102	0.16375	-1.1896	-2.3271	-2.2	-1.8854	-2.5229	-1.525	-2.2479	-2.3292	-1.6167	-2.5062	-2.0479	-1.8896	-2.7021	-1.7687	-1.7479	-2.4146	105.165	172.127	137.831	-71.976	129.741	-58.906	149.348	190.265	101.883	142.531	192.123	148.421	67.848	136.110	140.485	59.206	0.000949	0.00067156	0.00050618	1117.2	9.6994e-06	4.8163e-06	1442.8	332.32	4.3839e-06	1.6092e-05	408.14	139.71	114.87	47.799	1.2727e-05	59.467	0.0014456	0.0015101	0.00042425	976.12	1.6357e-05	1.6646e-05	1250	291.86	1.6667e-05	1.7113e-05	364.51	124.25	109.13	42.725	1.7084e-05	53.139	-27.037	-9.952	-74.833	-150.344	-18.469	-6.243	-152.369	-145.614	84.949	81.382	-148.292	-142.996	-138.726	-134.771	-18.373	-139.606	-8191	255	
1888.534	1	1	0	0	0.091994	0.04899	0.2006	0.14564	0.10368	0.021837	0.41907	0.32001	0.11454	0.14045	0.28038	0.23886	0.17981	0.079273	0.24758	0.17154	-1.0063	-2.0604	-2.2	-1.3625	-2.5292	-1.7646	-1.9271	-2.6542	-1.475	-2.1292	-2.55	-1.6604	-2.4542	-1.9667	-1.5604	-2.75	148.341	50.068	-92.150	109.289	-150.841	187.505	128.052	-147.404	-97.466	186.239	-149.079	-20.575	71.154	-151.264	-93.112	85.179	0.0010511	0.00060943	0.00023008	1065.7	1.4324e-05	1.7405e-05	1409.6	309.68	1.8802e-05	4.6232e-06	391.84	134.95	110.57	45.637	6.151e-06	58.493	0.0014875	0.0015434	0.00043673	938.74	1.7056e-05	1.7845e-05	1225.4	273.54	1.7598e-05	1.7895e-05	353.4	120.96	106.63	41.064	1.8568e-05	52.373	-28.484	-79.188	-44.182	-150.070	155.353	20.133	-152.634	-144.572	-10.209	96.005	-147.624	-142.625	-138.820	-134.057	46.803	-138.731	-8191	255	
1888.653	1	1	0	0	0.12067	0.2829	0.084997	0.099611	0.094229	0.13321	0.35013	0.18082	0.25861	0.13614	0.28014	0.18086	0.080992	0.26397	0.18361	0.084139	-1.275	-2.2271	-2.1375	-1.6729	-2.4271	-1.8792	-1.9708	-2.7771	-1.6271	-1.9375	-2.7062	-1.5854	-2.3187	-2.0083	-1.6083	-2.6542	-24.407	-34.679	76.408	120.959	-17.614	-3.264	174.001	154.943	62.768	110.161	167.492	48.555	187.436	84.395	-27.126	144.340	0.00081689	0.00099902	0.00050261	1067.1	6.6862e-07	1.0572e-05	1400.1	304.71	4.0799e-06	9.9488e-06	386.7	132.09	110.88	45.33	8.5291e-06	57.584	0.0015765	0.0016498	0.00045791	941.36	1.7665e-05	1.7981e-05	1219.4	269.84	1.7712e-05	1.7737e-05	346.53	119.01	105.39	40.652	1.7649e-05	51.677	-18.269	0.007	-40.489	-150.135	141.634	64.594	-152.047	-145.082	97.175	151.779	-147.803	-142.568	-139.397	-134.406	-158.384	-138.818	-8191	255	
1888.749	1	1	0	0	0.15487	0.069611	0.014984	0.2061	0.064231	0.1337	0.25224	0.17981	0.21031	0.22621	0.097517	0.047329	0.20114	0.17455	0.35287	0.068005	-1.2708	-2.0917	-2.4375	-1.675	-2.4562	-2.0708	-1.6229	-2.65	-1.8083	-1.8396	-2.6854	-1.8813	-2.4104	-2.2562	-1.525	-2.6333	195.640	85.412	-161.438	126.560	99.117	-134.004	121.304	185.313	20.076	-95.258	111.345	161.454	-162.226	124.141	20.372	-123.103	0.0008289	0.0015684	0.00027428	1057.9	6.459e-06	5.9131e-06	1396.8	302.96	9.6599e-06	1.5271e-05	387.76	132.43	110.52	45.174	1.4264e-05	56.553	0.0015245	0.0015801	0.00044791	928.84	1.7254e-05	1.7225e-05	1210.7	268.75	1.6316e-05	1.6897e-05	343.83	117.61	103.42	40.442	1.5982e-05	50.707	-43.576	-79.876	-78.310	-149.809	44.367	76.589	-152.008	-144.920	-66.028	-17.506	-147.627	-143.539	-138.443	-134.342	-62.940	-139.185	-8191	255	
1888.845	1	1	0	0	0.13046	0.18208	0.12532	0.18614	0.1403	0.27754	0.271	0.31815	0.16416	0.017976	0.23056	0.13516	0.13275	0.1802	0.036073	0.20642	-1.4396	-1.8146	-2.2583	-1.8604	-1.9438	-2.1	-1.9813	-2.7833	-1.7396	-1.7708	-2.7396	-1.8062	-2.1833	-2.4562	-1.5792	-2.4688	79.325	183.737	-5.928	123.093	-12.363	129.786	146.897	-148.611	-133.244	113.568	124.353	-147.661	-129.749	138.502	-157.209	189.719	0.00077649	0.00028337	0.00026256	1042.9	1.7843e-05	1.1641e-05	1378	306.66	8.4177e-06	6.4448e-06	388.85	131.73	108.59	45.018	6.9966e-06	57.668	0.0013825	0.001425	0.0003948	914.15	1.5035e-05	1.5514e-05	1195.7	270.1	1.4945e-05	1.5236e-05	345.06	116.06	101.77	40.112	1.4458e-05	51.163	-31.287	74.990	9.247	-149.881	-40.614	-146.797	-152.003	-144.869	48.438	-148.845	-148.323	-142.213	-139.055	-134.159	63.117	-138.918	-8191	255	
1888.941	1	1	0	0	0.20065	0.23069	0.23676	0.1446	0.29681	0.29421	0.17315	0.1372	0.25897	0.20449	0.09809	0.085575	0.16259	0.17828	0.044039	0.11121	-1.5521	-1.8042	-2.5792	-1.6021	-2.2271	-2.3958	-1.6437	-2.4667	-2	-1.8625	-2.7354	-1.7625	-2	-2.5687	-1.4854	-2.4292	195.616	-31.420	61.627	105.882	-42.450	40.540	150.601	-23.049	0.976	-113.860	168.329	133.192	-126.265	130.637	41.986	193.395	0.00085335	0.0005187	0.00027565	1028.7	4.6765e-06	9.7673e-06	1347.7	306.64	7.3897e-06	1.6007e-05	385.11	133.62	108.03	45.82	1.2799e-05	58.919	0.0012393	0.0012742	0.00035541	896.97	1.3427e-05	1.3747e-05	1168.4	267.69	1.3359e-05	1.3481e-05	341.17	116.94	99.87	40.607	1.2855e-05	52.139	-29.327	-54.054	-132.095	-150.044	5.986	-68.129	-152.083	-144.901	-90.304	-51.726	-148.140	-143.056	-139.377	-134.437	-87.937	-138.648	-8191	255	
1889.062	1	1	0	0	0.18253	0.17064	0.13096	0.48711	0.43479	0.033053	0.1942	0.021593	0.2537	0.21839	0.25335	0.19514	0.18299	0.069951	0.074404	0.17691	-1.6125	-1.5125	-2.5104	-1.925	-1.8937	-2.5167	-1.8083	-2.375	-2.1458	-1.3333	-2.6792	-1.6396	-1.9417	-2.4667	-1.6542	-2.4229	128.648	-122.372	164.175	152.234	196.950	108.126	147.923	188.314	142.736	13.717	111.915	105.799	-66.062	108.292	-88.483	127.368	0.00083462	0.00089234	0.00030137	980.98	3.5931e-06	4.1454e-06	1265.4	287.45	1.1831e-05	6.8221e-06	359.27	131.91	109.51	45.367	6.0225e-06	58.321	0.0010859	0.0011289	0.00031046	850.36	1.2043e-05	1.2053e-05	1091	250.24	1.1435e-05	1.1423e-05	315.98	115.36	98.612	40.002	1.095e-05	50.985	-29.123	-108.181	-44.442	-150.559	-3.576	55.999	-151.896	-144.856	-14.624	170.805	-147.445	-143.070	-138.402	-134.574	-53.911	-138.834	-8191	255	
1889.134	1	1	0	0	0.21883	0.14878	0.22591	0.25777	0.069058	0.048335	0.3221	0.041229	0.068298	0.63597	0.1774	0.14801	0.2105	0.15999	0.056543	0.12948	-1.7979	-1.5208	-2.2896	-1.8792	-1.5187	-2.4562	-1.6333	-2.2458	-2.2729	-1.4583	-2.3479	-1.8917	-1.5125	-2.4896	-1.6167	-1.8958	-155.552	-105.242	177.225	123.352	183.415	-114.326	79.689	170.693	64.085	10.837	-122.622	177.034	97.229	-63.875	63.663	-140.326	0.00066496	0.0005298	8.0759e-05	898.06	1.2466e-05	3.8486e-06	1151.3	274.8	9.1019e-06	1.3521e-06	345.7	130.69	108.21	45.266	1.1585e-05	57.353	0.00096409	0.00098183	0.00026535	777.13	1.034e-05	1.0253e-05	993.84	238.65	9.7183e-06	9.763e-06	304.62	113.79	97.118	39.495	9.2219e-06	50.143	-18.095	-15.361	-1.297	-150.219	-13.628	8.489	-151.952	-144.180	-68.406	-120.947	-147.652	-143.269	-138.931	-134.481	-30.225	-139.242	-8191	255	
1889.254	1	1	0	0	0.17372	0.22473	0.21103	0.083229	0.36034	0.086072	0.21902	0.029061	0.17249	0.066983	0.37896	0.1216	0.25284	0.21826	0.17014	0.14782	-1.8792	-1.4062	-2.3583	-1.9625	-1.6625	-2.2812	-1.7021	-2.0812	-2.0958	-1.4521	-2.5333	-2.1625	-1.4354	-2.7021	-1.8625	-1.9458	-154.789	-19.121	-36.418	16.840	28.454	192.858	181.985	33.099	114.487	-143.067	185.376	170.974	93.156	153.921	75.583	111.026	0.00086403	0.0010207	0.00035088	835.63	2.3453e-05	3.0525e-06	1081	268.18	5.8848e-06	4.3569e-06	342.64	129.71	107.76	43.837	5.9118e-06	56.952	0.00081689	0.00082014	0.00022535	721.14	8.5999e-06	8.9287e-06	928.45	233.32	8.3413e-06	8.3302e-06	298.28	112.65	95.018	38.38	8.3105e-06	49.333	-29.722	192.185	-104.407	-150.058	-22.267	164.534	-152.035	-144.492	-28.289	-31.250	-147.187	-143.000	-139.340	-134.403	-140.209	-139.038	-8191	255	
1889.349	1	1	0	0	0.35485	0.20796	0.090851	0.21387	0.15624	0.28938	0.21293	0.17582	0.096041	0.42234	0.13352	0.30966	0.31115	0.19326	0.079232	0.17842	-2.1771	-1.55	-2.1667	-2.1396	-1.4167	-2.3937	-1.8937	-1.6458	-2.6042	-1.4438	-2.1958	-2.1646	-1.5438	-2.5167	-1.8062	-1.8937	157.589	129.868	-24.431	144.043	-30.787	14.425	124.153	117.941	181.158	-149.162	120.786	163.270	-136.294	185.585	-146.328	131.562	0.00077343	0.0015297	0.00022676	801.31	1.4323e-05	2.3717e-06	1041.3	268.11	6.9887e-06	6.6136e-06	344.46	131.11	108.89	44.303	4.99e-06	56.996	0.00073349	0.00072927	0.00020214	689.91	7.8179e-06	7.7878e-06	892.04	232.27	7.495e-06	7.7858e-06	298.04	113.65	95.235	38.66	7.324e-06	49.454	-28.306	-9.560	78.695	-149.692	62.144	-1.616	-151.793	-143.625	-30.989	13.216	-147.263	-142.885	-138.864	-134.514	-75.723	-139.033	-8191	255	
1889.445	1	1	0	0	0.1961	0.11516	0.12998	0.21751	0.15171	0.31456	0.2582	0.49131	0.18574	0.29553	0.076443	0.27281	0.18044	0.058276	0.29636	0.063197	-2.1583	-1.6146	-2.0958	-2.2208	-1.4417	-2.4208	-1.8792	-1.8771	-2.6208	-1.4854	-2.1312	-2.325	-1.5333	-2.375	-1.9792	-1.6646	-130.188	176.808	41.553	159.667	23.602	124.141	103.385	129.096	-32.906	76.570	181.058	105.544	-78.867	-22.483	69.148	152.631	0.0009127	0.00062245	0.00022802	762.9	5.5688e-06	6.2384e-06	998.01	279.52	8.1251e-06	6.3458e-06	352	136.35	112.59	45.483	1.3247e-05	58.018	0.00064398	0.00065016	0.00017698	659.81	6.7088e-06	6.5084e-06	855.87	239.53	6.5209e-06	6.3878e-06	305.3	116.73	97.212	39.306	6.0479e-06	49.859	-28.680	-70.432	-103.061	-149.345	23.163	-6.747	-151.819	-143.897	-24.325	-80.265	-147.112	-143.218	-139.676	-134.132	18.506	-139.797	-8191	255	
1889.541	1	1	0	0	0.21387	0.15039	0.083759	0.18036	0.36657	0.29158	0.20085	0.31742	0.14081	0.12626	0.17859	0.24933	0.06992	0.10412	0.18703	0.25477	-2.025	-1.6	-1.9271	-2.5417	-1.3729	-2.2792	-2.3854	-1.8208	-2.5771	-1.8708	-2	-2.4354	-1.5063	-2.3688	-2.2646	-1.6688	-130.394	-160.662	159.793	161.281	122.813	-109.083	175.741	162.516	-156.228	-35.135	166.474	171.923	196.818	97.834	180.806	81.172	0.00090808	0.00050679	0.00018411	744.29	1.2362e-05	2.8029e-06	959.78	287.94	1.097e-05	9.2847e-06	367.88	139.63	115.32	46.164	2.0398e-06	57.639	0.00055284	0.00054941	0.00014764	642.67	5.5915e-06	5.5837e-06	818.89	248.28	5.4575e-06	5.5665e-06	315.84	119	99.088	39.779	5.2461e-06	49.735	-26.440	-117.622	-53.584	-149.425	197.151	64.192	-152.050	-144.022	-19.651	-10.755	-147.407	-143.284	-138.976	-134.995	79.874	-139.450	-8191	255	
1889.637	1	1	0	0	0.40052	0.084879	0.25213	0.15318	0.034948	0.084873	0.026293	0.04526	0.15758	0.17407	0.086286	0.35913	0.13482	0.18185	0.1395	0.26329	-1.9375	-1.6896	-1.8458	-2.3479	-1.3813	-2.2375	-2.1708	-1.6542	-2.4833	-1.7938	-1.875	-2.5458	-1.7229	-2.225	-2.3083	-1.6021	178.398	-120.138	105.768	-22.552	-10.808	-71.269	197.602	-66.054	-12.185	74.143	119.862	112.148	16.564	-138.201	-7.929	90.603	0.00067642	0.0010106	0.00024094	731.56	2.9998e-06	8.2391e-06	935.28	297.66	4.0876e-06	1.3687e-05	370.76	138.57	113.88	45.212	9.9018e-06	57.095	0.00048104	0.00045704	0.0001239	627.88	4.6497e-06	4.7506e-06	794.88	254.31	4.6703e-06	4.7507e-06	319.35	118.47	97.517	39.089	4.5403e-06	48.992	-27.852	178.544	-110.586	-149.455	88.647	23.207	-151.670	-143.907	-8.241	-18.575	-147.724	-143.127	-139.911	-134.823	12.261	-139.845	-8191	255	
1889.733	1	1	0	0	0.16112	0.056301	0.23046	0.0691	0.099698	0.089541	0.22403	0.29026	0.13307	0.32841	0.12748	0.094082	0.11163	0.12365	0.22373	0.26351	-2.0229	-1.9229	-1.7542	-2.6583	-1.6792	-2.05	-2.375	-1.6271	-2.2083	-1.9979	-1.8917	-2.5458	-1.675	-1.7437	-2.4021	-1.5229	116.578	36.894	-10.232	139.044	178.545	48.226	145.423	-157.137	72.185	-21.919	85.317	-46.526	118.397	66.874	122.252	177.317	0.00076201	0.00093004	0.00032404	733.01	5.7308e-06	7.466e-06	933.44	296.21	1.5289e-05	7.4511e-06	372.82	137.6	114.95	45.031	9.1365e-06	57.463	0.00042683	0.00040565	0.00011215	626.59	4.3834e-06	4.4001e-06	796.16	253.9	4.3604e-06	4.5542e-06	319.16	118.27	97.705	39.117	4.4504e-06	49.316	-30.840	-5.066	-119.258	-150.080	11.865	-32.282	-152.288	-144.792	-0.354	51.957	-147.983	-143.900	-140.457	-135.141	-59.842	-140.125	-8191	255	
1889.829	1	1	0	0	0.14708	0.10353	0.1235	0.2913	0.38496	0.13842	0.11483	0.24683	0.17177	0.25611	0.056125	0.19108	0.19584	0.29708	0.33505	0.46867	-2.0042	-2.1	-1.6396	-2.5646	-1.6271	-2.0042	-2.4021	-1.6479	-2.3292	-2.0708	-1.6625	-2.45	-1.6917	-1.8396	-2.5625	-1.5875	17.485	26.370	-127.374	154.186	139.885	-88.161	98.667	26.070	-44.708	177.086	64.745	-158.970	-148.679	138.732	89.100	131.597	0.00071431	0.0014227	0.00016985	736.92	5.0409e-06	6.1494e-06	942.38	293.37	1.0404e-05	8.48e-06	372.01	138.2	114.49	45.437	8.8144e-06	56.729	0.00043242	0.00041207	0.00011776	631.22	4.4691e-06	4.4945e-06	802.56	252.37	4.5363e-06	4.4945e-06	318.72	118.33	97.679	39.279	4.5922e-06	48.805	-22.593	-68.115	186.356	-150.191	0.283	-28.488	-152.152	-144.195	-13.773	-28.047	-147.492	-143.082	-139.565	-135.102	-17.881	-140.506	-8191	255	
1889.926	1	1	0	0	0.18376	0.20013	0.17626	0.21982	0.1585	0.33957	0.26101	0.34267	0.40008	0.24984	0.14769	0.044127	0.30464	0.14187	0.06535	0.25863	-1.7563	-2.1792	-1.5521	-2.3479	-2.0125	-1.4604	-2.55	-1.6771	-1.9646	-2.3625	-1.6792	-2.625	-2.0563	-1.9333	-2.4479	-1.9229	-108.192	182.507	188.030	35.131	186.166	20.271	143.659	159.544	172.406	-16.849	86.703	-134.692	171.931	173.532	116.068	120.163	0.00068798	0.0003026	0.00032177	739.71	7.7741e-06	3.0671e-06	962.97	298.79	4.9904e-06	8.7905e-06	377.41	138.26	115.13	45.226	9.6391e-06	56.803	0.00044886	0.00042887	0.00012249	636.26	4.7083e-06	4.7994e-06	816	255.57	4.7633e-06	4.8791e-06	322.1	118.29	98.278	39.196	4.8159e-06	48.777	-20.256	-16.994	-80.409	-149.615	39.022	55.158	-152.064	-145.005	1.302	32.222	-148.143	-143.440	-140.077	-134.764	-31.599	-140.048	-8191	255	
1890.022	1	1	0	0	0.10518	0.2833	0.030241	0.1517	0.17378	0.053196	0.2604	0.15454	0.1114	0.040223	0.12343	0.2335	0.088044	0.37899	0.12805	0.14185	-1.6167	-2.2208	-1.6271	-2.5604	-1.8667	-1.8875	-2.6542	-1.7354	-1.8854	-2.3833	-1.6917	-2.2562	-2.1083	-1.6646	-2.6042	-1.7208	-9.669	157.658	-112.299	91.784	47.593	-53.998	67.547	-145.958	-8.397	65.712	-57.287	118.266	168.589	185.961	-84.155	179.642	0.00084831	0.000212	0.00027532	741.47	5.1366e-06	3.6276e-06	956.74	297.62	1.0807e-05	5.2929e-06	372.32	138.34	113.98	45.539	1.0068e-05	56.708	0.00044789	0.00043293	0.0001217	637.78	4.6513e-06	4.8804e-06	813.96	255.45	4.6888e-06	4.6907e-06	320.84	118.52	98.266	39.243	4.7427e-06	48.818	-33.713	58.755	-47.461	-149.317	63.494	-15.517	-152.002	-144.928	31.241	55.089	-147.884	-143.469	-140.274	-135.019	10.693	-140.103	-8191	255	
1890.142	1	1	0	0	0.13225	0.20453	0.23289	0.21509	0.18118	0.060484	0.17472	0.1956	0.13128	0.14155	0.10417	0.099915	0.05949	0.026927	0.14393	0.37842	-1.5708	-2.3563	-1.4813	-2.3646	-2.1604	-1.5542	-2.6437	-1.9292	-1.6646	-2.3563	-1.6771	-2.2812	-2.4062	-1.7208	-2.3229	-1.8146	109.285	87.953	183.941	142.041	-69.937	-52.152	175.881	127.536	191.404	-50.105	134.573	-156.864	-145.311	101.282	-77.271	126.646	0.00075814	0.00059551	0.00016869	752.38	4.3375e-06	1.0284e-05	956.83	302.68	8.8302e-06	6.7904e-06	379.9	140.4	116.95	45.687	1.5626e-05	57.784	0.00046102	0.00044906	0.00012281	642.47	4.6379e-06	4.8498e-06	817.66	258.59	4.8335e-06	4.7991e-06	326.92	120.21	99.618	39.819	4.9014e-06	49.848	-36.494	29.896	-98.940	-149.691	-62.586	56.397	-152.421	-144.454	-23.690	-68.249	-148.002	-143.631	-140.459	-135.281	-62.298	-139.635	-8191	255	
1890.238	1	1	0	0	0.33434	0.24968	0.080282	0.22018	0.30265	0.2193	0.12846	0.18101	0.19844	0.16098	0.39691	0.14735	0.24943	0.29972	0.24586	0.27072	-1.4542	-2.5375	-1.5625	-2.2854	-2.2458	-1.3875	-2.7583	-1.8958	-1.5688	-2.5021	-1.7833	-2.0938	-2.3563	-1.5688	-2.1521	-2.05	52.677	196.991	-8.445	-6.457	22.522	187.443	67.312	132.526	125.601	-144.943	126.271	-96.911	16.595	131.727	-64.394	180.281	0.00091128	0.00077377	7.8691e-05	757.96	6.1573e-06	1.6411e-06	973.89	306.49	5.8928e-06	7.058e-06	389.21	142.82	118.4	45.852	2.0566e-05	57.581	0.00046874	0.00045069	0.00012737	650.27	4.9881e-06	4.9505e-06	827.24	264	4.9024e-06	4.8929e-06	331.76	122.25	100.63	39.929	4.8595e-06	49.572	-34.218	-29.958	-73.114	-149.565	70.371	61.096	-152.469	-144.636	-53.323	-50.977	-148.200	-143.465	-139.794	-135.165	-0.490	-139.716	-8191	255	
1890.335	1	1	0	0	0.10845	0.22599	0.21268	0.34988	0.25857	0.2	0.19177	0.059332	0.16579	0.09268	0.2352	0.10712	0.20718	0.15966	0.22999	0.16105	-1.35	-2.3875	-1.5625	-2.0896	-2.3146	-1.5938	-2.3583	-2.1479	-1.5375	-2.5604	-1.9396	-1.9833	-2.4042	-1.7354	-2.2375	-2.1937	-58.720	156.497	190.588	-149.784	-121.897	164.457	89.192	-137.926	118.391	-149.893	95.799	181.206	15.374	178.605	-87.734	-68.034	0.00095791	0.00031181	0.00043611	777.1	6.8759e-06	2.7083e-06	989.7	313.43	8.1978e-06	3.8517e-06	393.28	144.44	120.37	47.191	8.2011e-06	58.48	0.00047474	0.00046304	0.0001285	666.2	4.9369e-06	5.1917e-06	845.89	268.12	5.0855e-06	4.9931e-06	336.25	123.52	103.03	40.806	5.0092e-06	50.63	-24.571	-88.221	-66.667	-149.679	40.958	-67.120	-151.930	-144.929	-34.312	110.807	-148.364	-143.787	-140.004	-135.118	75.907	-139.873	-8191	255	
1890.431	1	1	0	0	0.095251	0.14764	0.28584	0.15497	0.069135	0.057153	0.22998	0.29254	0.30058	0.086736	0.26001	0.14867	0.17028	0.21834	0.35209	0.13858	-1.1833	-2.4208	-1.575	-2.0438	-2.4625	-1.5771	-2.3271	-2.2646	-1.2417	-2.3958	-1.7958	-1.7833	-2.3187	-1.4708	-2.1875	-2.2958	119.392	130.686	162.098	-105.418	-158.928	171.939	96.612	148.398	156.399	-127.736	56.218	61.255	1.568	96.912	150.046	154.182	0.0008307	0.00077046	0.00031517	800.11	5.1955e-06	9.34e-06	1015	321.5	1.636e-05	3.1296e-06	403.24	147.44	122.49	48.064	4.7298e-06	60.208	0.00048582	0.00045244	0.00012857	686.03	5.1387e-06	4.9135e-06	865.34	275.55	4.9263e-06	5.0432e-06	344.31	126.36	104.76	41.764	5.0535e-06	51.648	-15.677	-98.760	-44.461	-149.641	-126.398	-6.834	-152.193	-144.969	-23.656	128.544	-148.261	-143.498	-140.491	-135.576	7.870	-139.948	-8191	255	
1890.527	1	1	0	0	0.081815	0.090147	0.32759	0.078689	0.16154	0.13455	0.09893	0.25393	0.15601	0.2071	0.48972	0.11187	0.034892	0.28528	0.20589	0.18627	-1.0208	-2.4854	-1.7792	-1.6938	-2.3646	-1.4292	-2.2104	-2.4667	-1.3771	-2.4708	-1.9542	-1.5958	-2.675	-1.5583	-1.8687	-2.6562	156.519	-98.307	112.844	154.927	185.685	-20.736	69.404	147.620	121.384	118.885	152.750	172.256	24.416	192.673	59.843	79.233	0.00091657	0.00019599	0.00011496	831.44	3.693e-06	5.412e-06	1048.2	329.15	3.2393e-06	1.1142e-05	412.08	149.81	125.99	49.869	8.7086e-06	61.813	0.00049307	0.00046265	0.0001279	704.71	5.0904e-06	4.9749e-06	892.04	282.46	5.0899e-06	5.0071e-06	353.95	128.95	107.86	42.839	5.1216e-06	52.916	-35.752	36.070	5.131	-149.812	98.383	-5.983	-152.477	-145.067	-80.735	-58.940	-148.065	-143.399	-139.888	-135.343	8.306	-139.820	-8191	255	
1890.623	1	1	0	0	0.085249	0.12583	0.23874	0.26882	0.14766	0.23348	0.16294	0.30464	0.16681	0.16996	0.075523	0.25383	0.0898	0.17531	0.41978	0.28483	-1.0187	-1.9896	-2.0438	-1.7542	-2.325	-1.825	-1.9917	-2.4062	-1.4771	-2.2417	-2.2042	-1.5979	-2.4917	-1.8521	-1.9146	-2.6188	104.649	57.375	30.700	181.796	-83.619	-144.002	180.488	123.478	144.440	-129.077	79.244	177.294	18.505	194.842	71.547	129.855	0.00097193	0.00021152	0.00019456	845.49	7.5738e-06	6.6875e-06	1080.3	334.14	7.4891e-06	1.2164e-06	415.99	151.78	126.97	49.518	9.24e-06	61.003	0.00047928	0.00044692	0.00012337	722.75	4.8792e-06	4.9275e-06	917.41	285.12	4.843e-06	4.9705e-06	356.2	129.3	107.79	42.754	4.9781e-06	52.341	-29.906	174.900	-143.110	-150.139	25.605	5.853	-152.084	-145.283	-8.583	-7.067	-147.880	-143.985	-139.389	-135.484	-35.028	-139.807	-8191	255	
1890.742	1	1	0	0	0.24687	0.076172	0.019022	0.12299	0.27342	0.15289	0.12141	0.055831	0.11643	0.20637	0.18285	0.096216	0.28976	0.15671	0.16293	0.18514	-1.2167	-2.1083	-2.25	-1.6229	-2.4646	-1.6958	-1.9104	-2.5104	-1.6437	-2.0208	-2.3146	-1.7333	-2.3146	-2.0667	-1.6458	-2.5563	100.448	-131.411	96.020	150.801	-4.913	-95.198	132.008	-108.461	192.707	-112.818	145.248	9.979	174.519	-154.579	-103.164	187.900	0.00092442	0.00043685	0.00011213	863.17	1.217e-05	2.2616e-06	1085.6	334.07	8.2773e-06	8.8023e-06	417.96	150.62	126.67	49.164	1.2907e-05	60.347	0.00047124	0.00045267	0.00012885	735.94	4.7864e-06	4.8659e-06	923.93	285.95	4.8809e-06	4.954e-06	356.24	128.67	107.85	42.636	5.03e-06	52.107	-37.326	-160.504	-67.858	-150.058	-41.359	90.921	-152.069	-144.730	-34.206	-31.748	-148.260	-143.410	-139.671	-134.961	0.755	-139.550	-8191	255	
1890.838	1	1	0	0	0.36515	0.16683	0.12049	0.42199	0.12567	0.065652	0.37826	0.2634	0.2201	0.20881	0.28527	0.2522	0.065417	0.066299	0.15183	0.47728	-1.3625	-1.8792	-2.3208	-1.4771	-2.4813	-2.1083	-1.8146	-2.5917	-1.7125	-2.0479	-2.3312	-1.6688	-2.3167	-2.1042	-1.4979	-2.6667	56.018	-141.161	161.899	-124.455	112.992	-109.595	162.142	162.773	175.991	-34.836	182.754	180.087	-123.418	181.829	18.533	162.737	0.00093258	0.00030987	0.00048412	880.41	5.5522e-06	3.2959e-06	1094.4	341.53	5.4841e-06	3.0547e-06	417.49	151.05	126.71	49.543	7.4788e-06	60.848	0.00047745	0.00045724	0.00012509	745.9	4.811e-06	5.0236e-06	937.38	290.7	5.0039e-06	5.0287e-06	359.09	129.34	108.64	42.819	4.8987e-06	52.339	-28.438	36.904	-63.191	-150.086	48.402	7.116	-152.170	-144.820	-18.682	48.219	-147.961	-143.736	-139.698	-134.977	45.892	-139.925	-8191	255	
1890.934	1	1	0	0	0.027182	0.24126	0.063868	0.329	0.21081	0.13312	0.23653	0.25532	0.13622	0.1318	0.11868	0.11646	0.086666	0.070811	0.10241	0.16109	-1.2375	-1.8625	-2.3396	-1.5812	-2.1208	-2.1271	-1.6521	-2.5812	-1.8896	-1.7083	-2.775	-1.5958	-2.2583	-2.0062	-1.5625	-2.5771	77.190	-87.939	-71.997	115.042	-56.291	9.445	162.776	133.996	-28.512	6.221	95.729	-117.264	181.586	160.330	-15.446	-129.739	0.00085132	0.00072687	0.00024983	878.71	6.6655e-06	4.1705e-06	1109.7	338.91	6.0813e-06	1.5199e-05	421.13	152.82	129.98	49.916	6.1436e-06	61.812	0.00048137	0.00045303	0.00012763	750.22	5.0267e-06	5.026e-06	945.22	290.39	4.8974e-06	4.9288e-06	360.87	130.4	109.46	43.059	4.9713e-06	52.972	-22.999	-79.350	-43.519	-149.931	-95.939	-33.141	-152.256	-144.641	4.883	-67.190	-147.496	-143.397	-139.323	-134.965	-73.634	-139.470	-8191	255	
1891.030	1	1	0	0	0.31852	0.11151	0.10919	0.070011	0.18732	0.07324	0.10502	0.19183	0.26459	0.21893	0.12895	0.15854	0.17393	0.098117	0.067666	0.15145	-1.3521	-1.7563	-2.3312	-1.55	-2.1979	-2.1688	-1.625	-2.5042	-1.6125	-1.725	-2.5	-1.4208	-2.1896	-2.5208	-1.5312	-2.3583	-157.538	-34.247	-130.826	112.522	-48.349	-54.159	95.271	95.091	-27.360	11.834	-159.767	-50.213	48.343	-144.402	-104.316	127.941	0.00091528	0.00096179	0.00038305	882.09	7.2258e-06	1.1065e-05	1111.2	339.02	4.398e-06	4.8307e-06	421.49	151.77	127.58	49.882	5.4148e-06	61.115	0.00046463	0.00045507	0.00012397	750.79	4.917e-06	4.8063e-06	945	288.96	4.6513e-06	4.8791e-06	359.1	129.63	108.77	42.99	4.9442e-06	52.55	-34.832	-43.481	-97.353	-149.906	-17.863	-19.079	-152.062	-144.360	-28.903	40.939	-147.375	-143.529	-138.836	-134.992	-30.080	-139.508	-8191	255	
1891.127	1	1	0	0	0.15232	0.16923	0.23204	0.28177	0.20047	0.16262	0.23427	0.043517	0.048684	0.16835	0.014859	0.16445	0.095295	0.15259	0.072726	0.24939	-1.7646	-1.6729	-2.5271	-1.6708	-1.7188	-2.3604	-1.4813	-2.4021	-1.8375	-1.7292	-2.5854	-1.7313	-1.8604	-2.5	-1.5208	-2.4062	-1.426	33.615	67.544	175.454	-137.906	72.271	72.489	162.481	-30.510	-122.947	45.459	171.476	-89.162	-108.402	142.483	164.764	0.00088271	0.0010273	0.00022937	879.43	4.0318e-06	7.6782e-06	1109.3	337.69	3.9593e-06	1.7462e-05	421.04	151.74	126.23	49.438	1.2777e-05	60.892	0.00045318	0.00044738	0.00012085	749.91	4.775e-06	4.6442e-06	945.44	289.49	4.6726e-06	4.7736e-06	359.43	129.28	108.01	42.596	4.7418e-06	52.329	-23.163	-139.818	-133.218	-150.062	-120.350	-31.317	-152.247	-144.661	-17.882	3.605	-148.021	-143.162	-139.473	-135.186	-6.475	-139.647	-8191	255	
1891.223	1	1	0	0	0.16857	0.033537	0.14115	0.12783	0.30579	0.22753	0.2926	0.35112	0.29411	0.16625	0.069031	0.15714	0.1136	0.33083	0.21395	0.41987	-1.6437	-1.6354	-2.5062	-1.8125	-1.7479	-2.3417	-1.8	-2.225	-2.1042	-1.5167	-2.4083	-2.0792	-1.7021	-2.4188	-1.6187	-2.2562	178.296	-1.236	-17.802	132.284	-125.249	156.283	135.622	-12.464	-85.975	102.168	148.698	54.159	61.953	189.985	107.486	139.250	0.00093261	0.00076371	8.8483e-05	874.06	1.2954e-06	1.1711e-05	1109.9	337.89	1.2923e-05	5.7272e-06	424.36	151.85	128.3	49.71	1.1239e-05	61.185	0.00045188	0.00043006	0.00011969	748.77	4.7381e-06	4.7019e-06	948.67	290.17	4.5748e-06	4.8207e-06	360.88	129.68	109.26	42.871	4.8575e-06	52.683	-36.116	-140.443	11.739	-150.479	7.453	7.915	-152.419	-144.865	-11.881	68.531	-147.887	-143.371	-139.988	-135.478	-47.840	-139.602	-8191	255	
1891.319	1	1	0	0	0.085382	0.16636	0.28478	0.1648	0.19077	0.18052	0.27911	0.2365	0.051679	0.18499	0.094767	0.20523	0.13988	0.11743	0.18931	0.34176	-1.9125	-1.4312	-2.3792	-2.1833	-1.4937	-2.5729	-1.8667	-2.1833	-2.1521	-1.7167	-2.3646	-2.0667	-1.6729	-2.5438	-1.625	-1.9167	-20.852	40.442	0.952	130.832	-50.783	153.305	110.903	162.811	140.625	49.182	-34.961	156.902	-13.380	170.194	23.029	176.948	0.00093983	0.00062147	0.00021694	880.23	1.2333e-05	7.7363e-06	1125.3	338.21	9.3125e-06	3.2397e-06	424.83	152.25	128.37	49.675	1.1392e-05	61.693	0.0004524	0.00043275	0.00011869	753.61	4.8218e-06	4.7798e-06	956	290.04	4.8414e-06	4.909e-06	361.93	130.17	108.96	43.123	4.8236e-06	53.064	-25.891	-99.323	-100.955	-150.048	-7.911	39.874	-152.311	-145.124	-42.326	38.666	-147.786	-143.189	-139.615	-135.615	5.326	-139.834	-8191	255	
1891.438	1	1	0	0	0.24909	0.23506	0.16108	0.296	0.26759	0.19043	0.069914	0.087842	0.3119	0.057754	0.43319	0.38861	0.1102	0.21218	0.14305	0.26358	-1.9646	-1.4417	-2.2729	-2.1417	-1.6708	-2.4437	-1.9875	-1.9292	-2.4625	-1.425	-2.45	-2.1937	-1.5604	-2.4271	-1.8292	-1.8708	-117.393	13.457	77.238	98.159	-79.533	-22.114	-143.520	150.910	-54.159	154.347	143.653	193.646	91.224	32.831	-155.218	160.365	0.00089074	0.00096041	0.00032331	895	1.4153e-05	4.8567e-06	1139.7	341.02	1.6399e-05	1.1913e-05	421.61	151.63	127.66	49.876	6.2968e-06	61.151	0.00045627	0.00043931	0.00012041	765.76	4.7277e-06	4.8066e-06	973.57	291.24	4.6608e-06	4.7355e-06	361.2	129.65	108.76	42.885	4.7619e-06	52.454	-31.538	-96.875	-32.852	-150.378	-1.514	-2.113	-152.030	-144.640	-66.734	-42.780	-147.877	-143.640	-140.299	-135.267	-16.068	-139.770	-8191	255	
1891.534	1	1	0	0	0.17723	0.17051	0.12345	0.034861	0.10756	0.15353	0.24508	0.11886	0.035775	0.2164	0.23931	0.12958	0.20033	0.12205	0.29633	0.046362	-2.2375	-1.5708	-2.1396	-2.1813	-1.5792	-2.3167	-1.9833	-1.7375	-2.4521	-1.725	-2.0646	-2.2229	-1.4875	-2.3771	-2.1083	-1.85	-0.469	-43.003	-116.742	10.686	87.948	-53.025	188.430	189.071	142.643	132.032	-111.510	169.265	191.566	109.106	75.356	-75.378	0.0010522	0.00059137	0.00032362	917.26	1.1449e-05	1.1429e-05	1161.3	343.38	1.116e-05	1.7353e-06	425.29	150.32	127.39	49.657	4.5743e-06	61.135	0.00045254	0.00043305	0.00011797	781.2	4.8354e-06	4.7606e-06	987.58	293.52	4.5413e-06	4.7105e-06	362.17	129.1	108.72	42.836	4.6069e-06	52.258	-28.663	-91.536	-71.063	-150.182	14.608	18.373	-152.578	-144.682	-10.266	81.823	-148.032	-143.139	-139.188	-134.829	-104.965	-139.783	-8191	255	
1891.606	1	1	0	0	0.12127	0.12149	0.26761	0.08245	0.24292	0.082801	0.13474	0.14668	0.14963	0.0993	0.15962	0.14537	0.1084	0.08761	0.13735	0.12381	-2.1	-1.5438	-2.125	-2.3604	-1.65	-2.4083	-2.2229	-1.375	-2.5125	-1.7125	-2.0292	-2.6229	-1.5396	-2.2229	-1.9396	-1.6417	-22.091	-117.025	-156.933	151.367	141.848	127.681	169.048	188.815	-61.278	59.853	181.258	137.545	-7.840	3.875	54.804	174.037	0.0007366	0.0010752	0.00016164	911.1	1.3132e-05	3.4519e-06	1150.5	339.23	1.0599e-05	8.6221e-06	424.11	151.13	126.69	49.711	1.3777e-05	61.165	0.00044293	0.00042241	0.0001165	779.08	4.7517e-06	4.5485e-06	982.2	291.43	4.5828e-06	4.6313e-06	362.34	129.46	108.6	42.88	4.6327e-06	52.432	-36.712	-62.357	-94.484	-150.481	-11.490	26.265	-152.266	-145.216	-53.136	0.586	-147.873	-143.450	-139.281	-134.983	19.688	-139.584	-8191	255	
1891.703	1	1	0	0	0.2284	0.042757	0.27091	0.15811	0.24943	0.15174	0.29345	0.094185	0.27372	0.25151	0.29838	0.2312	0.10716	0.095173	0.12928	0.2902	-2.0208	-1.8375	-1.8188	-2.6146	-1.1375	-2.2396	-2.4437	-1.7833	-2.4667	-1.7958	-1.7417	-2.4958	-1.3708	-2.1792	-2.2604	-1.6521	141.417	188.675	-24.847	117.911	-43.781	47.898	148.679	153.499	148.362	82.260	135.479	-120.144	-157.368	136.250	120.354	102.555	0.00090625	0.00029841	7.9229e-05	917.12	9.0338e-06	6.8806e-06	1157.5	341.27	1.0541e-05	3.6679e-06	427.06	152.01	128.39	49.904	8.4701e-06	61.08	0.00042835	0.00040498	0.00011453	780.8	4.3969e-06	4.3596e-06	982.09	291.71	4.3557e-06	4.4293e-06	363.61	130.06	108.87	42.977	4.4075e-06	52.625	-26.881	-136.664	5.107	-149.894	-4.275	41.178	-152.822	-145.267	-10.088	54.028	-147.955	-143.679	-140.069	-134.951	17.960	-139.572	-8191	255	
1891.822	1	1	0	0	0.095332	0.22601	0.065516	0.18402	0.21021	0.12733	0.40897	0.11764	0.069607	0.066514	0.1796	0.27108	0.24517	0.30511	0.11082	0.10302	-2.0729	-1.875	-1.9646	-2.4	-1.7167	-2.3063	-2.2167	-1.6187	-2.2583	-1.8271	-1.6833	-2.6042	-1.75	-2.0667	-2.3875	-1.6542	-60.939	-139.074	-32.584	-153.917	115.775	187.446	142.812	-118.144	151.603	-154.476	36.158	194.780	-95.489	136.095	-69.262	153.622	0.00062133	0.00074258	0.00027469	919.65	7.1415e-06	7.3737e-06	1172.8	340.74	9.1724e-06	1.8144e-06	424.88	151.16	127.47	48.905	9.3705e-06	59.609	0.00042118	0.00040294	0.00011425	783.75	4.649e-06	4.4475e-06	995.67	292.62	4.6748e-06	4.531e-06	362.05	129.06	108.02	42.204	4.2929e-06	50.851	-25.110	-79.377	-79.588	-150.125	-24.592	-15.566	-152.358	-144.730	-19.379	47.213	-147.399	-143.365	-139.580	-134.534	-6.580	-139.354	-8191	255	
1891.918	1	1	0	0	0.35596	0.033155	0.29372	0.39166	0.18511	0.36946	0.37798	0.22942	0.20025	0.32762	0.08549	0.17489	0.071437	0.16383	0.08242	0.41682	-1.9979	-1.9833	-1.4521	-2.2771	-1.525	-2.0167	-2.7812	-1.5271	-2.2562	-2.0792	-1.7521	-2.5792	-1.6812	-1.6146	-2.3333	-1.5604	44.304	43.439	-23.752	147.166	190.043	-47.012	102.022	72.640	-135.667	50.066	25.060	99.508	-34.197	176.264	-54.102	75.823	0.00094293	0.00126	0.00018607	898.81	1.0373e-05	1.937e-06	1142.4	334.8	7.384e-06	5.4998e-06	413.71	150.08	126.21	49.079	1.249e-05	59.419	0.00040822	0.00038081	0.00010581	763.11	4.1085e-06	4.2595e-06	973.66	284.7	4.4514e-06	4.6333e-06	355.09	127.54	106.95	42.236	4.6368e-06	51.526	-21.640	-40.581	-102.343	-150.106	-30.172	-40.118	-152.232	-144.568	-118.484	-1.308	-147.131	-143.394	-139.638	-134.644	8.355	-139.104	-8191	255	
1892.015	1	1	0	0	0.17234	0.10512	0.18795	0.092284	0.057174	0.034236	0.43967	0.43528	0.008984	0.099264	0.3306	0.29215	0.1627	0.38016	0.23015	0.098603	-1.9271	-2.2146	-1.4042	-2.5187	-1.7396	-1.8062	-2.5229	-1.6146	-2.0208	-2.2438	-1.6021	-2.6875	-1.8083	-1.7917	-2.5479	-1.7104	160.926	-95.902	121.683	-134.078	-80.164	-113.214	128.410	152.153	124.531	112.007	62.069	171.412	-133.718	140.531	115.961	-137.353	0.00080725	0.00032104	2.8945e-05	908.22	6.3483e-06	7.0093e-06	1149.4	337.82	7.7663e-06	7.7279e-06	417.04	150.83	125.82	49.095	6.565e-06	59.232	0.00044085	0.00042281	0.00011619	776.23	4.5933e-06	4.6623e-06	976.75	288.78	4.4349e-06	4.5009e-06	357.6	127.88	106.68	42.159	4.2967e-06	50.995	-26.161	-107.532	-61.317	-149.668	-8.866	-39.362	-151.920	-144.544	-42.547	26.118	-147.378	-142.825	-139.692	-134.810	-68.429	-139.213	-8191	255	
1892.135	1	1	0	0	0.47277	0.041169	0.25606	0.16718	0.12261	0.28772	0.17533	0.36151	0.13211	0.32774	0.19618	0.26984	0.19901	0.26883	0.098135	0.16658	-1.5875	-2.3271	-1.3125	-2.4938	-1.9125	-1.4813	-2.6729	-1.6313	-2.0438	-2.4125	-1.6333	-2.5458	-2.1937	-1.6437	-2.4354	-1.6562	-53.751	122.655	-161.030	99.887	66.241	-53.253	150.552	135.900	68.151	98.279	180.074	196.425	161.266	93.663	-152.894	177.168	0.00077449	0.00032584	0.00015182	896.1	9.4141e-06	7.9636e-06	1139	334.23	4.6612e-06	1.4136e-05	415.29	150.93	127.22	48.873	1.4637e-05	60.767	0.00041868	0.00039377	0.00011123	763.46	4.1486e-06	4.1497e-06	969.32	286.19	4.2667e-06	4.1481e-06	355.34	128.31	107.2	42.032	4.3707e-06	51.756	-25.869	12.477	-125.838	-149.518	13.055	-34.789	-151.489	-144.265	-66.528	-17.312	-147.355	-143.051	-139.099	-134.258	-51.899	-139.372	-8191	255	
1892.231	1	1	0	0	0.14459	0.14537	0.21653	0.30929	0.08858	0.29853	0.29651	0.15789	0.24874	0.30675	0.13908	0.28749	0.11918	0.12152	0.059073	0.3393	-1.3792	-2.3333	-1.4792	-2.1521	-2.0896	-1.4708	-2.5125	-1.8792	-1.9167	-2.4396	-1.4042	-2.2687	-2.1625	-1.6688	-2.375	-2.0208	172.026	34.470	160.582	131.535	183.701	-59.543	110.213	139.394	67.044	162.913	-102.617	82.905	91.689	14.779	-95.002	197.888	0.00091961	0.00054061	3.3955e-05	911.25	8.5392e-06	9.3512e-06	1155.6	341.13	7.1201e-06	1.7693e-05	421.29	150.74	127.76	49.009	1.2327e-05	59.761	0.00042056	0.00040707	0.00011148	775.14	4.4232e-06	4.396e-06	975.11	290.58	4.4619e-06	4.4685e-06	359.33	128.77	108.11	42.216	4.4107e-06	51.335	-19.083	-86.102	-121.268	-149.632	4.566	-2.871	-151.234	-143.622	-31.621	1.678	-147.579	-143.320	-139.327	-134.632	-35.579	-139.012	-8191	255	
1892.303	1	1	0	0	0.081157	0.021784	0.26818	0.16305	0.10297	0.092365	0.18246	0.23727	0.080206	0.12777	0.21355	0.13802	0.21181	0.13764	0.31258	0.19806	-1.2875	-2.4042	-1.6333	-2.2438	-2.3854	-1.5812	-2.4875	-1.9604	-1.5958	-2.5375	-1.8292	-2.0708	-2.2479	-1.5312	-2.3312	-1.9833	-6.957	-147.360	122.127	150.993	78.915	-30.568	23.532	103.851	178.704	-8.699	97.037	172.226	12.814	-72.519	-134.121	120.093	0.00099387	0.00075526	0.00031908	905.46	5.8837e-06	9.4158e-06	1141.7	338.14	6.44e-06	5.0622e-06	420.32	149.9	126.05	48.792	5.4855e-06	60.378	0.00043298	0.00039356	0.00011122	769.75	4.2729e-06	4.3397e-06	967.46	288.36	4.3595e-06	4.2628e-06	357.97	127.68	107.35	42.088	4.3345e-06	51.472	-25.058	-21.246	-94.426	-149.991	19.716	-62.504	-152.084	-144.197	-2.508	27.131	-147.039	-143.213	-139.104	-135.030	-49.854	-139.361	-8191	255	
1892.424	1	1	0	0	0.23921	0.23253	0.21543	0.26493	0.1164	0.124	0.21074	0.17644	0.22001	0.16031	0.27011	0.19963	0.36787	0.25924	0.058295	0.29808	-1.3667	-2.4667	-1.7104	-2.2292	-2.3042	-1.4771	-2.2687	-2.1562	-1.6625	-2.5396	-1.9521	-1.9937	-2.4313	-1.5854	-2.4875	-2.2646	152.050	7.131	132.243	115.914	-153.215	0.547	144.901	59.385	139.892	-76.928	111.629	-131.174	-160.189	166.185	1.664	162.155	0.00085351	0.00069052	6.4371e-05	914.4	8.6248e-06	5.2702e-06	1156.6	340.45	4.949e-06	4.3555e-06	421.35	150.14	127.33	48.899	7.614e-06	60.437	0.00042578	0.00038688	0.00011056	775.3	4.2915e-06	4.5174e-06	979.51	290.38	4.3153e-06	4.3922e-06	358.66	128.13	107.43	42.231	4.243e-06	51.565	-33.935	-60.742	-148.778	-149.502	-1.705	-29.635	-152.001	-144.343	0.956	-4.284	-147.751	-142.454	-139.624	-134.426	0.349	-139.724	-8191	255	
1892.518	1	1	0	0	0.24681	0.18266	0.24808	0.10601	0.1143	0.30484	0.25315	0.47288	0.080329	0.10685	0.32465	0.083612	0.23032	0.36859	0.17926	0.17978	-0.92708	-2.4	-1.8813	-2.0104	-2.3229	-1.4604	-2.2125	-2.1646	-1.5187	-2.2896	-1.8563	-1.8312	-2.4229	-1.4688	-1.9542	-2.2708	-99.260	-53.056	114.545	-121.853	-106.432	59.272	111.387	149.899	103.010	5.832	42.671	129.043	12.253	181.745	136.485	96.337	0.00095727	0.00047757	0.00027794	904.57	5.1184e-06	1.0371e-05	1150.4	339.7	9.0611e-06	7.1732e-06	423.53	150.64	127.8	48.952	8.6731e-06	60.396	0.00042722	0.00039692	0.00011012	770.78	4.3e-06	4.3091e-06	972.75	289.32	4.2135e-06	4.1691e-06	359	128.46	107.63	42.087	4.2263e-06	51.663	-20.552	-62.558	-124.882	-149.663	-14.503	14.005	-151.991	-144.868	-53.084	-41.550	-147.634	-142.810	-139.620	-134.645	-75.718	-139.455	-8191	255	
1892.614	1	1	0	0	0.34006	0.21828	0.033373	0.29365	0.095083	0.051399	0.22774	0.44355	0.11621	0.17761	0.24886	0.16415	0.066235	0.12891	0.15594	0.2985	-1.0375	-2.4375	-1.7604	-1.675	-2.4542	-1.6521	-2.2062	-2.2979	-1.1875	-2.4021	-2.1729	-1.6521	-2.3688	-1.8813	-2.0979	-2.3792	15.682	31.300	193.122	107.216	-127.809	7.176	146.040	91.614	-63.245	21.827	-122.494	171.939	6.750	-150.032	65.047	121.369	0.00085394	0.00072307	7.2688e-05	895.57	7.5969e-07	2.4297e-06	1135.1	336.9	2.1206e-06	8.7063e-06	421	149.15	125.75	48.82	6.4723e-06	58.999	0.00041556	0.00037567	0.0001069	763.1	4.3766e-06	4.2012e-06	965.77	288.24	4.208e-06	4.1242e-06	356.71	127.75	106.48	41.88	4.246e-06	50.664	-22.688	-82.429	23.754	-150.212	78.538	-42.508	-152.215	-144.634	-32.503	24.245	-148.131	-143.578	-139.632	-135.291	-40.920	-139.635	-8191	255	
1892.735	1	1	0	0	0.098535	0.22342	0.14045	0.15755	0.2604	0.13807	0.052818	0.49467	0.11612	0.15509	0.33471	0.13422	0.06502	0.19681	0.051766	0.11859	-1.2083	-2.0812	-1.9562	-1.6979	-2.3771	-1.9292	-2.1208	-2.5167	-1.3521	-2.3688	-2.2958	-1.65	-2.4833	-2.0083	-1.7667	-2.3875	80.588	-91.505	144.736	124.070	-52.525	193.582	144.999	114.409	-123.835	163.198	102.950	52.871	-17.320	155.452	-120.857	177.059	0.00092122	0.00042154	0.00018532	899.18	1.0163e-05	6.6764e-06	1145.8	336.43	5.8677e-06	2.5205e-06	417.87	148.86	126.39	48.205	6.1836e-06	58.974	0.00040501	0.00037364	0.00010825	766.5	4.2499e-06	4.166e-06	967.83	287.31	4.2829e-06	4.1087e-06	354.99	126.73	106.76	41.521	4.0166e-06	50.443	-41.491	-138.122	-1.684	-150.022	37.224	-16.830	-151.971	-145.122	-49.416	-116.042	-148.329	-143.481	-139.329	-134.985	-63.884	-139.964	-8191	255	
1892.831	1	1	0	0	0.10096	0.085099	0.14185	0.22272	0.13338	0.19007	0.4497	0.39408	0.20347	0.069298	0.10401	0.18883	0.18447	0.30126	0.16595	0.041189	-1.0146	-2.15	-2.3	-1.6458	-2.4625	-1.6833	-2.0104	-2.4437	-1.425	-2.0958	-2.3125	-1.4917	-2.425	-1.9021	-1.5479	-2.6833	-106.913	-48.905	141.757	108.413	165.803	-34.986	146.242	146.158	5.876	180.793	-77.924	94.001	-160.381	112.829	182.658	61.089	0.00086741	0.00052164	7.4879e-05	894.13	7.0114e-06	6.9788e-06	1132.8	336	4.3155e-06	2.6924e-06	419.79	149.06	125.73	48.511	3.879e-06	59.134	0.00040912	0.0003564	0.00010627	762.21	4.1636e-06	4.0695e-06	962.37	288.26	4.1479e-06	4.147e-06	356.25	127.15	106.48	41.667	4.1456e-06	50.753	-32.919	-64.577	56.007	-150.275	-66.185	-17.068	-152.108	-145.028	-22.023	-80.329	-147.762	-143.609	-140.231	-135.134	42.489	-139.295	-8191	255	
1892.903	1	1	0	0	0.15638	0.22529	0.21126	0.24122	0.12832	0.20889	0.17804	0.22286	0.26558	0.068618	0.14763	0.033141	0.095452	0.52053	0.13869	0.33717	-1.2271	-1.9604	-2.1917	-1.3583	-2.2875	-1.7458	-1.5729	-2.6708	-1.5	-2.0667	-2.3104	-1.5312	-2.2354	-2.0917	-1.5646	-2.5167	95.283	-28.630	21.035	158.312	126.550	112.228	83.582	136.329	-148.907	-86.034	0.205	39.268	-120.276	153.315	-50.659	119.350	0.00085073	0.00048465	0.00024261	890.84	6.4735e-06	5.3502e-06	1135.7	338.32	1.1262e-05	9.9411e-06	417.78	150.25	126.53	48.389	8.6518e-06	60.11	0.00039822	0.00036997	0.00010288	761.98	3.9033e-06	3.9857e-06	964.42	288.98	3.9654e-06	3.9438e-06	357.37	127.71	106.49	41.639	4.0063e-06	51.265	-21.114	-162.472	-57.666	-150.053	-34.208	13.502	-151.845	-144.643	-14.561	-13.788	-147.862	-143.236	-140.484	-135.267	-75.014	-140.017	-8191	255	
1892.999	1	1	0	0	0.24146	0.23006	0.17784	0.40215	0.2496	0.069206	0.35008	0.34641	0.10816	0.18321	0.20556	0.1721	0.20925	0.30104	0.18422	0.14487	-1.1833	-1.7062	-2.1854	-1.6625	-2.2062	-1.9875	-1.6917	-2.4708	-1.8813	-1.7667	-2.3937	-1.6271	-2.2271	-2.1583	-1.5708	-2.7417	107.235	-55.512	184.739	156.854	62.403	-148.092	135.774	171.396	78.744	-63.154	28.089	81.673	-31.140	-144.497	-104.742	-149.585	0.00084357	0.00064935	0.00020508	890.56	4.4532e-06	6.1867e-06	1138.9	339.09	1.1608e-05	4.1681e-06	419.41	148.86	127.3	48.373	1.0755e-05	58.76	0.00039688	0.00037754	9.8523e-05	764.94	4.0219e-06	3.9789e-06	970	289.8	4.0655e-06	4.0318e-06	357.39	127.45	106.97	41.753	3.8781e-06	50.666	-30.774	172.438	183.134	-149.749	31.974	-28.388	-152.212	-144.771	-35.035	-99.185	-148.136	-143.616	-139.684	-135.216	-25.571	-139.319	-8191	255	
1893.119	1	1	0	0	0.24634	0.1277	0.12274	0.23984	0.070174	0.060854	0.090484	0.4026	0.17263	0.3056	0.14898	0.054935	0.072197	0.13166	0.1517	0.29884	-1.5167	-1.6542	-2.4479	-1.7146	-2.25	-2.2667	-1.6187	-2.5417	-1.7208	-1.4979	-2.6292	-1.7375	-2.1208	-2.5312	-1.4917	-2.4333	96.562	-72.284	151.105	193.662	-59.066	22.635	-142.845	-150.349	-129.991	-104.141	86.026	143.192	-154.969	151.613	-128.143	95.720	0.00093973	0.00068941	0.00031375	893.27	5.3728e-06	5.1282e-06	1139.8	338.88	4.7373e-06	9.3114e-06	417.77	148.21	124.89	47.774	5.4924e-06	59.301	0.00038427	0.00035752	9.9017e-05	763.32	3.9228e-06	3.9234e-06	964.24	288.98	3.8296e-06	3.9412e-06	354.49	126.39	105.54	41.383	3.7839e-06	50.718	-35.316	-99.328	-83.087	-150.003	46.882	14.306	-151.961	-144.244	-2.017	16.377	-147.837	-142.942	-139.693	-134.570	4.949	-138.957	-8191	255	
1893.216	1	1	0	0	0.27113	0.15095	0.1852	0.066014	0.29089	0.17901	0.16328	0.14025	0.11658	0.19142	0.11102	0.23295	0.12594	0.18761	0.094256	0.061271	-1.5458	-1.4896	-2.4979	-1.7625	-2.0021	-2.2896	-1.6208	-2.3729	-2.0583	-1.5479	-2.4667	-1.6	-1.7854	-2.4354	-1.6271	-2.3479	11.611	104.912	-115.776	143.461	-149.816	79.897	159.628	196.285	145.618	-80.245	-154.304	129.067	-27.545	-151.849	74.170	-160.934	0.001144	0.00028999	0.0002224	895.14	7.2378e-06	5.8865e-06	1132.2	338.22	1.6284e-05	7.4435e-06	417.51	149.51	124.9	48.086	1.0164e-05	59.269	0.00038956	0.00036015	9.4779e-05	760.03	3.8161e-06	3.8243e-06	959.47	288.69	3.7612e-06	3.7575e-06	355.08	126.63	105.52	41.407	3.737e-06	50.703	-29.536	188.769	-126.185	-149.884	33.594	8.022	-151.877	-144.353	-25.531	-56.740	-147.673	-143.153	-139.655	-134.611	13.490	-139.115	-8191	255	
1893.312	1	1	0	0	0.22426	0.066808	0.21676	0.33149	0.10118	0.13321	0.30017	0.038695	0.15051	0.12475	0.0939	0.022099	0.40586	0.10122	0.25178	0.20333	-1.6958	-1.6583	-2.4104	-1.7375	-1.9917	-2.4	-1.6938	-2.3396	-1.9167	-1.6417	-2.6646	-1.8687	-1.7354	-2.4625	-1.5375	-2.1604	-10.467	-17.693	-79.674	150.112	-106.998	36.970	102.705	-10.890	-39.839	96.941	93.695	146.074	174.835	118.840	-122.732	-152.571	0.00082649	0.00060277	0.00026163	898.3	8.5064e-06	2.1127e-06	1129.2	341.58	1.3582e-05	6.4551e-06	423.56	150.92	127.58	48.753	4.1252e-06	60.344	0.00037231	0.00035494	9.7489e-05	763.34	3.8952e-06	3.7787e-06	961.65	289.96	3.8359e-06	3.7586e-06	359.43	128.03	107.23	41.89	3.8315e-06	51.384	-31.755	-56.091	-75.461	-149.376	9.088	-27.596	-151.482	-144.198	-66.464	167.552	-147.627	-142.951	-140.016	-135.304	-10.419	-139.120	-8191	255	
1893.408	1	1	0	0	0.17717	0.27751	0.062622	0.22562	0.24389	0.15307	0.17783	0.31862	0.16523	0.16065	0.40232	0.16399	0.33132	0.05033	0.17599	0.33855	-1.8188	-1.4	-2.4354	-1.9562	-1.7792	-2.3542	-1.6437	-2.2438	-2.1437	-1.6271	-2.4938	-1.95	-1.6521	-2.8146	-1.5812	-2.2229	4.935	152.072	44.886	148.465	183.118	4.943	179.433	74.020	-113.615	40.671	156.344	-142.056	149.581	-96.937	158.712	55.901	0.00079553	0.0012598	0.0002969	889.64	1.1332e-05	5.7871e-06	1124	339.02	6.0053e-06	2.4887e-06	423.06	148.7	126.59	48.721	3.5943e-06	60.006	0.00039338	0.00037472	9.9889e-05	756.5	3.9111e-06	4.073e-06	954.96	289.01	4.0615e-06	4.1532e-06	358.9	127.35	106.78	42.014	3.9817e-06	51.459	-29.418	-148.807	-95.192	-149.009	42.901	-2.059	-151.765	-144.212	-9.364	36.438	-147.082	-142.619	-139.062	-134.279	-73.126	-138.955	-8191	255	
1893.502	1	1	0	0	0.24092	0.14169	0.33654	0.079753	0.17605	0.21945	0.081719	0.24935	0.18074	0.20406	0.30321	0.26389	0.21833	0.2343	0.33745	0.22101	-1.7958	-1.4458	-2.3542	-2.1729	-1.5771	-2.7729	-1.85	-2.0167	-2.5271	-1.5104	-2.2167	-2.3979	-1.4667	-2.5	-1.6187	-2	174.394	73.217	99.890	-32.187	105.965	-158.119	133.879	172.415	143.642	115.583	156.490	173.879	-120.886	173.503	4.409	140.664	0.001002	0.00092533	0.00027169	891.29	7.5227e-06	8.2967e-06	1117.6	343.39	9.0987e-06	7.8115e-06	423.46	149.4	127.31	48.728	9.5797e-06	59.343	0.00039566	0.00035914	0.0001056	756.91	4.091e-06	4.1035e-06	952.76	291.33	3.9339e-06	4.142e-06	359.03	127.32	106.87	42.032	3.9358e-06	51.198	-23.176	-68.308	-9.953	-148.930	12.683	-37.205	-151.324	-144.174	-18.264	-46.527	-147.409	-142.951	-139.393	-134.231	28.769	-138.893	-8191	255	
1893.598	1	1	0	0	0.15196	0.13333	0.30882	0.20712	0.12926	0.14571	0.075419	0.10413	0.073975	0.22175	0.23879	0.18836	0.012417	0.12109	0.18134	0.33893	-2.0396	-1.5854	-2.1646	-2.2583	-1.4208	-2.4521	-2.05	-1.9292	-2.3021	-1.6646	-2.4062	-2.3167	-1.4667	-2.5146	-1.8125	-1.7563	-37.915	41.482	-9.377	153.338	84.649	-116.480	137.248	172.882	55.578	32.979	133.401	138.319	73.017	120.669	129.534	133.893	0.00083393	0.00024052	0.00030632	901.18	6.5887e-06	2.7822e-07	1136.8	345.12	1.4202e-05	1.2132e-05	423.79	151.29	126.82	49.342	6.9873e-06	60.382	0.0003955	0.00036445	0.00010491	766.69	3.9866e-06	4.0039e-06	965.21	293.59	3.9934e-06	3.9224e-06	360.73	128.48	107.42	42.407	3.9193e-06	51.65	-30.260	-79.513	-75.598	-149.342	17.513	-8.323	-151.563	-143.928	-19.862	-43.543	-147.013	-142.898	-139.197	-134.161	-4.277	-139.025	-8191	255	
1893.696	1	1	0	0	0.16698	0.10275	0.12592	0.15041	0.289	0.035639	0.3218	0.18858	0.2556	0.14198	0.15203	0.18302	0.11322	0.086009	0.11615	0.32273	-2.1083	-1.4708	-2.3396	-2.3625	-1.55	-2.4604	-2.0229	-1.7333	-2.5083	-1.6542	-2.1146	-2.4437	-1.6542	-2.4104	-1.6958	-1.5063	25.991	-113.710	172.492	167.172	164.707	-123.835	135.490	-159.525	111.282	-90.953	161.566	65.578	95.344	-142.844	65.126	164.330	0.00082452	0.0006049	0.00010069	908.67	6.9216e-06	6.8904e-06	1150.4	346.47	1.3259e-06	1.0212e-05	432.72	153.05	127.91	49.714	4.336e-06	60.805	0.00038863	0.000361	9.9981e-05	772.19	4.0704e-06	4.01e-06	975.79	294.84	4.0939e-06	4.0621e-06	367.58	130.18	108.53	42.787	3.9436e-06	52.234	-29.381	-96.364	-63.964	-149.507	33.943	-24.419	-152.001	-144.453	-107.805	24.605	-147.711	-143.244	-139.834	-134.612	-63.833	-138.711	-8191	255	
1893.815	1	1	0	0	0.072664	0.16843	0.30878	0.34427	0.10909	0.015634	0.25292	0.1554	0.14522	0.033482	0.20273	0.19454	0.2238	0.28021	0.17804	0.20232	-2.125	-1.6583	-1.9604	-2.4625	-1.5167	-2.375	-2.1167	-1.7854	-2.3417	-1.6604	-2.0021	-2.7021	-1.4833	-2.5667	-2.2354	-1.5625	192.865	-21.033	-135.733	150.436	-10.182	85.912	103.156	76.377	-22.936	26.206	130.260	101.864	13.388	77.080	-148.557	158.075	0.00084107	0.0012299	0.00033647	916.68	1.0862e-05	6.9956e-06	1159.9	347.07	5.3492e-06	8.4457e-06	428.63	151.94	128.45	49.455	9.1153e-06	60.276	0.00037853	0.00036193	9.9744e-05	780.65	3.8614e-06	3.8351e-06	981.11	295.43	3.8349e-06	3.7622e-06	364.36	129.21	108.18	42.542	3.8521e-06	51.712	-26.865	-45.990	-83.302	-150.064	-27.884	17.179	-151.879	-144.563	8.198	8.307	-147.342	-142.780	-139.516	-134.543	23.663	-139.208	-8191	255	
1893.911	1	1	0	0	0.1177	0.18188	0.17882	0.41769	0.25159	0.13851	0.055698	0.1501	0.12182	0.13654	0.048528	0.17758	0.1716	0.083611	0.038245	0.29678	-2.2771	-1.8292	-1.9646	-2.525	-1.6083	-2.3625	-2.4833	-1.7146	-2.5167	-1.8854	-1.8062	-2.6479	-1.6562	-2.2771	-2.2958	-1.4646	65.263	149.013	192.886	172.051	-35.543	110.290	-29.977	145.685	-122.194	163.159	-93.953	88.884	75.614	126.951	28.495	107.967	0.00080374	0.00044844	0.00018011	915.05	7.0403e-06	8.5088e-06	1162.7	344.79	1.0483e-05	9.0243e-06	427.35	151.39	126.56	49.286	4.4853e-06	59.613	0.00037237	0.00032937	9.1358e-05	779.68	3.5152e-06	3.6523e-06	984.97	294.19	3.6353e-06	3.4528e-06	361.96	128.35	106.79	42.358	3.4493e-06	51.104	-29.113	-27.412	-85.047	-149.597	62.401	-28.164	-152.217	-144.362	-4.776	10.217	-147.784	-143.645	-139.682	-135.147	-64.059	-139.284	-8191	255	
1894.008	1	1	0	0	0.11417	0.023066	0.078066	0.14936	0.10709	0.057278	0.19221	0.12924	0.13892	0.17323	0.12779	0.067595	0.24499	0.13478	0.052124	0.1351	-1.8875	-2.1375	-1.5729	-2.4542	-1.7146	-1.8708	-2.4792	-1.5667	-2.2583	-2.1417	-1.4708	-2.6917	-1.7917	-2.3167	-2.4042	-1.7125	28.097	37.663	-158.722	169.879	11.392	101.830	132.835	47.662	158.985	-121.603	109.392	140.842	13.986	159.902	60.931	-64.978	0.00092233	0.00061958	9.1601e-05	920.67	6.3835e-06	7.5277e-06	1157.8	347.37	8.1827e-06	8.4132e-06	428.37	151.72	128.66	49.936	4.9586e-06	61.017	0.00034894	0.00031243	8.8596e-05	784.16	3.4186e-06	3.4609e-06	985.56	294.78	3.587e-06	3.5794e-06	364.72	129.37	108.24	42.998	3.5947e-06	52.256	-35.954	-46.713	-73.881	-149.982	-22.942	-16.497	-152.526	-144.720	-40.930	80.994	-147.975	-143.745	-139.874	-135.269	33.403	-139.603	-8191	255	
1894.104	1	1	0	0	0.086147	0.18931	0.15122	0.19634	0.22515	0.21305	0.26002	0.28504	0.072587	0.29015	0.31675	0.10304	0.19812	0.27851	0.15747	0.18554	-1.9646	-2.2188	-1.5875	-2.7	-1.7437	-1.7896	-2.525	-1.6833	-2.0854	-2.1937	-1.6729	-2.5604	-1.7792	-1.9188	-2.4188	-1.7229	127.988	-97.574	192.996	183.976	85.701	184.292	68.478	173.776	-32.168	27.854	-62.918	171.454	65.619	-143.819	142.152	-82.599	0.00089487	0.00096141	0.00026941	939.09	1.4342e-05	3.2355e-06	1193.6	355.13	1.0173e-05	2.6142e-06	444.89	156.42	132.12	51.965	8.1557e-06	63.743	0.00034758	0.000326	9.1277e-05	801.93	3.5835e-06	3.5119e-06	1009.6	302.25	3.415e-06	3.4328e-06	375.34	133.24	111.37	44.464	3.1722e-06	54.245	-28.834	-17.830	-92.107	-149.886	-2.573	48.963	-152.267	-145.262	9.645	-90.987	-147.875	-143.653	-140.488	-134.997	-34.754	-139.863	-8191	255	
1894.200	1	1	0	0	0.16004	0.13134	0.12296	0.28614	0.25605	0.3166	0.24897	0.22175	0.2093	0.35246	0.1302	0.098063	0.20267	0.15417	0.15971	0.11878	-1.8062	-2.2354	-1.4479	-2.3833	-1.9562	-1.6604	-2.5521	-1.7625	-2.1063	-2.3083	-1.4354	-2.4958	-1.9375	-1.8104	-2.4521	-1.6083	61.859	137.884	97.770	196.817	-70.358	94.313	136.318	144.014	-84.844	40.454	164.679	67.441	180.967	176.569	-39.426	110.306	0.00089972	0.00089829	0.00020096	953.32	7.7668e-06	7.864e-06	1200.7	358.4	1.176e-05	5.0713e-06	440.14	156.24	131.85	51.383	6.15e-06	62.113	0.00033104	0.00028551	8.3039e-05	809.47	3.0639e-06	3.1453e-06	1015.2	306.5	3.1674e-06	3.079e-06	373.05	132.71	110.78	44.1	3.0817e-06	53.179	-21.698	-75.818	-52.078	-150.339	-62.792	-26.620	-152.756	-144.901	-5.483	7.776	-147.805	-143.544	-140.020	-135.311	-99.198	-139.838	-8191	255	
1894.296	1	1	0	0	0.15565	0.10083	0.31541	0.30485	0.2673	0.39999	0.12072	0.15792	0.19595	0.10992	0.15979	0.17005	0.25983	0.17388	0.074674	0.25589	-1.9188	-2.4354	-1.4396	-2.525	-2.1083	-1.6437	-2.6937	-1.6625	-1.8479	-2.3854	-1.5854	-2.3187	-2.1063	-1.5958	-2.3375	-1.8625	-69.403	-5.623	81.436	-128.959	140.803	51.347	132.067	-99.504	106.814	-36.612	85.932	196.445	169.609	-151.301	-154.031	89.510	0.00085056	0.0006778	0.00031757	935.81	5.2954e-06	6.4505e-06	1182.1	356.34	1.4041e-05	3.6337e-06	440.16	154.05	129.52	51.153	6.3771e-06	61.954	0.00030957	0.00027281	7.6996e-05	795.62	2.9023e-06	2.9468e-06	1001.9	302.74	3.0749e-06	3.0072e-06	371.2	131.16	109.43	43.879	2.967e-06	52.79	-29.747	-36.253	-80.057	-150.186	36.734	-20.663	-152.459	-145.190	-26.579	-2.758	-148.238	-143.625	-140.400	-135.011	-13.592	-139.785	-8191	255	
1894.417	1	1	0	0	0.05912	0.20317	0.44132	0.21556	0.21843	0.13704	0.15229	0.14779	0.24606	0.12079	0.20038	0.26422	0.14893	0.41147	0.049743	0.14281	-1.4979	-2.4979	-1.3188	-2.4375	-2.2167	-1.7292	-2.5646	-2.0667	-1.8979	-2.6021	-1.8542	-2.0646	-2.3125	-1.5458	-2.6125	-2.0667	38.299	113.594	165.267	177.151	-77.723	194.249	47.623	182.480	-98.601	-99.033	146.518	134.963	61.758	-131.000	8.310	148.948	0.0010466	0.00051849	0.00029042	941	4.0587e-06	2.8702e-06	1179.5	358.58	4.4647e-06	8.9629e-06	439.2	155.96	132.22	51.199	1.1017e-05	61.675	0.00031806	0.00027616	7.6857e-05	799.41	3.0293e-06	3.0281e-06	1001.7	304.61	3.0087e-06	2.9844e-06	373.32	131.87	110.6	43.898	2.8468e-06	52.875	-25.991	-124.674	-79.196	-149.822	35.879	-28.442	-152.246	-145.019	5.573	-25.311	-148.116	-143.989	-140.237	-135.273	-9.516	-140.154	-8191	255	
1894.511	1	1	0	0	0.23186	0.16542	0.25215	0.25312	0.071197	0.30376	0.56862	0.19292	0.17019	0.22966	0.047382	0.032332	0.24371	0.074709	0.01507	0.32419	-1.4271	-2.6083	-1.525	-2.1792	-2.3625	-1.4375	-2.4708	-2.0583	-1.5562	-2.4813	-1.6729	-2.0229	-2.4667	-1.5354	-2.3354	-2.0521	-39.699	136.632	-48.784	161.193	185.966	157.343	152.452	-153.112	6.164	-86.298	-116.691	-41.327	-118.569	146.188	-76.690	146.198	0.00092248	0.00036326	0.00020546	942.11	5.1077e-06	2.0103e-06	1178.5	358.48	1.0842e-05	5.0185e-06	441.4	156.17	131.77	51.136	6.4698e-06	62.765	0.00030283	0.00026131	7.2491e-05	802.99	2.836e-06	2.9616e-06	1004.7	305.18	2.9425e-06	2.9211e-06	375.61	132.91	110.56	43.993	2.9423e-06	53.362	-28.052	-131.420	-98.227	-150.316	-42.454	-23.114	-152.613	-144.877	-24.149	-24.228	-148.258	-143.382	-140.295	-135.060	-29.888	-139.503	-8191	255	
1894.607	1	1	0	0	0.061747	0.11725	0.051462	0.2099	0.27349	0.34681	0.22729	0.11231	0.12434	0.17646	0.21572	0.3342	0.037304	0.16698	0.37554	0.1955	-1.2729	-2.4333	-1.8188	-2.0042	-2.2938	-1.5271	-2.5521	-2.1896	-1.5854	-2.3937	-1.9521	-2.0708	-2.3167	-1.5833	-2.3104	-2.25	0.284	52.959	30.612	166.055	-17.684	71.551	187.336	83.644	-156.672	100.337	183.573	157.119	109.717	-67.447	12.254	108.479	0.00092048	0.00013818	0.00032586	948.43	7.8111e-06	5.1713e-06	1188.6	361.81	8.5438e-06	4.6564e-06	442.89	155.73	131.1	50.997	4.751e-06	61.918	0.00031598	0.00026519	7.5449e-05	803.65	2.9557e-06	2.923e-06	1006.7	307.02	2.9252e-06	2.8203e-06	375.35	132.37	110.16	43.948	2.785e-06	53.059	-32.296	-73.376	-94.194	-150.574	6.124	-64.143	-151.921	-145.058	-50.803	-39.301	-147.795	-143.445	-139.775	-135.396	-41.215	-140.044	-8191	255	
1894.703	1	1	0	0	0.13281	0.25645	0.35332	0.11226	0.046571	0.17491	0.13052	0.10321	0.20755	0.30142	0.08949	0.37066	0.45658	0.66477	0.21219	0.16739	-1.0812	-2.475	-1.8396	-2.0333	-2.5646	-1.6854	-2.2146	-2.4792	-1.5458	-2.3438	-2.1188	-1.6396	-2.625	-1.6063	-2.1479	-2.4437	-125.940	-148.117	71.766	160.566	-89.129	98.109	-135.532	102.740	-148.809	7.096	102.526	144.629	-104.205	143.811	-108.272	119.757	0.00089896	0.00072219	0.00020723	943.19	5.9883e-06	7.3331e-06	1192.7	359.59	5.7834e-06	9.6728e-06	440.9	155.7	131.57	51.154	6.3663e-06	61.307	0.00029488	0.00025587	7.018e-05	803.12	2.7835e-06	2.8089e-06	1009.9	305.9	2.8784e-06	2.8676e-06	373.89	131.76	110.13	43.837	2.7898e-06	52.676	-29.128	-33.442	-96.776	-150.211	-2.546	5.296	-152.182	-144.862	-8.397	-37.108	-148.055	-143.787	-140.074	-135.169	21.992	-139.696	-8191	255	
1894.799	1	1	0	0	0.2166	0.11858	0.10633	0.09906	0.25771	0.11044	0.022702	0.15405	0.091722	0.1055	0.13771	0.093482	0.083668	0.10544	0.28423	0.28067	-1.2958	-2.4458	-2.1125	-1.6417	-2.4854	-1.7042	-2.2	-2.5854	-1.65	-2.2812	-2.0042	-1.6229	-2.6083	-1.8687	-1.7062	-2.4313	-77.382	-68.146	-93.812	-157.782	-33.105	-77.320	-138.381	47.424	20.796	130.091	144.396	180.051	110.058	156.644	30.713	-102.541	0.0010249	0.00072577	0.00030491	948.95	1.0505e-05	5.1368e-06	1191.7	361.68	4.5107e-06	1.213e-05	442.64	155.06	133.34	51.407	3.3234e-06	62.232	0.00028637	0.0002477	6.9561e-05	804.33	2.8397e-06	2.8044e-06	1010.7	306.52	2.7967e-06	2.7202e-06	374.93	131.88	110.68	44.003	2.8206e-06	53.295	-32.910	-90.026	-80.252	-150.315	-7.689	-35.603	-152.406	-145.149	17.890	4.239	-148.303	-143.598	-140.499	-135.236	-5.371	-139.804	-8191	255	
1894.896	1	1	0	0	0.22548	0.16016	0.16945	0.1362	0.013244	0.11923	0.41445	0.1615	0.1431	0.10401	0.05244	0.18499	0.084661	0.15589	0.033848	0.11585	-1.1646	-2.4104	-2.0146	-1.4604	-2.4146	-1.65	-2.0958	-2.8396	-1.5854	-2.1562	-2.2979	-1.5375	-2.4917	-1.9875	-1.7458	-2.4813	170.474	195.408	185.029	100.896	68.273	119.127	117.912	103.072	138.752	-134.301	119.930	152.085	-16.889	156.313	104.527	62.474	0.0010071	0.00065656	0.0002151	954.24	7.5144e-06	6.1533e-06	1201.4	362.63	9.292e-06	9.4678e-06	448.29	156.38	132.48	51.221	2.4324e-06	62.941	0.00029144	0.0002533	6.7644e-05	807.38	2.7189e-06	2.8385e-06	1014.1	308.48	2.7763e-06	2.6914e-06	378.03	132.82	110.65	43.969	2.8082e-06	53.702	-29.722	-63.572	-64.745	-150.219	-19.848	14.396	-152.032	-145.197	-40.797	-50.546	-148.085	-143.736	-139.387	-135.510	-4.163	-139.679	-8191	255	
1894.992	1	1	0	0	0.2495	0.046742	0.016564	0.11406	0.034856	0.092559	0.097837	0.13051	0.25261	0.11317	0.039649	0.2944	0.13456	0.11593	0.21153	0.23102	-1.25	-2.0708	-2.0625	-1.6333	-2.3604	-1.9958	-1.75	-2.5167	-1.5146	-2.1063	-2.3521	-1.4479	-2.5604	-2.1146	-1.8083	-2.6729	-72.667	82.424	78.389	-137.079	-118.589	19.592	133.386	55.795	-34.506	-25.855	113.606	-155.733	-148.303	189.041	-59.016	106.004	0.00080876	0.00045982	0.00018511	954.25	1.0486e-05	8.4419e-06	1208.4	361.79	6.9314e-06	2.8004e-06	444.74	155.75	132.28	51.548	3.1337e-06	62.698	0.00029053	0.00024379	6.8616e-05	809.28	2.7519e-06	2.7184e-06	1020.8	307.41	2.6242e-06	2.6934e-06	377.09	132.35	110.86	44.174	2.7896e-06	53.401	-27.929	-35.362	-126.833	-150.021	11.688	35.858	-152.426	-144.839	-74.932	-61.438	-148.343	-143.650	-140.125	-135.704	-40.062	-139.920	-8191	255	
1895.088	1	1	0	0	0.19433	0.19583	0.088199	0.33637	0.32185	0.10951	0.26828	0.25211	0.35636	0.16599	0.19067	0.29728	0.051524	0.18924	0.048255	0.12579	-1.2292	-1.8771	-2.4354	-1.6187	-2.2583	-1.9417	-1.6688	-2.7271	-1.6854	-2.0583	-2.3312	-1.8146	-2.3458	-2.325	-1.4104	-2.5708	134.421	-145.410	154.658	172.095	-58.107	65.066	157.079	128.719	142.422	-11.704	134.149	120.134	-155.000	98.174	-78.624	170.076	0.00086702	0.00060231	0.00016133	952.18	4.5126e-06	4.364e-06	1188.5	363.58	7.3966e-06	8.7442e-06	444.17	155.5	133.47	51.74	3.5751e-06	62.505	0.00029642	0.00024819	6.8822e-05	806.35	2.6898e-06	2.7978e-06	1008.7	307.68	2.7666e-06	2.6726e-06	375.05	131.95	110.82	44.181	2.6575e-06	53.159	-28.742	-72.499	-82.472	-150.666	6.153	13.780	-152.746	-145.049	-15.657	-20.432	-148.155	-143.640	-139.401	-135.279	-28.961	-140.168	-8191	255	
1895.184	1	1	0	0	0.14256	0.048498	0.26625	0.12951	0.2018	0.109	0.43083	0.26489	0.18838	0.15227	0.31805	0.29694	0.084474	0.17869	0.11583	0.10421	-1.3	-2.0396	-2.3625	-1.5667	-2.1833	-2.1146	-1.6063	-2.3229	-1.7896	-1.7042	-2.5292	-1.65	-2.2042	-2.1917	-1.3375	-2.4771	10.119	68.435	31.614	52.337	-35.621	114.355	108.527	165.305	93.127	0.824	130.397	153.149	-93.745	143.804	-4.596	88.042	0.00087758	0.00098473	0.00015119	949.83	6.1786e-06	6.2674e-06	1202.6	360.29	9.1185e-06	4.3229e-06	443.71	154.74	132.45	51.145	1.1951e-05	62.679	0.00028987	0.00024772	6.471e-05	806.97	2.5784e-06	2.6297e-06	1015.2	307.44	2.7553e-06	2.709e-06	376.72	131.52	110.7	44.086	2.8754e-06	53.347	-37.465	-63.222	-91.126	-150.257	-8.810	-2.665	-152.495	-144.997	-34.808	-31.416	-147.995	-143.698	-140.642	-135.325	-31.499	-139.692	-8191	255	
1895.305	1	1	0	0	0.35409	0.15178	0.03937	0.26202	0.14015	0.013489	0.18731	0.074306	0.12033	0.29141	0.067432	0.23873	0.0084046	0.11977	0.19862	0.18336	-1.4979	-1.5167	-2.4688	-1.7313	-2.0021	-2.2396	-1.6208	-2.3854	-1.7958	-1.6063	-2.3583	-1.8687	-2.1625	-2.4583	-1.4771	-2.5062	100.566	37.496	-13.835	106.012	-53.794	-89.292	182.163	166.549	68.689	120.540	121.913	161.948	-116.069	135.243	-118.771	86.708	0.00098435	0.00070617	0.00020422	952.7	9.7348e-06	7.7165e-06	1194.5	361.09	5.2472e-06	8.0177e-06	447.73	156.98	132.76	51.576	9.5178e-06	63.218	0.00028433	0.00025751	6.9503e-05	807	2.7041e-06	2.6605e-06	1013.2	307.9	2.7951e-06	2.7298e-06	379.11	132.65	110.69	44.179	2.7744e-06	53.736	-31.035	-48.620	-73.007	-150.391	-40.822	-38.458	-152.472	-144.812	34.626	-26.236	-147.897	-143.876	-139.943	-135.552	-34.207	-139.447	-8191	255	
1895.399	1	1	0	0	0.19768	0.19866	0.1243	0.23069	0.14244	0.18576	0.2202	0.21682	0.15239	0.14605	0.3704	0.36001	0.31877	0.41371	0.1456	0.26025	-1.6583	-1.5229	-2.5771	-1.7229	-1.8167	-2.5021	-1.8292	-2.2104	-2.0958	-1.5396	-2.4271	-1.8146	-1.8521	-2.5979	-1.4729	-2.3333	-58.790	162.428	129.056	-144.906	61.462	184.935	67.603	-161.702	27.938	-117.707	151.688	139.829	131.810	168.878	-50.478	-107.989	0.00089588	0.000538	0.00020134	945.78	1.0866e-05	3.4199e-06	1197.6	363.69	6.2146e-06	6.3948e-06	446.96	155.29	132.82	51.156	9.5221e-06	62.102	0.00028653	0.00025269	7.1173e-05	805.99	2.7916e-06	2.8312e-06	1011.3	307.08	2.7964e-06	2.6983e-06	378.37	132.03	110.48	43.813	2.8308e-06	53.088	-26.314	-60.397	-112.813	-150.568	21.773	11.180	-152.606	-144.971	-68.599	-43.325	-148.385	-143.597	-139.686	-135.147	-2.051	-139.726	-8191	255	
1895.497	1	1	0	0	0.23006	0.18944	0.15579	0.35279	0.11438	0.30669	0.23001	0.14988	0.17831	0.063038	0.23638	0.068383	0.12428	0.15746	0.17831	0.12761	-1.8646	-1.6271	-2.3271	-1.9771	-1.6604	-2.575	-1.9146	-2.2458	-2.0187	-1.4333	-2.5563	-2.0708	-1.5854	-2.5125	-1.5208	-2.3375	145.771	104.238	-65.005	81.492	-17.172	-96.180	112.159	66.655	22.788	-142.811	-147.421	-137.738	142.617	149.464	-82.798	-114.693	0.0010248	0.00071002	0.000312	938.67	6.8105e-06	5.7104e-06	1185.1	357.97	6.7808e-06	6.2384e-06	443.58	154.41	130.83	50.945	5.8975e-06	61.827	0.0002803	0.00025325	6.8726e-05	798.42	2.7385e-06	2.7601e-06	1000.7	305.3	2.8019e-06	2.805e-06	375.25	130.87	109.74	43.714	2.7684e-06	52.809	-31.431	-123.880	-79.156	-150.466	-53.385	-21.722	-152.464	-144.983	-7.512	9.304	-148.190	-144.001	-139.641	-135.599	0.774	-139.822	-8191	255	
1895.591	1	1	0	0	0.22355	0.18068	0.20588	0.24669	0.055194	0.12914	0.26568	0.21427	0.13934	0.11664	0.24943	0.23157	0.24955	0.31581	0.10374	0.43384	-1.8917	-1.4083	-2.5292	-2.1937	-1.7167	-2.4125	-1.6979	-2.0167	-2.2646	-1.4667	-2.475	-2.1	-1.6313	-2.5021	-1.5688	-1.8896	71.642	28.942	53.002	-147.194	175.591	37.850	172.870	114.524	89.404	183.998	147.701	172.189	-142.995	-119.132	53.398	161.324	0.0009503	0.0010279	0.00026897	938.93	3.7292e-06	5.8412e-06	1180.3	361.47	1.5202e-05	7.7967e-06	441.7	154.8	131.21	50.991	1.0745e-05	62.279	0.0002921	0.00025597	6.7086e-05	795.66	2.8137e-06	2.641e-06	998.78	307.37	2.7876e-06	2.7899e-06	375.59	131.57	109.93	43.823	2.801e-06	53.256	-31.990	-72.175	-105.497	-150.532	47.635	-13.551	-152.445	-145.030	-44.806	32.003	-147.988	-143.944	-139.955	-135.951	-7.918	-139.823	-8191	255	
1895.688	1	1	0	0	0.071542	0.089297	0.17439	0.028058	0.247	0.21423	0.098222	0.22817	0.15922	0.090269	0.24448	0.21966	0.20454	0.36203	0.11018	0.14382	-2.125	-1.3458	-2.3021	-2.1312	-1.3917	-2.3792	-1.8458	-1.9438	-2.3292	-1.6021	-2.3979	-2.4188	-1.5229	-2.5333	-1.8292	-1.8646	35.144	172.206	95.676	148.154	89.577	-26.771	-55.012	58.262	64.823	138.570	188.375	-146.975	-28.270	162.668	-66.779	65.002	0.00094569	0.00081456	0.00018892	942.41	3.7561e-06	5.6012e-06	1192.4	361.63	6.761e-06	9.1207e-06	448.12	156.22	131.64	51.484	8.9666e-06	62.85	0.00029256	0.00026509	6.9133e-05	802.28	2.8428e-06	2.7614e-06	1005.8	307.8	2.8685e-06	2.7993e-06	378.33	132.07	109.99	44.148	2.9004e-06	53.501	-28.652	-72.052	-61.398	-150.468	-23.390	-30.722	-152.779	-144.881	-42.228	-26.281	-148.055	-143.938	-140.125	-135.482	-36.257	-139.797	-8191	255	
1895.784	1	1	0	0	0.14966	0.34176	0.065134	0.24377	0.10148	0.21718	0.40596	0.12619	0.14097	0.092377	0.22841	0.20432	0.10557	0.1737	0.19061	0.07038	-2.1562	-1.5604	-2.1	-2.2146	-1.425	-2.3229	-1.9667	-1.7667	-2.5396	-1.6021	-2.3146	-2.4958	-1.4958	-2.3208	-2.075	-1.7	-26.827	108.645	-27.801	191.152	161.598	77.802	88.430	100.591	26.518	136.489	-134.549	-23.364	-122.470	-58.975	89.745	-25.354	0.00095232	0.00021241	0.00016937	938.75	2.9817e-06	8.1267e-06	1180.4	359.23	6.5478e-06	5.5106e-06	441.67	154.35	131.31	50.898	1.4839e-06	62.578	0.00030308	0.00025551	6.9702e-05	798.64	2.8512e-06	2.7438e-06	1003	305.92	2.8416e-06	2.8683e-06	376.63	131.21	109.63	43.93	2.9286e-06	53.213	-25.454	-16.599	-138.315	-150.461	-94.702	5.523	-152.671	-145.089	-31.290	23.371	-147.967	-144.027	-139.961	-134.895	96.421	-139.826	-8191	255	
1895.904	1	1	0	0	0.049951	0.26566	0.074158	0.2461	0.11902	0.082259	0.073719	0.22802	0.27435	0.09711	0.12011	0.072604	0.22494	0.077015	0.12552	0.31306	-2.125	-1.7396	-1.8083	-2.2479	-1.5229	-2.2313	-2.1875	-1.6271	-2.4417	-1.4583	-1.9125	-2.5375	-1.6458	-2.1729	-2.1063	-1.6313	57.280	-111.514	109.611	105.928	15.176	28.372	28.540	115.431	23.494	44.466	137.455	114.306	-73.323	-155.689	148.855	114.381	0.0007154	0.00014387	0.00013641	921.83	3.8975e-06	7.3536e-06	1165.4	359.89	7.3275e-06	2.0557e-06	444.65	153.35	131.87	51.45	2.7766e-06	62.464	0.00030373	0.00026401	7.1706e-05	787.1	2.994e-06	2.8949e-06	987.78	306.1	3.019e-06	2.8647e-06	375.23	130.72	109.59	44.187	3.1506e-06	53.412	-28.064	-139.418	-101.992	-149.981	45.038	-60.765	-152.418	-144.848	-20.746	-106.202	-147.687	-143.759	-139.373	-135.027	-2.273	-139.860	-8191	255	
1896.000	1	1	0	0	0.18042	0.11514	0.24824	0.19763	0.052212	0.17458	0.26617	0.13431	0.14555	0.064296	0.26032	0.1798	0.2464	0.15627	0.2856	0.18968	-2.0812	-1.7917	-1.7292	-2.3292	-1.4229	-2.3583	-2.3396	-1.5688	-2.3063	-1.9354	-1.7979	-2.4625	-1.5146	-2.2687	-2.0979	-1.6625	88.412	-139.254	-117.530	65.075	1.685	-126.282	138.247	172.297	-71.050	87.473	158.485	147.951	-85.847	-116.913	-137.406	161.435	0.00088825	0.000958	0.00017144	913.45	4.8643e-06	4.1213e-06	1151.9	358.14	1.129e-05	1.1376e-05	443.72	154.54	130.86	51.556	8.0867e-06	62.797	0.00030871	0.00028124	7.842e-05	778.62	3.0642e-06	3.0672e-06	980.01	304.74	3.2082e-06	3.0193e-06	376.68	131.21	109.51	44.266	3.1253e-06	53.696	-30.622	-56.548	-86.639	-150.327	-91.825	15.314	-152.958	-144.740	-10.704	-40.962	-147.786	-143.633	-140.202	-134.730	0.025	-139.688	-8191	255	
1896.097	1	1	0	0	0.17789	0.16975	0.06138	0.20778	0.31422	0.31867	0.30172	0.40296	0.35981	0.18494	0.093912	0.20962	0.26323	0.13157	0.15924	0.10361	-2.075	-1.8021	-1.6396	-2.6083	-1.5854	-1.9458	-2.6167	-1.425	-2.2188	-1.9604	-1.7021	-2.4479	-1.6333	-2.0604	-2.3688	-1.5854	-118.994	28.640	-2.260	148.994	31.852	66.379	151.678	85.589	111.379	67.768	73.142	-88.504	-37.676	110.171	79.020	-93.246	0.00097419	0.00049958	8.2683e-05	918.31	9.3472e-06	8.4463e-06	1159.1	360.53	1.5008e-05	9.7927e-06	445.08	155.56	129.8	52.087	1.6176e-06	64.007	0.00031429	0.0002767	7.7073e-05	781.32	3.1322e-06	3.1538e-06	981.16	307.26	3.107e-06	3.091e-06	378.41	132.22	109.94	44.669	3.1395e-06	54.42	-27.893	-116.620	-120.617	-150.098	-16.090	12.848	-152.414	-145.151	-25.729	-67.646	-148.039	-143.848	-140.497	-135.183	125.806	-139.701	-8191	255	
1896.193	1	1	0	0	0.0080098	0.31278	0.123	0.40141	0.37804	0.32104	0.27875	0.69633	0.39116	0.2055	0.25454	0.037394	0.091812	0.062943	0.082332	0.25824	-2.0521	-2.0479	-1.4479	-2.5875	-1.8125	-1.8729	-2.5917	-1.4396	-2.2833	-2.05	-1.4708	-2.4938	-1.9479	-1.6812	-2.5625	-1.4167	-129.278	-87.392	41.367	118.279	142.787	58.919	18.423	127.594	31.894	93.238	-94.035	-134.590	0.111	66.456	-99.580	64.327	0.00094791	0.00049056	0.00011613	927.41	4.0051e-06	7.7337e-06	1169	358.41	1.1502e-05	6.7911e-06	444.87	154.94	129.18	51.57	6.7597e-06	62.735	0.00033145	0.00028629	7.9233e-05	786.72	3.1764e-06	3.2655e-06	987.98	305.89	3.3292e-06	3.2294e-06	377.58	131.56	109.04	44.325	3.3892e-06	53.669	-31.155	-73.829	-71.969	-150.050	-23.648	21.057	-152.436	-145.075	-54.536	19.619	-148.079	-143.418	-139.607	-135.041	-31.018	-140.018	-8191	255	
1896.289	1	1	0	0	0.039302	0.23318	0.30211	0.24245	0.021442	0.2339	0.20191	0.2257	0.28593	0.24988	0.26298	0.13757	0.097397	0.32889	0.16768	0.050152	-1.9792	-2.2729	-1.4521	-2.5792	-1.9667	-1.8542	-2.5146	-1.6063	-2.1542	-2.2333	-1.7146	-2.3	-1.9854	-1.9333	-2.4521	-1.775	-12.372	77.542	-28.406	119.527	-141.052	109.285	191.883	178.629	2.693	-7.157	121.045	-151.610	-69.796	140.500	-87.017	-3.149	0.00085025	0.00029727	0.00019435	907.21	5.5477e-06	3.8869e-06	1139.4	353.52	5.4447e-06	6.2007e-06	438.94	151.38	128.76	50.9	4.8081e-06	62.035	0.00035692	0.00031442	8.7508e-05	771.65	3.5367e-06	3.5549e-06	968.29	301.22	3.4952e-06	3.4568e-06	373.57	129.5	108.4	43.887	3.5506e-06	53.213	-27.485	-65.684	-65.580	-149.852	-13.147	7.907	-152.276	-145.074	66.820	5.770	-148.061	-143.734	-139.359	-135.080	12.400	-140.083	-8191	255	
1896.385	1	1	0	0	0.13901	0.10918	0.15176	0.20786	0.34146	0.23808	0.38484	0.23788	0.31906	0.23246	0.24655	0.19652	0.028983	0.12448	0.097846	0.061338	-1.6167	-2.2062	-1.4354	-2.4958	-1.9833	-1.6	-2.6688	-1.8729	-2.125	-2.5125	-1.5042	-2.2083	-2.1229	-1.6063	-2.4042	-2.0229	-94.811	60.745	23.624	-137.507	118.622	123.541	92.695	181.344	-113.660	-84.747	158.799	144.056	63.129	157.061	-129.786	129.620	0.0010039	0.00067244	0.00013376	903.67	4.2953e-06	7.9319e-07	1140.7	355.85	9.0498e-06	1.0954e-05	437.84	152.8	128.47	51.492	7.8859e-06	62.717	0.00036874	0.00032464	9.1986e-05	767.12	3.4425e-06	3.5808e-06	965.14	302.04	3.6141e-06	3.5129e-06	373.64	130.02	108.52	44.297	3.4813e-06	53.575	-34.224	-105.284	-70.033	-150.022	74.296	133.570	-152.415	-145.067	-64.454	78.775	-147.956	-143.592	-140.256	-135.015	-46.289	-139.646	-8191	255	
#DATA ENDS
