BOXY.EXE: ISS Imagent and Oximeter Data Acquisition Program Version 0.80
Ascii Record File

#ACQ INFORMATION
2  Detector Channels 
16  External MUX Channels 
1  Auxiliary Channels 
5000  Waveform (CCF) Frequency (Hz)
1  Waveforms Skipped 
30  Waveforms Averaged 
1  Cycles Averaged 
16  Acquisitions per Waveform 
10.0806  Updata Rate (Hz) 

#FILE INFORMATION
TRUE -- External MUX Channel results are PARSED.
FALSE -- AC DC and Phase are NOT grouped.
TRUE -- Companion Program Settings File CREATED.
FALSE -- AC data not excluded
FALSE -- DC data not excluded
FALSE -- Phase data not excluded
FALSE -- Auxillary Chn. data not excluded
Tab delimiters

#CALIBRATION STATE
TRUE -- Waveform Calibration Values APPLIED.


#AUX CALIBRATION VALUES
Val Type	aux-1	

Term	1.0000e+00	
Factor	0.0000e+00	


#WF CALIBRATION VALUES
A = Detector Channel
Val Type	A-AC1	A-AC2	A-AC3	A-AC4	A-AC5	A-AC6	A-AC7	A-AC8	A-AC9	A-AC10	A-AC11	A-AC12	A-AC13	A-AC14	A-AC15	A-AC16	A-DC1	A-DC2	A-DC3	A-DC4	A-DC5	A-DC6	A-DC7	A-DC8	A-DC9	A-DC10	A-DC11	A-DC12	A-DC13	A-DC14	A-DC15	A-DC16	A-Ph1	A-Ph2	A-Ph3	A-Ph4	A-Ph5	A-Ph6	A-Ph7	A-Ph8	A-Ph9	A-Ph10	A-Ph11	A-Ph12	A-Ph13	A-Ph14	A-Ph15	A-Ph16	

Term	0.00000e+00	0.00000e+00	0.00000e+00	0.00000e+00	0.00000e+00	0.00000e+00	0.00000e+00	0.00000e+00	0.00000e+00	0.00000e+00	0.00000e+00	0.00000e+00	0.00000e+00	0.00000e+00	0.00000e+00	0.00000e+00	0.00000e+00	0.00000e+00	0.00000e+00	0.00000e+00	0.00000e+00	0.00000e+00	0.00000e+00	0.00000e+00	0.00000e+00	0.00000e+00	0.00000e+00	0.00000e+00	0.00000e+00	0.00000e+00	0.00000e+00	0.00000e+00	0.00000e+00	0.00000e+00	0.00000e+00	0.00000e+00	0.00000e+00	0.00000e+00	0.00000e+00	0.00000e+00	0.00000e+00	0.00000e+00	0.00000e+00	0.00000e+00	0.00000e+00	0.00000e+00	0.00000e+00	0.00000e+00	
Factor	1.00000e+00	1.00000e+00	1.00000e+00	1.00000e+00	1.00000e+00	1.00000e+00	1.00000e+00	1.00000e+00	1.00000e+00	1.00000e+00	1.00000e+00	1.00000e+00	1.00000e+00	1.00000e+00	1.00000e+00	1.00000e+00	1.00000e+00	1.00000e+00	1.00000e+00	1.00000e+00	1.00000e+00	1.00000e+00	1.00000e+00	1.00000e+00	1.00000e+00	1.00000e+00	1.00000e+00	1.00000e+00	1.00000e+00	1.00000e+00	1.00000e+00	1.00000e+00	X	X	X	X	X	X	X	X	X	X	X	X	X	X	X	X	

B = Detector Channel
Val Type	B-AC1	B-AC2	B-AC3	B-AC4	B-AC5	B-AC6	B-AC7	B-AC8	B-AC9	B-AC10	B-AC11	B-AC12	B-AC13	B-AC14	B-AC15	B-AC16	B-DC1	B-DC2	B-DC3	B-DC4	B-DC5	B-DC6	B-DC7	B-DC8	B-DC9	B-DC10	B-DC11	B-DC12	B-DC13	B-DC14	B-DC15	B-DC16	B-Ph1	B-Ph2	B-Ph3	B-Ph4	B-Ph5	B-Ph6	B-Ph7	B-Ph8	B-Ph9	B-Ph10	B-Ph11	B-Ph12	B-Ph13	B-Ph14	B-Ph15	B-Ph16	

Term	0.00000e+00	0.00000e+00	0.00000e+00	0.00000e+00	0.00000e+00	0.00000e+00	0.00000e+00	0.00000e+00	0.00000e+00	0.00000e+00	0.00000e+00	0.00000e+00	0.00000e+00	0.00000e+00	0.00000e+00	0.00000e+00	0.00000e+00	0.00000e+00	0.00000e+00	0.00000e+00	0.00000e+00	0.00000e+00	0.00000e+00	0.00000e+00	0.00000e+00	0.00000e+00	0.00000e+00	0.00000e+00	0.00000e+00	0.00000e+00	0.00000e+00	0.00000e+00	-1.27282e+02	-1.30498e+02	-1.26606e+02	-1.82720e+02	-7.04405e+01	-6.88341e+01	-1.60843e+02	-1.62015e+02	-7.31909e+01	-6.92541e+01	-1.72572e+02	-1.72955e+02	-1.82795e+02	-1.78089e+02	-7.17232e+01	-1.50939e+02	
Factor	1.93131e-05	1.69621e-04	4.86892e-05	1.65898e-01	1.33105e-06	1.92021e-06	1.95781e-01	6.11879e-02	1.30919e-06	1.87107e-06	9.62612e-02	3.22527e-02	2.98245e-02	9.98308e-03	1.50668e-06	1.45378e-02	1.28716e-05	2.34187e-05	6.58817e-06	8.38859e-02	2.30464e-07	2.64030e-07	9.33801e-02	3.11235e-02	2.35691e-07	2.61591e-07	4.74826e-02	1.59974e-02	1.53938e-02	5.11434e-03	2.44169e-07	7.23425e-03	X	X	X	X	X	X	X	X	X	X	X	X	X	X	X	X	



#DISTANCE SETTINGS
A = Detector Channel
A-1	A-2	A-3	A-4	A-5	A-6	A-7	A-8	A-9	A-10	A-11	A-12	A-13	A-14	A-15	A-16	

2.5000e+00	3.0000e+00	2.5000e+00	3.0000e+00	2.0000e+00	3.0000e+00	1.5000e+00	3.0000e+00	3.0000e+00	3.0000e+00	3.0000e+00	3.0000e+00	3.0000e+00	3.0000e+00	1.5000e+00	3.0000e+00	

B = Detector Channel
B-1	B-2	B-3	B-4	B-5	B-6	B-7	B-8	B-9	B-10	B-11	B-12	B-13	B-14	B-15	B-16	

1.0000e+01	1.0000e+01	1.0000e+01	1.4400e+00	1.0000e+01	1.0000e+01	1.5100e+00	1.9400e+00	1.0000e+01	1.0000e+01	1.9900e+00	2.4900e+00	2.4100e+00	2.9000e+00	1.0000e+01	2.9800e+00	




#DATA BEGINS
time	group	step	mark	flag	A-AC1	A-AC2	A-AC3	A-AC4	A-AC5	A-AC6	A-AC7	A-AC8	A-AC9	A-AC10	A-AC11	A-AC12	A-AC13	A-AC14	A-AC15	A-AC16	A-DC1	A-DC2	A-DC3	A-DC4	A-DC5	A-DC6	A-DC7	A-DC8	A-DC9	A-DC10	A-DC11	A-DC12	A-DC13	A-DC14	A-DC15	A-DC16	A-Ph1	A-Ph2	A-Ph3	A-Ph4	A-Ph5	A-Ph6	A-Ph7	A-Ph8	A-Ph9	A-Ph10	A-Ph11	A-Ph12	A-Ph13	A-Ph14	A-Ph15	A-Ph16	B-AC1	B-AC2	B-AC3	B-AC4	B-AC5	B-AC6	B-AC7	B-AC8	B-AC9	B-AC10	B-AC11	B-AC12	B-AC13	B-AC14	B-AC15	B-AC16	B-DC1	B-DC2	B-DC3	B-DC4	B-DC5	B-DC6	B-DC7	B-DC8	B-DC9	B-DC10	B-DC11	B-DC12	B-DC13	B-DC14	B-DC15	B-DC16	B-Ph1	B-Ph2	B-Ph3	B-Ph4	B-Ph5	B-Ph6	B-Ph7	B-Ph8	B-Ph9	B-Ph10	B-Ph11	B-Ph12	B-Ph13	B-Ph14	B-Ph15	B-Ph16	aux-1	digaux	

14735.728	1	1	0	256	0.10262	0.11879	0.17905	0.19979	0.09141	0.19127	0.31909	0.26115	0.11208	0.19217	0.12122	0.11792	0.14682	0.1457	0.22471	0.21648	-2.1979	-2.8979	-2.7458	-2.8625	-3.2167	-2.6729	-3.1521	-3.2042	-2.6688	-3.1083	-2.9292	-2.8937	-3.1333	-2.6562	-2.7729	-3.0208	497.473	381.890	189.883	185.265	313.784	202.991	481.465	511.502	406.917	416.573	314.714	388.490	402.920	252.695	367.272	234.911	0.0002487	0.00046556	0.00015124	1099.9	2.7501e-06	3.7119e-06	1183.3	232.25	3.4057e-06	2.6397e-06	292.76	81.148	63.665	18.963	1.9218e-06	26.43	0.00084993	0.0012938	0.00037796	1083.9	1.3167e-05	1.4696e-05	1171.4	232.02	1.3585e-05	1.4571e-05	293.49	82.462	64.52	19.372	1.3341e-05	27.133	203.473	244.813	281.951	189.932	281.300	349.147	189.777	197.156	289.438	342.544	197.277	203.267	203.691	211.657	308.350	210.745	-8191	255	
14735.824	1	1	0	0	0.52458	0.22822	0.17426	0.39408	0.40845	0.14863	0.10654	0.20395	0.13783	0.075221	0.14418	0.18318	0.14587	0.28267	0.31769	0.11059	-2.1937	-3.0292	-2.8792	-2.8792	-3.0604	-2.5229	-3.0333	-3.0604	-2.7438	-3.0979	-2.9021	-2.6104	-3.1396	-2.7	-3.0479	-3.0563	247.137	479.627	374.047	501.526	287.050	468.227	461.452	496.261	442.305	513.817	180.854	510.076	348.811	485.345	380.828	325.388	0.00026249	0.00033385	8.9631e-05	1089.5	1.53e-06	4.9296e-06	1171.3	230.52	1.0617e-06	2.8698e-06	290.85	80.593	63.076	18.856	1.7788e-06	26.482	0.00079855	0.0012698	0.00034665	1075.2	1.1711e-05	1.3281e-05	1163	228.67	1.1524e-05	1.2539e-05	290.85	81.889	64.018	19.218	1.1898e-05	27.11	201.415	215.176	328.314	189.997	275.792	296.762	189.880	197.123	366.613	278.602	196.960	203.742	203.850	211.161	368.790	210.776	-8191	255	
14735.920	1	1	0	0	0.23985	0.21465	0.12243	0.2409	0.18549	0.10611	0.4704	0.02728	0.21451	0.035634	0.17633	0.12131	0.090977	0.050441	0.20189	0.081193	-2.1125	-2.7646	-2.925	-2.7771	-3.0417	-2.7583	-3.0583	-2.9167	-2.6688	-2.7854	-2.9688	-2.6375	-3.2375	-2.7417	-2.6437	-2.9646	366.701	390.718	341.675	478.830	423.112	469.974	506.518	184.287	321.015	416.990	218.700	533.833	393.989	354.259	182.551	257.044	0.0002356	0.00031196	8.052e-05	1086.4	3.5738e-06	2.9712e-06	1171.3	229.75	3.167e-06	9.8708e-08	290.25	80.354	63.346	18.794	2.8002e-06	26.343	0.00071818	0.0011096	0.00030454	1073.5	1.0971e-05	1.2017e-05	1162.4	228.45	1.0524e-05	1.114e-05	289.97	81.643	64.01	19.223	1.0154e-05	27.02	203.282	250.018	275.344	190.014	337.712	294.863	190.072	197.089	289.485	515.245	197.411	203.120	203.407	211.500	318.293	210.545	-8191	255	
14736.016	1	1	0	0	0.37152	0.12702	0.21662	0.24819	0.098352	0.064281	0.29028	0.19056	0.15984	0.10617	0.17397	0.33672	0.19165	0.22161	0.13221	0.21445	-2.2083	-2.9583	-2.9083	-2.6396	-2.7167	-2.7938	-2.9354	-2.775	-2.7125	-2.7438	-3.0917	-2.5854	-3.0042	-2.8208	-2.5854	-3.2521	363.885	445.840	509.262	451.068	182.248	408.645	511.346	505.521	335.605	515.133	253.878	424.417	291.207	414.582	315.094	219.525	0.00026349	0.00017727	3.2565e-05	1085.6	5.1789e-06	5.6651e-06	1169.3	229.27	2.1867e-06	3.2095e-06	291.02	80.506	63.141	18.929	3.9944e-06	26.352	0.00062695	0.00091338	0.00025498	1070.4	9.026e-06	1.0001e-05	1159	227.9	8.8605e-06	9.6903e-06	289.43	81.44	63.751	19.19	9.2667e-06	26.943	201.715	267.630	270.131	190.022	290.017	338.231	189.992	197.369	287.358	340.003	196.937	203.319	203.950	211.491	344.618	210.549	-8191	255	
14736.113	1	1	0	0	0.20255	0.12454	0.19316	0.21853	0.16242	0.21812	0.096159	0.23704	0.024417	0.14124	0.15431	0.26779	0.16638	0.11513	0.0686	0.031176	-2.1917	-2.7562	-3.0854	-2.7313	-2.8729	-2.8563	-2.65	-3.1333	-2.6312	-2.775	-3.0396	-2.6437	-3.0917	-2.8354	-2.9917	-3.0146	355.291	343.092	339.292	489.047	502.084	377.778	255.657	525.754	216.030	486.467	313.874	420.238	435.723	483.050	182.830	375.976	0.00024649	0.00049505	9.3802e-05	1078	2.2851e-06	4.6578e-06	1162.8	226.79	2.3868e-06	3.1581e-06	288.79	80.177	62.823	18.921	2.5361e-06	26.474	0.00060789	0.00085439	0.00024614	1064.3	9.04e-06	1.0221e-05	1152.9	226.77	9.3226e-06	1.0142e-05	288.63	81.379	63.776	19.165	9.4046e-06	26.959	200.912	279.306	282.051	189.901	355.635	315.620	189.699	197.146	271.017	327.788	196.927	203.288	203.683	211.749	326.188	211.102	-8191	255	
14736.209	1	1	0	0	0.063106	0.1277	0.1259	0.18198	0.22035	0.16677	0.10487	0.22515	0.096367	0.069943	0.080695	0.091501	0.16576	0.21629	0.090638	0.13065	-2.425	-2.6646	-2.9583	-2.65	-2.8438	-2.8688	-2.5146	-3.0938	-2.775	-2.9354	-3.1167	-2.6229	-2.7417	-2.8646	-2.4	-3.1229	384.214	295.683	180.313	478.645	391.552	345.683	476.465	449.528	206.077	298.294	218.984	382.772	480.381	441.164	222.358	224.348	0.00022414	0.0003331	7.1603e-05	1082.2	2.9123e-06	2.4682e-06	1166.2	228.12	3.9915e-06	2.7704e-06	289.11	80.183	63.403	18.921	3.2503e-06	26.435	0.00061035	0.00089152	0.00024249	1065.6	9.1725e-06	9.2801e-06	1154.3	227.78	8.9386e-06	9.1748e-06	288.44	81.533	63.9	19.242	8.7509e-06	26.987	197.453	279.485	278.607	190.057	292.328	304.232	189.836	197.597	309.649	314.419	197.190	203.434	203.604	211.383	316.504	210.602	-8191	255	
14736.305	1	1	0	0	0.092686	0.11031	0.065267	0.27114	0.0032138	0.18694	0.33814	0.21743	0.13256	0.29881	0.22244	0.15395	0.079682	0.2151	0.28153	0.14423	-2.2188	-2.7875	-3.0875	-2.8958	-2.8771	-2.8292	-2.8438	-3.0292	-2.6937	-2.4208	-3.1292	-2.6646	-2.8417	-3.2562	-2.7771	-3.1417	234.146	450.964	259.075	504.863	345.070	384.252	506.567	435.590	309.612	331.158	338.877	235.396	336.550	517.226	321.274	518.301	0.00022402	0.0002199	0.00015518	1081.4	3.396e-06	3.0817e-06	1167.3	228.97	1.506e-06	4.7511e-06	289.47	81.254	63.439	18.863	4.199e-06	26.329	0.00057512	0.00079785	0.00023019	1066.2	8.5771e-06	8.9919e-06	1156	228.21	8.7167e-06	9.0821e-06	289.36	81.771	63.825	19.152	9.371e-06	26.925	205.144	286.264	293.184	190.109	305.879	336.534	189.667	197.325	293.361	286.406	196.852	203.220	204.018	211.646	320.446	210.771	-8191	255	
14736.399	1	1	0	0	0.2249	0.15979	0.23714	0.18816	0.17208	0.11045	0.28636	0.1669	0.082627	0.10981	0.24378	0.20225	0.35924	0.18342	0.11535	0.31755	-2.6354	-2.6333	-3.1083	-2.8542	-2.8708	-3.1208	-2.7604	-2.9021	-3.1333	-2.6417	-3.2479	-2.8	-2.7521	-3.0438	-2.6479	-2.6875	181.637	526.037	231.434	238.711	335.359	533.776	516.142	462.659	314.154	385.878	421.969	231.283	474.450	206.517	480.637	537.518	0.00019613	0.00045352	8.1931e-05	1079.4	2.1106e-06	2.2215e-06	1166.2	229.02	4.3417e-06	2.5455e-06	290.44	80.386	63.271	18.902	3.2334e-06	26.445	0.00059595	0.00088855	0.0002485	1065	9.6104e-06	1.0496e-05	1155.2	228.5	9.6049e-06	1.0461e-05	290.4	81.576	64.043	19.319	1.0275e-05	27.045	196.321	270.257	266.450	190.058	314.658	393.804	190.053	197.351	302.228	294.125	196.902	203.447	203.850	212.058	323.979	210.737	-8191	255	
14736.497	1	1	0	0	0.039505	0.33754	0.30326	0.31484	0.092869	0.17465	0.17283	0.10096	0.1614	0.099441	0.19523	0.30667	0.19674	0.20442	0.28919	0.25584	-2.5167	-2.4542	-3.0417	-2.8333	-2.7229	-2.8396	-2.8792	-2.6458	-2.9896	-2.5958	-2.9479	-3.0687	-2.6917	-2.9792	-2.6625	-3.0958	464.104	221.063	440.977	419.677	487.954	501.171	448.965	469.433	469.137	328.139	387.248	509.073	203.709	491.321	454.424	291.715	0.0002244	0.00016292	0.00012525	1081	3.0351e-06	1.3933e-06	1171.1	229.69	3.4386e-06	9.4797e-07	289.74	80.738	63.6	18.916	2.6748e-06	26.503	0.00067109	0.0010399	0.00029558	1068.8	1.1449e-05	1.2449e-05	1160.7	229.31	1.1974e-05	1.3141e-05	291.04	82.25	64.355	19.358	1.2043e-05	27.177	202.491	306.760	290.354	190.036	309.226	395.692	189.857	196.903	280.223	257.834	197.271	202.956	203.329	210.918	332.004	210.365	-8191	255	
14736.616	1	1	0	0	0.26453	0.15656	0.36955	0.22915	0.13927	0.044889	0.16921	0.32235	0.093941	0.16855	0.2163	0.21223	0.10079	0.027531	0.14711	0.16422	-2.65	-2.6125	-2.8021	-2.9042	-2.5854	-3.0312	-2.925	-2.8688	-3.1625	-2.5438	-3.0208	-2.9104	-2.6729	-3.1	-2.7396	-2.6854	239.854	421.649	339.450	462.198	458.902	500.576	472.165	217.048	432.050	330.541	445.929	448.541	417.548	198.324	376.554	402.682	0.00022119	0.00026309	0.00010587	1082	2.9655e-06	2.6209e-06	1163.2	230.5	4.6045e-06	4.8317e-06	291.81	81.664	63.397	18.971	5.6779e-06	26.559	0.00073336	0.001161	0.00032113	1069.7	1.11e-05	1.2362e-05	1159	229.37	1.1096e-05	1.1742e-05	291.25	82.287	64.401	19.336	1.1024e-05	27.169	201.357	263.873	275.821	190.030	307.720	365.622	189.843	197.168	309.587	303.324	196.769	203.467	203.801	211.360	330.464	211.185	-8191	255	
14736.712	1	1	0	0	0.17703	0.018758	0.28009	0.12427	0.21917	0.075138	0.10257	0.12789	0.12342	0.20873	0.044972	0.039775	0.2371	0.05784	0.15256	0.11598	-2.6375	-2.6646	-2.8167	-3.1625	-2.5021	-3.1479	-3.0125	-2.6813	-3.1896	-2.5875	-2.9292	-3.1625	-2.6813	-3.2271	-2.7833	-3.0187	274.181	288.432	376.755	528.472	399.336	287.181	477.731	426.606	376.923	501.094	364.210	386.389	258.633	288.240	283.517	205.043	0.00022622	0.00034429	7.452e-05	1083.6	3.3814e-06	1.3705e-06	1169.4	229.07	4.9437e-06	5.4352e-06	290.86	81.034	63.825	18.98	1.6026e-06	26.314	0.00066922	0.0010096	0.00028553	1069.8	1.011e-05	1.1028e-05	1158.4	229.1	9.7797e-06	1.0459e-05	290.76	82.043	64.198	19.216	9.6828e-06	26.979	202.456	269.174	252.639	190.282	280.609	379.030	190.002	197.117	268.905	351.489	197.374	203.177	203.944	211.358	365.335	210.744	-8191	255	
14736.808	1	1	0	0	0.043839	0.064007	0.39318	0.31519	0.33369	0.11207	0.10955	0.28142	0.13178	0.19604	0.13002	0.075736	0.12739	0.31371	0.21862	0.0074437	-2.5375	-2.6188	-2.625	-3.0812	-2.6667	-3.0583	-3.1312	-2.6979	-3.0354	-2.8208	-2.8	-3.0542	-2.5396	-2.9021	-2.7771	-2.6125	464.502	350.438	408.912	203.074	231.758	376.457	206.910	433.000	505.979	299.268	327.905	527.401	503.680	219.181	324.234	290.183	0.0002212	0.00020996	8.6564e-05	1077	2.7025e-06	4.0606e-06	1161.1	229.92	2.5419e-06	5.0057e-06	290.1	80.596	63.098	18.718	2.2942e-06	26.409	0.00061899	0.00092182	0.00025887	1065.3	9.5671e-06	1.0379e-05	1153.4	228.81	9.3584e-06	9.8832e-06	290.19	81.73	63.918	19.155	9.1543e-06	26.989	201.464	270.363	281.776	190.007	290.857	330.649	189.893	196.958	300.841	353.936	197.072	203.425	203.812	211.991	322.486	210.872	-8191	255	
14736.905	1	1	0	0	0.073186	0.15433	0.22816	0.2242	0.14014	0.052261	0.25289	0.34351	0.049273	0.062556	0.15	0.11966	0.10379	0.23848	0.17419	0.055284	-2.6	-2.8167	-2.8063	-3.0229	-2.6833	-2.9938	-3.1083	-2.7333	-3.0938	-2.8354	-2.7229	-3.1063	-2.7	-2.9188	-2.9292	-2.6312	236.545	392.245	259.631	514.058	376.382	317.261	421.268	449.504	320.250	395.424	455.257	248.129	516.223	525.185	481.930	470.098	0.00024231	0.00041235	8.2925e-05	1078.2	2.3609e-06	4.0049e-06	1162.8	227.91	3.6713e-06	3.098e-06	290.48	80.498	63.123	18.733	3.8093e-06	26.266	0.0006033	0.00087425	0.00025319	1064.8	9.2589e-06	1.0139e-05	1152.3	228.21	9.2553e-06	9.6456e-06	289.59	81.595	63.677	19.146	9.4086e-06	26.892	204.383	287.890	280.638	189.941	272.890	310.637	189.993	197.332	305.359	307.520	197.021	203.337	203.889	211.627	360.609	210.948	-8191	255	
14737.001	1	1	0	0	0.25497	0.14644	0.23811	0.067857	0.23752	0.097645	0.25799	0.22798	0.36374	0.037219	0.3728	0.17778	0.023056	0.41049	0.18651	0.059713	-2.6271	-2.6229	-2.7313	-3.2083	-2.625	-2.8479	-3.0687	-2.6063	-2.9708	-2.7958	-2.6708	-3.1937	-2.9458	-2.8812	-3.0104	-2.8187	221.863	444.047	440.883	407.482	197.166	517.655	476.496	498.834	522.292	257.245	185.699	524.027	301.317	501.135	429.460	417.038	0.00022575	7.556e-05	8.8881e-05	1077.2	3.15e-06	4.4021e-06	1166	228.43	3.5852e-06	2.3856e-06	288.89	80.579	63.829	18.895	1.0602e-06	26.313	0.00061633	0.00090245	0.00025915	1063.1	9.341e-06	1.0413e-05	1153.6	227.68	9.6771e-06	1.0065e-05	289.78	81.655	64.119	19.208	9.5821e-06	27.003	203.810	223.686	280.507	190.185	308.324	346.799	189.981	197.192	303.901	325.061	196.816	203.173	203.718	211.440	323.218	211.041	-8191	255	
14737.097	1	1	0	0	0.063984	0.099878	0.032382	0.35871	0.10301	0.23842	0.21577	0.12587	0.13595	0.15855	0.13361	0.33998	0.28935	0.135	0.11621	0.11555	-2.5812	-2.8125	-2.575	-3.3458	-2.7521	-2.7583	-3.0229	-2.675	-2.8583	-2.9542	-2.7271	-3.0417	-2.7812	-2.7854	-2.9917	-2.5812	524.449	466.885	478.258	488.604	201.790	253.945	439.452	437.661	433.878	454.628	205.425	195.244	482.617	248.575	354.728	361.476	0.00021757	0.00021278	5.9908e-05	1081.7	1.2278e-06	2.203e-06	1164.1	229.29	4.0335e-06	9.661e-07	289.31	80.936	63.313	18.971	3.4714e-06	26.516	0.00064162	0.00089982	0.00025087	1067.1	9.7568e-06	1.0537e-05	1156.6	228.35	9.8573e-06	1.0007e-05	289.81	81.843	63.975	19.258	9.7561e-06	27.002	205.794	294.551	286.451	190.267	332.903	302.032	189.774	197.100	284.535	377.519	197.282	203.536	203.735	211.451	287.076	210.662	-8191	255	
14737.217	1	1	0	0	0.33387	0.23739	0.22815	0.17457	0.15049	0.031283	0.12794	0.12102	0.014011	0.17215	0.2289	0.32315	0.29147	0.061112	0.25541	0.06003	-2.5771	-3.0375	-2.6271	-3.2083	-2.7833	-2.5667	-3.2292	-2.7104	-2.8708	-3.1542	-2.7458	-3.0458	-2.8958	-2.6771	-2.9208	-2.7833	241.169	240.350	367.831	207.356	486.030	279.600	501.080	235.952	215.891	285.218	498.540	467.762	199.393	450.776	238.210	197.557	0.00022699	0.00019632	9.3534e-05	1083.1	3.2328e-06	2.3971e-06	1164.8	229.57	2.3772e-06	1.7241e-06	290	81.181	63.701	19.005	2.7292e-06	26.453	0.00063848	0.00095261	0.00026582	1068.8	9.7405e-06	1.0627e-05	1156.9	228.86	9.845e-06	1.0327e-05	289.99	81.963	64.151	19.34	1.0111e-05	27.044	198.664	278.093	274.895	189.804	299.893	309.572	189.866	197.131	288.917	414.099	197.233	203.241	203.837	211.216	317.734	211.076	-8191	255	
14737.312	1	1	0	0	0.15611	0.28349	0.29458	0.34146	0.17196	0.082759	0.36601	0.25094	0.27823	0.2781	0.25601	0.13873	0.23361	0.21008	0.1589	0.18075	-2.2792	-2.9688	-2.5917	-2.9333	-2.8896	-2.7083	-3.2354	-2.7583	-2.7729	-2.9	-2.6958	-2.8833	-3.0542	-2.6583	-3.0729	-2.7271	445.399	293.351	205.574	490.595	459.219	473.294	495.579	423.437	217.692	202.901	296.374	515.321	522.577	279.970	382.041	526.350	0.00021615	0.00035756	2.2807e-05	1080	3.4014e-06	2.1733e-06	1169.9	229.81	1.314e-06	2.9755e-06	292.15	81.137	63.31	18.939	2.4318e-06	26.356	0.00065069	0.00092846	0.0002642	1067.8	1.003e-05	1.0532e-05	1158.5	228.94	9.958e-06	1.0267e-05	290.17	82.001	64.028	19.264	9.7454e-06	27.001	209.878	246.159	311.254	190.002	292.998	327.433	190.003	197.210	181.383	314.091	197.159	203.402	203.771	211.503	317.123	210.836	-8191	255	
14737.408	1	1	0	0	0.10816	0.10327	0.12226	0.039738	0.10235	0.1447	0.36056	0.28664	0.16466	0.21057	0.064833	0.090724	0.33465	0.22466	0.23645	0.099254	-2.2083	-3.0687	-2.55	-3.2042	-2.925	-2.625	-3.1562	-2.7667	-2.7229	-2.9938	-2.7438	-2.9542	-2.8354	-2.5958	-3.0167	-2.9958	342.145	279.313	414.380	257.811	458.875	355.870	484.887	427.758	322.620	371.968	509.395	528.309	202.680	515.917	478.037	507.141	0.00022605	0.00043363	0.00010703	1086	2.7431e-06	3.778e-06	1174	230.43	2.1541e-06	5.5202e-06	289.62	80.785	63.185	18.985	2.9061e-06	26.559	0.00064648	0.00091845	0.00026918	1070.1	9.6819e-06	1.0583e-05	1159.8	228.86	1.0017e-05	1.0448e-05	290.14	81.997	63.915	19.296	9.839e-06	27.04	197.258	285.454	298.146	189.896	314.064	314.459	190.134	197.162	318.585	336.152	197.267	203.141	203.257	211.460	349.630	210.872	-8191	255	
14737.504	1	1	0	0	0.2769	0.14323	0.10827	0.20904	0.23329	0.067271	0.22983	0.10632	0.31232	0.17464	0.20785	0.052417	0.094933	0.15695	0.20339	0.20259	-2.1688	-3.0687	-2.6083	-3.0521	-2.9771	-2.7521	-2.9521	-3.0812	-2.5271	-2.9729	-2.625	-2.8042	-3.0187	-2.4542	-3.1708	-2.8708	351.320	381.921	250.202	230.255	260.268	291.256	484.806	231.744	377.436	220.156	398.922	405.205	263.943	268.643	324.551	502.809	0.00023286	0.0003425	9.1052e-05	1081.4	2.6393e-06	4.1892e-06	1173	230.14	2.3771e-06	2.6292e-06	290.92	81.035	63.902	19.06	3.2608e-06	26.425	0.00064178	0.00090904	0.00026482	1067	9.5115e-06	1.0654e-05	1159.2	228.75	9.5705e-06	1.0315e-05	291.03	82.018	64.328	19.314	9.7937e-06	27.06	199.051	288.260	350.503	190.063	298.069	321.898	189.749	197.028	297.952	285.200	196.992	203.448	204.095	210.849	280.717	211.165	-8191	255	
14737.600	1	1	0	0	0.16069	0.018498	0.14691	0.24158	0.16717	0.22709	0.11981	0.20323	0.17874	0.10095	0.23339	0.15776	0.1411	0.037184	0.18884	0.055291	-2.1979	-2.7938	-2.8646	-2.8708	-2.9771	-2.6354	-2.8417	-3.0979	-2.4521	-3.1333	-2.7521	-2.8396	-2.9375	-2.5125	-2.6875	-2.9562	226.704	303.555	261.750	518.365	280.223	304.670	499.522	422.406	212.627	217.220	492.543	411.112	222.760	497.806	482.746	238.564	0.00025591	0.00016057	9.6392e-05	1087.7	2.2906e-06	1.5306e-06	1171.5	229.69	9.542e-07	2.6655e-06	289.83	81.131	63.947	19.037	2.9799e-06	26.552	0.00063012	0.00090265	0.00025709	1070.5	9.2383e-06	9.9732e-06	1159.7	229.08	9.574e-06	9.9225e-06	290.52	82.139	64.318	19.332	9.7088e-06	27.04	208.225	308.809	280.971	190.241	282.578	285.068	189.846	197.228	296.427	345.475	197.189	203.152	203.861	211.497	325.294	210.912	-8191	255	
14737.696	1	1	0	0	0.25973	0.12206	0.090362	0.076083	0.19081	0.097898	0.1348	0.24897	0.15224	0.13118	0.4328	0.0099152	0.26613	0.16781	0.18721	0.091712	-2.1792	-3.1354	-2.6562	-2.8083	-3.1896	-2.6042	-3.0479	-3.1	-2.5583	-2.9958	-2.9854	-2.725	-3.1646	-2.7062	-2.8979	-3.1333	405.563	313.052	360.490	186.908	380.901	462.730	409.145	437.124	360.338	483.118	472.370	225.153	230.565	182.454	356.540	409.451	0.00023807	0.00030247	0.00014258	1081.3	2.4865e-06	2.1631e-06	1170.4	229.56	2.6149e-06	2.8583e-06	291.3	81.308	63.508	19.035	2.6882e-06	26.383	0.00061212	0.00087567	0.00025547	1069.4	9.1139e-06	1.0184e-05	1160.5	229.29	9.6692e-06	9.765e-06	290.5	82.386	64.117	19.318	9.3334e-06	26.996	199.301	279.193	241.794	189.998	309.051	329.626	189.890	196.826	308.959	330.900	197.308	203.455	203.843	211.565	348.486	210.991	-8191	255	
14737.817	1	1	0	0	0.14446	0.094151	0.027692	0.23589	0.10016	0.17947	0.27445	0.034344	0.16798	0.12407	0.1452	0.26022	0.10309	0.14824	0.35017	0.17791	-2.0604	-2.9729	-2.8021	-2.7771	-3.1188	-2.7042	-2.875	-3.2271	-2.3708	-2.8979	-2.8292	-2.5312	-3.1271	-3.0083	-2.675	-2.9667	498.235	207.641	353.419	496.268	333.003	317.934	484.932	295.961	490.587	281.716	234.773	215.007	267.778	489.725	251.102	514.721	0.00025157	0.00045806	0.00014908	1081.8	3.1556e-06	3.4025e-06	1168.5	230.38	2.757e-06	3.1916e-06	290.93	81.26	63.312	18.991	4.2152e-06	26.433	0.00060459	0.00091558	0.00024721	1069.5	9.3938e-06	9.9479e-06	1157.9	229.45	9.406e-06	9.7241e-06	290.56	82.169	64.141	19.329	9.545e-06	27.066	199.108	279.923	283.358	189.910	296.911	337.996	189.457	197.138	308.342	344.360	197.126	203.190	203.900	211.664	325.265	211.126	-8191	255	
14737.913	1	1	0	0	0.089753	0.15774	0.21365	0.11507	0.17722	0.22721	0.30257	0.24531	0.13492	0.20214	0.29237	0.24333	0.13619	0.16596	0.2585	0.032288	-2.2042	-2.7146	-2.9729	-2.6437	-3.2625	-2.9562	-2.9125	-2.9083	-2.7208	-2.9083	-3.1	-2.475	-2.9062	-2.9979	-2.65	-3.0938	288.935	332.210	438.584	500.193	349.634	477.281	431.411	453.517	240.672	434.107	518.671	527.595	424.976	306.998	419.819	495.448	0.00022195	0.00024385	0.00014714	1081	1.7533e-06	1.2143e-06	1168.6	230.65	4.8446e-06	2.775e-06	291.12	80.974	63.386	18.88	2.4842e-06	26.509	0.0006132	0.00089191	0.00024792	1067.3	9.2171e-06	9.806e-06	1158.6	229.24	9.247e-06	9.777e-06	290.37	82.207	64.111	19.303	9.108e-06	27.061	201.399	295.905	265.264	189.936	258.716	318.429	189.874	197.287	293.405	322.954	196.813	202.992	203.547	211.263	342.923	210.957	-8191	255	
14737.985	1	1	0	0	0.10327	0.097339	0.13832	0.27224	0.18626	0.15565	0.16143	0.041458	0.14626	0.15253	0.14105	0.2498	0.10631	0.17439	0.27759	0.14389	-2.2375	-2.8271	-3.0438	-2.55	-3.0708	-2.9979	-2.6937	-3.1542	-2.6542	-2.7521	-2.9229	-2.5792	-2.9792	-2.8167	-2.5875	-2.9792	503.316	348.656	268.189	181.650	374.507	386.278	414.639	429.668	244.204	310.782	513.623	522.989	420.755	507.637	213.773	444.339	0.00025962	0.00023168	7.9405e-05	1086.3	1.0288e-06	1.2036e-06	1170.6	229.01	1.6769e-06	1.4588e-06	292.86	81.467	63.405	18.971	2.0208e-06	26.4	0.00059006	0.00085561	0.00023943	1068.5	9.016e-06	9.6355e-06	1158.7	228.94	9.1664e-06	9.5742e-06	290.66	82.097	64.191	19.31	9.1436e-06	26.966	201.281	271.472	277.288	190.164	311.889	300.556	189.856	197.174	305.662	351.279	197.278	203.711	203.720	211.409	283.092	210.972	-8191	255	
14738.081	1	1	0	0	0.23295	0.096841	0.22227	0.14595	0.25106	0.078041	0.23367	0.086787	0.14171	0.11653	0.13939	0.16356	0.17696	0.034255	0.1401	0.060019	-2.2167	-2.9375	-3.0208	-2.8708	-2.9042	-2.8792	-2.8083	-2.9417	-2.8312	-2.7396	-3.225	-2.6562	-2.9188	-2.9875	-2.5646	-3.0021	512.987	281.948	497.091	214.361	183.417	489.954	439.510	357.551	294.488	388.833	388.901	271.459	357.359	211.121	483.118	428.586	0.00023723	0.00020157	9.4631e-05	1082.6	1.5765e-06	3.79e-06	1163.9	230.77	4.1649e-06	2.9739e-06	290.78	81.026	63.322	18.933	1.9947e-06	26.587	0.00060754	0.00087123	0.00024625	1068	8.8325e-06	9.7944e-06	1155.8	229.18	8.8571e-06	9.6544e-06	290.33	81.882	64.08	19.257	9.1085e-06	27.044	204.606	313.008	245.005	189.883	234.136	331.707	189.883	197.174	300.863	330.430	197.208	203.354	203.891	211.273	321.457	210.679	-8191	255	
14738.177	1	1	0	0	0.2415	0.12609	0.19709	0.13292	0.13666	0.075742	0.26484	0.12277	0.20846	0.070447	0.17558	0.27526	0.046635	0.18939	0.030376	0.05019	-2.2521	-2.5875	-2.9542	-2.8229	-2.8417	-3.0521	-2.5958	-2.8354	-2.7708	-2.5667	-3.0021	-2.5625	-2.8187	-3.1354	-2.4583	-3.0396	254.296	291.034	263.215	434.580	316.012	382.418	503.927	274.421	216.980	181.040	256.365	241.697	285.479	495.154	225.764	378.585	0.0002178	0.00024806	9.0696e-05	1077.2	2.1366e-06	3.9917e-06	1169.5	229.13	4.5194e-06	3.9267e-06	290.42	81.477	63.48	18.942	3.2318e-06	26.289	0.00059196	0.00086708	0.00023635	1064.4	8.9751e-06	9.3632e-06	1155.5	228.99	8.7206e-06	9.3579e-06	290.55	82.065	64.038	19.266	8.8501e-06	26.904	202.468	281.521	301.851	189.823	259.582	304.244	189.879	197.195	325.655	340.017	197.130	203.117	203.783	211.314	301.830	210.787	-8191	255	
14738.296	1	1	0	0	0.038616	0.106	0.20297	0.057116	0.19647	0.027654	0.2066	0.14509	0.070925	0.21884	0.33787	0.11004	0.2263	0.11189	0.2957	0.041134	-2.2125	-2.5125	-3.1271	-2.9354	-2.6958	-2.9375	-2.7313	-3.0292	-2.7562	-2.5646	-3.1208	-2.6979	-2.7812	-2.9958	-2.6021	-2.8875	359.063	373.589	316.354	288.200	498.067	479.224	412.419	474.583	387.637	373.468	533.157	459.890	283.854	503.291	514.395	417.900	0.00022365	0.00017269	4.6114e-05	1079.2	3.4792e-06	3.435e-06	1166.1	229.52	3.4257e-06	2.0476e-06	289.44	81.036	63.708	18.911	6.3235e-07	26.236	0.00057973	0.00084449	0.00023318	1063.4	9.0707e-06	9.3687e-06	1153.7	228.36	8.9268e-06	9.1786e-06	289.59	81.839	64.085	19.211	8.929e-06	26.916	205.680	279.834	233.567	190.021	289.772	333.798	189.991	197.043	291.689	312.824	197.381	203.477	203.847	211.051	247.188	210.813	-8191	255	
14738.392	1	1	0	0	0.19706	0.18817	0.3324	0.26126	0.095132	0.18338	0.13682	0.035451	0.19531	0.17642	0.3157	0.30117	0.052151	0.050627	0.19074	0.31432	-2.5458	-2.5896	-2.875	-2.9458	-2.6292	-2.9313	-3.0229	-2.8438	-2.9146	-2.5146	-2.9542	-2.7667	-2.6042	-3.1229	-2.5583	-2.775	266.229	423.158	317.935	486.728	342.578	421.457	510.237	306.948	385.829	491.517	211.054	210.349	257.094	195.373	529.893	193.495	0.00023792	0.00027204	5.3014e-05	1079.4	2.8787e-06	4.1176e-06	1161.1	230.15	5.2941e-06	3.7875e-06	291.07	81.227	63.503	18.979	3.3072e-06	26.477	0.00059582	0.00084517	0.0002335	1064.1	8.8508e-06	9.4787e-06	1150.6	229.02	9.0771e-06	9.4723e-06	289.67	81.933	63.875	19.217	9.0714e-06	26.978	198.461	311.600	271.185	190.177	290.201	329.220	189.875	197.336	299.042	315.478	196.851	203.171	203.677	211.944	294.970	210.833	-8191	255	
14738.490	1	1	0	0	0.063999	0.12426	0.28137	0.035739	0.072395	0.24656	0.069358	0.17326	0.12033	0.14424	0.27126	0.1548	0.32729	0.16067	0.31915	0.32013	-2.3896	-2.3333	-2.925	-2.8854	-2.4188	-3.0333	-2.7854	-2.5833	-2.8625	-2.7062	-2.8458	-2.8729	-2.8083	-3.0292	-2.625	-2.8167	531.489	291.273	434.919	248.183	315.673	262.883	411.179	530.851	304.108	440.998	435.866	449.381	481.955	257.486	343.569	287.781	0.00027971	0.00041368	3.6438e-05	1074.9	2.4753e-06	5.3869e-06	1161.4	229.5	3.4182e-06	4.3014e-06	291.36	80.933	63.538	18.857	8.3091e-07	26.271	0.00058397	0.00087571	0.00023551	1062.7	8.8714e-06	9.2152e-06	1151.3	228.65	8.859e-06	9.5612e-06	290.54	81.914	63.855	19.228	9.2891e-06	26.927	201.338	275.845	220.154	189.911	290.056	327.507	189.763	197.312	288.672	329.130	197.048	203.306	203.801	211.468	404.056	211.377	-8191	255	
14738.609	1	1	0	0	0.2677	0.10189	0.044002	0.057641	0.40559	0.2251	0.087814	0.092177	0.26923	0.1001	0.091767	0.092379	0.10538	0.15918	0.16387	0.090965	-2.5	-2.4854	-2.7938	-2.9417	-2.4437	-2.6729	-2.9854	-2.7687	-2.9854	-2.7667	-2.9167	-3.1792	-2.5687	-3.0479	-2.5354	-2.7438	465.575	393.120	342.428	497.631	488.447	440.282	465.966	222.954	428.019	421.986	494.823	216.892	374.884	447.021	303.216	473.775	0.00025491	0.0001649	0.00010447	1078.9	2.903e-06	1.658e-06	1162.1	228.45	3.0813e-06	4.3302e-06	290.55	80.896	63.034	18.743	1.1015e-06	26.218	0.00058542	0.0008601	0.0002377	1061.9	8.8873e-06	9.4363e-06	1150.7	227.96	8.8777e-06	9.4091e-06	289.9	81.771	63.797	19.164	8.8679e-06	26.915	205.251	306.096	284.873	189.855	302.684	297.473	190.120	197.123	325.367	348.796	196.995	203.104	203.709	211.294	332.186	210.800	-8191	255	
14738.681	1	1	0	0	0.15502	0.27051	0.096915	0.31001	0.12307	0.11303	0.19993	0.49286	0.10831	0.17579	0.12613	0.23005	0.073612	0.16419	0.21882	0.21522	-2.8042	-2.6625	-2.6729	-3.0938	-2.5563	-2.9667	-3.0417	-2.9104	-3.0062	-2.8667	-2.8208	-3.1604	-2.2979	-2.9854	-2.7979	-2.8187	258.888	364.443	230.128	507.852	474.614	205.026	444.306	531.932	277.952	537.068	391.238	439.063	441.006	305.418	215.767	271.993	0.00023672	0.00025224	8.2451e-05	1079.4	2.7127e-06	5.3286e-06	1160.6	228.8	3.0976e-06	3.6548e-06	289.72	80.721	62.992	18.874	3.8101e-06	26.29	0.00056968	0.00084171	0.00023889	1062.7	8.6659e-06	9.5441e-06	1150	227.93	8.8262e-06	9.1938e-06	289.5	81.786	63.937	19.246	8.905e-06	26.934	197.024	244.623	257.763	190.049	301.278	366.650	189.713	196.917	285.542	256.544	197.091	203.014	203.620	211.640	330.482	210.682	-8191	255	
14738.777	1	1	0	0	0.21622	0.12752	0.29073	0.078993	0.26423	0.19938	0.093352	0.10408	0.49367	0.18039	0.10452	0.27455	0.21732	0.17026	0.32874	0.0857	-2.5104	-2.7271	-2.7125	-3.0354	-2.5438	-2.85	-2.9083	-2.6688	-2.8167	-2.8083	-2.6042	-3.1271	-2.7812	-2.8479	-2.7896	-2.6646	247.048	270.596	373.422	199.711	284.209	500.563	255.675	495.221	510.694	361.697	491.162	513.312	518.213	220.432	304.719	360.971	0.0002413	0.00045607	7.6759e-05	1075.1	2.3726e-06	1.1511e-06	1161.4	228	2.9508e-06	1.6327e-06	289.59	81.016	63.545	18.868	3.1251e-06	26.303	0.00057954	0.00084854	0.00023904	1060.9	8.8186e-06	9.3896e-06	1152.4	228.36	8.6062e-06	9.2532e-06	290.33	81.824	64.117	19.23	9.0134e-06	26.915	201.969	252.491	290.809	190.037	283.216	333.242	190.203	197.411	292.980	241.999	196.868	203.236	203.596	211.224	323.296	211.234	-8191	255	
14738.897	1	1	0	0	0.1706	0.13974	0.21388	0.17603	0.22634	0.041203	0.17446	0.096658	0.07214	0.032047	0.19795	0.091071	0.16477	0.14295	0.20206	0.16983	-2.4333	-2.8937	-2.6312	-3.0479	-2.5687	-2.9	-3.0792	-2.7208	-2.9417	-2.7646	-2.4354	-2.9729	-2.5125	-2.8917	-3.0042	-2.5187	349.979	499.292	367.620	503.466	537.558	432.722	452.959	241.823	477.420	189.859	384.926	427.922	448.436	245.769	523.558	431.180	0.0002302	0.00035148	5.2259e-05	1077.2	2.8361e-06	4.4586e-06	1161.5	229.81	3.3122e-06	3.3305e-06	289.53	80.724	63.144	18.921	4.469e-06	26.369	0.00057112	0.00086318	0.00023739	1061.8	8.8983e-06	9.5628e-06	1151.7	228.53	8.6612e-06	9.5056e-06	289.58	81.737	63.795	19.234	8.8786e-06	26.938	198.219	249.374	263.537	189.913	334.033	356.510	189.773	197.060	274.524	371.107	197.338	203.374	203.743	211.856	327.174	210.774	-8191	255	
14738.994	1	1	0	0	0.20004	0.059519	0.17185	0.36579	0.26455	0.14328	0.47988	0.12127	0.045799	0.083778	0.2713	0.060047	0.35198	0.19345	0.071702	0.08155	-2.3125	-2.8688	-2.4292	-3.1042	-2.8312	-2.7292	-3.1708	-2.5604	-2.8417	-2.9208	-2.5354	-2.9958	-2.625	-2.7625	-2.8979	-2.6688	486.881	206.569	234.137	496.877	292.323	323.086	464.159	422.423	190.132	384.038	392.842	335.441	538.334	185.416	184.469	414.765	0.00025446	0.00039994	0.00011272	1076.8	3.3262e-06	3.9072e-06	1164.2	230.01	2.179e-06	5.689e-06	290.55	80.869	63.311	18.926	3.1436e-06	26.284	0.00059252	0.00083541	0.00023152	1061.5	8.6318e-06	9.4732e-06	1151.2	228.39	8.8045e-06	9.4952e-06	289.55	81.649	63.983	19.227	8.609e-06	26.937	202.547	264.808	296.897	189.967	328.275	320.667	190.035	197.437	320.879	360.132	197.373	203.448	203.471	211.609	317.833	211.164	-8191	255	
14739.090	1	1	0	0	0.045806	0.060029	0.25552	0.37458	0.084355	0.36455	0.29657	0.17017	0.21434	0.18156	0.16179	0.14691	0.080786	0.099643	0.063813	0.14589	-2.4354	-2.9437	-2.6271	-3.0917	-2.7979	-2.6375	-3.1625	-2.6833	-2.9208	-2.8104	-2.7229	-2.9208	-2.8042	-2.5375	-2.9792	-2.5979	509.120	372.220	341.189	533.342	190.922	300.311	484.773	524.738	512.403	323.365	389.964	226.199	428.086	466.901	368.687	484.441	0.00022095	0.00037687	6.017e-05	1079.5	3.0747e-06	3.1745e-06	1162.2	230.68	1.7266e-06	2.8628e-06	290.54	81.224	63.436	19.03	2.8349e-06	26.269	0.00059132	0.00085386	0.00024295	1061.3	8.6967e-06	9.3659e-06	1151.1	229.01	8.9951e-06	9.4985e-06	289.44	81.645	63.884	19.221	8.8969e-06	26.857	197.316	299.485	299.090	189.999	329.864	360.154	190.122	197.208	300.196	325.940	197.020	203.555	203.434	211.481	280.511	210.996	-8191	255	
14739.210	1	1	0	0	0.17053	0.13868	0.13564	0.18043	0.04324	0.11499	0.43321	0.31706	0.10111	0.25534	0.11506	0.09653	0.11349	0.35265	0.084481	0.10016	-2.0979	-2.8208	-2.2167	-2.9917	-2.8458	-2.6583	-2.9125	-2.7438	-2.5438	-3.1292	-2.5938	-2.8979	-2.8812	-2.4604	-3.0708	-2.6104	297.756	525.039	183.969	229.285	453.635	434.937	441.483	507.383	514.446	415.964	494.741	367.870	288.209	520.364	384.052	472.962	0.00026835	0.00011191	0.00010691	1077.9	2.4402e-06	4.2458e-06	1162.4	230.45	3.3134e-06	2.5229e-06	290.29	80.82	63.626	18.932	3.0408e-06	26.378	0.00058711	0.00085483	0.00023698	1061.5	8.6679e-06	9.5601e-06	1149.8	228.76	8.9573e-06	9.3094e-06	289.74	81.656	63.951	19.189	9.1014e-06	26.926	203.175	356.188	309.528	190.077	304.187	336.584	189.565	197.177	328.977	329.270	197.057	203.209	203.571	211.039	312.224	210.956	-8191	255	
14739.282	1	1	0	0	0.13782	0.14282	0.29029	0.28317	0.045153	0.12382	0.32753	0.204	0.093937	0.11	0.065388	0.10337	0.13655	0.12331	0.16671	0.27685	-2.4271	-2.875	-2.4813	-2.8479	-2.8104	-2.7562	-3.1	-2.9938	-2.5667	-3.3417	-2.5542	-2.8375	-2.9229	-2.4083	-3.0167	-2.8229	196.347	191.150	535.055	491.836	420.702	202.079	514.935	469.609	388.750	377.941	348.024	489.586	258.316	223.300	509.291	191.865	0.00024321	0.00021691	1.9452e-05	1070.4	3.2926e-06	1.6873e-06	1163.4	228.23	3.2545e-06	2.844e-06	289.54	80.678	63.307	18.769	2.8753e-06	26.392	0.00058973	0.00085469	0.00024302	1058.4	8.7144e-06	9.5551e-06	1149.3	227.92	9.0741e-06	9.4151e-06	289.4	81.656	63.783	19.147	9.0368e-06	26.898	204.157	294.664	242.327	190.165	314.693	389.913	189.860	197.072	292.240	310.797	196.950	203.450	203.685	211.407	317.064	211.139	-8191	255	
14739.376	1	1	0	0	0.18748	0.30705	0.13679	0.31483	0.16209	0.024746	0.094672	0.13	0.30962	0.093268	0.013945	0.13706	0.20954	0.0080936	0.21948	0.075006	-2.2479	-2.9875	-2.5125	-2.8333	-2.9833	-2.5417	-3.175	-2.7958	-2.7062	-3.0979	-2.6958	-3.0708	-2.7313	-2.7646	-2.8583	-3.0292	308.374	214.249	348.089	418.137	239.011	198.931	535.657	467.752	398.990	478.343	245.461	410.932	179.869	187.864	242.770	316.313	0.00024513	0.00029486	9.924e-05	1073.1	2.6185e-06	3.933e-06	1165.1	229.49	2.9284e-06	4.2633e-06	291.09	81.257	63.071	18.903	3.0891e-06	26.419	0.00057201	0.00083873	0.00024201	1061	8.5497e-06	9.6905e-06	1149.9	227.9	9.0771e-06	9.3721e-06	289.68	81.887	63.968	19.194	8.8455e-06	26.905	198.452	271.209	285.144	190.022	282.962	315.651	189.754	197.107	296.433	312.992	197.407	203.233	204.259	211.670	320.490	211.204	-8191	255	
14739.473	1	1	0	0	0.18032	0.21104	0.13764	0.25997	0.20243	0.19488	0.14033	0.21681	0.071729	0.25335	0.18557	0.099006	0.19801	0.19959	0.10325	0.17974	-2.0292	-3.0333	-2.6375	-2.7958	-2.8771	-2.6792	-3.1042	-3.1479	-2.4562	-2.9979	-2.8563	-2.6875	-3.2292	-2.4604	-2.7792	-2.9708	238.336	433.976	182.058	183.726	358.333	350.485	477.556	447.098	348.340	492.089	483.866	189.932	335.796	468.384	241.859	191.081	0.00024003	0.00038886	6.7212e-05	1076.1	5.8801e-07	4.0793e-06	1161.7	229.18	1.8973e-06	2.8032e-06	290.53	80.273	63.287	18.887	2.2852e-06	26.386	0.00058542	0.00081663	0.00024301	1060.7	8.8465e-06	9.7636e-06	1149.3	228.36	9.0103e-06	9.4985e-06	289.66	81.735	63.92	19.226	8.8908e-06	26.953	201.221	276.381	271.075	190.041	421.021	359.784	190.115	197.208	300.686	291.024	197.205	203.585	203.638	211.551	295.480	211.003	-8191	255	
14739.593	1	1	0	0	0.15766	0.058229	0.14467	0.20264	0.13039	0.11424	0.20338	0.16551	0.19112	0.063319	0.15109	0.093255	0.098405	0.17416	0.26846	0.15017	-2.0833	-2.9104	-2.7313	-2.6417	-2.9479	-2.6229	-2.7521	-2.9583	-2.3604	-2.6979	-2.9813	-2.6375	-3.1417	-2.6458	-2.9375	-3.0229	400.057	258.756	469.285	531.765	487.661	445.628	494.628	269.123	494.230	350.689	389.343	430.760	443.650	240.465	405.677	417.787	0.00021249	0.00016408	6.4744e-05	1079.5	3.5088e-06	3.7888e-06	1157.6	228.91	2.9377e-06	1.2128e-06	289.1	81.146	63.69	18.938	4.3524e-06	26.08	0.00058241	0.00084234	0.00023039	1062.3	8.8806e-06	9.7048e-06	1149	228.37	8.7088e-06	9.2075e-06	289.17	81.695	63.992	19.207	8.871e-06	26.892	202.368	323.194	295.919	190.063	317.586	314.487	190.005	197.119	303.188	336.902	197.087	203.220	203.534	211.500	325.260	211.143	-8191	255	
14739.689	1	1	0	0	0.18207	0.065558	0.060464	0.066619	0.10065	0.085714	0.12877	0.13106	0.25224	0.020658	0.24709	0.27668	0.29571	0.12197	0.051606	0.27537	-2.0687	-2.7375	-2.8396	-2.575	-3.0771	-2.4354	-2.7604	-3.0792	-2.6292	-2.7729	-2.8021	-2.5479	-2.75	-2.6437	-2.5187	-3.0563	198.349	435.342	527.987	429.138	426.398	273.023	187.858	538.541	507.366	435.271	519.028	203.149	532.851	420.136	496.158	381.658	0.00023369	0.00028174	0.00013402	1078.8	2.503e-06	4.0646e-06	1161.1	229.64	3.6216e-06	3.6254e-06	290.82	80.988	63.565	18.981	3.7857e-06	26.242	0.00056858	0.00084225	0.00023624	1063.4	8.5291e-06	9.4814e-06	1151.6	228.43	8.6641e-06	9.0925e-06	289.49	81.949	63.95	19.26	8.9681e-06	26.862	196.269	247.004	287.673	190.126	292.510	335.170	189.808	197.089	319.906	373.525	197.307	203.393	204.014	211.145	287.767	210.966	-8191	255	
14739.786	1	1	0	0	0.082023	0.0057562	0.21614	0.38742	0.28226	0.20961	0.19768	0.1312	0.1207	0.29864	0.090829	0.16743	0.19249	0.14861	0.27693	0.16064	-2.125	-2.6437	-2.8979	-2.8833	-3.0563	-2.8271	-2.6292	-3.0687	-2.45	-2.8688	-2.9917	-2.5146	-3.1312	-2.6708	-2.6542	-3.05	463.914	222.640	382.751	522.024	266.307	409.082	442.739	516.782	297.318	184.468	406.179	535.756	294.829	280.257	328.950	503.643	0.00024523	0.00039106	8.7597e-05	1077.3	2.947e-06	4.1826e-06	1161.5	228.51	3.4372e-06	3.827e-06	289.9	80.87	63.054	18.887	3.2642e-06	26.335	0.00058869	0.00084586	0.0002313	1063.2	8.615e-06	9.1993e-06	1151.6	228.15	8.8792e-06	9.2113e-06	289.35	81.491	63.849	19.189	8.9112e-06	26.923	196.691	264.218	303.001	189.971	300.571	367.210	189.958	197.355	281.831	297.112	197.374	203.495	203.859	211.445	297.566	210.830	-8191	255	
14739.882	1	1	0	0	0.23026	0.12009	0.12089	0.49874	0.086989	0.34071	0.15502	0.055888	0.29423	0.23218	0.33562	0.37538	0.14486	0.23326	0.29372	0.059603	-2.0542	-2.6583	-2.7812	-2.5687	-2.8937	-2.6688	-2.7917	-3.0354	-2.8438	-2.4688	-3.0604	-2.6958	-2.8063	-3.0229	-2.6229	-3.125	310.056	483.256	301.863	503.925	215.969	396.343	437.197	304.228	451.481	471.115	499.595	478.424	424.996	493.776	500.884	487.477	0.00021975	0.00049758	6.4905e-05	1076.1	4.3918e-06	1.6531e-06	1159.8	229.66	3.5215e-06	7.6114e-07	290.54	80.966	63.183	18.767	2.606e-06	26.276	0.00056646	0.00081375	0.00023159	1061.4	8.4427e-06	9.2048e-06	1149.3	228.11	8.5453e-06	9.2516e-06	289.86	81.699	63.811	19.135	8.3704e-06	26.846	200.453	268.984	221.569	189.888	278.268	380.107	190.059	197.197	302.191	368.523	197.132	203.213	204.131	211.639	245.488	211.021	-8191	255	
14739.978	1	1	0	0	0.061621	0.24155	0.20415	0.19864	0.12057	0.031867	0.12902	0.17158	0.26525	0.48726	0.099622	0.079997	0.24294	0.035148	0.1537	0.2397	-2.2896	-2.725	-3.0604	-2.7979	-2.7792	-2.8187	-2.7979	-2.8292	-2.8604	-2.4667	-3.1646	-2.5375	-2.7792	-3.0229	-2.3542	-3.2062	416.920	251.333	200.378	197.270	224.282	262.569	528.602	452.228	522.922	459.944	438.643	517.208	459.000	501.520	221.354	462.545	0.00024635	0.00021201	3.1306e-05	1074.5	4.3321e-06	2.5338e-06	1160.1	228.22	3.3568e-06	1.7418e-06	289.62	80.35	62.977	18.789	3.2867e-06	26.323	0.00058035	0.00080409	0.00022136	1058.5	8.4163e-06	8.8241e-06	1148.1	227.74	8.3445e-06	8.9835e-06	288.59	81.446	63.788	19.158	8.8577e-06	26.781	198.026	242.926	299.560	189.998	289.552	319.310	190.025	197.360	293.271	299.115	196.984	203.916	203.941	211.786	297.351	210.890	-8191	255	
14740.074	1	1	0	0	0.37275	0.18998	0.1256	0.2492	0.2206	0.082136	0.10848	0.22971	0.15749	0.090803	0.14649	0.69728	0.14556	0.28251	0.34079	0.12071	-2.2625	-2.6125	-2.9417	-2.6813	-2.6354	-3.0583	-2.5458	-2.9708	-2.9271	-2.7458	-3.0125	-2.7625	-2.4646	-3.0687	-2.4458	-2.8625	189.781	421.460	466.385	534.469	334.136	380.260	494.732	295.020	193.317	232.244	403.771	481.371	226.080	506.651	186.256	381.406	0.0002393	0.00042983	0.00010744	1074.1	3.0713e-06	2.8028e-06	1159.2	227.52	2.9944e-06	3.0614e-06	289.08	80.846	62.986	18.88	1.9731e-06	26.296	0.0005501	0.00080448	0.00022543	1059.7	8.3044e-06	8.927e-06	1147.8	226.89	8.2089e-06	8.7628e-06	289.1	81.571	63.839	19.156	8.3338e-06	26.787	201.781	268.220	278.119	190.057	264.128	370.423	189.868	197.282	319.107	343.072	197.099	203.324	203.946	211.308	310.984	211.056	-8191	255	
14740.170	1	1	0	0	0.22748	0.25854	0.078388	0.29393	0.19259	0.062974	0.22898	0.057167	0.092541	0.16322	0.028767	0.1249	0.18018	0.21187	0.15233	0.162	-2.5062	-2.5229	-3	-2.7146	-2.8438	-3.0208	-2.8312	-2.7521	-2.8812	-2.5021	-3.1104	-2.6083	-2.7854	-3.0542	-2.5312	-2.9021	229.442	459.684	196.463	504.329	208.396	447.480	377.378	474.709	204.893	344.724	260.594	531.301	374.680	233.559	498.266	487.097	0.00022188	0.00049043	9.4483e-05	1074.3	9.9262e-07	5.0058e-06	1159.7	229.04	3.3467e-06	1.4991e-06	288.14	80.785	63.189	18.682	3.7656e-06	26.077	0.00053793	0.00078833	0.00022408	1057.5	8.4355e-06	8.6464e-06	1147.7	227.99	8.2531e-06	8.8451e-06	288.18	81.553	63.744	19.117	8.3684e-06	26.77	207.318	245.974	261.597	190.159	346.825	356.139	189.944	196.995	260.148	352.344	197.177	203.418	204.083	211.662	276.977	211.019	-8191	255	
14740.291	1	1	0	0	0.1653	0.30508	0.038851	0.21538	0.030235	0.26519	0.1863	0.15074	0.076235	0.10613	0.23523	0.32036	0.37026	0.19894	0.33466	0.022242	-2.6354	-2.4833	-2.8167	-2.9521	-2.7896	-3.0521	-2.8083	-2.8875	-3.0333	-2.8042	-3.1104	-2.8937	-2.7146	-3.2229	-2.6813	-2.8542	437.332	410.580	202.880	526.041	337.020	196.810	474.627	347.261	185.471	251.715	412.422	282.093	529.676	436.322	345.222	379.250	0.00026597	0.00024649	0.00013088	1077.1	1.4265e-06	3.2435e-06	1156.5	228.17	4.4032e-06	2.6745e-06	288.11	80.575	62.89	18.88	2.7072e-06	26.179	0.00055637	0.00078375	0.00021976	1058.7	8.1647e-06	8.4083e-06	1146.8	227.27	8.2801e-06	8.7366e-06	288.3	81.469	63.69	19.129	8.3333e-06	26.81	201.555	223.458	254.661	190.038	288.190	329.839	190.033	197.154	294.665	285.424	197.257	203.463	203.371	211.881	329.044	210.785	-8191	255	
14740.385	1	1	0	0	0.17976	0.097965	0.074311	0.13643	0.24237	0.079305	0.38283	0.030873	0.19449	0.28765	0.2089	0.15837	0.14704	0.067437	0.18568	0.32109	-2.5021	-2.5646	-2.8083	-3.2229	-2.5458	-2.9958	-2.9271	-2.7833	-2.9333	-2.5938	-2.7583	-2.8125	-2.5833	-3.1	-2.8042	-2.9313	521.202	230.514	179.949	512.250	275.271	227.955	185.101	280.669	307.873	493.003	483.342	380.341	368.995	295.820	285.583	193.354	0.00024721	0.00037421	5.4436e-05	1069.1	1.4401e-06	2.6415e-06	1157.7	229.2	3.9932e-06	3.4418e-06	288.75	80.583	62.779	18.935	1.0881e-06	26.215	0.0005719	0.00079189	0.00022597	1056.3	8.5262e-06	8.8461e-06	1145.4	227.49	8.479e-06	9.0467e-06	288.05	81.523	63.584	19.131	8.3613e-06	26.788	200.455	272.086	285.502	190.075	340.834	331.617	189.946	197.099	295.394	316.310	197.028	203.408	204.196	211.750	358.835	211.185	-8191	255	
14740.481	1	1	0	0	0.094742	0.10528	0.15125	0.15613	0.0081254	0.1147	0.23327	0.32337	0.13497	0.048734	0.18209	0.034452	0.16422	0.054379	0.12217	0.11161	-2.6146	-2.4604	-2.825	-3.0292	-2.3521	-3.0729	-2.8854	-2.6104	-3.3208	-2.5563	-3.0292	-2.9104	-2.4042	-3.0125	-2.7104	-2.75	300.373	494.398	480.923	488.618	206.922	496.705	508.626	537.259	516.765	274.886	394.999	475.216	248.427	244.630	486.253	243.258	0.00023484	0.00031166	7.6319e-05	1075.6	1.3398e-06	1.2402e-06	1153.3	229.37	2.6592e-06	4.8333e-06	289.3	80.426	62.828	18.876	3.1452e-06	26.378	0.00055691	0.00079394	0.00022098	1057.8	8.4124e-06	8.8615e-06	1145.4	227.36	8.4009e-06	8.9922e-06	288.79	81.311	63.556	19.147	8.7702e-06	26.834	197.722	271.350	309.501	190.030	285.968	297.713	189.749	197.146	325.044	363.237	197.188	203.498	203.681	211.255	345.633	211.343	-8191	255	
14740.577	1	1	0	0	0.30786	0.14976	0.10154	0.21861	0.055902	0.080619	0.22148	0.15637	0.06871	0.28124	0.15448	0.12258	0.2489	0.20759	0.22503	0.12268	-2.4875	-2.8125	-2.8729	-3.1896	-2.3271	-2.95	-2.9333	-2.6146	-2.9667	-2.7146	-2.7958	-3.1375	-2.5646	-2.9896	-2.9271	-2.6125	295.581	532.138	185.443	214.893	372.532	295.836	485.788	478.520	517.959	316.703	396.899	278.572	339.283	501.611	306.777	230.870	0.00022213	0.00028926	0.00012128	1075.6	1.2545e-06	3.9835e-06	1155.1	228.16	2.0945e-06	3.8417e-06	289.75	80.112	63.555	18.795	1.6168e-06	26.281	0.00055281	0.00080819	0.00022696	1057.5	8.1848e-06	8.5925e-06	1145.1	227.42	8.1088e-06	8.7159e-06	288.75	81.242	63.846	19.112	8.4966e-06	26.757	203.748	276.661	304.329	189.956	303.110	315.652	189.906	197.237	279.615	386.843	197.197	203.302	203.857	211.521	337.809	210.988	-8191	255	
14740.674	1	1	0	0	0.019834	0.11291	0.1071	0.14346	0.25079	0.2213	0.18508	0.086097	0.12372	0.19291	0.12645	0.20475	0.20309	0.18537	0.04922	0.13647	-2.6833	-2.5771	-2.6146	-3.0833	-2.6771	-2.8375	-3.1771	-2.5938	-2.8542	-2.7417	-2.5833	-3.1167	-2.7125	-2.9437	-2.9833	-2.6104	309.302	411.537	375.878	485.471	249.803	391.878	537.122	262.801	420.474	534.169	216.996	180.488	433.613	522.183	331.976	530.098	0.00021044	0.00028641	8.0107e-05	1069.6	3.2318e-06	2.5504e-06	1160	229.66	3.967e-06	4.3646e-06	287.41	80.628	62.859	18.846	3.3404e-06	26.151	0.00053897	0.00077096	0.00021948	1055.9	8.291e-06	8.6827e-06	1147.2	227.88	8.0857e-06	8.7034e-06	287.57	81.422	63.745	19.127	8.4905e-06	26.819	197.602	264.356	236.739	189.865	280.614	332.959	190.099	197.215	286.867	347.280	197.313	203.316	203.863	211.525	300.108	211.061	-8191	255	
14740.770	1	1	0	0	0.099322	0.083154	0.1342	0.091311	0.081648	0.17617	0.24101	0.23549	0.036055	0.091836	0.21856	0.13544	0.1891	0.17742	0.292	0.20863	-2.7896	-2.9042	-2.8187	-3.0917	-2.6396	-2.8104	-3.0417	-2.8021	-2.8312	-2.875	-2.5396	-3.2479	-2.7875	-2.8646	-3.0438	-2.4104	477.859	325.037	483.160	444.384	372.202	290.670	447.238	479.054	526.410	261.348	401.735	202.175	494.453	523.438	404.134	470.475	0.0002326	0.00021811	8.3642e-05	1068.7	2.9119e-06	2.7423e-06	1153.1	228	4.2997e-06	6.1044e-06	289.47	80.766	62.993	18.769	2.0558e-06	26.237	0.0005483	0.00079751	0.00022267	1056.9	8.1243e-06	8.8676e-06	1146.8	227.4	8.0891e-06	8.7524e-06	288.32	81.297	63.815	19.094	8.1425e-06	26.864	204.635	296.964	250.022	190.164	310.808	350.558	189.990	197.403	283.383	342.074	197.169	203.366	203.643	211.385	375.318	211.144	-8191	255	
14740.890	1	1	0	0	0.01334	0.19471	0.13851	0.24073	0.3146	0.282	0.14168	0.22234	0.23427	0.067306	0.19068	0.061126	0.07736	0.076232	0.11969	0.14579	-2.5542	-2.9437	-2.6667	-3.0292	-2.7229	-2.6792	-3.3979	-2.6875	-2.8812	-2.9354	-2.8396	-3.0854	-2.8542	-2.7729	-3.2125	-2.6729	404.711	385.033	222.503	477.303	356.868	307.352	475.522	490.919	334.136	417.978	464.235	497.060	206.613	410.297	372.053	523.020	0.00026543	0.00052617	5.4829e-05	1075.3	2.4697e-06	1.8823e-06	1154.5	228.71	1.3202e-06	3.8131e-06	289.1	80.791	63.452	18.733	2.9703e-06	26.222	0.00055546	0.00077009	0.00021941	1059.3	8.193e-06	8.592e-06	1146.8	227.57	8.0665e-06	8.7284e-06	288.7	81.386	63.838	19.154	8.0667e-06	26.834	202.676	264.549	279.954	190.064	302.702	346.514	189.930	197.044	314.615	320.819	197.023	203.281	203.727	211.465	304.020	210.754	-8191	255	
14740.987	1	1	0	0	0.12476	0.41537	0.23781	0.13419	0.19969	0.27641	0.11859	0.27124	0.085989	0.29829	0.39402	0.079788	0.2418	0.21509	0.092429	0.20625	-2.5479	-2.7979	-2.5729	-3.2729	-2.7917	-2.5208	-3.1771	-2.6396	-2.8583	-2.9958	-2.7167	-2.9875	-2.9542	-2.5021	-3.1083	-2.6063	321.405	185.093	364.522	509.658	261.360	436.235	449.599	488.052	522.718	476.611	525.316	421.233	494.894	196.201	411.748	200.883	0.00025508	0.00021624	0.00010277	1072	2.3891e-06	3.6021e-06	1157.7	227.77	2.7215e-06	1.4139e-06	288.49	80.798	62.897	18.8	3.5081e-06	26.319	0.00053945	0.00078131	0.00021989	1057.8	8.1388e-06	8.4869e-06	1148.2	227.54	8.2335e-06	8.7709e-06	288.4	81.503	63.648	19.108	7.9319e-06	26.828	204.113	299.630	300.929	190.050	282.261	346.561	189.959	197.337	313.463	321.392	197.361	203.337	203.529	211.274	303.457	210.904	-8191	255	
14741.083	1	1	0	0	0.22661	0.061741	0.349	0.10958	0.22111	0.11532	0.12981	0.15131	0.16071	0.26536	0.32918	0.0868	0.19461	0.15931	0.10246	0.042963	-2.4104	-2.9542	-2.6437	-3.0104	-2.9208	-2.5187	-3.2229	-2.6667	-2.7583	-3.0458	-2.5646	-2.9208	-3.1229	-2.3646	-3.1063	-2.8146	371.464	244.960	264.844	261.679	312.613	347.939	450.192	470.164	295.732	511.167	483.682	338.002	335.095	446.215	273.405	183.083	0.0002396	0.00013142	6.9052e-05	1073.6	3.5659e-06	1.1823e-06	1157.9	228.37	5.1914e-06	3.6037e-06	289.58	80.8	62.833	18.793	3.3438e-06	26.29	0.00056056	0.00078858	0.00021914	1056.8	8.218e-06	8.9985e-06	1146	227.43	8.343e-06	8.7758e-06	288.35	81.536	63.553	19.116	8.0805e-06	26.812	202.258	304.465	283.920	190.230	310.626	342.592	189.775	197.248	313.774	369.134	197.173	203.211	203.575	211.201	280.170	211.134	-8191	255	
14741.154	1	1	0	0	0.18632	0.0731	0.17314	0.18939	0.21012	0.16995	0.17931	0.13958	0.031659	0.056679	0.55947	0.14591	0.13119	0.36196	0.22847	0.079691	-2.2771	-2.9958	-2.8021	-2.9104	-2.875	-2.4167	-3.3	-2.7687	-2.5458	-3.0229	-2.675	-2.8708	-3.0292	-2.4458	-2.9271	-3.125	403.442	219.205	313.316	485.234	410.688	375.972	298.777	182.716	369.188	472.086	453.190	477.649	369.041	371.600	182.279	447.283	0.00026279	0.00038768	0.00012062	1073.8	2.8408e-06	9.003e-07	1158.4	229.06	2.7892e-06	3.772e-06	287.65	80.911	62.998	18.807	2.9632e-06	26.327	0.00055595	0.00077204	0.00021591	1056.7	8.0024e-06	8.6156e-06	1147.8	227.69	8.1731e-06	8.4412e-06	288.27	81.528	63.7	19.179	8.1054e-06	26.841	204.491	252.340	338.104	190.091	271.766	339.601	189.997	197.280	283.045	350.280	197.338	203.509	203.820	211.565	337.070	210.378	-8191	255	
14741.273	1	1	0	0	0.075405	0.092345	0.020904	0.22183	0.3665	0.17609	0.070688	0.33125	0.12644	0.18145	0.31003	0.13967	0.05194	0.099455	0.15903	0.10626	-2.0938	-3.0187	-2.6188	-2.8917	-2.9146	-2.3354	-3.0292	-2.9354	-2.5042	-2.9333	-2.6708	-2.7354	-2.9521	-2.6771	-2.8125	-2.6396	324.916	266.127	365.329	488.972	219.820	410.854	447.496	484.538	459.679	477.860	490.252	357.473	360.354	285.760	478.338	460.909	0.00026617	0.00029259	7.5335e-05	1070.9	2.5996e-06	4.3491e-06	1159.6	229.12	2.8272e-06	3.2899e-06	289.93	80.952	63.006	18.9	6.9864e-07	26.362	0.00055289	0.00075184	0.00021899	1057.6	8.1709e-06	8.6371e-06	1147.9	227.47	8.4157e-06	8.7219e-06	288.69	81.577	63.577	19.165	8.2956e-06	26.878	199.661	291.455	254.142	190.155	334.519	351.116	189.811	197.255	281.717	341.117	196.935	203.162	203.809	211.267	368.451	210.593	-8191	255	
14741.369	1	1	0	0	0.12898	0.10965	0.40778	0.15651	0.19707	0.082602	0.13217	0.21995	0.19569	0.14421	0.47602	0.2351	0.29324	0.11635	0.056926	0.027739	-2.1208	-3.1896	-2.6583	-2.825	-3.0917	-2.6292	-2.9958	-3.175	-2.5354	-3.0812	-2.7271	-2.6813	-3.0583	-2.6813	-2.8708	-2.9875	413.230	504.731	464.038	519.650	523.546	354.245	432.152	461.892	433.670	473.719	442.903	483.972	262.865	288.650	492.181	481.015	0.00023233	0.00029048	0.00010989	1074.2	2.6723e-06	4.0778e-06	1161.9	229.06	2.6555e-06	9.5773e-07	289.15	80.468	63.613	18.798	3.1752e-06	26.289	0.00054608	0.00076477	0.00021332	1058.3	8.0187e-06	8.6112e-06	1148.2	227.63	8.2453e-06	8.3747e-06	288.65	81.452	63.915	19.165	7.9731e-06	26.863	200.195	289.033	237.379	190.076	333.211	352.806	189.757	197.422	327.804	329.596	197.153	203.299	204.021	211.499	296.988	210.753	-8191	255	
14741.466	1	1	0	0	0.17996	0.15304	0.33298	0.099911	0.32214	0.082681	0.092742	0.3236	0.25977	0.071434	0.16622	0.20243	0.16533	0.082742	0.20276	0.11562	-2.1729	-2.7354	-2.775	-2.7708	-3.0917	-2.6583	-2.9667	-2.8646	-2.4792	-2.8833	-2.8646	-2.6458	-3.15	-2.6562	-2.7208	-3.1146	186.869	511.635	371.628	507.693	246.418	347.128	199.572	475.457	333.965	451.458	518.869	186.547	232.765	341.359	433.958	305.696	0.00024465	0.00018311	0.0001164	1073.7	2.0928e-06	4.5347e-06	1162.9	229.21	3.488e-06	5.5208e-06	289.21	80.898	63.098	18.9	2.944e-06	26.144	0.00054039	0.00077497	0.00021877	1059.3	7.9241e-06	8.8984e-06	1150.7	227.79	8.2035e-06	8.6461e-06	288.47	81.603	63.837	19.168	8.1837e-06	26.814	203.983	236.305	304.008	190.028	311.250	317.795	190.010	196.985	279.587	335.401	197.243	203.094	203.811	211.470	309.302	210.713	-8191	255	
14741.562	1	1	0	0	0.2109	0.32539	0.1986	0.28453	0.31736	0.17738	0.12778	0.06518	0.2619	0.1085	0.19629	0.2431	0.19072	0.31174	0.25445	0.15737	-2.2042	-2.8604	-2.7729	-2.6688	-2.8521	-2.7333	-2.8333	-3.0479	-2.475	-2.8312	-3.0062	-2.5938	-3.1958	-2.8646	-2.8167	-3.2292	212.344	447.160	230.663	529.209	221.555	219.066	450.643	380.458	494.333	492.364	492.961	335.989	512.513	526.086	363.337	218.914	0.00023765	0.00040176	4.6085e-05	1074	2.3516e-06	1.9195e-06	1160.8	228.94	2.661e-06	2.0109e-06	290.55	80.669	63.542	18.882	2.701e-06	26.339	0.00055031	0.00077135	0.00021347	1061.6	7.8478e-06	8.8736e-06	1149.3	228.17	8.0827e-06	8.6658e-06	289.57	81.677	63.943	19.226	8.3063e-06	26.799	204.138	259.945	223.733	189.982	275.315	343.925	189.650	197.197	286.679	376.466	196.976	203.432	203.869	211.569	316.484	210.765	-8191	255	
14741.682	1	1	0	0	0.27566	0.25361	0.13856	0.15369	0.1065	0.091575	0.28066	0.17291	0.098426	0.062927	0.1256	0.034139	0.19952	0.043999	0.13315	0.13742	-2.3583	-2.7896	-2.8937	-2.4333	-3.1229	-2.7917	-2.8146	-3.15	-2.5396	-3.0812	-3.0125	-2.5479	-2.9083	-2.9688	-2.6354	-2.9104	524.325	456.511	391.389	489.712	182.384	425.756	454.973	437.037	513.032	382.712	518.386	430.150	432.084	216.412	258.026	269.233	0.00022293	0.00024393	9.7626e-05	1074.1	2.3852e-06	5.8536e-06	1161.1	228.46	3.7759e-06	3.8954e-06	289.32	80.123	63.448	18.892	2.8994e-06	26.212	0.00056077	0.0008036	0.00021656	1060.4	8.1752e-06	8.8164e-06	1150.9	228.05	8.18e-06	8.657e-06	289.16	81.563	63.847	19.224	8.2336e-06	26.854	203.649	280.192	271.714	189.951	336.380	346.407	189.938	197.356	303.188	277.202	197.098	203.647	204.025	211.557	330.548	210.556	-8191	255	
14741.778	1	1	0	0	0.1399	0.23514	0.28491	0.21685	0.13881	0.16878	0.055639	0.20095	0.2448	0.043134	0.13909	0.042199	0.28752	0.23301	0.26647	0.067659	-2.3042	-2.9437	-2.7938	-2.6792	-3.025	-3.0125	-2.4771	-3.1375	-2.675	-2.7854	-3.0542	-2.6083	-2.9125	-3.2188	-2.6417	-3.1396	476.483	350.087	302.472	468.500	415.300	294.101	242.537	518.095	246.084	497.063	198.704	377.464	483.928	477.565	340.556	184.044	0.00025594	0.00020474	0.00010258	1074.3	2.4207e-06	2.8541e-06	1159.1	228.69	3.2665e-06	1.7229e-06	289.1	80.916	63.47	18.918	1.1869e-06	26.225	0.00055538	0.00079136	0.00022051	1060.4	8.2079e-06	8.834e-06	1151.1	228.03	8.1863e-06	8.9219e-06	288.64	81.725	63.939	19.202	8.3501e-06	26.934	197.485	225.446	258.334	190.122	295.344	323.648	189.967	197.090	286.144	239.745	197.278	203.627	203.664	211.151	263.876	211.349	-8191	255	
14741.850	1	1	0	0	0.16602	0.045505	0.10741	0.29918	0.24796	0.067682	0.27522	0.096193	0.12455	0.30725	0.36061	0.26345	0.059308	0.10901	0.089986	0.11732	-2.2313	-2.6292	-2.9604	-2.6542	-2.6292	-3	-2.6479	-3.1396	-2.6667	-2.8125	-3.1042	-2.7438	-2.7417	-2.8896	-2.4417	-2.9979	529.296	341.614	456.854	521.307	303.698	427.774	446.025	435.386	472.702	246.060	188.076	511.752	337.608	483.697	426.242	445.918	0.0002433	0.00026544	4.5841e-05	1078	4.4102e-06	4.182e-06	1162.2	230.08	2.9484e-06	2.7349e-06	290.73	80.816	63.136	18.901	2.4548e-06	26.274	0.00055522	0.00077858	0.00022643	1062.8	8.3774e-06	8.4699e-06	1150.1	228.2	8.1392e-06	8.6957e-06	289.23	81.53	63.887	19.237	8.0545e-06	26.922	199.656	269.733	255.328	189.853	305.685	349.357	189.779	197.170	297.865	337.895	196.977	203.019	203.668	211.580	338.078	211.125	-8191	255	
14741.971	1	1	0	0	0.064459	0.035376	0.090743	0.47691	0.1207	0.14559	0.27642	0.25306	0.19565	0.23372	0.027424	0.02602	0.051105	0.2036	0.11795	0.1022	-2.3229	-2.5458	-3.0625	-2.9104	-2.8146	-2.9792	-2.6083	-3.0125	-2.8479	-2.5354	-3.0979	-2.8125	-2.8063	-3.0521	-2.4125	-2.8167	424.526	440.844	186.029	183.108	193.672	365.307	519.327	193.799	462.883	416.972	337.569	292.797	360.799	535.211	470.246	364.681	0.00021715	0.00024175	0.00010098	1075.4	3.221e-06	1.8721e-06	1156.1	228.79	4.007e-06	2.3184e-06	288.17	80.72	63.669	19.081	2.0587e-06	26.261	0.00054037	0.00078672	0.00022225	1061.4	7.9673e-06	8.7581e-06	1149.2	227.87	8.1353e-06	8.4123e-06	288.17	81.618	63.907	19.246	8.0805e-06	26.878	200.338	270.038	273.739	189.913	283.821	418.037	189.865	197.360	290.033	334.557	196.709	203.292	203.876	211.446	325.183	210.931	-8191	255	
14742.067	1	1	0	0	0.18854	0.0046131	0.18049	0.12266	0.22465	0.15836	0.17462	0.18263	0.18819	0.15747	0.16922	0.065555	0.25711	0.18643	0.22911	0.041977	-2.3792	-2.5125	-2.9833	-2.85	-2.7625	-3.0604	-2.8792	-2.8958	-2.7729	-2.7021	-3.2375	-2.7208	-2.5812	-3.1354	-2.5167	-3.1042	495.858	359.896	460.872	259.794	432.759	314.915	371.863	516.000	285.780	259.854	342.447	314.985	498.247	337.060	303.977	529.333	0.00021197	0.00034427	0.00012185	1075.9	3.6718e-06	3.0155e-06	1162.1	228.63	3.1674e-06	3.3535e-06	287.25	80.84	63.387	18.87	3.4948e-06	26.487	0.00053911	0.00075872	0.00021874	1060.8	8.1051e-06	8.592e-06	1150.5	228.01	8.1019e-06	8.602e-06	288.11	81.503	63.914	19.195	8.0601e-06	26.889	193.669	264.621	313.878	190.226	295.155	350.129	190.064	197.190	309.961	286.158	196.854	203.232	203.802	211.326	312.700	210.994	-8191	255	
14742.163	1	1	0	0	0.2026	0.080811	0.28071	0.17663	0.20014	0.17911	0.053556	0.10129	0.20011	0.19942	0.030659	0.31892	0.12374	0.35213	0.075939	0.26019	-2.5104	-2.5604	-2.8604	-2.8979	-2.4854	-3.1271	-2.8333	-2.7313	-2.9042	-2.5438	-2.9313	-2.9875	-2.5938	-3.2083	-2.5375	-2.8688	203.758	207.483	240.223	520.632	336.894	353.021	313.577	186.654	334.327	350.551	400.906	469.697	440.142	451.970	339.402	490.459	0.00023583	0.00010497	0.00010294	1075.1	3.1212e-06	2.2708e-06	1159.7	227.97	2.5667e-06	3.3233e-06	289.67	80.818	63.132	18.833	2.9459e-06	26.198	0.00054884	0.00077062	0.00021471	1057.8	8.1027e-06	8.3764e-06	1149	227.67	8.1505e-06	8.717e-06	289.29	81.755	63.859	19.155	8.3557e-06	26.822	209.398	528.709	288.449	189.828	318.898	376.084	190.095	197.459	316.575	361.678	197.136	203.405	203.517	211.231	304.062	210.727	-8191	255	
14742.259	1	1	0	0	0.015415	0.16365	0.19088	0.097323	0.44917	0.064982	0.1001	0.17724	0.2708	0.26216	0.10807	0.37556	0.10782	0.26629	0.1813	0.30786	-2.3563	-2.5938	-2.7562	-3.1792	-2.6042	-3.0542	-2.875	-2.7125	-3.0479	-2.5979	-2.9604	-2.95	-2.6188	-2.9437	-2.7646	-2.675	340.026	183.805	210.627	410.450	305.201	247.611	362.670	462.916	534.100	214.646	336.634	448.328	519.234	453.984	377.883	490.555	0.0002312	0.00040131	0.00011874	1073.2	1.805e-06	3.2584e-06	1160.7	230.14	3.9592e-06	2.3265e-06	289.59	80.98	63.173	18.826	3.0109e-06	26.456	0.00053575	0.00075843	0.00022095	1058.7	8.1647e-06	8.9413e-06	1149.9	228.09	7.9639e-06	8.6287e-06	288.74	81.848	63.735	19.162	8.3114e-06	26.924	206.785	267.483	231.393	190.065	363.038	327.062	189.802	197.150	277.704	332.296	196.963	203.031	203.667	211.489	318.665	211.165	-8191	255	
14742.378	1	1	0	0	0.0737	0.1462	0.21847	0.21237	0.14238	0.15788	0.1141	0.31054	0.1487	0.26292	0.048176	0.2014	0.019736	0.2015	0.044684	0.12804	-2.6188	-2.5833	-2.6437	-3.2917	-2.5833	-3.0333	-2.9375	-2.7562	-2.9542	-2.5563	-2.8583	-2.8667	-2.4625	-3.0146	-2.9125	-2.6542	531.536	485.745	536.269	456.973	455.211	380.116	493.433	469.018	516.729	497.129	287.684	498.463	538.894	519.013	391.067	232.702	0.00021452	0.00026449	2.9238e-05	1078.4	4.6386e-06	1.4556e-06	1163.3	228.66	1.9834e-06	1.2208e-06	289.11	80.619	63.474	18.817	1.9239e-06	26.347	0.00052961	0.00079492	0.00021542	1060.9	8.1637e-06	8.636e-06	1150.7	227.83	8.2286e-06	8.699e-06	288.64	81.777	63.941	19.203	8.1364e-06	26.966	200.980	252.834	342.078	190.032	305.528	335.449	189.850	197.164	275.471	311.301	197.077	203.055	203.836	211.423	330.341	210.809	-8191	255	
14742.450	1	1	0	0	0.27819	0.24905	0.18502	0.25017	0.25379	0.17524	0.1614	0.082317	0.089717	0.34638	0.21083	0.22913	0.1221	0.24177	0.028167	0.056268	-2.5833	-2.6	-2.7729	-2.9188	-2.5521	-2.9813	-2.9771	-2.6271	-2.9562	-2.6521	-2.6271	-2.9229	-2.5583	-2.9375	-2.8	-2.5521	347.735	353.623	255.967	486.573	208.844	266.092	417.072	477.571	495.975	203.522	521.097	446.442	477.079	465.108	352.730	509.383	0.00025615	0.00033146	0.00013163	1073.8	1.2247e-06	3.2652e-06	1159.4	229.17	2.8824e-06	3.6206e-06	290.46	81.056	63.21	18.874	4.922e-06	26.179	0.00054385	0.00079863	0.00022548	1059.6	8.1363e-06	8.6871e-06	1149.5	227.86	7.9836e-06	8.6036e-06	289.57	81.854	63.923	19.217	8.2361e-06	26.866	208.857	252.935	275.787	190.042	323.061	310.639	189.843	196.851	313.559	280.482	197.325	203.238	203.765	211.294	332.978	210.931	-8191	255	
14742.570	1	1	0	0	0.31295	0.23071	0.05634	0.21051	0.12539	0.19899	0.22756	0.25268	0.08041	0.074102	0.11082	0.18882	0.064024	0.15843	0.34314	0.14396	-2.4833	-2.7438	-2.9083	-3.0833	-2.4708	-2.9479	-3.1437	-2.5312	-2.825	-2.5729	-2.6229	-3.0667	-2.6063	-2.7646	-2.9208	-2.6708	508.225	209.935	291.042	502.962	472.730	491.472	182.851	499.249	274.090	504.754	526.786	219.928	389.528	523.109	257.003	437.712	0.0002727	0.00058316	4.6259e-05	1072.5	1.6848e-06	4.339e-06	1163.3	228.55	3.217e-06	2.0322e-06	287.6	80.821	63.338	18.815	1.3415e-06	26.342	0.00055487	0.00078692	0.00021764	1058.9	8.1133e-06	8.4754e-06	1149.5	227.89	8.2369e-06	8.3573e-06	287.93	81.697	63.841	19.166	8.022e-06	26.867	209.229	261.560	217.974	190.239	293.644	356.454	189.990	197.414	305.508	326.969	197.263	203.214	203.763	211.516	363.652	211.062	-8191	255	
14742.667	1	1	0	0	0.12223	0.036482	0.10228	0.25165	0.14365	0.17413	0.14914	0.2381	0.033949	0.034712	0.16356	0.27239	0.24328	0.10332	0.19967	0.54703	-2.5583	-2.7021	-2.4042	-3.1333	-2.6021	-2.9104	-3.0917	-2.7167	-2.9188	-2.7146	-2.5479	-3.1292	-2.5979	-2.95	-2.8708	-2.4938	382.277	351.303	277.742	402.982	499.782	209.544	200.860	199.964	285.902	310.698	203.521	458.893	282.622	228.917	498.101	385.445	0.00024528	0.00033026	8.6485e-05	1072.1	2.8134e-06	3.3109e-06	1158.2	228.53	4.1112e-06	1.0209e-06	289.98	80.903	63.623	18.9	3.4874e-06	26.1	0.0005538	0.00078624	0.00021934	1058.2	8.399e-06	8.762e-06	1148.4	227.78	7.8687e-06	8.8015e-06	288.81	81.625	63.917	19.176	7.907e-06	26.721	200.498	246.666	280.293	190.201	317.141	311.553	189.774	197.170	287.128	356.633	197.205	203.529	203.996	211.044	309.751	210.873	-8191	255	
14742.763	1	1	0	0	0.048153	0.085288	0.16134	0.14899	0.063527	0.30927	0.18617	0.057265	0.15274	0.13227	0.23972	0.19637	0.074023	0.19173	0.089171	0.23769	-2.4813	-2.6792	-2.4104	-3.2021	-2.6333	-2.55	-3.2521	-2.6	-2.9667	-2.9292	-2.3521	-3.0687	-2.6562	-2.8083	-2.9833	-2.6813	388.193	201.960	393.939	537.582	460.768	317.883	512.533	389.568	366.163	185.438	441.860	331.489	264.393	502.930	227.016	427.182	0.00024399	0.00026337	4.2004e-05	1077.1	3.6051e-06	3.1502e-06	1158.1	228.95	3.8848e-06	2.6785e-06	289.84	81.301	63.347	18.829	2.458e-06	26.317	0.00055423	0.00077799	0.00021845	1059.3	8.2088e-06	8.7515e-06	1146	227.64	8.3911e-06	8.6799e-06	288.6	81.728	63.907	19.229	8.2036e-06	26.877	206.743	229.068	247.391	190.254	307.012	317.690	189.858	197.138	286.888	343.862	197.242	203.311	203.892	211.818	310.639	211.127	-8191	255	
14742.859	1	1	0	0	0.12361	0.10708	0.19067	0.29069	0.19794	0.04174	0.067567	0.054682	0.26206	0.28404	0.24131	0.061131	0.13342	0.32732	0.17517	0.0231	-2.1979	-2.6917	-2.4771	-3.05	-2.6417	-2.6292	-3.1771	-2.7812	-2.7062	-2.9875	-2.5271	-3.0271	-2.7313	-2.4604	-2.9604	-2.675	533.181	485.118	233.983	442.198	521.916	181.486	483.333	371.656	262.613	342.210	410.234	515.036	403.040	180.344	430.718	291.009	0.00023024	0.00021843	0.00010532	1077.1	1.9703e-06	2.7173e-06	1159.8	228.15	3.4247e-06	2.7459e-06	290.2	80.683	63.248	18.835	1.5368e-06	26.318	0.00054613	0.00075818	0.00021822	1059.4	8.0855e-06	8.6646e-06	1147.9	227.86	8.3587e-06	8.5023e-06	288.57	81.6	63.841	19.167	8.0601e-06	26.91	205.894	264.280	229.482	190.064	312.748	337.547	189.791	197.439	328.214	325.435	196.949	203.369	203.726	211.602	301.422	211.169	-8191	255	
14742.979	1	1	0	0	0.16144	0.17188	0.051752	0.36079	0.2751	0.1748	0.28368	0.18332	0.053375	0.22081	0.28246	0.42888	0.25621	0.11844	0.070267	0.4975	-2.2	-2.8271	-2.4	-3.0687	-2.7	-2.6208	-3.0438	-2.6896	-2.7062	-3.1146	-2.3833	-2.9792	-2.9521	-2.5729	-2.9917	-2.7812	402.292	424.768	370.712	518.957	290.499	385.962	444.607	535.633	200.219	251.948	484.275	223.545	348.276	465.618	390.531	226.137	0.0002138	0.00043619	5.543e-05	1071.8	3.5721e-06	2.5255e-06	1153.2	227.99	2.3546e-06	4.5846e-06	290.33	80.992	62.999	18.876	2.0512e-06	26.35	0.00054074	0.00076687	0.00022265	1057.5	8.2141e-06	8.8148e-06	1146.6	227.59	8.1814e-06	8.4401e-06	288.93	81.605	63.843	19.199	7.935e-06	26.81	198.250	294.992	270.799	190.041	267.499	362.724	189.923	197.569	290.691	347.970	197.236	203.402	203.884	211.441	324.633	211.319	-8191	255	
14743.076	1	1	0	0	0.093103	0.26467	0.23305	0.2555	0.3212	0.26431	0.27509	0.16973	0.26109	0.15351	0.069234	0.18191	0.14936	0.26319	0.20348	0.10566	-2.1479	-2.9271	-2.5062	-2.9271	-2.9792	-2.4333	-3.1125	-2.7479	-2.7354	-2.9708	-2.5563	-2.8063	-2.9917	-2.6063	-2.8271	-2.825	349.898	395.909	217.035	489.187	475.625	216.622	455.495	460.220	350.705	379.175	415.860	353.547	205.576	184.518	442.278	379.626	0.00022015	0.00031703	8.2327e-05	1074.8	2.5824e-06	4.0692e-06	1158.2	229.87	2.7396e-06	5.4747e-06	288.53	80.982	63.3	18.779	5.0133e-06	26.34	0.00054007	0.00075945	0.00021434	1058.8	7.8723e-06	8.7301e-06	1148.2	227.89	8.2448e-06	8.5747e-06	288.72	81.814	63.899	19.154	8.1802e-06	26.887	201.763	273.588	249.432	189.934	312.359	299.760	189.895	196.920	290.537	363.748	197.275	203.417	203.859	211.468	314.841	211.076	-8191	255	
14743.147	1	1	0	0	0.065204	0.18365	0.11948	0.14408	0.18447	0.15694	0.20165	0.11138	0.23276	0.092774	0.27839	0.18973	0.093951	0.24427	0.21817	0.092737	-2.0854	-3.1333	-2.6604	-2.7271	-2.8542	-2.5312	-3.0042	-2.9167	-2.5354	-2.875	-2.6354	-2.9042	-3.0187	-2.6583	-2.8604	-2.7917	222.427	254.751	387.166	402.500	189.883	453.566	484.797	445.214	220.174	497.933	210.558	538.927	461.384	188.624	421.896	454.604	0.00023723	0.00020148	0.00010203	1073.5	2.9857e-06	1.7064e-06	1158.7	229.78	4.718e-06	2.806e-06	290.16	81.121	62.94	18.964	2.1186e-06	26.436	0.00055302	0.0007291	0.00021871	1059.2	8.2137e-06	8.3824e-06	1149.3	227.89	8.1534e-06	8.4156e-06	288.67	81.75	63.704	19.218	8.1497e-06	26.904	204.733	242.289	269.506	190.240	343.038	368.505	189.759	197.133	300.667	371.126	197.099	203.530	203.296	211.467	288.702	211.080	-8191	255	
14743.243	1	1	0	0	0.01377	0.20638	0.28635	0.17704	0.042386	0.13424	0.14027	0.077372	0.17085	0.33587	0.28044	0.075381	0.17513	0.19102	0.14726	0.19203	-2.2125	-2.8896	-2.6708	-2.8104	-3.1792	-2.6729	-2.8292	-2.9958	-2.5021	-2.9604	-2.7	-2.5479	-3.125	-2.6646	-2.7687	-2.8708	412.426	469.996	290.131	414.651	435.507	356.269	421.626	488.144	287.021	461.955	525.077	311.343	469.960	276.375	437.897	479.183	0.00022885	0.0001802	8.7731e-05	1075.6	2.8261e-06	4.9861e-06	1160.5	228.35	2.9609e-06	2.2971e-06	289.24	80.522	63.245	18.97	2.526e-06	26.543	0.00054487	0.00078341	0.00021885	1060.2	8.0807e-06	8.7136e-06	1150	227.91	8.2703e-06	8.6064e-06	288.1	81.495	63.847	19.257	8.1552e-06	26.895	195.837	246.150	293.060	190.100	301.857	343.315	190.020	197.334	292.658	353.108	197.020	203.085	204.092	211.428	318.298	210.561	-8191	255	
14743.362	1	1	0	0	0.13092	0.045308	0.072539	0.32747	0.20456	0.20572	0.20906	0.16713	0.097285	0.24737	0.15062	0.14408	0.15293	0.0090847	0.12246	0.11704	-1.9958	-2.8417	-2.9	-2.7167	-2.9958	-2.7542	-2.9375	-2.9458	-2.5583	-2.8979	-2.9042	-2.4604	-3.1146	-2.5354	-2.6979	-3.0646	475.526	197.067	218.159	437.558	379.150	248.161	474.175	258.184	468.482	289.793	466.054	441.213	536.049	321.129	501.935	387.208	0.00023565	0.00021755	5.1424e-05	1075.3	2.4252e-06	4.1072e-06	1165.3	229.1	2.1483e-06	4.1101e-06	289.71	81.288	63.576	18.953	2.1379e-06	26.231	0.00053307	0.0007594	0.00022342	1060.5	7.8646e-06	8.4583e-06	1150.5	227.89	8.232e-06	8.6401e-06	288.9	81.801	63.923	19.226	8.1975e-06	26.926	202.996	230.486	320.370	189.996	309.547	336.722	189.932	197.069	282.047	327.286	196.927	203.197	203.951	211.365	302.410	210.921	-8191	255	
14743.458	1	1	0	0	0.10129	0.16583	0.037027	0.32292	0.36273	0.15837	0.35879	0.24833	0.21982	0.072161	0.44846	0.011385	0.24103	0.12223	0.17445	0.16316	-2.1292	-2.7458	-2.8854	-2.7042	-3.1688	-2.7458	-2.925	-2.9792	-2.6312	-2.6625	-2.9521	-2.6042	-3.1562	-2.7167	-2.6354	-3.0896	291.226	215.815	332.939	423.982	438.185	461.582	529.385	483.404	208.784	242.302	235.359	230.052	443.806	523.504	449.014	383.947	0.00023438	0.00020261	5.218e-05	1073.5	2.5493e-06	1.9045e-06	1157.6	228.69	3.3209e-06	3.8221e-06	289.91	80.997	63.494	18.934	1.0536e-06	26.24	0.00055568	0.00078614	0.0002148	1059.1	8.0826e-06	8.7911e-06	1149.3	228.01	7.9791e-06	8.5437e-06	289.14	81.936	63.831	19.218	8.0942e-06	26.912	206.906	266.389	285.957	190.113	318.295	301.833	190.031	197.452	288.969	306.979	197.222	203.124	203.449	211.593	265.984	210.819	-8191	255	
14743.555	1	1	0	0	0.20113	0.085529	0.16177	0.28799	0.23357	0.096306	0.22505	0.25194	0.1638	0.059163	0.18133	0.1105	0.038706	0.16167	0.17813	0.22256	-2.0583	-2.5938	-2.9521	-2.6458	-2.9562	-2.8729	-2.6937	-3.1167	-2.6437	-2.9396	-3	-2.4479	-3.0187	-2.9271	-2.7062	-2.825	527.256	210.098	397.512	523.348	433.718	187.868	441.333	407.018	473.117	235.042	185.854	506.859	521.432	465.525	252.492	456.766	0.00025456	0.00027681	6.0709e-05	1074.5	3.5177e-06	3.1209e-06	1162.3	227.96	2.5413e-06	3.6121e-06	291.33	80.792	63.566	18.9	4.361e-06	26.286	0.00054026	0.00076877	0.0002173	1059.6	8.0562e-06	8.7059e-06	1148	227.64	8.2654e-06	8.7611e-06	289.66	81.673	63.994	19.225	8.0683e-06	26.887	201.308	228.138	402.991	189.771	336.937	389.685	189.769	197.141	287.543	304.270	197.075	203.546	203.993	211.332	328.986	210.938	-8191	255	
14743.651	1	1	0	0	0.17721	0.010625	0.2573	0.3117	0.15608	0.14087	0.19404	0.12441	0.12279	0.10278	0.084424	0.095517	0.14614	0.18437	0.36366	0.1238	-2.1979	-2.6646	-2.8375	-2.7396	-2.9479	-3.0104	-2.6979	-3.1125	-2.6875	-2.5583	-3.1958	-2.6375	-3.0229	-2.8292	-2.5167	-3.0708	308.446	536.212	221.826	507.377	487.219	312.411	407.185	210.868	339.724	200.696	518.766	411.262	319.515	413.170	527.271	491.185	0.00023954	0.00047433	8.4149e-05	1076.2	2.8839e-06	3.5643e-06	1157.1	229.11	3.1733e-06	4.452e-06	289.07	81.152	64.104	18.834	3.0588e-06	26.574	0.00054881	0.00078072	0.000216	1061.5	8.1138e-06	8.6662e-06	1147.8	228.3	8.2634e-06	8.7851e-06	288.9	81.933	64.105	19.203	8.4147e-06	26.928	202.451	274.985	289.678	190.009	273.281	355.578	190.238	197.060	298.907	365.999	196.728	203.413	203.747	211.494	263.411	210.933	-8191	255	
14743.747	1	1	0	0	0.15071	0.16396	0.12294	0.14314	0.10645	0.31848	0.26523	0.18253	0.31351	0.03957	0.25491	0.24234	0.074242	0.093472	0.10678	0.084018	-2.2583	-2.6937	-2.975	-2.7417	-2.9188	-2.9229	-2.6333	-3.15	-2.725	-2.5604	-3.1271	-2.5354	-2.8333	-2.7896	-2.5396	-2.9917	398.231	430.080	260.186	450.461	495.768	444.839	236.370	466.035	262.226	386.960	227.597	451.026	363.513	509.634	413.345	276.415	0.00025216	0.00021315	4.0343e-05	1078.4	1.3078e-06	3.9273e-06	1164.8	228.99	4.2478e-06	1.9086e-06	288.25	81.436	63.193	18.833	2.5545e-06	26.289	0.00055318	0.00078765	0.00022013	1059.7	8.1834e-06	8.6706e-06	1151	228.15	8.2954e-06	8.7241e-06	289.28	81.834	64.03	19.225	8.2148e-06	26.901	202.966	253.491	228.618	189.980	319.082	368.401	189.752	197.050	310.910	313.577	196.764	203.124	203.948	211.679	328.170	210.944	-8191	255	
14743.843	1	1	0	0	0.1117	0.29909	0.073104	0.34447	0.1357	0.24661	0.13391	0.34326	0.18565	0.10205	0.056456	0.055707	0.026331	0.20758	0.21733	0.1077	-2.4229	-2.5125	-2.925	-2.9375	-2.6188	-3.1	-2.5542	-2.9625	-2.8979	-2.7125	-3.0833	-2.75	-2.8708	-2.9146	-2.6167	-2.7667	250.213	452.709	432.369	354.867	385.082	497.218	396.078	419.894	423.345	505.677	448.584	362.851	288.897	516.173	209.119	369.017	0.00022639	0.00019058	4.7449e-05	1073	2.0138e-06	1.265e-06	1162.2	229.32	2.4382e-06	1.8484e-06	288.68	80.977	63.817	18.79	3.0242e-06	26.537	0.0005494	0.00077189	0.00021078	1059.6	8.0466e-06	8.3846e-06	1149.2	228.5	8.1407e-06	8.8303e-06	289.61	81.816	64.089	19.194	8.3501e-06	27.003	208.959	303.556	342.217	189.901	283.886	293.125	189.861	197.066	297.567	311.138	197.376	203.538	203.864	211.531	327.410	210.721	-8191	255	
14743.939	1	1	0	0	0.11261	0.17393	0.14419	0.096007	0.25385	0.063209	0.25465	0.14669	0.54015	0.11667	0.29306	0.28291	0.27665	0.26633	0.11469	0.11105	-2.4	-2.5542	-3.1	-2.8271	-2.5917	-2.9396	-2.9229	-2.7521	-2.9792	-2.5271	-3.1229	-2.8708	-2.7625	-3.1312	-2.6729	-2.9188	356.066	465.324	479.201	381.003	235.978	227.695	181.458	219.966	360.056	399.914	280.112	416.890	386.760	298.575	373.226	492.059	0.00027078	0.00032457	0.00015293	1072	3.3648e-06	3.3591e-06	1158.3	230.37	2.7915e-06	3.3873e-06	289.21	81.013	63.45	19.018	1.1242e-06	26.282	0.00054852	0.00076716	0.00021678	1057.9	7.9678e-06	8.6074e-06	1149.3	228.82	8.1873e-06	8.5622e-06	289.66	81.7	64.061	19.236	8.3038e-06	26.848	206.088	250.386	261.604	189.995	323.311	325.091	190.114	196.955	306.951	316.202	197.290	203.298	203.358	211.517	294.010	210.751	-8191	255	
14744.060	1	1	0	0	0.30199	0.13452	0.2989	0.1635	0.17611	0.19764	0.1372	0.12157	0.097552	0.12467	0.10888	0.084703	0.12251	0.10697	0.1682	0.29478	-2.6104	-2.6104	-2.9021	-2.9292	-2.5687	-3.0646	-2.8021	-2.8708	-3.1333	-2.5167	-3.0375	-2.8271	-2.7083	-3.0396	-2.5208	-2.85	206.211	392.553	287.064	492.258	451.124	486.390	515.122	430.296	373.128	517.153	387.785	394.621	374.063	498.620	485.992	528.878	0.00022614	0.00045261	6.9523e-05	1078.9	1.0715e-06	2.2109e-06	1160.9	229.37	3.8565e-06	2.2624e-06	288.65	81.484	63.358	18.912	3.2489e-06	26.346	0.00055734	0.0007798	0.00021654	1060.9	8.2708e-06	8.7125e-06	1148.3	228.73	8.125e-06	8.5611e-06	289.28	81.884	64.16	19.231	8.4198e-06	26.967	205.925	251.447	307.296	189.998	290.919	347.890	189.896	197.279	279.231	347.014	197.355	203.235	203.728	211.127	320.647	210.912	-8191	255	
14744.156	1	1	0	0	0.061772	0.14479	0.19404	0.33288	0.074861	0.10032	0.15686	0.12721	0.1294	0.079023	0.23038	0.20857	0.28523	0.19116	0.060185	0.14873	-2.6396	-2.5375	-2.7833	-2.95	-2.6	-3.0604	-2.9	-2.8979	-3.0604	-2.4646	-3.0167	-2.9292	-2.6542	-2.9604	-2.7438	-2.7062	219.453	470.321	383.867	202.991	228.198	233.361	435.741	443.582	409.857	399.494	536.294	392.815	414.825	450.723	343.440	401.540	0.00025018	0.00039411	0.00011258	1076.3	1.6016e-06	1.6799e-06	1159.6	228.77	3.4404e-06	3.6514e-06	290.11	80.943	63.46	18.972	4.3669e-06	26.365	0.00054171	0.00078736	0.00021521	1061.3	8.291e-06	8.5359e-06	1149.8	228.22	8.0847e-06	8.7557e-06	289.18	81.795	64.1	19.254	8.465e-06	26.928	203.984	254.374	269.097	190.079	259.384	301.555	189.920	197.223	284.312	338.996	196.885	203.063	203.862	211.523	338.218	211.051	-8191	255	
14744.252	1	1	0	0	0.22094	0.20943	0.21814	0.051372	0.17655	0.14474	0.18314	0.28671	0.24002	0.18178	0.24383	0.26523	0.26671	0.12869	0.11289	0.12555	-2.6896	-2.6292	-2.7771	-3.0646	-2.4917	-3.0563	-2.8458	-2.7313	-3.0583	-2.6271	-2.9375	-3.1729	-2.4562	-2.9729	-2.9	-2.5167	288.310	255.842	329.638	476.236	504.354	331.004	453.167	185.723	242.471	421.371	398.650	202.212	262.766	185.562	444.262	522.946	0.00023043	0.00033775	0.00016194	1073.9	3.0378e-06	3.225e-06	1157.5	229.87	3.1026e-06	2.5779e-06	290.06	80.86	63.697	18.966	1.9523e-06	26.417	0.00054431	0.00078989	0.00021174	1058.6	8.0538e-06	8.746e-06	1148.3	228.81	7.9806e-06	8.6559e-06	289.62	81.807	64.159	19.244	8.432e-06	26.963	203.640	232.826	299.776	190.184	319.996	307.412	190.074	197.120	301.206	325.930	196.889	203.155	203.658	211.361	358.949	210.727	-8191	255	
14744.348	1	1	0	0	0.21413	0.17281	0.18225	0.36591	0.13971	0.16102	0.30481	0.21429	0.091916	0.22355	0.13474	0.19723	0.21427	0.44264	0.13404	0.3017	-2.7521	-2.5979	-2.6771	-3.0042	-2.5667	-2.9	-3.0292	-2.7604	-3.0375	-2.7208	-2.8042	-2.8917	-2.5792	-2.8229	-3.0438	-2.4854	298.279	211.384	514.760	536.749	223.111	519.427	486.439	510.761	301.571	248.150	499.283	530.365	387.447	535.480	199.899	472.122	0.00022307	0.00038947	2.2819e-05	1074.6	1.9012e-06	6.0707e-06	1156.3	229.13	2.0833e-06	2.905e-06	290.53	81.406	63.966	18.98	3.6412e-06	26.532	0.00053616	0.00078048	0.00022442	1058.4	7.9649e-06	8.8951e-06	1148.3	228.56	8.1643e-06	8.9055e-06	290.06	81.94	64.261	19.275	8.3216e-06	27.005	199.302	251.696	284.100	190.019	274.568	338.242	189.490	197.389	307.078	339.762	197.411	203.401	203.891	211.117	308.800	210.808	-8191	255	
14744.443	1	1	0	0	0.1415	0.15175	0.07917	0.19936	0.18086	0.0065052	0.16492	0.10641	0.027972	0.17072	0.33239	0.33737	0.23938	0.049037	0.049336	0.052479	-2.575	-2.8167	-2.5604	-3.0375	-2.5458	-2.7771	-3.1021	-2.5875	-2.8375	-2.5687	-2.7167	-3.0521	-2.7042	-2.7687	-3.0458	-2.3292	344.626	181.951	194.112	267.787	296.660	360.860	418.817	452.312	252.419	245.910	373.588	477.391	499.332	286.858	408.824	462.388	0.00024764	0.00010111	7.461e-05	1073.7	3.4588e-06	4.4801e-06	1163.4	229.84	3.8667e-06	2.2439e-06	290.92	81.357	63.871	19.007	1.6751e-06	26.157	0.00054433	0.00080702	0.00021493	1060.3	8.5147e-06	8.669e-06	1149.6	228.78	8.012e-06	8.7448e-06	290.03	82.108	64.269	19.271	8.4381e-06	26.843	202.433	235.084	263.840	190.092	322.758	350.410	189.809	197.211	293.656	375.044	196.700	203.298	203.443	211.393	327.390	210.797	-8191	255	
14744.539	1	1	0	0	0.16359	0.26233	0.28305	0.29221	0.019055	0.20723	0.13863	0.13315	0.10964	0.30799	0.14095	0.37724	0.21596	0.16066	0.11481	0.10311	-2.6646	-2.7042	-2.6396	-3.2146	-2.9375	-2.9542	-3.0604	-2.6208	-2.9021	-2.8563	-2.5563	-3.2438	-2.7104	-2.6625	-3.0729	-2.5187	417.606	452.919	236.144	481.516	295.199	467.418	443.259	365.420	514.854	224.077	469.089	494.364	478.281	525.867	534.006	320.772	0.0002578	3.7167e-05	0.00011131	1077.2	2.2175e-06	3.474e-06	1161	228.66	2.404e-06	2.6595e-06	291.11	81.036	63.508	18.978	7.928e-07	26.36	0.00055367	0.00077262	0.00021082	1061.6	8.4028e-06	8.6871e-06	1148.5	228.62	8.2654e-06	8.7012e-06	290.24	82.102	64.076	19.309	8.5383e-06	26.962	203.481	432.124	263.589	189.752	282.943	342.554	189.809	197.277	269.915	326.365	196.956	203.269	203.775	211.288	271.447	210.779	-8191	255	
14744.659	1	1	0	0	0.20331	0.11504	0.18016	0.18276	0.18078	0.31272	0.30672	0.15635	0.11971	0.17859	0.24821	0.083462	0.25744	0.094274	0.29639	0.15676	-2.4583	-2.8438	-2.5312	-3.1708	-2.7938	-2.7125	-3.2333	-2.7104	-2.7771	-2.9958	-2.775	-2.8646	-2.8729	-2.6354	-3.0958	-2.6063	324.953	233.691	356.136	180.467	323.865	529.199	483.431	227.464	457.206	445.521	528.359	361.877	272.701	401.977	421.724	530.481	0.0002418	0.00024249	6.2156e-05	1073.2	3.8082e-06	1.0012e-06	1158.7	230.77	3.6943e-06	3.9047e-06	290.46	81.221	63.807	18.994	2.9969e-06	26.41	0.00055493	0.00079804	0.00022242	1059.7	8.3058e-06	8.8467e-06	1149.3	229.01	8.2747e-06	8.9088e-06	289.87	81.937	64.318	19.246	8.3124e-06	26.987	202.269	261.630	258.061	190.096	317.072	329.023	189.835	197.154	297.970	359.254	197.241	203.529	203.658	210.916	346.797	210.792	-8191	255	
14744.756	1	1	0	0	0.042488	0.14985	0.11848	0.2244	0.19006	0.10132	0.14008	0.1882	0.21501	0.11665	0.20687	0.09592	0.18437	0.31166	0.093727	0.12285	-2.475	-2.7771	-2.5604	-3.0729	-2.8542	-2.5104	-3.3125	-2.7021	-2.6917	-2.9792	-2.6083	-3	-2.7208	-2.6771	-3.0167	-3.0271	494.689	374.492	346.829	473.395	353.219	245.782	441.618	457.049	464.855	237.415	218.066	185.652	525.117	255.389	219.134	507.033	0.00022996	0.00022054	0.00010955	1075.2	2.6027e-06	2.5025e-06	1158.5	229.64	2.581e-06	2.9473e-06	291.26	81.117	63.666	19.003	3.6726e-06	26.39	0.00056643	0.00079394	0.00022378	1059.8	8.2161e-06	8.9836e-06	1148.9	229.11	8.3351e-06	8.9323e-06	290	81.887	64.167	19.289	8.4574e-06	26.9	199.091	262.368	254.135	189.882	308.481	349.661	190.010	197.253	293.570	318.556	197.007	203.476	203.916	211.540	289.593	211.017	-8191	255	
14744.852	1	1	0	0	0.20894	0.12873	0.18679	0.16789	0.15235	0.19552	0.26239	0.028398	0.085369	0.12168	0.16126	0.31349	0.27472	0.064748	0.097503	0.15601	-2.2667	-3.0271	-2.6083	-2.9938	-2.9542	-2.7313	-3.0542	-2.9708	-2.6979	-2.9938	-2.6896	-2.7979	-3.0625	-2.6542	-2.9396	-2.875	272.504	259.323	442.459	462.306	233.545	300.123	466.402	508.489	376.232	230.003	522.705	459.391	256.209	375.282	465.156	424.909	0.00022088	0.00041571	0.00016075	1072.6	3.5697e-06	3.0718e-06	1161.9	229	3.2829e-06	5.6469e-06	289.06	81.233	63.48	18.804	2.4058e-06	26.327	0.00056206	0.0007817	0.00023072	1058.2	8.3889e-06	9.1492e-06	1151.4	229.07	8.5134e-06	9.087e-06	289.37	81.959	64.034	19.267	8.5459e-06	26.891	202.974	254.312	249.080	190.076	295.840	298.419	189.916	197.484	291.618	312.371	196.899	203.231	203.728	211.229	276.590	210.816	-8191	255	
14744.948	1	1	0	0	0.28983	0.1557	0.044363	0.046888	0.022175	0.050149	0.132	0.19185	0.032168	0.17428	0.21364	0.060223	0.23381	0.13583	0.11947	0.20819	-2.1333	-3.0854	-2.5687	-2.7875	-2.8729	-2.5812	-2.9979	-2.6958	-2.5729	-3.0042	-2.7438	-2.6958	-3.1146	-2.5438	-3.1146	-2.8771	454.312	368.598	181.488	396.882	216.638	520.485	489.686	484.383	391.195	420.966	427.270	224.264	514.533	194.797	201.794	496.915	0.00023394	0.00044939	0.00010232	1076.2	2.383e-06	6.4487e-07	1164.4	229.98	2.4597e-06	4.3193e-06	291.44	81.017	63.919	18.926	4.3018e-06	26.356	0.00055632	0.00079092	0.00022523	1061.2	8.1195e-06	9.2224e-06	1152	229.03	8.286e-06	8.7813e-06	290.34	82.019	64.167	19.317	8.3882e-06	26.931	197.918	299.385	244.188	190.035	313.920	368.989	189.942	196.986	265.133	279.071	197.092	203.506	203.937	211.453	311.694	211.094	-8191	255	
14745.020	1	1	0	0	0.25657	0.09482	0.24966	0.10392	0.15962	0.034866	0.26319	0.075876	0.15199	0.11167	0.17574	0.057856	0.090271	0.11818	0.14347	0.12162	-2.0292	-3.0583	-2.5292	-2.8271	-2.9792	-2.4729	-3.0729	-2.9021	-2.4708	-3.1625	-2.5958	-2.8187	-3.0563	-2.6104	-2.9396	-2.7896	536.893	246.209	362.214	207.115	336.755	441.905	480.209	450.146	196.972	466.873	482.078	344.959	458.420	209.854	276.484	531.048	0.00025127	0.00030552	7.2432e-05	1076.4	3.5142e-06	4.5531e-06	1162	229.77	3.2999e-06	3.278e-06	290.7	81.433	63.721	18.981	2.8554e-06	26.283	0.00056088	0.00077062	0.00022577	1061.4	8.1517e-06	8.7444e-06	1151.4	229.4	8.6813e-06	8.5884e-06	290.35	82.09	64.207	19.299	8.2687e-06	26.907	201.885	252.365	327.851	190.021	272.700	336.669	189.872	196.956	308.857	326.369	197.045	203.490	203.784	210.925	329.100	211.156	-8191	255	
14745.140	1	1	0	0	0.19742	0.21328	0.15676	0.31758	0.16888	0.18166	0.23023	0.11819	0.074741	0.19149	0.14672	0.19419	0.38708	0.15154	0.10259	0.17215	-2.1729	-2.9708	-2.9042	-2.6917	-3.1625	-2.475	-2.9562	-2.9188	-2.4104	-3.0917	-2.7958	-2.6521	-2.9333	-2.7271	-2.7083	-3.0021	339.611	493.082	356.026	480.173	368.606	448.253	485.454	498.027	524.868	210.116	201.974	455.253	520.782	409.781	222.570	437.841	0.00025937	0.00030971	8.1979e-05	1074.3	3.3471e-06	3.0803e-06	1161.7	230.13	4.1866e-06	3.378e-06	289.95	80.792	63.684	18.849	1.8344e-06	26.519	0.0005589	0.00077638	0.00021999	1061.7	8.0639e-06	9.1272e-06	1151	229.23	8.1397e-06	8.6478e-06	289.69	81.915	64.165	19.304	8.548e-06	26.996	202.810	296.130	235.169	190.196	324.490	309.848	190.040	197.159	290.206	317.241	196.889	203.611	203.645	211.161	296.939	210.756	-8191	255	
14745.236	1	1	0	0	0.099748	0.12224	0.3188	0.12826	0.073689	0.07856	0.16732	0.2716	0.22195	0.13181	0.30195	0.08001	0.10104	0.12926	0.16083	0.22834	-2.2875	-2.8688	-3.0917	-2.7646	-3.0229	-2.7938	-3.0542	-3.0896	-2.7021	-2.8583	-2.8771	-2.7062	-3.2938	-2.8063	-2.8125	-3.075	461.008	497.412	191.919	197.918	192.455	481.628	490.050	499.726	444.954	404.904	512.517	339.769	222.319	533.046	536.011	457.280	0.00023996	0.00028525	9.9036e-05	1078.1	2.0564e-06	3.5001e-06	1156.3	230.49	2.6858e-06	3.5996e-06	289.09	81.023	63.476	18.93	3.026e-06	26.527	0.00057292	0.00078082	0.00022474	1062.2	8.2026e-06	8.9193e-06	1148.7	229.34	8.3415e-06	8.6287e-06	289.29	82.063	64.106	19.302	8.4101e-06	27	205.846	280.602	250.292	190.044	303.177	320.453	190.167	197.201	301.285	332.074	197.244	203.407	203.482	211.311	301.045	210.631	-8191	255	
14745.333	1	1	0	0	0.22682	0.026289	0.27304	0.233	0.27802	0.045012	0.29244	0.17375	0.091331	0.13703	0.035944	0.14467	0.34234	0.24515	0.32514	0.25285	-2.225	-2.8917	-3.1042	-2.6271	-3.0833	-2.9021	-2.7333	-3.1375	-2.5875	-2.8937	-2.8812	-2.7292	-2.9375	-3.0021	-2.4917	-3.2542	414.138	312.668	395.769	515.062	462.243	342.804	527.027	236.466	362.082	218.056	201.019	425.256	480.160	251.659	538.473	363.946	0.00021756	0.00035814	0.00016632	1075.5	2.4149e-06	3.6048e-06	1167.4	229.49	2.9982e-06	2.7319e-06	291.06	81.006	63.4	19.068	2.3592e-06	26.648	0.00054967	0.00080287	0.0002149	1061.7	8.217e-06	8.9759e-06	1152.1	229.04	8.4314e-06	8.7557e-06	290.32	82.051	64.118	19.29	8.3048e-06	27.027	198.740	308.012	297.018	189.740	285.664	314.885	189.633	197.120	275.434	323.672	196.774	203.199	203.242	211.099	353.066	211.452	-8191	255	
14745.451	1	1	0	0	0.27605	0.23292	0.17735	0.12366	0.21504	0.13781	0.23042	0.41834	0.076845	0.18207	0.070201	0.16806	0.12033	0.12194	0.19424	0.17027	-2.1729	-2.8521	-2.9313	-2.6958	-3.0812	-2.8688	-2.6271	-3.1667	-2.6542	-2.9	-3.0563	-2.7896	-3.05	-3.0708	-2.425	-3.2292	332.376	364.123	317.427	494.965	244.069	338.515	189.693	478.128	407.618	191.342	502.426	287.967	390.710	288.363	430.800	366.158	0.00021844	0.00021383	0.00010506	1073.1	2.5843e-06	2.7801e-06	1161.2	231.04	2.3789e-06	3.609e-06	290.79	81.231	63.462	18.93	2.2447e-06	26.545	0.00056592	0.00079887	0.00021711	1060.2	8.1474e-06	8.8456e-06	1150.7	229.16	8.0749e-06	8.4145e-06	289.91	81.978	64.175	19.242	8.1079e-06	26.956	202.473	285.903	275.847	189.981	300.892	346.905	190.014	197.123	312.002	347.072	197.249	203.212	204.487	211.231	335.249	210.753	-8191	255	
14745.548	1	1	0	0	0.10847	0.26784	0.21721	0.24362	0.26826	0.030221	0.25353	0.15551	0.12498	0.26951	0.13335	0.10939	0.16156	0.22385	0.12977	0.38836	-2.3708	-2.7167	-3.0521	-2.8875	-2.9271	-2.9667	-2.8792	-3.0187	-2.7687	-2.7604	-3.1583	-2.6583	-2.8271	-2.9479	-2.5938	-3.35	345.408	223.757	318.587	535.023	501.896	526.548	509.981	224.179	362.563	300.412	183.577	269.361	421.248	515.811	233.000	495.348	0.0002652	0.0001705	0.00010048	1073.4	8.6375e-07	1.1283e-06	1160.6	229.89	1.6829e-06	3.817e-06	292.53	81.01	63.589	18.852	5.1743e-06	26.582	0.00054187	0.00078687	0.00021425	1061.1	8.2761e-06	8.729e-06	1150	228.92	8.3071e-06	8.6118e-06	290.58	81.864	64.03	19.247	8.3689e-06	26.99	207.017	285.124	268.491	190.029	334.566	408.610	190.082	197.025	310.379	300.248	197.130	203.232	203.473	211.149	331.232	211.035	-8191	255	
#DATA ENDS
