BOXY.EXE: ISS Imagent and Oximeter Data Acquisition Program Version 0.80
Ascii Record File

#ACQ INFORMATION
2  Detector Channels 
16  External MUX Channels 
1  Auxiliary Channels 
5000  Waveform (CCF) Frequency (Hz)
1  Waveforms Skipped 
30  Waveforms Averaged 
1  Cycles Averaged 
16  Acquisitions per Waveform 
10.0806  Updata Rate (Hz) 

#FILE INFORMATION
TRUE -- External MUX Channel results are PARSED.
FALSE -- AC DC and Phase are NOT grouped.
TRUE -- Companion Program Settings File CREATED.
FALSE -- AC data not excluded
FALSE -- DC data not excluded
FALSE -- Phase data not excluded
FALSE -- Auxillary Chn. data not excluded
Tab delimiters

#CALIBRATION STATE
TRUE -- Waveform Calibration Values APPLIED.


#AUX CALIBRATION VALUES
Val Type	aux-1	

Term	1.0000e+00	
Factor	0.0000e+00	


#WF CALIBRATION VALUES
A = Detector Channel
Val Type	A-AC1	A-AC2	A-AC3	A-AC4	A-AC5	A-AC6	A-AC7	A-AC8	A-AC9	A-AC10	A-AC11	A-AC12	A-AC13	A-AC14	A-AC15	A-AC16	A-DC1	A-DC2	A-DC3	A-DC4	A-DC5	A-DC6	A-DC7	A-DC8	A-DC9	A-DC10	A-DC11	A-DC12	A-DC13	A-DC14	A-DC15	A-DC16	A-Ph1	A-Ph2	A-Ph3	A-Ph4	A-Ph5	A-Ph6	A-Ph7	A-Ph8	A-Ph9	A-Ph10	A-Ph11	A-Ph12	A-Ph13	A-Ph14	A-Ph15	A-Ph16	

Term	0.00000e+00	0.00000e+00	0.00000e+00	0.00000e+00	0.00000e+00	0.00000e+00	0.00000e+00	0.00000e+00	0.00000e+00	0.00000e+00	0.00000e+00	0.00000e+00	0.00000e+00	0.00000e+00	0.00000e+00	0.00000e+00	0.00000e+00	0.00000e+00	0.00000e+00	0.00000e+00	0.00000e+00	0.00000e+00	0.00000e+00	0.00000e+00	0.00000e+00	0.00000e+00	0.00000e+00	0.00000e+00	0.00000e+00	0.00000e+00	0.00000e+00	0.00000e+00	0.00000e+00	0.00000e+00	0.00000e+00	0.00000e+00	0.00000e+00	0.00000e+00	0.00000e+00	0.00000e+00	0.00000e+00	0.00000e+00	0.00000e+00	0.00000e+00	0.00000e+00	0.00000e+00	0.00000e+00	0.00000e+00	
Factor	1.00000e+00	1.00000e+00	1.00000e+00	1.00000e+00	1.00000e+00	1.00000e+00	1.00000e+00	1.00000e+00	1.00000e+00	1.00000e+00	1.00000e+00	1.00000e+00	1.00000e+00	1.00000e+00	1.00000e+00	1.00000e+00	1.00000e+00	1.00000e+00	1.00000e+00	1.00000e+00	1.00000e+00	1.00000e+00	1.00000e+00	1.00000e+00	1.00000e+00	1.00000e+00	1.00000e+00	1.00000e+00	1.00000e+00	1.00000e+00	1.00000e+00	1.00000e+00	X	X	X	X	X	X	X	X	X	X	X	X	X	X	X	X	

B = Detector Channel
Val Type	B-AC1	B-AC2	B-AC3	B-AC4	B-AC5	B-AC6	B-AC7	B-AC8	B-AC9	B-AC10	B-AC11	B-AC12	B-AC13	B-AC14	B-AC15	B-AC16	B-DC1	B-DC2	B-DC3	B-DC4	B-DC5	B-DC6	B-DC7	B-DC8	B-DC9	B-DC10	B-DC11	B-DC12	B-DC13	B-DC14	B-DC15	B-DC16	B-Ph1	B-Ph2	B-Ph3	B-Ph4	B-Ph5	B-Ph6	B-Ph7	B-Ph8	B-Ph9	B-Ph10	B-Ph11	B-Ph12	B-Ph13	B-Ph14	B-Ph15	B-Ph16	

Term	0.00000e+00	0.00000e+00	0.00000e+00	0.00000e+00	0.00000e+00	0.00000e+00	0.00000e+00	0.00000e+00	0.00000e+00	0.00000e+00	0.00000e+00	0.00000e+00	0.00000e+00	0.00000e+00	0.00000e+00	0.00000e+00	0.00000e+00	0.00000e+00	0.00000e+00	0.00000e+00	0.00000e+00	0.00000e+00	0.00000e+00	0.00000e+00	0.00000e+00	0.00000e+00	0.00000e+00	0.00000e+00	0.00000e+00	0.00000e+00	0.00000e+00	0.00000e+00	8.11284e+01	-1.20153e+02	-1.26350e+02	-1.81567e+02	-8.84902e+01	-8.40959e+01	-1.56561e+02	-1.62015e+02	-9.69263e+01	-8.38922e+01	-1.71055e+02	-1.71474e+02	-1.84436e+02	-1.76931e+02	-7.91405e+01	-1.49939e+02	
Factor	6.50912e-05	1.46992e-04	3.41674e-05	2.12455e-01	1.30598e-06	1.78741e-06	1.67938e-01	5.12696e-02	2.14687e-06	1.52923e-06	8.73862e-02	3.30830e-02	4.09064e-02	9.26272e-03	1.52222e-06	1.33558e-02	1.62652e-06	1.68806e-06	4.69002e-07	1.07451e-01	1.84094e-08	1.85136e-08	8.01808e-02	2.60849e-02	1.83594e-08	1.85120e-08	4.27707e-02	1.61030e-02	2.01847e-02	4.70032e-03	1.84195e-08	6.52597e-03	X	X	X	X	X	X	X	X	X	X	X	X	X	X	X	X	



#DISTANCE SETTINGS
A = Detector Channel
A-1	A-2	A-3	A-4	A-5	A-6	A-7	A-8	A-9	A-10	A-11	A-12	A-13	A-14	A-15	A-16	

2.5000e+00	3.0000e+00	2.5000e+00	3.0000e+00	2.0000e+00	3.0000e+00	1.5000e+00	3.0000e+00	3.0000e+00	3.0000e+00	3.0000e+00	3.0000e+00	3.0000e+00	3.0000e+00	1.5000e+00	3.0000e+00	

B = Detector Channel
B-1	B-2	B-3	B-4	B-5	B-6	B-7	B-8	B-9	B-10	B-11	B-12	B-13	B-14	B-15	B-16	

1.0000e+01	1.0000e+01	1.0000e+01	1.4400e+00	1.0000e+01	1.0000e+01	1.5100e+00	1.9400e+00	1.0000e+01	1.0000e+01	1.9900e+00	2.4900e+00	2.4100e+00	2.9000e+00	1.0000e+01	2.9800e+00	




#DATA BEGINS
time	group	step	mark	flag	A-AC1	A-AC2	A-AC3	A-AC4	A-AC5	A-AC6	A-AC7	A-AC8	A-AC9	A-AC10	A-AC11	A-AC12	A-AC13	A-AC14	A-AC15	A-AC16	A-DC1	A-DC2	A-DC3	A-DC4	A-DC5	A-DC6	A-DC7	A-DC8	A-DC9	A-DC10	A-DC11	A-DC12	A-DC13	A-DC14	A-DC15	A-DC16	A-Ph1	A-Ph2	A-Ph3	A-Ph4	A-Ph5	A-Ph6	A-Ph7	A-Ph8	A-Ph9	A-Ph10	A-Ph11	A-Ph12	A-Ph13	A-Ph14	A-Ph15	A-Ph16	B-AC1	B-AC2	B-AC3	B-AC4	B-AC5	B-AC6	B-AC7	B-AC8	B-AC9	B-AC10	B-AC11	B-AC12	B-AC13	B-AC14	B-AC15	B-AC16	B-DC1	B-DC2	B-DC3	B-DC4	B-DC5	B-DC6	B-DC7	B-DC8	B-DC9	B-DC10	B-DC11	B-DC12	B-DC13	B-DC14	B-DC15	B-DC16	B-Ph1	B-Ph2	B-Ph3	B-Ph4	B-Ph5	B-Ph6	B-Ph7	B-Ph8	B-Ph9	B-Ph10	B-Ph11	B-Ph12	B-Ph13	B-Ph14	B-Ph15	B-Ph16	aux-1	digaux	

986.225	1	1	0	512	0.21435	0.17779	0.21881	0.22136	0.21871	0.28513	0.36957	0.23936	0.033855	0.28766	0.24041	0.2169	0.37936	0.37899	0.070924	0.14471	-2.1188	-3.0563	-2.7396	-2.8125	-3.0938	-2.6104	-3.1896	-3.0979	-2.5854	-3.0146	-2.8354	-2.9437	-3.0042	-2.9125	-2.9083	-3.2625	-40.624	7.972	20.140	-46.513	-42.198	-38.174	211.692	259.335	132.749	22.862	-85.230	249.678	-31.213	-77.845	245.470	-88.243	0.001901	0.0011625	0.00050922	1389	9.2754e-06	5.968e-06	1496.1	508.08	1.924e-05	4.2719e-06	679.85	287.57	211.34	85.659	9.8389e-06	125.19	0.0013094	0.0013154	0.00036861	1335.3	1.4385e-05	1.4492e-05	1421.9	481.99	1.428e-05	1.4568e-05	647.87	272.38	203.58	81.792	1.4443e-05	118.33	41.018	25.753	-9.995	-77.363	56.095	198.121	-78.278	-71.921	-15.361	243.104	-73.730	-69.548	-68.265	-61.939	22.512	-65.469	-8191	255	
986.321	1	1	0	0	0.086431	0.29215	0.043889	0.086216	0.069522	0.17219	0.21289	0.10286	0.1074	0.33905	0.062081	0.23788	0.22523	0.22652	0.13629	0.2752	-2.1813	-2.9479	-2.7375	-2.7667	-2.9813	-2.775	-3.0854	-3.2208	-2.7229	-2.8792	-3.0771	-2.6937	-3.3229	-2.8979	-2.675	-3.0438	61.036	18.765	62.537	129.834	255.811	58.847	256.795	258.522	205.407	243.778	238.961	-66.562	259.026	269.788	-28.737	202.612	0.0016167	0.0019324	0.00021018	1381.7	1.7251e-05	1.0435e-05	1496.4	507.05	1.6364e-05	1.6667e-06	679.74	288.28	213.34	86.642	4.2701e-06	126.27	0.0013079	0.001331	0.00036803	1333.7	1.4307e-05	1.4646e-05	1420.6	483.53	1.4511e-05	1.4785e-05	647.64	272.63	205.31	82.508	1.4738e-05	118.82	28.658	-11.473	8.774	-77.299	41.327	60.360	-78.395	-72.106	78.994	46.543	-73.864	-69.612	-68.082	-62.204	27.592	-65.215	-8191	255	
986.417	1	1	0	0	0.29552	0.15837	0.079973	0.20369	0.12457	0.12315	0.35841	0.31792	0.37203	0.21858	0.22215	0.081524	0.19865	0.22942	0.15405	0.41332	-2.2562	-2.9396	-2.7271	-2.7771	-2.9771	-2.7354	-3.0125	-3.15	-2.7	-2.8417	-3.1104	-2.6458	-3.1854	-2.9396	-2.6125	-3.1188	35.271	217.692	164.773	-56.238	5.141	20.807	205.109	189.669	206.452	126.368	246.002	-55.617	148.519	229.172	92.741	221.457	0.0015174	0.0004121	4.4979e-05	1390.5	5.8533e-06	1.0798e-05	1500	508.35	6.729e-06	2.3405e-05	685.78	289.88	214.41	87.008	1.3886e-06	126.2	0.0013333	0.0013495	0.00037557	1341.5	1.4641e-05	1.4809e-05	1426.2	484.4	1.4616e-05	1.4934e-05	651.64	274.85	205.77	82.99	1.4761e-05	119.58	46.371	102.144	217.961	-77.298	14.450	12.784	-78.394	-71.937	31.862	30.728	-73.692	-69.347	-68.226	-61.974	-0.178	-65.145	-8191	255	
986.538	1	1	0	0	0.049712	0.2159	0.27184	0.2908	0.15751	0.31517	0.17674	0.18817	0.25566	0.062497	0.20264	0.2639	0.11582	0.23052	0.12186	0.29368	-2.2125	-2.8042	-2.9854	-2.6937	-3.0208	-2.8646	-2.7646	-3.0792	-2.625	-2.8271	-3.2146	-2.7188	-3.0542	-3.1167	-2.7208	-3.3312	81.067	-43.981	223.955	265.533	2.581	45.641	216.366	265.059	252.130	-7.570	223.986	241.586	-29.586	-82.058	157.541	222.081	0.001666	0.0019368	0.0003172	1394.2	1.7762e-05	1.559e-05	1503.3	510.25	1.1157e-05	1.259e-05	686.86	291.42	214.34	87.092	1.8496e-05	127.42	0.0013629	0.0013417	0.00037594	1344.2	1.4719e-05	1.4887e-05	1429.7	485.81	1.4618e-05	1.48e-05	653.8	275.84	206.59	83.129	1.4764e-05	120.1	7.117	-0.277	-11.327	-77.526	103.021	160.460	-78.333	-71.944	-42.647	27.619	-73.764	-69.647	-68.067	-62.275	51.838	-65.380	-8191	255	
986.634	1	1	0	0	0.085155	0.25873	0.15746	0.041591	0.21142	0.1684	0.31654	0.31064	0.16379	0.22614	0.34655	0.32405	0.093862	0.3026	0.15417	0.35404	-2.2375	-2.8208	-3.0146	-2.6729	-2.9271	-3.0083	-2.825	-3.3021	-2.8229	-2.9375	-3.3354	-2.8812	-3.0458	-2.9292	-2.6167	-3.2083	34.188	212.517	253.015	-18.014	-18.589	-20.052	189.184	194.234	156.884	114.209	233.508	239.943	252.468	259.309	193.870	246.641	0.0011706	0.00096017	0.00030637	1401.7	1.4155e-05	1.1793e-05	1506.9	512.55	1.0556e-05	1.8114e-05	690.23	292.08	216.07	87.889	1.6202e-05	127.39	0.0013485	0.0013586	0.00037291	1343.7	1.4752e-05	1.4733e-05	1434.9	488.05	1.4667e-05	1.48e-05	657.56	276.99	207.85	83.464	1.47e-05	120.44	25.946	32.189	-30.172	-77.708	57.384	27.203	-78.270	-72.099	46.974	20.895	-74.045	-69.374	-68.028	-62.044	33.759	-65.294	-8191	255	
986.730	1	1	0	0	0.079809	0.17376	0.14458	0.11446	0.27061	0.080813	0.28018	0.28746	0.059565	0.15798	0.24428	0.079502	0.17469	0.289	0.052255	0.23041	-2.3688	-2.7021	-3.075	-2.85	-3.0667	-2.9333	-2.7729	-3.0875	-2.6229	-2.7333	-3.3583	-3.0396	-3.1063	-3.2146	-2.5458	-3.1917	185.251	48.486	-82.457	267.066	168.857	13.487	208.810	215.776	224.391	18.791	249.608	238.553	239.595	219.929	97.860	196.764	0.0015408	0.0013517	0.00031715	1395.9	1.0039e-05	1.1901e-05	1501.4	512.17	2.7e-05	1.1234e-05	684.64	290.08	213.43	86.589	1.2765e-05	126.54	0.0013557	0.001357	0.00037941	1346.1	1.4891e-05	1.4784e-05	1426.7	486.41	1.4715e-05	1.4812e-05	650.86	274.74	206.09	82.724	1.4579e-05	119.43	30.196	3.949	-22.500	-77.471	195.563	67.009	-78.227	-72.020	-9.800	24.130	-73.796	-69.692	-68.009	-61.834	-38.011	-65.272	-8191	255	
986.827	1	1	0	0	0.16197	0.21726	0.21738	0.030465	0.037243	0.14404	0.20009	0.35792	0.16047	0.12348	0.060996	0.12962	0.14864	0.16948	0.20038	0.19725	-2.3896	-2.6188	-3.0396	-2.6667	-3.0354	-3.0229	-2.9021	-3.3229	-2.8979	-2.7938	-3.3833	-3.0396	-2.8937	-3.4229	-2.6854	-3.1	261.435	73.981	83.519	-47.780	30.706	-4.202	202.873	240.845	6.331	60.143	241.986	229.101	231.477	220.236	95.931	223.087	0.0013688	0.0015022	0.00036783	1395.6	7.3452e-06	1.5022e-05	1505.8	511.41	2.4245e-06	5.0912e-06	686.62	290.17	214.55	86.958	6.3477e-06	126	0.0013437	0.0013361	0.00037739	1343.5	1.4905e-05	1.474e-05	1427.9	485.71	1.4644e-05	1.4703e-05	651.86	274.26	206.34	82.916	1.4516e-05	119.27	54.632	53.085	15.321	-77.708	48.837	70.399	-78.318	-72.084	152.152	160.025	-73.855	-69.679	-68.117	-61.975	68.798	-65.152	-8191	255	
986.923	1	1	0	0	0.17999	0.16971	0.28937	0.36316	0.1146	0.16791	0.15295	0.33372	0.13072	0.15511	0.34213	0.24637	0.33984	0.207	0.21175	0.20159	-2.4062	-2.6396	-3.0521	-2.9833	-2.7833	-3.1708	-2.8312	-3.1625	-2.8917	-2.6104	-3.3708	-2.7979	-2.9146	-3.2021	-2.6396	-2.9854	-16.391	266.934	-40.612	245.111	140.001	-17.301	265.978	233.199	34.218	222.586	262.184	213.482	261.468	266.753	-51.929	264.816	0.001379	0.0015288	0.0001488	1381.5	1.3697e-05	7.6521e-06	1496.5	513.3	2.451e-05	1.6225e-05	685.45	291.6	214.49	87.156	1.3307e-05	126.75	0.0013394	0.0013312	0.0003767	1336.4	1.4533e-05	1.4772e-05	1424.6	487.41	1.4702e-05	1.4729e-05	652.56	275.88	206.5	83.105	1.4525e-05	119.98	43.869	21.640	53.557	-77.469	41.030	224.737	-78.345	-72.077	48.151	79.918	-73.872	-69.650	-68.087	-61.901	45.598	-65.079	-8191	255	
987.019	1	1	0	0	0.14534	0.050084	0.19103	0.40849	0.03443	0.39426	0.21299	0.2679	0.15274	0.10689	0.3787	0.48176	0.24585	0.10674	0.074458	0.15453	-2.4396	-2.4208	-3.0125	-2.9542	-2.5792	-3.1854	-3.1479	-3.075	-3.2021	-2.6521	-3.1354	-3.0625	-2.9437	-3.1667	-2.9646	-2.9917	76.130	235.801	-38.877	-86.698	144.037	-9.030	140.200	237.056	-50.602	17.149	193.541	231.804	197.841	-69.662	246.612	258.375	0.0019796	0.00023754	0.00038704	1384.5	1.5378e-05	6.3383e-06	1508.1	511.59	9.7699e-06	8.7148e-06	688.31	292.03	214.95	86.655	4.63e-06	126.92	0.0013547	0.0013377	0.00037882	1339.8	1.4521e-05	1.474e-05	1433.8	486.97	1.4748e-05	1.4559e-05	655.17	276.34	206.33	82.927	1.4622e-05	119.8	36.922	-42.707	101.590	-77.289	40.383	91.007	-78.620	-71.799	83.762	45.423	-73.438	-69.695	-68.333	-62.011	-55.658	-65.226	-8191	255	
987.139	1	1	0	0	0.34062	0.17261	0.19038	0.10011	0.10496	0.064662	0.28259	0.18077	0.20267	0.2046	0.13445	0.23234	0.35516	0.28899	0.21387	0.12117	-2.5958	-2.4542	-2.825	-3.1917	-2.6896	-3.1917	-2.9042	-3.0542	-3.0125	-2.7375	-3.0292	-2.9979	-2.7479	-3.3187	-2.8646	-2.7833	85.463	-70.679	-34.266	-74.608	-10.124	266.385	209.405	230.460	248.563	256.456	210.474	231.601	251.647	198.233	73.394	17.734	0.0010749	0.0013766	0.00023276	1392.7	1.2264e-05	6.5331e-06	1492	508.93	2.1449e-05	7.1436e-06	684.03	290.54	213.42	86.417	1.0936e-05	125.98	0.0013388	0.00134	0.00037647	1338.6	1.4487e-05	1.4776e-05	1422.3	483.73	1.4608e-05	1.443e-05	651.36	274.19	205.12	82.559	1.4551e-05	118.97	32.806	-37.799	20.338	-77.250	48.671	62.940	-78.334	-71.951	12.519	10.521	-73.418	-69.779	-67.992	-62.008	140.365	-65.162	-8191	255	
987.234	1	1	0	0	0.11868	0.21972	0.07756	0.14536	0.19992	0.10772	0.38658	0.17754	0.28846	0.12091	0.19144	0.39039	0.35864	0.11054	0.34347	0.25702	-2.7271	-2.7292	-2.8563	-3.1813	-2.7958	-3.2062	-3.0604	-2.8896	-3.1229	-2.7812	-3.2771	-3.1312	-2.825	-3.2708	-2.8771	-3.0833	234.514	87.893	-76.358	221.525	70.736	180.749	184.818	-74.784	246.439	249.134	187.657	236.585	212.117	82.749	166.094	174.515	0.0011906	0.0019116	0.00033285	1376.8	1.5557e-05	1.762e-05	1493.3	507.08	4.393e-06	1.538e-05	684.36	288.71	213.38	86.343	8.3385e-06	126.51	0.0013372	0.0013267	0.00037236	1332	1.4259e-05	1.4605e-05	1418.8	481.28	1.4365e-05	1.4203e-05	649.34	273.27	204.4	82.3	1.4592e-05	119.25	62.071	5.604	-18.481	-77.343	9.502	15.979	-78.150	-72.156	186.230	44.351	-73.860	-69.764	-67.917	-62.082	74.611	-65.146	-8191	255	
987.330	1	1	0	0	0.13161	0.24705	0.15117	0.25509	0.088128	0.15836	0.075829	0.12758	0.08152	0.30015	0.16843	0.24891	0.32225	0.21336	0.087321	0.28182	-2.7417	-2.7292	-2.9417	-3.2333	-2.7208	-3.0875	-2.9688	-2.9521	-3.2042	-2.7417	-3.0667	-3.3438	-2.6729	-2.9958	-2.8604	-2.7708	59.103	149.291	228.555	258.047	111.318	53.889	167.586	191.578	-57.570	-5.088	165.842	266.143	251.363	262.356	-43.913	268.890	0.0010146	0.0014332	6.4783e-05	1391.5	1.6471e-05	1.6878e-05	1500.1	507.92	7.1606e-06	6.8031e-06	685.49	291.63	212.72	86.533	1.6409e-05	127.57	0.0013312	0.0013361	0.00037228	1338.8	1.444e-05	1.4957e-05	1425.3	484.32	1.4682e-05	1.4798e-05	652.55	275.5	204.98	82.689	1.4941e-05	119.97	43.730	60.081	27.180	-77.339	58.057	36.357	-78.394	-71.839	-34.622	153.559	-73.642	-69.616	-67.860	-62.195	44.713	-65.145	-8191	255	
987.426	1	1	0	0	0.081272	0.23903	0.10019	0.079645	0.26062	0.055517	0.18517	0.16794	0.12087	0.14601	0.053305	0.18121	0.16191	0.26212	0.22016	0.39144	-2.7104	-2.6854	-2.9125	-3.3604	-2.775	-2.9813	-3.2146	-2.8396	-3.1688	-2.725	-2.9333	-3.4667	-2.8375	-3.1146	-3.0271	-2.8604	136.969	-49.557	267.740	77.384	0.294	143.960	212.026	154.951	-64.961	147.622	262.983	-85.057	210.381	240.756	10.607	213.765	0.0017743	0.0017055	0.00012781	1387.1	6.2016e-06	1.5584e-05	1505.7	510.57	4.8746e-06	1.2152e-05	686.41	292.16	215.34	87.328	9.1157e-06	127.2	0.0013429	0.0013493	0.00037239	1334.9	1.4524e-05	1.4968e-05	1430.1	485.44	1.4877e-05	1.483e-05	653.43	275.93	206.47	83.029	1.4853e-05	119.93	43.984	57.333	-53.135	-77.261	81.196	68.997	-78.559	-71.978	64.221	137.464	-73.300	-69.819	-68.252	-61.992	145.770	-65.068	-8191	255	
987.522	1	1	0	0	0.063988	0.31189	0.20648	0.099895	0.12624	0.1284	0.17507	0.13845	0.17128	0.21064	0.39102	0.28367	0.30556	0.18177	0.066422	0.30818	-2.5812	-2.7938	-2.85	-3.1271	-2.65	-3.0083	-3.2438	-2.8396	-3.0833	-2.9062	-2.8979	-3.3229	-2.8063	-3.0417	-2.9833	-2.8708	180.722	135.881	229.647	-55.540	49.564	90.752	230.338	252.381	20.433	-15.782	230.978	211.081	-48.534	263.035	81.773	209.803	0.00071511	0.0015419	1.6879e-05	1387.6	1.2128e-05	7.2921e-07	1495.3	508.21	1.6739e-05	5.3979e-06	684.39	289.13	214.44	86.408	5.7594e-06	126.36	0.0013546	0.0013419	0.00037465	1337.1	1.4671e-05	1.4917e-05	1421.7	482.39	1.471e-05	1.4682e-05	649.7	273.56	205.61	82.457	1.4874e-05	119.07	38.613	-11.476	2.429	-77.395	-16.384	112.424	-78.184	-71.941	78.603	57.015	-73.825	-69.428	-68.022	-62.042	127.416	-65.301	-8191	255	
987.618	1	1	0	0	0.010761	0.21004	0.22051	0.25204	0.29422	0.12634	0.28851	0.15839	0.1066	0.2224	0.14118	0.23162	0.32858	0.31476	0.20835	0.06449	-2.4562	-2.7812	-2.6521	-3.2375	-2.7354	-2.8625	-3.0917	-2.8354	-2.9167	-2.9125	-2.8208	-3.1167	-2.9125	-2.8771	-2.8312	-2.8021	178.709	207.136	41.868	-81.431	17.003	190.484	226.010	220.321	208.263	217.864	222.658	217.097	234.164	232.994	77.077	225.159	0.0016421	0.0015814	0.00013898	1381.5	1.075e-05	5.7732e-06	1489.9	506.1	8.5022e-06	1.366e-06	682.99	290.6	212.89	85.968	3.3607e-06	126.71	0.0013644	0.0013724	0.00037562	1329.7	1.4856e-05	1.4952e-05	1418	481.85	1.4781e-05	1.4928e-05	649.95	274.43	204.94	82.339	1.4884e-05	119.52	30.445	25.592	-12.960	-77.258	34.766	25.425	-78.066	-71.954	-32.079	208.480	-73.745	-69.503	-68.111	-61.998	-20.977	-65.335	-8191	255	
987.715	1	1	0	0	0.061306	0.17185	0.15752	0.093817	0.19226	0.1556	0.14151	0.32852	0.22814	0.18781	0.33601	0.30509	0.33945	0.34609	0.093517	0.25025	-2.4292	-2.7979	-2.6458	-3.1312	-2.8667	-2.8021	-3.2812	-2.9333	-2.8458	-2.9667	-2.9417	-3.3125	-2.9625	-2.9333	-3.0687	-3.1083	-62.463	206.137	-62.349	265.950	77.275	255.314	172.818	181.640	262.707	233.370	216.912	194.608	253.239	233.303	151.384	223.599	0.0013575	0.00088098	0.00032242	1375.9	1.001e-05	1.4512e-05	1497.5	507.68	5.463e-06	1.5997e-05	683.44	291.09	213.49	86.784	4.5837e-06	126.57	0.0013633	0.0013619	0.00037498	1332.7	1.4985e-05	1.4929e-05	1424.5	483.7	1.4894e-05	1.5127e-05	651.91	275.6	205.77	82.665	1.5046e-05	119.86	46.076	-32.994	-37.658	-77.069	75.443	-0.559	-78.387	-71.789	9.333	-19.002	-73.498	-69.506	-68.394	-62.140	202.507	-65.268	-8191	255	
987.835	1	1	0	0	0.14711	0.096807	0.19817	0.1767	0.076629	0.12192	0.36071	0.23392	0.14933	0.16284	0.36296	0.24583	0.17612	0.33505	0.089788	0.45487	-2.5646	-3.1083	-2.5833	-2.9917	-2.75	-2.7396	-3.4083	-2.9833	-2.8771	-3.1125	-2.7854	-3.2396	-3.0396	-2.8104	-2.9542	-2.9542	258.298	34.976	-5.188	190.985	31.893	-35.255	187.132	226.968	255.795	226.852	251.642	210.906	197.232	212.604	253.324	234.021	0.0015063	0.00086376	9.5405e-05	1386.4	5.1514e-06	9.4083e-06	1497	507.76	1.5237e-05	3.3312e-06	685.18	290.67	212.68	86.494	9.9923e-06	126.65	0.0013581	0.0013793	0.00037625	1334.5	1.4893e-05	1.4787e-05	1425.1	483.28	1.484e-05	1.512e-05	652.59	275.59	205.21	82.463	1.5034e-05	119.71	45.383	-47.751	262.382	-77.420	13.633	33.783	-78.088	-71.949	126.623	262.406	-73.501	-69.171	-67.768	-62.014	35.457	-65.307	-8191	255	
987.931	1	1	0	0	0.20846	0.12809	0.31191	0.16323	0.075887	0.21501	0.0077671	0.36416	0.21119	0.048516	0.24319	0.049793	0.23722	0.34926	0.11927	0.3471	-2.3125	-2.8708	-2.6667	-3.0792	-2.9792	-2.7417	-3.2396	-2.8312	-2.8125	-3.1708	-3.0542	-3.1271	-2.9771	-2.6771	-3.0021	-3.1937	-23.605	-74.119	-76.760	225.405	38.268	178.678	259.036	224.592	202.740	129.923	-85.971	227.684	-64.653	238.726	31.230	215.872	0.0013251	0.0020424	0.00025335	1382.1	8.6584e-06	7.9535e-06	1484.7	504.46	8.0061e-06	9.6422e-06	679.15	288.51	211.16	85.532	1.1519e-05	124.76	0.0013564	0.0013588	0.00037389	1325.8	1.4889e-05	1.4627e-05	1415.3	480.07	1.4611e-05	1.486e-05	646.94	272.67	204.11	81.703	1.4726e-05	118.71	30.579	-3.455	45.951	-77.366	105.500	-15.598	-78.340	-71.851	49.784	-9.016	-73.893	-69.365	-68.183	-62.076	97.601	-65.000	-8191	255	
988.003	1	1	0	0	0.087443	0.12949	0.17022	0.3099	0.098723	0.12212	0.11015	0.2306	0.12225	0.024696	0.2075	0.095937	0.11803	0.098913	0.072411	0.13035	-2.2708	-3.3292	-2.8083	-2.9042	-2.9562	-2.8063	-3.2021	-3.0167	-2.8042	-3.0542	-2.9479	-2.9313	-3.1063	-2.7854	-3.05	-3.1333	22.727	130.324	75.924	-79.757	-49.455	85.721	230.355	204.916	-28.757	169.574	128.378	-83.229	-73.034	237.446	251.841	192.427	0.0013452	0.0018904	0.00028322	1372.3	9.7901e-06	3.8968e-06	1484	501.93	1.7516e-05	1.0154e-05	677.74	286.78	210.66	84.849	1.0619e-06	124.7	0.0013384	0.0013566	0.00037651	1327.3	1.4815e-05	1.4491e-05	1415.6	478.59	1.4288e-05	1.4714e-05	643.53	270.75	202.82	81.148	1.4644e-05	118.1	25.211	3.613	38.729	-77.042	-2.572	2.921	-78.339	-72.065	-25.712	71.863	-73.558	-69.509	-68.222	-62.006	126.585	-65.103	-8191	255	
988.099	1	1	0	0	0.38541	0.11883	0.16847	0.2075	0.082933	0.17135	0.36273	0.32294	0.18658	0.034228	0.22739	0.083155	0.29885	0.10182	0.078072	0.032528	-2.2083	-3.0729	-2.6604	-2.9708	-2.9729	-2.7833	-3.0854	-3.0958	-2.7687	-3.0854	-2.8833	-3.0062	-3.2083	-2.8896	-3.0312	-2.9875	142.900	15.822	40.199	204.510	242.439	113.185	217.942	-70.031	52.109	123.016	225.341	92.785	219.814	242.499	251.062	40.160	0.0014028	0.0013953	0.00026694	1385.1	1.0891e-05	9.7034e-06	1489.1	501.52	2.1239e-05	1.6316e-05	678.05	283.72	209.05	84.549	1.6499e-05	124.7	0.001317	0.0013345	0.00037206	1328.2	1.4584e-05	1.4477e-05	1413.1	477.5	1.4337e-05	1.4667e-05	642.71	269.31	200.96	80.68	1.4411e-05	117.86	23.993	135.164	2.789	-77.454	48.598	24.674	-78.085	-71.989	91.366	29.361	-73.396	-69.620	-68.252	-61.856	78.906	-65.125	-8191	255	
988.218	1	1	0	0	0.16471	0.24137	0.11667	0.094389	0.072564	0.17581	0.35725	0.36629	0.225	0.073009	0.11099	0.23442	0.29417	0.16948	0.14561	0.24691	-1.8979	-2.9729	-2.7646	-2.8063	-3.1458	-2.725	-3.2771	-3.1333	-2.5812	-2.9271	-2.85	-2.8563	-3.0458	-2.8667	-2.8896	-3.2083	-36.436	-33.263	-78.281	-71.181	186.530	-81.797	236.605	210.461	69.074	96.977	-50.853	-86.853	195.475	202.742	102.640	266.035	0.0011835	0.001479	0.00021827	1370.1	1.1054e-06	9.8492e-06	1483.8	502.66	1.1938e-05	1.5876e-05	677.4	285	208.67	83.969	1.2446e-05	125.25	0.0012985	0.0013175	0.00036697	1319.3	1.4375e-05	1.4287e-05	1413	476.97	1.418e-05	1.4429e-05	642.65	269.78	200.85	80.518	1.4263e-05	117.98	16.338	86.521	112.563	-77.295	220.417	82.849	-78.297	-71.772	57.260	46.094	-73.638	-69.575	-67.898	-62.247	3.657	-65.075	-8191	255	
988.314	1	1	0	0	0.090306	0.096114	0.093006	0.16373	0.17444	0.11902	0.32094	0.27569	0.14953	0.11397	0.14592	0.25536	0.29358	0.29742	0.14974	0.13452	-2.2333	-3.0521	-2.8312	-2.6854	-3.1729	-2.6042	-3.2271	-3.2	-2.65	-2.9167	-3.0146	-2.925	-3.1208	-2.9	-2.825	-3.3063	154.406	255.249	89.764	-62.115	188.542	5.102	211.108	208.501	257.907	-51.877	216.034	144.381	-69.845	-63.313	135.350	243.074	0.0011775	0.0011341	0.00021776	1366.7	5.1129e-06	8.6284e-06	1476.8	497.07	8.315e-06	1.1501e-05	668.53	281.52	207.58	83.251	2.1463e-05	123.53	0.0012884	0.0013193	0.00036342	1316.1	1.4214e-05	1.4264e-05	1402.3	472.98	1.4069e-05	1.415e-05	637.3	266.13	198.88	79.654	1.4141e-05	116.5	22.116	-46.786	31.141	-77.097	54.856	76.439	-78.294	-71.980	-66.201	38.090	-73.654	-69.485	-67.868	-61.917	17.505	-65.153	-8191	255	
988.410	1	1	0	0	0.1151	0.067697	0.1539	0.24326	0.21784	0.13595	0.43441	0.11812	0.06764	0.28788	0.24437	0.26521	0.17623	0.2558	0.054168	0.21621	-1.9979	-2.9958	-2.8167	-2.5521	-3.0375	-2.6625	-2.8833	-3.1437	-2.7667	-2.9625	-3.0667	-2.8708	-3.1625	-2.9646	-2.7292	-3.3896	160.549	-11.022	132.965	-82.081	-62.739	98.275	-74.320	111.575	166.593	-69.946	250.015	251.545	264.909	-45.877	10.757	261.912	0.0016843	0.0018801	0.00017786	1363	9.6501e-06	1.1485e-05	1475.2	497.18	2.5205e-05	7.6089e-06	666.72	281.27	204.79	83.256	1.5026e-05	123.31	0.0012881	0.0012895	0.00036359	1314.8	1.431e-05	1.4241e-05	1399.8	472.28	1.4143e-05	1.4287e-05	635.35	265.06	197.74	79.365	1.3997e-05	116.15	39.673	-3.572	-11.183	-77.343	46.944	55.009	-78.022	-71.675	9.663	53.374	-73.693	-69.501	-68.012	-62.096	20.754	-65.089	-8191	255	
988.531	1	1	0	0	0.14122	0.18627	0.17458	0.079894	0.10291	0.10405	0.0724	0.18156	0.037513	0.28919	0.24067	0.29672	0.097194	0.12058	0.23155	0.31258	-2.1208	-2.8438	-2.9542	-2.7396	-3.0146	-2.6417	-2.8917	-3.1625	-2.6792	-2.8458	-3.1312	-2.5979	-2.9792	-3.0708	-2.6021	-2.9896	24.023	21.359	86.805	205.800	170.601	48.488	81.815	-53.515	67.265	161.631	262.308	197.790	179.260	241.190	245.952	216.186	0.0010329	0.00066405	0.00043888	1364.6	1.0413e-05	1.2547e-05	1481.1	498.04	1.3183e-05	1.1313e-05	671.44	283.59	208.58	84.009	1.222e-05	123.34	0.0012818	0.0013113	0.00036024	1312.2	1.4205e-05	1.4292e-05	1403.9	473.51	1.4349e-05	1.4343e-05	639.42	267.93	200.04	80.144	1.4074e-05	116.91	43.611	45.136	21.303	-77.449	-20.734	27.919	-78.322	-71.776	112.232	5.213	-73.909	-69.348	-68.074	-62.053	-33.609	-65.054	-8191	255	
988.627	1	1	0	0	0.14592	0.18268	0.10178	0.43122	0.33662	0.08026	0.22131	0.14844	0.084876	0.19274	0.25664	0.28814	0.21755	0.18101	0.18219	0.33614	-2.0417	-2.8833	-3.1771	-2.6813	-2.9333	-2.8125	-2.6667	-3.2375	-2.6729	-2.8083	-3.0521	-2.7625	-3.2292	-3.0979	-2.4958	-3.2521	30.075	54.991	-67.078	-57.114	171.117	126.165	192.064	-14.355	226.190	5.644	234.980	105.593	188.166	-64.968	96.927	229.153	0.0013078	0.0013573	9.88e-05	1361	1.9824e-06	1.6637e-05	1470.7	496.18	8.802e-06	1.3838e-05	673.81	284.47	208.03	84.224	4.0142e-06	125.26	0.001309	0.0013084	0.00036384	1311.5	1.4143e-05	1.449e-05	1400.3	472.94	1.4402e-05	1.4339e-05	641.08	269.32	200.68	80.812	1.4305e-05	118.29	27.748	-20.810	88.412	-76.964	173.889	131.041	-78.157	-71.877	-17.221	88.286	-73.755	-69.418	-68.108	-62.030	-6.277	-65.175	-8191	255	
988.699	1	1	0	0	0.24078	0.1304	0.059348	0.43076	0.18876	0.0090351	0.1572	0.29285	0.033902	0.028047	0.25945	0.11418	0.092519	0.097643	0.15808	0.34549	-2.1125	-2.6708	-2.95	-2.8167	-2.9229	-2.9667	-2.825	-3.2062	-2.7917	-2.6854	-3.1542	-2.7333	-2.9875	-3.2271	-2.6792	-3.3042	-21.937	217.049	91.863	220.293	125.184	267.153	204.648	204.236	109.258	-86.694	259.581	227.982	240.955	-78.879	31.535	211.262	0.0016033	0.0015577	0.00034859	1377.3	1.1898e-05	7.1369e-06	1485.5	500.48	8.0977e-06	1.5063e-05	672	284.29	208.54	84.073	6.6806e-06	124.19	0.0013254	0.0013218	0.0003674	1326.7	1.4622e-05	1.4738e-05	1410.7	476.09	1.4665e-05	1.449e-05	641.34	269.73	200.96	80.566	1.4396e-05	117.35	37.946	24.183	20.283	-77.247	74.368	5.924	-78.271	-71.736	218.898	82.281	-73.440	-69.358	-68.015	-62.377	-23.805	-64.982	-8191	255	
988.820	1	1	0	0	0.22547	0.12959	0.071873	0.26064	0.022093	0.12815	0.19992	0.29235	0.29158	0.092154	0.26294	0.29081	0.18135	0.35237	0.13828	0.30855	-2.3083	-2.5917	-3.0646	-2.7792	-2.7875	-2.8312	-2.9229	-3.1937	-2.8208	-2.6667	-3.0896	-2.7687	-2.9083	-3.2417	-2.4854	-3.2313	194.784	165.598	228.882	201.682	216.870	256.232	-35.966	192.496	-84.614	243.842	176.270	199.896	-82.035	266.653	-63.768	194.488	0.00093763	0.00076983	0.00012545	1373.3	1.3073e-05	1.562e-05	1484.1	503.29	1.5284e-05	1.2177e-05	679.64	287.14	209.33	85.025	1.3315e-05	125.52	0.0013353	0.0013266	0.00037159	1320.4	1.4749e-05	1.4847e-05	1407.7	477.42	1.4722e-05	1.47e-05	644.46	271.33	202.19	81.225	1.4685e-05	118.14	26.108	19.291	79.629	-77.262	57.876	91.397	-78.371	-71.897	263.422	0.433	-73.717	-69.571	-67.719	-61.906	167.987	-65.166	-8191	255	
988.916	1	1	0	0	0.19202	0.20023	0.098745	0.10002	0.15381	0.10854	0.38389	0.31236	0.090361	0.10177	0.2588	0.14322	0.21226	0.27455	0.30037	0.20786	-2.4458	-2.6188	-2.9875	-2.875	-2.8479	-3.0187	-2.7479	-3.1979	-2.8917	-2.7604	-3.0625	-2.9958	-2.8917	-3.325	-2.7188	-3.1188	169.197	-69.227	16.464	268.498	190.292	152.217	197.687	171.932	-70.512	10.875	260.053	248.047	-84.988	247.430	67.623	216.388	0.001524	0.00055737	0.00033144	1365.4	1.1685e-05	7.4056e-06	1480.1	499.22	2.5145e-05	1.9729e-05	679.51	288.22	210.41	84.718	5.1586e-06	126.01	0.00134	0.0013274	0.00037337	1319.1	1.4592e-05	1.4692e-05	1407.2	476.03	1.4629e-05	1.452e-05	645.57	271.87	202.36	81.077	1.4738e-05	118.76	32.576	190.963	27.000	-77.186	32.487	11.846	-78.577	-71.974	35.738	10.204	-73.370	-69.421	-68.290	-62.125	201.487	-65.127	-8191	255	
989.012	1	1	0	0	0.15672	0.2335	0.12222	0.1469	0.19587	0.31067	0.20563	0.21278	0.3624	0.063661	0.21521	0.25866	0.10438	0.46257	0.21745	0.04909	-2.4875	-2.7229	-3.05	-2.9292	-2.8833	-2.9562	-2.7229	-2.8646	-2.9271	-2.5354	-3.3563	-2.8396	-2.6854	-3.2562	-2.5187	-3.0396	156.841	112.141	63.290	-75.031	-73.001	-80.880	170.225	-83.645	-0.511	157.801	238.492	-46.480	223.653	260.665	251.049	264.175	0.0013694	0.0028459	0.00023902	1371.6	1.5294e-05	1.1618e-05	1483.2	501.94	1.3705e-05	8.651e-06	678.3	285.74	209.4	85.018	6.2174e-06	125.85	0.0013506	0.0013393	0.00037376	1326.2	1.4637e-05	1.483e-05	1411.6	477.02	1.4718e-05	1.4735e-05	646.82	272.16	202.43	81.4	1.4765e-05	119.25	53.253	46.365	-59.075	-77.332	14.815	77.585	-78.332	-71.620	11.094	166.025	-73.414	-69.621	-67.966	-61.823	69.624	-64.745	-8191	255	
989.131	1	1	0	0	0.13373	0.0071149	0.15133	0.18248	0.14519	0.16182	0.46778	0.36472	0.17223	0.24142	0.39503	0.023533	0.15321	0.18477	0.32125	0.27712	-2.4771	-2.5042	-2.9833	-2.9562	-2.6208	-3.1083	-2.75	-2.9396	-2.9583	-2.5104	-3.0167	-3.0292	-2.6375	-3.1354	-2.6208	-3.0792	145.335	233.409	263.688	-43.971	-30.404	1.566	250.644	167.504	-58.145	246.205	223.660	136.967	-13.663	-70.181	70.774	216.302	0.0014653	0.00063984	8.6933e-05	1373.1	9.1199e-06	1.907e-05	1477	501.41	1.639e-05	8.9716e-06	676.69	286.67	208.17	84.998	1.062e-05	125.7	0.0013493	0.0013471	0.00037578	1325.3	1.4578e-05	1.4629e-05	1410.5	476.84	1.4751e-05	1.4655e-05	644.33	271.34	201.55	81.01	1.4761e-05	118.39	39.950	-62.430	-49.227	-77.220	69.599	28.830	-78.211	-71.701	52.840	16.803	-73.402	-69.512	-67.965	-61.991	-71.087	-65.121	-8191	255	
989.227	1	1	0	0	0.11663	0.1005	0.28744	0.017089	0.2389	0.055318	0.22765	0.21312	0.1028	0.48663	0.26734	0.24275	0.31656	0.15221	0.18996	0.36245	-2.4437	-2.6604	-2.7833	-2.9	-2.5042	-3.1083	-2.9188	-2.9688	-2.8979	-2.5458	-3.0396	-3.0938	-2.6854	-3.2875	-2.9313	-2.9188	263.459	-19.265	47.897	-17.186	-44.601	98.910	204.294	182.060	-30.344	258.168	-60.227	265.870	238.330	-76.475	233.281	199.539	0.0016175	0.00096903	0.00048752	1363.5	2.7979e-06	1.9894e-05	1479	498.8	1.672e-05	1.31e-05	677.54	286.83	210.3	85.229	1.3831e-05	125.03	0.0013269	0.001355	0.00037448	1316.5	1.4444e-05	1.4728e-05	1406.7	474.98	1.4748e-05	1.4945e-05	646.29	271.93	202.28	81.226	1.477e-05	118.59	30.605	-77.045	-22.489	-77.426	119.845	60.576	-78.000	-72.000	-9.788	-41.283	-73.579	-69.430	-68.045	-62.210	-43.678	-65.254	-8191	255	
989.299	1	1	0	0	0.2811	0.11144	0.38917	0.24543	0.074451	0.061404	0.091969	0.10832	0.26606	0.06648	0.35618	0.15939	0.26553	0.51946	0.21227	0.25674	-2.6771	-2.6688	-2.9771	-3.1042	-2.6125	-3.0729	-2.9771	-2.8042	-3.0625	-2.6917	-3.0604	-3.2062	-2.6917	-3.1479	-2.9104	-2.95	-46.994	19.199	76.032	214.700	107.365	162.172	111.082	-53.223	26.944	148.709	217.143	-84.525	2.052	187.838	240.725	210.346	0.001042	0.00064998	0.00041177	1373.4	1.2938e-05	2.1322e-05	1480	501.69	1.3169e-05	1.3187e-05	681.49	288.54	210.07	85.195	2.2047e-06	126.41	0.0013399	0.0013454	0.00037293	1318.2	1.4585e-05	1.4597e-05	1410.1	476.92	1.4445e-05	1.4685e-05	645.64	272.57	202.48	81.248	1.4782e-05	119.29	39.993	-0.408	47.384	-77.263	42.237	57.205	-78.585	-71.898	64.719	47.811	-73.504	-69.384	-68.061	-61.993	228.973	-65.303	-8191	255	
989.395	1	1	0	0	0.065292	0.023309	0.12815	0.19462	0.18331	0.18193	0.081935	0.34884	0.10949	0.24795	0.24279	0.35943	0.1993	0.13685	0.16277	0.31296	-2.675	-2.6979	-2.8021	-3.1437	-2.5917	-2.8125	-3.1271	-2.675	-3.1354	-2.8	-2.9333	-3.3625	-2.6771	-3.1542	-2.9542	-2.7188	-55.537	233.404	116.569	155.550	90.003	-30.634	216.350	221.889	139.603	199.343	194.323	259.310	245.679	238.596	45.270	164.150	0.0011011	0.00071206	0.00031637	1367.2	1.6174e-05	2.4572e-06	1492	501.44	3.3706e-06	1.7403e-05	679.48	286.16	208.56	84.26	1.1709e-05	125.31	0.0013268	0.001354	0.00036781	1320.2	1.4599e-05	1.4503e-05	1415	476.04	1.4295e-05	1.4584e-05	646.22	271.2	201.16	80.592	1.4365e-05	118.73	33.336	45.824	-71.820	-77.464	76.787	7.366	-78.298	-71.947	-74.098	64.091	-73.663	-69.638	-68.251	-61.865	79.234	-64.953	-8191	255	
989.515	1	1	0	0	0.048855	0.095757	0.19456	0.13456	0.239	0.19148	0.12605	0.40917	0.11817	0.2156	0.14669	0.16199	0.25745	0.2792	0.092051	0.097332	-2.7188	-2.7979	-2.8042	-3.1	-2.7125	-2.7083	-3.1521	-2.7729	-2.9333	-2.7354	-2.8875	-3.2917	-2.6375	-3.0583	-2.9625	-2.7104	189.700	102.691	137.890	232.007	-24.724	-2.039	230.771	255.440	128.546	252.570	43.409	215.110	178.140	215.256	95.725	105.243	0.00099536	0.0005243	0.00015767	1365.9	4.7981e-06	5.6307e-06	1476.3	498.17	9.8234e-06	9.2737e-06	674.63	284.89	207.7	83.82	8.9541e-06	124.49	0.0013198	0.0013291	0.00036991	1314	1.4537e-05	1.4541e-05	1404	473.92	1.4449e-05	1.4648e-05	640.85	268.91	199.63	80.077	1.4312e-05	117.51	37.971	-23.894	11.051	-77.376	-22.023	-71.170	-78.262	-71.784	51.693	55.233	-73.650	-69.445	-67.695	-61.883	-87.752	-65.111	-8191	255	
989.611	1	1	0	0	0.28307	0.18144	0.11456	0.14285	0.16739	0.1391	0.29364	0.086449	0.047646	0.039422	0.10258	0.1175	0.11361	0.075674	0.17647	0.17467	-2.5792	-2.8	-2.7271	-3.1833	-2.7021	-2.7854	-3.3333	-2.875	-3.0271	-3.0417	-2.9396	-3.2687	-2.8979	-2.9417	-2.8542	-2.9583	266.474	67.974	254.020	233.170	179.264	248.775	167.059	263.265	84.770	-42.339	247.867	213.832	236.058	192.455	-86.686	161.282	0.0012375	0.0014374	0.00037153	1359.8	4.4931e-06	5.3084e-06	1467.4	496.76	4.3674e-06	1.5529e-05	670.97	285.46	207.07	84.014	8.4388e-06	124.09	0.0013138	0.0013329	0.00036399	1306.5	1.4513e-05	1.4492e-05	1399.8	472.21	1.4245e-05	1.461e-05	638.6	269.41	199.68	80.111	1.4263e-05	117.41	45.723	-21.873	11.313	-77.060	-6.765	116.035	-78.506	-71.832	122.949	25.864	-73.537	-69.609	-67.878	-62.082	41.302	-65.155	-8191	255	
989.708	1	1	0	0	0.083148	0.062724	0.054096	0.071345	0.14468	0.065725	0.23321	0.241	0.28345	0.10255	0.034497	0.331	0.29953	0.29266	0.044186	0.31747	-2.3937	-2.8854	-2.5917	-3.2958	-2.8542	-2.6937	-3.3187	-2.9542	-2.8583	-3.0021	-2.8479	-3.2583	-2.8542	-2.9688	-3.0417	-2.9167	-79.532	-53.596	-39.337	233.966	206.865	5.907	249.754	221.289	-59.095	241.268	250.898	173.768	48.431	225.958	141.700	201.704	0.00098074	0.0022275	0.00038132	1352.3	2.0196e-06	1.5426e-05	1466.9	496.46	1.9061e-05	8.6613e-06	671.68	284.87	206.94	84.043	1.2139e-05	124.33	0.0013072	0.0013255	0.00036348	1305	1.438e-05	1.4241e-05	1395.4	471.18	1.4233e-05	1.4445e-05	638.9	269.69	199.88	80.182	1.4359e-05	117.68	1.198	9.622	27.370	-77.597	-45.055	54.210	-78.499	-72.109	32.254	4.134	-73.509	-69.328	-68.062	-61.851	-52.902	-65.057	-8191	255	
989.804	1	1	0	0	0.22397	0.28822	0.20379	0.078169	0.099104	0.13688	0.11612	0.087645	0.076505	0.17585	0.42376	0.15044	0.21423	0.48801	0.12259	0.27118	-2.475	-3.025	-2.6958	-3.1437	-2.8438	-2.6042	-3.2958	-2.7146	-2.8667	-3.1021	-2.8812	-3.0833	-3.0667	-2.7917	-3.2292	-2.7271	83.528	234.574	52.546	269.571	-63.318	196.208	166.017	-80.751	-21.027	-75.945	222.537	-57.562	-37.299	-89.528	192.104	136.828	0.0012573	0.0004715	0.00014388	1357.6	1.2993e-05	2.5414e-05	1473.3	497.5	1.1719e-05	1.9585e-05	671.16	286.99	207.38	84.036	1.5396e-05	124.96	0.0013135	0.0013217	0.00036334	1308.8	1.4514e-05	1.4265e-05	1399.6	471.81	1.4281e-05	1.436e-05	639.19	270.1	199.32	80.219	1.44e-05	118.12	19.192	-51.897	127.026	-77.313	53.686	1.007	-78.218	-72.223	-70.475	59.354	-73.740	-69.310	-68.225	-62.030	37.437	-65.149	-8191	255	
989.900	1	1	0	0	0.11979	0.13061	0.028745	0.22701	0.11426	0.26225	0.12398	0.079202	0.076142	0.17376	0.29284	0.18243	0.10232	0.20336	0.10645	0.084483	-2.4771	-2.9875	-2.6208	-3.1125	-2.8896	-2.4688	-3.3021	-2.8937	-2.9375	-2.9625	-2.9375	-3.0667	-3.0021	-2.7625	-2.9833	-2.9896	-88.921	67.164	74.745	-89.348	246.699	76.208	215.234	259.468	85.240	70.309	243.951	-55.224	170.720	-30.954	78.940	154.224	0.0014469	0.0018203	0.0001974	1353.2	1.0608e-05	5.4643e-06	1471.5	492.97	1.9862e-05	6.7338e-06	667.21	283.66	206.79	83.673	1.2568e-05	123.5	0.0013019	0.0013152	0.00036695	1304.2	1.4406e-05	1.4359e-05	1395.5	470.52	1.4179e-05	1.4335e-05	636.52	268.38	198.97	79.669	1.4135e-05	116.84	45.806	30.487	1.743	-77.269	81.348	259.285	-78.239	-71.693	13.282	16.327	-73.289	-69.294	-67.884	-62.161	97.460	-65.286	-8191	255	
989.996	1	1	0	0	0.10564	0.080988	0.054835	0.25876	0.27584	0.19083	0.31506	0.2911	0.072105	0.1899	0.21984	0.20155	0.099123	0.34578	0.21669	0.30404	-2.1208	-3.0021	-2.6146	-2.9896	-2.9896	-2.5979	-3.0812	-2.9708	-2.6479	-3.1688	-2.8417	-3.0104	-3.0333	-2.5958	-2.9313	-3.1188	42.489	-13.739	142.096	-78.948	157.663	204.600	182.275	247.918	-19.444	-84.372	240.363	227.663	-74.267	-79.058	35.006	188.297	0.0018468	0.0013406	0.00038565	1346.3	1.6363e-05	8.1712e-06	1461.6	494.25	4.5072e-06	1.0677e-05	670.15	282	205.75	83.41	2.1934e-06	124.19	0.0012956	0.0013019	0.00036497	1296.8	1.428e-05	1.4206e-05	1389.6	468.68	1.4179e-05	1.4231e-05	636.76	267.62	198.66	79.601	1.4225e-05	117.03	38.109	-17.714	39.817	-77.288	128.931	241.368	-78.190	-71.925	-60.859	84.299	-73.448	-69.250	-68.192	-62.093	27.837	-65.024	-8191	255	
990.092	1	1	0	0	0.16429	0.12225	0.10543	0.16819	0.22224	0.17242	0.50892	0.21503	0.088001	0.072337	0.17994	0.1238	0.063346	0.30008	0.073989	0.24602	-2.2146	-2.9792	-2.6208	-2.9813	-2.9354	-2.4062	-3.1937	-3.0167	-2.6375	-3.2062	-2.8187	-2.9521	-2.9292	-2.8812	-2.8583	-3.0375	-33.634	-21.285	228.525	265.263	174.158	48.010	237.186	242.503	-47.103	256.353	-29.807	193.117	87.933	218.061	260.951	-82.617	0.0013275	0.00093072	0.00032737	1346.7	1.4364e-05	1.1099e-05	1467.3	491.9	1.0305e-05	2.3741e-06	666.41	285.03	205.87	83.34	1.0071e-05	124.53	0.0012969	0.0013052	0.00036438	1297.2	1.4348e-05	1.4392e-05	1393.1	468.44	1.4129e-05	1.4366e-05	636.84	268.42	198.04	79.764	1.4379e-05	117.63	23.925	244.817	17.260	-77.424	45.183	-35.940	-78.480	-71.738	126.858	29.678	-73.715	-69.464	-67.892	-61.629	-39.206	-65.226	-8191	255	
990.211	1	1	0	0	0.31525	0.15919	0.34664	0.19311	0.063575	0.13195	0.16646	0.18994	0.18324	0.11882	0.29197	0.20784	0.19307	0.27334	0.029263	0.24237	-2.1562	-3.05	-2.6917	-2.7833	-2.8688	-2.6417	-3.025	-2.9667	-2.6479	-3.0646	-3.0312	-3.0021	-3.0771	-2.7833	-2.8854	-3.2229	192.788	-79.329	-83.255	263.689	208.409	170.640	87.056	203.558	216.055	8.034	-0.056	199.072	-63.360	227.837	43.836	225.001	0.0015032	0.00059286	0.00043081	1352.3	6.1601e-06	8.7018e-06	1469.4	494.96	5.8589e-06	2.082e-05	673.96	285.18	207.99	84.544	1.9251e-05	125.24	0.0013065	0.0013202	0.00037183	1305.6	1.4475e-05	1.4677e-05	1405.5	471.69	1.4449e-05	1.4665e-05	642.75	270.49	199.87	80.529	1.4703e-05	118.52	26.324	70.227	-8.021	-77.041	226.499	105.403	-78.298	-72.037	-15.916	23.848	-73.674	-69.449	-68.172	-61.990	9.960	-65.029	-8191	255	
990.307	1	1	0	0	0.16567	0.24105	0.14287	0.2277	0.16261	0.069349	0.34671	0.59406	0.22313	0.36403	0.056037	0.37284	0.15489	0.44174	0.087936	0.25599	-2.0417	-2.8146	-2.8187	-2.7542	-3.0271	-2.6375	-3.0438	-3.0812	-2.4875	-3.0292	-2.8042	-2.7646	-3.1333	-2.7479	-2.65	-3.0208	-16.373	236.252	80.470	169.781	2.878	153.891	197.571	241.372	252.879	131.761	86.135	266.987	221.182	270.059	263.645	208.975	0.0018783	0.0017714	0.00022869	1353.8	5.9458e-06	2.5859e-05	1465.9	494.46	1.1823e-05	1.7344e-05	670.73	284.81	207.66	83.776	1.2319e-05	124.81	0.0013259	0.0013318	0.0003745	1305.3	1.4381e-05	1.4697e-05	1400.1	471.32	1.4468e-05	1.4728e-05	638.87	269.25	199.56	80.155	1.459e-05	117.51	46.344	9.008	-20.946	-77.161	-28.062	47.181	-78.273	-71.706	79.045	198.833	-73.705	-69.304	-68.393	-62.014	54.185	-65.218	-8191	255	
990.403	1	1	0	0	0.2053	0.20582	0.058342	0.19477	0.2552	0.15014	0.32067	0.16609	0.31289	0.10461	0.18518	0.056532	0.28759	0.34604	0.19345	0.23435	-2.1979	-2.8375	-2.7479	-2.7771	-3.1042	-2.4583	-3.0083	-3.1875	-2.6208	-3.1312	-3.2354	-2.8729	-3.1583	-2.8458	-2.7521	-3.1729	70.635	82.645	209.885	222.459	82.455	33.722	233.309	244.256	-9.318	-29.600	216.997	225.527	205.138	239.389	203.148	224.003	0.00098577	0.0010895	4.0492e-05	1351	1.7786e-05	1.2097e-05	1464.2	491.77	2.0521e-05	4.0217e-06	665.01	284.71	206.45	84.127	1.3759e-05	124.13	0.0013345	0.001335	0.00037735	1301.8	1.4567e-05	1.486e-05	1392.3	469.11	1.4507e-05	1.4683e-05	638.12	269.08	199.34	80.199	1.4693e-05	117.64	23.333	78.440	19.080	-77.412	93.642	88.770	-78.087	-71.917	38.483	99.359	-73.688	-69.424	-68.119	-61.867	14.277	-65.013	-8191	255	
990.500	1	1	0	0	0.22007	0.15847	0.15666	0.20477	0.097046	0.13137	0.20313	0.17523	0.16002	0.053503	0.23866	0.104	0.075319	0.060261	0.24505	0.14641	-2.2667	-2.9125	-2.8646	-2.6312	-3.1896	-2.7833	-2.8688	-3.3563	-2.7375	-3.0062	-3.2396	-2.9542	-3.0542	-2.9458	-2.6063	-3.1333	-14.891	70.260	238.802	230.786	58.547	-73.484	147.982	236.758	41.162	104.896	180.667	173.982	-48.281	20.897	123.206	213.907	0.0015762	0.0012404	0.0002277	1341.9	4.2047e-06	5.4438e-06	1468.4	495.07	2.3078e-05	8.5343e-06	671.12	284.52	206.21	84.071	5.5915e-06	124.62	0.0013621	0.0013528	0.00038388	1299.8	1.4628e-05	1.4822e-05	1397.9	470.83	1.47e-05	1.4712e-05	639.68	269.78	199.34	80.319	1.4644e-05	117.93	31.166	-67.129	-31.154	-77.262	45.586	20.364	-78.256	-71.784	27.942	32.335	-73.463	-69.336	-67.982	-62.037	-5.932	-64.974	-8191	255	
990.594	1	1	0	0	0.049035	0.1827	0.18676	0.18521	0.038427	0.25246	0.1755	0.11744	0.1871	0.12981	0.064684	0.18312	0.11832	0.15693	0.095229	0.1918	-2.3979	-2.7792	-2.8812	-2.6063	-2.9	-2.8667	-2.8375	-3.2562	-2.8771	-2.7354	-3.1104	-2.9396	-3.0375	-3.0458	-2.55	-3.3146	105.635	32.584	74.958	197.070	179.444	188.069	208.858	258.915	172.143	121.402	-10.103	185.025	-31.754	245.562	25.629	225.928	0.0014096	0.0013235	7.7348e-05	1346.4	3.6515e-06	4.0476e-06	1468	490.7	1.8137e-05	9.8434e-06	669.19	283.57	204.77	83.15	9.2032e-06	124.51	0.0013492	0.0013498	0.0003786	1300.7	1.4657e-05	1.4996e-05	1399.2	468.4	1.4772e-05	1.4735e-05	637.25	268.46	197.79	79.56	1.4421e-05	117.41	24.769	-15.249	-1.881	-77.018	229.038	40.137	-78.205	-71.667	-78.434	-42.928	-73.584	-69.143	-67.805	-62.147	5.093	-65.172	-8191	255	
990.690	1	1	0	0	0.12902	0.17267	0.23543	0.31855	0.21183	0.11474	0.30245	0.12105	0.24211	0.10589	0.083831	0.12386	0.043801	0.17527	0.085043	0.30339	-2.1042	-2.6625	-2.9833	-2.7042	-2.9583	-3.0104	-2.9292	-3.3021	-2.65	-2.8187	-3.1	-2.9125	-3.1042	-3.0354	-2.4833	-3.2333	240.161	-71.572	113.388	-17.386	-35.072	245.282	173.916	246.205	193.207	188.586	215.288	192.266	-65.312	177.191	-60.548	215.212	0.0014735	0.00091125	0.00039858	1340	5.7799e-06	3.2767e-06	1465.6	489.58	2.2277e-05	1.7866e-05	666.54	282.84	204.79	82.862	1.0619e-05	123.52	0.0013379	0.0013377	0.00036651	1296.6	1.4556e-05	1.491e-05	1395.8	467.29	1.4683e-05	1.4563e-05	636.01	267.3	197.43	79.149	1.4402e-05	116.65	38.648	100.716	17.600	-77.027	1.900	254.732	-78.402	-71.634	111.400	47.730	-73.664	-69.362	-67.855	-61.936	180.294	-65.122	-8191	255	
990.811	1	1	0	0	0.1342	0.19474	0.08452	0.25928	0.187	0.04454	0.11108	0.27992	0.20836	0.038718	0.13368	0.38796	0.12044	0.12988	0.18239	0.11093	-2.3417	-2.9	-2.9333	-2.6396	-2.9062	-3.0104	-2.6958	-3.2375	-2.8271	-2.5875	-3.1688	-2.9333	-2.9938	-3.2375	-2.5375	-3.1042	-78.828	-38.627	-50.874	207.681	-51.983	92.642	202.092	242.285	2.980	-38.445	184.886	249.321	-61.931	213.901	159.836	220.434	0.0016784	0.00025597	0.00028464	1345.4	5.992e-06	1.0332e-05	1456.2	492.11	1.6297e-05	3.1684e-05	660.74	281.16	203.97	82.573	1.1318e-05	123.05	0.00133	0.0013173	0.000365	1298.4	1.4303e-05	1.4473e-05	1385.5	467.24	1.4412e-05	1.4431e-05	632.52	266.13	196.66	78.985	1.432e-05	116.26	66.319	38.891	33.203	-77.520	34.115	163.919	-78.302	-72.016	6.270	0.061	-73.817	-69.334	-68.028	-61.831	46.999	-65.313	-8191	255	
990.907	1	1	0	0	0.18177	0.05111	0.12973	0.13777	0.031641	0.093861	0.3062	0.28316	0.127	0.18767	0.1668	0.011422	0.056149	0.2478	0.11157	0.23953	-2.3104	-2.8542	-3.0979	-2.7917	-2.6604	-2.8583	-2.6937	-3.0563	-2.7562	-2.5417	-3.3479	-2.7396	-3.0104	-3.1708	-2.5708	-3.1729	24.785	182.654	57.684	255.614	-30.753	148.904	193.177	225.198	219.341	156.039	176.419	39.722	0.646	-55.134	3.688	166.551	0.0013541	0.001816	0.00013694	1343.7	1.6433e-05	1.3312e-05	1455.7	489.85	4.9155e-06	1.015e-05	662.67	280.52	203.09	82.241	1.1034e-05	122.23	0.0013167	0.0013132	0.00036243	1297.1	1.4403e-05	1.4188e-05	1386	465.58	1.4368e-05	1.4251e-05	630.85	265.38	196.31	78.592	1.4288e-05	115.79	36.377	82.091	-15.923	-77.419	152.677	70.714	-78.137	-71.662	41.650	12.640	-73.548	-69.391	-67.848	-61.770	39.460	-65.005	-8191	255	
991.003	1	1	0	0	0.26142	0.24332	0.24033	0.24171	0.03565	0.16971	0.037421	0.43673	0.27062	0.052813	0.17749	0.10536	0.15472	0.020408	0.094282	0.20975	-2.3542	-2.7979	-2.9813	-2.7917	-2.9146	-3.0125	-2.9771	-2.9646	-2.9229	-2.7208	-3.1729	-2.9146	-2.6	-3.1104	-2.5417	-2.9437	165.661	-61.996	29.399	236.413	9.483	17.312	4.713	164.572	87.276	148.086	77.385	243.194	164.423	44.552	262.789	194.006	0.0016917	0.00086117	0.00016788	1337.1	2.7211e-06	2.3377e-05	1465.2	489.07	9.7344e-06	9.1422e-06	659.58	278.47	202.81	82.443	7.2083e-06	122.63	0.0013093	0.0013165	0.00036511	1292.5	1.4296e-05	1.4257e-05	1390.7	464.2	1.4313e-05	1.432e-05	629.82	264.05	195.39	78.394	1.4323e-05	115.93	43.563	-28.257	17.518	-77.382	253.226	109.325	-78.042	-71.932	31.466	-65.835	-73.578	-69.401	-67.549	-62.133	47.259	-64.887	-8191	255	
991.099	1	1	0	0	0.17077	0.099808	0.18987	0.084599	0.13262	0.3066	0.1967	0.26316	0.12151	0.048655	0.018605	0.15862	0.087938	0.19872	0.29743	0.12514	-2.5375	-2.4562	-2.9083	-2.8125	-2.7521	-3.0854	-2.8583	-2.9583	-2.8604	-2.5208	-2.9604	-2.9667	-2.8333	-3.0625	-2.6813	-2.7687	-78.036	-28.002	8.917	198.947	106.727	-28.942	226.487	244.361	54.812	98.546	196.338	223.100	118.644	-89.228	56.343	235.166	0.0016639	0.0017275	0.00020113	1350.5	1.4127e-05	1.4405e-05	1455	487.27	7.2449e-06	7.2583e-06	662.68	278.85	201.96	81.539	1.824e-05	121.25	0.0012988	0.0013054	0.00035993	1296.3	1.4151e-05	1.4258e-05	1384.4	463.23	1.4164e-05	1.4206e-05	629.91	263.79	194.52	77.984	1.4136e-05	114.98	37.843	18.630	27.603	-77.521	18.950	53.189	-78.149	-71.877	193.970	82.850	-73.406	-69.331	-67.980	-61.999	34.292	-64.896	-8191	255	
991.171	1	1	0	0	0.088399	0.13918	0.11787	0.23239	0.23765	0.1037	0.22659	0.23071	0.23227	0.19041	0.1657	0.29846	0.04545	0.088521	0.18971	0.19193	-2.5167	-2.5	-2.9146	-2.8812	-2.6417	-3.0021	-2.7833	-2.8958	-3.0229	-2.55	-3.0542	-3.1021	-2.5708	-3.0396	-2.7792	-2.7708	230.888	-9.768	-49.177	240.762	-5.342	249.056	182.421	213.020	270.115	183.889	163.950	177.235	-37.112	177.933	3.262	215.688	0.0017616	0.00093554	0.00028954	1335.3	1.0918e-05	1.3957e-05	1458.1	485.61	1.2439e-05	1.0225e-06	659.54	278.4	201.29	81.949	1.2198e-05	121.56	0.0012963	0.0012961	0.00035939	1290.2	1.4123e-05	1.4257e-05	1384.5	462.27	1.4112e-05	1.4293e-05	627.71	263.46	194.56	78.185	1.4505e-05	115.29	40.525	20.652	33.306	-77.054	36.301	62.497	-78.140	-71.854	-36.899	220.644	-73.537	-69.393	-67.919	-62.040	21.342	-65.065	-8191	255	
991.291	1	1	0	0	0.021611	0.1422	0.26799	0.25727	0.095403	0.15386	0.20599	0.2389	0.15839	0.12851	0.14471	0.15256	0.34694	0.27197	0.073757	0.21546	-2.5146	-2.4375	-2.7812	-3.0604	-2.6333	-3.0062	-3.0229	-2.8	-2.9854	-2.6646	-3	-3.0792	-2.5917	-3.1479	-2.6125	-2.8479	85.621	29.210	174.338	207.577	-70.759	82.151	199.963	244.113	-78.605	-3.355	188.534	199.700	226.443	-66.605	74.824	219.624	0.0013348	0.0010794	0.00056389	1337.3	6.9037e-06	6.5914e-06	1451.6	484.92	1.0668e-05	1.0536e-05	660.18	277.91	201.58	81.769	1.2101e-05	122.07	0.0013139	0.0013373	0.00036365	1288.8	1.4344e-05	1.43e-05	1380.5	461.74	1.4239e-05	1.4385e-05	628.38	263.1	194.8	78.214	1.445e-05	115.62	33.502	-55.986	9.242	-77.364	134.613	38.451	-78.542	-71.929	86.742	78.996	-73.274	-69.283	-68.040	-61.858	68.141	-65.106	-8191	255	
991.388	1	1	0	0	0.2073	0.030667	0.37189	0.21068	0.17431	0.083921	0.13769	0.35541	0.038767	0.17964	0.22771	0.27469	0.32264	0.25478	0.13607	0.24553	-2.4875	-2.6312	-2.8104	-3.0708	-2.4146	-2.8417	-2.9708	-2.8979	-2.9958	-2.5354	-2.9833	-3.2083	-2.5542	-3.0021	-2.7687	-2.8563	155.239	226.535	222.836	267.779	-27.578	127.266	241.497	175.081	36.997	245.776	269.609	260.369	-76.506	235.149	-19.162	-85.629	0.0014178	0.00091582	0.00031255	1336.1	4.9341e-06	2.0948e-05	1456	487.36	5.9877e-06	1.305e-05	663.17	279.12	202.59	81.974	3.8463e-06	122.71	0.0013124	0.0013339	0.00036925	1292.8	1.4304e-05	1.4403e-05	1387.7	464.32	1.4071e-05	1.4536e-05	631.35	263.84	194.58	78.032	1.4121e-05	115.99	52.154	16.010	-9.954	-77.338	-71.636	92.283	-78.367	-71.915	142.560	56.300	-73.398	-69.510	-67.797	-61.783	-12.923	-64.995	-8191	255	
991.484	1	1	0	0	0.060356	0.19704	0.23997	0.17434	0.10785	0.0029666	0.13565	0.19291	0.14257	0.24493	0.15768	0.16807	0.19507	0.35774	0.26194	0.27737	-2.7	-2.6458	-2.6417	-3.1771	-2.5167	-3.0458	-2.9875	-2.6917	-2.9146	-2.7167	-2.9021	-3.0417	-2.7167	-3.0375	-2.8167	-2.7062	251.290	84.154	167.937	150.735	244.474	-83.559	137.444	213.968	107.087	-52.251	-87.395	247.387	252.257	208.617	209.481	227.955	0.0019479	0.0013105	0.00045575	1341.6	1.2403e-05	2.876e-05	1460.4	489.23	1.0665e-05	6.5222e-06	660.84	278.02	202.21	81.995	1.0866e-05	121.5	0.0012661	0.0012903	0.00035676	1291.9	1.4036e-05	1.4073e-05	1389	464.73	1.3856e-05	1.4069e-05	629.91	262.78	194.69	78.133	1.3843e-05	114.98	39.886	20.863	-62.225	-77.090	100.922	71.150	-78.326	-71.891	-76.108	54.511	-73.723	-69.646	-67.799	-62.197	17.220	-64.877	-8191	255	
991.580	1	1	0	0	0.19345	0.22797	0.22253	0.27316	0.26516	0.046083	0.27376	0.10686	0.17724	0.29314	0.22482	0.33728	0.11152	0.2238	0.16203	0.38146	-2.5146	-2.9583	-2.6437	-3.2438	-2.8146	-2.7042	-3.1167	-2.7146	-2.9354	-2.7542	-2.8063	-3.2208	-2.7521	-2.9583	-3.0708	-2.675	-34.703	87.484	39.970	212.339	134.442	-45.524	257.866	218.926	131.169	194.502	-89.422	216.362	260.182	260.393	93.890	206.998	0.0011117	0.0012768	0.00032911	1340.7	1.535e-05	4.5494e-06	1452.9	486.07	2.385e-05	9.2699e-06	663.43	276.99	201.41	81.669	1.6742e-05	122.24	0.001264	0.0012743	0.00035036	1285.8	1.3857e-05	1.3936e-05	1378.4	461.84	1.377e-05	1.4046e-05	627.96	262.58	194.1	77.91	1.372e-05	115.13	42.458	-9.360	32.471	-77.570	48.203	42.140	-78.517	-71.742	-30.168	99.729	-73.663	-69.450	-68.290	-62.045	-0.767	-64.854	-8191	255	
991.699	1	1	0	0	0.30957	0.022114	0.27516	0.39658	0.17361	0.066852	0.25347	0.16151	0.26037	0.15079	0.17868	0.13055	0.29632	0.21865	0.095437	0.34867	-2.3771	-2.7333	-2.5771	-3.1479	-2.5938	-2.6	-3.1937	-2.7125	-2.9771	-2.7625	-2.8375	-3.1188	-2.8167	-2.8021	-3.0042	-2.8708	14.895	2.795	27.419	232.664	236.449	-41.510	59.019	261.873	117.285	40.852	-88.444	180.486	205.169	194.640	29.403	196.848	0.0012521	0.0023357	0.00022441	1342.8	1.2223e-05	1.7282e-05	1460.3	487.36	1.9781e-05	1.2061e-05	662.32	280.28	202.08	82.098	1.3151e-05	122.65	0.0012721	0.0012688	0.00035467	1289.4	1.3798e-05	1.3887e-05	1384.7	462.79	1.3668e-05	1.4009e-05	630.03	263.93	195.11	78.296	1.4045e-05	115.77	21.176	7.202	-22.828	-77.372	15.222	58.976	-78.207	-71.930	5.030	90.945	-73.766	-69.259	-67.769	-61.768	83.429	-65.123	-8191	255	
991.795	1	1	0	0	0.10332	0.14399	0.074401	0.32364	0.13694	0.12955	0.20079	0.10908	0.24482	0.077119	0.23822	0.046605	0.20241	0.10869	0.12967	0.37192	-2.45	-2.8771	-2.4104	-3.025	-2.925	-2.7146	-3.1604	-2.9667	-2.8729	-2.9	-2.5604	-3.0333	-2.9188	-2.8229	-2.9688	-2.8854	206.337	0.516	-30.843	251.163	66.076	220.383	190.477	204.675	237.335	208.175	193.422	165.941	-78.322	-78.004	-29.016	149.407	0.0015691	0.0018206	0.00019621	1349.2	1.916e-05	2.2196e-05	1464.6	490.1	1.4122e-05	5.5873e-06	663.41	280.4	201.57	81.835	9.7937e-06	122.86	0.0012795	0.0012977	0.00036092	1298.6	1.419e-05	1.4286e-05	1394	465.91	1.4036e-05	1.4263e-05	632.19	264.8	195.41	78.263	1.4007e-05	116.02	14.641	-7.211	5.330	-77.254	3.251	1.277	-78.088	-71.703	-1.730	174.592	-73.631	-69.711	-68.163	-61.828	-84.727	-65.322	-8191	255	
991.891	1	1	0	0	0.18563	0.24666	0.20644	0.23424	0.17613	0.12396	0.16329	0.1922	0.10372	0.035765	0.44727	0.28287	0.056858	0.39236	0.18233	0.13093	-2.2938	-2.9625	-2.5979	-2.9604	-2.7292	-2.6729	-3.2625	-2.9604	-2.6896	-2.9104	-2.6354	-3.0667	-2.975	-2.7958	-2.8479	-2.7104	15.470	68.446	9.408	210.214	99.076	-30.584	169.821	228.069	-9.424	206.646	228.335	258.636	-36.753	244.103	72.267	180.384	0.001233	0.0010344	0.00040359	1348	1.114e-05	2.14e-05	1469.1	490.01	2.1862e-05	2.094e-05	665.04	277.41	200.94	81.687	7.9729e-06	121.08	0.0012896	0.0013067	0.00036378	1297.5	1.4337e-05	1.4311e-05	1395.8	465.01	1.4096e-05	1.4251e-05	630.95	262.59	194.48	77.873	1.4122e-05	114.92	63.584	61.286	-11.962	-77.319	30.456	65.730	-78.610	-71.809	16.989	25.796	-73.468	-69.629	-68.381	-61.877	119.257	-65.402	-8191	255	
991.987	1	1	0	0	0.14546	0.096755	0.16459	0.067351	0.25952	0.097926	0.28201	0.26882	0.21943	0.040705	0.19248	0.21606	0.26289	0.21756	0.04767	0.25256	-2.1333	-2.9625	-2.5292	-3.0563	-2.7854	-2.6354	-3.2333	-2.7771	-2.6167	-3.0125	-2.7771	-2.9062	-3.0125	-2.6208	-3.0042	-3.0604	-11.008	-13.741	-25.034	81.767	124.177	37.181	154.944	233.604	-63.931	-5.716	226.069	201.290	191.332	-79.558	-7.188	112.750	0.0014353	0.0016853	8.9526e-05	1349.2	1.1568e-05	8.6494e-06	1460.5	489.78	1.8994e-05	2.012e-05	660.62	277.38	201.19	81.39	1.0609e-05	121.61	0.0012957	0.0013012	0.00035943	1297.8	1.4302e-05	1.4262e-05	1387.9	464.45	1.4408e-05	1.4223e-05	630.21	262.15	194.36	78.049	1.4222e-05	115.16	38.536	-40.053	113.491	-77.620	138.101	102.365	-78.314	-71.768	5.242	51.780	-73.569	-69.416	-67.999	-61.968	85.003	-65.326	-8191	255	
992.083	1	1	0	0	0.11407	0.06614	0.2046	0.15657	0.087968	0.10632	0.098025	0.35426	0.046342	0.13813	0.095863	0.18161	0.30466	0.15788	0.12143	0.21943	-2.1979	-2.9396	-2.6417	-2.7979	-3.0083	-2.3646	-3.1333	-3.1729	-2.5917	-3.0646	-2.7687	-2.9125	-2.9667	-2.7438	-2.9333	-3.0646	87.071	227.670	65.833	173.093	160.815	-55.454	194.932	204.483	142.828	-0.530	-68.713	142.642	-79.509	216.210	256.472	146.381	0.0016586	0.00054027	0.00020208	1343.7	2.179e-05	1.9726e-05	1460.7	488.39	1.1673e-05	1.5925e-05	665.45	276.5	202.35	81.484	1.1932e-05	121.69	0.0013058	0.0013003	0.0003669	1299.6	1.4414e-05	1.437e-05	1392.7	466.14	1.4231e-05	1.4277e-05	633.05	262.39	194.59	78.129	1.4338e-05	115.39	48.295	66.617	15.335	-77.010	38.468	7.786	-78.465	-71.689	-17.251	52.216	-73.675	-69.346	-67.932	-61.867	153.950	-65.046	-8191	255	
992.180	1	1	0	0	0.058662	0.064228	0.33935	0.19701	0.021065	0.13385	0.21117	0.30745	0.098556	0.052651	0.33846	0.29619	0.23621	0.099452	0.17979	0.21327	-2.1521	-2.9583	-2.6104	-2.875	-2.9375	-2.425	-3.0958	-2.925	-2.5833	-2.9333	-2.8708	-2.6542	-2.9562	-2.8812	-2.8583	-3.1375	81.707	42.163	51.538	158.395	264.030	69.477	223.026	201.574	-34.490	14.473	264.365	-88.198	234.771	256.737	-3.683	188.270	0.0013349	0.00024137	0.00019624	1350.7	1.5223e-05	2.1477e-05	1461.8	488.94	1.3911e-05	3.53e-06	667.71	277.42	203.12	82.167	1.2777e-05	122.71	0.0013127	0.0012939	0.00036322	1301.7	1.4179e-05	1.4234e-05	1394.7	465.9	1.4048e-05	1.4108e-05	633.64	262.95	195.6	78.227	1.4168e-05	115.86	39.405	133.229	-57.231	-77.289	-9.059	13.016	-78.298	-72.018	100.843	34.123	-73.469	-69.419	-67.772	-61.920	100.572	-64.946	-8191	255	
992.300	1	1	0	0	0.16215	0.19946	0.2753	0.3516	0.26669	0.10935	0.20677	0.41465	0.12054	0.064029	0.31801	0.34808	0.17586	0.31073	0.15564	0.15278	-2.175	-2.9229	-2.7604	-2.6604	-3.0917	-2.5687	-2.9313	-3.0687	-2.5875	-3.0521	-2.9	-2.8167	-3.1896	-2.8604	-2.8312	-3.0563	-59.393	205.200	-84.851	236.836	223.377	180.959	210.114	195.129	63.248	4.864	182.199	261.308	46.302	227.979	169.623	-68.720	0.001103	0.00063575	0.00038812	1351.5	7.1813e-06	2.3512e-05	1471.2	488.4	1.1069e-05	5.1642e-06	665.44	278.52	202.02	81.691	1.462e-05	121.66	0.0012986	0.001304	0.00036736	1302.5	1.4092e-05	1.4425e-05	1398.9	466.49	1.408e-05	1.4247e-05	632.23	262.68	194.56	77.949	1.4009e-05	114.91	8.866	50.548	-84.330	-77.482	-28.528	7.980	-78.219	-71.760	57.635	166.572	-73.342	-69.454	-67.858	-61.767	54.251	-64.984	-8191	255	
992.396	1	1	0	0	0.18726	0.088003	0.071398	0.12668	0.11315	0.092879	0.23209	0.11132	0.030094	0.12464	0.12307	0.16604	0.16845	0.32086	0.18818	0.25634	-2.0875	-2.9437	-2.9375	-2.7458	-2.9875	-2.6875	-2.9042	-3.0604	-2.4042	-3.0833	-2.9958	-2.9354	-2.9792	-2.8937	-2.7625	-3.1375	-15.021	65.464	-6.196	267.614	25.693	211.633	248.000	228.998	146.951	201.606	229.219	198.029	168.390	269.367	179.214	251.082	0.0012575	0.00075071	0.00014814	1353.1	3.1298e-06	9.2632e-06	1457.4	488.77	9.5207e-06	5.5905e-06	662.5	277.01	201.14	81.477	1.1217e-05	121.24	0.0012894	0.0012851	0.00036086	1299.9	1.3946e-05	1.4266e-05	1388.3	465.41	1.4152e-05	1.4401e-05	629.56	261.82	194.42	77.925	1.4023e-05	114.88	32.653	261.495	52.349	-77.178	48.748	23.142	-78.184	-71.832	-69.851	71.680	-73.745	-69.255	-67.768	-61.805	-37.077	-65.233	-8191	255	
992.468	1	1	0	0	0.14454	0.14702	0.021293	0.20483	0.098726	0.094082	0.25245	0.30518	0.22145	0.21155	0.21492	0.31594	0.079357	0.184	0.097027	0.035407	-2.1458	-3.0042	-2.975	-2.6292	-2.9583	-2.7417	-2.975	-3.2729	-2.5812	-2.7771	-3.1271	-2.7	-3.275	-3.0979	-2.6188	-3.2354	181.830	67.997	167.760	255.909	216.102	247.337	227.105	144.375	12.835	26.015	250.409	240.032	191.567	229.016	68.127	108.257	0.0014187	0.0012965	0.00038961	1348.2	3.9642e-06	1.8163e-05	1458.7	491.58	1.9875e-05	6.478e-06	668.15	278.96	203.66	82.385	4.5701e-06	122.74	0.0012882	0.0012927	0.00035897	1299.9	1.3983e-05	1.4348e-05	1389.6	467.55	1.4043e-05	1.4168e-05	634.62	264.27	196.92	78.726	1.4502e-05	116.04	39.061	17.026	4.734	-77.217	33.736	149.394	-78.133	-71.781	94.078	36.800	-73.552	-69.519	-67.649	-62.134	-16.886	-65.326	-8191	255	
992.587	1	1	0	0	0.28944	0.082599	0.06921	0.34702	0.3623	0.085726	0.19646	0.23174	0.15224	0.20376	0.15101	0.22528	0.10522	0.29674	0.094446	0.19253	-2.325	-3.0812	-2.95	-2.6458	-3.0417	-2.8063	-2.9042	-3.2729	-2.6396	-2.8438	-3.1979	-2.7958	-2.8896	-2.825	-2.6458	-3.2125	-49.716	191.333	212.379	258.469	185.969	226.914	235.061	213.577	80.524	52.231	-73.805	-82.460	221.251	236.204	10.339	213.358	0.0018504	0.00065763	0.00042321	1355	1.339e-05	1.8026e-05	1473.8	494.19	1.7549e-06	2.1761e-05	673.92	282.68	205.96	82.986	1.1443e-05	123.85	0.001314	0.0013212	0.0003683	1307	1.4426e-05	1.4503e-05	1399.4	470.3	1.4497e-05	1.4545e-05	640.05	266.81	198.22	79.406	1.4509e-05	117.32	25.719	94.812	65.683	-77.324	40.204	18.105	-78.254	-72.085	179.806	125.134	-73.650	-69.455	-67.789	-61.785	104.166	-65.091	-8191	255	
992.683	1	1	0	0	0.20971	0.22578	0.19612	0.20589	0.12245	0.18517	0.1679	0.18526	0.21742	0.11226	0.1028	0.15812	0.21438	0.17087	0.2191	0.19399	-2.3563	-2.5833	-3.0187	-2.7458	-3.0208	-2.9042	-2.7458	-3.1917	-2.5854	-2.7625	-3.0417	-2.6375	-3.05	-3.0708	-2.6312	-3.2979	60.220	134.340	112.341	237.310	18.717	268.015	201.976	230.261	157.494	-33.601	-89.156	254.271	-82.646	180.638	-78.607	216.416	0.0018246	0.0020696	9.4259e-05	1357.8	1.3875e-05	1.8887e-05	1483.5	497.02	1.4408e-05	1.0395e-05	673.24	282.05	206.51	83.252	4.635e-06	123.6	0.0013165	0.0013389	0.00037247	1309	1.4618e-05	1.4659e-05	1410.1	473.29	1.4656e-05	1.4712e-05	641.74	267.9	198.57	79.472	1.4381e-05	116.85	42.071	41.460	84.447	-77.126	79.155	10.534	-78.263	-72.183	56.639	124.733	-73.585	-69.385	-68.055	-62.107	85.051	-65.142	-8191	255	
992.779	1	1	0	0	0.20545	0.20318	0.13611	0.23071	0.20098	0.29227	0.13446	0.25402	0.16856	0.11829	0.33352	0.25953	0.38666	0.11096	0.25606	0.1672	-2.35	-2.7083	-3.0062	-2.6562	-2.9417	-2.9104	-2.7104	-3.1792	-2.7417	-2.6542	-3.2271	-2.8479	-3.0771	-3.1583	-2.5938	-3.2812	161.656	256.208	-45.659	190.453	244.633	-89.333	217.614	-44.589	33.851	-43.549	229.826	225.038	-73.171	214.179	169.733	262.453	0.00088403	0.00095344	0.00050081	1356.6	7.0418e-06	2.2115e-05	1472.1	494.07	1.2055e-05	5.4104e-06	670.33	281.85	206.33	82.896	2.5459e-05	123.17	0.0013246	0.0013232	0.00036582	1303.6	1.4371e-05	1.4283e-05	1398.1	470.12	1.4311e-05	1.4376e-05	637.41	266.33	197.73	79.226	1.4402e-05	116.5	17.589	259.875	12.044	-77.391	206.819	3.987	-78.357	-71.798	181.034	110.830	-73.725	-69.645	-68.261	-61.990	55.833	-65.110	-8191	255	
992.875	1	1	0	0	0.1827	0.1599	0.096588	0.30241	0.17964	0.075496	0.096237	0.30171	0.12081	0.22907	0.31421	0.098122	0.38298	0.27856	0.060847	0.34926	-2.4208	-2.6375	-3.0396	-2.7229	-2.7396	-2.9583	-2.8042	-3.225	-2.8812	-2.6	-3.1854	-2.8104	-2.8833	-3.0583	-2.5125	-3.1479	96.778	141.773	223.391	173.539	261.121	33.406	187.379	231.561	-69.530	69.587	208.287	217.489	-61.950	213.081	119.283	237.829	0.0015699	0.0012642	0.0002883	1350.2	6.7893e-06	2.9664e-06	1465.7	496.04	2.4801e-05	1.5627e-05	671.06	282.02	207.02	83.341	5.4318e-06	123.68	0.0013037	0.0013122	0.00035859	1302.5	1.4166e-05	1.4272e-05	1396	470.74	1.4205e-05	1.4465e-05	639.42	266.99	198.7	79.43	1.4147e-05	117.04	30.558	2.285	72.402	-77.347	85.603	158.951	-78.360	-71.913	67.048	26.785	-73.930	-69.562	-68.020	-62.027	253.822	-65.076	-8191	255	
992.996	1	1	0	0	0.080638	0.19457	0.19052	0.19164	0.13936	0.15693	0.161	0.053123	0.13156	0.27558	0.22812	0.11231	0.22204	0.17997	0.1101	0.21446	-2.4667	-2.7208	-3.025	-2.6667	-2.9542	-3	-2.7458	-3.1708	-2.9688	-2.6063	-3.1625	-2.9062	-2.8583	-3.1562	-2.5208	-3.0979	-56.338	6.385	-59.053	-86.348	218.072	-79.709	184.763	138.870	215.509	-1.211	-34.078	181.628	186.454	221.327	10.732	177.385	0.0011469	0.00078314	0.00046191	1361.9	9.4557e-06	2.0906e-05	1477.1	499.35	1.4776e-05	9.1021e-06	675.44	284.25	205.74	83.296	1.0143e-05	124.94	0.0013128	0.0013077	0.00036311	1311.8	1.4483e-05	1.44e-05	1404.9	473.8	1.4305e-05	1.4424e-05	641.8	268.02	198.18	79.493	1.4304e-05	117.45	43.599	21.761	5.800	-77.622	39.936	75.523	-78.373	-71.825	-73.716	-31.228	-73.502	-69.670	-68.270	-62.146	245.023	-65.018	-8191	255	
993.068	1	1	0	0	0.15408	0.13552	0.12474	0.065917	0.34816	0.063742	0.061102	0.20493	0.036803	0.064002	0.24976	0.19922	0.16812	0.042169	0.22536	0.28344	-2.3875	-2.5125	-2.925	-3.0583	-2.6437	-3.2042	-2.8167	-2.9958	-2.9625	-2.55	-3.0542	-2.8375	-2.975	-3.1625	-2.7646	-3.1958	12.994	21.836	-18.443	-72.665	199.626	173.816	-86.651	178.970	150.270	22.016	223.173	220.881	-48.532	5.590	-51.821	231.995	0.001323	0.0011324	0.00017177	1355.5	1.8754e-05	4.7086e-06	1470.9	496.57	2.3872e-05	9.0924e-06	668.56	283.62	205.57	82.858	1.5903e-05	123.62	0.0012948	0.0012954	0.00036302	1305.2	1.4427e-05	1.4265e-05	1402.3	471.9	1.4209e-05	1.4436e-05	637.99	266.97	197.52	78.905	1.4306e-05	116.62	25.735	-46.836	-10.319	-77.160	32.361	33.780	-78.293	-71.890	180.110	-14.995	-73.601	-69.434	-68.113	-62.288	51.455	-64.955	-8191	255	
993.164	1	1	0	0	0.12874	0.13883	0.14381	0.1267	0.21426	0.055353	0.29864	0.49444	0.10598	0.26145	0.11319	0.24005	0.22391	0.28711	0.20374	0.42085	-2.6604	-2.4813	-3.0021	-2.8917	-2.6562	-3.0646	-2.9646	-2.7896	-2.95	-2.7042	-2.9688	-3.1063	-2.6354	-3.2521	-2.6042	-2.9042	215.235	150.827	6.525	-37.300	-0.464	145.046	187.934	220.896	64.623	0.160	171.034	186.991	184.855	-79.518	110.556	209.858	0.00082062	0.0011846	0.00013372	1358.1	1.2693e-05	1.8475e-05	1472.3	496.14	2.0525e-05	6.9565e-06	671.93	283.63	207.27	83.965	2.0231e-05	124.48	0.0012932	0.0013151	0.00036486	1306.6	1.4419e-05	1.4283e-05	1403.3	472.72	1.424e-05	1.45e-05	641.6	268.79	199.78	80.124	1.4397e-05	117.62	38.568	-15.761	-15.027	-77.416	22.548	12.798	-78.322	-71.961	23.849	35.890	-73.655	-69.530	-68.050	-62.123	45.618	-65.104	-8191	255	
993.260	1	1	0	0	0.17955	0.079998	0.19319	0.14022	0.25808	0.3001	0.28869	0.21438	0.32175	0.19038	0.23526	0.16984	0.19884	0.13264	0.1604	0.25824	-2.5875	-2.8	-2.975	-3.0687	-2.5104	-2.9021	-2.8708	-2.9437	-3.0563	-2.6583	-2.9521	-3.2271	-2.5833	-3.2646	-2.7833	-2.9229	155.125	241.108	156.619	24.450	267.768	52.270	208.694	193.480	64.243	51.508	221.477	246.904	260.454	-38.863	-50.282	133.582	0.0019217	0.0016379	0.00028925	1353.9	1.1589e-05	1.2451e-05	1488.5	501.85	2.4713e-05	1.9186e-05	681.16	288.4	209.62	84.608	6.1675e-06	125.68	0.0013008	0.0013204	0.00037122	1309.2	1.4491e-05	1.424e-05	1415.4	477.54	1.4282e-05	1.4739e-05	649.59	272.22	202.08	80.9	1.4808e-05	118.96	21.135	13.171	-45.511	-77.312	-16.395	204.805	-78.390	-71.962	10.378	74.642	-73.582	-69.692	-68.001	-62.049	68.433	-65.385	-8191	255	
993.381	1	1	0	0	0.22161	0.11741	0.11292	0.095611	0.1668	0.15277	0.17918	0.26461	0.18483	0.14405	0.26984	0.21678	0.078244	0.30792	0.13355	0.19207	-2.4833	-2.6688	-2.6937	-2.9146	-2.6063	-2.9208	-3.0708	-2.8771	-3.0771	-2.675	-2.9208	-3.0583	-2.7	-3.0042	-2.85	-2.7583	115.044	6.729	214.841	133.652	-38.722	142.222	234.339	202.339	189.063	50.103	223.643	255.656	231.564	-85.547	192.070	267.355	0.0016083	0.00078114	0.0003326	1369	1.2775e-05	4.4838e-06	1487.9	502.64	1.9407e-05	1.277e-05	682.57	289.39	209.05	84.385	8.6655e-06	125.94	0.001342	0.0013606	0.00037764	1319.7	1.4935e-05	1.493e-05	1418.6	477.73	1.4847e-05	1.4996e-05	650.55	272.71	201.52	80.581	1.469e-05	119.17	34.294	62.119	20.398	-77.467	68.087	-15.953	-78.381	-72.011	136.067	43.640	-73.501	-69.434	-68.131	-61.894	73.207	-64.945	-8191	255	
993.477	1	1	0	0	0.20976	0.32862	0.10472	0.10044	0.1053	0.14097	0.1767	0.39481	0.20844	0.25657	0.37072	0.21949	0.10494	0.11374	0.10936	0.14589	-2.6104	-2.5729	-2.5271	-3.2313	-2.6104	-2.9479	-3.1167	-2.8396	-3.1396	-2.8021	-2.9417	-3.3354	-2.7938	-2.9313	-2.9833	-2.6375	-40.379	121.740	64.193	231.861	47.607	67.671	216.795	228.830	208.952	-2.513	219.741	200.269	7.363	233.404	125.916	212.084	0.00089867	0.0014303	5.5997e-05	1359.8	1.0176e-05	6.7607e-06	1496.2	506.36	1.9308e-05	2.049e-05	693.31	292.77	212.88	85.959	1.0679e-05	127.08	0.0013137	0.0013414	0.0003729	1319	1.476e-05	1.4843e-05	1426.8	483.28	1.4932e-05	1.4978e-05	660.4	277.08	205.71	82.188	1.4854e-05	120.43	23.432	62.164	-75.227	-77.222	44.826	135.403	-78.303	-72.114	-0.446	100.677	-73.813	-69.630	-67.868	-62.020	30.148	-65.095	-8191	255	
993.573	1	1	0	0	0.27409	0.060218	0.33796	0.13305	0.044365	0.20552	0.27814	0.18021	0.22679	0.16216	0.20674	0.20383	0.2978	0.25389	0.10297	0.42062	-2.5687	-2.6042	-2.4688	-3.0062	-2.7292	-2.8187	-3.1271	-2.7833	-2.8458	-2.75	-2.7062	-2.9292	-2.7146	-2.9396	-2.9062	-2.5729	223.662	223.929	210.530	200.683	118.653	-11.270	223.630	199.119	226.220	121.325	-41.467	-73.866	247.154	-85.430	-41.191	204.608	0.001217	0.00076209	0.00031397	1367.1	9.3342e-06	2.0065e-05	1485.8	507.67	2.2218e-05	2.3409e-05	690.32	291.5	212.37	85.94	1.3528e-05	127.34	0.0013329	0.0013549	0.00037229	1317.6	1.4537e-05	1.4566e-05	1415.1	481.96	1.4374e-05	1.4467e-05	654.01	274.77	203.91	81.766	1.4578e-05	120.16	44.719	-4.984	42.268	-77.454	16.785	0.479	-78.407	-72.019	13.991	-3.864	-73.582	-69.675	-68.474	-62.116	65.934	-65.074	-8191	255	
993.692	1	1	0	0	0.32583	0.25004	0.010789	0.035593	0.2309	0.077778	0.24611	0.35094	0.054688	0.31204	0.017472	0.244	0.04664	0.39373	0.11738	0.43698	-2.2458	-2.7875	-2.5104	-3.1958	-2.5563	-2.8063	-3.0438	-2.7021	-2.8875	-2.9271	-2.6271	-3.0354	-2.7729	-2.7833	-2.8896	-2.7729	-6.548	74.891	207.465	-40.215	86.077	111.190	269.995	241.247	146.342	-27.450	220.227	210.814	-87.720	258.584	42.334	218.697	0.0020221	0.0010497	0.0003271	1374.4	4.7454e-06	1.8289e-05	1501.4	513.9	5.5265e-06	8.2202e-06	697.8	294.75	216.6	87.923	1.5515e-05	129.62	0.0013158	0.0013456	0.00037266	1327.8	1.4805e-05	1.4908e-05	1431.2	488.62	1.4668e-05	1.4611e-05	665	278.93	208.4	83.771	1.4729e-05	122.49	40.254	89.390	-32.744	-77.431	64.122	8.803	-78.157	-71.980	95.908	16.330	-73.813	-69.986	-68.221	-62.121	-46.323	-65.477	-8191	255	
993.763	1	1	0	0	0.2753	0.0011758	0.10814	0.18794	0.12789	0.23646	0.23692	0.14477	0.19353	0.15973	0.18964	0.44483	0.080887	0.24151	0.18018	0.32785	-2.5042	-2.8521	-2.5333	-2.9333	-2.8354	-2.6854	-3.2396	-2.8646	-2.7292	-2.8875	-2.7021	-3.1625	-2.5958	-2.8688	-2.8167	-2.8271	142.630	180.000	46.761	249.055	-24.853	155.271	258.484	189.091	40.609	-73.309	193.408	-75.289	209.174	240.127	251.803	166.641	0.0016398	0.00065721	0.00022114	1390.9	1.5967e-05	9.9587e-06	1526.9	527.49	7.2946e-06	1.1705e-05	717.07	304.73	222.8	90.228	5.237e-06	132.72	0.0013505	0.0013795	0.00038121	1344.6	1.5256e-05	1.5456e-05	1454.3	501.16	1.5416e-05	1.5697e-05	682.23	287.84	214.64	86.155	1.5208e-05	125.32	29.417	37.876	12.594	-77.497	19.168	6.263	-78.488	-72.208	145.479	-7.344	-74.104	-69.809	-68.543	-62.410	160.033	-65.129	-8191	255	
993.860	1	1	0	0	0.14789	0.12278	0.065009	0.18118	0.055599	0.1191	0.17681	0.10302	0.13751	0.11615	0.28633	0.20787	0.096485	0.14512	0.10579	0.38326	-2.4208	-2.9437	-2.5083	-2.9021	-2.8583	-2.6896	-3.1292	-2.85	-2.8771	-2.8208	-2.6292	-3.1375	-2.9125	-2.4646	-2.8958	-2.8583	109.839	-65.119	8.757	29.515	72.595	187.038	168.365	156.671	216.472	107.094	209.001	242.067	-88.281	-73.546	76.045	218.600	0.0014758	0.0011544	0.00020916	1406.3	4.37e-06	1.9742e-05	1542	535.11	2.0525e-05	1.3243e-05	730.44	312.93	230.52	93.049	7.9763e-06	136.08	0.0013827	0.0014023	0.00038503	1352	1.5262e-05	1.543e-05	1465.9	507.65	1.5426e-05	1.5429e-05	695.59	295.72	221.32	88.821	1.5666e-05	128.74	27.619	28.365	-86.546	-77.462	-82.624	55.982	-78.277	-72.130	38.371	19.624	-73.861	-69.948	-68.280	-62.295	62.250	-65.669	-8191	255	
993.980	1	1	0	0	0.2196	0.034649	0.091277	0.19092	0.013176	0.046232	0.33155	0.23824	0.12303	0.39479	0.31375	0.20356	0.30678	0.39431	0.13473	0.19073	-2.1562	-2.8917	-2.6521	-3.025	-2.8333	-2.4667	-3.1125	-2.8896	-2.6854	-2.9771	-2.6021	-3.1396	-2.8583	-2.6771	-2.9167	-2.95	236.676	-28.835	-30.216	-17.542	51.748	93.938	222.543	129.111	233.853	11.841	211.915	195.857	207.056	262.837	76.734	213.335	0.0017152	0.00068385	0.0003357	1429.9	7.581e-06	3.6176e-06	1555.9	543.41	1.6701e-05	2.4287e-06	733.9	312.38	230.85	92.993	8.3341e-06	135.18	0.0014559	0.0014678	0.00040418	1380.3	1.5831e-05	1.5983e-05	1482	515.84	1.5711e-05	1.5552e-05	697.03	295.01	221.37	88.606	1.5089e-05	127.39	55.244	138.027	-16.207	-77.261	-39.844	156.222	-78.395	-72.386	-12.985	65.762	-73.900	-69.908	-68.669	-62.601	16.554	-65.596	-8191	255	
994.076	1	1	0	0	0.1178	0.29021	0.13069	0.15686	0.071237	0.063159	0.40144	0.35611	0.065901	0.1267	0.34644	0.24096	0.11041	0.4621	0.085334	0.24979	-2.3354	-2.8312	-2.5479	-2.8771	-2.8187	-2.6562	-3.0875	-2.9021	-2.4396	-2.8333	-2.6458	-2.9125	-3.0604	-2.8354	-2.8979	-2.9917	57.159	-29.854	1.220	238.234	59.742	-20.034	230.603	226.494	67.486	49.407	258.594	194.459	-47.135	247.502	253.397	213.819	0.0014401	0.0016085	9.9764e-05	1432.2	1.0053e-05	1.0367e-05	1547.1	541.17	3.1261e-06	1.3086e-05	728.53	310.91	230.82	92.445	1.0163e-05	134.32	0.0014051	0.0013909	0.00039196	1380.3	1.557e-05	1.5576e-05	1473.7	514.71	1.5608e-05	1.5634e-05	692.26	293.55	221.42	88.431	1.5868e-05	127.08	60.000	42.028	-3.536	-77.539	100.861	31.797	-78.167	-72.076	79.465	23.730	-73.937	-69.825	-68.465	-62.335	23.012	-65.332	-8191	255	
994.172	1	1	0	0	0.040364	0.070944	0.13437	0.28388	0.028556	0.035226	0.23946	0.3869	0.015702	0.11949	0.47834	0.37451	0.17162	0.21661	0.23964	0.33592	-2.1271	-3.0625	-2.5417	-2.6437	-2.775	-2.3333	-3.0563	-2.9646	-2.3521	-3.0125	-2.8771	-2.7521	-3.1208	-2.7479	-2.8312	-2.9625	-13.190	-2.491	231.675	243.882	-73.687	6.311	234.722	227.883	89.595	149.785	184.347	248.261	268.069	239.255	-24.897	151.170	0.00079579	0.0017311	0.00015533	1449.4	2.6896e-06	1.4849e-06	1559.7	549.04	1.9212e-05	1.5741e-05	731.6	312.06	233.19	93.261	1.1989e-05	135.99	0.0014475	0.001428	0.0004076	1396.2	1.5862e-05	1.6113e-05	1486.8	520.65	1.5973e-05	1.5969e-05	696.75	295.61	223.82	89.335	1.5838e-05	128.6	35.387	22.002	126.764	-77.577	84.309	68.116	-78.355	-72.347	183.503	76.658	-73.846	-69.707	-68.452	-62.649	92.427	-65.583	-8191	255	
994.293	1	1	0	0	0.019204	0.30823	0.13407	0.23831	0.076697	0.1925	0.12237	0.14591	0.17065	0.26616	0.35083	0.22482	0.04416	0.19614	0.069765	0.13688	-2.0354	-2.775	-2.75	-2.7917	-2.9896	-2.5563	-2.8812	-3.0125	-2.5125	-2.8771	-2.75	-2.6104	-2.9729	-2.7958	-2.7188	-3.0271	70.095	204.667	128.442	219.264	-71.154	219.782	182.617	226.813	-39.883	254.326	238.704	-48.261	122.845	267.231	-70.316	107.843	0.0012869	0.001253	0.00016181	1444.8	1.027e-05	1.2139e-05	1561.5	547.3	7.9464e-06	1.8877e-05	729.43	311.62	231.12	92.628	6.4108e-06	135.42	0.0014408	0.0014303	0.00040003	1392.6	1.5366e-05	1.5382e-05	1486.3	518.25	1.4957e-05	1.4955e-05	693.68	294.58	220.39	88.259	1.4557e-05	127.51	37.506	26.446	90.175	-77.231	98.672	36.174	-78.270	-72.436	63.395	31.391	-73.847	-70.067	-68.349	-62.531	-3.266	-65.578	-8191	255	
994.365	1	1	0	0	0.15958	0.24894	0.12443	0.26105	0.11104	0.058345	0.46061	0.036723	0.16895	0.12055	0.29028	0.3088	0.11546	0.21556	0.11248	0.20737	-1.9229	-2.8729	-2.5292	-2.5896	-2.975	-2.675	-2.9792	-3.0083	-2.3729	-2.9229	-2.9771	-2.725	-3.0104	-2.8708	-2.6688	-3.2396	83.249	152.483	126.972	189.196	255.578	240.969	194.480	178.176	268.442	-34.918	160.960	220.935	258.965	233.771	91.901	242.930	0.0013663	0.00025841	0.00024263	1430.7	1.9882e-05	1.1948e-05	1541.2	539.99	7.7165e-06	1.3417e-05	719.05	307.64	227.04	91.535	1.1405e-05	134.07	0.0013129	0.0013096	0.00036444	1373.8	1.4169e-05	1.4133e-05	1462.9	511.03	1.3941e-05	1.4144e-05	681.87	289.37	216.92	86.978	1.396e-05	126.03	33.720	-71.651	38.401	-77.205	39.984	105.243	-78.431	-72.343	232.144	119.303	-73.924	-69.764	-68.448	-62.493	22.014	-65.386	-8191	255	
994.461	1	1	0	0	0.084771	0.05513	0.13017	0.30831	0.23403	0.17863	0.22992	0.3709	0.27616	0.13949	0.025569	0.10184	0.090487	0.28683	0.22074	0.21892	-1.8875	-2.6937	-2.8312	-2.5479	-3.0729	-2.5438	-2.7104	-3.0438	-2.5208	-2.8229	-2.9729	-2.6271	-3.0479	-2.8583	-2.5458	-3.0417	185.821	4.737	-4.239	232.307	232.786	-63.570	218.802	185.985	211.950	224.695	200.845	205.686	208.397	191.841	220.696	170.815	0.0013702	0.0014988	0.00020956	1398.9	1.4831e-06	9.3843e-06	1528	533.36	5.6128e-06	1.0374e-05	717.66	307.91	224.64	92.115	1.6094e-05	134.94	0.0012811	0.0012639	0.00035491	1350.7	1.3838e-05	1.4059e-05	1453.6	503.68	1.4005e-05	1.419e-05	680.25	289.02	215.71	87.401	1.4236e-05	126.86	39.041	18.791	32.182	-77.169	67.928	153.617	-78.530	-72.114	-10.516	92.405	-74.016	-69.774	-68.178	-62.554	64.249	-65.402	-8191	255	
994.557	1	1	0	0	0.18471	0.1706	0.1266	0.19426	0.1241	0.16162	0.16293	0.27894	0.1355	0.12942	0.23895	0.34116	0.20055	0.22135	0.12337	0.35281	-1.9188	-2.7771	-2.6813	-2.5708	-3.0354	-2.7917	-2.8187	-3.2021	-2.6729	-2.7646	-3.0625	-2.6458	-2.8812	-2.775	-2.5417	-3.1104	210.052	23.610	207.776	240.427	124.679	234.619	216.295	253.036	-82.306	-85.080	217.370	254.409	228.335	-78.309	215.683	247.779	0.0014677	7.0344e-05	0.00038387	1433.4	2.6998e-06	1.334e-05	1548.2	540.16	1.0827e-05	2.0069e-05	725.56	308.7	228.16	92.3	1.6128e-05	135.31	0.0013115	0.0013358	0.00037222	1372.4	1.4447e-05	1.4527e-05	1473.7	511.61	1.4424e-05	1.4652e-05	687.82	292.16	218.02	87.643	1.4504e-05	127.3	45.394	6.259	43.213	-77.492	-24.279	67.944	-78.422	-72.305	66.490	75.427	-73.859	-69.875	-68.470	-62.469	-66.099	-65.517	-8191	255	
994.676	1	1	0	0	0.14833	0.23757	0.05646	0.093077	0.29954	0.20827	0.01311	0.20537	0.25038	0.16847	0.18413	0.25418	0.18756	0.18081	0.1293	0.056244	-2.0667	-2.7792	-2.8583	-2.6	-2.7958	-2.6917	-2.8375	-3.0042	-2.6271	-2.8688	-3.0292	-2.7687	-2.9458	-2.8646	-2.5667	-3.0854	103.251	113.661	20.092	213.957	115.999	221.120	198.871	201.584	-2.832	121.343	225.954	200.030	-43.725	214.609	128.109	264.058	0.0017246	0.0025707	0.00017244	1421.5	8.5858e-06	1.7154e-05	1548.5	538.01	1.7321e-05	6.9913e-06	730.15	313.1	228.42	92.953	2.6922e-06	136.37	0.0013263	0.0013295	0.00036939	1365.2	1.4636e-05	1.4784e-05	1472.1	510.44	1.464e-05	1.4757e-05	694.47	294.82	219.79	88.451	1.4625e-05	128.23	41.810	48.563	56.493	-77.511	8.512	22.408	-78.361	-71.992	26.570	-9.718	-73.789	-69.880	-68.376	-62.521	44.550	-65.413	-8191	255	
994.772	1	1	0	0	0.066521	0.20478	0.12101	0.1697	0.14959	0.14218	0.093274	0.44552	0.027791	0.034771	0.18882	0.090039	0.2318	0.33823	0.22099	0.1634	-2.1	-2.3792	-2.9188	-2.5812	-2.875	-2.7875	-2.6458	-3.0625	-2.5083	-2.6854	-3.2292	-2.9104	-2.8937	-2.9167	-2.5146	-3.1562	-68.513	6.555	107.508	256.533	248.947	46.325	209.328	177.251	-79.275	-40.624	268.867	-71.424	203.669	187.728	41.074	197.828	0.0013865	0.000469	0.0002954	1412.8	6.7802e-06	1.6038e-05	1542.6	533.95	2.2214e-05	7.4309e-06	720.74	308.54	226.34	92.362	1.6345e-05	134.38	0.0013425	0.0013488	0.00037079	1362.3	1.4592e-05	1.4484e-05	1460.4	506.96	1.455e-05	1.4803e-05	683.34	290.92	217.9	87.727	1.4759e-05	126.98	23.729	38.103	-14.340	-77.402	129.129	63.951	-78.347	-72.342	57.572	58.234	-73.860	-69.778	-68.113	-62.477	14.573	-65.396	-8191	255	
994.868	1	1	0	0	0.12418	0.18338	0.035034	0.25366	0.15929	0.051769	0.20859	0.33189	0.10877	0.19337	0.14523	0.082836	0.23781	0.34652	0.15268	0.161	-2.1292	-2.4708	-2.9729	-2.6625	-2.5771	-2.8958	-2.6604	-3.0062	-2.6771	-2.4708	-3.2021	-2.7146	-2.7271	-3.1729	-2.4167	-3.0917	17.610	48.494	-43.622	-71.429	21.489	-10.408	236.174	202.866	18.222	93.519	214.427	-47.246	203.573	245.839	72.090	227.477	0.0018524	0.0019989	0.00017881	1419.7	1.1434e-05	1.9612e-05	1544.2	534.08	1.5685e-05	2.3487e-06	714.75	303.73	222.94	90.465	1.7774e-05	133	0.0013552	0.0013779	0.00037936	1364.9	1.4986e-05	1.4901e-05	1462.8	506.88	1.4739e-05	1.4599e-05	679.13	287.28	214.29	86.266	1.444e-05	125.34	38.248	-13.314	166.297	-77.834	160.808	72.623	-78.194	-72.079	227.690	128.693	-73.663	-69.766	-67.919	-62.367	111.523	-65.482	-8191	255	
994.964	1	1	0	0	0.071305	0.167	0.23251	0.23825	0.1623	0.07682	0.14942	0.10025	0.1415	0.091673	0.24197	0.26105	0.17582	0.35345	0.076235	0.094327	-2.3146	-2.4625	-3.0417	-2.7313	-2.7208	-2.9521	-2.5042	-2.8208	-2.7833	-2.5563	-3.1271	-2.7208	-2.6813	-3.1396	-2.4646	-3.1958	121.483	107.254	11.476	248.554	109.498	254.398	193.572	154.390	251.858	36.222	185.076	206.299	263.465	245.058	71.925	237.074	0.0019066	0.00040496	0.00029254	1402.5	9.1427e-06	2.2602e-05	1521.1	526.87	8.9064e-06	9.9919e-06	717.17	304.77	223.87	90.684	6.3912e-06	133.21	0.001322	0.0013399	0.00037017	1349.2	1.447e-05	1.4542e-05	1449.6	501.14	1.4533e-05	1.4449e-05	679.47	286.77	214.74	86.394	1.458e-05	125.77	36.018	38.409	-5.455	-77.126	110.577	81.216	-78.543	-72.019	122.858	0.596	-74.003	-69.967	-68.287	-62.458	61.219	-65.578	-8191	255	
995.061	1	1	0	0	0.029194	0.1491	0.21335	0.090989	0.094944	0.1025	0.19475	0.21827	0.14333	0.22527	0.15705	0.087122	0.15995	0.41737	0.1297	0.42187	-2.3271	-2.525	-2.7375	-2.8667	-2.6625	-3.0646	-2.875	-3.0208	-2.9521	-2.4354	-3.0312	-2.9396	-2.7104	-3.1479	-2.6104	-2.8958	-42.501	147.073	-15.012	43.010	-33.650	53.047	235.355	-43.337	4.377	7.834	208.316	-70.302	161.154	238.460	56.965	223.185	0.0013977	0.0011205	0.00043212	1410	9.9108e-06	3.9649e-06	1530.8	530.76	6.185e-06	5.4411e-06	715.39	305.55	225.09	91.385	8.9189e-06	134.09	0.001336	0.0013329	0.00036862	1353	1.4609e-05	1.4563e-05	1457.7	502.38	1.4622e-05	1.455e-05	678.26	288.16	215.27	86.926	1.4803e-05	126.46	46.101	60.550	-73.408	-77.563	121.493	-16.922	-78.217	-72.184	-23.398	61.295	-73.747	-69.822	-68.497	-62.289	-23.993	-65.589	-8191	255	
995.157	1	1	0	0	0.10081	0.25078	0.019418	0.13107	0.14465	0.20507	0.12501	0.26727	0.1743	0.17843	0.33474	0.25568	0.0359	0.47243	0.20297	0.26196	-2.3625	-2.4958	-2.9375	-2.9146	-2.5854	-3.0896	-2.8271	-2.9208	-3.0062	-2.5	-3.0646	-3.0875	-2.8812	-3.0792	-2.5208	-2.975	33.207	139.020	121.602	209.877	94.105	149.776	-76.597	193.974	189.390	39.671	264.911	241.646	264.715	237.004	-64.620	218.025	0.0018064	0.0016115	5.0178e-05	1416.7	1.4036e-05	1.9823e-05	1533.6	532.34	8.219e-06	1.8398e-05	721.41	307.34	226.63	91.558	1.7832e-05	133.09	0.0013477	0.0013643	0.0003751	1365.3	1.497e-05	1.5064e-05	1459.2	506.18	1.5224e-05	1.5228e-05	684.37	290.39	217.41	87.252	1.5295e-05	125.91	50.326	-11.966	-17.318	-77.443	11.292	-15.174	-78.421	-72.099	266.575	-11.263	-73.954	-69.859	-68.202	-62.674	38.925	-65.491	-8191	255	
995.253	1	1	0	0	0.10077	0.159	0.15378	0.089423	0.37721	0.2828	0.083355	0.33925	0.061238	0.030326	0.068123	0.26709	0.14365	0.2678	0.053279	0.26337	-2.4292	-2.6312	-2.9729	-2.85	-2.7313	-2.8688	-2.6625	-2.7313	-3.0062	-2.6104	-3.0375	-3.0604	-2.6375	-2.9708	-2.6646	-2.7458	34.746	41.668	204.700	225.670	72.101	258.306	108.476	216.483	53.572	175.732	267.564	214.612	223.567	248.839	186.201	242.871	0.0014948	0.00098959	9.6809e-05	1403.8	1.1028e-05	1.2886e-05	1529.4	531.01	1.9346e-05	1.9345e-05	716.74	308.95	226.66	92.14	3.0352e-06	134.68	0.0013904	0.0014097	0.00039205	1355.4	1.5261e-05	1.5286e-05	1454.4	504.91	1.5182e-05	1.5341e-05	681.24	291.19	217.89	87.742	1.5172e-05	126.95	27.944	69.424	149.211	-77.494	27.468	90.783	-78.372	-72.268	89.102	30.954	-73.945	-69.767	-68.548	-62.279	-7.153	-65.346	-8191	255	
995.373	1	1	0	0	0.045001	0.12908	0.13036	0.15051	0.098002	0.077768	0.37595	0.17993	0.09898	0.14521	0.11336	0.24663	0.32874	0.35928	0.35004	0.14603	-2.5979	-2.5458	-2.6521	-2.8521	-2.425	-2.9021	-2.7979	-2.7854	-2.8646	-2.5979	-3.0771	-3.1854	-2.6979	-3.1729	-2.7562	-2.8292	123.365	204.306	-76.552	238.512	-44.137	18.482	199.431	203.273	144.741	-20.938	190.635	253.465	235.353	230.497	61.892	231.010	0.001437	0.0020095	0.0001357	1401.1	1.5361e-05	1.8261e-05	1539.7	533.88	9.9609e-06	1.4112e-05	716.86	310.23	226.46	92.61	1.6072e-05	134.53	0.0013884	0.0014001	0.00038725	1355.9	1.5199e-05	1.5286e-05	1466.8	507.92	1.5224e-05	1.5666e-05	683.6	293.41	218.3	87.998	1.5496e-05	127.21	26.774	40.209	-7.956	-77.432	27.559	26.473	-78.324	-72.258	105.910	52.804	-73.753	-69.719	-68.091	-62.657	-21.182	-65.644	-8191	255	
995.470	1	1	0	0	0.24356	0.22624	0.28096	0.12895	0.12734	0.17748	0.23364	0.11716	0.27737	0.15436	0.36262	0.27327	0.18726	0.2494	0.012977	0.28318	-2.5333	-2.5708	-2.6833	-3.0083	-2.3958	-2.9	-3.0458	-2.7188	-3.0896	-2.7625	-2.9604	-3.1604	-2.7375	-3.0042	-2.8375	-2.625	131.165	-85.494	85.285	-86.371	173.892	67.197	220.222	223.368	5.893	34.289	247.524	218.253	186.241	267.768	-34.679	264.989	0.0015464	0.0017405	0.00036891	1408.5	1.7613e-06	1.76e-05	1534.9	531.32	2.4279e-05	1.4793e-05	715.11	309.69	228.39	92.583	1.5453e-05	135.05	0.0013919	0.0014188	0.00039589	1360.3	1.552e-05	1.5497e-05	1464.4	506.44	1.5268e-05	1.565e-05	682.34	292.58	218.97	88.229	1.5613e-05	127.54	41.381	82.563	43.108	-77.298	-57.848	47.650	-78.289	-72.142	15.806	43.838	-73.767	-69.632	-68.280	-62.314	42.532	-65.267	-8191	255	
995.564	1	1	0	0	0.15418	0.24706	0.13709	0.11087	0.18492	0.15981	0.15747	0.37454	0.14006	0.040679	0.29693	0.31515	0.16091	0.30526	0.046717	0.11076	-2.4938	-2.7812	-2.4583	-3.0021	-2.6042	-2.7062	-2.9354	-2.6604	-2.9188	-2.65	-2.7417	-3.1083	-2.6792	-2.8646	-2.75	-2.7562	-56.200	-65.693	224.658	213.578	42.528	-41.799	169.829	190.524	98.319	-5.365	243.400	224.110	227.990	-52.231	-21.569	159.022	0.0016082	0.00071887	0.00013581	1405.7	4.8625e-06	5.4138e-06	1531.7	532.11	1.006e-05	5.502e-06	714.86	307.73	228.13	92.055	1.8283e-05	133.3	0.0014087	0.0014276	0.0003984	1357.1	1.5425e-05	1.5595e-05	1456.8	506.55	1.5307e-05	1.5639e-05	680.52	290.79	218	87.8	1.5442e-05	126.25	28.387	79.076	63.504	-77.380	85.639	67.847	-78.548	-72.017	-14.250	-89.088	-73.934	-69.635	-68.077	-62.473	37.790	-65.586	-8191	255	
995.662	1	1	0	0	0.17952	0.080823	0.13091	0.15049	0.05396	0.077362	0.23382	0.4329	0.077364	0.31671	0.31772	0.192	0.34653	0.29041	0.32017	0.42591	-2.4125	-2.7083	-2.3958	-3.2479	-2.5167	-2.7292	-3.0521	-2.6875	-2.9042	-2.7896	-2.5583	-3.0646	-2.9583	-2.7417	-3.0187	-2.7771	23.503	189.833	226.585	223.992	186.301	52.191	195.354	-68.625	-25.194	-75.215	-82.073	232.289	239.558	258.331	3.284	206.920	0.0012641	0.00025371	0.00026189	1397.5	7.9681e-06	5.6437e-06	1520.6	530.89	7.4274e-06	1.1047e-05	713.92	305.44	227.01	92.156	6.0303e-06	133.79	0.0013944	0.0014159	0.0003933	1353.2	1.5481e-05	1.5451e-05	1452.1	504.55	1.5092e-05	1.5543e-05	678.8	289.33	217.3	87.593	1.5268e-05	126.45	33.383	-21.374	-13.255	-77.370	162.707	-11.812	-78.455	-72.277	-5.974	-5.447	-73.655	-69.909	-68.381	-62.436	-67.884	-65.610	-8191	255	
995.756	1	1	0	0	0.18528	0.1686	0.36234	0.23694	0.29294	0.26465	0.37536	0.059823	0.065142	0.21958	0.2369	0.15681	0.29062	0.37264	0.11765	0.43581	-2.475	-2.9521	-2.3375	-3.0583	-2.85	-2.6375	-3.2792	-2.75	-3.0146	-2.9708	-2.8	-3.1875	-2.8438	-2.9333	-2.9104	-2.6625	101.080	138.030	43.680	211.422	-84.404	-28.055	242.253	191.636	-27.110	-14.619	214.141	252.827	237.797	267.967	5.251	194.084	0.0015615	0.0011899	0.00022507	1403.1	1.0601e-05	1.4435e-05	1531.7	534.63	1.8067e-05	3.2641e-05	716.64	310.49	228.84	92.766	6.6593e-06	134.97	0.0013839	0.0013928	0.00039426	1355.2	1.5561e-05	1.5613e-05	1462.5	507.5	1.5478e-05	1.5723e-05	684.81	293.54	219.69	88.605	1.5665e-05	128.14	31.091	-31.418	-52.185	-77.074	37.276	75.755	-78.216	-71.994	95.174	92.752	-73.629	-69.673	-68.561	-62.431	0.218	-65.567	-8191	255	
995.852	1	1	0	0	0.29473	0.07889	0.31221	0.44978	0.3483	0.1061	0.28487	0.23933	0.15646	0.24597	0.11591	0.45011	0.22333	0.34827	0.15387	0.2122	-2.1646	-2.8042	-2.4313	-2.9437	-2.6729	-2.5646	-3.1688	-2.8125	-2.7812	-2.7687	-2.6958	-3.0771	-2.8875	-2.5917	-2.9625	-2.775	156.816	234.497	28.814	216.878	243.274	10.428	190.107	227.364	242.916	174.547	180.471	202.884	178.371	-88.129	121.297	205.542	0.0016574	0.00039538	0.00029048	1410.8	7.8371e-06	1.9963e-05	1544.9	538.18	2.6691e-05	1.6112e-05	725.67	315.94	229.26	93.952	4.4364e-08	136.24	0.0014348	0.0014465	0.0004053	1363.5	1.6005e-05	1.587e-05	1473.6	510.86	1.604e-05	1.6074e-05	691.94	298.11	221.69	89.589	1.5839e-05	128.77	41.555	33.299	0.842	-77.416	80.916	53.981	-78.420	-72.146	40.051	58.895	-73.679	-69.759	-68.469	-62.690	157.168	-65.456	-8191	255	
995.973	1	1	0	0	0.1709	0.04642	0.14237	0.12746	0.23472	0.20337	0.04377	0.21159	0.19416	0.13067	0.23384	0.21917	0.19978	0.28213	0.24454	0.26155	-2.1688	-2.8542	-2.5187	-3.0458	-2.7958	-2.5521	-3.1354	-2.8896	-2.625	-2.9521	-2.7104	-3.1583	-3.0854	-2.7417	-2.7854	-2.8625	-5.850	-36.582	30.302	238.304	50.147	92.245	-65.491	246.818	30.046	238.780	258.621	247.997	176.145	257.074	218.482	221.175	0.0016701	0.001083	0.00016326	1399.3	8.7762e-06	1.1041e-05	1536.7	532.86	1.8997e-05	1.3574e-05	717.08	311.93	228.25	93.104	9.0354e-06	134.25	0.0014529	0.001454	0.00040281	1357.8	1.5979e-05	1.5836e-05	1466.3	508.4	1.5801e-05	1.5666e-05	683.86	294.13	219.68	88.754	1.5907e-05	127.1	52.761	-25.210	-46.999	-77.669	262.828	70.449	-78.176	-72.102	82.701	33.502	-74.135	-69.744	-68.568	-62.497	11.798	-65.474	-8191	255	
996.069	1	1	0	0	0.049465	0.093825	0.11163	0.052816	0.22337	0.16919	0.22631	0.30083	0.069628	0.1521	0.052487	0.17974	0.26098	0.32506	0.061125	0.2778	-2.2604	-2.8208	-2.5271	-2.9188	-2.8333	-2.4292	-3.2333	-2.9833	-2.7687	-3.1688	-2.5458	-3.0896	-3.0062	-2.7083	-2.8583	-2.9333	180.361	231.167	31.121	-68.239	19.092	190.370	197.687	247.116	211.045	237.151	263.029	220.214	-69.365	261.241	139.455	192.987	0.0019194	0.00087505	2.7831e-05	1410.9	6.492e-06	3.8306e-06	1535.8	530.99	2.4261e-06	1.0686e-05	717.26	310.92	227.35	92.675	2.043e-05	133.98	0.0014564	0.0014569	0.00040965	1361.7	1.597e-05	1.6004e-05	1462.9	506.26	1.5748e-05	1.5677e-05	683.33	292.85	219.1	88.523	1.5614e-05	127.02	33.149	-74.036	268.703	-77.308	86.981	-10.478	-78.236	-72.207	200.341	58.388	-73.594	-69.832	-68.418	-62.638	58.787	-65.524	-8191	255	
#DATA ENDS
