BOXY.EXE: ISS Imagent and Oximeter Data Acquisition Program Version 0.80
Ascii Record File

#ACQ INFORMATION
2  Detector Channels 
16  External MUX Channels 
1  Auxiliary Channels 
5000  Waveform (CCF) Frequency (Hz)
1  Waveforms Skipped 
30  Waveforms Averaged 
1  Cycles Averaged 
16  Acquisitions per Waveform 
10.0806  Updata Rate (Hz) 

#FILE INFORMATION
TRUE -- External MUX Channel results are PARSED.
FALSE -- AC DC and Phase are NOT grouped.
TRUE -- Companion Program Settings File CREATED.
FALSE -- AC data not excluded
FALSE -- DC data not excluded
FALSE -- Phase data not excluded
FALSE -- Auxillary Chn. data not excluded
Tab delimiters

#CALIBRATION STATE
TRUE -- Waveform Calibration Values APPLIED.


#AUX CALIBRATION VALUES
Val Type	aux-1	

Term	1.0000e+00	
Factor	0.0000e+00	


#WF CALIBRATION VALUES
A = Detector Channel
Val Type	A-AC1	A-AC2	A-AC3	A-AC4	A-AC5	A-AC6	A-AC7	A-AC8	A-AC9	A-AC10	A-AC11	A-AC12	A-AC13	A-AC14	A-AC15	A-AC16	A-DC1	A-DC2	A-DC3	A-DC4	A-DC5	A-DC6	A-DC7	A-DC8	A-DC9	A-DC10	A-DC11	A-DC12	A-DC13	A-DC14	A-DC15	A-DC16	A-Ph1	A-Ph2	A-Ph3	A-Ph4	A-Ph5	A-Ph6	A-Ph7	A-Ph8	A-Ph9	A-Ph10	A-Ph11	A-Ph12	A-Ph13	A-Ph14	A-Ph15	A-Ph16	

Term	0.00000e+00	0.00000e+00	0.00000e+00	0.00000e+00	0.00000e+00	0.00000e+00	0.00000e+00	0.00000e+00	0.00000e+00	0.00000e+00	0.00000e+00	0.00000e+00	0.00000e+00	0.00000e+00	0.00000e+00	0.00000e+00	0.00000e+00	0.00000e+00	0.00000e+00	0.00000e+00	0.00000e+00	0.00000e+00	0.00000e+00	0.00000e+00	0.00000e+00	0.00000e+00	0.00000e+00	0.00000e+00	0.00000e+00	0.00000e+00	0.00000e+00	0.00000e+00	0.00000e+00	0.00000e+00	0.00000e+00	0.00000e+00	0.00000e+00	0.00000e+00	0.00000e+00	0.00000e+00	0.00000e+00	0.00000e+00	0.00000e+00	0.00000e+00	0.00000e+00	0.00000e+00	0.00000e+00	0.00000e+00	
Factor	1.00000e+00	1.00000e+00	1.00000e+00	1.00000e+00	1.00000e+00	1.00000e+00	1.00000e+00	1.00000e+00	1.00000e+00	1.00000e+00	1.00000e+00	1.00000e+00	1.00000e+00	1.00000e+00	1.00000e+00	1.00000e+00	1.00000e+00	1.00000e+00	1.00000e+00	1.00000e+00	1.00000e+00	1.00000e+00	1.00000e+00	1.00000e+00	1.00000e+00	1.00000e+00	1.00000e+00	1.00000e+00	1.00000e+00	1.00000e+00	1.00000e+00	1.00000e+00	X	X	X	X	X	X	X	X	X	X	X	X	X	X	X	X	

B = Detector Channel
Val Type	B-AC1	B-AC2	B-AC3	B-AC4	B-AC5	B-AC6	B-AC7	B-AC8	B-AC9	B-AC10	B-AC11	B-AC12	B-AC13	B-AC14	B-AC15	B-AC16	B-DC1	B-DC2	B-DC3	B-DC4	B-DC5	B-DC6	B-DC7	B-DC8	B-DC9	B-DC10	B-DC11	B-DC12	B-DC13	B-DC14	B-DC15	B-DC16	B-Ph1	B-Ph2	B-Ph3	B-Ph4	B-Ph5	B-Ph6	B-Ph7	B-Ph8	B-Ph9	B-Ph10	B-Ph11	B-Ph12	B-Ph13	B-Ph14	B-Ph15	B-Ph16	

Term	0.00000e+00	0.00000e+00	0.00000e+00	0.00000e+00	0.00000e+00	0.00000e+00	0.00000e+00	0.00000e+00	0.00000e+00	0.00000e+00	0.00000e+00	0.00000e+00	0.00000e+00	0.00000e+00	0.00000e+00	0.00000e+00	0.00000e+00	0.00000e+00	0.00000e+00	0.00000e+00	0.00000e+00	0.00000e+00	0.00000e+00	0.00000e+00	0.00000e+00	0.00000e+00	0.00000e+00	0.00000e+00	0.00000e+00	0.00000e+00	0.00000e+00	0.00000e+00	-2.01755e+02	-1.34409e+02	-1.35399e+02	-1.83083e+02	-7.80460e+01	-8.12555e+01	-1.60467e+02	-1.62015e+02	-8.85724e+01	-1.01881e+02	-1.72403e+02	-1.72793e+02	-1.83201e+02	-1.78124e+02	-8.67152e+01	-1.50843e+02	
Factor	3.95846e-05	9.73124e-05	3.25810e-05	1.60056e-01	1.18439e-06	1.23687e-06	1.74041e-01	5.40722e-02	1.55454e-06	1.21527e-06	8.19567e-02	2.70238e-02	2.54596e-02	8.25599e-03	1.22934e-06	1.17843e-02	1.81825e-06	1.89526e-06	5.27697e-07	8.49425e-02	2.06298e-08	2.08177e-08	8.67731e-02	2.86734e-02	2.06830e-08	2.08248e-08	4.19639e-02	1.38319e-02	1.35346e-02	4.39431e-03	2.08435e-08	6.06864e-03	X	X	X	X	X	X	X	X	X	X	X	X	X	X	X	X	



#DISTANCE SETTINGS
A = Detector Channel
A-1	A-2	A-3	A-4	A-5	A-6	A-7	A-8	A-9	A-10	A-11	A-12	A-13	A-14	A-15	A-16	

2.5000e+00	3.0000e+00	2.5000e+00	3.0000e+00	2.0000e+00	3.0000e+00	1.5000e+00	3.0000e+00	3.0000e+00	3.0000e+00	3.0000e+00	3.0000e+00	3.0000e+00	3.0000e+00	1.5000e+00	3.0000e+00	

B = Detector Channel
B-1	B-2	B-3	B-4	B-5	B-6	B-7	B-8	B-9	B-10	B-11	B-12	B-13	B-14	B-15	B-16	

1.0000e+01	1.0000e+01	1.0000e+01	1.4400e+00	1.0000e+01	1.0000e+01	1.5100e+00	1.9400e+00	1.0000e+01	1.0000e+01	1.9900e+00	2.4900e+00	2.4100e+00	2.9000e+00	1.0000e+01	2.9800e+00	




#DATA BEGINS
time	group	step	mark	flag	A-AC1	A-AC2	A-AC3	A-AC4	A-AC5	A-AC6	A-AC7	A-AC8	A-AC9	A-AC10	A-AC11	A-AC12	A-AC13	A-AC14	A-AC15	A-AC16	A-DC1	A-DC2	A-DC3	A-DC4	A-DC5	A-DC6	A-DC7	A-DC8	A-DC9	A-DC10	A-DC11	A-DC12	A-DC13	A-DC14	A-DC15	A-DC16	A-Ph1	A-Ph2	A-Ph3	A-Ph4	A-Ph5	A-Ph6	A-Ph7	A-Ph8	A-Ph9	A-Ph10	A-Ph11	A-Ph12	A-Ph13	A-Ph14	A-Ph15	A-Ph16	B-AC1	B-AC2	B-AC3	B-AC4	B-AC5	B-AC6	B-AC7	B-AC8	B-AC9	B-AC10	B-AC11	B-AC12	B-AC13	B-AC14	B-AC15	B-AC16	B-DC1	B-DC2	B-DC3	B-DC4	B-DC5	B-DC6	B-DC7	B-DC8	B-DC9	B-DC10	B-DC11	B-DC12	B-DC13	B-DC14	B-DC15	B-DC16	B-Ph1	B-Ph2	B-Ph3	B-Ph4	B-Ph5	B-Ph6	B-Ph7	B-Ph8	B-Ph9	B-Ph10	B-Ph11	B-Ph12	B-Ph13	B-Ph14	B-Ph15	B-Ph16	aux-1	digaux	

13942.753	1	1	0	256	0.1727	0.13183	0.17728	0.21212	0.10011	0.11646	0.19503	0.35868	0.1002	0.26248	0.28	0.12403	0.16647	0.14493	0.14053	0.23872	-1.6958	-2.6125	-2.3375	-2.575	-2.5167	-2.1688	-2.8104	-2.6104	-2.1458	-2.6667	-2.3104	-2.3896	-2.5875	-2.0979	-2.55	-2.6125	166.226	-100.746	-71.693	-145.137	160.944	154.101	-60.309	170.973	10.299	45.455	132.031	-84.181	88.828	-125.688	189.816	115.681	0.00041542	0.00059782	4.068e-05	928.92	3.4159e-06	1.1452e-06	1028.9	198.17	6.5585e-06	1.3985e-06	254.73	71.085	54.192	15.679	2.6054e-06	22.4	0.00037922	0.00037895	0.00010707	917.31	4.2206e-06	4.1667e-06	1018.1	198.87	4.2018e-06	4.1559e-06	254.27	72.09	55.415	16.212	4.1508e-06	23.223	139.224	-31.446	75.496	-153.108	33.580	97.544	-153.260	-145.486	86.531	168.396	-145.559	-139.502	-138.911	-131.047	42.249	-131.195	-8191	255	
13942.871	1	1	0	0	0.15408	0.3597	0.27079	0.23222	0.12365	0.18456	0.34772	0.16612	0.16434	0.076194	0.084309	0.068924	0.25473	0.19241	0.19287	0.29712	-1.7687	-2.5812	-2.225	-2.4542	-2.6354	-2.0896	-2.5271	-2.4938	-2.2938	-2.5917	-2.5167	-2.3063	-2.6146	-2.1708	-2.4021	-2.7062	-99.249	120.388	82.261	83.103	148.546	79.566	99.273	66.735	-158.846	-128.257	173.079	-159.013	190.890	-136.806	-105.068	116.512	0.00039672	0.00015446	8.2986e-05	920.8	1.1744e-06	4.0984e-06	1023.2	197.51	4.9465e-06	7.1337e-06	251.31	70.813	54.14	15.492	1.9514e-06	22.274	0.00038013	0.00037431	0.00010373	913.63	4.1312e-06	4.1896e-06	1012.9	198.18	4.207e-06	4.1731e-06	253.84	71.874	55.306	16.168	4.2412e-06	23.163	107.865	-8.891	59.480	-153.007	-11.447	193.521	-153.004	-145.637	80.434	-92.820	-145.910	-138.945	-139.228	-130.953	-91.619	-132.203	-8191	255	
13942.968	1	1	0	0	0.15355	0.036	0.037217	0.14946	0.12012	0.18635	0.31045	0.16841	0.020351	0.18557	0.19607	0.018746	0.094859	0.21255	0.18828	0.35837	-1.6417	-2.5167	-2.4208	-2.3167	-2.5521	-2.1896	-2.55	-2.4146	-2.225	-2.7958	-2.4958	-2.3479	-2.5354	-2.275	-2.1854	-2.675	111.966	-43.406	-83.458	116.408	-11.185	142.534	104.422	-136.966	119.297	133.005	-80.786	31.132	26.019	79.617	-108.240	144.982	0.00028352	0.00024549	0.00011984	924.74	2.1295e-06	1.8691e-06	1027.4	198.36	3.6818e-06	4.0857e-06	252.3	70.062	54.384	15.6	5.0439e-06	22.386	0.00037832	0.00038035	0.00010704	913.07	4.1887e-06	4.16e-06	1014.9	198.42	4.1016e-06	4.132e-06	253.65	71.537	55.19	16.217	4.1437e-06	23.141	118.500	193.290	-14.494	-152.658	-17.949	-102.300	-152.718	-145.539	-89.257	46.097	-145.809	-139.449	-138.562	-131.078	-83.955	-132.087	-8191	255	
13943.064	1	1	0	0	0.14289	0.11294	0.11723	0.20885	0.19067	0.13261	0.12115	0.17729	0.020784	0.060412	0.23824	0.23197	0.055683	0.062297	0.10382	0.25192	-1.8188	-2.4771	-2.5438	-2.3375	-2.5104	-2.1979	-2.3375	-2.5583	-2.1729	-2.325	-2.5396	-2.3104	-2.5396	-2.5854	-2.1333	-2.7042	102.054	-106.770	69.484	-145.336	20.624	-119.237	101.979	60.974	-1.183	131.169	150.016	98.139	70.803	103.939	-89.812	-102.232	0.00056357	0.00031165	9.1709e-05	923.99	1.6904e-06	5.6301e-07	1026.3	197.92	7.5147e-06	6.4302e-06	253.41	70.163	53.941	15.601	1.9925e-06	22.095	0.000372	0.00037349	0.00010446	910.65	4.0969e-06	4.1574e-06	1014.9	198.55	4.1692e-06	4.1995e-06	253.97	71.651	55.046	16.211	4.1544e-06	23.105	144.561	-105.613	-62.208	-152.850	-127.502	-136.557	-153.180	-145.715	-87.950	-31.394	-145.620	-139.168	-138.783	-131.403	9.673	-131.625	-8191	255	
13943.160	1	1	0	0	0.046424	0.060952	0.11373	0.23703	0.059489	0.18097	0.19104	0.044537	0.081821	0.15844	0.11755	0.20212	0.32814	0.21749	0.083318	0.15296	-1.5646	-2.5	-2.4083	-2.3208	-2.4938	-2.3	-2.1583	-2.5375	-2.1437	-2.5062	-2.6708	-2.1833	-2.5104	-2.4896	-2.0146	-2.6125	111.186	11.630	155.520	146.188	-98.335	-34.977	149.818	-28.793	24.406	75.842	-23.368	-146.364	-107.413	-136.621	-143.605	186.716	0.00057854	9.0752e-05	9.3703e-05	917.4	2.7622e-06	3.9707e-06	1022	198.35	2.1799e-06	7.6053e-06	255.3	70.679	54.339	15.438	5.6748e-06	22.131	0.00037094	0.00037925	0.00010302	908.74	4.1597e-06	4.0919e-06	1011.7	198.37	4.0984e-06	4.0778e-06	254.21	71.797	54.987	16.148	4.1044e-06	23.09	163.656	-17.543	-75.726	-153.176	15.516	-131.195	-152.947	-145.532	72.546	-14.212	-145.746	-139.395	-138.936	-131.362	-28.596	-131.768	-8191	255	
13943.256	1	1	0	0	0.065296	0.2747	0.035985	0.16534	0.042076	0.45895	0.35717	0.070415	0.047154	0.06913	0.11578	0.24122	0.08637	0.19419	0.067271	0.13265	-1.7479	-2.1646	-2.3812	-2.1688	-2.425	-2.4583	-2.2812	-2.6417	-2.3354	-2.1896	-2.7104	-2.0438	-2.4958	-2.3979	-2.1437	-2.3667	151.400	166.105	99.565	176.681	-16.906	-100.216	160.167	120.380	-28.488	194.436	-104.695	-148.362	138.763	85.800	92.210	115.871	0.00033155	0.00043083	9.2817e-05	919.84	3.1224e-06	4.2154e-06	1018.4	198.82	1.8236e-06	8.0979e-07	252.11	70.41	54.301	15.604	2.8219e-06	22.171	0.00036485	0.00037165	0.00010245	908.13	4.0876e-06	4.0066e-06	1010.1	198.22	4.0141e-06	3.9948e-06	253.55	71.691	55.125	16.131	4.0973e-06	23.028	143.600	-85.348	-53.025	-153.114	-130.753	43.846	-153.344	-145.635	0.070	-104.266	-145.843	-139.653	-138.871	-131.360	-102.890	-131.407	-8191	255	
13943.352	1	1	0	0	0.30559	0.2643	0.18979	0.18867	0.20734	0.16954	0.26765	0.23368	0.02348	0.057655	0.1752	0.2726	0.14089	0.16382	0.049628	0.060388	-1.7646	-2.2375	-2.4437	-2.2208	-2.4125	-2.55	-2.1	-2.4167	-2.2771	-2.1813	-2.5125	-2.3479	-2.3958	-2.4354	-2	-2.7833	142.338	-3.678	84.953	43.357	-158.321	183.824	146.656	164.368	22.699	-73.879	48.613	160.338	87.905	28.552	89.683	158.203	0.00035577	0.00071694	0.00016732	920.03	2.4189e-06	3.1189e-06	1020.9	197.25	4.5738e-06	5.9867e-06	251.32	70.539	53.9	15.556	1.877e-06	22.306	0.00036954	0.000364	0.00010407	909.22	4.0393e-06	4.0898e-06	1012	198.01	4.0218e-06	4.0975e-06	252.97	71.795	55.016	16.171	4.0129e-06	23.07	131.986	-99.872	-131.679	-153.174	158.093	4.916	-152.869	-145.388	153.052	-48.284	-145.641	-139.635	-138.616	-131.835	-42.639	-132.110	-8191	255	
13943.473	1	1	0	0	0.33154	0.11977	0.0744	0.19405	0.19902	0.18583	0.088361	0.19059	0.1691	0.28145	0.26855	0.42791	0.29118	0.043217	0.13924	0.10612	-1.6604	-2.2146	-2.7021	-2.3104	-2.3375	-2.6875	-2.2438	-2.5667	-2.2562	-2.3438	-2.6792	-2.3229	-2.3958	-2.4375	-2.0771	-2.5667	-87.209	-20.007	9.271	-142.085	136.388	188.198	124.894	143.824	127.389	121.283	129.006	77.976	-130.424	136.095	-57.611	134.680	0.00056833	0.00034766	8.4729e-05	916.66	5.4794e-06	9.9403e-06	1018.8	197.66	3.8642e-06	5.7957e-06	253.1	70.339	53.938	15.592	3.7507e-06	22.122	0.00036315	0.00037214	0.00010241	907.29	4.0605e-06	4.0609e-06	1010.1	197.89	4.0515e-06	4.0634e-06	253.36	71.669	54.838	16.161	3.9761e-06	23.051	132.914	-96.871	-82.596	-152.956	-23.007	-47.756	-153.177	-145.050	149.230	-10.318	-145.504	-139.661	-139.077	-131.154	-18.444	-131.367	-8191	255	
13943.569	1	1	0	0	0.165	0.15451	0.38875	0.21204	0.12134	0.051104	0.29849	0.089713	0.10011	0.10837	0.21492	0.10224	0.13622	0.16524	0.401	0.16033	-2.0271	-2.0792	-2.3937	-2.4042	-2.4667	-2.65	-2.2479	-2.3167	-2.4708	-1.8979	-2.5812	-2.3812	-2.2938	-2.7667	-2.1854	-2.5333	20.617	107.732	67.551	186.770	165.887	-118.310	98.244	82.868	47.054	107.577	-13.834	126.300	-38.863	-68.200	1.756	25.694	0.00038206	8.9918e-05	0.00011014	916.88	3.5384e-06	2.6975e-06	1019	197.73	7.0787e-06	3.428e-06	252.64	70.397	53.983	15.632	4.5512e-06	22.138	0.00036024	0.00036129	0.00010241	906.51	4.0149e-06	4.0577e-06	1009.7	197.49	3.9667e-06	3.9839e-06	252.14	71.47	54.941	16.135	3.9743e-06	23.007	147.416	-103.179	2.970	-153.221	-18.855	50.129	-152.891	-145.695	10.490	-73.330	-145.792	-139.225	-138.459	-130.732	28.296	-131.784	-8191	255	
13943.665	1	1	0	0	0.33981	0.14656	0.20972	0.25292	0.11089	0.21644	0.13588	0.14312	0.17026	0.11794	0.21815	0.079652	0.18169	0.12754	0.20992	0.19119	-1.9104	-2.2521	-2.5271	-2.475	-2.3688	-2.5333	-2.3125	-2.4417	-2.5	-2.2583	-2.7729	-2.4875	-2.3708	-2.8	-2.4021	-2.2687	150.513	153.529	177.116	129.734	-24.980	-91.276	87.974	-153.753	96.521	82.516	124.790	180.579	107.700	115.795	-125.811	-114.563	0.0003346	0.00013749	0.00010593	913.5	1.3375e-06	6.6287e-07	1024.6	196.91	4.8197e-06	2.4619e-06	252.66	70.645	53.941	15.602	2.983e-06	22.046	0.00036119	0.000365	0.00010041	902.87	3.9983e-06	3.9795e-06	1008.1	197.17	3.9464e-06	3.9398e-06	253.02	71.66	55.018	16.128	4.017e-06	22.965	132.100	-89.560	-95.309	-152.793	-29.270	49.528	-152.855	-145.749	74.023	-64.063	-145.704	-139.453	-138.843	-130.675	5.528	-132.078	-8191	255	
13943.761	1	1	0	0	0.065068	0.15755	0.16137	0.20074	0.24478	0.17596	0.19414	0.27461	0.10589	0.33521	0.11153	0.053751	0.09503	0.054018	0.024489	0.17068	-2.0563	-2.0833	-2.5146	-2.325	-2.1708	-2.7062	-2.2562	-2.4	-2.4521	-2.1417	-2.4854	-2.6229	-2.0812	-2.7375	-2.1813	-2.2583	42.550	120.027	-159.804	129.899	130.144	87.160	15.991	177.108	140.730	63.820	122.935	137.702	73.725	99.230	80.906	168.384	0.00051559	0.00049299	7.9098e-05	912.27	6.4799e-06	2.4893e-06	1017.8	197.27	3.579e-06	1.5321e-06	252.58	70.588	53.876	15.417	2.3505e-06	22.103	0.00035755	0.00036117	0.00010218	905.08	4.0528e-06	3.9292e-06	1008.5	197.78	3.9576e-06	3.9444e-06	252.96	71.58	55.046	16.076	4.0008e-06	22.992	124.562	-2.616	-94.551	-152.946	-14.997	-56.394	-152.763	-145.540	-71.010	-31.258	-145.533	-139.283	-139.090	-131.549	-88.015	-132.103	-8191	255	
13943.857	1	1	0	0	0.094886	0.14806	0.11756	0.013332	0.26994	0.087421	0.42691	0.083886	0.22194	0.066027	0.1024	0.068355	0.041068	0.29599	0.33446	0.20172	-2.1375	-2.1708	-2.1729	-2.475	-2.2729	-2.5083	-2.5479	-2.2438	-2.4792	-2.225	-2.4875	-2.5208	-2.0062	-2.475	-2.3375	-2.2146	47.937	-104.436	147.697	-80.279	52.780	56.580	186.774	129.187	-47.464	170.866	-154.759	-40.115	-154.659	72.731	127.787	22.878	0.0004107	0.00012974	0.00014558	918.92	3.7598e-06	4.1847e-06	1021.1	196.51	3.3066e-06	2.6185e-06	252.16	70.469	53.961	15.554	2.9682e-06	22.112	0.00036479	0.00036486	0.00010129	907.16	3.9854e-06	4.0178e-06	1009.3	197.26	4.0136e-06	3.9859e-06	252.62	71.875	55	16.15	4.0096e-06	23.001	120.061	-92.484	-66.981	-152.947	-15.836	-85.927	-152.892	-145.284	99.210	-35.502	-145.661	-139.373	-139.336	-130.899	-135.112	-131.510	-8191	255	
13943.954	1	1	0	0	0.21532	0.18614	0.13285	0.22581	0.12946	0.042441	0.082391	0.29519	0.18433	0.09303	0.34911	0.17447	0.070364	0.15592	0.17306	0.36234	-2.1417	-2.1771	-2.3396	-2.5167	-2.2438	-2.5333	-2.5167	-2.3312	-2.7396	-2.3	-2.5667	-2.7667	-2.3167	-2.4583	-2.4458	-2.2708	-22.550	9.380	58.319	110.992	114.500	134.668	-157.938	149.306	-93.909	184.145	29.148	-33.778	1.133	161.835	131.178	150.133	0.00044003	0.00034498	9.5843e-05	910.32	4.3494e-06	1.7949e-06	1013.6	195.93	6.0337e-06	1.096e-06	250.41	70.91	54.185	15.527	1.4308e-07	22.24	0.00036645	0.00037172	0.00010294	903.81	4.003e-06	4.0338e-06	1006	197.29	4.08e-06	3.9951e-06	252.25	71.69	55.038	16.076	4.0544e-06	23.101	133.220	-109.220	-75.709	-153.004	15.742	193.753	-153.187	-145.386	51.753	-51.502	-145.928	-139.449	-139.011	-130.854	84.788	-131.242	-8191	255	
13944.048	1	1	0	0	0.40957	0.13708	0.058468	0.098685	0.13544	0.19642	0.24279	0.35512	0.39815	0.06894	0.18773	0.40936	0.1279	0.29691	0.064904	0.060793	-2.2229	-2.1896	-2.3667	-2.5875	-2.1	-2.5208	-2.6229	-2.2021	-2.4917	-2.4646	-2.4562	-2.6896	-2.1271	-2.4896	-2.6104	-2.1375	70.100	107.445	171.109	158.273	-46.642	2.170	155.807	135.741	101.399	21.729	-150.032	40.706	154.330	21.528	153.282	2.452	0.00045498	0.0002067	3.2918e-05	911.46	5.4724e-06	7.6561e-06	1017.1	197.44	1.8774e-06	3.1001e-06	251.42	71.017	53.891	15.494	2.0184e-06	22.187	0.0003714	0.00036808	0.00010368	902.36	4.0765e-06	4.0676e-06	1005.4	197.44	3.9944e-06	3.9866e-06	252.55	71.677	54.936	16.159	4.0768e-06	23.03	136.447	4.169	-70.811	-153.108	-48.449	-25.548	-152.868	-145.444	-115.367	-63.779	-145.320	-139.600	-138.524	-131.160	-21.547	-131.740	-8191	255	
13944.169	1	1	0	0	0.17616	0.19606	0.18769	0.10765	0.18129	0.14844	0.28854	0.30606	0.20044	0.10915	0.12969	0.17871	0.067705	0.19838	0.17346	0.25395	-1.9167	-2.1792	-2.2021	-2.9062	-2.2167	-2.4667	-2.7104	-2.1021	-2.5396	-2.2542	-2.3771	-2.7313	-2.3208	-2.3833	-2.475	-2.2625	11.742	-146.984	-94.157	87.644	-130.079	133.939	174.104	130.044	10.233	180.767	-145.124	185.859	80.505	-64.024	83.888	-149.802	0.00047041	0.00022104	1.0833e-05	910.02	4.1206e-06	3.9402e-06	1015.8	197.11	1.1165e-06	3.3159e-06	251.01	70.503	53.676	15.52	2.8577e-06	22.277	0.00036922	0.00036867	0.00010218	901.55	4.0606e-06	4.0557e-06	1007.1	197.46	3.9932e-06	4.0359e-06	252.5	71.589	54.877	16.138	4.0547e-06	23.026	112.790	-101.983	-63.142	-153.064	132.546	26.834	-152.793	-145.532	-54.906	-52.373	-145.269	-139.435	-138.678	-130.824	155.666	-131.744	-8191	255	
13944.265	1	1	0	0	0.16825	0.20947	0.1729	0.26554	0.12689	0.09013	0.12749	0.084711	0.10563	0.11809	0.080226	0.14272	0.27546	0.05727	0.20856	0.15363	-2.0542	-2.3125	-2.3021	-2.8333	-2.2854	-2.4333	-2.7625	-2.1562	-2.3208	-2.5062	-2.3271	-2.7229	-2.4375	-2.4479	-2.6479	-2.1958	-31.104	158.135	-75.329	-118.192	69.731	-42.168	97.589	2.734	-151.619	-78.015	75.668	-82.737	-0.514	138.791	141.007	19.866	0.00049728	4.5628e-05	0.00011262	912.21	9.8972e-07	2.516e-06	1008.8	196.33	6.24e-06	4.0719e-06	252.67	70.843	53.778	15.539	5.7747e-06	22.101	0.00036653	0.00036817	0.00010383	902.89	4.0159e-06	3.9913e-06	1003.9	196.88	4.0305e-06	4.0275e-06	252.62	71.61	54.887	16.132	4.0304e-06	22.968	145.844	-25.235	-60.097	-152.855	0.122	-56.054	-153.136	-145.250	-142.453	-73.077	-145.733	-139.598	-138.820	-131.328	19.699	-131.389	-8191	255	
13944.336	1	1	0	0	0.12574	0.14298	0.10018	0.14059	0.060204	0.18613	0.21804	0.12551	0.25745	0.33878	0.16059	0.19791	0.22234	0.15091	0.076473	0.15047	-2.0896	-2.5271	-2.1479	-2.7271	-2.4208	-2.35	-2.8271	-2.5167	-2.4979	-2.5208	-2.1854	-2.7375	-2.4708	-2.3083	-2.575	-2.3125	-127.117	90.918	-8.244	-136.225	-140.081	-97.548	81.923	170.894	-25.852	43.495	119.137	-112.792	196.235	84.589	180.582	-110.725	0.00033263	0.00030087	9.5591e-05	914.93	3.9333e-06	2.6066e-06	1019.2	198.04	5.4025e-07	4.9469e-06	252.24	70.411	53.628	15.499	5.4419e-06	22.195	0.00036879	0.00036629	0.00010227	901.17	4.1396e-06	4.1044e-06	1005.3	197.91	4.0796e-06	4.1016e-06	252.4	71.635	54.95	16.126	4.0756e-06	22.975	133.150	-19.686	-127.277	-153.257	41.847	-41.906	-153.164	-145.553	180.733	-76.357	-145.372	-139.461	-138.788	-131.115	-43.628	-131.727	-8191	255	
13944.433	1	1	0	0	0.099758	0.1211	0.079516	0.25509	0.23743	0.13197	0.10724	0.17841	0.20074	0.055	0.20791	0.11574	0.098299	0.23919	0.11397	0.064269	-2.1021	-2.4437	-2.1021	-2.5729	-2.4521	-2.4125	-2.8583	-2.0979	-2.4292	-2.5917	-2.2729	-2.5229	-2.5729	-2.15	-2.5854	-2.3937	-160.939	-137.996	-35.859	128.943	148.935	147.240	-17.999	123.815	51.613	-23.531	164.485	-156.098	-108.477	-71.208	112.069	48.111	0.00033294	0.00020149	6.7062e-05	906.28	5.1271e-06	5.4723e-06	1018.1	196.35	3.2373e-07	4.0682e-06	251.19	70.881	53.814	15.613	2.7965e-06	22.389	0.00036734	0.00036451	0.00010327	899.94	4.0954e-06	4.0077e-06	1006.7	197.2	4.0802e-06	4.0703e-06	252.31	71.723	54.901	16.131	4.1172e-06	23.059	159.639	-34.242	-156.990	-153.122	-26.374	-23.665	-153.256	-145.211	-32.955	-77.673	-145.773	-139.446	-138.843	-131.023	-85.137	-131.518	-8191	255	
13944.553	1	1	0	0	0.088499	0.014649	0.3138	0.16935	0.19379	0.092756	0.14818	0.33747	0.14493	0.065224	0.11532	0.28218	0.31668	0.080293	0.069109	0.10167	-2.0021	-2.6271	-2.1854	-2.5812	-2.6312	-2.0687	-2.6417	-2.3375	-2.2062	-2.6958	-2.425	-2.4479	-2.5875	-2.2687	-2.5958	-2.3271	104.238	3.035	143.244	150.791	104.692	-56.786	73.438	137.967	-25.127	61.843	-58.350	-131.827	-83.387	-144.601	-80.988	-97.044	0.00032408	0.000468	0.00017274	908.71	7.2216e-06	2.0843e-06	1008	197.01	6.1433e-06	3.1134e-06	251.72	70.639	53.987	15.575	3.1986e-06	22.152	0.00037227	0.00037277	0.00010465	900.92	4.0703e-06	4.0411e-06	1003.4	197.22	4.1147e-06	4.1211e-06	252.51	71.662	54.989	16.158	4.1333e-06	22.953	127.896	-88.193	-32.628	-153.000	-90.151	-29.434	-152.926	-145.342	-59.777	-60.950	-145.532	-139.815	-138.407	-131.089	-95.180	-131.981	-8191	255	
13944.649	1	1	0	0	0.19684	0.14566	0.033242	0.17933	0.29501	0.090757	0.16434	0.11788	0.087877	0.10109	0.17724	0.32352	0.30196	0.088704	0.12487	0.27378	-1.6688	-2.4938	-2.2729	-2.5646	-2.6167	-2.3063	-2.825	-2.5146	-2.3979	-2.7333	-2.4167	-2.475	-2.6208	-2.1625	-2.4604	-2.5958	-137.544	-4.444	-133.266	172.446	134.366	-86.091	133.171	121.156	-50.664	87.994	161.467	140.169	147.632	-64.545	-126.558	102.177	0.00040272	7.5779e-05	9.6726e-05	914.14	5.5363e-06	3.5382e-06	1011.2	196.48	6.3078e-06	4.5046e-06	251.56	70.768	53.616	15.499	4.3222e-06	22.141	0.00037138	0.00037671	0.00010437	901.85	4.1231e-06	4.1182e-06	1003.5	197.33	4.1226e-06	4.1663e-06	252.01	71.791	54.894	16.131	4.145e-06	23.05	134.851	35.950	-94.038	-153.033	-43.766	-86.470	-152.949	-145.688	-42.518	4.967	-145.621	-139.433	-138.918	-131.225	-26.559	-131.812	-8191	255	
13944.745	1	1	0	0	0.067866	0.26994	0.091602	0.20336	0.12502	0.14028	0.22026	0.20587	0.11222	0.040639	0.24815	0.26343	0.24928	0.044074	0.16242	0.078283	-1.8875	-2.5729	-2.3438	-2.625	-2.7062	-2.2458	-2.7479	-2.5021	-2.1875	-2.6729	-2.5354	-2.5458	-2.8042	-2.1146	-2.5875	-2.7417	-117.159	181.088	25.226	82.534	-155.688	-52.481	155.022	16.067	-141.405	96.426	157.672	79.951	100.668	7.390	-41.083	-97.803	0.00036857	0.00035789	1.1839e-05	909.95	2.8231e-06	4.1634e-06	1016.4	197.42	4.3696e-06	4.56e-06	251.39	70.801	53.724	15.598	4.6977e-06	22.017	0.00037643	0.00037256	0.00010367	901.02	4.0458e-06	4.1341e-06	1006	197.29	4.0295e-06	3.9739e-06	252.51	71.63	54.773	16.149	4.0145e-06	22.95	131.219	-67.609	-9.854	-152.861	-62.387	-65.862	-152.965	-145.196	15.909	-72.032	-145.421	-139.002	-139.384	-131.230	-71.455	-131.842	-8191	255	
13944.842	1	1	0	0	0.23572	0.056971	0.14073	0.079041	0.16264	0.34552	0.14263	0.23341	0.086499	0.018744	0.089531	0.042391	0.13735	0.058922	0.14549	0.17026	-1.6604	-2.6396	-2.2667	-2.375	-2.7521	-2.0667	-2.7583	-2.5896	-2.2979	-2.5792	-2.4188	-2.3167	-2.5979	-2.2917	-2.5062	-2.6208	111.062	11.216	131.165	-39.167	-110.346	160.974	-64.576	170.881	-85.859	-160.870	17.064	-137.151	187.256	29.313	-86.811	-134.871	0.00039655	0.00022928	2.5982e-05	909.56	4.0253e-06	7.9293e-06	1013.6	195.53	4.0661e-06	5.3328e-06	253.05	70.264	53.662	15.485	4.7152e-06	22.1	0.0003598	0.00035668	9.9618e-05	899.46	3.9871e-06	3.9445e-06	1002.4	196.63	3.9549e-06	3.9267e-06	251.83	71.423	54.752	16.055	3.9136e-06	23.019	139.788	-85.249	-137.474	-152.926	-59.303	-14.733	-152.671	-145.301	12.878	-76.907	-145.632	-139.092	-138.706	-130.737	-65.349	-131.672	-8191	255	
13944.962	1	1	0	0	0.15219	0.14704	0.056972	0.1457	0.17997	0.031219	0.29137	0.17137	0.21978	0.24836	0.10398	0.14633	0.26201	0.18103	0.11527	0.30123	-1.7375	-2.375	-2.3604	-2.2521	-2.6146	-2.1875	-2.4979	-2.5833	-2.1042	-2.6521	-2.4542	-2.3167	-2.7375	-2.3854	-2.5375	-2.6063	191.403	-41.691	66.686	86.190	-28.076	-84.403	80.514	-161.646	-21.341	176.845	97.407	166.790	121.521	135.322	157.061	-45.289	0.00032614	2.2629e-05	2.9874e-05	912.16	3.4704e-06	3.4222e-06	1015.1	196.63	2.2362e-06	2.9393e-06	250.73	70.412	54.026	15.544	5.6794e-06	22.144	0.000358	0.0003599	0.00010124	901.77	3.9693e-06	4.0449e-06	1006.1	197.22	4.0497e-06	4.0189e-06	251.05	71.527	54.836	16.101	4.11e-06	22.979	124.193	147.668	97.517	-152.759	-91.614	-64.624	-152.802	-145.445	-109.643	-146.147	-145.610	-139.392	-138.975	-131.135	0.463	-131.526	-8191	255	
13945.034	1	1	0	0	0.031065	0.21126	0.26243	0.27931	0.35045	0.11166	0.17981	0.21039	0.1045	0.17805	0.10774	0.2724	0.083073	0.058794	0.21807	0.061586	-1.6646	-2.5021	-2.5542	-2.3792	-2.6417	-2.2125	-2.5312	-2.7417	-2.2896	-2.6125	-2.8021	-2.3875	-2.7	-2.3396	-2.325	-2.7292	-87.649	169.296	-1.106	182.539	101.104	-137.764	172.736	106.736	-10.129	-23.255	195.504	-124.675	150.812	46.363	114.272	32.744	0.00036062	0.00018348	9.1145e-05	910.58	3.2549e-06	6.0733e-06	1012.2	196.18	2.5146e-06	2.9633e-06	251.56	70.129	53.864	15.566	5.2684e-06	22.128	0.0003689	0.00036882	0.00010273	899.03	3.9911e-06	4.0054e-06	1002.9	196.76	4.0318e-06	4.0605e-06	252.22	71.341	54.913	16.059	3.9893e-06	22.951	117.276	-113.240	-51.098	-153.083	16.497	-70.555	-153.045	-145.249	-83.933	-45.268	-145.790	-139.757	-138.619	-131.176	-37.189	-131.706	-8191	255	
13945.153	1	1	0	0	0.17826	0.20209	0.058659	0.20579	0.10877	0.060683	0.05477	0.12647	0.044933	0.17192	0.12057	0.096948	0.079246	0.3081	0.19436	0.18554	-1.8312	-2.4833	-2.6146	-2.3104	-2.7021	-2.4833	-2.3417	-2.8417	-2.2687	-2.4417	-2.7125	-2.0687	-2.6729	-2.4854	-2.4104	-2.6979	-51.115	-101.678	-84.918	-125.627	-55.215	-129.352	149.238	24.730	170.617	-3.441	-141.004	-161.975	-44.061	56.006	20.699	78.918	0.00027361	4.6375e-05	7.3063e-05	910.86	9.1227e-06	2.4053e-06	1014.6	196.36	3.7781e-06	5.0232e-06	250.46	70.936	53.689	15.531	2.8103e-06	22.13	0.0003604	0.00036969	0.00010274	901.1	3.9897e-06	3.9937e-06	1005.7	196.81	3.9863e-06	4.0543e-06	252.15	71.584	55.039	16.132	3.9986e-06	22.977	137.853	-150.474	-103.321	-152.986	-104.791	-34.579	-153.073	-145.431	-30.711	-64.124	-145.673	-139.352	-138.274	-131.174	-95.622	-131.514	-8191	255	
13945.249	1	1	0	0	0.069031	0.12909	0.32619	0.33422	0.22185	0.21341	0.40256	0.011648	0.13974	0.16414	0.19072	0.098636	0.08587	0.089826	0.26414	0.11247	-1.8625	-2.4396	-2.6146	-2.3063	-2.4125	-2.5333	-2.4917	-2.7479	-2.4854	-2.6021	-2.7125	-2.3688	-2.5792	-2.4875	-2.3521	-2.7417	-58.015	-9.561	41.911	110.543	50.697	-137.305	90.901	-74.238	-119.421	136.940	176.727	-63.692	159.199	94.291	-80.475	168.167	0.00031341	0.00024257	4.8535e-05	912.04	3.8527e-06	1.7928e-06	1019.3	197.16	2.5692e-06	7.4561e-06	253.19	70.144	53.973	15.538	2.119e-06	22.384	0.00036315	0.00036163	0.00010177	901.71	3.993e-06	4.0684e-06	1008	197.02	4.0202e-06	4.0313e-06	252.24	71.243	54.952	16.135	3.998e-06	23.08	127.965	-154.490	152.306	-152.668	-115.314	4.504	-153.069	-145.500	27.727	-2.890	-145.640	-139.270	-139.153	-130.815	-100.687	-131.636	-8191	255	
13945.345	1	1	0	0	0.023383	0.17923	0.11246	0.26992	0.16079	0.085199	0.045971	0.2326	0.047035	0.34749	0.021996	0.099643	0.25831	0.054255	0.095419	0.16292	-1.8687	-2.2583	-2.5229	-2.2896	-2.5312	-2.6437	-2.4854	-2.675	-2.3896	-2.4083	-2.6937	-2.25	-2.3438	-2.5771	-2.2125	-2.7542	-14.086	49.504	-25.715	104.213	24.427	-90.684	-37.935	41.643	-146.827	-116.902	162.517	-131.304	165.110	-78.811	5.177	75.427	0.00033508	0.00027264	7.9536e-05	910.6	4.0868e-06	2.9269e-06	1018.6	197.33	2.0336e-06	3.0134e-06	250.15	70.878	53.813	15.544	5.7676e-06	22.177	0.00036179	0.00036376	0.00010014	902.54	3.9884e-06	3.9122e-06	1004.8	196.9	3.9414e-06	3.9714e-06	251.24	71.619	54.922	16.123	3.9556e-06	22.965	136.009	-49.663	-80.826	-152.967	-87.582	70.661	-153.072	-145.706	31.418	139.426	-145.933	-139.656	-139.024	-131.060	-33.642	-132.270	-8191	255	
13945.441	1	1	0	0	0.20573	0.0764	0.01851	0.059644	0.25292	0.1378	0.227	0.12584	0.19105	0.20652	0.21325	0.069045	0.15511	0.09112	0.37974	0.14143	-2.1063	-2.3021	-2.8021	-2.3854	-2.4146	-2.5375	-2.3146	-2.6708	-2.4854	-2.4313	-2.9062	-2.3187	-2.4854	-2.6917	-2.2729	-2.7292	170.834	190.226	73.917	-5.533	-74.368	-37.518	90.291	112.171	-93.072	53.961	42.393	-51.073	-104.052	175.067	96.823	82.433	0.00036524	8.2696e-05	0.00013189	915.19	4.4135e-06	2.9673e-06	1012.6	196.38	9.2582e-06	3.8535e-06	251.28	69.728	53.7	15.376	5.8666e-06	22.222	0.00036338	0.00035612	9.9481e-05	901.14	3.9387e-06	3.9411e-06	1002.3	196.69	4.0115e-06	3.9886e-06	251.69	71.293	54.955	16.084	4.039e-06	22.991	128.211	-85.857	-101.726	-153.068	3.909	4.022	-152.865	-145.341	-25.230	-13.096	-145.845	-139.327	-138.729	-131.068	-4.487	-131.594	-8191	255	
13945.562	1	1	0	0	0.30041	0.34227	0.24076	0.14625	0.19071	0.30418	0.16004	0.32422	0.087068	0.14399	0.25159	0.19129	0.29557	0.037662	0.124	0.29569	-2.0625	-2.1437	-2.75	-2.5458	-2.4542	-2.6854	-2.3354	-2.5896	-2.7167	-2.3521	-2.6437	-2.4021	-2.5062	-2.6646	-2.1958	-2.725	-80.123	-55.359	36.213	162.879	131.538	8.188	148.481	31.303	-53.260	58.997	-53.778	-84.989	118.579	142.032	115.171	189.254	0.00043415	0.00044936	6.4154e-05	910.47	3.1461e-06	2.4193e-06	1013	195.91	3.5947e-06	1.0346e-06	250.41	69.813	53.725	15.565	7.0425e-07	22.235	0.00036455	0.00036278	9.9786e-05	900.68	3.9555e-06	3.9537e-06	1003.3	196.88	3.9799e-06	4.0174e-06	251.56	71.203	54.739	16.1	3.9896e-06	23.051	124.195	-93.857	-120.048	-152.889	-58.323	-17.579	-153.187	-145.396	-116.263	-21.853	-145.481	-139.417	-138.991	-130.913	96.152	-131.471	-8191	255	
13945.634	1	1	0	0	0.1679	0.10617	0.036256	0.16749	0.29552	0.15139	0.28315	0.15659	0.1448	0.17516	0.20936	0.31422	0.13111	0.078212	0.243	0.27018	-2.05	-1.9333	-2.7396	-2.3187	-2.4583	-2.6292	-2.3229	-2.6479	-2.5312	-2.1729	-2.6292	-2.6604	-2.2583	-2.8187	-2.1896	-2.6083	-20.433	-160.624	39.843	-90.231	78.456	-42.662	108.779	163.132	-141.537	134.984	134.347	162.441	123.403	-35.891	-44.633	162.350	0.00051456	0.0002747	6.6818e-05	909.22	4.7494e-06	1.5607e-06	1007.2	195.52	4.5715e-06	6.453e-07	249.65	70.338	53.455	15.54	5.7712e-06	21.809	0.00035739	0.00036373	0.00010016	897.37	3.952e-06	3.9557e-06	1000.1	196.15	3.9901e-06	3.9729e-06	250.95	71.344	54.628	16.157	4.0491e-06	22.916	135.443	-111.978	175.329	-152.991	-52.326	-147.811	-152.989	-145.561	90.737	-108.278	-145.492	-138.938	-138.892	-131.716	-76.406	-131.810	-8191	255	
13945.730	1	1	0	0	0.076247	0.059997	0.12896	0.17193	0.1501	0.163	0.23751	0.18461	0.1781	0.23637	0.33121	0.10051	0.42327	0.20674	0.28998	0.10964	-2.25	-2.125	-2.5854	-2.6604	-2.5812	-2.6688	-2.3292	-2.4417	-2.6333	-2.4021	-2.6396	-2.4458	-2.3125	-2.6896	-2.4354	-2.4104	-91.683	-21.231	-98.024	106.155	35.754	63.270	130.102	76.331	-87.504	99.249	-18.555	-111.328	185.369	56.197	134.310	100.687	0.00032585	0.00061383	0.00013795	905.3	7.2064e-06	2.9367e-06	1016.2	196.11	2.847e-06	7.1559e-06	250.9	70.597	54.1	15.502	4.6787e-06	22.311	0.00036672	0.00036453	0.00010105	895.08	3.968e-06	4.0249e-06	1002.9	195.79	4.0434e-06	4.0404e-06	251.13	71.294	54.869	16.076	4.0326e-06	22.978	120.403	-89.821	-118.432	-153.048	19.805	13.124	-153.139	-145.820	-161.236	-50.993	-145.461	-139.147	-138.835	-131.437	63.676	-131.537	-8191	255	
13945.826	1	1	0	0	0.17964	0.12745	0.14193	0.16933	0.10987	0.13414	0.46215	0.11407	0.063417	0.17827	0.19379	0.1316	0.11966	0.17094	0.09164	0.12879	-2.1583	-2.2938	-2.5062	-2.4854	-2.2479	-2.7417	-2.2917	-2.1896	-2.6417	-2.1771	-2.5146	-2.6104	-2.3146	-2.5771	-2.3042	-2.3271	-6.661	57.672	-141.525	171.852	20.157	-88.799	133.960	184.981	131.043	90.710	127.925	136.691	-68.136	-120.490	103.128	111.185	0.00042017	0.00039317	3.2049e-05	905.95	5.6847e-06	3.8732e-06	1010.4	195.43	4.3567e-06	4.598e-06	249.31	69.589	53.713	15.517	2.3956e-06	22.275	0.00036549	0.00036436	0.00010196	897.07	3.9944e-06	3.9634e-06	1001.2	196.74	4.038e-06	3.9939e-06	251.64	71.219	54.715	16.111	4.095e-06	22.999	138.973	-77.994	-68.574	-152.799	20.389	-59.492	-152.854	-145.227	-39.290	15.256	-145.520	-139.137	-138.973	-130.770	24.882	-131.787	-8191	255	
13945.945	1	1	0	0	0.15434	0.037245	0.091253	0.2081	0.17539	0.071285	0.18086	0.051536	0.19251	0.057379	0.12664	0.066251	0.098535	0.099665	0.27254	0.072749	-2.1333	-2.4417	-2.3521	-2.6083	-2.0917	-2.6354	-2.6333	-2.3271	-2.6562	-2.2917	-2.5417	-2.6312	-2.2542	-2.7021	-2.4375	-2.3625	74.675	78.668	166.850	-151.962	-59.433	-9.369	151.902	133.288	-52.342	169.856	92.541	41.935	155.893	-162.209	125.383	-125.462	0.00045687	0.00033595	0.00015991	908.04	3.3414e-06	4.105e-06	1009.9	195.98	3.0724e-06	3.0155e-06	249.8	70.08	53.781	15.448	4.8783e-06	21.925	0.00036221	0.0003674	0.0001038	897.07	4.0753e-06	4.0129e-06	1001.1	196.46	4.0217e-06	4.0618e-06	251.17	71.317	54.773	16.072	4.0668e-06	22.978	127.126	14.871	-57.906	-152.895	-34.146	-44.945	-152.993	-145.418	-121.345	-0.709	-145.975	-139.301	-138.743	-131.322	-94.541	-131.785	-8191	255	
13946.041	1	1	0	0	0.26258	0.10007	0.11486	0.21562	0.13297	0.23073	0.25078	0.34144	0.13029	0.28796	0.10667	0.24711	0.12125	0.1209	0.23261	0.24955	-2.3208	-2.3417	-2.4917	-2.5854	-2.1771	-2.6625	-2.7188	-2.2562	-2.6	-2.5167	-2.45	-2.7375	-2.1792	-2.4979	-2.6208	-2.175	-107.627	-25.411	78.696	-129.012	153.766	148.575	-128.090	186.071	-59.241	-113.585	182.274	-142.174	39.836	-155.325	-84.028	143.500	0.00048383	0.00027189	0.00015457	904.77	4.7411e-06	2.3801e-06	1006.3	196.71	1.7449e-06	2.5733e-06	250.61	69.539	53.296	15.427	2.1638e-06	22.031	0.0003722	0.00036848	0.00010176	893.72	4.1156e-06	4.1319e-06	999.77	196.32	4.1063e-06	4.1558e-06	251.23	70.935	54.688	16.056	4.1127e-06	22.946	133.816	58.167	-34.945	-152.909	-66.332	-1.911	-153.038	-145.116	-4.790	-58.730	-145.809	-139.289	-138.755	-131.022	-160.830	-131.663	-8191	255	
13946.137	1	1	0	0	0.29018	0.15704	0.095683	0.15306	0.058929	0.13598	0.072437	0.076459	0.25642	0.17522	0.16638	0.36404	0.020607	0.21986	0.16136	0.16934	-2.15	-2.4521	-2.2313	-2.7583	-2.3396	-2.6917	-2.825	-2.2917	-2.4271	-2.4229	-2.2708	-2.6562	-2.3271	-2.2854	-2.7208	-2.1208	145.937	-113.393	168.577	176.672	97.350	170.542	89.454	105.331	107.404	-147.957	42.550	88.790	156.415	188.505	-143.810	136.589	0.0003923	0.00053819	4.5973e-05	903.95	3.9695e-06	4.9781e-06	1007.1	195.52	5.5771e-06	6.204e-06	252.21	70.333	53.565	15.605	2.1987e-06	22.13	0.00037111	0.00037278	0.00010448	895.52	4.1133e-06	4.113e-06	999.77	196.2	4.0404e-06	4.0539e-06	251.42	71.231	54.688	16.114	4.0703e-06	22.948	138.374	-67.721	-88.268	-153.073	-8.199	12.222	-152.974	-145.229	-126.176	-66.260	-145.786	-139.198	-139.239	-131.348	-27.916	-131.948	-8191	255	
13946.256	1	1	0	0	0.19708	0.08957	0.088803	0.12638	0.029074	0.059491	0.15548	0.13286	0.18627	0.32942	0.2733	0.065587	0.11712	0.24004	0.12945	0.12526	-2.1813	-2.325	-2.0896	-2.7438	-2.2625	-2.35	-2.6521	-2.2625	-2.7229	-2.5271	-2.2938	-2.7479	-2.3229	-2.3771	-2.8854	-2.15	-15.010	-103.414	144.435	78.675	95.708	37.835	153.494	114.014	93.008	84.340	141.603	172.018	-64.561	-99.256	26.566	-50.308	0.0002875	0.00038436	4.6154e-05	906.84	4.4143e-06	1.5642e-06	1010.8	194.81	3.8798e-06	3.663e-06	251.83	69.747	53.876	15.352	4.067e-06	22.058	0.00036958	0.00037047	0.0001037	897.13	4.1197e-06	4.1107e-06	1000.2	195.99	4.119e-06	4.1503e-06	251.43	71.211	54.866	16.051	4.1595e-06	23.012	135.399	175.860	16.975	-153.056	24.584	114.801	-153.062	-145.580	-86.557	12.695	-145.725	-139.203	-138.323	-131.334	163.874	-132.099	-8191	255	
13946.329	1	1	0	0	0.36797	0.14213	0.13045	0.22715	0.2354	0.1932	0.23966	0.22785	0.26463	0.29467	0.10371	0.24953	0.40298	0.14692	0.18839	0.032858	-2.0229	-2.4938	-2.2875	-2.6688	-2.1854	-2.425	-2.825	-2.5896	-2.5375	-2.4896	-2.2146	-2.6396	-2.4521	-2.4313	-2.7604	-2.2667	108.404	184.337	-32.658	185.166	-11.049	7.339	106.660	86.010	-86.140	79.198	105.852	170.803	111.136	39.559	59.328	0.542	0.00044896	0.00017852	0.00013925	906.44	2.2523e-06	2.6453e-06	1011	195.54	3.4762e-06	4.0482e-06	250.66	70.1	53.939	15.637	6.2184e-06	22.126	0.00038399	0.00038172	0.00010496	897.94	4.2324e-06	4.1157e-06	1004.2	196.64	4.1385e-06	4.0501e-06	251.37	71.566	54.711	16.128	4.0136e-06	22.948	127.398	62.146	-115.166	-152.883	-99.588	-74.214	-153.001	-145.764	-31.457	-124.682	-145.714	-139.678	-139.110	-131.175	-36.385	-131.764	-8191	255	
13946.425	1	1	0	0	0.20383	0.08499	0.37834	0.15233	0.19823	0.24201	0.20628	0.25332	0.1884	0.23778	0.24605	0.021963	0.030925	0.19012	0.083422	0.1947	-2.1521	-2.4521	-2.1208	-2.5312	-2.3438	-2.2542	-2.7271	-2.3146	-2.3312	-2.5625	-2.1729	-2.65	-2.4833	-2.2188	-2.6521	-2.3646	-2.998	171.923	-38.092	164.407	111.272	54.577	133.793	132.140	-138.721	187.265	-115.854	94.876	-22.357	159.979	133.814	180.031	0.0003716	0.00023226	6.9226e-05	905.67	3.1194e-06	1.7499e-06	1010.8	195.45	4.0646e-06	2.3632e-06	250.26	70.192	53.821	15.5	6.8636e-06	21.991	0.00036627	0.00036027	0.00010108	897.22	3.9566e-06	3.9295e-06	999.9	195.75	3.9053e-06	3.9408e-06	250.83	71.294	54.809	16.031	3.9387e-06	22.845	126.360	-14.224	-25.241	-152.970	-155.643	-112.146	-152.926	-145.391	18.759	-3.477	-145.752	-139.020	-138.739	-131.369	-14.005	-131.442	-8191	255	
13946.522	1	1	0	0	0.28664	0.056829	0.23323	0.18817	0.095496	0.28292	0.20165	0.2597	0.17811	0.10337	0.30936	0.12386	0.27144	0.044511	0.091417	0.23601	-1.7833	-2.8458	-2.3083	-2.6208	-2.5646	-2.1792	-2.7458	-2.4458	-2.5	-2.8354	-2.25	-2.6479	-2.5521	-2.15	-2.6354	-2.3937	49.178	122.963	7.747	14.737	-120.576	30.246	188.214	117.331	-50.815	-156.915	127.339	-102.074	-125.595	31.324	127.151	31.258	0.00039847	0.00027968	0.00011795	909.5	7.1919e-06	4.978e-06	1012.3	196.57	6.5168e-06	3.318e-06	250.63	70.429	53.846	15.4	3.3178e-06	22.051	0.00035688	0.00035583	9.941e-05	897.98	3.9313e-06	3.9107e-06	1001	196.29	3.8756e-06	3.8975e-06	250.63	71.174	54.839	16.037	3.9439e-06	22.871	136.650	175.972	-48.386	-152.955	12.302	-75.003	-153.045	-145.312	-37.197	69.442	-145.639	-139.651	-139.197	-131.288	-39.230	-131.767	-8191	255	
13946.640	1	1	0	0	0.39066	0.35275	0.22427	0.095921	0.066092	0.076079	0.098173	0.23759	0.098023	0.36376	0.13791	0.33124	0.21571	0.071452	0.29858	0.18982	-1.9417	-2.675	-2.3083	-2.5833	-2.5604	-2.15	-2.7583	-2.5729	-2.3125	-2.8333	-2.4188	-2.3917	-2.6312	-2.2604	-2.6229	-2.5833	-30.447	-148.353	119.762	186.342	-141.012	-145.564	108.627	75.729	182.644	69.309	-85.647	194.213	77.979	166.547	-72.851	183.236	0.00033986	5.6116e-06	0.0001188	906.92	3.29e-06	3.2268e-06	1010.8	196.4	6.113e-06	4.3717e-06	251.47	70.571	53.811	15.469	6.1302e-06	22.191	0.00035893	0.00035617	9.9741e-05	897.07	3.8515e-06	3.9355e-06	999.02	196.42	3.9685e-06	3.889e-06	251.14	71.393	54.712	16.031	3.9136e-06	22.968	123.904	-122.526	-105.561	-152.811	-2.505	-35.855	-152.816	-145.384	166.974	9.253	-145.793	-138.773	-138.677	-131.133	-3.723	-131.808	-8191	255	
13946.737	1	1	0	0	0.15129	0.25762	0.28333	0.135	0.083927	0.16164	0.15965	0.10147	0.26336	0.15733	0.21266	0.33748	0.11994	0.35902	0.12789	0.27812	-1.7708	-2.6729	-2.25	-2.5062	-2.7021	-2.3792	-2.7062	-2.4437	-2.1479	-2.7479	-2.4562	-2.3667	-2.7583	-2.2729	-2.6125	-2.4521	140.830	-62.167	104.354	-149.330	-105.283	-28.361	-153.435	172.851	92.370	166.217	189.140	-132.555	168.272	107.700	175.275	129.335	0.00037935	0.00019132	7.1473e-06	904.82	1.2481e-06	2.9854e-07	1010.4	196	6.9015e-06	6.702e-06	250.58	69.94	53.518	15.52	2.7598e-06	22.063	0.00035237	0.00035267	9.8917e-05	896.03	3.9396e-06	3.957e-06	1000.2	196.1	3.9642e-06	3.9322e-06	251.37	71.291	54.667	16.043	3.9406e-06	22.969	137.546	-38.942	16.391	-152.916	-51.275	-61.967	-153.228	-145.288	-50.140	-23.905	-145.870	-138.858	-139.438	-131.018	12.810	-131.854	-8191	255	
13946.833	1	1	0	0	0.027792	0.047306	0.17825	0.28052	0.25834	0.10166	0.34748	0.16482	0.19558	0.39131	0.21708	0.22514	0.18825	0.071172	0.12122	0.39252	-1.8062	-2.4729	-2.4958	-2.45	-2.8854	-2.3875	-2.8667	-2.6667	-2.1646	-2.7	-2.4833	-2.2562	-2.725	-2.2208	-2.4917	-2.7042	-100.759	-129.458	35.745	170.086	33.611	-62.626	77.224	14.464	23.908	-99.286	98.719	108.197	141.220	-79.182	174.599	-84.766	0.0004988	0.00042095	0.00010608	903.47	2.6155e-06	6.1198e-07	1005.5	195.56	6.6255e-06	6.8884e-06	250.05	69.183	53.288	15.468	6.6371e-06	22.148	0.00036363	0.0003623	0.00010158	893.54	4.003e-06	4.0768e-06	997.77	195.88	4.1004e-06	4.0512e-06	250.85	70.983	54.621	16.065	4.0821e-06	22.925	131.689	-24.448	-67.075	-152.904	58.392	139.496	-153.005	-145.688	-113.727	-76.755	-145.637	-139.162	-139.154	-130.721	-66.730	-131.722	-8191	255	
13946.929	1	1	0	0	0.092374	0.066296	0.040028	0.26509	0.15514	0.22643	0.21994	0.09628	0.18638	0.21011	0.13701	0.12158	0.28885	0.10367	0.15192	0.092431	-1.8229	-2.6042	-2.45	-2.3729	-2.7333	-2.2875	-2.5396	-2.7542	-2.1521	-2.4437	-2.4813	-2.1979	-2.6917	-2.325	-2.4396	-2.6312	67.243	70.780	134.757	195.267	116.888	-16.931	190.663	131.787	23.185	193.911	155.882	75.681	130.953	-129.952	-109.320	-31.750	0.00038926	0.00076572	4.0411e-05	906.4	3.8065e-06	2.1831e-06	1009.4	194.18	2.9444e-06	2.8467e-06	250.23	70.075	53.227	15.422	1.0279e-06	22.106	0.0003728	0.00038081	0.00010494	894.34	4.0993e-06	4.1172e-06	1000.5	196.07	4.1798e-06	4.1292e-06	250.43	71.309	54.51	16.069	4.1593e-06	22.928	148.301	142.933	-80.429	-153.040	-3.992	-149.365	-152.881	-145.204	-77.972	-68.163	-145.758	-139.294	-138.886	-131.553	3.960	-131.766	-8191	255	
13947.025	1	1	0	0	0.1779	0.092921	0.056628	0.21564	0.15914	0.19871	0.23742	0.14244	0.19244	0.23024	0.27885	0.19592	0.25344	0.13762	0.21398	0.1988	-1.6958	-2.4354	-2.6125	-2.2167	-2.4813	-2.3521	-2.3979	-2.7979	-2.0687	-2.5104	-2.6729	-2.2917	-2.525	-2.4313	-2.4396	-2.7604	190.218	110.471	160.146	165.869	165.002	130.065	-80.825	38.338	93.563	5.297	182.104	-69.112	64.671	-93.227	-44.117	104.231	0.00026522	0.00031859	0.00016067	902.74	1.597e-06	3.8478e-06	1008.4	194.52	4.9751e-06	5.0588e-06	251.19	69.586	53.015	15.368	1.0946e-06	21.792	0.00036734	0.0003692	0.00010167	892.24	4.0334e-06	4.0648e-06	996.5	195.37	4.0098e-06	4.0018e-06	250.95	70.913	54.307	15.962	4.0555e-06	22.842	120.118	-86.869	-53.039	-152.834	-60.625	-4.480	-153.095	-145.073	35.397	55.491	-145.815	-139.133	-138.951	-130.579	93.315	-131.646	-8191	255	
13947.121	1	1	0	0	0.36116	0.067206	0.16334	0.28737	0.16787	0.08747	0.30849	0.14709	0.14003	0.13355	0.096177	0.20429	0.14322	0.15912	0.1488	0.11796	-1.7771	-2.4625	-2.5708	-2.1229	-2.7458	-2.475	-2.575	-2.6479	-2.3667	-2.4437	-2.6	-2.1083	-2.3896	-2.3521	-2.2083	-2.6437	133.740	4.572	20.697	169.169	-78.566	36.254	43.502	-98.049	-147.855	101.514	56.528	-91.464	158.831	-127.344	-125.954	38.256	0.00051979	0.00018329	0.00013911	903.16	5.7338e-06	6.0733e-06	1002.4	195.04	3.0843e-06	6.2168e-06	248.4	69.711	53.214	15.373	4.7217e-06	21.992	0.00036507	0.00036918	0.00010139	891.44	3.9622e-06	3.9658e-06	995.9	195.67	3.9105e-06	3.9143e-06	249.79	70.842	54.336	15.986	3.9711e-06	22.832	127.448	-21.814	-36.338	-152.818	-74.284	-25.928	-152.962	-144.935	-86.257	-105.232	-145.442	-139.757	-138.815	-130.488	7.828	-131.601	-8191	255	
13947.242	1	1	0	0	0.20254	0.074671	0.060315	0.18032	0.1431	0.037285	0.17893	0.37003	0.21391	0.089057	0.099086	0.14298	0.066745	0.14695	0.17266	0.23906	-1.9979	-2.3167	-2.5812	-2.0729	-2.6063	-2.5479	-2.3438	-2.75	-2.3583	-2.3667	-2.8229	-2.2333	-2.5854	-2.6375	-2.1688	-2.6104	-96.045	63.492	-29.224	124.241	-42.456	100.150	150.037	148.735	-48.897	88.609	142.886	90.360	-34.877	137.858	-49.661	156.933	0.00049325	0.00012201	0.00019311	897.75	3.6571e-06	3.8712e-06	1005.5	194.14	6.4889e-06	3.3184e-06	248.07	69.161	53.632	15.376	3.5886e-06	22.073	0.00036232	0.00036437	0.00010045	887.91	3.9871e-06	3.9252e-06	994.14	195.14	3.9454e-06	3.9235e-06	250.12	70.698	54.351	15.978	4.0325e-06	22.851	126.924	-156.773	-81.367	-152.891	-37.800	-150.729	-153.055	-145.469	38.014	28.290	-145.774	-139.248	-139.108	-130.881	-34.190	-131.543	-8191	255	
13947.336	1	1	0	0	0.23039	0.17203	0.24539	0.18802	0.23577	0.14119	0.16681	0.10409	0.12198	0.38083	0.26131	0.08445	0.051538	0.32343	0.17284	0.16889	-1.7708	-2.4646	-2.5042	-2.3187	-2.4	-2.4313	-2.3271	-2.7021	-2.325	-2.3167	-2.5208	-2.5062	-2.4562	-2.6042	-2.2833	-2.7625	-8.518	-104.397	-17.643	-139.419	-109.549	-2.736	-160.887	-12.083	123.710	150.632	171.300	53.900	118.084	-61.842	-26.764	48.218	0.00050923	9.0983e-05	9.301e-05	901.56	5.8231e-06	1.0584e-06	1005.3	194.81	4.6765e-06	3.7406e-06	247.89	70.196	53.387	15.396	3.1872e-06	21.885	0.00035719	0.00036254	0.00010066	890.05	3.9531e-06	3.9692e-06	993.92	194.84	3.9719e-06	3.8966e-06	249.43	70.838	54.318	16.001	3.9533e-06	22.851	134.471	43.357	183.136	-152.892	5.712	169.828	-152.935	-145.386	-131.225	-2.891	-145.573	-139.252	-138.761	-131.166	174.574	-131.877	-8191	255	
13947.432	1	1	0	0	0.30053	0.16091	0.13819	0.38944	0.37604	0.11294	0.092954	0.22528	0.17078	0.18782	0.17149	0.17597	0.15248	0.2308	0.29607	0.29532	-2.0833	-2.2646	-2.6458	-2.4271	-2.4271	-2.625	-2.3	-2.5146	-2.4792	-2.2333	-2.5854	-2.1562	-2.4833	-2.5625	-2.2354	-2.3792	117.908	-84.210	69.725	146.104	-39.697	80.876	70.182	96.988	-27.644	-7.638	131.517	-127.550	167.130	109.478	-22.432	56.032	0.00048415	0.00050958	9.1007e-05	897.7	2.0288e-06	2.9318e-06	1001.7	194.56	4.5592e-06	2.8851e-06	248.72	69.616	52.915	15.259	5.7673e-06	22.083	0.00036352	0.00036029	9.9757e-05	888.54	3.954e-06	3.955e-06	991.52	194.26	4.017e-06	3.8904e-06	249.36	70.544	54.185	15.859	3.958e-06	22.789	124.300	-39.789	151.344	-153.016	-16.452	-61.373	-152.893	-145.110	-47.644	46.014	-145.629	-139.003	-139.088	-131.141	41.213	-131.679	-8191	255	
13947.506	1	1	0	0	0.19251	0.23204	0.12141	0.1547	0.081059	0.11878	0.32147	0.088354	0.15124	0.20253	0.14327	0.08433	0.33127	0.41145	0.30661	0.028634	-2.1312	-2.3333	-2.5167	-2.475	-2.4271	-2.5771	-2.3271	-2.4833	-2.475	-2.2708	-2.6833	-2.3563	-2.3146	-2.5208	-2.1875	-2.5208	1.468	152.449	143.198	-25.773	-56.396	51.579	180.822	-63.840	-94.541	135.544	-19.587	-147.258	141.344	-74.185	-39.756	-134.909	0.00046631	0.00043427	2.4884e-05	897.39	6.8959e-06	4.122e-06	998.6	194.52	3.5157e-06	5.0113e-06	249.79	69.466	52.913	15.306	3.39e-06	21.866	0.00035952	0.00036728	0.00010058	887.58	4.0332e-06	4.0109e-06	991.08	194.69	4.0074e-06	3.9693e-06	249.75	70.723	54.012	15.924	4.0222e-06	22.774	129.013	-43.293	185.352	-153.130	-11.097	-16.936	-152.896	-145.387	138.043	-87.884	-145.724	-139.805	-138.661	-131.146	-82.357	-131.816	-8191	255	
13947.625	1	1	0	0	0.1282	0.071404	0.20523	0.10665	0.094558	0.057978	0.33625	0.078297	0.13765	0.14995	0.11286	0.14731	0.2406	0.10252	0.12471	0.29707	-1.9958	-2.0771	-2.6396	-2.3187	-2.5146	-2.55	-2.3708	-2.4792	-2.6083	-2.2021	-2.7125	-2.4229	-2.2021	-2.825	-2.3812	-2.6271	-150.371	161.943	-25.642	27.807	-92.268	-65.483	188.125	81.898	65.958	69.371	-95.478	-61.113	138.531	80.897	39.152	-161.593	0.00049462	8.6272e-05	0.00010962	897.71	3.1228e-07	2.9318e-06	997.67	193.66	4.1107e-07	2.0595e-06	247.85	69.335	52.891	15.31	8.7438e-07	21.935	0.00035596	0.00036265	9.9962e-05	888.13	3.9543e-06	3.9028e-06	988.6	194.62	3.9694e-06	3.9816e-06	249	70.51	54.094	15.956	4.0171e-06	22.827	120.672	-2.789	-135.181	-152.982	187.270	-81.260	-152.928	-145.752	63.293	-110.762	-145.402	-139.793	-139.016	-131.626	35.802	-131.366	-8191	255	
13947.721	1	1	0	0	0.19504	0.094008	0.059549	0.39354	0.10202	0.11704	0.44443	0.30667	0.27025	0.17693	0.12353	0.21273	0.21998	0.13313	0.20587	0.26935	-2.1854	-2.1688	-2.4562	-2.5	-2.1708	-2.6	-2.4229	-2.4271	-2.6417	-2.3104	-2.5646	-2.4833	-2.2083	-2.8271	-2.5833	-2.4854	161.060	-146.468	142.550	105.133	34.935	141.287	63.473	175.830	53.270	27.249	-50.794	181.293	75.107	139.994	-53.147	-147.988	0.00029483	0.00030258	0.00015418	897.55	1.737e-06	3.019e-06	998.97	194.94	3.2274e-06	1.4168e-06	247.78	69.388	53.047	15.297	4.283e-07	21.829	0.00036784	0.00036711	0.00010178	887.34	3.9832e-06	3.9502e-06	989.32	194.72	3.9783e-06	4.0243e-06	249.13	70.662	54.124	15.892	4.0112e-06	22.687	128.921	0.325	-109.865	-153.218	46.688	100.800	-152.923	-145.306	115.920	-8.300	-145.447	-139.474	-138.628	-130.654	188.444	-131.923	-8191	255	
13947.817	1	1	0	0	0.19252	0.060757	0.21976	0.32238	0.17574	0.17852	0.20424	0.10682	0.24044	0.048891	0.17182	0.051833	0.19322	0.063843	0.098293	0.27555	-2.2562	-2.2812	-2.5521	-2.4646	-2.3479	-2.6875	-2.5354	-2.3542	-2.7396	-2.3396	-2.5458	-2.5167	-2.3125	-2.4813	-2.5604	-2.2812	69.695	80.497	-141.452	149.979	-23.587	159.773	195.273	93.086	115.328	116.497	125.854	107.583	33.092	95.276	158.366	159.590	0.00037876	0.00034649	8.9404e-06	892.68	1.9622e-06	2.4074e-06	998.31	194.03	8.0786e-07	1.5324e-06	247.45	69.797	52.801	15.392	5.4982e-06	21.773	0.00035506	0.00036126	9.9893e-05	884.64	3.9171e-06	3.9655e-06	986.68	194.62	3.9752e-06	3.8947e-06	248.3	70.627	53.959	15.844	4.014e-06	22.712	149.094	-128.501	75.253	-152.741	-81.677	38.662	-152.916	-145.292	178.402	119.821	-145.750	-139.324	-138.568	-130.724	7.902	-131.543	-8191	255	
13947.913	1	1	0	0	0.044725	0.15876	0.14072	0.21834	0.1762	0.10955	0.036647	0.10962	0.13079	0.1638	0.32532	0.16618	0.19412	0.17607	0.042393	0.061954	-2.1896	-2.1312	-2.45	-2.6146	-2.1042	-2.6958	-2.5646	-2.4292	-2.6479	-2.2958	-2.5396	-2.6813	-2.2667	-2.5292	-2.2854	-2.3563	-54.922	171.284	-129.200	131.088	187.956	92.337	-36.543	-92.988	44.449	173.150	154.456	139.625	166.483	-128.208	12.082	35.687	0.00064464	0.00045201	9.5382e-05	888.75	3.5949e-08	3.7836e-06	1000	192.92	8.1253e-06	1.6071e-06	247.05	69.279	52.927	15.326	4.6194e-06	21.646	0.00036196	0.00036691	0.00010179	881.8	3.9334e-06	3.9986e-06	987.89	194.04	3.9769e-06	4.0038e-06	248.18	70.376	53.824	15.861	4.0465e-06	22.646	124.948	179.516	7.387	-152.856	94.822	-70.986	-153.170	-145.634	-24.333	-65.013	-145.614	-138.956	-138.728	-130.731	-98.459	-131.084	-8191	255	
13948.034	1	1	0	0	0.031744	0.30155	0.32585	0.17675	0.24475	0.16594	0.21771	0.19291	0.21047	0.2217	0.080709	0.33678	0.23029	0.24487	0.0043243	0.041611	-2.1771	-2.2479	-2.3	-2.7146	-2.1729	-2.5917	-2.6188	-2.3563	-2.5604	-2.4792	-2.4375	-2.6854	-2.1688	-2.5417	-2.4917	-2.1854	-136.889	44.704	189.223	131.762	184.755	42.993	98.954	-131.995	177.631	83.327	128.943	146.876	85.044	-138.466	41.755	65.503	0.00039364	0.0001198	2.2531e-05	890.41	2.6367e-06	1.5454e-06	990.43	193.07	3.4836e-06	3.8234e-06	245.48	68.868	52.115	15.246	6.5917e-06	21.724	0.00036722	0.00036434	0.00010256	880.5	4.044e-06	4.0534e-06	983.23	193.55	3.9914e-06	4.0966e-06	248.18	70.113	53.762	15.764	4.1324e-06	22.658	114.423	195.116	32.392	-152.996	-88.179	-18.997	-153.062	-145.705	40.505	-71.770	-145.589	-139.153	-139.022	-130.357	-101.799	-131.503	-8191	255	
13948.130	1	1	0	0	0.22568	0.22725	0.053151	0.18788	0.01261	0.083911	0.078738	0.13557	0.22483	0.24907	0.103	0.36818	0.10196	0.085845	0.2408	0.1313	-2.0854	-2.4375	-2.1604	-2.8708	-2.0938	-2.6417	-2.5646	-2.2958	-2.6042	-2.45	-2.3583	-2.7458	-2.3688	-2.4958	-2.6479	-2.1375	78.394	164.851	-50.949	116.399	117.824	-125.543	193.857	133.963	25.256	-0.442	62.018	-145.031	159.075	132.291	-35.956	140.068	0.00044289	0.00047442	0.00010804	887.19	1.3673e-06	1.4e-06	991.43	192.42	4.4428e-06	4.6318e-06	245.97	69.225	51.838	15.065	3.5943e-06	21.715	0.00036908	0.00037118	0.0001036	878.85	4.0594e-06	4.0698e-06	981.47	193.39	4.0096e-06	4.0348e-06	247.44	70.312	53.461	15.744	4.0646e-06	22.592	131.679	184.539	-138.946	-153.004	-75.697	37.301	-153.026	-145.344	-124.533	21.536	-145.555	-139.010	-138.532	-131.192	-90.788	-131.420	-8191	255	
13948.202	1	1	0	0	0.15328	0.065652	0.23421	0.27182	0.07715	0.13343	0.30276	0.1767	0.09524	0.22397	0.14415	0.12911	0.068379	0.15984	0.24251	0.35323	-2.1417	-2.3937	-2.2375	-2.725	-2.125	-2.3083	-2.8583	-2.1542	-2.6271	-2.5708	-2.3125	-2.7188	-2.3375	-2.4375	-2.75	-2.2854	-161.574	95.011	97.114	189.764	47.447	112.650	122.107	-100.755	57.768	63.386	48.025	-5.744	82.065	178.900	-36.799	122.966	0.00042428	0.0001336	0.00010383	887.38	2.8087e-06	1.6432e-06	992.02	193.48	2.1109e-06	4.6832e-06	246	69.356	52.506	15.277	5.9387e-06	21.6	0.0003645	0.00037481	0.00010311	877.74	4.0725e-06	4.1097e-06	983.69	193.64	4.1058e-06	4.0998e-06	247.78	70.196	53.714	15.83	4.1665e-06	22.602	124.737	-58.887	-117.135	-153.201	188.533	-95.573	-152.608	-145.451	-130.629	-48.194	-145.652	-139.552	-138.356	-130.822	-80.836	-131.121	-8191	255	
13948.322	1	1	0	0	0.10047	0.39663	0.13433	0.14427	0.1021	0.16785	0.081783	0.185	0.067343	0.15822	0.14011	0.19719	0.023194	0.040039	0.16127	0.13196	-2.1792	-2.4354	-2.2	-2.7	-2.1708	-2.275	-2.8917	-2.2812	-2.5292	-2.5312	-2.2521	-2.6188	-2.5521	-2.3604	-2.6146	-2.3979	41.965	184.509	154.286	90.770	-67.774	-138.239	-145.308	-129.715	40.198	17.089	20.601	144.851	108.707	-18.809	26.228	121.149	0.0004448	0.00011379	4.7819e-05	894.06	2.914e-06	2.9309e-06	989.48	192.73	2.2214e-06	3.5344e-06	245.34	69.053	52.592	15.134	7.2196e-06	21.945	0.00036979	0.00036916	0.0001024	882.45	4.0555e-06	4.0522e-06	982.11	193.38	4.0378e-06	4.065e-06	247.28	70.115	53.763	15.761	4.0848e-06	22.675	139.777	22.436	-55.915	-153.230	59.594	-158.000	-153.061	-145.851	-97.264	61.064	-145.767	-139.648	-138.612	-130.931	-30.712	-131.559	-8191	255	
13948.418	1	1	0	0	0.30064	0.067965	0.26202	0.15227	0.22512	0.11077	0.33309	0.22335	0.23866	0.10944	0.40288	0.059997	0.14798	0.28184	0.19087	0.33026	-2.0667	-2.5104	-2.1479	-2.65	-2.5958	-2.2667	-2.7313	-2.2604	-2.4521	-2.4458	-2.1292	-2.5104	-2.5542	-2.1583	-2.6833	-2.2417	159.225	-130.097	-155.376	124.870	-142.426	-117.977	167.123	30.329	64.793	-94.160	161.481	-61.464	92.138	-76.696	127.706	127.897	0.00058611	0.00049842	9.5716e-05	888.1	8.0919e-07	2.1613e-06	986.36	192.43	6.1915e-06	2.7168e-06	247.37	69.117	52.426	15.145	5.7332e-06	21.866	0.00037405	0.00036817	0.00010271	878.67	3.9736e-06	4.0673e-06	983.29	193.57	4.0544e-06	4.0004e-06	248.16	70.146	53.647	15.78	4.0815e-06	22.687	132.949	-121.339	91.018	-152.782	-106.503	-109.752	-152.757	-145.427	-56.852	162.902	-145.592	-139.042	-138.816	-130.973	-26.085	-131.604	-8191	255	
13948.515	1	1	0	0	0.28705	0.1115	0.17846	0.18197	0.25543	0.10365	0.35163	0.3464	0.083453	0.204	0.21752	0.20023	0.21822	0.1135	0.044854	0.19799	-1.9979	-2.4062	-2.0875	-2.6437	-2.5062	-2.2354	-2.7208	-2.3063	-2.2604	-3.0625	-2.1708	-2.4854	-2.375	-2.0187	-2.7562	-2.3896	-152.818	22.778	93.522	146.906	-106.237	-37.086	66.557	37.532	-82.671	-125.237	-140.422	55.196	50.184	-78.148	91.064	147.412	0.00027608	0.00040385	0.0002055	887.27	2.1972e-06	4.0312e-06	993.18	194.23	4.7364e-06	4.3205e-06	246.58	69.072	52.43	15.25	5.5729e-06	21.904	0.00036771	0.00037044	0.0001039	878.97	4.0491e-06	4.0844e-06	983.57	193.74	4.1039e-06	3.9505e-06	247.72	70.168	53.573	15.83	4.0321e-06	22.632	127.020	-144.293	-99.248	-152.887	-83.289	0.232	-152.897	-145.649	103.668	-87.940	-145.738	-138.509	-138.797	-131.181	-43.144	-132.188	-8191	255	
13948.633	1	1	0	0	0.21202	0.33601	0.24168	0.429	0.25241	0.071757	0.33805	0.07198	0.031138	0.09119	0.30823	0.06968	0.16581	0.31579	0.19639	0.2687	-1.8125	-2.4792	-2.1021	-2.3438	-2.3875	-2.1188	-2.7687	-2.3	-2.2292	-2.6896	-2.4	-2.4979	-2.4417	-2.3021	-2.5917	-2.5312	21.338	-40.312	-14.740	181.337	-113.541	-27.318	147.052	-123.607	85.587	-7.208	-128.969	-19.074	19.083	67.927	42.781	1.085	0.00032228	0.00040379	8.3618e-05	888.48	2.204e-06	2.4374e-06	994.31	192.93	7.9108e-07	1.6201e-06	246.38	68.424	52.413	14.981	2.5172e-06	21.807	0.00036642	0.00036669	0.00010163	880.23	4.0215e-06	4.033e-06	984.31	193.4	3.9944e-06	4.0916e-06	247.51	70.045	53.654	15.71	4.1199e-06	22.658	143.523	12.357	45.449	-152.814	-20.728	96.577	-153.064	-145.495	21.176	-101.100	-145.796	-138.813	-138.651	-131.292	-89.635	-131.626	-8191	255	
13948.730	1	1	0	0	0.13109	0.10588	0.2575	0.2461	0.13164	0.23489	0.34313	0.26018	0.13898	0.083512	0.11046	0.083758	0.073485	0.10607	0.34749	0.18476	-1.7188	-2.6333	-2.0396	-2.4583	-2.6688	-2.1188	-2.7167	-2.3021	-2.075	-2.7396	-2.3646	-2.5646	-2.6437	-2.1729	-2.3625	-2.4229	38.605	21.297	-111.767	102.920	-126.978	-140.823	92.734	132.767	101.339	135.612	35.993	161.516	137.022	153.593	-33.726	188.561	0.00040196	0.00056077	0.000179	891.67	2.5191e-06	4.378e-06	996.53	192.7	2.8786e-06	6.5973e-06	246.46	69.238	52.062	15.29	2.9646e-06	21.749	0.00037455	0.0003727	0.00010372	880.52	4.0763e-06	4.0679e-06	985.57	193.48	4.0951e-06	4.0502e-06	247.57	70.387	53.583	15.785	4.0659e-06	22.7	138.379	-25.618	-107.765	-152.950	52.336	4.740	-152.862	-145.472	-23.469	-27.433	-145.803	-139.021	-138.564	-130.613	-73.737	-131.771	-8191	255	
13948.801	1	1	0	0	0.1196	0.18852	0.086829	0.29453	0.27958	0.28599	0.23934	0.13108	0.13773	0.1052	0.1957	0.18111	0.12764	0.26847	0.20152	0.18069	-1.6396	-2.4917	-2.3438	-2.4688	-2.6208	-2.2875	-2.5146	-2.7729	-2.25	-2.775	-2.5062	-2.3187	-2.625	-2.3042	-2.5771	-2.5312	-91.385	31.515	18.887	55.395	-139.654	-8.452	183.681	117.479	20.532	102.771	181.700	-89.134	-133.022	146.234	176.593	118.859	0.00052181	0.0003476	0.00015166	887.66	4.6064e-06	4.99e-06	991.15	192.43	6.0672e-06	1.6902e-06	247.75	68.834	52.185	15.031	1.7639e-06	21.589	0.00036755	0.00037069	0.00010299	879.13	4.1024e-06	4.1102e-06	984.81	193.74	4.0896e-06	4.1117e-06	248.55	70.179	53.486	15.738	4.1439e-06	22.577	124.142	-85.686	-38.558	-153.089	-158.103	-26.467	-152.988	-145.486	23.358	-47.958	-145.568	-139.491	-138.954	-131.566	23.834	-131.726	-8191	255	
13948.922	1	1	0	0	0.093377	0.17944	0.25486	0.20402	0.085313	0.27708	0.33542	0.12208	0.31272	0.42393	0.099446	0.16284	0.29148	0.11337	0.017345	0.15374	-1.6646	-2.6792	-2.2562	-2.3	-2.5	-2.425	-2.6417	-2.6875	-2.0354	-2.6479	-2.3312	-2.2521	-2.5333	-2.2458	-2.375	-2.6688	76.989	-124.927	-95.209	190.266	60.634	48.382	110.335	78.860	158.616	-130.185	181.184	15.610	161.832	-125.673	82.664	180.295	0.00036866	0.00049707	5.5702e-05	893.26	3.2072e-06	2.0324e-06	993.47	194.8	2.1282e-06	3.5966e-06	246.56	68.746	52.7	15.132	3.5649e-06	21.648	0.00037349	0.00037416	0.00010412	880.24	4.0807e-06	4.0384e-06	983.57	193.68	4.1278e-06	4.1484e-06	247.71	70.159	53.659	15.733	4.1179e-06	22.586	116.208	-36.840	-50.040	-153.015	36.036	78.216	-153.071	-145.800	-45.595	-130.377	-145.446	-139.217	-138.784	-131.009	-89.387	-131.232	-8191	255	
13949.018	1	1	0	0	0.15328	0.14957	0.20196	0.17394	0.16623	0.096698	0.25252	0.18152	0.23381	0.088366	0.39186	0.40382	0.10209	0.24041	0.39592	0.05495	-1.8354	-2.2708	-2.4729	-2.2333	-2.5729	-2.3563	-2.3229	-2.6625	-2.1854	-2.3667	-2.4437	-2.0729	-2.5604	-2.3646	-2.1646	-2.4625	-58.395	172.774	-96.617	149.127	102.056	193.624	104.536	18.534	31.721	135.653	127.343	151.278	-58.753	-142.839	119.425	-60.622	0.00052624	0.00016239	8.8467e-05	892.57	1.9011e-06	6.6148e-06	994.04	192.81	3.1438e-06	4.7016e-06	246.22	69.1	52.161	15.22	4.2456e-06	21.689	0.00037189	0.00036642	0.00010273	882.39	4.0929e-06	3.9955e-06	985	193.22	4.0587e-06	4.131e-06	247.31	70.101	53.66	15.775	4.0658e-06	22.663	147.572	-115.501	-52.972	-152.631	-127.819	-17.135	-152.977	-145.227	-80.125	-158.238	-145.763	-139.203	-138.832	-131.231	-114.193	-131.616	-8191	255	
13949.114	1	1	0	0	0.085373	0.14175	0.10149	0.13	0.1424	0.060025	0.2528	0.11351	0.10656	0.13497	0.10461	0.05898	0.037922	0.10869	0.01333	0.099218	-1.9292	-2.525	-2.5187	-2.2479	-2.5521	-2.4417	-2.3333	-2.6604	-2.0458	-2.4646	-2.45	-2.1417	-2.4792	-2.325	-2.2604	-2.5542	-0.625	164.296	-63.710	9.145	100.863	-7.155	147.746	1.916	37.465	-45.776	111.811	123.890	-132.722	128.977	-162.747	-89.556	0.00043823	0.00022041	8.848e-05	890.07	5.1973e-06	1.3805e-06	994.55	192.61	4.6451e-06	1.9013e-06	245.91	69.619	52.263	14.96	6.4136e-06	21.497	0.00037321	0.00036141	0.0001006	879.34	4.0179e-06	4.0562e-06	985.4	193.63	4.0262e-06	4.1005e-06	248.27	70.384	53.437	15.707	4.0659e-06	22.566	115.902	11.854	-98.773	-153.044	32.297	-18.802	-152.714	-145.449	45.350	-70.181	-145.597	-139.361	-138.702	-130.715	-66.351	-131.393	-8191	255	
13949.210	1	1	0	0	0.16611	0.18891	0.21758	0.16389	0.24308	0.042967	0.37723	0.070975	0.098603	0.067759	0.073811	0.25198	0.071319	0.16576	0.21965	0.20067	-1.7271	-2.3083	-2.3937	-2.3333	-2.5146	-2.5563	-2.2646	-2.6375	-2.3042	-2.2458	-2.6271	-2.0583	-2.5687	-2.5104	-2.0812	-2.5292	158.370	23.360	-158.206	145.664	-150.016	-38.288	102.021	-148.413	-143.265	-41.168	129.585	-148.775	-43.560	30.164	39.067	-126.873	0.00037743	0.00022319	0.00020916	892.32	2.8131e-06	2.614e-06	991.64	192.78	1.338e-06	3.0716e-06	245.91	69.2	52.701	15.138	9.8719e-07	21.81	0.00036666	0.00036863	0.00010218	882.04	4.0071e-06	4.0146e-06	983.93	193.61	4.0469e-06	4.0385e-06	247.92	70.273	53.742	15.802	4.0932e-06	22.667	131.565	120.138	31.959	-152.894	-128.211	68.148	-153.020	-145.273	122.879	34.538	-145.013	-139.364	-138.610	-131.180	165.283	-131.680	-8191	255	
13949.329	1	1	0	0	0.14783	0.31641	0.28573	0.18089	0.19345	0.18452	0.19332	0.37443	0.090362	0.083037	0.1487	0.2532	0.27153	0.11554	0.12191	0.11707	-1.85	-2.3708	-2.5458	-2.1979	-2.45	-2.3187	-2.4	-2.525	-2.1667	-2.1917	-2.6979	-2.2938	-2.4604	-2.5167	-2.2021	-2.6125	-47.457	-72.911	54.530	193.659	139.277	-20.020	146.875	39.934	-103.196	-8.553	-134.219	147.711	116.799	-7.524	129.419	-148.268	0.00054444	0.00014362	0.0001477	890.54	6.0058e-06	5.0224e-06	996.8	192.69	4.9443e-06	6.1568e-06	246.14	69.194	52.751	15.123	4.2951e-06	21.735	0.00036425	0.00036795	0.00010244	881.01	4.0418e-06	4.0299e-06	984.46	193.73	3.9779e-06	4.0295e-06	248.18	70.206	53.667	15.749	4.0221e-06	22.643	127.242	-10.717	0.045	-152.782	17.352	-1.092	-152.893	-145.350	-32.977	-29.530	-145.457	-139.222	-138.929	-130.908	-37.197	-131.262	-8191	255	
13949.425	1	1	0	0	0.063429	0.18814	0.06266	0.2894	0.15938	0.052934	0.11303	0.30335	0.062443	0.23974	0.1546	0.11089	0.11741	0.14829	0.22901	0.094112	-1.8667	-2.4208	-2.5979	-2.3271	-2.5687	-2.6229	-2.1396	-2.4792	-2.2812	-2.1917	-2.7021	-2.2812	-2.3146	-2.5062	-2.1396	-2.5833	183.582	34.583	87.369	145.561	118.936	44.661	-68.474	-12.890	-37.454	165.216	112.029	-67.540	105.960	45.158	11.638	79.409	0.00043436	9.8439e-05	5.2952e-05	890.24	6.1233e-06	2.2984e-06	992.95	193.89	8.8724e-06	4.1326e-06	246.87	68.841	52.638	15.135	4.4569e-06	21.734	0.00036703	0.00036457	0.00010047	880.13	4.016e-06	4.0241e-06	983.37	193.63	3.994e-06	4.076e-06	247.91	70.254	53.537	15.771	4.0645e-06	22.588	139.231	70.696	-98.368	-152.599	-14.055	63.221	-152.955	-145.213	-6.034	-88.421	-145.758	-139.175	-138.645	-130.949	-28.173	-131.762	-8191	255	
13949.499	1	1	0	0	0.24804	0.084219	0.080479	0.21488	0.18102	0.17589	0.27429	0.080615	0.13378	0.22638	0.19582	0.047771	0.12654	0.14327	0.020358	0.23127	-1.9021	-2.2021	-2.5687	-2.3083	-2.2375	-2.6604	-2.1479	-2.5187	-2.5021	-2.1917	-2.7188	-2.225	-2.2667	-2.5479	-2.1937	-2.4	61.130	-118.781	-18.227	-122.572	-109.653	-20.840	115.634	66.085	-144.425	82.455	145.638	-136.395	96.197	-109.751	29.478	3.695	0.00031965	0.00017395	5.5866e-05	890.05	1.4616e-06	1.8155e-06	996.86	194.17	5.1071e-06	7.0389e-06	247.02	69.009	52.75	15.289	2.5328e-06	21.597	0.00036337	0.00036411	0.00010133	881.4	3.9978e-06	4.0115e-06	984.35	194.02	4.014e-06	3.9623e-06	247.33	70.437	53.654	15.812	4.003e-06	22.596	123.026	-69.401	-11.954	-152.921	-15.421	-52.562	-153.033	-145.483	-87.577	-55.298	-145.462	-139.584	-138.888	-131.218	120.418	-131.326	-8191	255	
13949.595	1	1	0	0	0.15977	0.14002	0.15562	0.27363	0.31936	0.2431	0.25636	0.23912	0.18351	0.21022	0.18212	0.19197	0.078193	0.15287	0.16091	0.1594	-2.0708	-1.9937	-2.4375	-2.4771	-2.1979	-2.5938	-2.1208	-2.4604	-2.5125	-1.9438	-2.4458	-2.4125	-2.1667	-2.6625	-2.2708	-2.5167	-25.218	-132.272	119.274	146.681	81.300	-70.530	-139.226	117.122	152.969	16.580	-145.922	120.789	186.689	-70.370	-158.395	-87.417	0.00029577	0.00031315	0.00011779	890.33	1.8191e-06	4.8999e-06	993.15	193.42	2.6104e-06	1.01e-06	245.85	69.157	52.431	15.131	5.6419e-06	21.855	0.00036179	0.00036084	0.00010322	880.44	3.9909e-06	4.0019e-06	984.92	193.49	3.9616e-06	4.1005e-06	247.74	70.249	53.669	15.73	4.1129e-06	22.607	105.674	-135.200	-130.200	-153.049	-142.648	182.274	-153.003	-145.558	-22.494	41.364	-145.514	-139.108	-138.811	-131.381	-30.839	-131.497	-8191	255	
13949.714	1	1	0	0	0.16689	0.30502	0.10582	0.35763	0.1401	0.0676	0.12824	0.20876	0.17124	0.211	0.13646	0.24564	0.075318	0.091808	0.087195	0.233	-2.0646	-1.9167	-2.5417	-2.4458	-2.2542	-2.6979	-2.4229	-2.2687	-2.5271	-2.125	-2.6396	-2.5083	-2.2521	-2.7521	-2.3604	-2.4792	15.968	87.076	142.842	172.250	-69.263	59.263	57.938	-74.258	-33.498	61.303	-155.171	186.265	103.812	-153.735	-107.696	155.470	0.00023927	0.00044339	7.9092e-05	891.44	2.1037e-06	1.4668e-06	993.01	193.49	4.258e-06	5.1448e-06	248.2	69.095	52.483	15.068	5.1651e-06	21.83	0.00037522	0.00037215	0.00010457	880.84	4.0451e-06	4.0576e-06	983.54	194.06	4.0649e-06	4.0816e-06	248.34	70.311	53.69	15.749	4.0815e-06	22.728	126.182	-162.830	-45.251	-152.923	-121.398	108.348	-153.107	-145.661	19.938	-33.656	-145.451	-139.653	-138.633	-130.724	-91.854	-132.119	-8191	255	
13949.810	1	1	0	0	0.13084	0.095915	0.1731	0.20593	0.2246	0.030222	0.12968	0.19367	0.11285	0.1135	0.08075	0.21808	0.17039	0.087598	0.13908	0.043675	-2.05	-2.0062	-2.3167	-2.7521	-2.1271	-2.5896	-2.375	-2.5438	-2.6292	-2.1958	-2.5167	-2.6167	-2.1063	-2.4938	-2.3812	-2.4604	185.725	185.405	-116.205	180.267	-99.538	92.675	-163.137	-154.322	-74.673	32.765	41.123	100.893	112.615	-14.727	-100.148	-129.308	0.00030677	0.00016649	8.2327e-05	892.33	4.5914e-06	1.1929e-06	998.39	193	6.1265e-07	8.2859e-06	246.78	69.641	52.159	15.096	6.3315e-06	21.679	0.00036289	0.00037534	0.00010357	881.28	4.1061e-06	4.1031e-06	986.99	193.74	4.1311e-06	4.168e-06	248.17	70.402	53.639	15.785	4.1103e-06	22.676	118.234	18.124	-59.148	-152.894	-64.583	116.055	-152.910	-145.477	181.355	-32.426	-145.676	-139.639	-138.785	-130.876	6.424	-131.329	-8191	255	
13949.906	1	1	0	0	0.026913	0.15383	0.042421	0.089534	0.16858	0.084117	0.14919	0.073323	0.054652	0.095724	0.051887	0.05864	0.070886	0.090841	0.08771	0.17702	-2.1562	-2.1354	-2.4333	-2.5354	-2.075	-2.6375	-2.4542	-2.4167	-2.5833	-2.1396	-2.3937	-2.5958	-2.1437	-2.3583	-2.4333	-2.0625	166.939	87.000	-32.950	-11.649	-152.185	91.661	-76.244	141.426	82.479	-63.704	130.208	104.897	144.450	100.801	105.296	49.976	0.00037242	0.00039116	9.0922e-05	888.73	3.0968e-06	2.3146e-06	993.59	193.34	5.9465e-06	2.3549e-06	247.33	68.971	52.759	15.203	3.6249e-06	21.632	0.00036839	0.00037229	0.00010425	881.33	4.08e-06	4.105e-06	986.05	194.1	4.0458e-06	4.1214e-06	248.36	70.314	53.82	15.787	4.1491e-06	22.634	127.858	2.164	133.399	-152.668	-46.982	-116.586	-152.961	-145.532	-31.566	70.564	-146.212	-139.220	-138.890	-131.202	178.251	-131.534	-8191	255	
13950.002	1	1	0	0	0.21633	0.11093	0.1138	0.30998	0.1861	0.15991	0.1299	0.16633	0.23651	0.078647	0.14279	0.039647	0.059275	0.13153	0.11512	0.13775	-2.1021	-2.2958	-2.175	-2.4833	-2.0625	-2.5438	-2.5125	-2.1104	-2.6896	-2.4375	-2.3729	-2.7542	-2.2896	-2.5646	-2.3917	-2.1354	-16.625	180.295	-7.356	145.104	-106.632	-112.006	134.269	71.739	-66.745	108.595	-105.609	65.510	-84.681	136.292	-149.003	-78.994	0.0003086	9.6886e-05	0.00018322	887.29	5.735e-06	4.1321e-06	999.26	193.96	2.873e-06	3.108e-06	246	69.37	52.874	15.189	3.0754e-06	21.853	0.00037596	0.00037449	0.00010391	879.39	4.0715e-06	4.0815e-06	985.64	194	4.0583e-06	4.0574e-06	247.5	70.445	53.599	15.806	4.09e-06	22.656	123.180	59.635	-103.705	-152.752	32.852	0.799	-152.835	-145.330	-116.742	175.329	-145.718	-139.292	-138.698	-130.776	-46.239	-131.538	-8191	255	
13950.098	1	1	0	0	0.21447	0.10459	0.12867	0.20264	0.23058	0.11406	0.086715	0.25928	0.34298	0.27171	0.024019	0.21044	0.044487	0.15535	0.23323	0.25635	-2.0438	-2.45	-2.1333	-2.7396	-2.1063	-2.5229	-2.5896	-2.3542	-2.6937	-2.4458	-2.3063	-2.7083	-2.3563	-2.3042	-2.6042	-2.1208	-116.833	57.154	-56.727	144.293	112.713	-14.684	-136.596	188.679	77.178	93.803	-67.401	-68.439	-148.601	12.534	3.295	170.645	0.00048877	0.00030748	3.0225e-05	888.13	1.9491e-06	2.2118e-06	992.14	193.41	3.8847e-06	6.0969e-06	247.02	68.712	52.448	15.173	2.623e-06	21.766	0.00036798	0.00037423	0.0001017	881.49	4.0256e-06	4.0743e-06	985.11	193.84	3.98e-06	3.9703e-06	248.17	70.149	53.607	15.743	3.9953e-06	22.582	158.278	175.371	-86.124	-152.878	-100.568	-7.522	-152.973	-145.545	-80.829	-24.474	-145.682	-139.056	-138.787	-131.383	-34.758	-131.775	-8191	255	
13950.195	1	1	0	0	0.063404	0.1307	0.1611	0.23633	0.039101	0.067559	0.096397	0.059994	0.11504	0.25067	0.20771	0.23062	0.27449	0.081021	0.032432	0.038673	-2.2438	-2.4375	-2.1792	-2.5375	-2.0812	-2.4	-2.6667	-2.2062	-2.5354	-2.3937	-2.3208	-2.6125	-2.2938	-2.1396	-2.5146	-2.1604	-39.814	178.979	18.625	-127.071	-74.236	-131.245	177.293	117.401	105.078	144.316	-154.340	-83.380	167.108	-35.088	-126.457	69.500	0.00044527	0.00024636	4.6912e-05	889.99	2.0023e-06	2.7711e-06	989.43	192.33	4.6254e-06	3.5961e-06	246.16	69.054	52.438	15.251	8.0487e-06	21.777	0.00036046	0.0003705	0.0001018	879.29	3.9995e-06	4.0366e-06	982.96	193.54	4.0185e-06	4.0194e-06	247.68	70.215	53.602	15.754	3.9861e-06	22.591	142.514	-134.536	18.509	-152.860	35.076	94.666	-152.933	-145.558	-104.898	-25.135	-145.783	-139.208	-138.950	-130.923	-45.229	-130.953	-8191	255	
13950.315	1	1	0	0	0.20369	0.0055087	0.16649	0.19646	0.1785	0.17126	0.35207	0.25895	0.2622	0.23539	0.066754	0.32553	0.01895	0.26001	0.19646	0.064173	-1.9625	-2.4958	-2.0812	-2.6937	-2.3417	-2.1771	-2.6958	-2.1771	-2.4208	-2.4896	-2.1854	-2.6688	-2.4333	-2.1729	-2.525	-2.4458	26.601	194.047	-63.190	167.107	14.027	180.130	122.660	67.301	173.962	30.598	-39.191	129.240	53.067	88.836	-56.812	156.172	0.00054347	0.00028535	6.697e-05	890.29	1.2152e-06	3.7368e-06	990.41	193.77	6.109e-06	2.0014e-06	248.18	69.29	52.768	15.154	5.0891e-07	21.763	0.00036418	0.00035645	0.00010202	880.65	3.964e-06	3.9234e-06	984.04	193.43	4.011e-06	4.0292e-06	248.4	70.252	53.666	15.775	4.0633e-06	22.666	129.376	144.001	-140.413	-152.929	-72.434	71.108	-153.218	-145.278	-36.160	-115.460	-145.521	-138.987	-138.284	-131.010	-32.052	-131.489	-8191	255	
13950.411	1	1	0	0	0.050102	0.22831	0.13397	0.1605	0.21898	0.22752	0.29837	0.16196	0.023542	0.063262	0.20631	0.17848	0.068409	0.068906	0.28854	0.13229	-1.7542	-2.4021	-2.1917	-2.7229	-2.3125	-2.2333	-2.7979	-2.2604	-2.4437	-2.6271	-2.2479	-2.4521	-2.3979	-2.2083	-2.6083	-2.2646	-126.033	7.581	98.572	103.678	60.558	73.443	167.852	192.828	-86.330	35.420	139.117	-145.553	95.705	-54.761	34.214	-13.801	0.00030989	0.0002181	2.266e-05	887.4	4.2372e-06	1.9039e-06	988.58	193.13	6.0468e-07	5.2871e-06	247.03	69.344	53.463	15.211	6.5781e-06	21.805	0.00036644	0.00036865	9.9737e-05	877.6	3.9349e-06	3.9832e-06	982.15	193.29	3.939e-06	3.957e-06	247.21	70.294	53.808	15.791	3.915e-06	22.599	122.212	70.724	16.917	-152.892	-66.516	-40.177	-152.993	-145.156	113.165	3.104	-145.581	-139.499	-138.584	-130.853	25.257	-132.182	-8191	255	
13950.506	1	1	0	0	0.24532	0.05402	0.35682	0.12699	0.37813	0.25326	0.35946	0.19289	0.23326	0.18436	0.15231	0.35635	0.12421	0.079911	0.26169	0.29165	-1.9667	-2.6396	-2.1813	-2.5812	-2.5292	-2.2792	-2.6813	-2.3063	-2.2646	-2.4125	-2.2646	-2.3896	-2.4562	-2.3667	-2.4646	-2.4542	2.120	16.684	100.146	155.046	58.518	-5.152	137.971	137.227	-95.416	178.979	50.858	193.052	116.103	184.636	-53.217	-110.767	0.00041481	0.00018703	7.8057e-05	888.35	2.2644e-06	5.2748e-06	994.03	192.65	1.4588e-06	5.5047e-06	246.72	69.06	52.784	15.236	1.9087e-06	21.788	0.00036489	0.00035717	0.00010136	877.99	3.9397e-06	3.9481e-06	984.39	193.3	3.9634e-06	3.9283e-06	247.2	70.172	53.862	15.755	4.0545e-06	22.679	123.907	-72.049	-108.750	-152.706	-27.043	-115.432	-153.052	-145.650	-80.023	-6.690	-145.425	-139.281	-138.745	-131.154	80.945	-131.863	-8191	255	
13950.604	1	1	0	0	0.2295	0.12062	0.19318	0.15934	0.11224	0.24555	0.01616	0.27685	0.04715	0.3042	0.10473	0.2765	0.094127	0.0094367	0.222	0.089602	-1.825	-2.6917	-2.2625	-2.5187	-2.5563	-2.15	-2.7583	-2.2833	-2.2604	-2.7583	-2.2188	-2.5563	-2.575	-2.1833	-2.4521	-2.2854	58.255	119.547	-23.049	32.911	168.450	169.781	76.256	79.298	-4.274	194.871	179.072	-122.977	18.421	-154.983	-41.611	-68.866	0.00043809	0.0002251	0.00024797	890.08	2.7203e-06	1.0545e-06	993.91	192.27	1.1077e-06	3.9785e-06	246.64	69.432	52.395	15.222	1.8637e-06	21.78	0.00036982	0.00036319	0.0001024	879.93	3.9788e-06	4.0114e-06	984.13	193.11	4.0689e-06	3.9965e-06	247.72	70.336	53.585	15.758	4.0595e-06	22.566	125.377	12.539	-70.292	-152.944	-79.328	-94.035	-152.850	-144.964	32.715	-44.792	-145.619	-139.599	-139.049	-131.214	-109.095	-131.394	-8191	255	
13950.698	1	1	0	0	0.044949	0.28083	0.19366	0.1274	0.16469	0.19274	0.18299	0.12471	0.1643	0.16518	0.20619	0.21943	0.13755	0.16932	0.10718	0.17479	-1.7521	-2.6188	-1.9646	-2.5583	-2.5458	-2.15	-2.6562	-2.4396	-2.2375	-2.8042	-2.3375	-2.3854	-2.5687	-2.2729	-2.6875	-2.4562	-64.926	85.006	128.106	177.083	-121.836	-57.054	179.974	59.088	27.598	120.009	136.909	-133.443	-113.990	115.447	-156.256	106.527	0.00043694	0.00012522	0.00012001	890.33	4.8338e-06	3.589e-06	992.84	193.15	9.6901e-06	1.4918e-06	247.26	68.809	52.621	15.041	1.5221e-06	21.867	0.00036702	0.00036839	0.00010237	879.41	3.9896e-06	3.9856e-06	983.31	193.36	4.0341e-06	4.027e-06	247.68	70.204	53.666	15.747	4.0388e-06	22.704	131.305	-13.420	30.138	-152.796	-43.976	-51.556	-153.128	-145.796	-69.594	136.484	-145.661	-139.278	-139.208	-131.376	143.641	-131.530	-8191	255	
13950.794	1	1	0	0	0.095698	0.28333	0.2244	0.12504	0.019463	0.092442	0.3511	0.28312	0.031048	0.060472	0.37009	0.073348	0.030286	0.10856	0.13009	0.21734	-1.6292	-2.6146	-2.2188	-2.4917	-2.5979	-2.15	-2.5208	-2.4479	-2.2021	-2.6375	-2.3604	-2.3896	-2.5917	-2.1479	-2.3812	-2.5146	69.089	-56.381	23.119	132.912	60.963	93.012	100.842	124.030	19.081	-3.012	46.319	161.014	16.925	-16.902	80.453	174.803	0.00036645	6.6425e-05	0.00018405	886.24	3.8773e-06	3.1776e-06	992.33	193.03	7.6306e-06	2.736e-06	248.28	69.329	52.224	15.168	2.421e-06	21.832	0.00036447	0.00036636	0.00010198	879.2	3.9606e-06	3.9213e-06	983.43	193.59	3.975e-06	4.0024e-06	248.14	70.217	53.56	15.712	4.0024e-06	22.619	130.398	-35.527	-94.752	-152.968	8.618	-28.690	-152.878	-145.653	17.563	136.559	-145.757	-139.046	-138.573	-131.533	141.857	-131.600	-8191	255	
13950.890	1	1	0	0	0.029077	0.095821	0.36946	0.3572	0.083294	0.36335	0.17703	0.152	0.11327	0.071324	0.19904	0.18297	0.40262	0.15392	0.10649	0.096342	-1.7396	-2.5479	-2.4229	-2.2667	-2.5896	-2.0542	-2.6583	-2.6	-2.0708	-2.6292	-2.4229	-2.2792	-2.6458	-2.4396	-2.5417	-2.6375	154.917	-147.125	81.272	143.574	12.733	98.940	106.938	173.375	7.104	-12.394	149.793	55.283	-160.310	71.848	80.777	99.317	0.00039378	0.00023534	2.0074e-05	886.87	3.0673e-06	2.3273e-06	991.75	194.12	8.0267e-06	2.4594e-06	245.55	69.285	52.497	15.022	3.6468e-06	21.846	0.00036438	0.00036019	0.00010098	878.18	4.0376e-06	3.9457e-06	983.83	193.52	3.9683e-06	3.9946e-06	247.49	70.331	53.71	15.714	4.0533e-06	22.665	145.270	-60.013	97.724	-152.779	-33.085	45.369	-152.887	-145.676	-7.254	47.353	-145.768	-139.222	-138.714	-130.849	-58.141	-131.525	-8191	255	
13951.011	1	1	0	0	0.23406	0.18063	0.1581	0.1905	0.20219	0.20959	0.39358	0.27931	0.15521	0.14972	0.21449	0.13103	0.11911	0.089615	0.058942	0.21233	-1.5354	-2.4208	-2.5229	-2.1917	-2.825	-2.4271	-2.2917	-2.6625	-2.2729	-2.5021	-2.6521	-2.1771	-2.5687	-2.3375	-2.4875	-2.6813	48.223	109.685	57.195	152.183	-107.106	-14.074	149.731	-151.398	-24.773	175.571	155.548	20.459	137.613	31.126	178.858	-28.898	0.0004489	0.00044534	5.6185e-05	890.02	2.7435e-06	3.888e-06	991.78	193.69	2.4446e-06	1.8635e-06	246.5	69.171	52.744	15.215	1.8562e-06	21.815	0.00036887	0.0003636	0.00010149	880.3	4.0243e-06	4.014e-06	985.95	193.8	4.0374e-06	4.0023e-06	247.92	70.087	53.709	15.783	4.0454e-06	22.602	123.117	-61.146	-81.302	-152.744	-49.785	-76.018	-152.983	-145.384	113.404	-158.676	-145.799	-139.295	-138.703	-131.321	-116.880	-131.899	-8191	255	
13951.107	1	1	0	0	0.13171	0.18598	0.181	0.20205	0.035677	0.082631	0.10052	0.32901	0.026575	0.19404	0.11521	0.31441	0.14766	0.15731	0.197	0.16585	-1.7646	-2.4833	-2.4437	-2.4729	-2.5312	-2.3146	-2.3625	-2.6042	-2.0833	-2.5896	-2.4813	-2.1917	-2.6729	-2.3875	-2.2417	-2.7479	36.117	-135.215	-48.656	-47.395	-72.687	76.004	-2.934	195.074	169.655	6.665	72.280	103.729	121.347	-115.984	-20.054	34.891	0.00037594	0.00014486	7.0131e-05	887.44	1.4661e-06	4.2942e-06	994.52	192.22	3.1499e-06	1.0078e-06	248.75	69.273	52.346	15.165	4.6564e-06	21.693	0.00036366	0.00036453	0.00010045	879.63	3.9734e-06	4.0182e-06	983.42	193.16	4.0062e-06	4.0129e-06	247.77	70.282	53.699	15.768	4.0064e-06	22.59	135.252	-49.263	-153.298	-153.060	-13.366	16.015	-152.921	-145.489	120.942	125.510	-145.408	-139.243	-138.867	-131.011	121.935	-131.709	-8191	255	
13951.203	1	1	0	0	0.18238	0.076271	0.33543	0.16589	0.11224	0.24331	0.17102	0.0949	0.33659	0.14626	0.27005	0.090411	0.070045	0.072742	0.15441	0.19171	-1.7875	-2.5417	-2.65	-2.2208	-2.5479	-2.6063	-2.3625	-2.5667	-2.1646	-2.4688	-2.6833	-2.1417	-2.5458	-2.425	-2.2292	-2.5458	13.068	99.393	107.785	143.111	-89.870	-13.591	-5.394	-159.203	175.868	-66.366	122.488	180.573	-28.665	-116.884	12.658	192.190	0.00044157	0.00012743	2.2422e-05	886.89	4.475e-06	4.2598e-06	996.51	192.87	1.0811e-06	2.5369e-06	248.42	69.166	52.558	15.077	1.5242e-06	21.639	0.00036576	0.0003633	0.00010091	878.75	3.9674e-06	4.0227e-06	984.66	193.23	3.9536e-06	3.9402e-06	247.91	70.199	53.587	15.753	3.9904e-06	22.612	151.556	66.593	-7.850	-152.632	-35.306	9.694	-153.126	-145.462	-137.336	-95.134	-145.368	-139.260	-138.775	-130.783	-53.146	-131.455	-8191	255	
13951.299	1	1	0	0	0.15032	0.049246	0.22425	0.32864	0.05994	0.19204	0.035493	0.11317	0.1024	0.23799	0.39612	0.053077	0.19524	0.2621	0.034566	0.25879	-1.8312	-2.3563	-2.7667	-2.2125	-2.4479	-2.7125	-2.3667	-2.6792	-2.4167	-2.3729	-2.7687	-2.15	-2.5042	-2.4562	-2.0729	-2.575	146.149	133.473	-27.671	168.031	-107.156	20.599	-82.987	-115.773	-29.312	127.070	153.851	118.562	63.452	-64.364	178.077	112.889	0.0003945	0.00037731	7.8404e-05	887.06	1.7142e-06	3.7159e-06	994.91	193.1	6.8601e-06	6.7692e-06	247.17	69.248	52.695	15.237	4.8004e-06	21.558	0.00036838	0.00036351	0.00010003	878.23	3.9714e-06	3.9894e-06	984.38	193.57	3.9125e-06	4.0072e-06	247.36	70.182	53.76	15.761	4.0102e-06	22.59	142.413	193.683	-56.332	-152.731	184.216	-29.993	-153.074	-145.403	1.193	22.031	-145.402	-139.476	-139.227	-131.334	-66.849	-131.730	-8191	255	
13951.396	1	1	0	0	0.16864	0.079445	0.39613	0.11903	0.22288	0.27183	0.3282	0.14571	0.22027	0.28002	0.21098	0.058733	0.32336	0.093855	0.10872	0.22834	-1.8312	-2.2271	-2.6396	-2.1708	-2.2146	-2.625	-2.1854	-2.6562	-2.5917	-2.2646	-2.8104	-2.3542	-2.3625	-2.5146	-2.1667	-2.6875	162.024	-80.228	-144.084	133.490	153.347	29.088	159.579	117.113	-49.518	-122.189	134.355	-15.198	-156.076	106.281	-38.911	75.881	0.00031924	0.00073693	3.5481e-05	886.51	2.496e-06	3.9783e-06	992.31	193.14	1.1867e-06	2.6332e-06	245.62	69.26	52.636	15.111	2.592e-06	21.775	0.00036266	0.00035783	9.9822e-05	877.39	3.9322e-06	3.9947e-06	984.48	192.9	3.9564e-06	4.0162e-06	247.31	70.108	53.66	15.701	3.9467e-06	22.579	132.609	-25.173	43.284	-152.817	-40.518	-14.578	-153.259	-145.138	31.542	36.696	-145.750	-139.415	-139.296	-130.705	56.975	-131.184	-8191	255	
13951.492	1	1	0	0	0.16734	0.23503	0.21529	0.047864	0.078956	0.066128	0.16074	0.12106	0.18813	0.04775	0.11885	0.30225	0.099039	0.30534	0.16034	0.035241	-1.9125	-2.1229	-2.6729	-2.4667	-2.1771	-2.7083	-2.4729	-2.4938	-2.4979	-2.2938	-2.7646	-2.4979	-2.3625	-2.7292	-2.2833	-2.4521	-10.808	68.078	-22.761	67.984	-159.617	60.265	169.931	-112.168	-16.997	106.616	-107.151	117.807	114.083	103.222	-12.850	79.064	0.00044868	0.00039574	0.00012669	883.36	2.7147e-06	1.6392e-06	993.05	192.48	6.1746e-06	3.8168e-06	246.18	69.139	52.171	15.221	6.6577e-06	21.721	0.00035147	0.00035862	0.00010016	877.35	4.024e-06	3.942e-06	984.03	193.39	3.9428e-06	3.9923e-06	247.56	70.167	53.391	15.793	3.9129e-06	22.565	123.687	-117.930	-140.742	-152.989	118.428	111.862	-153.030	-145.354	-87.333	-49.697	-145.830	-139.473	-139.096	-130.788	-22.927	-131.843	-8191	255	
13951.586	1	1	0	0	0.0352	0.23604	0.38031	0.17734	0.26874	0.13901	0.073852	0.056706	0.079883	0.19476	0.066986	0.14049	0.10766	0.08682	0.21582	0.16158	-1.9229	-2.0021	-2.6729	-2.5312	-2.2646	-2.475	-2.2229	-2.4958	-2.5563	-2.1271	-2.7062	-2.1979	-2.2396	-2.6875	-2.2542	-2.4792	12.285	52.654	-93.651	-51.362	18.863	122.869	13.456	-30.874	-9.094	10.830	72.868	-154.959	194.897	-118.594	102.964	185.555	0.00030381	0.00016791	0.00015624	888.44	3.5709e-06	4.2496e-06	989.89	192.56	3.2838e-06	5.625e-06	244.11	68.745	52.36	15.136	3.2035e-06	21.737	0.00035739	0.00035899	0.00010145	879.14	3.9672e-06	3.921e-06	982.87	193.73	3.9732e-06	3.9362e-06	247.4	70.129	53.54	15.744	3.9116e-06	22.645	146.438	-17.405	-86.693	-153.099	-132.484	-69.446	-153.111	-145.331	-111.139	19.440	-145.488	-139.356	-138.553	-130.786	24.293	-131.813	-8191	255	
13951.684	1	1	0	0	0.42152	0.013136	0.094017	0.1519	0.086841	0.082949	0.13861	0.12202	0.14575	0.3399	0.16041	0.13714	0.20032	0.1727	0.15115	0.22813	-2.0354	-2.1646	-2.4417	-2.3688	-2.1125	-2.4917	-2.4354	-2.3208	-2.6	-2.1542	-2.2979	-2.4521	-2.1896	-2.5542	-2.3937	-2.4813	-137.818	-10.171	-60.289	88.081	-87.666	-150.466	147.821	68.169	-84.465	87.507	125.181	-81.553	77.306	-94.158	-118.983	104.464	0.00038464	0.00039628	0.00013161	885.22	7.657e-06	4.6414e-06	988.47	192.67	9.751e-06	4.6876e-06	246.72	69.333	52.435	15.214	7.2424e-07	21.495	0.00036004	0.00035914	9.93e-05	877.67	3.9663e-06	3.9409e-06	980.55	193.17	3.9416e-06	3.987e-06	247.39	70.311	53.533	15.764	4.0365e-06	22.519	132.654	-102.075	-65.755	-153.145	-66.702	12.381	-152.747	-145.514	-48.782	-101.780	-146.314	-139.128	-138.448	-130.836	-110.226	-131.598	-8191	255	
13951.803	1	1	0	0	0.39417	0.27999	0.20971	0.25052	0.2369	0.38827	0.027901	0.038212	0.10151	0.20239	0.039506	0.089811	0.1767	0.11386	0.15372	0.24788	-2.1917	-2.2292	-2.2958	-2.5354	-2.0333	-2.5792	-2.3583	-2.4083	-2.6583	-2.1833	-2.5208	-2.525	-2.275	-2.5833	-2.475	-2.2542	179.313	21.445	160.490	117.534	181.284	102.662	-110.759	-38.081	-86.521	-17.118	31.022	-157.697	38.995	41.753	-4.461	182.518	0.00035808	9.4252e-05	4.2994e-05	888.06	1.572e-06	2.3947e-06	989.41	193.37	6.9221e-06	3.2417e-06	248.34	69.522	52.662	15.223	2.6536e-06	21.622	0.0003605	0.00035845	0.00010042	878.22	3.9005e-06	3.9098e-06	984.46	193.42	3.9383e-06	3.9684e-06	248.34	70.251	53.818	15.783	3.981e-06	22.541	113.049	41.248	-126.006	-153.056	-160.764	11.719	-152.789	-145.095	-121.505	49.102	-145.365	-139.411	-138.304	-130.962	61.599	-131.999	-8191	255	
13951.899	1	1	0	0	0.064325	0.11727	0.13278	0.008232	0.15197	0.29451	0.083257	0.19616	0.14583	0.12178	0.072703	0.21969	0.27705	0.10295	0.13711	0.098123	-2.2	-2.4354	-2.5	-2.4854	-2.1625	-2.5333	-2.325	-2.3812	-2.6688	-2.2104	-2.4354	-2.6667	-2.2375	-2.4333	-2.2938	-2.2917	-155.104	82.342	-64.800	-141.027	183.678	75.372	-101.609	129.040	-125.385	-95.470	39.147	-119.943	157.425	-51.849	107.991	81.641	0.00037695	0.00029307	0.00018493	886.13	4.0598e-06	5.3671e-06	991.92	193.37	2.5935e-06	3.3669e-06	244.72	69.167	52.6	15.061	3.6572e-06	21.627	0.00036116	0.00036265	0.00010107	879.75	3.9776e-06	4.0194e-06	982.49	193.72	4.0052e-06	3.9787e-06	247.16	70.344	53.739	15.779	3.9511e-06	22.574	131.977	-91.828	-66.446	-152.928	-50.082	83.938	-152.883	-145.445	149.311	23.973	-145.305	-139.378	-138.686	-130.843	58.785	-131.460	-8191	255	
13951.995	1	1	0	0	0.21007	0.11336	0.21416	0.23601	0.11389	0.23122	0.15125	0.38067	0.17119	0.042056	0.16554	0.066379	0.15088	0.022296	0.10448	0.21414	-2.2729	-2.1167	-2.2604	-2.6354	-2.1354	-2.5417	-2.5479	-2.1312	-2.5875	-2.2604	-2.35	-2.55	-2.2104	-2.6688	-2.4813	-2.1479	-62.157	149.261	-82.763	168.218	-128.444	96.926	68.408	-135.184	192.876	86.105	163.651	-30.061	-118.564	91.064	3.967	-4.781	0.00040102	0.00054926	0.00012268	886.49	3.1699e-06	2.9066e-06	991.48	193.41	5.2415e-06	1.0226e-06	247.25	68.791	52.73	15.18	3.6396e-06	21.738	0.00036139	0.00037022	0.00010268	879.54	4.0116e-06	4.0041e-06	982.12	193.74	3.9779e-06	4.0888e-06	248.36	69.955	53.713	15.73	4.0703e-06	22.589	127.054	-13.342	-45.742	-152.806	-104.352	-6.575	-153.078	-145.275	62.506	-70.120	-145.255	-139.402	-138.718	-130.740	-58.398	-131.220	-8191	255	
13952.091	1	1	0	0	0.35331	0.21041	0.016128	0.16178	0.30718	0.20612	0.35107	0.13637	0.10459	0.13296	0.042075	0.21032	0.26026	0.33979	0.15219	0.056066	-2.2313	-2.1937	-2.3542	-2.8667	-2.2313	-2.6021	-2.5917	-2.2562	-2.6208	-2.4146	-2.3729	-2.5187	-2.2604	-2.375	-2.5729	-2.175	-126.327	-113.588	17.857	171.883	63.966	78.343	119.356	36.603	-14.500	-6.645	-128.392	183.680	-132.706	146.087	159.518	154.531	0.0003047	0.00033928	9.8449e-05	894.05	2.4296e-06	1.2527e-06	998.02	192.69	1.902e-06	3.507e-06	245.24	69.304	52.54	15.135	6.2026e-06	21.474	0.00036681	0.00036552	0.00010202	880.99	4.0007e-06	3.9884e-06	985.37	193.3	4.012e-06	4.0318e-06	247.34	70.3	53.679	15.762	4.1126e-06	22.582	139.488	-34.572	-41.969	-152.959	-31.158	-9.141	-153.161	-145.186	-58.775	8.620	-145.572	-138.843	-138.876	-131.199	-26.897	-131.527	-8191	255	
13952.187	1	1	0	0	0.030469	0.056999	0.17928	0.16053	0.053114	0.25818	0.14185	0.26328	0.16776	0.072953	0.34123	0.10912	0.16438	0.17196	0.03677	0.12714	-2.0062	-2.1833	-2.2229	-2.8229	-2.3042	-2.3854	-2.5792	-1.9375	-2.3646	-2.3937	-2.3604	-2.5583	-2.0687	-2.5167	-2.6896	-2.1854	-95.473	179.621	-72.452	-163.271	95.026	163.415	-133.324	24.047	50.588	0.172	154.060	113.076	191.313	92.765	76.626	-74.630	0.00033709	0.0005148	8.2986e-05	894.65	2.7914e-06	3.7074e-06	993.29	192.58	6.4157e-06	2.5512e-06	249.34	68.904	51.939	15.076	7.9715e-06	21.781	0.00036569	0.00036484	0.00010132	882.02	4.0066e-06	4.0195e-06	984.48	193.67	4.0243e-06	4.0108e-06	248.48	70.114	53.533	15.704	4.0106e-06	22.571	140.111	14.202	-109.493	-152.981	-80.318	-123.422	-153.156	-145.331	-55.809	60.434	-145.787	-139.197	-138.725	-131.021	-54.086	-131.625	-8191	255	
13952.284	1	1	0	0	0.16445	0.14664	0.25033	0.092877	0.30499	0.14272	0.22595	0.15874	0.16081	0.11173	0.1331	0.04537	0.19097	0.14434	0.1536	0.30007	-1.9458	-2.4417	-1.9792	-2.7354	-2.1729	-2.375	-2.7271	-2.2333	-2.5771	-2.5083	-2.0521	-2.6958	-2.3083	-2.2229	-2.8292	-2.0667	76.819	-135.766	-84.127	-135.127	-115.542	-20.369	73.551	155.853	-99.214	5.285	-44.051	-80.753	-159.809	-99.045	-158.686	15.496	0.00044681	0.00012814	9.4114e-05	892.47	1.5858e-06	4.4696e-06	989.17	192.06	4.9128e-06	3.0162e-06	248.11	68.611	52.517	15.149	4.8102e-06	21.821	0.00037258	0.00037005	0.00010359	880.15	3.9902e-06	4.0058e-06	982.89	192.84	4.0549e-06	4.0384e-06	247.74	70.161	53.689	15.761	4.033e-06	22.623	146.909	-57.817	179.582	-153.055	196.218	-28.858	-152.787	-144.959	32.874	-139.034	-145.767	-139.302	-138.577	-130.784	13.959	-131.007	-8191	255	
13952.404	1	1	0	0	0.1054	0.19309	0.15726	0.17448	0.1315	0.060399	0.10598	0.16235	0.12218	0.070681	0.17191	0.045941	0.22833	0.21005	0.14415	0.17727	-1.9813	-2.4938	-2.1729	-2.7208	-2.3104	-2.2313	-2.7208	-2.3875	-2.5667	-2.6458	-2.4125	-2.5896	-2.4104	-2.2	-2.7646	-2.0271	-154.769	140.862	60.770	157.406	33.479	9.493	-62.220	107.732	-135.880	-7.060	60.653	-104.442	0.074	-84.535	49.415	71.533	0.00054657	0.00024131	0.00014232	890.77	4.0588e-06	2.451e-06	994.35	193.65	4.6464e-06	6.8993e-06	246.27	69.444	52.195	15.066	1.119e-06	21.792	0.00036727	0.00037026	0.00010258	880.81	4.0429e-06	4.1204e-06	986.12	193.88	4.0982e-06	4.097e-06	247.86	70.215	53.611	15.747	4.0966e-06	22.627	134.207	28.677	-55.909	-153.187	-129.550	-138.858	-152.709	-145.470	-23.118	-49.646	-145.696	-139.489	-138.362	-130.705	-117.358	-132.071	-8191	255	
13952.499	1	1	0	0	0.2182	0.054864	0.15881	0.18618	0.20962	0.30022	0.089472	0.22246	0.25677	0.31588	0.31212	0.21125	0.17899	0.24613	0.02158	0.10625	-1.9542	-2.4417	-1.9333	-2.6854	-2.5479	-2.1479	-2.6688	-2.3521	-2.2604	-2.6604	-2.1604	-2.4437	-2.5208	-2.1417	-2.5521	-2.2771	-87.085	117.075	41.598	136.931	50.860	22.329	79.193	104.798	145.611	-118.057	-138.377	19.305	-105.284	74.667	191.650	-90.052	0.00036905	0.00036235	0.000104	887.38	1.4646e-06	1.7819e-06	994.45	193.36	1.8863e-06	3.9213e-06	248.41	69.458	52.448	15.135	2.7999e-06	21.814	0.00037474	0.00037254	0.00010325	879.83	4.0629e-06	4.0766e-06	984.89	193.24	4.116e-06	4.0842e-06	248.5	70.1	53.637	15.741	4.0531e-06	22.661	128.100	-86.152	-43.851	-152.882	-104.238	-142.857	-152.826	-145.465	80.329	-59.214	-145.878	-139.139	-138.912	-130.719	-63.816	-131.468	-8191	255	
13952.595	1	1	0	0	0.17145	0.35564	0.25952	0.16451	0.19467	0.3637	0.12494	0.26049	0.13576	0.11804	0.13417	0.044858	0.27445	0.29558	0.11037	0.1996	-1.7938	-2.5667	-1.9813	-2.5187	-2.5438	-2.0187	-2.6146	-2.1667	-2.2938	-2.4125	-2.3417	-2.5708	-2.5	-2.2313	-2.6125	-2.4208	-10.339	153.176	-104.381	54.642	36.147	-80.829	146.024	174.575	81.485	75.226	-72.073	-40.274	113.362	155.761	-98.377	147.717	0.00035264	0.00013605	8.4423e-05	887.48	6.8716e-06	6.1115e-06	993.99	192.75	3.7479e-06	6.4247e-06	244.76	68.925	52.06	15.132	6.4662e-06	21.804	0.00037288	0.0003678	0.00010439	878.72	4.1018e-06	4.0185e-06	986.13	193.38	4.1013e-06	4.0636e-06	247.35	70.152	53.513	15.786	4.0707e-06	22.665	113.047	-63.437	-45.066	-152.801	-0.451	-19.373	-152.646	-145.347	-24.174	-54.917	-145.357	-138.957	-138.583	-130.974	156.876	-131.641	-8191	255	
#DATA ENDS
