BOXY.EXE: ISS Imagent and Oximeter Data Acquisition Program Version 0.80
Ascii Record File

#ACQ INFORMATION
2  Detector Channels 
16  External MUX Channels 
1  Auxiliary Channels 
5000  Waveform (CCF) Frequency (Hz)
1  Waveforms Skipped 
30  Waveforms Averaged 
1  Cycles Averaged 
16  Acquisitions per Waveform 
10.0806  Updata Rate (Hz) 

#FILE INFORMATION
TRUE -- External MUX Channel results are PARSED.
FALSE -- AC DC and Phase are NOT grouped.
TRUE -- Companion Program Settings File CREATED.
FALSE -- AC data not excluded
FALSE -- DC data not excluded
FALSE -- Phase data not excluded
FALSE -- Auxillary Chn. data not excluded
Tab delimiters

#CALIBRATION STATE
TRUE -- Waveform Calibration Values APPLIED.


#AUX CALIBRATION VALUES
Val Type	aux-1	

Term	1.0000e+00	
Factor	0.0000e+00	


#WF CALIBRATION VALUES
A = Detector Channel
Val Type	A-AC1	A-AC2	A-AC3	A-AC4	A-AC5	A-AC6	A-AC7	A-AC8	A-AC9	A-AC10	A-AC11	A-AC12	A-AC13	A-AC14	A-AC15	A-AC16	A-DC1	A-DC2	A-DC3	A-DC4	A-DC5	A-DC6	A-DC7	A-DC8	A-DC9	A-DC10	A-DC11	A-DC12	A-DC13	A-DC14	A-DC15	A-DC16	A-Ph1	A-Ph2	A-Ph3	A-Ph4	A-Ph5	A-Ph6	A-Ph7	A-Ph8	A-Ph9	A-Ph10	A-Ph11	A-Ph12	A-Ph13	A-Ph14	A-Ph15	A-Ph16	

Term	0.00000e+00	0.00000e+00	0.00000e+00	0.00000e+00	0.00000e+00	0.00000e+00	0.00000e+00	0.00000e+00	0.00000e+00	0.00000e+00	0.00000e+00	0.00000e+00	0.00000e+00	0.00000e+00	0.00000e+00	0.00000e+00	0.00000e+00	0.00000e+00	0.00000e+00	0.00000e+00	0.00000e+00	0.00000e+00	0.00000e+00	0.00000e+00	0.00000e+00	0.00000e+00	0.00000e+00	0.00000e+00	0.00000e+00	0.00000e+00	0.00000e+00	0.00000e+00	0.00000e+00	0.00000e+00	0.00000e+00	0.00000e+00	0.00000e+00	0.00000e+00	0.00000e+00	0.00000e+00	0.00000e+00	0.00000e+00	0.00000e+00	0.00000e+00	0.00000e+00	0.00000e+00	0.00000e+00	0.00000e+00	
Factor	1.00000e+00	1.00000e+00	1.00000e+00	1.00000e+00	1.00000e+00	1.00000e+00	1.00000e+00	1.00000e+00	1.00000e+00	1.00000e+00	1.00000e+00	1.00000e+00	1.00000e+00	1.00000e+00	1.00000e+00	1.00000e+00	1.00000e+00	1.00000e+00	1.00000e+00	1.00000e+00	1.00000e+00	1.00000e+00	1.00000e+00	1.00000e+00	1.00000e+00	1.00000e+00	1.00000e+00	1.00000e+00	1.00000e+00	1.00000e+00	1.00000e+00	1.00000e+00	X	X	X	X	X	X	X	X	X	X	X	X	X	X	X	X	

B = Detector Channel
Val Type	B-AC1	B-AC2	B-AC3	B-AC4	B-AC5	B-AC6	B-AC7	B-AC8	B-AC9	B-AC10	B-AC11	B-AC12	B-AC13	B-AC14	B-AC15	B-AC16	B-DC1	B-DC2	B-DC3	B-DC4	B-DC5	B-DC6	B-DC7	B-DC8	B-DC9	B-DC10	B-DC11	B-DC12	B-DC13	B-DC14	B-DC15	B-DC16	B-Ph1	B-Ph2	B-Ph3	B-Ph4	B-Ph5	B-Ph6	B-Ph7	B-Ph8	B-Ph9	B-Ph10	B-Ph11	B-Ph12	B-Ph13	B-Ph14	B-Ph15	B-Ph16	

Term	0.00000e+00	0.00000e+00	0.00000e+00	0.00000e+00	0.00000e+00	0.00000e+00	0.00000e+00	0.00000e+00	0.00000e+00	0.00000e+00	0.00000e+00	0.00000e+00	0.00000e+00	0.00000e+00	0.00000e+00	0.00000e+00	0.00000e+00	0.00000e+00	0.00000e+00	0.00000e+00	0.00000e+00	0.00000e+00	0.00000e+00	0.00000e+00	0.00000e+00	0.00000e+00	0.00000e+00	0.00000e+00	0.00000e+00	0.00000e+00	0.00000e+00	0.00000e+00	-1.27282e+02	-1.30498e+02	-1.26606e+02	-1.82720e+02	-7.04405e+01	-6.88341e+01	-1.60843e+02	-1.62015e+02	-7.31909e+01	-6.92541e+01	-1.72572e+02	-1.72955e+02	-1.82795e+02	-1.78089e+02	-7.17232e+01	-1.50939e+02	
Factor	1.93131e-05	1.69621e-04	4.86892e-05	1.65898e-01	1.33105e-06	1.92021e-06	1.95781e-01	6.11879e-02	1.30919e-06	1.87107e-06	9.62612e-02	3.22527e-02	2.98245e-02	9.98308e-03	1.50668e-06	1.45378e-02	1.28716e-05	2.34187e-05	6.58817e-06	8.38859e-02	2.30464e-07	2.64030e-07	9.33801e-02	3.11235e-02	2.35691e-07	2.61591e-07	4.74826e-02	1.59974e-02	1.53938e-02	5.11434e-03	2.44169e-07	7.23425e-03	X	X	X	X	X	X	X	X	X	X	X	X	X	X	X	X	



#DISTANCE SETTINGS
A = Detector Channel
A-1	A-2	A-3	A-4	A-5	A-6	A-7	A-8	A-9	A-10	A-11	A-12	A-13	A-14	A-15	A-16	

2.5000e+00	3.0000e+00	2.5000e+00	3.0000e+00	2.0000e+00	3.0000e+00	1.5000e+00	3.0000e+00	3.0000e+00	3.0000e+00	3.0000e+00	3.0000e+00	3.0000e+00	3.0000e+00	1.5000e+00	3.0000e+00	

B = Detector Channel
B-1	B-2	B-3	B-4	B-5	B-6	B-7	B-8	B-9	B-10	B-11	B-12	B-13	B-14	B-15	B-16	

1.0000e+01	1.0000e+01	1.0000e+01	1.4400e+00	1.0000e+01	1.0000e+01	1.5100e+00	1.9400e+00	1.0000e+01	1.0000e+01	1.9900e+00	2.4900e+00	2.4100e+00	2.9000e+00	1.0000e+01	2.9800e+00	




#DATA BEGINS
time	group	step	mark	flag	A-AC1	A-AC2	A-AC3	A-AC4	A-AC5	A-AC6	A-AC7	A-AC8	A-AC9	A-AC10	A-AC11	A-AC12	A-AC13	A-AC14	A-AC15	A-AC16	A-DC1	A-DC2	A-DC3	A-DC4	A-DC5	A-DC6	A-DC7	A-DC8	A-DC9	A-DC10	A-DC11	A-DC12	A-DC13	A-DC14	A-DC15	A-DC16	A-Ph1	A-Ph2	A-Ph3	A-Ph4	A-Ph5	A-Ph6	A-Ph7	A-Ph8	A-Ph9	A-Ph10	A-Ph11	A-Ph12	A-Ph13	A-Ph14	A-Ph15	A-Ph16	B-AC1	B-AC2	B-AC3	B-AC4	B-AC5	B-AC6	B-AC7	B-AC8	B-AC9	B-AC10	B-AC11	B-AC12	B-AC13	B-AC14	B-AC15	B-AC16	B-DC1	B-DC2	B-DC3	B-DC4	B-DC5	B-DC6	B-DC7	B-DC8	B-DC9	B-DC10	B-DC11	B-DC12	B-DC13	B-DC14	B-DC15	B-DC16	B-Ph1	B-Ph2	B-Ph3	B-Ph4	B-Ph5	B-Ph6	B-Ph7	B-Ph8	B-Ph9	B-Ph10	B-Ph11	B-Ph12	B-Ph13	B-Ph14	B-Ph15	B-Ph16	aux-1	digaux	

15247.882	1	1	0	256	0.31303	0.167	0.068849	0.16225	0.14912	0.019821	0.23914	0.1072	0.084797	0.085137	0.10762	0.13013	0.2026	0.12863	0.10383	0.089432	-2.4979	-2.5062	-2.7521	-2.7708	-2.4896	-2.9667	-2.8063	-2.6188	-2.9542	-2.6583	-2.6479	-3.1063	-2.4125	-2.8438	-2.4229	-2.625	-63.287	9.405	141.204	147.529	184.270	279.911	209.538	-20.295	155.751	79.752	45.769	230.028	256.089	121.113	52.762	113.003	0.00012136	0.00027102	0.00011998	449.66	2.192e-06	2.2581e-07	545.44	154.95	6.1221e-07	2.6487e-06	224.61	90.549	61.956	24.989	6.8015e-07	42.18	0.00070303	0.0010799	0.00030398	441.41	1.0993e-05	1.1736e-05	533.44	153.3	1.098e-05	1.2022e-05	220.52	90.357	62.038	24.899	1.1387e-05	41.835	156.512	14.770	25.832	-58.756	75.733	88.093	-58.755	-52.928	-9.445	117.465	-54.069	-50.064	-48.873	-45.034	55.025	-46.359	-8191	255	
15247.978	1	1	0	0	0.17384	0.17084	0.09839	0.076182	0.16664	0.26037	0.12412	0.20687	0.060843	0.13564	0.26571	0.07934	0.19363	0.29748	0.082996	0.092864	-2.3729	-2.4208	-2.5604	-2.8438	-2.5208	-2.675	-2.7083	-2.6083	-2.8167	-2.6083	-2.6375	-2.9271	-2.4396	-2.85	-2.7083	-2.4688	75.215	171.528	90.314	224.315	246.996	197.901	52.037	243.723	142.294	234.583	249.538	121.728	-38.610	270.454	146.846	38.856	0.0001416	0.00040586	0.00011773	453.52	2.9763e-06	6.3236e-06	540.26	155.97	1.9585e-07	3.4942e-06	220.7	90.495	62.151	24.988	4.8689e-06	41.537	0.00070952	0.0010941	0.00031295	443.33	1.1099e-05	1.2e-05	532.93	153.66	1.1024e-05	1.2043e-05	218.39	90.006	61.818	24.784	1.1536e-05	41.266	168.533	24.985	-3.810	-58.463	82.703	73.751	-58.994	-52.507	67.005	123.905	-54.154	-50.119	-49.109	-44.921	73.096	-46.668	-8191	255	
15248.097	1	1	0	0	0.13125	0.18457	0.34901	0.17154	0.15215	0.09329	0.25113	0.15335	0.061411	0.2487	0.19944	0.19295	0.071074	0.38428	0.10069	0.11749	-2.3479	-2.7687	-2.5812	-3.0438	-2.575	-2.5833	-2.8063	-2.2938	-2.9417	-2.6063	-2.3146	-3.0292	-2.4771	-2.7333	-2.9875	-2.3333	29.014	-34.362	260.013	1.473	164.409	-53.289	86.995	176.388	90.103	250.273	208.238	38.359	272.989	-56.074	142.083	178.212	0.00012594	0.00053447	4.4179e-05	449.62	1.7376e-06	3.9437e-06	539.02	154.04	2.4587e-06	3.9165e-06	221.54	89.832	61.696	24.856	1.0995e-06	41.581	0.00070156	0.0010845	0.00030558	440.46	1.0879e-05	1.2091e-05	529.96	152.5	1.0815e-05	1.1806e-05	217.92	89.399	61.752	24.744	1.1393e-05	41.422	161.057	-7.490	14.685	-58.568	117.776	47.390	-58.993	-52.882	114.619	92.866	-54.596	-50.196	-48.728	-44.741	132.932	-46.234	-8191	255	
15248.193	1	1	0	0	0.086136	0.18566	0.19631	0.038147	0.09809	0.1521	0.084519	0.30765	0.1926	0.10439	0.16988	0.22761	0.029505	0.14573	0.28285	0.14433	-2.4188	-2.6188	-2.5	-3.0458	-2.4938	-2.8438	-2.9188	-2.3937	-2.9583	-2.7917	-2.4167	-2.7646	-2.6479	-2.5646	-2.8937	-2.3396	72.184	18.501	280.579	96.460	206.067	69.783	193.544	285.993	273.076	149.777	246.812	288.182	-41.485	2.954	170.829	284.808	0.0001113	0.00015337	4.6276e-05	450.77	4.7686e-06	3.6514e-06	541.53	154.97	3.2679e-06	2.795e-06	221.47	89.936	61.819	24.927	2.9135e-06	41.587	0.00070689	0.0010639	0.00030269	440.86	1.062e-05	1.2175e-05	529.22	152.62	1.1011e-05	1.1731e-05	217.97	89.593	61.81	24.795	1.1368e-05	41.335	154.949	28.199	46.828	-58.226	63.534	58.071	-58.485	-52.647	47.089	70.453	-54.378	-50.175	-48.460	-44.832	60.082	-46.448	-8191	255	
15248.289	1	1	0	0	0.26587	0.15948	0.28426	0.19663	0.30708	0.11003	0.076029	0.19455	0.19382	0.11241	0.17716	0.21097	0.28581	0.28457	0.31729	0.20925	-2.2292	-2.9229	-2.2271	-3.0563	-2.5729	-2.6833	-2.9125	-2.3854	-2.8125	-2.7458	-2.4729	-2.825	-2.7333	-2.7104	-3.0458	-2.55	-21.850	62.227	273.469	-69.664	250.387	210.777	-65.969	50.831	17.947	143.948	44.286	-34.960	-16.633	276.080	40.892	-23.109	9.4984e-05	0.0003695	8.8065e-05	449.57	3.0534e-06	2.6817e-06	537.51	153.99	1.5684e-06	4.4806e-06	219.2	90.092	61.685	24.845	3.0625e-06	41.468	0.00070847	0.0011168	0.00031203	439.3	1.0752e-05	1.2062e-05	528.6	152	1.1034e-05	1.1956e-05	217.2	89.388	61.467	24.676	1.164e-05	41.228	150.479	58.218	27.991	-58.077	16.053	108.241	-58.873	-52.516	78.195	132.004	-54.257	-50.135	-48.831	-45.335	92.608	-46.582	-8191	255	
15248.410	1	1	0	0	0.14903	0.26128	0.2007	0.075359	0.29606	0.21638	0.056007	0.25236	0.14574	0.25758	0.10027	0.12332	0.24992	0.041625	0.16355	0.10021	-2.2729	-2.7583	-2.4042	-2.8625	-2.6188	-2.5146	-2.9583	-2.5938	-2.5479	-2.8937	-2.6229	-2.7896	-2.5125	-2.3979	-2.9542	-2.5646	236.857	81.125	162.914	211.720	58.380	37.850	99.340	54.426	-21.141	220.295	-62.635	274.458	82.766	117.844	106.937	241.526	9.8756e-05	0.00029592	6.2818e-05	449.54	2.2007e-06	5.252e-06	538.32	153.31	1.6873e-06	3.2047e-06	217.82	88.04	60.82	24.633	3.059e-06	41.294	0.00070745	0.0010795	0.00030693	439.17	1.0804e-05	1.2211e-05	527.64	151.56	1.145e-05	1.1907e-05	215.14	88.169	60.788	24.44	1.1513e-05	40.816	158.072	-18.167	-39.829	-58.684	75.820	83.939	-58.635	-52.827	82.776	127.100	-54.299	-50.006	-48.911	-44.888	78.508	-46.584	-8191	255	
15248.481	1	1	0	0	0.077858	0.17587	0.15784	0.23149	0.38515	0.25935	0.32052	0.28628	0.13049	0.041881	0.40941	0.23257	0.25546	0.10086	0.086142	0.10708	-2.0875	-2.7958	-2.3312	-2.7458	-2.6458	-2.3479	-2.9688	-2.575	-2.5583	-2.8771	-2.4833	-2.875	-2.8625	-2.4417	-2.7646	-2.6937	9.421	-68.566	48.371	219.911	4.682	120.872	154.493	177.292	-5.519	229.053	242.727	148.223	222.896	140.746	12.875	12.898	9.7108e-05	0.00048872	0.00010392	443.25	1.7916e-06	3.9108e-06	533.01	151.63	1.3475e-06	3.5965e-06	216.39	87.861	60.294	24.394	2.1237e-06	40.812	0.0007033	0.0010882	0.0003068	434.36	1.0774e-05	1.2272e-05	522.42	149.98	1.1098e-05	1.1714e-05	213.42	87.508	60.426	24.299	1.1364e-05	40.726	171.154	8.576	-12.360	-58.780	82.586	104.459	-58.766	-52.648	58.479	147.161	-54.673	-49.889	-48.901	-44.549	98.792	-46.502	-8191	255	
15248.578	1	1	0	0	0.027686	0.083609	0.22185	0.10025	0.07196	0.10667	0.34421	0.33057	0.095802	0.18928	0.21042	0.059826	0.15062	0.20564	0.24387	0.21528	-1.8417	-2.8083	-2.5833	-2.7896	-2.775	-2.4625	-2.9479	-2.8604	-2.7	-2.9354	-2.5208	-2.7146	-2.7792	-2.4625	-2.8646	-2.8208	17.674	192.686	-5.293	81.048	64.156	160.583	227.682	242.160	87.628	115.975	8.305	176.746	-59.804	266.516	-61.810	221.286	0.00012403	0.00021152	8.2374e-05	441.76	1.9495e-06	6.7092e-07	528.26	151.8	1.4454e-06	1.3016e-06	215.19	88.057	60.426	24.387	4.9569e-06	41.137	0.00072303	0.0011056	0.00030484	433.24	1.1259e-05	1.2373e-05	519.9	149.85	1.1196e-05	1.2277e-05	212.97	87.57	60.605	24.316	1.1628e-05	40.755	167.244	54.397	76.693	-57.948	52.048	121.844	-58.607	-52.694	60.781	145.633	-53.989	-50.240	-48.898	-45.060	83.071	-46.312	-8191	255	
15248.698	1	1	0	0	0.15525	0.24906	0.21214	0.10719	0.12673	0.066834	0.052361	0.14148	0.19331	0.192	0.21577	0.29813	0.060352	0.30165	0.23979	0.18456	-1.8125	-2.8542	-2.5646	-2.8063	-2.8479	-2.4958	-2.975	-2.7542	-2.4042	-2.8937	-2.5958	-2.725	-3.0396	-2.3937	-2.8083	-2.6813	173.162	30.670	126.262	-45.305	-11.034	205.677	187.055	-21.024	166.977	-43.644	277.639	104.846	206.987	224.838	-52.812	79.772	0.00011938	0.00062609	0.00014932	440.01	2.0621e-06	4.5806e-06	529.37	152.32	2.8339e-06	2.6966e-06	217.43	88.212	60.929	24.675	3.0001e-06	41.349	0.0007266	0.0010825	0.00030761	432.49	1.0909e-05	1.2438e-05	522.01	150.56	1.1383e-05	1.1949e-05	214.34	88.286	60.856	24.585	1.158e-05	41.209	155.303	-20.485	-14.479	-58.020	129.789	88.147	-58.529	-52.783	31.132	18.806	-54.223	-50.067	-49.075	-45.034	95.835	-46.369	-8191	255	
15248.793	1	1	0	0	0.15558	0.15351	0.27876	0.23319	0.172	0.21057	0.069453	0.27619	0.30432	0.15142	0.26614	0.047423	0.35213	0.24155	0.19568	0.12103	-2.0229	-2.8083	-2.6562	-2.5292	-2.9229	-2.4458	-2.9854	-2.6312	-2.3812	-3.0021	-2.6271	-2.625	-2.7833	-2.4542	-2.6271	-2.7771	288.201	165.260	194.510	-54.868	128.906	272.714	29.898	125.258	275.652	248.087	-65.714	269.262	5.665	253.641	-36.281	271.188	0.00010821	0.00041118	0.00012509	444.36	2.8707e-06	2.2104e-06	537.88	152.67	4.1353e-06	5.0693e-06	219.13	88.566	61.039	24.712	1.2716e-06	41.753	0.00071392	0.0010902	0.00029534	435.39	1.1076e-05	1.194e-05	525.3	151.24	1.0932e-05	1.1726e-05	214.95	88.749	61.184	24.689	1.1522e-05	41.42	160.851	-17.220	10.830	-58.460	95.263	144.782	-58.738	-52.980	84.045	52.427	-54.419	-49.912	-49.060	-44.650	41.502	-46.288	-8191	255	
15248.889	1	1	0	0	0.24026	0.13827	0.2597	0.1647	0.19813	0.083533	0.063287	0.15649	0.13672	0.24838	0.1984	0.30351	0.14242	0.20239	0.1033	0.13133	-1.9438	-2.8771	-2.4979	-2.4417	-2.9021	-2.4625	-2.525	-3.0792	-2.3937	-2.7458	-2.7479	-2.7146	-2.7271	-2.5563	-2.5708	-2.8146	36.230	210.565	144.184	-58.520	-33.604	107.616	120.644	236.426	-57.445	143.569	-16.897	175.913	123.273	195.461	179.806	-45.984	0.00014481	0.00029254	0.00018153	444.64	2.3151e-06	5.2124e-06	537.91	154.12	2.142e-06	6.3465e-06	218.27	89.249	61.581	25.059	2.678e-06	41.761	0.00071724	0.0010498	0.0003042	437.85	1.0696e-05	1.1921e-05	526.87	151.77	1.1242e-05	1.1838e-05	215.42	89	61.557	24.884	1.1377e-05	41.506	171.905	14.772	58.981	-58.407	89.105	86.812	-58.829	-52.905	80.016	43.399	-54.348	-49.823	-49.227	-44.751	57.671	-46.558	-8191	255	
15248.985	1	1	0	0	0.14731	0.10326	0.037707	0.068068	0.37807	0.10881	0.11107	0.02247	0.13993	0.19793	0.096171	0.12686	0.10198	0.12636	0.23557	0.04451	-1.9833	-2.825	-2.8688	-2.4688	-2.8375	-2.4271	-2.7625	-2.625	-2.3896	-2.7521	-2.5896	-2.3979	-2.8854	-2.4375	-2.6	-2.9	276.610	244.522	186.815	284.954	248.257	-25.756	188.722	-31.993	-51.636	282.139	80.999	196.950	28.423	11.368	136.938	100.597	0.00011223	0.00032849	0.00011967	448.16	9.9591e-07	1.8259e-06	536.38	153.57	2.0053e-06	1.8238e-06	218.56	89.207	61.539	25.129	4.0746e-06	41.928	0.00073556	0.0010573	0.00030218	439.98	1.0806e-05	1.2033e-05	527.04	152.34	1.1215e-05	1.1672e-05	216.47	89.14	61.516	24.959	1.1339e-05	41.58	158.360	15.403	48.034	-58.293	12.190	-2.626	-58.875	-52.584	83.861	103.843	-54.288	-50.293	-48.624	-44.803	47.468	-46.769	-8191	255	
15249.081	1	1	0	0	0.11805	0.20605	0.12232	0.12561	0.15027	0.11389	0.16352	0.14375	0.11861	0.022386	0.19097	0.11599	0.1505	0.21319	0.061897	0.079744	-1.8583	-2.6417	-2.6625	-2.3542	-2.8854	-2.5896	-2.4562	-2.9583	-2.4125	-2.6396	-2.8458	-2.4417	-2.8104	-2.7271	-2.5687	-2.9667	22.122	172.620	-29.224	171.012	47.080	260.924	100.677	196.756	46.998	41.718	231.374	209.302	11.679	87.928	-44.591	176.303	0.00010249	0.00059787	0.0001422	448.16	7.0165e-07	1.7772e-06	538.52	154.89	1.7823e-06	1.9331e-06	220.17	89.902	61.433	25.126	1.8548e-06	42.26	0.00071891	0.0010656	0.00029862	438.79	1.0679e-05	1.2071e-05	527.4	152.41	1.0884e-05	1.1856e-05	217.48	89.625	61.83	24.954	1.1793e-05	41.809	160.043	26.392	64.715	-58.484	60.528	128.856	-59.168	-52.808	63.877	118.138	-54.535	-49.639	-49.084	-44.864	61.037	-46.786	-8191	255	
15249.177	1	1	0	0	0.08983	0.079447	0.23224	0.16662	0.085768	0.24493	0.36021	0.30506	0.23591	0.13715	0.38957	0.11901	0.30159	0.20361	0.044708	0.060741	-2.1292	-2.6562	-2.7938	-2.6333	-2.7583	-2.6958	-2.5479	-3.075	-2.4792	-2.6354	-2.7458	-2.5062	-3.0312	-2.6979	-2.4354	-3.0146	188.354	-45.405	-31.296	-56.391	83.710	140.645	266.400	211.951	277.756	63.904	131.660	226.059	6.970	14.539	269.869	-14.176	0.00014373	0.00035866	9.2484e-05	452.04	2.8777e-06	2.7721e-06	537.8	154.16	2.4768e-06	4.027e-06	219.22	89.996	61.592	24.957	2.8361e-06	41.77	0.00070979	0.0010618	0.0003061	441.09	1.0765e-05	1.2322e-05	528.39	152.89	1.0832e-05	1.2192e-05	216.66	89.398	61.731	24.893	1.1839e-05	41.613	177.009	24.068	46.131	-58.362	102.208	71.794	-58.845	-52.920	116.593	99.156	-54.345	-49.742	-48.982	-45.043	83.626	-46.463	-8191	255	
15249.273	1	1	0	0	0.017732	0.1606	0.047698	0.1287	0.083359	0.26527	0.098613	0.16065	0.13506	0.031365	0.054148	0.277	0.046801	0.057976	0.25803	0.1862	-2.025	-2.5667	-3.0292	-2.5083	-2.7313	-2.7646	-2.5604	-2.9125	-2.6271	-2.5792	-3.125	-2.6188	-2.7521	-2.9667	-2.6083	-2.9917	24.253	-58.322	7.248	255.715	35.961	201.819	-38.176	234.166	152.590	41.053	285.902	276.578	-69.218	162.753	-44.900	183.388	0.00015506	0.00024223	0.0001469	449.22	2.8886e-06	3.4758e-06	536.1	154.96	1.1866e-06	3.0077e-06	221.19	89.771	61.995	24.955	3.7323e-06	42.024	0.00070606	0.0010546	0.00029268	439.88	1.073e-05	1.1637e-05	527.27	153.11	1.0593e-05	1.2074e-05	217.91	89.736	61.923	25.007	1.1253e-05	41.846	168.016	15.558	42.003	-58.520	67.626	134.697	-58.887	-52.586	30.588	109.590	-54.153	-50.229	-49.206	-44.563	91.804	-46.618	-8191	255	
15249.370	1	1	0	0	0.1745	0.3201	0.17203	0.26329	0.21617	0.27981	0.075156	0.13597	0.0089192	0.31112	0.14797	0.14625	0.16382	0.099852	0.15223	0.11606	-2.1854	-2.4646	-2.9583	-2.6104	-2.7833	-2.8812	-2.3937	-3.0042	-2.7938	-2.5896	-2.9667	-2.4688	-2.8	-2.8625	-2.3354	-3.0333	21.654	-57.679	124.960	258.560	122.920	178.903	158.094	233.549	86.494	-55.134	113.328	228.094	163.954	242.830	-19.208	-41.951	0.00010531	0.00013546	0.00015691	452.65	2.7563e-06	3.2027e-06	539.39	155.1	2.8523e-06	4.1008e-06	220.81	90.132	62.565	24.974	3.5473e-06	41.99	0.00068498	0.0010694	0.00029758	442.67	1.0099e-05	1.1829e-05	529.31	153.23	1.1001e-05	1.2014e-05	217.88	89.865	62.23	25.032	1.1423e-05	41.833	160.012	76.650	2.237	-58.486	23.381	166.483	-58.639	-52.662	99.921	73.066	-54.162	-50.159	-49.160	-44.795	134.510	-46.834	-8191	255	
15249.490	1	1	0	0	0.21649	0.14099	0.28979	0.13794	0.097357	0.25085	0.032257	0.14631	0.30078	0.20102	0.097676	0.046902	0.18459	0.14992	0.13722	0.28288	-2.1625	-2.5229	-2.9354	-2.6312	-2.5646	-2.8479	-2.3646	-2.6354	-2.8146	-2.4333	-3.0625	-2.7625	-2.5583	-2.9979	-2.4833	-2.9313	28.062	96.910	268.715	17.279	-36.237	189.855	190.216	209.651	80.475	125.798	242.402	25.948	262.298	116.938	114.940	230.579	0.0001205	0.0003641	8.828e-05	450.56	3.0194e-06	4.8597e-07	538.81	155.11	4.9679e-07	3.3796e-06	220.97	90.765	62.189	25.18	2.2506e-06	41.977	0.00069469	0.0010891	0.0003007	441.31	1.0357e-05	1.181e-05	528.81	153.5	1.0598e-05	1.1632e-05	218.74	90.381	62.32	25.113	1.0891e-05	41.855	161.058	34.673	44.958	-58.333	51.592	92.390	-58.457	-52.630	108.270	48.446	-53.974	-49.928	-49.132	-45.041	54.818	-46.867	-8191	255	
15249.586	1	1	0	0	0.30906	0.1136	0.067211	0.28897	0.29829	0.073273	0.25144	0.077968	0.073693	0.24392	0.079229	0.17543	0.19686	0.13229	0.090476	0.24282	-2.3333	-2.4479	-2.9062	-2.6583	-2.4708	-2.8563	-2.5167	-2.6854	-2.7042	-2.6021	-3.0625	-2.5708	-2.5583	-3.0458	-2.3979	-2.8187	-43.867	43.160	265.085	-35.570	203.432	49.668	237.953	281.060	60.981	-54.623	210.882	49.701	6.972	38.768	91.911	169.610	0.00012648	0.00031581	9.2264e-06	450.73	2.3282e-06	3.9118e-06	542.32	154.81	2.5677e-06	2.5525e-06	220.34	89.727	61.593	24.937	3.1032e-06	41.642	0.00069128	0.001061	0.00028361	441.72	1.0836e-05	1.1713e-05	530.55	153.07	1.0802e-05	1.205e-05	217.18	89.613	61.788	24.859	1.1012e-05	41.423	170.137	20.599	-23.108	-58.563	42.505	46.175	-58.798	-52.872	77.081	48.679	-54.333	-50.096	-48.915	-44.748	73.697	-46.476	-8191	255	
15249.682	1	1	0	0	0.22741	0.35442	0.19248	0.056832	0.060255	0.20787	0.28771	0.21871	0.026657	0.10391	0.2847	0.080537	0.22865	0.11896	0.055074	0.055971	-2.3187	-2.2271	-2.7146	-2.6437	-2.4021	-2.9813	-2.6333	-2.7833	-2.9625	-2.5625	-2.8292	-2.6875	-2.4333	-2.9	-2.5667	-2.7875	127.328	261.324	70.268	259.625	12.742	78.634	198.077	250.584	124.134	114.155	92.589	42.339	-51.896	236.472	-19.942	238.000	9.7368e-05	0.00039359	0.000104	447.04	1.9744e-06	3.6568e-06	533.83	153.98	1.8231e-06	3.4261e-06	219.87	89.762	61.419	24.972	4.0037e-06	41.861	0.0007048	0.0010418	0.00029203	440.53	1.0499e-05	1.1376e-05	527.56	152.52	1.0682e-05	1.1733e-05	217.26	89.378	61.753	24.921	1.115e-05	41.52	186.143	38.794	45.049	-58.442	68.158	78.225	-58.806	-52.661	111.465	37.732	-54.254	-49.884	-48.857	-44.795	82.904	-46.538	-8191	255	
15249.779	1	1	0	0	0.13634	0.27443	0.078427	0.23041	0.20722	0.10043	0.27191	0.2031	0.092245	0.14207	0.18526	0.0065045	0.18557	0.24104	0.15097	0.23014	-2.4771	-2.275	-2.8083	-2.8542	-2.5708	-3.1188	-2.7292	-2.5604	-2.7812	-2.5	-2.8583	-2.7354	-2.4062	-3.0125	-2.4313	-2.4542	-0.899	-55.073	184.011	238.168	59.238	106.409	-67.165	173.431	286.079	210.251	-59.225	-49.167	235.237	59.342	139.308	231.992	0.00011878	0.00031165	7.9546e-05	450.61	1.8093e-06	3.9321e-06	536.69	154.66	2.419e-06	4.1567e-06	219.91	90.328	62.133	25.082	2.9471e-06	41.87	0.00069751	0.0010552	0.00029138	440.76	1.0408e-05	1.1359e-05	526.4	152.81	1.0588e-05	1.1828e-05	216.93	89.687	62.028	24.981	1.0858e-05	41.54	176.803	27.680	10.236	-58.269	150.087	109.737	-58.841	-52.756	111.648	91.481	-54.335	-50.296	-48.690	-45.306	88.024	-46.407	-8191	255	
15249.875	1	1	0	0	0.13858	0.23359	0.3422	0.1939	0.044952	0.098261	0.18628	0.1774	0.0072989	0.28879	0.24269	0.17016	0.10784	0.25599	0.20888	0.1824	-2.375	-2.3875	-2.7583	-2.8875	-2.2375	-2.8312	-2.7042	-2.5938	-2.8708	-2.3417	-2.8521	-2.8042	-2.2896	-3.0625	-2.4792	-2.5167	-42.563	-48.869	279.928	144.226	68.788	107.849	64.281	188.473	4.431	264.674	244.903	145.486	274.930	242.557	72.861	222.152	0.00013894	0.00017985	7.4542e-05	448.77	2.7075e-06	3.5309e-06	535.54	154.27	1.0669e-06	4.8167e-06	219	89.409	61.807	25.019	1.0821e-06	41.795	0.00068592	0.0010268	0.00028439	440.45	1.0288e-05	1.1615e-05	527.78	152.64	1.0677e-05	1.1484e-05	216.79	89.372	61.781	24.912	1.1149e-05	41.455	170.654	91.011	-1.407	-58.694	32.727	104.868	-58.413	-52.699	73.794	64.875	-54.143	-50.117	-48.963	-44.971	72.374	-46.521	-8191	255	
15249.971	1	1	0	0	0.1793	0.1894	0.17407	0.23396	0.22142	0.083778	0.30134	0.06297	0.10137	0.15489	0.10208	0.16225	0.098391	0.16399	0.083871	0.076546	-2.3812	-2.3208	-2.7625	-3.0438	-2.3479	-3.0146	-2.8542	-2.4688	-2.9813	-2.2917	-2.8021	-2.8792	-2.4917	-2.8438	-2.5146	-2.6937	67.487	83.718	78.027	85.043	279.914	219.929	175.420	140.472	5.058	113.701	263.822	175.309	112.096	80.896	269.970	22.776	0.00010221	0.00014183	0.00011835	447.93	3.1674e-06	6.4223e-06	535.39	152.67	2.2079e-06	4.4619e-06	219.21	88.851	61.147	24.889	3.3805e-06	41.472	0.0006819	0.0010488	0.0002902	439.71	1.0669e-05	1.1732e-05	525.8	151.61	1.0737e-05	1.17e-05	215.65	88.715	61.347	24.698	1.0961e-05	41.057	165.767	-16.879	14.431	-58.387	110.258	92.909	-58.987	-52.895	107.056	84.925	-54.008	-50.051	-48.502	-44.804	90.907	-46.311	-8191	255	
15250.090	1	1	0	0	0.17465	0.30173	0.24551	0.13639	0.14887	0.25921	0.12092	0.1353	0.025338	0.18213	0.2067	0.088295	0.20986	0.22296	0.26234	0.39308	-2.4042	-2.7125	-2.6542	-2.975	-2.3312	-2.8187	-2.8542	-2.3271	-2.7833	-2.4792	-2.6521	-2.8167	-2.4188	-2.7646	-2.8	-2.5438	16.777	31.006	-39.957	84.655	63.939	-26.269	284.445	95.801	252.233	164.012	216.281	169.328	193.742	250.112	59.165	269.100	9.5667e-05	0.00060767	0.00012515	445.09	2.1926e-06	8.107e-07	531.93	152.9	2.7754e-06	2.8133e-06	218.29	88.263	61.243	24.694	3.9207e-06	41.276	0.0006749	0.0010275	0.00028777	436.8	1.0109e-05	1.1508e-05	523.68	151.28	1.0429e-05	1.1318e-05	214.83	88.438	61.218	24.609	1.088e-05	40.839	172.501	-14.693	41.660	-58.457	95.166	67.336	-58.906	-52.800	88.344	88.060	-54.399	-49.721	-49.026	-44.589	75.008	-46.286	-8191	255	
15250.186	1	1	0	0	0.10274	0.15111	0.45448	0.04359	0.1366	0.18934	0.16721	0.38292	0.30563	0.056554	0.17469	0.17691	0.23051	0.23825	0.20224	0.051275	-2.4333	-2.6271	-2.3896	-2.9646	-2.6521	-2.7417	-2.8229	-2.5542	-2.8708	-2.7438	-2.4313	-3.1396	-2.5667	-2.4833	-2.9042	-2.3312	17.421	233.827	245.486	-11.979	-34.687	126.693	-29.434	210.802	-51.426	-58.660	238.700	65.440	0.608	-62.968	86.004	162.070	0.00010098	0.00040557	0.00014568	445.01	2.3586e-07	4.1645e-06	530.02	152.52	2.5509e-06	1.5214e-06	217.64	88.611	61.353	24.767	1.8009e-06	41.036	0.00068142	0.00099471	0.00028131	436.84	1.0068e-05	1.1303e-05	522.3	151.15	1.0349e-05	1.1121e-05	215.08	88.435	61.342	24.517	1.0681e-05	40.722	168.068	44.447	22.528	-58.317	-46.468	80.760	-58.789	-52.367	94.233	2.569	-54.249	-49.997	-49.228	-44.811	145.774	-46.503	-8191	255	
15250.282	1	1	0	0	0.44293	0.30811	0.085722	0.139	0.1855	0.14465	0.20596	0.32249	0.27052	0.23431	0.27629	0.36562	0.12156	0.11102	0.25858	0.1716	-2.3396	-2.8646	-2.3021	-3.0896	-2.5667	-2.7479	-2.7854	-2.5208	-2.8083	-2.9	-2.6104	-3.05	-2.5354	-2.475	-2.75	-2.3792	143.766	232.489	31.721	178.158	65.326	-6.138	60.394	233.256	284.672	77.448	-57.002	239.055	245.852	214.591	234.539	253.318	0.00010603	0.00030736	0.00011836	445.81	3.2797e-06	4.3196e-06	530.2	153.46	3.7569e-06	2.6273e-06	217.26	88.711	61.211	24.511	3.6332e-06	40.886	0.0006672	0.00097568	0.00027761	435.89	9.7539e-06	1.1332e-05	521.45	151.28	1.0341e-05	1.1228e-05	213.98	88.19	61.128	24.444	1.0825e-05	40.476	163.026	62.709	23.896	-58.436	91.972	80.123	-58.388	-52.531	24.374	116.038	-54.553	-49.743	-48.908	-45.004	24.145	-46.128	-8191	255	
15250.378	1	1	0	0	0.27453	0.14401	0.097681	0.32089	0.18202	0.23294	0.049359	0.16845	0.1444	0.14387	0.29992	0.073013	0.20621	0.2026	0.18781	0.2381	-2.3458	-2.7229	-2.3542	-2.9917	-2.4771	-2.5812	-2.9708	-2.3688	-2.85	-2.7667	-2.4354	-3.0062	-2.5625	-2.3125	-3.0812	-2.6479	206.832	82.784	274.199	218.056	41.374	-29.891	156.646	-57.406	144.233	-26.131	-19.821	78.917	-24.409	178.336	205.099	251.836	9.7994e-05	0.00020978	0.00015026	446.17	2.0725e-06	5.2325e-06	532.22	153.03	1.145e-06	3.2058e-06	216.49	88.549	61.174	24.504	2.361e-06	40.674	0.00065693	0.0010029	0.00028048	435.86	9.9537e-06	1.0941e-05	521.97	151.26	1.0234e-05	1.0939e-05	213.96	88.134	61.102	24.374	1.0436e-05	40.367	158.001	19.757	36.297	-58.527	69.971	83.766	-58.677	-52.783	95.880	92.186	-54.377	-50.085	-48.869	-45.195	73.369	-46.413	-8191	255	
15250.474	1	1	0	0	0.28066	0.16363	0.027943	0.10976	0.16531	0.15958	0.080836	0.31595	0.47234	0.20028	0.22567	0.22908	0.012229	0.32534	0.18424	0.14807	-2.2375	-2.8667	-2.5687	-2.8729	-2.55	-2.5854	-2.8167	-2.5042	-2.5938	-2.7667	-2.3271	-2.8375	-2.5729	-2.5875	-2.8438	-2.4708	34.195	-37.301	-63.122	256.665	33.636	-37.678	207.847	232.615	285.006	137.804	107.135	250.187	156.990	56.414	82.729	-12.414	0.00011483	0.00029726	6.597e-05	446	3.874e-06	5.6971e-06	529.67	153.13	2.8929e-06	4.2355e-06	219.56	88.782	61.662	24.61	2.9528e-06	40.742	0.00066817	0.0010096	0.00028926	436.64	1.0054e-05	1.157e-05	521.74	151.24	1.0334e-05	1.1047e-05	214.97	88.496	61.512	24.489	1.0617e-05	40.626	178.850	20.908	41.505	-58.344	87.454	93.500	-58.935	-52.484	102.474	89.982	-54.355	-49.898	-48.258	-45.018	114.372	-46.458	-8191	255	
15250.571	1	1	0	0	0.099864	0.17831	0.090329	0.041768	0.16204	0.21867	0.26078	0.17791	0.056464	0.20018	0.10599	0.28478	0.34332	0.27294	0.077666	0.29418	-2.2958	-2.6375	-2.4604	-2.8083	-2.6688	-2.5542	-2.9604	-2.4938	-2.7687	-2.8521	-2.5333	-2.7167	-2.6292	-2.7062	-2.875	-2.65	-9.299	98.356	120.671	277.245	14.770	110.591	-54.208	111.839	201.614	-21.911	-48.257	-68.390	267.062	265.091	56.650	222.976	0.00010739	0.00052579	0.00011446	449.11	2.2015e-06	1.9877e-06	534.53	153.74	1.4185e-06	3.8941e-06	220.06	89.354	61.701	24.594	3.2504e-06	41.033	0.00065795	0.00098003	0.00027506	437.77	1.0158e-05	1.1496e-05	524	152.49	1.0604e-05	1.1254e-05	216.37	89.058	61.876	24.576	1.0752e-05	40.787	171.416	19.961	42.407	-58.518	100.140	71.531	-58.938	-52.677	-31.623	80.695	-54.366	-49.795	-48.961	-44.967	73.986	-46.429	-8191	255	
15250.667	1	1	0	0	0.37017	0.32459	0.17332	0.23735	0.07876	0.21244	0.22281	0.085996	0.31376	0.12149	0.33447	0.10287	0.080598	0.33875	0.25697	0.050959	-2.2042	-2.7875	-2.4854	-2.8458	-2.8208	-2.6937	-2.8458	-2.6417	-2.525	-2.8812	-2.5479	-2.7792	-2.9042	-2.4688	-3.0312	-2.7083	222.745	253.936	131.859	237.143	-36.891	21.056	60.339	288.613	242.308	240.913	187.647	68.602	230.213	221.256	-45.488	-0.438	0.00012733	0.00012207	0.00013515	451.66	1.8024e-06	3.1038e-06	541.32	155.71	9.5489e-07	2.8358e-06	222.17	90.4	62.549	25.167	4.3103e-06	41.37	0.00068367	0.0010046	0.00029194	440.37	1.0447e-05	1.1431e-05	528.76	153.58	1.0683e-05	1.1552e-05	218.82	90.043	62.75	24.946	1.0507e-05	41.138	155.338	39.897	-8.858	-58.422	43.837	98.386	-58.891	-53.020	77.061	78.873	-54.479	-49.945	-48.655	-45.016	76.013	-46.784	-8191	255	
15250.787	1	1	0	0	0.049012	0.06647	0.28233	0.29337	0.20018	0.25585	0.18621	0.053013	0.20272	0.1571	0.11371	0.20438	0.11191	0.07847	0.094717	0.019938	-2.2833	-2.9146	-2.3396	-2.6583	-2.6312	-2.3833	-2.7396	-2.7021	-2.3458	-2.9188	-2.5917	-2.6021	-2.7271	-2.5979	-2.6542	-2.8146	61.824	81.370	66.618	227.117	155.606	251.721	165.156	137.357	166.819	-65.467	155.134	158.656	245.499	100.421	184.816	280.542	8.538e-05	0.00033425	7.7847e-05	451.92	1.0691e-06	1.1834e-06	538.77	155.98	2.9419e-06	5.0867e-06	222.31	90.045	62.153	24.99	2.2286e-06	41.477	0.00068437	0.0010042	0.00029302	443.47	1.0472e-05	1.1641e-05	529.3	154.22	1.0661e-05	1.1418e-05	218.47	90.058	62.306	24.803	1.0492e-05	41.009	173.225	29.202	-9.012	-58.535	89.534	170.651	-58.562	-52.650	55.884	74.491	-54.360	-49.701	-48.588	-44.968	86.234	-46.611	-8191	255	
15250.882	1	1	0	0	0.31481	0.062734	0.18309	0.22345	0.20414	0.21769	0.25959	0.058612	0.21926	0.068819	0.1425	0.20407	0.25269	0.23741	0.15751	0.019085	-2.0521	-3.0646	-2.4562	-2.7104	-2.9813	-2.3958	-2.9917	-2.6896	-2.5167	-2.7583	-2.5083	-2.5333	-3.0583	-2.4667	-2.6417	-2.8333	240.559	72.445	282.766	15.312	-64.328	202.387	247.270	215.922	206.623	-63.430	210.623	200.516	138.200	-8.580	-61.854	230.991	0.00012165	0.00051055	6.8911e-05	451.01	2.221e-06	4.298e-06	536.4	155.34	1.9111e-06	2.2489e-06	221.01	90.087	61.939	24.72	1.8194e-06	41.171	0.00068437	0.001036	0.000291	442.09	1.021e-05	1.183e-05	527.27	153.72	1.0938e-05	1.1445e-05	217	89.649	62.159	24.735	1.1135e-05	40.949	160.773	14.651	79.859	-58.778	67.220	82.547	-58.811	-52.563	78.456	134.181	-53.794	-50.252	-48.709	-44.785	73.289	-46.371	-8191	255	
15250.955	1	1	0	0	0.052259	0.14302	0.28193	0.082313	0.071464	0.12662	0.1235	0.3071	0.10195	0.034069	0.23089	0.13391	0.11761	0.1691	0.079719	0.25818	-2	-2.7375	-2.6354	-2.5333	-2.8771	-2.3937	-2.7771	-2.9083	-2.4667	-2.9208	-2.6146	-2.7271	-3.0021	-2.4333	-2.7667	-2.9875	167.862	190.761	43.606	262.118	6.611	257.433	276.073	247.846	272.694	-57.378	224.405	32.701	-66.063	-53.422	124.665	257.272	0.00010857	0.00044603	6.8521e-05	447.53	4.2845e-06	6.6207e-06	535.71	154.99	3.3116e-06	4.3825e-06	219.13	89.406	61.79	25.019	2.8076e-06	41.211	0.00069555	0.0010462	0.00029076	439.8	1.0356e-05	1.1534e-05	525.96	153.01	1.1001e-05	1.1587e-05	216.49	89.256	62.153	24.809	1.0705e-05	40.973	160.649	13.783	43.802	-58.411	87.465	116.928	-58.384	-52.622	107.509	50.489	-54.218	-50.087	-48.440	-44.907	97.671	-46.562	-8191	255	
15251.051	1	1	0	0	0.22215	0.21355	0.21711	0.06333	0.13511	0.22731	0.22382	0.15245	0.11422	0.12391	0.12065	0.061337	0.098542	0.23208	0.071386	0.063803	-2.0729	-2.7062	-2.5687	-2.5896	-2.9562	-2.7833	-2.7	-2.7708	-2.25	-2.7771	-2.8292	-2.5938	-2.8229	-2.7438	-2.4062	-2.9479	64.003	2.378	154.580	257.591	193.480	30.042	86.753	264.057	195.423	186.580	17.505	280.947	233.323	229.981	232.399	152.150	0.00011338	0.00024149	0.00011054	448.01	1.8964e-06	2.7389e-06	540.56	155.8	3.002e-06	4.8157e-06	220.95	89.818	62.381	24.969	3.2985e-06	41.679	0.00069536	0.0010349	0.00029341	440.05	1.0598e-05	1.1748e-05	528.14	153.46	1.0928e-05	1.1231e-05	217.54	89.693	62.359	24.923	1.1413e-05	41.381	180.257	48.914	30.427	-58.337	97.487	73.453	-58.850	-52.704	39.729	89.951	-53.742	-50.122	-48.364	-44.764	50.665	-46.563	-8191	255	
15251.170	1	1	0	0	0.033544	0.097526	0.22201	0.11531	0.15394	0.1717	0.22877	0.17516	0.07199	0.1947	0.16555	0.17334	0.11625	0.043631	0.27001	0.28646	-1.9646	-2.7188	-2.7583	-2.375	-2.7833	-2.7	-2.3688	-2.8333	-2.4979	-2.6813	-2.8125	-2.3104	-2.9667	-2.5583	-2.4583	-2.8312	265.851	252.205	47.880	241.414	33.228	38.887	214.110	149.508	68.342	195.312	-45.962	-56.690	-27.054	200.745	25.423	247.358	9.9993e-05	0.00021617	0.00011221	450.38	1.655e-06	5.123e-06	540.32	155.45	2.0288e-06	3.8234e-06	220.92	90.253	62.326	25.042	6.8702e-07	41.454	0.00068182	0.001051	0.00029309	441.8	1.0338e-05	1.1761e-05	529.41	153.44	1.0932e-05	1.1391e-05	217.79	89.732	62.448	24.936	1.1358e-05	41.19	169.455	4.887	19.329	-58.551	96.382	92.168	-58.458	-52.763	68.171	97.218	-54.554	-50.073	-49.038	-44.980	195.338	-46.764	-8191	255	
15251.266	1	1	0	0	0.13705	0.066236	0.11598	0.28901	0.065891	0.10584	0.02275	0.16573	0.12842	0.029386	0.1177	0.28379	0.20938	0.29099	0.095548	0.19887	-2.025	-2.6813	-2.8937	-2.5271	-2.9917	-2.725	-2.8333	-2.9396	-2.5479	-2.5979	-2.8208	-2.3542	-2.6813	-2.7313	-2.4146	-2.8354	159.716	107.171	253.434	217.624	53.014	-60.060	212.497	-62.065	-27.713	4.514	58.294	213.491	-66.060	277.003	137.133	265.596	0.00011001	4.1567e-05	3.6296e-05	450.43	2.8457e-06	4.5922e-06	538.79	154.18	3.3955e-06	2.1411e-06	219.55	89.679	62.304	25.139	1.7213e-06	42.11	0.00068533	0.0010816	0.00030085	441.82	1.0472e-05	1.1753e-05	527.56	153.29	1.0794e-05	1.1603e-05	217.14	89.662	62.384	24.991	1.1374e-05	41.435	163.261	60.453	-24.897	-58.590	63.948	58.486	-58.429	-52.782	70.586	76.302	-54.160	-50.212	-49.053	-45.256	184.934	-46.576	-8191	255	
15251.362	1	1	0	0	0.30422	0.13335	0.15755	0.27613	0.12548	0.04384	0.31602	0.21402	0.12284	0.04648	0.1592	0.25545	0.19261	0.2028	0.044084	0.2941	-2.1625	-2.5542	-2.6333	-2.6375	-2.5292	-2.9208	-2.5458	-2.9021	-2.7083	-2.6312	-2.8625	-2.6333	-2.5938	-2.9813	-2.425	-2.8146	-51.129	-68.693	211.556	248.880	191.467	81.579	-68.384	22.791	-0.363	203.503	146.597	114.491	-15.435	285.715	-65.303	10.949	0.00014055	0.000373	8.3426e-05	451.66	1.6266e-06	3.2521e-06	539.2	156.64	2.2012e-06	1.3123e-06	221.1	89.985	62.684	25.266	1.3792e-06	41.886	0.00069673	0.0010789	0.00030731	442.28	1.0405e-05	1.1764e-05	527.4	154.42	1.0656e-05	1.1859e-05	217.92	89.991	62.671	25.172	1.1272e-05	41.566	165.083	45.119	10.557	-58.229	105.005	60.749	-58.928	-52.639	39.694	52.806	-54.220	-49.870	-48.771	-45.200	24.158	-46.335	-8191	255	
15251.459	1	1	0	0	0.12597	0.19641	0.15055	0.20442	0.052896	0.069288	0.30492	0.13521	0.15717	0.14667	0.07288	0.14715	0.16842	0.28255	0.32476	0.061178	-2.2833	-2.5167	-2.7875	-2.6042	-2.6521	-2.8	-2.5292	-2.65	-2.7583	-2.7562	-2.9708	-2.5542	-2.6063	-2.7604	-2.6083	-2.8729	280.505	70.036	-33.863	201.301	-55.151	7.579	289.210	228.477	269.393	-22.586	267.276	264.793	282.158	-36.302	135.731	77.280	0.00012522	0.00060624	0.00013536	451.43	4.3877e-06	2.3251e-06	542.26	155.97	3.1595e-06	5.3277e-06	222.54	90.301	62.387	25.372	1.9327e-06	41.822	0.00070107	0.0010906	0.00029869	442.67	1.045e-05	1.1672e-05	529.53	154.38	1.0765e-05	1.1887e-05	218.78	90.078	62.711	25.279	1.1613e-05	41.673	173.447	23.584	20.582	-58.330	54.695	121.110	-58.338	-52.537	15.635	51.149	-54.767	-50.021	-48.563	-44.813	111.658	-46.559	-8191	255	
15251.579	1	1	0	0	0.01022	0.14632	0.041056	0.18167	0.23502	0.032342	0.16387	0.082059	0.1763	0.065057	0.092941	0.40654	0.1143	0.23117	0.33224	0.14567	-2.1813	-2.3729	-2.7938	-2.5854	-2.5479	-2.9062	-2.4354	-2.6688	-2.6542	-2.5	-2.7667	-2.7521	-2.5979	-2.9938	-2.4229	-2.975	159.666	-64.049	4.136	98.072	122.220	194.852	-16.985	244.511	233.068	130.529	15.533	228.762	259.607	278.516	96.552	222.867	0.00013323	0.00037543	0.00011459	455.38	1.6356e-06	4.6672e-06	538.32	156.85	2.0502e-06	1.6014e-06	220.85	90.463	62.4	25.246	1.4263e-06	41.846	0.0006989	0.0010944	0.00030113	444.55	1.0577e-05	1.1754e-05	529.86	154.49	1.0593e-05	1.1786e-05	218.09	89.977	62.717	25.213	1.1234e-05	41.593	172.945	35.685	-2.330	-58.465	125.589	95.880	-58.669	-52.634	118.782	-57.366	-54.267	-49.884	-48.708	-44.861	118.389	-46.418	-8191	255	
15251.651	1	1	0	0	0.19453	0.14608	0.087497	0.1955	0.13931	0.31991	0.020572	0.13902	0.053193	0.052611	0.10062	0.10779	0.20444	0.11414	0.14786	0.14995	-2.3417	-2.4062	-2.8708	-2.4854	-2.6437	-2.8667	-2.6458	-2.7667	-2.8083	-2.4208	-2.8146	-2.7917	-2.4958	-3.0479	-2.3708	-2.6396	37.027	30.555	-50.395	244.020	-1.353	187.827	84.110	134.471	27.291	92.119	183.213	254.048	-51.381	117.372	94.166	-68.908	0.0001403	0.00029084	6.3579e-05	450.82	2.3267e-06	2.3394e-06	536.56	157.07	1.8785e-06	4.8936e-06	220.43	89.826	62.639	25.187	4.1397e-06	42.122	0.00070515	0.0010444	0.00029378	441.99	1.0721e-05	1.1838e-05	526.89	154.5	1.0656e-05	1.183e-05	217.56	89.533	62.414	25.073	1.1276e-05	41.527	156.340	38.557	-28.693	-58.485	72.906	56.732	-58.510	-52.523	97.603	46.608	-54.277	-50.487	-48.894	-45.247	64.018	-46.701	-8191	255	
15251.772	1	1	0	0	0.20518	0.19899	0.014288	0.1387	0.12307	0.089246	0.11703	0.23802	0.16635	0.054652	0.21983	0.28687	0.2839	0.081191	0.2122	0.12296	-2.4479	-2.1646	-2.8187	-2.7458	-2.4771	-2.9938	-2.5646	-2.6854	-2.8625	-2.3604	-2.6875	-2.3917	-2.5062	-2.8292	-2.5625	-2.6937	31.656	114.129	110.754	23.922	-41.450	55.056	190.423	270.000	-22.685	-23.688	142.190	199.449	134.352	94.089	71.321	206.608	0.00012317	0.00030738	0.00019218	455.02	1.4477e-06	3.9367e-06	534.01	154.91	1.0249e-06	4.0393e-06	219.27	89.195	61.749	25.122	4.5578e-06	41.509	0.00069222	0.0010666	0.00030595	442.57	1.0794e-05	1.2207e-05	524.71	153.11	1.1005e-05	1.1935e-05	215.92	88.967	61.802	24.91	1.1299e-05	41.062	174.202	43.050	34.972	-58.338	53.953	90.715	-58.867	-52.899	26.706	14.179	-54.243	-50.131	-48.815	-44.760	104.214	-46.465	-8191	255	
15251.868	1	1	0	0	0.25925	0.11863	0.11533	0.054056	0.04403	0.27646	0.0080142	0.22222	0.1905	0.20683	0.28943	0.024635	0.32002	0.27968	0.027048	0.062725	-2.4333	-2.2833	-2.5458	-2.7438	-2.2792	-2.9521	-2.6063	-2.5312	-2.8667	-2.5667	-2.7854	-2.8	-2.4896	-2.925	-2.4833	-2.6813	60.447	-13.265	147.016	-30.771	35.584	7.667	-24.448	190.509	223.043	266.129	-45.533	73.887	-60.115	210.448	264.176	191.712	0.00012959	0.00057123	0.00012869	450.16	3.5863e-06	1.4481e-06	537.17	154.94	1.399e-06	2.4738e-06	218.99	89.355	62.249	25.18	1.4544e-06	41.739	0.00072674	0.0010755	0.00030237	439.15	1.0862e-05	1.1666e-05	525.06	152.79	1.0717e-05	1.1991e-05	216	89.237	62.129	25.026	1.1339e-05	41.398	155.379	19.240	56.172	-58.146	75.988	54.695	-58.360	-52.513	44.567	45.554	-54.102	-50.134	-48.536	-45.189	1.891	-46.237	-8191	255	
15251.962	1	1	0	0	0.23833	0.11314	0.13347	0.16644	0.088904	0.26373	0.27363	0.12709	0.23422	0.1815	0.15882	0.017644	0.19313	0.18135	0.32537	0.099158	-2.5375	-2.4292	-2.7708	-2.9042	-2.4146	-2.7021	-2.6208	-2.275	-2.8688	-2.3375	-2.6333	-2.9917	-2.1625	-2.8479	-2.6063	-2.4042	37.971	226.695	23.776	-58.262	-21.788	238.138	201.057	145.696	69.396	95.650	-50.333	216.980	-29.638	-25.242	3.940	45.832	0.00010664	0.0003668	0.00010281	447.24	2.0804e-06	2.3936e-06	533.37	154.86	1.9138e-06	8.2356e-07	217.41	89.321	61.417	25.104	2.3044e-06	41.467	0.00071955	0.0010678	0.00029581	437.81	1.0944e-05	1.1779e-05	524.58	152.8	1.0632e-05	1.1797e-05	215.62	89.065	61.786	24.978	1.121e-05	41.239	154.980	10.727	26.387	-58.447	77.806	63.136	-58.530	-52.643	92.670	117.928	-54.017	-49.864	-48.890	-44.845	100.205	-46.123	-8191	255	
15252.060	1	1	0	0	0.16947	0.22437	0.32522	0.085702	0.097604	0.27278	0.18336	0.034519	0.21197	0.17003	0.10456	0.26374	0.13619	0.13645	0.10338	0.20113	-2.4604	-2.3187	-2.4729	-2.7354	-2.2479	-2.6063	-2.8875	-2.4854	-2.7729	-2.4917	-2.5333	-2.7979	-2.375	-2.6813	-2.6688	-2.5646	39.615	145.858	-31.943	224.705	170.479	265.668	229.342	181.407	101.722	81.465	69.200	220.457	162.829	84.316	-22.326	237.042	0.00011618	0.00050878	4.919e-05	445.33	3.7511e-06	4.9704e-06	528.5	154.2	1.1507e-06	1.8168e-06	220.03	89.116	61.589	25.286	3.8688e-06	41.615	0.00070501	0.0010464	0.00029802	436.87	1.0879e-05	1.1715e-05	520.25	152.42	1.0838e-05	1.1541e-05	215.62	88.896	61.944	25.165	1.1268e-05	41.329	174.115	15.788	94.039	-58.335	90.131	98.858	-58.725	-53.011	19.766	45.091	-53.956	-49.847	-48.742	-44.927	66.975	-46.804	-8191	255	
15252.179	1	1	0	0	0.11751	0.17341	0.08211	0.29191	0.29168	0.19875	0.15741	0.19017	0.13934	0.09152	0.24324	0.15769	0.19272	0.069618	0.017611	0.086277	-2.3312	-2.7313	-2.6271	-2.7458	-2.2667	-2.5812	-2.6458	-2.3729	-2.9771	-2.6542	-2.5521	-2.7792	-2.4583	-2.8167	-2.7396	-2.4	106.406	276.966	8.661	-59.569	185.168	275.071	230.229	251.847	112.003	289.345	-33.738	88.316	129.605	196.758	195.657	193.539	8.5307e-05	0.00028499	0.00012204	448.86	8.6997e-07	4.6218e-06	531.84	154.25	1.7931e-06	5.8155e-06	217.98	88.618	61.802	25.237	3.7414e-07	41.706	0.00070067	0.0010559	0.00030188	438.57	1.0684e-05	1.1801e-05	521.33	152.06	1.0911e-05	1.1978e-05	214.85	88.728	61.945	25.138	1.1343e-05	41.549	159.327	14.790	30.562	-58.359	33.539	51.797	-58.973	-52.641	104.080	87.012	-54.031	-49.805	-48.615	-44.844	149.963	-46.392	-8191	255	
15252.251	1	1	0	0	0.068944	0.29362	0.10622	0.16661	0.13858	0.22889	0.19088	0.29492	0.083081	0.20568	0.28515	0.14671	0.11458	0.010189	0.18256	0.38363	-2.3375	-2.5062	-2.3708	-2.8312	-2.5146	-2.7229	-2.8125	-2.2979	-2.5625	-2.7	-2.6292	-2.8854	-2.5667	-2.6458	-2.8167	-2.5146	281.472	285.574	223.982	36.785	228.125	200.552	273.786	242.202	146.388	-22.679	283.281	163.049	274.053	-40.393	34.116	196.270	0.00014201	0.00030581	9.046e-05	442.01	2.0071e-06	2.9258e-06	536.89	154.1	2.0848e-06	3.8624e-06	219.68	89.563	62.093	25.446	1.0163e-06	42.087	0.00068512	0.0010851	0.00029643	435.87	1.0765e-05	1.2029e-05	523.2	152.98	1.064e-05	1.1949e-05	216.36	89.395	62.192	25.373	1.1524e-05	41.788	164.706	11.411	39.920	-58.316	88.686	69.010	-58.890	-52.614	104.843	94.785	-54.324	-49.838	-48.779	-45.138	-11.169	-46.358	-8191	255	
15252.347	1	1	0	0	0.13738	0.14009	0.2165	0.076804	0.23586	0.038647	0.18815	0.045836	0.060443	0.16714	0.23114	0.1268	0.028823	0.1972	0.10165	0.17685	-2.3979	-2.5687	-2.2875	-3.075	-2.4271	-2.5979	-2.9521	-2.4271	-2.7396	-2.5125	-2.3125	-2.8021	-2.5125	-2.5104	-2.8479	-2.5812	278.185	190.481	260.110	14.746	247.832	-12.730	81.447	211.570	20.726	39.774	-27.668	224.994	56.230	-40.139	82.180	238.357	0.00011542	0.00020913	5.9629e-05	446.14	2.5201e-06	2.7318e-06	532.88	155.32	2.4119e-06	3.8815e-06	217.89	88.964	61.905	25.217	3.7785e-06	42.2	0.00070893	0.001072	0.00031082	437.45	1.0718e-05	1.1902e-05	522.99	153.03	1.1052e-05	1.1794e-05	215.05	88.839	61.847	25.165	1.1163e-05	41.494	169.937	-47.347	6.894	-58.840	63.696	4.221	-58.864	-52.499	25.766	78.193	-53.908	-50.126	-48.819	-45.001	52.385	-46.315	-8191	255	
15252.443	1	1	0	0	0.098223	0.13832	0.29067	0.10165	0.20848	0.39936	0.22624	0.06734	0.21696	0.18963	0.065531	0.24553	0.068274	0.13309	0.05571	0.16478	-2.2354	-2.5812	-2.4333	-2.9813	-2.7104	-2.5167	-2.9375	-2.5042	-2.5438	-2.7562	-2.4125	-2.9917	-2.5979	-2.4042	-3.0187	-2.5312	184.942	43.045	-69.944	242.426	184.657	124.757	163.742	283.716	-21.389	97.717	119.768	-29.607	190.896	285.005	197.818	238.277	0.00010812	0.0002923	0.00010983	445.63	2.6749e-06	4.3661e-06	527.08	153.74	2.5679e-06	4.4074e-06	215.99	88.914	61.718	25.053	1.8991e-06	41.603	0.00069882	0.0010943	0.00030507	437.11	1.0465e-05	1.2094e-05	519.11	151.66	1.0958e-05	1.2186e-05	213.2	88.29	61.51	25.02	1.1399e-05	41.256	163.593	32.416	-9.454	-58.562	114.973	46.737	-58.311	-52.651	71.385	86.212	-53.827	-49.827	-48.471	-44.778	73.557	-46.854	-8191	255	
15252.563	1	1	0	0	0.078247	0.032277	0.10668	0.16826	0.23071	0.16383	0.034843	0.056818	0.27249	0.2766	0.18179	0.017962	0.12847	0.13162	0.10133	0.092722	-2.3187	-2.7396	-2.3604	-2.8396	-2.6146	-2.5146	-3.0708	-2.6021	-2.7521	-2.9042	-2.4042	-2.8229	-2.4875	-2.6104	-2.7521	-2.6208	25.080	86.450	-49.591	-55.301	-54.783	89.655	-12.546	-38.462	228.717	26.999	-4.699	-7.228	113.992	-53.081	21.448	-31.172	0.00011737	0.00042539	5.9451e-05	441.46	3.0252e-06	3.868e-06	521.92	152.8	2.4864e-06	3.8886e-06	216.39	87.792	60.909	25.116	3.319e-06	41.211	0.00068276	0.0010797	0.00029477	434.27	1.0603e-05	1.2182e-05	516.07	150.86	1.1047e-05	1.2026e-05	212.83	87.794	61.235	25.017	1.1067e-05	41.183	161.394	37.680	37.537	-58.434	73.699	99.469	-58.488	-52.665	93.984	65.417	-54.249	-49.691	-48.697	-44.815	55.794	-46.618	-8191	255	
15252.660	1	1	0	0	0.15407	0.15617	0.20184	0.15316	0.051757	0.18436	0.14856	0.11588	0.38524	0.018903	0.11882	0.10572	0.12879	0.32844	0.14271	0.23471	-2.3208	-2.9771	-2.3604	-2.9083	-2.8646	-2.6083	-2.8812	-2.5729	-2.5792	-3.0375	-2.4021	-2.6937	-2.7792	-2.3937	-2.7562	-2.6354	212.362	63.800	109.539	252.293	179.517	70.415	192.431	243.937	240.282	193.891	-48.148	244.399	86.713	190.064	212.857	184.720	0.00012347	0.00025065	2.3455e-05	441.16	3.8206e-06	3.5697e-06	523.78	151.6	3.2878e-06	1.9951e-06	216.04	88.512	61.692	25.263	3.381e-06	41.947	0.00071773	0.0010686	0.00031067	432.61	1.087e-05	1.2177e-05	515.42	150.84	1.1316e-05	1.1945e-05	213.05	88.296	61.636	25.183	1.1228e-05	41.534	163.184	-38.477	11.428	-58.514	76.717	56.430	-58.645	-52.426	54.535	95.265	-53.623	-49.653	-49.119	-45.149	29.096	-46.601	-8191	255	
15252.756	1	1	0	0	0.01869	0.17044	0.016995	0.022029	0.1464	0.19293	0.18633	0.22295	0.031656	0.20866	0.091708	0.1138	0.22432	0.15407	0.11726	0.22267	-1.9979	-2.9125	-2.4604	-2.6833	-2.9271	-2.4271	-2.9458	-2.6292	-2.5479	-2.9562	-2.6896	-2.6813	-2.8208	-2.3854	-2.9042	-2.8375	-33.534	-11.656	129.462	188.215	261.114	271.393	177.323	-47.898	91.940	-10.504	118.690	228.933	271.695	227.576	275.799	-60.533	9.5103e-05	9.5993e-05	3.0714e-05	439.34	2.065e-06	4.7933e-06	521.78	153.39	3.1611e-06	2.9122e-06	215.74	88.151	61.426	25.239	2.5393e-06	41.53	0.00072202	0.0010854	0.00030759	432.66	1.0971e-05	1.2409e-05	514.53	150.7	1.131e-05	1.1864e-05	211.93	87.691	61.243	25.065	1.138e-05	41.195	168.500	164.675	12.929	-58.458	78.268	103.995	-59.024	-52.638	68.905	71.985	-53.841	-50.192	-48.717	-44.718	48.560	-46.444	-8191	255	
15252.852	1	1	0	0	0.20011	0.11275	0.41459	0.042399	0.014195	0.1523	0.14185	0.22458	0.112	0.08782	0.14531	0.078896	0.19102	0.29414	0.20966	0.28648	-2.0979	-2.9917	-2.4958	-2.6792	-2.9833	-2.4521	-2.8771	-2.7646	-2.4583	-2.85	-2.625	-2.5104	-2.7708	-2.5	-2.9583	-2.7292	56.132	225.701	137.469	143.322	276.877	286.143	173.995	91.391	-44.660	57.745	138.229	275.576	261.019	252.494	146.750	247.512	0.00011733	0.00024705	0.00010301	443.18	9.5819e-07	3.8186e-06	521.2	151.18	8.0793e-07	2.8401e-06	214.51	88.045	61.034	25.105	2.0536e-06	41.629	0.00072148	0.0010839	0.00030127	433.04	1.0964e-05	1.2268e-05	513.5	150.11	1.1115e-05	1.1944e-05	211.5	87.403	60.992	25.072	1.1328e-05	41.242	164.901	39.822	30.891	-58.498	96.469	86.793	-58.531	-52.604	38.403	29.217	-54.287	-50.052	-48.802	-44.941	-26.057	-46.672	-8191	255	
15252.948	1	1	0	0	0.078811	0.11342	0.24934	0.058513	0.14322	0.14019	0.17506	0.066008	0.10709	0.21574	0.016944	0.15077	0.1396	0.16113	0.11602	0.18293	-1.8896	-2.8187	-2.3146	-2.6208	-2.7812	-2.4646	-2.8375	-2.6063	-2.3708	-2.8563	-2.6458	-2.4125	-3	-2.4938	-2.9625	-2.8292	159.297	7.954	63.858	199.114	-57.169	215.406	115.832	158.504	129.010	70.525	64.333	-8.287	-25.369	-58.645	196.763	246.723	0.00010848	0.00049976	3.7624e-05	438.72	2.704e-06	2.6054e-06	520.31	151.29	2.8608e-06	3.4655e-06	214.33	87.505	60.722	25.17	9.9497e-07	41.561	0.00073135	0.0010537	0.00030183	431.09	1.112e-05	1.2265e-05	511.72	149.61	1.1296e-05	1.1608e-05	210.56	87.229	60.867	25.032	1.1292e-05	41.255	172.084	22.125	24.608	-58.134	65.580	37.516	-58.401	-52.475	46.557	74.461	-53.972	-50.056	-49.041	-44.634	-19.673	-46.559	-8191	255	
15253.042	1	1	0	0	0.15444	0.12705	0.040655	0.24982	0.17055	0.20989	0.051892	0.044707	0.05462	0.18297	0.11512	0.13157	0.1294	0.10851	0.27547	0.15797	-1.7687	-2.9167	-2.5417	-2.475	-2.9479	-2.2896	-2.5708	-2.7062	-2.2583	-2.7167	-2.5875	-2.3896	-2.9771	-2.5	-2.7062	-2.875	126.085	130.178	244.700	234.191	285.094	135.670	-6.883	171.666	118.337	141.492	-35.751	135.356	-31.538	-62.104	30.302	239.186	0.00010588	0.00063596	0.00016978	437.88	2.5091e-06	2.5367e-06	520.91	151.52	4.085e-07	2.1178e-06	214.4	87.526	61.032	25.28	3.2378e-06	41.764	0.00073347	0.0010858	0.00030894	430.12	1.1052e-05	1.2047e-05	510.52	149.74	1.1057e-05	1.1736e-05	211.22	87.391	61.072	25.156	1.1414e-05	41.484	154.269	17.221	19.690	-58.468	77.955	50.699	-58.892	-52.583	38.408	51.446	-54.667	-50.024	-48.735	-44.589	102.503	-46.746	-8191	255	
15253.140	1	1	0	0	0.14674	0.0058664	0.095943	0.1327	0.10488	0.16531	0.38097	0.12367	0.10219	0.21737	0.12525	0.31111	0.20795	0.088993	0.083333	0.10348	-1.825	-2.8458	-2.5938	-2.6333	-2.8021	-2.5479	-2.5667	-2.7938	-2.3375	-2.8479	-2.6958	-2.5708	-2.8229	-2.6063	-2.6646	-2.7833	211.997	270.977	208.292	-29.602	29.180	244.562	169.586	-68.821	233.441	74.193	275.613	276.851	144.703	256.287	30.059	213.968	9.7571e-05	0.00037052	2.6842e-05	436.89	2.2791e-06	3.9128e-06	520.86	150.77	1.3888e-06	3.7887e-06	211.85	86.207	60.136	24.848	4.4582e-06	41.375	0.00071861	0.0010825	0.00030698	428.88	1.0856e-05	1.2354e-05	509.4	148.83	1.1232e-05	1.1692e-05	208.98	86.579	60.439	24.852	1.169e-05	40.918	159.822	35.174	10.101	-58.301	92.328	83.044	-58.714	-52.686	105.474	110.635	-54.114	-49.550	-48.688	-44.636	74.415	-46.409	-8191	255	
15253.259	1	1	0	0	0.19628	0.19141	0.1299	0.20288	0.11966	0.20971	0.053995	0.11555	0.21796	0.14881	0.01664	0.12044	0.28673	0.26618	0.046249	0.11759	-1.8646	-2.5479	-2.5729	-2.3292	-2.8438	-2.725	-2.5646	-2.9688	-2.4437	-2.7313	-2.8042	-2.2604	-2.8167	-2.6813	-2.35	-2.9896	230.676	12.483	-55.612	235.486	-6.640	243.766	286.718	116.230	172.685	-34.712	-68.263	213.538	-28.340	251.629	-49.294	-55.090	0.00011658	0.00044024	6.4938e-05	435.41	3.0162e-06	2.7242e-06	514.87	150.02	1.8965e-06	1.978e-06	211	86.235	60.21	24.992	5.1152e-06	41.243	0.00072143	0.0010593	0.00030439	426.59	1.0789e-05	1.2057e-05	505.93	148.04	1.1328e-05	1.2163e-05	208.59	86.107	60.333	24.867	1.1613e-05	40.943	181.670	-7.555	19.935	-58.421	14.669	140.545	-58.570	-52.544	73.317	101.194	-54.319	-49.929	-48.718	-44.696	83.186	-46.264	-8191	255	
15253.355	1	1	0	0	0.15834	0.14556	0.24089	0.25405	0.22161	0.22381	0.095119	0.11686	0.10222	0.21301	0.22631	0.20644	0.3012	0.18939	0.15681	0.18968	-2.0625	-2.6292	-2.5375	-2.275	-2.7771	-2.4646	-2.5208	-2.7313	-2.3229	-2.6604	-2.8146	-2.4792	-2.7917	-2.7687	-2.375	-2.775	-0.047	16.117	15.660	207.979	248.384	177.788	-57.883	235.958	56.876	-25.114	163.210	177.949	7.109	-50.116	191.221	-64.751	0.00012659	0.00037556	3.7341e-05	435.34	1.7436e-06	6.1361e-06	514.86	149.55	1.449e-06	3.7248e-06	211.85	86.715	60.289	25.029	1.5515e-06	41.253	0.00072829	0.0010874	0.00030562	427.16	1.0803e-05	1.2199e-05	506.61	148.13	1.1124e-05	1.1931e-05	209.11	86.691	60.331	24.955	1.153e-05	41.042	165.191	51.091	70.658	-58.359	37.866	97.427	-58.601	-52.356	97.920	128.362	-54.374	-49.810	-48.769	-44.753	158.329	-46.376	-8191	255	
15253.452	1	1	0	0	0.1054	0.11351	0.12373	0.15344	0.21011	0.32247	0.2942	0.084448	0.11807	0.17758	0.073024	0.3283	0.23822	0.064954	0.2015	0.20122	-2.1521	-2.5792	-2.8688	-2.4375	-2.8021	-2.8417	-2.5812	-2.7833	-2.4771	-2.6354	-2.7333	-2.4146	-2.9729	-2.8479	-2.1813	-2.8646	108.539	274.436	270.995	45.442	285.534	141.192	196.099	137.903	104.467	-51.479	17.647	173.616	26.111	280.726	127.349	289.262	9.6093e-05	0.0004163	9.4684e-05	435.75	1.3698e-06	4.8924e-06	517.44	150.9	1.322e-06	4.3429e-06	213.66	86.97	60.666	25.231	2.0963e-06	41.753	0.00070485	0.0011131	0.0003068	426.94	1.0713e-05	1.1997e-05	508.86	149.25	1.1025e-05	1.2145e-05	210.61	86.986	60.683	25.144	1.1997e-05	41.442	170.136	57.176	40.767	-58.477	154.619	84.972	-58.505	-52.687	124.954	94.565	-54.070	-50.053	-48.917	-44.624	104.384	-46.268	-8191	255	
15253.546	1	1	0	0	0.30518	0.23901	0.21482	0.32109	0.1556	0.2637	0.14083	0.15954	0.1975	0.12112	0.1222	0.085012	0.079382	0.11277	0.096631	0.094886	-2.0729	-2.425	-2.8312	-2.4667	-2.6271	-2.8812	-2.3292	-2.9771	-2.6542	-2.3708	-3.175	-2.6917	-2.5396	-2.7958	-2.4333	-2.7562	47.144	257.987	58.770	239.636	73.278	227.288	233.004	222.870	288.892	83.141	9.382	241.429	202.848	171.390	169.203	206.944	0.00011952	0.0005524	9.5827e-05	437.18	3.2292e-06	4.4769e-06	519.18	151.04	9.7438e-07	4.4708e-06	212.59	87.045	60.831	25.092	1.1509e-06	41.592	0.00070595	0.0011185	0.00030577	429.29	1.06e-05	1.228e-05	510.54	149.28	1.0913e-05	1.2215e-05	210.1	86.982	60.882	25.064	1.181e-05	41.199	168.482	5.764	-8.143	-58.525	57.870	112.306	-58.775	-52.599	115.694	93.391	-54.169	-50.000	-48.860	-44.802	170.578	-46.643	-8191	255	
15253.642	1	1	0	0	0.17663	0.23727	0.17862	0.15558	0.072389	0.085037	0.28531	0.10058	0.16179	0.16091	0.13387	0.065129	0.22094	0.32547	0.16592	0.36861	-2.0729	-2.2521	-2.7792	-2.7021	-2.6354	-2.8292	-2.5521	-2.7417	-2.7042	-2.475	-3.0312	-2.6792	-2.5042	-2.9667	-2.25	-2.9792	82.057	101.091	20.689	-70.618	178.863	42.842	221.421	288.086	27.985	161.861	-59.417	285.619	-32.125	-32.882	267.359	258.290	0.00015005	0.00047549	0.00014409	438.06	1.9285e-06	6.4016e-06	518.75	151.5	3.7005e-06	1.9306e-06	214.24	88.323	61.141	25.376	3.5785e-06	41.97	0.00073019	0.0011122	0.00031103	429.83	1.0937e-05	1.21e-05	510.71	149.68	1.091e-05	1.2216e-05	211.23	87.698	61.241	25.302	1.1517e-05	41.552	159.790	35.805	-22.283	-58.456	-44.096	104.419	-58.906	-52.999	106.656	101.768	-54.340	-49.770	-48.776	-45.086	70.327	-46.331	-8191	255	
15253.738	1	1	0	0	0.11708	0.065054	0.16822	0.36087	0.026341	0.09286	0.10871	0.15342	0.15893	0.10449	0.048164	0.083795	0.1341	0.18474	0.27939	0.10248	-2.3292	-2.2604	-2.7292	-2.5938	-2.4479	-2.7896	-2.5271	-2.6875	-2.8812	-2.3	-2.8896	-2.5312	-2.4667	-2.8833	-2.5312	-2.8521	270.762	109.101	-20.151	259.660	-2.603	143.980	229.546	-44.291	68.196	114.985	220.161	118.771	157.968	47.918	30.978	226.100	0.00011276	0.00022144	5.6957e-05	443.67	2.4736e-06	5.1727e-06	521.17	151.76	9.9339e-07	2.266e-06	215.19	87.557	61.512	25.299	2.7266e-06	41.819	0.00071274	0.0010999	0.00030204	432.88	1.0971e-05	1.2142e-05	512.77	150.11	1.1214e-05	1.1872e-05	211.83	87.555	61.458	25.26	1.1352e-05	41.431	154.246	117.202	16.102	-58.191	48.528	84.545	-58.355	-52.646	264.284	86.508	-54.199	-50.062	-48.570	-44.817	81.972	-46.600	-8191	255	
15253.859	1	1	0	0	0.12395	0.024262	0.13338	0.20893	0.14333	0.1128	0.16114	0.14248	0.11779	0.20122	0.10906	0.14498	0.4323	0.23661	0.12781	0.27128	-2.1625	-2.3354	-2.7104	-2.5312	-2.3792	-2.8979	-2.5958	-2.7229	-2.65	-2.3104	-2.7917	-2.8312	-2.225	-2.6646	-2.4146	-2.5312	178.101	91.612	180.833	283.129	-66.768	145.837	271.657	-50.778	177.774	74.006	77.326	254.955	219.235	194.365	236.178	-45.066	0.00010465	0.00022169	0.00012599	440.7	2.3451e-06	3.2711e-06	523.24	152.66	1.7352e-06	3.3419e-06	217.2	88.359	60.977	25.308	2.7785e-06	41.78	0.00070906	0.0011202	0.00030124	431.61	1.0968e-05	1.2128e-05	513.24	150.87	1.1085e-05	1.2486e-05	212.7	87.85	61.313	25.273	1.1605e-05	41.552	154.680	-9.403	17.572	-58.415	52.486	61.218	-58.675	-52.128	144.953	78.340	-54.301	-50.019	-48.668	-45.018	146.776	-46.042	-8191	255	
15253.955	1	1	0	0	0.052703	0.041875	0.10203	0.20032	0.4273	0.075228	0.17126	0.1913	0.12098	0.115	0.19064	0.10714	0.018426	0.22158	0.080917	0.27861	-2.4021	-2.3396	-2.5417	-2.7417	-2.3354	-2.9833	-2.5479	-2.6708	-2.8104	-2.4583	-2.8854	-2.7417	-2.4646	-2.9208	-2.4958	-2.5833	97.101	28.849	117.187	13.951	181.574	228.461	282.729	-27.482	145.301	110.536	64.673	200.195	23.627	234.046	130.534	212.883	0.00011876	0.00034519	0.00014204	441.5	1.5134e-06	4.604e-06	522.95	151.72	3.6031e-07	2.9039e-06	214.35	87.711	61.806	25.205	1.7884e-06	41.873	0.00073566	0.0011053	0.00031109	431.55	1.0775e-05	1.244e-05	512.86	150.65	1.1231e-05	1.2103e-05	212.15	87.716	61.56	25.23	1.1649e-05	41.565	164.649	51.911	43.681	-58.565	85.029	96.345	-58.562	-52.471	164.636	90.133	-54.301	-50.121	-48.477	-44.956	161.793	-46.268	-8191	255	
15254.051	1	1	0	0	0.19734	0.15748	0.18164	0.12171	0.092472	0.21654	0.056962	0.38723	0.14431	0.29712	0.27944	0.29895	0.19387	0.16213	0.073362	0.079094	-2.4875	-2.4417	-2.6417	-2.5729	-2.3063	-2.8375	-2.6167	-2.3854	-3.0083	-2.45	-2.5896	-2.7333	-2.3563	-2.9292	-2.7625	-2.4938	221.518	288.044	252.616	133.299	255.959	-24.931	2.310	31.148	99.061	238.559	259.090	282.577	-28.350	-9.771	-10.755	273.040	0.00010104	0.00024259	0.00016634	442.84	1.6737e-06	2.6324e-06	525.28	153.27	1.5873e-06	2.5831e-06	215.95	89.087	61.615	25.465	3.056e-06	41.881	0.00072102	0.0011201	0.0003042	434.16	1.0867e-05	1.2016e-05	514.71	151.43	1.0896e-05	1.2411e-05	212.68	88.159	61.732	25.338	1.1325e-05	41.642	161.131	57.223	13.919	-58.482	19.695	30.115	-58.247	-52.703	108.018	63.687	-53.797	-50.095	-48.657	-44.972	72.567	-46.522	-8191	255	
15254.123	1	1	0	0	0.091942	0.27897	0.24181	0.10487	0.35694	0.03707	0.20258	0.10271	0.13635	0.19992	0.043055	0.091998	0.24417	0.17294	0.12189	0.074132	-2.3146	-2.2625	-2.6083	-2.7896	-2.2833	-2.7667	-2.6854	-2.4146	-2.8042	-2.575	-2.7229	-2.9167	-2.2979	-2.7687	-2.6229	-2.4979	54.840	241.531	258.222	211.336	242.434	210.394	241.018	-65.618	219.421	56.427	157.958	155.334	-49.987	203.221	-17.028	229.696	0.00013769	0.00032379	6.3589e-05	440.66	2.3251e-06	2.0829e-06	524.86	153.04	1.8261e-06	3.0402e-06	214.44	88.895	62.136	25.467	1.6861e-06	41.758	0.00072303	0.0010436	0.00030049	433.85	1.0588e-05	1.2109e-05	515.63	151.46	1.107e-05	1.1802e-05	212.55	88.344	61.969	25.391	1.1762e-05	41.626	168.879	23.558	31.992	-58.430	74.862	94.035	-58.407	-52.641	276.543	115.464	-54.120	-49.909	-48.866	-44.890	88.182	-46.326	-8191	255	
15254.243	1	1	0	0	0.10518	0.20055	0.24667	0.22893	0.065065	0.18694	0.027545	0.20324	0.11916	0.040091	0.23149	0.29032	0.10767	0.10774	0.18915	0.14834	-2.3792	-2.4375	-2.4562	-2.9271	-2.3896	-2.7208	-2.6479	-2.5979	-2.9375	-2.4688	-2.5979	-2.9521	-2.3167	-2.675	-2.8229	-2.5583	245.528	246.066	213.488	231.272	256.229	65.378	64.874	-25.422	160.839	135.587	119.694	271.734	288.735	-25.460	124.918	277.176	0.0001019	0.00035504	9.118e-05	446.52	1.3714e-06	2.5573e-06	529.07	153.26	1.7781e-06	5.6472e-06	216.03	88.67	61.626	25.463	4.9463e-06	42.024	0.0007088	0.0010795	0.00030329	436.76	1.0881e-05	1.216e-05	517.61	151.92	1.1001e-05	1.2383e-05	213.59	88.421	61.77	25.388	1.1731e-05	41.746	179.889	13.070	15.437	-58.310	77.505	126.415	-58.636	-52.720	55.041	62.345	-54.041	-49.663	-48.541	-44.762	74.032	-46.784	-8191	255	
15254.340	1	1	0	0	0.14628	0.41101	0.23557	0.18521	0.077226	0.26043	0.065864	0.29658	0.080998	0.24901	0.18113	0.24241	0.14234	0.082322	0.094302	0.023638	-2.4458	-2.6854	-2.6042	-2.9813	-2.3646	-2.7542	-2.7021	-2.4708	-2.9042	-2.625	-2.3792	-2.9583	-2.2083	-2.7521	-2.75	-2.4646	48.154	47.271	8.922	63.528	132.981	223.021	250.354	148.749	95.083	-55.051	15.815	186.428	274.262	86.930	164.552	6.368	0.0001498	0.00022676	5.9109e-05	444.57	8.6261e-07	2.9021e-06	524.9	153.52	1.6865e-06	2.6871e-06	215.01	87.755	61.376	25.314	1.7218e-06	41.592	0.00070201	0.0010723	0.00030027	435.41	1.0864e-05	1.2314e-05	514.14	151.43	1.0909e-05	1.2018e-05	211.91	87.648	61.431	25.188	1.1746e-05	41.48	167.190	1.944	5.482	-58.109	150.069	101.483	-58.678	-52.656	-62.775	134.630	-54.305	-49.825	-48.516	-44.252	87.255	-46.280	-8191	255	
15254.434	1	1	0	0	0.14548	0.23914	0.13622	0.050669	0.32337	0.15887	0.1023	0.31585	0.10406	0.16212	0.1393	0.0577	0.10289	0.049624	0.13932	0.086122	-2.2771	-2.5604	-2.5292	-2.7979	-2.3521	-2.8063	-2.9021	-2.2958	-2.9083	-2.5146	-2.4333	-3.0104	-2.6021	-2.6167	-2.8688	-2.5042	86.603	208.396	-57.629	-27.852	252.159	71.504	140.379	199.587	50.583	266.612	138.289	156.668	279.930	285.331	-19.258	184.262	0.00012163	0.00027546	0.00011105	440.88	1.1664e-06	4.3822e-06	520.85	153.04	2.086e-06	3.511e-06	214.83	87.603	61.36	25.462	2.7253e-06	41.876	0.00072218	0.0010805	0.0003141	433.25	1.06e-05	1.2084e-05	511.59	150.57	1.0804e-05	1.1822e-05	211.65	87.88	61.51	25.305	1.1703e-05	41.591	167.552	-9.114	21.983	-58.483	79.525	113.965	-58.636	-52.851	103.119	43.434	-54.250	-49.928	-48.551	-44.917	74.607	-46.425	-8191	255	
15254.532	1	1	0	0	0.21502	0.22464	0.10499	0.028409	0.14992	0.16605	0.048346	0.055408	0.32457	0.21695	0.23176	0.1426	0.27421	0.24346	0.23661	0.1235	-2.3083	-2.8	-2.4458	-2.75	-2.6688	-2.5958	-2.8563	-2.4188	-2.8583	-2.7646	-2.4625	-2.8146	-2.6083	-2.3708	-2.9104	-2.6312	-39.273	154.693	108.722	43.892	141.876	223.006	280.627	71.802	1.235	117.706	-34.076	27.933	209.273	-10.232	-31.940	225.553	0.00011334	0.00018991	0.0001054	442.76	9.3031e-07	2.7002e-06	523	151.88	1.8039e-06	3.0398e-06	214.29	88.145	61.536	25.555	3.7205e-06	42.134	0.0007078	0.0011018	0.00031977	433.66	1.1038e-05	1.2424e-05	512.9	150.76	1.1348e-05	1.192e-05	211.47	87.739	61.466	25.398	1.1339e-05	41.699	157.981	28.635	23.338	-58.345	124.139	85.828	-58.930	-52.826	46.651	62.123	-54.009	-49.996	-48.567	-44.641	93.357	-46.524	-8191	255	
15254.651	1	1	0	0	0.058408	0.09008	0.046953	0.22858	0.19406	0.060431	0.11398	0.14044	0.30191	0.28426	0.067073	0.31057	0.30104	0.24296	0.18103	0.19717	-2.0979	-2.4979	-2.3958	-2.7125	-2.6458	-2.5625	-2.7687	-2.4354	-2.5563	-2.85	-2.5062	-2.8479	-2.7958	-2.6208	-2.8417	-2.7646	-36.566	232.792	-39.546	277.082	247.547	169.320	128.459	207.874	-45.107	-12.477	31.631	278.624	37.834	-69.375	205.163	286.202	0.00010151	0.00012237	8.6721e-05	443.34	2.5831e-06	2.6427e-06	526.17	153.39	2.4336e-06	2.5574e-06	216.59	88.05	61.811	25.609	2.047e-06	42.216	0.00072086	0.0010873	0.00031265	434.77	1.0654e-05	1.2352e-05	515.54	151.78	1.1108e-05	1.2032e-05	213.82	88.396	61.841	25.546	1.1576e-05	41.991	158.225	-35.942	40.160	-58.402	81.229	75.657	-58.601	-52.815	88.291	151.734	-54.329	-50.136	-48.428	-44.594	22.144	-46.603	-8191	255	
15254.747	1	1	0	0	0.10814	0.11252	0.22111	0.27465	0.048303	0.25478	0.092079	0.083858	0.24319	0.21613	0.056297	0.23178	0.10288	0.12772	0.36819	0.023405	-2.1688	-2.9688	-2.5292	-2.7687	-2.7146	-2.5646	-2.95	-2.4792	-2.5396	-2.975	-2.6667	-2.9354	-2.7083	-2.3604	-2.9396	-2.6875	-6.937	159.812	97.878	206.444	59.898	192.930	255.351	-37.638	26.073	273.290	126.874	239.181	51.023	26.194	-18.831	-16.379	0.00013642	0.00020601	5.6614e-05	445.24	4.6816e-07	2.4154e-06	525.04	153.53	1.6058e-06	3.8384e-06	217.61	88.538	61.732	25.402	2.0875e-06	41.991	0.00072371	0.0011025	0.00030639	435.87	1.0729e-05	1.2423e-05	516.23	151.54	1.1386e-05	1.2022e-05	213.75	88.363	61.779	25.444	1.1471e-05	41.792	162.911	20.842	73.575	-58.566	36.586	-2.095	-58.517	-52.542	123.787	82.301	-54.708	-50.104	-48.477	-45.078	83.430	-46.116	-8191	255	
15254.819	1	1	0	0	0.13926	0.06575	0.17466	0.33997	0.19163	0.12473	0.080189	0.34894	0.12033	0.21335	0.057594	0.17678	0.088689	0.17973	0.1785	0.18561	-2.0812	-2.8146	-2.5021	-2.7146	-2.7083	-2.5438	-2.8875	-2.6	-2.5604	-2.8771	-2.5354	-2.6625	-2.7729	-2.3187	-2.7354	-2.8042	267.410	52.747	45.889	224.284	164.342	63.333	276.619	249.023	-46.115	49.372	259.724	119.269	144.766	279.595	220.917	246.003	0.0001063	0.00048508	0.00012963	445.2	2.0602e-06	4.6111e-06	522.48	154.18	2.1324e-06	2.9752e-06	216.65	88.758	61.612	25.537	1.719e-06	42.271	0.00072207	0.0010883	0.0003045	435.87	1.0775e-05	1.1892e-05	514.26	152	1.1202e-05	1.2161e-05	213.03	88.332	61.896	25.498	1.1375e-05	41.804	157.142	9.221	55.879	-58.378	112.779	65.119	-58.535	-52.572	83.979	91.179	-54.117	-49.824	-48.869	-44.823	131.462	-46.518	-8191	255	
15254.939	1	1	0	0	0.07907	0.20321	0.25508	0.054017	0.30892	0.093875	0.19987	0.27584	0.066506	0.10876	0.17728	0.13122	0.026628	0.24035	0.25312	0.17345	-1.8917	-2.9562	-2.3958	-2.5292	-2.9979	-2.4979	-2.7646	-2.6021	-2.4	-2.8604	-2.7083	-2.6729	-2.8125	-2.2958	-2.7	-2.7812	186.878	53.284	146.551	121.644	251.873	15.661	82.699	242.237	10.045	281.928	232.948	289.311	75.829	265.501	14.502	259.368	0.0001152	0.00024236	3.4526e-05	448.03	4.7421e-07	3.0541e-06	522.77	152.43	1.337e-06	1.3812e-06	215.24	88.218	61.88	25.352	3.26e-07	41.664	0.00072901	0.001098	0.00030491	436.28	1.0503e-05	1.1907e-05	513.81	150.86	1.1307e-05	1.1522e-05	212.39	88.099	61.653	25.281	1.1051e-05	41.507	160.225	-21.765	48.663	-58.230	46.643	49.305	-58.408	-52.603	20.137	93.341	-53.984	-49.648	-48.379	-44.783	110.287	-46.414	-8191	255	
15255.035	1	1	0	0	0.12651	0.14067	0.054196	0.093736	0.19992	0.28062	0.19157	0.16547	0.054796	0.11064	0.22499	0.26615	0.12602	0.1523	0.12548	0.10932	-1.9271	-2.9437	-2.5875	-2.6958	-2.8333	-2.5604	-2.65	-2.9292	-2.5208	-2.9396	-2.7021	-2.5104	-2.7417	-2.4771	-2.6625	-2.7604	164.410	185.671	55.993	-57.632	1.513	49.846	274.889	-20.003	250.264	141.919	129.897	134.410	44.405	-38.555	184.187	213.563	0.00010644	0.00037279	0.00011503	443.26	2.9639e-06	1.4939e-06	523.73	152.27	1.5793e-06	3.0062e-06	216.92	88.071	61.489	25.219	3.2847e-06	41.222	0.0007141	0.0010548	0.00030242	433.89	1.0513e-05	1.2073e-05	514.86	151.21	1.0906e-05	1.1531e-05	213.01	88.099	61.517	25.174	1.0886e-05	41.259	173.355	-7.237	25.543	-58.547	19.789	111.529	-58.711	-52.335	60.614	102.392	-54.391	-50.183	-48.760	-44.746	104.569	-46.409	-8191	255	
15255.132	1	1	0	0	0.080394	0.20169	0.083222	0.047779	0.19158	0.017769	0.11166	0.16407	0.096858	0.17661	0.16344	0.26769	0.11595	0.17958	0.19474	0.16345	-1.8042	-2.9042	-2.5333	-2.5292	-2.9417	-2.4896	-2.5583	-3.0333	-2.3292	-2.7208	-2.7833	-2.5479	-2.9146	-2.425	-2.8333	-2.8646	119.365	262.009	-24.961	187.567	16.691	48.533	225.505	-59.383	192.999	124.877	21.210	273.819	-28.845	-41.256	176.421	35.224	8.4444e-05	0.00039449	6.7892e-05	443.91	2.5814e-06	2.1923e-06	521.73	152.96	3.3303e-06	6.023e-06	214.37	86.981	61.021	24.969	3.1825e-06	41.018	0.00068675	0.0010578	0.00029446	433.8	1.0371e-05	1.1558e-05	512.41	150.49	1.0375e-05	1.11e-05	211.17	87.204	61.16	24.885	1.0958e-05	40.729	178.874	7.474	46.101	-58.705	72.176	95.168	-58.609	-52.915	79.585	62.436	-54.011	-49.770	-48.342	-44.628	75.727	-46.446	-8191	255	
15255.252	1	1	0	0	0.1758	0.015661	0.12593	0.1364	0.080705	0.17824	0.26939	0.26266	0.10585	0.095111	0.26657	0.16418	0.1603	0.14487	0.08874	0.11782	-1.85	-2.7167	-2.4542	-2.3583	-2.7521	-2.5583	-2.5521	-2.9604	-2.3458	-2.8167	-2.8917	-2.3542	-2.9917	-2.5521	-2.4854	-3.1	282.480	-59.811	73.711	84.552	153.040	110.571	265.761	267.346	33.481	132.472	43.374	216.770	-50.552	-66.090	242.757	3.234	9.1787e-05	0.00035916	0.00012436	440.84	7.8931e-07	3.6525e-06	518.74	150.83	3.4561e-06	1.1274e-06	212.7	86.923	60.505	24.733	2.0724e-06	40.896	0.00066825	0.0010116	0.00029338	430.88	1.0161e-05	1.1875e-05	509.77	149.38	1.0589e-05	1.1251e-05	209.98	86.766	60.794	24.757	1.0891e-05	40.558	177.596	-13.767	74.737	-58.770	61.647	35.830	-58.570	-52.552	83.481	101.149	-54.057	-49.911	-48.657	-44.915	32.771	-46.699	-8191	255	
15255.347	1	1	0	0	0.14343	0.095792	0.10033	0.029939	0.15854	0.1069	0.066059	0.087873	0.10205	0.067755	0.3322	0.11639	0.28007	0.10109	0.16087	0.38972	-2.0208	-2.7125	-2.7708	-2.5438	-2.8	-2.4854	-2.7229	-2.9583	-2.3479	-2.7208	-2.8229	-2.5083	-2.8625	-2.5083	-2.5396	-2.9292	93.442	97.841	271.821	-23.299	-13.238	-62.458	-70.565	237.575	130.473	149.903	-42.233	49.030	156.236	-22.198	239.642	159.507	0.00010287	0.00041222	0.00010625	440.51	2.3405e-06	3.0033e-06	517.9	150.42	2.2216e-06	1.9403e-06	211.53	86.462	60.236	24.516	4.1596e-06	40.678	0.00069177	0.00099378	0.00028567	430.99	1.0013e-05	1.1538e-05	508.74	148.81	1.0252e-05	1.1538e-05	208.59	86.166	60.373	24.53	1.0915e-05	40.386	170.412	-38.307	79.536	-58.140	49.507	87.297	-58.705	-52.669	62.721	165.257	-54.266	-49.567	-48.720	-44.998	71.804	-46.266	-8191	255	
15255.420	1	1	0	0	0.075179	0.35184	0.12712	0.081327	0.26472	0.22555	0.10558	0.18059	0.020561	0.26718	0.14963	0.22932	0.1619	0.35535	0.17724	0.18313	-2.0833	-2.5083	-2.7583	-2.2812	-2.9	-2.7729	-2.6	-2.8583	-2.7083	-2.7333	-2.9146	-2.3208	-2.8417	-2.8833	-2.5042	-3.0125	280.956	264.589	-50.294	274.765	-58.165	266.112	217.292	224.643	-24.248	41.021	14.396	156.258	185.835	243.135	130.973	34.968	0.00010139	0.00058368	0.00013	437.94	1.9331e-06	2.4153e-06	516.58	151.59	4.2122e-06	4.6792e-06	211.91	86.914	60.558	24.896	3.2169e-06	41.141	0.00066897	0.0010008	0.00029526	429.9	9.8687e-06	1.1392e-05	508.45	149.68	1.0365e-05	1.1094e-05	209.62	86.908	60.818	24.763	1.1082e-05	40.822	146.621	13.939	39.471	-58.371	8.868	94.780	-58.593	-52.498	100.017	79.799	-54.143	-50.049	-48.238	-44.692	19.625	-46.162	-8191	255	
15255.539	1	1	0	0	0.09343	0.094253	0.097332	0.26304	0.076536	0.054004	0.16717	0.081977	0.30632	0.15194	0.26007	0.10817	0.24244	0.13711	0.1066	0.14743	-2.3271	-2.4354	-3	-2.575	-2.6667	-2.6875	-2.4729	-2.95	-2.5938	-2.6125	-3.0354	-2.5938	-2.7833	-2.8646	-2.525	-3.0229	159.279	-14.326	184.132	202.092	-42.542	-43.607	47.198	90.226	75.766	-41.216	215.468	153.250	6.279	86.574	224.649	237.732	0.00011518	0.00037759	0.0001025	439.61	1.9192e-06	4.2881e-06	520.29	151.34	2.0497e-06	3.9298e-06	214	87.868	60.694	25.036	2.2758e-06	41.075	0.00066795	0.0010033	0.0002863	431.82	1.0283e-05	1.1408e-05	511.72	150.06	1.0258e-05	1.1229e-05	210.49	87.219	60.987	24.892	1.1194e-05	40.706	165.381	14.814	18.457	-58.887	107.664	117.316	-58.480	-52.714	11.096	57.127	-54.193	-50.100	-48.952	-44.897	33.761	-46.282	-8191	255	
15255.635	1	1	0	0	0.041767	0.18709	0.22529	0.097611	0.17539	0.12897	0.18318	0.1755	0.16861	0.32727	0.24254	0.16395	0.091213	0.071546	0.061668	0.29983	-2.1333	-2.4938	-2.9396	-2.4688	-2.6479	-2.875	-2.5333	-2.7354	-2.6333	-2.6562	-3.0187	-2.6375	-2.6375	-2.7167	-2.5062	-2.8604	29.634	221.356	171.268	272.069	127.822	175.976	105.947	237.706	218.234	203.145	232.298	17.910	197.578	168.546	135.858	266.443	0.00011391	0.0003475	4.1263e-05	439.18	1.3249e-06	5.9819e-06	519.49	152.17	7.8517e-08	5.1902e-06	214	87.524	61.559	25.106	1.9291e-06	41.184	0.00067774	0.0010503	0.00029531	431.36	1.0312e-05	1.1512e-05	510.98	150.39	1.0495e-05	1.1418e-05	210.87	87.288	61.483	24.958	1.1103e-05	40.938	165.725	16.278	44.329	-58.449	-6.995	67.614	-58.904	-52.605	245.078	45.940	-54.407	-49.754	-48.782	-44.609	16.127	-46.224	-8191	255	
15255.731	1	1	0	0	0.077906	0.096879	0.12413	0.12447	0.19227	0.19091	0.12736	0.10619	0.20646	0.36429	0.10015	0.067973	0.13755	0.17357	0.096894	0.15506	-2.1813	-2.4208	-2.9604	-2.5958	-2.5458	-2.7687	-2.4021	-2.8417	-2.6562	-2.5312	-2.8708	-2.5604	-2.6042	-2.7667	-2.5208	-2.8167	139.550	228.097	102.299	60.605	-39.365	258.681	257.661	58.645	153.747	281.895	1.601	-61.911	55.207	283.897	0.278	12.335	8.4793e-05	0.00027312	0.00016034	446.44	3.5402e-06	4.9009e-06	524.24	152.69	7.3901e-07	3.1242e-06	216.2	88.008	62.133	25.305	8.0859e-07	41.623	0.00068171	0.0010486	0.00028543	435.14	1.0377e-05	1.1607e-05	514.78	151.4	1.0372e-05	1.1622e-05	212.86	88.064	61.972	25.22	1.0904e-05	41.285	187.026	-7.407	21.197	-58.361	114.423	73.133	-58.831	-52.231	162.674	40.966	-53.990	-49.873	-48.703	-45.026	10.802	-46.482	-8191	255	
15255.827	1	1	0	0	0.23414	0.23279	0.1692	0.18398	0.07311	0.095309	0.082482	0.15677	0.25402	0.16481	0.22033	0.073225	0.17573	0.060467	0.25006	0.30076	-2.3146	-2.3875	-2.7875	-2.6375	-2.6917	-2.9542	-2.4813	-2.6437	-2.7604	-2.3563	-2.8	-2.5792	-2.625	-2.7729	-2.3979	-2.8458	-41.792	-18.374	50.344	169.314	-3.420	232.116	112.524	17.973	66.835	-18.282	112.520	10.796	-55.868	235.498	102.765	264.942	0.00012265	0.00034594	6.1827e-05	447.61	2.9599e-06	3.2784e-06	526.87	153.79	2.7938e-06	4.1727e-06	217.62	89.055	62.397	25.665	4.0476e-06	41.98	0.00068855	0.001043	0.00028665	437.27	1.0418e-05	1.142e-05	517.03	152.35	1.077e-05	1.1891e-05	214.5	88.89	62.471	25.435	1.0934e-05	41.755	161.863	-22.309	16.521	-58.238	104.713	77.420	-58.498	-52.399	79.011	11.524	-54.412	-49.927	-48.688	-44.408	101.149	-46.577	-8191	255	
15255.948	1	1	0	0	0.31416	0.31401	0.14912	0.12888	0.18798	0.22341	0.091532	0.21015	0.24769	0.10371	0.31079	0.10708	0.13763	0.16313	0.18174	0.21716	-2.2062	-2.4729	-2.7958	-2.6854	-2.4104	-3.2333	-2.4271	-2.7375	-2.8479	-2.2313	-2.9042	-2.6271	-2.3979	-2.9188	-2.3021	-2.6625	237.773	226.536	152.330	-41.670	-49.896	116.767	237.608	222.321	130.649	168.191	239.114	236.045	-52.965	188.332	62.886	210.184	0.00013268	0.00027893	0.00015376	448.67	1.905e-06	2.1523e-06	530.13	154.91	1.7121e-06	4.7691e-06	217.6	89.156	62.186	25.574	2.2484e-06	41.464	0.00070005	0.0010696	0.0002867	439.7	1.0427e-05	1.1425e-05	519.58	153.42	1.0531e-05	1.1409e-05	214.71	89.129	62.38	25.371	1.1043e-05	41.335	173.317	17.170	26.641	-58.553	73.231	111.953	-58.359	-52.792	85.359	101.754	-53.721	-50.134	-48.567	-44.944	77.897	-46.325	-8191	255	
15256.044	1	1	0	0	0.17668	0.25797	0.34258	0.079081	0.14032	0.2694	0.071608	0.063907	0.23177	0.23296	0.26528	0.040053	0.10354	0.1513	0.12673	0.22674	-2.2958	-2.2667	-2.7042	-2.6958	-2.5021	-2.8271	-2.7	-2.5333	-2.8146	-2.3646	-2.7438	-2.6854	-2.5104	-2.9104	-2.5438	-2.6146	220.692	22.385	203.517	250.972	235.709	131.707	-70.435	170.906	272.111	-22.478	-19.400	39.813	64.808	120.205	53.793	268.803	0.00011441	0.00011206	5.0714e-05	448.89	5.815e-08	2.4898e-06	529.16	155.17	2.3117e-06	3.3139e-06	219.05	89.139	62.65	25.696	1.5508e-06	42.08	0.00069238	0.0010289	0.00029164	438.66	1.0705e-05	1.1748e-05	519.69	153.34	1.0843e-05	1.1708e-05	215.25	89.298	62.633	25.43	1.081e-05	41.622	175.397	-45.562	-4.182	-58.539	128.662	98.096	-58.899	-52.731	36.474	26.627	-54.134	-49.878	-48.726	-44.869	119.311	-46.452	-8191	255	
15256.116	1	1	0	0	0.20246	0.20167	0.40155	0.18909	0.11144	0.1787	0.1686	0.12236	0.25386	0.2194	0.21837	0.29062	0.19093	0.041158	0.068005	0.23238	-2.4542	-2.3333	-2.6375	-2.8208	-2.4354	-2.8958	-2.6271	-2.4771	-2.9083	-2.3458	-2.7854	-2.7792	-2.4062	-2.9625	-2.6458	-2.5708	176.678	119.652	256.870	-48.205	-36.860	147.979	249.347	248.777	15.795	141.839	107.968	-69.529	-21.129	207.913	154.986	283.679	0.00010181	0.00023895	5.697e-05	450.46	2.7934e-06	3.0259e-06	529.55	155.28	1.2755e-06	5.3389e-06	220.05	90.154	62.672	25.752	2.1567e-06	42.086	0.00068337	0.0010366	0.00028693	441.06	1.0502e-05	1.1445e-05	521.4	153.88	1.0428e-05	1.1482e-05	216.48	89.737	62.929	25.502	1.0883e-05	41.623	154.929	38.131	14.168	-58.207	92.967	102.199	-58.939	-52.015	45.375	78.154	-54.285	-49.956	-48.420	-45.213	115.915	-46.173	-8191	255	
15256.212	1	1	0	0	0.15019	0.056002	0.12226	0.27086	0.24953	0.0024608	0.13388	0.22522	0.22499	0.18663	0.24715	0.093914	0.17389	0.039929	0.18872	0.30141	-2.5854	-2.4938	-2.4521	-3.0292	-2.3604	-2.9979	-2.75	-2.3333	-2.9313	-2.4813	-2.6833	-2.9646	-2.4375	-2.6833	-2.7042	-2.4729	165.673	200.877	199.551	260.622	265.498	188.460	173.394	236.029	20.318	74.216	-69.648	247.196	-20.704	-4.388	166.412	254.487	0.00010462	0.00027933	0.00010943	451.4	2.1796e-06	3.6845e-06	535.48	157.5	1.4755e-06	3.2037e-06	222.05	90.841	63.773	25.716	1.7567e-06	42.15	0.00069418	0.0010376	0.00029188	442.68	1.0521e-05	1.164e-05	524.97	155.24	1.0707e-05	1.1276e-05	218.93	90.596	63.579	25.656	1.1137e-05	41.857	171.155	75.943	37.482	-58.598	73.452	109.962	-58.664	-52.780	128.272	105.862	-54.299	-49.766	-48.542	-44.707	63.852	-46.440	-8191	255	
15256.333	1	1	0	0	0.025644	0.14506	0.38476	0.15695	0.084244	0.074499	0.088373	0.10297	0.058007	0.3245	0.15541	0.20085	0.069247	0.13732	0.1246	0.038907	-2.4813	-2.6583	-2.4896	-2.9208	-2.4958	-2.7292	-2.6542	-2.5563	-2.8271	-2.5542	-2.5896	-3.1021	-2.3812	-2.475	-2.7125	-2.3917	68.807	2.035	257.915	168.235	154.880	39.178	280.302	127.593	-7.863	-22.871	226.893	220.954	275.213	-50.385	188.163	29.407	0.00010783	7.9233e-05	7.6457e-06	453.8	2.5423e-06	3.4674e-06	538.5	156.81	2.471e-06	2.5041e-06	222.01	90.649	63.327	25.571	2.3447e-06	42.191	0.00068919	0.0010244	0.00028992	444.56	1.0175e-05	1.1649e-05	526.74	155.35	1.0576e-05	1.1526e-05	218.25	90.353	63.283	25.543	1.1027e-05	41.857	173.800	-19.917	101.783	-58.561	85.478	69.194	-58.684	-52.839	90.763	91.917	-53.715	-49.834	-49.015	-44.816	49.469	-46.583	-8191	255	
15256.427	1	1	0	0	0.092299	0.11351	0.046419	0.10712	0.25964	0.032184	0.11885	0.2331	0.12299	0.32129	0.042092	0.23751	0.13457	0.030314	0.25059	0.35004	-2.2771	-2.5021	-2.4271	-2.7833	-2.7104	-2.7729	-2.7042	-2.45	-2.7271	-2.675	-2.3875	-2.8729	-2.4667	-2.5167	-2.8917	-2.6771	251.143	46.948	117.001	241.040	11.931	147.137	41.690	219.509	-40.293	62.605	236.916	180.845	-18.348	-36.424	176.990	225.270	8.4584e-05	0.00040696	0.00011583	451.88	4.1412e-06	3.2992e-06	535	158.45	2.3106e-06	4.4103e-06	221.71	91.138	63.893	25.781	1.9253e-06	42.286	0.00067646	0.0010701	0.00030301	443.61	1.0304e-05	1.1451e-05	526.21	155.96	1.0778e-05	1.1441e-05	219.27	90.784	63.838	25.694	1.1107e-05	41.843	173.527	21.856	51.440	-58.438	53.888	88.856	-58.921	-52.499	99.696	67.061	-54.076	-50.035	-48.613	-45.102	103.485	-46.650	-8191	255	
15256.523	1	1	0	0	0.049138	0.088013	0.18474	0.22229	0.22877	0.034665	0.060971	0.2823	0.18946	0.17225	0.18673	0.10988	0.15946	0.25367	0.12666	0.067468	-2.1042	-2.6104	-2.3063	-2.6125	-2.4542	-2.6146	-2.8104	-2.6437	-2.825	-2.7583	-2.4021	-3.0667	-2.4188	-2.5312	-2.8875	-2.4708	159.393	118.805	-43.717	207.798	174.883	255.961	-30.829	228.128	195.656	-4.193	186.804	169.476	5.731	138.878	273.295	-10.823	0.00016137	0.00023129	0.00010979	455.3	1.914e-06	3.7662e-06	536.68	158.52	2.4032e-06	5.2007e-06	222.72	90.942	63.921	25.855	3.0706e-06	42.056	0.0006937	0.0010379	0.00029832	445.16	1.0258e-05	1.1995e-05	527.62	156.55	1.0837e-05	1.173e-05	219.23	90.847	64.022	25.74	1.1187e-05	41.802	166.440	4.000	-12.372	-58.537	99.616	71.784	-58.778	-52.734	59.391	121.149	-54.243	-50.260	-48.783	-44.621	103.479	-46.883	-8191	255	
15256.619	1	1	0	0	0.16407	0.28523	0.22424	0.089428	0.037124	0.14255	0.1177	0.29032	0.19493	0.22083	0.17379	0.021434	0.37238	0.18561	0.12479	0.2417	-2.25	-2.7167	-2.3354	-2.775	-2.3771	-2.5667	-2.9188	-2.5479	-2.625	-2.6958	-2.2771	-2.8438	-2.5729	-2.6125	-2.9188	-2.45	228.430	264.889	47.236	166.291	136.511	147.503	268.043	279.193	230.592	274.666	285.760	23.897	285.416	58.739	191.371	20.012	0.00011765	0.00040516	0.00011595	457.09	2.1642e-06	5.3999e-06	539.01	158.7	8.158e-07	3.0465e-06	223.68	92.329	64.545	26.076	2.3917e-06	42.191	0.00069196	0.0010718	0.0002992	446.11	1.0564e-05	1.1588e-05	529.43	156.65	1.0543e-05	1.1543e-05	220.58	91.612	64.224	25.904	1.1068e-05	42.036	164.713	26.442	13.361	-58.466	65.986	109.307	-58.703	-52.475	128.758	38.031	-54.164	-50.156	-48.685	-44.813	20.255	-46.755	-8191	255	
15256.715	1	1	0	0	0.05888	0.14886	0.25727	0.33276	0.04835	0.14912	0.33725	0.2395	0.050725	0.15542	0.091112	0.26324	0.14181	0.16955	0.23413	0.11724	-1.9625	-2.7208	-2.2667	-2.7458	-2.4979	-2.5062	-3.0104	-2.4375	-2.6896	-2.9729	-2.4938	-2.7604	-2.6833	-2.3521	-2.9021	-2.6	112.065	170.124	10.602	-48.133	163.067	261.867	229.371	189.217	215.082	-40.628	249.464	-43.373	204.939	244.546	104.528	116.963	0.00013115	0.00022929	0.00013428	458.28	2.8776e-06	4.2434e-06	539.81	159.52	2.8879e-06	3.8923e-06	223.48	91.747	63.981	25.887	4.6758e-06	42.322	0.00066568	0.0010626	0.00029203	448.67	1.031e-05	1.1621e-05	531	157.16	1.0327e-05	1.1763e-05	220.48	91.529	64.15	25.748	1.0852e-05	41.815	162.436	42.015	8.455	-58.595	28.077	55.263	-58.573	-53.022	84.489	108.388	-54.504	-50.257	-48.860	-45.207	54.667	-46.606	-8191	255	
15256.812	1	1	0	0	0.029796	0.2142	0.11059	0.11303	0.17294	0.23556	0.11916	0.10913	0.067206	0.13675	0.10462	0.25572	0.28893	0.19529	0.16957	0.039896	-2.2	-2.85	-2.2729	-2.5771	-2.5396	-2.2	-3.0104	-2.6063	-2.6771	-2.85	-2.5417	-2.7583	-2.7125	-2.2354	-2.9	-2.8042	-49.627	119.763	-3.882	282.550	238.727	-10.681	-53.012	-70.559	179.668	184.884	37.182	36.324	228.253	-21.440	-8.918	139.364	0.00014181	0.00010763	7.3182e-05	457.74	3.539e-06	3.2228e-06	538.04	160.22	2.4359e-06	3.2338e-06	225.28	91.47	64.39	25.84	3.623e-06	41.933	0.00069764	0.0010464	0.00029217	448.76	1.0395e-05	1.1794e-05	530.59	157.55	1.0592e-05	1.1366e-05	221	91.339	64.225	25.751	1.0617e-05	41.649	178.266	49.106	9.087	-58.393	110.178	123.804	-58.520	-52.989	75.087	86.884	-54.382	-49.931	-48.946	-44.776	72.100	-46.813	-8191	255	
15256.932	1	1	0	0	0.17472	0.18312	0.28493	0.1066	0.22599	0.18259	0.33203	0.3859	0.30412	0.36494	0.12399	0.065727	0.037173	0.10171	0.14175	0.14927	-2.0021	-3.1625	-2.5667	-2.525	-2.8312	-2.55	-2.8708	-2.4208	-2.5521	-2.9562	-2.5312	-2.8042	-3.0583	-2.5396	-2.9625	-2.7417	-14.948	-33.751	285.763	-36.564	31.417	171.718	267.866	-27.067	51.697	203.685	39.088	112.780	124.515	244.285	109.495	252.598	9.1514e-05	0.00022997	0.00012714	459.76	1.3936e-06	5.003e-06	541.02	158.7	2.3655e-06	2.5088e-06	223.2	91.593	64.007	25.522	1.7655e-06	41.904	0.00070885	0.0010355	0.0002879	449.94	1.0417e-05	1.1687e-05	532.22	157.14	1.0888e-05	1.1841e-05	219.69	91.237	64.209	25.605	1.0904e-05	41.581	175.754	5.436	0.647	-58.243	110.465	46.367	-58.949	-52.758	67.561	72.790	-54.083	-50.248	-48.813	-44.734	70.903	-46.370	-8191	255	
15257.028	1	1	0	0	0.020856	0.1759	0.077084	0.24221	0.14099	0.191	0.02685	0.037385	0.18033	0.065784	0.11536	0.18075	0.20139	0.16924	0.023145	0.073749	-2.0271	-2.95	-2.4146	-2.7792	-2.9146	-2.2958	-2.8104	-2.7042	-2.4333	-2.7833	-2.6229	-2.5896	-2.8875	-2.3563	-2.7458	-2.6188	114.331	-0.472	50.942	-1.444	107.090	-22.288	149.471	36.132	-58.818	137.757	18.602	144.780	145.825	262.999	286.219	172.564	8.7703e-05	0.00030878	8.4623e-05	457.97	2.5305e-06	5.7507e-06	536	158.51	8.5901e-07	1.6012e-06	224.82	91.565	64.759	25.826	1.7939e-06	41.918	0.00069515	0.0010131	0.00029643	448.53	1.0525e-05	1.1769e-05	529.61	156.76	1.0705e-05	1.1392e-05	220.55	91.467	64.468	25.658	1.0528e-05	41.587	174.689	-19.978	-5.417	-58.360	131.784	83.100	-58.675	-52.716	-24.786	126.943	-54.252	-50.038	-48.983	-44.624	77.536	-46.492	-8191	255	
15257.124	1	1	0	0	0.21393	0.090638	0.12958	0.2815	0.047107	0.24082	0.17087	0.29087	0.23141	0.24903	0.2144	0.1528	0.15811	0.21464	0.20629	0.23077	-1.9062	-2.8375	-2.7188	-2.6354	-2.8937	-2.425	-2.7833	-2.7396	-2.4208	-2.9417	-2.4458	-2.5875	-2.9479	-2.5083	-2.6271	-2.8792	114.125	205.796	133.964	-6.863	-35.729	131.030	285.646	222.322	-53.631	-12.455	117.315	268.460	185.579	275.672	14.640	119.609	0.00012475	0.00057908	0.00012812	457.51	1.5086e-06	4.1619e-06	544.32	157.64	3.6208e-06	4.896e-06	223.21	91.619	64.067	25.754	3.4766e-06	41.788	0.00069013	0.0010168	0.00029378	447.53	1.0483e-05	1.1511e-05	530.79	156.74	1.0601e-05	1.1156e-05	219.85	91.162	64.238	25.566	1.078e-05	41.419	179.027	36.188	30.339	-58.191	87.206	53.235	-58.589	-52.594	50.690	89.395	-54.185	-50.113	-49.136	-44.755	51.714	-46.417	-8191	255	
15257.221	1	1	0	0	0.032027	0.20512	0.075964	0.16965	0.074524	0.19605	0.26781	0.18874	0.11793	0.19357	0.39661	0.14684	0.040742	0.032452	0.13463	0.20631	-1.7792	-2.7542	-2.4521	-2.4625	-2.8708	-2.4208	-2.6104	-2.7438	-2.5104	-2.7333	-2.8063	-2.5917	-2.8729	-2.4458	-2.5646	-2.8417	208.084	-63.628	-44.953	241.688	5.406	167.932	200.497	269.305	43.429	244.004	27.104	-54.794	195.088	12.183	207.588	-16.150	9.4949e-05	0.00020594	5.7053e-05	460.07	1.1983e-06	1.5772e-06	537.47	158.58	1.2682e-06	1.8664e-06	221.83	91.554	64.11	25.846	2.443e-06	41.756	0.00069021	0.0010067	0.00028733	448.54	1.0645e-05	1.1216e-05	529.45	157.12	1.0869e-05	1.1282e-05	219.63	91.228	64.31	25.7	1.0912e-05	41.443	175.355	20.259	-30.544	-58.820	62.116	88.524	-58.823	-52.708	91.624	94.847	-54.033	-50.130	-48.953	-44.891	97.042	-46.479	-8191	255	
15257.317	1	1	0	0	0.1554	0.19373	0.15267	0.32004	0.087467	0.21516	0.060265	0.36706	0.17323	0.11989	0.16257	0.32716	0.15206	0.23364	0.24801	0.10502	-2.0229	-2.8333	-2.6312	-2.3583	-3.0896	-2.3458	-2.6042	-2.8917	-2.4417	-2.7917	-2.7687	-2.5646	-2.8979	-2.5396	-2.5667	-2.9396	231.271	256.960	181.497	-53.398	143.978	-46.814	-4.310	25.010	-53.855	17.407	-63.928	276.129	273.551	227.429	183.229	256.238	0.00011863	0.00029886	4.6759e-05	456.33	1.0614e-06	1.254e-06	541.75	158.62	8.8621e-07	5.9409e-07	224.01	91.571	63.776	25.698	4.1573e-06	41.682	0.00070686	0.0010165	0.00028851	447.37	1.0381e-05	1.1511e-05	529.76	156.63	1.0926e-05	1.1317e-05	219.78	91.164	64.055	25.629	1.1147e-05	41.306	170.126	-8.377	56.959	-57.987	112.631	104.196	-58.903	-52.803	110.209	25.440	-54.298	-50.281	-48.705	-45.128	89.882	-46.393	-8191	255	
15257.411	1	1	0	0	0.10472	0.1196	0.088152	0.0768	0.17714	0.016467	0.14397	0.24461	0.20514	0.12213	0.081035	0.1647	0.1487	0.33062	0.27672	0.13864	-1.9542	-2.7333	-2.6146	-2.4188	-2.7833	-2.6813	-2.6208	-2.9417	-2.3229	-2.6646	-2.6979	-2.4875	-2.6521	-2.6562	-2.5083	-3.0167	229.587	-67.421	-12.493	191.112	103.692	-1.017	187.576	32.565	-19.627	28.415	172.112	24.321	-28.726	239.076	76.092	227.203	0.00010754	9.5356e-05	0.00011533	456.5	1.8271e-06	2.7131e-06	536.78	159.13	3.4066e-06	4.4249e-06	222.08	91.312	64.024	25.81	1.622e-06	41.734	0.00069305	0.0010223	0.00029317	447.4	1.0323e-05	1.1382e-05	529.74	156.92	1.0567e-05	1.1368e-05	219.87	91.19	64.184	25.653	1.0994e-05	41.454	174.818	-27.161	38.797	-58.324	101.717	91.766	-58.377	-52.831	101.733	83.399	-53.875	-50.148	-48.852	-45.108	69.375	-46.745	-8191	255	
15257.507	1	1	0	0	0.048866	0.20062	0.28621	0.17157	0.076475	0.1973	0.26256	0.21366	0.22907	0.1491	0.13359	0.10489	0.245	0.24566	0.21748	0.29337	-2.0333	-2.5563	-2.7146	-2.3958	-2.8187	-2.8542	-2.5521	-3.1917	-2.4562	-2.7583	-2.875	-2.4042	-2.8167	-2.6562	-2.4938	-3.1042	224.970	-22.411	-45.766	36.149	260.343	-27.937	82.593	-21.502	87.262	103.713	285.960	186.356	54.344	261.596	286.842	141.209	0.00012443	0.00011662	5.3468e-05	456.64	9.6377e-07	4.0947e-06	539.76	157.15	2.5078e-06	3.4923e-06	222.9	90.541	63.651	25.597	2.1391e-07	41.507	0.00067825	0.00105	0.0003001	447.11	1.0219e-05	1.1663e-05	528.25	156.1	1.0798e-05	1.139e-05	218.69	90.27	63.807	25.512	1.1181e-05	41.131	172.414	1.524	68.351	-58.591	73.581	83.137	-58.520	-52.611	107.560	85.243	-54.582	-49.974	-48.689	-44.986	266.994	-46.328	-8191	255	
15257.628	1	1	0	0	0.17545	0.043938	0.23538	0.2203	0.12559	0.16065	0.18628	0.27138	0.26864	0.25526	0.060985	0.11619	0.12418	0.22983	0.089062	0.078756	-2.0625	-2.6125	-2.7104	-2.5917	-2.7979	-2.6979	-2.5187	-2.8833	-2.5583	-2.5271	-3.0396	-2.6063	-2.9562	-2.8375	-2.3833	-2.9271	185.823	103.180	26.540	264.542	120.655	-69.728	185.080	231.444	12.686	152.757	262.925	262.344	-32.867	233.987	133.802	59.681	0.00011252	0.00032645	2.4913e-05	454.26	2.2164e-06	4.672e-06	536.35	158.02	1.0426e-06	4.2805e-06	218.9	90.974	63.47	25.434	2.6535e-06	41.241	0.0006656	0.0010338	0.00029689	445.25	1.0286e-05	1.1485e-05	526.03	155.56	1.0661e-05	1.1829e-05	217.24	90.066	63.427	25.356	1.1367e-05	40.923	169.480	71.946	68.743	-58.310	79.002	62.032	-58.822	-52.718	109.714	109.034	-54.478	-50.165	-48.463	-44.725	63.336	-46.614	-8191	255	
15257.724	1	1	0	0	0.12331	0.13692	0.36635	0.049176	0.12025	0.089974	0.26791	0.23739	0.044822	0.081262	0.13845	0.13235	0.20329	0.18666	0.19912	0.06143	-2.0854	-2.4708	-2.7188	-2.6188	-2.8146	-2.7417	-2.4875	-2.775	-2.5167	-2.3187	-2.9625	-2.6312	-2.725	-2.9354	-2.3146	-2.9771	132.602	109.195	38.888	98.307	215.754	147.878	247.347	278.062	180.732	86.637	31.061	178.894	-47.838	238.607	217.973	39.022	9.1567e-05	0.00028874	9.3923e-05	451.27	3.4456e-06	4.1006e-06	536.07	157.05	1.3916e-06	2.4091e-06	221.48	89.911	63.349	25.429	3.0188e-06	41.358	0.00069415	0.0010219	0.0002881	443.26	1.0076e-05	1.1591e-05	524.43	155.17	1.0523e-05	1.1485e-05	217.18	89.827	63.223	25.352	1.1439e-05	40.964	168.023	37.834	-5.151	-58.595	44.894	62.849	-58.821	-52.606	64.614	109.110	-54.290	-49.875	-48.697	-44.868	163.382	-46.621	-8191	255	
#DATA ENDS
