BOXY.EXE: ISS Imagent and Oximeter Data Acquisition Program Version 0.80
Ascii Record File

#ACQ INFORMATION
2  Detector Channels 
16  External MUX Channels 
1  Auxiliary Channels 
5000  Waveform (CCF) Frequency (Hz)
1  Waveforms Skipped 
30  Waveforms Averaged 
1  Cycles Averaged 
16  Acquisitions per Waveform 
10.0806  Updata Rate (Hz) 

#FILE INFORMATION
TRUE -- External MUX Channel results are PARSED.
FALSE -- AC DC and Phase are NOT grouped.
TRUE -- Companion Program Settings File CREATED.
FALSE -- AC data not excluded
FALSE -- DC data not excluded
FALSE -- Phase data not excluded
FALSE -- Auxillary Chn. data not excluded
Tab delimiters

#CALIBRATION STATE
TRUE -- Waveform Calibration Values APPLIED.


#AUX CALIBRATION VALUES
Val Type	aux-1	

Term	1.0000e+00	
Factor	0.0000e+00	


#WF CALIBRATION VALUES
A = Detector Channel
Val Type	A-AC1	A-AC2	A-AC3	A-AC4	A-AC5	A-AC6	A-AC7	A-AC8	A-AC9	A-AC10	A-AC11	A-AC12	A-AC13	A-AC14	A-AC15	A-AC16	A-DC1	A-DC2	A-DC3	A-DC4	A-DC5	A-DC6	A-DC7	A-DC8	A-DC9	A-DC10	A-DC11	A-DC12	A-DC13	A-DC14	A-DC15	A-DC16	A-Ph1	A-Ph2	A-Ph3	A-Ph4	A-Ph5	A-Ph6	A-Ph7	A-Ph8	A-Ph9	A-Ph10	A-Ph11	A-Ph12	A-Ph13	A-Ph14	A-Ph15	A-Ph16	

Term	0.00000e+00	0.00000e+00	0.00000e+00	0.00000e+00	0.00000e+00	0.00000e+00	0.00000e+00	0.00000e+00	0.00000e+00	0.00000e+00	0.00000e+00	0.00000e+00	0.00000e+00	0.00000e+00	0.00000e+00	0.00000e+00	0.00000e+00	0.00000e+00	0.00000e+00	0.00000e+00	0.00000e+00	0.00000e+00	0.00000e+00	0.00000e+00	0.00000e+00	0.00000e+00	0.00000e+00	0.00000e+00	0.00000e+00	0.00000e+00	0.00000e+00	0.00000e+00	0.00000e+00	0.00000e+00	0.00000e+00	0.00000e+00	0.00000e+00	0.00000e+00	0.00000e+00	0.00000e+00	0.00000e+00	0.00000e+00	0.00000e+00	0.00000e+00	0.00000e+00	0.00000e+00	0.00000e+00	0.00000e+00	
Factor	1.00000e+00	1.00000e+00	1.00000e+00	1.00000e+00	1.00000e+00	1.00000e+00	1.00000e+00	1.00000e+00	1.00000e+00	1.00000e+00	1.00000e+00	1.00000e+00	1.00000e+00	1.00000e+00	1.00000e+00	1.00000e+00	1.00000e+00	1.00000e+00	1.00000e+00	1.00000e+00	1.00000e+00	1.00000e+00	1.00000e+00	1.00000e+00	1.00000e+00	1.00000e+00	1.00000e+00	1.00000e+00	1.00000e+00	1.00000e+00	1.00000e+00	1.00000e+00	X	X	X	X	X	X	X	X	X	X	X	X	X	X	X	X	

B = Detector Channel
Val Type	B-AC1	B-AC2	B-AC3	B-AC4	B-AC5	B-AC6	B-AC7	B-AC8	B-AC9	B-AC10	B-AC11	B-AC12	B-AC13	B-AC14	B-AC15	B-AC16	B-DC1	B-DC2	B-DC3	B-DC4	B-DC5	B-DC6	B-DC7	B-DC8	B-DC9	B-DC10	B-DC11	B-DC12	B-DC13	B-DC14	B-DC15	B-DC16	B-Ph1	B-Ph2	B-Ph3	B-Ph4	B-Ph5	B-Ph6	B-Ph7	B-Ph8	B-Ph9	B-Ph10	B-Ph11	B-Ph12	B-Ph13	B-Ph14	B-Ph15	B-Ph16	

Term	0.00000e+00	0.00000e+00	0.00000e+00	0.00000e+00	0.00000e+00	0.00000e+00	0.00000e+00	0.00000e+00	0.00000e+00	0.00000e+00	0.00000e+00	0.00000e+00	0.00000e+00	0.00000e+00	0.00000e+00	0.00000e+00	0.00000e+00	0.00000e+00	0.00000e+00	0.00000e+00	0.00000e+00	0.00000e+00	0.00000e+00	0.00000e+00	0.00000e+00	0.00000e+00	0.00000e+00	0.00000e+00	0.00000e+00	0.00000e+00	0.00000e+00	0.00000e+00	-2.01755e+02	-1.34409e+02	-1.35399e+02	-1.83083e+02	-7.80460e+01	-8.12555e+01	-1.60467e+02	-1.62015e+02	-8.85724e+01	-1.01881e+02	-1.72403e+02	-1.72793e+02	-1.83201e+02	-1.78124e+02	-8.67152e+01	-1.50843e+02	
Factor	3.95846e-05	9.73124e-05	3.25810e-05	1.60056e-01	1.18439e-06	1.23687e-06	1.74041e-01	5.40722e-02	1.55454e-06	1.21527e-06	8.19567e-02	2.70238e-02	2.54596e-02	8.25599e-03	1.22934e-06	1.17843e-02	1.81825e-06	1.89526e-06	5.27697e-07	8.49425e-02	2.06298e-08	2.08177e-08	8.67731e-02	2.86734e-02	2.06830e-08	2.08248e-08	4.19639e-02	1.38319e-02	1.35346e-02	4.39431e-03	2.08435e-08	6.06864e-03	X	X	X	X	X	X	X	X	X	X	X	X	X	X	X	X	



#DISTANCE SETTINGS
A = Detector Channel
A-1	A-2	A-3	A-4	A-5	A-6	A-7	A-8	A-9	A-10	A-11	A-12	A-13	A-14	A-15	A-16	

2.5000e+00	3.0000e+00	2.5000e+00	3.0000e+00	2.0000e+00	3.0000e+00	1.5000e+00	3.0000e+00	3.0000e+00	3.0000e+00	3.0000e+00	3.0000e+00	3.0000e+00	3.0000e+00	1.5000e+00	3.0000e+00	

B = Detector Channel
B-1	B-2	B-3	B-4	B-5	B-6	B-7	B-8	B-9	B-10	B-11	B-12	B-13	B-14	B-15	B-16	

1.0000e+01	1.0000e+01	1.0000e+01	1.4400e+00	1.0000e+01	1.0000e+01	1.5100e+00	1.9400e+00	1.0000e+01	1.0000e+01	1.9900e+00	2.4900e+00	2.4100e+00	2.9000e+00	1.0000e+01	2.9800e+00	




#DATA BEGINS
time	group	step	mark	flag	A-AC1	A-AC2	A-AC3	A-AC4	A-AC5	A-AC6	A-AC7	A-AC8	A-AC9	A-AC10	A-AC11	A-AC12	A-AC13	A-AC14	A-AC15	A-AC16	A-DC1	A-DC2	A-DC3	A-DC4	A-DC5	A-DC6	A-DC7	A-DC8	A-DC9	A-DC10	A-DC11	A-DC12	A-DC13	A-DC14	A-DC15	A-DC16	A-Ph1	A-Ph2	A-Ph3	A-Ph4	A-Ph5	A-Ph6	A-Ph7	A-Ph8	A-Ph9	A-Ph10	A-Ph11	A-Ph12	A-Ph13	A-Ph14	A-Ph15	A-Ph16	B-AC1	B-AC2	B-AC3	B-AC4	B-AC5	B-AC6	B-AC7	B-AC8	B-AC9	B-AC10	B-AC11	B-AC12	B-AC13	B-AC14	B-AC15	B-AC16	B-DC1	B-DC2	B-DC3	B-DC4	B-DC5	B-DC6	B-DC7	B-DC8	B-DC9	B-DC10	B-DC11	B-DC12	B-DC13	B-DC14	B-DC15	B-DC16	B-Ph1	B-Ph2	B-Ph3	B-Ph4	B-Ph5	B-Ph6	B-Ph7	B-Ph8	B-Ph9	B-Ph10	B-Ph11	B-Ph12	B-Ph13	B-Ph14	B-Ph15	B-Ph16	aux-1	digaux	

13995.361	1	1	0	768	0.15796	0.075124	0.15391	0.38929	0.16159	0.29941	0.21831	0.091494	0.13802	0.16069	0.19452	0.35677	0.07857	0.15414	0.20406	0.28135	-2.0208	-2.4604	-2.6417	-2.5	-2.4813	-2.8021	-2.5271	-3.0604	-2.3729	-2.5104	-2.9354	-2.4062	-2.6667	-2.675	-2.3667	-2.8125	-16.714	183.884	269.785	211.802	210.623	255.769	229.417	165.299	114.623	18.359	-43.906	244.214	91.766	-88.634	117.697	-87.560	0.0004938	0.00037971	0.00028508	1498	5.6435e-06	5.3268e-06	1491	398.15	1.5156e-05	9.7659e-06	451.42	146.67	126.32	42.96	1.0139e-05	53.601	0.0016587	0.0017139	0.00047513	1564.6	1.8729e-05	1.9111e-05	1564.4	423.39	1.8949e-05	1.9198e-05	484.97	158.27	137.57	46.826	1.9199e-05	58.813	109.448	254.181	-22.254	-76.813	64.788	-12.777	-76.777	-72.104	11.631	63.172	-72.477	-68.520	-67.868	-63.357	99.098	-63.694	-8191	255	
13995.457	1	1	0	0	0.172	0.17567	0.097231	0.37301	0.076534	0.0092352	0.20195	0.1929	0.2455	0.2716	0.10488	0.20012	0.054241	0.22739	0.096985	0.29253	-2.0125	-2.2938	-2.8333	-2.425	-2.4771	-2.6354	-2.5042	-3.0208	-2.4583	-2.1917	-2.875	-2.3167	-2.5521	-2.7729	-2.3063	-2.7229	-25.267	250.479	99.790	211.784	22.422	240.242	226.698	189.354	21.538	13.500	-10.788	-43.996	-8.928	-65.548	21.334	177.806	0.00021347	0.00075893	0.00023181	1493.1	3.3771e-06	1.0337e-05	1490.8	398.5	3.0506e-06	5.6668e-06	451.96	147.03	126.71	43.071	9.2872e-06	53.629	0.0016925	0.001744	0.00047856	1563.1	1.8864e-05	1.8954e-05	1561.1	422.37	1.8476e-05	1.851e-05	483.13	157.82	137.08	46.544	1.8117e-05	58.495	97.090	45.753	-90.037	-76.450	37.773	-77.497	-76.740	-72.324	-15.937	40.126	-72.787	-68.412	-67.668	-63.341	137.949	-63.923	-8191	255	
13995.553	1	1	0	0	0.16493	0.2472	0.35352	0.31272	0.20862	0.26745	0.21579	0.21041	0.27767	0.16297	0.25996	0.082098	0.1634	0.14648	0.0013104	0.19098	-2.1125	-2.175	-2.6521	-2.6354	-2.3958	-2.7208	-2.4688	-2.7021	-2.4917	-2.3229	-2.9	-2.4104	-2.5271	-2.7083	-2.4583	-2.6854	148.801	125.732	240.325	190.593	4.028	199.953	181.833	246.365	105.923	224.479	189.732	220.580	268.706	256.777	180.000	262.803	0.00038909	0.0004845	0.00011812	1490.8	7.4142e-06	7.4825e-06	1483.4	397.79	8.4614e-06	1.4819e-05	451.09	146.45	125.93	42.791	6.754e-06	53.476	0.0016101	0.0016602	0.0004548	1555.5	1.7771e-05	1.7927e-05	1554.3	421.39	1.7869e-05	1.7893e-05	481.31	157.15	136.48	46.557	1.801e-05	58.533	140.698	9.520	19.601	-76.797	-71.003	106.348	-76.603	-72.067	-24.101	-1.402	-72.683	-68.387	-67.582	-62.949	-85.943	-63.879	-8191	255	
13995.649	1	1	0	0	0.09069	0.13529	0.20093	0.25914	0.14058	0.068884	0.052259	0.1784	0.14328	0.05562	0.30272	0.050013	0.084873	0.27485	0.29597	0.099113	-2.0646	-2.2625	-2.6063	-2.5563	-2.5792	-2.7542	-2.475	-2.7917	-2.6896	-2.4021	-2.7	-2.5333	-2.3833	-2.8563	-2.3312	-2.7542	77.426	-67.416	204.966	-62.198	15.367	261.857	193.953	157.683	126.961	116.369	12.595	-51.409	98.738	259.216	221.389	190.105	0.00033802	0.00045701	0.00015548	1496.4	7.738e-06	8.367e-06	1492	398.11	5.2117e-06	1.1144e-05	451.18	146.18	125.86	42.754	1.8035e-06	53.609	0.0016325	0.0016734	0.00047076	1560.9	1.8459e-05	1.8526e-05	1560.8	422.28	1.8451e-05	1.8486e-05	482.44	157.72	137	46.477	1.8402e-05	58.539	112.884	179.136	180.325	-76.815	-47.452	39.729	-76.669	-72.411	38.720	53.172	-72.510	-68.598	-67.902	-63.097	255.829	-63.640	-8191	255	
13995.745	1	1	0	0	0.10931	0.5157	0.0091974	0.24236	0.31903	0.16389	0.327	0.437	0.14633	0.12385	0.19206	0.24776	0.15106	0.22146	0.1776	0.15236	-2.1396	-2.1917	-2.5229	-2.6458	-2.3458	-2.8083	-2.525	-2.6458	-2.7583	-2.2667	-2.6729	-2.5771	-2.3833	-2.8771	-2.3063	-2.4521	197.542	-75.320	2.347	265.296	7.951	108.350	261.307	174.432	266.130	24.395	-63.749	252.434	264.821	-72.385	133.163	-79.615	0.00022855	0.00062792	0.0002069	1501.5	2.1706e-06	1.0175e-05	1486.7	398.03	1.0629e-05	8.3462e-06	452.62	146.46	126.72	43.184	7.4377e-06	53.612	0.0016306	0.0016834	0.00046692	1562.7	1.8297e-05	1.8415e-05	1558.9	422.11	1.8451e-05	1.8502e-05	483.12	157.74	137.31	46.716	1.8592e-05	58.747	116.924	7.163	42.710	-76.569	230.683	28.156	-76.706	-72.045	36.056	34.582	-72.572	-68.475	-68.023	-63.106	-79.492	-63.700	-8191	255	
13995.841	1	1	0	0	0.16513	0.36832	0.20295	0.10568	0.0081851	0.1469	0.23914	0.44653	0.058816	0.15618	0.18333	0.13119	0.25202	0.49681	0.14997	0.10643	-2.4021	-2.0542	-2.7083	-2.7521	-2.3042	-2.65	-2.6312	-2.5125	-2.7104	-2.3021	-2.8104	-2.8854	-2.5125	-2.6625	-2.3521	-2.6167	87.111	93.636	-20.282	248.435	-30.932	-64.619	183.127	223.959	189.870	117.131	238.808	190.420	195.759	200.680	172.506	227.283	0.00033037	0.00052468	0.00020357	1492.4	6.5194e-07	3.3216e-06	1490.8	398.49	7.9612e-06	8.0306e-06	451.55	146.01	125.95	42.806	8.4123e-06	53.71	0.0016515	0.0016969	0.00047718	1559.2	1.8498e-05	1.8566e-05	1560	422.65	1.8596e-05	1.8685e-05	483.09	157.77	136.87	46.655	1.8722e-05	58.83	107.279	251.172	-59.534	-76.656	-62.704	100.914	-76.950	-72.165	182.114	64.292	-72.618	-68.815	-67.605	-63.131	152.929	-63.679	-8191	255	
13995.962	1	1	0	0	0.24517	0.14037	0.39971	0.26998	0.10796	0.165	0.12704	0.24209	0.18946	0.097329	0.23943	0.092428	0.16189	0.20523	0.37059	0.38878	-2.2125	-2.1292	-2.5854	-2.5979	-2.1542	-2.5625	-2.7396	-2.3896	-2.7292	-2.4021	-2.6125	-2.8771	-2.3229	-2.7729	-2.3875	-2.5771	-71.135	73.718	-55.121	260.031	-57.543	40.616	242.108	-60.588	38.383	-63.964	-41.104	199.906	213.197	-81.048	-77.050	163.411	0.00048344	0.00026527	0.00018668	1488.5	7.3371e-06	4.1202e-06	1486.6	398.67	3.4843e-06	1.0642e-05	451.64	146.36	126.4	42.798	9.1752e-06	53.825	0.0016408	0.0016928	0.00047366	1560.2	1.8332e-05	1.8474e-05	1559.7	422.94	1.8377e-05	1.8646e-05	483.84	158.11	137.03	46.569	1.8622e-05	58.832	125.010	70.032	70.749	-76.673	37.094	18.024	-76.816	-72.228	-21.640	21.181	-72.371	-68.255	-68.111	-63.139	66.831	-64.030	-8191	255	
13996.058	1	1	0	0	0.14558	0.12804	0.099316	0.34643	0.087361	0.1983	0.33846	0.21883	0.057993	0.0097865	0.15099	0.25148	0.39497	0.14319	0.15709	0.38126	-2.2687	-2.3979	-2.5896	-3.0042	-2.3229	-2.6604	-2.7	-2.4521	-2.7208	-2.3021	-2.5729	-2.8479	-2.4021	-2.7646	-2.5646	-2.3729	-47.524	268.734	-53.425	204.937	11.566	253.809	218.259	219.821	124.733	-88.526	29.734	2.784	264.480	236.400	-19.085	211.839	0.00020456	2.4496e-05	0.00030371	1492.2	1.5242e-05	4.3546e-06	1487.1	400.39	3.5841e-06	8.4911e-06	451.68	145.91	126.1	42.697	2.9762e-06	53.719	0.0016462	0.0016957	0.00047282	1560.1	1.8524e-05	1.8444e-05	1559.6	423.14	1.8423e-05	1.8617e-05	483.02	157.65	136.82	46.62	1.866e-05	58.657	125.587	227.292	-32.401	-76.604	109.473	8.455	-76.529	-72.138	-18.322	20.169	-72.628	-68.500	-67.746	-63.111	104.734	-63.875	-8191	255	
13996.153	1	1	0	0	0.2376	0.10427	0.16166	0.066305	0.34895	0.18289	0.38268	0.17395	0.10378	0.087341	0.084807	0.321	0.22373	0.17278	0.052547	0.17294	-2.3042	-2.5146	-2.4771	-2.9625	-2.2604	-2.6417	-2.8438	-2.4854	-2.6542	-2.3583	-2.5021	-2.7896	-2.5	-2.6125	-2.5667	-2.3792	206.425	201.104	217.987	-82.203	-21.578	28.794	206.831	188.051	195.257	127.343	-71.701	248.881	245.224	157.986	6.202	219.516	0.00044143	0.00018451	0.00015333	1496.1	8.9039e-06	7.4818e-06	1490.3	399.08	1.3299e-05	3.3585e-06	453.31	145.83	126.25	43.026	4.9402e-06	53.643	0.0016435	0.0016877	0.0004715	1560.7	1.8117e-05	1.8388e-05	1562.1	422.17	1.8315e-05	1.8392e-05	484.26	157.78	136.98	46.668	1.8535e-05	58.696	88.201	-60.229	-19.726	-76.492	118.215	5.115	-76.781	-72.100	8.577	-3.889	-72.461	-68.344	-67.620	-63.089	121.115	-63.942	-8191	255	
13996.251	1	1	0	0	0.26256	0.13718	0.21339	0.12531	0.2733	0.021616	0.17797	0.065809	0.23757	0.20289	0.18525	0.26651	0.227	0.14036	0.4086	0.22065	-2.4437	-2.6229	-2.3333	-3.1729	-2.3937	-2.3333	-2.8708	-2.5604	-2.6063	-2.5312	-2.525	-2.9229	-2.475	-2.6354	-2.4979	-2.1771	203.729	68.816	184.095	262.121	106.402	184.290	188.859	209.426	99.884	18.247	218.571	-73.669	244.815	200.265	-75.967	206.321	0.00036252	0.00043997	0.00029619	1496.8	2.5505e-06	7.7552e-06	1490.4	398.91	1.0647e-05	7.0853e-06	451.55	146.35	126.05	42.96	7.5801e-06	53.484	0.0016415	0.0016946	0.00046881	1563.4	1.8407e-05	1.8549e-05	1560.9	422.87	1.8219e-05	1.8418e-05	482.89	157.89	136.96	46.648	1.8363e-05	58.59	118.624	259.138	-50.204	-76.584	30.807	-10.799	-76.710	-72.330	-14.973	19.646	-72.447	-68.479	-67.722	-62.986	20.083	-63.631	-8191	255	
13996.345	1	1	0	0	0.15575	0.1885	0.12581	0.086069	0.086254	0.19577	0.23846	0.10995	0.16788	0.22271	0.2477	0.078875	0.16868	0.24961	0.14941	0.14467	-2.2625	-2.4792	-2.1063	-2.8333	-2.3583	-2.4333	-2.8375	-2.1917	-2.5938	-2.7313	-2.3875	-2.7958	-2.5563	-2.6417	-2.8479	-2.4854	266.659	-62.367	139.847	-16.131	159.423	110.651	208.252	-86.921	-80.792	4.917	213.966	161.522	153.131	221.329	-15.242	210.572	0.00033732	0.00033862	0.00019088	1494.5	1.6601e-06	1.3694e-05	1490.1	399.78	1.4987e-05	6.7572e-06	452.36	146.05	126.38	42.987	7.615e-06	53.586	0.0016314	0.0016776	0.00046308	1562.5	1.8068e-05	1.8399e-05	1560.8	423.05	1.8396e-05	1.8531e-05	482.71	157.74	137.26	46.634	1.8696e-05	58.719	87.013	-33.946	-59.174	-76.864	58.712	31.093	-76.704	-72.315	-0.501	59.242	-72.410	-68.516	-67.826	-62.903	55.186	-63.907	-8191	255	
13996.441	1	1	0	0	0.05556	0.17615	0.30042	0.26023	0.28411	0.17391	0.26709	0.23087	0.08804	0.23352	0.070071	0.1294	0.11739	0.31589	0.23842	0.066814	-2.3083	-2.5958	-2.4813	-2.8583	-2.575	-2.5021	-3.0021	-2.4417	-2.5062	-2.6813	-2.4521	-2.8458	-2.4958	-2.4375	-2.8333	-2.6042	37.780	200.339	-48.232	230.500	-17.820	-43.846	215.003	255.926	18.142	246.382	-52.781	248.137	181.712	268.811	76.008	106.604	0.00048474	0.00062259	0.00013091	1495.1	1.4238e-06	7.6032e-06	1494.3	397.86	1.0185e-05	4.1426e-06	451.59	146.94	126.1	43.181	4.9497e-06	53.987	0.0016585	0.0016964	0.00047004	1562.3	1.8412e-05	1.8739e-05	1564.5	422.85	1.8517e-05	1.8799e-05	483.8	158.04	137.29	46.808	1.8557e-05	58.812	95.350	-33.201	54.533	-76.652	-23.747	91.763	-76.883	-72.146	85.289	9.036	-72.522	-68.548	-67.923	-63.085	175.288	-63.624	-8191	255	
13996.562	1	1	0	0	0.23631	0.13055	0.28027	0.25174	0.20611	0.20513	0.37183	0.033872	0.19105	0.020727	0.25224	0.10833	0.27079	0.22155	0.037725	0.16868	-1.9521	-2.7146	-2.1479	-3.0083	-2.375	-2.4917	-2.8917	-2.4688	-2.5854	-2.5896	-2.3896	-2.7188	-2.6458	-2.5146	-2.7562	-2.475	188.571	44.625	115.826	-65.337	10.613	-4.611	166.583	206.802	107.836	138.508	176.842	124.914	-87.295	215.566	243.045	-41.053	0.00044377	0.0012757	6.6524e-05	1498.7	1.1125e-05	1.8914e-05	1489.5	400.13	8.9576e-06	6.6178e-06	453.66	147.43	126.11	42.982	6.473e-06	53.669	0.0016565	0.0017096	0.00047132	1564.2	1.8532e-05	1.8652e-05	1562.2	423.43	1.8585e-05	1.8672e-05	484.68	158.4	137.2	46.789	1.88e-05	58.836	133.445	-14.972	-19.750	-76.707	50.911	76.417	-76.973	-72.212	-29.315	54.160	-72.414	-68.637	-68.145	-63.236	156.900	-63.913	-8191	255	
13996.658	1	1	0	0	0.10097	0.30888	0.14891	0.15341	0.24072	0.22214	0.17115	0.2303	0.20519	0.12475	0.28596	0.19177	0.29275	0.13501	0.23477	0.306	-2.2604	-2.5687	-2.2042	-2.7229	-2.6	-2.3229	-2.8167	-2.5396	-2.3125	-2.7438	-2.2771	-2.7354	-2.6042	-2.325	-2.6083	-2.7125	67.111	-14.304	249.110	190.485	184.339	172.532	119.867	269.492	113.477	264.097	-62.694	-53.943	215.373	-49.607	56.659	170.751	0.00038983	0.00063743	0.00012818	1500.1	7.8694e-06	7.6057e-06	1497.2	399.86	4.7128e-06	8.1273e-06	452.75	146.85	126.56	42.87	8.536e-07	54.043	0.0016695	0.0017218	0.00048105	1565.4	1.8809e-05	1.8829e-05	1565.9	424.39	1.888e-05	1.9003e-05	484.87	158.31	137.2	46.719	1.8939e-05	58.894	102.330	8.976	83.883	-76.608	72.570	-36.495	-76.775	-72.049	86.373	83.827	-72.705	-68.624	-68.133	-62.923	-58.672	-63.873	-8191	255	
13996.754	1	1	0	0	0.083729	0.19858	0.066384	0.10928	0.17421	0.27838	0.28943	0.36811	0.18816	0.15458	0.20126	0.18405	0.3722	0.18578	0.24713	0.25237	-1.8792	-2.7687	-2.2875	-2.8021	-2.5292	-2.2062	-3.0167	-2.6708	-2.5208	-2.6375	-2.325	-2.6167	-2.8125	-2.5833	-2.6167	-2.675	-62.631	233.493	188.488	263.272	255.371	191.810	251.789	190.349	131.248	89.419	211.428	181.848	215.869	0.504	-21.229	143.809	0.00017914	0.0004087	6.0711e-05	1499	3.2852e-07	7.2749e-06	1491.3	400.99	8.5821e-07	5.6952e-06	450.51	146.45	126.52	42.808	2.0515e-06	53.379	0.001682	0.0017132	0.00048063	1567	1.8859e-05	1.8897e-05	1564.7	423.92	1.8969e-05	1.885e-05	484.38	158.38	137.42	46.712	1.8952e-05	58.769	138.101	-35.331	113.814	-76.660	-56.989	150.994	-76.837	-72.131	57.123	124.873	-72.512	-68.830	-67.943	-63.390	156.353	-63.646	-8191	255	
13996.850	1	1	0	0	0.077419	0.12359	0.22727	0.21553	0.11788	0.16323	0.36486	0.43013	0.034962	0.14515	0.13277	0.41821	0.15572	0.095869	0.099253	0.11594	-1.775	-2.6688	-2.2375	-2.8417	-2.6542	-2.5104	-2.8937	-2.6042	-2.4125	-2.7229	-2.5292	-2.6813	-2.8333	-2.3396	-2.7042	-3.0333	17.436	117.201	148.897	238.661	16.044	84.846	188.806	223.609	-55.640	15.236	2.068	216.616	202.721	30.701	85.657	73.971	0.00044468	0.00073205	7.2948e-05	1499	3.0463e-06	4.297e-06	1488.1	398.46	7.7004e-06	9.5091e-06	452.99	146.23	126.53	43.094	2.6716e-06	53.71	0.0016715	0.001711	0.00047884	1565.9	1.8619e-05	1.881e-05	1564.4	423.6	1.8756e-05	1.8772e-05	484.34	158.48	137.61	46.749	1.9112e-05	58.901	125.385	-16.317	202.008	-76.629	265.411	108.823	-76.747	-72.020	97.429	-13.757	-72.678	-68.639	-67.893	-63.364	220.684	-64.056	-8191	255	
13996.922	1	1	0	0	0.35114	0.095688	0.11527	0.264	0.14372	0.22238	0.10461	0.29256	0.17828	0.17441	0.21724	0.18541	0.14876	0.34421	0.25065	0.19265	-1.9854	-2.6375	-2.5187	-2.6188	-2.6063	-2.4271	-2.8812	-2.8812	-2.4104	-2.5375	-2.6437	-2.5479	-3.0125	-2.6625	-2.7	-2.7479	155.347	97.889	-44.717	250.770	213.109	153.072	230.305	188.909	112.558	38.840	-61.597	199.290	250.613	254.158	213.459	-70.978	0.00043034	0.00011426	0.00036123	1505.6	4.783e-06	1.0377e-05	1497.5	399.76	3.4794e-06	4.2255e-06	451.96	146.79	126.41	43.147	8.5145e-06	53.826	0.0016765	0.0017319	0.00048405	1573	1.904e-05	1.9243e-05	1568.9	425.19	1.9087e-05	1.9362e-05	486.6	159.04	138.28	47.027	1.9744e-05	59.24	88.425	5.961	-27.882	-76.628	66.613	98.473	-76.796	-72.367	0.306	-18.205	-72.633	-68.695	-67.850	-63.449	81.365	-63.781	-8191	255	
13997.042	1	1	0	0	0.1185	0.11122	0.21464	0.34984	0.37333	0.12658	0.19952	0.23857	0.20942	0.19546	0.021128	0.21958	0.22498	0.3145	0.19745	0.14529	-1.95	-2.7021	-2.5229	-2.6	-2.8625	-2.5625	-2.6917	-2.8021	-2.3688	-2.8417	-2.6583	-2.4729	-2.8104	-2.5229	-2.6042	-2.9333	35.374	46.339	88.352	237.260	193.763	106.957	200.582	267.743	-45.702	240.096	-26.605	233.495	151.506	219.061	68.795	-51.600	0.00043738	0.00051403	0.000236	1512.6	3.9855e-06	1.0522e-05	1503.8	402.67	6.6444e-06	2.6904e-06	454.73	147.66	127.36	43.343	1.3298e-05	54.481	0.0017591	0.0018367	0.00050845	1586.2	2.013e-05	2.0359e-05	1583.1	429.56	2.0218e-05	2.0431e-05	490.99	160.64	139.55	47.487	2.0635e-05	59.871	118.702	-25.822	-22.100	-76.783	2.255	19.228	-76.777	-72.225	132.104	177.258	-72.679	-68.632	-67.860	-63.568	115.209	-63.852	-8191	255	
13997.139	1	1	0	0	0.23335	0.13676	0.16076	0.38216	0.2905	0.17395	0.18925	0.46408	0.11933	0.12098	0.078459	0.090071	0.08757	0.20423	0.052835	0.18578	-1.8958	-2.575	-2.6375	-2.5104	-2.6979	-2.5042	-2.6063	-3.0187	-2.3125	-2.6229	-2.8646	-2.4083	-2.7938	-2.4646	-2.2667	-2.8479	32.428	-45.798	19.178	240.311	99.792	220.870	257.179	219.193	126.343	219.746	-18.556	267.135	189.192	245.096	22.460	179.309	0.00060398	0.00087102	0.00022888	1522.6	1.6009e-05	4.753e-06	1518.1	406.24	7.6083e-06	1.2609e-05	456.53	148.31	128.28	43.64	1.2212e-05	54.666	0.0018136	0.0018754	0.00052114	1596.9	2.0257e-05	2.0628e-05	1600.3	431.83	2.0621e-05	2.0881e-05	494.85	161.72	140.89	47.921	2.1123e-05	60.518	126.103	-47.085	-26.934	-76.758	90.381	115.622	-76.831	-72.350	159.792	139.737	-72.688	-68.625	-68.001	-63.291	20.727	-63.730	-8191	255	
13997.233	1	1	0	0	0.10086	0.28745	0.10953	0.13762	0.0501	0.20353	0.28884	0.20776	0.076863	0.085633	0.17549	0.18989	0.1007	0.20555	0.12168	0.20356	-1.9979	-2.6562	-2.4354	-2.5208	-2.6562	-2.5062	-2.5812	-2.8896	-2.4521	-2.6667	-2.8083	-2.4271	-2.8375	-2.6292	-2.4896	-2.9021	60.017	-81.491	236.922	226.035	217.350	-76.062	237.651	-63.000	-22.973	-81.487	194.022	-78.823	-66.711	201.670	174.500	232.468	0.00028438	0.00090766	8.1637e-05	1535.7	8.6217e-06	4.0117e-06	1525.7	405.55	4.0587e-06	4.3383e-06	460.08	149.38	128.6	43.734	8.8835e-06	54.8	0.0018714	0.0019321	0.0005452	1613.8	2.1232e-05	2.1541e-05	1609.9	434.23	2.154e-05	2.1979e-05	498.94	162.98	142.23	48.39	2.1995e-05	60.964	61.793	105.719	74.277	-76.842	171.742	19.355	-76.731	-72.324	3.806	31.713	-72.624	-68.652	-67.888	-62.921	19.180	-64.008	-8191	255	
13997.331	1	1	0	0	0.30762	0.21301	0.2013	0.24984	0.18624	0.32206	0.20263	0.14639	0.16913	0.36178	0.1608	0.23339	0.047065	0.21789	0.20904	0.29865	-1.8292	-2.4	-2.5333	-2.4813	-2.6312	-2.5479	-2.3521	-2.8563	-2.2125	-2.5417	-2.9083	-2.3229	-2.6917	-2.7062	-2.3063	-2.8688	113.933	194.706	229.374	-56.038	-21.933	195.994	202.355	236.000	-67.613	-70.706	129.793	118.831	-62.317	259.050	145.068	131.943	0.00033423	0.00096328	7.9231e-05	1541.3	2.4795e-06	5.0604e-06	1531.5	408.87	7.7668e-06	9.7222e-06	463.19	150.69	130.37	44.03	1.8034e-05	55.277	0.0019468	0.002017	0.00055977	1621.5	2.1806e-05	2.2118e-05	1619.1	437.85	2.1969e-05	2.2263e-05	501.14	163.92	143.33	48.67	2.2394e-05	61.386	97.451	2.295	-13.361	-76.751	-69.152	267.821	-76.751	-72.152	256.195	88.917	-72.688	-68.746	-67.806	-63.221	31.853	-64.035	-8191	255	
13997.450	1	1	0	0	0.061615	0.033929	0.12758	0.32129	0.21921	0.27082	0.086357	0.2504	0.19262	0.23475	0.14526	0.07423	0.15168	0.2422	0.12753	0.093786	-1.9646	-2.5458	-2.575	-2.4896	-2.7438	-2.7042	-2.6125	-2.9292	-2.5167	-2.6479	-2.8396	-2.3229	-2.8021	-2.5917	-2.4229	-2.8625	-47.831	60.058	50.118	188.948	-22.456	0.015	150.431	244.759	-49.801	209.396	208.861	208.667	147.460	234.686	88.221	266.316	0.00034992	0.00062834	0.00029744	1542.4	1.1082e-05	1.1438e-05	1533.4	409.49	8.7584e-06	1.1464e-05	462.91	150.36	130.05	44.095	1.3684e-06	55.251	0.0019681	0.0020436	0.00056699	1625.7	2.2311e-05	2.2548e-05	1619.7	439.42	2.2615e-05	2.2728e-05	503.56	164.33	143.56	48.815	2.273e-05	61.638	121.425	-17.949	45.091	-76.768	-89.209	123.684	-76.819	-72.069	57.494	60.224	-72.573	-68.606	-67.656	-63.245	55.441	-63.835	-8191	255	
13997.521	1	1	0	0	0.10796	0.068979	0.15948	0.21113	0.3517	0.10569	0.32093	0.23708	0.34667	0.24324	0.29285	0.22471	0.39849	0.077599	0.21925	0.090101	-1.975	-2.4062	-2.9104	-2.7125	-2.7938	-2.6042	-2.4229	-2.8312	-2.6042	-2.2354	-2.8667	-2.5563	-2.7062	-2.7604	-2.2562	-2.7292	113.057	232.987	15.856	207.612	259.272	52.337	252.102	170.387	-80.802	14.127	269.297	-68.082	-64.638	205.826	172.730	154.149	0.00031845	0.00039292	0.00018559	1543.7	6.7738e-06	8.977e-06	1536.5	408.4	1.275e-05	1.0002e-05	461.75	149.56	130.31	44.296	6.3941e-06	55.758	0.0020166	0.002084	0.00057655	1627.3	2.2702e-05	2.2821e-05	1622.5	438.78	2.2758e-05	2.2909e-05	503.83	164.52	143.85	48.866	2.273e-05	61.714	144.533	2.158	59.453	-76.586	-68.199	22.885	-76.733	-72.155	-61.403	-38.084	-72.446	-68.659	-67.896	-63.472	120.123	-63.891	-8191	255	
13997.642	1	1	0	0	0.048684	0.24169	0.089681	0.34168	0.41039	0.10159	0.30535	0.35611	0.11406	0.13435	0.16978	0.1508	0.18176	0.20715	0.023496	0.052895	-2.0208	-2.475	-2.6521	-2.6667	-2.4771	-2.8104	-2.3521	-2.7542	-2.6229	-2.3396	-2.8521	-2.4896	-2.5792	-2.7687	-2.3479	-2.7771	170.684	66.021	103.222	248.942	252.106	180.792	121.303	202.050	73.655	16.109	187.400	14.209	221.585	232.554	153.132	18.254	0.00012089	0.00030292	0.00026698	1545.6	7.8886e-06	8.8889e-06	1535	410.56	6.3415e-06	1.5402e-05	463.69	149.73	130.2	44.151	6.6951e-06	55.661	0.0020231	0.0020817	0.00057865	1630.1	2.2688e-05	2.2844e-05	1624.2	440	2.2901e-05	2.2895e-05	504.9	164.65	144.03	48.895	2.2958e-05	61.87	115.178	131.796	72.490	-76.822	-33.944	55.780	-76.842	-72.383	97.796	56.128	-72.565	-68.448	-68.006	-63.355	-41.628	-63.918	-8191	255	
13997.738	1	1	0	0	0.043397	0.090352	0.060447	0.36672	0.077451	0.11764	0.093044	0.12252	0.19766	0.078366	0.20514	0.4797	0.2651	0.18291	0.10106	0.10836	-2.1458	-2.2562	-2.8646	-2.6208	-2.4188	-2.8292	-2.2917	-2.7687	-2.6542	-2.3625	-2.9313	-2.375	-2.6	-2.9417	-2.2604	-2.7333	-7.687	237.560	135.688	220.402	-43.762	4.743	266.848	8.772	162.832	165.959	196.527	220.586	267.913	233.081	182.846	191.875	0.00029623	0.00086359	0.00017437	1546.9	7.441e-06	5.2142e-06	1534.5	410.92	1.6172e-05	6.3179e-07	463.56	149.85	131.29	44.344	8.6771e-06	55.7	0.0020423	0.0020878	0.00058333	1629.5	2.2712e-05	2.2816e-05	1622.6	440.02	2.269e-05	2.2771e-05	504.51	164.69	144.04	48.898	2.2847e-05	61.901	98.664	-15.664	3.856	-76.725	133.805	190.458	-77.052	-72.209	-26.188	-44.744	-72.649	-68.805	-67.957	-63.458	99.027	-63.740	-8191	255	
13997.834	1	1	0	0	0.023987	0.21439	0.085266	0.21533	0.16019	0.19466	0.38956	0.27271	0.12308	0.36297	0.28392	0.2187	0.25725	0.1327	0.19569	0.17484	-2.2458	-2.2354	-2.5896	-2.7583	-2.3292	-2.5708	-2.6542	-2.7104	-2.6542	-2.2	-2.925	-2.5604	-2.5062	-2.8479	-2.3917	-2.825	199.152	-42.207	264.200	-79.197	-31.513	127.086	230.844	228.869	-4.297	111.419	147.239	192.803	257.657	-76.687	104.511	-85.934	0.00018886	0.0010648	0.00010553	1545.3	8.3983e-06	8.1509e-06	1531.5	408.3	9.0437e-06	5.6074e-06	464.46	150.4	130.46	44.153	2.2612e-06	55.356	0.0020273	0.0020724	0.00058483	1627.5	2.2716e-05	2.3105e-05	1621.2	439.48	2.2797e-05	2.2924e-05	504.67	164.96	143.94	48.888	2.3059e-05	61.832	91.656	27.786	44.086	-76.734	-72.987	0.822	-76.854	-72.191	137.929	-36.013	-72.591	-68.431	-68.105	-63.251	52.463	-63.777	-8191	255	
13997.931	1	1	0	0	0.27472	0.034318	0.13841	0.28304	0.13564	0.0487	0.18102	0.40939	0.047861	0.19735	0.091127	0.43004	0.23671	0.16946	0.26987	0.46055	-2.2562	-2.2875	-2.4667	-2.5771	-2.3146	-2.8125	-2.6437	-2.5125	-2.5917	-2.2354	-2.6875	-2.6562	-2.4167	-2.8667	-2.4062	-2.5563	192.506	264.824	106.675	258.406	-42.373	70.827	238.903	224.436	-82.644	114.593	133.167	219.385	-74.907	-31.285	258.544	263.477	0.00017922	0.00015618	0.00019721	1543.1	3.1358e-06	7.3009e-06	1530	409.25	9.8564e-06	2.576e-06	464.72	150.5	129.44	44.352	2.471e-06	55.507	0.0020413	0.0020918	0.00058877	1629.1	2.2796e-05	2.2997e-05	1621.9	439.85	2.2756e-05	2.2963e-05	505.41	164.87	143.54	48.932	2.27e-05	61.781	94.345	34.704	106.163	-76.772	257.340	112.723	-76.773	-72.041	49.472	113.224	-72.865	-68.888	-67.788	-63.401	94.981	-63.601	-8191	255	
13998.051	1	1	0	0	0.17585	0.30667	0.1878	0.10396	0.18317	0.15169	0.19257	0.31076	0.16297	0.31881	0.36722	0.16569	0.33141	0.10878	0.069414	0.090139	-2.225	-2.2354	-2.4688	-2.8708	-2.3667	-2.6396	-2.7188	-2.4625	-2.8292	-2.2438	-2.6646	-2.75	-2.5292	-2.7729	-2.3	-2.5708	-66.336	35.751	194.643	180.709	-57.272	93.975	187.622	221.019	-22.599	117.590	264.488	162.990	227.553	-39.788	269.293	75.521	0.00054207	0.00082092	0.00010523	1538	3.9186e-06	6.8292e-06	1531.7	408.41	1.0991e-05	7.5089e-06	461.36	150.06	129.88	44.235	1.0322e-05	55.492	0.0019935	0.0020592	0.00057393	1625.9	2.2318e-05	2.2631e-05	1618.6	438.45	2.2418e-05	2.2682e-05	503.24	164.48	143.49	48.979	2.2748e-05	61.715	104.149	257.341	-54.085	-76.547	35.968	22.622	-76.783	-72.265	104.352	-52.524	-72.218	-68.475	-68.082	-63.125	3.126	-64.182	-8191	255	
13998.146	1	1	0	0	0.10153	0.27142	0.080075	0.2241	0.22908	0.15414	0.13239	0.1737	0.044665	0.1217	0.2971	0.074468	0.26613	0.13967	0.21607	0.052637	-2.45	-2.5187	-2.5667	-2.7146	-2.2542	-2.7708	-3.0042	-2.3854	-2.7562	-2.4396	-2.6021	-2.9042	-2.3979	-2.6937	-2.6083	-2.3854	-56.383	205.104	93.704	178.991	28.054	51.574	127.729	188.430	242.126	-52.483	212.228	-54.256	-58.873	218.574	88.969	-9.500	0.00043798	0.00031233	7.5125e-05	1539	2.2782e-06	6.5197e-06	1529.3	410.61	9.305e-06	4.9764e-06	464.29	149.61	129.55	44.186	9.0459e-06	55.611	0.0020203	0.0020702	0.0005823	1624.7	2.252e-05	2.2892e-05	1622.2	439.42	2.2782e-05	2.3024e-05	504.45	164.54	143.44	48.998	2.3014e-05	61.876	188.649	90.314	144.117	-76.523	112.597	45.595	-76.807	-72.283	52.143	-46.678	-72.384	-68.604	-68.194	-63.397	6.033	-63.883	-8191	255	
13998.219	1	1	0	0	0.13507	0.12077	0.061733	0.22643	0.17423	0.079959	0.25363	0.25755	0.26793	0.08362	0.19283	0.068558	0.15775	0.231	0.04036	0.062893	-2.4708	-2.3729	-2.4583	-2.9562	-2.1583	-2.6167	-2.8187	-2.4458	-2.7917	-2.4375	-2.5812	-2.8083	-2.55	-2.775	-2.5687	-2.4292	112.445	241.227	97.501	238.991	-18.997	-57.999	252.380	14.789	47.924	269.706	179.510	-74.066	118.793	185.344	-39.528	175.379	0.00045373	0.001227	0.00030395	1540.9	6.7621e-06	2.3435e-06	1525.5	409.99	8.9569e-06	3.6622e-06	463.4	149.36	130.35	44.111	1.4164e-06	55.124	0.0020257	0.0020991	0.00058553	1626.8	2.2626e-05	2.3084e-05	1620.5	440.16	2.2648e-05	2.3137e-05	504.3	164.79	143.86	49.03	2.3326e-05	61.849	92.966	17.342	30.947	-76.700	114.497	173.711	-76.872	-72.225	8.984	-46.408	-72.726	-68.575	-68.300	-63.389	112.897	-63.893	-8191	255	
13998.338	1	1	0	0	0.11756	0.17494	0.095178	0.31633	0.15459	0.12355	0.2353	0.35709	0.21576	0.14725	0.25257	0.16725	0.18111	0.2555	0.1737	0.047915	-2.1896	-2.4938	-2.3958	-2.8937	-2.5	-2.6625	-2.9354	-2.4437	-2.6	-2.5646	-2.5333	-2.7313	-2.5604	-2.4583	-2.8354	-2.2792	248.505	158.694	-25.179	-85.088	52.793	260.281	228.218	206.562	-69.868	52.083	258.810	265.263	243.736	177.875	87.394	120.589	0.00055943	0.00066089	0.00014945	1544.5	7.8706e-06	1.6417e-05	1534.6	411.43	1.1846e-05	9.9858e-06	464.69	150.75	130.29	44.191	9.5066e-07	55.636	0.0020589	0.0021355	0.00059449	1630.9	2.311e-05	2.3299e-05	1623.3	440.61	2.3051e-05	2.3128e-05	504.45	164.92	144.16	48.991	2.3319e-05	61.896	98.944	-17.238	204.263	-76.881	60.206	57.887	-76.702	-72.245	-77.010	79.080	-72.695	-68.228	-67.775	-63.330	155.404	-63.835	-8191	255	
13998.434	1	1	0	0	0.15751	0.16403	0.10055	0.14237	0.34244	0.24039	0.13375	0.40861	0.22048	0.17154	0.25585	0.38404	0.27831	0.064109	0.10542	0.29087	-2.1833	-2.5938	-2.2979	-2.8937	-2.4083	-2.4854	-2.7667	-2.3583	-2.5417	-2.5604	-2.475	-3.1208	-2.7896	-2.6396	-2.75	-2.5646	138.153	-5.883	-73.721	228.839	112.990	-55.995	197.608	187.911	60.547	1.203	231.183	197.772	183.244	-64.629	245.547	241.465	0.00043857	2.9206e-05	0.00012319	1543.1	5.1673e-06	9.7047e-06	1532.2	409.69	5.3365e-06	1.2277e-06	464.39	150.26	129.8	44.286	9.6953e-06	55.493	0.0020672	0.0021195	0.00059206	1629.8	2.2899e-05	2.3333e-05	1621.5	439.81	2.2877e-05	2.3262e-05	504.89	165.04	143.81	49.021	2.3287e-05	61.937	84.804	-36.372	-25.817	-76.717	108.514	59.976	-76.676	-72.250	145.272	120.209	-72.671	-68.696	-67.954	-63.163	1.690	-64.266	-8191	255	
13998.530	1	1	0	0	0.092656	0.1863	0.11858	0.16126	0.22464	0.11387	0.061392	0.19768	0.11892	0.29198	0.28136	0.1348	0.17291	0.047083	0.099398	0.3249	-2.0417	-2.5583	-2.0958	-2.8646	-2.3104	-2.4979	-3.0083	-2.6	-2.5521	-2.6479	-2.4562	-2.8292	-2.8125	-2.5208	-2.9833	-2.4583	91.248	26.664	-21.156	194.989	158.359	96.662	131.527	-87.478	-17.883	70.977	229.121	-41.481	199.209	-76.167	63.271	258.332	0.00044372	0.00015069	0.00039045	1548.1	1.1804e-05	8.5524e-06	1532.4	410.62	6.8977e-06	8.4414e-06	463.77	150.48	130.16	43.972	7.5783e-06	55.556	0.0020657	0.0021119	0.00058652	1630.2	2.2824e-05	2.3265e-05	1619.5	440.37	2.2967e-05	2.3041e-05	504.66	164.94	143.83	48.931	2.316e-05	61.915	128.343	103.267	1.846	-76.644	136.895	28.147	-76.809	-72.284	13.120	61.203	-72.659	-68.453	-68.113	-63.337	13.348	-63.967	-8191	255	
13998.626	1	1	0	0	0.1119	0.12549	0.15752	0.28538	0.16399	0.27742	0.23716	0.25875	0.2096	0.14327	0.15672	0.36273	0.07433	0.3825	0.13573	0.082074	-2.2438	-2.7458	-2.3792	-2.9854	-2.5583	-2.3583	-3.0438	-2.5542	-2.6188	-2.7333	-2.4646	-2.7188	-2.75	-2.4229	-2.6208	-2.4375	224.578	-2.850	-30.465	253.800	146.074	51.651	224.439	241.102	262.999	-47.125	255.014	218.148	5.738	258.015	-8.602	150.933	0.00028761	0.00066463	0.00015903	1542.2	7.8532e-06	3.7682e-06	1530.6	409.08	1.4264e-05	3.9963e-06	463.11	150.56	130.17	44.315	3.0104e-06	55.3	0.0020549	0.0021304	0.00058731	1627.6	2.3075e-05	2.3252e-05	1622.2	439.85	2.3028e-05	2.3089e-05	504.41	164.87	143.79	48.893	2.3032e-05	61.732	119.699	17.348	135.419	-76.753	19.316	88.499	-76.951	-72.242	257.700	261.716	-72.442	-68.523	-68.176	-63.148	-30.078	-63.773	-8191	255	
13998.747	1	1	0	0	0.15635	0.14617	0.13866	0.39661	0.075618	0.12875	0.17241	0.24081	0.15761	0.30991	0.13797	0.4273	0.273	0.34404	0.13766	0.31111	-1.9208	-2.7729	-2.0875	-2.7812	-2.6146	-2.2896	-2.9021	-2.7021	-2.4813	-2.7667	-2.5	-2.6937	-2.6354	-2.4125	-2.5708	-2.5604	260.488	70.264	204.030	206.168	106.068	-20.842	268.743	246.028	-54.905	187.671	-2.302	269.233	-27.324	236.272	175.050	222.843	0.00037108	0.0008488	0.00052207	1543.8	4.8437e-06	4.7831e-06	1531.6	410.2	6.1987e-06	3.1288e-06	462.78	149.36	129.56	44.319	1.3498e-05	55.583	0.00204	0.0020806	0.00058007	1625.6	2.2693e-05	2.2784e-05	1620.4	440	2.2607e-05	2.2761e-05	503.73	164.39	143.39	48.972	2.3072e-05	61.87	72.076	-21.077	-28.262	-76.866	216.746	7.634	-76.937	-72.296	-16.493	145.035	-72.587	-68.613	-67.885	-63.310	70.241	-63.616	-8191	255	
13998.819	1	1	0	0	0.32946	0.40217	0.28424	0.22953	0.17437	0.21817	0.26896	0.18484	0.077557	0.18576	0.26784	0.21267	0.25124	0.10425	0.294	0.28509	-1.9354	-2.6292	-2.3854	-2.8083	-2.6063	-2.4729	-3.0396	-2.6292	-2.4354	-2.7021	-2.6312	-2.5479	-2.8812	-2.3479	-2.6646	-2.6437	43.764	-66.109	-3.321	255.568	111.568	-74.940	-53.726	-15.786	126.270	171.054	235.962	197.437	-84.620	203.827	-21.479	174.580	0.00036051	0.00024396	0.00015112	1542.9	4.8461e-06	1.5029e-06	1526	410.1	3.1477e-06	7.7744e-06	465.33	150.47	129.66	44.278	1.0908e-05	55.411	0.0020319	0.002098	0.0005826	1628.8	2.2739e-05	2.2905e-05	1619.8	439.87	2.2904e-05	2.2899e-05	505.27	164.85	143.78	48.915	2.3169e-05	61.876	75.174	12.890	-66.103	-76.637	61.910	188.323	-76.634	-72.086	125.600	107.548	-72.714	-68.469	-68.018	-63.647	91.132	-63.525	-8191	255	
13998.915	1	1	0	0	0.21856	0.17052	0.11201	0.097649	0.16469	0.14639	0.41697	0.22619	0.23722	0.16977	0.15407	0.19955	0.14298	0.45545	0.10446	0.042216	-1.8521	-2.7854	-2.2271	-2.6625	-2.7687	-2.3583	-2.9354	-2.7104	-2.375	-2.7417	-2.6792	-2.5833	-2.5917	-2.4583	-2.6896	-2.7979	0.978	106.242	251.437	137.794	32.518	188.630	250.463	249.080	-25.896	-59.201	255.564	222.847	102.430	-87.291	166.761	216.918	0.0003353	0.00080992	0.00017505	1539.1	4.7617e-06	9.0296e-06	1528.6	410.34	4.4983e-06	9.7174e-06	462.36	149.94	130.42	44.374	9.1883e-06	55.465	0.0020312	0.0021096	0.00058352	1626.6	2.2925e-05	2.3116e-05	1620.3	439.43	2.2721e-05	2.2835e-05	504.2	164.57	143.82	48.979	2.307e-05	61.791	165.714	43.324	-30.257	-76.723	-34.478	138.179	-76.826	-72.390	-14.941	-5.156	-72.810	-68.494	-67.971	-63.277	10.490	-63.690	-8191	255	
13999.011	1	1	0	0	0.3183	0.15573	0.045451	0.22781	0.25448	0.19749	0.29183	0.28269	0.04706	0.21166	0.42136	0.52096	0.26993	0.16879	0.22467	0.16901	-1.8188	-2.7167	-2.3688	-2.5187	-2.7438	-2.4479	-2.8229	-2.7771	-2.1604	-2.7146	-2.5521	-2.5604	-2.9	-2.5729	-2.5417	-2.8833	-65.146	34.436	-55.496	196.962	215.456	104.451	-69.911	174.995	244.380	45.141	222.153	253.619	-62.568	201.275	12.736	204.764	0.00054991	0.00021708	0.00013859	1542.6	4.267e-06	6.3631e-06	1530	411.28	1.2649e-05	4.469e-06	462.49	149.99	130.43	44.299	8.4497e-06	55.522	0.0020356	0.0021034	0.00058338	1627.2	2.2869e-05	2.3128e-05	1621.9	440.45	2.2922e-05	2.2957e-05	504.82	164.61	143.91	48.885	2.271e-05	61.748	98.901	108.635	220.275	-76.512	-37.474	-25.763	-76.737	-72.213	25.728	-80.733	-72.652	-68.469	-68.005	-63.137	56.853	-64.035	-8191	255	
13999.130	1	1	0	0	0.022001	0.21238	0.23107	0.3148	0.11787	0.22574	0.1323	0.12757	0.15926	0.091123	0.16961	0.206	0.045535	0.3746	0.090467	0.25147	-1.9	-2.8187	-2.5792	-2.7708	-2.8688	-2.5396	-2.9	-3.0021	-2.4354	-2.8063	-2.6458	-2.5896	-2.8854	-2.5583	-2.6583	-2.9042	49.098	243.429	232.971	226.893	143.984	-32.941	205.603	192.611	267.523	192.742	198.079	227.610	-10.616	248.305	197.508	128.719	0.00038894	0.00048471	0.00031055	1549.4	5.7881e-06	5.0133e-06	1537.7	409.95	1.2858e-05	1.1455e-06	463.54	149.94	130.11	44.386	5.1773e-06	55.403	0.002007	0.0020758	0.00058315	1629.1	2.2869e-05	2.3013e-05	1623.1	439.85	2.3023e-05	2.3173e-05	504.99	164.91	143.83	49.051	2.3166e-05	61.723	92.989	88.273	-2.651	-76.717	29.724	118.487	-76.854	-72.092	25.774	263.607	-72.757	-68.548	-68.053	-63.105	98.630	-63.955	-8191	255	
13999.226	1	1	0	0	0.32501	0.12409	0.2339	0.22218	0.092235	0.19712	0.22458	0.3428	0.13722	0.039278	0.25229	0.15564	0.098312	0.36695	0.12319	0.12274	-1.7812	-2.7313	-2.7229	-2.6229	-2.7125	-2.3833	-2.7604	-2.9771	-2.3812	-2.675	-2.7854	-2.4437	-2.8354	-2.7125	-2.4333	-2.6771	185.159	54.973	35.986	-71.677	142.028	-33.355	179.185	252.615	126.105	24.358	221.145	26.226	16.587	-67.601	11.923	244.443	0.00083661	0.0003516	0.00051332	1542.2	5.5391e-06	6.7225e-06	1526.5	411.58	9.484e-06	2.955e-06	464.65	149.16	130.4	44.354	3.9706e-06	55.32	0.0020396	0.0021159	0.00058755	1626.8	2.279e-05	2.2883e-05	1620.5	439.74	2.2508e-05	2.2606e-05	504.37	164.3	143.54	48.908	2.2381e-05	61.572	98.709	8.279	1.660	-76.741	-57.702	4.478	-76.795	-72.163	144.491	114.950	-72.501	-68.775	-67.936	-63.211	-22.614	-63.883	-8191	255	
13999.322	1	1	0	0	0.17171	0.14279	0.12281	0.024598	0.16809	0.24571	0.16812	0.20399	0.11343	0.21393	0.24719	0.12482	0.22392	0.068333	0.21042	0.13942	-1.8125	-2.4688	-2.5125	-2.4229	-2.7562	-2.7	-2.4479	-2.9208	-2.3208	-2.5979	-2.6646	-2.4688	-2.8104	-2.675	-2.4104	-2.9104	18.585	81.201	86.644	147.078	-59.665	94.445	233.908	213.085	218.142	228.715	141.414	-65.909	195.011	137.321	248.794	126.282	0.0005221	0.00033863	0.00024868	1539.9	1.3846e-05	3.7792e-06	1534.4	409.85	1.19e-05	7.4378e-06	463.76	149.93	130.56	44.333	5.5449e-06	55.478	0.001981	0.0020393	0.00056814	1625.5	2.2425e-05	2.256e-05	1620.6	439.2	2.2706e-05	2.3027e-05	505.03	164.54	144.32	49.014	2.3286e-05	61.897	143.884	43.463	-11.864	-76.917	-33.681	-81.112	-76.735	-72.190	25.626	125.131	-72.713	-68.444	-68.372	-63.278	15.117	-64.103	-8191	255	
13999.418	1	1	0	0	0.20595	0.24429	0.25116	0.2581	0.24243	0.053372	0.40009	0.092627	0.11857	0.15945	0.17529	0.18914	0.17487	0.34725	0.077866	0.23772	-1.9146	-2.3063	-2.5667	-2.6042	-2.6979	-2.4271	-2.4833	-2.975	-2.4271	-2.6	-2.9354	-2.4958	-2.6146	-2.7208	-2.3604	-2.7167	-81.337	7.457	11.165	221.751	-72.211	-36.482	218.435	199.962	-8.959	-85.496	234.725	235.738	212.632	-6.169	207.843	175.175	0.00032565	0.0003002	7.3529e-05	1542.9	5.339e-06	1.2533e-05	1531.1	410.87	4.6445e-06	3.908e-06	463.86	149.75	130.41	44.265	8.4328e-06	55.448	0.0020644	0.0021379	0.00059459	1630.2	2.3102e-05	2.3273e-05	1621.9	440.75	2.2865e-05	2.312e-05	505.18	164.75	143.85	48.893	2.2974e-05	61.757	94.014	144.993	255.073	-76.652	-7.704	97.772	-77.049	-72.174	84.219	61.727	-72.552	-68.631	-67.919	-63.208	52.305	-63.740	-8191	255	
13999.514	1	1	0	0	0.13616	0.16436	0.096445	0.13689	0.099778	0.14355	0.30939	0.099172	0.17947	0.2736	0.26699	0.17241	0.078964	0.24192	0.34327	0.20685	-1.9625	-2.3104	-2.7062	-2.4708	-2.6771	-2.6937	-2.4604	-2.8229	-2.425	-2.2396	-2.825	-2.4542	-2.6271	-2.5979	-2.2292	-2.8063	78.555	162.710	43.293	-70.315	162.839	35.034	162.590	96.349	103.632	-22.818	224.400	-30.649	171.310	228.911	197.897	203.306	0.00047074	0.00012448	0.00037597	1545	4.5938e-06	5.5502e-06	1532.6	410.5	7.8867e-06	2.1484e-06	464.93	150.33	130.8	43.967	1.0009e-05	55.337	0.0020101	0.0020745	0.00057608	1628.5	2.2603e-05	2.2895e-05	1621.8	440.36	2.2947e-05	2.3107e-05	504.63	165.06	144.17	48.916	2.3397e-05	61.902	125.481	-77.949	-65.809	-76.672	39.849	159.194	-76.787	-72.122	0.767	-64.400	-72.760	-68.623	-68.070	-63.134	84.840	-63.646	-8191	255	
13999.611	1	1	0	0	0.12199	0.39683	0.2439	0.33856	0.063208	0.21817	0.34986	0.14684	0.24687	0.065312	0.16191	0.27422	0.46467	0.31008	0.040755	0.23618	-1.9917	-2.3479	-2.9021	-2.7438	-2.5312	-2.7125	-2.5896	-3.0292	-2.5104	-2.2354	-2.7542	-2.5229	-2.5625	-2.75	-2.3937	-2.6688	-53.442	245.623	79.945	246.524	204.782	-66.104	138.083	96.978	156.358	-8.672	58.823	171.815	255.786	257.551	177.067	223.111	0.0005416	8.0136e-05	0.00042344	1540	4.6655e-06	4.8154e-06	1526.4	410.96	6.382e-06	8.6417e-06	463.12	150.02	130.09	44.131	5.6552e-06	55.512	0.0020897	0.0021627	0.00060115	1631	2.3748e-05	2.4012e-05	1625.2	442.07	2.4092e-05	2.4253e-05	507.57	165.52	144.6	49.162	2.4406e-05	62.208	139.927	6.471	55.174	-76.690	-2.842	164.128	-76.638	-72.320	212.452	6.681	-72.686	-68.734	-67.997	-63.389	25.281	-63.778	-8191	255	
13999.731	1	1	0	0	0.068356	0.1731	0.25203	0.22565	0.16339	0.10486	0.47506	0.26795	0.27813	0.2556	0.32528	0.23132	0.17188	0.072183	0.24968	0.44249	-2.1604	-2.3021	-2.5208	-2.5312	-2.3917	-2.75	-2.3333	-2.7792	-2.3958	-2.1479	-2.9167	-2.5521	-2.6562	-2.7646	-2.2854	-2.6042	143.529	-67.454	141.622	244.716	-0.234	227.476	217.125	210.645	108.929	178.145	222.702	-67.831	255.241	-49.953	-30.203	153.629	0.00031179	0.0002002	0.00014787	1536.7	2.1153e-06	7.5999e-06	1530.6	410.82	8.1973e-06	6.2859e-06	462.87	150.17	129.98	44.176	5.6959e-06	55.452	0.0021468	0.0022093	0.00061928	1633.3	2.4117e-05	2.4068e-05	1624.8	441.08	2.3641e-05	2.3828e-05	506.86	165.26	144.45	49.048	2.3799e-05	62.05	108.585	-50.082	-24.753	-76.822	118.615	78.031	-76.864	-72.222	-77.775	-0.076	-72.558	-68.731	-67.821	-63.322	155.280	-63.859	-8191	255	
13999.827	1	1	0	0	0.040702	0.20473	0.049523	0.33008	0.1229	0.089606	0.095177	0.32441	0.267	0.008964	0.094741	0.1693	0.072355	0.099484	0.066456	0.18147	-2.1333	-2.1542	-2.7104	-2.4896	-2.4313	-2.6604	-2.5563	-2.6771	-2.8875	-2.2583	-2.6833	-2.6292	-2.5417	-2.8312	-2.2604	-2.4583	57.512	-20.969	128.412	205.619	-75.763	118.935	176.871	230.220	6.360	150.404	27.465	204.539	-39.573	102.622	105.492	-27.780	0.00046474	0.00040823	0.00033156	1536.2	5.6077e-06	1.5002e-05	1533.5	410.31	6.9239e-06	9.6164e-06	466.07	149.72	129.87	44.467	3.679e-06	55.573	0.0020919	0.0021619	0.00060449	1629.7	2.3672e-05	2.3947e-05	1624.2	441.64	2.3823e-05	2.4064e-05	508.05	165.69	144.61	49.329	2.4169e-05	62.271	136.381	-80.318	-49.637	-76.701	38.827	122.963	-76.701	-72.412	81.951	136.384	-72.744	-68.581	-67.944	-63.161	-51.644	-63.870	-8191	255	
13999.923	1	1	0	0	0.063837	0.11666	0.18908	0.17976	0.034466	0.17484	0.32098	0.22492	0.095697	0.065159	0.29536	0.31705	0.1414	0.13119	0.2087	0.096709	-2.1729	-2.1667	-2.5208	-2.7687	-2.2542	-2.7521	-2.5271	-2.6604	-2.4979	-2.3375	-2.75	-2.6437	-2.3417	-2.9271	-2.5292	-2.7667	-83.669	-18.674	208.543	187.285	215.852	47.191	197.633	237.745	-14.678	151.221	203.210	228.210	133.844	224.716	32.459	197.594	0.00031972	0.00041107	7.3679e-05	1540.3	9.6387e-06	1.2903e-05	1531.3	409.46	1.177e-05	8.355e-06	463.05	150.54	129.71	44.082	9.8285e-06	55.441	0.0021505	0.0022091	0.00061974	1633.1	2.3984e-05	2.4209e-05	1625.2	442.08	2.3849e-05	2.3965e-05	506.97	165.71	144.28	49.138	2.3728e-05	62.133	143.353	80.222	242.321	-76.681	33.604	-7.911	-76.644	-72.263	53.847	-72.748	-72.439	-68.603	-68.087	-63.308	35.675	-64.010	-8191	255	
14000.044	1	1	0	0	0.15306	0.18855	0.045793	0.14462	0.26146	0.14257	0.19798	0.11299	0.24206	0.09267	0.097755	0.26058	0.11762	0.069928	0.14703	0.15616	-2.1458	-2.3583	-2.6896	-2.5625	-2.2	-2.7583	-2.6146	-2.5167	-2.8354	-2.1292	-2.8812	-2.5021	-2.2292	-2.6833	-2.5292	-2.3083	55.131	115.369	48.668	249.970	45.096	158.070	217.541	269.522	263.775	188.855	177.971	-63.635	254.611	258.864	232.125	224.506	0.00063592	0.00069221	7.8057e-05	1544.4	1.4762e-05	3.7123e-06	1533.7	409.78	3.8984e-06	9.304e-06	463.58	150.51	130.81	44.473	7.1576e-06	55.279	0.0020985	0.002168	0.00060713	1635.7	2.3824e-05	2.3922e-05	1629.4	441.68	2.377e-05	2.4073e-05	507.95	165.63	144.85	49.21	2.4109e-05	62.118	120.937	-23.806	229.832	-76.710	54.856	193.465	-76.795	-72.209	-48.539	111.607	-72.594	-68.632	-67.888	-63.118	227.840	-63.555	-8191	255	
14000.114	1	1	0	0	0.14313	0.072477	0.10934	0.36507	0.0019314	0.19394	0.12642	0.27247	0.22107	0.14085	0.047857	0.39163	0.20183	0.070971	0.18519	0.1721	-2.2438	-2.4479	-2.5854	-2.9354	-2.3604	-2.8063	-2.8063	-2.4188	-2.7938	-2.3833	-2.5167	-2.7938	-2.4375	-2.7271	-2.3229	-2.3208	170.727	118.817	-7.302	225.755	180.000	141.503	196.433	191.632	-70.221	13.486	192.889	256.106	112.492	200.916	108.258	258.549	0.00023385	0.00020538	9.3483e-05	1539.2	1.1533e-05	1.1182e-05	1532.2	409.49	1.1743e-05	9.1929e-06	464.89	149.69	130.72	44.544	1.968e-05	55.531	0.0021138	0.0021863	0.00060995	1631.2	2.377e-05	2.3891e-05	1628.5	441.52	2.3781e-05	2.3953e-05	507.09	165.43	144.7	49.241	2.4026e-05	62.101	114.041	-64.524	-10.052	-76.575	29.325	104.778	-76.836	-72.108	-31.549	-54.412	-72.596	-68.749	-67.896	-63.176	46.975	-63.990	-8191	255	
14000.210	1	1	0	0	0.2915	0.25122	0.18695	0.22362	0.10553	0.14286	0.30336	0.10699	0.1262	0.12168	0.17598	0.079825	0.25076	0.22746	0.31066	0.11813	-2.2208	-2.3063	-2.3042	-2.7687	-2.3333	-2.8083	-2.9688	-2.4625	-2.7667	-2.5521	-2.5521	-3.0229	-2.5542	-2.6854	-2.5583	-2.4	-55.253	-20.451	-62.015	-88.574	78.972	59.897	221.872	216.342	94.832	121.241	166.225	222.463	-83.036	-45.719	224.385	152.392	0.00032632	0.00026066	0.00041247	1547.3	4.7446e-06	7.0887e-06	1532.5	411.62	1.2456e-05	3.3028e-06	461.95	149.95	129.98	44.273	4.7111e-06	55.385	0.002117	0.0021933	0.00060809	1635.4	2.3763e-05	2.3932e-05	1627.2	441.94	2.3471e-05	2.3672e-05	506.11	165.12	144.36	49.072	2.3298e-05	61.933	119.685	18.309	-20.715	-76.769	-32.907	175.210	-76.715	-72.183	162.023	211.767	-72.647	-68.858	-68.000	-63.320	202.655	-63.684	-8191	255	
14000.306	1	1	0	0	0.2232	0.17111	0.060301	0.225	0.31709	0.053676	0.28619	0.037819	0.055866	0.23513	0.19626	0.099396	0.18156	0.30478	0.11023	0.17222	-2.075	-2.3979	-2.3104	-3.0875	-2.3542	-2.6417	-2.6958	-2.5146	-2.6958	-2.6271	-2.5625	-2.9479	-2.4646	-2.5292	-2.7062	-2.4562	-70.822	29.257	78.845	223.297	134.783	209.111	211.510	25.491	114.322	-6.270	230.894	190.790	185.505	236.813	7.317	115.625	0.00011585	0.00024584	0.00028399	1538.3	9.9494e-06	1.0424e-05	1529.3	410.59	2.7374e-06	7.4764e-07	462.25	150.23	129.69	44.228	9.5351e-06	55.316	0.002056	0.0021158	0.00058889	1626.1	2.2926e-05	2.3425e-05	1622	440.05	2.3066e-05	2.3198e-05	505.2	165.22	143.9	49.135	2.3841e-05	62.008	243.206	116.063	-73.853	-76.733	28.544	50.359	-76.966	-72.325	-42.489	-12.480	-72.663	-68.686	-67.855	-63.109	84.211	-63.870	-8191	255	
14000.427	1	1	0	0	0.19095	0.17248	0.17389	0.17375	0.12216	0.06055	0.45819	0.2082	0.10366	0.35812	0.21725	0.26685	0.15861	0.19089	0.075426	0.2319	-2.2208	-2.4938	-2.2083	-2.7042	-2.4	-2.3688	-2.8417	-2.4854	-2.5229	-2.6542	-2.5458	-2.6458	-2.3625	-2.5167	-2.6375	-2.3479	0.824	-20.785	181.229	-84.443	183.727	125.802	232.484	-33.062	251.453	106.268	-85.375	-70.896	2.397	254.928	234.897	245.259	0.00045642	0.00030179	0.00012457	1544.9	3.8551e-06	5.1424e-06	1534.1	409.7	7.3527e-06	1.2048e-05	463.88	150.06	130.85	44.438	1.3937e-06	55.74	0.0020948	0.0021882	0.00060909	1633	2.3658e-05	2.4019e-05	1626.4	441.61	2.3667e-05	2.375e-05	507.55	164.95	144.51	49.122	2.3443e-05	61.989	76.271	-39.757	-30.990	-76.823	144.224	-6.462	-76.850	-72.162	148.771	16.336	-72.770	-68.666	-68.116	-63.350	151.447	-63.832	-8191	255	
14000.523	1	1	0	0	0.12563	0.22293	0.11973	0.32518	0.27359	0.2862	0.2848	0.24295	0.031463	0.1091	0.11346	0.13658	0.33539	0.17951	0.2149	0.030864	-1.9792	-2.5979	-2.4417	-2.9271	-2.6083	-2.6167	-2.8042	-2.4625	-2.7292	-2.6146	-2.4333	-2.9333	-2.5417	-2.3792	-2.8563	-2.7	222.374	65.680	90.689	223.846	-78.286	129.670	262.795	206.897	182.488	-41.368	-78.009	115.170	207.062	-86.751	-69.390	265.392	0.00023399	0.0011014	0.00014468	1547.6	4.0106e-06	3.951e-06	1531.1	409.79	6.4155e-06	1.0711e-05	464.36	149.73	130.51	44.31	4.9648e-06	55.695	0.0020496	0.0021091	0.0005816	1633.3	2.2727e-05	2.3101e-05	1623.4	440	2.294e-05	2.3168e-05	505.22	165.04	144.32	49.162	2.3431e-05	62.03	83.440	50.060	134.409	-76.782	13.739	-24.593	-76.868	-72.261	99.223	-35.245	-72.525	-68.809	-67.960	-63.108	56.208	-63.967	-8191	255	
14000.619	1	1	0	0	0.28511	0.30219	0.15992	0.25586	0.0057886	0.045097	0.31434	0.24454	0.21741	0.41698	0.18132	0.22469	0.24377	0.15759	0.19112	0.34963	-2.0271	-2.5771	-2.2958	-2.8354	-2.4542	-2.5687	-2.9813	-2.4979	-2.5417	-2.6375	-2.4646	-2.7417	-2.3708	-2.4854	-2.7188	-2.475	14.447	59.758	-25.256	156.947	265.241	223.158	191.745	158.614	-64.027	33.327	236.807	214.205	186.902	24.462	29.391	245.243	0.00052311	0.00044694	3.4003e-05	1540.6	9.8693e-06	6.4087e-06	1530.5	411.4	5.458e-06	7.6067e-06	465.63	149.78	129.71	44.328	8.8023e-06	55.353	0.0020984	0.0021757	0.00060783	1632.6	2.3905e-05	2.4105e-05	1628.8	442.54	2.3928e-05	2.4159e-05	508.12	165.78	144.71	49.277	2.4072e-05	62.099	116.429	-39.853	136.214	-76.642	116.877	45.284	-76.779	-72.210	54.718	63.268	-72.687	-68.669	-67.896	-63.448	3.792	-63.887	-8191	255	
14000.691	1	1	0	0	0.18722	0.26409	0.18502	0.23898	0.11204	0.16994	0.30595	0.21456	0.21391	0.11769	0.054012	0.072272	0.15326	0.19822	0.18746	0.25177	-2.15	-2.5479	-2.1625	-2.8563	-2.8229	-2.1771	-3.0917	-2.6042	-2.5125	-2.6813	-2.3854	-2.6625	-2.8125	-2.475	-2.7646	-2.4604	233.131	64.099	53.414	257.998	173.262	181.403	209.461	204.530	125.894	93.333	-22.213	149.883	-13.135	217.377	111.552	144.325	0.00019314	0.00076996	0.0003272	1545.3	9.3962e-06	4.995e-06	1531.3	411.3	1.1758e-05	1.4637e-05	463.26	150.44	130.16	44.296	6.5197e-06	55.425	0.0021193	0.0021803	0.00060452	1635.9	2.3508e-05	2.3848e-05	1627.1	441.81	2.3662e-05	2.3748e-05	506.7	165.52	144.58	49.224	2.3805e-05	62.038	101.076	252.882	-34.370	-76.773	-33.102	3.137	-76.929	-72.302	84.299	57.003	-72.784	-68.604	-68.059	-63.430	141.323	-63.912	-8191	255	
14000.812	1	1	0	0	0.15777	0.20252	0.10515	0.44342	0.20228	0.13848	0.20194	0.17318	0.21244	0.09488	0.10763	0.18464	0.077968	0.12939	0.20685	0.11097	-1.9521	-2.6396	-2.3104	-2.8146	-2.5417	-2.4313	-2.9313	-2.675	-2.3812	-2.8063	-2.4729	-2.7875	-2.8167	-2.4479	-2.7417	-2.7208	192.127	-77.056	213.028	244.529	256.974	205.338	151.119	212.879	184.302	220.673	116.205	148.608	155.803	84.084	-77.680	-89.667	0.0007162	0.000987	0.00017669	1548.7	3.2083e-06	1.2734e-05	1532.8	411.05	8.4598e-06	1.1455e-05	464.27	150.32	129.82	44.16	1.0612e-05	55.386	0.0020939	0.0021778	0.00060206	1635.8	2.3545e-05	2.3765e-05	1628.1	442.33	2.3808e-05	2.3791e-05	507.05	165.98	144.47	49.161	2.3968e-05	62.14	109.439	7.677	66.131	-76.666	90.543	60.736	-76.866	-72.183	126.984	24.163	-72.559	-68.448	-67.811	-63.313	0.995	-63.568	-8191	255	
14000.908	1	1	0	0	0.10757	0.20621	0.32658	0.41814	0.080881	0.10797	0.12822	0.29645	0.20884	0.097301	0.033594	0.1321	0.24372	0.34125	0.17648	0.039599	-1.8104	-2.7917	-2.4021	-2.7583	-2.5521	-2.2146	-2.5979	-2.7875	-2.3458	-2.9083	-2.4458	-2.5479	-2.7333	-2.3896	-2.6688	-2.7313	134.580	80.304	182.029	238.834	6.792	209.594	165.796	207.924	-34.605	266.845	107.641	-31.403	248.707	216.218	60.604	184.453	0.00057559	0.00037175	0.000119	1545.2	7.8128e-06	1.0412e-05	1535.8	410.71	1.2327e-05	8.1423e-06	465.09	149.96	130.27	44.379	9.2302e-07	55.573	0.0021284	0.0021807	0.00060539	1635.8	2.3769e-05	2.3833e-05	1630.1	441.71	2.3785e-05	2.3827e-05	507.73	165.56	144.83	49.179	2.4046e-05	62.204	97.504	36.789	-8.070	-76.792	225.783	83.577	-76.750	-72.592	-13.941	3.743	-72.718	-68.485	-67.986	-63.430	255.268	-63.743	-8191	255	
14001.004	1	1	0	0	0.11142	0.10449	0.28935	0.14988	0.15023	0.13007	0.21859	0.49892	0.147	0.29516	0.23473	0.26635	0.2261	0.23876	0.1173	0.025655	-1.9792	-2.8396	-2.2687	-2.6292	-2.5396	-2.2375	-2.9271	-2.7271	-2.175	-2.8792	-2.6646	-2.3917	-2.7708	-2.3937	-2.8604	-2.6896	253.162	219.688	146.527	220.693	206.441	248.911	250.874	195.031	187.002	39.442	251.293	207.646	-67.510	246.450	180.005	241.640	0.00045194	0.00070471	0.00016786	1543.8	1.0652e-05	5.4823e-06	1531.1	411.18	1.228e-05	5.2365e-06	463.21	150.86	130.17	44.238	5.2649e-06	55.156	0.0021113	0.0021714	0.00060388	1633.6	2.3632e-05	2.3741e-05	1626.7	441.92	2.3607e-05	2.3688e-05	506.51	165.69	144.62	49.09	2.3846e-05	62.099	134.196	78.830	-11.691	-76.797	-34.044	19.812	-76.898	-72.216	34.451	242.818	-72.614	-68.699	-67.948	-63.302	87.605	-63.620	-8191	255	
14001.124	1	1	0	0	0.2603	0.21123	0.1648	0.18632	0.16719	0.22142	0.41964	0.34335	0.084294	0.16668	0.35823	0.24738	0.28432	0.040742	0.14973	0.24265	-1.9854	-2.5479	-2.425	-2.7104	-2.8729	-2.5125	-2.7146	-2.7333	-2.2896	-2.6312	-2.5563	-2.6667	-2.925	-2.5125	-2.4792	-2.7542	156.655	68.041	130.168	197.384	138.429	-24.092	194.138	204.031	12.407	199.089	208.133	240.249	241.644	168.934	-54.561	205.896	0.00034651	0.0011099	0.00031286	1551.4	7.7292e-06	5.0414e-06	1533.4	412.04	6.2313e-06	1.1684e-06	465.48	150.77	129.89	44.561	3.0784e-06	55.561	0.002092	0.0021731	0.00060054	1633.8	2.3442e-05	2.3718e-05	1627.4	441.61	2.358e-05	2.3799e-05	507.73	165.4	144.52	49.27	2.3608e-05	62.074	81.268	-41.613	44.229	-76.664	14.551	147.008	-76.908	-72.277	-83.901	158.410	-72.631	-68.474	-67.904	-63.572	67.455	-64.145	-8191	255	
14001.219	1	1	0	0	0.18613	0.31143	0.17762	0.43587	0.04132	0.26331	0.28265	0.045246	0.36533	0.14151	0.033636	0.11132	0.01262	0.38156	0.048166	0.20741	-1.7875	-2.725	-2.5938	-2.4625	-2.8854	-2.3917	-2.7188	-2.7958	-2.2833	-2.7083	-2.8146	-2.325	-2.9104	-2.5479	-2.425	-2.8	121.946	-37.110	95.679	222.102	40.208	185.813	269.541	-43.708	197.098	117.338	237.592	63.977	-72.210	-82.248	-60.936	180.096	0.0002336	0.00073068	0.0004151	1542.3	5.7087e-06	1.0615e-05	1536.7	413.21	1.4231e-05	1.2717e-05	463.23	150.48	130.64	44.353	4.8555e-07	55.514	0.0020732	0.0021464	0.00059659	1631.4	2.3397e-05	2.3511e-05	1624.2	442.46	2.3324e-05	2.3716e-05	506.76	165.36	144.39	49.207	2.3855e-05	62.039	64.732	250.705	-18.834	-76.775	108.492	-8.293	-76.760	-72.312	42.774	29.480	-72.675	-68.738	-68.003	-63.246	136.747	-63.909	-8191	255	
14001.315	1	1	0	0	0.072457	0.21848	0.24035	0.40264	0.1162	0.20904	0.28505	0.10049	0.11636	0.18003	0.21247	0.23345	0.3252	0.039861	0.024681	0.06399	-1.8312	-2.5333	-2.5854	-2.6292	-2.8417	-2.3958	-2.525	-2.8542	-2.3375	-2.6354	-2.7896	-2.2583	-2.75	-2.7333	-2.2479	-2.7479	62.999	100.853	22.250	193.301	-48.081	171.447	248.157	161.888	1.922	-33.499	230.513	204.977	-21.131	-15.838	165.483	192.738	0.00046837	0.00030404	0.0003444	1545.4	1.5458e-06	2.1883e-06	1533.8	410.01	7.797e-06	4.6254e-06	466.93	150.26	130.08	44.425	4.8601e-06	55.431	0.0020886	0.0021747	0.00060378	1634.3	2.3273e-05	2.3756e-05	1625.9	441.62	2.3369e-05	2.3596e-05	507.33	165.36	144.38	49.178	2.3491e-05	62.012	117.878	85.313	-8.715	-76.594	-7.251	-31.860	-77.001	-72.301	-63.563	14.292	-72.497	-68.544	-68.229	-63.413	2.219	-64.081	-8191	255	
14001.411	1	1	0	0	0.29162	0.066304	0.35778	0.19178	0.12715	0.16955	0.2385	0.25973	0.12589	0.15482	0.10768	0.16016	0.088574	0.10299	0.17574	0.084197	-1.8354	-2.6292	-2.4979	-2.4479	-2.6229	-2.45	-2.5292	-2.7812	-2.4646	-2.6125	-2.8167	-2.3187	-2.8229	-2.6375	-2.2313	-2.7562	65.671	-40.030	-14.935	220.854	223.719	102.261	242.403	201.217	69.132	42.688	145.101	238.328	-36.916	204.879	9.504	-39.690	0.0004309	0.00095015	0.00019044	1541.2	3.0092e-06	5.8212e-07	1535.7	411.81	6.1884e-06	6.9872e-06	466.03	150.34	129.95	44.335	7.8373e-06	55.442	0.0020711	0.0021267	0.00059208	1631.1	2.3112e-05	2.3415e-05	1625.8	441.65	2.3203e-05	2.3375e-05	506.62	165.32	144.23	49.141	2.3353e-05	61.901	123.872	-24.847	-24.152	-76.658	-61.844	220.636	-76.793	-72.363	250.137	13.346	-72.565	-68.517	-68.193	-63.467	76.968	-63.919	-8191	255	
14001.507	1	1	0	0	0.12773	0.074661	0.2821	0.22899	0.10977	0.1368	0.22378	0.32814	0.06714	0.2998	0.21282	0.19477	0.059257	0.094013	0.3425	0.28646	-1.9146	-2.5	-2.6562	-2.4229	-2.6604	-2.4875	-2.4146	-2.8625	-2.5417	-2.4542	-2.875	-2.3312	-2.6708	-2.8542	-2.4	-2.8896	36.886	221.597	175.793	184.692	-66.470	24.428	248.488	241.041	12.237	129.163	230.167	80.598	114.285	218.952	210.357	234.825	0.00016778	0.00034644	0.00055065	1544.6	1.0799e-05	5.5732e-06	1532.2	410.49	1.0328e-05	4.3576e-06	466.77	150.55	130.5	44.419	4.8477e-06	55.583	0.0020549	0.0021373	0.00059012	1632.4	2.3051e-05	2.3265e-05	1625.4	440.9	2.3171e-05	2.3216e-05	506.99	165.21	144.42	49.103	2.3178e-05	61.956	78.840	41.707	-28.127	-76.842	104.998	198.546	-76.866	-72.275	210.085	36.023	-72.604	-68.904	-67.831	-63.351	132.326	-63.700	-8191	255	
14001.603	1	1	0	0	0.18329	0.24796	0.042405	0.58925	0.21717	0.063896	0.14341	0.16565	0.15127	0.098648	0.46617	0.24653	0.065349	0.062404	0.21476	0.057048	-2.0833	-2.4479	-2.5792	-2.4479	-2.5938	-2.7271	-2.4417	-2.9396	-2.6167	-2.4771	-3.0271	-2.5521	-2.4875	-2.9042	-2.2854	-2.7667	-78.978	84.537	17.571	243.258	85.962	78.420	178.878	-79.850	222.392	-52.085	189.196	157.020	88.793	254.197	134.149	265.031	0.000366	0.00060747	0.00026287	1546	7.3219e-06	6.967e-06	1541	411.85	8.7693e-06	4.5923e-06	463.18	149.94	130.78	44.456	3.0661e-06	55.353	0.0020416	0.0021121	0.00058671	1631.7	2.2954e-05	2.3203e-05	1628.3	441.41	2.3073e-05	2.3363e-05	506.55	165.24	144.62	49.167	2.355e-05	62.064	150.233	-66.471	50.416	-76.555	205.220	91.518	-76.830	-72.126	102.586	-58.915	-72.894	-68.249	-68.250	-63.317	19.951	-63.901	-8191	255	
14001.724	1	1	0	0	0.1913	0.16699	0.10577	0.1955	0.13293	0.22596	0.39755	0.092321	0.058622	0.18984	0.17738	0.18735	0.32032	0.29274	0.16776	0.18323	-2.075	-2.225	-2.7562	-2.5875	-2.5417	-2.7333	-2.5958	-2.8417	-2.4083	-2.4458	-2.9667	-2.6417	-2.5708	-2.8771	-2.1813	-2.9313	95.440	-88.955	-55.194	222.101	45.536	149.687	212.582	245.004	-23.804	186.160	263.896	198.124	267.414	232.834	85.966	250.712	0.0003812	0.00076377	0.00021517	1540.3	1.1091e-05	3.0845e-06	1532	412.98	6.6571e-06	6.2663e-06	465.88	150.11	130.28	44.513	8.4316e-06	55.696	0.0020926	0.0021557	0.00060174	1633.2	2.3305e-05	2.3417e-05	1624.9	442.43	2.33e-05	2.3545e-05	506.38	165.46	144.66	49.184	2.3634e-05	62.118	101.942	-65.044	47.798	-76.841	124.482	79.679	-76.814	-72.525	170.252	42.472	-72.713	-68.544	-67.928	-63.223	268.618	-63.730	-8191	255	
14001.820	1	1	0	0	0.36963	0.1467	0.2532	0.35517	0.11482	0.17944	0.080487	0.28391	0.038401	0.17574	0.16918	0.29846	0.24451	0.18743	0.048701	0.15154	-2.1104	-2.4833	-2.6479	-2.5521	-2.4542	-2.8146	-2.5833	-2.8417	-2.6354	-2.4083	-2.9562	-2.4646	-2.6104	-3.0042	-2.3229	-2.7687	33.533	77.451	127.962	180.005	-51.758	-47.462	111.525	156.934	169.377	230.093	-79.048	228.269	-87.241	217.625	69.458	237.164	0.00052548	0.00051317	4.0049e-05	1548.8	1.0492e-06	6.3714e-06	1539.4	409.82	4.0408e-06	2.6923e-06	464.02	150.62	130.22	44.36	4.1356e-06	55.853	0.0020888	0.0021588	0.00060082	1635.5	2.3549e-05	2.3593e-05	1626.9	442.17	2.3387e-05	2.328e-05	506.49	165.48	144.55	49.125	2.3385e-05	62.224	113.941	23.502	29.238	-76.643	194.572	18.423	-76.718	-72.156	136.624	-67.592	-72.788	-68.479	-67.917	-63.319	-90.085	-63.975	-8191	255	
14001.916	1	1	0	0	0.19805	0.073363	0.12314	0.045965	0.31584	0.20412	0.14643	0.36523	0.13018	0.067994	0.13154	0.081941	0.30204	0.27041	0.2692	0.061131	-2.1375	-2.2833	-2.6646	-2.6813	-2.1917	-2.7938	-2.4917	-2.6188	-2.7792	-2.3479	-2.7333	-2.6833	-2.4208	-2.9896	-2.45	-2.7438	175.110	50.357	52.900	-18.619	3.477	-22.355	147.368	212.963	-17.690	174.065	-82.690	-55.188	269.260	-26.746	15.782	169.147	0.00016642	0.00078099	0.00036464	1546.3	1.1326e-05	8.9107e-06	1533.8	411.63	1.5597e-05	7.8101e-06	464.37	151.06	130.14	44.243	1.0415e-05	55.682	0.0020572	0.0021235	0.00059071	1632.2	2.3106e-05	2.3401e-05	1625.8	442.21	2.3255e-05	2.3507e-05	506.7	165.55	144.41	49.086	2.3332e-05	62.053	102.369	53.423	261.432	-76.812	242.984	88.934	-76.981	-72.161	-2.381	73.576	-72.558	-68.526	-68.068	-63.268	49.910	-63.708	-8191	255	
14001.988	1	1	0	0	0.21381	0.35404	0.15455	0.38385	0.16727	0.10004	0.27293	0.25257	0.030271	0.19035	0.21906	0.20799	0.22685	0.31152	0.24013	0.11842	-2.2708	-2.2417	-2.7313	-2.7479	-2.3667	-2.8438	-2.7167	-2.6208	-2.6542	-2.5271	-2.6937	-2.6937	-2.3646	-2.7229	-2.4021	-2.4875	4.039	-64.908	137.019	227.960	179.557	223.120	236.504	-59.837	189.239	184.980	187.273	209.735	254.194	-40.894	141.107	162.679	0.00067815	0.00061251	0.00014177	1548.1	1.4645e-05	1.6949e-05	1541.1	411.97	8.706e-06	2.8467e-06	465.82	150.08	130.85	44.455	3.2762e-06	55.827	0.0020552	0.0021063	0.00058785	1632.8	2.2741e-05	2.2934e-05	1623.8	441.25	2.2691e-05	2.2923e-05	506.3	165.03	144.21	49.098	2.297e-05	61.974	93.622	21.021	-21.330	-76.738	12.136	82.163	-76.780	-72.284	41.878	43.005	-72.996	-68.502	-67.943	-63.214	92.927	-63.673	-8191	255	
14002.107	1	1	0	0	0.26114	0.16827	0.092717	0.2722	0.17472	0.044526	0.3291	0.15728	0.25301	0.072738	0.17695	0.18584	0.36865	0.28051	0.20323	0.17635	-2.2438	-2.1271	-2.4625	-2.5479	-2.2146	-2.6458	-2.6146	-2.4104	-2.6875	-2.1521	-2.6229	-2.7042	-2.3688	-2.7417	-2.6542	-2.4333	248.054	34.544	91.276	220.050	-83.022	35.185	222.311	33.712	-66.340	-1.113	234.283	154.100	-57.349	260.040	-41.414	199.545	0.00064414	0.0005914	0.00022284	1551.9	4.7916e-06	1.1743e-05	1536.2	412.81	1.3073e-05	8.2203e-06	464.6	150.21	130.25	44.417	9.3118e-06	55.468	0.0020227	0.0020886	0.00058689	1634.4	2.2755e-05	2.3096e-05	1626.4	441.51	2.291e-05	2.2949e-05	505.96	165.29	144.3	49.149	2.3435e-05	62.117	100.595	165.935	14.923	-76.776	12.556	138.910	-76.949	-72.233	226.266	127.720	-73.100	-68.595	-67.786	-63.251	140.040	-63.687	-8191	255	
14002.203	1	1	0	0	0.29027	0.13971	0.34452	0.11527	0.063528	0.12057	0.16611	0.11601	0.18901	0.21572	0.074095	0.13785	0.23434	0.2959	0.13727	0.051537	-2.4125	-2.5396	-2.6708	-2.9813	-2.1646	-2.6437	-2.6063	-2.3208	-2.6625	-2.4167	-2.4813	-2.8646	-2.3021	-2.7375	-2.4667	-2.3312	147.427	68.105	196.019	208.542	32.171	254.497	227.727	215.550	226.450	-9.269	138.898	209.444	-78.714	225.048	-9.292	132.325	0.00032402	0.00053974	0.00016096	1547.1	8.5909e-06	5.6069e-06	1537.2	411.86	1.0571e-05	1.4951e-05	463.02	150.55	130.02	44.351	1.178e-05	55.437	0.0020768	0.0021432	0.0006004	1634.5	2.3365e-05	2.3656e-05	1631.1	442.31	2.3407e-05	2.3646e-05	506.23	165.3	144.2	49.069	2.3108e-05	61.806	150.687	-69.581	171.386	-77.014	113.213	204.219	-76.831	-72.269	-21.739	18.857	-72.559	-68.874	-67.837	-63.383	80.655	-63.914	-8191	255	
14002.299	1	1	0	0	0.22391	0.1614	0.062814	0.29976	0.2715	0.080902	0.23248	0.21489	0.27148	0.13218	0.325	0.21303	0.14608	0.25442	0.15086	0.17466	-2.2292	-2.4042	-2.4062	-2.8979	-2.2729	-2.6958	-2.7458	-2.2438	-2.6063	-2.5292	-2.5271	-2.8604	-2.3417	-2.5979	-2.6896	-2.1417	210.297	186.122	228.423	217.263	173.932	15.501	179.455	239.746	-67.851	263.384	146.044	203.817	221.903	214.634	20.057	-19.087	0.00042556	0.00081658	0.00010216	1548.3	1.3645e-05	1.19e-05	1535.6	412.18	4.5459e-06	3.7182e-06	464.75	150.3	129.75	44.261	1.0802e-05	55.422	0.0020123	0.0020832	0.00057731	1630.5	2.2337e-05	2.2592e-05	1623	441.15	2.2646e-05	2.2645e-05	505.86	165.06	143.7	49.044	2.3305e-05	61.965	157.935	0.910	34.897	-76.553	44.920	54.379	-76.927	-72.294	-41.857	88.205	-72.462	-68.777	-67.932	-63.215	9.181	-63.856	-8191	255	
14002.395	1	1	0	0	0.15363	0.028959	0.033274	0.26159	0.27305	0.046594	0.32955	0.20563	0.12046	0.10205	0.12276	0.30646	0.19304	0.23695	0.2025	0.17693	-2.2667	-2.1458	-2.2938	-2.8729	-2.1417	-2.5958	-2.7021	-2.4	-2.7104	-2.4396	-2.4813	-2.6771	-2.425	-2.6188	-2.5583	-2.2708	244.833	94.698	232.696	267.780	53.388	268.987	65.616	258.695	-50.143	234.123	55.819	-78.905	135.553	207.192	98.321	200.749	0.0002181	0.00082069	0.00042316	1545	8.9788e-06	7.5651e-06	1532.2	411.62	1.0018e-05	9.2754e-06	463.11	150.64	130.52	44.385	6.5584e-06	55.63	0.002046	0.002129	0.00059233	1631.4	2.2775e-05	2.305e-05	1621.9	441.35	2.2632e-05	2.2744e-05	504.71	164.82	144.1	48.988	2.2754e-05	61.851	58.233	244.383	-27.034	-76.835	-49.633	37.029	-76.911	-72.141	39.837	138.151	-72.551	-68.386	-68.051	-63.246	154.129	-63.943	-8191	255	
14002.492	1	1	0	0	0.15897	0.042572	0.32886	0.15293	0.10523	0.075794	0.26259	0.19564	0.059291	0.34135	0.034991	0.13925	0.12774	0.18118	0.084173	0.16509	-2.1688	-2.35	-2.175	-2.8896	-2.2375	-2.375	-2.85	-2.4146	-2.5583	-2.7146	-2.4958	-2.7604	-2.4562	-2.4646	-2.7396	-2.4229	18.246	-32.061	198.962	-38.214	112.601	243.589	245.135	43.352	52.547	-57.502	252.844	14.147	177.977	166.414	-23.786	242.885	0.00049665	0.00027387	0.00012807	1543.6	1.3415e-05	1.3485e-05	1535.9	411.28	1.3186e-05	6.0721e-06	463.88	150.79	129.96	44.557	8.4163e-06	55.579	0.0020076	0.0020658	0.00057538	1629.6	2.256e-05	2.2831e-05	1625.5	440.45	2.2724e-05	2.2885e-05	505.08	164.95	143.88	49.032	2.2827e-05	61.933	135.503	239.798	5.698	-76.734	89.546	89.329	-76.908	-72.170	-6.625	50.611	-72.749	-68.581	-68.157	-63.375	87.992	-63.857	-8191	255	
14002.588	1	1	0	0	0.21603	0.17968	0.14151	0.36477	0.30168	0.18202	0.32529	0.50996	0.075926	0.11419	0.22446	0.22388	0.11824	0.085141	0.11236	0.3537	-2.1646	-2.3937	-2.1875	-2.9458	-2.4354	-2.4583	-2.8	-2.4375	-2.4521	-2.5917	-2.3208	-2.8042	-2.5083	-2.3646	-2.5333	-2.5062	246.991	80.360	241.068	236.337	-18.685	-21.992	215.597	-75.974	-0.340	131.338	-88.427	189.021	6.509	-77.254	-51.734	136.564	0.000485	0.00048908	0.00015031	1552.5	4.4927e-06	2.6845e-06	1536.6	412.65	5.4274e-06	2.7556e-06	462.9	151.1	130.27	44.498	1.0247e-05	55.677	0.0020325	0.0020875	0.00057732	1632.7	2.2572e-05	2.2711e-05	1622.9	440.46	2.2463e-05	2.2502e-05	503.85	164.74	143.76	48.921	2.2501e-05	61.667	131.648	-37.400	56.565	-76.793	230.689	-40.516	-76.863	-72.062	76.544	97.220	-72.721	-68.489	-68.090	-63.307	39.201	-63.775	-8191	255	
14002.684	1	1	0	0	0.14475	0.10469	0.14633	0.30517	0.23793	0.11101	0.23855	0.11742	0.27135	0.08814	0.42921	0.20225	0.10649	0.19119	0.076803	0.26232	-2.0021	-2.5479	-2.3604	-2.9771	-2.6688	-2.525	-2.9	-2.7208	-2.5958	-2.7396	-2.4396	-2.7917	-2.7083	-2.4938	-2.6854	-2.6188	116.089	94.655	219.782	262.379	242.067	106.480	178.737	97.500	89.510	232.118	231.352	68.298	204.517	249.097	264.811	-89.645	0.00037049	0.00051287	0.00027958	1544.9	1.1894e-05	7.4051e-06	1536.3	410.87	8.2394e-06	2.5168e-06	463.27	150.36	129.7	44.495	7.2546e-06	55.53	0.0020028	0.0020603	0.00057235	1627.6	2.258e-05	2.2698e-05	1621.2	440.25	2.269e-05	2.2869e-05	504.45	164.93	143.55	49.023	2.2558e-05	61.81	127.256	2.334	-71.840	-76.492	-7.870	36.544	-77.011	-72.126	95.140	153.585	-72.435	-68.630	-67.685	-63.477	-49.401	-63.871	-8191	255	
14002.804	1	1	0	0	0.2206	0.12477	0.24537	0.24996	0.14476	0.11002	0.3741	0.40486	0.13321	0.092222	0.093357	0.20799	0.15443	0.11196	0.2699	0.065412	-2.2521	-2.6312	-2.1562	-2.9229	-2.5812	-2.1833	-2.8937	-2.5729	-2.4188	-2.9938	-2.4958	-2.65	-2.7583	-2.2792	-2.7875	-2.6021	239.732	198.997	-2.133	228.287	-70.873	36.849	222.464	262.654	265.354	31.109	225.492	180.414	172.433	224.309	116.199	113.051	0.00050588	0.00069706	0.00026575	1543.2	6.3794e-06	1.4704e-05	1527.9	410.88	9.1531e-06	6.7165e-06	462.35	150.19	130.13	44.14	1.3635e-05	55.617	0.0020159	0.0020597	0.00057118	1627.7	2.2445e-05	2.2516e-05	1615.9	439.59	2.233e-05	2.2399e-05	503.88	164.78	143.69	48.773	2.2682e-05	61.725	91.477	223.381	117.062	-76.712	54.127	-6.078	-77.082	-72.037	195.222	1.310	-72.480	-68.560	-67.608	-62.988	77.143	-63.845	-8191	255	
14002.901	1	1	0	0	0.14042	0.087382	0.11276	0.13963	0.12416	0.17354	0.036432	0.097243	0.13387	0.25684	0.2697	0.21049	0.20411	0.078792	0.038069	0.26092	-1.7938	-2.5771	-2.2062	-2.5792	-2.6417	-2.1458	-2.85	-2.5625	-2.3708	-2.8208	-2.4667	-2.5312	-2.5917	-2.5333	-2.5583	-2.4854	-44.972	-42.790	222.249	23.738	-31.356	15.299	204.311	179.066	-13.674	112.563	216.830	-74.482	192.142	-30.970	97.519	204.090	0.00016045	0.0011057	0.00016373	1546.1	1.0354e-05	4.345e-06	1528.7	410.74	9.4519e-06	2.8271e-06	463.5	149.81	130.34	44.303	1.8e-06	55.472	0.0019959	0.0020488	0.00056729	1625.9	2.2362e-05	2.2411e-05	1615.8	439.72	2.2168e-05	2.2474e-05	502.96	164.21	143.49	48.835	2.2408e-05	61.642	84.939	74.726	10.758	-76.646	50.947	26.074	-76.929	-72.246	92.341	44.860	-72.592	-68.462	-67.919	-63.264	73.176	-63.886	-8191	255	
14002.997	1	1	0	0	0.1737	0.30059	0.01505	0.12171	0.1187	0.09342	0.35068	0.21931	0.1329	0.22346	0.16064	0.36149	0.40965	0.31369	0.22244	0.071464	-1.9896	-2.575	-2.2708	-2.5208	-2.7	-2.2479	-2.7896	-2.6896	-2.3417	-2.7396	-2.4188	-2.4667	-2.4854	-2.4792	-2.7229	-2.6375	153.884	173.207	195.819	240.649	12.830	67.222	239.297	34.589	197.094	230.624	148.093	267.366	240.076	128.235	-36.661	151.410	0.00011445	0.0005897	0.0001384	1540.6	7.0388e-06	8.1179e-06	1531.4	411.14	2.5215e-06	2.4645e-06	463.05	150.2	129.66	44.238	5.5936e-06	55.501	0.0019762	0.002045	0.00056889	1623.2	2.2354e-05	2.2411e-05	1618.4	439.49	2.2306e-05	2.2426e-05	504.14	164.64	143.6	48.853	2.2557e-05	61.737	120.325	187.155	-19.441	-76.661	61.779	89.639	-76.669	-72.463	-20.385	165.710	-72.462	-68.613	-67.997	-63.311	265.474	-64.037	-8191	255	
14003.093	1	1	0	0	0.34656	0.030815	0.19239	0.1322	0.24681	0.073784	0.14481	0.191	0.19013	0.34004	0.1141	0.17254	0.41587	0.31436	0.24563	0.23187	-1.8	-2.6542	-2.4354	-2.5083	-2.675	-2.2083	-2.8229	-2.7708	-2.1	-2.8167	-2.5812	-2.3875	-2.7	-2.3625	-2.5812	-2.8542	100.043	-84.444	50.998	221.981	239.032	147.761	266.046	242.481	-85.804	38.663	-13.930	-12.098	228.631	252.233	210.367	227.810	0.00051385	0.00038675	0.00016601	1548.7	2.9681e-06	3.2811e-06	1534.6	410.01	6.3147e-06	3.8079e-06	462.2	150.31	130.32	44.417	2.1542e-06	55.386	0.0020111	0.0020775	0.00057761	1630.5	2.2372e-05	2.2667e-05	1621.7	439.9	2.2506e-05	2.2481e-05	503.94	164.38	143.31	48.823	2.2408e-05	61.6	97.317	-3.264	42.298	-76.769	78.579	101.767	-76.784	-72.087	5.837	65.142	-72.766	-68.535	-68.030	-63.146	-79.367	-63.857	-8191	255	
14003.212	1	1	0	0	0.11343	0.26589	0.26334	0.41976	0.14044	0.057578	0.15734	0.14677	0.21853	0.34425	0.32804	0.2982	0.19098	0.029313	0.14742	0.23083	-1.8625	-2.7167	-2.5958	-2.4792	-2.8167	-2.3021	-2.6708	-2.8292	-2.3542	-2.7896	-2.6646	-2.3792	-2.8771	-2.4958	-2.5292	-2.7729	121.961	108.935	212.379	226.628	-46.416	256.180	157.308	219.903	159.648	241.267	224.726	184.714	237.498	26.467	173.720	136.177	0.00065951	0.00066092	0.00031605	1543.8	3.3577e-06	1.8177e-05	1531.1	412.5	1.0131e-05	3.6416e-06	463.45	150.18	129.9	44.436	1.2304e-05	55.31	0.0019528	0.0020269	0.00056661	1628.2	2.2202e-05	2.2342e-05	1619.5	439.94	2.2207e-05	2.2313e-05	503.79	164.5	143.64	48.862	2.2351e-05	61.702	122.338	54.606	49.630	-76.759	33.012	19.909	-76.985	-72.178	-18.325	123.053	-72.480	-68.428	-67.863	-63.465	26.545	-63.774	-8191	255	
14003.283	1	1	0	0	0.17039	0.11022	0.16417	0.14808	0.24612	0.15781	0.14876	0.41088	0.038306	0.12552	0.43249	0.22325	0.028154	0.14289	0.18169	0.034465	-1.7708	-2.4625	-2.4792	-2.5875	-2.8333	-2.5542	-2.6771	-2.7833	-2.2958	-2.5833	-2.7729	-2.3542	-2.8937	-2.5854	-2.2396	-2.7646	268.723	252.083	20.855	234.994	184.090	-46.103	230.685	230.814	87.749	267.920	183.841	219.440	208.741	-63.096	-43.799	34.151	0.00043428	0.00095115	0.00046742	1540.9	1.1064e-05	7.6925e-06	1535.9	410.19	4.1188e-06	1.226e-05	463.99	150.42	129.98	44.256	7.218e-06	55.499	0.0019619	0.0020341	0.00056589	1626.5	2.2374e-05	2.2591e-05	1621.5	439.31	2.2639e-05	2.3043e-05	504.73	164.97	143.88	48.912	2.3192e-05	61.936	148.515	37.654	48.520	-76.717	4.793	89.734	-76.656	-72.404	220.878	-2.920	-72.961	-68.756	-68.018	-63.274	32.657	-63.846	-8191	255	
14003.404	1	1	0	0	0.22969	0.17339	0.25013	0.21711	0.23181	0.11627	0.12831	0.14465	0.18687	0.11945	0.38033	0.22127	0.33293	0.10631	0.17803	0.16536	-1.8792	-2.4125	-2.7313	-2.4458	-2.7396	-2.5396	-2.4104	-3.025	-2.2792	-2.5958	-2.7667	-2.2771	-2.7354	-2.3854	-2.2875	-2.6896	250.763	133.230	89.789	239.700	19.603	166.263	184.388	227.095	39.499	218.063	196.901	179.846	-61.351	-29.906	163.085	252.229	0.00049868	0.0011734	0.00012904	1537.3	7.9681e-06	2.1889e-06	1537.3	411.4	1.2694e-05	9.0996e-06	461.5	150.4	130.17	44.164	7.4954e-06	55.239	0.0020456	0.002132	0.00058961	1627.7	2.3141e-05	2.3346e-05	1622.8	440.93	2.3047e-05	2.3172e-05	504.49	164.91	143.92	48.947	2.3005e-05	61.729	159.989	-25.774	-79.743	-76.842	243.100	129.931	-76.720	-72.143	42.790	144.212	-72.483	-68.393	-68.202	-63.353	-33.511	-63.888	-8191	255	
14003.500	1	1	0	0	0.12511	0.061496	0.12504	0.36279	0.21638	0.091969	0.2299	0.11227	0.28098	0.066592	0.030044	0.21219	0.15	0.086685	0.041839	0.16257	-1.925	-2.4292	-2.7979	-2.3708	-2.5354	-2.4813	-2.3146	-3.0667	-2.3729	-2.3812	-2.7938	-2.4333	-2.6375	-2.5875	-2.1229	-2.8438	-2.457	-36.208	260.464	229.872	-79.289	157.399	227.328	253.268	92.783	170.708	34.369	206.173	-18.950	79.422	-35.009	91.108	0.00017279	0.00025799	0.00016641	1543.3	9.1013e-06	8.6402e-06	1532.3	409.44	7.7227e-06	9.8382e-06	464.62	150.22	130.27	44.462	4.8485e-06	55.566	0.0020156	0.0021046	0.00058372	1625.9	2.2744e-05	2.3051e-05	1619.3	439.74	2.2627e-05	2.2827e-05	504.05	164.73	143.78	48.957	2.2867e-05	61.844	88.366	-50.137	-1.134	-76.835	112.320	11.606	-76.729	-72.329	-15.218	15.092	-72.636	-68.701	-67.901	-63.456	116.153	-63.748	-8191	255	
14003.596	1	1	0	0	0.10598	0.33444	0.18826	0.056816	0.18952	0.092522	0.20717	0.38587	0.22662	0.12967	0.30665	0.25246	0.14005	0.079811	0.24117	0.35757	-2.0479	-2.2354	-2.6667	-2.4667	-2.8	-2.6521	-2.35	-2.8729	-2.3854	-2.2042	-2.7792	-2.45	-2.5812	-2.6729	-2.1312	-2.5917	219.491	204.817	234.097	194.955	-83.306	-10.866	255.686	213.625	197.701	229.510	230.778	185.205	218.598	251.569	-38.557	163.696	0.00046808	9.3043e-05	0.00029008	1544.7	7.2194e-06	1.38e-05	1531.6	410.36	5.4987e-06	1.3642e-06	463.28	150.21	129.79	44.355	4.7953e-06	55.664	0.0020271	0.0020921	0.00058289	1628.1	2.2895e-05	2.3068e-05	1621.1	440.54	2.2838e-05	2.3024e-05	504.67	164.71	143.78	48.948	2.2741e-05	61.887	100.236	209.095	61.363	-76.710	25.445	14.601	-76.921	-72.089	97.175	16.433	-72.746	-68.655	-68.092	-63.079	82.080	-63.769	-8191	255	
14003.693	1	1	0	0	0.032598	0.065109	0.10545	0.34287	0.15568	0.20547	0.33991	0.038961	0.028027	0.11589	0.28367	0.14103	0.34691	0.31581	0.2046	0.20561	-1.9917	-2.3396	-2.8187	-2.5583	-2.5563	-2.8063	-2.45	-2.8208	-2.5104	-2.3646	-2.8271	-2.4729	-2.5125	-2.7917	-2.2188	-2.7667	-27.207	73.990	206.675	257.622	-11.582	-16.390	261.540	217.778	190.262	241.945	154.216	140.558	-50.708	229.292	-46.318	171.798	0.00056785	0.00024533	0.00030534	1542.3	7.4224e-06	9.3343e-06	1530.6	412.06	9.304e-06	6.5513e-06	462.61	150.5	130.2	44.105	1.6447e-06	55.352	0.0020124	0.0020779	0.00057459	1626.4	2.267e-05	2.2777e-05	1621.2	440.39	2.2666e-05	2.2878e-05	505.25	164.77	143.64	48.927	2.2988e-05	61.849	102.391	232.758	17.385	-76.774	72.368	-22.547	-76.862	-71.876	92.437	-9.277	-72.734	-68.763	-68.058	-63.263	102.816	-63.823	-8191	255	
14003.813	1	1	0	0	0.065812	0.17704	0.10657	0.14497	0.019304	0.17412	0.29805	0.18631	0.2459	0.28618	0.34952	0.33784	0.32273	0.16002	0.14094	0.33031	-2.0625	-2.1646	-2.7125	-2.4562	-2.4938	-2.7938	-2.2979	-2.8167	-2.4667	-2.2646	-2.9646	-2.525	-2.4229	-2.8979	-2.3563	-2.6312	107.713	220.109	172.846	217.070	141.086	198.727	174.449	210.336	200.393	-39.848	240.067	230.694	128.581	216.570	63.451	202.977	0.00040101	0.001162	0.00011249	1542.2	1.3423e-05	6.934e-06	1532.7	412.08	6.5825e-06	1.0747e-05	465.42	149.86	129.59	44.338	5.6196e-06	55.658	0.002029	0.0020952	0.00058143	1627.3	2.292e-05	2.2979e-05	1621.6	441.1	2.2968e-05	2.3127e-05	505.58	164.86	143.75	48.902	2.3008e-05	61.874	118.597	3.118	-20.968	-76.583	15.165	-9.455	-76.701	-72.300	176.945	79.889	-72.880	-68.619	-67.817	-63.150	239.984	-63.842	-8191	255	
14003.885	1	1	0	0	0.048575	0.11625	0.12731	0.30359	0.1641	0.2572	0.25087	0.16991	0.092535	0.21471	0.19033	0.15659	0.17556	0.28728	0.23033	0.17055	-2.1208	-2.3896	-2.6271	-2.7167	-2.2917	-2.6688	-2.4271	-2.7167	-2.4813	-2.1417	-2.8167	-2.6271	-2.3854	-3.0417	-2.2042	-2.6083	77.332	-12.719	191.874	269.681	196.094	204.698	213.362	-88.117	58.866	104.599	139.662	30.257	203.626	223.211	200.286	162.656	0.00036603	0.0012348	0.00018041	1547.2	3.346e-06	8.3641e-06	1530.9	411.93	5.499e-06	4.6372e-06	464.08	149.66	129.96	44.361	7.1056e-06	55.686	0.0020449	0.0021062	0.00058494	1631.1	2.2999e-05	2.303e-05	1622.3	440.58	2.3192e-05	2.3363e-05	506.58	164.83	144.09	49.08	2.3389e-05	62.002	103.417	-29.507	0.807	-76.681	116.143	8.535	-76.876	-72.248	-19.047	11.877	-72.547	-68.625	-67.766	-63.520	33.053	-63.640	-8191	255	
14003.981	1	1	0	0	0.21966	0.058877	0.15255	0.33419	0.063569	0.11839	0.1846	0.29177	0.24416	0.17854	0.081493	0.22603	0.23604	0.21056	0.1414	0.19739	-2.2812	-2.2375	-2.6917	-2.6792	-2.1562	-2.7167	-2.5875	-2.6458	-2.8792	-2.3229	-2.7333	-2.6083	-2.2208	-2.7708	-2.4667	-2.4875	263.389	247.191	194.008	265.311	192.817	-10.843	209.627	249.696	-5.494	83.489	262.702	245.611	-86.722	106.385	-13.738	234.087	0.00028388	0.00068866	6.7377e-05	1542.6	1.2809e-05	8.3073e-06	1532.3	411.51	1.3114e-05	1.011e-05	464.51	150.71	129.94	44.232	6.6592e-06	55.295	0.0020531	0.0021183	0.00059092	1630.7	2.2998e-05	2.3151e-05	1622.8	440.99	2.317e-05	2.3358e-05	506.93	165.39	144.4	49.113	2.3505e-05	62.033	156.315	-7.203	74.722	-76.970	243.490	-2.639	-76.951	-72.041	212.992	36.055	-72.687	-68.825	-67.907	-63.464	16.544	-63.807	-8191	255	
14004.077	1	1	0	0	0.15889	0.088165	0.16742	0.18943	0.3276	0.21547	0.32317	0.086327	0.24546	0.28596	0.1855	0.18162	0.12309	0.23985	0.015522	0.007604	-2.3458	-2.2042	-2.4896	-2.8354	-2.4167	-2.7938	-2.6229	-2.6146	-2.7938	-2.2167	-2.7562	-2.6604	-2.4958	-2.8875	-2.4667	-2.4667	-5.430	29.185	139.923	209.385	76.090	-48.319	184.081	209.006	117.704	85.947	184.570	-55.929	257.657	243.645	263.773	-45.686	0.00036937	0.00045172	0.00018117	1545.5	4.8286e-06	7.8985e-06	1532.4	411.31	1.3744e-05	6.4337e-06	465.21	150.75	130.32	44.311	1.3328e-05	55.428	0.0020723	0.0021375	0.0005973	1629.3	2.3271e-05	2.3583e-05	1624.4	441.81	2.3237e-05	2.3474e-05	507.29	165.21	144.35	49.096	2.3424e-05	62.072	148.126	-42.168	-85.707	-76.761	-11.788	237.109	-76.776	-72.232	36.825	40.662	-72.577	-68.568	-67.795	-63.358	32.259	-63.805	-8191	255	
14004.173	1	1	0	0	0.14833	0.29504	0.23874	0.06491	0.15066	0.085735	0.2303	0.10583	0.10509	0.32099	0.1388	0.31783	0.15438	0.2689	0.27346	0.24245	-2.3854	-2.2396	-2.5333	-2.7542	-2.2062	-2.675	-2.7771	-2.5083	-2.6646	-2.4375	-2.4917	-2.8979	-2.3625	-2.7375	-2.5375	-2.4229	54.757	-79.829	200.351	179.012	-70.373	103.218	152.396	155.188	257.910	17.942	196.802	225.612	43.776	-88.342	118.427	1.537	0.00060915	0.0015614	0.00017955	1548.9	1.234e-05	1.2759e-05	1534.8	410.43	8.6644e-06	1.2428e-05	463.62	150.53	130.28	44.264	6.6659e-07	55.823	0.0020756	0.0021414	0.00059983	1633.7	2.3386e-05	2.3681e-05	1625.7	440.99	2.3327e-05	2.3558e-05	506.63	165.59	144.41	49.187	2.3672e-05	62.189	96.321	-20.291	-63.881	-76.773	1.258	18.252	-76.873	-72.133	84.393	71.833	-72.603	-68.408	-67.804	-63.016	55.478	-63.905	-8191	255	
14004.292	1	1	0	0	0.284	0.1474	0.08871	0.1229	0.11657	0.15042	0.21777	0.21621	0.26815	0.32464	0.24897	0.13294	0.28548	0.15252	0.1105	0.11176	-2.25	-2.5083	-2.3292	-2.9417	-2.2562	-2.5792	-2.8063	-2.3458	-2.7875	-2.4854	-2.4979	-2.7729	-2.45	-2.6104	-2.6875	-2.3625	206.831	101.896	64.967	175.416	230.238	-49.456	163.433	202.616	75.080	250.636	141.326	222.637	-86.529	161.546	103.816	168.432	0.00083483	0.00024622	0.00024477	1545	8.3457e-06	7.4545e-06	1542.8	411.28	1.2571e-05	1.2863e-05	463.56	150.12	130.63	44.464	7.7804e-06	55.56	0.0020992	0.0021703	0.00060705	1635.7	2.367e-05	2.3963e-05	1630.5	442.05	2.3897e-05	2.4112e-05	508.01	165.4	144.78	49.313	2.4007e-05	62.132	127.320	-5.559	-49.508	-76.824	29.809	61.687	-76.564	-72.227	-27.034	94.661	-72.479	-68.874	-68.123	-63.307	48.503	-63.938	-8191	255	
14004.388	1	1	0	0	0.148	0.098459	0.12212	0.27972	0.35452	0.14188	0.23575	0.22117	0.036825	0.15138	0.31237	0.080023	0.24395	0.18759	0.18704	0.44995	-2.3146	-2.4333	-2.4479	-2.7958	-2.1833	-2.5938	-2.4979	-2.3354	-2.6375	-2.5271	-2.3104	-3.1042	-2.5687	-2.5583	-2.6333	-2.4271	29.689	-25.997	179.799	221.101	15.051	188.454	234.120	230.296	-4.725	18.599	254.209	180.216	-90.080	229.376	150.524	228.999	0.00061801	0.00032521	0.00015524	1542.1	3.5344e-06	8.2903e-06	1532.1	411.11	1.6304e-05	1.54e-05	465.8	150.36	130.11	44.367	6.7623e-06	55.412	0.0021168	0.0021799	0.00060748	1632.6	2.3775e-05	2.411e-05	1629	442.28	2.4043e-05	2.4298e-05	508.61	165.85	144.93	49.322	2.4506e-05	62.263	115.167	33.849	221.397	-76.603	56.853	55.868	-76.912	-72.336	41.233	22.015	-72.731	-68.455	-68.020	-63.163	59.436	-64.077	-8191	255	
14004.484	1	1	0	0	0.066603	0.19787	0.10202	0.213	0.1737	0.093823	0.13476	0.1871	0.057577	0.33273	0.22565	0.17688	0.18374	0.22124	0.039123	0.059519	-2.3458	-2.4021	-2.2125	-2.875	-2.4062	-2.5104	-2.6208	-2.4125	-2.775	-2.6021	-2.4313	-2.7625	-2.5	-2.4583	-2.6167	-2.4333	1.549	49.954	255.543	203.411	210.475	255.828	-39.675	-48.728	102.627	-49.322	194.046	136.384	-46.403	215.717	117.156	-68.089	0.00045663	0.00039983	0.00016313	1551.6	9.7786e-06	3.1981e-06	1531.4	411.16	1.6647e-05	9.5788e-06	465.96	150.24	130.11	44.438	8.6823e-06	55.59	0.0021469	0.0022176	0.0006165	1636.7	2.3925e-05	2.4442e-05	1629.3	442.15	2.4062e-05	2.4259e-05	507.71	165.6	144.53	49.298	2.413e-05	62.142	108.480	-22.337	18.285	-76.763	-4.333	64.329	-76.843	-72.114	-19.088	158.153	-72.513	-68.462	-67.935	-63.281	64.394	-63.929	-8191	255	
14004.581	1	1	0	0	0.17627	0.11667	0.34472	0.059187	0.21788	0.12674	0.29738	0.3197	0.18862	0.1099	0.23603	0.10199	0.25139	0.2112	0.10594	0.14875	-2.2188	-2.4625	-2.3479	-2.9875	-2.3896	-2.4542	-2.9958	-2.4313	-2.4042	-2.5729	-2.4146	-2.8333	-2.6542	-2.4458	-2.7146	-2.4292	264.620	-43.164	-75.223	2.215	169.982	141.106	214.997	180.777	-19.557	194.050	246.932	122.988	-55.130	-82.587	58.115	250.341	0.00073115	0.00054221	0.00023576	1548.1	3.7631e-06	3.1873e-06	1535.3	410.54	3.0563e-06	9.0781e-06	466.15	150.19	130.01	44.333	1.2037e-05	55.576	0.0021293	0.0022092	0.00061554	1636.3	2.4123e-05	2.4272e-05	1628.3	442.58	2.4404e-05	2.4576e-05	508.01	166.03	144.84	49.301	2.4601e-05	62.372	121.361	-21.168	-25.814	-76.707	-3.423	171.742	-76.784	-72.153	204.335	22.075	-72.470	-68.420	-67.984	-63.566	-47.284	-63.899	-8191	255	
14004.677	1	1	0	0	0.11147	0.17657	0.27738	0.24526	0.18548	0.14913	0.40568	0.28372	0.112	0.08836	0.34202	0.20262	0.060464	0.12307	0.078423	0.15987	-2.0438	-2.6771	-2.2646	-2.8146	-2.4021	-2.3479	-2.9521	-2.5917	-2.5604	-2.7167	-2.35	-2.7354	-2.6396	-2.525	-2.6312	-2.2771	51.458	-47.358	41.587	259.883	-26.400	55.222	181.623	222.151	79.028	-8.932	227.100	247.930	187.757	189.607	80.887	-51.761	0.00035283	0.00011619	3.2371e-05	1547.7	1.4333e-05	7.5352e-06	1532.8	411.47	1.1765e-05	9.2173e-06	462.86	150.07	129.88	44.315	2.4655e-06	55.413	0.0021712	0.0022552	0.00062622	1638.7	2.4376e-05	2.4497e-05	1631.6	443	2.4209e-05	2.4274e-05	507.21	165.82	144.57	49.268	2.4239e-05	62.224	121.629	-68.591	-5.756	-76.709	14.995	43.629	-76.679	-72.309	-57.151	21.994	-72.716	-68.437	-67.982	-63.135	210.933	-63.648	-8191	255	
14004.773	1	1	0	0	0.26009	0.10526	0.2184	0.15917	0.081413	0.19598	0.12767	0.20393	0.35261	0.1074	0.28002	0.16979	0.16141	0.23948	0.11954	0.28049	-2.0021	-2.7917	-2.0417	-2.7042	-2.4729	-2.4125	-2.9313	-2.525	-2.3417	-2.6729	-2.4437	-2.6854	-2.4417	-2.4146	-2.6333	-2.5083	240.948	235.302	243.791	233.748	-87.191	35.593	223.477	254.771	42.244	62.314	179.557	206.275	162.889	-84.993	201.310	133.082	0.00028764	0.00078995	0.00011966	1543.7	5.2538e-06	1.2218e-05	1531.6	410.91	8.1662e-06	6.05e-06	466.36	150.27	130.26	44.256	1.3083e-05	55.615	0.0021711	0.0022305	0.00062185	1639	2.4409e-05	2.4627e-05	1628	443.4	2.4738e-05	2.4767e-05	509.03	166.34	145.16	49.366	2.477e-05	62.384	96.476	52.691	-51.731	-76.802	-31.933	85.644	-77.006	-72.207	-82.504	16.969	-72.611	-68.604	-67.995	-63.180	-46.170	-64.102	-8191	255	
14004.894	1	1	0	0	0.19736	0.054647	0.14683	0.42727	0.12897	0.097005	0.20195	0.18839	0.090223	0.034721	0.17994	0.26545	0.022706	0.22868	0.24282	0.37134	-1.7354	-2.7438	-2.1208	-2.6917	-2.6625	-2.2562	-3.0042	-2.7083	-2.3104	-2.7438	-2.5875	-2.5	-2.9583	-2.3333	-2.6354	-2.5583	221.152	23.321	103.628	225.434	35.130	149.659	248.099	213.799	167.664	152.714	188.639	257.630	83.901	174.686	98.666	233.713	0.00064213	0.00084079	0.00011828	1547.4	9.6066e-06	1.0975e-05	1533.7	411.47	9.4547e-06	3.2832e-06	464.09	151.09	129.89	44.289	1.3718e-05	55.605	0.0021721	0.0022567	0.00062328	1638.1	2.425e-05	2.4552e-05	1630.9	442.99	2.436e-05	2.465e-05	509.17	166.24	144.91	49.317	2.4799e-05	62.443	85.452	71.735	203.821	-76.880	195.719	22.544	-76.647	-72.106	-68.618	108.774	-72.412	-68.658	-68.052	-62.846	133.113	-63.879	-8191	255	
14004.990	1	1	0	0	0.14268	0.18888	0.048366	0.60403	0.084118	0.29656	0.29365	0.15842	0.23933	0.13112	0.30967	0.34468	0.25902	0.079989	0.28297	0.1259	-1.8271	-2.7229	-2.2938	-2.5479	-2.6958	-2.2979	-2.7333	-2.7417	-2.2229	-2.9813	-2.5458	-2.4729	-2.7687	-2.475	-2.4854	-2.6188	226.751	-38.449	129.705	222.803	261.644	169.066	182.777	195.115	49.515	16.151	211.607	264.210	213.335	-28.360	223.990	-87.132	0.00040738	0.00020368	0.00018485	1551.2	1.3119e-05	5.0373e-06	1534.1	411.11	1.1223e-05	4.4124e-06	464.72	151.52	130.39	44.187	1.0136e-05	55.516	0.0022106	0.0022558	0.00063658	1638.3	2.4765e-05	2.4848e-05	1633.2	443.56	2.4666e-05	2.4766e-05	509.29	166.58	145.17	49.255	2.4545e-05	62.313	101.137	16.037	-16.946	-76.725	-44.895	65.874	-76.793	-72.400	265.685	61.060	-72.557	-68.502	-67.996	-63.260	164.550	-63.789	-8191	255	
14005.086	1	1	0	0	0.27514	0.10881	0.15815	0.024562	0.1649	0.13455	0.23638	0.16842	0.24645	0.15607	0.074083	0.24654	0.16006	0.20107	0.13487	0.060847	-1.7167	-2.6354	-2.3083	-2.4854	-2.5896	-2.3958	-2.8708	-2.7417	-2.1958	-2.9083	-2.4854	-2.5875	-3.0042	-2.3083	-2.4375	-2.7917	-58.024	168.762	128.454	181.457	127.109	-84.720	200.681	163.954	79.110	102.438	39.107	211.227	252.838	192.899	103.057	-35.763	0.00044816	0.00015573	0.00049024	1548.1	3.3e-06	8.9202e-06	1533	409.71	1.5475e-05	3.5629e-06	462.88	150.74	129.44	44.281	4.2446e-06	55.712	0.0021613	0.0022203	0.00062049	1639	2.4083e-05	2.4307e-05	1630.4	442.85	2.4143e-05	2.4186e-05	507.58	166.14	144.68	49.264	2.4641e-05	62.511	116.018	251.806	47.505	-76.747	-1.923	31.838	-76.833	-72.206	-55.300	-35.268	-72.458	-68.566	-68.020	-63.500	6.944	-63.891	-8191	255	
14005.180	1	1	0	0	0.062868	0.15256	0.076451	0.26971	0.21231	0.15963	0.48951	0.11378	0.24346	0.25061	0.012161	0.25877	0.24627	0.244	0.062754	0.14506	-1.8354	-2.6833	-2.5521	-2.5563	-2.7917	-2.3833	-2.6229	-2.9667	-2.3438	-2.7188	-2.6333	-2.3958	-2.8083	-2.3583	-2.375	-2.6625	194.675	91.995	232.208	216.005	78.269	-56.151	224.194	150.945	64.409	111.916	-49.664	247.841	179.458	148.817	102.308	216.990	0.00048833	0.00040002	7.097e-05	1544.5	4.2708e-06	1.1524e-05	1535.7	411.12	1.3097e-05	6.2536e-06	463.94	150.77	130.11	44.478	8.7131e-06	55.497	0.0021761	0.0022403	0.00062805	1639.4	2.4456e-05	2.4726e-05	1633.8	443.7	2.4588e-05	2.4872e-05	509.09	166.32	144.8	49.412	2.4701e-05	62.335	130.371	152.072	88.147	-76.700	258.783	131.314	-76.883	-72.302	-79.533	56.146	-72.692	-68.426	-67.820	-63.126	-3.691	-63.680	-8191	255	
#DATA ENDS
