BOXY.EXE: ISS Imagent and Oximeter Data Acquisition Program Version 0.80
Ascii Record File

#ACQ INFORMATION
2  Detector Channels 
16  External MUX Channels 
1  Auxiliary Channels 
5000  Waveform (CCF) Frequency (Hz)
1  Waveforms Skipped 
30  Waveforms Averaged 
1  Cycles Averaged 
16  Acquisitions per Waveform 
10.0806  Updata Rate (Hz) 

#FILE INFORMATION
TRUE -- External MUX Channel results are PARSED.
FALSE -- AC DC and Phase are NOT grouped.
TRUE -- Companion Program Settings File CREATED.
FALSE -- AC data not excluded
FALSE -- DC data not excluded
FALSE -- Phase data not excluded
FALSE -- Auxillary Chn. data not excluded
Tab delimiters

#CALIBRATION STATE
TRUE -- Waveform Calibration Values APPLIED.


#AUX CALIBRATION VALUES
Val Type	aux-1	

Term	1.0000e+00	
Factor	0.0000e+00	


#WF CALIBRATION VALUES
A = Detector Channel
Val Type	A-AC1	A-AC2	A-AC3	A-AC4	A-AC5	A-AC6	A-AC7	A-AC8	A-AC9	A-AC10	A-AC11	A-AC12	A-AC13	A-AC14	A-AC15	A-AC16	A-DC1	A-DC2	A-DC3	A-DC4	A-DC5	A-DC6	A-DC7	A-DC8	A-DC9	A-DC10	A-DC11	A-DC12	A-DC13	A-DC14	A-DC15	A-DC16	A-Ph1	A-Ph2	A-Ph3	A-Ph4	A-Ph5	A-Ph6	A-Ph7	A-Ph8	A-Ph9	A-Ph10	A-Ph11	A-Ph12	A-Ph13	A-Ph14	A-Ph15	A-Ph16	

Term	0.00000e+00	0.00000e+00	0.00000e+00	0.00000e+00	0.00000e+00	0.00000e+00	0.00000e+00	0.00000e+00	0.00000e+00	0.00000e+00	0.00000e+00	0.00000e+00	0.00000e+00	0.00000e+00	0.00000e+00	0.00000e+00	0.00000e+00	0.00000e+00	0.00000e+00	0.00000e+00	0.00000e+00	0.00000e+00	0.00000e+00	0.00000e+00	0.00000e+00	0.00000e+00	0.00000e+00	0.00000e+00	0.00000e+00	0.00000e+00	0.00000e+00	0.00000e+00	0.00000e+00	0.00000e+00	0.00000e+00	0.00000e+00	0.00000e+00	0.00000e+00	0.00000e+00	0.00000e+00	0.00000e+00	0.00000e+00	0.00000e+00	0.00000e+00	0.00000e+00	0.00000e+00	0.00000e+00	0.00000e+00	
Factor	1.00000e+00	1.00000e+00	1.00000e+00	1.00000e+00	1.00000e+00	1.00000e+00	1.00000e+00	1.00000e+00	1.00000e+00	1.00000e+00	1.00000e+00	1.00000e+00	1.00000e+00	1.00000e+00	1.00000e+00	1.00000e+00	1.00000e+00	1.00000e+00	1.00000e+00	1.00000e+00	1.00000e+00	1.00000e+00	1.00000e+00	1.00000e+00	1.00000e+00	1.00000e+00	1.00000e+00	1.00000e+00	1.00000e+00	1.00000e+00	1.00000e+00	1.00000e+00	X	X	X	X	X	X	X	X	X	X	X	X	X	X	X	X	

B = Detector Channel
Val Type	B-AC1	B-AC2	B-AC3	B-AC4	B-AC5	B-AC6	B-AC7	B-AC8	B-AC9	B-AC10	B-AC11	B-AC12	B-AC13	B-AC14	B-AC15	B-AC16	B-DC1	B-DC2	B-DC3	B-DC4	B-DC5	B-DC6	B-DC7	B-DC8	B-DC9	B-DC10	B-DC11	B-DC12	B-DC13	B-DC14	B-DC15	B-DC16	B-Ph1	B-Ph2	B-Ph3	B-Ph4	B-Ph5	B-Ph6	B-Ph7	B-Ph8	B-Ph9	B-Ph10	B-Ph11	B-Ph12	B-Ph13	B-Ph14	B-Ph15	B-Ph16	

Term	0.00000e+00	0.00000e+00	0.00000e+00	0.00000e+00	0.00000e+00	0.00000e+00	0.00000e+00	0.00000e+00	0.00000e+00	0.00000e+00	0.00000e+00	0.00000e+00	0.00000e+00	0.00000e+00	0.00000e+00	0.00000e+00	0.00000e+00	0.00000e+00	0.00000e+00	0.00000e+00	0.00000e+00	0.00000e+00	0.00000e+00	0.00000e+00	0.00000e+00	0.00000e+00	0.00000e+00	0.00000e+00	0.00000e+00	0.00000e+00	0.00000e+00	0.00000e+00	-2.01755e+02	-1.34409e+02	-1.35399e+02	-1.83083e+02	-7.80460e+01	-8.12555e+01	-1.60467e+02	-1.62015e+02	-8.85724e+01	-1.01881e+02	-1.72403e+02	-1.72793e+02	-1.83201e+02	-1.78124e+02	-8.67152e+01	-1.50843e+02	
Factor	3.95846e-05	9.73124e-05	3.25810e-05	1.60056e-01	1.18439e-06	1.23687e-06	1.74041e-01	5.40722e-02	1.55454e-06	1.21527e-06	8.19567e-02	2.70238e-02	2.54596e-02	8.25599e-03	1.22934e-06	1.17843e-02	1.81825e-06	1.89526e-06	5.27697e-07	8.49425e-02	2.06298e-08	2.08177e-08	8.67731e-02	2.86734e-02	2.06830e-08	2.08248e-08	4.19639e-02	1.38319e-02	1.35346e-02	4.39431e-03	2.08435e-08	6.06864e-03	X	X	X	X	X	X	X	X	X	X	X	X	X	X	X	X	



#DISTANCE SETTINGS
A = Detector Channel
A-1	A-2	A-3	A-4	A-5	A-6	A-7	A-8	A-9	A-10	A-11	A-12	A-13	A-14	A-15	A-16	

2.5000e+00	3.0000e+00	2.5000e+00	3.0000e+00	2.0000e+00	3.0000e+00	1.5000e+00	3.0000e+00	3.0000e+00	3.0000e+00	3.0000e+00	3.0000e+00	3.0000e+00	3.0000e+00	1.5000e+00	3.0000e+00	

B = Detector Channel
B-1	B-2	B-3	B-4	B-5	B-6	B-7	B-8	B-9	B-10	B-11	B-12	B-13	B-14	B-15	B-16	

1.0000e+01	1.0000e+01	1.0000e+01	1.4400e+00	1.0000e+01	1.0000e+01	1.5100e+00	1.9400e+00	1.0000e+01	1.0000e+01	1.9900e+00	2.4900e+00	2.4100e+00	2.9000e+00	1.0000e+01	2.9800e+00	




#DATA BEGINS
time	group	step	mark	flag	A-AC1	A-AC2	A-AC3	A-AC4	A-AC5	A-AC6	A-AC7	A-AC8	A-AC9	A-AC10	A-AC11	A-AC12	A-AC13	A-AC14	A-AC15	A-AC16	A-DC1	A-DC2	A-DC3	A-DC4	A-DC5	A-DC6	A-DC7	A-DC8	A-DC9	A-DC10	A-DC11	A-DC12	A-DC13	A-DC14	A-DC15	A-DC16	A-Ph1	A-Ph2	A-Ph3	A-Ph4	A-Ph5	A-Ph6	A-Ph7	A-Ph8	A-Ph9	A-Ph10	A-Ph11	A-Ph12	A-Ph13	A-Ph14	A-Ph15	A-Ph16	B-AC1	B-AC2	B-AC3	B-AC4	B-AC5	B-AC6	B-AC7	B-AC8	B-AC9	B-AC10	B-AC11	B-AC12	B-AC13	B-AC14	B-AC15	B-AC16	B-DC1	B-DC2	B-DC3	B-DC4	B-DC5	B-DC6	B-DC7	B-DC8	B-DC9	B-DC10	B-DC11	B-DC12	B-DC13	B-DC14	B-DC15	B-DC16	B-Ph1	B-Ph2	B-Ph3	B-Ph4	B-Ph5	B-Ph6	B-Ph7	B-Ph8	B-Ph9	B-Ph10	B-Ph11	B-Ph12	B-Ph13	B-Ph14	B-Ph15	B-Ph16	aux-1	digaux	

14098.509	1	1	0	256	0.15556	0.08906	0.079742	0.045158	0.068473	0.21281	0.11547	0.16957	0.23538	0.30746	0.12682	0.21023	0.19521	0.18925	0.26499	0.028908	-1.8479	-2.5062	-2.3042	-2.2188	-2.6979	-2.2104	-2.4104	-2.525	-2.2396	-2.4896	-2.3958	-2.1208	-2.4896	-2.3542	-2.2042	-2.7208	364.018	85.986	272.518	229.707	141.918	169.117	339.711	149.522	85.577	224.273	116.985	79.205	234.529	178.475	56.966	75.988	8.5111e-06	2.2469e-05	2.7413e-06	4.8431	3.1303e-07	5.9403e-07	4.8111	1.3255	5.3598e-07	4.4197e-07	1.5236	0.49242	0.42722	0.14616	3.6358e-07	0.17768	3.2198e-07	-1.8953e-06	-3.8918e-07	5.5067	-2.1618e-08	-1.6004e-08	5.4432	1.4834	-7.6699e-09	-1.4317e-08	1.6609	0.54924	0.47504	0.16253	-1.3548e-08	0.19799	56.681	101.257	160.282	49.795	257.412	266.027	49.646	54.819	208.134	295.789	54.659	57.606	59.689	63.692	143.196	61.901	-8191	255	
14098.605	1	1	0	0	0.047925	0.18787	0.18233	0.16968	0.10768	0.026664	0.23215	0.11404	0.22695	0.26759	0.29387	0.19769	0.25092	0.12884	0.10373	0.058973	-1.7667	-2.3542	-2.4562	-2.0771	-2.5708	-2.4021	-2.275	-2.5604	-2.175	-2.3438	-2.3854	-2.1521	-2.5312	-2.3583	-2.25	-2.5833	123.775	89.543	210.197	156.117	228.210	62.660	233.242	85.837	238.476	159.718	116.929	383.734	341.079	251.665	381.632	325.838	1.3885e-05	2.4334e-05	4.859e-06	4.8924	2.1835e-07	1.9692e-07	4.8893	1.3258	2.5956e-07	1.0885e-07	1.4813	0.48707	0.42573	0.14374	3.4593e-07	0.17927	-2.4622e-07	-1.8242e-06	-5.0571e-07	5.5158	-2.5658e-08	-1.7435e-08	5.4333	1.4824	-1.3746e-08	-2.3254e-08	1.6517	0.54913	0.47222	0.16195	-1.5112e-08	0.1975	71.682	254.519	201.531	49.827	179.168	387.906	49.630	55.187	292.140	66.734	54.274	58.447	59.308	63.473	372.380	62.176	-8191	255	
14098.701	1	1	0	0	0.12994	0.36996	0.11608	0.067837	0.16962	0.21362	0.036754	0.29778	0.40722	0.097255	0.18481	0.13192	0.11754	0.14576	0.1117	0.028727	-1.7396	-2.5187	-2.4437	-2.0563	-2.5083	-2.3646	-2.2313	-2.5729	-2.3417	-2.4729	-2.5021	-2.0208	-2.3208	-2.2833	-2.1104	-2.7104	38.859	195.383	91.283	85.544	376.102	169.176	297.545	187.662	293.838	187.136	259.282	185.014	65.982	341.584	135.188	205.070	2.9919e-06	2.071e-05	6.6508e-06	4.8572	5.259e-08	5.5783e-07	4.8093	1.3219	4.8201e-07	3.1672e-07	1.4697	0.4976	0.43041	0.14369	1.4921e-07	0.17827	-4.5835e-07	-2.1243e-06	-6.5632e-07	5.4829	-2.6647e-08	-2.3463e-08	5.4334	1.4806	-1.7107e-08	-1.8265e-08	1.6559	0.54561	0.47216	0.16138	-1.7456e-08	0.19727	315.454	304.119	81.196	49.927	117.974	85.097	50.160	55.549	375.891	358.670	53.523	58.089	59.193	64.306	214.504	61.657	-8191	255	
14098.797	1	1	0	0	0.57114	0.11189	0.067926	0.29033	0.18139	0.16265	0.064215	0.077208	0.21436	0.23658	0.12175	0.23193	0.075096	0.022354	0.10439	0.075426	-1.9646	-2.7021	-2.3271	-2.0167	-2.4188	-2.3479	-2.1979	-2.575	-2.2875	-2.3729	-2.5979	-2.0667	-2.4771	-2.2438	-2.1437	-2.4167	218.488	314.368	309.110	355.095	155.415	280.869	88.863	188.949	190.817	246.116	363.244	353.773	269.029	361.629	308.668	296.715	1.1039e-05	2.9922e-05	7.9562e-06	4.8189	4.0133e-07	1.9126e-07	4.8223	1.3308	2.6324e-07	2.1649e-07	1.4751	0.4879	0.42327	0.14223	2.4229e-07	0.17804	-1.0682e-06	-2.1953e-06	-6.3434e-07	5.4841	-2.4498e-08	-2.5892e-08	5.4334	1.4785	-1.8787e-08	-2.2951e-08	1.6432	0.54475	0.47236	0.16048	-1.9932e-08	0.1978	362.340	340.857	383.459	50.012	309.069	199.003	49.815	55.522	293.467	271.547	54.320	58.335	60.521	63.921	286.231	62.531	-8191	255	
14098.918	1	1	0	0	0.25297	0.25313	0.16178	0.2741	0.23813	0.071577	0.2102	0.11781	0.15766	0.043359	0.15094	0.070931	0.16007	0.36684	0.10194	0.20029	-1.9708	-2.3542	-2.4604	-2.0687	-2.2938	-2.5833	-1.9188	-2.4333	-2.3708	-2.1229	-2.5938	-2.0812	-2.2917	-2.3917	-2.025	-2.4771	61.906	354.432	149.056	50.731	146.345	52.599	325.787	68.334	107.242	352.143	339.189	351.065	185.893	94.674	201.203	160.218	1.0617e-05	3.4829e-05	6.5536e-06	4.8701	3.3881e-07	1.8616e-07	4.8024	1.3307	3.4491e-07	8.2094e-08	1.4864	0.48814	0.42993	0.14438	8.075e-08	0.17977	-4.5456e-07	-1.5044e-06	-5.6837e-07	5.4958	-2.1962e-08	-2.5111e-08	5.4345	1.4764	-2.3527e-08	-1.9176e-08	1.6426	0.54411	0.47315	0.15974	-1.6762e-08	0.1987	306.057	237.197	359.686	49.875	167.920	77.326	49.878	55.137	172.069	75.549	53.934	58.254	59.072	63.261	64.162	63.241	-8191	255	
14099.014	1	1	0	0	0.33556	0.22604	0.15719	0.09853	0.041162	0.14957	0.2142	0.053774	0.089195	0.15898	0.14492	0.22483	0.17494	0.092719	0.11954	0.21911	-1.9292	-2.1562	-2.4833	-2.0854	-2.1188	-2.5563	-1.9562	-2.3917	-2.3021	-2.2375	-2.5833	-2.1896	-2.3021	-2.5125	-2.2125	-2.4479	132.578	273.864	281.351	120.355	388.182	148.634	361.335	255.692	162.214	139.436	54.569	100.641	47.386	100.210	170.906	336.140	1.5434e-05	5.3207e-06	9.2392e-06	4.8875	4.2238e-07	2.5912e-07	4.8046	1.3224	1.0551e-07	3.4888e-07	1.5018	0.48711	0.42901	0.14147	3.6086e-07	0.17829	-9.9625e-07	-1.5123e-06	-6.8161e-07	5.4846	-2.3294e-08	-3.179e-08	5.4268	1.4794	-2.3958e-08	-2.1042e-08	1.6392	0.54477	0.47323	0.16061	-1.6631e-08	0.19751	49.121	163.745	385.151	49.781	94.884	329.862	49.800	55.211	150.611	270.304	53.245	58.657	58.539	64.036	112.353	62.182	-8191	255	
14099.614	1	1	0	256	0.081041	0.1352	0.29982	0.1918	0.12878	0.085476	0.036613	0.1025	0.079036	0.032493	0.16024	0.11078	0.070279	0.11715	0.075107	0.21897	-2.2667	-2.3375	-2.2542	-2.5812	-2.3937	-2.5708	-2.3354	-2.2229	-2.7875	-2.4437	-2.4021	-2.5542	-2.2104	-2.4792	-2.5729	-2.1229	83.922	92.968	316.996	58.010	76.770	126.391	133.939	136.328	344.447	209.740	33.300	115.499	217.969	336.033	153.071	66.968	5.7159e-05	3.2763e-05	4.4564e-06	118.1	3.8955e-08	1.5923e-07	117.68	32.187	1.0107e-06	5.4056e-07	36.343	11.884	10.283	3.4863	2.0114e-07	4.3417	1.3413e-05	1.211e-05	3.0749e-06	147.93	1.3353e-07	1.2022e-07	147.3	40.318	1.2686e-07	1.2248e-07	45.221	14.823	12.883	4.3807	1.2189e-07	5.429	72.260	110.165	0.112	0.368	88.331	146.483	0.087	5.301	161.472	90.905	4.399	8.809	9.495	14.173	115.482	13.152	-8191	255	
14099.710	1	1	0	0	0.13251	0.21746	0.069079	0.18565	0.12191	0.11554	0.13671	0.07663	0.16605	0.029494	0.084364	0.12914	0.14658	0.2021	0.10207	0.15524	-2.2729	-2.4667	-2.3125	-2.6146	-2.2104	-2.7104	-2.5292	-2.1875	-2.6437	-2.3271	-2.3125	-2.6479	-2.2062	-2.3583	-2.6458	-2.1813	260.703	-7.952	317.131	57.241	260.917	266.167	51.526	124.956	37.144	76.681	142.170	188.622	251.181	174.320	266.861	336.913	5.1898e-05	1.8987e-05	9.0558e-06	118.04	2.6664e-07	4.1624e-07	117.29	32.168	5.2355e-07	4.897e-07	36.222	11.785	10.328	3.4687	3.964e-07	4.3403	1.3766e-05	1.1593e-05	3.1915e-06	147.84	1.3182e-07	1.1909e-07	147.22	40.306	1.2121e-07	1.2473e-07	45.16	14.784	12.881	4.3826	1.284e-07	5.4405	74.909	55.523	117.469	0.186	110.126	108.073	0.326	5.646	167.731	117.802	4.419	8.613	9.596	14.241	60.176	12.993	-8191	255	
14099.806	1	1	0	0	0.094036	0.29573	0.19488	0.14144	0.15115	0.12083	0.11679	0.047119	0.14889	0.16495	0.16302	0.045888	0.12967	0.089206	0.15078	0.21888	-2.1042	-2.4396	-1.8854	-2.6854	-2.4667	-2.3583	-2.6042	-1.9625	-2.6583	-2.5271	-2.2708	-2.65	-2.3104	-2.4875	-2.5833	-2.1167	291.032	27.883	313.300	311.194	88.494	272.663	258.776	297.188	25.872	288.703	221.363	190.563	322.661	16.640	68.268	198.785	5.5063e-05	1.9159e-05	7.322e-06	118.13	1.5697e-07	5.5674e-07	117.19	32.188	3.2017e-07	4.8961e-07	36.534	11.779	10.329	3.4746	3.4953e-07	4.3586	1.4016e-05	1.1447e-05	3.3696e-06	147.97	1.2838e-07	1.1953e-07	147.23	40.378	1.2617e-07	1.2634e-07	45.258	14.806	12.91	4.3889	1.2419e-07	5.4482	77.882	34.873	38.088	0.482	179.179	132.088	0.228	5.447	188.191	90.501	4.365	9.209	9.492	14.192	131.464	12.780	-8191	255	
14099.902	1	1	0	0	0.2269	0.28633	0.16857	0.34149	0.099126	0.15733	0.19275	0.2544	0.13792	0.16208	0.056964	0.1693	0.06395	0.12328	0.27683	0.2367	-1.975	-2.4167	-2.3333	-2.7625	-2.2792	-2.2687	-2.6562	-2.2604	-2.5125	-2.5271	-2.2083	-2.6771	-2.1167	-2.3	-2.7396	-2.2104	121.377	122.648	72.649	143.376	181.254	27.212	76.224	8.389	247.696	123.400	85.547	132.960	343.688	330.728	-1.581	286.997	5.5232e-05	7.186e-06	8.5557e-06	118.66	5.241e-07	3.8956e-08	117.77	32.23	6.917e-07	4.6038e-07	36.391	11.783	10.319	3.487	3.1659e-07	4.3082	1.3838e-05	1.1458e-05	3.2486e-06	148.13	1.3306e-07	1.2048e-07	147.34	40.321	1.2884e-07	1.1922e-07	45.242	14.82	12.897	4.3892	1.2076e-07	5.4346	64.514	2.793	100.174	0.321	177.814	237.224	0.277	5.507	135.445	36.641	4.373	8.740	9.669	14.299	170.213	13.103	-8191	255	
14099.998	1	1	0	0	0.21529	0.15863	0.11124	0.18184	0.19289	0.1617	0.21204	0.25535	0.16973	0.14338	0.17861	0.2681	0.26363	0.19066	0.16224	0.25816	-2.0833	-2.425	-2.2833	-2.6604	-2.2083	-2.3167	-2.7583	-2.2479	-2.5021	-2.6771	-2.2833	-2.4688	-2.3771	-2.1583	-2.7604	-2.0146	175.454	344.353	-1.574	99.992	264.978	25.537	267.783	251.821	67.486	112.300	68.165	88.232	-8.844	151.971	140.474	59.599	5.7763e-05	3.3965e-05	2.0137e-05	117.96	6.3003e-08	3.5655e-07	117.81	32.197	2.2617e-07	3.1501e-07	36.138	11.875	10.305	3.5217	3.6742e-07	4.3378	1.4019e-05	1.1032e-05	3.2135e-06	147.92	1.3186e-07	1.2621e-07	147.36	40.302	1.2742e-07	1.1892e-07	45.124	14.814	12.882	4.3992	1.1876e-07	5.4494	75.130	72.828	51.041	0.221	34.901	105.664	0.196	5.620	84.079	83.047	4.477	9.082	9.408	14.343	181.999	12.908	-8191	255	
14100.095	1	1	0	0	0.068321	0.30544	0.088347	0.071807	0.24719	0.073668	0.18308	0.055906	0.18659	0.093436	0.22984	0.26016	0.30754	0.37665	0.18681	0.21381	-2.0521	-2.5271	-2.2458	-2.4917	-2.4729	-2.2125	-2.7208	-2.2979	-2.4854	-2.65	-2.0687	-2.4083	-2.625	-2.0458	-2.7333	-2.2729	1.543	123.603	28.711	158.078	246.779	140.884	302.604	110.030	208.292	167.094	344.418	253.978	299.964	212.826	100.074	167.026	6.7173e-05	3.0442e-05	6.7224e-06	118.17	3.0304e-07	5.6379e-07	117.48	32.149	5.7004e-07	1.3631e-07	36.186	11.815	10.293	3.4782	1.8526e-07	4.3363	1.3947e-05	1.0917e-05	3.2277e-06	147.87	1.2528e-07	1.1992e-07	147.16	40.323	1.2841e-07	1.115e-07	45.211	14.824	12.87	4.3863	1.2176e-07	5.4329	78.235	107.156	47.704	0.279	86.589	171.816	0.135	5.280	166.185	174.507	4.563	8.809	9.789	13.596	140.208	12.937	-8191	255	
14100.694	1	1	0	131328	0.19723	0.097477	0.24523	0.49864	0.13477	0.23445	0.47342	0.35807	0.22415	0.021207	0.36853	0.42752	0.3948	0.2817	0.17936	0.38612	-1.9229	-2.6292	-2.4792	-2.5042	-2.7313	-2.4813	-3	-3.0438	-2.3417	-2.6708	-3.0083	-2.6417	-2.8458	-2.7479	-2.4125	-2.8771	260.051	157.972	307.086	292.448	226.512	244.002	248.691	267.961	211.101	66.139	283.521	293.397	281.298	-35.208	232.682	264.344	0.00066496	0.0010272	0.00026625	1240	6.5923e-06	1.0134e-05	1308.9	562.14	1.1077e-05	7.2195e-06	968.46	318.64	301.34	99.541	9.9867e-06	128.4	0.00028698	0.00025314	6.9722e-05	2369.6	2.823e-06	2.7474e-06	2432.5	726.16	2.8481e-06	2.7131e-06	924.76	302.28	268.32	90.869	2.9609e-06	114.43	75.207	62.832	73.503	-21.660	126.110	88.113	-21.569	-18.935	112.979	103.536	-18.672	-15.104	-14.878	-10.168	111.160	-10.448	-8191	255	
14100.790	1	1	0	131072	0.25261	0.25003	0.1031	0.57204	0.11291	0.17409	0.40866	0.52865	0.28475	0.26186	0.20237	0.49255	0.40562	0.47928	0.20391	0.48785	-1.8542	-2.4354	-2.6229	-2.7562	-2.5292	-2.65	-2.8146	-2.8937	-2.3458	-2.7167	-3.0458	-2.5917	-2.9542	-2.6771	-2.3042	-3.1021	110.304	314.836	193.332	262.081	320.861	135.021	221.814	264.006	19.962	24.849	273.998	279.833	305.559	288.835	54.621	262.890	0.00069094	0.00044408	0.00032407	1234.9	6.9155e-06	1.0033e-05	1307.9	562.39	1.3549e-05	1.0553e-05	968.47	319.21	301.98	99.567	1.2005e-05	128.08	0.00028806	0.00025679	6.9133e-05	2372.3	2.8424e-06	2.7802e-06	2433	725.63	2.8084e-06	2.7485e-06	925	302.49	268.64	90.951	2.8344e-06	114.28	64.028	55.612	55.509	-21.653	121.565	116.886	-21.639	-18.901	130.762	67.355	-18.840	-15.105	-14.866	-10.144	111.043	-10.230	-8191	255	
14100.911	1	1	0	131072	0.13149	0.042739	0.19789	0.31975	0.43979	0.12291	0.55235	0.47923	0.29784	0.12197	0.14132	0.18014	0.34214	0.33313	0.25281	0.28086	-1.725	-2.5271	-2.6937	-2.6188	-2.6833	-2.4521	-2.5375	-3.0062	-2.4458	-2.5563	-2.8917	-2.6229	-2.9188	-2.8688	-2.4	-2.8917	24.332	-30.969	299.756	282.071	41.709	132.187	246.915	267.846	83.763	313.725	279.055	263.236	-26.504	297.647	128.378	270.060	0.00077584	0.0010725	0.00036251	1235.5	2.6542e-06	1.0411e-05	1306.7	560.98	6.0253e-06	8.1266e-06	970.1	318.95	302.35	99.265	6.5256e-06	128.32	0.00028445	0.00025009	7.0573e-05	2371.8	2.8138e-06	2.7602e-06	2433.9	726.55	2.817e-06	2.7664e-06	926.04	302.15	268.89	90.831	2.8303e-06	114.3	67.361	58.984	51.739	-21.465	151.386	106.074	-21.327	-18.836	64.085	77.377	-18.861	-15.352	-14.841	-10.296	116.265	-10.299	-8191	255	
14100.983	1	1	0	131072	0.50761	0.3369	0.10204	0.46498	0.083591	0.17819	0.52333	0.27803	0.28944	0.25439	0.28559	0.34545	0.25818	0.30221	0.054054	0.38314	-1.8062	-2.3771	-2.8458	-2.425	-2.4062	-2.6917	-2.6688	-2.8896	-2.2625	-2.3354	-2.9208	-2.5396	-2.5375	-2.6896	-2.3792	-2.9646	97.995	269.953	222.950	232.575	179.427	294.951	259.319	244.096	293.401	112.147	265.667	261.878	322.972	298.065	-34.366	278.424	0.00091207	0.00083904	0.0003886	1234.9	6.7051e-06	1.4016e-05	1305.1	562.37	7.3427e-06	2.8643e-06	967.81	318.65	301.94	99.639	1.2439e-05	127.84	0.00029015	0.00025076	7.0742e-05	2371.8	2.8082e-06	2.7577e-06	2434	726	2.8866e-06	2.7426e-06	925	302.71	269	91.072	2.8736e-06	114.21	57.264	45.610	50.581	-21.359	95.036	102.676	-21.553	-18.981	136.783	127.540	-19.144	-15.402	-14.934	-10.189	127.487	-10.148	-8191	255	
14101.079	1	1	0	131072	0.13433	0.18524	0.262	0.38336	0.21064	0.27818	0.62148	0.1817	0.1802	0.29422	0.46631	0.10341	0.085846	0.38117	0.11264	0.079127	-1.9104	-2.3563	-2.5812	-2.5792	-2.4938	-2.4458	-2.6854	-2.8	-2.45	-2.0833	-2.9938	-2.4917	-2.6333	-2.8542	-2.1729	-2.9167	166.749	-17.338	318.441	261.257	227.276	214.593	226.753	243.517	187.692	200.368	250.730	305.801	313.544	286.072	35.143	0.040	0.00079874	0.00094526	0.00023195	1236.3	6.5393e-06	1.2181e-05	1308	562.26	1.0323e-05	5.7493e-06	967.69	318.59	301.87	99.7	7.5852e-06	128.6	0.00029216	0.0002519	7.046e-05	2371.7	2.8521e-06	2.7532e-06	2432.9	725.85	2.7909e-06	2.8345e-06	925.79	302.27	268.83	91.026	2.903e-06	114.49	58.537	59.536	52.340	-21.548	100.838	128.891	-21.475	-18.690	115.106	81.384	-18.864	-15.333	-14.847	-10.248	79.515	-10.258	-8191	255	
14101.199	1	1	0	131072	0.24364	0.1526	0.082365	0.21556	0.15242	0.022152	0.37218	0.48222	0.21682	0.073942	0.21054	0.33174	0.23639	0.36633	0.24241	0.26978	-2.025	-2.2271	-2.6896	-2.7333	-2.4021	-2.6417	-2.5854	-2.9688	-2.4625	-2.25	-2.8792	-2.625	-2.7521	-2.7812	-2.1458	-2.8229	62.897	166.655	250.180	266.591	93.884	162.885	256.049	270.940	238.316	267.751	252.140	251.913	233.128	313.929	216.975	232.910	0.000948	0.0012285	0.00015022	1236.5	7.0217e-06	7.4911e-06	1307.6	560.62	1.0195e-05	1.3977e-05	970.28	318.68	301.53	99.228	1.5337e-05	127.63	0.00028936	0.00026048	7.1629e-05	2372.2	2.9001e-06	2.7154e-06	2433.2	726.54	2.8636e-06	2.8084e-06	926.14	302.91	268.57	90.875	2.7734e-06	114.16	72.906	69.721	44.499	-21.414	120.556	97.326	-21.564	-18.685	130.370	53.293	-18.647	-15.158	-14.947	-10.239	105.684	-10.438	-8191	255	
14101.895	1	1	0	256	0.21436	0.067939	0.38808	0.28325	0.17136	0.066748	0.12986	0.19758	0.14725	0.09477	0.1069	0.19146	0.19731	0.3952	0.26098	0.070806	-2.1813	-2.2646	-2.1063	-2.5687	-2.1042	-2.4354	-2.5667	-1.8937	-2.5458	-2.3875	-2.2708	-2.7167	-2.0042	-2.4146	-2.5583	-2.0958	317.633	318.591	341.267	299.166	9.773	259.068	271.181	267.454	336.863	186.559	342.996	162.201	-0.794	175.580	39.939	15.770	0.00012478	6.6382e-05	3.0354e-05	302.64	1.0181e-06	6.7778e-07	301.73	82.238	1.1533e-06	4.6391e-07	92.739	30.114	26.449	8.9081	2.2205e-07	11.105	3.3134e-05	2.7825e-05	7.5714e-06	354.22	3.1405e-07	2.8668e-07	352.39	96.326	3.0102e-07	2.8973e-07	107.94	35.289	30.764	10.481	2.9346e-07	12.986	73.314	19.503	80.737	-3.369	127.518	106.636	-3.273	1.985	146.262	90.633	0.723	5.540	6.134	10.921	176.634	9.700	-8191	255	
14101.991	1	1	0	0	0.14332	0.15465	0.12081	0.20972	0.081847	0.1345	0.055682	0.24806	0.20242	0.32766	0.11373	0.072495	0.16051	0.27003	0.21595	0.11251	-1.8625	-2.3208	-2.0729	-2.5104	-2.0312	-2.3979	-2.4854	-1.9479	-2.4417	-2.3271	-2.2396	-2.7646	-2.3083	-2.3521	-2.6437	-2.0417	317.462	68.951	340.905	311.994	85.678	208.060	179.455	107.883	207.144	1.445	51.987	142.843	220.997	39.484	189.501	245.630	0.00012882	0.00010952	2.0709e-05	302.9	6.6665e-07	7.2182e-07	301.46	82.012	9.9268e-07	8.463e-07	92.63	30.147	26.314	8.891	6.3417e-07	11.107	3.2713e-05	2.6478e-05	7.6142e-06	353.92	3.0605e-07	2.9696e-07	351.58	96.03	3.0585e-07	2.9771e-07	107.63	35.291	30.724	10.449	3.1231e-07	12.986	68.521	91.216	76.573	-3.001	126.295	149.000	-3.472	2.102	128.441	101.345	1.214	5.429	6.342	10.724	115.673	9.765	-8191	255	
14102.087	1	1	0	0	0.24335	0.09159	0.070394	0.21503	0.19456	0.17863	0.45894	0.35319	0.073241	0.052719	0.19494	0.25059	0.1675	0.11382	0.10326	0.21468	-1.7792	-2.5958	-2.1604	-2.5938	-2.225	-2.0958	-2.6625	-2.1188	-2.4021	-2.5583	-2.3229	-2.5042	-2.4417	-2.2208	-2.5062	-2.0542	245.729	292.794	138.239	274.027	148.175	90.755	321.389	190.491	211.902	239.889	298.511	69.620	87.136	164.195	254.234	37.770	0.00010776	9.3523e-05	3.3835e-05	303.69	1.1785e-06	5.9972e-07	301.92	81.777	7.8301e-07	5.1892e-07	92.507	30.288	26.265	8.9112	9.2185e-07	11.109	3.3088e-05	2.7734e-05	7.7824e-06	354.57	3.1886e-07	3.0528e-07	352.55	96.168	3.2334e-07	3.0916e-07	107.99	35.331	30.719	10.468	3.051e-07	12.979	66.474	75.172	76.328	-3.261	151.766	177.029	-3.333	1.849	118.534	53.041	0.858	5.399	6.231	10.915	169.653	9.577	-8191	255	
14102.184	1	1	0	0	0.2432	0.28977	0.082633	0.049445	0.3138	0.097011	0.12575	0.044845	0.13953	0.10429	0.085931	0.13031	0.11071	0.21491	0.11487	0.12815	-2.0563	-2.4979	-2.0667	-2.5604	-2.5021	-2.2333	-2.5354	-2.1813	-2.3458	-2.6542	-2.05	-2.5667	-2.3604	-2.0125	-2.6583	-2.1188	243.053	42.358	93.127	59.656	139.998	252.256	234.393	10.152	157.901	323.340	273.922	324.794	248.134	10.763	8.243	-5.229	0.00013747	9.4376e-05	2.9877e-05	303.88	1.2939e-06	8.6624e-07	302.02	81.905	1.7021e-06	8.3567e-07	93.204	30.231	26.369	8.9564	9.7007e-07	11.146	3.3941e-05	2.7647e-05	7.9363e-06	354.49	3.2019e-07	3.0342e-07	352.65	96.215	3.2989e-07	3.1124e-07	108.01	35.401	30.787	10.507	3.3649e-07	13.026	68.215	79.068	83.188	-3.099	155.525	119.030	-3.346	1.999	111.854	100.042	0.985	5.317	6.185	10.558	116.360	9.636	-8191	255	
14102.280	1	1	0	0	0.11467	0.16596	0.046155	0.26185	0.17486	0.22496	0.31374	0.18096	0.10098	0.20789	0.30961	0.23642	0.0277	0.15688	0.074062	0.12038	-2.0625	-2.4771	-2.1104	-2.3375	-2.3104	-2.2062	-2.7646	-2.2229	-2.4042	-2.5708	-2.1396	-2.5146	-2.5625	-2.0458	-2.7438	-2.4708	190.917	205.822	243.310	283.955	265.951	276.691	191.063	68.225	294.998	312.194	139.907	282.956	174.102	328.866	306.173	306.600	0.00013441	5.6509e-05	2.6268e-05	304.38	4.6695e-07	9.7866e-07	302.32	82.503	1.297e-06	6.7897e-07	93.204	30.231	26.593	8.9281	6.8644e-07	11.113	3.5482e-05	2.987e-05	8.2925e-06	355.62	3.3498e-07	3.3642e-07	354	96.602	3.4269e-07	3.1454e-07	108.51	35.506	30.873	10.501	3.3719e-07	13.029	74.194	63.423	47.155	-3.099	233.434	96.305	-3.348	1.821	110.713	91.487	0.848	5.738	6.364	10.702	85.759	9.510	-8191	255	
14102.376	1	1	0	0	0.10953	0.17133	0.20285	0.13812	0.070783	0.27639	0.37956	0.04733	0.19135	0.11862	0.1642	0.28531	0.079448	0.26807	0.40479	0.12226	-2.0312	-2.4021	-2.0687	-2.4833	-2.3792	-2.0854	-2.7625	-2.2479	-2.2542	-2.4979	-2.4062	-2.4688	-2.2625	-2.1604	-2.5271	-2.2333	86.194	285.741	99.016	289.568	78.681	300.780	276.654	319.099	250.044	131.013	173.765	253.467	256.824	92.563	277.621	162.454	0.00013688	4.7842e-05	3.5468e-05	304.56	6.0571e-07	8.786e-07	302.94	82.083	1.2414e-07	2.1623e-07	93.189	30.272	26.361	8.9857	6.9745e-07	11.086	3.6831e-05	3.0182e-05	8.8466e-06	356.36	3.4886e-07	3.4757e-07	353.61	96.458	3.6243e-07	3.4122e-07	108.53	35.462	30.839	10.532	3.5047e-07	13.004	69.899	56.254	61.730	-3.273	143.483	143.130	-3.421	1.900	128.430	40.089	0.528	5.409	6.017	10.569	141.590	9.657	-8191	255	
14102.976	1	1	0	256	0.10681	0.14725	0.14124	0.068	0.24063	0.18464	0.20001	0.051716	0.25083	0.34068	0.13281	0.18552	0.20495	0.15162	0.17338	0.19538	-1.7812	-2.4896	-2.3896	-2.1583	-2.5604	-2.4792	-2.3125	-2.7292	-2.1312	-2.2979	-2.6458	-2.1854	-2.5167	-2.4875	-2.0396	-2.7479	23.503	228.691	240.667	297.396	153.703	21.588	32.102	335.831	304.921	158.242	24.307	237.810	106.666	328.159	-18.135	164.049	0.00025513	0.00025731	4.9492e-05	670.62	1.7101e-06	2.6003e-06	665.84	181.74	1.4003e-06	2.5713e-06	203.01	66.403	58.146	19.683	2.3157e-06	24.534	6.8942e-05	5.8022e-05	1.645e-05	725	6.556e-07	6.3793e-07	721.62	197.04	6.5836e-07	6.3034e-07	220.52	72.253	63.04	21.449	6.6135e-07	26.646	71.220	81.526	78.299	-6.675	131.227	102.026	-6.861	-2.031	140.618	78.357	-2.494	1.910	2.816	6.771	103.401	5.866	-8191	255	
14103.072	1	1	0	0	0.051539	0.11851	0.12134	0.34916	0.065815	0.12926	0.20609	0.17198	0.10788	0.24198	0.077312	0.24734	0.29996	0.096639	0.082464	0.070471	-1.7667	-2.3104	-2.6604	-2.0938	-2.7833	-2.4583	-2.3458	-2.6521	-2.3521	-2.4146	-2.6896	-2.3042	-2.5646	-2.3479	-2.2667	-2.7687	18.008	214.951	-10.663	323.167	-7.563	334.293	291.695	318.051	57.047	299.888	298.400	302.495	308.810	54.675	-6.208	178.183	0.00025945	0.00013713	5.8629e-05	668.17	1.1807e-06	2.5301e-06	664.54	180.82	1.7852e-06	2.0595e-06	203.59	65.858	57.818	19.618	2.2504e-06	24.509	6.884e-05	5.762e-05	1.5931e-05	725.68	6.5199e-07	6.0683e-07	721.13	196.57	6.3398e-07	6.1012e-07	219.93	72.027	62.737	21.392	6.2587e-07	26.636	65.735	91.921	68.572	-6.967	138.766	125.456	-7.009	-1.901	92.999	106.180	-2.650	1.689	2.462	6.911	166.491	6.185	-8191	255	
14103.192	1	1	0	0	0.12359	0.22223	0.029499	0.12463	0.23875	0.16546	0.08675	0.10773	0.13531	0.17152	0.037342	0.22153	0.068059	0.15131	0.11781	0.27871	-1.8396	-2.4208	-2.5354	-2.3625	-2.6	-2.4938	-2.2271	-2.75	-2.3208	-2.4875	-2.625	-2.2979	-2.4313	-2.4708	-2.2188	-2.6562	183.981	-5.741	165.749	292.734	60.127	17.950	320.473	226.324	168.889	154.047	264.388	-13.877	276.907	4.515	219.933	6.388	0.00020167	0.00015522	7.7838e-05	665.9	6.9286e-07	1.8017e-06	661.69	181.47	1.6568e-06	2.759e-06	203.7	66.327	58.022	19.701	1.9707e-06	24.56	6.5661e-05	5.5578e-05	1.5145e-05	723.78	6.3363e-07	5.9651e-07	718.92	196.97	6.0381e-07	5.9164e-07	220.12	72.162	62.829	21.463	6.098e-07	26.617	74.027	85.823	42.106	-6.786	125.196	111.571	-6.811	-1.899	155.723	72.177	-2.590	1.564	2.452	6.974	114.604	5.879	-8191	255	
14103.288	1	1	0	0	0.1272	0.1752	0.082788	0.18243	0.04087	0.15552	0.19846	0.26172	0.087103	0.077618	0.14145	0.12491	0.12507	0.19408	0.10498	0.12896	-1.8229	-2.2708	-2.5833	-2.3542	-2.6167	-2.7812	-2.2583	-2.6917	-2.4938	-2.2958	-2.6	-2.4375	-2.5729	-2.4667	-2.1396	-2.7083	252.100	106.889	273.053	335.489	333.049	47.712	148.184	166.187	159.145	134.205	287.873	33.354	253.782	335.887	261.927	73.137	0.00027421	0.00010257	4.4522e-05	666.61	2.3741e-06	2.2515e-06	663.12	181.24	1.4354e-06	1.6947e-06	203.97	66.137	57.855	19.611	2.5852e-06	24.45	6.4086e-05	5.4591e-05	1.4678e-05	723.19	6.1176e-07	5.9252e-07	719.1	196.7	6.0437e-07	5.8548e-07	220.07	71.998	62.719	21.413	6.0598e-07	26.616	70.009	35.294	77.135	-6.920	161.592	114.659	-6.952	-1.933	151.725	81.911	-2.453	1.696	2.677	6.929	136.424	6.111	-8191	255	
14103.383	1	1	0	0	0.11896	0.1791	0.24452	0.071978	0.25743	0.046001	0.24568	0.20088	0.14074	0.088966	0.08423	0.15485	0.12963	0.38402	0.26472	0.24054	-2.0021	-1.9312	-2.7021	-2.325	-2.4958	-2.6896	-2.4437	-2.6208	-2.5542	-2.3792	-2.5417	-2.3667	-2.3667	-2.6583	-2.2667	-2.7083	238.313	228.227	212.906	0.035	316.432	228.593	21.421	200.027	-8.126	315.577	301.257	176.756	285.176	55.396	261.978	287.844	0.00025532	0.00016565	6.2414e-05	663.58	2.3988e-06	1.5863e-06	661.43	181.14	1.4136e-06	1.459e-06	203.49	66.545	58.074	19.679	2.669e-06	24.655	6.4086e-05	5.375e-05	1.466e-05	722.25	6.1782e-07	5.5956e-07	719.29	196.57	5.9541e-07	5.9724e-07	220.02	72.098	62.891	21.469	6.0503e-07	26.664	68.779	58.099	65.750	-6.739	125.259	120.593	-7.000	-1.950	107.764	125.918	-2.713	1.815	2.453	7.076	131.014	5.854	-8191	255	
14103.456	1	1	0	0	0.33824	0.16693	0.21349	0.25309	0.1443	0.23545	0.21132	0.32461	0.15359	0.27304	0.035112	0.10124	0.088525	0.25901	0.19585	0.16942	-1.9479	-2.2417	-2.7042	-2.375	-2.3771	-2.7104	-2.3292	-2.5479	-2.5771	-2.1646	-2.6958	-2.5563	-2.4354	-2.775	-2.2833	-2.6813	239.174	187.410	91.912	243.563	127.420	221.618	291.359	326.365	73.147	207.936	124.266	134.824	194.181	79.094	92.437	291.755	0.00027174	0.0001912	6.3282e-05	665.71	1.691e-06	2.4686e-06	661.17	180.7	3.0106e-06	2.1218e-06	204.07	66.393	58.199	19.677	2.1577e-06	24.479	6.4135e-05	5.5724e-05	1.4774e-05	722.87	6.2487e-07	5.7886e-07	717.69	196.58	5.9718e-07	5.9481e-07	220.02	72.032	62.841	21.457	6.1567e-07	26.591	66.135	72.410	63.711	-6.712	160.405	128.820	-6.917	-1.734	111.626	81.664	-2.574	1.757	2.537	6.858	106.905	5.771	-8191	255	
14104.080	1	1	0	256	0.13519	0.14968	0.097656	0.39622	0.070403	0.21361	0.30251	0.36003	0.23586	0.15715	0.26268	0.10728	0.067484	0.11587	0.2026	0.31811	-2.2479	-2.3542	-2.125	-2.9646	-2.3563	-2.5271	-2.8833	-2.4979	-2.6188	-2.6583	-2.5417	-2.9854	-2.35	-2.55	-2.6813	-2.2896	180.403	174.123	280.457	305.055	33.667	266.592	271.307	266.763	86.476	83.535	301.036	217.056	-11.072	79.154	165.170	243.403	0.00044746	0.00030833	0.00015081	1291.1	2.4888e-06	4.7375e-06	1278.3	349.08	7.0512e-06	2.6572e-06	394.18	127.87	111.95	37.957	3.9666e-06	47.085	0.00011451	9.5398e-05	2.7298e-05	1306.8	1.1112e-06	1.0498e-06	1297.6	354.31	1.0764e-06	1.0638e-06	396.3	129.68	113.24	38.666	1.0846e-06	47.753	62.887	62.990	45.992	-11.775	109.369	106.168	-11.722	-6.867	113.904	97.405	-7.406	-3.071	-2.510	2.021	126.190	0.785	-8191	255	
14104.152	1	1	0	0	0.1758	0.10507	0.11316	0.095908	0.32275	0.28388	0.16804	0.2101	0.053526	0.11652	0.077173	0.12584	0.2425	0.19381	0.3022	0.21766	-2.1792	-2.3875	-2.2979	-2.8812	-2.2938	-2.5938	-2.7604	-2.2771	-2.4	-2.5979	-2.4583	-2.8271	-2.5729	-2.65	-2.625	-2.4062	128.669	22.704	136.961	240.673	60.021	201.277	-7.486	275.464	262.634	271.261	141.762	255.810	0.331	44.030	242.691	160.627	0.00045404	0.00041832	0.00012449	1287.1	2.9735e-06	3.0121e-06	1284.2	348.04	4.6705e-06	3.7348e-06	392.8	128.02	111.59	37.987	3.8917e-06	47.081	0.00011489	9.6855e-05	2.6181e-05	1305.3	1.0981e-06	1.0551e-06	1299.7	353.6	1.0706e-06	1.0437e-06	395.91	129.79	112.85	38.58	1.092e-06	47.8	67.979	64.340	76.237	-11.553	114.963	142.261	-11.663	-6.786	131.185	88.693	-7.331	-3.082	-2.410	1.980	74.201	1.010	-8191	255	
14104.273	1	1	0	0	0.034049	0.16953	0.2251	0.19539	0.1926	0.15286	0.16975	0.46599	0.092201	0.13804	0.23475	0.13579	0.071439	0.20365	0.29682	0.40603	-2.0333	-2.5729	-2.1604	-2.75	-2.425	-2.4271	-2.7438	-2.3396	-2.5375	-2.4	-2.0958	-2.6625	-2.6229	-2.5312	-2.8729	-2.3104	332.483	162.062	163.428	301.145	141.287	43.329	115.617	304.895	158.430	71.733	285.518	294.613	-24.118	328.428	82.224	269.539	0.00046594	0.00027892	6.0966e-05	1289.6	5.5234e-06	4.4528e-06	1280	349.16	4.1125e-06	2.4589e-06	391.78	127.64	111.52	37.971	4.5675e-06	46.933	0.00011392	9.5841e-05	2.6847e-05	1305.3	1.1245e-06	1.0515e-06	1298.9	353.99	1.0958e-06	1.0429e-06	395.81	129.73	112.7	38.682	1.0744e-06	47.735	55.226	61.692	71.251	-11.592	124.895	92.488	-11.640	-7.132	117.365	97.149	-7.490	-3.393	-2.616	1.920	147.626	1.241	-8191	255	
14104.369	1	1	0	0	0.16868	0.12353	0.15211	0.0302	0.089447	0.27385	0.28934	0.15807	0.13058	0.32184	0.11491	0.22991	0.26609	0.33473	0.19342	0.20634	-1.9271	-2.6	-2.2188	-2.7125	-2.5542	-2.3771	-2.8958	-2.6063	-2.5958	-2.6813	-2.1958	-2.7646	-2.7542	-2.5229	-2.6771	-2.5396	236.327	57.512	87.045	108.775	-22.930	60.092	263.353	289.860	-5.323	148.009	29.951	260.804	223.688	313.979	234.335	181.760	0.00050532	0.00029223	9.2505e-05	1291	5.3648e-06	2.1282e-06	1274.1	347.68	3.9014e-06	4.5046e-06	393.34	128.08	110.99	37.802	5.3375e-06	47.148	0.00011603	9.6358e-05	2.7013e-05	1306.9	1.1223e-06	1.0506e-06	1295.4	353.93	1.1004e-06	1.0504e-06	396.1	129.76	112.72	38.537	1.0981e-06	47.829	63.220	61.808	61.608	-11.740	124.648	99.128	-11.726	-6.704	105.895	101.327	-7.417	-3.242	-2.622	2.060	141.786	1.124	-8191	255	
14104.463	1	1	0	0	0.056223	0.18756	0.14364	0.31788	0.21621	0.12088	0.16299	0.13746	0.066055	0.36706	0.16025	0.26572	0.11929	0.048683	0.24896	0.13649	-1.9708	-2.7562	-2.1688	-2.75	-2.6875	-2.3521	-2.975	-2.6104	-2.5187	-2.725	-2.3667	-2.5854	-2.8625	-2.125	-2.6458	-2.6688	28.270	-17.942	261.979	221.907	328.653	33.748	163.526	271.966	126.135	184.345	315.647	302.358	223.640	289.493	141.410	119.225	0.0004632	0.00030255	0.00013792	1285.5	4.4429e-06	1.3091e-06	1283.1	347.87	6.7959e-06	3.8432e-06	390.85	127.6	111.21	37.763	2.1494e-06	47.087	0.00011569	9.7361e-05	2.7807e-05	1305.1	1.1181e-06	1.0591e-06	1298.4	353.21	1.1186e-06	1.0707e-06	395.84	129.54	112.6	38.53	1.1132e-06	47.764	68.583	22.698	76.576	-11.744	156.407	154.109	-11.905	-6.974	116.481	73.598	-7.469	-3.324	-2.631	2.037	116.563	1.334	-8191	255	
14104.561	1	1	0	0	0.14895	0.14025	0.16981	0.35688	0.074576	0.065705	0.18799	0.21952	0.10086	0.11614	0.11762	0.088142	0.29464	0.21387	0.24361	0.34894	-2.0708	-2.7833	-2.2687	-2.7417	-2.5979	-2.4938	-2.9125	-2.5792	-2.3812	-2.7167	-2.4104	-2.6729	-2.7479	-2.4354	-2.5938	-2.6688	31.897	158.389	225.896	277.243	303.819	34.583	248.115	269.476	326.740	249.786	259.865	121.239	244.478	223.798	14.337	306.170	0.00043176	0.0003475	0.00013618	1286.2	5.3248e-06	3.063e-06	1281.4	348.07	2.7684e-06	2.5585e-06	392.54	127.53	111.61	38.042	5.0707e-06	47.373	0.00011631	9.8498e-05	2.7143e-05	1306.2	1.0952e-06	1.0371e-06	1297.2	353.61	1.1168e-06	1.0493e-06	396.19	129.75	112.7	38.661	1.1192e-06	47.893	60.643	52.106	66.291	-11.612	122.356	108.731	-11.478	-6.710	144.319	106.994	-7.421	-3.143	-2.350	2.121	106.000	1.000	-8191	255	
14105.161	1	1	0	131328	0.28906	0.33761	0.27437	0.38037	0.27474	0.28154	0.42853	0.128	0.18515	0.10831	0.11773	0.23858	0.13179	0.16778	0.07346	0.17069	-1.6417	-2.3979	-2.5062	-2.3104	-2.725	-2.3354	-2.5854	-2.8583	-2.3771	-2.4646	-2.7729	-2.4062	-2.7875	-2.5875	-1.9833	-2.7375	-22.199	214.320	94.564	308.927	135.427	324.531	294.978	265.448	51.823	307.326	227.996	275.728	37.034	272.900	91.298	270.267	0.00064996	0.00045873	0.00021785	1802.9	9.8214e-06	4.3205e-06	1914.7	604.32	8.1741e-06	6.1621e-06	679.39	220.77	192.61	65.994	4.3038e-06	81.903	0.00018493	0.00015826	4.4023e-05	2007.2	1.7756e-06	1.6897e-06	2034.3	573.91	1.7805e-06	1.723e-06	642.83	210.12	182.91	62.666	1.746e-06	77.666	61.018	21.718	65.940	-17.224	109.962	125.415	-17.221	-13.222	102.182	112.885	-13.539	-9.229	-8.612	-3.936	101.055	-4.359	-8191	255	
14105.281	1	1	0	131072	0.23227	0.11896	0.071511	0.24583	0.20607	0.06392	0.24969	0.29231	0.15671	0.066224	0.17112	0.13367	0.14608	0.089146	0.11807	0.17549	-1.8833	-2.4625	-2.5438	-2.4583	-2.525	-2.5104	-2.525	-3.0375	-2.3625	-2.4	-2.8396	-2.3937	-2.7854	-2.6979	-2.2396	-2.9562	161.274	51.386	265.610	324.848	147.816	-21.174	252.309	272.033	19.720	152.070	213.504	321.484	53.678	52.216	152.218	-23.599	0.00060489	0.00045126	0.00027779	1804.7	5.6099e-06	6.5428e-06	1916	603.79	7.5447e-06	5.2094e-06	678.96	220.57	192.73	65.785	8.0624e-06	81.966	0.00019159	0.00016081	4.3193e-05	2005.6	1.8061e-06	1.6989e-06	2034.7	573.98	1.7336e-06	1.7005e-06	643.2	209.9	183.13	62.758	1.7367e-06	77.79	58.583	87.181	57.619	-17.235	112.621	137.774	-17.408	-13.160	107.137	72.005	-13.194	-9.027	-8.419	-4.144	135.758	-4.391	-8191	255	
14105.376	1	1	0	131072	0.1123	0.16747	0.11219	0.40857	0.16001	0.099721	0.22904	0.28638	0.14949	0.14629	0.31482	0.25652	0.13912	0.30397	0.20252	0.25393	-1.8917	-2.1729	-2.5708	-2.4604	-2.4625	-2.625	-2.4708	-2.7667	-2.5792	-2.2771	-2.7646	-2.3229	-2.65	-2.7521	-2.1792	-2.7667	-27.771	292.956	262.121	269.369	110.541	147.031	298.218	304.987	37.322	183.685	269.701	-1.006	255.433	274.779	32.088	300.065	0.00064864	0.00062934	0.00013759	1802.7	5.6756e-06	5.9619e-06	1913.5	603.56	1.6023e-06	6.4953e-06	676.78	220.6	193.51	65.893	7.3163e-06	81.703	0.00018557	0.00015312	4.3586e-05	2006.2	1.7966e-06	1.7132e-06	2035.2	574.07	1.7962e-06	1.6913e-06	642.47	210.33	183.22	62.808	1.7155e-06	77.743	59.587	38.989	48.777	-17.190	101.571	115.597	-17.341	-13.061	132.882	52.136	-13.025	-8.894	-8.425	-4.163	128.084	-4.590	-8191	255	
14105.449	1	1	0	131072	0.081822	0.076099	0.14336	0.31625	0.15701	0.070969	0.27516	0.3028	0.070487	0.046238	0.41142	0.34353	0.21955	0.3819	0.068541	0.17891	-1.8229	-2.1417	-2.725	-2.6188	-2.5396	-2.7917	-2.425	-2.7917	-2.3833	-2.3187	-2.7521	-2.5958	-2.6042	-2.5375	-2.1562	-2.7792	280.800	2.450	289.317	-30.895	8.270	170.070	294.651	252.380	79.393	59.441	315.651	256.321	240.299	296.674	-26.910	9.027	0.00073833	0.00070216	0.00018894	1801.9	6.701e-06	7.0231e-06	1913.9	604.01	1.0219e-05	6.2568e-06	681.19	220.56	193.44	66.059	5.4753e-06	81.827	0.00017829	0.00015766	4.35e-05	2008.2	1.7485e-06	1.728e-06	2034.7	573.97	1.7934e-06	1.6855e-06	643.43	210.44	183.28	62.89	1.7359e-06	77.758	69.256	44.416	39.589	-17.094	119.357	97.171	-17.434	-13.113	133.882	74.869	-13.097	-9.336	-8.499	-4.035	100.991	-4.761	-8191	255	
14105.544	1	1	0	131072	0.2717	0.10254	0.037291	0.31667	0.083206	0.15843	0.30872	0.22414	0.2635	0.082669	0.094038	0.3174	0.30202	0.33448	0.21131	0.25423	-1.9271	-2.2542	-2.6542	-2.6292	-2.3854	-2.7396	-2.55	-2.9604	-2.5792	-2.1229	-2.9583	-2.6667	-2.6312	-3.0875	-2.0771	-2.6104	37.142	250.975	102.571	327.989	290.659	105.436	265.149	283.775	179.184	328.378	-30.405	302.823	-28.876	250.135	9.989	252.973	0.00061613	0.00050656	0.00021613	1803.6	4.7379e-06	2.9925e-06	1912.1	602.81	6.298e-06	3.5724e-06	680.05	220.45	193.47	65.872	7.9754e-06	81.616	0.00018509	0.00015379	4.3592e-05	2007.8	1.8012e-06	1.7014e-06	2036.1	573.65	1.7626e-06	1.7089e-06	644.03	210.35	183.1	62.833	1.7365e-06	77.736	62.161	39.336	44.195	-17.004	90.699	120.878	-17.437	-13.050	113.764	117.291	-13.196	-8.944	-8.749	-4.046	112.561	-4.513	-8191	255	
14105.664	1	1	0	131072	0.040394	0.078969	0.14315	0.52525	0.3471	0.014576	0.34974	0.24751	0.060254	0.13438	0.23136	0.26036	0.16532	0.14977	0.23784	0.35022	-2.0354	-2.125	-2.5917	-2.7333	-2.3312	-2.5917	-2.4979	-2.6188	-2.6312	-2.2521	-2.7396	-2.5646	-2.4917	-2.9542	-2.3896	-2.5438	295.611	147.078	141.262	276.800	242.284	141.454	250.386	309.109	54.156	252.885	282.592	254.438	278.844	31.688	311.507	266.211	0.00062033	0.00034295	0.00017984	1805	6.8661e-06	7.5041e-06	1917.1	601.97	7.2593e-06	7.9005e-06	679.15	221.85	192.95	65.803	5.4008e-06	81.84	0.00018462	0.00015354	4.3027e-05	2007.2	1.7817e-06	1.6747e-06	2034.1	573.69	1.7545e-06	1.7092e-06	643.79	210.54	183.43	62.786	1.7521e-06	77.766	63.484	65.699	17.061	-17.112	132.258	117.720	-17.175	-12.953	118.801	100.110	-13.263	-9.156	-8.667	-3.990	119.394	-4.604	-8191	255	
14106.362	1	1	0	256	0.22596	0.25056	0.0985	0.2372	0.2395	0.1321	0.099206	0.15416	0.24873	0.18916	0.073491	0.18952	0.069151	0.16674	0.38598	0.16214	-1.9937	-2.5292	-2.2771	-2.95	-2.3792	-2.4375	-2.7771	-2.3521	-2.5312	-2.5729	-2.4062	-2.8104	-2.3229	-2.3917	-2.7938	-2.3479	57.900	178.101	282.671	300.498	180.643	114.295	127.272	221.989	280.011	150.056	246.630	291.232	297.045	304.677	298.699	311.542	0.00053157	0.00017036	0.00012557	1498.6	3.3412e-06	3.7017e-06	1495.7	406.14	3.97e-06	6.4863e-06	458.03	148.57	129.83	44.131	4.7151e-06	55.176	0.00013214	0.00010785	3.1157e-05	1498.2	1.2559e-06	1.2282e-06	1490.2	405.18	1.2675e-06	1.1928e-06	453.13	148.36	129.62	44.303	1.2222e-06	54.905	65.252	47.134	80.150	-12.948	134.380	130.345	-13.100	-8.501	109.317	89.740	-8.917	-4.797	-4.140	0.505	109.927	-0.272	-8191	255	
14106.456	1	1	0	0	0.20156	0.30441	0.059561	0.24025	0.23377	0.229	0.066178	0.11848	0.38382	0.46117	0.21704	0.14864	0.13965	0.2817	0.075928	0.1459	-2.1396	-2.6729	-2.0896	-2.8667	-2.4104	-2.4625	-2.8375	-2.3896	-2.3792	-2.675	-2.3708	-2.7542	-2.4313	-2.3354	-2.6813	-2.375	203.290	209.683	36.266	283.113	137.127	177.621	322.319	-7.728	46.155	22.425	273.051	281.594	292.028	-1.537	106.312	310.912	0.00048403	0.00025336	0.00015762	1499.8	3.025e-06	6.9827e-06	1495.6	405.28	5.2002e-06	3.6075e-06	457.26	148.65	130.02	44.318	4.7403e-06	55.042	0.00013077	0.00010773	3.1144e-05	1498.2	1.2785e-06	1.1968e-06	1489.4	405.01	1.2657e-06	1.1696e-06	453.53	148.69	129.43	44.36	1.2595e-06	54.899	65.630	75.838	47.475	-13.247	109.926	113.938	-13.107	-8.413	117.537	93.027	-9.028	-4.469	-3.968	0.662	121.434	-0.301	-8191	255	
14106.552	1	1	0	0	0.29557	0.010086	0.15115	0.20678	0.19815	0.08561	0.1109	0.10581	0.27136	0.20723	0.33441	0.28746	0.13896	0.24767	0.20538	0.096892	-2.0438	-2.775	-2.2687	-2.8833	-2.5125	-2.4417	-3.0104	-2.25	-2.6333	-2.7271	-2.2938	-2.6271	-2.6646	-2.5187	-2.7229	-2.3354	141.985	149.530	-11.298	303.086	73.109	139.259	231.937	261.355	7.471	181.549	303.609	258.197	321.456	10.894	186.951	231.194	0.00042967	0.00039014	0.00013907	1503.4	5.98e-06	4.5679e-06	1489.5	405.5	6.1103e-06	5.1425e-06	457.51	148.95	130.12	44.161	5.7017e-06	54.626	0.0001319	0.00010876	3.0822e-05	1499.3	1.2725e-06	1.2377e-06	1488.2	404.81	1.2632e-06	1.1976e-06	453.98	148.53	129.36	44.286	1.2391e-06	54.778	61.479	38.127	50.675	-12.824	121.205	100.744	-13.318	-8.498	134.726	97.768	-8.786	-4.393	-3.933	0.611	101.211	-0.106	-8191	255	
14106.648	1	1	0	0	0.32423	0.2835	0.10529	0.27431	0.096711	0.31023	0.2719	0.3678	0.045982	0.11068	0.14628	0.25813	0.28003	0.098649	0.041042	0.2468	-1.9667	-2.6646	-2.125	-2.6708	-2.6437	-2.2896	-2.9375	-2.6958	-2.4583	-2.6125	-2.3229	-2.7104	-2.5396	-2.1604	-2.8187	-2.5646	302.273	102.387	151.674	297.205	230.401	113.339	248.746	274.033	243.766	5.496	271.562	319.853	259.188	238.226	326.768	-24.557	0.00048755	0.00027092	0.00013424	1506.8	4.6904e-06	4.1437e-06	1488	406.58	1.5973e-06	3.5426e-06	455.81	149.17	130.49	44.21	3.8234e-06	54.939	0.0001339	0.00011232	3.1143e-05	1500.6	1.2533e-06	1.1951e-06	1487.6	405.33	1.2579e-06	1.218e-06	453.43	148.66	129.78	44.325	1.255e-06	54.772	63.417	70.898	67.896	-13.100	154.116	92.994	-13.160	-8.257	113.908	104.495	-9.163	-4.626	-3.937	0.514	97.992	-0.254	-8191	255	
14106.745	1	1	0	0	0.086695	0.22197	0.14542	0.15292	0.10551	0.2827	0.23428	0.16407	0.30272	0.27874	0.11029	0.099006	0.090789	0.04041	0.19357	0.02516	-1.9167	-2.6542	-2.3125	-2.5312	-2.6396	-2.2396	-2.9521	-2.7271	-2.3021	-2.8375	-2.3146	-2.5271	-2.8417	-2.3146	-2.6458	-2.3479	189.998	325.271	254.243	-3.470	231.993	-21.880	330.817	231.450	240.627	71.235	133.651	55.981	229.168	282.447	165.653	68.134	0.00042275	0.00040521	8.7674e-05	1505.3	5.5905e-06	4.1665e-06	1493.8	404.74	7.4954e-06	3.0045e-06	456.4	149.04	129.44	44.091	1.8352e-06	54.822	0.00013303	0.0001112	3.1329e-05	1498.7	1.2709e-06	1.2108e-06	1489.4	404.6	1.273e-06	1.2318e-06	453.36	148.75	129.46	44.289	1.2601e-06	54.752	59.731	56.864	58.510	-13.007	122.725	134.969	-13.084	-8.547	132.438	93.263	-9.062	-4.647	-4.062	0.628	151.138	-0.199	-8191	255	
14106.841	1	1	0	0	0.047526	0.11642	0.34044	0.21979	0.2581	0.016569	0.43094	0.054997	0.24631	0.19895	0.14103	0.32679	0.18474	0.31855	0.19007	0.21569	-1.75	-2.6021	-2.2104	-2.5312	-2.5917	-2.2438	-2.9417	-2.6604	-2.2	-2.7542	-2.3542	-2.4208	-2.7438	-2.3083	-2.4875	-2.5375	143.060	242.103	78.962	324.905	214.511	201.814	329.980	298.726	232.720	100.681	274.304	-24.389	167.073	310.460	113.937	-0.328	0.00049652	0.00038419	0.00010156	1502.6	3.7596e-06	4.6913e-06	1490.4	406.36	3.827e-06	4.3374e-06	456.98	148.3	129.35	44.128	4.1039e-06	54.912	0.0001326	0.00011151	3.0949e-05	1500	1.2793e-06	1.217e-06	1490.2	404.86	1.3092e-06	1.2434e-06	453.58	148.54	129.22	44.294	1.268e-06	54.901	64.272	65.567	33.338	-13.160	115.672	97.901	-13.095	-8.351	129.062	101.911	-9.014	-4.540	-3.925	0.444	116.979	-0.367	-8191	255	
14107.442	1	1	0	256	0.12079	0.10268	0.20283	0.15467	0.1539	0.16328	0.2866	0.021513	0.17384	0.14268	0.19224	0.037759	0.083167	0.10571	0.42918	0.1693	-1.975	-2.4167	-2.4208	-2.2062	-2.5167	-2.4333	-2.4458	-3.0979	-2.3417	-2.4833	-2.7687	-2.3375	-2.4708	-2.6208	-2.0083	-2.8021	306.162	271.304	72.860	299.102	153.194	168.375	281.716	119.142	110.011	322.814	243.042	37.622	198.696	303.334	165.923	236.615	0.00063545	0.00044016	7.1091e-05	1722.2	4.3338e-06	5.5984e-06	1712.2	465	4.8392e-06	3.2924e-06	523.82	170.16	149.12	50.744	6.5238e-06	62.795	0.00015026	0.00012586	3.5299e-05	1692.5	1.4509e-06	1.38e-06	1684.1	456.99	1.4441e-06	1.4018e-06	512.08	167.35	145.75	50.004	1.4091e-06	61.802	59.261	52.478	27.637	-14.387	134.504	103.262	-14.224	-9.821	116.281	51.336	-10.295	-6.026	-5.596	-0.934	112.123	-1.514	-8191	255	
14107.537	1	1	0	0	0.082494	0.25033	0.18195	0.19717	0.11698	0.12566	0.12109	0.097965	0.36278	0.17203	0.29353	0.081075	0.064836	0.14211	0.24689	0.30121	-2.0479	-2.4208	-2.7521	-2.5792	-2.5792	-2.6771	-2.4229	-2.8063	-2.3187	-2.3208	-2.9479	-2.4354	-2.4958	-2.775	-2.2188	-2.6625	22.814	215.368	99.881	287.949	18.673	182.731	303.076	273.221	2.184	290.873	322.569	283.630	-13.036	325.722	198.591	291.425	0.00058024	0.0002291	0.00014496	1724.4	3.6054e-06	6.0459e-06	1713.8	463.45	6.5857e-06	5.4694e-06	521.53	170.34	147.81	50.734	5.1298e-06	62.944	0.00015091	0.00012813	3.5062e-05	1691.7	1.4129e-06	1.3819e-06	1680.7	455.89	1.4478e-06	1.3779e-06	510.68	167.09	145.71	50.009	1.4186e-06	61.812	67.509	75.370	20.247	-14.424	123.494	80.182	-14.290	-9.911	109.997	86.266	-10.071	-6.105	-5.480	-0.973	137.248	-1.424	-8191	255	
14107.634	1	1	0	0	0.10835	0.28379	0.11838	0.23951	0.062841	0.18631	0.42063	0.10165	0.11321	0.41626	0.25253	0.19134	0.29532	0.17739	0.1372	0.26336	-2.0604	-2.2104	-2.6562	-2.6708	-2.3958	-2.6354	-2.3458	-2.8729	-2.5792	-2.2792	-2.7854	-2.4292	-2.5083	-2.7313	-2.3021	-2.7271	260.455	74.371	50.592	239.171	17.986	81.045	306.415	-12.523	236.817	-23.094	298.110	25.323	305.858	271.170	23.024	32.088	0.00046452	0.00028255	0.00016222	1724.5	6.3082e-06	2.7102e-06	1710.8	463.88	6.1743e-06	2.4321e-06	520.61	168.59	148.22	50.745	4.0173e-06	62.963	0.00014788	0.00013	3.3977e-05	1693.5	1.4366e-06	1.3752e-06	1680.5	456.11	1.4216e-06	1.3635e-06	510.15	166.86	145.64	50.007	1.4367e-06	61.83	58.679	53.505	41.820	-14.403	117.239	114.862	-14.495	-9.982	115.316	115.277	-10.254	-5.937	-5.592	-0.821	125.940	-1.747	-8191	255	
14107.753	1	1	0	0	0.26141	0.090075	0.12746	0.52171	0.17421	0.13616	0.41308	0.35897	0.12285	0.080809	0.16202	0.24295	0.093355	0.31043	0.28899	0.24445	-2.0417	-2.1625	-2.6542	-2.4958	-2.1771	-2.6625	-2.4125	-2.4313	-2.525	-2.2583	-2.6979	-2.5729	-2.3042	-2.85	-2.3104	-2.6229	-1.794	186.961	37.454	291.007	159.185	48.418	310.413	296.568	225.016	305.868	0.208	287.619	182.417	-8.783	-20.558	278.580	0.00051535	0.00021072	0.00010026	1724.7	5.3135e-06	2.9842e-06	1716.2	464.85	9.1255e-06	6.1808e-06	521.21	170.47	148.95	50.906	5.8566e-06	62.986	0.00015032	0.00012864	3.5316e-05	1693.6	1.4382e-06	1.3756e-06	1683.3	455.95	1.4297e-06	1.3891e-06	510.9	167.6	145.71	50.002	1.4115e-06	61.834	63.595	61.377	91.444	-14.349	133.500	119.417	-14.609	-9.880	118.368	69.296	-10.417	-6.085	-5.533	-1.029	130.054	-1.498	-8191	255	
14107.849	1	1	0	0	0.13677	0.048979	0.067359	0.44525	0.13105	0.11427	0.3241	0.36467	0.049827	0.077603	0.22337	0.10152	0.072188	0.14451	0.22216	0.18129	-2.0958	-2.0979	-2.6771	-2.7938	-2.2625	-2.8958	-2.4771	-2.5833	-2.5917	-2.3958	-2.7292	-2.5563	-2.4229	-2.8792	-2.4583	-2.6521	51.266	302.286	222.272	264.839	111.013	224.404	296.434	290.694	157.644	22.208	290.302	283.860	84.607	288.619	279.059	276.692	0.00055852	0.00060356	8.409e-05	1721.6	4.5153e-06	3.128e-06	1716.9	464.94	6.253e-06	5.3813e-06	525.9	169.96	149.75	50.724	5.7848e-06	62.702	0.00014518	0.00012808	3.5318e-05	1692	1.4471e-06	1.3318e-06	1683.6	457.18	1.4241e-06	1.3902e-06	512.59	167.17	145.88	49.998	1.4146e-06	61.768	73.198	70.257	75.940	-14.469	140.724	146.172	-14.286	-9.944	124.543	62.821	-10.271	-5.992	-5.354	-0.714	107.816	-1.614	-8191	255	
14107.921	1	1	0	0	0.2173	0.014308	0.078926	0.3669	0.050549	0.22576	0.15677	0.30541	0.12102	0.12523	0.17421	0.24972	0.4212	0.35058	0.11184	0.35273	-2.1792	-2.1	-2.6688	-2.8854	-2.2	-2.7938	-2.3896	-2.5625	-2.8271	-2.2146	-2.5687	-2.5625	-2.5021	-2.8146	-2.4833	-2.4417	87.430	181.637	240.468	307.444	204.871	95.467	275.330	316.713	12.015	49.814	-11.903	-27.384	283.235	305.247	193.367	264.478	0.00047855	0.00040324	0.00014568	1720.4	7.2168e-06	6.386e-06	1711.4	466.86	7.4691e-06	5.5672e-06	521.06	169.73	148.79	50.654	4.6135e-06	62.763	0.0001466	0.00012256	3.5189e-05	1689.9	1.4247e-06	1.3606e-06	1681.2	458.09	1.4639e-06	1.3828e-06	511.37	167.25	145.91	50.08	1.3994e-06	61.78	68.704	67.201	18.019	-14.430	124.388	109.224	-14.276	-10.240	105.462	111.455	-10.398	-6.218	-5.470	-1.032	95.184	-1.367	-8191	255	
14246.451	1	1	0	768	0.079731	0.1627	0.21796	0.098363	0.12191	0.293	0.078176	0.050661	0.28295	0.20533	0.054626	0.11683	0.075754	0.19188	0.15733	0.20391	-1.8937	-1.9146	-2.5687	-2.1375	-2.2208	-2.5354	-2.1708	-2.3896	-2.225	-2.1583	-2.6312	-2.2313	-2.2021	-2.5042	-1.9875	-2.5792	334.889	219.607	89.890	98.351	168.960	229.335	304.505	117.996	38.965	196.619	259.700	360.852	214.040	91.201	85.937	69.345	1.0526e-05	2.4701e-05	5.5449e-06	5.1796	3.9419e-07	1.1688e-07	5.1045	1.4084	2.3759e-07	4.5365e-07	1.5535	0.5092	0.45587	0.15143	2.1929e-07	0.18896	1.375e-06	9.5158e-07	6.2664e-08	5.9637	6.4468e-09	-5.1177e-09	5.8102	1.6002	1.0341e-09	6.3342e-09	1.7558	0.58097	0.51392	0.17408	7.6426e-09	0.21484	158.823	138.246	219.776	49.474	46.239	178.017	49.090	54.639	213.973	127.421	53.030	58.395	59.461	63.409	114.404	62.297	-8191	255	
14246.572	1	1	0	0	0.29242	0.14772	0.1034	0.15264	0.14367	0.12552	0.33594	0.2791	0.1518	0.34867	0.01424	0.089607	0.091324	0.33441	0.18328	0.30788	-1.975	-2.1604	-2.5125	-2.0854	-2.1854	-2.5042	-2.1667	-2.4021	-2.475	-2.1146	-2.6292	-2.3063	-2.0708	-2.4833	-2.1625	-2.2583	238.152	40.812	362.720	333.205	345.828	334.110	124.854	237.110	184.552	131.680	204.074	355.036	271.304	261.917	282.750	90.877	1.7977e-05	1.5361e-05	1.2259e-05	5.2749	1.4398e-07	1.8858e-07	5.1284	1.4062	5.7075e-07	2.1913e-07	1.557	0.50617	0.44751	0.15439	2.7914e-07	0.18894	8.4094e-07	4.975e-07	-8.1353e-08	5.96	1.5043e-09	-9.5848e-09	5.8022	1.5957	-4.9553e-09	4.9025e-09	1.7636	0.57814	0.51372	0.17288	2.0844e-09	0.21489	345.166	95.883	146.471	50.027	301.996	159.480	49.854	55.098	55.340	178.734	54.503	58.174	58.491	63.273	266.367	62.297	-8191	255	
14246.666	1	1	0	0	0.12677	0.28211	0.039899	0.44968	0.15337	0.072083	0.066212	0.18059	0.21408	0.1508	0.12815	0.11248	0.14578	0.094898	0.064122	0.14941	-1.8729	-2.1146	-2.5563	-2.2188	-2.0667	-2.6583	-2.1146	-2.3354	-2.3854	-2.1083	-2.4167	-2.1896	-1.9375	-2.6146	-2.1312	-2.1771	194.702	263.921	67.944	138.594	267.073	100.932	183.162	86.985	356.500	143.057	371.020	63.478	259.231	115.105	194.699	260.185	8.5285e-06	3.971e-05	3.8047e-06	5.1948	3.1093e-07	2.1599e-07	5.1289	1.4032	1.3317e-07	3.1151e-07	1.5616	0.5108	0.45089	0.15298	2.7792e-07	0.18599	6.5533e-07	4.3828e-07	-2.1987e-07	5.9162	-2.4068e-09	-1.0322e-08	5.769	1.597	-9.9106e-09	3.6877e-09	1.751	0.57814	0.51251	0.17283	-6.0794e-10	0.2152	378.482	152.239	312.500	50.016	217.565	261.592	50.062	54.584	190.089	186.770	53.447	58.652	59.300	63.230	80.024	62.265	-8191	255	
14246.762	1	1	0	0	0.3093	0.089828	0.066947	0.27947	0.045676	0.15561	0.2245	0.040322	0.1609	0.067051	0.11688	0.093307	0.10812	0.047935	0.39078	0.084038	-2.0812	-2.075	-2.5417	-2.3229	-2.1458	-2.6271	-2.2417	-2.2854	-2.5812	-2.0187	-2.4354	-2.0917	-1.9875	-2.5354	-2.1458	-2.05	202.425	211.453	264.336	216.429	384.064	225.350	366.517	295.842	391.138	189.650	235.744	345.247	382.270	276.189	365.171	41.039	1.9408e-05	2.4832e-05	1.2391e-05	5.181	2.1313e-07	6.3187e-08	5.1345	1.4036	1.7453e-07	1.1347e-07	1.5537	0.50923	0.45096	0.15433	2.9303e-07	0.19051	1.2122e-07	7.1072e-08	-2.4846e-07	5.924	3.6102e-09	-1.2707e-08	5.7682	1.5986	-1.1591e-08	-6.9416e-10	1.7527	0.57705	0.51062	0.17283	-3.4739e-10	0.21532	195.289	351.373	301.483	49.818	207.635	359.735	49.598	54.527	317.701	119.677	53.524	58.926	58.966	64.078	337.550	62.816	-8191	255	
14246.860	1	1	0	0	0.077691	0.050882	0.084458	0.21585	0.09416	0.048944	0.17683	0.1743	0.1001	0.28342	0.17344	0.20343	0.11314	0.1327	0.19785	0.14522	-2.0917	-2.0125	-2.1917	-2.45	-1.9979	-2.4104	-2.3354	-2.1354	-2.5104	-2.0104	-2.4896	-2.525	-1.8104	-2.475	-2.3146	-2.0292	289.885	153.740	262.717	150.694	333.056	151.134	358.222	230.078	136.575	273.615	332.849	160.406	243.003	253.655	381.790	349.110	1.1767e-05	9.6059e-06	1.0537e-05	5.207	4.364e-07	3.6664e-07	5.0417	1.4068	2.9614e-07	2.9813e-07	1.5741	0.50941	0.45431	0.15383	2.116e-07	0.18771	-1.894e-08	2.7639e-08	-7.6956e-08	5.9311	1.4183e-09	-1.0018e-08	5.7599	1.598	-1.0514e-08	-2.8634e-09	1.7632	0.5731	0.51127	0.17327	-1.0509e-08	0.21449	392.347	280.926	153.363	49.237	363.463	191.106	49.769	55.185	292.250	354.215	53.256	56.974	59.144	63.624	361.305	61.593	-8191	255	
14246.979	1	1	0	0	0.15034	0.23718	0.22768	0.035912	0.039472	0.079739	0.054398	0.27013	0.3267	0.10904	0.23774	0.19279	0.061488	0.29101	0.032068	0.19206	-2.1958	-1.9042	-2.2146	-2.4208	-1.9833	-2.4646	-2.2146	-2.1562	-2.6396	-2.0583	-2.3958	-2.4354	-1.9896	-2.4083	-2.4542	-2.1813	168.532	332.773	244.314	195.999	215.666	354.884	141.002	98.966	228.816	162.496	140.117	160.260	55.132	210.838	125.779	354.432	8.4164e-06	3.1905e-05	1.4687e-05	5.2838	2.5085e-07	1.2586e-08	5.0846	1.3973	2.1164e-07	2.9509e-07	1.5585	0.51199	0.45061	0.15157	8.5128e-07	0.18919	-3.788e-07	-3.7905e-07	-1.8909e-07	5.9258	-2.106e-09	-1.2924e-08	5.7547	1.6052	-1.2022e-08	-1.8656e-09	1.7635	0.57319	0.51336	0.17278	-7.7295e-09	0.21584	93.594	327.673	143.904	50.099	392.123	332.793	49.541	55.290	83.612	159.104	54.402	58.251	58.459	63.519	176.334	63.087	-8191	255	
14247.578	1	1	0	256	0.089302	0.1882	0.29976	0.18822	0.17658	0.16164	0.078161	0.26451	0.035878	0.10427	0.087491	0.27772	0.14748	0.34344	0.18382	0.15653	-1.8542	-2.6125	-2.025	-2.4979	-2.475	-2.2667	-2.575	-2.3229	-2.2833	-2.4	-2.2562	-2.5187	-2.5375	-2.1104	-2.7604	-2.3354	141.355	328.679	113.248	153.658	266.534	109.061	223.411	271.106	86.296	216.286	135.953	107.546	125.349	59.928	17.145	226.944	7.0512e-05	4.5203e-05	1.8483e-05	127.96	1.1677e-07	8.9416e-07	124.72	34.182	5.5426e-07	5.6331e-07	38.161	12.386	10.883	3.7331	1.7181e-07	4.5781	4.0994e-05	3.8667e-05	1.0953e-05	160.92	4.2472e-07	4.2572e-07	156.99	43.256	4.2896e-07	4.2604e-07	48.164	15.717	13.822	4.7447	4.2156e-07	5.8378	80.307	75.762	87.629	0.134	4.227	218.311	-0.008	4.728	166.425	151.540	3.787	8.767	9.621	13.654	10.248	12.712	-8191	255	
14247.650	1	1	0	0	0.25841	0.044777	0.10494	0.22779	0.032311	0.16164	0.18951	0.11719	0.041918	0.41704	0.21658	0.24279	0.3413	0.36394	0.26764	0.13921	-1.9562	-2.6708	-2.3021	-2.6417	-2.5271	-2.1937	-2.4729	-2.3292	-2.3646	-2.6479	-2.2	-2.4604	-2.5563	-2.1396	-2.65	-2.4333	231.556	336.807	7.156	269.232	245.965	282.594	198.811	64.114	88.034	88.607	47.464	70.979	133.343	229.192	194.828	-12.475	6.7245e-05	2.1442e-05	6.9401e-06	127.75	1.2337e-06	4.3423e-07	124.26	34.164	7.5773e-07	7.9291e-07	38.15	12.378	10.874	3.7068	4.8795e-07	4.5992	4.0804e-05	3.8722e-05	1.0885e-05	160.91	4.2678e-07	4.2967e-07	156.85	43.257	4.2611e-07	4.1927e-07	48.133	15.712	13.82	4.7389	4.2612e-07	5.8504	83.416	110.012	135.606	0.239	117.858	129.712	0.074	4.968	121.127	122.568	3.969	8.440	9.241	13.724	82.615	12.598	-8191	255	
14247.746	1	1	0	0	0.20912	0.35658	0.075594	0.16404	0.092135	0.20413	0.13678	0.16695	0.086623	0.37461	0.085592	0.096104	0.28466	0.17122	0.17869	0.25721	-1.8	-2.5438	-2.0958	-2.4021	-2.4062	-2.1333	-2.4479	-2.5354	-2.1479	-2.6708	-1.9958	-2.3312	-2.45	-2.1104	-2.4875	-2.5438	101.030	157.573	212.239	260.476	178.465	78.809	235.762	36.792	-5.740	305.709	261.583	98.413	20.582	274.652	53.081	131.828	7.0246e-05	3.9765e-05	1.5728e-05	127.77	4.5889e-07	9.8327e-07	124.36	34.11	3.6805e-07	3.2675e-07	38.177	12.398	10.897	3.7128	3.0218e-07	4.5822	4.1183e-05	3.8284e-05	1.0839e-05	160.74	4.2979e-07	4.2572e-07	157.05	43.241	4.3374e-07	4.2105e-07	48.145	15.719	13.847	4.7465	4.2447e-07	5.8506	77.957	38.952	102.700	-0.086	301.807	115.673	0.041	4.929	101.350	89.365	4.058	8.640	9.351	13.622	127.570	12.860	-8191	255	
14247.867	1	1	0	0	0.097381	0.061049	0.098037	0.13587	0.11102	0.08882	0.058765	0.1938	0.10778	0.080645	0.23336	0.20735	0.24914	0.27779	0.13425	0.15091	-1.8854	-2.6542	-2.2562	-2.2687	-2.5563	-2.2833	-2.5104	-2.3875	-2.1771	-2.5729	-2.2979	-2.3896	-2.4958	-2.2083	-2.425	-2.5042	213.670	96.055	125.102	56.729	35.678	145.996	157.070	269.037	68.779	48.964	27.582	130.352	64.413	324.213	96.458	197.024	7.3624e-05	6.4611e-05	1.1259e-05	127.35	9.7609e-07	5.1901e-07	124.41	34.288	1.2822e-06	2.174e-07	38.35	12.401	10.911	3.7275	1.3994e-07	4.5916	4.0907e-05	3.8091e-05	1.0967e-05	160.69	4.2012e-07	4.2689e-07	156.97	43.323	4.3163e-07	4.148e-07	48.216	15.718	13.813	4.7519	4.2881e-07	5.8474	68.584	98.380	51.148	-0.169	150.260	60.188	-0.173	5.159	151.430	147.034	4.176	8.750	9.310	13.643	38.519	12.541	-8191	255	
14247.963	1	1	0	0	0.15739	0.12208	0.19692	0.12287	0.15752	0.11794	0.28816	0.33747	0.17866	0.036866	0.14282	0.15022	0.20947	0.018282	0.11948	0.14728	-1.7375	-2.5458	-2.2354	-2.3417	-2.6583	-2.1375	-2.3833	-2.2979	-2.1813	-2.5687	-2.4896	-2.275	-2.5333	-2.0938	-2.5208	-2.5479	89.992	186.689	25.666	48.844	73.726	296.356	145.805	278.993	3.220	89.136	23.396	134.366	6.547	266.416	20.189	310.694	7.2064e-05	2.3625e-05	1.4037e-05	127.99	6.7001e-07	4.9497e-07	123.77	34.315	1.0028e-06	4.7714e-07	38.258	12.406	10.933	3.7306	2.0236e-07	4.5984	4.074e-05	3.8343e-05	1.0691e-05	160.98	4.2175e-07	4.2997e-07	156.85	43.353	4.2542e-07	4.1437e-07	48.2	15.75	13.832	4.7448	4.2343e-07	5.8434	82.729	103.923	78.635	0.014	122.921	147.357	0.012	5.199	106.491	93.573	3.809	8.780	9.341	13.765	182.477	12.541	-8191	255	
14248.059	1	1	0	0	0.040284	0.054332	0.34366	0.11042	0.076245	0.18299	0.15175	0.10532	0.11535	0.067206	0.086365	0.054269	0.083654	0.12485	0.27034	0.20595	-1.5896	-2.5479	-2.275	-2.1708	-2.6292	-2.1833	-2.4271	-2.4208	-1.8354	-2.6792	-2.3333	-2.1813	-2.4854	-2.1854	-2.3271	-2.6125	216.532	96.299	54.931	111.714	189.571	113.501	316.026	231.012	195.891	-9.400	217.283	2.072	219.440	14.597	283.795	294.421	7.851e-05	2.464e-05	1.1151e-05	128	8.2751e-08	2.3587e-07	125.1	34.085	5.3779e-07	2.0367e-07	38.343	12.396	10.942	3.7148	7.0826e-07	4.6028	4.1282e-05	3.7767e-05	1.0729e-05	161.11	4.1603e-07	4.1956e-07	157.35	43.291	4.2749e-07	4.1906e-07	48.208	15.762	13.839	4.7482	4.2647e-07	5.8469	81.462	8.311	34.611	0.339	134.439	140.196	0.021	4.992	121.362	157.652	4.057	8.837	9.302	13.730	141.373	12.575	-8191	255	
14248.659	1	1	0	131328	0.17664	0.19506	0.061649	0.48065	0.12357	0.16098	0.53926	0.3519	0.046055	0.077051	0.32094	0.54103	0.48152	0.28355	0.17848	0.38471	-1.9354	-2.2687	-2.6875	-2.6583	-2.5021	-2.6896	-2.5458	-2.8563	-2.3937	-2.2354	-3.0979	-2.6333	-2.8271	-2.9938	-2.2438	-2.7792	220.024	81.245	168.466	251.569	29.075	149.743	267.109	263.923	220.748	193.783	278.233	321.965	318.266	293.611	214.451	270.531	0.00087921	0.00082104	0.00034099	1037.6	6.0204e-06	1.2772e-05	1131.7	514.96	1.7581e-05	7.6415e-06	942.22	312.11	306.31	98.634	1.2931e-05	135.26	0.00083541	0.00083384	0.0002285	2449.8	9.0666e-06	8.9991e-06	2498.1	753.79	8.9853e-06	9.0133e-06	967.4	315.87	285.47	96.472	8.8803e-06	123.14	55.774	35.090	36.681	-20.072	117.671	93.957	-20.776	-18.123	129.498	102.570	-18.668	-15.135	-15.262	-10.208	61.339	-10.385	-8191	255	
14248.755	1	1	0	131072	0.1512	0.29897	0.27052	0.62866	0.1066	0.23942	0.52606	0.42411	0.21663	0.14502	0.32075	0.29412	0.21736	0.46437	0.14119	0.51088	-1.9625	-2.225	-2.6833	-2.6042	-2.425	-2.7292	-2.4708	-2.8333	-2.5687	-2.2958	-2.8271	-2.7479	-2.6271	-2.8146	-2.2	-2.6125	207.281	110.044	241.039	258.435	66.184	25.710	262.829	275.215	106.875	77.006	266.743	271.656	311.328	318.225	36.684	245.579	0.00099352	0.00094633	0.00030201	1042.6	1.8298e-05	1.2965e-05	1134	516.17	1.5468e-05	7.2837e-06	944.17	313.31	306.88	98.591	1.3958e-05	134.47	0.00083464	0.00082619	0.00022886	2447.8	8.8365e-06	8.9096e-06	2497.1	753.02	8.9953e-06	8.8416e-06	966.92	315.85	285.64	96.396	8.9953e-06	122.89	62.375	101.641	6.930	-20.270	110.424	109.012	-20.810	-18.219	111.064	125.201	-18.638	-15.241	-15.307	-10.679	125.122	-10.412	-8191	255	
14248.851	1	1	0	131072	0.11972	0.20219	0.20219	0.66016	0.28639	0.064092	0.42041	0.49905	0.25078	0.18087	0.45387	0.46958	0.23767	0.16475	0.29005	0.18991	-2.0938	-1.9708	-2.7562	-2.7979	-2.4062	-2.8479	-2.65	-2.6458	-2.5208	-2.2313	-2.7687	-2.625	-2.6312	-3.1042	-2.4167	-2.5958	7.167	109.514	275.774	271.194	21.851	211.837	246.831	274.689	314.616	148.492	274.227	277.140	254.112	243.161	201.442	320.310	0.00091796	0.0011701	0.0003636	1039.3	2.5976e-06	1.2065e-05	1129.5	516.16	1.5478e-05	1.5113e-05	940.86	312.48	307.47	98.448	2.0033e-05	135.56	0.00082293	0.00081209	0.00022686	2448.9	8.9076e-06	8.9229e-06	2499.1	753.27	8.8458e-06	9.025e-06	966.46	316.08	285.72	96.468	8.9767e-06	123.14	44.553	49.872	45.769	-20.290	118.616	110.991	-20.553	-17.948	55.158	89.684	-18.766	-15.177	-15.211	-10.409	73.277	-10.591	-8191	255	
14248.947	1	1	0	131072	0.22421	0.057039	0.096008	0.51434	0.23513	0.25108	0.29346	0.42763	0.054349	0.17171	0.25545	0.099884	0.33037	0.38641	0.32489	0.29469	-2.2729	-2.1604	-2.6063	-2.9229	-2.2396	-2.8208	-2.6125	-2.8354	-2.7938	-2.2479	-2.9938	-2.9062	-2.4562	-2.9479	-2.3708	-2.6979	148.440	245.161	81.565	237.388	309.666	181.970	280.372	250.125	90.305	257.896	284.027	-34.362	282.265	291.870	-16.085	264.164	0.00083431	0.0019225	0.00022587	1040.3	1.4825e-05	1.0732e-05	1133.1	517.13	2.2128e-05	1.0063e-05	943.26	312.68	306.1	98.705	7.7695e-06	135.45	0.00082721	0.00081723	0.00022791	2448.5	8.8575e-06	8.8564e-06	2497.6	752.63	8.8912e-06	8.8588e-06	967.63	316.03	285.46	96.409	8.9785e-06	122.89	55.553	72.389	52.595	-20.218	166.219	111.679	-20.689	-18.256	68.426	92.975	-18.764	-15.267	-15.143	-10.437	95.098	-10.497	-8191	255	
14249.043	1	1	0	131072	0.33078	0.052983	0.19617	0.50083	0.13123	0.14079	0.55504	0.51307	0.10279	0.19239	0.32653	0.44509	0.29747	0.46408	0.1121	0.29662	-2.0875	-2.3354	-2.5771	-2.8438	-2.325	-2.7271	-2.7938	-2.5417	-2.6375	-2.2438	-2.9583	-2.6813	-2.4271	-2.9562	-2.3375	-2.4854	129.409	262.312	270.871	239.775	15.790	288.978	267.756	262.429	94.226	177.763	293.772	294.556	-33.363	287.989	183.047	271.229	0.00082161	0.0012463	0.00024572	1038.7	6.1577e-06	1.2331e-05	1132.9	517.69	3.9519e-06	1.0728e-05	943.17	312.4	307	98.358	6.8598e-06	135.31	0.00082583	0.00081064	0.00022615	2449	8.8741e-06	8.7461e-06	2497.5	752.27	8.909e-06	8.7634e-06	966.2	316.31	285.27	96.57	8.9499e-06	122.82	74.721	35.573	35.840	-20.310	177.017	72.243	-20.806	-18.294	8.999	30.629	-18.804	-15.157	-15.094	-10.335	144.356	-10.725	-8191	255	
14249.140	1	1	0	131072	0.18659	0.23287	0.16266	0.54669	0.23852	0.069848	0.62261	0.45643	0.12715	0.1733	0.12002	0.34576	0.24081	0.55781	0.15067	0.44325	-2.375	-2.1813	-2.4667	-3.0521	-2.1958	-2.6146	-2.7271	-2.7479	-2.6958	-2.3125	-2.7042	-2.9375	-2.4354	-2.9333	-2.6375	-2.6771	114.704	115.654	127.715	242.494	84.641	263.776	251.353	272.141	27.946	-5.220	242.690	271.939	310.312	307.070	161.953	269.599	0.0011445	0.00072476	0.00018589	1035.7	7.9736e-06	1.0697e-05	1134.5	515.77	5.8658e-06	1.3873e-05	942.6	312.55	306.52	98.486	1.0771e-05	135.54	0.00081771	0.00080485	0.00022996	2450.5	8.8684e-06	8.9291e-06	2496.6	753.41	8.8516e-06	8.8831e-06	967.45	316.04	285.87	96.678	8.9081e-06	123.06	67.460	78.019	43.924	-20.278	107.040	79.719	-20.855	-18.077	112.064	69.330	-18.761	-15.251	-15.156	-10.451	63.266	-10.559	-8191	255	
14249.835	1	1	0	256	0.11247	0.38488	0.087898	0.088451	0.17626	0.02382	0.12274	0.17202	0.083991	0.11896	0.32563	0.062125	0.13827	0.16521	0.045977	0.11767	-1.6708	-2.5521	-2.0417	-2.5083	-2.5062	-2.0021	-2.6104	-2.2083	-2.2021	-2.7104	-2.2083	-2.3771	-2.4104	-1.9813	-2.75	-2.4354	125.429	308.048	229.893	16.098	327.678	190.430	282.698	76.534	171.481	214.404	338.557	268.938	-9.409	177.582	1.176	208.108	0.00013814	5.9674e-05	2.619e-05	329.05	1.4593e-06	1.2812e-06	319.49	87.668	1.8948e-06	7.2942e-07	97.749	31.819	27.714	9.5604	1.4372e-06	11.793	9.4185e-05	9.0341e-05	2.5703e-05	385.15	9.9362e-07	1.0025e-06	375.72	103.5	1.0034e-06	9.897e-07	115.14	37.562	32.972	11.391	9.9111e-07	13.99	72.817	100.059	84.778	-3.268	180.814	100.768	-3.402	1.535	138.550	117.773	0.497	5.232	5.961	9.967	84.800	9.077	-8191	255	
14249.956	1	1	0	0	0.13722	0.024839	0.066123	0.17599	0.13212	0.093989	0.23428	0.23484	0.34936	0.10106	0.23427	0.36609	0.10967	0.08432	0.27354	0.18795	-1.6396	-2.6396	-2.0667	-2.5646	-2.5312	-2.0458	-2.5458	-2.3771	-2.0604	-2.7375	-2.2208	-2.5521	-2.5958	-2.2542	-2.5458	-2.3542	237.436	-13.815	250.884	325.044	251.848	186.061	82.914	247.734	-9.615	121.526	330.498	-10.520	182.189	197.713	109.029	303.522	0.00014313	8.3095e-05	4.7226e-05	326.8	8.1424e-07	1.215e-06	319.07	87.458	1.0741e-06	9.6232e-07	97.813	31.662	28.022	9.5633	6.594e-07	11.758	9.3609e-05	8.9503e-05	2.5043e-05	384.49	9.9719e-07	9.8923e-07	375.78	103.54	1.0161e-06	9.9803e-07	115.04	37.61	33.049	11.4	1.0085e-06	13.976	78.185	73.406	81.966	-3.335	89.816	195.873	-3.612	1.716	197.121	108.866	0.811	5.172	5.665	10.457	141.725	9.272	-8191	255	
14250.052	1	1	0	0	0.089691	0.07881	0.1848	0.22299	0.14173	0.067765	0.14526	0.10807	0.15143	0.11461	0.034111	0.11655	0.27492	0.41036	0.014455	0.17749	-1.5771	-2.6833	-2.3333	-2.4125	-2.5625	-2.2229	-2.4667	-2.4146	-2.2854	-2.6292	-2.1125	-2.4	-2.6188	-1.9521	-2.4062	-2.3021	99.466	309.763	21.743	60.068	215.688	246.549	216.992	252.405	61.304	207.888	106.920	313.762	97.141	175.566	322.572	283.158	0.00013902	0.00012004	2.3656e-05	327.38	4.0697e-07	6.7611e-07	318.5	87.502	1.1987e-06	5.515e-07	97.979	31.796	27.81	9.5943	1.1851e-06	11.734	9.4632e-05	9.0451e-05	2.5299e-05	384.5	1.0103e-06	9.9092e-07	375.05	103.44	1.0138e-06	9.7087e-07	115.05	37.58	32.981	11.375	1.0104e-06	13.956	76.443	49.371	211.312	-3.272	143.146	132.048	-3.503	1.587	131.294	-3.483	0.720	5.322	5.901	10.475	153.783	9.309	-8191	255	
14250.148	1	1	0	0	0.33344	0.2063	0.12284	0.17933	0.069527	0.12606	0.28951	0.079756	0.20675	0.1669	0.095496	0.0908	0.030093	0.13182	0.16451	0.15336	-1.5375	-2.5771	-2.4188	-2.3083	-2.5583	-2.2521	-2.6333	-2.5479	-2.0792	-2.5958	-2.3812	-2.1271	-2.7333	-2.175	-2.4562	-2.4125	87.929	-9.986	71.523	224.298	168.554	272.081	261.015	269.397	104.561	223.467	106.398	-9.366	244.551	285.179	183.484	139.175	0.00013946	9.6035e-05	3.6375e-05	326.46	7.6123e-07	5.9376e-07	317.4	87.714	1.1346e-06	2.2565e-06	98.001	31.682	27.989	9.5696	1.4608e-06	11.757	9.3068e-05	9.0092e-05	2.4958e-05	383.61	9.8748e-07	9.8498e-07	374.56	103.24	9.9278e-07	9.664e-07	115.1	37.509	33.042	11.359	9.9454e-07	13.96	70.943	44.858	34.717	-3.240	152.213	176.807	-3.470	1.769	186.744	116.427	0.622	4.998	6.055	10.374	117.886	9.280	-8191	255	
14250.220	1	1	0	0	0.28253	0.071438	0.14707	0.096455	0.2154	0.17206	0.10411	0.28478	0.12686	0.1656	0.010104	0.088939	0.14824	0.28004	0.14482	0.20477	-1.55	-2.525	-2.3833	-2.2083	-2.5979	-2.3854	-2.3875	-2.6	-2.2083	-2.5708	-2.3542	-2.1104	-2.6229	-2.0625	-2.3542	-2.7062	328.988	246.952	281.648	296.053	247.212	130.526	143.034	267.363	61.935	271.862	100.456	275.850	179.551	116.351	149.602	221.558	0.00014076	0.00012262	1.1369e-05	326.31	6.1547e-07	1.3608e-06	318.36	87.563	2.0037e-06	4.3165e-07	97.668	31.733	28.034	9.5927	1.0063e-06	11.69	9.2973e-05	8.82e-05	2.4997e-05	383.95	9.9616e-07	9.8619e-07	374.79	103.46	9.8675e-07	9.828e-07	114.95	37.601	33.034	11.375	9.9719e-07	13.953	71.738	82.641	336.117	-3.360	112.676	88.093	-3.518	1.689	125.426	76.102	0.696	5.363	5.874	10.416	123.247	9.103	-8191	255	
14250.341	1	1	0	0	0.14433	0.40321	0.11536	0.50525	0.26067	0.22957	0.087182	0.18505	0.12577	0.068185	0.10079	0.2096	0.056498	0.082889	0.068788	0.02363	-1.8625	-2.3917	-2.4583	-2.1229	-2.6542	-2.3021	-2.4083	-2.5771	-1.8979	-2.4813	-2.4271	-2.3	-2.5771	-2.1542	-2.2979	-2.6583	6.567	237.512	338.929	316.068	266.091	298.844	13.164	250.496	71.927	214.375	286.782	116.771	26.002	191.202	238.430	307.450	0.00014452	8.8932e-05	2.9047e-05	325.91	5.9437e-07	1.6153e-06	318.7	87.786	1.1249e-06	1.4679e-06	97.142	31.584	27.873	9.5286	1.0904e-06	11.736	9.1943e-05	8.8741e-05	2.4735e-05	383.78	9.6904e-07	9.7505e-07	375.18	103.39	9.8313e-07	9.7486e-07	114.86	37.516	33.017	11.356	1.0005e-06	13.996	71.198	76.783	95.559	-3.207	85.737	143.203	-3.388	1.661	166.606	132.959	0.629	5.173	6.071	10.689	99.770	9.243	-8191	255	
14250.940	1	1	0	256	0.025632	0.060663	0.13314	0.19007	0.21952	0.089021	0.11958	0.077858	0.19799	0.22138	0.19155	0.27547	0.17491	0.37071	0.26328	0.088768	-2.0583	-2.1437	-2.5396	-2.35	-2.4354	-2.6292	-2.4333	-2.7042	-2.675	-2.4083	-2.6479	-2.6104	-2.3292	-2.7667	-2.2833	-2.575	178.600	86.869	327.949	190.263	37.899	23.337	204.164	294.421	-7.096	187.410	279.174	96.572	-9.377	-7.382	100.608	71.379	0.00025307	0.00011963	7.0507e-05	717.5	4.2398e-06	3.7129e-06	701.84	192.19	4.1438e-06	2.624e-06	214.32	69.779	61.251	20.956	3.0911e-06	25.931	0.00018846	0.00018498	5.1127e-05	785.89	2.0512e-06	1.9985e-06	767.56	211.05	2.0259e-06	2.0097e-06	234.46	76.543	67.24	23.172	2.0386e-06	28.479	76.824	33.114	70.067	-6.985	102.483	133.899	-6.997	-2.004	90.339	97.466	-3.126	1.686	2.530	6.411	135.895	5.289	-8191	255	
14251.036	1	1	0	0	0.27931	0.1409	0.11226	0.089506	0.10616	0.21997	0.25003	0.095271	0.19153	0.060328	0.26934	0.077417	0.33434	0.18788	0.13642	0.21056	-2.1813	-2.1979	-2.5146	-2.4313	-2.225	-2.7708	-2.4625	-2.4917	-2.6	-2.3	-2.4083	-2.5479	-2.1208	-2.5771	-2.3604	-2.3833	163.410	276.079	125.590	-0.709	241.594	194.939	233.421	284.577	165.772	153.815	329.587	-6.202	337.718	224.156	269.443	-16.322	0.00022281	0.00031575	8.9007e-05	718.08	7.6154e-07	2.5718e-06	700.55	192.41	2.8074e-06	2.3918e-06	214.89	69.831	61.246	21.088	3.8726e-06	25.853	0.0001889	0.00018432	5.047e-05	784.83	1.9992e-06	1.9758e-06	765.7	211.19	1.9848e-06	1.9823e-06	235.18	76.567	67.268	23.207	2.0187e-06	28.466	71.101	75.684	100.834	-6.913	256.196	140.604	-7.009	-2.005	130.304	79.607	-3.058	1.651	2.411	6.541	89.257	5.741	-8191	255	
14251.133	1	1	0	0	0.19268	0.32211	0.018236	0.2516	0.10436	0.21429	0.25389	0.19179	0.05034	0.16238	0.21083	0.1503	0.3351	0.34367	0.24013	0.046819	-2.4146	-2.1896	-2.3688	-2.6	-2.2417	-2.6708	-2.6688	-2.4729	-2.6521	-2.3604	-2.5792	-2.5104	-2.1021	-2.7062	-2.4896	-2.4604	99.553	17.201	208.293	187.537	204.541	273.946	-18.684	305.595	46.310	166.205	67.018	10.297	34.006	-13.567	194.175	299.478	0.00027194	0.00015688	7.2335e-05	719.69	2.1242e-06	1.2156e-06	700.96	193.04	2.2617e-06	1.7598e-06	213.88	69.472	61.47	20.983	7.3992e-07	25.805	0.00018653	0.00017944	5.0664e-05	785.15	2.0225e-06	1.9628e-06	766.78	211.34	2.0249e-06	1.9906e-06	234.76	76.547	67.33	23.174	2.0139e-06	28.432	79.359	47.830	23.150	-6.937	146.544	136.544	-7.264	-2.225	151.690	144.642	-2.944	1.312	2.236	6.730	153.128	5.815	-8191	255	
14251.253	1	1	0	0	0.067215	0.24191	0.077993	0.093351	0.12552	0.19767	0.20503	0.069185	0.16762	0.12184	0.084794	0.17712	0.38512	0.18633	0.12389	0.22948	-2.0542	-2.2979	-2.5042	-2.6917	-2.2354	-2.8167	-2.5604	-2.5	-2.7562	-2.3771	-2.5271	-2.5667	-2.2021	-2.5854	-2.4	-2.2604	122.456	149.908	242.446	71.005	57.616	185.451	224.782	260.122	118.236	-17.937	41.402	180.378	278.379	72.876	140.857	170.864	0.00030784	0.00028559	2.4298e-05	719.85	1.7073e-06	2.5257e-07	702.15	192.77	2.2158e-06	2.3355e-06	214.15	69.292	61.343	20.955	2.6265e-06	25.823	0.00018801	0.00017913	5.0359e-05	785.31	1.9705e-06	1.9554e-06	765.93	211.14	1.978e-06	1.9619e-06	234.44	76.348	67.337	23.171	2.0097e-06	28.438	66.028	70.964	23.853	-6.879	145.395	131.637	-7.045	-2.184	117.734	119.905	-2.906	1.564	2.278	6.558	141.293	5.569	-8191	255	
14251.349	1	1	0	0	0.25994	0.088774	0.27253	0.16527	0.052131	0.193	0.099798	0.16958	0.18762	0.23691	0.24155	0.056765	0.25172	0.11257	0.11933	0.29143	-2.3792	-2.2188	-2.2646	-2.5854	-2.1167	-2.3688	-2.6312	-2.2854	-2.6188	-2.4	-2.3688	-2.5958	-2.1604	-2.6	-2.5	-2.2417	329.434	210.925	59.157	327.154	257.791	104.683	31.277	208.208	92.746	309.795	-9.297	113.608	305.906	298.604	316.272	-4.332	0.00031341	0.00021724	0.00010375	718.52	1.8026e-06	3.3232e-06	702.11	193.45	2.9218e-06	2.7206e-06	213.89	69.727	61.405	21.103	1.2445e-06	25.792	0.00018929	0.00018163	5.0605e-05	784.32	1.9995e-06	1.9757e-06	766.69	211.22	1.9448e-06	1.9584e-06	234.36	76.619	67.3	23.21	1.994e-06	28.487	73.162	20.743	51.270	-6.923	142.573	162.554	-7.080	-2.080	166.949	121.159	-3.188	1.459	2.114	6.434	247.379	5.773	-8191	255	
14251.445	1	1	0	0	0.14591	0.24999	0.096582	0.098172	0.17245	0.16731	0.10216	0.16566	0.14048	0.28852	0.08757	0.13326	0.22387	0.075975	0.25558	0.1725	-2.2792	-2.3896	-2.3771	-2.6667	-2.3667	-2.6729	-2.5083	-2.3	-2.7104	-2.3271	-2.2958	-2.9833	-2.2792	-2.5125	-2.725	-2.2583	159.607	279.024	325.707	6.658	255.905	116.114	319.312	271.675	306.748	252.378	296.534	216.757	135.703	-8.330	308.334	119.460	0.00026962	0.00019382	1.5879e-05	716.57	1.1023e-06	2.5235e-06	702.48	193.76	1.3544e-06	1.4863e-06	214.42	69.508	61.374	21.056	1.4797e-06	25.848	0.00018728	0.00018364	5.1181e-05	784.38	2.0002e-06	2.0001e-06	767.42	211.32	1.9945e-06	1.9775e-06	234.59	76.431	67.3	23.211	2.0156e-06	28.479	73.003	57.135	108.988	-6.869	76.221	176.114	-7.293	-2.175	136.114	66.469	-2.906	1.308	2.134	6.539	182.593	5.591	-8191	255	
14252.045	1	1	0	256	0.30408	0.096334	0.13421	0.19857	0.10048	0.16741	0.24828	0.32235	0.20689	0.19715	0.24535	0.24157	0.30149	0.12698	0.043758	0.13479	-2.0604	-2.7667	-2.2333	-2.8604	-2.7792	-2.2042	-2.8063	-2.7458	-2.2729	-2.6188	-2.4354	-2.4938	-2.8833	-2.2917	-2.7125	-2.6646	155.406	230.561	8.706	294.224	191.834	91.523	265.041	269.224	43.480	134.837	321.318	260.626	290.147	13.884	-24.409	250.934	0.00059819	0.00012279	9.878e-05	1398.4	5.6348e-06	4.096e-06	1361.9	373.5	5.3606e-06	5.3004e-06	412.77	134.15	118.37	40.598	2.2828e-06	49.978	0.0003322	0.00031828	8.9374e-05	1424.7	3.4591e-06	3.4627e-06	1388.2	381.37	3.5696e-06	3.4971e-06	422.39	137.87	121.12	41.828	3.5139e-06	51.352	70.182	78.545	72.154	-11.775	83.146	88.001	-11.852	-7.204	240.507	94.112	-7.797	-3.418	-2.828	1.581	59.072	0.723	-8191	255	
14252.117	1	1	0	0	0.13167	0.032743	0.26672	0.3987	0.1925	0.12424	0.35215	0.12623	0.23329	0.090613	0.047881	0.18049	0.36137	0.25308	0.064958	0.11576	-1.7271	-2.7042	-2.3104	-2.5062	-2.7146	-2.3646	-2.9021	-2.625	-2.2833	-2.8458	-2.4562	-2.6063	-2.7396	-2.1562	-2.6625	-2.5396	27.914	168.039	156.437	285.185	133.302	260.025	295.955	276.100	225.125	66.516	100.872	-10.783	292.937	-13.914	266.617	309.363	0.00040308	0.00042621	6.4194e-05	1398.2	5.038e-06	4.5163e-06	1363.6	372.37	2.465e-06	5.3812e-06	413.95	134.67	118.18	40.48	2.019e-06	49.678	0.00032778	0.00031885	8.9681e-05	1425.2	3.5562e-06	3.4515e-06	1388.4	381.03	3.5315e-06	3.4599e-06	423.34	138.24	121.14	41.81	3.5525e-06	51.318	71.469	50.305	72.994	-11.720	131.819	86.812	-11.905	-7.549	301.778	104.061	-7.567	-3.636	-3.155	1.567	222.797	0.839	-8191	255	
14252.213	1	1	0	0	0.08285	0.21733	0.15459	0.23394	0.13786	0.28961	0.19042	0.13251	0.18517	0.16078	0.024306	0.18916	0.14372	0.30285	0.011076	0.064643	-1.8021	-2.7667	-2.3542	-2.6604	-2.7375	-2.3792	-2.6104	-2.725	-2.4313	-2.6667	-2.35	-2.6729	-2.7854	-2.3146	-2.5917	-2.7313	218.838	33.152	210.476	288.018	-0.150	266.901	294.392	195.203	277.185	-0.397	98.600	233.201	295.706	308.537	324.193	8.197	0.00054085	0.00045561	6.7128e-05	1396.7	1.9889e-06	1.6503e-06	1365.5	372.95	6.4309e-06	2.8295e-06	414.64	134.14	117.74	40.555	3.1899e-06	50.011	0.00032936	0.00031748	8.8633e-05	1424.7	3.5174e-06	3.5275e-06	1391.1	381.01	3.533e-06	3.4269e-06	422.79	137.93	121.09	41.804	3.5219e-06	51.409	55.394	65.894	47.344	-11.756	145.073	328.832	-11.870	-7.361	171.229	96.528	-7.675	-3.538	-2.873	1.328	26.974	0.702	-8191	255	
14252.334	1	1	0	0	0.12041	0.01884	0.1022	0.16337	0.19132	0.081473	0.14097	0.17652	0.23232	0.047776	0.22676	0.35362	0.23825	0.23307	0.16047	0.38575	-1.6958	-2.6188	-2.4604	-2.5062	-2.775	-2.275	-2.4854	-2.7917	-2.3396	-2.8583	-2.6688	-2.4979	-2.6708	-2.475	-2.4167	-2.7687	246.802	51.561	140.831	207.037	65.477	-22.262	163.814	7.142	24.960	179.390	312.033	-7.457	-4.047	306.046	125.432	223.312	0.00049677	0.00030414	0.00018301	1395.4	2.8131e-06	4.6255e-06	1363.2	372.75	6.7918e-06	5.0662e-06	414.53	134.46	118.15	40.563	2.9133e-06	50.107	0.00032533	0.00031353	8.842e-05	1423.8	3.4628e-06	3.5211e-06	1390.4	381.5	3.4941e-06	3.4811e-06	422.58	138.02	121.06	41.813	3.5093e-06	51.471	63.963	27.421	48.801	-11.847	178.392	88.993	-11.869	-7.208	187.812	93.525	-7.779	-3.478	-2.953	1.544	144.440	0.892	-8191	255	
14252.430	1	1	0	0	0.27001	0.20401	0.18145	0.1288	0.26795	0.015026	0.33875	0.15517	0.25291	0.055409	0.17998	0.26282	0.23361	0.18112	0.26164	0.1039	-1.8833	-2.5812	-2.5042	-2.6375	-2.6625	-2.2812	-2.7125	-2.9083	-2.3208	-2.5708	-2.7083	-2.3458	-2.7938	-2.4833	-2.3875	-2.7375	142.489	212.617	301.297	302.315	-9.943	166.260	277.123	330.189	-3.358	92.720	188.241	309.950	-3.891	218.195	245.670	-14.790	0.00045731	0.00014295	6.9919e-06	1397.9	3.9948e-06	4.3585e-06	1362	370.98	8.4269e-06	5.5346e-06	415.18	134.27	118.13	40.502	4.6146e-06	50.122	0.00033064	0.00031742	8.8518e-05	1425.1	3.4904e-06	3.457e-06	1388.8	381.01	3.524e-06	3.4896e-06	422.86	138.06	121.29	41.848	3.5529e-06	51.475	58.238	40.979	25.604	-11.861	114.672	78.812	-11.573	-7.171	104.934	83.105	-7.911	-3.478	-3.079	1.871	85.820	0.904	-8191	255	
14252.526	1	1	0	0	0.24554	0.0052107	0.013737	0.29817	0.018556	0.040684	0.15603	0.22401	0.2942	0.19325	0.17673	0.20755	0.16911	0.17664	0.012787	0.20729	-1.7646	-2.6625	-2.5208	-2.4896	-2.7292	-2.3708	-2.7167	-2.75	-2.25	-2.6583	-2.5	-2.2375	-2.9938	-2.3375	-2.3542	-2.8729	155.496	25.299	137.913	270.041	76.601	84.070	273.138	274.149	162.070	73.098	-3.741	287.742	30.381	304.198	52.112	259.711	0.0005752	0.00059306	0.00019208	1396.4	4.0151e-06	3.4834e-06	1361.8	374.32	1.5879e-06	4.0542e-06	415.04	133.97	117.97	40.472	6.793e-07	50.09	0.00032714	0.00032307	8.9131e-05	1424.9	3.521e-06	3.4912e-06	1390.2	381.94	3.5265e-06	3.4981e-06	423.2	138.06	120.84	41.828	3.5493e-06	51.477	59.191	58.141	62.034	-11.816	102.789	65.923	-11.978	-7.404	249.017	94.967	-7.652	-3.557	-2.793	1.715	294.428	0.733	-8191	255	
14253.125	1	1	0	131328	0.068947	0.26581	0.20948	0.33147	0.1342	0.045509	0.19113	0.47394	0.18891	0.21908	0.44465	0.27158	0.17196	0.56665	0.29004	0.083674	-2.0417	-2.1604	-2.6688	-2.5271	-2.4313	-2.7396	-2.45	-2.8187	-2.4792	-2.2292	-2.7667	-2.5979	-2.4708	-2.8812	-2.1646	-2.5854	155.268	320.013	196.820	287.970	193.308	305.140	231.299	294.712	129.833	-28.728	252.864	-10.660	276.759	309.447	225.651	23.172	0.000797	0.0003896	0.0002421	1699.1	6.7932e-06	4.4273e-06	1844.5	624.57	5.521e-06	5.6119e-06	713.76	231.33	202.95	69.896	9.3638e-06	86.223	0.00051968	0.00051215	0.00014071	2099.3	5.5807e-06	5.5738e-06	2117.4	611.13	5.6122e-06	5.5742e-06	684.9	222.75	195.22	67.551	5.6551e-06	83.269	52.733	62.365	51.374	-16.746	122.366	111.755	-16.876	-13.397	99.235	167.267	-13.513	-9.510	-9.153	-4.344	114.744	-4.964	-8191	255	
14253.222	1	1	0	131072	0.1189	0.15584	0.2593	0.39287	0.28167	0.034085	0.20002	0.18014	0.13904	0.10756	0.38648	0.40785	0.3033	0.48431	0.11408	0.205	-1.9104	-1.9229	-2.6042	-2.7646	-2.2979	-2.7083	-2.6042	-2.8167	-2.6979	-2.3208	-3.0625	-2.8521	-2.3896	-2.9146	-2.2771	-2.7979	137.782	160.333	-30.223	283.086	67.520	99.539	239.215	270.828	111.648	183.842	310.083	-27.366	296.011	297.717	282.811	321.810	0.00064713	0.00052699	0.00020744	1703.7	4.7159e-06	7.474e-06	1844.5	624.79	6.7678e-06	2.3583e-06	714.61	231.62	203.93	69.797	1.4696e-05	85.9	0.00052053	0.00050924	0.00014072	2097	5.5907e-06	5.4848e-06	2117.1	612.53	5.5402e-06	5.6091e-06	685.24	222.76	195.72	67.542	5.6419e-06	83.197	70.522	57.178	47.499	-16.959	102.598	95.388	-16.865	-13.355	99.063	77.168	-13.486	-9.522	-8.874	-4.427	134.086	-4.903	-8191	255	
14253.342	1	1	0	131072	0.086188	0.11894	0.10577	0.31296	0.014092	0.11509	0.2975	0.56747	0.28607	0.19505	0.2944	0.32196	0.23476	0.16351	0.19465	0.20123	-2.1083	-2.0708	-2.4562	-2.8125	-2.2333	-2.8604	-2.6229	-2.4417	-2.5167	-2.1688	-2.6604	-2.8917	-2.5312	-2.8812	-2.5917	-2.6729	236.472	116.024	324.836	269.052	160.448	328.171	281.089	275.886	-24.740	297.796	276.467	277.722	294.691	267.946	140.137	259.842	0.00070082	0.00064804	0.000283	1700.6	4.9673e-06	1.0582e-05	1841.6	624.72	8.088e-06	7.3158e-06	715.94	231.65	202.86	69.852	5.6049e-06	85.965	0.00052579	0.0005079	0.00014241	2099.4	5.6279e-06	5.5824e-06	2118	612.32	5.6282e-06	5.5915e-06	684.83	222.42	195.25	67.522	5.5986e-06	83.109	68.912	51.037	45.213	-16.763	103.637	96.334	-16.894	-13.320	94.257	88.270	-13.250	-9.215	-8.785	-4.401	95.401	-5.107	-8191	255	
14253.414	1	1	0	131072	0.41674	0.29246	0.21794	0.13259	0.33897	0.1528	0.2243	0.2979	0.094182	0.10727	0.24734	0.1692	0.020206	0.33047	0.065967	0.37533	-2.2583	-2.2729	-2.4313	-2.825	-2.2562	-2.7542	-2.6854	-2.6125	-2.4062	-2.2875	-2.7917	-2.6104	-2.4521	-2.8563	-2.2771	-2.3792	57.752	11.327	8.721	280.937	296.927	176.586	279.343	240.261	263.328	66.527	304.340	274.130	286.982	-12.274	83.454	305.331	0.00074197	0.00093966	0.00011922	1700.1	7.4193e-06	3.3763e-06	1843.4	624.89	9.0162e-06	5.1412e-06	716.03	231.73	204.15	69.798	4.0219e-06	86.492	0.00052704	0.00050999	0.00014378	2098.9	5.5706e-06	5.5892e-06	2117.7	611.59	5.6564e-06	5.657e-06	685.94	222.73	195.83	67.586	5.5571e-06	83.413	64.209	60.265	42.065	-16.860	127.747	-21.447	-16.962	-13.492	72.369	88.701	-13.341	-9.563	-8.810	-4.486	63.237	-4.615	-8191	255	
14253.510	1	1	0	131072	0.20159	0.10967	0.18379	0.46376	0.3288	0.11477	0.07148	0.33914	0.23838	0.12624	0.29202	0.19094	0.18743	0.43421	0.072449	0.045081	-2.3	-2.5167	-2.6042	-2.9229	-2.2958	-2.7021	-2.7687	-2.3833	-2.7729	-2.3	-2.7208	-2.9313	-2.3604	-2.8333	-2.5563	-2.3708	41.769	270.689	187.111	304.839	13.760	92.969	-22.998	326.647	92.246	122.884	301.471	229.039	322.649	318.167	20.447	199.961	0.00075425	0.0007934	6.2479e-05	1698.7	7.3738e-06	6.1656e-06	1844.8	624.39	4.027e-06	9.3834e-06	712.95	231.75	203.46	69.771	6.6754e-06	85.983	0.00052115	0.00050529	0.00014183	2098.9	5.5628e-06	5.5842e-06	2114.8	611.69	5.5827e-06	5.5584e-06	685.23	222.62	195.65	67.635	5.6696e-06	83.192	79.590	33.995	95.069	-16.783	132.508	54.230	-16.920	-13.342	150.770	88.500	-13.244	-9.360	-8.990	-4.527	136.078	-4.989	-8191	255	
14253.606	1	1	0	131072	0.2127	0.053582	0.19716	0.30098	0.279	0.36988	0.43142	0.53842	0.11834	0.16087	0.34309	0.18505	0.22889	0.2866	0.027896	0.13425	-2.3875	-2.2604	-2.5792	-2.9604	-2.2	-2.6	-2.8563	-2.4458	-2.7125	-2.4042	-2.6021	-2.8708	-2.4437	-2.6104	-2.6	-2.5875	-8.036	266.413	96.538	262.033	187.640	54.806	263.909	280.991	256.043	72.740	318.307	306.052	262.045	282.156	47.712	288.904	0.00073821	0.00066483	0.00018185	1701.8	5.6161e-06	4.039e-06	1846.6	623.61	1.0576e-05	9.0807e-06	713.82	231.8	203.86	69.873	1.1241e-05	86.818	0.00052562	0.00051105	0.00014312	2098.3	5.6076e-06	5.5933e-06	2115.4	611.69	5.5397e-06	5.5543e-06	684.64	223.03	195.54	67.665	5.6159e-06	83.334	69.803	78.501	57.053	-16.764	133.825	87.728	-16.869	-13.272	109.216	76.083	-13.544	-9.211	-9.051	-4.606	97.192	-4.798	-8191	255	
14254.302	1	1	0	256	0.2402	0.13021	0.15563	0.50187	0.29612	0.16909	0.18798	0.25397	0.077248	0.24104	0.12621	0.12716	0.18355	0.244	0.16039	0.027568	-1.95	-2.7896	-2.4333	-2.5583	-2.7833	-2.4271	-3.0625	-2.7167	-2.3771	-2.7771	-2.7042	-2.5792	-2.7333	-2.4583	-2.5771	-2.7229	-6.951	57.179	66.065	314.604	134.382	265.125	261.321	308.530	293.775	328.722	274.128	256.518	281.208	318.469	331.840	259.617	0.00060729	0.00027437	2.5274e-05	1621.4	3.6468e-06	9.3831e-06	1570.7	432.15	7.2037e-06	7.6266e-06	480.62	155.44	136.67	47.192	5.9084e-06	57.901	0.00036015	0.00035351	9.8343e-05	1623.3	3.8482e-06	3.8491e-06	1580.7	433.74	3.855e-06	3.8293e-06	481.49	156.98	137.79	47.697	3.8756e-06	58.543	66.871	56.682	138.963	-13.041	184.438	105.060	-13.180	-8.838	115.779	69.946	-9.058	-4.835	-4.244	0.236	101.436	-0.784	-8191	255	
14254.423	1	1	0	0	0.35976	0.052226	0.13348	0.20725	0.14486	0.13084	0.1908	0.28042	0.13695	0.3245	0.20164	0.21399	0.22644	0.20267	0.23879	0.11501	-1.875	-2.5583	-2.4208	-2.7604	-2.8604	-2.25	-2.7896	-2.7646	-2.2938	-2.8167	-2.6771	-2.5792	-2.8375	-2.5687	-2.6813	-2.7542	84.606	64.644	292.916	319.447	70.134	251.669	301.595	283.014	55.826	315.711	287.255	250.077	1.009	213.647	235.013	293.651	0.00052652	0.00056322	0.00025087	1616.1	7.3272e-06	9.7337e-06	1574.5	431.83	3.9158e-06	9.478e-07	478.41	154.83	136.33	46.844	5.9332e-06	57.704	0.00036056	0.00034545	9.8198e-05	1621.4	3.8322e-06	3.8348e-06	1580	433.46	3.8477e-06	3.8776e-06	481.28	156.95	137.74	47.597	3.8247e-06	58.603	56.530	82.805	80.016	-13.210	156.755	74.725	-13.140	-8.731	179.760	186.655	-9.091	-4.917	-4.309	0.072	112.965	-0.594	-8191	255	
14254.517	1	1	0	0	0.04471	0.22222	0.11521	0.47967	0.050601	0.094326	0.14946	0.22312	0.27654	0.065875	0.28021	0.20777	0.14027	0.25189	0.030823	0.21837	-2.1104	-2.8458	-2.4875	-2.7125	-2.7167	-2.4146	-2.9833	-2.8521	-2.3604	-2.9562	-2.6937	-2.6521	-2.7625	-2.3063	-2.675	-2.775	181.307	269.315	285.385	270.353	154.690	308.006	268.470	195.036	320.139	176.965	306.776	269.084	103.714	-25.072	327.594	21.311	0.00047968	0.00059701	1.6977e-05	1613.1	3.0486e-06	4.3331e-06	1576.5	430.99	2.9998e-06	3.3362e-06	479.81	155.09	136.6	47.144	4.852e-06	58.017	0.00035866	0.00035051	9.7839e-05	1618.6	3.8612e-06	3.8061e-06	1579.6	433.63	3.8637e-06	3.8416e-06	481.19	156.88	137.52	47.64	3.8562e-06	58.552	68.598	67.579	270.860	-13.180	103.767	114.579	-13.277	-8.719	83.500	41.006	-9.124	-4.705	-4.290	0.063	116.949	-0.557	-8191	255	
14254.613	1	1	0	0	0.18674	0.1214	0.20435	0.33354	0.23823	0.20913	0.34499	0.11589	0.1293	0.10509	0.11446	0.20808	0.20984	0.14497	0.11993	0.37909	-1.8083	-2.8208	-2.4729	-2.6104	-2.85	-2.4917	-2.7438	-2.7854	-2.3688	-2.6979	-2.6625	-2.4479	-3.0229	-2.6229	-2.6271	-2.7375	-21.662	249.464	5.109	305.255	53.592	221.863	240.652	271.179	212.757	327.314	54.023	332.214	243.939	248.680	276.569	299.408	0.000586	0.00075238	0.0001365	1611.4	1.5115e-06	7.8756e-06	1573.3	430.24	5.1711e-06	5.3688e-06	480.09	155.22	137.02	47.094	5.8721e-06	57.906	0.00036305	0.00035059	9.6509e-05	1620.1	3.8526e-06	3.7879e-06	1579.6	432.87	3.8266e-06	3.8327e-06	481.49	156.76	137.91	47.665	3.9015e-06	58.519	72.190	71.305	40.526	-13.190	120.290	136.910	-13.435	-8.735	121.682	86.203	-9.544	-4.810	-4.387	0.152	105.774	-0.845	-8191	255	
#DATA ENDS
