BOXY.EXE: ISS Imagent and Oximeter Data Acquisition Program Version 0.80
Ascii Record File

#ACQ INFORMATION
2  Detector Channels 
16  External MUX Channels 
1  Auxiliary Channels 
5000  Waveform (CCF) Frequency (Hz)
1  Waveforms Skipped 
30  Waveforms Averaged 
1  Cycles Averaged 
16  Acquisitions per Waveform 
10.0806  Updata Rate (Hz) 

#FILE INFORMATION
TRUE -- External MUX Channel results are PARSED.
FALSE -- AC DC and Phase are NOT grouped.
TRUE -- Companion Program Settings File CREATED.
FALSE -- AC data not excluded
FALSE -- DC data not excluded
FALSE -- Phase data not excluded
FALSE -- Auxillary Chn. data not excluded
Tab delimiters

#CALIBRATION STATE
TRUE -- Waveform Calibration Values APPLIED.


#AUX CALIBRATION VALUES
Val Type	aux-1	

Term	1.0000e+00	
Factor	0.0000e+00	


#WF CALIBRATION VALUES
A = Detector Channel
Val Type	A-AC1	A-AC2	A-AC3	A-AC4	A-AC5	A-AC6	A-AC7	A-AC8	A-AC9	A-AC10	A-AC11	A-AC12	A-AC13	A-AC14	A-AC15	A-AC16	A-DC1	A-DC2	A-DC3	A-DC4	A-DC5	A-DC6	A-DC7	A-DC8	A-DC9	A-DC10	A-DC11	A-DC12	A-DC13	A-DC14	A-DC15	A-DC16	A-Ph1	A-Ph2	A-Ph3	A-Ph4	A-Ph5	A-Ph6	A-Ph7	A-Ph8	A-Ph9	A-Ph10	A-Ph11	A-Ph12	A-Ph13	A-Ph14	A-Ph15	A-Ph16	

Term	0.00000e+00	0.00000e+00	0.00000e+00	0.00000e+00	0.00000e+00	0.00000e+00	0.00000e+00	0.00000e+00	0.00000e+00	0.00000e+00	0.00000e+00	0.00000e+00	0.00000e+00	0.00000e+00	0.00000e+00	0.00000e+00	0.00000e+00	0.00000e+00	0.00000e+00	0.00000e+00	0.00000e+00	0.00000e+00	0.00000e+00	0.00000e+00	0.00000e+00	0.00000e+00	0.00000e+00	0.00000e+00	0.00000e+00	0.00000e+00	0.00000e+00	0.00000e+00	0.00000e+00	0.00000e+00	0.00000e+00	0.00000e+00	0.00000e+00	0.00000e+00	0.00000e+00	0.00000e+00	0.00000e+00	0.00000e+00	0.00000e+00	0.00000e+00	0.00000e+00	0.00000e+00	0.00000e+00	0.00000e+00	
Factor	1.00000e+00	1.00000e+00	1.00000e+00	1.00000e+00	1.00000e+00	1.00000e+00	1.00000e+00	1.00000e+00	1.00000e+00	1.00000e+00	1.00000e+00	1.00000e+00	1.00000e+00	1.00000e+00	1.00000e+00	1.00000e+00	1.00000e+00	1.00000e+00	1.00000e+00	1.00000e+00	1.00000e+00	1.00000e+00	1.00000e+00	1.00000e+00	1.00000e+00	1.00000e+00	1.00000e+00	1.00000e+00	1.00000e+00	1.00000e+00	1.00000e+00	1.00000e+00	X	X	X	X	X	X	X	X	X	X	X	X	X	X	X	X	

B = Detector Channel
Val Type	B-AC1	B-AC2	B-AC3	B-AC4	B-AC5	B-AC6	B-AC7	B-AC8	B-AC9	B-AC10	B-AC11	B-AC12	B-AC13	B-AC14	B-AC15	B-AC16	B-DC1	B-DC2	B-DC3	B-DC4	B-DC5	B-DC6	B-DC7	B-DC8	B-DC9	B-DC10	B-DC11	B-DC12	B-DC13	B-DC14	B-DC15	B-DC16	B-Ph1	B-Ph2	B-Ph3	B-Ph4	B-Ph5	B-Ph6	B-Ph7	B-Ph8	B-Ph9	B-Ph10	B-Ph11	B-Ph12	B-Ph13	B-Ph14	B-Ph15	B-Ph16	

Term	0.00000e+00	0.00000e+00	0.00000e+00	0.00000e+00	0.00000e+00	0.00000e+00	0.00000e+00	0.00000e+00	0.00000e+00	0.00000e+00	0.00000e+00	0.00000e+00	0.00000e+00	0.00000e+00	0.00000e+00	0.00000e+00	0.00000e+00	0.00000e+00	0.00000e+00	0.00000e+00	0.00000e+00	0.00000e+00	0.00000e+00	0.00000e+00	0.00000e+00	0.00000e+00	0.00000e+00	0.00000e+00	0.00000e+00	0.00000e+00	0.00000e+00	0.00000e+00	-1.27282e+02	-1.30498e+02	-1.26606e+02	-1.82720e+02	-7.04405e+01	-6.88341e+01	-1.60843e+02	-1.62015e+02	-7.31909e+01	-6.92541e+01	-1.72572e+02	-1.72955e+02	-1.82795e+02	-1.78089e+02	-7.17232e+01	-1.50939e+02	
Factor	1.93131e-05	1.69621e-04	4.86892e-05	1.65898e-01	1.33105e-06	1.92021e-06	1.95781e-01	6.11879e-02	1.30919e-06	1.87107e-06	9.62612e-02	3.22527e-02	2.98245e-02	9.98308e-03	1.50668e-06	1.45378e-02	1.28716e-05	2.34187e-05	6.58817e-06	8.38859e-02	2.30464e-07	2.64030e-07	9.33801e-02	3.11235e-02	2.35691e-07	2.61591e-07	4.74826e-02	1.59974e-02	1.53938e-02	5.11434e-03	2.44169e-07	7.23425e-03	X	X	X	X	X	X	X	X	X	X	X	X	X	X	X	X	



#DISTANCE SETTINGS
A = Detector Channel
A-1	A-2	A-3	A-4	A-5	A-6	A-7	A-8	A-9	A-10	A-11	A-12	A-13	A-14	A-15	A-16	

2.5000e+00	3.0000e+00	2.5000e+00	3.0000e+00	2.0000e+00	3.0000e+00	1.5000e+00	3.0000e+00	3.0000e+00	3.0000e+00	3.0000e+00	3.0000e+00	3.0000e+00	3.0000e+00	1.5000e+00	3.0000e+00	

B = Detector Channel
B-1	B-2	B-3	B-4	B-5	B-6	B-7	B-8	B-9	B-10	B-11	B-12	B-13	B-14	B-15	B-16	

1.0000e+01	1.0000e+01	1.0000e+01	1.4400e+00	1.0000e+01	1.0000e+01	1.5100e+00	1.9400e+00	1.0000e+01	1.0000e+01	1.9900e+00	2.4900e+00	2.4100e+00	2.9000e+00	1.0000e+01	2.9800e+00	




#DATA BEGINS
time	group	step	mark	flag	A-AC1	A-AC2	A-AC3	A-AC4	A-AC5	A-AC6	A-AC7	A-AC8	A-AC9	A-AC10	A-AC11	A-AC12	A-AC13	A-AC14	A-AC15	A-AC16	A-DC1	A-DC2	A-DC3	A-DC4	A-DC5	A-DC6	A-DC7	A-DC8	A-DC9	A-DC10	A-DC11	A-DC12	A-DC13	A-DC14	A-DC15	A-DC16	A-Ph1	A-Ph2	A-Ph3	A-Ph4	A-Ph5	A-Ph6	A-Ph7	A-Ph8	A-Ph9	A-Ph10	A-Ph11	A-Ph12	A-Ph13	A-Ph14	A-Ph15	A-Ph16	B-AC1	B-AC2	B-AC3	B-AC4	B-AC5	B-AC6	B-AC7	B-AC8	B-AC9	B-AC10	B-AC11	B-AC12	B-AC13	B-AC14	B-AC15	B-AC16	B-DC1	B-DC2	B-DC3	B-DC4	B-DC5	B-DC6	B-DC7	B-DC8	B-DC9	B-DC10	B-DC11	B-DC12	B-DC13	B-DC14	B-DC15	B-DC16	B-Ph1	B-Ph2	B-Ph3	B-Ph4	B-Ph5	B-Ph6	B-Ph7	B-Ph8	B-Ph9	B-Ph10	B-Ph11	B-Ph12	B-Ph13	B-Ph14	B-Ph15	B-Ph16	aux-1	digaux	

14702.068	1	1	0	256	0.25438	0.093619	0.11969	0.10477	0.25057	0.16965	0.13063	0.16139	0.25654	0.19836	0.18934	0.11905	0.46243	0.15674	0.20678	0.13057	-2.6229	-2.45	-2.9458	-2.9917	-2.4688	-3.1125	-2.8937	-2.8812	-3.0021	-2.6688	-2.9521	-2.8229	-2.6958	-3.1479	-2.8542	-2.725	530.323	510.211	393.366	326.070	314.549	445.452	182.514	437.185	218.623	352.808	199.139	405.566	507.953	310.746	383.478	246.057	0.00023686	0.00026281	8.5479e-05	1056.5	2.3475e-06	2.9013e-06	1150	215.83	3.3815e-06	4.3359e-06	277.18	78.076	60.716	18.123	1.7768e-06	25.459	0.00039494	0.00052224	0.00013821	1043.3	5.4298e-06	5.4544e-06	1139.7	214.81	5.6036e-06	5.7272e-06	276.75	78.528	61.016	18.322	5.6418e-06	25.906	200.123	281.329	274.730	189.987	297.533	327.266	189.865	197.333	305.396	329.111	197.233	203.648	203.873	211.825	310.095	211.141	-8191	255	
14702.165	1	1	0	0	0.29013	0.094193	0.31223	0.2193	0.29109	0.075849	0.056688	0.29267	0.065508	0.095241	0.091076	0.31866	0.21446	0.25827	0.16931	0.20845	-2.5729	-2.5542	-2.8396	-3.0146	-2.5667	-2.8396	-2.9146	-2.6729	-3.0521	-2.7188	-2.8979	-2.825	-2.4938	-3.0687	-2.8396	-2.5208	537.555	224.367	253.713	236.323	252.856	313.241	417.975	536.751	289.696	528.047	490.602	536.657	428.493	486.062	372.118	202.893	0.00023301	0.00032776	8.5055e-05	1052.6	2.6044e-06	4.1671e-06	1144.1	215.39	1.9287e-06	2.9723e-06	276.49	78.374	60.197	17.949	2.7691e-06	25.209	0.0003935	0.00053444	0.00015047	1036.3	5.594e-06	5.7311e-06	1131.4	214.14	5.4062e-06	5.7381e-06	275.45	78.396	60.811	18.154	6.0534e-06	25.713	203.570	267.277	261.446	190.312	316.569	338.336	190.072	197.288	309.202	330.253	197.086	203.422	204.183	211.436	317.773	211.485	-8191	255	
14702.283	1	1	0	0	0.16594	0.099865	0.26803	0.28116	0.096352	0.044316	0.15154	0.17293	0.19985	0.088233	0.045564	0.13011	0.042536	0.41436	0.20185	0.12952	-2.4958	-2.425	-2.8729	-2.975	-2.4229	-3.0438	-2.7542	-2.8292	-3.0083	-2.7042	-3.0208	-3.0521	-2.5604	-3.0396	-3.1542	-2.5062	347.999	227.293	346.036	439.639	448.836	506.638	430.599	464.957	530.794	438.324	354.527	483.360	279.928	421.845	185.158	424.341	0.00024481	0.0002421	8.8732e-05	1046	2.2673e-06	2.1538e-06	1140.9	214.89	2.8717e-06	1.1959e-06	275.95	77.975	60.1	17.884	3.6701e-06	25.217	0.00041497	0.00058044	0.00016875	1031	6.3522e-06	6.6002e-06	1126.1	213.7	6.1638e-06	6.4035e-06	274.59	78.287	60.689	18.16	5.7715e-06	25.757	198.901	308.803	293.636	190.010	331.525	304.778	190.029	197.502	279.455	350.035	197.225	203.300	203.920	211.511	333.531	211.606	-8191	255	
14702.380	1	1	0	0	0.29057	0.21012	0.17907	0.34989	0.08393	0.028747	0.13603	0.088662	0.22073	0.10424	0.034621	0.20379	0.17478	0.25917	0.075226	0.25623	-2.6375	-2.6917	-2.5896	-3.0917	-2.4708	-2.9958	-3.0208	-2.6958	-3.0417	-2.9167	-2.7604	-2.9708	-2.5604	-2.825	-2.9625	-2.6646	413.776	513.381	365.419	514.917	460.564	232.981	254.432	452.758	231.848	506.966	508.365	468.787	201.200	480.306	286.795	210.866	0.00026169	0.00043061	4.2025e-05	1043.3	3.3581e-06	3.0687e-06	1134.5	215.96	2.4182e-06	3.1521e-06	277.3	77.753	59.929	17.68	2.9233e-06	25.123	0.00041811	0.00052799	0.00014342	1027.3	5.5019e-06	5.4726e-06	1122.6	213.71	5.3841e-06	5.5087e-06	275.46	78.294	60.56	18.062	5.4694e-06	25.685	201.918	259.131	245.068	190.056	285.313	300.307	189.875	197.162	299.803	336.175	197.110	203.543	204.179	211.763	293.237	210.663	-8191	255	
14702.453	1	1	0	0	0.18924	0.044362	0.062109	0.097393	0.17835	0.35229	0.15076	0.093897	0.078282	0.18033	0.24708	0.034858	0.33339	0.29912	0.13625	0.10311	-2.5812	-2.9208	-2.4083	-3.2646	-2.6188	-2.8708	-3.1208	-2.5458	-2.9542	-2.7833	-2.9333	-3.0187	-2.7229	-2.9229	-3.0208	-2.5438	329.520	400.587	241.918	189.712	319.215	465.149	492.834	379.129	229.285	429.728	533.313	509.467	513.898	403.795	374.122	472.630	0.0002403	0.00017349	8.9425e-05	1045.1	1.4073e-06	5.9333e-06	1137.9	215.98	1.4011e-06	3.233e-06	275.85	77.739	60.615	17.807	1.5853e-06	25.555	0.00039092	0.00048643	0.00013676	1027.4	5.2402e-06	5.2063e-06	1124.1	213.59	4.9353e-06	4.9152e-06	274.99	78.146	60.842	18.107	4.5136e-06	25.764	204.757	302.989	284.628	189.979	318.492	361.011	190.020	197.363	300.753	338.902	197.398	203.649	204.008	211.994	320.989	210.955	-8191	255	
14702.572	1	1	0	0	0.21746	0.18022	0.33097	0.23038	0.40235	0.18289	0.2355	0.13426	0.1777	0.23294	0.22888	0.16055	0.0094237	0.20904	0.11484	0.20658	-2.4125	-2.6688	-2.7104	-3.2021	-2.6021	-2.6875	-3.4583	-2.4271	-2.8729	-2.9833	-2.7354	-3.0667	-2.7792	-2.7562	-2.6188	-2.7542	246.193	536.375	368.529	518.559	491.225	283.803	499.142	222.776	298.777	264.973	195.777	478.021	187.493	322.271	249.294	425.719	0.00025984	7.5475e-05	9.676e-05	1043.4	3.6506e-06	2.7654e-06	1142.7	215.5	1.8781e-06	2.8021e-06	276.69	77.7	60.884	17.939	1.8245e-06	25.409	0.00035488	0.00041066	0.00011643	1029	4.5085e-06	4.6205e-06	1127.3	214.26	4.3382e-06	4.2705e-06	275.33	78.234	60.947	18.158	4.0145e-06	25.749	198.650	257.659	271.076	190.076	289.060	364.009	190.058	197.390	287.106	308.973	197.079	203.338	204.219	212.060	340.856	211.301	-8191	255	
14702.668	1	1	0	0	0.023239	0.055597	0.36485	0.45384	0.074031	0.16678	0.16949	0.37931	0.13957	0.09523	0.19611	0.1135	0.11368	0.10964	0.25992	0.21519	-2.6583	-2.7687	-2.4708	-3.2271	-2.8	-2.7812	-3.1375	-2.6104	-2.9292	-2.9167	-2.4562	-3.1229	-2.6333	-2.5792	-3	-2.5708	372.632	537.032	251.963	519.069	265.691	341.251	212.779	421.481	326.985	345.390	211.872	442.898	189.225	496.963	249.011	480.833	0.00026346	0.00027953	6.2709e-05	1043.8	3.6313e-06	3.4073e-06	1139.9	215.94	2.8477e-06	1.0419e-06	277.54	78.084	60.461	18.047	2.6967e-06	25.379	0.00032941	0.00040392	0.00011411	1030.6	4.3303e-06	4.5457e-06	1126.5	214.06	4.6014e-06	4.6067e-06	275.8	78.352	60.624	18.19	4.4276e-06	25.813	201.026	265.195	242.069	189.863	311.132	318.513	189.838	197.479	297.477	337.982	197.237	203.535	204.070	211.805	288.759	211.124	-8191	255	
14702.764	1	1	0	0	0.1158	0.21414	0.26047	0.22794	0.29205	0.20688	0.17052	0.40385	0.22624	0.26964	0.11376	0.23617	0.12396	0.14356	0.33693	0.21891	-2.3521	-2.9062	-2.675	-3.0938	-2.7833	-2.5917	-2.8146	-2.7188	-2.6396	-3.0667	-2.6271	-2.9979	-3	-2.6583	-3.1188	-2.7687	435.628	236.915	457.549	263.862	395.644	457.651	267.300	486.952	340.153	210.681	429.987	509.464	343.855	345.238	457.269	484.784	0.00025423	0.00034113	8.6049e-05	1045.9	3.1164e-06	2.4849e-06	1139.1	214.35	2.238e-06	3.4106e-06	276.67	77.715	60.371	17.934	2.6933e-06	25.372	0.0003482	0.00040685	0.00012264	1031	4.7951e-06	4.73e-06	1126.4	213.84	4.3834e-06	4.3473e-06	275.79	78.452	60.841	18.196	4.3803e-06	25.837	203.506	266.660	279.814	190.111	288.667	354.982	189.938	197.303	321.561	319.997	197.062	203.215	203.703	211.879	316.183	210.798	-8191	255	
14702.885	1	1	0	0	0.29799	0.19934	0.13955	0.25517	0.19017	0.37369	0.34186	0.055314	0.12728	0.12982	0.18287	0.13225	0.20446	0.05209	0.14651	0.13225	-2.2792	-2.8104	-2.475	-3.0125	-2.6792	-2.4604	-3.2687	-2.9562	-2.4958	-3.0563	-2.5708	-2.7271	-2.9375	-2.5542	-2.9354	-2.7917	384.539	183.226	257.871	511.868	495.456	243.725	512.993	180.992	457.909	180.633	426.283	210.651	366.276	283.704	447.532	374.892	0.00022473	0.00015101	7.6843e-05	1053	2.5677e-06	3.4544e-06	1146.8	217.19	3.4309e-06	3.0629e-06	276.05	77.911	61.116	18.08	2.8786e-06	25.32	0.00034721	0.00042651	0.00012435	1035.4	4.8249e-06	5.1596e-06	1132.2	215.31	5.0531e-06	5.3108e-06	276.56	78.794	61.247	18.293	4.9922e-06	25.942	196.106	283.121	315.100	190.100	346.559	330.170	190.021	197.223	321.712	329.429	197.539	203.569	203.965	211.355	273.572	211.662	-8191	255	
14702.981	1	1	0	0	0.091207	0.11197	0.226	0.15581	0.30951	0.18021	0.024076	0.23153	0.046659	0.43948	0.15765	0.20912	0.15749	0.13636	0.12497	0.065964	-1.8813	-3.05	-2.2958	-2.8479	-3.1312	-2.3563	-3.1833	-2.9479	-2.5833	-3.1854	-2.8396	-2.7208	-3.0458	-2.3125	-3.0833	-2.9979	358.770	352.819	359.580	504.100	308.609	442.326	181.417	361.624	477.772	480.664	455.761	194.781	490.553	501.631	362.186	457.640	0.00024688	0.00040153	5.0939e-05	1054.7	9.8989e-07	2.8378e-06	1147.4	216.3	2.5706e-06	4.1842e-06	279.98	77.815	60.32	17.995	9.716e-07	25.497	0.00038261	0.00048828	0.00013591	1040	5.3905e-06	5.5919e-06	1135.9	215.7	5.4209e-06	5.2972e-06	277.86	78.61	60.876	18.285	5.445e-06	25.922	201.457	255.935	302.343	190.055	313.213	324.994	190.003	197.278	314.387	330.857	196.904	203.578	204.196	211.556	315.080	210.954	-8191	255	
14703.053	1	1	0	0	0.23924	0.20108	0.31807	0.21097	0.11051	0.2616	0.054863	0.12353	0.2946	0.2126	0.11152	0.14307	0.23895	0.10565	0.27752	0.087782	-1.9896	-2.8125	-2.8604	-2.8208	-2.875	-2.4625	-2.8917	-2.8396	-2.5938	-2.85	-2.7896	-2.5771	-2.9417	-2.5771	-2.7479	-2.9354	454.648	270.288	298.090	489.167	527.803	379.529	465.054	197.869	391.611	536.694	538.341	200.828	200.155	515.627	474.937	291.432	0.00024135	0.0003772	9.0003e-05	1053.1	3.0998e-06	4.1827e-06	1143.7	216.17	3.4069e-06	3.9705e-06	276.31	77.651	60.954	17.923	2.8496e-06	25.365	0.00041353	0.00053268	0.00014826	1038.3	5.8394e-06	5.944e-06	1134.8	215.1	6.2183e-06	6.5441e-06	276.14	78.673	61.021	18.206	6.4903e-06	25.882	199.845	273.877	285.345	190.087	276.441	327.951	189.895	197.140	293.066	342.286	197.320	203.375	203.851	211.944	359.226	210.690	-8191	255	
14703.173	1	1	0	0	0.12602	0.13344	0.19831	0.22642	0.13896	0.2146	0.20684	0.2066	0.12299	0.18222	0.18859	0.26552	0.1554	0.11106	0.11203	0.15816	-1.9458	-2.8333	-2.7583	-2.7375	-2.9208	-2.6083	-2.8646	-2.8917	-2.3937	-2.8875	-2.8833	-2.4875	-2.8229	-2.6958	-3.0521	-2.8646	198.491	308.896	322.557	412.859	271.961	197.922	218.176	427.397	498.693	448.599	471.051	192.151	333.659	213.942	319.043	355.782	0.00023679	0.00044404	9.3613e-05	1052.8	2.9601e-06	2.9079e-06	1142.2	217.26	3.1565e-06	2.2923e-06	278.02	78.209	60.518	18.148	8.9164e-07	25.355	0.00045804	0.00062655	0.00018041	1038.3	7.0959e-06	7.6008e-06	1134.2	215.54	8.0346e-06	8.3742e-06	277.97	78.87	61.263	18.324	8.8287e-06	25.96	199.048	220.575	291.345	189.855	302.549	305.149	189.880	197.372	317.195	343.150	197.009	203.386	203.883	211.777	408.428	211.375	-8191	255	
14703.268	1	1	0	0	0.10885	0.066702	0.16073	0.09457	0.16437	0.32377	0.23847	0.42676	0.25161	0.061654	0.15296	0.072473	0.2165	0.36726	0.24131	0.11635	-1.9625	-3.0208	-2.8542	-2.7042	-2.9333	-2.7333	-2.8688	-3	-2.4313	-2.9479	-2.8333	-2.5229	-3.3104	-2.5938	-2.6521	-3.1083	415.270	207.997	437.230	339.577	445.015	527.953	480.510	475.548	369.145	434.312	498.062	299.644	227.580	189.786	322.519	250.509	0.00024638	0.00031723	3.921e-05	1052	1.7271e-06	4.1656e-06	1144.5	216.86	3.5504e-06	2.9893e-06	277.84	77.615	60.501	17.93	1.2988e-06	25.313	0.00058708	0.00085864	0.0002426	1039.4	8.6799e-06	9.6894e-06	1133.7	215.88	8.7432e-06	9.4756e-06	277.38	78.669	61.234	18.292	8.6619e-06	25.929	203.011	297.063	295.302	189.982	319.736	354.956	189.775	197.212	310.342	286.921	197.170	203.689	203.892	211.638	340.044	211.231	-8191	255	
14703.364	1	1	0	0	0.30391	0.15802	0.09437	0.21358	0.092924	0.11028	0.32429	0.050799	0.2356	0.21705	0.25153	0.27268	0.032945	0.19069	0.27658	0.14043	-1.9271	-2.8917	-2.9938	-2.9146	-3.0687	-2.5542	-2.9083	-2.9333	-2.6396	-2.8146	-2.9688	-2.7188	-2.8917	-2.8125	-2.5896	-3.0167	442.374	375.826	265.296	182.504	232.360	228.903	431.846	360.656	315.095	210.471	531.622	428.085	521.214	475.914	430.322	346.002	0.00022478	0.00019872	0.00011541	1054.5	2.5563e-06	2.428e-06	1140.8	216.29	3.164e-06	3.8042e-06	278.83	78.054	60.682	18.083	3.0112e-06	25.461	0.00055198	0.00077599	0.00021735	1039.8	7.5103e-06	8.2873e-06	1130.9	215.72	7.8927e-06	8.0962e-06	277.28	78.872	61.115	18.348	7.9757e-06	26.025	198.309	256.565	235.613	190.140	294.051	323.144	190.047	197.285	289.184	327.943	197.016	203.609	204.098	211.725	381.018	211.180	-8191	255	
14703.460	1	1	0	0	0.21624	0.1491	0.10254	0.1719	0.29193	0.05022	0.27772	0.15748	0.088525	0.098056	0.094422	0.14474	0.22098	0.16471	0.18676	0.13552	-2.1417	-2.7271	-2.8375	-2.6875	-2.9104	-2.8083	-2.6667	-3.1979	-2.7812	-2.8979	-2.9021	-2.5604	-2.9604	-2.9083	-2.6771	-2.8438	418.994	370.064	497.794	491.163	241.540	519.309	451.547	501.814	374.276	516.718	422.722	220.652	325.981	419.997	235.758	303.470	0.00021417	0.00025201	0.00012937	1060.7	2.4149e-06	4.5777e-07	1147.4	216.91	3.1449e-06	2.9858e-06	278.21	77.976	60.63	18.132	2.5372e-06	25.453	0.00051942	0.00073188	0.00021046	1044.1	7.6332e-06	8.2768e-06	1138.4	215.81	7.7587e-06	7.7556e-06	277.31	79.039	61.306	18.313	7.2579e-06	25.966	205.706	263.441	242.697	190.035	300.795	296.417	189.804	197.424	303.486	371.871	197.371	203.625	203.744	211.786	311.061	211.213	-8191	255	
14703.581	1	1	0	0	0.012856	0.29624	0.35668	0.19956	0.13342	0.27848	0.21974	0.14466	0.023917	0.060493	0.11243	0.19276	0.24555	0.034969	0.14268	0.010302	-2.0417	-2.8208	-2.8979	-2.5125	-2.8708	-2.8375	-2.7854	-3.2333	-2.5729	-2.75	-2.9688	-2.6667	-2.8542	-2.9583	-2.5167	-3.1021	342.849	249.861	531.533	527.380	194.042	260.882	447.308	211.224	480.123	388.308	416.872	386.552	230.375	343.607	267.353	305.055	0.0002267	0.00025131	5.032e-05	1056.7	2.6479e-06	2.7958e-06	1150.9	217.71	3.5402e-06	2.1279e-06	278.13	78.156	61.031	17.892	2.6416e-06	25.655	0.00048467	0.00068397	0.00018865	1042.2	6.6446e-06	7.3873e-06	1137.6	215.83	6.9406e-06	7.324e-06	276.99	78.879	61.246	18.246	7.3179e-06	25.992	200.614	297.092	308.594	190.154	306.122	312.876	190.017	197.299	274.190	310.021	197.370	203.232	204.061	211.661	309.097	211.056	-8191	255	
14703.677	1	1	0	0	0.13326	0.060601	0.10726	0.15169	0.1565	0.15394	0.2661	0.027911	0.19507	0.1056	0.30383	0.10549	0.45094	0.056454	0.10392	0.28791	-2.1708	-2.7417	-2.7354	-2.8812	-2.7771	-2.9854	-2.5187	-3.1	-2.6813	-2.6521	-3.1	-2.7125	-2.7458	-3.0333	-2.5479	-2.8083	362.395	505.770	225.334	472.921	477.160	494.590	495.346	510.049	225.639	309.259	518.817	466.748	520.964	519.451	228.248	429.394	0.00023403	0.00027649	8.8898e-05	1057.8	1.9593e-06	3.8479e-06	1147.6	217.4	1.9991e-06	1.8065e-06	277.5	78.068	60.619	18.184	2.3318e-06	25.531	0.0004778	0.00067378	0.00019158	1042.8	7.166e-06	7.7042e-06	1133.9	216.21	7.4341e-06	7.8668e-06	277.35	78.88	61.371	18.349	7.3159e-06	25.955	195.930	219.167	272.283	189.971	309.460	303.638	190.032	197.414	333.025	376.086	196.896	203.296	203.835	211.698	308.594	211.191	-8191	255	
14703.748	1	1	0	0	0.16464	0.11007	0.14956	0.18545	0.19235	0.19866	0.30949	0.066364	0.1846	0.18288	0.044805	0.17537	0.074745	0.14525	0.069336	0.26968	-2.3958	-2.5125	-2.9	-2.7	-2.8563	-2.7729	-2.7333	-3.0667	-2.8542	-2.5292	-3.3333	-2.7854	-2.9146	-3.3479	-2.5479	-2.9833	409.608	339.093	326.863	461.613	239.750	206.461	437.840	431.082	466.460	404.857	464.952	472.778	449.530	235.202	524.610	538.906	0.00023768	9.5619e-06	5.8141e-05	1057.9	3.7108e-06	2.7163e-06	1149.2	217.58	1.7669e-06	1.0775e-06	278.62	78.034	61.06	18.204	2.6571e-06	25.492	0.00050872	0.00071798	0.00019695	1041.5	7.5938e-06	8.0166e-06	1138	216.1	7.6438e-06	7.9987e-06	278.2	78.95	61.489	18.369	7.9441e-06	26.001	201.220	494.585	245.104	189.973	297.996	356.715	189.887	197.604	294.132	337.075	197.148	203.673	203.690	211.968	295.455	211.056	-8191	255	
14703.845	1	1	0	0	0.26825	0.2352	0.090865	0.15575	0.20721	0.027735	0.19036	0.30945	0.25976	0.18065	0.17074	0.28274	0.1593	0.16821	0.12945	0.15933	-2.3688	-2.7687	-2.9188	-2.8604	-2.5042	-2.9875	-2.8104	-2.7667	-2.8146	-2.4	-3.0667	-2.6688	-2.6146	-3.0833	-2.5229	-2.7521	439.560	303.168	233.817	465.624	424.124	214.123	439.970	311.128	318.582	341.622	186.985	280.451	506.959	345.980	274.256	483.926	0.00022197	0.00015893	9.4763e-05	1057.6	3.2952e-06	1.2629e-06	1146.9	217.26	3.4707e-06	4.4922e-06	279.2	77.761	60.831	18.06	2.8432e-06	25.517	0.00052704	0.00074838	0.00020872	1042.2	7.9203e-06	8.3291e-06	1135.6	216.04	7.5785e-06	8.287e-06	278.76	78.894	61.439	18.345	7.758e-06	26.022	203.209	267.577	311.333	190.073	285.754	218.469	189.961	197.337	314.172	319.590	197.380	203.467	204.250	211.617	307.386	211.117	-8191	255	
14703.965	1	1	0	0	0.14009	0.18532	0.26602	0.30934	0.28617	0.055254	0.1411	0.12509	0.15069	0.16326	0.20137	0.21703	0.21276	0.22793	0.16282	0.3107	-2.4896	-2.3021	-2.9042	-3.0542	-2.4729	-3.1146	-2.6958	-2.6625	-2.7667	-2.525	-2.8375	-2.7792	-2.525	-3.0187	-2.7292	-2.5792	402.285	193.180	528.641	496.915	203.526	245.770	431.696	485.031	465.498	302.176	253.087	187.518	184.347	402.793	479.304	199.197	0.00022429	0.00046822	0.00010617	1055.3	3.1519e-06	3.6703e-06	1152.2	217.99	3.2065e-06	3.853e-06	279.92	78.577	61.217	18.116	3.1664e-06	25.484	0.00050792	0.00072393	0.00020211	1042.3	7.8771e-06	8.0689e-06	1137.4	216.7	7.4071e-06	7.8913e-06	278.64	79.037	61.522	18.379	7.4192e-06	26.087	205.809	296.881	239.719	190.126	331.680	377.854	190.033	197.359	313.790	374.100	196.971	203.319	204.034	212.060	280.853	210.783	-8191	255	
14704.061	1	1	0	0	0.14535	0.1994	0.20812	0.21117	0.13957	0.16644	0.072275	0.13653	0.058114	0.081966	0.17808	0.23777	0.48598	0.20874	0.20059	0.16999	-2.625	-2.1271	-2.7812	-2.9125	-2.6083	-3.0187	-2.6625	-2.4625	-2.8146	-2.5	-2.7771	-2.9062	-2.4896	-3.0292	-2.7812	-2.5833	260.567	263.716	181.436	507.504	396.983	534.097	503.868	450.125	228.377	268.336	184.197	477.973	406.754	488.257	362.621	506.333	0.00023898	0.00018829	4.3452e-05	1058	2.6371e-06	2.2289e-06	1149.2	218.53	1.3083e-06	6.0169e-06	279.9	78.227	61.093	18.094	1.0158e-06	25.523	0.0005003	0.000705	0.00018592	1043.7	7.2409e-06	7.7553e-06	1139.7	217.16	7.3855e-06	8.2968e-06	279.56	79.193	61.714	18.444	7.672e-06	26.104	196.338	213.773	247.943	190.080	283.295	332.251	189.923	197.407	291.566	307.497	197.362	203.288	204.298	211.764	348.134	210.999	-8191	255	
14704.157	1	1	0	0	0.1099	0.13225	0.17023	0.16016	0.28688	0.14688	0.1645	0.24519	0.043095	0.13435	0.10581	0.10344	0.35604	0.24299	0.17848	0.19743	-2.5417	-2.3146	-2.8583	-3.0312	-2.4354	-3.1688	-3.0458	-2.5563	-3.0062	-2.7062	-2.9521	-3.1271	-2.3479	-3.0396	-2.7208	-2.6104	468.533	300.006	343.396	536.877	343.578	337.100	495.308	528.486	410.475	242.110	254.040	367.655	524.211	530.598	488.652	472.046	0.00025308	0.00041788	2.9409e-05	1059	2.4504e-07	2.4878e-06	1147.7	218.05	3.3402e-06	3.4292e-06	281.36	78.629	61.243	18.261	3.446e-06	25.66	0.00053366	0.00072949	0.00020917	1043.5	7.5756e-06	7.8346e-06	1139.3	217.26	7.629e-06	7.9949e-06	279.62	79.412	61.782	18.463	7.2366e-06	26.088	206.353	283.726	266.557	189.857	501.630	324.935	190.058	197.483	357.631	317.171	197.006	203.572	203.821	211.894	309.973	211.073	-8191	255	
14704.254	1	1	0	0	0.20991	0.24208	0.033424	0.22276	0.26371	0.13182	0.19195	0.052564	0.30381	0.047069	0.063201	0.14439	0.18766	0.099901	0.096236	0.06051	-2.5958	-2.6146	-2.6583	-3.3417	-2.5979	-2.8937	-3.0917	-2.4979	-2.8333	-2.8417	-2.7333	-2.9771	-2.7333	-2.7792	-2.5896	-2.6667	245.461	395.787	296.936	185.534	457.833	505.458	396.597	395.079	306.682	297.324	506.064	409.006	335.842	214.801	439.175	435.940	0.0002443	0.00028131	6.7489e-05	1060.9	3.2751e-06	3.5589e-06	1150.2	217.74	2.6084e-06	1.6584e-06	279.57	78.529	61.258	18.065	2.2773e-06	25.629	0.00048373	0.00067041	0.0001903	1042.7	7.0052e-06	7.2372e-06	1136.9	217.83	6.6563e-06	6.9382e-06	279.45	79.407	61.666	18.419	6.8413e-06	26.043	202.606	297.333	232.690	189.947	323.838	314.301	190.018	197.347	300.447	312.182	197.152	203.615	203.886	211.483	329.755	211.136	-8191	255	
14704.348	1	1	0	0	0.10044	0.076957	0.051607	0.27864	0.20189	0.18029	0.34823	0.039184	0.084452	0.22976	0.24333	0.055069	0.17867	0.067021	0.23854	0.13905	-2.5396	-2.5604	-2.7646	-3.0292	-2.6188	-3.0604	-3.0208	-2.5292	-3.1771	-2.7167	-2.5312	-3.1479	-2.3854	-2.9708	-2.9354	-2.4271	252.456	484.027	514.315	520.969	441.024	268.705	411.823	438.709	350.623	346.057	246.458	217.112	366.753	260.619	370.952	421.848	0.00023723	0.00013579	0.00010194	1055.8	4.4158e-06	4.5491e-07	1148.3	218.39	2.603e-06	2.6583e-06	278.92	78.575	61.05	18.252	2.104e-06	25.558	0.00047027	0.00063967	0.00017563	1040.1	6.9178e-06	7.2553e-06	1134.8	217.2	6.8576e-06	7.1856e-06	279.15	79.281	61.541	18.411	6.6979e-06	26.049	205.572	318.320	258.053	190.021	307.828	318.658	190.005	197.427	310.675	374.354	197.215	203.508	204.012	211.685	344.525	210.932	-8191	255	
14704.446	1	1	0	0	0.26469	0.14286	0.11731	0.1271	0.042048	0.038915	0.055984	0.15949	0.23079	0.22623	0.2874	0.27817	0.064264	0.12698	0.12136	0.17794	-2.4938	-2.8375	-2.4229	-3.0396	-2.6271	-2.6354	-3.0062	-2.6542	-2.8604	-2.9375	-2.5771	-3.0396	-2.7542	-2.7438	-2.8854	-2.5104	513.816	478.710	435.479	503.069	186.390	467.660	392.342	342.601	468.102	316.676	529.078	487.584	514.953	238.093	216.706	335.983	0.00023505	0.00042602	9.2958e-05	1057.3	2.5323e-06	2.334e-06	1146.9	219.46	2.7251e-06	3.3414e-06	280.59	78.754	61.199	18.192	2.1194e-06	25.541	0.00047255	0.00063548	0.0001851	1040.9	6.792e-06	7.1954e-06	1134.6	217.92	6.7663e-06	6.876e-06	279.67	79.446	61.625	18.41	6.4593e-06	26.057	205.810	290.274	229.067	190.051	303.793	308.740	189.822	197.336	284.405	287.432	197.221	203.326	203.803	211.570	336.910	211.174	-8191	255	
14704.565	1	1	0	0	0.13106	0.050201	0.30901	0.21455	0.13036	0.031648	0.28193	0.16415	0.076491	0.02935	0.1206	0.24569	0.070735	0.20828	0.11431	0.10205	-2.4333	-2.975	-2.4437	-3.2792	-2.6979	-2.7542	-3.2583	-2.4333	-2.8333	-2.9896	-2.3854	-3.125	-2.7062	-2.4958	-3.0604	-2.5729	447.884	300.793	310.405	482.520	339.899	196.931	510.134	509.049	457.316	441.451	450.144	387.287	285.749	449.017	180.727	508.864	0.00025298	0.00032796	9.9824e-05	1051	4.3071e-06	5.3186e-06	1145.2	217.5	2.2882e-06	4.6751e-06	278.44	78.596	60.619	18.089	2.9565e-06	25.534	0.00046649	0.00062421	0.00017559	1038	6.8323e-06	7.1684e-06	1133.4	217.19	6.8792e-06	7.4199e-06	278.57	79.199	61.501	18.353	6.9888e-06	26.031	201.271	291.676	278.908	190.024	293.765	312.034	189.889	197.344	275.289	345.874	197.019	203.481	204.108	211.693	299.931	210.997	-8191	255	
14704.661	1	1	0	0	0.42868	0.19551	0.11528	0.13495	0.052478	0.11832	0.12369	0.22701	0.14279	0.27545	0.078995	0.056249	0.17801	0.1211	0.287	0.32075	-2.4396	-2.7271	-2.5396	-3.1	-2.6125	-2.6625	-3.275	-2.6312	-3.0187	-2.8375	-2.6771	-3.0333	-2.7917	-2.7354	-3.0021	-2.6229	182.638	190.277	493.505	205.740	224.895	355.469	485.324	537.694	538.779	452.541	443.879	181.218	507.881	266.621	272.382	400.893	0.00021836	0.00027087	5.5355e-05	1044.5	2.4264e-06	3.4702e-06	1138.8	217.1	1.6121e-06	4.286e-06	278.66	78.352	60.73	18.02	1.5478e-06	25.33	0.0004825	0.00066246	0.00019431	1033	7.3825e-06	7.8896e-06	1125.7	216.28	7.414e-06	7.9698e-06	277.87	78.926	61.123	18.234	7.6969e-06	25.864	194.573	332.709	256.324	190.232	285.415	382.652	189.859	197.608	319.021	285.744	197.113	203.488	203.815	211.617	350.447	211.123	-8191	255	
14704.757	1	1	0	0	0.091816	0.12691	0.076782	0.27033	0.14118	0.25456	0.1483	0.29035	0.24661	0.1702	0.041703	0.063488	0.049923	0.16075	0.17991	0.34101	-2.4896	-2.9688	-2.4417	-3.2104	-2.7167	-2.7083	-3.2125	-2.7	-2.6333	-3.1917	-2.6042	-2.8104	-3.0583	-2.4	-2.9625	-2.7125	262.867	467.380	523.031	474.309	452.209	472.799	417.689	349.500	219.750	261.719	366.964	308.988	192.594	427.050	514.231	330.711	0.00022174	0.00034073	5.6379e-05	1045.6	3.772e-06	1.6924e-06	1134.7	217.35	2.6397e-06	3.7204e-06	277.99	77.994	60.966	18.032	1.9707e-06	25.354	0.00051931	0.00070764	0.00020618	1031.2	7.6337e-06	8.1123e-06	1124.4	216.44	7.4203e-06	7.5556e-06	277.47	78.824	61.364	18.279	7.3571e-06	25.896	201.281	309.375	219.476	190.180	344.099	315.107	190.306	197.385	299.275	344.184	197.201	203.456	204.161	211.701	263.725	210.803	-8191	255	
14704.853	1	1	0	0	0.02449	0.17743	0.13873	0.095106	0.17961	0.2584	0.082342	0.15346	0.0024575	0.16909	0.30084	0.2829	0.062234	0.14126	0.19001	0.092355	-1.9542	-3.0979	-2.6208	-3.1333	-2.9521	-2.6	-3.2333	-2.8271	-2.7938	-3.0833	-2.6833	-3.1104	-3.0083	-2.6375	-2.9604	-2.9146	402.901	354.564	344.905	519.349	294.344	447.331	458.872	471.889	424.930	441.937	527.262	535.069	531.317	535.202	309.552	534.951	0.00022449	0.00027261	8.248e-05	1048.6	2.8819e-06	3.1203e-06	1137.8	217.05	3.017e-06	5.068e-06	278.72	78.423	60.669	18.034	2.6939e-06	25.425	0.00050355	0.00068685	0.00020172	1032.4	7.3696e-06	8.3236e-06	1127.2	216.4	7.903e-06	8.2298e-06	277.74	79.042	61.265	18.3	8.3506e-06	25.97	206.778	257.884	278.703	189.966	310.054	326.032	189.887	197.258	285.830	323.322	197.328	203.340	203.985	211.765	336.459	210.760	-8191	255	
14704.974	1	1	0	0	0.14065	0.24272	0.17753	0.44346	0.097133	0.13435	0.24237	0.037636	0.36931	0.28048	0.10272	0.21751	0.097543	0.17934	0.13853	0.21507	-2.1646	-3.1021	-2.5604	-2.8542	-3.2396	-2.525	-2.9854	-2.9271	-2.5333	-3.2667	-2.6437	-2.7917	-2.8729	-2.4938	-2.9813	-2.8792	236.343	288.467	322.374	501.309	389.920	304.318	450.696	226.743	184.741	452.252	267.469	451.476	491.697	339.172	213.640	507.677	0.00020789	0.00022913	3.3475e-05	1051.7	2.7765e-06	3.7692e-06	1144.9	217.82	3.2247e-06	5.129e-06	277.97	78.048	61.198	18.061	1.5318e-06	25.304	0.00056101	0.00079721	0.00023063	1037.4	8.8085e-06	9.5739e-06	1133.4	217.51	9.0388e-06	9.693e-06	278.82	78.972	61.617	18.379	9.3049e-06	26.008	198.599	259.784	299.394	190.013	334.826	327.296	189.976	197.218	261.058	327.681	196.888	203.336	203.927	211.359	289.316	210.900	-8191	255	
14705.046	1	1	0	0	0.26322	0.053678	0.060879	0.26649	0.10228	0.17907	0.29968	0.2552	0.086689	0.2686	0.24508	0.089712	0.25352	0.10427	0.051443	0.17987	-1.9708	-3.0854	-2.6833	-2.7604	-3.0208	-2.575	-2.8979	-2.8521	-2.6875	-2.9042	-2.8354	-2.7042	-2.9958	-2.6771	-2.9458	-2.8312	313.681	273.306	185.576	507.335	183.757	396.809	457.863	232.854	420.982	268.828	430.327	188.879	452.727	372.565	458.819	318.926	0.00023711	0.00038234	8.6086e-05	1047	3.9442e-06	1.0923e-06	1142.7	217.68	3.5653e-06	7.3246e-07	279.36	77.691	60.438	17.921	2.8689e-06	25.363	0.00062666	0.00089445	0.00025625	1035.2	9.3314e-06	1.003e-05	1129.5	216.85	9.4743e-06	9.8146e-06	278.61	78.7	61.193	18.274	9.0149e-06	25.947	201.447	218.678	264.256	189.978	300.585	315.677	189.892	197.039	308.619	357.106	197.088	203.451	204.397	212.107	312.087	211.327	-8191	255	
14705.142	1	1	0	0	0.067849	0.1348	0.051354	0.21479	0.060322	0.27164	0.366	0.33371	0.10566	0.1445	0.062838	0.36103	0.1319	0.17826	0.065841	0.20968	-2.1542	-2.9792	-2.6375	-2.8563	-3.0646	-2.5021	-2.95	-2.9979	-2.5875	-3.0417	-2.7812	-2.6437	-3.0604	-2.7146	-2.9958	-3.0646	299.564	470.206	436.489	200.321	391.120	383.198	504.695	459.992	255.529	529.246	368.838	520.771	427.519	378.954	278.824	478.870	0.00023367	0.00035066	7.4138e-05	1045.8	3.4886e-06	4.0688e-06	1136	216.75	3.0495e-06	2.406e-06	277.7	77.746	60.226	17.847	1.3283e-06	25.321	0.00057584	0.00082927	0.0002324	1031.6	8.629e-06	9.3797e-06	1123.7	215.77	8.6209e-06	9.4184e-06	277.47	78.698	61.124	18.188	9.7052e-06	25.879	205.357	269.322	294.268	190.191	342.233	304.892	189.753	197.209	279.832	299.358	197.318	203.402	203.770	211.526	378.771	211.456	-8191	255	
14705.262	1	1	0	0	0.087547	0.12559	0.20812	0.32672	0.22361	0.25491	0.10587	0.067293	0.16535	0.040304	0.17829	0.28674	0.24801	0.15766	0.18125	0.30162	-2.1229	-2.8833	-2.6771	-2.7479	-2.925	-2.9396	-2.8729	-3.1354	-2.7333	-2.8771	-2.9917	-2.6937	-3.2021	-2.8	-2.4854	-3.1208	455.913	535.376	194.487	494.877	498.862	489.162	428.687	525.921	390.308	482.863	416.811	425.897	425.068	476.218	370.370	480.435	0.00026012	0.00039218	8.6281e-05	1043	2.217e-06	6.2325e-06	1132.6	216.8	4.1061e-06	3.1439e-06	278.09	77.942	60.466	18.046	2.3088e-06	25.305	0.00060507	0.00092665	0.00026435	1029.1	9.7846e-06	1.0475e-05	1123.1	216.22	9.7886e-06	1.035e-05	277.49	78.886	61.212	18.272	9.6716e-06	25.998	204.982	239.578	296.910	189.982	286.268	304.621	190.029	197.421	287.126	342.008	197.206	203.774	203.922	211.519	347.436	211.218	-8191	255	
14705.357	1	1	0	0	0.24326	0.046452	0.16355	0.15682	0.18869	0.083148	0.29016	0.17692	0.1126	0.22108	0.086261	0.1065	0.2042	0.21267	0.20784	0.087604	-2.2604	-2.6396	-2.9708	-2.9437	-2.9917	-2.7562	-2.7167	-3.0521	-2.5167	-2.7333	-2.8104	-2.4354	-3.025	-2.7396	-2.6229	-3.0542	426.360	378.772	528.390	487.111	364.562	404.581	219.105	394.229	496.734	480.606	212.360	290.088	453.554	194.159	448.293	310.661	0.00022946	3.0037e-05	6.6683e-05	1051.3	4.2132e-06	3.7331e-06	1136	217.99	2.6479e-06	3.1783e-06	279.12	78.545	60.677	18.07	3.3654e-06	25.382	0.00064039	0.00093421	0.00026855	1034.1	9.6344e-06	1.0571e-05	1127.6	216.71	1.0266e-05	1.1174e-05	278.86	79.056	61.329	18.388	1.0547e-05	25.992	204.870	490.319	254.547	190.102	322.601	317.397	189.788	197.166	302.334	330.371	197.290	203.632	204.148	211.669	284.615	211.108	-8191	255	
14705.453	1	1	0	0	0.23248	0.13956	0.23362	0.29963	0.12329	0.12624	0.10753	0.22303	0.29709	0.092012	0.15191	0.21082	0.29972	0.2928	0.03071	0.11765	-2.1437	-2.7125	-2.9396	-2.6417	-3.0542	-2.7979	-3.0062	-2.975	-2.8625	-2.6854	-3.1292	-2.7354	-2.8812	-2.7229	-2.5396	-2.9771	189.584	282.302	465.784	477.582	353.692	482.376	306.508	434.375	231.442	481.265	507.209	433.439	433.414	398.342	418.287	482.985	0.00025551	0.00018415	4.3653e-05	1051.9	2.5686e-06	3.1004e-06	1138.3	216.85	3.4498e-06	2.3954e-06	278.13	77.944	60.693	17.999	3.2987e-06	25.378	0.00067023	0.00099715	0.0002823	1036.8	9.9441e-06	1.1205e-05	1130	216.78	1.0038e-05	1.0511e-05	277.87	78.858	61.332	18.332	9.8812e-06	25.95	212.448	288.926	282.595	190.033	296.634	317.748	189.815	197.456	315.718	313.934	197.340	203.553	203.619	211.274	295.324	211.035	-8191	255	
14705.549	1	1	0	0	0.11226	0.099944	0.15548	0.22771	0.20081	0.10426	0.25168	0.25624	0.21443	0.060569	0.32759	0.23756	0.1246	0.23313	0.077815	0.31785	-2.55	-2.6437	-2.9979	-2.6333	-2.8937	-2.8021	-2.7562	-2.8583	-2.8042	-2.6625	-3.175	-2.6063	-2.9437	-2.9313	-2.4833	-2.8896	489.795	378.204	240.566	496.871	433.121	466.114	441.411	362.371	491.246	196.315	221.939	202.506	391.636	439.664	413.806	449.678	0.00020343	0.00026245	6.7028e-05	1044.7	3.7838e-06	2.6011e-06	1141.8	218.1	3.5339e-06	8.9571e-07	279.6	78.03	60.808	18.01	2.5404e-06	25.287	0.00065162	0.00098359	0.0002688	1030.9	9.861e-06	1.0681e-05	1127.9	216.86	1.0059e-05	1.0881e-05	278.36	79.106	61.276	18.311	1.0329e-05	25.904	204.384	268.207	283.373	189.985	295.218	288.749	189.983	197.332	308.117	317.695	196.982	203.606	203.931	212.090	271.640	211.245	-8191	255	
14705.645	1	1	0	0	0.21264	0.1232	0.11574	0.095708	0.078945	0.20189	0.18191	0.41401	0.20408	0.034641	0.11394	0.23112	0.1416	0.058437	0.096648	0.035703	-2.2625	-2.5458	-2.9979	-2.7229	-2.6354	-3.1021	-2.5979	-3.1937	-2.7854	-2.6021	-3.0604	-2.6792	-2.725	-3.0208	-2.5083	-3.0208	280.332	275.411	411.115	338.239	439.763	208.024	293.521	514.960	216.045	344.505	185.648	536.296	385.659	356.939	426.734	224.076	0.00023096	0.00043652	9.4996e-05	1049.3	3.7832e-06	4.2972e-06	1141.2	217.74	2.3888e-06	7.7132e-07	278.93	78.509	60.554	18.031	3.7159e-06	25.492	0.00062789	0.00091601	0.0002627	1033.6	9.3881e-06	1.0298e-05	1130.3	216.86	9.4596e-06	1.0162e-05	278.34	79.011	61.562	18.355	9.0424e-06	26.09	195.544	268.353	319.420	190.154	327.607	324.339	189.930	197.577	293.098	352.905	197.565	203.498	203.727	211.491	312.973	211.137	-8191	255	
14705.741	1	1	0	0	0.39071	0.20109	0.19561	0.22486	0.099209	0.33199	0.23878	0.16152	0.2129	0.17812	0.14947	0.06623	0.22965	0.16583	0.18678	0.11947	-2.2687	-2.5396	-2.9958	-2.7812	-2.8979	-2.9771	-2.8542	-2.8833	-2.9229	-2.7292	-3.1292	-2.8875	-2.8542	-3.1021	-2.6792	-2.8312	522.455	239.855	439.166	490.216	380.992	184.811	450.319	293.196	427.312	427.695	525.434	194.719	209.243	204.247	205.331	253.829	0.000237	0.00021901	0.00012313	1059	2.4147e-06	7.8964e-07	1151.9	219.3	3.613e-06	2.9587e-06	278.02	78.506	61.345	18.037	2.6714e-06	25.64	0.00060872	0.00089777	0.0002377	1043.4	9.2608e-06	1.001e-05	1140.3	217.97	9.2347e-06	1.0071e-05	279.1	79.278	61.794	18.461	9.6223e-06	26.142	202.270	305.132	313.096	190.016	320.133	349.896	189.951	197.078	277.994	294.786	197.265	203.162	204.114	211.585	352.508	210.961	-8191	255	
14705.838	1	1	0	0	0.1718	0.14941	0.1833	0.21646	0.16162	0.28499	0.27481	0.15284	0.1337	0.17613	0.21784	0.12451	0.15883	0.18545	0.16359	0.08501	-2.4521	-2.3937	-2.9354	-3.0875	-2.6896	-3.0083	-2.75	-2.9229	-2.9271	-2.5083	-2.9646	-2.8396	-2.6333	-3.0021	-2.7604	-2.75	484.092	465.974	316.148	181.446	520.859	467.217	382.801	496.145	420.663	325.189	375.720	266.873	321.943	233.451	334.885	489.795	0.00018546	0.00029632	0.00011842	1057.2	8.5025e-07	3.5659e-06	1147.3	218.01	3.5282e-06	4.5495e-06	277.9	78.392	60.543	17.943	2.9791e-06	25.426	0.00059901	0.00091294	0.00024836	1044.2	9.3914e-06	9.9842e-06	1137.3	217.21	9.407e-06	1.0105e-05	278.04	79.208	61.285	18.34	9.7474e-06	25.968	192.395	316.476	320.461	189.982	277.472	321.334	190.002	197.325	277.345	326.534	197.422	203.476	204.109	211.657	325.154	210.671	-8191	255	
14705.934	1	1	0	0	0.15383	0.19602	0.017834	0.16472	0.094492	0.089368	0.22214	0.21475	0.16732	0.20179	0.2167	0.16911	0.24705	0.12891	0.34774	0.29986	-2.5208	-2.6917	-2.9229	-2.675	-2.5979	-3.1167	-2.8646	-2.8187	-3.0354	-2.7875	-2.8646	-3.0583	-2.5312	-2.8833	-2.7396	-2.8292	323.828	284.906	393.628	419.272	444.553	511.550	520.260	248.558	346.631	304.946	435.164	505.304	250.526	470.988	370.313	503.077	0.00020102	0.00022113	7.0866e-05	1049.9	4.0255e-06	3.0335e-06	1137.4	216.85	3.8653e-06	3.4618e-06	279.32	77.316	60.872	17.989	2.7711e-06	25.351	0.00063685	0.00092309	0.00025316	1035.9	9.4673e-06	1.0314e-05	1131.1	216.73	9.2848e-06	9.6375e-06	278.56	78.69	61.264	18.292	9.2799e-06	25.876	201.621	250.986	354.949	189.885	304.490	334.497	190.014	197.287	290.610	395.044	197.201	203.434	204.227	211.278	235.911	210.955	-8191	255	
14706.054	1	1	0	0	0.37213	0.2155	0.28085	0.41779	0.042987	0.16725	0.32869	0.3019	0.30809	0.11502	0.10451	0.17988	0.08754	0.16998	0.31237	0.031653	-2.6562	-2.6437	-2.8021	-3.0729	-2.525	-2.8521	-3.0396	-2.6979	-3.0292	-2.7271	-2.9	-2.9604	-2.6229	-3.1667	-2.9	-2.4938	489.094	356.412	432.347	491.221	369.726	374.707	488.499	532.235	387.429	487.378	250.796	203.195	538.426	270.034	421.317	385.883	0.00022831	0.000128	0.00010413	1047.2	2.6384e-06	4.2636e-06	1142.9	216.25	1.748e-06	2.8319e-06	277.58	77.557	60.3	17.81	2.1427e-06	25.339	0.00060118	0.0008986	0.00025743	1032.9	9.4342e-06	1.0108e-05	1128.7	216.36	9.3766e-06	1.0018e-05	277.33	78.592	61.014	18.229	9.4677e-06	25.807	195.528	303.615	284.572	190.094	342.490	367.622	189.911	197.520	327.533	326.161	197.315	203.816	204.358	211.937	392.267	211.177	-8191	255	
14706.149	1	1	0	0	0.13113	0.062568	0.11422	0.35292	0.15841	0.09011	0.27244	0.11379	0.18293	0.17021	0.18495	0.1415	0.20199	0.18154	0.17203	0.14641	-2.6771	-2.4292	-2.875	-3.2188	-2.6604	-2.9125	-2.9375	-2.6708	-3.0271	-2.6312	-2.8292	-2.9708	-2.5167	-3.0104	-2.7938	-2.6083	389.184	528.441	264.132	521.727	184.429	494.600	187.862	334.010	325.587	316.654	335.292	209.224	414.941	509.085	494.251	506.886	0.00024474	0.00021526	7.9207e-05	1044.2	3.3488e-06	3.2362e-06	1132.8	217.26	2.9017e-06	7.2108e-07	278.79	77.702	60.26	17.778	3.1277e-06	25.375	0.00059325	0.00090709	0.00025638	1029.5	9.2839e-06	1.0442e-05	1123.9	216.06	9.1085e-06	1.0234e-05	277.68	78.574	61.025	18.182	9.5938e-06	25.946	204.375	254.474	206.150	190.125	288.317	358.697	189.976	197.533	303.147	250.603	197.063	203.626	204.183	211.481	276.783	211.242	-8191	255	
14706.247	1	1	0	0	0.06271	0.0035898	0.16851	0.11359	0.16698	0.26503	0.14262	0.18779	0.038862	0.10909	0.29806	0.28594	0.20367	0.11156	0.11454	0.23955	-2.4125	-2.5667	-2.8729	-3.0625	-2.3771	-2.9813	-3	-2.6458	-3.1688	-2.7	-2.9896	-3.1458	-2.6042	-2.8729	-2.9479	-2.6042	189.253	410.483	362.428	469.639	503.462	298.541	475.386	214.852	256.975	184.351	499.652	493.198	260.668	385.829	392.370	354.466	0.00025383	0.00011862	3.675e-05	1045	3.184e-06	5.9299e-06	1135.8	217.79	4.7616e-06	1.5062e-06	280.86	78.104	60.792	18.184	5.8252e-07	25.347	0.00060934	0.00092006	0.00025223	1030.3	9.7482e-06	1.0261e-05	1125.7	216.81	9.4512e-06	1.0378e-05	278.5	78.93	61.357	18.343	9.4788e-06	25.992	202.619	215.971	282.726	189.928	302.536	360.032	190.082	197.325	295.905	345.502	197.383	203.522	204.144	211.538	508.703	210.445	-8191	255	
14706.343	1	1	0	0	0.13279	0.24542	0.34319	0.23996	0.22137	0.092347	0.067209	0.25539	0.20367	0.18886	0.22136	0.15346	0.25762	0.094208	0.066804	0.12372	-2.5771	-2.85	-2.5021	-3.2	-2.6333	-2.7938	-3.1521	-2.6125	-3.0479	-2.7625	-2.6521	-3.075	-2.8833	-2.6479	-2.7771	-2.4917	266.466	519.204	370.727	479.715	232.404	506.253	525.315	253.890	180.511	343.406	278.338	408.321	331.587	186.439	273.547	300.474	0.00021501	0.00023246	0.00011408	1045.1	1.3394e-06	2.2865e-07	1136.4	215.98	4.0939e-06	3.0724e-06	276.31	78.349	60.648	18.051	1.7898e-06	25.482	0.00060215	0.00086654	0.00024784	1033.6	8.6659e-06	9.5579e-06	1128	216.3	8.5644e-06	9.256e-06	277.59	79.056	61.229	18.3	8.609e-06	25.931	202.776	215.070	285.375	190.277	389.202	362.619	189.973	197.406	279.890	322.165	197.100	203.424	204.208	211.611	343.778	211.124	-8191	255	
14706.437	1	1	0	0	0.051533	0.13494	0.2442	0.10745	0.23961	0.12475	0.39244	0.18214	0.1771	0.13795	0.21509	0.15343	0.16281	0.27946	0.069807	0.061328	-2.5729	-2.9333	-2.5479	-3.35	-2.7083	-2.7188	-3.2708	-2.5812	-2.8042	-2.9708	-2.7938	-2.9979	-2.6437	-2.5583	-2.9792	-2.6813	206.156	376.709	473.319	188.943	360.868	427.329	415.091	513.655	254.098	322.117	371.058	344.397	484.371	233.360	362.398	216.215	0.00022123	0.00018311	8.6605e-05	1047.7	1.7948e-06	1.4782e-06	1132.5	217.85	2.6347e-06	2.6481e-06	278.15	78.102	60.587	17.94	1.9509e-06	25.269	0.00055965	0.00081917	0.00023992	1032.1	8.5862e-06	9.3571e-06	1124.8	216.27	8.6455e-06	9.595e-06	278.08	78.835	61.31	18.286	9.8537e-06	25.937	200.944	292.908	258.592	190.088	312.253	360.518	189.877	197.379	272.407	315.698	197.303	203.315	204.000	211.234	296.615	211.179	-8191	255	
14706.533	1	1	0	0	0.1359	0.056847	0.23858	0.038932	0.28118	0.39507	0.39311	0.17923	0.11163	0.15438	0.13836	0.12291	0.18994	0.25914	0.15203	0.03265	-2.4375	-2.9021	-2.5062	-3.0854	-2.7979	-2.5729	-3.3542	-2.6771	-2.8146	-3.1188	-2.725	-2.9958	-2.8083	-2.6604	-2.9604	-2.6437	534.677	270.602	520.739	199.523	439.229	465.019	454.911	474.066	340.131	416.525	438.027	393.368	205.459	489.344	217.116	418.674	0.00024074	0.00041966	0.00011185	1047.8	3.4286e-06	3.9961e-06	1136.4	217.87	2.2201e-06	3.1167e-06	277.56	77.706	60.944	17.916	3.5832e-06	25.505	0.00062467	0.00097178	0.00026174	1032.8	9.8163e-06	1.0847e-05	1126.2	216.71	9.9899e-06	1.0147e-05	277.87	78.861	61.334	18.27	9.6788e-06	25.964	206.513	311.889	296.923	189.993	314.251	299.997	189.790	197.034	318.336	319.756	197.078	203.575	203.839	212.070	309.810	211.624	-8191	255	
14706.654	1	1	0	0	0.25563	0.18812	0.22419	0.34977	0.19823	0.095633	0.065069	0.06778	0.15192	0.022654	0.23122	0.14499	0.12447	0.19945	0.21731	0.14917	-2.2708	-2.9688	-2.4667	-3.0083	-2.8458	-2.7062	-3.1312	-2.7646	-2.7333	-3.0062	-2.7562	-3.0104	-2.8917	-2.75	-3	-2.8146	327.254	499.952	528.089	504.820	266.349	260.684	260.389	478.184	315.030	254.811	508.157	236.029	500.681	216.688	341.199	526.180	0.00021811	0.00054928	9.2956e-05	1050.7	2.1607e-06	1.9825e-06	1142.4	217.29	4.2842e-06	5.3262e-06	280.07	77.966	60.293	17.98	3.1366e-06	25.455	0.00061974	0.00093938	0.0002617	1034.7	9.9671e-06	1.039e-05	1129.1	216.8	9.6059e-06	1.0381e-05	278.63	78.936	61.324	18.304	9.4972e-06	25.939	200.765	257.588	213.339	190.196	286.207	330.146	190.025	197.184	271.330	348.819	197.127	203.592	203.936	211.932	334.178	211.196	-8191	255	
14706.750	1	1	0	0	0.0043208	0.22844	0.26065	0.45707	0.04047	0.20389	0.13693	0.39646	0.11695	0.12942	0.20947	0.18479	0.16695	0.1974	0.13341	0.095732	-2.5271	-2.9437	-2.5354	-3.0458	-2.8417	-2.5187	-3.1437	-2.6479	-2.6167	-3.0792	-2.4417	-2.9521	-2.8688	-2.3688	-3.1396	-2.6646	282.878	527.664	255.877	491.928	250.549	464.693	516.815	485.286	213.684	388.063	460.085	184.704	449.151	381.584	189.549	411.120	0.00023398	0.00044855	0.00015395	1049.4	1.809e-06	3.6836e-06	1140.3	217.54	3.2501e-06	5.4117e-06	277.34	78.033	60.653	17.788	1.8853e-06	25.395	0.00058378	0.00086264	0.00024641	1033.2	9.232e-06	9.6443e-06	1126.2	216.79	9.1561e-06	9.6522e-06	277.92	78.795	61.364	18.232	9.5048e-06	25.916	201.551	283.913	280.654	189.974	308.489	337.077	190.114	197.446	294.160	329.547	197.409	203.666	203.924	211.677	301.392	210.877	-8191	255	
14706.846	1	1	0	0	0.27534	0.049519	0.10487	0.19807	0.05158	0.14668	0.071471	0.27762	0.041854	0.16117	0.24161	0.17859	0.021419	0.17246	0.082606	0.18822	-2.1083	-3.1729	-2.3208	-2.9958	-3.0979	-2.6167	-3.0458	-2.6729	-2.6271	-3.0354	-2.7667	-2.8979	-2.9396	-2.4271	-3.1542	-2.6708	345.917	361.717	316.203	536.489	445.948	312.872	364.972	201.912	249.905	416.324	213.021	532.872	252.235	495.515	296.726	463.753	0.00023138	0.00022928	7.0769e-05	1045.4	3.0078e-06	3.101e-06	1139.9	217.25	2.8206e-06	3.0538e-06	277.22	77.59	60.364	17.945	3.0818e-06	25.399	0.00062049	0.00089006	0.00024883	1031.9	9.244e-06	9.8247e-06	1127.7	216.21	9.6079e-06	1.0003e-05	277.04	78.632	61.231	18.28	9.5445e-06	25.861	204.335	259.640	267.939	190.107	307.721	349.952	189.878	197.261	306.601	309.780	197.173	203.518	203.950	211.525	317.223	211.607	-8191	255	
14706.918	1	1	0	0	0.11814	0.18897	0.043138	0.076958	0.21168	0.1565	0.32616	0.1894	0.17445	0.12437	0.14692	0.14252	0.22849	0.086224	0.16204	0.070409	-2.2625	-3.0729	-2.5458	-2.9896	-2.8729	-2.6292	-3.0812	-2.8187	-2.6208	-2.9708	-2.7812	-2.7396	-2.8417	-2.6354	-2.9354	-2.7375	234.710	459.809	526.459	483.849	350.522	400.276	496.700	230.488	429.658	445.563	527.008	408.076	186.280	466.107	529.121	432.685	0.0002292	0.00037467	4.369e-05	1045.6	4.1194e-06	5.574e-06	1134.5	217.08	2.7492e-06	1.9572e-06	278.43	77.85	60.498	18.015	8.1458e-07	25.162	0.00061969	0.0008923	0.00025842	1031.2	9.0861e-06	1.0119e-05	1124.3	216.05	8.9759e-06	9.4729e-06	277.48	78.854	61.25	18.29	9.1777e-06	25.847	204.475	284.705	243.644	189.993	329.445	398.265	189.912	196.915	267.652	349.906	197.234	203.895	203.932	211.488	283.620	210.917	-8191	255	
14707.039	1	1	0	0	0.15215	0.17331	0.072392	0.12848	0.068036	0.15237	0.17331	0.082857	0.31474	0.13496	0.078662	0.056572	0.20511	0.25126	0.11653	0.26906	-1.9542	-2.8438	-2.6667	-2.7396	-2.95	-2.6604	-2.9667	-2.8458	-2.4604	-2.9562	-2.8812	-2.6854	-2.7562	-2.675	-3.0292	-3.0354	478.561	206.959	293.915	216.990	470.028	492.090	502.817	391.456	298.845	280.345	470.464	343.364	383.499	335.748	337.300	448.169	0.00025926	0.00035545	3.6503e-05	1043.9	1.585e-06	2.4106e-06	1132.3	216.04	3.519e-06	3.9568e-06	278.13	78.267	60.346	17.904	3.9027e-06	25.357	0.00060129	0.00087005	0.00024076	1029	8.797e-06	9.8995e-06	1124.8	216.19	8.916e-06	9.7094e-06	277.73	79.036	61.143	18.26	9.2138e-06	25.902	204.399	283.222	289.301	190.112	255.737	321.554	189.753	197.420	293.983	301.738	197.052	203.168	204.128	211.592	352.814	210.874	-8191	255	
14707.135	1	1	0	0	0.16094	0.09766	0.12744	0.37546	0.23481	0.33597	0.17571	0.24525	0.090924	0.11067	0.26948	0.30693	0.053701	0.036192	0.23864	0.30156	-1.9542	-3.0563	-2.8583	-2.75	-2.9146	-2.6979	-2.8875	-3.0187	-2.5	-2.9813	-2.9062	-2.6021	-3.1375	-2.8229	-2.7792	-3.1771	403.564	323.064	533.205	496.238	287.639	207.965	486.951	312.982	491.290	293.047	312.274	236.105	202.243	211.973	524.942	522.884	0.00021067	0.00025325	0.00014089	1046.6	2.1127e-06	2.3259e-06	1134.5	216.79	3.0109e-06	1.8566e-06	280.4	78.129	60.437	17.933	2.8148e-06	25.496	0.00060368	0.00085493	0.0002474	1031.9	9.0299e-06	9.8874e-06	1126.3	216.4	9.024e-06	9.6233e-06	279.03	78.75	61.276	18.248	8.9691e-06	25.957	198.608	292.151	287.503	190.133	281.350	333.838	190.052	197.534	293.900	299.758	197.347	203.559	204.126	211.773	336.032	210.999	-8191	255	
14707.231	1	1	0	0	0.059229	0.1543	0.070515	0.23772	0.13767	0.10226	0.21375	0.43239	0.13667	0.15777	0.20824	0.2312	0.044453	0.21729	0.27294	0.22248	-2.1104	-2.75	-2.8979	-2.7521	-2.7729	-2.7042	-2.8396	-3.1063	-2.525	-2.9688	-2.9896	-2.2604	-3.0229	-2.6583	-2.525	-3.0854	356.508	430.875	262.861	394.368	195.435	372.940	498.653	486.917	323.809	224.216	450.080	465.504	482.113	239.256	205.712	493.379	0.00022253	0.00043798	3.1941e-05	1050.1	2.1827e-06	1.6795e-06	1139.4	217.2	3.1459e-06	4.9684e-07	278.25	77.874	60.738	17.856	1.2304e-06	25.205	0.00058933	0.0008479	0.00022898	1034.9	8.9334e-06	9.7026e-06	1128.1	216.24	8.9931e-06	9.2783e-06	277.99	78.9	61.396	18.278	8.871e-06	25.846	201.356	274.801	260.712	190.073	292.979	317.225	189.848	197.263	268.612	519.071	197.119	203.884	204.190	211.893	352.226	211.225	-8191	255	
14707.327	1	1	0	0	0.18857	0.23821	0.14864	0.22562	0.051935	0.23993	0.11808	0.17824	0.12674	0.050224	0.069862	0.090397	0.032419	0.17563	0.47449	0.34705	-2.1333	-2.9729	-2.9792	-2.6854	-2.8729	-2.9813	-2.8917	-2.9729	-2.6854	-2.9188	-3.1667	-2.4021	-3.0771	-2.9708	-2.7	-2.8417	257.945	253.692	217.997	522.536	295.195	450.507	458.399	404.348	467.105	462.725	377.722	416.876	182.248	464.779	323.713	456.739	0.00021903	0.00025036	6.1101e-05	1054.5	7.4239e-07	2.0565e-06	1135.2	216.77	2.0222e-06	4.883e-06	276.54	78.389	60.832	17.8	4.2803e-06	25.365	0.00058121	0.00086313	0.00024684	1034.7	9.0217e-06	9.5293e-06	1128	216.05	9.0132e-06	9.6587e-06	277.23	78.996	61.391	18.174	9.517e-06	25.941	206.618	250.194	323.101	190.077	261.805	347.716	190.126	197.108	307.621	330.300	197.199	203.415	203.830	211.324	301.199	211.434	-8191	255	
14707.446	1	1	0	0	0.13799	0.038926	0.13881	0.29228	0.11419	0.1327	0.16251	0.12069	0.18505	0.325	0.13899	0.15203	0.15491	0.14498	0.10225	0.052964	-2.1312	-2.7396	-2.9375	-2.6479	-2.6354	-2.9917	-2.7396	-3.1979	-2.6792	-2.6437	-3.2417	-2.4375	-2.9125	-2.825	-2.5	-2.9938	212.113	494.385	214.880	520.752	336.461	522.096	480.242	502.673	238.260	304.893	186.301	431.443	537.487	311.465	487.593	531.183	0.00024103	0.00051034	4.9166e-05	1050.4	4.2305e-06	1.3535e-06	1137.2	216.92	3.4947e-06	3.3985e-06	277.93	77.338	60.809	18.035	1.8602e-06	25.182	0.00059327	0.00090265	0.00024373	1032.6	9.1182e-06	9.5293e-06	1127.4	216.51	8.9651e-06	9.9476e-06	278	78.652	61.378	18.276	9.2438e-06	25.878	198.916	264.106	293.221	190.210	333.323	380.875	189.795	197.319	254.491	330.325	197.071	203.293	203.813	211.854	319.111	210.483	-8191	255	
14707.518	1	1	0	0	0.26445	0.2061	0.41964	0.42073	0.068152	0.075224	0.2246	0.1177	0.15703	0.15124	0.2385	0.2883	0.3439	0.11581	0.042716	0.1368	-2.2479	-2.5042	-2.9625	-2.7438	-2.7021	-2.9417	-2.5271	-3.1188	-2.7562	-2.65	-3.1646	-2.6167	-2.8417	-3.0271	-2.5062	-2.9542	281.069	191.798	491.391	460.683	370.399	262.644	458.846	483.393	179.941	414.954	444.624	274.632	199.100	227.200	523.129	276.733	0.00019841	0.00025217	9.1128e-05	1049.3	2.4118e-06	2.4001e-06	1135.9	217.31	4.2679e-06	2.145e-06	277.82	77.939	60.798	18.054	4.0595e-06	25.301	0.00057944	0.00082117	0.00022785	1032.9	8.6938e-06	9.1954e-06	1126.8	216.76	8.7594e-06	9.4533e-06	277.41	78.8	61.349	18.273	8.5932e-06	25.829	201.085	266.662	256.166	189.931	300.940	306.893	189.960	197.268	301.069	309.554	197.004	203.489	203.624	211.646	311.983	211.202	-8191	255	
14707.615	1	1	0	0	0.249	0.064108	0.14401	0.17371	0.26382	0.19023	0.13837	0.11063	0.1528	0.23252	0.067615	0.13746	0.21891	0.26216	0.13064	0.013124	-2.3354	-2.5312	-3.1063	-2.7479	-2.8917	-3.1708	-2.7938	-3.1833	-2.6083	-2.5187	-3.0125	-2.8729	-2.7646	-2.8229	-2.5958	-2.9813	506.727	381.056	429.134	236.331	392.177	504.290	515.419	198.255	290.140	196.095	323.345	184.591	197.847	398.457	431.546	214.806	0.00020513	0.00032873	0.00013513	1042.3	9.0642e-07	1.5935e-06	1136.7	216.92	4.2554e-06	2.8272e-06	277.75	77.79	60.606	17.932	1.791e-06	25.282	0.00057158	0.00083649	0.00022931	1030.2	8.3587e-06	9.1008e-06	1125	216.21	8.3395e-06	8.7584e-06	277.19	78.726	61.249	18.224	8.6014e-06	25.86	213.536	314.369	268.157	189.955	316.407	287.488	189.899	197.252	301.974	328.654	197.205	203.277	203.965	211.784	351.251	211.580	-8191	255	
14707.734	1	1	0	0	0.10565	0.053833	0.13803	0.19902	0.085695	0.045664	0.23306	0.27659	0.15099	0.1251	0.2129	0.15651	0.19085	0.13374	0.19652	0.14321	-2.4979	-2.5833	-2.9229	-2.6396	-2.7792	-3.0312	-2.7375	-2.8937	-2.9125	-2.5333	-2.9792	-2.8271	-2.825	-2.9813	-2.6333	-2.7938	393.872	296.199	385.889	520.760	369.705	311.662	484.803	490.776	446.176	315.808	493.304	530.622	232.959	303.093	494.455	355.005	0.00024003	0.00046346	7.831e-05	1040.1	1.5159e-06	5.1095e-06	1133.9	217.65	3.7725e-06	1.6515e-06	278.91	77.582	60.561	18.102	2.2607e-06	25.277	0.00055814	0.00078223	0.0002221	1027.3	8.3601e-06	8.6327e-06	1123.8	216.34	8.3248e-06	8.8467e-06	277.57	78.59	61.13	18.251	8.4564e-06	25.796	207.480	262.002	254.009	190.037	330.476	335.885	190.180	197.628	280.779	299.816	197.388	203.334	204.163	211.281	293.063	211.639	-8191	255	
14707.830	1	1	0	0	0.074977	0.11592	0.11524	0.058117	0.032801	0.080945	0.041998	0.11341	0.057264	0.13119	0.24016	0.06884	0.090893	0.083708	0.12279	0.11807	-2.4958	-2.5354	-3.0208	-3.0958	-2.3604	-3.1813	-2.9583	-2.5583	-2.7938	-2.3812	-2.8646	-2.9229	-2.3583	-2.7333	-2.7896	-2.6646	330.294	397.110	285.849	224.611	192.680	231.293	421.184	487.285	403.235	435.082	486.648	269.047	186.434	207.463	511.073	393.312	0.00025766	0.00030748	4.3459e-05	1045.3	1.6457e-06	3.9044e-06	1134.5	218.07	2.7027e-06	9.228e-07	277.57	77.821	60.719	17.877	2.4043e-06	25.36	0.00054991	0.00080648	0.00022525	1030.2	8.3812e-06	8.8962e-06	1123.8	216.68	8.1863e-06	8.8799e-06	277.11	78.717	61.174	18.201	7.875e-06	25.903	203.581	277.965	272.054	190.234	351.493	355.198	189.964	197.350	294.359	281.602	197.508	203.127	203.769	211.933	321.240	211.469	-8191	255	
14707.927	1	1	0	0	0.10836	0.19735	0.19258	0.27456	0.21325	0.203	0.3756	0.09161	0.1338	0.17843	0.29846	0.16986	0.064307	0.18827	0.21895	0.16532	-2.6729	-2.3542	-3.0312	-2.9979	-2.6833	-3.0896	-2.7562	-2.9188	-3.0396	-2.4771	-3.0729	-2.8896	-2.6667	-3.2479	-2.5458	-2.6646	276.103	242.023	276.648	512.763	454.178	481.651	444.251	413.557	248.968	529.612	469.125	515.827	419.019	266.868	438.912	198.928	0.00022123	0.00024459	4.306e-05	1042.9	3.9403e-06	3.1882e-06	1126.9	217.05	3.0671e-06	2.1683e-06	278.15	77.097	60.312	18.046	3.6195e-06	25.409	0.00052752	0.00078521	0.00021554	1029.3	8.1604e-06	8.5056e-06	1120.8	216.18	7.7233e-06	8.4788e-06	277.24	78.51	61.047	18.22	8.0896e-06	25.834	199.650	227.241	318.767	190.122	303.036	314.830	189.864	197.232	275.035	407.274	196.767	203.504	203.969	211.720	312.902	211.294	-8191	255	
14708.047	1	1	0	0	0.16335	0.33208	0.14016	0.16208	0.22522	0.08562	0.20645	0.28564	0.22028	0.21744	0.086849	0.0097381	0.10054	0.20531	0.25622	0.21508	-2.7958	-2.3458	-2.6625	-3.1542	-2.5792	-3.075	-3.1083	-2.6	-3.3312	-2.35	-2.7146	-2.9917	-2.475	-3.0979	-2.7958	-2.5396	219.850	492.712	240.412	489.538	249.757	211.750	474.248	489.923	450.743	203.344	522.301	239.202	298.722	297.947	329.145	413.187	0.0002206	0.00018897	8.7178e-05	1041.8	3.88e-06	2.0504e-06	1131.5	217.05	2.5507e-06	4.0387e-06	276.71	77.979	60.319	18.037	2.233e-06	25.297	0.00052846	0.00080277	0.00022055	1027.5	8.0245e-06	8.4605e-06	1120	215.68	8.1181e-06	8.4532e-06	276.73	78.649	60.919	18.24	8.2137e-06	25.829	200.117	246.946	219.326	189.919	311.687	354.130	189.865	197.287	319.310	320.654	197.392	203.924	204.232	211.575	346.347	211.162	-8191	255	
14708.143	1	1	0	0	0.21745	0.12901	0.04392	0.13207	0.11309	0.15445	0.025141	0.21043	0.17627	0.084221	0.34392	0.11896	0.2776	0.21446	0.14938	0.066326	-2.4646	-2.7042	-2.7687	-2.9917	-2.4313	-3.1021	-2.9729	-2.6104	-3.0229	-2.7125	-2.6417	-3.0833	-2.7229	-2.9292	-2.9313	-2.4771	377.484	505.761	496.557	473.461	315.100	200.686	506.871	450.005	498.743	271.303	503.689	429.090	483.190	242.129	431.422	361.706	0.00022723	0.0004192	0.00010907	1043	3.9686e-06	3.4545e-06	1127.5	217.15	5.2832e-06	2.8808e-06	277.18	78.239	60.441	17.943	2.1742e-06	25.199	0.00052245	0.00079072	0.00021416	1028.6	7.9265e-06	8.4132e-06	1120.8	215.86	7.8662e-06	8.1475e-06	277	78.521	60.822	18.164	7.9029e-06	25.774	200.572	288.682	292.734	189.959	316.426	325.109	190.086	197.474	289.487	325.678	197.473	203.302	203.976	211.614	291.444	211.365	-8191	255	
14708.215	1	1	0	0	0.19084	0.29743	0.14492	0.36555	0.12941	0.18712	0.20681	0.23044	0.15441	0.173	0.15312	0.18397	0.37519	0.098511	0.179	0.22296	-2.6917	-2.5625	-2.6333	-3.2	-2.6271	-2.7583	-3.1917	-2.6188	-3.1083	-2.7208	-2.7542	-3.0187	-2.65	-2.7062	-2.9437	-2.4979	253.647	434.901	491.738	466.632	190.284	410.270	467.711	484.872	269.066	502.173	240.988	489.054	317.595	396.262	476.689	450.359	0.00023085	0.00025852	3.2946e-05	1041.4	2.6623e-06	2.95e-06	1132.1	216.83	2.574e-06	2.573e-06	276.86	77.766	60.357	17.811	2.8911e-06	25.216	0.00051771	0.00075765	0.00021233	1025.4	8.0264e-06	8.4319e-06	1120.3	215.21	8.0931e-06	8.4183e-06	276.41	78.546	60.927	18.127	8.0993e-06	25.812	202.107	274.262	267.460	190.070	344.107	318.235	189.890	197.436	297.520	329.025	197.211	203.410	203.971	212.164	297.281	210.892	-8191	255	
14708.334	1	1	0	0	0.072138	0.17094	0.13816	0.11117	0.15417	0.1517	0.22017	0.15918	0.20253	0.10637	0.095441	0.22614	0.20861	0.23602	0.23689	0.15189	-2.5583	-2.7104	-2.7	-3.2417	-2.6979	-3.0125	-2.75	-2.7604	-2.9333	-2.7625	-2.5	-3.1021	-2.8396	-2.7542	-2.9271	-2.4604	302.337	275.427	451.075	470.202	505.417	243.998	389.989	352.030	406.631	510.764	195.008	520.589	413.433	202.311	205.072	422.062	0.00021945	0.00026008	7.7876e-05	1038.9	2.6252e-06	2.0696e-06	1129.1	215.74	3.9949e-06	3.9271e-06	278.02	77.405	60.194	17.837	2.55e-06	24.998	0.00054262	0.00078209	0.00022245	1025	8.0149e-06	8.3439e-06	1117.2	214.9	8.1785e-06	8.7241e-06	276.05	78.251	60.793	18.177	8.0321e-06	25.726	208.002	289.878	265.421	189.997	321.063	304.621	189.939	197.352	287.758	334.116	197.379	203.527	204.510	211.647	273.451	210.906	-8191	255	
14708.430	1	1	0	0	0.13781	0.14283	0.23629	0.14355	0.16917	0.0018736	0.17396	0.1504	0.093214	0.084077	0.12407	0.044112	0.2039	0.094896	0.074261	0.078349	-2.3333	-2.8271	-2.6417	-3.0479	-2.6375	-2.7562	-3.3125	-2.6604	-2.7771	-2.8271	-2.4688	-3.1396	-2.8729	-2.6875	-3.2333	-2.5563	409.172	323.921	209.068	500.272	438.764	180.000	405.275	343.880	315.241	457.718	380.189	336.737	440.894	539.005	503.282	364.904	0.00024421	0.00018923	0.00011651	1035.2	4.3922e-06	3.9181e-06	1123.3	216.09	3.5951e-06	2.5153e-06	274.38	77.507	60.014	17.837	3.9965e-07	25.059	0.00053524	0.00075203	0.00021771	1022.1	8.2458e-06	8.4968e-06	1115.8	215.2	8.315e-06	8.7987e-06	274.97	78.438	60.635	18.137	8.3969e-06	25.692	208.497	255.171	236.346	190.073	307.920	317.502	189.810	197.614	282.716	319.986	197.445	203.312	204.079	211.703	360.170	211.264	-8191	255	
14708.526	1	1	0	0	0.34628	0.13231	0.021763	0.27596	0.17705	0.40723	0.13483	0.062357	0.26654	0.11064	0.12223	0.17463	0.093986	0.13237	0.19392	0.17596	-2.3646	-2.9375	-2.4646	-3.0917	-2.6125	-2.4437	-3.1875	-2.6271	-2.625	-2.8563	-2.6125	-3.0938	-2.7729	-2.5792	-2.8479	-2.8187	384.669	197.924	513.275	439.652	368.222	483.939	437.050	333.469	240.418	401.589	269.678	381.000	515.960	314.111	444.731	411.024	0.00022357	0.00023312	6.2113e-05	1039.9	2.6682e-06	1.8199e-06	1131.5	215.57	1.8129e-06	4.6158e-06	276.16	77.785	60.026	17.831	4.328e-06	25.155	0.00054769	0.00078809	0.00022787	1024.8	8.4518e-06	8.9996e-06	1117.7	215.01	8.5914e-06	8.9846e-06	276.55	78.422	60.862	18.129	8.5836e-06	25.739	206.659	238.576	297.645	190.001	292.283	305.289	190.142	197.414	300.736	341.754	197.227	204.102	203.777	211.623	315.382	211.496	-8191	255	
14708.622	1	1	0	0	0.083443	0.14653	0.09396	0.31022	0.25252	0.13275	0.32006	0.29253	0.32429	0.10698	0.06071	0.12558	0.11294	0.29787	0.12668	0.16793	-2.2271	-2.9313	-2.475	-3.0833	-2.8917	-2.4	-3.1667	-2.7271	-2.5146	-2.9708	-2.5167	-2.7208	-3.0729	-2.3896	-3.0833	-2.7875	270.862	429.466	492.195	537.811	392.658	215.115	521.912	465.541	325.165	434.495	442.940	200.961	386.528	253.902	401.462	207.061	0.00023023	0.0002087	7.0753e-05	1037.6	3.4179e-06	3.2448e-06	1125.3	214.78	3.5998e-06	3.4065e-06	275.53	77.757	60.138	17.873	1.5752e-07	25.176	0.00055621	0.0007978	0.00022934	1025	8.2727e-06	9.5447e-06	1117.9	214.97	8.4279e-06	8.7377e-06	275.87	78.514	60.823	18.119	8.3836e-06	25.734	202.317	236.587	292.164	190.148	328.558	347.611	189.804	197.414	297.391	377.975	197.036	203.096	203.909	211.883	255.826	211.525	-8191	255	
14708.743	1	1	0	0	0.28601	0.13119	0.098417	0.14196	0.05471	0.13608	0.28817	0.26067	0.2155	0.15081	0.52379	0.14684	0.21009	0.41492	0.10096	0.28268	-2.1333	-3.1854	-2.5271	-3.1813	-2.8479	-2.4917	-3.1083	-2.9188	-2.6125	-2.9771	-2.6146	-2.7583	-2.9208	-2.6042	-2.9583	-2.7292	469.125	516.545	525.821	209.607	347.301	438.112	498.722	537.980	261.784	441.129	467.524	501.081	186.485	181.011	369.271	464.810	0.00023519	0.00027563	9.7999e-05	1037.6	9.101e-07	3.5792e-06	1123.5	216.35	3.8997e-06	3.2974e-06	277.01	77.466	60.769	17.74	2.9843e-06	24.983	0.00056788	0.00080097	0.00022571	1025	8.6453e-06	9.3296e-06	1117.2	215.59	8.8482e-06	9.1644e-06	276.38	78.355	60.986	18.169	9.1808e-06	25.676	200.098	258.222	262.943	190.231	316.259	340.651	189.962	197.344	330.794	339.961	197.068	203.534	203.622	211.837	301.550	210.990	-8191	255	
14708.815	1	1	0	0	0.29089	0.083172	0.13874	0.10312	0.11787	0.15356	0.31355	0.23056	0.13729	0.26405	0.1565	0.1702	0.21347	0.075231	0.1399	0.2169	-2.3417	-2.8896	-2.6771	-2.7729	-2.8417	-2.775	-2.9979	-2.9313	-2.6896	-3.0729	-2.725	-2.8937	-3.05	-2.6458	-3.0187	-2.6271	508.503	242.208	187.888	203.160	496.763	509.366	452.435	420.626	269.126	534.925	264.435	392.349	248.450	206.161	395.789	191.130	0.00023993	0.00041099	0.00010911	1041.8	3.3789e-06	4.1832e-06	1133.5	215.83	1.9492e-06	5.8656e-07	276.62	77.525	60.639	17.776	2.5269e-06	25.028	0.00061309	0.00085088	0.00024928	1025.2	8.9579e-06	9.7581e-06	1121.3	215.31	8.9361e-06	9.4489e-06	275.98	78.454	61.065	18.163	8.5266e-06	25.653	201.339	271.390	283.128	190.005	329.849	340.526	190.011	197.603	288.811	219.363	197.113	203.515	203.758	211.619	277.816	211.114	-8191	255	
14708.911	1	1	0	0	0.28242	0.088639	0.31624	0.2066	0.14624	0.19506	0.10033	0.10362	0.20139	0.095818	0.26411	0.11905	0.053924	0.26126	0.12451	0.29725	-2.1667	-3.3354	-2.4396	-2.9021	-2.8854	-2.5312	-2.8979	-3.0021	-2.65	-3.0021	-2.675	-2.6792	-3.0375	-2.4333	-2.9583	-2.9562	533.926	202.187	278.873	393.490	180.397	350.913	460.720	261.286	528.679	273.935	508.604	389.766	497.605	179.960	284.461	474.755	0.00021766	0.00048692	0.00013247	1037.4	2.0087e-06	2.9507e-06	1125.9	215.71	1.2652e-06	2.5555e-06	275.9	77.196	60.626	17.885	2.1439e-06	25.236	0.00056828	0.00077516	0.0002214	1023.4	8.0163e-06	8.7697e-06	1117.6	214.93	8.1643e-06	8.735e-06	276.3	78.359	60.915	18.142	8.2773e-06	25.765	199.386	301.989	287.846	189.867	246.935	333.559	190.106	197.420	283.728	324.987	197.246	203.459	204.154	211.783	321.708	211.328	-8191	255	
14709.007	1	1	0	0	0.27671	0.08875	0.030691	0.31315	0.075339	0.1345	0.17543	0.071156	0.1285	0.088867	0.1777	0.32696	0.17162	0.16117	0.22133	0.059758	-2.0438	-2.8896	-2.7562	-2.7083	-3.0604	-2.75	-3.0062	-3.0438	-2.7958	-2.8146	-2.7667	-2.5771	-2.9583	-2.7396	-2.9854	-3.0917	316.407	358.892	433.413	493.258	269.094	448.114	467.786	446.123	512.854	270.251	217.706	469.893	414.426	206.773	348.139	231.338	0.00021271	0.00043419	0.00011644	1037.6	1.8798e-06	6.2734e-06	1128.2	216.33	5.2422e-06	3.8942e-06	276.3	77.439	60.255	17.761	1.5448e-06	25.238	0.00054546	0.0007979	0.00021794	1023.8	8.242e-06	9.0881e-06	1117.3	215.07	8.6867e-06	8.7186e-06	276.69	78.236	60.756	18.168	8.1669e-06	25.763	200.355	290.538	268.674	189.916	304.725	327.797	190.102	197.483	286.531	354.487	197.177	203.382	204.041	211.890	357.839	211.156	-8191	255	
14709.128	1	1	0	0	0.12096	0.12677	0.0035907	0.22451	0.2233	0.10336	0.38833	0.060904	0.15493	0.11913	0.046038	0.12247	0.056246	0.27672	0.29721	0.057031	-2.1396	-2.9938	-2.8854	-2.5438	-3.2604	-2.8667	-2.6896	-2.8167	-2.6979	-2.8271	-2.9667	-2.6562	-3.1521	-2.7083	-2.6667	-3.1958	331.528	419.783	401.257	511.470	225.189	397.632	495.884	514.705	444.662	464.311	245.949	189.618	489.966	208.023	496.719	362.562	0.00021856	0.00025703	5.4116e-05	1037.7	6.677e-07	1.8703e-06	1131.8	216.07	2.7958e-06	3.0062e-06	276.79	77.796	60.53	17.866	2.0246e-06	25.234	0.00053975	0.00074789	0.00021525	1023	8.1733e-06	8.7235e-06	1118.9	214.79	8.2202e-06	8.644e-06	276.32	78.252	60.807	18.149	8.4086e-06	25.781	199.890	251.676	255.458	190.241	312.388	375.992	190.195	197.357	302.369	331.768	197.048	203.283	203.849	211.575	322.682	211.085	-8191	255	
14709.222	1	1	0	0	0.1227	0.11824	0.17658	0.18528	0.26555	0.11772	0.031054	0.30652	0.19583	0.27245	0.11141	0.10771	0.31474	0.025141	0.11347	0.16163	-2.0979	-2.9375	-2.8208	-2.6813	-3.0375	-2.4979	-2.6479	-3.1229	-2.4562	-2.9813	-2.9188	-2.4979	-2.9708	-2.8333	-2.6771	-3.1688	362.981	533.707	477.899	407.462	419.827	506.866	481.471	183.579	450.199	455.411	191.242	262.901	533.280	320.013	408.062	448.568	0.000221	0.0003132	0.00010381	1034.6	3.9305e-06	1.4996e-06	1127	215.64	2.4798e-06	1.3537e-06	275.83	77.081	59.894	17.626	2.0837e-06	25.146	0.00055174	0.00076482	0.00021963	1023	8.0331e-06	8.8043e-06	1116.4	214.82	8.3214e-06	8.8494e-06	276.07	78.196	60.626	18.068	8.7708e-06	25.701	200.852	239.205	269.122	190.191	299.752	224.911	189.973	197.309	320.456	426.540	197.278	203.534	204.224	211.960	307.532	211.027	-8191	255	
14709.318	1	1	0	0	0.21272	0.18697	0.035305	0.078109	0.2588	0.2062	0.24956	0.13419	0.040731	0.22875	0.13539	0.20011	0.23686	0.15499	0.12655	0.053404	-2.3187	-2.8146	-2.7167	-2.5708	-2.9062	-2.8146	-2.7	-3.2875	-2.4688	-2.65	-3.0958	-2.6458	-3.0521	-2.7229	-2.3625	-3.175	467.109	482.475	470.491	342.132	247.894	520.322	536.126	352.534	323.951	183.034	515.425	215.824	516.512	183.598	466.812	472.170	0.00022488	0.00027435	6.3793e-05	1038.8	1.723e-06	3.7799e-06	1126.2	214.43	2.5909e-06	1.2671e-06	276.72	77.636	60.343	17.779	2.1085e-06	25.143	0.00055426	0.00079692	0.00023183	1021.7	8.1287e-06	8.8857e-06	1114.5	214.38	8.587e-06	8.9099e-06	275.51	78.233	60.777	18.11	8.4991e-06	25.721	205.061	278.473	518.909	190.111	273.475	340.449	190.097	197.125	324.167	363.802	197.186	203.759	204.056	211.862	272.004	211.091	-8191	255	
14709.416	1	1	0	0	0.12168	0.20103	0.18196	0.065948	0.1294	0.29226	0.24193	0.16245	0.10444	0.075669	0.0094016	0.34053	0.18594	0.32535	0.11938	0.025407	-2.5062	-2.5062	-2.9562	-2.6208	-2.7562	-2.8583	-2.7	-3.0625	-2.625	-2.6958	-3.0958	-2.7562	-3.0229	-3.0583	-2.6917	-3.3187	516.575	532.549	183.254	191.228	366.965	513.847	412.026	456.859	315.747	251.487	471.813	486.611	367.135	209.122	287.153	293.490	0.00022284	0.00062761	8.2569e-05	1032.7	3.6703e-06	2.5177e-06	1123.1	215.22	2.7749e-06	4.228e-06	275.03	77.508	59.827	17.885	2.1131e-06	25.414	0.00055474	0.0007915	0.00020887	1018.7	8.2165e-06	8.5056e-06	1113.4	214.48	8.2585e-06	8.766e-06	275.28	78.131	60.575	18.13	8.2631e-06	25.75	203.081	297.404	284.485	190.204	285.410	364.433	189.794	197.497	294.813	357.293	197.384	203.758	204.064	211.413	289.616	210.935	-8191	255	
14709.510	1	1	0	0	0.17298	0.092036	0.20221	0.20113	0.09938	0.10826	0.30934	0.11979	0.37476	0.031616	0.070158	0.066818	0.35479	0.16214	0.25616	0.15253	-2.2875	-2.2792	-3.0521	-2.7333	-2.9125	-2.9396	-2.7562	-3.075	-2.6937	-2.5958	-3.3125	-2.5125	-2.8479	-3.0396	-2.5167	-2.9958	530.486	334.868	387.159	198.131	437.067	435.784	499.561	494.748	301.922	292.028	448.405	485.268	505.191	201.416	335.853	439.739	0.00021824	0.00025723	9.6408e-05	1034.2	1.5152e-06	4.0284e-06	1120.8	216.14	3.6981e-06	2.5282e-06	275.85	77.298	60.089	17.801	4.023e-06	24.982	0.00053355	0.00075008	0.00020764	1020.1	7.9669e-06	8.1959e-06	1111.7	214.66	7.7975e-06	8.4728e-06	275.86	78.154	60.74	18.119	8.2092e-06	25.75	202.570	331.862	304.160	190.250	325.089	322.290	189.965	197.532	271.348	325.745	197.309	203.579	204.393	212.099	335.105	210.720	-8191	255	
14709.607	1	1	0	0	0.22464	0.12373	0.058773	0.31954	0.10848	0.13245	0.16489	0.056181	0.14232	0.22845	0.30136	0.23483	0.16156	0.10686	0.33965	0.33353	-2.2146	-2.5187	-3.0708	-2.8125	-2.8708	-2.8604	-2.7604	-2.9021	-3.1792	-2.6521	-3.0854	-2.7979	-2.7354	-3.1854	-2.5708	-2.9167	188.682	426.940	202.091	465.948	313.616	275.858	247.601	445.417	203.425	388.197	443.006	505.706	518.645	320.616	505.514	513.932	0.00020719	0.00052416	5.2818e-05	1033.7	3.94e-06	2.6893e-06	1125.3	215.98	3.657e-06	3.8716e-06	277.25	77.23	60.048	17.938	2.8122e-06	25.17	0.00053047	0.0007333	0.00020521	1019.7	7.7762e-06	8.1299e-06	1115.4	215.04	8.1181e-06	8.19e-06	275.59	78.011	60.744	18.131	7.6913e-06	25.746	202.397	300.394	228.080	189.956	285.655	411.568	189.988	197.487	311.630	318.067	196.948	203.639	204.510	212.126	328.088	211.457	-8191	255	
14709.727	1	1	0	0	0.12691	0.12282	0.28006	0.20356	0.1194	0.23453	0.11995	0.072289	0.15346	0.18315	0.28579	0.14793	0.069323	0.15994	0.13467	0.20687	-2.5229	-2.5875	-2.9958	-2.8688	-2.6479	-3.1021	-2.5729	-2.9333	-2.7875	-2.6021	-3.1646	-2.8896	-2.5687	-3.1312	-2.7896	-2.8354	433.916	230.560	367.569	514.530	481.232	505.926	315.889	538.456	514.761	261.360	454.386	211.323	232.522	465.602	196.297	218.378	0.00022414	0.00041605	8.8163e-05	1037.1	1.168e-06	2.0381e-06	1124	214.57	3.2248e-06	1.1728e-06	276.32	77.362	60.427	17.71	1.3643e-06	25.14	0.00051805	0.00075242	0.00020224	1021.7	7.9736e-06	8.2994e-06	1112.9	214.22	7.9305e-06	8.3437e-06	275.48	78.283	60.782	18.131	8.4549e-06	25.691	206.582	269.406	241.219	190.267	375.782	346.004	190.083	197.194	326.046	395.603	197.059	203.673	203.824	211.786	365.424	211.245	-8191	255	
14709.823	1	1	0	0	0.01557	0.056794	0.017538	0.24279	0.23867	0.36849	0.14705	0.25083	0.11528	0.32012	0.052634	0.16971	0.30966	0.20814	0.11891	0.14583	-2.3917	-2.5292	-2.8146	-2.9688	-2.6437	-2.9896	-2.875	-2.8104	-2.9354	-2.6458	-2.9667	-2.9792	-2.8167	-3.05	-2.8333	-2.6896	259.658	241.659	248.113	453.966	482.217	320.243	536.816	483.588	424.284	383.380	308.912	357.284	482.913	383.078	466.037	445.190	0.00024975	9.2424e-05	6.4676e-05	1030.9	2.0948e-06	2.911e-06	1122.8	216.46	4.5793e-06	2.3714e-06	277.34	77.673	60.46	17.848	7.6785e-07	25.169	0.00053152	0.00075569	0.00021035	1018.5	8.2007e-06	8.6327e-06	1113.2	214.95	8.261e-06	8.7273e-06	275.8	78.266	60.865	18.122	8.2839e-06	25.679	198.757	281.871	234.379	190.106	300.370	329.196	189.905	197.456	304.607	315.866	197.122	204.067	204.081	211.366	263.583	211.123	-8191	255	
14709.920	1	1	0	0	0.18033	0.16851	0.18034	0.29896	0.15611	0.24406	0.14917	0.14474	0.055912	0.048137	0.168	0.23807	0.15181	0.16419	0.22142	0.22164	-2.4583	-2.6792	-2.7896	-2.85	-2.6417	-3.0146	-2.8604	-2.875	-3.0792	-2.5229	-2.7521	-2.8292	-2.5875	-3.0958	-2.6396	-2.7104	179.944	496.852	210.956	453.483	384.829	311.931	185.468	368.652	343.206	214.893	508.221	229.284	382.731	445.211	523.692	196.299	0.00022853	0.00037843	0.00012359	1032.3	1.7956e-06	2.2219e-06	1129.8	215.76	2.6808e-06	3.6834e-06	275.07	77.472	59.994	17.929	3.1097e-06	25.195	0.00053347	0.00078931	0.00021631	1019.1	8.0831e-06	8.4198e-06	1114.3	214.95	8.0253e-06	8.6265e-06	275.38	78.134	60.689	18.163	8.3017e-06	25.705	203.857	272.058	296.541	190.236	354.156	312.899	190.103	197.607	274.640	335.273	197.434	203.823	204.099	211.443	342.821	211.476	-8191	255	
14710.016	1	1	0	0	0.23887	0.15513	0.21943	0.15353	0.24023	0.24611	0.32513	0.19977	0.2052	0.13961	0.15021	0.03337	0.083734	0.18816	0.29852	0.2463	-2.8083	-2.5208	-2.9104	-3.1396	-2.4146	-3.0021	-3.0896	-2.6521	-2.8604	-2.7687	-2.975	-3.0771	-2.3521	-2.9875	-2.8854	-2.5917	527.810	395.545	239.625	414.698	400.125	344.918	206.325	243.795	394.834	271.769	525.295	254.061	193.949	537.601	228.768	489.765	0.00020726	0.00034514	7.045e-05	1036.9	2.0108e-06	2.4784e-06	1124.3	214.47	4.0792e-06	4.2589e-06	277.15	77.384	60.459	17.762	2.7031e-06	24.98	0.00052985	0.0007835	0.00022147	1020.5	8.217e-06	8.7015e-06	1113.1	214.78	8.098e-06	8.6554e-06	275.77	78.088	60.757	18.101	8.2804e-06	25.703	201.205	260.845	269.263	190.082	326.183	343.338	189.970	197.500	315.892	321.886	197.489	203.524	203.955	211.769	308.758	211.634	-8191	255	
14710.112	1	1	0	0	0.10645	0.1441	0.16863	0.12924	0.18077	0.094247	0.21338	0.25164	0.060294	0.32024	0.16462	0.075038	0.10664	0.1528	0.17437	0.023174	-2.5083	-2.6417	-2.7938	-2.9792	-2.5896	-3.0875	-3.025	-2.5	-3.0771	-2.6792	-2.7625	-3.0375	-2.6333	-2.9167	-2.7333	-2.4729	358.468	509.680	371.060	497.223	508.656	407.338	376.563	302.905	515.146	421.659	364.639	388.990	338.576	460.122	539.181	286.261	0.00021112	0.00034296	2.137e-05	1034.4	6.5459e-07	2.7631e-06	1124.7	215.91	1.9469e-06	2.1485e-06	274.07	77.895	60.008	17.85	2.6193e-06	25.183	0.00054702	0.00074911	0.0002176	1019.7	8.0139e-06	8.5557e-06	1113.2	214.89	7.8387e-06	8.4685e-06	274.94	78.276	60.814	18.117	7.9675e-06	25.635	203.767	235.390	291.707	190.007	374.490	319.376	189.977	197.236	351.540	333.404	197.324	203.480	204.101	211.769	305.143	211.327	-8191	255	
14710.208	1	1	0	0	0.25222	0.26462	0.032872	0.2554	0.03451	0.033216	0.3044	0.18699	0.13107	0.21846	0.22095	0.13005	0.27283	0.15416	0.13639	0.23441	-2.7229	-2.7271	-2.4771	-2.9896	-2.7771	-2.7188	-2.8375	-2.8	-3.125	-2.9292	-2.6813	-2.9542	-2.8083	-2.7542	-2.8958	-2.6375	352.257	222.974	506.246	200.332	190.535	235.205	521.309	514.516	487.287	484.117	475.947	481.351	300.207	529.437	303.339	253.236	0.00022462	0.00019742	9.0462e-05	1031.5	1.9288e-06	2.2594e-06	1119.9	214.55	2.0984e-06	1.6957e-06	277.28	77.077	60.38	17.877	2.142e-06	24.988	0.00052824	0.0007536	0.00022221	1018	7.7983e-06	8.5463e-06	1110.3	214.39	7.8878e-06	8.3039e-06	275.91	78.262	60.737	18.109	7.699e-06	25.636	202.411	225.240	281.755	190.069	333.755	302.837	190.005	197.511	328.224	351.781	197.037	203.424	204.446	212.026	337.354	210.893	-8191	255	
14710.304	1	1	0	0	0.22498	0.18903	0.24383	0.1834	0.18435	0.24255	0.25158	0.34144	0.26949	0.15617	0.20037	0.020604	0.24288	0.31672	0.20249	0.36967	-2.5458	-2.7729	-2.5917	-2.9083	-2.525	-2.9562	-3.2083	-2.6104	-3.1542	-2.9062	-2.3875	-3.1167	-2.6042	-2.8021	-3.0167	-2.4708	196.823	369.306	229.514	434.247	302.654	536.268	427.525	453.430	249.432	456.611	533.023	387.655	181.487	253.289	451.271	379.704	0.00022982	0.00028621	9.7504e-05	1034.2	1.9455e-06	4.4952e-06	1121.7	215.1	1.5981e-06	4.0782e-06	276.82	76.998	60.214	17.806	3.1033e-06	25.205	0.00053307	0.00073725	0.00020814	1018.1	7.8992e-06	8.5034e-06	1112.4	214.89	7.4768e-06	8.1736e-06	275.55	78.014	60.777	18.118	7.4802e-06	25.708	211.472	297.620	309.396	190.042	276.727	362.318	190.180	197.397	317.677	341.867	196.914	203.261	203.796	211.708	347.698	210.559	-8191	255	
14710.400	1	1	0	0	0.18214	0.13624	0.19198	0.14827	0.23555	0.12258	0.33303	0.14079	0.15197	0.17393	0.053118	0.20625	0.10813	0.056928	0.038824	0.052079	-2.4083	-3.0563	-2.625	-3.2229	-2.8792	-2.6437	-3.1875	-2.6333	-2.7396	-3.0104	-2.7313	-3.0812	-2.7521	-2.6646	-3.0292	-2.4583	388.661	319.983	212.524	525.444	329.902	195.954	478.908	193.672	456.188	499.162	465.064	240.460	271.788	328.073	417.716	275.365	0.00021673	0.00030824	8.5679e-05	1032.7	2.5176e-06	3.3496e-06	1120.5	214.99	2.807e-06	4.1785e-06	277.15	77.795	60.114	17.793	2.5429e-06	25.212	0.00050577	0.0007415	0.00019678	1019.4	7.5419e-06	8.0051e-06	1111.7	214.4	7.7994e-06	7.9551e-06	276.59	78.31	60.621	18.104	7.5565e-06	25.648	199.827	263.826	281.770	190.089	307.532	315.074	189.927	197.478	358.151	355.286	197.525	203.919	203.844	211.727	280.911	211.248	-8191	255	
14710.519	1	1	0	0	0.13168	0.079586	0.08821	0.29072	0.040095	0.15484	0.1443	0.23083	0.12846	0.10253	0.044583	0.25688	0.1638	0.23638	0.18934	0.23055	-2.2771	-3.2354	-2.6771	-3.0625	-2.8208	-2.8063	-3.1688	-2.7646	-2.8771	-2.9542	-2.6542	-3.0667	-2.9938	-2.6104	-3.075	-2.825	253.402	244.716	360.198	191.944	470.849	530.112	415.460	504.805	412.866	517.397	528.502	435.706	393.323	190.575	199.417	351.768	0.00022749	0.00034034	3.3975e-05	1033.8	2.6468e-06	3.6911e-06	1125.4	215.46	3.7085e-06	1.8959e-06	274.95	78.03	60.24	17.873	4.392e-06	25.275	0.00051256	0.000717	0.00019692	1020.2	7.3768e-06	7.9473e-06	1110.7	214.76	7.6629e-06	7.7115e-06	275.47	78.303	60.71	18.128	7.4482e-06	25.725	195.502	275.425	307.100	190.184	298.879	303.418	190.000	197.456	302.811	323.183	197.318	203.375	204.411	211.572	272.220	211.510	-8191	255	
14710.615	1	1	0	0	0.27524	0.15082	0.10401	0.09467	0.10438	0.17503	0.12972	0.079166	0.16435	0.32345	0.26421	0.18148	0.1151	0.23031	0.34586	0.13267	-2.1708	-2.7521	-2.4042	-3.0542	-2.8167	-2.4208	-3.1188	-2.7021	-2.6729	-3.0292	-2.8063	-2.7188	-2.9604	-2.7208	-3.1	-2.7542	461.981	381.922	338.988	244.461	267.377	237.195	448.005	314.645	495.513	464.203	524.033	421.193	425.648	517.288	236.156	480.610	0.00023704	0.00020735	0.00011934	1031.6	2.0718e-06	2.99e-06	1124.2	215.12	1.5233e-06	5.5058e-06	276.72	77.31	59.948	17.774	2.6507e-06	25.271	0.0005147	0.00073413	0.00020327	1018	7.65e-06	8.2014e-06	1113.5	214.63	7.6295e-06	8.1317e-06	275.36	78.138	60.618	18.102	7.5036e-06	25.739	200.916	262.568	274.408	190.302	309.154	376.961	190.039	197.458	288.176	337.701	197.291	203.210	204.160	211.708	310.546	211.401	-8191	255	
14710.687	1	1	0	0	0.044082	0.30603	0.15124	0.24355	0.21414	0.11664	0.15592	0.059974	0.13683	0.073936	0.14093	0.021496	0.23038	0.029889	0.060377	0.30929	-2.2979	-3.1063	-2.5292	-2.9396	-3.0583	-2.6792	-3.275	-3.0667	-2.7313	-2.9125	-2.8896	-2.9375	-3.0208	-2.3604	-3.2042	-2.8083	238.130	201.872	269.362	501.461	432.818	319.247	516.469	370.383	483.798	299.828	189.011	276.983	461.126	497.094	415.024	454.888	0.0002357	0.0003505	8.359e-05	1035.8	2.6159e-06	4.0864e-06	1118.1	215.47	3.4309e-06	3.471e-06	276.41	77.48	60.305	17.819	2.6351e-06	25.064	0.00049255	0.00068524	0.00019564	1019.6	7.2299e-06	7.9182e-06	1111.2	214.8	7.4886e-06	7.5006e-06	275.88	78.331	60.74	18.14	7.3312e-06	25.618	208.412	256.889	253.127	190.206	313.382	339.864	189.936	197.203	283.859	325.791	196.964	203.955	204.027	211.823	286.759	211.080	-8191	255	
14710.808	1	1	0	0	0.21429	0.15298	0.16549	0.32706	0.069554	0.10953	0.085552	0.15055	0.14784	0.14371	0.25633	0.053063	0.12976	0.091913	0.16845	0.061382	-2.0438	-3.2271	-2.5479	-2.6104	-2.8063	-2.4938	-3.1646	-2.9396	-2.4833	-3.1521	-2.8042	-2.7146	-2.9833	-2.6083	-2.9229	-3.0104	352.262	293.019	412.578	188.012	379.061	212.246	189.041	510.040	376.204	212.228	192.566	247.890	531.559	472.424	451.129	254.758	0.00022104	0.0002664	0.00011514	1037.6	3.3266e-06	3.6448e-06	1122.7	213.75	3.1828e-06	2.4911e-06	276.58	77.048	59.945	17.955	4.3751e-06	25.057	0.00049164	0.00068061	0.00019453	1020.2	7.346e-06	7.6965e-06	1112.1	213.78	7.7307e-06	7.8516e-06	275.9	78.228	60.555	18.144	7.2483e-06	25.573	202.156	267.030	313.170	190.043	298.460	326.595	190.222	197.387	271.569	328.904	197.496	203.635	204.122	211.866	299.335	211.206	-8191	255	
14710.904	1	1	0	0	0.22118	0.096161	0.056456	0.22522	0.16587	0.16759	0.11052	0.11939	0.10756	0.061391	0.039539	0.065857	0.16975	0.3523	0.090298	0.13221	-2.0667	-2.9167	-2.7104	-2.775	-3.1333	-2.6708	-3.0042	-2.9229	-2.3875	-2.9333	-2.8271	-2.7875	-3.2583	-2.6229	-2.6833	-2.8958	489.293	263.768	384.637	274.721	209.576	249.283	484.548	433.285	207.435	494.967	183.188	287.853	464.679	183.845	191.954	511.100	0.00023389	9.6286e-05	7.9553e-05	1036.4	1.935e-06	2.8435e-06	1125.5	214.71	2.7904e-06	6.311e-06	275.66	77.274	60.006	17.802	3.0638e-06	25.237	0.00050516	0.00069529	0.00020179	1021	7.2188e-06	7.796e-06	1113.4	214.31	7.5264e-06	7.9262e-06	275.41	78.267	60.694	18.07	7.5703e-06	25.666	200.490	348.804	292.588	189.925	309.344	352.107	190.037	197.314	305.401	341.561	197.245	203.752	204.170	211.712	283.920	211.081	-8191	255	
14711.000	1	1	0	0	0.15484	0.16144	0.18595	0.11325	0.21782	0.13119	0.026971	0.10944	0.14042	0.083886	0.066617	0.15873	0.058195	0.28402	0.098897	0.20572	-1.9021	-2.8563	-2.7	-2.7646	-2.9833	-2.8167	-2.9042	-2.9667	-2.6979	-2.8979	-3.0687	-2.7562	-3.2583	-2.6354	-2.6417	-3.1083	365.659	506.099	190.118	425.289	522.709	321.681	304.985	369.826	328.512	415.030	497.147	458.602	438.016	199.522	355.642	382.660	0.00023218	0.00030312	0.00011652	1033	1.4653e-06	2.6278e-06	1125.2	216.49	3.2042e-06	2.6737e-06	276.29	77.483	60.373	17.896	2.4797e-06	25.307	0.00051465	0.00072803	0.0002041	1019.8	7.3979e-06	8.1926e-06	1112.5	214.45	7.5814e-06	8.0412e-06	274.9	78.246	60.675	18.095	7.8017e-06	25.683	203.825	285.461	287.228	190.050	322.540	401.546	190.023	197.192	285.670	370.680	197.262	203.579	204.247	212.270	319.020	211.263	-8191	255	
14711.096	1	1	0	0	0.048165	0.17334	0.1441	0.17941	0.18345	0.22563	0.089696	0.06943	0.068046	0.14015	0.18964	0.078133	0.098031	0.17612	0.20407	0.15552	-2.0979	-2.9813	-2.8042	-2.4833	-3.1979	-2.7	-2.6917	-3.2479	-2.4625	-3.0104	-3.1167	-2.4708	-2.9729	-2.8083	-2.7521	-3.1896	264.901	198.213	233.987	441.282	298.224	379.180	232.382	407.539	455.536	290.812	504.949	443.507	204.490	485.012	325.220	243.574	0.00021604	0.00010728	8.6091e-05	1031.3	1.5823e-06	2.411e-06	1123.1	215.93	3.0165e-06	2.6816e-06	275.58	77.118	60.312	17.849	3.5487e-06	25.037	0.00051339	0.0006948	0.00019567	1016.6	7.4354e-06	7.9952e-06	1111.2	214.78	7.2951e-06	7.53e-06	275.16	78.051	60.667	18.09	7.8236e-06	25.633	200.209	228.971	258.655	190.228	343.919	316.763	190.122	197.669	295.203	319.101	197.179	203.870	203.883	211.652	310.108	211.480	-8191	255	
14711.215	1	1	0	0	0.06794	0.082963	0.28403	0.40052	0.1071	0.091791	0.13635	0.21781	0.091073	0.04925	0.062441	0.14331	0.20295	0.099418	0.12103	0.28692	-1.8958	-2.9104	-2.9917	-2.7458	-3.0708	-2.6562	-2.7146	-3.0708	-2.7625	-2.7521	-2.875	-2.5792	-2.9562	-2.8271	-2.6021	-3.0833	528.744	261.606	242.165	499.862	508.188	315.596	427.708	419.630	245.971	187.277	268.770	471.445	199.033	512.274	311.561	435.854	0.00022979	0.00025931	9.6848e-05	1035.3	1.1774e-06	1.1421e-06	1124.4	215.23	1.8883e-06	3.2966e-06	278.47	77.598	60.346	17.86	2.6025e-06	25.097	0.00050575	0.00070515	0.00019802	1018.5	7.2476e-06	7.8197e-06	1113.8	214.59	7.44e-06	7.8892e-06	276.17	78.29	60.824	18.086	7.1979e-06	25.706	209.634	220.093	258.279	189.862	284.315	354.877	189.887	197.238	304.151	284.815	197.505	203.456	203.975	211.608	302.439	211.232	-8191	255	
14711.311	1	1	0	0	0.17683	0.17132	0.1371	0.21857	0.38266	0.16504	0.41858	0.17019	0.17167	0.086355	0.1269	0.1104	0.13504	0.13502	0.26124	0.12149	-2.2271	-2.7104	-2.7188	-2.5833	-2.8896	-2.9208	-2.7125	-3.0875	-2.7	-2.6167	-2.9521	-2.65	-2.8875	-2.8542	-2.3812	-2.9042	240.893	361.360	332.060	459.813	373.801	183.980	211.048	436.407	493.794	462.747	400.914	413.027	468.814	250.624	280.087	454.900	0.00024779	0.0002413	0.00010939	1038.2	2.9691e-06	5.7393e-06	1127.1	215.82	4.5579e-06	3.594e-06	276.42	77.574	60.187	17.877	3.0215e-06	25.109	0.00051712	0.00072803	0.00019711	1021.8	7.3561e-06	8.021e-06	1114.5	215.07	7.4935e-06	8.0292e-06	275.75	78.032	60.753	18.14	7.4685e-06	25.674	199.717	223.619	282.042	190.003	277.155	348.841	189.780	197.264	296.203	315.188	197.263	203.467	203.928	211.821	345.978	211.275	-8191	255	
14711.407	1	1	0	0	0.14218	0.087561	0.074186	0.26369	0.13765	0.16572	0.03291	0.37424	0.3074	0.21829	0.056881	0.044308	0.23236	0.30017	0.13262	0.14419	-2.4375	-2.6146	-3.0187	-2.975	-2.8812	-2.9292	-2.6792	-2.6875	-2.625	-2.6562	-3.1708	-2.6188	-2.9188	-2.9313	-2.6604	-2.8688	255.800	358.720	504.422	454.751	378.713	425.645	360.474	515.251	413.416	337.062	463.642	240.935	410.748	186.316	312.161	404.280	0.00024719	0.00044347	8.4575e-05	1034.9	3.3467e-06	3.7758e-06	1123.6	215.71	2.0784e-06	5.5136e-06	275.37	76.942	60.245	17.842	2.6542e-06	25.324	0.00050347	0.00071339	0.00019185	1020.9	7.2697e-06	7.647e-06	1112.4	214.64	7.3256e-06	8.0794e-06	275.39	78.201	60.709	18.099	7.5026e-06	25.656	200.552	294.670	271.658	190.022	292.923	344.040	189.998	197.542	329.533	360.136	197.324	203.414	204.403	212.062	345.915	211.324	-8191	255	
14711.503	1	1	0	0	0.20566	0.28543	0.11874	0.27093	0.067243	0.2653	0.32038	0.42432	0.043013	0.14634	0.06667	0.34779	0.028156	0.10604	0.31461	0.085985	-2.2354	-2.5229	-2.8937	-2.9146	-2.6854	-2.8729	-2.5	-3.2104	-2.8104	-2.6792	-3.1729	-2.5938	-2.8	-2.9125	-2.4479	-2.975	404.901	317.661	473.874	452.072	256.965	274.933	518.878	193.955	261.011	484.872	526.040	455.554	201.544	512.253	292.110	519.727	0.00021713	0.00041152	0.00010424	1034.7	2.5419e-06	3.6035e-06	1120.4	216.38	3.7255e-06	4.2747e-06	276.37	77.048	60.474	17.912	3.2384e-06	25.068	0.00048732	0.00072564	0.00019327	1019.2	7.5319e-06	7.7559e-06	1112.1	214.65	7.3433e-06	7.851e-06	275.43	78.124	60.693	18.108	7.5163e-06	25.616	201.559	242.511	293.506	190.059	307.311	364.460	189.962	197.423	289.254	347.438	197.278	203.698	203.766	211.737	311.117	211.381	-8191	255	
14711.600	1	1	0	0	0.03431	0.35224	0.12287	0.22637	0.096852	0.06764	0.28334	0.18223	0.21635	0.23733	0.066411	0.072366	0.29357	0.15428	0.089415	0.1634	-2.5667	-2.5479	-3.0271	-2.7958	-2.7229	-3.1188	-2.5833	-2.8667	-2.8812	-2.4917	-3.3708	-2.7	-2.5938	-3.0438	-2.5667	-2.8875	500.264	229.833	336.089	211.220	306.908	351.008	460.007	227.041	203.036	435.835	515.573	258.845	484.585	313.192	382.476	186.602	0.00022916	0.00021402	7.6107e-05	1034.3	2.2044e-06	4.5867e-06	1124.2	216.65	2.5269e-06	1.4781e-06	275.63	76.916	60.455	17.76	5.4712e-07	25.137	0.00049671	0.00067709	0.00019649	1019.8	7.2644e-06	7.5007e-06	1113.5	214.56	7.519e-06	8.1164e-06	274.39	78.164	60.749	18.077	7.7793e-06	25.652	204.394	272.439	262.841	190.129	305.531	328.115	190.305	197.201	303.046	317.543	197.400	203.576	203.936	211.849	343.981	211.042	-8191	255	
14711.696	1	1	0	0	0.22916	0.06182	0.29502	0.1322	0.16805	0.24859	0.098174	0.27566	0.049067	0.052391	0.061834	0.13032	0.11201	0.30527	0.10767	0.11529	-2.5604	-2.3896	-2.8	-2.6854	-2.8917	-3	-2.8292	-2.825	-2.8396	-2.5479	-2.8917	-2.9646	-2.4604	-2.975	-2.8063	-2.7542	534.277	475.229	215.200	487.243	439.189	470.552	190.691	529.212	186.123	297.327	182.781	302.019	411.165	220.571	325.851	238.153	0.00024666	0.00024278	9.1456e-05	1034.7	1.9262e-06	2.3051e-06	1122.2	215.42	2.3668e-06	1.4489e-06	277.43	77.156	60.389	17.85	1.9819e-06	25.271	0.00052755	0.00073593	0.00020307	1020.9	7.8708e-06	7.9754e-06	1114.2	214.68	7.6899e-06	8.305e-06	275.94	78.12	60.832	18.147	8.0545e-06	25.698	206.822	278.614	269.377	190.045	229.239	340.464	190.004	197.042	308.308	327.910	197.281	203.672	203.779	212.115	324.108	211.214	-8191	255	
14711.816	1	1	0	0	0.070298	0.072512	0.13059	0.24569	0.033795	0.23791	0.11966	0.17267	0.28849	0.11428	0.27977	0.067424	0.031859	0.23643	0.16963	0.033919	-2.55	-2.6375	-2.7562	-2.8271	-2.6	-2.8771	-2.8792	-2.7479	-3.1312	-2.5521	-2.7417	-3.0271	-2.5771	-3.0354	-2.7292	-2.7313	231.108	383.267	253.098	528.196	246.594	478.102	498.423	243.167	245.265	503.660	494.289	505.726	482.619	454.819	221.622	500.521	0.00019569	0.00016025	7.6201e-05	1037.7	1.8969e-06	1.3532e-06	1127.3	215.72	2.791e-06	1.4162e-06	275.85	77.606	59.981	17.869	1.5688e-06	25.141	0.0005136	0.00075823	0.00021012	1022	7.8387e-06	8.3291e-06	1114.1	214.58	7.5883e-06	8.3742e-06	275.76	78.327	60.733	18.149	7.9797e-06	25.677	203.287	285.157	249.197	190.055	303.365	297.881	190.001	197.546	323.500	298.996	197.047	203.659	203.887	211.700	241.355	211.534	-8191	255	
14711.912	1	1	0	0	0.095127	0.26028	0.22697	0.19492	0.25793	0.11522	0.069849	0.27729	0.24529	0.080287	0.14159	0.066678	0.17616	0.048674	0.17622	0.060866	-2.6979	-2.5729	-2.9958	-3.0458	-2.6083	-2.9854	-2.9917	-2.5292	-3.1063	-2.7125	-2.8021	-3.0229	-2.6833	-3.1979	-2.7521	-2.8104	513.511	402.915	433.607	532.328	385.950	220.890	264.432	509.249	443.694	363.238	235.417	516.772	193.652	215.511	444.392	506.846	0.00023532	0.00026025	1.2588e-05	1035	2.7314e-06	3.5884e-06	1131.1	216.33	1.8136e-06	1.9683e-06	276.83	77.128	60.103	17.822	2.8221e-06	25.017	0.00053079	0.00075472	0.00020934	1021.9	7.8905e-06	8.2091e-06	1116.6	214.87	8.0783e-06	8.4843e-06	276.28	78.083	60.772	18.124	8.2351e-06	25.658	207.534	257.378	259.298	189.964	291.951	323.104	189.870	197.359	276.513	343.805	197.357	203.569	203.725	211.922	279.521	211.308	-8191	255	
#DATA ENDS
