BOXY.EXE: ISS Imagent and Oximeter Data Acquisition Program Version 0.80
Ascii Record File

#ACQ INFORMATION
2  Detector Channels 
16  External MUX Channels 
1  Auxiliary Channels 
5000  Waveform (CCF) Frequency (Hz)
1  Waveforms Skipped 
30  Waveforms Averaged 
1  Cycles Averaged 
16  Acquisitions per Waveform 
10.0806  Updata Rate (Hz) 

#FILE INFORMATION
TRUE -- External MUX Channel results are PARSED.
FALSE -- AC DC and Phase are NOT grouped.
TRUE -- Companion Program Settings File CREATED.
FALSE -- AC data not excluded
FALSE -- DC data not excluded
FALSE -- Phase data not excluded
FALSE -- Auxillary Chn. data not excluded
Tab delimiters

#CALIBRATION STATE
TRUE -- Waveform Calibration Values APPLIED.


#AUX CALIBRATION VALUES
Val Type	aux-1	

Term	1.0000e+00	
Factor	0.0000e+00	


#WF CALIBRATION VALUES
A = Detector Channel
Val Type	A-AC1	A-AC2	A-AC3	A-AC4	A-AC5	A-AC6	A-AC7	A-AC8	A-AC9	A-AC10	A-AC11	A-AC12	A-AC13	A-AC14	A-AC15	A-AC16	A-DC1	A-DC2	A-DC3	A-DC4	A-DC5	A-DC6	A-DC7	A-DC8	A-DC9	A-DC10	A-DC11	A-DC12	A-DC13	A-DC14	A-DC15	A-DC16	A-Ph1	A-Ph2	A-Ph3	A-Ph4	A-Ph5	A-Ph6	A-Ph7	A-Ph8	A-Ph9	A-Ph10	A-Ph11	A-Ph12	A-Ph13	A-Ph14	A-Ph15	A-Ph16	

Term	0.00000e+00	0.00000e+00	0.00000e+00	0.00000e+00	0.00000e+00	0.00000e+00	0.00000e+00	0.00000e+00	0.00000e+00	0.00000e+00	0.00000e+00	0.00000e+00	0.00000e+00	0.00000e+00	0.00000e+00	0.00000e+00	0.00000e+00	0.00000e+00	0.00000e+00	0.00000e+00	0.00000e+00	0.00000e+00	0.00000e+00	0.00000e+00	0.00000e+00	0.00000e+00	0.00000e+00	0.00000e+00	0.00000e+00	0.00000e+00	0.00000e+00	0.00000e+00	0.00000e+00	0.00000e+00	0.00000e+00	0.00000e+00	0.00000e+00	0.00000e+00	0.00000e+00	0.00000e+00	0.00000e+00	0.00000e+00	0.00000e+00	0.00000e+00	0.00000e+00	0.00000e+00	0.00000e+00	0.00000e+00	
Factor	1.00000e+00	1.00000e+00	1.00000e+00	1.00000e+00	1.00000e+00	1.00000e+00	1.00000e+00	1.00000e+00	1.00000e+00	1.00000e+00	1.00000e+00	1.00000e+00	1.00000e+00	1.00000e+00	1.00000e+00	1.00000e+00	1.00000e+00	1.00000e+00	1.00000e+00	1.00000e+00	1.00000e+00	1.00000e+00	1.00000e+00	1.00000e+00	1.00000e+00	1.00000e+00	1.00000e+00	1.00000e+00	1.00000e+00	1.00000e+00	1.00000e+00	1.00000e+00	X	X	X	X	X	X	X	X	X	X	X	X	X	X	X	X	

B = Detector Channel
Val Type	B-AC1	B-AC2	B-AC3	B-AC4	B-AC5	B-AC6	B-AC7	B-AC8	B-AC9	B-AC10	B-AC11	B-AC12	B-AC13	B-AC14	B-AC15	B-AC16	B-DC1	B-DC2	B-DC3	B-DC4	B-DC5	B-DC6	B-DC7	B-DC8	B-DC9	B-DC10	B-DC11	B-DC12	B-DC13	B-DC14	B-DC15	B-DC16	B-Ph1	B-Ph2	B-Ph3	B-Ph4	B-Ph5	B-Ph6	B-Ph7	B-Ph8	B-Ph9	B-Ph10	B-Ph11	B-Ph12	B-Ph13	B-Ph14	B-Ph15	B-Ph16	

Term	0.00000e+00	0.00000e+00	0.00000e+00	0.00000e+00	0.00000e+00	0.00000e+00	0.00000e+00	0.00000e+00	0.00000e+00	0.00000e+00	0.00000e+00	0.00000e+00	0.00000e+00	0.00000e+00	0.00000e+00	0.00000e+00	0.00000e+00	0.00000e+00	0.00000e+00	0.00000e+00	0.00000e+00	0.00000e+00	0.00000e+00	0.00000e+00	0.00000e+00	0.00000e+00	0.00000e+00	0.00000e+00	0.00000e+00	0.00000e+00	0.00000e+00	0.00000e+00	1.18084e+01	-1.38873e+02	-1.24998e+02	-1.83146e+02	-7.27340e+01	-6.37033e+01	-1.60638e+02	-1.62015e+02	-3.12208e+01	-6.27560e+01	-1.72582e+02	-1.72483e+02	-1.83079e+02	-1.78092e+02	-9.56933e+01	-1.50919e+02	
Factor	4.44032e-05	1.51227e-04	4.59897e-05	1.52212e-01	1.40126e-06	1.22182e-06	1.72356e-01	5.67285e-02	1.37058e-06	1.58077e-06	8.83220e-02	2.95593e-02	2.80079e-02	9.00119e-03	1.53101e-06	1.30876e-02	1.36817e-06	1.41543e-06	3.92752e-07	7.76740e-02	1.54102e-08	1.54915e-08	8.23777e-02	2.87967e-02	1.53811e-08	1.54814e-08	4.31705e-02	1.44196e-02	1.41529e-02	4.56543e-03	1.54541e-08	6.40635e-03	X	X	X	X	X	X	X	X	X	X	X	X	X	X	X	X	



#DISTANCE SETTINGS
A = Detector Channel
A-1	A-2	A-3	A-4	A-5	A-6	A-7	A-8	A-9	A-10	A-11	A-12	A-13	A-14	A-15	A-16	

2.5000e+00	3.0000e+00	2.5000e+00	3.0000e+00	2.0000e+00	3.0000e+00	1.5000e+00	3.0000e+00	3.0000e+00	3.0000e+00	3.0000e+00	3.0000e+00	3.0000e+00	3.0000e+00	1.5000e+00	3.0000e+00	

B = Detector Channel
B-1	B-2	B-3	B-4	B-5	B-6	B-7	B-8	B-9	B-10	B-11	B-12	B-13	B-14	B-15	B-16	

1.0000e+01	1.0000e+01	1.0000e+01	1.4400e+00	1.0000e+01	1.0000e+01	1.5100e+00	1.9400e+00	1.0000e+01	1.0000e+01	1.9900e+00	2.4900e+00	2.4100e+00	2.9000e+00	1.0000e+01	2.9800e+00	




#DATA BEGINS
time	group	step	mark	flag	A-AC1	A-AC2	A-AC3	A-AC4	A-AC5	A-AC6	A-AC7	A-AC8	A-AC9	A-AC10	A-AC11	A-AC12	A-AC13	A-AC14	A-AC15	A-AC16	A-DC1	A-DC2	A-DC3	A-DC4	A-DC5	A-DC6	A-DC7	A-DC8	A-DC9	A-DC10	A-DC11	A-DC12	A-DC13	A-DC14	A-DC15	A-DC16	A-Ph1	A-Ph2	A-Ph3	A-Ph4	A-Ph5	A-Ph6	A-Ph7	A-Ph8	A-Ph9	A-Ph10	A-Ph11	A-Ph12	A-Ph13	A-Ph14	A-Ph15	A-Ph16	B-AC1	B-AC2	B-AC3	B-AC4	B-AC5	B-AC6	B-AC7	B-AC8	B-AC9	B-AC10	B-AC11	B-AC12	B-AC13	B-AC14	B-AC15	B-AC16	B-DC1	B-DC2	B-DC3	B-DC4	B-DC5	B-DC6	B-DC7	B-DC8	B-DC9	B-DC10	B-DC11	B-DC12	B-DC13	B-DC14	B-DC15	B-DC16	B-Ph1	B-Ph2	B-Ph3	B-Ph4	B-Ph5	B-Ph6	B-Ph7	B-Ph8	B-Ph9	B-Ph10	B-Ph11	B-Ph12	B-Ph13	B-Ph14	B-Ph15	B-Ph16	aux-1	digaux	

20916.883	1	1	0	256	0.16723	0.035557	0.24299	0.20919	0.21087	0.21724	0.32567	0.32936	0.12495	0.27451	0.067637	0.2289	0.30629	0.11007	0.17665	0.16272	-2.3375	-2.425	-2.7271	-2.7417	-2.3167	-2.7083	-2.8083	-2.5042	-2.7708	-2.625	-2.5771	-2.7125	-2.1167	-2.6875	-2.4708	-2.4146	167.576	394.574	248.971	387.733	205.011	329.967	413.306	364.576	305.112	374.135	284.511	390.614	360.031	368.790	338.520	393.450	0.00056131	0.00050356	0.00020667	1064.1	7.9264e-06	3.3939e-06	1159.2	218.86	3.3867e-06	1.5801e-06	275.43	78.504	61.664	17.845	8.7506e-06	24.794	0.00025566	0.00025526	6.9235e-05	1045.5	2.7316e-06	2.7295e-06	1136	217.25	2.6867e-06	2.6553e-06	273.57	78.379	61.451	18.2	2.6363e-06	25.261	327.632	158.777	198.571	89.539	222.412	204.805	89.515	97.521	253.354	239.031	97.000	104.018	104.296	111.313	201.114	110.614	-8191	255	
20917.004	1	1	0	0	0.14566	0.032969	0.028494	0.38316	0.11559	0.072607	0.2392	0.10502	0.10911	0.1228	0.19142	0.20867	0.19857	0.09903	0.16234	0.1996	-2.2229	-2.2792	-2.6188	-2.6833	-2.3292	-2.6083	-2.7896	-2.4083	-2.8542	-2.3771	-2.3354	-2.8187	-2.4271	-2.4979	-2.6417	-2.4125	192.863	134.871	144.132	423.209	138.146	308.124	435.002	119.859	236.490	375.045	299.060	333.307	109.717	399.838	139.218	323.651	0.00065043	0.00029053	0.00016052	1060.6	6.4217e-06	1.5972e-06	1155.7	219.41	4.2995e-06	2.8067e-06	276.85	78.582	61.389	17.957	5.3688e-06	24.929	0.0002481	0.00024033	6.872e-05	1043.3	2.722e-06	2.737e-06	1136.1	217.63	2.9062e-06	2.9797e-06	274.86	78.951	61.945	18.435	3.2522e-06	25.586	314.718	314.563	160.903	89.412	206.559	244.250	89.678	97.160	293.129	275.563	96.642	103.795	103.884	110.620	234.038	110.069	-8191	255	
20917.100	1	1	0	0	0.024559	0.22204	0.21361	0.35449	0.32453	0.080883	0.067267	0.059411	0.24815	0.18731	0.13911	0.11995	0.041751	0.10963	0.042679	0.056133	-2.2375	-2.5604	-2.4167	-2.8375	-2.3458	-2.5938	-2.6708	-2.1917	-2.775	-2.5687	-2.5333	-2.8792	-2.3042	-2.675	-2.7854	-2.2896	184.720	94.679	335.986	403.926	112.052	379.452	368.838	234.889	136.052	417.763	167.883	285.365	102.107	393.713	201.995	389.458	0.00056368	0.00025641	0.00025392	1065.5	5.4876e-06	2.9135e-06	1161.1	220.88	5.2577e-06	3.7906e-06	278.8	78.822	62.228	17.911	7.4108e-06	24.925	0.00030391	0.00030565	8.5388e-05	1050.3	3.3372e-06	3.3422e-06	1141.3	219.33	3.2546e-06	3.2267e-06	277.14	79.128	62.171	18.353	3.113e-06	25.49	305.410	106.964	178.773	89.348	269.946	314.557	89.528	97.180	265.130	178.753	96.537	103.784	104.553	110.713	176.243	110.323	-8191	255	
20917.195	1	1	0	0	0.23681	0.25988	0.2637	0.29974	0.19512	0.12873	0.10229	0.3537	0.31368	0.24544	0.097469	0.30115	0.11394	0.23038	0.12219	0.26299	-2.2562	-2.4813	-2.2729	-2.8333	-2.2604	-2.5438	-2.9562	-2.2708	-2.6083	-2.6375	-2.4042	-2.7958	-2.45	-2.4708	-2.7208	-2.4646	429.821	207.241	264.624	420.127	275.373	400.677	325.266	322.923	168.688	113.032	225.324	117.160	96.945	82.055	357.848	391.004	0.00049412	0.00047463	0.00019753	1062.8	5.2331e-06	1.6155e-06	1160.8	220.35	2.4694e-06	5.8421e-06	278.35	78.652	61.249	17.821	5.8016e-06	24.814	0.00028487	0.000279	7.7727e-05	1048.8	3.0621e-06	3.0469e-06	1138.6	218.48	2.9906e-06	3.0586e-06	276.34	78.886	61.817	18.379	2.9718e-06	25.44	319.313	189.251	291.571	89.344	229.403	308.137	89.596	97.442	319.401	217.989	96.788	104.063	104.204	111.129	218.371	110.530	-8191	255	
20917.291	1	1	0	0	0.19138	0.050529	0.12046	0.17643	0.22572	0.15138	0.064287	0.21004	0.15404	0.12755	0.058417	0.23211	0.11432	0.12455	0.16337	0.079994	-2.2229	-2.6458	-2.45	-3.0667	-2.4979	-2.6	-2.9229	-2.3083	-2.5771	-2.6562	-2.5021	-2.8937	-2.5708	-2.3521	-2.9167	-2.5625	85.897	190.999	92.520	80.605	309.878	352.410	112.848	146.154	127.739	137.233	265.663	361.718	340.231	241.487	288.537	92.167	0.00064789	0.00060985	0.00011237	1062.9	3.9474e-06	3.4033e-06	1162.8	219.5	4.5115e-06	5.5256e-06	277.79	79.047	61.727	17.886	2.1928e-06	24.942	0.00027669	0.00026943	7.5161e-05	1047.1	3.0054e-06	2.9846e-06	1139.6	218.54	3.0707e-06	3.0044e-06	275.56	79.008	62.193	18.385	3.1094e-06	25.546	310.075	163.850	164.226	89.671	144.452	352.027	89.589	97.485	310.745	194.356	96.952	103.545	104.152	111.065	244.906	110.726	-8191	255	
20917.412	1	1	0	0	0.16209	0.079451	0.11543	0.19329	0.22336	0.17341	0.10025	0.1913	0.087675	0.077357	0.16912	0.25205	0.11918	0.094409	0.15871	0.13828	-2.0396	-2.4833	-2.1521	-2.8542	-2.2833	-2.5583	-2.8854	-2.5062	-2.7562	-2.7958	-2.3917	-2.8958	-2.5833	-2.3396	-2.7583	-2.3146	307.668	426.144	308.549	404.383	85.591	135.121	376.077	384.291	133.957	382.712	386.968	163.434	92.868	300.676	396.376	340.633	0.00052401	0.00010744	2.155e-05	1065.8	4.5266e-06	3.6146e-06	1164.4	221	3.8036e-06	3.1576e-06	278.71	78.757	62.302	17.809	6.8381e-06	24.939	0.00028813	0.00028767	7.8881e-05	1052.1	3.2426e-06	3.2163e-06	1143.7	220.16	3.3184e-06	3.2851e-06	277.89	79.389	62.694	18.455	3.344e-06	25.72	306.939	196.622	334.700	89.417	152.759	267.707	89.376	97.486	282.269	320.676	96.669	103.909	104.075	111.050	245.170	110.164	-8191	255	
20917.484	1	1	0	0	0.14778	0.13707	0.18855	0.15313	0.18619	0.23925	0.18021	0.27686	0.21548	0.095672	0.16139	0.16867	0.10544	0.19604	0.12356	0.072664	-2.1333	-2.5958	-2.1583	-2.725	-2.5521	-2.5583	-2.9604	-2.5417	-2.525	-2.7417	-2.2458	-2.7146	-2.6792	-2.2771	-2.6271	-2.3937	241.944	249.437	341.235	331.188	199.354	265.825	286.652	234.244	418.655	110.261	346.274	384.276	316.751	375.697	157.790	284.224	0.00051073	0.00057559	0.00010529	1071	2.2227e-06	1.1043e-06	1162.3	220.81	4.6038e-06	3.5994e-06	280.36	79.654	62.403	17.894	1.0574e-05	25.148	0.00030318	0.000295	8.1877e-05	1055.3	3.2218e-06	3.1694e-06	1145.1	220.4	3.1631e-06	3.1275e-06	277.6	79.288	62.393	18.43	3.032e-06	25.655	312.971	137.084	227.870	89.438	342.234	268.987	89.506	97.298	258.267	326.447	96.901	104.015	104.114	111.302	240.631	110.259	-8191	255	
20917.580	1	1	0	0	0.11875	0.31604	0.053797	0.12209	0.17372	0.074223	0.23571	0.29266	0.12381	0.10264	0.23767	0.19531	0.084924	0.2415	0.21581	0.071667	-2.0833	-2.6646	-2.2979	-2.8812	-2.7667	-2.2771	-2.8375	-2.4708	-2.3396	-2.7542	-2.2854	-2.6479	-2.7354	-2.2854	-2.8458	-2.6937	303.002	236.310	436.831	364.102	207.347	267.513	364.556	322.838	375.424	263.047	83.303	93.945	166.119	350.453	319.028	333.350	0.00054981	0.00039916	0.00014974	1070.3	4.7142e-06	4.9994e-06	1164.6	221.02	4.7275e-06	3.6665e-06	278.1	79.349	62.33	17.931	2.8009e-06	25.028	0.00028132	0.00027271	7.5637e-05	1054.4	2.9579e-06	2.9132e-06	1144.8	219.64	2.9082e-06	2.8677e-06	276.5	79.16	62.302	18.379	2.898e-06	25.561	309.811	109.603	193.519	89.579	188.667	265.423	89.796	97.390	324.738	171.652	96.570	104.059	104.372	111.205	123.770	110.306	-8191	255	
20917.699	1	1	0	0	0.080251	0.14338	0.16661	0.19639	0.23349	0.12577	0.25146	0.082757	0.11977	0.015384	0.082525	0.052794	0.23053	0.11794	0.2333	0.23769	-1.8542	-2.6813	-2.3146	-2.825	-2.5458	-2.4313	-2.8604	-2.6167	-2.4625	-2.9062	-2.5396	-2.6771	-2.8208	-2.3667	-2.6437	-2.5625	310.725	273.001	283.431	414.992	319.582	327.982	386.333	415.571	426.015	312.373	402.151	297.696	116.124	136.640	253.123	385.451	0.0006829	0.00022478	0.00013051	1065.9	1.7044e-06	4.0436e-06	1169.4	221.36	4.3783e-06	4.3526e-06	279.45	79.323	62.348	17.97	4.3332e-06	25.001	0.00027498	0.00026821	7.5877e-05	1051.8	3.0299e-06	3.011e-06	1145.6	219.93	3.0896e-06	3.0769e-06	277.31	79.218	62.229	18.457	3.0462e-06	25.552	316.109	204.247	139.186	89.586	274.217	338.806	89.582	97.487	361.164	314.233	96.571	103.829	104.195	111.020	195.137	110.004	-8191	255	
20917.795	1	1	0	0	0.031202	0.12027	0.2427	0.23972	0.1278	0.105	0.15804	0.32449	0.092077	0.034784	0.09396	0.11837	0.30468	0.32875	0.12813	0.095404	-1.725	-2.8	-2.5042	-2.85	-2.7604	-2.3083	-2.8438	-2.5875	-2.3271	-2.8187	-2.4958	-2.6083	-2.8417	-2.3375	-2.625	-2.9104	168.924	352.257	99.794	419.948	185.054	121.545	400.943	344.844	106.952	404.488	332.249	123.747	435.995	357.787	250.261	423.836	0.00061279	0.00055115	0.00010192	1063	3.5441e-06	5.6667e-07	1164.5	222.18	7.6249e-06	7.1868e-06	278.84	79.277	61.614	17.945	5.9606e-06	25.043	0.0002829	0.00027967	7.7826e-05	1053	3.0612e-06	3.0229e-06	1143.1	219.99	2.9726e-06	2.9949e-06	277.16	79.175	62.063	18.422	3.0421e-06	25.565	305.759	115.066	202.743	89.721	242.192	135.797	89.648	97.326	301.977	199.002	96.719	103.775	104.523	110.610	199.326	110.355	-8191	255	
20917.891	1	1	0	0	0.016505	0.020957	0.12844	0.34692	0.14746	0.1612	0.27555	0.20072	0.27416	0.21229	0.21313	0.16499	0.081997	0.096936	0.24012	0.17191	-2.0062	-2.6771	-2.3583	-2.5667	-2.8646	-2.2583	-2.7042	-2.8729	-2.2771	-2.7792	-2.5646	-2.4333	-3.0021	-2.4083	-2.5646	-2.8729	288.221	102.589	99.246	388.193	264.234	351.795	418.118	93.366	305.419	114.668	399.103	414.255	373.574	288.041	236.674	332.958	0.00049713	0.00042018	0.00012649	1066.2	5.1135e-06	2.0528e-06	1166.7	221.01	3.0043e-06	3.8982e-06	279.22	79.397	62.288	17.909	2.8074e-06	25.134	0.00028327	0.00027768	7.8116e-05	1053.2	3.0598e-06	3.045e-06	1144.4	219.96	3.0506e-06	3.052e-06	277.13	79.205	62.141	18.398	3.0642e-06	25.56	304.787	149.231	202.428	89.519	234.177	274.875	89.621	97.615	251.936	285.501	96.378	103.809	104.329	111.058	237.797	110.252	-8191	255	
20917.986	1	1	0	0	0.20829	0.058673	0.11976	0.25259	0.12396	0.12449	0.039058	0.094953	0.048765	0.18394	0.043547	0.20691	0.15625	0.30847	0.1135	0.22088	-1.7687	-2.8458	-2.6729	-2.4458	-2.8438	-2.6021	-2.5979	-2.8125	-2.3854	-2.6625	-2.5729	-2.5229	-2.9	-2.475	-2.6375	-2.7083	317.418	434.416	223.698	91.088	423.121	412.275	412.930	371.187	108.776	375.402	415.217	106.713	90.361	420.704	241.924	436.775	0.00064624	0.00047592	0.00019361	1069.1	1.67e-06	3.6659e-06	1165.7	221.91	5.0456e-06	1.563e-06	278.9	78.502	62.027	17.977	5.3188e-06	24.861	0.00028351	0.0002805	7.7586e-05	1053.6	3.0789e-06	3.0752e-06	1144.2	220.26	3.0407e-06	3.0347e-06	276.99	79.128	62.125	18.422	3.0098e-06	25.505	312.699	240.727	143.923	89.501	290.217	236.156	89.631	97.251	279.395	163.040	96.739	103.722	104.250	111.642	204.367	110.283	-8191	255	
20918.082	1	1	0	0	0.17868	0.07278	0.16207	0.14731	0.16735	0.19592	0.21781	0.095278	0.20146	0.092156	0.17015	0.20309	0.3652	0.099044	0.016439	0.14734	-1.7354	-2.6833	-2.4042	-2.4188	-2.7854	-2.4875	-2.7729	-2.7792	-2.3563	-2.5896	-2.8875	-2.3771	-2.7417	-2.5896	-2.4062	-2.9833	223.866	407.870	118.209	284.647	124.901	189.395	354.263	431.923	157.900	422.949	203.316	113.338	375.836	349.968	107.520	86.726	0.00068795	0.00079471	1.3861e-05	1073.2	6.2873e-06	3.002e-06	1162.8	221.4	3.8129e-06	1.5794e-06	279.32	79.198	62.062	17.718	2.8817e-06	25.049	0.00027488	0.00027263	7.5402e-05	1052.5	2.972e-06	2.9745e-06	1143.8	219.65	2.9919e-06	2.9626e-06	277.24	79.143	62.143	18.324	3.0241e-06	25.603	305.521	111.776	95.858	89.276	296.782	223.611	89.512	97.262	299.303	261.973	96.506	103.688	104.066	110.793	112.880	110.479	-8191	255	
20918.180	1	1	0	0	0.30787	0.099376	0.098921	0.2407	0.21355	0.055318	0.24584	0.10162	0.32272	0.20004	0.20146	0.20539	0.31147	0.27477	0.15072	0.088007	-1.9708	-2.6833	-2.7333	-2.425	-2.7896	-2.5687	-2.6625	-2.9062	-2.4	-2.5896	-2.7958	-2.2792	-2.5646	-2.5229	-2.175	-2.8021	398.125	175.953	377.329	335.959	131.818	313.022	348.434	425.496	150.053	287.396	269.525	361.331	312.710	145.770	335.033	93.746	0.00056336	0.00039759	0.00013899	1069	6.7681e-06	4.1501e-06	1167.2	221.96	1.1987e-06	6.9816e-06	278.32	78.59	62.028	17.917	3.1182e-06	24.832	0.00028462	0.00027468	7.6846e-05	1053.6	3.071e-06	3.0101e-06	1143.4	219.81	3.101e-06	3.0508e-06	276.43	79.086	62.221	18.387	3.1122e-06	25.596	307.956	192.139	122.290	89.481	281.449	191.624	89.415	97.149	348.784	227.212	96.373	103.698	104.462	110.723	303.253	110.464	-8191	255	
20918.301	1	1	0	0	0.45401	0.23685	0.12157	0.2134	0.20694	0.092881	0.20402	0.17685	0.16145	0.17194	0.32547	0.18521	0.24929	0.14634	0.179	0.055918	-2.0167	-2.5104	-2.7812	-2.4896	-2.6979	-2.6667	-2.5292	-2.8896	-2.3125	-2.475	-2.7271	-2.4292	-2.85	-2.625	-2.3333	-2.7854	121.613	198.965	266.394	428.862	259.453	106.804	351.009	123.529	346.904	93.762	344.665	313.063	380.216	412.458	422.099	330.032	0.00071004	0.00033361	0.00010021	1067.8	3.9868e-06	3.2778e-06	1165	219.42	1.4311e-06	5.2554e-06	277.75	79.398	61.815	17.936	1.8383e-06	24.861	0.00028898	0.00028864	8.0292e-05	1053.1	3.1458e-06	3.1307e-06	1141.6	219.43	3.0515e-06	3.0347e-06	277.14	78.968	61.912	18.348	2.9062e-06	25.483	315.819	187.516	147.895	89.479	296.093	180.997	89.693	97.237	353.048	302.513	96.947	103.915	104.753	110.920	284.680	110.499	-8191	255	
20918.396	1	1	0	0	0.021439	0.3205	0.21964	0.020014	0.18037	0.1333	0.17695	0.13555	0.083001	0.26649	0.34666	0.03348	0.10847	0.2498	0.18377	0.25274	-1.9104	-2.3875	-2.6958	-2.5979	-2.8396	-2.6417	-2.5146	-3.1125	-2.4896	-2.2708	-3.0208	-2.6708	-2.7042	-2.8146	-2.4313	-2.7771	277.338	234.301	171.338	400.566	211.497	182.609	426.128	374.272	231.395	143.824	426.207	225.383	233.580	349.461	174.448	373.246	0.00071699	0.00065311	0.00018518	1063.2	4.6487e-06	3.1834e-06	1161.1	221.23	6.2196e-06	2.4962e-06	278.16	78.798	61.763	17.877	4.6375e-06	24.98	0.0002713	0.00026311	7.1163e-05	1051.6	2.8534e-06	2.8016e-06	1138.7	218.92	2.768e-06	2.8141e-06	275.71	78.701	61.715	18.244	2.7626e-06	25.391	301.594	166.693	177.058	89.675	216.219	233.146	89.723	97.135	262.116	320.633	96.752	103.874	104.577	111.361	244.594	110.082	-8191	255	
20918.492	1	1	0	0	0.18389	0.078979	0.096214	0.32439	0.16685	0.092566	0.1203	0.23216	0.35165	0.18187	0.44112	0.34934	0.39084	0.051486	0.12213	0.2514	-2.2104	-2.4229	-2.6771	-2.475	-2.6292	-2.7646	-2.4396	-2.6479	-2.4604	-2.45	-3.0271	-2.5771	-2.6813	-2.7417	-2.35	-2.6854	376.041	423.077	230.450	168.580	418.406	120.238	82.147	233.189	319.306	414.866	407.141	92.868	240.067	114.703	236.193	240.897	0.00052842	0.00012677	0.00013566	1065.3	5.2661e-06	3.7257e-06	1163.2	219.97	3.3013e-06	5.4619e-06	279.11	78.54	61.516	17.783	1.4117e-06	24.843	0.00026248	0.00025633	7.07e-05	1048.7	2.8651e-06	2.8072e-06	1139.3	218.51	2.909e-06	2.9558e-06	276.09	78.849	61.876	18.331	3.021e-06	25.512	313.107	216.412	259.842	89.627	325.555	271.665	89.743	97.228	291.453	286.070	96.855	104.113	104.184	111.412	276.621	110.302	-8191	255	
20918.588	1	1	0	0	0.14373	0.27432	0.12779	0.22693	0.28363	0.14736	0.42397	0.16145	0.14339	0.12886	0.26629	0.16728	0.1247	0.16566	0.39466	0.21062	-2.0146	-2.2667	-2.7604	-2.6896	-2.5646	-2.7292	-2.4938	-2.75	-2.7292	-2.275	-2.9875	-2.5667	-2.5208	-2.9146	-2.4875	-2.7104	192.524	371.070	262.122	406.281	343.401	347.263	382.999	408.615	138.305	410.408	302.593	365.715	125.986	228.558	436.160	93.664	0.0005718	0.0005001	0.00019237	1061.9	2.6544e-06	3.3706e-06	1159.1	219.6	5.9486e-06	1.6538e-06	278.75	78.949	61.887	17.897	2.7471e-06	24.851	0.00028462	0.00027907	7.7854e-05	1048.9	3.0769e-06	3.05e-06	1139.7	218.92	3.0504e-06	3.0628e-06	276.63	78.914	62.139	18.255	3.0085e-06	25.456	304.934	123.766	153.517	89.595	158.697	125.272	89.557	97.445	279.617	126.779	96.761	104.080	104.411	111.681	416.899	109.915	-8191	255	
20918.707	1	1	0	0	0.19349	0.34714	0.21804	0.29083	0.19356	0.28202	0.38401	0.018006	0.19015	0.30887	0.079588	0.069488	0.15923	0.14426	0.16053	0.13595	-2.2167	-2.4917	-2.8812	-2.7604	-2.575	-2.7854	-2.6896	-2.5229	-2.7458	-2.3958	-2.9062	-2.5542	-2.3875	-2.8833	-2.5146	-2.6667	150.843	171.777	200.798	103.218	280.279	325.862	359.921	376.062	233.944	117.077	388.863	159.889	433.714	213.215	127.212	308.268	0.00052547	0.00025254	7.9991e-05	1061.1	1.7307e-06	3.6437e-06	1161	219.92	3.092e-06	5.0987e-06	276.8	78.286	61.171	17.658	1.0972e-05	24.618	0.00026995	0.00026436	7.263e-05	1046.5	2.8376e-06	2.7759e-06	1136.8	217.84	2.777e-06	2.7492e-06	274.41	78.143	61.378	18.076	2.7561e-06	25.226	318.948	159.538	179.807	89.685	390.416	281.569	89.754	97.729	328.612	359.512	96.996	103.998	104.584	111.491	234.885	110.052	-8191	255	
20918.779	1	1	0	0	0.21749	0.17077	0.05425	0.21858	0.15814	0.058366	0.16446	0.12133	0.072317	0.23022	0.31506	0.11448	0.26725	0.10957	0.090462	0.36429	-2.2604	-2.2271	-2.5875	-2.7792	-2.3917	-2.8083	-2.375	-2.6583	-2.7729	-2.3271	-2.7083	-2.6708	-2.425	-2.7583	-2.5354	-2.4938	402.890	184.487	387.337	365.472	295.686	284.913	350.735	244.630	402.761	437.620	154.048	315.541	271.247	318.885	362.595	262.091	0.00061471	0.00024268	0.00016769	1059.5	4.4058e-06	1.6082e-06	1153.4	217.46	7.6568e-07	2.9738e-06	276.92	78.458	62.048	17.821	3.8035e-06	24.804	0.00025741	0.0002508	6.9687e-05	1041.4	2.7947e-06	2.6931e-06	1133.1	216.93	2.7864e-06	2.761e-06	273.99	78.219	61.537	18.158	2.7284e-06	25.18	303.909	173.712	162.210	89.798	183.077	293.037	89.585	97.456	217.393	153.548	96.609	103.968	104.331	110.993	221.656	110.108	-8191	255	
20918.875	1	1	0	0	0.2093	0.11519	0.15947	0.10168	0.11469	0.16241	0.21081	0.21595	0.14931	0.096206	0.2428	0.27212	0.15326	0.13406	0.35644	0.21287	-2.4104	-2.4125	-2.5563	-2.8583	-2.4917	-2.8146	-2.8563	-2.4979	-2.8354	-2.3042	-2.5375	-2.6437	-2.55	-2.8458	-2.6854	-2.5333	327.063	298.741	208.001	212.650	167.844	427.020	353.076	299.316	143.438	381.594	96.156	416.673	264.092	427.980	193.818	340.356	0.0005468	0.0004856	5.34e-05	1060.6	4.9545e-06	1.6877e-06	1154.6	218.47	7.2658e-06	4.149e-06	276.7	78.504	61.991	17.707	5.6824e-06	24.777	0.00025905	0.00024782	6.9205e-05	1043.2	2.762e-06	2.7482e-06	1132.1	216.62	2.7107e-06	2.7049e-06	274.04	78.183	61.33	18.102	2.743e-06	25.189	313.698	169.843	236.119	89.727	245.897	388.688	89.546	97.554	266.618	153.362	96.768	103.765	104.317	111.070	141.066	110.849	-8191	255	
20918.971	1	1	0	0	0.3753	0.13981	0.202	0.068099	0.084674	0.26613	0.037194	0.07221	0.085106	0.21662	0.10272	0.02095	0.32669	0.15751	0.33257	0.26527	-2.2417	-2.4417	-2.4771	-2.8438	-2.2396	-2.7479	-2.5812	-2.5646	-2.9271	-2.4229	-2.4229	-2.8083	-2.2354	-2.6417	-2.4583	-2.4271	139.577	133.807	135.664	94.549	383.862	248.770	133.571	422.729	186.975	202.132	345.713	271.775	215.327	99.864	429.480	175.042	0.0005845	0.00029982	0.00022305	1062.8	1.076e-06	6.1608e-06	1154.7	219.52	7.3736e-06	3.6673e-06	276.74	78.648	61.797	17.721	6.1368e-06	24.596	0.00025239	0.00024574	6.9806e-05	1043.9	2.7413e-06	2.7048e-06	1132.8	217.09	2.706e-06	2.7082e-06	273.74	78.155	61.49	18.17	2.6966e-06	25.183	330.621	144.486	151.354	89.574	380.649	217.357	89.866	97.255	295.772	184.887	96.840	104.068	104.252	111.573	268.884	110.435	-8191	255	
20919.092	1	1	0	0	0.30983	0.062316	0.21775	0.14363	0.22376	0.13151	0.13693	0.29327	0.074884	0.15098	0.19058	0.33797	0.23644	0.24675	0.12123	0.25818	-2.5042	-2.4271	-2.4354	-2.9583	-2.2396	-2.8083	-2.8167	-2.4354	-2.9146	-2.4313	-2.5375	-2.7188	-2.3688	-2.6646	-2.4604	-2.5208	205.111	307.020	228.637	196.423	287.810	366.396	82.600	426.497	241.698	219.114	98.167	338.660	290.104	318.759	177.273	374.941	0.00053838	0.00044897	9.6344e-05	1059.8	3.7831e-06	2.8346e-06	1155	218.49	4.7227e-06	2.5261e-06	275.75	77.858	61.608	17.759	1.5547e-06	24.706	0.00024968	0.00024187	6.8549e-05	1042.5	2.6603e-06	2.6605e-06	1131.2	216.64	2.6273e-06	2.5927e-06	273.41	77.852	61.198	18.067	2.5377e-06	25.061	308.008	188.795	128.100	89.487	249.955	200.672	89.619	97.290	260.004	254.692	96.860	104.181	104.178	111.198	293.386	110.420	-8191	255	
20919.188	1	1	0	0	0.29644	0.37475	0.30007	0.06465	0.16831	0.39196	0.043339	0.50466	0.12388	0.062424	0.13895	0.15629	0.18582	0.18314	0.16702	0.098345	-2.3563	-2.3375	-2.4542	-2.7729	-2.1896	-2.6896	-2.7604	-2.45	-2.7167	-2.6896	-2.7854	-2.7792	-2.2771	-2.7062	-2.7438	-2.4021	305.407	214.953	180.581	413.295	341.652	416.112	435.369	422.513	124.723	116.471	423.449	166.066	147.263	401.773	222.064	433.983	0.00066241	0.00025942	0.00016886	1057.5	2.4632e-06	2.8207e-06	1151.8	218.79	7.6603e-06	2.9909e-06	274.49	78.428	61.423	17.632	1.9442e-06	24.768	0.0002364	0.00023429	6.4254e-05	1037.9	2.5569e-06	2.5503e-06	1129.4	216.21	2.5655e-06	2.5488e-06	272.38	77.939	61.139	18.048	2.5671e-06	25.11	317.611	126.678	186.466	89.623	325.786	379.043	89.323	97.295	254.632	182.542	96.881	104.124	104.233	111.453	185.537	110.263	-8191	255	
20919.283	1	1	0	0	0.13382	0.23509	0.23554	0.38482	0.39087	0.16751	0.1614	0.060792	0.17571	0.14631	0.20962	0.2607	0.18938	0.13324	0.17165	0.050999	-2.4208	-2.5354	-2.3417	-2.9938	-2.5667	-2.575	-2.7792	-2.475	-2.7021	-2.6292	-2.2792	-3.0333	-2.3896	-2.4896	-2.8312	-2.3187	93.988	182.557	405.022	117.183	170.532	113.761	347.847	97.669	253.599	130.756	384.341	302.194	266.230	371.911	373.655	131.325	0.0005636	0.00013656	6.3303e-05	1052.6	2.676e-06	4.55e-06	1152.7	218.34	2.6231e-06	1.9029e-06	275.4	78.753	61.375	17.649	5.8052e-06	24.671	0.00023985	0.00023515	6.5568e-05	1038.9	2.6077e-06	2.6155e-06	1129.1	216.2	2.5913e-06	2.5984e-06	272.98	78.097	61.114	18.066	2.6191e-06	25.107	311.361	90.280	206.592	89.608	259.164	265.060	89.894	96.868	237.459	147.892	96.890	103.695	104.198	111.485	192.480	110.241	-8191	255	
20919.381	1	1	0	0	0.13638	0.33048	0.18572	0.12793	0.086441	0.061001	0.23134	0.10897	0.21026	0.17401	0.16609	0.17892	0.22022	0.16015	0.16333	0.11121	-2.2458	-2.6458	-2.3333	-2.7875	-2.5042	-2.6188	-2.7375	-2.3104	-2.5396	-2.6604	-2.4854	-2.8708	-2.4313	-2.5458	-2.6875	-2.4479	90.757	345.153	285.770	112.242	406.998	148.641	428.635	139.690	142.410	252.461	399.649	360.073	383.896	313.970	362.022	381.034	0.00058465	0.00030619	0.000135	1060	6.5302e-06	2.7282e-06	1149.3	218.62	1.7826e-06	4.699e-06	275.69	78.189	61.557	17.836	8.3646e-06	24.752	0.00024249	0.00024068	6.5879e-05	1038.7	2.7003e-06	2.6328e-06	1128.9	216.51	2.6526e-06	2.685e-06	273.25	77.908	61.123	18.135	2.622e-06	25.168	303.202	100.060	176.586	89.340	201.071	227.373	89.454	97.727	148.729	228.033	96.817	103.998	104.498	111.183	224.457	110.034	-8191	255	
20919.477	1	1	0	0	0.10174	0.21312	0.13139	0.32933	0.17889	0.23865	0.30477	0.2086	0.088444	0.173	0.067912	0.14769	0.16258	0.14531	0.24481	0.24898	-2.4458	-2.6354	-2.2458	-3.0167	-2.4104	-2.4	-3.0938	-2.6104	-2.65	-2.7021	-2.4104	-2.6167	-2.4979	-2.4688	-2.8708	-2.5604	87.816	167.437	262.356	403.800	275.433	216.306	92.389	390.069	275.005	220.121	389.925	374.835	236.715	362.082	83.010	148.127	0.00057635	0.00010791	0.00017079	1055.6	3.8765e-06	6.3458e-07	1155.8	217.93	5.0498e-06	3.6351e-06	275.32	78.375	61.348	17.724	5.6176e-06	24.709	0.00024358	0.00023731	6.4583e-05	1037	2.5583e-06	2.5463e-06	1129.1	216.23	2.5619e-06	2.5072e-06	272.01	77.814	61.021	18.057	2.5363e-06	25.053	314.956	246.154	183.396	89.602	244.112	393.594	89.595	97.269	218.172	175.662	96.666	104.096	104.622	110.912	175.493	110.601	-8191	255	
20919.572	1	1	0	0	0.18293	0.17411	0.2044	0.18382	0.12079	0.15528	0.1374	0.23688	0.20936	0.090058	0.17162	0.17468	0.2978	0.08105	0.18607	0.18249	-2.0646	-2.6542	-2.2313	-2.725	-2.55	-2.3417	-2.9437	-2.4896	-2.4125	-2.7438	-2.3771	-2.7625	-2.5458	-2.4479	-2.7729	-2.45	376.121	241.363	393.175	80.841	380.562	247.394	221.483	350.108	109.748	189.038	347.491	169.872	345.770	292.740	387.815	363.497	0.00058244	0.00019668	0.00014073	1056.3	7.0145e-06	2.8052e-06	1149.3	218.1	3.9184e-06	4.5967e-06	274.49	77.863	61.162	17.734	6.8042e-06	24.696	0.00023647	0.00022908	6.4978e-05	1038	2.4933e-06	2.4905e-06	1126.5	216.24	2.4525e-06	2.3919e-06	272.32	77.648	60.879	17.987	2.3579e-06	25.02	315.217	427.805	268.607	89.435	235.901	262.679	89.595	97.436	197.440	423.790	97.011	103.961	104.231	110.978	216.268	110.670	-8191	255	
20919.670	1	1	0	0	0.30281	0.37896	0.20298	0.2036	0.27475	0.059685	0.29919	0.068869	0.38702	0.21692	0.21773	0.18301	0.12551	0.090215	0.17998	0.22098	-1.9708	-2.7104	-2.3667	-2.9375	-2.65	-2.4458	-2.9771	-2.6208	-2.4562	-2.8521	-2.3146	-2.7021	-2.775	-2.5646	-2.7562	-2.475	257.378	125.227	218.322	389.006	368.384	323.987	343.000	173.031	231.984	340.078	391.888	411.858	372.716	195.041	257.294	435.669	0.00068852	0.00050699	9.9947e-05	1057.7	5.9222e-06	4.4179e-06	1150.4	218	1.5135e-06	6.3266e-06	275.28	77.906	61.817	17.752	5.4234e-06	24.438	0.00022637	0.00022197	6.1336e-05	1038.1	2.4914e-06	2.463e-06	1127	215.7	2.5036e-06	2.4709e-06	271.94	77.572	61.087	18.029	2.5154e-06	25.012	313.005	150.718	262.334	89.757	238.690	241.059	89.501	97.443	422.658	265.880	96.943	103.914	104.378	110.930	198.606	110.482	-8191	255	
20919.787	1	1	0	0	0.17309	0.28719	0.092631	0.31371	0.18591	0.12443	0.15119	0.17874	0.072486	0.066764	0.28477	0.21954	0.066998	0.17758	0.13801	0.17207	-1.925	-2.6146	-2.3396	-2.9708	-2.7062	-2.4417	-2.7562	-2.5708	-2.2458	-2.8083	-2.375	-2.5312	-2.8542	-2.4917	-2.7438	-2.4583	185.058	84.088	323.640	347.300	331.794	358.557	393.218	283.416	246.899	84.176	343.561	412.031	194.831	162.659	211.243	175.270	0.00065693	0.00017785	0.00015157	1056.3	5.2389e-06	2.4108e-06	1153.3	216.95	6.5056e-06	4.3101e-06	275.7	78.538	61.414	17.679	2.3358e-06	24.515	0.0002352	0.00022838	6.4117e-05	1038	2.5365e-06	2.4832e-06	1127.8	215.49	2.5155e-06	2.4944e-06	271.4	77.826	60.871	17.982	2.5314e-06	25.042	312.791	228.539	151.411	89.521	201.161	383.705	89.733	97.496	321.203	195.374	96.776	103.838	104.208	111.349	113.218	110.071	-8191	255	
20919.885	1	1	0	0	0.11584	0.14612	0.12976	0.20789	0.018859	0.08234	0.09025	0.078866	0.45746	0.25788	0.050028	0.1871	0.13972	0.23522	0.32404	0.28897	-1.8854	-2.8333	-2.2833	-2.7375	-2.8688	-2.4688	-2.9437	-2.6021	-2.2188	-2.7729	-2.4208	-2.4875	-2.6688	-2.1604	-2.6042	-2.7125	304.762	332.802	164.918	415.526	335.066	406.756	89.490	154.558	294.911	299.138	150.164	130.160	437.535	324.563	279.433	323.163	0.00054838	0.00034171	0.00010249	1054.4	7.204e-06	2.0124e-06	1151.6	218.22	1.016e-06	5.7314e-06	275.78	78.228	60.949	17.619	8.4569e-07	24.665	0.00023399	0.00023105	6.4073e-05	1036.7	2.5409e-06	2.5451e-06	1127.2	215.72	2.5094e-06	2.4932e-06	272.12	77.812	60.894	17.988	2.5677e-06	25.009	309.980	108.032	166.815	89.588	178.434	212.964	89.736	97.445	249.539	248.361	96.918	103.997	104.265	110.918	430.278	110.164	-8191	255	
20919.980	1	1	0	0	0.027368	0.10284	0.068694	0.20524	0.086141	0.27442	0.092027	0.17771	0.18817	0.13375	0.36556	0.10575	0.2546	0.13793	0.15532	0.27079	-1.975	-2.6229	-2.4958	-2.5729	-2.7708	-2.5	-2.7333	-2.8292	-2.3063	-2.8063	-2.6229	-2.6125	-2.7958	-2.575	-2.7354	-2.5792	346.821	98.604	306.423	282.001	164.711	97.134	407.281	393.326	95.322	312.548	404.329	359.107	375.463	124.542	158.617	266.869	0.00048955	0.00012956	0.00016004	1053	2.3898e-06	2.9632e-06	1149.7	217.61	4.5467e-06	2.5893e-06	275.27	78.516	61.325	17.657	5.2876e-06	24.504	0.00023782	0.00022871	6.3351e-05	1035.6	2.5567e-06	2.5229e-06	1126.2	215.41	2.5502e-06	2.4865e-06	271.76	77.767	61.032	17.977	2.5132e-06	24.989	318.085	130.598	173.367	89.343	231.918	215.731	89.716	97.546	238.158	273.158	96.736	104.143	104.527	111.128	213.701	110.396	-8191	255	
20920.076	1	1	0	0	0.16413	0.10095	0.22214	0.31722	0.069288	0.048203	0.15376	0.24963	0.27019	0.274	0.25285	0.20265	0.12928	0.16522	0.18945	0.076076	-1.8104	-2.6917	-2.5333	-2.35	-2.7792	-2.4229	-2.5917	-2.8688	-2.3229	-2.7208	-2.6958	-2.3896	-2.9771	-2.3625	-2.5312	-2.9729	134.147	258.917	431.568	404.478	158.302	210.541	363.411	358.068	314.100	320.385	389.811	327.859	229.626	281.826	142.879	219.268	0.00054315	0.00061822	0.00015936	1055.8	6.1563e-06	1.5781e-06	1146.9	216.51	2.3558e-06	5.6313e-06	275.69	78.163	61.075	17.583	7.5312e-06	24.639	0.00023498	0.00022907	6.4578e-05	1036.8	2.5281e-06	2.4959e-06	1125.6	215.16	2.5187e-06	2.5341e-06	271.57	77.535	60.65	17.967	2.5579e-06	24.95	315.427	173.217	223.452	89.758	224.505	263.805	89.844	97.184	270.863	280.482	96.497	104.026	104.168	111.320	217.061	110.266	-8191	255	
20920.172	1	1	0	0	0.21185	0.1198	0.17033	0.375	0.15157	0.10421	0.23558	0.082114	0.21233	0.31087	0.10528	0.069732	0.098921	0.051997	0.18055	0.084015	-2.0375	-2.6375	-2.7438	-2.6667	-2.7313	-2.6021	-2.6792	-2.6396	-2.2979	-2.8167	-2.4771	-2.3604	-2.7458	-2.4833	-2.4688	-2.9042	230.683	143.230	414.016	385.639	312.044	388.642	342.611	393.470	196.117	273.712	275.863	156.077	405.215	314.565	324.660	386.781	0.00056534	0.00051228	9.9327e-05	1054.8	5.1586e-06	4.904e-06	1146.8	218.04	4.6995e-06	6.343e-06	274.5	78.1	61.012	17.653	5.2726e-06	24.574	0.00023293	0.00022687	6.4186e-05	1034.7	2.5135e-06	2.4771e-06	1125	215.26	2.485e-06	2.5021e-06	271.66	77.694	60.889	17.935	2.4885e-06	25.02	316.902	99.335	185.933	89.423	207.146	221.582	89.730	97.356	232.605	260.445	96.940	103.920	104.690	111.362	190.410	110.228	-8191	255	
20920.268	1	1	0	0	0.09377	0.090282	0.2731	0.43326	0.14549	0.16632	0.18525	0.10383	0.26807	0.13321	0.18259	0.17647	0.085974	0.30001	0.11205	0.14416	-1.9083	-2.4854	-2.5292	-2.4729	-2.5938	-2.4854	-2.3208	-2.8208	-2.3521	-2.5563	-2.7729	-2.3396	-2.7458	-2.5687	-2.4437	-2.7667	211.665	311.531	328.558	92.514	140.456	81.373	356.754	399.752	85.995	411.115	389.696	388.306	259.484	403.411	83.661	213.947	0.00058372	0.00022214	0.0001408	1056.2	7.8826e-06	2.3349e-06	1150.1	217.42	8.2994e-06	3.9068e-06	275.93	77.885	61.237	17.626	7.279e-07	24.709	0.00023572	0.00023312	6.3281e-05	1036.8	2.4874e-06	2.4865e-06	1124.4	215.26	2.4709e-06	2.4606e-06	272.01	77.43	60.834	17.942	2.4937e-06	25.002	314.481	184.176	365.524	89.747	204.795	263.710	89.853	97.617	263.339	231.838	96.704	103.876	104.280	111.004	159.651	110.412	-8191	255	
20920.389	1	1	0	0	0.096125	0.066383	0.17761	0.14384	0.060063	0.32196	0.21913	0.28224	0.20223	0.27192	0.31055	0.16587	0.18043	0.090936	0.18691	0.12509	-1.9896	-2.5625	-2.5854	-2.4167	-2.925	-2.4896	-2.4417	-2.8312	-2.4792	-2.475	-2.7417	-2.3771	-2.7396	-2.6271	-2.3729	-2.8083	141.056	188.461	380.930	316.601	115.966	216.828	98.003	371.797	129.424	409.570	390.406	382.708	94.093	295.788	317.144	328.815	0.00053967	0.00017573	4.8203e-05	1052.5	7.2339e-06	1.2979e-06	1149	217.61	2.6132e-06	1.8992e-06	275.52	78.131	61.683	17.711	6.299e-06	24.388	0.00023226	0.00023011	6.232e-05	1034	2.469e-06	2.4577e-06	1125.9	215.28	2.4378e-06	2.4178e-06	271.58	77.541	60.848	17.93	2.336e-06	24.81	310.644	167.455	293.235	89.440	230.598	238.445	89.747	97.536	282.648	235.767	96.944	103.846	104.069	111.290	160.142	110.395	-8191	255	
20920.484	1	1	0	0	0.15366	0.18629	0.24391	0.22624	0.22717	0.066354	0.17683	0.20141	0.097701	0.14068	0.21598	0.14077	0.14155	0.1434	0.020105	0.35057	-2.0042	-2.5375	-2.8646	-2.4688	-2.7604	-2.8812	-2.4646	-2.8875	-2.4958	-2.525	-2.8146	-2.3812	-2.8396	-2.8042	-2.3646	-2.7313	429.235	297.374	295.805	362.443	237.437	208.606	286.788	156.760	381.403	184.389	382.056	299.573	165.676	97.405	189.985	333.013	0.00055553	0.00016874	8.9848e-05	1045	1.5298e-06	3.6631e-06	1150	217.33	5.7488e-06	4.8787e-06	273.13	77.64	60.901	17.606	4.5536e-06	24.526	0.00021988	0.0002161	5.9024e-05	1029.9	2.3994e-06	2.4075e-06	1123.2	214.66	2.3587e-06	2.3694e-06	270.49	77.185	60.512	17.857	2.3303e-06	24.8	318.911	192.630	106.324	89.671	326.492	260.668	89.805	97.322	244.700	176.724	96.610	104.139	104.213	110.983	237.203	110.458	-8191	255	
20920.580	1	1	0	0	0.10218	0.11644	0.084875	0.068572	0.11247	0.22333	0.45717	0.11387	0.18896	0.26967	0.16781	0.13384	0.12412	0.17175	0.18793	0.064368	-2.0958	-2.4354	-2.7958	-2.3646	-2.5875	-2.825	-2.4625	-2.8688	-2.5854	-2.4771	-2.8479	-2.5375	-2.5771	-2.7646	-2.3146	-2.7062	265.743	207.764	402.057	307.417	127.441	161.311	342.706	346.518	284.717	432.627	81.942	406.013	281.752	418.252	427.467	118.011	0.00066846	0.0004378	0.0003904	1046.9	8.8744e-06	1.9148e-06	1144.7	215.92	5.4377e-06	5.8379e-06	272.42	78.11	61.082	17.547	5.1359e-06	24.427	0.00022143	0.00021542	6.0265e-05	1030.1	2.3889e-06	2.4064e-06	1119.2	214.04	2.4177e-06	2.4209e-06	270.39	77.328	60.602	17.9	2.4352e-06	24.819	300.551	135.434	208.299	89.743	207.996	199.618	89.579	97.401	298.045	287.466	96.683	103.900	104.074	111.040	180.364	110.428	-8191	255	
20920.652	1	1	0	0	0.14703	0.095555	0.11555	0.30196	0.20114	0.32336	0.28002	0.39027	0.073973	0.4888	0.3514	0.10076	0.25404	0.12423	0.25015	0.034812	-2.2	-2.3125	-2.9083	-2.5958	-2.4667	-2.7083	-2.5354	-2.7646	-2.5854	-2.2021	-2.9208	-2.575	-2.6229	-2.9604	-2.3271	-2.6437	346.649	351.549	427.462	362.274	297.004	83.783	430.607	394.262	118.412	409.374	386.149	219.647	327.448	358.936	144.173	280.824	0.00061468	0.00044312	0.0001124	1049	1.101e-06	1.7225e-06	1143	216.88	3.9514e-06	3.5529e-06	274.44	77.913	61.483	17.497	2.9691e-06	24.504	0.00023054	0.00022207	6.1382e-05	1031.6	2.4213e-06	2.4136e-06	1119	214.87	2.3753e-06	2.3707e-06	270.56	77.269	60.624	17.873	2.4117e-06	24.856	323.477	240.498	178.917	89.763	359.792	175.113	89.601	97.491	270.352	225.886	96.781	104.248	104.554	110.990	166.004	110.376	-8191	255	
20920.773	1	1	0	0	0.086305	0.13823	0.1247	0.14894	0.23751	0.25034	0.21019	0.37187	0.057039	0.25324	0.044562	0.062137	0.13892	0.10754	0.064418	0.13355	-2.1604	-2.3354	-2.9771	-2.6688	-2.4167	-2.7521	-2.5583	-2.7771	-2.4646	-2.3896	-3.0021	-2.6729	-2.4313	-2.85	-2.4	-2.5354	168.078	303.703	307.234	360.165	112.297	81.299	385.385	372.704	98.265	199.607	177.567	139.178	185.214	192.246	209.756	434.980	0.00045138	0.00032922	0.00021609	1044.5	4.0877e-06	3.3539e-06	1143.4	215.44	5.5458e-06	2.6012e-06	273.57	77.71	60.626	17.636	7.202e-06	24.546	0.00022932	0.0002188	6.0005e-05	1028.4	2.4407e-06	2.3641e-06	1120.7	214.09	2.4095e-06	2.3857e-06	270.54	77.192	60.49	17.856	2.3908e-06	24.891	311.212	235.597	180.105	89.637	184.857	323.135	89.776	97.624	283.564	177.403	96.943	103.907	104.162	111.048	218.980	110.531	-8191	255	
20920.867	1	1	0	0	0.10079	0.34678	0.09167	0.086989	0.16258	0.095283	0.16438	0.23726	0.030581	0.25429	0.20019	0.16329	0.13475	0.14482	0.21881	0.19412	-2.4062	-2.2083	-2.5563	-2.6958	-2.2125	-2.825	-2.6979	-2.5208	-2.9896	-2.2687	-2.8875	-2.7188	-2.35	-2.9396	-2.5604	-2.6417	145.349	139.536	292.173	295.431	307.918	424.647	363.290	396.440	169.558	146.063	403.460	391.866	403.371	379.203	313.760	160.858	0.00059922	0.00040717	6.2676e-05	1046.4	7.3998e-06	2.4513e-06	1143.7	216.06	2.4147e-06	1.3035e-06	274.22	77.772	60.937	17.555	1.3405e-06	24.401	0.0002238	0.00021904	6.1237e-05	1029.5	2.3988e-06	2.3876e-06	1119.4	214.26	2.4492e-06	2.4448e-06	270.69	77.322	60.619	17.838	2.4011e-06	24.835	309.860	147.651	171.787	89.638	251.710	211.113	89.762	97.387	287.781	154.729	96.878	103.794	104.389	111.393	165.908	110.473	-8191	255	
20920.965	1	1	0	0	0.14853	0.027928	0.16801	0.079662	0.2596	0.14659	0.35478	0.14912	0.11978	0.080033	0.17355	0.12848	0.071975	0.15052	0.10637	0.078728	-2.3958	-2.3292	-2.7667	-2.7	-2.3438	-2.8104	-2.6583	-2.5792	-2.8646	-2.3417	-2.7	-2.6521	-2.3187	-2.8312	-2.5146	-2.5896	185.198	93.583	430.536	273.994	318.820	247.475	385.280	272.741	130.807	417.891	229.077	324.985	344.148	90.640	384.500	205.251	0.00061323	0.00049453	9.1636e-05	1045.5	4.8976e-06	4.3636e-06	1142.4	217.39	2.8527e-06	4.2029e-06	272.14	78.138	61.224	17.482	4.4185e-06	24.389	0.00022822	0.00022191	6.1674e-05	1031.2	2.4801e-06	2.4339e-06	1119.1	214.5	2.4615e-06	2.4292e-06	269.81	77.221	60.702	17.897	2.4961e-06	24.811	308.949	162.591	234.861	89.677	242.327	238.316	89.798	97.628	241.208	242.878	97.088	103.888	104.294	111.270	199.291	110.097	-8191	255	
20921.061	1	1	0	0	0.19183	0.030703	0.15281	0.31801	0.037648	0.31458	0.20709	0.12953	0.21427	0.17037	0.2701	0.13122	0.24674	0.16689	0.37152	0.26775	-2.5021	-2.3792	-2.5479	-2.7958	-2.5333	-2.8771	-2.6729	-2.6896	-2.7792	-2.3979	-2.6708	-2.8521	-2.2729	-2.8458	-2.6125	-2.4854	334.142	233.627	103.936	378.234	425.354	436.833	409.695	254.378	274.488	120.010	376.943	408.692	144.883	403.079	227.356	374.300	0.00051902	0.00014991	3.7103e-05	1048.4	2.6374e-06	2.8629e-06	1148	217.47	6.4711e-06	2.8432e-06	275.17	77.476	61.205	17.592	5.8295e-06	24.455	0.00023378	0.00022582	6.2691e-05	1032.9	2.4884e-06	2.5019e-06	1121.3	214.86	2.4976e-06	2.4925e-06	270.85	77.252	60.722	17.952	2.5454e-06	24.931	311.219	260.598	355.954	89.734	213.314	299.679	89.576	97.427	250.672	283.671	97.062	104.180	104.184	111.025	227.357	110.536	-8191	255	
20921.182	1	1	0	0	0.1486	0.19612	0.13746	0.24594	0.15433	0.15866	0.2609	0.17394	0.28402	0.061786	0.1578	0.23427	0.1423	0.097332	0.20136	0.1843	-2.3146	-2.4646	-2.65	-2.6729	-2.3271	-2.8	-2.9417	-2.5042	-2.8458	-2.3958	-2.5896	-2.7208	-2.3833	-2.6458	-2.5687	-2.3771	116.617	169.870	336.658	388.016	141.448	294.046	415.584	383.024	266.612	424.089	345.723	118.129	352.956	317.589	346.940	116.368	0.00053238	0.00036712	0.00013325	1049.8	3.9524e-06	4.6448e-06	1147.7	216.09	1.8975e-06	2.0552e-06	272.84	77.655	60.981	17.638	2.8635e-06	24.647	0.00023711	0.00023264	6.4384e-05	1033.2	2.5593e-06	2.5125e-06	1123.8	214.67	2.5939e-06	2.5573e-06	270.98	77.298	60.746	18.002	2.6215e-06	24.962	313.955	211.829	283.000	89.545	215.310	351.334	89.679	97.377	269.203	375.586	96.868	103.861	104.593	111.197	151.722	110.613	-8191	255	
20921.254	1	1	0	0	0.30452	0.086065	0.11967	0.23633	0.16394	0.063512	0.22605	0.051189	0.13202	0.21548	0.05259	0.11547	0.06514	0.19608	0.070729	0.19459	-2.4875	-2.4646	-2.475	-3.1188	-2.3458	-2.575	-2.7542	-2.3063	-2.6583	-2.6646	-2.4979	-2.8417	-2.2354	-2.5875	-2.6271	-2.4542	294.657	253.178	413.635	81.605	414.454	432.444	334.925	326.095	409.408	266.823	423.583	340.562	138.510	337.894	277.899	302.270	0.00066786	0.00056554	0.00026801	1052.7	5.101e-06	4.9855e-06	1149	216.9	5.2981e-06	8.3706e-07	273.05	78.177	60.922	17.628	1.209e-06	24.585	0.00024623	0.00024015	6.6068e-05	1034.6	2.6141e-06	2.5786e-06	1124.2	214.78	2.5816e-06	2.5698e-06	271.15	77.412	60.646	17.962	2.5639e-06	24.935	314.190	134.284	138.215	89.630	278.009	250.515	89.600	97.688	268.458	109.511	96.732	104.012	104.653	111.281	160.875	110.400	-8191	255	
20921.350	1	1	0	0	0.031285	0.19413	0.1374	0.14013	0.23245	0.13016	0.20666	0.13918	0.090478	0.19773	0.060493	0.0061188	0.19726	0.1445	0.058895	0.12125	-2.2833	-2.3771	-2.1833	-2.9125	-2.4375	-2.7104	-3.0417	-2.3563	-2.6333	-2.6	-2.3729	-2.8979	-2.45	-2.6667	-2.7729	-2.3937	253.987	363.456	241.687	383.329	182.657	147.866	404.348	300.237	160.056	290.170	329.307	400.224	151.532	108.416	240.941	302.703	0.00054075	0.00041843	3.6036e-05	1045.6	7.8402e-06	9.689e-07	1147.5	215.79	5.1479e-06	6.2505e-06	273.4	78.083	60.742	17.666	2.5341e-06	24.353	0.00024013	0.00022867	6.4727e-05	1031.7	2.4924e-06	2.5357e-06	1122	214.06	2.5438e-06	2.5418e-06	270.74	77.35	60.729	17.942	2.5299e-06	24.912	312.403	210.844	286.034	89.528	249.244	251.781	89.405	97.011	274.690	225.268	96.730	104.083	104.489	111.180	226.631	110.429	-8191	255	
20921.469	1	1	0	0	0.36103	0.053184	0.22299	0.079998	0.124	0.1177	0.26626	0.20695	0.12857	0.067477	0.20264	0.046199	0.34668	0.10612	0.10084	0.06076	-2.4125	-2.6479	-2.2583	-2.9938	-2.4292	-2.5125	-2.9479	-2.225	-2.6896	-2.5812	-2.3271	-2.8958	-2.5917	-2.6208	-2.7625	-2.4562	209.889	81.243	191.497	178.684	130.700	433.316	401.038	155.540	219.242	309.000	232.389	374.020	331.588	301.745	328.107	194.524	0.00051923	0.00030401	0.00011279	1052.5	4.8139e-06	1.9355e-06	1146.1	217.13	3.7314e-06	3.426e-06	273.89	77.835	61.447	17.551	2.5658e-06	24.383	0.00023788	0.00023368	6.4682e-05	1033.5	2.5341e-06	2.4928e-06	1123.2	214.43	2.5058e-06	2.5062e-06	270.51	77.291	60.793	17.853	2.4468e-06	24.876	306.772	105.888	230.166	89.708	260.663	246.476	89.759	97.388	232.231	133.294	96.631	104.093	104.219	111.301	198.671	110.427	-8191	255	
20921.566	1	1	0	0	0.093058	0.29658	0.39575	0.26772	0.32973	0.080415	0.34869	0.067312	0.025263	0.15174	0.19412	0.016074	0.15893	0.043654	0.18301	0.20609	-2.1458	-2.5958	-2.3667	-2.7979	-2.5583	-2.3208	-3.0333	-2.4896	-2.5958	-2.6896	-2.4396	-2.9083	-2.4333	-2.5542	-2.6958	-2.4	140.926	418.380	198.356	364.114	364.472	370.537	404.380	343.531	422.555	263.415	434.138	415.672	386.435	216.033	175.508	372.765	0.00049458	0.00040279	0.00012118	1048	1.3653e-06	1.6644e-06	1146	216.53	1.5698e-06	4.57e-06	273.27	77.161	60.218	17.619	4.7793e-06	24.467	0.0002269	0.00022476	6.0868e-05	1030.7	2.4574e-06	2.4517e-06	1120.8	214.07	2.4337e-06	2.3947e-06	270.07	77.106	60.258	17.863	2.4222e-06	24.773	312.817	126.556	174.955	89.619	278.842	394.234	89.618	97.215	173.586	246.150	97.218	103.863	104.535	111.482	236.136	110.637	-8191	255	
20921.660	1	1	0	0	0.065172	0.1458	0.2277	0.23978	0.021723	0.15345	0.25033	0.17398	0.17564	0.2237	0.11843	0.17293	0.059623	0.020338	0.16511	0.091226	-2.2667	-2.6167	-2.2396	-2.7458	-2.7208	-2.3625	-3.1229	-2.4625	-2.6479	-2.8021	-2.35	-2.6625	-2.8896	-2.3937	-2.8396	-2.7479	341.100	228.164	337.463	136.449	238.782	435.533	410.597	87.255	338.379	108.967	122.966	397.355	332.541	266.586	87.086	417.880	0.00050006	0.00065881	0.00016845	1047.3	3.5508e-06	1.3073e-06	1142.9	217.12	1.7082e-06	1.259e-06	273.75	77.631	61.038	17.457	2.893e-06	24.307	0.00022624	0.00022223	6.1431e-05	1030.3	2.4305e-06	2.4221e-06	1119.6	214.38	2.4421e-06	2.354e-06	269.98	76.968	60.494	17.845	2.3848e-06	24.793	313.981	188.140	142.748	89.614	257.212	171.331	89.758	97.606	324.653	241.058	96.784	104.057	104.036	111.348	238.460	110.215	-8191	255	
20921.781	1	1	0	0	0.24809	0.31333	0.18582	0.10734	0.21799	0.098586	0.16199	0.2499	0.18637	0.14599	0.2355	0.2047	0.17925	0.27116	0.047384	0.22018	-1.9125	-2.8271	-2.4271	-2.8208	-2.6104	-2.2812	-2.9208	-2.3958	-2.4021	-2.7562	-2.4771	-2.6979	-2.7146	-2.275	-2.7	-2.5938	237.092	310.789	336.752	385.680	282.867	252.858	365.247	354.699	154.875	335.164	105.024	341.154	97.510	261.361	424.790	348.795	0.0005274	0.00065732	0.00013814	1048.3	3.9711e-06	2.0387e-06	1138.6	217.74	7.2594e-06	4.1212e-06	274.32	77.763	61.296	17.533	5.6022e-06	24.493	0.00022427	0.00021721	5.9963e-05	1030.8	2.3841e-06	2.3271e-06	1119.9	214.55	2.361e-06	2.3361e-06	270.06	77.135	60.473	17.808	2.314e-06	24.737	315.942	201.519	258.280	89.670	182.348	160.351	89.778	97.455	288.144	200.511	97.189	103.874	104.420	111.248	419.166	110.745	-8191	255	
20921.877	1	1	0	0	0.094301	0.16334	0.15473	0.26552	0.079733	0.14831	0.087168	0.095851	0.19153	0.098053	0.068471	0.18728	0.1667	0.29563	0.31268	0.09101	-2.0917	-2.7938	-2.3167	-2.7458	-2.625	-2.2792	-2.7583	-2.6479	-2.2125	-2.8521	-2.6917	-2.725	-2.8958	-2.1479	-2.7104	-2.7458	217.054	254.210	280.857	424.976	234.487	142.394	417.740	291.158	329.030	303.833	306.912	157.098	431.002	408.028	428.373	264.875	0.00067461	0.00053265	5.8066e-05	1054.4	4.758e-06	3.5822e-06	1144.4	216.41	3.5778e-06	4.0428e-06	272.19	77.82	60.599	17.592	5.5901e-06	24.414	0.00021645	0.00021305	5.8499e-05	1031.5	2.3318e-06	2.3196e-06	1118.6	214.22	2.305e-06	2.3143e-06	269.33	77.03	60.22	17.828	2.2808e-06	24.727	309.219	157.824	158.077	89.641	227.660	202.620	89.873	97.469	245.637	196.211	96.988	104.175	104.718	111.335	190.624	110.814	-8191	255	
20921.947	1	1	0	0	0.20753	0.069132	0.1095	0.34973	0.25989	0.058355	0.43946	0.19404	0.3778	0.12842	0.23365	0.12608	0.063152	0.10888	0.20008	0.21807	-1.8354	-2.7583	-2.4979	-2.7396	-2.9354	-2.3042	-2.6813	-2.5271	-2.3542	-2.9979	-2.6083	-2.4979	-2.8479	-2.3937	-2.5312	-2.65	272.989	346.310	215.302	399.499	163.697	204.181	399.160	311.101	278.674	220.910	377.658	277.434	374.778	398.739	127.483	146.578	0.00046557	0.00010756	0.00010819	1049.9	6.365e-07	2.8511e-06	1136.6	216.99	3.3534e-06	7.0678e-06	273.34	77.564	61.082	17.501	2.9545e-06	24.333	0.00021658	0.00021235	5.8382e-05	1030.4	2.3214e-06	2.3296e-06	1117	213.7	2.3113e-06	2.2868e-06	269.38	76.996	60.507	17.787	2.3481e-06	24.72	307.750	86.499	193.518	89.735	286.102	261.210	89.648	97.434	281.968	190.255	97.041	104.019	104.701	111.253	206.674	110.427	-8191	255	
20922.045	1	1	0	0	0.10475	0.029559	0.1604	0.50528	0.13701	0.13266	0.22159	0.02699	0.080048	0.19783	0.17745	0.019738	0.083313	0.158	0.13368	0.031739	-2.0458	-2.6813	-2.475	-2.5667	-2.8854	-2.1854	-2.8375	-2.7604	-2.3208	-2.7854	-2.5729	-2.4875	-2.8354	-2.4104	-2.5896	-2.7646	311.929	236.643	277.321	413.639	430.294	397.022	313.272	117.614	340.977	326.084	362.682	329.529	189.428	390.507	211.927	302.457	0.00064579	0.00044643	6.4401e-05	1047.5	5.0081e-06	3.364e-06	1144.5	215.6	6.3668e-06	8.9823e-07	274.27	77.734	61.069	17.583	4.8699e-06	24.595	0.00021933	0.00021332	5.9646e-05	1029.5	2.3585e-06	2.3322e-06	1117.7	213.56	2.313e-06	2.3411e-06	269.75	76.92	60.305	17.796	2.3269e-06	24.742	304.283	232.204	212.890	89.478	210.410	274.108	89.679	97.351	245.373	102.472	96.710	104.203	104.190	111.178	189.644	110.092	-8191	255	
20922.164	1	1	0	0	0.084281	0.22941	0.12858	0.27727	0.25078	0.31051	0.12021	0.25962	0.1585	0.20703	0.20377	0.34387	0.24501	0.24556	0.23617	0.14986	-1.8854	-2.625	-2.475	-2.5208	-2.9646	-2.4792	-2.9354	-2.7708	-2.2875	-2.6896	-2.5271	-2.3563	-2.8604	-2.3958	-2.5646	-2.8396	269.350	307.029	395.639	314.832	395.238	280.846	433.692	387.880	191.126	172.492	366.206	394.472	415.152	359.554	176.978	251.196	0.00061283	0.00033589	4.3727e-05	1045.2	3.4643e-06	4.6253e-06	1139.3	216.74	2.2769e-06	5.8806e-06	272.73	77.736	60.61	17.56	7.4227e-06	24.56	0.00021536	0.00020724	5.7928e-05	1028.5	2.3009e-06	2.2658e-06	1117.7	214.13	2.2966e-06	2.2875e-06	268.9	76.9	60.266	17.769	2.2905e-06	24.724	312.793	218.603	380.555	89.513	214.861	290.381	89.577	97.394	194.670	204.955	96.595	103.898	104.731	111.198	150.550	110.803	-8191	255	
20922.262	1	1	0	0	0.117	0.2812	0.209	0.36556	0.37328	0.067677	0.13623	0.32199	0.11241	0.099519	0.15068	0.15387	0.26471	0.27472	0.080021	0.2253	-1.9396	-2.7583	-2.5438	-2.3208	-2.8625	-2.5438	-2.5312	-2.8958	-2.4521	-2.7104	-2.7521	-2.3688	-2.875	-2.4437	-2.6167	-2.7833	355.750	177.789	403.778	404.010	148.123	179.461	286.233	378.048	337.387	212.269	99.914	352.298	239.970	342.158	417.858	173.418	0.00060363	0.00042655	2.2828e-05	1049.3	3.8435e-06	3.074e-06	1139.8	215.35	4.4742e-06	4.8225e-06	272.82	77.134	61.204	17.524	4.2527e-06	24.502	0.000213	0.00020952	5.7172e-05	1028.3	2.304e-06	2.2813e-06	1116.2	213.48	2.2718e-06	2.2921e-06	269.25	76.947	60.408	17.827	2.3173e-06	24.808	311.932	210.290	249.268	89.858	255.994	362.422	89.667	97.228	221.437	365.698	96.419	104.163	104.575	111.494	223.769	110.153	-8191	255	
20922.357	1	1	0	0	0.082032	0.30626	0.18817	0.19536	0.20718	0.20832	0.19582	0.07644	0.13819	0.26909	0.057589	0.15059	0.26773	0.26604	0.046707	0.082293	-1.8042	-2.8042	-2.5729	-2.4875	-2.8625	-2.5854	-2.5604	-2.9292	-2.4792	-2.6833	-2.7708	-2.4813	-2.8417	-2.4729	-2.4708	-2.925	186.786	208.933	239.500	104.326	407.266	262.843	360.307	392.951	366.190	213.309	190.593	398.703	435.306	381.992	297.575	400.900	0.00065224	0.00050742	5.5964e-05	1048.1	6.0792e-06	4.9893e-07	1144.8	216.18	1.3137e-06	5.9044e-07	273.9	77.537	60.373	17.489	4.2895e-06	24.458	0.00021739	0.00021403	5.9451e-05	1027.5	2.3611e-06	2.319e-06	1118.3	214.16	2.3647e-06	2.3853e-06	269.72	76.935	60.275	17.789	2.376e-06	24.773	303.656	117.970	174.725	89.700	196.769	262.927	89.428	97.311	79.661	274.562	96.743	104.094	104.615	111.201	208.528	110.184	-8191	255	
20922.453	1	1	0	0	0.14155	0.14037	0.18703	0.042771	0.31292	0.21765	0.16069	0.074564	0.16882	0.058598	0.070998	0.29331	0.29671	0.1411	0.20196	0.25636	-1.9208	-2.6333	-2.625	-2.5208	-2.7271	-2.8021	-2.6146	-3.0042	-2.5229	-2.7167	-2.8708	-2.3292	-2.8458	-2.6542	-2.3271	-2.7687	310.180	280.778	296.030	386.191	90.464	427.590	342.126	362.287	146.533	351.369	286.569	346.178	323.554	195.938	113.412	398.998	0.00058081	0.00072448	5.1448e-05	1045	5.1239e-06	5.6019e-06	1142	214.83	4.5998e-06	4.2034e-06	273.56	77.595	60.875	17.572	1.7413e-06	24.374	0.0002228	0.00021674	6.0797e-05	1027.6	2.3768e-06	2.3839e-06	1117.4	213.5	2.3908e-06	2.3931e-06	269.6	77.023	60.384	17.797	2.3362e-06	24.76	303.061	133.938	104.615	89.734	225.424	217.584	89.657	97.479	279.204	304.452	97.167	104.215	104.893	111.409	126.768	110.677	-8191	255	
20922.551	1	1	0	0	0.20633	0.36208	0.34211	0.052183	0.21355	0.070786	0.15409	0.10199	0.20802	0.27335	0.10928	0.22339	0.075449	0.10794	0.23662	0.27922	-2.0208	-2.4667	-2.7729	-2.475	-2.6354	-2.85	-2.3646	-2.9562	-2.2708	-2.4313	-2.8604	-2.5146	-2.6875	-2.6583	-2.2313	-2.7146	235.961	173.406	357.410	111.984	310.233	358.783	329.871	89.710	324.955	367.521	141.663	344.907	256.141	82.888	337.523	103.580	0.00062935	0.00042265	0.000132	1046.5	2.7681e-06	5.7303e-06	1140.4	216.24	4.2907e-06	5.3836e-06	273.33	77.766	60.6	17.555	4.6094e-06	24.56	0.0002189	0.00021072	5.8604e-05	1028.2	2.347e-06	2.3182e-06	1117.7	213.74	2.3035e-06	2.3468e-06	269.07	77.037	60.232	17.808	2.301e-06	24.779	318.709	140.807	216.673	89.730	232.425	275.780	89.681	97.477	336.845	276.982	96.799	103.882	104.321	111.452	144.950	110.300	-8191	255	
20922.646	1	1	0	0	0.16208	0.14674	0.20211	0.17373	0.054595	0.40744	0.080032	0.074997	0.14184	0.059566	0.13391	0.23778	0.39253	0.17152	0.14038	0.19344	-2.0792	-2.3646	-2.9958	-2.4646	-2.5917	-2.7042	-2.5542	-2.6729	-2.5833	-2.4417	-2.9	-2.4813	-2.7271	-2.6479	-2.4688	-2.7938	310.192	318.925	134.076	339.512	209.959	366.632	345.603	386.325	166.568	375.591	98.353	100.424	111.604	88.129	148.049	148.253	0.00057868	0.00042326	0.00013055	1047.3	3.2588e-07	5.6442e-06	1140.6	215.27	3.1869e-06	3.06e-06	273.73	77.581	60.809	17.627	5.0908e-06	24.36	0.0002183	0.00021226	5.7585e-05	1026.8	2.3557e-06	2.2782e-06	1116.4	213.41	2.3297e-06	2.3184e-06	269.46	76.978	60.328	17.844	2.3307e-06	24.692	308.590	185.191	161.193	89.636	181.000	255.499	89.622	97.295	309.398	213.048	97.133	103.918	104.335	111.193	280.926	110.640	-8191	255	
20922.742	1	1	0	0	0.079173	0.29432	0.10368	0.33754	0.1028	0.15652	0.26226	0.072341	0.44942	0.18392	0.1227	0.11156	0.15786	0.19971	0.30352	0.12141	-2.0979	-2.2562	-2.9062	-2.5146	-2.6583	-2.8104	-2.575	-2.7458	-2.5021	-2.3792	-2.9896	-2.7125	-2.6354	-2.8563	-2.3396	-2.7229	259.869	313.700	354.808	399.363	169.836	101.270	361.312	417.448	331.204	413.369	344.088	419.487	383.667	390.284	215.969	88.714	0.00061523	0.00043199	5.4971e-05	1048	4.7103e-06	4.1421e-06	1140.8	215.56	4.9202e-06	3.1374e-06	273.12	77.949	60.891	17.369	4.4639e-07	24.329	0.0002161	0.00021135	5.8428e-05	1029.4	2.3101e-06	2.2463e-06	1116.5	213.54	2.328e-06	2.3395e-06	269.51	77.008	60.483	17.752	2.3321e-06	24.69	324.007	138.515	386.739	89.650	261.416	291.144	89.718	97.431	283.980	155.704	96.959	103.750	104.181	111.145	438.077	110.251	-8191	255	
20922.861	1	1	0	0	0.15614	0.19473	0.18679	0.1088	0.04257	0.18509	0.26545	0.17472	0.054889	0.37892	0.29401	0.11804	0.047731	0.23438	0.1702	0.23027	-2.1833	-2.3187	-2.7417	-2.6396	-2.4583	-2.7562	-2.5146	-2.7667	-2.8187	-2.4188	-2.8583	-2.5604	-2.3708	-2.8292	-2.4146	-2.5687	180.986	409.323	167.184	386.768	161.828	432.593	363.041	142.187	231.595	316.986	101.375	194.491	150.613	331.891	316.246	355.676	0.000492	0.00030384	0.00011289	1046.1	3.8266e-06	6.7966e-07	1143	216.24	3.4736e-06	2.8814e-06	270.72	77.518	60.664	17.481	6.1897e-06	24.49	0.00021869	0.00021158	5.8932e-05	1028.2	2.3602e-06	2.2939e-06	1118.6	213.51	2.3321e-06	2.2871e-06	268.27	76.879	60.378	17.776	2.2826e-06	24.817	295.479	134.192	407.322	89.590	234.893	102.588	89.724	97.421	245.672	219.228	96.554	104.381	104.368	111.545	221.830	110.548	-8191	255	
20922.957	1	1	0	0	0.22945	0.070935	0.23861	0.35066	0.083242	0.085719	0.14582	0.13959	0.13948	0.28298	0.17114	0.079485	0.21184	0.064244	0.28023	0.13122	-2.3396	-2.425	-2.6375	-2.8729	-2.525	-2.8542	-2.6354	-2.7979	-2.75	-2.3021	-2.6917	-2.6667	-2.4896	-2.6625	-2.4667	-2.7125	246.202	223.144	296.822	356.404	188.566	195.600	384.071	144.491	374.041	202.149	344.196	209.203	348.514	285.361	408.606	431.987	0.00063315	0.0001875	0.0002084	1043.8	4.1582e-06	4.2534e-06	1140	216.79	1.6282e-06	4.1123e-06	272.58	77.713	60.657	17.448	5.1192e-06	24.484	0.0002185	0.00020982	5.9233e-05	1027.5	2.3836e-06	2.3667e-06	1117.3	214.32	2.4033e-06	2.3766e-06	269.62	76.938	60.386	17.819	2.3818e-06	24.803	324.160	154.398	142.441	89.602	135.293	243.195	89.739	97.841	305.105	234.258	96.557	103.816	104.500	111.062	209.481	110.416	-8191	255	
20923.053	1	1	0	0	0.19637	0.35668	0.026743	0.23297	0.13051	0.12545	0.21131	0.11017	0.15997	0.13616	0.062883	0.19516	0.12581	0.11105	0.22875	0.0375	-2.5042	-2.1813	-2.6458	-2.8833	-2.3625	-2.7938	-2.6562	-2.5833	-2.7896	-2.2896	-2.6729	-2.5646	-2.4625	-2.7438	-2.575	-2.4958	284.987	299.199	340.866	403.869	97.575	233.732	348.060	352.633	189.496	120.377	212.283	132.008	277.895	238.211	157.768	263.119	0.00049777	0.00045784	0.00011456	1043.9	2.0755e-06	2.5513e-06	1139.3	215.6	3.0704e-06	1.3725e-06	272.79	76.737	61.119	17.405	5.4184e-06	24.26	0.00022034	0.00021599	5.9729e-05	1027	2.3077e-06	2.2832e-06	1113.9	213.32	2.2449e-06	2.248e-06	268.56	76.651	60.199	17.69	2.1401e-06	24.575	303.935	195.481	269.850	89.414	224.032	166.542	89.774	97.512	245.364	207.778	96.848	103.552	104.359	111.652	286.315	110.323	-8191	255	
20923.148	1	1	0	0	0.050969	0.10407	0.069618	0.034246	0.11389	0.1429	0.19055	0.18119	0.16517	0.28538	0.045048	0.18268	0.2432	0.098671	0.15789	0.042336	-2.4521	-2.3521	-2.5354	-2.9313	-2.3104	-2.8646	-2.8167	-2.5479	-2.875	-2.3937	-2.6375	-2.8167	-2.3896	-2.8729	-2.5896	-2.5625	241.626	241.796	95.996	221.793	430.314	122.053	375.070	185.945	92.634	207.535	249.698	345.999	381.040	423.140	438.737	355.231	0.00055295	0.00053089	7.0059e-05	1040.2	5.0813e-06	3.0375e-06	1138	214.45	4.6776e-06	3.0016e-07	272.74	77.224	60.807	17.413	8.8435e-07	24.175	0.00019805	0.00019401	5.2881e-05	1020.5	2.1126e-06	2.0702e-06	1110.5	211.99	2.0685e-06	2.0892e-06	267.23	76.467	59.928	17.673	2.0989e-06	24.476	325.072	169.909	169.283	89.776	210.556	256.664	89.731	97.662	314.011	98.602	96.867	103.831	104.786	110.958	301.215	110.395	-8191	255	
20923.244	1	1	0	0	0.080023	0.081381	0.087751	0.46157	0.067564	0.14365	0.062592	0.31464	0.090631	0.11359	0.17265	0.29822	0.26654	0.28483	0.28976	0.19664	-2.6208	-2.3958	-2.6063	-2.9188	-2.4458	-2.8042	-2.8187	-2.5687	-2.85	-2.4917	-2.6104	-2.8458	-2.4521	-2.7083	-2.7396	-2.4479	370.044	173.784	112.252	417.495	204.125	259.674	136.940	343.133	220.581	338.809	374.184	132.309	378.333	271.290	228.621	104.487	0.00067485	0.00014179	8.8239e-05	1036.4	5.7171e-06	1.4213e-06	1133.1	214.51	3.5876e-06	2.2337e-06	270.63	76.9	60.834	17.428	3.8327e-06	24.226	0.00020051	0.00019503	5.5129e-05	1020.8	2.215e-06	2.2197e-06	1107.9	212.33	2.2215e-06	2.2496e-06	267.92	76.533	60.133	17.681	2.2565e-06	24.642	305.640	248.541	251.830	89.840	218.061	270.008	89.869	97.419	268.002	175.633	96.824	103.570	104.290	111.307	218.236	110.706	-8191	255	
20923.342	1	1	0	0	0.20322	0.11455	0.068489	0.51777	0.17135	0.12167	0.13518	0.24357	0.16858	0.1021	0.24473	0.33938	0.072903	0.19121	0.19958	0.31431	-2.3458	-2.4437	-2.5563	-3.1479	-2.225	-2.6958	-2.9292	-2.2521	-2.8229	-2.5979	-2.5146	-2.7313	-2.425	-2.6146	-2.8187	-2.4875	436.149	140.937	128.402	427.732	245.986	225.940	386.655	405.101	301.450	162.215	385.528	80.137	196.700	82.752	333.346	119.979	0.00051826	0.00035248	5.0695e-05	1040.8	7.5823e-06	2.3844e-06	1137.1	214.33	2.9094e-06	3.343e-06	272.32	77.185	60.685	17.485	4.016e-06	24.459	0.00021585	0.00020855	5.8536e-05	1022.7	2.3086e-06	2.2907e-06	1112	212.24	2.2484e-06	2.2486e-06	268.23	76.665	59.945	17.708	2.1922e-06	24.605	301.071	148.661	145.684	89.626	283.608	197.251	89.810	97.501	211.196	205.529	96.897	103.939	104.415	111.055	214.178	110.111	-8191	255	
20923.461	1	1	0	0	0.24583	0.23912	0.040364	0.21268	0.09399	0.28875	0.13829	0.134	0.39969	0.29238	0.23974	0.067237	0.054212	0.22468	0.14343	0.24901	-2.0208	-2.5604	-2.1708	-2.8167	-2.3563	-2.6521	-2.9792	-2.3354	-2.8729	-2.575	-2.4604	-2.9729	-2.3583	-2.6083	-2.6813	-2.2167	141.395	363.980	185.664	401.662	85.402	431.788	305.175	91.951	439.245	82.594	92.927	416.716	185.086	362.242	398.320	422.668	0.00044799	0.0001384	7.1365e-05	1042.9	1.4952e-06	2.806e-06	1135.8	214.13	2.908e-06	5.3566e-06	271.19	77.272	60.502	17.461	2.122e-06	24.421	0.00020603	0.00020114	5.5186e-05	1022.5	2.1882e-06	2.2107e-06	1109	211.96	2.2139e-06	2.2061e-06	267.42	76.499	59.955	17.659	2.2334e-06	24.603	326.501	189.411	362.103	89.685	233.923	213.397	89.471	97.591	246.892	109.905	96.842	104.055	104.445	111.156	431.707	110.530	-8191	255	
20923.557	1	1	0	0	0.17308	0.064925	0.15979	0.17445	0.1388	0.034975	0.14943	0.2629	0.26773	0.3534	0.10182	0.17248	0.14648	0.16258	0.17357	0.23762	-2.2875	-2.6917	-2.5375	-2.975	-2.3042	-2.7417	-2.9542	-2.4125	-2.6271	-2.6646	-2.4188	-2.7438	-2.4938	-2.4792	-2.8917	-2.6271	228.489	179.860	313.278	403.072	109.353	268.185	314.268	321.666	364.032	377.587	229.175	319.654	207.956	313.633	106.128	372.859	0.00056781	0.0002189	0.00013739	1043.5	2.6074e-06	3.147e-06	1138.1	214.42	3.827e-06	7.2652e-06	271.99	77.387	60.253	17.544	5.558e-06	24.364	0.00021105	0.00020585	5.6193e-05	1023.4	2.2864e-06	2.3021e-06	1115.2	212.24	2.3168e-06	2.3147e-06	268.3	76.831	60.026	17.758	2.3075e-06	24.629	311.137	420.373	122.693	89.605	213.247	253.213	89.478	97.549	316.269	260.310	97.027	103.699	104.124	111.307	221.496	110.366	-8191	255	
20923.652	1	1	0	0	0.09897	0.19455	0.20052	0.15094	0.24018	0.15035	0.28017	0.16373	0.23283	0.14474	0.18671	0.046828	0.2328	0.1606	0.19327	0.13436	-2.2938	-2.75	-2.5125	-3.1125	-2.6625	-2.5104	-3.0917	-2.3396	-2.5854	-2.6875	-2.5646	-3.0438	-2.6771	-2.5938	-2.8042	-2.5708	103.730	315.297	352.760	387.738	398.659	103.694	373.930	426.366	295.566	157.901	118.848	200.630	276.903	413.136	142.599	340.478	0.00056364	0.00078082	0.00012689	1043.5	5.9789e-06	7.6709e-07	1135.5	215.08	4.0284e-06	2.7651e-06	272.24	77.682	60.742	17.408	5.8936e-07	24.393	0.00021592	0.00021236	5.8926e-05	1026.9	2.341e-06	2.3567e-06	1112.9	212.39	2.3607e-06	2.3623e-06	268.84	77.061	60.197	17.746	2.2723e-06	24.76	322.058	156.573	166.922	89.584	228.847	137.904	89.971	97.378	337.104	253.047	96.765	103.889	104.485	111.413	238.782	111.034	-8191	255	
20923.748	1	1	0	0	0.049226	0.27739	0.05567	0.18355	0.34713	0.39369	0.30124	0.14491	0.066627	0.084506	0.093302	0.21235	0.19506	0.20686	0.10839	0.1533	-2.1792	-2.6271	-2.3979	-2.8354	-2.6104	-2.4833	-2.8917	-2.6125	-2.5958	-2.7708	-2.4667	-2.9333	-2.7104	-2.2333	-2.8396	-2.4542	119.192	145.196	318.073	92.258	301.535	132.266	317.123	374.892	263.755	166.857	279.465	122.768	369.443	379.151	408.040	411.571	0.00058904	0.00049512	0.00018314	1042.1	8.1054e-06	1.0415e-06	1141.7	214.72	4.2238e-06	3.5955e-06	273.17	77.54	60.868	17.335	4.7984e-06	24.384	0.00021819	0.00021384	5.93e-05	1026.4	2.3638e-06	2.3277e-06	1114	212.32	2.2921e-06	2.2314e-06	267.68	76.767	60.189	17.702	2.2333e-06	24.618	301.161	434.110	135.234	89.744	245.263	203.684	89.632	97.302	266.871	157.089	96.888	103.911	104.194	111.495	225.075	110.195	-8191	255	
20923.846	1	1	0	0	0.11339	0.17074	0.19854	0.1762	0.083492	0.27005	0.20478	0.21915	0.051823	0.15352	0.12113	0.058478	0.12464	0.22431	0.1694	0.18971	-2.0333	-2.5896	-2.3396	-2.7521	-2.7979	-2.2375	-2.8417	-2.5042	-2.375	-3.1333	-2.5104	-2.8021	-2.7	-2.4167	-2.9167	-2.5625	264.294	206.529	158.333	311.654	87.482	435.127	323.124	84.248	202.589	144.457	395.767	387.142	351.609	378.056	414.855	179.996	0.00054718	0.00026816	7.1744e-05	1047.3	4.5351e-06	2.6099e-06	1143.7	215.98	2.6048e-06	3.52e-06	271.77	77.747	60.798	17.478	8.5614e-06	24.507	0.00021174	0.00020478	5.7807e-05	1026.1	2.2799e-06	2.2748e-06	1115.9	213.06	2.3528e-06	2.2682e-06	268.35	76.763	60.176	17.735	2.3182e-06	24.637	317.590	158.278	169.620	89.588	219.614	284.990	89.552	97.309	367.225	232.305	96.889	103.816	104.649	111.159	179.501	110.391	-8191	255	
20923.941	1	1	0	0	0.20315	0.14709	0.19437	0.13244	0.03142	0.32489	0.26972	0.40467	0.10435	0.041722	0.12576	0.23088	0.19385	0.31389	0.12632	0.17437	-1.9875	-2.7062	-2.6021	-2.675	-2.6396	-2.35	-2.9521	-2.5708	-2.4354	-2.6813	-2.3917	-2.375	-2.7396	-2.3979	-2.7354	-2.6437	163.721	112.705	143.933	383.669	202.188	191.069	417.687	434.883	255.697	361.151	259.504	355.400	199.437	116.717	217.218	436.943	0.00048484	0.00040305	0.00014858	1043.6	2.4603e-06	3.5857e-06	1139.7	214.65	5.3048e-06	5.3334e-06	271.15	77.528	60.538	17.565	3.3167e-06	24.512	0.00021777	0.00020836	5.8911e-05	1026.7	2.3362e-06	2.2721e-06	1116.5	212.95	2.2771e-06	2.2985e-06	267.64	76.689	60.013	17.75	2.244e-06	24.625	314.340	426.089	195.261	89.600	270.790	202.603	89.663	97.408	313.355	199.538	96.957	104.212	104.538	111.305	184.610	110.363	-8191	255	
20924.037	1	1	0	0	0.10271	0.25543	0.30798	0.31081	0.080468	0.082254	0.043911	0.11785	0.09525	0.28914	0.11085	0.09711	0.03897	0.075617	0.13639	0.03684	-1.7792	-2.7938	-2.4562	-2.675	-2.6813	-2.3375	-3.0771	-2.5812	-2.4854	-2.8458	-2.6813	-2.65	-2.8812	-2.4354	-2.825	-2.7167	379.804	250.871	413.350	339.028	115.167	101.486	155.269	260.003	219.253	253.590	274.484	398.559	172.901	91.823	355.877	366.030	0.00056923	0.00051603	0.00022356	1042.9	5.9088e-06	2.8932e-06	1140.7	216.28	4.3484e-06	1.4797e-06	272.44	77.181	60.599	17.467	6.4757e-06	24.221	0.00021264	0.0002018	5.5493e-05	1023.9	2.2329e-06	2.2597e-06	1113.3	212.99	2.2041e-06	2.2163e-06	267.78	76.612	60.087	17.676	2.2073e-06	24.567	295.253	193.906	198.000	89.570	196.610	207.092	89.696	97.611	315.197	435.350	96.713	104.447	104.798	111.246	230.031	110.314	-8191	255	
20924.135	1	1	0	0	0.10863	0.2595	0.090807	0.22117	0.27429	0.18109	0.37437	0.16839	0.17022	0.077971	0.17549	0.10688	0.1872	0.20231	0.13936	0.22972	-1.9729	-2.9271	-2.2229	-2.6896	-2.675	-2.4146	-2.9083	-2.8292	-2.4583	-2.9396	-2.4479	-2.375	-2.7438	-2.3812	-2.8125	-2.7062	419.793	438.778	396.587	140.269	260.170	407.413	338.281	360.674	257.312	273.581	296.526	246.292	406.194	419.694	412.009	400.480	0.00055813	0.00050206	0.0002045	1044.5	8.9607e-06	6.6659e-06	1141.1	215.97	2.2188e-06	5.1612e-07	272	77.788	60.415	17.509	4.862e-06	24.341	0.00020773	0.00020535	5.8093e-05	1024.7	2.2765e-06	2.2645e-06	1114.1	212.96	2.2471e-06	2.2773e-06	267.98	76.832	59.99	17.755	2.2703e-06	24.654	312.240	203.193	215.928	89.774	274.199	274.313	89.706	97.524	262.845	184.590	96.877	103.880	104.410	111.442	390.867	110.189	-8191	255	
20924.254	1	1	0	0	0.16626	0.047968	0.30873	0.18427	0.20713	0.11701	0.12847	0.060594	0.076795	0.25588	0.36855	0.21399	0.11839	0.25573	0.076017	0.15815	-1.9167	-2.6917	-2.5687	-2.5563	-2.5563	-2.5021	-2.8333	-2.7979	-2.2562	-2.6792	-2.6229	-2.4437	-2.9	-2.5354	-2.5563	-2.7938	397.419	151.018	113.137	356.487	89.121	213.225	263.147	412.558	357.699	267.502	85.913	361.131	426.697	391.066	404.559	126.541	0.00048527	0.0009574	5.7995e-05	1040.9	4.0762e-06	1.7483e-06	1137	214.37	2.3863e-06	1.3711e-06	271.03	77.211	60.015	17.582	2.4404e-06	24.415	0.00021446	0.00020888	5.7582e-05	1025	2.2676e-06	2.2978e-06	1114.1	212.42	2.2907e-06	2.3084e-06	268.18	76.825	59.999	17.752	2.3143e-06	24.695	325.448	134.127	131.882	89.682	245.937	100.102	89.811	97.422	310.309	323.846	96.914	103.932	104.465	111.253	149.479	109.949	-8191	255	
20924.350	1	1	0	0	0.17494	0.16406	0.044681	0.11756	0.22598	0.15607	0.21201	0.18183	0.094595	0.25551	0.16534	0.16916	0.2989	0.3408	0.14728	0.056504	-1.9271	-2.5771	-2.6562	-2.6	-2.7083	-2.4437	-2.7458	-2.7667	-2.4083	-2.7646	-2.5708	-2.3229	-2.775	-2.5521	-2.3937	-2.8	161.208	284.149	372.759	325.482	394.083	217.675	402.295	407.076	301.631	325.318	324.128	119.560	98.684	350.009	325.230	96.528	0.00068022	0.00035586	0.00018404	1047.5	1.6104e-06	1.6075e-06	1142.8	214.61	1.653e-06	2.6052e-06	272.71	77.727	61.182	17.488	7.0456e-06	24.298	0.00022008	0.00021102	5.9413e-05	1028.4	2.3583e-06	2.3603e-06	1117.1	212.64	2.392e-06	2.3671e-06	268.73	76.991	60.331	17.771	2.3272e-06	24.651	322.018	154.501	176.297	89.638	185.937	204.457	89.667	97.215	144.067	185.995	96.596	103.864	104.743	111.201	244.311	110.357	-8191	255	
20924.422	1	1	0	0	0.14949	0.019271	0.14358	0.24088	0.26644	0.1151	0.41979	0.22474	0.11873	0.16851	0.22485	0.16042	0.31903	0.096967	0.23695	0.1567	-2.0062	-2.6646	-2.7396	-2.3937	-2.8708	-2.5104	-2.6417	-2.9229	-2.4208	-2.6979	-2.725	-2.3667	-2.8875	-2.7562	-2.4083	-2.9062	398.660	267.407	382.795	377.844	225.229	317.658	403.481	346.001	298.654	229.127	124.009	124.991	86.047	133.762	325.736	91.027	0.00062924	0.00036201	2.4312e-05	1040.9	3.0585e-06	2.4844e-06	1138.1	213.96	3.948e-06	7.7533e-06	270.82	77.548	60.433	17.454	2.8178e-06	24.433	0.00021796	0.00021442	5.8746e-05	1026	2.3693e-06	2.3294e-06	1114.7	212.35	2.3033e-06	2.3496e-06	268.38	76.785	60.128	17.741	2.333e-06	24.712	316.933	421.462	153.650	89.517	339.690	254.273	89.725	97.527	269.690	145.922	97.131	104.061	104.193	111.401	261.804	110.251	-8191	255	
20924.541	1	1	0	0	0.33969	0.10674	0.16354	0.49582	0.024431	0.050809	0.28436	0.16531	0.24016	0.2084	0.18928	0.15109	0.1436	0.19758	0.12651	0.12518	-2.0167	-2.6437	-2.7958	-2.5917	-2.6792	-2.7667	-2.4938	-2.9208	-2.4042	-2.5083	-2.8458	-2.2583	-2.7771	-2.7562	-2.3187	-2.9396	128.837	302.221	170.853	394.737	325.690	99.134	354.822	368.196	239.845	182.773	148.881	437.672	80.146	334.593	293.679	338.119	0.00046955	2.8859e-05	0.00013943	1044	2.9359e-06	5.2947e-07	1138.8	214.86	3.068e-06	7.869e-06	271.84	77.231	60.585	17.502	5.7547e-06	24.383	0.00021838	0.00021636	5.9236e-05	1025.9	2.3878e-06	2.3165e-06	1114.3	212.84	2.3656e-06	2.3699e-06	268.3	76.928	60.363	17.831	2.4193e-06	24.737	308.966	266.384	219.235	89.787	285.605	258.834	89.610	97.634	327.648	159.379	96.691	103.953	104.517	111.200	157.718	110.806	-8191	255	
20924.637	1	1	0	0	0.12897	0.16282	0.21823	0.18563	0.31275	0.18305	0.30395	0.11922	0.041932	0.1145	0.11822	0.30623	0.023155	0.24765	0.39863	0.03256	-2.1417	-2.4229	-2.7479	-2.6708	-2.6667	-2.5208	-2.4792	-2.9417	-2.5563	-2.5333	-3.0604	-2.5667	-2.7771	-2.7354	-2.4958	-2.7396	352.967	321.463	396.162	402.572	141.508	390.964	402.893	158.184	276.501	317.436	436.073	359.654	348.362	89.921	436.579	296.011	0.00063318	0.00024019	2.9248e-05	1045.5	5.174e-06	1.4011e-06	1142.6	214.31	2.4792e-06	5.2107e-06	272.19	77.326	60.442	17.438	4.4969e-06	24.438	0.00023032	0.00022635	6.2071e-05	1026.1	2.444e-06	2.4374e-06	1117.8	212.71	2.4519e-06	2.4287e-06	268.57	76.939	60.438	17.759	2.4293e-06	24.787	299.039	178.875	203.165	89.704	259.540	102.268	89.579	97.513	422.755	300.307	96.989	103.723	104.310	111.404	175.155	110.278	-8191	255	
20924.732	1	1	0	0	0.11922	0.12603	0.13532	0.053992	0.22604	0.11496	0.19299	0.034194	0.11198	0.13138	0.16948	0.24108	0.11667	0.12144	0.23367	0.16633	-2.1354	-2.4833	-2.9104	-2.4875	-2.6458	-2.7333	-2.525	-2.7229	-2.425	-2.3708	-2.85	-2.65	-2.4333	-2.7062	-2.4521	-2.8208	385.852	327.998	194.970	397.554	253.761	342.081	411.496	169.496	428.103	233.186	88.082	381.371	97.210	82.190	127.648	224.631	0.00052893	0.00014585	5.1563e-05	1045.1	3.2461e-06	2.5467e-06	1144.5	215.47	4.7687e-06	9.7931e-06	272.62	78.058	60.754	17.523	1.8432e-06	24.253	0.00022676	0.00022131	6.1301e-05	1027.3	2.4654e-06	2.4815e-06	1118.1	213.58	2.4322e-06	2.3958e-06	269.16	77	60.351	17.788	2.3857e-06	24.724	309.409	259.297	127.390	89.543	224.278	299.299	89.602	97.603	211.218	194.261	96.801	104.186	104.877	111.432	177.530	110.849	-8191	255	
20924.828	1	1	0	0	0.21221	0.14967	0.24386	0.15484	0.14705	0.19393	0.064618	0.093823	0.10622	0.086234	0.21268	0.30632	0.053551	0.044687	0.15994	0.28987	-2.2292	-2.2729	-2.7146	-2.5625	-2.6521	-2.775	-2.5938	-2.7438	-2.6667	-2.3354	-2.7854	-2.3333	-2.4354	-2.7208	-2.3021	-2.8458	88.528	366.798	300.510	267.852	367.521	342.585	345.447	409.037	89.121	190.276	416.701	376.913	293.273	379.449	196.144	362.288	0.0004574	0.00012842	0.00011635	1045.9	2.9058e-06	1.0527e-06	1139.8	214.25	5.0154e-06	2.6402e-06	272.1	77.334	60.452	17.458	3.295e-06	24.446	0.00021993	0.00021575	5.8973e-05	1026.9	2.3956e-06	2.2931e-06	1116.1	212.78	2.3108e-06	2.2724e-06	268.26	76.771	60.134	17.831	2.3555e-06	24.736	311.091	427.562	119.302	89.732	225.662	106.704	89.560	97.292	284.724	139.720	96.773	103.576	104.025	111.249	174.950	111.120	-8191	255	
20924.949	1	1	0	0	0.17948	0.28326	0.057056	0.11462	0.1146	0.164	0.16062	0.23791	0.12998	0.11237	0.19645	0.13801	0.08384	0.17554	0.085616	0.087025	-2.1937	-2.3146	-2.8104	-2.6167	-2.4146	-2.9354	-2.5646	-2.6562	-2.7646	-2.225	-2.6417	-2.5187	-2.4208	-2.9521	-2.2938	-2.5125	278.957	268.184	362.609	376.832	368.534	155.643	376.511	366.038	366.540	378.836	293.830	425.131	400.083	274.259	365.075	275.252	0.00051287	0.00023979	4.795e-05	1048.6	2.111e-06	3.4801e-06	1144.4	216.39	3.0055e-06	6.503e-06	272.25	77.162	61.146	17.451	1.5128e-06	24.211	0.00022152	0.00021716	5.932e-05	1028.6	2.4116e-06	2.3265e-06	1116.9	213.56	2.3912e-06	2.3719e-06	269.47	76.809	60.387	17.729	2.3831e-06	24.724	300.723	204.458	206.532	89.505	309.786	277.269	89.474	97.442	272.689	204.304	96.825	103.971	104.393	111.270	230.935	110.854	-8191	255	
20925.045	1	1	0	0	0.072474	0.16586	0.077783	0.20957	0.084955	0.20059	0.063374	0.19177	0.13258	0.1475	0.14924	0.13318	0.096668	0.21447	0.036743	0.15241	-2.125	-2.2729	-2.5792	-2.6063	-2.475	-2.8708	-2.6	-2.6167	-2.6625	-2.2083	-2.8854	-2.6292	-2.4354	-2.8812	-2.5479	-2.5604	93.667	257.492	431.014	109.931	314.661	406.243	434.824	162.745	403.292	415.896	405.531	270.711	393.535	274.512	320.451	367.518	0.00062003	0.00029809	0.00017111	1044	1.5907e-06	4.3048e-06	1142.2	214.5	2.6203e-06	2.5476e-06	273.39	77.554	60.418	17.433	3.4591e-06	24.33	0.00022372	0.00021647	6.0121e-05	1027.8	2.3465e-06	2.326e-06	1118.3	213.09	2.3564e-06	2.3312e-06	269.3	76.895	60.199	17.781	2.3437e-06	24.692	322.868	181.181	217.134	89.628	269.913	200.229	89.580	97.885	270.881	280.106	96.793	104.037	104.378	111.063	249.600	110.564	-8191	255	
20925.143	1	1	0	0	0.17329	0.23143	0.06874	0.022123	0.19544	0.16791	0.2766	0.30771	0.26782	0.1457	0.12684	0.12855	0.10416	0.13182	0.13003	0.25662	-2.3479	-2.3312	-2.5	-2.7354	-2.3125	-2.8083	-2.5729	-2.4813	-2.7167	-2.5958	-2.7479	-2.8375	-2.2604	-2.8479	-2.4771	-2.6063	279.466	313.985	172.964	130.941	269.588	191.825	371.493	331.638	403.151	120.379	386.436	415.511	100.710	434.625	147.716	437.131	0.00066993	0.00063125	0.00012282	1044.8	6.0501e-06	5.9701e-07	1141.8	214.68	2.9978e-06	4.5104e-06	272.78	77.713	60.53	17.556	2.6188e-06	24.333	0.00021922	0.00021323	6.063e-05	1026.9	2.3743e-06	2.314e-06	1115.7	212.89	2.3163e-06	2.2992e-06	268.41	76.894	60.067	17.762	2.3022e-06	24.668	317.392	92.070	117.287	89.731	248.828	81.197	89.789	97.138	267.545	177.982	96.708	104.170	104.619	111.135	195.313	110.632	-8191	255	
20925.236	1	1	0	0	0.10898	0.042001	0.3029	0.38109	0.090273	0.1623	0.30559	0.055333	0.263	0.13651	0.10833	0.25368	0.20939	0.048166	0.13118	0.10002	-2.3583	-2.3021	-2.5208	-2.7229	-2.1937	-2.7729	-2.8417	-2.6021	-2.8937	-2.5333	-2.5938	-2.7917	-2.2458	-2.7438	-2.6042	-2.4417	132.389	265.718	378.372	386.812	424.065	224.880	392.680	313.793	273.574	174.005	184.919	121.000	420.223	108.801	241.381	393.491	0.00061543	0.00028707	0.0001949	1046.8	4.448e-06	2.4468e-06	1136.8	215.13	8.6339e-06	5.6925e-06	271.04	77.638	60.646	17.418	3.9141e-06	24.619	0.0002177	0.00021238	5.8752e-05	1027.2	2.3384e-06	2.3279e-06	1115	212.93	2.3079e-06	2.3051e-06	268.72	76.711	60.246	17.737	2.343e-06	24.721	309.988	116.401	197.875	89.634	207.734	257.079	89.668	97.538	255.752	205.027	96.552	104.590	104.290	111.143	214.555	110.447	-8191	255	
20925.332	1	1	0	0	0.30296	0.21346	0.090622	0.071775	0.16665	0.23386	0.31149	0.28704	0.11275	0.063692	0.066896	0.1227	0.2918	0.2337	0.0613	0.12991	-2.2771	-2.5042	-2.4771	-2.9229	-2.2708	-2.6562	-2.6229	-2.2521	-2.6667	-2.4542	-2.6229	-2.7229	-2.2	-2.7771	-2.5125	-2.4083	289.280	269.979	282.346	315.348	84.127	131.675	118.647	110.148	246.321	86.347	152.411	400.417	405.094	93.226	167.618	297.232	0.00052854	0.00051318	0.0001371	1042.9	3.4446e-06	2.8617e-06	1148	215.77	2.4748e-06	6.9212e-06	271.21	76.982	60.766	17.537	7.1087e-06	24.358	0.00021518	0.00021054	5.9354e-05	1027.1	2.3191e-06	2.2891e-06	1117.8	213.28	2.3114e-06	2.3126e-06	267.93	76.706	60.269	17.788	2.3013e-06	24.642	312.830	195.170	226.397	89.704	213.683	243.388	89.681	97.570	285.029	215.885	96.695	104.297	104.550	111.241	216.274	110.676	-8191	255	
20925.430	1	1	0	0	0.18056	0.17453	0.091185	0.17545	0.14731	0.30546	0.13829	0.19304	0.045657	0.22489	0.0785	0.061342	0.06742	0.10512	0.21317	0.26577	-2.4729	-2.3354	-2.5958	-2.8521	-2.4479	-2.4917	-2.6958	-2.4646	-2.6042	-2.475	-2.5146	-2.6125	-2.1229	-2.6688	-2.6562	-2.3146	93.188	345.568	248.359	384.555	436.887	220.302	432.253	386.544	97.277	325.782	396.874	139.180	300.872	182.558	197.936	389.070	0.00072034	0.00054613	0.0001201	1044.4	6.912e-06	5.4663e-06	1137.5	216.42	4.4001e-06	3.6095e-06	274.48	77.359	60.198	17.458	4.2586e-06	24.367	0.00021737	0.00021343	5.9188e-05	1026.5	2.3907e-06	2.3448e-06	1114.9	213.41	2.3259e-06	2.3027e-06	269	76.666	60.127	17.727	2.2975e-06	24.641	318.538	233.149	83.651	89.633	180.383	245.576	89.655	97.143	278.193	272.598	96.881	104.067	104.197	111.352	173.980	110.584	-8191	255	
20925.551	1	1	0	0	0.24182	0.1254	0.21261	0.10903	0.044101	0.049002	0.24999	0.32585	0.098802	0.17545	0.36248	0.41837	0.044253	0.17091	0.12782	0.29242	-2.5042	-2.5083	-2.3542	-2.8542	-2.2979	-2.6042	-2.9313	-2.2542	-2.7542	-2.6292	-2.4354	-2.975	-2.4479	-2.425	-2.7104	-2.4521	114.439	176.883	329.070	162.087	144.177	425.328	435.082	363.821	318.880	182.711	341.487	94.977	292.673	118.884	132.062	419.928	0.00057929	0.00021971	8.3888e-05	1046.8	1.1098e-06	3.1886e-06	1142.4	214.81	4.9634e-06	1.4528e-06	271.55	77.912	60.364	17.54	5.0337e-06	24.392	0.00021827	0.00021038	5.8702e-05	1026.7	2.313e-06	2.3833e-06	1116.7	213.19	2.4042e-06	2.3362e-06	268.54	77.069	60.274	17.765	2.322e-06	24.623	302.565	431.659	133.870	89.706	158.715	391.527	89.761	97.170	265.584	262.394	96.704	104.114	104.690	111.564	208.839	110.693	-8191	255	
20925.646	1	1	0	0	0.094505	0.25365	0.22311	0.2188	0.18689	0.28223	0.26299	0.21517	0.15482	0.2749	0.24205	0.086263	0.15293	0.055473	0.06156	0.20954	-2.2812	-2.5938	-2.2667	-2.9313	-2.5625	-2.4062	-2.9521	-2.2417	-2.6208	-2.5792	-2.5979	-2.8125	-2.475	-2.5521	-2.6937	-2.2625	387.730	324.593	298.872	436.667	332.579	319.983	367.816	255.849	224.544	199.180	400.064	193.691	303.466	427.547	332.176	431.630	0.00058376	0.00034269	2.5617e-05	1045.3	7.9853e-07	2.4561e-06	1144.6	215.74	3.5693e-06	4.3019e-06	273.12	77.298	60.624	17.47	1.6753e-06	24.208	0.00021859	0.00021195	5.8957e-05	1026.8	2.3234e-06	2.3227e-06	1117.7	212.79	2.375e-06	2.3212e-06	268.69	76.902	60.131	17.769	2.3436e-06	24.716	298.341	202.405	265.312	89.693	257.719	158.037	89.509	97.287	296.867	310.329	96.900	103.745	104.405	111.206	140.979	110.320	-8191	255	
20925.719	1	1	0	0	0.044533	0.20676	0.1904	0.32859	0.18184	0.17573	0.31522	0.22345	0.15672	0.089088	0.12161	0.29815	0.20874	0.27783	0.21988	0.20579	-2.1437	-2.625	-2.2542	-2.9583	-2.5167	-2.4146	-2.9417	-2.5563	-2.5479	-2.7375	-2.4896	-2.8875	-2.575	-2.4896	-2.8979	-2.3896	403.119	96.076	381.288	362.876	206.622	174.786	396.455	266.752	354.609	151.308	156.736	406.829	269.827	421.701	209.185	421.169	0.00064195	0.00049478	6.6818e-05	1045.9	2.6814e-06	3.0238e-06	1144.2	215.89	2.6542e-06	1.9517e-06	272	77.232	60.37	17.529	6.2353e-06	24.363	0.00022533	0.00021369	5.8724e-05	1027.8	2.3294e-06	2.3321e-06	1115.4	213.15	2.3387e-06	2.3145e-06	268.09	76.727	60.136	17.787	2.3318e-06	24.701	315.756	429.330	135.878	89.842	189.025	234.285	89.690	97.437	309.769	379.866	97.131	103.690	104.241	111.467	166.465	110.042	-8191	255	
20925.814	1	1	0	0	0.1637	0.14533	0.25355	0.097479	0.21598	0.11005	0.30662	0.19028	0.14061	0.21765	0.20775	0.24516	0.12329	0.25029	0.06491	0.11678	-2.1521	-2.6813	-2.3854	-2.9792	-2.4271	-2.4042	-3.1708	-2.6875	-2.5646	-2.5625	-2.4271	-2.7104	-2.4667	-2.3646	-2.7	-2.5792	338.956	328.434	91.145	401.457	173.253	376.926	114.565	399.611	222.399	199.944	102.325	414.708	437.100	418.875	140.649	397.791	0.00059669	0.00038201	0.00017219	1045.6	2.3278e-06	2.5852e-06	1138.7	215.12	2.6231e-06	4.4027e-06	272.46	77.156	60.597	17.45	4.9748e-06	24.274	0.00022206	0.00021193	5.8453e-05	1025.9	2.3465e-06	2.3083e-06	1113.5	212.96	2.3124e-06	2.3044e-06	268.7	76.693	60.116	17.747	2.3686e-06	24.68	305.505	146.731	193.349	89.694	238.844	416.124	89.558	97.696	285.346	221.557	96.946	103.455	104.281	111.178	273.930	110.390	-8191	255	
20925.934	1	1	0	0	0.16462	0.1841	0.17338	0.20443	0.17013	0.2148	0.29375	0.12349	0.078189	0.17819	0.35096	0.16049	0.31674	0.29217	0.25032	0.17252	-1.9271	-2.6083	-2.4083	-2.7062	-2.6875	-2.4188	-2.7771	-2.5479	-2.4208	-2.7938	-2.3417	-2.6854	-2.7708	-2.4583	-2.8375	-2.4771	125.917	307.279	149.529	374.609	393.758	224.827	80.032	283.639	361.709	209.532	136.571	248.518	400.708	172.151	82.723	164.411	0.00062111	0.0001412	6.5219e-05	1046	9.5691e-06	5.5474e-06	1141	215.31	6.9076e-06	6.936e-06	270.52	77.353	60.453	17.467	2.1374e-06	24.415	0.0002211	0.00021279	5.9589e-05	1028.2	2.3771e-06	2.3897e-06	1115.5	213.12	2.346e-06	2.3165e-06	268.03	76.631	60.128	17.721	2.3456e-06	24.7	313.655	229.659	152.406	89.761	236.397	287.104	89.727	97.705	275.937	207.830	96.798	104.390	103.927	111.272	178.253	110.593	-8191	255	
20926.029	1	1	0	0	0.029297	0.17856	0.084608	0.22665	0.13317	0.17548	0.40206	0.20112	0.21807	0.13277	0.13671	0.10094	0.39649	0.078217	0.17399	0.13108	-2.0854	-2.6396	-2.3875	-2.8833	-2.6958	-2.3438	-2.7542	-2.6625	-2.4521	-2.8187	-2.5438	-2.7313	-2.8229	-2.4125	-2.9292	-2.6646	223.054	312.226	354.203	345.354	258.688	282.646	417.076	125.140	384.167	377.591	405.341	275.787	409.578	242.729	359.104	228.104	0.00054723	0.00035401	7.6842e-05	1039.9	2.9647e-06	3.5528e-06	1141.2	214.7	7.2456e-06	5.5787e-06	271.29	77.104	60.687	17.473	1.7023e-06	24.322	0.00021979	0.00020865	5.7871e-05	1024.2	2.3176e-06	2.3292e-06	1115.5	212.52	2.3348e-06	2.2902e-06	268.01	76.664	60.001	17.727	2.3032e-06	24.662	305.098	181.109	226.034	89.721	149.756	294.753	89.692	97.153	265.166	196.879	97.121	103.978	104.040	111.483	266.434	110.189	-8191	255	
20926.127	1	1	0	0	0.16942	0.32603	0.10527	0.15215	0.26468	0.21191	0.41315	0.15199	0.20498	0.22344	0.13728	0.13977	0.085601	0.036828	0.36397	0.20077	-1.9354	-2.8854	-2.3667	-2.6937	-2.8542	-2.4375	-2.7833	-2.7083	-2.3208	-2.8	-2.3875	-2.4958	-2.8958	-2.3479	-2.625	-2.6937	334.693	433.457	278.849	342.968	164.931	386.368	323.174	323.331	170.259	178.834	366.299	214.005	195.683	349.437	264.977	343.647	0.0005468	0.0003167	9.0396e-05	1043.3	5.9011e-06	1.6455e-06	1138.6	215.56	6.8405e-06	1.4559e-06	270.92	77.449	60.313	17.385	4.7071e-06	24.321	0.00021284	0.00021106	5.8884e-05	1025.6	2.3173e-06	2.2853e-06	1112.9	212.57	2.2647e-06	2.2894e-06	267.79	76.797	60.037	17.719	2.3301e-06	24.704	326.522	159.129	186.428	89.723	222.999	361.179	89.921	97.614	250.576	396.884	96.661	103.785	104.513	111.273	205.001	110.633	-8191	255	
20926.223	1	1	0	0	0.087232	0.26058	0.20986	0.34101	0.17664	0.24456	0.35376	0.23142	0.042006	0.28964	0.28029	0.23929	0.24858	0.19705	0.23687	0.19912	-1.9042	-2.9104	-2.4771	-2.6333	-2.7396	-2.3021	-2.8771	-2.6937	-2.2729	-2.7292	-2.7792	-2.3917	-2.8063	-2.4021	-2.6042	-2.8229	102.304	243.459	374.545	365.396	434.791	155.734	408.673	194.782	408.776	357.601	359.136	372.992	356.668	144.793	245.352	358.903	0.00050099	0.0001931	7.707e-05	1039.9	5.516e-06	4.8753e-06	1140.1	214.41	3.5138e-06	4.7236e-06	274.17	77.559	61.068	17.505	4.6314e-06	24.411	0.00021685	0.00021386	5.9729e-05	1025.1	2.4055e-06	2.4022e-06	1114.8	212.82	2.4847e-06	2.4464e-06	268.96	76.923	60.426	17.804	2.5066e-06	24.749	297.229	265.257	183.230	89.583	244.330	314.411	89.595	97.558	291.324	165.391	97.025	104.105	104.272	111.085	180.592	110.546	-8191	255	
20926.342	1	1	0	0	0.12577	0.064457	0.20527	0.31586	0.10852	0.2111	0.34673	0.26888	0.20797	0.25615	0.15642	0.14257	0.22365	0.14972	0.15782	0.23112	-1.7042	-2.775	-2.5646	-2.4688	-2.9375	-2.3396	-2.7625	-2.7417	-2.2417	-2.5146	-2.6292	-2.575	-2.8521	-2.475	-2.6312	-2.7875	334.311	337.988	183.205	392.777	315.630	285.175	90.976	309.278	437.860	383.321	368.934	243.262	393.909	317.316	265.555	372.407	0.00057837	0.00027281	0.00012862	1045.9	5.5556e-06	3.5989e-06	1145.3	215.59	6.0764e-06	3.0584e-06	271.38	77.066	60.85	17.497	1.0718e-06	24.473	0.00022988	0.00022238	6.1608e-05	1027.3	2.4487e-06	2.4384e-06	1117.4	212.74	2.3985e-06	2.3763e-06	268.27	76.642	60.162	17.796	2.3586e-06	24.757	317.641	166.963	264.260	89.666	254.961	234.246	89.755	97.223	230.935	265.719	96.935	104.327	104.575	110.676	270.479	110.629	-8191	255	
20926.412	1	1	0	0	0.18205	0.24071	0.25181	0.30307	0.16684	0.096787	0.19258	0.17234	0.25042	0.057846	0.083151	0.27397	0.37024	0.19846	0.024347	0.037952	-1.8792	-2.5229	-2.7958	-2.4729	-2.8896	-2.6208	-2.5646	-2.725	-2.3083	-2.6979	-2.6542	-2.1625	-2.7938	-2.3542	-2.3917	-2.7417	279.042	316.463	197.582	369.840	326.685	346.699	169.500	410.292	415.596	210.239	321.175	372.122	387.827	378.520	106.551	152.539	0.00063282	0.00066291	8.734e-05	1040.7	6.6322e-06	1.398e-06	1139.2	214.69	4.1307e-06	4.9858e-06	272.36	77.575	61.178	17.555	1.5833e-06	24.279	0.00022251	0.00021875	6.1123e-05	1026	2.4632e-06	2.386e-06	1115	212.7	2.4079e-06	2.4473e-06	269.02	76.986	60.495	17.84	2.5113e-06	24.74	319.273	142.480	170.121	89.871	212.582	199.492	89.721	97.486	185.959	296.209	96.816	103.853	104.454	111.017	194.327	110.492	-8191	255	
20926.510	1	1	0	0	0.21722	0.11476	0.25045	0.16615	0.22131	0.046137	0.26358	0.19153	0.11077	0.12699	0.022758	0.10179	0.28735	0.15356	0.24697	0.11094	-1.9792	-2.6646	-2.3833	-2.4229	-2.8542	-2.4562	-2.6667	-2.9104	-2.2833	-2.8458	-2.8563	-2.3167	-2.7521	-2.6146	-2.4958	-2.7417	213.748	171.451	163.141	331.226	171.581	240.856	412.020	346.385	108.816	407.762	127.889	321.656	331.194	379.036	332.578	374.063	0.00061132	8.4755e-05	0.00013744	1045.5	5.6888e-06	4.4477e-06	1136.5	214.99	6.2238e-06	2.9195e-06	272.12	77.245	59.932	17.468	5.1422e-06	24.396	0.00023359	0.00023352	6.2902e-05	1027.5	2.5205e-06	2.4685e-06	1115.6	213.17	2.4786e-06	2.4692e-06	269.18	76.961	60.162	17.795	2.476e-06	24.723	312.802	85.395	99.330	89.702	194.301	253.163	89.591	97.215	240.833	276.690	96.765	104.230	104.472	110.989	210.295	110.407	-8191	255	
20926.631	1	1	0	0	0.080421	0.10079	0.34825	0.26078	0.076367	0.10589	0.34928	0.17017	0.070136	0.10523	0.09202	0.15915	0.037187	0.063221	0.071502	0.064576	-2.0354	-2.6125	-2.75	-2.4646	-2.5563	-2.7271	-2.3583	-2.9521	-2.6021	-2.5104	-2.85	-2.2146	-2.7062	-2.6562	-2.4	-2.8083	367.908	222.600	307.634	400.797	324.149	89.942	85.852	344.552	110.953	431.087	88.795	111.792	323.678	104.069	436.057	416.760	0.00058549	0.00027032	0.00010603	1042.1	1.834e-06	3.2218e-06	1137.9	215.53	4.7783e-06	5.1539e-06	270.86	77.17	60.687	17.361	2.5145e-06	24.342	0.00022995	0.00022446	6.2863e-05	1025	2.4627e-06	2.4305e-06	1114.1	213.09	2.4466e-06	2.4328e-06	268.43	77.001	60.347	17.748	2.4494e-06	24.718	297.560	177.407	138.386	89.844	172.180	164.209	89.571	97.575	225.888	304.174	96.730	103.951	104.263	111.278	205.487	110.864	-8191	255	
20926.727	1	1	0	0	0.19492	0.1341	0.22586	0.17791	0.18545	0.061894	0.32023	0.24592	0.13417	0.37833	0.10596	0.20629	0.17527	0.03146	0.033972	0.059427	-1.9771	-2.4646	-2.8458	-2.3354	-2.5125	-2.6167	-2.4938	-2.9625	-2.5333	-2.2542	-3.0292	-2.3563	-2.8375	-2.7646	-2.325	-2.65	209.215	279.515	371.595	382.608	282.711	387.406	357.091	373.870	318.466	348.422	107.619	373.345	234.107	157.911	259.974	290.495	0.00053318	0.00015683	2.1604e-05	1043.5	3.9623e-06	7.3053e-07	1137.1	214.47	7.0276e-06	4.3757e-06	270.39	76.839	60.8	17.514	2.5158e-06	24.369	0.00022603	0.00022069	6.1886e-05	1026.4	2.407e-06	2.3733e-06	1114.2	213.04	2.4061e-06	2.4022e-06	268.22	76.682	60.394	17.75	2.3623e-06	24.752	314.812	228.516	152.796	89.638	214.319	357.187	89.567	97.419	248.154	194.711	96.965	104.041	104.260	111.542	291.063	110.318	-8191	255	
#DATA ENDS
