BOXY.EXE: ISS Imagent and Oximeter Data Acquisition Program Version 0.80
Ascii Record File

#ACQ INFORMATION
2  Detector Channels 
16  External MUX Channels 
1  Auxiliary Channels 
5000  Waveform (CCF) Frequency (Hz)
1  Waveforms Skipped 
30  Waveforms Averaged 
1  Cycles Averaged 
16  Acquisitions per Waveform 
10.0806  Updata Rate (Hz) 

#FILE INFORMATION
TRUE -- External MUX Channel results are PARSED.
FALSE -- AC DC and Phase are NOT grouped.
TRUE -- Companion Program Settings File CREATED.
FALSE -- AC data not excluded
FALSE -- DC data not excluded
FALSE -- Phase data not excluded
FALSE -- Auxillary Chn. data not excluded
Tab delimiters

#CALIBRATION STATE
TRUE -- Waveform Calibration Values APPLIED.


#AUX CALIBRATION VALUES
Val Type	aux-1	

Term	1.0000e+00	
Factor	0.0000e+00	


#WF CALIBRATION VALUES
A = Detector Channel
Val Type	A-AC1	A-AC2	A-AC3	A-AC4	A-AC5	A-AC6	A-AC7	A-AC8	A-AC9	A-AC10	A-AC11	A-AC12	A-AC13	A-AC14	A-AC15	A-AC16	A-DC1	A-DC2	A-DC3	A-DC4	A-DC5	A-DC6	A-DC7	A-DC8	A-DC9	A-DC10	A-DC11	A-DC12	A-DC13	A-DC14	A-DC15	A-DC16	A-Ph1	A-Ph2	A-Ph3	A-Ph4	A-Ph5	A-Ph6	A-Ph7	A-Ph8	A-Ph9	A-Ph10	A-Ph11	A-Ph12	A-Ph13	A-Ph14	A-Ph15	A-Ph16	

Term	0.00000e+00	0.00000e+00	0.00000e+00	0.00000e+00	0.00000e+00	0.00000e+00	0.00000e+00	0.00000e+00	0.00000e+00	0.00000e+00	0.00000e+00	0.00000e+00	0.00000e+00	0.00000e+00	0.00000e+00	0.00000e+00	0.00000e+00	0.00000e+00	0.00000e+00	0.00000e+00	0.00000e+00	0.00000e+00	0.00000e+00	0.00000e+00	0.00000e+00	0.00000e+00	0.00000e+00	0.00000e+00	0.00000e+00	0.00000e+00	0.00000e+00	0.00000e+00	0.00000e+00	0.00000e+00	0.00000e+00	0.00000e+00	0.00000e+00	0.00000e+00	0.00000e+00	0.00000e+00	0.00000e+00	0.00000e+00	0.00000e+00	0.00000e+00	0.00000e+00	0.00000e+00	0.00000e+00	0.00000e+00	
Factor	1.00000e+00	1.00000e+00	1.00000e+00	1.00000e+00	1.00000e+00	1.00000e+00	1.00000e+00	1.00000e+00	1.00000e+00	1.00000e+00	1.00000e+00	1.00000e+00	1.00000e+00	1.00000e+00	1.00000e+00	1.00000e+00	1.00000e+00	1.00000e+00	1.00000e+00	1.00000e+00	1.00000e+00	1.00000e+00	1.00000e+00	1.00000e+00	1.00000e+00	1.00000e+00	1.00000e+00	1.00000e+00	1.00000e+00	1.00000e+00	1.00000e+00	1.00000e+00	X	X	X	X	X	X	X	X	X	X	X	X	X	X	X	X	

B = Detector Channel
Val Type	B-AC1	B-AC2	B-AC3	B-AC4	B-AC5	B-AC6	B-AC7	B-AC8	B-AC9	B-AC10	B-AC11	B-AC12	B-AC13	B-AC14	B-AC15	B-AC16	B-DC1	B-DC2	B-DC3	B-DC4	B-DC5	B-DC6	B-DC7	B-DC8	B-DC9	B-DC10	B-DC11	B-DC12	B-DC13	B-DC14	B-DC15	B-DC16	B-Ph1	B-Ph2	B-Ph3	B-Ph4	B-Ph5	B-Ph6	B-Ph7	B-Ph8	B-Ph9	B-Ph10	B-Ph11	B-Ph12	B-Ph13	B-Ph14	B-Ph15	B-Ph16	

Term	0.00000e+00	0.00000e+00	0.00000e+00	0.00000e+00	0.00000e+00	0.00000e+00	0.00000e+00	0.00000e+00	0.00000e+00	0.00000e+00	0.00000e+00	0.00000e+00	0.00000e+00	0.00000e+00	0.00000e+00	0.00000e+00	0.00000e+00	0.00000e+00	0.00000e+00	0.00000e+00	0.00000e+00	0.00000e+00	0.00000e+00	0.00000e+00	0.00000e+00	0.00000e+00	0.00000e+00	0.00000e+00	0.00000e+00	0.00000e+00	0.00000e+00	0.00000e+00	-1.23726e+02	-1.39918e+02	-1.78938e+02	-1.81413e+02	-3.50059e+01	-7.24347e+01	-1.57789e+02	-1.62015e+02	-7.41590e+01	-9.50557e+01	-1.80411e+02	-1.70917e+02	-1.81322e+02	-1.76271e+02	-8.71251e+01	-1.49364e+02	
Factor	1.81544e-05	1.23178e-04	2.51159e-05	1.85326e-01	8.05980e-07	9.73926e-07	1.72092e-01	5.34215e-02	8.30615e-07	1.09759e-06	1.07935e-01	3.07122e-02	2.47813e-02	9.40291e-03	9.68748e-07	1.38253e-02	5.41759e-07	5.53856e-07	1.53778e-07	8.86287e-02	6.03997e-09	6.06804e-09	7.82073e-02	2.56647e-02	6.05508e-09	6.07195e-09	4.76290e-02	1.39290e-02	1.17526e-02	4.39035e-03	6.05682e-09	6.14778e-03	X	X	X	X	X	X	X	X	X	X	X	X	X	X	X	X	



#DISTANCE SETTINGS
A = Detector Channel
A-1	A-2	A-3	A-4	A-5	A-6	A-7	A-8	A-9	A-10	A-11	A-12	A-13	A-14	A-15	A-16	

2.5000e+00	3.0000e+00	2.5000e+00	3.0000e+00	2.0000e+00	3.0000e+00	1.5000e+00	3.0000e+00	3.0000e+00	3.0000e+00	3.0000e+00	3.0000e+00	3.0000e+00	3.0000e+00	1.5000e+00	3.0000e+00	

B = Detector Channel
B-1	B-2	B-3	B-4	B-5	B-6	B-7	B-8	B-9	B-10	B-11	B-12	B-13	B-14	B-15	B-16	

1.0000e+01	1.0000e+01	1.0000e+01	1.4400e+00	1.0000e+01	1.0000e+01	1.5100e+00	1.9400e+00	1.0000e+01	1.0000e+01	1.9900e+00	2.4900e+00	2.4100e+00	2.9000e+00	1.0000e+01	2.9800e+00	




#DATA BEGINS
time	group	step	mark	flag	A-AC1	A-AC2	A-AC3	A-AC4	A-AC5	A-AC6	A-AC7	A-AC8	A-AC9	A-AC10	A-AC11	A-AC12	A-AC13	A-AC14	A-AC15	A-AC16	A-DC1	A-DC2	A-DC3	A-DC4	A-DC5	A-DC6	A-DC7	A-DC8	A-DC9	A-DC10	A-DC11	A-DC12	A-DC13	A-DC14	A-DC15	A-DC16	A-Ph1	A-Ph2	A-Ph3	A-Ph4	A-Ph5	A-Ph6	A-Ph7	A-Ph8	A-Ph9	A-Ph10	A-Ph11	A-Ph12	A-Ph13	A-Ph14	A-Ph15	A-Ph16	B-AC1	B-AC2	B-AC3	B-AC4	B-AC5	B-AC6	B-AC7	B-AC8	B-AC9	B-AC10	B-AC11	B-AC12	B-AC13	B-AC14	B-AC15	B-AC16	B-DC1	B-DC2	B-DC3	B-DC4	B-DC5	B-DC6	B-DC7	B-DC8	B-DC9	B-DC10	B-DC11	B-DC12	B-DC13	B-DC14	B-DC15	B-DC16	B-Ph1	B-Ph2	B-Ph3	B-Ph4	B-Ph5	B-Ph6	B-Ph7	B-Ph8	B-Ph9	B-Ph10	B-Ph11	B-Ph12	B-Ph13	B-Ph14	B-Ph15	B-Ph16	aux-1	digaux	

2900.657	1	1	0	512	0.18578	0.20123	0.14447	0.27454	0.28359	0.29008	0.1038	0.25137	0.056605	0.22317	0.22653	0.076303	0.087815	0.11348	0.41513	0.19347	-2.4979	-2.1417	-2.6729	-2.9938	-2.3479	-2.7271	-2.8729	-2.3625	-2.9208	-2.3896	-2.6375	-2.8271	-2.3167	-2.6854	-2.7771	-2.2542	222.337	-61.515	35.631	236.698	211.837	76.478	263.834	135.960	100.212	56.960	204.699	80.535	-36.947	251.334	246.056	97.870	9.3807e-05	0.00015914	9.8758e-05	482.47	8.8053e-07	3.5928e-06	482.39	148.13	2.1999e-06	2.8406e-06	191.25	77.189	58.629	28.25	7.4649e-06	39.864	8.8046e-05	9.1709e-05	2.7992e-05	440.58	9.4817e-07	1.0383e-06	447.65	136.57	9.494e-07	1.0508e-06	170.64	69.725	52.947	25.331	1.0833e-06	34.986	187.108	253.307	224.312	-70.435	136.361	162.401	-71.073	-64.795	104.601	63.226	-66.575	-62.318	-60.416	-55.121	78.096	-58.437	-8191	255	
2900.751	1	1	0	0	0.32057	0.22313	0.25329	0.14714	0.12116	0.099835	0.23722	0.32484	0.045778	0.06334	0.060673	0.054198	0.22152	0.076791	0.069342	0.30529	-2.4729	-2.6833	-2.3937	-2.9938	-2.4396	-2.7958	-2.8208	-2.2562	-3.0125	-2.5312	-2.6646	-3.0333	-2.3812	-2.7458	-2.7854	-2.3729	259.216	175.235	36.663	254.994	-38.747	224.635	155.280	73.064	249.386	157.335	-43.455	216.944	238.660	204.223	272.469	149.660	0.00014428	0.00045277	8.5567e-05	477.83	6.5677e-07	3.3617e-06	483.74	147.72	1.7705e-06	3.7398e-06	189.28	77.339	58.184	28.163	3.3693e-06	39.937	8.791e-05	9.7776e-05	2.6295e-05	439.68	9.4669e-07	1.0914e-06	446.94	136.02	9.6107e-07	1.1263e-06	168.98	69.704	52.956	25.267	1.0597e-06	35.02	211.331	-44.765	-49.161	-69.987	267.477	43.388	-71.229	-65.136	93.334	-23.287	-66.682	-62.441	-60.029	-54.823	3.740	-58.530	-8191	255	
2900.847	1	1	0	0	0.17143	0.24877	0.113	0.20013	0.18154	0.0055641	0.13098	0.088764	0.24471	0.10856	0.090321	0.052136	0.11556	0.21641	0.16413	0.10359	-2.5354	-2.5021	-2.2333	-2.9562	-2.3792	-2.6583	-2.9958	-2.3583	-2.8812	-2.7812	-2.3021	-2.9583	-2.3042	-2.6333	-2.9125	-2.3479	-2.183	7.406	-4.257	209.201	88.441	256.396	94.937	219.572	242.109	-41.966	61.788	-52.277	193.040	210.934	-11.159	210.637	0.00013353	0.00024924	7.9762e-05	485.46	5.5841e-07	1.1554e-06	483.58	148.02	2.9242e-06	2.3149e-06	190.36	77.454	58.021	28.332	6.8119e-06	39.967	9.4344e-05	0.00010547	2.6753e-05	443.58	1.0141e-06	1.1431e-06	448.35	135.83	1.0491e-06	1.1348e-06	169.5	69.743	53.13	25.334	1.0625e-06	35.048	161.808	-52.841	-4.949	-70.264	231.556	48.097	-71.097	-64.550	-3.955	184.048	-66.631	-62.429	-59.689	-54.924	12.044	-58.242	-8191	255	
2900.968	1	1	0	0	0.35814	0.10942	0.30843	0.10205	0.055935	0.11931	0.048453	0.097439	0.14879	0.19652	0.11342	0.075825	0.32979	0.4053	0.1331	0.093886	-2.3729	-2.5917	-2.325	-3.15	-2.4104	-2.4521	-2.9667	-2.3292	-2.7229	-2.8125	-2.1729	-3.0646	-2.6146	-2.4292	-2.8333	-2.4813	127.033	176.577	-57.888	199.342	118.673	-61.305	-65.448	5.275	202.926	19.564	208.477	92.881	188.457	265.637	140.206	-68.455	0.00014195	0.00034621	5.869e-05	487.4	8.0292e-07	9.2522e-07	480.93	145.67	6.2524e-07	2.2708e-06	188.9	76.687	57.996	27.668	4.5685e-06	39.022	0.00010262	0.00010491	2.6742e-05	446.41	1.1323e-06	1.1581e-06	446.79	135.12	1.1658e-06	1.1576e-06	167.52	69.314	52.974	24.942	1.0746e-06	34.354	214.757	238.621	234.726	-70.218	194.024	70.466	-71.484	-64.862	26.323	67.189	-66.746	-62.468	-59.673	-54.840	-3.633	-58.752	-8191	255	
2901.040	1	1	0	0	0.2421	0.15243	0.492	0.15513	0.26438	0.23149	0.027463	0.045194	0.20144	0.17327	0.20286	0.31011	0.18101	0.19654	0.25201	0.21644	-2.4229	-2.5583	-2.0104	-2.9062	-2.7146	-2.4729	-3	-2.3875	-2.5958	-2.8167	-2.4167	-3.0146	-2.5438	-2.3854	-2.8583	-2.5542	-42.461	156.814	234.169	77.453	163.365	-48.905	-58.129	-21.008	92.498	78.575	228.218	133.506	214.546	-59.523	-8.600	231.706	0.00014713	0.00013034	0.00010799	489.54	2.8711e-06	1.7425e-06	481.63	144.74	2.3286e-06	3.4606e-06	186.38	75.816	56.667	27.215	3.9743e-06	38.83	0.00011151	0.00010715	2.6801e-05	451.42	1.2305e-06	1.1467e-06	445.98	134.21	1.2426e-06	1.1208e-06	165.71	68.743	52.463	24.65	1.0504e-06	34.182	192.496	178.516	-75.536	-70.363	130.851	12.108	-71.478	-64.740	213.273	-39.667	-66.643	-62.298	-59.938	-54.765	3.533	-58.553	-8191	255	
2901.160	1	1	0	0	0.23318	0.15246	0.16852	0.071612	0.10937	0.10698	0.036193	0.21789	0.097628	0.071628	0.23227	0.15695	0.041955	0.043741	0.11468	0.16406	-2.1792	-2.8958	-2.0396	-2.7021	-2.5708	-2.3667	-3.1167	-2.1354	-2.2542	-3.0354	-2.4417	-2.7271	-2.5292	-2.2562	-2.9938	-2.45	223.354	-80.052	158.786	241.304	168.694	-79.549	103.652	-3.715	151.187	43.048	267.529	227.909	39.362	269.992	109.756	191.831	0.00015115	0.00030815	9.9265e-05	492.14	4.8626e-07	6.587e-07	480.04	144.67	4.7249e-07	1.5303e-06	185.16	76.325	57.132	27.362	1.9807e-06	38.667	0.00011519	0.000103	2.6431e-05	454.95	1.2491e-06	1.0951e-06	444.85	134.53	1.2413e-06	1.1216e-06	165.2	69.11	52.522	24.684	1.0755e-06	34.29	191.912	92.641	-53.112	-70.445	132.651	-49.202	-71.132	-64.996	16.040	-33.354	-66.705	-61.977	-59.860	-55.156	80.780	-58.559	-8191	255	
2901.256	1	1	0	0	0.20114	0.13475	0.26841	0.26858	0.16939	0.15898	0.18605	0.13898	0.10906	0.1962	0.017857	0.19167	0.20158	0.086129	0.1468	0.30724	-1.9583	-2.8708	-2.2896	-2.7062	-2.8354	-2.3146	-2.8521	-2.7083	-2.5208	-2.9208	-2.2646	-2.7333	-2.9875	-2.3833	-2.8937	-2.6854	187.480	257.713	265.562	268.569	218.004	182.942	-68.663	-59.889	103.804	-20.359	158.745	-37.888	-67.913	-27.295	143.319	250.128	9.2299e-05	0.00015209	9.9584e-05	493.34	4.9391e-06	3.922e-06	480.48	146.4	1.7597e-06	2.0884e-07	186.29	76.672	57.365	27.441	2.9097e-06	38.962	0.0001137	0.00010336	2.7001e-05	456.37	1.217e-06	1.1053e-06	447.06	135.67	1.2146e-06	1.1076e-06	166.57	69.63	52.696	24.697	1.0995e-06	34.554	191.886	-19.372	-58.302	-70.402	153.843	28.807	-71.171	-64.581	-21.293	-2.093	-66.146	-62.443	-59.717	-54.649	75.583	-58.275	-8191	255	
2901.353	1	1	0	0	0.1215	0.3299	0.11664	0.25503	0.1876	0.15682	0.11199	0.086707	0.01159	0.11901	0.19081	0.30195	0.28223	0.085746	0.2287	0.073672	-1.8729	-2.9667	-2.2583	-2.6937	-2.8708	-2.3896	-2.9	-2.5708	-2.375	-2.9917	-2.4021	-2.5625	-2.8333	-2.1396	-2.7104	-2.8021	-77.011	49.846	136.367	-12.710	-39.292	49.002	152.025	133.020	72.557	61.764	265.750	265.275	135.701	161.987	78.274	264.433	7.2392e-05	0.00021219	2.4743e-05	495.78	2.4153e-06	3.4029e-06	485.91	146.16	1.7682e-06	4.9548e-06	186.97	76.764	57.356	27.635	1.0029e-06	38.933	0.00010941	9.7806e-05	2.7397e-05	457.13	1.1491e-06	1.0596e-06	450.22	135.82	1.1311e-06	1.0627e-06	167.3	69.644	52.65	24.778	1.1513e-06	34.453	188.703	-3.293	152.400	-70.826	168.872	33.579	-71.063	-65.119	98.437	133.266	-66.823	-62.558	-59.979	-54.893	48.945	-58.266	-8191	255	
2901.449	1	1	0	0	0.39503	0.11099	0.29184	0.24832	0.20396	0.10937	0.13119	0.34915	0.069783	0.084235	0.28005	0.18276	0.17234	0.21934	0.094238	0.33109	-1.8042	-2.9375	-2.4458	-2.4104	-3.0687	-2.4375	-2.7896	-2.6479	-2.4062	-3.0375	-2.3292	-2.5083	-2.9771	-2.2687	-2.65	-3.0708	118.170	104.136	202.943	54.857	-82.080	97.627	160.118	254.000	86.839	255.660	6.913	-49.102	212.494	128.959	144.308	263.184	0.00012291	4.5676e-05	1.4913e-05	489.58	1.947e-06	4.4393e-06	479.76	147.17	1.4627e-06	2.0548e-06	188.99	76.275	57.898	27.582	2.2188e-06	39.132	0.00010292	9.661e-05	2.9253e-05	453.7	1.1161e-06	1.0109e-06	448.18	136.16	1.0657e-06	9.9613e-07	168.68	69.218	52.547	24.794	1.1352e-06	34.442	190.201	-26.872	110.640	-70.398	-10.961	100.560	-71.168	-64.791	45.224	249.038	-66.745	-62.285	-59.757	-55.027	112.883	-58.699	-8191	255	
2901.545	1	1	0	0	0.12007	0.18631	0.063977	0.072604	0.18628	0.0065332	0.18825	0.45047	0.34917	0.21137	0.10485	0.22302	0.31102	0.1973	0.11653	0.20654	-1.8229	-3.0479	-2.6625	-2.4958	-2.9854	-2.4833	-2.6875	-2.8333	-2.1479	-2.6688	-2.75	-2.4146	-2.8479	-2.4271	-2.5708	-2.9562	138.038	173.140	79.846	-67.186	179.026	112.025	131.303	221.816	67.312	101.210	230.504	198.321	147.610	78.145	35.937	-82.715	6.0915e-05	0.00027748	2.2255e-05	487.93	1.4368e-06	7.617e-07	484.14	146.84	4.2978e-06	2.9851e-06	187.38	75.917	57.478	27.47	7.8493e-07	38.82	9.5989e-05	9.0946e-05	2.9417e-05	449.99	1.0168e-06	1.0079e-06	449.2	135.49	1.031e-06	1.0318e-06	168.73	69.046	52.382	24.74	1.2147e-06	34.298	197.656	65.112	115.846	-70.148	113.074	50.876	-71.201	-64.864	62.091	23.346	-66.133	-62.694	-60.087	-55.186	166.066	-58.477	-8191	255	
2901.641	1	1	0	0	0.18524	0.17558	0.077569	0.04643	0.15298	0.09721	0.25919	0.28332	0.16496	0.085486	0.076737	0.21205	0.13256	0.11857	0.33711	0.079065	-1.8479	-2.675	-2.5833	-2.2792	-3.0729	-2.4958	-2.525	-3.1146	-2.4729	-2.8271	-2.6125	-2.5229	-3.025	-2.4917	-2.65	-3.1729	101.539	123.185	170.560	98.615	82.461	273.409	223.591	186.865	78.609	49.159	113.564	48.226	248.712	212.672	252.776	48.338	5.2696e-05	0.00033355	4.9316e-05	493.68	3.5015e-06	3.3796e-06	484.15	144.77	1.1287e-06	3.7731e-06	185.55	75.148	56.248	27.151	3.4081e-06	38.528	9.7808e-05	9.9791e-05	3.1561e-05	455.32	1.0719e-06	1.1645e-06	451.41	134.78	1.0965e-06	1.2217e-06	167.94	68.63	51.958	24.667	1.3924e-06	34.056	134.215	258.262	12.580	-70.328	120.889	-41.848	-71.460	-65.105	234.739	-79.874	-66.721	-62.143	-59.674	-55.050	-66.002	-58.070	-8191	255	
2901.737	1	1	0	0	0.19756	0.11198	0.10254	0.080272	0.29446	0.064179	0.051285	0.095414	0.23193	0.19965	0.21782	0.12123	0.31739	0.1619	0.23792	0.35688	-1.8062	-2.7021	-2.7438	-2.4104	-2.8104	-2.45	-2.6167	-3.0729	-2.3812	-2.7125	-2.8792	-2.2	-3.0375	-2.5792	-2.2875	-2.9833	188.517	161.775	94.918	102.214	133.056	100.686	4.417	264.685	-67.460	81.739	-15.872	-38.918	189.198	-68.981	229.238	263.041	0.00011442	0.00032273	0.00011031	502.39	2.6322e-06	9.9336e-07	489.33	146.48	1.0886e-06	1.9931e-06	185.95	75.762	56.929	27.364	1.9166e-06	38.787	0.00011262	0.00012758	3.5623e-05	465.35	1.2182e-06	1.4114e-06	455.98	135.53	1.245e-06	1.4177e-06	168.79	69.038	52.545	24.877	1.3288e-06	34.347	173.899	-20.988	-29.516	-70.250	221.696	-35.526	-70.906	-65.146	100.947	49.948	-66.829	-62.499	-59.788	-55.184	19.399	-58.774	-8191	255	
2901.832	1	1	0	0	0.19615	0.20491	0.19971	0.06555	0.23471	0.12681	0.29978	0.31787	0.16392	0.055932	0.092774	0.1469	0.10324	0.15969	0.050927	0.147	-2.0938	-2.7875	-2.8542	-2.2104	-2.9896	-2.7562	-2.5292	-3.0333	-2.6333	-2.775	-2.7938	-2.3333	-2.9813	-2.6854	-2.3646	-3.0083	22.930	-49.090	170.720	272.542	-25.654	131.243	209.337	213.217	269.720	22.421	-18.980	39.712	205.779	58.650	12.081	238.285	0.00010213	0.00031784	8.7208e-06	495.98	4.4427e-07	9.1558e-07	482.83	144.92	1.9708e-06	3.9957e-06	184.73	75.607	56.925	27.449	2.7128e-06	38.423	0.00011299	0.00012643	3.2962e-05	457.09	1.1954e-06	1.3811e-06	450.58	135.01	1.2076e-06	1.3497e-06	167.44	68.68	52.406	24.795	1.2436e-06	33.94	197.892	-47.777	62.638	-70.200	260.289	114.478	-71.258	-64.745	274.712	-19.032	-66.339	-62.471	-59.788	-55.038	30.044	-58.584	-8191	255	
2901.929	1	1	0	0	0.2984	0.14041	0.16607	0.2052	0.098424	0.1502	0.14343	0.082391	0.1494	0.10731	0.23194	0.17652	0.104	0.33546	0.28982	0.1209	-2.0854	-2.4292	-2.8	-2.3458	-2.8688	-2.9125	-2.2292	-2.9313	-2.5438	-2.5958	-2.925	-2.3292	-2.6125	-2.6396	-2.2833	-3.0938	-8.202	227.941	115.329	239.632	198.741	31.686	185.377	204.222	241.761	119.210	-17.202	232.151	34.040	223.675	146.826	254.341	0.00010079	0.00051088	7.535e-05	492.89	9.4628e-07	3.4369e-06	483.96	144.78	1.7353e-06	1.4975e-06	184.63	74.128	56.251	27.022	3.3427e-06	38.223	0.00011907	0.00012606	3.2307e-05	456.16	1.3198e-06	1.4094e-06	450.22	134.22	1.3859e-06	1.4218e-06	166.79	68.153	52.241	24.596	1.3195e-06	33.833	165.941	68.453	-48.105	-70.486	194.677	67.481	-71.135	-64.624	167.689	94.945	-66.788	-62.331	-59.691	-55.085	79.119	-58.499	-8191	255	
2902.048	1	1	0	0	0.22238	0.07062	0.079878	0.32565	0.24079	0.18352	0.2202	0.043254	0.071278	0.17182	0.1056	0.25849	0.054083	0.26871	0.16071	0.13843	-2.0646	-2.5917	-2.8438	-2.3812	-2.7	-2.7458	-2.1813	-3.1437	-2.7062	-2.2396	-3.0521	-2.3479	-2.6813	-2.9646	-2.2417	-2.9229	266.468	245.109	130.904	264.394	-55.257	178.728	155.471	183.484	-53.964	47.672	12.044	108.464	-36.839	233.507	237.284	147.674	0.00016428	0.00025242	6.2084e-05	498.53	2.2066e-06	2.8491e-06	484.69	143.67	1.0591e-06	4.7436e-06	184.37	75.261	56.509	27.101	3.7131e-06	38.188	0.00013526	0.00013057	3.3577e-05	460.41	1.4777e-06	1.4357e-06	449.61	134.27	1.4995e-06	1.3844e-06	166.77	68.388	52.411	24.509	1.2891e-06	33.986	187.435	43.429	246.586	-70.492	150.837	90.528	-71.011	-64.938	-59.918	12.950	-66.370	-62.187	-59.708	-55.449	-13.569	-58.442	-8191	255	
2902.144	1	1	0	0	0.13505	0.054744	0.24706	0.31995	0.16177	0.080018	0.038825	0.14234	0.13473	0.24272	0.23903	0.2497	0.25232	0.1546	0.107	0.1477	-2.1833	-2.3542	-2.9354	-2.3833	-2.8792	-2.9688	-2.1521	-2.9167	-2.8542	-2.4292	-3.0979	-2.65	-2.6479	-2.9042	-2.4271	-3.1708	184.336	98.144	272.272	-64.321	101.535	-29.934	23.721	-72.469	185.230	-67.034	91.904	219.042	82.209	271.569	188.464	270.717	0.00010719	0.00046001	9.4778e-05	497.58	1.6728e-06	2.2087e-06	474.78	142.8	5.1969e-06	5.5712e-06	181.25	74.561	55.853	26.877	1.847e-06	38.029	0.00014023	0.00012704	3.3249e-05	459.69	1.5411e-06	1.4289e-06	446.15	133.86	1.6046e-06	1.4398e-06	164.64	68.674	52.189	24.368	1.3649e-06	34.009	232.107	39.339	-27.532	-70.323	64.972	106.986	-71.019	-65.133	19.763	30.818	-65.994	-62.541	-59.944	-54.934	66.828	-58.224	-8191	255	
2902.241	1	1	0	0	0.11231	0.19387	0.067992	0.12902	0.076343	0.12333	0.10324	0.22404	0.18478	0.25798	0.086434	0.088008	0.023116	0.19193	0.12192	0.21869	-2.4021	-2.1646	-3.2521	-2.5896	-2.6146	-3.0104	-2.5146	-2.8438	-2.7521	-2.4208	-3.0958	-2.4021	-2.5979	-3.1083	-2.2042	-2.6875	22.783	27.098	-13.747	175.104	124.275	-55.938	239.510	-74.570	-23.134	87.159	168.451	-2.944	130.048	-37.401	91.904	239.126	6.7542e-05	0.00021107	6.8449e-05	495.61	1.6986e-06	3.9823e-06	478.98	142.12	1.4784e-06	8.5635e-07	180.03	74.109	55.893	26.953	2.9828e-06	37.853	0.00014759	0.0001333	3.4756e-05	463.85	1.5783e-06	1.4536e-06	447.22	133.96	1.5654e-06	1.3997e-06	164.31	68.352	52.007	24.371	1.3609e-06	33.86	142.000	18.723	-71.706	-70.576	31.178	29.480	-71.080	-64.853	71.098	10.361	-66.575	-62.424	-59.679	-55.097	169.687	-58.245	-8191	255	
2902.337	1	1	0	0	0.2493	0.10932	0.25637	0.11217	0.21277	0.24534	0.43311	0.24452	0.20441	0.15616	0.28157	0.052568	0.13173	0.17344	0.096039	0.162	-2.4979	-2.3583	-2.8688	-2.7188	-2.5917	-3.0521	-2.4125	-2.9042	-2.8875	-2.2188	-2.8854	-2.8542	-2.4792	-3.0667	-2.3521	-2.65	-1.655	109.630	234.351	235.635	125.556	61.707	222.214	176.985	-44.209	144.278	192.956	125.400	254.101	264.185	-16.451	173.411	7.0932e-05	0.00022278	9.3942e-05	495.38	2.5595e-06	2.5894e-06	472.62	143.1	3.3114e-06	3.9889e-06	181.03	73.991	55.213	26.884	1.6621e-06	38.2	0.00013688	0.00012293	3.4318e-05	461.07	1.4423e-06	1.3289e-06	443.23	134.08	1.4171e-06	1.3244e-06	164.6	68.194	51.758	24.381	1.3752e-06	34.055	198.126	28.950	-59.624	-70.470	84.746	7.708	-70.950	-65.025	57.895	12.424	-66.938	-62.626	-59.671	-55.016	252.497	-58.081	-8191	255	
2902.433	1	1	0	0	0.20338	0.1447	0.17061	0.26811	0.31097	0.093189	0.099	0.1578	0.14601	0.080291	0.32218	0.20533	0.12788	0.10661	0.11846	0.15703	-2.4958	-2.2792	-2.8438	-2.7104	-2.6542	-2.9688	-2.4229	-2.775	-3.0375	-2.3771	-2.8625	-2.6792	-2.2708	-3.0417	-2.6437	-2.6042	-78.931	-3.373	47.670	-14.010	215.234	134.110	120.535	233.674	226.164	-80.786	-5.306	155.983	8.373	120.756	220.046	191.044	0.0001482	0.00057966	6.6379e-05	486.82	2.5608e-06	2.8302e-06	477.84	143	2.7367e-06	3.9704e-06	183.66	74.024	55.883	27.145	1.6547e-06	38.682	0.00012609	0.00011704	3.4669e-05	452.67	1.3311e-06	1.2518e-06	446.44	133.59	1.3205e-06	1.2448e-06	166.29	68.117	51.563	24.517	1.4222e-06	34.241	172.774	13.480	119.538	-70.425	80.720	-21.167	-70.682	-64.877	-27.583	57.863	-66.180	-62.488	-59.825	-55.066	85.117	-58.358	-8191	255	
2902.529	1	1	0	0	0.33318	0.34609	0.17587	0.05004	0.12155	0.14623	0.24211	0.34692	0.26878	0.14582	0.17523	0.15833	0.11839	0.099673	0.11226	0.32351	-2.6479	-2.2542	-2.8729	-2.7604	-2.2083	-2.9667	-2.6458	-2.6	-2.9333	-2.4208	-2.7417	-2.7583	-2.1646	-2.8021	-2.7208	-2.2229	43.908	117.884	-46.701	-27.778	-22.793	12.063	141.776	253.780	37.437	231.731	27.199	-65.147	101.301	3.015	8.933	248.523	0.00013067	0.00041775	5.4696e-05	487.2	5.4223e-07	2.7357e-06	479.99	143.41	2.2322e-06	9.4422e-07	185.89	74.72	55.952	27.368	2.7218e-06	39.019	0.00012313	0.00011629	3.6823e-05	453.45	1.3062e-06	1.2795e-06	448.79	134.34	1.2972e-06	1.2507e-06	168.64	68.412	51.736	24.753	1.3789e-06	34.491	183.572	-9.397	-32.224	-70.547	42.290	18.382	-71.124	-65.139	55.820	6.325	-66.726	-62.148	-60.080	-55.207	147.407	-58.384	-8191	255	
2902.650	1	1	0	0	0.16421	0.19678	0.13601	0.17221	0.23873	0.15423	0.11859	0.18053	0.0062776	0.058325	0.062432	0.023776	0.044861	0.31527	0.20016	0.31805	-2.4417	-2.3875	-2.4896	-2.8979	-2.1813	-2.975	-2.8438	-2.2062	-3.0104	-2.4958	-2.6625	-2.8917	-2.2667	-3.0583	-2.6125	-2.2333	-63.161	-56.806	-82.442	-76.718	95.977	-47.064	128.432	149.137	245.125	189.350	179.680	74.132	258.792	-26.406	106.338	70.176	0.00012032	0.00018409	6.5823e-05	486.22	2.1625e-06	1.6965e-06	486.62	144.99	1.433e-06	1.5293e-06	187.05	75.15	56.614	27.557	3.4372e-06	38.807	0.00010998	0.00010799	3.3666e-05	450.76	1.1414e-06	1.185e-06	451.97	134.54	1.1188e-06	1.1723e-06	169.13	68.229	51.574	24.735	1.2212e-06	34.307	162.544	97.336	-76.633	-69.908	30.314	136.839	-71.555	-64.877	268.405	79.571	-66.856	-62.168	-59.817	-54.902	82.927	-58.386	-8191	255	
2902.744	1	1	0	0	0.1902	0.22599	0.22695	0.12342	0.30544	0.066824	0.31526	0.1316	0.094353	0.14262	0.18063	0.074948	0.094429	0.27346	0.15319	0.18993	-2.4167	-2.4521	-2.3521	-2.8521	-2.3375	-2.725	-2.6271	-2.2292	-2.9729	-2.3688	-2.7021	-2.9542	-2.1188	-2.8042	-2.9708	-2.0792	11.518	-4.702	40.260	190.586	128.196	267.840	247.570	211.459	233.239	120.253	-18.083	243.558	-72.934	-66.282	-37.461	50.590	9.7469e-05	0.00038015	0.00010698	488.11	3.2677e-06	2.4879e-06	490.06	146.57	2.1744e-06	2.8015e-06	189.37	75.48	57.016	27.769	3.6314e-06	39.346	9.6593e-05	0.00010569	3.061e-05	447.69	1.0592e-06	1.1745e-06	453.17	135.57	1.0549e-06	1.1816e-06	170.63	68.513	52.14	25.007	1.1509e-06	34.576	179.739	114.769	-59.860	-70.772	79.320	-3.733	-70.946	-64.996	21.089	42.211	-66.439	-62.156	-59.870	-54.700	28.796	-58.905	-8191	255	
2902.840	1	1	0	0	0.25739	0.063501	0.091497	0.13429	0.13153	0.080469	0.23938	0.17019	0.10292	0.036524	0.30722	0.094797	0.35528	0.16239	0.20072	0.037512	-2.4104	-2.6562	-2.4729	-2.9896	-2.3	-2.6979	-2.8208	-2.0646	-2.9458	-2.5292	-2.3812	-3.0771	-2.4625	-2.8333	-2.8625	-2.5979	-45.640	41.778	94.443	269.322	-73.763	158.703	231.680	273.077	-8.911	-31.941	121.585	257.146	244.195	158.489	90.435	94.126	0.00011109	0.00028278	4.8966e-05	484.75	2.3591e-06	9.7747e-07	494.23	149.4	1.585e-06	3.1574e-06	193.8	76.996	57.662	28.296	3.6413e-06	40.237	9.5754e-05	0.00010613	2.7989e-05	446.21	9.9476e-07	1.1589e-06	456.42	137.63	1.0096e-06	1.1305e-06	173.34	69.236	52.841	25.444	1.042e-06	35.107	161.229	-32.915	271.035	-70.289	50.935	147.359	-70.920	-64.476	86.310	58.359	-66.737	-62.163	-59.782	-54.905	63.631	-58.412	-8191	255	
2902.936	1	1	0	0	0.15581	0.18633	0.044034	0.12765	0.096921	0.034341	0.16611	0.32411	0.34666	0.24568	0.23563	0.15085	0.27877	0.29008	0.26484	0.042003	-2.6458	-2.575	-2.475	-3.0833	-2.4271	-2.6292	-3.0542	-2.2417	-2.7938	-2.7188	-2.4917	-2.9813	-2.5833	-2.6333	-2.9458	-2.3625	182.482	-66.427	241.401	124.587	254.407	-27.392	-67.583	176.806	265.489	145.000	190.288	206.035	92.713	269.162	210.970	-52.593	7.2083e-05	0.00061449	7.4768e-05	490.39	3.0809e-06	4.4002e-06	495.02	150.2	8.6862e-07	3.7293e-06	192.95	77.051	58.032	28.325	2.3139e-07	40.23	9.7477e-05	0.00010605	2.6509e-05	449.6	1.0541e-06	1.1644e-06	459.09	138.46	1.1095e-06	1.15e-06	173.81	69.571	53.217	25.503	1.0504e-06	35.205	199.047	-19.702	246.507	-70.406	35.395	28.445	-71.108	-64.937	47.318	60.305	-67.171	-62.132	-59.947	-54.874	253.003	-58.359	-8191	255	
2903.033	1	1	0	0	0.30732	0.15351	0.11298	0.34192	0.20976	0.2371	0.19221	0.16848	0.15806	0.036576	0.077597	0.22871	0.17411	0.14034	0.18051	0.16195	-2.1792	-2.5854	-2.4625	-3.1354	-2.4729	-2.4229	-3.1667	-2.4396	-2.6562	-2.8042	-2.3229	-2.9854	-2.6437	-2.5187	-3.2625	-2.4125	249.340	262.514	135.488	-80.114	257.732	136.385	191.566	233.904	190.239	49.696	104.139	44.421	76.633	254.641	50.888	-54.805	0.00013502	0.00044438	0.00011575	491.21	1.7379e-06	2.0727e-06	499.88	149.93	1.3421e-06	1.4235e-06	195.69	76.282	57.819	28.268	1.6368e-06	39.48	0.0001043	0.00010338	2.6134e-05	450.92	1.1305e-06	1.1226e-06	459.89	138.18	1.1297e-06	1.1031e-06	173.16	68.895	53.042	25.337	1.0121e-06	34.711	162.724	-9.238	-46.312	-70.272	121.110	56.199	-70.959	-64.896	120.208	152.253	-66.318	-62.153	-59.992	-55.096	37.562	-58.254	-8191	255	
2903.129	1	1	0	0	0.075631	0.1492	0.070033	0.24734	0.23475	0.21409	0.23761	0.40359	0.19313	0.075075	0.10908	0.1011	0.10698	0.04372	0.20626	0.11377	-2.1437	-2.8125	-2.3125	-3.0125	-2.6562	-2.2542	-3.0604	-2.5687	-2.7646	-2.8937	-2.4583	-2.8312	-2.6688	-2.3896	-2.8833	-2.4292	-46.261	195.039	20.764	81.908	-18.388	-6.972	179.686	-49.483	-63.745	266.886	98.161	215.967	67.038	160.959	85.595	-24.900	0.00011592	0.0002795	0.00011198	489.44	2.0082e-06	2.4274e-06	494.27	149.85	8.1889e-07	4.701e-06	193.76	76.196	57.913	28.123	2.9643e-06	39.816	0.00010902	0.0001003	2.5171e-05	450.4	1.1656e-06	1.0839e-06	458.03	138.83	1.1571e-06	1.0638e-06	172.05	69.099	53.122	25.247	9.6852e-07	34.887	199.213	241.323	-75.491	-69.573	187.763	39.381	-70.888	-64.765	-38.801	40.074	-66.640	-62.220	-60.068	-54.865	14.611	-58.697	-8191	255	
2903.225	1	1	0	0	0.19005	0.10981	0.17713	0.16614	0.073756	0.2261	0.13338	0.30054	0.023247	0.12734	0.24978	0.098247	0.20546	0.071625	0.1338	0.19504	-2.0729	-3.0104	-2.2062	-3.05	-2.7958	-2.3625	-3.0312	-2.5187	-2.4	-2.8438	-2.4104	-2.7687	-2.4979	-2.2938	-3.1125	-2.4208	54.817	191.659	79.782	261.251	49.538	-45.577	190.108	206.170	-2.342	173.786	-33.030	157.517	-31.746	-36.882	-28.763	191.495	0.00015504	0.00013885	8.449e-05	489.48	2.0177e-06	2.438e-06	492.36	149.05	1.5066e-06	3.5995e-06	193.98	76.595	56.984	27.86	5.1279e-06	39.419	0.00010863	9.6238e-05	2.5378e-05	451.09	1.1451e-06	1.0421e-06	454.97	138.55	1.171e-06	1.0448e-06	171.94	69.132	52.404	25.044	1.0154e-06	34.798	200.027	1.350	-44.482	-69.687	82.814	-12.210	-70.926	-64.777	21.548	48.311	-66.334	-62.118	-60.199	-54.644	-13.247	-58.468	-8191	255	
2903.345	1	1	0	0	0.15248	0.12255	0.27414	0.26202	0.23816	0.1282	0.12763	0.0039392	0.28017	0.094319	0.25016	0.098827	0.035892	0.24974	0.037721	0.094176	-1.8708	-2.9708	-2.2729	-2.4729	-2.9896	-2.3354	-2.8	-2.65	-2.5	-3.0167	-2.3312	-2.9479	-2.8438	-2.2833	-2.7208	-2.7729	-7.150	96.616	-33.238	191.169	275.615	182.936	226.748	31.573	173.266	245.475	241.284	-75.637	193.933	153.341	12.973	-80.911	0.00012812	0.00046985	4.5244e-05	490.8	2.9441e-06	2.0879e-06	496.59	148.36	3.1033e-06	1.0664e-06	192.73	76.204	56.865	27.525	1.2444e-06	39.497	0.00010449	9.4713e-05	2.5616e-05	455.41	1.1443e-06	1.0388e-06	458.58	137.95	1.1684e-06	1.06e-06	170.96	69.373	52.206	24.914	1.1053e-06	34.894	174.577	28.871	13.523	-70.087	100.149	150.668	-70.939	-64.812	261.428	41.052	-66.701	-62.287	-60.475	-54.966	-81.456	-58.312	-8191	255	
2903.442	1	1	0	0	0.060714	0.25331	0.021833	0.076192	0.16058	0.058082	0.34783	0.2525	0.26778	0.13621	0.14672	0.19528	0.045945	0.14873	0.14133	0.22791	-1.8583	-2.875	-2.5792	-2.4146	-3.0083	-2.1542	-2.9958	-2.6917	-2.2521	-3.0458	-2.5583	-2.5792	-2.8688	-2.525	-2.8792	-2.7729	260.867	147.147	188.698	54.736	76.623	256.993	-47.871	213.471	9.666	182.502	88.825	265.341	76.189	156.127	266.846	-81.530	0.00017371	0.0004129	6.7155e-05	500.88	1.8855e-06	6.4808e-07	500.77	149.4	1.2684e-06	2.6684e-06	193.56	77.136	57.342	27.838	2.1478e-06	39.418	0.00010407	9.5529e-05	2.82e-05	460.99	1.1009e-06	1.0259e-06	463.25	138.36	1.0712e-06	1.0279e-06	173.13	69.716	52.516	25.015	1.1357e-06	34.778	176.045	22.096	21.913	-70.217	15.576	64.710	-70.760	-64.986	-72.775	152.755	-66.470	-62.354	-59.993	-55.278	185.342	-58.154	-8191	255	
2903.513	1	1	0	0	0.23651	0.29661	0.013511	0.14913	0.16787	0.13621	0.1358	0.20072	0.20699	0.13921	0.15315	0.23697	0.22026	0.16923	0.15147	0.11822	-2.0479	-2.9292	-2.6167	-2.5875	-2.9229	-2.2313	-2.8292	-3.0312	-2.4125	-2.875	-2.5187	-2.6271	-2.9208	-2.4208	-2.6813	-2.8063	254.721	48.910	130.935	154.621	116.580	154.336	186.837	254.868	158.705	82.164	114.263	162.472	207.370	44.900	237.079	146.097	8.4882e-05	0.00058576	5.8404e-05	496.59	1.3177e-06	9.307e-07	498.8	149.89	3.7431e-06	2.9707e-06	193.37	76.395	57.869	27.911	1.9926e-06	39.437	9.9228e-05	9.0737e-05	2.8702e-05	457.83	1.0431e-06	9.8939e-07	462.94	138.85	1.0351e-06	1.0222e-06	173.14	69.345	52.87	24.973	1.1951e-06	34.687	178.719	-43.860	-14.124	-69.934	112.718	90.625	-71.272	-64.814	87.001	-5.993	-66.687	-62.306	-59.846	-55.062	49.058	-58.566	-8191	255	
2903.609	1	1	0	0	0.27354	0.097444	0.12629	0.055423	0.15768	0.19347	0.20977	0.070628	0.090519	0.16986	0.14129	0.182	0.13222	0.20628	0.027523	0.1589	-1.9021	-2.9396	-2.5833	-2.3792	-2.9375	-2.5979	-2.8646	-2.9104	-2.3625	-2.8979	-2.7875	-2.4208	-3.1396	-2.4562	-2.575	-2.9625	133.680	147.328	43.698	113.864	273.049	-1.360	196.438	77.696	234.675	-78.910	28.419	74.951	-12.002	-5.599	-40.837	20.486	0.00010392	0.00052064	5.6196e-05	499.64	8.8123e-07	2.132e-06	496.98	149.53	1.9821e-06	8.3863e-07	195.74	77.834	58.108	28.045	3.3842e-06	39.501	9.9319e-05	9.7191e-05	3.0929e-05	461.65	1.067e-06	1.0705e-06	464.21	138.83	1.0411e-06	1.0811e-06	174.77	70.011	53.006	25.244	1.2308e-06	34.984	181.563	3.410	272.099	-70.439	140.636	254.351	-71.012	-64.723	170.613	-11.197	-66.592	-62.160	-59.727	-54.878	38.571	-58.814	-8191	255	
2903.728	1	1	0	0	0.057578	0.15976	0.20192	0.14184	0.18653	0.29404	0.15923	0.11304	0.12055	0.18512	0.10319	0.3188	0.26109	0.10612	0.28012	0.15297	-1.7563	-2.8688	-2.6979	-2.6229	-3.0146	-2.5646	-2.4375	-2.9542	-2.3417	-2.9667	-2.7875	-2.5375	-3.1375	-2.4625	-2.4271	-3.1667	257.255	227.837	-74.150	156.545	133.287	-46.525	67.719	224.495	258.150	229.690	264.011	270.869	131.562	110.846	137.944	272.960	6.3863e-05	0.00012395	9.1335e-05	501.63	1.4424e-06	3.8027e-06	502.07	150.04	2.4511e-06	2.0527e-06	196.71	78.158	58.843	28.436	3.1209e-06	40.6	9.7796e-05	0.00010517	3.096e-05	462.18	1.0462e-06	1.1545e-06	467.01	139.76	1.0175e-06	1.1538e-06	176.13	70.686	53.681	25.672	1.128e-06	35.569	190.433	274.068	267.977	-70.590	144.931	18.630	-71.136	-64.722	65.252	-28.739	-67.003	-62.276	-60.196	-54.884	168.696	-58.417	-8191	255	
2903.824	1	1	0	0	0.14987	0.030788	0.23306	0.015249	0.13852	0.12915	0.097269	0.37517	0.1679	0.1327	0.2594	0.20335	0.08325	0.19713	0.18711	0.25174	-1.925	-2.7458	-2.8958	-2.1375	-3.0125	-2.6833	-2.4146	-3.125	-2.5812	-2.5812	-2.8021	-2.3646	-2.8896	-2.9646	-2.4313	-3.0458	-11.530	181.504	-26.337	132.425	11.104	173.517	105.363	241.649	-39.299	172.678	-47.576	70.653	209.882	263.366	89.676	190.121	6.3049e-05	0.00027188	9.9755e-05	498.35	1.2771e-06	2.705e-06	506.76	153.85	2.3786e-06	1.0673e-06	200.28	78.903	59.317	28.715	4.4354e-06	40.709	9.1231e-05	0.00010179	2.7668e-05	456.5	9.5989e-07	1.0869e-06	467.63	141.34	9.6566e-07	1.0925e-06	177.99	70.863	53.941	25.789	1.014e-06	35.49	241.333	30.409	-52.910	-70.484	95.359	139.203	-70.930	-64.488	4.298	76.747	-66.576	-62.371	-59.716	-55.414	47.076	-58.440	-8191	255	
2903.921	1	1	0	0	0.067369	0.25888	0.17252	0.31867	0.3077	0.092008	0.11779	0.24713	0.075274	0.20084	0.10135	0.14522	0.048076	0.13193	0.21589	0.26907	-2.0417	-2.6188	-2.9542	-2.0917	-3.0604	-2.6167	-2.3354	-3.0938	-2.3917	-2.6729	-2.7583	-2.2438	-2.9583	-2.7229	-2.5729	-3.1562	61.009	150.058	111.764	-37.328	73.619	193.581	-80.734	203.835	174.612	191.438	-66.664	271.922	19.342	44.904	257.344	162.979	0.00014096	0.00048467	0.00016806	495.71	1.769e-06	1.7975e-06	507.53	155.11	3.2434e-06	3.1412e-06	204.49	79.152	59.598	29.041	4.2433e-06	40.653	9.1634e-05	9.9195e-05	2.4948e-05	453.39	9.3607e-07	1.0461e-06	468.18	142.49	9.3027e-07	1.0046e-06	180.53	70.76	54.23	25.957	8.9699e-07	35.654	182.904	29.425	-48.898	-69.865	149.506	-78.178	-71.130	-65.010	91.277	-1.857	-66.422	-62.293	-60.301	-55.252	7.942	-58.580	-8191	255	
2904.041	1	1	0	0	0.28069	0.15195	0.24399	0.24179	0.095604	0.11939	0.13327	0.29222	0.34353	0.20327	0.10851	0.14552	0.26143	0.13973	0.19499	0.15933	-2.0083	-2.7438	-2.8104	-2.4688	-2.7521	-2.8375	-2.3021	-2.8146	-2.4917	-2.6208	-2.8104	-2.3708	-2.6417	-2.7458	-2.2854	-2.9938	44.038	177.113	45.062	47.627	181.479	-5.163	230.464	110.671	137.466	204.995	210.569	119.515	-79.563	14.597	273.057	-73.403	0.00014322	0.0005237	5.5093e-05	496.1	2.7689e-06	2.0808e-06	511.54	159.4	3.9843e-07	4.4449e-06	209.1	80.25	61.401	29.809	1.7571e-06	41.902	8.9243e-05	8.8805e-05	2.2465e-05	452.29	9.6158e-07	9.5841e-07	472.5	146.11	9.4061e-07	9.3326e-07	184.85	72.047	55.432	26.493	8.4035e-07	36.498	188.028	17.431	-22.041	-69.640	45.798	85.309	-70.822	-64.697	150.803	20.415	-66.845	-62.369	-60.234	-55.164	186.093	-58.272	-8191	255	
2904.137	1	1	0	0	0.19529	0.059379	0.066075	0.11702	0.33002	0.21198	0.18407	0.23725	0.11905	0.19329	0.019732	0.063465	0.016386	0.1493	0.062989	0.21653	-1.9521	-2.6958	-2.9375	-2.2854	-2.7208	-2.825	-2.3479	-2.9875	-2.5458	-2.425	-3.0604	-2.5979	-2.7104	-2.9646	-2.3167	-3.0354	31.062	49.508	-76.633	260.518	214.974	56.874	-49.848	181.427	121.788	147.574	131.754	67.665	243.776	240.653	116.296	227.566	4.0371e-05	0.00034114	0.00012128	495.15	9.3399e-07	4.3053e-06	520.44	162.51	4.9613e-06	2.5751e-06	214.21	81.224	61.975	30.134	2.6687e-06	42.671	8.9708e-05	8.1892e-05	2.1088e-05	452	9.2893e-07	8.9579e-07	476.79	149.11	9.6406e-07	8.837e-07	187.61	72.778	56.13	26.892	8.0547e-07	37.204	175.750	42.294	-30.909	-69.950	3.872	74.783	-70.602	-64.843	227.557	23.723	-66.770	-62.351	-60.478	-55.061	55.786	-58.537	-8191	255	
2904.209	1	1	0	0	0.17833	0.14231	0.2084	0.28127	0.20537	0.22657	0.048129	0.063763	0.31248	0.080274	0.13513	0.052579	0.14465	0.24746	0.059593	0.2556	-2.0187	-2.4354	-2.9583	-2.1792	-2.4354	-3.0021	-2.3083	-2.9021	-2.6437	-2.3208	-3.05	-2.5917	-2.7188	-2.9875	-2.175	-2.9	151.190	68.916	100.446	-79.345	137.246	71.930	233.260	32.818	14.046	-19.027	22.863	114.056	185.542	248.960	57.494	243.561	6.8857e-05	0.00036438	2.6282e-05	497.32	3.4117e-06	3.134e-07	525.4	164.33	2.9545e-06	2.5979e-06	215.04	81.279	62.068	30.321	3.447e-06	42.371	8.8372e-05	7.7718e-05	2.0462e-05	456.69	9.2047e-07	8.4798e-07	479.85	151.28	9.2696e-07	8.4921e-07	189.04	73.021	56.279	26.888	8.1363e-07	37.045	171.876	41.098	240.633	-70.205	61.247	161.038	-70.551	-64.991	112.904	21.189	-66.612	-62.600	-60.148	-55.074	62.443	-58.766	-8191	255	
2904.330	1	1	0	0	0.34358	0.22246	0.061431	0.11522	0.099116	0.049082	0.10546	0.17692	0.17976	0.17794	0.20494	0.11106	0.029863	0.16073	0.014176	0.10343	-2.4292	-2.2167	-3.1375	-2.4458	-2.5625	-3.0438	-2.3937	-2.9521	-2.7479	-2.4458	-2.9333	-2.6896	-2.6625	-2.9313	-2.5354	-2.725	212.839	138.205	35.474	223.929	-71.419	-11.443	247.548	152.946	-60.869	254.656	212.349	264.932	206.316	210.060	224.080	182.122	0.00013464	9.2854e-05	6.4304e-05	497.27	1.8862e-06	1.7039e-06	521.27	164.73	2.8649e-06	3.4161e-06	212.45	80.439	61.212	29.932	1.1568e-06	42.202	8.7255e-05	7.602e-05	2.0325e-05	455.23	8.7364e-07	8.3079e-07	477.47	150.67	8.8146e-07	8.0967e-07	188.05	72.367	55.581	26.682	8.0103e-07	36.888	196.191	-66.044	57.043	-70.000	80.584	50.714	-70.564	-64.141	6.574	36.639	-66.477	-62.324	-60.180	-55.248	-38.805	-58.482	-8191	255	
2904.426	1	1	0	0	0.067245	0.14466	0.1155	0.36337	0.24398	0.097453	0.031735	0.26208	0.084052	0.1534	0.35774	0.26518	0.20044	0.1554	0.30281	0.057068	-2.6312	-2.2667	-2.9146	-2.6688	-2.4646	-3.1312	-2.3708	-2.7	-3.0146	-2.3667	-2.975	-2.6625	-2.5354	-2.9479	-2.3354	-2.6396	-67.518	-46.814	175.629	-82.947	83.763	206.701	197.772	231.473	-40.751	-60.258	246.693	4.446	145.735	257.026	245.739	77.743	9.2842e-05	7.1142e-05	4.7032e-05	498.5	4.9333e-06	3.162e-06	521.72	164.61	2.2577e-06	2.6794e-06	213.66	80.65	61.255	30.202	2.8619e-06	42.238	8.074e-05	7.227e-05	2.0734e-05	454.95	8.2979e-07	7.9279e-07	477.51	150.8	8.2929e-07	7.7368e-07	187.72	72.055	55.151	26.735	8.3336e-07	36.918	184.220	80.477	213.782	-70.221	96.227	61.622	-71.277	-64.982	73.421	32.219	-66.782	-62.383	-60.391	-54.800	29.548	-58.958	-8191	255	
2904.522	1	1	0	0	0.15316	0.14	0.18033	0.11629	0.26376	0.28177	0.079831	0.24569	0.15423	0.19491	0.14641	0.24734	0.17015	0.20281	0.087635	0.20686	-2.6937	-2.2042	-2.7521	-2.8667	-2.4271	-3.0667	-2.5438	-2.45	-2.9042	-2.4125	-2.8542	-2.8396	-2.6479	-3.1271	-2.4917	-2.6292	22.394	-5.577	177.230	274.296	32.912	202.592	244.271	248.290	188.985	262.800	170.996	148.273	212.525	180.476	-0.352	227.052	0.00013854	0.00047993	6.2776e-05	500.45	1.5394e-06	1.7855e-06	527.39	165.28	1.7026e-06	2.5475e-06	214.09	80.662	60.964	30.137	2.2967e-06	42.591	7.8667e-05	7.0265e-05	2.1669e-05	457.35	8.1342e-07	7.7508e-07	482.12	150.87	8.2449e-07	7.7826e-07	188.12	72.044	55.273	26.722	8.9818e-07	37.173	185.906	-21.687	3.830	-70.082	106.688	108.914	-70.805	-64.841	99.852	99.229	-66.593	-62.423	-60.457	-55.069	121.711	-58.646	-8191	255	
2904.641	1	1	0	0	0.26493	0.1225	0.18149	0.022419	0.16694	0.22467	0.066342	0.13133	0.13054	0.058165	0.16185	0.1334	0.042973	0.24655	0.041412	0.36978	-2.6	-2.1125	-2.7938	-3.0187	-2.3042	-3.0354	-2.9	-2.4396	-2.8396	-2.6646	-2.6667	-2.8333	-2.2729	-2.8396	-2.6521	-2.5604	156.419	-1.871	168.772	-74.572	53.319	96.857	236.995	225.723	63.624	213.144	31.711	-64.065	-55.586	237.820	51.929	200.188	0.00012694	0.00034439	4.7342e-05	502.2	2.7741e-07	2.3568e-06	520.9	163.21	7.275e-07	1.066e-06	211.13	79.837	60.958	29.946	7.4831e-07	42.128	7.8631e-05	7.199e-05	2.3027e-05	457.44	7.9551e-07	7.9916e-07	480.65	149.74	8.2297e-07	8.057e-07	187.5	71.794	55.104	26.587	9.3638e-07	36.678	187.445	-21.219	275.896	-70.357	43.505	8.186	-71.012	-64.757	275.213	-34.853	-66.611	-62.609	-59.962	-54.772	-68.952	-58.482	-8191	255	
2904.737	1	1	0	0	0.12834	0.17883	0.15349	0.20843	0.11134	0.15598	0.17672	0.26677	0.079328	0.11124	0.28823	0.1785	0.076626	0.22162	0.1178	0.16891	-2.2354	-2.5229	-2.3583	-3.0229	-2.3917	-2.6667	-2.6333	-2.4333	-2.8104	-2.4354	-2.6667	-2.7708	-2.2354	-3.0062	-2.7854	-2.4583	-65.285	75.444	213.353	241.145	174.324	-3.012	-78.299	253.818	110.255	-20.877	81.700	217.521	-43.603	223.729	-4.050	232.344	0.00016892	6.9186e-05	5.7553e-05	496.45	3.2726e-06	2.0754e-06	519.07	161.1	2.9808e-07	6.1181e-06	207.51	79.065	59.913	29.515	2.365e-06	40.954	7.5422e-05	7.4675e-05	2.3205e-05	455.17	7.8039e-07	8.4794e-07	478.59	147.82	7.858e-07	8.6635e-07	183.56	70.862	54.344	26.318	9.2017e-07	35.918	194.655	44.689	171.801	-70.111	104.857	104.254	-70.538	-64.685	45.844	101.342	-66.329	-62.548	-60.238	-55.371	38.535	-58.761	-8191	255	
2904.809	1	1	0	0	0.22053	0.080788	0.17268	0.094051	0.075708	0.16185	0.17773	0.063954	0.22134	0.098687	0.29875	0.044804	0.16708	0.22755	0.20583	0.22593	-2.3333	-2.2938	-2.55	-3.0833	-2.3208	-2.9062	-2.6562	-2.2854	-3.1042	-2.5292	-2.2729	-2.9188	-2.4625	-2.4979	-2.7542	-2.5292	144.393	162.077	22.086	-9.124	75.274	231.352	177.255	259.139	13.671	45.676	236.065	271.881	247.484	20.035	17.547	250.129	0.00011641	0.00031752	1.9339e-05	494.54	1.8922e-06	3.5055e-06	513.35	159.26	1.4408e-06	1.6927e-06	206.82	78.683	59.902	29.441	4.2765e-06	41.251	7.5891e-05	8.1281e-05	2.2868e-05	453.34	7.9757e-07	9.11e-07	472.5	145.97	8.1316e-07	9.191e-07	181.93	70.436	53.986	26.237	8.8671e-07	35.971	170.363	5.665	195.929	-69.754	172.577	88.745	-70.640	-64.915	69.957	40.145	-66.740	-62.251	-60.140	-55.118	45.238	-58.480	-8191	255	
2904.905	1	1	0	0	0.24517	0.16121	0.20307	0.28935	0.085229	0.17913	0.35872	0.022801	0.4021	0.01584	0.11216	0.31262	0.17117	0.065895	0.27171	0.3563	-2.3333	-2.6583	-2.4104	-2.8063	-2.3812	-2.6771	-2.9562	-2.4792	-2.7729	-2.7542	-2.4021	-3.2667	-2.4458	-2.4292	-3.0354	-2.1729	214.090	90.646	70.964	249.879	42.677	178.395	200.984	226.471	67.781	145.131	-41.367	118.406	-17.208	94.261	166.842	187.090	0.000208	0.00050612	5.0215e-05	497.78	1.9243e-06	2.6262e-06	514.38	157.44	1.0242e-06	5.1231e-06	205.74	78.07	59.592	29.368	2.4626e-07	41.301	7.8631e-05	8.5355e-05	2.2384e-05	453.2	8.4616e-07	9.3785e-07	472.13	144.2	8.5548e-07	9.4764e-07	180.68	69.965	53.927	26.163	8.6524e-07	36.058	186.195	4.896	-57.105	-69.951	70.273	158.912	-70.534	-64.714	101.938	64.152	-66.700	-62.205	-60.120	-54.909	31.118	-58.804	-8191	255	
2905.026	1	1	0	0	0.078925	0.076812	0.29452	0.17307	0.22856	0.10386	0.026168	0.074474	0.18641	0.22562	0.10204	0.12162	0.24833	0.060804	0.2701	0.24638	-2.5375	-2.8104	-2.4104	-3.0083	-2.5458	-2.575	-2.9479	-2.4021	-2.6708	-2.8937	-2.2958	-3.0396	-2.35	-2.35	-2.8937	-2.1937	91.309	171.902	-1.510	218.904	128.620	50.246	-80.170	156.003	3.263	-13.828	38.612	-49.482	208.106	-35.018	86.232	215.743	0.00013018	0.00070235	4.3782e-05	493.5	4.02e-07	2.8865e-06	510.03	157.6	3.2496e-06	4.2284e-06	205.84	77.834	59.039	29.191	3.5484e-06	41.276	8.3549e-05	8.6527e-05	2.1749e-05	451.4	8.8863e-07	9.2477e-07	470.34	144.08	9.125e-07	9.3081e-07	180.44	69.966	53.827	26.127	8.5324e-07	35.956	162.341	2.993	-33.743	-70.294	129.696	0.910	-71.029	-64.993	118.600	97.435	-66.461	-62.122	-60.211	-55.137	-13.468	-58.461	-8191	255	
2905.122	1	1	0	0	0.2054	0.13293	0.27374	0.42848	0.20182	0.18643	0.057054	0.23741	0.22284	0.28793	0.10416	0.19879	0.15266	0.23804	0.19974	0.18964	-2.1917	-2.9646	-2.0604	-2.8646	-2.5167	-2.2146	-2.8979	-2.4958	-2.5667	-2.8354	-2.2917	-2.7812	-2.5208	-2.3937	-3.1042	-2.4479	-54.937	83.565	232.290	224.917	-60.063	-62.821	5.844	67.301	230.876	234.819	-75.511	-67.501	237.421	-4.418	-55.738	176.486	6.9769e-05	0.00018087	7.3894e-05	494.77	1.5949e-06	2.4652e-06	507.43	156.2	1.5566e-06	2.0543e-06	202.6	77.575	59.122	28.963	2.9601e-06	40.441	8.8504e-05	8.2334e-05	2.1077e-05	450.99	9.2696e-07	8.8919e-07	469.22	143.07	9.3398e-07	8.8299e-07	177.86	69.674	53.758	25.817	8.3754e-07	35.406	216.813	228.031	12.969	-70.335	225.078	101.428	-70.716	-64.670	119.798	-2.974	-67.113	-62.007	-60.190	-54.901	65.632	-58.718	-8191	255	
2905.218	1	1	0	0	0.22756	0.21585	0.21502	0.071377	0.16487	0.1711	0.24142	0.12661	0.31315	0.32503	0.063394	0.12159	0.11882	0.18703	0.10615	0.0098381	-2.0646	-2.9208	-2.0396	-2.7979	-2.8167	-2.2313	-3.0708	-2.5979	-2.4021	-2.8354	-2.1771	-2.7812	-2.5708	-2.2229	-2.8812	-2.3688	-12.872	241.247	61.858	247.014	242.502	204.101	190.348	246.133	117.128	269.909	-58.528	186.831	269.678	191.189	-0.215	-60.190	0.00010368	0.00043469	8.1027e-05	492.54	2.3803e-06	1.8205e-06	510.08	153.75	1.2871e-06	1.0437e-06	200.51	77.219	58.842	28.933	1.7333e-06	40.44	8.9795e-05	7.9851e-05	2.101e-05	451.9	9.5371e-07	8.5979e-07	468.3	142.12	9.631e-07	8.9255e-07	176.82	69.615	53.448	25.777	8.4286e-07	35.455	161.762	-23.805	21.898	-70.252	147.044	58.715	-70.822	-64.951	17.888	226.583	-66.908	-62.418	-60.159	-54.854	138.410	-58.089	-8191	255	
2905.314	1	1	0	0	0.19181	0.18786	0.14892	0.12744	0.086789	0.15726	0.20193	0.060619	0.21965	0.22108	0.15742	0.11382	0.27502	0.10418	0.11747	0.23779	-1.9104	-2.8583	-2.2333	-2.8917	-2.6208	-2.4417	-2.8729	-2.6021	-2.1792	-2.8271	-2.3104	-2.6604	-2.7938	-2.1688	-2.9313	-2.6333	194.102	-78.084	75.714	-64.028	254.131	165.709	157.055	32.348	49.482	68.424	-70.361	104.041	-80.349	11.204	-64.098	181.018	9.2816e-05	0.00042899	3.9066e-05	497.62	2.0163e-06	6.7221e-07	509.51	154.14	8.197e-07	2.2586e-06	200.03	77.933	58.952	28.974	2.971e-07	40.779	9.1726e-05	8.249e-05	2.1733e-05	455.23	9.7432e-07	8.961e-07	467.63	142.19	9.793e-07	8.9445e-07	176.81	69.925	53.572	25.84	8.7949e-07	35.68	223.796	-70.255	-49.157	-70.135	85.864	30.051	-70.996	-64.969	55.433	-35.647	-66.665	-62.494	-60.050	-54.925	-55.346	-58.783	-8191	255	
2905.433	1	1	0	0	0.057215	0.12516	0.067101	0.11271	0.076922	0.18774	0.058729	0.034717	0.035085	0.043999	0.23904	0.24152	0.16803	0.34204	0.23015	0.10931	-2.0917	-2.8063	-2.3667	-2.65	-2.8875	-2.1542	-2.7396	-2.6208	-2.3312	-2.9021	-2.3854	-2.4292	-2.95	-2.1688	-2.9208	-2.7438	141.398	184.793	161.503	-81.559	57.753	-12.707	62.894	36.162	37.446	-51.541	211.379	109.317	176.331	228.035	-47.242	65.200	0.00014767	0.00035915	3.9264e-05	498.37	7.7843e-07	1.2557e-06	508.24	152.94	1.5589e-06	4.7356e-06	199.59	78.246	58.927	28.742	2.7809e-06	40.743	9.0935e-05	8.2058e-05	2.2504e-05	456.6	9.6032e-07	8.8303e-07	468.68	142.13	9.6726e-07	9.0763e-07	177.46	70.262	53.614	25.802	9.7883e-07	35.726	163.925	-35.215	151.149	-70.088	86.442	54.045	-70.599	-64.501	-54.228	75.367	-66.624	-62.268	-59.941	-54.984	145.424	-58.560	-8191	255	
2905.506	1	1	0	0	0.21677	0.34745	0.10743	0.20497	0.19617	0.1498	0.3002	0.16746	0.16947	0.25678	0.12435	0.21413	0.051031	0.39769	0.06401	0.34769	-1.7771	-2.9729	-2.1667	-2.8104	-2.8688	-2.0521	-2.8917	-2.6312	-2.4208	-3.0312	-2.3542	-2.4333	-3.0042	-2.1688	-2.6271	-2.7229	231.123	-37.818	-39.825	242.024	12.902	211.320	101.404	188.267	202.240	148.468	243.608	-14.643	10.611	-70.460	50.016	-79.206	0.00012298	7.4321e-05	6.0307e-05	497.17	1.8721e-06	5.7564e-06	503.94	153.5	3.2586e-06	3.9099e-06	198.61	77.001	58.208	28.238	1.9797e-06	39.708	9.0513e-05	8.2214e-05	2.4687e-05	456.45	9.5606e-07	8.998e-07	468.04	141.5	9.6233e-07	9.2879e-07	175.7	69.641	53.058	25.282	1.0684e-06	34.983	209.016	74.599	-80.229	-70.162	75.972	109.099	-71.026	-64.872	22.040	85.733	-66.616	-62.066	-60.201	-55.500	-35.893	-57.997	-8191	255	
2905.602	1	1	0	0	0.10901	0.13116	0.077919	0.13583	0.055693	0.096233	0.10967	0.099496	0.14556	0.14712	0.070206	0.41215	0.11879	0.046876	0.098869	0.21036	-1.5875	-2.8771	-2.5146	-2.025	-2.8771	-2.3021	-2.5979	-2.9521	-2.2542	-2.975	-2.6604	-2.2854	-3.1063	-2.3063	-2.7062	-3.0625	109.909	191.625	68.346	-79.804	91.243	99.233	136.745	256.027	246.509	131.526	64.137	230.235	140.428	-57.148	-16.849	200.843	0.00015543	0.00026981	0.00011268	495.14	2.2071e-06	1.4964e-06	499.26	151.07	2.1398e-06	2.1295e-06	193.62	76.172	58.047	27.902	1.1797e-06	39.548	9.291e-05	8.7792e-05	2.7922e-05	457.11	1.0027e-06	9.7118e-07	464.26	139.22	1.0031e-06	9.9502e-07	173.77	69.009	52.709	25.095	1.1596e-06	34.748	190.429	-26.203	-4.878	-70.256	56.703	11.155	-71.096	-64.815	101.180	5.344	-66.545	-61.946	-60.145	-55.270	75.182	-58.574	-8191	255	
2905.721	1	1	0	0	0.15155	0.13539	0.12779	0.28931	0.087732	0.32258	0.13928	0.14034	0.12171	0.10008	0.077477	0.091078	0.13874	0.28476	0.15594	0.23809	-1.75	-2.8125	-2.4646	-2.4083	-3.0042	-2.3458	-2.6167	-2.6375	-2.2292	-2.9146	-2.6646	-2.2104	-3.1021	-2.3417	-2.575	-2.9271	89.958	138.827	-4.570	255.712	212.078	-26.699	150.716	-77.049	38.740	-23.820	263.632	187.856	155.600	203.935	36.072	56.013	0.00013739	0.00014472	0.00010177	499.83	1.143e-06	8.3177e-07	498.83	150.07	2.579e-06	1.8696e-07	192.91	76.592	57.954	28.02	1.9929e-06	39.444	9.3168e-05	9.4567e-05	3.0025e-05	459.19	1.0485e-06	1.0766e-06	464.66	138.83	1.0502e-06	1.1107e-06	173.18	69.188	52.679	25.138	1.231e-06	34.766	176.289	110.203	0.648	-70.297	96.610	90.053	-71.013	-64.585	75.846	142.141	-66.248	-62.524	-59.918	-54.892	-18.559	-59.008	-8191	255	
2905.817	1	1	0	0	0.14683	0.2777	0.062563	0.38647	0.23137	0.099396	0.2204	0.20357	0.19569	0.14623	0.16188	0.29077	0.084337	0.27043	0.19925	0.17776	-1.6271	-2.8438	-2.65	-2.2604	-3.075	-2.5229	-2.5708	-2.9333	-2.1979	-3.0104	-2.6958	-2.3688	-3.1271	-2.3875	-2.4062	-2.7313	32.568	-4.205	102.013	268.359	191.325	-56.080	26.777	188.315	125.989	17.589	-10.341	-42.082	183.380	185.797	-54.594	259.680	0.00017007	0.00012776	7.5388e-05	501.65	2.1547e-06	9.9467e-07	499.23	149.42	2.2043e-06	4.3421e-06	191.91	75.602	57.408	27.756	5.1094e-06	39.361	9.6791e-05	0.00010734	3.0839e-05	460.53	1.0329e-06	1.1842e-06	465.28	138.4	1.061e-06	1.2213e-06	172.92	68.989	52.634	25.186	1.247e-06	34.777	188.028	121.598	272.681	-70.661	101.945	105.395	-70.909	-64.490	116.742	97.601	-66.639	-62.271	-60.287	-55.059	60.139	-58.641	-8191	255	
2905.914	1	1	0	0	0.1341	0.063579	0.30299	0.019967	0.12531	0.086452	0.33006	0.1603	0.1767	0.12797	0.23703	0.24649	0.078721	0.14489	0.16618	0.15831	-1.9542	-2.6479	-2.8229	-2.25	-2.7021	-2.5958	-2.4771	-3.0042	-2.2146	-2.3187	-2.9104	-2.1167	-2.8167	-2.5812	-2.1604	-3.0729	274.700	-44.801	221.796	51.984	75.185	109.859	242.284	151.895	81.031	-39.546	232.393	0.896	-5.241	172.058	246.491	18.942	9.2607e-05	0.00018736	0.00013711	502.2	1.7311e-06	2.9504e-06	503.66	149.26	4.7944e-06	3.1803e-06	191.19	76.499	57.37	27.551	4.3529e-06	38.842	0.00010338	0.00011702	3.1307e-05	463.87	1.127e-06	1.274e-06	465.87	138.38	1.0972e-06	1.2498e-06	171.66	68.924	52.531	24.977	1.1485e-06	34.36	196.581	76.073	-55.370	-70.420	165.668	30.691	-71.093	-64.962	72.105	75.462	-66.620	-62.617	-59.799	-54.900	50.354	-58.764	-8191	255	
2906.010	1	1	0	0	0.19754	0.22037	0.11428	0.15449	0.024891	0.092583	0.22324	0.035819	0.28439	0.10993	0.016433	0.11988	0.30241	0.081288	0.16623	0.29912	-2.0729	-2.5417	-2.8333	-2.0667	-2.95	-2.425	-2.3292	-3.1021	-2.2833	-2.5958	-3.1771	-2.125	-2.7667	-2.8708	-2.1937	-3.0062	268.850	-41.079	-81.627	99.795	276.927	-11.605	239.128	214.917	115.441	46.514	110.236	185.001	16.347	124.860	-62.711	201.790	0.00012077	0.00070554	8.0411e-05	503.73	2.3495e-06	1.2331e-06	499.12	149.77	1.3465e-06	1.5716e-06	193.32	76.589	57.708	27.895	2.1878e-06	39.406	0.00010423	0.00011255	2.8788e-05	461.03	1.1327e-06	1.2315e-06	462.88	138.21	1.1587e-06	1.1959e-06	172.06	68.862	52.924	25.083	1.0635e-06	34.553	173.845	-32.208	-49.557	-70.720	114.126	-81.554	-71.000	-64.886	105.027	149.049	-66.419	-62.312	-59.946	-54.927	79.616	-58.782	-8191	255	
2906.106	1	1	0	0	0.17818	0.11176	0.029156	0.21719	0.25703	0.055517	0.1217	0.22021	0.33189	0.20158	0.096894	0.36404	0.11812	0.047333	0.14614	0.20447	-1.9354	-2.3708	-2.9562	-2.25	-2.7979	-2.8458	-2.5729	-3.1063	-2.5438	-2.4813	-3.0083	-2.3271	-2.6896	-2.975	-2.2604	-2.9396	19.428	247.858	92.799	152.256	186.522	37.244	80.972	6.684	52.702	91.111	30.923	224.683	247.518	34.918	-43.449	-8.339	0.00014407	0.00065758	0.00010771	501.16	2.012e-06	3.659e-06	505.7	151.24	8.9615e-07	3.0671e-06	194.5	77.602	58.549	28.297	1.9829e-06	39.973	0.00010695	0.00010351	2.6197e-05	459.63	1.128e-06	1.1315e-06	464.95	139.54	1.141e-06	1.1e-06	173.18	69.654	53.466	25.34	9.8727e-07	34.892	160.655	-19.360	-78.123	-70.516	111.324	48.952	-71.200	-64.637	143.735	1.813	-66.577	-62.219	-59.878	-54.918	68.952	-58.242	-8191	255	
2906.202	1	1	0	0	0.15208	0.23839	0.24011	0.23041	0.11363	0.12802	0.15397	0.19212	0.1213	0.13673	0.12038	0.27714	0.019998	0.15505	0.12966	0.17748	-2.3125	-2.4583	-3.0521	-2.4646	-2.7125	-2.7771	-2.4521	-2.9896	-2.5542	-2.4979	-3.0292	-2.6354	-2.6917	-2.8771	-2.2979	-2.9708	227.999	173.537	-4.798	107.302	217.329	6.849	159.073	202.829	221.500	162.262	134.614	273.061	133.242	271.242	245.325	179.534	6.6501e-05	0.00032519	0.00010637	500.02	3.1106e-06	2.1386e-06	501.08	151.3	2.737e-06	2.9476e-06	195.93	77.724	58.495	28.28	1.1126e-06	40.003	0.00010708	9.6789e-05	2.517e-05	459.98	1.1434e-06	1.0643e-06	464.93	139.75	1.1388e-06	1.0308e-06	173.65	69.993	53.491	25.356	9.763e-07	35.169	185.796	-5.598	-79.262	-70.454	150.123	82.911	-70.912	-64.959	104.974	118.832	-66.819	-62.235	-60.232	-55.046	-3.682	-58.915	-8191	255	
2906.323	1	1	0	0	0.10936	0.17258	0.11625	0.10487	0.23433	0.092939	0.15013	0.21018	0.059761	0.29296	0.078974	0.24434	0.17983	0.20229	0.035791	0.11925	-2.3375	-2.2313	-3.1188	-2.6063	-2.5375	-3.0667	-2.1583	-2.8333	-2.6146	-2.25	-3.1688	-2.4604	-2.5021	-3.0396	-2.1229	-3.0104	180.454	123.245	260.600	268.491	185.729	134.678	198.848	-2.220	-70.717	43.104	204.788	73.653	76.968	162.185	139.099	-4.019	9.1939e-05	0.00024049	3.5112e-05	500.71	2.1862e-07	2.7459e-06	504.82	151.44	2e-06	1.0934e-06	194.47	77.462	58.667	28.081	5.1736e-07	39.561	0.00010789	9.5871e-05	2.5264e-05	462.01	1.1407e-06	1.0582e-06	467.31	140.38	1.1285e-06	1.0268e-06	173.47	69.976	53.41	25.201	9.8459e-07	34.893	193.329	16.080	-68.991	-70.451	234.118	18.536	-71.191	-64.378	79.485	21.751	-66.896	-62.188	-60.272	-55.002	104.225	-58.488	-8191	255	
2906.419	1	1	0	0	0.11878	0.058455	0.10633	0.038299	0.10353	0.21108	0.16032	0.15547	0.20743	0.31301	0.19686	0.22394	0.22829	0.17289	0.18001	0.055195	-2.3146	-2.2	-3.0417	-2.5187	-2.5042	-3.0375	-2.3708	-2.8438	-3.0333	-2.2854	-2.825	-2.7812	-2.2542	-3.0104	-2.3708	-2.6583	223.060	146.099	41.883	44.936	5.059	74.099	26.160	95.413	6.496	76.185	240.778	-23.975	-15.173	223.375	76.396	93.928	7.8408e-05	0.00023481	4.707e-05	500.49	1.7704e-06	3.9403e-07	503.24	150.62	4.2158e-06	5.5571e-07	191.29	76.778	57.938	28.03	2.132e-06	39.183	0.00010387	9.4108e-05	2.5738e-05	463.14	1.1335e-06	1.0478e-06	464.26	139.77	1.1244e-06	1.055e-06	171.69	69.582	52.908	25.016	1.0821e-06	34.694	178.493	-22.136	47.243	-70.078	68.143	-60.434	-71.285	-64.807	122.611	196.339	-66.936	-61.981	-60.419	-54.773	123.787	-58.199	-8191	255	
2906.515	1	1	0	0	0.14022	0.23477	0.18481	0.24587	0.30158	0.39747	0.16475	0.15089	0.12859	0.27329	0.16986	0.077451	0.19813	0.15969	0.056653	0.13655	-2.6	-2.0938	-2.8167	-2.8479	-2.3042	-2.9125	-2.35	-2.6229	-3.1271	-2.1146	-2.8292	-2.8396	-2.2729	-3.0458	-2.2458	-2.5854	207.948	105.754	255.287	6.608	178.656	114.822	27.269	-81.668	164.891	75.397	25.111	267.187	246.127	121.289	-4.873	189.340	0.00014856	0.00039342	8.515e-05	502.13	4.6898e-06	3.2499e-06	500.56	149.07	1.2413e-07	4.0281e-06	193.73	76.888	57.89	27.981	6.0893e-06	39.41	0.00010467	9.5717e-05	2.8025e-05	463.24	1.1094e-06	1.0363e-06	464.16	139.01	1.108e-06	1.0234e-06	172.67	69.504	52.829	24.963	1.1725e-06	34.77	210.037	-13.191	268.891	-70.356	152.171	37.441	-71.349	-64.882	-1.963	11.225	-66.756	-62.431	-59.570	-55.023	158.094	-58.570	-8191	255	
2906.609	1	1	0	0	0.092162	0.16624	0.20986	0.19807	0.069719	0.18813	0.025775	0.16566	0.23115	0.19637	0.074935	0.30377	0.089312	0.063754	0.15078	0.2332	-2.5125	-2.2979	-2.7542	-2.6021	-2.3708	-2.8396	-2.6292	-2.4458	-2.9458	-2.2792	-2.6771	-2.8583	-2.4125	-2.9479	-2.6562	-2.4646	124.688	123.486	-6.206	-64.070	179.738	75.476	259.718	263.236	-35.975	8.787	0.429	266.711	228.405	142.397	-62.258	254.149	0.00019653	0.00051209	3.3392e-05	506.77	1.6426e-06	3.161e-06	501.6	150.39	1.0434e-06	3.4765e-06	190.07	76.327	57.54	27.893	3.0019e-06	38.964	0.0001064	9.7557e-05	3.113e-05	467.11	1.14e-06	1.0938e-06	466.43	139.3	1.1678e-06	1.1148e-06	172.65	69.624	52.811	25.006	1.3362e-06	34.69	188.986	-2.087	76.626	-70.365	126.629	34.176	-71.085	-64.787	126.841	194.248	-66.809	-62.397	-60.186	-54.906	100.940	-58.424	-8191	255	
2906.706	1	1	0	0	0.11139	0.14599	0.20175	0.0040732	0.034674	0.15509	0.33196	0.34364	0.081184	0.3156	0.10037	0.28177	0.1061	0.21066	0.18446	0.21155	-2.5687	-2.2771	-2.5104	-2.925	-2.3	-2.8167	-2.8063	-2.2542	-2.9542	-2.4	-2.5687	-2.925	-2.1146	-2.975	-2.8208	-2.2208	127.992	195.879	260.323	-39.598	39.475	224.815	110.497	264.590	9.055	-13.315	95.526	104.587	198.236	-75.247	242.404	144.180	9.3579e-05	0.00013756	2.4432e-05	508.26	1.9082e-06	1.3271e-06	504.26	151.15	2.768e-06	3.3617e-06	193.1	76.824	57.815	27.518	3.9283e-06	38.503	0.00010904	0.00010632	3.3921e-05	471.63	1.1439e-06	1.173e-06	469.83	140.06	1.1703e-06	1.1964e-06	173.52	69.741	52.927	24.89	1.3477e-06	34.39	178.318	-66.887	121.384	-70.396	-60.698	41.567	-71.194	-65.580	50.468	78.006	-66.634	-62.005	-60.387	-54.884	59.000	-58.265	-8191	255	
2906.802	1	1	0	0	0.22523	0.048722	0.099418	0.20028	0.055876	0.33125	0.066126	0.1385	0.32863	0.10736	0.17994	0.10131	0.21764	0.16592	0.14318	0.20129	-2.725	-2.3542	-2.4792	-3.0333	-2.0646	-2.7875	-2.7292	-2.4729	-2.8438	-2.3646	-2.5812	-3.0479	-2.4146	-2.6646	-2.7667	-2.425	5.833	217.412	238.985	254.415	-33.401	-73.263	81.536	151.124	65.003	174.650	256.950	204.832	170.975	262.039	204.448	156.125	8.7805e-05	0.00044588	7.6499e-05	513.77	2.1297e-06	3.0724e-06	503.3	148.82	1.0718e-06	2.3634e-06	193.35	76.51	57.616	27.658	2.3075e-06	38.74	0.00010507	0.00011254	3.374e-05	473.32	1.1168e-06	1.2553e-06	469.04	139.06	1.1276e-06	1.2798e-06	172.86	69.466	52.852	24.889	1.2922e-06	34.215	191.149	6.645	3.326	-70.272	1.173	77.393	-71.375	-64.975	6.645	190.331	-66.501	-62.815	-60.116	-54.758	6.816	-58.476	-8191	255	
2906.898	1	1	0	0	0.33898	0.1596	0.14845	0.07953	0.21572	0.10749	0.17473	0.32827	0.07496	0.2185	0.24696	0.16257	0.16076	0.19196	0.19652	0.25967	-2.3438	-2.5708	-2.3937	-2.9917	-2.25	-2.8583	-2.9771	-2.3896	-2.8167	-2.5271	-2.4146	-2.9562	-2.5333	-2.4604	-3.0542	-2.1937	264.203	69.056	-35.911	65.116	20.806	-44.221	-14.095	180.962	33.796	130.505	13.366	267.513	195.131	205.358	12.630	201.674	9.3634e-05	0.00035138	4.9314e-05	512.17	1.2045e-06	1.0977e-06	503.96	150.11	7.7042e-07	3.0745e-06	189.92	76.901	57.455	27.533	5.6073e-07	38.656	0.0001078	0.00012129	3.2992e-05	473.28	1.1694e-06	1.3608e-06	468.44	139.14	1.1996e-06	1.3679e-06	171.54	69.66	53.083	24.984	1.2777e-06	34.25	206.445	52.468	239.965	-70.425	169.165	188.035	-71.113	-64.867	-74.960	1.513	-66.399	-62.295	-60.051	-55.465	224.076	-58.380	-8191	255	
2906.994	1	1	0	0	0.26735	0.18731	0.21907	0.11174	0.19932	0.17136	0.31296	0.065429	0.15386	0.1861	0.14273	0.063751	0.28564	0.3019	0.031987	0.048082	-2.2521	-2.7292	-2.2313	-3.1437	-2.3417	-2.6042	-2.8396	-2.1896	-2.8417	-2.6333	-2.4562	-2.7958	-2.6167	-2.5583	-2.8688	-2.2875	274.989	-74.569	167.487	183.025	22.089	115.823	220.794	10.595	-20.264	190.590	274.578	193.457	147.378	188.130	121.800	243.964	0.00015615	0.00029686	0.00012316	513.49	1.3482e-07	3.5617e-06	501.95	148.79	1.9908e-06	3.1216e-06	188.53	76.22	57.435	27.44	3.3558e-06	38.42	0.00011516	0.00012911	3.2551e-05	474.49	1.2937e-06	1.4735e-06	468.4	138.71	1.4109e-06	1.548e-06	171.17	69.659	53.415	25.008	1.4517e-06	34.148	185.706	4.043	-47.007	-70.257	180.032	133.736	-71.110	-64.820	43.512	-43.461	-66.853	-62.763	-60.435	-55.175	221.176	-58.235	-8191	255	
2907.090	1	1	0	0	0.21086	0.17918	0.14207	0.10389	0.05212	0.072919	0.32878	0.31608	0.11948	0.15047	0.18905	0.13299	0.22263	0.31695	0.15017	0.21941	-2.3896	-2.7146	-2.1875	-3.1292	-2.2562	-2.6625	-2.9771	-2.2292	-2.65	-2.6958	-2.1979	-2.9854	-2.5375	-2.5583	-3.1771	-2.3521	184.634	190.488	158.588	268.550	-52.808	118.979	-75.939	177.890	130.363	5.718	226.621	-42.117	-80.616	213.352	178.409	252.421	0.00018086	0.00056515	0.0001687	520.9	2.7082e-06	1.3938e-06	503.73	148.52	4.4397e-06	3.6884e-06	187.31	76.753	57.323	26.902	3.1369e-06	37.934	0.00013993	0.00014546	3.6113e-05	481.42	1.5281e-06	1.5565e-06	472.48	138.26	1.5863e-06	1.5899e-06	170.4	69.831	53.625	24.662	1.5668e-06	33.816	201.920	-5.746	-75.687	-70.390	117.371	115.906	-71.621	-65.080	125.749	105.675	-66.604	-62.232	-60.420	-54.913	60.516	-58.331	-8191	255	
2907.211	1	1	0	0	0.18985	0.26964	0.050242	0.14986	0.16904	0.085704	0.22167	0.23969	0.18842	0.12883	0.12929	0.20797	0.058495	0.071162	0.055691	0.091033	-1.9562	-2.8458	-1.9667	-3.0167	-2.7083	-2.5667	-2.9083	-2.4708	-2.4458	-2.8208	-2.3521	-2.8646	-2.6896	-2.1583	-2.8688	-2.4125	96.384	165.239	28.623	226.579	70.281	-76.369	268.991	-55.369	125.250	-42.779	-37.767	-53.193	227.481	130.677	229.259	107.397	0.00015624	0.00036389	0.0001177	523.43	1.2808e-06	4.3996e-06	505.97	146.28	2.195e-06	5.0083e-06	182.93	75.481	56.832	26.501	3.9767e-06	37.12	0.00016471	0.00015674	4.0144e-05	488.68	1.8462e-06	1.735e-06	475.23	137.96	1.8811e-06	1.7866e-06	168.65	69.519	53.744	24.381	1.673e-06	33.495	187.788	276.156	-20.349	-70.541	38.403	2.732	-71.336	-65.062	91.104	70.448	-66.823	-62.650	-60.361	-54.991	-13.087	-58.383	-8191	255	
2907.307	1	1	0	0	0.084864	0.18804	0.21068	0.27862	0.13484	0.1865	0.26849	0.29212	0.1248	0.1186	0.048222	0.066977	0.27008	0.11174	0.20968	0.099267	-2.2792	-2.7562	-2.2729	-2.8479	-2.5687	-2.35	-2.9729	-2.4	-2.5438	-2.9104	-2.4083	-2.6667	-2.6854	-2.3583	-2.8646	-2.6188	139.758	109.660	225.636	244.263	-5.449	126.141	263.289	182.743	-25.881	-81.093	-73.816	203.066	-35.354	207.451	45.780	60.336	3.723e-05	0.00086143	4.2754e-05	530.15	2.7122e-06	3.4149e-06	509.23	145.37	4.3087e-06	3.2382e-06	181.96	75.254	56.304	26.249	7.0473e-06	37.341	0.00018311	0.0001681	4.3208e-05	500.02	2.0526e-06	1.8576e-06	480.43	138.67	2.0784e-06	1.9026e-06	169.28	70.06	53.713	24.21	1.7748e-06	33.848	176.214	5.487	-18.809	-70.315	108.452	150.520	-71.448	-64.725	24.764	32.079	-67.244	-62.110	-60.240	-54.790	75.015	-58.327	-8191	255	
2907.403	1	1	0	0	0.21818	0.14577	0.17043	0.16539	0.055809	0.27056	0.13772	0.18356	0.17214	0.186	0.11244	0.10859	0.11709	0.22527	0.14795	0.22043	-1.9417	-2.8688	-2.4167	-2.7542	-2.9479	-2.1833	-2.9417	-2.4458	-2.2125	-2.8375	-2.3563	-2.6646	-2.8063	-2.2917	-3.0604	-2.5438	4.905	-75.288	157.661	246.792	111.410	12.440	206.837	177.534	253.390	240.257	7.605	186.288	152.414	182.164	212.803	-78.626	0.0001344	0.00068947	8.9355e-05	542.92	1.7435e-06	6.1249e-06	517.79	147.12	4.4428e-06	5.3947e-07	183.86	74.813	56.483	26.169	2.0581e-06	36.877	0.00018904	0.00016993	4.5334e-05	511.57	2.0737e-06	1.869e-06	488.3	140.1	2.1114e-06	1.9542e-06	170.8	70.602	53.884	24.3	1.9928e-06	34	209.957	1.814	238.902	-70.742	28.870	41.079	-70.928	-64.831	74.254	111.876	-67.060	-62.741	-60.095	-54.947	3.365	-58.103	-8191	255	
2907.499	1	1	0	0	0.11301	0.11631	0.28356	0.13614	0.039066	0.37712	0.11673	0.22509	0.10587	0.14033	0.071949	0.14724	0.11502	0.16467	0.1264	0.055332	-2.0938	-2.9417	-2.3667	-2.7583	-2.9271	-2.1875	-2.8208	-2.7896	-2.5479	-3.1083	-2.4417	-2.7125	-2.9521	-2.3479	-2.9771	-2.7604	73.858	-19.917	34.579	-63.481	224.979	153.124	168.274	245.010	165.101	-68.750	2.663	234.670	-41.455	260.875	13.913	121.477	4.9002e-05	0.00040095	9.6359e-05	547.95	1.8808e-06	1.1544e-06	519.57	146.3	3.2689e-06	1.9002e-06	181.48	75.003	56.89	26.178	3.0528e-06	37.095	0.00019558	0.00018105	5.0443e-05	517.43	2.046e-06	1.8674e-06	492.26	140.03	2.0187e-06	1.9126e-06	171.13	70.838	53.829	24.221	2.1568e-06	34.001	212.027	-4.218	-26.022	-70.655	223.167	148.773	-71.470	-65.065	62.757	16.023	-66.999	-62.401	-60.586	-55.064	-56.485	-58.709	-8191	255	
2907.595	1	1	0	0	0.1263	0.1657	0.092907	0.19291	0.11346	0.15569	0.27292	0.36097	0.15756	0.1648	0.0084788	0.072957	0.16944	0.075556	0.08364	0.14592	-2.0812	-3.0292	-2.6229	-2.55	-2.9417	-2.425	-3.0938	-3.0062	-2.3729	-2.9083	-2.5146	-2.5187	-2.8521	-2.25	-2.7667	-2.7896	265.102	263.107	83.186	-12.088	196.408	186.188	0.679	51.412	-49.282	-6.112	86.755	12.208	163.356	-65.345	82.116	209.994	0.00014484	0.00056884	5.2846e-05	543.31	5.0405e-06	5.2938e-06	518.34	145.6	1.0807e-06	7.707e-06	179.95	73.833	56.122	25.97	7.1921e-06	36.402	0.00019395	0.00018439	5.713e-05	515.39	2.1475e-06	2.0322e-06	492.12	139.46	2.1228e-06	2.0076e-06	171.12	70.055	53.302	24.073	2.3005e-06	33.452	193.739	-68.283	54.958	-70.633	82.898	119.341	-71.343	-64.785	-37.600	69.793	-66.701	-62.421	-60.159	-55.422	163.058	-58.537	-8191	255	
2907.691	1	1	0	0	0.18698	0.16782	0.25848	0.36311	0.014053	0.053298	0.038154	0.13335	0.18179	0.071037	0.087475	0.18102	0.1744	0.067804	0.050027	0.29114	-1.7583	-2.7188	-2.6625	-2.4917	-2.9646	-2.5917	-2.5542	-2.975	-2.1375	-2.875	-2.6833	-2.1104	-3.0979	-2.5083	-2.5187	-2.8812	204.544	209.075	-23.338	248.921	217.551	190.856	210.013	198.550	-13.694	208.744	89.444	269.827	193.866	144.807	137.333	266.304	2.7221e-05	0.0005307	0.00011397	537.95	5.2324e-06	3.3794e-06	512.46	144.4	2.3589e-06	2.0011e-06	180.01	73.757	56.167	26.079	1.0305e-06	36.798	0.0001833	0.00017733	5.6063e-05	507.47	1.9141e-06	1.8959e-06	488.72	137.72	1.8895e-06	1.9559e-06	169.93	69.267	53.024	24.113	2.289e-06	33.443	155.875	251.742	-61.648	-70.419	168.146	208.972	-71.343	-64.850	68.911	156.643	-66.580	-62.509	-59.993	-55.243	2.220	-58.913	-8191	255	
2907.810	1	1	0	0	0.11702	0.26146	0.18299	0.064108	0.23397	0.21521	0.49614	0.044496	0.15033	0.10472	0.19845	0.29505	0.20638	0.29217	0.11146	0.23739	-1.5312	-2.8875	-2.5312	-2.2458	-2.925	-2.4042	-2.6208	-3.0146	-2.3667	-2.575	-2.7812	-2.2	-2.9979	-2.4667	-2.4562	-2.9771	2.540	205.334	95.539	48.906	247.840	-69.288	259.402	209.796	51.688	126.515	247.693	184.596	260.844	247.612	35.802	223.691	6.5637e-05	0.00013621	0.00013982	537.44	2.2277e-06	2.4038e-07	508.88	143.17	3.3741e-06	1.3031e-06	179.89	74.257	55.649	25.833	7.6534e-07	36.844	0.00017972	0.00018992	5.8338e-05	505.72	1.9316e-06	2.0594e-06	484.83	136.42	1.9034e-06	2.1166e-06	169.07	69.3	52.655	24.145	2.3051e-06	33.43	188.954	19.489	43.770	-70.598	60.012	85.602	-71.309	-64.803	15.879	63.073	-66.693	-62.470	-60.723	-55.480	174.650	-58.384	-8191	255	
2907.907	1	1	0	0	0.1479	0.10034	0.085635	0.14383	0.079729	0.29614	0.18514	0.11929	0.15906	0.28096	0.13124	0.21159	0.10481	0.23353	0.052209	0.0826	-1.6958	-2.6437	-2.6646	-2.5187	-2.9708	-2.6667	-2.4771	-2.9646	-2.3167	-2.7938	-2.7667	-2.3646	-2.8708	-2.6188	-2.5667	-3.0312	157.744	256.333	189.159	-61.055	192.686	-40.561	184.027	153.908	173.318	134.560	-65.838	254.420	192.997	124.327	92.356	166.126	3.041e-05	0.00035895	3.6245e-05	535.22	3.217e-06	1.8247e-06	507.93	142.81	3.0896e-06	5.1598e-07	177.34	73.752	55.293	25.829	2.3877e-06	36.74	0.00018428	0.00021039	5.9799e-05	505.61	2.0645e-06	2.3651e-06	485.83	136.28	2.1063e-06	2.3972e-06	168.66	69.114	52.876	24.269	2.3536e-06	33.523	205.537	55.031	264.905	-70.850	95.414	-73.551	-71.062	-65.246	12.044	166.243	-67.037	-62.573	-60.319	-55.227	69.886	-58.238	-8191	255	
2908.003	1	1	0	0	0.18694	0.15528	0.20246	0.091363	0.054491	0.2021	0.35322	0.14248	0.05902	0.15189	0.11796	0.11892	0.096924	0.086923	0.11813	0.27316	-1.7896	-2.5458	-2.9688	-2.2125	-2.9938	-2.6417	-2.4125	-2.9562	-2.3833	-2.675	-2.9333	-2.3187	-2.8125	-2.6042	-2.6125	-2.9375	205.504	-3.657	-55.350	237.669	257.109	-44.718	189.672	214.208	-61.491	207.563	-79.006	159.617	239.941	186.996	193.824	128.112	0.00014871	0.00058681	4.6436e-05	535.93	3.0218e-06	2.4254e-06	507.71	141.1	2.1585e-06	3.9174e-06	175.78	73.154	54.72	25.626	4.9438e-06	36.245	0.00020125	0.00023075	6.0758e-05	507.21	2.2956e-06	2.5769e-06	486.36	136.27	2.3764e-06	2.6384e-06	168.3	69.017	53.002	24.232	2.4879e-06	33.235	128.285	-19.527	-54.781	-70.731	-12.996	46.730	-71.341	-65.274	183.283	2.303	-66.917	-62.414	-60.257	-55.020	-2.567	-58.870	-8191	255	
2908.099	1	1	0	0	0.30283	0.13352	0.13707	0.12945	0.24021	0.090277	0.20907	0.17093	0.24632	0.069298	0.14728	0.22035	0.26749	0.1401	0.21981	0.10471	-1.9167	-2.6437	-2.7958	-2.4229	-2.8979	-2.6271	-2.4479	-2.8354	-2.4	-2.7771	-2.8458	-2.2562	-2.8708	-2.6042	-2.3125	-3.1562	273.121	251.072	-38.684	146.614	-78.385	147.841	191.946	266.967	188.191	274.868	-25.158	44.143	204.368	205.399	92.917	262.637	0.00013753	0.00078437	9.3957e-05	534.29	7.0025e-07	2.3738e-06	507.39	140.79	3.3215e-06	4.4794e-06	175.11	72.043	54.351	25.238	1.6725e-06	36.216	0.0002309	0.00024627	6.2736e-05	507.72	2.5213e-06	2.6429e-06	485.25	135.6	2.5582e-06	2.6564e-06	167.24	68.47	53.101	24.094	2.4752e-06	33.284	166.265	11.199	9.602	-70.725	-43.253	1.235	-71.788	-65.028	92.327	-48.478	-66.516	-62.726	-60.033	-54.992	84.758	-58.501	-8191	255	
2908.195	1	1	0	0	0.065206	0.10283	0.14576	0.19654	0.06158	0.3853	0.16774	0.17076	0.11294	0.16672	0.093323	0.17819	0.39006	0.16812	0.19705	0.061072	-1.9042	-2.6917	-2.6917	-2.3042	-2.775	-2.8729	-2.3	-2.6958	-2.7271	-2.4792	-3.0812	-2.2083	-2.8625	-3.0062	-2.2854	-2.8729	159.921	192.420	-29.427	-80.012	169.231	132.094	61.709	239.681	225.191	-31.543	-26.813	-32.783	198.945	-61.940	106.854	-9.850	0.00011457	0.0005057	0.00019173	534.1	4.4063e-06	1.7138e-06	507.98	140.86	3.6723e-06	2.0769e-06	173.64	72.581	55.076	25.63	4.2664e-06	36.224	0.00024644	0.00024835	6.4054e-05	509.77	2.8061e-06	2.7247e-06	487.73	136.62	2.8768e-06	2.7066e-06	168.04	69.238	53.78	24.148	2.5209e-06	33.55	187.532	14.421	248.793	-71.122	155.445	46.559	-71.221	-65.137	190.490	118.779	-66.739	-62.534	-60.046	-55.234	1.507	-58.407	-8191	255	
2908.291	1	1	0	0	0.062205	0.17673	0.15287	0.18713	0.030662	0.092182	0.30602	0.29023	0.23958	0.02763	0.19385	0.19981	0.37049	0.087088	0.24278	0.17756	-2.1562	-2.3958	-3	-2.5	-2.5208	-2.9208	-2.1271	-3.0125	-2.5729	-2.4	-3.075	-2.3125	-2.5333	-2.8812	-2.2646	-2.7562	147.525	259.902	-2.728	270.205	-29.928	190.495	-72.664	-66.911	-10.867	-18.148	84.153	254.567	173.478	7.353	47.524	121.174	7.983e-05	0.00049217	0.00020165	534.91	2.8588e-06	4.1794e-06	509.66	140.91	1.1616e-06	5.2575e-06	174.36	72.75	54.935	25.489	1.2978e-06	36.065	0.00026025	0.00024391	6.4613e-05	513.85	2.9336e-06	2.7284e-06	489.58	137.68	3.0526e-06	2.8062e-06	169.92	70.077	54.102	24.299	2.7538e-06	33.961	182.417	-43.202	-78.554	-70.809	-75.347	122.304	-71.150	-64.936	112.226	47.809	-66.981	-62.521	-60.227	-55.477	-31.199	-58.249	-8191	255	
2908.412	1	1	0	0	0.074756	0.31369	0.0512	0.19876	0.045614	0.11055	0.20489	0.29263	0.23798	0.13791	0.14812	0.23489	0.13761	0.1669	0.075663	0.15837	-2.4458	-2.2646	-2.9292	-2.6688	-2.5479	-3.1083	-2.25	-2.7854	-2.8271	-2.3771	-2.8979	-2.6646	-2.4167	-2.8104	-2.4396	-2.7667	275.037	62.952	232.202	265.659	260.681	144.996	110.301	-59.033	102.651	119.497	246.642	193.430	242.586	49.991	5.270	206.219	0.00012261	0.0009198	9.1735e-05	535.6	3.0277e-06	2.012e-07	505.69	141.54	5.3359e-06	2.1632e-06	172.89	72.974	54.672	25.338	8.0061e-07	36.061	0.00028599	0.00026463	7.0954e-05	519.81	3.1211e-06	2.9051e-06	489.9	139.08	3.0907e-06	2.845e-06	170.17	70.47	54.016	24.119	2.7582e-06	33.908	210.584	210.743	-47.714	-70.258	-7.053	169.440	-71.303	-65.000	49.637	230.727	-66.838	-62.564	-60.093	-55.463	54.552	-58.007	-8191	255	
2908.506	1	1	0	0	0.07158	0.05088	0.36047	0.15135	0.1002	0.23716	0.25742	0.098123	0.11181	0.1856	0.077594	0.22626	0.17586	0.12495	0.13455	0.18902	-2.45	-2.3479	-2.7708	-2.5854	-2.275	-2.9417	-2.2938	-2.625	-2.95	-2.2438	-2.7938	-2.8667	-2.4417	-2.8667	-2.5438	-2.6542	78.672	171.387	-31.518	195.951	197.276	232.974	239.843	214.767	17.588	187.362	202.196	-68.090	208.065	233.035	-7.624	170.763	1.0744e-05	0.0011191	5.7776e-05	529.67	3.2453e-06	1.1732e-06	506.43	141.63	2.0019e-06	8.9126e-06	171.03	72.275	54.912	25.329	5.2142e-06	35.908	0.00027228	0.00025554	7.0608e-05	517.56	2.9252e-06	2.7406e-06	489.37	139.21	2.9143e-06	2.7278e-06	169.6	70.159	53.714	24.132	2.9123e-06	33.971	3.492	-22.852	155.865	-70.870	-38.426	179.973	-71.696	-65.011	54.976	78.888	-66.495	-62.588	-60.844	-55.187	208.435	-58.527	-8191	255	
2908.602	1	1	0	0	0.25178	0.06789	0.15601	0.12125	0.22557	0.085143	0.16002	0.28664	0.034698	0.094179	0.27503	0.12596	0.20602	0.097668	0.11253	0.1828	-2.3438	-2.2083	-2.6396	-2.7812	-2.3958	-3.1042	-2.4604	-2.5312	-2.925	-2.1813	-2.8542	-2.8229	-2.2354	-2.9979	-2.5187	-2.2208	250.658	124.979	238.449	204.978	-44.045	17.161	99.431	240.562	195.998	132.611	226.220	224.143	269.035	-50.995	-70.023	115.849	0.00018158	0.00081543	4.5029e-05	528.81	4.9687e-07	7.8427e-06	507.93	139.7	3.9856e-06	4.3047e-06	171.66	71.903	54.207	25.41	5.5028e-06	35.887	0.00026904	0.00025229	7.5543e-05	518.71	2.9179e-06	2.8284e-06	492.58	138.78	2.9891e-06	2.8628e-06	171.94	70.561	53.767	24.107	3.312e-06	33.982	192.036	-16.128	8.213	-70.505	259.677	116.384	-71.471	-65.003	70.600	-55.443	-66.841	-62.753	-60.083	-55.419	236.980	-58.681	-8191	255	
2908.676	1	1	0	0	0.045251	0.18431	0.042061	0.082911	0.22449	0.22123	0.2577	0.039229	0.028482	0.18307	0.068338	0.29817	0.18608	0.22291	0.22973	0.061267	-2.4354	-2.3083	-2.8229	-2.7687	-2.3271	-3.0146	-2.425	-2.4375	-3.1208	-2.5979	-2.6979	-2.8729	-2.3042	-3.0604	-2.6396	-2.4208	224.245	232.388	-3.601	-34.510	54.945	-73.073	165.615	-54.236	-52.240	68.598	191.084	57.764	226.814	-21.138	164.307	216.474	9.1758e-05	0.00041384	0.00016296	534.96	2.535e-06	5.6727e-06	507.22	140.11	2.7633e-06	5.5457e-06	175.28	71.984	53.773	24.871	7.0337e-06	35.775	0.00028749	0.00027791	8.757e-05	524.61	3.1491e-06	3.1661e-06	499	139.68	3.3247e-06	3.2662e-06	177.17	71.379	54.223	24.22	3.9461e-06	34.206	235.340	-59.020	-45.338	-70.423	99.067	143.573	-71.366	-65.114	84.676	12.367	-66.643	-62.654	-60.386	-54.906	7.336	-58.429	-8191	255	
2908.772	1	1	0	0	0.16764	0.26969	0.15133	0.11799	0.17291	0.15681	0.23021	0.22686	0.37926	0.17358	0.22072	0.29503	0.22092	0.051469	0.064684	0.20396	-2.5521	-2.1292	-2.5	-3.0708	-2.2104	-2.6875	-2.7042	-2.3292	-2.825	-2.5792	-2.6229	-2.7896	-2.3479	-2.7188	-2.5083	-2.3771	-13.466	77.860	-18.330	193.623	96.902	-43.074	-35.288	-46.075	10.824	88.095	42.450	202.883	-8.868	102.831	46.715	234.598	0.00011484	0.00010953	0.00022662	540.39	5.7569e-06	3.7503e-06	513.8	140.88	1.4275e-06	8.3513e-06	175.75	72.065	54.718	25.143	2.9938e-06	35.629	0.00031608	0.00032214	0.00010048	532.7	3.3698e-06	3.4595e-06	508.29	141	3.26e-06	3.378e-06	176.92	70.782	53.997	24.286	3.5023e-06	33.733	159.775	61.706	33.303	-70.705	-51.118	19.327	-71.437	-64.929	157.300	51.614	-67.109	-62.457	-60.650	-55.030	198.613	-58.386	-8191	255	
2908.891	1	1	0	0	0.32105	0.11267	0.1761	0.2478	0.28908	0.30581	0.20269	0.21857	0.15568	0.18174	0.13096	0.18574	0.06288	0.087811	0.099717	0.084062	-2.4604	-2.3375	-2.3375	-2.8667	-2.3729	-2.6562	-2.9958	-2.3042	-2.8583	-2.6125	-2.5	-3.1854	-2.2687	-2.7083	-2.8812	-2.4625	142.199	-15.661	14.617	234.512	120.544	146.452	208.970	157.711	224.822	266.181	-68.244	120.121	172.328	9.164	206.389	273.657	5.7127e-05	0.00021487	0.00011264	536.67	2.3744e-06	6.284e-06	509.25	142.66	3.1657e-06	2.0235e-06	174.66	72.236	54.582	25.079	5.1491e-06	35.42	0.0002763	0.00029983	8.6643e-05	524.98	3.0149e-06	3.3673e-06	504.29	140.12	3.0499e-06	3.3897e-06	174.88	70.224	53.663	24.242	3.3175e-06	33.45	157.421	137.807	-80.607	-71.261	213.904	166.160	-71.049	-65.195	15.103	67.773	-66.420	-62.838	-60.483	-54.915	29.181	-58.397	-8191	255	
2908.987	1	1	0	0	0.16673	0.057898	0.43909	0.24036	0.39638	0.12163	0.20359	0.044812	0.05754	0.21682	0.14871	0.19289	0.20984	0.31916	0.24048	0.035314	-2.4917	-2.4667	-2.5083	-2.9938	-2.3083	-2.6854	-2.9	-2.4583	-2.9	-2.8083	-2.5542	-2.9938	-2.4917	-2.7146	-3.0208	-2.2646	-5.609	-58.719	100.630	-58.912	87.315	99.789	167.281	-73.831	261.750	45.246	25.327	220.480	-24.071	-65.231	197.850	-80.376	0.00015866	0.00018224	8.1006e-05	537.84	3.2271e-06	4.1254e-07	512.56	142.45	5.8547e-07	4.6571e-06	176.86	73.417	55.139	25.559	7.403e-07	36.316	0.00027376	0.00030521	8.071e-05	522.29	2.8741e-06	3.2433e-06	499.05	139.01	2.8378e-06	3.1288e-06	173.28	70.317	53.863	24.436	2.8214e-06	33.711	201.728	53.963	-76.297	-70.761	196.823	59.555	-71.518	-65.027	234.378	47.447	-66.565	-62.729	-60.434	-54.841	92.202	-58.688	-8191	255	
2909.083	1	1	0	0	0.24279	0.059734	0.15794	0.046967	0.22755	0.11927	0.15929	0.32685	0.14715	0.16958	0.084109	0.11057	0.14859	0.22271	0.012603	0.29383	-2.3896	-2.6063	-2.3521	-3.1417	-2.3083	-2.6333	-2.9333	-2.2104	-2.9083	-2.6146	-2.2833	-3.0771	-2.2938	-2.5187	-2.8646	-2.1708	149.495	229.969	6.200	80.524	168.311	247.603	125.250	103.800	56.812	-10.462	107.691	78.379	87.222	211.654	60.518	37.078	0.00011582	0.0001174	5.7517e-05	538.2	6.636e-06	4.7969e-06	508.88	142.08	2.5855e-06	1.1017e-05	176.94	73.926	55.465	25.779	4.0786e-06	36.505	0.00025105	0.00027917	7.1005e-05	516.98	2.8366e-06	3.0256e-06	495.99	138.88	2.8586e-06	3.004e-06	172.89	70.4	54.341	24.519	2.7466e-06	33.828	181.578	236.675	-3.140	-70.591	242.021	14.189	-71.936	-64.908	249.442	99.868	-66.748	-62.360	-59.928	-54.991	28.384	-58.268	-8191	255	
2909.204	1	1	0	0	0.21613	0.12971	0.098219	0.081946	0.1131	0.25374	0.035174	0.23421	0.0731	0.30089	0.19059	0.13102	0.29075	0.021702	0.11238	0.31659	-2.3979	-2.6979	-2.3104	-2.8	-2.6542	-2.5646	-3.0604	-2.2021	-2.7271	-3.0854	-2.2229	-3.1021	-2.5125	-2.4792	-3.0312	-2.1479	269.360	74.826	162.646	255.648	206.853	162.361	61.449	159.252	250.613	110.956	274.205	179.526	122.194	51.830	268.570	255.585	0.00016264	0.00035488	0.00015485	539.21	2.7462e-06	3.0937e-06	513.1	140.78	2.8734e-06	6.0706e-06	177.26	73.087	55.363	25.489	2.5984e-06	35.999	0.00026558	0.00027211	6.9819e-05	516.27	3.0061e-06	2.9756e-06	497.81	138.68	3.1178e-06	3.0971e-06	173.03	70.585	54.943	24.411	3.0805e-06	33.812	197.039	26.733	30.536	-70.564	125.921	52.426	-71.431	-65.206	178.353	-2.191	-66.803	-62.569	-60.770	-55.110	-0.434	-58.128	-8191	255	
2909.275	1	1	0	0	0.066706	0.307	0.13123	0.057876	0.086766	0.10403	0.085122	0.089613	0.16309	0.14327	0.046643	0.10901	0.1112	0.19948	0.10698	0.17703	-2.2958	-2.8375	-1.9708	-3.0208	-2.6604	-2.3208	-3.0604	-2.4625	-2.7229	-2.9083	-2.4813	-2.8542	-2.5	-2.4188	-2.9771	-2.5458	-34.467	200.375	151.085	118.595	247.123	35.774	258.738	-54.634	-22.945	187.136	-21.300	-24.892	99.647	226.497	8.294	189.992	0.00017698	0.00011202	9.5887e-05	537.53	9.2478e-07	6.2647e-06	513.05	141.14	2.197e-06	4.7708e-06	173.79	72.873	54.72	25.207	4.3594e-06	35.469	0.00031355	0.00030178	7.6767e-05	521.75	3.4003e-06	3.1423e-06	497.17	139.44	3.4493e-06	3.2367e-06	173.11	70.789	55.22	24.312	3.2555e-06	33.883	179.278	-72.261	-4.420	-70.359	-49.181	-5.510	-71.579	-65.134	44.525	-27.931	-66.642	-62.501	-60.542	-54.871	-77.777	-58.652	-8191	255	
2909.371	1	1	0	0	0.059582	0.11018	0.17031	0.30077	0.1784	0.18077	0.20118	0.10499	0.22848	0.13771	0.31211	0.32617	0.31006	0.072908	0.14968	0.098058	-2.2146	-2.8187	-2.3229	-2.9979	-2.7729	-2.4292	-3.0563	-2.6625	-2.7188	-2.8	-2.3896	-2.8	-2.6479	-2.175	-3.0354	-2.4271	-75.740	243.377	10.118	-67.041	-7.818	73.603	33.207	237.436	-80.237	162.396	49.013	237.081	-48.352	-69.325	206.691	-69.027	0.00014054	0.00097228	0.00010276	534.56	1.6437e-06	5.056e-06	506.9	142.28	5.9702e-06	3.3911e-06	173.57	72.166	54.898	25.032	4.056e-06	35.809	0.00033935	0.00032027	8.3142e-05	527.24	3.8145e-06	3.4952e-06	497.78	141.92	3.7302e-06	3.4569e-06	173.78	71.61	55.27	24.289	3.3785e-06	34.336	225.636	-78.412	-53.142	-70.943	181.584	33.181	-71.571	-65.297	93.297	124.540	-66.812	-62.271	-59.888	-54.869	70.595	-58.441	-8191	255	
2909.492	1	1	0	0	0.15763	0.036326	0.26058	0.19132	0.09179	0.22118	0.21107	0.16729	0.072129	0.05816	0.25782	0.20666	0.089012	0.39478	0.028148	0.30629	-1.9771	-2.975	-2.1417	-2.7604	-2.9917	-2.2896	-2.8875	-2.6229	-2.3333	-2.8896	-2.6063	-2.85	-2.9854	-2.4271	-2.8417	-2.6917	247.635	258.973	111.572	-50.720	146.401	171.752	182.270	-65.506	273.697	153.890	71.318	253.454	226.853	243.125	-9.716	94.185	8.7511e-05	0.00051209	0.00018215	540.54	6.1054e-07	4.1143e-06	507.39	141.03	4.6097e-06	4.9114e-06	174.23	72.201	54.848	25.049	3.9799e-06	35.949	0.0003409	0.00032389	8.8391e-05	535.4	3.9675e-06	3.6787e-06	503.34	143.9	4.0657e-06	3.845e-06	177.43	73.188	55.957	24.564	3.9091e-06	34.999	189.222	8.478	-52.129	-70.600	194.855	59.312	-71.207	-64.842	92.978	6.140	-66.488	-62.314	-60.530	-54.944	261.896	-58.415	-8191	255	
2909.588	1	1	0	0	0.17412	0.25826	0.23125	0.024544	0.062966	0.17509	0.23207	0.27294	0.30152	0.2603	0.093125	0.31099	0.16382	0.19613	0.103	0.091258	-1.8396	-2.9021	-2.3708	-2.6542	-2.7604	-2.4042	-2.9458	-2.5708	-2.4521	-2.9333	-2.3812	-2.6562	-2.7917	-2.3167	-2.9688	-2.7833	-78.464	142.906	147.526	95.063	271.367	134.623	231.168	240.255	168.754	93.278	226.801	214.035	-43.173	97.661	-3.257	163.809	9.706e-05	0.00050627	7.7337e-05	532.56	5.3854e-06	4.1381e-06	509.11	139.13	5.9713e-06	2.7375e-06	169.98	71.329	54.427	24.46	6.0409e-06	35.404	0.00036323	0.00035287	0.00010156	538.05	4.1033e-06	3.907e-06	509.43	144.3	4.2572e-06	4.1277e-06	181.15	73.481	56.348	24.524	4.7907e-06	35.187	208.918	-36.732	86.002	-70.350	91.144	26.638	-71.465	-64.840	86.063	247.018	-66.590	-62.525	-60.327	-55.037	158.087	-58.466	-8191	255	
2909.683	1	1	0	0	0.091009	0.16941	0.12492	0.26581	0.29421	0.1337	0.2177	0.24503	0.034208	0.19155	0.29986	0.10894	0.24841	0.13246	0.23746	0.22844	-1.7437	-2.9521	-2.3312	-2.6521	-2.9208	-2.4396	-2.8042	-2.6937	-2.1875	-2.8958	-2.4396	-2.5667	-2.8896	-2.3542	-2.7083	-2.6146	131.203	117.343	114.027	178.318	55.263	242.690	189.722	196.585	158.310	176.567	-54.770	242.655	-0.747	-23.777	90.627	76.488	0.00012665	0.00096429	1.9844e-05	536.49	2.3954e-06	2.0695e-06	506.64	139.4	6.0716e-06	8.0074e-06	168.29	71.035	53.322	24.125	2.011e-06	34.624	0.00042214	0.00041871	0.00012833	553.52	4.8683e-06	4.651e-06	523.4	147.01	5.0483e-06	5.0037e-06	188.32	74.841	57.621	24.949	6.4535e-06	35.756	111.402	-64.759	48.412	-70.387	47.751	165.089	-71.697	-64.902	96.356	48.702	-66.969	-62.286	-60.360	-55.089	-77.131	-58.531	-8191	255	
2909.803	1	1	0	0	0.024704	0.18528	0.11763	0.16464	0.15917	0.12433	0.18551	0.041318	0.12892	0.25586	0.032589	0.046953	0.17659	0.11892	0.33205	0.09244	-1.9167	-2.9792	-2.5479	-2.5187	-2.8312	-2.4583	-2.6417	-2.7708	-2.2542	-2.8667	-2.725	-2.3438	-3.1083	-2.4688	-2.5187	-2.9521	90.915	15.753	243.008	-36.977	241.286	69.774	216.602	67.349	110.053	196.018	97.957	-22.948	237.922	93.010	178.984	117.224	0.00015999	0.00093715	0.00023526	552.06	2.8055e-06	3.8576e-06	520.28	140.75	7.3249e-06	4.8251e-07	171.25	70.606	53.968	23.87	4.4662e-06	34.366	0.00054371	0.00056382	0.00018045	589.85	6.4261e-06	6.4977e-06	561.22	155.19	6.5064e-06	6.8134e-06	204.49	78.087	60.659	26.103	8.0533e-06	36.937	171.554	117.368	199.411	-70.745	51.405	205.997	-71.658	-65.043	43.617	112.900	-67.252	-62.904	-60.574	-55.194	72.656	-58.566	-8191	255	
2909.875	1	1	0	0	0.25245	0.18023	0.22682	0.34107	0.17079	0.044445	0.14456	0.17526	0.17366	0.088624	0.055441	0.14798	0.19475	0.13305	0.20983	0.22856	-1.7542	-2.875	-2.7021	-2.275	-3.1167	-2.4958	-2.8146	-3.0292	-2.3271	-2.7979	-2.8479	-2.1292	-2.9042	-2.5	-2.6375	-3.0604	89.730	113.953	220.025	242.970	-17.731	267.235	157.308	115.823	111.528	206.317	-1.222	161.576	17.557	169.385	9.752	214.580	1.8533e-05	0.000759	8.3199e-05	564.79	4.3623e-06	1.5055e-05	533.05	143.82	8.6315e-06	7.7876e-06	171.63	71.59	54.653	23.932	7.103e-06	34.146	0.00064356	0.00071142	0.00021434	616.96	7.5185e-06	8.224e-06	590.23	163.08	7.8279e-06	8.8558e-06	219.4	81.829	63.993	27.709	9.4466e-06	38.372	55.480	168.884	-75.315	-70.658	-50.143	199.449	-71.851	-65.308	208.805	139.634	-66.716	-62.817	-60.493	-55.022	60.134	-58.607	-8191	255	
2909.971	1	1	0	0	0.14637	0.11943	0.17541	0.27975	0.20905	0.089891	0.21292	0.047196	0.15437	0.27684	0.071123	0.19335	0.086923	0.21997	0.11537	0.13178	-1.9896	-2.6042	-2.8937	-2.2854	-3.0583	-2.6979	-2.4813	-3.2292	-2.3896	-2.5896	-2.8563	-2.2021	-3.0187	-2.6958	-2.2146	-3.1146	114.344	128.182	275.999	233.388	63.946	94.436	-77.135	195.730	-13.897	-20.962	196.623	-52.956	208.438	263.023	269.984	109.627	0.00012125	0.00071835	0.00034027	570.88	5.6538e-06	1.2756e-05	534.84	144.86	7.644e-06	7.9821e-06	172.71	71.664	54.371	23.965	4.5089e-06	34.547	0.00075643	0.00087436	0.00024184	636.67	8.5294e-06	9.6954e-06	603.62	167.19	8.6178e-06	9.8392e-06	221.86	82.884	65.375	28.258	9.4606e-06	38.455	163.816	102.090	-11.451	-70.929	250.476	247.220	-71.584	-65.219	48.283	101.795	-66.649	-62.736	-60.894	-55.180	-58.065	-58.789	-8191	255	
2910.067	1	1	0	0	0.093215	0.28834	0.18673	0.18581	0.1621	0.24356	0.14275	0.1599	0.1547	0.06732	0.3558	0.16304	0.18736	0.16842	0.087563	0.1264	-1.95	-2.5625	-2.6729	-2.2771	-2.6792	-2.5854	-2.6229	-2.9958	-2.1208	-2.65	-2.8375	-2.2938	-2.7438	-2.6688	-2.5854	-2.9771	266.915	94.824	213.161	-56.929	-21.441	167.209	-8.507	29.896	12.852	226.768	153.925	131.231	-59.739	221.075	87.418	135.547	0.00018991	0.00043207	7.7999e-05	579.16	1.3272e-05	3.6642e-06	540.65	144.54	6.5522e-06	5.4583e-06	173.13	71.464	54.558	24.098	3.4409e-06	34.128	0.0008117	0.00093621	0.00024448	644.36	9.4288e-06	1.0553e-05	610.18	169.12	9.6432e-06	1.0564e-05	222.29	83.045	66.804	28.299	9.0537e-06	37.928	240.532	125.573	-41.446	-70.663	176.297	-40.091	-71.326	-64.726	158.132	109.884	-67.207	-62.559	-60.483	-55.448	-77.246	-58.553	-8191	255	
2910.186	1	1	0	0	0.11207	0.19174	0.067539	0.15731	0.1132	0.16761	0.18131	0.31863	0.1677	0.076383	0.086726	0.13652	0.098029	0.29612	0.071879	0.14072	-1.825	-2.5062	-2.8438	-2.1833	-2.925	-2.925	-2.2208	-2.8375	-2.55	-2.5208	-2.9396	-2.1646	-2.725	-2.8438	-2.2729	-3.0083	272.030	137.561	-50.734	-38.587	157.850	211.941	-40.270	-68.217	-40.306	35.950	233.669	219.094	188.253	-62.715	84.737	195.062	0.00017026	0.0016487	0.00014777	570.49	6.5747e-06	2.9556e-06	536.51	145.16	5.3691e-06	8.9503e-06	173.24	71.361	54.781	24.098	4.9092e-06	34.094	0.00081976	0.00086662	0.00022104	629.91	9.0538e-06	9.3906e-06	593.04	165.51	9.4769e-06	9.6311e-06	218.31	82.739	67.684	28.276	9.3198e-06	38.528	192.952	-29.710	253.349	-70.474	246.073	276.131	-71.728	-65.091	35.983	107.100	-67.057	-62.750	-60.068	-55.493	-29.726	-58.695	-8191	255	
2910.282	1	1	0	0	0.32715	0.15581	0.048392	0.064508	0.13429	0.089157	0.14897	0.24557	0.17903	0.13683	0.10207	0.041666	0.16505	0.28822	0.093231	0.080664	-2.2583	-2.5083	-2.9083	-2.2938	-2.6833	-2.8542	-2.2875	-3.0458	-2.8417	-2.4167	-3.125	-2.5896	-2.6708	-2.8729	-2.4562	-3.0375	263.451	12.728	25.937	69.675	216.857	6.407	-13.786	99.481	-9.406	276.040	243.895	163.685	228.357	-80.803	173.364	204.582	0.0003845	0.0014141	0.00018389	576.28	5.2069e-07	8.548e-06	542.16	144.12	9.658e-06	6.494e-06	170.93	70.605	54.651	23.88	5.9402e-06	34.207	0.00094466	0.00093997	0.00024673	650.77	1.0953e-05	1.0621e-05	612.71	172.8	1.1471e-05	1.0821e-05	227.01	86.582	71.286	29.066	1.0754e-05	40.685	130.766	-4.580	208.980	-70.591	196.432	22.313	-71.326	-65.339	220.671	103.870	-67.187	-62.891	-60.962	-55.399	217.991	-58.814	-8191	255	
2910.378	1	1	0	0	0.15233	0.27675	0.15608	0.11903	0.15507	0.0378	0.1475	0.23603	0.21091	0.11586	0.08504	0.20339	0.21863	0.19122	0.18369	0.24657	-2.2417	-2.4167	-2.9104	-2.5521	-2.6333	-2.7938	-2.5208	-2.9167	-2.875	-2.3688	-2.9417	-2.4792	-2.3812	-2.9896	-2.3812	-2.6521	80.623	-35.058	268.133	-79.692	28.442	115.376	2.621	27.809	153.146	176.699	17.771	170.731	253.737	-78.637	205.359	-18.803	0.00017203	0.0010516	0.00025824	575.35	1.1766e-05	1.2605e-05	545.02	145.64	7.4956e-06	6.4459e-06	171.26	70.456	55.312	23.879	2.1071e-06	33.799	0.0011311	0.0010628	0.00028346	686.05	1.2616e-05	1.1624e-05	628.15	180.86	1.2645e-05	1.143e-05	232.44	89.9	72.242	29.071	1.0702e-05	41.105	116.723	48.913	272.042	-70.539	-8.522	2.876	-72.015	-65.541	55.907	103.006	-66.887	-62.941	-60.791	-55.644	265.757	-58.863	-8191	255	
2910.475	1	1	0	0	0.26568	0.16981	0.1103	0.27846	0.23347	0.13312	0.12216	0.40129	0.19791	0.05477	0.23875	0.17674	0.18265	0.11785	0.081082	0.17575	-2.4604	-2.2333	-3.0979	-2.3937	-2.6562	-2.9708	-2.3542	-3.0208	-2.7771	-2.3396	-2.9208	-2.4771	-2.6917	-3.0771	-2.3937	-2.6542	48.917	248.935	235.050	-71.522	19.679	93.218	-26.642	244.031	250.217	25.123	-58.823	-14.878	166.354	82.203	249.699	-79.043	0.00020322	0.00046088	1.9963e-05	572.06	5.2295e-06	4.62e-06	537.21	144.7	6.2237e-06	1.742e-05	170.27	71.183	54.608	23.928	9.2212e-06	34.112	0.0010792	0.0009909	0.00026423	681.99	1.1323e-05	1.0461e-05	612.33	177.8	1.0956e-05	1.0021e-05	223.3	88.049	68.695	28.165	9.9206e-06	40.618	-48.382	24.029	-67.889	-70.737	76.013	34.225	-71.954	-65.307	-54.270	28.012	-66.797	-63.189	-61.244	-55.629	251.087	-58.792	-8191	255	
#DATA ENDS
