BOXY.EXE: ISS Imagent and Oximeter Data Acquisition Program Version 0.80
Ascii Record File

#ACQ INFORMATION
2  Detector Channels 
16  External MUX Channels 
1  Auxiliary Channels 
5000  Waveform (CCF) Frequency (Hz)
1  Waveforms Skipped 
30  Waveforms Averaged 
1  Cycles Averaged 
16  Acquisitions per Waveform 
10.0806  Updata Rate (Hz) 

#FILE INFORMATION
TRUE -- External MUX Channel results are PARSED.
FALSE -- AC DC and Phase are NOT grouped.
TRUE -- Companion Program Settings File CREATED.
FALSE -- AC data not excluded
FALSE -- DC data not excluded
FALSE -- Phase data not excluded
FALSE -- Auxillary Chn. data not excluded
Tab delimiters

#CALIBRATION STATE
TRUE -- Waveform Calibration Values APPLIED.


#AUX CALIBRATION VALUES
Val Type	aux-1	

Term	1.0000e+00	
Factor	0.0000e+00	


#WF CALIBRATION VALUES
A = Detector Channel
Val Type	A-AC1	A-AC2	A-AC3	A-AC4	A-AC5	A-AC6	A-AC7	A-AC8	A-AC9	A-AC10	A-AC11	A-AC12	A-AC13	A-AC14	A-AC15	A-AC16	A-DC1	A-DC2	A-DC3	A-DC4	A-DC5	A-DC6	A-DC7	A-DC8	A-DC9	A-DC10	A-DC11	A-DC12	A-DC13	A-DC14	A-DC15	A-DC16	A-Ph1	A-Ph2	A-Ph3	A-Ph4	A-Ph5	A-Ph6	A-Ph7	A-Ph8	A-Ph9	A-Ph10	A-Ph11	A-Ph12	A-Ph13	A-Ph14	A-Ph15	A-Ph16	

Term	0.00000e+00	0.00000e+00	0.00000e+00	0.00000e+00	0.00000e+00	0.00000e+00	0.00000e+00	0.00000e+00	0.00000e+00	0.00000e+00	0.00000e+00	0.00000e+00	0.00000e+00	0.00000e+00	0.00000e+00	0.00000e+00	0.00000e+00	0.00000e+00	0.00000e+00	0.00000e+00	0.00000e+00	0.00000e+00	0.00000e+00	0.00000e+00	0.00000e+00	0.00000e+00	0.00000e+00	0.00000e+00	0.00000e+00	0.00000e+00	0.00000e+00	0.00000e+00	0.00000e+00	0.00000e+00	0.00000e+00	0.00000e+00	0.00000e+00	0.00000e+00	0.00000e+00	0.00000e+00	0.00000e+00	0.00000e+00	0.00000e+00	0.00000e+00	0.00000e+00	0.00000e+00	0.00000e+00	0.00000e+00	
Factor	1.00000e+00	1.00000e+00	1.00000e+00	1.00000e+00	1.00000e+00	1.00000e+00	1.00000e+00	1.00000e+00	1.00000e+00	1.00000e+00	1.00000e+00	1.00000e+00	1.00000e+00	1.00000e+00	1.00000e+00	1.00000e+00	1.00000e+00	1.00000e+00	1.00000e+00	1.00000e+00	1.00000e+00	1.00000e+00	1.00000e+00	1.00000e+00	1.00000e+00	1.00000e+00	1.00000e+00	1.00000e+00	1.00000e+00	1.00000e+00	1.00000e+00	1.00000e+00	X	X	X	X	X	X	X	X	X	X	X	X	X	X	X	X	

B = Detector Channel
Val Type	B-AC1	B-AC2	B-AC3	B-AC4	B-AC5	B-AC6	B-AC7	B-AC8	B-AC9	B-AC10	B-AC11	B-AC12	B-AC13	B-AC14	B-AC15	B-AC16	B-DC1	B-DC2	B-DC3	B-DC4	B-DC5	B-DC6	B-DC7	B-DC8	B-DC9	B-DC10	B-DC11	B-DC12	B-DC13	B-DC14	B-DC15	B-DC16	B-Ph1	B-Ph2	B-Ph3	B-Ph4	B-Ph5	B-Ph6	B-Ph7	B-Ph8	B-Ph9	B-Ph10	B-Ph11	B-Ph12	B-Ph13	B-Ph14	B-Ph15	B-Ph16	

Term	0.00000e+00	0.00000e+00	0.00000e+00	0.00000e+00	0.00000e+00	0.00000e+00	0.00000e+00	0.00000e+00	0.00000e+00	0.00000e+00	0.00000e+00	0.00000e+00	0.00000e+00	0.00000e+00	0.00000e+00	0.00000e+00	0.00000e+00	0.00000e+00	0.00000e+00	0.00000e+00	0.00000e+00	0.00000e+00	0.00000e+00	0.00000e+00	0.00000e+00	0.00000e+00	0.00000e+00	0.00000e+00	0.00000e+00	0.00000e+00	0.00000e+00	0.00000e+00	-1.23726e+02	-1.39918e+02	-1.78938e+02	-1.81413e+02	-3.50059e+01	-7.24347e+01	-1.57789e+02	-1.62015e+02	-7.41590e+01	-9.50557e+01	-1.80411e+02	-1.70917e+02	-1.81322e+02	-1.76271e+02	-8.71251e+01	-1.49364e+02	
Factor	1.81544e-05	1.23178e-04	2.51159e-05	1.85326e-01	8.05980e-07	9.73926e-07	1.72092e-01	5.34215e-02	8.30615e-07	1.09759e-06	1.07935e-01	3.07122e-02	2.47813e-02	9.40291e-03	9.68748e-07	1.38253e-02	5.41759e-07	5.53856e-07	1.53778e-07	8.86287e-02	6.03997e-09	6.06804e-09	7.82073e-02	2.56647e-02	6.05508e-09	6.07195e-09	4.76290e-02	1.39290e-02	1.17526e-02	4.39035e-03	6.05682e-09	6.14778e-03	X	X	X	X	X	X	X	X	X	X	X	X	X	X	X	X	



#DISTANCE SETTINGS
A = Detector Channel
A-1	A-2	A-3	A-4	A-5	A-6	A-7	A-8	A-9	A-10	A-11	A-12	A-13	A-14	A-15	A-16	

2.5000e+00	3.0000e+00	2.5000e+00	3.0000e+00	2.0000e+00	3.0000e+00	1.5000e+00	3.0000e+00	3.0000e+00	3.0000e+00	3.0000e+00	3.0000e+00	3.0000e+00	3.0000e+00	1.5000e+00	3.0000e+00	

B = Detector Channel
B-1	B-2	B-3	B-4	B-5	B-6	B-7	B-8	B-9	B-10	B-11	B-12	B-13	B-14	B-15	B-16	

1.0000e+01	1.0000e+01	1.0000e+01	1.4400e+00	1.0000e+01	1.0000e+01	1.5100e+00	1.9400e+00	1.0000e+01	1.0000e+01	1.9900e+00	2.4900e+00	2.4100e+00	2.9000e+00	1.0000e+01	2.9800e+00	




#DATA BEGINS
time	group	step	mark	flag	A-AC1	A-AC2	A-AC3	A-AC4	A-AC5	A-AC6	A-AC7	A-AC8	A-AC9	A-AC10	A-AC11	A-AC12	A-AC13	A-AC14	A-AC15	A-AC16	A-DC1	A-DC2	A-DC3	A-DC4	A-DC5	A-DC6	A-DC7	A-DC8	A-DC9	A-DC10	A-DC11	A-DC12	A-DC13	A-DC14	A-DC15	A-DC16	A-Ph1	A-Ph2	A-Ph3	A-Ph4	A-Ph5	A-Ph6	A-Ph7	A-Ph8	A-Ph9	A-Ph10	A-Ph11	A-Ph12	A-Ph13	A-Ph14	A-Ph15	A-Ph16	B-AC1	B-AC2	B-AC3	B-AC4	B-AC5	B-AC6	B-AC7	B-AC8	B-AC9	B-AC10	B-AC11	B-AC12	B-AC13	B-AC14	B-AC15	B-AC16	B-DC1	B-DC2	B-DC3	B-DC4	B-DC5	B-DC6	B-DC7	B-DC8	B-DC9	B-DC10	B-DC11	B-DC12	B-DC13	B-DC14	B-DC15	B-DC16	B-Ph1	B-Ph2	B-Ph3	B-Ph4	B-Ph5	B-Ph6	B-Ph7	B-Ph8	B-Ph9	B-Ph10	B-Ph11	B-Ph12	B-Ph13	B-Ph14	B-Ph15	B-Ph16	aux-1	digaux	

1623.443	1	1	0	512	0.11869	0.038021	0.18295	0.28858	0.22034	0.045775	0.15452	0.12259	0.19986	0.08127	0.22282	0.13572	0.17346	0.22139	0.13057	0.11627	-2.7375	-2.8542	-2.8021	-3.2583	-2.8479	-3.0833	-3.0812	-2.6396	-3.3167	-2.9542	-2.7146	-3.3271	-2.6771	-2.9646	-3.1104	-2.4521	-1.617	-53.083	137.736	210.066	140.743	89.315	-80.872	19.651	125.583	89.775	186.282	271.931	237.690	-73.783	177.542	37.106	0.00025518	0.0030899	0.00047663	461.62	1.1106e-05	1.3152e-05	508.98	183.59	8.7085e-06	1.4273e-05	227.1	76.181	58.645	23.03	1.7153e-05	31.457	0.0035562	0.0038274	0.0010762	1057.6	3.9921e-05	3.9923e-05	1019.9	348.88	3.7985e-05	4.0063e-05	525.04	162.79	128.38	48.784	4.1817e-05	69.26	-78.320	56.646	69.424	-73.800	17.504	9.301	-74.787	-69.552	-86.825	91.149	-72.070	-68.102	-64.992	-60.974	194.951	-63.925	-8191	255	
1623.539	1	1	0	0	0.054546	0.22604	0.15372	0.22747	0.16123	0.1127	0.22676	0.2024	0.061602	0.14195	0.21929	0.088835	0.056143	0.49604	0.1494	0.18003	-2.6896	-3.0271	-2.6125	-3.3167	-2.7708	-2.8354	-3.2125	-2.6271	-3.1396	-2.9292	-2.6917	-3.4	-2.9604	-2.9562	-3.1854	-2.5708	113.254	35.231	-28.410	171.891	117.537	109.398	47.399	-56.633	-39.827	-51.223	229.796	124.492	222.897	0.399	171.957	209.179	0.0003504	0.0023739	0.00053948	459.88	1.3124e-05	1.6661e-05	511.2	184.02	2.2303e-05	5.9982e-06	224.43	75.858	58.402	23.001	3.0292e-06	31.104	0.0033901	0.003653	0.0010682	1006.3	3.899e-05	3.922e-05	1024.8	339.33	3.8271e-05	4.0585e-05	536.98	158.64	130.78	49.855	4.3777e-05	68.562	158.286	105.092	104.137	-73.532	256.300	92.953	-75.169	-69.192	192.180	28.585	-72.152	-68.168	-65.189	-61.349	161.275	-65.153	-8191	255	
1623.610	1	1	0	0	0.035858	0.090529	0.088263	0.13576	0.22765	0.30092	0.18496	0.080909	0.1967	0.18211	0.14361	0.1168	0.32936	0.19257	0.30189	0.14117	-2.675	-3.1375	-2.6646	-3.1229	-2.8083	-2.8333	-3.3729	-2.8063	-3.0792	-3.025	-2.6833	-3.2375	-2.8896	-2.7479	-3.3312	-2.6458	200.944	155.095	12.195	88.311	-28.577	14.882	36.962	228.144	172.964	197.711	129.164	157.370	-70.224	246.681	34.422	105.769	0.00032305	0.00052315	0.00027488	460	1.5765e-05	2.8967e-05	505.59	180.72	2.0054e-05	2.1023e-05	224.85	74.54	58.005	22.646	3.128e-05	30.549	0.0035405	0.0038186	0.001128	996.32	4.1093e-05	4.1751e-05	1039.1	337.8	4.0163e-05	4.2604e-05	543.82	156.83	132.84	51.161	4.3267e-05	67.857	185.346	-81.877	16.388	-73.225	-79.866	234.279	-75.007	-68.996	115.013	166.454	-71.853	-68.204	-65.007	-61.595	36.674	-63.889	-8191	255	
1623.731	1	1	0	0	0.090617	0.30356	0.19834	0.15534	0.14254	0.057704	0.037147	0.38774	0.34577	0.21136	0.12712	0.138	0.15747	0.17421	0.2821	0.27668	-2.4813	-3.125	-2.625	-3.1896	-3.0146	-2.6542	-3.4	-2.9354	-2.9896	-3.3021	-2.7083	-3.2313	-3.0625	-2.7	-3.3292	-2.5958	-78.811	133.871	157.175	170.563	210.415	36.959	198.216	127.465	209.814	60.540	-5.740	149.886	268.121	24.992	136.719	201.152	0.00017102	0.0037412	0.00060389	448.74	1.5148e-05	4.0691e-05	510.56	181.05	1.0179e-05	2.7663e-05	223.41	74.359	57.8	22.526	3.361e-05	30.828	0.0036112	0.0039411	0.0011054	989.89	4.1502e-05	4.3431e-05	1020.5	338.98	4.096e-05	4.4511e-05	537.55	159.75	135.09	53.388	4.2853e-05	70.077	190.882	113.585	238.513	-73.337	255.378	200.517	-74.948	-69.003	264.422	172.947	-71.894	-68.005	-65.786	-61.130	47.966	-64.719	-8191	255	
1623.827	1	1	0	0	0.09248	0.12615	0.077991	0.24742	0.15976	0.16409	0.1703	0.094253	0.12869	0.090502	0.37436	0.24461	0.30729	0.044439	0.23302	0.27367	-2.2979	-3.3292	-2.6333	-3.1792	-3.0896	-2.8208	-3.2771	-2.7812	-2.725	-3.4729	-2.4938	-3.1542	-3.0771	-2.4583	-3.2792	-2.8604	181.923	201.665	-6.917	38.291	56.884	155.870	-66.510	-84.965	184.668	226.287	173.442	-66.768	-66.032	258.732	75.110	223.404	0.00030282	0.002311	0.00095194	454.13	1.7999e-05	1.152e-05	503.23	179.64	1.4525e-05	1.8989e-05	223.59	74.188	57.758	23.057	1.5335e-05	31.011	0.0037974	0.0042075	0.0011066	1025.7	4.3786e-05	4.7049e-05	1021.6	350.25	4.368e-05	4.7446e-05	538.5	165.16	139.54	55.319	4.2166e-05	71.879	216.969	153.778	-53.729	-73.851	183.933	150.426	-74.964	-69.236	-79.457	76.974	-72.027	-68.417	-65.443	-61.425	51.056	-63.991	-8191	255	
1623.923	1	1	0	0	0.12595	0.26002	0.086995	0.096289	0.11118	0.11762	0.24368	0.24225	0.11183	0.16254	0.083605	0.31068	0.17416	0.11507	0.087541	0.18979	-2.3333	-3.3063	-2.5854	-3.0271	-3.125	-2.5229	-3.2188	-2.8333	-2.7938	-3.2479	-2.8958	-2.7667	-3.3875	-2.6125	-3.1833	-2.9437	48.681	-42.922	236.630	85.988	-5.394	20.399	136.531	267.489	52.875	159.273	74.668	203.460	8.044	-72.005	138.489	-84.342	0.00070578	0.0013829	0.00039455	448.4	1.2704e-05	1.5648e-05	506.4	179.37	2.1879e-05	3.0356e-05	221.59	74.947	57.396	23.486	2.282e-05	30.957	0.0039427	0.0042064	0.0010715	1026.9	4.3766e-05	4.5458e-05	986.8	344.24	4.3138e-05	4.3887e-05	516.65	161.18	136.9	52.102	3.9417e-05	69.285	180.016	8.617	91.648	-73.791	-78.032	63.895	-74.915	-69.757	207.794	75.011	-71.670	-68.051	-65.301	-60.864	148.985	-64.524	-8191	255	
1624.044	1	1	0	0	0.18037	0.037749	0.20761	0.17893	0.18208	0.082862	0.029727	0.14015	0.14961	0.30241	0.22463	0.056449	0.048076	0.025236	0.028663	0.15978	-2.3458	-3.2708	-2.7375	-2.7687	-3.2354	-2.7375	-3.3292	-3.0521	-2.8875	-3.4354	-2.6354	-2.8979	-3.4542	-2.4875	-3.1229	-3.075	245.209	56.773	58.331	192.388	48.658	144.995	209.832	259.993	92.103	74.256	23.802	271.304	133.478	128.218	107.870	174.476	0.00019395	0.0036038	0.00048405	452.88	3.206e-05	1.6121e-05	499.79	180.25	1.3751e-05	5.4414e-05	220.25	73.585	57.008	22.813	9.3317e-06	30.17	0.0038956	0.0038659	0.0010374	1013.3	4.3887e-05	4.3e-05	984.7	344.88	4.4846e-05	4.23e-05	526.02	163.93	141.13	51.557	4.1561e-05	70.908	167.166	-35.028	106.912	-73.983	224.941	55.155	-75.236	-69.651	143.627	2.315	-71.989	-67.708	-65.563	-61.039	261.419	-64.641	-8191	255	
1624.140	1	1	0	0	0.064818	0.10559	0.21565	0.3202	0.069018	0.08404	0.026115	0.17311	0.19829	0.076804	0.29107	0.13394	0.074784	0.094778	0.29813	0.20667	-2.1708	-3.3896	-2.8104	-2.9146	-3.4437	-2.5646	-3.1792	-3.2562	-2.5667	-3.3667	-2.6042	-2.9833	-3.4646	-2.6188	-3.0521	-3.3354	117.348	237.748	95.086	139.171	204.280	29.853	244.009	-28.075	5.049	133.023	-62.420	36.223	215.577	22.884	220.686	148.392	0.00039051	0.0024379	0.00063118	450.02	1.9587e-05	1.4082e-05	499.91	176.89	3.8012e-06	1.2785e-05	222.92	73.499	57.893	23.132	1.5209e-05	30.451	0.0041369	0.0038327	0.0010882	1044.8	4.5876e-05	4.2344e-05	1009.2	352.61	4.6753e-05	4.1969e-05	540.28	169.32	142.94	51.794	4.3245e-05	73.682	162.550	-48.959	58.822	-73.353	64.809	61.915	-75.489	-69.130	100.531	111.578	-71.671	-67.669	-65.648	-61.086	207.672	-64.831	-8191	255	
1624.234	1	1	0	0	0.077814	0.1884	0.23171	0.12938	0.059453	0.0073061	0.078358	0.38911	0.14337	0.060359	0.23917	0.11003	0.13135	0.1779	0.090754	0.2247	-2.2271	-3.2854	-2.9958	-2.7792	-3.3312	-2.5438	-3.1146	-3.15	-2.6125	-3.4188	-2.9083	-2.8375	-3.3771	-2.6646	-2.8875	-3.2625	154.550	261.018	8.687	219.818	207.208	83.505	60.987	157.785	189.520	190.769	267.944	-0.052	-55.514	168.713	248.452	163.235	0.00020512	0.0013253	0.00026748	449.04	2.9942e-05	2.9275e-06	495.81	176.77	1.7578e-05	8.1718e-06	222.02	74.212	57.836	22.915	2.6142e-05	30.742	0.0042487	0.0038754	0.0011392	1091.2	4.6196e-05	4.377e-05	1031.7	364.32	4.6968e-05	4.3128e-05	552.04	177.53	142.6	53.69	4.5515e-05	77.812	-5.284	12.418	-65.054	-73.736	72.131	270.726	-74.944	-69.515	-7.554	-32.135	-71.865	-67.695	-65.636	-61.124	-62.736	-64.137	-8191	255	
1624.331	1	1	0	0	0.055603	0.029922	0.24677	0.13488	0.09211	0.27445	0.33173	0.27712	0.055384	0.09044	0.046296	0.1862	0.19017	0.12995	0.28726	0.14238	-2.2229	-2.8458	-3.0583	-2.5854	-3.4813	-2.7313	-2.9875	-3.3187	-2.7292	-3.2854	-3.2938	-2.8	-3.2062	-2.6896	-2.925	-3.3021	127.177	-83.689	194.052	-51.235	170.569	269.018	232.071	137.312	148.102	-69.272	81.050	-38.275	33.822	-61.326	2.772	132.646	0.00035662	0.0019418	0.00021172	451.13	2.8556e-05	6.613e-06	494.59	177.71	2.942e-05	1.9303e-05	217.32	73.31	57.918	22.96	1.9061e-05	30.627	0.0043011	0.0041618	0.001217	1163.5	4.7482e-05	4.7926e-05	1080.9	384.35	4.8755e-05	4.7469e-05	582.04	187.85	143.81	56.416	4.9778e-05	81.183	-42.901	88.316	134.907	-73.293	67.177	56.494	-74.933	-69.612	-13.676	182.257	-72.021	-68.310	-65.794	-61.027	179.658	-64.491	-8191	255	
1624.427	1	1	0	0	0.15073	0.22209	0.13092	0.042581	0.12751	0.14524	0.19297	0.29548	0.20646	0.14511	0.10301	0.18416	0.34414	0.16542	0.25554	0.041502	-2.2625	-3.0458	-3.1292	-2.7	-3.2188	-2.8063	-2.9333	-3.4083	-2.7146	-3.0812	-3.1312	-2.6417	-3.2625	-2.8812	-2.6896	-3.0875	24.352	-79.881	211.532	200.687	235.700	103.781	-61.887	237.369	75.705	190.224	-44.540	227.798	203.177	227.642	-47.184	60.188	0.00023125	0.0021639	0.00027732	451.3	1.4104e-05	2.5736e-05	485.51	175.6	9.4576e-06	2.4247e-05	212.97	72.52	56.886	22.713	2.2189e-05	30.161	0.0044237	0.0045169	0.0013276	1215.1	4.9116e-05	5.2076e-05	1142.4	394.53	5.0646e-05	5.0965e-05	613.11	190.1	145.71	57.354	5.2471e-05	78.899	-55.211	258.353	178.601	-73.568	112.563	-72.471	-75.072	-69.439	38.162	143.306	-71.831	-67.217	-65.473	-61.011	192.222	-64.038	-8191	255	
1624.523	1	1	0	0	0.13945	0.052911	0.05751	0.083793	0.16653	0.053749	0.10336	0.31369	0.10643	0.13632	0.30584	0.19858	0.19469	0.074611	0.070331	0.19917	-2.1771	-2.9146	-2.9479	-2.6063	-3.1688	-2.875	-2.8896	-3.4042	-2.5479	-2.8937	-3.3271	-2.6833	-3.1896	-3.1063	-2.5542	-3.3271	-78.100	148.898	268.001	86.719	102.166	80.233	24.842	119.788	-62.379	64.690	210.822	255.182	42.830	-44.698	216.479	69.396	0.0004573	0.00054686	8.4268e-05	451.65	5.891e-06	1.6895e-05	488.02	175.01	1.0888e-05	1.2652e-05	213.94	72.48	55.895	22.377	2.4676e-05	30.221	0.0044062	0.004519	0.0013418	1169.9	4.7693e-05	5.0248e-05	1136.2	374.19	4.8832e-05	4.9142e-05	601.17	179.07	142.99	56.288	5.2688e-05	75.56	162.754	99.841	154.988	-74.021	144.274	127.992	-75.521	-69.400	-77.729	259.264	-72.390	-68.400	-65.187	-61.214	201.150	-63.955	-8191	255	
1624.644	1	1	0	0	0.083536	0.12477	0.095055	0.26559	0.099187	0.1963	0.15321	0.26196	0.074927	0.02771	0.30628	0.11107	0.017489	0.073932	0.29226	0.25178	-2.1688	-2.6875	-3.1208	-2.4604	-3.2375	-2.9792	-2.7417	-3.5708	-2.8458	-2.8125	-3.3083	-2.6833	-3.0229	-3.2292	-2.5604	-3.3771	212.519	59.724	193.298	260.257	149.599	-34.540	186.856	129.295	115.727	101.583	193.093	131.638	-51.301	-23.608	150.403	175.036	0.00038617	0.0022475	0.00012372	443.25	5.9484e-06	8.1772e-06	491.13	174.55	1.0266e-05	3.3803e-05	216.39	72.305	56.14	22.498	1.0477e-05	30.452	0.0044185	0.0045405	0.0013598	1135.8	4.8947e-05	5.1679e-05	1166.7	370.56	5.189e-05	5.3038e-05	628.88	183.44	151.72	60.127	5.739e-05	78.665	136.278	137.428	63.147	-73.903	131.095	224.624	-74.762	-69.185	116.014	166.259	-71.901	-67.861	-66.189	-60.819	-40.554	-64.158	-8191	255	
1624.740	1	1	0	0	0.030078	0.070248	0.17792	0.031895	0.27809	0.28179	0.14006	0.14348	0.25172	0.21245	0.25159	0.11355	0.22516	0.14024	0.12252	0.12887	-2.5771	-2.9292	-3.3438	-2.7313	-3.0021	-3.2438	-2.7979	-3.1271	-3.0667	-2.7938	-3.3417	-2.9229	-2.9167	-3.2313	-2.4792	-3.4125	72.090	164.665	195.474	24.428	246.679	-60.051	-46.806	169.398	29.135	131.533	164.660	124.748	-56.069	60.863	-67.624	191.338	9.1049e-05	0.0035367	0.00096084	441.1	7.7073e-06	2.2955e-05	490.4	173.01	1.8152e-05	3.5124e-05	219.22	71.724	56.511	22.422	4.635e-05	29.912	0.0048852	0.0051379	0.0014629	1192.2	5.4127e-05	5.7842e-05	1208	385.32	5.5935e-05	5.8166e-05	634.29	188.5	155.74	62.089	5.6164e-05	79.18	186.582	194.603	253.107	-74.069	171.923	247.947	-75.191	-69.782	144.790	210.758	-71.879	-68.216	-65.623	-60.963	-8.188	-64.080	-8191	255	
1624.836	1	1	0	0	0.20182	0.093468	0.050815	0.18655	0.15702	0.1282	0.1243	0.24154	0.028717	0.06085	0.29354	0.42545	0.21639	0.19265	0.041477	0.05577	-2.6625	-2.7146	-3.3563	-3	-2.8083	-3.2854	-2.7208	-3.1125	-3.0062	-2.7062	-3.3604	-2.8688	-3.0563	-3.3604	-2.7896	-3.1667	201.132	53.560	54.380	183.627	-16.099	-37.302	148.376	228.146	220.448	122.294	168.352	-60.759	182.667	203.841	89.722	-60.102	0.00018579	0.0028919	0.0011599	438.46	5.7927e-06	4.1052e-05	484.36	170.34	9.5799e-06	1.5188e-05	213.34	70.01	55.67	22.386	2.7132e-05	29.406	0.0049084	0.0052858	0.0013829	1194.1	5.4146e-05	5.8561e-05	1160	383.76	5.5401e-05	5.8752e-05	603.83	188.07	156.06	62.111	5.334e-05	79.434	-63.429	102.660	-73.234	-74.049	24.690	205.715	-74.822	-69.152	99.997	155.638	-72.843	-67.772	-64.944	-61.396	27.281	-64.630	-8191	255	
1624.907	1	1	0	0	0.1272	0.11812	0.11814	0.23757	0.21785	0.16458	0.16421	0.061396	0.2823	0.20747	0.097141	0.37616	0.33257	0.2287	0.21011	0.17125	-2.6375	-2.5896	-3.225	-3.0396	-2.8937	-3.275	-2.825	-3.2146	-3.2562	-2.7292	-3.2917	-2.8167	-2.85	-3.4146	-2.8854	-3.1021	261.250	4.672	240.402	208.323	-54.592	145.669	137.230	195.906	83.230	-20.412	214.043	164.436	269.825	81.802	94.836	235.608	0.00069618	0.0019063	0.00057232	441.25	2.893e-05	3.4059e-05	474.46	171.4	2.2433e-05	4.3015e-05	212.14	70.58	54.471	22.715	2.6496e-05	29.472	0.0049305	0.0053282	0.001324	1199.9	5.4855e-05	5.7701e-05	1128.4	384.18	5.6184e-05	5.8177e-05	592.85	188.73	158.64	60.773	5.2029e-05	78.736	166.548	127.104	-80.844	-74.286	228.000	10.271	-74.793	-69.551	219.452	37.875	-71.838	-67.767	-65.636	-60.692	-50.756	-64.587	-8191	255	
1625.028	1	1	0	0	0.36632	0.23545	0.32002	0.10199	0.14276	0.12027	0.22879	0.1901	0.16145	0.078199	0.076348	0.31672	0.12091	0.10206	0.25998	0.20811	-3.0083	-2.4292	-3.225	-2.9604	-2.7875	-3.4729	-2.7125	-3.1958	-3.3563	-2.55	-3.3229	-3.0187	-2.6958	-3.3417	-2.7646	-3.0312	23.884	66.665	-35.751	-29.123	134.660	131.457	-33.484	136.278	99.173	186.459	-11.773	-56.205	242.285	166.843	74.973	71.640	0.00030401	0.0027768	0.00042839	440.02	3.1091e-06	4.0077e-05	475.56	170.2	1.1093e-05	3.4371e-05	207.53	70.333	55.641	22.727	1.0267e-05	29.375	0.0049126	0.0049938	0.0012556	1165.9	5.4076e-05	5.2677e-05	1100.3	376.33	5.5003e-05	5.3645e-05	581.42	185.88	159.6	58.084	5.2103e-05	79.642	110.274	-38.741	30.074	-74.129	229.414	40.908	-74.981	-69.088	260.583	27.264	-71.667	-67.791	-65.388	-61.464	181.835	-64.339	-8191	255	
1625.124	1	1	0	0	0.14239	0.41631	0.14956	0.1729	0.24543	0.12073	0.13743	0.071264	0.093921	0.1433	0.033957	0.11494	0.14564	0.11027	0.14898	0.20435	-2.8688	-2.6292	-3.0062	-3.1146	-2.6271	-3.4167	-2.7479	-2.9042	-3.3271	-2.6688	-3.3208	-3.0708	-2.6125	-3.1417	-2.9083	-2.9396	187.123	237.265	-11.589	225.265	223.780	-67.228	23.179	253.170	166.345	-5.643	226.499	223.282	175.821	-51.935	188.357	226.907	0.00038656	0.0026692	0.00075065	437.48	5.9769e-06	2.8636e-05	474.57	166.6	1.6956e-05	2.2858e-05	205.06	69.037	55.153	22.383	1.0906e-05	28.875	0.0050715	0.0048567	0.0013256	1203.5	5.8322e-05	5.3617e-05	1159.8	395.28	6.0739e-05	5.6576e-05	632.13	201.12	172.43	61.533	6.096e-05	89.388	140.168	-44.119	177.884	-74.048	265.027	32.082	-75.121	-69.431	30.388	50.434	-71.078	-68.520	-65.341	-61.042	231.464	-65.239	-8191	255	
1625.220	1	1	0	0	0.10893	0.16198	0.058034	0.078649	0.089633	0.40331	0.1937	0.14441	0.12043	0.089995	0.18912	0.1673	0.13855	0.20973	0.18522	0.11089	-2.9	-2.6875	-3.3542	-3.3208	-2.7292	-3.2042	-3.0167	-2.8583	-3.3187	-2.7708	-2.9708	-3.2896	-2.5458	-3.2625	-2.9875	-2.8604	110.248	83.729	-86.153	144.516	77.821	223.013	167.023	16.389	11.315	270.371	263.738	28.343	-62.422	236.343	23.068	159.943	0.00051703	0.0024727	0.00010272	413.07	1.0819e-05	1.4025e-05	457.69	157.72	2.6779e-05	2.088e-05	195.77	65.721	53.042	21.244	1.4916e-05	28.335	0.0058674	0.0055676	0.0015735	1340.6	6.6013e-05	5.9511e-05	1233	417.55	6.3167e-05	5.9494e-05	645.15	207.59	170.7	61.786	6.2189e-05	91.498	-3.210	251.360	56.667	-73.818	81.179	150.160	-75.298	-69.677	7.770	89.899	-72.367	-68.435	-65.887	-61.840	156.497	-64.260	-8191	255	
1625.315	1	1	0	0	0.17748	0.10201	0.046009	0.14503	0.072352	0.19486	0.28869	0.37214	0.14347	0.077076	0.23385	0.08247	0.075055	0.32179	0.20542	0.045172	-2.9271	-2.65	-2.9583	-3.3312	-2.7521	-3.1792	-2.9188	-2.6042	-3.4437	-2.9875	-2.9958	-3.4208	-2.7896	-3.1	-3.0896	-2.5792	132.363	128.953	238.035	128.962	-69.108	40.033	122.757	-56.119	200.634	137.094	219.084	84.650	233.079	-44.603	-66.091	11.791	0.00051633	0.0031166	0.0003742	404.74	4.5051e-05	2.3167e-05	451.34	153.54	2.6384e-05	2.122e-05	190.87	65.043	50.88	20.999	3.1996e-05	28.075	0.0056122	0.0055958	0.0015705	1350.3	6.3409e-05	6.0627e-05	1237.7	428	6.2191e-05	6.2698e-05	666.16	215.59	169.36	64.253	6.5225e-05	95.584	-15.692	93.897	75.759	-73.129	66.985	249.240	-75.518	-69.897	44.117	138.348	-71.352	-68.654	-66.283	-60.744	203.314	-64.463	-8191	255	
1625.413	1	1	0	0	0.11983	0.25329	0.21508	0.028132	0.21719	0.01791	0.34314	0.29746	0.32512	0.24677	0.19961	0.039928	0.35521	0.1878	0.17709	0.15139	-2.9146	-2.8042	-2.7604	-3.4083	-2.7917	-3.0146	-3.2542	-2.7396	-3.3354	-2.7562	-2.8083	-3.4458	-2.6396	-2.9729	-3.125	-2.8375	114.296	45.308	59.168	169.799	-79.444	225.017	149.844	-50.505	75.126	31.012	180.194	72.873	266.772	128.495	85.500	172.885	0.00090588	0.00050833	0.00068581	405.49	3.3696e-05	6.383e-06	436.55	150.51	1.4291e-05	6.4477e-06	184.21	64.94	49.002	20.53	1.7028e-05	28.372	0.0056501	0.0060028	0.0016905	1404.7	6.4975e-05	6.5925e-05	1305.1	447.34	6.5744e-05	6.9491e-05	725.22	227.71	177.55	69.146	7.3671e-05	100.98	-13.845	76.313	158.341	-74.096	54.585	27.961	-75.866	-69.148	58.871	65.642	-73.030	-68.727	-66.024	-61.723	173.597	-63.930	-8191	255	
1625.507	1	1	0	0	0.17787	0.1323	0.21412	0.16298	0.22379	0.29181	0.065819	0.15885	0.10243	0.2586	0.26509	0.20747	0.1782	0.17588	0.3214	0.2254	-2.9542	-2.9979	-2.7062	-3.3083	-2.7208	-3.0604	-3.3979	-2.5542	-3.3333	-3.1688	-2.8896	-3.4729	-2.6333	-3.0396	-3.1813	-2.4958	-16.556	19.180	163.261	-49.501	105.768	184.773	185.718	23.373	-51.517	133.160	257.634	84.678	243.370	95.127	8.222	115.161	0.00026558	0.0029673	0.00043851	413.72	1.9422e-05	2.3985e-05	446.68	154.51	2.1139e-05	5.9771e-06	190.42	67.366	50.577	21.428	3.1043e-05	28.876	0.0060897	0.0065806	0.0019009	1455.2	7.0154e-05	7.1624e-05	1401.2	458.5	6.9838e-05	7.3828e-05	779.41	229.71	187.6	72.734	7.8651e-05	100.93	159.245	23.066	135.488	-74.127	254.484	-72.124	-75.867	-69.721	-68.716	-80.743	-71.631	-67.991	-66.159	-61.395	161.546	-64.946	-8191	255	
1625.603	1	1	0	0	0.2443	0.060655	0.36513	0.31542	0.097192	0.13325	0.16157	0.045739	0.16317	0.17533	0.19861	0.14463	0.10606	0.16752	0.13186	0.14111	-2.6688	-3.0917	-2.5375	-3.2292	-2.9354	-2.9979	-3.3812	-2.7625	-3.4354	-3.1937	-2.6813	-3.625	-3.0146	-2.9417	-3.4938	-2.6583	248.414	24.512	271.871	-63.636	-22.699	193.220	-85.875	169.173	95.020	223.665	223.763	142.950	212.324	-62.925	133.726	161.577	0.00059063	0.0017583	0.00046491	429.23	3.7514e-05	8.3256e-06	467.16	161.85	2.7312e-05	4.3246e-06	200.39	69.054	53.368	22.266	3.813e-06	29.324	0.0063986	0.0067728	0.001908	1354.9	6.723e-05	6.8698e-05	1379.1	441.16	7.0126e-05	7.413e-05	790.51	223.86	191.75	74.374	7.7098e-05	97.847	170.182	164.205	29.936	-73.936	248.349	-37.883	-75.255	-69.861	215.688	45.779	-72.838	-68.565	-64.906	-61.371	235.249	-64.826	-8191	255	
1625.724	1	1	0	0	0.084832	0.1054	0.17235	0.34562	0.17824	0.11974	0.041602	0.22804	0.22744	0.14608	0.12996	0.083561	0.19527	0.057738	0.20933	0.13645	-2.6688	-3.1937	-2.6708	-3.2854	-2.8208	-2.8458	-3.1958	-2.8563	-2.8063	-3.1896	-2.55	-3.25	-2.9708	-2.6479	-3.2771	-2.8438	45.110	203.940	196.356	260.097	83.241	-52.570	-30.521	254.341	22.675	16.857	148.624	4.971	-76.728	119.264	-32.871	248.953	0.00031388	0.0024862	0.0011171	435.6	2.2907e-05	3.2852e-05	485.84	163.84	3.1379e-05	2.1586e-05	207.75	71.195	54.648	23.136	5.3434e-05	29.929	0.0064002	0.0068085	0.0019402	1391.4	7.1699e-05	7.2939e-05	1392.5	439.56	6.8695e-05	7.1752e-05	738.61	212.42	182.56	71.49	6.7357e-05	92.211	148.076	116.489	-66.610	-73.401	-13.854	220.561	-75.294	-70.101	203.090	195.451	-72.276	-68.486	-65.827	-61.467	24.755	-65.335	-8191	255	
1625.820	1	1	0	0	0.090842	0.20899	0.2082	0.17996	0.068805	0.24376	0.094692	0.063788	0.24134	0.073556	0.21496	0.12921	0.078334	0.40493	0.40055	0.047095	-2.5396	-3.125	-2.6875	-3.3187	-2.9708	-2.7812	-3.3187	-2.6229	-2.8667	-3.4896	-2.5146	-3.3146	-3.0375	-2.725	-3.3063	-2.8271	96.762	245.805	-15.360	257.266	-44.917	190.403	50.378	-68.715	242.832	198.125	-76.751	112.847	152.061	-76.391	-44.276	-46.453	0.00027251	0.0013767	0.0014454	445.27	1.1565e-05	3.6497e-05	493.53	166.52	5.4337e-06	1.05e-05	210.54	72.519	56.981	23.726	4.6652e-05	30.352	0.0058828	0.0063087	0.0016916	1323	6.6044e-05	6.8464e-05	1278.9	424.63	6.4408e-05	6.7722e-05	682.87	208.89	178.36	70.476	6.1565e-05	91.955	-80.245	67.784	-50.335	-74.161	-82.488	192.743	-75.781	-69.631	48.623	237.027	-71.388	-67.546	-65.323	-60.729	33.803	-64.624	-8191	255	
1625.916	1	1	0	0	0.069044	0.15103	0.10391	0.090205	0.10284	0.30751	0.13093	0.11292	0.13293	0.067699	0.028826	0.13783	0.097719	0.1172	0.14577	0.14454	-2.3521	-3.3563	-2.5167	-3.2104	-3.1417	-2.7979	-3.4125	-3.0708	-2.9458	-3.2938	-2.6937	-3.1188	-3.3625	-2.475	-3.1604	-2.8688	83.163	145.007	-53.060	251.283	109.647	140.885	204.063	143.803	189.249	178.631	227.732	20.032	-44.673	209.315	80.295	227.484	0.00036327	0.0032547	0.00074782	450.08	1.8211e-06	1.9135e-05	496.26	167.86	2.7243e-06	1.7506e-05	208.16	73.284	56.632	24.003	7.7543e-06	30.905	0.0057873	0.006137	0.0015727	1325.8	6.4408e-05	6.6204e-05	1229	423.03	6.3179e-05	6.4621e-05	649.36	206.98	174.18	67.425	5.7061e-05	89.065	196.878	59.917	185.217	-74.045	265.191	-21.231	-75.096	-69.591	175.325	-42.587	-72.427	-68.341	-65.666	-60.918	75.056	-64.401	-8191	255	
1626.012	1	1	0	0	0.30541	0.087124	0.2144	0.18402	0.06127	0.12639	0.13907	0.30036	0.26264	0.14471	0.022787	0.19893	0.10494	0.10298	0.013412	0.10239	-2.4229	-3.5167	-2.7229	-3.0646	-3.2104	-2.8042	-3.1583	-3.0833	-2.6125	-3.2313	-2.6792	-3.0417	-3.1417	-2.5896	-3.325	-3.1479	175.470	41.300	-10.226	186.578	184.726	-36.594	257.070	77.601	89.912	136.994	147.033	188.106	112.700	32.798	225.375	47.138	0.00035829	0.0051161	0.00038624	443.4	1.8985e-05	4.3365e-05	494.14	170.43	1.2547e-05	3.6087e-05	207.38	74.424	57.439	23.86	1.4273e-05	30.27	0.0054951	0.005558	0.0014463	1268.7	6.0512e-05	6.0079e-05	1172.5	409.02	6.0588e-05	5.861e-05	634.24	202.03	171.79	64.328	5.6332e-05	87.86	155.942	-69.918	6.994	-74.057	-56.272	-3.800	-74.772	-69.431	236.926	13.077	-71.632	-67.339	-65.352	-61.039	-42.122	-65.053	-8191	255	
1626.133	1	1	0	0	0.14611	0.049476	0.1002	0.1309	0.2508	0.27614	0.14683	0.10463	0.11668	0.13233	0.36989	0.1917	0.1324	0.11761	0.087835	0.22929	-2.0917	-3.3688	-2.7417	-2.9292	-3.2917	-2.6312	-3.1208	-3.1771	-2.6208	-3.2521	-2.7479	-2.9208	-3.2271	-2.5938	-3.3042	-3.0396	93.845	129.942	-51.163	215.366	262.562	6.867	163.775	129.137	244.458	36.332	148.583	-52.919	154.075	250.427	95.017	-56.447	0.00042602	0.0042332	0.00076399	444.37	1.3881e-05	4.0101e-05	488.83	169.29	1.4603e-05	4.5914e-05	207.36	73.776	57.95	23.825	6.6448e-06	30.417	0.0055352	0.0052525	0.0014754	1273.7	6.1213e-05	5.7686e-05	1189.9	408.85	6.1429e-05	5.5768e-05	641.09	201.36	171.03	62.113	5.696e-05	87.265	160.885	-20.534	123.694	-73.846	-74.159	21.897	-75.706	-69.635	167.554	-46.530	-72.283	-68.250	-65.805	-61.390	224.318	-64.540	-8191	255	
1626.205	1	1	0	0	0.11203	0.28544	0.069129	0.13727	0.17827	0.1694	0.26958	0.28511	0.16108	0.011689	0.16697	0.13372	0.082572	0.11053	0.25428	0.23739	-2.1625	-3.2729	-2.9271	-2.6646	-3.3792	-2.6583	-3.1	-3.1542	-2.7583	-3.325	-2.9229	-2.7146	-3.3438	-2.8771	-3.0042	-3.3229	-4.876	237.447	214.696	214.727	222.560	-2.537	192.004	153.336	165.803	-59.282	133.644	191.051	100.890	59.897	35.452	-16.811	0.00020517	0.0014957	0.00052346	441.93	2.1826e-05	1.3621e-05	489.41	170	3.3236e-05	4.8574e-06	208.46	73.892	58.15	23.795	9.5252e-06	30.35	0.0055064	0.0050325	0.0014857	1276.1	6.029e-05	5.5969e-05	1194.3	412.2	6.054e-05	5.5269e-05	649.03	206.2	169.06	62.73	5.8601e-05	90.009	248.709	32.494	17.814	-73.800	100.062	15.076	-75.175	-69.418	-4.801	-13.321	-72.338	-68.026	-65.669	-60.783	-3.089	-64.536	-8191	255	
1626.324	1	1	0	0	0.16013	0.058093	0.085033	0.061585	0.16478	0.066029	0.28929	0.25643	0.46432	0.083789	0.029632	0.22968	0.21394	0.064244	0.13928	0.085262	-1.9937	-3.1833	-2.9667	-2.95	-3.5083	-2.7458	-3.1646	-3.4396	-2.6917	-3.4125	-3.0583	-2.6208	-3.4104	-2.8458	-2.9813	-3.3875	120.393	-80.311	65.900	244.520	136.445	-57.414	208.311	85.826	136.340	58.910	-66.554	-85.353	28.326	126.397	230.483	267.639	0.00092037	0.0019875	0.00050671	437.22	4.9257e-05	7.6201e-06	488.08	169.09	3.3587e-05	2.8037e-05	209.47	72.837	57.821	23.484	1.0226e-05	30.119	0.0054733	0.0052024	0.0015352	1324.6	5.9351e-05	5.8382e-05	1219.6	421.84	5.937e-05	5.6833e-05	653.63	210.15	163.21	63.542	5.8553e-05	89.225	-51.674	94.100	-77.125	-73.970	67.320	-79.166	-74.576	-68.536	-9.311	189.859	-71.276	-67.876	-65.360	-60.970	192.883	-64.273	-8191	255	
1626.420	1	1	0	0	0.39735	0.16175	0.031	0.14025	0.21673	0.0063487	0.11787	0.045108	0.132	0.0679	0.074622	0.16761	0.038961	0.020196	0.2916	0.27188	-2.1792	-3.0583	-3.3688	-2.5812	-3.2021	-2.7812	-2.9437	-3.4271	-2.6667	-3.225	-3.3292	-2.6229	-3.1646	-2.9188	-2.7604	-3.4708	154.338	-84.956	268.623	-71.837	202.904	135.849	157.170	-64.440	26.045	-83.493	156.214	-63.221	220.251	61.947	-43.900	223.366	0.0002853	0.0017957	0.0003702	443.07	1.8576e-05	3.5286e-06	485.3	170.44	1.5325e-05	6.0848e-06	210.03	73.025	56.672	23.385	1.6705e-05	29.682	0.0050858	0.0051036	0.0014765	1299.3	5.4241e-05	5.7375e-05	1199.4	414.63	5.558e-05	5.6225e-05	642.13	202.8	154.05	61.66	5.6993e-05	85.068	-44.106	172.690	237.249	-74.071	61.415	205.400	-75.500	-68.934	51.958	146.513	-72.233	-67.512	-65.241	-60.855	164.258	-63.987	-8191	255	
1626.516	1	1	0	0	0.12193	0.17941	0.25163	0.1176	0.14765	0.090358	0.24087	0.14735	0.078843	0.20915	0.099627	0.22507	0.10978	0.17582	0.30239	0.066142	-1.9542	-3.0187	-3.1208	-2.6271	-3.3708	-2.9208	-2.7042	-3.4062	-2.6	-2.8563	-3.1292	-2.575	-3.3688	-2.9167	-2.7417	-3.3708	57.890	-21.319	40.988	135.899	105.849	-9.723	160.819	257.386	96.238	208.964	-2.437	205.609	255.568	187.806	53.394	205.713	0.00033275	0.0024382	0.00052687	448.03	4.6809e-06	2.6706e-05	478.58	173.68	1.7798e-05	2.1239e-05	209.94	73.049	56.444	23.165	2.271e-05	30.474	0.0047898	0.0049861	0.0014535	1248.7	5.1864e-05	5.5595e-05	1186.8	395.52	5.3013e-05	5.4105e-05	633.62	192.31	151.43	60.321	5.6326e-05	80.308	170.596	93.386	46.517	-74.166	-75.723	-74.490	-75.346	-69.026	191.845	93.375	-72.335	-67.859	-65.153	-60.806	199.896	-63.953	-8191	255	
1626.612	1	1	0	0	0.19464	0.29744	0.16369	0.24907	0.13365	0.33217	0.078327	0.13573	0.07936	0.085116	0.29252	0.15552	0.14788	0.15626	0.21932	0.12292	-2.1146	-2.9	-3.2333	-2.4042	-3.2062	-3.0646	-2.7896	-3.2938	-2.675	-2.8208	-3.3979	-2.6333	-3.1875	-3.2125	-2.6583	-3.2083	74.222	256.673	161.438	162.736	199.811	100.124	96.606	228.889	255.523	187.756	-63.198	257.151	25.382	180.988	19.855	173.651	0.000952	0.0032324	0.00052573	453.77	1.3236e-05	2.4706e-05	492.42	175.66	2.1302e-05	1.1161e-05	215.1	73.621	57.356	23.682	6.4224e-06	30.739	0.0046569	0.0047987	0.001402	1170.1	4.9763e-05	5.2294e-05	1160.3	371.03	5.0316e-05	5.0605e-05	606.82	178.53	146.37	57.903	5.2775e-05	75.07	183.458	50.848	49.931	-73.797	-80.287	-43.522	-74.766	-69.212	194.434	138.805	-71.774	-67.837	-65.251	-60.291	140.918	-64.239	-8191	255	
1626.733	1	1	0	0	0.042704	0.05573	0.12003	0.098548	0.21319	0.084993	0.086885	0.068721	0.1531	0.19927	0.13989	0.16259	0.35147	0.08748	0.13818	0.060417	-2.3583	-2.8438	-3.4542	-2.5146	-3.125	-3.1042	-2.6562	-3.3187	-2.8604	-2.8271	-3.4708	-2.6708	-3.0229	-3.1583	-2.6521	-3.2188	65.826	199.548	260.872	79.268	-71.407	221.802	267.465	88.599	172.341	50.216	205.108	-40.125	215.690	12.508	-58.281	119.716	0.0001755	0.0044124	0.00060784	457.89	1.5413e-05	1.4732e-05	506.44	177.58	9.9022e-06	3.6947e-05	220.88	75.451	58.181	23.913	3.9968e-05	30.952	0.0044501	0.0045975	0.0013225	1124.4	4.9132e-05	5.209e-05	1161.7	366.68	5.1499e-05	5.2925e-05	610.89	183.65	153.59	61.362	5.47e-05	78.572	130.025	162.139	9.828	-73.756	-68.194	205.551	-75.015	-69.312	39.798	185.609	-72.804	-67.756	-65.478	-60.602	11.137	-64.695	-8191	255	
1626.804	1	1	0	0	0.14979	0.16	0.072995	0.16224	0.25485	0.20763	0.15268	0.15271	0.32334	0.12206	0.10495	0.13194	0.29131	0.12335	0.18343	0.32759	-2.5271	-2.6292	-3.3229	-3.0563	-2.9458	-3.1875	-2.6875	-3.3271	-2.8729	-2.8208	-3.3854	-2.6667	-2.9062	-3.25	-2.55	-3.1188	-7.078	192.133	-81.187	62.996	17.341	10.633	-29.513	171.491	63.201	261.182	59.922	13.099	146.268	187.918	256.528	145.456	0.00048651	0.0016729	0.00065407	449.33	1.1813e-05	1.0423e-05	513.63	176.48	1.1703e-05	8.0731e-06	219.02	74.449	58.207	23.917	2.8822e-05	30.219	0.004805	0.0050277	0.0013436	1162.6	5.1606e-05	5.4084e-05	1140.7	370.65	5.1692e-05	5.3495e-05	582.57	182.3	151.11	60.115	4.9875e-05	76.55	210.512	159.421	-73.212	-73.658	81.232	140.096	-75.348	-69.561	114.794	118.824	-71.806	-67.874	-64.951	-60.944	35.582	-63.900	-8191	255	
1626.900	1	1	0	0	0.15205	0.058627	0.10173	0.17166	0.14976	0.053671	0.099995	0.086081	0.052263	0.25219	0.1048	0.17651	0.11697	0.21304	0.26602	0.19542	-2.6729	-2.5812	-3.2542	-2.6958	-2.9979	-3.0104	-2.6771	-2.9042	-3.2313	-2.6937	-3.325	-3.0604	-2.7583	-3.3417	-2.5833	-3.2	-69.648	261.856	166.897	254.031	203.784	-60.497	48.326	226.027	-81.707	36.136	234.420	-73.682	213.352	-85.137	218.604	-19.484	0.00058784	0.0057012	0.00073589	450.46	9.8203e-06	1.6022e-05	511.05	174.34	9.9993e-06	2.0163e-05	216.07	74.545	58.559	24.001	4.9464e-06	30.715	0.0045926	0.0048708	0.0012256	1154.5	5.0547e-05	5.2911e-05	1097.8	370.43	5.1121e-05	5.3095e-05	565.48	185.72	153.7	60.129	4.9827e-05	79.263	187.782	98.285	-68.742	-73.860	-61.235	6.400	-74.934	-69.597	246.010	0.987	-71.616	-67.768	-64.656	-61.132	95.064	-63.740	-8191	255	
1626.997	1	1	0	0	0.087687	0.051212	0.28223	0.17397	0.11795	0.19682	0.17952	0.19048	0.27798	0.25305	0.24049	0.076483	0.18734	0.054862	0.054837	0.24144	-2.7021	-2.725	-3.3438	-2.9146	-2.7375	-3.2833	-2.7396	-2.9292	-3.2979	-2.775	-3.4062	-2.8958	-2.8042	-3.4083	-2.6833	-2.8083	-12.736	35.804	-51.331	203.463	91.257	236.904	64.283	223.420	153.460	159.283	270.929	234.284	243.614	162.510	-57.815	220.348	0.00063975	0.0055756	0.0005808	455.4	1.4061e-05	4.4283e-05	504.54	174.18	6.0253e-06	2.2792e-05	214.72	75.311	58.261	24.1	1.5731e-05	30.759	0.0048239	0.0050562	0.0012736	1219.1	5.5363e-05	5.5295e-05	1152.9	391.01	5.6762e-05	5.6157e-05	596.32	196.25	162.95	60.396	5.2593e-05	81.849	189.167	-38.876	54.490	-73.675	-50.457	65.714	-75.538	-69.575	90.470	51.387	-72.416	-67.990	-65.263	-61.162	188.139	-64.432	-8191	255	
1627.093	1	1	0	0	0.22417	0.089893	0.076084	0.10135	0.29925	0.13138	0.43279	0.033524	0.095884	0.21415	0.29006	0.13303	0.079138	0.21412	0.31026	0.098841	-2.8708	-2.5062	-3.1854	-3.0604	-2.3979	-3.3625	-2.7479	-2.7583	-3.1604	-2.6354	-3.2375	-3.0375	-2.6521	-3.3875	-2.8667	-2.9896	152.743	53.973	34.970	193.580	114.671	256.860	179.108	38.253	246.119	-83.669	196.428	117.807	192.995	120.107	226.443	228.199	0.00019447	0.0046696	0.00026409	460.93	1.83e-05	4.6065e-05	514.55	171.11	1.4302e-05	5.27e-05	211.64	76.34	58.567	24.312	3.0742e-05	30.58	0.0049952	0.004897	0.0012979	1220	5.5967e-05	5.2137e-05	1163	389.82	5.6507e-05	5.2974e-05	603.21	197.03	164.13	59.075	5.4729e-05	83.406	204.887	-57.592	141.358	-73.441	-77.105	59.186	-75.318	-68.994	190.262	13.311	-71.865	-67.770	-65.833	-60.783	101.418	-64.816	-8191	255	
1627.212	1	1	0	0	0.25003	0.033482	0.098335	0.25249	0.016585	0.11525	0.11213	0.20267	0.24317	0.11862	0.17167	0.14184	0.1532	0.057578	0.050806	0.17089	-3.0333	-2.6813	-3.1479	-3.1	-2.7521	-3.2875	-3.1042	-2.7979	-3.3063	-2.6521	-3.1354	-3.1792	-2.7438	-3.4542	-2.9146	-2.6708	40.181	168.752	172.116	-77.895	-40.343	114.016	183.062	181.899	265.926	101.158	196.297	179.878	-26.679	194.885	30.701	85.491	0.00058702	0.002768	0.00016646	456.79	4.6341e-06	9.1875e-06	502.52	168	3.8715e-05	1.1249e-05	211.77	75.321	58.375	23.511	7.8697e-06	29.938	0.0050982	0.0048264	0.0013683	1239.6	5.6943e-05	5.1515e-05	1181.8	392.27	5.6118e-05	5.2314e-05	610.27	197.53	161.42	58.287	5.5304e-05	83.63	93.438	-47.924	199.319	-74.027	26.712	30.492	-75.492	-69.790	41.268	152.760	-71.858	-67.916	-65.725	-61.228	97.296	-64.699	-8191	255	
1627.308	1	1	0	0	0.17673	0.20032	0.20144	0.11453	0.22011	0.038219	0.13745	0.16955	0.01279	0.043423	0.15745	0.048335	0.12989	0.17537	0.35975	0.09035	-3.0042	-2.7729	-2.8354	-3.3333	-2.5396	-3.225	-2.8958	-2.9813	-3.2833	-2.7188	-2.85	-3.2167	-2.5604	-3.1458	-3.0833	-2.4917	36.894	-32.065	267.872	-80.923	-63.661	164.263	248.637	271.016	241.743	145.183	144.782	106.940	71.745	181.937	262.604	135.744	0.00037141	0.0030971	0.00023768	448.64	3.5657e-05	2.5914e-05	497.26	168.02	1.0212e-05	2.4464e-05	207.35	74.481	58.707	23.293	9.54e-06	29.987	0.0049087	0.0047894	0.0013787	1239.1	5.4737e-05	5.1528e-05	1178.9	394.54	5.3267e-05	5.3086e-05	610.72	197.76	156.6	58.829	5.5127e-05	84.023	-2.819	110.915	135.344	-74.257	48.152	139.657	-75.683	-69.750	100.739	169.535	-72.169	-68.278	-65.131	-61.248	192.085	-64.022	-8191	255	
1627.404	1	1	0	0	0.21541	0.14299	0.12349	0.16982	0.11589	0.19903	0.079654	0.12287	0.25368	0.077791	0.05601	0.087131	0.26412	0.10855	0.095797	0.20437	-2.8083	-2.7625	-2.9938	-3.3146	-2.6937	-3.325	-3.1646	-2.6562	-3.1312	-2.7771	-2.8354	-3.3312	-2.6833	-3.2271	-3.1854	-2.7104	40.810	117.555	-41.762	-50.696	35.337	58.618	-68.382	-60.249	148.642	-73.539	124.859	-77.113	244.838	-84.050	258.593	195.564	0.00075975	0.0037803	0.00016599	452.27	2.5644e-05	3.0584e-05	499.73	168.57	1.2626e-05	1.1188e-05	206.3	76.376	57.862	23.525	7.0189e-06	30.081	0.0046543	0.0049338	0.0013879	1243.1	5.2449e-05	5.3013e-05	1180.6	396.67	5.105e-05	5.4823e-05	617.29	197.57	153.92	60.092	5.5519e-05	83.879	-5.114	104.992	-37.302	-74.284	41.851	193.189	-75.139	-69.181	35.694	177.125	-71.990	-67.827	-65.372	-61.026	270.978	-64.352	-8191	255	
1627.500	1	1	0	0	0.099092	0.14426	0.092562	0.21784	0.20796	0.24956	0.20755	0.022655	0.15539	0.15099	0.31175	0.1492	0.1148	0.016943	0.1541	0.069249	-2.8375	-2.7521	-2.9	-3.2833	-2.6083	-3.0208	-3.4	-2.5771	-3.2354	-2.9229	-2.8125	-3.5062	-2.7979	-3.0542	-3.2396	-2.65	128.828	32.341	25.326	38.810	76.707	116.431	155.829	215.199	68.152	143.492	207.578	28.085	167.189	-15.092	96.415	-72.582	0.00033996	0.0015263	0.00062305	454.1	1.753e-05	1.2417e-05	501.25	171.06	4.0374e-06	1.6818e-05	209.5	76.228	58.83	23.676	5.5895e-06	31.101	0.0045288	0.0049928	0.001393	1220.5	5.1373e-05	5.3548e-05	1184.5	389.53	5.0319e-05	5.4592e-05	620.68	192.36	154.1	60.462	5.6014e-05	82.052	104.127	71.371	76.830	-73.652	232.346	189.396	-75.576	-68.653	-60.611	216.252	-72.320	-68.246	-64.950	-60.778	18.946	-64.210	-8191	255	
1627.596	1	1	0	0	0.32713	0.26294	0.23013	0.086656	0.41656	0.12397	0.31336	0.13699	0.065175	0.15472	0.40168	0.18954	0.079191	0.29159	0.25916	0.31381	-2.7958	-3.1375	-2.725	-3.4062	-2.7271	-2.9917	-3.3917	-2.6	-3.2917	-2.9771	-2.7625	-3.3625	-2.6646	-2.7854	-3.325	-2.6708	152.148	155.027	265.364	101.668	43.371	209.468	215.315	208.038	187.056	11.508	-66.687	255.398	225.574	20.614	33.505	165.180	0.00050451	0.00062943	0.00045483	460.46	6.5113e-06	1.8183e-05	496.03	170.7	2.3358e-05	3.3463e-05	213.34	76.224	58.659	23.682	1.5893e-05	30.439	0.0046091	0.0050636	0.0014374	1196.8	5.3472e-05	5.4993e-05	1201	383.13	5.2389e-05	5.549e-05	630.79	187.35	157.36	60.904	5.67e-05	79.764	196.076	245.260	133.005	-74.124	-74.448	266.503	-75.499	-69.273	187.863	219.469	-71.681	-68.003	-64.714	-60.565	-32.369	-65.047	-8191	255	
1627.692	1	1	0	0	0.15321	0.098314	0.11472	0.22851	0.4134	0.20586	0.09577	0.12185	0.058987	0.023769	0.15356	0.18702	0.099426	0.24288	0.10165	0.31818	-2.6125	-3.0583	-2.55	-3.3625	-2.9437	-2.9729	-3.5062	-2.7208	-3.0958	-3.2708	-2.6813	-3.4417	-2.9375	-2.9479	-3.3312	-2.7812	48.384	107.754	89.026	121.570	115.812	103.388	118.922	-12.395	95.121	246.583	123.241	190.858	99.281	230.526	30.295	251.984	0.00059274	0.0016503	0.00050732	452.33	1.6835e-05	1.359e-05	500.27	170.31	1.7397e-05	3.9525e-05	210.22	76.057	57.585	23.939	3.4978e-05	30.326	0.0047575	0.0050857	0.0014492	1166	5.5033e-05	5.566e-05	1199.8	380.56	5.459e-05	5.691e-05	636.74	187.56	162.18	62.558	5.6137e-05	80.723	164.973	-56.178	144.153	-74.249	261.617	147.569	-75.111	-69.866	-7.963	121.537	-71.686	-68.291	-65.668	-60.585	58.339	-64.086	-8191	255	
1627.813	1	1	0	0	0.29373	0.053858	0.1407	0.18305	0.21385	0.12561	0.32486	0.31927	0.10644	0.17171	0.24419	0.10483	0.13858	0.015828	0.18051	0.12213	-2.5604	-3.3604	-2.75	-3.1542	-3.0854	-2.8167	-3.4021	-2.8396	-3.0563	-3.1021	-2.8583	-3.3396	-2.9625	-2.8167	-3.3479	-2.8375	140.772	-10.830	245.021	259.340	172.547	40.508	259.240	191.341	216.753	82.845	51.300	-25.390	231.752	152.890	135.604	210.738	0.00021459	0.00095979	0.00096638	450.86	1.406e-05	1.4658e-05	510.24	169.99	1.4611e-06	1.6737e-05	213.6	75.16	59.107	23.908	3.7184e-05	30.378	0.0049121	0.0052251	0.0014364	1178.3	5.609e-05	5.7394e-05	1177.1	384.35	5.4931e-05	5.7087e-05	617.26	188.43	161.54	62.797	5.3224e-05	81.482	211.407	-74.732	-73.290	-74.178	27.681	162.589	-75.283	-69.375	22.185	166.248	-72.115	-67.812	-65.200	-60.422	11.415	-64.614	-8191	255	
1627.909	1	1	0	0	0.1362	0.19355	0.11137	0.25432	0.13768	0.15473	0.39637	0.051947	0.29566	0.22282	0.25327	0.20894	0.036537	0.092445	0.22738	0.17001	-2.4729	-3.4667	-2.5167	-3.3479	-2.9	-2.7333	-3.45	-2.8292	-2.8271	-3.3729	-2.6875	-2.975	-3.2292	-2.5875	-3.2646	-2.775	145.628	118.519	40.909	249.683	251.191	135.295	115.578	135.268	48.529	141.399	156.830	199.085	240.392	152.001	200.748	-68.226	0.00032996	0.0026795	0.00094408	447.35	2.3004e-05	1.0158e-05	505.33	171.15	1.3716e-05	1.4261e-05	211.47	75.961	59.383	24.288	2.8834e-05	30.809	0.0049296	0.0052833	0.001379	1204.2	5.6644e-05	5.8855e-05	1156.7	396.15	5.6691e-05	5.8946e-05	612.48	196.4	165.75	64.627	5.3325e-05	85.156	152.385	54.314	-73.407	-73.554	156.434	99.280	-75.508	-69.586	248.907	139.495	-71.453	-68.186	-64.933	-60.940	-8.142	-64.316	-8191	255	
1628.005	1	1	0	0	0.074695	0.062398	0.33475	0.056347	0.17497	0.11133	0.22002	0.063914	0.26075	0.24211	0.10194	0.21263	0.24117	0.061932	0.25599	0.035546	-2.4562	-3.275	-2.4646	-3.1396	-3.1813	-2.5521	-3.3125	-3.0458	-2.7938	-3.4021	-2.7167	-3.1042	-3.2104	-2.6	-3.2396	-3.0625	-76.647	32.130	-57.453	134.868	125.938	201.171	100.696	-17.501	264.952	32.535	227.909	206.139	264.006	236.804	117.585	61.347	0.00068674	0.0028075	0.00049135	452.97	6.4625e-06	2.1701e-05	501.15	171.06	3.1856e-05	4.9697e-05	210.48	75.609	58.878	24.479	3.6603e-06	30.287	0.0051652	0.0053999	0.0013938	1250.4	5.917e-05	6.0249e-05	1173.4	409.33	6.0047e-05	5.9832e-05	632.26	203.13	171.7	65.122	5.5354e-05	87.362	181.585	-16.566	93.452	-73.339	42.694	63.593	-75.297	-69.682	160.418	48.912	-72.003	-68.060	-65.171	-61.159	-42.278	-64.769	-8191	255	
1628.101	1	1	0	0	0.05949	0.065216	0.039982	0.32761	0.2374	0.051472	0.13632	0.022183	0.20169	0.066827	0.11937	0.26436	0.073307	0.18709	0.18828	0.19441	-2.2938	-3.4604	-2.6875	-3.1021	-3.3104	-2.8375	-3.3604	-3.1458	-2.8063	-3.4146	-2.8333	-2.9146	-3.3563	-2.6646	-3.3063	-3.0708	99.310	115.248	76.617	200.577	245.570	246.018	143.519	200.738	14.354	18.077	71.572	197.956	-65.738	166.466	147.750	245.492	0.0002304	0.0058984	0.0002861	454.55	9.289e-06	6.3098e-05	493.45	173.77	3.003e-05	4.7387e-05	214.04	75.82	58.866	24.401	2.1717e-05	30.721	0.0054463	0.0053045	0.0014486	1266.9	6.0551e-05	5.8203e-05	1180.4	408.75	6.0388e-05	5.5997e-05	633.78	199.01	169.58	61.752	5.4735e-05	85.282	255.688	-42.885	139.890	-73.442	16.386	51.616	-75.437	-69.967	269.644	6.895	-72.161	-68.064	-65.787	-61.275	191.383	-64.223	-8191	255	
1628.198	1	1	0	0	0.12331	0.16752	0.1391	0.24578	0.089329	0.12885	0.10879	0.21507	0.23995	0.066369	0.23651	0.12331	0.038993	0.034272	0.18693	0.19076	-2.1917	-3.1854	-2.5708	-2.9417	-3.2875	-2.6354	-3.1896	-3.0333	-2.6229	-3.1396	-3.0083	-2.7396	-3.2896	-2.8083	-3.0771	-3.2167	-14.022	25.728	244.713	240.272	12.268	26.667	236.147	223.386	267.984	-2.804	109.566	129.791	238.741	250.210	126.127	168.797	0.00040162	0.0046808	0.00024671	456.78	2.6795e-05	9.2942e-06	500.44	175.43	1.4399e-05	3.8399e-05	214.55	73.953	58.518	23.826	1.3715e-05	30.153	0.0053433	0.004929	0.0014372	1253.3	5.9137e-05	5.4838e-05	1183.8	407.74	5.9397e-05	5.3281e-05	634.3	199.91	166.51	60.911	5.5368e-05	85.914	175.622	-14.393	70.726	-73.900	40.471	40.093	-75.606	-69.767	-25.585	15.701	-72.900	-68.386	-65.952	-60.870	234.355	-64.760	-8191	255	
1628.292	1	1	0	0	0.10096	0.10034	0.19488	0.16877	0.15532	0.2042	0.15098	0.40153	0.20511	0.14912	0.074226	0.060267	0.1699	0.44257	0.10153	0.087445	-2.0687	-3.1937	-2.8979	-2.7854	-3.3729	-2.7938	-3.0146	-3.2875	-2.6937	-3.1458	-3.1625	-2.7938	-3.4	-2.5875	-3.0708	-3.3021	11.509	-53.391	262.538	258.858	168.065	188.912	136.988	105.035	118.215	182.302	171.712	144.860	-27.682	193.358	169.339	185.382	0.00020474	0.0020926	0.00069666	451.94	3.58e-05	2.2243e-05	503.83	176.13	2.3941e-05	2.5636e-05	216.57	74.715	59.358	23.79	4.8955e-06	30.906	0.0052198	0.0048297	0.0014323	1262.8	5.6164e-05	5.3684e-05	1174.7	407.5	5.5774e-05	5.2014e-05	624.7	199.17	157.85	60.128	5.3799e-05	84.99	-16.254	270.286	193.985	-73.741	72.812	249.712	-75.238	-70.089	38.467	211.769	-71.868	-68.469	-65.233	-61.251	-40.253	-63.907	-8191	255	
1628.388	1	1	0	0	0.14273	0.13868	0.10229	0.345	0.064719	0.23416	0.034971	0.10285	0.16186	0.18444	0.19805	0.17784	0.10897	0.1113	0.22748	0.020246	-2.1875	-3.4625	-2.8833	-2.7458	-3.3479	-2.7958	-2.8875	-3.2479	-2.5854	-3.2396	-3.2438	-2.6688	-3.2792	-2.8375	-2.6375	-3.3542	59.063	113.309	108.399	247.889	-27.148	40.069	84.863	55.075	265.326	39.043	156.654	217.611	-16.748	157.083	72.783	-57.993	0.00049404	0.0016714	0.00053778	456.9	4.2513e-05	3.2527e-05	498.71	178.29	3.5565e-05	1.641e-05	219.69	74.845	58.584	23.846	2.189e-05	30.656	0.0048402	0.0047534	0.0013985	1265.7	5.2606e-05	5.4395e-05	1176.7	410.8	5.3862e-05	5.3878e-05	634.91	203.12	155.18	61.621	5.5748e-05	85.674	-19.624	40.678	72.526	-73.849	63.923	219.479	-75.518	-69.678	-9.709	225.246	-71.598	-68.231	-65.375	-60.641	220.268	-63.748	-8191	255	
1628.509	1	1	0	0	0.25174	0.16667	0.16601	0.14341	0.062673	0.051382	0.23062	0.23677	0.12511	0.030992	0.0091388	0.1402	0.30817	0.08842	0.051202	0.22566	-2.2375	-2.9729	-3.1167	-2.7146	-3.15	-2.9396	-3.1854	-3.3396	-2.625	-3.0771	-3.1771	-2.5625	-3.2167	-3.0396	-2.7938	-3.2438	-14.688	-80.213	21.519	-58.302	175.413	-74.623	272.446	207.840	-34.511	119.114	-3.990	220.213	164.177	225.382	104.093	250.322	0.000246	0.0035955	0.00011463	454.35	1.3165e-05	1.665e-05	489.97	178.61	1.2271e-05	1.2066e-05	213.7	74.258	57.452	23.498	1.5098e-05	30.405	0.0047456	0.0049128	0.0014248	1258.4	5.1114e-05	5.4875e-05	1182.4	402.85	5.2722e-05	5.4029e-05	636.21	197.75	154.12	61.745	5.7803e-05	83.959	-62.623	201.593	66.347	-74.107	112.066	191.368	-75.727	-69.397	41.968	203.034	-71.686	-68.232	-64.942	-60.944	147.766	-64.006	-8191	255	
1628.605	1	1	0	0	0.027667	0.29787	0.17219	0.11004	0.15395	0.044558	0.13019	0.26064	0.23348	0.10681	0.04902	0.094001	0.068706	0.29281	0.063811	0.22268	-2.1792	-2.8563	-3.15	-2.5375	-3.325	-2.9542	-2.8146	-3.4208	-2.6417	-2.9854	-3.5354	-2.6437	-3.0812	-2.9917	-2.5583	-3.4021	-22.049	167.968	30.528	194.763	-86.992	137.915	-61.667	246.934	158.445	103.566	256.763	238.376	185.714	257.499	4.657	228.793	0.00033311	0.0033945	0.00015461	453.78	1.3902e-05	7.0775e-06	489.64	178.96	1.8254e-05	3.604e-05	215.07	73.819	56.453	23.09	2.1642e-05	30.349	0.0048636	0.0050452	0.0014867	1247.9	5.316e-05	5.6657e-05	1224.6	399.45	5.5777e-05	5.6855e-05	666.57	198.98	161.65	64.586	6.3971e-05	86.133	101.658	153.892	138.528	-74.092	223.052	205.451	-75.690	-69.538	185.426	159.856	-71.982	-67.932	-64.785	-60.361	227.805	-64.023	-8191	255	
1628.677	1	1	0	0	0.070206	0.37513	0.16127	0.2295	0.27883	0.34846	0.082402	0.14032	0.091645	0.21345	0.084176	0.23798	0.1611	0.17122	0.21918	0.11754	-2.2625	-3.05	-3.2812	-2.4917	-3.2313	-3.1542	-2.725	-3.2667	-3.0208	-2.9771	-3.4625	-2.6896	-3.2542	-3.0417	-2.7104	-3.3479	111.172	112.331	139.191	78.230	124.032	185.735	89.575	-74.504	-87.196	87.941	103.960	-80.667	266.779	233.310	97.620	200.433	0.00013454	0.002724	0.000724	450.89	1.1076e-05	2.8953e-05	486.59	173.99	1.3376e-05	2.753e-05	210.98	72.66	56.305	22.906	1.9814e-05	30.092	0.0054477	0.0056567	0.0016749	1305	6.0932e-05	6.4283e-05	1324.3	413.32	6.3097e-05	6.3914e-05	706.5	205.73	171.02	68.008	6.6543e-05	87.46	135.010	172.442	-66.648	-74.431	261.000	158.711	-74.987	-69.398	137.389	216.045	-72.110	-68.463	-65.160	-60.774	39.672	-64.704	-8191	255	
1628.773	1	1	0	0	0.24726	0.2393	0.11403	0.088267	0.3204	0.1236	0.17048	0.055419	0.12748	0.19851	0.22849	0.28895	0.041414	0.32928	0.11467	0.18279	-2.45	-2.7812	-3.3792	-2.8979	-3.0708	-3.1896	-2.775	-3.3792	-2.9313	-2.7271	-3.3479	-2.7375	-3.0646	-3.3896	-2.5354	-3.2104	154.364	-57.462	73.047	-35.261	118.751	194.554	-46.684	227.945	164.467	88.750	209.527	261.952	98.979	247.404	-75.916	245.900	0.00027588	0.0028674	0.0011185	435.9	2.4239e-05	1.9146e-05	489.76	169.51	1.8322e-05	1.6313e-05	213.72	71.327	57.361	23.223	3.9437e-05	29.4	0.0057161	0.0060095	0.0016962	1321.9	6.3524e-05	6.7834e-05	1322.4	419.93	6.5476e-05	6.8212e-05	700.97	210.48	174.6	69.958	6.4809e-05	87.951	95.892	219.496	-73.468	-73.159	-49.463	187.031	-75.394	-70.091	-13.275	205.931	-72.528	-67.707	-64.896	-60.351	0.136	-64.818	-8191	255	
1628.893	1	1	0	0	0.29107	0.18199	0.20628	0.026646	0.13212	0.22654	0.052981	0.11039	0.30633	0.028559	0.080834	0.10604	0.17301	0.16345	0.15303	0.29168	-2.4562	-2.7042	-3.3104	-2.6792	-2.975	-3.2708	-2.6604	-3.1771	-3.0417	-2.6625	-3.3063	-3.0187	-2.7875	-3.2354	-2.7854	-2.9917	76.416	107.215	-1.874	33.285	223.526	-66.713	209.255	267.910	63.549	-9.174	100.631	201.132	257.604	106.418	-65.076	78.424	0.0001006	0.003058	0.0010354	434.75	1.9235e-05	1.6492e-05	490.17	170.5	1.9986e-05	2.2294e-05	210.79	71.346	56.478	23.226	8.1073e-06	29.469	0.0056862	0.0060791	0.0015608	1299.6	6.1299e-05	6.567e-05	1239.1	410.6	6.1832e-05	6.55e-05	644.84	203.96	169	67.15	5.8414e-05	85.292	175.151	200.024	-85.844	-73.457	208.037	164.270	-74.729	-69.511	171.718	111.598	-72.250	-67.791	-64.657	-61.579	-45.124	-64.061	-8191	255	
1628.990	1	1	0	0	0.0039444	0.096245	0.12509	0.049911	0.21861	0.22049	0.33509	0.075825	0.16444	0.11975	0.051968	0.18251	0.15982	0.25791	0.10405	0.10987	-2.6937	-2.3563	-3.2229	-3.0583	-2.8729	-3.5833	-2.7167	-3.1854	-3.2896	-2.6146	-3.2417	-3.0354	-2.7438	-3.3583	-2.7479	-2.8104	-11.458	31.379	-11.301	238.753	-16.359	45.647	186.314	90.144	181.226	239.622	215.245	138.946	200.124	212.697	99.118	219.068	0.00062963	0.0023267	0.00074619	441.58	2.6489e-05	3.2519e-05	486.64	173.59	3.1078e-05	1.2874e-05	213.09	72.774	56.632	24.173	1.6837e-05	29.801	0.0054157	0.0057535	0.0014214	1274.6	5.962e-05	6.173e-05	1191.6	406.44	6.1184e-05	6.2634e-05	629.64	203.45	171.4	65.717	5.7677e-05	86.3	191.789	-64.982	-75.042	-73.906	218.844	46.667	-74.759	-69.298	206.604	79.884	-71.787	-67.680	-64.762	-60.658	195.313	-63.862	-8191	255	
1629.086	1	1	0	0	0.16833	0.42816	0.24002	0.24877	0.11476	0.13491	0.18546	0.30716	0.042972	0.31469	0.050937	0.14034	0.21734	0.15044	0.2258	0.11828	-2.9813	-2.6292	-3.1021	-2.9917	-2.7167	-3.475	-2.8979	-2.9146	-3.2188	-2.6833	-3.1208	-3.0271	-2.825	-3.4208	-2.7333	-2.9313	30.436	151.175	39.812	51.346	6.882	154.422	250.383	164.169	149.790	158.839	174.789	104.934	203.347	-27.192	58.597	-82.276	0.0003294	0.0056947	0.00026316	441.07	2.4102e-05	6.1354e-05	487.08	173.48	3.4092e-05	4.7363e-05	211.94	73.205	57.072	23.986	1.0432e-05	30.376	0.0055877	0.0056525	0.0014545	1297.1	6.3203e-05	6.1196e-05	1226.2	417.59	6.4784e-05	6.2361e-05	657.6	210.8	181.35	66.074	6.2712e-05	91.639	167.643	-36.136	233.034	-73.209	-80.084	46.417	-74.960	-69.517	207.623	19.939	-72.114	-68.961	-65.415	-61.094	162.298	-64.829	-8191	255	
1629.206	1	1	0	0	0.1504	0.17386	0.17237	0.095977	0.19997	0.10337	0.05243	0.066902	0.072898	0.049131	0.084954	0.061156	0.17674	0.15318	0.2681	0.028284	-2.7958	-2.6521	-3.0958	-3.2	-2.7146	-3.2708	-2.8438	-2.9813	-3.3542	-2.775	-3.2	-3.0687	-2.8458	-3.2542	-2.925	-2.8667	164.573	214.413	42.860	-59.880	1.888	209.172	225.305	252.823	191.061	175.545	229.251	140.035	192.036	181.945	126.961	-36.737	0.00018088	0.0032892	0.00021341	434.8	1.2958e-05	2.7674e-05	482.26	169.58	9.5932e-06	9.0075e-06	208.65	71.28	57.261	23.69	1.7039e-05	29.529	0.0061345	0.0058851	0.0016261	1396.4	7.1789e-05	6.5037e-05	1330.4	449.19	7.2414e-05	6.6954e-05	711.34	226.63	192.53	67.666	6.779e-05	96.776	121.103	-4.034	118.846	-73.740	-26.100	7.631	-75.526	-69.755	8.973	22.109	-73.036	-67.745	-65.636	-61.233	225.565	-64.433	-8191	255	
1629.301	1	1	0	0	0.15131	0.21484	0.16378	0.23272	0.036378	0.026961	0.20168	0.29051	0.1781	0.19545	0.11751	0.14897	0.23319	0.12598	0.0025526	0.088223	-2.9375	-2.6604	-2.9875	-3.0542	-2.5958	-3.3125	-2.9188	-2.8208	-3.3208	-2.7771	-3.0375	-3.2417	-2.8021	-3.2771	-3.0354	-2.9042	187.005	96.973	5.161	178.873	-9.608	-80.128	10.275	163.087	88.310	-9.735	158.914	140.364	165.448	199.829	23.484	254.926	0.00051058	0.00060511	0.00028544	433.22	4.2937e-05	1.1414e-05	482.65	171.03	4.7345e-05	3.9326e-05	208.7	70.547	57.968	23.117	2.8963e-05	29.336	0.0063192	0.0059913	0.0016888	1430.8	7.0641e-05	6.3962e-05	1319.8	452.59	6.7621e-05	6.4349e-05	693.54	221.94	180.51	65.676	6.4987e-05	95.327	-61.369	81.150	200.123	-74.191	49.463	147.351	-75.691	-69.225	32.596	190.658	-72.192	-67.692	-65.742	-61.232	-41.522	-63.167	-8191	255	
1629.374	1	1	0	0	0.082427	0.11606	0.20978	0.3197	0.02602	0.17329	0.069693	0.33145	0.16752	0.11972	0.23485	0.18263	0.11136	0.097346	0.24399	0.11707	-2.9625	-2.8958	-3.0271	-3.3187	-2.7604	-3.1708	-3.2333	-2.6875	-3.3	-2.7833	-2.8854	-3.3	-2.6271	-3.1958	-3.1813	-2.7938	30.028	213.372	247.855	210.383	256.283	57.070	258.090	-58.869	-4.400	-24.925	251.724	100.769	237.161	272.444	177.711	219.381	0.00061155	0.0027696	0.00069435	439.34	3.417e-05	1.5222e-05	483.63	171.53	2.593e-05	7.2663e-06	209.19	73.438	58.283	23.51	3.8628e-06	30.547	0.0057524	0.0057705	0.0016199	1404.2	6.4061e-05	6.1954e-05	1292.2	448.62	6.201e-05	6.3628e-05	687.79	222.24	173.44	66.4	6.4959e-05	96.317	-14.358	188.893	-82.098	-73.947	65.825	242.701	-75.311	-69.047	31.501	-28.590	-71.367	-67.601	-65.581	-61.089	121.589	-64.520	-8191	255	
1629.493	1	1	0	0	0.053783	0.19989	0.2056	0.15553	0.12274	0.18957	0.27163	0.16851	0.072686	0.077379	0.12821	0.1873	0.21819	0.1568	0.31219	0.089384	-2.875	-2.8563	-2.6521	-3.2313	-2.8063	-3.2062	-3.2646	-2.9792	-3.4208	-2.9708	-2.9688	-3.4208	-2.7604	-3.1167	-3.2708	-2.625	239.358	-7.384	39.353	27.457	-57.489	125.074	147.000	121.961	-32.377	-85.496	-33.669	204.191	14.843	-83.659	242.631	119.703	0.00067933	0.0013958	0.00079438	450.36	2.5902e-05	1.594e-05	485.32	175.5	2.9554e-05	4.3694e-05	211.22	75.331	57.719	23.71	7.3125e-06	30.991	0.0054797	0.0058854	0.0016501	1405.8	6.2336e-05	6.3095e-05	1311	450.72	6.0686e-05	6.4611e-05	706.52	219.86	172.71	67.067	6.6228e-05	94.57	266.823	130.551	76.444	-73.541	75.846	224.577	-75.822	-69.735	16.068	96.025	-71.254	-68.313	-65.532	-60.789	131.946	-63.879	-8191	255	
1629.589	1	1	0	0	0.13469	0.13128	0.10142	0.062705	0.21099	0.25473	0.16909	0.20983	0.077711	0.24502	0.24178	0.049339	0.058245	0.22131	0.198	0.17328	-2.8583	-2.9938	-2.6979	-3.5021	-2.6979	-3.1104	-3.3438	-2.7396	-3.2521	-2.9875	-2.7021	-3.4271	-2.9375	-2.7917	-3.3417	-2.6542	52.494	161.255	106.969	28.617	137.555	131.238	157.532	73.747	241.588	97.929	163.415	93.907	107.023	128.192	-22.193	269.432	0.00026366	0.001884	0.00056983	452.86	1.1741e-05	7.2684e-06	487.53	177.96	2.1855e-05	2.7374e-05	211.64	74.418	57.437	23.58	1.7977e-05	30.757	0.0053973	0.0058405	0.001679	1350	6.1106e-05	6.2052e-05	1308.2	432.38	5.9464e-05	6.2815e-05	706.96	208.16	171.77	66.463	6.6487e-05	90.587	204.305	188.754	85.348	-74.252	1.427	186.026	-75.110	-69.130	237.012	225.043	-71.636	-68.254	-65.951	-60.429	193.739	-64.465	-8191	255	
1629.685	1	1	0	0	0.31436	0.15151	0.3747	0.050619	0.21358	0.1848	0.20805	0.19719	0.24727	0.29643	0.11617	0.40565	0.21667	0.33593	0.15563	0.11583	-2.7396	-3.1188	-2.6458	-3.2729	-2.6167	-2.9271	-3.3375	-2.775	-3.0333	-2.8312	-2.85	-3.2896	-3	-2.8979	-3.4813	-2.7458	270.024	-30.265	215.392	156.957	117.357	65.142	261.281	-71.124	176.267	209.925	119.106	231.231	143.915	-59.935	246.553	69.076	0.00015295	0.0020117	0.00018707	451.07	2.3351e-05	1.1708e-05	484.83	176.01	2.0757e-05	2.9899e-05	215.75	73.437	57.924	23.45	1.8177e-05	30.301	0.0054469	0.0058457	0.0017157	1305.9	6.2771e-05	6.3433e-05	1324.1	425.33	6.1725e-05	6.4648e-05	720.4	203.97	174.87	67.284	6.5399e-05	87.316	60.295	156.902	261.695	-73.575	269.776	-67.322	-75.167	-69.621	145.414	135.078	-72.242	-67.949	-65.166	-60.720	12.716	-64.552	-8191	255	
1629.806	1	1	0	0	0.2756	0.11201	0.1404	0.25364	0.1587	0.077502	0.17506	0.37414	0.27956	0.29956	0.20597	0.18182	0.11309	0.20438	0.10126	0.10575	-2.8208	-3.0979	-2.6375	-3.2979	-3.0458	-2.8604	-3.3521	-2.7354	-3.0438	-3.2167	-2.6125	-3.05	-2.9521	-2.5854	-3.3937	-2.9313	102.100	135.159	261.093	239.384	195.563	217.141	-54.520	188.007	261.989	132.963	191.270	262.476	238.580	221.965	-75.036	-47.179	0.0005635	0.0046874	0.00076022	444.23	4.9894e-06	3.1274e-05	494.76	175.42	4.5425e-06	3.0341e-05	213.99	72.547	57.571	23.516	3.6766e-05	30.202	0.0053828	0.0057449	0.0016343	1252.3	6.083e-05	6.2664e-05	1267.4	413.92	6.0199e-05	6.4288e-05	690.6	200.67	173.37	68.562	6.2575e-05	88.679	117.672	214.294	271.665	-73.625	-62.055	-63.733	-75.641	-69.227	19.622	150.580	-71.643	-67.361	-65.323	-60.953	12.039	-64.754	-8191	255	
1629.902	1	1	0	0	0.19542	0.090988	0.11587	0.1696	0.20052	0.078264	0.1838	0.14268	0.18379	0.12357	0.066319	0.19531	0.15696	0.13308	0.11173	0.031359	-2.6708	-3.2354	-2.4792	-3.2188	-3.0687	-2.7208	-3.425	-2.8042	-3.025	-3.0521	-2.4708	-3.3729	-3.1354	-2.5396	-3.3917	-2.9062	81.007	164.962	47.897	117.189	-19.798	-53.330	218.344	61.309	-67.651	48.877	250.740	236.068	-34.979	26.859	34.078	76.573	0.00056999	0.003112	0.00055803	447.83	1.9152e-05	2.2258e-05	497.5	175.04	1.6259e-05	1.4728e-05	215.39	73.105	57.187	23.975	3.1157e-05	31.097	0.0054729	0.0059718	0.001592	1284.8	6.2575e-05	6.6235e-05	1252.1	424.56	6.1837e-05	6.6678e-05	676.89	206.89	176.51	70.7	6.0811e-05	91.495	139.413	94.587	262.895	-72.748	190.508	209.612	-74.986	-69.884	-68.631	9.904	-71.697	-67.800	-65.698	-61.076	-10.694	-64.369	-8191	255	
1629.974	1	1	0	0	0.052513	0.49529	0.31977	0.083905	0.13227	0.020938	0.041362	0.16443	0.24133	0.163	0.14875	0.052663	0.17695	0.040365	0.1792	0.18394	-2.2625	-3.2542	-2.6958	-3.0229	-3.0667	-2.3729	-3.3896	-2.9292	-2.8833	-3.3	-2.7062	-3.0583	-3.3667	-2.7083	-3.1521	-2.8833	109.360	206.802	136.088	214.169	186.934	-1.807	186.017	201.867	262.752	-72.949	74.534	-42.538	257.751	-30.369	-28.925	263.851	0.00046784	0.00047219	0.00079216	442.16	1.5328e-05	1.2706e-05	492.86	175.19	2.3817e-05	3.4211e-05	211.69	73.209	56.159	24.282	8.3352e-06	30.55	0.0056858	0.0061665	0.0015701	1318.3	6.4634e-05	6.8135e-05	1241.5	432.77	6.5305e-05	6.7905e-05	680.77	212.84	183.64	71.904	6.2698e-05	94.79	217.750	140.106	260.915	-73.700	-49.467	26.295	-75.496	-69.613	205.839	-35.577	-72.518	-67.991	-65.631	-61.099	230.705	-64.248	-8191	255	
1630.070	1	1	0	0	0.23424	0.20056	0.10464	0.15698	0.020475	0.26121	0.19606	0.13784	0.0954	0.034739	0.10372	0.16473	0.18295	0.34684	0.14232	0.088784	-2.45	-3.375	-2.7042	-3.0896	-3.2229	-2.7167	-3.3292	-3.0396	-2.9292	-3.3604	-2.8187	-3.1208	-3.1375	-2.4604	-3.2062	-3.0875	149.059	241.178	90.885	201.469	75.037	-85.305	270.738	216.213	-49.985	256.564	95.305	229.231	-28.850	259.170	267.051	229.400	0.00098136	0.0046455	0.00057412	441.01	5.1067e-06	4.0386e-05	485.22	170.15	1.513e-05	5.9651e-05	208.61	70.605	55.996	23.757	3.9255e-06	30.236	0.0062045	0.0063632	0.0016844	1396.2	7.2567e-05	7.2663e-05	1316.8	460.06	7.498e-05	7.2075e-05	736.51	228.13	199.43	73.678	6.8652e-05	99.333	170.819	-43.245	203.248	-73.360	221.185	45.874	-74.962	-70.178	254.345	15.922	-72.077	-67.676	-65.725	-60.727	167.816	-64.913	-8191	255	
1630.189	1	1	0	0	0.20144	0.21926	0.11769	0.25277	0.18672	0.21553	0.026172	0.14376	0.14496	0.16032	0.18586	0.16947	0.20183	0.30783	0.073515	0.17362	-2.5083	-3.2479	-2.7396	-2.9021	-3.3604	-2.675	-3.2062	-3.1813	-2.8229	-3.1958	-3	-2.9604	-3.2562	-2.5958	-3.0708	-3.1479	8.951	4.472	-48.888	177.043	197.924	49.671	124.549	146.809	-16.281	150.888	199.127	206.501	-38.352	76.509	-39.058	192.825	0.00053007	0.007764	0.00058849	430.98	2.6495e-05	4.0354e-05	481.02	170.47	1.4782e-05	2.1109e-05	207.91	71.241	57.1	23.587	1.4087e-05	29.778	0.006762	0.0063101	0.001753	1410.8	7.2469e-05	6.6699e-05	1284.1	444.14	7.0094e-05	6.2401e-05	692.75	214.2	183.88	66.323	6.2344e-05	93.15	141.860	-71.604	56.822	-73.419	83.194	57.612	-75.467	-69.149	11.029	27.262	-71.526	-67.850	-65.432	-61.064	195.536	-64.972	-8191	255	
1630.285	1	1	0	0	0.078882	0.096443	0.20022	0.21572	0.12673	0.17766	0.43768	0.22306	0.10061	0.17509	0.091864	0.246	0.077408	0.32389	0.092805	0.22154	-2.2125	-3.2938	-2.7812	-2.8896	-3.4813	-2.6417	-2.9917	-3.0687	-2.5312	-3.2271	-3.1167	-2.7771	-3.4938	-2.7208	-3.0333	-3.25	168.881	43.259	206.684	127.314	152.664	237.929	234.631	-47.061	-3.191	220.807	104.367	209.109	189.058	-3.224	75.791	166.311	0.00065455	0.0019137	0.00037541	436.51	3.7623e-05	2.7205e-05	486.44	172.71	3.5036e-05	1.5794e-05	216.57	72.021	59.605	23.662	2.6647e-05	30.659	0.0061144	0.0055713	0.0016414	1374.9	6.7267e-05	6.2802e-05	1272.4	447	6.7943e-05	6.1722e-05	702.72	222.53	181.87	67.587	6.4094e-05	96.992	-12.899	271.156	-60.911	-73.574	71.500	169.863	-74.987	-69.041	2.149	208.619	-72.549	-68.020	-65.201	-60.844	240.064	-64.509	-8191	255	
1630.381	1	1	0	0	0.13264	0.12983	0.16137	0.22645	0.12502	0.19768	0.12252	0.11727	0.13243	0.05565	0.2336	0.04853	0.25732	0.16511	0.21592	0.041638	-2.1375	-3.3583	-3.025	-2.8479	-3.4104	-2.8625	-3.1104	-3.3354	-2.5542	-3.175	-3.1	-2.6521	-3.3812	-2.7812	-2.9021	-3.5667	72.167	12.476	-40.794	215.061	190.086	165.205	59.717	1.127	246.211	48.290	269.422	-43.476	206.416	210.453	-61.587	269.096	0.00073929	0.0041095	0.0009991	446.31	3.9441e-05	1.5536e-05	496.24	177.46	4.8265e-05	2.61e-05	213.04	73.529	59.536	24.061	4.0185e-05	31.39	0.0059846	0.0056938	0.0016726	1432.4	6.5437e-05	6.5007e-05	1307.9	461.09	6.625e-05	6.398e-05	717.37	230.86	179.01	70.168	6.6915e-05	100.31	-5.832	56.192	-13.452	-73.936	73.258	87.056	-74.850	-69.278	-0.900	192.751	-72.028	-67.736	-65.431	-61.129	231.657	-64.553	-8191	255	
1630.477	1	1	0	0	0.12276	0.017715	0.12073	0.038235	0.1106	0.40613	0.12043	0.047431	0.034983	0.12165	0.070992	0.12202	0.034716	0.1224	0.059159	0.30702	-2.2792	-3.2875	-3.0458	-2.7521	-3.3688	-2.8667	-2.7979	-3.5458	-2.8271	-3.0979	-3.1875	-2.5979	-3.2396	-2.8667	-2.8979	-3.3375	-64.637	34.221	37.588	21.080	167.951	165.418	64.680	-12.105	-82.143	219.390	-85.842	-48.421	-50.475	255.808	149.054	164.436	0.00024205	0.0010818	3.6456e-06	458.37	1.6664e-05	1.1236e-05	493.19	178.5	2.9996e-05	1.3891e-05	213.19	74.446	58.598	24.168	2.9497e-05	31.21	0.0058908	0.0059706	0.0017418	1475.6	6.4211e-05	6.7836e-05	1348.4	467.09	6.5556e-05	6.6387e-05	737.38	232.09	176.46	70.731	6.8923e-05	97.747	-18.680	236.108	152.748	-72.962	134.518	96.185	-75.103	-69.423	-69.165	207.888	-72.422	-68.105	-65.243	-61.116	164.628	-64.596	-8191	255	
1630.598	1	1	0	0	0.082583	0.17706	0.07004	0.18994	0.062746	0.080366	0.064793	0.16657	0.17172	0.30591	0.27515	0.12238	0.13961	0.098191	0.048442	0.06007	-2.125	-2.9958	-3.1083	-2.6417	-3.225	-3.1771	-2.9333	-3.5417	-2.7458	-2.9646	-3.2083	-2.7583	-3.3604	-3.0854	-2.7021	-3.3042	5.805	258.081	-29.956	174.580	94.906	138.566	72.225	-8.429	-53.108	-81.805	-14.429	10.766	-56.098	169.435	106.454	123.532	0.00052744	0.0018322	0.00084517	460.48	1.6262e-05	1.3004e-05	491.3	177.87	2.5456e-05	1.7005e-05	214.75	75.216	57.649	24.037	3.5402e-05	31.688	0.0057864	0.0059926	0.0017582	1437.1	6.3292e-05	6.7547e-05	1370	451.92	6.561e-05	6.6676e-05	747.65	224.63	177.79	70.68	7.0612e-05	94.104	179.058	207.954	121.728	-73.917	226.009	6.384	-75.441	-69.482	225.208	180.528	-72.554	-67.724	-64.898	-60.448	93.932	-64.248	-8191	255	
1630.670	1	1	0	0	0.17501	0.067803	0.13023	0.14367	0.18358	0.17447	0.055892	0.16364	0.22308	0.16656	0.11639	0.13989	0.12669	0.094652	0.18908	0.033327	-2.4229	-3.0417	-3.2562	-2.8125	-3.4417	-3.0333	-2.8292	-3.2438	-2.8708	-2.9625	-3.2896	-2.6042	-3.2146	-3.1771	-2.65	-3.2604	146.321	234.178	217.170	239.053	211.262	14.453	77.206	143.357	79.221	161.651	98.991	204.619	116.486	22.620	111.246	224.483	0.000899	0.0019092	0.00014026	461.68	5.7084e-06	1.6296e-05	494.12	180.02	3.4957e-05	1.8322e-05	217.4	74.613	58.27	24.174	2.776e-05	31.44	0.0058534	0.0059971	0.0017728	1370.9	6.2781e-05	6.6033e-05	1359.8	429.6	6.4273e-05	6.501e-05	733.19	213	176.12	70.064	6.988e-05	91.024	160.380	63.381	-60.355	-74.208	133.254	246.035	-74.879	-68.891	190.751	190.787	-72.109	-67.902	-65.349	-60.852	61.260	-64.605	-8191	255	
1630.766	1	1	0	0	0.055781	0.024418	0.091724	0.11243	0.1937	0.20614	0.2069	0.033849	0.20422	0.33036	0.067058	0.028181	0.1714	0.12006	0.16405	0.19621	-2.3875	-2.9771	-3.2854	-2.6521	-3.1271	-3.1917	-2.7271	-3.3812	-2.8937	-2.9417	-3.1458	-2.5229	-2.9583	-3.4333	-2.6708	-3.2562	18.337	37.291	159.557	216.315	256.286	-69.813	83.486	181.781	205.793	226.552	36.605	149.031	96.099	79.008	268.531	65.121	6.0307e-05	0.0025483	0.00037113	452.36	1.2397e-05	4.1302e-05	507.22	173.62	6.3797e-06	2.0495e-05	220.59	75.034	58.057	24.109	3.294e-05	30.805	0.0059207	0.0061745	0.0017811	1365.5	6.5497e-05	6.9585e-05	1386.4	434	6.8007e-05	7.0271e-05	742.02	220.15	183.5	73.956	7.0832e-05	93.712	94.877	174.173	254.696	-73.251	247.160	226.785	-74.855	-69.360	252.064	190.289	-72.891	-67.860	-65.541	-61.001	12.035	-63.936	-8191	255	
1630.886	1	1	0	0	0.071216	0.19055	0.067606	0.14465	0.14597	0.21801	0.10671	0.15181	0.1922	0.20987	0.092556	0.048656	0.22074	0.10534	0.18499	0.24379	-2.4979	-2.7271	-3.1688	-2.8312	-2.9	-3.25	-2.6125	-3.4021	-2.975	-2.7188	-3.4688	-2.7604	-3.0271	-3.2708	-2.6312	-3.2854	268.984	-46.537	8.417	186.650	26.394	-61.783	104.625	-49.071	229.575	225.478	139.750	123.026	204.861	-10.976	12.223	-82.828	0.00031382	0.0051469	0.0011436	450.75	8.5225e-06	2.0985e-05	497.24	173.12	1.7721e-05	2.3005e-05	217.64	73.502	57.383	24.376	8.4982e-05	30.644	0.0062023	0.0066289	0.0017636	1411.8	6.8115e-05	7.3449e-05	1373.1	444.13	7.0489e-05	7.4759e-05	727.97	226.53	188.41	76.084	6.9245e-05	96.071	120.489	162.245	-76.062	-73.738	29.712	204.681	-74.441	-69.299	58.926	140.341	-72.672	-68.682	-66.026	-60.900	24.348	-64.637	-8191	255	
1630.982	1	1	0	0	0.07941	0.17129	0.049619	0.19155	0.044036	0.26741	0.13793	0.10658	0.16187	0.091084	0.10633	0.091434	0.23271	0.12948	0.2472	0.22635	-2.6042	-2.7229	-3.2625	-2.8792	-2.8833	-3.2521	-2.7146	-3.2771	-3.2354	-2.7104	-3.3375	-2.8958	-2.8771	-3.3875	-2.9417	-3.0208	238.803	21.061	-64.910	180.000	243.404	42.382	-47.508	36.817	-10.832	265.466	16.887	133.931	248.667	245.090	78.961	183.683	0.00053587	0.0006236	0.0014416	457.7	2.5454e-05	2.2961e-05	494.14	172.92	1.3183e-05	4.4626e-05	212.5	73.314	57.544	24.3	1.2903e-05	30.465	0.0063568	0.0068465	0.0017121	1436.9	7.0003e-05	7.4567e-05	1338.6	449.85	7.1628e-05	7.5031e-05	709.52	228.4	191.62	75.083	6.7831e-05	96.469	194.481	-73.737	-62.481	-73.895	-76.481	79.739	-75.336	-69.715	141.089	30.104	-73.001	-67.752	-64.907	-61.382	221.990	-64.589	-8191	255	
1631.079	1	1	0	0	0.17641	0.21659	0.10316	0.10479	0.18339	0.15592	0.10515	0.20923	0.22154	0.088115	0.16592	0.18314	0.091995	0.19765	0.24215	0.17723	-2.5646	-2.7292	-3.4417	-3.0667	-2.6917	-3.5729	-2.7438	-3.0021	-3.1854	-2.4979	-3.3771	-3.1375	-2.5521	-3.4479	-2.7854	-3.0687	157.013	216.422	105.792	244.263	201.090	9.007	-41.698	-53.818	24.671	17.980	211.195	109.299	-85.089	-78.373	4.572	193.075	0.00061171	0.0065963	0.00018328	444.28	2.5447e-05	5.5476e-05	488.04	172.74	4.1433e-05	4.4534e-05	210.62	73.144	57.617	24.586	2.3034e-05	30.861	0.006479	0.0067211	0.0016776	1434.9	7.1762e-05	7.1063e-05	1323.9	446.93	7.1876e-05	7.0639e-05	696.77	223.72	191.73	70.904	6.6456e-05	95.294	182.551	-21.455	-65.666	-73.863	256.047	37.506	-74.965	-69.384	236.036	29.300	-71.588	-67.904	-65.462	-61.115	219.486	-64.153	-8191	255	
1631.175	1	1	0	0	0.14346	0.16154	0.29572	0.1143	0.37845	0.084121	0.17704	0.20027	0.16066	0.13974	0.19748	0.306	0.098062	0.11359	0.21942	0.15542	-2.8187	-2.5917	-3.1875	-3.0292	-2.6562	-3.3854	-2.9062	-3.1	-3.2917	-2.7479	-3.3729	-3.1625	-2.6437	-3.3354	-2.9583	-2.9083	181.163	-75.523	-19.229	146.515	53.601	139.338	84.748	154.702	107.899	258.830	203.711	-15.775	-83.489	147.609	-37.984	270.882	0.00087395	0.006562	0.00092211	447.43	9.8394e-06	3.318e-05	489.09	171.93	1.4269e-05	6.4927e-05	207.85	74.773	59.241	25.028	2.6307e-05	31.27	0.0064701	0.0063023	0.0016695	1425.8	7.3244e-05	6.7559e-05	1350.6	454.71	7.4436e-05	6.9341e-05	724.74	233.98	202.16	72.165	7.2401e-05	102.48	177.395	-62.846	100.162	-74.072	-66.875	35.003	-75.155	-69.391	-73.869	8.332	-71.644	-68.086	-64.740	-61.134	157.897	-64.506	-8191	255	
1631.269	1	1	0	0	0.35069	0.22201	0.09727	0.1489	0.25511	0.08197	0.1447	0.040283	0.069037	0.21497	0.15581	0.11911	0.14388	0.21407	0.11826	0.3461	-2.8771	-2.7271	-3.2458	-3.0333	-2.5979	-3.2521	-3.0625	-3.0604	-3.3604	-2.7396	-3.1125	-3.1813	-2.6813	-3.2167	-3.0958	-2.7292	171.140	222.502	-30.838	167.824	-15.121	-11.281	150.408	151.692	73.364	111.777	-31.640	60.824	233.431	-85.811	266.746	172.320	0.00024572	0.0046937	0.00078731	444.15	2.9064e-05	1.6457e-05	493.45	169.09	3.8421e-05	9.3804e-06	209.48	74.396	59.343	24.688	2.2333e-05	31.121	0.0069919	0.0065522	0.0018385	1527.5	7.8089e-05	7.0059e-05	1410.9	475.75	7.5587e-05	7.0415e-05	743.35	240.7	199.43	71.87	7.2752e-05	104.08	-6.116	-50.746	166.564	-73.502	66.796	135.019	-75.827	-69.231	36.644	-46.460	-73.285	-67.874	-65.653	-61.348	207.231	-64.102	-8191	255	
1631.365	1	1	0	0	0.28308	0.2064	0.0789	0.17217	0.27603	0.32124	0.22529	0.13194	0.13949	0.16047	0.24601	0.085977	0.11895	0.22236	0.22556	0.18793	-2.8604	-2.7271	-2.9958	-3.3604	-2.6333	-3.3812	-3.0271	-2.85	-3.2917	-2.8396	-3.0583	-3.1437	-2.4479	-3.1167	-3.0667	-2.6708	118.952	108.917	88.927	253.388	221.523	55.204	135.693	194.587	133.816	-41.856	43.518	177.498	232.859	-63.539	131.700	205.385	0.00055607	0.0049073	0.00023036	449.89	3.3727e-05	1.6349e-05	486.62	170.34	3.8458e-05	3.821e-05	210.94	74.917	60.096	24.486	8.192e-06	31.154	0.0066127	0.0064738	0.001825	1534.9	7.3701e-05	6.9165e-05	1401.8	482.94	7.1274e-05	7.1249e-05	748.23	243.63	193.3	72.663	7.2957e-05	105.82	-37.893	117.048	70.040	-73.400	82.260	182.212	-75.364	-69.975	46.843	172.731	-72.217	-67.830	-65.893	-61.065	96.223	-64.618	-8191	255	
1631.486	1	1	0	0	0.11804	0.2168	0.13496	0.12526	0.17681	0.095654	0.37086	0.1646	0.24675	0.059463	0.1296	0.017565	0.16499	0.14971	0.16775	0.23848	-3.05	-2.9313	-2.8646	-3.3917	-2.7271	-3.225	-3.1104	-2.7458	-3.5521	-2.9542	-2.9625	-3.4271	-2.7375	-3.1708	-3.325	-2.6625	-8.614	232.340	111.323	14.045	262.666	37.153	-60.680	65.745	164.574	168.014	213.409	76.748	103.099	219.561	153.742	203.524	0.00084719	0.0018028	0.00037877	455.24	4.8393e-06	2.3481e-05	488.59	173.7	1.6597e-05	3.0854e-05	208.04	76.81	58.752	25.181	4.1917e-05	32.473	0.0062327	0.00655	0.0018247	1534.5	6.9815e-05	6.9642e-05	1400.6	482.75	6.7164e-05	7.0766e-05	747.64	238.66	185.27	71.941	7.1863e-05	102.54	-46.377	114.006	71.258	-73.227	23.632	173.766	-76.280	-69.038	0.896	246.091	-71.928	-68.066	-65.349	-60.969	190.529	-64.429	-8191	255	
1631.582	1	1	0	0	0.17513	0.21601	0.205	0.15409	0.09901	0.16735	0.13394	0.16036	0.1118	0.094673	0.02908	0.057936	0.19757	0.11504	0.17871	0.37145	-2.6813	-2.9458	-3.1958	-3.4542	-2.5687	-2.9229	-3.2271	-2.7542	-3.2646	-3.1542	-2.7479	-3.4292	-2.7667	-3.1083	-2.975	-2.675	239.482	-57.093	25.722	127.163	-66.130	-57.246	255.340	-59.310	142.049	78.834	107.736	115.938	50.587	-33.484	-76.013	222.815	0.00016111	0.0010012	0.001102	458.94	2.218e-05	2.7189e-05	490.08	176.18	1.3449e-05	1.0985e-05	209.84	77.209	58.802	24.911	8.8637e-06	32.076	0.005905	0.0064102	0.0018278	1487.3	6.8209e-05	6.9856e-05	1427.6	476.38	6.8466e-05	7.3249e-05	786.53	238.07	192.55	74.94	7.7202e-05	103.35	155.105	-63.003	77.023	-73.851	249.833	223.332	-75.231	-68.955	-13.932	196.316	-72.251	-68.226	-64.726	-60.764	196.509	-64.124	-8191	255	
1631.678	1	1	0	0	0.1173	0.15666	0.12217	0.043398	0.068453	0.036173	0.20136	0.10396	0.25617	0.13556	0.32336	0.10696	0.21975	0.23381	0.17939	0.33166	-2.7896	-2.9417	-2.7375	-3.3583	-2.8208	-2.975	-3.4188	-2.7125	-3.0312	-2.9437	-2.6833	-3.3187	-3.1333	-3.0125	-3.2042	-2.6542	218.493	123.354	2.432	180.084	-62.192	35.953	178.022	-44.107	24.926	110.443	-30.923	-40.387	89.290	-37.918	-45.658	114.587	0.00065325	0.0017968	0.00063908	458.45	1.6438e-05	2.575e-05	486.38	173.6	1.9497e-05	1.616e-05	210.31	76.993	58.455	24.715	4.6198e-05	31.471	0.0062863	0.006787	0.0019806	1477.8	7.2779e-05	7.3961e-05	1484.5	472.68	7.2329e-05	7.6265e-05	818.1	235.48	200.53	77.686	8.0339e-05	102.42	149.403	135.408	146.701	-74.470	245.472	-80.807	-75.758	-69.386	201.063	177.619	-71.879	-67.766	-65.633	-61.117	65.603	-63.925	-8191	255	
1631.774	1	1	0	0	0.32729	0.18825	0.28984	0.26554	0.14413	0.24278	0.17103	0.091945	0.091787	0.31572	0.28202	0.18073	0.080505	0.093836	0.15262	0.047042	-2.7396	-3.2958	-2.5229	-3.475	-2.9708	-2.9042	-3.2479	-2.8021	-3.2792	-3.1562	-2.6979	-3.3167	-2.9229	-2.7417	-3.3208	-2.8229	135.469	-74.540	152.677	226.945	14.418	-71.273	267.795	184.914	225.996	18.425	78.826	268.412	2.500	222.929	-48.658	117.571	0.00077713	0.0014421	0.00084341	457.32	2.7108e-05	3.9528e-05	498.38	173.72	1.8995e-05	2.9315e-05	214.95	75.196	58.738	24.677	3.2984e-05	31.365	0.0066372	0.0070924	0.0020452	1465.9	7.5415e-05	7.671e-05	1481.1	466.67	7.3373e-05	7.7479e-05	802.74	230.67	199.16	78.314	7.6434e-05	100.92	136.598	198.751	268.771	-74.408	234.531	210.856	-75.094	-69.288	122.186	141.505	-71.769	-68.744	-65.213	-60.953	3.476	-64.421	-8191	255	
1631.871	1	1	0	0	0.28048	0.079228	0.15359	0.41381	0.11721	0.22066	0.17986	0.24191	0.25711	0.22273	0.27423	0.10216	0.46949	0.099318	0.13674	0.1701	-2.8167	-3.2167	-2.6312	-3.3125	-3.2146	-2.7396	-3.4854	-2.7562	-2.9896	-3.2958	-2.6667	-3.3	-3.0458	-2.9	-3.2667	-2.9229	-2.514	157.112	-19.687	227.617	-75.259	-44.937	196.428	-85.788	22.671	-44.090	105.863	-27.749	243.231	111.987	259.868	228.119	0.00028094	0.0031929	0.0011505	445.04	8.7683e-06	2.8873e-05	502.32	170.57	1.9902e-06	1.3763e-05	217.66	75.117	58.972	24.741	5.6971e-05	31.163	0.0065514	0.0071168	0.0019442	1448.9	7.4537e-05	7.8178e-05	1426.9	468.73	7.3421e-05	7.8873e-05	778.28	232.43	199.64	80.077	7.2787e-05	102.51	47.885	179.051	268.224	-74.060	21.821	208.771	-74.992	-69.435	244.886	-11.881	-72.177	-68.923	-65.101	-60.611	1.268	-64.225	-8191	255	
1631.967	1	1	0	0	0.18696	0.12699	0.11914	0.17837	0.25565	0.14452	0.17714	0.089123	0.21245	0.19337	0.058248	0.24777	0.20282	0.072894	0.092725	0.17259	-2.3958	-3.425	-2.4583	-3.0167	-3.1167	-2.6833	-3.3187	-2.8312	-2.8875	-3.4229	-2.7146	-3.1083	-3.2958	-2.6104	-3.3625	-2.9896	-71.158	82.196	170.487	201.120	-53.985	150.577	186.065	-62.886	-75.542	64.816	109.695	216.579	147.243	-25.387	212.796	-32.814	0.00049049	0.0034642	0.00062837	441.4	7.4126e-06	4.5099e-05	492.89	172.07	2.1968e-05	1.7749e-05	213.23	74.183	57.647	25.03	1.7302e-05	30.875	0.0066245	0.0072371	0.0018599	1464	7.4607e-05	7.9074e-05	1371.1	470.19	7.3364e-05	7.7387e-05	740.38	230.17	196.59	77.875	6.813e-05	100.33	123.080	23.505	-85.114	-73.302	254.573	80.510	-74.935	-69.538	190.673	79.226	-72.095	-69.201	-65.155	-60.444	-60.836	-64.357	-8191	255	
1632.063	1	1	0	0	0.23579	0.07856	0.11829	0.1575	0.11751	0.064636	0.16876	0.44343	0.11367	0.14968	0.10322	0.13561	0.18792	0.38005	0.20635	0.22235	-2.3063	-3.3604	-2.6542	-3.2333	-3.1562	-2.6125	-3.2625	-3.05	-2.9688	-3.3292	-2.6896	-3.1813	-3.4271	-2.5771	-3.3292	-3.2062	215.046	78.798	92.978	-8.922	-38.983	43.410	156.632	236.616	122.314	114.114	171.785	35.700	270.632	74.160	-76.592	154.506	0.00069287	0.0041561	0.00010691	445.96	3.4619e-05	1.6199e-05	483.66	171.37	3.8036e-05	6.2359e-05	208.95	73.863	56.932	25.117	3.0862e-05	30.343	0.0065505	0.0068895	0.00177	1443.1	7.4476e-05	7.5861e-05	1339.5	466.53	7.5241e-05	7.4686e-05	741.45	231.33	201.05	76.049	6.8945e-05	100.64	184.117	-16.734	58.919	-73.309	247.393	60.111	-75.134	-69.969	219.374	2.882	-72.051	-68.098	-64.675	-61.544	222.706	-64.561	-8191	255	
1632.159	1	1	0	0	0.1551	0.15737	0.11274	0.11538	0.072144	0.25855	0.30544	0.17779	0.21963	0.035601	0.10491	0.1537	0.097449	0.23216	0.20945	0.1152	-2.3937	-3.4354	-2.8083	-3.2438	-3.3833	-2.5417	-3.175	-3	-2.7542	-3.3	-2.8583	-2.8937	-3.2438	-2.7042	-3.2396	-3.0458	50.011	58.396	232.773	-77.368	80.005	1.542	72.947	256.251	159.865	183.119	104.549	264.175	16.523	226.727	-25.789	191.406	0.00022528	0.0071026	0.00073539	445.6	5.6981e-06	5.2107e-05	484.59	170.71	1.6635e-05	3.411e-05	208.03	73.355	58.51	24.865	8.3309e-06	30.52	0.0067876	0.0065843	0.0017914	1446.8	7.5897e-05	7.2188e-05	1346.3	466.08	7.6808e-05	7.0296e-05	747.3	232.44	202.5	73.509	6.9657e-05	101.26	183.364	-20.910	102.652	-73.940	127.346	-1.335	-75.491	-69.625	170.530	-6.509	-72.336	-68.093	-64.991	-61.436	-59.503	-64.609	-8191	255	
1632.255	1	1	0	0	0.18675	0.062601	0.15602	0.17699	0.15392	0.012603	0.10435	0.17914	0.0070558	0.15607	0.13849	0.076799	0.2305	0.19805	0.19601	0.07136	-2.1375	-3.2562	-2.7562	-2.9938	-3.4313	-2.6646	-3.1937	-3.3167	-2.6562	-3.4479	-2.9542	-2.7812	-3.3625	-2.7708	-3.0187	-3.35	147.015	195.865	123.483	-40.103	111.006	128.554	126.257	-85.909	118.028	-14.168	-30.864	-82.262	238.793	160.257	247.008	94.786	0.00033188	0.0069818	0.00035338	436.2	2.6026e-05	2.3912e-05	489.52	170.55	1.0917e-05	7.6136e-06	212.04	74.645	59.395	24.119	5.6323e-06	30.268	0.0068717	0.0062416	0.0018077	1461.8	7.49e-05	6.9162e-05	1351.8	467.74	7.5266e-05	6.7362e-05	744.52	234.81	196.56	71.747	6.9311e-05	102.15	78.666	-40.746	217.170	-73.538	64.683	38.028	-75.481	-69.389	9.554	71.104	-72.137	-67.782	-65.514	-61.001	263.117	-64.668	-8191	255	
1632.374	1	1	0	0	0.23804	0.070575	0.18559	0.1503	0.17331	0.11831	0.10866	0.071507	0.31797	0.34312	0.22485	0.07686	0.067276	0.14495	0.1011	0.14537	-2.1542	-3.25	-2.9375	-3.0021	-3.4521	-2.7229	-3.0333	-3.3083	-2.5167	-3.2313	-3.1229	-2.6417	-3.4917	-3.0167	-3.0667	-3.2687	67.138	119.073	43.641	8.164	150.042	-37.178	-61.421	213.481	-56.946	150.456	92.762	-54.163	159.413	-29.524	-32.812	183.311	0.00052601	0.0011397	0.00029134	437.61	2.7737e-05	1.3403e-05	487.07	170.75	4.0107e-05	2.7051e-05	209.79	73.102	58.991	24.191	6.8493e-06	30.176	0.0065951	0.006114	0.0017937	1487.7	7.1392e-05	6.8594e-05	1350.1	474.71	7.1761e-05	6.736e-05	743.83	238.69	188.14	72.195	6.9376e-05	102.98	-22.100	159.576	24.692	-73.785	87.377	199.775	-76.159	-69.664	41.955	112.426	-71.732	-67.602	-65.924	-61.210	181.346	-64.083	-8191	255	
1632.470	1	1	0	0	0.064325	0.19476	0.05063	0.13367	0.16964	0.20834	0.22308	0.11558	0.16238	0.11843	0.22804	0.36179	0.16318	0.18385	0.17326	0.16285	-2.1104	-3.1021	-3.0042	-2.6604	-3.1583	-2.7417	-2.9729	-3.4667	-2.5563	-3.1562	-2.9667	-2.5125	-3.3063	-2.7104	-2.6958	-3.4167	-24.244	211.109	161.325	203.576	-75.187	-61.916	236.952	227.637	26.776	-74.552	263.253	25.561	254.897	193.322	196.634	265.756	0.0010956	0.0015996	0.00081347	446.18	1.7419e-05	1.4572e-06	484.38	173.26	2.1827e-05	3.5594e-06	207.91	73.198	56.874	23.705	3.1314e-05	30.328	0.0062606	0.0061569	0.0017877	1500.9	6.7225e-05	6.9147e-05	1349.9	472.29	6.7532e-05	6.6872e-05	733.02	233.83	177.49	70.536	6.836e-05	98.622	-19.492	85.380	103.557	-73.958	67.002	0.357	-75.537	-69.539	34.852	103.697	-72.702	-67.742	-65.318	-61.277	194.399	-64.341	-8191	255	
1632.566	1	1	0	0	0.063603	0.18455	0.12719	0.11666	0.092088	0.21886	0.07157	0.18616	0.087434	0.3793	0.14661	0.19293	0.094245	0.25378	0.056008	0.1711	-2.0438	-2.9125	-3.1167	-2.6688	-3.275	-2.9771	-2.6792	-3.1688	-2.7125	-3.1917	-3.0563	-2.5021	-3.2917	-2.975	-2.725	-3.2958	176.318	201.929	-64.739	-37.142	240.459	147.864	184.390	223.705	-85.867	92.074	270.471	3.242	264.747	213.000	241.746	-19.463	0.00060148	0.0021425	0.00035262	446.6	6.7923e-06	1.7745e-05	477.13	175.16	2.9263e-06	1.2717e-05	203.51	73.212	56.432	23.711	3.4714e-05	30.988	0.0058132	0.0059921	0.0017473	1441.3	6.265e-05	6.6453e-05	1330.3	448.75	6.3798e-05	6.4639e-05	723.99	222.11	172.59	69.269	6.8668e-05	94.325	80.913	21.001	127.387	-74.170	15.430	-77.537	-75.422	-69.611	173.667	173.533	-71.938	-67.922	-65.164	-60.527	186.406	-63.780	-8191	255	
1632.662	1	1	0	0	0.15899	0.18042	0.13722	0.42516	0.020596	0.11107	0.093102	0.31903	0.15201	0.1981	0.18054	0.14605	0.35638	0.20589	0.17598	0.21442	-2.175	-3.0563	-3.1771	-2.3771	-3.3271	-3.0042	-2.7812	-3.3208	-2.6312	-3.0187	-3.1625	-2.7896	-3.1729	-3.1604	-2.7146	-3.2958	-35.783	22.397	-8.326	245.954	16.368	152.595	263.206	241.857	44.511	128.711	103.891	173.157	-63.060	39.173	87.581	-0.883	0.00046082	0.0014869	0.00080489	451.18	2.2193e-05	1.1269e-05	482.67	174.42	6.4162e-06	2.1521e-05	211.29	72.612	55.589	23.325	9.3998e-06	30.42	0.0057619	0.0059475	0.0017772	1391.7	6.3555e-05	6.7256e-05	1365.5	437.07	6.5802e-05	6.6557e-05	745.72	217.59	177.74	70.794	7.2826e-05	93.401	212.283	190.276	111.565	-73.986	187.306	125.969	-75.225	-68.788	67.713	247.113	-71.709	-67.953	-65.259	-60.503	195.574	-64.031	-8191	255	
1632.759	1	1	0	0	0.1307	0.064039	0.10223	0.12439	0.28052	0.072543	0.1765	0.26203	0.071216	0.065784	0.17982	0.12816	0.17387	0.24274	0.024145	0.21307	-2.3479	-2.8229	-3.2604	-2.5438	-3.1417	-3.075	-2.5812	-3.3271	-2.8021	-2.7917	-3.4	-2.7104	-3.0729	-3.2125	-2.5812	-3.3667	171.827	141.208	76.484	151.552	243.805	110.834	196.353	186.175	193.607	234.354	-73.170	16.801	3.954	145.000	-6.664	261.030	0.00036223	0.0029699	0.00079764	435.22	1.2757e-05	2.9793e-05	477.82	167.15	5.4099e-06	4.6325e-05	208.21	69.313	55.743	22.784	3.0424e-05	29.018	0.006098	0.0063651	0.0018865	1401.2	6.8789e-05	7.2679e-05	1430.7	444.84	7.2454e-05	7.4564e-05	785.72	226.78	190.69	76.449	7.8129e-05	97.705	-32.344	160.356	-71.750	-73.476	-79.766	239.938	-74.994	-69.110	-85.805	239.817	-72.405	-67.985	-64.901	-60.921	56.324	-64.252	-8191	255	
1632.855	1	1	0	0	0.092907	0.16642	0.095687	0.058275	0.076343	0.23907	0.1529	0.10966	0.15138	0.20232	0.18551	0.13309	0.21591	0.3292	0.15973	0.22297	-2.4854	-2.8042	-3.4437	-2.7896	-2.8042	-3.2792	-2.9021	-3.3312	-2.9542	-2.7104	-3.3896	-2.6562	-3.1354	-3.0521	-2.7729	-3.1729	143.993	-64.538	-5.944	21.960	250.988	126.402	-71.886	254.520	176.874	46.014	245.473	-21.113	113.370	-10.991	87.322	147.154	0.0004008	0.0029107	0.0016941	425.32	2.0079e-05	9.839e-06	473.24	161.98	6.5494e-06	2.1553e-05	202.78	66.891	54.081	22.297	4.1478e-05	28.032	0.0066995	0.0071054	0.0019703	1468.8	7.469e-05	8.0264e-05	1456.2	462.63	7.7549e-05	8.1822e-05	788.95	237.17	198.82	80.521	7.8473e-05	101.36	154.427	146.154	-78.065	-73.554	-86.244	163.871	-74.637	-69.234	-69.070	159.270	-72.036	-67.664	-65.573	-60.191	25.786	-65.250	-8191	255	
1632.975	1	1	0	0	0.028538	0.20482	0.14906	0.17789	0.17142	0.22984	0.14663	0.24644	0.20125	0.28274	0.096589	0.13137	0.19383	0.024583	0.12707	0.14665	-2.6625	-2.8563	-3.4542	-2.6167	-2.9479	-3.3396	-2.7104	-3.1104	-3.1271	-2.7583	-3.3563	-2.7729	-2.8625	-3.2458	-2.6396	-3.1729	124.095	-66.085	207.139	39.042	148.377	-4.943	239.131	269.581	83.621	217.008	15.562	-33.040	249.409	235.081	107.474	114.860	0.00051295	0.0036987	0.00070169	407.09	2.835e-05	1.362e-05	461.04	160.54	1.1873e-05	1.002e-05	198.15	67.109	53.422	22.869	2.8099e-05	28.116	0.0070242	0.0076107	0.0019352	1514.5	7.6962e-05	8.2846e-05	1410	467.39	7.8412e-05	8.3408e-05	757.03	239.72	201.68	80.701	7.6077e-05	102.65	245.410	108.476	-70.957	-74.037	268.802	114.089	-75.287	-69.311	238.288	59.870	-71.982	-68.119	-64.758	-61.392	-6.257	-64.529	-8191	255	
1633.072	1	1	0	0	0.082325	0.12833	0.18384	0.063906	0.34451	0.27045	0.20998	0.30369	0.10553	0.26576	0.10333	0.13122	0.033299	0.063694	0.11182	0.10804	-2.6854	-2.6667	-3.3563	-2.8521	-2.9354	-3.3979	-2.7083	-3.1542	-3.1583	-2.6146	-3.5021	-3.0687	-2.7042	-3.4042	-2.9042	-3.0917	98.873	-73.894	199.112	56.632	-22.629	246.527	-54.756	-38.664	186.480	150.784	186.841	135.655	148.733	-73.639	255.626	171.243	0.00050275	0.0047288	0.00046719	411.24	2.4268e-05	5.5042e-05	447.37	158.17	2.9034e-05	3.8847e-05	192.76	66.479	52.26	22.914	1.6534e-05	28.049	0.007177	0.0076454	0.0018881	1532.2	8.0023e-05	8.2341e-05	1403	474.72	8.1419e-05	8.2789e-05	756.51	241.18	207.85	78.654	7.6621e-05	103.8	153.658	-21.717	-0.767	-73.497	251.486	50.318	-74.780	-69.204	163.856	21.918	-71.685	-67.587	-64.880	-61.090	236.556	-63.894	-8191	255	
1633.143	1	1	0	0	0.0673	0.11541	0.3562	0.25495	0.10629	0.079887	0.12146	0.27677	0.10894	0.093395	0.23062	0.10538	0.22876	0.22674	0.20467	0.0072846	-2.7354	-2.5604	-3.3104	-2.825	-2.5896	-3.4479	-2.8438	-3.0812	-3.2104	-2.5938	-3.3021	-3.0479	-2.7479	-3.2979	-2.8417	-2.9562	129.052	98.145	-38.491	188.334	2.980	149.164	267.344	156.525	-2.232	-66.525	-86.229	-66.072	91.004	207.911	119.696	220.566	0.00064937	0.0072026	0.00065306	413.07	1.4758e-05	7.138e-05	442.25	156.62	5.8325e-06	7.6039e-05	185.62	65.933	52.65	22.476	1.556e-05	27.393	0.0074128	0.0073975	0.0019119	1545	8.347e-05	7.9469e-05	1428.2	481.68	8.5508e-05	8.1037e-05	780.08	247.67	217.23	77.264	8.0192e-05	106.35	133.502	-67.182	112.494	-74.504	-49.998	25.222	-75.266	-69.373	123.199	7.859	-72.094	-67.905	-65.232	-61.440	207.950	-64.078	-8191	255	
1633.262	1	1	0	0	0.33623	0.034004	0.13504	0.23919	0.12631	0.059874	0.12782	0.17176	0.046372	0.20442	0.34025	0.17617	0.17644	0.14726	0.33428	0.20591	-2.875	-2.7583	-3.3167	-3.2125	-2.5438	-3.3292	-2.8812	-2.8937	-3.3792	-2.6396	-2.9979	-3.0604	-2.7354	-3.3896	-2.9688	-2.8021	220.469	243.980	209.489	-61.936	166.939	46.039	-68.825	222.584	250.395	-24.978	208.554	241.968	1.028	-30.924	36.941	182.854	0.00028235	0.0051208	0.00083827	408.64	1.7985e-05	3.4257e-05	435.84	151.27	4.2069e-05	1.5584e-05	183.01	63.192	52.104	21.69	2.1252e-05	26.741	0.0076886	0.007181	0.0019793	1578.1	8.6251e-05	7.7577e-05	1460.6	494.26	8.7143e-05	8.0604e-05	803.76	256.05	220.44	77.581	8.4646e-05	113.11	2.871	1.023	67.943	-73.295	43.298	45.405	-75.208	-69.541	27.531	219.621	-72.174	-68.519	-65.044	-60.649	223.045	-65.039	-8191	255	
#DATA ENDS
