BOXY.EXE: ISS Imagent and Oximeter Data Acquisition Program Version 0.80
Ascii Record File

#ACQ INFORMATION
2  Detector Channels 
16  External MUX Channels 
1  Auxiliary Channels 
5000  Waveform (CCF) Frequency (Hz)
1  Waveforms Skipped 
30  Waveforms Averaged 
1  Cycles Averaged 
16  Acquisitions per Waveform 
10.0806  Updata Rate (Hz) 

#FILE INFORMATION
TRUE -- External MUX Channel results are PARSED.
FALSE -- AC DC and Phase are NOT grouped.
TRUE -- Companion Program Settings File CREATED.
FALSE -- AC data not excluded
FALSE -- DC data not excluded
FALSE -- Phase data not excluded
FALSE -- Auxillary Chn. data not excluded
Tab delimiters

#CALIBRATION STATE
TRUE -- Waveform Calibration Values APPLIED.


#AUX CALIBRATION VALUES
Val Type	aux-1	

Term	1.0000e+00	
Factor	0.0000e+00	


#WF CALIBRATION VALUES
A = Detector Channel
Val Type	A-AC1	A-AC2	A-AC3	A-AC4	A-AC5	A-AC6	A-AC7	A-AC8	A-AC9	A-AC10	A-AC11	A-AC12	A-AC13	A-AC14	A-AC15	A-AC16	A-DC1	A-DC2	A-DC3	A-DC4	A-DC5	A-DC6	A-DC7	A-DC8	A-DC9	A-DC10	A-DC11	A-DC12	A-DC13	A-DC14	A-DC15	A-DC16	A-Ph1	A-Ph2	A-Ph3	A-Ph4	A-Ph5	A-Ph6	A-Ph7	A-Ph8	A-Ph9	A-Ph10	A-Ph11	A-Ph12	A-Ph13	A-Ph14	A-Ph15	A-Ph16	

Term	0.00000e+00	0.00000e+00	0.00000e+00	0.00000e+00	0.00000e+00	0.00000e+00	0.00000e+00	0.00000e+00	0.00000e+00	0.00000e+00	0.00000e+00	0.00000e+00	0.00000e+00	0.00000e+00	0.00000e+00	0.00000e+00	0.00000e+00	0.00000e+00	0.00000e+00	0.00000e+00	0.00000e+00	0.00000e+00	0.00000e+00	0.00000e+00	0.00000e+00	0.00000e+00	0.00000e+00	0.00000e+00	0.00000e+00	0.00000e+00	0.00000e+00	0.00000e+00	0.00000e+00	0.00000e+00	0.00000e+00	0.00000e+00	0.00000e+00	0.00000e+00	0.00000e+00	0.00000e+00	0.00000e+00	0.00000e+00	0.00000e+00	0.00000e+00	0.00000e+00	0.00000e+00	0.00000e+00	0.00000e+00	
Factor	1.00000e+00	1.00000e+00	1.00000e+00	1.00000e+00	1.00000e+00	1.00000e+00	1.00000e+00	1.00000e+00	1.00000e+00	1.00000e+00	1.00000e+00	1.00000e+00	1.00000e+00	1.00000e+00	1.00000e+00	1.00000e+00	1.00000e+00	1.00000e+00	1.00000e+00	1.00000e+00	1.00000e+00	1.00000e+00	1.00000e+00	1.00000e+00	1.00000e+00	1.00000e+00	1.00000e+00	1.00000e+00	1.00000e+00	1.00000e+00	1.00000e+00	1.00000e+00	X	X	X	X	X	X	X	X	X	X	X	X	X	X	X	X	

B = Detector Channel
Val Type	B-AC1	B-AC2	B-AC3	B-AC4	B-AC5	B-AC6	B-AC7	B-AC8	B-AC9	B-AC10	B-AC11	B-AC12	B-AC13	B-AC14	B-AC15	B-AC16	B-DC1	B-DC2	B-DC3	B-DC4	B-DC5	B-DC6	B-DC7	B-DC8	B-DC9	B-DC10	B-DC11	B-DC12	B-DC13	B-DC14	B-DC15	B-DC16	B-Ph1	B-Ph2	B-Ph3	B-Ph4	B-Ph5	B-Ph6	B-Ph7	B-Ph8	B-Ph9	B-Ph10	B-Ph11	B-Ph12	B-Ph13	B-Ph14	B-Ph15	B-Ph16	

Term	0.00000e+00	0.00000e+00	0.00000e+00	0.00000e+00	0.00000e+00	0.00000e+00	0.00000e+00	0.00000e+00	0.00000e+00	0.00000e+00	0.00000e+00	0.00000e+00	0.00000e+00	0.00000e+00	0.00000e+00	0.00000e+00	0.00000e+00	0.00000e+00	0.00000e+00	0.00000e+00	0.00000e+00	0.00000e+00	0.00000e+00	0.00000e+00	0.00000e+00	0.00000e+00	0.00000e+00	0.00000e+00	0.00000e+00	0.00000e+00	0.00000e+00	0.00000e+00	1.18084e+01	-1.38873e+02	-1.24998e+02	-1.83146e+02	-7.27340e+01	-6.37033e+01	-1.60638e+02	-1.62015e+02	-3.12208e+01	-6.27560e+01	-1.72582e+02	-1.72483e+02	-1.83079e+02	-1.78092e+02	-9.56933e+01	-1.50919e+02	
Factor	4.44032e-05	1.51227e-04	4.59897e-05	1.52212e-01	1.40126e-06	1.22182e-06	1.72356e-01	5.67285e-02	1.37058e-06	1.58077e-06	8.83220e-02	2.95593e-02	2.80079e-02	9.00119e-03	1.53101e-06	1.30876e-02	1.36817e-06	1.41543e-06	3.92752e-07	7.76740e-02	1.54102e-08	1.54915e-08	8.23777e-02	2.87967e-02	1.53811e-08	1.54814e-08	4.31705e-02	1.44196e-02	1.41529e-02	4.56543e-03	1.54541e-08	6.40635e-03	X	X	X	X	X	X	X	X	X	X	X	X	X	X	X	X	



#DISTANCE SETTINGS
A = Detector Channel
A-1	A-2	A-3	A-4	A-5	A-6	A-7	A-8	A-9	A-10	A-11	A-12	A-13	A-14	A-15	A-16	

2.5000e+00	3.0000e+00	2.5000e+00	3.0000e+00	2.0000e+00	3.0000e+00	1.5000e+00	3.0000e+00	3.0000e+00	3.0000e+00	3.0000e+00	3.0000e+00	3.0000e+00	3.0000e+00	1.5000e+00	3.0000e+00	

B = Detector Channel
B-1	B-2	B-3	B-4	B-5	B-6	B-7	B-8	B-9	B-10	B-11	B-12	B-13	B-14	B-15	B-16	

1.0000e+01	1.0000e+01	1.0000e+01	1.4400e+00	1.0000e+01	1.0000e+01	1.5100e+00	1.9400e+00	1.0000e+01	1.0000e+01	1.9900e+00	2.4900e+00	2.4100e+00	2.9000e+00	1.0000e+01	2.9800e+00	




#DATA BEGINS
time	group	step	mark	flag	A-AC1	A-AC2	A-AC3	A-AC4	A-AC5	A-AC6	A-AC7	A-AC8	A-AC9	A-AC10	A-AC11	A-AC12	A-AC13	A-AC14	A-AC15	A-AC16	A-DC1	A-DC2	A-DC3	A-DC4	A-DC5	A-DC6	A-DC7	A-DC8	A-DC9	A-DC10	A-DC11	A-DC12	A-DC13	A-DC14	A-DC15	A-DC16	A-Ph1	A-Ph2	A-Ph3	A-Ph4	A-Ph5	A-Ph6	A-Ph7	A-Ph8	A-Ph9	A-Ph10	A-Ph11	A-Ph12	A-Ph13	A-Ph14	A-Ph15	A-Ph16	B-AC1	B-AC2	B-AC3	B-AC4	B-AC5	B-AC6	B-AC7	B-AC8	B-AC9	B-AC10	B-AC11	B-AC12	B-AC13	B-AC14	B-AC15	B-AC16	B-DC1	B-DC2	B-DC3	B-DC4	B-DC5	B-DC6	B-DC7	B-DC8	B-DC9	B-DC10	B-DC11	B-DC12	B-DC13	B-DC14	B-DC15	B-DC16	B-Ph1	B-Ph2	B-Ph3	B-Ph4	B-Ph5	B-Ph6	B-Ph7	B-Ph8	B-Ph9	B-Ph10	B-Ph11	B-Ph12	B-Ph13	B-Ph14	B-Ph15	B-Ph16	aux-1	digaux	

21265.904	1	1	0	512	0.28522	0.26359	0.14069	0.20616	0.24083	0.069961	0.098732	0.39841	0.079002	0.098936	0.17953	0.098065	0.1479	0.342	0.21516	0.18631	-2.1688	-2.5625	-2.6792	-2.2167	-2.4875	-2.8146	-2.3979	-2.7875	-2.5521	-2.5625	-2.8146	-2.6188	-2.6708	-2.5812	-2.2583	-2.7625	39.408	299.819	228.436	216.166	54.021	309.788	130.494	302.264	184.119	321.850	251.470	66.848	236.102	291.568	50.884	230.517	0.00037286	0.00040791	0.00011869	400.8	4.8934e-06	4.868e-06	520.58	106.01	6.8928e-06	3.9805e-06	180.8	62	32.311	12.283	2.4884e-06	31.066	0.00046345	0.00048367	0.00013282	409.31	5.26e-06	5.2454e-06	525.7	110.77	5.1628e-06	5.2209e-06	185.73	63.254	35.633	13.28	5.2323e-06	31.609	247.442	16.579	211.657	-8.997	152.231	-12.300	-8.963	-3.796	174.685	46.890	-5.079	-0.468	-0.114	4.171	110.486	2.242	-8191	255	
21265.977	1	1	0	0	0.19637	0.22492	0.067595	0.28645	0.10436	0.067676	0.072226	0.11821	0.17624	0.111	0.27871	0.2843	0.17945	0.1187	0.039034	0.20275	-2.2438	-2.3125	-2.7708	-2.2229	-2.4083	-2.8021	-2.4896	-2.5792	-2.5146	-2.4938	-2.9313	-2.3958	-2.5896	-2.8167	-2.4188	-2.7458	224.241	119.809	291.844	262.672	302.540	317.448	63.116	207.322	3.935	286.181	230.857	316.092	301.219	168.783	164.719	195.242	0.00039178	0.00045369	0.00022743	399.34	8.2685e-06	2.6349e-06	517.71	104	5.8322e-06	5.8494e-06	181.31	61.011	32.493	12.327	2.251e-06	31.009	0.000473	0.00048005	0.00013311	407.92	5.2547e-06	5.2817e-06	523.66	110.16	5.2549e-06	5.3392e-06	186.3	62.903	35.393	13.341	5.3218e-06	31.606	274.814	112.912	149.296	-9.234	139.900	173.430	-9.401	-3.916	114.159	79.664	-4.872	-0.328	-0.046	4.149	90.009	2.079	-8191	255	
21266.074	1	1	0	0	0.05903	0.045321	0.13832	0.091715	0.06714	0.21482	0.17774	0.16769	0.19134	0.17309	0.08305	0.13757	0.14371	0.17907	0.12013	0.15343	-2	-2.4375	-2.5146	-2.4479	-2.6063	-2.8937	-2.2958	-2.6896	-2.5104	-2.525	-2.9042	-2.4875	-2.5854	-2.8063	-2.4167	-2.5958	-11.270	210.329	178.966	58.101	192.018	225.774	108.986	251.365	318.177	299.298	122.966	22.502	192.654	-8.004	278.362	213.163	0.00028634	0.00025094	0.00017252	399.01	1.701e-06	5.3042e-06	518.7	105.07	4.4065e-06	6.7221e-06	180.33	60.769	32.341	12.34	3.8587e-06	30.838	0.0004824	0.0004912	0.00013618	407.88	5.3824e-06	5.3941e-06	523.02	110.02	5.3874e-06	5.4364e-06	185.03	62.823	35.576	13.318	5.3892e-06	31.536	299.017	115.381	144.948	-9.583	268.901	336.487	-9.639	-3.757	112.133	238.643	-5.380	-0.237	0.359	3.640	95.834	2.183	-8191	255	
21266.170	1	1	0	0	0.032811	0.20115	0.1007	0.044212	0.17912	0.24071	0.086813	0.1472	0.13831	0.17944	0.15051	0.10073	0.243	0.34376	0.27375	0.12138	-2.3063	-2.2229	-2.7438	-2.4771	-2.4313	-2.8312	-2.4688	-2.3958	-2.75	-2.3771	-2.8542	-2.4646	-2.2271	-2.8	-2.4208	-2.5812	217.544	336.791	240.893	277.332	78.749	245.783	0.930	238.984	207.033	331.975	146.479	283.059	263.573	291.020	166.046	321.212	0.00046152	0.00055191	0.00025128	398.22	5.7129e-06	5.845e-06	518.24	104.88	4.9662e-06	7.7841e-06	180.3	60.64	31.786	12.264	9.1374e-06	31.305	0.0004932	0.00049444	0.00013854	408.14	5.4396e-06	5.4701e-06	523.51	109.84	5.4097e-06	5.3862e-06	185.63	62.916	35.305	13.304	5.3481e-06	31.779	287.461	184.515	88.459	-9.194	310.934	257.144	-9.393	-3.982	144.023	55.926	-5.374	0.074	0.354	3.992	248.029	2.060	-8191	255	
21266.289	1	1	0	0	0.12869	0.20863	0.16738	0.11348	0.14292	0.07353	0.23085	0.18152	0.049879	0.27037	0.37962	0.12262	0.14765	0.1882	0.33735	0.21557	-2.4042	-2.2687	-2.7938	-2.5604	-2.4188	-2.7917	-2.4542	-2.5292	-2.8458	-2.25	-2.7292	-2.6167	-2.2583	-2.7292	-2.3	-2.4667	167.799	64.725	209.525	46.073	74.503	168.456	240.010	148.271	210.285	254.958	276.134	3.277	139.574	294.363	269.998	335.283	0.00030047	0.00055285	0.00033317	396.16	2.4421e-06	1.9272e-06	514.36	103.94	3.7145e-06	4.6426e-06	178.99	60.577	31.911	12.272	2.9077e-06	30.606	0.00048649	0.00049313	0.00013703	407.62	5.3298e-06	5.3646e-06	521.09	109.35	5.3253e-06	5.2555e-06	184.03	62.526	35.098	13.245	5.3471e-06	31.389	261.669	177.417	272.366	-9.174	4.758	46.596	-9.711	-3.544	192.664	151.794	-5.047	0.257	0.595	3.437	61.038	2.397	-8191	255	
21266.385	1	1	0	0	0.32258	0.36411	0.17457	0.11291	0.17537	0.098052	0.25858	0.40282	0.25453	0.29759	0.16232	0.08253	0.086862	0.20792	0.37626	0.1903	-2.2583	-2.3729	-2.4938	-2.5583	-2.3875	-2.7646	-2.6104	-2.4	-2.8937	-2.4042	-2.7375	-2.8208	-2.1625	-2.8583	-2.4208	-2.4313	335.915	71.724	171.420	6.010	228.550	206.788	188.870	250.639	-3.467	-8.268	-20.935	40.933	50.837	286.870	193.708	109.899	0.00028984	0.00024514	9.9049e-05	393.94	5.5923e-06	2.2651e-06	513.57	103.68	8.0538e-06	2.6411e-06	177.99	59.969	31.962	12.119	6.0961e-06	30.821	0.00048879	0.00048983	0.00013827	406.34	5.3795e-06	5.4297e-06	518.73	109.07	5.4162e-06	5.3177e-06	183.01	62.229	35.173	13.189	5.4315e-06	31.409	241.875	107.711	135.905	-9.016	76.455	89.187	-9.477	-3.660	232.222	23.134	-5.141	-0.146	-0.057	3.545	102.514	2.306	-8191	255	
21266.480	1	1	0	0	0.061104	0.25023	0.33141	0.17724	0.093583	0.33777	0.17766	0.31156	0.082501	0.15824	0.21182	0.18281	0.080176	0.076497	0.14053	0.13082	-2.4396	-2.4771	-2.55	-2.5312	-2.4062	-2.7333	-2.5375	-2.4333	-2.8	-2.2958	-2.4625	-2.7229	-2.3458	-2.5812	-2.6188	-2.3396	258.905	109.978	116.622	142.025	13.692	294.033	194.000	278.571	46.080	178.298	233.588	228.346	248.639	163.904	85.178	121.503	0.0002298	0.00050942	7.1846e-05	396.01	9.9895e-07	4.4444e-06	513.15	102.99	4.6639e-06	1.1028e-06	176.64	60.136	31.706	12.054	3.373e-06	30.639	0.00048954	0.00049392	0.00013817	405.84	5.3675e-06	5.4576e-06	519.88	108.71	5.4646e-06	5.3601e-06	182.72	62.358	35.016	13.199	5.4139e-06	31.32	300.446	317.090	55.696	-9.502	174.178	313.255	-9.210	-3.513	234.739	100.603	-5.163	-0.494	0.071	3.971	66.713	2.366	-8191	255	
21266.576	1	1	0	0	0.08024	0.084336	0.28155	0.22317	0.12723	0.26193	0.1478	0.23957	0.14933	0.11259	0.075836	0.20863	0.12395	0.05804	0.2064	0.20449	-2.1917	-2.5083	-2.5854	-2.8083	-2.1708	-2.6979	-2.6146	-2.2938	-2.7188	-2.6854	-2.5354	-2.8875	-2.3604	-2.7167	-2.8667	-2.3333	204.995	183.485	31.344	266.064	175.852	84.935	2.765	290.643	155.554	227.220	95.502	207.278	140.400	118.139	32.486	36.656	0.00021638	0.00015763	0.00010919	394.08	6.7112e-06	1.3431e-06	517.26	103.04	4.1784e-06	4.8621e-06	178.27	60.194	31.804	12.265	3.2484e-06	30.963	0.00048634	0.00049124	0.00013779	405.4	5.2851e-06	5.3871e-06	521.09	108.74	5.3471e-06	5.2647e-06	183.83	62.364	34.816	13.316	5.2701e-06	31.463	278.495	46.802	8.730	-9.357	152.013	271.837	-9.119	-4.290	194.353	-9.540	-5.177	-0.216	0.648	3.347	18.603	2.087	-8191	255	
21266.674	1	1	0	0	0.080278	0.25088	0.039444	0.026286	0.096443	0.070444	0.18509	0.053756	0.18515	0.040741	0.1111	0.069863	0.20296	0.13616	0.13013	0.22472	-2.3417	-2.5312	-2.3354	-2.8937	-2.4875	-2.5521	-2.7729	-2.3896	-2.775	-2.6188	-2.5812	-2.8563	-2.4375	-2.6125	-2.8729	-2.3625	228.149	-6.517	127.459	289.307	40.590	24.245	93.370	283.481	-14.029	208.374	271.475	39.789	87.739	284.174	75.608	-18.546	0.00053991	0.0010722	0.00024356	394.42	2.7824e-06	2.7569e-06	512.82	101.9	4.0271e-06	7.8361e-06	175.32	59.482	31.265	12.161	5.4333e-06	30.328	0.00047851	0.00048259	0.00013592	405.77	5.2219e-06	5.36e-06	517.83	107.58	5.3067e-06	5.2658e-06	181.29	61.509	34.428	13.137	5.3313e-06	30.959	269.334	41.661	139.781	-9.181	84.940	193.585	-9.060	-3.535	18.699	109.844	-4.916	0.039	0.354	4.174	202.507	2.292	-8191	255	
21266.770	1	1	0	0	0.074849	0.040586	0.068598	0.1374	0.14097	0.23312	0.12063	0.15485	0.24658	0.23002	0.12181	0.31294	0.26004	0.27709	0.10776	0.20193	-2.3208	-2.6979	-2.4208	-2.7687	-2.4479	-2.5021	-3.0062	-2.1479	-2.6021	-2.6167	-2.275	-2.7417	-2.4437	-2.2979	-2.7167	-2.4833	226.275	201.154	33.887	313.121	211.066	316.118	316.393	323.883	172.334	-8.719	86.017	118.812	253.507	156.782	162.776	228.567	0.00034047	0.00050656	9.4527e-05	389.6	1.9397e-06	5.2879e-06	505.19	101.14	4.5802e-06	4.3801e-06	173.66	59.024	31.098	11.982	5.2049e-06	30.058	0.00048019	0.00048528	0.00013481	402.12	5.2645e-06	5.3849e-06	513.23	106.3	5.3509e-06	5.3189e-06	179.34	60.944	34.153	12.995	5.3878e-06	30.741	258.991	99.812	56.585	-9.183	23.760	156.445	-9.105	-3.944	100.664	158.357	-5.148	-0.182	0.620	3.902	-17.562	2.636	-8191	255	
21266.891	1	1	0	0	0.17929	0.1929	0.035461	0.17557	0.16452	0.13101	0.16834	0.10887	0.15652	0.26269	0.41078	0.15031	0.16843	0.20746	0.27622	0.32846	-2.4437	-2.5604	-2.2854	-2.6792	-2.45	-2.4021	-2.9104	-2.4896	-2.6188	-2.6979	-2.2604	-2.775	-2.5271	-2.3521	-2.7687	-2.4792	265.926	58.302	91.838	28.550	-21.308	189.657	322.508	317.740	197.728	74.175	-19.967	233.696	114.228	41.405	259.058	285.761	0.00039753	0.00053893	0.00016765	389.12	3.3359e-06	6.8327e-06	503.19	99.935	6.3821e-06	6.3735e-06	172	57.95	30.835	11.887	9.5303e-06	30.154	0.00048757	0.0004852	0.00013557	399.55	5.2684e-06	5.398e-06	510.06	105.78	5.4593e-06	5.3485e-06	177.36	60.213	33.9	12.948	5.3248e-06	30.645	256.497	66.090	29.158	-9.171	195.941	135.496	-9.618	-3.617	202.292	147.961	-4.834	-0.287	0.502	3.699	155.597	2.480	-8191	255	
21266.986	1	1	0	0	0.14416	0.35976	0.16594	0.18641	0.11354	0.08054	0.11172	0.15744	0.26562	0.097027	0.21239	0.10183	0.031635	0.19368	0.15203	0.12659	-2	-2.8042	-2.1937	-2.6854	-2.4354	-2.3208	-2.9979	-2.2771	-2.65	-2.6604	-2.4479	-2.6188	-2.4167	-2.3479	-2.6104	-2.5167	146.583	179.912	252.952	206.595	65.507	195.210	23.789	146.093	177.187	116.734	33.734	258.360	83.774	204.630	102.413	335.737	0.00038587	0.00021458	8.135e-05	386.92	3.2771e-06	4.6227e-06	500.39	99.63	1.1289e-05	1.0627e-05	170.93	58.103	30.81	11.988	6.0388e-06	30.213	0.00048433	0.0004849	0.00013404	397.25	5.2799e-06	5.3732e-06	507.83	104.58	5.2965e-06	5.2608e-06	176.06	59.978	33.734	12.959	5.2199e-06	30.675	280.515	257.061	61.585	-9.213	166.048	87.519	-9.360	-4.256	198.472	86.070	-4.820	-0.142	0.456	3.916	105.609	2.518	-8191	255	
21267.080	1	1	0	0	0.20332	0.11658	0.23245	0.11687	0.051403	0.067775	0.03677	0.088114	0.20772	0.12014	0.1883	0.32351	0.1004	0.17657	0.23741	0.31852	-2.1271	-2.6333	-2.1708	-2.6583	-2.6937	-2.4375	-2.875	-2.4208	-2.2854	-2.7958	-2.2708	-2.7375	-2.5417	-2.4208	-2.7271	-2.55	171.762	321.810	184.803	-22.010	220.701	274.993	310.598	55.883	283.804	102.720	331.829	259.315	144.727	209.959	97.681	270.878	0.00016404	0.00079956	0.00018494	385.73	1.8313e-06	3.2476e-06	500.13	98.54	1.3684e-05	2.0116e-06	168.55	57.164	30.133	11.879	2.5332e-06	29.668	0.00047478	0.00047246	0.00013022	397.08	5.1165e-06	5.1268e-06	505.3	103.81	5.1898e-06	5.178e-06	174.51	59.317	33.237	12.819	5.1895e-06	30.344	258.672	312.130	187.647	-9.081	118.446	181.778	-9.677	-4.092	149.864	150.282	-5.077	0.118	0.672	3.901	266.036	2.373	-8191	255	
21267.201	1	1	0	0	0.37547	0.11243	0.31833	0.078572	0.18164	0.3622	0.32599	0.11548	0.35036	0.17842	0.092549	0.0087205	0.11909	0.2423	0.10843	0.052545	-1.975	-2.8667	-2.3583	-2.6813	-2.6521	-2.3604	-2.875	-2.4437	-2.4375	-2.8042	-2.4188	-2.9	-2.6458	-2.3854	-2.8583	-2.6479	182.406	221.747	5.182	140.099	332.732	125.422	266.717	76.367	218.275	21.147	264.290	163.380	282.016	331.170	258.521	0.928	0.00026898	0.00044721	9.7379e-05	387.52	2.7138e-06	4.7577e-06	494.4	98.21	7.4696e-06	6.7587e-06	166.95	57.123	29.831	12.011	2.1683e-06	29.788	0.00047127	0.00047193	0.00012991	394.53	5.1356e-06	5.2073e-06	501.76	103.38	5.2272e-06	5.2408e-06	172.92	59.211	33.249	12.896	5.3568e-06	30.353	257.920	284.403	293.771	-9.236	301.208	102.081	-9.460	-4.057	230.336	165.500	-4.834	-0.515	0.526	3.689	137.659	2.543	-8191	255	
21267.273	1	1	0	0	0.099575	0.13485	0.047232	0.14536	0.046559	0.12898	0.32533	0.12302	0.17771	0.1986	0.17852	0.1565	0.3859	0.12936	0.31521	0.12824	-1.9021	-2.8042	-2.3146	-2.5979	-2.7521	-2.2417	-2.7562	-2.7667	-2.4542	-2.7667	-2.475	-2.4625	-2.6646	-2.3417	-2.6063	-2.6625	-17.407	311.442	59.036	13.228	270.162	92.472	208.499	214.519	251.855	144.369	336.862	187.080	66.452	330.729	295.881	122.153	0.00019926	0.0004591	6.7233e-05	382.61	3.9374e-06	4.6376e-06	494.71	97.933	6.9017e-06	5.7467e-06	167.57	57.37	29.859	11.876	2.1823e-06	29.841	0.00048543	0.0004906	0.00013542	393.57	5.3515e-06	5.2845e-06	501.28	103.77	5.3566e-06	5.3961e-06	173.91	59.49	33.387	12.903	5.464e-06	30.504	280.722	8.846	124.169	-8.827	182.489	83.901	-9.047	-3.890	94.116	153.409	-5.698	-0.194	0.340	4.227	203.160	2.195	-8191	255	
21267.369	1	1	0	0	0.19347	0.18227	0.18573	0.08345	0.073828	0.098293	0.053917	0.034341	0.32178	0.018217	0.18263	0.12404	0.13363	0.18984	0.026629	0.13276	-1.9062	-2.6854	-2.5583	-2.5187	-2.775	-2.3271	-2.6646	-2.6458	-2.3146	-2.7771	-2.6167	-2.4875	-2.7792	-2.2167	-2.7062	-2.7687	212.229	201.635	222.356	138.263	120.227	237.730	289.997	35.841	42.835	321.145	202.123	182.435	220.967	-4.602	161.538	255.006	0.00026999	0.00073825	5.8367e-05	382.15	5.4657e-06	3.2942e-06	496.75	97.84	7.1167e-06	8.2428e-06	168.54	57.831	30.079	12.117	1.2392e-06	30.298	0.00048702	0.00049792	0.00013824	394.33	5.4847e-06	5.3816e-06	503.45	104.45	5.3574e-06	5.4222e-06	174.82	60.009	33.578	13.018	5.3526e-06	30.87	316.181	125.230	180.515	-8.884	160.613	167.540	-9.315	-3.963	103.961	162.325	-5.030	-0.127	-0.134	3.392	201.670	2.189	-8191	255	
21267.465	1	1	0	0	0.088609	0.35275	0.087475	0.25315	0.21365	0.08672	0.26866	0.22867	0.18066	0.15444	0.17354	0.040867	0.32587	0.12757	0.21637	0.14718	-1.675	-2.7104	-2.45	-2.4229	-2.6875	-2.4917	-2.6583	-2.7521	-2.2604	-2.7917	-2.5271	-2.4	-2.7417	-2.4292	-2.6917	-2.7938	-16.230	149.041	76.744	198.070	41.898	207.895	238.644	323.720	54.992	183.000	260.306	53.121	262.938	57.350	61.153	268.975	0.00011853	0.00027584	0.00029912	387.03	4.3685e-06	9.2401e-06	498.96	98.9	2.0153e-06	1.0114e-05	168.98	57.801	30.1	12.001	9.1842e-06	30.036	0.00047537	0.0004894	0.00013513	397.33	5.279e-06	5.2417e-06	505.71	104.82	5.2771e-06	5.4055e-06	175.49	59.899	33.659	12.994	5.5237e-06	30.588	286.689	0.028	83.967	-8.721	270.766	163.467	-9.065	-4.253	231.667	132.153	-5.415	-0.178	0.542	4.016	77.007	2.303	-8191	255	
21267.586	1	1	0	0	0.12537	0.14512	0.12591	0.22671	0.19563	0.10625	0.092141	0.13199	0.18907	0.2279	0.040189	0.09286	0.16287	0.061719	0.3014	0.1138	-1.7729	-2.5625	-2.5458	-2.3438	-2.8396	-2.425	-2.55	-2.8208	-2.4417	-2.5062	-2.6667	-2.4229	-2.7125	-2.4792	-2.4938	-2.9958	192.182	295.702	179.411	75.665	225.185	233.663	241.582	292.982	229.449	237.981	289.762	296.068	245.621	123.626	277.418	-3.130	0.00021964	0.00048424	3.4448e-05	385.56	5.2389e-06	3.9437e-06	496.71	98.569	6.247e-06	5.8721e-06	169.09	57.432	30.492	12.062	7.0407e-06	29.761	0.00048294	0.0005074	0.00014074	395.55	5.4796e-06	5.4003e-06	504.67	105.08	5.424e-06	5.5396e-06	175.44	59.829	33.837	13.023	5.6331e-06	30.541	261.751	133.293	133.321	-9.413	105.480	320.330	-9.066	-4.258	183.652	49.595	-4.901	-0.209	0.292	3.533	151.392	1.821	-8191	255	
21267.682	1	1	0	0	0.24521	0.20459	0.055975	0.17572	0.071321	0.23288	0.18238	0.11228	0.17056	0.04635	0.3028	0.18759	0.054718	0.20055	0.38669	0.42047	-1.7521	-2.5729	-2.6521	-2.4562	-2.7667	-2.6125	-2.5604	-2.7333	-2.2271	-2.5104	-2.7958	-2.2333	-2.7833	-2.5146	-2.5021	-3.0187	126.872	280.635	104.417	270.738	307.837	173.164	21.106	-1.431	187.360	312.795	329.512	215.915	265.176	118.180	210.840	265.182	0.00029319	0.00028434	6.6743e-05	384.83	7.1204e-06	1.3011e-06	496.2	99.848	6.3526e-06	9.3501e-06	168.49	57.079	30.423	11.996	4.8067e-06	30	0.00049477	0.00050709	0.00014178	396.49	5.6497e-06	5.5419e-06	505.29	105.52	5.5916e-06	5.7076e-06	175.71	59.834	33.937	13.056	5.6765e-06	30.595	268.773	-16.321	245.424	-8.803	122.391	144.095	-9.462	-4.008	89.033	123.620	-4.946	-0.160	0.354	3.594	53.015	2.220	-8191	255	
21267.777	1	1	0	0	0.19457	0.17742	0.078254	0.29291	0.37313	0.25288	0.33077	0.25296	0.36113	0.048194	0.025236	0.18449	0.18683	0.14448	0.36955	0.17088	-2.0667	-2.4188	-2.8375	-2.4813	-2.6979	-2.4375	-2.2333	-2.775	-2.4979	-2.5833	-2.7729	-2.2396	-2.5833	-2.6146	-2.5187	-2.8042	284.680	316.778	280.503	281.432	-6.614	312.653	305.860	-4.628	325.320	112.522	116.582	80.851	157.508	50.041	19.988	319.462	0.00028639	2.308e-05	0.00018269	384.59	9.4389e-07	5.1498e-06	499.43	98.883	1.8e-06	9.3682e-06	170.94	58.076	30.383	11.929	5.9725e-06	30.061	0.00049917	0.00052064	0.00014291	397.95	5.709e-06	5.7001e-06	507.64	105.98	5.5939e-06	5.7199e-06	177.18	60.347	34.031	13.062	5.5723e-06	30.858	260.600	286.262	74.107	-9.529	258.572	164.668	-8.985	-3.976	75.431	271.658	-5.782	-0.308	0.395	3.576	62.131	2.396	-8191	255	
21267.850	1	1	0	0	0.40309	0.11198	0.63662	0.23583	0.052794	0.061622	0.065604	0.076349	0.21444	0.031647	0.20322	0.36862	0.30185	0.30426	0.12005	0.22137	-1.8896	-2.5646	-2.6146	-2.3063	-2.7375	-2.7125	-2.3646	-2.8542	-2.5875	-2.65	-2.6729	-2.1979	-2.6771	-2.6542	-2.3271	-2.5625	118.191	110.713	31.377	-1.944	120.289	241.935	-16.591	267.335	105.367	209.693	262.902	324.195	102.624	3.941	220.296	239.106	0.00024654	0.00041445	0.00010928	389.44	3.0959e-06	3.6431e-06	498.78	100.48	7.6122e-06	9.6714e-06	170.89	57.949	30.783	11.987	4.0231e-06	30.068	0.00049231	0.00050555	0.00013855	400.23	5.509e-06	5.4467e-06	508.21	106.45	5.3568e-06	5.4478e-06	177.42	60.369	34.089	13.05	5.3562e-06	30.686	301.169	190.657	132.649	-9.124	181.182	246.574	-9.421	-4.174	135.305	256.987	-5.396	-0.387	-0.215	4.022	121.071	2.159	-8191	255	
21267.971	1	1	0	0	0.13194	0.02956	0.035915	0.030202	0.056903	0.060866	0.1104	0.047699	0.055523	0.23775	0.16826	0.11217	0.18633	0.13709	0.1802	0.18754	-2.1604	-2.3833	-2.625	-2.3896	-2.5604	-2.8583	-2.3125	-2.8312	-2.4521	-2.4875	-2.9062	-2.3208	-2.5375	-2.6417	-2.2458	-2.8354	182.214	301.216	1.348	185.709	99.041	298.780	284.904	304.198	131.200	3.692	-0.764	75.554	31.321	60.824	167.957	318.736	0.00040207	0.00025576	5.0983e-05	387.99	1.4923e-06	3.2752e-06	500.96	99.907	1.1015e-06	7.8292e-06	171.82	58.097	30.864	12.161	7.5907e-06	29.965	0.00048107	0.00050075	0.0001369	398.35	5.4343e-06	5.4453e-06	506.7	105.88	5.3321e-06	5.3747e-06	176.86	60.296	34.15	13.099	5.3752e-06	30.736	257.993	1.871	140.056	-9.183	261.236	156.459	-9.471	-3.552	29.909	131.341	-5.163	-0.140	0.868	4.028	135.155	2.552	-8191	255	
21268.066	1	1	0	0	0.14263	0.051033	0.22771	0.12865	0.16967	0.16123	0.12955	0.20077	0.094044	0.10135	0.22247	0.31281	0.17126	0.21555	0.053253	0.18971	-1.9458	-2.2229	-2.8583	-2.4167	-2.4917	-2.6292	-2.2875	-2.6375	-2.6	-2.3937	-2.8729	-2.275	-2.375	-2.6771	-2.2188	-2.6312	170.718	167.910	150.525	16.183	319.797	251.319	288.922	9.569	323.086	33.943	326.111	283.529	290.095	188.350	223.688	180.519	0.00032009	0.00041286	0.00016837	388.4	1.6495e-06	1.3705e-06	503.33	101.02	6.8753e-06	7.3511e-06	172.47	57.923	30.819	12.043	7.1178e-06	30.005	0.00049613	0.00050194	0.00013923	400.01	5.5557e-06	5.5482e-06	508.8	106.61	5.4457e-06	5.5021e-06	178.28	60.501	34.315	13.1	5.4157e-06	30.84	255.587	151.732	44.045	-9.195	14.027	30.910	-9.534	-3.631	119.714	67.477	-5.163	-0.221	0.154	3.646	172.135	2.455	-8191	255	
21268.162	1	1	0	0	0.15451	0.15886	0.11279	0.23005	0.075346	0.19721	0.29066	0.27009	0.10179	0.036037	0.076755	0.19959	0.29959	0.17088	0.26364	0.10651	-2.1854	-2.1042	-2.7292	-2.4354	-2.3896	-2.85	-2.3229	-2.5229	-2.6354	-2.3438	-2.8646	-2.4125	-2.3042	-2.7313	-2.4083	-2.5979	154.762	67.516	18.154	247.714	94.814	273.973	197.747	252.297	113.260	175.669	162.342	238.231	301.127	-20.032	173.407	59.540	0.00036832	0.00070254	0.00010582	392.34	7.4429e-06	1.2684e-06	503.68	101.92	4.3518e-06	5.3325e-06	173.21	59.004	31.09	12.177	4.3935e-06	30.259	0.00049461	0.00050417	0.00014066	400.64	5.5146e-06	5.5337e-06	511.18	107.54	5.5254e-06	5.3892e-06	179.27	60.9	34.481	13.197	5.3818e-06	31.023	268.352	108.311	30.010	-9.001	41.981	137.528	-9.073	-3.864	115.942	238.774	-5.559	-0.097	0.285	4.087	142.040	2.446	-8191	255	
21268.281	1	1	0	0	0.20777	0.22106	0.10011	0.16408	0.26048	0.21055	0.16276	0.022349	0.25712	0.022399	0.16188	0.18294	0.20763	0.11471	0.01377	0.067437	-2.3812	-2.1937	-2.7292	-2.5104	-2.15	-2.7646	-2.3417	-2.5021	-2.6937	-2.325	-2.7062	-2.3333	-2.2354	-2.7104	-2.3021	-2.4146	285.145	125.843	83.360	134.834	156.647	197.278	283.211	22.424	182.146	23.067	320.181	62.215	17.863	209.567	113.877	131.135	0.00030968	0.00017299	0.00014991	392.1	3.2474e-06	4.7503e-06	507.03	102.29	4.4116e-06	3.7633e-06	174.7	58.933	31.046	12.132	1.596e-06	30.2	0.00049678	0.00050056	0.00014012	402.87	5.4746e-06	5.4766e-06	513.41	107.93	5.4885e-06	5.458e-06	180.47	60.983	34.647	13.146	5.3646e-06	30.889	277.150	52.188	176.811	-8.596	164.101	158.753	-9.294	-3.650	242.630	42.754	-5.371	0.264	0.272	3.955	-2.611	2.359	-8191	255	
21268.379	1	1	0	0	0.25634	0.27211	0.17557	0.11714	0.035313	0.19677	0.21462	0.085562	0.091716	0.12742	0.19886	0.15633	0.26991	0.16987	0.023684	0.31445	-2.0771	-2.1396	-2.8354	-2.5458	-2.1604	-2.7396	-2.3771	-2.4229	-2.7625	-2.3396	-2.6896	-2.55	-2.4229	-2.9229	-2.4167	-2.4938	31.697	206.362	222.269	52.731	256.009	8.942	144.385	135.655	22.001	286.891	255.941	307.819	333.726	183.430	229.318	125.848	0.00021643	0.00029301	2.6377e-05	393.12	8.752e-06	6.5075e-06	498.71	100.87	4.1866e-06	8.4989e-06	172.67	58.481	31.176	12.086	5.7856e-06	30.147	0.00048877	0.00048701	0.00013845	402.47	5.3983e-06	5.4683e-06	508.44	107.46	5.4899e-06	5.4598e-06	179.31	60.893	34.604	13.129	5.5386e-06	30.873	272.744	261.540	269.969	-9.239	80.556	172.000	-9.679	-3.972	123.223	280.450	-5.051	-0.317	0.436	3.765	186.369	2.001	-8191	255	
21268.475	1	1	0	0	0.16653	0.10978	0.021643	0.27662	0.10043	0.091927	0.050402	0.15228	0.13612	0.021681	0.014325	0.19475	0.082487	0.040839	0.11482	0.098524	-2.25	-2.2417	-2.525	-2.5646	-2.2354	-2.7771	-2.4771	-2.3937	-2.7417	-2.2854	-2.525	-2.6021	-2.2875	-2.5229	-2.6063	-2.4062	243.751	303.184	4.706	202.691	331.120	208.492	301.080	79.300	229.650	-12.662	243.037	245.463	50.182	123.530	8.169	327.484	0.00031725	0.00070339	0.00014969	390.94	2.9021e-06	7.3097e-06	502.32	102.44	1.0978e-06	8.2195e-06	172.65	58.875	30.976	12.185	4.8585e-06	30.08	0.00050271	0.00050297	0.00014296	402.28	5.6008e-06	5.6245e-06	510.73	107.88	5.5817e-06	5.4988e-06	179.16	61.082	34.452	13.193	5.5265e-06	30.821	-13.489	116.131	94.333	-9.149	155.874	95.552	-9.241	-3.617	214.582	162.419	-5.180	0.072	-0.140	3.823	151.219	2.470	-8191	255	
21268.570	1	1	0	0	0.10255	0.077663	0.228	0.41217	0.26741	0.17643	0.008323	0.12878	0.14899	0.12394	0.26155	0.16494	0.13793	0.18203	0.072768	0.072089	-2.3854	-2.3208	-2.6188	-2.4875	-2.2479	-2.7292	-2.65	-2.3271	-2.6958	-2.3854	-2.5792	-2.7188	-2.3438	-2.6396	-2.5563	-2.1792	120.639	294.425	217.185	-11.181	-17.238	235.313	180.740	42.569	-19.991	197.321	-11.792	318.642	-13.007	195.699	269.736	93.998	0.00027949	0.00051034	9.2643e-05	389.14	1.4234e-07	2.5901e-06	506.38	102.65	3.5203e-06	5.2295e-06	173.71	59.291	31.296	12.06	5.9993e-06	30.23	0.00050241	0.00050578	0.00014118	401.98	5.4493e-06	5.5909e-06	512.45	108.01	5.4458e-06	5.4938e-06	180.76	61.218	34.556	13.226	5.4754e-06	30.934	287.220	40.305	-16.968	-8.963	111.562	138.996	-9.093	-4.240	-21.587	227.009	-4.924	-0.311	0.177	4.197	149.134	2.232	-8191	255	
21268.666	1	1	0	0	0.1457	0.080733	0.075607	0.19819	0.31856	0.19637	0.12824	0.17479	0.14636	0.096336	0.1621	0.11385	0.23998	0.23449	0.18078	0.16692	-2.4604	-2.5104	-2.3688	-2.6458	-2.4042	-2.5042	-2.5687	-2.1917	-2.7667	-2.3646	-2.4833	-2.8229	-2.3979	-2.6479	-2.625	-2.3104	144.725	55.061	322.095	205.190	319.811	290.976	158.232	338.416	74.245	215.134	68.089	216.788	247.162	233.350	164.598	185.173	0.00025647	0.00070086	0.00012863	392.88	9.4829e-06	4.8114e-06	507.62	101.68	9.5729e-06	8.4874e-06	173.69	58.398	31.314	12.208	8.8839e-06	30.188	0.00049756	0.00049752	0.00014039	403.39	5.4166e-06	5.5621e-06	516.08	107.68	5.5233e-06	5.5141e-06	179.81	60.888	34.564	13.179	5.5131e-06	30.76	275.381	57.111	326.657	-9.090	150.671	68.265	-9.544	-3.501	73.049	68.592	-5.105	-0.025	0.394	3.658	60.396	2.158	-8191	255	
21268.762	1	1	0	0	0.032424	0.12277	0.069807	0.071773	0.1581	0.21157	0.1822	0.16393	0.098359	0.18877	0.085772	0.072705	0.052567	0.15039	0.21537	0.042885	-2.2812	-2.35	-2.3438	-2.8604	-2.2958	-2.6854	-2.7042	-2.2604	-2.7146	-2.5229	-2.4021	-2.7188	-2.475	-2.5	-2.4938	-2.3458	0.652	73.661	151.701	68.982	-20.925	4.211	292.962	321.028	256.083	75.839	230.534	274.994	35.009	0.779	241.325	40.377	0.00036037	0.00070618	0.00021455	389.54	1.213e-06	4.2915e-06	498.27	102.17	3.3203e-06	4.2325e-06	170.92	58.129	30.978	11.923	4.3477e-06	29.909	0.00050311	0.00050911	0.00014119	400.84	5.4373e-06	5.5965e-06	508.65	107.46	5.53e-06	5.5176e-06	178.24	60.355	34.348	13.075	5.4465e-06	30.625	264.079	72.557	66.302	-8.920	176.469	82.627	-9.620	-4.102	229.651	76.508	-5.114	0.130	0.075	4.361	100.061	2.038	-8191	255	
21268.883	1	1	0	0	0.12558	0.21647	0.1469	0.40723	0.034163	0.20541	0.1633	0.23561	0.15847	0.22437	0.2919	0.07135	0.13319	0.38835	0.13976	0.12777	-2.1063	-2.5229	-2.3812	-2.7375	-2.3375	-2.725	-2.7958	-2.3854	-2.6521	-2.6417	-2.35	-2.8563	-2.4521	-2.5833	-2.6854	-2.4417	72.608	99.732	147.986	311.922	161.976	321.849	323.970	4.513	320.140	293.126	230.295	20.451	158.890	262.558	179.253	52.990	0.0003666	0.00085412	0.00023459	392.57	9.6651e-07	6.5253e-06	502.74	101.36	3.7797e-06	3.0432e-06	172.9	58.74	31.242	12.03	5.5108e-06	30.071	0.00049675	0.00049909	0.00014051	402.77	5.4126e-06	5.5623e-06	510.86	107.19	5.5285e-06	5.4968e-06	178.48	60.659	34.409	13.094	5.418e-06	30.698	287.104	34.340	298.462	-9.252	99.945	133.112	-9.658	-4.140	331.792	242.877	-4.882	-0.259	0.218	3.650	89.921	2.218	-8191	255	
21268.979	1	1	0	0	0.095774	0.11767	0.1147	0.22291	0.31783	0.36213	0.078374	0.077146	0.14924	0.11168	0.19214	0.19412	0.1662	0.17334	0.28059	0.1616	-2.1417	-2.6333	-2.2729	-2.65	-2.475	-2.2854	-2.8042	-2.3083	-2.5771	-2.4854	-2.2583	-2.6688	-2.3875	-2.1937	-2.8521	-2.5833	187.166	278.343	274.435	174.185	181.774	163.397	239.930	254.965	277.748	-15.438	262.832	180.797	213.878	8.908	161.387	234.057	0.00028163	0.00054142	0.00017217	389.05	4.3629e-06	4.9032e-06	503.47	102.43	3.9522e-06	4.5991e-06	172.12	58.342	30.402	12.144	4.2376e-06	30.167	0.00049764	0.00050374	0.00013771	401.23	5.4889e-06	5.5816e-06	509.93	107.46	5.5528e-06	5.51e-06	178.64	60.621	34.266	13.173	5.5313e-06	30.79	260.038	-16.993	93.628	-9.326	105.700	229.838	-9.376	-3.779	259.378	180.045	-5.276	0.166	0.601	3.800	110.833	2.085	-8191	255	
21269.074	1	1	0	0	0.26253	0.22918	0.11314	0.17562	0.20877	0.065099	0.12782	0.18158	0.14413	0.047623	0.16156	0.26666	0.044747	0.09863	0.21078	0.13345	-2.2062	-2.6667	-2.3563	-2.675	-2.575	-2.5729	-2.8083	-2.3833	-2.5125	-2.6979	-2.4	-2.6458	-2.5854	-2.4437	-2.5833	-2.4583	318.431	238.319	104.968	226.717	50.418	314.649	148.775	252.554	245.550	141.104	298.440	255.806	296.052	15.746	269.039	31.807	0.00040459	0.00057253	0.00036493	391.79	3.0188e-06	1.5583e-06	502.74	101.61	9.1228e-06	5.7709e-06	173.16	58.344	31.198	11.983	5.658e-06	29.808	0.00049953	0.00050419	0.00013725	402.46	5.5076e-06	5.5226e-06	511.98	107.53	5.563e-06	5.534e-06	178.74	60.706	34.439	13.075	5.5701e-06	30.528	286.966	73.419	129.120	-9.155	10.884	120.721	-9.253	-3.941	102.403	328.194	-5.169	-0.068	0.140	4.001	141.609	2.298	-8191	255	
21269.146	1	1	0	0	0.10182	0.13499	0.21788	0.1925	0.17599	0.13774	0.34902	0.18895	0.13935	0.17625	0.10906	0.24081	0.080767	0.26143	0.10512	0.042038	-2.1271	-2.6521	-2.1167	-2.5229	-2.4188	-2.2917	-2.6833	-2.4354	-2.4292	-2.7583	-2.2417	-2.7771	-2.7521	-2.2625	-2.6562	-2.4417	5.686	234.608	-4.455	126.598	77.718	283.581	228.479	257.982	17.935	163.901	32.167	302.145	67.413	308.847	53.859	182.012	0.00037436	0.0004082	0.0002484	389.06	2.203e-06	1.0056e-05	499.34	101.1	7.5593e-07	9.3236e-06	172.84	58.481	31.298	12.084	5.8273e-06	29.938	0.00051091	0.00050787	0.00013932	401.61	5.556e-06	5.4759e-06	507.82	106.84	5.4938e-06	5.3688e-06	178.79	60.503	34.28	13.068	5.392e-06	30.583	316.154	118.271	120.833	-9.104	118.834	164.025	-9.495	-4.208	306.223	173.145	-5.079	-0.428	0.251	3.947	127.501	2.020	-8191	255	
21269.266	1	1	0	0	0.097356	0.23025	0.25586	0.073839	0.20081	0.19556	0.32478	0.20395	0.11472	0.23971	0.091135	0.14054	0.24978	0.24319	0.061072	0.14708	-1.8396	-2.7333	-2.325	-2.5938	-2.4854	-2.4062	-2.7542	-2.5417	-2.45	-2.7646	-2.325	-2.5958	-2.6375	-2.3667	-2.525	-2.5687	289.801	170.518	48.448	163.797	104.726	167.083	275.070	6.404	-3.124	304.490	188.066	292.312	294.670	18.282	182.324	146.263	0.00036785	0.00090072	0.00012061	390.34	2.5863e-06	6.2155e-07	504.9	101.93	5.145e-06	1.4094e-05	172.34	58.54	31.057	12.146	3.4428e-06	30.049	0.00048782	0.00049172	0.00013504	401.64	5.3154e-06	5.3199e-06	511.31	107.41	5.316e-06	5.3745e-06	179.27	60.719	34.32	13.142	5.5207e-06	30.748	301.909	67.902	68.454	-9.074	195.519	168.337	-9.211	-4.022	122.349	7.682	-4.875	-0.290	0.153	3.566	238.237	2.216	-8191	255	
21269.361	1	1	0	0	0.13532	0.26687	0.076281	0.15237	0.23675	0.16027	0.053785	0.15299	0.16168	0.28573	0.16613	0.052578	0.32734	0.12211	0.11993	0.21496	-1.9396	-2.7396	-2.1396	-2.5896	-2.625	-2.3312	-2.8771	-2.3875	-2.1979	-2.8896	-2.3833	-2.5771	-2.7271	-2.0646	-2.5812	-2.5146	160.517	167.114	189.069	285.522	190.622	133.935	316.697	299.986	204.175	111.001	212.162	254.880	292.302	269.074	296.762	-13.082	4.6795e-05	0.00027791	9.533e-05	389.77	4.1966e-06	3.4999e-06	501.39	101.59	5.2829e-06	9.3141e-06	171.94	58.2	30.907	12.119	7.3793e-07	30.131	0.0004956	0.0004995	0.00013902	402.04	5.6029e-06	5.515e-06	509.95	107.32	5.5519e-06	5.5851e-06	178.48	60.66	34.414	13.17	5.6605e-06	30.749	243.748	284.007	144.357	-9.117	240.552	178.739	-9.671	-3.785	277.327	196.314	-5.337	-0.136	-0.035	4.012	29.079	2.200	-8191	255	
21269.457	1	1	0	0	0.12854	0.11717	0.27539	0.16536	0.12392	0.15526	0.179	0.14123	0.092517	0.18457	0.24183	0.13813	0.072615	0.19707	0.1948	0.015685	-1.8979	-2.6396	-2.3958	-2.4979	-2.7708	-2.5292	-2.7458	-2.4667	-2.35	-2.7417	-2.5479	-2.3708	-2.7	-2.2625	-2.6021	-2.5875	89.725	186.015	-21.839	-19.477	79.978	-7.027	318.464	182.400	193.558	320.172	274.329	332.300	73.313	138.957	275.178	227.054	0.00040426	0.00042167	8.8024e-05	391.43	6.759e-07	7.2031e-06	503.67	102.75	6.0751e-06	2.8272e-06	174.53	58.409	31.319	11.998	6.3231e-06	29.9	0.00050912	0.00051405	0.00014192	402.8	5.4954e-06	5.4567e-06	512.31	107.84	5.4942e-06	5.5495e-06	179.53	60.672	34.633	13.085	5.6018e-06	30.648	306.504	175.704	226.747	-9.338	156.008	104.252	-9.551	-3.890	32.534	11.939	-5.303	-0.158	0.661	4.006	61.370	2.231	-8191	255	
21269.555	1	1	0	0	0.09893	0.0030692	0.17606	0.13457	0.10271	0.2484	0.15138	0.13281	0.049684	0.28723	0.08863	0.12744	0.031549	0.20087	0.098619	0.12704	-1.7646	-2.7333	-2.5583	-2.375	-2.7771	-2.4375	-2.5646	-2.6333	-2.2313	-2.775	-2.5917	-2.2896	-2.8042	-2.2667	-2.625	-2.6896	123.388	-19.525	156.130	-18.748	81.755	326.989	233.099	230.347	119.493	277.616	111.504	178.853	233.130	329.057	111.772	333.552	0.00036858	0.00032607	0.00014926	389.08	3.3788e-06	3.0956e-06	500.31	102.06	1.9769e-06	3.4014e-06	169.79	57.322	30.835	11.931	7.7142e-06	29.455	0.00049715	0.00050621	0.00014064	400.79	5.4804e-06	5.4876e-06	507.95	106.72	5.3883e-06	5.5446e-06	176.48	59.773	34.097	12.988	5.6082e-06	30.301	260.666	190.801	133.758	-9.221	146.815	123.023	-9.412	-3.737	116.517	219.337	-4.970	-0.511	0.263	3.528	126.576	2.546	-8191	255	
21269.650	1	1	0	0	0.10904	0.020337	0.12476	0.24476	0.13698	0.015367	0.24258	0.27736	0.29229	0.011747	0.1109	0.19567	0.15009	0.18405	0.16603	0.071102	-1.8417	-2.6042	-2.4375	-2.375	-2.7792	-2.2958	-2.6167	-2.6813	-2.2396	-2.7667	-2.5021	-2.0646	-2.6375	-2.5125	-2.3521	-2.7708	205.143	274.817	139.448	304.728	169.761	54.904	336.280	332.742	192.733	193.492	-14.163	301.286	246.606	147.263	272.316	217.801	0.00047524	0.00046756	0.00017683	388.64	3.809e-06	4.5049e-06	499.48	99.872	2.3279e-06	9.7222e-06	168.57	56.479	30.42	11.806	1.5192e-06	29.343	0.00049614	0.00051536	0.00014053	400.44	5.6389e-06	5.5623e-06	505.85	105.86	5.49e-06	5.6715e-06	175.31	59.184	33.867	12.929	5.5947e-06	30.207	257.176	154.470	93.908	-9.271	241.380	126.456	-9.491	-3.769	93.425	96.295	-5.007	-0.015	0.425	3.491	159.555	2.118	-8191	255	
21269.746	1	1	0	0	0.065802	0.078375	0.24806	0.028942	0.054678	0.14944	0.08764	0.10281	0.33561	0.083691	0.069313	0.20772	0.091847	0.24583	0.18023	0.1339	-1.8646	-2.55	-2.625	-2.4104	-2.6854	-2.3271	-2.3875	-2.6521	-2.2188	-2.6208	-2.7125	-2.2542	-2.5854	-2.6125	-2.4333	-2.6167	234.001	149.585	18.619	247.300	57.323	269.474	334.043	211.811	170.439	335.827	13.650	37.777	118.644	301.882	90.132	323.395	0.0004128	0.00078161	0.0002612	387.35	7.6298e-07	2.3844e-06	493.22	99.105	4.3505e-06	2.2259e-06	168.46	56.876	29.957	11.768	3.365e-06	29.853	0.00049323	0.00051517	0.00014119	397.87	5.608e-06	5.5258e-06	502.83	105.19	5.4314e-06	5.5587e-06	174.04	59.192	33.552	12.869	5.4517e-06	30.226	298.959	36.682	141.926	-9.274	83.137	215.335	-9.222	-3.883	256.538	30.765	-4.564	-0.023	0.504	3.956	150.506	2.330	-8191	255	
21269.844	1	1	0	0	0.26788	0.26477	0.14165	0.21666	0.27405	0.05768	0.10451	0.11107	0.086797	0.26116	0.12896	0.31639	0.16244	0.096407	0.19623	0.12062	-1.8208	-2.5583	-2.6875	-2.3104	-2.8083	-2.5167	-2.375	-2.7146	-2.4146	-2.4417	-2.7354	-2.2833	-2.5938	-2.4604	-2.2667	-2.7958	331.987	129.791	163.561	328.771	228.552	6.396	209.695	2.948	137.763	126.678	-6.676	236.342	153.772	143.700	117.821	5.259	0.00019736	0.00057214	0.00014302	385.62	2.1173e-06	1.2838e-07	495.52	98.997	4.142e-06	6.8146e-06	166.93	56.385	29.944	11.773	3.7019e-06	29.411	0.00048028	0.00050482	0.00013664	395.89	5.4536e-06	5.3917e-06	503.35	104.64	5.3202e-06	5.4572e-06	172.91	58.737	33.454	12.795	5.4121e-06	29.959	317.347	3.727	253.111	-9.002	308.642	252.074	-9.296	-3.921	167.365	-1.341	-4.822	0.046	0.139	4.129	128.024	2.577	-8191	255	
21269.963	1	1	0	0	0.22731	0.082563	0.20498	0.17226	0.1478	0.22022	0.044859	0.13883	0.25807	0.1085	0.25216	0.16142	0.12619	0.12993	0.082438	0.080657	-2.0146	-2.4208	-2.825	-2.3875	-2.6688	-2.5104	-2.2646	-2.7104	-2.3333	-2.4458	-2.6771	-2.4	-2.5042	-2.5333	-2.3812	-2.575	307.643	56.270	315.827	289.022	21.028	303.550	333.799	304.640	60.515	213.995	158.561	206.308	226.309	195.366	235.334	246.923	0.00017199	0.00055724	0.00028939	379.53	1.8308e-06	4.1567e-06	493.87	96.765	4.8994e-06	4.456e-06	163.81	55.33	29.494	11.588	6.1498e-06	28.977	0.00048741	0.00049778	0.00013628	393.33	5.4533e-06	5.3811e-06	496.51	103.03	5.3368e-06	5.3426e-06	169.82	57.588	32.844	12.63	5.2365e-06	29.623	273.262	12.335	121.978	-8.968	87.531	121.944	-9.584	-4.282	195.450	115.613	-4.887	-0.270	0.230	3.960	155.549	2.466	-8191	255	
21270.059	1	1	0	0	0.057666	0.12021	0.14523	0.22789	0.099575	0.26897	0.10592	0.31442	0.13529	0.083773	0.19985	0.048853	0.24126	0.21075	0.22545	0.058848	-1.9917	-2.3604	-2.7208	-2.3479	-2.5521	-2.5604	-2.1813	-2.8042	-2.4042	-2.6917	-3	-2.3937	-2.4042	-2.5875	-2.2292	-2.625	120.891	131.616	41.186	274.744	278.063	334.268	42.543	270.079	221.087	73.182	21.909	210.670	16.398	251.123	249.709	147.445	0.00031827	0.00055887	0.00015325	382	6.2555e-06	3.2771e-06	485.3	97.048	6.114e-06	5.9786e-06	161.96	55.381	28.776	11.505	8.0931e-06	28.647	0.00047242	0.00048709	0.00013244	391.43	5.3822e-06	5.3073e-06	493.12	102.71	5.2746e-06	5.368e-06	169.08	57.59	32.711	12.656	5.4924e-06	29.571	292.802	232.454	107.137	-9.230	128.102	102.139	-9.455	-3.408	160.250	147.718	-5.152	-0.156	-0.152	4.128	170.261	2.166	-8191	255	
21270.154	1	1	0	0	0.22239	0.34606	0.20382	0.14645	0.23861	0.10254	0.30076	0.14459	0.10953	0.26353	0.17681	0.018736	0.20526	0.2162	0.29201	0.49543	-2.1813	-2.3354	-2.7271	-2.3479	-2.6104	-2.8208	-2.4062	-2.7729	-2.6271	-2.4875	-2.6125	-2.5229	-2.725	-2.7792	-2.3292	-2.7812	113.685	13.897	177.620	109.017	11.665	-4.907	115.910	226.581	-19.224	279.865	69.319	176.124	10.887	207.676	289.953	187.973	0.00031657	0.00034216	0.00010806	375.58	4.1323e-06	5.8398e-07	483.41	96.483	4.1918e-06	5.4606e-06	162.53	54.629	29.445	11.644	8.2957e-06	29.003	0.00049557	0.00050956	0.00014221	388.37	5.6154e-06	5.6288e-06	491.57	102.73	5.5764e-06	5.578e-06	168.79	57.501	32.824	12.724	5.5404e-06	29.712	274.229	330.678	162.538	-9.537	144.806	-17.040	-9.334	-3.753	130.779	186.870	-5.086	-0.705	0.801	3.674	200.692	2.299	-8191	255	
21270.252	1	1	0	0	0.027849	0.1759	0.30596	0.11441	0.18639	0.039319	0.10725	0.18164	0.26925	0.075092	0.25438	0.12548	0.11393	0.021019	0.10574	0.32083	-2.1521	-2.2854	-2.7208	-2.4938	-2.4542	-2.8375	-2.4708	-2.7417	-2.6667	-2.3917	-2.8312	-2.4	-2.3292	-2.8625	-2.3542	-2.5979	215.779	253.349	209.970	285.983	278.929	172.533	58.215	256.410	183.430	184.967	228.553	253.545	273.873	68.968	331.790	297.074	0.00026536	0.00055901	0.00025416	377.3	2.2872e-06	8.3499e-07	481.09	96.012	3.4071e-06	5.7101e-06	163.08	55.648	29.473	11.732	8.241e-06	29.076	0.00050182	0.00050827	0.00014203	389.36	5.5944e-06	5.5433e-06	491.55	102.82	5.5697e-06	5.5296e-06	169.65	57.976	33.003	12.784	5.5273e-06	29.816	-16.401	107.853	166.625	-9.299	270.280	152.737	-9.631	-4.081	68.766	228.072	-5.116	-0.142	0.998	4.048	101.245	2.237	-8191	255	
21270.371	1	1	0	0	0.22111	0.072773	0.26723	0.14099	0.0091754	0.17934	0.14618	0.1754	0.1824	0.20642	0.19461	0.1215	0.33974	0.22843	0.28039	0.32118	-2.1458	-2.1958	-2.6958	-2.4792	-2.3708	-2.7938	-2.2562	-2.6708	-2.6479	-2.3042	-2.5896	-2.5187	-2.3479	-2.8875	-2.4354	-2.4542	-2.491	139.471	190.697	172.901	286.218	250.039	320.960	313.048	336.728	236.532	194.154	29.309	307.474	195.203	155.570	302.123	0.00045942	0.00048899	0.00010951	375.95	6.132e-06	3.2e-06	487.83	97.407	9.7788e-06	8.58e-06	162.97	54.656	29.338	11.604	2.6773e-06	29.001	0.00050009	0.00050807	0.0001416	389.79	5.5506e-06	5.587e-06	492.01	103.24	5.4893e-06	5.4783e-06	169.74	57.642	32.82	12.742	5.4148e-06	29.816	315.716	246.938	140.289	-9.110	-3.203	191.485	-9.480	-4.004	192.658	117.744	-5.543	-0.246	0.104	4.113	80.421	2.499	-8191	255	
21270.441	1	1	0	0	0.10733	0.089267	0.086163	0.15889	0.22113	0.1775	0.20069	0.077683	0.12899	0.29317	0.17128	0.33064	0.23646	0.26371	0.26717	0.076102	-2.1167	-2.3	-2.8063	-2.4688	-2.3167	-2.8438	-2.4333	-2.6167	-2.7417	-2.0917	-2.6792	-2.4688	-2.1917	-2.725	-2.4625	-2.5021	296.228	70.165	35.669	229.609	221.772	159.579	322.388	92.760	82.258	201.570	277.331	27.805	94.481	274.226	303.718	85.717	0.00020743	0.0005455	1.1737e-05	380.11	3.6706e-06	4.3078e-06	485.83	98.02	4.1474e-06	6.0145e-06	162.97	55.519	29.918	11.698	5.2984e-06	29.117	0.00048437	0.00049432	0.00013916	390.82	5.4368e-06	5.4662e-06	492.79	103.5	5.4157e-06	5.4297e-06	170.86	58.136	33.166	12.839	5.4365e-06	29.997	270.440	80.566	127.116	-8.954	278.269	252.271	-9.589	-3.260	173.969	211.381	-5.176	-0.375	0.166	4.085	192.011	2.293	-8191	255	
21270.562	1	1	0	0	0.052832	0.0217	0.042216	0.12203	0.041439	0.057531	0.056462	0.40309	0.23789	0.12375	0.073482	0.24101	0.23844	0.11878	0.11173	0.3366	-2.2271	-2.3583	-2.5917	-2.75	-2.25	-2.8229	-2.3896	-2.2854	-2.6937	-2.3646	-2.5812	-2.6625	-2.4792	-2.7667	-2.7354	-2.4188	32.856	62.065	29.704	212.588	222.363	152.546	285.648	287.543	92.333	147.055	319.235	335.599	226.753	5.534	15.097	203.961	0.00036129	0.00045736	0.0002588	380.93	6.8158e-06	6.6198e-07	488.78	98.234	3.0668e-06	4.732e-06	165.86	56.717	30.185	11.799	1.2099e-05	29.232	0.00049475	0.00049901	0.00014116	392.53	5.4228e-06	5.5525e-06	494.99	104.25	5.5189e-06	5.4523e-06	172.41	58.882	33.534	12.936	5.7045e-06	30.098	288.689	99.933	0.123	-8.854	109.575	152.757	-9.414	-4.008	201.533	146.109	-5.160	-0.176	-0.001	3.963	164.049	2.041	-8191	255	
21270.658	1	1	0	0	0.17987	0.15654	0.089306	0.051948	0.082141	0.13086	0.11593	0.18547	0.29261	0.36142	0.25348	0.089789	0.27029	0.037563	0.038031	0.061662	-2.2958	-2.3583	-2.6479	-2.7708	-2.2896	-2.9083	-2.6292	-2.3771	-2.5583	-2.3396	-2.525	-2.6021	-2.3563	-2.7938	-2.5146	-2.2854	66.844	92.933	279.234	268.939	295.409	226.522	325.198	336.522	95.664	87.070	259.724	273.289	15.021	-5.305	182.597	291.182	0.00023325	0.00017589	0.00012785	381.19	7.291e-06	2.5644e-06	489.51	99.402	7.8424e-06	8.2926e-06	166.17	56.64	30.422	11.766	9.012e-06	29.305	0.0005202	0.00052468	0.00015022	395.37	5.7617e-06	5.9137e-06	499.42	105.72	5.8005e-06	5.8119e-06	173.73	59.182	33.898	12.999	5.7045e-06	30.217	252.030	22.463	34.914	-8.800	328.051	85.322	-9.392	-3.906	43.959	229.961	-4.861	-0.620	-0.186	3.581	180.562	2.214	-8191	255	
21270.756	1	1	0	0	0.1471	0.25009	0.14031	0.13873	0.28805	0.064833	0.13225	0.21241	0.20659	0.21242	0.06126	0.31276	0.23886	0.047253	0.23237	0.30412	-2.2833	-2.3208	-2.5792	-2.6708	-2.4	-2.7	-2.6896	-2.2042	-2.6396	-2.2938	-2.525	-2.9896	-2.3458	-2.6271	-2.6708	-2.175	207.985	31.651	279.076	306.574	283.176	267.038	95.867	294.337	80.350	121.347	213.248	271.686	215.975	25.601	120.215	241.936	0.00014208	0.00052711	0.00015171	385.58	6.8173e-06	7.4853e-06	489.72	98.83	1.0616e-05	3.7584e-06	166.45	56.559	30.31	11.833	4.7418e-06	28.918	0.00051726	0.00052329	0.0001482	396.61	5.7029e-06	5.8461e-06	498.64	105.2	5.6603e-06	5.6919e-06	173.71	58.988	33.89	12.941	5.7371e-06	29.865	299.082	128.331	100.914	-9.566	51.250	167.542	-9.094	-3.938	130.465	92.758	-5.174	-0.434	0.575	3.991	57.366	2.143	-8191	255	
21270.852	1	1	0	0	0.2009	0.059135	0.19497	0.34218	0.35756	0.31439	0.26451	0.19904	0.17972	0.27801	0.10992	0.2281	0.11163	0.065524	0.16235	0.14127	-2.3208	-2.4688	-2.4146	-2.7292	-2.4229	-2.6	-2.7521	-2.3438	-2.8063	-2.3958	-2.3229	-2.8625	-2.4729	-2.4729	-2.7229	-2.4562	314.410	313.776	279.381	15.453	109.093	336.095	240.795	186.980	300.442	213.014	28.249	60.467	77.103	144.669	106.814	4.371	0.00037153	0.00067069	8.2152e-05	383.06	6.2774e-06	6.2316e-06	490.34	99.029	7.3839e-06	7.8678e-06	166.08	56.631	30.34	11.874	4.4128e-06	29.067	0.00052246	0.00052962	0.0001454	396.34	5.6951e-06	5.7721e-06	499.02	105.41	5.6968e-06	5.6781e-06	173.15	58.939	33.839	12.933	5.5059e-06	30.008	269.312	305.486	38.894	-8.910	160.731	155.625	-9.357	-3.962	190.152	74.615	-4.826	-0.367	-0.161	4.133	298.182	2.198	-8191	255	
21270.973	1	1	0	0	0.074744	0.15011	0.096388	0.27665	0.091656	0.083721	0.10317	0.1721	0.093995	0.17071	0.12747	0.17222	0.075044	0.15815	0.23457	0.08023	-2.2104	-2.5792	-2.5438	-2.8146	-2.4542	-2.5333	-2.8917	-2.2042	-2.6208	-2.6667	-2.45	-2.7354	-2.4271	-2.475	-2.6167	-2.3583	337.462	100.105	202.948	245.225	55.057	254.038	240.390	9.702	170.391	250.609	260.944	21.701	40.399	332.187	147.958	33.921	0.00016312	0.00018447	9.4298e-05	385.02	4.7115e-06	9.7946e-07	493.09	99.928	2.888e-06	1.3354e-06	167.12	57.032	30.296	11.911	1.3856e-06	29.389	0.00050626	0.00049979	0.00013994	398.22	5.516e-06	5.5738e-06	501.12	105.91	5.5745e-06	5.515e-06	174.07	59.365	34.006	13.037	5.5426e-06	30.22	264.741	28.529	38.106	-9.096	258.957	82.575	-9.254	-4.002	97.899	274.423	-5.257	-0.375	0.625	3.798	115.599	1.944	-8191	255	
21271.045	1	1	0	0	0.2027	0.033169	0.11643	0.12323	0.22048	0.10869	0.18842	0.20546	0.2324	0.02282	0.33189	0.31979	0.10319	0.10586	0.095741	0.013351	-2.1208	-2.5146	-2.2271	-2.6958	-2.5396	-2.5354	-2.7458	-2.3479	-2.6083	-2.65	-2.4313	-2.9146	-2.4104	-2.5333	-2.9354	-2.3521	148.618	117.001	28.113	329.448	156.490	311.544	309.240	287.656	177.040	279.950	330.212	4.850	130.835	25.257	99.433	49.103	0.00022925	0.00041384	0.00017841	386.99	6.7227e-06	7.3026e-06	493.45	102.21	3.9377e-06	4.1722e-06	169.15	57.156	30.885	12.061	1.8566e-06	29.894	0.0005068	0.00050985	0.00014016	399.09	5.5083e-06	5.6341e-06	503.91	107.21	5.5267e-06	5.4971e-06	175.84	59.861	34.269	13.053	5.3989e-06	30.483	294.412	71.780	77.954	-9.304	130.060	304.776	-9.256	-3.990	27.542	10.409	-4.803	-0.126	0.384	4.032	107.060	2.201	-8191	255	
21271.141	1	1	0	0	0.018007	0.15154	0.22716	0.2187	0.2104	0.1521	0.18118	0.047409	0.13733	0.21688	0.18238	0.2072	0.14116	0.12686	0.14363	0.21188	-2.1792	-2.6833	-2.2729	-2.7625	-2.4688	-2.3333	-2.8937	-2.1312	-2.5667	-2.825	-2.2479	-2.8208	-2.4771	-2.4854	-2.8354	-2.5729	136.849	195.597	311.376	276.186	150.160	123.853	130.095	336.074	91.217	68.392	77.872	25.500	280.065	84.880	120.346	5.816	0.00024699	0.00091062	0.00012105	387.32	8.431e-06	6.716e-06	499.18	100.71	1.2639e-06	6.975e-06	170.65	56.801	30.89	11.964	2.9314e-06	29.307	0.00049192	0.0004973	0.00013643	399.39	5.323e-06	5.3311e-06	503.95	106.67	5.4678e-06	5.3737e-06	175.35	59.39	34.065	12.977	5.4117e-06	30.06	295.631	113.701	68.956	-9.262	68.030	205.390	-9.421	-4.020	197.871	144.576	-5.103	-0.347	-0.020	3.911	315.585	2.216	-8191	255	
21271.234	1	1	0	0	0.073281	0.27247	0.085703	0.25737	0.015105	0.039104	0.26016	0.18443	0.12659	0.34238	0.41567	0.26158	0.14839	0.088904	0.1271	0.11867	-2.2354	-2.7875	-2.3083	-2.8604	-2.6146	-2.2271	-2.7646	-2.4604	-2.4646	-2.9167	-2.4896	-2.8271	-2.4958	-2.6021	-2.9625	-2.3875	206.425	-8.978	264.201	312.374	111.737	100.798	213.649	309.033	61.730	236.914	295.441	158.651	192.978	85.713	299.764	260.867	0.00034856	0.00058303	8.4117e-05	387.75	3.5234e-06	4.8158e-06	496.24	100.75	5.6866e-06	3.5827e-06	169.23	57.5	30.97	12.084	6.0665e-06	29.645	0.00049427	0.00049739	0.00013701	399.57	5.3651e-06	5.4333e-06	502.4	106.58	5.4503e-06	5.4129e-06	175.33	59.829	34.261	13.049	5.4422e-06	30.238	323.202	160.761	302.489	-8.952	23.580	49.296	-9.373	-3.805	151.827	253.493	-5.162	-0.794	0.226	3.660	287.095	2.613	-8191	255	
21271.332	1	1	0	0	0.22342	0.24073	0.13601	0.22795	0.21794	0.013382	0.30294	0.12049	0.097085	0.26541	0.27614	0.16716	0.10164	0.078728	0.084214	0.15236	-2.1042	-2.7167	-2.3417	-2.6229	-2.6021	-2.3958	-2.8167	-2.6333	-2.6208	-2.6729	-2.3229	-2.5563	-2.7167	-2.2938	-2.55	-2.5583	-10.760	85.354	34.045	337.821	337.853	8.147	80.868	262.086	10.275	220.635	297.141	-11.776	61.553	123.284	-9.833	247.033	0.00025013	0.00054117	0.00025461	390.65	7.9893e-06	5.3308e-07	496.11	101.61	5.1111e-06	2.03e-06	171.49	57.467	31.103	12.114	6.9379e-06	29.588	0.00048922	0.00049212	0.00013606	401.83	5.3732e-06	5.3649e-06	504.9	107.21	5.4666e-06	5.4502e-06	176.76	60.083	34.415	13.145	5.5006e-06	30.449	281.514	14.833	33.679	-8.983	114.252	307.747	-9.263	-4.057	114.171	141.626	-4.872	0.130	0.599	3.946	256.761	2.027	-8191	255	
21271.451	1	1	0	0	0.26476	0.26417	0.18786	0.38507	0.13343	0.16611	0.36211	0.29738	0.24999	0.23679	0.11868	0.4031	0.088319	0.25251	0.19889	0.29459	-2.0542	-2.6917	-2.4521	-2.6188	-2.725	-2.4562	-2.9375	-2.725	-2.3667	-2.8167	-2.4333	-2.4437	-2.8021	-2.4021	-2.6542	-2.7958	228.922	-14.399	298.550	249.892	-12.610	30.969	301.495	300.781	208.467	184.117	199.773	258.257	161.442	258.239	178.872	-20.520	0.00036257	0.00050095	9.409e-05	393.15	2.6929e-06	2.9561e-06	500.5	103.19	5.0117e-06	3.6696e-06	171.84	58.367	31.523	12.189	7.4663e-06	30.2	0.00050134	0.00049926	0.00013743	402.46	5.4371e-06	5.384e-06	507.89	108.06	5.4571e-06	5.4055e-06	177.82	60.643	34.634	13.158	5.4308e-06	30.674	271.506	106.533	51.233	-8.974	195.274	43.533	-9.272	-4.237	199.887	69.701	-4.971	-0.288	0.839	3.988	196.896	2.274	-8191	255	
21271.547	1	1	0	0	0.22761	0.27173	0.14901	0.25081	0.20906	0.097744	0.23442	0.22154	0.14313	0.3661	0.19872	0.10217	0.27363	0.18909	0.12116	0.25525	-2.0917	-2.6896	-2.3479	-2.5167	-2.7667	-2.3	-2.7438	-2.6542	-2.3292	-2.8167	-2.5354	-2.4771	-2.6354	-2.4292	-2.7292	-2.7687	285.600	184.393	238.303	267.742	234.776	92.678	289.691	308.463	177.719	258.337	271.526	226.328	244.318	280.278	314.892	29.209	0.00015716	0.00037754	0.00014444	391.64	1.0199e-05	1.9253e-06	499.33	101.48	2.6444e-06	7.3477e-06	170.91	57.451	31.042	11.97	9.093e-06	29.679	0.00049453	0.00050293	0.00013736	402.99	5.4492e-06	5.4292e-06	506.82	107.43	5.3816e-06	5.4371e-06	175.84	59.924	34.452	13.025	5.4901e-06	30.276	237.579	71.254	34.511	-9.325	141.249	216.794	-9.096	-3.772	47.312	40.456	-5.176	-0.676	0.885	4.393	331.919	2.365	-8191	255	
21271.643	1	1	0	0	0.3071	0.1384	0.09052	0.18075	0.27118	0.025835	0.17865	0.15548	0.17224	0.035451	0.33958	0.077232	0.069541	0.14449	0.21629	0.13155	-1.9083	-3.0479	-2.3438	-2.3479	-2.8521	-2.2667	-2.5812	-2.6125	-2.1917	-2.9104	-2.5417	-2.4708	-2.8229	-2.4854	-2.5854	-2.8646	-6.417	59.549	14.673	257.151	8.415	243.783	323.362	270.248	120.559	178.764	130.512	231.584	266.564	124.665	269.658	280.836	0.00055166	0.00032491	3.2868e-05	388.99	3.9022e-06	5.6971e-06	496.43	102.36	2.9888e-06	6.6422e-06	169.55	57.002	31.283	12.015	5.6378e-06	29.715	0.00049054	0.00050504	0.00013818	400.84	5.4935e-06	5.4699e-06	503.4	107.65	5.3041e-06	5.4585e-06	176.49	59.799	34.378	13.038	5.3203e-06	30.352	283.745	24.030	130.336	-9.254	169.857	188.234	-9.560	-3.973	143.709	58.326	-5.126	-0.520	1.004	3.831	53.257	2.228	-8191	255	
21271.738	1	1	0	0	0.029907	0.15859	0.27124	0.17448	0.094953	0.28242	0.41098	0.31537	0.2061	0.21899	0.034485	0.24477	0.15303	0.039182	0.060264	0.18355	-1.8167	-2.8563	-2.7	-2.4062	-2.6708	-2.4062	-2.6042	-2.7938	-2.3792	-2.8375	-2.5396	-2.3771	-2.7104	-2.6	-2.6312	-2.6771	76.230	-8.558	172.702	333.621	314.344	0.400	243.292	320.195	77.398	93.260	120.727	316.884	220.069	201.398	89.243	276.129	0.00034209	0.00021723	0.00014495	394.25	2.782e-06	2.5664e-06	500.76	102.8	7.9326e-06	2.0272e-06	172.65	58.459	31.265	12.134	5.2934e-06	29.869	0.00047419	0.00048702	0.00013207	402.32	5.2659e-06	5.2043e-06	508.78	108.13	5.1923e-06	5.2733e-06	177.92	60.371	34.579	13.158	5.379e-06	30.533	286.493	164.982	159.032	-9.176	129.495	66.438	-9.390	-4.021	186.292	88.065	-5.620	-0.328	0.279	3.758	272.256	2.135	-8191	255	
21271.836	1	1	0	0	0.17085	0.19797	0.073333	0.094189	0.12546	0.22863	0.12253	0.034133	0.049129	0.04591	0.18701	0.16146	0.23001	0.14354	0.13875	0.25322	-2.1333	-2.5375	-2.7708	-2.4	-2.8438	-2.4104	-2.5375	-2.8833	-2.475	-2.7125	-2.7938	-2.3083	-2.7167	-2.4	-2.4917	-2.9354	199.324	135.054	200.219	157.567	220.082	164.171	143.198	98.995	170.092	9.571	14.602	80.735	332.554	93.352	148.205	313.580	0.00031708	0.00089343	0.00028509	393.67	1.1253e-06	2.3926e-06	503.41	102.4	3.5006e-06	9.5884e-06	172.04	58.028	31.08	12.142	4.7276e-06	29.633	0.00048103	0.00049663	0.00013623	403.05	5.4454e-06	5.3933e-06	508.07	108.17	5.4243e-06	5.5042e-06	177.65	60.387	34.666	13.165	5.5215e-06	30.4	273.676	57.294	34.089	-9.113	291.903	19.026	-9.355	-4.071	162.051	210.458	-4.873	-0.247	0.394	3.926	45.054	2.290	-8191	255	
21271.932	1	1	0	0	0.20361	0.13311	0.04921	0.15678	0.15833	0.091901	0.054803	0.26171	0.10584	0.20975	0.14921	0.27681	0.22643	0.22977	0.14717	0.26223	-1.9292	-2.6396	-2.6	-2.4375	-2.7458	-2.5583	-2.3375	-2.7896	-2.3229	-2.5458	-2.7167	-2.3979	-2.5312	-2.5292	-2.2542	-2.6854	209.577	305.405	120.526	-7.065	270.087	222.057	237.350	214.038	199.082	308.241	167.977	57.388	240.800	332.578	221.458	300.276	0.00047278	0.00066566	0.00016033	391.53	3.3269e-06	6.2972e-06	495.6	102.16	2.536e-07	4.0624e-06	169.75	57.065	31.076	12.038	8.9033e-06	29.289	0.00049936	0.00051085	0.00014096	402.31	5.6037e-06	5.4325e-06	505.12	107.73	5.4748e-06	5.5414e-06	175.8	59.618	34.318	13.04	5.5702e-06	30.013	298.815	87.139	329.801	-9.001	291.209	171.596	-9.163	-3.765	246.924	304.774	-5.027	-0.600	0.385	3.409	272.377	2.318	-8191	255	
21272.053	1	1	0	0	0.17079	0.097883	0.25261	0.13386	0.226	0.15914	0.10825	0.23804	0.19603	0.13127	0.066846	0.21191	0.20649	0.22143	0.10944	0.18349	-1.9833	-2.6083	-2.5833	-2.2229	-2.6229	-2.5708	-2.3458	-2.6583	-2.3833	-2.5375	-2.8333	-2.2812	-2.6021	-2.6792	-2.3229	-2.6437	190.950	-13.858	129.355	114.347	170.449	233.678	209.852	114.213	92.143	285.133	187.498	64.331	143.173	149.393	236.850	182.095	0.00027771	0.00028675	0.00017676	386.3	3.8147e-06	1.3093e-06	495.22	100.94	9.8156e-06	5.2671e-06	169.41	57.015	31.265	12.014	4.3496e-06	29.257	0.00049166	0.00050608	0.00013857	400.13	5.5104e-06	5.4177e-06	503.4	107.26	5.448e-06	5.5304e-06	175.62	59.468	34.471	13.02	5.5071e-06	30.099	290.673	32.689	77.559	-9.115	-19.798	158.095	-9.013	-3.663	201.709	140.017	-5.441	-0.485	-0.079	3.751	186.955	2.300	-8191	255	
21272.146	1	1	0	0	0.17765	0.37651	0.039418	0.28147	0.24571	0.16408	0.042698	0.22592	0.2171	0.13558	0.051187	0.24947	0.18881	0.024698	0.22086	0.056314	-2.0333	-2.5292	-2.5542	-2.3833	-2.7687	-2.6792	-2.3625	-2.8042	-2.5604	-2.4333	-2.7958	-2.3979	-2.3521	-2.6479	-2.1229	-2.8854	321.983	34.949	40.114	300.651	-12.287	-10.111	45.418	279.274	170.364	86.483	245.011	9.983	293.649	122.208	98.567	185.172	0.00034266	0.00026772	0.00021092	390.27	7.4265e-06	5.277e-06	498.61	102.3	5.6535e-06	4.7804e-06	169.52	57.649	31.316	12.034	7.7081e-06	29.46	0.00049005	0.00049922	0.00013931	401.4	5.5315e-06	5.4485e-06	505.15	107.81	5.5003e-06	5.5094e-06	175.77	59.766	34.535	13.125	5.4803e-06	30.269	284.214	63.973	26.454	-9.110	333.809	157.406	-9.469	-3.940	35.513	178.289	-4.792	-0.363	1.084	4.022	94.516	2.363	-8191	255	
21272.242	1	1	0	0	0.11612	0.22398	0.16939	0.35161	0.13396	0.14259	0.10744	0.29324	0.22409	0.23852	0.1757	0.06388	0.0782	0.23387	0.23468	0.057114	-2.2687	-2.2917	-2.6937	-2.3063	-2.4667	-2.9042	-2.4229	-2.9375	-2.5542	-2.4208	-2.9062	-2.3667	-2.6625	-2.7771	-2.2833	-2.8271	263.242	228.849	323.264	260.151	257.813	334.580	26.485	-18.173	145.866	13.848	88.934	233.373	207.807	173.303	247.372	213.100	0.00029872	0.00064634	5.535e-05	390.41	8.4369e-06	4.1079e-06	497.85	102.24	3.839e-06	5.9033e-06	171.23	57.484	31.016	12.081	2.9776e-06	29.577	0.0004946	0.0005006	0.00014003	400.65	5.5654e-06	5.4955e-06	505.4	107.92	5.5244e-06	5.5067e-06	177.28	59.957	34.533	13.131	5.5139e-06	30.391	303.059	332.768	200.840	-9.195	224.245	165.678	-9.221	-3.878	295.340	180.506	-4.987	0.077	-0.109	4.146	115.092	2.322	-8191	255	
21272.340	1	1	0	0	0.31726	0.063685	0.093203	0.32804	0.045631	0.094488	0.035383	0.081927	0.25804	0.16727	0.16732	0.20128	0.21123	0.1598	0.13632	0.16241	-2.0729	-2.4833	-2.95	-2.4521	-2.3667	-2.9813	-2.4729	-2.5917	-2.5667	-2.4396	-2.7354	-2.3937	-2.4375	-2.6208	-2.2333	-2.6146	334.116	122.950	223.411	81.734	239.740	195.613	286.816	50.598	11.344	226.445	13.526	-18.793	32.361	49.110	-20.102	316.377	0.00016732	0.00077624	0.00012708	391.36	2.8252e-06	4.2965e-06	500.18	103.01	1.1597e-06	5.105e-06	170.3	57.033	31.443	12.11	8.0166e-06	29.314	0.00049638	0.00050165	0.00014055	401.59	5.4705e-06	5.461e-06	505.62	108.05	5.4155e-06	5.4142e-06	175.88	59.689	34.449	13.079	5.4168e-06	30.033	279.238	68.383	233.823	-9.151	187.321	145.695	-9.560	-4.263	209.852	63.462	-5.342	0.097	0.399	3.893	98.488	2.207	-8191	255	
21272.436	1	1	0	0	0.21811	0.032932	0.11054	0.29532	0.21093	0.075746	0.066863	0.10961	0.23912	0.26082	0.08791	0.045418	0.21344	0.03471	0.033987	0.28826	-2.1104	-2.1125	-2.7792	-2.5292	-2.4896	-2.8354	-2.3854	-2.6604	-2.7062	-2.2687	-2.65	-2.4208	-2.4021	-2.7313	-2.4729	-2.5854	63.201	333.083	295.283	303.850	256.654	299.990	1.241	303.066	27.935	255.194	235.095	269.871	20.976	70.580	121.467	5.476	0.00046681	0.00037722	0.00013972	386.86	3.6412e-06	2.5414e-06	494.07	101.87	1.0405e-05	8.0056e-06	169.59	57.267	30.992	12.001	4.9923e-06	29.216	0.00049881	0.00049682	0.00013978	398.38	5.5385e-06	5.4571e-06	501.47	107.3	5.4842e-06	5.488e-06	175.78	59.357	34.369	13.092	5.3955e-06	29.915	294.127	326.203	165.894	-9.261	190.334	160.889	-9.644	-3.972	146.604	121.396	-4.857	-0.543	0.195	4.009	143.861	2.550	-8191	255	
21272.531	1	1	0	0	0.14949	0.10166	0.12491	0.1643	0.087489	0.16409	0.27502	0.23052	0.064829	0.034729	0.077695	0.1372	0.28367	0.072405	0.14286	0.15179	-2.4667	-2.2021	-2.7625	-2.5354	-2.3229	-2.6521	-2.3646	-2.5854	-2.8021	-2.425	-2.6917	-2.5208	-2.2521	-2.7479	-2.4313	-2.475	72.561	103.014	158.861	174.355	250.163	128.122	261.983	245.093	277.291	297.107	245.226	276.510	5.077	160.507	50.201	294.796	0.00052659	0.00054802	7.4059e-05	391.62	2.6887e-06	5.2731e-06	497.06	101.47	6.4141e-06	1.7396e-06	167.95	57.009	31.172	12.131	4.0329e-06	29.149	0.00048954	0.00048624	0.00013757	400.44	5.3929e-06	5.4065e-06	502.13	107.19	5.3136e-06	5.3156e-06	174.44	59.465	34.195	13.116	5.3703e-06	30	301.628	77.682	-9.673	-8.984	158.469	5.232	-9.024	-3.825	212.212	73.128	-5.130	0.037	0.264	3.336	134.808	1.886	-8191	255	
21272.629	1	1	0	0	0.22884	0.051826	0.21962	0.17255	0.23328	0.16207	0.18661	0.11325	0.12118	0.052255	0.10479	0.24869	0.23289	0.18026	0.19202	0.11677	-2.3042	-2.2396	-2.4792	-2.6417	-2.2021	-2.8083	-2.4708	-2.4167	-2.6354	-2.4125	-2.4792	-2.4979	-2.1417	-2.8125	-2.6333	-2.5563	254.020	154.235	288.336	100.633	11.172	311.092	125.908	110.899	120.487	-17.049	2.691	269.348	10.914	16.295	174.854	258.623	0.00025703	0.00087679	0.0001496	389.42	3.0421e-07	3.6546e-06	492.45	100.7	1.6654e-06	5.0002e-06	166.49	56.571	30.552	11.962	6.4935e-06	29.128	0.00048983	0.00049024	0.00013745	400.29	5.4297e-06	5.4947e-06	501.26	106.4	5.5235e-06	5.4172e-06	173.35	59.019	33.82	12.991	5.4351e-06	29.961	276.259	87.692	51.563	-9.414	3.830	248.993	-9.288	-4.190	109.206	274.357	-5.277	-1.275	0.815	3.992	57.226	2.102	-8191	255	
21272.748	1	1	0	0	0.16376	0.1897	0.055395	0.067721	0.11403	0.066103	0.024882	0.0746	0.14143	0.1964	0.18639	0.15757	0.24513	0.29576	0.084741	0.18241	-2.4104	-2.1937	-2.6646	-2.7083	-2.2729	-2.7375	-2.5417	-2.3521	-2.8792	-2.3646	-2.5583	-2.5062	-2.2708	-2.775	-2.5542	-2.2	273.915	70.351	66.521	248.862	175.132	52.302	125.139	262.671	305.252	281.748	-17.184	330.961	118.639	155.598	310.683	243.969	0.00035706	0.00044579	0.00018529	388.42	2.9445e-06	1.9846e-06	490.98	100.64	3.8977e-06	3.8324e-06	165.38	56.336	30.029	11.748	5.863e-06	28.969	0.00048784	0.00049327	0.00013861	398.36	5.339e-06	5.4159e-06	499.64	105.56	5.3406e-06	5.2924e-06	171.58	58.28	33.452	12.829	5.3219e-06	29.596	260.194	193.592	222.243	-9.127	-1.472	92.827	-9.396	-3.957	337.109	106.415	-5.002	-0.422	0.392	4.394	129.984	1.751	-8191	255	
21272.844	1	1	0	0	0.074368	0.30352	0.074245	0.15664	0.11878	0.15764	0.15538	0.26286	0.13598	0.11964	0.25257	0.22043	0.27927	0.15632	0.14218	0.312	-2.3396	-2.1979	-2.5583	-2.8479	-2.4979	-2.4646	-2.5333	-2.2125	-2.6729	-2.6458	-2.475	-2.5875	-2.1833	-2.7417	-2.5896	-2.3271	195.643	55.158	295.252	249.934	269.313	188.350	175.125	171.554	112.253	252.507	118.324	157.112	28.509	106.870	249.678	263.650	0.00020505	0.00050825	8.7691e-05	386.86	4.1967e-06	3.8619e-06	482.43	99.092	5.5375e-06	3.8089e-06	163.41	55.905	30.296	11.894	4.2626e-06	28.824	0.00048322	0.00048151	0.00013599	395.22	5.2592e-06	5.3244e-06	493.23	104.55	5.2676e-06	5.1897e-06	169.41	57.874	33.295	12.821	5.2386e-06	29.404	263.000	250.453	12.628	-9.272	107.936	281.186	-9.490	-4.252	310.556	188.437	-4.383	-0.283	0.061	3.451	114.982	2.027	-8191	255	
21272.916	1	1	0	0	0.24955	0.27349	0.19767	0.23802	0.3801	0.18255	0.062041	0.43509	0.18474	0.26622	0.19014	0.24302	0.29095	0.1077	0.072551	0.17883	-2.3875	-2.3646	-2.3729	-2.8167	-2.4417	-2.6896	-2.6437	-2.4562	-2.7417	-2.7042	-2.4896	-2.875	-2.3563	-2.7979	-2.7188	-2.425	148.325	221.105	256.236	297.927	283.160	171.391	-12.116	286.539	281.417	84.349	46.623	59.948	206.422	151.421	194.890	268.366	0.0001417	0.00034906	0.00016208	383.29	2.7177e-06	3.6417e-06	487.53	99.033	9.9352e-06	3.5647e-06	163.92	55.122	30.413	11.815	8.7463e-06	28.93	0.00047107	0.00047315	0.00013271	393.62	5.1437e-06	5.239e-06	493.25	103.68	5.1797e-06	5.1965e-06	169.4	57.591	33.236	12.733	5.2084e-06	29.395	319.964	152.366	77.629	-9.287	109.557	310.402	-9.384	-3.916	203.209	162.475	-5.303	-0.267	-0.020	3.259	2.741	2.029	-8191	255	
21273.012	1	1	0	0	0.45346	0.25432	0.22832	0.23349	0.3839	0.26118	0.12387	0.26074	0.25159	0.20694	0.13563	0.25386	0.11717	0.18726	0.16932	0.20347	-2.425	-2.5417	-2.3458	-2.7208	-2.4667	-2.5396	-2.6896	-2.2792	-2.7375	-2.6	-2.4292	-2.6958	-2.3979	-2.5792	-2.7771	-2.3708	27.234	319.546	-7.425	305.823	231.917	328.077	3.877	234.181	194.759	93.239	112.787	329.942	49.388	-4.790	64.831	329.741	0.00026557	0.00071564	0.0002	378.91	3.1885e-06	2.5533e-06	484.32	98.084	3.4129e-06	4.4636e-06	162.58	55.672	29.921	11.775	6.4137e-06	28.729	0.00047179	0.00047584	0.00013337	391.17	5.1736e-06	5.2762e-06	492.19	103.44	5.1866e-06	5.2174e-06	168.7	57.799	33.179	12.786	5.318e-06	29.458	299.152	89.700	49.480	-9.453	9.410	245.380	-9.028	-3.808	239.851	251.596	-4.742	0.059	0.536	3.384	125.389	2.416	-8191	255	
21273.131	1	1	0	0	0.057327	0.096527	0.23095	0.034524	0.022023	0.094293	0.14561	0.18152	0.10063	0.14756	0.18529	0.22236	0.044726	0.21272	0.18109	0.34284	-2.3458	-2.525	-2.1333	-2.65	-2.4271	-2.3521	-2.8396	-2.4125	-2.7979	-2.7146	-2.4021	-2.7438	-2.4188	-2.4125	-2.8187	-2.4	272.591	163.496	59.388	75.422	332.365	247.811	276.555	27.548	19.683	152.297	179.061	45.280	219.162	-6.552	302.844	256.413	0.00039284	0.00010551	0.00021521	381.46	2.011e-06	8.3282e-07	488.37	97.779	8.3801e-06	1.1006e-05	161.53	55.217	29.764	11.774	9.3234e-06	28.728	0.00048336	0.00048551	0.00013451	392.38	5.2045e-06	5.3096e-06	491.96	103.5	5.2582e-06	5.2502e-06	167.71	57.497	33.029	12.726	5.257e-06	29.328	297.443	156.568	92.960	-9.009	313.667	291.426	-9.567	-3.702	153.717	92.264	-5.862	-0.317	0.192	3.288	237.195	2.442	-8191	255	
21273.227	1	1	0	0	0.12052	0.31108	0.16159	0.16603	0.28264	0.28962	0.11949	0.26275	0.1088	0.052904	0.18823	0.18977	0.46918	0.17394	0.21416	0.15842	-2.0958	-2.5625	-2.3479	-2.8396	-2.4667	-2.4792	-2.8583	-2.3063	-2.3896	-2.7896	-2.2167	-2.6562	-2.5812	-2.2958	-2.8208	-2.3688	62.213	82.717	233.827	270.063	308.870	321.662	333.066	-9.274	209.883	50.875	337.696	234.085	2.642	144.146	109.910	272.940	0.00021864	0.00055557	5.6323e-06	379.38	4.6134e-06	5.8864e-06	478.67	97.784	3.1765e-06	8.5909e-06	161.35	55.15	29.989	11.898	5.0966e-06	28.736	0.00048153	0.00047965	0.00013375	390.1	5.1897e-06	5.2823e-06	485.41	102.87	5.2749e-06	5.2895e-06	167.25	57.254	33.099	12.774	5.2644e-06	29.388	274.067	173.397	65.697	-8.915	337.086	224.380	-9.398	-3.842	159.776	329.132	-4.839	-0.285	0.222	3.622	101.736	2.184	-8191	255	
21273.324	1	1	0	0	0.17591	0.29677	0.2133	0.25779	0.044595	0.23417	0.15356	0.14548	0.10066	0.24945	0.19582	0.11488	0.12738	0.12129	0.077534	0.26043	-2.2521	-2.7188	-2.1979	-2.5333	-2.5208	-2.3625	-2.9271	-2.3229	-2.6021	-2.6583	-2.3063	-2.6458	-2.6021	-2.1437	-2.5958	-2.4396	326.686	300.455	-4.256	278.642	167.889	21.778	254.070	217.160	57.993	158.149	33.773	5.952	-17.239	235.325	161.817	321.897	0.00028891	0.00075959	1.0255e-05	379.28	2.437e-07	4.2663e-06	483.17	98.176	8.0147e-06	3.7819e-06	160.3	55.211	30.014	11.788	4.1631e-06	28.722	0.00048134	0.00047999	0.00013291	390.41	5.2452e-06	5.3394e-06	488.25	103.45	5.3439e-06	5.3905e-06	167.44	57.501	33.251	12.841	5.4293e-06	29.419	259.685	154.283	30.668	-9.157	268.559	6.987	-9.608	-3.893	182.914	62.246	-5.450	-0.439	0.223	4.035	131.502	2.142	-8191	255	
21273.443	1	1	0	0	0.19789	0.20706	0.11273	0.21137	0.041683	0.094384	0.11146	0.1382	0.23721	0.061394	0.14875	0.19703	0.016074	0.3762	0.012966	0.22576	-2.0083	-2.6833	-2.1229	-2.6958	-2.5958	-2.6	-3.0021	-2.375	-2.4458	-2.9146	-2.5271	-2.4437	-2.6917	-2.4354	-2.9396	-2.45	-6.787	45.104	214.946	329.358	266.311	290.514	203.126	-3.537	331.682	194.077	203.583	161.765	244.981	12.575	-18.181	322.409	0.00040339	0.00065328	0.00014182	379.21	5.3786e-06	4.3015e-06	478.01	98.613	2.8022e-06	4.1967e-06	162.77	55.534	30.146	11.833	5.8367e-06	28.995	0.00049806	0.00049613	0.00013583	390.49	5.4204e-06	5.428e-06	487.87	103.91	5.3945e-06	5.4927e-06	168.21	57.904	33.474	12.845	5.498e-06	29.593	303.599	231.165	188.770	-8.967	104.977	147.787	-9.492	-3.768	311.088	31.114	-5.330	-0.172	0.056	4.228	114.504	1.754	-8191	255	
21273.539	1	1	0	0	0.11683	0.071183	0.23887	0.040766	0.056882	0.34288	0.070905	0.097231	0.12974	0.083326	0.35532	0.42358	0.30245	0.1798	0.12345	0.1557	-1.9208	-2.8354	-2.2979	-2.5917	-2.7229	-2.2271	-2.6708	-2.4625	-2.3271	-2.6771	-2.425	-2.475	-2.6208	-2.3063	-2.7167	-2.5479	309.077	39.770	76.405	80.608	81.243	128.108	281.787	113.626	-8.472	186.952	230.397	260.755	0.765	217.273	315.181	289.540	0.00024508	0.000456	2.4865e-05	377.15	3.9067e-06	3.8152e-06	478.49	97.156	1.4533e-06	1.0205e-05	161.76	54.697	29.802	11.654	4.2787e-06	28.638	0.00049539	0.00049947	0.00013899	392.15	5.436e-06	5.4681e-06	488.19	103.42	5.5326e-06	5.5689e-06	168.3	57.578	33.394	12.805	5.6819e-06	29.42	280.060	79.190	233.987	-9.209	66.810	167.311	-9.257	-4.072	214.392	114.605	-4.948	-0.294	0.121	3.800	115.234	1.929	-8191	255	
21273.611	1	1	0	0	0.15445	0.15341	0.20899	0.026401	0.10905	0.26355	0.13075	0.037944	0.15235	0.2855	0.27187	0.049616	0.32614	0.16214	0.17432	0.10127	-1.9104	-2.6	-2.4479	-2.5083	-2.9062	-2.4229	-2.6854	-2.4521	-2.5208	-2.8063	-2.6063	-2.575	-2.6813	-2.2875	-2.6396	-2.6604	194.170	133.779	122.734	-20.730	283.623	65.169	-20.036	132.508	-1.290	-16.657	274.386	50.163	333.836	85.064	275.925	182.044	0.0001879	0.00053894	0.00027128	377.35	5.4579e-06	3.0056e-06	476.64	97.769	5.5521e-06	3.4917e-06	159.12	54.773	29.749	11.584	7.1237e-06	28.17	0.00050779	0.00051894	0.00014237	391.88	5.6839e-06	5.6393e-06	486.38	103.52	5.6299e-06	5.752e-06	167.23	57.224	33.48	12.771	5.8557e-06	29.164	285.827	83.843	160.503	-9.126	92.633	110.463	-9.491	-4.068	75.052	271.342	-5.307	-0.360	0.034	3.561	55.046	2.197	-8191	255	
21273.732	1	1	0	0	0.1543	0.18567	0.14841	0.18157	0.091739	0.12846	0.19637	0.33108	0.023194	0.31732	0.051515	0.18633	0.16314	0.14742	0.091682	0.11395	-1.9021	-2.8021	-2.5375	-2.4146	-2.7188	-2.3937	-2.5	-2.5312	-2.3	-2.7646	-2.6063	-2.6354	-3.0542	-2.3146	-2.4729	-2.6896	18.044	293.259	332.513	274.937	229.386	324.766	250.047	159.838	226.955	238.964	56.026	237.527	-12.389	142.716	133.963	257.325	0.00042656	0.00049593	0.00018253	379.79	1.5593e-06	6.8192e-06	479.71	98.406	6.4644e-06	7.2843e-06	161.89	54.922	30.177	11.771	6.5341e-06	28.467	0.00052253	0.00052907	0.00014625	393.16	5.705e-06	5.6502e-06	488.07	104.56	5.6404e-06	5.7325e-06	169.09	57.597	33.735	12.869	5.7823e-06	29.37	273.355	138.438	184.822	-8.853	85.966	97.586	-9.904	-4.122	294.878	-9.779	-5.248	-0.291	0.891	3.176	90.716	1.810	-8191	255	
21273.828	1	1	0	0	0.32919	0.10389	0.12274	0.088598	0.28682	0.27113	0.40122	0.057419	0.16233	0.2737	0.32937	0.090819	0.20439	0.14498	0.18581	0.12042	-1.9729	-2.7292	-2.6	-2.4229	-2.7729	-2.4	-2.5021	-2.85	-2.3354	-2.55	-2.5604	-2.3542	-2.7604	-2.4521	-2.4396	-2.5354	315.378	41.946	257.454	92.403	132.177	85.934	316.181	41.448	316.890	16.551	299.250	32.385	301.586	81.873	88.728	-0.899	0.00023534	0.00018656	0.00022621	380.85	2.7715e-06	5.0442e-06	479.38	97.848	6.4876e-06	6.6724e-06	162.22	55.236	30.454	11.794	3.3416e-06	28.476	0.00051346	0.00053826	0.00014765	394.46	5.8035e-06	5.7924e-06	490.45	104.61	5.7516e-06	5.8847e-06	169.89	57.985	33.962	12.926	5.9929e-06	29.437	275.892	90.060	70.195	-8.872	119.004	238.099	-9.401	-3.794	195.634	242.943	-5.114	-0.293	0.129	3.696	149.733	2.126	-8191	255	
21273.926	1	1	0	0	0.11769	0.092623	0.14933	0.13368	0.20456	0.28145	0.24044	0.02113	0.13831	0.11967	0.14624	0.25281	0.26897	0.14948	0.14396	0.1851	-1.8583	-2.625	-2.5542	-2.4167	-2.6021	-2.3937	-2.3792	-2.6604	-2.25	-2.6937	-2.6813	-2.3438	-2.6813	-2.4583	-2.4979	-2.8229	169.428	156.328	167.992	305.925	101.781	104.931	233.170	261.976	29.096	81.055	150.697	230.351	31.480	323.437	-2.352	217.684	0.00033134	0.00027874	7.9244e-05	380.6	1.2153e-06	3.2761e-06	480.23	98.365	3.9767e-06	5.8696e-06	162.28	55.383	30.215	11.692	1.0081e-05	28.434	0.00053225	0.00055599	0.00015314	394.67	5.9978e-06	5.9597e-06	492.13	105.34	5.9381e-06	6.086e-06	170.36	58.008	34.164	12.895	6.0341e-06	29.37	292.130	104.120	22.174	-9.202	93.984	325.812	-9.329	-3.893	197.840	187.641	-5.205	0.033	-0.506	4.311	142.644	1.870	-8191	255	
21274.045	1	1	0	0	0.16317	0.12663	0.099397	0.30318	0.17334	0.2214	0.28898	0.2308	0.066049	0.085258	0.21842	0.3508	0.085953	0.11347	0.32342	0.33474	-1.9417	-2.65	-2.6729	-2.4771	-2.8125	-2.4958	-2.6021	-2.7917	-2.2771	-2.6312	-2.6125	-2.4313	-2.7292	-2.625	-2.3812	-2.7208	310.747	27.380	68.729	284.537	148.499	126.416	294.685	181.856	1.472	89.619	142.682	292.819	100.048	264.840	2.193	205.947	0.0002321	0.00040518	0.00018342	380.18	5.59e-06	3.31e-06	474.26	97.75	3.731e-06	5.8552e-07	159.9	54.685	29.877	11.552	6.6311e-06	28.19	0.00052344	0.00054865	0.00015161	394.09	5.9175e-06	5.8422e-06	487.15	104.75	5.7651e-06	5.9187e-06	168.91	57.436	33.674	12.83	5.8892e-06	29.154	269.803	16.125	-0.430	-9.054	90.398	268.022	-9.416	-3.727	148.998	325.238	-5.553	-0.178	0.509	3.995	58.627	2.219	-8191	255	
21274.141	1	1	0	0	0.061692	0.30777	0.23249	0.14408	0.18227	0.10032	0.022708	0.17185	0.22011	0.20643	0.18674	0.2276	0.19735	0.0666	0.18739	0.12297	-1.8146	-2.5583	-2.6229	-2.1625	-2.6167	-2.7271	-2.4958	-2.9646	-2.4854	-2.5083	-2.7646	-2.2021	-2.4938	-2.5708	-2.4	-2.7625	80.147	311.403	254.191	326.952	237.089	111.119	316.593	198.040	277.168	262.997	295.313	49.963	166.556	174.590	16.242	65.151	0.00023685	0.00057444	0.00037763	382.2	5.3109e-06	3.096e-06	477.38	98.812	6.5451e-06	1.9823e-07	162.48	55.142	30.345	11.859	3.1826e-06	28.663	0.00052259	0.00054037	0.00014753	393.74	5.7668e-06	5.7572e-06	489.4	104.75	5.5883e-06	5.7597e-06	169.35	57.497	33.755	12.917	5.5846e-06	29.416	294.440	306.736	68.937	-9.167	74.353	211.443	-9.397	-3.550	151.327	196.299	-5.132	-0.226	-0.220	4.085	242.248	1.840	-8191	255	
21274.213	1	1	0	0	0.23643	0.089486	0.33893	0.11619	0.10739	0.21467	0.070308	0.078217	0.21825	0.11016	0.2301	0.17035	0.22248	0.12265	0.10168	0.32427	-2.0083	-2.5104	-2.8542	-2.2021	-2.9021	-2.7833	-2.1167	-2.6458	-2.6542	-2.2375	-2.7542	-2.2521	-2.5438	-2.8187	-2.3583	-2.675	270.292	128.428	194.821	204.777	106.097	43.223	231.967	76.292	184.709	275.584	26.457	259.599	303.229	151.633	-16.550	288.156	0.0003351	0.00050093	0.000132	383.63	5.2119e-06	3.4303e-07	478.8	99.431	4.8486e-06	6.4442e-06	162.97	54.709	30.274	11.735	6.3436e-06	28.579	0.00050318	0.00052005	0.00014437	394.72	5.7415e-06	5.7078e-06	489.39	105.28	5.7024e-06	5.7249e-06	170.25	57.694	33.883	12.89	5.7048e-06	29.524	281.779	273.060	66.377	-9.263	90.263	196.922	-9.833	-3.834	322.091	28.487	-5.241	0.031	0.026	3.785	217.247	2.420	-8191	255	
21274.309	1	1	0	0	0.13956	0.32894	0.14481	0.21956	0.31378	0.10045	0.10674	0.1455	0.29968	0.097945	0.094139	0.12201	0.37945	0.050588	0.27267	0.20794	-2.025	-2.2	-2.7729	-2.4938	-2.5646	-2.7458	-2.2479	-2.6937	-2.5083	-2.5042	-2.7729	-2.6667	-2.5792	-2.8479	-2.3812	-2.7938	44.171	307.510	273.931	30.348	227.745	13.962	260.509	267.698	275.715	63.263	-16.494	53.762	242.044	266.863	97.321	237.059	0.00038908	0.00039888	0.00015817	380.4	5.7313e-06	2.5282e-06	479.73	98.995	8.1804e-07	4.751e-06	162.1	55.063	30.112	11.676	3.7987e-06	28.535	0.00051944	0.00053512	0.00014744	395.41	5.8356e-06	5.8289e-06	490.05	105.75	5.8375e-06	5.8794e-06	170.37	57.761	33.959	12.88	5.6643e-06	29.4	275.670	291.181	116.926	-9.113	281.935	79.234	-9.358	-3.631	246.599	57.364	-4.846	0.029	0.344	4.094	51.852	2.185	-8191	255	
21274.428	1	1	0	0	0.25439	0.30552	0.10387	0.091505	0.2562	0.24106	0.28811	0.081712	0.26032	0.25517	0.23143	0.23753	0.093949	0.26517	0.044836	0.12347	-2.1521	-2.1625	-2.7562	-2.4542	-2.6583	-2.7354	-2.5125	-2.7354	-2.5417	-2.2188	-2.7583	-2.5271	-2.4333	-2.7417	-2.4333	-2.5375	141.096	230.238	-5.493	158.735	232.518	163.608	331.198	205.912	262.832	-2.720	168.621	247.475	333.539	310.196	135.486	224.138	0.00018981	0.00024729	0.00022731	381.25	5.1504e-06	3.8017e-06	477.81	98.466	5.0375e-06	5.9674e-06	162.42	54.757	30.124	11.545	7.5087e-06	28.231	0.00052078	0.00052478	0.00014387	394.71	5.6784e-06	5.6545e-06	488.19	104.79	5.5974e-06	5.5995e-06	168.94	57.299	33.603	12.762	5.469e-06	29.208	290.166	137.267	35.597	-9.252	112.064	22.763	-9.224	-3.471	233.835	281.115	-4.924	-0.807	0.128	3.760	109.131	2.479	-8191	255	
21274.523	1	1	0	0	0.038327	0.19756	0.1915	0.09428	0.17579	0.12914	0.39861	0.1279	0.17073	0.24943	0.27316	0.08537	0.09295	0.23073	0.12931	0.22873	-2.2354	-2.3146	-2.7479	-2.5542	-2.4333	-2.8063	-2.3083	-2.4667	-2.7812	-2.3083	-2.5896	-2.5542	-2.3583	-2.7729	-2.1958	-2.6271	311.740	191.500	74.141	56.632	58.762	146.487	264.124	26.631	284.837	145.251	315.673	288.684	290.025	279.442	172.850	288.889	0.00017575	0.0004404	8.1699e-05	381.15	6.9495e-06	2.6669e-06	482.18	98.73	6.8015e-06	4.8268e-06	162.64	54.881	30.002	11.772	2.6542e-06	28.547	0.00049936	0.00050857	0.00014183	393.76	5.6419e-06	5.5997e-06	488.6	105.19	5.6595e-06	5.5998e-06	169.6	57.232	33.57	12.846	5.6584e-06	29.293	259.895	72.830	57.612	-9.145	3.167	26.534	-9.254	-3.494	180.394	139.753	-5.048	-0.098	0.009	4.014	145.191	2.238	-8191	255	
21274.621	1	1	0	0	0.14038	0.18015	0.078828	0.24535	0.12038	0.091209	0.12087	0.1007	0.33286	0.26522	0.014909	0.046966	0.18875	0.17914	0.1288	0.16406	-2.1688	-2.2396	-2.7333	-2.2104	-2.3167	-2.7188	-2.4771	-2.4188	-2.5875	-2.2542	-2.5896	-2.3958	-2.2375	-2.4833	-2.4	-2.325	86.733	139.132	255.315	232.031	142.168	61.728	139.721	274.390	115.904	268.559	66.202	48.470	200.267	229.098	270.227	193.276	0.00025589	0.0009412	0.00016207	381.41	2.5827e-06	4.1487e-06	478.93	97.929	2.599e-06	7.1488e-06	161.14	54.543	29.931	11.801	1.3267e-05	28.52	0.0005142	0.00051964	0.00014654	393.53	5.7428e-06	5.7538e-06	487.9	105.17	5.7611e-06	5.7054e-06	169.36	57.522	33.734	12.912	5.7703e-06	29.376	296.140	160.858	157.802	-9.621	151.187	210.787	-9.208	-3.775	-4.593	306.772	-5.177	-0.108	0.134	3.462	89.681	2.203	-8191	255	
21274.717	1	1	0	0	0.041808	0.19404	0.10346	0.14261	0.083627	0.15361	0.11073	0.27112	0.14041	0.18597	0.27344	0.14728	0.019754	0.26689	0.14856	0.17522	-2.0958	-2.2542	-2.6708	-2.5354	-2.2271	-2.7667	-2.3792	-2.4771	-2.7208	-2.3187	-2.5771	-2.6979	-1.8458	-2.7833	-2.2958	-2.3688	247.482	220.019	61.735	8.957	232.192	207.551	261.505	243.827	40.924	48.243	28.426	203.973	88.269	281.819	204.422	241.343	0.00018749	0.00067763	9.5086e-05	382.3	3.235e-06	3.2007e-06	482.24	99.261	5.5287e-06	3.3016e-06	163.22	55.3	30.375	11.712	2.5988e-06	28.612	0.00052179	0.00052392	0.00014657	396.02	5.8105e-06	5.8177e-06	490.92	105.72	5.6747e-06	5.5932e-06	170.34	57.819	33.857	12.89	5.6112e-06	29.442	308.228	49.988	30.788	-9.011	316.643	218.256	-9.701	-3.904	334.201	315.802	-4.868	-0.342	-0.025	3.798	123.065	2.355	-8191	255	
21274.812	1	1	0	0	0.113	0.19551	0.14638	0.028741	0.101	0.25499	0.16706	0.23134	0.22724	0.22287	0.15126	0.15603	0.2007	0.079356	0.16079	0.16905	-2.1771	-2.2583	-2.5042	-2.6688	-2.2208	-2.6958	-2.5542	-2.3333	-2.8417	-2.3479	-2.6667	-2.6792	-2.2521	-2.7021	-2.6333	-2.4771	135.569	187.054	272.672	37.956	58.421	2.796	99.842	314.596	208.749	3.500	248.528	297.355	337.108	266.099	122.018	325.924	0.0002943	0.00035771	0.00014894	381.02	7.9486e-06	4.837e-06	478.16	98.957	4.0356e-06	5.2657e-06	161.14	54.36	30.071	11.614	7.0511e-06	28.125	0.00050874	0.00051338	0.00014535	395.03	5.5715e-06	5.7378e-06	488.7	105.01	5.6557e-06	5.6826e-06	168.8	57.024	33.575	12.79	5.7967e-06	29.015	320.302	276.799	173.028	-9.314	178.295	179.566	-9.002	-4.003	114.373	192.059	-4.974	-0.555	0.252	4.209	138.521	2.409	-8191	255	
21274.908	1	1	0	0	0.20105	0.072395	0.15039	0.08388	0.26563	0.080265	0.16679	0.11515	0.096154	0.11775	0.09092	0.074732	0.3115	0.26783	0.10217	0.26162	-2.3208	-2.4542	-2.4208	-2.8	-2.2958	-2.7	-2.6792	-2.1958	-2.7292	-2.3312	-2.4688	-2.7771	-2.1542	-2.725	-2.6833	-2.175	27.144	234.984	144.255	313.498	-15.314	91.125	142.406	119.450	60.197	185.104	334.036	49.842	214.798	169.911	289.548	288.171	0.00043578	0.0002959	0.00010356	383.87	8.2174e-06	6.3457e-06	477.44	97.738	1.5833e-06	5.7929e-06	159.43	54.841	30.322	11.772	1.8358e-06	28.149	0.0005252	0.00053295	0.00014764	394.48	5.7066e-06	5.7903e-06	487.06	104.65	5.7676e-06	5.7414e-06	168.07	57.187	33.736	12.895	5.8323e-06	29.027	311.672	21.663	331.752	-9.185	210.468	141.478	-9.348	-3.621	57.828	178.050	-5.235	-0.043	0.337	3.765	180.709	2.301	-8191	255	
21275.006	1	1	0	0	0.37163	0.31917	0.10389	0.12475	0.24304	0.14165	0.25274	0.35023	0.11438	0.12007	0.11502	0.27401	0.2525	0.038058	0.028323	0.29035	-2.1292	-2.4521	-2.2896	-2.7271	-2.4417	-2.5208	-2.7958	-2.2854	-2.8187	-2.2896	-2.4437	-2.6542	-2.4771	-2.7375	-2.7146	-2.3021	197.257	203.035	308.858	194.550	273.570	54.518	79.848	322.030	110.126	192.663	166.022	193.113	30.049	278.036	143.822	234.325	0.00029948	0.00078473	0.00014185	380.45	2.9018e-06	4.0005e-06	480.02	98.689	2.805e-06	8.1291e-06	160.74	55.031	30.077	11.673	6.2497e-06	28.566	0.00052642	0.00052979	0.00014769	393.65	5.6214e-06	5.759e-06	487.65	104.57	5.576e-06	5.63e-06	168.52	57.131	33.59	12.847	5.6942e-06	29.247	291.492	26.487	305.033	-8.981	271.412	35.155	-9.514	-3.863	82.441	179.595	-4.980	-0.453	0.418	3.552	288.138	2.308	-8191	255	
21275.127	1	1	0	0	0.14267	0.18274	0.18575	0.092138	0.17858	0.078102	0.069457	0.51529	0.17313	0.13576	0.14579	0.19327	0.25303	0.21605	0.28933	0.25146	-2.1604	-2.4958	-2.3333	-2.7229	-2.3604	-2.5917	-2.5875	-2.275	-2.8063	-2.4813	-2.2812	-2.9021	-2.3333	-2.6271	-2.6375	-2.2625	38.238	157.163	169.644	238.859	17.477	37.064	198.536	3.091	76.603	245.074	322.286	239.875	28.345	241.407	47.573	307.487	0.00034149	0.00022486	0.00025731	382.04	5.5707e-06	5.1939e-06	481.56	98.975	6.5479e-06	2.6849e-06	160.97	54.517	30.042	11.716	4.0604e-06	28.387	0.00051732	0.00051869	0.00014613	395.53	5.6724e-06	5.8377e-06	489.72	105.11	5.8028e-06	5.7165e-06	169.22	57.029	33.595	12.841	5.7092e-06	29.205	302.796	315.935	38.185	-9.300	157.872	244.129	-9.347	-3.831	295.970	113.703	-5.156	-0.766	0.894	3.585	139.527	2.066	-8191	255	
21275.221	1	1	0	0	0.23715	0.11771	0.35169	0.096887	0.23996	0.026195	0.28156	0.092667	0.13429	0.099705	0.18767	0.34026	0.11796	0.13434	0.24841	0.10951	-2.1917	-2.5312	-2.2042	-2.8958	-2.3604	-2.2479	-2.8521	-2.2417	-2.3271	-2.5542	-2.3521	-2.675	-2.2458	-2.4313	-2.7771	-2.4562	-7.530	336.742	2.347	253.773	131.871	287.341	65.478	7.736	257.693	91.013	330.711	258.697	178.662	289.065	237.888	303.808	0.00043195	0.00087881	0.00020347	379.4	4.9447e-06	6.7787e-06	481.44	99.415	1.9434e-06	6.4512e-06	160.39	53.891	29.389	11.695	3.2386e-06	28.246	0.00051368	0.00051126	0.00014293	394.71	5.5596e-06	5.6136e-06	488.46	104.78	5.5483e-06	5.5022e-06	167.57	56.593	33.089	12.739	5.409e-06	28.912	265.654	165.417	323.004	-9.097	254.944	112.572	-9.447	-3.814	128.575	154.795	-5.873	-0.181	0.755	3.530	11.376	1.597	-8191	255	
21275.316	1	1	0	0	0.2044	0.14677	0.074619	0.12718	0.18186	0.063413	0.092697	0.126	0.19056	0.11889	0.21465	0.081563	0.28777	0.20846	0.056515	0.074983	-2.2188	-2.5604	-2.3125	-2.6896	-2.5375	-2.2313	-2.75	-2.3875	-2.6083	-2.6437	-2.3229	-2.7479	-2.4771	-2.3375	-2.8812	-2.3292	78.448	60.803	110.725	192.278	189.620	111.615	58.239	-3.519	9.698	246.284	149.588	68.158	278.213	311.194	-15.394	317.385	0.00011408	7.032e-05	0.00011586	380.36	6.4373e-06	9.9076e-06	475.73	98.244	6.4022e-06	2.1742e-06	161.28	53.695	29.634	11.647	4.256e-06	28.07	0.00049096	0.00050567	0.00014018	393.58	5.5459e-06	5.6952e-06	486.25	104.2	5.7147e-06	5.6367e-06	167.51	56.488	33.208	12.721	5.607e-06	28.907	300.537	90.447	238.563	-9.180	44.919	63.453	-9.284	-4.307	72.609	155.897	-5.114	-0.431	0.629	4.096	208.048	2.164	-8191	255	
21275.412	1	1	0	0	0.26379	0.18465	0.1436	0.061553	0.13884	0.085591	0.20084	0.16453	0.078729	0.015208	0.13188	0.19049	0.084652	0.12929	0.059098	0.070318	-2.2188	-2.6208	-2.4562	-2.7208	-2.7583	-2.3229	-3.0292	-2.4	-2.4146	-2.7188	-2.2271	-2.8542	-2.725	-2.5708	-2.7917	-2.4021	139.528	188.067	314.117	223.244	292.611	207.287	218.039	134.835	127.686	-20.865	276.928	130.648	114.363	309.443	287.351	17.700	0.00027918	0.00045007	6.2115e-05	380.4	2.1344e-06	2.257e-06	476.37	98.624	5.2811e-06	2.853e-06	158.53	53.794	30.065	11.563	7.2998e-07	27.946	0.00050738	0.00051085	0.00014175	392.86	5.6488e-06	5.6477e-06	486.54	104.66	5.7516e-06	5.7296e-06	167.03	56.751	33.418	12.769	5.7431e-06	28.928	323.313	-13.422	115.716	-9.233	173.046	-17.704	-9.125	-3.674	55.381	254.150	-5.255	-0.129	0.599	3.683	67.767	2.060	-8191	255	
21275.510	1	1	0	0	0.21472	0.094162	0.16871	0.06556	0.27089	0.084249	0.20845	0.055928	0.24194	0.25882	0.25824	0.19974	0.22631	0.34331	0.1495	0.34599	-2.1479	-2.7792	-2.3063	-2.675	-2.5958	-2.3958	-2.5729	-2.4375	-2.3729	-2.7646	-2.3937	-2.4771	-2.5604	-2.2125	-2.6604	-2.5958	178.806	311.744	90.005	68.351	285.730	161.214	231.231	240.294	303.071	156.969	5.190	247.287	123.666	-17.895	302.235	161.917	0.00027937	0.00051666	0.00029355	380.98	1.4584e-06	3.9141e-06	482.62	98.526	2.3757e-06	2.7721e-06	160.9	54.445	30.196	11.755	6.1471e-06	28.327	0.00052211	0.00052774	0.00014475	394.64	5.7257e-06	5.6623e-06	489.48	104.93	5.6429e-06	5.6203e-06	168.86	57.024	33.555	12.814	5.6895e-06	29.132	268.251	-13.819	-19.796	-9.250	88.241	163.562	-9.134	-3.961	90.012	171.934	-5.407	-0.710	0.283	4.079	95.605	2.088	-8191	255	
21275.605	1	1	0	0	0.14965	0.17311	0.065385	0.1878	0.058655	0.027579	0.14101	0.1183	0.11714	0.18653	0.082724	0.27875	0.090825	0.21037	0.17889	0.19191	-1.9333	-2.775	-2.2708	-2.4542	-2.5083	-2.4354	-2.85	-2.525	-2.3063	-2.8375	-2.55	-2.5083	-2.7146	-2.3646	-2.7021	-2.4792	249.918	79.543	174.478	143.194	-4.489	173.063	331.632	54.692	262.328	157.406	153.368	264.263	102.953	267.560	256.723	206.609	0.00035543	0.00025682	0.00014316	383.24	7.3133e-06	5.4361e-06	479.17	97.759	6.2547e-06	8.7457e-07	159.16	53.649	29.436	11.63	4.8132e-06	27.68	0.0005127	0.00052111	0.00014228	395.07	5.6793e-06	5.6797e-06	487.81	104.5	5.731e-06	5.7532e-06	166.78	56.283	33.284	12.703	5.7482e-06	28.73	301.361	200.196	138.929	-9.261	94.019	103.682	-9.440	-3.321	28.690	22.537	-4.645	-0.004	1.098	4.093	126.230	1.906	-8191	255	
21275.725	1	1	0	0	0.13504	0.13384	0.20453	0.19678	0.13821	0.021841	0.16462	0.26714	0.021415	0.10939	0.27279	0.19943	0.23557	0.011867	0.11111	0.21594	-1.7417	-2.5771	-2.4313	-2.575	-2.6542	-2.275	-2.7521	-2.7583	-2.2729	-2.8625	-2.3417	-2.5229	-2.7333	-2.2062	-2.675	-2.6292	93.174	187.849	75.023	323.278	298.375	78.091	242.949	220.279	125.632	53.848	85.736	151.383	-21.021	52.127	326.601	15.493	0.0003685	0.00055281	0.00011265	382.41	1.6644e-06	2.9706e-06	474.2	97.935	8.2171e-06	3.3163e-06	158.78	53.693	29.678	11.588	6.8389e-06	27.658	0.00051153	0.0005236	0.00014314	392.73	5.6375e-06	5.5747e-06	484.01	103.72	5.5618e-06	5.6577e-06	165.68	56.208	32.941	12.643	5.5567e-06	28.611	295.215	83.370	142.225	-9.042	300.618	168.860	-9.147	-3.419	175.731	210.681	-5.378	-0.032	0.442	3.433	4.222	2.800	-8191	255	
#DATA ENDS
