BOXY.EXE: ISS Imagent and Oximeter Data Acquisition Program Version 0.80
Ascii Record File

#ACQ INFORMATION
2  Detector Channels 
16  External MUX Channels 
1  Auxiliary Channels 
5000  Waveform (CCF) Frequency (Hz)
1  Waveforms Skipped 
30  Waveforms Averaged 
1  Cycles Averaged 
16  Acquisitions per Waveform 
10.0806  Updata Rate (Hz) 

#FILE INFORMATION
TRUE -- External MUX Channel results are PARSED.
FALSE -- AC DC and Phase are NOT grouped.
TRUE -- Companion Program Settings File CREATED.
FALSE -- AC data not excluded
FALSE -- DC data not excluded
FALSE -- Phase data not excluded
FALSE -- Auxillary Chn. data not excluded
Tab delimiters

#CALIBRATION STATE
TRUE -- Waveform Calibration Values APPLIED.


#AUX CALIBRATION VALUES
Val Type	aux-1	

Term	1.0000e+00	
Factor	0.0000e+00	


#WF CALIBRATION VALUES
A = Detector Channel
Val Type	A-AC1	A-AC2	A-AC3	A-AC4	A-AC5	A-AC6	A-AC7	A-AC8	A-AC9	A-AC10	A-AC11	A-AC12	A-AC13	A-AC14	A-AC15	A-AC16	A-DC1	A-DC2	A-DC3	A-DC4	A-DC5	A-DC6	A-DC7	A-DC8	A-DC9	A-DC10	A-DC11	A-DC12	A-DC13	A-DC14	A-DC15	A-DC16	A-Ph1	A-Ph2	A-Ph3	A-Ph4	A-Ph5	A-Ph6	A-Ph7	A-Ph8	A-Ph9	A-Ph10	A-Ph11	A-Ph12	A-Ph13	A-Ph14	A-Ph15	A-Ph16	

Term	0.00000e+00	0.00000e+00	0.00000e+00	0.00000e+00	0.00000e+00	0.00000e+00	0.00000e+00	0.00000e+00	0.00000e+00	0.00000e+00	0.00000e+00	0.00000e+00	0.00000e+00	0.00000e+00	0.00000e+00	0.00000e+00	0.00000e+00	0.00000e+00	0.00000e+00	0.00000e+00	0.00000e+00	0.00000e+00	0.00000e+00	0.00000e+00	0.00000e+00	0.00000e+00	0.00000e+00	0.00000e+00	0.00000e+00	0.00000e+00	0.00000e+00	0.00000e+00	0.00000e+00	0.00000e+00	0.00000e+00	0.00000e+00	0.00000e+00	0.00000e+00	0.00000e+00	0.00000e+00	0.00000e+00	0.00000e+00	0.00000e+00	0.00000e+00	0.00000e+00	0.00000e+00	0.00000e+00	0.00000e+00	
Factor	1.00000e+00	1.00000e+00	1.00000e+00	1.00000e+00	1.00000e+00	1.00000e+00	1.00000e+00	1.00000e+00	1.00000e+00	1.00000e+00	1.00000e+00	1.00000e+00	1.00000e+00	1.00000e+00	1.00000e+00	1.00000e+00	1.00000e+00	1.00000e+00	1.00000e+00	1.00000e+00	1.00000e+00	1.00000e+00	1.00000e+00	1.00000e+00	1.00000e+00	1.00000e+00	1.00000e+00	1.00000e+00	1.00000e+00	1.00000e+00	1.00000e+00	1.00000e+00	X	X	X	X	X	X	X	X	X	X	X	X	X	X	X	X	

B = Detector Channel
Val Type	B-AC1	B-AC2	B-AC3	B-AC4	B-AC5	B-AC6	B-AC7	B-AC8	B-AC9	B-AC10	B-AC11	B-AC12	B-AC13	B-AC14	B-AC15	B-AC16	B-DC1	B-DC2	B-DC3	B-DC4	B-DC5	B-DC6	B-DC7	B-DC8	B-DC9	B-DC10	B-DC11	B-DC12	B-DC13	B-DC14	B-DC15	B-DC16	B-Ph1	B-Ph2	B-Ph3	B-Ph4	B-Ph5	B-Ph6	B-Ph7	B-Ph8	B-Ph9	B-Ph10	B-Ph11	B-Ph12	B-Ph13	B-Ph14	B-Ph15	B-Ph16	

Term	0.00000e+00	0.00000e+00	0.00000e+00	0.00000e+00	0.00000e+00	0.00000e+00	0.00000e+00	0.00000e+00	0.00000e+00	0.00000e+00	0.00000e+00	0.00000e+00	0.00000e+00	0.00000e+00	0.00000e+00	0.00000e+00	0.00000e+00	0.00000e+00	0.00000e+00	0.00000e+00	0.00000e+00	0.00000e+00	0.00000e+00	0.00000e+00	0.00000e+00	0.00000e+00	0.00000e+00	0.00000e+00	0.00000e+00	0.00000e+00	0.00000e+00	0.00000e+00	-2.03927e+02	-1.31831e+02	-1.25538e+02	-1.83254e+02	-8.09175e+01	-7.08768e+01	-1.60701e+02	-1.62015e+02	-9.04271e+01	-7.32347e+01	-1.72480e+02	-1.72818e+02	-1.83168e+02	-1.78087e+02	-6.61985e+01	-1.50828e+02	
Factor	3.89286e-05	1.23717e-04	3.30348e-05	1.37229e-01	1.13119e-06	1.25685e-06	1.52528e-01	4.65841e-02	1.24710e-06	1.41356e-06	7.24308e-02	2.45414e-02	2.28361e-02	7.36464e-03	1.53149e-06	1.05710e-02	3.04281e-06	3.29901e-06	9.19863e-07	7.35445e-02	3.56907e-08	3.63287e-08	7.68056e-02	2.49985e-02	3.56985e-08	3.62099e-08	3.76454e-02	1.27287e-02	1.23343e-02	3.98035e-03	3.59260e-08	5.53306e-03	X	X	X	X	X	X	X	X	X	X	X	X	X	X	X	X	



#DISTANCE SETTINGS
A = Detector Channel
A-1	A-2	A-3	A-4	A-5	A-6	A-7	A-8	A-9	A-10	A-11	A-12	A-13	A-14	A-15	A-16	

2.5000e+00	3.0000e+00	2.5000e+00	3.0000e+00	2.0000e+00	3.0000e+00	1.5000e+00	3.0000e+00	3.0000e+00	3.0000e+00	3.0000e+00	3.0000e+00	3.0000e+00	3.0000e+00	1.5000e+00	3.0000e+00	

B = Detector Channel
B-1	B-2	B-3	B-4	B-5	B-6	B-7	B-8	B-9	B-10	B-11	B-12	B-13	B-14	B-15	B-16	

1.0000e+01	1.0000e+01	1.0000e+01	1.4400e+00	1.0000e+01	1.0000e+01	1.5100e+00	1.9400e+00	1.0000e+01	1.0000e+01	1.9900e+00	2.4900e+00	2.4100e+00	2.9000e+00	1.0000e+01	2.9800e+00	




#DATA BEGINS
time	group	step	mark	flag	A-AC1	A-AC2	A-AC3	A-AC4	A-AC5	A-AC6	A-AC7	A-AC8	A-AC9	A-AC10	A-AC11	A-AC12	A-AC13	A-AC14	A-AC15	A-AC16	A-DC1	A-DC2	A-DC3	A-DC4	A-DC5	A-DC6	A-DC7	A-DC8	A-DC9	A-DC10	A-DC11	A-DC12	A-DC13	A-DC14	A-DC15	A-DC16	A-Ph1	A-Ph2	A-Ph3	A-Ph4	A-Ph5	A-Ph6	A-Ph7	A-Ph8	A-Ph9	A-Ph10	A-Ph11	A-Ph12	A-Ph13	A-Ph14	A-Ph15	A-Ph16	B-AC1	B-AC2	B-AC3	B-AC4	B-AC5	B-AC6	B-AC7	B-AC8	B-AC9	B-AC10	B-AC11	B-AC12	B-AC13	B-AC14	B-AC15	B-AC16	B-DC1	B-DC2	B-DC3	B-DC4	B-DC5	B-DC6	B-DC7	B-DC8	B-DC9	B-DC10	B-DC11	B-DC12	B-DC13	B-DC14	B-DC15	B-DC16	B-Ph1	B-Ph2	B-Ph3	B-Ph4	B-Ph5	B-Ph6	B-Ph7	B-Ph8	B-Ph9	B-Ph10	B-Ph11	B-Ph12	B-Ph13	B-Ph14	B-Ph15	B-Ph16	aux-1	digaux	

14270.759	1	1	0	768	0.23827	0.23652	0.20105	0.44818	0.21892	0.23879	0.26108	0.31072	0.24118	0.24577	0.10886	0.089341	0.17908	0.31642	0.29218	0.1729	-1.9583	-2.5542	-2.5958	-2.4771	-2.5563	-2.4188	-2.6792	-2.8896	-2.525	-2.5167	-2.8417	-2.3979	-2.8417	-2.6708	-2.2812	-2.9062	-116.988	34.026	-14.424	185.820	103.900	214.218	193.477	207.935	205.723	161.914	95.989	190.647	-76.169	225.842	120.099	223.551	0.00068199	0.00094687	4.0099e-05	1362.5	5.4112e-06	1.6054e-06	1353.6	369.3	3.8334e-06	6.5749e-06	418.08	140.62	122.19	41.884	4.8472e-06	51.908	0.00055278	0.0005355	0.00015053	1377.5	5.9873e-06	5.9004e-06	1374.5	374.02	5.9474e-06	5.9112e-06	426.05	143.45	124.75	42.974	5.9399e-06	53.286	129.852	-53.122	35.167	-119.970	-41.378	-25.408	-120.118	-115.567	-51.416	-8.313	-115.984	-112.175	-111.324	-106.542	58.102	-107.292	-8191	255	
14270.856	1	1	0	0	0.16898	0.29931	0.34269	0.56139	0.21585	0.084305	0.21553	0.22719	0.23785	0.049984	0.18195	0.12491	0.24766	0.15561	0.17337	0.11491	-2.0625	-2.3312	-2.7083	-2.5417	-2.5521	-2.5375	-2.4667	-2.8417	-2.2667	-2.3542	-2.7917	-2.2292	-2.7229	-2.85	-2.45	-2.8063	-23.969	210.784	22.772	-126.661	187.313	125.643	91.788	172.668	-43.867	-80.588	157.170	2.623	207.880	141.822	176.226	160.259	0.00082593	0.00025071	0.00011618	1361.6	2.4646e-06	2.2393e-06	1356.4	367.74	7.5183e-06	4.3678e-06	420.17	140.66	122.27	41.91	2.6952e-06	51.718	0.00054917	0.0005357	0.00014931	1377.5	5.9749e-06	5.9465e-06	1375.7	373.68	5.9657e-06	5.9171e-06	426.76	143.36	124.74	43	5.9603e-06	53.239	126.793	-105.928	-68.066	-119.856	45.733	-15.884	-120.049	-115.550	-62.025	-3.144	-115.822	-111.891	-111.369	-106.408	-117.339	-107.075	-8191	255	
14270.952	1	1	0	0	0.29448	0.22681	0.10583	0.12355	0.11914	0.17574	0.34373	0.19954	0.12701	0.11609	0.047238	0.085427	0.33315	0.25109	0.090262	0.21369	-2.0396	-2.3146	-2.775	-2.5083	-2.5542	-2.8167	-2.4521	-3.0625	-2.5687	-2.4479	-2.9771	-2.3396	-2.4604	-2.8792	-2.4667	-2.825	89.107	111.883	-32.487	152.109	-59.944	-113.633	142.207	197.327	170.881	54.353	-127.273	-100.675	-115.029	-110.450	149.826	144.081	0.00078258	0.00072677	0.00013493	1359.8	2.2854e-06	9.5306e-07	1356.5	367.45	4.4733e-06	6.5117e-06	419	140.85	121.98	42.083	6.3653e-06	51.697	0.00055628	0.00054013	0.00015006	1377.7	5.967e-06	5.9852e-06	1377.8	373.82	5.9132e-06	5.9444e-06	427.26	143.55	124.73	43.072	5.9347e-06	53.228	141.180	-72.589	-34.612	-119.926	-34.258	66.401	-120.333	-115.587	-17.026	-22.904	-116.122	-112.353	-111.307	-106.623	13.250	-107.207	-8191	255	
14271.048	1	1	0	0	0.14978	0.23894	0.18523	0.18591	0.18699	0.050424	0.38886	0.19308	0.05017	0.32967	0.2441	0.54631	0.13795	0.14316	0.085054	0.3341	-2.1354	-2.4042	-2.6958	-2.4437	-2.5187	-2.6	-2.4479	-2.8125	-2.6937	-2.3167	-2.8833	-2.6208	-2.6479	-2.9104	-2.1312	-2.6521	-116.101	27.595	-108.370	-128.705	80.406	33.871	169.923	150.487	109.021	177.103	167.655	157.976	220.444	-112.606	-60.483	178.785	0.00085801	0.00020048	0.00012976	1359.8	4.8323e-06	4.9291e-06	1358.5	367.89	5.4997e-06	2.5849e-06	420.61	139.84	122.44	41.854	4.0946e-06	52.139	0.00055157	0.00054062	0.00014922	1377.5	6.0144e-06	5.9695e-06	1376.7	373.93	5.9625e-06	5.9739e-06	427.63	143.31	124.69	43.013	5.899e-06	53.244	132.771	20.507	-71.818	-120.018	18.349	19.944	-120.123	-115.512	-24.532	-20.922	-115.865	-112.005	-111.384	-106.596	-38.542	-107.027	-8191	255	
14271.144	1	1	0	0	0.06379	0.15809	0.044688	0.08597	0.21067	0.19766	0.20319	0.094281	0.21939	0.17391	0.090362	0.21482	0.1253	0.12563	0.1772	0.17666	-2.2854	-2.3917	-2.8187	-2.5792	-2.4188	-2.9125	-2.6021	-2.8604	-2.45	-2.2812	-2.8104	-2.5396	-2.5542	-2.5812	-2.2979	-2.5146	202.166	149.178	142.721	-80.072	-38.175	114.933	-128.938	205.710	140.848	-31.657	50.983	99.357	80.036	-97.506	-124.492	107.209	0.0006513	0.00083349	0.00016209	1359.7	3.9138e-06	5.1281e-06	1355.3	366.74	4.8967e-06	4.9896e-06	419.51	140.45	121.83	41.984	5.7728e-06	51.669	0.00055098	0.00053858	0.00015159	1377.3	5.9815e-06	6.0028e-06	1374.7	373.99	5.9288e-06	5.8555e-06	426.6	143.23	124.66	43.066	5.96e-06	53.213	125.749	-21.115	-61.556	-119.994	-3.940	15.109	-120.120	-115.539	-77.313	-3.884	-115.847	-112.063	-111.113	-106.406	-2.472	-106.947	-8191	255	
14271.240	1	1	0	0	0.1406	0.32239	0.24685	0.41179	0.34407	0.36351	0.2327	0.10429	0.057138	0.13779	0.15257	0.26531	0.086613	0.23444	0.089642	0.38936	-2.1479	-2.1875	-2.7896	-2.5417	-2.3875	-2.7438	-2.5687	-2.6458	-2.6625	-2.0833	-2.8042	-2.8417	-2.3729	-2.7562	-2.2333	-2.6833	193.822	-12.484	-10.509	183.617	51.413	212.842	156.059	148.359	-18.242	31.983	125.034	137.435	-27.262	-111.731	210.294	168.222	0.00079721	0.00031853	0.00016025	1363.2	3.9921e-06	3.9258e-06	1359.5	367.61	3.8658e-06	6.1251e-06	420.82	140.41	121.73	41.87	9.5068e-06	51.879	0.00055288	0.0005457	0.00015154	1378.1	5.9895e-06	5.9633e-06	1375.8	374	5.9845e-06	5.943e-06	427.24	143.39	124.44	43.012	5.9977e-06	53.178	126.708	-75.649	1.214	-120.060	13.313	55.656	-120.086	-115.540	-38.401	42.262	-115.946	-112.072	-111.438	-106.411	26.991	-107.002	-8191	255	
14271.361	1	1	0	0	0.053176	0.25838	0.17534	0.53366	0.26437	0.10205	0.32384	0.34954	0.16107	0.26108	0.38406	0.15495	0.22511	0.13023	0.26647	0.072168	-2.1167	-2.2854	-2.6604	-2.8167	-2.225	-2.8208	-2.5563	-2.5604	-2.8083	-2.2375	-2.7396	-2.7062	-2.4333	-2.7667	-2.4729	-2.5542	177.956	174.973	-52.966	197.805	-41.835	19.131	146.108	200.589	133.728	-57.579	170.223	46.125	-98.624	-118.308	66.120	114.258	0.00082957	0.00067569	0.00017209	1360.5	4.6834e-06	4.5227e-06	1352.2	366.76	3.4051e-06	1.9849e-06	419.19	140.51	121.89	41.828	7.8552e-06	51.924	0.00055646	0.00055065	0.00015096	1377.6	6.0088e-06	6.0066e-06	1374.7	373.7	5.9451e-06	5.9853e-06	426.78	143.71	124.53	42.95	5.9514e-06	53.216	118.980	-33.191	-47.407	-119.909	-14.875	13.105	-120.197	-115.369	-106.154	-87.414	-116.059	-112.312	-111.300	-106.527	12.267	-107.293	-8191	255	
14271.455	1	1	0	0	0.0568	0.26255	0.22444	0.21277	0.13556	0.12938	0.52559	0.075705	0.17116	0.13778	0.19914	0.10585	0.29698	0.030053	0.17934	0.036918	-2.3667	-2.2125	-2.4833	-2.7271	-2.1708	-2.6354	-2.5854	-2.5958	-2.8063	-2.3396	-2.7104	-2.5687	-2.2708	-2.775	-2.6188	-2.425	72.675	115.682	152.021	171.991	134.668	104.946	126.630	70.631	-125.307	140.948	-93.847	195.113	178.229	169.091	-130.125	154.316	0.0008965	0.00022422	0.00010995	1358.7	3.0063e-06	6.1797e-06	1358.5	367.29	6.5413e-06	6.9946e-06	419.58	140.6	121.98	41.999	7.6742e-06	51.569	0.00055808	0.00055464	0.000152	1375.9	5.9716e-06	5.9411e-06	1376.2	373.39	5.9776e-06	5.9719e-06	427.39	143.51	124.64	43.042	6.0083e-06	53.247	135.925	-23.874	-36.847	-120.048	-28.452	11.616	-119.948	-115.677	21.987	21.976	-115.999	-111.897	-111.542	-106.574	32.822	-107.115	-8191	255	
14271.551	1	1	0	0	0.063484	0.18324	0.004548	0.014194	0.1466	0.35391	0.36109	0.22748	0.05577	0.20574	0.24162	0.22261	0.276	0.16397	0.27059	0.063261	-2.2583	-2.3604	-2.4938	-2.7438	-2.075	-2.7917	-2.75	-2.3604	-2.8896	-2.3917	-2.8104	-2.8771	-2.4917	-2.8896	-2.5625	-2.4458	-118.445	-107.142	-99.422	122.491	-133.320	72.840	181.742	195.470	-19.964	148.879	185.596	170.326	210.545	33.921	-63.213	119.483	0.00075604	0.00018355	8.4971e-05	1359.5	4.4978e-06	4.506e-06	1351.1	366.35	6.6809e-06	5.1019e-06	419.9	140	122.27	41.798	3.3366e-06	51.982	0.00055709	0.00054605	0.00015279	1376.8	5.9188e-06	6.0628e-06	1374	373.76	5.9698e-06	5.9215e-06	427.33	143.31	124.65	42.961	5.9312e-06	53.299	132.907	-68.966	-77.989	-119.962	15.298	2.028	-120.185	-115.448	18.429	43.935	-115.785	-111.910	-111.416	-106.460	64.280	-107.468	-8191	255	
14271.648	1	1	0	0	0.098421	0.080389	0.11224	0.44456	0.17379	0.1869	0.16978	0.025223	0.27022	0.17607	0.42941	0.20437	0.093494	0.34933	0.088092	0.10026	-2.3688	-2.425	-2.4688	-2.8104	-2.375	-2.7292	-2.9396	-2.3979	-2.9188	-2.5167	-2.675	-3	-2.4875	-2.6937	-2.5729	-2.3083	129.629	-73.988	66.036	180.688	134.858	-52.777	133.637	202.493	121.321	175.252	209.955	168.848	199.712	-115.604	-50.495	154.228	0.0006751	0.00023432	0.00012333	1359.1	3.1768e-06	4.5954e-06	1354.4	367.56	3.171e-06	4.8815e-06	419.56	141.17	122.35	41.817	5.4027e-06	51.947	0.00054799	0.00055055	0.00015289	1377.8	6.0591e-06	5.9527e-06	1375.3	374.25	5.9074e-06	5.9583e-06	426.85	143.42	124.73	43.023	6.0535e-06	53.355	134.141	-15.034	-45.687	-119.973	7.156	30.172	-120.095	-115.529	-49.425	5.542	-116.250	-112.293	-111.259	-106.189	30.535	-107.213	-8191	255	
14271.744	1	1	0	0	0.10709	0.14865	0.21028	0.36007	0.06896	0.1748	0.15504	0.23907	0.11734	0.23432	0.33667	0.12736	0.13733	0.24762	0.082307	0.23174	-2.3875	-2.375	-2.2562	-2.9938	-2.3583	-2.5833	-3.0229	-2.4062	-2.8563	-2.5958	-2.5917	-2.7771	-2.2938	-2.5729	-2.6667	-2.4875	67.114	159.424	-6.244	187.836	36.968	49.688	95.358	-103.868	19.664	-48.384	178.091	164.994	-68.473	-111.859	-78.993	125.089	0.00069382	0.0006973	0.00019503	1361	3.8189e-06	7.1271e-06	1357.9	368.93	3.1223e-06	6.0697e-06	418.65	140.96	122.21	41.97	1.7172e-06	51.971	0.00056138	0.00054295	0.00015451	1377.5	5.962e-06	5.978e-06	1375.7	374.52	5.8773e-06	5.9469e-06	426.57	143.62	124.76	43.078	5.9778e-06	53.236	131.312	-26.504	-31.641	-119.861	-6.611	17.625	-120.269	-115.393	-36.621	13.397	-115.970	-112.104	-111.316	-106.131	-6.690	-107.482	-8191	255	
14271.840	1	1	0	0	0.13539	0.11517	0.27028	0.20229	0.13454	0.10236	0.35018	0.22457	0.22149	0.097978	0.2196	0.26006	0.10481	0.058139	0.14606	0.077829	-2.125	-2.5375	-2.4333	-2.7229	-2.4854	-2.5104	-2.9979	-2.2917	-2.6667	-2.5667	-2.3917	-2.8625	-2.4667	-2.5187	-2.8125	-2.5854	99.586	-71.508	197.576	178.474	-123.366	72.892	158.884	175.567	110.634	29.450	22.577	130.298	74.325	-7.541	-126.352	193.711	0.00088117	0.00036881	0.00012278	1362.4	4.6041e-06	4.535e-06	1355.1	367.57	7.6971e-06	3.5177e-06	419.05	140.11	121.63	41.872	3.341e-06	51.395	0.00055112	0.00055595	0.0001511	1376.1	6.0238e-06	5.9989e-06	1376.3	373.78	5.9717e-06	5.9694e-06	426.96	143.37	124.51	43.043	5.9558e-06	53.148	125.979	3.248	-64.722	-119.818	-48.159	21.707	-120.228	-115.464	-62.626	-19.321	-115.829	-111.917	-111.490	-106.335	21.788	-107.090	-8191	255	
14271.960	1	1	0	0	0.016393	0.20459	0.068416	0.38964	0.097388	0.14566	0.32103	0.48731	0.22492	0.11232	0.28124	0.19765	0.13037	0.075462	0.047222	0.22479	-2.0521	-2.6708	-2.1937	-2.7667	-2.5021	-2.6	-2.8396	-2.6271	-2.5917	-2.6063	-2.4354	-2.75	-2.6312	-2.525	-2.9125	-2.6792	0.548	-7.322	-41.930	196.875	-79.048	49.246	200.173	178.406	-128.687	-37.230	90.567	191.122	172.721	-38.011	-107.926	169.056	0.00078893	0.00061563	0.0001192	1361.3	1.6676e-06	4.7814e-06	1355.3	367.15	4.7443e-06	6.3012e-06	418.95	140.53	121.86	42.122	7.8681e-06	51.797	0.00054947	0.0005375	0.00014971	1376.2	5.9331e-06	5.9915e-06	1376.2	373.75	5.9556e-06	5.9054e-06	427.2	143.2	124.54	43.079	5.9105e-06	53.196	136.888	-52.570	-28.557	-120.020	-96.990	-29.845	-120.111	-115.676	-23.817	7.660	-115.784	-112.228	-111.300	-106.631	13.856	-107.309	-8191	255	
14272.057	1	1	0	0	0.40214	0.11766	0.28432	0.34754	0.28814	0.17286	0.094514	0.22166	0.09275	0.10979	0.17927	0.28329	0.084546	0.058765	0.17967	0.17343	-2.1396	-2.7167	-2.3417	-2.7229	-2.4729	-2.3021	-3.0292	-2.7062	-2.6208	-2.7604	-2.2979	-2.8438	-2.6354	-2.3937	-2.7042	-2.5229	-47.521	187.410	199.579	186.531	155.099	-99.535	158.074	218.758	97.026	104.632	-39.189	-72.508	-64.601	-96.223	7.943	28.272	0.00071797	0.00054079	0.00015456	1359.6	2.883e-06	4.3135e-06	1358.4	368.08	8.6868e-07	7.265e-06	418.57	141.06	121.43	42.051	6.9195e-06	52.055	0.00054876	0.00054072	0.00015099	1378.1	5.9099e-06	5.8926e-06	1377.8	373.99	5.9704e-06	5.9262e-06	426.77	143.7	124.64	43.012	5.9128e-06	53.369	120.352	-51.788	-38.965	-119.742	56.891	-18.413	-119.981	-115.693	-97.648	-32.036	-115.906	-111.942	-111.285	-106.679	36.095	-106.757	-8191	255	
14272.153	1	1	0	0	0.15696	0.10391	0.37379	0.10287	0.14961	0.11732	0.31296	0.36632	0.12472	0.083825	0.088145	0.25906	0.20238	0.089315	0.20225	0.1078	-1.8896	-2.6875	-2.1	-2.7479	-2.6083	-2.1917	-2.9583	-2.4792	-2.4625	-2.6937	-2.5521	-2.7021	-2.7271	-2.2917	-2.9042	-2.5021	156.307	-1.636	143.484	164.669	-20.425	167.366	112.364	137.016	-128.807	115.535	187.194	-104.042	192.098	-62.232	47.926	124.332	0.00079937	0.00037395	0.00020319	1362.7	5.529e-06	4.5281e-06	1358.1	367.59	2.5649e-06	7.1418e-06	420.38	140.28	122.36	42.063	3.85e-06	51.714	0.00054972	0.00054166	0.00015141	1379.3	5.8834e-06	5.9035e-06	1377.3	374.6	5.9437e-06	5.9231e-06	427.17	143.21	124.62	43.068	5.7897e-06	53.289	122.264	-40.560	-64.671	-119.939	12.763	32.269	-120.160	-115.618	-20.376	9.539	-115.969	-111.928	-111.212	-106.533	-11.455	-107.188	-8191	255	
14272.249	1	1	0	0	0.13835	0.15599	0.17455	0.37785	0.064499	0.15173	0.21275	0.25779	0.11037	0.12889	0.25647	0.18051	0.086351	0.15688	0.17073	0.18982	-1.9813	-2.6125	-2.2625	-2.8375	-2.7667	-2.3646	-3.0292	-2.7167	-2.325	-2.8771	-2.5021	-2.8083	-2.5625	-2.3937	-2.8	-2.5042	150.168	139.443	153.702	144.393	146.812	-37.289	117.689	150.358	162.069	148.808	150.460	-72.229	163.858	-106.820	-123.116	124.441	0.0007745	0.0005395	0.00015992	1359.4	3.6559e-06	6.6197e-06	1354	369.12	5.2442e-06	7.9437e-06	420.61	141.17	122.59	42.195	7.8666e-06	51.794	0.00054916	0.00053262	0.00014924	1378.5	5.8894e-06	5.8361e-06	1376.6	374.59	5.8593e-06	5.8707e-06	427.53	143.82	124.97	43.129	5.8499e-06	53.249	134.840	-58.115	-76.890	-120.027	-35.493	4.973	-120.101	-115.178	-41.188	46.727	-116.079	-112.289	-111.417	-106.410	10.794	-107.082	-8191	255	
14272.321	1	1	0	0	0.20381	0.13803	0.11065	0.34521	0.13954	0.052267	0.29159	0.28854	0.1968	0.17304	0.11237	0.27955	0.22885	0.26808	0.17348	0.27082	-1.8729	-2.8417	-2.3146	-2.9292	-2.6104	-2.1104	-2.7542	-2.7042	-2.2542	-2.6771	-2.4875	-2.6021	-2.7833	-2.3312	-2.6792	-2.7479	127.340	217.528	-49.239	190.279	131.289	-83.806	175.046	222.251	-113.561	143.274	-123.929	180.372	212.691	-118.387	177.860	62.047	0.00068778	0.00065516	6.5855e-05	1364.5	3.3608e-06	2.4488e-06	1360.2	368.41	3.936e-06	5.4672e-06	417.95	141.44	122.54	42.155	3.8454e-06	51.945	0.00054266	0.00053052	0.00014957	1379.3	5.8789e-06	5.9172e-06	1379.9	374.63	5.8612e-06	5.7369e-06	426.67	144.04	125.28	43.223	5.897e-06	53.419	125.191	-47.142	1.471	-119.984	-24.068	73.836	-120.091	-115.381	-15.389	-43.955	-115.761	-112.138	-111.357	-106.545	-67.564	-107.218	-8191	255	
14272.441	1	1	0	0	0.18378	0.084217	0.16222	0.31814	0.033201	0.23545	0.16988	0.30209	0.22478	0.062161	0.19452	0.14827	0.23561	0.42356	0.12202	0.16234	-2.1167	-2.7958	-2.4833	-2.8333	-2.6854	-2.2333	-2.7438	-2.7104	-2.3104	-2.5979	-2.5958	-2.3979	-2.9396	-2.2104	-2.7771	-2.6875	128.774	114.656	115.007	177.006	216.413	47.786	-51.186	122.177	-112.019	173.628	139.665	149.453	-87.330	168.250	-74.120	184.589	0.0008695	0.0007158	0.00012285	1369.4	3.1491e-06	3.3367e-06	1362.5	368.16	8.6195e-06	6.4861e-06	420.23	140.61	122.82	42.103	4.413e-06	52.021	0.00055127	0.00053803	0.00015047	1384.9	5.9759e-06	5.9376e-06	1382.7	374.79	5.9419e-06	5.9462e-06	428.04	144	125.33	43.294	5.9868e-06	53.487	122.143	-51.250	0.909	-120.009	77.631	-54.423	-120.232	-115.345	-26.592	-23.813	-116.078	-111.918	-111.327	-106.633	10.338	-106.915	-8191	255	
14272.536	1	1	0	0	0.13045	0.22793	0.20086	0.15735	0.20345	0.18049	0.3964	0.15609	0.048214	0.21179	0.048739	0.061764	0.12929	0.25435	0.21331	0.30817	-1.7938	-2.6979	-2.6146	-2.5187	-2.7188	-2.2208	-2.8	-2.975	-2.425	-2.6583	-2.5396	-2.6083	-2.95	-2.3563	-2.625	-2.7167	121.945	-85.920	-118.921	160.886	-58.189	150.252	155.088	189.320	-106.439	47.886	-119.634	194.520	-72.273	179.850	113.351	152.268	0.00075763	0.00044788	0.00020317	1368	1.9517e-06	7.2789e-06	1362.4	369.39	2.035e-06	3.0529e-06	420.38	141.39	122.86	42.285	7.1351e-06	52.187	0.00055529	0.00053957	0.00015025	1384.9	6.0024e-06	5.9589e-06	1383.8	374.99	6.0082e-06	5.944e-06	428.09	144.34	125.62	43.355	6.019e-06	53.506	132.524	-44.137	-44.359	-119.862	7.598	30.854	-120.331	-115.582	-51.597	26.817	-115.783	-111.967	-111.072	-106.208	47.716	-106.900	-8191	255	
14272.632	1	1	0	0	0.11003	0.17506	0.18106	0.4436	0.09462	0.25353	0.19495	0.16703	0.17382	0.13115	0.23026	0.37444	0.215	0.28241	0.24052	0.14613	-1.6958	-2.7417	-2.4896	-2.5229	-2.6125	-2.475	-2.8458	-2.8333	-2.4104	-2.5729	-2.5271	-2.4854	-2.8312	-2.3958	-2.6125	-2.7958	-5.939	-36.050	-4.607	172.858	-8.872	-8.228	188.228	-100.651	196.219	140.515	181.905	164.998	166.877	183.227	134.735	-53.506	0.00070502	0.00078873	7.6733e-05	1367.5	3.2641e-06	2.9026e-06	1361.2	369.81	7.6913e-06	6.6288e-06	421.66	141.77	123.58	42.185	2.3566e-06	52.008	0.00055515	0.00053432	0.0001489	1385.4	5.7954e-06	5.8952e-06	1381.6	375.92	5.8937e-06	5.8353e-06	428.1	144.61	125.53	43.336	5.8957e-06	53.544	135.083	-37.837	-56.347	-120.064	-44.543	24.360	-120.203	-115.446	-11.803	27.724	-115.679	-111.854	-111.567	-106.545	5.027	-107.497	-8191	255	
14272.728	1	1	0	0	0.19019	0.26321	0.33593	0.45843	0.22525	0.11231	0.29253	0.22385	0.13131	0.093107	0.19094	0.25628	0.075611	0.11383	0.17919	0.14411	-1.8062	-2.5812	-2.5896	-2.4292	-2.8563	-2.5563	-2.7208	-2.8625	-2.2542	-2.4938	-2.6583	-2.2542	-2.8021	-2.6688	-2.5062	-2.8583	210.840	-64.001	-73.958	148.933	202.913	155.076	144.505	129.124	-42.617	-65.727	119.235	-85.333	30.483	219.293	125.788	81.913	0.00077901	0.00024911	0.00012933	1370.6	4.0371e-06	7.1649e-06	1364.5	369.9	3.3765e-06	7.0769e-06	419.75	141.49	122.4	42.178	4.2428e-06	52.131	0.00054645	0.00053393	0.00014621	1387.1	5.7669e-06	5.8414e-06	1384.1	375.43	5.754e-06	5.7075e-06	427.45	144.4	125.2	43.284	5.834e-06	53.645	130.628	-9.458	-16.137	-120.073	5.919	-9.682	-120.185	-115.674	-37.633	3.283	-115.934	-111.893	-111.282	-106.162	12.432	-106.994	-8191	255	
14272.849	1	1	0	0	0.28296	0.18746	0.089496	0.41154	0.11914	0.053783	0.15493	0.23019	0.090516	0.025682	0.17501	0.1394	0.2874	0.12062	0.15389	0.18423	-1.9146	-2.6333	-2.4979	-2.3771	-2.5917	-2.5312	-2.5729	-2.7792	-2.3208	-2.4854	-2.9375	-2.1333	-2.8937	-2.6458	-2.2271	-2.9104	-96.049	56.398	139.176	202.163	25.661	67.805	220.841	155.933	136.700	70.627	198.976	-100.702	-71.887	32.608	83.631	192.752	0.00078017	0.00052838	0.00018741	1367.7	3.3942e-06	6.9283e-06	1360.9	368.42	7.6987e-06	6.5821e-06	417.95	140.28	122.99	42.392	6.4686e-06	52.28	0.00054452	0.00053524	0.00014858	1382	5.8804e-06	5.9512e-06	1380.2	375.39	5.8937e-06	5.9008e-06	426.55	143.86	125.32	43.384	5.9721e-06	53.584	125.966	-66.915	-35.595	-119.936	10.829	-4.421	-120.147	-115.625	-3.375	18.044	-116.007	-112.108	-111.097	-106.635	6.364	-107.018	-8191	255	
14272.920	1	1	0	0	0.19595	0.23831	0.081087	0.11647	0.33961	0.14478	0.21298	0.24034	0.11998	0.28962	0.25942	0.11632	0.13553	0.15075	0.28242	0.082459	-1.8625	-2.5354	-2.725	-2.3083	-2.4417	-2.6208	-2.7167	-2.8833	-2.4104	-2.5	-2.8146	-2.5083	-2.875	-2.8229	-2.3917	-2.8312	-93.162	-90.687	138.925	209.033	-69.110	174.415	141.991	137.627	47.420	47.623	167.883	-27.391	194.130	18.651	-125.725	-49.767	0.00082246	0.00050751	4.6772e-05	1361.9	4.4942e-06	2.0386e-06	1366.9	368.67	3.6751e-06	6.8257e-06	421.1	141.95	123.28	42.303	2.8969e-06	52.19	0.00055388	0.00053996	0.00014971	1381.4	5.9486e-06	5.9021e-06	1384.8	375.29	5.9126e-06	5.8992e-06	428.08	144.48	125.69	43.416	6.0352e-06	53.658	130.358	-13.053	-2.301	-119.935	-17.621	-20.813	-120.252	-115.662	-26.914	28.592	-116.036	-112.254	-111.298	-106.580	11.182	-107.027	-8191	255	
14273.041	1	1	0	0	0.22278	0.14173	0.13196	0.1734	0.062758	0.17897	0.094882	0.24688	0.22207	0.091	0.17048	0.39128	0.11959	0.26194	0.084738	0.38095	-1.7417	-2.3104	-2.6688	-2.3771	-2.6	-2.7042	-2.3729	-2.9375	-2.4917	-2.3604	-2.9688	-2.4854	-2.6146	-2.7021	-2.2479	-2.8083	101.414	-124.291	1.087	190.030	217.575	83.755	181.605	218.851	223.482	-20.973	-83.311	-115.503	169.066	-33.909	32.051	132.001	0.0008002	0.00012706	4.3765e-05	1369.3	2.5039e-06	5.0016e-06	1358.2	368.28	4.5654e-06	1.0321e-05	421.21	141.46	122.84	42.291	5.568e-06	52.14	0.00055549	0.00054548	0.00015156	1383.1	5.9992e-06	5.9789e-06	1382.2	375.33	6.0399e-06	5.9912e-06	428.41	144.51	125.68	43.388	6.0465e-06	53.672	132.369	-48.024	-52.511	-119.986	-10.845	-4.294	-120.109	-115.508	-45.050	-6.214	-115.965	-111.832	-111.246	-106.413	55.431	-107.243	-8191	255	
14273.137	1	1	0	0	0.28639	0.065764	0.14214	0.17139	0.20747	0.094379	0.29356	0.22175	0.13035	0.12426	0.147	0.19868	0.081586	0.086514	0.22121	0.30476	-2.0812	-2.4104	-2.7979	-2.4208	-2.6708	-2.7521	-2.2271	-2.8083	-2.5625	-2.3688	-2.9229	-2.5792	-2.5229	-2.8125	-2.4437	-2.8167	-35.028	119.391	-9.920	173.621	-5.467	205.638	171.277	150.077	-49.714	156.674	176.293	193.000	153.600	189.101	-20.521	171.749	0.00084964	0.00018263	0.00013082	1372.3	2.2675e-06	1.8995e-06	1361.4	369.63	6.1582e-06	5.2848e-06	420.52	141.32	123.33	42.405	5.1704e-06	52.339	0.00056403	0.00055647	0.00015569	1386.3	6.0824e-06	6.0893e-06	1382	375.99	6.0769e-06	5.965e-06	428.34	144.47	125.69	43.361	5.8672e-06	53.712	134.623	-88.905	-47.420	-120.162	-10.179	184.520	-120.190	-115.757	-47.820	-3.541	-115.972	-111.768	-111.398	-106.536	-31.520	-107.222	-8191	255	
14273.233	1	1	0	0	0.26214	0.10516	0.1528	0.43429	0.16709	0.22132	0.30305	0.33492	0.10956	0.10007	0.14414	0.25021	0.054183	0.37691	0.22291	0.05372	-2.2521	-2.2562	-2.75	-2.4354	-2.3208	-2.6771	-2.3208	-2.7854	-2.5521	-2.2458	-2.9208	-2.475	-2.6042	-2.9437	-2.5375	-2.7667	126.166	222.002	157.281	165.495	217.876	137.425	172.250	187.410	77.267	53.585	203.091	142.370	117.625	-129.965	19.133	150.748	0.00079968	0.0010332	6.6454e-05	1366.4	5.327e-06	4.9756e-06	1369.1	370.31	7.6459e-06	5.7147e-06	419.99	141.26	122.89	42.365	3.7304e-06	52.254	0.00055297	0.00054259	0.00015216	1383.8	5.963e-06	5.9244e-06	1387.1	375.91	5.9205e-06	5.8847e-06	427.96	144.39	125.61	43.424	5.9447e-06	53.669	128.646	-72.191	-39.341	-120.143	28.392	47.693	-120.119	-115.349	-45.629	39.902	-115.893	-111.951	-111.432	-106.580	224.516	-107.039	-8191	255	
14273.329	1	1	0	0	0.070427	0.11474	0.22803	0.20925	0.063818	0.10005	0.054342	0.15189	0.089219	0.33846	0.27704	0.14708	0.26077	0.13119	0.020457	0.25643	-2.0938	-2.2938	-2.6562	-2.6	-2.3333	-2.7771	-2.5187	-2.9	-2.6833	-2.2792	-2.9417	-2.6167	-2.5771	-2.9542	-2.2833	-2.6271	173.315	97.036	91.994	212.771	-53.417	148.652	201.469	152.790	-8.422	202.491	179.010	164.493	200.848	203.295	-47.551	181.430	0.00081493	0.00044783	0.00011757	1368	4.7669e-06	6.2471e-06	1368.8	369.18	4.7583e-06	6.8058e-06	420.95	141.18	122.54	42.371	8.7531e-06	52.348	0.00055236	0.00055101	0.00015327	1386.6	5.8796e-06	5.9683e-06	1386.1	375.59	6.0644e-06	5.9995e-06	427.99	144.55	125.62	43.442	6.136e-06	53.735	136.999	-74.003	-3.116	-119.795	19.813	-5.431	-120.315	-115.658	-26.429	17.440	-115.841	-111.836	-111.311	-106.360	-36.359	-107.156	-8191	255	
14273.450	1	1	0	0	0.27131	0.15541	0.15521	0.21322	0.10357	0.10201	0.06237	0.14027	0.30525	0.18643	0.2635	0.072545	0.053103	0.072093	0.11074	0.3262	-2.1333	-2.3271	-2.5938	-2.7104	-2.5	-2.8187	-2.4979	-2.8771	-2.7812	-2.3167	-2.9042	-2.7313	-2.3312	-2.8354	-2.4979	-2.5625	117.438	-43.340	-3.812	194.348	-54.378	92.177	198.685	-133.114	-100.555	109.985	164.189	84.388	122.285	-115.690	73.317	155.092	0.00083104	0.00037347	0.00011538	1370.6	2.5395e-06	3.3646e-06	1370.7	368.39	5.2043e-06	5.0908e-06	421.21	142.05	123.03	42.347	5.5488e-06	52.247	0.00056493	0.0005623	0.00015737	1386.1	6.1338e-06	6.187e-06	1387	375.58	6.0853e-06	5.9788e-06	428.14	144.78	125.63	43.498	5.8907e-06	53.694	130.474	-46.615	-48.291	-119.967	-1.962	56.829	-120.342	-115.516	-42.470	39.134	-116.014	-111.881	-111.558	-106.481	19.083	-107.088	-8191	255	
14273.544	1	1	0	0	0.10857	0.22724	0.23324	0.33252	0.058103	0.36673	0.31829	0.36145	0.31887	0.063901	0.25345	0.15651	0.20262	0.27232	0.13805	0.27186	-2.25	-2.1813	-2.5729	-2.775	-2.3688	-2.7729	-2.7479	-2.5542	-2.6417	-2.3563	-2.6271	-2.8312	-2.5438	-2.8542	-2.5938	-2.4854	219.588	-44.152	-38.242	165.512	-101.762	162.808	143.131	168.700	-47.717	212.077	92.674	-72.799	115.931	226.617	127.814	154.521	0.00089716	0.00030475	0.00023744	1367.7	8.0186e-06	3.025e-06	1360.1	369.85	2.2863e-06	9.6367e-07	418.42	141.58	122.75	42.247	3.773e-06	52.381	0.00055108	0.00053973	0.00014972	1384.9	6.0099e-06	6.0495e-06	1382.8	375.83	5.9783e-06	5.9386e-06	427.27	144.67	125.69	43.493	5.9138e-06	53.752	133.614	-30.638	-45.771	-119.945	-8.079	28.761	-119.877	-115.251	-94.202	120.342	-115.952	-111.897	-111.450	-106.340	-27.524	-107.375	-8191	255	
14273.640	1	1	0	0	0.098012	0.19152	0.21764	0.25567	0.11257	0.044916	0.41986	0.3468	0.090048	0.21949	0.18211	0.14138	0.14617	0.3408	0.07999	0.228	-2.4271	-2.3104	-2.5479	-2.7562	-2.325	-2.7604	-2.5479	-2.5708	-2.6958	-2.3354	-2.8271	-2.8	-2.3208	-2.8917	-2.3875	-2.3542	82.115	136.220	157.215	193.020	181.957	-103.575	207.591	176.198	-53.037	96.381	-120.331	225.240	190.617	-52.457	10.136	-110.689	0.00071491	0.00055911	9.6873e-05	1366.1	7.3518e-06	5.9638e-06	1366	369.82	9.4679e-06	3.4622e-06	420.24	141.94	123.68	42.477	3.88e-06	52.542	0.00054126	0.0005305	0.00014776	1384.7	5.762e-06	5.7517e-06	1383.3	376.32	5.7801e-06	5.7742e-06	426.77	145.01	126.11	43.562	5.6492e-06	53.89	129.537	-53.002	-33.183	-119.865	-1.838	-13.827	-120.204	-115.639	-75.000	10.502	-115.975	-112.159	-111.103	-106.497	-80.953	-107.071	-8191	255	
14273.737	1	1	0	0	0.11503	0.13646	0.12021	0.51107	0.091958	0.29264	0.56778	0.28069	0.094193	0.33142	0.18607	0.1135	0.057852	0.052705	0.1306	0.17505	-2.2938	-2.3375	-2.4625	-2.9292	-2.3542	-2.7604	-2.7583	-2.2854	-2.7375	-2.5417	-2.4229	-2.6792	-2.4104	-2.775	-2.6229	-2.4875	114.357	118.737	199.360	207.726	153.641	-91.173	165.370	149.303	79.017	-43.482	142.208	111.917	-12.521	110.413	-40.422	160.069	0.0007611	0.00066687	0.00015993	1368.3	5.3109e-06	2.6369e-06	1362.2	369.54	6.1526e-06	6.0428e-06	418.6	142.48	123.53	42.731	8.1053e-06	52.895	0.00052607	0.00050848	0.00014152	1384.6	5.5007e-06	5.5308e-06	1383.2	375.67	5.495e-06	5.5217e-06	426.51	145.15	126.04	43.766	5.6345e-06	54.035	125.902	-41.892	-13.501	-119.922	-5.112	18.476	-120.131	-115.584	7.118	-23.431	-115.884	-112.125	-110.902	-106.704	12.292	-107.094	-8191	255	
14273.833	1	1	0	0	0.26952	0.060031	0.16968	0.16518	0.29282	0.25427	0.14532	0.33006	0.2629	0.22109	0.22059	0.030834	0.025008	0.22029	0.13601	0.22283	-2.3021	-2.625	-2.5479	-2.8875	-2.1688	-2.6792	-2.8	-2.4146	-2.7792	-2.3979	-2.4604	-2.8375	-2.45	-2.6917	-2.5958	-2.2958	128.925	-87.931	17.193	203.688	22.893	59.486	181.316	158.251	-67.768	-70.239	163.919	-68.385	172.774	179.699	94.135	190.757	0.00074356	0.00054384	0.00015708	1366.4	3.2087e-06	4.8332e-06	1368.1	370.19	2.2798e-06	4.6695e-06	419.08	143.14	124.66	43.048	5.3603e-06	52.962	0.00052015	0.00050927	0.00014005	1383.7	5.4926e-06	5.4865e-06	1385.7	375.97	5.3125e-06	5.2695e-06	425.5	145.92	126.98	44.104	5.3449e-06	54.405	129.564	-55.369	-15.543	-119.934	-35.527	17.300	-120.162	-115.611	-41.016	-25.032	-116.083	-112.079	-111.119	-106.460	19.662	-107.228	-8191	255	
14273.929	1	1	0	0	0.34503	0.15658	0.029096	0.24278	0.047542	0.067764	0.24508	0.29167	0.20976	0.097894	0.20043	0.11152	0.1423	0.33508	0.13178	0.073585	-2.3021	-2.4229	-2.3208	-2.95	-2.2604	-2.5208	-2.7583	-2.425	-2.6521	-2.7354	-2.5125	-2.9979	-2.4083	-2.5479	-2.75	-2.4437	58.827	85.279	164.042	208.489	-28.284	126.710	148.108	179.354	127.795	210.298	-84.326	149.018	168.454	213.061	-119.528	-55.201	0.00074237	0.00036841	0.00014984	1374.3	4.1419e-06	5.3179e-06	1366	370.33	3.2036e-06	3.6492e-06	419.02	143.17	124.92	43.108	4.7528e-06	53.136	0.00050871	0.00049815	0.0001397	1387.3	5.5171e-06	5.4986e-06	1387	376.42	5.6425e-06	5.623e-06	426.64	146.15	127.14	44.067	5.5851e-06	54.387	133.005	-56.293	-22.030	-119.864	-21.691	56.333	-120.319	-115.275	-37.070	13.709	-115.936	-111.955	-111.361	-106.357	5.305	-107.336	-8191	255	
14274.025	1	1	0	0	0.048207	0.1254	0.17782	0.065453	0.11172	0.14715	0.14535	0.087295	0.26782	0.14723	0.21592	0.055494	0.3731	0.24641	0.074697	0.25131	-2.4813	-2.6146	-2.3625	-2.8333	-2.35	-2.5229	-2.8271	-2.4875	-2.8271	-2.6896	-2.575	-2.9146	-2.4667	-2.5875	-2.6312	-2.55	160.674	-47.412	-1.000	182.640	7.375	62.319	188.071	-63.523	-30.872	-63.620	222.493	126.992	215.609	180.870	-81.880	-122.008	0.00074815	0.00050059	0.00017366	1365.8	5.8354e-06	2.5678e-06	1364.6	371.06	4.2258e-06	6.5592e-06	419.47	144.3	125.15	43.133	4.5858e-06	53.247	0.00051219	0.00049955	0.00014012	1383.9	5.6045e-06	5.5758e-06	1384.9	376.31	5.6454e-06	5.6826e-06	426.12	146.64	127.53	44.26	5.6982e-06	54.6	135.057	-11.945	-66.967	-119.953	-25.537	-2.518	-120.311	-115.507	-69.548	11.663	-115.960	-112.132	-111.332	-106.729	0.227	-107.092	-8191	255	
14274.146	1	1	0	0	0.18306	0.17634	0.11362	0.10595	0.046033	0.19739	0.09064	0.23596	0.19756	0.12441	0.26795	0.19536	0.17623	0.19929	0.050607	0.11051	-2.3667	-2.5396	-2.3646	-2.9833	-2.5875	-2.5292	-2.8417	-2.3646	-2.6458	-2.8125	-2.3854	-2.8604	-2.6292	-2.5021	-2.8667	-2.5958	164.681	21.438	-4.386	136.436	92.443	70.066	155.562	159.549	224.604	9.895	174.794	160.003	67.706	-97.895	159.776	-46.968	0.00089887	0.00061978	0.00020631	1369.8	3.9596e-06	1.9287e-06	1369.7	370.19	4.1177e-06	3.5902e-06	421.43	144.17	125.1	43.064	5.3605e-06	52.876	0.00053782	0.00051707	0.00014527	1388	5.7352e-06	5.6815e-06	1390.2	376.57	5.7274e-06	5.7298e-06	427.78	146.83	127.6	44.232	5.7395e-06	54.492	136.681	-74.602	-44.466	-119.875	7.973	6.326	-120.397	-115.897	-51.094	-15.055	-115.901	-112.060	-111.379	-106.370	5.274	-107.235	-8191	255	
14274.217	1	1	0	0	0.30121	0.2151	0.12154	0.46435	0.13957	0.23286	0.48188	0.10568	0.23924	0.24234	0.1441	0.12024	0.15347	0.085693	0.23943	0.05892	-2.2771	-2.5542	-2.2875	-3.0292	-2.6104	-2.4896	-3.1396	-2.6896	-2.6771	-2.7458	-2.5	-2.6604	-2.7812	-2.4667	-2.8438	-2.6521	199.796	19.197	57.147	189.213	153.582	86.734	172.864	62.327	-91.383	69.780	148.775	-99.721	53.565	211.913	-17.496	201.587	0.00078173	0.00058032	0.00025765	1370.2	4.262e-06	1.8298e-06	1368.2	368.78	7.6397e-06	5.4922e-06	418.32	143.42	124.44	42.841	1.5848e-06	53.074	0.00055075	0.00053996	0.00015139	1388.1	6.0595e-06	6.1458e-06	1389.4	376.07	6.1916e-06	6.3645e-06	426.81	146.1	127.29	44.014	6.0694e-06	54.511	129.814	-38.117	-78.643	-119.865	10.484	62.891	-120.177	-115.691	-47.528	-62.390	-115.965	-112.170	-111.208	-106.501	-59.755	-107.292	-8191	255	
14274.314	1	1	0	0	0.16103	0.16687	0.15964	0.26307	0.086704	0.17004	0.23148	0.23675	0.15786	0.33182	0.15721	0.074208	0.22819	0.58733	0.19038	0.1444	-2.1583	-2.6937	-2.4	-2.9771	-2.3146	-2.4646	-2.8083	-2.5312	-2.6562	-2.7167	-2.4458	-2.8063	-2.5104	-2.3979	-2.8833	-2.5042	56.205	-35.250	61.073	171.689	6.767	101.772	114.061	184.374	-103.791	-115.377	193.721	-6.847	201.909	-78.585	-109.925	184.551	0.00085638	0.0007011	0.00018621	1372	4.5702e-06	7.0496e-06	1369.7	372.08	4.0544e-06	4.378e-06	422.4	143.31	125.47	43.165	4.9066e-06	53.088	0.00056015	0.0005408	0.00014939	1390.8	5.8836e-06	5.8339e-06	1393.1	377.84	5.8391e-06	5.8395e-06	429.3	146.9	128.14	44.338	5.7993e-06	54.65	134.579	-38.591	-19.880	-119.916	-33.647	-22.628	-120.200	-115.624	-46.404	22.389	-115.931	-112.069	-111.565	-106.589	-21.337	-107.193	-8191	255	
14274.410	1	1	0	0	0.18311	0.18129	0.15695	0.38748	0.12246	0.20498	0.13468	0.19818	0.12075	0.036384	0.18495	0.28408	0.31174	0.02595	0.26413	0.26627	-2.0771	-2.7625	-2.4292	-2.7854	-2.5625	-2.3646	-2.8125	-2.7646	-2.3854	-2.8875	-2.4979	-2.6479	-2.7521	-2.2917	-2.7667	-2.6646	98.296	84.961	74.069	159.035	35.528	-57.750	189.777	224.258	-62.373	-40.572	109.074	122.221	197.699	-7.948	71.284	152.839	0.00074753	0.00021179	0.00010422	1372.7	4.2231e-06	2.8221e-06	1370.4	372.23	2.608e-06	5.839e-06	420.21	144.34	125.2	42.881	7.4764e-06	52.875	0.00053601	0.00052867	0.00014671	1392.4	5.7053e-06	5.6857e-06	1391.3	377.81	5.6729e-06	5.6154e-06	426.96	146.86	127.67	44.094	5.7339e-06	54.394	129.975	-62.176	-36.573	-120.039	-23.493	-122.891	-120.128	-115.579	32.814	2.232	-115.864	-112.039	-111.613	-106.736	4.013	-107.118	-8191	255	
14274.529	1	1	0	0	0.12278	0.10818	0.05582	0.38133	0.024296	0.32227	0.32406	0.19579	0.051319	0.13062	0.16766	0.21277	0.35755	0.14137	0.14251	0.17759	-1.7958	-2.8354	-2.3187	-2.6833	-2.7458	-2.3979	-2.8438	-2.4979	-2.2979	-2.8312	-2.5333	-2.6896	-2.9271	-2.4354	-2.7	-2.5958	61.414	79.622	183.133	184.992	53.557	28.081	129.670	220.121	-128.668	104.632	176.150	163.118	-77.297	-79.634	-39.190	128.064	0.00074989	0.00059389	0.00015256	1378.9	3.8124e-06	3.7943e-06	1365.8	370.82	3.9206e-06	5.5486e-06	419.52	143.27	124.88	42.869	1.3647e-06	52.726	0.00054275	0.00052008	0.00014798	1392.2	5.8069e-06	5.9393e-06	1389.8	376.47	5.986e-06	5.9264e-06	426.97	146.49	127.35	44.091	6.1732e-06	54.397	127.370	-35.950	-33.988	-120.001	-5.023	25.336	-119.991	-115.764	-12.996	24.089	-115.813	-112.030	-111.312	-106.407	55.751	-107.466	-8191	255	
14274.625	1	1	0	0	0.13019	0.18467	0.21977	0.41141	0.1136	0.10022	0.12381	0.056778	0.15073	0.057663	0.26654	0.10244	0.17576	0.3263	0.084587	0.34871	-1.925	-2.7687	-2.4104	-2.7125	-2.9083	-2.2958	-2.7604	-2.6667	-2.3229	-2.7438	-2.5208	-2.7042	-2.7292	-2.5458	-2.5667	-2.6208	176.391	-85.651	218.325	209.618	-126.413	-66.618	135.322	-14.720	-78.712	144.908	182.241	-125.095	128.495	79.193	-58.300	165.783	0.00081119	0.0005264	0.00016904	1372.9	3.3708e-06	6.653e-06	1369.3	369.86	5.1629e-06	4.788e-06	420.37	143.73	125.17	42.993	9.5013e-06	53.279	0.00057901	0.00056794	0.00015527	1391.3	6.1465e-06	6.1486e-06	1391.4	377.21	6.196e-06	6.1189e-06	427.5	146.59	127.9	44.118	5.4795e-06	54.671	133.172	-9.938	-63.220	-119.777	-64.914	60.682	-120.198	-115.490	-22.643	-0.212	-115.930	-112.029	-111.310	-106.680	-10.882	-107.221	-8191	255	
14274.721	1	1	0	0	0.12112	0.23891	0.133	0.29397	0.17881	0.2276	0.26358	0.11798	0.026963	0.13873	0.18165	0.17541	0.14756	0.32607	0.036038	0.26776	-1.7583	-2.6604	-2.3833	-2.5667	-2.7125	-2.3479	-2.7188	-2.7646	-2.1104	-2.7938	-2.8479	-2.4042	-2.7771	-2.4792	-2.6	-2.8354	139.417	144.235	-74.382	200.770	-107.165	19.866	192.166	-35.124	173.326	-119.380	141.561	79.631	182.845	181.626	-125.729	102.739	0.00085387	0.00060156	6.9293e-05	1388.2	3.1178e-06	6.9517e-06	1372.3	370.82	4.2431e-06	6.1437e-06	419.52	143.58	124.65	42.811	1.8348e-06	52.908	0.00049331	0.00046564	0.0001272	1398.1	4.9859e-06	5.037e-06	1392.8	376.95	5.2408e-06	5.2335e-06	427.73	146.4	127.36	43.998	5.4016e-06	54.306	130.314	-88.948	-50.156	-119.949	-69.440	6.551	-120.090	-115.506	-29.343	18.347	-115.847	-112.437	-111.228	-106.603	125.314	-107.413	-8191	255	
14274.817	1	1	0	0	0.31828	0.32311	0.038128	0.49991	0.12958	0.088529	0.24404	0.15687	0.1348	0.044343	0.22147	0.10444	0.11304	0.2456	0.073495	0.069368	-1.9979	-2.5708	-2.4375	-2.5792	-2.7333	-2.4625	-2.6813	-2.7583	-2.1937	-2.6396	-2.6083	-2.4792	-2.8229	-2.6604	-2.4	-2.65	158.059	-44.577	66.112	203.380	-112.665	-7.348	118.936	177.024	38.325	197.881	74.073	-90.932	169.894	206.608	-92.590	159.593	0.00075038	0.00078299	4.1594e-05	1381.7	6.3182e-06	5.3355e-06	1377.1	370.53	3.7665e-06	1.8531e-06	422.23	143.67	124.69	43.057	3.4417e-06	52.764	0.0004938	0.00047287	0.00012918	1396	4.8839e-06	4.7327e-06	1392.9	377.02	4.4463e-06	4.2551e-06	427.14	145.87	126.61	43.723	3.79e-06	53.851	120.085	-20.769	-48.256	-119.963	-0.255	29.620	-120.317	-115.359	-13.161	36.556	-115.929	-112.072	-111.394	-106.493	1.677	-106.924	-8191	255	
14274.913	1	1	0	0	0.19136	0.21558	0.11424	0.29569	0.16001	0.12554	0.32997	0.19229	0.25503	0.21739	0.20219	0.2207	0.36412	0.48585	0.22582	0.054986	-1.8083	-2.6521	-2.5563	-2.4021	-2.8625	-2.5771	-2.6625	-2.6875	-2.2042	-2.6729	-2.6833	-2.3896	-2.8563	-2.5979	-2.3417	-3.0312	92.415	142.550	128.094	194.171	105.425	65.888	147.184	146.924	4.348	-92.942	72.537	167.075	211.333	173.095	46.216	-3.054	0.00071216	0.0003405	0.00015285	1370.3	1.1124e-06	4.924e-06	1368.3	370.71	6.0332e-06	4.618e-06	421.83	143.5	124.5	42.973	6.5602e-06	52.963	0.00036249	0.0003313	8.9096e-05	1384.9	3.4958e-06	3.3933e-06	1385.4	374.8	3.3905e-06	3.2531e-06	425.93	145.54	126.31	43.788	3.2683e-06	53.944	135.257	-90.152	-32.138	-119.948	14.584	-2.166	-120.300	-115.495	-23.541	20.896	-115.990	-112.132	-111.326	-106.482	-34.145	-107.328	-8191	255	
14275.009	1	1	0	0	0.08308	0.16127	0.10746	0.37735	0.11137	0.21078	0.27948	0.10399	0.27728	0.10763	0.19902	0.16139	0.1014	0.098738	0.24169	0.13836	-1.8208	-2.5375	-2.5604	-2.4896	-2.7021	-2.5812	-2.6875	-2.8375	-2.3146	-2.5854	-2.8771	-2.5	-2.7917	-2.5042	-2.2938	-2.8417	-33.720	109.414	128.319	217.804	-45.724	-86.144	208.859	145.617	-117.253	214.990	188.468	224.045	146.408	-129.937	161.712	82.325	0.0007078	0.00028628	0.00011866	1364.3	2.741e-06	3.1231e-06	1358.7	369.9	6.6282e-06	6.1937e-06	419.62	143.23	124.27	42.793	5.5464e-06	52.806	0.00031009	0.00027289	7.6991e-05	1376	2.8767e-06	2.8616e-06	1373.9	373.31	2.8168e-06	2.7087e-06	422.66	145.13	125.92	43.574	2.6315e-06	53.819	125.876	-52.974	-63.983	-119.940	-49.768	22.338	-120.137	-115.287	-66.965	-6.978	-116.070	-111.927	-111.391	-106.443	38.567	-107.119	-8191	255	
14275.130	1	1	0	0	0.16635	0.18031	0.12237	0.43168	0.13556	0.066338	0.18938	0.40043	0.17131	0.057649	0.23932	0.27487	0.19812	0.22735	0.12051	0.11272	-2.0146	-2.5938	-2.7042	-2.5271	-2.6312	-2.6	-2.5042	-2.9292	-2.3375	-2.4708	-2.9062	-2.4167	-2.7521	-2.5521	-2.2479	-2.8375	-74.337	182.616	85.133	195.129	166.585	163.965	122.936	171.903	-122.564	-100.952	101.014	98.900	193.636	226.259	190.208	159.837	0.00080822	0.00059562	0.00014283	1363.4	5.0001e-06	4.7244e-06	1360.4	368.46	6.344e-06	2.4229e-06	416.9	144.04	125.21	43.038	1.8127e-06	53.041	0.00026553	0.00022769	6.1209e-05	1372.8	2.4029e-06	2.3277e-06	1374.7	372.82	2.3391e-06	2.2167e-06	423.39	145.49	126.56	43.823	2.188e-06	53.913	131.541	-17.593	-32.620	-119.918	-16.535	33.325	-120.029	-115.433	-21.563	30.301	-115.840	-111.990	-111.303	-106.577	12.260	-107.441	-8191	255	
14275.226	1	1	0	0	0.2233	0.28266	0.095893	0.26206	0.047827	0.12713	0.2426	0.14569	0.1166	0.17837	0.29596	0.17984	0.13611	0.26135	0.029412	0.064913	-2.1042	-2.3438	-2.6188	-2.3438	-2.6208	-2.5979	-2.6125	-2.7604	-2.3917	-2.3438	-2.8583	-2.5	-2.6458	-2.7375	-2.0854	-2.8208	128.111	93.353	-105.230	161.929	20.671	75.362	129.508	214.646	27.944	-33.004	167.235	114.582	110.998	185.108	-43.322	-116.348	0.0007932	0.00042682	0.00010937	1371.5	3.7994e-06	3.1375e-06	1369.6	369.88	5.8241e-06	5.7321e-06	422.85	145.01	125.29	43.148	3.3281e-06	53.132	0.00023723	0.0001892	5.435e-05	1378.6	2.2537e-06	2.1804e-06	1380.1	374.08	2.2766e-06	2.1884e-06	425.35	146.12	126.63	43.842	2.3136e-06	53.946	137.803	-36.729	-60.326	-119.962	18.718	16.720	-120.093	-115.647	-47.146	41.356	-115.896	-112.063	-111.100	-106.490	13.602	-107.287	-8191	255	
14275.322	1	1	0	0	0.098156	0.1493	0.04242	0.41968	0.10522	0.075452	0.27372	0.39083	0.19467	0.36451	0.16041	0.36376	0.26602	0.23753	0.2339	0.311	-1.9188	-2.3083	-2.5729	-2.5125	-2.5521	-2.6937	-2.5104	-2.7917	-2.4562	-2.3979	-2.9667	-2.5729	-2.6667	-2.8708	-2.4354	-2.6688	125.397	112.840	5.120	-121.429	74.145	185.830	218.353	166.211	-89.068	222.009	143.404	190.266	155.012	148.392	-88.906	41.339	0.00075588	0.00031851	0.00012977	1364.6	5.1742e-06	4.8819e-06	1365	369.45	6.1507e-06	4.2703e-06	420.67	143.55	125.51	43.237	6.3163e-06	53.159	0.00024713	0.00020699	5.6872e-05	1376	2.4107e-06	2.3089e-06	1374.7	372.85	2.3754e-06	2.275e-06	424.73	145.8	126.7	43.89	2.3564e-06	54.005	127.503	-59.170	-43.874	-120.072	-1.146	2.061	-120.345	-115.454	-37.450	47.300	-116.097	-112.143	-111.465	-106.495	-4.875	-107.332	-8191	255	
14275.443	1	1	0	0	0.05444	0.25178	0.079671	0.14033	0.21111	0.15893	0.12319	0.2338	0.2198	0.076323	0.040534	0.23986	0.15154	0.18812	0.20212	0.19514	-2.175	-2.2625	-2.8396	-2.6021	-2.4396	-2.6604	-2.3833	-2.9625	-2.4958	-2.4188	-2.7792	-2.5167	-2.6146	-2.8271	-2.2542	-2.7667	33.134	-24.822	183.666	177.083	-43.901	40.721	-103.687	109.039	44.270	206.672	-87.186	192.115	174.944	217.860	133.297	224.562	0.00069486	0.00049919	0.00016042	1360.2	5.6855e-06	4.7693e-06	1361.2	369.57	5.5867e-06	4.7924e-06	421.26	143.4	124.43	43.082	5.9402e-06	53.264	0.00025145	0.00021452	6.0648e-05	1372.9	2.5301e-06	2.4016e-06	1371.1	372.73	2.6147e-06	2.5303e-06	424.04	145.4	126.21	43.825	2.6251e-06	54.128	123.616	-48.537	-61.973	-119.839	9.024	1.975	-120.127	-115.479	-27.786	-8.525	-115.945	-111.925	-111.395	-106.554	-1.955	-107.451	-8191	255	
14275.513	1	1	0	0	0.26115	0.20763	0.19833	0.12736	0.20172	0.20529	0.25742	0.28753	0.22414	0.18917	0.11879	0.26183	0.16781	0.13125	0.078218	0.16874	-2.2188	-2.2083	-2.6521	-2.6042	-2.3771	-2.8771	-2.4271	-2.8208	-2.6146	-2.1875	-2.9708	-2.5333	-2.5667	-2.8646	-2.3583	-2.4	57.741	-76.457	44.036	53.339	-63.401	62.575	93.688	-105.907	71.375	189.599	177.036	135.295	169.507	208.159	-125.033	149.002	0.00081722	0.00026459	0.0001622	1363.1	3.5203e-06	3.4642e-06	1368.2	367.35	5.8097e-06	4.3818e-06	421.5	143.44	125.04	42.99	6.9842e-06	53.204	0.00027255	0.00023101	6.6021e-05	1375.4	2.673e-06	2.5998e-06	1377	372.12	2.7823e-06	2.776e-06	425.18	145.55	126.43	43.772	2.9696e-06	54.113	139.253	-64.440	-39.130	-119.801	-4.094	-31.571	-120.212	-115.567	-18.745	15.896	-116.038	-112.175	-111.398	-106.680	11.624	-107.095	-8191	255	
14275.609	1	1	0	0	0.13458	0.16281	0.081055	0.17772	0.087646	0.19843	0.35811	0.066044	0.1433	0.2241	0.25778	0.19873	0.037297	0.19462	0.21755	0.18386	-2.2854	-2.0229	-2.5708	-2.6271	-2.3625	-2.8438	-2.5187	-2.7167	-2.6542	-2.2708	-2.8812	-2.7	-2.3896	-2.9104	-2.3312	-2.5625	118.161	-77.559	-21.479	206.348	43.305	-23.935	118.229	141.986	-38.413	132.613	202.283	182.981	-4.194	196.902	-112.120	144.097	0.00076273	0.00029246	9.7431e-05	1374.3	3.1432e-06	4.7533e-06	1373.2	369.46	3.7884e-06	4.8285e-06	420.49	144.28	125.17	43.025	5.7823e-06	52.698	0.00029611	0.00025988	7.2851e-05	1383.7	2.8572e-06	2.7912e-06	1386	373.95	2.9012e-06	2.8286e-06	424.68	145.78	126.66	43.718	3.0018e-06	53.884	134.627	-60.522	-16.225	-120.130	-65.415	39.304	-120.147	-115.622	-18.793	16.206	-115.636	-112.005	-111.493	-106.452	39.457	-107.402	-8191	255	
14275.705	1	1	0	0	0.2586	0.039308	0.072647	0.18345	0.035966	0.19638	0.25264	0.25583	0.26129	0.14778	0.42778	0.17406	0.15531	0.1358	0.13192	0.22525	-2.3063	-2.4437	-2.6875	-2.7854	-2.4646	-3	-2.6188	-2.6479	-2.6688	-2.2875	-2.8563	-2.7	-2.3521	-2.8354	-2.4167	-2.4792	11.469	-11.915	39.707	-108.449	134.149	209.737	172.013	185.600	3.772	-121.855	186.410	167.198	91.550	192.985	80.205	177.943	0.00079122	0.00036653	9.2028e-05	1369.9	2.1894e-06	4.5569e-06	1374.1	370.12	4.8232e-06	7.3199e-06	425.03	145.42	126.28	43.311	3.542e-06	53.178	0.00030553	0.00027464	7.6506e-05	1381.9	3.0835e-06	2.9513e-06	1387.5	375.29	2.9564e-06	2.8203e-06	428.26	147.01	127.66	44.095	2.965e-06	54.156	132.535	-49.651	-33.572	-120.060	-9.880	-2.767	-120.290	-115.485	-7.992	-21.098	-116.063	-112.194	-111.432	-106.717	5.591	-107.522	-8191	255	
14275.826	1	1	0	0	0.25848	0.26816	0.10123	0.44387	0.16101	0.01932	0.35025	0.17414	0.21267	0.17557	0.17787	0.30807	0.233	0.39499	0.32096	0.23185	-2.0604	-2.3083	-2.725	-2.9333	-2.3146	-2.6667	-2.7396	-2.375	-2.8604	-2.4792	-2.45	-2.6604	-2.3771	-2.7208	-2.4688	-2.4771	-22.224	94.746	103.748	166.046	150.307	-57.719	160.903	221.670	-45.765	121.771	168.518	173.184	144.285	206.592	-72.330	193.596	0.00078143	0.00042709	3.3259e-05	1370.6	3.5457e-06	7.7664e-06	1371.5	368.3	2.6866e-06	3.5556e-06	421.11	144.2	125.14	43.149	5.027e-06	52.862	0.00030155	0.00026885	7.55e-05	1378.6	3.091e-06	2.9947e-06	1381.6	372.87	3.062e-06	3.004e-06	425.96	146.4	127.09	44.033	3.0281e-06	54.13	132.333	-44.138	8.501	-119.929	-44.872	26.573	-120.261	-115.470	-84.364	-2.058	-115.793	-112.213	-111.366	-106.390	48.374	-107.263	-8191	255	
14275.922	1	1	0	0	0.068892	0.1655	0.10093	0.17679	0.28868	0.037092	0.13654	0.30163	0.12508	0.21901	0.24314	0.41555	0.1872	0.21983	0.079812	0.27256	-2.3812	-2.3229	-2.4646	-2.825	-2.0771	-2.7854	-2.6958	-2.3729	-2.9167	-2.3292	-2.5854	-2.8333	-2.4313	-2.7	-2.45	-2.5021	-21.424	70.778	104.505	218.365	185.812	147.375	-120.764	209.750	-38.490	110.486	153.412	218.205	223.559	-133.395	102.000	181.192	0.00063434	0.00052376	6.9463e-05	1371.2	3.9606e-06	5.0251e-06	1367.6	366.94	4.5314e-06	3.4984e-06	421.41	144.22	125.08	43.243	5.2338e-06	53.195	0.00029871	0.00027455	7.6711e-05	1382	3.0644e-06	3.0257e-06	1380.5	372.7	3.1214e-06	3.042e-06	426.82	146.24	127.1	44.006	3.1476e-06	54.127	135.826	-32.002	-44.416	-120.025	-27.849	17.257	-120.219	-115.550	-43.260	41.177	-115.990	-112.131	-111.370	-106.636	-31.096	-107.312	-8191	255	
14276.018	1	1	0	0	0.15138	0.1366	0.2616	0.20993	0.105	0.14583	0.31403	0.059079	0.20865	0.22123	0.10959	0.1356	0.17762	0.2676	0.27097	0.20849	-2.2104	-2.4188	-2.5458	-2.7917	-2.2604	-2.5396	-2.6792	-2.4333	-2.8854	-2.6625	-2.5146	-2.6646	-2.4562	-2.6208	-2.575	-2.3271	190.674	218.963	-59.936	217.742	198.132	58.072	163.120	179.458	-57.201	109.070	-117.523	172.379	139.730	202.941	-122.731	158.594	0.00077955	0.00048232	0.00016305	1380.4	3.2641e-06	2.522e-06	1367.7	367.71	4.8951e-06	5.5179e-06	422.02	144.39	124.96	43.161	5.4942e-06	52.908	0.00031818	0.0002818	7.9905e-05	1385.8	3.1563e-06	3.1696e-06	1382.2	372.98	3.2281e-06	3.2022e-06	426.76	146.2	126.9	43.91	3.3261e-06	54.054	126.279	-36.970	-55.214	-119.864	47.103	-33.899	-120.426	-115.334	-41.142	0.951	-115.770	-112.107	-111.329	-106.528	45.814	-107.370	-8191	255	
14276.090	1	1	0	0	0.15698	0.44606	0.21789	0.046074	0.051664	0.082723	0.46412	0.16506	0.11364	0.24903	0.34928	0.37459	0.16594	0.26845	0.22234	0.19827	-2.1875	-2.3104	-2.3771	-3.0229	-2.3229	-2.5729	-2.8396	-2.3854	-2.75	-2.3958	-2.5563	-2.825	-2.3271	-2.8542	-2.725	-2.425	177.284	-80.764	-12.026	105.180	59.475	-90.929	162.365	201.337	188.989	54.239	209.376	145.183	-28.996	206.291	109.460	-94.503	0.00075551	0.00031993	0.0001304	1375.4	4.6744e-06	4.627e-06	1367.5	368.77	2.7223e-06	1.4534e-06	424.66	144.85	125.94	43.185	8.9108e-06	53.126	0.00033542	0.00030004	8.6419e-05	1385	3.4967e-06	3.4153e-06	1383.4	373.57	3.4381e-06	3.447e-06	428.02	146.43	127.35	44.012	3.4315e-06	54.285	128.313	-97.844	-17.518	-119.903	-8.893	10.313	-120.181	-115.504	-7.202	-9.882	-115.864	-112.094	-111.190	-106.647	-18.091	-107.372	-8191	255	
14276.210	1	1	0	0	0.042376	0.1234	0.13262	0.20318	0.073609	0.29996	0.3063	0.20566	0.18919	0.22442	0.050527	0.32483	0.43541	0.14598	0.14356	0.080866	-1.9813	-2.75	-2.3458	-2.8104	-2.4771	-2.6125	-2.9396	-2.2125	-2.6458	-2.5896	-2.4	-2.9875	-2.5521	-2.525	-2.6333	-2.5646	219.323	171.578	104.084	169.037	149.633	6.704	179.433	121.414	-18.705	-119.570	-28.003	206.306	183.458	-128.386	-82.547	187.157	0.0008459	0.00031733	4.0753e-05	1377.1	3.5187e-06	4.7048e-06	1372.6	371.72	6.127e-06	7.699e-06	424.84	144.11	126.25	43.663	5.0974e-06	53.58	0.00033186	0.00030644	8.4923e-05	1390.9	3.4036e-06	3.3224e-06	1389.6	375.93	3.437e-06	3.3703e-06	429.19	147.1	128.01	44.359	3.3749e-06	54.645	132.876	-50.407	-24.266	-119.985	-2.765	8.572	-120.260	-115.544	-57.119	9.508	-115.883	-112.133	-111.540	-106.644	-1.397	-107.140	-8191	255	
14276.306	1	1	0	0	0.0028155	0.060798	0.33837	0.10679	0.223	0.25929	0.024692	0.19334	0.023375	0.10955	0.30068	0.16636	0.25573	0.34232	0.075171	0.10627	-2.1771	-2.5604	-2.3458	-3.0896	-2.4625	-2.5646	-2.95	-2.6333	-2.6	-2.6229	-2.5021	-2.7833	-2.5479	-2.4562	-2.8479	-2.4542	-92.794	211.551	-86.406	179.001	87.905	179.011	35.765	210.244	-6.103	182.603	207.956	163.778	172.318	213.389	140.574	165.268	0.00070182	0.00049582	0.00013825	1381.1	1.6407e-06	4.742e-06	1381.9	371.52	5.0917e-06	4.7857e-06	425.29	145.77	126.55	43.578	4.6884e-06	53.729	0.00033767	0.00030602	8.6586e-05	1393.9	3.3574e-06	3.4373e-06	1395.4	376.37	3.4999e-06	3.4088e-06	430.73	147.93	128.33	44.395	3.5582e-06	54.804	123.076	-46.580	-43.794	-119.970	53.456	28.403	-120.397	-115.413	-43.986	34.627	-115.830	-112.003	-111.360	-106.378	20.632	-107.406	-8191	255	
14276.403	1	1	0	0	0.13583	0.25028	0.18699	0.34435	0.070397	0.15412	0.39359	0.20154	0.26766	0.37299	0.17877	0.18002	0.19846	0.26075	0.2177	0.30678	-2.0583	-2.4708	-2.2542	-2.9542	-2.4354	-2.5229	-2.9146	-2.5583	-2.4104	-2.6729	-2.4354	-2.95	-2.7042	-2.3667	-2.6833	-2.4417	146.341	-107.708	22.972	218.013	179.397	-17.053	180.127	145.322	81.787	139.085	119.908	202.926	161.672	176.902	225.461	193.080	0.00082676	0.00083223	0.00021661	1386.5	4.5819e-06	7.4217e-06	1383.2	373.9	3.0554e-06	4.8268e-06	426.31	146.24	126.79	43.654	6.9961e-06	53.493	0.0003552	0.00033607	9.1889e-05	1399.9	3.7463e-06	3.6065e-06	1400.6	378.31	3.788e-06	3.6574e-06	432.69	148.41	128.71	44.544	3.7962e-06	54.679	129.648	-40.048	-58.309	-120.004	3.805	13.876	-120.159	-115.704	-56.358	21.952	-115.829	-112.147	-111.366	-106.636	21.693	-107.522	-8191	255	
14276.521	1	1	0	0	0.082049	0.25969	0.13742	0.47383	0.15319	0.21778	0.26341	0.15088	0.14862	0.19662	0.16484	0.27935	0.31061	0.37756	0.23222	0.24136	-1.9438	-2.6937	-2.1167	-2.6979	-2.525	-2.3375	-2.8187	-2.7812	-2.6	-2.5438	-2.3479	-2.8187	-2.7188	-2.3583	-2.9104	-2.5167	145.400	-93.065	106.389	158.355	2.967	-115.356	139.272	153.262	-54.679	-130.860	139.778	216.344	201.816	183.477	24.412	223.787	0.00078603	0.00030726	0.0001138	1383.7	4.2757e-06	8.1264e-06	1388.7	372.52	3.6727e-06	6.8081e-06	429.25	146.45	127.34	43.449	9.7796e-06	53.532	0.00037953	0.00034914	9.4692e-05	1401.5	3.7931e-06	3.7202e-06	1402.7	377.99	3.8141e-06	3.704e-06	433.49	148.46	129.15	44.407	3.8519e-06	54.714	130.150	-97.063	-55.808	-119.918	5.917	4.647	-120.161	-115.573	-21.407	38.933	-115.970	-112.166	-111.343	-106.774	34.117	-107.506	-8191	255	
14276.618	1	1	0	0	0.14962	0.1719	0.14131	0.2662	0.24177	0.13229	0.47711	0.27943	0.17249	0.4105	0.13467	0.096522	0.29852	0.1622	0.087688	0.17379	-1.9562	-2.7396	-2.3354	-2.9229	-2.5521	-2.3438	-3.0042	-2.6083	-2.3646	-2.7896	-2.5021	-2.5146	-2.7	-2.4188	-2.6708	-2.6937	51.867	214.362	145.814	191.863	100.392	30.607	179.036	130.971	-87.781	122.392	108.496	99.209	-95.223	150.548	-97.873	123.948	0.00074897	0.00041096	2.7248e-05	1383.2	3.3127e-06	4.855e-06	1387.8	372.16	5.6389e-06	4.2898e-06	426.4	145.87	126.74	43.56	5.9984e-06	53.316	0.0003795	0.00035049	9.9106e-05	1397.8	3.9115e-06	3.86e-06	1399.8	377.09	3.9526e-06	3.881e-06	432.46	147.81	128.37	44.412	3.9628e-06	54.631	134.812	-31.358	27.501	-119.987	-29.173	1.406	-120.064	-115.769	-23.294	16.431	-115.871	-111.975	-111.116	-106.553	-7.613	-107.290	-8191	255	
14276.714	1	1	0	0	0.25734	0.16834	0.024185	0.090537	0.17293	0.050776	0.3789	0.28133	0.057888	0.083492	0.070398	0.10211	0.1515	0.2074	0.22141	0.082272	-1.9104	-2.8812	-2.2354	-2.6188	-2.6604	-2.1854	-2.8208	-2.6875	-2.3312	-2.7958	-2.65	-2.6458	-2.8354	-2.3396	-2.6292	-2.4896	210.236	55.893	-42.455	122.375	181.552	188.694	149.587	182.160	109.462	120.744	92.965	107.412	161.324	185.128	74.246	-79.306	0.00064441	0.00063402	0.0001863	1392.5	3.663e-06	4.7681e-06	1386.5	373.28	3.4587e-06	2.9092e-06	427.38	145.81	127.27	43.907	3.9753e-06	53.495	0.00038077	0.00035164	9.6697e-05	1401.6	3.9089e-06	3.8816e-06	1400.5	377.8	3.8824e-06	3.797e-06	432.55	148.24	128.74	44.647	3.7823e-06	54.766	135.347	-48.687	-11.194	-119.973	24.970	31.620	-120.168	-115.582	-48.196	36.335	-115.774	-112.167	-111.429	-106.672	55.709	-107.345	-8191	255	
14276.810	1	1	0	0	0.21573	0.11391	0.13886	0.14372	0.23427	0.32204	0.12251	0.11246	0.19791	0.028031	0.1994	0.227	0.14805	0.12047	0.34543	0.19959	-1.9354	-2.7208	-2.4375	-2.5979	-2.8375	-2.4083	-2.9521	-2.7938	-2.1042	-2.8937	-2.4833	-2.7062	-2.8312	-2.3396	-2.4854	-2.5729	212.489	169.466	180.604	193.583	-87.541	100.743	121.939	128.852	62.373	97.425	179.670	225.422	181.167	-122.228	162.011	208.542	0.0007624	0.0005322	0.00020864	1384	3.3482e-06	7.5164e-06	1380.2	372.3	5.8404e-06	2.9081e-06	426.84	145.94	126.66	43.669	3.6134e-06	53.439	0.00037492	0.00033999	9.6955e-05	1396.8	3.8932e-06	3.7821e-06	1397	377.44	3.8809e-06	3.7065e-06	431.57	148.07	128.46	44.489	3.782e-06	54.582	136.027	-0.949	-56.335	-119.898	24.872	23.552	-120.361	-115.721	-16.339	-8.875	-115.926	-111.935	-111.531	-106.714	21.180	-107.157	-8191	255	
14276.906	1	1	0	0	0.087081	0.0048645	0.21367	0.12863	0.14917	0.20194	0.53407	0.14915	0.23587	0.14515	0.20133	0.048923	0.16494	0.087988	0.34072	0.13556	-1.9792	-2.7958	-2.3563	-2.6312	-2.7125	-2.1188	-2.6771	-2.8167	-2.2771	-2.6708	-2.7875	-2.4	-2.8771	-2.3917	-2.375	-2.7687	179.285	48.875	167.173	203.242	164.512	-13.744	141.945	-22.964	-42.565	-46.943	167.688	-52.122	193.550	180.183	-63.058	117.464	0.00070221	0.00037296	0.00014838	1383.6	4.7334e-06	3.6042e-06	1385.1	371.86	3.7652e-06	4.8027e-06	426.3	146.65	126.83	43.685	3.0591e-06	53.75	0.00036673	0.00034162	9.4085e-05	1395.9	3.6955e-06	3.663e-06	1397.9	377.34	3.8133e-06	3.6698e-06	432.23	148.24	128.67	44.579	3.6626e-06	54.839	127.070	-56.626	-26.064	-119.912	35.769	46.530	-120.258	-115.325	-59.355	21.043	-115.910	-112.165	-111.590	-106.582	12.961	-107.178	-8191	255	
14277.002	1	1	0	0	0.14601	0.065912	0.21228	0.19664	0.12123	0.1952	0.18736	0.24442	0.073153	0.46692	0.30617	0.20775	0.26649	0.30255	0.1623	0.057275	-1.7729	-2.7479	-2.4146	-2.425	-2.7687	-2.4333	-2.7438	-2.8458	-2.2479	-2.6125	-2.7604	-2.3375	-2.9	-2.4208	-2.5396	-2.9313	140.837	223.557	151.325	208.749	47.365	190.958	199.306	182.770	-84.725	105.589	182.622	-116.786	129.292	197.998	130.594	-85.990	0.00079349	0.00061405	9.1687e-05	1390.6	3.3806e-06	5.481e-06	1385	373.08	7.9347e-06	6.6471e-06	427.8	146.89	127.92	43.893	4.8862e-06	54.071	0.00036173	0.00032963	9.2138e-05	1400.9	3.6623e-06	3.5155e-06	1401.4	378.21	3.6261e-06	3.4146e-06	433.4	148.47	129.43	44.657	3.4701e-06	55.041	127.652	-36.349	-22.478	-119.973	-24.669	12.147	-120.133	-115.632	-21.573	12.765	-115.845	-112.212	-111.575	-106.618	48.847	-107.289	-8191	255	
14277.123	1	1	0	0	0.2701	0.18514	0.18426	0.34255	0.022716	0.040498	0.27266	0.23082	0.12262	0.12777	0.23671	0.28883	0.15891	0.10837	0.22862	0.33668	-1.8042	-2.5521	-2.425	-2.4396	-2.5771	-2.5083	-2.7375	-2.8854	-2.1188	-2.5271	-2.7	-2.2396	-2.8229	-2.6167	-2.4125	-2.8292	139.401	104.913	-17.864	193.584	-81.035	5.150	203.420	204.951	204.477	-91.486	194.936	181.100	216.986	41.014	144.269	176.912	0.00080957	0.00025533	0.00011218	1381.2	5.6171e-06	3.8267e-06	1378.6	373.39	5.4073e-06	8.9626e-06	427.6	145.72	127.21	43.676	7.4348e-06	53.805	0.00034545	0.00031037	8.7707e-05	1396.7	3.4972e-06	3.4486e-06	1396.1	378.2	3.4777e-06	3.4493e-06	432.48	147.98	128.91	44.538	3.4293e-06	54.768	127.361	9.839	-14.234	-119.995	-32.904	65.416	-120.177	-115.513	-11.227	24.163	-115.998	-112.023	-111.148	-106.866	-6.947	-107.082	-8191	255	
14277.219	1	1	0	0	0.11327	0.20258	0.046167	0.32931	0.13707	0.24437	0.38884	0.16478	0.023825	0.068493	0.17208	0.36375	0.19349	0.19483	0.3348	0.21686	-1.8563	-2.5667	-2.5854	-2.4667	-2.625	-2.55	-2.625	-2.9458	-2.3229	-2.4646	-2.8042	-2.4021	-2.7146	-2.7896	-2.2521	-2.8688	-1.945	-21.687	169.379	151.105	-104.179	110.947	154.949	93.835	20.825	-90.891	190.831	158.916	212.237	202.977	129.118	143.633	0.0008256	0.00062199	9.0826e-05	1381.4	2.302e-06	5.7031e-06	1379.7	372.93	3.2995e-06	4.5913e-06	426.72	146.24	127.24	43.905	4.4711e-06	53.777	0.00034174	0.00030896	8.4384e-05	1393.5	3.3487e-06	3.2853e-06	1393.9	377.6	3.3314e-06	3.2659e-06	432.21	148.38	128.87	44.564	3.3073e-06	54.766	128.901	-41.893	-48.463	-120.092	-78.814	9.195	-120.247	-115.585	-44.320	13.833	-116.116	-112.105	-111.589	-106.498	33.872	-107.244	-8191	255	
14277.315	1	1	0	0	0.28252	0.19753	0.033979	0.35076	0.25151	0.080876	0.30826	0.28273	0.11705	0.094698	0.16625	0.12877	0.31803	0.41021	0.2472	0.22762	-1.8354	-2.5167	-2.5083	-2.4062	-2.5771	-2.525	-2.6375	-3.0458	-2.3271	-2.4125	-2.7667	-2.3417	-2.6854	-2.6646	-2.2917	-2.8229	-121.120	-20.730	-131.010	209.009	95.357	94.916	149.587	174.466	142.294	-86.286	199.539	151.367	182.656	-129.496	43.178	186.972	0.00084448	0.00048543	0.00011116	1384	1.4591e-06	5.112e-06	1384.7	373.43	5.0193e-06	2.0547e-06	427.45	146.31	127.35	43.868	6.2311e-06	53.659	0.00032597	0.00030053	8.2088e-05	1394.6	3.2981e-06	3.2032e-06	1394.6	377.71	3.2787e-06	3.3089e-06	431.82	148.28	128.77	44.612	3.3369e-06	54.728	137.431	-36.533	-2.690	-119.786	45.406	19.414	-120.217	-115.653	-36.651	76.599	-115.772	-112.126	-111.320	-106.377	-5.474	-107.375	-8191	255	
14277.387	1	1	0	0	0.1478	0.028786	0.28657	0.16244	0.0058138	0.12341	0.099899	0.22215	0.02799	0.013488	0.1198	0.24559	0.25667	0.30193	0.068873	0.089476	-1.9771	-2.525	-2.7042	-2.4667	-2.6333	-2.6688	-2.4333	-2.8917	-2.475	-2.3708	-2.9208	-2.575	-2.5104	-2.8083	-2.3937	-2.6917	57.073	-47.807	158.360	209.192	134.417	185.765	105.878	143.207	-104.106	78.032	131.478	201.988	141.636	182.897	-128.194	104.823	0.00082387	0.00038883	0.000114	1381	6.0386e-06	6.384e-06	1378.2	373.78	4.1564e-06	5.4468e-06	426.07	146.64	126.95	43.962	3.409e-06	53.665	0.00033108	0.00029901	8.1736e-05	1392.1	3.3084e-06	3.2769e-06	1393.2	377.72	3.344e-06	3.3053e-06	431.79	148.18	128.81	44.61	3.2946e-06	54.691	127.766	-71.416	-45.090	-119.932	-20.047	18.884	-120.413	-115.515	-1.238	20.775	-115.956	-112.038	-111.342	-106.546	-9.920	-107.210	-8191	255	
14277.506	1	1	0	0	0.2079	0.14786	0.080252	0.33423	0.090603	0.12087	0.10438	0.35779	0.17802	0.11236	0.19859	0.23557	0.12619	0.27949	0.351	0.2008	-2.1604	-2.4813	-2.7708	-2.4771	-2.7	-2.7062	-2.45	-2.7521	-2.4042	-2.2646	-2.8542	-2.3479	-2.5458	-2.7583	-2.1542	-2.6375	1.637	214.866	11.870	119.683	214.320	218.893	197.429	155.646	174.889	141.844	144.889	174.572	172.372	169.170	-22.871	-121.494	0.0008519	0.00067336	0.000136	1385.1	3.6636e-06	6.2391e-06	1378.2	373.96	3.3558e-06	6.442e-06	427.04	145.58	127.28	43.579	5.6009e-06	53.87	0.00033078	0.00030549	8.4143e-05	1392.8	3.2967e-06	3.3646e-06	1394.4	377.55	3.3523e-06	3.2887e-06	432.54	148.14	128.55	44.426	3.4052e-06	54.71	131.436	-45.739	-7.246	-119.903	-1.720	11.778	-119.945	-115.502	15.836	26.066	-115.605	-112.067	-111.224	-106.507	11.938	-107.311	-8191	255	
14277.602	1	1	0	0	0.12036	0.057837	0.17395	0.45743	0.20678	0.15288	0.041671	0.24889	0.08262	0.052557	0.19595	0.23559	0.12094	0.11618	0.31065	0.29966	-2.1167	-2.2958	-2.6375	-2.3792	-2.4167	-2.6542	-2.3667	-2.6604	-2.5812	-2.3438	-2.9813	-2.6708	-2.6208	-2.8375	-2.2583	-2.4562	119.781	24.432	148.078	215.426	-38.726	135.492	-122.437	163.993	115.586	-107.471	54.623	128.903	-68.958	148.154	121.309	118.253	0.00075233	0.00040358	0.00013031	1378.5	7.9155e-06	5.7851e-06	1379.9	371.83	5.2201e-06	6.805e-06	428.12	145.6	127.16	43.445	2.7799e-06	53.745	0.00033536	0.00030922	8.3351e-05	1392.6	3.4008e-06	3.4013e-06	1393.3	377.08	3.3719e-06	3.2897e-06	432.24	147.88	128.55	44.325	3.366e-06	54.65	132.274	-33.098	-12.932	-119.745	-26.526	29.503	-120.247	-115.531	-31.093	-5.955	-115.932	-111.722	-111.354	-106.520	30.350	-106.936	-8191	255	
14277.698	1	1	0	0	0.23524	0.15993	0.03158	0.45297	0.034615	0.11121	0.10975	0.45686	0.064697	0.079916	0.36217	0.054477	0.27445	0.12496	0.45847	0.11865	-2.05	-2.1792	-2.7729	-2.7021	-2.425	-2.5854	-2.5375	-2.6354	-2.8146	-2.2625	-3.0958	-2.5667	-2.5438	-2.8292	-2.2958	-2.6375	-71.362	-115.740	223.466	204.493	91.140	206.030	179.813	149.883	-48.297	71.277	-113.540	23.234	-30.824	210.003	-49.648	50.953	0.00078199	0.00036486	0.00014073	1380.7	3.6603e-06	3.311e-06	1375.9	371.69	4.9135e-06	4.8835e-06	426.73	145.95	126.48	43.668	4.2133e-06	53.597	0.00033834	0.00031324	8.6166e-05	1390.4	3.4773e-06	3.4122e-06	1390.3	376.78	3.4901e-06	3.4128e-06	430.83	147.9	128.25	44.362	3.4424e-06	54.61	133.953	-50.986	-100.939	-120.013	-22.197	20.781	-120.202	-115.574	-18.701	14.241	-115.816	-111.925	-111.298	-106.568	6.320	-107.204	-8191	255	
14277.794	1	1	0	0	0.13659	0.10004	0.35752	0.16581	0.20977	0.18139	0.36609	0.31122	0.26779	0.024079	0.038821	0.11126	0.24035	0.13636	0.092141	0.25162	-2.2854	-2.1937	-2.6458	-2.8146	-2.3125	-2.6625	-2.5417	-2.7354	-2.7188	-2.3771	-2.7188	-2.7	-2.3187	-2.9083	-2.375	-2.5354	90.338	56.942	34.251	209.336	85.471	111.641	129.230	213.211	-14.402	42.963	122.910	-130.377	169.523	30.589	59.643	88.745	0.00072561	0.00055876	0.00011993	1381.3	2.8911e-06	3.82e-06	1376	372.89	6.2231e-06	3.7783e-06	427.23	145.25	126.66	43.496	3.9245e-06	53.477	0.00034692	0.00031375	8.6885e-05	1392.6	3.5183e-06	3.4702e-06	1392.2	377.1	3.4752e-06	3.4252e-06	432.46	147.7	128.51	44.388	3.4708e-06	54.595	127.116	-46.966	-28.317	-119.938	31.006	-12.018	-120.110	-115.342	-6.892	21.563	-116.086	-112.081	-111.201	-106.392	34.535	-107.115	-8191	255	
14277.890	1	1	0	0	0.12546	0.10126	0.22953	0.30636	0.13526	0.13247	0.10497	0.29106	0.12784	0.12131	0.22764	0.23379	0.15589	0.05639	0.076117	0.23742	-2.2604	-2.3312	-2.5792	-2.6979	-2.2146	-2.7812	-2.3333	-2.5646	-2.7375	-2.2562	-2.7354	-2.5	-2.275	-2.7188	-2.3229	-2.475	-60.171	187.222	211.880	182.752	-110.393	-40.795	153.439	189.228	151.201	-106.326	168.081	-85.358	134.995	162.156	-66.204	174.114	0.00090642	0.00083023	0.00015738	1378.5	6.2968e-06	3.162e-06	1377.1	374.08	4.4486e-06	4.2153e-06	427.56	145.35	126.76	43.585	2.1816e-06	53.761	0.00034784	0.00031134	8.8401e-05	1391.5	3.5089e-06	3.4293e-06	1392.4	377.31	3.5313e-06	3.4186e-06	431.89	147.49	128.35	44.314	3.4689e-06	54.633	137.310	-37.809	-74.793	-120.049	10.293	22.455	-119.939	-115.575	-21.388	-4.368	-115.911	-111.981	-111.437	-106.545	-14.644	-107.207	-8191	255	
14277.986	1	1	0	0	0.15694	0.11466	0.25047	0.27819	0.13598	0.13792	0.21995	0.23738	0.40742	0.092115	0.39641	0.18029	0.13987	0.070041	0.25617	0.14429	-2.3958	-2.3312	-2.4813	-2.6583	-2.0938	-2.7667	-2.5854	-2.5312	-2.6042	-2.475	-2.7333	-2.7313	-2.2958	-2.8646	-2.5604	-2.3958	84.454	21.928	23.156	223.439	60.755	138.059	162.642	156.434	150.063	-92.355	166.929	-20.673	-11.928	182.348	-61.148	135.023	0.00080209	0.00056018	0.00015854	1382.7	3.0171e-06	6.3418e-06	1376.9	372.74	2.7922e-06	5.7906e-06	427.22	144.77	126.77	43.575	4.3108e-06	53.629	0.00034986	0.00031668	8.8949e-05	1391.9	3.4797e-06	3.4648e-06	1391.3	376.95	3.5333e-06	3.5056e-06	431.69	147.49	128.37	44.366	3.5489e-06	54.583	130.955	-37.648	-41.196	-119.978	59.313	14.883	-120.121	-115.431	-21.877	1.650	-115.941	-112.204	-111.366	-106.451	-3.906	-107.421	-8191	255	
14278.083	1	1	0	0	0.044612	0.072967	0.069483	0.51678	0.22618	0.14434	0.30639	0.23171	0.10521	0.093749	0.14581	0.10106	0.13058	0.21136	0.1996	0.086603	-2.1479	-2.3021	-2.4708	-3.0042	-2.0083	-2.8042	-2.6271	-2.5292	-2.7417	-2.4604	-2.4104	-2.6667	-2.2896	-2.775	-2.6458	-2.3688	-42.465	224.674	-39.509	165.236	-72.892	-5.377	148.520	172.658	-121.539	2.966	184.769	-122.522	75.677	182.564	-120.876	172.221	0.00081904	0.00042685	0.0001834	1379.1	2.708e-06	6.0044e-06	1373.1	371.84	3.7329e-06	4.5487e-06	424.21	144.99	126.42	43.444	7.1637e-06	53.361	0.0003522	0.00031899	9.1137e-05	1392.1	3.5285e-06	3.4784e-06	1391.2	376.66	3.5711e-06	3.4456e-06	431.16	147.46	128.24	44.288	3.5411e-06	54.439	132.203	-40.946	-46.504	-120.006	33.554	-5.941	-120.139	-115.612	-47.846	49.390	-116.072	-112.132	-111.300	-106.390	10.468	-107.197	-8191	255	
14278.203	1	1	0	0	0.066439	0.087819	0.11626	0.24029	0.12347	0.058351	0.25518	0.43991	0.12797	0.094908	0.25183	0.15542	0.040804	0.14321	0.095651	0.065984	-2.2354	-2.2938	-2.3729	-2.8417	-2.2313	-2.6312	-3	-2.2917	-2.7875	-2.4458	-2.4896	-2.6958	-2.4875	-2.6833	-2.7458	-2.5667	-74.357	194.992	-56.823	216.404	221.651	-102.125	168.070	188.262	-18.293	27.440	-115.377	180.115	193.777	152.954	3.877	175.627	0.00084321	0.00024874	0.00012523	1378.4	4.7725e-06	4.0496e-06	1376.8	371.3	3.6007e-06	4.4383e-06	424.23	145.56	127.38	43.565	3.1876e-06	53.73	0.00035135	0.00032162	8.9654e-05	1393.6	3.6114e-06	3.5363e-06	1393.7	376.35	3.6186e-06	3.5186e-06	430.78	147.74	128.58	44.348	3.5395e-06	54.636	126.170	-70.897	-58.387	-119.916	-12.400	-1.839	-120.230	-115.735	3.153	46.952	-116.073	-112.205	-111.413	-106.266	29.477	-107.219	-8191	255	
14278.299	1	1	0	0	0.087433	0.035062	0.21217	0.22761	0.12117	0.098042	0.2654	0.48981	0.17702	0.082416	0.14293	0.074783	0.17093	0.10368	0.12058	0.36	-1.9917	-2.3563	-2.2917	-2.9188	-2.3375	-2.6312	-2.875	-2.2958	-2.675	-2.5229	-2.4292	-2.6188	-2.4146	-2.6646	-2.5062	-2.2896	-78.451	-89.126	-57.285	150.201	15.769	24.546	101.304	203.838	165.005	26.835	179.313	80.645	207.752	-118.896	154.477	162.491	0.000806	0.00061595	0.00021981	1384	4.671e-06	2.1892e-06	1377.7	372.01	4.0319e-06	8.9138e-06	428.68	145.81	127.19	43.374	6.8897e-06	53.442	0.00035501	0.00032947	9.346e-05	1394.8	3.6686e-06	3.5391e-06	1395.3	376.96	3.6696e-06	3.5816e-06	432.5	147.85	128.47	44.293	3.538e-06	54.617	136.132	-51.945	-55.106	-119.992	14.317	-3.805	-120.181	-115.708	-18.128	22.345	-116.290	-112.072	-111.494	-106.461	-28.338	-107.201	-8191	255	
14278.396	1	1	0	0	0.16259	0.13991	0.21369	0.21728	0.21541	0.092278	0.23843	0.25437	0.053961	0.063244	0.26612	0.24423	0.2398	0.3628	0.13288	0.31865	-2.0292	-2.5125	-2.2292	-3.0021	-2.2292	-2.4667	-2.7875	-2.325	-2.7458	-2.7188	-2.5021	-2.7146	-2.6917	-2.4333	-2.6208	-2.4292	195.098	-34.800	-10.125	166.538	135.909	116.205	171.605	142.670	-99.460	76.991	133.132	-61.341	202.797	215.053	84.240	144.628	0.00071611	0.00039289	0.00015813	1385.6	4.2269e-06	4.7503e-06	1383.3	372.92	3.8235e-06	6.9056e-06	426.69	145.26	126.67	43.535	6.8625e-06	53.648	0.00035847	0.00033031	9.2163e-05	1398.1	3.6593e-06	3.6068e-06	1399.5	377.65	3.7124e-06	3.6091e-06	432.29	147.95	128.47	44.426	3.6326e-06	54.624	133.804	-75.815	-46.047	-119.934	-42.513	15.334	-120.173	-115.669	-24.079	-9.501	-116.172	-112.229	-111.274	-106.494	14.425	-107.102	-8191	255	
14278.492	1	1	0	0	0.076402	0.073448	0.036553	0.17428	0.073957	0.035442	0.45418	0.10218	0.03998	0.27155	0.11626	0.28993	0.10165	0.17393	0.20603	0.17891	-2.0583	-2.6208	-2.2729	-2.9562	-2.2542	-2.2625	-2.9958	-2.3458	-2.6375	-2.5396	-2.3396	-2.8146	-2.3479	-2.5062	-2.6188	-2.4958	155.148	33.326	-128.638	197.935	-19.620	136.011	140.861	-92.099	0.608	-51.130	196.501	180.154	172.573	161.886	127.301	170.220	0.0008297	0.00039062	0.0001058	1389	5.1238e-06	5.6464e-06	1381.2	373.08	3.8031e-06	5.0471e-06	427.88	146.15	126.95	43.724	5.3259e-06	53.561	0.00036276	0.00032081	9.1394e-05	1400.1	3.6571e-06	3.6027e-06	1399.2	378.26	3.5989e-06	3.5299e-06	433.7	148.53	128.76	44.449	3.612e-06	54.735	130.860	-31.496	-67.463	-119.878	-51.440	20.231	-120.091	-115.333	-10.910	2.735	-115.981	-112.144	-111.657	-106.609	-17.282	-107.361	-8191	255	
14278.611	1	1	0	0	0.10971	0.16171	0.20091	0.32431	0.22205	0.06671	0.026982	0.44936	0.22413	0.31866	0.3992	0.18957	0.12827	0.28526	0.098816	0.28564	-2	-2.6354	-2.1875	-2.8958	-2.4708	-2.4021	-3.0312	-2.5687	-2.5625	-2.8	-2.2979	-2.8563	-2.4521	-2.425	-2.6083	-2.4292	154.378	10.327	65.504	195.079	-2.522	5.664	174.534	143.686	65.041	31.241	207.919	32.903	148.988	166.884	152.107	179.256	0.00081005	0.0005327	0.00018594	1387.5	2.73e-06	3.0185e-06	1389.3	374.77	6.0567e-06	7.1248e-06	427.84	147.09	127.55	43.651	1.6491e-06	53.477	0.00035446	0.00032193	9.0005e-05	1401.4	3.6263e-06	3.5988e-06	1404.7	378.92	3.6601e-06	3.5784e-06	433.62	148.67	129.17	44.58	3.5956e-06	54.699	131.069	-9.435	-19.083	-120.190	-5.429	-77.829	-120.091	-115.523	-9.966	28.044	-116.114	-112.442	-111.517	-106.458	2.251	-107.264	-8191	255	
14278.682	1	1	0	0	0.09703	0.070029	0.23943	0.097685	0.13301	0.27624	0.43082	0.28896	0.0284	0.37032	0.20632	0.302	0.020251	0.081814	0.096568	0.17831	-2.0917	-2.4958	-2.0667	-2.8208	-2.2979	-2.2562	-2.9708	-2.2792	-2.5354	-2.7125	-2.3229	-2.7583	-2.5979	-2.1708	-2.7542	-2.4417	11.675	156.003	-115.842	-105.624	108.308	84.603	155.390	188.623	-97.157	-7.795	98.163	166.045	122.853	170.195	10.592	217.811	0.00076363	0.00070723	9.6286e-05	1391.3	6.6613e-06	7.6054e-06	1393.3	373.26	4.8284e-06	4.3395e-06	426.78	146.11	127.03	43.781	5.956e-06	53.78	0.00035842	0.00032193	8.9608e-05	1404.4	3.7023e-06	3.5694e-06	1406.6	378.87	3.6146e-06	3.5722e-06	432.89	148.33	128.85	44.547	3.5899e-06	54.789	127.597	-51.031	-40.633	-119.956	23.100	-9.334	-120.194	-115.509	-19.444	30.633	-116.176	-112.137	-111.586	-106.507	2.316	-107.273	-8191	255	
14278.803	1	1	0	0	0.14986	0.20017	0.10593	0.34561	0.18973	0.26277	0.089244	0.30479	0.12453	0.065158	0.15719	0.52861	0.26579	0.10608	0.49476	0.1476	-1.9896	-2.6896	-2.1542	-2.7958	-2.7	-2.3021	-2.9062	-2.5792	-2.3229	-2.7292	-2.2917	-2.5958	-2.8688	-2.3896	-2.8271	-2.5771	82.381	-75.541	68.921	176.039	90.272	168.786	146.649	216.240	217.379	-69.381	143.194	186.811	-108.118	-26.039	190.425	137.050	0.00081682	0.00051263	0.00018457	1394.5	4.0259e-06	3.664e-06	1391.2	372.69	5.7155e-06	5.3632e-06	429.91	146.48	127.81	43.728	6.3766e-06	53.736	0.00035887	0.00032811	9.2207e-05	1405.9	3.6392e-06	3.5849e-06	1406	378.58	3.6684e-06	3.5834e-06	433.79	148.74	129.22	44.575	3.5744e-06	54.758	130.194	-67.371	-22.996	-120.098	-16.666	7.170	-120.280	-115.533	-3.912	17.016	-115.840	-112.095	-111.598	-106.707	23.292	-107.585	-8191	255	
14278.899	1	1	0	0	0.21035	0.10966	0.39026	0.29113	0.06657	0.088982	0.12469	0.15693	0.16297	0.3267	0.498	0.36953	0.37581	0.20003	0.27613	0.094952	-1.5792	-2.6208	-2.3708	-2.7542	-2.6083	-2.0062	-2.8417	-2.6333	-2.4188	-2.4958	-2.5396	-2.6771	-2.8042	-2.3312	-2.6063	-2.5563	99.420	79.588	157.390	171.425	212.675	55.332	193.537	146.209	39.023	-111.686	178.357	194.069	202.396	204.520	28.513	209.361	0.00078144	0.00015184	0.0001682	1390.5	4.6468e-06	7.0168e-06	1389.5	374.53	4.9044e-06	4.9802e-06	426.73	146.5	127.09	43.68	6.8444e-06	53.457	0.00036332	0.00032141	9.296e-05	1406	3.6409e-06	3.5626e-06	1405.2	379.14	3.6327e-06	3.5281e-06	433.87	148.87	129.04	44.565	3.6358e-06	54.793	130.817	-14.359	-38.836	-120.126	6.495	69.374	-120.265	-115.693	-16.814	25.388	-115.853	-112.181	-111.308	-106.540	-21.106	-107.368	-8191	255	
14278.995	1	1	0	0	0.27471	0.15067	0.18382	0.2033	0.11793	0.11754	0.37841	0.21157	0.083728	0.040955	0.25153	0.1881	0.24508	0.14847	0.20536	0.068657	-1.6958	-2.6958	-2.3354	-2.525	-2.6437	-2.325	-2.8063	-2.7875	-2.1646	-2.6833	-2.3792	-2.5042	-2.7896	-2.3354	-2.6167	-2.5479	61.928	-45.395	131.497	125.178	-45.088	224.592	177.319	56.929	31.423	-80.092	132.351	160.423	173.681	-34.806	-58.771	75.640	0.00079952	0.00061013	0.00018486	1389.6	3.2152e-06	2.9238e-06	1396	372.55	6.3776e-06	8.5617e-06	427.5	146.63	127.47	44.004	2.6939e-06	53.81	0.00036263	0.00032246	9.1179e-05	1406.2	3.6416e-06	3.5984e-06	1408.8	378.55	3.6607e-06	3.5145e-06	433.13	148.55	129.09	44.674	3.6784e-06	54.867	125.724	-55.231	-15.860	-119.830	-11.637	16.988	-120.237	-115.571	-22.845	12.187	-115.798	-112.104	-111.472	-106.382	1.831	-107.521	-8191	255	
14279.091	1	1	0	0	0.085189	0.045305	0.23681	0.35121	0.071675	0.19574	0.34	0.25203	0.092454	0.24648	0.10226	0.074775	0.27404	0.21864	0.014107	0.12958	-1.7979	-2.5917	-2.4292	-2.45	-2.6896	-2.0646	-2.7625	-2.8438	-2.1708	-2.7313	-2.6	-2.5104	-2.8604	-2.55	-2.5958	-2.8271	122.265	-25.991	151.369	173.200	144.685	-17.666	166.613	192.243	52.311	92.221	201.467	38.494	207.280	163.988	-85.173	197.965	0.00078717	0.00044946	0.00019518	1396.1	5.1099e-06	6.3571e-06	1389.9	374.44	3.4622e-06	6.8415e-06	428.71	146.19	126.66	43.818	1.832e-06	53.807	0.00035782	0.00032084	9.3376e-05	1408.1	3.6389e-06	3.6083e-06	1408.3	379.37	3.6368e-06	3.5947e-06	433.71	148.59	128.79	44.616	3.6076e-06	54.843	134.186	-57.822	-24.380	-120.169	-3.208	34.690	-120.317	-115.554	-8.042	-16.453	-115.745	-112.017	-111.245	-106.581	36.629	-107.315	-8191	255	
14279.187	1	1	0	0	0.12274	0.34501	0.14435	0.28212	0.30103	0.1111	0.14583	0.10203	0.25175	0.3658	0.22175	0.18242	0.34172	0.29237	0.079882	0.33	-1.7104	-2.7042	-2.4292	-2.4062	-2.8563	-2.3729	-2.5042	-2.7583	-2.2708	-2.5917	-2.6	-2.3583	-2.7375	-2.3521	-2.4083	-2.8021	97.695	100.538	-17.359	188.199	-130.948	-33.986	170.354	11.940	203.045	167.540	181.807	165.597	170.066	-2.074	-48.648	140.924	0.00080755	0.00055922	0.00013611	1396.4	5.3361e-06	5.0278e-06	1397.9	374.18	5.0271e-06	7.4592e-06	428.22	146.18	127	43.698	6.8607e-06	53.605	0.00035605	0.00032078	9.1478e-05	1407.8	3.6671e-06	3.5672e-06	1411.9	379.82	3.6598e-06	3.5797e-06	434.5	148.56	129.08	44.568	3.6007e-06	54.702	131.035	-53.769	-52.997	-119.880	-11.962	-5.453	-120.474	-115.696	-3.701	13.767	-116.002	-112.074	-111.117	-106.752	28.525	-107.137	-8191	255	
14279.284	1	1	0	0	0.23873	0.28812	0.16252	0.2695	0.20445	0.19965	0.30316	0.52809	0.24263	0.23227	0.12547	0.23112	0.30512	0.10319	0.106	0.34516	-1.8792	-2.5083	-2.4396	-2.5021	-2.6521	-2.3458	-2.6896	-2.6771	-2.0979	-2.5229	-2.6542	-2.3146	-2.7917	-2.6458	-2.2417	-2.8042	-25.378	-114.199	-128.743	-63.198	-64.279	131.617	189.560	188.796	179.205	-21.312	-91.263	-117.651	-113.424	219.927	203.993	200.013	0.00079003	0.00037888	7.0925e-05	1391.9	2.8695e-06	8.4509e-06	1392.7	375.11	4.6273e-06	7.136e-06	429.35	146.33	126.79	43.616	7.1547e-06	53.625	0.00036514	0.00033225	9.0704e-05	1407.7	3.6239e-06	3.6249e-06	1409.6	379.54	3.6824e-06	3.5945e-06	434.24	148.4	128.98	44.511	3.674e-06	54.761	135.438	-17.032	-30.890	-119.961	-35.141	14.820	-120.151	-115.400	-40.762	30.675	-116.242	-112.243	-111.512	-106.702	19.155	-107.240	-8191	255	
14279.380	1	1	0	0	0.23799	0.26601	0.2933	0.26567	0.28334	0.21581	0.30691	0.13529	0.29903	0.30149	0.15406	0.29631	0.35125	0.46706	0.21442	0.14366	-1.8563	-2.5042	-2.7354	-2.5333	-2.8125	-2.6271	-2.6	-2.7271	-2.2458	-2.5375	-2.7917	-2.3	-2.7458	-2.6875	-2.4854	-2.9292	184.585	153.965	-57.259	-120.586	216.222	33.423	179.644	140.595	-21.060	144.264	161.436	212.551	-118.931	165.763	69.397	-96.875	0.00090977	0.00063567	0.00010598	1394.9	2.5115e-06	5.0345e-06	1394.6	374.12	5.7432e-06	3.0032e-06	429.6	146.28	127.69	43.719	2.5403e-06	53.722	0.00035718	0.0003346	9.1804e-05	1408.6	3.7013e-06	3.6597e-06	1409.3	378.69	3.7123e-06	3.6023e-06	434.76	148.72	129.44	44.523	3.7231e-06	54.873	126.623	-59.150	6.362	-119.991	3.521	19.388	-120.274	-115.739	-41.298	6.649	-115.942	-112.237	-111.443	-106.396	24.003	-107.163	-8191	255	
14279.476	1	1	0	0	0.18993	0.3677	0.17248	0.18959	0.15433	0.29984	0.065054	0.18213	0.16115	0.018659	0.22055	0.20628	0.23384	0.13893	0.076084	0.3255	-1.8354	-2.5229	-2.7417	-2.5708	-2.6167	-2.5729	-2.4875	-3.0417	-2.2812	-2.4708	-2.9021	-2.2958	-2.7083	-2.6208	-2.3688	-2.75	114.885	132.863	70.792	132.722	-66.337	-128.124	128.549	159.674	-36.940	44.060	180.973	129.643	208.706	223.212	133.864	50.967	0.00086296	0.00073168	0.00014869	1396.8	3.7019e-07	2.9047e-06	1395.2	374.42	4.4421e-06	6.5133e-06	427.94	146.22	127.42	43.551	7.0085e-06	53.825	0.00036425	0.00033423	9.2722e-05	1409.2	3.6763e-06	3.6244e-06	1412	379.48	3.7051e-06	3.6808e-06	434.39	148.61	129.27	44.574	3.7335e-06	54.896	131.690	-48.965	-44.547	-119.970	-120.556	-0.055	-120.170	-115.671	-15.975	38.810	-115.872	-112.115	-111.299	-106.638	0.511	-107.000	-8191	255	
14279.572	1	1	0	0	0.22822	0.086013	0.16693	0.050835	0.17986	0.23307	0.15707	0.095866	0.1715	0.075591	0.25367	0.31039	0.24019	0.21817	0.11933	0.30506	-1.8104	-2.3042	-2.6625	-2.4646	-2.5229	-2.5833	-2.4813	-2.775	-2.525	-2.4729	-2.6646	-2.4979	-2.6396	-2.7479	-2.1792	-2.8063	77.328	52.361	105.544	-79.601	55.068	73.357	173.696	-101.551	180.203	153.852	196.592	148.903	214.372	211.254	-35.176	179.356	0.00089302	0.00068899	0.00019362	1402.1	5.3285e-06	4.0196e-06	1393.6	374.6	2.5268e-06	5.7051e-06	430.49	146.76	127.58	43.604	5.9343e-06	53.78	0.0003659	0.00034078	9.2828e-05	1412.1	3.7467e-06	3.715e-06	1411.6	379.75	3.7352e-06	3.7353e-06	435.03	148.74	129.37	44.501	3.7162e-06	54.85	132.835	-40.298	-36.253	-119.904	-8.508	50.945	-120.090	-115.755	-30.760	50.731	-116.000	-112.153	-111.356	-106.542	-10.793	-107.203	-8191	255	
14279.691	1	1	0	0	0.23328	0.26678	0.4505	0.42539	0.22018	0.083086	0.29702	0.36382	0.21122	0.15188	0.23241	0.20527	0.24513	0.16522	0.2836	0.30859	-2.0833	-2.1646	-2.5875	-2.5125	-2.4646	-2.6937	-2.3583	-2.8937	-2.5708	-2.3104	-2.7687	-2.2583	-2.5333	-2.6562	-2.3292	-2.7812	135.856	116.592	223.804	160.072	79.167	150.677	187.194	164.363	116.143	-33.410	200.227	178.227	-7.231	184.917	-131.335	152.828	0.00080399	0.00032195	0.00017	1400.8	4.9435e-06	7.6945e-06	1396.9	374.78	2.0865e-06	7.199e-06	430.1	146.35	127.59	43.696	9.4677e-06	53.617	0.0003668	0.00034079	9.2872e-05	1411.7	3.7672e-06	3.7462e-06	1413.1	379.24	3.7425e-06	3.7267e-06	435.06	148.5	129.42	44.531	3.776e-06	54.845	128.146	-36.414	-45.931	-119.988	-20.184	42.808	-120.231	-115.594	-22.833	-4.058	-116.077	-112.059	-111.239	-106.543	15.098	-106.969	-8191	255	
14279.787	1	1	0	0	0.06106	0.26859	0.083929	0.23665	0.14268	0.21189	0.24072	0.38721	0.27836	0.21818	0.070522	0.248	0.42599	0.19889	0.080338	0.3256	-2.0542	-2.2062	-2.7042	-2.7375	-2.3812	-2.6104	-2.4688	-2.7083	-2.5917	-2.1917	-2.7208	-2.6458	-2.4417	-2.8583	-2.2188	-2.5833	35.674	70.235	187.789	205.937	93.353	15.889	172.503	179.759	178.075	-39.756	138.565	39.868	157.889	-63.766	77.901	139.910	0.00085	0.00060576	0.00015359	1401.8	4.9062e-06	5.5344e-06	1392.3	374.48	4.4593e-06	6.5941e-06	428.77	146.66	127.69	43.574	7.1735e-06	53.267	0.00036626	0.00034401	9.6009e-05	1412.4	3.8642e-06	3.7114e-06	1410.7	379.48	3.7495e-06	3.7501e-06	434.97	148.77	129.58	44.487	3.8029e-06	54.72	129.061	-40.334	-60.645	-119.915	21.318	20.764	-120.227	-115.766	-48.303	35.753	-116.004	-112.049	-111.772	-106.801	-4.542	-107.054	-8191	255	
14279.883	1	1	0	0	0.16165	0.23677	0.1287	0.1473	0.29836	0.18503	0.25263	0.10534	0.15668	0.17494	0.25269	0.24974	0.26622	0.40814	0.26744	0.088439	-2.1063	-2.2021	-2.525	-2.5417	-2.4542	-2.7958	-2.3688	-2.675	-2.6625	-2.2062	-2.9083	-2.6667	-2.3271	-2.9104	-2.3146	-2.6729	79.595	4.469	126.849	196.387	-47.733	191.439	179.693	210.032	185.753	102.389	215.739	161.010	159.728	225.013	124.589	-125.458	0.00078229	0.00058499	8.3753e-05	1402.7	6.1743e-06	5.9808e-06	1397.9	375.19	4.1402e-06	3.8222e-06	427.35	147.31	127.66	43.699	8.6991e-07	53.78	0.00036781	0.0003443	9.4223e-05	1413.5	3.789e-06	3.6383e-06	1411.6	379.69	3.6943e-06	3.7474e-06	434.26	148.95	129.24	44.502	3.7821e-06	54.79	128.322	-54.789	-48.219	-119.981	5.828	10.151	-120.274	-115.363	-32.446	-12.080	-115.978	-112.128	-111.354	-106.717	130.719	-107.332	-8191	255	
14279.979	1	1	0	0	0.17392	0.22186	0.1323	0.18617	0.060146	0.061633	0.36162	0.4026	0.21783	0.26147	0.17268	0.20023	0.16218	0.2309	0.23343	0.17031	-2.1646	-2.1562	-2.6958	-2.6854	-2.2125	-2.6521	-2.4396	-2.7292	-2.8396	-2.4542	-2.8354	-2.4646	-2.5146	-3.0938	-2.1792	-2.6708	13.782	210.008	51.085	-116.470	168.543	-79.335	-133.500	158.238	14.044	-100.378	179.407	215.411	184.191	-127.249	171.303	219.197	0.00086598	0.00051538	5.5607e-05	1395.8	2.7843e-06	6.7725e-06	1397	375.78	1.692e-06	4.8018e-06	429.12	146.37	127.28	43.694	3.3631e-06	53.89	0.00037124	0.00034031	9.5585e-05	1411.3	3.7908e-06	3.7282e-06	1414.2	380.16	3.7948e-06	3.7022e-06	434.79	148.61	129.21	44.513	3.6944e-06	54.802	130.768	-57.388	-104.571	-119.871	-17.363	24.409	-120.202	-115.662	26.413	40.931	-116.055	-111.964	-111.498	-106.717	5.505	-107.153	-8191	255	
14280.076	1	1	0	0	0.033577	0.13091	0.18322	0.23553	0.23511	0.31187	0.076462	0.14791	0.13752	0.054257	0.1782	0.18149	0.24012	0.12348	0.056483	0.33222	-2.3083	-2.1896	-2.7375	-2.7958	-2.3229	-2.8063	-2.6229	-2.6771	-2.8438	-2.2396	-2.7083	-2.6167	-2.4167	-2.6917	-2.4938	-2.5354	59.332	205.843	-70.761	180.872	181.960	-126.674	46.492	207.347	-32.643	-119.920	203.666	95.371	181.029	-108.915	221.372	172.685	0.00088472	0.00071402	0.00017801	1394.9	5.9419e-06	6.8874e-06	1395	374.84	4.5659e-06	8.9715e-06	429.78	146.16	127.45	43.586	1.0382e-05	53.971	0.00037139	0.00033247	9.5192e-05	1410.8	3.7459e-06	3.7333e-06	1412.1	379.75	3.7811e-06	3.7232e-06	434.77	148.62	129.23	44.522	3.7924e-06	54.914	129.018	-38.283	0.243	-119.889	1.128	28.043	-120.191	-115.595	4.809	6.033	-115.920	-112.264	-111.585	-106.687	7.546	-107.355	-8191	255	
14280.172	1	1	0	0	0.20535	0.15856	0.2528	0.24455	0.18355	0.1621	0.27864	0.2324	0.1426	0.19425	0.10003	0.16055	0.06969	0.34554	0.069086	0.23725	-2.2875	-2.3479	-2.5292	-2.6771	-2.1708	-2.5854	-2.7479	-2.4188	-2.5938	-2.2542	-2.6813	-2.7521	-2.3854	-2.7021	-2.5229	-2.5167	89.866	122.716	125.119	180.416	203.600	159.038	152.386	219.070	88.851	-88.388	211.270	-100.664	-79.940	194.197	175.807	159.202	0.00089456	0.00043152	0.00012048	1399.7	2.4037e-06	2.4345e-06	1398.9	373.97	8.7157e-06	2.3018e-06	429.65	146.57	127.06	43.497	5.0286e-06	53.754	0.00037655	0.00034148	9.648e-05	1411.8	3.8305e-06	3.7363e-06	1412.9	379.52	3.7131e-06	3.8043e-06	434.62	148.74	129.19	44.532	3.7326e-06	54.799	134.479	-90.037	-43.033	-119.877	29.896	4.733	-120.387	-115.581	-25.614	19.984	-115.786	-112.171	-111.410	-106.649	-33.460	-107.228	-8191	255	
14280.292	1	1	0	0	0.24988	0.238	0.1045	0.36515	0.29452	0.095096	0.35394	0.067112	0.084175	0.10933	0.17507	0.17148	0.26447	0.22709	0.21079	0.15104	-2.2458	-2.3292	-2.4396	-2.7917	-2.3479	-2.6729	-2.5896	-2.525	-2.6125	-2.2771	-2.5646	-2.7604	-2.275	-2.6104	-2.4396	-2.2667	-55.345	28.818	-115.653	213.078	179.968	189.904	129.549	-73.556	177.499	-58.305	-108.548	175.371	206.965	201.913	103.387	162.564	0.00088098	0.00043229	6.5515e-05	1397.9	6.9492e-06	3.3669e-06	1397.7	375.17	5.9523e-06	9.4925e-06	428.28	146.01	127.47	43.752	5.0506e-06	53.554	0.00036599	0.00034275	9.594e-05	1412.1	3.7745e-06	3.7463e-06	1412.9	380.22	3.8259e-06	3.7464e-06	434.67	148.53	129.34	44.56	3.777e-06	54.785	133.987	-34.861	-23.843	-120.095	1.736	65.182	-120.266	-115.720	-39.604	36.031	-115.934	-112.116	-111.610	-106.755	48.791	-107.205	-8191	255	
14280.388	1	1	0	0	0.11771	0.19996	0.2156	0.18604	0.20953	0.14414	0.18927	0.38311	0.12791	0.077468	0.35567	0.089766	0.23052	0.40037	0.24205	0.34388	-2.3229	-2.2917	-2.2313	-2.7	-2.4271	-2.5583	-2.8125	-2.3479	-2.7792	-2.325	-2.4292	-2.7104	-2.3187	-2.7292	-2.4938	-2.3	-69.682	217.394	175.222	199.931	222.546	-121.025	162.087	124.809	-62.848	-124.527	143.417	156.211	-103.085	210.495	-8.730	163.572	0.00082641	0.00047373	0.00011075	1404.1	6.4709e-06	3.9505e-06	1401	373.46	4.1024e-06	2.7343e-06	429.22	146.43	127.18	43.883	6.5262e-06	53.581	0.00037103	0.00033807	9.6258e-05	1413.6	3.9098e-06	3.7233e-06	1411.8	379.25	3.8328e-06	3.8092e-06	434.87	148.91	129.24	44.531	3.7564e-06	54.812	129.902	-45.996	-18.763	-120.056	-14.214	-12.730	-120.120	-115.710	-41.404	-5.362	-115.793	-112.194	-111.215	-106.535	8.492	-107.371	-8191	255	
14280.485	1	1	0	0	0.2188	0.16101	0.29646	0.30064	0.30201	0.17914	0.21462	0.089602	0.17309	0.062949	0.22045	0.18719	0.051232	0.33974	0.021967	0.24203	-2.0312	-2.3812	-2.3604	-2.7354	-2.2792	-2.5167	-2.8979	-2.2958	-2.6	-2.525	-2.3583	-2.8083	-2.3979	-2.7292	-2.6	-2.3833	47.296	100.582	98.734	154.980	44.635	125.761	113.062	140.426	-87.781	79.747	189.319	161.042	-122.556	159.510	-39.260	118.005	0.00077168	0.00067438	9.7839e-05	1403	3.1825e-06	5.2957e-06	1397.6	376.86	5.1574e-06	3.2353e-06	430.49	146.78	127.53	43.662	5.0462e-06	53.964	0.00037138	0.00033882	9.7427e-05	1413.5	3.8127e-06	3.7399e-06	1413.2	379.96	3.8621e-06	3.7975e-06	435.44	148.72	129.43	44.515	3.7859e-06	54.876	132.119	-63.348	-37.912	-120.044	10.515	5.044	-120.395	-115.561	-20.867	31.091	-116.057	-112.164	-111.419	-106.398	21.748	-107.233	-8191	255	
14280.579	1	1	0	0	0.21892	0.18099	0.17987	0.35229	0.12751	0.17475	0.23034	0.17626	0.31775	0.090499	0.098845	0.31358	0.4051	0.13626	0.25164	0.20475	-2.3063	-2.4938	-2.1875	-2.825	-2.4521	-2.4333	-3	-2.4521	-2.5333	-2.5521	-2.3333	-2.8375	-2.4896	-2.4354	-2.6542	-2.5271	214.755	-37.800	-90.214	157.264	134.564	-117.470	200.373	150.802	-107.959	208.328	179.653	178.476	182.322	-80.277	120.247	144.805	0.00080346	0.0007228	0.00011684	1403.8	4.0984e-06	4.217e-06	1396.5	375.83	3.2262e-06	6.8342e-06	428.01	146.05	127.52	43.703	4.4309e-06	53.736	0.00037078	0.00034604	9.6942e-05	1414	3.7498e-06	3.7897e-06	1413.5	380.64	3.8524e-06	3.7032e-06	433.97	148.68	129.42	44.598	3.7753e-06	54.796	126.105	-25.577	-12.459	-120.032	0.636	12.413	-120.330	-115.757	-24.401	16.520	-116.167	-112.123	-111.585	-106.519	-18.184	-107.307	-8191	255	
#DATA ENDS
