BOXY.EXE: ISS Imagent and Oximeter Data Acquisition Program Version 0.80
Ascii Record File

#ACQ INFORMATION
2  Detector Channels 
16  External MUX Channels 
1  Auxiliary Channels 
5000  Waveform (CCF) Frequency (Hz)
1  Waveforms Skipped 
30  Waveforms Averaged 
1  Cycles Averaged 
16  Acquisitions per Waveform 
10.0806  Updata Rate (Hz) 

#FILE INFORMATION
TRUE -- External MUX Channel results are PARSED.
FALSE -- AC DC and Phase are NOT grouped.
TRUE -- Companion Program Settings File CREATED.
FALSE -- AC data not excluded
FALSE -- DC data not excluded
FALSE -- Phase data not excluded
FALSE -- Auxillary Chn. data not excluded
Tab delimiters

#CALIBRATION STATE
TRUE -- Waveform Calibration Values APPLIED.


#AUX CALIBRATION VALUES
Val Type	aux-1	

Term	1.0000e+00	
Factor	0.0000e+00	


#WF CALIBRATION VALUES
A = Detector Channel
Val Type	A-AC1	A-AC2	A-AC3	A-AC4	A-AC5	A-AC6	A-AC7	A-AC8	A-AC9	A-AC10	A-AC11	A-AC12	A-AC13	A-AC14	A-AC15	A-AC16	A-DC1	A-DC2	A-DC3	A-DC4	A-DC5	A-DC6	A-DC7	A-DC8	A-DC9	A-DC10	A-DC11	A-DC12	A-DC13	A-DC14	A-DC15	A-DC16	A-Ph1	A-Ph2	A-Ph3	A-Ph4	A-Ph5	A-Ph6	A-Ph7	A-Ph8	A-Ph9	A-Ph10	A-Ph11	A-Ph12	A-Ph13	A-Ph14	A-Ph15	A-Ph16	

Term	0.00000e+00	0.00000e+00	0.00000e+00	0.00000e+00	0.00000e+00	0.00000e+00	0.00000e+00	0.00000e+00	0.00000e+00	0.00000e+00	0.00000e+00	0.00000e+00	0.00000e+00	0.00000e+00	0.00000e+00	0.00000e+00	0.00000e+00	0.00000e+00	0.00000e+00	0.00000e+00	0.00000e+00	0.00000e+00	0.00000e+00	0.00000e+00	0.00000e+00	0.00000e+00	0.00000e+00	0.00000e+00	0.00000e+00	0.00000e+00	0.00000e+00	0.00000e+00	0.00000e+00	0.00000e+00	0.00000e+00	0.00000e+00	0.00000e+00	0.00000e+00	0.00000e+00	0.00000e+00	0.00000e+00	0.00000e+00	0.00000e+00	0.00000e+00	0.00000e+00	0.00000e+00	0.00000e+00	0.00000e+00	
Factor	1.00000e+00	1.00000e+00	1.00000e+00	1.00000e+00	1.00000e+00	1.00000e+00	1.00000e+00	1.00000e+00	1.00000e+00	1.00000e+00	1.00000e+00	1.00000e+00	1.00000e+00	1.00000e+00	1.00000e+00	1.00000e+00	1.00000e+00	1.00000e+00	1.00000e+00	1.00000e+00	1.00000e+00	1.00000e+00	1.00000e+00	1.00000e+00	1.00000e+00	1.00000e+00	1.00000e+00	1.00000e+00	1.00000e+00	1.00000e+00	1.00000e+00	1.00000e+00	X	X	X	X	X	X	X	X	X	X	X	X	X	X	X	X	

B = Detector Channel
Val Type	B-AC1	B-AC2	B-AC3	B-AC4	B-AC5	B-AC6	B-AC7	B-AC8	B-AC9	B-AC10	B-AC11	B-AC12	B-AC13	B-AC14	B-AC15	B-AC16	B-DC1	B-DC2	B-DC3	B-DC4	B-DC5	B-DC6	B-DC7	B-DC8	B-DC9	B-DC10	B-DC11	B-DC12	B-DC13	B-DC14	B-DC15	B-DC16	B-Ph1	B-Ph2	B-Ph3	B-Ph4	B-Ph5	B-Ph6	B-Ph7	B-Ph8	B-Ph9	B-Ph10	B-Ph11	B-Ph12	B-Ph13	B-Ph14	B-Ph15	B-Ph16	

Term	0.00000e+00	0.00000e+00	0.00000e+00	0.00000e+00	0.00000e+00	0.00000e+00	0.00000e+00	0.00000e+00	0.00000e+00	0.00000e+00	0.00000e+00	0.00000e+00	0.00000e+00	0.00000e+00	0.00000e+00	0.00000e+00	0.00000e+00	0.00000e+00	0.00000e+00	0.00000e+00	0.00000e+00	0.00000e+00	0.00000e+00	0.00000e+00	0.00000e+00	0.00000e+00	0.00000e+00	0.00000e+00	0.00000e+00	0.00000e+00	0.00000e+00	0.00000e+00	1.18084e+01	-1.38873e+02	-1.24998e+02	-1.83146e+02	-7.27340e+01	-6.37033e+01	-1.60638e+02	-1.62015e+02	-3.12208e+01	-6.27560e+01	-1.72582e+02	-1.72483e+02	-1.83079e+02	-1.78092e+02	-9.56933e+01	-1.50919e+02	
Factor	4.44032e-05	1.51227e-04	4.59897e-05	1.52212e-01	1.40126e-06	1.22182e-06	1.72356e-01	5.67285e-02	1.37058e-06	1.58077e-06	8.83220e-02	2.95593e-02	2.80079e-02	9.00119e-03	1.53101e-06	1.30876e-02	1.36817e-06	1.41543e-06	3.92752e-07	7.76740e-02	1.54102e-08	1.54915e-08	8.23777e-02	2.87967e-02	1.53811e-08	1.54814e-08	4.31705e-02	1.44196e-02	1.41529e-02	4.56543e-03	1.54541e-08	6.40635e-03	X	X	X	X	X	X	X	X	X	X	X	X	X	X	X	X	



#DISTANCE SETTINGS
A = Detector Channel
A-1	A-2	A-3	A-4	A-5	A-6	A-7	A-8	A-9	A-10	A-11	A-12	A-13	A-14	A-15	A-16	

2.5000e+00	3.0000e+00	2.5000e+00	3.0000e+00	2.0000e+00	3.0000e+00	1.5000e+00	3.0000e+00	3.0000e+00	3.0000e+00	3.0000e+00	3.0000e+00	3.0000e+00	3.0000e+00	1.5000e+00	3.0000e+00	

B = Detector Channel
B-1	B-2	B-3	B-4	B-5	B-6	B-7	B-8	B-9	B-10	B-11	B-12	B-13	B-14	B-15	B-16	

1.0000e+01	1.0000e+01	1.0000e+01	1.4400e+00	1.0000e+01	1.0000e+01	1.5100e+00	1.9400e+00	1.0000e+01	1.0000e+01	1.9900e+00	2.4900e+00	2.4100e+00	2.9000e+00	1.0000e+01	2.9800e+00	




#DATA BEGINS
time	group	step	mark	flag	A-AC1	A-AC2	A-AC3	A-AC4	A-AC5	A-AC6	A-AC7	A-AC8	A-AC9	A-AC10	A-AC11	A-AC12	A-AC13	A-AC14	A-AC15	A-AC16	A-DC1	A-DC2	A-DC3	A-DC4	A-DC5	A-DC6	A-DC7	A-DC8	A-DC9	A-DC10	A-DC11	A-DC12	A-DC13	A-DC14	A-DC15	A-DC16	A-Ph1	A-Ph2	A-Ph3	A-Ph4	A-Ph5	A-Ph6	A-Ph7	A-Ph8	A-Ph9	A-Ph10	A-Ph11	A-Ph12	A-Ph13	A-Ph14	A-Ph15	A-Ph16	B-AC1	B-AC2	B-AC3	B-AC4	B-AC5	B-AC6	B-AC7	B-AC8	B-AC9	B-AC10	B-AC11	B-AC12	B-AC13	B-AC14	B-AC15	B-AC16	B-DC1	B-DC2	B-DC3	B-DC4	B-DC5	B-DC6	B-DC7	B-DC8	B-DC9	B-DC10	B-DC11	B-DC12	B-DC13	B-DC14	B-DC15	B-DC16	B-Ph1	B-Ph2	B-Ph3	B-Ph4	B-Ph5	B-Ph6	B-Ph7	B-Ph8	B-Ph9	B-Ph10	B-Ph11	B-Ph12	B-Ph13	B-Ph14	B-Ph15	B-Ph16	aux-1	digaux	

21320.955	1	1	0	256	0.32778	0.17591	0.18079	0.28415	0.13167	0.083805	0.16002	0.087292	0.13225	0.22283	0.24319	0.075098	0.011509	0.2549	0.030528	0.19329	-2.1875	-2.525	-2.4146	-2.7917	-2.6229	-2.5563	-2.8625	-2.3479	-2.7271	-2.575	-2.4625	-2.8688	-2.5792	-2.5938	-2.7292	-2.2771	23.049	94.402	131.358	269.115	224.098	-1.796	169.232	203.890	253.890	288.730	145.210	143.255	188.406	331.539	83.846	289.843	0.00026817	0.00070849	0.00013488	399.05	3.1542e-06	5.5777e-07	474.77	101.5	4.5478e-06	6.1084e-06	147.82	58.575	36.215	10.01	2.7802e-06	22.45	0.0003561	0.00036264	9.9834e-05	404.03	3.9141e-06	3.961e-06	473.5	104.4	3.9678e-06	3.9338e-06	151.41	59.608	37.8	10.666	3.9834e-06	22.822	271.329	-21.144	28.661	-8.940	230.157	178.780	-9.582	-3.957	138.055	148.123	-5.563	-0.863	0.331	5.182	109.893	2.671	-8191	255	
21321.076	1	1	0	0	0.21438	0.01793	0.28885	0.11405	0.062356	0.17759	0.13505	0.070071	0.2227	0.13873	0.16579	0.2649	0.34753	0.081006	0.15929	0.049986	-1.9917	-2.7167	-2.4083	-2.9062	-2.6604	-2.3625	-2.8021	-2.2417	-2.5771	-2.8271	-2.3979	-2.6208	-2.4958	-2.6937	-2.9042	-2.4583	261.103	280.620	283.783	142.920	55.527	79.549	334.462	-16.977	28.767	-0.032	318.858	-12.336	241.980	8.828	271.252	332.172	0.00023266	0.00030309	6.1667e-05	399.8	1.7139e-06	2.2645e-06	471.87	102.11	2.8209e-06	5.0484e-06	148.8	59.036	36.04	10.035	5.9801e-06	22.405	0.0003551	0.00036049	9.9009e-05	402.67	3.9732e-06	3.9894e-06	471.54	103.9	3.9944e-06	3.9772e-06	151.13	59.707	37.832	10.718	4.0049e-06	22.866	248.165	269.398	53.363	-9.213	158.556	119.563	-9.874	-3.639	141.348	336.269	-5.605	-0.971	0.601	5.576	113.199	2.337	-8191	255	
21321.174	1	1	0	0	0.086038	0.032562	0.096946	0.15018	0.18072	0.1312	0.060212	0.42785	0.13613	0.10802	0.12598	0.29487	0.10572	0.02767	0.27629	0.26918	-2.2188	-2.6188	-2.2375	-2.7812	-2.5125	-2.3875	-2.9125	-2.5208	-2.5542	-2.6312	-2.4646	-2.7583	-2.6521	-2.4271	-2.9188	-2.5438	135.221	218.763	92.669	299.091	24.848	221.050	274.991	304.384	327.473	204.154	334.866	265.445	137.477	127.510	271.738	84.118	0.00026746	4.112e-05	0.00015074	399.07	2.5942e-06	3.2867e-06	467.17	101.4	6.6192e-06	3.4133e-06	148.27	59.873	36.416	9.9266	4.2163e-06	22.853	0.00036313	0.0003711	0.0001007	401.53	3.9891e-06	3.989e-06	468.95	104.15	4.0159e-06	3.9948e-06	151.62	60.101	38.006	10.735	3.9789e-06	23.158	262.454	229.269	112.850	-9.580	288.225	176.303	-10.113	-4.197	154.801	148.993	-5.822	-1.022	0.546	5.010	282.260	2.586	-8191	255	
21321.244	1	1	0	0	0.24797	0.14791	0.24493	0.15521	0.60756	0.28335	0.12994	0.051574	0.11636	0.51001	0.27899	0.15642	0.18527	0.12839	0.028977	0.30841	-2.0333	-2.9417	-2.325	-2.75	-2.7417	-2.4604	-3.0917	-2.6146	-2.6271	-2.975	-2.5062	-2.5479	-2.8167	-2.2604	-2.7375	-2.7917	304.467	70.536	254.168	170.026	109.958	46.129	-18.857	57.600	175.231	280.612	278.381	144.262	-3.758	219.910	303.513	255.919	0.0001523	0.00056465	6.0696e-05	397.73	2.2577e-06	1.3092e-06	470.56	102.09	3.7393e-06	5.4525e-06	148.72	59.489	36.094	10.054	5.4416e-06	22.706	0.00036251	0.00036369	9.9532e-05	400.93	3.9408e-06	3.9315e-06	471.15	104.23	3.9258e-06	3.9508e-06	151.55	60.094	37.875	10.724	3.9272e-06	23.093	247.195	10.551	314.352	-9.154	46.289	201.958	-9.613	-3.550	170.063	134.350	-6.209	-1.025	0.292	5.843	236.456	3.223	-8191	255	
21321.365	1	1	0	0	0.33974	0.11298	0.038626	0.32767	0.17422	0.41226	0.15038	0.096119	0.04531	0.082261	0.028869	0.05178	0.27886	0.26953	0.14911	0.074205	-2.0583	-2.8729	-2.3146	-2.7208	-2.6854	-2.2313	-2.7938	-2.45	-2.625	-2.7979	-2.2438	-2.4917	-2.6458	-2.3396	-2.7792	-2.4938	146.676	177.533	308.069	264.714	234.621	274.141	-5.833	287.968	259.923	-20.197	236.502	106.433	286.783	330.631	238.955	-5.297	0.00033033	0.0001468	0.00014268	398.37	3.4488e-06	2.7598e-06	468	102.02	1.5456e-06	5.4771e-06	149.75	58.812	36.24	10.115	7.6867e-07	22.487	0.00035574	0.0003631	9.7482e-05	400.65	3.9494e-06	3.9166e-06	468.24	104.46	3.8986e-06	3.963e-06	151.6	59.688	37.777	10.734	3.9533e-06	23.07	235.152	128.678	39.024	-9.380	330.750	198.395	-9.340	-3.782	188.104	188.387	-5.580	-1.214	-0.061	5.167	209.794	2.542	-8191	255	
21321.461	1	1	0	0	0.18783	0.20247	0.19003	0.11798	0.051164	0.26846	0.10284	0.070442	0.12664	0.072294	0.063692	0.09376	0.08869	0.10611	0.17819	0.10388	-1.9021	-2.7708	-2.4875	-2.5771	-2.6562	-2.1333	-2.6813	-2.5062	-2.1958	-2.8104	-2.4583	-2.4271	-2.6167	-2.4437	-2.5646	-2.7375	210.661	215.641	216.539	335.221	193.643	163.963	204.868	61.993	114.618	1.749	28.329	143.918	115.343	266.432	67.469	277.794	0.0002107	0.00039966	5.6374e-05	398.66	4.8113e-06	4.1522e-07	473.87	102.03	7.7135e-07	5.5892e-06	150.63	59.518	37.05	9.9695	7.12e-06	22.888	0.00036213	0.00036452	9.9277e-05	403.33	3.9286e-06	3.897e-06	473.12	104.91	3.9532e-06	3.9779e-06	153.15	60.333	38.301	10.766	3.9916e-06	23.266	294.985	81.373	241.436	-9.411	83.547	54.828	-9.664	-3.713	130.227	135.601	-5.574	-0.740	0.120	5.541	139.819	2.601	-8191	255	
21321.559	1	1	0	0	0.25663	0.037659	0.23542	0.19261	0.23258	0.21599	0.18086	0.038763	0.261	0.094735	0.080954	0.21342	0.062499	0.11124	0.1697	0.21476	-1.8083	-2.7438	-2.3708	-2.4813	-2.775	-2.4354	-2.6854	-2.675	-2.4396	-2.75	-2.6167	-2.3563	-2.7271	-2.2875	-2.6479	-2.9313	71.473	195.219	25.059	144.578	83.726	18.201	14.373	280.327	157.150	285.229	38.706	282.234	0.536	229.968	301.582	253.658	0.00026168	0.0001492	8.2884e-05	400.87	2.2605e-06	5.5248e-06	474.27	103.62	2.9288e-06	4.2451e-06	152.96	61.059	37.063	10.263	7.3783e-07	23.006	0.00035073	0.00036328	9.9817e-05	404.57	3.9542e-06	3.9118e-06	475.56	106.14	3.9319e-06	4.0117e-06	155.68	61.382	38.661	10.904	4.059e-06	23.448	300.226	145.561	300.287	-9.220	178.450	148.327	-9.453	-3.703	125.411	134.036	-5.593	-1.084	-0.036	5.269	308.112	2.556	-8191	255	
21321.654	1	1	0	0	0.11723	0.18398	0.184	0.27454	0.075541	0.17151	0.13161	0.064941	0.098503	0.20975	0.28545	0.1461	0.080926	0.24905	0.23097	0.25824	-1.7396	-2.7417	-2.6583	-2.4667	-2.7104	-2.3375	-2.4813	-2.65	-2.4104	-2.7	-2.35	-2.2625	-2.6958	-2.2979	-2.4792	-2.8417	249.314	-5.674	75.174	66.623	99.244	198.993	305.184	327.977	22.759	124.393	46.960	242.110	314.863	16.107	141.956	36.496	0.00019148	0.00039514	0.00018614	403.56	3.2199e-06	3.2911e-06	477	104.6	2.4185e-06	1.4079e-06	153.41	60.756	37.295	10.319	3.8158e-06	23.032	0.00035373	0.00037101	0.00010305	406.8	4.0148e-06	4.0138e-06	478.3	107.06	3.9928e-06	4.0943e-06	156.46	61.397	38.971	10.974	4.0154e-06	23.4	258.839	229.594	130.137	-9.133	259.754	202.120	-9.342	-3.478	247.030	128.823	-5.436	-0.470	0.180	4.841	184.697	2.850	-8191	255	
21321.773	1	1	0	0	0.1777	0.020627	0.1757	0.28359	0.14407	0.30284	0.13091	0.084703	0.18443	0.16905	0.083036	0.19893	0.19068	0.042431	0.15532	0.18792	-1.8167	-2.8479	-2.7	-2.3271	-2.8688	-2.4458	-2.5396	-2.6688	-2.5021	-2.6271	-2.6771	-2.2875	-2.7042	-2.3708	-2.4	-2.8771	33.992	-21.080	21.119	10.522	0.021	143.212	-3.795	170.340	318.579	188.380	318.306	66.868	50.138	-0.780	179.431	77.942	0.00023889	0.00070253	8.2551e-05	403.55	5.6382e-07	5.9081e-06	476.41	103.22	4.3836e-06	5.7667e-06	150.6	60.448	37.108	10.16	4.504e-06	22.925	0.00036223	0.000366	0.00010019	406.02	3.9091e-06	3.9026e-06	475.64	106.14	3.8667e-06	3.9701e-06	154.7	61.023	38.712	10.868	3.9748e-06	23.338	316.763	91.808	118.894	-9.323	325.728	179.783	-9.593	-3.439	178.287	82.794	-5.090	-1.615	0.048	6.026	206.295	2.722	-8191	255	
21321.844	1	1	0	0	0.13654	0.10613	0.13956	0.25714	0.30584	0.20932	0.24858	0.047335	0.12319	0.27357	0.14961	0.26863	0.17921	0.030033	0.11174	0.24067	-1.875	-2.5208	-2.7062	-2.2021	-2.65	-2.5271	-2.3688	-2.8	-2.375	-2.4667	-2.7792	-2.3979	-2.5646	-2.6125	-2.4021	-2.8063	60.534	263.446	230.481	276.844	82.519	94.191	212.351	145.810	320.870	112.134	69.994	260.033	227.094	229.390	254.771	263.163	0.00023653	0.00057063	7.9317e-05	402.11	3.8904e-06	4.3344e-06	478.85	103.94	3.3088e-06	5.9029e-06	153.83	60.427	37.185	10.211	2.2385e-06	22.919	0.00035224	0.00036418	0.00010091	405.71	3.9795e-06	3.9531e-06	478.03	106.74	3.9058e-06	3.9724e-06	156.02	60.975	38.878	10.924	4.0167e-06	23.381	287.385	-20.315	45.519	-9.335	214.858	-20.393	-9.836	-3.072	79.848	100.611	-5.723	-1.372	0.108	5.139	297.402	3.267	-8191	255	
21321.965	1	1	0	0	0.25952	0.33048	0.13728	0.086298	0.13329	0.18214	0.082927	0.14381	0.25827	0.16285	0.21122	0.22853	0.11158	0.13771	0.18446	0.17372	-2.0917	-2.6188	-2.65	-2.2042	-2.8333	-2.5021	-2.2354	-2.7021	-2.5312	-2.7313	-2.7083	-2.5583	-2.7	-2.7	-2.3292	-2.8979	-9.392	330.202	19.949	31.745	175.290	292.167	4.973	225.478	288.526	253.953	308.587	154.726	286.726	-13.511	32.284	309.320	0.0002856	0.00026839	0.00012654	405.63	3.7867e-06	2.473e-06	478.05	103.74	1.3609e-06	1.6189e-06	154.03	60.745	37.268	10.233	7.1367e-06	23.057	0.00035812	0.00037191	0.00010049	407.31	4.0947e-06	4.0358e-06	477.89	106.74	3.9372e-06	4.0763e-06	156.43	61.387	39.083	10.966	4.0643e-06	23.529	251.054	264.590	84.934	-9.286	160.850	21.484	-9.592	-3.383	6.775	178.257	-5.245	-0.938	-0.550	5.281	96.221	2.722	-8191	255	
21322.061	1	1	0	0	0.35725	0.22107	0.094506	0.15856	0.18005	0.14208	0.085597	0.17009	0.17553	0.2407	0.12963	0.15409	0.14628	0.24584	0.046468	0.15804	-2.0187	-2.5167	-2.8083	-2.4208	-2.6	-2.7146	-2.3688	-2.9167	-2.4708	-2.3563	-2.7854	-2.3521	-2.6688	-2.5187	-2.2979	-2.8792	122.184	42.308	89.832	82.301	300.001	137.108	133.362	336.575	158.061	16.780	40.363	4.805	126.897	313.908	82.335	48.799	0.00024559	9.388e-05	8.5935e-05	404.46	7.084e-06	6.0798e-06	478.54	104.87	3.357e-06	2.3099e-06	153.45	61.519	37.578	10.34	6.0669e-06	23.077	0.00036244	0.00037314	0.00010229	408.41	4.0866e-06	4.0449e-06	479.55	107.66	4.0135e-06	4.0326e-06	157.02	61.758	39.237	11.007	3.9755e-06	23.475	272.872	334.942	100.888	-9.353	68.472	338.289	-9.540	-3.544	-16.614	86.768	-5.438	-1.172	0.426	4.542	104.560	3.036	-8191	255	
21322.156	1	1	0	0	0.17449	0.10272	0.19138	0.1902	0.20234	0.101	0.10104	0.28859	0.2247	0.20563	0.25375	0.34439	0.39061	0.16216	0.1685	0.11144	-2.025	-2.4562	-2.8	-2.3167	-2.4896	-2.5021	-2.3042	-2.7292	-2.5083	-2.2562	-2.8479	-2.2188	-2.5208	-2.7562	-2.4083	-2.6771	-11.698	41.624	213.441	313.710	98.151	221.160	57.183	221.477	28.776	126.961	-18.741	277.473	68.910	117.244	209.924	134.144	0.00053133	0.00022956	0.00010769	401.75	7.3925e-07	9.6583e-07	476.7	103.69	1.7444e-06	2.4187e-06	153.05	60.31	36.8	10.237	6.219e-07	22.8	0.0003642	0.00036833	0.00010171	406.2	3.9777e-06	3.9936e-06	475.66	106.99	3.9547e-06	4.0077e-06	155.61	60.925	38.727	10.921	3.9353e-06	23.28	287.260	20.175	58.189	-9.270	297.849	319.517	-9.842	-3.863	311.353	131.992	-5.471	-0.955	-0.307	5.327	194.775	2.580	-8191	255	
21322.254	1	1	0	0	0.14996	0.25389	0.06313	0.28343	0.1425	0.21189	0.23757	0.067459	0.24118	0.051839	0.15613	0.051897	0.17691	0.04085	0.12826	0.19187	-2.1729	-2.3333	-2.875	-2.5812	-2.4521	-2.7771	-2.3812	-2.5729	-2.5958	-2.5146	-2.7062	-2.6146	-2.5312	-2.7104	-2.1854	-2.575	191.262	112.695	183.365	17.496	226.745	34.293	313.525	36.234	2.690	322.642	320.426	73.583	196.814	14.611	-3.639	328.495	0.00035376	0.00013196	0.00017105	403.22	6.7491e-06	6.3765e-06	475.2	103.33	5.2799e-06	1.0073e-06	152.19	59.971	36.923	10.02	8.4178e-06	22.83	0.00036264	0.00036477	0.0001021	405.35	4.0185e-06	4.0027e-06	474.98	106.21	3.9354e-06	3.9528e-06	154.95	60.569	38.608	10.857	3.8917e-06	23.376	281.647	326.801	19.718	-9.339	121.278	103.737	-9.654	-3.747	212.695	291.726	-5.696	-1.190	0.106	5.162	143.206	2.662	-8191	255	
21322.373	1	1	0	0	0.41181	0.18892	0.14407	0.14924	0.33458	0.092631	0.091868	0.093366	0.39559	0.18021	0.13998	0.29895	0.23188	0.32203	0.20622	0.11939	-2.2562	-2.1437	-2.7042	-2.7583	-2.4437	-2.7375	-2.4521	-2.5458	-2.6521	-2.3563	-2.9562	-2.525	-2.3417	-2.7042	-2.3063	-2.7625	185.587	209.461	103.567	326.627	318.803	34.997	119.276	7.616	172.521	-13.795	22.412	1.286	41.084	331.735	46.248	21.172	0.0002788	0.00057079	8.6913e-05	403.17	3.3381e-06	4.1821e-06	474.88	102.81	6.2295e-06	3.8556e-06	151.7	60.184	37.31	10.223	3.2984e-06	23.085	0.0003616	0.00036003	0.0001012	406.19	4.0437e-06	3.9962e-06	475.55	106.01	3.9967e-06	3.9656e-06	155.35	60.879	38.69	10.926	3.9273e-06	23.516	267.130	312.774	91.800	-9.734	82.913	119.793	-10.000	-3.481	102.162	35.974	-5.474	-1.746	0.163	4.954	91.858	2.977	-8191	255	
21322.471	1	1	0	0	0.19142	0.19763	0.21405	0.083216	0.057908	0.28976	0.033125	0.16168	0.1475	0.18896	0.1331	0.18089	0.13914	0.14145	0.054958	0.093928	-2.1667	-2.3521	-2.8896	-2.4333	-2.3833	-2.9437	-2.5021	-2.7646	-2.8542	-2.3563	-2.6	-2.6521	-2.4042	-2.7979	-2.5104	-2.5917	134.552	323.888	249.394	327.848	166.935	297.770	251.026	150.225	21.048	324.363	188.043	307.266	214.984	146.554	321.716	212.462	0.00025167	0.00054291	2.8948e-05	404.8	3.1965e-06	2.3916e-06	476.85	103.93	3.9645e-07	4.3957e-06	153.22	60.604	37.182	10.257	4.481e-06	23.015	0.00036536	0.00036878	0.00010262	407.75	3.9945e-06	3.9922e-06	478.24	107.12	3.9895e-06	3.9842e-06	156.34	61.242	38.936	10.999	4.0127e-06	23.499	279.134	118.710	151.882	-9.112	167.896	71.545	-9.518	-3.624	274.124	171.833	-5.004	-0.733	0.342	5.032	82.999	2.524	-8191	255	
21322.543	1	1	0	0	0.12578	0.04539	0.19333	0.092396	0.051187	0.15145	0.15572	0.085058	0.08592	0.085307	0.20044	0.11703	0.17306	0.19338	0.1735	0.24317	-2.1708	-2.4271	-2.7354	-2.4021	-2.3083	-2.8021	-2.425	-2.6021	-2.6854	-2.2083	-2.5812	-2.7333	-2.2958	-2.8229	-2.5104	-2.3396	99.515	162.165	72.199	-5.344	104.875	211.813	8.446	-15.421	319.618	9.048	167.586	5.543	69.724	257.772	220.169	18.407	0.00020744	0.00066767	0.00015347	404.57	5.9103e-06	2.4368e-06	475.14	103.75	3.1749e-06	5.4558e-06	153.29	60.334	37.197	10.242	3.4842e-06	22.941	0.00036656	0.0003638	0.00010336	407.99	3.9576e-06	4.0493e-06	476.3	106.83	3.9656e-06	3.9653e-06	156.17	60.9	38.762	10.902	3.9967e-06	23.329	263.126	210.514	161.351	-9.241	176.147	52.965	-9.798	-3.467	186.765	197.960	-5.388	-1.221	0.533	5.507	86.456	2.671	-8191	255	
21322.639	1	1	0	0	0.26668	0.28753	0.12762	0.062121	0.16576	0.16507	0.1282	0.060176	0.062138	0.17934	0.058023	0.2379	0.16752	0.30751	0.07152	0.1051	-2.4479	-2.4542	-2.6375	-2.5854	-2.2375	-2.85	-2.7	-2.3021	-2.9062	-2.3771	-2.5375	-2.8063	-2.2854	-2.8354	-2.5792	-2.3458	25.813	107.539	209.755	-21.173	216.849	322.345	-15.488	209.850	279.603	16.261	97.738	0.939	253.023	315.109	-11.908	263.100	0.00020951	0.00045396	0.00014823	402.07	4.7883e-06	4.3703e-06	477.57	105.02	4.7433e-06	4.9073e-06	154.44	61.003	37.475	10.304	1.4995e-06	23.181	0.00035973	0.00036024	0.0001022	405.91	3.946e-06	3.9929e-06	476.86	107.2	3.9289e-06	3.9428e-06	157.08	61.385	38.972	10.974	3.9508e-06	23.595	262.725	328.908	26.834	-9.193	241.442	123.837	-9.666	-3.702	127.831	41.372	-5.561	-0.701	0.547	5.428	96.262	2.540	-8191	255	
21322.760	1	1	0	0	0.084766	0.036142	0.38078	0.069484	0.17583	0.019288	0.16372	0.23345	0.083676	0.023745	0.33834	0.031436	0.3282	0.047723	0.15625	0.20099	-2.4104	-2.2896	-2.6458	-2.8042	-2.3208	-2.7083	-2.5458	-2.325	-2.8292	-2.5104	-2.6167	-2.7792	-2.4354	-2.6188	-2.6708	-2.5229	89.146	-4.014	-21.529	-17.676	209.666	68.703	14.520	271.363	250.737	6.080	336.457	175.565	81.646	93.488	136.431	190.669	0.00025633	0.00056124	0.00014872	406.08	3.5009e-06	4.9795e-06	478.63	105.45	1.9773e-06	4.2612e-06	155.84	60.958	37.775	10.302	3.7943e-06	23.171	0.00035911	0.0003656	0.00010205	408.71	3.9022e-06	4.0191e-06	479.62	107.81	3.9754e-06	4.0034e-06	157.67	61.629	39.232	11.011	3.9702e-06	23.642	278.645	152.996	-21.253	-9.525	308.609	132.431	-9.682	-3.981	239.430	22.958	-5.254	-1.196	0.392	5.322	63.613	3.063	-8191	255	
21322.854	1	1	0	0	0.13049	0.0095988	0.0095456	0.068434	0.20165	0.13837	0.098198	0.26445	0.065129	0.037114	0.17186	0.13877	0.11135	0.074919	0.24784	0.28391	-2.3875	-2.5521	-2.3042	-2.8042	-2.3083	-2.6146	-2.675	-2.2625	-2.7896	-2.4479	-2.5792	-2.7938	-2.2792	-2.5375	-2.6542	-2.1375	291.572	293.226	276.496	207.749	-17.301	122.133	216.280	138.731	78.850	224.268	145.113	30.533	302.862	129.025	151.511	276.735	0.00020819	0.00058035	0.00019691	403.6	4.142e-06	3.7148e-06	477.36	106.43	5.1823e-06	2.186e-06	157.08	62.321	37.838	10.226	5.4221e-06	23.177	0.00036357	0.00036626	0.00010258	409.04	4.0027e-06	3.9778e-06	481.78	108.88	3.9955e-06	3.9635e-06	159.72	62.385	39.548	11.011	3.9602e-06	23.782	246.732	107.333	105.467	-9.253	201.917	220.384	-9.607	-4.087	147.932	145.263	-5.478	-0.966	0.796	5.214	195.910	2.781	-8191	255	
21322.949	1	1	0	0	0.06435	0.23573	0.1126	0.3762	0.20092	0.034954	0.18283	0.16134	0.2044	0.14228	0.073251	0.19279	0.26562	0.066325	0.27875	0.27158	-2.1813	-2.45	-2.2625	-2.8333	-2.4875	-2.5854	-2.6646	-2.3667	-2.6417	-2.575	-2.475	-2.8542	-2.3021	-2.4625	-2.7521	-2.4562	11.818	13.263	39.553	216.198	36.485	149.020	264.193	314.926	145.069	267.853	235.638	-19.449	333.456	180.756	136.093	337.509	0.00023407	0.00041657	9.6994e-05	408.4	5.2436e-06	3.4252e-06	479.24	105.7	2.8998e-06	1.1043e-06	156.28	61.191	37.782	10.212	2.4709e-06	23.145	0.0003598	0.00036538	9.9777e-05	411.21	3.9521e-06	4.0418e-06	480.07	108.08	4.0196e-06	4.0343e-06	158.02	61.683	39.24	10.959	3.9574e-06	23.48	328.268	67.344	48.922	-9.498	126.379	66.133	-9.673	-3.687	50.973	279.626	-5.631	-0.896	0.389	4.905	60.861	3.360	-8191	255	
21323.045	1	1	0	0	0.19317	0.19879	0.25195	0.20891	0.16148	0.069761	0.27653	0.11507	0.13992	0.069195	0.15388	0.099403	0.18683	0.14547	0.24512	0.13208	-2.1229	-2.3937	-2.4229	-2.7479	-2.4396	-2.4646	-2.5875	-2.325	-2.6292	-2.6958	-2.4208	-2.8729	-2.5062	-2.4104	-2.7417	-2.3229	168.524	169.649	333.068	263.100	6.072	180.549	316.548	58.976	222.539	34.633	308.883	25.480	223.948	71.388	30.500	48.649	0.00022837	0.0002815	0.0001372	408.39	4.659e-06	3.8627e-06	482.4	105.89	4.3298e-07	1.1898e-06	157.31	62.108	38.125	10.24	1.2722e-06	23.212	0.00036226	0.0003651	0.00010016	411.32	3.9427e-06	4.0627e-06	482.22	108.85	3.995e-06	4.0891e-06	159.48	62.539	39.825	11.025	4.0887e-06	23.688	285.613	50.822	63.054	-9.530	81.604	78.240	-9.523	-3.814	72.643	227.258	-5.272	-1.222	0.183	5.307	107.506	2.641	-8191	255	
21323.141	1	1	0	0	0.13319	0.22675	0.20966	0.20998	0.20342	0.22555	0.063139	0.1907	0.042041	0.066565	0.092627	0.059221	0.055059	0.22021	0.15792	0.22409	-2.0833	-2.6396	-2.3521	-2.8937	-2.5958	-2.5167	-2.9375	-2.4188	-2.6688	-2.8604	-2.1854	-2.8625	-2.5687	-2.525	-2.7562	-2.4	329.859	132.093	254.105	337.042	198.451	267.043	119.029	326.541	108.351	32.939	-1.963	285.329	98.012	208.665	201.470	33.023	0.00013859	0.00054531	0.00023162	409.56	2.3618e-06	3.731e-06	488.23	107.72	3.75e-06	2.12e-06	160.02	61.818	38.328	10.311	5.3908e-06	23	0.00037652	0.0003802	0.00010419	415.34	4.0728e-06	4.1955e-06	488.1	110.27	4.1806e-06	4.1288e-06	161.94	62.859	40.049	11.069	4.1059e-06	23.691	209.174	323.309	236.873	-9.477	103.008	238.962	-9.663	-3.550	-3.171	282.274	-5.726	-0.823	0.310	4.850	144.255	2.706	-8191	255	
21323.238	1	1	0	0	0.14668	0.11337	0.32205	0.20584	0.10433	0.15667	0.16165	0.046326	0.088966	0.32745	0.26337	0.21649	0.091545	0.24628	0.11812	0.081689	-2	-2.6083	-2.1854	-2.7083	-2.3542	-2.4104	-2.8146	-2.4062	-2.4729	-2.7667	-2.1917	-2.7917	-2.5271	-2.2	-2.8688	-2.3958	251.794	131.590	15.242	-12.046	198.426	190.900	100.684	177.107	116.297	23.695	280.676	35.786	67.436	316.886	195.409	70.116	0.00032372	0.00032806	6.876e-05	416.58	2.3569e-06	2.8346e-06	491.63	107.83	3.0055e-06	5.7958e-06	159.69	62.853	38.651	10.41	2.3523e-06	23.467	0.00037498	0.00037574	0.00010434	418.19	4.0453e-06	4.1412e-06	491.45	110.88	4.0273e-06	4.0435e-06	163.38	63.461	40.329	11.099	4.0291e-06	23.815	292.426	-7.394	29.625	-9.372	62.429	161.729	-9.800	-3.832	257.350	164.589	-5.371	-0.945	0.581	5.576	201.533	2.270	-8191	255	
21323.334	1	1	0	0	0.059933	0.17859	0.10429	0.25165	0.22691	0.10224	0.30742	0.12305	0.24424	0.076948	0.081812	0.17952	0.094003	0.13129	0.20775	0.2219	-2.0771	-2.6271	-2.2646	-2.7479	-2.6104	-2.2979	-2.8542	-2.4396	-2.4625	-2.85	-2.3771	-2.6354	-2.5521	-2.1333	-2.7438	-2.6396	66.523	317.379	117.911	236.737	214.321	155.366	284.457	-17.459	237.897	245.938	326.807	234.638	248.292	-0.227	210.905	248.484	0.00011705	7.1889e-06	0.00012923	412.2	8.839e-06	3.3414e-06	490.88	108.1	3.2669e-06	2.879e-07	159.15	62.166	38.219	10.29	5.1948e-06	22.925	0.00036569	0.00037324	0.0001029	417.63	4.0349e-06	4.0574e-06	489.38	110.54	4.0874e-06	4.0443e-06	161.07	62.804	39.865	10.996	4.023e-06	23.54	250.471	303.558	63.236	-9.284	200.399	-14.761	-9.485	-3.749	95.762	194.061	-5.700	-0.818	0.208	5.199	316.502	2.695	-8191	255	
21323.453	1	1	0	0	0.13936	0.043281	0.12187	0.12823	0.23115	0.22228	0.050567	0.2357	0.24085	0.28009	0.0842	0.20133	0.13703	0.090728	0.10088	0.028519	-1.8625	-2.7875	-2.3438	-2.5875	-2.6375	-2.2562	-2.8083	-2.4062	-2.3417	-2.7833	-2.2646	-2.7354	-2.8021	-2.1792	-2.7646	-2.5667	87.417	262.114	333.313	314.967	95.859	328.728	298.331	9.378	70.974	275.426	260.880	233.585	2.971	271.274	104.584	323.338	0.00029211	0.00050147	0.00032482	416.21	5.7021e-07	7.506e-07	488.14	109.03	4.5376e-06	8.2979e-06	160.94	62.977	38.803	10.373	2.4539e-06	23.375	0.00035699	0.0003626	9.9797e-05	417.44	3.9599e-06	3.8891e-06	489.58	111.15	3.9288e-06	3.9382e-06	162.88	63.455	40.31	11.086	3.9684e-06	23.823	244.485	41.456	34.726	-9.192	101.100	215.289	-9.740	-4.039	5.053	267.648	-6.006	-0.818	0.066	5.000	32.024	2.304	-8191	255	
21323.551	1	1	0	0	0.1137	0.12885	0.020486	0.19763	0.086396	0.01675	0.21773	0.24003	0.085353	0.27636	0.25198	0.07726	0.13893	0.10362	0.092085	0.28524	-1.8729	-2.8104	-2.2021	-2.6667	-2.6042	-2.375	-2.7625	-2.7313	-2.3875	-2.6688	-2.3833	-2.4333	-2.7417	-2.3792	-2.7167	-2.6583	-20.683	180.803	122.716	-6.427	-4.531	315.587	183.033	193.453	87.776	156.115	269.814	-17.187	49.428	255.724	211.369	2.435	0.00016288	0.00035353	0.00013377	416.23	8.1036e-06	1.4354e-06	488.21	108.46	5.4162e-06	2.9097e-06	159.79	63.129	38.426	10.489	2.7377e-06	23.303	0.00035568	0.00036265	9.9155e-05	418.09	3.9281e-06	3.9079e-06	489.85	110.92	3.8915e-06	3.9344e-06	162.08	63.257	40.03	11.1	3.8535e-06	23.785	206.219	326.581	314.739	-9.378	148.514	208.188	-9.459	-3.436	219.467	149.527	-5.657	-1.532	0.317	5.550	8.371	2.921	-8191	255	
21323.646	1	1	0	0	0.28272	0.31369	0.27236	0.070755	0.31214	0.11803	0.13875	0.11669	0.31766	0.24026	0.053155	0.26799	0.10601	0.24883	0.10131	0.2622	-1.9667	-2.7625	-2.4208	-2.4208	-2.6	-2.2958	-2.5375	-2.3667	-2.3333	-2.9646	-2.5042	-2.3542	-2.7542	-2.3875	-2.6875	-2.7875	-3.423	37.483	121.855	326.764	120.677	102.336	296.037	118.841	239.763	19.506	216.723	62.795	120.266	17.502	321.168	306.386	0.00019818	0.00014535	0.00011653	413.08	4.603e-06	2.8251e-06	486.71	108.33	4.3643e-06	1.216e-07	159.22	62.258	38.316	10.459	3.04e-06	23.267	0.00034451	0.00035684	0.00010061	416.43	3.8825e-06	3.8812e-06	489.24	110.29	3.8503e-06	3.8951e-06	161.15	62.828	39.797	11.088	3.9333e-06	23.665	265.504	301.150	191.960	-9.481	159.953	171.513	-9.695	-3.878	261.425	209.607	-5.568	-1.425	0.158	5.209	14.646	2.611	-8191	255	
21323.742	1	1	0	0	0.098156	0.12002	0.063528	0.22232	0.097637	0.10796	0.29638	0.17666	0.055008	0.16197	0.22861	0.30249	0.090963	0.13539	0.18936	0.055679	-1.6958	-2.7	-2.375	-2.2479	-2.8333	-2.3	-2.6104	-2.5479	-2.2417	-2.7104	-2.6396	-2.2271	-2.8521	-2.2896	-2.5458	-2.8375	10.612	306.699	3.691	72.489	192.043	98.822	228.955	324.240	188.304	107.791	-18.121	253.846	55.737	52.822	222.051	283.909	0.00024574	0.00010972	0.00018375	411.83	3.2868e-06	4.9099e-06	484.11	105.66	6.2926e-06	5.9828e-06	155.21	60.782	37.669	10.255	3.4399e-06	22.813	0.0003474	0.00035669	9.7457e-05	413.19	3.8192e-06	3.7781e-06	483.18	108.25	3.8335e-06	3.8287e-06	157.4	61.334	39.044	10.887	3.8392e-06	23.287	284.113	125.022	87.376	-9.560	167.412	221.202	-9.742	-3.366	217.511	15.424	-5.208	-1.211	0.570	4.754	322.683	2.323	-8191	255	
21323.838	1	1	0	0	0.25115	0.34256	0.15398	0.16282	0.22573	0.17249	0.1624	0.21128	0.21206	0.25355	0.16523	0.14648	0.10442	0.1805	0.14902	0.31179	-1.7229	-2.7562	-2.4375	-2.2833	-2.6813	-2.3104	-2.5604	-2.7938	-2.1979	-2.525	-2.5458	-2.1271	-2.6813	-2.4146	-2.6625	-2.6417	326.881	226.074	214.148	41.647	183.937	-13.598	255.041	123.126	275.217	-5.448	13.998	215.366	336.225	304.471	101.390	261.139	0.00020079	0.00046396	0.0002662	407.47	1.4046e-06	3.094e-06	483.61	104.8	1.9134e-06	5.4884e-06	154.05	60.214	37.428	10.223	3.9733e-06	22.903	0.00034209	0.00034969	9.6693e-05	409.48	3.7758e-06	3.7588e-06	480.97	107.01	3.7494e-06	3.7983e-06	155.65	60.788	38.762	10.823	3.7628e-06	23.217	330.347	146.188	106.078	-9.282	19.396	37.845	-10.269	-3.712	98.091	22.434	-5.575	-1.185	0.468	5.720	101.079	2.576	-8191	255	
21323.934	1	1	0	0	0.20422	0.19957	0.22949	0.27178	0.18901	0.15801	0.10185	0.14537	0.11407	0.26867	0.18705	0.39764	0.21302	0.036519	0.13049	0.17413	-1.8854	-2.6729	-2.6125	-2.4146	-2.9437	-2.4313	-2.6771	-2.8208	-2.3521	-2.6312	-2.7021	-2.525	-2.7125	-2.55	-2.4938	-2.925	287.674	208.319	101.839	295.431	221.568	-8.551	267.153	201.234	179.240	252.267	50.414	214.321	298.942	44.340	62.331	160.667	0.00024862	0.00013781	0.00012074	402.83	3.7498e-06	3.8546e-06	475.39	103.34	6.719e-06	1.48e-06	151.62	59.635	36.856	10.192	6.4756e-06	22.767	0.00033812	0.00034695	9.5271e-05	406.55	3.7944e-06	3.7289e-06	475.36	105.97	3.7514e-06	3.764e-06	153.41	60.29	38.304	10.787	3.7314e-06	23.095	256.107	2.635	60.390	-9.451	202.114	181.491	-9.351	-3.678	167.819	297.137	-5.192	-1.126	0.610	5.145	84.360	2.673	-8191	255	
21324.029	1	1	0	0	0.2329	0.079554	0.072893	0.099903	0.26946	0.20539	0.076437	0.11805	0.16037	0.062599	0.12762	0.25841	0.11465	0.24934	0.16525	0.059246	-1.8729	-2.5417	-2.8	-2.4917	-2.6542	-2.6083	-2.5438	-2.7646	-2.3875	-2.6	-2.8958	-2.3729	-2.5271	-2.5625	-2.425	-2.8479	127.380	74.782	257.959	185.741	23.279	107.465	31.002	112.767	153.666	107.979	176.752	222.887	115.072	306.937	207.030	70.348	0.00019357	0.00032191	6.1611e-05	404.77	2.667e-06	5.5902e-06	472.94	102.87	3.8134e-06	2.0774e-06	151.16	60.005	37.146	10.127	4.3198e-06	23.082	0.00033674	0.00034203	9.4324e-05	404.57	3.7559e-06	3.6801e-06	473.6	105.22	3.7071e-06	3.7449e-06	152.99	60.371	38.292	10.786	3.6964e-06	23.251	314.922	5.562	171.482	-9.580	61.445	135.311	-9.750	-3.381	253.575	-14.252	-5.438	-1.022	0.416	5.148	61.291	2.659	-8191	255	
21324.150	1	1	0	0	0.30355	0.18333	0.23225	0.052375	0.054382	0.063844	0.15086	0.21041	0.13891	0.25229	0.15119	0.12844	0.16259	0.31275	0.234	0.12179	-2.0375	-2.6042	-2.8021	-2.2729	-2.8042	-2.6979	-2.3542	-2.7979	-2.4938	-2.5667	-2.9	-2.4208	-2.8125	-2.8021	-2.2917	-2.9104	216.386	145.498	323.643	17.924	209.979	0.989	117.355	229.920	215.332	142.179	310.183	59.245	154.819	321.086	110.612	34.649	0.00027001	0.00030059	0.00010639	400.74	5.4985e-06	1.672e-06	473.12	103.08	2.8108e-06	4.7771e-06	149.69	59.323	36.62	10.159	5.9245e-06	22.932	0.00033555	0.00034046	9.5328e-05	403.04	3.7001e-06	3.6687e-06	471.3	104.8	3.6159e-06	3.6706e-06	151.75	59.926	37.947	10.756	3.6238e-06	23.138	304.313	332.944	248.489	-9.498	103.215	205.877	-9.702	-3.837	37.621	109.887	-5.409	-1.273	0.450	5.559	93.200	2.262	-8191	255	
21324.246	1	1	0	0	0.10786	0.19932	0.1425	0.17372	0.080575	0.1777	0.22811	0.15496	0.12827	0.10471	0.26361	0.11161	0.069884	0.2307	0.15879	0.045946	-2.1396	-2.6417	-2.9938	-2.4333	-2.5271	-2.6937	-2.3521	-2.8063	-2.4042	-2.5354	-2.9583	-2.5417	-2.6854	-2.6542	-2.2458	-2.7292	233.398	296.813	90.408	-21.419	252.920	308.183	4.318	233.387	258.326	90.167	-18.786	192.643	332.829	11.128	251.023	241.740	0.00027131	0.0006375	2.4918e-05	398.97	3.7729e-06	3.2595e-06	470.6	102.46	3.1871e-06	4.1713e-06	150.07	59.159	36.624	10.183	2.5676e-06	22.95	0.00033098	0.00033848	9.3801e-05	401.22	3.7147e-06	3.7138e-06	469.64	104.71	3.6737e-06	3.6994e-06	152.23	59.938	38.019	10.783	3.7632e-06	23.172	318.232	112.788	264.006	-9.240	8.870	133.042	-9.939	-3.864	187.033	92.952	-5.187	-0.973	0.084	5.454	39.103	2.559	-8191	255	
21324.342	1	1	0	0	0.11983	0.090379	0.17729	0.40344	0.11247	0.16687	0.15144	0.0659	0.25386	0.30652	0.20418	0.43147	0.061907	0.048335	0.10553	0.089903	-2.2354	-2.4813	-2.7479	-2.2208	-2.6708	-2.7542	-2.3563	-2.6479	-2.4896	-2.4542	-2.7	-2.5104	-2.4437	-2.7479	-2.4437	-2.6875	268.468	91.749	31.985	286.071	294.707	96.086	278.052	296.309	111.322	179.167	20.245	292.554	317.998	128.567	320.671	39.864	0.00031297	0.0010321	9.0609e-05	400.7	5.7258e-06	1.4247e-06	467.56	102.31	2.0607e-06	1.8791e-06	149.32	59.482	36.364	10.032	3.5766e-06	22.941	0.00033961	0.00034203	9.6658e-05	401.3	3.808e-06	3.7764e-06	469.2	104.8	3.8425e-06	3.8306e-06	152.07	60.1	38.115	10.781	3.8043e-06	23.222	288.525	120.485	124.357	-9.384	192.705	32.400	-9.910	-3.783	337.900	311.135	-5.606	-1.171	0.106	5.156	332.707	2.986	-8191	255	
21324.414	1	1	0	0	0.2044	0.1541	0.27377	0.20121	0.056238	0.24101	0.11769	0.075708	0.07396	0.11904	0.012983	0.25127	0.2155	0.22911	0.25155	0.083904	-2.0812	-2.3271	-2.7521	-2.4021	-2.3792	-2.7854	-2.3104	-2.6396	-2.6896	-2.4229	-2.9083	-2.4958	-2.3458	-2.9271	-2.3312	-2.6667	86.176	103.672	101.876	234.512	313.662	98.960	111.516	277.492	122.346	229.747	56.430	92.807	317.638	42.793	149.586	7.164	1.0052e-05	0.00045048	0.00023662	398.67	5.0968e-06	3.4002e-06	470.3	102.54	4.2288e-06	2.2354e-06	150.85	59.447	37.101	10.271	2.7754e-06	22.918	0.00034768	0.00034865	9.9487e-05	401.99	3.865e-06	3.8772e-06	470.36	105.58	3.8687e-06	3.881e-06	153.52	60.434	38.366	10.888	3.8782e-06	23.318	316.302	82.015	19.324	-9.543	133.844	217.911	-9.963	-3.451	140.504	72.356	-5.233	-0.782	1.231	5.131	196.100	2.825	-8191	255	
21324.535	1	1	0	0	0.16036	0.22427	0.17332	0.12558	0.26357	0.080708	0.14073	0.28452	0.22399	0.1688	0.31172	0.20983	0.082526	0.1942	0.13743	0.18151	-2.2042	-2.1833	-2.7438	-2.6417	-2.4375	-2.7542	-2.2875	-2.7812	-2.6417	-2.1958	-2.7833	-2.4938	-2.4458	-2.8563	-2.5583	-2.6333	-3.610	173.160	161.417	177.022	-7.751	300.861	208.867	280.872	153.249	311.983	274.675	123.142	126.185	284.175	275.226	214.968	0.00011111	0.00086857	0.00036406	398.63	4.6107e-06	4.3923e-06	466.91	103.56	4.4558e-06	6.0591e-07	152.07	59.41	36.885	10.243	2.3857e-06	22.787	0.00035145	0.00035502	9.9742e-05	403.35	3.9119e-06	3.8903e-06	469.6	105.86	3.8029e-06	3.8156e-06	153.55	60.067	38.405	10.825	3.8123e-06	23.196	264.589	294.184	107.276	-9.103	175.745	225.994	-10.017	-3.577	149.305	105.774	-5.373	-1.156	-0.055	4.873	43.027	3.065	-8191	255	
21324.631	1	1	0	0	0.18003	0.22693	0.10636	0.27883	0.092636	0.19363	0.24116	0.15442	0.13359	0.11415	0.15884	0.2621	0.080177	0.14296	0.17044	0.084675	-2.2625	-2.4062	-2.7771	-2.5938	-2.3583	-2.8167	-2.5271	-2.7229	-2.8729	-2.1937	-2.6958	-2.6021	-2.2417	-2.7958	-2.3583	-2.5271	-18.940	74.179	57.343	-4.917	253.254	199.795	313.443	7.866	235.163	307.229	177.739	125.198	290.152	268.731	156.748	201.469	0.00041401	0.00037445	0.00010996	397.72	2.4352e-06	5.7606e-06	471.08	103.05	4.5066e-06	2.6346e-06	150.61	59.691	36.494	10.152	2.2504e-06	22.666	0.00034572	0.00035262	9.8043e-05	401.18	3.8546e-06	3.8901e-06	470.81	105.45	3.898e-06	3.8197e-06	153.28	60.13	38.214	10.836	3.8809e-06	23.16	266.461	114.735	116.282	-8.921	78.397	220.663	-9.464	-3.848	285.912	254.859	-5.427	-1.893	0.052	4.911	84.960	3.141	-8191	255	
21324.727	1	1	0	0	0.26461	0.090283	0.17745	0.16905	0.17862	0.20585	0.24595	0.090588	0.22842	0.32801	0.078822	0.21687	0.27267	0.16255	0.1641	0.11924	-2.375	-2.3792	-2.5521	-2.6042	-2.5021	-2.8604	-2.3688	-2.4271	-2.6958	-2.2708	-2.7	-2.7812	-2.2333	-2.8167	-2.3354	-2.3604	261.690	171.115	160.061	331.451	239.920	190.130	247.159	291.660	60.843	63.081	305.451	-9.862	181.790	-6.935	-2.087	216.427	0.00027026	0.00027129	3.7207e-05	397.36	3.4214e-06	2.0792e-06	470.1	102.84	2.0867e-06	2.3634e-06	150.68	59.294	36.922	10.233	3.0845e-06	22.961	0.00035534	0.00035954	0.00010138	401.57	3.9137e-06	3.9629e-06	470.49	105.79	3.9373e-06	3.9603e-06	153.42	60.256	38.336	10.867	3.9739e-06	23.326	274.705	126.517	21.410	-9.576	217.867	276.607	-9.759	-3.464	180.203	176.917	-5.639	-1.167	-0.281	5.188	259.169	2.460	-8191	255	
21324.846	1	1	0	0	0.10078	0.23389	0.10799	0.27651	0.0991	0.091237	0.19346	0.20368	0.35218	0.23	0.20186	0.11124	0.13915	0.014356	0.060749	0.063947	-2.2854	-2.2771	-2.5125	-2.6688	-2.4292	-2.8979	-2.7604	-2.55	-2.7	-2.3063	-2.4917	-2.8563	-2.3229	-2.6604	-2.6958	-2.3708	177.685	248.508	337.195	4.283	170.236	191.223	333.073	200.488	121.301	166.612	78.080	19.222	13.502	5.992	185.449	174.150	0.00023648	0.00056869	0.00019574	401.88	2.8703e-06	4.5318e-06	471.37	102.99	2.6952e-06	1.1888e-06	151.21	60.242	37.155	10.247	7.6105e-06	22.923	0.00036021	0.00035963	0.00010112	403.64	3.9257e-06	3.9747e-06	473.32	106.35	3.9396e-06	3.8735e-06	155.07	60.847	38.778	10.981	3.8874e-06	23.435	262.581	13.825	179.895	-9.446	182.378	130.812	-9.875	-3.526	177.674	167.952	-5.265	-0.977	0.428	5.407	82.040	2.598	-8191	255	
21324.941	1	1	0	0	0.12544	0.089245	0.37568	0.079654	0.29935	0.16307	0.2176	0.25327	0.23188	0.34863	0.21498	0.19532	0.28164	0.27734	0.055297	0.068607	-2.4979	-2.3083	-2.5958	-2.7729	-2.3167	-2.6479	-2.5	-2.3354	-2.7562	-2.6042	-2.5792	-2.5104	-2.3479	-2.7458	-2.4896	-2.45	182.982	16.902	314.317	17.174	213.329	228.110	163.214	260.653	88.571	306.059	257.766	175.244	278.049	95.266	284.760	254.028	0.00025583	0.00050727	0.00024041	402.71	4.3636e-06	4.0137e-07	473.88	103.02	4.5282e-06	2.9781e-06	151.66	59.602	37.09	10.246	3.097e-06	22.712	0.00035512	0.00035816	9.9352e-05	405.57	3.938e-06	3.935e-06	472.86	106.16	3.9069e-06	3.908e-06	154.58	60.376	38.518	10.879	3.8806e-06	23.22	240.045	71.318	65.045	-9.233	222.610	130.792	-9.951	-3.886	191.421	337.578	-5.312	-1.151	-0.085	5.015	165.116	3.103	-8191	255	
21325.016	1	1	0	0	0.20009	0.064178	0.13367	0.070551	0.095916	0.33886	0.16392	0.096043	0.13731	0.13139	0.18888	0.17828	0.24865	0.077647	0.24725	0.21232	-2.2208	-2.3937	-2.3354	-2.9104	-2.4271	-2.6979	-2.8583	-2.2125	-2.7458	-2.3937	-2.3937	-2.8875	-2.2854	-2.5104	-2.6271	-2.1792	77.492	240.292	172.522	32.993	297.600	216.627	86.752	285.829	25.106	324.200	22.904	311.544	118.296	258.973	228.137	99.046	0.00035857	0.00070714	0.0001847	404.1	5.1643e-06	3.0077e-06	472.8	104.35	3.821e-06	8.0357e-06	151.57	60.11	37.066	10.256	5.5224e-06	22.904	0.00035675	0.00035722	0.00010077	403.77	3.9002e-06	3.9839e-06	472.09	106.45	3.9348e-06	3.9071e-06	154.47	60.573	38.505	10.902	3.9081e-06	23.27	286.377	24.076	222.262	-9.387	55.746	89.707	-9.626	-3.624	106.282	88.607	-5.601	-1.609	0.353	5.105	101.464	2.384	-8191	255	
21325.135	1	1	0	0	0.31839	0.28923	0.13967	0.13688	0.1883	0.29242	0.15121	0.10019	0.15926	0.2588	0.063353	0.12399	0.38869	0.11669	0.22197	0.24636	-2.175	-2.5333	-2.3771	-2.9042	-2.4875	-2.5312	-2.9375	-2.3333	-2.6396	-2.6271	-2.4646	-2.7146	-2.2958	-2.5521	-2.6375	-2.2271	25.293	122.453	46.896	132.951	228.285	85.300	68.874	62.463	163.047	254.098	77.697	163.361	300.072	265.413	121.444	235.660	0.00021471	0.00059736	0.00015446	400.58	7.7369e-06	4.9222e-06	472.85	103.4	2.9522e-06	4.2061e-06	151.04	60.217	37.166	10.246	8.9157e-06	23.027	0.0003644	0.00036039	0.00010048	402.97	3.9787e-06	4.0108e-06	472.17	106.44	3.956e-06	3.9611e-06	154.78	60.633	38.598	10.925	3.9609e-06	23.343	279.632	34.013	60.565	-9.071	204.784	126.604	-10.065	-3.668	273.161	215.120	-5.152	-0.938	0.238	5.218	99.469	2.501	-8191	255	
21325.230	1	1	0	0	0.15652	0.20902	0.21596	0.053863	0.20672	0.066642	0.17334	0.14751	0.10579	0.23496	0.22453	0.1862	0.23073	0.19217	0.26347	0.15183	-2.3417	-2.5542	-2.2104	-2.6063	-2.4813	-2.4479	-2.6458	-2.4104	-2.3688	-2.6625	-2.3021	-2.7687	-2.3875	-2.3896	-2.6396	-2.3646	292.862	336.023	204.706	29.985	22.175	310.111	235.258	138.203	58.269	280.023	45.257	-18.132	132.078	310.123	313.838	286.026	0.00019286	0.00062806	0.0003544	402.58	5.2666e-06	5.2886e-06	474.63	104.27	8.6955e-06	2.1858e-06	151.7	60.363	36.955	10.292	3.8329e-06	22.953	0.00035683	0.00036294	0.00010023	405	3.8798e-06	3.9524e-06	474.68	106.74	3.9557e-06	3.8932e-06	155.53	61.014	38.565	10.922	3.9133e-06	23.42	256.189	99.779	8.440	-9.159	177.006	95.403	-9.467	-3.640	154.111	316.003	-5.844	-1.013	-0.025	5.719	110.083	2.498	-8191	255	
21325.326	1	1	0	0	0.1434	0.042414	0.04673	0.081957	0.066215	0.020451	0.17705	0.18357	0.27064	0.099497	0.19483	0.07414	0.25429	0.17549	0.02407	0.20229	-2.1688	-2.6813	-2.2667	-2.7583	-2.5312	-2.3729	-2.7938	-2.4813	-2.3771	-2.6229	-2.1917	-2.7667	-2.3812	-2.4146	-2.875	-2.4021	30.271	100.315	290.986	251.757	43.828	251.441	270.932	111.743	282.651	196.604	335.620	-8.728	307.966	321.772	333.324	337.887	0.00028577	0.000406	0.00021766	405.11	8.6054e-06	1.3526e-06	474.9	104.38	5.7283e-06	2.1858e-06	152.27	59.834	36.941	10.245	6.347e-06	23.068	0.00036009	0.00035884	9.8972e-05	406.94	3.8313e-06	3.9193e-06	476.31	106.96	3.8824e-06	3.9067e-06	155.19	60.647	38.51	10.899	3.9139e-06	23.313	310.039	150.388	1.977	-9.253	78.522	211.338	-9.563	-3.762	178.361	269.490	-5.506	-1.014	-0.229	5.349	95.747	2.724	-8191	255	
21325.447	1	1	0	0	0.17638	0.11677	0.14463	0.20874	0.25593	0.018863	0.089177	0.14135	0.07643	0.11536	0.17888	0.22904	0.047231	0.053952	0.083871	0.19038	-2.1771	-2.6229	-2.1375	-2.7583	-2.5896	-2.5417	-2.9708	-2.6813	-2.3792	-2.7979	-2.3104	-2.7708	-2.7042	-2.4271	-2.8104	-2.6979	226.082	181.810	262.436	288.385	5.992	223.903	62.843	8.698	93.121	80.772	223.346	251.258	267.608	147.728	132.499	62.345	0.00018634	0.00043148	0.00015429	401.94	8.2249e-07	6.5329e-06	475.52	103.45	4.8396e-06	2.5568e-06	151.34	59.776	36.998	10.226	1.212e-06	22.817	0.00035586	0.00035881	9.8276e-05	404.84	3.9218e-06	3.9265e-06	472.87	106.18	3.8599e-06	3.8846e-06	154.28	60.429	38.514	10.867	3.9495e-06	23.163	317.036	128.640	4.216	-9.258	254.972	164.993	-9.310	-3.562	182.667	-12.917	-5.916	-1.296	-0.154	4.902	217.668	3.012	-8191	255	
21325.543	1	1	0	0	0.11354	0.15995	0.10601	0.34566	0.2187	0.16318	0.14568	0.1935	0.2335	0.20203	0.25748	0.067546	0.30885	0.18587	0.099787	0.17036	-1.9854	-2.8083	-2.2687	-2.8021	-2.6521	-2.2812	-2.7917	-2.5583	-2.5479	-3.0042	-2.45	-2.5625	-2.6292	-2.5021	-2.7792	-2.5792	81.031	168.721	154.675	235.687	100.741	321.322	321.535	296.413	26.185	272.734	11.023	187.992	41.448	90.842	74.359	207.672	4.2308e-05	0.00055775	0.00017191	402.08	3.6479e-06	4.5044e-06	472.56	103.06	6.1807e-06	6.3917e-06	152.66	59.839	36.889	10.206	2.1664e-06	22.684	0.00035546	0.00036236	9.8623e-05	405.06	3.9347e-06	3.9139e-06	472.61	106.25	3.9703e-06	3.9937e-06	154.68	60.466	38.494	10.845	4.0253e-06	23.283	333.220	174.129	58.384	-9.622	156.582	78.664	-9.838	-3.538	141.419	190.089	-5.095	-1.135	0.039	4.986	9.039	2.350	-8191	255	
21325.639	1	1	0	0	0.13666	0.086355	0.23117	0.28515	0.21588	0.16631	0.21929	0.12679	0.29016	0.21554	0.14035	0.27203	0.13685	0.27174	0.24735	0.1353	-2.1	-2.7708	-2.3937	-2.6667	-2.7833	-2.3604	-2.8417	-2.5062	-2.3479	-2.8312	-2.3979	-2.6646	-2.8292	-2.3479	-2.7812	-2.6875	280.656	120.066	90.771	335.975	-18.993	184.248	179.925	59.108	220.318	189.094	335.092	288.920	4.346	299.952	286.766	246.619	0.00031367	0.00028401	0.00015328	403.71	4.3587e-06	4.772e-06	476.12	103.54	4.1767e-06	1.0423e-06	153.29	60.402	37.282	10.292	2.5107e-06	23.132	0.0003589	0.00036405	9.9826e-05	405.04	3.9741e-06	3.9222e-06	475.65	106.65	3.9333e-06	3.9464e-06	155.85	61.033	38.855	10.908	3.9792e-06	23.418	279.144	26.665	84.051	-9.466	69.181	284.501	-9.463	-3.689	263.492	261.207	-5.072	-1.203	0.301	5.196	102.425	2.696	-8191	255	
21325.736	1	1	0	0	0.28772	0.3304	0.24347	0.10183	0.20058	0.092521	0.21464	0.16423	0.25555	0.17517	0.087041	0.17726	0.39243	0.099507	0.10007	0.17513	-2.0771	-2.8208	-2.4458	-2.4688	-2.8021	-2.2708	-2.6333	-2.5938	-2.1167	-2.6229	-2.4479	-2.6396	-2.7125	-2.3063	-2.8333	-2.6979	153.586	263.221	319.024	45.134	101.365	202.427	100.488	303.211	216.663	292.054	233.215	240.210	-21.379	274.731	110.776	169.378	0.00026536	0.00028389	7.3201e-05	402.8	4.7045e-06	3.9248e-06	473.43	104.43	4.6951e-06	3.8329e-06	150.98	60.455	36.764	10.218	4.6703e-06	22.67	0.00036048	0.00036554	0.00010013	406.18	3.9658e-06	3.9509e-06	474.16	106.75	3.9819e-06	4.0102e-06	154.61	60.577	38.424	10.853	4.0065e-06	23.117	305.181	229.563	263.370	-9.008	60.466	145.494	-9.699	-3.820	267.310	182.529	-5.473	-1.359	-0.098	5.131	292.151	2.834	-8191	255	
21325.830	1	1	0	0	0.086677	0.22242	0.1428	0.12266	0.15405	0.19265	0.29771	0.19336	0.22412	0.25861	0.11316	0.25161	0.083157	0.07236	0.12327	0.14321	-1.8604	-2.7542	-2.4083	-2.4417	-2.5938	-2.4167	-2.6917	-2.7979	-2.1458	-2.6937	-2.5229	-2.5271	-2.825	-2.3917	-2.5667	-2.7958	318.184	111.271	280.110	166.199	50.676	208.812	172.834	256.889	221.991	37.563	222.399	-17.485	232.857	138.705	29.769	276.217	8.5855e-05	0.00048474	0.00017376	402.04	4.1982e-06	3.6359e-06	468.39	103.7	1.567e-06	2.9449e-06	150.69	59.68	37.065	10.153	4.8015e-06	22.593	0.00035931	0.00036916	9.9915e-05	404.84	3.9897e-06	3.9307e-06	470.49	106.31	3.97e-06	4.0573e-06	153.97	60.448	38.568	10.84	4.0654e-06	23.147	241.055	-6.554	74.508	-9.303	70.127	70.691	-9.585	-3.618	73.504	167.804	-5.330	-1.006	0.606	5.175	21.191	2.406	-8191	255	
21325.926	1	1	0	0	0.37793	0.16031	0.16052	0.2782	0.13039	0.13776	0.16081	0.098168	0.18948	0.071665	0.26949	0.25064	0.051365	0.18453	0.39966	0.18567	-1.9312	-2.6396	-2.6708	-2.1917	-2.5708	-2.3604	-2.5438	-2.7625	-2.2917	-2.7062	-2.5771	-2.3896	-2.7896	-2.1875	-2.5187	-2.8458	240.521	-12.008	40.579	30.149	330.714	157.501	141.922	112.008	229.253	10.224	143.652	304.543	13.954	282.539	23.238	166.424	0.00036549	0.0006137	0.00016776	399.28	6.8133e-06	6.183e-06	473.46	102.82	2.8574e-06	6.8243e-07	150.82	59.546	36.46	10.109	1.4205e-06	22.761	0.00036276	0.00037489	0.00010266	403.33	3.9985e-06	3.9729e-06	472.5	106.02	3.9814e-06	4.0805e-06	153.9	60.248	38.452	10.837	4.031e-06	23.157	252.992	17.432	69.140	-9.540	87.577	12.012	-9.106	-3.597	146.336	309.410	-5.192	-1.208	0.133	5.521	69.205	2.980	-8191	255	
21326.021	1	1	0	0	0.20657	0.15447	0.11539	0.24283	0.12459	0.059946	0.2361	0.19341	0.22757	0.19243	0.19279	0.13154	0.11389	0.22865	0.2033	0.13672	-1.9979	-2.5854	-2.6792	-2.2979	-2.6458	-2.5875	-2.4521	-2.7375	-2.3917	-2.8417	-2.5125	-2.3	-2.7812	-2.3375	-2.5833	-2.9437	76.281	77.672	90.457	303.306	332.658	296.774	293.784	96.205	-12.122	100.160	137.859	8.843	-12.961	244.008	195.920	274.858	0.00025582	0.00054285	0.00011377	400.75	3.1734e-06	3.4871e-06	476.66	103.29	2.1959e-06	2.9452e-06	152.98	60.316	36.976	10.23	3.5725e-06	23.006	0.000364	0.00037263	0.00010331	404.4	4.0167e-06	3.9454e-06	474.58	106.4	3.8967e-06	4.0151e-06	155.35	60.744	38.651	10.905	3.9911e-06	23.374	259.057	207.527	174.712	-9.208	29.238	85.898	-9.446	-3.716	218.495	175.897	-5.423	-1.262	-0.545	5.000	-13.349	2.566	-8191	255	
21326.119	1	1	0	0	0.26806	0.14227	0.1296	0.27858	0.17942	0.15663	0.24115	0.10298	0.14117	0.098202	0.058347	0.061556	0.010011	0.31471	0.25179	0.29649	-1.6708	-2.7062	-2.6542	-2.3229	-2.7167	-2.3896	-2.5687	-2.7271	-2.2271	-2.725	-2.7229	-2.3312	-2.7833	-2.7583	-2.2708	-2.8583	125.708	40.167	225.997	261.177	224.153	230.961	281.551	-17.907	51.321	163.480	19.095	172.076	330.506	33.702	66.946	14.717	0.00029572	0.00017177	0.00010702	401.9	6.8477e-06	5.5702e-06	473.92	104.12	3.6827e-06	3.8845e-06	152.1	60.292	36.826	10.289	5.2903e-06	22.871	0.00035711	0.00036543	0.0001012	405.63	4.0139e-06	3.9323e-06	473.67	106.83	3.8931e-06	3.9611e-06	155.44	60.819	38.676	10.883	3.9285e-06	23.231	268.436	300.665	64.721	-9.193	129.628	154.061	-9.853	-3.848	186.675	164.842	-5.344	-1.234	0.115	5.396	70.228	2.576	-8191	255	
21326.238	1	1	0	0	0.16474	0.33566	0.1797	0.2959	0.094772	0.1349	0.37043	0.043622	0.2311	0.1295	0.1336	0.099305	0.16965	0.076202	0.1668	0.072653	-1.925	-2.5333	-2.7604	-2.3521	-2.7146	-2.5687	-2.3646	-2.8958	-2.3438	-2.6292	-2.8479	-2.5146	-2.7	-2.6958	-2.475	-2.875	285.612	250.279	85.987	0.484	299.021	174.788	250.480	278.730	-8.489	222.933	319.451	249.685	232.847	70.760	31.553	195.871	0.00018665	0.00043052	0.00010535	401.2	1.3475e-06	5.3715e-06	472.07	103.49	2.9912e-06	6.2895e-06	152.05	59.504	37.153	10.148	4.3187e-06	22.617	0.00035385	0.00036578	0.00010066	404.3	4.0145e-06	3.9943e-06	472.49	106.7	3.928e-06	4.0424e-06	154.68	60.579	38.796	10.858	4.0492e-06	23.198	286.187	123.302	72.360	-8.939	-7.544	207.700	-9.985	-3.936	310.827	66.824	-5.397	-1.203	0.468	5.931	105.708	2.780	-8191	255	
21326.311	1	1	0	0	0.29281	0.13987	0.056685	0.25219	0.21426	0.33669	0.35388	0.10535	0.14673	0.15321	0.35349	0.24837	0.10618	0.082361	0.11792	0.039751	-2.0333	-2.6167	-2.7708	-2.2729	-2.6208	-2.6688	-2.4792	-2.8646	-2.4146	-2.6833	-2.7625	-2.3417	-2.6604	-2.6375	-2.3604	-2.7	154.503	137.383	5.257	-13.504	316.263	226.172	326.399	14.646	195.238	275.049	284.763	266.553	309.451	262.118	60.054	238.386	0.0003301	0.00053855	0.00013326	401.59	2.8846e-06	2.6634e-06	471.18	104.54	5.5413e-06	6.83e-06	152.64	60.562	37.136	10.389	6.4228e-06	22.961	0.00035844	0.00036878	0.000103	404.27	4.0087e-06	3.9797e-06	473.89	107.23	3.8899e-06	4.0392e-06	155.65	60.86	38.808	10.957	3.9432e-06	23.42	312.254	111.572	80.050	-9.578	-3.068	163.972	-10.008	-3.288	127.612	172.070	-5.383	-1.208	0.445	5.128	75.685	2.819	-8191	255	
21326.406	1	1	0	0	0.14526	0.33032	0.12543	0.10272	0.16363	0.11544	0.15512	0.18603	0.22875	0.096708	0.03473	0.18726	0.095469	0.33554	0.20704	0.27882	-1.8646	-2.5083	-2.7	-2.2271	-2.4479	-2.8187	-2.4708	-2.5208	-2.4958	-2.3396	-2.8	-2.3354	-2.5958	-2.7	-2.4458	-2.7938	79.113	284.550	318.802	76.560	135.109	172.591	105.026	273.559	130.600	328.499	113.511	201.744	161.357	-10.120	21.495	280.598	0.00023331	0.00068592	0.0001826	400.92	2.6497e-06	7.157e-06	472.33	105.04	9.0144e-07	1.1769e-06	153.54	60.651	37.358	10.214	3.8667e-06	22.998	0.00035051	0.00035735	9.9616e-05	404.64	3.907e-06	3.9144e-06	475.08	107.49	3.8365e-06	3.9385e-06	156.89	61.223	38.954	10.947	3.8888e-06	23.502	259.337	63.018	76.817	-9.418	-11.061	70.592	-9.700	-3.382	112.605	130.652	-5.280	-1.428	0.427	5.495	301.299	2.856	-8191	255	
21326.527	1	1	0	0	0.04443	0.18667	0.19301	0.1312	0.11329	0.19504	0.10135	0.040506	0.060821	0.22429	0.17188	0.27125	0.20183	0.12975	0.12589	0.12105	-2.1646	-2.5354	-2.6521	-2.3583	-2.3229	-2.8396	-2.425	-2.6875	-2.6562	-2.3646	-2.8187	-2.5375	-2.5021	-2.8896	-2.4458	-2.6396	275.955	-0.963	260.475	250.602	34.506	248.830	208.336	-3.096	23.618	300.186	319.445	311.414	18.695	14.905	291.502	264.104	0.00020459	0.00045633	3.6387e-05	405.2	4.7613e-06	1.7318e-06	474.18	103.97	4.9051e-06	4.4498e-06	153.05	60.263	37.204	10.186	8.8503e-06	22.801	0.00035381	0.00035754	9.9204e-05	407.37	3.931e-06	3.8988e-06	476.85	107.15	3.9122e-06	3.8851e-06	155.65	60.676	38.954	10.914	3.8146e-06	23.23	274.980	99.243	110.963	-9.135	148.701	237.776	-9.467	-3.803	214.004	199.567	-5.477	-1.229	0.253	4.986	98.953	2.865	-8191	255	
21326.623	1	1	0	0	0.13703	0.082298	0.10664	0.26581	0.24711	0.096356	0.13781	0.23858	0.12755	0.23511	0.22519	0.22335	0.23487	0.070293	0.15507	0.24592	-2.2812	-2.4208	-2.6792	-2.3521	-2.2792	-2.7479	-2.4688	-2.6	-2.5625	-2.2458	-2.5833	-2.5	-2.3417	-2.7479	-2.5187	-2.625	328.389	42.208	100.919	296.849	264.949	319.873	147.754	279.025	199.658	225.153	263.532	257.025	-14.288	91.660	322.113	319.472	0.00018746	0.00056265	6.478e-05	403.99	4.859e-06	5.1193e-06	473.14	104.04	3.2766e-06	7.1307e-06	152.23	59.438	36.998	10.203	5.0692e-06	22.934	0.00034684	0.00034564	9.8042e-05	404.12	3.8658e-06	3.8377e-06	471.27	106.44	3.8673e-06	3.8254e-06	154.29	60.073	38.574	10.804	3.7417e-06	23.15	268.862	130.590	92.036	-9.056	247.384	303.368	-9.777	-3.845	164.691	337.185	-5.429	-1.132	0.366	5.520	76.705	2.486	-8191	255	
21326.719	1	1	0	0	0.19518	0.17567	0.14862	0.064197	0.34804	0.12507	0.14186	0.16633	0.12486	0.059027	0.16025	0.13128	0.15302	0.17631	0.35188	0.037579	-2.3167	-2.1458	-2.8	-2.7104	-2.3333	-2.875	-2.4208	-2.6417	-2.6125	-2.3875	-2.6437	-2.4583	-2.3271	-2.6917	-2.4854	-2.5104	133.940	309.665	185.438	135.841	54.501	289.189	253.080	278.793	60.046	200.453	286.607	216.533	101.281	31.026	88.485	224.983	0.00025058	0.00024197	3.2994e-05	401.37	4.4732e-06	1.6376e-06	472.09	104.2	3.1229e-06	3.3735e-06	149.72	59.038	36.748	10.186	7.5996e-06	22.784	0.00034077	0.00034353	9.6568e-05	403.42	3.7827e-06	3.7437e-06	471.32	105.74	3.7724e-06	3.7264e-06	152.6	59.906	38.228	10.772	3.7226e-06	23.123	285.173	299.232	42.851	-9.476	326.872	245.164	-9.676	-3.824	59.718	144.263	-5.279	-1.312	0.036	5.387	91.731	2.842	-8191	255	
21326.816	1	1	0	0	0.047927	0.14081	0.25563	0.089713	0.33078	0.21567	0.067911	0.25495	0.12085	0.015878	0.11148	0.25313	0.14777	0.11061	0.16066	0.036464	-2.1396	-2.3417	-2.7417	-2.6729	-2.5333	-2.8417	-2.6813	-2.575	-2.85	-2.5167	-2.7313	-2.6229	-2.2542	-2.8438	-2.4917	-2.6312	251.559	252.184	155.970	183.378	200.905	336.717	264.673	-18.826	277.461	124.116	-8.196	280.644	43.625	300.213	277.475	173.178	0.00026003	0.00051475	9.7086e-05	398.15	3.9314e-06	2.6722e-06	469.38	101.94	2.4385e-06	4.9133e-06	148.82	59.035	36.376	10.206	4.1392e-06	22.679	0.00034184	0.00034088	9.5992e-05	401.39	3.7884e-06	3.761e-06	469.58	105	3.7334e-06	3.7643e-06	151.37	59.524	37.79	10.725	3.705e-06	23.03	266.881	67.868	108.668	-9.102	100.003	221.918	-9.629	-3.654	-13.745	107.336	-5.103	-1.078	0.342	5.437	79.147	2.817	-8191	255	
21326.910	1	1	0	0	0.23189	0.077307	0.15679	0.070826	0.18151	0.089597	0.22019	0.15993	0.18348	0.10957	0.27726	0.37254	0.061662	0.1439	0.23327	0.11689	-2.25	-2.2646	-2.7	-2.5062	-2.3	-2.7917	-2.5187	-2.5479	-2.6937	-2.375	-2.6354	-2.8333	-2.2229	-2.7	-2.5021	-2.5354	263.059	76.310	170.316	48.300	59.894	234.922	269.677	-13.400	101.228	241.721	161.030	84.198	250.177	265.630	275.945	281.331	0.00029375	0.000625	6.4558e-05	399.66	4.8801e-06	3.3012e-06	467.71	101.88	2.5762e-06	6.0079e-06	146.51	58.423	35.832	10.013	3.1427e-06	22.383	0.00033348	0.00033185	9.5144e-05	401.32	3.6641e-06	3.7019e-06	468.14	104.13	3.6284e-06	3.6363e-06	150.41	58.854	37.373	10.612	3.6281e-06	22.756	282.305	-13.012	99.396	-9.356	36.848	128.016	-9.903	-3.885	230.663	224.982	-5.290	-1.296	-0.118	4.896	57.240	2.701	-8191	255	
21327.008	1	1	0	0	0.048814	0.10336	0.29578	0.21005	0.16997	0.18418	0.11956	0.16137	0.12804	0.26424	0.0022905	0.24203	0.15175	0.26839	0.15666	0.15679	-2.3833	-2.3625	-2.4833	-2.8625	-2.275	-2.7208	-2.7479	-2.3229	-2.775	-2.5875	-2.6375	-2.7938	-2.3937	-2.7875	-2.6042	-2.3958	92.057	57.864	230.114	236.902	232.629	280.848	-10.730	92.530	182.100	14.131	180.000	331.012	241.538	205.265	268.095	95.400	0.00020342	0.00022126	3.239e-05	399.53	7.4433e-06	4.9071e-06	461.83	100.56	4.327e-06	2.2272e-06	145.6	57.991	35.576	9.9151	3.9444e-06	22.237	0.00033203	0.00032978	9.2823e-05	398.61	3.5935e-06	3.6619e-06	462.53	102.92	3.6198e-06	3.6499e-06	147.63	58.011	36.916	10.584	3.7162e-06	22.559	276.118	29.393	-5.406	-9.252	109.657	43.613	-9.722	-3.461	245.902	154.885	-4.927	-0.756	0.649	5.509	135.304	2.659	-8191	255	
21327.127	1	1	0	0	0.14043	0.10545	0.039557	0.074407	0.074814	0.14487	0.23285	0.14927	0.21543	0.17866	0.050507	0.21026	0.095125	0.30802	0.18348	0.072861	-2.4792	-2.5896	-2.4604	-2.7896	-2.3312	-2.8146	-2.7771	-2.1896	-2.8875	-2.5625	-2.6188	-2.7229	-2.2167	-2.5354	-2.675	-2.3563	151.648	-11.708	330.339	246.041	201.795	7.257	220.319	311.364	268.155	7.832	114.149	263.001	133.644	63.862	325.681	59.286	0.00024085	0.00031291	0.00026233	392.87	3.6954e-06	1.3573e-06	462.3	100.12	5.3486e-06	1.1135e-06	145.07	57.6	35.63	9.9084	2.7148e-06	22.455	0.00033789	0.00033595	9.4328e-05	394.34	3.6857e-06	3.739e-06	461.48	102.33	3.7494e-06	3.6969e-06	147.9	58.281	37.097	10.576	3.7389e-06	22.732	317.408	114.837	123.419	-9.400	81.807	257.704	-9.901	-3.470	241.099	-5.575	-5.710	-1.262	0.121	5.202	118.995	2.841	-8191	255	
21327.223	1	1	0	0	0.17752	0.26184	0.1614	0.08984	0.18538	0.344	0.16224	0.34039	0.043339	0.038519	0.29677	0.043017	0.090603	0.14038	0.027166	0.35723	-2.2062	-2.4104	-2.3917	-2.8146	-2.3812	-2.65	-2.875	-2.2854	-2.8104	-2.6396	-2.6125	-2.8792	-2.2458	-2.6083	-2.6958	-2.1437	227.066	186.786	1.804	243.408	209.783	277.521	337.442	255.588	66.175	79.260	114.224	52.113	148.492	-7.239	16.813	209.291	0.00031178	0.00031838	4.3912e-05	391.5	6.634e-06	4.9934e-06	459.59	100.23	6.9336e-06	3.9908e-06	145.78	57.936	36.133	10.01	4.4094e-06	22.425	0.00034172	0.00034128	9.6215e-05	395.12	3.7856e-06	3.8315e-06	460.32	102.73	3.8564e-06	3.8144e-06	148.14	58.579	37.323	10.673	3.8808e-06	22.798	258.651	68.849	281.310	-9.559	173.227	88.554	-9.565	-3.329	2.228	130.726	-5.838	-0.656	0.186	5.006	93.912	2.822	-8191	255	
21327.320	1	1	0	0	0.091305	0.36965	0.0097851	0.14871	0.25349	0.10339	0.1073	0.24884	0.18514	0.10697	0.15423	0.26238	0.15265	0.1489	0.24532	0.40209	-2.3896	-2.5312	-2.4271	-2.9396	-2.4062	-2.6771	-2.7271	-2.425	-2.7646	-2.6917	-2.475	-2.6104	-2.3396	-2.425	-2.8354	-2.2708	247.849	109.718	91.514	67.200	147.285	287.676	2.818	204.074	330.836	323.510	219.897	241.147	188.653	336.040	86.538	-13.047	0.00019893	0.00043816	3.2699e-05	390.49	2.4746e-06	4.1336e-06	462.37	100.89	2.6681e-07	3.026e-06	146.72	57.701	35.659	10.02	3.5677e-06	22.187	0.00034654	0.00035037	9.7311e-05	395.14	3.7857e-06	3.8953e-06	462.62	103.25	3.8058e-06	3.8851e-06	148.92	58.577	37.221	10.689	3.949e-06	22.719	305.358	147.677	85.165	-9.436	160.551	161.132	-9.485	-3.835	238.429	13.713	-5.103	-1.442	0.329	4.893	159.729	2.830	-8191	255	
21327.416	1	1	0	0	0.041003	0.070275	0.095785	0.1357	0.07755	0.20816	0.19224	0.30399	0.20948	0.12738	0.3373	0.24748	0.02615	0.3388	0.19589	0.021459	-2.0458	-2.5979	-2.2938	-2.7771	-2.4458	-2.5604	-2.8104	-2.2667	-2.7396	-2.7708	-2.2375	-2.7958	-2.4417	-2.2229	-2.7146	-2.3187	129.396	79.765	278.559	229.702	-18.616	329.705	173.225	-16.521	137.835	58.183	311.192	17.580	168.136	241.581	87.713	178.491	0.00010131	0.00056586	9.5797e-05	392.15	4.8013e-06	3.0808e-06	460.79	100.63	3.7175e-06	5.7579e-06	145.76	57.703	35.726	10.057	7.7492e-06	22.27	0.00035387	0.00035538	9.7978e-05	395.39	3.8471e-06	3.9609e-06	460.62	102.67	3.9018e-06	3.8344e-06	148.43	58.408	37.261	10.701	3.8715e-06	22.686	212.709	0.361	71.641	-9.515	67.343	55.926	-9.562	-4.212	166.486	246.828	-5.694	-0.912	0.401	5.064	129.873	2.505	-8191	255	
21327.535	1	1	0	0	0.11156	0.10356	0.25928	0.18126	0.133	0.27846	0.21944	0.24421	0.28214	0.12606	0.097899	0.07802	0.15349	0.16249	0.32802	0.11981	-2.3208	-2.5854	-2.4042	-2.7188	-2.4542	-2.2875	-2.9188	-2.5083	-2.6458	-2.5083	-2.2896	-2.7271	-2.4771	-2.1312	-2.9688	-2.4437	88.510	245.281	-19.958	118.983	257.827	120.877	277.016	199.105	236.924	172.960	149.415	123.840	92.161	10.186	212.560	162.285	0.00023049	0.00055699	0.00010463	392.1	2.2759e-06	4.8415e-06	459.57	100.96	2.7772e-06	1.2526e-06	146.83	58.164	36.218	10.05	1.8162e-06	22.48	0.00034943	0.00035651	9.7983e-05	396.96	3.8507e-06	3.93e-06	461.54	103.58	3.8563e-06	3.9124e-06	149.8	58.701	37.684	10.695	3.9108e-06	22.797	277.732	335.799	-20.655	-9.164	266.071	171.779	-9.239	-4.215	177.519	73.806	-5.542	-1.332	0.372	5.576	166.733	2.517	-8191	255	
21327.607	1	1	0	0	0.19856	0.24436	0.17442	0.096892	0.16026	0.051073	0.19264	0.12151	0.11211	0.15732	0.10763	0.069067	0.10354	0.097601	0.13688	0.022342	-2.1229	-2.8396	-2.3771	-2.75	-2.3937	-2.3833	-2.7708	-2.4437	-2.5687	-2.8271	-2.4333	-2.7958	-2.5812	-2.3937	-2.6042	-2.3521	32.276	320.991	283.831	213.496	61.207	201.944	243.626	49.041	94.459	193.822	328.677	103.961	176.393	24.804	106.525	1.922	0.0001819	0.00086142	5.2478e-05	393.64	3.7048e-06	4.4562e-06	462.76	100.4	4.5848e-06	3.7573e-06	147.34	58.793	36.369	9.9865	7.4022e-06	22.474	0.00035669	0.00035997	9.9704e-05	396.9	3.9725e-06	4.0066e-06	463.34	104.12	3.94e-06	3.9834e-06	150.42	59.152	37.754	10.762	3.9891e-06	23.016	262.946	184.627	266.720	-9.270	-14.274	201.259	-10.180	-3.580	218.591	147.432	-5.145	-0.870	-0.069	5.982	138.105	2.702	-8191	255	
21327.703	1	1	0	0	0.094043	0.14168	0.31846	0.26256	0.19324	0.11343	0.094474	0.20499	0.16048	0.205	0.026872	0.063861	0.071702	0.18457	0.10174	0.17662	-1.9292	-2.6667	-2.3312	-2.5854	-2.5979	-2.2938	-2.8896	-2.4396	-2.4292	-2.8646	-2.4188	-2.4979	-2.8125	-2.4208	-2.8	-2.5833	329.399	17.197	48.299	6.876	64.833	168.463	258.853	226.163	11.430	172.208	22.837	73.821	22.009	296.980	115.718	47.117	0.000169	0.00048618	9.4338e-05	397.16	2.7722e-06	3.4007e-06	467.95	102.18	4.1897e-06	7.2339e-06	147.18	58.981	36.656	10.146	3.0776e-06	22.39	0.00036052	0.00036187	9.7979e-05	400.44	3.9439e-06	3.9585e-06	467.55	104.98	3.9475e-06	3.9795e-06	151.44	59.562	38.137	10.774	4.0185e-06	22.975	269.685	280.730	181.193	-9.193	333.099	-6.356	-9.644	-4.214	208.330	67.784	-5.175	-1.063	0.333	4.890	16.674	3.209	-8191	255	
21327.801	1	1	0	0	0.11391	0.093859	0.16285	0.29315	0.17679	0.21116	0.2118	0.13286	0.081795	0.14728	0.037177	0.2599	0.055101	0.16735	0.26443	0.3515	-2.1188	-2.7708	-2.3125	-2.5375	-2.6021	-2.3104	-2.6479	-2.5938	-2.5667	-2.8083	-2.3854	-2.5187	-2.8979	-2.2917	-2.7021	-2.6542	73.577	167.658	-12.346	228.770	300.712	311.657	273.702	223.796	300.839	157.812	22.195	255.621	139.918	192.377	224.713	288.292	0.00034312	4.193e-05	4.6624e-05	396.61	2.4366e-06	8.4869e-06	465.08	102.5	2.5966e-06	6.5251e-06	148.24	58.714	36.546	10.164	1.096e-06	22.538	0.00035837	0.00036377	9.9132e-05	399.93	3.8889e-06	3.918e-06	465.07	105.26	3.8943e-06	3.9338e-06	151.55	59.388	37.898	10.82	3.927e-06	22.927	285.487	267.594	116.901	-9.150	107.129	98.693	-9.662	-3.501	114.575	220.701	-5.390	-1.158	-0.280	5.404	91.803	2.992	-8191	255	
21327.920	1	1	0	0	0.076136	0.074721	0.15395	0.17802	0.10646	0.13436	0.2957	0.13095	0.16634	0.037377	0.2492	0.33153	0.18407	0.041845	0.18704	0.028549	-1.9375	-2.6646	-2.4208	-2.5854	-2.7104	-2.3063	-2.6875	-2.525	-2.2625	-2.9	-2.6188	-2.3917	-2.7917	-2.3792	-2.5104	-2.4813	189.043	209.942	185.806	166.905	223.187	316.136	252.126	107.453	315.281	325.729	4.380	337.806	17.601	260.577	-5.748	161.184	0.00024645	0.00051884	0.00023899	397.38	7.9364e-06	2.8321e-06	467.91	102.27	3.8627e-06	3.1909e-06	149.62	58.942	36.902	10.208	5.0228e-06	22.592	0.00035176	0.00035624	9.834e-05	399.88	3.8855e-06	3.8613e-06	467.24	105.01	3.9134e-06	3.9408e-06	152.47	59.765	38.172	10.826	4.0007e-06	23.109	270.299	167.157	78.376	-9.356	160.865	163.582	-9.942	-3.735	209.004	328.804	-5.330	-1.005	-0.275	5.377	161.441	2.616	-8191	255	
21328.016	1	1	0	0	0.23368	0.5553	0.15363	0.15403	0.1418	0.059897	0.13818	0.25364	0.016522	0.10643	0.21018	0.23344	0.17071	0.10843	0.12439	0.14638	-1.8875	-2.7021	-2.6083	-2.2542	-2.7562	-2.4125	-2.6875	-2.7625	-2.1646	-2.8812	-2.6979	-2.3479	-2.8146	-2.3167	-2.6771	-2.8875	263.481	-10.700	68.409	105.926	-18.837	244.775	122.848	210.645	37.318	306.660	102.433	172.032	156.017	169.853	121.932	299.401	0.00030589	0.00097148	1.7534e-05	398.26	1.5667e-06	5.8355e-06	469.79	103.27	3.2212e-06	6.9111e-06	149.35	59.494	36.889	10.246	4.014e-06	22.657	0.00035035	0.00035866	9.9076e-05	401.72	3.8768e-06	3.8801e-06	469.94	106.14	3.9067e-06	3.9173e-06	153.02	60.074	38.488	10.886	3.9675e-06	23.137	251.949	111.871	145.636	-9.310	267.859	171.049	-9.330	-3.586	199.656	100.574	-5.748	-0.915	0.577	5.252	259.978	2.592	-8191	255	
21328.111	1	1	0	0	0.062313	0.23001	0.24305	0.27977	0.078768	0.15345	0.12043	0.08227	0.20295	0.18509	0.088475	0.058634	0.19901	0.031987	0.19724	0.10549	-1.7896	-2.7188	-2.6375	-2.5333	-2.7354	-2.4708	-2.5896	-2.5625	-2.5042	-2.7542	-2.7271	-2.3917	-2.8792	-2.4271	-2.3958	-2.8021	245.229	316.274	103.335	260.102	276.818	222.659	144.977	0.708	235.329	154.416	304.931	180.261	263.732	283.560	51.290	209.262	0.00028493	0.00046243	0.00015419	399.63	8.2454e-06	1.7885e-06	468.37	102.8	9.967e-07	3.3915e-06	151.37	59.059	36.823	10.105	4.5362e-06	22.72	0.00035881	0.00036386	9.9777e-05	402.35	3.9905e-06	3.9143e-06	470.45	105.74	3.927e-06	4.0173e-06	153.73	60.15	38.443	10.881	3.967e-06	23.107	268.486	97.623	122.214	-9.318	163.688	155.663	-9.712	-4.085	296.399	93.079	-5.563	-1.595	0.712	5.335	71.205	2.312	-8191	255	
21328.207	1	1	0	0	0.17742	0.17329	0.16033	0.15042	0.15016	0.14423	0.15608	0.060546	0.14001	0.22249	0.13873	0.21919	0.10272	0.13663	0.16166	0.076362	-1.8875	-2.5271	-2.65	-2.375	-2.7229	-2.5521	-2.5563	-2.7771	-2.4979	-2.5917	-2.8042	-2.3271	-2.8187	-2.4854	-2.3625	-2.8312	104.151	94.675	4.186	255.479	198.304	64.059	326.698	121.258	143.043	262.833	300.628	35.489	257.440	245.806	200.546	200.465	0.00030395	0.00053307	0.00019169	399.99	8.4901e-07	2.2596e-06	469.05	103.05	3.4316e-06	4.8134e-06	152.08	59.419	37.018	10.135	1.4799e-06	22.6	0.00034996	0.00036442	9.9505e-05	402.48	3.907e-06	3.9518e-06	468.97	105.68	3.9034e-06	3.9525e-06	153.83	60.063	38.478	10.867	3.9362e-06	23.069	271.461	248.003	12.243	-9.265	200.917	157.742	-9.664	-4.063	138.478	196.921	-5.353	-1.255	0.490	5.128	266.693	2.429	-8191	255	
21328.305	1	1	0	0	0.22437	0.090773	0.044826	0.053597	0.083665	0.17476	0.22233	0.14769	0.33089	0.27465	0.19077	0.17838	0.042247	0.090058	0.28487	0.14631	-1.9021	-2.6417	-2.6312	-2.2979	-2.6792	-2.3917	-2.5229	-2.7583	-2.2812	-2.6646	-2.8917	-2.4125	-2.7333	-2.65	-2.3312	-2.7729	266.791	116.701	24.316	113.596	51.235	310.462	248.580	171.561	315.274	250.992	200.549	216.472	2.946	151.464	142.035	6.227	0.00044009	0.00022207	0.00012315	396.53	1.6654e-06	1.7949e-06	470.66	102.9	1.5327e-06	4.6437e-06	150.03	59.733	36.961	10.051	1.2911e-06	22.632	0.00035404	0.00036719	0.0001011	401.27	4.0028e-06	4.003e-06	469.66	105.84	3.9598e-06	4.0296e-06	153.37	59.917	38.541	10.824	3.9678e-06	23.097	303.716	163.640	26.453	-9.209	58.073	172.810	-9.603	-3.398	245.798	66.003	-5.571	-1.219	0.302	5.512	330.717	2.138	-8191	255	
21328.400	1	1	0	0	0.21484	0.17882	0.08676	0.081475	0.15216	0.077939	0.10869	0.068937	0.22973	0.10029	0.29783	0.33168	0.075921	0.26616	0.1643	0.086313	-1.9458	-2.4854	-2.7792	-2.275	-2.6458	-2.6562	-2.2708	-2.7125	-2.5417	-2.4896	-2.9792	-2.3104	-2.7229	-2.7667	-2.2208	-2.8187	303.011	11.796	273.458	275.617	52.406	174.284	36.923	217.686	210.902	296.349	-10.412	271.368	76.832	271.683	88.374	169.449	0.00025819	0.00056362	0.00020295	398.96	7.118e-06	6.8156e-06	467.28	104.11	3.99e-06	9.5912e-06	150.1	59.434	37.133	10.265	5.2623e-06	22.899	0.00035676	0.00036709	0.00010008	402.45	4.0009e-06	3.9839e-06	468.81	106.21	3.9248e-06	3.9902e-06	153.46	60.076	38.677	10.92	3.9334e-06	23.228	332.362	15.239	109.508	-9.326	154.508	319.171	-9.753	-3.702	129.736	111.594	-5.242	-1.189	0.080	5.065	89.232	2.408	-8191	255	
21328.496	1	1	0	0	0.11263	0.12471	0.05639	0.45085	0.11929	0.32198	0.25722	0.23518	0.19908	0.27158	0.27877	0.42379	0.19465	0.1141	0.24088	0.078966	-1.9917	-2.5167	-2.8063	-2.4313	-2.525	-2.6229	-2.3708	-2.9479	-2.5792	-2.4208	-2.8063	-2.2854	-2.5062	-2.5542	-2.3521	-2.7104	242.317	-14.998	34.310	330.692	146.561	91.765	302.504	299.178	187.798	320.752	242.091	335.233	-16.120	91.986	181.465	292.626	0.00025727	0.00024972	8.1351e-05	401.17	1.9375e-06	3.4946e-06	473.15	104.09	3.9175e-06	2.3596e-06	151.01	59.605	36.712	10.279	1.7659e-06	22.856	0.0003508	0.00036281	9.9794e-05	403.19	4.023e-06	3.9632e-06	471.41	106.63	3.8977e-06	3.9644e-06	154.26	60.312	38.555	10.932	3.9075e-06	23.241	261.325	84.858	4.875	-9.356	248.850	91.603	-9.549	-3.500	141.199	195.304	-5.510	-1.362	0.521	5.126	67.854	2.653	-8191	255	
21328.617	1	1	0	0	0.19272	0.28571	0.35503	0.099872	0.15474	0.12992	0.058601	0.22766	0.18565	0.15434	0.26218	0.22337	0.12539	0.28784	0.40874	0.11901	-1.9583	-2.3958	-2.6688	-2.45	-2.2729	-2.5979	-2.3688	-2.6813	-2.5271	-2.4229	-2.9104	-2.5458	-2.5604	-2.6104	-2.2771	-2.6125	24.649	250.965	284.219	257.981	244.738	209.845	-5.210	0.518	167.789	266.323	332.662	296.530	215.159	172.565	284.353	109.121	0.00022142	0.00022319	0.00014191	398.52	2.4599e-06	2.2035e-06	467.98	103.34	5.8027e-06	8.5146e-07	150.92	58.881	37.027	10.239	2.8598e-06	22.56	0.0003529	0.00035788	9.9347e-05	401.96	3.9417e-06	3.9557e-06	468.28	106.18	3.9502e-06	3.9571e-06	153.24	59.814	38.516	10.884	3.8975e-06	23.08	318.721	198.944	133.243	-8.868	76.712	208.039	-9.330	-3.800	26.474	121.511	-5.594	-0.526	0.182	5.366	253.247	1.955	-8191	255	
21328.711	1	1	0	0	0.072567	0.22526	0.37454	0.062134	0.12817	0.13371	0.2266	0.21285	0.14191	0.23292	0.17899	0.088332	0.063165	0.086664	0.11233	0.1933	-2.0375	-2.3187	-2.7208	-2.4708	-2.3875	-2.7083	-2.6083	-2.6188	-2.5938	-2.3292	-2.5979	-2.4625	-2.5187	-2.7625	-1.9771	-2.625	322.118	236.545	310.263	190.755	111.452	176.403	222.557	294.645	177.835	337.148	-8.845	209.929	35.585	-11.785	144.510	239.733	0.0003689	0.00031932	0.00015035	397.99	4.6243e-06	6.7407e-06	465.64	102.86	2.1762e-07	6.1033e-06	149.97	59.426	36.598	10.255	3.2089e-06	22.875	0.00035614	0.00036295	9.9586e-05	401.74	3.9052e-06	3.9433e-06	467.56	106.06	3.9771e-06	3.9211e-06	153.51	60.011	38.481	10.905	3.9282e-06	23.224	253.348	74.887	21.468	-9.382	1.332	157.650	-9.724	-3.672	283.031	126.530	-5.634	-1.053	-0.042	5.690	138.966	2.807	-8191	255	
21328.809	1	1	0	0	0.05603	0.11481	0.28791	0.08269	0.22803	0.10926	0.12162	0.076101	0.16661	0.15214	0.11047	0.14858	0.061703	0.21159	0.086148	0.16431	-2.2	-2.1396	-2.7042	-2.6188	-2.3812	-2.7083	-2.1833	-2.6479	-2.5125	-2.175	-3.0375	-2.6146	-2.4938	-2.8125	-2.4354	-2.5917	213.389	96.475	319.674	338.021	331.497	220.385	202.334	290.489	18.178	254.135	175.662	209.327	31.620	14.263	225.212	277.399	0.00018077	0.0007287	0.00014493	397.33	3.6133e-06	1.2484e-06	469.02	103.57	3.4649e-06	1.8917e-06	150.99	59.213	36.963	10.226	4.824e-06	22.825	0.00035765	0.00036058	0.00010107	400.7	3.9481e-06	3.9064e-06	469.36	106.07	3.8926e-06	3.8853e-06	153.74	60.296	38.539	10.901	3.9382e-06	23.258	300.561	71.253	68.266	-9.319	240.465	136.461	-9.764	-3.671	273.173	7.081	-5.846	-1.329	0.258	5.461	16.738	2.814	-8191	255	
21328.902	1	1	0	0	0.13032	0.088432	0.1626	0.097421	0.21302	0.25575	0.30139	0.2868	0.31426	0.24786	0.081258	0.23025	0.12139	0.21692	0.1602	0.11442	-2.1437	-2.2979	-2.8	-2.7021	-2.4083	-2.7854	-2.3312	-2.6396	-2.8292	-2.3646	-2.8708	-2.6958	-2.325	-2.8333	-2.6292	-2.5396	105.041	-2.654	139.168	251.326	244.301	10.829	248.595	285.580	116.528	125.408	183.052	307.975	-12.198	286.096	113.016	42.169	0.00018148	0.00020345	4.5677e-05	399.3	1.4216e-06	4.3547e-06	473.82	103.38	3.5025e-06	2.6281e-06	150.93	59.626	37.195	10.255	4.0776e-06	22.696	0.00035686	0.00035811	0.00010228	402.56	3.9431e-06	3.9669e-06	471.59	106.42	3.933e-06	3.8607e-06	154.23	60.212	38.538	10.952	3.894e-06	23.296	279.838	213.330	98.733	-9.280	80.494	213.769	-9.558	-3.851	149.812	-3.499	-5.471	-1.038	0.403	5.129	86.970	2.867	-8191	255	
21329.000	1	1	0	0	0.072678	0.085478	0.1682	0.18716	0.1434	0.024732	0.13583	0.035711	0.078437	0.024964	0.083345	0.30532	0.22607	0.10848	0.21545	0.18028	-2.4208	-2.2562	-2.6958	-2.7188	-2.4229	-2.8875	-2.675	-2.575	-2.9021	-2.3	-2.7271	-2.6271	-2.4146	-2.7542	-2.575	-2.5583	221.727	337.382	222.221	316.363	143.651	173.924	201.319	299.731	9.717	-20.732	79.425	5.193	274.240	203.591	128.902	-8.423	0.00027443	0.00095214	0.0001171	398.59	2.0944e-06	2.6743e-06	464.99	103.06	4.3438e-06	2.3133e-06	150.27	59.25	37.305	10.269	2.2715e-06	22.434	0.00035433	0.0003612	0.00010088	401.46	3.883e-06	4.0184e-06	467.4	105.87	3.9213e-06	3.9175e-06	153.16	59.807	38.532	10.954	3.9667e-06	23.032	284.479	69.723	80.963	-9.090	108.590	191.023	-9.723	-3.163	38.184	86.740	-5.616	-1.150	0.268	5.073	130.045	2.665	-8191	255	
21329.096	1	1	0	0	0.13403	0.16367	0.084555	0.12709	0.081958	0.17165	0.059719	0.1978	0.20217	0.16404	0.090029	0.15986	0.071009	0.025197	0.16734	0.072108	-2.3854	-2.4375	-2.7292	-2.7854	-2.4354	-2.8646	-2.6437	-2.5104	-2.7396	-2.4833	-2.5979	-2.8333	-2.3083	-2.6063	-2.5583	-2.4667	10.970	51.682	275.999	60.766	26.068	-20.812	153.649	243.496	83.755	45.222	49.697	190.721	251.297	176.660	90.984	290.724	0.00026251	0.00031666	0.0001587	397.28	1.4807e-06	1.9152e-06	465.99	102.86	1.9882e-06	6.5779e-06	150.67	59.657	36.936	10.197	4.4173e-06	22.756	0.00035999	0.00036042	0.00010082	400.84	3.9046e-06	4.0112e-06	466.13	105.81	3.8774e-06	3.8761e-06	152.87	59.818	38.292	10.887	3.8823e-06	23.098	313.116	272.417	138.668	-9.285	156.213	263.373	-10.083	-3.610	268.909	90.399	-5.439	-0.998	0.419	5.244	54.627	2.749	-8191	255	
21329.217	1	1	0	0	0.11149	0.26552	0.13664	0.22269	0.11734	0.30635	0.2718	0.14561	0.2042	0.025797	0.16448	0.18504	0.25303	0.18505	0.16724	0.12147	-2.5438	-2.4062	-2.6	-2.8104	-2.3771	-2.6042	-2.5208	-2.3354	-2.6854	-2.4229	-2.4271	-2.9104	-2.3917	-2.5479	-2.7625	-2.3417	240.304	129.579	258.344	2.735	12.948	27.265	166.079	237.140	38.144	13.986	14.091	309.037	316.735	5.891	109.183	185.228	0.00023162	8.2685e-05	0.00013405	398.3	3.6273e-06	5.3565e-06	468.23	103.82	2.347e-06	1.8019e-06	149.47	59.29	36.966	10.16	4.4024e-06	22.716	0.00035448	0.00035185	0.0001005	400.47	3.8918e-06	3.9615e-06	467.81	105.97	3.8982e-06	3.8604e-06	153.09	60.046	38.347	10.905	3.8929e-06	23.195	254.689	237.518	146.393	-9.566	210.926	111.931	-9.947	-3.306	82.718	116.294	-5.390	-0.903	-0.201	4.855	134.254	2.995	-8191	255	
21329.312	1	1	0	0	0.14812	0.36685	0.065415	0.34894	0.22867	0.11682	0.05786	0.13619	0.0065413	0.077517	0.16504	0.16077	0.13475	0.067788	0.15648	0.2406	-2.4792	-2.5771	-2.2854	-2.7125	-2.3312	-2.5125	-2.6708	-2.2521	-2.9042	-2.6	-2.5229	-2.9562	-2.6417	-2.675	-2.8104	-2.35	110.920	209.155	145.071	217.521	192.072	166.357	-14.488	252.541	-6.702	37.794	28.221	7.574	247.208	90.484	27.379	-10.579	0.00026019	0.00033255	0.00017049	397.6	2.423e-06	3.3768e-06	469.53	103.64	3.9729e-07	2.4428e-06	151.4	59.599	36.93	10.255	4.7193e-06	22.968	0.00035698	0.00035498	0.00010036	401.6	3.8954e-06	3.9464e-06	470.06	106.33	3.9406e-06	3.9494e-06	153.79	60.191	38.471	10.945	3.9312e-06	23.254	281.033	9.236	108.999	-9.899	92.046	157.860	-9.594	-3.478	226.905	158.864	-5.416	-1.527	0.148	6.276	34.061	3.005	-8191	255	
21329.408	1	1	0	0	0.26453	0.11333	0.19773	0.044888	0.17168	0.089831	0.30231	0.11752	0.25157	0.12933	0.16155	0.40411	0.13412	0.40012	0.13579	0.15922	-2.3958	-2.3417	-2.3125	-2.8625	-2.45	-2.55	-2.8708	-2.4979	-2.7479	-2.5896	-2.4229	-2.7021	-2.3792	-2.6063	-2.7729	-2.3792	246.289	251.899	235.846	118.619	125.600	170.898	329.416	32.709	290.079	166.604	144.342	325.057	-10.997	239.796	-5.194	284.676	0.00030236	0.00062739	0.00010888	401.03	6.8197e-06	4.1227e-06	470.45	102.81	4.6778e-06	4.9667e-06	150.56	58.985	37.041	10.174	2.202e-06	22.604	0.00035241	0.00035471	9.799e-05	403.05	3.8311e-06	3.8768e-06	468.9	105.75	3.8975e-06	3.8437e-06	153.38	59.894	38.626	10.891	3.9095e-06	23.081	296.986	190.178	145.415	-9.587	198.133	90.458	-9.282	-3.667	282.999	266.293	-5.466	-1.140	-0.132	5.004	83.736	2.592	-8191	255	
21329.480	1	1	0	0	0.023341	0.086326	0.13507	0.10094	0.14576	0.17175	0.067857	0.28464	0.098643	0.1896	0.20447	0.037156	0.07376	0.33436	0.15312	0.18433	-2.4021	-2.4667	-2.1063	-2.8896	-2.4417	-2.6542	-2.8625	-2.3917	-2.7188	-2.5417	-2.4729	-2.9062	-2.5542	-2.5812	-2.95	-2.5583	304.737	139.588	-9.314	317.421	329.724	336.041	222.923	138.545	266.564	180.665	55.709	121.725	93.679	297.541	267.417	233.211	0.00017485	0.00026175	7.7002e-05	397.57	1.8463e-06	4.4969e-06	464.42	103.27	2.5997e-06	4.0928e-06	149.47	59.537	36.885	10.255	3.9316e-06	22.597	0.00035488	0.00035928	9.7604e-05	401.62	3.8771e-06	3.9157e-06	467.79	106.01	3.9657e-06	3.9336e-06	152.87	60.102	38.423	10.908	3.8509e-06	23.064	277.636	51.897	121.860	-9.251	306.686	166.337	-9.762	-3.794	312.245	324.629	-5.500	-1.114	-0.208	5.097	224.880	2.663	-8191	255	
21329.576	1	1	0	0	0.30362	0.10911	0.11855	0.19202	0.036406	0.46257	0.16103	0.023611	0.18043	0.15359	0.12283	0.26023	0.25068	0.15306	0.026386	0.16969	-2.2021	-2.75	-2.4396	-2.7625	-2.6688	-2.5146	-2.7021	-2.4833	-2.6208	-2.7125	-2.1708	-2.8187	-2.525	-2.2104	-2.9667	-2.2292	228.758	35.478	206.657	38.309	142.252	205.359	310.124	-15.934	333.808	24.403	134.650	-0.443	56.943	197.985	106.574	-19.117	0.00022777	0.00057369	8.7185e-05	395.97	1.4167e-06	1.9541e-06	471.32	103.34	6.1211e-06	2.3335e-06	150.85	59.356	36.922	10.273	4.4516e-06	22.683	0.00035911	0.00035783	9.7546e-05	401.09	3.8897e-06	3.8617e-06	470.55	105.96	3.8562e-06	3.832e-06	153.08	60.027	38.304	10.944	3.7899e-06	23.098	301.531	30.007	221.655	-9.215	73.299	222.303	-9.818	-3.906	207.285	183.118	-4.925	-0.767	0.286	5.462	158.461	2.503	-8191	255	
21329.697	1	1	0	0	0.079288	0.12345	0.14459	0.15505	0.17089	0.36257	0.10695	0.18383	0.093398	0.23403	0.16414	0.23578	0.24953	0.13901	0.34756	0.094439	-2.3229	-2.7375	-2.3667	-2.8792	-2.7146	-2.7354	-2.9271	-2.4062	-2.7354	-2.8063	-2.55	-2.75	-2.6375	-2.2229	-2.6958	-2.325	8.370	283.503	107.657	319.923	12.547	259.958	17.381	-14.210	278.681	307.650	280.063	252.266	334.387	299.948	22.425	326.241	0.00018818	0.00069232	0.00011501	399.04	2.4441e-06	3.2118e-06	473.73	103.41	6.608e-06	4.5163e-06	151.32	59.389	36.761	10.342	3.9956e-06	22.794	0.00034737	0.00034563	9.565e-05	402.12	3.7704e-06	3.76e-06	470.88	105.86	3.8143e-06	3.779e-06	153.51	60.025	38.164	10.883	3.7854e-06	23.144	305.053	43.297	75.217	-9.027	191.480	93.160	-10.175	-3.561	180.430	110.899	-5.717	-1.026	0.289	5.209	12.965	2.534	-8191	255	
21329.793	1	1	0	0	0.27607	0.098905	0.23151	0.10325	0.25008	0.35353	0.28512	0.0075775	0.11464	0.12775	0.28715	0.17279	0.23811	0.088136	0.054835	0.15707	-1.9521	-2.7812	-2.3479	-2.6813	-2.6021	-2.4271	-2.7479	-2.6354	-2.6583	-2.7646	-2.4833	-2.775	-2.8333	-2.2313	-2.7313	-2.4604	242.097	175.614	224.848	33.189	278.120	141.976	271.127	113.216	252.935	164.008	20.872	240.727	248.266	145.794	337.882	0.252	0.00027935	0.00022955	0.00025963	398.12	1.3964e-06	4.0597e-06	467.32	102.14	1.2313e-06	6.0252e-06	147.76	58.801	36.614	10.117	6.6858e-06	22.553	0.00033602	0.00033788	9.3731e-05	401	3.6801e-06	3.6426e-06	466.56	105	3.6696e-06	3.6617e-06	150.11	59.101	37.755	10.684	3.6823e-06	22.849	284.177	255.520	43.305	-9.188	216.017	104.976	-9.849	-3.743	170.610	199.640	-5.093	-1.217	-0.042	5.369	164.242	2.497	-8191	255	
21329.889	1	1	0	0	0.093582	0.13372	0.17501	0.055586	0.22233	0.34905	0.070558	0.27006	0.04294	0.29278	0.13615	0.12882	0.37392	0.10817	0.057341	0.20722	-1.9688	-2.7792	-2.2729	-2.5583	-2.6188	-2.1542	-2.925	-2.5875	-2.4562	-2.925	-2.3937	-2.6521	-2.7667	-2.4771	-2.8271	-2.5563	272.362	169.594	193.048	277.126	210.363	293.861	108.827	36.743	-15.163	2.100	165.095	294.173	275.561	324.302	43.550	36.812	0.00029287	0.00036157	5.7894e-05	398.06	2.4301e-06	1.3024e-06	465.87	102.36	4.21e-06	1.7024e-06	147.11	58.19	35.974	10.095	6.0801e-06	22.335	0.00032954	0.00033071	9.2072e-05	399.7	3.649e-06	3.6074e-06	464.7	103.98	3.65e-06	3.6633e-06	149.64	58.529	37.369	10.706	3.6918e-06	22.723	292.064	39.952	195.866	-9.093	19.352	139.932	-9.679	-3.798	145.635	148.182	-5.248	-0.793	0.515	4.979	106.678	2.997	-8191	255	
21330.008	1	1	0	0	0.14886	0.16665	0.31179	0.1222	0.048516	0.034129	0.21907	0.043635	0.21841	0.21023	0.24711	0.3503	0.15145	0.075066	0.043622	0.31235	-2.0271	-2.6896	-2.5083	-2.475	-2.7458	-2.2188	-2.9042	-2.7646	-2.35	-2.8521	-2.5333	-2.4813	-2.8333	-2.1562	-2.6792	-2.6937	21.773	189.480	198.928	303.476	247.885	0.354	265.726	321.672	239.204	36.660	17.029	103.350	142.520	314.351	268.337	318.929	0.0003461	0.00023304	0.00019172	394.59	2.7272e-06	6.4889e-06	467.2	101.18	5.0334e-06	1.7995e-06	146.49	57.962	35.618	9.9763	1.3859e-06	22.549	0.00032958	0.00033303	9.2832e-05	397.07	3.6264e-06	3.6104e-06	464.03	103.4	3.6413e-06	3.6563e-06	148.59	58.378	37.163	10.655	3.695e-06	22.797	270.839	204.577	137.025	-9.372	176.772	150.686	-9.573	-3.627	202.801	6.786	-5.147	-1.121	0.143	4.639	125.563	2.607	-8191	255	
21330.080	1	1	0	0	0.30095	0.20443	0.27279	0.039996	0.23183	0.051893	0.14299	0.077556	0.15015	0.23139	0.10666	0.16897	0.11563	0.090891	0.12543	0.055966	-2.0146	-2.8875	-2.2812	-2.3208	-2.65	-2.2771	-2.7646	-2.6375	-2.3667	-2.7062	-2.4771	-2.3875	-2.7646	-2.3583	-2.6896	-2.9167	60.750	316.780	267.988	28.284	162.603	256.927	239.545	-20.412	100.623	331.419	320.434	281.560	67.544	200.019	123.305	106.382	0.00023482	0.0003912	0.00010414	393.24	3.6113e-06	2.5686e-06	463.54	101.66	3.0301e-06	4.5325e-07	146.06	57.515	35.794	10.107	1.7043e-06	22.615	0.00032944	0.00033642	9.1694e-05	396.4	3.64e-06	3.6438e-06	462.58	103.31	3.6394e-06	3.7172e-06	148.39	58.249	37.186	10.686	3.699e-06	22.891	249.258	28.244	281.345	-9.181	126.720	196.791	-9.458	-3.688	202.667	256.244	-5.754	-1.108	0.447	4.783	306.733	2.633	-8191	255	
21330.176	1	1	0	0	0.21846	0.18265	0.1826	0.10911	0.16096	0.10232	0.1921	0.23614	0.1309	0.24331	0.028582	0.18546	0.10028	0.30848	0.090926	0.041873	-1.95	-2.7833	-2.5521	-2.4292	-2.7687	-2.2083	-2.55	-2.6375	-2.2396	-2.9104	-2.65	-2.2729	-2.8563	-2.3812	-2.5771	-2.7	174.575	-19.113	247.607	251.773	288.717	264.365	260.191	307.134	231.954	275.108	269.224	4.079	5.654	-11.686	213.598	70.429	0.00020852	0.0010821	0.00021928	392.89	5.2914e-06	3.3748e-06	457.77	99.822	3.2441e-06	5.2127e-07	145.03	57.313	35.523	9.9704	2.0784e-06	22.364	0.00033174	0.00033841	9.2683e-05	394.89	3.7358e-06	3.6747e-06	460.07	102.57	3.6328e-06	3.7241e-06	147.22	57.681	36.949	10.642	3.694e-06	22.623	269.396	20.740	75.621	-9.442	0.126	175.334	-9.927	-4.160	35.188	18.401	-5.464	-0.989	0.113	5.165	319.228	2.518	-8191	255	
21330.297	1	1	0	0	0.071268	0.088879	0.20714	0.27256	0.12938	0.23842	0.0583	0.34941	0.14844	0.11362	0.19645	0.13682	0.085913	0.11473	0.18753	0.098447	-1.7625	-2.7	-2.5396	-2.325	-2.7875	-2.4854	-2.4833	-2.7458	-2.2354	-2.4854	-2.6188	-2.4083	-2.8208	-2.4833	-2.4562	-2.7167	179.484	61.068	129.729	16.354	127.562	272.280	-12.016	-20.082	92.143	320.133	116.318	184.920	65.806	226.819	337.349	18.306	0.00020697	8.5512e-05	0.00016557	389.41	4.6203e-06	4.9093e-06	462.12	100.77	4.7371e-06	4.8591e-06	146.17	58.106	35.61	10.23	3.4633e-06	22.662	0.00033209	0.00033726	9.373e-05	393.25	3.7036e-06	3.6864e-06	458.43	102.83	3.6411e-06	3.6934e-06	148	58.265	37.266	10.744	3.6567e-06	22.84	217.161	305.821	89.392	-9.336	160.920	260.434	-9.840	-3.732	194.937	136.139	-5.543	-0.963	0.227	5.400	134.241	2.473	-8191	255	
21330.393	1	1	0	0	0.24705	0.16954	0.22215	0.17898	0.097728	0.14739	0.24775	0.11028	0.36612	0.10857	0.11193	0.11855	0.088501	0.21648	0.093001	0.27213	-1.9271	-2.7687	-2.5604	-2.3771	-2.8083	-2.425	-2.5438	-2.95	-2.4479	-2.6646	-2.7	-2.3187	-2.8271	-2.4646	-2.3708	-2.6375	261.691	104.440	22.674	328.136	293.517	52.196	295.100	60.517	273.216	102.208	302.629	199.066	5.879	328.743	281.235	330.446	0.00025265	0.00026818	0.00016806	391.13	2.6694e-06	2.0845e-06	459.81	101.02	3.0196e-06	4.5237e-06	145.8	57.721	35.968	10.081	6.5531e-06	22.553	0.00032997	0.00034081	9.3498e-05	394.12	3.7175e-06	3.7098e-06	459.21	103.47	3.6618e-06	3.7538e-06	148.4	58.499	37.511	10.732	3.7456e-06	22.929	286.364	115.419	34.604	-9.249	76.691	215.537	-10.097	-3.816	184.036	103.930	-5.388	-0.897	0.164	5.298	36.226	2.535	-8191	255	
21330.488	1	1	0	0	0.052046	0.29128	0.15876	0.242	0.20549	0.19513	0.30695	0.38162	0.1133	0.13145	0.071458	0.18724	0.12737	0.20616	0.14854	0.16552	-2.0875	-2.6396	-2.7833	-2.3833	-2.5417	-2.5521	-2.2771	-2.8375	-2.3312	-2.525	-2.6958	-2.3187	-2.6104	-2.6458	-2.4188	-2.9083	-9.003	293.311	41.030	-12.963	328.740	81.534	-2.089	78.539	158.264	43.976	262.675	213.346	288.517	318.651	246.927	-20.298	0.00014027	0.00041705	0.00013638	394.37	7.1145e-06	4.5477e-06	462.07	101.81	2.7658e-06	3.5997e-06	147.38	58.951	36.118	10.221	2.9405e-06	22.767	0.0003322	0.00034335	9.5256e-05	395.12	3.7766e-06	3.7125e-06	463.6	104.31	3.6839e-06	3.7704e-06	150.14	59.249	37.917	10.812	3.7331e-06	23.141	290.277	289.229	201.690	-9.382	164.154	35.727	-9.558	-3.590	67.198	64.910	-5.162	-0.844	0.505	4.843	117.268	2.710	-8191	255	
21330.609	1	1	0	0	0.1304	0.23877	0.27072	0.16984	0.10318	0.22439	0.20166	0.3772	0.10554	0.081365	0.080852	0.16552	0.10723	0.15072	0.071837	0.13122	-2.0667	-2.4771	-2.8771	-2.35	-2.5417	-2.6958	-2.4604	-2.7479	-2.4958	-2.5396	-2.9021	-2.4729	-2.7125	-2.7917	-2.3312	-2.6917	68.555	267.932	233.187	11.663	159.613	104.986	56.891	292.724	8.823	68.113	29.941	83.722	304.761	27.834	238.082	141.817	0.0002193	0.00046818	4.2147e-05	394.58	2.3677e-06	3.527e-06	468.58	102.36	1.5277e-06	4.9246e-06	148.45	58.242	36.258	10.155	2.6545e-06	22.521	0.00033648	0.00034267	9.6188e-05	397.39	3.7409e-06	3.7303e-06	464.23	104.77	3.7761e-06	3.813e-06	150.18	58.853	37.859	10.798	3.7937e-06	22.915	298.676	126.185	4.754	-9.365	-18.287	228.608	-9.494	-3.571	21.489	211.279	-5.609	-0.629	0.547	5.213	149.520	2.896	-8191	255	
21330.703	1	1	0	0	0.13109	0.19369	0.18135	0.090242	0.1193	0.15866	0.26288	0.1586	0.034635	0.14719	0.16733	0.13475	0.3804	0.25039	0.11351	0.088518	-2.1167	-2.3542	-2.8812	-2.4083	-2.6979	-2.6312	-2.325	-2.825	-2.5521	-2.3708	-2.7875	-2.4958	-2.5167	-2.8625	-2.4229	-2.7979	14.083	132.426	138.759	62.463	325.367	261.544	174.797	157.338	324.515	155.543	321.704	231.279	-12.435	302.913	163.758	171.727	0.00023506	0.00035203	5.378e-05	394.86	2.6482e-06	4.5744e-06	465.06	102.96	5.7711e-06	2.885e-06	146.44	58.266	36.556	10.207	7.4011e-06	22.636	0.00033927	0.00035429	9.6649e-05	396.52	3.7555e-06	3.7395e-06	462.66	104.55	3.6776e-06	3.7652e-06	149.75	58.96	38.043	10.822	3.69e-06	23.049	271.221	39.686	35.521	-9.309	88.154	190.871	-9.404	-3.572	109.175	231.858	-5.390	-0.722	0.478	5.138	39.425	2.597	-8191	255	
21330.777	1	1	0	0	0.1041	0.16963	0.19435	0.27385	0.36658	0.2038	0.21316	0.085739	0.17475	0.17704	0.19755	0.18445	0.34791	0.22453	0.019432	0.2446	-2.2729	-2.3375	-2.9542	-2.4479	-2.6042	-2.7313	-2.3979	-2.7167	-2.5542	-2.5104	-2.9625	-2.6146	-2.4167	-2.7792	-2.4667	-2.5667	-13.733	262.343	307.144	294.271	128.361	164.688	285.846	209.418	149.425	218.736	-8.814	287.539	171.097	305.284	207.056	228.600	0.00022348	0.00049923	4.5298e-05	396.27	1.0802e-06	5.4954e-06	466.09	102.58	3.2154e-06	2.2227e-06	148.77	58.54	36.857	10.264	8.9577e-06	22.872	0.00033533	0.00033806	9.4842e-05	398.3	3.721e-06	3.6956e-06	464.9	104.86	3.674e-06	3.6544e-06	151.24	59.389	38.109	10.882	3.643e-06	23.172	304.538	47.454	-0.217	-9.502	141.165	129.277	-9.692	-3.569	277.482	73.593	-5.509	-0.901	0.469	5.273	152.573	2.679	-8191	255	
#DATA ENDS
