BOXY.EXE: ISS Imagent and Oximeter Data Acquisition Program Version 0.80
Ascii Record File

#ACQ INFORMATION
2  Detector Channels 
16  External MUX Channels 
1  Auxiliary Channels 
5000  Waveform (CCF) Frequency (Hz)
1  Waveforms Skipped 
30  Waveforms Averaged 
1  Cycles Averaged 
16  Acquisitions per Waveform 
10.0806  Updata Rate (Hz) 

#FILE INFORMATION
TRUE -- External MUX Channel results are PARSED.
FALSE -- AC DC and Phase are NOT grouped.
TRUE -- Companion Program Settings File CREATED.
FALSE -- AC data not excluded
FALSE -- DC data not excluded
FALSE -- Phase data not excluded
FALSE -- Auxillary Chn. data not excluded
Tab delimiters

#CALIBRATION STATE
TRUE -- Waveform Calibration Values APPLIED.


#AUX CALIBRATION VALUES
Val Type	aux-1	

Term	1.0000e+00	
Factor	0.0000e+00	


#WF CALIBRATION VALUES
A = Detector Channel
Val Type	A-AC1	A-AC2	A-AC3	A-AC4	A-AC5	A-AC6	A-AC7	A-AC8	A-AC9	A-AC10	A-AC11	A-AC12	A-AC13	A-AC14	A-AC15	A-AC16	A-DC1	A-DC2	A-DC3	A-DC4	A-DC5	A-DC6	A-DC7	A-DC8	A-DC9	A-DC10	A-DC11	A-DC12	A-DC13	A-DC14	A-DC15	A-DC16	A-Ph1	A-Ph2	A-Ph3	A-Ph4	A-Ph5	A-Ph6	A-Ph7	A-Ph8	A-Ph9	A-Ph10	A-Ph11	A-Ph12	A-Ph13	A-Ph14	A-Ph15	A-Ph16	

Term	0.00000e+00	0.00000e+00	0.00000e+00	0.00000e+00	0.00000e+00	0.00000e+00	0.00000e+00	0.00000e+00	0.00000e+00	0.00000e+00	0.00000e+00	0.00000e+00	0.00000e+00	0.00000e+00	0.00000e+00	0.00000e+00	0.00000e+00	0.00000e+00	0.00000e+00	0.00000e+00	0.00000e+00	0.00000e+00	0.00000e+00	0.00000e+00	0.00000e+00	0.00000e+00	0.00000e+00	0.00000e+00	0.00000e+00	0.00000e+00	0.00000e+00	0.00000e+00	0.00000e+00	0.00000e+00	0.00000e+00	0.00000e+00	0.00000e+00	0.00000e+00	0.00000e+00	0.00000e+00	0.00000e+00	0.00000e+00	0.00000e+00	0.00000e+00	0.00000e+00	0.00000e+00	0.00000e+00	0.00000e+00	
Factor	1.00000e+00	1.00000e+00	1.00000e+00	1.00000e+00	1.00000e+00	1.00000e+00	1.00000e+00	1.00000e+00	1.00000e+00	1.00000e+00	1.00000e+00	1.00000e+00	1.00000e+00	1.00000e+00	1.00000e+00	1.00000e+00	1.00000e+00	1.00000e+00	1.00000e+00	1.00000e+00	1.00000e+00	1.00000e+00	1.00000e+00	1.00000e+00	1.00000e+00	1.00000e+00	1.00000e+00	1.00000e+00	1.00000e+00	1.00000e+00	1.00000e+00	1.00000e+00	X	X	X	X	X	X	X	X	X	X	X	X	X	X	X	X	

B = Detector Channel
Val Type	B-AC1	B-AC2	B-AC3	B-AC4	B-AC5	B-AC6	B-AC7	B-AC8	B-AC9	B-AC10	B-AC11	B-AC12	B-AC13	B-AC14	B-AC15	B-AC16	B-DC1	B-DC2	B-DC3	B-DC4	B-DC5	B-DC6	B-DC7	B-DC8	B-DC9	B-DC10	B-DC11	B-DC12	B-DC13	B-DC14	B-DC15	B-DC16	B-Ph1	B-Ph2	B-Ph3	B-Ph4	B-Ph5	B-Ph6	B-Ph7	B-Ph8	B-Ph9	B-Ph10	B-Ph11	B-Ph12	B-Ph13	B-Ph14	B-Ph15	B-Ph16	

Term	0.00000e+00	0.00000e+00	0.00000e+00	0.00000e+00	0.00000e+00	0.00000e+00	0.00000e+00	0.00000e+00	0.00000e+00	0.00000e+00	0.00000e+00	0.00000e+00	0.00000e+00	0.00000e+00	0.00000e+00	0.00000e+00	0.00000e+00	0.00000e+00	0.00000e+00	0.00000e+00	0.00000e+00	0.00000e+00	0.00000e+00	0.00000e+00	0.00000e+00	0.00000e+00	0.00000e+00	0.00000e+00	0.00000e+00	0.00000e+00	0.00000e+00	0.00000e+00	-2.03927e+02	-1.31831e+02	-1.25538e+02	-1.83254e+02	-8.09175e+01	-7.08768e+01	-1.60701e+02	-1.62015e+02	-9.04271e+01	-7.32347e+01	-1.72480e+02	-1.72818e+02	-1.83168e+02	-1.78087e+02	-6.61985e+01	-1.50828e+02	
Factor	3.89286e-05	1.23717e-04	3.30348e-05	1.37229e-01	1.13119e-06	1.25685e-06	1.52528e-01	4.65841e-02	1.24710e-06	1.41356e-06	7.24308e-02	2.45414e-02	2.28361e-02	7.36464e-03	1.53149e-06	1.05710e-02	3.04281e-06	3.29901e-06	9.19863e-07	7.35445e-02	3.56907e-08	3.63287e-08	7.68056e-02	2.49985e-02	3.56985e-08	3.62099e-08	3.76454e-02	1.27287e-02	1.23343e-02	3.98035e-03	3.59260e-08	5.53306e-03	X	X	X	X	X	X	X	X	X	X	X	X	X	X	X	X	



#DISTANCE SETTINGS
A = Detector Channel
A-1	A-2	A-3	A-4	A-5	A-6	A-7	A-8	A-9	A-10	A-11	A-12	A-13	A-14	A-15	A-16	

2.5000e+00	3.0000e+00	2.5000e+00	3.0000e+00	2.0000e+00	3.0000e+00	1.5000e+00	3.0000e+00	3.0000e+00	3.0000e+00	3.0000e+00	3.0000e+00	3.0000e+00	3.0000e+00	1.5000e+00	3.0000e+00	

B = Detector Channel
B-1	B-2	B-3	B-4	B-5	B-6	B-7	B-8	B-9	B-10	B-11	B-12	B-13	B-14	B-15	B-16	

1.0000e+01	1.0000e+01	1.0000e+01	1.4400e+00	1.0000e+01	1.0000e+01	1.5100e+00	1.9400e+00	1.0000e+01	1.0000e+01	1.9900e+00	2.4900e+00	2.4100e+00	2.9000e+00	1.0000e+01	2.9800e+00	




#DATA BEGINS
time	group	step	mark	flag	A-AC1	A-AC2	A-AC3	A-AC4	A-AC5	A-AC6	A-AC7	A-AC8	A-AC9	A-AC10	A-AC11	A-AC12	A-AC13	A-AC14	A-AC15	A-AC16	A-DC1	A-DC2	A-DC3	A-DC4	A-DC5	A-DC6	A-DC7	A-DC8	A-DC9	A-DC10	A-DC11	A-DC12	A-DC13	A-DC14	A-DC15	A-DC16	A-Ph1	A-Ph2	A-Ph3	A-Ph4	A-Ph5	A-Ph6	A-Ph7	A-Ph8	A-Ph9	A-Ph10	A-Ph11	A-Ph12	A-Ph13	A-Ph14	A-Ph15	A-Ph16	B-AC1	B-AC2	B-AC3	B-AC4	B-AC5	B-AC6	B-AC7	B-AC8	B-AC9	B-AC10	B-AC11	B-AC12	B-AC13	B-AC14	B-AC15	B-AC16	B-DC1	B-DC2	B-DC3	B-DC4	B-DC5	B-DC6	B-DC7	B-DC8	B-DC9	B-DC10	B-DC11	B-DC12	B-DC13	B-DC14	B-DC15	B-DC16	B-Ph1	B-Ph2	B-Ph3	B-Ph4	B-Ph5	B-Ph6	B-Ph7	B-Ph8	B-Ph9	B-Ph10	B-Ph11	B-Ph12	B-Ph13	B-Ph14	B-Ph15	B-Ph16	aux-1	digaux	

14851.169	1	1	0	256	0.29021	0.070029	0.16379	0.23792	0.2817	0.063461	0.2942	0.17044	0.2266	0.30478	0.20512	0.29067	0.08376	0.090625	0.18687	0.21895	-2.5062	-2.5187	-2.7729	-2.9479	-2.5083	-3.0062	-2.7396	-2.7167	-2.8063	-2.3854	-2.9729	-2.95	-2.4125	-2.9792	-2.65	-2.6771	193.879	186.213	-115.556	-94.898	182.621	174.121	138.974	-64.828	-92.094	203.541	168.318	132.952	240.631	115.340	218.436	195.734	0.0015478	0.00068646	0.0004801	903.41	3.0906e-05	1.5291e-05	1125.5	188.33	1.871e-05	3.7763e-05	317.41	126.24	67.754	22.676	1.7656e-05	50.392	0.019747	0.021232	0.0060111	1335.4	0.0002314	0.00023698	1573.6	342.74	0.00023259	0.00023438	547.13	203.7	144.37	47.595	0.00023171	84.252	144.108	60.184	-64.932	-105.356	89.808	-38.970	-105.683	-99.433	-87.704	-5.207	-99.602	-95.241	-94.368	-87.525	-29.162	-90.079	-8191	255	
14851.290	1	1	0	0	0.10937	0.26855	0.22897	0.19292	0.17954	0.12221	0.23515	0.24557	0.14936	0.21484	0.25901	0.15651	0.1664	0.067426	0.21915	0.19477	-2.5625	-2.4542	-2.875	-3.0625	-2.3229	-2.9938	-2.8854	-2.6688	-2.8167	-2.5667	-2.8688	-2.9396	-2.5125	-2.9208	-2.6833	-2.7083	-31.677	118.784	111.903	147.675	-99.273	154.742	170.813	49.732	238.072	-98.343	-69.493	201.169	97.598	-2.690	-93.131	-117.064	0.00062712	0.002103	0.00057204	899.34	2.2304e-05	3.2905e-05	1121.2	187.74	2.0569e-05	1.5762e-05	314.79	127	67.025	22.855	2.6777e-05	49.955	0.019709	0.021222	0.0059971	1329.5	0.00022876	0.00023502	1567.1	339.19	0.00022815	0.00023115	542.26	201.89	142.64	47.193	0.00023022	83.565	-38.456	196.166	-72.283	-105.757	-28.066	-43.749	-105.454	-99.119	-107.570	37.470	-99.497	-95.551	-93.877	-87.220	-106.870	-89.899	-8191	255	
14851.386	1	1	0	0	0.10388	0.26974	0.195	0.066305	0.18022	0.16991	0.25281	0.1414	0.26395	0.17	0.19519	0.18663	0.201	0.040048	0.15168	0.19103	-2.6188	-2.5229	-2.4708	-3.1	-2.3854	-2.9688	-2.875	-2.6688	-2.7917	-2.4458	-2.8417	-3.0042	-2.6271	-2.8229	-2.725	-2.7188	201.995	217.536	205.692	210.504	202.166	-76.681	235.133	-29.745	71.343	28.259	215.236	95.988	206.995	162.043	132.099	133.256	0.00068426	0.001853	0.00045343	891.44	1.3433e-05	3.4063e-05	1123.2	187.69	1.1953e-05	1.3083e-05	315.91	127.14	68.259	22.841	1.6978e-06	50.764	0.019474	0.021015	0.0059236	1318.7	0.00022545	0.00023306	1558	337.19	0.00022734	0.00023023	542.55	202.25	143.05	47.484	0.0002299	84.023	170.497	27.732	-40.310	-105.544	-13.436	23.628	-105.555	-98.927	13.922	-87.238	-99.389	-95.233	-94.594	-88.376	97.792	-90.040	-8191	255	
14851.482	1	1	0	0	0.24115	0.17702	0.17546	0.079944	0.2004	0.27473	0.16631	0.11707	0.01081	0.18499	0.28205	0.33423	0.30265	0.11199	0.33547	0.12008	-2.6208	-2.5375	-2.5771	-2.975	-2.4979	-2.8542	-2.9958	-2.5833	-2.7562	-2.6771	-2.6083	-3.1875	-2.5146	-2.8667	-2.6667	-2.625	-58.890	234.011	12.351	37.758	-104.243	-70.918	123.338	71.516	-24.480	-107.646	-88.665	213.042	205.162	207.713	206.971	154.347	0.00070913	0.00055935	0.0004595	899.66	3.2129e-05	4.4237e-05	1125.5	189.64	1.9369e-05	1.2482e-05	317.14	127.14	68.393	22.722	2.6697e-05	51.13	0.019482	0.021187	0.0059488	1323.6	0.00022759	0.00023516	1566	338.71	0.00023009	0.00023378	545.79	203.82	144.55	47.75	0.00023341	84.466	177.981	102.329	90.360	-105.181	-21.612	138.032	-105.494	-98.951	-64.250	202.277	-99.083	-95.511	-94.840	-87.436	63.199	-90.225	-8191	255	
14851.579	1	1	0	0	0.30529	0.27025	0.17387	0.21813	0.16332	0.26093	0.18885	0.16128	0.15098	0.075703	0.32796	0.14683	0.25226	0.16626	0.12739	0.41591	-2.4646	-2.8458	-2.55	-3.0667	-2.5875	-2.7771	-2.9542	-2.5167	-2.8063	-2.725	-2.5833	-3.0438	-2.4938	-2.8021	-2.8937	-2.7583	-108.830	-50.275	84.797	-97.981	92.881	192.916	166.359	240.532	59.225	223.015	130.354	-66.495	190.087	-102.251	-69.149	168.037	0.00028866	0.0010233	0.00094071	898.17	2.852e-05	4.1928e-05	1129.2	187.83	4.1705e-05	2.698e-05	319.22	128.37	68.443	22.874	3.7556e-05	50.841	0.019782	0.021399	0.0059836	1329.4	0.0002293	0.00023722	1569	338.85	0.0002318	0.00023344	544.85	203.71	143.48	47.492	0.00022967	83.905	183.129	185.306	26.301	-105.620	-110.957	32.184	-105.446	-98.837	120.651	242.210	-99.450	-95.377	-94.330	-87.802	168.397	-89.956	-8191	255	
14851.675	1	1	0	0	0.14565	0.068928	0.1114	0.18563	0.17975	0.045316	0.23704	0.27963	0.072999	0.072583	0.15288	0.33286	0.17479	0.1742	0.025589	0.28885	-2.3833	-2.7042	-2.4542	-3.0187	-2.5062	-2.6917	-3.175	-2.6729	-2.8312	-2.7771	-2.5083	-2.9042	-2.5458	-2.6333	-2.8521	-2.6021	-31.553	135.364	129.801	-106.280	12.608	206.780	128.795	206.178	-96.587	185.119	12.133	199.602	148.423	-103.489	165.367	119.928	0.00045971	0.0028833	0.0003161	900.19	1.1352e-05	1.0845e-05	1124.6	186.25	4.3621e-05	4.96e-05	317.67	126.42	67.782	22.777	5.5659e-05	50.542	0.019563	0.021081	0.0058641	1321.8	0.00022525	0.00023158	1558.1	335.39	0.00022629	0.00022851	537.54	200.99	141.84	46.844	0.00022604	82.961	-75.289	144.786	-67.262	-105.725	152.887	-47.016	-105.500	-98.875	117.049	-13.458	-99.740	-95.127	-94.244	-87.867	-32.715	-90.106	-8191	255	
14851.771	1	1	0	0	0.0067018	0.16356	0.21963	0.16898	0.30382	0.059003	0.16206	0.081913	0.066499	0.075645	0.22414	0.086846	0.12201	0.10054	0.30358	0.23607	-2.4646	-2.6958	-2.5208	-2.9313	-2.6312	-2.6	-2.8854	-2.6542	-2.6875	-2.9667	-2.5292	-2.8063	-2.6792	-2.6792	-2.6646	-2.6333	178.872	56.138	-18.683	-68.510	-106.259	36.477	138.452	84.615	175.691	148.003	216.361	194.900	23.384	187.939	146.945	202.792	0.00056256	0.0016458	0.00044153	909.5	1.7493e-05	3.5452e-05	1127.8	188.92	2.7751e-05	2.8448e-05	319.91	128.03	68.701	23.049	3.0803e-05	50.848	0.019232	0.020749	0.0057457	1316.1	0.00022202	0.00022735	1547.8	332.24	0.00022251	0.00022447	533.63	200.74	141.37	46.444	0.00022145	82.838	154.172	145.428	-21.693	-105.260	153.165	-2.801	-105.513	-99.431	210.993	-39.862	-99.809	-95.356	-94.443	-87.518	-110.512	-89.828	-8191	255	
14851.867	1	1	0	0	0.24264	0.1935	0.19451	0.20408	0.072399	0.18867	0.14556	0.033763	0.042538	0.021312	0.19058	0.16732	0.15512	0.18836	0.16245	0.3208	-2.3521	-2.8521	-2.4375	-3.0979	-2.6354	-2.6979	-3.0729	-2.4396	-2.8375	-2.8438	-2.5687	-3.0792	-2.9354	-2.7271	-2.975	-2.5583	207.493	22.659	58.743	173.144	161.550	51.445	186.609	228.295	-5.990	0.789	235.229	-115.566	208.465	-62.139	-74.139	185.539	0.00037259	0.0022915	0.0006393	899.22	2.8146e-05	2.4828e-05	1130.4	190.56	2.2583e-05	1.2643e-06	317.25	127.75	68.748	23.215	1.6168e-05	51.162	0.018955	0.020355	0.0056677	1309.3	0.00021999	0.00022448	1553.3	333.8	0.0002213	0.00022408	534.73	201.79	141.89	46.608	0.00022398	83.18	143.329	-113.976	33.037	-105.153	-10.750	36.840	-105.572	-99.103	96.523	144.112	-99.647	-95.487	-94.803	-88.061	241.637	-90.038	-8191	255	
14851.963	1	1	0	0	0.26432	0.19894	0.20892	0.24833	0.088942	0.33249	0.18155	0.30461	0.16278	0.13905	0.2094	0.38051	0.17777	0.072171	0.19348	0.3718	-2.1396	-2.7938	-2.4479	-3.1521	-3.0062	-2.5042	-3.1792	-2.5396	-2.5812	-2.8375	-2.5479	-3.0083	-2.9333	-2.7562	-2.8187	-2.6875	53.312	200.936	165.202	123.400	236.312	-9.405	-99.572	225.473	30.025	-49.186	150.281	-105.625	42.366	-5.039	135.891	184.672	0.00073161	0.001189	9.7024e-05	910.57	3.2876e-05	2.9565e-05	1130.9	189.9	2.741e-05	2.8165e-05	318.2	128.06	67.813	22.848	1.4928e-05	51.245	0.019148	0.020516	0.0057161	1319.5	0.00022138	0.00022561	1560.2	334.02	0.00022222	0.00022498	537.12	201.89	141.81	46.709	0.00022397	83.438	122.150	-35.244	11.990	-105.320	196.139	-52.498	-105.550	-99.168	117.926	90.863	-99.505	-95.170	-93.900	-87.449	69.833	-90.593	-8191	255	
14852.082	1	1	0	0	0.076897	0.1049	0.19411	0.2418	0.25561	0.075345	0.12023	0.21551	0.21076	0.20223	0.22923	0.0091992	0.087096	0.22921	0.069126	0.097208	-2.1604	-2.7771	-2.6042	-2.9917	-2.7396	-2.4458	-3.0271	-2.7333	-2.5271	-3.0167	-2.6042	-2.8083	-2.7646	-2.4104	-2.7979	-2.825	77.041	175.225	-51.987	235.474	34.568	-64.278	118.846	-80.147	188.496	-69.281	230.512	17.644	-102.250	-113.923	98.442	-113.918	0.00018996	0.0031538	0.00031795	910.39	3.0562e-05	7.106e-06	1133.3	189.56	1.8884e-05	1.1996e-05	319.04	128.09	67.744	22.762	2.6126e-05	50.471	0.019024	0.020514	0.0056941	1318.5	0.0002206	0.00022332	1552.5	332.9	0.00021837	0.00022078	531.5	200.05	140.25	46.018	0.00022245	82.626	-108.010	3.129	111.594	-105.342	46.222	213.318	-105.236	-99.032	-6.923	22.967	-99.594	-95.372	-94.220	-87.427	30.092	-89.881	-8191	255	
14852.178	1	1	0	0	0.04575	0.046477	0.33696	0.1392	0.026785	0.36262	0.052865	0.2793	0.10339	0.070272	0.21452	0.16891	0.12606	0.17842	0.28464	0.095363	-2.1458	-2.9542	-2.4042	-2.9646	-2.95	-2.4688	-3.0187	-2.8396	-2.4688	-3.0062	-2.7562	-2.7313	-2.7354	-2.6333	-2.9333	-2.8812	-90.865	61.563	-94.357	159.758	-99.621	110.439	132.612	60.890	25.910	24.590	99.660	-90.601	71.760	-112.447	177.756	182.313	0.00025941	0.0011021	0.00040829	906.71	1.7e-05	1.161e-05	1137.2	188.8	1.0659e-05	2.6644e-05	316.27	127.38	69.081	22.884	2.5828e-05	50.851	0.018866	0.020462	0.0056865	1322.8	0.00022276	0.00022575	1566.1	335.88	0.00022322	0.00022705	536.45	201.62	142.16	46.471	0.00022508	83.268	85.213	37.632	-41.915	-105.381	16.457	43.507	-105.103	-99.290	-44.956	125.647	-99.280	-95.333	-94.687	-87.904	-80.499	-90.391	-8191	255	
14852.274	1	1	0	0	0.37605	0.17304	0.1257	0.23346	0.19829	0.07374	0.20018	0.31476	0.27747	0.14585	0.10558	0.13142	0.19787	0.2886	0.20776	0.032468	-1.9688	-3.0438	-2.5938	-2.7229	-2.9188	-2.5563	-3.0646	-2.8333	-2.4104	-2.9875	-2.8083	-2.7125	-3.2125	-2.6437	-2.7792	-2.8625	-76.593	-61.969	-2.415	-31.273	147.456	85.380	182.945	174.466	104.885	234.196	172.455	163.168	-13.332	190.789	62.307	20.721	0.00066899	0.0020381	0.00031258	916.12	7.3972e-06	1.708e-05	1139.4	190.42	2.285e-05	3.8097e-05	320.08	127.36	68.844	22.931	4.66e-05	51.181	0.018954	0.020577	0.0057446	1324.9	0.00022383	0.00022717	1569.7	337.62	0.00022327	0.00022771	539.11	201.77	142.22	46.457	0.0002243	83.143	226.716	216.576	-66.676	-105.232	-53.880	167.926	-105.434	-99.231	9.504	32.633	-99.745	-95.599	-94.219	-87.855	81.214	-90.247	-8191	255	
14852.369	1	1	0	0	0.11075	0.16175	0.090846	0.18445	0.28493	0.15308	0.17112	0.31208	0.027053	0.049228	0.30685	0.073215	0.28641	0.088066	0.091367	0.20473	-2.1458	-3.0042	-2.725	-2.7729	-3.0646	-2.6021	-2.8042	-2.8812	-2.6188	-2.9625	-2.8937	-2.7021	-2.9771	-2.6542	-2.7958	-3.1	0.688	-48.127	88.785	87.251	58.275	26.532	181.419	168.804	187.768	240.877	210.186	162.906	220.896	-26.646	148.416	11.592	0.00064743	0.0010935	0.00012632	910.94	3.1427e-05	3.3093e-06	1146.4	190.34	2.5204e-05	1.383e-05	320.34	127.84	68.379	22.888	9.2941e-06	50.93	0.018717	0.020405	0.0056823	1317.7	0.0002196	0.00022284	1564.4	333.49	0.00021756	0.00022371	534.95	200.57	140.89	46.12	0.00022115	82.813	127.614	214.462	198.486	-105.193	-45.822	-115.468	-105.028	-98.861	-25.196	-102.858	-99.551	-94.998	-94.955	-88.202	178.506	-90.089	-8191	255	
14852.465	1	1	0	0	0.15423	0.065472	0.14582	0.21321	0.047056	0.20045	0.041456	0.11256	0.20624	0.36234	0.243	0.12755	0.14358	0.1074	0.14771	0.1988	-2.0563	-2.85	-2.7146	-2.775	-2.9167	-2.725	-2.7646	-2.95	-2.3812	-2.7062	-2.9417	-2.6854	-2.925	-2.7104	-2.6208	-3.0667	139.018	-71.327	174.435	160.797	155.535	-115.545	144.964	200.072	235.985	51.689	134.610	32.497	66.776	130.968	129.411	185.430	0.00081408	0.0010663	0.001369	913.76	8.9853e-06	2.1529e-05	1148.8	188.95	2.0404e-05	3.8369e-05	319.3	128.22	68.005	22.816	2.7737e-05	50.898	0.018629	0.020394	0.0056836	1319.3	0.00022014	0.00022341	1562.1	334.35	0.0002182	0.00022485	535.38	200.31	141.12	46.321	0.00022131	82.723	178.111	-27.141	-46.197	-105.511	-82.841	78.909	-105.408	-99.129	13.197	81.506	-99.902	-95.267	-94.151	-87.737	-33.414	-90.242	-8191	255	
14852.585	1	1	0	0	0.27618	0.14543	0.23919	0.022355	0.040667	0.080215	0.16155	0.23884	0.28426	0.10107	0.175	0.12751	0.16268	0.184	0.12141	0.2313	-2.0958	-2.7021	-2.8208	-2.5687	-3.2	-2.5187	-2.7292	-3.1042	-2.6458	-2.8271	-2.9625	-2.5396	-2.8479	-2.6688	-2.6646	-2.9979	-70.171	129.514	4.026	-46.377	232.119	186.563	147.133	120.632	133.472	178.020	-112.162	-64.409	211.214	-105.123	28.619	169.673	0.001491	0.00081091	0.00089948	912.7	2.4252e-05	4.5649e-06	1146.4	188.83	9.1644e-06	9.5364e-06	323	127.9	69.056	23.052	2.7032e-05	50.892	0.018558	0.020356	0.0056524	1312.6	0.00021908	0.00022438	1560.5	334.72	0.00021978	0.00022737	539.64	201.68	143.13	46.878	0.00022533	83.644	109.363	-108.505	200.127	-105.568	216.759	48.293	-105.333	-99.238	228.216	205.003	-100.001	-95.136	-94.522	-86.941	85.065	-89.941	-8191	255	
14852.682	1	1	0	0	0.20862	0.16393	0.17108	0.22967	0.25734	0.098982	0.2053	0.093483	0.16743	0.032573	0.074324	0.20467	0.31089	0.16652	0.11596	0.030372	-2.0312	-2.925	-2.8729	-2.75	-3.0146	-2.7313	-2.6854	-3.1375	-2.35	-2.9062	-2.8854	-2.6646	-3.0938	-2.8771	-2.3479	-3.1813	-81.742	212.155	174.586	131.232	144.413	58.336	206.874	182.170	26.758	66.853	-111.395	-61.131	210.160	194.739	-84.407	218.086	0.0012485	0.0010282	0.00021978	910.34	1.795e-05	2.8329e-05	1134.2	189.2	3.4143e-05	1.0232e-05	318.14	128.15	68.327	22.572	4.3813e-05	50.398	0.019016	0.020879	0.0057865	1323.8	0.00022453	0.00022816	1565.1	337.09	0.00022187	0.00022742	536.4	200.1	141.89	46.348	0.00022299	82.683	124.069	143.599	16.587	-105.559	110.105	91.114	-105.438	-98.991	66.961	72.553	-99.439	-95.241	-94.242	-88.007	-92.555	-90.157	-8191	255	
14852.778	1	1	0	0	0.28415	0.17772	0.11073	0.2908	0.15366	0.30051	0.16207	0.25064	0.31443	0.17906	0.050466	0.19032	0.22383	0.14379	0.29042	0.17045	-2.3271	-2.7542	-3.0958	-2.725	-2.7833	-2.7104	-2.8438	-3.1146	-2.6646	-2.7042	-2.8792	-2.6229	-2.7938	-3.0146	-2.7167	-3.1042	-74.006	140.140	7.181	137.866	107.321	239.455	135.399	213.515	147.222	189.563	38.791	241.883	210.660	-11.652	-82.356	134.673	0.0014718	0.0057184	0.0015043	914.29	1.5096e-05	1.9617e-05	1131.8	186.23	7.315e-06	2.2191e-05	316.3	127.09	67.753	22.621	1.7498e-05	50.223	0.018908	0.020653	0.0057469	1321.8	0.00022403	0.00022711	1558.2	334.96	0.00022278	0.00022768	535.5	200.22	142.07	46.312	0.00022354	82.764	92.956	-16.591	-100.768	-105.355	-60.199	-2.173	-105.388	-98.764	-104.479	150.379	-100.044	-95.318	-94.418	-87.644	25.377	-89.875	-8191	255	
14852.874	1	1	0	0	0.19661	0.049128	0.15825	0.20425	0.072337	0.15688	0.34766	0.11386	0.23872	0.29895	0.20094	0.30618	0.29393	0.17529	0.12434	0.065062	-2.2271	-2.6792	-3.0062	-2.5979	-2.9562	-2.6312	-2.6417	-2.95	-2.6792	-2.7479	-3.0833	-2.6146	-2.8708	-2.8542	-2.3812	-2.9458	43.642	124.059	170.915	142.667	138.299	70.394	229.704	112.793	101.587	103.668	214.886	149.981	-116.640	101.786	-98.439	-104.174	0.0011432	0.0017646	0.0008525	904.61	2.2361e-05	1.3632e-05	1129.1	187.25	4.0006e-05	3.1661e-05	313.79	126.09	67.254	22.45	2.4626e-05	49.645	0.019008	0.020645	0.0057444	1317	0.000224	0.0002276	1552.6	335.28	0.00022309	0.00022751	535.03	199.64	141.96	46.294	0.00022244	82.355	176.631	-42.936	52.648	-105.418	72.603	184.193	-105.483	-98.827	-22.683	211.739	-100.107	-95.310	-94.636	-87.635	24.056	-90.421	-8191	255	
14852.970	1	1	0	0	0.10978	0.20706	0.010035	0.22979	0.12819	0.20916	0.09762	0.35157	0.36538	0.053226	0.21074	0.069745	0.24243	0.0078631	0.18225	0.1902	-2.2896	-2.5521	-3.0563	-2.8	-2.5875	-2.9354	-2.6417	-2.9458	-2.6667	-2.5792	-3.1562	-2.7938	-2.875	-2.9938	-2.4688	-2.9854	108.863	155.651	74.483	160.021	198.955	-115.515	153.409	230.030	171.704	111.277	202.485	-109.167	140.155	14.105	200.129	62.161	0.00063458	0.00082382	0.00014189	905.1	2.3479e-05	9.7066e-06	1134.7	189	2.2007e-05	1.2076e-05	316.15	126.46	67.2	22.514	1.6582e-05	49.849	0.018903	0.020568	0.0057569	1315.3	0.00022489	0.00022977	1561.7	338.15	0.0002274	0.00023177	541.96	201.96	143.62	46.997	0.00022905	83.664	76.703	-89.989	89.791	-105.110	128.034	195.845	-105.662	-99.071	16.926	156.771	-99.353	-95.040	-94.330	-87.980	-107.137	-90.240	-8191	255	
14853.066	1	1	0	0	0.1095	0.1228	0.20878	0.016973	0.19446	0.17945	0.15829	0.15788	0.21981	0.05833	0.019268	0.062589	0.11701	0.23293	0.19865	0.36582	-2.45	-2.4417	-3.1188	-2.7896	-2.6854	-2.8958	-2.7646	-2.9313	-2.8854	-2.5792	-2.9333	-2.7667	-2.6104	-2.7833	-2.4771	-3.0563	131.813	153.382	132.999	154.127	-2.133	48.449	195.970	228.312	16.478	-51.066	-55.230	37.211	234.562	150.476	102.232	182.139	0.00078409	0.0037869	0.0005121	906.64	3.0217e-05	2.9103e-05	1132.6	186.97	2.6247e-05	1.1123e-05	317.72	127.39	67.731	22.58	1.4145e-05	50.624	0.019466	0.020894	0.0058696	1321.5	0.00022475	0.00022961	1551.9	336.33	0.00022435	0.00022691	540.19	201.48	142.92	46.843	0.00022634	83.982	169.621	93.105	141.579	-104.997	-60.406	-68.478	-105.434	-98.969	187.894	-38.543	-100.078	-95.343	-94.783	-87.669	-20.526	-90.589	-8191	255	
14853.162	1	1	0	0	0.041742	0.071662	0.10677	0.18079	0.18571	0.098089	0.18324	0.038514	0.24657	0.18143	0.31285	0.12541	0.24463	0.048549	0.11165	0.31399	-2.5438	-2.6125	-2.7938	-2.7333	-2.7333	-3.025	-2.7188	-3.0104	-2.9604	-2.4813	-3.0187	-2.9479	-2.5396	-3.1292	-2.7854	-2.9042	56.790	239.398	-110.711	-96.363	224.157	185.141	156.695	198.791	30.825	86.588	240.702	233.343	-61.192	88.245	185.503	152.902	0.00082686	0.0022508	0.00013873	903.73	1.0713e-05	3.3663e-05	1131.9	189.95	2.6352e-05	1.8882e-05	319.84	127.97	68.373	22.771	1.051e-05	50.897	0.019259	0.020984	0.0058816	1325.3	0.00022616	0.00023066	1562.2	339.3	0.00022545	0.00022868	543.49	202.91	143.13	47.043	0.00022714	84.206	116.022	222.655	220.831	-105.298	64.195	82.944	-105.480	-99.291	95.838	-97.458	-99.757	-95.522	-94.713	-88.080	157.423	-90.086	-8191	255	
14853.259	1	1	0	0	0.025439	0.086647	0.031991	0.19071	0.26476	0.155	0.1764	0.11638	0.11678	0.22219	0.1443	0.26711	0.079554	0.062345	0.29142	0.25468	-2.3979	-2.4583	-2.9521	-2.9625	-2.6104	-3.0396	-2.7167	-2.7687	-2.9417	-2.7042	-2.9271	-2.8708	-2.6521	-2.9833	-2.7875	-2.6937	12.267	-0.699	1.086	142.354	4.844	188.632	159.510	208.413	96.124	-33.290	229.026	-103.449	-104.842	220.827	176.023	195.439	0.001215	0.00059926	0.00024386	900.62	5.4864e-06	1.2543e-05	1126.3	189.88	1.6226e-05	3.9773e-05	319.24	128.25	67.91	22.48	2.4441e-05	50.428	0.019363	0.020803	0.0058695	1321.4	0.00022593	0.00023035	1560.3	338.26	0.00022572	0.00022837	541.51	202.09	142.99	46.902	0.00022844	83.705	142.084	179.956	224.364	-105.456	123.449	-63.127	-105.226	-99.189	-35.721	193.123	-99.782	-95.405	-94.319	-88.568	125.318	-89.414	-8191	255	
14853.379	1	1	0	0	0.029072	0.16559	0.11878	0.13667	0.09624	0.27844	0.25672	0.17053	0.11624	0.30966	0.063655	0.27255	0.17935	0.093683	0.090833	0.038059	-2.5333	-2.4	-3.0792	-3.0292	-2.7771	-3.0687	-2.8354	-2.7979	-2.9333	-2.8312	-2.9104	-3.0187	-2.5771	-3.1417	-2.9062	-2.8187	230.190	174.371	196.613	11.754	-88.338	223.329	235.501	218.900	167.465	-44.918	153.581	-99.400	-25.103	191.850	-19.251	97.635	0.00026628	0.0011768	0.00057713	897.94	5.6743e-06	9.7224e-06	1130.1	187.79	2.0394e-05	3.8139e-05	317.03	126.31	67.971	22.744	6.4151e-06	50.717	0.019455	0.020958	0.005912	1325.7	0.00022662	0.00023261	1565.3	338.58	0.00022789	0.00023008	543.06	201.98	143.16	47.152	0.00022873	83.954	15.635	-87.890	37.971	-105.327	103.319	-12.295	-105.532	-99.250	15.644	46.907	-99.084	-95.359	-94.785	-88.454	-45.144	-90.092	-8191	255	
14853.474	1	1	0	0	0.09341	0.10991	0.23634	0.12095	0.1096	0.14525	0.11339	0.12603	0.10858	0.089954	0.13956	0.17813	0.31219	0.1934	0.083709	0.24847	-2.6	-2.6333	-2.8312	-2.9729	-2.4854	-2.9146	-3.1188	-2.5583	-3.1292	-2.5708	-2.7292	-3.0542	-2.5021	-2.95	-2.8521	-2.6396	35.423	208.406	241.087	236.995	-37.746	225.658	159.113	2.777	34.568	221.188	-78.128	-98.654	241.298	208.781	112.132	206.357	0.00069467	0.0035572	0.00060946	903.3	3.5896e-05	1.0811e-05	1125.1	188.51	1.5195e-05	3.5413e-05	319.2	127.55	68.968	22.673	2.6856e-05	51.127	0.019398	0.02104	0.0059383	1326.4	0.0002285	0.00023479	1568.1	340.75	0.00023046	0.00023412	549.14	204.98	145.1	47.955	0.00023549	84.985	100.831	95.632	-30.883	-105.294	-12.670	114.409	-105.209	-99.246	-66.807	87.134	-99.804	-95.713	-94.642	-87.917	126.281	-89.739	-8191	255	
14853.570	1	1	0	0	0.17007	0.084783	0.13832	0.18763	0.086781	0.087405	0.31923	0.20819	0.18275	0.13716	0.31586	0.20368	0.26734	0.18563	0.15201	0.16649	-2.5042	-2.7313	-2.7687	-3.1854	-2.5167	-2.9583	-3.1958	-2.6458	-3.0958	-2.7542	-2.6833	-3.1625	-2.7042	-2.9958	-2.9396	-2.6042	51.808	99.383	-25.942	128.344	58.442	240.809	233.995	209.386	-21.798	182.005	-69.396	190.689	159.843	185.621	-68.996	37.483	0.0012041	0.0018899	0.00087953	899.71	4.2702e-05	1.5198e-05	1132.5	188.56	2.3409e-05	1.8994e-05	322.27	128.34	67.814	22.831	3.0392e-05	50.63	0.020086	0.021675	0.0060933	1342.7	0.00023345	0.00023996	1584.2	343.95	0.00023433	0.00023689	551.12	205.36	144.74	47.693	0.00023307	84.48	115.777	167.191	166.725	-105.275	30.333	-98.365	-105.639	-98.608	227.910	-53.064	-99.464	-95.471	-94.194	-87.452	70.805	-89.920	-8191	255	
14853.666	1	1	0	0	0.23866	0.17255	0.43463	0.28777	0.032288	0.092683	0.31252	0.18166	0.11138	0.038767	0.073941	0.19561	0.22855	0.10561	0.2215	0.41318	-2.7042	-2.625	-2.6667	-3.2729	-2.6896	-2.7417	-3.0812	-2.6188	-2.9958	-2.7833	-2.7292	-3.1125	-2.5438	-2.6792	-2.7583	-2.6917	-85.603	-107.215	225.947	147.227	-25.640	141.635	166.617	-0.129	161.676	26.461	57.287	159.403	-58.415	-36.020	-63.505	183.693	0.00071356	0.0017995	0.0014931	902.31	1.5261e-05	5.2887e-06	1129.7	188.85	3.9967e-05	3.045e-05	315.05	126.86	68.013	22.842	2.1353e-05	50.534	0.019764	0.021378	0.0059659	1329.6	0.00022912	0.00023597	1571.9	340.42	0.00023185	0.00023523	546.22	204.23	144.99	47.921	0.00023542	84.646	39.197	211.348	-0.612	-105.773	52.543	238.317	-105.465	-98.643	2.463	85.440	-99.319	-95.628	-94.256	-88.499	75.244	-89.903	-8191	255	
14853.762	1	1	0	0	0.41399	0.11986	0.20919	0.48965	0.05564	0.084702	0.15261	0.21894	0.23986	0.046722	0.14422	0.010836	0.25112	0.29841	0.1432	0.22653	-2.3417	-2.5625	-2.5333	-3.0938	-2.7604	-2.65	-2.9104	-2.5646	-2.7833	-2.775	-2.8	-3.0062	-2.55	-2.9375	-3.0542	-2.5062	183.200	98.886	84.452	175.343	-99.066	-35.995	-25.364	170.097	211.012	33.750	221.091	176.658	217.479	-114.728	115.333	199.474	0.00037869	0.0035014	0.00077947	898.08	2.7961e-05	1.0344e-05	1135	188.4	1.6818e-05	2.364e-05	313.14	125.93	67.955	22.711	2.2798e-05	51.061	0.020116	0.021641	0.0060481	1337.9	0.00023277	0.00023991	1578.5	341.49	0.00023462	0.00023636	546.22	204.09	144.85	47.781	0.00023437	84.709	-61.284	-65.093	232.118	-105.533	-63.702	74.424	-105.287	-98.959	237.683	25.967	-99.839	-95.579	-94.318	-87.981	43.908	-90.045	-8191	255	
14853.858	1	1	0	0	0.51855	0.078734	0.039166	0.224	0.11511	0.084097	0.23124	0.22363	0.046577	0.11329	0.17452	0.21342	0.20025	0.19004	0.21946	0.22496	-2.4979	-2.9208	-2.4708	-3.1437	-2.6667	-2.8146	-3.1125	-2.6375	-2.8875	-2.8042	-2.6146	-3.1979	-2.6875	-2.5875	-2.9521	-2.8896	-39.497	65.360	32.737	225.779	56.958	145.554	-115.420	-44.643	-80.727	-9.320	114.791	187.114	-55.319	189.723	-85.533	-45.077	0.0009838	0.0033061	0.00030225	896.99	9.8266e-06	3.3274e-05	1121.3	186.99	1.7436e-05	5.0976e-05	317.78	129.14	68.316	23.051	1.6614e-05	51.145	0.019949	0.021446	0.005958	1329.2	0.00022992	0.00023613	1566.7	339.13	0.00023257	0.00023437	544.84	204.64	144.7	47.562	0.0002334	84.721	200.826	-116.034	97.259	-105.367	81.394	213.422	-105.215	-98.911	-112.744	20.680	-99.614	-95.405	-94.319	-88.456	-110.995	-90.096	-8191	255	
14853.954	1	1	0	0	0.24893	0.25403	0.21133	0.30273	0.039879	0.17465	0.50124	0.19455	0.2125	0.151	0.058872	0.24202	0.11057	0.098579	0.2193	0.13086	-2.3271	-2.7854	-2.4229	-2.9646	-2.7625	-2.5958	-3.0792	-2.7042	-2.6146	-2.8708	-2.6375	-3.0167	-2.7188	-2.6063	-3.0042	-2.7604	-72.928	146.873	12.301	161.914	-29.837	-45.273	170.653	-99.239	77.459	212.341	-33.974	-64.749	-12.131	141.963	183.288	181.380	0.00087037	0.0038729	0.000305	901.65	3.2853e-05	1.9448e-05	1128.5	189.8	1.169e-05	3.8974e-06	316.82	127.46	67.714	22.844	5.3241e-05	51.1	0.01985	0.021473	0.0059459	1332.6	0.0002317	0.00023717	1575.3	341.07	0.00023262	0.00023494	543.65	204.37	144.1	47.395	0.00023147	84.045	124.488	182.236	114.546	-105.307	-97.583	42.139	-105.188	-99.096	-13.721	-84.517	-99.581	-95.072	-94.033	-87.178	-42.290	-89.826	-8191	255	
14854.075	1	1	0	0	0.045747	0.16835	0.22071	0.32213	0.14236	0.21495	0.42264	0.11034	0.18136	0.33455	0.097958	0.40739	0.16167	0.14644	0.29257	0.23631	-2.4396	-2.7729	-2.5521	-3.0062	-2.8	-2.575	-3.0542	-2.7292	-2.7083	-3.0604	-2.85	-2.9146	-3.0563	-2.6875	-2.8604	-2.6479	50.650	-21.850	212.241	-101.726	-17.160	62.099	145.495	189.685	31.082	-114.287	211.577	-96.219	99.151	-106.869	-21.951	240.377	0.0013163	0.0019587	0.00026123	898.91	2.2548e-05	1.3429e-05	1123.9	186.19	3.4418e-05	2.1492e-05	316.99	125.67	68.483	22.677	3.7676e-05	49.977	0.019622	0.021203	0.00586	1323.2	0.00022818	0.00023167	1562.2	336.62	0.00022876	0.00023195	539.63	203.03	143.45	47.087	0.00023144	83.696	136.529	78.939	-90.171	-105.348	166.163	241.828	-105.536	-98.817	-1.423	-30.776	-99.836	-95.391	-94.157	-87.861	165.015	-89.833	-8191	255	
14854.171	1	1	0	0	0.12128	0.081031	0.073421	0.25679	0.27882	0.12145	0.29048	0.22308	0.34066	0.15164	0.17574	0.065387	0.20517	0.22138	0.27306	0.24428	-2.1667	-2.9646	-2.3667	-3.0438	-2.8792	-2.5458	-3.1167	-2.6896	-2.6312	-3.1063	-2.6083	-2.8667	-3.0021	-2.6333	-2.8312	-2.8521	-60.064	48.287	47.631	219.460	-67.190	0.628	226.914	202.494	-14.100	-71.150	-86.823	-95.644	207.340	0.509	-92.279	141.895	0.00059024	0.0018768	0.00016902	896.76	7.9071e-06	1.7019e-05	1132.9	185.35	2.2261e-05	1.808e-05	313.57	126.46	68.226	22.605	3.8155e-05	50.579	0.019569	0.021157	0.0058543	1324.4	0.00022862	0.00023281	1566.3	338.32	0.0002304	0.00023346	541.69	203.28	144.32	47.113	0.00023288	84.082	151.306	-38.909	-19.798	-105.345	166.431	233.927	-105.223	-99.452	-38.166	-27.996	-99.571	-95.687	-94.062	-87.656	120.956	-90.013	-8191	255	
14854.267	1	1	0	0	0.23692	0.31497	0.25237	0.1013	0.1111	0.14826	0.27391	0.14512	0.047013	0.18208	0.22942	0.14879	0.28265	0.26461	0.24234	0.17782	-2.1229	-2.9083	-2.6646	-2.9229	-2.8521	-2.5938	-3.1333	-2.8667	-2.7125	-3.175	-2.6146	-2.8354	-3.1063	-2.7313	-2.8625	-2.9875	198.469	158.837	-81.710	-53.429	-71.412	92.068	214.871	155.710	234.077	44.998	155.805	-111.179	-76.304	-116.800	158.351	235.313	0.0011452	0.0018749	0.00046656	898.09	1.5053e-05	2.427e-05	1127.4	186.53	2.5978e-05	1.2205e-05	315.63	127.2	67.96	22.437	1.5504e-05	50.2	0.019689	0.021284	0.0059031	1331.3	0.00023035	0.00023305	1568.7	339.28	0.00023016	0.00023385	542.14	204.18	144.24	47.194	0.00023381	84.217	65.699	110.827	218.600	-105.455	208.815	109.201	-105.717	-98.831	11.103	-19.901	-99.602	-95.365	-94.347	-88.032	149.018	-90.454	-8191	255	
14854.363	1	1	0	0	0.063534	0.057674	0.16252	0.46965	0.074574	0.13681	0.18436	0.28105	0.19834	0.26411	0.14459	0.25508	0.30893	0.23467	0.27259	0.52629	-2.0625	-3.0667	-2.825	-2.7521	-2.9813	-2.6167	-2.925	-2.925	-2.6917	-2.9104	-2.9375	-2.7812	-2.9542	-2.725	-2.8375	-3.1104	-107.340	-112.034	-113.437	201.495	-48.151	218.927	126.556	-108.234	12.676	185.492	-70.727	211.545	206.446	170.726	229.930	108.560	0.00068485	0.0015571	0.00061894	899.35	2.2041e-05	1.9288e-05	1127.9	189.12	1.5978e-05	3.4719e-05	315.82	126.27	68.053	22.441	1.536e-05	50.422	0.019769	0.021394	0.0059729	1335.5	0.00023281	0.00023608	1577	341.75	0.00023175	0.00023734	544.31	203.85	144.89	47.21	0.00023343	83.938	172.094	-91.297	-108.646	-105.338	116.391	49.779	-105.610	-98.631	101.551	95.220	-99.597	-95.241	-93.991	-87.884	222.504	-89.963	-8191	255	
14854.458	1	1	0	0	0.037785	0.11469	0.040839	0.25653	0.22149	0.16371	0.10713	0.060767	0.29717	0.082314	0.27775	0.081523	0.13135	0.23903	0.1629	0.097027	-2.1562	-2.9458	-2.7438	-2.7521	-3.175	-2.6063	-3.0792	-3.0625	-2.6854	-3.0917	-2.9313	-2.6521	-3.2229	-2.6396	-2.8583	-3.0229	-13.003	211.751	28.594	179.158	207.790	-79.285	171.394	165.541	31.097	-116.190	142.019	230.224	195.509	173.326	-13.205	176.071	0.00078098	0.0014123	0.00030249	898.03	1.3373e-05	1.3465e-05	1120.9	186.01	8.3086e-06	2.0292e-05	311.18	126.16	67.427	22.476	2.8763e-05	49.94	0.019594	0.021354	0.0059267	1324.7	0.00022871	0.0002321	1561.3	336.75	0.000227	0.00023272	537.68	201.75	142.96	46.85	0.000231	83.877	107.167	-10.849	60.434	-104.930	170.193	123.304	-105.178	-99.386	83.815	-26.032	-99.862	-95.459	-94.597	-88.175	207.482	-90.431	-8191	255	
14854.554	1	1	0	0	0.22763	0.20788	0.17596	0.22257	0.12705	0.13684	0.28322	0.18692	0.21431	0.045983	0.14015	0.31878	0.16167	0.35277	0.1983	0.070259	-2.1875	-2.9458	-2.8187	-2.925	-3.0208	-2.7042	-3.0125	-3.0646	-2.3187	-2.9875	-3.0104	-2.5875	-3.0646	-2.6688	-2.7208	-3.1208	47.964	162.173	100.232	-116.478	120.302	182.878	171.172	229.909	-22.937	225.921	-107.813	223.297	-50.600	206.716	146.088	134.195	0.00068503	0.0014558	0.00037738	894.09	9.4861e-06	2.5218e-05	1120.2	186.73	1.0712e-05	1.5695e-05	313.47	125.67	68.07	22.381	7.7586e-05	50.424	0.019483	0.021308	0.005925	1324.7	0.00022972	0.0002326	1564.8	338.45	0.00022839	0.00023434	539.72	202.08	143.63	46.96	0.00023209	83.991	175.256	-42.497	-33.550	-105.471	151.534	77.327	-105.333	-99.190	-96.898	188.888	-99.659	-94.774	-94.824	-88.072	93.844	-90.128	-8191	255	
14854.675	1	1	0	0	0.18905	0.028617	0.17834	0.19786	0.23389	0.13961	0.20875	0.19177	0.21443	0.27851	0.23825	0.33552	0.39241	0.056937	0.046706	0.1782	-2.0958	-2.5458	-2.8979	-2.65	-2.8271	-2.7417	-2.8979	-3.1625	-2.6792	-2.9313	-2.9958	-2.5208	-3.1604	-2.7417	-2.6042	-3.075	194.085	124.247	35.030	147.724	-75.142	240.005	151.183	4.207	77.647	-49.548	-94.977	159.605	228.059	64.428	-92.193	218.030	0.00014865	0.00069159	0.00025918	901.92	3.0982e-05	1.5679e-05	1130	188.51	3.1362e-05	2.8036e-05	314.53	127.77	67.49	22.351	1.5936e-05	50.404	0.019471	0.021395	0.0059412	1325.6	0.00022973	0.00023293	1567.1	338.26	0.00022755	0.00023387	542.23	202.84	143.67	47.115	0.0002314	84.096	124.175	18.616	233.352	-105.278	89.941	-107.494	-105.654	-98.930	-5.352	211.583	-99.680	-95.715	-94.064	-87.653	196.394	-90.020	-8191	255	
14854.771	1	1	0	0	0.15857	0.14924	0.066202	0.20104	0.21459	0.19261	0.089755	0.29073	0.16042	0.19345	0.10493	0.13627	0.20271	0.10064	0.21667	0.16803	-2.2208	-2.7833	-2.875	-2.6729	-3.0312	-2.8542	-2.7646	-3.0812	-2.6854	-2.9458	-2.9854	-2.7792	-2.9646	-2.925	-2.5438	-3.1292	95.056	67.204	202.680	126.816	169.373	84.415	226.745	-41.061	105.702	-94.973	233.088	232.042	225.966	2.740	-19.283	213.967	0.0015191	0.00017179	0.00078921	909.81	1.0329e-05	1.805e-05	1129.1	188.22	2.4519e-05	2.2889e-05	314.11	126.46	67.863	22.288	2.6726e-06	50.13	0.019444	0.021341	0.0059308	1326.1	0.00023003	0.00023398	1568.2	339.05	0.00022822	0.00023505	541.06	202.01	144.13	47.099	0.00023034	83.682	116.966	236.364	-16.347	-104.995	116.405	-107.118	-105.475	-99.797	-107.504	67.938	-99.481	-95.344	-94.463	-87.863	138.026	-90.239	-8191	255	
14854.842	1	1	0	0	0.16978	0.06264	0.17693	0.2584	0.050497	0.1775	0.32337	0.059116	0.10627	0.31564	0.26974	0.14441	0.288	0.24744	0.20138	0.29348	-2.1208	-2.7188	-2.8708	-2.7375	-2.8896	-2.8708	-2.6646	-3.0062	-2.675	-2.7062	-3.0187	-2.7375	-2.9604	-2.8521	-2.5979	-3.0271	-3.826	116.685	96.681	212.314	198.718	-37.700	76.773	178.209	-105.820	-48.959	176.935	175.349	179.276	141.670	-75.712	186.000	0.00011228	0.0015537	0.00040182	899.48	1.3118e-05	7.0082e-06	1124.8	185.87	1.8554e-05	1.952e-05	313.48	125.65	67.141	22.522	2.7549e-05	50.189	0.019348	0.021138	0.005883	1319.3	0.00022667	0.00023118	1555	335.67	0.00022511	0.00023097	536.34	200.04	142.58	46.696	0.00022699	83.201	6.531	39.194	-36.956	-105.092	83.334	-62.383	-105.447	-99.365	187.709	-47.583	-99.367	-94.648	-93.349	-87.730	88.335	-90.309	-8191	255	
14854.939	1	1	0	0	0.053695	0.1041	0.15623	0.12855	0.29228	0.12365	0.13525	0.30128	0.030414	0.073035	0.22585	0.26689	0.10252	0.12176	0.16472	0.25584	-2.2438	-2.7938	-2.8854	-2.6583	-2.7938	-2.8542	-2.8063	-3.0917	-2.9396	-2.7479	-3.1521	-2.775	-2.9167	-3.0667	-2.5687	-3.1208	-9.179	45.908	-101.950	163.703	-52.347	156.561	175.486	211.137	170.385	165.838	208.820	212.799	213.833	-41.440	230.193	-69.783	0.00027344	0.0018313	0.00035938	896.94	1.274e-05	4.2574e-06	1128.6	189.57	3.4675e-05	1.2093e-05	315.95	126.32	67.68	22.695	1.0141e-05	50.411	0.019202	0.020878	0.005811	1314.3	0.00022655	0.00023112	1558.9	337.34	0.0002267	0.00023174	539.98	201.73	143.86	47.114	0.00022914	83.989	140.441	51.524	-12.600	-105.292	21.681	5.927	-105.458	-99.088	168.952	212.026	-99.530	-95.316	-94.728	-87.757	174.530	-89.771	-8191	255	
14855.035	1	1	0	0	0.15873	0.28067	0.32604	0.15073	0.035031	0.15766	0.39133	0.019044	0.17593	0.056225	0.14813	0.21394	0.08431	0.038152	0.063995	0.18895	-2.1813	-2.7542	-2.9	-2.8063	-2.8625	-3.2021	-2.7062	-3.1708	-2.7917	-2.7542	-3.1146	-2.6875	-2.8812	-3.0979	-2.6958	-2.9896	86.347	3.162	173.163	157.432	193.599	-95.095	201.770	-15.232	-107.531	166.193	176.561	-86.490	228.508	238.178	-32.762	198.031	0.0008072	0.0018367	0.00054769	900.56	6.7034e-06	1.5073e-05	1130.7	185.93	4.1415e-05	2.476e-05	314.98	126.33	67.91	22.488	1.5911e-05	50.437	0.019521	0.021242	0.0059232	1325.4	0.00022787	0.00023085	1560.1	336.13	0.00022483	0.00022782	536.67	200.28	142.49	46.475	0.00022356	83.257	19.476	15.595	9.016	-105.224	58.217	93.267	-105.562	-99.333	-78.887	9.479	-99.597	-95.052	-93.598	-88.054	125.033	-89.900	-8191	255	
14855.155	1	1	0	0	0.048323	0.17713	0.17652	0.13616	0.020614	0.16634	0.060877	0.2823	0.22921	0.090898	0.30033	0.34668	0.1945	0.24133	0.24565	0.12964	-2.35	-2.5	-2.9583	-2.85	-2.8646	-2.9979	-2.6417	-2.7958	-2.8125	-2.6604	-3.0062	-2.9021	-2.7646	-3.1	-2.7062	-2.8583	-2.424	160.406	-36.302	-75.981	76.935	-35.014	218.207	153.184	144.569	214.461	159.855	222.244	-79.089	162.047	214.083	126.931	0.00011863	0.0013262	0.00087598	902.18	1.5789e-05	2.5534e-05	1138.8	187.22	4.283e-05	7.662e-06	314.87	124.84	67.716	22.259	5.3699e-05	49.909	0.019146	0.020639	0.0057819	1320.2	0.0002243	0.00022797	1560.1	335.01	0.00022368	0.00022602	534.81	199.5	141.69	46.317	0.00022331	82.754	-93.675	-18.695	-18.623	-105.234	81.047	149.410	-105.234	-99.046	52.437	88.716	-99.566	-95.077	-94.646	-87.465	-51.726	-90.022	-8191	255	
14855.251	1	1	0	0	0.30495	0.2147	0.26353	0.3206	0.19924	0.22449	0.18814	0.25062	0.13631	0.040087	0.11045	0.19262	0.17581	0.16248	0.052035	0.30118	-2.3542	-2.6958	-2.9667	-2.8187	-2.6562	-2.925	-2.7375	-2.8354	-3.0417	-2.8104	-2.9708	-2.9646	-2.5479	-3.0604	-2.6667	-2.9146	-109.116	117.471	234.375	150.908	79.254	-43.775	179.232	209.917	214.643	86.681	73.279	43.730	91.598	-115.211	165.668	153.566	0.0010781	0.0020831	0.00061632	912.57	1.6467e-05	3.0867e-05	1127.5	186.87	3.5602e-05	2.5333e-05	316.52	126.35	67.27	22.386	1.4979e-05	50.827	0.019032	0.02062	0.0057651	1324.1	0.00022407	0.00022801	1557.9	337.19	0.00022653	0.00022857	539.56	201.83	142.95	46.872	0.00022571	83.585	102.187	81.477	106.792	-105.379	-10.074	21.683	-105.445	-98.874	132.892	107.857	-99.354	-95.272	-94.692	-87.690	29.410	-90.308	-8191	255	
14855.348	1	1	0	0	0.045834	0.27481	0.19402	0.39551	0.17065	0.2414	0.40444	0.29167	0.14153	0.26198	0.087206	0.38076	0.21564	0.13008	0.176	0.4705	-2.6875	-2.3542	-2.9104	-2.8729	-2.6542	-3.0375	-2.7646	-2.9583	-2.7208	-2.4271	-3.0625	-2.8646	-2.6292	-3.0979	-2.6583	-2.8187	101.067	35.598	-98.878	209.733	108.319	134.351	164.368	188.903	89.286	31.545	104.474	202.266	198.597	182.553	118.230	126.882	0.0011954	0.0016379	0.00056649	911.87	5.6062e-05	2.7362e-05	1135.4	189.51	1.4993e-05	1.9281e-05	316.83	128.06	69.208	22.827	2.8429e-06	51.016	0.019154	0.020607	0.0057943	1322.2	0.00022354	0.0002285	1559.4	338.28	0.00022307	0.00022613	540.22	201.9	142.44	46.773	0.00022451	83.909	69.532	-11.783	70.790	-105.495	14.515	23.498	-105.290	-99.192	12.557	56.717	-99.473	-95.459	-93.558	-87.724	213.249	-90.013	-8191	255	
14855.467	1	1	0	0	0.12954	0.15668	0.10518	0.17199	0.19301	0.19947	0.2448	0.19241	0.24341	0.19555	0.16426	0.23477	0.10194	0.1002	0.092047	0.19922	-2.4542	-2.4979	-2.6917	-3.0563	-2.4417	-2.8979	-2.925	-2.7083	-3.0167	-2.5354	-3	-2.9313	-2.6104	-2.8646	-2.8354	-2.55	221.363	11.326	1.011	182.072	199.567	-58.730	213.470	113.958	-103.256	125.843	20.572	-111.563	-88.181	159.543	-113.893	96.088	0.00085648	0.0009069	0.00069873	908.31	3.014e-05	1.2789e-05	1135.6	191.36	2.542e-05	1.2003e-05	318.22	128.61	68.831	22.776	5.1025e-05	51.124	0.019089	0.020551	0.0057941	1324.6	0.00022445	0.00022936	1562.7	337.75	0.00022415	0.00022532	540.45	201.87	141.58	46.437	0.00022005	83.096	103.058	53.842	184.822	-105.309	-20.763	193.139	-105.597	-99.159	64.651	77.871	-99.595	-95.218	-93.867	-87.484	-70.027	-89.779	-8191	255	
14855.538	1	1	0	0	0.040479	0.069855	0.1644	0.10163	0.026263	0.087229	0.20692	0.044082	0.24296	0.19947	0.20587	0.35872	0.30917	0.19333	0.085618	0.10459	-2.6167	-2.6125	-2.7333	-3.2375	-2.5208	-2.9938	-3.15	-2.4042	-3.1458	-2.7292	-2.9562	-2.9917	-2.6146	-3.075	-2.8208	-2.7708	148.429	43.775	226.867	201.579	128.131	9.131	179.188	104.451	151.020	142.969	128.410	-106.471	204.518	-26.969	139.382	-114.500	0.0014002	0.0035982	0.00031388	902.07	2.8103e-06	1.5664e-05	1132.7	189.21	1.1981e-05	3.8081e-05	320.16	127.42	68.667	22.719	2.1389e-05	50.958	0.018522	0.019874	0.0056045	1302.6	0.0002125	0.00022018	1538.8	329.81	0.00021402	0.00021694	532.84	198.58	138.79	45.819	0.00021801	82.183	135.435	-6.794	82.167	-105.526	-106.912	-39.154	-105.629	-99.158	237.829	104.485	-100.073	-95.730	-93.862	-87.900	125.394	-89.881	-8191	255	
14855.636	1	1	0	0	0.26169	0.11961	0.1819	0.17098	0.10673	0.12182	0.11763	0.063379	0.075776	0.25227	0.065068	0.14594	0.096344	0.40873	0.10375	0.2644	-2.4292	-2.6042	-2.6813	-3.0833	-2.7313	-2.9917	-2.8958	-2.7917	-3.0062	-2.725	-2.6896	-3.0396	-2.7313	-2.8667	-2.8229	-2.8563	201.704	141.217	45.577	187.927	177.597	206.697	151.063	66.218	115.658	95.843	69.300	127.067	197.919	194.271	168.206	202.414	0.00081284	0.0034883	0.00041671	903.05	1.7326e-05	3.2992e-05	1129.5	188.62	1.6627e-05	2.1659e-05	317.2	127	67.781	22.602	4.6735e-05	50.023	0.018553	0.019987	0.0056528	1306.2	0.00021562	0.00022168	1545.7	330.74	0.00021681	0.00022056	531.31	199.08	139.42	45.917	0.00021988	81.895	101.744	33.662	78.095	-105.338	-100.033	-37.011	-105.561	-99.554	229.060	57.455	-99.883	-95.502	-94.197	-87.301	0.008	-89.662	-8191	255	
14855.755	1	1	0	0	0.29529	0.099787	0.11661	0.29822	0.32917	0.1192	0.17553	0.19163	0.10146	0.086793	0.057637	0.13499	0.3382	0.27515	0.040404	0.1845	-2.6542	-2.6354	-2.7104	-3.0667	-2.5208	-2.9167	-3.0792	-2.5042	-2.9833	-2.8729	-2.6813	-3.0104	-2.4729	-2.7479	-2.9125	-2.5812	-83.505	62.478	70.704	181.557	94.790	220.645	-91.991	181.067	91.709	-49.769	-59.280	-86.384	154.985	150.667	40.454	224.195	0.0012854	0.00077245	0.0004893	902.83	8.2743e-06	1.4901e-05	1122.1	187.58	1.5079e-05	1.9555e-05	318.29	127.21	67.917	22.508	3.5202e-05	50.906	0.018727	0.020155	0.005647	1309.5	0.00021588	0.00022375	1542.3	330.85	0.0002187	0.00022244	533.33	199.17	139.57	46.09	0.00021983	82.22	133.107	-21.787	-5.304	-105.476	222.884	131.262	-105.651	-99.320	-87.684	-81.535	-100.071	-95.575	-94.545	-87.607	166.519	-89.634	-8191	255	
14855.851	1	1	0	0	0.22004	0.18505	0.13069	0.17754	0.067359	0.14251	0.17184	0.25382	0.067532	0.10357	0.19142	0.07751	0.12417	0.17315	0.16737	0.062279	-2.3854	-2.6562	-2.5354	-3.3937	-2.6063	-2.7938	-2.9979	-2.6312	-2.9083	-3.0375	-2.7458	-2.9917	-2.8979	-2.625	-2.9042	-2.7375	154.426	50.756	25.683	126.823	157.067	208.376	220.868	199.927	36.274	-7.508	164.046	206.857	-59.996	-110.265	41.118	42.495	0.0015078	0.0027055	0.00073618	899.66	4.0792e-06	1.687e-05	1125.8	188.67	1.9275e-05	1.9159e-05	317.28	127.49	68.183	22.555	8.8245e-06	50.922	0.018737	0.020143	0.0056487	1302.1	0.00021639	0.00022281	1538.2	329.66	0.00021825	0.00022119	532	199.29	138.82	45.988	0.00021842	82.179	169.052	-0.755	-70.351	-105.447	-110.293	-101.585	-105.456	-99.187	-45.726	162.498	-100.098	-95.084	-94.273	-87.684	-106.635	-89.912	-8191	255	
14855.947	1	1	0	0	0.03429	0.20377	0.090867	0.22893	0.036222	0.20428	0.41621	0.31852	0.23402	0.076032	0.14615	0.24132	0.21598	0.12073	0.050975	0.17517	-2.4021	-2.8937	-2.5667	-3.0563	-2.475	-2.5312	-3.0958	-2.4542	-2.6813	-2.9125	-2.6937	-2.9062	-2.7521	-2.7438	-3.0396	-2.7917	-29.904	87.068	-9.509	119.086	-101.369	-111.553	146.892	242.419	18.469	-34.573	216.887	218.999	-96.307	107.681	225.910	173.525	0.00073041	0.0034069	0.0012454	893.68	2.4852e-05	2.0193e-05	1123	187.08	2.5e-05	6.7703e-06	319.68	128.36	67.477	22.479	1.5266e-05	51.052	0.018477	0.020033	0.0055547	1289.8	0.00021374	0.00021922	1524	326.9	0.0002148	0.00021659	524.96	197.38	136.84	45.079	0.00021092	80.686	190.832	-11.515	65.941	-105.543	69.343	-36.278	-105.438	-98.996	18.930	49.008	-99.250	-95.705	-94.447	-87.261	56.018	-90.011	-8191	255	
14856.068	1	1	0	0	0.25304	0.3279	0.40076	0.23563	0.10216	0.17405	0.21912	0.20031	0.42246	0.13296	0.2323	0.18795	0.24587	0.093136	0.087528	0.17917	-2.5312	-2.925	-2.55	-3.1604	-2.7958	-2.7833	-3.2479	-2.5521	-2.7875	-2.9979	-2.4938	-2.9208	-2.9313	-2.7042	-3.2562	-2.9479	-100.907	113.195	-14.986	174.862	-54.324	-38.026	207.451	184.281	133.717	156.056	218.066	197.535	232.617	105.206	84.931	159.419	0.0011171	0.0018744	0.000332	890.83	9.9114e-06	1.9065e-05	1123.7	187.72	1.2902e-05	1.8042e-05	319.53	128.13	68.326	22.396	3.1166e-05	50.486	0.017816	0.019195	0.0053073	1274.5	0.00020522	0.00020995	1509	321.95	0.00020811	0.00021159	520.7	196.37	137.22	45.054	0.00021383	81.179	111.286	62.399	-86.184	-105.194	-30.944	12.521	-105.602	-99.050	-66.181	40.201	-99.952	-95.236	-94.443	-87.335	238.407	-90.059	-8191	255	
14856.140	1	1	0	0	0.097776	0.089657	0.077092	0.21693	0.12899	0.18919	0.25337	0.15386	0.03612	0.10097	0.23151	0.17162	0.087594	0.25696	0.11557	0.1527	-2.2958	-2.9	-2.4354	-2.9688	-2.9521	-2.7354	-3.0104	-2.5167	-2.75	-3.0354	-2.5812	-2.9792	-2.8333	-2.5229	-3.0583	-2.8271	54.588	67.496	-28.392	227.187	217.398	92.038	159.675	-113.849	120.327	13.118	152.717	220.833	50.938	84.206	-101.551	133.308	0.0011433	0.00029653	0.00087174	901.92	1.4312e-05	1.7072e-05	1121.4	188.29	4.6559e-05	3.0292e-05	320.35	127.88	67.993	22.636	2.4403e-05	50.24	0.018326	0.019727	0.0054541	1294.1	0.00021163	0.00021603	1529.9	327.02	0.00021316	0.00021534	525.73	197.71	137.77	44.994	0.00021178	81.268	69.405	183.447	102.315	-105.339	238.232	69.142	-105.673	-98.936	207.130	85.160	-99.827	-95.502	-94.087	-88.004	-111.104	-89.908	-8191	255	
14856.236	1	1	0	0	0.20285	0.09618	0.27331	0.35942	0.14578	0.094464	0.32448	0.1239	0.064506	0.16173	0.17178	0.14062	0.18796	0.22307	0.23776	0.18014	-2.0333	-2.9479	-2.5083	-2.9208	-2.7146	-2.5896	-3.0604	-2.7333	-2.8417	-2.9958	-2.7271	-3.1333	-2.9458	-2.6604	-3.1396	-2.7604	54.659	155.821	82.578	241.083	-1.549	109.234	163.818	215.224	229.336	141.777	-85.567	179.658	170.001	223.026	-106.293	146.245	0.0011915	0.0014525	0.00068315	910.2	1.6607e-05	9.5775e-06	1130.5	189.15	1.6237e-05	3.3644e-05	318.67	128.48	67.641	22.646	3.4004e-05	51.479	0.018094	0.019506	0.005386	1296.2	0.00020989	0.00021266	1527.3	325.55	0.0002099	0.00021177	522.68	197.76	137.23	44.848	0.00021034	81.591	183.376	-48.617	238.242	-105.331	33.355	105.710	-105.261	-99.222	-100.427	187.383	-99.719	-95.154	-94.014	-87.244	117.079	-89.928	-8191	255	
14856.332	1	1	0	0	0.043396	0.16002	0.12254	0.27482	0.12124	0.13878	0.22446	0.16344	0.14832	0.043103	0.25798	0.16499	0.1097	0.16731	0.14714	0.23287	-2.1479	-2.9521	-2.7458	-2.9062	-3.0458	-2.65	-3.0021	-2.8812	-2.6854	-3.0542	-2.7646	-2.8708	-2.9917	-2.5146	-2.8042	-2.8979	97.827	114.929	34.958	214.958	190.341	14.882	149.874	-71.566	173.416	3.114	-55.475	164.357	229.496	223.522	23.911	143.175	0.00055786	0.0018804	0.0003446	908.37	3.1993e-05	3.1515e-05	1134.5	190.66	9.2206e-06	1.1954e-05	319.85	129.1	68.109	22.579	1.1932e-05	50.898	0.017885	0.019314	0.0053452	1291.6	0.00020888	0.00021137	1530.2	326.01	0.00020849	0.00021078	522.02	196.96	137.02	44.585	0.00020753	80.486	20.237	23.312	26.375	-105.617	-41.662	53.379	-105.639	-98.795	199.907	97.510	-99.561	-95.261	-94.180	-87.552	143.018	-89.986	-8191	255	
14856.451	1	1	0	0	0.26041	0.24916	0.30956	0.091822	0.063181	0.15232	0.34427	0.087848	0.16347	0.065421	0.074121	0.20361	0.13121	0.051165	0.16427	0.16292	-2.0104	-2.9125	-2.6479	-2.6833	-2.9313	-2.5958	-2.9854	-2.6708	-2.3833	-3.0229	-2.7417	-2.7313	-3.0854	-2.7396	-2.8854	-2.8729	186.422	74.174	163.131	208.533	110.954	-6.652	157.826	158.391	228.970	196.967	-94.421	189.942	-92.303	102.170	-91.271	215.670	0.00055186	0.0014077	0.00086518	905.64	8.967e-06	1.3171e-05	1127.7	190.33	2.3769e-05	4.0615e-05	320.66	128.94	68.988	22.737	3.6813e-05	51.201	0.017272	0.018809	0.0052176	1278.1	0.00020287	0.00020659	1521.5	325.08	0.00020645	0.00021108	523.17	197.86	137.81	45.068	0.00021278	81.692	135.181	134.338	103.936	-105.506	-9.999	34.075	-105.516	-98.903	-61.088	-7.081	-99.706	-95.335	-94.260	-87.632	23.951	-90.225	-8191	255	
14856.547	1	1	0	0	0.1259	0.033405	0.12607	0.13817	0.17613	0.075811	0.22628	0.27964	0.096281	0.092916	0.35636	0.026896	0.2206	0.42193	0.19759	0.15265	-1.9188	-2.7625	-2.6146	-2.7896	-3.1083	-2.5708	-3.0479	-2.9688	-2.5062	-2.825	-2.6729	-2.7896	-2.9833	-2.6813	-2.7625	-3.125	117.208	-99.461	140.798	-116.641	-66.118	110.417	124.716	140.491	-38.818	59.659	221.206	-45.812	18.155	226.957	-35.419	199.472	0.00078087	0.0016558	0.00051469	912.25	8.7734e-06	1.8719e-05	1145.5	192.66	3.1332e-05	1.3986e-05	317.71	127.94	68.073	23.077	3.6555e-05	51.513	0.017889	0.019487	0.0053948	1296.1	0.00020851	0.00021182	1536.3	328.04	0.00020704	0.00021257	525.23	197.25	137.93	45.018	0.00021195	81.627	126.215	91.696	-83.370	-105.312	71.782	7.721	-105.219	-98.758	43.608	-60.837	-99.849	-95.512	-94.117	-87.570	116.516	-89.926	-8191	255	
14856.643	1	1	0	0	0.14395	0.27726	0.12237	0.15338	0.033683	0.28748	0.30108	0.13242	0.048844	0.065237	0.17801	0.32739	0.19189	0.037544	0.15356	0.25159	-2.3167	-2.7812	-2.7708	-2.6229	-3.0375	-2.6521	-2.8896	-3.0729	-2.425	-2.8875	-2.7687	-2.6188	-2.9875	-2.6354	-2.6437	-2.8167	30.183	-116.524	212.743	146.321	-38.222	99.537	202.484	170.262	148.061	185.212	171.641	213.524	138.476	185.206	2.900	171.528	0.00055673	0.0030996	0.001066	910.37	6.1181e-06	1.3094e-05	1142.1	192.24	3.66e-05	2.2693e-05	319.96	129.77	68.631	22.735	7.425e-06	51.917	0.017774	0.019456	0.0054133	1295.6	0.00021027	0.00021335	1539.3	328.73	0.00021036	0.00021617	529.02	199.19	138.85	45.219	0.00021369	82.094	123.672	214.911	110.756	-105.331	121.813	165.695	-105.339	-99.265	177.805	16.892	-99.366	-95.458	-94.120	-87.665	58.243	-89.827	-8191	255	
14856.739	1	1	0	0	0.091016	0.073254	0.022801	0.15327	0.20635	0.17495	0.044021	0.1605	0.276	0.18558	0.20174	0.059582	0.19394	0.056327	0.11747	0.15638	-2.1063	-2.7042	-2.9	-2.725	-3.0458	-2.825	-2.85	-2.9708	-2.5312	-2.9354	-2.8708	-2.5667	-2.9813	-2.5854	-2.6688	-3.2687	-58.433	55.234	206.107	98.432	-41.798	38.826	173.178	139.303	43.607	-45.045	-107.194	-25.786	-22.947	197.568	147.504	165.372	0.0020659	0.0007288	0.00025978	904.6	4.185e-06	1.8139e-05	1138.9	189.44	2.9669e-05	9.8176e-06	319.53	129.34	68.56	22.521	4.3576e-05	50.987	0.017875	0.019545	0.0054093	1286.2	0.00020883	0.00021263	1533.1	325.74	0.00020673	0.00021381	525.17	197.36	138.11	45.144	0.00021286	81.655	133.456	230.125	52.550	-105.067	-28.934	168.355	-105.125	-99.061	39.514	222.865	-99.175	-95.312	-94.912	-87.726	235.562	-89.813	-8191	255	
14856.835	1	1	0	0	0.10046	0.053537	0.17116	0.33632	0.1306	0.22599	0.049655	0.091248	0.17727	0.2285	0.19943	0.14191	0.17117	0.060716	0.19962	0.29526	-2.1063	-2.7854	-2.675	-2.7917	-3.05	-2.8333	-2.8542	-3.2167	-2.7042	-2.8187	-3.0208	-2.5104	-2.8958	-2.7375	-2.5146	-3.0938	210.098	53.287	205.183	221.647	229.979	176.889	157.824	92.121	9.363	-104.606	211.403	136.674	-23.421	-36.741	-105.326	186.733	0.0011695	0.00091003	0.00019231	907.83	1.7073e-05	2.9033e-05	1136.1	190.43	2.0907e-05	1.1931e-05	320.35	129.3	68.58	22.827	8.4664e-06	51.681	0.017859	0.019578	0.0054191	1291.2	0.00020922	0.00021426	1534.9	327.75	0.00020923	0.00021493	527.63	198.21	138.53	45.411	0.00021336	81.776	166.784	-103.348	-79.356	-105.206	192.679	-38.736	-105.247	-99.405	-59.952	72.223	-99.816	-95.171	-94.619	-88.138	-73.278	-90.194	-8191	255	
14856.931	1	1	0	0	0.10808	0.21924	0.18177	0.091989	0.2659	0.16494	0.30145	0.23804	0.33986	0.12577	0.168	0.1628	0.35156	0.09245	0.13518	0.17948	-2.2	-2.5771	-2.8771	-2.6188	-2.8333	-2.7229	-2.6625	-2.8708	-2.6646	-2.7417	-3.0687	-2.5833	-2.8354	-2.8125	-2.5667	-3.1875	-116.203	48.060	-109.133	-91.515	-103.050	119.056	177.565	184.396	-10.686	41.839	214.880	108.476	-97.367	-19.504	130.827	195.665	0.00087024	0.0025159	0.00067544	906.74	1.4164e-05	2.2583e-05	1133.9	189.74	2.3451e-05	2.3396e-05	321.18	129.84	68.89	22.673	6.7273e-06	51.269	0.018014	0.01972	0.0054806	1294.8	0.0002122	0.00021587	1535.7	328.44	0.00021059	0.00021655	528.14	198.46	139.06	45.474	0.00021306	82.27	131.814	1.559	-42.620	-105.343	92.574	69.685	-105.798	-99.082	-79.713	97.595	-99.710	-95.509	-94.496	-87.717	18.617	-90.050	-8191	255	
14857.028	1	1	0	0	0.051264	0.042061	0.097827	0.177	0.13358	0.11117	0.38726	0.04537	0.21892	0.1344	0.19982	0.10372	0.21616	0.24593	0.045957	0.21405	-2.1229	-2.5354	-3.0396	-2.7562	-2.7062	-2.7438	-2.6729	-3.1083	-2.5771	-2.6958	-3.0229	-2.7479	-2.7708	-2.9583	-2.6042	-3.0875	-26.528	28.069	151.429	108.032	19.479	10.821	197.183	-61.460	-20.684	64.771	116.746	148.108	176.110	-114.102	-87.886	240.065	0.00042723	0.00090851	0.0004629	910	2.489e-05	1.1857e-05	1147.5	191.12	2.2813e-05	2.5068e-05	323.18	128.71	68.582	22.492	1.1433e-05	50.981	0.018227	0.019819	0.0054899	1300.8	0.0002144	0.00021809	1547	330.87	0.00021383	0.00021902	530.98	198.85	139.81	45.646	0.0002134	82.191	203.647	85.679	78.543	-105.866	4.654	179.942	-105.252	-98.677	-71.540	75.549	-99.266	-95.172	-94.531	-87.993	108.326	-89.964	-8191	255	
14857.148	1	1	0	0	0.10528	0.060789	0.075013	0.16435	0.15332	0.32198	0.29463	0.29942	0.3673	0.14286	0.081218	0.29812	0.36602	0.31068	0.20208	0.22776	-2.2208	-2.425	-2.9833	-2.6604	-2.6937	-2.8917	-2.5687	-2.9938	-2.7354	-2.6229	-2.9896	-2.65	-2.7542	-2.9813	-2.4688	-2.9292	170.418	-81.155	242.388	225.232	161.268	95.984	144.848	169.231	188.720	23.124	229.106	240.896	119.289	210.339	168.237	160.239	0.0011087	0.0048351	0.00022644	909.91	3.6176e-06	2.3173e-05	1136.6	190.99	2.7588e-05	2.7318e-05	317.23	129.09	69.671	22.548	1.7191e-05	51.035	0.018281	0.019775	0.005491	1299.6	0.00021407	0.0002165	1535	330.22	0.00021213	0.00021471	526.03	197.69	138.71	45.204	0.00021157	81.848	156.196	-67.019	213.304	-105.515	154.192	90.275	-105.331	-99.321	-106.397	202.268	-99.623	-95.456	-94.188	-87.384	242.542	-89.924	-8191	255	
14857.244	1	1	0	0	0.082305	0.027154	0.10022	0.11163	0.0742	0.16398	0.14086	0.25307	0.096747	0.25398	0.2738	0.098415	0.29095	0.15781	0.17693	0.13528	-2.4229	-2.4167	-2.9375	-2.5812	-2.475	-2.8438	-2.6917	-2.9625	-2.9042	-2.6333	-3.0979	-2.6604	-2.5354	-2.9083	-2.6063	-3.1292	95.920	101.463	-52.414	207.817	-99.827	189.143	227.873	183.283	170.421	150.562	-99.243	103.408	132.664	242.478	180.733	-105.481	0.00013905	0.0017623	0.00058469	907.83	1.2492e-05	8.886e-06	1146	190.1	3.8164e-05	6.082e-05	321.72	128.01	68.099	22.65	1.3858e-05	51.004	0.018017	0.01956	0.0054846	1297.2	0.00021393	0.00021737	1539	331.43	0.00021332	0.00021566	529.79	198.14	139.15	45.4	0.00021317	82.139	117.962	-115.792	78.050	-105.333	233.379	-23.557	-105.450	-98.836	138.474	7.206	-99.412	-94.801	-94.116	-88.137	153.316	-89.825	-8191	255	
14857.339	1	1	0	0	0.018214	0.22038	0.205	0.19334	0.06377	0.15211	0.15729	0.14339	0.17885	0.022832	0.19334	0.22596	0.062982	0.24056	0.20803	0.050379	-2.3354	-2.4708	-2.9458	-2.8271	-2.8104	-2.8375	-2.525	-3.0208	-2.8771	-2.4562	-3.0771	-2.5312	-2.6771	-2.8854	-2.4333	-2.8708	176.303	123.458	102.843	-33.614	38.722	94.690	147.318	194.866	93.390	8.993	147.338	202.759	-7.592	161.286	150.218	-33.273	0.00049334	0.0022671	0.00078541	911.1	2.3158e-05	8.6163e-06	1138.3	191.66	1.5003e-05	2.1226e-05	322.34	129.37	69.016	22.758	1.8001e-05	51.031	0.018171	0.019623	0.0054942	1298.2	0.00021229	0.00021477	1537.6	329.18	0.00021035	0.00021198	527.6	198.37	138	45.137	0.00020938	81.945	17.390	192.051	88.995	-105.295	-107.303	3.524	-105.631	-99.082	148.582	158.563	-99.868	-95.816	-94.517	-88.062	-55.342	-89.690	-8191	255	
14857.437	1	1	0	0	0.23355	0.055636	0.16952	0.10005	0.015844	0.32608	0.27773	0.13229	0.23158	0.095559	0.205	0.091063	0.37838	0.1152	0.12384	0.16862	-2.3708	-2.4333	-2.8	-2.9	-2.5062	-3.0292	-2.7208	-2.8208	-2.9375	-2.5021	-3.0271	-2.8479	-2.675	-2.8604	-2.5438	-2.6708	135.814	10.090	80.708	113.888	23.488	-26.884	114.703	99.027	175.936	-111.747	-64.013	-98.671	163.719	-102.174	235.927	25.174	0.00056273	0.00060586	0.0004164	917.36	2.2522e-05	1.0465e-05	1145.3	191.14	1.5055e-05	2.1739e-05	323.93	129.71	69.316	22.569	1.226e-05	51.244	0.017923	0.019241	0.0054488	1302.2	0.00021025	0.00021557	1543.8	330.67	0.00021133	0.00021292	530.84	199.15	138.33	45.279	0.00021016	81.883	189.593	-31.392	233.907	-105.350	45.621	38.843	-105.502	-98.976	8.247	-7.081	-99.327	-95.508	-94.361	-87.960	148.968	-90.069	-8191	255	
14857.531	1	1	0	0	0.25916	0.29979	0.24369	0.34042	0.12624	0.11433	0.25176	0.15508	0.19453	0.17374	0.21544	0.15383	0.30626	0.18179	0.069828	0.14593	-2.3937	-2.6083	-2.8167	-2.9729	-2.5	-2.8688	-2.8125	-2.5687	-2.9396	-2.4229	-2.8292	-3.0438	-2.5583	-3.0792	-2.7958	-2.6458	217.318	111.384	-63.062	151.375	152.407	65.183	111.610	167.709	-37.164	-113.693	-35.398	158.800	108.146	-19.520	218.438	156.631	0.00062487	0.0016321	0.00062717	907.68	2.6249e-05	2.5738e-05	1140.9	191.28	1.9369e-05	1.6598e-05	320.53	129.25	70.085	22.655	1.8804e-05	51.197	0.017858	0.01919	0.0054115	1295.5	0.00020686	0.00021117	1531.4	326.49	0.0002062	0.00020766	524.75	197.09	136.52	44.84	0.00020704	81.188	151.034	-35.655	53.435	-105.353	87.525	239.189	-105.404	-99.110	41.202	174.555	-99.469	-95.317	-94.119	-88.194	232.050	-89.958	-8191	255	
14857.627	1	1	0	0	0.28097	0.25337	0.20695	0.16691	0.087722	0.024913	0.22738	0.14656	0.27847	0.20361	0.07744	0.21449	0.305	0.059082	0.105	0.11178	-2.5625	-2.5938	-2.8917	-3.0417	-2.5583	-2.825	-2.8896	-2.5625	-3.0396	-2.5062	-2.8958	-3.0687	-2.6312	-3.0229	-2.6229	-2.7125	211.125	104.968	-58.721	235.864	7.150	-101.471	147.794	155.832	-36.704	-77.346	137.689	-107.772	218.129	45.159	-92.146	-65.666	0.0004843	0.00099658	0.0003019	909.23	1.1121e-05	2.2655e-05	1146.7	190.52	2.7586e-05	2.7967e-05	324.09	129.84	69.107	22.66	2.5064e-05	51.227	0.017519	0.018903	0.0053453	1290.6	0.00020403	0.00021078	1534.2	326.46	0.00020593	0.00020835	526.75	197.23	136.73	44.901	0.00020796	81.249	122.338	-39.780	109.942	-104.855	-70.135	-107.177	-105.374	-99.388	-16.402	-91.026	-99.947	-95.437	-94.289	-87.171	-78.194	-89.908	-8191	255	
14857.748	1	1	0	0	0.07194	0.1689	0.1795	0.29836	0.090633	0.099107	0.10444	0.092331	0.074733	0.17124	0.13818	0.10902	0.33592	0.214	0.07933	0.10774	-2.4979	-2.5604	-2.725	-3.0125	-2.5646	-2.8312	-3.0146	-2.5354	-3.0354	-2.5833	-2.8979	-3.0563	-2.4396	-3.0042	-2.8688	-2.6646	-69.160	0.577	159.877	173.470	25.688	57.916	-34.158	42.342	-48.306	-16.749	92.878	97.801	152.641	196.868	185.966	192.502	0.0013985	0.00078767	0.00038295	917.09	7.2406e-06	1.6085e-05	1147.2	191.58	3.5325e-05	2.9031e-05	323.75	129.9	69.582	22.534	2.0592e-05	51.484	0.017663	0.019066	0.0053921	1296	0.00020638	0.000213	1538.4	327.87	0.00020754	0.0002092	525.68	197.6	136.62	45.005	0.0002086	81.105	92.611	-30.931	-97.719	-105.124	150.965	44.577	-105.265	-98.562	23.486	193.751	-99.721	-95.440	-94.205	-87.864	213.497	-89.975	-8191	255	
14857.844	1	1	0	0	0.163	0.25773	0.28142	0.35899	0.15704	0.067806	0.40053	0.18798	0.066957	0.14838	0.24731	0.2152	0.13436	0.18543	0.10116	0.14379	-2.4875	-2.7125	-2.6021	-3.0479	-2.7042	-2.8021	-3.05	-2.4833	-2.9792	-2.7125	-2.8208	-3.0896	-2.55	-2.9521	-2.975	-2.6188	134.275	-73.055	150.161	194.736	-90.749	160.566	241.128	119.880	58.513	223.023	200.355	81.096	228.351	239.330	115.501	39.198	0.0002043	0.0031869	0.00068316	920.3	2.3214e-05	7.0162e-06	1147.6	191.35	1.0043e-05	1.0309e-05	325.35	129.72	69.993	22.956	4.2029e-05	51.534	0.01766	0.018972	0.0053241	1292.4	0.00020361	0.00021024	1534.1	325.44	0.0002046	0.00020774	524.46	196.95	136.38	44.825	0.0002052	80.9	191.187	-10.267	198.640	-105.521	132.435	72.140	-105.486	-99.268	80.891	98.594	-99.541	-95.284	-94.660	-87.672	170.671	-89.640	-8191	255	
14857.940	1	1	0	0	0.32376	0.014638	0.14287	0.18401	0.26451	0.10866	0.552	0.2271	0.17546	0.22799	0.17508	0.080797	0.10497	0.19157	0.27885	0.25862	-2.4396	-2.6854	-2.625	-3.1958	-2.5479	-2.8917	-3.0583	-2.6063	-2.8792	-2.6917	-2.6083	-3.0917	-2.5854	-2.7792	-2.825	-2.5708	160.203	59.011	145.185	167.306	-57.717	63.538	165.713	146.411	-106.647	194.640	214.283	-98.992	12.315	-15.714	128.815	-7.325	0.00053569	0.0025279	0.00041988	915.61	1.5458e-05	9.9399e-06	1154.5	191.93	1.7839e-05	4.1796e-05	324.89	129.45	68.779	22.653	3.3993e-05	50.986	0.017406	0.018864	0.0052645	1286.3	0.0002019	0.00020871	1530.8	324.27	0.00020523	0.00020703	522.52	196.47	135.93	44.665	0.00020427	80.272	151.325	12.289	25.682	-105.392	172.606	204.104	-105.666	-99.657	29.144	-85.467	-99.663	-95.219	-94.745	-87.333	15.667	-89.962	-8191	255	
14858.012	1	1	0	0	0.18804	0.11998	0.19195	0.33857	0.14219	0.12593	0.24196	0.26296	0.10781	0.18911	0.29778	0.27767	0.21539	0.1877	0.0083189	0.10263	-2.4562	-2.7875	-2.4896	-3.0646	-2.7042	-2.5896	-3.0292	-2.525	-2.825	-2.8792	-2.7083	-2.9688	-2.6729	-2.7729	-2.8333	-2.5833	205.055	133.533	-68.932	-108.077	69.042	176.955	214.946	132.589	-114.601	74.867	143.225	173.167	144.140	-103.255	-100.322	158.596	0.0011028	0.00069888	0.00073051	910.59	5.2926e-06	7.2416e-06	1145.8	192.05	3.2253e-06	2.0565e-05	323.03	129.82	69.171	22.876	1.0399e-05	51.148	0.017407	0.01876	0.0052113	1282	0.00020061	0.00020726	1526.1	322.6	0.00020338	0.00020537	519.19	196.06	135.51	44.372	0.00020212	80.197	103.502	225.311	-46.840	-105.537	136.921	233.857	-105.141	-98.844	69.747	-95.523	-99.911	-95.366	-93.858	-87.533	-76.520	-90.370	-8191	255	
14858.132	1	1	0	0	0.27004	0.070807	0.20669	0.41384	0.18756	0.24188	0.32087	0.045587	0.13283	0.1673	0.25216	0.28291	0.080406	0.15294	0.34415	0.16992	-2.2292	-2.8083	-2.4062	-2.9958	-2.6146	-2.4375	-3.1063	-2.5687	-2.8125	-2.825	-2.5979	-3.0083	-2.7125	-2.5271	-3.0875	-2.7854	-41.581	119.981	-79.810	187.932	-104.560	52.334	-115.099	139.719	169.135	-87.497	117.743	134.302	219.001	70.781	54.687	-99.351	0.00064862	0.0022498	0.00064317	910.89	1.7138e-05	4.9841e-06	1143.9	190.84	3.4788e-05	4.778e-05	325.55	129.98	69.87	22.832	6.0791e-05	51.844	0.01723	0.018565	0.0051715	1276.5	0.00020016	0.00020547	1519.6	321.55	0.00020163	0.00020439	518.43	195.75	135.63	44.386	0.00020388	80.881	156.283	50.620	98.477	-105.066	103.878	69.912	-105.630	-99.132	0.886	112.470	-99.752	-95.200	-94.431	-87.409	-16.176	-90.052	-8191	255	
14858.229	1	1	0	0	0.13662	0.16945	0.29728	0.18016	0.21756	0.21465	0.13684	0.1927	0.013423	0.10471	0.17822	0.20189	0.033663	0.25777	0.086467	0.1953	-2.3333	-2.8063	-2.5375	-2.9771	-2.9125	-2.5833	-3.275	-2.7458	-2.7833	-2.6937	-2.5729	-2.9667	-2.8271	-2.4333	-2.9667	-2.6146	171.328	179.241	99.663	205.771	138.086	200.514	-116.356	191.739	44.334	237.099	167.830	194.475	-27.419	214.532	51.508	175.249	0.0013723	0.0024686	0.0002492	916.42	7.6528e-06	9.4437e-06	1154.7	189.63	1.8799e-05	8.2293e-06	325.02	129.76	69.796	23.034	5.5182e-06	51.658	0.017527	0.01894	0.00527	1293.9	0.00020598	0.00021032	1536.7	325.24	0.00020632	0.00020766	520.82	196.81	136.35	44.382	0.00020335	80.478	203.105	11.969	166.656	-105.189	80.797	62.524	-105.668	-99.362	-75.581	154.338	-100.278	-95.174	-93.203	-87.741	-93.230	-89.852	-8191	255	
14858.325	1	1	0	0	0.19246	0.18974	0.19245	0.087365	0.29005	0.14683	0.14859	0.11547	0.27395	0.24801	0.060557	0.082455	0.14026	0.13508	0.25608	0.12125	-2.2708	-3.0083	-2.4813	-2.8729	-2.7875	-2.4146	-3.1729	-2.6833	-2.5417	-3.0292	-2.5083	-2.8458	-2.7167	-2.5417	-2.8875	-2.7083	-28.418	186.258	137.369	235.569	30.393	22.859	195.716	222.676	162.990	45.059	-56.731	172.686	-9.859	59.666	92.429	134.816	0.00025563	0.001781	0.0006886	915.61	6.1446e-06	2.031e-05	1147.8	192.89	2.5552e-05	3.0917e-05	321.32	129.84	68.75	22.679	2.3879e-05	51.235	0.017327	0.018642	0.0051738	1284.7	0.00020177	0.00020434	1526.5	323.8	0.00020355	0.00020595	519.23	196.33	136.08	44.401	0.00020585	80.372	47.759	213.585	-31.113	-105.311	198.072	46.166	-105.450	-99.214	240.914	236.914	-100.109	-95.193	-94.561	-87.895	58.332	-90.251	-8191	255	
14858.421	1	1	0	0	0.30256	0.17814	0.13511	0.34146	0.27274	0.16649	0.24629	0.1156	0.29558	0.24251	0.085545	0.06584	0.22632	0.085022	0.061517	0.29371	-2.3125	-2.8042	-2.525	-2.7958	-2.8729	-2.5812	-3.0604	-2.8271	-2.6437	-2.9	-2.6688	-2.8521	-2.8021	-2.3271	-2.9229	-3.0167	82.784	46.155	66.925	213.995	-108.194	15.528	119.545	231.437	75.062	76.182	-74.949	217.287	231.942	-15.165	-72.927	136.561	0.0010019	0.0029959	8.6515e-05	903.06	1.5844e-05	1.7077e-05	1153.5	191	3.3103e-05	2.3954e-05	321.7	129.37	68.786	23.018	2.008e-05	51.296	0.017332	0.018719	0.0051714	1278.5	0.00019991	0.00020264	1518.5	321.01	0.00019811	0.00020197	515.62	194.75	134.47	43.911	0.00020063	79.995	156.189	-65.667	28.404	-105.166	148.524	-84.046	-105.632	-99.345	131.622	118.231	-99.559	-95.396	-94.219	-88.552	51.102	-89.844	-8191	255	
14858.540	1	1	0	0	0.13169	0.17584	0.28965	0.14569	0.081167	0.076631	0.016878	0.1124	0.12138	0.24165	0.16786	0.16157	0.11657	0.015706	0.02582	0.19432	-2.1979	-2.9604	-2.4417	-2.9313	-3.0062	-2.5333	-3.0021	-2.85	-2.5375	-2.9208	-2.6146	-2.7604	-2.8625	-2.45	-2.8458	-2.9479	207.710	-85.227	-110.712	-71.962	-27.860	15.743	179.902	111.510	121.789	55.689	219.683	165.394	13.074	139.764	233.573	-95.257	0.00083971	0.0027087	0.0004289	913.89	3.6371e-05	4.4993e-05	1143.2	190.66	9.8169e-06	2.3952e-05	322.09	129.72	68.843	22.805	1.0004e-05	51.231	0.016925	0.018407	0.005104	1275.3	0.00019787	0.00020225	1514.8	321.28	0.0001999	0.00020418	518.39	196.31	135.72	44.463	0.00020906	81.254	155.229	-1.651	68.574	-106.040	-58.860	2.373	-105.508	-99.098	190.488	51.068	-100.073	-95.171	-94.545	-87.663	-79.421	-89.892	-8191	255	
14858.636	1	1	0	0	0.24129	0.14091	0.12355	0.2826	0.13992	0.14953	0.17137	0.067362	0.16343	0.28001	0.24594	0.15119	0.14163	0.18121	0.08496	0.22439	-2.0125	-2.9333	-2.5021	-2.5083	-2.9562	-2.4958	-3.0375	-2.8937	-2.5	-3.0458	-2.7333	-2.8708	-2.9125	-2.675	-2.6875	-3.0854	174.518	-19.133	-65.680	-71.669	-104.388	142.457	161.822	7.497	-66.444	51.146	-96.607	6.788	30.691	117.273	55.840	183.926	0.0012489	0.0035853	0.0012719	917.61	6.0951e-06	4.0907e-05	1140.3	191.62	1.1749e-05	2.7124e-05	323.13	128.37	68.736	22.71	2.6636e-05	50.373	0.017716	0.019383	0.0053773	1299	0.00020748	0.00021055	1534.5	325.88	0.00020555	0.00021037	525.05	196.89	136.86	44.54	0.00020917	80.365	128.497	113.669	-38.534	-105.309	-85.472	198.890	-105.338	-99.527	47.960	-35.654	-99.637	-95.163	-93.998	-88.019	195.151	-89.934	-8191	255	
14858.708	1	1	0	0	0.11828	0.03686	0.033699	0.19757	0.10233	0.23241	0.35678	0.12238	0.087759	0.13614	0.18675	0.067125	0.22643	0.2056	0.094246	0.26471	-2.0438	-2.9167	-2.8146	-2.6854	-2.6771	-2.725	-2.95	-2.9	-2.3521	-2.8917	-2.8688	-2.5229	-2.9792	-2.6021	-2.6542	-2.9042	-92.108	6.265	-8.579	-100.367	167.904	1.002	158.169	-84.312	144.405	92.682	194.653	-113.449	-87.377	99.327	-27.367	163.289	0.00082359	0.0028181	0.00026477	906.06	3.1829e-05	4.7521e-05	1136.1	189.96	2.6791e-05	2.5066e-05	318.99	127.54	67.957	22.361	4.3709e-05	50.117	0.017504	0.01913	0.0053171	1286.6	0.00020655	0.00020911	1528.8	324.6	0.00020602	0.00021111	520.34	195.26	136.34	44.497	0.0002096	80.125	133.347	204.946	-78.209	-105.323	-96.576	28.811	-105.467	-99.269	88.277	229.960	-99.318	-95.316	-94.508	-88.040	107.041	-90.071	-8191	255	
14858.828	1	1	0	0	0.18391	0.23322	0.14158	0.1522	0.050244	0.2047	0.303	0.054699	0.1901	0.17584	0.28375	0.27665	0.1153	0.1034	0.094738	0.13231	-1.95	-2.8021	-2.7313	-2.6708	-2.8917	-2.6688	-2.7396	-3.0062	-2.45	-3.0458	-2.95	-2.45	-3.0479	-2.75	-2.6562	-3.0646	61.198	128.700	87.421	146.315	-56.090	99.595	202.850	134.670	9.635	104.752	23.353	226.710	-84.122	177.877	-44.439	123.202	0.00052753	0.0011595	0.00098777	908.26	1.2092e-05	2.4931e-05	1127	188.25	2.1532e-05	4.4132e-05	319.14	128.12	68.375	22.546	2.9093e-05	50.422	0.017536	0.019265	0.0053329	1281.4	0.00020627	0.00020961	1515.9	323.1	0.00020423	0.00020997	519.09	194	135.82	44.233	0.00020624	80.061	138.618	1.440	10.001	-105.699	-23.695	230.021	-105.359	-98.849	17.574	-48.502	-100.112	-95.213	-94.714	-88.197	66.305	-90.465	-8191	255	
14858.924	1	1	0	0	0.12236	0.097505	0.053215	0.1902	0.26169	0.26901	0.32667	0.13702	0.062323	0.088622	0.18152	0.33903	0.11221	0.25741	0.11031	0.36398	-2.0417	-2.5875	-2.7604	-2.6396	-2.9188	-2.8521	-2.7458	-3.2167	-2.6437	-2.6521	-3.0042	-2.5938	-2.8708	-2.6792	-2.375	-2.8792	-14.495	-29.304	123.307	176.274	130.144	-1.941	174.579	205.318	-68.852	226.149	217.188	231.142	-74.156	-73.494	-109.119	230.232	0.00058902	0.0022068	0.00065016	893.01	3.8335e-05	2.956e-05	1121.4	187.63	6.887e-06	2.8998e-05	320.4	128.22	68.677	22.295	4.7734e-05	50.986	0.017345	0.019054	0.0053023	1269	0.00020613	0.00020954	1513.2	324.41	0.00020579	0.0002126	524.52	196.47	138.3	45.068	0.00021384	81.778	158.562	-12.122	205.290	-105.567	-42.974	-98.596	-105.305	-99.227	201.901	142.135	-99.772	-94.958	-94.377	-87.670	152.929	-89.831	-8191	255	
14859.021	1	1	0	0	0.10361	0.23818	0.21675	0.21086	0.21571	0.30288	0.26889	0.22329	0.059926	0.20074	0.22616	0.13984	0.20074	0.10592	0.20537	0.078431	-2.0396	-2.6583	-2.975	-2.5625	-2.8937	-2.7333	-2.8125	-2.9729	-2.7792	-2.6542	-3.1229	-2.4979	-2.9833	-2.7438	-2.6396	-3.0625	-115.903	22.914	174.267	194.249	-82.557	42.284	160.212	193.313	231.405	-83.706	221.334	-116.816	-68.337	140.092	64.992	168.660	0.00094514	0.0029209	0.0010304	900.74	2.9547e-06	2.0158e-05	1129.4	189.4	7.9045e-07	3.2909e-05	321.84	126.47	67.535	22.147	3.72e-05	50.014	0.018195	0.019943	0.0055152	1292.8	0.00021498	0.00021789	1531.5	330.04	0.00021289	0.00021868	528.5	197.08	138.61	45.049	0.00021237	81.026	63.021	-100.976	-17.393	-105.320	217.125	11.249	-105.238	-99.030	14.441	-2.226	-100.001	-95.864	-94.433	-88.455	222.391	-89.817	-8191	255	
14859.117	1	1	0	0	0.17532	0.15523	0.31113	0.15595	0.17877	0.1908	0.22544	0.1027	0.39325	0.087788	0.22329	0.17752	0.1952	0.23268	0.069456	0.31084	-2.3354	-2.6271	-3	-2.6708	-2.8771	-2.9792	-2.8125	-3.0187	-2.6021	-2.6688	-3.0396	-2.7188	-2.8812	-2.8604	-2.5479	-3.0042	1.690	122.225	122.994	-85.203	169.767	24.432	168.443	18.222	190.585	77.909	215.618	186.449	-86.668	100.496	104.370	228.595	0.0010386	0.0027985	0.00048727	899.41	2.002e-05	1.3162e-05	1123.6	189.71	2.5678e-06	1.0713e-05	317.15	127.47	68.6	22.478	2.1191e-05	50.28	0.017875	0.019464	0.0053933	1278.8	0.00020929	0.00021278	1511.8	324.62	0.00020672	0.00021172	520.43	195	137.29	44.69	0.00020863	80.668	170.397	-70.311	-62.744	-105.083	129.733	92.672	-105.431	-99.399	63.349	-72.482	-99.550	-95.421	-94.566	-87.766	-20.223	-90.482	-8191	255	
14859.237	1	1	0	0	0.23864	0.31572	0.23565	0.24596	0.16101	0.083339	0.30871	0.11936	0.31883	0.043391	0.015377	0.17082	0.14073	0.16742	0.31356	0.25698	-2.2917	-2.6271	-2.8375	-2.7833	-2.8063	-2.75	-2.4646	-2.8979	-2.8208	-2.5646	-3.0062	-2.5375	-2.8667	-3.0729	-2.4313	-3.1708	-21.244	37.035	217.028	173.772	-59.674	148.457	231.285	151.390	52.826	98.071	42.397	221.871	195.647	-23.085	178.027	205.514	0.00061606	0.00088694	0.00074445	897.25	1.9952e-05	1.8881e-05	1125.9	188.58	9.1984e-06	2.4314e-05	318.39	126.86	67.761	22.574	2.4219e-05	50.923	0.017758	0.0193	0.0053678	1273.3	0.00020836	0.00021019	1508.5	323.79	0.00020487	0.000208	518.7	194.5	136.25	44.398	0.00020447	80.535	137.657	-70.784	184.985	-105.556	127.369	73.327	-105.573	-99.095	35.410	114.073	-100.030	-95.493	-94.489	-87.422	-2.943	-89.931	-8191	255	
14859.309	1	1	0	0	0.087966	0.27596	0.16219	0.13757	0.33204	0.2111	0.26639	0.0089317	0.069929	0.16236	0.19684	0.21933	0.10463	0.16851	0.15366	0.2317	-2.3958	-2.4604	-2.9042	-2.6458	-2.575	-3.1188	-2.6958	-2.9688	-2.8417	-2.6521	-2.9625	-2.6937	-2.8479	-2.9958	-2.5938	-2.7667	29.736	130.092	105.047	221.289	12.028	193.203	177.662	122.896	-30.377	-76.283	-102.681	179.946	11.881	22.620	106.178	180.191	0.0007146	0.0015319	0.00028299	892.52	2.0972e-05	2.2808e-05	1119.2	189.37	3.6213e-05	1.8084e-05	318.07	128.5	68.09	22.557	3.9698e-05	50.971	0.017425	0.018842	0.0052703	1266.1	0.00020492	0.00020814	1502.6	324.06	0.00020365	0.00020625	518.61	194.83	135.39	44.255	0.00020312	80.473	149.955	-115.689	222.396	-105.451	-105.223	-50.337	-105.664	-99.587	-13.517	170.313	-99.906	-95.526	-94.655	-87.638	141.322	-89.681	-8191	255	
14859.430	1	1	0	0	0.30429	0.18249	0.10187	0.079767	0.10289	0.13228	0.12976	0.29594	0.056395	0.13274	0.26101	0.21801	0.20043	0.18336	0.035622	0.15452	-2.3417	-2.3812	-2.6437	-2.8104	-2.5896	-2.9979	-2.6833	-2.9292	-2.8521	-2.5708	-2.8792	-2.6917	-2.5458	-2.9979	-2.4667	-2.8812	32.363	53.436	194.040	204.235	-70.980	24.235	145.164	197.868	213.724	-94.058	187.174	144.135	227.379	155.798	-13.247	195.849	0.00036954	0.0040682	0.00040343	891.84	6.1815e-06	9.1899e-06	1127.8	190.13	1.7257e-05	2.794e-05	318.31	128.76	69.142	22.8	1.9599e-05	50.985	0.017292	0.018704	0.005269	1267.1	0.00020285	0.00020695	1506.9	323.62	0.00020266	0.00020539	517.82	195.06	135.81	44.45	0.00020384	80.395	133.988	22.380	107.099	-105.541	63.965	43.013	-105.777	-99.073	72.089	60.008	-99.885	-95.241	-94.658	-87.451	140.471	-90.254	-8191	255	
14859.526	1	1	0	0	0.27652	0.18418	0.15867	0.22405	0.12964	0.12418	0.4273	0.092459	0.29601	0.18362	0.24618	0.16908	0.26238	0.12614	0.14899	0.089273	-2.3229	-2.4542	-2.8229	-2.9062	-2.4458	-3.0521	-2.7542	-2.8167	-2.8312	-2.4333	-2.9333	-2.6854	-2.5833	-2.9042	-2.6708	-2.7708	202.998	219.130	0.901	197.720	75.815	-106.927	162.264	-63.848	-27.664	110.735	204.641	217.248	189.245	139.378	-97.960	212.636	0.0011347	0.0030086	0.00043583	895.83	2.0403e-05	1.4447e-05	1127.3	187.81	1.9673e-05	6.0944e-05	322.23	128.37	68.42	22.939	3.4396e-05	50.763	0.017442	0.018703	0.0052553	1267.8	0.00020315	0.00020671	1504.3	322.65	0.00020229	0.00020502	517	193.98	135	44.343	0.00020299	80.151	121.178	-86.968	17.729	-105.520	202.540	-13.581	-105.140	-99.172	40.591	138.523	-99.906	-95.645	-93.788	-87.836	-1.834	-90.019	-8191	255	
14859.620	1	1	0	0	0.27101	0.11419	0.29991	0.1936	0.10742	0.11786	0.28687	0.25139	0.036853	0.12497	0.29995	0.11945	0.10896	0.054756	0.20846	0.17334	-2.425	-2.5521	-2.9	-2.7521	-2.3708	-2.9021	-2.6188	-2.8708	-2.9271	-2.55	-2.8854	-2.9458	-2.5854	-2.9125	-2.6688	-2.6896	4.212	-75.682	35.317	-86.417	21.472	156.977	175.748	206.546	-78.510	-82.501	196.421	186.142	203.848	-91.280	220.564	169.154	0.00062583	0.0019118	0.0015741	896.25	1.4515e-05	2.1634e-05	1122.7	190.58	1.4218e-05	1.1551e-05	319.05	127.79	68.541	22.66	8.7191e-06	51.218	0.017237	0.018612	0.0052381	1265.3	0.00020214	0.00020698	1504.3	323.77	0.00020415	0.00020572	519.48	195.1	135.49	44.699	0.00020581	80.862	156.230	139.789	59.217	-105.121	161.257	-2.944	-105.423	-99.204	147.124	206.223	-99.530	-95.086	-94.394	-87.952	127.384	-89.751	-8191	255	
14859.716	1	1	0	0	0.023265	0.11095	0.32603	0.24004	0.32598	0.070319	0.2121	0.26746	0.3083	0.092517	0.13647	0.26097	0.38834	0.188	0.23501	0.15951	-2.5958	-2.4208	-2.6958	-3.0687	-2.475	-2.8521	-2.7646	-2.6396	-2.8979	-2.6729	-2.8104	-2.9833	-2.6	-2.8896	-2.6667	-2.6896	-110.762	-74.276	-62.204	240.184	201.858	-51.629	145.088	-81.195	147.904	-46.770	-71.355	181.398	129.283	-11.968	64.961	42.763	0.001251	0.00087358	0.00033313	898.11	3.5812e-06	3.6023e-05	1124.8	188.98	7.0723e-06	1.6474e-05	320.87	128.64	69.163	22.724	1.5989e-05	50.892	0.017548	0.018891	0.0053626	1275.3	0.00020467	0.00021109	1512	323.7	0.00020473	0.00020803	520.1	195.32	135.83	44.675	0.00020557	80.806	127.912	237.853	73.870	-105.271	184.417	49.845	-105.327	-98.806	115.695	-105.985	-99.447	-95.584	-93.936	-88.357	81.035	-89.665	-8191	255	
14859.837	1	1	0	0	0.23393	0.050399	0.098752	0.25346	0.17064	0.20345	0.13861	0.20891	0.064952	0.18713	0.038217	0.060094	0.024852	0.24749	0.11876	0.28879	-2.5604	-2.6437	-2.7646	-2.9479	-2.3729	-2.8583	-2.8146	-2.6813	-3.0021	-2.6208	-2.7771	-2.9333	-2.575	-2.9021	-2.7396	-2.6417	60.470	238.485	-81.365	213.449	-67.595	-100.779	133.227	149.313	-24.370	174.494	207.265	106.340	120.313	-114.947	164.755	195.161	0.00057221	0.0020855	0.00054733	896.49	5.5502e-06	4.6112e-05	1127.1	190.85	1.5835e-05	1.4073e-05	319.57	128.44	68.667	22.588	2.4461e-05	50.606	0.017524	0.018894	0.005328	1274.4	0.00020473	0.00021084	1519.3	324.64	0.00020657	0.0002094	521.86	195.85	136.64	44.999	0.00020855	80.623	78.840	-18.179	68.606	-105.275	31.772	137.573	-105.513	-98.999	-1.378	220.302	-99.905	-95.323	-94.722	-87.894	-80.720	-89.893	-8191	255	
14859.933	1	1	0	0	0.18827	0.20878	0.083856	0.10048	0.38883	0.1694	0.23311	0.12896	0.088149	0.036222	0.17413	0.14611	0.13987	0.21717	0.2137	0.18518	-2.5292	-2.5625	-2.4667	-3.0104	-2.4875	-2.8167	-3.0229	-2.4688	-2.975	-2.7083	-2.7708	-3.0812	-2.6917	-2.8979	-2.9354	-2.7292	187.624	142.115	43.558	205.979	-21.136	-89.666	235.843	213.573	-29.191	-113.008	110.558	13.757	106.059	173.393	-112.079	-27.055	0.00040941	0.0043839	0.0010536	901.53	1.9261e-05	2.5834e-05	1130.6	190.26	1.5952e-05	2.8428e-05	317.02	127.15	69.419	22.741	2.5238e-05	50.458	0.017773	0.019144	0.0053633	1278.9	0.00020531	0.00021132	1515.6	323.48	0.00020651	0.0002085	517.84	194.87	135.6	44.565	0.00020423	80.043	192.019	76.428	-56.229	-105.233	59.990	176.261	-105.272	-99.001	98.385	-68.572	-99.791	-95.299	-93.991	-87.738	-43.502	-89.628	-8191	255	
14860.005	1	1	0	0	0.24754	0.17746	0.33598	0.32989	0.17174	0.15409	0.16954	0.28587	0.18006	0.1395	0.18232	0.22182	0.043612	0.075866	0.047418	0.058933	-2.5563	-2.7708	-2.5187	-3.0583	-2.5687	-2.7521	-3.1167	-2.7354	-3.0979	-2.8312	-2.5875	-3.1583	-2.6833	-2.7917	-2.6896	-2.45	-73.290	58.718	112.866	196.803	190.603	140.214	114.345	170.054	120.632	223.109	-115.269	-99.806	60.757	229.515	166.043	-107.849	0.000498	0.0011544	0.00022489	896.01	2.0379e-05	9.6207e-06	1119.7	187.69	1.8275e-05	1.5408e-05	316.17	127.13	68.508	22.401	4.4774e-06	50.618	0.01731	0.018737	0.0052271	1267.3	0.00020092	0.00020774	1506.4	320.82	0.00020452	0.00020715	518.55	195.09	135.49	44.705	0.00020552	80.034	184.964	159.457	111.679	-105.746	96.680	108.215	-105.482	-99.064	-22.435	60.813	-99.584	-95.298	-94.423	-87.507	-34.781	-90.216	-8191	255	
14860.101	1	1	0	0	0.20975	0.23583	0.16013	0.1951	0.17805	0.12866	0.14019	0.13328	0.17096	0.16155	0.18213	0.22712	0.065863	0.1722	0.21025	0.1724	-2.1833	-2.6896	-2.5521	-3.0854	-2.5604	-2.7146	-3.2104	-2.4437	-2.7646	-2.9375	-2.6521	-3.2417	-2.6333	-2.7875	-3.1188	-2.75	170.487	-82.073	160.379	165.070	171.317	-51.640	200.250	-101.220	-38.983	-33.431	197.121	-88.289	-109.347	22.205	14.509	193.989	0.00096791	0.0016534	0.00025444	900.69	3.265e-05	1.8726e-05	1121.7	190.38	1.2522e-06	2.5275e-05	317.41	127.04	68.67	22.612	2.7878e-05	50.822	0.017591	0.018888	0.0052512	1271.1	0.0002037	0.0002101	1511.5	322.55	0.00020576	0.00020767	516.51	194.65	136.05	44.71	0.0002063	80.321	97.263	223.168	124.764	-105.459	168.596	36.074	-105.632	-99.048	-113.496	79.030	-100.000	-95.615	-94.663	-88.195	-55.651	-89.921	-8191	255	
14860.222	1	1	0	0	0.21751	0.15278	0.10326	0.38221	0.20304	0.1897	0.18373	0.18436	0.20775	0.18689	0.0083155	0.20589	0.090112	0.11004	0.22207	0.29361	-2.3292	-2.8792	-2.4562	-2.9979	-2.7583	-2.6042	-3.0438	-2.4292	-2.8354	-2.9813	-2.6708	-2.8896	-2.6604	-2.5354	-2.9188	-2.65	127.614	-43.200	234.111	212.985	-91.405	-13.504	133.403	129.055	180.013	137.523	-100.887	38.310	182.122	215.538	156.536	-112.806	0.00055587	0.0016217	0.00044077	901.24	2.1525e-05	9.8359e-06	1132	190.15	3.1599e-05	3.9688e-05	316.16	127.54	69.011	22.648	1.2195e-05	50.675	0.017621	0.01904	0.0053089	1277.6	0.00020569	0.00020988	1513.9	323.19	0.00020637	0.00020901	518.29	195.26	135.92	44.67	0.00020696	80.095	56.451	-107.082	-75.278	-105.143	133.405	-57.628	-105.598	-99.186	226.668	111.016	-99.487	-95.506	-94.083	-88.053	197.935	-90.295	-8191	255	
14860.318	1	1	0	0	0.11413	0.16924	0.061385	0.20287	0.059738	0.1633	0.1078	0.077003	0.14743	0.26174	0.15727	0.096432	0.18508	0.053592	0.038799	0.024578	-2.25	-2.9125	-2.5583	-2.8	-2.8063	-2.525	-3.1333	-2.6354	-2.6479	-2.9396	-2.5979	-2.8646	-2.8187	-2.3958	-3.0167	-2.5375	-38.081	180.649	-10.513	214.898	-107.521	148.222	153.619	171.598	15.929	145.210	136.446	-110.373	132.294	65.314	116.281	-29.909	0.0002247	0.00025995	0.0015088	894.84	2.5805e-05	2.121e-05	1131.3	188.03	2.1687e-05	1.7581e-05	315.58	126.83	68.075	22.622	3.5527e-05	50.245	0.017531	0.019021	0.0052261	1273.1	0.00020388	0.00020772	1510.8	321.28	0.00020459	0.00020785	516.17	194.57	135.74	44.472	0.00020687	80.002	119.742	12.086	-54.525	-105.181	116.148	-106.900	-105.401	-99.476	169.629	-29.417	-99.517	-95.411	-94.200	-87.988	117.297	-90.246	-8191	255	
14860.412	1	1	0	0	0.08128	0.27037	0.070994	0.26414	0.16186	0.13679	0.26396	0.06786	0.073163	0.23115	0.051147	0.19715	0.072019	0.25971	0.31777	0.077678	-2.1771	-2.7562	-2.4688	-2.8917	-3.0812	-2.5167	-3.1146	-2.8771	-2.725	-2.8229	-2.7	-2.7854	-2.8312	-2.4062	-2.8771	-2.7542	220.674	-42.960	238.436	104.621	168.443	21.561	154.511	-104.943	15.064	225.225	144.410	195.362	185.457	-89.379	59.373	220.745	0.00043308	0.0032495	0.00039729	900.45	9.5389e-06	2.7623e-05	1126.1	189.6	2.6318e-05	2.2157e-05	316.15	127.79	68.604	22.704	3.1653e-05	50.259	0.017561	0.019028	0.0052615	1281.4	0.00020476	0.00020871	1511.3	323.64	0.00020612	0.00020875	515.93	195.89	136.25	44.547	0.00020745	80.299	193.799	39.689	-15.833	-105.368	221.800	19.857	-105.050	-99.362	-78.581	116.088	-99.564	-95.486	-94.183	-88.168	26.351	-89.822	-8191	255	
14860.510	1	1	0	0	0.13298	0.13715	0.16228	0.34751	0.18579	0.13282	0.18926	0.37237	0.16166	0.1808	0.18852	0.30533	0.058778	0.35098	0.17639	0.15187	-2.1729	-2.9146	-2.4875	-2.8583	-2.7396	-2.4792	-3.0771	-2.7	-2.4146	-3.0292	-2.6729	-2.6875	-2.6958	-2.3812	-2.8187	-2.8333	162.964	-50.029	-94.595	200.769	210.878	111.331	239.777	183.013	6.233	2.413	83.562	169.706	-94.137	-91.048	232.765	194.250	0.0011259	0.00040699	0.00039886	899.42	1.3966e-05	2.2734e-05	1123.5	188.85	2.336e-05	1.5122e-05	318.49	127.71	68.239	22.826	2.266e-05	50.891	0.017599	0.018949	0.005257	1276.4	0.00020449	0.00020789	1510.9	322.32	0.00020489	0.00020881	517.7	196.19	136.86	44.716	0.00020929	80.857	156.858	209.440	48.524	-105.497	-27.094	-50.799	-105.298	-99.187	203.733	192.637	-99.966	-95.561	-94.907	-87.897	226.544	-90.165	-8191	255	
14860.606	1	1	0	0	0.11235	0.41011	0.32355	0.32572	0.083369	0.17253	0.081887	0.0068504	0.08885	0.15369	0.18108	0.22442	0.22332	0.052159	0.1187	0.10901	-2.0708	-2.7479	-2.6354	-2.8146	-2.8979	-2.4917	-3.0062	-2.6937	-2.4708	-2.9917	-2.6937	-2.7125	-2.775	-2.5292	-2.7771	-2.8458	131.342	16.062	2.175	187.385	182.608	49.318	118.385	134.827	10.382	18.170	227.280	175.621	89.145	-81.989	-9.902	178.352	0.00053031	0.0007394	0.00067031	908.93	1.7681e-05	2.5e-05	1135	190.5	1.5788e-05	1.4894e-05	319.76	127.58	68.334	22.784	3.6133e-05	50.303	0.017702	0.019192	0.0053101	1286.4	0.0002056	0.00020951	1523.2	324.99	0.00020505	0.00020954	518.25	195.28	135.99	44.374	0.00020673	80.022	124.921	239.157	82.470	-105.442	217.075	-27.591	-105.548	-99.022	70.319	-114.012	-99.173	-95.246	-94.666	-88.428	231.971	-90.055	-8191	255	
14860.701	1	1	0	0	0.22495	0.2034	0.17842	0.1684	0.085104	0.22548	0.26285	0.069884	0.23899	0.15002	0.12102	0.29303	0.16958	0.25153	0.26027	0.19914	-2.175	-2.9	-2.5146	-2.6771	-2.9542	-2.3979	-3.1208	-2.9	-2.3854	-2.9083	-2.7792	-2.8417	-3.0667	-2.5979	-2.7271	-2.7667	25.903	-73.062	-86.693	229.616	197.811	-21.717	164.156	-83.941	187.352	51.667	236.831	-108.223	-93.798	100.325	173.635	173.629	0.0010178	0.0022566	0.00047164	898.63	5.8753e-06	2.1957e-05	1129.8	189.56	9.9214e-06	7.8612e-06	317.11	127.4	69.252	22.68	3.1345e-05	50.32	0.017328	0.018903	0.0052598	1275.7	0.00020412	0.0002067	1515.2	323.38	0.00020388	0.00020799	517.84	194.74	136.18	44.325	0.00020807	80.189	125.371	186.377	-86.686	-105.199	-116.774	40.436	-105.360	-99.322	-45.710	-107.128	-99.614	-95.556	-94.186	-87.811	-21.697	-90.050	-8191	255	
14860.797	1	1	0	0	0.12438	0.17734	0.093263	0.11709	0.27756	0.07635	0.32185	0.26153	0.29529	0.12647	0.4134	0.18139	0.18117	0.12109	0.041549	0.086065	-1.9896	-2.7812	-2.7833	-2.6542	-2.8438	-2.5042	-2.7625	-2.9542	-2.4396	-2.8542	-2.8229	-2.5604	-3.0438	-2.525	-2.7396	-3.1063	102.630	55.665	194.379	176.016	171.071	122.290	152.720	161.993	179.367	116.598	211.324	140.679	232.683	143.865	-73.230	-50.719	0.0002484	0.0010248	0.00058607	910.62	2.1077e-05	1.9725e-05	1131.8	189.57	5.7985e-06	6.816e-06	317.43	128.16	68.429	22.45	1.7511e-05	50.405	0.017465	0.019078	0.0052926	1281.8	0.00020568	0.00020846	1518.6	324.47	0.00020429	0.00021016	518.12	195.42	136.81	44.62	0.00020939	80.304	195.632	48.386	13.048	-105.091	-13.395	209.753	-105.610	-99.186	-42.018	-25.453	-100.192	-95.351	-94.389	-88.033	176.475	-90.123	-8191	255	
14860.917	1	1	0	0	0.14032	0.18005	0.0085805	0.23358	0.18807	0.34565	0.30299	0.29886	0.11206	0.075598	0.030219	0.14638	0.13905	0.20765	0.094002	0.14178	-1.8979	-2.8333	-2.7812	-2.725	-2.9125	-2.6375	-2.7958	-2.9667	-2.5167	-2.9229	-2.9354	-2.5687	-3.0583	-2.5583	-2.7417	-2.9562	3.445	230.620	115.556	-55.958	63.722	141.309	211.008	191.957	-106.594	-2.948	110.759	-82.930	207.131	96.154	208.927	163.389	0.001171	0.00067791	0.00016768	899.38	9.8471e-06	1.5494e-05	1119.6	190.5	1.0352e-05	2.4241e-05	319.04	128.84	69.67	22.964	1.0237e-05	51.193	0.017498	0.019169	0.0053074	1276.4	0.00020533	0.00020832	1517.3	325.36	0.00020478	0.00021055	522.9	196.23	137.71	44.972	0.00021006	81.229	221.417	-111.594	24.991	-105.462	112.116	207.956	-105.253	-99.314	-14.721	153.287	-99.788	-95.253	-94.304	-87.164	39.010	-89.992	-8191	255	
14861.013	1	1	0	0	0.18863	0.12569	0.16517	0.22851	0.20901	0.11029	0.18162	0.1358	0.10292	0.28027	0.13314	0.23077	0.067196	0.43317	0.22353	0.073812	-2.0187	-2.8229	-2.7687	-2.6208	-3.0812	-2.8042	-2.7167	-2.9104	-2.6875	-2.9188	-2.7313	-2.575	-3.0229	-2.7375	-2.4708	-2.9146	163.161	-27.014	213.960	183.056	195.350	173.960	-90.219	142.348	116.484	208.888	185.032	-91.943	97.073	211.941	-51.210	221.615	0.00081917	0.00043035	0.0005293	905.68	3.4155e-05	2.1611e-05	1131	190.4	2.1743e-06	3.66e-05	319.29	128.75	67.759	22.568	1.9426e-05	51.263	0.017579	0.019215	0.0053499	1278.2	0.00020601	0.00020851	1517.7	324.95	0.00020287	0.00020741	518.05	194.78	136.16	44.555	0.00020586	80.464	129.074	-16.499	-62.535	-105.033	232.765	26.237	-105.527	-99.080	-50.632	-51.329	-99.813	-95.605	-93.816	-88.196	235.623	-89.787	-8191	255	
#DATA ENDS
