BOXY.EXE: ISS Imagent and Oximeter Data Acquisition Program Version 0.80
Ascii Record File

#ACQ INFORMATION
2  Detector Channels 
16  External MUX Channels 
1  Auxiliary Channels 
5000  Waveform (CCF) Frequency (Hz)
1  Waveforms Skipped 
30  Waveforms Averaged 
1  Cycles Averaged 
16  Acquisitions per Waveform 
10.0806  Updata Rate (Hz) 

#FILE INFORMATION
TRUE -- External MUX Channel results are PARSED.
FALSE -- AC DC and Phase are NOT grouped.
TRUE -- Companion Program Settings File CREATED.
FALSE -- AC data not excluded
FALSE -- DC data not excluded
FALSE -- Phase data not excluded
FALSE -- Auxillary Chn. data not excluded
Tab delimiters

#CALIBRATION STATE
TRUE -- Waveform Calibration Values APPLIED.


#AUX CALIBRATION VALUES
Val Type	aux-1	

Term	1.0000e+00	
Factor	0.0000e+00	


#WF CALIBRATION VALUES
A = Detector Channel
Val Type	A-AC1	A-AC2	A-AC3	A-AC4	A-AC5	A-AC6	A-AC7	A-AC8	A-AC9	A-AC10	A-AC11	A-AC12	A-AC13	A-AC14	A-AC15	A-AC16	A-DC1	A-DC2	A-DC3	A-DC4	A-DC5	A-DC6	A-DC7	A-DC8	A-DC9	A-DC10	A-DC11	A-DC12	A-DC13	A-DC14	A-DC15	A-DC16	A-Ph1	A-Ph2	A-Ph3	A-Ph4	A-Ph5	A-Ph6	A-Ph7	A-Ph8	A-Ph9	A-Ph10	A-Ph11	A-Ph12	A-Ph13	A-Ph14	A-Ph15	A-Ph16	

Term	0.00000e+00	0.00000e+00	0.00000e+00	0.00000e+00	0.00000e+00	0.00000e+00	0.00000e+00	0.00000e+00	0.00000e+00	0.00000e+00	0.00000e+00	0.00000e+00	0.00000e+00	0.00000e+00	0.00000e+00	0.00000e+00	0.00000e+00	0.00000e+00	0.00000e+00	0.00000e+00	0.00000e+00	0.00000e+00	0.00000e+00	0.00000e+00	0.00000e+00	0.00000e+00	0.00000e+00	0.00000e+00	0.00000e+00	0.00000e+00	0.00000e+00	0.00000e+00	0.00000e+00	0.00000e+00	0.00000e+00	0.00000e+00	0.00000e+00	0.00000e+00	0.00000e+00	0.00000e+00	0.00000e+00	0.00000e+00	0.00000e+00	0.00000e+00	0.00000e+00	0.00000e+00	0.00000e+00	0.00000e+00	
Factor	1.00000e+00	1.00000e+00	1.00000e+00	1.00000e+00	1.00000e+00	1.00000e+00	1.00000e+00	1.00000e+00	1.00000e+00	1.00000e+00	1.00000e+00	1.00000e+00	1.00000e+00	1.00000e+00	1.00000e+00	1.00000e+00	1.00000e+00	1.00000e+00	1.00000e+00	1.00000e+00	1.00000e+00	1.00000e+00	1.00000e+00	1.00000e+00	1.00000e+00	1.00000e+00	1.00000e+00	1.00000e+00	1.00000e+00	1.00000e+00	1.00000e+00	1.00000e+00	X	X	X	X	X	X	X	X	X	X	X	X	X	X	X	X	

B = Detector Channel
Val Type	B-AC1	B-AC2	B-AC3	B-AC4	B-AC5	B-AC6	B-AC7	B-AC8	B-AC9	B-AC10	B-AC11	B-AC12	B-AC13	B-AC14	B-AC15	B-AC16	B-DC1	B-DC2	B-DC3	B-DC4	B-DC5	B-DC6	B-DC7	B-DC8	B-DC9	B-DC10	B-DC11	B-DC12	B-DC13	B-DC14	B-DC15	B-DC16	B-Ph1	B-Ph2	B-Ph3	B-Ph4	B-Ph5	B-Ph6	B-Ph7	B-Ph8	B-Ph9	B-Ph10	B-Ph11	B-Ph12	B-Ph13	B-Ph14	B-Ph15	B-Ph16	

Term	0.00000e+00	0.00000e+00	0.00000e+00	0.00000e+00	0.00000e+00	0.00000e+00	0.00000e+00	0.00000e+00	0.00000e+00	0.00000e+00	0.00000e+00	0.00000e+00	0.00000e+00	0.00000e+00	0.00000e+00	0.00000e+00	0.00000e+00	0.00000e+00	0.00000e+00	0.00000e+00	0.00000e+00	0.00000e+00	0.00000e+00	0.00000e+00	0.00000e+00	0.00000e+00	0.00000e+00	0.00000e+00	0.00000e+00	0.00000e+00	0.00000e+00	0.00000e+00	8.11284e+01	-1.20153e+02	-1.26350e+02	-1.81567e+02	-8.84902e+01	-8.40959e+01	-1.56561e+02	-1.62015e+02	-9.69263e+01	-8.38922e+01	-1.71055e+02	-1.71474e+02	-1.84436e+02	-1.76931e+02	-7.91405e+01	-1.49939e+02	
Factor	6.50912e-05	1.46992e-04	3.41674e-05	2.12455e-01	1.30598e-06	1.78741e-06	1.67938e-01	5.12696e-02	2.14687e-06	1.52923e-06	8.73862e-02	3.30830e-02	4.09064e-02	9.26272e-03	1.52222e-06	1.33558e-02	1.62652e-06	1.68806e-06	4.69002e-07	1.07451e-01	1.84094e-08	1.85136e-08	8.01808e-02	2.60849e-02	1.83594e-08	1.85120e-08	4.27707e-02	1.61030e-02	2.01847e-02	4.70032e-03	1.84195e-08	6.52597e-03	X	X	X	X	X	X	X	X	X	X	X	X	X	X	X	X	



#DISTANCE SETTINGS
A = Detector Channel
A-1	A-2	A-3	A-4	A-5	A-6	A-7	A-8	A-9	A-10	A-11	A-12	A-13	A-14	A-15	A-16	

2.5000e+00	3.0000e+00	2.5000e+00	3.0000e+00	2.0000e+00	3.0000e+00	1.5000e+00	3.0000e+00	3.0000e+00	3.0000e+00	3.0000e+00	3.0000e+00	3.0000e+00	3.0000e+00	1.5000e+00	3.0000e+00	

B = Detector Channel
B-1	B-2	B-3	B-4	B-5	B-6	B-7	B-8	B-9	B-10	B-11	B-12	B-13	B-14	B-15	B-16	

1.0000e+01	1.0000e+01	1.0000e+01	1.4400e+00	1.0000e+01	1.0000e+01	1.5100e+00	1.9400e+00	1.0000e+01	1.0000e+01	1.9900e+00	2.4900e+00	2.4100e+00	2.9000e+00	1.0000e+01	2.9800e+00	




#DATA BEGINS
time	group	step	mark	flag	A-AC1	A-AC2	A-AC3	A-AC4	A-AC5	A-AC6	A-AC7	A-AC8	A-AC9	A-AC10	A-AC11	A-AC12	A-AC13	A-AC14	A-AC15	A-AC16	A-DC1	A-DC2	A-DC3	A-DC4	A-DC5	A-DC6	A-DC7	A-DC8	A-DC9	A-DC10	A-DC11	A-DC12	A-DC13	A-DC14	A-DC15	A-DC16	A-Ph1	A-Ph2	A-Ph3	A-Ph4	A-Ph5	A-Ph6	A-Ph7	A-Ph8	A-Ph9	A-Ph10	A-Ph11	A-Ph12	A-Ph13	A-Ph14	A-Ph15	A-Ph16	B-AC1	B-AC2	B-AC3	B-AC4	B-AC5	B-AC6	B-AC7	B-AC8	B-AC9	B-AC10	B-AC11	B-AC12	B-AC13	B-AC14	B-AC15	B-AC16	B-DC1	B-DC2	B-DC3	B-DC4	B-DC5	B-DC6	B-DC7	B-DC8	B-DC9	B-DC10	B-DC11	B-DC12	B-DC13	B-DC14	B-DC15	B-DC16	B-Ph1	B-Ph2	B-Ph3	B-Ph4	B-Ph5	B-Ph6	B-Ph7	B-Ph8	B-Ph9	B-Ph10	B-Ph11	B-Ph12	B-Ph13	B-Ph14	B-Ph15	B-Ph16	aux-1	digaux	

706.026	1	1	0	256	0.29456	0.089644	0.014268	0.20268	0.088436	0.22551	0.057605	0.26287	0.066377	0.3119	0.14771	0.24331	0.2141	0.18856	0.055504	0.2598	-2.4604	-3.2271	-2.8979	-2.9313	-3.1292	-2.9771	-3.3312	-3.1646	-2.5917	-3.2458	-2.9938	-2.9042	-3.1667	-2.7583	-2.9521	-3.0729	231.722	441.571	308.544	292.608	282.261	495.436	369.151	351.860	377.951	467.869	361.359	200.518	337.486	217.699	367.133	399.462	0.0009217	0.00060012	2.9791e-05	1081.6	2.2537e-06	7.7115e-06	1179.5	222.68	4.2232e-06	3.901e-06	280.75	80.024	64.262	17.858	4.8424e-06	24.759	0.00017069	0.00015877	4.5083e-05	1062.4	1.7784e-06	1.7667e-06	1163.6	221.12	1.8497e-06	1.8152e-06	278.92	79.4	62.87	18.171	1.8659e-06	25.273	408.521	199.536	237.050	150.808	254.304	300.846	150.652	158.441	223.763	246.692	157.821	164.637	164.726	171.969	257.980	171.664	-8191	255	
706.122	1	1	0	0	0.087372	0.11825	0.19106	0.19241	0.058893	0.0835	0.43211	0.41278	0.28209	0.053081	0.1104	0.086232	0.24136	0.14962	0.15493	0.20318	-2.3187	-2.9979	-2.825	-2.8625	-3.1437	-2.8854	-3.0333	-3.2	-2.6146	-3.0208	-2.9813	-2.9229	-3.0583	-2.8458	-2.9208	-3.2417	401.741	158.476	483.617	459.689	366.322	368.121	395.976	447.926	460.796	387.269	458.206	258.695	431.223	487.193	373.314	154.199	0.00092371	6.9429e-05	5.896e-05	1077.7	1.7136e-06	3.9877e-06	1176.9	223.16	1.425e-06	4.1288e-06	282.07	80.181	63.573	17.973	2.5561e-06	25.036	0.00018538	0.00016943	4.7308e-05	1066.2	1.8444e-06	1.8571e-06	1169	222.14	1.7836e-06	1.7663e-06	280.25	79.595	62.81	18.183	1.69e-06	25.355	392.110	265.415	222.170	150.667	300.914	331.050	150.551	158.208	221.059	258.454	157.728	164.472	164.815	172.509	199.150	171.632	-8191	255	
706.243	1	1	0	0	0.30223	0.073204	0.099336	0.096937	0.20187	0.19482	0.084196	0.14363	0.31249	0.06932	0.28819	0.19008	0.10144	0.12535	0.32436	0.22367	-2.4354	-3.0417	-3.0521	-2.8271	-3.3146	-2.8542	-3.1417	-3.2104	-2.6667	-3.0354	-2.8958	-2.6667	-3.2292	-3.0229	-2.9771	-3.1479	241.516	202.949	429.964	467.199	212.681	301.192	438.983	343.700	402.988	231.416	459.630	266.179	367.764	475.699	295.671	380.799	0.0011509	0.00039402	0.00010559	1090	5.5458e-06	1.5891e-06	1185.9	224.45	7.778e-06	3.7091e-06	281.72	79.616	63.363	17.884	4.4225e-06	24.967	0.00016905	0.00015797	4.2809e-05	1073.7	1.7172e-06	1.7448e-06	1173.3	222.67	1.7895e-06	1.7913e-06	280.66	79.417	62.902	18.203	1.8895e-06	25.418	401.103	208.982	232.068	150.564	270.363	405.351	150.337	158.441	240.261	277.046	157.680	164.408	164.750	172.569	319.444	171.179	-8191	255	
706.339	1	1	0	0	0.19241	0.13468	0.20762	0.13463	0.1049	0.1041	0.2103	0.27008	0.090256	0.12121	0.10232	0.20279	0.05483	0.30781	0.12314	0.16098	-2.2271	-3.0708	-3.0458	-2.6937	-3.1125	-2.8375	-2.8688	-3.1	-2.8563	-3.0729	-3.0667	-2.9229	-3.1375	-2.8625	-2.9229	-3.1479	202.815	426.795	154.307	476.346	430.720	218.085	489.096	419.448	145.801	214.063	377.344	156.788	174.793	198.716	390.921	359.554	0.00098646	0.00038631	0.00012244	1092	7.0037e-07	3.4519e-06	1194.3	224.76	2.5842e-06	1.4301e-06	282.3	80.551	64.298	18.066	4.6758e-06	25.073	0.00018813	0.00018203	5.0845e-05	1082.8	2.0747e-06	2.1063e-06	1188.4	225.09	2.1907e-06	2.1832e-06	284.15	80.912	64.204	18.596	2.3168e-06	25.857	399.040	197.488	235.627	150.533	288.087	278.388	150.375	157.796	270.422	252.084	157.550	164.184	164.661	172.490	255.076	171.516	-8191	255	
706.435	1	1	0	0	0.087368	0.15269	0.27314	0.21821	0.1697	0.17387	0.19103	0.055664	0.2426	0.1286	0.19458	0.067401	0.11128	0.20827	0.042437	0.09015	-2.3771	-2.9833	-2.9854	-2.6708	-3.0625	-2.9604	-2.9979	-3.3646	-2.7542	-2.9333	-3.1292	-2.7667	-2.9562	-2.925	-2.6562	-3.1521	355.576	157.027	265.510	371.858	370.964	184.822	470.860	349.735	216.247	419.492	455.142	144.753	423.577	161.664	319.912	187.269	0.0011188	0.00055426	7.4571e-05	1110.1	3.6085e-06	3.7377e-06	1212.8	227.29	7.115e-06	6.9356e-06	287.62	81.64	65.097	18.258	3.106e-06	25.24	0.00022609	0.00021167	6.0257e-05	1104.6	2.3475e-06	2.3627e-06	1210.2	228.08	2.384e-06	2.3442e-06	287.23	81.842	64.998	18.738	2.3336e-06	25.941	400.806	265.025	184.771	150.706	249.947	224.484	150.437	157.802	224.071	320.563	157.495	164.172	164.015	171.995	269.482	171.419	-8191	255	
706.531	1	1	0	0	0.38309	0.1083	0.10896	0.24033	0.053213	0.1255	0.17412	0.15241	0.12853	0.11455	0.21526	0.17639	0.057209	0.072124	0.1309	0.10316	-2.2542	-3.0396	-2.9979	-2.825	-3.0208	-3.2479	-2.8208	-3.3104	-2.8333	-2.9938	-3.2229	-2.5438	-3.0354	-3.1958	-2.7083	-3.1562	498.193	235.828	340.990	382.405	445.021	245.119	351.221	199.435	369.784	343.146	460.610	488.340	482.341	497.626	153.447	492.228	0.00099404	0.00027	7.9099e-05	1118.7	1.6353e-06	1.9084e-06	1217.5	228.03	4.4114e-06	2.7559e-06	286.8	82.037	65.407	18.392	4.0375e-06	25.289	0.00022002	0.00020534	5.6255e-05	1110.7	2.2265e-06	2.2109e-06	1212.6	228.81	2.217e-06	2.1758e-06	288.01	81.735	64.958	18.712	2.1403e-06	25.881	405.338	247.610	211.604	150.513	497.051	169.724	150.343	157.958	239.737	267.032	157.670	164.131	164.171	172.152	367.551	171.454	-8191	255	
706.627	1	1	0	0	0.16224	0.17401	0.15397	0.33324	0.19472	0.34906	0.038234	0.35257	0.12488	0.065159	0.15706	0.34331	0.23488	0.048802	0.12441	0.084776	-2.55	-2.825	-3.1625	-2.8875	-3.0104	-3.0208	-2.8667	-3.2917	-2.8	-2.8917	-3.2562	-2.9437	-2.9479	-3.25	-2.6729	-3.0917	452.249	372.613	369.774	406.767	474.628	499.511	364.246	446.599	333.442	299.931	315.003	454.058	220.210	493.100	373.656	302.059	0.0010948	0.00011693	0.00012406	1118.8	2.8905e-06	5.7384e-06	1224.3	228.17	1.1675e-05	4.3727e-06	287.95	82.159	65.351	18.333	3.7624e-06	25.258	0.00020388	0.00019336	5.3753e-05	1111.3	2.1327e-06	2.0992e-06	1215.9	228.94	2.1339e-06	2.099e-06	288.15	82.091	64.859	18.699	2.0908e-06	25.901	386.823	221.202	272.309	150.427	288.188	298.564	150.208	157.822	295.504	334.826	157.450	164.186	164.604	171.929	255.507	171.351	-8191	255	
706.722	1	1	0	0	0.20561	0.050161	0.034449	0.24203	0.19629	0.24556	0.22053	0.13628	0.16267	0.23076	0.20311	0.12878	0.066257	0.174	0.078075	0.15024	-2.4229	-2.7708	-3.2167	-3.0792	-2.9354	-3.1333	-2.8896	-3.0667	-2.9333	-2.9188	-3.2333	-3.0417	-2.8854	-3.1479	-2.8458	-2.9792	175.906	388.877	148.471	161.959	226.291	447.239	474.536	496.008	395.540	272.697	457.540	420.986	415.938	459.627	217.217	485.087	0.00084462	0.00013533	8.3072e-06	1128.4	3.5437e-06	3.2128e-06	1226.9	228.65	1.1743e-05	2.0411e-06	288.02	81.245	65.523	18.241	2.8716e-06	25.159	0.00019832	0.00018862	5.2189e-05	1115.8	2.0918e-06	2.0575e-06	1218.2	228.82	2.0491e-06	2.0793e-06	287.85	81.74	65.079	18.65	2.1399e-06	25.858	386.056	302.122	373.413	150.392	207.275	329.250	150.112	157.657	287.376	223.961	157.625	164.505	164.277	172.163	302.843	171.263	-8191	255	
706.820	1	1	0	0	0.096595	0.068488	0.23796	0.28496	0.22575	0.15633	0.32526	0.24179	0.27796	0.14187	0.21975	0.10805	0.06869	0.24809	0.024427	0.21501	-2.6688	-2.6312	-3.2125	-2.9146	-2.9521	-3.1562	-2.8229	-3.1521	-2.9562	-2.8187	-3.2229	-2.9229	-2.9313	-2.9208	-2.6125	-3.0646	310.313	364.389	171.738	458.685	182.640	326.497	446.740	433.649	298.681	410.809	480.077	335.940	479.746	248.512	353.007	407.736	0.00092051	0.00043621	5.4191e-05	1121.7	3.3061e-06	1.6884e-06	1218.4	229.72	5.3189e-06	1.9096e-06	287.33	81.79	65.209	18.272	2.6045e-06	25.324	0.00020325	0.00019209	5.3253e-05	1112	2.1645e-06	2.156e-06	1216	229.06	2.1724e-06	2.169e-06	288.18	81.916	65.018	18.732	2.1483e-06	25.893	388.946	204.097	220.957	150.194	266.955	289.353	150.267	157.909	226.243	309.579	157.429	164.175	164.333	171.993	206.828	171.415	-8191	255	
706.938	1	1	0	0	0.20083	0.16765	0.12331	0.30186	0.06402	0.28468	0.063005	0.11663	0.14774	0.16506	0.24172	0.045788	0.22529	0.14981	0.026719	0.15763	-2.6542	-2.7938	-3.0542	-3.0021	-2.7833	-3.2354	-2.9458	-3.1604	-3.1646	-2.7125	-3.1896	-2.9979	-2.8625	-3.1979	-2.8396	-3.0458	254.515	426.374	288.023	446.554	288.304	442.859	455.221	189.768	193.757	345.991	486.187	283.847	161.661	338.620	164.378	309.117	0.0010378	0.00021367	0.00011903	1124.4	2.3964e-06	2.5073e-06	1223.6	228.14	8.799e-06	6.7372e-06	288.05	81.662	64.974	18.361	1.7463e-06	25.338	0.00020796	0.00019385	5.3349e-05	1115.3	2.1297e-06	2.0636e-06	1215.5	228.78	2.0644e-06	2.0479e-06	287.93	81.796	64.814	18.689	1.9614e-06	25.834	396.958	327.661	267.912	150.382	319.293	495.602	150.253	157.864	274.052	222.059	157.506	164.249	164.424	172.098	221.110	171.571	-8191	255	
707.035	1	1	0	0	0.047987	0.073862	0.15335	0.35171	0.07206	0.12563	0.32159	0.077811	0.084965	0.28397	0.1441	0.12953	0.11482	0.31973	0.069406	0.078573	-2.4583	-2.7208	-2.9896	-3.025	-2.8438	-3.0938	-2.9792	-2.9917	-2.9479	-2.6479	-3.2708	-3.1021	-2.8125	-3.1417	-2.9854	-2.8625	397.015	443.966	191.304	147.898	481.348	334.810	442.397	434.955	155.345	438.115	442.005	176.333	415.993	167.075	167.401	477.264	0.00085786	0.00018179	8.1744e-05	1118	7.0959e-06	5.3963e-06	1218.1	228.03	1.4489e-05	2.7148e-06	287.82	81.689	65.228	18.017	3.6074e-06	25.109	0.00018823	0.00018036	5.0484e-05	1108.6	1.9769e-06	1.8876e-06	1211.7	228.34	1.9128e-06	1.9412e-06	287.85	81.581	64.609	18.505	1.9156e-06	25.701	412.411	497.483	222.674	150.613	259.678	271.312	150.253	158.044	279.336	310.826	157.451	164.604	163.998	172.353	236.184	171.738	-8191	255	
707.131	1	1	0	0	0.004817	0.22531	0.12854	0.15532	0.027595	0.25294	0.33732	0.099869	0.22236	0.27138	0.19808	0.13406	0.20836	0.2541	0.12133	0.17215	-2.8625	-2.6396	-3.1146	-3.2479	-2.7125	-3.3083	-3.0646	-2.975	-3.125	-2.7979	-3.1083	-3.0375	-2.7354	-3.2438	-2.9667	-2.8812	143.040	443.387	360.671	190.629	191.517	350.538	407.116	383.612	458.048	220.419	149.513	336.051	420.152	185.498	478.900	329.092	0.00097264	0.00038075	6.2345e-05	1117.2	2.3199e-06	7.6717e-06	1211.7	228.61	2.264e-06	3.7359e-06	286.52	81.332	65.017	17.966	2.9717e-06	25.241	0.00018246	0.00017378	4.8273e-05	1108.3	1.9606e-06	1.8731e-06	1208.9	227.9	1.9734e-06	1.9612e-06	287.35	81.393	64.563	18.536	2.028e-06	25.817	402.289	249.724	229.935	150.527	225.216	273.153	150.352	157.745	237.701	233.207	157.756	163.941	164.313	171.999	320.567	171.467	-8191	255	
707.202	1	1	0	0	0.1528	0.37623	0.18412	0.13187	0.19663	0.24848	0.2733	0.010186	0.034374	0.35582	0.30517	0.049238	0.088973	0.065479	0.063065	0.22825	-2.7354	-2.7667	-2.8563	-3.1979	-2.7021	-3.1333	-3.1708	-2.7667	-3.2167	-2.8833	-3.0958	-3.3354	-2.8521	-3.2146	-3.0333	-2.8792	235.069	348.288	240.955	488.117	278.474	448.800	447.616	432.628	397.904	153.133	168.891	151.671	240.042	159.750	224.756	149.961	0.00093893	0.00021174	0.00010821	1116.7	5.7576e-06	5.6109e-06	1217.5	228.19	5.7395e-06	2.706e-06	286.55	81.958	64.945	18.203	4.077e-06	25.148	0.00020275	0.00019277	5.3343e-05	1108.4	2.1379e-06	2.0645e-06	1211.1	228.44	2.0807e-06	2.0405e-06	287.36	81.552	64.59	18.589	1.9634e-06	25.783	400.697	241.232	239.426	150.528	263.397	249.533	150.261	157.967	209.893	267.282	157.447	164.226	164.523	172.218	247.117	170.764	-8191	255	
707.323	1	1	0	0	0.21233	0.18756	0.1402	0.10129	0.23047	0.17984	0.1569	0.12937	0.085491	0.10962	0.010058	0.14403	0.24779	0.23435	0.18999	0.10452	-2.7833	-2.8937	-2.9146	-3.1813	-2.775	-3.1646	-3.2396	-2.8083	-3.2167	-3.0062	-2.8812	-3.1833	-2.8771	-2.9979	-3.1479	-2.8063	335.636	490.525	456.011	345.871	218.937	180.741	342.720	454.213	250.588	413.927	467.267	410.212	401.907	193.235	457.087	357.730	0.00097482	0.00020024	8.1562e-05	1127	9.4493e-07	5.2307e-06	1215.5	226.82	4.7489e-06	2.999e-06	286.45	81.356	65.473	17.847	2.2175e-06	25.351	0.00018837	0.00017254	4.8251e-05	1111.9	1.9103e-06	1.8683e-06	1209.2	227.91	1.8773e-06	1.862e-06	286.67	81.21	64.605	18.445	1.8994e-06	25.747	400.357	154.626	221.474	150.347	178.935	272.258	150.040	158.047	218.580	299.781	157.609	164.141	164.694	171.803	257.443	171.265	-8191	255	
707.419	1	1	0	0	0.096195	0.26279	0.14772	0.14427	0.28994	0.013315	0.219	0.12435	0.053701	0.20801	0.35998	0.22022	0.18058	0.23699	0.083375	0.2828	-2.7521	-2.8125	-2.8417	-3.3667	-2.7687	-3.0104	-3.35	-2.8312	-3.1437	-2.8979	-2.6229	-3.2083	-2.9208	-2.9521	-3.0521	-2.6396	211.964	484.356	220.689	454.101	199.552	446.357	415.801	217.317	188.358	440.093	190.600	410.756	267.117	410.174	357.369	157.740	0.0011665	0.00031397	8.234e-05	1118.3	3.7128e-06	1.7359e-06	1216.5	229.09	2.1284e-06	5.3408e-06	287.9	81.716	65.16	18.231	2.5746e-06	25.218	0.00018634	0.00017768	5.0431e-05	1108.1	2.0323e-06	2.0333e-06	1209.7	228.58	2.1396e-06	2.1197e-06	287.47	81.507	64.828	18.618	2.167e-06	25.836	400.598	160.839	235.117	150.485	219.072	262.113	150.590	157.966	317.356	332.816	157.528	164.368	164.453	172.221	419.199	171.517	-8191	255	
707.515	1	1	0	0	0.013246	0.1024	0.1088	0.25631	0.16108	0.087469	0.22102	0.14005	0.17157	0.30574	0.13837	0.10469	0.18413	0.083599	0.050911	0.15758	-2.55	-3.1104	-2.8854	-3.3229	-2.8042	-2.7958	-3.4771	-2.8479	-3.0125	-2.8854	-2.6208	-3.3229	-2.7208	-2.9583	-3.0646	-2.7479	420.855	226.353	225.815	493.522	435.332	216.703	460.434	465.820	495.450	237.510	372.141	470.215	283.484	283.231	162.757	301.082	0.00090588	0.00034679	8.8689e-05	1120.7	3.2917e-06	3.5001e-06	1215.6	228.72	4.2031e-07	4.1613e-06	288.06	82.062	65.704	18.055	5.0281e-06	25.297	0.00020897	0.00020304	5.5981e-05	1112.3	2.2056e-06	2.1735e-06	1214	228.73	2.1777e-06	2.1254e-06	288.46	81.756	64.887	18.577	2.0967e-06	25.824	391.160	241.543	191.280	150.305	267.038	231.371	150.302	157.780	289.365	324.383	157.436	164.349	164.285	172.199	291.604	171.065	-8191	255	
707.612	1	1	0	0	0.16137	0.19389	0.1659	0.070586	0.27193	0.064616	0.23605	0.28669	0.21466	0.30649	0.10884	0.2679	0.23951	0.067771	0.093504	0.27088	-2.4521	-3.075	-2.8312	-3.1458	-2.8729	-2.9813	-3.3958	-2.675	-3.0375	-3.0396	-2.8042	-3.0687	-2.9104	-2.95	-3.0292	-2.7854	250.136	445.525	280.193	428.622	379.089	480.860	449.846	149.370	169.301	287.650	411.221	157.002	452.019	208.362	316.973	435.996	0.00096645	0.00015835	4.8102e-05	1125	3.7306e-06	4.3126e-06	1220.1	227.89	8.3339e-06	4.1123e-06	286.87	81.609	65.888	18.021	3.447e-06	25.203	0.00020016	0.00018585	5.1834e-05	1114.9	2.0233e-06	2.0081e-06	1213.4	228.53	2.0148e-06	2.0164e-06	287.57	81.726	65.117	18.504	2.0029e-06	25.782	405.409	208.051	262.781	150.571	307.663	267.642	150.139	157.729	247.834	170.584	157.658	164.327	164.144	172.630	299.555	171.017	-8191	255	
707.730	1	1	0	0	0.1104	0.20806	0.017363	0.032872	0.33934	0.16073	0.36003	0.13781	0.26441	0.050754	0.13372	0.17557	0.14856	0.11409	0.1626	0.20246	-2.7042	-2.9354	-2.6271	-3.3458	-2.6979	-2.7438	-3.2188	-2.8812	-2.9521	-2.9833	-2.6542	-3.2083	-3.0625	-2.9021	-3.2438	-2.925	353.235	141.530	143.710	195.576	498.703	419.973	478.531	158.862	280.659	374.540	291.851	215.754	205.069	333.490	446.736	443.858	0.0009858	0.0002989	8.3587e-05	1122.1	4.7096e-06	3.583e-06	1223	227.97	7.6729e-06	3.8692e-07	289.35	81.596	65.555	18.142	3.1214e-06	25.208	0.00019354	0.00018424	5.1288e-05	1113.5	2.083e-06	2.0594e-06	1215.8	228.32	2.0769e-06	2.1011e-06	288.51	81.58	64.864	18.575	2.1656e-06	25.823	404.317	317.904	260.559	150.680	321.169	349.829	150.227	157.917	253.794	319.092	157.643	164.255	164.428	172.056	327.070	171.442	-8191	255	
707.804	1	1	0	0	0.18677	0.101	0.18697	0.131	0.10472	0.093117	0.066425	0.25645	0.13076	0.40892	0.13461	0.37311	0.18662	0.22767	0.28609	0.14923	-2.6937	-3.1417	-2.5833	-3.2458	-3.0812	-2.7333	-3.2042	-3.1813	-2.7354	-3.1292	-2.8396	-3.0896	-2.9333	-2.7208	-3.1146	-2.9833	341.652	253.330	404.566	461.348	296.759	140.124	360.487	389.018	304.866	163.699	177.692	431.137	406.416	496.021	418.508	232.181	0.0011732	0.00017472	3.1618e-05	1126.5	6.1328e-06	2.7615e-06	1221.9	230.68	8.645e-06	2.5119e-06	288.24	81.558	65.369	18.271	1.7957e-06	25.109	0.00020958	0.00019715	5.4582e-05	1116.8	2.1348e-06	2.095e-06	1218.6	229.52	2.0701e-06	2.063e-06	287.83	81.715	64.956	18.635	2.0134e-06	25.748	398.230	182.754	211.291	150.558	238.708	241.311	150.456	157.938	239.842	270.705	157.411	164.133	164.681	171.685	250.688	171.199	-8191	255	
707.923	1	1	0	0	0.15559	0.26824	0.12484	0.12752	0.097372	0.23179	0.30393	0.0938	0.13592	0.20111	0.071174	0.087918	0.18856	0.035594	0.23417	0.15668	-2.5167	-3.2083	-2.7667	-3.0938	-3.0917	-2.5771	-3.2438	-2.8812	-2.7854	-3.2042	-2.8875	-3.0396	-3.1292	-2.7062	-3.1583	-2.975	210.552	345.892	365.988	153.549	350.226	391.623	447.253	487.671	252.108	338.292	330.889	357.758	169.881	480.910	426.739	340.757	0.0010018	0.00030575	9.2788e-05	1126.5	6.6156e-06	1.4643e-06	1222.4	228.82	8.0659e-06	3.7376e-06	288.66	82.018	65.748	18.089	3.7861e-06	25.299	0.00019646	0.00018149	5.0693e-05	1115.3	2.0416e-06	1.9855e-06	1214.6	228.76	1.9849e-06	1.994e-06	288.1	81.648	64.999	18.568	1.9915e-06	25.881	398.847	283.313	234.411	150.446	321.799	250.946	150.116	158.114	263.702	386.384	157.739	164.406	164.187	172.041	252.029	171.412	-8191	255	
708.019	1	1	0	0	0.23821	0.1998	0.10296	0.040378	0.13236	0.057385	0.23325	0.11241	0.19615	0.17013	0.23383	0.092586	0.075368	0.15586	0.13448	0.16534	-2.2687	-3.2521	-2.5604	-3.0125	-2.9458	-2.8521	-3.1417	-2.8146	-2.8875	-3.1104	-2.9188	-3.0938	-3.1312	-2.8646	-3.0979	-3.0458	361.219	422.938	169.306	165.072	260.741	413.963	443.040	433.651	301.403	423.500	459.730	450.286	202.460	156.078	271.314	367.561	0.00099183	0.00031009	0.00013781	1122.7	5.5696e-06	2.1024e-06	1226	229.87	8.4211e-06	1.5526e-06	289.57	82.471	65.393	18.147	4.992e-06	25.203	0.00019995	0.00018844	5.2906e-05	1113	2.0984e-06	2.0967e-06	1215.5	229.07	2.1106e-06	2.0932e-06	288.58	81.825	64.953	18.576	2.1441e-06	25.803	412.037	324.061	197.542	150.581	235.634	294.969	150.221	157.838	249.168	219.949	157.509	163.786	164.380	172.315	315.433	171.019	-8191	255	
708.115	1	1	0	0	0.272	0.02951	0.18676	0.23428	0.18201	0.21242	0.34849	0.13368	0.12518	0.30363	0.16474	0.067362	0.11205	0.15815	0.19601	0.061726	-2.3354	-3.0333	-2.7604	-2.9896	-3.1292	-2.7438	-3.4479	-3.125	-2.6167	-2.9625	-3.0417	-2.8646	-3.2833	-2.7687	-3.0792	-3.0271	368.412	209.609	245.570	437.118	378.130	188.767	464.291	443.647	259.042	468.311	438.017	450.977	461.430	156.639	340.921	330.155	0.0010494	0.00063994	1.1284e-05	1125.6	5.9784e-06	5.8809e-06	1225.4	229.18	3.1307e-06	5.5556e-06	288.79	81.536	66.269	18.204	5.0256e-07	25.07	0.00020373	0.00019411	5.5074e-05	1114.8	2.1465e-06	2.1564e-06	1216.5	229.03	2.1696e-06	2.1174e-06	289.13	81.832	64.957	18.605	2.0504e-06	25.778	401.256	273.707	476.646	150.630	278.051	267.496	150.602	157.758	315.767	268.667	157.624	164.298	164.593	172.270	259.845	171.090	-8191	255	
708.211	1	1	0	0	0.10939	0.27161	0.12906	0.17421	0.050627	0.25567	0.3217	0.11115	0.064532	0.10663	0.081554	0.045614	0.056647	0.14518	0.20166	0.073478	-2.3187	-3.2188	-3.0583	-3.1167	-3.0479	-2.625	-3.1042	-3.1979	-2.825	-3.1229	-3.1771	-2.8729	-3.3083	-2.8104	-3.0667	-3.3667	373.094	242.043	225.671	387.194	304.677	462.709	467.613	215.684	213.795	362.732	186.732	263.106	473.707	386.241	477.122	352.286	0.00091164	0.00047318	0.00014064	1128.9	2.3574e-06	2.6903e-06	1222.6	228.39	6.6867e-06	1.3488e-06	287.68	82.405	65.486	18.233	4.2371e-06	25.129	0.00020535	0.00018652	5.2803e-05	1115.5	2.1366e-06	2.0834e-06	1215.9	229.02	2.1189e-06	2.0415e-06	287.95	82.021	64.854	18.596	2.1067e-06	25.811	401.126	291.352	205.464	150.489	354.677	202.667	150.387	157.799	236.266	259.315	157.537	164.510	164.249	171.757	278.019	171.212	-8191	255	
708.332	1	1	0	0	0.072699	0.24538	0.064514	0.12169	0.18919	0.21279	0.13259	0.03566	0.22494	0.20905	0.15315	0.077023	0.017265	0.3821	0.17258	0.16976	-2.0979	-2.9875	-3.1104	-2.7812	-3.2042	-2.8271	-3.2917	-3.2292	-2.6167	-3.0417	-3.1271	-2.6708	-3.0229	-2.8667	-2.9958	-3.2812	293.148	144.313	156.245	174.138	391.454	384.151	463.380	356.759	212.950	201.414	428.674	251.104	273.983	244.603	362.315	435.734	0.0010923	0.00011358	3.584e-05	1126.3	5.4997e-06	9.4193e-07	1224.1	228.97	1.2057e-06	3.6654e-06	288.13	81.699	65.471	17.967	6.2977e-06	25.198	0.00020209	0.00019247	5.2747e-05	1115	2.0546e-06	2.0903e-06	1217.3	229.08	2.1004e-06	2.0633e-06	288.09	81.744	65.005	18.541	2.1063e-06	25.804	393.297	274.038	269.883	150.316	268.425	361.317	150.277	157.698	304.232	379.267	157.863	164.393	164.076	171.674	277.135	171.078	-8191	255	
708.428	1	1	0	0	0.085219	0.36691	0.025477	0.032949	0.21886	0.11458	0.13962	0.35945	0.045193	0.044267	0.25387	0.13436	0.043252	0.17589	0.20426	0.14564	-2.3667	-3.0229	-3.0667	-2.625	-3.1625	-3.0604	-2.8479	-3.2729	-2.6583	-3.0062	-3.0542	-2.7042	-3.1896	-2.8125	-2.7146	-3.1979	235.727	411.708	436.393	293.631	334.824	231.896	454.988	472.493	394.086	264.194	398.146	339.711	319.642	161.305	292.843	411.218	0.0011727	0.00055285	0.00010303	1128.8	4.7137e-06	3.1292e-06	1225.1	230.42	1.1964e-05	4.5009e-06	290.22	81.804	65.549	18.224	3.7215e-06	25.256	0.0002025	0.00019313	5.3469e-05	1118.1	2.1172e-06	2.0897e-06	1218.7	229.66	2.1602e-06	2.0621e-06	289.09	82.029	65.001	18.636	2.0045e-06	25.761	398.508	210.402	278.134	150.783	242.292	189.487	150.301	158.020	239.420	281.077	157.530	164.339	164.198	172.263	280.485	171.279	-8191	255	
708.500	1	1	0	0	0.36302	0.2333	0.26052	0.067826	0.24888	0.16479	0.16773	0.35617	0.10739	0.10042	0.32289	0.28005	0.37131	0.081032	0.26998	0.3775	-2.3708	-2.9896	-3.0812	-2.6958	-3.2062	-3.0687	-3.0792	-3.2104	-2.8896	-2.9875	-3.1896	-2.6167	-3.0479	-2.9604	-2.8792	-3.0979	280.722	219.859	269.054	324.100	171.494	461.422	366.221	397.958	333.887	204.741	373.740	302.405	345.551	269.632	265.778	312.267	0.0010275	0.00013739	7.2315e-05	1130.7	6.7417e-06	4.231e-06	1226.3	228.93	4.8879e-06	6.6021e-06	287.99	81.476	65.404	18.245	3.9683e-07	25.245	0.00019351	0.00018671	5.1296e-05	1117.8	2.0372e-06	2.0177e-06	1218.3	228.82	2.0768e-06	2.0229e-06	288.73	81.597	64.951	18.582	2.0116e-06	25.759	399.492	216.264	182.294	150.449	258.633	291.248	150.275	158.101	256.261	285.885	157.698	164.344	164.352	171.805	350.424	171.095	-8191	255	
708.620	1	1	0	0	0.20459	0.20715	0.097834	0.25473	0.23032	0.22055	0.21548	0.18058	0.22725	0.24713	0.12267	0.10464	0.2621	0.20306	0.10237	0.16158	-2.4813	-2.775	-3.2208	-2.8333	-3.0187	-3.0729	-2.7458	-3.2333	-2.7125	-2.9625	-3.1958	-2.8667	-2.8688	-3.0292	-2.6688	-3.1646	242.610	444.212	414.853	487.107	365.094	242.729	433.339	466.741	382.969	320.372	378.101	234.063	399.454	178.824	390.511	163.009	0.00099067	0.00017211	9.1098e-05	1127.6	4.0384e-06	2.3184e-06	1227.6	229.71	6.0786e-06	2.1298e-06	287.84	82.366	65.204	18.229	3.9107e-06	25.387	0.00019203	0.00018153	5.0555e-05	1117.4	2.0062e-06	1.9669e-06	1218.7	229.01	2.0551e-06	2.0292e-06	288.77	81.937	64.986	18.609	2.0587e-06	25.869	400.666	217.347	173.181	150.485	263.970	494.344	150.318	157.725	285.443	305.265	157.622	164.033	164.351	172.723	268.590	171.642	-8191	255	
708.715	1	1	0	0	0.17635	0.099045	0.11356	0.32717	0.045957	0.11176	0.19916	0.10847	0.14545	0.19592	0.13268	0.16805	0.082371	0.015673	0.10037	0.13077	-2.5583	-2.8125	-3.0312	-2.8063	-3.0896	-3.0604	-2.7583	-3.3646	-2.8438	-2.7979	-3.2229	-2.9625	-3.0312	-3.1479	-2.8229	-3.1375	224.467	231.367	185.205	435.786	305.896	315.540	424.028	333.741	270.773	487.382	476.468	175.791	479.949	454.150	387.118	464.675	0.00087218	0.00026255	8.9318e-06	1132.3	2.8935e-06	3.431e-06	1230	229.15	2.3709e-06	4.1582e-06	288.18	81.933	66.18	18.387	4.0616e-06	25.38	0.00019513	0.00018858	5.2598e-05	1121.2	2.067e-06	2.0707e-06	1220.2	229.55	2.116e-06	2.0807e-06	288.59	82.181	65.303	18.682	2.1057e-06	25.86	394.392	239.391	415.567	150.508	207.520	261.004	150.292	157.833	306.820	306.691	157.747	164.178	164.464	171.464	233.760	171.273	-8191	255	
708.811	1	1	0	0	0.1444	0.051723	0.042472	0.13883	0.159	0.10342	0.19744	0.16053	0.063052	0.1156	0.15408	0.18249	0.14918	0.14355	0.16164	0.10812	-2.4979	-2.6479	-3.2708	-2.6625	-2.8208	-3.2875	-3.0146	-3.25	-2.9354	-2.7042	-3.2125	-2.7646	-2.7417	-3.0438	-2.8354	-2.9833	422.815	230.454	397.317	410.083	491.566	454.191	164.132	436.781	496.536	421.616	459.119	358.794	393.783	456.484	248.716	345.717	0.00094503	0.00027748	0.00018311	1130.7	5.1796e-06	3.7163e-06	1230.5	230.87	1.8862e-06	6.5353e-07	290.42	82.431	66.356	18.398	5.6571e-06	25.596	0.00020206	0.00019123	5.3085e-05	1121.7	2.1587e-06	2.1098e-06	1221.8	230.48	2.1575e-06	2.1658e-06	289.75	82.31	65.451	18.737	2.2009e-06	26.128	408.077	354.100	214.530	150.377	260.729	279.327	150.059	157.745	203.710	271.424	157.578	164.429	164.449	171.903	288.453	171.273	-8191	255	
708.907	1	1	0	0	0.06705	0.062595	0.15119	0.048993	0.21059	0.072947	0.025254	0.29688	0.13588	0.026909	0.076308	0.10579	0.1129	0.22385	0.13839	0.14387	-2.6896	-2.6688	-3.1125	-2.9437	-2.9917	-3.1896	-2.7687	-3.1063	-3.0146	-2.8458	-3.1771	-2.9229	-2.7521	-3.2792	-2.7188	-3.0687	428.637	170.227	342.414	498.006	233.969	371.289	441.973	423.835	352.718	394.982	392.490	236.566	292.596	494.042	340.099	377.331	0.00097993	0.00038181	7.3428e-05	1134.4	2.5127e-06	6.6644e-06	1230.3	231.03	4.3086e-06	8.4399e-06	291.14	82.461	66.46	18.48	4.1777e-06	25.493	0.00020849	0.00020195	5.469e-05	1125.2	2.2301e-06	2.1788e-06	1224.5	231.53	2.2542e-06	2.2097e-06	290.52	82.597	65.828	18.86	2.1601e-06	26.136	394.121	247.903	235.444	150.509	296.170	195.467	149.899	157.817	292.963	223.293	157.612	164.182	164.332	171.516	336.386	171.418	-8191	255	
709.028	1	1	0	0	0.35705	0.059856	0.08305	0.067237	0.12375	0.10004	0.27195	0.32918	0.21289	0.14295	0.11954	0.044236	0.11812	0.1077	0.09183	0.107	-2.8042	-2.8688	-2.8396	-2.9479	-2.7354	-2.9896	-2.9625	-3.0812	-2.9938	-2.5812	-3.2562	-3.0812	-2.6792	-3.1813	-2.7771	-2.9979	272.753	394.346	444.537	190.580	474.534	439.043	141.651	472.143	143.446	296.521	279.608	429.369	298.237	192.435	284.311	178.821	0.0013004	0.00021806	6.6756e-05	1136.9	2.8184e-06	3.829e-06	1236.5	233.07	1.5335e-06	2.9154e-06	292.37	82.828	66.465	18.416	5.779e-06	25.706	0.0002012	0.00019227	5.302e-05	1127.8	2.1112e-06	2.0694e-06	1228.6	232.4	2.0992e-06	2.0952e-06	290.6	82.756	65.938	18.885	2.161e-06	26.262	404.599	251.198	316.016	150.350	286.512	294.251	150.136	157.821	323.271	278.931	157.467	164.371	163.797	171.743	273.555	171.196	-8191	255	
709.099	1	1	0	0	0.13427	0.18519	0.25757	0.16781	0.1367	0.31377	0.16288	0.085136	0.22228	0.3238	0.16148	0.26939	0.096171	0.36414	0.21838	0.17216	-2.6875	-2.4688	-3.0333	-3.1521	-2.6229	-3.2062	-2.8708	-2.7958	-3.1479	-2.7583	-3.0896	-2.9146	-2.6208	-3.2271	-2.8792	-2.8229	210.584	224.341	144.190	169.133	450.430	179.667	324.295	154.637	246.282	358.864	338.504	475.131	406.773	474.610	263.444	158.028	0.00085201	0.00022906	7.0853e-05	1136.9	4.7104e-06	1.1645e-06	1228.1	233.74	5.0621e-06	1.2599e-06	292.03	82.256	65.958	18.364	2.4681e-06	25.667	0.00020374	0.0001947	5.4466e-05	1125.4	2.1803e-06	2.1578e-06	1225.6	233.01	2.1492e-06	2.128e-06	290.26	82.709	65.672	18.795	2.1751e-06	26.254	397.765	187.833	204.302	150.547	214.405	318.470	150.343	157.783	236.023	172.296	157.277	164.012	164.597	171.967	291.089	171.175	-8191	255	
709.195	1	1	0	0	0.072123	0.11869	0.10588	0.084283	0.17829	0.23878	0.25726	0.20021	0.40863	0.28112	0.047381	0.13682	0.18647	0.17809	0.058161	0.10653	-2.6479	-2.7208	-3.075	-3.15	-2.6229	-3.2729	-3.1271	-3.0583	-3.3167	-2.9021	-3.075	-3.0542	-3.0479	-3.1354	-2.8729	-2.9021	490.805	183.588	306.110	496.233	499.892	459.946	396.332	151.226	402.064	210.571	375.823	316.126	223.165	176.032	299.132	459.614	0.0010538	0.00052532	0.00010855	1143.7	5.0644e-06	1.7491e-06	1241.2	232.88	5.6782e-06	3.1768e-06	289.16	82.625	66.085	18.574	5.3859e-06	25.621	0.00020771	0.00019943	5.6314e-05	1129.1	2.2005e-06	2.1797e-06	1230.6	232.64	2.1914e-06	2.2003e-06	290.11	82.742	65.952	18.887	2.2275e-06	26.248	389.580	227.457	222.553	150.458	253.972	323.416	150.393	157.964	238.671	299.843	157.388	163.736	164.327	171.880	265.245	171.230	-8191	255	
709.292	1	1	0	0	0.17873	0.31555	0.16363	0.14154	0.21435	0.030479	0.20007	0.23082	0.073586	0.23404	0.17204	0.17777	0.28377	0.28712	0.064243	0.099195	-2.7229	-2.8021	-2.8667	-3.2188	-2.7958	-3.0896	-3.05	-2.8167	-3.1521	-3.0125	-2.9229	-3.1646	-2.6688	-3.1229	-2.9583	-2.7646	157.330	185.325	482.105	459.508	493.255	274.922	427.742	463.558	215.512	255.558	421.190	240.794	498.483	184.883	257.789	466.022	0.0010956	3.4392e-05	6.1834e-05	1137.7	2.1752e-06	5.8404e-06	1234	233	2.8544e-06	2.0402e-06	291.79	83.116	66.381	18.441	1.3171e-06	25.688	0.00021276	0.00020531	5.6607e-05	1127.7	2.218e-06	2.2536e-06	1229.2	233.19	2.2092e-06	2.1832e-06	290.81	82.983	65.921	18.96	2.1624e-06	26.249	397.685	267.107	272.654	150.412	266.509	308.116	150.070	157.850	261.040	327.365	157.498	164.367	164.339	172.283	280.729	171.104	-8191	255	
709.412	1	1	0	0	0.078756	0.22613	0.1915	0.065001	0.078563	0.26786	0.27589	0.18323	0.13799	0.34996	0.22592	0.15176	0.14419	0.27855	0.019348	0.18821	-2.7208	-2.8688	-2.8354	-3.0271	-2.6146	-3.0396	-3.2083	-2.8542	-3.1437	-2.725	-2.8479	-3.1125	-2.7375	-3.0521	-3.0271	-2.5687	344.701	297.563	179.417	424.508	432.464	387.454	464.583	360.852	195.031	303.966	416.750	181.748	143.213	146.060	140.600	348.603	0.0010359	0.00035424	9.5355e-05	1140.4	2.1206e-06	1.6581e-06	1235.9	233.45	2.3893e-06	2.0361e-06	290.52	83.446	66.121	18.421	4.3122e-06	25.605	0.00021029	0.00020083	5.5225e-05	1129.9	2.2398e-06	2.2246e-06	1228.2	233.09	2.1648e-06	2.1705e-06	290.81	83.022	65.986	18.877	2.2049e-06	26.196	396.689	200.451	197.125	150.292	237.154	274.242	150.150	157.636	220.960	259.251	157.416	164.365	164.342	171.990	257.102	171.283	-8191	255	
709.508	1	1	0	0	0.17368	0.020815	0.13616	0.27228	0.096109	0.10534	0.10154	0.1114	0.080755	0.24224	0.18123	0.18883	0.17291	0.23666	0.10035	0.28503	-2.6	-2.7062	-2.8729	-3.0062	-2.8271	-2.9104	-3.0833	-2.7854	-3.1333	-2.9562	-2.9146	-3.2812	-2.7167	-2.9667	-3.15	-2.8896	279.783	285.632	409.635	430.130	361.726	285.189	334.501	141.199	386.519	232.179	346.671	408.220	341.409	452.789	318.430	181.026	0.00085684	0.00055407	7.6275e-05	1142.1	3.2607e-06	4.8798e-06	1237.5	232.92	1.0493e-05	5.3709e-06	289.5	83.04	66.011	18.541	3.2903e-06	25.559	0.00021741	0.00020407	5.6998e-05	1130.1	2.2864e-06	2.2838e-06	1228.8	233.07	2.2777e-06	2.242e-06	290.24	83.044	65.975	18.961	2.246e-06	26.272	395.900	240.585	297.732	150.273	305.550	326.831	150.072	157.953	249.095	372.087	157.312	164.290	164.495	171.990	287.561	171.221	-8191	255	
709.604	1	1	0	0	0.10362	0.13713	0.052904	0.25331	0.15844	0.046075	0.18959	0.19556	0.13322	0.20935	0.05539	0.17793	0.18508	0.12507	0.19891	0.15482	-2.7604	-3.025	-2.6188	-3.3688	-2.8625	-2.8583	-3.1792	-2.8438	-3.0687	-2.9958	-2.8917	-3.1771	-2.7333	-2.8771	-3.0521	-2.6937	471.142	226.032	291.500	456.147	428.279	331.426	468.946	150.722	160.177	159.572	479.496	350.168	492.174	395.536	197.440	443.225	0.00098565	0.00045841	3.1087e-05	1140.3	2.9493e-06	2.9217e-06	1240.8	234.43	6.7227e-06	4.0332e-06	292.19	82.963	66.817	18.518	3.8322e-06	25.826	0.00021938	0.00020504	5.9177e-05	1130.8	2.3539e-06	2.39e-06	1231.3	233.44	2.3448e-06	2.2821e-06	291.56	83.219	66.08	18.933	2.2146e-06	26.28	403.239	228.456	203.630	150.600	225.819	256.500	150.100	157.920	274.441	245.663	157.608	164.222	164.090	172.068	312.601	171.275	-8191	255	
709.723	1	1	0	0	0.081966	0.28844	0.11323	0.24252	0.095687	0.098468	0.10185	0.29578	0.18384	0.14278	0.092657	0.051423	0.20393	0.13306	0.079208	0.1593	-2.7	-2.9375	-2.5875	-3.2917	-2.8125	-2.9	-3.3333	-2.9125	-3.1417	-2.9979	-2.8854	-3.0792	-2.9833	-2.7938	-3.1708	-2.7771	255.262	275.557	314.366	434.575	476.092	463.153	439.205	393.060	441.447	479.963	283.587	186.431	158.878	142.061	435.524	385.612	0.0012072	0.00036776	6.6635e-05	1136.1	3.5073e-06	4.7335e-06	1240.1	233.84	6.4983e-06	2.9658e-06	290.59	83.197	66.826	18.577	5.0387e-06	25.676	0.00021457	0.00020494	5.744e-05	1130.3	2.2419e-06	2.2644e-06	1229.7	233.79	2.2624e-06	2.2374e-06	291.42	83.043	66.21	18.998	2.1613e-06	26.255	398.212	201.206	295.493	150.297	205.222	190.105	149.920	157.850	226.857	275.521	157.356	164.102	163.999	171.965	273.840	170.981	-8191	255	
709.795	1	1	0	0	0.2466	0.1294	0.32074	0.23083	0.23192	0.13657	0.37251	0.1746	0.26834	0.28098	0.34312	0.14985	0.18403	0.18514	0.17565	0.11217	-2.6604	-3.1104	-2.7354	-3.4313	-2.9521	-2.5167	-3.3521	-2.8458	-2.9146	-3.0271	-2.7542	-3.0583	-3.1	-2.725	-3.2021	-2.85	299.678	481.524	218.593	481.704	452.952	372.234	496.692	446.870	477.351	393.560	427.768	403.195	457.726	473.043	141.411	142.722	0.00089254	0.0001659	9.9904e-05	1143.7	2.3765e-06	4.774e-06	1241.4	234.23	7.6964e-06	3.4979e-06	289.68	82.898	66.793	18.523	9.2894e-06	25.803	0.00021397	0.00020163	5.7002e-05	1131.6	2.2556e-06	2.2631e-06	1230.9	233.61	2.3022e-06	2.2234e-06	291.04	82.972	66.152	19.002	2.2891e-06	26.305	392.391	276.537	156.883	150.080	228.634	390.001	150.144	157.787	272.510	262.893	157.282	164.467	164.591	171.936	272.442	171.060	-8191	255	
709.893	1	1	0	0	0.23054	0.21551	0.091886	0.26396	0.068246	0.20918	0.21718	0.23085	0.27267	0.10914	0.18589	0.090262	0.10459	0.3451	0.2978	0.35766	-2.4271	-3.1833	-2.7875	-2.9792	-2.9688	-2.8396	-3.3958	-2.9625	-2.9313	-3.0917	-3.0146	-3.1417	-3.0229	-2.9167	-3.3688	-2.9875	360.233	428.450	301.693	479.270	461.434	153.398	455.806	279.576	400.178	408.357	395.557	365.639	325.111	491.951	150.053	413.866	0.00084517	0.00026831	1.6521e-05	1137	1.9903e-06	2.265e-06	1238.8	234.22	1.478e-06	1.627e-06	290.5	82.574	66.668	18.603	1.9557e-06	25.659	0.00021566	0.00020353	5.6294e-05	1130.1	2.2362e-06	2.2078e-06	1230	233.99	2.2309e-06	2.1756e-06	290.43	82.867	66.033	19.045	2.18e-06	26.255	399.934	260.620	218.725	150.247	297.778	353.278	150.096	157.942	277.630	307.559	157.466	164.406	164.314	171.934	248.120	171.515	-8191	255	
710.012	1	1	0	0	0.19977	0.075405	0.36773	0.24765	0.23064	0.23187	0.061821	0.36112	0.10241	0.37251	0.31096	0.19879	0.20421	0.0080552	0.18484	0.17433	-2.5229	-3.3771	-2.8375	-3.1063	-3.1375	-2.7354	-3.2875	-2.9604	-2.8958	-3.2958	-2.8146	-3.0521	-3.1063	-2.8563	-3.0104	-3.0083	464.416	396.268	349.565	168.379	270.037	289.234	499.717	423.445	226.807	483.170	436.607	406.829	445.388	484.400	480.231	192.089	0.0011637	0.00047003	0.00011388	1143.3	2.9757e-06	1.0399e-05	1239.6	233.98	1.1834e-05	1.2337e-07	292.47	82.848	66.586	18.497	3.4804e-06	25.849	0.00020678	0.00019062	5.212e-05	1130.4	2.0662e-06	1.9554e-06	1229.1	233.5	1.9547e-06	1.9107e-06	290.53	82.818	65.671	18.92	1.9653e-06	26.194	399.834	175.606	221.730	150.202	286.427	251.996	150.132	157.928	247.597	267.658	157.535	164.187	164.064	171.733	188.615	171.081	-8191	255	
710.108	1	1	0	0	0.01598	0.27388	0.12518	0.11392	0.046417	0.17778	0.24412	0.27321	0.079265	0.1289	0.11311	0.097929	0.19653	0.040563	0.078219	0.25179	-2.4667	-3.2333	-2.8	-3.0771	-3.2271	-2.8729	-3.375	-3.1583	-2.9458	-3.0917	-2.9813	-2.9188	-3.2229	-2.5687	-3.0833	-2.8521	297.720	151.894	266.809	443.259	257.699	404.178	434.112	410.757	482.563	314.938	269.466	336.086	183.661	473.704	217.208	155.859	0.001078	0.00010955	8.1186e-05	1142.8	3.2903e-06	3.3227e-06	1240.3	234.42	5.3474e-06	3.4991e-06	290.56	83.299	66.998	18.483	3.3801e-06	25.6	0.00019217	0.00017899	4.8892e-05	1129.5	1.9232e-06	2.007e-06	1228.7	233.67	2.0246e-06	2.0167e-06	290.33	82.823	66.112	18.937	2.0823e-06	26.176	402.542	148.377	261.857	150.372	278.873	247.493	150.026	157.926	276.165	277.702	157.353	164.069	164.181	172.288	261.542	171.345	-8191	255	
710.204	1	1	0	0	0.20906	0.31056	0.33988	0.1012	0.076107	0.2126	0.072296	0.1917	0.11705	0.29685	0.28367	0.09345	0.32365	0.16106	0.20096	0.066495	-2.5167	-3.2542	-2.7854	-3.0167	-3.3208	-2.9271	-3.1125	-3.0146	-2.7833	-3.3583	-2.9062	-2.9104	-3.1417	-2.8583	-3.0167	-3.1792	477.282	308.601	161.840	330.084	384.689	463.327	436.575	159.763	295.833	429.458	468.980	241.428	460.506	481.735	360.041	442.640	0.00086561	0.0003755	6.7855e-05	1140.3	6.416e-06	5.8512e-06	1237.7	233.18	6.4699e-06	3.8112e-06	292.49	83.184	66.969	18.432	7.3993e-06	25.807	0.00019852	0.00018678	5.226e-05	1129.5	2.0817e-06	2.0711e-06	1229.1	233.54	2.0542e-06	2.0389e-06	290.83	82.918	65.895	18.922	2.003e-06	26.191	407.518	266.563	221.665	150.417	279.411	302.963	150.348	157.898	292.638	271.873	157.549	164.486	164.298	172.164	324.622	171.355	-8191	255	
710.300	1	1	0	0	0.22797	0.18291	0.26661	0.40625	0.12376	0.28349	0.21445	0.24739	0.045697	0.12582	0.089903	0.076825	0.032066	0.15491	0.083999	0.20575	-2.2729	-3.0604	-2.8771	-2.9396	-3.2938	-2.7833	-2.9833	-3.2854	-2.6354	-3.1396	-2.9854	-2.8563	-3.2271	-2.7771	-2.8438	-3.1021	433.350	489.756	326.788	425.951	413.437	319.364	144.801	249.288	249.482	200.862	222.905	440.092	231.204	205.093	437.796	141.897	0.001066	5.664e-05	6.8262e-05	1135.2	3.0884e-06	6.875e-06	1236.8	234.7	3.6977e-06	1.5749e-06	291.79	82.656	66.362	18.414	6.7532e-06	25.585	0.00019635	0.00018384	5.1215e-05	1126.6	2.0202e-06	1.994e-06	1229.5	233.28	2.039e-06	1.9912e-06	290.4	82.614	65.77	18.917	1.976e-06	26.193	396.020	204.396	289.645	150.367	191.768	275.911	150.308	158.141	269.595	261.364	157.465	164.204	164.073	171.903	272.149	171.032	-8191	255	
710.396	1	1	0	0	0.14655	0.025708	0.20892	0.23184	0.032015	0.1728	0.074116	0.24273	0.10344	0.14735	0.13503	0.24902	0.16439	0.29994	0.10542	0.2204	-2.3458	-2.9688	-2.9646	-2.7521	-3.2625	-2.8146	-2.9771	-3.2625	-2.7271	-2.9667	-3.025	-2.6708	-3.0479	-2.6854	-2.9458	-3.0646	397.927	402.708	311.099	491.263	225.890	486.141	414.110	392.185	341.143	403.679	470.485	423.782	485.583	457.636	370.580	410.671	0.00094677	0.00031297	4.2922e-05	1142.9	1.0905e-06	4.1267e-06	1239.2	232.59	6.2359e-06	6.1008e-06	289.8	83.187	66.787	18.612	2.0984e-06	25.816	0.00019207	0.00017896	4.9018e-05	1128.5	1.9321e-06	1.9348e-06	1227	233.37	1.9485e-06	1.9308e-06	289.18	82.791	65.788	18.871	1.9417e-06	26.144	406.597	387.027	294.743	150.629	197.469	309.973	150.072	157.725	246.765	282.625	157.830	163.695	163.872	171.646	273.844	171.159	-8191	255	
710.493	1	1	0	0	0.066055	0.20152	0.26506	0.17403	0.063932	0.31012	0.28015	0.084484	0.035796	0.15573	0.1789	0.25963	0.28917	0.15577	0.21028	0.22192	-2.2625	-2.9938	-2.8708	-2.9	-3.25	-3.0208	-2.9167	-3.2396	-2.7771	-3.1354	-3.0708	-2.6708	-3.0812	-2.9917	-2.6854	-3.1604	324.083	161.476	279.713	492.151	217.480	373.710	400.974	151.582	407.827	153.096	316.619	494.498	430.535	324.365	422.196	166.652	0.001153	0.00057419	0.00016261	1142.1	4.6722e-06	1.8929e-06	1236.1	233.88	5.9069e-06	6.1728e-06	289.3	83.018	66.387	18.391	5.0065e-06	25.616	0.00019	0.00017885	4.8671e-05	1127.8	1.9255e-06	1.9235e-06	1226.2	233.24	1.9769e-06	1.9172e-06	289.45	82.744	65.454	18.856	1.9358e-06	26.118	400.012	180.169	203.875	150.440	214.828	244.753	150.227	157.922	228.557	265.139	157.824	164.417	164.117	171.908	291.674	170.919	-8191	255	
710.589	1	1	0	0	0.060331	0.21639	0.17631	0.054273	0.17571	0.078972	0.26959	0.21726	0.26621	0.14172	0.36244	0.39748	0.049741	0.11897	0.054354	0.11618	-2.2979	-2.9833	-3.0375	-2.7438	-3.0896	-3.0354	-2.9917	-3.2958	-2.7938	-2.9813	-3.0042	-2.6708	-3.1417	-2.9521	-2.6771	-3.1208	296.007	214.084	224.957	449.276	298.754	351.841	499.431	411.255	412.802	176.700	419.223	161.858	266.441	468.977	182.626	406.566	0.00093419	0.0002632	7.8941e-05	1137.4	3.254e-06	3.6544e-06	1237.3	233.47	8.8513e-06	3.6898e-06	289.84	82.581	66.337	18.468	3.7087e-06	25.75	0.00018781	0.00017004	4.8297e-05	1126.3	1.9066e-06	1.8674e-06	1226.7	232.5	1.9005e-06	1.8096e-06	289.52	82.398	65.389	18.79	1.7608e-06	26.058	410.633	230.771	193.275	150.357	217.945	285.845	150.128	157.889	275.571	322.950	157.423	164.080	164.327	171.825	273.036	171.237	-8191	255	
710.685	1	1	0	0	0.15125	0.25231	0.13026	0.2398	0.14845	0.033723	0.2191	0.28324	0.04733	0.10712	0.096324	0.26482	0.0086552	0.11763	0.059961	0.078418	-2.3479	-2.7562	-3.0354	-2.7854	-2.9125	-3.0208	-2.7396	-3.3438	-2.8875	-2.6396	-3.2812	-2.75	-2.9646	-3.2708	-2.8896	-3.0687	268.318	373.707	148.217	442.435	163.658	242.868	403.611	430.825	224.281	404.860	483.379	426.668	170.288	376.495	380.764	249.756	0.001123	0.00027855	0.00011347	1135.2	2.439e-06	3.5784e-06	1233.3	233.98	3.2154e-06	6.1358e-06	288.18	83.004	66.596	18.483	1.6318e-06	25.522	0.00017142	0.00016121	4.498e-05	1122.9	1.7838e-06	1.7781e-06	1223.4	232.46	1.7902e-06	1.766e-06	288.17	82.321	65.363	18.809	1.7788e-06	25.975	402.240	270.097	210.354	150.410	291.815	241.444	149.988	158.041	232.958	243.957	157.169	164.298	164.124	172.242	252.320	171.170	-8191	255	
710.804	1	1	0	0	0.29135	0.20027	0.088678	0.019613	0.22371	0.13303	0.041233	0.089265	0.12602	0.17597	0.16431	0.16784	0.10668	0.11318	0.094648	0.21967	-2.4792	-2.7458	-3.225	-2.9688	-2.9375	-3.125	-2.8729	-2.9875	-3.0083	-2.8604	-3.3854	-2.8708	-2.9917	-2.9958	-2.6542	-3.125	403.042	350.810	312.848	466.981	205.035	248.142	401.514	346.924	285.134	275.685	460.787	447.548	372.003	388.578	350.503	447.764	0.0010863	0.000244	8.3523e-05	1136.8	4.3871e-06	5.9598e-06	1229.1	233.86	5.2927e-06	2.2936e-06	289.38	82.414	66.733	18.467	3.6056e-06	25.365	0.00017375	0.00016222	4.4351e-05	1122.9	1.7981e-06	1.7997e-06	1219.2	232.32	1.8287e-06	1.7861e-06	288.73	82.307	65.368	18.873	1.8624e-06	25.952	393.386	209.114	238.093	150.588	223.929	335.500	150.366	157.741	264.295	258.582	157.271	164.285	164.256	171.359	294.461	170.972	-8191	255	
710.900	1	1	0	0	0.25109	0.097514	0.22393	0.3472	0.10929	0.24945	0.25358	0.15927	0.16588	0.27006	0.091109	0.063774	0.18902	0.037045	0.073503	0.085394	-2.5021	-2.5687	-2.9646	-2.9313	-2.8479	-3.0708	-2.7771	-3.2333	-2.8396	-2.7812	-3.1729	-3.0104	-2.7271	-3.2562	-2.65	-3.1542	358.530	149.164	159.310	420.720	327.129	380.313	430.434	419.780	432.142	286.365	479.598	363.154	493.251	347.244	163.740	387.421	0.00095149	0.00042959	6.8253e-05	1135.4	4.536e-06	6.8355e-06	1231.3	232.85	7.1505e-06	2.8946e-06	290.69	82.64	65.689	18.334	3.3149e-06	25.45	0.00018068	0.00016622	4.7664e-05	1122.8	1.9313e-06	1.8627e-06	1221.6	232.52	1.9314e-06	1.9114e-06	288.9	82.432	65.353	18.804	1.9403e-06	26.015	397.222	289.722	210.627	150.547	247.505	305.245	150.215	157.928	260.615	342.319	157.529	164.448	164.349	171.858	298.008	171.046	-8191	255	
710.973	1	1	0	0	0.18986	0.1232	0.1302	0.082393	0.096755	0.066007	0.33621	0.36284	0.25312	0.11725	0.12007	0.15602	0.12424	0.12734	0.248	0.15301	-2.5604	-2.6146	-3.0854	-3.0083	-2.7542	-3.1354	-3.0187	-2.8542	-3.0229	-2.5312	-3.2229	-2.9333	-2.9271	-3.2833	-2.7438	-3.0563	469.523	472.748	276.337	401.036	205.580	446.241	403.094	438.968	436.123	320.931	248.479	197.728	382.136	387.620	448.653	424.479	0.00088882	0.00038433	0.00010191	1137.7	1.8888e-06	4.948e-06	1233.6	233.73	7.293e-07	4.7321e-06	290.49	82.747	66.61	18.387	2.7855e-06	25.52	0.00018738	0.00017887	5.0597e-05	1124.7	2.0433e-06	2.0439e-06	1224.6	232.6	2.0904e-06	2.0824e-06	289.57	82.668	65.867	18.862	2.1735e-06	26.077	398.784	210.295	202.499	150.479	293.110	279.297	150.274	158.025	156.897	267.138	157.298	164.202	164.367	171.984	169.171	171.334	-8191	255	
711.092	1	1	0	0	0.15133	0.13767	0.11545	0.15086	0.11435	0.24153	0.22146	0.14003	0.14416	0.22474	0.33336	0.16043	0.15065	0.14451	0.17713	0.098417	-2.6979	-2.6646	-3.2229	-3.0292	-2.7812	-3.2938	-2.9625	-3.1917	-3.0417	-2.6063	-3.1583	-2.9042	-2.6188	-3.0563	-2.7458	-3.0479	336.403	482.482	167.704	422.533	443.431	350.392	439.177	144.680	168.084	475.710	423.249	424.520	420.433	398.341	430.861	429.433	0.0012257	0.00048621	0.00017177	1142.6	4.0855e-06	3.7716e-06	1236.7	234.41	1.0248e-05	2.9061e-06	291.23	83.407	67.143	18.58	1.9724e-06	25.8	0.00020903	0.00020557	5.6629e-05	1126.1	2.2862e-06	2.2241e-06	1227.2	233.94	2.2338e-06	2.2328e-06	290.86	83.003	66.241	18.977	2.2547e-06	26.26	400.926	219.306	218.788	150.268	268.969	328.602	150.105	157.796	239.372	332.520	157.794	164.274	164.558	171.844	353.463	171.141	-8191	255	
711.188	1	1	0	0	0.19551	0.037636	0.089707	0.26893	0.08423	0.076959	0.32588	0.062404	0.017979	0.27335	0.093287	0.1488	0.0723	0.19044	0.089523	0.067457	-2.7604	-2.8187	-3	-3.1562	-2.5958	-3.1542	-2.9604	-2.8354	-3.1875	-2.7479	-3.1771	-2.9708	-2.7083	-3.0125	-2.8521	-2.7708	206.414	173.481	194.913	140.004	275.065	225.422	458.364	437.753	358.103	200.750	499.048	230.533	183.155	160.340	202.670	289.922	0.0010264	0.00033408	3.5021e-05	1147.6	3.3239e-06	2.6521e-06	1241.7	234.47	3.4979e-06	1.7244e-06	290.65	83.34	66.441	18.539	5.4531e-06	25.591	0.00022095	0.00020564	5.7888e-05	1133.5	2.2462e-06	2.3068e-06	1229.4	233.54	2.2701e-06	2.2343e-06	290.41	83.011	66.163	19.002	2.2004e-06	26.244	398.142	232.839	170.835	150.171	304.566	322.686	150.241	157.846	287.657	306.975	157.527	164.293	164.590	172.002	282.610	171.035	-8191	255	
711.284	1	1	0	0	0.24737	0.16005	0.035919	0.099059	0.23725	0.12782	0.082783	0.28918	0.249	0.31106	0.18225	0.12752	0.16636	0.15759	0.19027	0.080402	-2.6312	-2.6458	-2.7646	-3.0687	-2.8021	-3.0187	-2.8896	-2.8625	-3.2208	-2.7396	-3.0854	-2.9813	-2.7229	-3.2521	-3.0396	-2.8354	295.658	318.936	264.121	422.955	371.814	181.902	490.570	408.587	238.777	399.674	145.648	404.011	184.639	444.412	348.744	254.397	0.0010175	0.00030339	4.7259e-05	1139.5	4.7313e-06	1.9162e-06	1229.6	235.54	3.245e-06	3.8761e-06	290.15	83.086	66.766	18.575	1.7119e-06	25.469	0.00020927	0.00019615	5.5227e-05	1130.4	2.1606e-06	2.2182e-06	1228.7	234.65	2.2184e-06	2.2313e-06	290.48	82.932	66.057	19.02	2.2563e-06	26.269	407.643	210.307	221.491	150.232	230.149	300.408	150.169	158.115	254.670	218.372	157.634	164.437	164.396	171.951	363.580	170.780	-8191	255	
711.405	1	1	0	0	0.054795	0.059949	0.18157	0.30143	0.17408	0.15675	0.11524	0.12368	0.14242	0.034849	0.16815	0.04099	0.05948	0.37658	0.26496	0.16809	-2.7438	-2.7188	-2.8063	-3.1937	-2.6417	-3.1271	-3.0583	-2.8521	-3.1792	-2.7938	-2.9125	-3.2646	-2.7375	-2.9125	-3.0771	-2.9	225.795	164.059	224.572	477.832	227.739	320.073	171.196	356.063	478.606	254.724	371.475	263.685	474.440	151.566	437.534	490.650	0.00089948	0.00033157	3.2402e-05	1145.9	2.209e-06	2.2363e-06	1238.2	234.46	3.3594e-06	8.3892e-06	290.94	83.327	66.775	18.618	1.6302e-06	25.677	0.00021566	0.00020612	5.7677e-05	1132	2.3211e-06	2.2634e-06	1229.2	234.02	2.3155e-06	2.2906e-06	291.22	83.066	66.28	19.014	2.2521e-06	26.315	399.352	187.344	238.817	150.689	311.426	307.786	150.366	158.036	215.145	281.122	157.518	163.992	164.445	171.832	266.283	170.908	-8191	255	
711.501	1	1	0	0	0.22377	0.2645	0.27386	0.13533	0.16953	0.11702	0.36388	0.26996	0.14579	0.25356	0.14135	0.24338	0.12913	0.23249	0.037473	0.13226	-2.575	-2.8542	-2.7583	-3.125	-2.8229	-3.0833	-3.1625	-2.9021	-3.0312	-2.8354	-2.9021	-3.0417	-2.6583	-2.9313	-3.1771	-2.7792	314.589	269.851	239.999	184.635	185.715	499.728	140.435	497.529	322.353	372.834	470.274	350.801	291.765	436.097	378.893	150.024	0.0011641	0.0004191	3.3827e-05	1146.2	7.0937e-06	4.3736e-06	1241.5	234.1	4.4812e-06	9.0917e-06	290.31	83.237	66.377	18.56	4.1715e-06	25.687	0.00021772	0.00020575	5.7608e-05	1133.5	2.2449e-06	2.1962e-06	1232	234.15	2.2176e-06	2.2403e-06	291.26	83.049	65.982	19.031	2.1742e-06	26.186	392.596	250.904	274.415	150.326	288.645	278.616	150.369	157.975	179.397	274.844	157.453	164.254	164.067	171.855	215.522	170.988	-8191	255	
711.597	1	1	0	0	0.25457	0.013308	0.12501	0.081556	0.068315	0.11887	0.056593	0.098296	0.13027	0.1191	0.18055	0.13796	0.090689	0.061944	0.12993	0.14014	-2.5604	-2.7542	-2.8	-3.3792	-2.7458	-2.9021	-3.2083	-2.8563	-2.9938	-2.8104	-2.7979	-3.1479	-2.7542	-2.8625	-3.175	-2.6604	367.770	306.975	160.700	485.728	219.964	439.823	495.943	470.106	260.021	460.007	470.134	475.903	420.868	257.443	438.218	423.639	0.00081239	0.00018022	2.6116e-05	1148.8	4.0865e-06	4.2903e-06	1242.3	233.53	7.8658e-06	5.8841e-06	291.82	83.694	66.472	18.584	4.1113e-07	25.752	0.00020948	0.00019922	5.5403e-05	1133.7	2.1916e-06	2.2151e-06	1233.4	233.91	2.225e-06	2.2185e-06	291.49	83.391	66.176	19.009	2.2007e-06	26.327	405.631	248.988	185.766	150.479	257.365	301.016	150.180	157.885	257.634	265.629	157.669	163.703	164.071	171.913	224.308	171.420	-8191	255	
711.694	1	1	0	0	0.22617	0.20498	0.11317	0.10741	0.05197	0.18473	0.2074	0.23537	0.153	0.16514	0.023436	0.18093	0.16253	0.15554	0.30331	0.10041	-2.5771	-2.8479	-2.5938	-3.2938	-2.7938	-2.975	-3.1875	-2.6771	-3.0833	-3.1	-2.8458	-3.3937	-2.925	-2.9417	-3.2833	-2.775	223.412	146.487	425.311	499.570	148.063	332.903	401.001	392.333	316.452	262.800	285.788	145.136	171.867	258.661	376.636	274.372	0.00090747	0.00019271	0.00011151	1152.2	9.5647e-07	2.0661e-06	1244.4	234.86	9.1829e-06	2.0314e-06	292.2	83.085	67.089	18.607	1.8779e-06	25.875	0.00021619	0.00020105	5.562e-05	1134.8	2.1815e-06	2.1494e-06	1232.5	234.47	2.139e-06	2.1145e-06	291.66	83.019	66.319	18.998	2.1138e-06	26.289	402.200	337.894	261.525	150.539	283.649	381.941	150.473	157.935	254.621	217.128	157.725	163.870	164.023	172.060	289.651	171.356	-8191	255	
711.788	1	1	0	0	0.2278	0.11927	0.17663	0.20721	0.31273	0.028287	0.25042	0.22509	0.098859	0.16508	0.15279	0.24966	0.23424	0.11448	0.24417	0.076628	-2.5896	-3.075	-2.7479	-3.4271	-2.9688	-2.775	-3.2667	-2.9688	-3.0667	-2.9396	-2.75	-3.0646	-2.9917	-2.7417	-3.1813	-2.7979	246.141	270.239	378.068	151.084	146.993	350.065	430.871	412.546	285.140	153.291	447.810	409.940	274.421	283.785	359.613	150.330	0.0009462	0.00044966	0.00015983	1143	5.4627e-06	3.551e-06	1241.2	235.18	5.5967e-06	1.5886e-06	291.63	83.758	66.511	18.448	1.5524e-06	25.69	0.00020377	0.00019621	5.364e-05	1132.8	2.099e-06	2.159e-06	1233.4	234.46	2.1425e-06	2.1103e-06	291.16	83.298	65.986	18.939	2.1372e-06	26.243	394.478	147.167	202.891	150.425	297.723	342.943	150.079	158.011	258.932	241.503	157.456	163.955	164.439	171.911	327.556	171.370	-8191	255	
711.884	1	1	0	0	0.056501	0.066138	0.23505	0.11579	0.046104	0.23988	0.25173	0.099669	0.2003	0.19971	0.15547	0.26578	0.21029	0.14403	0.034388	0.24572	-2.5042	-3.0979	-2.6708	-3.1271	-2.9479	-2.8708	-3.3563	-2.8292	-2.7896	-2.9125	-2.8042	-3.1521	-2.85	-2.6958	-3.1146	-2.9625	410.698	159.012	296.232	174.219	180.381	444.010	381.680	149.436	283.541	216.998	375.527	456.212	438.118	481.971	236.713	421.425	0.0011014	0.0002571	8.4495e-05	1147.9	9.2807e-07	2.4702e-06	1238.2	235.27	6.2763e-06	3.9926e-06	290.59	83.313	66.949	18.557	4.1674e-06	25.532	0.0002081	0.0001961	5.5024e-05	1133	2.1707e-06	2.1428e-06	1232.6	234.08	2.1268e-06	2.0878e-06	291.17	83.071	66.088	18.964	2.0985e-06	26.155	400.177	315.707	318.661	150.339	166.358	398.355	150.097	157.821	207.505	289.984	157.401	164.293	164.048	171.886	309.568	171.277	-8191	255	
711.980	1	1	0	0	0.092982	0.073968	0.19939	0.2616	0.33367	0.21572	0.30332	0.16085	0.20993	0.31951	0.16238	0.15488	0.17623	0.21747	0.16441	0.13106	-2.5667	-3.3458	-2.7229	-3.0667	-2.9146	-2.8542	-3.4979	-2.9437	-2.8917	-3.0458	-2.75	-3.0187	-2.8104	-2.6583	-3.1875	-2.8979	357.475	367.188	454.046	437.114	320.001	306.587	436.938	409.605	427.252	385.048	180.966	407.024	268.384	253.598	418.274	287.436	0.0009465	0.0004675	7.8498e-05	1145.2	3.0909e-06	2.9314e-06	1246.5	235.21	4.5599e-06	7.2783e-06	291.21	83.558	66.556	18.612	1.5617e-06	25.815	0.00020028	0.00018955	5.3416e-05	1133	2.1055e-06	2.0895e-06	1233.7	234.52	2.1237e-06	2.0995e-06	291.01	83.201	66.026	19.055	2.1121e-06	26.291	401.676	263.755	264.614	150.345	294.611	315.144	150.147	157.974	228.420	310.927	157.720	163.865	164.435	171.996	267.801	171.168	-8191	255	
712.101	1	1	0	0	0.19419	0.13786	0.25886	0.022084	0.1627	0.10092	0.028791	0.19043	0.085553	0.20397	0.1	0.025798	0.16341	0.089173	0.19156	0.14559	-2.4062	-3.0229	-2.6479	-3.0938	-3.1	-2.8354	-3.3146	-3.1354	-2.75	-3.275	-2.8979	-2.95	-3.1333	-2.775	-3.1208	-2.925	387.707	270.176	205.976	427.851	166.416	383.867	253.848	334.365	445.860	433.853	216.156	374.582	414.935	374.581	289.471	475.324	0.00099517	0.00058203	6.945e-05	1151.2	1.1316e-06	3.2013e-06	1241.4	236.33	1.0262e-05	1.7655e-06	291.52	83.691	67.101	18.651	2.8395e-06	25.691	0.00020356	0.00019297	5.3368e-05	1134.3	2.1469e-06	2.1089e-06	1233.1	234.58	2.1e-06	2.1487e-06	291.29	83.243	66	18.995	2.1213e-06	26.227	397.434	257.994	216.346	150.401	178.812	188.074	150.476	157.857	217.777	290.162	157.582	164.462	164.507	172.083	263.498	171.469	-8191	255	
712.197	1	1	0	0	0.15534	0.38254	0.15679	0.33586	0.16241	0.034578	0.24237	0.28855	0.15249	0.01765	0.2004	0.081513	0.052393	0.29248	0.10792	0.17141	-2.3833	-3.1542	-2.8396	-3.025	-3.2146	-2.7083	-3.3271	-3.0854	-2.8688	-3.2958	-2.8667	-3.0187	-3.0854	-2.6896	-3.225	-2.9792	459.073	248.721	385.274	471.477	146.975	335.217	452.543	451.160	472.847	316.476	445.238	480.607	204.954	325.493	406.594	237.518	0.00094975	0.00034559	6.2672e-05	1157.5	7.149e-06	2.0493e-06	1248.8	235.19	4.0728e-06	6.0839e-06	291.31	83.246	66.919	18.592	3.7004e-06	25.918	0.00020338	0.00019045	5.297e-05	1136.9	2.0607e-06	2.0509e-06	1233.2	234.36	2.096e-06	2.0357e-06	290.87	83.092	65.808	18.986	2.0285e-06	26.223	395.756	496.118	223.582	150.352	249.879	440.389	150.330	157.629	209.041	256.406	157.319	164.123	164.161	172.306	374.032	171.158	-8191	255	
712.269	1	1	0	0	0.081971	0.27155	0.089814	0.22098	0.19183	0.15092	0.27243	0.25701	0.10071	0.25437	0.046781	0.11673	0.14508	0.2289	0.2749	0.055368	-2.3833	-2.8937	-2.7979	-2.9354	-3.1979	-2.825	-3.125	-3.2042	-2.7917	-3.0938	-2.8979	-2.8396	-3.4083	-2.8375	-2.9958	-3.1437	487.563	423.919	275.694	419.143	286.742	379.678	449.001	498.701	413.716	424.656	337.055	409.454	484.247	402.892	481.876	147.826	0.0012092	9.5227e-05	6.4998e-05	1149.7	1.6019e-06	2.669e-06	1242.8	234.86	5.5299e-06	4.5877e-06	294.12	83.472	67.25	18.724	9.1741e-07	25.846	0.00019612	0.00018285	5.101e-05	1135.2	2.0734e-06	2.0421e-06	1232.7	234.43	2.1066e-06	2.1153e-06	291.98	83.067	66.153	19.014	2.0035e-06	26.192	400.669	310.154	152.673	150.488	390.066	296.999	150.268	158.070	166.917	243.557	157.759	164.388	164.642	171.982	148.023	171.356	-8191	255	
712.365	1	1	0	0	0.16711	0.16915	0.098317	0.3906	0.11071	0.13	0.30764	0.40314	0.20827	0.20692	0.22171	0.086749	0.07147	0.098923	0.22311	0.18596	-2.2292	-3.0792	-3.0146	-2.8708	-3.1479	-2.7313	-3.1333	-3.1292	-2.9021	-2.9375	-3.0792	-2.7979	-3.3375	-2.8438	-2.95	-3.2	209.585	336.841	194.718	479.252	295.588	241.882	478.572	481.360	475.434	150.886	442.391	230.119	450.407	435.177	415.607	371.471	0.00093458	0.00046925	5.6338e-05	1149.6	2.1201e-06	2.5233e-06	1242.4	235.68	1.2249e-05	2.6111e-06	290.49	83.507	67.101	18.551	4.0006e-06	25.831	0.00019378	0.00017831	5.0259e-05	1133.7	1.9898e-06	1.9688e-06	1229.4	234.54	1.9926e-06	1.986e-06	290.57	83.096	66.17	18.983	1.9603e-06	26.192	405.805	266.743	178.419	150.507	266.621	239.064	150.474	157.834	242.195	265.187	157.607	164.190	163.962	171.943	322.167	171.383	-8191	255	
712.485	1	1	0	0	0.17333	0.05039	0.040954	0.24954	0.20484	0.021422	0.090297	0.15792	0.1344	0.10974	0.074839	0.18183	0.14903	0.043165	0.1578	0.1454	-2.3583	-3.1354	-2.9729	-2.7625	-3.1042	-2.7812	-3.1396	-3.275	-2.7083	-3.0146	-3.1063	-2.8937	-3.1271	-2.9062	-2.8937	-3.0417	177.919	166.634	246.591	463.371	412.901	395.237	495.150	463.976	421.609	423.906	177.034	430.864	179.079	244.980	152.055	335.539	0.0011386	0.00036761	7.1745e-05	1150.9	3.4164e-06	4.8231e-06	1243.6	235.76	7.909e-06	2.8634e-06	292.13	83.652	66.944	18.639	4.9475e-06	25.706	0.00019082	0.00017969	4.9959e-05	1134.9	1.9764e-06	1.979e-06	1231.8	234.41	2.0213e-06	1.9506e-06	290.58	83.081	66.044	18.991	2.0329e-06	26.155	400.864	244.248	178.904	150.354	266.041	253.163	150.348	158.038	248.791	373.374	157.290	164.369	164.512	172.494	284.192	171.159	-8191	255	
712.582	1	1	0	0	0.10075	0.055636	0.14801	0.083074	0.23896	0.24211	0.37789	0.26211	0.077753	0.16077	0.1306	0.08331	0.11664	0.22004	0.1839	0.19427	-2.4646	-3.0875	-3.1042	-2.7458	-3.3187	-3.1146	-3.0917	-3.3667	-2.8312	-2.8812	-3.0875	-2.7083	-3.0417	-3.0312	-2.8833	-3.2062	209.787	214.919	324.325	254.839	366.265	174.433	426.904	149.629	233.314	337.147	390.690	251.706	314.129	408.858	359.850	175.207	0.00089876	0.00040475	0.00011761	1146.6	6.5505e-07	7.0759e-06	1240.6	235.72	6.7758e-06	1.9389e-06	291.96	83.195	66.995	18.646	3.4054e-06	25.738	0.00019003	0.00018256	5.0782e-05	1132.9	2.0555e-06	2.0272e-06	1230.6	234.17	2.0709e-06	1.9944e-06	291.04	82.74	66.039	18.966	2.0263e-06	26.176	399.035	215.362	262.492	150.486	492.039	287.313	150.311	157.846	273.957	282.317	157.219	164.230	164.250	172.160	339.072	171.133	-8191	255	
712.678	1	1	0	0	0.35427	0.29605	0.15946	0.20229	0.16385	0.20854	0.3191	0.3145	0.1678	0.10016	0.38819	0.32092	0.15881	0.04332	0.078191	0.29293	-2.5229	-2.9	-3.0542	-2.6521	-3.0563	-3.1437	-2.8875	-3.2375	-2.8625	-3.0667	-3.1896	-2.6229	-3.1625	-2.9354	-2.8375	-3.2583	197.307	445.870	467.008	182.489	343.805	491.507	467.710	489.670	427.273	235.975	468.536	422.749	482.692	484.772	372.200	173.226	0.0010634	0.00044924	7.0549e-05	1148.8	1.9506e-06	6.0532e-06	1239.8	235.62	7.2676e-06	1.3834e-06	292	83.751	66.703	18.581	2.8436e-06	25.846	0.00019541	0.0001848	5.0464e-05	1133	2.064e-06	2.0381e-06	1229.7	234.25	2.0508e-06	2.0207e-06	291.15	83.058	65.94	18.969	2.0097e-06	26.244	405.872	259.348	243.182	150.568	252.448	277.967	150.370	158.132	245.769	340.014	157.674	163.977	163.957	171.779	327.550	171.515	-8191	255	
712.774	1	1	0	0	0.27568	0.16543	0.3127	0.070012	0.14304	0.094737	0.32545	0.10159	0.1167	0.12198	0.084485	0.26996	0.14056	0.04983	0.29129	0.15099	-2.4417	-2.8896	-3.1229	-2.6792	-3.175	-3.125	-3.1167	-3.0396	-2.9396	-3.0312	-3.3583	-2.6063	-3.0271	-3.0229	-2.6667	-3.3167	160.892	255.495	384.844	310.531	472.057	252.906	451.829	491.107	303.360	157.073	369.956	485.344	174.194	289.723	404.263	489.206	0.00099274	0.00021587	8.3028e-05	1146.8	6.4461e-06	6.0585e-06	1244.8	234.22	6.9893e-06	4.7991e-06	290.75	83.454	66.351	18.604	8.1263e-07	25.69	0.00019751	0.00018395	5.2112e-05	1134.5	2.1274e-06	2.0661e-06	1232.8	234.26	2.0691e-06	2.0567e-06	290.7	82.975	65.977	18.99	2.0824e-06	26.189	385.767	285.613	332.255	150.343	236.618	322.925	150.268	157.854	240.314	261.176	157.748	164.421	163.968	172.219	143.817	171.387	-8191	255	
712.893	1	1	0	0	0.25442	0.015562	0.15061	0.032707	0.051264	0.24197	0.082612	0.2062	0.40552	0.088363	0.17755	0.14287	0.062736	0.090379	0.13112	0.0021107	-2.5771	-2.7208	-3.2125	-2.9833	-3.1188	-3.1375	-3.0187	-3.2417	-2.8333	-2.7083	-3.2479	-2.9146	-3.0604	-2.9896	-2.5	-3.0729	189.988	400.948	385.589	369.086	223.706	448.176	163.612	492.427	366.601	276.455	188.140	461.352	354.040	422.434	159.026	180.000	0.0010929	6.194e-05	0.00011002	1142.4	4.6748e-06	7.9125e-06	1237.9	233.75	5.0252e-06	1.2985e-06	291.63	83.328	66.751	18.623	4.1658e-06	25.752	0.00020033	0.00019216	5.2311e-05	1132.7	2.1261e-06	2.0705e-06	1231.8	233.54	2.1088e-06	2.0719e-06	290.92	83.031	66.252	19.031	2.1002e-06	26.203	399.465	252.106	241.503	150.430	256.547	278.201	150.347	157.687	228.302	296.483	157.327	164.149	164.427	171.960	279.235	171.584	-8191	255	
712.966	1	1	0	0	0.27135	0.18161	0.087625	0.11084	0.16845	0.15767	0.27554	0.086381	0.14739	0.30046	0.07527	0.23188	0.42734	0.055635	0.22487	0.013249	-2.4062	-2.6979	-3.1458	-2.8896	-2.8812	-3.075	-2.9604	-3.2833	-3.0479	-2.7375	-3.4042	-2.9313	-2.8563	-3.2562	-2.8729	-3.1833	414.303	158.074	458.346	464.435	476.275	325.514	141.876	383.188	233.227	268.999	423.314	218.898	485.698	257.822	441.492	178.138	0.00086691	0.00014875	0.00010519	1152.7	2.5506e-06	4.7181e-06	1239.7	234.43	7.4344e-06	3.7126e-06	292.84	82.838	66.648	18.6	3.1805e-06	25.761	0.0001983	0.00019196	5.2372e-05	1137.2	2.0787e-06	2.0859e-06	1233.6	234.15	2.0643e-06	2.0799e-06	291.13	83.088	65.981	18.996	2.0447e-06	26.174	392.759	218.548	172.159	150.335	261.708	272.614	150.223	157.907	224.134	315.163	157.337	164.224	164.236	172.181	269.677	171.024	-8191	255	
713.085	1	1	0	0	0.15231	0.17377	0.12383	0.23505	0.19777	0.14053	0.15215	0.24592	0.33666	0.058528	0.10488	0.2005	0.2315	0.12238	0.25323	0.077008	-2.4521	-2.6354	-3.1937	-2.8042	-2.7146	-3.1875	-2.9604	-2.9771	-3.0854	-2.7521	-3.2583	-2.9021	-2.8396	-3.1708	-2.6479	-3.025	420.329	336.930	214.202	478.083	329.511	328.463	491.477	225.128	159.508	424.349	253.068	178.536	408.075	161.427	307.168	299.948	0.00097233	0.00011247	6.6823e-05	1150.8	2.0323e-06	6.8807e-06	1241.5	235.72	5.607e-06	2.991e-06	290.33	82.836	66.862	18.508	3.452e-06	25.829	0.0001963	0.00018435	5.061e-05	1136.5	2.0294e-06	2.0258e-06	1231.3	234.42	2.0417e-06	2.0358e-06	290	82.714	66.009	18.926	2.0791e-06	26.259	398.846	195.089	490.443	150.694	346.087	238.390	150.227	157.883	249.007	248.710	157.444	164.218	164.300	171.861	278.717	171.140	-8191	255	
713.181	1	1	0	0	0.09079	0.18166	0.11732	0.27519	0.11896	0.12773	0.16402	0.087952	0.22602	0.14251	0.21009	0.14372	0.28749	0.18462	0.29006	0.12045	-2.5729	-2.6979	-3.1979	-3.2521	-2.7604	-3.15	-2.9562	-3.0083	-3.0646	-2.6396	-3.1583	-3.0646	-2.7667	-3.1833	-2.85	-2.9437	429.801	303.734	492.569	440.210	483.178	407.311	456.484	353.301	479.460	201.072	416.541	383.722	437.434	464.045	419.120	440.349	0.00092983	0.00038915	8.6924e-05	1143.8	3.8526e-06	3.8578e-06	1240.4	235	1.2664e-05	1.5833e-06	290.45	83.248	66.836	18.611	4.0798e-06	25.727	0.00019761	0.00018535	5.1285e-05	1133.4	2.04e-06	1.9764e-06	1232.3	234.23	2.0288e-06	2.0049e-06	291.08	82.865	65.941	18.985	1.9866e-06	26.195	388.326	270.113	160.014	150.471	227.699	338.523	150.276	157.937	258.871	424.182	157.609	164.237	164.290	171.722	225.798	171.069	-8191	255	
713.277	1	1	0	0	0.1114	0.13634	0.066718	0.12954	0.15304	0.25451	0.24832	0.18627	0.13414	0.10522	0.32346	0.12862	0.14017	0.21405	0.098794	0.14906	-2.725	-2.6937	-2.9979	-3.2646	-2.7396	-3.0104	-2.8833	-3.0396	-3.1271	-2.6792	-2.8937	-3.1188	-2.6792	-3.1146	-2.8312	-2.8	416.757	169.424	172.782	178.203	344.995	306.226	412.222	228.251	482.418	377.433	452.208	451.561	188.962	361.971	345.242	198.190	0.0011219	6.439e-05	0.00011652	1149.1	5.8794e-07	4.6617e-06	1241.4	234.75	4.6077e-06	4.1099e-06	290.52	83.067	66.87	18.679	6.2524e-06	25.792	0.00018657	0.00018049	4.9078e-05	1133.6	2.0314e-06	1.9484e-06	1233.3	234.3	2.0103e-06	2.0057e-06	290.45	83.064	66.046	19.035	2.0542e-06	26.267	404.672	377.157	237.635	150.412	249.872	305.607	150.131	157.485	153.823	260.338	157.468	164.333	164.635	171.795	299.121	171.593	-8191	255	
713.374	1	1	0	0	0.15821	0.43782	0.16577	0.10784	0.17955	0.13372	0.33131	0.095349	0.21588	0.1354	0.22273	0.32119	0.24312	0.16265	0.38443	0.28007	-2.5938	-2.7542	-2.7333	-3.1354	-2.5292	-3.2	-3.1167	-2.8896	-3.1833	-2.6437	-3.0125	-3.1396	-2.6396	-3.1771	-3.0521	-2.8958	259.115	187.713	368.509	389.525	207.929	217.053	162.454	177.899	337.556	355.802	454.210	247.078	478.547	215.481	251.082	371.400	0.0010093	0.00042721	6.3664e-05	1148.8	1.7466e-06	1.9246e-06	1247.3	234.66	8.2686e-06	5.2955e-06	291.23	83.04	66.953	18.549	3.1783e-06	25.857	0.00019947	0.00018557	5.259e-05	1134.7	2.1002e-06	2.0984e-06	1234.9	234.35	2.1e-06	2.1379e-06	291.8	83.212	66.176	19.046	2.1741e-06	26.28	399.613	165.910	263.179	150.386	292.453	350.569	150.518	157.827	238.350	357.533	157.454	164.340	164.162	171.634	277.330	171.342	-8191	255	
713.494	1	1	0	0	0.14807	0.083151	0.14193	0.26266	0.088284	0.11961	0.22706	0.103	0.16934	0.058698	0.28665	0.22231	0.30158	0.17892	0.068502	0.27811	-2.5583	-2.8833	-2.8812	-3.0646	-2.5187	-3.1729	-3.0542	-2.7958	-3.0958	-2.7083	-2.9958	-3.1937	-2.6625	-2.9604	-3.0563	-2.7479	415.176	295.192	319.816	454.156	465.261	456.963	386.416	467.669	424.998	377.495	145.818	143.788	227.278	460.903	205.965	489.244	0.0010624	0.00027899	4.2225e-05	1147.1	3.6727e-06	1.7411e-06	1243.3	234.76	6.7321e-06	4.7976e-06	289.69	83.123	66.763	18.727	3.0265e-06	25.805	0.00021009	0.00019767	5.3842e-05	1134.8	2.1368e-06	2.1259e-06	1233.8	234.39	2.133e-06	2.1309e-06	291.12	82.924	66.198	19.085	2.1265e-06	26.246	403.092	357.266	165.205	150.361	252.761	209.036	150.216	157.709	207.264	331.526	157.597	164.273	164.528	171.971	417.849	171.006	-8191	255	
713.566	1	1	0	0	0.25175	0.021061	0.20517	0.30822	0.10638	0.16369	0.36215	0.21226	0.1334	0.24002	0.076892	0.12662	0.097501	0.10318	0.20207	0.14065	-2.5687	-2.9125	-2.8292	-3.1667	-2.6417	-3.05	-2.9604	-2.7313	-3.0438	-2.7729	-2.9208	-3.2125	-2.5917	-2.7833	-3.0125	-2.8563	419.295	340.854	383.686	339.698	257.663	218.612	483.182	391.521	185.557	200.351	179.035	435.576	421.910	363.210	397.557	492.244	0.00098556	9.0226e-05	4.8093e-05	1145.4	5.4629e-06	4.8059e-06	1243.5	235.37	4.6265e-06	3.0893e-06	292.42	83.231	67.224	18.67	3.0315e-06	25.676	0.00020674	0.00019592	5.4255e-05	1135.9	2.1901e-06	2.1201e-06	1233.2	234.82	2.1582e-06	2.1226e-06	291.78	82.876	66.294	19.049	2.1278e-06	26.202	406.030	490.198	238.603	150.446	265.681	282.608	150.356	157.995	239.054	289.423	157.656	164.047	164.834	171.886	142.692	171.194	-8191	255	
713.662	1	1	0	0	0.085623	0.23438	0.063859	0.16987	0.17052	0.18567	0.37427	0.19433	0.10874	0.14738	0.20145	0.24256	0.20523	0.12277	0.097281	0.32767	-2.6479	-2.9792	-2.7562	-3.2458	-2.7188	-2.8937	-3.2458	-2.7438	-3.125	-2.9437	-2.8646	-3.1417	-2.9021	-2.7979	-3.0438	-2.6312	172.312	218.548	449.563	492.738	309.835	446.113	421.370	487.302	249.197	175.945	267.788	474.041	324.034	354.849	164.155	191.015	0.0010785	0.00020937	9.3084e-05	1147.8	5.4259e-06	1.6362e-06	1243.4	234.36	1.1289e-05	8.9681e-07	292.51	83.025	67.042	18.668	2.4058e-06	25.85	0.00020605	0.00019203	5.3159e-05	1135.9	2.1109e-06	2.1056e-06	1234.5	234.85	2.0815e-06	2.1001e-06	291.19	83.001	66.089	19.029	2.0554e-06	26.213	394.745	242.331	162.838	150.296	300.986	211.297	150.475	157.976	269.761	329.353	157.500	164.274	164.672	172.184	266.980	171.135	-8191	255	
713.781	1	1	0	0	0.13751	0.23533	0.25641	0.087117	0.081194	0.30733	0.25578	0.24129	0.13767	0.087593	0.19697	0.18186	0.11871	0.090829	0.23552	0.051559	-2.8438	-2.9125	-2.7104	-3.0708	-2.8375	-2.7896	-3.0854	-2.6167	-3.2229	-3.175	-2.9125	-3.1333	-2.9208	-3.0646	-3.075	-2.7521	490.460	247.631	166.198	457.768	426.497	186.119	448.607	417.515	457.590	381.607	447.483	187.218	208.276	263.560	287.241	406.423	0.0011151	0.00015295	4.8427e-05	1146.8	5.5995e-06	6.0357e-06	1244.4	235.39	6.1928e-06	2.3304e-06	291.13	83.677	67.025	18.661	4.6494e-06	25.686	0.00019884	0.00018552	5.1654e-05	1134.4	2.0522e-06	2.0478e-06	1234.1	234.71	2.1009e-06	2.0633e-06	291.03	83.006	66.056	19.028	2.0766e-06	26.201	400.849	224.256	371.142	150.498	254.531	317.185	150.298	158.103	255.888	238.069	157.709	164.335	163.952	172.098	217.620	171.620	-8191	255	
713.877	1	1	0	0	0.13434	0.11575	0.088114	0.19068	0.092071	0.18293	0.14469	0.14164	0.13586	0.26092	0.15164	0.21631	0.28568	0.0036893	0.19153	0.097045	-2.6688	-3.0333	-2.525	-3.2896	-3.0229	-2.9104	-3.4771	-2.7542	-3.0229	-2.9771	-2.8208	-3.1167	-2.9646	-2.8	-3.2188	-2.7792	211.392	389.162	207.781	389.548	427.821	183.199	414.523	363.059	354.591	392.389	492.467	148.275	401.121	482.800	479.695	493.772	0.0010913	0.00011559	8.3395e-06	1156.3	4.4456e-06	3.9326e-06	1243.1	236.09	7.8822e-06	2.4677e-06	291.14	83.084	66.618	18.557	1.6959e-06	25.71	0.00020138	0.00018989	5.2402e-05	1137.1	2.1061e-06	2.1187e-06	1234.5	234.77	2.1782e-06	2.1526e-06	291.22	83.056	66.138	19.053	2.2247e-06	26.313	396.902	266.955	243.961	150.351	323.642	209.475	150.444	157.848	257.359	334.421	157.599	164.212	164.250	171.833	276.061	171.077	-8191	255	
713.973	1	1	0	0	0.27137	0.073993	0.12629	0.25291	0.14608	0.019741	0.28627	0.34337	0.19124	0.12788	0.19293	0.26142	0.31506	0.050217	0.11627	0.11685	-2.4354	-3.0833	-2.5646	-3.1021	-2.9062	-2.5833	-3.2542	-2.9167	-2.6708	-3.2021	-2.8292	-3.0896	-2.9542	-2.6813	-2.9083	-2.7521	261.986	355.891	366.353	413.947	244.028	433.663	456.951	487.826	453.746	340.757	288.246	143.984	498.709	187.578	468.334	347.429	0.00085406	0.00015789	8.5417e-05	1151.9	2.7514e-06	2.722e-06	1245.2	234.71	1.1814e-05	2.9504e-06	291.92	83.621	66.697	18.527	5.9123e-06	25.703	0.00021483	0.00020764	5.8675e-05	1139.3	2.316e-06	2.3072e-06	1236.4	235.09	2.3788e-06	2.3356e-06	292.51	83.536	66.451	19.09	2.2828e-06	26.303	408.742	148.262	300.185	150.489	292.401	282.817	150.193	157.812	237.315	188.363	157.479	164.345	164.495	172.470	308.342	171.209	-8191	255	
714.069	1	1	0	0	0.12618	0.13407	0.22536	0.30385	0.14131	0.19135	0.237	0.1671	0.23261	0.12361	0.22323	0.34365	0.27555	0.21782	0.038429	0.16177	-2.2458	-3.1167	-2.6188	-3.1521	-3.0104	-2.675	-3.2875	-2.9146	-2.7229	-3.1667	-2.7729	-3.0792	-3.0896	-2.6917	-3.0729	-2.85	314.924	490.474	446.212	422.995	150.114	270.514	393.881	436.570	467.291	157.889	393.273	462.027	214.933	462.283	248.423	145.411	0.0010095	0.00084531	6.34e-05	1151.4	4.0803e-06	3.8584e-06	1249.5	236.29	5.3926e-06	3.8786e-06	293.79	83.648	67.273	18.672	3.4765e-06	25.734	0.00022057	0.0002076	5.6893e-05	1139.3	2.2433e-06	2.2386e-06	1238.3	235.53	2.2492e-06	2.2224e-06	292.31	83.484	66.6	19.129	2.2175e-06	26.348	399.028	210.311	407.209	150.345	247.678	305.664	150.226	157.929	265.055	349.026	157.300	164.066	164.445	172.202	268.454	171.339	-8191	255	
714.165	1	1	0	0	0.058955	0.25671	0.04258	0.15522	0.25771	0.22387	0.30822	0.31692	0.12676	0.088504	0.23124	0.12764	0.25387	0.11517	0.26186	0.049905	-2.4854	-3.1021	-2.7521	-2.8792	-3.0167	-2.7708	-3.1229	-3.0542	-2.825	-2.9771	-2.8708	-2.9313	-3.0917	-2.7167	-3.0125	-3.0229	268.426	446.868	453.254	401.195	377.382	423.187	415.602	447.571	197.246	493.388	432.778	348.135	440.429	285.520	202.320	283.345	0.0010877	0.0004584	7.0976e-05	1150.7	1.895e-06	6.6204e-06	1244.7	236.08	1.6877e-06	3.7963e-06	291.6	83.104	66.944	18.689	2.2282e-06	25.7	0.00021621	0.00020542	5.696e-05	1138	2.3186e-06	2.2688e-06	1238.7	235.4	2.2811e-06	2.2594e-06	291.92	83.34	66.445	19.118	2.2498e-06	26.256	403.742	261.585	230.286	150.521	264.131	268.843	150.112	157.860	203.344	245.634	157.792	164.061	164.517	171.874	259.179	171.135	-8191	255	
714.262	1	1	0	0	0.14533	0.10867	0.14994	0.023153	0.1541	0.10356	0.12735	0.20919	0.24056	0.11865	0.17368	0.13911	0.14973	0.17282	0.29184	0.27956	-2.3937	-3.1437	-2.7042	-2.7875	-3.1354	-2.6063	-3.175	-3.1146	-2.7667	-3.2833	-2.8708	-3.0187	-3.0583	-2.7083	-2.9271	-3.0271	287.589	259.035	168.749	163.781	425.015	378.864	173.224	421.910	273.112	364.381	462.232	250.767	497.066	404.130	413.532	462.104	0.0010225	0.00018171	7.9036e-05	1158.6	1.1598e-06	1.759e-06	1246	236.01	7.4792e-06	2.3601e-06	291.89	82.738	67.281	18.745	2.9626e-06	25.747	0.00021383	0.00020031	5.6181e-05	1140.7	2.2361e-06	2.169e-06	1235.8	235.23	2.2036e-06	2.2002e-06	291.68	83.152	66.426	19.122	2.1786e-06	26.327	393.522	193.111	212.997	150.315	149.396	297.671	150.187	157.949	280.175	348.592	157.766	164.700	164.615	171.782	308.973	171.433	-8191	255	
714.358	1	1	0	0	0.23922	0.073012	0.20867	0.18717	0.17649	0.11333	0.24953	0.19304	0.37303	0.17596	0.15971	0.14383	0.030213	0.13609	0.15123	0.33968	-2.0792	-3.0979	-2.8667	-3.0229	-3.1396	-2.7729	-3.2458	-3.15	-2.6479	-3.1146	-2.7979	-2.7292	-3.3083	-2.6312	-3.1708	-3.1083	168.901	185.683	471.001	173.400	485.360	441.367	482.145	238.278	318.577	308.813	461.358	355.127	416.193	184.762	175.481	405.005	0.0010953	0.00059222	2.475e-05	1153.3	4.1208e-06	5.0046e-06	1245.9	236.03	4.5561e-06	3.2311e-06	291.39	83.757	67.367	18.61	3.1102e-06	25.649	0.00021299	0.00019791	5.5476e-05	1140	2.1883e-06	2.1879e-06	1235.6	235.27	2.1718e-06	2.1961e-06	291.9	83.336	66.336	19.074	2.2207e-06	26.281	401.178	210.694	398.702	150.392	290.979	268.401	150.310	157.932	210.010	245.987	157.495	164.128	163.977	172.348	264.782	171.391	-8191	255	
714.454	1	1	0	0	0.17979	0.10788	0.13433	0.091405	0.053653	0.14674	0.075728	0.079833	0.21797	0.28152	0.098775	0.20062	0.14951	0.099785	0.10391	0.10625	-2.2917	-3.1875	-2.8708	-3.0021	-3.1208	-2.8146	-3.2042	-3.3708	-2.8	-3.2583	-3.2313	-2.9021	-3.3958	-2.9604	-3.0833	-3.2917	459.314	244.760	244.321	457.612	403.255	314.564	444.531	223.450	253.206	495.538	200.939	148.735	380.686	199.593	306.380	381.167	0.0010647	0.00054007	0.00015281	1157.2	1.2051e-06	1.5786e-06	1245.6	236.69	6.3316e-06	7.0201e-06	292.99	83.768	67.195	18.66	5.1876e-06	25.555	0.00021588	0.00020277	5.7463e-05	1140.2	2.2821e-06	2.2819e-06	1237.9	235.46	2.2379e-06	2.2579e-06	291.76	83.6	66.591	19.1	2.242e-06	26.284	407.909	249.717	290.123	150.308	153.458	293.264	150.337	157.863	246.372	247.511	157.702	164.365	164.333	171.773	283.715	171.314	-8191	255	
714.573	1	1	0	0	0.45974	0.15819	0.1328	0.25566	0.22751	0.13144	0.18302	0.26982	0.19679	0.092198	0.074474	0.11372	0.091917	0.1389	0.21813	0.090938	-2.2208	-3.0396	-3.0854	-2.9688	-3.2188	-3.0979	-3.0667	-3.4625	-2.9813	-3.1979	-3.4021	-2.7167	-3.3937	-3.075	-2.9979	-3.3167	407.150	201.301	145.159	473.736	254.204	335.975	141.833	451.924	437.253	294.254	283.561	143.685	362.992	481.508	382.436	429.193	0.0012285	3.7793e-05	4.8164e-05	1154.7	4.5998e-06	6.9912e-06	1253.2	237.16	7.3669e-06	3.195e-06	293.87	83.965	67.55	18.644	8.1582e-06	25.871	0.00021836	0.00021099	5.872e-05	1140.8	2.2766e-06	2.2993e-06	1238.7	235.84	2.3168e-06	2.3071e-06	293.16	83.576	66.396	19.082	2.3088e-06	26.341	397.138	289.940	280.641	150.549	244.359	248.109	150.279	157.811	297.306	482.100	157.668	163.740	164.205	172.475	241.076	171.240	-8191	255	
714.669	1	1	0	0	0.14454	0.19217	0.099306	0.073377	0.15703	0.15208	0.18526	0.37976	0.018012	0.34141	0.13883	0.23507	0.21179	0.078964	0.18405	0.098912	-2.4208	-3.0854	-2.9833	-2.9062	-3.1875	-2.9667	-3.0021	-3.4521	-2.8625	-3.0417	-3.2167	-2.8688	-3.1292	-2.9417	-2.9771	-3.3854	209.695	415.404	194.303	474.003	433.135	352.183	460.425	432.228	419.816	379.196	497.098	180.966	460.801	220.299	205.724	226.276	0.0010265	0.000325	9.8761e-05	1155.8	4.0945e-06	3.7127e-06	1244.2	237.07	6.0522e-06	2.5035e-06	292.07	84.036	67.272	18.723	7.3946e-06	25.672	0.00022322	0.00021036	5.8771e-05	1140.5	2.2991e-06	2.2519e-06	1238.9	235.79	2.2711e-06	2.3265e-06	292.14	83.51	66.499	19.127	2.3039e-06	26.354	402.378	232.267	249.159	150.400	226.649	290.386	150.308	157.873	240.730	462.786	157.551	164.388	164.259	171.917	297.242	171.258	-8191	255	
714.765	1	1	0	0	0.29971	0.078139	0.1988	0.26983	0.060994	0.051924	0.10153	0.15686	0.14073	0.22394	0.18528	0.21151	0.11563	0.15986	0.062518	0.087613	-2.4896	-3.2521	-3.1125	-2.8729	-2.875	-3.1937	-2.9042	-3.1271	-3.0563	-2.9542	-3.4021	-2.7917	-2.9958	-3.0833	-2.825	-3.3125	440.249	294.180	386.862	172.511	161.722	487.000	401.260	465.199	400.343	454.414	483.342	253.675	276.079	202.666	361.721	247.373	0.0010585	0.00020217	3.6259e-05	1154.5	3.0588e-06	2.261e-06	1244.4	235.36	7.2476e-06	3.8314e-06	292.89	83.997	67.182	18.67	4.6566e-06	26.015	0.00022289	0.00020763	5.7311e-05	1142.2	2.2866e-06	2.2457e-06	1237.2	235.52	2.2969e-06	2.272e-06	292.75	83.626	66.518	19.137	2.2772e-06	26.401	389.059	386.747	312.798	150.545	175.148	195.449	150.270	157.814	275.222	274.773	157.280	163.897	164.351	171.772	244.889	171.012	-8191	255	
714.861	1	1	0	0	0.12101	0.12215	0.15485	0.10107	0.3009	0.15349	0.24679	0.088063	0.099187	0.031291	0.19347	0.34846	0.19929	0.20656	0.16369	0.063336	-2.8104	-3.0604	-3.1875	-2.8167	-2.8958	-3.1583	-2.8646	-3.2896	-2.9458	-3.0021	-3.2333	-2.9208	-2.9958	-3.0167	-2.8417	-3.1146	298.000	352.856	164.065	145.335	417.981	172.946	449.306	389.798	205.266	195.761	334.413	366.282	268.292	471.261	472.060	409.520	0.001159	0.00087701	6.9115e-05	1151.9	6.074e-06	6.068e-06	1246.3	236.42	9.2028e-06	3.1503e-06	294.63	84.068	66.826	18.711	5.2562e-06	25.748	0.00021902	0.00020861	5.8974e-05	1140.7	2.3444e-06	2.2813e-06	1238.3	235.46	2.3216e-06	2.3237e-06	293.07	83.688	66.454	19.168	2.3073e-06	26.35	392.338	269.365	298.380	150.378	264.255	263.723	150.167	158.116	262.155	270.987	157.452	164.336	164.423	172.118	241.174	170.862	-8191	255	
714.957	1	1	0	0	0.11489	0.20944	0.08247	0.27086	0.1128	0.10967	0.11997	0.19572	0.19334	0.11211	0.1253	0.21887	0.24079	0.10985	0.19018	0.09747	-2.6375	-2.9229	-3.1479	-2.825	-3.1	-3.0479	-2.9792	-3.2708	-3.0354	-2.8208	-3.4	-2.825	-3.125	-2.9958	-2.7062	-3.1833	408.723	352.728	237.006	450.380	291.337	305.872	433.085	419.810	458.548	342.402	420.939	450.688	492.158	472.106	144.768	145.977	0.0010052	0.00042261	4.218e-05	1151.2	6.2706e-06	6.2111e-06	1246.5	236.12	2.8003e-06	2.0724e-06	292.3	84.342	67.477	18.774	1.8286e-06	25.944	0.00022222	0.00020947	5.8235e-05	1142.5	2.3572e-06	2.329e-06	1237.2	236.07	2.3652e-06	2.3017e-06	292.69	83.574	66.685	19.165	2.3056e-06	26.424	400.022	215.806	177.978	150.392	246.981	330.448	150.005	157.924	290.467	355.394	157.480	164.046	164.685	171.751	172.341	171.114	-8191	255	
715.078	1	1	0	0	0.14569	0.16352	0.2048	0.03764	0.19832	0.18973	0.2083	0.2544	0.087443	0.12586	0.14605	0.28534	0.25191	0.16294	0.14042	0.012805	-2.5833	-2.6937	-3.2	-3.0854	-2.9458	-3.1688	-2.925	-3.1292	-2.9208	-2.6958	-3.4354	-2.8729	-2.7375	-3.1854	-2.775	-3.2271	209.105	225.894	254.216	482.669	371.204	294.848	451.391	471.260	313.637	204.663	150.133	388.528	433.214	493.143	156.883	174.913	0.00099741	0.00014548	0.00015647	1149	4.5162e-06	2.7224e-06	1245	236.45	3.9275e-06	4.9354e-06	292.96	83.382	67.258	18.733	4.5736e-06	25.756	0.00022338	0.00021451	5.8146e-05	1141.5	2.3252e-06	2.2511e-06	1237.2	235.74	2.3197e-06	2.2585e-06	292.42	83.471	66.566	19.152	2.3065e-06	26.407	398.024	173.697	192.760	150.626	249.482	341.299	150.234	157.623	243.424	173.360	157.326	164.222	164.425	172.243	261.415	171.371	-8191	255	
715.174	1	1	0	0	0.0544	0.24421	0.011519	0.21596	0.13737	0.14631	0.43838	0.064732	0.15948	0.18694	0.21788	0.04082	0.049308	0.10195	0.090546	0.11057	-2.575	-2.7167	-3.1479	-2.9521	-2.7979	-3.225	-2.8979	-3.1562	-3.0167	-2.8333	-3.1688	-2.9854	-2.8583	-3.1875	-2.8271	-3.0021	233.865	296.560	188.657	476.069	376.521	387.662	452.481	152.938	400.242	473.705	408.760	474.200	249.321	411.356	310.843	225.350	0.00092854	0.00057471	0.00012376	1155.7	2.8062e-06	6.6884e-06	1247.1	236.13	7.4412e-06	7.1928e-07	291.2	83.899	67.072	18.738	1.2224e-06	25.835	0.00022185	0.00020957	5.9075e-05	1143.1	2.376e-06	2.3286e-06	1239.4	236.33	2.3409e-06	2.3488e-06	292.34	83.734	66.662	19.203	2.4079e-06	26.457	401.291	200.583	257.014	150.269	278.995	234.078	150.215	157.690	224.096	380.804	157.507	163.766	164.757	171.736	274.053	171.035	-8191	255	
715.269	1	1	0	0	0.038479	0.23705	0.090337	0.037987	0.19489	0.062506	0.1722	0.25442	0.15475	0.11507	0.30399	0.11397	0.17113	0.26154	0.094766	0.048574	-2.8229	-2.7667	-2.9896	-3.0792	-2.8729	-3.2333	-3.0542	-3.2292	-3.0271	-2.7396	-3.2771	-3.0021	-2.7833	-3.3104	-2.9958	-3.1229	327.081	182.148	456.685	497.936	248.035	223.401	497.326	300.549	166.038	404.126	369.411	170.516	403.603	495.061	289.221	145.077	0.00092121	0.00031489	0.00012062	1152.5	2.1664e-06	4.9141e-06	1251.2	235.41	5.5964e-06	5.394e-06	291.63	83.708	67.357	18.66	1.7993e-06	25.647	0.00023075	0.0002224	6.1676e-05	1142.3	2.4581e-06	2.4344e-06	1239.9	235.82	2.4711e-06	2.4582e-06	292.94	83.725	66.784	19.129	2.4335e-06	26.362	401.886	244.453	236.738	150.679	220.231	298.327	150.301	157.867	251.720	261.965	157.738	164.274	164.449	171.805	306.236	171.180	-8191	255	
715.365	1	1	0	0	0.15686	0.16614	0.061667	0.26663	0.10759	0.088613	0.50275	0.31486	0.087236	0.24851	0.048969	0.062097	0.24908	0.2236	0.086768	0.19045	-2.7229	-2.8625	-3.0771	-3.2479	-2.9583	-3.1937	-3.175	-2.9979	-3.1917	-2.8521	-3.0521	-3.2021	-2.9354	-3.2062	-2.8375	-2.9104	483.810	484.068	173.960	154.591	492.562	413.643	436.524	165.473	340.931	211.062	283.971	458.004	295.818	194.536	422.199	189.373	0.0010227	0.00038903	5.9522e-05	1158.2	1.6552e-06	4.4583e-06	1247.3	236.8	5.9813e-06	1.2613e-06	292.75	84.139	67.333	18.812	2.5233e-06	25.728	0.00022911	0.0002187	6.0515e-05	1143.6	2.4001e-06	2.3803e-06	1241.3	235.82	2.4137e-06	2.4155e-06	293.49	83.729	66.722	19.223	2.4678e-06	26.432	405.437	266.518	242.356	150.575	317.171	295.427	150.240	157.875	228.324	460.277	157.777	164.330	164.537	171.816	260.460	171.364	-8191	255	
715.461	1	1	0	0	0.043819	0.11399	0.16582	0.373	0.074097	0.32729	0.2269	0.26033	0.18344	0.17189	0.24439	0.24494	0.091089	0.079643	0.15716	0.14289	-2.7062	-2.8979	-2.95	-3.2083	-2.9167	-3.1063	-3.0542	-2.8729	-3.2771	-2.8083	-2.9708	-3.0083	-2.6958	-3.1312	-2.9854	-2.9979	248.632	483.062	153.082	461.694	377.634	342.921	432.872	146.670	394.306	213.452	431.535	221.806	308.475	178.233	214.267	491.232	0.00097127	0.00030637	8.1889e-05	1154.4	3.511e-06	1.3601e-06	1250.3	235.96	7.8994e-06	3.4305e-06	292.15	84.068	67.062	18.685	4.5849e-06	25.866	0.00023268	0.00021897	6.1617e-05	1143.5	2.4222e-06	2.3683e-06	1242.3	236.12	2.3674e-06	2.3492e-06	292.9	83.659	66.744	19.179	2.3161e-06	26.466	400.524	239.261	284.512	150.226	266.347	317.487	150.303	157.783	252.199	239.345	157.776	164.191	163.839	171.759	282.892	171.378	-8191	255	
715.557	1	1	0	0	0.083629	0.18059	0.093017	0.22375	0.202	0.12536	0.096849	0.11885	0.058001	0.26841	0.091085	0.2114	0.059898	0.072728	0.17987	0.069803	-2.7562	-2.7792	-2.9188	-3.2125	-2.7062	-3.1271	-3.3167	-2.8708	-3.1958	-2.9958	-2.9604	-3.1521	-2.8625	-3.0625	-3.2313	-2.8854	403.421	393.868	373.731	358.253	392.011	427.833	390.434	474.902	329.959	183.007	410.293	471.747	282.616	293.645	156.289	230.316	0.001122	0.00033166	6.8223e-05	1156.6	2.6192e-06	4.6854e-06	1249	237.88	6.348e-06	2.1842e-06	293.87	84.114	67.641	18.74	5.5111e-06	25.728	0.00022204	0.00021126	5.9013e-05	1143.4	2.3472e-06	2.3077e-06	1242.5	236.36	2.2173e-06	2.1894e-06	292.5	83.761	66.623	19.166	2.2461e-06	26.31	408.902	217.844	249.847	150.377	214.390	309.876	150.031	158.055	240.735	315.669	157.357	164.314	164.266	171.929	257.053	171.218	-8191	255	
715.653	1	1	0	0	0.10937	0.13329	0.11551	0.24175	0.088125	0.12686	0.24866	0.18674	0.023527	0.1195	0.3315	0.14179	0.19601	0.082591	0.11522	0.21615	-2.7021	-2.8646	-3.0646	-3.3667	-2.8083	-3.1667	-3.3	-2.9792	-3.1833	-3.0354	-2.9854	-3.2875	-2.9	-3.0417	-3.2083	-2.8292	235.880	389.123	468.945	151.356	337.717	192.953	433.126	475.181	305.942	352.510	422.677	493.870	384.129	332.710	146.519	351.635	0.0010123	0.00032557	7.9928e-05	1159.4	3.976e-06	8.3145e-07	1244.3	237.82	7.113e-06	4.4381e-06	294.29	83.587	67.286	18.675	1.3381e-06	25.853	0.00021424	0.00020268	5.6017e-05	1143.8	2.2798e-06	2.235e-06	1238.1	236.13	2.2452e-06	2.2212e-06	293.18	83.605	66.489	19.125	2.218e-06	26.348	393.702	258.069	333.017	150.226	223.546	444.570	150.343	157.799	270.192	332.966	157.367	163.891	164.093	171.834	307.360	170.838	-8191	255	
715.749	1	1	0	0	0.14962	0.13182	0.35243	0.091247	0.065891	0.22349	0.20767	0.1229	0.21054	0.1021	0.10158	0.23838	0.091726	0.074599	0.082602	0.30091	-2.6833	-2.9938	-2.7292	-3.4521	-2.7771	-2.9562	-3.4479	-2.9104	-3.2042	-3.1042	-3.125	-3.2417	-3.0208	-2.8187	-3.2083	-2.8417	435.630	328.024	385.171	434.143	454.275	200.158	410.496	424.797	364.540	150.138	365.240	464.509	385.878	174.578	304.941	479.046	0.0010664	0.0003051	0.00011557	1154.7	1.4917e-06	3.9908e-06	1241.2	237.94	6.8642e-06	3.384e-06	294.06	83.848	66.999	18.767	2.7271e-06	25.776	0.00021438	0.00020163	5.5928e-05	1142.7	2.2305e-06	2.1836e-06	1235.9	236.24	2.191e-06	2.2317e-06	292.62	83.585	66.692	19.142	2.235e-06	26.327	406.074	222.448	218.578	150.393	226.986	421.353	150.401	157.833	250.155	215.051	157.738	164.267	164.442	172.274	284.863	171.074	-8191	255	
715.845	1	1	0	0	0.30452	0.16437	0.097818	0.14972	0.10919	0.27118	0.27329	0.15518	0.21125	0.13803	0.13588	0.16181	0.17606	0.045105	0.10748	0.23464	-2.6208	-3.0417	-2.6896	-3.35	-2.8396	-2.9771	-3.3417	-3.0083	-3.1208	-3.1312	-2.7917	-3.2729	-2.9104	-2.9062	-3.1229	-2.7687	398.116	312.137	376.840	258.296	312.510	383.144	436.273	492.843	323.168	380.413	466.107	174.080	191.721	239.610	223.558	491.010	0.0013103	0.00043588	4.9448e-05	1157.7	2.737e-06	6.9878e-06	1250.1	235.84	4.0172e-06	2.2569e-06	294.59	84.09	67.566	18.78	4.4518e-06	25.817	0.00021388	0.00020214	5.6144e-05	1145	2.2473e-06	2.2195e-06	1239.5	235.58	2.2543e-06	2.2728e-06	292.91	83.514	66.544	19.2	2.2082e-06	26.366	397.427	267.057	282.544	150.315	245.683	299.723	149.999	157.790	187.322	268.308	157.514	164.275	164.120	172.163	239.629	170.681	-8191	255	
#DATA ENDS
