BOXY.EXE: ISS Imagent and Oximeter Data Acquisition Program Version 0.80
Ascii Record File

#ACQ INFORMATION
2  Detector Channels 
16  External MUX Channels 
1  Auxiliary Channels 
5000  Waveform (CCF) Frequency (Hz)
1  Waveforms Skipped 
30  Waveforms Averaged 
1  Cycles Averaged 
16  Acquisitions per Waveform 
10.0806  Updata Rate (Hz) 

#FILE INFORMATION
TRUE -- External MUX Channel results are PARSED.
FALSE -- AC DC and Phase are NOT grouped.
TRUE -- Companion Program Settings File CREATED.
FALSE -- AC data not excluded
FALSE -- DC data not excluded
FALSE -- Phase data not excluded
FALSE -- Auxillary Chn. data not excluded
Tab delimiters

#CALIBRATION STATE
TRUE -- Waveform Calibration Values APPLIED.


#AUX CALIBRATION VALUES
Val Type	aux-1	

Term	1.0000e+00	
Factor	0.0000e+00	


#WF CALIBRATION VALUES
A = Detector Channel
Val Type	A-AC1	A-AC2	A-AC3	A-AC4	A-AC5	A-AC6	A-AC7	A-AC8	A-AC9	A-AC10	A-AC11	A-AC12	A-AC13	A-AC14	A-AC15	A-AC16	A-DC1	A-DC2	A-DC3	A-DC4	A-DC5	A-DC6	A-DC7	A-DC8	A-DC9	A-DC10	A-DC11	A-DC12	A-DC13	A-DC14	A-DC15	A-DC16	A-Ph1	A-Ph2	A-Ph3	A-Ph4	A-Ph5	A-Ph6	A-Ph7	A-Ph8	A-Ph9	A-Ph10	A-Ph11	A-Ph12	A-Ph13	A-Ph14	A-Ph15	A-Ph16	

Term	0.00000e+00	0.00000e+00	0.00000e+00	0.00000e+00	0.00000e+00	0.00000e+00	0.00000e+00	0.00000e+00	0.00000e+00	0.00000e+00	0.00000e+00	0.00000e+00	0.00000e+00	0.00000e+00	0.00000e+00	0.00000e+00	0.00000e+00	0.00000e+00	0.00000e+00	0.00000e+00	0.00000e+00	0.00000e+00	0.00000e+00	0.00000e+00	0.00000e+00	0.00000e+00	0.00000e+00	0.00000e+00	0.00000e+00	0.00000e+00	0.00000e+00	0.00000e+00	0.00000e+00	0.00000e+00	0.00000e+00	0.00000e+00	0.00000e+00	0.00000e+00	0.00000e+00	0.00000e+00	0.00000e+00	0.00000e+00	0.00000e+00	0.00000e+00	0.00000e+00	0.00000e+00	0.00000e+00	0.00000e+00	
Factor	1.00000e+00	1.00000e+00	1.00000e+00	1.00000e+00	1.00000e+00	1.00000e+00	1.00000e+00	1.00000e+00	1.00000e+00	1.00000e+00	1.00000e+00	1.00000e+00	1.00000e+00	1.00000e+00	1.00000e+00	1.00000e+00	1.00000e+00	1.00000e+00	1.00000e+00	1.00000e+00	1.00000e+00	1.00000e+00	1.00000e+00	1.00000e+00	1.00000e+00	1.00000e+00	1.00000e+00	1.00000e+00	1.00000e+00	1.00000e+00	1.00000e+00	1.00000e+00	X	X	X	X	X	X	X	X	X	X	X	X	X	X	X	X	

B = Detector Channel
Val Type	B-AC1	B-AC2	B-AC3	B-AC4	B-AC5	B-AC6	B-AC7	B-AC8	B-AC9	B-AC10	B-AC11	B-AC12	B-AC13	B-AC14	B-AC15	B-AC16	B-DC1	B-DC2	B-DC3	B-DC4	B-DC5	B-DC6	B-DC7	B-DC8	B-DC9	B-DC10	B-DC11	B-DC12	B-DC13	B-DC14	B-DC15	B-DC16	B-Ph1	B-Ph2	B-Ph3	B-Ph4	B-Ph5	B-Ph6	B-Ph7	B-Ph8	B-Ph9	B-Ph10	B-Ph11	B-Ph12	B-Ph13	B-Ph14	B-Ph15	B-Ph16	

Term	0.00000e+00	0.00000e+00	0.00000e+00	0.00000e+00	0.00000e+00	0.00000e+00	0.00000e+00	0.00000e+00	0.00000e+00	0.00000e+00	0.00000e+00	0.00000e+00	0.00000e+00	0.00000e+00	0.00000e+00	0.00000e+00	0.00000e+00	0.00000e+00	0.00000e+00	0.00000e+00	0.00000e+00	0.00000e+00	0.00000e+00	0.00000e+00	0.00000e+00	0.00000e+00	0.00000e+00	0.00000e+00	0.00000e+00	0.00000e+00	0.00000e+00	0.00000e+00	-1.23726e+02	-1.39918e+02	-1.78938e+02	-1.81413e+02	-3.50059e+01	-7.24347e+01	-1.57789e+02	-1.62015e+02	-7.41590e+01	-9.50557e+01	-1.80411e+02	-1.70917e+02	-1.81322e+02	-1.76271e+02	-8.71251e+01	-1.49364e+02	
Factor	1.81544e-05	1.23178e-04	2.51159e-05	1.85326e-01	8.05980e-07	9.73926e-07	1.72092e-01	5.34215e-02	8.30615e-07	1.09759e-06	1.07935e-01	3.07122e-02	2.47813e-02	9.40291e-03	9.68748e-07	1.38253e-02	5.41759e-07	5.53856e-07	1.53778e-07	8.86287e-02	6.03997e-09	6.06804e-09	7.82073e-02	2.56647e-02	6.05508e-09	6.07195e-09	4.76290e-02	1.39290e-02	1.17526e-02	4.39035e-03	6.05682e-09	6.14778e-03	X	X	X	X	X	X	X	X	X	X	X	X	X	X	X	X	



#DISTANCE SETTINGS
A = Detector Channel
A-1	A-2	A-3	A-4	A-5	A-6	A-7	A-8	A-9	A-10	A-11	A-12	A-13	A-14	A-15	A-16	

2.5000e+00	3.0000e+00	2.5000e+00	3.0000e+00	2.0000e+00	3.0000e+00	1.5000e+00	3.0000e+00	3.0000e+00	3.0000e+00	3.0000e+00	3.0000e+00	3.0000e+00	3.0000e+00	1.5000e+00	3.0000e+00	

B = Detector Channel
B-1	B-2	B-3	B-4	B-5	B-6	B-7	B-8	B-9	B-10	B-11	B-12	B-13	B-14	B-15	B-16	

1.0000e+01	1.0000e+01	1.0000e+01	1.4400e+00	1.0000e+01	1.0000e+01	1.5100e+00	1.9400e+00	1.0000e+01	1.0000e+01	1.9900e+00	2.4900e+00	2.4100e+00	2.9000e+00	1.0000e+01	2.9800e+00	




#DATA BEGINS
time	group	step	mark	flag	A-AC1	A-AC2	A-AC3	A-AC4	A-AC5	A-AC6	A-AC7	A-AC8	A-AC9	A-AC10	A-AC11	A-AC12	A-AC13	A-AC14	A-AC15	A-AC16	A-DC1	A-DC2	A-DC3	A-DC4	A-DC5	A-DC6	A-DC7	A-DC8	A-DC9	A-DC10	A-DC11	A-DC12	A-DC13	A-DC14	A-DC15	A-DC16	A-Ph1	A-Ph2	A-Ph3	A-Ph4	A-Ph5	A-Ph6	A-Ph7	A-Ph8	A-Ph9	A-Ph10	A-Ph11	A-Ph12	A-Ph13	A-Ph14	A-Ph15	A-Ph16	B-AC1	B-AC2	B-AC3	B-AC4	B-AC5	B-AC6	B-AC7	B-AC8	B-AC9	B-AC10	B-AC11	B-AC12	B-AC13	B-AC14	B-AC15	B-AC16	B-DC1	B-DC2	B-DC3	B-DC4	B-DC5	B-DC6	B-DC7	B-DC8	B-DC9	B-DC10	B-DC11	B-DC12	B-DC13	B-DC14	B-DC15	B-DC16	B-Ph1	B-Ph2	B-Ph3	B-Ph4	B-Ph5	B-Ph6	B-Ph7	B-Ph8	B-Ph9	B-Ph10	B-Ph11	B-Ph12	B-Ph13	B-Ph14	B-Ph15	B-Ph16	aux-1	digaux	

1062.011	1	1	0	256	0.2248	0.26259	0.045967	0.012744	0.1832	0.13973	0.065222	0.15517	0.17946	0.23284	0.38062	0.23752	0.37226	0.1392	0.16187	0.099528	-2.4188	-2.8396	-2.2687	-3.2188	-2.8167	-2.5104	-3.4146	-2.7562	-2.6146	-2.9167	-2.5375	-3.1354	-3.025	-2.5167	-3.3271	-2.6854	271.499	448.762	214.849	483.127	454.301	218.217	512.633	177.217	365.341	291.028	452.480	504.093	191.789	492.818	180.023	443.108	0.0005712	0.00061619	6.8175e-05	1280.2	4.0534e-06	2.8804e-06	1283.5	352.82	4.0444e-06	6.8427e-06	403.88	133.13	114.95	39.458	7.3895e-06	49.43	0.00044172	0.00043007	0.00011499	1272.9	4.8401e-06	4.6722e-06	1283.2	352.47	4.8342e-06	4.6675e-06	400.09	133.1	115.59	39.619	4.4317e-06	49.477	202.873	293.219	260.233	173.271	273.629	460.236	172.979	177.601	306.410	344.835	177.056	181.000	182.086	186.540	260.261	185.689	-8191	255	
1062.105	1	1	0	0	0.30515	0.074258	0.27188	0.13169	0.19021	0.12077	0.10997	0.16675	0.21987	0.097817	0.21774	0.30062	0.17245	0.10137	0.25946	0.074219	-2.2375	-3.0646	-2.2958	-2.9417	-2.9813	-2.5625	-3.0979	-2.7313	-2.6854	-3.1813	-2.5312	-3	-2.9354	-2.4208	-3.0646	-2.5646	294.009	416.148	195.751	166.717	425.899	491.854	469.408	410.253	281.206	297.626	471.409	508.523	472.623	248.719	409.524	186.359	0.00058288	0.00074158	0.00015447	1271.4	1.8443e-06	5.9638e-06	1275.2	351.13	3.4469e-06	1.709e-06	403.68	132.63	114.62	39.317	5.0438e-06	49.056	0.00044549	0.00042217	0.00011379	1270.9	4.8279e-06	4.6462e-06	1278.5	352.36	4.8189e-06	4.626e-06	399.38	133.42	115.41	39.547	4.3883e-06	49.436	202.683	279.202	514.916	173.149	395.504	308.507	172.795	177.810	292.531	402.241	177.030	181.315	181.618	186.641	326.810	186.172	-8191	255	
1062.201	1	1	0	0	0.13206	0.13152	0.20548	0.029146	0.049741	0.052883	0.18571	0.38156	0.09953	0.10223	0.10421	0.16465	0.16852	0.22381	0.13071	0.26845	-2.1437	-3.0563	-2.5354	-3.125	-2.9021	-2.3396	-3.2188	-2.9083	-2.3667	-3.0229	-2.5542	-2.9354	-3.225	-2.5604	-3.1542	-2.9208	505.215	315.747	364.118	271.350	329.284	461.834	452.580	478.139	172.154	354.438	282.286	490.699	244.016	506.799	164.420	430.796	0.00058367	0.00044084	0.00018003	1265.7	1.3803e-06	3.9356e-06	1270.6	350.09	2.3436e-06	6.8462e-07	404.22	133.08	114.58	39.3	5.5369e-06	49.067	0.000434	0.00041306	0.00011161	1268.5	4.6856e-06	4.5667e-06	1273.2	352.12	4.6795e-06	4.452e-06	397.9	133.76	114.92	39.374	4.3918e-06	49.371	202.091	249.085	456.393	173.307	408.423	369.048	172.867	177.692	433.322	434.255	177.298	181.174	181.749	186.596	247.774	185.966	-8191	255	
1062.275	1	1	0	0	0.16627	0.21544	0.48101	0.36073	0.13173	0.27372	0.32559	0.27617	0.091035	0.05706	0.35578	0.17616	0.070019	0.20299	0.10328	0.15917	-1.9917	-3.1917	-2.4917	-2.9562	-3.0687	-2.575	-3.2	-3.0208	-2.5083	-3.1021	-2.6312	-2.8187	-3.2604	-2.4271	-3.0062	-3.05	181.126	368.302	499.034	418.260	280.953	249.855	371.289	516.149	240.815	400.671	503.558	346.518	460.695	311.588	179.885	234.958	0.00050406	0.00053029	0.00013196	1262.7	1.9558e-06	4.0405e-06	1273	348.84	7.7185e-06	4.818e-06	401.84	132.56	114.31	39.014	6.6256e-07	49.216	0.00042148	0.00040182	0.00011353	1266.6	4.5654e-06	4.4584e-06	1273.2	351.32	4.5521e-06	4.3677e-06	399.08	133.22	114.58	39.225	4.5765e-06	49.388	198.959	296.570	204.386	173.289	330.831	257.965	172.890	177.534	325.286	338.383	177.342	181.212	181.811	186.753	193.123	185.859	-8191	255	
1062.394	1	1	0	0	0.093963	0.15632	0.11408	0.31339	0.25153	0.31427	0.19659	0.29734	0.085892	0.084511	0.070456	0.20458	0.14079	0.17716	0.32446	0.031688	-1.9771	-3.1396	-2.6396	-2.7542	-3.1396	-2.4979	-3.1063	-2.9458	-2.425	-3.1896	-2.7021	-2.6875	-3.1083	-2.4979	-2.8333	-2.9271	257.509	217.599	249.610	507.815	337.582	362.996	487.316	477.834	480.194	514.815	395.112	210.980	282.444	509.405	450.889	516.844	0.00042956	0.00034881	0.00010246	1265.5	6.0921e-06	4.4179e-06	1269.5	348.43	3.5105e-06	1.3117e-06	399.91	132.65	113.79	39.286	2.4166e-06	48.932	0.00041431	0.00039473	0.000118	1265.1	4.4924e-06	4.3497e-06	1274	350.54	4.5175e-06	4.3321e-06	398.99	132.84	114.21	39.278	4.7157e-06	49.149	196.878	309.309	177.788	173.015	350.052	359.132	172.977	177.799	275.568	395.559	177.221	181.184	181.937	186.680	249.273	186.095	-8191	255	
1062.490	1	1	0	0	0.28031	0.11002	0.2157	0.21992	0.028358	0.11575	0.20096	0.16695	0.10807	0.33889	0.22146	0.25424	0.25229	0.010323	0.30244	0.18658	-2.0146	-3.025	-2.9021	-2.75	-3.2958	-2.5708	-3.0125	-3.2062	-2.4646	-3.0458	-2.9625	-2.6917	-3.2854	-2.7167	-2.7979	-3.1792	446.586	401.520	188.531	514.985	257.227	252.545	478.716	163.633	330.074	215.127	255.587	251.343	472.570	404.465	287.288	486.847	0.00050491	0.0010595	0.00012163	1261.8	5.0756e-06	6.8226e-06	1267.7	347.09	6.692e-07	4.3819e-06	400.27	132.39	114	39.257	3.669e-06	49.217	0.00040948	0.00040003	0.00012043	1261.6	4.3965e-06	4.3822e-06	1272.1	349.44	4.419e-06	4.403e-06	399.91	132.58	114	39.211	4.7176e-06	49.161	198.451	189.436	480.788	173.201	350.274	290.793	172.877	177.656	342.643	264.794	177.378	181.274	181.923	186.536	258.981	185.948	-8191	255	
1062.586	1	1	0	0	0.11774	0.097263	0.12129	0.1329	0.062832	0.11517	0.32112	0.27804	0.04182	0.19033	0.038313	0.16482	0.22156	0.30508	0.14578	0.076504	-2.0646	-3.075	-2.7771	-2.5812	-3.1667	-2.4146	-2.9188	-3.1917	-2.4062	-2.9042	-2.9896	-2.6125	-3.1312	-2.7021	-2.7687	-3.2125	334.967	262.504	321.499	500.815	186.612	214.330	463.298	516.554	471.454	453.649	359.598	193.057	174.393	435.868	321.372	446.261	0.0004799	0.00040617	2.1428e-05	1256.8	6.6698e-06	8.1556e-07	1261.3	348.89	5.319e-06	8.7508e-06	399.4	131.58	113.85	39.046	2.326e-06	48.908	0.00039704	0.00040486	0.00011884	1255.1	4.2578e-06	4.4854e-06	1267	348.93	4.2672e-06	4.4608e-06	397.52	131.82	113.45	39.258	4.5401e-06	48.817	203.595	207.364	295.799	173.376	345.578	183.630	173.069	177.667	245.658	310.998	177.192	181.280	181.974	186.786	397.924	186.194	-8191	255	
1062.682	1	1	0	0	0.15629	0.18176	0.19416	0.15818	0.25631	0.21943	0.36285	0.38978	0.11065	0.21218	0.10242	0.28619	0.12422	0.070451	0.15279	0.25548	-2.025	-2.9167	-2.9708	-2.6708	-2.9958	-2.8417	-2.8063	-3.3292	-2.2687	-2.8917	-3.2021	-2.6104	-3.3125	-2.8438	-2.4917	-3.1625	425.186	515.061	220.259	430.754	402.614	424.071	503.807	398.971	328.139	287.600	445.504	228.944	172.328	176.820	444.261	339.781	0.00044043	0.00073588	0.00022623	1251	1.0086e-06	3.2317e-06	1259.1	347.45	5.437e-06	3.9873e-06	400.2	132.66	113.78	39.118	1.3901e-06	48.975	0.00038755	0.0004124	0.00011558	1247	4.1821e-06	4.6085e-06	1261.9	347.56	4.2672e-06	4.6216e-06	396.98	131.93	113.51	39.352	4.5223e-06	48.814	204.918	216.455	215.783	173.135	490.182	228.649	173.062	177.823	273.725	494.990	177.338	181.378	182.066	186.978	251.196	186.018	-8191	255	
1062.803	1	1	0	0	0.2142	0.23003	0.094536	0.2066	0.060746	0.089779	0.24507	0.23575	0.12244	0.21385	0.040381	0.45017	0.24892	0.2889	0.13293	0.061553	-1.9021	-2.6292	-3.0625	-2.4396	-3.0458	-2.9146	-2.5854	-3.025	-2.6688	-2.6979	-3.1771	-2.3354	-3.0333	-3.0625	-2.4604	-3.3	465.387	278.729	512.245	428.230	372.625	264.327	389.366	482.569	309.497	334.280	354.973	449.581	497.916	182.291	347.356	518.409	0.00055384	0.00044754	0.00019821	1253.8	4.9329e-06	7.6664e-06	1259.1	346.43	4.9513e-06	4.777e-06	398.93	130.96	113.74	39.096	3.9247e-06	48.979	0.00040068	0.00043025	0.00011427	1249.8	4.3692e-06	4.744e-06	1264	347.51	4.4276e-06	4.7167e-06	396.57	131.62	113.96	39.362	4.4724e-06	48.741	203.240	251.983	252.358	173.289	311.273	291.721	172.836	177.684	238.094	319.279	177.147	181.405	181.812	186.634	389.053	185.945	-8191	255	
1062.874	1	1	0	0	0.1867	0.32275	0.34395	0.32552	0.15689	0.072169	0.08771	0.21612	0.086645	0.3311	0.10874	0.13157	0.43635	0.12451	0.14886	0.24682	-2.2313	-2.7708	-3.05	-2.5146	-3.0292	-2.9667	-2.6792	-3.2833	-2.6083	-2.7604	-3.0792	-2.4875	-3.0771	-2.8875	-2.6375	-3.3167	401.357	400.918	229.993	493.311	272.411	336.881	519.473	421.195	183.094	424.665	493.669	293.406	490.951	494.047	506.331	463.470	0.00063422	0.0003486	0.00014796	1252	4.6515e-06	1.1595e-05	1259.9	345.64	1.5556e-06	2.186e-06	399.79	131.83	114.24	38.857	4.5246e-06	48.803	0.0004142	0.00042411	0.00011295	1247.7	4.4965e-06	4.6257e-06	1263.1	346.72	4.5887e-06	4.6328e-06	395.69	131.38	114.22	39.273	4.4376e-06	48.699	195.607	189.664	288.863	173.010	263.135	351.860	172.982	177.643	339.444	167.203	177.332	181.439	182.201	186.804	306.100	185.938	-8191	255	
1062.995	1	1	0	0	0.064266	0.35772	0.051785	0.062255	0.037196	0.17655	0.19872	0.35666	0.07648	0.17617	0.10151	0.1385	0.11622	0.095692	0.2051	0.22967	-2.3542	-2.6979	-3.2938	-2.6958	-2.9896	-2.9042	-2.6146	-3.3333	-2.925	-2.6792	-3.2729	-2.8187	-3.05	-3.1833	-2.4125	-3.1333	397.739	312.061	334.583	491.564	393.994	272.084	446.158	464.056	488.240	497.961	160.562	462.836	451.058	383.306	182.625	442.292	0.00051098	0.0011371	9.4631e-05	1254.1	2.6448e-06	3.4749e-06	1260.9	348.14	5.5246e-06	7.668e-06	400.75	131.81	113.74	39.202	1.9156e-06	49.124	0.0004276	0.00041864	0.00011135	1248.7	4.6864e-06	4.5613e-06	1263.3	347.79	4.7354e-06	4.5873e-06	395.52	131.95	114.42	39.231	4.3761e-06	48.928	194.970	247.962	187.374	173.130	249.464	367.174	172.955	177.496	225.337	343.629	177.057	181.433	181.924	186.919	405.729	185.990	-8191	255	
1063.091	1	1	0	0	0.12047	0.34597	0.15859	0.20232	0.21644	0.15125	0.20099	0.17722	0.090389	0.22783	0.092541	0.057373	0.089928	0.22096	0.20026	0.21501	-2.4521	-2.6583	-3.1146	-2.6958	-2.7042	-3.1979	-2.7021	-3.2833	-2.9208	-2.3875	-3.1083	-2.6542	-2.8333	-3.175	-2.3875	-3.0854	344.147	319.092	253.255	399.350	242.363	209.956	411.595	493.016	325.018	487.990	282.749	399.437	202.948	477.322	397.691	486.046	0.00051434	0.00017667	9.511e-05	1256	1.084e-06	5.3162e-06	1257.7	347.12	3.5746e-06	7.5701e-06	399	132.04	113.42	38.835	4.4796e-06	48.709	0.00043298	0.00041505	0.00011009	1253.3	4.7197e-06	4.535e-06	1262.7	348.31	4.7073e-06	4.5319e-06	394.82	132.32	114.19	39.127	4.3367e-06	48.923	188.909	376.048	266.973	173.267	355.893	368.322	173.081	177.711	303.824	206.506	177.236	181.493	181.824	187.061	265.339	185.925	-8191	255	
1063.187	1	1	0	0	0.053768	0.26746	0.31382	0.098428	0.057848	0.37734	0.24246	0.21102	0.059577	0.15695	0.21464	0.12763	0.18267	0.16422	0.1669	0.23583	-2.6271	-2.4813	-3.1396	-2.8083	-2.6937	-3.1896	-2.7938	-2.9896	-3.0292	-2.5854	-3.2271	-3.0563	-2.6958	-3.2812	-2.4979	-3.0687	421.877	310.376	413.215	504.806	288.145	192.465	333.811	456.053	450.355	184.930	432.139	515.405	241.064	163.362	304.042	270.798	0.00056315	0.00035137	0.00010038	1251	3.885e-06	3.3316e-06	1260.2	348.09	2.8082e-06	7.3429e-06	398.98	131.78	113.95	38.906	4.5133e-06	48.947	0.00042917	0.00040974	0.00010769	1251.9	4.6098e-06	4.4015e-06	1260.6	348.76	4.5707e-06	4.4138e-06	394.21	132.39	114.1	39.027	4.2976e-06	49.129	197.313	224.643	202.651	173.224	300.719	362.059	172.701	177.732	257.334	289.066	177.278	181.349	181.988	187.017	261.688	185.812	-8191	255	
1063.283	1	1	0	0	0.12424	0.20561	0.1798	0.086626	0.18363	0.13278	0.29837	0.43344	0.098124	0.14521	0.19578	0.25531	0.1235	0.22688	0.18421	0.22585	-2.5625	-2.5854	-3.275	-2.9292	-2.55	-3.2146	-2.7104	-2.9417	-3.0896	-2.4417	-2.9896	-2.9938	-2.5167	-3.3937	-2.4813	-2.775	344.328	390.318	393.001	466.049	362.660	407.424	466.335	498.043	444.770	400.508	206.978	401.622	469.313	199.377	385.032	386.937	0.0005099	0.00061871	0.00012795	1247.3	9.4484e-07	3.9895e-06	1259.5	346.84	4.5325e-06	4.4474e-06	400.3	131.96	113.66	39.153	2.3765e-06	49.134	0.0004144	0.00039696	0.00010908	1252.6	4.4492e-06	4.2561e-06	1260.4	348.52	4.4142e-06	4.2558e-06	395.14	132.22	113.97	39.045	4.3885e-06	49.072	199.744	278.779	225.391	173.056	500.144	447.871	172.895	177.638	257.952	346.118	177.187	181.287	181.974	186.683	306.560	186.047	-8191	255	
1063.402	1	1	0	0	0.20395	0.082574	0.38012	0.35479	0.044349	0.097652	0.30135	0.313	0.27124	0.26138	0.31952	0.24005	0.25297	0.091408	0.16432	0.27088	-2.5312	-2.2771	-2.6271	-3.1312	-2.4437	-3.2958	-2.6729	-2.7354	-3.1021	-2.4813	-3.0229	-3.075	-2.5917	-3.4167	-2.6521	-2.8167	233.816	478.212	197.342	434.001	362.334	323.591	462.582	458.549	487.113	410.980	463.741	481.161	438.811	446.814	256.991	441.871	0.00056188	0.00035834	0.00012736	1252.6	6.7861e-06	2.2417e-06	1260.4	346.28	4.1443e-06	7.5365e-06	398.31	131.24	113.51	38.858	8.6719e-06	48.806	0.00040254	0.00038594	0.00011231	1251.7	4.378e-06	4.2005e-06	1261.9	348.27	4.3599e-06	4.2143e-06	395.38	131.89	113.62	38.884	4.5656e-06	48.873	200.281	222.893	479.919	173.303	380.942	440.290	173.064	177.630	282.683	248.743	177.321	181.276	182.043	186.803	266.616	186.160	-8191	255	
1063.499	1	1	0	0	0.39757	0.10018	0.12576	0.11959	0.074966	0.050667	0.15263	0.23979	0.043817	0.24119	0.098858	0.35208	0.19506	0.16213	0.047376	0.023847	-2.8458	-2.4375	-2.8937	-3.3104	-2.5917	-3.1292	-2.9542	-2.7354	-3.1229	-2.6521	-2.8792	-3.1312	-2.6333	-3.3	-2.7333	-2.6146	270.163	383.969	209.230	456.486	311.253	164.492	496.274	474.438	470.138	173.412	469.018	462.971	488.351	386.002	248.148	286.411	0.00049383	0.00047158	7.6005e-05	1254.7	1.7076e-06	2.8061e-06	1256.4	347.1	1.7891e-06	5.3759e-06	399.37	131.66	113.9	38.915	3.0308e-06	48.903	0.00040005	0.00038926	0.00011668	1248.9	4.3579e-06	4.2715e-06	1261	347.88	4.321e-06	4.3012e-06	396.39	131.91	113.52	39.025	4.6202e-06	48.824	198.604	189.062	471.489	173.312	230.915	388.639	172.951	177.417	286.498	340.560	176.861	181.217	181.846	186.888	292.176	185.815	-8191	255	
1063.570	1	1	0	0	0.14797	0.10937	0.23781	0.075508	0.0057074	0.049086	0.14488	0.1673	0.21742	0.21898	0.092369	0.10743	0.076803	0.19975	0.086374	0.18064	-2.7125	-2.4771	-2.8688	-3.1333	-2.6042	-3.1167	-3.0708	-2.4938	-2.9854	-2.5708	-2.8583	-3.15	-2.7292	-3.2479	-2.8708	-2.5167	187.505	513.309	237.458	187.493	452.591	310.156	497.757	485.689	205.495	236.488	400.490	173.131	311.316	203.832	477.324	442.426	0.00045782	0.00068544	0.00013818	1248.1	6.384e-06	2.8913e-06	1259.5	346.44	4.9874e-06	2.3792e-06	399	131.53	113.07	39.013	2.3751e-06	48.7	0.00039094	0.00039804	0.00011757	1245.9	4.2491e-06	4.3777e-06	1262	346.93	4.1977e-06	4.4342e-06	396.26	131.39	113.16	39.065	4.584e-06	48.722	197.086	510.019	223.783	173.231	311.734	244.954	173.006	177.685	273.782	228.857	177.333	181.056	182.094	186.802	369.006	185.861	-8191	255	
1063.691	1	1	0	0	0.16854	0.14909	0.13649	0.08167	0.15312	0.1984	0.29034	0.1621	0.22936	0.087804	0.26351	0.27833	0.061253	0.27862	0.097567	0.16174	-2.7479	-2.4896	-2.825	-3.1104	-2.4688	-2.825	-3.1854	-2.5271	-2.9917	-2.7	-2.7125	-3.2	-2.5146	-2.9417	-2.8438	-2.3604	330.940	208.919	293.856	360.049	492.140	501.323	451.759	418.854	180.217	224.567	466.324	457.018	184.690	164.069	431.905	391.839	0.00045498	0.00049657	0.00010779	1248.4	3.4705e-06	3.7691e-06	1258.5	346.76	3.1664e-06	8.6656e-06	398.69	131.25	113.36	38.964	4.4037e-06	48.815	0.00038683	0.00040878	0.0001155	1245.4	4.1758e-06	4.5132e-06	1259.7	346.68	4.1942e-06	4.5731e-06	395.76	131.26	113.2	39.142	4.4795e-06	48.667	194.969	226.930	218.391	173.350	277.911	309.557	172.805	177.744	183.511	260.572	177.117	181.405	181.757	186.578	242.016	185.979	-8191	255	
1063.787	1	1	0	0	0.029474	0.16271	0.18293	0.37338	0.10541	0.16779	0.10127	0.36424	0.16698	0.11152	0.19396	0.10566	0.038851	0.31149	0.09512	0.12415	-2.6063	-2.7104	-2.4854	-3.3375	-2.4708	-2.7354	-3.0208	-2.3875	-3.1312	-2.8312	-2.6333	-3.25	-2.6833	-2.6542	-3.1437	-2.5187	509.700	222.219	286.454	458.930	317.851	479.936	420.417	493.102	329.953	300.238	491.476	513.229	168.023	454.291	173.943	170.555	0.0004447	0.00091538	5.4043e-05	1247.5	1.3933e-06	3.2725e-06	1257	346.37	3.6295e-06	5.9306e-06	397.99	131.48	113.21	38.847	6.7587e-06	48.574	0.00038799	0.00042364	0.00011346	1244.2	4.2768e-06	4.6357e-06	1258.5	346.31	4.318e-06	4.6541e-06	395.13	130.82	113.43	39.193	4.4038e-06	48.481	195.163	215.813	378.604	173.423	348.544	469.884	172.966	177.499	235.413	324.218	177.142	181.392	181.848	186.615	302.682	186.097	-8191	255	
1063.883	1	1	0	0	0.10261	0.046909	0.073104	0.29852	0.11558	0.25374	0.3083	0.17927	0.20467	0.27538	0.2361	0.18143	0.14428	0.13982	0.20118	0.079149	-2.5979	-2.8812	-2.5854	-3.2938	-2.75	-2.7604	-3.1312	-2.6125	-2.8354	-2.9792	-2.6312	-3.2313	-2.725	-2.7896	-2.9271	-2.4667	168.493	431.530	496.377	477.810	344.432	283.122	457.094	482.046	474.190	429.597	488.379	491.557	492.217	451.928	290.002	458.255	0.00050964	0.00087071	7.5685e-05	1250.3	7.6243e-06	4.239e-06	1254.2	346.16	6.3433e-06	3.7781e-06	398.36	131.8	113.71	39.107	2.3713e-06	48.571	0.00040219	0.00042346	0.00011191	1243.8	4.4251e-06	4.5787e-06	1255.5	346.04	4.4492e-06	4.5541e-06	394.51	131.01	113.64	39.159	4.3149e-06	48.493	200.862	229.606	428.140	173.331	269.923	321.934	173.052	177.714	262.941	336.441	177.319	181.311	181.927	186.942	188.754	185.841	-8191	255	
1063.979	1	1	0	0	0.19348	0.12943	0.19295	0.22786	0.20024	0.2046	0.3077	0.093836	0.16919	0.019592	0.09171	0.21329	0.27327	0.25061	0.035887	0.25849	-2.3104	-2.9062	-2.3167	-3.1729	-2.7292	-2.4625	-3.1083	-2.5271	-2.9667	-3.0312	-2.45	-3.1292	-2.7188	-2.6854	-3.1688	-2.7375	470.553	389.977	293.439	495.478	197.073	421.093	459.530	496.147	468.568	236.785	247.652	352.727	355.917	222.627	358.810	279.103	0.00049861	0.00036222	0.00020669	1247.8	2.4333e-06	5.4581e-07	1253.4	346.94	4.9658e-07	2.9437e-06	398.38	131.92	113.48	38.98	1.0491e-05	48.526	0.00041252	0.00040947	0.00010911	1240.2	4.5327e-06	4.4967e-06	1252.7	346.03	4.5567e-06	4.4459e-06	393.25	131.17	113.79	39.017	4.2084e-06	48.477	196.962	186.825	251.429	173.344	194.955	175.524	173.024	177.668	325.638	340.035	177.212	181.280	181.822	186.829	270.111	185.923	-8191	255	
1064.098	1	1	0	0	0.2247	0.12525	0.17167	0.23524	0.26562	0.13896	0.23864	0.28482	0.15473	0.1192	0.12452	0.11611	0.20949	0.10393	0.12541	0.24366	-2.2	-3.0146	-2.35	-3.0646	-2.7146	-2.5833	-3.5396	-2.6729	-2.9042	-3.1188	-2.4646	-3.1375	-2.9813	-2.5979	-3.0312	-2.7438	401.231	474.150	497.744	461.763	198.574	173.187	468.451	422.565	466.298	327.778	447.645	162.485	399.604	469.343	225.325	443.330	0.00055078	0.00055362	8.8349e-05	1248.8	3.0343e-06	3.0048e-06	1253.1	345.64	4.6932e-06	3.6215e-06	398.91	131.39	113.3	38.947	4.7928e-06	48.593	0.0004181	0.00040081	0.00010623	1240.8	4.5287e-06	4.3689e-06	1251.9	345.93	4.5328e-06	4.3157e-06	392.62	131.06	113.74	38.988	4.1282e-06	48.6	193.651	511.929	453.659	173.349	271.487	287.307	172.926	177.840	332.202	232.148	177.181	181.587	181.826	186.472	371.768	186.001	-8191	255	
1064.172	1	1	0	0	0.15448	0.22835	0.21098	0.20228	0.091128	0.20321	0.27074	0.21499	0.10042	0.28954	0.1678	0.039706	0.38074	0.17707	0.12169	0.15926	-2.2292	-3.1125	-2.3917	-3.0333	-2.9021	-2.55	-3.2479	-2.6417	-2.7125	-3.0375	-2.6562	-2.9583	-2.9771	-2.5104	-3.0229	-3.0271	204.006	497.058	408.642	199.806	214.867	325.966	416.274	431.459	500.039	196.157	498.151	407.256	500.975	490.929	439.001	182.122	0.00048555	0.00018098	7.9938e-05	1247.1	3.329e-06	4.6367e-06	1257	346.56	3.5862e-06	5.6344e-06	399.24	131.49	113.09	38.68	6.328e-06	48.891	0.00041156	0.00039206	0.00010443	1242.5	4.4373e-06	4.2895e-06	1250.6	346.91	4.4654e-06	4.2587e-06	392.03	131.61	113.33	38.936	4.1116e-06	48.931	179.752	476.431	366.876	173.329	393.921	349.179	172.969	177.639	374.532	341.608	177.267	181.222	181.699	186.738	249.285	185.719	-8191	255	
1064.268	1	1	0	0	0.15928	0.060216	0.022982	0.19318	0.19647	0.122	0.39963	0.2765	0.3894	0.23387	0.05736	0.15748	0.19007	0.35155	0.28182	0.22129	-2.2292	-3.0375	-2.5187	-2.8812	-3.0563	-2.6042	-3.1979	-3.0083	-2.5563	-3.2854	-2.6417	-2.9604	-3.1312	-2.5062	-2.9333	-2.7479	495.072	501.154	411.939	466.363	454.128	476.467	463.503	429.028	206.896	408.092	351.014	469.529	487.158	175.020	207.740	498.635	0.00044967	0.00023505	8.8393e-05	1249.3	2.5298e-06	3.1435e-06	1250.3	346.11	5.0096e-06	5.3396e-06	397.78	131.88	113.05	38.83	1.6673e-06	48.686	0.00040149	0.00038472	0.0001064	1243.3	4.3709e-06	4.2294e-06	1248.8	346.8	4.3742e-06	4.1927e-06	392.95	131.9	113.25	38.874	4.2478e-06	48.963	194.607	510.085	476.268	173.278	303.830	294.156	172.873	177.691	314.399	287.149	177.111	181.234	181.835	186.847	242.609	186.078	-8191	255	
1064.364	1	1	0	0	0.11618	0.1186	0.069652	0.090461	0.046343	0.064704	0.36932	0.29775	0.2665	0.2778	0.18552	0.19884	0.31964	0.23679	0.24041	0.23288	-1.9562	-3.1854	-2.4542	-2.9229	-2.9625	-2.35	-3.1813	-3.1437	-2.4729	-3.3417	-2.625	-2.65	-3.1542	-2.5417	-2.9646	-3.0021	361.374	328.410	294.066	515.849	292.049	359.798	449.494	411.365	201.516	393.545	212.502	517.544	435.762	488.493	515.567	510.948	0.00048806	0.00036325	4.9975e-05	1246.4	3.0068e-06	6.6324e-06	1250.8	345.09	1.4541e-06	2.7401e-06	397.79	131.17	113.1	39.053	2.8371e-06	48.78	0.0003969	0.00037822	0.00010984	1241.8	4.2746e-06	4.1374e-06	1250.7	346.66	4.3159e-06	4.1193e-06	393.9	131.57	113.17	38.862	4.3733e-06	48.8	204.000	383.331	325.672	173.061	368.152	299.590	172.887	177.495	331.839	224.262	177.433	181.394	181.788	186.810	270.325	186.060	-8191	255	
1064.483	1	1	0	0	0.084226	0.20063	0.14596	0.34168	0.17124	0.28763	0.13545	0.39535	0.1188	0.14953	0.16404	0.28523	0.11142	0.21922	0.22002	0.24323	-2	-2.9417	-2.5708	-2.825	-3.2812	-2.5917	-3.0708	-3.0604	-2.3771	-3.0479	-2.7896	-2.6937	-3.1167	-2.4125	-2.7729	-3.0229	443.920	488.005	482.062	195.013	361.195	460.544	483.181	494.278	165.779	212.866	350.519	188.599	503.118	182.622	450.201	228.214	0.00044569	0.0012598	3.474e-05	1238.3	5.3609e-06	3.2288e-06	1247.3	345.77	2.1401e-06	7.4635e-06	396.87	131.48	113.37	38.915	2.1988e-06	48.777	0.00039121	0.00037445	0.00011199	1239	4.1958e-06	4.1143e-06	1251.5	345.93	4.1876e-06	4.1143e-06	394.19	131.2	113	38.88	4.448e-06	48.737	207.685	210.538	359.458	173.315	371.769	285.936	173.060	177.756	263.094	274.649	177.100	181.213	182.135	186.649	276.047	185.928	-8191	255	
1064.579	1	1	0	0	0.096582	0.23059	0.32985	0.34606	0.036772	0.14311	0.20982	0.037206	0.093005	0.072214	0.10938	0.20283	0.21462	0.13256	0.06648	0.18522	-1.9208	-2.9021	-2.8604	-2.5646	-3.1354	-2.4188	-2.8333	-3.0333	-2.3812	-2.8958	-2.8958	-2.5208	-3.1333	-2.6271	-2.5812	-3.0833	304.480	438.786	208.182	478.056	402.719	455.971	160.805	289.656	332.041	432.037	198.262	194.253	179.767	191.969	181.373	389.120	0.00037597	0.00084953	8.4482e-05	1240.9	2.9149e-06	4.2802e-06	1246.5	344.98	6.6554e-06	2.1294e-06	397.64	131.08	113.26	38.881	1.5159e-06	48.617	0.0003825	0.00037612	0.00011366	1236.8	4.1153e-06	4.217e-06	1252.2	345.58	4.1322e-06	4.22e-06	393.89	130.92	112.81	38.901	4.4619e-06	48.57	213.569	513.035	256.033	173.212	304.023	338.637	173.002	177.632	272.620	194.146	177.372	181.321	181.816	186.707	490.902	185.942	-8191	255	
1064.675	1	1	0	0	0.28064	0.30971	0.24455	0.21528	0.026312	0.3257	0.24251	0.46453	0.074215	0.12088	0.1026	0.33006	0.13168	0.32231	0.03203	0.18743	-1.8375	-2.8771	-2.7042	-2.45	-3.05	-2.5271	-3.0708	-3.225	-2.4062	-2.9854	-2.9688	-2.5125	-3.2667	-2.7396	-2.6292	-3.1417	264.708	237.976	196.776	467.406	213.882	302.672	488.469	435.680	435.527	325.790	201.333	480.106	276.428	161.450	333.210	393.934	0.00049493	9.3032e-05	8.9711e-05	1243.1	4.4366e-06	3.382e-06	1250.1	345.55	5.2591e-06	2.4449e-06	397.66	131.19	113.18	38.951	7.9791e-06	48.713	0.00037889	0.00039497	0.00011277	1238.5	4.0737e-06	4.3802e-06	1251.5	345.66	4.1306e-06	4.3817e-06	394.03	130.93	112.85	39.036	4.3625e-06	48.473	192.912	518.763	504.621	173.210	369.844	176.706	172.859	177.537	289.553	376.863	177.069	181.313	181.839	186.933	258.632	185.996	-8191	255	
1064.796	1	1	0	0	0.16072	0.12257	0.24111	0.33792	0.23153	0.21584	0.20955	0.32777	0.10024	0.19635	0.11375	0.10176	0.051884	0.1835	0.050305	0.17882	-2.0771	-2.7417	-3.025	-2.5958	-2.9708	-2.7313	-2.6667	-3.2271	-2.5271	-2.7083	-3.0792	-2.5333	-3.075	-2.975	-2.6208	-3.1875	360.483	334.334	351.717	477.776	296.838	205.369	463.428	160.429	375.507	193.688	200.287	517.190	369.889	428.914	218.949	475.078	0.00047737	0.00054455	0.00013573	1238.6	4.6745e-06	3.4352e-06	1248.8	346.4	6.8943e-06	4.3406e-06	398.79	131.09	113.3	38.829	1.5148e-06	48.591	0.00037522	0.00040387	0.00010965	1234.2	4.075e-06	4.4585e-06	1249.4	345.18	4.1401e-06	4.4669e-06	393.34	130.59	112.91	39.034	4.2974e-06	48.32	192.791	219.236	185.802	173.160	321.001	374.548	172.926	177.671	265.247	344.718	177.403	181.324	181.810	186.910	289.250	185.974	-8191	255	
1064.867	1	1	0	0	0.081106	0.23861	0.065283	0.14297	0.14294	0.16782	0.32887	0.052016	0.10276	0.21509	0.20044	0.072524	0.19985	0.284	0.067194	0.044647	-2.0104	-2.775	-3.0521	-2.6875	-2.9479	-2.8146	-2.925	-3.2479	-2.5521	-2.6771	-3.1312	-2.5167	-2.9958	-2.9458	-2.5729	-3.1896	458.273	213.853	383.348	407.321	245.239	358.914	478.131	161.881	476.298	490.495	392.703	458.103	375.465	394.055	271.503	365.292	0.00052205	0.00042208	0.00012009	1238.5	5.8611e-06	5.7696e-06	1245.9	345.26	4.5537e-06	2.3194e-06	397.04	131.34	113.28	38.947	3.5775e-06	48.488	0.00038913	0.00040836	0.00010862	1232.2	4.2383e-06	4.4614e-06	1247.2	344.13	4.323e-06	4.4194e-06	391.64	130.5	113.23	39.016	4.2409e-06	48.255	195.799	226.587	292.186	173.232	249.422	305.379	173.184	177.601	327.646	403.087	177.166	181.332	181.765	186.462	361.197	185.943	-8191	255	
1064.963	1	1	0	0	0.1813	0.097549	0.16064	0.33582	0.2891	0.31478	0.15296	0.16872	0.16642	0.11227	0.092961	0.15613	0.344	0.26975	0.086616	0.062227	-2.1813	-2.55	-3.0979	-2.6708	-2.6792	-2.9396	-2.65	-3.1896	-2.6375	-2.6063	-3.1104	-2.7146	-2.9667	-3.0229	-2.4354	-3	280.995	432.103	498.754	428.421	327.074	303.673	491.926	431.408	410.206	388.333	455.940	445.837	195.045	168.470	424.462	383.148	0.00055942	0.00087555	8.4385e-05	1236.1	5.3008e-06	6.1036e-06	1248.2	346.22	5.0553e-06	5.4491e-06	397.06	132.06	113.24	38.914	4.7169e-06	48.544	0.00039945	0.00040258	0.00010598	1230.2	4.3456e-06	4.3308e-06	1243	344.08	4.3893e-06	4.3215e-06	391.65	130.58	113.15	38.926	4.1476e-06	48.339	198.296	257.716	266.320	173.284	354.218	382.703	172.981	177.815	266.133	205.309	177.402	181.270	181.867	186.764	295.008	185.621	-8191	255	
1065.084	1	1	0	0	0.10428	0.36139	0.1213	0.23156	0.12134	0.15994	0.24122	0.21374	0.10437	0.048388	0.040237	0.057828	0.20828	0.18705	0.067384	0.25699	-2.3292	-2.3479	-3.1792	-2.75	-2.8292	-3.0187	-2.7083	-3.1917	-2.7792	-2.5417	-3.2375	-2.7771	-2.8104	-3.0771	-2.5542	-2.8063	378.251	463.681	249.454	489.758	178.583	283.167	419.829	437.693	436.665	396.396	277.014	367.314	449.999	486.839	422.075	197.454	0.00049361	0.0003118	7.1257e-05	1237.4	4.229e-06	4.4637e-06	1240.9	344.08	4.8584e-06	7.9909e-06	396.45	130.97	113.16	38.733	5.1514e-06	48.709	0.00040578	0.0003917	0.00010379	1229.2	4.4195e-06	4.2436e-06	1242	344.17	4.4376e-06	4.2496e-06	389.73	130.59	113.11	38.778	4.088e-06	48.484	198.294	311.165	280.460	173.130	321.139	340.383	173.068	177.559	304.493	279.235	177.364	181.261	182.169	186.716	271.482	186.201	-8191	255	
1065.179	1	1	0	0	0.31182	0.2047	0.17004	0.097579	0.1826	0.13289	0.34169	0.19819	0.076341	0.2212	0.071702	0.22688	0.077283	0.22801	0.040812	0.31338	-2.3896	-2.45	-3.0729	-2.6813	-2.7375	-3.0521	-2.6937	-3.0896	-2.8563	-2.5729	-3.1604	-2.7375	-2.6292	-3.0167	-2.4375	-2.9375	491.711	166.030	366.250	177.787	364.522	304.822	471.598	501.443	364.356	519.236	240.194	181.199	204.580	483.632	484.905	399.550	0.00054778	0.00075775	9.5777e-05	1233.1	5.2928e-06	1.9443e-06	1242.8	344.56	2.0237e-06	4.3956e-06	395.41	131.19	113.27	38.85	2.7061e-06	48.421	0.00040383	0.00038579	0.00010267	1230.4	4.4051e-06	4.2191e-06	1241	344.86	4.3737e-06	4.2136e-06	390.21	131.06	113.2	38.78	4.0502e-06	48.531	205.068	346.857	501.152	173.306	288.242	422.957	172.914	177.740	286.557	305.653	177.026	181.071	182.006	186.781	286.378	186.002	-8191	255	
1065.275	1	1	0	0	0.24656	0.24847	0.081638	0.19453	0.046826	0.081852	0.13113	0.26383	0.076325	0.095215	0.124	0.096346	0.20377	0.15218	0.16975	0.11158	-2.6521	-2.3083	-2.9979	-2.8958	-2.55	-3.1521	-2.7021	-2.8208	-2.9583	-2.4271	-3.1646	-2.9646	-2.5542	-3.2396	-2.6229	-2.8167	482.908	180.818	459.410	448.901	405.509	270.787	495.054	490.909	414.365	245.451	185.087	164.761	498.748	484.352	195.250	413.353	0.00049236	0.00053434	3.906e-05	1237.9	3.2956e-06	6.6523e-06	1245.1	344.08	4.1383e-06	3.0996e-06	397.45	131.55	113.45	39.041	3.7235e-06	48.777	0.00039926	0.0003837	0.00010282	1234.4	4.2851e-06	4.0978e-06	1242.5	345.11	4.2345e-06	4.1076e-06	390.67	131.25	112.97	38.77	4.132e-06	48.622	197.004	195.776	181.625	173.348	285.492	348.066	172.934	177.732	284.243	188.110	177.203	181.265	181.848	186.861	183.636	185.928	-8191	255	
1065.395	1	1	0	0	0.24529	0.058287	0.12554	0.3306	0.078192	0.1075	0.15199	0.2672	0.033197	0.083829	0.28013	0.061683	0.10645	0.092402	0.10594	0.058733	-2.5521	-2.3937	-2.9604	-3	-2.55	-3.2479	-2.7292	-2.8896	-3.1458	-2.4313	-2.9583	-3.0458	-2.5146	-3.3438	-2.7062	-2.7167	478.071	346.507	431.332	482.738	359.797	245.357	417.499	205.358	436.458	352.212	503.953	286.929	482.564	173.750	236.271	383.668	0.00052834	0.00055469	3.005e-05	1243.2	5.5478e-06	1.6368e-06	1246.2	343.3	2.1714e-06	2.7949e-06	396.91	131.32	113.04	38.756	4.6237e-06	48.524	0.0003881	0.00037087	0.00010509	1234.8	4.2137e-06	4.0374e-06	1245.2	345.18	4.2015e-06	4.0393e-06	392.24	131.11	112.78	38.62	4.3079e-06	48.641	195.088	230.805	254.507	173.187	355.970	261.442	173.010	177.912	327.165	235.755	177.296	181.146	181.970	187.045	215.268	186.163	-8191	255	
1065.467	1	1	0	0	0.043096	0.29284	0.11696	0.032881	0.33833	0.036924	0.23112	0.10018	0.075834	0.32739	0.17741	0.14619	0.24144	0.32487	0.19612	0.10309	-2.7062	-2.4792	-2.8	-3.15	-2.3792	-3.2854	-2.9	-2.8438	-3.025	-2.6333	-2.9188	-3.0104	-2.5354	-3.0104	-2.6312	-2.7396	310.885	326.773	377.127	474.278	233.650	213.668	466.553	379.284	366.052	190.163	194.020	220.921	195.406	469.226	293.086	224.584	0.00045203	0.0003022	0.00010654	1239.3	2.601e-06	3.4516e-06	1243.1	345.25	3.8443e-06	6.9071e-06	396.19	131.42	112.82	38.921	2.9035e-06	48.663	0.00038733	0.00037061	0.00010935	1234	4.1932e-06	4.0608e-06	1245.1	345.47	4.1751e-06	4.0842e-06	392.87	130.88	112.67	38.702	4.3966e-06	48.532	196.588	494.916	519.380	173.321	459.197	272.797	172.909	177.643	301.101	252.543	177.444	181.434	182.167	186.796	226.484	185.950	-8191	255	
1065.563	1	1	0	0	0.16689	0.29127	0.2109	0.1938	0.14913	0.089916	0.089986	0.28116	0.084636	0.10301	0.19627	0.11518	0.24356	0.24299	0.16174	0.2097	-2.7313	-2.5583	-2.7375	-3.075	-2.4458	-3.1875	-2.9292	-2.5458	-2.9896	-2.5771	-2.9062	-3.2333	-2.3208	-3.0083	-2.85	-2.4958	519.093	201.195	400.130	491.562	473.120	202.091	516.497	203.484	246.128	239.706	178.243	489.825	508.086	459.382	356.152	491.862	0.00049936	0.0007409	0.00016	1236.4	6.0585e-06	6.6312e-06	1247.7	345.1	2.8086e-06	4.2777e-06	396.87	130.9	113.33	38.931	3.2696e-06	48.471	0.00037678	0.00037227	0.00010996	1232.2	4.058e-06	4.0215e-06	1246.6	344.7	3.996e-06	4.0898e-06	393.56	130.68	112.7	38.817	4.3165e-06	48.395	196.027	231.138	502.691	173.187	306.460	243.834	173.158	177.585	336.375	216.157	177.386	181.578	181.851	186.940	313.960	185.865	-8191	255	
1065.659	1	1	0	0	0.18989	0.32292	0.17925	0.17078	0.15699	0.10028	0.36996	0.10276	0.068545	0.11972	0.1542	0.07911	0.35211	0.13403	0.16458	0.24285	-2.7438	-2.5292	-2.7479	-3.2979	-2.5521	-3.0021	-2.9583	-2.5563	-3.15	-2.7708	-2.6542	-3.0187	-2.625	-2.9375	-2.9917	-2.3875	318.318	420.863	438.853	478.002	348.051	348.868	407.643	428.702	293.025	403.229	386.637	266.561	478.142	405.658	391.704	509.223	0.00041104	0.00067777	5.0592e-05	1233.4	3.4823e-06	3.5629e-06	1239.7	344.67	9.6231e-06	2.5913e-06	397.59	131.19	113.77	38.794	1.0891e-06	48.397	0.00036521	0.00037965	0.00010917	1228.2	3.9743e-06	4.1609e-06	1241.7	344.24	3.933e-06	4.2261e-06	392.17	130.33	112.63	38.866	4.2682e-06	48.257	203.638	390.796	277.508	173.243	341.348	347.279	173.024	177.931	259.485	194.825	177.465	181.244	181.822	186.666	207.505	185.940	-8191	255	
1065.755	1	1	0	0	0.21844	0.12725	0.12492	0.31729	0.084847	0.23384	0.46281	0.25736	0.16566	0.014275	0.17246	0.20549	0.19565	0.39123	0.23099	0.21153	-2.7458	-2.7812	-2.5438	-3.2021	-2.4896	-2.9021	-3.1146	-2.7104	-2.9604	-2.8667	-2.6167	-3.1958	-2.6646	-2.8937	-3.0125	-2.5917	182.838	496.702	480.776	512.537	506.775	409.433	519.544	476.117	390.008	466.727	474.652	482.726	470.823	461.021	489.679	494.710	0.00049215	0.0008288	0.00010477	1229.3	2.8054e-06	1.6758e-06	1240.6	344.5	3.997e-06	5.7474e-06	398.02	131.34	113.3	38.889	2.278e-06	48.706	0.00036592	0.00039399	0.00010834	1224.8	4.0112e-06	4.3344e-06	1241.1	343.89	4.0051e-06	4.3424e-06	391.18	130.31	112.47	38.917	4.1777e-06	48.249	195.714	227.379	190.288	173.455	239.809	316.328	172.968	177.785	283.204	272.178	177.574	181.184	181.799	186.828	266.583	185.770	-8191	255	
1065.876	1	1	0	0	0.062271	0.26949	0.075465	0.20055	0.14232	0.1883	0.17538	0.068207	0.21282	0.021536	0.20011	0.12587	0.10123	0.14222	0.051759	0.14624	-2.6396	-2.6813	-2.5375	-3.1562	-2.4437	-2.7292	-3.2875	-2.5062	-2.8708	-3.0438	-2.7354	-3.1312	-2.6813	-2.6708	-3.2021	-2.55	503.414	324.195	373.798	497.227	409.926	303.460	167.286	163.082	473.079	222.721	159.952	163.767	219.852	498.993	161.923	264.964	0.00054727	0.00043887	0.00010285	1230	5.5447e-06	6.6277e-06	1238.1	342.83	1.3337e-06	9.1339e-07	395.73	131.13	113.03	38.706	3.9909e-06	48.469	0.00037094	0.00039641	0.00010602	1223.5	4.0955e-06	4.2939e-06	1238.8	343.13	4.1102e-06	4.3135e-06	390.97	130.09	112.76	38.848	4.1232e-06	48.198	196.601	179.357	190.563	173.166	294.584	260.539	173.038	177.782	220.046	299.135	177.555	181.183	181.853	186.908	320.911	186.036	-8191	255	
1065.972	1	1	0	0	0.12398	0.097118	0.10884	0.21564	0.15627	0.15098	0.16775	0.1848	0.26123	0.24258	0.28462	0.16011	0.11816	0.16094	0.12507	0.023862	-2.4833	-2.8771	-2.4146	-3.3417	-2.6417	-2.75	-3.3542	-2.5917	-2.9083	-3.1542	-2.4542	-3.2167	-2.9146	-2.6875	-3.2375	-2.6312	212.635	474.780	228.498	213.733	328.650	304.337	512.788	454.619	316.765	228.647	489.945	476.589	432.082	454.260	299.046	391.130	0.00056724	0.00091948	8.9081e-05	1230	2.3722e-06	9.4434e-06	1243.5	343.74	7.379e-06	8.163e-06	398.63	130.93	112.85	38.892	3.7765e-06	48.577	0.00038651	0.00039198	0.00010535	1222.1	4.2691e-06	4.2722e-06	1238.1	342.88	4.2903e-06	4.2747e-06	390.68	130.08	113.04	38.831	4.0749e-06	48.149	194.699	260.604	481.688	173.415	341.602	339.417	172.962	177.645	238.760	239.870	177.326	181.325	181.862	186.762	366.074	185.908	-8191	255	
1066.044	1	1	0	0	0.12791	0.097193	0.12141	0.24055	0.087596	0.15532	0.12511	0.083467	0.28097	0.19765	0.15416	0.3067	0.37042	0.37195	0.074529	0.1822	-2.3917	-2.9833	-2.2229	-3.0917	-2.7562	-2.6896	-3.2792	-2.6229	-2.6937	-3.1188	-2.5563	-3.1021	-2.8187	-2.5917	-3.1458	-2.7417	198.217	318.642	268.258	510.867	504.974	331.807	445.720	401.547	219.810	517.687	441.165	476.610	511.788	186.849	404.727	373.034	0.00058723	0.00076227	2.8142e-05	1228.8	2.8565e-06	1.3381e-06	1237.4	344.42	4.4854e-06	4.5911e-06	396.3	130.89	112.53	38.711	6.0295e-06	48.574	0.00039671	0.00038756	0.00010319	1222.7	4.341e-06	4.2506e-06	1235.5	343.34	4.3713e-06	4.1849e-06	389.14	130.34	112.86	38.739	4.0013e-06	48.318	190.885	274.696	263.245	173.125	295.908	290.800	172.849	177.563	279.210	256.696	177.394	181.280	181.855	186.733	334.758	186.096	-8191	255	
1066.164	1	1	0	0	0.23736	0.11439	0.21498	0.51048	0.27103	0.10281	0.19932	0.036368	0.062919	0.15076	0.089189	0.19662	0.33993	0.33005	0.35457	0.12121	-2.2167	-3.0604	-2.4021	-3.2125	-2.7979	-2.4062	-3.3625	-2.6417	-2.7396	-3.1792	-2.5687	-2.9313	-3.0375	-2.4729	-3.0625	-2.6958	191.835	516.648	416.289	483.144	467.676	265.296	439.738	442.402	505.416	312.267	498.996	164.802	463.222	510.435	373.369	456.314	0.00045634	0.00022086	6.928e-05	1228.8	2.4497e-06	3.3818e-06	1237.9	345.55	1.0684e-05	7.0726e-06	395.89	130.93	112.85	38.613	2.4287e-06	48.516	0.00039818	0.00037976	0.00010284	1224	4.3429e-06	4.1691e-06	1235.5	344.74	4.3242e-06	4.1292e-06	389.25	130.66	112.82	38.665	3.9676e-06	48.45	198.815	406.114	165.356	173.224	247.831	311.346	173.026	177.756	296.711	282.608	177.335	181.282	181.938	186.763	313.298	186.215	-8191	255	
1066.259	1	1	0	0	0.16926	0.37327	0.097158	0.23042	0.19004	0.25993	0.10139	0.17737	0.071521	0.24003	0.21931	0.17536	0.31211	0.28203	0.13733	0.19407	-2.2167	-3.0271	-2.3208	-2.9854	-3.0042	-2.5083	-3.2188	-2.7	-2.3854	-3.1479	-2.5833	-2.9688	-3.1083	-2.275	-2.8688	-2.75	166.975	309.722	236.192	490.521	422.755	215.369	463.930	457.993	331.418	321.010	470.933	209.884	513.014	183.905	175.736	496.961	0.00053299	0.00012765	0.00015197	1232.1	2.9588e-06	4.5688e-06	1237.5	343.56	4.933e-06	1.5346e-06	394.6	130.46	113.13	38.864	7.7414e-06	48.579	0.00039451	0.00037653	0.00010186	1227.2	4.2769e-06	4.1375e-06	1235.7	344.63	4.2542e-06	4.1045e-06	390.25	130.79	112.72	38.64	4.0821e-06	48.512	200.696	398.819	511.082	173.229	339.691	344.919	173.164	177.752	282.398	315.899	176.968	181.519	181.812	186.803	255.005	185.943	-8191	255	
1066.357	1	1	0	0	0.091978	0.19599	0.1085	0.30985	0.24385	0.19273	0.38682	0.089852	0.10348	0.31762	0.06899	0.16922	0.39343	0.16167	0.14003	0.16196	-2.2313	-3.1375	-2.3896	-2.9875	-2.8542	-2.4104	-3.4562	-2.9354	-2.6437	-3.1917	-2.6188	-2.9	-3.1271	-2.4313	-2.8521	-2.8312	412.314	272.411	252.351	407.319	284.074	214.221	494.895	487.341	263.829	327.666	292.577	438.853	468.307	460.680	442.815	462.525	0.00053806	0.0006979	0.00020249	1233.2	2.3489e-06	8.0632e-06	1239.7	343.27	4.9632e-06	8.6298e-06	395.56	131.09	112.98	38.608	4.0848e-06	48.629	0.0003906	0.00037365	0.00010498	1230.1	4.2301e-06	4.1087e-06	1238.9	344.51	4.263e-06	4.0787e-06	390.86	130.95	112.67	38.563	4.2795e-06	48.508	194.578	307.132	166.206	173.327	432.312	274.802	173.012	177.723	263.317	310.184	177.258	181.600	182.024	186.741	237.945	185.778	-8191	255	
1066.476	1	1	0	0	0.18866	0.054802	0.17112	0.11784	0.1778	0.12667	0.12404	0.18283	0.08187	0.26465	0.30459	0.20747	0.098404	0.20153	0.18291	0.25891	-1.9146	-3.2583	-2.7354	-2.6937	-3.3375	-2.3146	-3.1458	-3.0583	-2.3271	-3.0646	-2.8229	-2.8146	-3.4417	-2.5563	-2.7604	-2.9146	449.002	395.656	271.533	498.895	370.807	452.013	465.008	474.443	277.134	464.647	440.083	388.847	500.770	223.104	286.444	506.599	0.00050467	0.00017574	0.00013729	1231.2	7.0894e-07	1.4571e-06	1242.3	343.89	4.3323e-06	4.032e-06	396.56	131.26	112.19	38.595	4.8113e-06	48.465	0.00039034	0.00037129	0.00011048	1230	4.2196e-06	4.0968e-06	1242.7	344.82	4.266e-06	4.0928e-06	393.01	130.92	112.52	38.565	4.425e-06	48.379	188.304	258.873	515.491	173.297	415.031	247.319	172.974	177.763	303.293	384.040	177.101	181.412	182.185	186.810	251.974	186.012	-8191	255	
1066.572	1	1	0	0	0.13839	0.17925	0.1157	0.17112	0.076735	0.23128	0.13174	0.3048	0.090083	0.1141	0.27755	0.01295	0.33296	0.39088	0.03301	0.066418	-2.0438	-3.0667	-2.5417	-2.7729	-3.1042	-2.4188	-2.9813	-3.0833	-2.3917	-2.8917	-2.9292	-2.6917	-3.3208	-2.7625	-2.8833	-3.1958	412.254	469.020	494.837	429.992	223.220	449.718	200.160	472.116	320.681	507.591	513.623	517.946	162.638	201.284	346.198	392.012	0.00050852	0.00062672	0.00019027	1237.2	4.5691e-06	3.3212e-06	1238.6	343.46	2.5532e-06	6.2151e-06	395.65	130.94	112.86	38.779	2.0768e-06	48.717	0.00038369	0.00037275	0.00011236	1230.9	4.1378e-06	4.1431e-06	1243.3	344.31	4.1706e-06	4.1494e-06	392.99	130.7	112.36	38.734	4.4461e-06	48.423	199.365	220.283	480.877	173.282	335.911	321.790	173.030	177.644	360.552	352.322	177.184	181.167	181.953	186.887	272.856	186.018	-8191	255	
1066.668	1	1	0	0	0.21537	0.058892	0.10962	0.23259	0.13221	0.20833	0.27696	0.15031	0.032828	0.23122	0.32787	0.31073	0.14277	0.23026	0.026556	0.13476	-1.8208	-3.1083	-2.7458	-2.6063	-3.2771	-2.4354	-2.8125	-3.1479	-2.5125	-2.8271	-3.0083	-2.6667	-3.0687	-2.6667	-2.6688	-3.1625	482.085	186.897	232.582	498.201	224.539	173.291	449.755	428.171	282.786	439.202	167.947	367.548	350.345	449.039	480.654	517.153	0.00055009	0.00056509	0.00010914	1236	4.3843e-06	7.3193e-06	1242.2	343.56	3.2357e-06	4.3416e-06	396.08	131.69	112.5	38.794	4.6986e-06	48.481	0.00037823	0.00038509	0.00011313	1229.8	4.0711e-06	4.2926e-06	1244.2	344.15	4.0753e-06	4.2828e-06	392.83	130.55	112.31	38.81	4.4047e-06	48.31	207.004	192.903	274.003	173.196	376.924	290.771	172.910	177.791	340.963	255.401	177.165	181.244	181.661	186.740	228.031	185.784	-8191	255	
1066.764	1	1	0	0	0.14445	0.13439	0.071338	0.1398	0.19169	0.20628	0.36133	0.14466	0.05517	0.0069781	0.077608	0.22378	0.069626	0.39188	0.088861	0.25256	-1.9646	-2.9417	-2.8896	-2.5854	-2.9896	-2.6417	-2.6979	-3.2521	-2.5979	-2.8688	-3.0729	-2.4625	-3.1792	-2.9479	-2.5708	-3.1437	226.071	440.429	370.926	496.517	359.664	357.623	424.021	497.579	350.909	209.868	489.166	482.005	444.692	498.380	349.313	177.852	0.0004761	0.00044876	3.5804e-05	1236.5	5.7463e-06	1.4842e-06	1243	344.25	5.9115e-06	3.9239e-06	396.12	130.53	113.15	38.566	3.159e-06	48.603	0.00037489	0.00039962	0.00011082	1228.2	4.0562e-06	4.3961e-06	1243.7	343.84	4.104e-06	4.4554e-06	392.05	130.31	112.48	38.791	4.3216e-06	48.273	191.041	250.819	472.211	173.361	312.305	278.654	173.117	177.683	197.613	488.030	177.335	181.252	182.070	186.784	299.891	185.768	-8191	255	
1066.860	1	1	0	0	0.18263	0.16215	0.36248	0.15264	0.1913	0.17047	0.27689	0.1981	0.072591	0.084577	0.065746	0.16989	0.13774	0.29909	0.19703	0.12584	-1.9979	-2.6167	-3.0938	-2.5812	-3.1125	-2.8854	-2.7604	-3.225	-2.6333	-2.8563	-3.1646	-2.4875	-2.9813	-3.0604	-2.4146	-3.2167	473.732	222.636	188.989	161.306	227.967	238.436	452.550	519.131	463.812	461.108	349.973	185.793	487.146	205.264	375.019	449.630	0.00056335	0.00077224	3.9871e-05	1231.8	6.5227e-06	1.8146e-06	1241.8	343.72	3.1473e-06	1.4097e-06	395.46	131.02	112.69	38.762	6.0524e-06	48.722	0.00038087	0.00040693	0.00010893	1226.7	4.1471e-06	4.488e-06	1242.5	343.34	4.2048e-06	4.4561e-06	391.07	130.11	112.72	38.876	4.2458e-06	48.24	190.136	266.076	170.760	173.227	297.783	277.732	172.924	177.579	278.258	460.802	177.537	181.368	181.934	186.580	315.277	185.992	-8191	255	
1066.956	1	1	0	0	0.10165	0.16392	0.39115	0.24472	0.30415	0.18096	0.22396	0.15573	0.16264	0.087899	0.15204	0.22998	0.33397	0.29392	0.10776	0.16752	-2.2896	-2.8854	-3.1188	-2.325	-2.9813	-2.9021	-2.5104	-3.2292	-2.7667	-2.7167	-3.2958	-2.4854	-3.0687	-3.0333	-2.5854	-3.1646	199.539	273.873	333.100	430.847	401.278	160.766	437.820	376.622	326.277	399.688	495.848	368.763	178.886	468.805	465.991	370.237	0.00047661	0.00073892	5.9875e-05	1232.1	4.086e-06	2.5124e-06	1241.8	344.43	4.1198e-06	5.7641e-06	397.03	130.66	112.93	38.81	2.9053e-06	48.614	0.00039359	0.00040372	0.00010687	1226.3	4.2829e-06	4.365e-06	1241.5	343.32	4.3396e-06	4.3728e-06	390.85	130.03	112.9	38.871	4.1896e-06	48.274	197.724	249.526	225.727	173.397	250.424	372.863	173.184	177.797	323.857	320.533	177.105	181.031	181.832	186.443	301.242	185.884	-8191	255	
1067.053	1	1	0	0	0.37277	0.21004	0.0059621	0.31447	0.12151	0.15678	0.071052	0.2629	0.064922	0.072026	0.11426	0.16098	0.33123	0.132	0.25032	0.33076	-2.3021	-2.6979	-3.0896	-2.6875	-2.9854	-2.8521	-2.7396	-3.1875	-2.75	-2.4792	-3.2438	-2.7521	-2.9479	-3.075	-2.3583	-3.1729	484.814	209.328	287.470	464.347	329.150	168.261	392.911	489.694	339.326	497.516	477.878	450.147	494.983	484.201	238.173	507.864	0.00046732	0.00044621	0.00021237	1237.1	4.6262e-06	5.1006e-06	1241.5	344.43	2.1003e-06	3.6649e-06	397.61	130.95	113.17	38.781	9.6358e-07	48.51	0.00040557	0.00039326	0.00010545	1228.9	4.3877e-06	4.2932e-06	1239.9	343.86	4.4474e-06	4.294e-06	390.82	130.44	113.28	38.831	4.1137e-06	48.319	200.659	452.857	235.306	173.251	318.015	300.757	172.830	177.633	231.772	350.307	177.242	181.297	181.996	186.741	202.893	185.702	-8191	255	
1067.171	1	1	0	0	0.16903	0.22771	0.082633	0.27827	0.075258	0.08301	0.17864	0.12928	0.038895	0.12183	0.21988	0.12472	0.13162	0.068893	0.017129	0.24667	-2.4229	-2.4417	-3.1604	-2.675	-2.5187	-3.15	-2.5354	-3.0021	-2.9042	-2.5875	-3.125	-2.8167	-2.9292	-3.2625	-2.5375	-3.1354	409.662	399.234	186.014	423.305	418.549	165.354	447.816	510.175	309.065	248.441	186.682	503.373	438.876	463.274	197.980	474.818	0.00058216	0.00075248	0.00015444	1231.9	3.7721e-06	8.8926e-06	1241.9	345.74	3.4789e-06	4.1351e-06	396.05	130.97	113.13	38.945	4.241e-06	48.454	0.00041	0.0003903	0.00010353	1227.8	4.4505e-06	4.2351e-06	1239.5	345.18	4.4311e-06	4.2786e-06	389.58	130.82	113.18	38.816	4.0752e-06	48.443	198.833	358.986	495.575	173.244	361.298	245.302	172.971	177.432	300.342	225.339	177.248	181.368	182.069	186.587	242.892	185.833	-8191	255	
1067.268	1	1	0	0	0.086103	0.095969	0.11748	0.36061	0.26324	0.2806	0.25935	0.28826	0.098304	0.2163	0.27834	0.071395	0.2025	0.076959	0.2752	0.11284	-2.3917	-2.4625	-3.0812	-2.9813	-2.7062	-3.2062	-2.6271	-3.0146	-3.1271	-2.7146	-3.2646	-2.8771	-2.9833	-3.3375	-2.5229	-2.9875	462.249	460.418	489.374	501.113	299.338	206.698	380.817	180.924	336.100	314.760	509.434	318.874	178.004	384.127	381.286	315.672	0.00055627	0.00034404	0.00018943	1232.8	3.4676e-06	6.8265e-06	1244.3	344.38	1.5894e-06	8.6366e-07	396.51	130.85	112.75	38.759	3.0301e-06	48.595	0.0004035	0.00038525	0.00010275	1231	4.3401e-06	4.1553e-06	1240.3	344.99	4.3345e-06	4.1999e-06	390.07	131.02	112.86	38.698	4.1225e-06	48.605	195.935	270.117	209.373	172.987	463.335	291.695	172.926	177.750	272.632	259.255	177.242	181.384	181.952	186.680	361.166	185.885	-8191	255	
1067.341	1	1	0	0	0.17345	0.066652	0.065618	0.15249	0.13188	0.056705	0.048836	0.31131	0.13305	0.22401	0.24226	0.19847	0.22428	0.23794	0.13636	0.31087	-2.5729	-2.3229	-3.0979	-2.9083	-2.5792	-3.0854	-2.7271	-2.7354	-3.0417	-2.3937	-2.9083	-2.9	-2.5292	-3.0854	-2.5396	-2.8167	162.136	181.674	278.542	426.520	445.358	257.945	482.212	454.999	442.610	410.936	355.735	239.470	516.938	498.284	322.402	469.448	0.00046628	0.00055014	1.5656e-05	1232.1	1.3397e-06	1.1012e-06	1242.5	344.08	6.168e-06	6.4465e-06	397.39	130.73	112.55	38.903	7.5065e-06	48.512	0.00039399	0.00037818	0.00010453	1232.6	4.29e-06	4.1152e-06	1239.3	345.15	4.2537e-06	4.1038e-06	391.01	131.07	112.71	38.632	4.2694e-06	48.56	209.097	331.378	197.338	173.281	339.913	278.097	172.945	177.803	254.159	314.409	177.302	181.064	181.881	186.592	297.136	185.913	-8191	255	
1067.437	1	1	0	0	0.28451	0.092152	0.17784	0.099371	0.23866	0.19388	0.49516	0.056078	0.19217	0.094816	0.13349	0.11763	0.19123	0.27966	0.25537	0.13707	-2.7042	-2.2917	-3.0062	-2.9708	-2.4958	-3.0729	-2.5896	-2.6854	-3.1854	-2.4958	-3.0146	-2.9375	-2.4437	-3.1417	-2.7708	-2.9083	478.030	458.850	352.634	458.599	464.377	168.852	443.524	457.216	501.501	170.753	485.639	183.170	437.389	362.718	386.541	487.977	0.00044007	0.00014401	5.6017e-05	1234.3	3.2924e-06	3.7223e-06	1240.2	343.04	3.7531e-06	1.5227e-06	397.36	131.45	112.57	38.77	3.5096e-06	48.498	0.00038981	0.0003735	0.00010806	1230.8	4.2233e-06	4.0502e-06	1241.9	344.57	4.1994e-06	4.0599e-06	392.63	130.96	112.6	38.603	4.3934e-06	48.444	200.470	328.189	471.427	173.281	342.630	352.479	172.891	177.791	363.337	326.718	177.101	181.126	181.930	186.678	311.303	186.190	-8191	255	
1067.556	1	1	0	0	0.14407	0.11485	0.23324	0.16973	0.10115	0.069791	0.1748	0.39356	0.13797	0.31919	0.15242	0.17798	0.17294	0.26553	0.27592	0.037327	-2.625	-2.5396	-2.8729	-3.0167	-2.325	-3.1479	-2.9625	-2.7833	-3.3354	-2.4333	-2.9354	-3.1	-2.5375	-3.1021	-2.8146	-2.6208	474.017	366.359	243.091	515.452	355.671	336.440	430.108	462.360	229.175	458.398	433.278	451.610	396.824	177.099	339.690	392.819	0.00045237	0.00062116	0.00012047	1230.4	2.6359e-06	7.6082e-06	1239.8	344.51	6.3765e-06	1.6491e-06	395.68	130.24	113.04	38.689	2.7079e-06	48.532	0.00038172	0.00037291	0.00011184	1230.2	4.1668e-06	4.0515e-06	1243	344.46	4.1324e-06	4.1708e-06	392.48	130.49	112.54	38.674	4.4454e-06	48.477	201.667	214.401	216.458	173.243	389.514	323.664	173.010	177.855	349.224	239.095	177.067	181.230	181.922	186.656	324.028	185.888	-8191	255	
1067.652	1	1	0	0	0.18206	0.16071	0.19976	0.2476	0.17441	0.25319	0.18621	0.21986	0.1686	0.076881	0.1155	0.35188	0.28791	0.11002	0.034516	0.015099	-2.8063	-2.5771	-2.7	-3.1583	-2.4646	-3.0917	-2.9083	-2.6458	-3.0375	-2.6312	-2.9125	-3.2708	-2.6146	-2.9	-3.1396	-2.5417	380.304	368.743	369.092	517.206	403.360	299.180	431.847	435.569	497.640	405.941	451.419	479.777	433.377	318.502	166.006	438.660	0.00041378	0.0012593	0.00011659	1232.3	2.4517e-07	3.4286e-06	1237.6	343.68	3.6569e-06	3.9154e-06	396.9	130.46	112.63	38.724	2.8187e-06	48.831	0.00037451	0.00038285	0.00011153	1229.4	4.0886e-06	4.2365e-06	1242.4	343.86	4.0449e-06	4.2741e-06	392.82	130.36	112.31	38.758	4.3644e-06	48.454	190.253	190.523	239.769	173.308	305.534	306.727	172.996	177.727	344.708	213.606	177.410	181.266	181.715	186.702	232.246	185.981	-8191	255	
1067.748	1	1	0	0	0.071991	0.10575	0.11581	0.19778	0.08924	0.11439	0.39842	0.020553	0.10648	0.13415	0.33622	0.13647	0.045835	0.14284	0.047035	0.026837	-2.7417	-2.5917	-2.5542	-3.1896	-2.4458	-2.8833	-3.1646	-2.5667	-3.3708	-2.8	-2.7292	-3.275	-2.8063	-3.0292	-3.0938	-2.3625	404.810	377.993	475.208	491.762	174.976	187.029	464.341	315.979	274.181	489.661	163.455	340.458	178.396	197.113	514.193	493.596	0.00048432	0.00052236	0.00015499	1233	3.736e-06	3.6045e-06	1237.9	344.23	2.428e-06	1.4048e-06	396.71	131.32	112.58	38.722	7.3612e-06	48.505	0.00036866	0.00039468	0.00011116	1227.2	3.9976e-06	4.3239e-06	1241.6	343.97	4.0388e-06	4.3706e-06	392.1	130.38	112.4	38.882	4.2511e-06	48.275	198.896	242.089	186.956	173.223	326.616	475.389	173.018	177.638	285.660	216.693	177.516	181.221	181.882	186.694	242.558	185.975	-8191	255	
1067.845	1	1	0	0	0.40191	0.087712	0.11287	0.10045	0.12115	0.062703	0.23926	0.27333	0.14505	0.087073	0.28734	0.098994	0.18449	0.16253	0.17132	0.10946	-2.5938	-2.8979	-2.4708	-3.2188	-2.4708	-2.9708	-3.2979	-2.6688	-3.0042	-3.0375	-2.6917	-3.3104	-2.5854	-2.8146	-2.9938	-2.4354	486.655	459.769	414.885	233.934	260.266	162.354	408.030	425.025	503.674	209.021	394.335	165.912	172.248	475.254	203.926	496.249	0.00051954	0.00096444	0.00017817	1235	3.0369e-06	7.2565e-06	1239	344.39	8.4139e-06	2.8212e-06	394.01	131.18	112.72	38.669	5.0824e-06	48.328	0.00037278	0.00040421	0.00010868	1226	4.1112e-06	4.4001e-06	1239.2	343.52	4.1522e-06	4.4113e-06	390.52	130.21	112.61	38.895	4.2086e-06	48.161	201.665	266.983	519.095	173.393	304.661	356.268	172.846	177.683	261.711	306.560	177.290	181.082	181.892	186.810	293.810	186.027	-8191	255	
1067.965	1	1	0	0	0.071097	0.12296	0.075345	0.16926	0.11987	0.34132	0.096103	0.40121	0.16175	0.15162	0.31347	0.2114	0.23465	0.020147	0.095451	0.28903	-2.65	-2.9667	-2.425	-3.575	-2.7938	-2.6688	-3.1937	-2.6958	-3.0021	-2.8937	-2.4271	-3.0854	-2.5771	-2.7208	-3.075	-2.4479	364.466	518.742	222.924	469.695	318.869	506.946	482.263	186.561	278.702	213.931	517.190	193.875	430.719	405.368	484.664	308.660	0.00052666	0.00032514	0.00012332	1236.9	2.1586e-06	2.7132e-06	1244.3	343.6	5.7091e-06	3.7761e-06	398.93	131.4	112.76	38.764	2.7093e-06	48.607	0.00038683	0.00040273	0.00010719	1225.9	4.2645e-06	4.3867e-06	1240	343.45	4.2865e-06	4.3794e-06	391.21	130.16	112.79	38.833	4.1473e-06	48.243	188.537	254.402	263.117	173.188	253.769	356.560	172.856	177.622	216.000	309.163	177.199	181.234	181.910	186.819	205.135	186.069	-8191	255	
1068.037	1	1	0	0	0.29651	0.22848	0.10194	0.28237	0.13377	0.22523	0.05141	0.29304	0.19824	0.16296	0.11381	0.24518	0.051865	0.038951	0.19185	0.084392	-2.2771	-3.1125	-2.2854	-3.1208	-2.7896	-2.7875	-3.2875	-2.5417	-2.9583	-3.1521	-2.3958	-3.1625	-2.7687	-2.6396	-3.0187	-2.6354	363.631	487.985	255.898	478.913	260.631	304.206	388.579	479.697	293.064	511.850	511.859	490.939	349.705	466.668	248.261	478.191	0.00052287	0.00065748	0.00017305	1232.6	3.9831e-06	5.5571e-06	1240.7	345.49	1.9792e-06	3.7263e-06	396.71	131.02	113.09	38.757	3.0993e-06	48.586	0.00039925	0.00039274	0.00010502	1223.6	4.3559e-06	4.2813e-06	1238.6	343.9	4.3603e-06	4.2814e-06	390.75	130.04	112.96	38.795	4.0868e-06	48.215	188.104	239.106	217.138	173.197	326.401	345.421	172.989	177.608	257.786	229.537	177.220	181.421	181.813	187.012	369.430	186.108	-8191	255	
1068.157	1	1	0	0	0.2369	0.18359	0.11227	0.15496	0.18861	0.24763	0.14375	0.33269	0.26252	0.1472	0.13862	0.023285	0.29706	0.15052	0.06994	0.1653	-2.3438	-2.9958	-2.3063	-3.2188	-2.9417	-2.4417	-3.2812	-2.8792	-2.9146	-3.1521	-2.6042	-3.0646	-2.9667	-2.5979	-3.1042	-2.85	239.876	264.195	502.225	229.591	516.681	398.740	486.470	408.903	396.287	477.561	423.448	191.841	510.976	470.020	438.370	255.556	0.00050246	0.00056683	0.00030569	1231.9	2.7959e-06	5.1983e-06	1240.3	344.56	5.6865e-06	7.5028e-06	395.45	130.76	112.66	38.881	4.6979e-06	48.329	0.00040341	0.00038591	0.00010374	1226.3	4.3922e-06	4.2164e-06	1236.6	343.9	4.4005e-06	4.1993e-06	389.77	130.59	113.01	38.802	4.0263e-06	48.366	200.034	344.500	197.144	173.187	331.009	323.458	172.988	177.496	238.050	252.701	177.280	181.294	182.140	186.859	262.588	185.661	-8191	255	
1068.254	1	1	0	0	0.2148	0.010273	0.182	0.20843	0.21942	0.081562	0.13839	0.17312	0.11649	0.036437	0.09016	0.14655	0.22567	0.18107	0.096022	0.16105	-2.1771	-3.0646	-2.4583	-2.9917	-3.0271	-2.3917	-3.375	-2.6292	-2.4542	-3.0604	-2.6479	-3.0833	-2.9979	-2.5604	-3.0667	-2.7313	265.351	458.106	293.070	476.916	171.038	257.831	443.909	509.917	238.135	412.735	424.079	234.642	164.490	467.358	231.456	451.801	0.00056324	0.00118	7.6473e-05	1230.3	1.2145e-06	2.4785e-06	1239.4	344.3	1.0971e-06	3.1198e-06	396.42	130.9	112.96	38.715	7.0517e-06	48.479	0.00040497	0.0003823	0.00010255	1227.6	4.3384e-06	4.2134e-06	1235.7	344.75	4.352e-06	4.1812e-06	389.37	130.88	112.72	38.641	4.0125e-06	48.482	190.718	243.910	423.866	173.109	333.621	282.396	172.828	177.744	170.371	316.894	176.961	181.206	181.975	186.769	259.791	186.074	-8191	255	
1068.348	1	1	0	0	0.17135	0.374	0.098866	0.24895	0.31166	0.32803	0.52992	0.20065	0.20498	0.09255	0.14826	0.12503	0.079802	0.1142	0.16281	0.096522	-2.1479	-3.0417	-2.5146	-3	-3.0271	-2.4833	-3.15	-2.7958	-2.5354	-3.3958	-2.7583	-3.0062	-3.1208	-2.7083	-2.9875	-2.9188	196.702	322.266	161.459	485.481	202.955	470.508	445.104	217.697	296.900	396.451	443.315	410.068	338.350	282.571	252.510	336.246	0.00047317	0.00068828	9.159e-05	1235.8	4.1969e-06	3.3069e-06	1237.3	344.69	5.3288e-06	4.0254e-06	395.81	130.68	113.19	38.977	3.3877e-06	48.276	0.00039283	0.0003725	0.00010315	1231.4	4.237e-06	4.0887e-06	1236	345.24	4.2124e-06	4.0365e-06	390.36	131.04	112.85	38.697	4.1451e-06	48.481	205.644	269.927	200.098	173.163	307.983	477.094	172.980	177.486	328.635	184.710	177.052	181.355	181.905	186.930	219.258	185.879	-8191	255	
1068.446	1	1	0	0	0.16878	0.10651	0.26413	0.17379	0.19881	0.21843	0.065681	0.30585	0.074806	0.1145	0.07341	0.29486	0.18241	0.20606	0.31714	0.18142	-2.0167	-3.0375	-2.5667	-2.6875	-3.1583	-2.2542	-3.0167	-2.8521	-2.4604	-3.0333	-2.6	-2.7125	-3.1729	-2.525	-2.9625	-3.075	173.628	337.377	466.879	497.903	179.435	402.863	438.211	491.603	347.585	423.623	434.332	461.617	245.011	175.845	512.484	374.456	0.00049792	0.00082346	0.00015805	1236.3	2.8697e-06	3.4824e-06	1234.2	344.81	7.9735e-06	4.5095e-06	396.18	131.08	113	38.733	1.5387e-06	48.467	0.00038461	0.00036684	0.00010696	1230.8	4.1506e-06	4.0424e-06	1237.8	345.09	4.1896e-06	4.0251e-06	391.44	130.9	112.76	38.597	4.3323e-06	48.508	209.555	220.755	167.502	173.229	392.029	296.116	173.010	177.693	334.673	273.624	177.268	181.403	181.883	186.656	485.580	186.036	-8191	255	
1068.565	1	1	0	0	0.07311	0.057722	0.21568	0.18413	0.052948	0.13871	0.20807	0.24884	0.29568	0.093291	0.18512	0.11781	0.014307	0.02215	0.13162	0.061965	-1.9417	-3.0875	-2.6833	-2.6875	-3.1208	-2.5479	-2.9271	-3.0958	-2.4396	-3.1437	-2.9146	-2.7417	-3.2917	-2.5667	-2.85	-3.1833	403.586	288.346	276.679	505.117	461.764	228.634	365.753	488.365	346.673	262.298	515.702	400.563	412.407	433.026	219.248	370.740	0.00043783	0.00032128	5.7044e-05	1236.2	9.3832e-07	5.6873e-06	1241.6	342.83	5.4484e-06	3.8134e-06	397.23	130.78	112.86	38.84	6.8579e-06	48.691	0.00038362	0.00036606	0.00011039	1229.9	4.1135e-06	4.0403e-06	1242.7	344.45	4.1127e-06	4.0387e-06	392.48	130.76	112.57	38.725	4.3152e-06	48.445	192.338	480.637	508.478	173.606	289.465	290.015	172.922	177.610	319.211	292.370	177.425	181.247	181.931	186.831	249.643	186.103	-8191	255	
1068.636	1	1	0	0	0.11276	0.19306	0.16882	0.3372	0.29873	0.183	0.035058	0.19741	0.18081	0.15662	0.11473	0.16741	0.077091	0.17834	0.036503	0.15964	-1.9312	-2.9854	-2.7354	-2.5896	-3.1354	-2.6562	-2.9437	-3.1583	-2.6125	-2.9938	-2.8375	-2.7729	-3.1063	-2.6667	-2.6229	-3.0062	292.808	180.349	266.469	513.062	510.451	233.139	422.703	469.172	347.637	193.783	179.902	170.963	390.073	452.399	304.504	508.364	0.00048236	0.00025103	0.00010778	1233	8.3907e-06	5.2261e-06	1235.9	344.45	3.536e-06	3.984e-06	398.21	130.92	113.14	38.714	3.8236e-06	48.306	0.00037228	0.00037111	0.00011082	1226.3	4.017e-06	4.1391e-06	1241.3	343.63	4.049e-06	4.1654e-06	393.14	130.55	112.42	38.804	4.3612e-06	48.266	204.703	385.271	177.261	173.266	332.608	277.410	172.967	177.567	377.694	238.414	177.322	181.507	181.824	186.596	381.173	185.729	-8191	255	
1068.733	1	1	0	0	0.28159	0.086057	0.24205	0.14128	0.016851	0.070636	0.10543	0.059708	0.34716	0.14354	0.19343	0.15892	0.19031	0.25617	0.057783	0.12888	-1.9854	-2.8875	-2.9104	-2.4917	-3.075	-2.8396	-2.7646	-3.3125	-2.5062	-2.9833	-3.2292	-2.5833	-3.3063	-3.0312	-2.7208	-3.3125	420.358	227.543	180.934	489.420	506.054	370.774	433.844	331.059	422.901	199.963	464.173	415.005	209.571	475.427	170.518	464.121	0.0005557	8.1691e-05	1.5244e-05	1229.4	4.9447e-06	3.5912e-06	1238.3	343.88	7.3565e-06	5.5049e-06	397.13	130.84	113.01	38.783	4.5824e-06	48.416	0.00037046	0.00038627	0.00011003	1224.3	3.9919e-06	4.3117e-06	1240	343.71	4.0581e-06	4.3379e-06	391.7	130.33	112.24	38.889	4.2855e-06	48.216	194.734	340.452	336.478	173.243	343.785	385.808	172.954	177.523	245.562	511.721	177.300	181.260	181.734	186.877	262.533	186.281	-8191	255	
1068.853	1	1	0	0	0.11122	0.24755	0.13087	0.25285	0.15623	0.10414	0.32247	0.30603	0.19366	0.16369	0.27507	0.18767	0.24761	0.099108	0.15279	0.16356	-2.2229	-2.5292	-3.0729	-2.5292	-3.0729	-2.8417	-2.6937	-3.1937	-2.6875	-2.9062	-3.15	-2.6333	-3.3021	-2.9896	-2.5229	-3.3042	180.151	357.731	422.847	426.394	349.428	177.760	436.321	472.260	419.277	249.415	161.986	377.421	516.117	509.005	368.963	244.529	0.00046998	0.00026873	0.00012163	1230.5	5.0805e-06	4.9973e-06	1239.1	343.93	6.125e-06	1.8508e-06	397.17	131.07	112.97	38.634	2.3593e-06	48.469	0.00037248	0.00039726	0.00010826	1224.1	4.0344e-06	4.3744e-06	1239.7	342.7	4.1042e-06	4.3784e-06	391.06	130.3	112.46	38.9	4.2018e-06	48.17	205.630	171.649	234.010	173.417	308.807	269.588	172.931	177.668	286.341	424.303	177.135	181.307	181.989	186.863	300.851	186.056	-8191	255	
1068.949	1	1	0	0	0.29117	0.067633	0.11562	0.15734	0.093917	0.16319	0.23095	0.18811	0.25807	0.2416	0.31243	0.20935	0.12784	0.16641	0.12007	0.13242	-2.2562	-2.8521	-2.9604	-2.6	-2.9875	-2.9646	-2.5312	-3.3229	-2.6479	-2.6833	-3.2729	-2.5542	-3.0417	-2.9292	-2.5646	-3.3854	251.671	377.024	456.469	502.327	200.569	422.398	448.197	438.581	463.509	420.601	489.785	461.640	210.125	498.027	165.035	441.613	0.00051136	0.00032917	4.724e-05	1230.1	2.6323e-06	7.3282e-06	1237.2	344.25	7.9492e-06	7.9176e-07	395.86	131.15	112.32	38.704	4.0663e-06	48.539	0.00038126	0.00040093	0.00010609	1222	4.1883e-06	4.3568e-06	1237.1	343.19	4.225e-06	4.3544e-06	390.95	130.14	112.64	38.855	4.1433e-06	48.125	204.585	219.320	182.099	173.270	240.065	362.473	172.964	177.657	252.248	331.798	177.130	181.229	181.690	186.938	245.368	185.972	-8191	255	
1069.046	1	1	0	0	0.15872	0.070775	0.10227	0.16073	0.21887	0.081286	0.17211	0.23704	0.086776	0.13965	0.031648	0.22637	0.19759	0.18838	0.11297	0.20883	-2.2042	-2.7104	-3.1312	-2.7417	-2.7896	-2.975	-2.7917	-3.2458	-2.5875	-2.5896	-3.2375	-2.4313	-2.8771	-3.1729	-2.5438	-3.1813	300.810	268.571	501.895	515.577	344.871	227.938	425.670	447.337	409.607	207.289	210.315	402.860	167.906	518.375	181.186	466.152	0.00043987	0.00059544	3.3519e-05	1229.3	4.995e-06	1.1157e-06	1234.4	343.36	6.2248e-06	1.0908e-05	396.2	131.1	112.94	38.699	6.929e-07	48.212	0.00039579	0.00039324	0.00010503	1222.7	4.3402e-06	4.3036e-06	1236.4	342.88	4.3849e-06	4.2799e-06	390.23	130.11	113.02	38.752	4.1355e-06	48.037	204.107	216.617	191.938	173.179	274.841	367.183	172.936	177.591	230.074	294.030	177.014	181.093	181.954	186.720	265.980	185.768	-8191	255	
1069.142	1	1	0	0	0.25452	0.16969	0.34161	0.089769	0.28595	0.02733	0.097614	0.12689	0.1475	0.14635	0.17472	0.2825	0.17074	0.11687	0.18491	0.16154	-2.4437	-2.4125	-3.1562	-2.8063	-2.7604	-3.0083	-2.6188	-3.1292	-2.7333	-2.75	-3.3729	-2.6562	-2.9521	-3.2562	-2.35	-3.1479	245.770	452.990	484.400	163.662	492.316	338.436	160.161	394.678	166.443	202.766	191.718	429.205	251.329	434.391	431.471	271.956	0.00042366	0.00082656	0.00014861	1235.1	2.4467e-06	6.3507e-06	1233.4	343.63	1.2724e-06	1.371e-06	395.52	131.15	112.89	38.759	2.975e-06	48.499	0.00040555	0.00038797	0.00010314	1225.4	4.3713e-06	4.2255e-06	1234.7	343.46	4.3726e-06	4.2071e-06	389.07	130.45	113.01	38.691	4.048e-06	48.426	201.358	225.901	301.978	173.183	294.988	347.163	172.894	177.533	222.469	231.335	177.480	181.305	181.887	186.575	325.525	186.071	-8191	255	
1069.238	1	1	0	0	0.14688	0.12604	0.057097	0.31284	0.29555	0.29376	0.25973	0.054448	0.095978	0.28364	0.15958	0.16979	0.15296	0.22097	0.045069	0.43437	-2.3583	-2.4521	-3.1271	-2.8792	-2.8688	-3.15	-2.8396	-3.0292	-3.0792	-2.5875	-3.1833	-2.6229	-2.6167	-3.1833	-2.45	-2.9229	355.087	363.895	392.098	501.139	429.735	487.654	483.103	459.863	294.500	509.146	439.921	503.930	467.972	467.824	214.318	447.958	0.00056025	0.00046008	0.00012455	1232.6	1.8004e-06	5.5016e-06	1238.5	344.94	4.943e-06	3.0932e-06	396.74	130.24	112.8	38.533	3.927e-06	48.674	0.00040136	0.00038314	0.0001012	1225.8	4.3479e-06	4.1253e-06	1234.8	344.39	4.3065e-06	4.1541e-06	389.14	130.62	112.74	38.634	4.0264e-06	48.545	212.576	279.779	206.974	173.134	300.430	277.151	172.982	177.742	345.177	287.704	177.286	181.345	181.945	186.561	403.637	186.004	-8191	255	
1069.334	1	1	0	0	0.22881	0.031801	0.17864	0.24795	0.069875	0.2075	0.35979	0.27445	0.26649	0.2703	0.09299	0.04993	0.067973	0.20668	0.15952	0.38335	-2.5542	-2.2125	-3.0104	-3.0646	-2.5479	-3.1583	-2.6271	-2.9958	-2.9688	-2.4917	-3.1229	-2.9083	-2.5979	-3.1458	-2.5021	-2.8104	198.891	466.354	451.003	519.571	261.141	385.677	474.231	471.412	257.434	364.357	476.636	496.808	199.529	418.336	477.107	470.762	0.00042864	0.00051352	0.0001291	1230.9	4.4904e-06	6.3017e-06	1234.1	344.02	4.0848e-06	2.857e-06	396.35	131.14	112.76	38.603	5.3374e-06	48.373	0.00039241	0.00037925	0.00010183	1227.7	4.2669e-06	4.0943e-06	1234.4	344.66	4.2393e-06	4.0872e-06	390.19	130.82	112.59	38.56	4.1268e-06	48.497	202.674	276.336	188.437	173.227	297.586	286.673	172.909	177.862	293.934	379.792	177.298	181.001	181.932	187.034	200.484	185.944	-8191	255	
1069.428	1	1	0	0	0.17496	0.17786	0.091657	0.31701	0.12792	0.04639	0.34692	0.3703	0.25759	0.18134	0.23268	0.18646	0.24401	0.092044	0.080291	0.017348	-2.55	-2.4667	-3.0104	-2.9688	-2.5146	-3.2917	-2.8479	-2.8146	-2.9292	-2.2938	-2.9646	-2.9917	-2.2979	-3.25	-2.7146	-2.6896	311.090	496.647	465.215	485.753	229.748	395.408	395.888	506.765	337.276	345.623	170.602	179.071	481.247	164.649	352.203	458.439	0.00053339	0.00043512	0.00013481	1226.8	3.0218e-06	2.9887e-06	1232.4	344.65	4.7929e-06	5.1764e-06	398.33	131.34	112.85	38.807	3.1314e-06	48.536	0.00038525	0.00036976	0.00010548	1225.4	4.1362e-06	4.004e-06	1234.6	344.41	4.1528e-06	3.983e-06	391.74	130.91	112.59	38.595	4.2431e-06	48.476	202.027	275.472	510.256	173.293	341.211	363.839	173.064	177.806	269.893	457.980	177.496	181.116	182.117	186.626	326.270	186.071	-8191	255	
1069.526	1	1	0	0	0.13814	0.11042	0.13727	0.16736	0.18031	0.1348	0.34786	0.35006	0.1321	0.26934	0.14711	0.20709	0.24629	0.21082	0.17926	0.25064	-2.6354	-2.3812	-2.7208	-3.1604	-2.3646	-3.0792	-2.9813	-2.7562	-3.1521	-2.5312	-3.0062	-3.1521	-2.5146	-3.2917	-2.7375	-2.7896	341.909	479.321	279.697	335.691	471.145	426.595	418.029	440.195	298.918	366.163	457.188	496.772	493.379	162.729	231.681	457.278	0.00056079	0.000522	0.00011676	1229.6	4.2942e-06	4.6069e-06	1232.8	343.45	3.1337e-06	9.0278e-06	395.12	130.69	112.82	38.887	4.0458e-06	48.429	0.00037581	0.00036487	0.00010832	1225.5	4.1082e-06	3.991e-06	1236.8	343.71	4.0946e-06	4.0122e-06	391.63	130.31	112.18	38.631	4.3422e-06	48.364	190.038	278.646	239.521	173.193	282.427	392.703	173.068	177.738	250.851	256.728	176.957	181.379	182.041	186.559	264.024	185.812	-8191	255	
1069.645	1	1	0	0	0.11152	0.211	0.19314	0.19632	0.10029	0.067305	0.088982	0.11445	0.14326	0.23894	0.16204	0.25899	0.06194	0.013931	0.34861	0.099738	-2.8	-2.6125	-2.7958	-3.2708	-2.5375	-3.0958	-3	-2.8917	-3.0375	-2.4521	-2.8688	-3.1	-2.4979	-3.2604	-2.8271	-2.5187	273.959	306.562	340.235	169.129	377.838	479.198	444.710	499.955	182.690	259.654	185.160	459.014	434.519	390.462	376.135	407.580	0.00057382	0.00038308	0.0001438	1227	3.2322e-06	4.1467e-06	1238.2	345.38	2.3479e-06	6.0267e-06	395.76	130.85	112.68	38.719	2.6617e-06	48.337	0.00037117	0.00037225	0.00011063	1223.6	4.0226e-06	4.0854e-06	1238.7	343.9	4.0291e-06	4.1467e-06	392.42	130.16	112.18	38.692	4.3359e-06	48.311	199.856	193.292	473.048	173.297	312.131	244.484	173.063	177.633	350.769	275.654	177.114	181.191	181.903	186.704	297.673	186.254	-8191	255	
1069.740	1	1	0	0	0.01444	0.2368	0.3008	0.26937	0.1467	0.24263	0.33375	0.48146	0.10574	0.1465	0.45876	0.20947	0.16873	0.11362	0.11927	0.14715	-2.9521	-2.5396	-2.6771	-3.2292	-2.4292	-2.9229	-3.1271	-2.6917	-3.4417	-2.5917	-2.6396	-3.3104	-2.5417	-3.1063	-2.8167	-2.55	304.663	193.581	201.731	460.846	302.964	320.401	432.767	515.012	383.659	285.241	495.765	205.791	483.007	429.940	162.367	461.438	0.00056068	0.00044811	0.00010554	1227.1	4.4516e-06	4.7601e-06	1238.3	344.08	3.4954e-06	6.3778e-06	395.21	130.67	112.49	38.624	2.3223e-06	48.444	0.00036822	0.00038394	0.00010901	1223	3.9581e-06	4.2161e-06	1238.5	343.73	3.9728e-06	4.2678e-06	391.6	130.3	112.18	38.773	4.2362e-06	48.214	195.248	251.315	205.204	173.365	356.910	351.990	172.827	177.872	233.560	268.592	177.243	181.435	182.066	186.729	239.313	185.796	-8191	255	
1069.837	1	1	0	0	0.29492	0.11914	0.15124	0.3572	0.12988	0.085065	0.35829	0.28218	0.06933	0.19848	0.22587	0.12398	0.2413	0.052828	0.067332	0.28968	-2.7646	-2.7125	-2.5187	-3.3771	-2.4458	-2.7396	-3.2042	-2.6458	-2.9542	-2.8854	-2.8833	-3.3354	-2.6604	-3.0042	-2.9646	-2.45	310.881	294.160	206.857	404.825	514.009	171.534	481.833	497.677	400.192	280.196	194.933	493.937	475.373	226.524	461.780	431.201	0.00058142	0.00027935	0.00013682	1230.1	4.7233e-06	7.8584e-06	1240.1	344.64	3.1875e-06	3.4519e-06	394.64	130.39	113.19	38.88	1.9484e-06	48.533	0.00036428	0.00039154	0.00010699	1223.1	4.0121e-06	4.3279e-06	1236.7	343.31	4.0062e-06	4.3883e-06	390.69	130	112.27	38.879	4.1853e-06	48.205	191.793	197.828	256.950	173.495	302.468	284.494	173.052	177.617	248.744	391.193	177.288	181.239	181.832	186.708	329.351	185.965	-8191	255	
1069.932	1	1	0	0	0.016307	0.065931	0.080641	0.33073	0.056044	0.16358	0.27977	0.20623	0.031414	0.26971	0.26556	0.053809	0.13505	0.19713	0.2221	0.041431	-2.5854	-2.9375	-2.4458	-3.2333	-2.6437	-2.9104	-3.1854	-2.5792	-3.075	-2.9042	-2.6063	-3.3312	-2.7687	-2.9042	-2.9562	-2.5979	418.792	333.853	180.372	479.102	513.277	399.055	400.071	459.299	376.296	369.809	510.630	376.049	188.179	167.836	361.534	432.559	0.00052761	0.00069251	4.4893e-05	1223.5	2.4518e-06	1.4078e-06	1233	344.68	6.725e-06	5.9505e-06	396.48	130.7	112.76	38.834	2.3255e-06	48.477	0.00037604	0.00039809	0.00010578	1220.1	4.1374e-06	4.349e-06	1236	343.06	4.1685e-06	4.3188e-06	390.18	129.79	112.76	38.831	4.1021e-06	48.142	188.931	237.286	344.253	173.512	213.204	331.559	172.977	177.589	250.441	265.606	177.078	181.468	182.025	186.721	300.452	186.170	-8191	255	
1070.028	1	1	0	0	0.10648	0.092474	0.12851	0.28407	0.17803	0.22032	0.44313	0.05681	0.091077	0.11844	0.20294	0.1651	0.21947	0.15958	0.073533	0.10465	-2.4062	-2.925	-2.425	-3.2333	-2.7958	-2.575	-3.4333	-2.5271	-2.8563	-2.9333	-2.5917	-3.0604	-2.9104	-2.5646	-3.1729	-2.6021	195.435	235.452	194.083	490.132	509.649	421.673	465.874	199.634	418.595	263.935	173.903	516.271	173.671	190.846	380.025	460.608	0.00048582	0.00016984	4.0079e-05	1231.6	4.7394e-06	8.2886e-07	1239.2	344.13	1.503e-06	6.5771e-06	398.02	131.27	112.87	38.846	3.7444e-06	48.428	0.00038795	0.00038813	0.00010433	1221.5	4.2499e-06	4.2423e-06	1235.7	343	4.2697e-06	4.2265e-06	390.52	129.96	112.98	38.857	4.0231e-06	48.159	196.599	349.777	378.600	173.392	286.920	421.153	172.735	177.801	222.173	290.528	177.206	181.307	182.027	186.749	346.302	185.814	-8191	255	
1070.149	1	1	0	0	0.17241	0.046381	0.10052	0.20972	0.11002	0.054599	0.077635	0.28761	0.31514	0.17334	0.079954	0.044258	0.26608	0.034442	0.107	0.13461	-2.5521	-3.075	-2.4	-3.1521	-2.8937	-2.4583	-3.4021	-2.7417	-2.6312	-3.0292	-2.4771	-2.9104	-2.8229	-2.6	-3.1708	-2.8	388.855	310.846	267.208	477.890	446.100	467.416	413.318	406.763	277.170	507.598	443.757	372.994	169.133	373.402	278.969	383.266	0.00054691	0.000724	6.9344e-05	1230.2	1.186e-06	1.7344e-06	1236.4	344.4	4.1066e-06	6.4424e-06	395.38	130.59	113.14	38.949	2.7357e-06	48.868	0.00039423	0.00037887	0.00010198	1222.4	4.3006e-06	4.1609e-06	1233.2	343.54	4.3125e-06	4.1419e-06	389.19	130.35	113.05	38.745	3.9674e-06	48.492	204.959	264.354	242.568	173.294	283.466	278.987	172.825	177.736	307.511	324.950	177.184	181.130	181.884	186.648	375.948	185.698	-8191	255	
1070.245	1	1	0	0	0.13875	0.035672	0.11945	0.1797	0.25706	0.38197	0.055766	0.19205	0.15809	0.080356	0.19337	0.19086	0.028312	0.2226	0.27732	0.25247	-2.2875	-3.1063	-2.3792	-3.2271	-2.9208	-2.5708	-3.3458	-2.7521	-2.7833	-3.125	-2.5958	-2.9833	-2.9396	-2.4104	-3.0042	-2.6521	301.634	438.346	440.883	473.627	354.923	416.994	401.031	398.431	192.281	514.137	352.041	353.367	186.325	467.610	212.541	452.355	0.00047244	0.00016189	1.2591e-05	1232.3	5.6865e-06	4.8105e-06	1235.6	344.45	5.0812e-06	5.9352e-06	395.8	130.82	113.16	38.677	5.6405e-06	48.604	0.00039408	0.00037704	0.00010019	1225	4.281e-06	4.1118e-06	1232.6	343.89	4.2822e-06	4.0958e-06	388.97	130.77	112.89	38.726	3.9631e-06	48.552	207.888	237.073	223.927	173.435	255.885	375.600	172.867	177.617	300.809	370.611	177.104	181.190	181.873	186.863	309.660	185.885	-8191	255	
1070.341	1	1	0	0	0.1334	0.23636	0.10383	0.089476	0.20799	0.12273	0.13069	0.17212	0.17647	0.080304	0.17029	0.079284	0.19095	0.33389	0.057543	0.29484	-2.2292	-3.0542	-2.4146	-2.8604	-2.9125	-2.4313	-3.1562	-2.8958	-2.475	-3.125	-2.425	-2.8812	-3.125	-2.5083	-3.0479	-2.9396	282.562	351.343	456.269	373.225	419.332	290.516	457.902	463.464	405.191	213.715	370.982	502.336	489.995	374.204	165.789	424.726	0.00042957	0.00055154	3.1243e-05	1226.7	4.8937e-06	1.8651e-06	1242.7	344.4	3.3522e-06	8.4544e-06	396.6	131.38	113.27	38.692	1.3775e-06	48.446	0.00038946	0.00037106	0.00010117	1225.5	4.1712e-06	4.0215e-06	1235.4	344.36	4.1733e-06	4.0111e-06	390.28	130.83	112.62	38.631	4.0301e-06	48.508	198.155	225.401	218.670	173.213	365.327	408.223	173.113	177.706	364.266	332.154	177.124	181.224	182.079	186.573	216.834	186.177	-8191	255	
1070.437	1	1	0	0	0.022345	0.12305	0.37743	0.084162	0.11684	0.30293	0.25067	0.40419	0.11195	0.14038	0.086852	0.33501	0.095078	0.24518	0.12175	0.24611	-1.8896	-3.2333	-2.5604	-2.8771	-3.0396	-2.2687	-3.1312	-2.9625	-2.5729	-3.3208	-2.7875	-2.8333	-3.3521	-2.3271	-3.0604	-2.7938	201.554	274.019	355.549	183.665	408.360	246.188	475.241	454.305	473.998	362.300	201.729	485.521	372.034	432.122	383.391	420.465	0.00046891	0.00084714	0.00011853	1226.1	4.2498e-06	4.7292e-06	1232.8	344.36	3.5593e-06	8.22e-06	397.05	131.93	113.34	39.079	5.2149e-06	48.823	0.00037847	0.0003613	0.00010398	1224.1	4.1096e-06	3.9948e-06	1235.6	344.99	4.1283e-06	3.9451e-06	391.21	130.89	112.71	38.69	4.1826e-06	48.526	203.873	209.084	244.573	173.310	409.468	327.069	173.055	177.347	247.799	354.016	177.433	181.055	181.976	186.799	192.644	186.057	-8191	255	
1070.533	1	1	0	0	0.44863	0.22349	0.068382	0.29583	0.24871	0.10685	0.37013	0.30073	0.24511	0.3095	0.11538	0.30115	0.16078	0.17794	0.11686	0.13002	-1.9937	-3.1854	-2.6146	-2.7646	-3.2125	-2.5583	-3.0458	-3.1229	-2.3875	-2.9833	-2.8229	-2.6375	-3.3146	-2.5354	-2.7167	-2.9021	361.682	493.534	493.782	472.845	220.728	433.630	499.594	393.966	495.201	187.709	480.242	459.576	487.879	182.053	388.482	508.278	0.00050414	0.00038402	0.00013751	1228.2	3.8801e-06	4.1844e-06	1235	344.67	7.2167e-06	5.8566e-06	396.32	130.83	112.61	38.713	4.5089e-06	48.571	0.00037591	0.00035772	0.00010743	1227	4.0751e-06	3.9933e-06	1236.8	344.25	4.1181e-06	3.9479e-06	392.19	130.43	112.08	38.585	4.3132e-06	48.376	185.461	253.849	190.796	173.314	373.879	181.466	173.077	177.807	297.330	284.329	177.176	181.190	181.856	186.692	265.018	185.849	-8191	255	
1070.629	1	1	0	0	0.22899	0.17069	0.076788	0.038393	0.11845	0.23857	0.060043	0.14576	0.25995	0.20604	0.18031	0.33937	0.16281	0.14472	0.18769	0.16017	-2.0062	-3.0417	-2.6125	-2.7687	-3.2208	-2.5187	-2.8646	-3.1958	-2.3854	-3.1792	-2.8708	-2.6625	-3.2271	-2.7292	-2.6937	-3.1021	417.698	218.093	482.575	223.670	492.064	495.689	180.167	224.832	190.782	188.420	482.723	460.744	425.208	348.567	258.907	500.061	0.00046773	0.00027713	0.00019349	1231.7	2.7783e-06	3.6199e-06	1239	344.71	5.303e-06	4.4764e-06	396.68	130.79	112.33	38.654	4.2102e-06	48.594	0.00037426	0.00036327	0.00011018	1226.7	4.0404e-06	4.0719e-06	1239.8	344.14	4.0251e-06	4.0861e-06	392.61	130.42	112.07	38.619	4.3308e-06	48.177	190.999	325.866	191.299	173.482	360.267	267.557	172.882	177.705	267.693	165.079	177.357	181.326	182.137	186.731	228.799	186.066	-8191	255	
1070.726	1	1	0	0	0.2719	0.037905	0.14972	0.042988	0.13639	0.37596	0.096671	0.33824	0.31397	0.21934	0.19607	0.10088	0.10829	0.19852	0.17108	0.1911	-1.8458	-3.0083	-2.9313	-2.7062	-3.2854	-2.5583	-2.8396	-3.2792	-2.4271	-2.8292	-3.0917	-2.5125	-3.2938	-2.7687	-2.7229	-3.2917	374.230	229.697	410.669	250.297	218.150	363.753	458.616	502.297	455.726	397.492	466.182	301.886	474.742	312.182	267.475	464.906	0.00050415	0.00046169	0.00014586	1227.7	4.0493e-06	8.3034e-07	1239	344.42	1.6443e-06	4.826e-06	395.16	131.07	112.53	38.836	4.3468e-06	48.609	0.00036834	0.00037811	0.00010941	1223.2	3.9326e-06	4.2168e-06	1239	343.49	3.9635e-06	4.2126e-06	391.7	130.09	111.92	38.738	4.207e-06	48.186	194.831	184.310	197.858	173.411	322.366	410.590	173.030	177.720	259.095	297.850	177.202	181.332	181.824	186.542	405.208	185.643	-8191	255	
1070.820	1	1	0	0	0.15808	0.042785	0.30064	0.10977	0.033194	0.093137	0.21822	0.20157	0.089009	0.42417	0.15137	0.20133	0.064572	0.17449	0.054987	0.24683	-2.0083	-2.8812	-3.0104	-2.4479	-3.0208	-2.75	-2.825	-3.1813	-2.5167	-2.8438	-3.1271	-2.5667	-3.0896	-2.9333	-2.4667	-3.2729	420.884	293.287	289.705	391.839	253.332	283.786	411.758	183.157	433.597	343.459	427.807	462.152	430.510	449.240	295.901	458.223	0.00052548	3.9665e-05	1.4632e-05	1227.5	4.879e-06	1.7787e-06	1239.8	345.51	2.8329e-06	5.2596e-06	396.78	131.28	112.81	38.744	4.1737e-06	48.648	0.00036316	0.00038823	0.00010662	1220.9	3.916e-06	4.2662e-06	1236	343.01	3.9679e-06	4.26e-06	390.9	129.94	112.22	38.845	4.107e-06	48.101	192.059	165.274	481.106	173.292	316.206	375.380	173.117	177.817	215.561	310.440	177.179	181.588	181.933	186.628	336.785	186.006	-8191	255	
1070.918	1	1	0	0	0.2096	0.06927	0.11575	0.21221	0.075074	0.20342	0.23576	0.27685	0.076379	0.2412	0.10092	0.093315	0.11345	0.087018	0.04611	0.18182	-2.225	-2.6833	-2.9771	-2.6833	-3.0354	-2.8729	-2.7	-3.2854	-2.7979	-2.6188	-3.1833	-2.4562	-3.0667	-2.8583	-2.4292	-3.2375	377.501	244.479	487.411	475.159	301.489	373.973	389.697	513.263	285.862	379.302	414.264	450.571	479.799	165.686	251.871	168.568	0.00054119	0.00051861	5.4077e-05	1225.7	2.4202e-06	5.5099e-06	1234.8	343.92	1.7418e-06	6.2737e-06	397.44	130.97	112.4	38.652	2.9565e-06	48.46	0.00036979	0.00039046	0.00010403	1218.6	4.0325e-06	4.2668e-06	1233.8	342.38	4.0867e-06	4.2558e-06	389.84	129.69	112.19	38.741	4.0889e-06	47.962	203.840	290.172	237.609	173.310	164.305	368.556	172.882	177.873	221.615	350.500	177.090	181.267	181.935	186.609	434.298	186.326	-8191	255	
1071.037	1	1	0	0	0.16999	0.11178	0.18962	0.11859	0.24482	0.0179	0.35902	0.070052	0.05743	0.13537	0.17911	0.29249	0.14428	0.13837	0.019927	0.16167	-2.2167	-2.6979	-3.1417	-2.5458	-3.1396	-2.9396	-2.5729	-3.2646	-2.7333	-2.5687	-3.2938	-2.4896	-3.0146	-3.0396	-2.4354	-3.0708	411.849	324.436	296.549	504.186	372.873	355.648	482.442	371.161	200.044	304.863	502.538	480.266	240.033	513.794	264.417	355.301	0.00050937	0.00055748	6.8565e-05	1232.8	2.4645e-06	6.0404e-06	1232.4	344.19	2.0983e-06	7.141e-06	396.64	130.42	112.67	38.894	2.5485e-06	48.267	0.00038414	0.00038846	0.00010308	1218.3	4.182e-06	4.1958e-06	1231.4	341.99	4.2397e-06	4.1812e-06	389.76	129.47	112.49	38.679	4.0144e-06	48.036	198.623	304.173	268.967	173.399	309.231	392.997	173.036	177.469	380.696	314.583	177.187	181.595	181.866	186.873	285.594	185.892	-8191	255	
1071.133	1	1	0	0	0.09881	0.031976	0.09556	0.29004	0.11251	0.28286	0.23154	0.37115	0.17609	0.1419	0.21003	0.20754	0.19296	0.18383	0.16383	0.27182	-2.3771	-2.6646	-3.0583	-2.4958	-2.9083	-2.9604	-2.6104	-3.1083	-2.7979	-2.45	-3.125	-2.6	-2.7771	-3.1958	-2.4625	-3.1583	391.774	511.874	434.362	430.258	247.858	424.419	488.240	463.780	198.314	371.212	245.301	167.929	189.979	400.214	335.040	432.440	0.00045764	0.0002759	0.00022846	1227.5	6.9328e-06	3.2813e-06	1231.9	343.95	3.6383e-07	3.7717e-06	395.73	130.27	112.62	38.786	1.2525e-06	48.296	0.00039186	0.00038051	0.00010071	1217.7	4.2525e-06	4.141e-06	1231.1	342.65	4.2796e-06	4.1298e-06	388.8	129.74	112.52	38.573	3.9562e-06	48.064	200.095	229.067	242.308	173.162	331.753	365.966	173.140	177.644	219.515	335.192	177.263	181.363	181.847	186.579	309.481	186.251	-8191	255	
1071.229	1	1	0	0	0.14542	0.13358	0.11099	0.071972	0.28976	0.16783	0.4056	0.07192	0.18621	0.25591	0.14656	0.17793	0.21306	0.08943	0.17004	0.32467	-2.6396	-2.4688	-3.1521	-2.6437	-2.5979	-3.2396	-2.6063	-3.1646	-3.0708	-2.5104	-3.2708	-2.7354	-2.7438	-3.1167	-2.4667	-3.025	225.910	462.531	270.347	460.123	483.736	395.506	453.387	462.330	483.250	251.712	384.454	165.053	255.057	468.495	384.627	379.448	0.00050433	0.00035749	0.00015689	1225.6	1.5018e-06	5.7453e-06	1231.3	344.39	3.6879e-06	6.3772e-06	395.68	131.14	112.42	38.634	3.7588e-06	48.322	0.00039309	0.00037704	9.9942e-05	1219.8	4.2835e-06	4.1088e-06	1230.1	343.01	4.2693e-06	4.1013e-06	387.99	130.19	112.26	38.521	3.9622e-06	48.152	206.672	414.190	203.515	173.199	422.882	342.302	173.159	177.604	265.292	185.602	177.147	181.057	182.114	186.553	333.112	185.857	-8191	255	
1071.325	1	1	0	0	0.22231	0.10173	0.037572	0.26532	0.13467	0.042678	0.2093	0.077657	0.07893	0.16639	0.13666	0.1035	0.18447	0.098548	0.099907	0.15783	-2.3937	-2.3583	-3.2146	-2.9313	-2.5333	-3.2229	-2.5312	-2.8542	-3.1542	-2.3792	-3.1333	-2.9333	-2.7313	-3.1542	-2.6396	-2.8667	477.130	220.114	407.652	468.706	368.861	377.263	447.589	356.307	253.628	419.946	336.801	409.889	472.447	466.807	374.627	179.353	0.00041879	0.0007331	4.0849e-05	1221.7	4.0189e-06	4.1693e-06	1228	343.41	4.7261e-06	6.293e-06	396.6	129.82	112.1	38.273	6.3869e-06	48.042	0.00039237	0.00037695	0.00010063	1219.7	4.2544e-06	4.1113e-06	1228.8	343.28	4.2589e-06	4.0803e-06	388.8	129.94	111.86	38.289	4.0734e-06	48.14	199.098	499.959	350.049	173.120	323.952	395.502	172.750	177.653	309.536	359.427	177.278	181.242	182.164	186.773	260.764	185.976	-8191	255	
1071.421	1	1	0	0	0.013808	0.13783	0.21885	0.10758	0.10547	0.33323	0.17321	0.12177	0.073681	0.21358	0.21698	0.20284	0.15477	0.32952	0.11896	0.05471	-2.6188	-2.4958	-2.9792	-2.8583	-2.6188	-3.3146	-2.8729	-2.9208	-3.0167	-2.4646	-3.0938	-2.8875	-2.4771	-3.2729	-2.3917	-2.7042	277.021	327.012	477.034	499.644	168.935	250.808	487.226	422.377	506.470	294.393	162.367	372.898	449.347	472.014	468.755	365.282	0.00049491	0.0011037	8.9358e-05	1222.7	2.1412e-06	7.6556e-06	1227.8	342.24	2.987e-06	5.2533e-06	394.64	129.83	111.81	38.43	7.228e-06	47.933	0.00038649	0.00037191	0.0001051	1219.9	4.2165e-06	4.0593e-06	1229.7	343.06	4.2136e-06	4.0842e-06	388.95	129.73	111.71	38.264	4.2521e-06	48.053	201.008	234.350	165.302	173.467	215.404	411.037	172.834	177.664	307.082	181.894	177.267	181.311	181.917	186.850	256.797	186.016	-8191	255	
1071.517	1	1	0	0	0.12799	0.057037	0.34242	0.050844	0.45226	0.31479	0.35927	0.066865	0.13275	0.11842	0.22935	0.28145	0.12408	0.18152	0.19262	0.21178	-2.7125	-2.3438	-2.9125	-3.05	-2.4771	-3.2354	-2.6833	-2.75	-3.0563	-2.4917	-2.9125	-3.1417	-2.5479	-3.25	-2.8792	-2.5875	322.265	348.468	389.461	460.653	455.656	439.526	382.668	286.503	201.778	210.894	518.947	457.056	478.439	308.448	411.691	468.696	0.00044464	0.00041323	0.00016151	1223.4	6.2479e-06	3.0472e-06	1227.8	342.43	7.9933e-06	9.306e-06	395.24	129.2	111.74	38.224	2.1589e-06	47.953	0.00038415	0.00037147	0.00010899	1219.7	4.163e-06	4.0247e-06	1230.9	343.1	4.1688e-06	4.062e-06	390.87	129.71	111.47	38.261	4.4676e-06	48.073	201.667	519.005	211.848	173.217	318.449	403.953	173.060	177.849	259.558	250.341	176.948	181.230	182.009	186.609	309.278	186.237	-8191	255	
1071.638	1	1	0	0	0.19588	0.11452	0.28861	0.01769	0.083612	0.069943	0.29416	0.19246	0.038556	0.12405	0.24284	0.20019	0.2239	0.28342	0.18845	0.22274	-2.8604	-2.4833	-2.7812	-3.2396	-2.4125	-3.2333	-2.9542	-2.6833	-3.3708	-2.5833	-2.85	-3.1896	-2.625	-3.0542	-3.0708	-2.8812	494.084	391.364	166.875	404.586	173.090	330.626	514.485	416.710	487.358	261.150	435.559	356.605	498.534	220.444	238.733	415.009	0.00041015	0.00036298	0.00022071	1221.3	6.2659e-06	7.5299e-06	1229.6	342.7	6.661e-06	2.1494e-06	394.95	129.12	111.16	38.288	8.6842e-06	48.065	0.00038345	0.00037955	0.00011342	1219.6	4.2193e-06	4.159e-06	1234.1	342.67	4.1839e-06	4.2348e-06	391.78	129.59	111.42	38.383	4.5517e-06	48.092	200.669	247.711	172.285	173.242	340.747	259.179	172.835	177.687	289.719	257.619	177.047	181.138	181.962	186.687	216.951	185.975	-8191	255	
1071.732	1	1	0	0	0.23159	0.054838	0.13538	0.15412	0.12352	0.18208	0.5319	0.25712	0.22759	0.088336	0.25531	0.12959	0.41597	0.14211	0.24407	0.25227	-2.6833	-2.6458	-2.7188	-3.2167	-2.4062	-2.875	-2.9375	-2.5187	-3.0875	-2.6333	-2.7771	-3.3563	-2.5438	-2.925	-2.9292	-2.7979	436.174	455.437	445.028	443.460	410.270	348.100	418.722	365.706	335.251	227.224	476.034	348.714	427.618	266.244	417.202	247.786	0.00051322	0.00047786	0.00019823	1223.5	3.7211e-06	5.5309e-06	1231.5	342.92	2.7928e-06	3.8893e-06	394.09	129.43	111.85	38.4	2.0556e-06	47.845	0.00038153	0.00039665	0.0001151	1220.5	4.165e-06	4.3583e-06	1235	342.82	4.1509e-06	4.4096e-06	392.11	129.56	111.5	38.493	4.4451e-06	47.89	194.759	219.753	273.473	173.418	385.604	397.116	172.831	177.735	283.703	492.173	177.098	181.172	181.894	186.888	368.802	186.114	-8191	255	
1071.829	1	1	0	0	0.11173	0.074792	0.030035	0.16979	0.11001	0.065249	0.2181	0.16819	0.11692	0.064143	0.20656	0.13687	0.2394	0.32882	0.23179	0.17446	-2.6854	-2.5104	-2.5979	-3.25	-2.475	-2.8583	-3.1521	-2.5	-3.125	-2.85	-2.6063	-3.2875	-2.6625	-2.9646	-3.1042	-2.4333	519.130	503.972	292.933	460.476	466.405	323.957	170.441	454.389	298.943	364.250	167.033	248.307	447.100	182.395	338.395	500.597	0.00054331	0.00010278	9.1349e-05	1223.9	3.7611e-06	1.0612e-06	1232	341.99	4.3668e-06	3.4115e-06	393.05	129.76	112.12	38.526	4.5632e-06	48.218	0.000378	0.00040813	0.00011266	1220.6	4.1374e-06	4.461e-06	1234.7	342.06	4.1411e-06	4.5025e-06	391.39	129.41	111.84	38.627	4.3389e-06	47.992	190.821	467.300	331.865	173.249	246.916	316.308	172.963	177.900	289.236	288.927	177.163	181.252	182.037	186.912	300.178	186.304	-8191	255	
#DATA ENDS
