BOXY.EXE: ISS Imagent and Oximeter Data Acquisition Program Version 0.80
Ascii Record File

#ACQ INFORMATION
2  Detector Channels 
16  External MUX Channels 
1  Auxiliary Channels 
5000  Waveform (CCF) Frequency (Hz)
1  Waveforms Skipped 
30  Waveforms Averaged 
1  Cycles Averaged 
16  Acquisitions per Waveform 
10.0806  Updata Rate (Hz) 

#FILE INFORMATION
TRUE -- External MUX Channel results are PARSED.
FALSE -- AC DC and Phase are NOT grouped.
TRUE -- Companion Program Settings File CREATED.
FALSE -- AC data not excluded
FALSE -- DC data not excluded
FALSE -- Phase data not excluded
FALSE -- Auxillary Chn. data not excluded
Tab delimiters

#CALIBRATION STATE
TRUE -- Waveform Calibration Values APPLIED.


#AUX CALIBRATION VALUES
Val Type	aux-1	

Term	1.0000e+00	
Factor	0.0000e+00	


#WF CALIBRATION VALUES
A = Detector Channel
Val Type	A-AC1	A-AC2	A-AC3	A-AC4	A-AC5	A-AC6	A-AC7	A-AC8	A-AC9	A-AC10	A-AC11	A-AC12	A-AC13	A-AC14	A-AC15	A-AC16	A-DC1	A-DC2	A-DC3	A-DC4	A-DC5	A-DC6	A-DC7	A-DC8	A-DC9	A-DC10	A-DC11	A-DC12	A-DC13	A-DC14	A-DC15	A-DC16	A-Ph1	A-Ph2	A-Ph3	A-Ph4	A-Ph5	A-Ph6	A-Ph7	A-Ph8	A-Ph9	A-Ph10	A-Ph11	A-Ph12	A-Ph13	A-Ph14	A-Ph15	A-Ph16	

Term	0.00000e+00	0.00000e+00	0.00000e+00	0.00000e+00	0.00000e+00	0.00000e+00	0.00000e+00	0.00000e+00	0.00000e+00	0.00000e+00	0.00000e+00	0.00000e+00	0.00000e+00	0.00000e+00	0.00000e+00	0.00000e+00	0.00000e+00	0.00000e+00	0.00000e+00	0.00000e+00	0.00000e+00	0.00000e+00	0.00000e+00	0.00000e+00	0.00000e+00	0.00000e+00	0.00000e+00	0.00000e+00	0.00000e+00	0.00000e+00	0.00000e+00	0.00000e+00	0.00000e+00	0.00000e+00	0.00000e+00	0.00000e+00	0.00000e+00	0.00000e+00	0.00000e+00	0.00000e+00	0.00000e+00	0.00000e+00	0.00000e+00	0.00000e+00	0.00000e+00	0.00000e+00	0.00000e+00	0.00000e+00	
Factor	1.00000e+00	1.00000e+00	1.00000e+00	1.00000e+00	1.00000e+00	1.00000e+00	1.00000e+00	1.00000e+00	1.00000e+00	1.00000e+00	1.00000e+00	1.00000e+00	1.00000e+00	1.00000e+00	1.00000e+00	1.00000e+00	1.00000e+00	1.00000e+00	1.00000e+00	1.00000e+00	1.00000e+00	1.00000e+00	1.00000e+00	1.00000e+00	1.00000e+00	1.00000e+00	1.00000e+00	1.00000e+00	1.00000e+00	1.00000e+00	1.00000e+00	1.00000e+00	X	X	X	X	X	X	X	X	X	X	X	X	X	X	X	X	

B = Detector Channel
Val Type	B-AC1	B-AC2	B-AC3	B-AC4	B-AC5	B-AC6	B-AC7	B-AC8	B-AC9	B-AC10	B-AC11	B-AC12	B-AC13	B-AC14	B-AC15	B-AC16	B-DC1	B-DC2	B-DC3	B-DC4	B-DC5	B-DC6	B-DC7	B-DC8	B-DC9	B-DC10	B-DC11	B-DC12	B-DC13	B-DC14	B-DC15	B-DC16	B-Ph1	B-Ph2	B-Ph3	B-Ph4	B-Ph5	B-Ph6	B-Ph7	B-Ph8	B-Ph9	B-Ph10	B-Ph11	B-Ph12	B-Ph13	B-Ph14	B-Ph15	B-Ph16	

Term	0.00000e+00	0.00000e+00	0.00000e+00	0.00000e+00	0.00000e+00	0.00000e+00	0.00000e+00	0.00000e+00	0.00000e+00	0.00000e+00	0.00000e+00	0.00000e+00	0.00000e+00	0.00000e+00	0.00000e+00	0.00000e+00	0.00000e+00	0.00000e+00	0.00000e+00	0.00000e+00	0.00000e+00	0.00000e+00	0.00000e+00	0.00000e+00	0.00000e+00	0.00000e+00	0.00000e+00	0.00000e+00	0.00000e+00	0.00000e+00	0.00000e+00	0.00000e+00	-1.23726e+02	-1.39918e+02	-1.78938e+02	-1.81413e+02	-3.50059e+01	-7.24347e+01	-1.57789e+02	-1.62015e+02	-7.41590e+01	-9.50557e+01	-1.80411e+02	-1.70917e+02	-1.81322e+02	-1.76271e+02	-8.71251e+01	-1.49364e+02	
Factor	1.81544e-05	1.23178e-04	2.51159e-05	1.85326e-01	8.05980e-07	9.73926e-07	1.72092e-01	5.34215e-02	8.30615e-07	1.09759e-06	1.07935e-01	3.07122e-02	2.47813e-02	9.40291e-03	9.68748e-07	1.38253e-02	5.41759e-07	5.53856e-07	1.53778e-07	8.86287e-02	6.03997e-09	6.06804e-09	7.82073e-02	2.56647e-02	6.05508e-09	6.07195e-09	4.76290e-02	1.39290e-02	1.17526e-02	4.39035e-03	6.05682e-09	6.14778e-03	X	X	X	X	X	X	X	X	X	X	X	X	X	X	X	X	



#DISTANCE SETTINGS
A = Detector Channel
A-1	A-2	A-3	A-4	A-5	A-6	A-7	A-8	A-9	A-10	A-11	A-12	A-13	A-14	A-15	A-16	

2.5000e+00	3.0000e+00	2.5000e+00	3.0000e+00	2.0000e+00	3.0000e+00	1.5000e+00	3.0000e+00	3.0000e+00	3.0000e+00	3.0000e+00	3.0000e+00	3.0000e+00	3.0000e+00	1.5000e+00	3.0000e+00	

B = Detector Channel
B-1	B-2	B-3	B-4	B-5	B-6	B-7	B-8	B-9	B-10	B-11	B-12	B-13	B-14	B-15	B-16	

1.0000e+01	1.0000e+01	1.0000e+01	1.4400e+00	1.0000e+01	1.0000e+01	1.5100e+00	1.9400e+00	1.0000e+01	1.0000e+01	1.9900e+00	2.4900e+00	2.4100e+00	2.9000e+00	1.0000e+01	2.9800e+00	




#DATA BEGINS
time	group	step	mark	flag	A-AC1	A-AC2	A-AC3	A-AC4	A-AC5	A-AC6	A-AC7	A-AC8	A-AC9	A-AC10	A-AC11	A-AC12	A-AC13	A-AC14	A-AC15	A-AC16	A-DC1	A-DC2	A-DC3	A-DC4	A-DC5	A-DC6	A-DC7	A-DC8	A-DC9	A-DC10	A-DC11	A-DC12	A-DC13	A-DC14	A-DC15	A-DC16	A-Ph1	A-Ph2	A-Ph3	A-Ph4	A-Ph5	A-Ph6	A-Ph7	A-Ph8	A-Ph9	A-Ph10	A-Ph11	A-Ph12	A-Ph13	A-Ph14	A-Ph15	A-Ph16	B-AC1	B-AC2	B-AC3	B-AC4	B-AC5	B-AC6	B-AC7	B-AC8	B-AC9	B-AC10	B-AC11	B-AC12	B-AC13	B-AC14	B-AC15	B-AC16	B-DC1	B-DC2	B-DC3	B-DC4	B-DC5	B-DC6	B-DC7	B-DC8	B-DC9	B-DC10	B-DC11	B-DC12	B-DC13	B-DC14	B-DC15	B-DC16	B-Ph1	B-Ph2	B-Ph3	B-Ph4	B-Ph5	B-Ph6	B-Ph7	B-Ph8	B-Ph9	B-Ph10	B-Ph11	B-Ph12	B-Ph13	B-Ph14	B-Ph15	B-Ph16	aux-1	digaux	

2822.258	1	1	0	256	0.09382	0.15831	0.15673	0.16826	0.27073	0.11121	0.2335	0.41461	0.060563	0.21411	0.23726	0.083482	0.27041	0.11993	0.13366	0.046512	-2.4	-2.8292	-2.5292	-3.1688	-2.8875	-2.6104	-3.0896	-2.5354	-2.6646	-3.0021	-2.3604	-3.25	-2.6875	-2.7229	-3.0625	-2.7229	434.858	180.537	142.215	330.954	367.660	257.896	396.040	397.717	247.471	434.752	451.616	402.855	403.125	144.130	331.771	372.419	0.00092631	0.00044647	0.0001237	1328.2	4.8846e-06	3.4893e-06	1368.8	453.62	3.9133e-06	6.1144e-06	546.53	206.2	160.33	80.655	4.4353e-06	109.91	6.0903e-05	4.1068e-05	1.068e-05	1086.1	4.763e-07	4.3878e-07	1128.9	372.02	4.8079e-07	4.1881e-07	428.78	165.11	129.05	64.539	4.1381e-07	86.271	184.573	208.675	164.193	116.556	275.786	249.767	115.542	121.165	286.830	228.755	119.378	123.286	125.529	130.134	226.523	127.224	-8191	255	
2822.378	1	1	0	0	0.26418	0.056251	0.13801	0.059914	0.12486	0.12071	0.52521	0.27693	0.14	0.12394	0.071633	0.31704	0.19122	0.1002	0.12666	0.1521	-2.1104	-2.9979	-2.45	-3.0604	-2.8604	-2.1667	-3.3375	-2.5792	-2.8229	-2.9729	-2.4479	-3.1354	-2.8312	-2.4562	-3.0021	-2.7979	190.916	423.135	459.287	428.346	397.204	448.767	411.089	336.041	426.482	144.498	361.282	418.794	397.281	409.196	163.059	386.174	0.001058	0.00065421	0.00011879	1360.5	5.6287e-06	3.9088e-06	1400.2	463.74	4.5873e-06	8.2599e-06	560.78	211.52	163.85	81.876	5.6243e-06	111.7	6.1808e-05	3.7178e-05	9.8075e-06	1109.2	4.5145e-07	4.1043e-07	1154	380.28	4.4442e-07	3.8819e-07	437.01	168.52	131.29	65.391	3.7578e-07	87.2	180.395	169.186	134.265	116.562	284.188	251.900	115.607	121.350	287.044	218.998	119.501	123.625	125.647	130.123	236.102	126.835	-8191	255	
2822.473	1	1	0	0	0.094316	0.15064	0.27698	0.23949	0.067686	0.26972	0.30708	0.24615	0.2909	0.16695	0.21769	0.23504	0.2575	0.09903	0.16358	0.36638	-1.9604	-3.1292	-2.3875	-2.8542	-2.6083	-2.2667	-3.0896	-2.8688	-2.4146	-3.0708	-2.4146	-2.7979	-3.0687	-2.6417	-2.9229	-2.9188	126.962	387.305	437.893	405.247	449.632	160.273	366.976	398.381	268.988	377.984	420.535	440.522	358.891	461.367	250.047	406.750	0.00099821	0.00068226	4.662e-05	1365.4	2.9944e-06	7.7962e-06	1400.8	468.51	4.5264e-06	2.827e-06	567.81	214.09	166.05	82.488	4.8346e-06	113.09	5.8207e-05	3.7106e-05	9.293e-06	1110.7	4.1071e-07	3.7656e-07	1158.6	383.04	4.2e-07	3.6352e-07	442.67	170.98	133.12	66.124	3.8456e-07	88.556	180.782	198.839	417.584	116.735	274.926	259.252	115.308	120.944	237.062	223.163	119.268	123.396	126.025	130.139	263.274	127.040	-8191	255	
2822.571	1	1	0	0	0.076103	0.070326	0.073634	0.089352	0.22053	0.2893	0.12876	0.22678	0.10372	0.17154	0.29418	0.32598	0.23996	0.13892	0.088035	0.18184	-2.0312	-3.1646	-2.2812	-2.9417	-2.9271	-2.4	-3.0854	-3.0146	-2.2313	-3.0292	-2.625	-2.95	-3.0646	-2.5854	-3.0542	-3.0125	195.536	158.721	304.917	116.138	135.864	429.445	443.740	437.382	419.855	106.932	380.549	392.565	449.802	447.842	125.121	388.390	0.00096927	0.00069968	0.00013477	1354.4	4.4049e-06	4.155e-06	1412	471.22	5.2025e-06	4.8204e-06	572.78	218.89	168.72	84.127	5.1916e-06	114.32	5.5321e-05	3.2624e-05	9.3692e-06	1108.9	3.9144e-07	3.4397e-07	1162.2	385.21	3.9554e-07	3.5291e-07	446.37	174.38	135.09	67.113	3.8581e-07	89.924	179.423	175.463	144.950	116.693	276.768	231.656	115.587	121.246	210.732	279.738	119.408	123.724	125.652	130.228	235.507	127.213	-8191	255	
2822.689	1	1	0	0	0.24324	0.17492	0.15588	0.139	0.13381	0.10736	0.11872	0.20202	0.072877	0.07272	0.048227	0.20849	0.17491	0.38061	0.032868	0.20614	-2.125	-3.1458	-2.3833	-2.6604	-3.0521	-2.4896	-3.1583	-2.8875	-2.3375	-3.0667	-3.0563	-2.7146	-3.1583	-2.5979	-2.925	-3.0646	117.688	307.474	330.974	406.981	133.022	199.095	296.504	388.761	461.158	385.971	105.897	426.645	366.127	436.195	250.619	391.065	0.0010253	0.00064524	6.0549e-05	1355.2	1.5985e-06	4.6974e-06	1418.5	473.79	6.147e-06	5.4534e-06	584.55	222.15	170.98	85.023	6.9076e-06	117.13	5.6107e-05	3.1499e-05	9.7518e-06	1106.4	3.6694e-07	3.5191e-07	1169.3	388.79	3.7502e-07	3.3873e-07	455.54	177.67	137.04	67.971	3.9831e-07	91.778	182.761	190.201	118.468	116.686	243.060	251.851	115.417	121.238	259.444	228.761	119.403	123.652	125.597	129.977	246.022	127.001	-8191	255	
2822.761	1	1	0	0	0.11179	0.1831	0.043157	0.16425	0.18819	0.11807	0.31502	0.27755	0.26523	0.2332	0.10167	0.18536	0.3625	0.22516	0.074951	0.11383	-1.85	-2.8917	-2.7938	-2.6937	-3.1063	-2.4854	-3.0312	-3.1542	-2.4792	-3.0458	-2.9	-2.5375	-3.1333	-2.6562	-2.8021	-3.0187	295.668	223.786	288.193	456.841	329.612	118.766	103.505	407.291	240.571	295.487	437.291	392.631	424.892	395.740	173.946	245.449	0.0010397	0.00027528	0.00012581	1359	6.802e-06	3.8014e-06	1432.4	480.82	4.7396e-06	5.6564e-06	589.84	226.37	171.63	85.829	5.3447e-06	117.88	5.383e-05	3.0123e-05	9.5163e-06	1115.8	3.4391e-07	3.2843e-07	1181.7	394.15	3.5868e-07	3.4501e-07	459.3	179.69	138.2	68.526	3.893e-07	92.168	181.772	199.986	127.173	116.812	278.492	265.690	115.546	121.184	253.511	224.516	119.764	123.244	125.637	129.948	224.404	126.818	-8191	255	
2822.857	1	1	0	0	0.19103	0.12343	0.26076	0.3816	0.21236	0.126	0.26168	0.32233	0.15348	0.22641	0.10947	0.14501	0.52083	0.34643	0.072994	0.11408	-1.9708	-2.8875	-3.0167	-2.5208	-3.0479	-2.5354	-2.7354	-3.3708	-2.2625	-2.9062	-2.9917	-2.5167	-3.0021	-2.7667	-2.5167	-3.2583	246.150	197.798	310.055	401.765	294.301	402.411	393.251	376.390	156.037	227.549	426.098	391.600	410.220	441.342	456.255	375.754	0.0010901	0.00081862	0.00016873	1366.4	4.3906e-06	7.4928e-06	1440.2	485.69	7.1198e-06	5.1748e-06	591.75	227.96	174.5	86.624	4.9827e-06	118.96	5.1372e-05	3.1126e-05	9.2404e-06	1117.3	3.2333e-07	3.3472e-07	1186.9	397.19	3.4534e-07	3.2732e-07	462.09	181.2	139.36	69.08	3.6796e-07	92.951	180.867	204.347	153.356	116.961	263.940	229.388	115.470	121.202	227.637	222.480	119.266	123.438	125.485	129.980	232.827	126.830	-8191	255	
2822.978	1	1	0	0	0.21399	0.14959	0.06601	0.23924	0.088873	0.28859	0.22846	0.22035	0.087914	0.19313	0.14132	0.10221	0.35139	0.30642	0.21515	0.32773	-1.9792	-2.8229	-3.0292	-2.5458	-2.9875	-2.6146	-2.7375	-3.2146	-2.6167	-2.8563	-2.8896	-2.5021	-3.0042	-2.5646	-2.7021	-3.2812	330.361	171.209	189.311	449.015	103.409	105.766	424.539	362.213	214.599	365.575	167.504	342.650	117.669	408.631	175.992	413.412	0.0011284	0.0008356	0.00013435	1360.7	5.1938e-06	6.2796e-06	1449.4	488.29	5.6355e-06	4.9498e-06	600.49	231.04	177.05	87.593	4.5957e-06	121.34	5.1013e-05	3.1421e-05	9.0863e-06	1117.9	3.1792e-07	3.5397e-07	1189.3	399.41	3.3491e-07	3.4814e-07	468.07	184.23	141.97	70.115	3.5275e-07	94.798	181.353	175.852	154.589	116.931	298.100	241.055	115.367	121.060	260.852	222.818	119.608	123.737	125.738	129.651	242.638	126.939	-8191	255	
2823.074	1	1	0	0	0.22629	0.14481	0.23698	0.48404	0.033064	0.21959	0.37117	0.30516	0.27685	0.0119	0.30575	0.34266	0.31922	0.089974	0.1728	0.10355	-1.9583	-2.6688	-2.8271	-2.5208	-2.8833	-2.6063	-2.6562	-3.2125	-2.5896	-2.6396	-3.1104	-2.5812	-2.9896	-3.0375	-2.5979	-3.0917	393.312	180.169	423.036	450.258	182.673	338.703	368.683	424.363	117.824	133.845	412.671	437.341	389.890	383.255	364.306	396.493	0.0010319	0.00074234	0.00011464	1378.7	5.3562e-06	3.6703e-06	1460.2	496.38	6.0565e-06	4.8121e-06	606.89	236.09	180.56	88.945	4.6817e-06	122.69	5.1364e-05	3.2719e-05	8.4305e-06	1126.7	3.265e-07	3.5875e-07	1200.7	405.42	3.4826e-07	3.4675e-07	474.71	187.95	144.25	71.101	3.396e-07	96.133	182.680	159.683	128.249	116.852	262.075	263.346	115.625	121.335	235.444	263.991	119.288	123.193	125.346	129.983	225.095	126.859	-8191	255	
2823.170	1	1	0	0	0.11383	0.18351	0.20704	0.18636	0.23477	0.15155	0.27753	0.39922	0.063056	0.087823	0.10144	0.31156	0.092602	0.26537	0.22705	0.32233	-2.2687	-2.7896	-2.925	-2.425	-3.0917	-2.9354	-2.6542	-3.2	-2.6063	-2.4375	-3.3125	-2.425	-3.1833	-3.0354	-2.4854	-3.0229	449.961	261.216	214.208	402.826	325.953	269.861	442.620	408.791	307.764	198.566	140.270	163.536	153.441	444.707	131.409	424.516	0.0011156	0.00059351	0.00010232	1389.8	3.9643e-06	5.9223e-06	1465.2	498.35	6.2139e-06	5.9392e-06	611.05	236.91	180.71	88.789	7.8785e-06	121.91	5.2819e-05	3.1843e-05	8.0829e-06	1132	3.4115e-07	3.4153e-07	1203.1	407.03	3.6086e-07	3.3307e-07	477.05	188.89	144.77	71.125	3.4721e-07	95.826	181.323	157.297	132.813	116.589	277.380	248.424	115.464	121.057	245.897	185.642	119.475	123.360	125.446	129.929	226.930	127.054	-8191	255	
2823.266	1	1	0	0	0.25206	0.2938	0.10287	0.30852	0.13519	0.16496	0.19543	0.092478	0.1535	0.12017	0.1926	0.38953	0.30112	0.20368	0.011684	0.11261	-2.3167	-2.4125	-3.0292	-2.5729	-2.8771	-2.8187	-2.65	-3.3583	-2.7458	-2.6188	-3.2354	-2.3312	-2.9833	-3.1917	-2.2375	-3.2229	378.145	279.440	275.498	441.688	159.587	174.111	400.905	426.596	163.217	290.466	396.091	415.090	422.089	419.688	346.158	423.462	0.0010415	0.00062826	0.00013451	1367.5	3.8491e-06	5.9031e-06	1447.9	493.27	5.3253e-06	5.1758e-06	607.99	236.04	180.65	89.115	6.1245e-06	122.2	5.2612e-05	3.0595e-05	8.1839e-06	1121.4	3.5539e-07	3.2906e-07	1195	403.86	3.638e-07	3.1918e-07	473.01	188.09	144.5	71.031	3.2915e-07	95.811	179.395	187.821	145.253	116.583	279.866	258.714	115.629	120.947	222.544	215.147	119.109	123.263	125.717	130.083	235.115	126.656	-8191	255	
2823.338	1	1	0	0	0.096546	0.13908	0.084047	0.50661	0.23694	0.23367	0.34142	0.1469	0.34897	0.15055	0.045113	0.27852	0.16609	0.27578	0.13695	0.22465	-2.2854	-2.4792	-2.9958	-2.6167	-2.8958	-2.9583	-2.6354	-3.0312	-2.9437	-2.2604	-3.2417	-2.5979	-2.7292	-3.0104	-2.2438	-3.0938	195.629	400.373	209.650	416.027	269.547	384.714	422.777	401.054	327.094	201.933	176.359	113.385	348.803	401.598	373.140	427.940	0.0011626	0.00051829	0.00016679	1381.4	6.2119e-06	3.3406e-06	1455.3	498.99	4.9993e-06	4.3058e-06	612.94	237.34	181.35	89.437	4.8318e-06	123.2	5.6569e-05	3.0595e-05	7.7453e-06	1128	3.671e-07	3.4392e-07	1199.6	407.84	3.8633e-07	3.3171e-07	478.4	190.13	145.45	71.324	3.3652e-07	96.528	180.354	193.566	148.064	116.925	292.224	186.444	115.333	121.060	283.662	207.790	119.186	123.128	125.485	129.785	241.424	126.921	-8191	255	
2823.459	1	1	0	0	0.081365	0.20885	0.050658	0.29331	0.17349	0.24023	0.2628	0.23106	0.20229	0.024904	0.31835	0.093037	0.22153	0.062145	0.2041	0.23448	-2.3625	-2.3479	-3.0083	-2.5396	-2.5292	-3.175	-2.5	-3.1	-2.7417	-2.4333	-3.1333	-2.8146	-2.5563	-3.1979	-2.4979	-2.85	128.133	156.348	322.954	347.641	116.617	196.573	446.972	428.075	311.755	406.243	435.329	392.731	345.336	402.886	216.247	434.857	0.00112	0.00061292	0.00016174	1396.2	3.9785e-06	4.8173e-06	1475	502.32	3.3086e-06	5.1943e-06	618.23	241.85	183.45	90.421	6.2983e-06	124.79	5.5713e-05	2.939e-05	7.9461e-06	1139.8	3.5553e-07	3.1957e-07	1214	412.26	3.6264e-07	3.2086e-07	483.27	192.58	147.2	72.165	3.3126e-07	97.783	182.425	206.790	152.323	116.556	296.615	239.262	115.490	121.261	221.949	224.903	119.092	123.225	125.534	129.995	228.703	126.675	-8191	255	
2823.553	1	1	0	0	0.16637	0.25704	0.10213	0.015457	0.0661	0.20812	0.22707	0.48984	0.27261	0.13014	0.12923	0.34387	0.23831	0.47292	0.028724	0.17407	-2.45	-2.3708	-2.8229	-2.8	-2.5167	-3.05	-2.4271	-2.9833	-2.8667	-2.3583	-3.1542	-2.5833	-2.6333	-3.1896	-2.4708	-2.9146	348.062	370.928	236.052	247.505	295.531	175.821	350.294	383.626	202.298	235.859	424.262	420.912	417.439	413.736	456.070	432.520	0.0011263	0.00062743	0.00013971	1407.2	5.8951e-06	5.0935e-06	1484.6	506.82	4.4937e-06	4.5352e-06	618.52	242.12	184.14	90.041	7.8674e-06	124.49	5.4613e-05	2.9802e-05	7.9753e-06	1149.5	3.4809e-07	3.0564e-07	1220.9	415.66	3.3805e-07	2.9081e-07	485.09	193.13	147.97	72.16	3.3416e-07	97.279	176.978	178.324	143.698	116.978	287.446	258.943	115.539	121.354	251.110	190.000	119.426	123.393	125.416	129.893	224.216	126.698	-8191	255	
2823.651	1	1	0	0	0.17388	0.27099	0.14907	0.24513	0.16878	0.22948	0.44423	0.25322	0.081913	0.1876	0.069619	0.16082	0.37477	0.074627	0.16144	0.2141	-2.4854	-2.1333	-2.8271	-3.1271	-2.275	-3.0792	-2.6833	-2.8625	-3.0479	-2.2729	-3.2562	-2.9313	-2.5938	-3.2167	-2.525	-2.8063	322.376	309.248	281.034	429.425	178.167	201.683	402.636	104.288	365.906	322.212	121.370	444.582	103.967	122.131	387.815	369.467	0.0011243	0.00052067	0.00014395	1405.5	5.4626e-06	6.7679e-06	1472.2	506.63	4.1581e-06	4.4348e-06	618.53	240.73	184.61	90.678	5.5418e-06	123.7	5.1575e-05	2.8526e-05	7.9558e-06	1147.3	3.1022e-07	2.8465e-07	1210.4	414.69	3.289e-07	3.0628e-07	481.55	191.66	147.67	72.195	3.3731e-07	97.04	180.977	180.379	155.734	116.642	288.083	266.381	115.686	121.158	243.363	217.307	119.006	123.147	125.569	129.582	220.902	126.633	-8191	255	
2823.770	1	1	0	0	0.13576	0.19683	0.022446	0.11635	0.1371	0.046618	0.17207	0.29298	0.27053	0.060991	0.26905	0.30274	0.4057	0.19238	0.30493	0.43262	-2.5042	-2.35	-2.8438	-2.8979	-2.2458	-3.3	-2.7458	-2.575	-3.125	-2.1937	-2.9208	-3.1958	-2.5062	-3.3208	-2.6958	-2.6375	329.549	356.798	185.904	113.061	195.608	296.057	107.443	114.864	122.067	212.057	384.757	430.799	397.668	125.668	253.080	391.034	0.0010358	0.00049362	0.00012858	1409.7	5.5893e-06	4.131e-06	1478.3	505.38	6.4102e-06	5.4128e-06	618.58	241.89	184.78	90.303	7.0246e-06	124.9	4.9812e-05	2.7956e-05	8.6574e-06	1149.7	3.2735e-07	2.9872e-07	1214.4	414.78	3.384e-07	3.0776e-07	484.78	192.57	148.1	72.158	3.7342e-07	97.702	181.503	199.922	173.027	116.670	295.271	242.971	115.454	120.893	259.372	207.505	119.142	123.248	125.494	129.836	225.826	126.625	-8191	255	
2823.866	1	1	0	0	0.095699	0.20856	0.22642	0.14954	0.050477	0.11857	0.33283	0.26312	0.25556	0.1561	0.28409	0.34169	0.20972	0.31097	0.2507	0.16463	-2.6292	-2.4896	-2.7292	-3	-2.4292	-3.0062	-2.9792	-2.5229	-2.8896	-2.5938	-2.5646	-3.0438	-2.7417	-3.0708	-2.8667	-2.5167	207.891	321.287	303.655	395.254	163.797	253.276	423.397	378.909	197.604	267.751	449.286	123.099	112.161	107.781	387.349	417.508	0.0011014	0.00093083	0.00017249	1399.8	6.1111e-06	2.5972e-06	1476.4	506.66	7.9249e-06	6.4078e-06	628	245.31	186.8	91.303	5.8909e-06	126.19	5.1338e-05	2.9484e-05	8.5984e-06	1146.9	3.2092e-07	3.1493e-07	1213.8	415.77	3.1042e-07	3.2083e-07	487.83	195.11	149.5	72.844	3.646e-07	98.94	181.249	184.291	149.916	116.925	267.757	272.563	115.492	121.011	257.373	212.381	119.157	122.947	125.126	129.873	243.564	126.734	-8191	255	
2823.962	1	1	0	0	0.18509	0.17326	0.12559	0.23574	0.30027	0.051911	0.26039	0.12815	0.032521	0.2344	0.31578	0.11081	0.15462	0.34803	0.16786	0.35283	-2.6208	-2.3688	-2.5354	-3.0896	-2.3271	-2.9542	-3.0042	-2.6042	-2.9833	-2.4958	-2.7396	-3.2208	-2.6354	-2.8729	-2.7854	-2.5479	230.650	385.042	374.987	441.918	315.260	417.842	392.968	368.451	413.958	438.964	425.861	114.336	399.197	449.154	200.249	391.516	0.0010837	0.00093789	0.00015865	1417.9	5.4037e-06	8.1988e-06	1483.6	513.36	5.6383e-06	5.5315e-06	630.06	245.08	185.93	91.516	4.7904e-06	125.62	5.1897e-05	3.0472e-05	9.078e-06	1157.9	3.1569e-07	3.355e-07	1222.7	419.6	3.2779e-07	3.3573e-07	489.13	195.27	149.28	72.846	3.5035e-07	98.524	180.792	185.333	163.214	116.767	297.737	249.635	115.426	120.788	249.516	213.686	119.213	123.048	125.234	129.715	255.419	126.765	-8191	255	
2824.058	1	1	0	0	0.03132	0.21502	0.082788	0.061533	0.13158	0.23961	0.34864	0.12473	0.10047	0.17576	0.082286	0.15284	0.24829	0.49542	0.25556	0.31068	-2.3458	-2.55	-2.3063	-3.0604	-2.5125	-2.7875	-3.0792	-2.5438	-3.0396	-2.8312	-2.5125	-3.2521	-2.6229	-2.7188	-2.9083	-2.4	416.871	316.173	339.644	217.629	296.395	363.126	386.710	430.778	292.559	272.132	368.284	406.737	457.473	424.842	268.779	419.881	0.0011292	0.00083054	0.00013598	1407.9	1.8101e-06	6.647e-06	1467.3	509.54	5.2951e-06	4.5318e-06	617.65	242.95	185.67	90.979	5.3269e-06	125.51	5.1665e-05	3.2783e-05	8.5555e-06	1153.2	3.2878e-07	3.5598e-07	1210.4	416.86	3.4588e-07	3.5818e-07	483.58	193.37	148.8	72.661	3.7252e-07	98.243	182.032	173.164	149.174	116.691	271.986	239.152	115.231	120.999	246.694	251.983	119.000	122.914	125.022	130.015	235.100	126.677	-8191	255	
2824.154	1	1	0	0	0.27202	0.20719	0.11056	0.044792	0.1513	0.10611	0.30212	0.20355	0.094711	0.05706	0.25626	0.073082	0.21692	0.2451	0.071976	0.20488	-2.5104	-2.6646	-2.2938	-3.2771	-2.6375	-2.6437	-3.2771	-2.5146	-2.8667	-2.8854	-2.575	-3.1333	-2.7604	-2.6792	-2.9562	-2.6833	356.521	156.272	186.380	407.907	414.131	280.220	449.988	395.198	201.668	326.701	427.676	405.221	395.150	411.713	321.342	436.639	0.0011691	0.0010194	0.0001705	1408	5.9133e-06	6.4158e-06	1470.7	507.6	7.3452e-06	8.7313e-06	621.52	243.09	186.32	91.099	8.4662e-06	125.44	5.5521e-05	3.4471e-05	8.8387e-06	1150.4	3.871e-07	3.7442e-07	1212.1	416.45	3.9873e-07	4.0301e-07	485.94	194.07	149.3	72.779	3.8921e-07	98.698	180.578	192.697	145.691	117.013	276.918	259.672	115.241	121.017	236.037	224.616	118.985	123.146	125.180	130.140	216.630	126.870	-8191	255	
2824.251	1	1	0	0	0.14796	0.075125	0.27887	0.14103	0.2555	0.1295	0.16338	0.27903	0.33599	0.20876	0.096418	0.18416	0.1246	0.45455	0.10176	0.32463	-2.1063	-2.8042	-2.2396	-3.1271	-2.7062	-2.4479	-3.1125	-2.3917	-2.825	-2.8208	-2.3187	-3.1583	-2.6458	-2.6375	-3.2542	-2.4792	136.479	182.783	432.074	139.211	268.428	228.325	391.675	402.035	275.110	298.125	380.122	356.772	119.604	435.152	418.472	400.808	0.0011109	0.0006177	0.00015177	1405.1	6.8823e-06	5.1619e-06	1476	507.7	6.5515e-06	6.872e-06	627.9	243.67	185.43	91.344	5.1156e-06	126.68	6.1286e-05	3.7466e-05	9.9206e-06	1151.1	4.4085e-07	4.2524e-07	1215.4	416.8	4.4879e-07	4.1393e-07	488.19	194.38	148.74	72.968	4.1755e-07	99.368	180.556	195.286	136.286	116.951	263.908	250.464	115.230	120.949	224.706	213.865	119.242	123.371	125.303	129.947	247.324	126.801	-8191	255	
2824.371	1	1	0	0	0.33362	0.11761	0.14485	0.21381	0.11239	0.19782	0.26139	0.18805	0.097577	0.066754	0.060072	0.20085	0.15416	0.24898	0.15952	0.39002	-2.1354	-2.8563	-2.2229	-3.1646	-2.6771	-2.3937	-3.3958	-2.7146	-2.4688	-3.2	-2.4146	-3.175	-2.9021	-2.5563	-2.9917	-2.575	370.864	288.952	248.475	403.210	434.933	341.635	401.282	353.119	164.140	456.442	359.005	333.966	439.039	111.325	191.713	428.613	0.0011027	0.00085082	0.0001107	1399.1	3.6689e-06	5.9704e-06	1475	509.44	4.1605e-06	5.2431e-06	623.23	243.18	184.99	90.699	3.6085e-06	125.77	6.3763e-05	3.6827e-05	1.0052e-05	1147.2	4.2925e-07	4.2647e-07	1213.2	416.56	4.6107e-07	4.0677e-07	485.96	193.98	148.35	72.498	4.343e-07	98.435	181.706	197.126	124.989	116.566	255.999	256.505	115.389	120.925	224.398	227.184	119.331	123.330	125.220	129.843	223.851	126.781	-8191	255	
2824.466	1	1	0	0	0.25757	0.16007	0.1738	0.18364	0.15768	0.045227	0.15305	0.11971	0.29508	0.3163	0.20644	0.34315	0.37213	0.2591	0.16795	0.046591	-2.25	-2.8896	-2.4292	-3.0667	-2.7333	-2.3875	-3.2729	-2.6583	-2.5187	-2.9167	-2.5792	-2.9083	-2.8375	-2.5938	-3.0062	-2.8542	130.486	176.996	307.371	389.058	218.821	453.293	414.980	412.319	192.078	319.294	376.789	447.201	388.420	380.354	197.590	448.875	0.0011006	0.00070698	0.00019255	1390.6	5.7511e-06	4.7246e-06	1457.9	503.91	4.7911e-06	5.1557e-06	617.26	240.11	184.09	90.203	4.702e-06	124.27	6.63e-05	4.3149e-05	1.1069e-05	1140.5	4.8812e-07	4.5407e-07	1202.1	413.37	4.9537e-07	4.3347e-07	481.71	192.25	147.83	71.997	4.5374e-07	97.556	183.872	172.735	138.680	116.927	248.630	220.233	115.631	121.040	226.884	247.032	119.286	123.313	125.237	129.925	255.947	126.716	-8191	255	
2824.562	1	1	0	0	0.10417	0.087757	0.26946	0.20855	0.14815	0.12967	0.2141	0.20189	0.10892	0.15672	0.15021	0.26039	0.2634	0.22906	0.25813	0.20185	-2.0208	-2.9583	-2.6729	-2.8521	-2.7229	-2.3917	-3.0958	-2.9604	-2.4167	-2.925	-2.4667	-2.9333	-3.0604	-2.5042	-3.0708	-2.8229	275.117	358.371	228.017	111.116	391.301	432.038	394.641	402.989	218.076	284.294	434.074	454.811	367.234	425.017	181.004	378.623	0.001032	0.00052488	0.00016716	1403.4	4.4086e-06	4.3752e-06	1464.6	506.36	5.8169e-06	6.5305e-06	617.55	242.35	184.56	89.885	5.2556e-06	124.2	6.2527e-05	3.8096e-05	1.1238e-05	1148.7	4.5619e-07	4.3235e-07	1209.6	415.2	4.6289e-07	4.2094e-07	483.06	192.94	147.88	71.856	4.4149e-07	97.525	181.976	194.193	155.278	116.638	293.891	260.280	115.315	121.171	250.875	211.873	119.305	123.275	125.237	130.095	246.616	126.565	-8191	255	
2824.658	1	1	0	0	0.12629	0.15349	0.24627	0.20682	0.19745	0.10203	0.25052	0.19501	0.17254	0.22197	0.40969	0.36436	0.15136	0.41415	0.13788	0.35767	-1.9292	-3.0979	-2.5271	-2.8646	-2.85	-2.3917	-2.9396	-2.9917	-2.2354	-3.1354	-2.6562	-2.8625	-2.9938	-2.6583	-2.9292	-3.0146	201.403	197.285	315.455	459.658	338.954	337.552	373.286	360.807	254.008	113.369	368.092	391.656	374.390	385.483	356.955	409.153	0.0010692	0.00085521	0.00014262	1402.5	6.1255e-06	7.1005e-06	1474.8	506.59	5.2213e-06	6.3506e-06	621.01	242.63	183.62	89.061	6.9943e-06	124.7	6.2088e-05	3.8881e-05	1.1324e-05	1151.4	4.4491e-07	4.1222e-07	1217.4	414.08	4.2966e-07	3.9589e-07	485.66	193	147.23	71.458	4.4439e-07	97.344	182.974	174.971	150.131	116.749	295.263	230.374	115.102	120.678	241.191	209.245	119.206	123.270	125.363	129.864	235.452	126.754	-8191	255	
2824.754	1	1	0	0	0.34218	0.08229	0.060599	0.25923	0.15997	0.080075	0.37812	0.20379	0.2098	0.064819	0.24373	0.18272	0.13712	0.51676	0.12065	0.36764	-1.9021	-2.9333	-2.6167	-2.5833	-3.0646	-2.4813	-2.9021	-3.1604	-2.3354	-3.0583	-2.5771	-2.8292	-3.0729	-2.4437	-2.7146	-3.0271	388.645	208.100	280.819	438.265	402.257	183.058	397.324	166.499	452.471	205.156	460.074	412.416	371.191	421.823	126.230	392.370	0.0011131	0.00056682	0.0001214	1401.9	2.3823e-06	5.0083e-06	1476.1	504.02	7.4277e-06	6.0045e-06	616.97	238.49	181.9	88.48	5.09e-06	121.8	6.0732e-05	3.7313e-05	1.1317e-05	1149.9	4.1612e-07	4.0733e-07	1216.7	412.45	4.2103e-07	3.9842e-07	481.26	190.82	145.94	70.792	4.596e-07	95.243	179.591	186.516	135.248	116.901	306.833	249.250	115.462	120.871	255.189	231.963	119.184	123.392	125.301	130.182	213.258	126.646	-8191	255	
2824.850	1	1	0	0	0.2234	0.12903	0.1714	0.24297	0.11804	0.090771	0.11726	0.40768	0.054093	0.14016	0.089043	0.29642	0.14929	0.13931	0.12653	0.29277	-1.7021	-2.9521	-2.8521	-2.625	-2.7271	-2.5938	-2.7833	-3.2083	-2.0979	-3.0583	-2.6833	-2.7542	-3.0583	-2.5417	-2.6729	-3.1042	135.755	208.911	432.373	392.902	351.120	118.546	377.386	390.824	112.214	319.446	191.249	370.028	139.257	183.320	205.394	366.503	0.0010833	0.00060383	0.0001234	1392.4	3.6017e-06	4.6806e-06	1438.9	495.25	6.3894e-06	6.0685e-06	594.9	230.43	177.5	86.749	5.6331e-06	118.03	5.7484e-05	3.4559e-05	1.103e-05	1141.1	3.6678e-07	3.6824e-07	1188.8	404.63	3.6409e-07	3.6274e-07	464.88	183.62	142.16	69.363	3.8304e-07	92.432	180.122	185.004	167.418	116.715	308.360	271.996	115.263	120.746	241.192	223.567	119.348	123.328	125.594	130.122	238.300	126.836	-8191	255	
2824.946	1	1	0	0	0.12753	0.16852	0.1388	0.12334	0.15064	0.22537	0.11748	0.082218	0.25458	0.16036	0.15864	0.072667	0.06249	0.24343	0.2733	0.26444	-1.8875	-2.575	-2.9625	-2.5417	-2.95	-2.8625	-2.6542	-3.3229	-2.2583	-2.9771	-2.9437	-2.45	-3.0917	-2.6458	-2.525	-3.1875	375.586	222.762	432.730	411.513	396.897	460.557	134.267	282.628	298.199	236.948	172.804	208.855	321.843	412.081	214.727	384.214	0.0010458	0.00055513	0.00012661	1381.5	6.1614e-06	5.2447e-06	1433.8	489.64	4.9436e-06	4.8015e-06	592.58	230.46	177.51	86.71	5.5855e-06	118.61	5.147e-05	3.1541e-05	8.7118e-06	1130.5	3.192e-07	3.5246e-07	1181.9	402.07	3.2863e-07	3.5195e-07	464.32	183.95	142.28	69.227	3.4371e-07	92.753	180.267	163.715	139.682	116.938	287.343	255.317	115.320	121.044	244.377	218.637	119.088	123.421	125.792	129.839	243.061	126.807	-8191	255	
2825.042	1	1	0	0	0.17906	0.049724	0.090197	0.31044	0.18479	0.039736	0.21581	0.21578	0.15271	0.2474	0.38289	0.31567	0.16218	0.21892	0.27457	0.30794	-1.9854	-2.7625	-2.7313	-2.4771	-2.9813	-2.7229	-2.6312	-3.4917	-2.3021	-2.6958	-3.0042	-2.6229	-3.0833	-2.8229	-2.3146	-3.1875	203.708	109.538	256.932	404.590	382.954	346.607	412.391	385.395	294.877	320.637	397.103	161.588	119.476	444.631	102.873	417.213	0.0010445	0.00044551	0.00012419	1391.2	4.1281e-06	3.3223e-06	1445.2	494.71	5.6749e-06	6.115e-06	599.37	232.93	180.41	87.22	6.1069e-06	119.41	4.9685e-05	3.2889e-05	8.3002e-06	1137.2	3.1821e-07	3.4576e-07	1188.5	404.28	3.4307e-07	3.6729e-07	468.72	185.72	143.78	69.824	3.4935e-07	93.601	180.655	168.193	159.079	116.589	292.105	236.254	115.534	120.815	239.912	227.195	119.269	123.397	125.245	130.045	232.186	126.926	-8191	255	
2825.163	1	1	0	0	0.088281	0.2868	0.21673	0.13031	0.3311	0.13264	0.071721	0.30802	0.1462	0.17205	0.087672	0.36248	0.16153	0.23375	0.13319	0.21463	-2.1146	-2.5396	-2.9042	-2.6146	-2.9479	-2.8125	-2.575	-3.1667	-2.5	-2.6479	-3.1792	-2.3875	-3.0458	-3.0896	-2.3958	-3.1833	313.576	112.515	320.936	266.553	257.992	334.441	322.629	387.388	403.817	320.214	460.469	413.737	323.554	122.255	386.800	412.213	0.0010842	0.00071493	6.1731e-05	1400.2	5.7732e-06	5.0761e-06	1444.6	495.34	5.6744e-06	5.4291e-06	590.7	228.49	175.44	85.415	4.5271e-06	116.54	5.2676e-05	3.311e-05	8.4264e-06	1142.3	3.4045e-07	3.6259e-07	1191.1	403.52	3.6886e-07	3.5422e-07	462.14	181.72	141.09	68.376	3.4234e-07	90.918	182.018	163.619	129.046	116.592	291.127	273.408	115.096	121.093	237.404	217.961	119.131	123.142	125.772	130.071	242.096	126.626	-8191	255	
2825.259	1	1	0	0	0.074108	0.18016	0.11617	0.24929	0.17299	0.26613	0.20756	0.21402	0.29682	0.17644	0.13881	0.12552	0.46209	0.26616	0.37152	0.31499	-2.0042	-2.5083	-2.8875	-2.5875	-2.775	-2.9188	-2.3604	-3.0729	-2.6271	-2.3646	-3.1729	-2.5521	-2.7396	-2.8667	-2.2229	-2.9917	246.571	351.660	312.691	425.308	251.614	358.604	424.956	110.557	317.318	301.693	390.261	447.028	448.896	348.097	318.359	433.687	0.00096661	0.0006359	0.00011692	1383.6	3.3282e-06	3.2889e-06	1408.1	482.66	3.7509e-06	4.5028e-06	569.37	218.33	170.94	82.842	6.3013e-06	111.39	5.3783e-05	3.3223e-05	8.3482e-06	1132.1	3.6986e-07	3.4738e-07	1159.3	394.5	3.8412e-07	3.3434e-07	443.13	173.38	136.58	66.25	3.447e-07	87.372	179.056	180.284	140.580	116.550	295.750	216.457	115.061	120.837	269.507	221.981	119.448	123.404	125.329	130.081	223.144	126.964	-8191	255	
2825.331	1	1	0	0	0.12105	0.070025	0.26407	0.40323	0.10433	0.038676	0.40247	0.13614	0.18806	0.17801	0.27274	0.28276	0.2498	0.41026	0.062833	0.24065	-2.1604	-2.3563	-2.9333	-2.6375	-2.7938	-2.9333	-2.5125	-3.1958	-2.6562	-2.3083	-3.1104	-2.5667	-2.5979	-3.0521	-2.5646	-2.9354	133.294	447.960	403.346	420.849	293.337	360.625	397.164	397.890	167.617	366.534	110.676	122.769	359.369	424.679	411.753	416.054	0.00093994	0.00067796	7.6589e-05	1359	1.4436e-06	4.0484e-06	1370.2	473.18	6.2908e-06	4.2018e-06	554.91	212.54	167.86	82.086	5.4879e-06	110.41	5.3919e-05	3.4018e-05	8.5798e-06	1109.8	3.7464e-07	3.4973e-07	1131.8	385.88	4.0529e-07	3.6094e-07	434.11	169.95	134.43	65.623	3.5584e-07	86.756	183.047	170.080	191.233	116.996	281.341	282.198	115.300	121.249	240.458	246.284	119.804	123.754	125.671	129.894	236.653	126.864	-8191	255	
2825.452	1	1	0	0	0.14118	0.26876	0.18957	0.10523	0.22082	0.073102	0.32832	0.28337	0.11068	0.10716	0.14782	0.25285	0.16295	0.23086	0.39258	0.39015	-2.1833	-2.1604	-2.9271	-2.725	-2.4917	-2.9729	-2.6521	-2.9479	-2.775	-2.2542	-3.2979	-2.6125	-2.7062	-3.0667	-2.175	-3.0354	120.001	360.279	128.322	359.866	364.580	449.314	346.809	441.119	116.069	318.892	319.807	148.276	462.684	398.862	151.326	422.519	0.0010573	0.00056705	0.000167	1366	1.3894e-06	3.7999e-06	1382.5	470.03	5.0014e-06	1.6089e-06	562.28	215.86	169.16	82.956	9.3648e-06	111.39	5.6014e-05	3.2989e-05	8.5244e-06	1114.5	4.1261e-07	3.5367e-07	1140.5	387.44	4.0232e-07	3.6901e-07	437.9	172.3	135.85	66.234	3.6947e-07	87.394	180.225	172.737	137.643	116.712	234.434	237.590	115.471	121.109	260.309	249.356	119.080	123.460	125.562	130.156	241.789	126.923	-8191	255	
2825.546	1	1	0	0	0.039302	0.15032	0.15144	0.2773	0.1245	0.23628	0.24521	0.29492	0.24264	0.23224	0.25028	0.1794	0.30217	0.2687	0.22378	0.16312	-2.1521	-2.3167	-2.9604	-2.5938	-2.4021	-2.9292	-2.6354	-2.9313	-2.9417	-2.4813	-3.1042	-2.8563	-2.5458	-3.0458	-2.3812	-2.8667	187.750	136.705	443.346	426.358	406.746	297.275	390.844	387.572	390.019	383.160	422.898	451.223	105.903	412.356	360.807	352.191	0.0010156	0.00077524	0.00016429	1359.7	3.4449e-06	3.9089e-06	1377.6	471.39	3.6033e-06	8.4438e-06	558.75	212.77	167.9	82.19	7.0324e-06	110.69	5.6221e-05	3.3469e-05	9.4362e-06	1111.4	3.9829e-07	3.6604e-07	1136.4	385.67	4.0343e-07	3.6524e-07	434.96	170.19	134.43	65.831	3.8805e-07	86.952	180.793	194.127	140.660	116.908	278.146	272.332	115.569	120.953	215.194	231.783	119.589	123.490	125.514	130.110	244.598	126.911	-8191	255	
2825.642	1	1	0	0	0.049326	0.31377	0.071355	0.15446	0.087244	0.14241	0.27622	0.22177	0.21384	0.43972	0.41778	0.09416	0.3295	0.097265	0.076821	0.26179	-2.5708	-2.3521	-2.9292	-2.7521	-2.3583	-3.0125	-2.5208	-2.7333	-2.9	-2.1792	-2.9104	-2.7396	-2.4125	-3.1208	-2.5438	-2.7125	176.579	227.497	257.297	352.007	451.950	294.288	421.651	395.223	400.984	138.922	404.180	367.068	130.426	345.529	144.954	318.318	0.00092448	0.00060304	0.0001539	1340.6	4.6092e-06	5.8021e-06	1349.4	465.79	8.6852e-06	7.5712e-06	550.3	210.91	165.36	81.582	6.0801e-06	110.29	5.44e-05	3.3792e-05	9.2706e-06	1099.7	3.7833e-07	3.5385e-07	1114.9	381.18	3.878e-07	3.405e-07	429.43	168.28	132.88	65.195	3.9096e-07	86.136	181.683	174.800	128.158	116.795	290.019	225.859	115.429	121.387	245.715	204.498	119.102	123.321	125.530	130.210	229.750	126.932	-8191	255	
2825.740	1	1	0	0	0.23962	0.14708	0.20482	0.29628	0.082067	0.14877	0.22239	0.33125	0.071168	0.086186	0.14144	0.31254	0.17678	0.5043	0.14604	0.091576	-2.7042	-2.2562	-2.6333	-2.7771	-2.0521	-2.9979	-2.6813	-2.5708	-2.7687	-2.3458	-2.8229	-3.0125	-2.3729	-3.0958	-2.4938	-2.6833	441.310	295.971	362.398	142.258	111.437	289.818	359.022	433.432	398.804	455.887	410.069	421.405	325.025	384.263	374.831	344.614	0.00096965	0.00024202	8.4145e-05	1340.3	5.3466e-06	3.0158e-06	1355.5	466.27	3.6884e-06	7.319e-06	545.47	211.99	166.53	81.678	4.6902e-06	110.01	5.2853e-05	3.0974e-05	9.6287e-06	1094.3	3.5129e-07	3.2446e-07	1119.5	380.37	3.519e-07	3.3499e-07	428.96	169.01	133.31	65.27	4.0634e-07	86.454	180.983	182.568	131.783	116.613	286.956	228.115	115.431	121.250	221.502	188.012	119.146	123.538	125.587	129.896	225.762	127.099	-8191	255	
2825.859	1	1	0	0	0.15795	0.32257	0.36718	0.28904	0.11874	0.26481	0.12113	0.39135	0.12412	0.16401	0.44014	0.37467	0.20048	0.25598	0.19583	0.055408	-2.5667	-2.4396	-2.5687	-3.25	-2.1437	-2.7979	-2.7854	-2.3021	-3.0938	-2.475	-2.7042	-3.1083	-2.2667	-3.2188	-2.5708	-2.4021	262.650	326.690	189.782	383.677	171.179	111.643	362.148	432.705	109.491	160.013	407.935	383.236	461.003	430.960	300.735	401.488	0.00096413	0.00063007	2.1193e-05	1330	3.5299e-06	5.4226e-06	1359.8	461.42	6.3686e-06	5.5057e-06	557.05	213.46	166.25	82.127	2.8669e-06	112.1	5.1931e-05	3.1688e-05	9.3846e-06	1090	3.4203e-07	3.3305e-07	1119.8	379.46	3.48e-07	3.4424e-07	433.54	170.34	133.22	65.73	3.7386e-07	87.585	180.555	169.698	253.744	116.666	293.300	227.213	115.313	121.264	268.583	223.012	119.384	123.299	125.552	130.253	195.466	126.797	-8191	255	
2825.931	1	1	0	0	0.28693	0.11746	0.17577	0.11325	0.084498	0.10139	0.3782	0.4287	0.27147	0.14451	0.062362	0.19943	0.068194	0.35514	0.17568	0.34982	-2.7125	-2.4729	-2.3146	-3.0187	-2.0062	-2.8708	-2.9188	-2.3417	-3.1271	-2.2438	-2.575	-3.0792	-2.4437	-2.7604	-2.8646	-2.5125	217.430	262.698	197.813	128.238	409.503	107.518	438.355	431.653	277.658	152.726	359.947	400.741	159.842	435.573	327.772	424.831	0.0010171	0.00077939	0.00016206	1328.6	5.9101e-06	4.3389e-06	1366.9	461.58	5.0606e-06	5.9341e-06	558.4	213.32	166.83	82.392	4.7467e-06	111.97	4.9719e-05	3.2042e-05	9.7107e-06	1087.4	3.4897e-07	3.5028e-07	1125.8	379.79	3.4197e-07	3.3986e-07	434.67	170.32	133.36	65.708	3.6986e-07	87.529	182.006	186.652	114.024	116.618	304.272	273.429	115.447	121.378	257.014	233.235	119.304	123.555	125.594	129.964	227.468	126.773	-8191	255	
2826.051	1	1	0	0	0.039115	0.033399	0.079754	0.34571	0.29571	0.055792	0.31345	0.20043	0.33192	0.14036	0.10032	0.26295	0.25641	0.21637	0.23147	0.18239	-2.4396	-2.5396	-2.4771	-2.9958	-2.3688	-2.7062	-3.0417	-2.4375	-2.8146	-2.5354	-2.4375	-2.9604	-2.4208	-2.9792	-2.6854	-2.4833	230.178	442.221	339.231	419.988	383.976	104.007	399.465	391.616	285.085	230.954	167.665	441.670	116.545	419.698	156.136	343.593	0.0010078	0.00067354	9.3598e-05	1328.2	4.8355e-06	4.2664e-06	1348.1	462.58	4.5347e-06	6.3418e-06	548.53	211.08	165.77	81.544	8.0165e-06	109.48	5.0868e-05	3.3286e-05	8.9595e-06	1089.3	3.1977e-07	3.4809e-07	1112.9	378.61	3.3114e-07	3.7408e-07	428.56	168.25	132.55	65.12	3.4057e-07	86.016	180.663	184.339	114.770	116.717	282.430	234.554	115.249	121.228	228.394	215.051	119.223	123.053	125.480	130.118	222.787	126.941	-8191	255	
2826.147	1	1	0	0	0.12235	0.12429	0.16034	0.27373	0.21309	0.1904	0.13167	0.19107	0.14195	0.45536	0.024372	0.4334	0.23437	0.27857	0.085783	0.32528	-2.5438	-2.5708	-2.5354	-3.2292	-2.275	-2.6083	-3.025	-2.4292	-2.7562	-2.6958	-2.5104	-3.1937	-2.5104	-2.7271	-2.8604	-2.5542	115.203	233.549	445.447	413.273	443.616	182.347	379.782	446.535	410.745	142.665	335.331	151.045	406.082	413.972	293.863	376.470	0.0010106	0.00057889	9.1133e-05	1312.9	4.2868e-06	5.1399e-06	1345.7	460.17	6.1472e-06	4.9439e-06	548.79	211.59	165.14	81.238	6.089e-06	110.52	5.1096e-05	3.3963e-05	8.3911e-06	1076.9	3.4573e-07	3.6575e-07	1109.8	376.49	3.6507e-07	3.5554e-07	428.81	168.55	132.37	64.97	3.4345e-07	86.611	177.435	212.284	124.856	116.813	269.942	256.723	115.347	121.329	236.494	191.128	119.584	123.326	125.296	130.216	235.364	127.002	-8191	255	
2826.243	1	1	0	0	0.091527	0.18814	0.11893	0.16251	0.38664	0.12962	0.15052	0.36924	0.1367	0.030182	0.1195	0.16747	0.19373	0.12919	0.23121	0.26884	-2.3625	-2.7562	-2.2292	-3.1937	-2.4458	-2.6375	-3.1875	-2.6583	-2.7854	-2.7938	-2.4521	-3.0333	-2.7771	-2.6188	-3.0438	-2.5583	349.141	297.141	379.578	461.498	389.285	289.774	400.061	414.207	189.134	223.342	443.314	412.032	162.807	451.437	305.238	400.181	0.0010512	0.00035569	9.4974e-05	1320.1	4.5594e-06	2.6866e-06	1352.2	458.49	4.0196e-06	5.0541e-06	554.94	212.16	165.76	81.757	6.2742e-06	111.46	5.3334e-05	3.3673e-05	8.437e-06	1077.7	3.7413e-07	3.5233e-07	1112.7	376.19	3.7202e-07	3.4596e-07	432.72	169.64	132.74	65.398	3.4245e-07	87.273	181.761	166.064	152.347	116.529	291.009	241.866	115.510	121.062	223.261	201.659	119.455	123.493	125.321	130.423	231.293	126.940	-8191	255	
2826.340	1	1	0	0	0.091491	0.2208	0.11667	0.058753	0.30371	0.087735	0.33388	0.39617	0.1484	0.12485	0.16604	0.36434	0.31357	0.3242	0.16232	0.07389	-2.2667	-2.7458	-2.3125	-2.9313	-2.5625	-2.5229	-3.1667	-2.7604	-2.675	-3.0375	-2.4479	-2.9646	-2.8646	-2.5438	-3.1771	-2.7583	381.117	249.242	142.793	153.047	122.011	214.771	385.165	450.925	302.839	130.755	420.917	134.123	399.380	381.557	319.968	455.011	0.0010014	0.00077577	0.00013305	1323.5	2.3343e-06	5.1009e-06	1365.5	464.09	4.0159e-06	2.1559e-06	559.97	213.45	166.35	81.436	5.2975e-06	111.06	5.4214e-05	3.2089e-05	8.346e-06	1082.7	3.8278e-07	3.5743e-07	1123.3	378.88	3.8842e-07	3.4191e-07	434.59	170.28	133.08	65.211	3.3198e-07	87.069	179.448	196.122	117.076	116.756	280.232	233.718	115.165	121.569	207.284	214.576	119.517	123.441	125.840	130.334	219.982	127.008	-8191	255	
2826.460	1	1	0	0	0.18479	0.13242	0.15228	0.089937	0.026217	0.21353	0.2504	0.1755	0.19518	0.052525	0.12064	0.20024	0.24332	0.29485	0.21371	0.22453	-2.2979	-3.0271	-2.2562	-2.9625	-2.8979	-2.2792	-3.2562	-2.7667	-2.4333	-3.2458	-2.4354	-2.8479	-2.9792	-2.5167	-3.0521	-2.8354	313.717	133.579	261.018	327.502	143.028	143.381	389.747	378.405	406.899	181.935	211.385	413.156	134.268	445.585	280.533	413.013	0.00098844	0.00062132	9.0245e-05	1319.8	2.2268e-06	4.7482e-06	1349.1	459.37	7.2512e-06	4.1057e-06	546.65	211.03	164.4	81.182	5.2648e-06	109.16	5.4193e-05	3.0621e-05	8.6183e-06	1080.2	3.7167e-07	3.5107e-07	1110.8	377.7	3.8768e-07	3.4724e-07	427.28	168.33	132.22	64.91	3.5527e-07	85.848	182.622	186.312	139.829	116.882	268.697	286.102	115.279	121.246	251.342	241.080	119.472	123.564	125.501	130.074	231.545	127.114	-8191	255	
2826.532	1	1	0	0	0.2358	0.1522	0.20072	0.39429	0.22279	0.129	0.19677	0.15101	0.076596	0.080889	0.10214	0.15558	0.12245	0.2136	0.2558	0.14905	-1.9125	-2.9354	-2.4208	-2.8646	-2.8688	-2.2333	-3.15	-2.6937	-2.5875	-2.9354	-2.4292	-2.6771	-2.9583	-2.3458	-2.975	-2.7625	180.413	317.943	267.036	426.371	302.320	213.540	389.277	423.473	216.069	194.049	417.303	416.407	379.406	438.131	390.692	417.118	0.0010375	0.00052813	0.00013129	1329.2	3.8615e-06	3.8441e-06	1355.9	459.73	5.4804e-06	5.0074e-06	552.09	213.15	167.5	81.404	4.5429e-06	110.89	5.4626e-05	3.1488e-05	8.6804e-06	1086.4	3.8923e-07	3.4643e-07	1112.7	379.02	3.9424e-07	3.2796e-07	430.84	170.1	133.51	65.308	3.5739e-07	86.803	180.435	166.380	125.209	116.781	252.077	268.066	115.555	120.840	251.786	235.888	118.961	123.191	125.643	130.203	226.748	126.824	-8191	255	
2826.626	1	1	0	0	0.29397	0.1723	0.013764	0.314	0.16545	0.31497	0.19692	0.24698	0.41903	0.40018	0.22289	0.21041	0.2704	0.19602	0.10861	0.24339	-2.0396	-3.0438	-2.2938	-2.7854	-2.7375	-2.1562	-3.1146	-2.7792	-2.4688	-2.9521	-2.5021	-2.6333	-2.9458	-2.5146	-2.7271	-2.9167	208.726	105.674	382.348	385.010	133.217	400.845	357.025	385.900	113.860	342.988	107.909	380.090	375.729	406.119	237.883	366.813	0.0010028	0.000861	5.9254e-05	1330.3	4.1858e-06	2.9049e-06	1351	461.17	4.772e-06	3.7933e-06	554.1	214.36	166.06	82.043	4.8834e-06	111.53	5.5126e-05	3.2883e-05	9.1049e-06	1088.7	3.8657e-07	3.4432e-07	1115.6	379.22	3.8392e-07	3.281e-07	432.56	170.56	133.4	65.536	3.8665e-07	87.448	178.304	184.056	118.186	116.602	294.485	250.691	115.276	121.192	237.255	203.510	119.260	123.605	125.411	130.189	256.954	127.020	-8191	255	
2826.722	1	1	0	0	0.25354	0.16948	0.14406	0.089242	0.12543	0.2222	0.18414	0.42686	0.23105	0.085898	0.11106	0.27396	0.12564	0.074383	0.14836	0.30035	-1.6792	-2.8604	-2.5271	-2.7667	-2.8604	-2.2458	-2.9792	-2.9125	-2.1979	-2.8708	-2.575	-2.4958	-3.0896	-2.5187	-2.6688	-3.075	220.783	359.797	338.042	109.554	313.859	385.044	375.350	398.562	396.528	153.306	409.606	420.928	410.876	456.307	182.451	394.524	0.0010253	0.00080439	0.00017732	1324.2	4.9634e-06	7.0708e-06	1368.6	463.13	5.3279e-06	5.2974e-06	561.59	216.21	167.81	82.869	5.3499e-06	112.4	5.3591e-05	3.0316e-05	9.349e-06	1085.6	3.5762e-07	3.468e-07	1124.8	380.61	3.61e-07	3.3278e-07	437.65	172.63	134.44	66.01	3.8227e-07	87.945	183.109	200.928	144.516	116.636	284.401	267.126	115.380	120.961	209.156	219.365	119.284	123.193	125.390	129.765	227.547	127.129	-8191	255	
2826.843	1	1	0	0	0.31545	0.16667	0.15887	0.4218	0.073731	0.13403	0.1893	0.37307	0.051398	0.12489	0.2862	0.18565	0.076422	0.18043	0.19716	0.31444	-1.7188	-2.9688	-2.6792	-2.4125	-3.0354	-2.5021	-2.7583	-3.1646	-2.2771	-2.9396	-2.7604	-2.5854	-3.2417	-2.6646	-2.5833	-2.975	149.663	306.072	423.682	406.195	404.836	222.176	429.051	430.595	401.389	172.886	390.377	131.898	420.103	133.665	411.601	361.793	0.0010147	0.00070457	0.00016331	1333.7	1.5091e-06	7.7492e-06	1352.4	464.62	4.1486e-06	5.5587e-06	555.01	213.56	168.05	82.08	5.7498e-06	111.5	5.109e-05	3.1025e-05	9.8088e-06	1087.5	3.3294e-07	3.4014e-07	1116	380.72	3.5439e-07	3.375e-07	433.07	170.68	134.28	65.637	3.7872e-07	87.301	181.402	160.880	135.448	116.589	304.794	240.591	115.310	121.254	259.923	224.953	119.376	123.457	125.431	130.054	226.875	126.920	-8191	255	
2826.939	1	1	0	0	0.2223	0.16161	0.22579	0.15041	0.28602	0.19627	0.17948	0.49707	0.10168	0.16574	0.23491	0.14779	0.39264	0.34423	0.16949	0.29148	-1.8729	-2.9458	-2.7771	-2.4437	-3.0229	-2.4354	-2.7542	-3.1833	-2.15	-2.8146	-2.8688	-2.725	-3.0375	-2.7604	-2.4375	-3.0896	397.140	123.765	323.257	143.920	161.004	322.901	386.641	393.747	453.365	350.188	434.658	357.676	107.972	419.830	335.350	398.697	0.00092902	0.00068133	6.4051e-05	1328.8	6.1499e-06	5.0162e-06	1358.2	464.83	3.1207e-06	4.9493e-06	557.13	215.09	167.3	82.689	5.831e-06	112.55	4.8356e-05	3.2995e-05	9.1866e-06	1084.6	3.406e-07	3.5876e-07	1114.9	380.52	3.4672e-07	3.5722e-07	433.56	171.34	134.44	65.985	3.8497e-07	87.96	182.258	179.716	198.836	116.636	282.688	240.591	115.359	120.943	250.536	226.336	119.010	123.204	125.300	129.845	225.771	126.537	-8191	255	
2827.035	1	1	0	0	0.37349	0.11941	0.19059	0.31698	0.36559	0.23444	0.49766	0.17367	0.18792	0.096366	0.25964	0.14235	0.53283	0.22336	0.15572	0.21859	-1.8937	-2.7938	-2.8812	-2.4792	-2.925	-2.5708	-2.5667	-3.1771	-2.1375	-2.7479	-2.7333	-2.4354	-3.0938	-2.8563	-2.5583	-3.1396	364.353	293.735	353.199	445.427	278.654	129.220	421.897	435.826	154.985	175.624	409.735	389.119	461.454	426.169	266.820	395.857	0.0010383	0.00054292	4.7498e-05	1343.9	3.5141e-06	5.0825e-06	1370.4	471.49	5.5721e-06	7.5381e-06	565.35	217.13	170.03	83.436	5.4518e-06	113.88	5.1218e-05	3.4361e-05	9.1671e-06	1098.9	3.3855e-07	3.745e-07	1132.6	386.91	3.6121e-07	3.6719e-07	441.5	173.71	136.2	66.633	3.6605e-07	89	181.602	181.607	178.329	116.645	311.288	246.252	115.425	120.824	229.258	227.227	119.445	123.546	125.490	130.131	239.754	126.768	-8191	255	
2827.132	1	1	0	0	0.12479	0.097777	0.15425	0.10269	0.19268	0.082941	0.17821	0.24933	0.12566	0.20039	0.090115	0.069904	0.32211	0.21573	0.31205	0.25745	-2.0875	-2.4958	-3.0479	-2.1646	-2.8958	-2.5208	-2.5687	-3.0958	-2.4708	-2.5583	-3.0125	-2.2083	-3.0479	-2.9229	-2.4542	-3.1521	254.757	231.895	178.364	433.457	235.520	430.905	387.756	388.781	223.543	276.122	390.469	458.067	448.618	444.444	226.787	424.775	0.0010493	0.00081567	9.1493e-05	1328.5	5.8706e-06	5.3755e-06	1371.3	471.31	5.8843e-06	3.2594e-06	573.52	221.33	171.31	84.061	3.3588e-06	115.07	5.2583e-05	3.5963e-05	8.799e-06	1091.7	3.5516e-07	3.8091e-07	1134.7	385.78	3.664e-07	3.7707e-07	446.12	176.57	137.44	67.257	3.5525e-07	90.074	180.887	197.010	123.478	116.742	295.731	266.119	115.250	121.140	242.610	231.833	119.455	123.274	125.417	130.039	231.945	126.793	-8191	255	
2827.228	1	1	0	0	0.17726	0.065062	0.22132	0.38241	0.081223	0.11797	0.045744	0.16759	0.11046	0.31327	0.029811	0.50125	0.15122	0.28633	0.059635	0.16394	-2.0083	-2.6104	-2.9479	-2.5542	-2.8896	-2.6417	-2.425	-3.1188	-2.4688	-2.4479	-2.9917	-2.6104	-2.6229	-2.9958	-2.3083	-2.9354	315.544	312.225	279.383	437.116	334.864	153.602	433.614	460.048	135.612	118.672	292.897	352.869	326.198	130.572	113.910	361.805	0.00098487	0.00071188	0.0001929	1342.7	5.8539e-06	5.5046e-06	1368.8	468.44	7.4077e-06	5.6754e-06	564.06	216.74	169.35	82.967	4.7814e-06	113.15	5.5112e-05	3.478e-05	8.9319e-06	1097.9	3.7737e-07	3.5876e-07	1125.8	384.33	3.8919e-07	3.6986e-07	438.98	173.23	136.09	66.511	3.5436e-07	88.854	179.512	161.895	145.407	116.544	278.433	235.547	115.587	121.169	235.837	225.146	119.219	123.442	125.342	129.862	239.784	126.964	-8191	255	
2827.324	1	1	0	0	0.1252	0.27336	0.14164	0.39637	0.24439	0.13565	0.23883	0.45636	0.055159	0.135	0.25589	0.15473	0.24564	0.36615	0.097644	0.32745	-2.0854	-2.1229	-2.8104	-2.35	-2.7021	-2.8875	-2.2875	-3.0312	-2.6104	-2.2687	-2.9813	-2.5	-2.7021	-3.1146	-2.3104	-2.9417	462.155	278.786	303.000	425.386	372.382	443.347	388.722	460.131	413.617	200.290	340.585	111.208	415.672	410.125	430.605	404.339	0.00098693	0.00059809	0.00018414	1333.1	5.0446e-06	4.7135e-06	1361.1	468.92	6.2215e-06	6.7275e-06	564.24	219.99	169.86	83.94	6.5211e-06	115.05	5.5844e-05	3.1704e-05	8.6593e-06	1086.9	3.9111e-07	3.5637e-07	1122.1	384.65	4.0464e-07	3.5233e-07	440.77	174.9	136.64	66.959	3.5207e-07	89.972	181.043	180.678	136.653	116.462	268.083	264.050	115.487	121.221	225.765	214.468	119.321	123.284	125.490	130.008	228.649	126.987	-8191	255	
2827.420	1	1	0	0	0.17227	0.11905	0.18717	0.18199	0.062963	0.020656	0.20189	0.24872	0.10294	0.11565	0.19314	0.56826	0.24445	0.095372	0.083723	0.10822	-2.1729	-2.3292	-3.0146	-2.5854	-2.5292	-2.9083	-2.3667	-2.9896	-2.6396	-2.3958	-3.1271	-2.9021	-2.6896	-3.0708	-2.4083	-3.0563	196.235	456.492	215.919	451.962	297.365	115.712	337.503	393.123	306.296	225.483	438.183	404.516	130.299	436.092	122.063	388.963	0.001052	0.00051843	8.3221e-05	1333.5	4.0857e-06	4.4836e-06	1378.1	472.43	6.4643e-06	4.2366e-06	569.39	221.56	172.04	84.308	7.1042e-06	116.04	5.7342e-05	3.2428e-05	8.4354e-06	1089.7	3.865e-07	3.505e-07	1134.4	386.85	3.9466e-07	3.4361e-07	445.72	177.51	138.03	67.542	3.4953e-07	91.164	177.990	210.684	116.732	116.475	284.408	265.720	115.511	121.223	246.408	258.162	119.381	123.185	125.390	130.065	239.219	126.900	-8191	255	
2827.541	1	1	0	0	0.29886	0.049526	0.065766	0.25933	0.11043	0.23383	0.17228	0.17811	0.14139	0.15135	0.17995	0.22523	0.14869	0.26487	0.23836	0.11501	-2.3396	-2.2333	-2.8083	-2.6437	-2.3583	-3.0958	-2.3792	-3.0792	-2.8771	-2.3375	-3.025	-2.7875	-2.6396	-3.0083	-2.6271	-2.9583	376.276	225.884	426.838	435.171	313.771	205.905	118.800	395.369	268.005	274.163	372.221	435.473	110.629	119.799	178.859	332.385	0.0009933	0.00071649	0.00013256	1332.6	2.4627e-06	2.0693e-06	1385.9	475.94	4.7107e-06	3.996e-06	580.17	225.57	173.49	85.414	7.3071e-06	117.42	5.5593e-05	3.2322e-05	8.6013e-06	1094.4	3.846e-07	3.2915e-07	1144.3	389.56	3.913e-07	3.5558e-07	451.93	180.09	139.04	68.219	3.6945e-07	92.111	179.799	188.892	148.298	116.885	305.163	228.036	115.400	121.115	254.976	234.238	119.984	123.186	125.578	129.937	223.561	126.875	-8191	255	
2827.635	1	1	0	0	0.22648	0.23409	0.058363	0.054885	0.14806	0.13226	0.28659	0.30949	0.1417	0.11099	0.13611	0.34063	0.048519	0.28719	0.13883	0.024828	-2.5687	-2.2938	-2.9479	-2.8937	-2.2417	-3.0687	-2.6437	-2.6604	-2.9333	-2.2812	-3.1937	-2.8563	-2.7583	-3.1833	-2.5812	-2.7479	436.223	114.761	157.686	379.336	339.812	233.336	382.853	414.527	187.122	267.561	354.768	390.886	227.558	394.921	275.141	333.037	0.0010724	0.00094819	0.00014826	1341.6	5.8898e-06	6.6085e-06	1387.4	475.71	5.5564e-06	6.9321e-06	575.75	222.88	172.15	84.683	5.8769e-06	116.11	5.6121e-05	3.1928e-05	8.9002e-06	1098.8	3.7546e-07	3.3834e-07	1141.5	389.16	3.6428e-07	3.4332e-07	448.62	177.83	138.02	67.522	3.8712e-07	90.786	180.800	196.142	154.239	116.998	306.504	262.763	115.693	121.116	238.507	214.217	119.515	123.380	125.545	129.953	241.429	127.203	-8191	255	
2827.731	1	1	0	0	0.19875	0.11019	0.12972	0.23796	0.23076	0.25413	0.32569	0.2542	0.10955	0.12503	0.16967	0.097735	0.28009	0.058897	0.13695	0.21517	-2.4729	-2.3917	-2.8667	-3.1479	-2.3208	-3.0625	-2.7417	-2.6958	-3.0146	-2.4646	-2.9854	-3.0271	-2.4479	-3.175	-2.8375	-2.6708	413.318	250.753	158.040	380.099	178.379	296.444	431.273	432.303	153.647	115.001	103.694	423.745	395.318	224.541	341.028	414.170	0.00094585	0.00075466	0.0001527	1329.5	3.3427e-06	3.0637e-06	1369.6	475.19	5.7476e-06	2.5516e-06	569.41	223.95	173.52	84.133	7.7303e-06	116.83	5.2082e-05	3.0966e-05	9.3289e-06	1087	3.5758e-07	3.1751e-07	1130	387.59	3.702e-07	3.3025e-07	447.21	178.06	138.68	67.499	3.8976e-07	91.288	179.837	179.045	157.639	116.281	294.825	271.611	115.380	120.969	236.763	234.041	118.959	123.363	125.498	130.151	256.676	126.966	-8191	255	
2827.827	1	1	0	0	0.11162	0.13821	0.1344	0.23858	0.072635	0.061427	0.23913	0.3507	0.10094	0.26933	0.26676	0.20846	0.1549	0.44004	0.25063	0.38991	-2.6958	-2.2542	-2.4521	-3.0229	-2.2188	-2.9813	-2.8542	-2.7771	-2.8688	-2.4042	-2.8896	-3.1937	-2.3	-2.8542	-2.6	-2.4958	271.735	400.963	439.320	313.363	205.854	336.089	418.866	411.583	118.855	183.226	104.760	135.176	461.786	426.325	454.682	383.668	0.0010941	0.000665	9.6724e-05	1337.5	1.5849e-06	4.6086e-06	1394.3	475.1	4.0922e-06	4.8601e-06	580.36	226.34	173.04	85.528	3.5282e-06	117.43	5.31e-05	3.1573e-05	9.597e-06	1096.2	3.6203e-07	3.3271e-07	1144.2	389.83	3.5085e-07	3.395e-07	452.9	180.08	139.36	68.2	3.9843e-07	92.112	179.429	177.424	176.559	116.681	251.834	287.375	115.220	121.178	226.747	206.273	119.649	123.448	125.649	130.023	256.201	127.080	-8191	255	
2827.924	1	1	0	0	0.097439	0.24686	0.15618	0.12203	0.14373	0.28489	0.14125	0.16814	0.14594	0.017635	0.10818	0.30006	0.16227	0.43708	0.1388	0.24081	-2.3479	-2.3542	-2.6396	-3.0125	-2.3521	-2.9354	-2.8042	-2.5667	-2.9292	-2.5979	-2.5354	-3.1792	-2.4	-3.0083	-2.6688	-2.6021	264.993	454.861	121.243	365.864	435.143	400.015	378.128	421.705	191.075	331.175	419.306	361.154	373.801	435.906	229.945	441.690	0.0010058	0.00057658	0.00015127	1346.9	4.0239e-06	4.3213e-06	1402.9	480.31	6.3832e-06	6.5463e-06	583.44	228.61	174.27	86.034	3.5194e-06	118.44	5.1687e-05	3.4173e-05	9.5076e-06	1101.2	3.511e-07	3.5641e-07	1155.5	393.41	3.5088e-07	3.7523e-07	456.12	181.91	140.38	68.66	3.8592e-07	92.888	185.694	188.183	168.540	116.490	278.407	267.882	115.384	121.129	226.644	236.014	119.591	123.600	125.438	129.837	216.820	126.838	-8191	255	
2828.020	1	1	0	0	0.091765	0.34276	0.13005	0.16431	0.19154	0.20956	0.17933	0.37969	0.20083	0.23165	0.24507	0.31995	0.17787	0.1883	0.11637	0.25493	-2.3187	-2.5854	-2.2938	-3.2812	-2.3312	-2.6208	-3.05	-2.4021	-3.1604	-2.6917	-2.7146	-3.0979	-2.5979	-2.9979	-2.8208	-2.4375	124.573	370.961	338.586	443.350	169.445	217.543	373.111	409.233	135.823	424.725	427.017	411.900	346.104	116.919	280.106	412.200	0.0011065	0.0008452	0.0001229	1347.6	4.8863e-06	6.8885e-06	1390	477.1	5.0644e-06	7.4583e-06	576.2	225.07	172.79	85.398	5.4398e-06	116.16	5.2744e-05	3.4489e-05	9.7425e-06	1099.6	3.4359e-07	3.7148e-07	1145.4	391.24	3.6177e-07	3.9083e-07	450.71	179.17	138.75	68.068	3.6665e-07	91.141	181.224	194.602	146.624	116.932	263.902	254.223	115.483	121.035	246.963	219.349	119.727	122.905	125.700	130.016	239.785	127.017	-8191	255	
2828.140	1	1	0	0	0.18323	0.10579	0.10122	0.19903	0.22478	0.016078	0.14864	0.37178	0.081821	0.1235	0.37309	0.43452	0.20852	0.041074	0.21099	0.30202	-2.3375	-2.6146	-2.3375	-3.2396	-2.4104	-2.5521	-3.1042	-2.3833	-2.9979	-2.5104	-2.5896	-3.1292	-2.4042	-2.8646	-2.7938	-2.3583	413.062	293.611	396.123	430.473	360.079	297.685	206.062	402.927	367.533	415.421	450.705	418.778	369.230	326.180	351.333	398.704	0.0010626	0.00064237	0.00019879	1329.2	2.1997e-06	2.4861e-06	1367.8	473.62	4.9116e-06	3.193e-06	575.37	222.23	173.43	84.706	6.4114e-06	116.93	5.3846e-05	3.4936e-05	9.259e-06	1087.6	3.6427e-07	3.7722e-07	1130.6	388.31	3.7488e-07	3.7343e-07	447.94	177.54	138.54	67.667	3.676e-07	91.4	179.015	192.084	143.508	116.689	283.194	242.979	115.217	120.946	252.670	241.623	119.628	123.098	125.347	129.987	249.671	127.122	-8191	255	
2828.236	1	1	0	0	0.145	0.10432	0.07865	0.20045	0.2394	0.042761	0.47929	0.070668	0.12797	0.13553	0.093838	0.18958	0.49169	0.16586	0.13878	0.25951	-2.5812	-2.6625	-2.1167	-3.1354	-2.5292	-2.5625	-3.1833	-2.3979	-2.6667	-2.8312	-2.5146	-3.025	-2.7229	-2.8167	-2.8271	-2.6458	396.249	109.453	228.194	445.574	107.119	451.339	156.694	282.726	378.592	159.927	422.952	402.192	446.651	441.302	413.886	405.375	0.0010677	0.00068778	0.00017484	1331.5	4.0301e-06	3.6278e-06	1376	473.25	5.2697e-06	5.208e-06	573.97	223.57	173.62	84.898	9.2218e-06	116.56	5.4832e-05	3.563e-05	9.0505e-06	1088.3	3.771e-07	3.7368e-07	1137.1	387.92	3.8481e-07	3.7238e-07	449.24	178.92	138.71	67.75	3.6757e-07	91.495	180.586	189.259	144.104	116.316	284.906	236.781	115.230	121.007	251.055	218.240	119.575	123.564	125.151	129.922	233.674	126.808	-8191	255	
2828.333	1	1	0	0	0.23127	0.075229	0.05076	0.3458	0.10103	0.25714	0.15883	0.51836	0.24362	0.16664	0.284	0.033079	0.17712	0.25328	0.13785	0.20487	-2.0771	-2.8417	-2.1021	-3.0583	-2.7	-2.4042	-3.1917	-2.275	-2.75	-3.0271	-2.1312	-3.1979	-2.7458	-2.5563	-3.1646	-2.7667	455.147	295.126	111.857	414.118	222.374	361.883	417.293	412.111	258.891	278.868	449.633	420.564	413.638	443.235	389.623	414.282	0.0010864	0.00075504	9.1292e-05	1333.2	5.1281e-06	6.5661e-06	1395	473.45	5.8319e-06	3.445e-06	576.27	224.56	174.02	84.903	7.18e-06	117.02	5.6004e-05	3.5498e-05	8.9848e-06	1091.4	4.0397e-07	3.6315e-07	1146.7	388.78	3.9864e-07	3.5973e-07	450.95	179.44	139.16	67.809	3.5564e-07	91.702	180.378	192.625	145.074	116.304	303.056	252.570	115.439	120.946	254.032	219.165	119.227	123.379	125.743	129.967	215.164	126.996	-8191	255	
2828.429	1	1	0	0	0.21386	0.17864	0.36464	0.03607	0.15896	0.20341	0.088251	0.36744	0.18902	0.27765	0.17869	0.37355	0.38591	0.15287	0.20143	0.14409	-1.9312	-3.0708	-2.2042	-2.9021	-2.8583	-2.3563	-3.3208	-2.6854	-2.4083	-3.1625	-2.4125	-2.8917	-2.9708	-2.4229	-3.0563	-2.8187	250.408	187.161	369.790	141.221	363.442	146.196	124.259	455.350	217.792	410.949	113.693	452.925	439.655	397.388	159.734	353.270	0.0010401	0.00052783	0.00013422	1328.2	2.7772e-06	3.0523e-06	1376.7	470.45	6.4098e-06	5.7713e-06	569.02	221.29	170.95	83.753	5.0582e-06	113.92	5.7171e-05	3.2972e-05	8.6064e-06	1092.2	3.9081e-07	3.4741e-07	1134.7	386.02	3.9189e-07	3.501e-07	443.32	175.86	136.78	66.946	3.5167e-07	89.329	180.820	202.002	125.100	116.714	281.759	237.014	115.217	121.051	240.642	228.374	119.585	123.309	125.572	130.303	242.198	126.710	-8191	255	
2828.523	1	1	0	0	0.015495	0.35788	0.12291	0.25194	0.16333	0.11456	0.30067	0.40778	0.18483	0.20321	0.32492	0.12467	0.26538	0.19186	0.094115	0.13748	-1.9396	-2.9625	-2.4062	-2.6979	-2.7458	-2.1937	-3.1354	-2.7292	-2.5479	-3.0125	-2.3625	-2.7896	-2.9125	-2.3146	-3.075	-2.6979	239.506	308.694	388.375	312.870	358.600	424.787	406.152	422.078	232.543	162.608	426.748	453.737	409.279	408.762	318.690	438.043	0.0010153	0.00079386	8.4115e-05	1327.1	4.7383e-06	4.1622e-06	1356.9	468.6	3.0516e-06	3.1965e-06	558.17	219.13	169.33	82.999	4.7239e-06	113.81	5.4775e-05	3.155e-05	8.1397e-06	1084.5	3.8943e-07	3.4033e-07	1118.4	383.35	3.7217e-07	3.3133e-07	438.17	174.11	135.71	66.355	3.4972e-07	89.134	181.584	199.947	123.492	116.888	248.067	265.296	115.625	121.204	269.202	229.334	119.408	123.517	125.449	130.157	236.998	126.909	-8191	255	
2828.619	1	1	0	0	0.027526	0.24408	0.2047	0.27593	0.19814	0.20358	0.21213	0.19449	0.088662	0.2733	0.27682	0.13885	0.11715	0.1572	0.10602	0.10469	-1.9125	-3.0771	-2.1479	-2.7458	-2.7208	-2.0958	-3.1292	-2.9104	-2.2854	-3.0875	-2.4833	-2.8	-3.0187	-2.4104	-2.7896	-2.8937	193.744	274.054	460.568	455.905	104.979	147.467	414.540	440.883	462.967	104.196	431.180	207.910	179.843	328.287	397.897	408.767	0.0010506	0.00071048	0.0001249	1324	6.1583e-06	4.0078e-06	1365.4	464.74	6.6505e-06	4.2612e-06	561.24	218.11	168.98	82.312	7.2369e-06	113.62	5.3785e-05	3.0441e-05	8.609e-06	1083.6	3.6614e-07	3.3886e-07	1121	382.18	3.7649e-07	3.3206e-07	438.63	173.9	135.24	65.96	3.6861e-07	88.877	183.725	186.104	179.008	116.960	300.714	265.613	115.700	121.218	242.219	215.010	119.372	123.228	125.584	130.239	213.787	127.130	-8191	255	
2828.715	1	1	0	0	0.11542	0.14841	0.11658	0.38468	0.22415	0.065759	0.15193	0.35408	0.32819	0.11396	0.13327	0.22187	0.31405	0.098974	0.16883	0.13119	-1.7979	-3.0104	-2.3708	-2.4958	-3.05	-2.275	-2.9562	-2.725	-2.1854	-2.975	-2.9208	-2.5292	-3.1854	-2.7125	-2.7458	-3.1229	375.098	346.899	317.909	328.310	251.426	286.013	440.105	421.929	225.748	330.336	424.251	117.643	422.240	454.896	213.020	423.025	0.00098481	0.00065834	0.00017081	1323	4.1602e-06	5.442e-06	1356.7	461.37	7.0092e-06	3.1941e-06	560.05	216.02	167.47	81.762	6.2897e-06	111.85	5.2832e-05	3.0772e-05	9.2725e-06	1081.5	3.4259e-07	3.2757e-07	1121.9	379.13	3.6674e-07	3.3058e-07	436.73	172.64	134.18	65.411	4.0823e-07	88.045	178.648	217.979	137.032	116.737	305.592	260.888	115.218	121.198	249.308	246.962	119.674	123.894	125.819	130.259	225.372	127.162	-8191	255	
2828.812	1	1	0	0	0.17403	0.25809	0.30881	0.31399	0.18534	0.092164	0.27784	0.34713	0.15848	0.18637	0.2121	0.032151	0.19703	0.15575	0.37177	0.10609	-1.8188	-3.0187	-2.5521	-2.6	-3.0542	-2.4479	-2.8104	-2.8312	-2.2625	-2.9437	-2.8563	-2.2917	-3.2188	-2.5333	-2.6417	-3.1646	262.199	253.897	255.318	428.725	210.531	422.684	107.975	422.786	410.791	107.829	454.771	386.786	388.390	404.093	425.394	440.801	0.0010732	0.00058657	8.1514e-05	1312.3	4.0781e-06	4.3263e-06	1355.9	458.04	4.7082e-06	5.0515e-06	550.2	211.87	164.4	79.981	9.225e-06	109.44	5.3499e-05	3.1934e-05	9.6983e-06	1076.3	3.6713e-07	3.4233e-07	1117.1	375.81	3.5572e-07	3.5243e-07	430.29	168.54	131.63	64.064	4.2047e-07	85.819	178.517	216.351	154.556	116.614	280.626	258.533	115.786	121.236	250.838	216.929	119.561	123.305	125.442	130.102	221.076	127.024	-8191	255	
2828.932	1	1	0	0	0.039137	0.14405	0.37866	0.072713	0.23334	0.13994	0.092124	0.286	0.35639	0.18353	0.22933	0.34492	0.14673	0.2857	0.058908	0.4225	-1.8833	-2.8	-2.675	-2.5187	-3.0312	-2.5271	-2.7521	-3.1083	-2.2	-2.8083	-2.8208	-2.45	-3.2854	-2.8208	-2.4542	-3.1333	297.151	307.864	413.344	212.553	172.878	369.985	355.375	442.342	153.767	220.928	135.405	400.419	424.666	391.755	106.220	379.511	0.0010856	0.00080701	9.1699e-05	1302.1	4.7809e-06	7.8144e-06	1321.4	447.38	4.1568e-06	6.4709e-06	536.01	206.51	161.14	79.055	6.1444e-06	107.87	5.2652e-05	3.2539e-05	1.0181e-05	1064.8	3.4905e-07	3.6804e-07	1091.4	368.04	3.6544e-07	3.636e-07	418.93	164.31	128.67	63.205	4.0413e-07	84.607	184.266	171.743	152.986	116.663	292.736	235.518	115.190	121.145	266.680	188.564	119.143	123.370	125.657	130.203	236.577	127.076	-8191	255	
2829.028	1	1	0	0	0.10003	0.14678	0.12901	0.21302	0.21203	0.077079	0.13257	0.36204	0.059787	0.072319	0.40402	0.2159	0.23086	0.17484	0.074143	0.18003	-1.9542	-2.7333	-2.6146	-2.2062	-2.9521	-2.3917	-2.6333	-3.2458	-2.5396	-2.7104	-2.7938	-2.4792	-3.1292	-2.8125	-2.4021	-3.2792	420.052	358.174	426.674	408.595	146.288	357.525	340.476	414.675	172.550	383.064	130.767	408.229	456.820	105.734	266.923	437.298	0.00095031	0.00066191	6.0843e-05	1290.1	5.8127e-06	8.6765e-06	1315.6	444.94	5.6041e-06	2.4746e-06	534.01	203.72	159.1	78.584	6.0427e-06	107.88	5.0071e-05	3.5474e-05	9.968e-06	1059.1	3.5792e-07	3.966e-07	1086.3	364.61	3.7414e-07	4.1261e-07	416.96	162.95	127.63	62.79	3.9932e-07	84.266	177.370	187.789	144.227	116.611	294.432	271.462	115.479	121.230	243.816	276.553	119.308	123.622	125.515	130.145	227.543	126.978	-8191	255	
2829.100	1	1	0	0	0.099338	0.16832	0.24942	0.4305	0.080293	0.097934	0.30516	0.22017	0.22826	0.28976	0.26594	0.30957	0.17016	0.5145	0.032064	0.25917	-1.9625	-2.5604	-2.8208	-2.4958	-2.8917	-2.5479	-2.5958	-3.275	-2.5521	-2.5667	-3.1104	-2.2125	-3.0563	-2.825	-2.375	-3.0458	426.631	179.886	400.108	411.252	248.213	367.501	404.064	409.515	198.055	323.059	397.091	109.913	390.134	428.262	341.882	115.970	0.0010011	0.00069029	6.1095e-05	1283.2	4.7215e-06	4.7062e-06	1310	440.94	4.9018e-06	3.868e-06	529.39	204.04	158.18	78.014	5.0341e-06	107	5.3071e-05	3.7315e-05	9.8037e-06	1051.1	3.8651e-07	4.1284e-07	1079.9	361.64	4.0145e-07	4.1328e-07	413.42	162.08	126.5	62.479	4.0144e-07	83.934	183.384	189.156	116.421	116.669	267.237	254.309	115.570	121.301	226.908	242.468	119.825	123.281	125.783	130.340	245.833	126.902	-8191	255	
2829.221	1	1	0	0	0.27191	0.13028	0.33165	0.16719	0.39274	0.072626	0.20659	0.37678	0.27201	0.14678	0.11593	0.29703	0.17406	0.091496	0.079872	0.24058	-1.8583	-2.6104	-2.8604	-2.1708	-2.8917	-2.9333	-2.4417	-3.1063	-2.4688	-2.3375	-3.2438	-2.3771	-2.7917	-3.1854	-2.2396	-3.3271	195.807	114.903	298.553	417.985	161.994	108.856	355.309	432.200	279.139	249.012	462.900	440.556	291.455	124.519	321.993	410.793	0.00099883	0.00057452	0.00012577	1272.3	4.9461e-06	6.7117e-06	1298.8	435.18	3.8251e-06	6.194e-06	521.52	199.69	155.19	76.822	2.8912e-06	105.01	5.6521e-05	3.901e-05	9.5371e-06	1043.1	3.9957e-07	4.1431e-07	1073.5	357.73	4.1588e-07	4.1527e-07	408.7	159.35	125	61.58	3.9625e-07	82.297	180.481	184.118	122.277	116.570	279.705	277.776	115.464	120.930	247.028	251.706	119.637	123.710	125.892	130.131	243.870	127.140	-8191	255	
2829.317	1	1	0	0	0.30318	0.20125	0.087402	0.14042	0.18877	0.27712	0.22269	0.21522	0.25348	0.096354	0.20812	0.18124	0.074132	0.37278	0.022676	0.32016	-2.2104	-2.375	-3.0083	-2.4729	-2.7438	-2.8458	-2.3604	-3.2062	-2.6	-2.2396	-3.1917	-2.5271	-2.6354	-2.9833	-2.1917	-3.0958	190.514	194.594	314.521	396.026	169.822	120.874	274.146	378.015	324.721	350.656	161.590	445.070	127.985	462.682	353.823	380.216	0.00097161	0.00015291	0.00018756	1265.1	2.6322e-06	3.7807e-06	1278.8	431.93	5.0152e-06	1.139e-06	514.13	197.35	153.72	76.629	6.9121e-06	105.08	5.7746e-05	3.7335e-05	9.3212e-06	1033.4	4.2221e-07	4.032e-07	1056.1	353.97	4.3638e-07	3.7537e-07	401.24	157.52	123.32	61.088	3.9713e-07	82.153	179.495	177.435	164.018	116.914	252.577	256.678	115.149	121.399	262.309	235.025	119.495	123.591	125.706	130.089	224.650	127.002	-8191	255	
2829.413	1	1	0	0	0.21612	0.3865	0.28574	0.27898	0.23892	0.21731	0.28656	0.31097	0.12728	0.20226	0.25211	0.21186	0.2394	0.35037	0.27407	0.097408	-2.2375	-2.4792	-2.8708	-2.4521	-2.5458	-2.9729	-2.4417	-2.95	-2.8354	-2.4146	-3	-2.4625	-2.6562	-2.9062	-2.35	-3.0438	367.147	363.945	353.749	139.206	415.112	217.739	417.580	422.393	360.953	334.654	412.435	335.224	443.643	425.823	295.179	345.013	0.00092771	0.00066778	0.00010428	1262.1	4.6215e-06	4.3262e-06	1284.9	434.58	4.7749e-06	4.8175e-06	516.55	197.04	154.72	76.911	4.4928e-06	105.01	5.8994e-05	3.6121e-05	9.4695e-06	1034.9	4.4454e-07	3.9828e-07	1060.5	356.14	4.4765e-07	3.9083e-07	403.58	157.58	124.07	61.404	3.993e-07	82.227	182.150	174.161	146.187	116.821	321.450	240.433	115.479	121.276	243.139	228.194	119.588	123.514	125.849	130.496	236.009	126.954	-8191	255	
2829.534	1	1	0	0	0.23535	0.092614	0.11366	0.196	0.11528	0.1342	0.25013	0.35642	0.17417	0.16283	0.31082	0.22479	0.15914	0.043481	0.16685	0.40109	-2.5062	-2.4375	-2.9813	-2.5458	-2.6354	-2.775	-2.4062	-2.7562	-2.9979	-2.2875	-2.825	-2.6708	-2.5667	-3.0187	-2.5062	-2.8646	180.751	250.756	171.983	396.065	406.647	317.705	406.624	383.552	133.729	208.517	349.347	123.193	376.578	282.901	340.262	397.322	0.00082336	0.00085458	0.00010741	1258.1	5.5847e-06	6.0607e-06	1273.5	430.06	4.0782e-06	7.0911e-06	514.19	198.36	153.18	76.844	6.8892e-06	106.17	5.7797e-05	3.5408e-05	9.6057e-06	1030.3	4.4297e-07	3.9356e-07	1055.1	352.77	4.2412e-07	3.8662e-07	402.13	158.38	123.69	61.454	4.0222e-07	83.274	181.565	177.763	140.688	116.492	287.941	240.919	115.232	121.095	227.053	218.776	119.217	123.445	125.875	130.336	225.918	126.918	-8191	255	
2829.628	1	1	0	0	0.1463	0.28336	0.11441	0.29011	0.15747	0.31248	0.13806	0.21703	0.1522	0.14181	0.29581	0.12997	0.10497	0.47358	0.13788	0.43795	-2.3104	-2.3625	-2.9333	-2.5625	-2.3896	-2.9083	-2.6125	-2.775	-2.7854	-2.2583	-2.9375	-2.6396	-2.3646	-2.9896	-2.3812	-2.7417	297.109	461.639	134.443	105.927	358.193	335.203	147.510	394.703	314.283	414.749	429.140	456.897	131.067	422.902	322.970	343.877	0.00098437	0.00054003	0.00016974	1269.6	4.1e-06	3.804e-06	1296.9	436.21	3.5105e-06	4.1079e-06	521.09	200.46	156.08	77.633	5.3956e-06	106.06	5.7423e-05	3.4186e-05	9.687e-06	1042.5	4.0044e-07	3.6528e-07	1069.6	357.9	3.8972e-07	3.6333e-07	407.99	159.77	125.29	62.009	4.028e-07	83.103	181.202	152.927	138.234	116.968	295.365	264.844	115.496	121.214	246.696	222.339	119.103	123.332	125.706	130.472	243.213	127.010	-8191	255	
2829.700	1	1	0	0	0.043939	0.15122	0.1368	0.092736	0.10279	0.29765	0.46367	0.22469	0.10154	0.24959	0.044958	0.16244	0.41171	0.34199	0.1057	0.15574	-2.3604	-2.2604	-2.7854	-2.8792	-2.2917	-3.1583	-2.6958	-2.5979	-2.975	-2.3875	-2.7854	-2.9375	-2.4833	-3.0896	-2.3771	-2.5167	363.464	139.583	366.122	143.956	162.363	437.426	400.683	419.906	285.806	268.443	123.565	446.220	406.158	441.513	404.757	408.283	0.00097977	0.00068075	0.00010008	1268.1	2.6646e-06	5.6459e-06	1292.1	435.24	5.2999e-06	4.8832e-06	518.31	199.1	156.2	77.184	5.5789e-06	105.87	5.4203e-05	3.3477e-05	9.7921e-06	1039.6	3.7882e-07	3.5817e-07	1065.6	356.99	3.9489e-07	3.5446e-07	405.78	159.49	125.02	61.79	4.2467e-07	83.091	177.895	195.755	135.582	116.628	295.428	256.145	115.634	121.432	234.572	229.313	119.364	123.440	125.839	130.199	241.380	127.034	-8191	255	
2829.796	1	1	0	0	0.12294	0.19925	0.15143	0.27774	0.15576	0.19527	0.22305	0.32155	0.054637	0.086597	0.22121	0.27455	0.21374	0.16554	0.41382	0.19256	-2.5229	-2.2229	-2.6375	-2.9938	-2.0312	-3.0396	-2.5271	-2.6896	-2.8312	-2.5271	-2.7542	-2.9813	-2.3688	-2.9146	-2.5771	-2.6458	193.795	407.813	304.321	127.050	259.222	298.862	401.804	410.431	126.947	214.768	368.009	416.909	135.940	395.386	314.535	398.737	0.00089825	0.00038275	0.00011962	1269	2.4584e-06	3.1998e-06	1300.1	439.9	3.6939e-06	4.8292e-06	527.17	203.88	159.01	78.293	3.4407e-06	108.24	5.1773e-05	3.299e-05	1.0474e-05	1038.6	3.9125e-07	3.6125e-07	1070	359.35	3.8717e-07	3.5244e-07	411.39	162.36	127.05	62.657	4.3747e-07	84.789	179.174	125.416	116.622	116.498	316.521	237.420	115.338	121.237	258.146	241.483	119.468	123.434	125.683	130.189	203.912	127.145	-8191	255	
2829.916	1	1	0	0	0.03212	0.23697	0.13528	0.13785	0.19609	0.0087478	0.26878	0.068506	0.1138	0.048865	0.090721	0.074205	0.42619	0.068942	0.095123	0.32674	-2.3563	-2.3312	-2.4917	-3.1208	-2.0708	-2.9125	-2.7771	-2.2979	-3.0812	-2.1208	-2.6125	-3.2542	-2.3583	-2.925	-2.8	-2.6333	332.532	417.597	204.791	377.157	345.027	406.130	387.918	141.151	306.888	346.820	392.168	439.637	427.532	283.576	356.512	410.017	0.0010224	0.00060204	0.0001088	1276.5	5.5134e-06	3.3631e-06	1308.4	442.51	5.506e-06	4.5711e-06	538.32	208.56	161.02	79.255	5.1276e-06	110.64	5.3326e-05	3.5459e-05	1.0437e-05	1048.5	3.7575e-07	3.7508e-07	1083.7	363.87	3.756e-07	3.6534e-07	420.56	165.8	129	63.666	4.1323e-07	86.555	182.492	163.713	136.692	116.843	298.616	237.485	115.329	121.109	240.153	184.553	119.388	123.433	125.820	130.170	231.557	127.086	-8191	255	
2830.013	1	1	0	0	0.11553	0.14606	0.11218	0.25022	0.24596	0.33838	0.23291	0.078422	0.15149	0.16275	0.093266	0.19723	0.10479	0.30075	0.16228	0.14402	-2.4625	-2.3875	-2.6479	-3.0646	-2.4083	-2.8396	-2.8646	-2.3292	-2.9167	-2.6167	-2.5042	-3.1375	-2.5667	-2.8208	-2.7062	-2.4479	324.614	377.719	243.507	107.742	404.995	310.751	378.929	158.681	392.995	447.852	175.466	442.537	338.181	456.915	133.863	105.098	0.00095789	0.00082786	0.00012166	1290	4.8057e-06	5.2106e-06	1332.3	449.42	4.881e-06	3.2812e-06	543.84	210.43	163.57	81.098	4.7929e-06	111.36	5.1973e-05	3.5629e-05	1.0363e-05	1056.3	3.4755e-07	3.938e-07	1098.4	368.46	3.7188e-07	4.0039e-07	425.59	168.4	130.85	64.732	3.9239e-07	87.254	178.922	189.064	447.795	116.450	269.424	260.152	115.487	121.392	230.641	215.209	119.170	123.559	125.251	129.976	224.624	127.180	-8191	255	
2830.109	1	1	0	0	0.014424	0.027273	0.22626	0.33707	0.28452	0.35723	0.24138	0.30798	0.26096	0.074768	0.34683	0.19314	0.15448	0.20915	0.28766	0.068523	-2.4771	-2.625	-2.3604	-3.2313	-2.275	-2.5875	-2.9625	-2.3812	-2.6188	-2.7667	-2.5375	-3.2208	-2.3896	-2.8063	-2.7854	-2.35	362.221	253.444	348.198	399.897	219.631	220.756	387.178	411.992	297.483	269.101	424.879	383.035	320.633	430.899	452.332	425.456	0.0010378	0.00044457	0.00014013	1300.9	4.4991e-06	2.1431e-06	1332.5	454.7	7.971e-06	8.0007e-06	548.64	214.14	165.91	81.932	5.3611e-06	112.75	5.2935e-05	3.7691e-05	9.4823e-06	1062.8	3.7087e-07	3.9456e-07	1097.8	372.63	3.8929e-07	3.9359e-07	428.97	170.18	132.82	65.36	3.7126e-07	88.233	183.551	186.427	133.492	116.298	278.936	244.673	115.402	121.080	244.097	243.535	119.276	123.262	125.280	130.063	256.148	126.889	-8191	255	
2830.229	1	1	0	0	0.21721	0.29592	0.17031	0.070286	0.095075	0.18632	0.19448	0.39221	0.19383	0.058993	0.11735	0.26884	0.28804	0.24515	0.0831	0.29749	-2.3063	-2.7917	-2.3604	-3.0438	-2.4396	-2.6188	-3.0542	-2.4354	-3.0792	-2.825	-2.4333	-3.225	-2.6833	-2.6583	-2.775	-2.4938	144.246	390.470	371.993	262.967	282.792	411.830	461.633	418.175	354.712	432.850	350.956	382.494	454.113	432.939	113.832	442.399	0.00097606	0.000998	0.00014908	1309.8	5.435e-06	4.1929e-06	1358.3	460.45	3.9883e-06	5.9993e-06	566.09	219.21	169.63	82.679	4.2241e-06	114.79	5.4363e-05	3.7007e-05	9.2392e-06	1070.5	3.819e-07	3.9012e-07	1115.8	377.71	3.7762e-07	3.9546e-07	439.32	174.63	135.8	66.276	3.7686e-07	90.117	176.557	167.929	147.620	116.508	286.347	275.902	115.308	121.002	230.024	208.060	119.397	123.425	125.343	129.986	225.138	126.995	-8191	255	
2830.326	1	1	0	0	0.19969	0.1345	0.10831	0.13319	0.18004	0.18171	0.28853	0.33378	0.11584	0.22389	0.15727	0.14228	0.20889	0.21575	0.14595	0.32606	-2.1583	-2.8563	-2.2229	-3.0521	-2.525	-2.4583	-3.1875	-2.4688	-2.7562	-2.8667	-2.2958	-3.1792	-2.6854	-2.5271	-2.9583	-2.5854	349.116	142.497	202.369	420.928	309.728	371.947	360.217	415.549	341.478	442.897	418.008	279.780	128.883	417.816	277.266	369.282	0.0010378	0.00075182	0.00012382	1335.7	5.2413e-06	6.7298e-06	1377.3	470.25	6.7254e-06	4.7433e-06	575.02	224.84	173.14	84.397	5.453e-06	118.78	5.6946e-05	3.4784e-05	9.1456e-06	1086.2	4.0186e-07	3.6635e-07	1133.7	384.75	4.1766e-07	3.6381e-07	448.04	179.48	138.47	67.553	3.6533e-07	92.813	181.777	160.483	149.998	116.572	256.740	270.031	115.047	120.883	256.340	224.356	119.284	123.246	125.408	130.102	243.265	127.052	-8191	255	
2830.397	1	1	0	0	0.25696	0.058434	0.18465	0.26883	0.044809	0.15054	0.29669	0.3273	0.094745	0.18569	0.18572	0.10445	0.18706	0.29933	0.16216	0.24618	-2.2479	-2.7979	-2.1771	-3	-2.7604	-2.5417	-3.1813	-2.6542	-2.5583	-2.9729	-2.3354	-2.9813	-2.7521	-2.5771	-2.9042	-2.7562	232.135	359.987	402.123	440.555	172.616	166.511	114.801	421.617	154.696	210.899	113.435	460.300	430.320	431.115	241.118	442.437	0.0010501	0.00058107	0.0001205	1344.1	4.5779e-06	5.4555e-06	1399.2	474.33	4.4305e-06	6.1182e-06	578.27	226.75	173.47	84.658	4.9189e-06	117.95	5.7033e-05	3.3318e-05	8.5792e-06	1099.5	4.044e-07	3.6784e-07	1152.1	389.91	4.1012e-07	3.7623e-07	451.55	180.33	139.21	67.7	3.5042e-07	91.975	183.640	206.255	135.223	116.546	256.073	247.618	115.183	121.084	258.796	189.836	119.561	123.373	125.518	130.005	252.803	126.779	-8191	255	
2830.493	1	1	0	0	0.30695	0.11715	0.33195	0.37659	0.077216	0.17384	0.10056	0.31613	0.38898	0.15513	0.20884	0.050845	0.12859	0.17361	0.21094	0.12468	-2.1417	-3	-2.2208	-3.0146	-2.8083	-2.3	-3.1271	-2.5625	-2.5812	-3.0167	-2.5771	-2.7917	-2.9167	-2.1937	-2.9562	-2.6271	423.001	123.499	222.551	439.110	378.838	281.019	400.485	121.839	394.976	426.335	420.873	170.207	459.159	375.722	221.961	160.352	0.0010948	0.00074609	0.00011878	1332.5	5.661e-06	3.4705e-06	1375.5	473.97	4.4829e-06	2.8465e-06	572.57	223.42	172.28	84.52	4.9586e-06	115.96	5.6768e-05	3.298e-05	8.75e-06	1088.9	3.8822e-07	3.593e-07	1131.9	387.75	3.9421e-07	3.404e-07	446.34	178.26	138.15	67.367	3.5801e-07	91.046	180.294	184.508	131.446	116.616	289.664	254.388	114.965	120.927	221.737	233.295	119.330	123.471	125.510	130.226	223.248	126.847	-8191	255	
2830.614	1	1	0	0	0.17199	0.21237	0.1609	0.21096	0.077148	0.16769	0.11332	0.17538	0.15605	0.13094	0.14584	0.20932	0.095633	0.26628	0.14993	0.32783	-2.0729	-2.8917	-2.25	-2.7083	-3.0062	-2.3688	-3.075	-2.6	-2.4062	-2.9979	-2.3896	-2.7625	-3.0021	-2.475	-2.7812	-2.9042	307.896	219.175	371.070	441.471	462.131	329.386	344.432	386.943	233.219	359.899	435.094	103.687	383.535	403.226	192.209	376.842	0.00099432	0.00082563	0.00014468	1335.9	4.8679e-06	6.2436e-06	1370.7	471.31	4.0852e-06	3.5879e-06	572.94	222.52	172.41	84.592	7.6851e-06	117.37	5.5312e-05	3.2383e-05	8.5894e-06	1092.4	3.7048e-07	3.5561e-07	1133.3	385.97	3.8687e-07	3.4353e-07	445.66	178.11	138.14	67.445	3.6449e-07	91.815	180.424	181.646	135.202	116.804	265.710	260.343	115.391	121.102	241.769	238.424	119.197	123.351	125.491	130.296	229.857	126.948	-8191	255	
2830.708	1	1	0	0	0.23646	0.17297	0.17266	0.21754	0.13915	0.27152	0.26965	0.24661	0.10359	0.043797	0.22011	0.37134	0.21566	0.21698	0.080476	0.48667	-1.8229	-3.0333	-2.5104	-2.625	-3.0854	-2.0563	-3.2687	-2.7875	-2.4021	-2.9125	-2.3979	-2.6354	-3.0625	-2.4875	-2.7979	-2.9	436.424	423.757	422.267	393.003	314.232	298.342	111.423	395.378	270.505	120.080	103.706	420.310	383.690	419.269	252.193	412.380	0.0010032	0.0008268	0.0001178	1329	2.1945e-06	7.3235e-06	1385.5	470.89	5.989e-06	6.3683e-06	575.91	226.92	172.65	84.657	5.3893e-06	118.44	5.4235e-05	3.1431e-05	9.3718e-06	1091.1	3.5658e-07	3.3174e-07	1138.8	386.93	3.6627e-07	3.1792e-07	449.82	180.07	138.77	67.859	3.793e-07	92.609	181.966	197.621	176.061	116.787	263.468	252.251	115.344	121.352	234.964	222.862	119.278	122.944	125.454	129.996	219.430	127.008	-8191	255	
2830.805	1	1	0	0	0.35574	0.070173	0.077058	0.049827	0.11987	0.10101	0.13114	0.20169	0.33679	0.19956	0.2699	0.23616	0.27645	0.16856	0.16268	0.39589	-1.6979	-3.1708	-2.4	-2.4583	-3.0583	-2.1854	-3.1021	-2.8812	-2.1708	-2.8583	-2.7729	-2.3958	-3.1854	-2.5208	-2.5479	-3.0958	145.558	402.899	452.328	359.361	234.807	382.676	428.416	389.607	350.317	382.480	387.345	342.406	389.429	124.397	292.439	367.844	0.0010554	0.00060771	0.00011765	1340.3	5.0264e-06	4.8712e-06	1389.8	473.79	6.8438e-06	4.3367e-06	573.74	224.34	172.72	84.956	6.5999e-06	116.56	5.3735e-05	2.9593e-05	9.5778e-06	1094.9	3.4758e-07	3.3222e-07	1149.9	389.03	3.5183e-07	3.2657e-07	449.52	179.37	138.7	67.883	3.8664e-07	91.61	179.887	164.684	124.476	116.993	264.144	254.108	115.409	121.022	244.120	211.372	119.559	123.245	125.503	130.101	221.049	127.094	-8191	255	
2830.901	1	1	0	0	0.068033	0.21846	0.14382	0.3754	0.27708	0.13263	0.22123	0.30558	0.16318	0.19671	0.078579	0.41965	0.26632	0.34867	0.075689	0.45068	-1.8687	-2.8958	-2.5458	-2.3667	-3.0167	-2.4021	-2.7271	-3.0042	-2.3292	-3.0104	-2.6396	-2.7021	-3.0687	-2.8292	-2.5646	-3.0292	256.772	444.909	325.579	405.583	147.827	174.929	103.518	126.807	231.069	254.633	130.249	433.082	424.108	442.508	200.633	439.331	0.0010825	0.00069667	0.00015148	1323.7	4.9595e-06	3.0811e-06	1361.7	469	4.7341e-06	4.3807e-06	570.19	222.24	171.84	84.061	7.0822e-06	115.93	5.3202e-05	3.19e-05	9.3007e-06	1084.7	3.4501e-07	3.347e-07	1126.2	385.05	3.5236e-07	3.4853e-07	444.93	177	137.43	67.207	3.9989e-07	90.803	179.874	189.381	142.093	116.843	280.733	206.185	115.512	121.058	255.806	241.971	119.547	123.443	125.326	130.164	230.943	126.851	-8191	255	
2830.997	1	1	0	0	0.1772	0.19749	0.17005	0.12071	0.074194	0.15763	0.33106	0.18474	0.16649	0.02338	0.10257	0.31574	0.13837	0.17709	0.13155	0.083792	-1.4729	-2.7396	-2.8312	-2.4	-3.0417	-2.4229	-2.7833	-3.0375	-2.3	-2.7479	-2.9208	-2.3521	-3.1521	-2.5187	-2.4313	-3.1146	375.491	343.643	135.743	387.915	234.264	451.575	446.281	357.636	361.284	310.941	451.764	396.737	116.463	122.054	272.085	327.269	0.0010131	0.00077173	0.00011001	1318.1	4.4513e-06	4.07e-06	1372.9	467.38	5.3749e-06	5.7431e-06	566.66	222.47	170.35	83.585	6.407e-06	116.7	5.2307e-05	3.2731e-05	9.895e-06	1081.1	3.4663e-07	3.7109e-07	1128.2	384.37	3.5658e-07	3.5429e-07	443.93	177.43	136.65	66.995	3.9056e-07	91.26	181.138	196.188	122.823	116.714	282.379	259.889	115.379	121.133	241.310	236.037	119.019	123.455	125.545	129.970	223.157	127.069	-8191	255	
2831.093	1	1	0	0	0.14401	0.15402	0.26563	0.27756	0.15081	0.098281	0.26374	0.2409	0.18803	0.081702	0.22362	0.27302	0.11867	0.20019	0.35287	0.31147	-1.9771	-2.5771	-3.0312	-2.4875	-3.0187	-2.65	-2.6708	-3.2229	-2.3167	-2.6354	-2.8958	-2.2812	-2.9292	-2.775	-2.2167	-3.1479	377.879	113.118	188.872	461.769	387.827	454.739	386.120	418.840	202.322	115.731	403.138	381.848	287.664	458.385	426.208	126.933	0.00098972	0.00091551	0.00013816	1323.9	4.0929e-06	4.8441e-06	1377.2	470.93	5.2701e-06	5.4261e-06	572.09	223.81	171.13	83.881	5.84e-06	117.55	5.2042e-05	3.4859e-05	9.6166e-06	1081.5	3.4274e-07	4.1261e-07	1132.7	385.16	3.6386e-07	3.9132e-07	446.93	178.44	137.24	67.205	3.7691e-07	92.145	176.867	172.965	153.262	116.701	274.953	236.042	115.615	121.083	240.520	210.715	119.128	123.450	125.299	130.033	241.817	127.034	-8191	255	
2831.214	1	1	0	0	0.16871	0.29734	0.12469	0.059681	0.099071	0.10709	0.3338	0.25948	0.16418	0.091936	0.17515	0.27156	0.14749	0.33927	0.096857	0.27776	-1.975	-2.4542	-2.8438	-2.3771	-2.9146	-2.7729	-2.6854	-3.1042	-2.575	-2.5854	-2.9083	-2.325	-2.9896	-3	-2.3708	-3.2458	304.367	418.442	124.694	428.754	418.109	153.307	372.215	380.211	311.317	342.112	218.409	360.816	445.692	450.743	373.267	416.599	0.0010994	0.00072936	0.00018291	1321.9	3.8354e-06	3.0297e-06	1390.9	469.98	5.8588e-06	4.8271e-06	576.06	223.96	171.05	84.411	6.3999e-06	116.53	5.3667e-05	3.4572e-05	8.8124e-06	1080.5	3.6153e-07	3.7241e-07	1143.1	385.56	3.7676e-07	3.6524e-07	448.95	178.85	137.43	67.515	3.4858e-07	91.639	180.732	200.114	141.249	116.824	263.214	267.116	115.406	121.230	242.763	240.954	119.397	123.328	125.570	130.151	235.057	126.807	-8191	255	
2831.310	1	1	0	0	0.14648	0.31178	0.18142	0.18275	0.19284	0.26515	0.35844	0.15653	0.015466	0.18478	0.18583	0.18514	0.13032	0.32457	0.050337	0.41547	-2.2542	-2.3167	-3.0687	-2.3479	-2.8646	-2.8896	-2.3833	-3.0563	-2.45	-2.5604	-2.9625	-2.4104	-2.9458	-2.9854	-2.3583	-3.0062	212.087	231.292	385.877	403.714	288.946	143.602	392.940	126.701	359.111	300.202	458.593	446.086	441.707	453.287	450.150	440.702	0.0010568	0.00041513	0.00017509	1317.4	3.5356e-06	6.4685e-06	1368.7	469.78	2.4093e-06	4.2759e-06	565.48	220.28	171.14	83.236	6.1529e-06	115.25	5.4209e-05	3.4204e-05	8.4671e-06	1080.2	3.7179e-07	3.6562e-07	1127.4	384.04	3.9097e-07	3.5887e-07	442.02	175.85	136.84	66.679	3.5826e-07	90.266	184.037	188.412	148.228	116.502	295.359	229.780	115.351	121.316	229.639	236.386	119.399	123.402	125.647	129.816	221.048	126.516	-8191	255	
2831.406	1	1	0	0	0.19219	0.15894	0.16976	0.1615	0.16425	0.18621	0.14169	0.18715	0.22969	0.10361	0.24163	0.30039	0.097779	0.12461	0.074508	0.21194	-2.3063	-2.4125	-3.0542	-2.4979	-2.6521	-2.9708	-2.3187	-3.0479	-2.5583	-2.4521	-3.1479	-2.5062	-2.7875	-2.9188	-2.3521	-3.0979	385.456	385.014	146.299	460.774	293.980	327.190	292.763	296.818	434.125	443.783	385.694	113.586	188.724	401.569	168.026	404.383	0.0010517	0.0006935	0.00011054	1323.2	4.3717e-06	2.335e-06	1367.7	467.88	6.5144e-06	4.5975e-06	568.19	221.57	171.07	83.557	6.48e-06	116.5	5.6193e-05	3.2814e-05	8.3389e-06	1080.3	3.8634e-07	3.4404e-07	1128.1	383.63	4.0357e-07	3.6377e-07	443.84	176.79	137	66.765	3.5715e-07	91.232	178.120	195.140	119.790	116.324	233.427	273.125	115.415	121.277	239.516	244.818	119.093	123.459	125.249	130.255	234.250	127.014	-8191	255	
2831.502	1	1	0	0	0.2119	0.23	0.049048	0.077494	0.17719	0.12768	0.21502	0.40914	0.14411	0.18694	0.27774	0.13528	0.33501	0.15715	0.10263	0.1532	-2.4229	-2.3229	-3.0542	-2.6708	-2.2604	-3.1667	-2.5812	-3.1437	-2.6292	-2.4792	-3.0583	-2.675	-2.5938	-3.3542	-2.4771	-3.0854	375.468	257.542	295.774	327.763	230.847	109.307	422.880	415.933	205.094	454.071	146.134	148.310	367.478	439.535	377.775	442.223	0.00099108	0.00035651	0.00012679	1327.4	4.2239e-06	2.9816e-06	1391.8	469.99	3.8287e-06	8.5226e-06	572.36	224.48	171.23	84.199	5.2873e-06	117.72	5.6154e-05	3.2105e-05	8.51e-06	1084.8	3.9421e-07	3.4283e-07	1141.5	385.93	3.9197e-07	3.5367e-07	448.88	178.78	137.71	67.355	3.5513e-07	92.092	180.729	201.932	140.859	116.463	248.065	252.205	115.730	120.770	252.285	221.736	119.002	123.186	125.425	130.089	227.318	126.954	-8191	255	
2831.621	1	1	0	0	0.1044	0.32485	0.064539	0.12179	0.29837	0.053599	0.12834	0.13895	0.069659	0.072213	0.037851	0.24772	0.28487	0.189	0.34557	0.20742	-2.4375	-2.2958	-3.0479	-2.7292	-2.4958	-2.9208	-2.4104	-3.0062	-2.8125	-2.3146	-2.7812	-2.7125	-2.4083	-3.2854	-2.2979	-2.925	431.806	301.267	230.956	451.605	375.825	399.981	336.025	125.777	178.992	178.383	409.865	435.164	462.004	421.313	222.501	118.808	0.00105	0.00061044	8.4984e-05	1335	3.0781e-06	2.4342e-06	1389.3	471.86	3.4737e-06	6.0385e-06	573.8	222.59	170.94	83.67	2.9811e-06	116.21	5.5197e-05	3.2154e-05	8.6167e-06	1091.5	3.9436e-07	3.4549e-07	1147.8	386.95	3.7316e-07	3.4308e-07	448.87	178.72	137.23	66.966	3.674e-07	91.171	184.921	176.701	126.296	116.814	296.458	228.294	115.427	121.017	227.942	233.947	119.654	123.785	125.523	129.878	225.597	126.947	-8191	255	
2831.693	1	1	0	0	0.12139	0.085555	0.1047	0.3323	0.29065	0.13922	0.16693	0.042349	0.13486	0.13356	0.20185	0.16707	0.22846	0.33994	0.17413	0.12543	-2.3854	-2.1937	-2.775	-2.7271	-2.4354	-3.1479	-2.5604	-2.8396	-2.9021	-2.3563	-2.6771	-2.9313	-2.4917	-3.2396	-2.5687	-2.7229	161.889	221.352	141.450	392.295	205.707	262.709	407.418	232.813	169.433	427.585	385.562	347.648	412.328	430.459	254.642	369.913	0.0010733	0.00065632	0.00017846	1326.3	3.9533e-06	5.0911e-06	1372.6	469.8	4.506e-06	3.0337e-06	568.06	221.03	169.7	83.602	7.2425e-06	115.24	5.4077e-05	3.1294e-05	8.7599e-06	1086.1	3.6286e-07	3.2928e-07	1129	384.28	3.6956e-07	3.3675e-07	442.91	175.93	136.38	66.614	3.8583e-07	90.365	181.187	183.695	163.778	116.681	279.794	254.603	115.266	120.988	241.110	212.552	119.435	123.331	125.700	129.946	223.701	126.785	-8191	255	
2831.789	1	1	0	0	0.24421	0.27927	0.17647	0.42162	0.26905	0.20241	0.50695	0.24333	0.2366	0.16694	0.090848	0.064814	0.14733	0.067221	0.18087	0.26733	-2.4271	-2.3458	-2.8375	-2.8729	-2.4208	-3.075	-2.9062	-2.2271	-2.8854	-2.4313	-2.6708	-3.0604	-2.6083	-3.0396	-2.525	-2.5167	440.859	275.298	134.299	402.724	459.139	217.721	446.872	438.004	123.075	322.206	310.281	235.285	428.008	222.821	431.719	356.466	0.0010075	0.0004883	0.00015476	1325.4	3.4898e-06	6.0265e-06	1374.5	468.88	4.1546e-06	5.51e-06	569.62	221.56	171.29	83.661	5.8321e-06	115.89	5.3562e-05	3.0871e-05	9.6963e-06	1085.2	3.6228e-07	3.4097e-07	1131.5	384.34	3.5908e-07	3.4405e-07	444.11	177.02	137.17	67.03	3.9387e-07	90.991	180.922	197.524	107.118	116.701	305.717	246.622	115.358	121.053	252.819	208.582	119.450	123.443	125.410	130.233	218.941	126.753	-8191	255	
2831.885	1	1	0	0	0.095645	0.20856	0.23567	0.29212	0.11713	0.17971	0.31117	0.3788	0.21361	0.24829	0.21524	0.14161	0.31972	0.14941	0.12242	0.23111	-2.7062	-1.9417	-2.6854	-2.8812	-2.4354	-2.9833	-2.6875	-2.6771	-2.8854	-2.5833	-2.7021	-3.0417	-2.1	-3.0229	-2.7104	-2.5646	363.670	376.818	437.787	413.210	311.924	348.184	431.244	401.772	413.243	368.782	365.971	416.584	411.125	114.295	252.172	413.961	0.0010158	0.00098415	0.00019374	1323.5	4.6439e-06	5.2703e-06	1383.6	471.41	5.2488e-06	5.927e-06	575.95	225.57	172.23	84.766	4.1314e-06	116.75	5.306e-05	3.2851e-05	1.0063e-05	1087.3	3.7392e-07	3.4058e-07	1141.3	386.44	3.7403e-07	3.7475e-07	449.87	179.22	138.31	67.6	4.2226e-07	91.751	181.525	160.500	137.962	116.572	286.762	216.541	115.345	120.984	262.533	233.277	119.370	123.380	125.504	130.065	241.164	127.078	-8191	255	
2832.006	1	1	0	0	0.19194	0.10608	0.12008	0.26015	0.1022	0.15873	0.40061	0.31751	0.13283	0.19565	0.19038	0.34812	0.21068	0.18351	0.17111	0.32282	-2.6271	-2.3563	-2.5521	-3.0687	-2.3917	-2.8333	-3.1937	-2.3854	-3.0354	-2.4604	-2.5812	-3.1542	-2.3583	-2.9667	-2.7875	-2.7062	278.298	114.667	238.278	455.802	346.815	136.115	367.175	424.340	298.003	268.580	431.893	420.368	402.145	459.460	133.440	398.236	0.0010699	0.00093745	0.00010427	1338.4	3.3736e-06	4.6515e-06	1390	476.21	5.7556e-06	4.5985e-06	572.15	224.1	172.01	83.883	4.2989e-06	116.33	5.4467e-05	3.6378e-05	1.0397e-05	1097	3.7371e-07	3.8064e-07	1149.9	388.62	3.6867e-07	4.0869e-07	449.33	178.79	138.05	67.284	4.1199e-07	91.22	181.090	167.220	107.413	116.879	278.016	254.158	115.443	120.892	235.720	213.178	119.235	123.153	125.795	130.226	243.915	126.932	-8191	255	
2832.102	1	1	0	0	0.024488	0.032406	0.11164	0.21645	0.40188	0.14339	0.15337	0.27494	0.1011	0.35409	0.36617	0.32722	0.096667	0.12749	0.058565	0.097669	-2.4854	-2.4188	-2.4688	-3.0146	-2.2854	-2.7979	-2.8167	-2.3729	-2.9104	-2.8771	-2.3688	-3.3125	-2.4688	-2.7562	-2.6542	-2.6667	272.955	259.830	269.709	404.476	294.958	139.699	461.033	413.936	170.940	435.021	157.653	347.095	358.061	400.309	334.038	205.093	0.0010629	0.00058672	5.3308e-05	1322.2	3.1696e-06	5.6033e-06	1368.3	467.49	6.8519e-06	4.517e-06	564.05	221.7	170.66	83.912	6.0057e-06	115.83	5.4263e-05	3.6486e-05	9.9767e-06	1086.2	3.6395e-07	4.0092e-07	1129.5	384.44	3.9229e-07	4.1213e-07	443.38	176.29	136.96	67.111	4.0106e-07	90.518	180.167	175.956	102.944	116.780	312.516	253.094	115.359	120.865	228.369	209.622	119.435	123.569	125.332	130.268	218.589	126.841	-8191	255	
#DATA ENDS
