BOXY.EXE: ISS Imagent and Oximeter Data Acquisition Program Version 0.80
Ascii Record File

#ACQ INFORMATION
2  Detector Channels 
16  External MUX Channels 
1  Auxiliary Channels 
5000  Waveform (CCF) Frequency (Hz)
1  Waveforms Skipped 
30  Waveforms Averaged 
1  Cycles Averaged 
16  Acquisitions per Waveform 
10.0806  Updata Rate (Hz) 

#FILE INFORMATION
TRUE -- External MUX Channel results are PARSED.
FALSE -- AC DC and Phase are NOT grouped.
TRUE -- Companion Program Settings File CREATED.
FALSE -- AC data not excluded
FALSE -- DC data not excluded
FALSE -- Phase data not excluded
FALSE -- Auxillary Chn. data not excluded
Tab delimiters

#CALIBRATION STATE
TRUE -- Waveform Calibration Values APPLIED.


#AUX CALIBRATION VALUES
Val Type	aux-1	

Term	1.0000e+00	
Factor	0.0000e+00	


#WF CALIBRATION VALUES
A = Detector Channel
Val Type	A-AC1	A-AC2	A-AC3	A-AC4	A-AC5	A-AC6	A-AC7	A-AC8	A-AC9	A-AC10	A-AC11	A-AC12	A-AC13	A-AC14	A-AC15	A-AC16	A-DC1	A-DC2	A-DC3	A-DC4	A-DC5	A-DC6	A-DC7	A-DC8	A-DC9	A-DC10	A-DC11	A-DC12	A-DC13	A-DC14	A-DC15	A-DC16	A-Ph1	A-Ph2	A-Ph3	A-Ph4	A-Ph5	A-Ph6	A-Ph7	A-Ph8	A-Ph9	A-Ph10	A-Ph11	A-Ph12	A-Ph13	A-Ph14	A-Ph15	A-Ph16	

Term	0.00000e+00	0.00000e+00	0.00000e+00	0.00000e+00	0.00000e+00	0.00000e+00	0.00000e+00	0.00000e+00	0.00000e+00	0.00000e+00	0.00000e+00	0.00000e+00	0.00000e+00	0.00000e+00	0.00000e+00	0.00000e+00	0.00000e+00	0.00000e+00	0.00000e+00	0.00000e+00	0.00000e+00	0.00000e+00	0.00000e+00	0.00000e+00	0.00000e+00	0.00000e+00	0.00000e+00	0.00000e+00	0.00000e+00	0.00000e+00	0.00000e+00	0.00000e+00	0.00000e+00	0.00000e+00	0.00000e+00	0.00000e+00	0.00000e+00	0.00000e+00	0.00000e+00	0.00000e+00	0.00000e+00	0.00000e+00	0.00000e+00	0.00000e+00	0.00000e+00	0.00000e+00	0.00000e+00	0.00000e+00	
Factor	1.00000e+00	1.00000e+00	1.00000e+00	1.00000e+00	1.00000e+00	1.00000e+00	1.00000e+00	1.00000e+00	1.00000e+00	1.00000e+00	1.00000e+00	1.00000e+00	1.00000e+00	1.00000e+00	1.00000e+00	1.00000e+00	1.00000e+00	1.00000e+00	1.00000e+00	1.00000e+00	1.00000e+00	1.00000e+00	1.00000e+00	1.00000e+00	1.00000e+00	1.00000e+00	1.00000e+00	1.00000e+00	1.00000e+00	1.00000e+00	1.00000e+00	1.00000e+00	X	X	X	X	X	X	X	X	X	X	X	X	X	X	X	X	

B = Detector Channel
Val Type	B-AC1	B-AC2	B-AC3	B-AC4	B-AC5	B-AC6	B-AC7	B-AC8	B-AC9	B-AC10	B-AC11	B-AC12	B-AC13	B-AC14	B-AC15	B-AC16	B-DC1	B-DC2	B-DC3	B-DC4	B-DC5	B-DC6	B-DC7	B-DC8	B-DC9	B-DC10	B-DC11	B-DC12	B-DC13	B-DC14	B-DC15	B-DC16	B-Ph1	B-Ph2	B-Ph3	B-Ph4	B-Ph5	B-Ph6	B-Ph7	B-Ph8	B-Ph9	B-Ph10	B-Ph11	B-Ph12	B-Ph13	B-Ph14	B-Ph15	B-Ph16	

Term	0.00000e+00	0.00000e+00	0.00000e+00	0.00000e+00	0.00000e+00	0.00000e+00	0.00000e+00	0.00000e+00	0.00000e+00	0.00000e+00	0.00000e+00	0.00000e+00	0.00000e+00	0.00000e+00	0.00000e+00	0.00000e+00	0.00000e+00	0.00000e+00	0.00000e+00	0.00000e+00	0.00000e+00	0.00000e+00	0.00000e+00	0.00000e+00	0.00000e+00	0.00000e+00	0.00000e+00	0.00000e+00	0.00000e+00	0.00000e+00	0.00000e+00	0.00000e+00	-1.98888e+02	-1.41666e+02	-1.28181e+02	-1.83212e+02	-8.92266e+01	-7.95993e+01	-1.60609e+02	-1.62015e+02	-7.67401e+01	-7.98675e+01	-1.72562e+02	-1.72621e+02	-1.82837e+02	-1.77955e+02	-8.59113e+01	-1.50807e+02	
Factor	3.77429e-05	1.24987e-04	3.22763e-05	1.53048e-01	1.12836e-06	1.18453e-06	1.66555e-01	5.17580e-02	1.34229e-06	1.30404e-06	7.96663e-02	2.59757e-02	2.43854e-02	7.97063e-03	1.19627e-06	1.14541e-02	1.84811e-06	1.93964e-06	5.39761e-07	8.01032e-02	2.10885e-08	2.12456e-08	8.19187e-02	2.70715e-02	2.11425e-08	2.13452e-08	4.02592e-02	1.31275e-02	1.28064e-02	4.18483e-03	2.12242e-08	5.82685e-03	X	X	X	X	X	X	X	X	X	X	X	X	X	X	X	X	



#DISTANCE SETTINGS
A = Detector Channel
A-1	A-2	A-3	A-4	A-5	A-6	A-7	A-8	A-9	A-10	A-11	A-12	A-13	A-14	A-15	A-16	

2.5000e+00	3.0000e+00	2.5000e+00	3.0000e+00	2.0000e+00	3.0000e+00	1.5000e+00	3.0000e+00	3.0000e+00	3.0000e+00	3.0000e+00	3.0000e+00	3.0000e+00	3.0000e+00	1.5000e+00	3.0000e+00	

B = Detector Channel
B-1	B-2	B-3	B-4	B-5	B-6	B-7	B-8	B-9	B-10	B-11	B-12	B-13	B-14	B-15	B-16	

1.0000e+01	1.0000e+01	1.0000e+01	1.4400e+00	1.0000e+01	1.0000e+01	1.5100e+00	1.9400e+00	1.0000e+01	1.0000e+01	1.9900e+00	2.4900e+00	2.4100e+00	2.9000e+00	1.0000e+01	2.9800e+00	




#DATA BEGINS
time	group	step	mark	flag	A-AC1	A-AC2	A-AC3	A-AC4	A-AC5	A-AC6	A-AC7	A-AC8	A-AC9	A-AC10	A-AC11	A-AC12	A-AC13	A-AC14	A-AC15	A-AC16	A-DC1	A-DC2	A-DC3	A-DC4	A-DC5	A-DC6	A-DC7	A-DC8	A-DC9	A-DC10	A-DC11	A-DC12	A-DC13	A-DC14	A-DC15	A-DC16	A-Ph1	A-Ph2	A-Ph3	A-Ph4	A-Ph5	A-Ph6	A-Ph7	A-Ph8	A-Ph9	A-Ph10	A-Ph11	A-Ph12	A-Ph13	A-Ph14	A-Ph15	A-Ph16	B-AC1	B-AC2	B-AC3	B-AC4	B-AC5	B-AC6	B-AC7	B-AC8	B-AC9	B-AC10	B-AC11	B-AC12	B-AC13	B-AC14	B-AC15	B-AC16	B-DC1	B-DC2	B-DC3	B-DC4	B-DC5	B-DC6	B-DC7	B-DC8	B-DC9	B-DC10	B-DC11	B-DC12	B-DC13	B-DC14	B-DC15	B-DC16	B-Ph1	B-Ph2	B-Ph3	B-Ph4	B-Ph5	B-Ph6	B-Ph7	B-Ph8	B-Ph9	B-Ph10	B-Ph11	B-Ph12	B-Ph13	B-Ph14	B-Ph15	B-Ph16	aux-1	digaux	

8719.181	1	1	0	768	0.10714	0.22804	0.015678	0.093209	0.16885	0.075087	0.22657	0.18685	0.33836	0.17264	0.14885	0.21232	0.18187	0.33162	0.12414	0.1656	-2.6125	-2.5438	-2.4125	-2.8667	-2.35	-2.6771	-2.7875	-2.4792	-2.9062	-2.4583	-2.4854	-2.9792	-2.475	-2.5771	-2.7021	-2.4729	379.197	213.199	496.109	259.239	211.414	474.435	438.683	499.411	360.692	313.036	392.608	475.211	313.111	522.099	189.492	438.186	0.001084	0.00098553	0.00026952	750.63	5.1437e-06	1.532e-05	848.01	216.12	8.7371e-06	1.2592e-05	305.22	106.1	66.489	23.851	6.2154e-06	49.852	0.0025207	0.0026026	0.00072556	843.54	2.8213e-05	2.8644e-05	950.74	248.75	2.8295e-05	2.8523e-05	353.36	121.86	81.743	29.088	2.857e-05	56.993	481.056	213.358	294.115	188.750	235.318	215.994	187.831	192.682	400.267	317.844	191.487	195.187	196.045	201.213	315.037	198.933	-8191	255	
8719.277	1	1	0	0	0.24171	0.077181	0.17158	0.2503	0.17751	0.27997	0.24595	0.072408	0.19263	0.24948	0.23374	0.19837	0.21897	0.063336	0.06708	0.2313	-2.4604	-2.4604	-2.4313	-2.8875	-2.5354	-2.4958	-2.7188	-2.3667	-2.7208	-2.65	-2.6083	-2.9083	-2.45	-2.5833	-2.8792	-2.4813	465.506	456.142	252.855	421.222	283.203	414.266	491.728	466.009	439.731	354.674	440.558	181.687	493.041	443.485	499.264	463.307	0.0013271	0.00013542	0.00011622	751.8	1.4358e-06	9.885e-06	850.42	217.1	1.3559e-05	5.5453e-06	303.68	105.84	65.99	23.649	1.3362e-05	49.772	0.0025399	0.0026353	0.00073491	847.19	2.8762e-05	2.9272e-05	955.24	250.49	2.9559e-05	2.975e-05	354.96	122.51	82.045	29.264	2.9907e-05	57.276	491.529	247.226	518.970	188.457	473.982	337.547	187.752	192.415	382.956	476.970	191.414	194.933	195.642	201.303	309.069	199.208	-8191	255	
8719.374	1	1	0	0	0.33096	0.099776	0.057111	0.14626	0.3217	0.12795	0.27219	0.17229	0.3587	0.15716	0.16683	0.14433	0.21951	0.22088	0.19287	0.20977	-2.2562	-2.6875	-2.35	-3.0854	-2.5479	-2.6042	-2.8042	-2.3937	-2.5312	-2.6083	-2.6188	-2.9688	-2.5125	-2.4542	-3.0354	-2.4271	462.338	531.313	319.323	397.862	510.474	374.578	447.919	402.531	341.005	182.465	218.839	492.614	446.313	522.090	342.010	445.312	0.0013672	0.00072457	0.00017098	750.3	9.7756e-06	7.364e-06	854.95	217.2	8.8328e-06	1.7412e-05	303.82	106.72	65.279	23.729	9.0391e-06	49.613	0.0026568	0.0027318	0.00075988	851.35	2.9599e-05	2.9881e-05	956.63	250.53	2.9674e-05	2.9845e-05	354.93	122.62	81.987	29.198	2.9572e-05	57.172	488.602	355.073	520.530	188.504	257.884	346.766	187.816	192.404	298.893	222.024	191.686	195.015	195.619	200.986	291.856	198.955	-8191	255	
8719.470	1	1	0	0	0.20462	0.22165	0.17468	0.16526	0.1588	0.21169	0.30011	0.16118	0.088523	0.22824	0.16091	0.14204	0.12561	0.27271	0.15423	0.053348	-2.225	-2.7708	-2.3375	-2.8104	-2.6354	-2.5958	-2.9979	-2.4437	-2.5312	-2.7938	-2.4271	-2.7625	-2.75	-2.5208	-2.825	-2.5479	399.745	517.400	521.585	209.328	477.047	297.546	515.454	475.768	235.688	239.088	243.120	417.195	179.914	493.542	413.952	186.569	0.001462	0.00020739	0.00017779	745.93	1.4359e-05	4.6293e-06	853.64	216.44	1.6322e-05	9.4568e-06	304.82	105.52	65.279	23.752	2.9906e-06	49.574	0.0026101	0.0026962	0.00074572	848.9	2.9291e-05	2.951e-05	954.36	250.23	2.9428e-05	2.9401e-05	353.89	121.99	81.518	29.114	2.9261e-05	56.907	489.801	216.736	373.693	188.547	348.395	349.409	187.731	192.349	274.034	269.241	191.386	194.959	195.582	201.425	523.031	198.949	-8191	255	
8719.566	1	1	0	0	0.13165	0.084817	0.15061	0.18574	0.1401	0.099129	0.18772	0.17778	0.081383	0.19872	0.21003	0.18658	0.096942	0.13778	0.071897	0.097885	-2.0896	-2.6708	-2.3896	-2.7188	-2.6875	-2.3312	-2.8417	-2.75	-2.4625	-2.7521	-2.4938	-2.8854	-2.7167	-2.4083	-2.8688	-2.5229	374.113	270.444	406.946	455.600	514.920	235.359	437.893	369.780	236.146	185.512	378.980	492.743	354.001	514.412	304.106	527.032	0.0010464	0.00085776	0.00015523	748.38	8.6781e-06	5.5263e-06	853.92	216.27	1.0438e-05	5.5503e-06	304.72	105.6	65.569	23.795	2.0992e-06	49.674	0.0025836	0.0026626	0.00073813	849.65	2.8831e-05	2.9187e-05	954.03	250.16	2.9423e-05	2.9712e-05	355.02	122.05	81.992	29.16	2.9698e-05	57.168	471.381	330.317	215.212	188.735	253.063	313.304	187.747	192.763	287.717	379.734	191.332	195.022	196.011	200.825	509.011	199.193	-8191	255	
8719.662	1	1	0	0	0.31517	0.069964	0.17406	0.13045	0.22583	0.13817	0.13944	0.1194	0.34654	0.13635	0.11951	0.13877	0.12013	0.32023	0.16282	0.17278	-2.1437	-2.9188	-2.3625	-2.8187	-2.7958	-2.2812	-2.9146	-2.6542	-2.55	-2.8	-2.3854	-2.6	-2.6979	-2.4083	-2.8958	-2.5792	213.569	370.403	494.065	413.263	431.539	277.657	533.443	478.048	388.834	266.364	182.755	408.814	320.423	282.257	469.958	192.558	0.0010819	0.00070443	0.00023545	750.24	3.4295e-06	8.965e-06	854.08	216.23	1.0691e-05	1.0332e-05	303.67	106.07	65.762	23.522	6.668e-06	49.42	0.0026256	0.0027375	0.00075158	851.05	2.9528e-05	2.9714e-05	956.19	250.16	2.9547e-05	2.9626e-05	354.04	122.13	81.846	29.023	2.9181e-05	56.78	488.766	520.322	259.888	188.548	253.377	425.631	187.847	192.770	427.790	428.089	191.517	195.269	195.499	200.943	289.650	199.078	-8191	255	
8719.783	1	1	0	0	0.4246	0.16223	0.11775	0.1163	0.055365	0.17185	0.33052	0.32455	0.14017	0.17323	0.12919	0.20921	0.24759	0.21708	0.11014	0.34303	-2.0458	-2.8542	-2.3875	-2.7271	-2.6917	-2.2729	-2.9437	-2.6271	-2.4813	-2.7479	-2.4729	-2.7521	-2.8125	-2.2208	-2.8083	-2.6896	477.630	300.627	478.823	520.454	515.088	433.791	503.683	473.718	206.235	333.775	319.163	454.047	506.267	482.865	275.177	491.610	0.00113	0.00066431	0.00032407	747.63	1.0453e-05	6.2149e-06	850.92	215.1	7.2428e-06	1.0152e-05	304.82	105.99	65.051	23.368	1.8727e-05	49.217	0.0025618	0.0026351	0.00072524	842.95	2.8214e-05	2.8291e-05	949.69	247.74	2.8122e-05	2.8421e-05	350.9	120.86	80.387	28.529	2.7563e-05	55.942	490.712	250.357	276.552	188.609	296.586	352.346	187.637	192.421	311.054	452.624	191.247	195.035	195.666	201.377	349.477	199.021	-8191	255	
8719.879	1	1	0	0	0.20043	0.19616	0.17754	0.19486	0.14414	0.32497	0.35835	0.30345	0.19497	0.19169	0.24335	0.16864	0.10218	0.052804	0.23401	0.18192	-1.8896	-2.75	-2.4	-2.525	-2.6833	-2.3458	-2.7562	-2.6708	-2.5083	-2.925	-2.7313	-2.5729	-2.8187	-2.4771	-2.6292	-2.8688	392.346	231.814	197.609	176.521	507.202	343.686	501.884	453.394	235.551	398.344	473.032	479.193	300.574	189.623	453.309	435.885	0.0014698	0.00073176	6.8879e-05	740.59	1.0923e-05	9.5033e-07	846.68	215.04	9.3573e-06	6.8675e-06	302.93	104.95	64.744	23.312	3.7164e-06	48.917	0.002412	0.0024872	0.00069088	834.91	2.6986e-05	2.6967e-05	938.86	245.48	2.6606e-05	2.692e-05	347.28	119.28	79.105	28.16	2.6585e-05	55.369	487.482	334.184	429.261	188.788	369.650	530.570	187.700	192.921	350.292	513.311	191.300	195.081	195.693	201.273	186.320	199.244	-8191	255	
8719.975	1	1	0	0	0.26105	0.2561	0.24198	0.15886	0.26201	0.038013	0.31024	0.14755	0.16046	0.15227	0.33152	0.11001	0.2368	0.32522	0.24303	0.35685	-1.825	-2.8771	-2.4062	-2.5062	-2.7958	-2.3625	-2.6417	-2.7271	-2.375	-2.7083	-2.6104	-2.5062	-2.8688	-2.5354	-2.6208	-2.8708	185.319	348.161	370.479	341.996	393.052	272.582	434.048	402.741	450.463	472.537	478.786	532.927	251.007	459.059	391.354	530.027	0.0011479	0.0012025	0.00024699	740.29	7.1822e-06	1.4953e-06	847.24	213.77	7.285e-06	2.5802e-06	302.62	104.9	64.966	23.314	6.6495e-06	48.832	0.0023306	0.0023975	0.00066969	829.37	2.5903e-05	2.6196e-05	934.06	244.14	2.5989e-05	2.625e-05	346.06	118.79	78.911	28.02	2.6058e-05	55.347	489.914	250.541	287.285	188.227	319.753	371.053	187.546	192.533	255.412	455.885	191.708	194.521	195.715	201.556	341.683	199.112	-8191	255	
8720.071	1	1	0	0	0.15218	0.10334	0.25399	0.1366	0.14192	0.093067	0.2958	0.17509	0.24312	0.037953	0.26847	0.12373	0.10424	0.14863	0.083071	0.24213	-1.9062	-2.7812	-2.5375	-2.3312	-2.7521	-2.4333	-2.8708	-3.0479	-2.5833	-2.6813	-2.7167	-2.5021	-2.8937	-2.4375	-2.6813	-2.9313	438.053	491.179	492.698	490.088	341.670	472.727	440.034	530.329	461.004	368.796	211.473	483.439	384.932	492.204	416.168	488.059	0.001141	0.00060895	6.3248e-05	736.78	1.7197e-05	4.3407e-06	845.36	212.23	7.9314e-06	4.5745e-06	301.34	104.33	64.293	22.963	1.3494e-05	48.651	0.0023073	0.0023887	0.0006668	826.58	2.5953e-05	2.6017e-05	934.24	242.45	2.583e-05	2.6182e-05	344.64	118.31	78.405	27.746	2.6288e-05	55.153	484.873	227.842	521.408	188.347	275.636	314.483	187.558	192.460	245.485	308.579	191.361	194.977	195.870	201.422	295.179	199.258	-8191	255	
8720.165	1	1	0	0	0.21995	0.043802	0.1804	0.28404	0.14147	0.36127	0.075782	0.11676	0.11934	0.24485	0.29305	0.17589	0.21426	0.20841	0.11744	0.27349	-2	-2.5729	-2.6271	-2.4292	-2.6979	-2.4688	-2.7042	-2.6958	-2.4083	-2.6417	-2.7062	-2.3688	-2.5854	-2.4688	-2.4229	-2.9583	375.785	277.506	427.695	394.739	435.383	205.479	465.069	419.955	527.604	479.521	473.531	232.607	238.549	228.580	358.959	492.632	0.00081695	0.00064621	0.00026043	733.74	1.1091e-05	4.0154e-06	846.25	213.13	1.2794e-05	3.7968e-06	300.91	103.86	64.146	22.976	8.5211e-06	48.514	0.0023126	0.0024039	0.00066951	823.65	2.6102e-05	2.6316e-05	934.01	242.76	2.643e-05	2.7191e-05	346.04	118.5	78.837	27.924	2.7201e-05	55.287	497.329	530.748	390.330	188.801	284.244	236.938	187.719	192.777	342.227	512.165	191.570	194.845	195.876	201.236	325.908	199.068	-8191	255	
8720.262	1	1	0	0	0.37539	0.23998	0.11282	0.1365	0.13892	0.14305	0.090021	0.12043	0.30859	0.05927	0.25161	0.081224	0.053872	0.068741	0.038257	0.1059	-2.0604	-2.5667	-2.7438	-2.4083	-2.5687	-2.7271	-2.6167	-2.9104	-2.475	-2.6521	-2.8917	-2.2708	-2.7625	-2.7646	-2.1792	-2.8708	486.037	422.747	237.498	357.471	487.231	197.047	182.828	350.939	234.575	428.999	504.924	263.399	198.702	403.223	225.332	254.403	0.00091736	0.00049041	0.00028646	739.32	3.5748e-06	8.6992e-06	842.03	213.24	2.733e-06	9.4385e-06	301.13	104.45	64.71	23.045	1.1096e-05	48.54	0.0023993	0.0025062	0.00069573	830.45	2.7196e-05	2.7243e-05	936.64	243.7	2.7217e-05	2.78e-05	346.28	119.01	79.639	28.238	2.7676e-05	55.565	478.497	471.743	334.101	188.522	527.720	267.532	187.879	192.442	360.384	227.530	191.610	195.080	195.834	201.430	281.477	199.241	-8191	255	
8720.382	1	1	0	0	0.25997	0.24303	0.30661	0.27314	0.080516	0.10193	0.17245	0.18746	0.16515	0.14738	0.20729	0.12927	0.15325	0.13115	0.22508	0.093401	-2.0938	-2.4708	-2.7292	-2.5333	-2.7271	-2.7104	-2.4562	-2.975	-2.5104	-2.5833	-2.9458	-2.4313	-2.5563	-2.8104	-2.1375	-2.8063	224.725	365.662	306.730	452.167	335.768	243.766	249.446	457.688	344.953	215.990	199.502	183.179	253.853	494.643	269.803	491.976	0.0011545	0.00065527	6.0002e-05	742.99	1.1482e-05	5.1515e-07	846.7	214.01	1.2038e-05	1.1843e-06	300.83	104.56	64.873	23.288	1.2991e-05	48.786	0.0024443	0.0025565	0.000709	837.15	2.7872e-05	2.826e-05	943.62	246.69	2.8313e-05	2.8844e-05	349.55	120.04	80.751	28.657	2.8615e-05	56.166	475.730	297.091	417.708	188.689	282.699	368.915	187.679	192.579	257.236	355.984	191.095	194.981	195.810	201.173	294.279	199.238	-8191	255	
8720.478	1	1	0	0	0.10582	0.03374	0.39566	0.22573	0.17833	0.0042322	0.075923	0.24274	0.069375	0.2349	0.15091	0.092642	0.20989	0.051998	0.23017	0.23346	-2.1146	-2.6396	-2.7833	-2.5292	-2.675	-2.7979	-2.5271	-2.8396	-2.575	-2.4292	-2.8375	-2.5792	-2.6021	-2.8042	-2.375	-2.8688	435.135	329.782	421.708	458.007	453.965	191.276	193.176	519.522	377.832	306.088	449.123	468.305	250.291	408.676	200.493	422.237	0.0011251	0.00042121	0.00018079	748.6	1.2921e-05	6.2942e-06	853.31	214.25	1.3505e-05	2.0871e-06	302.42	105.16	64.602	23.364	1.0355e-05	48.936	0.0025479	0.0026511	0.00073797	845	2.9175e-05	2.9436e-05	951.57	248.46	2.9275e-05	2.9642e-05	351.61	121	81.289	28.899	2.9671e-05	56.564	492.605	317.542	189.277	188.665	383.400	234.496	187.551	192.819	352.527	268.032	191.294	195.037	195.818	200.860	256.883	199.211	-8191	255	
8720.575	1	1	0	0	0.19476	0.097611	0.25384	0.20806	0.37323	0.12846	0.033565	0.045151	0.035689	0.10429	0.27205	0.15725	0.23224	0.084565	0.29805	0.30925	-2.0312	-2.4271	-2.5354	-2.4667	-2.525	-2.7646	-2.3958	-2.8271	-2.5896	-2.4938	-2.9	-2.4604	-2.4896	-2.8	-2.3271	-2.8708	499.346	198.123	497.712	190.281	376.751	475.388	375.757	465.668	234.130	341.002	310.623	449.449	192.957	326.651	471.439	484.577	0.0010819	0.00094155	0.00016447	754.23	1.115e-05	1.5281e-05	851.35	214.63	7.0264e-06	1.189e-05	302.3	104.98	65.196	23.524	8.5815e-06	48.612	0.0026532	0.0027371	0.00075775	852.53	2.9996e-05	3.0358e-05	955.48	250.54	3.0039e-05	3.0373e-05	353.08	121.51	82.081	29.091	3.0162e-05	56.6	487.924	522.106	194.947	188.421	361.082	296.392	187.815	192.256	392.007	323.818	191.587	195.225	195.575	201.268	320.678	199.245	-8191	255	
8720.671	1	1	0	0	0.017758	0.023602	0.069155	0.22159	0.1556	0.36852	0.29283	0.050837	0.10136	0.23968	0.23076	0.19515	0.28741	0.16041	0.19322	0.11772	-2.1458	-2.2062	-2.6688	-2.575	-2.5771	-2.8625	-2.4271	-2.6625	-2.6208	-2.5521	-2.9292	-2.6167	-2.6396	-2.925	-2.3292	-2.6021	204.356	364.874	383.892	516.679	472.431	344.230	492.164	531.752	194.119	262.024	311.305	476.444	438.957	318.783	459.088	469.108	0.0011017	0.00012856	0.00021573	752.02	5.0299e-06	4.5292e-06	855.06	215.49	1.0881e-05	8.3505e-06	302.42	104.82	65.687	23.413	1.677e-06	49.286	0.0026895	0.0027742	0.00077018	855.21	3.0263e-05	3.0407e-05	958.07	250.73	3.0145e-05	3.0463e-05	353.73	121.56	82.235	29.194	3.0322e-05	56.935	484.501	203.943	262.147	188.296	189.984	262.246	187.487	192.407	329.153	317.466	191.289	194.898	195.859	201.219	234.468	199.226	-8191	255	
8720.742	1	1	0	0	0.066269	0.14432	0.37119	0.12072	0.086376	0.3119	0.26273	0.10524	0.081599	0.070342	0.17478	0.026261	0.23107	0.035245	0.31754	0.068205	-2.2792	-2.2938	-2.6896	-2.5521	-2.475	-2.8312	-2.5187	-2.7833	-2.8125	-2.3021	-2.8187	-2.7542	-2.5625	-2.7875	-2.35	-2.6021	284.586	515.379	275.682	453.895	331.361	211.659	430.473	395.753	420.322	515.334	496.265	268.172	453.531	348.502	377.874	386.852	0.001183	0.00065093	0.0003891	751.54	3.4198e-06	1.0456e-05	855.41	215.49	3.3797e-06	6.1564e-06	303.11	105.74	65.724	23.573	1.4948e-05	49.174	0.0026925	0.0027935	0.00077763	856.94	3.0331e-05	3.0405e-05	960.25	251.09	3.03e-05	3.0357e-05	354.3	122.17	82.43	29.209	3.0305e-05	56.855	481.470	285.694	302.641	188.613	314.214	229.472	187.766	192.497	327.116	382.539	191.559	195.183	195.799	200.799	340.653	199.173	-8191	255	
8720.863	1	1	0	0	0.13918	0.33125	0.112	0.089307	0.089198	0.15011	0.25978	0.13101	0.33408	0.30898	0.14341	0.20846	0.2715	0.090329	0.037005	0.19422	-2.3458	-2.3042	-2.6104	-2.7583	-2.5375	-2.8146	-2.4333	-2.6917	-2.7125	-2.275	-2.8333	-2.5979	-2.2729	-2.8771	-2.5354	-2.6708	330.460	403.949	234.656	427.371	441.310	216.487	471.828	447.943	404.238	257.675	472.659	506.343	497.494	520.102	362.996	363.369	0.00099491	0.00074507	0.00041842	751.04	3.8075e-06	6.2279e-06	858.28	217.2	8.2668e-07	3.4805e-06	302.86	105.29	65.788	23.459	4.7336e-06	49.39	0.0026792	0.0027702	0.00077303	855.72	2.9952e-05	3.0217e-05	963.65	251.68	3.03e-05	3.0376e-05	355.39	122.24	82.273	29.234	3.0556e-05	57.193	498.596	264.451	220.287	188.647	216.855	377.045	187.723	192.515	475.608	487.745	191.267	195.002	195.665	201.182	273.849	199.213	-8191	255	
8720.959	1	1	0	0	0.21296	0.30232	0.24788	0.2105	0.293	0.12157	0.067972	0.14703	0.087745	0.079515	0.22017	0.093822	0.39031	0.10347	0.18869	0.076595	-2.3125	-2.5229	-2.5792	-2.7062	-2.3792	-2.6979	-2.7333	-2.6625	-2.8167	-2.2542	-2.8375	-2.8563	-2.3187	-3.0062	-2.4292	-2.5687	225.770	473.582	515.625	457.745	315.158	332.217	525.560	295.692	189.826	290.005	492.293	477.086	202.101	533.946	494.622	396.418	0.00079787	0.00021677	0.00025954	758.23	4.8182e-06	1.4941e-05	858.45	215.62	5.4e-06	1.044e-05	302.39	104.4	65.377	23.424	8.367e-06	48.921	0.0027219	0.0027997	0.00078931	861.8	3.0793e-05	3.1173e-05	967.36	252.34	3.1274e-05	3.1306e-05	357.28	122.39	82.959	29.414	3.1524e-05	57.149	483.373	448.913	356.215	188.633	401.405	412.045	187.580	192.544	294.645	322.596	191.535	195.092	195.802	201.553	369.007	199.313	-8191	255	
8721.055	1	1	0	0	0.086403	0.22027	0.14689	0.24801	0.33483	0.024715	0.23862	0.12563	0.078625	0.26906	0.22396	0.050666	0.22061	0.27541	0.16704	0.034432	-2.175	-2.35	-2.6146	-2.7188	-2.425	-2.8292	-2.7062	-2.6542	-2.8771	-2.3917	-2.8146	-2.8042	-2.2667	-2.9042	-2.6208	-2.4917	524.139	254.646	353.304	497.251	199.729	525.926	442.572	200.081	389.932	199.740	502.653	198.561	315.486	291.153	464.400	369.509	0.0011226	0.0010986	0.00013712	756.25	2.9991e-06	4.1459e-06	857.8	216.89	8.2862e-06	1.073e-05	302.6	105.26	65.708	23.493	1.2571e-05	49.394	0.0027459	0.0028574	0.0007953	861.52	3.0614e-05	3.0777e-05	963.36	251.77	3.0489e-05	3.0633e-05	356.62	122.35	82.728	29.427	3.1007e-05	57.16	490.171	248.475	478.027	188.557	338.763	256.027	187.676	192.617	386.083	324.595	191.243	195.186	195.850	200.913	191.405	198.752	-8191	255	
8721.151	1	1	0	0	0.4853	0.24729	0.077959	0.20798	0.15313	0.12287	0.27927	0.26892	0.15511	0.36196	0.11581	0.3058	0.033547	0.13936	0.10497	0.19471	-2.3458	-2.5187	-2.2729	-3.0271	-2.2438	-2.7146	-2.6813	-2.4458	-2.8458	-2.4083	-2.4958	-2.8979	-2.3521	-2.4604	-2.6063	-2.4146	487.687	220.375	497.414	489.023	186.253	438.856	461.297	420.137	220.625	313.770	470.790	464.197	453.245	215.649	259.415	365.604	0.0010352	0.0018503	6.9546e-05	749.96	3.5696e-06	1.271e-05	857.23	217.83	4.9787e-06	1.0196e-05	301.51	105.73	65.666	23.566	1.0478e-05	49.182	0.0027291	0.0028415	0.00079301	860.21	3.0759e-05	3.1279e-05	967.22	253.04	3.126e-05	3.1722e-05	357.61	123	83.208	29.536	3.1696e-05	57.297	475.674	247.240	357.195	188.788	268.684	326.128	187.637	192.719	187.406	206.117	191.386	195.036	195.796	201.053	527.752	198.993	-8191	255	
8721.270	1	1	0	0	0.13479	0.16129	0.08913	0.16736	0.12902	0.18932	0.15981	0.12229	0.2302	0.29711	0.10899	0.099339	0.17434	0.12087	0.18785	0.2019	-2.4	-2.3833	-2.4229	-2.9667	-2.4958	-2.6188	-2.8125	-2.2958	-2.9521	-2.6063	-2.6104	-2.85	-2.4479	-2.6375	-2.6479	-2.4125	418.435	387.768	375.406	414.889	387.130	446.730	179.641	390.568	522.325	494.370	441.757	446.820	488.654	458.259	521.946	447.382	0.0015117	0.00225	0.00037454	756.35	1.0475e-05	6.2928e-06	861.51	216.66	1.3164e-05	8.0104e-06	304.04	104.96	66.116	23.646	2.8634e-06	49.342	0.0028059	0.0029109	0.00081612	865.59	3.1801e-05	3.2315e-05	972.06	253.76	3.216e-05	3.2373e-05	359.79	123.33	83.64	29.69	3.2758e-05	57.584	486.298	306.940	242.369	188.625	498.500	236.930	187.745	192.394	272.690	448.854	191.556	194.950	195.968	200.821	505.427	198.914	-8191	255	
8721.344	1	1	0	0	0.33065	0.38625	0.12046	0.026082	0.23436	0.073139	0.1523	0.29947	0.16871	0.26199	0.27186	0.31798	0.16645	0.062825	0.27173	0.10517	-2.3583	-2.7062	-2.4917	-2.9542	-2.525	-2.5917	-2.9021	-2.5125	-2.725	-2.5521	-2.5375	-2.7875	-2.6729	-2.6375	-2.8021	-2.3417	269.956	511.655	514.050	183.392	368.098	389.266	408.420	447.540	340.791	223.452	437.871	200.400	477.455	524.759	373.850	252.912	0.00096988	0.00052745	0.00036923	759.72	6.4441e-06	5.7259e-06	861.68	216.61	1.1336e-05	9.2312e-06	302.71	105.09	65.725	23.556	1.3517e-05	48.938	0.0029098	0.0030176	0.00083894	870.65	3.2694e-05	3.3212e-05	975.32	254.44	3.3047e-05	3.3215e-05	359.62	123.32	83.804	29.736	3.2938e-05	57.401	519.971	237.118	248.511	188.557	278.022	227.994	187.626	192.814	525.861	518.805	191.294	194.935	195.972	201.302	267.948	199.051	-8191	255	
8721.463	1	1	0	0	0.16222	0.22288	0.047451	0.13942	0.080375	0.08145	0.19232	0.052338	0.089796	0.32906	0.2938	0.095586	0.18262	0.1166	0.11205	0.070049	-2.1854	-2.8333	-2.4688	-2.8187	-2.4562	-2.3958	-2.8583	-2.6021	-2.5667	-2.6625	-2.4917	-3.0458	-2.6708	-2.6354	-2.8417	-2.2917	254.626	243.039	202.950	514.437	442.865	322.358	468.263	501.613	271.748	368.304	423.923	465.943	487.607	511.585	190.349	379.004	0.00106	0.00087913	0.0001246	755.76	7.5566e-06	6.5579e-06	857.51	217.03	4.5326e-06	3.6085e-06	303.92	105.63	66.123	23.622	9.4029e-06	49.014	0.0029089	0.0030014	0.00083734	870.56	3.2668e-05	3.3149e-05	973.82	255.39	3.2977e-05	3.3207e-05	360.68	123.65	84.352	29.867	3.3141e-05	57.487	497.111	356.955	232.683	188.448	485.199	292.100	187.754	192.584	441.547	490.108	191.284	194.966	195.494	200.922	260.051	199.095	-8191	255	
8721.559	1	1	0	0	0.07054	0.11111	0.17658	0.13169	0.038857	0.11869	0.13916	0.10839	0.049875	0.27756	0.12158	0.15453	0.24844	0.34188	0.27799	0.17255	-2.1312	-2.6792	-2.35	-2.8063	-2.3479	-2.3271	-2.925	-2.6583	-2.7771	-2.7292	-2.4208	-2.8583	-2.425	-2.3583	-2.8354	-2.3917	363.800	487.121	241.929	472.271	204.581	233.681	406.096	388.665	240.851	209.237	407.587	514.563	469.360	438.453	343.626	178.509	0.0013255	0.00097649	0.00037801	759.31	1.0891e-05	5.4571e-06	864.09	217.43	9.0542e-06	1.2914e-05	304.7	104.45	65.408	23.582	3.1076e-06	49.349	0.0029312	0.0030419	0.00083917	873.16	3.2764e-05	3.3221e-05	977.85	255.8	3.3371e-05	3.3658e-05	361.04	124	84.319	29.814	3.3215e-05	57.757	464.690	233.415	260.941	188.672	260.094	349.255	187.691	192.636	179.416	210.523	191.602	194.973	195.836	201.536	199.568	199.097	-8191	255	
8721.655	1	1	0	0	0.17535	0.22361	0.17581	0.27465	0.19999	0.13791	0.20261	0.083082	0.22301	0.11847	0.31391	0.039397	0.24018	0.13779	0.040217	0.19443	-2.025	-2.7896	-2.3896	-2.6063	-2.7146	-2.4771	-2.8479	-2.5396	-2.7167	-2.7313	-2.4583	-2.8667	-2.5979	-2.6688	-2.8875	-2.7333	318.204	368.465	305.948	465.685	352.911	195.744	391.308	516.945	206.040	273.499	438.420	254.278	178.340	461.771	278.345	459.281	0.00073621	0.00036585	0.00043797	763.17	4.387e-06	6.1207e-06	862.52	216.63	9.2171e-06	1.5103e-05	305.22	105.61	66.385	23.614	7.9483e-06	48.871	0.0029516	0.0030495	0.00084044	874.57	3.3163e-05	3.3313e-05	980.07	255.42	3.3354e-05	3.3536e-05	361.46	124.23	84.287	29.808	3.3171e-05	57.595	490.242	345.345	380.110	188.634	364.594	299.340	187.662	192.483	299.909	178.720	191.383	195.056	195.958	201.347	250.940	198.696	-8191	255	
8721.751	1	1	0	0	0.10773	0.15897	0.078738	0.36164	0.22513	0.15523	0.11611	0.17564	0.10806	0.074552	0.26705	0.18574	0.08272	0.095046	0.15048	0.29093	-1.9854	-2.7188	-2.1937	-2.8667	-2.7792	-2.4708	-2.9396	-2.5417	-2.4917	-2.8	-2.4417	-2.8125	-2.7125	-2.3104	-2.8708	-2.7146	208.916	503.406	191.046	466.552	533.216	237.574	415.197	487.226	507.022	222.068	449.196	414.658	511.582	349.983	513.145	481.197	0.001096	0.00032442	0.00030092	755.63	4.8792e-06	1.0511e-05	861.68	215.41	5.2795e-06	6.8655e-06	302.37	104.59	65.611	23.684	3.4359e-06	48.922	0.0029341	0.0030164	0.00083645	871.55	3.288e-05	3.2946e-05	976.48	254.93	3.3103e-05	3.3191e-05	359.57	123.33	84.001	29.768	3.3357e-05	57.458	498.116	257.922	378.838	188.359	182.580	304.756	187.850	192.516	254.051	326.272	191.654	195.109	195.679	201.401	214.390	198.631	-8191	255	
8721.872	1	1	0	0	0.14006	0.22369	0.19687	0.28074	0.21708	0.014977	0.21031	0.2227	0.11503	0.14286	0.31475	0.098319	0.14479	0.15292	0.083862	0.21145	-2.0854	-2.8729	-2.3958	-2.6458	-2.6542	-2.2313	-2.9667	-2.6542	-2.4813	-2.8083	-2.5854	-2.6396	-2.7979	-2.4292	-2.7792	-2.8354	287.070	223.597	343.619	188.092	337.843	370.926	514.444	523.681	438.678	206.152	514.360	483.315	520.800	389.321	235.143	216.220	0.00097305	0.0017117	0.00033113	760.96	9.8579e-06	9.8081e-06	860.26	216.55	7.784e-06	1.0658e-05	304.03	104.88	65.948	23.593	8.738e-06	49.154	0.0029255	0.0030346	0.00083781	875.36	3.3133e-05	3.3262e-05	979.86	255.89	3.353e-05	3.3686e-05	361.4	124.19	84.547	29.866	3.3478e-05	57.621	479.373	262.857	518.578	188.519	338.349	348.627	187.564	192.604	503.946	315.304	191.240	195.031	195.759	200.854	289.073	199.105	-8191	255	
8721.968	1	1	0	0	0.24119	0.057606	0.092402	0.18281	0.045155	0.083193	0.043125	0.19109	0.1865	0.1743	0.25546	0.1763	0.3611	0.04369	0.40759	0.17254	-1.8896	-3.0479	-2.5021	-2.4208	-2.7833	-2.2812	-2.7875	-2.7354	-2.375	-2.6833	-2.6458	-2.5271	-2.9313	-2.2062	-2.6333	-2.6937	355.956	449.317	336.522	523.430	196.735	474.116	441.919	178.611	399.049	352.430	193.162	282.836	506.538	198.476	356.642	444.869	0.00096686	0.0014987	0.00042335	762.07	8.354e-06	1.4215e-05	867.79	217.35	6.3235e-06	7.1759e-06	305.56	105.02	65.609	23.545	1.3464e-05	49.14	0.0029418	0.0030492	0.00084888	877.1	3.3266e-05	3.3372e-05	982.6	256.18	3.3214e-05	3.3701e-05	362.26	123.92	84.268	29.784	3.3568e-05	57.738	492.393	207.095	211.401	188.502	280.657	335.638	187.815	192.379	179.525	392.448	191.247	195.112	196.008	201.238	226.750	199.067	-8191	255	
8722.064	1	1	0	0	0.20441	0.076009	0.15739	0.045434	0.18745	0.12589	0.082882	0.2215	0.082995	0.13474	0.11712	0.031513	0.15888	0.19043	0.078495	0.24512	-1.9146	-2.7958	-2.5167	-2.7083	-2.8583	-2.3937	-2.7917	-2.7125	-2.6146	-2.9083	-2.6104	-2.5	-2.8312	-2.4208	-2.6167	-2.8104	238.776	264.740	506.142	333.113	294.832	216.042	404.390	442.587	267.289	336.800	504.700	529.140	184.768	498.552	254.646	450.773	0.0011642	0.000594	4.6667e-05	757.58	4.6675e-06	1.3817e-05	867.54	217.26	3.2081e-06	7.9705e-06	304.47	105.65	65.663	23.467	3.9274e-06	48.987	0.0029239	0.0030331	0.00084617	873.22	3.2866e-05	3.3102e-05	980.93	255.77	3.2826e-05	3.3282e-05	361.63	123.77	83.752	29.664	3.3043e-05	57.473	478.267	219.634	321.444	188.537	449.190	318.545	187.705	192.278	368.948	355.559	191.202	194.891	196.019	200.925	476.268	199.102	-8191	255	
8722.160	1	1	0	0	0.25036	0.16043	0.1353	0.10226	0.090034	0.13274	0.28735	0.093669	0.0321	0.26064	0.25993	0.21188	0.3103	0.083264	0.051889	0.20254	-1.7229	-2.4688	-2.4854	-2.4083	-2.6583	-2.475	-2.7875	-2.7667	-2.3125	-2.8	-2.6437	-2.3917	-2.8271	-2.4625	-2.5458	-2.7021	205.852	470.638	509.473	410.333	526.364	397.526	484.718	425.819	370.474	423.209	527.239	521.110	243.366	471.764	302.041	476.904	0.0011992	0.0014948	0.00033174	759.65	1.3189e-05	6.1478e-06	865.15	217.62	6.536e-06	7.0219e-06	305.69	104.57	65.577	23.425	1.0025e-05	49.457	0.0028721	0.0029745	0.0008316	870.19	3.2151e-05	3.2316e-05	975.79	254.63	3.1757e-05	3.2248e-05	358.95	122.87	83.485	29.524	3.2068e-05	57.282	472.460	246.158	340.247	188.647	428.969	311.795	187.698	192.540	288.609	471.394	191.391	195.167	195.952	200.928	290.437	198.837	-8191	255	
8722.255	1	1	0	0	0.17649	0.22385	0.38493	0.34969	0.10769	0.25993	0.27976	0.20609	0.096455	0.14887	0.24572	0.27687	0.064674	0.17464	0.19788	0.18923	-1.8792	-2.6104	-2.6646	-2.2417	-2.8583	-2.4667	-2.4792	-2.7979	-2.3667	-2.5042	-2.7333	-2.5417	-2.7854	-2.6813	-2.4479	-2.8292	275.616	443.394	225.643	466.183	182.223	366.496	475.257	495.988	388.468	256.830	444.380	424.194	282.360	434.634	196.194	415.513	0.0011166	0.0007919	9.0623e-05	759.41	5.8812e-06	8.2797e-06	859.95	217.75	8.0399e-06	1.5959e-05	305.1	105.33	65.985	23.715	6.7633e-06	49.4	0.0027851	0.0029066	0.00080829	867.91	3.1417e-05	3.1788e-05	976.12	254.51	3.1795e-05	3.2286e-05	360.28	123.38	83.78	29.655	3.2147e-05	57.47	501.225	513.630	197.693	188.513	323.876	355.026	187.335	192.582	188.632	423.237	191.000	194.840	195.671	201.149	291.847	199.026	-8191	255	
8722.351	1	1	0	0	0.27227	0.036561	0.16114	0.22543	0.11981	0.24891	0.16301	0.029309	0.055148	0.074621	0.22416	0.1243	0.18007	0.061162	0.21214	0.13328	-1.8417	-2.7583	-2.6312	-2.3042	-2.6292	-2.5938	-2.6396	-2.9771	-2.5125	-2.6958	-2.85	-2.5292	-2.8438	-2.7604	-2.3875	-2.9333	307.412	211.512	196.665	189.445	504.810	510.343	442.019	283.813	512.641	493.757	442.902	208.037	231.148	198.782	506.423	431.013	0.0010533	0.0016609	0.00017994	759.33	1.2855e-05	8.7523e-06	860.58	218.92	1.8287e-05	1.3709e-05	305.68	105.84	65.535	23.572	1.7318e-05	49.078	0.0028126	0.0029416	0.00081826	869.05	3.1843e-05	3.2335e-05	975.37	254.85	3.1804e-05	3.223e-05	359.36	123.21	83.344	29.481	3.187e-05	57.393	487.591	210.300	213.240	188.669	256.419	522.269	187.756	192.495	285.493	286.030	191.379	194.975	195.816	201.013	247.711	199.146	-8191	255	
8722.447	1	1	0	0	0.15382	0.05387	0.26325	0.29823	0.20973	0.20355	0.22189	0.12758	0.16895	0.10877	0.21332	0.31326	0.19456	0.28999	0.16883	0.11926	-1.7646	-2.4583	-2.6583	-2.3063	-2.7625	-2.6396	-2.4979	-3.0479	-2.5167	-2.5187	-2.8146	-2.5104	-2.7333	-2.4375	-2.425	-2.8292	190.728	286.421	239.668	438.175	267.680	189.099	471.180	318.085	218.022	518.938	511.592	465.367	530.012	200.824	476.231	498.532	0.00099865	0.00095131	0.00028759	758.74	6.0066e-06	1.049e-05	867.6	217.03	1.4264e-05	9.4036e-06	306.06	105.92	65.835	23.613	5.7389e-06	49.459	0.0028133	0.0029315	0.00080839	866.4	3.1555e-05	3.2076e-05	977.29	254.22	3.2049e-05	3.2482e-05	361.52	123.62	83.873	29.647	3.2092e-05	57.574	492.262	363.633	275.133	188.467	196.505	310.905	187.491	192.452	487.459	254.009	191.153	194.773	195.750	200.854	212.582	199.017	-8191	255	
8722.567	1	1	0	0	0.17669	0.15048	0.22777	0.13596	0.060088	0.083389	0.12122	0.2575	0.17001	0.21159	0.15105	0.50451	0.08685	0.074825	0.21292	0.11333	-2.0146	-2.5333	-2.8021	-2.475	-2.6667	-2.5	-2.6188	-2.6979	-2.5187	-2.3729	-2.8771	-2.425	-2.4604	-2.7479	-2.1479	-2.8438	277.891	226.610	413.174	425.633	352.984	199.434	320.652	446.798	357.016	210.838	469.903	500.309	244.530	432.876	461.394	362.671	0.0011783	0.0014282	0.00032982	755.49	4.603e-06	8.2997e-06	866.73	217.98	4.0941e-06	7.7074e-06	305.9	106.16	65.926	23.691	8.6086e-06	49.515	0.0028437	0.0029472	0.00081999	866.8	3.189e-05	3.2045e-05	974.63	254.33	3.1675e-05	3.1799e-05	359.81	123.44	83.625	29.542	3.1297e-05	57.443	484.419	265.825	283.515	188.586	269.953	286.880	187.732	192.494	254.729	342.363	191.264	194.808	195.875	200.984	293.496	198.805	-8191	255	
8722.639	1	1	0	0	0.32348	0.1849	0.11153	0.26655	0.2594	0.22861	0.39723	0.25808	0.27789	0.3117	0.087088	0.18777	0.14787	0.12807	0.0999	0.17343	-1.9646	-2.3479	-2.7438	-2.5583	-2.4979	-2.875	-2.1958	-2.8792	-2.6958	-2.2313	-2.8604	-2.4896	-2.4333	-2.7229	-2.3146	-2.9042	365.351	399.363	439.086	414.487	179.403	356.010	425.244	472.991	406.620	411.032	301.751	439.306	428.961	391.871	527.353	181.202	0.0009367	0.00082732	0.00036636	761.26	3.8216e-06	5.7682e-06	863.82	219.81	2.907e-06	7.1956e-06	307.47	106.06	65.341	23.591	5.8633e-06	49.694	0.0027637	0.0028708	0.00079389	864.85	3.1269e-05	3.1303e-05	972.53	254.17	3.0887e-05	3.0979e-05	359.13	123.08	82.794	29.33	3.0485e-05	57.34	482.057	334.603	277.583	188.951	458.810	499.136	187.742	192.384	447.020	291.710	191.459	195.048	195.891	201.070	266.551	199.125	-8191	255	
8722.735	1	1	0	0	0.18531	0.29007	0.10837	0.31504	0.063141	0.017334	0.26553	0.23545	0.21416	0.12982	0.17278	0.24251	0.075149	0.15039	0.12367	0.15716	-2.1354	-2.2125	-2.6188	-2.725	-2.5229	-2.8583	-2.5625	-2.8875	-2.6292	-2.5354	-2.8125	-2.5333	-2.3917	-2.7042	-2.3167	-2.6083	515.556	400.849	412.044	523.627	344.664	518.755	463.966	483.583	381.280	373.954	307.168	192.634	193.406	399.845	492.538	498.487	0.0011662	0.00029123	0.00013914	757.85	9.5979e-06	3.0686e-06	862.29	217.52	7.7631e-06	3.7378e-06	305.37	105.84	65.172	23.448	1.9119e-05	49.147	0.0027088	0.0027799	0.00077341	862.37	3.0394e-05	3.0381e-05	966.97	253.07	2.9882e-05	3.0294e-05	356.66	122.26	82.109	29.107	2.9976e-05	56.749	491.941	278.445	246.059	188.644	307.939	182.590	187.758	192.776	360.408	312.265	191.235	195.034	195.355	201.265	267.786	199.279	-8191	255	
8722.831	1	1	0	0	0.14955	0.096091	0.17392	0.14978	0.22037	0.055465	0.34543	0.26294	0.17687	0.030709	0.1383	0.083277	0.061465	0.19817	0.16537	0.087296	-2.2146	-2.4062	-2.7833	-2.6104	-2.7354	-2.9021	-2.4813	-2.5958	-2.6208	-2.2562	-2.6729	-2.5062	-2.425	-2.7625	-2.3417	-2.6771	371.088	425.248	180.920	394.973	256.106	316.819	500.719	461.086	255.365	358.610	424.439	532.048	479.861	487.368	308.198	193.701	0.001126	0.00064714	0.00022132	755.81	1.7204e-06	1.7513e-06	858.51	216.5	1.1502e-05	1.3524e-06	304.09	104.46	65.155	23.117	1.0269e-05	48.231	0.0026526	0.002741	0.00076347	856.39	2.9663e-05	2.9573e-05	962.96	250.32	2.9588e-05	2.9775e-05	354.37	121.02	81.407	28.692	2.9785e-05	56.033	492.395	234.722	290.033	188.420	183.530	517.777	187.707	192.607	359.818	304.826	191.321	195.061	195.603	201.317	248.811	198.816	-8191	255	
8722.952	1	1	0	0	0.15462	0.13037	0.18719	0.079389	0.087389	0.064039	0.13559	0.3069	0.14902	0.1126	0.084443	0.31035	0.43808	0.027478	0.20967	0.12026	-2.4646	-2.2562	-2.6333	-2.6708	-2.2583	-2.7167	-2.5083	-2.6667	-2.7938	-2.3333	-2.6792	-2.6771	-2.3083	-2.9646	-2.3229	-2.6729	332.659	375.591	395.318	414.221	308.895	387.986	458.921	532.788	243.982	297.633	509.184	481.075	239.313	408.458	333.571	448.222	0.00094557	0.00099891	7.0401e-05	750.59	2.575e-06	1.1687e-05	855.37	214.1	1.5358e-05	8.0337e-06	301.03	103.57	64.678	23.101	1.2754e-06	48.083	0.002621	0.0027006	0.00076134	852.53	2.9372e-05	2.9678e-05	956.15	248.62	2.9348e-05	2.985e-05	352.02	120.22	81.051	28.646	3.0012e-05	55.789	487.650	279.446	303.961	188.639	205.892	365.078	187.952	192.399	234.289	271.355	191.390	194.848	195.764	201.170	213.052	199.024	-8191	255	
8723.048	1	1	0	0	0.33614	0.18021	0.22852	0.21388	0.073285	0.11498	0.13348	0.094391	0.30586	0.215	0.13461	0.18658	0.092122	0.19341	0.097632	0.089899	-2.3	-2.525	-2.5438	-2.7812	-2.3187	-2.775	-2.6479	-2.5312	-2.8625	-2.3771	-2.5812	-2.5812	-2.3937	-2.9479	-2.7646	-2.6688	366.430	484.057	512.300	510.869	313.283	298.857	293.538	435.108	365.777	282.104	368.539	237.640	478.521	441.487	291.558	321.735	0.0012074	0.00055454	0.00011212	747.95	6.1929e-06	1.0084e-05	854.19	214.24	7.2238e-06	6.9633e-06	301.5	103.53	64.174	23.049	1.1628e-05	47.95	0.0026236	0.0027146	0.00076225	851.31	2.9215e-05	2.9754e-05	957.62	248.38	2.9537e-05	3.0063e-05	351.45	119.84	80.934	28.598	3.0351e-05	55.794	480.590	340.280	459.581	188.554	451.874	371.426	187.385	192.554	334.915	250.946	191.135	194.600	195.589	200.879	358.997	198.865	-8191	255	
8723.144	1	1	0	0	0.23148	0.17222	0.28648	0.1526	0.24045	0.19848	0.10996	0.084644	0.2227	0.24175	0.22265	0.16681	0.15118	0.20116	0.13031	0.33183	-2.5146	-2.3208	-2.6604	-2.7542	-2.4146	-3	-2.85	-2.4271	-2.6708	-2.3917	-2.6729	-2.7583	-2.5417	-2.6208	-2.6312	-2.4708	516.395	432.184	502.546	182.034	354.704	254.894	412.487	202.552	296.961	202.114	515.591	449.632	324.645	500.514	338.439	460.883	0.0014604	0.0011602	0.00046903	750.28	5.1458e-06	8.8033e-06	857.7	211.7	1.0255e-05	5.983e-06	299.4	101.77	63.426	22.891	1.0525e-05	47.556	0.002689	0.0028053	0.0007897	858.55	3.0865e-05	3.141e-05	964.58	249.27	3.1402e-05	3.1739e-05	353.89	119.93	81.557	28.835	3.2674e-05	55.99	488.532	184.417	247.134	188.484	267.824	363.906	187.525	192.451	341.212	364.934	191.421	194.716	195.680	200.959	317.629	198.840	-8191	255	
8723.239	1	1	0	0	0.22085	0.19856	0.011881	0.22387	0.083651	0.19049	0.18755	0.13064	0.16967	0.027537	0.11501	0.13856	0.03792	0.13019	0.20082	0.21507	-2.4562	-2.3583	-2.5854	-2.8854	-2.3854	-2.6917	-2.7083	-2.5854	-2.9229	-2.6021	-2.5979	-2.7854	-2.4313	-2.7458	-2.6792	-2.3917	235.174	273.169	364.251	178.534	530.207	475.914	442.855	467.221	312.165	436.561	189.223	488.388	436.423	530.737	367.065	433.724	0.000982	0.00029874	0.00011665	753.94	3.7677e-06	1.0936e-05	855.95	211.41	2.7938e-06	8.8654e-06	297.48	102.27	63.813	22.718	4.0552e-06	47.322	0.0028699	0.0029775	0.00083281	864.87	3.2455e-05	3.2956e-05	970.26	250.41	3.2737e-05	3.3033e-05	354.37	120.27	81.912	28.933	3.2861e-05	55.84	471.422	483.131	262.675	187.973	330.951	430.687	187.643	192.547	301.420	289.786	190.962	195.035	195.487	201.137	443.674	198.959	-8191	255	
8723.335	1	1	0	0	0.19278	0.07717	0.092555	0.26722	0.089116	0.14453	0.20419	0.15222	0.12858	0.27859	0.2355	0.11468	0.14873	0.11939	0.02676	0.33026	-2.1833	-2.5479	-2.5021	-2.9271	-2.3771	-2.7208	-2.7	-2.1708	-2.7917	-2.6292	-2.5	-2.7938	-2.5604	-2.6375	-2.7958	-2.4479	366.987	497.051	480.943	412.222	208.930	333.342	493.020	507.591	437.693	299.393	477.712	246.169	453.155	441.146	480.302	445.183	0.0013185	0.00095275	0.00018255	755.96	1.2859e-05	7.4674e-06	856.11	213.56	9.9771e-06	6.4801e-06	297.83	102.2	64.489	23.058	8.1309e-06	47.679	0.0028922	0.0029989	0.00083727	866.59	3.2615e-05	3.3186e-05	971.86	251.65	3.2835e-05	3.3118e-05	354.65	120.8	82.81	29.395	3.3424e-05	56.359	480.057	434.993	252.780	188.463	304.919	281.978	187.789	192.521	382.961	402.926	191.251	194.961	195.687	201.383	240.981	199.042	-8191	255	
8723.433	1	1	0	0	0.1498	0.12383	0.16283	0.44141	0.17289	0.19099	0.1468	0.17876	0.23567	0.02832	0.083748	0.24719	0.13903	0.0896	0.0081994	0.11224	-2.2333	-2.5729	-2.5187	-2.9375	-2.4792	-2.6292	-2.9979	-2.5563	-2.7625	-2.7438	-2.5417	-2.9792	-2.5479	-2.7125	-2.8958	-2.5354	441.255	490.496	401.761	438.178	331.575	243.272	190.042	487.527	294.224	400.977	237.955	468.812	434.936	463.193	533.209	530.607	0.0011849	0.0026916	0.00026941	756.45	1.3405e-05	1.2377e-05	861.84	214.43	9.5955e-06	1.3183e-05	300.19	103.38	64.918	23.061	4.334e-06	48.051	0.0029687	0.0030655	0.00085296	874.76	3.3377e-05	3.3698e-05	978.47	253.78	3.3426e-05	3.3826e-05	357.71	121.72	83.466	29.512	3.3436e-05	56.802	506.811	371.885	269.465	188.717	183.719	288.962	187.526	192.297	405.905	383.828	191.302	194.861	195.718	201.070	528.476	198.988	-8191	255	
8723.552	1	1	0	0	0.12842	0.17807	0.15856	0.058781	0.27533	0.20684	0.057556	0.034302	0.20176	0.25455	0.044085	0.34824	0.27492	0.046312	0.040265	0.19605	-2.2917	-2.7188	-2.3312	-3.0812	-2.5854	-2.6271	-2.9562	-2.5729	-2.8083	-2.7583	-2.4313	-2.9229	-2.4333	-2.6063	-2.7875	-2.4375	324.755	318.555	440.242	180.779	345.178	427.399	422.676	432.638	436.575	381.363	519.075	498.714	522.746	371.327	371.516	442.715	0.001509	0.0011088	2.7686e-05	758.96	2.9399e-06	4.1888e-06	862.64	214.59	9.1667e-06	9.6458e-06	300.62	103.17	64.899	23.173	6.1525e-06	48.083	0.0029565	0.003063	0.00085325	875.18	3.3449e-05	3.3926e-05	979.87	254.49	3.3986e-05	3.4037e-05	358.88	122.36	83.71	29.589	3.3752e-05	56.929	489.807	220.285	267.211	188.659	384.185	505.098	187.843	192.402	275.141	357.837	191.251	194.998	195.866	201.299	361.960	199.057	-8191	255	
8723.648	1	1	0	0	0.11021	0.26139	0.035042	0.13672	0.095528	0.26364	0.15026	0.11292	0.1844	0.12211	0.18589	0.15639	0.22576	0.13436	0.32254	0.26337	-2.3021	-2.8646	-2.175	-2.9417	-2.575	-2.3854	-2.9042	-2.3146	-2.5812	-2.6646	-2.3458	-2.7333	-2.5396	-2.4062	-2.6979	-2.5021	260.326	433.589	196.227	216.807	517.772	445.316	422.317	460.617	367.366	505.699	421.230	441.869	179.159	460.895	197.876	446.283	0.0014408	0.00075408	0.00015983	760.6	9.7797e-06	2.7477e-06	862.5	216.23	9.5651e-06	1.0569e-05	300.95	103.11	64.65	23.478	1.6905e-05	48.142	0.0030111	0.0031144	0.00086104	879.01	3.3674e-05	3.4073e-05	982.84	254.87	3.3745e-05	3.3755e-05	357.56	122.07	83.584	29.63	3.3751e-05	56.743	484.656	395.329	301.493	188.364	252.885	517.616	187.792	192.277	257.043	432.165	191.392	194.950	196.221	201.145	291.818	199.183	-8191	255	
8723.744	1	1	0	0	0.15609	0.21866	0.064002	0.1887	0.1236	0.12094	0.21838	0.12116	0.19434	0.060781	0.35611	0.23152	0.11312	0.18691	0.12954	0.24221	-2.3042	-2.6312	-2.2354	-2.7833	-2.5542	-2.5708	-2.7875	-2.4354	-2.5604	-2.6917	-2.4667	-2.7667	-2.775	-2.4208	-2.5917	-2.5146	254.226	204.316	410.454	477.905	445.037	499.811	412.272	421.875	286.745	433.949	445.609	251.405	499.066	531.678	208.101	450.052	0.0011263	0.00014126	0.00024619	760.11	1.3128e-05	3.8934e-06	861.72	215.58	6.4133e-06	5.9511e-06	300.28	103.53	64.715	23.24	1.3481e-05	48.352	0.0029691	0.0030706	0.00085489	877.21	3.3488e-05	3.3822e-05	982.7	255.53	3.4047e-05	3.4522e-05	359.44	123.07	84.503	29.926	3.5221e-05	57.439	492.287	216.873	300.835	188.519	298.232	343.922	187.754	192.445	363.581	278.369	191.328	194.680	195.957	201.591	315.507	198.951	-8191	255	
8723.865	1	1	0	0	0.11952	0.14802	0.33238	0.11965	0.073969	0.20888	0.32909	0.23544	0.058244	0.31324	0.12518	0.15418	0.059665	0.27378	0.083216	0.091163	-1.9979	-2.7562	-2.2083	-2.75	-2.5896	-2.3604	-2.9354	-2.5062	-2.5104	-2.7604	-2.3125	-2.7	-2.7521	-2.5125	-2.725	-2.7021	376.691	228.609	190.072	501.566	528.521	510.382	438.980	425.457	191.717	306.271	214.659	462.782	462.701	491.000	268.277	296.928	0.00089607	0.0012179	0.00010392	767.06	6.9758e-06	4.952e-06	865.69	216.91	8.5157e-06	7.6402e-06	300.56	103.77	64.514	23.388	7.7082e-06	48.172	0.0031099	0.0032407	0.00089906	887.79	3.5215e-05	3.5769e-05	995.47	259.35	3.5935e-05	3.6234e-05	364.2	123.86	85.101	30.115	3.641e-05	57.515	493.176	372.064	209.843	188.605	272.506	324.926	187.402	192.169	365.862	389.965	191.545	195.034	195.588	201.261	383.597	199.336	-8191	255	
8723.936	1	1	0	0	0.012469	0.12526	0.13983	0.23613	0.076401	0.30162	0.15029	0.24682	0.067924	0.18101	0.22892	0.10746	0.015243	0.32673	0.18994	0.28629	-2.0417	-2.7333	-2.2583	-2.6667	-2.8375	-2.3042	-2.7938	-2.6604	-2.5687	-2.8896	-2.5458	-2.5729	-2.8521	-2.4188	-2.7833	-2.6604	492.370	288.836	452.174	528.386	188.260	448.131	203.021	467.904	353.408	363.767	506.698	284.916	349.896	514.842	329.847	180.357	0.001283	0.0017012	0.000204	763.12	9.408e-06	2.6742e-06	868.49	217.18	1.2897e-06	1.4127e-05	301.84	103.29	64.912	23.155	3.6076e-06	48.042	0.003213	0.0033294	0.00092822	893.18	3.6072e-05	3.6365e-05	999.78	258.96	3.6131e-05	3.6644e-05	363.93	123.63	85.222	30.067	3.6505e-05	57.487	474.307	204.618	517.996	188.513	529.344	381.051	187.741	192.641	416.070	467.562	191.372	195.150	195.464	200.858	520.489	199.212	-8191	255	
8724.032	1	1	0	0	0.27531	0.1357	0.14918	0.12615	0.21606	0.22276	0.034465	0.25371	0.18563	0.11369	0.12412	0.096741	0.056986	0.082582	0.07727	0.16665	-1.9167	-2.8125	-2.5979	-2.8146	-2.8417	-2.15	-2.7125	-2.7625	-2.4354	-2.9708	-2.5542	-2.4938	-2.8104	-2.4583	-2.6729	-2.825	207.200	402.086	325.490	229.318	467.140	245.296	497.182	528.263	271.889	192.743	213.122	204.463	517.223	228.029	464.887	494.375	0.0010563	0.0011633	0.00018041	770.29	1.212e-05	3.7333e-06	872.38	217	4.9083e-06	1.059e-05	301.26	102.66	64.397	23.173	1.0632e-05	47.764	0.0031894	0.0033162	0.00092193	895.21	3.5887e-05	3.5966e-05	1000.9	259.58	3.5775e-05	3.6259e-05	363.76	122.93	84.987	29.972	3.6393e-05	57.275	485.045	264.878	260.047	188.635	229.647	176.844	187.662	192.689	355.563	277.912	191.481	194.738	195.557	200.844	391.285	199.077	-8191	255	
8724.129	1	1	0	0	0.15028	0.1892	0.12457	0.040622	0.096507	0.14045	0.093216	0.16197	0.2557	0.35972	0.11935	0.1046	0.1972	0.29839	0.10361	0.1625	-1.9521	-2.7604	-2.6521	-2.7	-2.7896	-2.3583	-2.7396	-2.8354	-2.3646	-2.9083	-2.725	-2.6604	-2.8521	-2.4896	-2.675	-2.9562	442.754	346.458	359.730	176.380	400.358	463.797	471.066	406.052	307.599	458.277	485.102	520.943	437.643	453.915	199.592	515.009	0.001103	0.00085729	8.6004e-05	770.86	2.2803e-06	6.9976e-06	874.74	217.33	1.61e-05	1.7103e-05	299.13	102.16	65.05	23.206	7.3147e-06	47.96	0.0031837	0.0033067	0.00091918	895.09	3.5867e-05	3.6235e-05	1004.3	260.13	3.6535e-05	3.7251e-05	364.75	123.51	85.626	30.184	3.7481e-05	57.541	488.454	283.697	243.020	188.547	217.780	381.062	187.984	192.418	281.056	396.562	191.336	195.161	195.377	201.272	279.735	198.983	-8191	255	
8724.247	1	1	0	0	0.20466	0.21937	0.23687	0.10715	0.084066	0.26542	0.0044678	0.21023	0.084658	0.18725	0.10907	0.23689	0.084727	0.19229	0.19095	0.031511	-1.9604	-2.7854	-2.5083	-2.6312	-2.675	-2.3854	-2.85	-2.8583	-2.4062	-2.7479	-2.9229	-2.4917	-2.8958	-2.725	-2.6625	-2.8708	345.629	248.078	397.628	505.746	334.208	198.314	192.083	467.226	530.947	353.275	439.628	503.006	402.360	198.218	471.612	445.010	0.0012766	0.00092759	0.00023374	771.99	1.6224e-05	5.0652e-06	876.2	217.32	1.2074e-05	1.036e-05	302.5	101.12	64.24	23.061	1.5246e-05	47.888	0.0032793	0.0034294	0.0009549	900.81	3.7219e-05	3.7603e-05	1012	261.93	3.8029e-05	3.8419e-05	368.32	123.38	85.828	30.267	3.8467e-05	57.704	491.709	433.203	426.153	188.389	330.357	297.136	187.726	192.628	345.689	275.749	191.099	195.084	195.689	201.049	437.218	198.708	-8191	255	
8724.344	1	1	0	0	0.042448	0.19579	0.26749	0.19941	0.3161	0.18994	0.19279	0.2081	0.13403	0.031782	0.29296	0.098347	0.1038	0.23561	0.15314	0.12386	-1.9896	-2.5312	-2.5625	-2.3979	-2.9083	-2.5875	-2.7	-2.8917	-2.3125	-2.5083	-2.7833	-2.425	-2.6375	-2.6125	-2.3563	-3.0708	515.053	211.512	422.909	521.183	331.753	448.149	503.833	391.244	274.214	396.278	526.333	179.580	427.282	423.974	401.410	244.551	0.0012289	0.001198	0.0001958	768.24	5.0247e-06	7.502e-06	880.43	217.23	2.6133e-06	1.8088e-05	301.66	101.44	63.648	22.846	1.7608e-05	47.754	0.0033591	0.003509	0.00097237	902.52	3.7847e-05	3.8211e-05	1013.6	261.72	3.7732e-05	3.8464e-05	368.23	123.91	85.975	30.355	3.8865e-05	57.644	481.433	203.054	351.369	188.473	222.555	260.736	187.419	192.066	373.651	209.395	191.088	194.809	195.640	200.681	298.740	199.089	-8191	255	
8724.440	1	1	0	0	0.1912	0.20335	0.26069	0.078668	0.054625	0.10224	0.25021	0.020997	0.055198	0.042321	0.08471	0.10073	0.23257	0.21879	0.24039	0.17921	-1.9146	-2.6708	-2.7438	-2.35	-2.5938	-2.7542	-2.675	-2.9229	-2.5563	-2.5292	-2.7208	-2.45	-2.8604	-2.55	-2.2938	-2.8729	346.203	359.633	439.213	239.344	203.381	419.401	402.759	458.503	427.783	443.742	285.450	260.888	373.787	422.121	526.660	458.895	0.00117	0.00024281	8.7045e-05	773.33	5.1691e-06	1.1129e-05	879.54	216.54	2.5336e-05	1.0704e-05	298.54	101.22	64.46	22.947	5.4198e-06	47.631	0.003415	0.0035903	0.00099343	908.26	3.9004e-05	3.9123e-05	1020.2	263.09	3.8783e-05	3.9603e-05	368.21	123.3	86.633	30.497	3.9379e-05	57.672	490.011	379.384	255.150	188.352	186.477	261.202	187.539	192.667	327.801	262.963	191.423	194.768	195.205	200.895	335.106	199.098	-8191	255	
8724.513	1	1	0	0	0.097651	0.040808	0.28799	0.15944	0.098061	0.1403	0.23655	0.085276	0.19939	0.12735	0.11122	0.39879	0.33436	0.23776	0.23814	0.05538	-2.1521	-2.5104	-2.7313	-2.5521	-2.8187	-2.6688	-2.5542	-3.0104	-2.375	-2.7062	-2.9917	-2.45	-2.6417	-2.85	-2.3854	-2.9542	300.827	275.008	177.719	489.697	181.509	176.339	520.916	351.526	407.449	355.763	524.509	463.896	529.177	412.062	515.010	205.368	0.00099006	0.00073039	0.00022595	779.91	1.138e-05	5.8429e-06	881.53	218.51	1.022e-05	6.371e-06	299.62	101.04	64.261	22.996	1.0052e-05	47.459	0.0034596	0.0036045	0.0010094	913.12	3.9546e-05	3.9841e-05	1020.2	265.03	3.9385e-05	3.9774e-05	369.66	123.56	86.431	30.529	3.9173e-05	57.717	476.470	397.144	215.401	188.589	509.987	225.676	187.751	192.445	344.666	301.275	191.059	194.933	195.497	200.999	495.390	199.019	-8191	255	
8724.632	1	1	0	0	0.19063	0.26615	0.10205	0.10005	0.16167	0.18178	0.18951	0.23393	0.15797	0.3515	0.18389	0.2553	0.27069	0.13441	0.11827	0.17705	-1.9875	-2.5125	-2.9271	-2.35	-2.3937	-2.5708	-2.6479	-2.8438	-2.5354	-2.5187	-2.925	-2.4979	-2.7792	-2.7604	-2.3854	-2.9	408.201	338.457	216.615	517.110	221.794	435.179	308.614	497.863	471.642	201.589	239.452	479.795	189.321	460.420	357.228	501.041	0.001085	0.00088706	0.00044257	776.35	3.2053e-06	7.8274e-06	878.6	216.81	1.0113e-05	7.0359e-06	300.19	101.07	63.953	23.14	4.3325e-06	47.474	0.0034521	0.0035977	0.001002	912.62	3.9305e-05	3.974e-05	1020.1	264.57	3.9035e-05	3.9411e-05	368.4	123.45	86.366	30.42	3.9063e-05	57.702	511.845	276.682	271.854	188.359	531.992	231.306	187.643	192.500	302.909	253.329	191.301	195.018	196.199	201.081	348.293	198.919	-8191	255	
8724.728	1	1	0	0	0.055008	0.24175	0.063531	0.16467	0.045076	0.12943	0.34805	0.096092	0.14153	0.33265	0.13944	0.27092	0.097622	0.11256	0.080303	0.29701	-2.0292	-2.3146	-2.6917	-2.5521	-2.6896	-2.7292	-2.4646	-2.9229	-2.6	-2.3333	-2.7083	-2.4729	-2.5125	-2.6917	-2.4	-2.7521	367.662	351.910	359.801	506.999	385.107	314.276	462.106	401.972	511.702	498.285	314.505	416.257	255.393	508.101	394.074	347.507	0.0012561	0.00084467	0.00041052	774.23	1.3264e-05	1.0034e-05	881.62	218.03	1.6598e-05	5.8408e-06	300.6	101.08	63.97	22.916	4.9115e-06	47.157	0.0034464	0.003601	0.0010042	911.35	3.9236e-05	3.9298e-05	1020	264.46	3.9149e-05	3.9712e-05	369.23	123.44	86.179	30.368	3.9347e-05	57.562	493.585	316.960	179.941	188.620	228.729	312.359	187.541	192.275	281.215	299.827	191.068	194.948	195.792	200.801	445.653	199.073	-8191	255	
8724.824	1	1	0	0	0.3274	0.19579	0.17847	0.078488	0.083381	0.046244	0.18394	0.17972	0.07733	0.31662	0.18103	0.079996	0.093239	0.43421	0.1614	0.29741	-2.1146	-2.4125	-2.9042	-2.4958	-2.5708	-2.8979	-2.5708	-2.8146	-2.5667	-2.4	-2.8812	-2.5062	-2.4083	-2.7771	-2.2938	-2.6125	207.037	389.864	377.049	526.491	279.021	205.648	413.994	409.115	531.280	417.294	524.674	234.275	219.438	511.938	251.084	470.558	0.0010514	0.0017778	0.00014207	776.2	6.3914e-06	7.7931e-06	881.21	217.01	4.0883e-06	9.6111e-06	298.74	100.4	63.421	23.146	1.0322e-05	47.09	0.0035018	0.0036507	0.0010162	915.12	3.9968e-05	4.0254e-05	1024.2	264.82	3.9785e-05	4.0405e-05	368.89	123.17	86.604	30.582	3.9998e-05	57.744	491.214	278.646	357.182	188.659	353.824	269.965	187.429	192.295	368.917	299.214	191.226	194.818	195.681	201.153	360.995	198.964	-8191	255	
8724.945	1	1	0	0	0.28614	0.064507	0.14797	0.10865	0.15668	0.093054	0.17413	0.14782	0.053212	0.24398	0.24734	0.11272	0.11478	0.14401	0.18828	0.38032	-2.2354	-2.425	-2.6271	-2.5563	-2.3	-2.9771	-2.2854	-2.6583	-2.6083	-2.3646	-2.8604	-2.7271	-2.65	-2.8458	-2.2604	-2.7375	286.965	415.623	236.164	188.078	483.615	309.164	420.152	496.607	258.142	381.841	485.881	496.693	280.560	520.820	445.755	505.818	0.0012119	0.00064686	0.0002298	774.16	5.0493e-06	1.4433e-06	885.27	218.36	3.8788e-06	9.7062e-06	301.55	101.18	63.907	23.113	2.1859e-06	47.543	0.0035462	0.0036634	0.0010248	915.18	3.9817e-05	4.002e-05	1024.3	265.55	3.9353e-05	3.9588e-05	368.97	123.68	86.282	30.541	3.8786e-05	57.752	505.053	370.834	428.133	188.291	345.017	457.959	187.576	192.521	244.970	242.241	191.062	195.141	195.819	201.234	437.142	198.950	-8191	255	
8725.041	1	1	0	0	0.20914	0.21794	0.11961	0.30577	0.13126	0.099457	0.29597	0.25832	0.20001	0.045705	0.154	0.27336	0.34251	0.15073	0.050473	0.061679	-2.1771	-2.2417	-2.5625	-2.5354	-2.2417	-2.9479	-2.5958	-2.4437	-2.425	-2.3187	-2.7729	-2.7333	-2.1729	-2.8125	-2.4521	-2.4958	438.702	326.030	461.354	532.476	499.463	267.237	400.697	178.344	346.540	382.849	436.730	502.584	377.064	449.528	345.853	466.004	0.0011728	0.00083865	0.00018973	775.16	6.4606e-06	1.6799e-05	885.58	217.72	8.7837e-06	5.9818e-06	301.25	102.17	64.078	23.185	8.2688e-06	47.93	0.0034119	0.0035295	0.00098513	910.67	3.8084e-05	3.8429e-05	1018.3	263.35	3.8074e-05	3.8287e-05	367.29	123.33	85.58	30.317	3.8266e-05	57.65	502.456	259.985	254.548	188.308	292.936	510.822	187.343	192.514	190.976	394.653	191.053	194.953	195.769	201.278	248.597	199.189	-8191	255	
8725.136	1	1	0	0	0.21645	0.14232	0.18753	0.17528	0.087074	0.22369	0.079303	0.0954	0.1668	0.086558	0.029073	0.066895	0.25161	0.23694	0.27694	0.26247	-2.3771	-2.2938	-2.425	-2.7833	-2.3	-2.7333	-2.5833	-2.5	-2.9542	-2.475	-2.6188	-2.7917	-2.175	-2.8042	-2.6021	-2.4875	434.161	287.298	338.717	512.184	424.606	236.802	475.946	516.878	470.590	443.292	454.916	288.524	475.186	505.871	187.470	458.859	0.00081884	0.0015882	6.9557e-05	772.16	1.2088e-05	8.106e-06	877.71	217.47	6.8454e-06	8.8634e-06	300.43	102.18	64.206	22.98	6.5909e-06	47.528	0.0033654	0.0035007	0.00097995	907.36	3.8034e-05	3.8511e-05	1017.7	263.53	3.845e-05	3.8715e-05	368.23	123.75	85.84	30.366	3.8439e-05	57.587	493.840	331.892	501.463	188.383	374.669	339.937	187.503	192.815	327.438	409.381	190.816	195.121	195.901	201.229	348.561	198.957	-8191	255	
8725.233	1	1	0	0	0.13688	0.22651	0.093007	0.10837	0.08146	0.21686	0.26239	0.097513	0.24192	0.24055	0.026724	0.060741	0.071379	0.15168	0.29041	0.15015	-2.0958	-2.3042	-2.5312	-2.7833	-2.3292	-2.5917	-2.4313	-2.4813	-2.7292	-2.2875	-2.5292	-2.7771	-2.3833	-2.7708	-2.5146	-2.5146	248.419	397.119	287.869	376.852	454.501	377.606	468.484	184.392	243.057	227.077	432.001	328.977	520.641	235.283	348.276	446.901	0.0011517	0.001285	0.00032294	770.78	1.2314e-05	1.0058e-05	878.64	217.44	6.751e-06	1.0296e-05	300.87	101.52	64.344	23.078	1.1552e-05	47.861	0.0033568	0.003471	0.00097577	904.68	3.743e-05	3.8062e-05	1013.1	261.94	3.749e-05	3.7906e-05	366.93	123.17	85.919	30.385	3.7745e-05	57.656	474.606	287.910	255.219	188.598	200.930	268.507	187.712	192.243	291.817	374.495	191.227	195.247	196.290	201.179	283.965	199.058	-8191	255	
8725.328	1	1	0	0	0.11912	0.14691	0.16733	0.10527	0.092643	0.13687	0.21189	0.2228	0.14491	0.10892	0.1258	0.27375	0.21738	0.22797	0.34221	0.19262	-2.3771	-2.3312	-2.7521	-2.7583	-2.4229	-2.5708	-2.7396	-2.5792	-2.8708	-2.3375	-2.575	-2.8125	-2.2938	-2.5104	-2.5583	-2.3292	497.565	228.038	309.546	529.590	454.171	239.431	230.835	510.524	475.327	232.410	519.658	493.520	467.921	314.993	376.525	370.856	0.0011191	0.00040192	0.00031142	771.7	6.7978e-06	4.3841e-06	884.31	218.51	5.5037e-06	1.9672e-05	304.23	102.36	64.271	23.339	6.2808e-06	48.085	0.0033252	0.003444	0.00096813	905.65	3.7273e-05	3.758e-05	1016.1	262.41	3.7157e-05	3.7369e-05	367.24	123.13	84.963	30.25	3.666e-05	57.442	499.785	473.081	225.581	188.413	505.022	322.409	187.608	192.642	332.642	192.585	191.195	194.994	195.530	200.979	284.161	198.878	-8191	255	
8725.424	1	1	0	0	0.15079	0.16967	0.17015	0.12266	0.093813	0.1429	0.0084245	0.2204	0.20473	0.12747	0.13944	0.40638	0.29515	0.16575	0.3888	0.019376	-2.3271	-2.3646	-2.3646	-2.8438	-2.4354	-2.575	-2.8542	-2.4542	-2.8646	-2.5812	-2.4042	-2.9208	-2.3729	-2.6312	-2.6583	-2.5646	202.360	529.966	335.683	475.195	438.692	187.838	223.388	422.539	306.142	208.673	515.586	498.494	194.269	470.611	291.287	296.917	0.0011391	0.00095163	0.0002631	779.19	4.2989e-06	6.8663e-06	884.66	217.67	7.5913e-06	1.2026e-05	303.16	102.19	64.259	23.209	5.8101e-06	47.767	0.003184	0.0033096	0.00091594	899.89	3.5526e-05	3.601e-05	1011.3	259.85	3.5964e-05	3.6381e-05	365.14	122.58	84.583	30.088	3.6756e-05	57.465	475.546	192.211	347.653	188.714	188.291	487.293	187.618	192.764	503.917	419.751	191.512	194.847	196.009	200.734	378.172	199.133	-8191	255	
8725.545	1	1	0	0	0.34366	0.1662	0.45417	0.18472	0.15002	0.15209	0.27948	0.13961	0.061115	0.041437	0.099754	0.19209	0.34826	0.24492	0.11972	0.098123	-2.2062	-2.5167	-2.2917	-2.7938	-2.4167	-2.6792	-2.6979	-2.3542	-2.5812	-2.4396	-2.3917	-2.7812	-2.35	-2.5271	-2.6813	-2.4271	269.373	180.714	342.755	511.867	406.556	239.768	524.485	396.198	510.362	319.495	333.420	503.521	528.363	198.296	340.223	302.904	0.0011112	0.00099893	0.0002015	775.99	9.5433e-06	9.1524e-06	887	219.58	7.7303e-06	9.8956e-06	300.85	101.11	64.012	23.003	2.9203e-06	47.553	0.0032567	0.0034237	0.00096205	908.02	3.7633e-05	3.854e-05	1023.4	264.04	3.853e-05	3.9122e-05	369.66	123.38	86.412	30.515	3.9129e-05	57.691	510.368	358.074	192.157	188.343	512.843	331.533	187.483	192.632	441.262	509.171	191.453	194.882	195.624	201.371	438.664	199.120	-8191	255	
8725.641	1	1	0	0	0.16065	0.17619	0.14472	0.15271	0.1612	0.11343	0.20901	0.35046	0.18175	0.077415	0.15872	0.21657	0.14983	0.23431	0.13799	0.25925	-2.2708	-2.3958	-2.3729	-2.8771	-2.6	-2.6875	-2.8604	-2.1771	-2.4375	-2.5083	-2.3	-2.7771	-2.5563	-2.6104	-2.7958	-2.4188	314.732	308.192	266.747	523.942	215.289	281.659	212.684	486.916	396.588	377.536	516.410	437.401	183.214	183.910	207.016	531.575	0.0010675	0.00069748	0.00011406	777.8	1.0396e-05	1.6887e-05	885.93	218.77	1.665e-05	6.5602e-06	302.57	101.09	63.68	23.212	1.0517e-05	47.348	0.0034233	0.0035704	0.00099024	915.47	3.857e-05	3.9103e-05	1024.6	264.76	3.8931e-05	3.9147e-05	369.28	123.23	86.27	30.697	3.9543e-05	57.679	475.787	223.145	294.680	188.665	265.912	223.213	187.682	192.838	176.181	269.169	191.459	195.015	195.323	201.387	474.189	198.788	-8191	255	
8725.737	1	1	0	0	0.31583	0.12256	0.27661	0.045029	0.14875	0.094411	0.060645	0.15537	0.069869	0.19962	0.13595	0.24584	0.20492	0.21279	0.05317	0.11019	-2.1229	-2.625	-2.35	-2.8604	-2.6396	-2.3187	-3.0167	-2.5979	-2.5667	-2.6396	-2.2979	-2.7667	-2.7104	-2.4437	-2.6562	-2.3667	272.202	301.083	190.291	175.873	391.848	305.992	475.254	247.432	238.078	275.350	381.221	502.859	493.915	215.676	210.356	250.406	0.0010801	0.0016105	0.00029703	785.13	5.7081e-06	5.673e-06	889.31	219.25	1.471e-05	1.1607e-05	299.91	100.03	63.649	23.163	9.5678e-06	47.1	0.0035101	0.0036609	0.001014	925.29	4.0001e-05	4.0429e-05	1033.8	267.36	4.0537e-05	4.0962e-05	371.57	123.49	86.928	30.862	4.1144e-05	57.784	493.537	339.247	460.652	188.495	177.485	338.942	187.706	192.341	424.320	355.921	191.203	194.882	195.479	200.711	530.635	198.997	-8191	255	
8725.809	1	1	0	0	0.24974	0.21236	0.38171	0.21707	0.09409	0.27875	0.066991	0.094215	0.098853	0.050732	0.14434	0.24629	0.29139	0.17786	0.12301	0.061923	-2.0812	-2.8125	-2.5104	-2.8292	-2.5708	-2.3646	-2.8604	-2.5771	-2.6729	-2.8417	-2.3042	-2.8125	-2.7	-2.3958	-2.9333	-2.3604	279.486	174.567	335.024	513.099	450.694	399.062	431.353	231.023	181.603	469.397	428.554	443.458	190.479	415.666	492.807	432.719	0.00093759	0.00077527	0.00023196	780.66	8.7138e-06	2.3876e-06	886.73	218.73	1.1347e-05	1.6665e-05	299.14	99.313	63.426	22.771	7.4586e-06	46.689	0.0036525	0.0038005	0.0010542	926.32	4.1107e-05	4.153e-05	1036	267.48	4.1173e-05	4.1475e-05	371.48	122.94	86.578	30.566	4.0801e-05	57.035	498.982	325.051	228.507	188.505	299.879	366.460	187.590	192.187	351.684	237.565	191.276	194.961	195.652	201.114	479.253	198.839	-8191	255	
8725.929	1	1	0	0	0.17268	0.014014	0.073554	0.25241	0.082253	0.05075	0.031424	0.15144	0.2443	0.33044	0.28608	0.14847	0.11375	0.1382	0.033678	0.34086	-2.2021	-2.6479	-2.4	-2.7812	-2.5771	-2.4771	-3.0083	-2.45	-2.4917	-2.9437	-2.3167	-2.7438	-2.7542	-2.3542	-2.9458	-2.5625	493.639	212.252	373.247	197.625	316.439	219.293	287.807	485.680	216.941	440.702	501.423	498.390	193.329	185.039	250.824	433.836	0.0012738	0.00055553	2.337e-05	779.61	3.7034e-06	1.4885e-05	885.26	217.2	1.6272e-05	1.9622e-05	296.41	98.118	63.005	22.465	7.2421e-06	46.029	0.0035636	0.0036866	0.0010253	919.83	4.0149e-05	4.0355e-05	1026.4	264.26	3.977e-05	4.0064e-05	365.97	121.1	84.925	30.033	3.9602e-05	56.301	465.481	307.942	347.258	188.544	299.882	338.708	187.442	192.606	305.839	271.359	191.163	194.513	195.373	201.035	504.580	198.840	-8191	255	
8726.025	1	1	0	0	0.3689	0.18006	0.01969	0.070652	0.058936	0.11402	0.18113	0.038844	0.29518	0.056572	0.18503	0.16514	0.065209	0.20283	0.2763	0.27232	-1.9729	-2.8854	-2.2771	-2.775	-2.8708	-2.4313	-2.95	-2.4875	-2.4938	-2.8667	-2.4146	-2.5833	-2.8104	-2.3688	-2.8083	-2.8729	498.877	388.129	251.185	215.938	350.354	279.618	189.641	216.719	220.089	320.535	465.309	412.749	420.025	221.890	177.960	482.049	0.0013581	0.00022884	0.00014624	769.43	5.8175e-06	9.616e-06	876.51	217.67	8.349e-06	9.3971e-06	296.56	97.151	62.027	22.55	5.1327e-06	45.655	0.0034852	0.0036066	0.0010018	911.52	3.9453e-05	3.9584e-05	1021.1	263.17	3.9428e-05	3.972e-05	365.18	120.08	84.819	29.979	3.9792e-05	56.08	469.948	375.728	430.824	188.452	207.225	418.202	187.460	192.064	352.212	379.383	191.106	195.363	195.701	201.173	262.671	199.016	-8191	255	
8726.122	1	1	0	0	0.24556	0.048736	0.1318	0.12165	0.22058	0.20194	0.22366	0.1825	0.38502	0.095197	0.33059	0.32217	0.05558	0.12882	0.15335	0.45792	-1.8667	-2.7687	-2.3458	-2.5417	-2.6583	-2.2771	-2.8104	-2.6646	-2.2562	-2.8187	-2.5625	-2.7729	-2.9313	-2.2667	-2.7521	-2.5917	330.524	432.786	361.167	352.233	342.204	319.072	429.762	381.275	178.614	261.870	517.822	451.363	381.430	482.526	290.417	421.550	0.0012933	0.0010058	0.00017486	773.9	1.7895e-05	8.6628e-06	876.59	215	1.2149e-05	1.9055e-05	293.16	96.733	61.91	22.357	1.8298e-06	45.438	0.0034876	0.0036403	0.0010123	914.37	3.9785e-05	3.9649e-05	1021.9	262.75	3.9669e-05	4.0121e-05	364.09	119.9	84.708	29.819	4.0286e-05	55.832	496.149	346.915	369.359	188.564	417.942	362.843	187.290	192.183	316.053	339.072	191.175	194.947	195.517	201.143	442.946	198.815	-8191	255	
8726.218	1	1	0	0	0.18105	0.23689	0.066469	0.28728	0.03191	0.1036	0.22939	0.13957	0.26523	0.10247	0.17891	0.22001	0.20383	0.07472	0.15086	0.19246	-1.7771	-2.7167	-2.3667	-2.5521	-2.6604	-2.3917	-2.7292	-2.9042	-2.2313	-2.6562	-2.5646	-2.4833	-2.8604	-2.4375	-2.3438	-2.8542	302.305	281.905	356.517	476.094	482.274	210.535	519.421	436.731	488.243	355.302	424.547	181.884	500.481	448.185	340.230	529.608	0.0008108	0.00042012	0.00040844	774.03	3.053e-06	7.0235e-06	885.02	214.56	1.0666e-05	1.6393e-05	293.97	96.642	61.69	22.146	9.0315e-06	45.578	0.003517	0.0036902	0.0010251	915.25	4.0271e-05	4.0688e-05	1030	263.82	4.0697e-05	4.1212e-05	366.54	120.3	84.988	29.929	4.1082e-05	56.173	482.158	223.128	267.882	188.352	182.672	224.691	187.616	192.512	491.146	346.969	190.971	195.022	195.571	200.880	299.660	198.910	-8191	255	
8726.314	1	1	0	0	0.037595	0.12565	0.13312	0.097916	0.12149	0.15218	0.079243	0.19103	0.12104	0.039427	0.025517	0.19542	0.309	0.30548	0.23117	0.16952	-1.9562	-2.5646	-2.4813	-2.5208	-2.775	-2.5479	-2.75	-2.9042	-2.3104	-2.6896	-2.7792	-2.3229	-2.8896	-2.6688	-2.5542	-2.6333	498.724	418.693	442.565	500.425	491.287	477.088	495.130	407.298	290.665	304.487	249.482	465.287	218.881	444.963	219.661	341.863	0.00077933	0.0016309	0.00011807	771.31	1.1889e-05	7.8483e-06	883.22	215.86	1.1194e-05	9.9084e-06	294.47	96.54	61.924	22.396	1.7539e-05	45.488	0.0035826	0.0037528	0.0010446	919.34	4.0848e-05	4.0938e-05	1030	265.37	4.0911e-05	4.1744e-05	368	120.67	86.161	30.445	4.2611e-05	56.63	483.971	239.246	383.148	188.620	506.106	338.577	187.496	192.437	307.565	376.876	191.141	194.891	195.880	201.053	228.370	198.836	-8191	255	
8726.408	1	1	0	0	0.13507	0.21292	0.164	0.096185	0.079069	0.14434	0.027832	0.3391	0.064434	0.15402	0.21732	0.13335	0.01309	0.14517	0.025456	0.098055	-1.9604	-2.625	-2.6208	-2.5521	-2.8875	-2.5146	-2.6729	-2.8917	-2.375	-2.6688	-2.5771	-2.5396	-2.9417	-2.6167	-2.5896	-2.8021	328.468	467.892	239.501	236.581	371.061	330.962	442.660	494.313	493.535	498.584	420.357	504.510	240.718	354.539	344.837	209.591	0.00077858	2.6182e-05	0.00033601	782.99	1.523e-05	6.7398e-06	887.78	220.46	5.5272e-06	1.3395e-05	295.01	97.018	62.798	22.591	6.2733e-06	45.467	0.0037446	0.0039502	0.0011056	937.7	4.3567e-05	4.3976e-05	1047.7	272.98	4.4039e-05	4.5194e-05	376.04	122.71	88.582	31.203	4.4997e-05	57.412	494.112	368.986	244.018	188.283	244.006	497.673	187.306	192.405	333.127	334.153	191.010	195.033	195.406	201.266	302.502	199.050	-8191	255	
8726.506	1	1	0	0	0.25721	0.17205	0.076922	0.30231	0.14141	0.10695	0.11866	0.068545	0.11491	0.25648	0.14953	0.10672	0.30041	0.1422	0.06645	0.068667	-1.8833	-2.4938	-2.6292	-2.3354	-2.7708	-2.4875	-2.5312	-2.8271	-2.3042	-2.6583	-2.8042	-2.5125	-2.7708	-2.5271	-2.6292	-2.8708	388.719	321.222	191.237	471.515	329.279	404.372	420.897	199.251	416.219	274.227	481.588	240.107	504.468	497.128	372.534	518.670	0.0012433	0.0011318	0.00028087	787.82	1.011e-05	3.5107e-06	892.3	219.44	8.7706e-06	1.3477e-05	295.64	96.761	62.791	22.662	3.4639e-06	45.684	0.0039097	0.004096	0.0011425	944.39	4.402e-05	4.4528e-05	1051.1	272.24	4.3794e-05	4.4512e-05	375.11	122.42	87.806	31.053	4.3806e-05	57.208	480.754	331.009	302.951	188.430	323.144	389.545	187.685	192.414	196.527	396.069	191.287	195.036	195.770	200.720	469.689	198.914	-8191	255	
8726.625	1	1	0	0	0.1413	0.27236	0.097775	0.26149	0.1506	0.016346	0.1132	0.11426	0.18108	0.10114	0.035434	0.14817	0.17347	0.10489	0.24836	0.13764	-2.0729	-2.5812	-2.6937	-2.4521	-2.6042	-2.5104	-2.3125	-2.8542	-2.3104	-2.5	-2.8542	-2.3	-2.6063	-2.6771	-2.3604	-2.7667	425.601	398.966	197.034	494.084	300.251	401.990	354.132	445.234	422.774	186.887	447.745	487.574	497.757	186.185	324.753	467.871	0.00075785	0.00086391	8.8727e-05	788.8	5.2139e-06	1.7711e-05	890.45	218.94	7.301e-06	1.5454e-05	297.78	97.937	63.072	22.782	1.553e-05	46.081	0.0038368	0.0040503	0.0011243	941.5	4.3694e-05	4.4011e-05	1050.4	271.84	4.3326e-05	4.424e-05	375.84	122.86	88.064	31.011	4.3506e-05	57.4	495.364	232.351	246.687	188.369	527.753	293.138	187.463	191.853	298.527	333.735	191.224	194.901	195.550	200.927	330.332	198.494	-8191	255	
8726.721	1	1	0	0	0.14021	0.11069	0.097718	0.080839	0.16325	0.12896	0.092444	0.074219	0.18611	0.12338	0.20537	0.09432	0.10982	0.075725	0.12688	0.36573	-2.3208	-2.4167	-2.5708	-2.3625	-2.7917	-2.725	-2.5146	-2.8375	-2.3604	-2.4396	-2.7708	-2.475	-2.4458	-2.6562	-2.3125	-2.7354	366.482	457.665	403.374	191.916	519.389	531.399	339.491	358.949	267.516	410.216	382.645	447.678	357.962	533.880	363.964	525.049	0.00081384	0.001107	0.00032116	787.53	7.5978e-07	1.6895e-05	890.6	220.49	2.2737e-05	1.3085e-05	298.5	98.715	63.109	22.93	9.5387e-06	46.288	0.0037729	0.0039363	0.0010897	937.73	4.2366e-05	4.2762e-05	1041.7	270.42	4.2251e-05	4.2827e-05	372.83	122.3	87.39	30.856	4.2117e-05	57.299	502.316	312.720	253.500	188.407	396.432	495.884	187.691	192.319	402.705	285.519	191.105	194.688	195.271	200.977	380.126	198.779	-8191	255	
8726.817	1	1	0	0	0.068113	0.34343	0.095792	0.27948	0.095093	0.38088	0.31032	0.17144	0.06222	0.21705	0.025654	0.12161	0.12691	0.32249	0.14663	0.28951	-2.0479	-2.4146	-2.8333	-2.3937	-2.5396	-2.7917	-2.4833	-2.9	-2.4313	-2.5229	-2.9271	-2.3521	-2.5438	-2.8063	-2.1396	-2.6792	500.416	210.723	534.172	435.664	315.456	268.102	231.532	274.922	418.700	210.156	188.303	180.807	281.961	491.685	320.351	528.393	0.0011208	0.0012255	0.00044603	791.59	6.0118e-06	9.304e-06	890.5	220.36	4.9948e-06	9.5712e-06	297.67	98.173	63.293	23.061	1.1223e-05	46.485	0.0037095	0.0038906	0.0010802	938.75	4.2412e-05	4.2769e-05	1044.9	271.57	4.251e-05	4.3114e-05	373.86	122.81	87.925	31.07	4.2109e-05	57.393	480.084	313.181	270.981	188.635	455.211	315.390	187.489	192.262	422.569	457.349	190.814	194.950	195.855	201.136	184.195	198.919	-8191	255	
8726.913	1	1	0	0	0.13781	0.093097	0.22326	0.21516	0.10338	0.054254	0.28468	0.088889	0.068526	0.013941	0.22053	0.1094	0.20807	0.40424	0.077879	0.18509	-2.0375	-2.1688	-2.55	-2.5292	-2.4437	-2.8	-2.2667	-2.7021	-2.5167	-2.2812	-2.725	-2.4021	-2.4458	-2.9542	-2.2896	-2.7229	493.952	308.109	252.223	219.538	226.982	514.281	498.904	205.152	472.809	202.225	187.892	384.871	238.929	457.239	518.485	466.344	0.00062829	0.00069107	0.00029615	791.23	5.1108e-06	5.7912e-06	899.12	220.93	8.177e-06	2.8873e-06	301.02	97.885	63.67	22.986	5.429e-06	46.33	0.0036791	0.0038267	0.0010589	935.58	4.1504e-05	4.1844e-05	1043.5	271.09	4.1758e-05	4.2163e-05	374.43	122.51	87.43	30.977	4.193e-05	57.466	482.799	430.062	353.773	188.467	231.000	438.876	187.554	192.638	372.808	314.210	191.344	194.881	195.565	200.959	387.219	198.583	-8191	255	
8727.034	1	1	0	0	0.050274	0.1854	0.2009	0.077786	0.24252	0.10365	0.13907	0.31099	0.22361	0.11495	0.075012	0.23025	0.12494	0.27693	0.079413	0.36013	-2.3312	-2.3563	-2.7104	-2.675	-2.5104	-2.7542	-2.5625	-2.8292	-2.6792	-2.4646	-2.9458	-2.4958	-2.3125	-2.7708	-2.5125	-2.7667	531.702	476.266	189.513	175.788	177.656	369.929	205.027	435.826	515.901	501.902	442.148	179.920	356.739	256.332	175.008	479.923	0.0010188	0.0011018	0.00033218	796.54	1.3543e-05	6.5339e-07	896.84	222.54	9.706e-06	7.0251e-06	299.98	98.469	63.523	22.926	1.1066e-05	46.337	0.0037362	0.0039033	0.0010852	944.42	4.2656e-05	4.2743e-05	1051.2	273.92	4.3095e-05	4.3374e-05	377.23	123.22	88.432	31.137	4.3083e-05	57.677	491.898	192.138	280.056	188.737	239.955	329.038	187.873	192.432	394.412	297.405	191.191	194.790	195.503	200.759	339.798	199.018	-8191	255	
8727.106	1	1	0	0	0.14095	0.0944	0.079729	0.045968	0.29111	0.12899	0.016956	0.13925	0.18062	0.14859	0.16808	0.12739	0.19033	0.14684	0.20774	0.24232	-2.225	-2.3438	-2.5083	-2.8104	-2.3604	-2.9062	-2.5333	-2.6271	-2.7479	-2.3167	-2.8917	-2.725	-2.4333	-2.8583	-2.25	-2.5062	393.573	473.833	211.898	275.901	184.442	501.321	439.102	419.206	491.288	532.985	343.204	424.512	177.583	421.756	294.262	511.682	0.0007815	0.00062936	0.00023257	794.7	4.8021e-06	5.5097e-06	893.34	220.67	1.3452e-05	9.8184e-06	300.89	98.632	64.464	23.057	1.4135e-05	46.325	0.0037927	0.0039173	0.0010916	943.34	4.228e-05	4.2327e-05	1045.8	271.8	4.2063e-05	4.2094e-05	374.6	122.53	87.795	31.012	4.194e-05	57.457	488.513	375.675	528.193	188.525	247.213	508.881	187.340	192.469	360.428	305.790	191.114	195.254	195.481	200.807	212.338	198.847	-8191	255	
8727.226	1	1	0	0	0.15222	0.19178	0.02413	0.28982	0.16405	0.31768	0.040164	0.12784	0.070005	0.075885	0.26113	0.034883	0.27276	0.11758	0.13492	0.066704	-2.4	-2.3563	-2.4875	-2.8125	-2.3104	-2.75	-2.5375	-2.4437	-2.7917	-2.2542	-2.7917	-2.8729	-2.3063	-2.9292	-2.6396	-2.5979	471.450	310.734	459.354	528.950	367.596	180.849	356.573	444.404	197.049	403.072	181.665	430.119	510.485	451.778	401.189	479.444	0.0012889	0.00076356	0.0002856	793.85	8.4805e-06	8.0716e-07	897.47	222.04	7.0233e-06	1.7395e-06	299.86	98.983	63.994	23.23	1.9077e-05	46.795	0.0036842	0.0038027	0.0010656	938.74	4.1201e-05	4.1464e-05	1044.2	271.48	4.1146e-05	4.1036e-05	373.52	122.64	87.245	30.904	4.0596e-05	57.543	492.688	409.043	328.097	188.507	296.815	442.928	187.551	192.387	256.161	302.561	191.281	195.113	195.789	201.239	261.779	198.832	-8191	255	
8727.321	1	1	0	0	0.04306	0.089542	0.097764	0.43303	0.16808	0.12387	0.040599	0.12972	0.070575	0.26509	0.13426	0.27557	0.29741	0.13398	0.1507	0.25929	-2.4354	-2.4354	-2.6479	-2.7188	-2.4604	-2.8104	-2.5271	-2.5854	-2.8333	-2.4375	-2.6729	-2.9	-2.2583	-2.725	-2.7375	-2.4562	207.709	351.875	314.766	498.947	375.915	299.584	381.911	443.998	322.925	203.956	429.994	466.083	494.126	244.948	402.798	194.170	0.0016728	0.0014789	9.8414e-05	793.53	5.9379e-06	1.3125e-05	892.5	221.63	1.5017e-05	1.5369e-05	301.18	99.873	63.989	23.212	4.3352e-06	47.178	0.0035537	0.0036886	0.001035	933.09	4.0253e-05	4.0578e-05	1039.4	268.82	3.9561e-05	3.9773e-05	370.83	122.17	86.499	30.654	3.933e-05	57.406	497.045	193.315	306.377	188.425	379.012	288.299	187.505	192.104	250.902	377.096	191.024	194.832	195.640	201.048	347.758	198.594	-8191	255	
8727.417	1	1	0	0	0.26488	0.041003	0.045116	0.16135	0.13003	0.1919	0.065854	0.0047028	0.23172	0.11003	0.1501	0.091696	0.14383	0.23421	0.14053	0.15413	-2.3396	-2.4292	-2.5083	-2.8375	-2.2833	-2.8229	-2.6708	-2.4542	-2.9292	-2.4896	-2.7604	-2.9479	-2.1813	-2.775	-2.5625	-2.4437	452.834	406.602	393.487	195.044	321.704	358.654	510.357	179.088	208.231	225.624	178.476	498.557	195.214	469.946	260.223	445.244	0.0010554	0.0012005	0.00049696	789.07	9.3369e-06	3.9677e-06	897.94	222.3	1.445e-05	6.197e-06	301.42	100.22	64.52	23.211	1.0888e-05	47.304	0.0034307	0.0035549	0.0009862	923.33	3.7908e-05	3.8193e-05	1032.6	266.44	3.7358e-05	3.7762e-05	367.6	121.35	85.392	30.277	3.7237e-05	56.936	485.265	291.754	201.355	188.261	235.874	319.715	187.586	192.143	302.992	250.374	191.163	195.212	195.911	201.266	290.775	198.904	-8191	255	
8727.513	1	1	0	0	0.15199	0.2002	0.22345	0.060347	0.10382	0.19233	0.23947	0.12836	0.16673	0.10677	0.075763	0.14637	0.12005	0.06881	0.15674	0.051536	-2.3229	-2.3563	-2.7708	-2.9125	-2.4938	-2.7938	-2.8312	-2.425	-2.5417	-2.5187	-2.3688	-3.0229	-2.3958	-2.775	-2.8292	-2.3083	521.818	501.241	357.685	527.056	231.604	492.438	531.836	525.073	499.136	330.344	398.564	389.565	277.336	414.076	464.986	333.781	0.0011485	0.00059945	0.00013745	789.76	1.3423e-05	5.1666e-06	894.95	222.15	6.791e-06	1.2558e-05	302.65	100.75	64.711	23.261	1.0757e-05	47.265	0.0032502	0.0034005	0.00094425	916.17	3.664e-05	3.7174e-05	1025.7	264.79	3.7031e-05	3.7377e-05	367.02	121.63	85.33	30.411	3.7227e-05	57.094	497.155	513.800	445.976	188.413	377.568	196.198	187.626	192.278	253.842	360.872	191.485	194.833	195.825	201.105	408.985	198.674	-8191	255	
8727.634	1	1	0	0	0.064956	0.16093	0.13724	0.21832	0.11203	0.12945	0.13911	0.24617	0.12718	0.055168	0.35434	0.29918	0.30749	0.20918	0.023171	0.30207	-2.3208	-2.5146	-2.4083	-2.9021	-2.2896	-2.6729	-2.75	-2.4562	-2.7833	-2.7354	-2.5583	-2.7792	-2.5292	-2.8187	-2.7021	-2.4688	264.608	350.712	246.679	461.659	329.476	507.350	490.003	462.478	410.709	524.757	485.721	482.716	195.570	453.680	223.774	473.109	0.00084783	0.00059795	0.00024217	790.07	5.6727e-06	1.5675e-05	895.35	222.31	2.0684e-05	8.6961e-06	304.17	101.83	64.142	23.338	1.8017e-05	47.571	0.0032738	0.003404	0.00095303	919.76	3.7037e-05	3.7638e-05	1028.2	265.62	3.735e-05	3.7812e-05	368.81	122.36	85.508	30.564	3.7818e-05	57.31	477.026	269.262	324.200	188.276	296.206	385.190	187.453	192.221	305.279	298.267	191.580	194.641	196.062	200.949	436.193	198.997	-8191	255	
8727.705	1	1	0	0	0.028055	0.14434	0.069719	0.37507	0.25595	0.20611	0.19209	0.36332	0.11517	0.18921	0.20169	0.18891	0.33674	0.095618	0.048028	0.17896	-2.2667	-2.6	-2.3958	-3.0042	-2.4667	-2.6312	-2.95	-2.65	-2.6729	-2.6896	-2.4208	-2.8521	-2.4104	-2.5979	-2.6729	-2.4792	479.622	225.441	507.500	488.889	461.981	248.812	454.895	425.358	519.364	516.625	485.094	293.797	485.576	532.631	333.418	532.287	0.0012714	0.0020029	0.00029681	789.99	8.545e-06	6.151e-06	897.3	221.53	4.4306e-06	7.423e-06	301.99	100.87	64.267	23.354	2.7548e-06	47.521	0.0033486	0.0034819	0.0009663	921.32	3.7639e-05	3.8007e-05	1030.6	265.87	3.7777e-05	3.8254e-05	369.11	122.47	85.98	30.465	3.7724e-05	57.369	476.327	254.750	394.415	188.162	508.779	447.070	187.735	192.436	415.050	386.219	191.248	195.261	195.644	200.930	182.424	198.983	-8191	255	
8727.802	1	1	0	0	0.050552	0.11431	0.35385	0.11823	0.16106	0.06634	0.18698	0.015231	0.19206	0.064385	0.12963	0.24397	0.12835	0.19749	0.055072	0.04371	-2.1271	-2.7833	-2.3646	-2.8021	-2.475	-2.6771	-2.8417	-2.6833	-2.75	-2.7042	-2.3646	-2.9458	-2.6188	-2.5062	-2.9208	-2.4042	431.730	397.720	441.646	452.919	246.164	337.645	473.979	367.556	182.140	531.960	245.211	436.328	182.337	184.100	230.720	519.909	0.0012396	0.0003565	0.00036872	789.45	6.1386e-06	1.3636e-05	897.68	221.94	8.6811e-06	9.3878e-06	303.37	101.01	64.869	23.418	6.704e-06	47.605	0.0033513	0.0034575	0.00095834	919.42	3.7513e-05	3.8119e-05	1031.2	265.81	3.7447e-05	3.7788e-05	368.4	122.39	86.072	30.474	3.7533e-05	57.292	515.771	404.969	202.070	188.530	313.033	240.657	187.569	191.628	204.091	387.227	191.389	194.679	195.352	200.824	197.743	199.321	-8191	255	
8727.898	1	1	0	0	0.18293	0.068117	0.191	0.17418	0.058252	0.16051	0.14495	0.20648	0.34632	0.26463	0.18262	0.22696	0.17432	0.16189	0.06238	0.19459	-2.1604	-2.6917	-2.2271	-2.7396	-2.4229	-2.5417	-2.8979	-2.5271	-2.5729	-2.8458	-2.4813	-2.8812	-2.8292	-2.3833	-2.7542	-2.4625	328.134	528.546	300.282	362.916	223.238	234.560	425.211	385.393	521.241	459.153	457.971	472.244	197.176	214.583	252.866	438.502	0.00081221	0.0019721	0.00019551	789.96	9.8329e-06	5.241e-06	899.06	222.02	1.4299e-05	3.4674e-06	302.45	100.88	64.53	23.257	1.9306e-05	47.558	0.0033233	0.003429	0.0009525	920.85	3.7633e-05	3.7959e-05	1030.9	266.73	3.8207e-05	3.8583e-05	370.06	122.93	86.618	30.736	3.9048e-05	57.619	518.288	220.360	403.369	188.278	311.461	373.748	187.557	192.442	367.604	401.052	191.080	194.864	195.634	200.896	325.743	198.866	-8191	255	
8727.994	1	1	0	0	0.18624	0.091707	0.20397	0.28493	0.34008	0.096259	0.090983	0.075	0.11279	0.2461	0.062278	0.032189	0.15594	0.16741	0.13516	0.13567	-2.0479	-2.875	-2.2812	-2.7271	-2.5271	-2.0646	-3.0021	-2.5667	-2.4833	-2.8	-2.7	-2.6958	-2.6979	-2.4062	-2.8417	-2.6937	218.021	349.067	494.305	530.205	467.190	512.221	512.818	366.482	461.759	373.527	242.827	520.367	434.777	406.962	248.747	452.701	0.00095593	0.0012493	0.0004082	793.59	8.026e-06	5.6232e-06	897.63	223.97	5.8201e-06	7.0497e-06	305.53	100.4	64.539	23.303	1.0151e-05	47.483	0.0034799	0.0036252	0.0010076	935.06	3.9795e-05	4.0399e-05	1046	271.48	4.0857e-05	4.1307e-05	375.78	124.01	88.152	31.155	4.1546e-05	58.053	482.437	323.709	256.716	188.648	427.791	211.679	187.402	192.398	515.651	263.788	191.465	194.665	196.097	200.677	272.753	198.856	-8191	255	
8728.114	1	1	0	0	0.22314	0.084	0.25274	0.055001	0.13502	0.31754	0.055857	0.17669	0.26503	0.079773	0.172	0.23466	0.20079	0.06452	0.29737	0.18794	-1.8062	-2.7396	-2.3833	-2.6354	-2.5958	-2.3521	-2.8542	-2.4938	-2.3271	-2.7313	-2.6771	-2.6562	-2.75	-2.2417	-2.7104	-2.6583	497.922	528.419	481.746	250.162	515.008	519.592	526.068	196.582	185.604	515.587	532.087	445.657	347.955	341.616	378.780	447.095	0.0012705	0.00044462	0.00027605	788.8	8.8692e-06	1.5164e-05	897.78	224.82	7.5908e-06	1.6795e-05	301.98	99.979	64.522	23.098	1.0012e-05	47.148	0.0036568	0.0037731	0.0010507	940.01	4.1123e-05	4.1258e-05	1048.4	272.18	4.1023e-05	4.1182e-05	374.92	123.59	87.629	30.95	4.1062e-05	57.965	498.709	384.353	509.659	188.437	186.527	389.326	187.579	192.430	220.665	331.917	191.271	194.715	195.422	200.655	278.412	199.228	-8191	255	
8728.209	1	1	0	0	0.1969	0.083787	0.10114	0.38998	0.12559	0.08672	0.182	0.20148	0.20466	0.3102	0.40735	0.30881	0.11335	0.090154	0.055036	0.28171	-1.9542	-2.7125	-2.4229	-2.6896	-2.6958	-2.25	-2.7958	-2.675	-2.4021	-3.0271	-2.5479	-2.5646	-2.7687	-2.3792	-2.5604	-2.7042	331.527	424.850	309.225	175.889	453.832	239.548	368.268	493.662	395.460	187.762	500.566	524.986	512.059	174.805	232.880	526.819	0.0013227	0.0010157	0.00029328	793.74	8.6164e-06	8.1036e-06	900.05	222.42	1.6666e-05	7.6067e-06	304.66	99.653	64.156	23.202	1.2885e-05	47.205	0.0036087	0.0037495	0.0010376	940.14	4.06e-05	4.0575e-05	1046.5	270.9	4.0285e-05	4.0697e-05	374.15	123.06	87.175	30.864	4.099e-05	57.669	491.008	332.502	437.513	188.627	307.053	285.166	187.522	192.209	368.863	245.865	191.032	194.984	195.450	200.541	333.654	199.075	-8191	255	
8728.307	1	1	0	0	0.067092	0.18656	0.15708	0.15278	0.1475	0.18871	0.084004	0.32581	0.22573	0.13673	0.14844	0.1198	0.34059	0.050462	0.11292	0.18494	-1.8958	-2.7188	-2.5729	-2.4146	-2.9167	-2.2875	-2.8208	-2.8688	-2.5479	-2.7167	-2.5708	-2.7812	-2.9792	-2.3833	-2.5208	-2.7708	480.923	204.516	326.179	448.714	426.506	277.647	422.154	504.578	519.913	184.567	521.635	219.414	195.304	433.603	286.410	457.381	0.0008467	0.00090026	0.00025403	795.39	4.3668e-06	9.4402e-06	898.19	223.5	7.7945e-06	8.4131e-06	303.78	99.474	64.653	23.335	7.4182e-06	47.012	0.0035807	0.003743	0.0010496	940.42	4.1223e-05	4.1574e-05	1052.2	274.04	4.2124e-05	4.3137e-05	380.13	124.58	89.163	31.545	4.3907e-05	58.462	490.718	500.859	257.685	188.555	283.197	284.971	187.523	192.385	523.336	297.809	191.314	195.144	195.171	201.084	220.819	198.837	-8191	255	
8728.401	1	1	0	0	0.24987	0.14889	0.06805	0.12423	0.07305	0.18551	0.40472	0.434	0.16068	0.20446	0.25746	0.1768	0.29648	0.36333	0.041148	0.21151	-1.9333	-2.7938	-2.6875	-2.5229	-2.8208	-2.6292	-2.8146	-2.8792	-2.3729	-2.9479	-2.7062	-2.5521	-2.9333	-2.4583	-2.7542	-2.9125	289.623	432.359	454.910	468.672	351.163	365.573	419.680	475.541	410.078	188.367	459.604	339.363	218.711	435.355	339.576	178.673	0.0011463	0.0012675	0.00013289	793.69	1.332e-05	9.7349e-06	902.69	223.65	1.9346e-05	8.1037e-06	305.05	99.508	64.548	23.234	1.6962e-05	46.953	0.0038245	0.0040284	0.001122	950.59	4.3496e-05	4.3717e-05	1062.6	276.08	4.3363e-05	4.4035e-05	380.87	124.54	89.062	31.404	4.3352e-05	58.255	497.886	213.220	175.465	188.492	293.238	361.271	187.688	192.212	287.610	247.818	191.056	194.710	195.641	201.040	264.217	198.917	-8191	255	
8728.497	1	1	0	0	0.16201	0.048988	0.14621	0.32532	0.19091	0.099761	0.1615	0.25886	0.13743	0.11567	0.10078	0.34994	0.12934	0.34967	0.035612	0.26937	-1.9729	-2.7271	-2.5583	-2.5792	-2.825	-2.3792	-2.5375	-2.7396	-2.4417	-2.7083	-2.7896	-2.6	-2.7667	-2.5604	-2.7125	-2.9542	389.439	204.037	298.138	454.190	400.612	362.868	531.626	439.797	184.637	190.134	393.884	525.739	383.720	229.852	299.914	506.350	0.0010554	0.0014381	0.00015551	791.42	7.6617e-06	1.1253e-05	906.04	222.49	6.0469e-06	1.0687e-05	303.1	99.644	64.3	23.222	1.0721e-05	46.725	0.0037776	0.0039382	0.0010946	947.04	4.2468e-05	4.3e-05	1057.5	274.59	4.2438e-05	4.3348e-05	379.53	124.59	88.66	31.341	4.2885e-05	58.242	477.995	214.272	300.870	188.420	313.041	248.455	187.690	192.043	244.444	290.097	191.399	194.962	195.346	200.514	227.003	198.885	-8191	255	
8728.593	1	1	0	0	0.075857	0.039199	0.19153	0.15195	0.050253	0.085727	0.12056	0.16417	0.16331	0.085644	0.069042	0.16702	0.25817	0.16067	0.14186	0.26715	-1.8167	-2.6021	-2.5854	-2.4396	-2.7938	-2.5854	-2.7521	-2.8875	-2.425	-2.6542	-2.8563	-2.4396	-2.9542	-2.5292	-2.5396	-2.7667	242.097	257.259	270.556	523.866	376.490	241.359	398.177	533.958	180.309	493.735	381.903	233.830	229.512	177.394	508.697	469.889	0.0008947	0.0008048	0.00034636	791.34	1.4498e-05	1.6882e-05	901.26	222.59	2.5854e-06	1.1829e-05	302.66	99.644	64.364	23.374	1.0242e-05	46.525	0.0037719	0.0039535	0.0010973	946.36	4.2942e-05	4.3381e-05	1059.8	274.59	4.2983e-05	4.3958e-05	379.54	124.13	88.979	31.412	4.3282e-05	58.023	491.985	344.069	221.874	188.313	519.070	426.519	187.279	192.617	305.436	312.957	191.069	194.756	195.286	200.844	399.897	198.926	-8191	255	
8728.714	1	1	0	0	0.13629	0.22818	0.37725	0.35757	0.19366	0.1031	0.2164	0.39436	0.10571	0.22699	0.11551	0.11215	0.22013	0.23257	0.21748	0.11914	-1.9646	-2.5083	-2.7021	-2.3833	-2.8021	-2.6333	-2.475	-3.0104	-2.5563	-2.5854	-2.7562	-2.4437	-2.5958	-2.6646	-2.5104	-2.9313	191.206	340.673	356.924	442.134	220.403	367.809	482.619	427.897	528.379	389.790	281.204	209.008	227.565	423.952	469.736	355.297	0.0012424	0.0012034	0.00025292	801.02	9.9189e-06	6.3839e-06	901.44	223.49	1.3277e-05	9.4995e-06	302.09	98.984	64.014	23.182	4.0001e-06	46.501	0.003781	0.0039523	0.0010888	947.03	4.2207e-05	4.2341e-05	1053.3	273.19	4.1788e-05	4.2577e-05	376.85	123.24	88.28	31.082	4.1852e-05	57.544	490.956	336.019	177.839	188.268	384.376	203.146	187.509	192.494	186.522	250.991	190.761	194.804	195.645	200.587	500.245	198.810	-8191	255	
8728.810	1	1	0	0	0.17063	0.034426	0.12819	0.09381	0.13074	0.1134	0.21718	0.22246	0.12676	0.055275	0.36933	0.11205	0.18819	0.08501	0.1188	0.21012	-2.0292	-2.6479	-2.7062	-2.5438	-2.8833	-2.7833	-2.4292	-3.1771	-2.5062	-2.4562	-2.9125	-2.2271	-2.8604	-2.7313	-2.5708	-2.9896	291.507	476.918	256.018	173.965	372.099	371.253	414.138	524.646	378.419	408.478	207.926	237.680	175.664	506.189	260.770	448.981	0.00098833	0.0014777	0.00024974	794.45	6.9414e-06	1.0931e-05	892.95	223.33	1.0201e-05	7.5817e-06	302.35	98.76	63.633	23.069	8.3325e-06	46.333	0.0036559	0.0038234	0.0010541	941.29	4.12e-05	4.1603e-05	1046.3	272.16	4.1626e-05	4.2037e-05	374.95	122.41	87.238	30.779	4.121e-05	56.953	496.686	228.174	454.905	188.230	505.697	317.077	187.651	191.938	296.373	284.460	191.376	195.033	195.172	201.017	370.144	199.008	-8191	255	
8728.906	1	1	0	0	0.17535	0.079516	0.08633	0.35766	0.07052	0.1212	0.16706	0.15232	0.21212	0.17676	0.088581	0.33224	0.039004	0.054596	0.10718	0.15545	-2.0521	-2.3833	-2.8667	-2.5521	-2.7542	-2.8208	-2.5312	-2.8771	-2.5229	-2.6271	-2.9583	-2.2562	-2.6521	-2.7271	-2.55	-2.9229	352.143	291.288	194.567	514.079	465.562	480.098	477.067	187.213	438.274	368.272	319.215	258.642	258.688	412.354	232.721	271.630	0.0011595	0.0010122	0.0002597	789.13	3.4896e-06	6.784e-06	896.79	222.22	1.4822e-05	7.6501e-06	301.16	97.863	63.074	22.746	9.4202e-06	45.906	0.0036155	0.0037629	0.0010454	932.63	4.0902e-05	4.1195e-05	1043.4	270.11	4.0642e-05	4.1081e-05	371.65	121.06	86.272	30.446	4.0691e-05	56.486	496.763	242.466	286.136	188.206	285.751	454.559	187.710	192.501	405.195	492.158	190.588	195.147	195.641	200.774	335.195	198.884	-8191	255	
8729.003	1	1	0	0	0.3356	0.23147	0.25938	0.2439	0.26469	0.070338	0.21241	0.26927	0.10074	0.13492	0.19623	0.13071	0.12669	0.092431	0.18059	0.25416	-2.0104	-2.4521	-2.925	-2.6063	-2.5812	-2.8333	-2.6854	-2.8958	-2.6021	-2.4146	-2.9292	-2.4917	-2.6208	-2.7458	-2.4729	-2.7625	430.620	331.398	211.164	382.355	352.379	440.675	327.175	457.125	375.077	368.380	470.650	197.101	439.919	532.488	221.380	438.223	0.0016577	0.001442	0.00012742	790	8.5115e-06	7.378e-06	892.31	220.19	1.2425e-05	1.6008e-05	299.31	96.644	62.524	22.459	1.1742e-05	45.107	0.0035929	0.0037502	0.0010444	931.32	4.0751e-05	4.1001e-05	1037.4	268.69	4.0794e-05	4.1121e-05	369.85	120.03	86.025	30.213	4.0995e-05	56.002	500.026	418.203	387.076	188.256	392.550	410.457	187.505	192.082	218.766	243.979	190.871	194.878	195.140	201.068	285.626	198.913	-8191	255	
#DATA ENDS
