BOXY.EXE: ISS Imagent and Oximeter Data Acquisition Program Version 0.80
Ascii Record File

#ACQ INFORMATION
2  Detector Channels 
16  External MUX Channels 
1  Auxiliary Channels 
5000  Waveform (CCF) Frequency (Hz)
1  Waveforms Skipped 
30  Waveforms Averaged 
1  Cycles Averaged 
16  Acquisitions per Waveform 
10.0806  Updata Rate (Hz) 

#FILE INFORMATION
TRUE -- External MUX Channel results are PARSED.
FALSE -- AC DC and Phase are NOT grouped.
TRUE -- Companion Program Settings File CREATED.
FALSE -- AC data not excluded
FALSE -- DC data not excluded
FALSE -- Phase data not excluded
FALSE -- Auxillary Chn. data not excluded
Tab delimiters

#CALIBRATION STATE
TRUE -- Waveform Calibration Values APPLIED.


#AUX CALIBRATION VALUES
Val Type	aux-1	

Term	1.0000e+00	
Factor	0.0000e+00	


#WF CALIBRATION VALUES
A = Detector Channel
Val Type	A-AC1	A-AC2	A-AC3	A-AC4	A-AC5	A-AC6	A-AC7	A-AC8	A-AC9	A-AC10	A-AC11	A-AC12	A-AC13	A-AC14	A-AC15	A-AC16	A-DC1	A-DC2	A-DC3	A-DC4	A-DC5	A-DC6	A-DC7	A-DC8	A-DC9	A-DC10	A-DC11	A-DC12	A-DC13	A-DC14	A-DC15	A-DC16	A-Ph1	A-Ph2	A-Ph3	A-Ph4	A-Ph5	A-Ph6	A-Ph7	A-Ph8	A-Ph9	A-Ph10	A-Ph11	A-Ph12	A-Ph13	A-Ph14	A-Ph15	A-Ph16	

Term	0.00000e+00	0.00000e+00	0.00000e+00	0.00000e+00	0.00000e+00	0.00000e+00	0.00000e+00	0.00000e+00	0.00000e+00	0.00000e+00	0.00000e+00	0.00000e+00	0.00000e+00	0.00000e+00	0.00000e+00	0.00000e+00	0.00000e+00	0.00000e+00	0.00000e+00	0.00000e+00	0.00000e+00	0.00000e+00	0.00000e+00	0.00000e+00	0.00000e+00	0.00000e+00	0.00000e+00	0.00000e+00	0.00000e+00	0.00000e+00	0.00000e+00	0.00000e+00	0.00000e+00	0.00000e+00	0.00000e+00	0.00000e+00	0.00000e+00	0.00000e+00	0.00000e+00	0.00000e+00	0.00000e+00	0.00000e+00	0.00000e+00	0.00000e+00	0.00000e+00	0.00000e+00	0.00000e+00	0.00000e+00	
Factor	1.00000e+00	1.00000e+00	1.00000e+00	1.00000e+00	1.00000e+00	1.00000e+00	1.00000e+00	1.00000e+00	1.00000e+00	1.00000e+00	1.00000e+00	1.00000e+00	1.00000e+00	1.00000e+00	1.00000e+00	1.00000e+00	1.00000e+00	1.00000e+00	1.00000e+00	1.00000e+00	1.00000e+00	1.00000e+00	1.00000e+00	1.00000e+00	1.00000e+00	1.00000e+00	1.00000e+00	1.00000e+00	1.00000e+00	1.00000e+00	1.00000e+00	1.00000e+00	X	X	X	X	X	X	X	X	X	X	X	X	X	X	X	X	

B = Detector Channel
Val Type	B-AC1	B-AC2	B-AC3	B-AC4	B-AC5	B-AC6	B-AC7	B-AC8	B-AC9	B-AC10	B-AC11	B-AC12	B-AC13	B-AC14	B-AC15	B-AC16	B-DC1	B-DC2	B-DC3	B-DC4	B-DC5	B-DC6	B-DC7	B-DC8	B-DC9	B-DC10	B-DC11	B-DC12	B-DC13	B-DC14	B-DC15	B-DC16	B-Ph1	B-Ph2	B-Ph3	B-Ph4	B-Ph5	B-Ph6	B-Ph7	B-Ph8	B-Ph9	B-Ph10	B-Ph11	B-Ph12	B-Ph13	B-Ph14	B-Ph15	B-Ph16	

Term	0.00000e+00	0.00000e+00	0.00000e+00	0.00000e+00	0.00000e+00	0.00000e+00	0.00000e+00	0.00000e+00	0.00000e+00	0.00000e+00	0.00000e+00	0.00000e+00	0.00000e+00	0.00000e+00	0.00000e+00	0.00000e+00	0.00000e+00	0.00000e+00	0.00000e+00	0.00000e+00	0.00000e+00	0.00000e+00	0.00000e+00	0.00000e+00	0.00000e+00	0.00000e+00	0.00000e+00	0.00000e+00	0.00000e+00	0.00000e+00	0.00000e+00	0.00000e+00	-9.73976e+01	-1.30849e+02	-1.20817e+02	-1.83215e+02	-5.41678e+01	-7.09084e+01	-1.60645e+02	-1.62015e+02	-5.77483e+01	-6.73109e+01	-1.72614e+02	-1.72392e+02	-1.82625e+02	-1.77464e+02	-6.51920e+01	-1.50396e+02	
Factor	1.53672e-05	1.55372e-04	4.49486e-05	1.55281e-01	1.27500e-06	1.63856e-06	1.77095e-01	5.59097e-02	1.17167e-06	1.81651e-06	8.77361e-02	2.76348e-02	2.61606e-02	8.30710e-03	1.34094e-06	1.23201e-02	5.68249e-06	7.41094e-06	2.07059e-06	7.96841e-02	7.84201e-08	8.14664e-08	8.56640e-02	2.88410e-02	7.84201e-08	8.17892e-08	4.38204e-02	1.39077e-02	1.36851e-02	4.31291e-03	8.00245e-08	6.19896e-03	X	X	X	X	X	X	X	X	X	X	X	X	X	X	X	X	



#DISTANCE SETTINGS
A = Detector Channel
A-1	A-2	A-3	A-4	A-5	A-6	A-7	A-8	A-9	A-10	A-11	A-12	A-13	A-14	A-15	A-16	

2.5000e+00	3.0000e+00	2.5000e+00	3.0000e+00	2.0000e+00	3.0000e+00	1.5000e+00	3.0000e+00	3.0000e+00	3.0000e+00	3.0000e+00	3.0000e+00	3.0000e+00	3.0000e+00	1.5000e+00	3.0000e+00	

B = Detector Channel
B-1	B-2	B-3	B-4	B-5	B-6	B-7	B-8	B-9	B-10	B-11	B-12	B-13	B-14	B-15	B-16	

1.0000e+01	1.0000e+01	1.0000e+01	1.4400e+00	1.0000e+01	1.0000e+01	1.5100e+00	1.9400e+00	1.0000e+01	1.0000e+01	1.9900e+00	2.4900e+00	2.4100e+00	2.9000e+00	1.0000e+01	2.9800e+00	




#DATA BEGINS
time	group	step	mark	flag	A-AC1	A-AC2	A-AC3	A-AC4	A-AC5	A-AC6	A-AC7	A-AC8	A-AC9	A-AC10	A-AC11	A-AC12	A-AC13	A-AC14	A-AC15	A-AC16	A-DC1	A-DC2	A-DC3	A-DC4	A-DC5	A-DC6	A-DC7	A-DC8	A-DC9	A-DC10	A-DC11	A-DC12	A-DC13	A-DC14	A-DC15	A-DC16	A-Ph1	A-Ph2	A-Ph3	A-Ph4	A-Ph5	A-Ph6	A-Ph7	A-Ph8	A-Ph9	A-Ph10	A-Ph11	A-Ph12	A-Ph13	A-Ph14	A-Ph15	A-Ph16	B-AC1	B-AC2	B-AC3	B-AC4	B-AC5	B-AC6	B-AC7	B-AC8	B-AC9	B-AC10	B-AC11	B-AC12	B-AC13	B-AC14	B-AC15	B-AC16	B-DC1	B-DC2	B-DC3	B-DC4	B-DC5	B-DC6	B-DC7	B-DC8	B-DC9	B-DC10	B-DC11	B-DC12	B-DC13	B-DC14	B-DC15	B-DC16	B-Ph1	B-Ph2	B-Ph3	B-Ph4	B-Ph5	B-Ph6	B-Ph7	B-Ph8	B-Ph9	B-Ph10	B-Ph11	B-Ph12	B-Ph13	B-Ph14	B-Ph15	B-Ph16	aux-1	digaux	

1020.575	1	1	0	256	0.044077	0.04647	0.31407	0.15712	0.30616	0.065226	0.30757	0.1874	0.20022	0.01706	0.20854	0.18676	0.40465	0.039183	0.1684	0.044134	-2.5438	-2.8604	-2.6417	-3.0312	-2.6792	-2.8167	-3.1625	-2.5917	-2.8833	-2.8917	-2.6229	-3.1458	-2.6813	-2.9458	-2.8875	-2.6375	407.567	333.726	319.394	307.937	361.904	292.226	209.929	190.062	410.120	374.982	463.120	199.188	275.292	190.771	303.783	387.411	0.00026293	0.00014545	0.00010759	495.45	1.0269e-06	2.5904e-06	546.79	146.33	3.036e-06	4.4871e-06	181.8	66.004	51.828	18.669	2.7268e-06	28.478	0.00017998	0.00015185	4.12e-05	489.35	1.7648e-06	1.6765e-06	539.55	145.16	1.7816e-06	1.6622e-06	180.96	66.214	51.948	18.602	1.7732e-06	28.399	225.703	313.241	268.392	181.734	358.963	318.111	181.396	187.214	293.256	316.524	186.183	189.725	191.354	195.573	285.914	192.976	-8191	255	
1020.696	1	1	0	0	0.37455	0.058219	0.13295	0.21528	0.23081	0.22431	0.12014	0.30661	0.25878	0.10321	0.097814	0.26968	0.15112	0.20519	0.082861	0.18072	-2.6458	-2.9604	-2.7104	-3.1417	-2.7812	-2.8958	-3.2292	-2.6688	-2.8792	-3.0875	-2.5958	-3.1	-2.7854	-2.6708	-3.1813	-2.7958	309.440	374.919	485.789	179.888	235.064	221.566	278.966	334.927	399.603	344.338	380.951	367.929	346.894	289.396	266.306	433.250	0.00025118	0.00024511	7.6689e-05	493.85	1.46e-06	4.9003e-06	537.37	145.59	2.4667e-06	3.314e-06	181.16	66.302	51.514	18.511	1.5386e-06	28.315	0.00019521	0.00016777	4.5467e-05	485.81	1.8162e-06	1.77e-06	532.18	144.34	1.8925e-06	1.8864e-06	179.4	65.948	51.707	18.54	1.8531e-06	28.244	225.406	226.394	263.379	181.766	306.289	337.190	181.592	186.942	297.654	274.359	185.791	189.613	191.261	195.552	298.312	193.205	-8191	255	
1020.792	1	1	0	0	0.44153	0.28193	0.19795	0.26358	0.095314	0.22468	0.15089	0.13134	0.18569	0.12262	0.19291	0.041392	0.12391	0.28195	0.17827	0.096573	-2.5812	-2.9375	-2.6417	-3.1646	-2.9542	-2.8333	-3.1937	-2.6729	-2.6667	-3.0104	-2.6208	-3.0729	-2.8021	-2.6688	-2.8792	-2.6979	398.882	410.273	180.031	228.016	267.961	223.741	321.698	264.613	391.435	265.247	520.847	499.562	449.977	465.487	449.981	243.073	0.00026807	0.00018604	3.7415e-05	489.49	1.6478e-06	2.9705e-06	538.19	145.94	1.9311e-06	3.6199e-06	181.02	66.144	51.853	18.704	1.5341e-06	28.371	0.00020025	0.00017088	4.7248e-05	481.62	1.8953e-06	1.9632e-06	530.89	144.27	1.9327e-06	1.9052e-06	178.81	66.001	51.741	18.679	2.0886e-06	28.352	223.681	248.212	215.791	181.611	366.891	332.492	181.194	187.116	290.293	320.879	185.525	189.563	191.073	195.230	290.070	193.196	-8191	255	
1020.888	1	1	0	0	0.2548	0.26167	0.31206	0.084116	0.11234	0.22074	0.35638	0.29169	0.14303	0.27067	0.24342	0.25719	0.071363	0.15115	0.1356	0.10994	-2.4354	-3.0208	-2.5792	-2.9792	-2.925	-2.7	-3.1271	-2.7646	-2.7021	-3.0792	-2.5521	-3.0708	-3.0229	-2.6542	-2.7875	-2.8104	515.570	418.386	402.242	368.368	389.343	412.432	517.222	467.549	345.998	415.349	447.684	472.498	346.109	425.919	226.526	505.480	0.00026966	0.00017911	0.00012675	486.78	2.0019e-06	3.7143e-06	536.04	144.46	4.3108e-06	2.411e-06	179.32	66.062	51.351	18.628	2.0865e-06	28.391	0.00022729	0.00019159	5.5518e-05	482.41	2.1495e-06	2.2502e-06	530.2	143.85	2.2743e-06	2.2966e-06	178.25	65.678	51.473	18.676	2.3601e-06	28.348	227.308	330.888	243.660	181.830	298.988	278.293	181.365	187.269	322.680	337.268	185.486	189.786	191.116	195.408	311.437	193.156	-8191	255	
1021.009	1	1	0	0	0.070807	0.06715	0.067612	0.14777	0.047298	0.069899	0.26229	0.22797	0.27658	0.086301	0.29454	0.22333	0.033415	0.097121	0.094564	0.034921	-2.2167	-3.1208	-2.5187	-2.9646	-2.9625	-2.4333	-3.0833	-2.8646	-2.6417	-3.1688	-2.6312	-2.85	-3.0771	-2.7062	-2.9437	-2.7646	505.084	399.548	291.384	366.920	497.414	186.647	471.908	414.044	198.704	293.210	398.687	431.790	253.590	505.909	394.921	425.528	0.00026014	0.00034071	8.9242e-05	487.61	2.7173e-06	2.253e-06	532.32	143.77	1.4377e-06	3.537e-06	178.33	65.098	50.555	18.464	2.1257e-06	28.015	0.00023767	0.00021728	6.3826e-05	481.9	2.3657e-06	2.3215e-06	529.81	143.62	2.4309e-06	2.3707e-06	176.76	64.851	50.736	18.473	2.3257e-06	27.967	229.204	245.497	272.902	181.785	268.320	312.591	181.666	186.984	266.801	302.783	185.350	190.061	191.046	195.104	342.988	192.928	-8191	255	
1021.105	1	1	0	0	0.29995	0.068379	0.17591	0.034788	0.16031	0.02232	0.24267	0.22436	0.28603	0.25023	0.23978	0.27294	0.074613	0.11464	0.21637	0.22777	-2.2313	-3.1354	-2.6937	-2.7708	-3.0083	-2.6813	-3.2521	-2.8812	-2.8688	-3.0312	-2.9021	-2.9125	-3.1896	-2.6083	-2.7542	-2.9917	210.475	472.685	226.785	298.387	451.692	413.516	175.339	278.014	329.803	378.383	430.619	459.638	303.084	302.801	312.356	411.238	0.00026247	4.5746e-05	5.734e-05	480.24	2.3008e-06	8.8323e-07	525.96	142.73	2.0568e-06	3.408e-06	175.17	63.751	50.125	18.411	2.816e-06	27.673	0.00024072	0.00021357	5.9607e-05	475.73	2.357e-06	2.3686e-06	521.03	141.5	2.3586e-06	2.3155e-06	174.02	63.684	49.966	18.253	2.3235e-06	27.682	224.918	209.472	258.660	181.682	330.203	388.988	181.471	186.816	347.041	307.100	185.454	189.773	191.169	195.627	321.613	193.377	-8191	255	
1021.177	1	1	0	0	0.24259	0.20438	0.40974	0.10683	0.29661	0.20783	0.1744	0.14087	0.10094	0.13426	0.045135	0.1122	0.021174	0.15298	0.30762	0.29472	-2.2354	-3.0812	-2.8417	-2.6958	-3.1479	-2.8479	-2.8771	-3.1167	-2.675	-3.0583	-2.8417	-2.7146	-3.0417	-2.6833	-2.9292	-3.1021	364.786	381.215	410.460	215.112	271.153	234.708	213.959	409.130	519.094	251.356	497.432	336.242	409.976	381.613	175.744	431.155	0.00022641	0.00026594	6.4093e-05	476.68	2.0593e-06	4.1028e-06	515.98	138.7	1.4829e-06	1.2659e-06	171.97	62.018	48.646	17.734	2.1012e-06	27.225	0.00021764	0.00019608	5.8736e-05	471.43	2.0816e-06	2.1432e-06	512.34	137.81	2.1204e-06	2.1117e-06	170.61	62.381	48.568	17.835	2.2022e-06	27.105	227.802	222.445	268.340	181.845	293.104	300.943	181.365	186.959	292.259	331.357	185.422	189.994	191.288	195.694	298.720	193.436	-8191	255	
1021.296	1	1	0	0	0.1995	0.16362	0.041594	0.13931	0.064361	0.038171	0.12807	0.052658	0.075005	0.0074958	0.13501	0.39828	0.12153	0.2195	0.19732	0.16529	-2.2188	-3.0521	-2.775	-2.6688	-3.1771	-2.5583	-2.9542	-3.1104	-2.6188	-2.9771	-2.9625	-2.7479	-3.1896	-2.8146	-2.7917	-3.0479	504.775	508.349	381.752	171.380	349.181	401.554	487.379	336.247	224.209	194.966	385.155	430.972	200.333	391.363	355.609	330.466	0.0002432	0.00023277	4.731e-05	472.53	2.2768e-06	2.3807e-06	516.65	140.5	1.5197e-06	2.7668e-06	173	63.279	49.495	17.933	3.0323e-06	27.207	0.00022569	0.00020931	5.8753e-05	465.95	2.3096e-06	2.3562e-06	513.62	139.63	2.3346e-06	2.3218e-06	172.41	63.402	49.42	18.061	2.4017e-06	27.214	222.659	268.322	285.712	181.892	341.324	327.892	181.506	186.866	351.129	325.552	185.432	189.808	191.264	195.565	282.835	193.222	-8191	255	
1021.392	1	1	0	0	0.16311	0.044228	0.074741	0.07005	0.20755	0.025704	0.069012	0.091714	0.1781	0.1419	0.013832	0.089525	0.16474	0.2129	0.14814	0.22322	-2.2292	-2.8854	-2.9354	-2.8438	-3.1562	-2.6521	-2.9729	-3.0708	-2.8125	-3	-3.0667	-2.4729	-3.0375	-2.8771	-2.8333	-2.9917	386.003	424.249	523.785	248.992	234.234	199.795	217.919	446.338	446.178	333.777	440.493	424.088	404.297	461.242	247.477	419.404	0.00023887	0.00029494	8.7819e-05	471.73	2.9555e-06	2.3388e-06	514.76	140.62	1.5696e-06	2.8285e-06	172.14	62.702	48.806	17.752	2.9609e-06	26.682	0.00023156	0.00020954	6.1747e-05	464.92	2.389e-06	2.4221e-06	509.71	139.13	2.327e-06	2.31e-06	171.01	62.745	48.842	17.82	2.4406e-06	26.741	233.969	277.596	254.293	181.737	330.290	347.264	181.884	186.975	301.262	358.610	185.603	189.457	191.280	195.181	337.760	193.282	-8191	255	
1021.488	1	1	0	0	0.15641	0.027861	0.15672	0.08085	0.065433	0.065525	0.19034	0.273	0.23789	0.19252	0.085166	0.047395	0.18889	0.33122	0.11008	0.14415	-2.3104	-2.9604	-3.0771	-2.6333	-3.0687	-2.9417	-2.7292	-3.05	-2.6229	-2.7917	-2.9854	-2.7125	-3.1625	-2.8146	-2.5521	-3.1688	340.147	364.701	272.129	424.732	346.630	317.515	339.148	205.239	353.506	191.546	177.425	270.089	430.464	390.421	306.309	383.713	0.00023105	0.00040888	6.4989e-05	464.43	3.3742e-06	8.0693e-07	510.05	137.61	2.1868e-06	2.1457e-06	169.83	62.095	48.443	17.515	3.5053e-06	26.364	0.00023149	0.00022355	5.8227e-05	458.87	2.3928e-06	2.3545e-06	503.59	136.84	2.4701e-06	2.3463e-06	168.53	61.961	48.406	17.565	2.4392e-06	26.411	224.863	265.414	257.711	181.536	341.518	478.161	181.052	186.819	289.772	292.116	185.703	189.935	191.120	195.390	309.724	193.269	-8191	255	
1021.584	1	1	0	0	0.45333	0.19231	0.22878	0.072806	0.13735	0.10773	0.32491	0.14452	0.13975	0.086283	0.089451	0.18058	0.13101	0.2393	0.041337	0.18641	-2.1896	-2.7313	-3.0896	-2.5646	-3.0625	-2.8312	-2.7146	-3.15	-2.8896	-2.7396	-3.05	-2.6771	-2.8396	-2.7896	-2.6667	-3.15	416.842	299.453	182.825	274.608	227.628	343.239	437.143	250.321	396.282	169.452	209.482	255.519	379.489	454.433	434.975	249.073	0.00023813	0.00023267	9.8652e-05	463.97	1.1704e-06	2.2099e-06	506.28	138	2.7107e-06	4.3062e-06	170.25	62.061	48.776	17.628	2.7674e-06	26.424	0.00023086	0.00021459	6.1216e-05	458.12	2.4514e-06	2.362e-06	501.88	137.33	2.5491e-06	2.5556e-06	169.49	62.217	48.882	17.681	2.6191e-06	26.5	228.609	259.487	244.014	181.695	280.906	305.491	181.410	186.648	301.600	284.776	185.310	189.653	191.089	194.994	312.322	193.548	-8191	255	
1021.705	1	1	0	0	0.14673	0.14605	0.059632	0.13326	0.1983	0.17729	0.0862	0.18688	0.15587	0.094538	0.11733	0.15083	0.17362	0.23777	0.13466	0.13025	-2.4479	-2.8458	-3.0854	-2.6937	-2.9188	-3.0667	-2.6958	-2.9521	-2.7687	-2.7625	-3.2062	-2.5896	-2.9917	-2.8917	-2.5187	-3.0125	425.706	226.995	437.949	467.578	526.128	341.624	391.161	492.822	338.281	185.448	511.300	317.251	258.301	499.839	198.469	445.089	0.00025273	0.00016695	6.7933e-05	463.53	1.9468e-06	2.0756e-06	508.62	138.75	3.0386e-06	4.1631e-06	170.39	62.08	48.602	17.603	8.5294e-07	26.343	0.00026233	0.00025287	6.8273e-05	461.36	2.7695e-06	2.7142e-06	504.03	137.85	2.7813e-06	2.7837e-06	169.42	62.142	48.679	17.649	2.9171e-06	26.277	225.414	198.997	287.505	181.871	298.877	265.745	181.099	187.116	345.317	296.075	185.408	189.323	191.020	195.122	368.615	192.998	-8191	255	
1021.776	1	1	0	0	0.25291	0.10909	0.16605	0.3319	0.061619	0.25679	0.04834	0.097336	0.14079	0.13976	0.25299	0.18956	0.11337	0.15657	0.020487	0.24826	-2.4646	-2.6708	-3.0479	-2.7729	-2.8979	-3.1875	-2.7125	-3.0229	-2.9083	-2.6354	-3.0938	-2.8146	-2.7625	-3.1333	-2.5979	-3.0104	382.546	240.333	175.390	433.590	508.591	234.598	495.002	421.388	366.205	500.466	478.406	263.396	305.396	220.118	512.779	504.389	0.00021781	0.00036813	9.5973e-05	469.53	1.8737e-06	4.1845e-06	513.27	140.8	2.8845e-06	1.8385e-06	173.41	62.404	49.462	17.918	2.8469e-06	26.498	0.0002738	0.00028481	7.782e-05	464.8	3.2183e-06	3.4414e-06	509.04	140.27	3.9906e-06	4.0801e-06	172.52	62.818	49.963	18.211	6.1726e-06	26.984	231.580	261.229	195.589	181.579	350.773	332.078	181.201	186.766	313.158	241.606	185.247	189.636	190.495	194.760	309.348	192.678	-8191	255	
1021.872	1	1	0	0	0.17406	0.087174	0.3152	0.060717	0.14136	0.10267	0.14682	0.058697	0.10489	0.09007	0.28577	0.33569	0.023526	0.18188	0.17663	0.10528	-2.5187	-2.6312	-3.0042	-2.7833	-2.6792	-3.0854	-2.6479	-2.9729	-3.0854	-2.5625	-3.1833	-2.95	-2.6792	-3.2417	-2.6125	-2.9542	391.533	248.541	326.322	475.832	433.753	369.954	440.692	258.926	207.081	197.736	216.630	372.086	484.327	333.903	352.322	337.686	0.00025277	0.00055717	9.5692e-05	483.24	3.2173e-06	4.0337e-06	526.18	145.64	3.3896e-06	4.1052e-06	177.79	63.602	51.123	18.545	2.7299e-06	27.023	0.00063394	0.0008331	0.0002419	484.65	1.0637e-05	1.1492e-05	531.83	148.15	1.2967e-05	1.4201e-05	182.37	65.8	53.315	19.425	1.6771e-05	28.232	224.092	212.912	284.645	181.793	293.522	332.438	181.221	186.201	325.972	278.938	185.077	189.052	190.127	194.459	285.015	192.117	-8191	255	
1021.969	1	1	0	0	0.13863	0.16684	0.15312	0.092555	0.083404	0.14931	0.16366	0.085969	0.10579	0.20078	0.12501	0.25797	0.28028	0.17692	0.25309	0.21572	-2.5187	-2.5896	-2.9125	-2.9396	-2.6875	-3.1042	-2.6729	-2.8604	-3.1167	-2.4542	-2.9875	-2.8417	-2.725	-3.0542	-2.6625	-2.7562	402.942	251.059	372.194	406.630	318.015	422.500	202.985	488.851	375.226	267.989	226.424	194.078	295.367	480.790	467.256	235.942	0.00019533	0.00011955	0.00012896	487.58	1.5288e-06	1.0223e-06	535.3	148.51	4.4726e-06	8.6577e-06	179.92	64.768	52.529	19.154	5.9506e-06	27.759	0.0013121	0.0016574	0.00047249	500.5	1.8461e-05	1.9591e-05	549.82	153.84	2.0213e-05	2.1219e-05	189.47	68.6	55.876	20.347	2.3603e-05	29.384	221.539	257.022	228.822	181.821	394.464	265.566	181.407	186.596	340.637	283.863	184.769	189.284	190.411	194.345	290.097	191.886	-8191	255	
1022.087	1	1	0	0	0.080528	0.12016	0.126	0.30618	0.10289	0.036276	0.16806	0.17	0.13286	0.074199	0.25463	0.05122	0.22315	0.2449	0.21933	0.29267	-2.6479	-2.5521	-2.6583	-2.8729	-2.6646	-3.0708	-2.8521	-2.8479	-3.1292	-2.6646	-2.9792	-2.8917	-2.5896	-3.0563	-2.7021	-2.7646	343.412	520.501	376.346	196.313	356.788	217.457	168.702	416.638	194.962	399.372	394.282	251.313	503.861	414.311	270.005	397.379	0.00021906	0.0004752	0.00021915	500.71	3.3788e-06	2.5834e-06	544.17	151.95	6.0571e-06	6.3156e-06	185.1	66.504	53.718	19.768	2.4415e-06	28.073	0.0018062	0.0023217	0.00066578	518.98	2.6125e-05	2.7954e-05	569.63	161.3	2.8332e-05	3.0299e-05	198.23	71.849	58.708	21.343	3.1097e-05	30.503	238.233	264.584	186.609	181.909	254.184	207.173	181.373	186.572	313.651	281.797	185.129	188.687	189.872	194.119	504.343	192.219	-8191	255	
1022.184	1	1	0	0	0.12211	0.071448	0.19149	0.20765	0.34206	0.18283	0.17814	0.19107	0.19958	0.45442	0.12647	0.1127	0.19335	0.080282	0.097598	0.19012	-2.5917	-2.6458	-2.9562	-3.0479	-2.5646	-3.0333	-3.1437	-2.6562	-3.1833	-2.8958	-2.8833	-2.9708	-2.6292	-3.1063	-2.8979	-2.6937	349.336	191.124	504.073	488.637	265.935	487.679	500.063	520.837	499.286	340.357	493.148	432.278	389.553	209.838	190.037	473.711	0.000275	0.0003182	0.00020165	509.8	9.8056e-06	1.3718e-05	549.47	154.47	1.0335e-05	2.7629e-06	183.9	67.151	53.667	19.575	3.4427e-06	27.866	0.0023138	0.0029779	0.00084189	533.79	3.2078e-05	3.3754e-05	578.43	164.24	3.2425e-05	3.3696e-05	199.8	71.981	58.756	21.177	3.1028e-05	29.977	230.386	304.888	247.905	181.903	322.853	360.715	181.265	186.572	272.756	316.331	185.106	188.786	190.029	193.605	309.368	191.908	-8191	255	
1022.280	1	1	0	0	0.10138	0.078127	0.16756	0.21028	0.19482	0.23903	0.080445	0.051494	0.058045	0.27332	0.15776	0.10737	0.1648	0.12259	0.18386	0.27914	-2.6042	-2.5938	-2.6646	-3.075	-2.5333	-2.9479	-3.1167	-2.8083	-3.0312	-2.7938	-2.9542	-2.9833	-2.8146	-2.8979	-2.9292	-2.6813	192.879	208.736	426.502	479.224	408.541	189.293	175.803	426.887	238.143	285.842	460.379	496.710	401.841	219.119	478.900	511.013	0.00013692	9.8793e-05	9.1211e-05	502.22	3.8932e-06	6.9312e-06	543.93	150.86	1.9026e-06	5.1847e-06	181.33	65.724	53.37	19.363	2.0782e-06	27.711	0.0021823	0.0027848	0.00077023	522.69	2.8584e-05	2.9796e-05	566.63	160.04	2.8372e-05	2.9845e-05	195.21	70.38	57.92	20.911	2.8763e-05	29.754	235.887	434.760	277.205	181.668	254.531	481.403	181.096	186.440	283.134	267.013	185.172	188.696	190.651	194.296	221.067	192.334	-8191	255	
1022.376	1	1	0	0	0.25825	0.067738	0.014899	0.1167	0.2324	0.059984	0.18298	0.11169	0.18281	0.14413	0.13069	0.41786	0.10325	0.081587	0.072035	0.15347	-2.7479	-2.7708	-2.7812	-3.1104	-2.5042	-2.9396	-3.1417	-2.6167	-3.0479	-2.8917	-2.7979	-2.9333	-2.8146	-2.9729	-2.9333	-2.7	219.423	341.727	398.783	475.995	208.418	231.420	464.366	265.580	168.939	359.108	449.175	480.430	367.605	467.686	311.532	526.726	0.00021705	0.00058272	4.466e-05	500.94	1.9759e-06	4.6351e-06	538.48	149.74	3.7119e-06	6.0306e-06	179.46	65.622	53.173	19.489	1.8599e-06	28.012	0.0020697	0.0025673	0.00071101	517.93	2.6291e-05	2.6935e-05	560.17	157.44	2.5293e-05	2.6595e-05	192.44	69.905	57.181	20.766	2.6445e-05	29.816	216.895	394.874	512.721	182.159	379.715	310.758	181.255	186.433	199.174	380.556	185.249	188.897	190.455	193.880	201.360	192.029	-8191	255	
1022.472	1	1	0	0	0.20575	0.096787	0.34045	0.045536	0.091528	0.07385	0.20685	0.36016	0.10958	0.1962	0.23809	0.12239	0.21764	0.072901	0.16517	0.10746	-2.7125	-2.7167	-2.85	-2.9917	-2.6521	-2.9062	-3.0979	-2.6583	-2.9792	-2.8979	-2.6562	-2.9396	-2.4896	-2.7	-3.0083	-2.5375	316.718	308.700	443.085	304.716	424.290	448.445	424.239	430.835	345.139	281.015	435.419	504.709	394.153	424.572	486.108	508.264	0.00027996	0.00050896	0.00016338	500.7	1.806e-06	3.5038e-06	541.63	150.95	2.5998e-06	3.5355e-07	183.54	67.339	53.829	19.617	4.9429e-06	28.372	0.0019675	0.0024938	0.00070259	518.48	2.7172e-05	2.8188e-05	565.49	159.99	2.7385e-05	2.8711e-05	196.3	71.41	58.123	21.089	2.7123e-05	30.09	233.178	285.929	276.381	181.735	422.158	170.948	181.113	186.399	275.353	504.034	185.056	188.606	190.283	194.026	244.906	192.108	-8191	255	
1022.568	1	1	0	0	0.15855	0.27718	0.21462	0.12582	0.053878	0.069676	0.11425	0.049943	0.073602	0.085028	0.43152	0.01881	0.23154	0.041929	0.19834	0.034734	-2.6688	-2.7604	-2.6479	-3.2083	-2.9125	-2.8021	-3.0104	-2.7083	-2.9562	-2.9792	-2.5604	-3.1375	-2.9333	-2.6312	-2.9729	-2.6625	486.151	313.601	346.661	194.627	372.415	265.116	387.696	366.840	521.277	522.248	377.293	236.374	197.569	459.400	436.618	357.831	0.0003013	0.00038828	0.00011683	500.09	3.1698e-06	3.6668e-06	544.77	152.53	3.6013e-06	5.4712e-06	182.8	66.748	53.759	19.628	9.9975e-07	27.745	0.0020093	0.002527	0.00070287	519.95	2.7159e-05	2.8156e-05	567.35	161.38	2.7501e-05	2.8469e-05	196.16	71.423	58.104	20.982	2.6082e-05	29.718	229.766	265.638	320.074	181.588	272.355	199.667	181.044	186.378	232.979	350.110	185.011	188.878	190.122	193.954	422.847	192.361	-8191	255	
1022.689	1	1	0	0	0.22662	0.2261	0.30904	0.12272	0.17275	0.039239	0.19271	0.18981	0.20211	0.16777	0.029226	0.27628	0.074083	0.36413	0.081525	0.067449	-2.4208	-2.95	-2.7208	-3.0563	-2.8917	-2.6125	-3.0604	-2.5542	-2.7271	-2.9417	-2.6104	-3	-2.9083	-2.4938	-3.2604	-2.7771	353.400	511.755	268.736	366.917	262.494	210.630	189.720	361.387	211.059	445.308	527.512	277.041	181.398	206.983	335.773	526.528	0.00023537	9.8298e-05	0.00025053	493.95	5.636e-06	1.0698e-05	536.9	149.94	1.5182e-06	1.7083e-06	180.59	65.815	52.157	19.228	2.3384e-06	27.726	0.0018837	0.0022713	0.00062495	510.49	2.2826e-05	2.2932e-05	552.8	156.2	2.1314e-05	2.1658e-05	189.22	68.769	55.58	20.359	2.0176e-05	29.1	226.445	496.767	285.441	181.750	261.718	313.131	181.306	186.305	294.367	522.180	184.974	188.871	190.769	194.229	368.285	192.348	-8191	255	
1022.785	1	1	0	0	0.38604	0.097117	0.18108	0.088367	0.06498	0.39524	0.26668	0.084121	0.16926	0.022731	0.13155	0.094386	0.13116	0.19165	0.085774	0.095078	-2.2708	-2.9813	-2.4375	-3.0917	-2.7729	-2.5958	-3.1271	-2.6479	-2.7896	-3.0771	-2.6229	-2.9833	-2.9708	-2.6646	-3.1604	-2.7979	314.143	349.770	176.665	259.439	341.111	229.611	518.870	525.282	297.229	229.127	377.422	250.089	356.919	489.052	460.308	246.359	0.00029517	0.00072246	1.9588e-05	491.19	5.3205e-06	8.5176e-06	531.76	148.94	1.0802e-06	7.6195e-06	181.31	65.245	52.454	19.362	3.5147e-06	27.593	0.0014674	0.0018252	0.00049727	502.77	1.8926e-05	1.9097e-05	546.13	153.83	1.8596e-05	1.9048e-05	188.03	68.343	55.231	20.249	1.8777e-05	29.01	229.256	300.592	211.333	181.592	320.146	318.464	181.113	186.345	204.653	466.937	185.162	188.629	190.348	194.455	224.365	192.107	-8191	255	
1022.881	1	1	0	0	0.26477	0.098409	0.058611	0.10751	0.099714	0.19441	0.22075	0.23266	0.27021	0.11416	0.30448	0.15216	0.18232	0.15634	0.19113	0.093579	-2.3063	-3.0208	-2.3208	-2.9188	-2.8542	-2.6146	-3.2	-2.775	-2.7479	-3.0958	-2.8333	-2.8042	-2.8583	-2.5667	-2.9792	-2.7354	337.271	294.007	242.230	289.403	279.574	390.961	174.001	406.550	189.820	388.036	482.140	252.202	503.807	410.316	389.422	342.115	0.00022321	0.00076736	7.6179e-05	492.69	1.4028e-06	3.1103e-06	533.49	149.76	2.3194e-06	3.8378e-06	182.48	66.187	52.782	19.575	1.1052e-06	27.962	0.0013885	0.0017024	0.00047551	501.18	1.8314e-05	1.8998e-05	548.22	155.3	1.9416e-05	2.0419e-05	190.51	69.386	56.101	20.615	2.1118e-05	29.563	236.792	224.905	235.628	182.028	365.910	261.775	181.385	186.533	363.510	435.703	184.927	188.863	190.577	193.981	230.076	192.271	-8191	255	
1022.977	1	1	0	0	0.22731	0.11996	0.20923	0.18011	0.16862	0.1636	0.086313	0.18382	0.045325	0.0078357	0.27426	0.043059	0.08594	0.20461	0.052128	0.18252	-2.2521	-2.9396	-2.5125	-2.9458	-3.0167	-2.5062	-3.0958	-2.9271	-2.6667	-3.1479	-2.6729	-2.8042	-2.9625	-2.5187	-3.0458	-2.9583	221.666	324.199	243.245	221.087	332.484	449.600	269.034	472.382	439.681	339.923	403.403	209.044	514.471	420.321	284.476	437.956	0.00029804	0.00026411	7.1521e-05	495.85	4.9431e-06	2.8341e-06	539.88	151.37	4.1525e-06	9.2387e-06	181.06	67.065	53.468	19.892	2.9169e-06	28.353	0.0016074	0.0020102	0.00057038	511.96	2.2123e-05	2.3036e-05	559.3	158.56	2.3321e-05	2.4004e-05	192.84	70.766	57.359	21.097	2.4162e-05	29.877	216.355	464.012	237.302	181.845	377.256	209.514	181.343	186.608	355.629	338.856	185.251	189.179	190.101	193.869	379.144	192.275	-8191	255	
1023.073	1	1	0	0	0.14057	0.044028	0.031479	0.13542	0.11923	0.18581	0.1002	0.19198	0.19787	0.18636	0.13111	0.14443	0.27037	0.28716	0.11018	0.20726	-2.1688	-2.9583	-2.8063	-2.6354	-2.9521	-2.5708	-2.9833	-2.8	-2.6437	-2.9437	-2.7375	-2.7521	-3.15	-2.7396	-3.0083	-3.1437	393.367	185.849	191.706	389.389	264.560	501.664	186.648	247.764	334.209	506.660	254.202	523.676	442.473	234.539	342.938	526.664	0.00031014	0.00064244	0.00013271	498.93	2.4092e-06	5.0235e-06	542.38	151.45	6.4332e-06	2.928e-06	182.29	66.02	53.292	19.59	2.5712e-06	27.848	0.0017576	0.0022067	0.00062179	515.57	2.2959e-05	2.3552e-05	559.21	158.7	2.2578e-05	2.3405e-05	192.07	69.854	56.588	20.731	2.1991e-05	29.236	228.546	258.797	249.609	181.901	421.266	341.498	181.006	186.363	315.550	330.083	185.122	188.779	190.153	193.579	278.848	191.770	-8191	255	
1023.170	1	1	0	0	0.086341	0.5161	0.1534	0.050164	0.16906	0.26792	0.13809	0.03802	0.090137	0.23625	0.069462	0.16018	0.1459	0.068822	0.01374	0.020305	-1.8979	-2.8917	-2.875	-2.7521	-3.0375	-2.6417	-2.8937	-3.0438	-2.5792	-3.0625	-2.7188	-2.6833	-2.975	-2.5542	-2.6375	-3.0875	325.813	447.816	482.569	406.870	442.251	523.575	354.448	194.728	267.420	302.431	197.321	205.196	507.949	383.459	402.318	504.177	0.00026698	0.00066676	4.8558e-05	493.76	3.9256e-06	4.2666e-06	531.56	148.86	4.3769e-06	4.581e-07	180.74	64.451	51.668	18.966	3.1682e-06	26.854	0.0015642	0.0019524	0.00054822	506.59	2.0544e-05	2.1482e-05	548.94	154.69	2.0615e-05	2.1614e-05	188	67.626	55	20.024	2.2124e-05	28.454	227.940	222.048	341.413	181.367	324.482	299.500	181.611	186.479	276.908	427.815	184.984	189.171	190.171	194.337	363.724	192.065	-8191	255	
1023.264	1	1	0	0	0.10525	0.15063	0.092608	0.15496	0.096873	0.1235	0.11734	0.20388	0.132	0.038387	0.20347	0.16427	0.17617	0.11285	0.23448	0.18056	-2.1063	-3.0771	-2.7958	-2.6562	-2.9292	-2.6917	-2.7854	-3.0563	-2.5062	-3.0563	-2.9125	-2.6708	-3.0187	-2.7667	-2.7271	-3.1729	213.201	284.545	488.624	411.207	525.588	181.640	223.045	456.077	188.521	394.314	477.651	488.586	177.225	434.088	347.668	168.871	0.0002251	0.00026586	0.00017201	489.2	2.1778e-06	6.1602e-06	535.26	147.35	6.0319e-06	1.6072e-05	178	63.593	51.298	18.867	2.9265e-06	26.558	0.0016709	0.002114	0.0006079	505.42	2.4141e-05	2.5965e-05	554.33	154.97	2.5822e-05	2.733e-05	189.96	68.037	55.536	20.203	2.7045e-05	28.488	212.290	285.409	287.787	182.271	352.721	346.237	181.561	186.240	236.718	287.572	185.410	189.220	190.328	193.757	323.099	192.173	-8191	255	
1023.385	1	1	0	0	0.15112	0.29967	0.063617	0.14936	0.0065693	0.07945	0.14245	0.14459	0.22041	0.019809	0.042468	0.074656	0.18135	0.15601	0.14904	0.26011	-2.0792	-3.0646	-2.8583	-2.5896	-2.8292	-2.7979	-2.8021	-3.0604	-2.4417	-2.9271	-2.9771	-2.6646	-3.1417	-2.7792	-2.7	-3.2104	388.762	320.197	361.768	420.385	492.200	373.925	322.349	414.780	425.730	333.158	513.019	324.036	487.157	386.132	289.040	258.783	0.00021483	0.0012863	9.1915e-05	490.77	5.9783e-06	4.5104e-06	531.98	145.46	4.5229e-06	1.6779e-06	175.46	63.62	51.076	18.947	6.6923e-06	26.504	0.0019612	0.0024355	0.00068674	507.25	2.656e-05	2.7998e-05	553.77	154.16	2.7522e-05	2.8891e-05	189.27	68.234	55.953	20.443	2.9158e-05	28.689	241.474	429.907	248.485	181.934	427.935	264.671	181.216	186.700	404.931	458.680	185.250	189.338	190.399	193.669	353.636	191.650	-8191	255	
1023.481	1	1	0	0	0.21148	0.32329	0.1026	0.082233	0.20393	0.091485	0.1809	0.026197	0.30335	0.077946	0.18338	0.26259	0.1859	0.037947	0.2401	0.23345	-2.2083	-2.8292	-3.0271	-2.45	-3.0875	-2.9458	-2.6729	-3.2458	-2.6354	-2.8979	-2.9646	-2.675	-2.9354	-2.9562	-2.5479	-3.0292	176.825	414.019	323.180	378.910	248.716	242.911	502.199	428.908	397.998	247.436	381.183	501.891	417.599	424.812	183.906	190.832	0.00025513	0.00054999	0.00024723	491.2	4.8232e-06	6.2408e-06	530.32	146.4	1.297e-06	3.603e-06	178.76	63.382	51.693	18.937	3.0676e-06	26.726	0.0021205	0.0026769	0.00073696	510.47	2.7541e-05	2.8784e-05	554.66	154.74	2.8002e-05	2.9404e-05	190.71	68.306	56.226	20.486	2.8489e-05	28.79	229.883	434.692	239.957	182.367	369.259	362.097	181.841	186.728	365.182	463.364	184.974	189.118	190.148	193.627	215.354	192.041	-8191	255	
1023.577	1	1	0	0	0.084521	0.080138	0.090168	0.21573	0.18308	0.18733	0.20517	0.1258	0.23581	0.11963	0.20099	0.064646	0.29008	0.12488	0.16611	0.13234	-2.3417	-2.8063	-2.8729	-2.525	-2.8937	-2.8125	-2.6208	-3.05	-2.7188	-2.7333	-3.2	-2.7313	-2.9625	-3.0417	-2.675	-3.1104	504.993	404.841	322.299	454.587	331.127	180.924	315.149	190.511	230.987	280.291	425.808	339.806	462.216	438.277	438.109	350.374	0.00030345	0.00053084	0.00025369	488.32	4.4164e-06	4.0281e-06	532.59	145.83	3.4906e-06	1.1398e-05	175.7	63.49	51.196	18.987	4.6431e-06	26.804	0.0020603	0.0026083	0.00071626	507.27	2.7322e-05	2.8409e-05	552.81	154.8	2.7329e-05	2.835e-05	189.56	68.061	55.954	20.61	2.781e-05	28.823	209.681	213.454	305.836	182.263	333.882	447.292	181.401	186.733	280.890	348.070	185.361	188.890	190.287	194.202	186.350	192.405	-8191	255	
1023.649	1	1	0	0	0.17297	0.23668	0.087993	0.079839	0.19217	0.15426	0.33534	0.17298	0.058369	0.16034	0.20833	0.20794	0.17242	0.15222	0.1537	0.080613	-2.3583	-2.4375	-3.0687	-2.6396	-2.8042	-3.0917	-2.6583	-2.9917	-2.8646	-2.6417	-3.2646	-2.6292	-2.6583	-3.1646	-2.55	-3.0292	312.070	508.190	308.465	180.286	379.404	489.085	480.921	496.516	496.743	280.318	361.004	352.300	502.492	214.329	397.727	404.422	0.00025476	0.0011104	0.00021704	486.59	1.2329e-06	1.6199e-06	528.66	147.1	8.9994e-06	7.8785e-06	176.9	64.443	51.854	19.268	5.2372e-07	27.087	0.00208	0.0026188	0.00071346	507.7	2.7634e-05	2.8588e-05	552.81	155.42	2.7117e-05	2.7761e-05	189.51	68.554	56.121	20.637	2.601e-05	28.906	217.045	294.074	216.846	182.030	519.894	390.677	181.612	186.583	299.636	499.500	184.740	189.347	190.537	193.618	272.583	192.052	-8191	255	
1023.769	1	1	0	0	0.074689	0.12139	0.12434	0.23227	0.074472	0.25311	0.23659	0.29995	0.12128	0.10457	0.13964	0.21212	0.21543	0.12602	0.084693	0.16672	-2.375	-2.6083	-3.0208	-2.6437	-2.7979	-2.9354	-2.7354	-3.0687	-2.925	-2.6042	-3.1104	-2.7917	-2.7292	-3.0896	-2.5833	-3.1083	349.243	302.383	373.168	456.206	523.154	407.766	498.993	317.726	317.898	229.705	431.816	359.543	425.875	336.661	195.881	456.476	0.00023847	0.00029718	0.0001984	484.65	3.6502e-06	8.3706e-06	527.27	147.12	4.3727e-06	9.9001e-07	176.34	64.352	51.964	19.284	1.1852e-06	27.364	0.0018909	0.002333	0.00064168	499.2	2.4187e-05	2.4791e-05	546.57	153.94	2.4089e-05	2.4963e-05	188.21	68.281	55.833	20.673	2.5598e-05	29.065	224.433	405.806	509.841	181.910	230.047	303.370	181.589	186.467	191.767	460.460	185.196	189.365	190.363	193.734	289.754	192.281	-8191	255	
1023.865	1	1	0	0	0.058673	0.04638	0.029958	0.092789	0.05819	0.18089	0.27986	0.22471	0.063062	0.20475	0.30229	0.34332	0.096991	0.1363	0.14969	0.22595	-2.5167	-2.5792	-3.0708	-2.8771	-2.5771	-3.1063	-2.7146	-3.0375	-2.975	-2.5375	-2.9125	-2.7229	-2.6792	-3.2396	-2.5583	-3.0375	486.691	419.368	462.804	280.811	318.194	239.264	181.603	173.728	295.218	398.225	467.670	446.341	361.123	246.532	378.706	470.195	0.00029683	0.00037635	0.00010127	483.59	2.6529e-06	9.1615e-06	528.58	147.35	1.7693e-06	1.634e-06	177.29	65.131	52.374	19.465	6.492e-06	27.03	0.0018633	0.0023861	0.00066327	502.7	2.5874e-05	2.657e-05	550.54	156.16	2.6318e-05	2.7095e-05	190.92	69.179	56.694	20.878	2.6904e-05	29.133	233.709	282.922	481.180	182.001	411.766	309.019	181.501	186.641	295.678	316.034	184.961	188.664	190.243	193.727	275.073	192.231	-8191	255	
1023.962	1	1	0	0	0.27249	0.051764	0.14224	0.23926	0.014714	0.13242	0.19324	0.26998	0.1812	0.084897	0.092698	0.14003	0.29646	0.18823	0.2255	0.027148	-2.525	-2.5979	-2.9292	-2.7125	-2.5667	-3.1375	-2.5646	-2.8083	-3.0438	-2.4667	-2.9271	-2.8229	-2.7292	-3.1208	-2.7521	-2.7333	286.245	415.619	449.788	423.618	525.136	328.651	452.507	518.871	396.936	190.312	414.725	493.752	170.272	474.086	444.725	470.431	0.0002483	0.00089943	0.00012142	486.14	2.1705e-06	1.9435e-06	526.7	147.79	8.8688e-06	4.2379e-06	178.79	64.575	52.2	19.36	5.046e-06	27.161	0.0019514	0.0024295	0.00068767	503.81	2.565e-05	2.6586e-05	550.02	155.83	2.5822e-05	2.7359e-05	190.56	68.927	56.521	20.803	2.7145e-05	29.137	207.625	304.111	246.980	181.900	329.942	450.523	181.318	186.795	276.156	308.958	185.243	189.207	190.375	193.374	290.957	192.278	-8191	255	
1024.058	1	1	0	0	0.066578	0.08428	0.2184	0.22666	0.085098	0.1161	0.068094	0.30564	0.43222	0.071916	0.12537	0.15537	0.35861	0.11071	0.13092	0.036066	-2.5312	-2.5896	-2.7271	-3.0479	-2.4292	-3.1833	-2.7979	-2.5896	-3.0667	-2.7271	-2.8875	-3.0625	-2.5708	-3.025	-2.7396	-2.7208	506.391	522.670	456.576	479.629	389.330	466.380	518.366	464.680	244.423	172.147	518.775	392.474	232.372	528.277	282.961	221.596	0.00024754	0.00041507	0.00015193	488.18	5.4947e-06	4.3344e-06	532.53	148.77	3.4312e-06	8.6198e-06	177.47	65.246	52.551	19.504	3.5389e-06	27.242	0.0019535	0.0024578	0.00068747	506.45	2.6227e-05	2.7014e-05	553.46	156.3	2.6002e-05	2.6908e-05	190.93	69.526	56.616	20.854	2.5683e-05	29.245	242.041	244.552	515.487	181.941	390.644	359.645	181.661	186.714	202.644	353.200	185.180	189.142	190.479	193.948	338.014	192.376	-8191	255	
1024.178	1	1	0	0	0.24379	0.074598	0.13267	0.1172	0.026574	0.071188	0.18949	0.14826	0.12263	0.22056	0.14442	0.14412	0.066579	0.31934	0.067649	0.094088	-2.7	-2.5375	-2.7167	-3.0438	-2.7313	-3.0417	-2.9062	-2.5521	-2.9437	-2.8917	-2.8521	-3.0125	-2.5229	-2.8917	-2.9042	-2.4875	277.152	176.124	189.661	428.270	466.892	168.667	361.481	438.047	304.623	497.569	505.355	491.086	240.952	453.951	434.290	170.009	0.00022836	0.00053265	9.1172e-05	484.46	1.6855e-06	4.7273e-06	529.17	147.14	7.1968e-06	5.2453e-06	180.59	64.995	52.302	19.451	4.8287e-06	27.122	0.0018413	0.0023226	0.00065231	500.81	2.4327e-05	2.5473e-05	549.8	155.31	2.4967e-05	2.6632e-05	191.2	69.066	56.771	20.908	2.6168e-05	29.084	240.553	191.762	295.534	181.881	446.627	409.855	181.405	186.518	184.768	372.557	184.786	188.876	190.454	193.894	232.919	192.197	-8191	255	
1024.273	1	1	0	0	0.21471	0.077503	0.12959	0.12563	0.13463	0.29385	0.038137	0.14556	0.19036	0.05263	0.016112	0.28089	0.20545	0.073389	0.10708	0.088456	-2.6979	-2.75	-2.7188	-3.2167	-2.8083	-3.0042	-3.0146	-2.8438	-3.1354	-2.7062	-2.6729	-3.075	-2.6854	-3.0729	-3.0146	-2.8083	179.544	176.121	454.407	422.028	260.437	438.958	505.531	506.144	466.910	486.293	172.940	377.904	455.509	451.751	414.045	394.560	0.00022839	0.00046779	8.8892e-05	485.61	1.3359e-06	3.303e-06	530.82	146.95	2.606e-06	5.1944e-06	179	64.596	52.267	19.436	3.8145e-06	27.001	0.0018732	0.0023623	0.00065648	502.78	2.4507e-05	2.5459e-05	548.73	154.52	2.4929e-05	2.6534e-05	190.47	68.918	56.329	20.863	2.6841e-05	29.126	237.949	257.289	281.089	182.018	414.910	334.492	181.891	186.728	270.931	291.026	185.150	189.146	189.978	193.810	356.702	191.964	-8191	255	
1024.369	1	1	0	0	0.1087	0.095505	0.049554	0.070392	0.1879	0.11928	0.14651	0.081062	0.14706	0.10616	0.37266	0.194	0.17532	0.19506	0.03599	0.30493	-2.5833	-2.7229	-2.7125	-3.0708	-2.7	-2.9125	-3.2104	-2.6813	-3.1104	-2.9062	-2.6937	-3.0583	-2.6354	-2.8229	-2.8125	-2.6521	483.250	525.240	429.243	326.767	440.314	216.755	397.401	355.784	226.966	210.175	233.877	471.412	454.496	243.675	519.090	447.709	0.00020243	0.00033405	0.00022154	489.8	6.1334e-06	6.0288e-06	529.17	147.96	3.1301e-06	1.2021e-06	179.04	64.837	52.919	19.508	2.0739e-06	27.446	0.0019823	0.0025225	0.00070492	506.38	2.6662e-05	2.8078e-05	551.27	155.45	2.6922e-05	2.8344e-05	191.95	69.332	57.22	21.066	2.9028e-05	29.533	221.897	247.109	317.515	182.062	514.716	286.624	181.498	186.875	230.723	471.332	185.077	188.722	190.029	193.700	228.188	192.064	-8191	255	
1024.465	1	1	0	0	0.044396	0.11941	0.089069	0.30468	0.10808	0.19166	0.313	0.21712	0.11056	0.16901	0.011552	0.022561	0.18831	0.20951	0.11155	0.1017	-2.5104	-2.7833	-2.6875	-3.0229	-2.7729	-2.8875	-3.1167	-2.8396	-2.9229	-3.0417	-2.7479	-3.0687	-2.8375	-2.6479	-3.1125	-2.6604	430.513	450.413	339.912	404.978	228.843	301.373	398.855	190.733	502.135	224.383	231.257	314.894	505.699	479.630	266.370	232.143	0.00021139	0.00034637	0.00022053	489.18	1.2176e-06	9.8669e-06	531.44	146.48	2.0557e-06	5.9373e-06	177.67	64.477	51.396	19.067	5.881e-06	27.14	0.0021452	0.0026958	0.00074811	509.79	2.7854e-05	2.8604e-05	552.08	155	2.6043e-05	2.6653e-05	189.42	68.283	55.678	20.484	2.5074e-05	28.958	214.806	406.971	465.633	181.818	263.268	331.842	181.620	186.825	430.492	222.691	185.165	189.522	190.846	194.365	283.786	192.405	-8191	255	
1024.561	1	1	0	0	0.050908	0.085137	0.10051	0.23587	0.024533	0.23222	0.059356	0.31296	0.28687	0.22186	0.20929	0.26804	0.15107	0.21341	0.04526	0.13432	-2.3604	-2.9479	-2.6729	-3.1333	-2.7396	-2.6021	-2.9792	-2.5583	-2.7729	-3.1208	-2.5521	-3.1042	-2.8125	-2.7708	-3.1042	-2.6271	525.322	457.897	448.588	222.502	481.872	298.687	456.565	228.382	479.893	479.700	474.351	482.145	518.569	219.463	401.728	350.715	0.00027446	0.00084762	0.00017194	483.35	6.0418e-06	2.4779e-06	527.14	144.9	4.9506e-06	7.1832e-06	174.7	63.283	50.849	18.814	3.2177e-06	26.859	0.0018299	0.0022796	0.00063044	499.25	2.3265e-05	2.3599e-05	542.02	151.89	2.2202e-05	2.268e-05	185.4	66.782	54.285	20.021	2.2358e-05	28.333	218.128	399.068	317.124	181.794	256.833	288.015	181.311	186.848	263.251	265.755	185.264	189.001	190.573	193.672	177.559	192.424	-8191	255	
1024.657	1	1	0	0	0.055287	0.18523	0.32796	0.2819	0.10062	0.1404	0.11029	0.081485	0.2149	0.1309	0.11489	0.19247	0.39202	0.27506	0.072731	0.071345	-2.45	-3.0458	-2.6229	-3.1208	-2.9042	-2.7146	-3.125	-2.7458	-3.0021	-2.9542	-2.5854	-2.9792	-2.8563	-2.6625	-3.175	-2.7958	293.202	368.447	280.815	501.841	351.145	292.538	499.565	177.027	363.802	478.505	329.435	493.941	201.806	182.126	402.319	258.377	0.00027921	0.00049379	6.3328e-05	480.99	2.4344e-06	3.0161e-06	529.89	146.44	2.4865e-06	4.5646e-06	178.1	64.197	51.252	19.213	1.3814e-06	26.672	0.0016901	0.0021196	0.0005932	495.93	2.3627e-05	2.4674e-05	544.5	153.72	2.4818e-05	2.6067e-05	189.33	68.122	55.622	20.509	2.5726e-05	28.702	218.227	236.943	505.809	182.425	318.967	307.578	181.909	186.598	284.418	492.825	185.304	189.422	190.559	193.871	289.736	192.232	-8191	255	
1024.778	1	1	0	0	0.088071	0.026265	0.11013	0.091717	0.39684	0.25207	0.17468	0.053316	0.35763	0.0673	0.21688	0.19363	0.22803	0.22556	0.1654	0.28579	-2.1	-3.0708	-2.5687	-2.8167	-2.8812	-2.4938	-3.0167	-2.7354	-2.6542	-3.0354	-2.625	-3.0104	-2.8667	-2.6646	-3.0104	-2.8458	265.527	408.682	197.456	335.719	435.229	361.065	481.980	400.652	477.791	223.706	449.979	509.796	200.864	225.515	496.184	175.773	0.00028192	0.0003952	0.00020795	483.56	5.48e-06	1.0742e-05	527.85	144.23	3.6396e-06	8.6797e-06	175.22	63.375	50.698	18.9	6.0575e-06	26.418	0.0018804	0.0022891	0.0006287	497.07	2.3727e-05	2.4159e-05	542.97	151.58	2.3402e-05	2.4277e-05	186.14	67.193	54.592	20.151	2.3524e-05	28.364	240.857	357.335	249.573	181.772	337.286	330.889	181.301	186.735	242.269	287.081	184.976	188.977	190.258	194.318	353.755	192.248	-8191	255	
1024.874	1	1	0	0	0.2341	0.14077	0.33299	0.082025	0.053761	0.38814	0.16216	0.069516	0.16694	0.17916	0.23647	0.075274	0.072665	0.13814	0.08176	0.16769	-2.2479	-2.9854	-2.5104	-2.9396	-2.9917	-2.5292	-3.2188	-2.85	-2.6958	-3.0563	-2.65	-2.8646	-3.1479	-2.7271	-3.0563	-2.9958	325.955	273.695	335.430	231.007	239.255	241.361	442.571	349.947	460.188	358.649	424.415	387.260	404.529	503.879	316.480	474.100	0.0002059	0.0005034	0.00010498	479.15	6.285e-06	5.2269e-06	523.97	144.05	6.7484e-06	8.7912e-06	175.96	63.266	50.632	18.906	1.6529e-06	26.711	0.0017348	0.0021501	0.00059396	493.84	2.2412e-05	2.297e-05	541.59	150.72	2.2079e-05	2.2851e-05	185.71	67.012	54.214	20.076	2.227e-05	28.435	230.105	216.341	243.282	182.183	336.291	360.981	181.582	186.465	361.117	398.666	185.304	189.168	190.413	194.095	341.247	192.323	-8191	255	
1024.946	1	1	0	0	0.1236	0.30465	0.15108	0.24028	0.37994	0.11334	0.20705	0.3091	0.099096	0.15484	0.12443	0.45155	0.18056	0.20345	0.14185	0.025357	-2.2479	-3.0958	-2.8229	-2.725	-3.0438	-2.7479	-3.0812	-3.0167	-2.5521	-2.9917	-2.8479	-2.9083	-3.1521	-2.6708	-2.8833	-2.7938	255.344	494.458	261.288	375.824	460.657	338.579	403.556	445.555	259.225	182.913	295.846	481.760	517.425	187.999	456.888	449.190	0.00023402	0.00064189	5.5855e-05	477.46	3.953e-06	1.0875e-05	524.63	144.66	2.1318e-06	2.0691e-06	177.28	62.956	50.941	18.795	2.4487e-06	26.879	0.0016664	0.0020813	0.00059046	493.29	2.2767e-05	2.3588e-05	542.16	151.73	2.291e-05	2.4171e-05	186.47	67.145	54.441	20.072	2.3686e-05	28.51	221.309	344.163	217.899	182.102	316.807	259.604	181.598	186.658	502.677	389.819	184.997	189.092	190.126	194.231	252.467	192.314	-8191	255	
1025.042	1	1	0	0	0.054861	0.097054	0.035723	0.26049	0.12832	0.047031	0.13646	0.17837	0.10862	0.29222	0.24654	0.092235	0.24865	0.19604	0.10538	0.24852	-2.1542	-3.075	-2.7438	-2.8042	-3.0729	-2.7958	-3.0542	-3.05	-2.5812	-2.9792	-2.9333	-2.6458	-3.1604	-2.6896	-2.9125	-3.0646	462.761	242.429	527.442	412.778	513.212	483.683	263.613	281.818	316.188	382.965	446.471	511.858	459.987	172.922	467.559	373.663	0.00020612	0.0003044	0.0001856	481.93	4.453e-06	3.3009e-06	521.71	145.2	2.0484e-06	1.8014e-06	177.29	63.498	50.983	18.96	5.9656e-06	26.813	0.0017423	0.0022119	0.00061547	496.89	2.3031e-05	2.4164e-05	542.65	152.44	2.3612e-05	2.4826e-05	187.68	67.633	54.945	20.274	2.5098e-05	28.584	219.870	273.429	351.575	182.221	245.838	423.129	181.926	186.589	300.777	497.742	185.258	189.231	190.739	194.047	253.642	192.111	-8191	255	
1025.161	1	1	0	0	0.030778	0.10057	0.1043	0.31327	0.10637	0.12585	0.13608	0.12047	0.12468	0.05479	0.13693	0.17491	0.30697	0.06999	0.076224	0.061778	-2.0354	-3.0771	-2.6125	-2.7542	-3.0667	-2.6188	-2.8208	-2.8771	-2.7	-2.9479	-2.7542	-2.8021	-3.1833	-2.5229	-2.6417	-3.1708	237.114	335.797	428.799	463.404	320.308	457.576	470.666	480.509	231.790	476.087	370.100	425.771	422.604	497.272	284.482	284.828	0.00030169	0.00023916	0.0001487	484.11	5.9465e-06	5.852e-06	530.06	148.3	5.038e-06	7.107e-06	178.49	64.257	52.097	19.132	8.7978e-06	26.68	0.001864	0.0023915	0.0006875	502.83	2.6535e-05	2.8334e-05	555.08	156.22	2.8492e-05	3.0235e-05	192.34	69.229	56.783	20.699	3.0578e-05	28.81	234.798	251.445	208.730	182.217	325.295	357.923	181.487	186.881	420.881	449.378	184.891	189.398	190.525	193.465	453.635	192.227	-8191	255	
1025.257	1	1	0	0	0.32893	0.086854	0.15771	0.14977	0.15974	0.21244	0.04674	0.09968	0.090918	0.06234	0.2225	0.30908	0.12286	0.040736	0.037901	0.10867	-2.0771	-3.0167	-2.8104	-2.5375	-3.1729	-2.7792	-2.7104	-2.8958	-2.7062	-2.7188	-3.0667	-2.4542	-2.8458	-2.9	-2.6312	-3.0417	420.645	404.611	519.301	501.581	519.401	251.788	468.004	467.771	482.886	212.174	219.776	526.097	494.209	493.780	481.676	321.136	0.00029356	0.00082381	0.00021911	488.82	1.4063e-06	6.3626e-06	535.3	147.46	6.9535e-06	9.1553e-06	176.63	62.844	50.658	18.505	4.407e-06	26.354	0.0022048	0.0028051	0.00078088	509.77	2.8849e-05	3.0486e-05	555.86	155.2	2.8388e-05	2.967e-05	189.26	67.628	55.586	20.132	2.996e-05	28.457	205.022	330.203	495.702	182.399	206.266	285.787	181.204	186.704	348.769	356.595	185.013	189.372	190.070	194.298	250.698	192.245	-8191	255	
1025.353	1	1	0	0	0.14343	0.14875	0.27666	0.23108	0.1497	0.24153	0.24685	0.065345	0.11618	0.1059	0.15294	0.16995	0.32368	0.060539	0.13147	0.078348	-2.2375	-2.8812	-2.9604	-2.5458	-3.0479	-2.7708	-2.5417	-3.0438	-2.8167	-2.8	-3.0167	-2.5708	-3.0208	-2.7917	-2.7104	-3.1	478.979	381.629	256.875	491.403	331.739	464.736	396.869	357.149	413.496	473.629	344.748	455.396	472.043	193.880	480.692	364.883	0.00018394	0.00045662	0.0001365	493.56	1.0184e-05	9.281e-06	532.56	145.42	5.8609e-06	5.6412e-06	174.44	62.65	50.555	18.427	1.5469e-06	25.708	0.0022126	0.0028784	0.00080335	515.11	3.1216e-05	3.2739e-05	561.09	155.93	3.1945e-05	3.3489e-05	190.71	67.917	56.035	20.172	3.3156e-05	28.204	219.359	293.285	285.565	182.099	274.346	389.232	181.505	187.008	275.822	333.482	185.063	189.255	190.158	193.829	516.158	192.332	-8191	255	
1025.449	1	1	0	0	0.21519	0.17219	0.23271	0.1348	0.08779	0.24694	0.21048	0.16111	0.075432	0.22018	0.1624	0.14472	0.12229	0.29581	0.11941	0.17331	-2.25	-2.6896	-2.9	-2.4604	-2.8937	-2.9292	-2.5042	-3.0958	-2.6375	-2.8792	-3.0417	-2.4792	-2.9646	-2.8625	-2.4896	-3.05	439.232	441.229	450.294	463.683	205.564	380.816	516.181	490.790	381.335	339.328	253.230	471.797	393.839	365.922	471.622	318.429	0.0002506	0.00025123	0.00010624	485.11	3.0249e-06	5.2058e-06	527.39	144.4	1.4199e-06	1.1318e-05	174.47	61.643	50.004	18.127	5.5314e-06	25.548	0.002441	0.0031298	0.00086843	513.04	3.2826e-05	3.363e-05	557.12	154.99	3.2506e-05	3.3559e-05	189.25	67.018	55.352	19.791	3.1291e-05	27.683	224.749	284.174	515.501	182.110	495.314	238.315	181.442	186.376	332.786	292.322	184.786	188.771	190.531	194.010	189.081	192.354	-8191	255	
1025.545	1	1	0	0	0.2955	0.14648	0.16534	0.075598	0.23424	0.093213	0.21333	0.07956	0.16022	0.24909	0.16397	0.090762	0.25677	0.069444	0.13749	0.17408	-2.2229	-2.7042	-3.0958	-2.6813	-2.9104	-2.9854	-2.7396	-2.9042	-2.7604	-2.5771	-3.0625	-2.6521	-2.7333	-2.9333	-2.5917	-3.0375	240.194	266.533	351.969	524.067	228.001	308.702	460.026	308.535	388.964	297.265	214.063	489.660	423.407	413.481	393.668	465.950	0.00020861	0.00060208	9.8612e-05	483.58	2.2179e-07	4.6366e-06	522.92	143.19	3.9811e-06	8.56e-06	174.41	61.026	50.286	18.129	1.0017e-05	25.667	0.0022804	0.002889	0.00080178	505.72	3.0713e-05	3.1215e-05	548.58	152.32	3.0951e-05	3.2457e-05	188.37	67.093	55.681	20.035	3.4304e-05	28.218	235.354	302.336	290.073	181.931	370.937	253.343	181.720	186.177	171.939	335.852	185.429	189.101	190.633	194.027	365.081	192.113	-8191	255	
1025.642	1	1	0	0	0.29639	0.14495	0.093477	0.28545	0.19512	0.22367	0.094999	0.31337	0.16043	0.070961	0.35671	0.25077	0.21415	0.15237	0.18661	0.1258	-2.3479	-2.5708	-3.0604	-2.5896	-2.9917	-3.0187	-2.7854	-2.9813	-2.8042	-2.6562	-3.1854	-2.6771	-2.7625	-3.0208	-2.5521	-2.9167	314.821	353.917	442.779	231.309	340.893	444.868	192.717	424.510	445.580	444.075	525.745	263.056	198.823	266.477	258.375	514.870	0.00022016	0.00033498	0.00031084	488.72	1.1948e-06	2.8339e-06	531.26	144.52	5.6342e-06	2.433e-06	173.81	62.105	49.919	18.06	4.95e-06	25.173	0.0025736	0.0032757	0.00092272	518.91	3.5362e-05	3.6737e-05	563.9	156.53	3.6354e-05	3.7675e-05	191.62	68.015	56.195	20.117	3.7758e-05	28.145	230.403	462.780	275.133	181.976	506.577	346.684	181.766	186.572	520.991	185.587	185.524	189.046	190.008	193.797	274.691	192.552	-8191	255	
1025.738	1	1	0	0	0.18352	0.34717	0.32375	0.10734	0.071015	0.1951	0.12209	0.088958	0.18453	0.18503	0.22861	0.23155	0.014062	0.14743	0.15105	0.26282	-2.2833	-2.6125	-2.9896	-2.7396	-2.8792	-3.0875	-2.6375	-2.8479	-2.7542	-2.5417	-3.0271	-2.9062	-2.5438	-2.9292	-2.6417	-2.8146	301.222	325.850	324.855	336.782	272.514	460.661	442.802	361.968	272.428	438.560	214.857	492.579	352.735	279.205	310.468	376.985	0.0002507	0.00070183	0.00011874	487.39	7.4064e-06	3.8003e-06	525.94	143.03	8.017e-06	2.6947e-06	171.21	60.345	49.055	17.987	1.5936e-06	24.957	0.0027416	0.0034883	0.00096762	517.85	3.6343e-05	3.7428e-05	559.37	154.36	3.5837e-05	3.6621e-05	188.79	66.454	54.956	19.778	3.5158e-05	27.675	229.692	239.862	313.960	181.796	382.358	172.754	181.739	186.905	357.732	400.541	185.418	188.768	189.940	193.962	271.847	192.180	-8191	255	
1025.858	1	1	0	0	0.24774	0.16336	0.098876	0.27813	0.035505	0.044977	0.11859	0.2137	0.086462	0.21836	0.14395	0.27164	0.20417	0.10373	0.32508	0.15345	-2.55	-2.3417	-2.9229	-2.8729	-2.5917	-3.0708	-2.7812	-2.8833	-2.9896	-2.5708	-2.9333	-2.9854	-2.6	-2.9333	-2.5333	-2.8375	465.025	257.132	198.997	168.770	472.641	325.205	460.873	474.843	303.061	439.697	500.345	492.644	524.595	488.969	300.109	298.600	0.00024491	0.00066311	7.4954e-05	479.75	7.7475e-06	1.0042e-05	520.99	142.23	3.8737e-06	6.1405e-06	170.44	61.203	49.472	18.05	3.0572e-06	25.39	0.0025247	0.0032231	0.00090326	508.76	3.4308e-05	3.5632e-05	553.28	153.3	3.4104e-05	3.494e-05	187.45	66.672	54.913	19.887	3.2996e-05	27.83	234.899	265.857	239.153	182.184	369.272	269.256	181.746	186.655	287.525	292.937	184.712	189.129	190.398	194.062	377.242	192.299	-8191	255	
1025.954	1	1	0	0	0.19298	0.11361	0.20538	0.2002	0.22161	0.22546	0.26139	0.22259	0.38253	0.20993	0.16294	0.12856	0.15025	0.16166	0.14651	0.082049	-2.5333	-2.4437	-2.9479	-2.9896	-2.5646	-3.0583	-2.8812	-2.6521	-3.0708	-2.5333	-3.0104	-2.9625	-2.4562	-3.1979	-2.5917	-2.7729	449.508	417.082	350.524	245.127	287.033	464.340	481.401	469.477	355.413	377.088	209.209	423.997	497.906	337.594	496.987	485.015	0.00020354	0.00023705	6.7042e-05	479.4	5.8654e-06	1.191e-05	521.25	141.53	3.4786e-06	2.7777e-06	173.29	61.478	49.946	18.315	5.4625e-06	25.713	0.0023851	0.0029986	0.00083781	503.48	3.1438e-05	3.2527e-05	548.1	152.27	3.149e-05	3.2807e-05	187.99	66.925	55.231	20.141	3.2976e-05	28.292	262.252	262.299	227.833	182.132	375.116	411.586	181.370	186.951	383.407	377.272	185.323	188.831	190.247	193.684	307.691	192.101	-8191	255	
1026.051	1	1	0	0	0.063361	0.23552	0.35122	0.22424	0.16929	0.17747	0.075314	0.070232	0.12454	0.15385	0.18226	0.31852	0.13317	0.12237	0.15388	0.2505	-2.5771	-2.5438	-2.9188	-2.8417	-2.4354	-2.9688	-2.8917	-2.6833	-3.2083	-2.5875	-2.9771	-2.8083	-2.5583	-2.8667	-2.8063	-2.5646	177.347	254.886	423.250	501.921	453.249	262.674	431.499	523.392	526.836	323.589	384.499	520.737	300.760	360.625	526.675	503.881	0.00027554	0.000222	0.00014979	483.62	3.9775e-06	3.5669e-06	525.94	143.51	6.3983e-06	7.5685e-06	173.7	61.92	50.285	18.477	4.0318e-06	25.722	0.0024075	0.0030633	0.00085668	508.21	3.1791e-05	3.3226e-05	553.43	153.75	3.1532e-05	3.2932e-05	188.85	67.253	55.323	20.178	3.1804e-05	28.26	230.685	263.693	320.447	182.029	320.743	321.906	181.491	186.866	367.722	317.696	185.025	189.235	190.129	194.078	382.697	192.402	-8191	255	
1026.169	1	1	0	0	0.22796	0.157	0.22507	0.1668	0.1696	0.37725	0.27541	0.16257	0.020623	0.23786	0.19788	0.088623	0.003851	0.45105	0.11525	0.067071	-2.6208	-2.6021	-2.8063	-2.75	-2.6125	-2.775	-2.8104	-2.5958	-3.0542	-2.6229	-2.6479	-2.9125	-2.7188	-2.8479	-2.8063	-2.6188	179.060	480.388	206.490	386.610	387.776	348.759	377.679	386.779	194.545	316.117	519.992	505.621	261.058	224.968	391.001	369.780	0.00023968	0.00062965	0.00014441	481.44	2.8722e-06	5.312e-06	522.42	142.71	5.7141e-06	6.9361e-06	173.42	61.523	50.269	18.599	9.2073e-06	25.758	0.0023055	0.0029134	0.00081452	503.74	3.0398e-05	3.1374e-05	548.64	152.69	3.0125e-05	3.2048e-05	188.25	67.037	55.261	20.241	3.2542e-05	28.367	216.932	520.707	245.258	182.457	269.635	276.808	181.817	186.905	292.272	346.348	185.173	189.100	190.412	193.512	313.538	192.666	-8191	255	
1026.241	1	1	0	0	0.068098	0.12862	0.14979	0.15837	0.2811	0.19989	0.042869	0.25697	0.2818	0.13125	0.068542	0.16254	0.11059	0.1039	0.19748	0.050535	-2.5708	-2.5792	-2.6354	-2.9854	-2.7271	-3.0625	-3.0563	-2.6021	-2.8979	-2.5958	-2.725	-3.1188	-2.65	-2.6979	-2.95	-2.5104	219.512	390.926	421.933	430.111	303.148	493.128	278.371	481.607	403.100	198.859	402.411	172.515	169.920	200.515	480.433	222.236	0.00023108	0.00031785	0.00017953	483.6	1.1059e-06	6.8311e-06	525.52	144.1	4.6101e-06	3.4963e-06	174.41	62.613	50.464	18.532	4.0927e-06	26.187	0.0023632	0.0030097	0.00084792	508.66	3.19e-05	3.2971e-05	553.21	154.03	3.135e-05	3.3043e-05	189.18	67.65	55.673	20.344	3.0946e-05	28.406	215.664	287.839	309.801	182.055	287.026	221.489	181.709	186.584	306.768	306.163	184.897	189.262	190.353	194.069	468.232	192.424	-8191	255	
1026.337	1	1	0	0	0.18644	0.14194	0.32304	0.15328	0.19986	0.020516	0.259	0.10276	0.18861	0.020344	0.16335	0.084809	0.2476	0.39208	0.049064	0.098401	-2.6625	-2.7979	-2.3833	-2.9062	-2.6375	-2.8979	-3.0625	-2.5833	-2.9354	-2.8104	-2.6	-3.0646	-2.5521	-2.775	-3.0375	-2.5667	403.387	206.127	246.577	404.341	274.120	338.188	439.553	309.493	449.970	523.175	466.664	521.477	414.480	224.592	318.662	446.714	0.0002277	0.0010073	8.3974e-05	480.93	1.7616e-06	3.9937e-06	524.56	144.39	2.8343e-06	6.9192e-07	174.21	62.615	50.437	18.71	4.3756e-06	26.124	0.0022164	0.002786	0.00078438	502.75	2.9422e-05	3.0855e-05	550.33	153.61	2.9806e-05	3.169e-05	189.41	67.53	55.559	20.257	3.017e-05	28.44	226.579	250.965	302.335	182.289	459.191	286.187	181.349	186.509	200.804	394.092	185.756	189.317	189.965	193.827	320.355	192.401	-8191	255	
1026.458	1	1	0	0	0.049396	0.24675	0.10817	0.091591	0.15832	0.08227	0.23349	0.21872	0.026337	0.18028	0.17922	0.051702	0.22836	0.038396	0.11578	0.17026	-2.5417	-2.8375	-2.625	-3.0167	-2.7313	-2.625	-3.2354	-2.8208	-2.8917	-2.9146	-2.5375	-3.0187	-2.65	-2.725	-2.9708	-2.7083	435.058	403.931	384.635	308.767	502.436	410.178	508.598	473.463	434.458	444.121	373.688	383.949	315.449	443.505	172.299	201.989	0.00029884	0.00012178	0.00019313	486.49	1.2273e-05	4.8893e-06	531	145.46	1.2259e-06	8.0324e-06	176.43	63.386	50.971	18.743	5.0614e-06	26.586	0.0021955	0.0027934	0.00078082	507.46	3.0333e-05	3.2307e-05	558.5	155.41	3.2237e-05	3.381e-05	192.52	69.032	56.779	20.693	3.3719e-05	28.963	228.162	237.713	300.796	182.358	312.805	314.392	181.783	186.691	304.017	188.711	185.584	189.456	190.385	194.159	297.761	192.610	-8191	255	
1026.554	1	1	0	0	0.24366	0.069072	0.034275	0.14587	0.11579	0.067199	0.18394	0.080455	0.23505	0.12322	0.30176	0.25404	0.04045	0.17859	0.19054	0.079753	-2.6479	-2.8208	-2.4271	-2.9271	-2.7646	-2.6042	-3.325	-2.6854	-2.6667	-3.0187	-2.6479	-2.9021	-2.7833	-2.5938	-3.1104	-2.8125	433.395	488.799	368.196	172.468	434.439	359.923	434.616	176.509	461.538	422.844	379.068	511.029	435.123	228.494	479.837	470.495	0.00025419	7.3517e-05	0.00019636	490.09	3.0542e-06	2.8905e-06	535.37	146.19	7.6032e-06	6.7454e-06	175.58	63.452	51.709	18.994	4.054e-06	26.342	0.0025046	0.0031706	0.00089173	517.13	3.4093e-05	3.5352e-05	565.24	157.26	3.4919e-05	3.6712e-05	193.12	69.136	57.629	20.971	3.744e-05	29.185	237.321	315.460	317.970	182.047	331.709	465.243	181.920	186.898	375.432	338.758	185.117	189.021	190.412	193.855	359.351	192.674	-8191	255	
1026.650	1	1	0	0	0.16936	0.05683	0.27195	0.18363	0.37565	0.099007	0.10577	0.20771	0.24252	0.16665	0.021494	0.23755	0.14313	0.21381	0.14249	0.11858	-2.5979	-3.0521	-2.5563	-3.0583	-2.9146	-2.6458	-3.0812	-2.6646	-2.6146	-2.7958	-2.6396	-2.9354	-2.9125	-2.375	-3.1708	-2.7583	264.734	209.190	494.967	275.895	483.858	330.294	330.504	370.633	448.349	365.478	295.989	528.010	194.312	443.718	231.812	410.250	0.00023033	0.00033424	9.5699e-05	495.06	2.3254e-06	8.9453e-06	538.66	145.63	5.5162e-06	5.3425e-06	176.88	62.914	50.911	18.672	4.0574e-06	26.437	0.0027564	0.0034965	0.0009605	524.27	3.6508e-05	3.7302e-05	567.8	157.47	3.5144e-05	3.664e-05	193.43	68.619	56.627	20.555	3.4928e-05	28.879	216.777	240.569	187.696	182.069	305.530	337.695	181.427	186.629	201.920	446.885	184.912	188.560	190.075	194.009	279.809	191.988	-8191	255	
1026.746	1	1	0	0	0.15839	0.04663	0.12166	0.2234	0.090731	0.2798	0.029755	0.21546	0.171	0.16405	0.026621	0.19332	0.18644	0.1674	0.13924	0.23648	-2.3146	-3.0062	-2.4396	-2.9188	-2.8542	-2.6813	-3.1521	-2.625	-2.7667	-3.0792	-2.6792	-2.7687	-3.0771	-2.6917	-2.9562	-2.9292	319.399	222.279	188.640	439.283	493.387	457.543	192.838	482.844	283.846	480.994	413.164	344.519	496.863	266.578	513.285	180.425	0.00018683	0.00041871	0.00025317	493.56	9.7653e-06	8.127e-07	531.98	145.71	1.1626e-05	4.0213e-06	174.75	62.318	50.287	18.309	2.4851e-06	26.16	0.0025655	0.0032312	0.00090147	517.72	3.4543e-05	3.542e-05	563.69	156.13	3.3649e-05	3.4453e-05	191.4	67.726	55.785	20.195	3.363e-05	28.677	244.925	282.295	346.773	182.036	382.805	223.030	181.498	186.756	206.437	396.999	185.556	188.690	189.900	194.140	451.631	192.445	-8191	255	
1026.843	1	1	0	0	0.24368	0.057772	0.10562	0.1817	0.12344	0.21469	0.14328	0.10445	0.12471	0.29282	0.073979	0.11987	0.077474	0.070988	0.11063	0.10945	-2.2417	-3.0042	-2.7021	-2.8458	-2.8958	-2.6354	-3.025	-2.9979	-2.8458	-3.0771	-2.7625	-2.8646	-2.9813	-2.3833	-2.9542	-2.9583	416.317	487.783	172.430	234.425	424.715	190.467	413.507	383.055	302.146	441.513	391.058	463.604	398.375	412.829	503.690	411.774	0.00024907	0.0007291	0.00017844	489.6	2.6597e-06	1.0698e-05	541.29	145.94	1.1014e-06	5.553e-06	175.97	63.086	51.257	18.863	6.2054e-06	26.559	0.0025274	0.0032243	0.00089568	517.95	3.4512e-05	3.5905e-05	569.12	157.39	3.4895e-05	3.6486e-05	193.49	68.931	56.87	20.691	3.5768e-05	29.163	222.564	275.339	268.453	182.077	244.226	267.087	181.765	186.648	409.548	281.640	185.201	189.381	190.255	194.110	313.828	192.888	-8191	255	
1026.939	1	1	0	0	0.12585	0.21459	0.094117	0.37116	0.22586	0.18289	0.22907	0.090296	0.18095	0.068838	0.098089	0.1871	0.27134	0.15781	0.048635	0.0037275	-2.0021	-3.0271	-2.6646	-2.7313	-3.0583	-2.6396	-2.9396	-2.9271	-2.6875	-3.0271	-2.7729	-2.7583	-3.2104	-2.6646	-2.9625	-3.025	413.578	518.632	235.135	480.460	282.424	302.691	493.945	247.282	386.425	259.182	418.660	526.966	334.833	434.892	519.022	191.122	0.00028725	0.00091486	0.00028831	494.09	6.4642e-06	1.1414e-05	537.91	147.42	3.4263e-06	3.2304e-06	175.91	63.605	52.242	19.178	4.8534e-06	27.014	0.0026173	0.0033416	0.00094205	521.79	3.6271e-05	3.7715e-05	570.4	159.36	3.6753e-05	3.7927e-05	195.28	70.014	57.824	21.167	3.7143e-05	29.573	243.009	332.763	179.185	182.474	334.233	359.538	181.760	186.549	309.919	454.818	185.066	189.092	190.413	193.867	294.279	192.699	-8191	255	
1027.035	1	1	0	0	0.14065	0.029262	0.28065	0.14315	0.093817	0.13736	0.12075	0.18356	0.22457	0.026502	0.11709	0.19334	0.12959	0.35962	0.18273	0.10971	-2.1896	-2.8771	-2.7313	-2.8833	-3.0479	-2.6479	-2.8146	-2.8542	-2.65	-3.1813	-2.9375	-2.6333	-3.0979	-2.6521	-2.8708	-3.1688	218.457	483.848	488.655	238.274	207.301	493.980	491.558	477.630	394.323	484.384	300.513	384.761	365.921	408.460	503.257	403.786	0.00029697	0.0002089	4.009e-05	491.84	3.0698e-06	5.5799e-06	538.54	147.63	6.6622e-06	1.56e-06	179.2	63.768	52.162	19.412	6.3732e-06	26.874	0.0026687	0.0034032	0.00096764	522.5	3.6317e-05	3.7793e-05	570.42	160.23	3.6635e-05	3.834e-05	196.43	70.256	58.144	21.369	3.7608e-05	29.653	211.935	283.749	479.068	182.262	354.309	509.157	181.548	186.815	250.971	462.258	185.117	188.994	189.842	193.665	367.738	192.142	-8191	255	
1027.131	1	1	0	0	0.44978	0.30257	0.13083	0.16904	0.16176	0.20885	0.10376	0.092442	0.20338	0.097829	0.10377	0.18592	0.20304	0.12058	0.01354	0.11023	-2.1021	-2.9813	-2.8312	-2.7562	-3.1354	-2.6979	-2.8187	-2.875	-2.5167	-3.1562	-2.9896	-2.6417	-3	-2.7521	-2.7313	-3.0771	448.736	263.792	331.587	450.715	344.236	477.661	438.407	512.938	291.390	418.072	522.326	268.472	414.221	405.156	485.543	423.928	0.00021233	0.00044994	0.00024094	495.97	6.3305e-06	9.4312e-06	536.76	149.32	6.725e-06	9.1799e-07	179.97	64.393	52.752	19.624	1.7932e-06	26.973	0.0026818	0.0034353	0.00096929	523.44	3.704e-05	3.8941e-05	572.24	161.2	3.8362e-05	4.0168e-05	198.87	71.047	59.256	21.719	4.1006e-05	30.053	217.471	234.767	280.739	182.320	324.011	341.623	181.650	186.924	275.149	336.567	185.238	189.264	189.771	193.825	471.933	192.270	-8191	255	
1027.250	1	1	0	0	0.21556	0.11084	0.20349	0.13056	0.26646	0.099952	0.11518	0.12099	0.3841	0.088056	0.097236	0.05199	0.12822	0.13388	0.076002	0.26123	-2.1	-3.0625	-2.9417	-2.5542	-2.9458	-2.9375	-2.6042	-3.0958	-2.5375	-2.7583	-2.825	-2.6292	-2.9771	-2.6479	-2.5354	-3.1562	462.130	437.562	256.925	208.743	265.621	429.026	433.483	397.268	471.169	170.858	439.848	461.727	203.139	523.065	512.592	172.464	0.00030009	0.00049479	0.00028393	497.39	7.4106e-06	3.453e-06	547.1	151.48	2.3747e-06	3.4023e-06	181.54	65.64	54.015	19.911	4.1691e-06	27.048	0.0029614	0.0038444	0.0010704	533.28	4.1699e-05	4.4043e-05	587.33	165.32	4.3072e-05	4.5423e-05	203.93	73.331	60.887	22.277	4.4839e-05	30.511	224.284	320.602	266.171	182.049	362.854	273.739	181.297	186.883	368.845	315.627	184.861	189.096	190.345	193.515	354.197	192.168	-8191	255	
1027.346	1	1	0	0	0.12794	0.18172	0.11524	0.2188	0.15925	0.033266	0.1876	0.10664	0.12926	0.12533	0.26495	0.22622	0.23019	0.097692	0.087524	0.10768	-2.2812	-2.8438	-2.8729	-2.4292	-3.1667	-2.8833	-2.5792	-3	-2.6729	-2.6896	-3.0792	-2.5812	-2.7875	-2.8812	-2.4958	-3.1104	500.372	487.613	306.122	509.770	175.436	406.215	352.633	516.896	457.005	430.063	241.947	415.818	495.322	230.516	303.719	397.988	0.00028147	0.00059771	0.00025476	503.2	1.4499e-06	8.0178e-06	546.29	149.93	7.6718e-06	1.1638e-05	179.88	64.689	52.857	19.463	4.4869e-06	26.564	0.0032298	0.0041467	0.0011397	540.15	4.3243e-05	4.5496e-05	586.99	164.37	4.3057e-05	4.507e-05	201.44	71.892	60.062	21.738	4.3761e-05	29.932	239.579	392.954	214.707	182.453	415.640	237.490	181.859	186.698	331.282	309.685	185.162	188.265	190.600	194.075	216.952	192.297	-8191	255	
1027.442	1	1	0	0	0.23369	0.028	0.30596	0.17544	0.079937	0.15259	0.23818	0.14227	0.10429	0.20767	0.26369	0.015917	0.095636	0.062543	0.047337	0.10575	-2.2958	-2.7021	-2.9	-2.5896	-2.9188	-3.0917	-2.4417	-3.0104	-2.6875	-2.75	-3.0604	-2.6417	-2.8875	-3.025	-2.5271	-3.125	314.738	259.696	297.270	499.741	312.044	496.818	499.817	455.958	528.445	435.577	420.902	511.599	505.641	330.721	278.030	225.764	0.00025033	0.0008187	0.00023027	503.51	2.903e-06	1.24e-05	547.21	149.24	6.0225e-06	4.3572e-06	180.69	64.836	53.016	19.673	6.1037e-06	26.773	0.0031249	0.0039612	0.0011014	536.32	4.2031e-05	4.4155e-05	582.75	163.61	4.3595e-05	4.5275e-05	202.31	72.382	60.528	22.077	4.6581e-05	30.501	231.557	268.357	300.450	181.931	226.110	328.160	181.561	186.730	288.608	270.893	185.271	188.961	189.988	193.895	322.380	191.695	-8191	255	
1027.538	1	1	0	0	0.34835	0.22748	0.12004	0.099618	0.050588	0.18988	0.031993	0.48395	0.22391	0.2433	0.056172	0.11363	0.044607	0.057573	0.18087	0.079178	-2.25	-2.8229	-3.0229	-2.7771	-2.8417	-2.9375	-2.4437	-2.9688	-2.7	-2.5146	-3.1542	-2.7625	-2.8292	-2.9354	-2.525	-3.0292	362.858	278.094	313.166	379.720	206.170	510.927	453.248	494.980	522.179	306.161	461.597	290.975	214.200	323.190	456.437	179.046	0.00022513	0.00033099	0.00038476	508.91	7.8441e-06	6.7511e-06	554.02	152.02	2.8585e-06	9.2062e-06	181.16	65.433	53.437	19.813	8.8662e-06	27.11	0.0034311	0.0044076	0.0012413	549.7	4.7334e-05	4.933e-05	598.59	168.06	4.8271e-05	5.0104e-05	205.98	73.633	61.567	22.529	4.867e-05	30.863	240.222	351.240	322.695	182.331	245.486	334.395	181.812	186.131	478.942	322.832	185.451	189.197	189.875	193.464	310.176	192.022	-8191	255	
1027.634	1	1	0	0	0.27629	0.19761	0.22872	0.2278	0.1005	0.15195	0.16463	0.18897	0.092943	0.081374	0.25202	0.14809	0.11708	0.096132	0.12277	0.067087	-2.5167	-2.5125	-2.9771	-2.8271	-2.6479	-3.0271	-2.6208	-3.0625	-2.7979	-2.5563	-3.0062	-2.7812	-2.5917	-3.0604	-2.5271	-2.7229	312.129	456.759	472.078	401.732	194.700	351.361	385.633	477.158	504.263	505.195	411.099	491.186	209.383	364.908	466.941	432.525	0.00026035	0.00061296	8.1198e-05	506.31	3.3293e-06	3.2205e-06	548.19	151.23	5.184e-06	6.8163e-06	180.96	65.675	52.975	19.717	1.0838e-05	27.265	0.0035366	0.0044578	0.0012356	547.56	4.7007e-05	4.8113e-05	592.25	166.65	4.5614e-05	4.7472e-05	204.6	73.31	60.863	22.319	4.6007e-05	30.762	231.792	265.823	292.161	182.458	295.339	285.867	181.704	186.284	312.788	188.741	185.123	189.160	190.138	193.821	384.273	192.249	-8191	255	
1027.731	1	1	0	0	0.17684	0.13378	0.16187	0.25864	0.17908	0.062859	0.22701	0.091732	0.070107	0.15288	0.19132	0.11591	0.14684	0.22069	0.16249	0.067376	-2.5312	-2.375	-2.9833	-2.7354	-2.6083	-2.9292	-2.4875	-2.6875	-2.8021	-2.6167	-2.8708	-2.8229	-2.6542	-3.1562	-2.5812	-2.8292	513.500	352.864	235.205	385.347	191.262	246.172	432.149	220.595	340.204	421.775	341.442	324.625	190.443	174.500	279.066	300.317	0.00021816	0.00085872	0.00017098	506.25	4.7764e-06	1.5799e-05	546.57	152.05	5.9682e-06	3.8003e-06	181.56	65.412	53.367	19.958	7.7328e-06	27.129	0.0033718	0.0042881	0.0012152	545.15	4.6492e-05	4.7908e-05	593.19	167.52	4.643e-05	4.79e-05	204.63	73.492	61.193	22.446	4.6321e-05	30.781	242.378	368.482	249.407	181.941	511.971	352.283	182.038	186.682	316.004	493.157	184.857	188.961	190.053	193.736	320.857	192.152	-8191	255	
1027.851	1	1	0	0	0.21799	0.082132	0.048685	0.062127	0.2262	0.15586	0.14685	0.083615	0.10781	0.028698	0.21991	0.26987	0.31988	0.25086	0.29243	0.12846	-2.5604	-2.4354	-2.9437	-2.6583	-2.4875	-3.0312	-2.6229	-2.6958	-2.925	-2.4646	-2.9813	-2.8354	-2.5083	-2.9458	-2.7396	-2.7917	417.877	418.862	327.192	423.437	271.628	334.964	182.760	281.220	224.971	446.361	207.012	500.973	361.831	308.183	463.437	226.962	0.00037155	0.00081893	0.00016308	501.89	3.7434e-06	7.4321e-06	543.54	150.68	8.6985e-06	1.0203e-05	181.15	65.293	52.74	19.668	4.861e-06	27.215	0.003353	0.0042041	0.0011723	538.88	4.4938e-05	4.6454e-05	586.61	165.3	4.4047e-05	4.5587e-05	203.1	72.825	60.426	22.084	4.3363e-05	30.404	225.024	281.708	465.648	182.251	264.171	233.783	181.418	186.543	360.271	279.500	185.236	188.607	190.048	193.909	170.934	192.034	-8191	255	
1027.947	1	1	0	0	0.20633	0.19793	0.03406	0.14805	0.065082	0.079458	0.071809	0.18274	0.2404	0.15415	0.13662	0.093699	0.061374	0.20062	0.17349	0.24114	-2.4875	-2.5833	-2.7646	-2.9958	-2.6104	-3.1188	-2.8375	-2.5292	-2.9313	-2.4458	-2.9188	-2.9292	-2.5146	-3.0396	-2.8187	-2.5771	434.454	404.281	275.849	469.674	264.857	477.482	217.503	488.014	442.009	169.135	184.007	209.805	371.377	375.751	187.805	453.544	0.00029092	0.0011946	0.00012358	491.95	4.0134e-06	1.0389e-05	539.08	147	2.9818e-06	7.1531e-06	177.24	64.988	52.62	19.423	7.9854e-06	27.125	0.0030949	0.0038499	0.0010849	527.73	4.0217e-05	4.1466e-05	574.89	160.95	3.9404e-05	4.115e-05	198.38	71.384	58.886	21.561	3.8994e-05	30.06	223.014	517.607	339.249	182.335	348.223	524.919	181.726	186.921	355.515	194.293	184.955	188.683	190.511	193.738	399.782	192.415	-8191	255	
1028.044	1	1	0	0	0.056338	0.18978	0.19396	0.18719	0.15644	0.19206	0.1891	0.52681	0.1204	0.26596	0.11852	0.19368	0.29527	0.098995	0.24326	0.11748	-2.5604	-2.6458	-2.7687	-2.9375	-2.3563	-2.9396	-2.9292	-2.7521	-3.0667	-2.7313	-2.925	-2.9729	-2.4917	-2.9437	-2.8479	-2.5771	194.488	280.929	266.198	454.307	235.953	345.966	287.265	485.631	442.006	307.599	186.727	218.124	180.659	462.923	399.093	236.238	0.00024484	0.000691	0.00011469	490.93	5.6287e-06	9.9196e-07	538.13	149.51	7.3768e-06	6.1857e-06	181.1	65.13	52.796	19.587	5.475e-06	27.328	0.0028266	0.0036438	0.0010137	523.72	3.8743e-05	3.9819e-05	573.93	161.8	3.8895e-05	4.0761e-05	200.11	71.915	59.388	21.773	3.9739e-05	30.256	204.713	198.795	314.855	181.973	266.371	476.556	181.749	186.971	334.595	214.226	185.610	188.867	190.266	193.905	283.345	192.921	-8191	255	
1028.140	1	1	0	0	0.17513	0.13243	0.037102	0.25411	0.18722	0.14404	0.039246	0.25036	0.14386	0.11491	0.15373	0.078658	0.13129	0.19842	0.071817	0.10055	-2.6375	-2.9	-2.9021	-3.1021	-2.625	-2.9458	-2.8979	-2.5333	-2.9854	-2.8771	-2.9396	-3.0917	-2.6521	-2.7167	-3.0062	-2.55	423.292	457.505	435.556	460.797	460.648	415.865	209.630	445.996	381.797	365.232	350.021	434.034	461.595	494.933	522.524	499.378	0.00025368	0.00061177	0.00026434	496.4	5.7255e-06	5.4222e-06	537.95	149.53	3.4253e-06	1.4986e-05	180.39	64.819	52.531	19.616	6.6895e-06	27.129	0.0028773	0.0036745	0.0010306	526.46	3.9086e-05	4.053e-05	575.57	162.07	3.9828e-05	4.1909e-05	200.05	71.646	59.419	21.803	4.1513e-05	30.227	220.585	265.852	287.727	182.178	306.186	381.332	181.790	186.495	419.345	339.386	185.297	189.057	190.533	193.735	303.656	192.385	-8191	255	
1028.234	1	1	0	0	0.12793	0.34786	0.059117	0.059172	0.18801	0.22772	0.071635	0.23062	0.077294	0.063354	0.17716	0.108	0.27211	0.25895	0.069683	0.34012	-2.5979	-2.6271	-2.7313	-3.1437	-2.625	-2.8479	-2.8208	-2.6	-2.9771	-2.6958	-2.7396	-3.1771	-2.4229	-2.85	-2.9354	-2.6792	368.376	280.574	471.089	471.618	287.912	339.015	372.490	474.178	521.956	370.847	385.891	478.946	273.457	428.579	239.285	405.910	0.00021113	0.0005037	0.00019778	495.41	5.8943e-06	4.8404e-06	537.1	148.96	2.3498e-06	5.9294e-06	180.15	64.959	52.816	19.734	7.7457e-06	27.164	0.0030378	0.0039042	0.0010855	530.73	4.1406e-05	4.326e-05	578.62	162.86	4.0929e-05	4.3027e-05	201.02	72.013	59.892	21.936	4.2458e-05	30.366	232.572	233.194	275.544	182.299	380.155	356.713	181.617	186.656	289.611	493.385	185.546	189.104	190.426	194.170	356.908	192.592	-8191	255	
1028.330	1	1	0	0	0.070625	0.1908	0.11397	0.2828	0.17073	0.15344	0.1999	0.10808	0.16797	0.08303	0.084561	0.1901	0.065974	0.071226	0.03038	0.37425	-2.5167	-2.8625	-2.4729	-2.9813	-2.6875	-2.7167	-2.9833	-2.4833	-3.0542	-2.8104	-2.3812	-2.8708	-2.5396	-2.8604	-2.925	-2.4646	230.095	450.851	493.586	214.763	218.319	519.185	449.407	170.646	356.506	278.938	486.706	416.416	318.705	474.424	269.294	207.694	0.00022598	0.00067116	0.0002532	501.26	7.9305e-07	7.2276e-06	544.74	150.41	2.1093e-06	8.5675e-06	180.25	64.88	53.217	19.584	6.5823e-06	27.031	0.0030825	0.003976	0.0011206	535.07	4.2214e-05	4.4238e-05	584.66	164.49	4.2785e-05	4.4435e-05	202.08	72.325	60.171	21.913	4.3455e-05	30.413	230.183	254.535	265.419	182.070	363.749	409.230	181.477	186.916	292.911	331.832	185.219	188.996	190.367	193.644	296.188	192.049	-8191	255	
1028.426	1	1	0	0	0.18509	0.098642	0.11935	0.21619	0.12788	0.14397	0.19898	0.13105	0.13355	0.2519	0.20608	0.117	0.14225	0.23917	0.055647	0.19034	-2.4146	-2.7833	-2.5667	-3.1854	-2.7896	-2.5708	-3.175	-2.6854	-2.8729	-2.8688	-2.6646	-3.0875	-2.8187	-2.45	-3.0938	-2.6021	264.487	340.731	198.991	422.973	468.393	499.311	446.791	359.698	309.129	440.717	468.745	434.082	455.004	213.044	304.716	373.067	0.00023193	0.00050306	9.4738e-05	503.17	9.3851e-07	6.4437e-06	552.37	152.31	4.5688e-06	3.6217e-06	181.1	65.846	53.208	19.854	6.3734e-06	27.166	0.0031881	0.0041592	0.0011579	542.13	4.4858e-05	4.68e-05	594.48	166.95	4.6277e-05	4.7889e-05	205.8	73.43	61.212	22.241	4.7809e-05	30.761	224.297	309.449	468.308	181.893	392.324	373.839	181.651	186.368	328.899	411.392	185.407	189.179	189.822	193.842	340.921	192.511	-8191	255	
1028.547	1	1	0	0	0.12804	0.21924	0.1818	0.12042	0.2375	0.31936	0.15571	0.27722	0.1665	0.0933	0.31831	0.12392	0.05893	0.30128	0.13614	0.12873	-2.4938	-3.0104	-2.4313	-2.7875	-2.725	-2.675	-3.1063	-2.7417	-2.8021	-2.9125	-2.5333	-2.9271	-3.0021	-2.6437	-2.9688	-2.9479	353.882	404.321	441.052	226.280	280.991	439.036	525.609	522.589	307.970	426.353	511.310	451.838	401.298	428.475	169.770	191.169	0.00028164	0.00055545	0.00021776	506.03	4.2642e-06	3.3751e-06	550.95	149.48	6.2229e-06	1.1441e-05	181.13	65.139	53.076	19.367	3.2982e-06	26.913	0.0034463	0.0043761	0.0012169	545.86	4.62e-05	4.7785e-05	591.59	165.55	4.5847e-05	4.7381e-05	203.58	72.491	60.365	21.864	4.5586e-05	30.424	220.959	358.155	314.610	181.778	359.182	174.263	181.454	186.779	317.117	378.821	185.600	188.998	190.552	194.062	334.657	192.384	-8191	255	
1028.643	1	1	0	0	0.16857	0.11189	0.039562	0.31703	0.059223	0.12067	0.18983	0.2639	0.1244	0.17444	0.10616	0.23073	0.11749	0.1419	0.088079	0.17418	-2.275	-3.0333	-2.3521	-2.9167	-2.9854	-2.6	-3.1021	-2.6646	-2.7438	-2.9667	-2.5854	-2.7729	-2.8521	-2.425	-3.0833	-2.9875	192.204	195.072	485.908	499.681	277.939	239.483	466.362	508.820	316.862	457.668	485.887	474.566	472.730	257.950	415.932	441.801	0.00021179	0.00048724	0.00019211	498.43	2.1061e-06	1.4176e-06	544.46	149.2	7.9024e-07	6.834e-06	180.29	64.917	52.874	19.621	5.5937e-06	27.052	0.0032796	0.0041439	0.0011505	537.31	4.3517e-05	4.456e-05	584.41	163.53	4.3302e-05	4.4863e-05	202.01	72.308	60.188	21.89	4.4373e-05	30.346	236.722	376.324	398.016	182.640	341.634	495.449	181.451	186.520	414.108	323.020	185.593	189.059	190.409	193.963	322.353	192.590	-8191	255	
1028.715	1	1	0	0	0.15045	0.20619	0.26018	0.098259	0.20624	0.20058	0.1235	0.10842	0.044545	0.14146	0.086183	0.11384	0.1254	0.13601	0.061253	0.20632	-2.1354	-3.0687	-2.6917	-2.8438	-2.7812	-2.4042	-2.9729	-2.7604	-2.7125	-3.1458	-2.425	-2.7771	-3.1396	-2.6521	-2.9875	-2.8104	302.803	386.714	375.310	436.545	276.376	230.013	439.471	224.418	276.697	277.969	484.612	400.687	470.589	422.613	325.713	306.156	0.00027569	0.00058605	0.00017066	499.26	5.0485e-06	2.3336e-06	539.66	148.96	5.7105e-06	1.0512e-05	180.84	65.092	53.086	19.532	7.0952e-06	27.203	0.0031827	0.0040136	0.001115	532.95	4.1446e-05	4.31e-05	579.18	162.58	4.1634e-05	4.2935e-05	201.39	72.043	60.118	21.851	4.4199e-05	30.506	232.710	297.373	184.423	182.159	359.457	223.005	181.789	186.602	394.203	337.060	185.144	188.916	190.455	193.964	289.231	192.298	-8191	255	
1028.811	1	1	0	0	0.33636	0.25449	0.068264	0.12247	0.080534	0.14984	0.082549	0.24728	0.25904	0.096866	0.12568	0.18435	0.13426	0.17309	0.13213	0.22362	-2.2146	-3.1	-2.6375	-2.7958	-3.1625	-2.5563	-3.0667	-2.8542	-2.6708	-3.1	-2.7208	-2.6958	-3.0104	-2.5917	-3.0687	-2.9875	342.184	455.427	481.199	483.028	282.962	220.855	354.795	463.984	488.778	316.633	411.780	524.445	247.580	174.438	425.580	491.581	0.0002136	0.00067915	0.00018854	502.29	2.2848e-06	4.8119e-06	548.26	149.83	4.9714e-06	4.0186e-06	181.69	64.606	52.692	19.084	6.1673e-06	26.759	0.0032264	0.0041014	0.0011508	539.04	4.3274e-05	4.4674e-05	585.92	163.88	4.2622e-05	4.4497e-05	202.54	71.962	59.633	21.464	4.344e-05	30.02	212.107	445.092	201.021	182.319	476.394	191.836	181.603	186.691	498.789	320.344	185.052	188.570	189.918	193.533	344.517	192.495	-8191	255	
1028.932	1	1	0	0	0.27798	0.15962	0.019826	0.12429	0.07236	0.13661	0.14597	0.075778	0.093052	0.22686	0.28096	0.16488	0.15483	0.26975	0.26517	0.064197	-2.1688	-2.8021	-2.7042	-2.7229	-3.0208	-2.5812	-3.0104	-2.8937	-2.55	-2.7896	-2.8083	-2.525	-2.9583	-2.4896	-2.7479	-3.1479	312.061	231.267	279.146	416.443	226.760	241.496	526.861	334.672	430.829	525.180	325.913	434.677	192.386	238.079	242.058	293.986	0.00029345	0.00058424	0.00013844	495.3	2.5488e-06	7.7398e-06	543.19	148.21	5.8581e-07	1.5659e-05	178.2	64.208	52.081	19.058	2.4036e-06	26.575	0.0030907	0.0039716	0.0011239	534.32	4.2386e-05	4.4173e-05	582.17	163.17	4.2853e-05	4.4735e-05	201.3	71.713	59.697	21.506	4.5778e-05	30.036	226.298	192.652	284.481	182.138	343.290	455.990	181.746	186.803	393.687	308.581	185.317	189.103	189.917	194.299	254.375	192.532	-8191	255	
1029.028	1	1	0	0	0.23905	0.13801	0.084495	0.14635	0.10334	0.28276	0.12462	0.16373	0.23297	0.26595	0.098642	0.12388	0.30147	0.31612	0.077546	0.167	-2.125	-2.9271	-2.5687	-2.7188	-3.1167	-2.525	-2.9354	-3.0833	-2.6667	-2.9896	-2.9458	-2.7354	-3.1833	-2.7083	-2.7854	-3.0854	202.881	301.386	508.019	387.894	411.228	450.182	335.966	396.995	340.723	454.183	384.982	253.463	322.809	400.661	280.384	462.255	0.00023356	0.00025186	0.00016987	507.23	5.5286e-06	9.3951e-06	551.54	152.2	3.9614e-06	8.1641e-06	181.06	65.272	53.54	19.555	4.8872e-06	26.722	0.0033165	0.0042584	0.0012058	544.89	4.6681e-05	4.8646e-05	593.64	167.92	4.7141e-05	4.9236e-05	205.69	73.323	61.26	22.096	4.804e-05	30.291	223.885	453.542	323.977	182.570	313.722	301.680	182.172	186.486	251.691	357.142	185.250	188.822	189.953	193.639	307.367	192.434	-8191	255	
1029.124	1	1	0	0	0.11956	0.071758	0.1624	0.045897	0.05308	0.28137	0.21473	0.25641	0.12302	0.21819	0.043639	0.11716	0.15158	0.13847	0.12167	0.24773	-1.8979	-2.8708	-2.7979	-2.5375	-3.0333	-2.7979	-2.7396	-3.0917	-2.5875	-2.7229	-3.0583	-2.5083	-3.0458	-2.7542	-2.8542	-3.1875	522.855	311.380	398.265	294.887	222.243	328.135	187.514	482.728	248.096	269.444	245.200	454.638	509.987	491.965	477.148	511.851	0.00033489	7.8592e-05	0.00023617	504.2	5.4964e-06	1.7383e-06	542.77	151.26	4.2964e-06	1.0639e-05	181.25	64.608	53.194	19.107	5.8586e-06	26.622	0.0034073	0.0043414	0.0012078	540.84	4.4976e-05	4.6323e-05	586.29	165.37	4.3793e-05	4.5953e-05	202.65	72.08	60.205	21.558	4.448e-05	30	236.077	401.785	254.271	182.384	489.754	374.372	181.547	186.606	249.029	337.101	184.957	189.261	189.999	194.153	356.502	192.286	-8191	255	
1029.220	1	1	0	0	0.28487	0.051404	0.25237	0.079247	0.088525	0.25933	0.30109	0.2321	0.075471	0.315	0.12084	0.3332	0.069042	0.30331	0.22469	0.20804	-1.9438	-2.9146	-2.875	-2.3937	-2.8646	-2.5979	-2.7104	-2.9979	-2.6979	-2.8146	-3.1354	-2.5167	-2.7896	-3.0583	-2.5292	-3.2479	382.615	345.307	247.299	237.819	524.826	227.639	514.213	240.726	442.762	268.818	218.664	459.324	405.198	318.922	474.373	438.284	0.00019388	0.00081892	3.7455e-05	497.28	1.8268e-06	5.0336e-06	539.55	149.29	1.4948e-06	7.355e-06	179.6	63.572	52.458	19.087	4.52e-06	26.617	0.003227	0.0041129	0.0011584	534.02	4.3593e-05	4.5051e-05	579.65	163.34	4.2186e-05	4.3732e-05	199.77	70.984	59.146	21.305	4.2006e-05	29.722	230.562	215.261	427.538	182.469	383.511	280.529	181.731	186.497	277.809	335.537	185.015	189.306	190.279	194.125	276.550	192.561	-8191	255	
1029.339	1	1	0	0	0.099777	0.30261	0.20075	0.33312	0.32762	0.11838	0.049134	0.17471	0.0792	0.22289	0.17918	0.13792	0.084459	0.11185	0.34326	0.23026	-2.1771	-2.7083	-2.9771	-2.6896	-2.9188	-2.925	-2.7938	-3.0208	-2.5458	-2.7521	-3.0229	-2.5958	-2.8875	-3.1063	-2.5625	-3.0292	197.789	406.838	247.762	404.439	523.738	210.254	301.748	178.037	429.832	304.827	268.406	477.745	429.719	346.690	258.377	383.810	0.00016673	0.00015995	0.00025721	499.29	2.4194e-06	1.0909e-05	539.37	148.51	5.3376e-06	9.0313e-06	178.55	63.582	51.911	18.898	4.1247e-06	26.522	0.00307	0.0039788	0.001109	531.79	4.2047e-05	4.3864e-05	576.41	162.27	4.1915e-05	4.3618e-05	198.84	70.661	58.917	21.177	4.221e-05	29.567	239.107	202.433	225.592	182.530	245.492	330.635	181.321	186.832	245.420	460.638	185.212	189.212	190.407	193.929	228.609	192.349	-8191	255	
1029.412	1	1	0	0	0.10226	0.187	0.26594	0.13477	0.060332	0.10445	0.20827	0.10395	0.22632	0.1618	0.20682	0.17996	0.12366	0.14142	0.10341	0.10036	-2.2375	-2.5583	-3.1104	-2.5104	-2.8833	-2.9583	-2.4688	-2.9729	-2.6437	-2.6354	-3.2667	-2.5292	-2.7771	-2.9396	-2.4646	-3.0917	283.930	369.752	340.155	386.754	338.934	202.211	466.243	461.863	207.656	194.500	377.230	449.709	524.613	448.656	193.150	453.190	0.00018946	0.00090814	0.00043395	496.56	3.262e-06	1.2722e-05	541.21	149.25	1.0351e-05	7.0412e-06	180.49	64.856	52.468	19.219	8.2754e-06	26.781	0.0030784	0.003951	0.0010986	531.01	4.2702e-05	4.4124e-05	580.06	163.2	4.246e-05	4.4376e-05	201.03	71.528	59.638	21.501	4.3532e-05	29.88	215.179	286.133	438.175	182.449	480.904	261.474	181.509	186.626	281.788	489.719	185.132	188.843	190.315	193.410	259.581	192.334	-8191	255	
1029.531	1	1	0	0	0.044751	0.050739	0.073088	0.29861	0.11528	0.12778	0.28913	0.25313	0.33776	0.12833	0.28544	0.19601	0.23162	0.22508	0.24418	0.26752	-2.3563	-2.8104	-3.125	-2.9292	-2.975	-3.0583	-2.8875	-3.1167	-2.8917	-2.6542	-3.2333	-2.7729	-2.8312	-3.0062	-2.6021	-3.1188	188.922	261.253	504.140	486.003	201.610	525.783	483.375	506.298	323.699	327.418	471.942	359.761	188.468	229.771	406.984	462.491	0.000263	0.00029353	6.3631e-05	502.45	1.9871e-06	2.8728e-06	547.61	151.1	6.0604e-06	5.1432e-06	180.72	65.114	53.931	19.477	3.8589e-06	27.003	0.003219	0.0041266	0.0011621	538.79	4.5099e-05	4.6484e-05	590.34	166.57	4.5276e-05	4.7255e-05	204.21	72.873	61.166	21.967	4.6937e-05	30.442	225.158	175.504	508.232	182.168	423.858	507.911	181.914	186.723	255.670	299.567	185.343	188.973	190.218	193.773	366.642	192.151	-8191	255	
1029.627	1	1	0	0	0.17286	0.23016	0.17383	0.17298	0.19	0.062037	0.065685	0.42459	0.20988	0.049737	0.14826	0.14825	0.15261	0.33897	0.049208	0.13077	-2.4667	-2.4292	-3.0438	-2.7062	-2.7188	-2.8354	-2.6792	-3.0229	-2.8208	-2.7229	-2.9708	-2.9646	-2.7042	-3.0229	-2.6	-3.0187	398.573	340.262	359.979	504.473	211.562	480.248	515.307	443.657	205.311	507.419	524.313	379.374	205.771	170.655	320.767	487.091	0.00029192	0.00032878	6.3566e-05	508.17	1.8741e-06	2.4681e-06	552.73	152.26	3.7319e-06	3.1422e-06	183.26	66.002	53.785	19.656	2.2174e-06	27.181	0.0034159	0.0043892	0.0012096	546.74	4.6371e-05	4.78e-05	594.74	167.55	4.6426e-05	4.7903e-05	205.88	73.476	61.147	22.073	4.6004e-05	30.621	215.935	272.681	409.044	182.045	482.615	213.800	181.871	186.877	459.541	213.426	185.227	189.027	190.467	193.902	316.487	192.134	-8191	255	
1029.724	1	1	0	0	0.22519	0.2088	0.23634	0.14888	0.077912	0.10963	0.39059	0.041374	0.19547	0.11427	0.13372	0.10781	0.31855	0.18668	0.1746	0.16588	-2.5396	-2.4771	-3.0229	-2.8104	-2.65	-3.1396	-2.775	-2.8333	-3.0333	-2.6667	-2.9271	-2.7625	-2.5375	-3.1937	-2.5687	-2.9313	326.672	377.471	278.058	177.867	374.610	398.180	196.860	462.696	398.417	368.968	498.967	444.248	394.995	175.644	169.292	186.226	0.00015344	6.0671e-05	9.9593e-06	505.88	2.7709e-06	6.1339e-06	543.52	151.84	3.1584e-06	1.2098e-06	181.1	65.488	53.7	19.606	1.0617e-05	27.095	0.00329	0.0041643	0.0011658	539.01	4.3637e-05	4.5073e-05	583.77	165.59	4.3474e-05	4.5791e-05	203.55	72.727	60.723	22.023	4.4901e-05	30.534	239.674	256.349	465.957	182.459	258.727	430.708	181.800	186.545	370.796	188.887	185.345	188.864	190.317	193.803	225.764	192.194	-8191	255	
1029.820	1	1	0	0	0.18636	0.23365	0.18565	0.093595	0.17241	0.14999	0.12524	0.24391	0.093193	0.093608	0.062822	0.11633	0.13728	0.098114	0.17565	0.20474	-2.5646	-2.4146	-2.9458	-2.7521	-2.55	-3.1521	-2.8583	-2.7958	-3.0604	-2.575	-2.8146	-2.9542	-2.5125	-3.0542	-2.7771	-2.8396	384.963	392.865	393.635	404.271	317.572	392.609	438.657	209.500	311.914	226.548	434.300	423.954	381.451	417.265	169.515	372.553	0.00030953	0.000348	0.0001095	501.72	5.3157e-06	1.7719e-06	546.72	151.12	7.432e-06	5.0665e-06	180.6	65.097	53.864	19.755	3.7563e-06	27.297	0.0032076	0.0041036	0.0011595	540.41	4.3956e-05	4.5648e-05	587.32	166.01	4.4014e-05	4.6291e-05	204.27	72.958	61.031	22.126	4.5949e-05	30.778	226.113	510.744	417.779	182.360	380.095	379.767	181.911	186.524	506.790	288.366	185.329	189.098	190.440	193.595	302.181	192.063	-8191	255	
1029.940	1	1	0	0	0.084727	0.088337	0.21061	0.099018	0.13083	0.35471	0.1587	0.084147	0.19522	0.21299	0.16071	0.020226	0.078183	0.23977	0.20472	0.031192	-2.6188	-2.5667	-2.6917	-2.9896	-2.5812	-3.0375	-2.6917	-2.4813	-3.0938	-2.5271	-3	-2.9625	-2.5708	-3.05	-2.8187	-2.8333	450.100	341.059	439.937	451.364	171.871	259.754	481.047	409.769	430.286	387.431	479.372	180.902	474.398	182.110	405.166	192.524	0.00022531	0.00010418	0.00013908	504.77	7.0239e-06	8.9564e-06	550.17	151.12	6.4081e-06	9.7296e-06	183.38	65.34	52.829	19.62	6.0159e-06	27.183	0.0033293	0.0042787	0.0011883	542.12	4.5071e-05	4.666e-05	590.9	166.42	4.4929e-05	4.6957e-05	205.06	72.898	60.808	22.05	4.5822e-05	30.532	222.788	223.737	313.457	181.913	308.703	277.591	181.486	186.755	229.708	387.376	185.476	189.085	190.499	193.876	300.126	192.230	-8191	255	
1030.012	1	1	0	0	0.17653	0.078595	0.20911	0.40065	0.013693	0.18965	0.089301	0.14641	0.14982	0.15024	0.092376	0.064916	0.17784	0.19127	0.12857	0.25492	-2.5104	-2.5729	-2.6771	-2.8667	-2.5667	-2.9708	-3.0042	-2.5854	-2.9562	-2.8625	-2.7729	-2.9646	-2.5854	-3.0229	-2.9396	-2.7375	324.587	362.636	208.236	271.312	429.625	230.696	450.871	506.195	337.002	267.709	202.718	402.682	514.707	525.271	189.608	455.771	0.00023423	0.00082012	3.6254e-05	504.44	1.0156e-05	1.2726e-05	552.76	152.06	4.3838e-06	3.4727e-06	182.93	65.428	53.809	19.916	2.4047e-06	27.625	0.0032768	0.0042154	0.0011776	541.62	4.4501e-05	4.665e-05	591.61	166.81	4.5162e-05	4.8095e-05	206.25	73.54	61.654	22.368	4.8586e-05	31.133	224.450	233.038	335.909	182.413	297.613	416.241	182.439	186.605	194.349	431.906	185.085	189.166	190.244	193.597	337.123	192.745	-8191	255	
1030.108	1	1	0	0	0.13031	0.12902	0.24297	0.16068	0.095163	0.090528	0.15373	0.18037	0.28065	0.066243	0.12275	0.13965	0.11367	0.17338	0.18397	0.16654	-2.5146	-2.6146	-2.6208	-3.1396	-2.7292	-2.8187	-2.9062	-2.5417	-2.9521	-2.8125	-2.8688	-3.3125	-2.6021	-2.8833	-2.8833	-2.625	215.088	471.176	383.944	486.134	169.679	381.101	438.855	464.171	301.064	309.287	504.911	487.688	332.660	192.678	200.492	497.336	0.00028563	0.00087299	0.0001726	515.16	7.729e-06	5.9488e-06	558.35	154.77	2.863e-06	5.6163e-06	183.46	66.226	54.283	19.986	3.6321e-06	27.285	0.0035672	0.004584	0.001284	555.48	4.9645e-05	5.186e-05	605.77	170.75	5.0149e-05	5.2236e-05	209.82	74.664	62.612	22.755	5.1056e-05	31.168	210.072	453.927	352.831	182.633	443.772	382.255	181.794	187.026	318.951	482.646	185.474	188.689	190.313	193.285	298.218	192.124	-8191	255	
1030.229	1	1	0	0	0.15199	0.06704	0.33072	0.1847	0.041894	0.21261	0.077623	0.19676	0.039275	0.091796	0.24082	0.35868	0.17789	0.036512	0.11288	0.14064	-2.6042	-2.7271	-2.5667	-3.1	-2.6937	-2.9167	-3.2292	-2.5625	-2.9646	-2.7854	-2.9	-2.9833	-2.7292	-2.9125	-3.0458	-2.7042	203.544	299.804	290.786	463.414	322.048	434.997	434.274	312.013	190.508	290.496	422.067	370.003	319.517	260.438	182.262	287.515	0.00022892	0.0004364	0.00031811	514.59	3.6556e-06	4.108e-06	561.12	153.44	3.1161e-06	5.487e-06	184.42	66.263	54.49	20.235	4.2209e-06	27.619	0.0036863	0.0047406	0.0013369	558.13	5.0629e-05	5.2679e-05	607.39	170.71	5.071e-05	5.3349e-05	210.44	75.086	62.783	22.914	5.0729e-05	31.252	212.295	212.084	199.924	182.329	215.426	252.917	181.689	186.427	227.384	399.568	185.430	189.019	189.839	193.408	396.148	191.997	-8191	255	
1030.323	1	1	0	0	0.086488	0.065758	0.18939	0.4353	0.16946	0.15886	0.21618	0.133	0.060343	0.23833	0.15564	0.022457	0.14535	0.2238	0.19618	0.076012	-2.6979	-2.9146	-2.475	-3.0771	-2.9708	-2.9375	-3.1562	-2.7	-2.8979	-3.0229	-2.7354	-2.8812	-2.8271	-2.6083	-3.1688	-2.5917	264.087	390.293	207.482	208.719	369.358	323.336	513.986	260.937	260.158	345.618	254.620	304.243	406.816	243.545	189.636	303.293	0.00029906	0.0011328	3.6153e-05	511.97	4.1332e-06	1.2358e-05	554.52	152.36	8.1847e-06	1.7237e-05	183.33	66.088	53.852	19.838	4.7445e-06	27.603	0.0036415	0.0045673	0.0012674	550.67	4.7515e-05	4.9303e-05	596.6	167.93	4.6853e-05	4.8773e-05	206.71	73.896	61.613	22.363	4.7153e-05	31.107	243.398	289.168	268.896	182.639	340.324	365.343	181.740	186.733	339.844	353.300	185.147	189.286	190.321	193.961	193.764	192.526	-8191	255	
1030.419	1	1	0	0	0.15996	0.12663	0.18427	0.15438	0.20169	0.020716	0.12279	0.31508	0.051041	0.098336	0.32944	0.19316	0.18537	0.30193	0.20933	0.11176	-2.3854	-2.8	-2.7417	-2.8542	-2.8042	-2.8292	-3.0312	-2.6667	-2.8417	-3.0854	-2.4354	-2.975	-2.8333	-2.8458	-3.3042	-2.525	398.326	344.775	306.806	326.924	253.993	238.354	442.383	480.346	471.415	453.472	521.539	451.775	419.431	193.139	357.524	433.339	0.00022758	0.00046007	0.00018079	508.42	1.914e-06	1.0949e-05	557.41	154.89	5.7652e-06	1.1776e-05	184.12	66.896	54.447	20.14	8.8316e-06	27.772	0.003466	0.0043714	0.0012318	548.66	4.7167e-05	4.8899e-05	601.46	170.23	4.8118e-05	5.0164e-05	209.87	75.018	62.429	22.742	4.9499e-05	31.422	242.198	295.359	285.393	182.409	452.848	474.548	182.110	186.764	328.845	263.334	185.434	188.822	190.224	194.049	346.134	192.417	-8191	255	
#DATA ENDS
