BOXY.EXE: ISS Imagent and Oximeter Data Acquisition Program Version 0.80
Ascii Record File

#ACQ INFORMATION
2  Detector Channels 
16  External MUX Channels 
1  Auxiliary Channels 
5000  Waveform (CCF) Frequency (Hz)
1  Waveforms Skipped 
30  Waveforms Averaged 
1  Cycles Averaged 
16  Acquisitions per Waveform 
10.0806  Updata Rate (Hz) 

#FILE INFORMATION
TRUE -- External MUX Channel results are PARSED.
FALSE -- AC DC and Phase are NOT grouped.
TRUE -- Companion Program Settings File CREATED.
FALSE -- AC data not excluded
FALSE -- DC data not excluded
FALSE -- Phase data not excluded
FALSE -- Auxillary Chn. data not excluded
Tab delimiters

#CALIBRATION STATE
TRUE -- Waveform Calibration Values APPLIED.


#AUX CALIBRATION VALUES
Val Type	aux-1	

Term	1.0000e+00	
Factor	0.0000e+00	


#WF CALIBRATION VALUES
A = Detector Channel
Val Type	A-AC1	A-AC2	A-AC3	A-AC4	A-AC5	A-AC6	A-AC7	A-AC8	A-AC9	A-AC10	A-AC11	A-AC12	A-AC13	A-AC14	A-AC15	A-AC16	A-DC1	A-DC2	A-DC3	A-DC4	A-DC5	A-DC6	A-DC7	A-DC8	A-DC9	A-DC10	A-DC11	A-DC12	A-DC13	A-DC14	A-DC15	A-DC16	A-Ph1	A-Ph2	A-Ph3	A-Ph4	A-Ph5	A-Ph6	A-Ph7	A-Ph8	A-Ph9	A-Ph10	A-Ph11	A-Ph12	A-Ph13	A-Ph14	A-Ph15	A-Ph16	

Term	0.00000e+00	0.00000e+00	0.00000e+00	0.00000e+00	0.00000e+00	0.00000e+00	0.00000e+00	0.00000e+00	0.00000e+00	0.00000e+00	0.00000e+00	0.00000e+00	0.00000e+00	0.00000e+00	0.00000e+00	0.00000e+00	0.00000e+00	0.00000e+00	0.00000e+00	0.00000e+00	0.00000e+00	0.00000e+00	0.00000e+00	0.00000e+00	0.00000e+00	0.00000e+00	0.00000e+00	0.00000e+00	0.00000e+00	0.00000e+00	0.00000e+00	0.00000e+00	0.00000e+00	0.00000e+00	0.00000e+00	0.00000e+00	0.00000e+00	0.00000e+00	0.00000e+00	0.00000e+00	0.00000e+00	0.00000e+00	0.00000e+00	0.00000e+00	0.00000e+00	0.00000e+00	0.00000e+00	0.00000e+00	
Factor	1.00000e+00	1.00000e+00	1.00000e+00	1.00000e+00	1.00000e+00	1.00000e+00	1.00000e+00	1.00000e+00	1.00000e+00	1.00000e+00	1.00000e+00	1.00000e+00	1.00000e+00	1.00000e+00	1.00000e+00	1.00000e+00	1.00000e+00	1.00000e+00	1.00000e+00	1.00000e+00	1.00000e+00	1.00000e+00	1.00000e+00	1.00000e+00	1.00000e+00	1.00000e+00	1.00000e+00	1.00000e+00	1.00000e+00	1.00000e+00	1.00000e+00	1.00000e+00	X	X	X	X	X	X	X	X	X	X	X	X	X	X	X	X	

B = Detector Channel
Val Type	B-AC1	B-AC2	B-AC3	B-AC4	B-AC5	B-AC6	B-AC7	B-AC8	B-AC9	B-AC10	B-AC11	B-AC12	B-AC13	B-AC14	B-AC15	B-AC16	B-DC1	B-DC2	B-DC3	B-DC4	B-DC5	B-DC6	B-DC7	B-DC8	B-DC9	B-DC10	B-DC11	B-DC12	B-DC13	B-DC14	B-DC15	B-DC16	B-Ph1	B-Ph2	B-Ph3	B-Ph4	B-Ph5	B-Ph6	B-Ph7	B-Ph8	B-Ph9	B-Ph10	B-Ph11	B-Ph12	B-Ph13	B-Ph14	B-Ph15	B-Ph16	

Term	0.00000e+00	0.00000e+00	0.00000e+00	0.00000e+00	0.00000e+00	0.00000e+00	0.00000e+00	0.00000e+00	0.00000e+00	0.00000e+00	0.00000e+00	0.00000e+00	0.00000e+00	0.00000e+00	0.00000e+00	0.00000e+00	0.00000e+00	0.00000e+00	0.00000e+00	0.00000e+00	0.00000e+00	0.00000e+00	0.00000e+00	0.00000e+00	0.00000e+00	0.00000e+00	0.00000e+00	0.00000e+00	0.00000e+00	0.00000e+00	0.00000e+00	0.00000e+00	-6.21754e+01	-1.29907e+02	-1.24308e+02	-1.80762e+02	-5.26411e+01	-6.17388e+01	-1.54848e+02	-1.62015e+02	-4.22166e+01	-7.04166e+01	-1.70366e+02	-1.69164e+02	-1.78724e+02	-1.75805e+02	-5.78430e+01	-1.48156e+02	
Factor	1.71954e-05	1.67617e-04	4.33893e-05	1.54313e-01	1.43465e-06	1.59009e-06	1.64624e-01	6.03797e-02	1.16268e-06	1.56915e-06	8.76266e-02	2.82588e-02	2.37562e-02	8.66378e-03	1.59200e-06	1.25101e-02	5.98073e-06	7.73180e-06	2.16888e-06	7.96205e-02	8.16941e-08	8.55453e-08	7.98241e-02	3.12165e-02	8.23015e-08	8.55736e-08	4.39271e-02	1.42219e-02	1.24740e-02	4.52282e-03	8.38410e-08	6.30525e-03	X	X	X	X	X	X	X	X	X	X	X	X	X	X	X	X	



#DISTANCE SETTINGS
A = Detector Channel
A-1	A-2	A-3	A-4	A-5	A-6	A-7	A-8	A-9	A-10	A-11	A-12	A-13	A-14	A-15	A-16	

2.5000e+00	3.0000e+00	2.5000e+00	3.0000e+00	2.0000e+00	3.0000e+00	1.5000e+00	3.0000e+00	3.0000e+00	3.0000e+00	3.0000e+00	3.0000e+00	3.0000e+00	3.0000e+00	1.5000e+00	3.0000e+00	

B = Detector Channel
B-1	B-2	B-3	B-4	B-5	B-6	B-7	B-8	B-9	B-10	B-11	B-12	B-13	B-14	B-15	B-16	

1.0000e+01	1.0000e+01	1.0000e+01	1.4400e+00	1.0000e+01	1.0000e+01	1.5100e+00	1.9400e+00	1.0000e+01	1.0000e+01	1.9900e+00	2.4900e+00	2.4100e+00	2.9000e+00	1.0000e+01	2.9800e+00	




#DATA BEGINS
time	group	step	mark	flag	A-AC1	A-AC2	A-AC3	A-AC4	A-AC5	A-AC6	A-AC7	A-AC8	A-AC9	A-AC10	A-AC11	A-AC12	A-AC13	A-AC14	A-AC15	A-AC16	A-DC1	A-DC2	A-DC3	A-DC4	A-DC5	A-DC6	A-DC7	A-DC8	A-DC9	A-DC10	A-DC11	A-DC12	A-DC13	A-DC14	A-DC15	A-DC16	A-Ph1	A-Ph2	A-Ph3	A-Ph4	A-Ph5	A-Ph6	A-Ph7	A-Ph8	A-Ph9	A-Ph10	A-Ph11	A-Ph12	A-Ph13	A-Ph14	A-Ph15	A-Ph16	B-AC1	B-AC2	B-AC3	B-AC4	B-AC5	B-AC6	B-AC7	B-AC8	B-AC9	B-AC10	B-AC11	B-AC12	B-AC13	B-AC14	B-AC15	B-AC16	B-DC1	B-DC2	B-DC3	B-DC4	B-DC5	B-DC6	B-DC7	B-DC8	B-DC9	B-DC10	B-DC11	B-DC12	B-DC13	B-DC14	B-DC15	B-DC16	B-Ph1	B-Ph2	B-Ph3	B-Ph4	B-Ph5	B-Ph6	B-Ph7	B-Ph8	B-Ph9	B-Ph10	B-Ph11	B-Ph12	B-Ph13	B-Ph14	B-Ph15	B-Ph16	aux-1	digaux	

1668.909	1	1	0	512	0.064318	0.17771	0.25369	0.23346	0.21214	0.13111	0.19908	0.23655	0.07168	0.12605	0.11858	0.21387	0.1407	0.14289	0.19794	0.40922	-1.8083	-2.0896	-2.6583	-2.175	-2.2917	-2.6042	-2.2	-2.5812	-2.4521	-2.3083	-2.5667	-2.0646	-2.5104	-2.5792	-2.1896	-2.6667	14.552	304.461	125.750	104.236	258.561	313.735	244.445	168.248	152.014	199.391	182.106	-8.559	261.036	306.788	69.349	228.520	0.00016378	0.0005013	6.4168e-05	282.8	2.4169e-06	3.8705e-06	444.23	113.88	2.4481e-07	1.3546e-06	186.68	74.315	37.026	16.743	2.6484e-06	36.602	0.00021294	0.00020911	5.9382e-05	265.18	2.3536e-06	2.3493e-06	419.61	108.28	2.319e-06	2.3285e-06	176.18	71.121	35.827	16.167	2.4382e-06	35.014	210.363	92.522	70.930	-7.368	171.100	151.870	-9.750	-1.091	168.358	76.753	-5.108	0.247	4.904	9.722	330.927	4.375	-8191	255	
1669.007	1	1	0	0	0.08398	0.1074	0.096244	0.16862	0.13429	0.17199	0.24068	0.2068	0.11315	0.15505	0.29863	0.16975	0.06941	0.15835	0.075546	0.043428	-1.8417	-2.1042	-2.6562	-2.1479	-2.3667	-2.4146	-2.1271	-2.5521	-2.5187	-2.3167	-2.6917	-2.4125	-2.4437	-2.4667	-2.1688	-2.5646	1.556	174.101	298.059	70.834	192.817	-0.196	7.070	304.072	152.839	316.295	304.361	21.971	-4.279	257.901	242.016	37.912	0.0001323	0.00037209	0.00010403	278.56	7.5481e-07	3.3734e-06	446.36	113.89	2.5571e-06	3.1452e-06	189.34	75.063	37.004	16.758	2.0546e-06	36.92	0.00022051	0.00021937	6.0195e-05	264.7	2.3024e-06	2.3714e-06	419.96	108.31	2.2336e-06	2.3722e-06	177.47	71.295	35.921	16.192	2.3853e-06	35.232	204.360	71.245	49.261	-7.873	169.523	158.392	-9.638	-1.739	166.158	94.991	-5.038	0.714	4.340	9.405	198.375	4.144	-8191	255	
1669.126	1	1	0	0	0.35709	0.11374	0.20172	0.16371	0.13397	0.089294	0.19145	0.15952	0.081765	0.11432	0.013756	0.07653	0.1204	0.18495	0.16369	0.11696	-2.1792	-2.3167	-2.65	-2.1958	-2.2792	-2.7875	-2.0979	-2.6417	-2.5729	-2.1896	-2.6562	-2.3792	-2.1792	-2.65	-2.1813	-2.575	152.636	59.425	127.573	315.320	303.079	146.105	11.124	253.342	230.793	65.807	83.828	147.276	53.718	271.629	57.513	327.334	0.00016061	0.00021618	6.3999e-05	280.37	2.0866e-06	1.9663e-06	450.37	114.2	9.8138e-07	2.5515e-06	188.24	75.81	37.63	16.988	2.1816e-06	37.288	0.00021421	0.00022202	6.0078e-05	265.22	2.34e-06	2.4077e-06	423.08	108.5	2.2293e-06	2.4294e-06	177.63	72.018	36.114	16.372	2.4223e-06	35.53	204.294	32.587	69.124	-7.544	120.759	140.058	-9.751	-1.309	204.021	205.424	-5.221	0.388	4.295	9.292	108.250	4.211	-8191	255	
1669.222	1	1	0	0	0.22711	0.12577	0.17038	0.077728	0.27162	0.12408	0.058296	0.38005	0.079737	0.21551	0.07902	0.18314	0.028878	0.23226	0.09529	0.29276	-1.975	-2.2375	-2.6188	-2.3146	-2.3104	-2.7083	-2.2354	-2.4833	-2.5792	-2.1312	-2.6396	-2.4458	-2.1396	-2.5375	-2.3396	-2.4292	83.071	265.412	117.495	244.428	52.160	-7.648	-1.600	289.367	-4.722	333.951	293.086	162.666	330.089	263.760	130.622	205.499	0.00014563	0.00047941	7.715e-05	281.62	1.7162e-06	2.5039e-06	455.56	114.35	1.7841e-06	3.8691e-06	187.78	75.767	37.33	17.028	1.3578e-06	37.003	0.00022055	0.00022066	6.2062e-05	266.2	2.2503e-06	2.373e-06	424.88	109	2.3638e-06	2.2565e-06	177.99	72.005	36.097	16.321	2.3425e-06	35.447	211.033	60.749	114.274	-7.101	152.569	134.790	-9.789	-1.288	146.929	162.208	-4.783	0.255	4.826	9.324	208.714	4.251	-8191	255	
1669.318	1	1	0	0	0.13965	0.046262	0.19797	0.03778	0.14339	0.15214	0.12751	0.19314	0.1698	0.1933	0.14113	0.32772	0.020631	0.11265	0.19641	0.137	-2.2208	-2.2938	-2.5083	-2.6312	-2.2958	-2.7354	-2.2729	-2.5708	-2.6146	-2.275	-2.5729	-2.6146	-2.3292	-2.6875	-2.5417	-2.4583	109.394	-6.975	338.602	152.311	258.633	137.675	211.088	275.610	243.186	84.914	-6.891	286.375	6.685	60.263	173.471	231.335	0.00012811	0.00025089	9.919e-05	278.31	1.6805e-06	2.9195e-06	452.92	113.5	1.6421e-06	2.1138e-06	186.07	74.429	37.242	16.938	2.6922e-06	36.948	0.00020722	0.00020768	6.0882e-05	263.69	2.2359e-06	2.3635e-06	422.57	108.07	2.3026e-06	2.3313e-06	176.69	71.347	35.909	16.286	2.3972e-06	35.313	203.981	91.054	59.368	-7.035	111.491	153.931	-9.188	-1.498	188.162	122.045	-5.100	0.096	4.547	9.649	152.952	4.616	-8191	255	
1669.439	1	1	0	0	0.20371	0.098989	0.09686	0.16965	0.063756	0.071867	0.20269	0.17125	0.062248	0.10355	0.16792	0.096094	0.047762	0.086443	0.10845	0.33128	-2.3104	-2.2854	-2.5292	-2.5292	-2.2396	-2.8208	-2.4562	-2.3896	-2.8917	-2.25	-2.4771	-2.5625	-2.2604	-2.6229	-2.4333	-2.2708	201.734	92.913	15.234	-14.353	191.381	12.128	249.082	38.030	177.806	55.107	43.226	85.705	154.699	180.102	302.075	230.729	0.00015628	0.0001655	0.0001126	275.76	2.7726e-06	1.3201e-06	447.74	113.53	2.0173e-06	6.3901e-07	185.25	75.314	37.58	16.842	3.2037e-06	36.747	0.00021851	0.00021601	5.8971e-05	262.23	2.2175e-06	2.2789e-06	421.42	108.07	2.3903e-06	2.3233e-06	176.26	71.826	36.116	16.242	2.2834e-06	35.317	217.495	37.674	135.616	-8.038	108.624	164.263	-9.665	-1.386	175.062	17.184	-5.238	0.543	4.944	9.018	158.147	5.048	-8191	255	
1669.511	1	1	0	0	0.20364	0.25283	0.064184	0.042991	0.18968	0.10199	0.29708	0.086698	0.15057	0.17671	0.05593	0.21539	0.20971	0.12207	0.077209	0.22163	-2.1937	-2.2979	-2.4167	-2.7083	-2.3271	-2.6813	-2.575	-2.2917	-2.575	-2.275	-2.2729	-2.5958	-2.2708	-2.5458	-2.5583	-2.3458	68.885	25.635	234.162	239.506	221.936	25.147	260.693	327.183	303.721	235.073	307.820	176.576	216.291	3.659	3.671	89.825	0.00014118	0.00041893	6.3404e-05	280.61	3.2513e-06	3.3435e-06	451.45	114.91	2.3873e-06	3.0536e-06	189.49	75.813	37.761	16.873	3.3307e-06	37.631	0.00022413	0.00021583	6.1754e-05	264.09	2.2514e-06	2.371e-06	423.52	109.33	2.3207e-06	2.2984e-06	178.54	72.462	36.253	16.365	2.2829e-06	35.844	212.242	78.072	78.225	-7.738	147.940	90.152	-9.349	-1.367	192.458	107.709	-5.421	0.542	4.500	9.439	106.916	4.328	-8191	255	
1669.607	1	1	0	0	0.2914	0.10714	0.13337	0.12908	0.34698	0.24091	0.13608	0.13183	0.22322	0.092612	0.089836	0.26341	0.21021	0.057222	0.062404	0.054141	-2.3146	-2.4042	-2.3792	-2.5271	-2.1146	-2.5417	-2.5958	-2.1708	-2.7	-2.4021	-2.4021	-2.6063	-2.3667	-2.5417	-2.5604	-2.2208	54.884	315.858	183.128	297.815	255.160	21.564	213.067	24.723	132.057	18.620	277.281	5.870	157.961	310.572	-5.241	138.125	0.00016527	0.00018054	0.00011913	279.1	8.6308e-07	2.5644e-06	452.7	114.66	2.7776e-06	3.2421e-06	190.57	77.672	37.957	17.351	3.1786e-06	38.152	0.00022409	0.00021349	5.931e-05	264.25	2.1923e-06	2.365e-06	426.94	109.73	2.3003e-06	2.3025e-06	180.32	73.759	36.686	16.701	2.2728e-06	36.505	196.935	6.044	74.359	-7.603	10.035	117.945	-9.456	-1.427	128.333	167.314	-5.277	0.324	4.373	9.367	82.969	4.404	-8191	255	
1669.703	1	1	0	0	0.14936	0.1018	0.067645	0.21183	0.13552	0.22434	0.2898	0.30244	0.26473	0.10401	0.018077	0.11724	0.15482	0.17892	0.059946	0.15426	-2.2042	-2.2771	-2.3729	-2.7438	-2.2417	-2.5417	-2.6458	-2.2625	-2.6208	-2.3521	-2.1771	-2.8354	-2.2125	-2.5312	-2.4979	-2.3583	69.970	194.001	237.291	74.564	223.390	64.817	230.113	215.739	230.224	188.805	80.116	257.122	-6.674	243.083	62.604	248.402	0.00016741	0.00046855	9.7558e-05	281.69	1.6691e-06	4.3084e-06	455.77	115.36	1.3816e-06	3.3158e-06	191.86	76.982	37.862	17.284	2.1254e-06	37.86	0.00022701	0.00021093	5.8582e-05	266.55	2.2456e-06	2.3741e-06	429.86	110.2	2.3465e-06	2.283e-06	181.33	73.724	36.676	16.624	2.3154e-06	36.259	211.698	70.838	76.919	-7.193	162.136	146.993	-9.390	-1.426	126.714	171.321	-4.739	0.459	4.782	9.396	110.603	4.519	-8191	255	
1669.822	1	1	0	0	0.21475	0.063078	0.15851	0.25778	0.13075	0.2406	0.075108	0.17032	0.1566	0.24524	0.22808	0.071972	0.034979	0.19808	0.19137	0.35757	-2.2375	-2.3229	-2.2458	-2.5792	-2.4083	-2.5917	-2.4792	-2.1417	-2.6292	-2.6667	-2.3917	-2.7	-2.3063	-2.4875	-2.5333	-2.3438	87.394	36.194	132.441	10.378	172.811	-10.402	299.506	218.550	148.175	119.520	-0.997	272.219	202.366	301.999	199.049	335.068	0.0001468	0.00024398	0.00011972	278.61	2.82e-06	2.6524e-06	455.09	114.76	1.1805e-06	2.17e-06	188.79	76.011	37.303	17.137	4.3782e-06	37.665	0.00022308	0.0002091	6.0354e-05	265.61	2.2765e-06	2.3434e-06	429.58	109.56	2.425e-06	2.262e-06	178.54	72.919	36.117	16.443	2.373e-06	36.038	213.217	96.419	84.957	-7.762	162.150	124.656	-9.620	-1.323	138.348	125.078	-4.821	0.656	4.725	9.602	97.870	4.359	-8191	255	
1669.918	1	1	0	0	0.14769	0.10124	0.076867	0.1016	0.25523	0.17624	0.39073	0.10728	0.15202	0.066851	0.24724	0.039739	0.061355	0.19681	0.18319	0.092834	-2.1167	-2.3563	-2.125	-2.5646	-2.475	-2.3979	-2.6458	-2.2292	-2.5875	-2.3729	-2.1771	-2.7229	-2.3042	-2.3792	-2.6562	-2.175	258.242	304.927	96.091	257.155	225.731	241.934	302.633	146.197	236.520	165.714	50.891	125.028	285.490	242.212	33.722	228.934	0.00014493	0.00033755	1.533e-05	277.22	3.717e-06	4.2917e-06	451.68	111.07	1.3812e-06	3.7534e-06	183	75.032	36.63	16.609	4.0767e-06	37.079	0.00023102	0.00020017	5.7896e-05	264.25	2.3152e-06	2.3684e-06	428.08	106.14	2.329e-06	2.3032e-06	174.24	71.915	35.281	16.191	2.3755e-06	35.598	215.725	-9.477	21.592	-7.822	126.492	76.210	-9.762	-1.370	253.341	167.528	-4.932	0.535	4.503	9.362	158.445	4.543	-8191	255	
1670.014	1	1	0	0	0.20679	0.16807	0.12068	0.2085	0.23485	0.25226	0.0269	0.12882	0.16492	0.19238	0.20887	0.16851	0.29015	0.069545	0.15868	0.037109	-1.8354	-2.5271	-2.0479	-2.6146	-2.6292	-2.3625	-2.6562	-2.3542	-2.5292	-2.4667	-2.2729	-2.6375	-2.5083	-2.1417	-2.8542	-2.275	-2.628	174.781	46.755	293.755	63.231	146.034	200.435	299.842	46.055	269.203	117.504	256.552	323.909	255.195	63.856	-18.122	0.00015114	0.00025284	4.6975e-05	276.97	3.7643e-06	7.5166e-07	450.73	109.53	1.8657e-06	5.2351e-06	181.27	74.435	35.91	16.457	2.4959e-06	37.136	0.00023008	0.00021709	5.8966e-05	261.91	2.3036e-06	2.3111e-06	425.75	105.08	2.2863e-06	2.2686e-06	173.04	71.204	35.065	16.003	2.4359e-06	35.591	208.990	35.038	95.117	-7.584	101.689	203.662	-9.327	-1.419	217.524	111.123	-5.044	-0.046	5.444	9.248	233.981	4.473	-8191	255	
1670.088	1	1	0	0	0.26093	0.3017	0.16601	0.20584	0.12067	0.095722	0.095251	0.099841	0.074147	0.12892	0.14762	0.31886	0.087289	0.12723	0.17696	0.25671	-1.8438	-2.4167	-2.3083	-2.6104	-2.3521	-2.1667	-2.5979	-2.5625	-2.3708	-2.6125	-2.2354	-2.5583	-2.4813	-2.1667	-2.675	-2.3375	3.551	231.079	125.007	228.723	17.104	11.576	70.798	29.694	262.552	167.776	20.653	251.346	181.088	75.026	117.838	88.278	0.00012977	0.00052218	7.8874e-05	273.78	1.2186e-06	4.7661e-06	455.06	109.55	1.8106e-06	3.0479e-06	180.62	73.413	36.15	16.359	2.9122e-06	36.373	0.00022354	0.00021072	6.1424e-05	261.01	2.3443e-06	2.4174e-06	428.87	104.98	2.1865e-06	2.4034e-06	173.05	71.134	35.269	16.062	2.4127e-06	35.325	215.442	67.195	69.363	-7.565	116.211	135.560	-10.032	-1.485	114.774	126.828	-5.221	-0.508	4.297	8.749	213.723	3.664	-8191	255	
1670.206	1	1	0	0	0.13703	0.05913	0.30197	0.29591	0.13705	0.24138	0.2209	0.2308	0.12655	0.11079	0.41903	0.028821	0.20879	0.11403	0.18431	0.11379	-1.9188	-2.625	-2.1125	-2.4167	-2.5104	-2.3542	-2.6813	-2.4938	-2.1854	-2.5708	-2.1292	-2.5979	-2.7083	-2.2521	-2.5417	-2.4875	234.906	229.891	28.410	228.416	246.239	129.053	331.883	208.352	180.940	15.815	-9.251	289.923	0.212	259.768	42.339	136.304	0.00013557	0.00024209	7.689e-05	271	1.5975e-06	2.3089e-06	452.45	108.58	8.8892e-07	1.1664e-06	179.87	72.999	36.421	16.657	2.9081e-06	36.667	0.00021467	0.00021804	6.0399e-05	259.91	2.3524e-06	2.2579e-06	426.92	104.9	2.3032e-06	2.3394e-06	172.08	70.668	35.127	16.071	2.3872e-06	35.187	209.277	66.021	85.107	-8.135	164.117	102.147	-9.883	-1.636	185.306	141.293	-5.800	0.192	5.469	9.743	230.639	4.483	-8191	255	
1670.303	1	1	0	0	0.19035	0.077372	0.15309	0.20187	0.042054	0.36233	0.28873	0.10984	0.08078	0.1057	0.13369	0.28446	0.042913	0.21705	0.14012	0.086228	-1.8792	-2.4667	-2.1896	-2.425	-2.5125	-2.1792	-2.6708	-2.4208	-2.2917	-2.6167	-2.4354	-2.4542	-2.6521	-2.1708	-2.4417	-2.7021	187.299	6.302	185.792	248.641	242.892	168.714	331.703	202.930	329.430	182.835	309.848	-2.272	320.009	321.786	166.553	180.230	0.00014279	0.0002755	3.335e-05	277.07	2.1961e-06	3.1948e-06	458.8	110.18	1.4804e-06	6.2688e-07	181.03	74.164	36.492	16.935	3.0243e-06	37.278	0.00022029	0.00022203	6.0042e-05	261.31	2.2464e-06	2.3924e-06	427.86	104.97	2.318e-06	2.2739e-06	172.3	70.933	35.368	16.195	2.4237e-06	35.513	207.332	130.659	88.561	-7.184	122.847	92.156	-9.678	-1.650	111.930	44.352	-4.681	0.336	4.559	9.663	171.393	4.243	-8191	255	
1670.399	1	1	0	0	0.095089	0.21202	0.22393	0.12972	0.048549	0.24741	0.064423	0.21902	0.10613	0.18309	0.19248	0.2319	0.039783	0.14424	0.18691	0.10314	-1.6354	-2.6604	-2.2333	-2.3125	-2.5958	-2.325	-2.625	-2.5479	-2.2229	-2.6583	-2.5021	-2.3729	-2.6646	-2.3312	-2.4667	-2.4208	238.238	254.066	205.505	256.158	125.933	88.020	129.735	229.266	308.222	315.298	-14.313	206.790	41.688	-11.312	301.247	48.405	0.00013767	0.0003416	0.0001272	277.45	1.6941e-06	2.9199e-06	458.32	110.08	7.1018e-07	1.8775e-06	183.55	75.269	36.673	16.608	3.3373e-06	37.126	0.0002223	0.00022727	5.9563e-05	261.65	2.2599e-06	2.3915e-06	429.2	105.35	2.3917e-06	2.2739e-06	173.2	71.817	35.395	16.162	2.4759e-06	35.509	200.768	12.491	59.662	-7.768	208.031	156.175	-9.493	-0.924	180.539	132.539	-5.271	0.245	4.952	9.465	194.116	4.601	-8191	255	
1670.519	1	1	0	0	0.086367	0.2253	0.28298	0.21757	0.18562	0.19906	0.20307	0.1012	0.19736	0.20528	0.22377	0.26063	0.27927	0.043773	0.075138	0.26218	-1.7854	-2.4917	-2.3312	-2.1896	-2.6646	-2.2771	-2.5229	-2.4188	-2.0812	-2.6979	-2.4062	-2.1937	-2.7375	-2.1521	-2.35	-2.4708	120.200	326.630	10.525	-4.137	296.148	143.887	257.865	-7.224	275.552	113.956	41.767	78.869	254.437	271.355	83.786	280.948	0.00014609	0.00016437	5.0662e-05	274.83	2.8693e-06	3.9184e-06	451.17	110.06	1.8177e-06	1.8673e-06	182.13	75.11	36.799	16.811	1.6495e-06	37.484	0.00022458	0.00023023	5.959e-05	261.55	2.2927e-06	2.4067e-06	427.93	105.23	2.3086e-06	2.4713e-06	172.43	71.563	35.37	16.294	2.3881e-06	35.689	204.901	124.470	138.643	-8.107	177.528	154.505	-9.759	-0.695	211.425	85.376	-5.328	0.438	5.015	9.629	127.084	4.370	-8191	255	
1670.616	1	1	0	0	0.19905	0.15543	0.17652	0.14619	0.30179	0.083977	0.042806	0.12289	0.23995	0.22169	0.26964	0.17249	0.026719	0.074161	0.092757	0.2766	-1.7229	-2.3667	-2.3583	-2.1937	-2.6396	-2.1375	-2.55	-2.5125	-2.0896	-2.6167	-2.4292	-2.1146	-2.4604	-2.3417	-2.375	-2.7188	-8.677	25.262	330.861	256.533	271.666	24.375	4.248	244.842	155.436	69.127	316.290	311.015	200.414	57.579	183.300	323.668	0.0001315	0.00019991	0.00010637	278.08	1.0756e-06	1.51e-06	460.15	109.03	2.4355e-06	2.1881e-06	178.99	74.843	36.179	16.732	2.727e-06	36.86	0.00023103	0.00022656	6.011e-05	263.01	2.4267e-06	2.3236e-06	430.25	103.99	2.3567e-06	2.408e-06	169.8	71.099	34.946	16.081	2.3517e-06	35.087	197.020	128.512	30.607	-7.623	27.648	202.166	-9.569	-0.900	169.652	168.379	-4.183	0.545	5.221	9.162	167.098	4.556	-8191	255	
1670.710	1	1	0	0	0.14443	0.17567	0.10979	0.18704	0.10692	0.18783	0.19918	0.025808	0.077082	0.23591	0.082991	0.19276	0.067532	0.081915	0.30612	0.13296	-1.6833	-2.5083	-2.3896	-2.2854	-2.6063	-2.4229	-2.3875	-2.8646	-2.2583	-2.4313	-2.5104	-2.2646	-2.6542	-2.3083	-2.2896	-2.5667	237.226	330.917	229.260	38.909	-10.930	137.906	203.515	80.567	205.592	60.908	233.804	21.890	101.638	310.548	145.153	272.447	0.00014585	0.00033752	9.911e-05	276.22	3.3329e-06	2.2569e-06	455.16	108.54	1.3772e-06	3.423e-06	178.84	73.381	36.215	16.512	3.9587e-06	36.552	0.00022328	0.00022342	6.2477e-05	260.63	2.4171e-06	2.4355e-06	424.7	102.87	2.299e-06	2.3715e-06	169.32	70.141	34.84	15.951	2.3951e-06	34.911	210.055	71.404	65.278	-7.496	161.180	165.117	-9.540	-1.239	202.449	97.976	-4.789	0.532	4.869	9.813	160.982	4.175	-8191	255	
1670.808	1	1	0	0	0.22073	0.26678	0.12626	0.1628	0.061548	0.057617	0.13549	0.10795	0.22986	0.03687	0.048687	0.30426	0.22228	0.077674	0.083155	0.13362	-1.7625	-2.4729	-2.5438	-2.2896	-2.4333	-2.5	-2.1813	-2.5938	-2.2562	-2.6333	-2.5958	-2.1188	-2.4125	-2.3771	-2.2458	-2.5729	58.144	246.293	15.830	127.835	97.453	322.895	192.314	331.189	311.465	166.159	209.989	10.862	285.271	197.529	94.256	299.683	0.0001555	0.0004104	0.00010063	275.68	4.5917e-06	2.8224e-06	453.4	108.24	3.0658e-06	5.267e-06	179.09	74.735	36.177	16.623	3.1782e-06	36.402	0.00022469	0.00021143	5.8257e-05	260.96	2.4265e-06	2.2901e-06	423.57	102.7	2.4618e-06	2.2777e-06	169.56	70.739	34.9	16.001	2.2684e-06	34.902	220.158	56.637	79.181	-7.481	147.306	172.292	-9.613	-1.503	175.366	126.395	-4.882	0.431	4.711	9.919	144.894	4.273	-8191	255	
1670.902	1	1	0	0	0.18311	0.22522	0.026467	0.067148	0.15942	0.054751	0.24345	0.32687	0.16267	0.072332	0.21877	0.21766	0.14851	0.14365	0.12092	0.2511	-1.6667	-2.3125	-2.3833	-2.1104	-2.4896	-2.3917	-2.1104	-2.6583	-2.2208	-2.1562	-2.5542	-2.1063	-2.4458	-2.4729	-2.225	-2.4833	209.652	252.479	267.723	51.500	326.663	60.595	186.873	268.538	109.933	172.092	174.398	192.661	296.884	301.151	33.616	338.350	0.00013828	0.00058409	8.5024e-05	278.35	3.8465e-06	2.7294e-06	453.88	109.06	1.7834e-06	5.0771e-07	181.46	75.05	36.664	16.827	3.835e-06	37.136	0.00022276	0.0002196	6.1438e-05	260.1	2.445e-06	2.4446e-06	425.38	103.62	2.3751e-06	2.3501e-06	171.11	71.146	35.178	16.129	2.4085e-06	35.437	200.404	90.493	54.365	-7.432	154.594	142.431	-9.602	-1.875	123.802	191.647	-5.268	0.061	4.829	9.203	176.801	4.703	-8191	255	
1670.998	1	1	0	0	0.34168	0.079966	0.098209	0.10738	0.074992	0.18258	0.18977	0.14115	0.2497	0.26092	0.25546	0.23756	0.12196	0.1785	0.063299	0.14529	-1.9188	-2.1437	-2.5229	-2.0458	-2.4792	-2.2438	-2.0333	-2.5042	-2.1833	-2.3104	-2.5563	-2.25	-2.2292	-2.2521	-2.175	-2.6646	21.047	-16.237	284.791	95.463	214.759	21.909	-9.295	289.615	45.231	208.923	230.092	192.199	77.910	295.594	7.590	186.382	0.00013664	0.00040793	1.9661e-05	279.82	8.6597e-07	2.236e-06	456.03	110.12	1.9003e-06	4.1423e-06	184.27	75.78	37.058	16.929	5.1916e-06	37.618	0.00021608	0.0002168	6.3038e-05	263.34	2.2815e-06	2.4393e-06	429.19	104.87	2.4468e-06	2.3454e-06	173.6	71.917	35.53	16.266	2.4936e-06	35.799	215.003	58.539	287.986	-7.210	114.810	159.219	-9.618	-1.405	167.220	139.060	-5.548	0.886	4.586	9.089	161.925	4.996	-8191	255	
1671.119	1	1	0	0	0.21639	0.028677	0.090648	0.247	0.19899	0.22509	0.096255	0.19489	0.027069	0.21113	0.14368	0.042225	0.2179	0.095091	0.13638	0.17078	-1.875	-2.2333	-2.5271	-2.1896	-2.4417	-2.5271	-2.2729	-2.5125	-2.3354	-2.2604	-2.6562	-2.0938	-2.3125	-2.4417	-2.0854	-2.6396	139.962	295.563	6.615	28.733	144.955	328.380	223.325	293.826	117.457	149.648	311.835	223.842	268.517	85.945	46.116	94.664	0.00012974	0.00038295	4.0401e-05	279.99	3.2019e-06	2.1283e-06	461.24	111.18	1.2886e-06	8.8725e-07	182.85	75.85	36.689	16.885	5.4854e-06	37.557	0.00022201	0.00022044	6.2301e-05	263.36	2.4079e-06	2.4006e-06	432.37	104.99	2.3818e-06	2.3907e-06	173.46	72.236	35.505	16.254	2.4132e-06	35.846	214.193	119.283	104.990	-7.416	179.717	231.613	-9.765	-1.818	173.145	188.418	-5.104	1.061	4.967	10.007	134.830	4.866	-8191	255	
1671.215	1	1	0	0	0.091261	0.49106	0.20418	0.1827	0.09869	0.22521	0.37022	0.17779	0.10503	0.17867	0.050015	0.20115	0.19485	0.11557	0.26029	0.23241	-1.875	-2.0833	-2.6188	-2.1625	-2.3208	-2.5021	-1.975	-2.45	-2.3563	-2.2271	-2.6875	-2.1729	-2.4062	-2.6312	-2.1083	-2.3563	157.607	-18.877	162.005	-9.705	136.719	311.914	244.205	267.851	-14.706	290.683	-13.203	303.903	8.013	251.217	40.642	308.821	0.00016358	0.0001149	0.00011009	280.4	3.6173e-06	2.5401e-06	462.17	109.13	1.4329e-06	2.4443e-06	183.58	76.038	36.606	16.781	3.9497e-06	37.538	0.00022571	0.00020636	6.0073e-05	263.68	2.3427e-06	2.4184e-06	432.01	104.43	2.2928e-06	2.4258e-06	173.02	72.124	35.285	16.186	2.4122e-06	35.787	206.184	167.114	88.823	-7.526	145.875	131.305	-9.583	-1.642	77.949	111.131	-5.117	0.283	4.579	9.859	140.271	4.489	-8191	255	
1671.311	1	1	0	0	0.0066239	0.16679	0.1794	0.11664	0.1348	0.19033	0.083732	0.27496	0.26093	0.28923	0.087792	0.010655	0.074476	0.14297	0.18311	0.065126	-1.9208	-2.0812	-2.5896	-2.2646	-2.2646	-2.5187	-2.2333	-2.3729	-2.525	-2.3875	-2.4521	-2.2562	-2.1167	-2.7	-2.3167	-2.4167	-17.374	238.540	5.877	32.133	177.217	317.039	322.754	256.016	32.863	333.904	63.766	165.488	123.397	297.776	37.306	300.149	0.00013829	0.00036149	1.34e-05	279.2	2.7108e-06	1.169e-06	457.78	109.85	1.8043e-06	4.6129e-07	181.14	75.082	36.719	16.659	2.6638e-06	37.122	0.00022134	0.00021731	6.1483e-05	263.94	2.3678e-06	2.3744e-06	432.06	104.11	2.4101e-06	2.3704e-06	171.26	71.52	35.219	16.115	2.4316e-06	35.567	220.352	51.433	133.347	-7.737	154.538	148.727	-9.929	-1.197	175.193	225.920	-4.997	0.438	4.926	9.361	116.441	4.274	-8191	255	
1671.383	1	1	0	0	0.13238	0.093444	0.026745	0.1376	0.26033	0.048863	0.080732	0.27592	0.052925	0.23792	0.34159	0.077438	0.12216	0.15056	0.10429	0.13994	-1.9583	-2.0875	-2.4292	-2.375	-2.2917	-2.5438	-2.1375	-2.2479	-2.4146	-2.175	-2.5354	-2.5583	-2.3667	-2.7687	-2.2021	-2.4792	241.578	197.073	-12.210	196.008	135.568	43.361	278.862	282.682	181.819	199.916	280.255	92.454	-9.519	281.188	246.122	257.726	0.00014658	0.00031396	5.4051e-05	277.89	2.3021e-06	2.7099e-06	460.35	108.14	1.4479e-06	3.8757e-06	179.18	74.578	36.32	16.637	9.8435e-07	37.315	0.00021871	0.00022005	6.6612e-05	262.65	2.2835e-06	2.4867e-06	431.73	102.6	2.4841e-06	2.492e-06	170.6	71.134	35.021	16.069	2.4822e-06	35.631	207.932	92.994	189.437	-7.530	234.347	138.931	-10.094	-1.814	158.426	145.609	-5.164	0.395	4.949	9.255	153.506	4.260	-8191	255	
1671.504	1	1	0	0	0.22834	0.28003	0.098831	0.19781	0.064202	0.097094	0.096825	0.15666	0.1845	0.10711	0.16456	0.25508	0.2192	0.20544	0.14717	0.144	-2.075	-2.1188	-2.55	-2.4979	-2.0271	-2.5458	-2.5208	-2.2479	-2.5167	-2.2729	-2.5271	-2.3896	-2.1479	-2.5458	-2.3083	-2.4729	161.544	235.459	230.877	229.708	220.594	144.342	127.633	335.312	223.452	51.040	63.476	223.007	184.668	284.493	-6.759	17.426	0.00014665	9.0664e-05	7.3879e-05	276.76	1.6719e-06	1.2608e-06	453.53	106.78	1.558e-06	2.2403e-06	177.03	73.979	35.906	16.263	2.3697e-06	36.424	0.00023015	0.00022371	6.1316e-05	262.21	2.4161e-06	2.532e-06	429.73	102.81	2.4466e-06	2.4872e-06	169.71	70.865	34.816	15.794	2.3217e-06	35.05	207.846	185.230	61.105	-7.933	126.074	218.255	-9.960	-1.456	161.197	97.299	-5.607	0.574	4.883	8.865	85.482	4.171	-8191	255	
1671.600	1	1	0	0	0.096709	0.075718	0.13734	0.064791	0.18007	0.18649	0.084482	0.17301	0.17644	0.1477	0.16911	0.14418	0.14474	0.2721	0.18605	0.13353	-2.0438	-2.0458	-2.6063	-2.3604	-2.3604	-2.6583	-2.3167	-2.2083	-2.6562	-2.2521	-2.6312	-2.6146	-2.0167	-2.4729	-2.4604	-2.3542	135.189	301.634	295.797	271.994	95.630	314.690	260.698	-19.428	31.124	121.968	265.396	52.448	4.611	247.719	232.122	224.778	0.00012568	0.00030761	0.00010696	272.59	4.8452e-06	2.5196e-06	448.88	107.5	1.6748e-06	2.6797e-06	176.89	72.61	35.391	16.067	4.7798e-06	35.962	0.00022666	0.00023405	6.0331e-05	259.15	2.3574e-06	2.4551e-06	423.41	102.83	2.3581e-06	2.4633e-06	169.29	70.035	34.607	15.672	2.3294e-06	34.719	203.295	71.108	23.055	-7.902	177.349	130.748	-9.735	-1.683	165.607	137.017	-5.656	0.061	4.528	8.768	205.244	4.255	-8191	255	
1671.696	1	1	0	0	0.1301	0.067908	0.033031	0.1597	0.17521	0.27706	0.044578	0.30179	0.23872	0.21107	0.13453	0.11472	0.07923	0.052443	0.15314	0.18585	-2.1708	-2.0396	-2.3688	-2.4188	-2.2208	-2.5375	-2.5854	-2.2	-2.5958	-2.3083	-2.4042	-2.6	-2.0312	-2.45	-2.3125	-2.3917	176.737	185.844	162.418	218.154	75.837	56.928	181.403	53.065	177.894	174.859	43.723	264.514	254.598	159.232	132.421	215.005	0.00013661	0.00013673	0.00011262	270.33	1.25e-06	3.1803e-06	443.1	107.89	1.5387e-06	2.7101e-06	179.55	73.196	36.226	16.299	1.3719e-06	36.378	0.00022951	0.00023298	5.978e-05	258.54	2.4146e-06	2.5623e-06	420.65	104.2	2.4733e-06	2.5048e-06	171.51	70.792	35.14	15.933	2.4202e-06	35.15	203.547	89.796	60.507	-7.487	148.705	173.527	-9.621	-1.928	142.939	85.913	-5.464	0.158	4.706	8.857	142.720	4.223	-8191	255	
1671.792	1	1	0	0	0.34361	0.18756	0.14496	0.13439	0.12521	0.25229	0.25452	0.13788	0.30275	0.11946	0.20189	0.28561	0.095835	0.22944	0.20696	0.18762	-2.2771	-2.3396	-2.0917	-2.5687	-2.1458	-2.5854	-2.4938	-2.3688	-2.5563	-2.3333	-2.3187	-2.6146	-2.2812	-2.4313	-2.4167	-2.2313	273.568	175.118	205.043	34.368	131.503	260.902	277.620	266.564	339.039	329.505	294.622	-10.806	66.904	315.928	74.994	90.382	0.00015708	0.00026795	6.0868e-05	273.37	1.9098e-06	2.2277e-06	446.98	109.69	1.6776e-06	2.567e-06	182.12	74.601	36.008	16.438	2.4973e-06	36.959	0.00022891	0.00023067	6.1144e-05	260.57	2.4275e-06	2.3903e-06	425.15	105.01	2.4692e-06	2.4207e-06	173.28	71.608	35.217	16.008	2.3778e-06	35.493	221.412	77.876	23.537	-7.976	135.820	81.872	-10.118	-1.366	121.075	119.121	-5.196	0.078	4.895	8.458	164.068	4.437	-8191	255	
1671.888	1	1	0	0	0.096162	0.19274	0.22545	0.01743	0.087569	0.15084	0.074206	0.16427	0.14948	0.1993	0.15117	0.044957	0.3295	0.29406	0.15945	0.042214	-1.9667	-2.1813	-2.4042	-2.6625	-2.1625	-2.3333	-2.6792	-2.1021	-2.5792	-2.3771	-2.075	-2.6437	-2.1896	-2.4875	-2.6	-2.1625	274.535	133.751	129.179	45.174	129.521	62.755	2.455	122.313	106.640	237.333	270.866	87.987	44.166	280.216	321.313	36.086	0.0001469	0.00011804	1.37e-05	272.99	2.3482e-06	3.5202e-06	452.34	109.18	2.8126e-06	2.3094e-06	181.21	74.551	36.429	16.555	2.7171e-06	37.372	0.00023194	0.00021887	5.959e-05	261.19	2.4168e-06	2.3179e-06	428.52	105.17	2.3785e-06	2.37e-06	173.65	71.901	35.469	16.166	2.4239e-06	36.002	222.299	121.910	103.601	-7.367	170.829	156.316	-9.699	-1.285	152.200	168.461	-5.406	-0.009	4.930	9.017	128.487	4.468	-8191	255	
1671.983	1	1	0	0	0.2202	0.23301	0.3766	0.082302	0.17896	0.10434	0.27329	0.18004	0.1443	0.22662	0.11603	0.16184	0.11907	0.12778	0.048221	0.10555	-2.0438	-2.3417	-2.2625	-2.6417	-2.1562	-2.3937	-2.625	-2.3104	-2.4	-2.4646	-2.3896	-2.5458	-2.2896	-2.4062	-2.4396	-2.0917	322.283	294.192	84.199	233.382	124.682	249.573	303.203	-9.331	203.229	262.120	337.157	295.277	315.735	332.871	107.000	287.971	0.00013056	0.00061256	5.6306e-05	272.18	1.7998e-06	5.0672e-06	455.28	108.59	3.3505e-06	2.0583e-06	180.38	74.523	36.063	16.383	2.7004e-06	36.882	0.00021913	0.00020811	5.9084e-05	260.9	2.2958e-06	2.314e-06	430.11	104.62	2.3399e-06	2.3898e-06	172.26	71.446	35.141	16.01	2.3928e-06	35.437	209.815	69.981	-1.508	-7.402	144.518	126.856	-10.396	-1.569	183.524	61.423	-5.505	0.050	4.558	9.143	164.108	4.078	-8191	255	
1672.079	1	1	0	0	0.16121	0.15355	0.25363	0.34099	0.11576	0.16241	0.059475	0.12771	0.062238	0.12871	0.11416	0.18031	0.0951	0.10453	0.1483	0.26437	-1.9562	-2.475	-2.1708	-2.5542	-2.3438	-2.2708	-2.55	-2.2562	-2.4792	-2.6583	-2.1479	-2.6833	-2.325	-2.3042	-2.5583	-2.35	20.999	76.867	279.892	336.767	87.455	5.962	252.907	315.851	97.035	124.972	253.911	269.859	271.188	247.004	332.582	278.601	0.00013341	0.00031798	0.00010788	273.04	3.4873e-06	1.3633e-06	452.26	107.64	2.2895e-06	3.0892e-06	177.96	74.07	35.786	16.618	3.9223e-06	37.007	0.00021617	0.00020269	5.9897e-05	258.77	2.2194e-06	2.327e-06	427.96	103.21	2.3332e-06	2.3422e-06	170.41	71.144	34.78	16.054	2.4235e-06	35.474	202.287	35.187	92.881	-7.992	169.663	119.750	-9.862	-1.099	153.271	157.237	-5.282	0.234	4.807	9.245	116.675	4.312	-8191	255	
1672.199	1	1	0	0	0.034299	0.33079	0.27765	0.13426	0.17937	0.24319	0.29126	0.28734	0.075423	0.24567	0.10803	0.20201	0.27467	0.097113	0.093469	0.14514	-2.0354	-2.5312	-2.1958	-2.4583	-2.275	-2.2938	-2.6854	-2.2062	-2.4271	-2.6625	-2.2792	-2.5458	-2.4458	-2.2062	-2.7292	-2.4042	230.936	109.801	209.574	118.672	261.278	271.955	242.593	172.279	88.614	90.239	312.931	234.129	200.429	215.589	111.544	202.896	0.00011628	7.7198e-05	8.611e-05	271.28	2.1507e-06	3.9882e-06	454.24	106.52	2.2179e-06	3.8547e-06	180.83	74.81	35.892	16.569	2.5262e-06	36.81	0.00021436	0.00020478	6.1899e-05	258.89	2.3196e-06	2.3008e-06	429.32	102.98	2.2746e-06	2.3574e-06	171.42	71.34	34.887	16.111	2.4779e-06	35.543	204.705	2.846	95.086	-7.906	129.086	127.190	-10.094	-1.556	183.049	111.214	-5.308	0.176	4.749	9.300	166.111	4.062	-8191	255	
1672.296	1	1	0	0	0.20989	0.0096188	0.15036	0.098106	0.12164	0.071996	0.11868	0.081895	0.25363	0.075714	0.041822	0.14617	0.039554	0.22594	0.11377	0.079207	-1.7354	-2.4875	-2.1729	-2.475	-2.4396	-2.0812	-2.5812	-2.3479	-2.3958	-2.6708	-2.3979	-2.5417	-2.4354	-1.9583	-2.5021	-2.5042	-19.009	-12.833	136.114	167.146	288.175	312.261	157.712	332.441	50.494	103.415	39.633	12.917	23.710	273.429	162.914	286.367	0.00014866	0.00041295	6.3121e-05	271.49	3.2206e-06	2.6672e-06	456.58	107.04	1.9291e-06	1.423e-06	179.24	73.609	35.845	16.506	1.0538e-06	37.349	0.00021853	0.0002124	6.142e-05	259.56	2.1809e-06	2.2874e-06	432.75	103.33	2.1975e-06	2.1718e-06	171.82	71.366	34.921	16.076	2.2448e-06	35.87	213.204	76.160	82.939	-7.610	151.292	182.421	-10.033	-1.858	233.981	157.345	-5.620	-0.230	4.973	9.192	330.564	3.963	-8191	255	
1672.392	1	1	0	0	0.076205	0.09867	0.21662	0.15531	0.10199	0.26916	0.29458	0.11275	0.12506	0.064709	0.19528	0.19464	0.25156	0.23369	0.090373	0.13451	-1.5875	-2.5792	-2.1042	-2.3042	-2.5042	-2.0708	-2.6813	-2.4104	-2.3354	-2.5625	-2.3833	-2.4271	-2.3937	-2.1396	-2.5479	-2.4437	110.109	169.134	60.493	301.382	0.706	140.665	273.325	303.559	297.576	315.999	26.819	249.370	215.378	329.207	329.398	315.909	0.00014923	0.00038949	5.3019e-05	270.97	3.1344e-06	3.0264e-06	457.2	107.52	1.3174e-06	1.9677e-06	181.71	74.543	35.981	16.481	1.6454e-07	37.127	0.00021946	0.00021208	5.8248e-05	260.06	2.2168e-06	2.3557e-06	435.56	103.62	2.2861e-06	2.3809e-06	173.08	72.205	35.088	16.213	2.2648e-06	36.119	212.392	59.579	16.807	-7.709	155.117	139.577	-10.139	-2.419	130.065	192.503	-5.646	0.172	3.621	8.701	2.476	4.421	-8191	255	
1672.488	1	1	0	0	0.28166	0.13436	0.16574	0.25318	0.079232	0.25336	0.12285	0.015713	0.046432	0.13944	0.17047	0.24492	0.17897	0.084909	0.079205	0.22395	-1.6437	-2.5375	-2.2333	-2.375	-2.5583	-2.125	-2.6458	-2.4833	-2.2396	-2.4333	-2.3937	-2.4333	-2.6625	-2.1104	-2.5229	-2.6271	334.169	23.098	58.118	7.518	-14.542	191.656	80.455	159.918	90.720	-9.652	-16.410	33.450	63.260	119.633	164.698	260.315	0.00014216	0.00038875	2.6736e-05	270.87	3.4828e-06	6.1576e-06	454.46	106.21	1.9198e-06	2.2138e-06	181.03	75.194	35.909	16.603	2.8859e-06	37.153	0.00021821	0.00021201	6.2188e-05	259.94	2.2112e-06	2.3022e-06	435.41	103.21	2.1239e-06	2.3467e-06	172.55	72.126	34.912	16.172	2.2939e-06	35.911	217.111	74.188	139.208	-7.306	134.336	136.272	-10.088	-1.835	92.930	125.443	-5.516	0.024	4.765	8.861	138.966	4.409	-8191	255	
1672.609	1	1	0	0	0.1553	0.18058	0.12457	0.19925	0.12845	0.14792	0.13176	0.26763	0.12828	0.15578	0.16534	0.29057	0.12945	0.097397	0.065759	0.18339	-1.5167	-2.5812	-2.4417	-2.3021	-2.6354	-2.3917	-2.5917	-2.5146	-2.1604	-2.525	-2.4583	-2.3458	-2.6375	-2.1958	-2.4417	-2.5333	287.336	333.601	170.494	11.230	16.520	290.587	333.966	189.340	117.736	300.710	76.737	295.597	273.747	17.389	275.580	241.486	0.00013275	0.00042388	6.6847e-05	271.58	4.2474e-06	3.02e-06	459.18	106.71	2.3136e-06	1.6107e-06	178.72	74.132	35.408	16.468	2.4022e-06	37.08	0.00022147	0.00021097	6.0394e-05	258.91	2.3048e-06	2.4067e-06	435.44	102.99	2.3115e-06	2.3554e-06	171.45	71.427	34.455	16.083	2.1912e-06	35.796	201.452	87.942	40.605	-8.172	129.458	123.341	-10.145	-2.276	177.303	120.125	-5.422	0.115	5.030	8.906	167.765	4.155	-8191	255	
1672.680	1	1	0	0	0.072293	0.12885	0.32991	0.30543	0.20221	0.16966	0.061278	0.19693	0.21981	0.20249	0.18235	0.15632	0.13045	0.10301	0.13142	0.17183	-1.7563	-2.6375	-2.2396	-2.3021	-2.7833	-2.2708	-2.375	-2.5021	-2.2104	-2.4938	-2.2938	-2.2896	-2.4458	-2.1625	-2.5625	-2.5521	109.567	-7.739	171.535	241.026	141.514	24.417	165.795	303.953	282.232	214.249	132.600	243.681	217.804	10.981	201.313	276.862	0.00014433	0.00026948	5.3052e-05	270.83	1.3627e-06	1.5872e-06	455.23	105.63	1.7757e-06	1.3821e-06	178.34	73.302	35.154	16.447	8.1894e-07	37.179	0.00022154	0.00020528	5.8293e-05	258.01	2.2388e-06	2.3489e-06	434.91	102.27	2.4001e-06	2.2884e-06	170.95	70.892	34.4	16.04	2.2801e-06	35.654	208.593	72.094	133.640	-7.830	46.367	-6.717	-10.036	-1.574	204.445	86.635	-5.233	0.032	4.564	8.721	133.536	4.229	-8191	255	
1672.801	1	1	0	0	0.087096	0.023923	0.22733	0.10772	0.15705	0.22405	0.16141	0.042734	0.21188	0.09054	0.15671	0.16796	0.22177	0.07047	0.11794	0.27199	-1.6854	-2.4333	-2.4625	-2.2667	-2.6958	-2.1896	-2.35	-2.5354	-2.2104	-2.4667	-2.3917	-2.2646	-2.8583	-2.4188	-2.2625	-2.525	73.984	290.080	174.198	176.201	247.742	3.191	243.989	50.964	8.663	141.127	326.376	269.001	255.611	120.758	310.494	17.961	0.00015117	0.00038479	0.00011133	269	2.7744e-06	2.0127e-06	458.7	105.69	1.3748e-06	3.532e-06	178.11	72.934	35.093	16.32	1.8086e-06	36.696	0.00022824	0.00022429	5.8045e-05	257.26	2.2658e-06	2.2842e-06	435.78	102.42	2.4351e-06	2.2654e-06	170.9	71.111	34.472	16.01	2.2527e-06	35.761	197.308	20.370	40.982	-7.566	75.818	173.077	-9.732	-1.717	159.543	136.310	-6.247	0.135	3.962	8.900	215.361	3.815	-8191	255	
1672.895	1	1	0	0	0.266	0.071833	0.17353	0.12861	0.24998	0.18262	0.29395	0.020677	0.23741	0.16468	0.14315	0.082804	0.11842	0.26543	0.14966	0.097017	-1.8188	-2.4146	-2.5	-2.3312	-2.6937	-2.3625	-2.475	-2.6083	-2.3563	-2.5625	-2.4896	-2.0833	-2.5458	-2.1979	-2.2062	-2.4813	216.520	336.051	80.408	180.423	184.554	96.777	286.383	157.264	116.865	-19.159	270.978	204.748	239.094	299.576	273.904	233.643	0.00014273	0.00044691	8.5552e-05	265.75	1.302e-06	3.8269e-06	455.08	105.71	1.2463e-06	4.2056e-06	178.97	73.696	35.272	16.359	2.9787e-06	36.955	0.00022317	0.00021467	5.7656e-05	255.93	2.371e-06	2.3411e-06	435.43	102.15	2.3538e-06	2.2752e-06	171.16	71.155	34.47	15.98	2.3119e-06	35.45	209.655	57.801	55.032	-8.034	119.008	144.540	-10.134	-2.260	164.554	161.799	-5.422	0.344	4.905	9.194	69.818	4.229	-8191	255	
1672.991	1	1	0	0	0.23508	0.068816	0.12738	0.11649	0.094248	0.055208	0.32033	0.14463	0.031025	0.23259	0.18996	0.14556	0.21731	0.15043	0.13136	0.0818	-1.6667	-2.3021	-2.4729	-2.0083	-2.5687	-2.3708	-2.4083	-2.5563	-2.25	-2.4458	-2.7062	-2.175	-2.5708	-2.2167	-2.3646	-2.4938	77.772	173.982	260.734	309.073	339.722	10.723	283.270	301.208	-11.207	249.367	124.466	249.632	295.651	298.636	74.929	227.504	9.8445e-05	0.00030176	7.1578e-05	264.09	4.7439e-06	3.5618e-07	454.02	105.51	1.6995e-06	2.135e-06	178.03	73.359	35.331	16.088	4.1203e-06	35.97	0.00022304	0.00020989	5.9671e-05	255.07	2.3039e-06	2.2766e-06	430.83	101.82	2.2835e-06	2.2451e-06	169.31	70.471	34.422	15.77	2.3577e-06	35.078	206.628	123.032	80.892	-7.926	142.317	185.130	-10.539	-2.165	81.007	177.452	-5.728	0.175	4.433	8.942	134.746	3.997	-8191	255	
1673.088	1	1	0	0	0.11617	0.13055	0.18749	0.086478	0.1091	0.28655	0.1549	0.13411	0.18363	0.052693	0.11005	0.1788	0.052509	0.16584	0.24928	0.063699	-1.7917	-2.3021	-2.5521	-2.2917	-2.5438	-2.3312	-2.4	-2.7542	-2.3292	-2.3333	-2.6146	-2.1271	-2.3292	-2.425	-2.2	-2.5333	203.123	-3.551	143.559	-7.204	18.642	232.540	300.746	79.467	237.751	153.820	330.092	22.267	288.588	-5.274	178.752	179.262	0.00013036	0.00032389	6.2828e-05	264.18	1.7533e-06	2.3242e-06	451.05	104.53	1.7039e-06	1.9278e-06	177.77	72.641	34.771	16.144	1.1368e-06	36.493	0.0002175	0.00020579	6.0887e-05	253.99	2.1993e-06	2.2851e-06	430.85	101.63	2.3766e-06	2.1955e-06	169.9	70.351	34.216	15.855	2.4012e-06	35.157	217.567	100.753	131.026	-7.780	170.690	97.522	-10.058	-2.380	167.418	201.520	-5.751	-0.227	4.630	9.666	109.016	4.131	-8191	255	
1673.208	1	1	0	0	0.19062	0.17327	0.20295	0.11567	0.28026	0.086046	0.055787	0.14625	0.1866	0.25443	0.10919	0.30533	0.23019	0.13282	0.082641	0.14536	-2.0938	-2.2896	-2.7583	-2.1542	-2.4188	-2.5687	-2.3438	-2.5812	-2.2667	-2.1479	-2.5958	-2.2083	-2.4292	-2.5354	-2.0625	-2.5292	219.384	185.689	106.565	-9.418	145.707	95.629	212.702	281.374	5.883	223.400	232.647	-15.449	338.680	300.578	130.965	325.749	0.00016853	0.00014505	8.3792e-05	264.07	3.5646e-06	5.0548e-06	453.9	105.22	2.832e-06	1.679e-06	176.49	72.779	34.65	16.041	3.8119e-06	36.433	0.00022582	0.00020459	5.7141e-05	254.62	2.2063e-06	2.3026e-06	431.72	101.86	2.2895e-06	2.2465e-06	169.93	70.375	34.051	15.828	2.4275e-06	35.142	211.497	20.987	107.101	-8.033	160.947	137.653	-9.881	-1.965	128.154	104.902	-5.736	0.331	4.446	8.886	160.678	4.484	-8191	255	
1673.280	1	1	0	0	0.039508	0.17486	0.21446	0.22663	0.26622	0.14059	0.05109	0.20926	0.15181	0.36017	0.10251	0.10289	0.20067	0.17059	0.070745	0.10243	-1.8667	-2.1604	-2.5021	-2.1896	-2.4625	-2.5542	-2.1562	-2.6042	-2.4604	-2.275	-2.5458	-2.2479	-2.2729	-2.5438	-2.2479	-2.5125	272.296	167.010	46.175	303.855	132.592	-13.196	167.729	315.778	174.939	292.352	279.800	262.176	307.839	339.522	334.986	130.591	0.00014498	0.00033526	6.6461e-05	265.52	2.7667e-06	3.1397e-06	455.78	104.79	1.8174e-06	1.3953e-06	176.76	72.795	35.158	16.059	1.6598e-06	37.04	0.00021913	0.00021578	6.1239e-05	254.38	2.2902e-06	2.3279e-06	432.31	101.45	2.2792e-06	2.3641e-06	169.88	70.697	34.323	15.848	2.3956e-06	35.545	214.504	79.432	96.197	-7.962	161.384	158.996	-9.960	-1.842	214.482	155.733	-5.760	-0.562	4.188	8.713	122.519	3.839	-8191	255	
1673.376	1	1	0	0	0.38849	0.25699	0.15778	0.10798	0.23583	0.16045	0.12538	0.15826	0.066467	0.11358	0.12284	0.13818	0.033076	0.16569	0.18739	0.23492	-2.0563	-2.2271	-2.5396	-2.3688	-2.325	-2.5208	-2.3125	-2.5417	-2.375	-2.1667	-2.7625	-2.2083	-2.3708	-2.575	-2.1604	-2.6333	328.630	338.045	252.463	264.122	197.490	223.326	193.880	244.447	312.647	239.063	202.529	288.639	332.561	73.059	214.383	129.808	0.00012002	0.00025493	5.8304e-05	267.97	2.0945e-06	1.7974e-06	458.16	105.46	2.4168e-06	3.0943e-06	178.24	73.189	35.44	16.284	3.5121e-06	36.608	0.00020772	0.00022086	6.1885e-05	256.09	2.2372e-06	2.3418e-06	435.62	101.72	2.2969e-06	2.4237e-06	170.48	70.772	34.275	15.829	2.42e-06	35.442	206.656	61.273	118.114	-7.781	223.851	118.984	-10.169	-1.700	151.614	96.681	-5.495	0.495	5.224	9.014	202.706	3.799	-8191	255	
1673.472	1	1	0	0	0.10635	0.078455	0.28435	0.10615	0.38758	0.056238	0.258	0.18192	0.19375	0.18247	0.18012	0.18441	0.1228	0.26254	0.083652	0.087867	-2.1542	-2.25	-2.4729	-2.4333	-2.3521	-2.8083	-2.3229	-2.4792	-2.4958	-2.2062	-2.5979	-2.2521	-2.2812	-2.6312	-2.3312	-2.6104	106.109	138.217	159.807	280.706	309.207	227.503	239.993	309.656	153.202	61.655	302.267	314.088	161.399	265.433	244.108	234.089	0.0001335	0.00027044	9.5667e-05	265.85	1.3343e-06	2.6627e-06	452.4	105.83	3.3392e-06	3.0842e-06	178.26	73.874	34.623	15.969	2.4936e-06	36.103	0.0002212	0.00021585	5.8325e-05	255.82	2.2976e-06	2.4181e-06	434.23	101.63	2.2756e-06	2.4107e-06	170.31	71.001	34.127	15.767	2.3657e-06	35.261	212.323	39.250	69.570	-7.796	160.623	128.380	-10.535	-2.621	120.715	180.828	-5.895	-0.473	4.575	8.679	133.166	4.421	-8191	255	
1673.568	1	1	0	0	0.14705	0.1277	0.21858	0.022501	0.0058542	0.13912	0.086223	0.22616	0.13955	0.083541	0.14761	0.09623	0.11618	0.14144	0.21181	0.16896	-2.0896	-1.9833	-2.5167	-2.3396	-2.2458	-2.6271	-2.3271	-2.4417	-2.6104	-2.2083	-2.3937	-2.5875	-2.1542	-2.5583	-2.4396	-2.2958	153.215	295.589	214.910	17.534	-15.289	201.214	130.612	49.706	99.156	270.802	130.666	44.602	58.265	239.595	166.124	246.829	0.00015548	0.00041676	0.00011339	263.5	3.1664e-06	2.3224e-06	455.06	104.12	1.905e-06	2.6546e-06	175.39	72.431	34.818	16.115	2.2734e-06	36.319	0.00022271	0.00023452	6.025e-05	254.72	2.2651e-06	2.4272e-06	434.57	100.94	2.384e-06	2.4561e-06	168.77	70.451	34.015	15.676	2.4658e-06	35.13	220.584	88.544	79.097	-8.661	164.064	90.880	-10.355	-1.984	174.679	112.538	-5.849	0.081	5.104	8.866	169.125	3.833	-8191	255	
1673.687	1	1	0	0	0.14528	0.0415	0.183	0.1725	0.051581	0.1867	0.26944	0.22527	0.070774	0.026209	0.09783	0.10659	0.30524	0.3134	0.26361	0.11561	-1.9917	-2.0312	-2.4083	-2.4062	-2.0667	-2.3625	-2.3625	-2.3292	-2.575	-2.2208	-2.5187	-2.4125	-2.0458	-2.6333	-2.2979	-2.3083	335.070	290.600	320.700	-11.476	111.652	140.411	268.891	318.096	174.506	303.705	1.546	306.552	73.636	21.463	4.382	302.878	0.00012822	2.3672e-05	3.0525e-05	265.33	3.0863e-06	2.2784e-06	462.58	105.36	3.1615e-06	2.9852e-06	178.75	73.587	34.996	16.145	5.9697e-07	36.817	0.0002254	0.00022864	5.8799e-05	254.33	2.3918e-06	2.3589e-06	436.8	101.56	2.3146e-06	2.5187e-06	170.06	70.75	34.221	15.727	2.3825e-06	35.276	207.577	25.030	103.931	-7.936	142.727	181.880	-10.072	-2.018	121.028	74.190	-5.230	-0.168	4.643	9.000	195.336	4.189	-8191	255	
1673.783	1	1	0	0	0.083705	0.1322	0.24113	0.1088	0.12599	0.11566	0.27735	0.2066	0.06887	0.11922	0.14942	0.26582	0.10172	0.093511	0.24696	0.22862	-2	-2.0792	-2.3979	-2.4521	-2.1854	-2.6458	-2.45	-2.3125	-2.5958	-2.2812	-2.3187	-2.5604	-2.0042	-2.6021	-2.4437	-2.1	159.718	245.029	243.684	305.126	284.955	-12.020	-7.971	236.404	244.620	256.089	326.103	172.256	190.757	314.968	7.632	329.832	0.00015363	0.00036098	7.5007e-05	270.26	2.8265e-06	4.5625e-06	463.41	106.84	1.0041e-06	4.4122e-06	180.03	74.668	35.065	16.165	3.2217e-06	36.886	0.00023139	0.00022715	6.0778e-05	255.98	2.4302e-06	2.3965e-06	437.57	102.46	2.4397e-06	2.4579e-06	171.07	71.386	34.128	15.709	2.3835e-06	35.373	220.619	75.245	91.759	-7.899	168.669	146.634	-10.323	-1.816	181.589	126.826	-5.380	0.215	4.943	9.183	121.601	4.571	-8191	255	
1673.881	1	1	0	0	0.30697	0.2101	0.13384	0.2585	0.033364	0.11873	0.24941	0.16269	0.1979	0.17645	0.12923	0.086039	0.24041	0.3826	0.084997	0.30958	-2.2875	-2.3271	-2.2208	-2.5771	-2.1229	-2.7146	-2.4562	-2.1813	-2.5917	-2.3917	-2.4813	-2.6521	-1.9625	-2.3625	-2.6417	-2.1396	36.815	217.500	292.249	333.573	128.734	163.561	-10.145	317.168	178.411	249.388	244.832	306.260	191.512	264.685	119.311	231.923	0.00013076	0.00029615	0.00010853	269.31	1.9653e-06	1.268e-06	460.84	107.6	3.1753e-06	2.7274e-06	180.47	73.36	35.157	16.083	1.8847e-06	36.837	0.00022316	0.0002263	6.1822e-05	255.26	2.4001e-06	2.3447e-06	435.43	102.39	2.3938e-06	2.3779e-06	171.06	70.68	34.15	15.649	2.4033e-06	35.12	212.925	40.962	112.524	-7.582	137.481	160.695	-10.113	-1.976	144.505	122.923	-5.521	0.783	5.089	9.139	182.327	4.555	-8191	255	
1673.976	1	1	0	0	0.30472	0.076741	0.28002	0.14771	0.18941	0.036682	0.095708	0.17164	0.082012	0.18592	0.18728	0.22489	0.19759	0.12995	0.12781	0.1847	-2.175	-2.375	-2.1375	-2.6188	-2.2708	-2.4917	-2.5521	-2.2542	-2.5917	-2.3917	-2.1229	-2.5396	-2.0125	-2.3479	-2.5479	-2.2375	20.318	51.454	212.786	121.430	85.596	132.410	250.856	128.054	35.055	124.327	37.266	287.586	318.359	38.932	302.516	330.098	0.00014652	0.00052255	7.9452e-05	269.09	1.763e-06	1.827e-06	456.87	105.76	1.9715e-06	1.9381e-06	179.31	74.007	35.288	16.07	1.1643e-06	36.616	0.00022321	0.00021733	6.0177e-05	254.95	2.4369e-06	2.2124e-06	434.47	102.06	2.3051e-06	2.3155e-06	171.07	70.659	34.185	15.61	2.3818e-06	34.985	215.839	74.929	112.997	-7.767	81.012	40.259	-10.029	-1.539	165.613	45.603	-5.132	-0.146	4.951	9.202	172.642	4.286	-8191	255	
1674.072	1	1	0	0	0.2658	0.30137	0.10479	0.19335	0.11173	0.3108	0.12602	0.16224	0.075852	0.14328	0.341	0.094217	0.1253	0.094845	0.34559	0.20925	-2.0396	-2.5438	-2.2021	-2.8021	-2.1979	-2.4333	-2.4188	-2.1917	-2.6542	-2.5687	-2.2083	-2.7271	-2.175	-2.45	-2.675	-2.1229	122.869	68.372	100.214	2.912	261.661	52.610	-1.043	0.860	173.291	188.321	226.174	316.671	277.272	14.234	105.274	253.062	0.00012724	0.0003693	0.0001003	267.38	3.0229e-06	1.1577e-06	464.39	107.78	1.42e-06	4.682e-06	180.65	73.41	35.022	16.132	2.6692e-06	36.502	0.00022197	0.00021945	5.9807e-05	254.37	2.2835e-06	2.4445e-06	435.94	102.58	2.3242e-06	2.3595e-06	171.32	70.456	34.023	15.613	2.332e-06	35.098	189.309	86.308	84.186	-7.568	114.834	57.482	-9.549	-1.920	183.946	104.878	-5.183	0.350	4.713	9.111	181.869	4.487	-8191	255	
1674.168	1	1	0	0	0.037766	0.15685	0.31581	0.08077	0.086139	0.27346	0.12071	0.13158	0.066858	0.065557	0.15682	0.12809	0.2596	0.12498	0.07257	0.33083	-2.1542	-2.5	-2.1104	-2.5812	-2.4625	-2.4396	-2.7021	-2.1708	-2.5521	-2.5938	-2.1333	-2.6646	-2.2167	-2.2646	-2.6021	-2.2479	223.825	53.847	2.637	305.062	266.221	52.442	190.043	195.837	153.232	117.558	281.867	337.489	-4.986	338.902	76.912	335.813	0.00013916	0.00036447	0.0001462	268.81	2.2928e-06	3.246e-06	461.5	106.6	1.4003e-06	3.7169e-06	180.23	73.696	35.243	16.095	2.7392e-06	36.706	0.00022815	0.00022707	6.2423e-05	255.58	2.3159e-06	2.4366e-06	436.65	102.36	2.4685e-06	2.4162e-06	171.51	70.577	34.084	15.667	2.4609e-06	35.161	214.835	59.596	78.294	-7.679	198.023	124.483	-10.059	-1.300	194.494	109.866	-5.239	0.649	4.330	8.984	126.602	4.404	-8191	255	
1674.289	1	1	0	0	0.14965	0.092838	0.20991	0.037395	0.27629	0.077464	0.22624	0.19672	0.044765	0.087995	0.23841	0.2308	0.17221	0.229	0.29363	0.29422	-2.2	-2.4875	-2.1271	-2.8375	-2.4875	-2.2313	-2.7562	-2.1833	-2.4979	-2.6417	-2.2583	-2.6833	-2.2438	-2.225	-2.6042	-2.3146	43.795	154.497	333.879	314.111	99.950	336.536	208.168	238.001	113.732	5.016	247.681	277.610	339.112	193.132	294.495	190.424	0.00014352	9.7879e-05	5.8502e-05	268.15	2.6607e-06	5.3846e-06	458.66	106.76	1.3697e-06	3.1124e-06	179.05	73.251	35.048	16.072	5.7092e-07	36.195	0.0002123	0.00021784	6.3087e-05	254.9	2.3964e-06	2.486e-06	434.46	102.28	2.3377e-06	2.4383e-06	170.6	70.331	33.723	15.557	2.4833e-06	34.736	218.864	140.983	49.014	-7.951	157.147	137.017	-9.899	-1.081	170.710	117.893	-5.495	0.082	5.166	9.861	145.622	4.617	-8191	255	
1674.385	1	1	0	0	0.11843	0.46044	0.18099	0.14179	0.17022	0.067344	0.20054	0.31789	0.1769	0.12624	0.25516	0.23071	0.17751	0.067035	0.12886	0.1477	-1.9312	-2.5292	-2.1063	-2.4583	-2.4458	-2.2104	-2.6229	-2.3	-2.3021	-2.5646	-2.0792	-2.5687	-2.5646	-2.0958	-2.6667	-2.2833	30.864	-0.452	262.954	228.634	166.424	286.138	-10.391	294.427	15.658	124.523	271.750	224.848	241.579	94.640	83.092	210.167	0.00014094	0.0005034	4.8148e-05	270.12	8.8197e-07	7.2637e-07	460.38	107.27	1.4441e-06	3.7454e-06	178.53	73.448	35.142	16.172	3.4347e-06	36.661	0.00022633	0.00022991	6.2599e-05	255.3	2.3781e-06	2.5254e-06	435.85	102.63	2.4636e-06	2.4904e-06	170.8	70.7	34.139	15.626	2.3717e-06	35.034	201.993	49.278	59.443	-7.593	113.332	151.809	-9.985	-1.593	190.127	85.223	-5.108	0.119	4.388	9.037	177.679	4.284	-8191	255	
1674.481	1	1	0	0	0.064856	0.12022	0.29977	0.41314	0.10376	0.19242	0.29376	0.1227	0.21102	0.07983	0.14376	0.24909	0.011837	0.18451	0.16046	0.37344	-1.7938	-2.7354	-2.1354	-2.4708	-2.4146	-2.1229	-2.5792	-2.4042	-2.1604	-2.6667	-2.2583	-2.4354	-2.4437	-2.1958	-2.5979	-2.3083	225.879	13.265	199.198	299.113	176.073	121.955	298.819	-14.186	334.922	55.572	294.817	329.342	71.551	326.320	-2.396	-17.145	0.0001141	7.4306e-05	8.952e-05	269.29	1.9371e-06	3.5235e-06	463.92	108.26	4.325e-07	2.5226e-06	182.13	75.383	35.261	16.29	1.9185e-06	37.029	0.00021197	0.00023453	6.4524e-05	256.04	2.3274e-06	2.4557e-06	438.83	103.6	2.4701e-06	2.2524e-06	173.47	71.634	34.313	15.801	2.5599e-06	35.279	216.230	115.376	40.762	-6.754	260.417	158.717	-9.910	-2.181	154.335	191.627	-5.491	0.052	5.210	9.237	34.329	4.298	-8191	255	
1674.577	1	1	0	0	0.20676	0.15292	0.19092	0.3047	0.12376	0.34133	0.15434	0.15993	0.34772	0.034303	0.13759	0.15185	0.31794	0.10433	0.10812	0.25979	-1.8042	-2.6792	-2.3167	-2.3896	-2.5563	-2.1396	-2.5312	-2.6	-2.3333	-2.5958	-2.1354	-2.5042	-2.4875	-2.3146	-2.6146	-2.6188	-12.949	53.243	172.292	266.387	181.396	272.978	-5.831	91.586	8.904	97.853	8.520	237.857	206.299	128.510	79.726	319.587	0.00014826	0.00038817	2.8054e-05	274.03	5.0166e-06	3.5466e-06	469.4	109.82	1.8153e-06	1.7557e-06	183.93	75.378	35.738	16.333	5.0682e-06	37.278	0.00023154	0.00023126	6.2726e-05	258.14	2.3861e-06	2.4701e-06	441.63	104.72	2.378e-06	2.3905e-06	174.85	71.957	34.779	15.942	2.4665e-06	35.679	205.943	39.676	36.558	-7.962	182.684	184.112	-9.851	-1.792	217.647	97.740	-4.963	0.102	4.822	9.229	115.306	4.462	-8191	255	
1674.673	1	1	0	0	0.23875	0.14327	0.056753	0.13637	0.12818	0.25533	0.14165	0.11364	0.2735	0.15502	0.14595	0.21641	0.21687	0.19707	0.082642	0.19189	-1.7625	-2.5646	-2.2208	-2.2938	-2.4604	-2.1646	-2.5125	-2.4437	-2.3417	-2.6833	-2.2958	-2.3563	-2.6646	-2.1292	-2.3729	-2.4083	324.804	18.812	143.093	22.948	15.570	77.879	-10.276	242.325	135.013	250.710	10.119	277.499	21.118	297.505	76.542	297.251	0.00012479	0.00054827	0.00012069	273.74	1.7828e-06	2.8054e-06	470.8	109.49	2.5736e-06	1.3496e-06	185.83	75.536	35.905	16.602	1.5415e-06	37.284	0.00023251	0.00022859	6.2071e-05	258.95	2.3824e-06	2.432e-06	443.35	104.75	2.5267e-06	2.4392e-06	176.31	72.41	34.737	16.046	2.2852e-06	35.814	218.715	56.828	60.942	-7.588	173.059	147.745	-9.670	-1.584	161.059	340.000	-5.454	0.279	4.867	9.279	111.167	4.759	-8191	255	
1674.769	1	1	0	0	0.10064	0.11092	0.19741	0.19392	0.12321	0.3837	0.28143	0.1542	0.21595	0.16075	0.1612	0.22288	0.14318	0.16116	0.33263	0.057151	-1.5021	-2.5354	-2.2021	-2.4167	-2.6333	-2.3667	-2.3479	-2.5604	-2.2562	-2.4083	-2.3812	-2.1417	-2.7271	-2.1208	-2.4667	-2.5208	245.764	119.351	305.229	44.244	239.714	225.679	-4.693	40.382	84.228	67.349	61.895	23.377	14.646	295.934	304.691	299.606	0.00011824	8.5201e-05	8.4724e-05	274.27	3.577e-06	3.2756e-06	470.18	108.53	2.8303e-06	4.3133e-06	184.5	74.987	35.572	16.467	2.0268e-06	37.15	0.00022083	0.0002152	5.9685e-05	260.01	2.3322e-06	2.4347e-06	441.91	103.78	2.4678e-06	2.3654e-06	174.19	71.69	34.52	15.973	2.4345e-06	35.61	211.334	118.958	43.655	-7.455	101.835	72.273	-9.861	-1.828	181.884	132.568	-5.037	-0.029	5.359	9.265	150.686	4.754	-8191	255	
1674.864	1	1	0	0	0.19827	0.12433	0.087142	0.3113	0.061609	0.083095	0.36357	0.16796	0.17151	0.068056	0.11996	0.26022	0.085487	0.071962	0.315	0.30343	-1.6021	-2.5292	-2.3333	-2.3167	-2.4667	-2.4062	-2.275	-2.5667	-2.1979	-2.6604	-2.5167	-2.3646	-2.5333	-2.3854	-2.4292	-2.5583	105.171	168.513	304.775	275.832	246.658	32.162	278.215	-5.411	291.608	223.887	265.670	290.006	-7.976	37.425	-4.706	266.483	0.00013141	0.00034514	8.1016e-05	273.57	1.2646e-06	1.7859e-06	467.88	108.1	2.3313e-06	5.7044e-07	182.8	74.76	35.373	16.326	3.1736e-06	37.377	0.00022754	0.00021259	6.0037e-05	259.08	2.393e-06	2.4637e-06	441.61	102.92	2.4586e-06	2.4171e-06	173.01	71.594	34.389	15.885	2.3683e-06	35.631	199.114	65.555	64.039	-7.673	184.082	151.205	-10.141	-1.391	188.137	132.753	-5.717	0.105	4.717	9.281	127.124	4.396	-8191	255	
1674.984	1	1	0	0	0.11049	0.28668	0.13276	0.1837	0.082246	0.092694	0.10705	0.13129	0.24318	0.12289	0.047656	0.085797	0.48891	0.16245	0.081765	0.20609	-1.6875	-2.2917	-2.4688	-2.1417	-2.5729	-2.3396	-2.3833	-2.6729	-2.0896	-2.5687	-2.5917	-2.4354	-2.7083	-2.3792	-2.3521	-2.8167	150.528	25.195	93.620	206.723	115.991	129.911	267.799	187.029	-15.107	10.843	269.136	260.424	337.668	297.526	108.343	284.079	0.00013472	0.00012704	5.8055e-05	274.38	3.5851e-06	3.1609e-06	464.31	108.09	1.5001e-06	3.2964e-06	181.73	75.083	35.804	16.371	1.9337e-06	37.233	0.00021296	0.00020911	5.9441e-05	258.97	2.2874e-06	2.3842e-06	441.37	102.85	2.4001e-06	2.2247e-06	172.06	71.669	34.57	16.01	2.3535e-06	35.735	213.059	45.063	123.813	-7.825	154.879	181.268	-9.724	-1.771	167.542	115.675	-5.323	0.356	4.483	9.366	98.678	4.746	-8191	255	
1675.080	1	1	0	0	0.15454	0.1473	0.16282	0.19984	0.12515	0.19794	0.15315	0.15012	0.18379	0.11704	0.16891	0.23451	0.20242	0.11431	0.1387	0.019845	-1.7	-2.3438	-2.4854	-2.0792	-2.6813	-2.45	-2.1833	-2.5292	-2.3146	-2.3417	-2.5667	-2.2625	-2.5542	-2.4604	-2.2854	-2.4667	167.759	29.001	180.739	329.807	216.994	300.544	-0.186	254.731	64.921	168.126	109.050	102.549	340.254	251.187	7.198	169.375	0.00014657	0.00026334	0.00010457	273.74	3.1186e-06	5.4172e-06	471.96	107.77	2.8409e-06	4.4161e-06	183.92	75.16	35.82	16.596	4.0875e-06	37.437	0.00021837	0.00021066	5.6694e-05	258.27	2.377e-06	2.303e-06	442.34	103.17	2.2484e-06	2.339e-06	173.86	72.049	34.575	16.107	2.4125e-06	35.902	202.551	68.124	67.453	-7.124	182.305	122.202	-9.732	-1.566	195.484	124.407	-5.887	0.094	5.225	9.160	147.584	4.364	-8191	255	
1675.152	1	1	0	0	0.085403	0.3137	0.16749	0.13654	0.09197	0.24121	0.019557	0.014979	0.19862	0.14081	0.20178	0.14497	0.11827	0.025031	0.28464	0.13207	-1.7729	-2.1312	-2.5354	-2.3292	-2.6437	-2.3604	-2.2938	-2.6937	-2.3375	-2.3396	-2.7333	-2.3604	-2.4375	-2.6229	-2.2896	-2.8104	-12.212	183.225	10.745	260.620	152.870	137.546	166.094	313.440	174.964	241.561	235.464	11.981	137.659	-17.876	62.768	30.467	0.00013464	0.00038788	5.586e-05	273.61	4.2502e-06	2.2039e-06	476.62	109.07	2.4355e-06	2.4696e-06	183.5	75.206	35.758	16.586	2.1257e-06	37.262	0.00022424	0.00021422	6.2757e-05	258.76	2.3239e-06	2.3441e-06	446.97	104.06	2.2491e-06	2.3369e-06	174.51	72.259	34.645	16.108	2.3379e-06	35.894	219.743	88.364	156.171	-7.126	144.968	80.148	-9.784	-1.111	136.153	164.524	-5.134	0.647	4.732	9.150	144.661	4.692	-8191	255	
1675.248	1	1	0	0	0.16372	0.36146	0.16033	0.23018	0.10118	0.027784	0.26444	0.11757	0.20865	0.14405	0.18249	0.091677	0.067872	0.20898	0.15494	0.095899	-2.0792	-2.1542	-2.5938	-2.0938	-2.4479	-2.5979	-2.2146	-2.6188	-2.4938	-2.1688	-2.6188	-2.2	-2.3667	-2.3875	-2.2771	-2.6188	188.777	118.415	26.796	290.342	176.995	240.180	14.148	52.314	242.795	99.846	252.363	88.146	193.429	212.263	313.155	11.679	0.00018531	0.00030303	0.00012467	269.35	2.014e-06	3.2886e-06	467.73	110.26	1.5193e-06	1.5626e-06	183.35	75.31	35.546	16.712	5.2971e-06	37.22	0.00022363	0.00021253	6.0656e-05	257.99	2.2074e-06	2.3058e-06	443.72	104.14	2.2415e-06	2.2814e-06	174.31	72.299	34.336	16.122	2.4813e-06	35.754	197.942	53.134	77.736	-7.617	113.384	116.680	-9.692	-1.864	154.340	88.335	-5.417	0.557	4.645	9.358	121.498	4.702	-8191	255	
1675.369	1	1	0	0	0.10718	0.15486	0.26444	0.18914	0.18106	0.14282	0.1311	0.11429	0.14131	0.04341	0.164	0.16762	0.22634	0.31365	0.17311	0.19382	-1.9458	-2.2313	-2.6375	-2.2792	-2.5438	-2.5187	-2.0854	-2.4667	-2.5021	-2.3187	-2.625	-2.2083	-2.4021	-2.5208	-2.05	-2.4396	99.821	110.476	263.066	263.296	35.409	-15.823	10.690	119.757	39.208	246.497	-4.053	-12.431	246.105	197.851	113.029	226.822	0.00012316	0.00014638	6.5988e-05	271.09	5.0525e-06	3.0898e-06	473.57	108.95	2.3746e-06	2.1749e-06	182.97	75.385	35.892	16.499	3.2611e-06	37.213	0.00021914	0.00021963	5.9043e-05	257.52	2.2614e-06	2.2532e-06	443.85	103.86	2.2506e-06	2.4264e-06	174.25	72.029	34.458	16.003	2.5112e-06	35.785	211.334	69.166	83.789	-7.635	99.844	132.188	-9.501	-2.077	170.359	160.631	-5.360	0.081	5.434	9.464	150.798	4.637	-8191	255	
1675.465	1	1	0	0	0.29642	0.20721	0.21086	0.14494	0.13716	0.082515	0.23747	0.14964	0.14181	0.12314	0.2888	0.22961	0.25179	0.19584	0.15623	0.17971	-1.975	-2.2833	-2.5208	-2.3042	-2.2646	-2.5417	-2.3937	-2.4938	-2.3625	-2.1875	-2.7854	-2.3708	-2.4396	-2.5229	-2.0979	-2.4167	274.362	317.279	127.359	332.531	34.637	318.344	185.270	176.560	-12.918	317.176	93.436	0.803	91.821	311.255	82.948	301.574	0.00016047	3.4813e-05	8.4554e-05	270.69	3.5206e-06	8.712e-07	467.49	106.89	1.7027e-06	2.5804e-06	184.27	75.235	35.038	16.452	2.476e-06	37.376	0.00021796	0.00022029	6.1424e-05	257.72	2.3051e-06	2.2598e-06	443.23	102.99	2.2911e-06	2.4426e-06	174.28	71.888	34.144	15.955	2.4494e-06	35.641	199.756	70.014	102.261	-7.451	126.764	155.963	-9.737	-1.066	116.891	98.690	-5.098	0.804	5.043	9.137	168.895	4.618	-8191	255	
1675.561	1	1	0	0	0.067378	0.025179	0.064323	0.14989	0.075486	0.013699	0.14687	0.21939	0.19419	0.11469	0.1629	0.1015	0.33113	0.0073904	0.067712	0.22132	-1.7979	-2.1875	-2.4167	-2.1042	-2.2854	-2.5896	-2.3333	-2.2979	-2.4396	-2.1437	-2.5854	-2.2542	-2.2146	-2.5521	-2.2229	-2.3875	298.617	94.491	310.442	240.216	318.592	193.728	285.493	22.240	326.203	-15.546	105.020	297.397	17.076	-14.022	143.452	249.468	0.00011761	0.00045394	9.3742e-05	271.8	8.6588e-07	3.226e-06	472.6	107.4	1.2249e-06	3.7187e-06	182.56	75.534	35.149	16.34	4.71e-06	37.061	0.00021625	0.00023593	6.2053e-05	257.38	2.3172e-06	2.384e-06	444.62	102.47	2.337e-06	2.5925e-06	172.79	71.495	34.079	15.875	2.5035e-06	35.606	206.046	61.098	59.921	-7.810	136.448	134.584	-10.061	-1.495	98.769	104.002	-5.517	0.354	5.003	9.530	146.561	4.236	-8191	255	
1675.682	1	1	0	0	0.12099	0.077102	0.21963	0.18618	0.084842	0.056633	0.16189	0.1916	0.29185	0.10134	0.20247	0.16704	0.2688	0.11191	0.13064	0.032116	-2.15	-1.9646	-2.2979	-2.4521	-2.1646	-2.5104	-2.1979	-2.3812	-2.5729	-2.1354	-2.5333	-2.3375	-2.2708	-2.6958	-2.4083	-2.4667	-4.795	273.493	130.647	64.239	-1.636	202.989	14.141	225.459	171.027	64.633	257.280	64.759	324.055	243.604	204.836	302.151	0.0001604	0.00011581	2.9028e-05	272.57	4.2999e-06	1.7996e-06	471.39	107.48	1.2186e-06	1.398e-06	182.95	73.508	34.865	16.126	4.9347e-06	36.724	0.00022046	0.00022029	6.0204e-05	257.61	2.4057e-06	2.3725e-06	445.36	102.54	2.3125e-06	2.5275e-06	172.59	71.067	33.763	15.712	2.4268e-06	35.249	220.591	313.642	149.400	-7.628	153.214	148.801	-10.289	-1.596	126.695	111.622	-5.366	0.678	4.827	9.533	140.135	4.257	-8191	255	
1675.776	1	1	0	0	0.14392	0.086987	0.15143	0.26169	0.14091	0.3018	0.064712	0.38924	0.075802	0.12027	0.32949	0.11519	0.10389	0.19753	0.18994	0.26835	-2.1875	-2.1437	-2.4437	-2.2896	-2.1042	-2.6021	-2.3479	-2.2875	-2.5854	-2.3125	-2.4208	-2.4396	-2.1771	-2.4667	-2.2542	-2.3021	-14.411	140.894	292.413	200.201	56.715	266.788	173.024	300.692	60.388	293.320	2.562	128.257	288.152	234.519	267.763	236.403	0.00012834	0.00012168	8.0709e-05	272.22	3.1146e-06	1.8061e-06	468.1	106.85	5.9981e-07	3.9787e-06	180.64	73.988	34.94	16.056	2.9757e-06	36.651	0.00022333	0.00022406	6.1664e-05	256.58	2.3924e-06	2.4165e-06	442.78	102.1	2.3902e-06	2.4019e-06	171.64	70.877	33.737	15.657	2.3205e-06	35.098	202.065	168.019	88.429	-7.360	113.479	184.889	-10.140	-0.808	236.419	161.429	-4.910	0.341	5.132	9.674	95.214	4.676	-8191	255	
1675.850	1	1	0	0	0.24167	0.26604	0.095553	0.35082	0.24213	0.23682	0.21069	0.10627	0.12801	0.15704	0.19055	0.098391	0.13103	0.11022	0.060476	0.13852	-2.2271	-2.1312	-2.4333	-2.4688	-2.0854	-2.6292	-2.3187	-2.2292	-2.4479	-2.2458	-2.4813	-2.5271	-2.225	-2.5917	-2.4333	-2.4458	334.949	199.926	161.162	232.973	302.610	225.158	287.340	229.379	301.547	69.626	210.246	253.038	109.043	202.753	13.792	327.423	0.00015393	0.00027929	0.0001348	268.07	3.5187e-06	8.5584e-07	466.34	106.65	2.3834e-06	2.9762e-07	180.99	74.195	34.8	16.155	1.4807e-06	36.767	0.00022993	0.00021536	5.8618e-05	254.71	2.3356e-06	2.4024e-06	441.77	102.01	2.3775e-06	2.2139e-06	171.65	70.894	33.839	15.661	2.3448e-06	35.202	195.978	17.534	66.037	-7.201	164.720	207.038	-10.062	-1.714	142.853	328.247	-5.480	0.148	4.887	9.313	103.511	4.688	-8191	255	
1675.969	1	1	0	0	0.15001	0.13576	0.09521	0.29643	0.24855	0.10162	0.22309	0.20328	0.05681	0.080195	0.22218	0.35029	0.066895	0.087613	0.32847	0.10473	-1.9854	-2.2083	-2.325	-2.4458	-2.0896	-2.65	-2.3667	-2.0729	-2.6958	-2.1292	-2.2354	-2.4958	-2.1458	-2.6437	-2.5167	-2.1833	133.098	213.218	272.857	301.101	144.924	79.069	-14.876	81.168	231.637	67.865	133.412	333.288	5.342	279.208	131.975	318.198	0.00014288	0.00021302	5.5978e-05	269.49	4.1924e-06	3.9729e-06	468.19	106.04	1.5473e-06	3.5669e-06	180.82	74.454	35.03	16.1	2.6845e-06	36.485	0.00022656	0.00021274	5.9694e-05	255.14	2.2508e-06	2.3161e-06	443.25	102.25	2.3677e-06	2.4025e-06	171.78	71.151	33.836	15.619	2.2871e-06	35.139	194.290	91.929	38.871	-7.888	100.068	147.111	-9.959	-1.978	82.537	89.118	-4.654	0.472	4.436	9.301	157.682	4.329	-8191	255	
1676.065	1	1	0	0	0.35091	0.14828	0.13241	0.11663	0.27767	0.31864	0.13569	0.27127	0.2415	0.17247	0.25337	0.16266	0.026244	0.29033	0.30491	0.13747	-2.2542	-2.375	-2.3125	-2.625	-2.1688	-2.5479	-2.5625	-2.1708	-2.6208	-2.2958	-2.3354	-2.6396	-2.3812	-2.3417	-2.5979	-2.3396	90.478	37.270	139.222	104.890	95.785	129.233	131.657	87.415	88.920	27.225	63.189	305.329	178.632	92.707	201.585	103.645	0.00015464	0.00062892	4.5942e-05	269.44	3.0197e-06	4.7434e-06	466.82	106.37	1.5506e-06	3.2771e-06	178.27	73.589	34.302	15.896	5.215e-06	36.323	0.00022661	0.00022139	6.0028e-05	256.37	2.2708e-06	2.371e-06	443.14	102.11	2.3161e-06	2.2704e-06	171.41	70.934	33.546	15.569	2.394e-06	34.955	201.801	63.359	22.907	-7.445	118.400	122.634	-9.883	-1.878	114.184	126.719	-5.906	0.407	4.471	9.035	140.927	3.979	-8191	255	
1676.161	1	1	0	0	0.10635	0.22838	0.20268	0.15292	0.16925	0.22493	0.28227	0.18681	0.23882	0.15832	0.14306	0.25835	0.23387	0.21936	0.14352	0.14345	-2.0396	-2.3812	-2.5875	-2.625	-2.1625	-2.3771	-2.4688	-2.1604	-2.4771	-2.5917	-2.1292	-2.6354	-2.2958	-2.2604	-2.6896	-2.3104	197.678	177.273	167.675	7.541	194.842	311.613	20.325	220.441	247.209	147.858	186.581	310.629	67.111	-0.749	278.410	286.154	0.00014369	0.00028885	9.2747e-05	262.95	3.3453e-06	3.6379e-06	464.47	105.63	4.4394e-06	3.8089e-06	180.3	73.689	34.297	15.936	2.9207e-06	36.053	0.00021863	0.00021109	6.2879e-05	253.77	2.2668e-06	2.2169e-06	440.4	101.54	2.2122e-06	2.2907e-06	171.36	70.645	33.448	15.53	2.3802e-06	34.833	207.997	85.105	60.191	-8.034	151.338	93.452	-10.104	-2.098	177.604	128.755	-5.171	0.533	4.725	9.300	144.460	3.679	-8191	255	
1676.281	1	1	0	0	0.05294	0.21704	0.18749	0.2418	0.20924	0.16163	0.17361	0.12055	0.062606	0.070483	0.10037	0.29769	0.086473	0.19999	0.2797	0.14228	-2.1021	-2.3521	-2.2125	-2.4833	-2.1937	-2.2583	-2.6604	-2.1375	-2.4688	-2.5958	-2.2458	-2.6229	-2.4667	-2.2438	-2.575	-2.0438	328.403	2.876	297.605	276.542	157.952	181.100	328.818	331.035	143.002	253.276	255.365	158.360	300.779	231.720	61.043	40.334	0.00016952	0.00023061	8.2699e-05	264.75	1.1834e-06	2.1457e-06	466.06	105.72	3.4081e-06	1.3019e-06	178.55	72.234	33.948	15.763	3.6154e-06	35.73	0.00022294	0.00020391	6.2193e-05	253.22	2.3349e-06	2.3935e-06	440.31	101.45	2.349e-06	2.2716e-06	170.2	69.762	33.094	15.369	2.3839e-06	34.428	215.868	61.765	76.086	-8.033	273.250	151.804	-10.139	-1.632	135.954	37.743	-5.199	0.354	5.046	9.207	133.052	4.333	-8191	255	
1676.378	1	1	0	0	0.047753	0.24948	0.11013	0.1268	0.14778	0.17381	0.22807	0.11549	0.063314	0.23306	0.16371	0.23263	0.063582	0.12099	0.23603	0.33128	-2.0312	-2.4375	-1.9312	-2.675	-2.2083	-2.2313	-2.7938	-2.1917	-2.5875	-2.4708	-2.0771	-2.625	-2.3646	-2.3125	-2.6229	-2.35	296.116	165.081	129.424	298.034	41.204	308.246	281.590	108.233	325.426	302.219	37.357	244.939	190.278	95.277	255.714	290.589	0.00010157	0.00033964	0.00011808	267.55	1.7598e-06	6.9163e-07	467.17	106.2	2.0787e-06	8.2113e-07	178.73	74.187	34.539	16.01	9.0594e-07	36.316	0.0002197	0.0002031	6.081e-05	253.75	2.3312e-06	2.3211e-06	440.37	101.81	2.2233e-06	2.346e-06	171.52	70.654	33.4	15.593	2.3851e-06	34.927	199.544	56.151	129.554	-7.420	161.851	138.522	-9.868	-2.246	195.944	175.969	-5.575	-0.035	3.988	9.146	129.471	4.092	-8191	255	
1676.449	1	1	0	0	0.10449	0.090563	0.27643	0.25918	0.11337	0.1818	0.16329	0.22105	0.11462	0.18543	0.16665	0.13016	0.034872	0.14253	0.068538	0.16581	-2.05	-2.4729	-2.2042	-2.5229	-2.4917	-2.3042	-2.7	-2.3021	-2.3917	-2.7062	-2.2292	-2.6417	-2.5021	-2.0687	-2.5479	-2.4813	241.982	327.303	82.444	33.463	148.191	186.907	17.998	113.702	31.800	291.908	242.178	159.151	94.922	333.242	195.203	180.862	0.00015851	0.00055347	7.9434e-05	267.97	3.1332e-06	2.8568e-06	466.3	106.57	5.8551e-07	3.5727e-06	181.02	73.948	34.517	15.92	1.7977e-06	36.57	0.00021503	0.00021947	6.0778e-05	254.55	2.2963e-06	2.3083e-06	441.66	102.48	2.3339e-06	2.4675e-06	172.9	70.981	33.555	15.576	2.3547e-06	35.122	207.955	114.115	43.043	-7.593	151.806	139.893	-10.140	-1.372	250.068	110.003	-5.422	0.369	4.933	8.928	175.633	4.344	-8191	255	
1676.545	1	1	0	0	0.063904	0.087035	0.11698	0.11874	0.16806	0.062473	0.24104	0.17338	0.40119	0.25435	0.32053	0.15959	0.067089	0.17508	0.12707	0.056271	-1.9312	-2.4958	-2.2646	-2.6125	-2.4375	-2.2562	-2.8375	-2.1667	-2.4729	-2.5208	-2.2646	-2.4542	-2.5833	-2.2333	-2.5604	-2.4104	335.720	227.046	88.421	94.336	-0.633	28.206	221.092	37.094	309.306	111.884	270.977	70.619	185.442	232.115	78.568	48.534	0.00012413	0.00017256	1.1095e-05	265.91	1.5191e-06	2.2401e-06	471.65	106.89	1.0711e-06	2.5824e-06	179.72	74.124	34.545	15.853	2.4791e-06	36.315	0.00021924	0.00022319	6.2206e-05	254.57	2.3819e-06	2.4605e-06	446.18	102.35	2.3372e-06	2.3388e-06	172.45	70.893	33.514	15.472	2.3744e-06	34.898	206.902	118.518	-19.652	-8.047	196.168	168.783	-9.627	-1.986	217.960	132.765	-5.340	0.174	5.172	9.040	108.893	4.125	-8191	255	
1676.666	1	1	0	0	0.27601	0.28574	0.095989	0.25113	0.11371	0.24951	0.056413	0.17944	0.053363	0.23461	0.11035	0.19296	0.16208	0.12809	0.061806	0.24878	-1.6646	-2.4708	-2.1188	-2.4021	-2.4958	-2.2562	-2.7417	-2.4667	-2.1625	-2.6396	-2.3729	-2.4104	-2.6063	-2.2562	-2.4646	-2.4813	304.120	213.411	125.501	281.210	232.364	118.236	293.266	26.835	312.137	24.772	36.109	263.425	279.168	158.338	236.569	26.794	0.00010958	0.00042767	6.8115e-05	268.26	2.4069e-06	8.5271e-07	466.74	106	2.0009e-06	9.7947e-07	179.8	73.799	34.154	15.71	3.0132e-07	36.009	0.00022237	0.00021262	6.2369e-05	254.91	2.2908e-06	2.3803e-06	443.24	101.34	2.3867e-06	2.3313e-06	170.63	70.414	33.122	15.317	2.2492e-06	34.55	206.766	84.734	79.676	-7.755	135.235	159.977	-9.903	-1.659	158.815	303.052	-4.984	0.108	4.942	9.052	119.688	4.408	-8191	255	
1676.760	1	1	0	0	0.081794	0.12039	0.42995	0.28209	0.092785	0.20963	0.091756	0.24742	0.32293	0.14094	0.1927	0.042011	0.14451	0.21611	0.207	0.30218	-1.8208	-2.7479	-2.3146	-2.3771	-2.6417	-2.0854	-2.5229	-2.3667	-2.2167	-2.775	-2.3083	-2.5292	-2.4813	-2.1688	-2.4437	-2.4208	-3.182	221.869	96.681	273.628	219.348	160.326	176.739	301.540	30.903	158.478	95.960	-7.170	112.396	-3.822	103.440	289.048	0.00013635	0.00060031	0.00013267	265.85	1.7412e-06	2.4974e-06	463.67	105.22	1.1862e-06	2.7277e-06	178.64	72.715	33.648	15.586	3.7051e-06	35.653	0.00021544	0.00021854	5.8731e-05	254.17	2.2449e-06	2.3972e-06	441.78	100.9	2.3545e-06	2.3641e-06	170.28	69.901	32.992	15.307	2.3278e-06	34.392	212.919	65.391	93.987	-7.598	126.791	98.275	-9.824	-1.424	140.054	64.624	-4.876	0.097	5.576	9.015	139.597	4.234	-8191	255	
1676.857	1	1	0	0	0.094268	0.1444	0.087341	0.20662	0.16584	0.059896	0.10685	0.127	0.20906	0.11044	0.12194	0.18359	0.22819	0.33267	0.32527	0.19796	-1.7354	-2.6625	-2.3875	-2.3	-2.5458	-2.2583	-2.4521	-2.5146	-2.2229	-2.7146	-2.375	-2.1667	-2.65	-2.1188	-2.4792	-2.6708	95.812	-8.860	-15.651	267.229	337.534	218.163	217.936	29.122	335.566	211.295	66.178	274.076	-8.033	337.975	309.924	255.284	0.00014522	0.00034053	9.2137e-05	267.22	2.1452e-06	3.1498e-06	466.92	104.25	1.659e-06	3.188e-06	176.89	72.255	33.853	15.503	3.5402e-06	36.14	0.00022149	0.00021726	6.0661e-05	253.68	2.3281e-06	2.5084e-06	442.54	100.19	2.3924e-06	2.4577e-06	169.48	69.806	32.974	15.183	2.2766e-06	34.452	203.093	87.007	70.805	-8.167	177.604	97.887	-10.067	-1.728	123.467	120.832	-5.095	0.230	5.030	9.677	142.446	4.345	-8191	255	
1676.953	1	1	0	0	0.15708	0.21792	0.060372	0.37643	0.10072	0.036049	0.27826	0.1101	0.27276	0.2257	0.15046	0.33235	0.36169	0.072412	0.41929	0.079664	-1.6187	-2.4813	-2.3708	-2.1917	-2.6167	-2.0146	-2.4125	-2.5271	-1.9875	-2.4958	-2.5104	-2.2812	-2.5646	-2.2833	-2.4229	-2.675	173.736	330.935	169.466	332.453	149.382	27.830	250.648	93.740	106.847	330.837	257.553	250.946	266.627	271.658	308.587	305.549	0.00010378	0.00024104	3.8194e-05	268.33	4.2921e-06	2.7685e-06	467.75	105.97	2.1745e-06	2.6749e-06	179.33	73.252	33.93	15.592	1.1688e-06	35.76	0.00022243	0.00021915	6.3056e-05	254.66	2.4464e-06	2.4772e-06	445.02	101.3	2.4658e-06	2.3016e-06	171.59	70.309	33.071	15.227	2.5322e-06	34.654	224.132	86.770	2.113	-8.014	147.761	131.063	-9.953	-1.077	140.953	138.764	-4.878	-0.018	4.505	9.445	241.054	4.708	-8191	255	
1677.049	1	1	0	0	0.18536	0.33646	0.087755	0.31745	0.10465	0.274	0.35061	0.20101	0.24781	0.19977	0.057418	0.12502	0.46643	0.15624	0.1416	0.095543	-1.55	-2.4958	-2.6229	-2.1146	-2.525	-2.1292	-2.4354	-2.4521	-2.2313	-2.5187	-2.3979	-2.1021	-2.5917	-2.3542	-2.3396	-2.5	274.640	281.847	54.188	43.821	191.390	83.974	272.015	276.376	311.470	178.140	271.537	-5.237	-18.015	229.342	325.960	190.265	0.00014507	0.00024448	7.3079e-05	264.91	1.3136e-06	3.6455e-06	468.58	105.4	1.7734e-06	3.0936e-06	179.16	73.059	34.2	15.512	3.5337e-06	35.747	0.00022561	0.00021912	6.1162e-05	254.5	2.3356e-06	2.4008e-06	443.57	101.17	2.4663e-06	2.429e-06	171.1	70.14	33	15.159	2.4497e-06	34.42	216.920	52.996	4.707	-7.710	90.438	166.700	-9.845	-1.818	222.178	127.345	-4.982	0.287	4.816	9.561	188.668	4.308	-8191	255	
1677.145	1	1	0	0	0.08934	0.19733	0.20756	0.30543	0.1197	0.017174	0.2559	0.15948	0.21035	0.12377	0.031935	0.19058	0.17041	0.38458	0.067561	0.083341	-1.625	-2.475	-2.4708	-2.1729	-2.6125	-2.1708	-2.3563	-2.7292	-2.2104	-2.4042	-2.5667	-2.0917	-2.5479	-2.3063	-2.2562	-2.6521	288.443	110.026	289.604	70.237	208.268	311.798	286.544	181.603	-15.202	23.965	171.482	253.070	332.658	54.311	174.512	218.479	0.0001337	0.00037322	7.9056e-05	268.45	2.8e-06	1.7291e-06	470.83	104.72	1.2751e-06	2.5396e-06	179.6	72.964	33.615	15.564	1.301e-06	35.983	0.0002226	0.00020903	6.1027e-05	255.74	2.3358e-06	2.3794e-06	444.1	100.73	2.3657e-06	2.3235e-06	170.93	70.157	32.723	15.277	2.3753e-06	34.423	212.461	72.634	94.881	-8.253	124.532	139.744	-10.223	-1.491	162.078	167.962	-5.530	0.256	4.729	9.401	236.694	4.216	-8191	255	
1677.241	1	1	0	0	0.057978	0.29574	0.10034	0.26263	0.30915	0.1435	0.12742	0.22619	0.2582	0.10731	0.24629	0.27753	0.217	0.20031	0.29139	0.22579	-1.6812	-2.3646	-2.5625	-2.0687	-2.5125	-2.6125	-2.3396	-2.7146	-2.2271	-2.425	-2.6208	-2.1375	-2.5125	-2.5208	-2.25	-2.6833	46.938	272.975	53.619	250.515	44.449	51.618	80.596	104.817	333.123	30.864	291.990	-20.104	285.743	190.146	248.356	177.420	0.00012595	8.1205e-05	0.00011038	265.6	5.2945e-07	1.7338e-06	469.09	105.05	1.5712e-06	2.9623e-06	178.22	73.212	33.979	15.722	3.6187e-06	36.037	0.00022074	0.00020634	5.9057e-05	253.96	2.2037e-06	2.3409e-06	443.72	100.73	2.342e-06	2.2934e-06	170.33	70.237	32.922	15.296	2.3612e-06	34.518	217.978	118.114	101.995	-8.024	88.237	109.408	-10.164	-2.175	163.927	98.106	-5.407	0.141	4.237	9.034	138.077	3.861	-8191	255	
1677.362	1	1	0	0	0.21721	0.194	0.32903	0.18046	0.24858	0.19562	0.23179	0.042969	0.24086	0.24227	0.11989	0.21494	0.23642	0.22419	0.21262	0.24525	-1.8771	-2.3854	-2.5833	-2.2542	-2.5312	-2.6292	-2.3479	-2.6958	-2.2146	-2.3417	-2.6813	-2.3375	-2.4625	-2.4396	-2.175	-2.575	293.366	206.139	270.526	266.148	337.463	199.441	288.672	50.096	-16.776	33.708	304.417	318.882	196.019	192.648	262.673	144.874	0.00012626	0.00022515	0.00011475	265.21	2.0524e-06	1.0873e-06	470.87	105.98	1.1528e-06	3.7782e-06	179.25	73.902	34.024	15.727	4.0616e-06	36.156	0.00021407	0.00021401	5.6942e-05	255.28	2.163e-06	2.3386e-06	445.57	101.62	2.3718e-06	2.316e-06	170.83	70.608	33.083	15.383	2.4468e-06	34.852	214.836	86.422	95.968	-8.062	189.570	163.225	-10.003	-1.569	238.103	136.524	-5.089	0.888	5.090	8.983	178.926	4.299	-8191	255	
1677.458	1	1	0	0	0.14474	0.095146	0.11017	0.17214	0.11022	0.1679	0.18515	0.0691	0.11226	0.085928	0.17268	0.23621	0.17954	0.25075	0.18478	0.15353	-1.8833	-2.1354	-2.6833	-2.1375	-2.3708	-2.7083	-2.1667	-2.7667	-2.3375	-2.3146	-2.6312	-2.2062	-2.5021	-2.7	-2.3604	-2.5125	245.066	131.652	176.782	264.014	164.753	129.687	263.171	118.682	107.180	-6.574	49.662	-18.874	51.692	97.994	47.626	235.634	0.00012812	0.00071698	6.1726e-05	265.84	2.5394e-06	4.2469e-06	472.19	104.85	1.6174e-06	1.425e-06	180.97	73.983	34.138	16.007	2.0545e-06	36.796	0.00021463	0.00021544	5.8524e-05	255.05	2.1489e-06	2.3224e-06	447.26	100.85	2.2408e-06	2.3877e-06	172.25	71.174	33.275	15.626	2.2588e-06	35.209	200.272	61.110	105.339	-7.877	147.665	144.775	-9.769	-2.064	171.518	109.308	-5.280	0.457	5.161	9.363	200.568	4.125	-8191	255	
1677.554	1	1	0	0	0.089329	0.064774	0.037898	0.08465	0.18216	0.081958	0.1745	0.11353	0.29033	0.1919	0.011553	0.22581	0.20493	0.12609	0.32158	0.11704	-1.8292	-2.1708	-2.5125	-2.1958	-2.3229	-2.7313	-2.0167	-2.5042	-2.3125	-1.9625	-2.5208	-2.4021	-2.2625	-2.4271	-2.2646	-2.4688	201.464	35.925	5.131	258.487	292.485	41.388	157.716	44.177	180.359	293.136	5.410	305.873	50.493	236.629	181.839	221.484	0.00015931	0.00061807	6.6734e-05	268.22	3.5644e-06	1.6784e-06	475.37	104.39	2.2728e-06	3.6201e-06	179.97	73.87	33.945	15.979	1.9777e-06	36.537	0.00021227	0.00021556	5.9274e-05	255.21	2.1921e-06	2.3505e-06	448.63	100.73	2.2782e-06	2.5442e-06	172.06	70.969	33.05	15.543	2.4988e-06	35.117	208.498	64.289	64.809	-7.573	171.098	107.838	-9.831	-2.028	188.492	109.584	-5.490	0.039	4.650	9.305	146.146	4.577	-8191	255	
1677.650	1	1	0	0	0.085819	0.28339	0.15164	0.18657	0.27949	0.1602	0.14967	0.30702	0.20144	0.12359	0.30873	0.12297	0.1811	0.32799	0.34672	0.23194	-1.8708	-2.1917	-2.4917	-2.3271	-2.3917	-2.7396	-2.2687	-2.3688	-2.5542	-2.1521	-2.6167	-2.1896	-2.1917	-2.5312	-2.1521	-2.3396	166.847	177.071	94.031	302.443	284.338	325.947	208.395	6.795	-18.143	310.522	227.278	65.470	325.293	119.187	217.252	25.913	0.00013009	0.00032743	4.1297e-05	263.57	1.6829e-07	2.2827e-06	472.2	104.2	2.5537e-06	2.0855e-06	181.86	73.852	34.169	15.822	2.7898e-06	36.508	0.00020668	0.00022293	5.6359e-05	254.01	2.2017e-06	2.2468e-06	447.81	100.26	2.3314e-06	2.4424e-06	172.08	71.247	33.172	15.429	2.4798e-06	35.132	214.392	41.976	49.001	-8.033	177.413	141.515	-9.999	-1.950	137.932	146.479	-5.734	0.160	4.988	8.984	82.858	4.509	-8191	255	
1677.746	1	1	0	0	0.1767	0.15055	0.34441	0.050807	0.13653	0.098802	0.168	0.25439	0.051812	0.26081	0.11313	0.24145	0.061755	0.29113	0.11275	0.1285	-1.8333	-2.3312	-2.4479	-2.475	-2.1125	-2.6771	-2.1521	-2.475	-2.6021	-2.0917	-2.65	-2.4562	-2.2833	-2.7646	-2.4417	-2.3083	195.895	-11.027	20.079	239.769	-17.124	20.173	275.372	1.490	93.731	57.929	315.316	-11.118	217.976	55.963	280.231	245.839	0.00016217	0.00023929	7.9354e-05	267.07	1.7492e-06	2.079e-06	475.49	104.22	8.1276e-07	2.6078e-06	179.78	73.675	33.801	15.878	2.114e-06	36.029	0.0002103	0.00021931	5.6897e-05	255.06	2.3177e-06	2.3087e-06	448.53	100.27	2.4366e-06	2.4793e-06	170.78	70.712	32.897	15.375	2.3877e-06	34.8	207.782	29.326	63.025	-7.907	102.154	134.388	-10.013	-2.293	180.566	91.848	-5.997	-0.015	4.688	8.919	131.646	4.189	-8191	255	
1677.843	1	1	0	0	0.12815	0.04316	0.062177	0.29389	0.17278	0.2237	0.31192	0.15273	0.24523	0.21652	0.29158	0.23862	0.049735	0.2243	0.29777	0.3557	-2.2083	-2.0396	-2.5083	-2.4313	-2.2208	-2.625	-2.2104	-2.5187	-2.5083	-2.2792	-2.3833	-2.425	-2.2917	-2.5583	-2.325	-2.3583	123.503	260.149	33.252	38.698	217.263	-8.514	247.234	51.914	-1.026	79.569	11.665	135.518	277.890	334.396	29.060	255.866	0.00012187	4.5536e-06	0.00013615	266.82	2.4286e-06	3.0191e-06	470.77	104.3	2.9808e-06	9.9851e-07	178.59	73.153	33.718	15.528	4.4095e-06	36.13	0.0002121	0.00022612	5.903e-05	253.82	2.2187e-06	2.2989e-06	446.89	99.825	2.2515e-06	2.4037e-06	171.1	70.627	32.782	15.288	2.4338e-06	35	212.324	31.121	92.135	-7.654	169.117	159.312	-9.955	-2.066	125.301	83.355	-5.309	0.266	4.643	9.537	119.712	4.362	-8191	255	
1677.961	1	1	0	0	0.048136	0.27008	0.24586	0.070273	0.32789	0.09965	0.13768	0.19405	0.1035	0.23947	0.066323	0.17798	0.1387	0.13765	0.14136	0.14122	-2.1229	-2.0625	-2.4688	-2.5312	-1.9729	-2.5479	-2.4458	-2.1833	-2.5896	-2.3375	-2.3187	-2.6354	-2.1292	-2.5542	-2.4938	-2.2438	183.726	301.273	197.479	4.321	229.088	320.942	188.773	271.106	99.718	91.515	160.025	228.467	153.892	28.221	27.730	339.322	0.00011228	0.00026475	0.00011267	266.82	5.8587e-06	1.8504e-06	473.75	104.92	1.4674e-06	2.9192e-06	177.95	72.913	33.407	15.541	2.9538e-06	35.687	0.0002243	0.00022628	5.7877e-05	254.31	2.3708e-06	2.3357e-06	446.87	100.19	2.4095e-06	2.4007e-06	170.67	70.228	32.511	15.12	2.4213e-06	34.326	214.548	92.279	61.064	-7.545	161.090	145.462	-10.207	-1.960	134.492	124.363	-5.637	-0.067	5.095	9.975	204.781	4.620	-8191	255	
1678.058	1	1	0	0	0.31438	0.15183	0.29877	0.11862	0.24602	0.14093	0.13389	0.17584	0.031057	0.16798	0.083493	0.24844	0.12709	0.11894	0.071052	0.16789	-1.9875	-2.2313	-2.4229	-2.6229	-2.1771	-2.3521	-2.4208	-2.1312	-2.5979	-2.1792	-2.425	-2.5521	-2.0125	-2.4188	-2.4771	-2.1896	303.032	97.988	151.542	16.031	276.809	92.997	206.580	337.616	198.313	17.718	196.735	312.463	219.320	-11.259	-0.624	290.226	0.00015431	0.00027932	2.1965e-05	264.01	2.376e-06	3.2615e-06	470.21	102.96	1.4254e-06	3.3227e-06	176.52	71.901	32.7	15.268	3.4254e-06	35.395	0.00021685	0.00022187	5.8027e-05	252.69	2.3827e-06	2.2841e-06	443.91	99.116	2.2899e-06	2.3349e-06	168.49	69.561	32.095	14.945	2.398e-06	34.087	212.730	78.226	132.736	-7.706	150.702	121.212	-9.681	-1.788	170.923	136.041	-5.356	-0.132	5.267	9.364	166.190	4.239	-8191	255	
1678.154	1	1	0	0	0.0094432	0.095216	0.22319	0.23255	0.098322	0.099392	0.053528	0.073879	0.16586	0.13011	0.32473	0.32278	0.18871	0.038605	0.27939	0.24756	-1.9583	-2.0187	-2.3167	-2.7125	-2.0771	-2.4875	-2.4771	-2.1646	-2.7104	-2.3187	-2.2687	-2.7208	-2.1771	-2.3729	-2.4833	-2.375	296.417	-11.465	330.358	28.140	109.494	54.264	250.070	291.755	283.451	303.239	207.701	301.831	18.552	265.291	-3.798	158.077	0.00013385	0.00028433	5.0375e-05	264.42	1.652e-06	1.6525e-06	464.87	103.31	1.5569e-06	1.4884e-06	177.18	72.017	33.154	15.322	2.4161e-06	35.588	0.00021102	0.00021088	5.7408e-05	250.92	2.331e-06	2.3518e-06	443.86	98.997	2.2257e-06	2.2994e-06	168.77	69.539	32.249	15.059	2.3355e-06	34.225	209.999	77.845	61.928	-7.190	147.717	106.430	-10.180	-1.637	192.301	112.007	-5.152	0.352	4.584	9.264	164.071	4.021	-8191	255	
1678.250	1	1	0	0	0.35066	0.16139	0.22997	0.32158	0.26786	0.24634	0.17468	0.13188	0.16252	0.20727	0.19413	0.15503	0.38159	0.040305	0.13179	0.037468	-2.0583	-2.2917	-2.0812	-2.6625	-2.1604	-2.4625	-2.5583	-1.9833	-2.65	-2.3229	-2.2229	-2.4625	-2.0604	-2.4854	-2.5812	-2.2562	0.051	139.902	16.956	340.094	42.222	76.760	83.792	87.144	190.711	49.696	149.555	313.458	339.815	55.713	222.474	222.727	0.00011509	0.00023349	9.214e-05	264.88	2.3069e-06	5.0719e-06	471.45	102.89	1.0866e-06	1.4371e-06	175.77	71.863	32.984	15.292	6.8493e-07	34.937	0.00022242	0.00021556	5.813e-05	252.64	2.3184e-06	2.3284e-06	445.09	98.679	2.3681e-06	2.4135e-06	168.67	69.477	32.188	15.03	2.273e-06	33.931	216.997	104.335	81.280	-7.894	188.763	93.352	-10.569	-1.359	88.933	139.700	-5.538	0.173	5.503	9.547	129.899	3.888	-8191	255	
1678.346	1	1	0	0	0.14709	0.040251	0.15547	0.22648	0.10915	0.19896	0.089128	0.18669	0.06536	0.20557	0.2954	0.13763	0.37644	0.19022	0.042092	0.11747	-2.0687	-2.3458	-2.2062	-2.6063	-2.3396	-2.4271	-2.3896	-2.0604	-2.5167	-2.5146	-2.1708	-2.55	-2.1896	-2.2313	-2.5646	-2.3021	6.453	214.718	276.530	267.180	41.101	151.628	318.135	80.557	231.437	248.932	319.873	176.849	-4.050	317.823	296.445	140.950	0.00014168	0.00033463	8.1537e-05	264.72	2.6288e-06	3.7341e-06	470.35	101.95	3.1621e-06	2.3931e-06	174.79	72.059	33.06	15.454	2.8773e-06	35.415	0.00021485	0.00020834	5.9283e-05	252.02	2.3208e-06	2.2748e-06	443.75	98.398	2.2681e-06	2.3551e-06	167.65	69.625	32.297	15.098	2.3409e-06	34.174	202.126	87.716	24.230	-8.130	138.235	142.642	-10.037	-1.625	139.213	78.590	-6.031	0.300	4.844	9.282	147.429	4.747	-8191	255	
1678.442	1	1	0	0	0.059089	0.42258	0.16788	0.1807	0.25182	0.3499	0.19456	0.32762	0.051034	0.26464	0.38211	0.089677	0.15415	0.16016	0.2692	0.30112	-1.9854	-2.3563	-2.2542	-2.7708	-2.4146	-2.2917	-2.6	-2.1333	-2.5167	-2.5938	-2.1646	-2.5979	-2.4562	-2.1729	-2.7542	-2.3104	205.910	56.428	162.669	205.954	213.215	278.993	257.285	27.037	330.716	5.742	287.907	187.214	261.365	283.737	283.469	209.860	0.00013472	0.00056111	7.5297e-05	262.84	1.3484e-06	1.3464e-07	465.33	102.58	9.0399e-07	5.0679e-07	175.06	71.901	32.783	15.285	3.9324e-06	34.79	0.00021867	0.0002113	6.1027e-05	251.05	2.2983e-06	2.3643e-06	441.18	98.274	2.2669e-06	2.329e-06	166.99	68.88	32.016	14.855	2.3979e-06	33.673	209.738	59.945	46.215	-7.653	137.713	205.512	-10.254	-2.108	185.807	85.329	-5.533	0.334	5.072	8.977	155.984	4.411	-8191	255	
1678.538	1	1	0	0	0.21513	0.27685	0.12345	0.12914	0.073705	0.14783	0.12503	0.18722	0.35365	0.046168	0.11242	0.10756	0.2617	0.17878	0.13612	0.138	-1.8729	-2.4729	-2.2396	-2.5458	-2.2021	-2.0646	-2.7604	-2.325	-2.4479	-2.4417	-2.3292	-2.5187	-2.3458	-2.225	-2.5583	-2.2292	315.315	204.515	11.229	174.853	69.332	210.814	320.170	144.396	290.757	28.241	91.390	26.898	61.167	289.877	172.787	259.008	0.00010595	0.00040492	6.9411e-05	262.5	1.2891e-06	2.5523e-06	463.98	101.48	1.5526e-06	1.7778e-06	175.48	71.274	32.984	15.226	3.2185e-06	35.011	0.00021345	0.0002072	6.1546e-05	250.05	2.2622e-06	2.412e-06	440.61	97.92	2.3348e-06	2.372e-06	167.15	68.743	32.082	14.908	2.2913e-06	33.728	210.195	63.650	69.057	-7.857	197.313	94.307	-9.757	-2.204	206.017	114.316	-5.665	-0.133	4.480	8.849	145.600	3.991	-8191	255	
1678.635	1	1	0	0	0.2196	0.19874	0.22059	0.21714	0.12381	0.13666	0.081359	0.1293	0.078711	0.076984	0.035793	0.11715	0.019798	0.146	0.14574	0.033508	-1.9125	-2.4771	-2.1063	-2.4562	-2.3479	-2.2667	-2.7104	-2.3792	-2.1125	-2.6333	-2.1167	-2.4958	-2.5208	-2.2313	-2.4896	-2.1771	96.068	236.883	139.101	0.860	269.204	19.561	81.000	-18.570	181.812	191.180	195.316	144.048	103.871	91.270	272.640	37.419	0.00013945	0.00013822	0.000106	263.23	3.4256e-06	1.881e-06	465.19	103.22	1.8366e-06	2.333e-06	175.9	71.875	32.874	15.133	2.6748e-06	34.797	0.00021543	0.00020898	5.9224e-05	250.57	2.1714e-06	2.3379e-06	441.54	98.468	2.2287e-06	2.3012e-06	168.09	68.994	32.036	14.934	2.2896e-06	33.669	205.321	120.393	100.776	-7.421	155.282	116.303	-10.218	-1.851	208.346	134.422	-5.468	0.383	5.240	8.708	89.930	4.511	-8191	255	
1678.753	1	1	0	0	0.20277	0.27957	0.10979	0.22182	0.25711	0.088311	0.097508	0.32302	0.13255	0.17485	0.26029	0.030881	0.2679	0.12547	0.37976	0.18884	-1.8896	-2.6125	-2.1562	-2.3833	-2.4542	-2.1479	-2.6813	-2.1688	-2.3479	-2.6021	-2.2771	-2.55	-2.5938	-2.0521	-2.5458	-2.4583	8.066	131.816	36.322	310.879	125.324	210.335	24.716	-17.702	168.109	144.053	293.997	214.035	249.526	58.114	105.044	339.061	0.00014028	0.00037008	0.00011208	262.95	7.2951e-07	1.7603e-06	466.21	102.88	2.02e-06	8.515e-07	176.1	72.284	33.273	15.404	3.681e-06	35.287	0.00022451	0.00021725	6.0489e-05	251.44	2.2907e-06	2.3359e-06	442.3	98.726	2.3451e-06	2.2656e-06	167.91	69.466	32.23	14.981	2.3334e-06	33.926	203.668	43.825	89.502	-8.014	81.642	166.553	-10.015	-1.706	122.319	189.225	-5.712	0.224	5.145	9.003	131.941	4.679	-8191	255	
#DATA ENDS
