BOXY.EXE: ISS Imagent and Oximeter Data Acquisition Program Version 0.80
Ascii Record File

#ACQ INFORMATION
2  Detector Channels 
16  External MUX Channels 
1  Auxiliary Channels 
5000  Waveform (CCF) Frequency (Hz)
1  Waveforms Skipped 
30  Waveforms Averaged 
1  Cycles Averaged 
16  Acquisitions per Waveform 
10.0806  Updata Rate (Hz) 

#FILE INFORMATION
TRUE -- External MUX Channel results are PARSED.
FALSE -- AC DC and Phase are NOT grouped.
TRUE -- Companion Program Settings File CREATED.
FALSE -- AC data not excluded
FALSE -- DC data not excluded
FALSE -- Phase data not excluded
FALSE -- Auxillary Chn. data not excluded
Tab delimiters

#CALIBRATION STATE
TRUE -- Waveform Calibration Values APPLIED.


#AUX CALIBRATION VALUES
Val Type	aux-1	

Term	1.0000e+00	
Factor	0.0000e+00	


#WF CALIBRATION VALUES
A = Detector Channel
Val Type	A-AC1	A-AC2	A-AC3	A-AC4	A-AC5	A-AC6	A-AC7	A-AC8	A-AC9	A-AC10	A-AC11	A-AC12	A-AC13	A-AC14	A-AC15	A-AC16	A-DC1	A-DC2	A-DC3	A-DC4	A-DC5	A-DC6	A-DC7	A-DC8	A-DC9	A-DC10	A-DC11	A-DC12	A-DC13	A-DC14	A-DC15	A-DC16	A-Ph1	A-Ph2	A-Ph3	A-Ph4	A-Ph5	A-Ph6	A-Ph7	A-Ph8	A-Ph9	A-Ph10	A-Ph11	A-Ph12	A-Ph13	A-Ph14	A-Ph15	A-Ph16	

Term	0.00000e+00	0.00000e+00	0.00000e+00	0.00000e+00	0.00000e+00	0.00000e+00	0.00000e+00	0.00000e+00	0.00000e+00	0.00000e+00	0.00000e+00	0.00000e+00	0.00000e+00	0.00000e+00	0.00000e+00	0.00000e+00	0.00000e+00	0.00000e+00	0.00000e+00	0.00000e+00	0.00000e+00	0.00000e+00	0.00000e+00	0.00000e+00	0.00000e+00	0.00000e+00	0.00000e+00	0.00000e+00	0.00000e+00	0.00000e+00	0.00000e+00	0.00000e+00	0.00000e+00	0.00000e+00	0.00000e+00	0.00000e+00	0.00000e+00	0.00000e+00	0.00000e+00	0.00000e+00	0.00000e+00	0.00000e+00	0.00000e+00	0.00000e+00	0.00000e+00	0.00000e+00	0.00000e+00	0.00000e+00	
Factor	1.00000e+00	1.00000e+00	1.00000e+00	1.00000e+00	1.00000e+00	1.00000e+00	1.00000e+00	1.00000e+00	1.00000e+00	1.00000e+00	1.00000e+00	1.00000e+00	1.00000e+00	1.00000e+00	1.00000e+00	1.00000e+00	1.00000e+00	1.00000e+00	1.00000e+00	1.00000e+00	1.00000e+00	1.00000e+00	1.00000e+00	1.00000e+00	1.00000e+00	1.00000e+00	1.00000e+00	1.00000e+00	1.00000e+00	1.00000e+00	1.00000e+00	1.00000e+00	X	X	X	X	X	X	X	X	X	X	X	X	X	X	X	X	

B = Detector Channel
Val Type	B-AC1	B-AC2	B-AC3	B-AC4	B-AC5	B-AC6	B-AC7	B-AC8	B-AC9	B-AC10	B-AC11	B-AC12	B-AC13	B-AC14	B-AC15	B-AC16	B-DC1	B-DC2	B-DC3	B-DC4	B-DC5	B-DC6	B-DC7	B-DC8	B-DC9	B-DC10	B-DC11	B-DC12	B-DC13	B-DC14	B-DC15	B-DC16	B-Ph1	B-Ph2	B-Ph3	B-Ph4	B-Ph5	B-Ph6	B-Ph7	B-Ph8	B-Ph9	B-Ph10	B-Ph11	B-Ph12	B-Ph13	B-Ph14	B-Ph15	B-Ph16	

Term	0.00000e+00	0.00000e+00	0.00000e+00	0.00000e+00	0.00000e+00	0.00000e+00	0.00000e+00	0.00000e+00	0.00000e+00	0.00000e+00	0.00000e+00	0.00000e+00	0.00000e+00	0.00000e+00	0.00000e+00	0.00000e+00	0.00000e+00	0.00000e+00	0.00000e+00	0.00000e+00	0.00000e+00	0.00000e+00	0.00000e+00	0.00000e+00	0.00000e+00	0.00000e+00	0.00000e+00	0.00000e+00	0.00000e+00	0.00000e+00	0.00000e+00	0.00000e+00	-1.23726e+02	-1.39918e+02	-1.78938e+02	-1.81413e+02	-3.50059e+01	-7.24347e+01	-1.57789e+02	-1.62015e+02	-7.41590e+01	-9.50557e+01	-1.80411e+02	-1.70917e+02	-1.81322e+02	-1.76271e+02	-8.71251e+01	-1.49364e+02	
Factor	1.81544e-05	1.23178e-04	2.51159e-05	1.85326e-01	8.05980e-07	9.73926e-07	1.72092e-01	5.34215e-02	8.30615e-07	1.09759e-06	1.07935e-01	3.07122e-02	2.47813e-02	9.40291e-03	9.68748e-07	1.38253e-02	5.41759e-07	5.53856e-07	1.53778e-07	8.86287e-02	6.03997e-09	6.06804e-09	7.82073e-02	2.56647e-02	6.05508e-09	6.07195e-09	4.76290e-02	1.39290e-02	1.17526e-02	4.39035e-03	6.05682e-09	6.14778e-03	X	X	X	X	X	X	X	X	X	X	X	X	X	X	X	X	



#DISTANCE SETTINGS
A = Detector Channel
A-1	A-2	A-3	A-4	A-5	A-6	A-7	A-8	A-9	A-10	A-11	A-12	A-13	A-14	A-15	A-16	

2.5000e+00	3.0000e+00	2.5000e+00	3.0000e+00	2.0000e+00	3.0000e+00	1.5000e+00	3.0000e+00	3.0000e+00	3.0000e+00	3.0000e+00	3.0000e+00	3.0000e+00	3.0000e+00	1.5000e+00	3.0000e+00	

B = Detector Channel
B-1	B-2	B-3	B-4	B-5	B-6	B-7	B-8	B-9	B-10	B-11	B-12	B-13	B-14	B-15	B-16	

1.0000e+01	1.0000e+01	1.0000e+01	1.4400e+00	1.0000e+01	1.0000e+01	1.5100e+00	1.9400e+00	1.0000e+01	1.0000e+01	1.9900e+00	2.4900e+00	2.4100e+00	2.9000e+00	1.0000e+01	2.9800e+00	




#DATA BEGINS
time	group	step	mark	flag	A-AC1	A-AC2	A-AC3	A-AC4	A-AC5	A-AC6	A-AC7	A-AC8	A-AC9	A-AC10	A-AC11	A-AC12	A-AC13	A-AC14	A-AC15	A-AC16	A-DC1	A-DC2	A-DC3	A-DC4	A-DC5	A-DC6	A-DC7	A-DC8	A-DC9	A-DC10	A-DC11	A-DC12	A-DC13	A-DC14	A-DC15	A-DC16	A-Ph1	A-Ph2	A-Ph3	A-Ph4	A-Ph5	A-Ph6	A-Ph7	A-Ph8	A-Ph9	A-Ph10	A-Ph11	A-Ph12	A-Ph13	A-Ph14	A-Ph15	A-Ph16	B-AC1	B-AC2	B-AC3	B-AC4	B-AC5	B-AC6	B-AC7	B-AC8	B-AC9	B-AC10	B-AC11	B-AC12	B-AC13	B-AC14	B-AC15	B-AC16	B-DC1	B-DC2	B-DC3	B-DC4	B-DC5	B-DC6	B-DC7	B-DC8	B-DC9	B-DC10	B-DC11	B-DC12	B-DC13	B-DC14	B-DC15	B-DC16	B-Ph1	B-Ph2	B-Ph3	B-Ph4	B-Ph5	B-Ph6	B-Ph7	B-Ph8	B-Ph9	B-Ph10	B-Ph11	B-Ph12	B-Ph13	B-Ph14	B-Ph15	B-Ph16	aux-1	digaux	

1727.218	1	1	0	256	0.19797	0.076657	0.07731	0.1741	0.19644	0.18931	0.14793	0.19662	0.14034	0.27733	0.036583	0.088591	0.28249	0.14732	0.022677	0.094058	-2.7021	-2.5	-2.5604	-2.9979	-2.2521	-2.7958	-2.9875	-2.3937	-3.2188	-2.2625	-2.5604	-3.2146	-2.3417	-2.9271	-2.8042	-2.3917	213.184	149.956	316.589	328.429	232.791	68.748	300.276	260.917	66.095	312.156	382.395	254.864	313.647	320.462	125.252	269.066	3.3379e-05	0.00017503	6.655e-05	552.06	7.4993e-07	5.223e-06	598.83	176.48	1.456e-06	2.3408e-06	188.38	53.996	51.786	13.944	1.4725e-06	16.565	0.00021638	0.00021674	6.1435e-05	539.69	2.3791e-06	2.3197e-06	580.56	172.63	2.3366e-06	2.3744e-06	183.28	53.567	50.872	14.143	2.4384e-06	16.974	171.582	298.922	375.989	39.420	106.528	229.165	37.873	44.249	100.507	160.741	41.315	45.015	48.974	53.444	119.644	48.803	-8191	255	
1727.314	1	1	0	0	0.059774	0.13234	0.086693	0.38849	0.12003	0.2006	0.23309	0.26732	0.10963	0.24665	0.24458	0.14934	0.090376	0.17393	0.26795	0.078029	-2.6583	-2.5104	-2.5792	-3.1229	-2.25	-2.9562	-2.875	-2.5208	-2.8229	-2.6542	-2.5646	-3.0479	-2.4229	-2.6542	-2.9229	-2.4042	345.150	209.651	367.490	308.912	341.376	172.590	239.103	26.783	48.889	98.405	345.016	297.532	218.321	67.983	258.085	206.224	6.5303e-05	0.00012083	8.4414e-05	555.04	3.165e-06	1.6878e-06	599.46	177.12	3.1421e-06	4.7954e-06	189.66	53.891	51.834	14.041	5.2715e-06	16.849	0.00020966	0.00021899	6.1419e-05	543.46	2.3037e-06	2.3804e-06	583.14	172.27	2.2586e-06	2.4048e-06	183.27	53.483	50.775	14.15	2.4411e-06	17.068	140.811	119.827	69.163	39.561	88.968	179.920	37.742	44.325	146.189	186.999	40.628	45.234	48.857	53.467	171.964	48.334	-8191	255	
1727.435	1	1	0	0	0.049936	0.24807	0.082704	0.17895	0.17208	0.060271	0.1648	0.029674	0.16744	0.19261	0.15822	0.24782	0.12901	0.16632	0.018945	0.13401	-2.5563	-2.6708	-2.6458	-2.9583	-2.4562	-2.8187	-3.1479	-2.3646	-2.9167	-2.8625	-2.4771	-3.0625	-2.6625	-2.7833	-2.9167	-2.2833	255.715	157.454	137.768	331.270	240.381	240.473	187.289	80.711	181.527	227.613	203.195	41.060	163.526	188.111	264.273	56.927	9.0811e-05	0.00020481	0.00011485	560.31	3.6521e-06	5.4569e-06	605.69	175.85	2.5741e-06	7.925e-06	190.83	54.194	51.635	13.972	2.7861e-06	16.907	0.00020397	0.00021986	6.1191e-05	544.28	2.2756e-06	2.3581e-06	586.71	171.29	2.2495e-06	2.3535e-06	183.8	53.374	50.702	14.067	2.3506e-06	16.917	174.291	44.652	296.442	39.306	239.056	221.414	37.907	44.011	239.078	57.346	40.964	45.511	49.110	53.202	133.207	48.307	-8191	255	
1727.531	1	1	0	0	0.061809	0.3705	0.24056	0.14409	0.17551	0.07739	0.14572	0.10119	0.075361	0.21551	0.17996	0.17509	0.21083	0.26718	0.14265	0.19316	-2.4771	-2.5771	-2.4062	-3.0896	-2.5792	-2.7771	-3.0167	-2.3792	-2.9417	-2.8125	-2.3979	-2.9688	-2.6875	-2.5229	-2.9125	-2.2896	231.038	275.048	260.824	383.418	297.245	180.759	67.584	49.742	292.198	150.762	359.130	377.153	176.563	30.740	60.218	84.059	0.00011653	9.0482e-05	6.4821e-05	556.71	4.1067e-06	2.8268e-06	610.97	174.69	2.9095e-06	2.9969e-07	188.76	53.375	50.849	13.665	1.4526e-06	16.699	0.00020061	0.00021053	5.9321e-05	542.17	2.2785e-06	2.3189e-06	588.46	169.62	2.2609e-06	2.342e-06	181.99	52.539	50.383	13.882	2.3649e-06	16.759	160.613	341.689	121.705	39.051	224.175	230.345	37.777	44.099	200.418	180.464	41.559	45.411	49.200	53.735	175.523	47.873	-8191	255	
1727.627	1	1	0	0	0.071383	0.18431	0.072081	0.17772	0.13259	0.16393	0.082283	0.36119	0.20018	0.11964	0.22366	0.12494	0.38924	0.28587	0.091351	0.16001	-2.4688	-2.6958	-2.5812	-2.9792	-2.6813	-2.6354	-3.1188	-2.4896	-2.8646	-2.6479	-2.5062	-2.9396	-2.9021	-2.4479	-3.0521	-2.4521	109.917	218.278	74.237	236.798	186.655	178.308	293.018	336.762	83.087	240.335	358.571	379.935	381.449	362.486	383.230	77.967	5.883e-05	0.00047962	0.00017054	558.07	1.9857e-06	2.5222e-06	601	173.35	3.9845e-06	3.7002e-06	188.17	53.028	50.443	13.538	2.6556e-06	16.579	0.0002055	0.00021426	5.925e-05	541.45	2.3051e-06	2.2854e-06	582.32	168.92	2.2538e-06	2.3076e-06	180.55	51.951	49.939	13.688	2.2207e-06	16.598	75.291	354.368	177.537	39.372	101.112	187.930	37.656	44.175	180.484	151.994	41.086	45.399	48.952	53.582	350.343	48.058	-8191	255	
1727.724	1	1	0	0	0.20016	0.29073	0.19072	0.27489	0.23217	0.22906	0.19487	0.12075	0.06325	0.22553	0.23214	0.19052	0.15063	0.12673	0.12451	0.27656	-2.3521	-2.8875	-2.5042	-2.9667	-2.6896	-2.4208	-3.1292	-2.3979	-2.7354	-3.0917	-2.2812	-2.9208	-2.8688	-2.4938	-2.95	-2.4667	354.405	45.985	69.970	283.238	267.477	339.209	283.311	213.931	331.069	99.275	64.038	160.895	323.023	134.436	31.794	267.775	0.00013938	0.00073928	9.6204e-05	558.3	2.2284e-06	2e-06	608.84	177.83	4.7085e-06	5.0385e-06	190.99	53.109	51.046	13.343	3.9722e-06	16.417	0.00019958	0.00020717	5.5047e-05	539.72	2.221e-06	2.2358e-06	585.31	171.27	2.1787e-06	2.2165e-06	181.46	52.036	50.078	13.512	2.1294e-06	16.497	162.784	260.378	261.076	39.408	219.306	139.546	37.591	44.623	161.947	216.432	41.180	45.193	49.297	53.743	100.880	48.517	-8191	255	
1727.820	1	1	0	0	0.18933	0.15611	0.086633	0.23421	0.18223	0.24787	0.077352	0.14281	0.21242	0.11926	0.10785	0.049256	0.075158	0.2394	0.17231	0.14969	-2.3479	-2.9646	-2.4229	-3.0187	-3.0625	-2.2438	-3.1458	-2.4958	-2.6792	-3.0563	-2.5229	-2.8604	-3.0167	-2.3875	-3.0604	-2.8688	248.580	109.308	134.090	283.234	171.702	162.961	265.377	307.256	262.993	129.623	370.696	87.035	318.514	263.032	355.395	143.609	0.000139	0.00024702	4.3557e-05	559.28	3.2314e-06	2.0364e-06	606.35	177.85	1.3868e-06	4.9544e-06	192.07	54.117	51.039	13.294	3.3553e-06	16.569	0.00020098	0.00020454	5.4505e-05	539.39	2.219e-06	2.2264e-06	583.93	171.94	2.1744e-06	2.1859e-06	182.45	52.806	50.144	13.401	2.0342e-06	16.5	198.690	163.505	111.680	39.301	245.501	62.690	37.838	44.547	156.328	80.759	41.314	45.364	49.266	53.117	296.192	48.578	-8191	255	
1727.914	1	1	0	0	0.10609	0.053939	0.43734	0.23758	0.16681	0.19666	0.1257	0.064687	0.11316	0.3643	0.19609	0.071947	0.21212	0.23092	0.035087	0.15764	-2.1771	-3.0875	-2.7167	-2.7938	-3.0292	-2.2562	-3.0646	-2.7146	-2.45	-2.9417	-2.4708	-2.6417	-3.0042	-2.3187	-2.7604	-2.7208	286.142	286.988	62.407	300.734	341.456	307.492	95.020	291.098	125.588	47.895	249.312	240.930	106.348	68.649	215.602	350.963	7.9145e-05	0.00066024	0.00010896	560.76	2.8958e-06	3.019e-06	608.29	176.62	4.6796e-06	2.5026e-06	191.73	54.019	51.59	13.059	1.4696e-06	16.243	0.00019553	0.00019706	5.2848e-05	543.12	2.1815e-06	2.1831e-06	584.41	170.77	2.1865e-06	2.1178e-06	182.2	52.772	50.461	13.174	2.0634e-06	16.269	139.931	298.550	73.372	39.841	295.250	297.716	37.605	44.133	178.560	104.778	41.194	45.484	48.799	53.350	365.102	47.890	-8191	255	
1728.012	1	1	0	0	0.10554	0.15351	0.19064	0.18294	0.25588	0.046484	0.0518	0.19505	0.20194	0.17704	0.083275	0.12841	0.13992	0.13742	0.16612	0.2541	-2	-2.9813	-2.3833	-2.5104	-2.9646	-2.2771	-3.0104	-2.8146	-2.4042	-3.0375	-2.5333	-2.7333	-3.2021	-2.2208	-2.9396	-2.7812	64.138	260.926	310.036	138.230	108.230	371.617	354.050	92.327	306.733	243.957	256.403	63.726	120.538	135.704	312.690	154.522	0.0001158	0.00020344	9.8434e-05	559.64	4.1312e-06	1.4977e-06	603.44	175.81	1.0322e-06	6.1029e-06	188.43	53.624	51.479	12.982	6.2588e-06	16.204	0.00019997	0.00019352	5.3834e-05	539.16	2.207e-06	2.1311e-06	579.39	169.63	2.219e-06	2.0773e-06	181.01	52.555	50.417	13.085	2.133e-06	16.291	131.346	73.789	47.255	39.603	156.135	235.606	37.533	44.039	39.848	382.806	40.895	45.901	49.103	53.742	117.381	48.452	-8191	255	
1728.131	1	1	0	0	0.34082	0.080736	0.26073	0.16047	0.2858	0.21842	0.20242	0.070327	0.18616	0.23445	0.10972	0.069703	0.22359	0.22135	0.14215	0.18726	-1.9146	-2.9417	-2.4604	-2.5292	-3.0917	-2.4042	-3.0292	-2.9042	-2.1667	-3.2458	-2.6292	-2.5812	-2.9458	-2.5125	-2.6354	-3.0521	181.215	326.408	324.014	370.669	81.111	350.401	324.610	380.222	173.012	294.015	78.324	348.253	56.287	160.342	160.210	286.836	0.00015124	0.00035558	6.0881e-05	545.71	3.7756e-06	2.5694e-06	587.68	175.27	1.3367e-06	4.2723e-06	188.57	54.438	52.196	13.016	6.4058e-07	16.271	0.00020487	0.00019355	5.6918e-05	529.29	2.2704e-06	2.1795e-06	567.19	170.15	2.2756e-06	2.1655e-06	181.41	53.443	51.303	13.159	2.266e-06	16.412	132.272	297.428	298.203	39.202	232.741	219.024	37.386	44.062	37.226	339.828	41.106	45.165	49.109	53.636	107.784	47.626	-8191	255	
1728.227	1	1	0	0	0.16089	0.1128	0.18268	0.23895	0.2684	0.10183	0.227	0.071657	0.10767	0.21354	0.15858	0.21594	0.27166	0.19935	0.082447	0.11849	-1.7708	-2.925	-2.6167	-2.4979	-3.1083	-2.4708	-2.9167	-2.8833	-2.3	-2.9833	-2.8208	-2.5375	-3	-2.4125	-2.5542	-3.0625	290.190	30.409	85.707	377.228	321.448	172.143	343.455	340.254	367.236	314.844	345.992	311.418	345.961	260.296	226.179	183.881	9.3901e-05	0.00026195	4.1187e-05	534.6	1.7358e-06	5.0276e-06	571.89	174.28	2.9795e-06	2.7435e-06	191.8	55.703	53.53	13.042	3.6611e-06	16.139	0.00020742	0.00020038	5.8746e-05	518.23	2.2605e-06	2.2521e-06	554.93	169.88	2.3285e-06	2.2575e-06	184.16	54.957	52.292	13.276	2.4125e-06	16.417	161.346	382.695	252.011	39.364	148.414	137.773	37.874	44.317	89.191	256.967	41.264	45.408	49.069	54.342	129.478	48.450	-8191	255	
1728.323	1	1	0	0	0.1348	0.066952	0.18081	0.1246	0.095576	0.19901	0.39296	0.30034	0.14259	0.2738	0.2174	0.1553	0.084367	0.16907	0.22149	0.13028	-1.7729	-2.8604	-2.8208	-2.5187	-3.0875	-2.4458	-2.8354	-3.1437	-2.3604	-2.8375	-2.8417	-2.3979	-3.0583	-2.5229	-2.7917	-3.0521	291.779	258.211	278.889	318.232	215.918	149.962	279.021	311.354	328.227	225.911	42.241	199.354	378.211	191.871	28.944	64.997	7.3706e-05	0.00034556	6.9698e-05	519.84	2.924e-07	4.7379e-06	561.59	173.65	1.8854e-06	6.5223e-06	188.86	55.571	53.529	13.139	6.1421e-06	16.362	0.00021177	0.00021406	6.1974e-05	509.34	2.284e-06	2.391e-06	547.21	170.1	2.3609e-06	2.4211e-06	183.54	55.409	52.492	13.528	2.502e-06	16.764	98.960	177.149	44.971	39.311	228.988	183.983	37.956	44.086	302.073	190.359	40.725	45.422	48.782	53.742	144.283	48.112	-8191	255	
1728.419	1	1	0	0	0.24606	0.065058	0.080921	0.12918	0.10793	0.068406	0.14654	0.085889	0.30345	0.055789	0.093684	0.19695	0.14268	0.15267	0.217	0.24198	-1.7771	-2.8208	-2.6396	-2.1979	-2.9729	-2.6604	-2.7313	-3.0521	-2.4146	-2.7604	-3.1854	-2.25	-2.9854	-2.6396	-2.5271	-3.1146	365.785	91.852	126.868	38.452	108.106	116.514	320.133	123.396	338.010	380.098	28.897	284.210	261.973	189.994	92.760	141.021	0.00011164	0.00046578	6.598e-05	524.06	3.3368e-06	3.4861e-06	573.01	173.75	1.7758e-06	5.8147e-07	187.46	55.03	52.868	13.414	2.4394e-06	16.997	0.00021646	0.00022696	6.4385e-05	515.7	2.3255e-06	2.5039e-06	555.88	169.18	2.3636e-06	2.4284e-06	182.57	54.404	51.936	13.676	2.4317e-06	17.071	157.089	104.058	252.566	39.397	240.123	122.472	37.864	44.292	329.753	131.257	40.936	45.396	48.858	53.654	165.282	49.007	-8191	255	
1728.515	1	1	0	0	0.078341	0.16298	0.093174	0.081598	0.028697	0.10597	0.12661	0.046175	0.24859	0.012823	0.16589	0.14827	0.28181	0.1542	0.02777	0.30257	-1.8021	-2.8375	-2.9813	-2.5438	-2.9	-2.6375	-2.4875	-3.2042	-2.5854	-2.6333	-3.0771	-2.1229	-3.0083	-2.8542	-2.125	-3.1271	31.006	87.593	347.265	371.017	220.049	192.067	70.795	189.498	151.417	78.455	220.573	230.313	385.522	322.129	305.167	55.437	0.00011148	0.00026356	0.00012508	545.02	3.5275e-06	7.9915e-07	587.72	172.84	4.4073e-06	2.1843e-06	187.59	54.384	52.431	13.472	1.617e-06	17.067	0.00021035	0.00021925	6.1668e-05	529.67	2.2807e-06	2.3942e-06	568.68	167.82	2.3207e-06	2.3791e-06	181.36	53.399	51.469	13.759	2.3888e-06	17.095	159.873	123.392	323.341	39.167	288.473	173.518	37.639	44.118	175.859	289.627	40.739	45.406	49.235	53.884	188.907	48.369	-8191	255	
1728.612	1	1	0	0	0.20272	0.17874	0.20175	0.086058	0.11874	0.12531	0.19647	0.26075	0.26367	0.20342	0.10202	0.1885	0.067637	0.070144	0.16854	0.29439	-2.3229	-2.5583	-3.2438	-2.4771	-2.9813	-2.8812	-2.3979	-3.1188	-2.5938	-2.5417	-3.1396	-2.5042	-2.8604	-2.8875	-2.3896	-3.0062	355.528	33.002	355.339	141.130	141.220	293.184	330.747	371.803	276.588	94.807	107.572	48.459	272.019	250.740	228.104	287.055	0.0001665	0.00015997	3.6923e-05	553.46	2.5135e-06	1.6089e-06	598.75	172.59	2.4233e-06	3.4448e-06	186.97	53.85	52.52	13.679	4.4573e-06	17.257	0.00021082	0.00021551	6.0424e-05	536.26	2.3184e-06	2.3742e-06	576.27	167.7	2.352e-06	2.3668e-06	181.67	53.401	51.386	13.829	2.3637e-06	17.197	154.512	199.403	330.841	39.500	332.809	255.806	37.537	44.114	222.692	161.880	40.947	45.183	49.216	53.207	333.637	48.899	-8191	255	
1728.732	1	1	0	0	0.15468	0.19055	0.274	0.3631	0.25673	0.35792	0.28062	0.081057	0.23073	0.17227	0.066421	0.10269	0.076104	0.28602	0.14488	0.042481	-2.1646	-2.6271	-2.9875	-2.3833	-2.8104	-2.6813	-2.3458	-3.0792	-2.7104	-2.4646	-3.0938	-2.6854	-2.7479	-3.0896	-2.2083	-2.9875	200.698	294.672	171.875	30.506	209.528	249.827	285.648	382.847	379.475	142.373	114.831	281.460	124.332	279.779	65.562	378.833	0.00014965	0.00013649	9.7025e-05	556.82	5.7861e-06	3.3196e-06	595.87	172.48	3.5029e-06	2.66e-06	187.17	54.026	51.701	13.71	2.5883e-06	17.591	0.00021358	0.0002185	5.8994e-05	541.25	2.3497e-06	2.3982e-06	579.23	167.57	2.4072e-06	2.4005e-06	181.01	53.291	50.925	13.918	2.3385e-06	17.553	117.793	171.055	281.217	39.406	156.059	187.802	37.754	44.472	363.402	250.697	41.087	45.383	49.126	53.893	44.145	47.970	-8191	255	
1728.827	1	1	0	0	0.14805	0.075409	0.15794	0.14284	0.10225	0.024865	0.099108	0.18885	0.10354	0.2738	0.032347	0.11711	0.098567	0.055748	0.047752	0.11507	-2.3979	-2.425	-3.2625	-2.4979	-2.6792	-3.0979	-2.4292	-2.9667	-2.7958	-2.6146	-2.9979	-2.7167	-2.4688	-3.1042	-2.3438	-2.8979	170.806	286.513	340.075	29.414	228.863	379.935	294.590	312.291	201.311	306.309	169.442	328.471	314.089	120.534	64.940	97.393	0.0001678	0.00023647	5.5734e-05	560.98	5.1457e-06	5.7253e-06	595.1	171.38	3.0712e-06	4.5903e-06	184.73	52.668	51.137	13.494	3.7298e-07	17.164	0.00022094	0.00022661	5.8775e-05	547.02	2.4279e-06	2.4975e-06	581.02	167.5	2.5111e-06	2.5378e-06	178.25	52.609	50.35	13.847	2.3954e-06	17.484	163.047	138.461	330.200	39.320	281.730	208.718	37.886	44.058	94.303	114.009	41.001	45.673	49.213	53.718	192.608	48.177	-8191	255	
1728.923	1	1	0	0	0.19696	0.19043	0.088411	0.23188	0.19704	0.046254	0.12707	0.4096	0.28347	0.1368	0.12012	0.053073	0.01148	0.36121	0.07013	0.050957	-2.525	-2.15	-3.025	-2.7021	-2.3104	-3.0646	-2.35	-2.9208	-2.8333	-2.5146	-2.9542	-2.7438	-2.4188	-3.1854	-2.5271	-2.8396	220.360	148.433	230.134	48.114	73.328	365.918	212.779	324.668	207.567	89.377	183.303	284.326	321.540	377.255	229.919	265.388	0.00013747	0.00021765	0.00018413	558.95	1.0688e-06	3.4899e-06	590.66	168.09	3.4046e-06	3.1198e-06	178.68	50.891	49.536	13.554	6.6459e-06	17.2	0.00023062	0.00023635	6.0223e-05	546.33	2.5702e-06	2.5743e-06	576.01	164.54	2.6625e-06	2.6136e-06	174.79	51.429	49.447	13.992	2.6245e-06	17.716	151.266	57.981	68.088	39.512	276.409	163.306	37.833	44.102	147.167	288.797	41.174	45.515	49.097	53.098	230.228	48.650	-8191	255	
1728.994	1	1	0	0	0.20155	0.032948	0.28481	0.19128	0.06574	0.089434	0.17945	0.30491	0.18428	0.22294	0.11827	0.35414	0.058315	0.32257	0.1543	0.14767	-2.6271	-2.2208	-2.9938	-2.7562	-2.3438	-2.9625	-2.4917	-2.7979	-2.95	-2.4146	-2.8833	-2.6625	-2.4708	-2.9813	-2.4896	-2.6083	190.840	329.421	49.131	350.979	171.583	81.928	69.351	284.509	384.219	244.052	123.538	302.852	335.537	64.865	297.462	95.945	0.00012079	0.00050537	6.4919e-05	556.11	5.8633e-06	1.7454e-06	586.98	163.47	3.1177e-06	4.6743e-06	175.43	49.491	47.926	13.989	1.8284e-06	17.571	0.00025788	0.00025173	6.8869e-05	547.44	2.9004e-06	2.7988e-06	575.42	162.16	3.0326e-06	2.9152e-06	174.2	50.925	48.89	14.615	3.1219e-06	18.534	94.965	375.842	89.791	39.590	193.584	298.921	37.738	44.370	166.087	341.657	41.172	45.803	49.013	53.631	126.648	48.539	-8191	255	
1729.115	1	1	0	0	0.037036	0.21185	0.086972	0.19326	0.12518	0.043258	0.15133	0.286	0.050572	0.26537	0.26984	0.12906	0.18104	0.20364	0.22879	0.21991	-2.7354	-2.4042	-2.7917	-3.05	-2.4042	-3.1479	-2.7292	-2.7521	-3.0417	-2.5062	-2.8646	-2.8167	-2.6104	-3.0417	-2.7	-2.5583	280.561	254.215	74.893	249.940	150.100	335.817	334.614	42.403	198.426	67.203	310.157	180.600	68.559	231.418	99.470	222.691	0.00016096	0.00029549	7.8829e-05	554.56	3.1939e-06	2.2727e-06	582.31	162.92	3.5035e-06	6.6506e-06	173.44	48.903	47.526	15.67	3.8025e-06	18.898	0.00029901	0.00029292	8.3124e-05	553.9	3.5559e-06	3.3252e-06	581.15	163.95	3.8064e-06	3.6738e-06	179.93	52.854	50.562	16.657	4.1522e-06	20.692	127.732	119.730	163.895	40.075	191.384	76.137	38.173	44.690	91.327	66.355	41.152	45.756	49.413	53.412	110.017	48.489	-8191	255	
1729.211	1	1	0	0	0.056776	0.15254	0.19141	0.27877	0.20013	0.055661	0.12037	0.11086	0.13781	0.18192	0.098082	0.21466	0.20415	0.06327	0.030817	0.097427	-2.8042	-2.5542	-2.6792	-3.1688	-2.2708	-2.9417	-2.7583	-2.5187	-3.0958	-2.5687	-2.9854	-2.8833	-2.3417	-3.1167	-2.75	-2.5896	363.093	107.319	82.428	54.189	282.741	165.971	386.056	200.073	92.507	40.528	369.903	336.722	376.660	40.751	302.587	292.449	6.826e-05	0.0010432	0.00010349	576.92	3.3834e-06	4.6621e-06	599.78	166.76	4.6129e-06	5.3941e-06	173.84	49.356	47.59	16.828	9.5426e-06	19.578	0.00038169	0.00036804	0.00010595	588.07	4.3026e-06	4.0523e-06	604.88	170.97	4.2823e-06	4.2212e-06	185.49	53.971	51.071	18.045	4.4726e-06	21.648	164.263	119.181	119.132	39.247	166.277	101.931	38.035	44.531	117.025	219.117	41.298	45.382	49.204	53.143	147.717	48.207	-8191	255	
1729.307	1	1	0	0	0.2696	0.28288	0.1137	0.053677	0.062075	0.071636	0.2131	0.28272	0.32089	0.27458	0.050603	0.076974	0.24556	0.068335	0.15719	0.1628	-2.6063	-2.3083	-2.6146	-3.0521	-2.3833	-2.9417	-3.075	-2.4854	-3.0875	-2.6271	-2.6646	-3.1813	-2.4271	-2.7875	-2.7646	-2.3208	167.368	289.105	239.569	208.755	158.473	238.764	306.477	363.578	335.141	58.995	291.913	214.110	191.376	80.778	157.508	248.807	0.00013391	0.00075681	0.0001438	586.94	1.9954e-06	9.9466e-06	599.69	170.19	2.4652e-06	3.3347e-06	175.53	49.348	48.623	17.398	1.1254e-06	19.605	0.0003839	0.00039234	0.00011073	599.82	4.1847e-06	4.136e-06	605.41	173.83	3.9645e-06	4.1349e-06	184.21	53.457	50.93	18.336	4.0885e-06	21.228	160.944	170.104	77.729	39.366	292.753	80.553	37.894	44.655	114.905	179.676	41.413	45.446	49.101	52.606	56.556	48.406	-8191	255	
1729.404	1	1	0	0	0.073017	0.13836	0.21036	0.30323	0.10802	0.24735	0.0988	0.35676	0.23451	0.049936	0.11767	0.10435	0.12964	0.081402	0.14499	0.36032	-2.3646	-2.55	-2.4896	-3.0792	-2.3729	-2.7125	-3.0333	-2.3708	-3.1646	-2.5833	-2.6042	-2.8	-2.3708	-2.6479	-2.9083	-2.4437	273.479	57.712	300.852	30.344	273.407	335.718	31.723	351.081	282.400	68.549	89.077	282.672	323.826	214.170	283.279	301.089	2.7511e-05	0.00062618	9.8481e-05	579.77	2.4472e-06	7.4395e-06	599.12	175.57	8.8798e-07	5.1724e-06	177.66	51.169	50.398	17.546	2.1731e-06	19.553	0.00033752	0.00036334	0.00010048	587.42	3.7226e-06	3.8361e-06	601.37	176.89	3.5929e-06	3.8313e-06	184.73	53.836	51.796	18.392	3.8331e-06	20.875	124.166	194.062	324.339	39.317	281.006	159.550	37.547	44.284	229.208	230.436	41.358	45.340	48.933	52.953	146.188	47.769	-8191	255	
1729.524	1	1	0	0	0.17833	0.18883	0.12588	0.062817	0.21088	0.17297	0.085163	0.12062	0.14478	0.1227	0.1081	0.16779	0.3765	0.19049	0.060707	0.22041	-2.4688	-2.775	-2.4938	-3.2104	-2.3792	-2.7562	-3.0187	-2.3771	-2.7542	-2.8146	-2.4979	-3.1437	-2.4979	-2.6333	-3.0208	-2.3542	64.402	350.950	141.669	262.485	315.911	342.675	100.710	109.821	276.041	384.676	315.745	94.173	66.254	123.328	77.306	183.797	0.00020509	0.00062904	0.00016434	579.52	3.9359e-06	4.6959e-06	600.91	177.8	2.4724e-06	8.1965e-06	180.32	51.677	50.957	17.904	4.5201e-06	19.915	0.00032269	0.00034579	9.6582e-05	582.88	3.6155e-06	3.7537e-06	601.3	178.4	3.5248e-06	3.7371e-06	186.17	53.982	52.597	18.616	3.6649e-06	20.799	138.503	163.429	51.105	39.114	269.669	148.606	37.553	44.207	80.089	273.494	41.359	45.226	49.161	52.697	242.395	48.154	-8191	255	
1729.596	1	1	0	0	0.23857	0.1814	0.046946	0.077403	0.11037	0.11434	0.25505	0.38698	0.22278	0.05547	0.21794	0.021201	0.26484	0.22943	0.0549	0.27073	-2.5021	-2.7125	-2.475	-3.1813	-2.7021	-2.8	-3.0625	-2.3375	-2.825	-2.8958	-2.3208	-3.1937	-2.5771	-2.625	-2.9729	-2.3458	190.128	180.564	299.887	162.069	272.268	196.261	57.501	361.842	235.444	56.823	270.276	133.257	287.069	317.323	274.881	48.242	0.0001575	0.0012843	9.4407e-05	583.03	2.4458e-06	1.3072e-06	606.72	181.68	4.0241e-06	8.7075e-06	185.16	52.426	52.307	18.456	4.4893e-06	19.957	0.00031532	0.00033107	9.1723e-05	580.29	3.4907e-06	3.5276e-06	605.05	180.31	3.4176e-06	3.5056e-06	188.26	54.164	53.25	18.846	3.3901e-06	20.647	171.407	86.488	306.622	39.098	183.001	235.372	37.595	44.387	296.097	257.270	41.070	45.020	48.781	52.767	232.024	48.349	-8191	255	
1729.692	1	1	0	0	0.1962	0.12774	0.16831	0.18419	0.24347	0.2427	0.073245	0.21694	0.16919	0.14945	0.055947	0.12812	0.068893	0.055784	0.29529	0.18576	-2.2167	-2.8625	-2.3021	-3.1896	-2.6792	-2.6125	-3.05	-2.7188	-2.7896	-2.7146	-2.3479	-3.0021	-2.6417	-2.6417	-2.9708	-2.5062	332.576	307.343	342.381	344.103	154.244	316.043	337.385	109.790	120.528	245.876	358.713	39.750	318.131	186.221	306.666	104.204	9.8073e-05	0.0004861	8.2161e-05	583.81	2.9519e-06	8.5117e-07	610.75	185.24	3.5651e-06	2.5439e-06	188.03	53.768	52.151	18.479	3.1086e-06	19.76	0.00030347	0.00031347	8.462e-05	577.56	3.3392e-06	3.3122e-06	603.76	183.06	3.1851e-06	3.2001e-06	186.91	54.376	53.03	18.61	2.941e-06	20.237	181.119	374.317	333.856	39.058	254.759	160.152	37.482	44.588	32.465	168.999	40.954	45.342	48.885	52.354	34.617	48.168	-8191	255	
1729.813	1	1	0	0	0.11503	0.10644	0.20312	0.26245	0.20814	0.035976	0.12128	0.11363	0.16761	0.13046	0.18041	0.024815	0.16064	0.11585	0.098596	0.20243	-2.1542	-3.0604	-2.3167	-2.9646	-2.8167	-2.5458	-3.2479	-2.625	-2.6437	-3.05	-2.6729	-2.8438	-2.8708	-2.4167	-3.0542	-2.6646	136.809	158.439	273.432	280.288	151.545	320.013	30.077	356.969	243.189	341.878	334.677	39.536	341.472	325.218	271.318	52.674	0.0001334	0.0007943	5.7973e-05	582.16	3.3925e-06	1.4204e-06	608.69	188.29	1.5486e-06	4.1469e-06	189.93	54.111	52.677	18.536	1.4322e-06	19.728	0.00027366	0.00027503	7.2887e-05	571.5	2.995e-06	2.9738e-06	598.22	183.81	2.9275e-06	2.9417e-06	186.2	54.436	52.939	18.468	2.6816e-06	20.055	169.306	92.462	321.248	39.141	204.819	60.275	37.616	43.845	82.233	60.406	41.247	45.463	48.913	52.693	221.012	48.031	-8191	255	
1729.907	1	1	0	0	0.19311	0.23245	0.10496	0.18236	0.016731	0.10889	0.06999	0.16682	0.12979	0.13667	0.15012	0.15341	0.073152	0.21466	0.099019	0.13173	-2.1396	-3.0958	-2.3187	-2.9021	-2.8438	-2.3917	-3.1792	-2.7625	-2.5	-3	-2.5708	-2.8563	-2.85	-2.4	-2.8979	-2.6458	242.802	234.566	336.554	60.708	59.719	103.773	191.887	106.216	164.698	83.273	103.152	312.581	117.671	335.184	276.103	357.869	0.0001121	0.00037222	4.3208e-05	579.93	1.2148e-06	3.1336e-06	612.47	189.83	2.1072e-06	4.5073e-06	193.51	54.834	53.059	18.342	2.6053e-06	19.682	0.00025683	0.0002548	6.7449e-05	568.24	2.8012e-06	2.7596e-06	595.52	185.22	2.7283e-06	2.6851e-06	188.11	55.021	53.063	18.299	2.5491e-06	19.912	150.860	361.098	153.008	39.602	155.347	230.589	37.584	43.911	63.456	147.910	40.771	45.037	48.839	52.376	135.577	48.254	-8191	255	
1730.003	1	1	0	0	0.18702	0.16312	0.17957	0.13405	0.15277	0.083527	0.18218	0.125	0.16011	0.16147	0.099121	0.11999	0.22078	0.15321	0.22111	0.12981	-1.9333	-2.9917	-2.3396	-2.9604	-2.85	-2.3854	-3.0771	-2.7396	-2.4313	-3.0125	-2.6396	-2.7313	-3.0417	-2.3021	-2.8229	-2.9562	140.873	65.282	152.877	187.506	225.583	84.670	364.791	363.007	59.058	168.980	86.108	265.816	384.016	118.712	28.040	244.446	0.00010558	0.00029289	0.00012166	579.72	4.4446e-06	5.2185e-06	610.56	192.79	3.6134e-06	2.8319e-06	196.75	55.948	54.044	18.159	4.3748e-06	19.489	0.00024652	0.00023871	6.5382e-05	565.58	2.7174e-06	2.6264e-06	593.18	187.9	2.6789e-06	2.5623e-06	190.83	55.805	53.495	17.935	2.5205e-06	19.49	126.010	101.096	192.075	39.306	226.288	61.566	37.268	43.996	229.811	142.444	40.503	45.203	49.289	52.546	107.584	48.089	-8191	255	
1730.124	1	1	0	0	0.059522	0.12822	0.13073	0.13734	0.15951	0.25308	0.096808	0.27268	0.037744	0.13407	0.16775	0.30667	0.076269	0.10151	0.26244	0.19998	-1.9458	-2.7792	-2.5771	-2.8417	-2.9562	-2.4667	-3.0083	-2.9021	-2.4708	-3.2021	-2.6312	-2.8042	-3.1021	-2.5438	-2.8896	-2.8292	208.467	87.382	180.005	124.384	140.879	75.409	303.047	31.086	243.271	76.174	52.640	262.820	129.992	335.446	370.810	183.080	9.054e-05	0.00058733	7.2133e-05	571.29	1.8404e-06	3.4442e-06	608.22	196.64	1.231e-06	1.8833e-06	200.17	57.113	54.392	17.949	4.0641e-06	18.877	0.00023507	0.00022233	6.4605e-05	558.23	2.5534e-06	2.4207e-06	589.38	190.71	2.5313e-06	2.3759e-06	194.08	56.329	53.485	17.598	2.4601e-06	18.994	118.671	257.281	339.124	39.513	107.637	192.959	37.578	43.992	177.169	32.794	41.026	44.983	48.981	52.733	60.433	48.008	-8191	255	
1730.220	1	1	0	0	0.1528	0.13561	0.092509	0.35117	0.28575	0.067771	0.40122	0.16557	0.26162	0.13159	0.089996	0.16834	0.10693	0.031869	0.17644	0.2125	-2.0062	-3.1375	-2.4417	-2.7562	-3.1833	-2.425	-2.8521	-3.0521	-2.2354	-3.0125	-2.9396	-2.3875	-3.075	-2.5854	-2.5771	-3.2	298.987	78.747	230.282	344.506	27.731	66.178	293.489	297.872	29.787	56.625	355.928	70.292	339.718	244.398	129.510	125.516	0.00016948	0.00035315	0.00014326	565.16	3.6144e-06	4.3395e-06	604.88	196.68	3.4905e-06	5.4992e-06	201.23	57.133	53.857	17.577	1.5692e-06	18.457	0.00022093	0.00021102	6.2582e-05	548.42	2.3915e-06	2.3113e-06	584.9	190.58	2.3756e-06	2.2835e-06	194.63	56.279	52.965	17.368	2.4312e-06	18.531	136.784	232.392	59.714	39.169	232.038	124.676	37.250	44.078	224.791	262.496	41.191	45.152	48.636	53.154	341.303	47.791	-8191	255	
1730.292	1	1	0	0	0.21304	0.1283	0.098874	0.25687	0.05219	0.33053	0.073629	0.060282	0.050952	0.18837	0.11186	0.082502	0.13146	0.24324	0.16996	0.16429	-1.6958	-2.85	-2.7521	-2.5917	-3.1521	-2.4437	-2.7958	-2.9125	-2.4917	-3.0104	-2.9688	-2.3708	-2.8937	-2.6854	-2.5625	-3.0021	359.438	118.539	116.209	366.920	358.211	165.386	91.684	122.436	212.137	159.581	283.590	139.189	323.767	54.606	162.850	357.044	0.0001821	0.00028331	8.5582e-05	557.13	3.6428e-06	5.4282e-06	597.14	196.42	4.2433e-06	4.5261e-06	203.54	57.414	54.325	17.496	2.5124e-06	18.457	0.00021384	0.00021256	6.2191e-05	544.2	2.2883e-06	2.3507e-06	580.1	190.48	2.3081e-06	2.3142e-06	195.9	56.487	53.199	17.353	2.3806e-06	18.426	163.846	201.029	380.881	38.832	199.709	163.378	37.687	43.891	155.843	38.318	40.347	45.251	48.280	52.876	178.554	48.106	-8191	255	
1730.412	1	1	0	0	0.20337	0.077553	0.023428	0.13563	0.13836	0.31001	0.054318	0.20673	0.1944	0.18149	0.20616	0.052938	0.19191	0.15879	0.2787	0.081631	-2.0771	-2.8458	-2.5958	-2.4021	-3.0417	-2.6875	-2.7479	-3.0417	-2.4396	-2.6896	-2.9958	-2.2333	-3.1875	-2.3583	-2.6583	-3.2021	107.303	367.373	328.952	274.944	139.880	60.028	195.238	371.683	373.857	217.408	145.014	311.541	347.036	52.922	295.761	154.616	8.2208e-05	0.00025872	5.1813e-05	555.71	1.3354e-06	7.9284e-06	595.3	198.58	3.9964e-06	5.9785e-06	205.39	57.455	54.752	17.458	1.5073e-06	18.279	0.00020541	0.00021408	6.1265e-05	541.34	2.2376e-06	2.4075e-06	577.37	191.22	2.2756e-06	2.3666e-06	197.15	56.696	53.512	17.294	2.4039e-06	18.277	180.478	168.170	361.801	39.388	313.190	141.975	37.435	43.807	221.806	223.156	41.053	44.868	48.978	52.062	221.603	47.996	-8191	255	
1730.508	1	1	0	0	0.25919	0.1778	0.20133	0.11241	0.21245	0.22989	0.038694	0.27058	0.074189	0.22351	0.24011	0.079157	0.01745	0.13335	0.094931	0.082052	-2.0271	-2.9062	-2.7854	-2.5458	-2.8521	-2.6958	-2.4375	-3.0354	-2.6063	-2.5312	-3.0667	-2.2271	-3.0375	-2.6375	-2.3896	-2.9854	138.960	51.062	248.054	89.909	300.449	127.803	144.869	49.748	152.971	173.830	304.900	346.342	125.103	251.468	79.471	264.200	0.00012693	0.00039645	0.00010944	548.98	5.0263e-06	3.8091e-06	591.76	199	6.8461e-06	1.7519e-06	207.43	58.296	55.355	17.454	2.4699e-06	17.963	0.00020633	0.00021792	6.1503e-05	536.29	2.2849e-06	2.4458e-06	574.54	191.51	2.3445e-06	2.4228e-06	198.63	57.34	54.176	17.249	2.4187e-06	17.933	129.543	39.769	322.790	39.185	211.436	265.522	37.495	43.739	177.025	224.241	40.603	45.052	48.681	52.367	56.959	48.406	-8191	255	
1730.605	1	1	0	0	0.057564	0.24015	0.17413	0.21853	0.12713	0.11307	0.1257	0.33988	0.23714	0.40233	0.1326	0.20131	0.36992	0.18927	0.1615	0.17105	-2.1479	-2.5833	-2.9125	-2.425	-2.9417	-2.7979	-2.2771	-3.1479	-2.4562	-2.7104	-2.9688	-2.3708	-2.8458	-2.6896	-2.3375	-3.1292	80.493	150.381	278.208	33.811	288.423	99.203	341.443	290.535	367.975	44.050	366.773	326.944	46.027	33.296	231.461	36.742	0.00014582	0.00051555	7.4691e-05	533.85	3.64e-06	1.1183e-06	576.44	197.92	1.4536e-06	2.6842e-06	206.92	58.861	56.023	17.324	6.1749e-07	17.656	0.00021443	0.00022051	6.1483e-05	523.54	2.365e-06	2.4255e-06	560.7	190.89	2.429e-06	2.4592e-06	198.65	57.531	54.729	17.112	2.4393e-06	17.653	142.852	132.286	360.923	39.233	301.077	319.711	37.542	43.999	311.711	116.467	40.463	44.968	48.713	52.520	89.267	48.222	-8191	255	
1730.701	1	1	0	0	0.28751	0.16072	0.11859	0.24684	0.20876	0.094183	0.2371	0.15994	0.13765	0.40945	0.19604	0.13467	0.11701	0.080225	0.10401	0.052138	-2.0187	-2.4	-2.8417	-2.4188	-2.6729	-2.8229	-2.3563	-3.2833	-2.5771	-2.4104	-3.0917	-2.3625	-2.7458	-2.9583	-2.3792	-3.1229	103.910	288.353	310.680	245.512	342.133	232.470	319.832	77.021	67.153	173.210	350.544	311.740	363.594	237.378	367.762	303.048	9.0681e-05	0.00025915	6.4736e-05	534.76	1.5631e-06	3.4977e-06	568.67	198.72	9.5708e-07	4.7684e-06	208.36	59.388	56.414	17.196	3.4818e-06	17.727	0.00022051	0.00022318	6.0415e-05	519.48	2.3564e-06	2.4333e-06	554.85	190.87	2.4287e-06	2.3962e-06	198.61	58.141	55.038	16.97	2.3729e-06	17.682	160.937	385.680	64.579	39.128	276.885	92.774	37.936	44.093	231.305	219.111	40.532	45.023	48.790	52.413	229.187	48.312	-8191	255	
1730.820	1	1	0	0	0.09919	0.21097	0.15389	0.033999	0.23609	0.15079	0.30634	0.23299	0.18933	0.21724	0.1179	0.036825	0.15638	0.12721	0.10269	0.051654	-2.3354	-2.5083	-3.025	-2.5229	-2.675	-3	-2.4854	-3.0042	-2.8229	-2.45	-3.1104	-2.4167	-2.5979	-3	-2.3771	-2.8187	353.853	215.511	74.045	167.520	184.624	167.287	372.494	189.956	372.150	198.952	69.004	175.060	72.909	318.955	377.223	74.760	0.00014478	0.00065387	7.9517e-05	535.04	2.7068e-06	3.2638e-06	570.78	197.56	2.1699e-06	3.0762e-06	208.31	59.998	56.567	17.138	6.5102e-06	17.766	0.00022118	0.00022253	5.9009e-05	519.34	2.4274e-06	2.4118e-06	554.13	191.05	2.4777e-06	2.4353e-06	198.35	58.834	55.26	17.02	2.3108e-06	17.814	135.463	89.803	241.526	39.208	297.719	205.043	37.422	43.789	234.081	139.070	40.649	45.426	48.842	52.851	204.277	47.846	-8191	255	
1730.891	1	1	0	0	0.13497	0.077789	0.27788	0.11171	0.14535	0.083368	0.31329	0.097153	0.075786	0.20904	0.1161	0.18872	0.10686	0.20445	0.24345	0.17069	-2.2583	-2.2896	-2.8937	-2.6708	-2.5542	-3.1479	-2.3417	-3.0146	-2.7125	-2.2167	-3.1312	-2.7188	-2.6188	-3.0229	-2.5438	-2.7417	55.577	203.204	276.580	231.025	185.710	208.940	206.584	296.800	313.325	201.299	354.578	379.541	257.133	241.895	124.959	94.614	0.00018785	0.00021548	6.5073e-05	529.17	5.6794e-06	1.0685e-06	568.92	198.11	9.9098e-07	2.9382e-06	209.75	60.759	56.669	17.124	5.6564e-06	17.896	0.00022171	0.00022235	5.7766e-05	517.09	2.4421e-06	2.4142e-06	551.57	191.22	2.4629e-06	2.4419e-06	200.13	59.533	55.736	16.993	2.3163e-06	17.99	159.819	213.758	315.800	39.285	65.702	43.387	37.601	43.795	300.262	197.850	40.465	45.429	48.740	52.905	198.329	48.384	-8191	255	
1730.987	1	1	0	0	0.24654	0.011386	0.22468	0.17354	0.36847	0.11029	0.037382	0.13603	0.22501	0.16406	0.23095	0.10928	0.085722	0.25305	0.16679	0.10072	-2.5958	-2.3146	-3.0771	-2.7562	-2.5083	-2.8958	-2.6271	-2.775	-3.0021	-2.3292	-3.2062	-2.6125	-2.5104	-3.1708	-2.5104	-2.5396	305.720	375.778	50.563	178.352	89.255	172.603	92.166	314.602	158.843	253.611	352.607	80.040	300.587	47.093	186.033	49.957	0.00021228	0.00075613	3.8743e-05	522.09	3.3929e-06	2.8089e-07	562.49	197.89	2.1806e-06	4.1929e-06	209.73	61.073	57.146	17.041	4.9736e-06	17.76	0.00022119	0.00021708	5.816e-05	512.8	2.4192e-06	2.355e-06	548.32	191.06	2.4461e-06	2.3715e-06	199.98	59.881	55.902	16.805	2.3204e-06	17.832	129.924	115.501	217.530	39.363	221.126	83.790	37.636	44.066	229.051	202.051	40.429	45.005	48.369	52.368	223.087	47.754	-8191	255	
1731.084	1	1	0	0	0.14704	0.16492	0.14738	0.24339	0.22215	0.091925	0.17352	0.15791	0.069456	0.3379	0.11786	0.13095	0.21517	0.35814	0.17684	0.25608	-2.3688	-2.1562	-3.0167	-2.6583	-2.5208	-3.0563	-2.6625	-2.5625	-2.9813	-2.2062	-3.0229	-2.9125	-2.3563	-3.0604	-2.6167	-2.6271	54.461	247.511	212.735	311.791	120.178	352.521	281.679	261.287	84.192	156.046	363.377	285.849	51.287	107.327	197.019	193.344	0.0001684	0.00019001	0.00010382	520.54	3.3834e-06	5.4059e-06	560.59	196.74	3.3917e-06	3.397e-06	207.71	61.173	57.467	16.663	1.6654e-06	17.572	0.00021615	0.00020783	5.8272e-05	507.38	2.3748e-06	2.2234e-06	545.45	189.76	2.3416e-06	2.2624e-06	199.16	59.817	55.719	16.442	2.3354e-06	17.757	122.710	65.118	170.378	39.260	291.640	197.809	37.768	43.880	271.817	168.512	40.253	45.366	48.505	52.304	112.081	48.273	-8191	255	
1731.204	1	1	0	0	0.1916	0.14272	0.12947	0.16949	0.23186	0.21024	0.1861	0.021141	0.21575	0.11739	0.16694	0.070756	0.15746	0.16233	0.14837	0.14335	-2.5708	-2.3646	-2.9208	-2.7146	-2.5542	-2.9229	-2.8917	-2.5563	-3.1792	-2.3958	-2.7188	-3.0979	-2.3229	-3.1104	-2.6	-2.5958	220.972	54.267	229.954	228.419	102.670	122.865	194.843	264.775	48.567	210.390	345.650	223.899	107.685	356.757	223.971	44.247	0.00019661	0.00016799	9.5172e-05	512.3	2.4333e-06	5.4055e-06	559.63	194.94	1.9605e-06	2.9973e-06	210.82	62.264	57.866	16.388	3.0965e-06	18.319	0.00021172	0.000203	5.7792e-05	500.81	2.3132e-06	2.1674e-06	543.99	187.9	2.238e-06	2.1747e-06	201.16	60.672	56.009	16.18	2.251e-06	18.087	122.528	148.730	371.898	39.089	367.903	365.699	37.490	43.948	144.148	155.339	40.694	45.193	48.460	52.656	69.491	47.881	-8191	255	
1731.300	1	1	0	0	0.29039	0.32952	0.17283	0.097574	0.28678	0.16784	0.13633	0.080764	0.11678	0.078496	0.35153	0.31423	0.10615	0.0042946	0.11418	0.37725	-2.7	-2.2854	-2.8146	-3.075	-2.3688	-2.9604	-2.8542	-2.7292	-3.175	-2.5458	-2.7083	-2.8521	-2.4042	-2.95	-3	-2.2708	60.485	276.570	126.000	33.609	185.019	140.566	61.856	43.678	168.597	172.648	247.741	364.055	300.044	211.916	35.720	278.576	6.0746e-05	0.00031748	7.8658e-05	508.64	2.0826e-06	3.3472e-06	562.53	191.77	3.0694e-06	3.2273e-06	213.11	63.609	58.275	15.42	6.4456e-07	17.819	0.00019662	0.00019709	5.6469e-05	499.32	2.1753e-06	2.1333e-06	542.44	184.71	2.1428e-06	2.1888e-06	202.14	61.704	56.683	15.35	2.2635e-06	17.8	127.958	170.398	74.781	39.474	234.476	62.091	37.873	44.291	198.676	207.510	40.672	44.823	48.582	53.061	173.490	48.056	-8191	255	
1731.397	1	1	0	0	0.1534	0.040374	0.3046	0.25604	0.12729	0.18084	0.090924	0.23928	0.056586	0.13734	0.074816	0.11666	0.098691	0.12798	0.14995	0.107	-2.6688	-2.6021	-2.4396	-3.1896	-2.4104	-2.7417	-2.8646	-2.2458	-3.2812	-2.4417	-2.6854	-3.0646	-2.3021	-2.7812	-2.9	-2.3479	36.850	296.155	145.395	319.500	155.064	202.570	87.103	307.874	192.724	32.448	218.065	311.754	64.555	36.336	202.895	338.431	0.00011354	0.00049446	0.00017233	506.79	5.763e-06	1.7664e-06	557.66	187.58	3.7848e-06	5.4166e-06	211.36	64.511	59.516	14.948	3.8442e-06	17.63	0.00019328	0.00020346	5.674e-05	494.68	2.1211e-06	2.1724e-06	542.09	180.85	2.0902e-06	2.2139e-06	200.6	62.607	57.306	14.982	2.2387e-06	17.666	177.303	167.661	359.247	39.570	191.467	248.462	37.983	44.084	247.125	80.308	40.659	45.045	48.819	52.639	249.122	48.363	-8191	255	
1731.493	1	1	0	0	0.018399	0.2868	0.16054	0.20681	0.2218	0.20105	0.18397	0.059544	0.12391	0.091383	0.31675	0.13066	0.2848	0.065214	0.18463	0.1946	-2.6458	-2.3208	-2.5521	-3.025	-2.45	-2.8292	-2.8021	-2.4354	-3.1042	-2.8042	-2.4146	-2.9167	-2.65	-2.725	-3.0542	-2.3187	341.893	320.265	96.952	169.208	179.659	304.847	265.916	369.695	188.725	245.246	51.178	351.871	254.889	184.666	128.702	210.857	0.00014681	0.00023778	2.5079e-05	506.17	3.2101e-06	1.4451e-06	553.98	187.72	5.232e-06	4.867e-06	208.1	63.173	58.77	14.801	3.0393e-06	17.416	0.00018953	0.00020583	5.6943e-05	492.36	2.1407e-06	2.2331e-06	538.42	181.03	2.1136e-06	2.2295e-06	199.66	61.196	56.704	14.742	2.2483e-06	17.277	143.774	46.817	230.026	39.326	134.655	279.990	37.976	43.911	166.479	214.350	40.732	45.349	48.597	53.532	212.397	48.090	-8191	255	
1731.589	1	1	0	0	0.11408	0.17345	0.35465	0.16672	0.46191	0.15064	0.28494	0.14423	0.20465	0.07387	0.24523	0.25573	0.13376	0.074696	0.16786	0.14253	-2.4625	-2.7208	-2.4146	-3.0875	-2.4604	-2.7625	-3.075	-2.4042	-2.9271	-2.8854	-2.4813	-3.2292	-2.6271	-2.7375	-2.9562	-2.2979	247.697	173.270	301.461	262.995	136.755	84.624	323.899	286.909	227.343	165.853	219.950	191.199	269.878	228.936	262.334	374.417	0.0001829	3.9875e-05	7.6579e-05	503.55	2.2891e-06	7.1945e-06	554	185.58	4.3426e-06	4.8577e-07	208.45	62.955	58.111	14.463	3.5741e-06	17.24	0.00019044	0.00020104	5.5787e-05	489.09	2.1151e-06	2.1781e-06	537	178.44	2.1248e-06	2.2201e-06	198.06	60.804	56.372	14.412	2.2326e-06	17.166	162.783	220.774	292.814	39.191	296.765	179.476	37.753	44.062	203.693	93.908	40.686	45.092	48.725	52.740	345.549	47.711	-8191	255	
1731.685	1	1	0	0	0.18782	0.24498	0.12966	0.15745	0.19911	0.23175	0.19435	0.15867	0.10556	0.17141	0.30039	0.26957	0.19743	0.27232	0.18825	0.1421	-2.5229	-2.7167	-2.4688	-2.85	-2.6813	-2.6771	-3.1604	-2.3083	-2.8021	-3.0771	-2.1583	-2.9292	-2.75	-2.525	-3.1208	-2.4313	359.287	35.518	74.005	40.514	383.733	336.049	337.568	229.013	71.587	306.145	156.457	86.462	40.008	109.660	56.111	355.057	0.00011943	0.00049193	8.5568e-05	496.17	2.1026e-06	2.2488e-06	548.5	184.02	1.5485e-06	5.1722e-06	206.69	62.78	57.854	14.291	4.8902e-06	17.377	0.00019796	0.00020594	5.7254e-05	482.31	2.2233e-06	2.2451e-06	531.51	177.25	2.1967e-06	2.262e-06	197.52	60.629	56.352	14.322	2.2105e-06	17.239	154.188	88.351	104.262	39.204	192.517	336.582	37.788	43.917	237.716	253.701	41.093	45.184	48.566	53.772	151.392	48.409	-8191	255	
1731.806	1	1	0	0	0.038018	0.098136	0.10274	0.14007	0.042872	0.18908	0.11888	0.029242	0.23104	0.070188	0.25547	0.087741	0.064942	0.094176	0.27965	0.082867	-2.2292	-2.8792	-2.3083	-2.8292	-2.6937	-2.2417	-3.2979	-2.5729	-2.7521	-3.2083	-2.3563	-3.1188	-2.6458	-2.5208	-3.1792	-2.3896	189.373	341.501	369.330	77.585	61.412	211.675	351.288	277.236	135.407	167.271	194.528	187.720	27.351	322.137	192.490	331.561	0.00022139	0.00038504	5.9854e-05	498.11	3.2498e-06	3.8017e-06	552.67	186.01	2.2161e-06	5.5612e-06	211.13	63.379	58.534	14.286	1.8445e-06	17.644	0.00020036	0.00020644	5.6034e-05	484.63	2.2526e-06	2.2497e-06	535.75	178.74	2.1984e-06	2.2397e-06	199.33	61.532	56.943	14.33	2.0648e-06	17.334	184.415	45.955	128.578	39.489	157.259	158.131	37.767	43.888	121.612	116.237	40.665	44.892	48.472	52.773	372.283	48.456	-8191	255	
1731.900	1	1	0	0	0.21289	0.21495	0.17427	0.24071	0.11741	0.20317	0.20852	0.075592	0.11673	0.1694	0.041834	0.08048	0.25416	0.053387	0.25969	0.10291	-2.3063	-2.9708	-2.475	-2.9	-2.725	-2.3042	-3.1521	-2.8146	-2.6188	-3.2083	-2.4521	-2.7375	-2.775	-2.2625	-3.2646	-2.6021	259.586	354.070	284.497	308.957	148.487	109.724	301.581	265.311	36.648	287.606	271.017	280.712	355.359	170.380	266.756	309.377	0.00011016	0.00023263	0.00013572	503.55	2.4388e-06	3.2799e-06	558.71	184.2	3.9227e-06	2.7043e-06	207.84	63.968	58.816	13.828	4.7807e-06	16.712	0.00019508	0.00020124	5.2761e-05	487.21	2.1579e-06	2.2077e-06	537.86	177.13	2.1432e-06	2.1738e-06	196.29	61.38	56.949	13.985	2.0108e-06	16.639	163.916	39.160	156.476	39.529	266.149	183.264	37.649	44.129	222.936	130.556	40.704	45.207	49.112	52.778	141.890	47.891	-8191	255	
1731.996	1	1	0	0	0.21134	0.064874	0.075398	0.068712	0.18104	0.11633	0.27804	0.13585	0.23169	0.13432	0.19766	0.3169	0.079286	0.10836	0.12235	0.32904	-1.8396	-3.0583	-2.3563	-2.8896	-2.8479	-2.3125	-3.0625	-2.7917	-2.5271	-2.9583	-2.6083	-2.6771	-3.0687	-2.2542	-2.9313	-2.7583	308.982	282.657	78.092	308.637	163.881	234.999	77.344	262.118	169.397	42.875	315.133	329.554	286.886	184.864	270.642	59.011	0.00013981	0.00037631	5.093e-05	500.12	7.8516e-07	4.2668e-06	557.16	182.48	4.2684e-06	3.0017e-06	205.7	63.579	59.142	13.922	1.806e-06	16.348	0.00019384	0.00019383	5.2805e-05	486.94	2.1579e-06	2.142e-06	538.54	176.05	2.1585e-06	2.1027e-06	194.34	61.316	56.992	13.959	2.05e-06	16.411	166.624	247.329	112.863	39.482	157.421	149.001	37.777	44.255	259.038	264.811	40.702	45.421	48.677	53.183	119.626	48.069	-8191	255	
1732.092	1	1	0	0	0.24825	0.26535	0.085632	0.038834	0.18218	0.071408	0.12377	0.15194	0.22497	0.18856	0.20957	0.039725	0.13348	0.058714	0.12527	0.2998	-2.0438	-3.1437	-2.3833	-2.8208	-2.8187	-2.2625	-3.0667	-2.9646	-2.3708	-3.1521	-2.4396	-2.775	-3.1083	-2.175	-2.9062	-2.9396	208.437	290.134	73.661	282.030	252.443	342.664	145.995	314.452	320.308	206.563	185.186	300.349	66.715	100.951	210.082	132.358	0.00016134	0.00028573	7.6855e-05	503.05	2.1202e-06	2.9017e-06	556.6	181.81	2.3841e-06	5.6002e-06	207.49	62.526	57.996	14.04	2.0161e-06	16.39	0.00019706	0.00018754	5.2783e-05	489.28	2.1401e-06	2.0797e-06	539.17	175.75	2.1732e-06	2.0166e-06	196.32	60.776	56.495	13.94	2.0747e-06	16.523	151.380	383.144	386.164	39.616	107.818	32.615	37.817	44.244	137.195	136.296	41.014	45.270	48.536	53.483	177.783	48.518	-8191	255	
1732.188	1	1	0	0	0.23029	0.24948	0.2884	0.1265	0.088793	0.04497	0.29664	0.10267	0.18021	0.25895	0.23908	0.2839	0.085848	0.11193	0.16731	0.15972	-1.9521	-2.9146	-2.5812	-2.7604	-3.0625	-2.3375	-2.7833	-2.9146	-2.3333	-3.0271	-2.6354	-2.3896	-3.1125	-2.3604	-2.7542	-3.1125	127.397	180.315	165.045	146.775	214.939	309.380	265.961	364.164	112.080	36.385	282.095	76.417	273.568	370.976	65.955	302.493	0.00010499	0.00023903	9.5855e-05	507.75	2.9095e-06	2.9003e-07	569.91	184.18	2.983e-06	4.0433e-06	210.26	62.22	57.98	14.102	3.6435e-06	16.547	0.00019599	0.00018221	5.3226e-05	494.19	2.112e-06	2.0293e-06	548.78	177.56	2.1189e-06	1.9808e-06	197.99	60.009	55.963	13.912	2.0583e-06	16.418	103.920	99.304	140.083	39.571	223.197	169.334	37.911	44.232	356.545	192.832	41.099	45.251	48.835	53.143	85.430	48.605	-8191	255	
1732.285	1	1	0	0	0.094405	0.13895	0.2666	0.18576	0.068968	0.055278	0.19878	0.155	0.22602	0.14734	0.0064354	0.087257	0.25015	0.21617	0.21559	0.10164	-1.7917	-2.9771	-2.5521	-2.6229	-3.1125	-2.3875	-2.6375	-3.2	-2.3438	-3.0271	-2.9188	-2.4854	-3.1188	-2.4708	-2.7083	-3.0229	332.398	332.377	75.978	328.490	374.472	375.393	323.893	361.034	221.137	78.474	280.030	333.379	307.641	168.407	157.531	212.523	8.8927e-05	0.0003654	4.0044e-05	512.39	1.3226e-06	3.251e-06	573.72	182.78	7.4969e-07	2.4342e-06	206.39	60.81	56.476	13.791	3.5133e-06	16.28	0.00018729	0.00018186	5.3203e-05	499.63	2.0598e-06	2.0727e-06	552.31	176.56	2.1219e-06	2.0725e-06	196.04	58.986	54.965	13.804	2.157e-06	16.326	140.286	79.141	363.888	39.730	220.362	176.644	37.663	44.301	200.725	311.470	40.418	45.223	48.816	52.977	118.190	48.061	-8191	255	
1732.381	1	1	0	0	0.13258	0.25102	0.11602	0.032893	0.013569	0.086257	0.18803	0.20846	0.078921	0.31887	0.16509	0.17078	0.060687	0.33949	0.10142	0.225	-1.9375	-2.9625	-2.8083	-2.6479	-3.0646	-2.4313	-2.6479	-3.0729	-2.3354	-2.8479	-3.0021	-2.3479	-3.2292	-2.4708	-2.6708	-2.9604	96.751	88.702	163.506	79.478	309.305	90.447	352.525	354.697	104.048	265.362	335.558	37.688	36.586	120.340	255.178	324.505	5.1196e-05	9.9826e-05	4.9307e-05	510.12	1.3577e-06	4.7937e-06	562.28	181.53	1.4442e-06	7.669e-06	203.24	57.674	55.07	13.847	2.1209e-06	16.887	0.00019285	0.00019498	5.58e-05	494.62	2.0974e-06	2.1801e-06	545.29	176.13	2.1541e-06	2.1532e-06	194.4	56.818	53.226	13.855	2.2266e-06	16.949	147.437	54.873	332.578	39.456	313.047	298.185	37.838	43.731	141.194	284.451	41.140	44.998	48.643	53.717	214.166	48.482	-8191	255	
1732.477	1	1	0	0	0.15857	0.21586	0.052352	0.052902	0.13353	0.088706	0.16083	0.069326	0.0644	0.33017	0.065917	0.17872	0.14448	0.07555	0.099721	0.070273	-1.9292	-2.6813	-3.1021	-2.2542	-3.1208	-2.8854	-2.5458	-3.1333	-2.5438	-2.95	-3.0875	-2.4	-3.1	-2.7646	-2.6312	-3.0458	114.684	139.714	259.847	368.391	363.659	311.598	353.785	226.941	322.150	49.612	113.530	293.010	315.693	209.737	272.867	323.051	9.4658e-05	0.00041625	9.4903e-05	511.85	1.6166e-06	1.9879e-06	560.71	182.44	3.641e-06	3.8491e-06	202.42	56.525	52.809	13.864	3.2837e-06	17.889	0.00019569	0.00020084	5.819e-05	499.6	2.1351e-06	2.2862e-06	544.04	176.67	2.2228e-06	2.2979e-06	193.94	55.382	51.611	14.087	2.4058e-06	17.897	131.817	115.430	337.747	39.193	110.540	347.652	37.616	43.923	232.477	63.867	40.673	44.717	48.969	53.806	228.244	48.140	-8191	255	
1732.598	1	1	0	0	0.12576	0.31214	0.11985	0.12465	0.1351	0.17894	0.25856	0.27963	0.042463	0.065546	0.032171	0.14773	0.075408	0.11407	0.23497	0.11694	-2.0979	-2.6354	-3.1583	-2.4083	-3.0187	-2.9292	-2.5458	-3.1208	-2.5875	-2.7896	-3.2042	-2.4	-3.0479	-2.9583	-2.4417	-3.15	313.705	358.721	182.030	181.632	241.301	340.430	365.113	284.927	128.054	340.544	302.558	45.717	96.912	310.101	292.283	90.544	0.00015907	0.00012896	7.658e-05	513.38	9.4511e-07	2.5703e-07	567.66	182.97	2.4892e-06	2.7443e-06	201.57	55.549	51.155	14.334	3.9841e-06	18.768	0.0002079	0.00021734	6.203e-05	503.24	2.2936e-06	2.3974e-06	550.37	176.91	2.3844e-06	2.4097e-06	193.44	54.504	50.422	14.416	2.416e-06	18.529	142.116	352.786	133.304	39.433	201.427	277.943	37.792	43.875	191.164	155.925	40.664	45.452	49.105	52.834	207.332	47.556	-8191	255	
1732.692	1	1	0	0	0.049303	0.15811	0.13969	0.26265	0.28153	0.30259	0.30238	0.16286	0.065806	0.14864	0.18596	0.12706	0.040921	0.048411	0.12299	0.13187	-2.2812	-2.6813	-2.8833	-2.5771	-2.9042	-2.9062	-2.4188	-3.1146	-2.6229	-2.5687	-3.1771	-2.4313	-2.8042	-2.8854	-2.3167	-3.1979	175.809	347.471	208.723	61.093	294.213	86.411	334.628	331.128	36.542	173.882	86.068	42.627	206.755	363.061	362.408	197.218	0.00014406	0.00079377	1.9594e-05	519.87	4.2122e-06	2.6346e-06	577.43	183.13	1.3256e-06	3.7089e-06	201.39	54.534	50.502	14.597	2.523e-06	19.205	0.00021297	0.00021769	6.1031e-05	509.38	2.3124e-06	2.3806e-06	559.34	176.82	2.3687e-06	2.366e-06	193.03	53.484	49.502	14.719	2.3204e-06	18.959	125.777	83.018	374.922	39.384	205.415	253.702	37.562	44.132	184.916	278.642	40.971	45.187	49.468	53.347	248.572	48.179	-8191	255	
1732.765	1	1	0	0	0.25801	0.099937	0.089873	0.21101	0.21662	0.19767	0.23705	0.15085	0.077952	0.10433	0.18269	0.19943	0.1905	0.13953	0.14735	0.2573	-2.0979	-2.6354	-3.0021	-2.3875	-2.8396	-3.0083	-2.4188	-2.9792	-2.7646	-2.45	-3.025	-2.7313	-2.6333	-2.8667	-2.2771	-3.0062	369.077	162.627	250.296	42.822	103.174	125.412	362.722	288.343	210.174	294.093	140.175	62.995	115.736	130.279	216.814	245.302	8.2967e-05	0.00024895	4.918e-05	531.75	5.0094e-07	2.0327e-06	581.8	181.5	2.589e-06	3.1633e-06	197.51	53.725	49.686	14.672	2.3536e-06	19.069	0.0002142	0.00021783	5.8322e-05	517.46	2.3225e-06	2.3446e-06	561.17	175.84	2.3588e-06	2.3718e-06	189.53	52.801	48.937	14.775	2.2653e-06	18.765	145.693	164.785	329.124	39.284	72.798	151.213	37.401	44.292	110.277	144.990	40.809	45.579	49.446	53.117	135.473	48.363	-8191	255	
1732.886	1	1	0	0	0.13326	0.38346	0.18991	0.11094	0.31099	0.079834	0.33233	0.15251	0.18181	0.051626	0.17147	0.0393	0.012008	0.37638	0.42802	0.18138	-2.4313	-2.5687	-3.0312	-2.6625	-2.7646	-3.2396	-2.525	-3.0646	-2.6354	-2.6688	-3.1583	-2.5833	-2.6292	-2.8937	-2.3812	-2.8729	80.447	242.982	150.038	240.141	344.589	110.435	315.635	246.606	130.696	190.531	276.498	125.377	224.629	359.126	343.399	344.058	0.00011171	0.0004333	0.00012934	532.9	5.029e-07	8.9594e-07	582.4	180.92	2.0347e-06	2.3412e-06	196.38	53.49	49.383	14.787	6.1772e-07	19.123	0.0002111	0.00021469	5.5881e-05	518.22	2.2933e-06	2.3384e-06	559.79	175.17	2.3058e-06	2.3164e-06	187.78	52.785	48.789	14.785	2.1788e-06	18.793	146.672	92.433	77.316	39.601	223.124	155.934	37.784	43.734	277.133	246.490	40.684	45.316	48.755	53.226	297.856	48.051	-8191	255	
1732.980	1	1	0	0	0.077007	0.043176	0.066561	0.090415	0.32262	0.056574	0.088877	0.041419	0.27868	0.15047	0.098946	0.28425	0.10156	0.070451	0.1551	0.20657	-2.4708	-2.2667	-2.9333	-2.5479	-2.6771	-2.9146	-2.5021	-2.8146	-2.8854	-2.275	-3.0042	-2.7646	-2.5333	-2.9271	-2.625	-2.7812	57.462	213.233	215.528	265.068	152.174	273.697	116.999	238.422	244.697	54.722	366.764	336.665	317.570	310.666	347.850	70.832	0.00014271	0.00040552	4.7947e-05	533.75	5.0004e-07	2.1728e-06	577	181.61	2.9927e-06	5.5084e-06	199.73	54.458	50.031	14.698	4.1629e-06	19.018	0.00020743	0.0002084	5.4266e-05	517.19	2.2575e-06	2.2273e-06	559.72	175.9	2.2474e-06	2.1986e-06	189.25	53.369	49.268	14.663	2.1201e-06	18.725	134.924	300.468	182.350	39.463	306.467	150.329	37.787	44.312	138.311	336.618	40.890	45.286	48.829	53.356	117.923	48.005	-8191	255	
1733.077	1	1	0	0	0.16511	0.25654	0.27391	0.21058	0.092582	0.31021	0.19762	0.17845	0.016809	0.11109	0.0077873	0.10524	0.0082116	0.12313	0.14567	0.026019	-2.4292	-2.4208	-2.9167	-2.7792	-2.2604	-3.2396	-2.475	-2.8792	-2.9458	-2.2792	-3.1312	-2.7667	-2.3979	-2.9375	-2.5396	-2.7	345.345	273.868	119.969	159.581	272.713	49.546	344.207	376.601	136.172	35.520	129.997	372.283	168.943	359.800	153.771	33.964	0.00014006	0.00049476	5.2417e-05	531.17	1.9183e-06	2.4328e-06	578	183.54	1.6843e-06	2.57e-06	202.03	55.694	51.456	14.578	5.2867e-06	18.752	0.0002037	0.00019748	5.3697e-05	515.41	2.2368e-06	2.1263e-06	557.88	177.19	2.2338e-06	2.1325e-06	192.59	54.555	50.49	14.482	2.1764e-06	18.524	136.100	74.780	49.757	39.283	120.083	340.406	37.795	44.060	160.310	106.147	40.873	45.131	48.728	52.798	235.594	48.179	-8191	255	
1733.173	1	1	0	0	0.16926	0.37255	0.16824	0.22319	0.13572	0.1579	0.10225	0.12151	0.15669	0.27509	0.089403	0.097094	0.16982	0.20464	0.32429	0.20857	-2.4	-2.4813	-2.8333	-2.8021	-2.5687	-3.0729	-2.6208	-2.6083	-3.05	-2.5042	-2.9146	-2.9208	-2.525	-3.1125	-2.6312	-2.5979	163.271	386.100	280.999	364.920	272.328	41.820	79.386	69.703	153.270	91.669	117.892	141.590	213.969	329.533	209.358	318.501	0.00013786	0.0002503	3.8195e-05	519.72	1.6454e-06	2.5173e-06	566.08	184.39	3.3441e-06	2.7967e-06	203.92	56.596	52.509	14.486	4.144e-06	18.31	0.00020158	0.00019485	5.5109e-05	506.05	2.2697e-06	2.1105e-06	547.65	178.2	2.2509e-06	2.1438e-06	193.74	55.606	51.473	14.508	2.2497e-06	18.179	149.468	352.655	34.936	39.169	130.798	213.644	38.128	44.149	309.285	59.439	40.580	45.357	49.115	53.177	174.980	48.100	-8191	255	
1733.293	1	1	0	0	0.17669	0.065258	0.2076	0.18103	0.2089	0.13512	0.14236	0.27329	0.16342	0.23548	0.15398	0.12873	0.16523	0.033598	0.13036	0.18998	-2.5833	-2.4646	-2.7417	-3.1167	-2.4771	-2.9479	-2.8375	-2.4708	-3.1479	-2.4792	-2.7062	-3.0542	-2.2292	-2.9562	-2.6896	-2.4646	227.295	358.106	35.634	286.872	177.168	274.206	298.888	46.971	263.613	224.265	55.420	139.200	69.132	215.428	368.803	318.057	8.1665e-05	0.00045901	0.0001061	505.66	4.5487e-06	3.2692e-06	552.7	184.24	6.3337e-07	3.5917e-06	202.52	57.488	53.287	14.343	2.2991e-06	17.868	0.0002041	0.00019612	5.5952e-05	493.55	2.187e-06	2.1268e-06	537.2	177.97	2.1524e-06	2.1401e-06	193.91	56.038	51.806	14.329	2.2025e-06	17.862	127.357	124.702	254.581	39.468	182.907	184.621	37.784	44.242	370.478	382.261	40.507	45.397	48.804	53.260	151.807	48.171	-8191	255	
1733.389	1	1	0	0	0.066167	0.12561	0.076192	0.18191	0.1778	0.23962	0.18696	0.1548	0.22724	0.040413	0.21524	0.32464	0.32261	0.51501	0.18406	0.20195	-2.6063	-2.5812	-2.6688	-3.1042	-2.4875	-3.1292	-2.9896	-2.5292	-2.9542	-2.5625	-2.6625	-3.1271	-2.5458	-2.9896	-2.7146	-2.4458	334.265	151.835	363.385	286.484	339.729	65.033	297.202	240.708	311.715	35.998	46.590	266.269	41.329	87.031	381.369	235.439	0.00011516	0.00075907	0.00011985	494.88	3.3005e-06	5.0801e-06	533.12	180.51	3.9604e-06	1.6998e-06	200.13	58.689	54.921	13.919	3.0976e-06	17.075	0.00019238	0.00019637	5.5754e-05	483.36	2.1091e-06	2.1265e-06	520.22	174.63	2.066e-06	2.1593e-06	190.69	57.496	53.28	13.985	2.1929e-06	17.033	143.653	58.824	318.542	39.629	218.782	162.611	37.826	43.919	146.017	121.175	40.856	45.193	48.820	53.090	85.818	48.339	-8191	255	
1733.486	1	1	0	0	0.3114	0.10877	0.12011	0.045165	0.24097	0.10712	0.17604	0.23819	0.13808	0.16023	0.065899	0.13338	0.19458	0.10628	0.082251	0.050651	-2.7271	-2.7271	-2.4833	-3.1333	-2.3375	-2.8979	-2.9375	-2.4479	-2.9792	-2.7083	-2.6937	-3.2687	-2.5979	-2.75	-3.0833	-2.4604	198.127	329.081	80.748	364.429	163.756	57.066	80.578	326.593	151.927	41.666	352.133	385.307	361.963	156.178	297.662	328.912	0.00014539	0.00039395	3.4451e-05	474.04	4.2333e-06	6.6333e-07	522.96	174.15	3.343e-06	3.3969e-06	199.49	63.182	58.333	13.875	4.6339e-06	16.432	0.00018621	0.00019717	5.4686e-05	465.04	2.0457e-06	2.1155e-06	510.05	169.05	2.0038e-06	2.1204e-06	189.52	60.702	55.744	13.766	2.1148e-06	16.359	150.814	106.119	85.235	39.474	158.110	293.318	37.842	44.129	218.003	84.734	40.788	44.876	48.554	54.000	115.645	47.938	-8191	255	
1733.582	1	1	0	0	0.04622	0.20511	0.098345	0.11587	0.16518	0.23378	0.15567	0.37958	0.11482	0.27052	0.12303	0.20866	0.11448	0.072054	0.18452	0.13937	-2.6354	-2.825	-2.3146	-3.1625	-2.6229	-2.7479	-3.1146	-2.4542	-2.9104	-2.8583	-2.4229	-3.0604	-2.5208	-2.6833	-2.9771	-2.4021	61.830	194.029	381.967	342.917	136.956	336.760	254.132	263.763	258.914	129.771	375.112	240.462	205.160	292.624	352.301	170.885	0.00011839	0.0004933	7.6698e-05	475.15	1.9254e-06	3.2965e-06	535.77	172.54	2.5283e-06	2.4029e-06	197.7	65.242	58.979	14.332	7.7631e-06	16.223	0.00018055	0.00019185	5.4021e-05	462.6	2.0126e-06	2.0621e-06	515.62	166.92	1.9838e-06	2.0875e-06	188.09	62.444	56.898	14.214	2.1024e-06	16.074	138.434	141.645	130.844	39.155	287.704	121.130	37.894	44.044	226.830	347.201	41.035	45.118	48.523	53.176	154.492	48.375	-8191	255	
1733.678	1	1	0	0	0.046638	0.1654	0.022998	0.25494	0.20908	0.16178	0.13088	0.25622	0.11972	0.090884	0.19881	0.11478	0.15093	0.31848	0.13636	0.11594	-2.5146	-2.9542	-2.3833	-3.1042	-2.5417	-2.5333	-3.3167	-2.4979	-2.9625	-2.8438	-2.4271	-2.9354	-2.6479	-2.6937	-3.1729	-2.4542	271.324	330.035	370.682	90.879	133.876	339.070	89.213	54.373	325.681	162.409	292.458	140.463	380.258	52.299	171.016	69.418	0.00017293	0.00073056	2.2103e-05	477.08	2.5376e-06	1.294e-06	527.08	171.64	2.9813e-06	1.9969e-06	195.71	64.539	58.784	14.192	9.1736e-07	16.132	0.00018264	0.000191	5.315e-05	462.28	2.0523e-06	2.0659e-06	511.12	166.05	2.0419e-06	2.0999e-06	186.29	61.622	56.707	14.183	2.0794e-06	16.04	138.768	105.668	85.681	39.509	263.777	185.475	37.920	44.082	224.376	344.046	41.005	44.998	48.622	53.273	61.695	48.797	-8191	255	
1733.774	1	1	0	0	0.083348	0.047858	0.35501	0.17903	0.10194	0.21807	0.23108	0.24068	0.26404	0.091229	0.13724	0.11796	0.026438	0.20107	0.066226	0.22823	-2.4062	-2.8812	-2.2854	-2.8625	-2.7438	-2.5271	-3.0187	-2.6771	-2.7042	-3.0187	-2.4688	-3.0729	-2.9292	-2.4833	-3.0646	-2.5687	73.849	191.149	94.230	60.948	175.284	78.325	384.807	124.206	343.385	206.095	94.252	201.475	355.506	332.655	210.133	384.205	0.0001425	0.0011197	2.9002e-05	474.1	8.9901e-07	5.4216e-06	516.2	171.33	3.1187e-06	6.48e-06	193.53	62.216	58.206	14.041	4.5337e-06	16.325	0.00018931	0.0001939	5.3601e-05	459.58	2.1509e-06	2.1757e-06	500.46	165.76	2.1557e-06	2.2126e-06	185.02	60.165	56.129	14.065	2.1067e-06	16.298	166.990	117.398	136.611	39.227	311.995	198.313	37.786	44.228	136.739	214.866	40.623	45.042	48.546	53.496	99.532	48.976	-8191	255	
1733.893	1	1	0	0	0.090059	0.21553	0.20588	0.18023	0.12178	0.039156	0.2031	0.044236	0.14797	0.11631	0.31306	0.30648	0.26601	0.41487	0.113	0.36698	-2.2792	-3.1625	-2.3646	-3.0333	-2.8729	-2.5229	-3.2188	-2.625	-2.7229	-2.9354	-2.225	-3.0312	-2.7604	-2.2625	-3.0021	-2.4354	122.178	230.549	87.429	41.975	315.761	194.337	83.015	333.558	304.524	299.916	382.376	306.843	284.108	90.377	242.651	334.239	0.00015243	0.00051187	8.038e-05	466.67	2.2999e-06	6.8727e-06	510.96	171.27	1.6056e-06	3.8385e-06	195.99	62.232	57.819	13.92	1.0611e-06	16.196	0.00019634	0.00020129	5.3667e-05	455.94	2.2e-06	2.2157e-06	496.25	165.89	2.166e-06	2.2286e-06	185.4	60.423	55.904	14.032	2.0399e-06	16.253	135.259	384.886	95.752	39.132	190.209	166.526	37.646	44.057	172.245	67.605	40.915	45.382	48.451	53.117	358.716	48.550	-8191	255	
1733.989	1	1	0	0	0.20185	0.13076	0.098099	0.16019	0.18737	0.1318	0.37069	0.13912	0.17955	0.20262	0.093675	0.17669	0.18719	0.10693	0.10227	0.1729	-2.2271	-2.9479	-2.475	-2.9042	-2.9979	-2.1854	-3.1125	-2.6979	-2.4958	-3.35	-2.3604	-3.0958	-2.9833	-2.5167	-3.0146	-2.7812	104.469	147.905	207.898	250.989	150.923	188.653	319.781	210.579	276.614	46.058	382.495	230.524	57.646	130.515	380.649	210.331	0.00013899	0.00045713	5.2833e-05	467.85	1.1448e-06	1.5689e-06	511.76	170.88	2.7861e-06	2.7243e-06	194.49	63.315	58.091	14.12	1.9781e-06	16.329	0.0001951	0.00019876	5.2227e-05	459.1	2.1488e-06	2.1592e-06	499.34	165.38	2.1373e-06	2.1472e-06	185.37	61.082	56.128	14.058	2.0089e-06	16.413	199.500	149.085	383.080	39.554	52.688	241.383	37.653	44.028	171.554	275.150	40.985	45.049	48.794	52.930	280.991	48.467	-8191	255	
1734.061	1	1	0	0	0.16495	0.097841	0.092136	0.090653	0.048318	0.16289	0.12098	0.2896	0.34455	0.057882	0.048112	0.11634	0.10608	0.17381	0.13137	0.14435	-2.1583	-2.9042	-2.4021	-2.6958	-2.9958	-2.5187	-2.8125	-2.9646	-2.3042	-3.2042	-2.525	-2.8312	-3.0646	-2.4479	-2.8375	-2.7938	30.762	258.190	127.452	257.249	190.524	126.081	315.890	290.695	169.394	160.010	85.957	279.001	163.225	321.121	110.755	322.109	0.00010844	0.00013429	1.1761e-05	471.77	2.7517e-06	2.6439e-06	514.98	169.78	2.1458e-06	3.242e-06	193.3	63.167	58.46	14.166	2.3058e-06	16.227	0.00019709	0.00019072	5.2731e-05	460.49	2.1716e-06	2.0996e-06	500.95	164.96	2.1506e-06	2.0344e-06	184.92	60.976	56.253	14.015	2.0341e-06	16.225	131.874	371.008	372.244	39.720	155.585	95.318	37.965	44.009	79.520	373.081	40.730	45.159	48.335	53.310	226.984	48.817	-8191	255	
1734.157	1	1	0	0	0.26905	0.14319	0.15358	0.16082	0.15251	0.047767	0.21719	0.14334	0.38929	0.16128	0.22152	0.13766	0.18032	0.13193	0.13582	0.19072	-1.9292	-3.1604	-2.325	-2.8937	-2.9021	-2.5729	-2.9938	-2.8833	-2.2854	-3.0333	-2.8292	-2.5021	-3.1312	-2.4833	-2.9813	-3.0521	270.441	232.486	86.258	311.619	147.903	291.780	324.413	347.924	294.594	337.922	54.251	279.859	123.085	40.299	297.257	211.190	0.00010622	0.00045974	5.826e-05	476.5	1.7321e-06	1.3601e-06	518.92	173.27	1.4509e-07	2.2512e-06	197.01	63.382	57.987	14.079	2.8654e-06	16.2	0.00019386	0.00018158	5.2461e-05	463.52	2.1145e-06	2.0105e-06	504.63	167.23	2.1443e-06	1.9849e-06	187.04	60.769	56.092	13.948	2.0579e-06	16.273	151.805	103.372	317.031	39.575	171.176	178.264	37.859	44.014	319.827	278.216	40.515	45.172	48.373	52.890	258.014	48.445	-8191	255	
1734.278	1	1	0	0	0.14261	0.21856	0.081102	0.17272	0.24928	0.12603	0.1332	0.18796	0.13872	0.20742	0.17785	0.21104	0.054758	0.10791	0.044049	0.23663	-1.9354	-3.0625	-2.6771	-2.6375	-2.9729	-2.2958	-2.8104	-3.2167	-2.3375	-3.0375	-2.8521	-2.45	-3.2521	-2.4875	-2.8396	-2.7812	385.178	51.284	323.039	281.367	186.632	280.522	336.164	360.757	42.463	166.623	35.338	314.505	226.240	37.829	144.626	324.177	3.0087e-05	0.00028212	2.9875e-05	476.91	1.2207e-06	2.6349e-06	525.87	174.2	4.3104e-06	1.6739e-06	196.58	63.205	58.34	14.106	2.8996e-06	16.158	0.00018813	0.00017955	5.3366e-05	466.72	2.0531e-06	1.9871e-06	509.45	169.23	2.0689e-06	1.9802e-06	187.61	60.817	56.044	13.972	2.0817e-06	16.198	232.581	274.445	80.694	39.463	146.621	208.952	37.718	43.826	173.668	72.382	40.471	45.085	48.534	53.009	131.902	48.591	-8191	255	
1734.374	1	1	0	0	0.27608	0.1112	0.13458	0.035705	0.10043	0.095656	0.12007	0.016545	0.079991	0.098253	0.090737	0.19524	0.27835	0.21944	0.093685	0.19951	-1.9104	-2.9271	-2.6958	-2.2771	-2.9729	-2.575	-2.6458	-3.0354	-2.2979	-2.7875	-2.8229	-2.3167	-3.225	-2.3937	-2.7229	-2.8521	155.676	236.596	378.774	267.944	109.292	199.647	342.718	83.942	86.845	38.185	145.336	218.508	38.905	161.135	89.677	162.028	9.3095e-05	0.00032341	4.6412e-05	478.97	2.7271e-06	4.3726e-06	530.51	174.48	1.9861e-06	2.6035e-06	198.73	63.306	58.601	14.127	3.6418e-06	16.088	0.00018495	0.00018282	5.3486e-05	466.24	1.9602e-06	2.0373e-06	512.53	168.5	1.9826e-06	2.0054e-06	188.81	61.237	56.341	14.035	2.0454e-06	16.039	168.598	76.720	71.016	39.235	236.020	137.956	38.031	44.244	174.081	226.038	40.892	45.082	48.717	53.135	321.674	48.634	-8191	255	
1734.470	1	1	0	0	0.16622	0.077402	0.14138	0.11324	0.22983	0.13293	0.10011	0.15878	0.065991	0.20308	0.15785	0.19208	0.23091	0.21528	0.25336	0.065535	-1.9917	-2.7417	-2.8417	-2.4188	-3.0458	-2.4292	-2.7208	-3.1917	-2.3937	-2.7667	-2.9938	-2.5062	-3.0438	-2.7271	-2.4958	-3.1083	40.637	378.649	37.868	56.476	296.896	347.314	355.681	210.872	126.260	335.011	315.704	125.005	63.025	182.912	318.857	140.193	0.00013998	0.00018102	7.4962e-06	485.19	4.2038e-06	2.4404e-06	533.07	175.59	4.4668e-06	2.145e-06	200.57	63.604	58.912	14.183	2.2688e-06	16.031	0.0001774	0.00018274	5.2675e-05	472.77	1.9157e-06	2.0741e-06	517.51	169.18	1.9879e-06	2.0446e-06	188.86	61.322	56.426	14.122	2.1083e-06	16.026	117.048	42.008	260.365	39.386	106.847	89.347	37.811	43.893	122.635	237.244	40.631	45.272	48.796	52.776	312.202	48.195	-8191	255	
1734.566	1	1	0	0	0.21412	0.18879	0.19481	0.078586	0.20986	0.17546	0.23716	0.079898	0.15	0.10082	0.24826	0.096303	0.08289	0.094	0.24353	0.1607	-2.0042	-2.5396	-3.0062	-2.5229	-2.7812	-2.6583	-2.5687	-3.0875	-2.5333	-2.6562	-2.8833	-2.3604	-2.8771	-2.7979	-2.2167	-3.1646	198.392	145.171	108.473	221.105	240.767	78.127	226.224	314.201	121.961	380.570	274.885	356.040	246.665	180.345	127.084	320.776	0.00014555	0.00046127	7.5425e-05	481.74	1.6171e-06	3.5704e-06	527.4	175	1.7907e-06	3.0571e-06	197.73	61.938	57.897	14.038	5.4813e-06	16.022	0.00018336	0.00019303	5.3869e-05	468.7	2.0334e-06	2.1665e-06	510.92	168.35	2.0798e-06	2.1322e-06	188.01	60.007	55.78	14.039	2.1604e-06	15.946	166.265	67.879	316.832	39.748	256.244	160.751	37.900	44.277	246.745	154.931	40.929	45.254	48.942	53.103	244.316	47.989	-8191	255	
1734.662	1	1	0	0	0.073042	0.19011	0.24395	0.091114	0.10588	0.065677	0.14106	0.18763	0.20446	0.14915	0.054863	0.18715	0.26625	0.17634	0.15662	0.15347	-1.9062	-2.5708	-2.9417	-2.1917	-2.6854	-2.9292	-2.2771	-3.2333	-2.725	-2.5771	-3.1042	-2.2833	-2.8646	-2.9958	-2.3042	-3.1208	302.643	90.190	335.148	268.239	44.897	107.874	263.026	116.904	43.038	149.386	156.613	169.018	75.681	366.410	341.932	39.410	8.718e-05	0.00060533	4.2959e-05	483.62	1.7429e-06	4.4088e-06	529.8	176.7	2.5316e-06	4.9937e-07	199	61.022	57.033	13.987	7.7657e-06	16.08	0.00018899	0.0001943	5.5114e-05	470.35	2.099e-06	2.1625e-06	512.96	170.15	2.1433e-06	2.1403e-06	189.36	58.867	55.23	14.03	2.1618e-06	16.026	148.681	64.993	66.876	39.278	250.293	228.179	38.155	44.199	150.602	55.953	40.809	45.070	48.265	53.244	373.999	48.168	-8191	255	
1734.758	1	1	0	0	0.18746	0.18901	0.22322	0.1319	0.2336	0.19415	0.055059	0.17613	0.14001	0.20916	0.35574	0.090266	0.08645	0.033856	0.25157	0.28999	-2.0583	-2.6917	-3.0958	-2.2812	-2.8	-2.8937	-2.3625	-3.1521	-2.7833	-2.4813	-3.1458	-2.2729	-2.7271	-2.9938	-2.2771	-3.0563	223.481	183.198	42.282	379.755	107.553	282.084	254.847	85.428	243.944	273.898	257.733	359.045	214.060	58.255	344.919	335.671	0.00012627	0.00064931	1.0643e-05	487.41	2.5637e-06	2.7253e-06	533.66	179.2	2.4952e-07	3.3363e-06	201.8	60.242	56.919	13.956	3.2205e-06	16.175	0.00019504	0.00019582	5.4471e-05	472.83	2.1109e-06	2.163e-06	516.21	172.07	2.1405e-06	2.1569e-06	190.72	58.232	54.952	13.933	2.1188e-06	16.199	176.638	48.220	182.659	38.991	207.085	251.276	37.920	44.053	237.111	225.992	40.786	45.326	48.792	52.948	166.934	48.074	-8191	255	
1734.854	1	1	0	0	0.2671	0.29812	0.16316	0.19314	0.17627	0.13741	0.28258	0.12173	0.176	0.13142	0.092041	0.12199	0.18772	0.15847	0.1723	0.18801	-2.1958	-2.4708	-2.9771	-2.5396	-2.6104	-2.8708	-2.4271	-3.0417	-2.5563	-2.6708	-3.0187	-2.6333	-2.7229	-2.9562	-2.4188	-2.8937	78.431	249.006	251.252	335.501	261.232	381.960	334.913	367.311	125.128	169.251	265.653	84.203	321.088	342.016	296.505	369.156	3.3223e-05	5.509e-05	2.4722e-05	485.86	1.3592e-06	1.8826e-06	536.05	179.66	1.7662e-06	1.3241e-06	202.06	60.478	57.087	14.012	1.0382e-06	16.494	0.00019494	0.00019975	5.2611e-05	474.39	2.1476e-06	2.186e-06	516.65	173.1	2.1682e-06	2.1757e-06	191.22	58.579	55.019	14.012	2.0614e-06	16.403	107.779	119.364	182.834	39.166	126.024	316.564	37.736	43.751	155.022	62.488	40.809	45.254	48.874	53.545	165.545	48.369	-8191	255	
1734.973	1	1	0	0	0.085654	0.23243	0.079882	0.099849	0.15835	0.074316	0.18371	0.34609	0.10896	0.059127	0.033298	0.068826	0.12192	0.21234	0.082486	0.15254	-2.3479	-2.3229	-3.1167	-2.6521	-2.625	-3.0708	-2.825	-3.0042	-2.7208	-2.2375	-3.0771	-2.5729	-2.6021	-3.1208	-2.3896	-2.9208	161.125	81.730	240.552	349.621	374.007	218.467	259.143	345.790	272.541	370.673	198.201	244.145	300.821	376.614	55.292	355.669	0.00012756	0.00015719	5.0519e-05	493.23	2.5297e-06	2.3108e-06	541.21	180.55	2.2961e-06	2.1117e-06	201.86	59.915	56.324	13.912	3.1887e-06	16.389	0.00019662	0.00019725	5.0589e-05	480.27	2.1053e-06	2.1328e-06	521.26	173.86	2.1319e-06	2.1337e-06	190.41	58.066	54.625	13.896	2.0397e-06	16.446	142.571	312.439	46.634	39.586	171.338	159.792	37.637	43.890	180.800	155.283	40.879	45.159	48.820	52.937	161.159	48.432	-8191	255	
1735.069	1	1	0	0	0.099902	0.26484	0.25484	0.085974	0.10524	0.14371	0.080306	0.19807	0.13258	0.24338	0.34899	0.079852	0.17344	0.08007	0.23496	0.19723	-2.425	-2.4271	-2.8583	-2.7979	-2.4813	-2.9833	-2.3229	-2.675	-2.9062	-2.5646	-3.1	-2.9521	-2.3854	-3.0854	-2.3688	-2.8646	358.328	331.744	299.905	51.544	203.683	363.892	328.810	384.193	81.475	93.364	299.375	173.520	148.795	47.055	356.720	44.010	0.00013448	0.00034897	9.6275e-05	494.26	3.2666e-06	7.2462e-07	540.37	180.82	3.9828e-06	7.1703e-06	203.51	59.154	55.567	13.996	3.7583e-06	16.889	0.00019437	0.00019307	5.1456e-05	481.72	2.1363e-06	2.0663e-06	523.69	174.71	2.1482e-06	2.0777e-06	191.88	57.157	54.197	13.921	2.0827e-06	16.749	133.973	288.019	70.255	39.403	241.204	45.761	38.052	43.725	229.810	98.542	40.779	44.991	48.462	53.630	194.495	48.133	-8191	255	
1735.166	1	1	0	0	0.15993	0.092578	0.007609	0.031327	0.0554	0.30043	0.24623	0.094773	0.084652	0.32423	0.20774	0.21457	0.26098	0.32678	0.17601	0.11186	-2.5438	-2.4208	-2.8208	-2.75	-2.4	-3.0729	-2.7	-2.5396	-2.9167	-2.375	-2.975	-2.8917	-2.4313	-3.0458	-2.5187	-2.4646	124.504	263.664	248.760	209.207	235.602	204.594	311.559	288.534	374.461	223.445	27.758	167.661	377.990	365.768	60.972	348.226	0.00012248	0.00055312	8.9537e-05	496.01	1.1972e-06	2.541e-06	550.11	184.92	3.4656e-06	3.7761e-06	205.14	58.9	55.272	13.998	3.5227e-06	17.574	0.00019518	0.0001873	5.2094e-05	484.83	2.1445e-06	2.0195e-06	530.26	177.51	2.1387e-06	2.0479e-06	194.14	57.241	53.891	13.959	2.0954e-06	17.418	127.998	87.635	385.198	39.397	215.057	103.704	37.906	43.811	259.864	348.238	40.801	45.456	48.674	53.207	197.649	48.295	-8191	255	
1735.286	1	1	0	0	0.18305	0.14694	0.17015	0.29762	0.15986	0.083591	0.078706	0.087506	0.16279	0.080679	0.1167	0.11044	0.14123	0.1513	0.26051	0.18668	-2.8604	-2.4146	-2.775	-2.9667	-2.2583	-3.1896	-2.7625	-2.5646	-3.1146	-2.6167	-2.8042	-2.9542	-2.1729	-2.9458	-2.45	-2.4833	344.684	35.851	109.204	278.967	187.956	183.263	57.966	358.572	252.512	342.982	121.777	255.267	61.388	267.088	95.473	304.297	0.00011245	0.00053208	0.00016184	505	4.5351e-06	2.5694e-06	555.86	186.34	3.4111e-06	3.8224e-06	206.58	59.02	55.192	14.124	2.0963e-07	17.96	0.00019117	0.00018313	5.2605e-05	491.15	2.0936e-06	1.9879e-06	537.24	179.11	2.0884e-06	2.0279e-06	195.67	57.341	53.655	14.062	2.1395e-06	17.716	130.109	65.239	137.321	39.325	231.735	132.494	37.817	43.941	232.582	155.883	40.559	45.235	48.620	52.865	193.100	48.035	-8191	255	
1735.358	1	1	0	0	0.13264	0.19216	0.066239	0.1992	0.26994	0.083734	0.30297	0.12605	0.26953	0.14194	0.094078	0.1688	0.24158	0.24803	0.39032	0.25159	-2.6562	-2.5229	-2.4479	-3.1229	-2.35	-2.9792	-2.8187	-2.5896	-3.1562	-2.6271	-2.6333	-3.0812	-2.1979	-3.0958	-2.8917	-2.2854	104.233	60.651	355.865	247.947	325.958	343.570	310.684	54.974	63.566	222.784	254.505	346.192	357.275	127.631	40.073	327.979	0.00011821	0.00033398	9.2603e-05	504.91	7.7517e-07	6.0334e-06	550.67	184.43	4.1786e-06	1.0709e-07	204.03	57.725	54.22	14.426	4.2414e-07	17.944	0.00018864	0.00018875	5.3801e-05	492.19	2.096e-06	2.0402e-06	535.76	178.21	2.0667e-06	2.1341e-06	194.6	56.517	52.677	14.324	2.169e-06	17.895	146.685	76.584	368.864	39.426	352.329	225.709	37.897	43.959	199.017	67.142	40.953	44.979	48.799	53.024	311.262	47.912	-8191	255	
1735.454	1	1	0	0	0.16093	0.20426	0.046111	0.17236	0.073146	0.039922	0.21869	0.2328	0.1897	0.1066	0.19908	0.23086	0.055656	0.14029	0.093576	0.17794	-2.6896	-2.5187	-2.4729	-3.2333	-2.3333	-2.9375	-3.0125	-2.5167	-2.9938	-2.8771	-2.5208	-3.2229	-2.3542	-2.7812	-2.8792	-2.3208	31.165	320.333	206.426	111.249	351.858	225.522	114.531	367.632	86.685	381.831	193.290	283.767	254.418	276.224	115.506	322.470	9.39e-05	8.6585e-05	0.00013786	504.29	3.6635e-06	5.1485e-06	544.68	183.3	4.0357e-06	3.6494e-06	204.13	58.018	53.841	14.397	1.4544e-06	18.085	0.00018657	0.0001966	5.4677e-05	488.76	2.0796e-06	2.117e-06	530.62	177.2	2.0353e-06	2.1755e-06	193.43	56.151	52.408	14.33	2.1993e-06	17.831	156.967	94.827	33.345	39.400	131.453	131.294	37.554	43.949	68.726	115.271	40.405	45.032	49.106	52.934	153.105	48.085	-8191	255	
1735.575	1	1	0	0	0.18673	0.30016	0.051034	0.20552	0.13294	0.20891	0.068804	0.19162	0.18121	0.086087	0.19056	0.25566	0.2795	0.19155	0.21512	0.031345	-2.4417	-2.5125	-2.35	-3.1312	-2.3688	-2.7104	-3.0604	-2.4271	-3.0792	-2.9292	-2.4917	-3.0396	-2.4229	-2.5583	-2.8583	-2.3396	263.556	281.464	323.708	382.129	95.537	246.824	130.051	108.602	356.756	108.345	43.961	352.023	225.438	384.003	178.855	331.072	0.00013059	0.00030125	4.989e-05	505.5	1.0248e-06	6.0842e-07	552.53	185.99	4.1486e-06	7.2025e-06	203.96	57.507	53.881	14.573	3.0766e-06	18.015	0.00018596	0.0001999	5.5179e-05	490.24	2.0613e-06	2.1479e-06	533.07	178.25	2.0399e-06	2.1726e-06	194.37	56.055	52.505	14.508	2.1531e-06	17.84	147.026	140.067	194.352	39.535	181.438	326.576	37.779	43.818	279.390	176.179	40.675	45.357	48.736	53.097	309.368	48.460	-8191	255	
1735.671	1	1	0	0	0.11814	0.28656	0.10099	0.073849	0.096394	0.14721	0.18546	0.04809	0.21607	0.11782	0.16694	0.14741	0.17664	0.235	0.19108	0.27613	-2.2958	-2.7083	-2.2292	-3.1375	-2.4625	-2.5854	-2.9083	-2.225	-2.8333	-2.9229	-2.2875	-3.1042	-2.6021	-2.625	-3.1333	-2.4083	243.126	244.347	348.594	121.053	68.608	218.880	322.791	30.555	37.455	382.811	327.780	46.772	331.103	347.517	353.829	379.167	0.00012096	0.00012137	6.5848e-05	506.91	3.4327e-06	9.48e-07	556.27	186.17	1.4481e-06	6.737e-06	205.76	58.315	54.548	14.664	2.0591e-06	18.568	0.00018746	0.00019563	5.4629e-05	490.38	2.1034e-06	2.1241e-06	537.47	178.85	2.0752e-06	2.1292e-06	195.82	56.42	52.946	14.53	2.0762e-06	18.006	144.078	154.538	308.873	39.328	213.336	139.229	37.980	43.742	345.191	151.551	40.779	45.130	48.875	53.176	197.310	47.822	-8191	255	
1735.765	1	1	0	0	0.17947	0.083039	0.081454	0.11624	0.047463	0.03157	0.14069	0.10677	0.12437	0.2587	0.02859	0.11284	0.18626	0.20086	0.1523	0.096213	-2.5104	-2.8354	-2.4208	-3.2125	-2.3333	-2.5938	-3.0812	-2.4375	-2.8354	-2.8042	-2.5062	-2.9479	-3.0458	-2.5333	-3.1729	-2.4896	192.925	220.240	124.530	375.718	148.207	313.981	262.649	146.444	135.725	147.575	373.104	353.065	80.536	88.092	311.441	123.009	0.00012826	0.00039981	2.5796e-05	509.34	3.9777e-06	3.9314e-06	564.07	187.11	2.9879e-06	3.1033e-06	209.34	58.539	54.787	14.56	1.9335e-06	18.323	0.00018653	0.00019122	5.2633e-05	493.45	2.066e-06	2.0786e-06	543.26	179.85	2.0462e-06	2.0617e-06	196.98	56.329	53.082	14.368	1.983e-06	17.887	170.721	214.057	130.937	39.238	253.942	117.041	37.742	44.221	148.471	191.609	40.803	45.297	48.757	53.217	325.921	48.323	-8191	255	
1735.861	1	1	0	0	0.15997	0.13282	0.25119	0.071623	0.22609	0.23325	0.42953	0.19831	0.17444	0.16946	0.15838	0.084463	0.065258	0.28756	0.26283	0.083189	-2.1312	-3.0458	-2.2854	-2.9083	-2.8083	-2.2604	-3.125	-2.3792	-2.6042	-3.3	-2.4208	-2.9771	-2.9333	-2.3937	-3	-2.6479	303.072	145.220	267.198	164.468	141.365	247.453	366.558	374.830	133.040	359.257	117.205	168.343	191.138	290.708	187.487	198.250	0.00015212	0.00067041	4.364e-05	517.15	1.2024e-06	2.2159e-07	566.5	187.29	1.9527e-06	3.0392e-06	206.28	57.93	54.047	14.364	1.1347e-06	18.147	0.00018286	0.00018763	5.0067e-05	499.57	2.0194e-06	2.0069e-06	545.22	179.41	1.9998e-06	2.0195e-06	194.14	55.65	52.388	14.135	1.8796e-06	17.742	131.967	101.806	249.792	39.233	305.832	64.879	38.050	44.011	88.733	150.845	41.018	45.632	48.546	53.293	261.035	48.103	-8191	255	
1735.958	1	1	0	0	0.2908	0.13415	0.23154	0.25307	0.25056	0.27566	0.078752	0.21304	0.17971	0.20965	0.25035	0.12085	0.17775	0.25017	0.12359	0.19695	-2.2417	-3.0833	-2.4042	-3.025	-3.0208	-2.2375	-3.0583	-2.5125	-2.5625	-3.0979	-2.3854	-2.8583	-2.7479	-2.3792	-3.1562	-2.5292	290.029	372.646	43.336	313.274	116.600	85.741	335.469	254.938	330.650	270.075	349.011	212.649	91.327	359.680	211.059	62.884	0.00012883	0.0005155	0.00011341	522.21	6.6173e-07	2.9236e-07	572.94	187	3.2561e-06	2.1925e-06	205.51	57.403	53.732	14.095	3.389e-06	18.079	0.00017976	0.00018289	4.7912e-05	502.92	1.994e-06	1.9884e-06	549.39	179	1.9695e-06	1.9681e-06	193.42	55.584	51.99	13.974	1.8507e-06	17.635	151.712	168.337	330.219	39.265	187.110	248.711	37.932	44.214	179.816	206.591	40.896	45.246	48.537	53.140	140.598	48.172	-8191	255	
1736.054	1	1	0	0	0.051022	0.3056	0.073062	0.14837	0.15703	0.093507	0.06382	0.14628	0.023156	0.1114	0.080189	0.18603	0.15359	0.21149	0.079034	0.30967	-2.1375	-3.1708	-2.3667	-2.7188	-3.0083	-2.4479	-3.1167	-2.8812	-2.5979	-3.2542	-2.4583	-2.8458	-2.9271	-2.3063	-2.9458	-2.7188	130.169	266.425	261.973	383.222	103.220	91.765	144.891	325.656	363.786	157.882	65.307	381.753	97.015	179.021	190.587	292.727	0.00010588	8.362e-05	4.913e-05	522.2	1.565e-06	1.1583e-06	579.95	186.65	2.127e-06	2.4013e-06	207.57	57.709	54.189	14.036	5.343e-06	17.984	0.00017657	0.00017318	4.7092e-05	503	1.9634e-06	1.9132e-06	554.92	178.67	1.9326e-06	1.885e-06	194.12	55.585	52.234	13.778	1.8851e-06	17.57	152.561	36.741	224.408	39.566	105.778	106.232	37.939	44.238	135.605	201.444	40.695	45.414	48.893	53.442	118.030	48.045	-8191	255	
1736.150	1	1	0	0	0.16576	0.17943	0.29335	0.20105	0.061092	0.17705	0.1265	0.1644	0.19912	0.020807	0.065648	0.24436	0.11004	0.072761	0.2281	0.18262	-2.2229	-3.0167	-2.5083	-2.7729	-3.05	-2.2208	-2.95	-2.9896	-2.4896	-3.1167	-2.6104	-2.6896	-3.0396	-2.3125	-3.0375	-2.7771	259.564	329.238	85.214	375.316	62.538	208.446	367.383	27.163	264.670	145.695	29.019	326.803	28.066	207.733	69.844	344.314	0.00013822	0.00062261	5.0232e-05	515.27	6.0269e-07	3.0029e-06	572.07	185.8	2.8143e-06	2.2357e-06	206.69	57.423	53.895	14.128	2.5858e-06	18.168	0.00017941	0.00017271	4.8677e-05	499.67	2.0081e-06	1.8834e-06	550.63	178.86	1.9929e-06	1.8942e-06	194.98	55.79	52.344	13.912	1.9796e-06	17.819	163.763	104.871	372.740	39.398	211.480	148.185	38.176	43.980	380.636	157.541	40.513	44.961	49.009	52.884	232.914	48.347	-8191	255	
1736.246	1	1	0	0	0.1089	0.21181	0.17411	0.18757	0.23585	0.099969	0.27342	0.21389	0.086351	0.14701	0.18593	0.18609	0.19624	0.27385	0.22795	0.035468	-1.7313	-3.0917	-2.4125	-2.4604	-2.8604	-2.3271	-2.875	-2.6021	-2.4104	-3.1083	-2.6854	-2.3792	-3.1292	-2.4333	-2.675	-2.9167	209.135	104.703	291.744	253.861	239.313	251.760	360.425	368.511	249.431	233.921	371.021	26.232	374.076	185.888	318.356	128.216	0.00014768	0.00022776	9.214e-05	514.11	1.4936e-06	3.9427e-06	563.07	184.75	6.4511e-06	2.0585e-06	203.72	56.887	53.084	14.11	6.011e-07	18.167	0.00018662	0.00017568	5.241e-05	496.08	2.0449e-06	1.9947e-06	541.47	177.58	2.0619e-06	1.9636e-06	192.95	55.437	51.588	13.98	2.0247e-06	17.897	172.914	133.259	58.479	39.553	153.457	180.628	37.754	44.173	218.078	44.737	40.824	45.054	48.621	53.576	43.886	48.546	-8191	255	
1736.367	1	1	0	0	0.041321	0.29028	0.091155	0.11758	0.13687	0.081926	0.19947	0.10283	0.072676	0.13627	0.26734	0.073101	0.15601	0.12465	0.14551	0.2858	-2.0292	-3.0104	-2.7479	-2.3708	-3.2562	-2.45	-2.8479	-2.9188	-2.3479	-2.9125	-2.9125	-2.3708	-2.925	-2.4771	-2.65	-3.0729	298.798	255.952	58.120	367.883	318.851	355.671	303.354	370.529	247.249	308.062	47.255	235.324	86.013	247.332	219.195	269.612	0.00013835	0.00077989	6.9772e-05	508.9	1.8287e-06	4.1389e-06	564.24	184.12	3.5988e-06	2.2928e-06	204.05	56.643	53.096	14.079	6.3028e-06	17.894	0.00018511	0.00017993	5.2216e-05	495.45	1.9756e-06	2.0066e-06	541.92	177.56	1.9741e-06	1.9451e-06	193.12	55.103	51.311	13.824	1.9988e-06	17.765	142.733	35.038	150.609	39.205	234.133	194.449	37.867	43.907	97.046	155.083	41.124	44.970	48.587	53.582	152.235	48.016	-8191	255	
1736.463	1	1	0	0	0.24073	0.10687	0.13247	0.18603	0.15984	0.24428	0.066851	0.1833	0.10293	0.11061	0.29316	0.14616	0.14194	0.2651	0.15648	0.10841	-1.9125	-2.8396	-2.9458	-2.3771	-3.2771	-2.4792	-2.6333	-3.1146	-2.1688	-3.0729	-2.6917	-2.2646	-3.0375	-2.5438	-2.45	-3.0521	256.058	222.734	249.655	316.643	362.977	27.839	31.814	260.874	155.481	199.179	306.321	159.341	318.901	286.196	321.770	368.813	0.00017441	8.362e-05	2.1687e-05	513.47	1.025e-06	5.1424e-06	566.88	184.89	4.5023e-06	9.2618e-07	203.55	56.49	53.261	14.026	3.4436e-06	18.235	0.00017561	0.00017962	5.0841e-05	497.08	1.9103e-06	1.9951e-06	545.58	177.74	1.9154e-06	1.979e-06	192.84	55.016	51.326	13.902	2.0314e-06	17.84	148.749	205.416	155.689	39.525	117.487	171.632	37.571	43.808	277.718	107.469	40.862	44.789	49.168	52.964	125.840	48.193	-8191	255	
1736.559	1	1	0	0	0.13885	0.13963	0.070034	0.15174	0.23252	0.22381	0.094414	0.078546	0.096006	0.13019	0.28253	0.23305	0.27013	0.2387	0.15155	0.040677	-1.9875	-2.6021	-2.7438	-2.2188	-2.9271	-2.8604	-2.4021	-3.0875	-2.2833	-2.6208	-2.9229	-2.4396	-3.0583	-2.5708	-2.5083	-2.9708	132.175	272.378	275.849	313.134	166.769	121.144	234.195	58.736	127.670	98.614	350.466	333.698	168.233	178.715	180.898	71.457	0.0002488	0.00057458	7.7754e-05	508.79	2.3044e-06	2.2039e-06	560.58	184.03	3.0034e-06	1.7625e-06	203.9	56.712	52.623	14.059	2.3603e-06	18.312	0.00017766	0.00018166	5.2381e-05	493.33	1.941e-06	2.0347e-06	541.88	177.19	1.9847e-06	2.0181e-06	193.6	55.093	51.002	13.967	2.0563e-06	17.88	154.296	371.146	155.698	39.148	222.898	99.734	37.900	43.806	213.437	265.712	40.752	44.712	48.981	53.527	175.553	47.949	-8191	255	
1736.655	1	1	0	0	0.14105	0.053223	0.11864	0.1091	0.10878	0.056631	0.17821	0.16146	0.059089	0.16539	0.34346	0.13788	0.052017	0.15517	0.091339	0.074748	-2.0958	-2.6417	-2.9729	-2.3354	-2.7625	-2.9604	-2.5479	-3.1208	-2.6271	-2.5521	-3.1333	-2.3021	-2.7062	-2.8042	-2.1792	-3.0875	72.290	316.616	35.347	173.007	210.914	154.035	329.540	126.151	139.849	44.436	38.156	65.773	62.602	273.136	257.089	276.910	0.00016438	0.00034833	0.00014724	502.48	8.9465e-07	2.9013e-06	560.29	185.1	1.8568e-06	2.8356e-06	204.26	56.932	52.743	13.977	4.7643e-06	18.143	0.00018006	0.000185	5.1868e-05	489.57	1.9515e-06	2.0222e-06	541.55	177.07	1.962e-06	1.9861e-06	192.89	54.73	50.864	13.856	2.0013e-06	17.698	167.697	89.197	46.158	39.254	261.988	340.242	38.048	44.040	191.286	186.609	40.748	45.055	48.831	53.641	196.002	48.223	-8191	255	
1736.751	1	1	0	0	0.040561	0.095559	0.10815	0.18591	0.050669	0.36924	0.24822	0.011554	0.19181	0.1642	0.27225	0.17104	0.35355	0.1655	0.10949	0.20195	-2.0917	-2.5812	-3.1063	-2.3875	-2.8646	-3.0979	-2.4292	-3.175	-2.6375	-2.2604	-3.2833	-2.3625	-2.8917	-3.0917	-2.2729	-2.9042	32.829	354.503	313.920	376.760	56.404	165.022	331.753	261.822	285.915	381.915	345.873	354.403	295.009	259.914	329.982	271.528	0.00014246	0.00077109	5.7788e-05	507.46	2.7157e-06	3.0494e-06	559.68	183.56	1.2554e-06	2.1885e-06	204.28	56.084	52.365	13.902	5.8152e-06	18.091	0.00017686	0.00017858	4.9826e-05	489.83	1.9317e-06	1.9804e-06	540.61	176.24	1.9576e-06	1.9456e-06	191.39	54.004	50.516	13.745	1.9008e-06	17.509	106.167	94.434	45.712	39.403	267.293	284.469	37.688	44.094	221.514	177.968	40.568	45.429	49.194	53.839	39.186	48.033	-8191	255	
1736.847	1	1	0	0	0.13558	0.1141	0.29771	0.25804	0.061786	0.086042	0.073991	0.29542	0.22285	0.1462	0.22239	0.20641	0.16006	0.14506	0.069398	0.15208	-2.3875	-2.275	-3.0875	-2.3271	-2.8625	-2.8583	-2.5271	-2.9625	-2.7438	-2.4521	-2.8979	-2.6625	-2.7062	-2.9083	-2.2438	-3.0021	121.776	246.666	312.857	212.916	30.787	154.432	290.135	42.103	114.510	308.869	173.197	84.513	186.849	137.785	114.442	360.331	0.00012564	0.00034695	1.7913e-05	507.68	5.7313e-07	6.2962e-06	567.54	183.25	3.0284e-06	4.7807e-06	203.8	56.276	52.425	13.588	2.6429e-06	17.801	0.00017407	0.00017736	4.6923e-05	491.11	1.8929e-06	1.9378e-06	543.58	176.05	1.9146e-06	1.9104e-06	190.95	54.021	50.622	13.46	1.8129e-06	17.267	142.234	186.132	167.142	39.493	226.111	300.418	37.790	43.996	181.232	188.041	40.511	45.561	48.761	53.656	331.381	48.236	-8191	255	
1736.966	1	1	0	0	0.086803	0.12732	0.097021	0.16668	0.11084	0.28108	0.10968	0.11685	0.055939	0.2508	0.14212	0.015571	0.15921	0.26623	0.19108	0.15576	-2.1396	-2.4625	-3.0458	-2.5958	-2.5396	-3.0187	-2.4521	-2.8979	-2.7583	-2.4062	-3.0062	-2.5229	-2.5021	-3.05	-2.3583	-2.95	215.431	281.056	340.049	327.634	384.856	106.832	63.414	193.359	125.601	256.385	175.593	368.712	339.745	348.635	309.693	52.862	0.00013947	0.00012798	8.4777e-05	515.32	2.189e-06	3.5988e-06	573.05	183.95	1.7094e-06	2.3986e-06	203.72	55.544	52.875	13.226	2.03e-06	17.211	0.00017035	0.00017254	4.5098e-05	495.11	1.8285e-06	1.8688e-06	548.88	176.27	1.8438e-06	1.8586e-06	190.69	53.636	50.91	13.021	1.7875e-06	16.76	153.451	193.981	284.504	39.201	320.001	77.834	37.842	44.185	184.017	272.611	40.972	45.558	48.978	53.514	238.550	48.601	-8191	255	
1737.062	1	1	0	0	0.24881	0.32258	0.029619	0.10089	0.25051	0.1463	0.25972	0.21457	0.11682	0.077914	0.22136	0.1855	0.23201	0.11209	0.23849	0.21309	-2.6083	-2.1146	-2.9917	-2.6083	-2.3042	-3.3792	-2.3292	-2.6917	-3.0104	-2.1771	-2.9833	-2.8417	-2.4521	-2.9979	-2.3917	-2.775	228.785	70.701	318.469	263.198	134.632	211.058	317.671	209.920	360.626	48.931	106.657	170.260	347.370	31.448	232.037	42.305	0.00013705	0.00031793	7.0231e-05	515.17	3.9834e-06	4.5473e-06	576.88	184.95	5.0835e-06	2.0643e-06	205.07	55.776	52.294	13.047	2.2321e-07	17.114	0.00016919	0.00016917	4.466e-05	496.06	1.85e-06	1.8352e-06	552.37	175.92	1.8632e-06	1.8273e-06	190.7	53.393	50.637	12.867	1.8278e-06	16.723	146.696	353.292	109.654	39.324	247.716	192.214	38.054	44.137	178.308	236.357	40.812	45.563	48.972	53.220	177.389	48.495	-8191	255	
#DATA ENDS
