BOXY.EXE: ISS Imagent and Oximeter Data Acquisition Program Version 0.80
Ascii Record File

#ACQ INFORMATION
2  Detector Channels 
16  External MUX Channels 
1  Auxiliary Channels 
5000  Waveform (CCF) Frequency (Hz)
1  Waveforms Skipped 
30  Waveforms Averaged 
1  Cycles Averaged 
16  Acquisitions per Waveform 
10.0806  Updata Rate (Hz) 

#FILE INFORMATION
TRUE -- External MUX Channel results are PARSED.
FALSE -- AC DC and Phase are NOT grouped.
TRUE -- Companion Program Settings File CREATED.
FALSE -- AC data not excluded
FALSE -- DC data not excluded
FALSE -- Phase data not excluded
FALSE -- Auxillary Chn. data not excluded
Tab delimiters

#CALIBRATION STATE
TRUE -- Waveform Calibration Values APPLIED.


#AUX CALIBRATION VALUES
Val Type	aux-1	

Term	1.0000e+00	
Factor	0.0000e+00	


#WF CALIBRATION VALUES
A = Detector Channel
Val Type	A-AC1	A-AC2	A-AC3	A-AC4	A-AC5	A-AC6	A-AC7	A-AC8	A-AC9	A-AC10	A-AC11	A-AC12	A-AC13	A-AC14	A-AC15	A-AC16	A-DC1	A-DC2	A-DC3	A-DC4	A-DC5	A-DC6	A-DC7	A-DC8	A-DC9	A-DC10	A-DC11	A-DC12	A-DC13	A-DC14	A-DC15	A-DC16	A-Ph1	A-Ph2	A-Ph3	A-Ph4	A-Ph5	A-Ph6	A-Ph7	A-Ph8	A-Ph9	A-Ph10	A-Ph11	A-Ph12	A-Ph13	A-Ph14	A-Ph15	A-Ph16	

Term	0.00000e+00	0.00000e+00	0.00000e+00	0.00000e+00	0.00000e+00	0.00000e+00	0.00000e+00	0.00000e+00	0.00000e+00	0.00000e+00	0.00000e+00	0.00000e+00	0.00000e+00	0.00000e+00	0.00000e+00	0.00000e+00	0.00000e+00	0.00000e+00	0.00000e+00	0.00000e+00	0.00000e+00	0.00000e+00	0.00000e+00	0.00000e+00	0.00000e+00	0.00000e+00	0.00000e+00	0.00000e+00	0.00000e+00	0.00000e+00	0.00000e+00	0.00000e+00	0.00000e+00	0.00000e+00	0.00000e+00	0.00000e+00	0.00000e+00	0.00000e+00	0.00000e+00	0.00000e+00	0.00000e+00	0.00000e+00	0.00000e+00	0.00000e+00	0.00000e+00	0.00000e+00	0.00000e+00	0.00000e+00	
Factor	1.00000e+00	1.00000e+00	1.00000e+00	1.00000e+00	1.00000e+00	1.00000e+00	1.00000e+00	1.00000e+00	1.00000e+00	1.00000e+00	1.00000e+00	1.00000e+00	1.00000e+00	1.00000e+00	1.00000e+00	1.00000e+00	1.00000e+00	1.00000e+00	1.00000e+00	1.00000e+00	1.00000e+00	1.00000e+00	1.00000e+00	1.00000e+00	1.00000e+00	1.00000e+00	1.00000e+00	1.00000e+00	1.00000e+00	1.00000e+00	1.00000e+00	1.00000e+00	X	X	X	X	X	X	X	X	X	X	X	X	X	X	X	X	

B = Detector Channel
Val Type	B-AC1	B-AC2	B-AC3	B-AC4	B-AC5	B-AC6	B-AC7	B-AC8	B-AC9	B-AC10	B-AC11	B-AC12	B-AC13	B-AC14	B-AC15	B-AC16	B-DC1	B-DC2	B-DC3	B-DC4	B-DC5	B-DC6	B-DC7	B-DC8	B-DC9	B-DC10	B-DC11	B-DC12	B-DC13	B-DC14	B-DC15	B-DC16	B-Ph1	B-Ph2	B-Ph3	B-Ph4	B-Ph5	B-Ph6	B-Ph7	B-Ph8	B-Ph9	B-Ph10	B-Ph11	B-Ph12	B-Ph13	B-Ph14	B-Ph15	B-Ph16	

Term	0.00000e+00	0.00000e+00	0.00000e+00	0.00000e+00	0.00000e+00	0.00000e+00	0.00000e+00	0.00000e+00	0.00000e+00	0.00000e+00	0.00000e+00	0.00000e+00	0.00000e+00	0.00000e+00	0.00000e+00	0.00000e+00	0.00000e+00	0.00000e+00	0.00000e+00	0.00000e+00	0.00000e+00	0.00000e+00	0.00000e+00	0.00000e+00	0.00000e+00	0.00000e+00	0.00000e+00	0.00000e+00	0.00000e+00	0.00000e+00	0.00000e+00	0.00000e+00	1.18084e+01	-1.38873e+02	-1.24998e+02	-1.83146e+02	-7.27340e+01	-6.37033e+01	-1.60638e+02	-1.62015e+02	-3.12208e+01	-6.27560e+01	-1.72582e+02	-1.72483e+02	-1.83079e+02	-1.78092e+02	-9.56933e+01	-1.50919e+02	
Factor	4.44032e-05	1.51227e-04	4.59897e-05	1.52212e-01	1.40126e-06	1.22182e-06	1.72356e-01	5.67285e-02	1.37058e-06	1.58077e-06	8.83220e-02	2.95593e-02	2.80079e-02	9.00119e-03	1.53101e-06	1.30876e-02	1.36817e-06	1.41543e-06	3.92752e-07	7.76740e-02	1.54102e-08	1.54915e-08	8.23777e-02	2.87967e-02	1.53811e-08	1.54814e-08	4.31705e-02	1.44196e-02	1.41529e-02	4.56543e-03	1.54541e-08	6.40635e-03	X	X	X	X	X	X	X	X	X	X	X	X	X	X	X	X	



#DISTANCE SETTINGS
A = Detector Channel
A-1	A-2	A-3	A-4	A-5	A-6	A-7	A-8	A-9	A-10	A-11	A-12	A-13	A-14	A-15	A-16	

2.5000e+00	3.0000e+00	2.5000e+00	3.0000e+00	2.0000e+00	3.0000e+00	1.5000e+00	3.0000e+00	3.0000e+00	3.0000e+00	3.0000e+00	3.0000e+00	3.0000e+00	3.0000e+00	1.5000e+00	3.0000e+00	

B = Detector Channel
B-1	B-2	B-3	B-4	B-5	B-6	B-7	B-8	B-9	B-10	B-11	B-12	B-13	B-14	B-15	B-16	

1.0000e+01	1.0000e+01	1.0000e+01	1.4400e+00	1.0000e+01	1.0000e+01	1.5100e+00	1.9400e+00	1.0000e+01	1.0000e+01	1.9900e+00	2.4900e+00	2.4100e+00	2.9000e+00	1.0000e+01	2.9800e+00	




#DATA BEGINS
time	group	step	mark	flag	A-AC1	A-AC2	A-AC3	A-AC4	A-AC5	A-AC6	A-AC7	A-AC8	A-AC9	A-AC10	A-AC11	A-AC12	A-AC13	A-AC14	A-AC15	A-AC16	A-DC1	A-DC2	A-DC3	A-DC4	A-DC5	A-DC6	A-DC7	A-DC8	A-DC9	A-DC10	A-DC11	A-DC12	A-DC13	A-DC14	A-DC15	A-DC16	A-Ph1	A-Ph2	A-Ph3	A-Ph4	A-Ph5	A-Ph6	A-Ph7	A-Ph8	A-Ph9	A-Ph10	A-Ph11	A-Ph12	A-Ph13	A-Ph14	A-Ph15	A-Ph16	B-AC1	B-AC2	B-AC3	B-AC4	B-AC5	B-AC6	B-AC7	B-AC8	B-AC9	B-AC10	B-AC11	B-AC12	B-AC13	B-AC14	B-AC15	B-AC16	B-DC1	B-DC2	B-DC3	B-DC4	B-DC5	B-DC6	B-DC7	B-DC8	B-DC9	B-DC10	B-DC11	B-DC12	B-DC13	B-DC14	B-DC15	B-DC16	B-Ph1	B-Ph2	B-Ph3	B-Ph4	B-Ph5	B-Ph6	B-Ph7	B-Ph8	B-Ph9	B-Ph10	B-Ph11	B-Ph12	B-Ph13	B-Ph14	B-Ph15	B-Ph16	aux-1	digaux	

20876.502	1	1	0	256	0.25178	0.26362	0.22546	0.25738	0.10218	0.17102	0.29408	0.1867	0.26525	0.24807	0.088393	0.25624	0.1158	0.21143	0.11491	0.13293	-2.4021	-2.3583	-2.6813	-3.1896	-2.3958	-2.8438	-2.8833	-2.5604	-2.925	-2.5146	-2.7792	-3.0438	-2.4583	-2.7438	-2.8375	-2.5438	405.161	412.690	329.751	375.472	323.440	234.543	405.786	392.023	135.546	108.661	386.813	356.035	398.380	326.381	287.229	104.753	0.00061554	0.00019984	4.4659e-05	1088.3	3.2126e-06	6.4785e-07	1189.2	223.62	6.136e-06	2.6285e-06	281.33	80.08	63.256	18.458	2.5644e-06	25.628	0.00020117	0.00019822	5.3842e-05	1068.3	2.1888e-06	2.144e-06	1161.8	220.22	2.1845e-06	2.1617e-06	277.04	79.388	62.453	18.643	2.1833e-06	25.754	317.235	234.132	192.372	89.524	284.193	344.728	89.359	97.360	252.651	159.135	96.628	103.978	104.405	110.827	176.037	110.154	-8191	255	
20876.621	1	1	0	0	0.17473	0.32627	0.16745	0.3767	0.12743	0.11181	0.351	0.1036	0.21069	0.15164	0.099393	0.14319	0.14703	0.36738	0.14011	0.36032	-2.6312	-2.5479	-2.7021	-3	-2.5958	-2.7458	-3.0458	-2.4583	-2.9479	-2.6979	-2.6646	-2.9875	-2.4833	-2.7042	-2.7229	-2.5229	90.400	288.998	380.308	376.388	309.531	227.873	375.569	370.371	167.029	239.741	179.460	394.983	168.955	419.037	387.956	382.904	0.00053251	0.00034852	0.00017158	1090.3	4.0621e-06	2.9419e-06	1183.7	223.37	5.5566e-06	2.9998e-06	281.67	80.168	63.383	18.345	8.1021e-06	25.679	0.00020503	0.00019731	5.559e-05	1070.5	2.2556e-06	2.2052e-06	1159.6	220.51	2.2342e-06	2.2116e-06	276.73	79.479	62.566	18.618	2.2155e-06	25.744	305.259	209.911	170.443	89.422	174.183	216.522	89.309	97.445	293.975	213.354	96.706	104.200	103.905	110.727	199.953	110.195	-8191	255	
20876.717	1	1	0	0	0.091061	0.20267	0.15142	0.24793	0.10076	0.27389	0.21264	0.26753	0.15087	0.2891	0.12008	0.079088	0.19999	0.25237	0.12991	0.2185	-2.4062	-2.6813	-2.4875	-3.2542	-2.5812	-2.6125	-2.85	-2.4042	-2.7625	-2.6521	-2.4813	-2.875	-2.4688	-2.7625	-2.7687	-2.3667	219.213	286.552	90.641	417.355	161.547	260.689	384.550	81.952	397.193	318.162	207.327	410.076	294.486	405.762	290.973	286.244	0.00062306	0.00036192	2.3801e-05	1088.5	6.8315e-06	4.9924e-06	1184.6	223.22	4.4504e-06	2.283e-06	280.5	80.439	63.036	18.415	4.1936e-06	25.572	0.00020924	0.00019869	5.6739e-05	1070.7	2.1809e-06	2.1583e-06	1161.2	220.19	2.1783e-06	2.1441e-06	276.44	79.249	62.516	18.592	2.1348e-06	25.775	309.704	169.340	140.535	89.529	200.855	179.263	89.535	96.898	250.547	267.101	96.378	103.692	104.252	110.792	185.520	110.290	-8191	255	
20876.812	1	1	0	0	0.13131	0.083262	0.055635	0.28007	0.072483	0.067686	0.19461	0.28416	0.10245	0.023734	0.20719	0.074815	0.11881	0.16285	0.13748	0.31678	-2.35	-2.6667	-2.4667	-3.1292	-2.4896	-2.5938	-3.0167	-2.6917	-2.8187	-2.8229	-2.5062	-2.8542	-2.4437	-2.5229	-2.9458	-2.7417	344.077	297.235	373.521	434.270	170.973	320.191	312.007	348.685	398.211	313.348	432.607	342.052	337.754	85.374	389.834	377.467	0.00051479	0.00050901	3.492e-05	1091.2	4.5533e-06	3.393e-06	1185.1	224.1	5.0216e-07	1.7239e-06	280.82	80.594	63	18.438	8.8369e-06	25.39	0.00020327	0.00019229	5.4438e-05	1069.8	2.12e-06	2.1258e-06	1159.6	220.95	2.1372e-06	2.123e-06	276.33	79.336	62.42	18.581	2.1155e-06	25.661	320.942	181.587	109.403	89.301	249.532	188.254	89.408	97.541	410.879	276.231	96.791	103.922	104.021	111.325	197.079	110.365	-8191	255	
20876.908	1	1	0	0	0.26871	0.22754	0.32748	0.24155	0.1246	0.1149	0.15962	0.26396	0.29361	0.16945	0.25075	0.29804	0.081786	0.16354	0.040863	0.29812	-2.2083	-2.7875	-2.4562	-3.1854	-2.6146	-2.6042	-2.8438	-2.5604	-2.6958	-2.6458	-2.5208	-2.8104	-2.4208	-2.4021	-2.8854	-2.5812	331.122	302.591	279.500	81.173	165.606	293.600	379.592	80.782	306.374	104.633	108.686	85.012	191.228	412.662	429.620	200.100	0.00057232	0.00069293	0.00013626	1092.6	3.2071e-06	1.435e-06	1189	224.18	1.3308e-06	5.2633e-06	280.66	80.704	63.26	18.338	5.1376e-06	25.561	0.00020199	0.00019354	5.3404e-05	1070	2.1302e-06	2.1054e-06	1159.9	220.59	2.1674e-06	2.1124e-06	276.6	79.422	62.413	18.58	2.1694e-06	25.703	315.005	250.158	226.413	89.468	144.729	136.701	89.465	97.247	248.381	229.986	96.803	103.533	104.254	111.085	175.345	109.880	-8191	255	
20877.004	1	1	0	0	0.025655	0.14294	0.22251	0.58765	0.41841	0.15376	0.17687	0.29956	0.20806	0.12468	0.1073	0.053327	0.037404	0.1456	0.12618	0.055451	-2.1354	-2.6417	-2.25	-2.8042	-2.6688	-2.4938	-3.0104	-2.5438	-2.6771	-2.8333	-2.3771	-2.8896	-2.7208	-2.4188	-2.8521	-2.4708	243.947	164.231	422.667	393.352	262.904	426.357	351.708	364.754	217.950	322.297	125.687	143.496	177.397	350.567	248.129	231.944	0.00059815	0.00040961	6.1904e-05	1089.2	1.3827e-06	7.1722e-07	1191.1	222.87	2.1857e-06	5.7615e-07	281.9	80.474	63.02	18.385	2.957e-06	25.56	0.00020448	0.00019705	5.5464e-05	1070.2	2.1926e-06	2.223e-06	1160.4	220.87	2.2146e-06	2.1755e-06	276.55	79.482	62.507	18.574	2.1987e-06	25.702	312.098	136.063	270.853	89.407	85.507	259.715	89.562	97.116	268.211	128.847	96.608	103.849	103.995	111.184	211.956	110.418	-8191	255	
20877.100	1	1	0	0	0.099982	0.044645	0.15382	0.0076796	0.19981	0.14485	0.14135	0.17254	0.075659	0.077144	0.14467	0.022978	0.187	0.24105	0.15113	0.11742	-2.225	-2.6583	-2.3458	-2.8771	-2.6	-2.2687	-2.9271	-2.3875	-2.7083	-2.6792	-2.4417	-2.9146	-2.7771	-2.3271	-2.8354	-2.4979	204.398	312.846	386.645	84.984	423.458	114.896	176.004	79.668	224.860	124.005	391.580	117.129	82.573	398.940	124.137	355.589	0.0004975	0.00026342	8.5256e-05	1090.4	4.0871e-06	1.5779e-06	1189.4	224.44	4.8034e-06	1.8465e-06	281.92	80.149	63.129	18.44	3.7831e-06	25.383	0.00021219	0.00020026	5.6861e-05	1072	2.2917e-06	2.2547e-06	1162.3	221.32	2.2659e-06	2.2701e-06	277.39	79.646	62.747	18.664	2.3006e-06	25.747	308.754	120.581	296.812	89.530	259.848	412.835	89.485	96.973	252.643	109.631	96.250	104.103	104.096	111.346	205.230	109.775	-8191	255	
20877.221	1	1	0	0	0.15317	0.08664	0.066521	0.11216	0.2686	0.13426	0.22364	0.11896	0.22154	0.093086	0.22042	0.29061	0.14935	0.10868	0.19729	0.15035	-2.1708	-2.8812	-2.2854	-2.6521	-2.7208	-2.5812	-2.9271	-2.6146	-2.5062	-2.7729	-2.4875	-2.7438	-2.7958	-2.3563	-2.7583	-2.4646	385.741	90.672	306.229	103.087	229.018	352.641	379.933	402.760	141.031	380.999	364.844	384.431	116.769	320.993	211.807	417.407	0.00064778	0.00023301	0.0001233	1089.2	3.594e-07	2.7923e-06	1194.2	225.03	2.4004e-06	2.3045e-06	282.44	80.133	63.079	18.341	6.8438e-06	25.503	0.00022228	0.00021373	5.8464e-05	1071.6	2.3059e-06	2.2848e-06	1163.2	221.57	2.2329e-06	2.2714e-06	277.47	79.659	62.702	18.606	2.2767e-06	25.733	310.735	197.775	182.610	89.500	161.418	302.142	89.538	97.400	224.510	409.943	96.944	104.057	103.641	110.600	178.646	109.595	-8191	255	
20877.316	1	1	0	0	0.08239	0.19684	0.1373	0.19755	0.16478	0.077967	0.25075	0.16672	0.28341	0.2476	0.017716	0.11861	0.16639	0.069829	0.030673	0.32678	-1.9562	-2.8146	-2.3646	-2.7333	-2.8312	-2.3896	-2.7792	-2.7125	-2.2896	-2.7083	-2.5604	-2.7146	-2.75	-2.4229	-2.6917	-2.775	87.055	198.984	313.559	364.463	333.861	155.544	413.663	387.278	83.624	438.256	428.916	128.060	101.709	417.537	370.513	374.736	0.0005875	0.00029725	0.00011292	1092.1	2.1132e-06	1.3029e-06	1187.6	224.97	3.4074e-06	1.0227e-06	283.15	80.384	63.278	18.284	1.8321e-06	25.549	0.00021065	0.00020364	5.6986e-05	1073.5	2.2629e-06	2.2431e-06	1163.5	221.58	2.2498e-06	2.2274e-06	277.96	79.598	62.656	18.559	2.2687e-06	25.753	317.307	181.194	153.560	89.652	205.233	195.430	89.539	96.813	288.611	401.188	96.500	103.569	104.190	111.294	141.676	110.197	-8191	255	
20877.412	1	1	0	0	0.18059	0.18084	0.096587	0.15077	0.10916	0.028485	0.02319	0.13318	0.12265	0.22247	0.27037	0.21383	0.17758	0.15838	0.144	0.096684	-1.8208	-2.825	-2.4979	-2.7125	-2.7396	-2.2771	-2.6917	-2.825	-2.2667	-2.8792	-2.5083	-2.5042	-2.8937	-2.3604	-2.7167	-2.6396	104.116	427.414	352.974	362.637	143.735	146.322	414.197	396.046	287.833	212.062	106.005	385.922	427.345	168.141	413.158	190.493	0.000644	0.00039346	3.746e-05	1091.6	6.0891e-06	5.4095e-06	1191.1	224.43	7.1004e-06	5.8779e-06	280.62	80.535	63.249	18.245	8.2471e-06	25.508	0.00021354	0.0002043	5.6572e-05	1073.9	2.2401e-06	2.215e-06	1163.5	221.39	2.2428e-06	2.1995e-06	276.73	79.695	62.724	18.575	2.1934e-06	25.739	316.259	105.309	136.400	89.537	221.244	235.327	89.597	97.314	290.961	224.638	96.789	103.930	104.005	111.044	228.484	110.322	-8191	255	
20877.484	1	1	0	0	0.084996	0.096272	0.033379	0.23306	0.3246	0.168	0.22732	0.22238	0.12631	0.12409	0.19726	0.2214	0.08534	0.2589	0.25299	0.22763	-1.9396	-2.6646	-2.6167	-2.5	-2.6562	-2.3208	-2.8375	-2.7333	-2.4021	-2.6729	-2.6042	-2.3271	-2.7771	-2.4396	-2.4604	-2.6813	390.307	415.895	240.619	339.634	146.624	135.752	284.211	313.423	173.186	144.536	376.149	329.013	155.271	375.119	387.351	351.400	0.00059867	0.00018149	0.00015661	1099.2	5.8617e-06	3.8918e-06	1188.9	223.82	6.4476e-06	5.2296e-06	281	80.73	63.472	18.479	2.0406e-06	25.563	0.00020845	0.0002014	5.5381e-05	1074.5	2.1702e-06	2.1634e-06	1162.2	221.13	2.1723e-06	2.1675e-06	277.28	79.412	62.425	18.563	2.1721e-06	25.711	306.408	416.352	149.940	89.296	185.031	252.726	89.471	97.286	264.744	218.280	96.494	103.415	104.333	111.114	270.441	110.630	-8191	255	
20877.604	1	1	0	0	0.11383	0.095576	0.34749	0.11656	0.25236	0.073556	0.44112	0.29722	0.13429	0.18889	0.33706	0.1652	0.22268	0.2469	0.16104	0.19531	-1.8042	-2.5833	-2.625	-2.3604	-2.8812	-2.5104	-2.5187	-2.8563	-2.3042	-2.7833	-2.6333	-2.3521	-2.7313	-2.3958	-2.5125	-2.7958	204.177	276.509	217.420	397.204	430.093	199.328	357.323	299.220	239.585	189.289	383.779	340.314	419.357	421.242	401.056	372.039	0.00055733	0.00056313	7.3424e-05	1097.1	5.1336e-06	4.6733e-06	1194.9	224.62	3.4522e-07	9.2201e-06	281.01	80.159	63.194	18.3	1.9862e-06	25.437	0.00020243	0.00019685	5.4719e-05	1073.1	2.1741e-06	2.1226e-06	1162.8	221.78	2.146e-06	2.1817e-06	277.01	79.373	62.744	18.583	2.1804e-06	25.71	302.409	203.345	247.815	89.441	209.123	208.211	89.233	97.184	408.577	243.727	96.945	104.036	104.219	110.945	324.358	110.241	-8191	255	
20877.699	1	1	0	0	0.15571	0.11956	0.30593	0.17341	0.29471	0.16901	0.36796	0.39286	0.22502	0.27242	0.098966	0.22321	0.21071	0.12277	0.24494	0.081683	-1.7687	-2.5771	-2.625	-2.4646	-2.6312	-2.3854	-2.6188	-2.7917	-2.1604	-2.6208	-2.7479	-2.1646	-2.8	-2.6333	-2.4771	-2.9292	106.581	123.166	291.171	432.727	85.595	117.987	333.320	410.689	221.982	112.610	98.889	374.208	406.687	131.114	220.828	153.434	0.00062607	0.0004717	0.00015461	1094.7	6.6052e-06	6.4327e-07	1189.1	224.58	5.5279e-06	5.9213e-06	280.38	80.133	63.386	18.425	1.9628e-06	25.467	0.00020464	0.000199	5.454e-05	1073.3	2.1354e-06	2.1399e-06	1162.1	221.66	2.1611e-06	2.1321e-06	276.61	79.5	62.578	18.567	2.1929e-06	25.721	313.755	97.232	147.397	89.324	209.648	385.040	89.452	97.385	220.333	177.723	96.578	103.470	103.693	110.463	167.794	109.896	-8191	255	
20877.797	1	1	0	0	0.20071	0.1642	0.25975	0.19329	0.17186	0.068443	0.36597	0.16945	0.14497	0.36239	0.20309	0.17858	0.081765	0.26767	0.24964	0.10499	-1.8667	-2.5292	-2.7083	-2.4479	-2.7542	-2.5708	-2.75	-2.9104	-2.3792	-2.5396	-2.7604	-2.4188	-2.7729	-2.5354	-2.2354	-2.8563	399.982	266.258	146.044	331.674	428.157	236.608	382.480	116.639	131.391	306.392	374.280	133.119	242.324	311.110	187.559	127.988	0.00059769	0.00014103	4.7166e-05	1095.8	3.3828e-06	4.2872e-06	1188.5	224.77	2.9969e-06	5.0941e-06	282.06	80.526	63.273	18.409	2.1699e-06	25.548	0.0002025	0.00019816	5.4503e-05	1073.9	2.1612e-06	2.1895e-06	1163.9	221.86	2.1306e-06	2.1576e-06	277.34	79.418	62.425	18.578	2.1274e-06	25.725	307.365	424.524	254.555	89.317	258.758	270.620	89.462	96.981	265.111	258.802	96.545	103.557	104.164	110.565	240.253	110.154	-8191	255	
20877.893	1	1	0	0	0.12707	0.11581	0.06283	0.20127	0.22746	0.22853	0.27859	0.11328	0.236	0.12051	0.36255	0.29943	0.2154	0.034633	0.13693	0.18614	-2.0167	-2.5979	-2.7104	-2.4396	-2.6229	-2.4667	-2.3833	-2.8063	-2.5083	-2.4958	-2.8	-2.4542	-2.7562	-2.6021	-2.3396	-2.7896	330.512	115.081	171.203	360.886	401.164	308.431	363.277	236.918	294.574	165.765	432.687	404.872	340.082	189.795	228.121	267.321	0.00060538	0.00021772	7.2454e-05	1098.7	6.0989e-07	3.1331e-06	1196.7	223.81	1.7436e-06	4.712e-06	278.8	80.477	63.465	18.285	5.2261e-06	25.478	0.00020148	0.00019342	5.4147e-05	1073.8	2.1276e-06	2.1273e-06	1163.8	221.6	2.1637e-06	2.1357e-06	276.65	79.711	62.702	18.579	2.1578e-06	25.682	311.278	105.675	260.455	89.488	192.344	172.348	89.476	97.308	295.723	252.774	96.767	103.605	104.074	110.950	271.368	110.182	-8191	255	
20878.014	1	1	0	0	0.01152	0.078792	0.17294	0.27684	0.22689	0.11448	0.31982	0.10291	0.12578	0.19958	0.047874	0.053655	0.10811	0.18687	0.054786	0.24594	-2.0354	-2.3542	-3.0021	-2.4583	-2.6354	-2.85	-2.4875	-2.8042	-2.6146	-2.3229	-2.9875	-2.4	-2.6625	-2.6271	-2.4313	-2.8042	328.600	142.315	93.571	391.645	273.180	334.726	108.186	114.671	438.260	123.371	108.681	382.016	225.980	164.578	308.108	190.953	0.00053293	0.00034052	0.00014717	1095.1	2.3224e-06	2.9763e-06	1186.7	225.69	3.5948e-06	3.7471e-06	282.11	80.103	63.736	18.355	1.894e-06	25.677	0.0002051	0.00020345	5.4229e-05	1074.6	2.1736e-06	2.116e-06	1163.3	221.66	2.1885e-06	2.1967e-06	277.74	79.459	62.676	18.61	2.1935e-06	25.786	321.246	178.670	151.524	89.541	198.053	271.851	89.782	97.413	346.958	206.528	96.994	103.588	103.866	110.740	206.461	110.227	-8191	255	
20878.086	1	1	0	0	0.074701	0.14479	0.23266	0.10703	0.2408	0.10055	0.4138	0.25794	0.087421	0.1294	0.10107	0.13296	0.1414	0.077146	0.18586	0.32684	-2.1375	-2.3083	-2.7938	-2.4146	-2.5875	-2.5125	-2.4958	-2.7458	-2.5583	-2.3646	-2.9521	-2.5146	-2.5521	-2.7812	-2.3958	-2.8479	218.568	386.083	384.006	105.430	361.337	102.276	395.930	395.410	222.298	326.757	391.435	303.354	338.413	158.041	99.064	332.876	0.00067705	0.00039394	1.6341e-05	1094.1	3.6579e-06	3.8989e-06	1194.1	223.52	3.2918e-06	6.0681e-06	281.55	80.558	63.405	18.316	1.4402e-06	25.648	0.00020857	0.00020461	5.6594e-05	1076.7	2.3281e-06	2.2337e-06	1166.4	221.94	2.2647e-06	2.2339e-06	277.17	79.733	62.775	18.621	2.2002e-06	25.761	308.153	175.630	425.429	89.470	259.104	251.780	89.370	96.912	281.834	85.564	96.393	103.820	104.106	110.964	230.768	110.205	-8191	255	
20878.182	1	1	0	0	0.040592	0.40965	0.13722	0.21593	0.052064	0.34202	0.37291	0.076359	0.084053	0.13064	0.30422	0.05114	0.43906	0.26652	0.098367	0.10733	-2.4354	-2.2354	-2.7271	-2.5167	-2.4333	-2.9375	-2.5146	-2.6437	-2.6229	-2.3521	-2.9521	-2.6896	-2.525	-2.925	-2.5271	-2.7354	252.689	402.163	146.775	425.052	240.888	387.811	418.922	366.883	377.821	297.080	370.445	344.973	115.181	131.265	155.603	317.530	0.00068485	0.0006261	5.4277e-05	1096.7	3.4859e-06	1.6255e-06	1195.4	224.87	5.2067e-06	2.6171e-06	283.65	80.031	63.045	18.283	5.1836e-06	25.478	0.00020771	0.00020076	5.6101e-05	1075.7	2.2617e-06	2.1902e-06	1166.2	221.7	2.2064e-06	2.1936e-06	278.28	79.543	62.62	18.545	2.1588e-06	25.72	304.147	149.313	327.620	89.550	298.353	214.522	89.415	97.523	279.773	404.859	96.610	103.791	104.136	110.666	248.024	110.347	-8191	255	
20878.301	1	1	0	0	0.12034	0.31938	0.14348	0.17777	0.33616	0.059254	0.11224	0.32345	0.030684	0.11726	0.34866	0.17675	0.19578	0.19173	0.25928	0.15486	-2.2458	-2.2625	-2.6396	-2.6958	-2.4479	-2.8458	-2.4437	-2.675	-2.5854	-2.3458	-2.8396	-2.5854	-2.35	-2.8229	-2.5479	-2.6208	169.253	393.491	270.782	407.790	291.309	102.492	408.142	355.052	230.309	213.464	417.305	349.948	348.054	295.695	337.134	323.553	0.00054091	0.00023689	0.00018813	1090.4	3.0624e-06	1.8285e-06	1197.2	225.36	1.5183e-06	3.608e-06	278.92	80.151	63.591	18.413	6.9215e-06	25.261	0.0002032	0.00019853	5.6073e-05	1074	2.2285e-06	2.2232e-06	1166.6	222.31	2.2286e-06	2.1857e-06	277.24	79.529	62.634	18.622	2.2407e-06	25.764	303.932	348.219	171.464	89.379	196.855	210.334	89.432	96.939	220.913	252.420	96.843	103.626	104.017	111.056	246.916	110.160	-8191	255	
20878.398	1	1	0	0	0.18692	0.24029	0.066284	0.14276	0.14002	0.2515	0.10632	0.18697	0.21399	0.23795	0.15967	0.049001	0.45443	0.25776	0.35078	0.13883	-2.3	-2.2313	-2.7875	-2.6813	-2.4771	-2.9104	-2.7667	-2.5479	-2.7333	-2.2938	-2.6646	-2.6083	-2.4229	-2.6562	-2.4	-2.6	285.895	202.668	255.459	105.306	438.431	268.249	305.481	334.557	324.465	172.006	165.002	128.649	395.314	152.461	129.133	281.474	0.00057568	0.00040197	3.9219e-05	1094.4	4.0744e-06	1.5957e-06	1194.1	225.22	4.81e-06	6.1689e-06	281.86	80.407	63.297	18.433	2.1674e-06	25.421	0.00020935	0.00020102	5.725e-05	1073.9	2.243e-06	2.2463e-06	1165.2	221.88	2.2552e-06	2.2374e-06	277.27	79.578	62.695	18.64	2.2281e-06	25.7	302.159	177.316	196.180	89.532	271.667	99.719	89.539	97.043	264.194	286.850	96.911	103.859	104.337	110.765	185.885	110.311	-8191	255	
20878.494	1	1	0	0	0.11932	0.22086	0.086784	0.4419	0.096529	0.23918	0.34176	0.052465	0.10252	0.22709	0.077243	0.13799	0.16871	0.049545	0.28267	0.27674	-2.2604	-2.3375	-2.7188	-2.7042	-2.2542	-2.8479	-2.6667	-2.4792	-2.9062	-2.3312	-2.7042	-2.7167	-2.4292	-2.7479	-2.3729	-2.45	345.220	244.099	350.805	417.406	371.248	327.820	422.135	369.903	178.837	321.470	268.113	414.390	399.694	237.992	358.134	394.706	0.00053599	0.00076039	8.9216e-05	1091.3	3.834e-06	1.2071e-06	1194.1	224.63	1.4665e-06	3.7727e-06	283.35	80.387	63.87	18.372	2.6331e-06	25.562	0.00020816	0.00020304	5.6186e-05	1074.3	2.2331e-06	2.2297e-06	1165.1	222.33	2.2281e-06	2.2505e-06	277.9	79.491	62.859	18.621	2.2958e-06	25.755	310.709	215.194	161.953	89.496	194.285	192.618	89.668	97.173	245.832	289.188	96.630	104.006	104.355	111.042	276.596	110.114	-8191	255	
20878.613	1	1	0	0	0.18681	0.093836	0.12992	0.11697	0.053483	0.06701	0.39478	0.11014	0.19348	0.23773	0.22846	0.16858	0.063514	0.25666	0.34116	0.29402	-2.4313	-2.225	-2.4854	-2.9479	-2.2562	-2.8708	-2.7708	-2.4958	-2.7083	-2.4104	-2.5938	-2.75	-2.2458	-2.7417	-2.3958	-2.3146	144.420	175.825	421.149	92.856	344.531	270.927	335.812	314.406	334.801	142.723	297.200	261.899	282.232	309.835	349.194	83.954	0.00061622	0.00034249	8.653e-05	1094.4	1.4502e-06	2.6478e-06	1195.9	225.41	7.8537e-07	2.7397e-06	282.02	80.916	63.344	18.342	4.2525e-06	25.368	0.00021605	0.00020459	5.7381e-05	1076.3	2.3033e-06	2.2753e-06	1168.1	222.29	2.2852e-06	2.2607e-06	278.11	79.771	62.721	18.658	2.2958e-06	25.74	316.875	177.619	318.451	89.585	270.567	228.982	89.361	97.208	419.720	115.579	96.151	104.111	104.026	110.998	147.220	110.519	-8191	255	
20878.709	1	1	0	0	0.074658	0.045138	0.13244	0.3752	0.19552	0.16454	0.12076	0.22736	0.19893	0.062195	0.027752	0.01572	0.31595	0.10262	0.10862	0.13344	-2.2708	-2.4396	-2.5021	-2.9479	-2.3833	-2.6417	-2.7875	-2.0208	-2.7958	-2.5583	-2.5042	-2.8604	-2.3104	-2.4896	-2.5917	-2.3854	301.823	430.807	303.481	388.707	418.124	339.087	365.529	80.605	235.245	93.151	222.808	248.610	127.555	289.517	246.853	90.768	0.00061441	0.00024363	6.7141e-05	1094	2.6953e-06	2.5548e-06	1190.6	225.08	3.8676e-06	1.7577e-06	283.4	80.965	63.606	18.536	4.3345e-06	25.309	0.00021865	0.00021471	5.9292e-05	1077.4	2.4061e-06	2.3625e-06	1167	222.77	2.4066e-06	2.3935e-06	278.93	80.092	63.029	18.735	2.37e-06	25.753	306.748	162.105	134.401	89.492	200.575	337.465	89.724	97.204	226.388	294.360	96.316	103.680	103.877	110.857	164.969	110.241	-8191	255	
20878.779	1	1	0	0	0.1695	0.17509	0.14572	0.2174	0.25404	0.0098042	0.34838	0.23808	0.074228	0.13226	0.098809	0.24533	0.044549	0.22302	0.0462	0.21333	-2.1708	-2.5104	-2.3937	-3.0667	-2.2875	-2.6021	-2.7542	-2.3146	-2.6833	-2.4229	-2.3708	-2.8063	-2.3854	-2.4813	-2.7521	-2.4667	116.018	93.407	189.322	303.106	332.869	205.908	438.255	424.029	82.013	140.361	228.213	407.213	137.113	358.118	288.142	354.993	0.00066452	0.00021646	6.0799e-05	1098.2	5.2123e-06	4.1139e-06	1194.2	224.44	3.1853e-06	3.6349e-06	282.47	80.38	63.122	18.443	6.7688e-06	25.577	0.00022802	0.00021852	6.0314e-05	1079	2.4148e-06	2.3908e-06	1168.6	222.73	2.4377e-06	2.4105e-06	278.47	79.971	62.887	18.726	2.3934e-06	25.834	305.830	418.343	191.836	89.422	300.852	155.296	89.485	97.340	241.067	223.655	96.446	103.473	104.307	110.561	201.693	109.750	-8191	255	
20878.900	1	1	0	0	0.1361	0.097543	0.08543	0.21174	0.072751	0.28069	0.10793	0.21547	0.1288	0.11353	0.066775	0.17842	0.073191	0.26682	0.11927	0.15201	-2.0854	-2.4625	-2.3937	-2.9146	-2.4667	-2.4917	-2.8521	-2.3792	-2.475	-2.5917	-2.3167	-2.8063	-2.3667	-2.5312	-2.5083	-2.4708	436.758	363.471	302.896	412.595	324.909	200.073	410.385	300.940	396.601	183.990	426.663	424.532	339.729	436.636	273.137	264.158	0.00062906	0.00038134	0.00012518	1100.8	4.4109e-06	3.6783e-06	1192.9	223.96	3.2045e-06	1.9283e-06	282.42	80.752	63.209	18.362	2.6578e-06	25.448	0.00022687	0.00021808	6.0279e-05	1079.6	2.3685e-06	2.3643e-06	1168.1	222.45	2.355e-06	2.3279e-06	278.47	79.806	62.876	18.636	2.2434e-06	25.749	302.468	171.987	141.718	89.392	216.072	318.514	89.334	97.174	320.731	167.954	96.521	103.781	104.001	110.711	273.473	109.655	-8191	255	
20878.996	1	1	0	0	0.20688	0.2037	0.15776	0.063677	0.22523	0.076382	0.26429	0.30698	0.062504	0.11697	0.07157	0.090564	0.13836	0.080372	0.29831	0.17385	-2.2167	-2.3896	-2.3021	-2.9208	-2.5104	-2.3875	-2.6979	-2.5271	-2.5917	-2.5479	-2.3438	-2.7917	-2.6104	-2.3208	-2.8083	-2.2979	416.154	323.597	221.341	157.997	202.021	223.321	329.417	358.776	198.836	152.887	214.327	299.030	123.326	123.213	415.212	389.950	0.00053818	0.00043379	0.00012772	1098.3	4.5003e-06	2.655e-06	1195.9	224.46	4.9354e-06	5.1089e-06	281.93	80.898	63.381	18.386	1.4398e-06	25.596	0.00021476	0.00020619	5.5536e-05	1078.1	2.25e-06	2.2529e-06	1168.9	222.09	2.2486e-06	2.1921e-06	278.25	79.768	62.684	18.608	2.193e-06	25.689	312.470	158.668	182.064	89.492	271.628	239.084	89.162	97.046	287.013	181.743	96.691	104.010	104.215	110.862	105.420	109.931	-8191	255	
20879.094	1	1	0	0	0.23555	0.27135	0.23296	0.3457	0.11618	0.12176	0.18564	0.24526	0.12527	0.23346	0.22595	0.11999	0.11078	0.092071	0.13187	0.095618	-2.0833	-2.6729	-2.1771	-2.8375	-2.4979	-2.375	-2.8563	-2.5563	-2.7333	-2.8312	-2.2562	-2.8354	-2.7	-2.3292	-2.8104	-2.3521	419.946	436.685	389.770	391.050	306.615	375.981	346.089	400.443	84.715	134.212	291.785	405.328	405.618	146.831	392.208	382.492	0.0004676	0.00019747	9.9354e-05	1103.5	6.2033e-06	4.4859e-06	1197.6	226.38	1.6407e-06	7.2843e-06	281.67	80.011	63.157	18.333	4.6317e-06	25.538	0.00020844	0.00020352	5.6567e-05	1079.7	2.2512e-06	2.2655e-06	1170.2	222.5	2.2746e-06	2.2586e-06	278.06	79.469	62.835	18.636	2.317e-06	25.785	319.788	167.536	98.482	89.353	210.375	222.005	89.332	97.288	218.741	161.239	96.464	103.893	104.306	110.779	213.186	110.350	-8191	255	
20879.189	1	1	0	0	0.064843	0.2821	0.093261	0.10083	0.24115	0.20572	0.20681	0.079842	0.10154	0.017031	0.23154	0.17277	0.17274	0.18948	0.038905	0.028616	-2.1375	-2.6813	-2.1375	-2.6937	-2.6771	-2.0958	-2.825	-2.4646	-2.5417	-2.675	-2.3354	-2.5042	-2.6229	-2.2333	-2.7	-2.6229	325.850	144.239	173.307	321.551	152.106	146.570	326.999	436.498	414.191	310.873	349.555	299.154	194.167	226.801	363.504	267.048	0.00043959	0.00033998	9.2437e-05	1099.2	2.6754e-06	3.1073e-06	1191.5	227.43	1.1632e-06	3.0204e-06	281.97	80.41	63.563	18.279	5.5008e-06	25.399	0.00021985	0.00021423	5.9034e-05	1079.5	2.34e-06	2.3106e-06	1167.4	222.94	2.3369e-06	2.3139e-06	278.92	79.591	62.791	18.585	2.3044e-06	25.657	312.369	89.691	280.550	89.455	177.632	198.814	89.735	97.170	288.853	415.475	96.768	103.792	104.035	111.262	128.512	110.189	-8191	255	
20879.311	1	1	0	0	0.069764	0.18812	0.087172	0.24034	0.047177	0.097638	0.15423	0.051996	0.20462	0.28164	0.10426	0.081295	0.061323	0.099371	0.10766	0.20349	-1.9583	-2.8438	-2.1979	-2.7396	-2.6354	-2.1917	-2.6542	-2.6167	-2.5771	-2.8438	-2.2271	-2.6188	-2.7229	-2.4208	-2.7917	-2.6042	81.536	249.914	246.500	414.741	363.805	170.668	259.300	87.018	401.427	298.256	231.291	373.729	416.960	330.555	284.328	341.303	0.00051646	0.00062802	0.00019606	1093.1	9.6005e-06	2.6226e-06	1189.1	224.32	5.0479e-06	3.6125e-06	282.43	80.484	63.684	18.272	6.4646e-06	25.416	0.00021903	0.00020812	5.8502e-05	1076.4	2.3765e-06	2.3187e-06	1166.8	222	2.408e-06	2.4111e-06	278.7	79.691	63.049	18.651	2.5091e-06	25.848	315.847	184.234	210.811	89.455	232.733	211.623	89.532	96.950	283.873	195.807	96.573	103.712	104.632	110.835	191.407	109.919	-8191	255	
20879.383	1	1	0	0	0.058788	0.18484	0.1091	0.15601	0.049716	0.23859	0.22822	0.14398	0.2864	0.20178	0.17849	0.071896	0.16086	0.17406	0.3605	0.20545	-2.0083	-2.6562	-2.3083	-2.7375	-2.6813	-2.5354	-2.8625	-2.5354	-2.3021	-2.775	-2.5042	-2.7646	-2.7	-2.2188	-2.6625	-2.5208	261.709	179.968	212.969	337.247	435.852	308.631	387.928	392.895	432.433	192.694	389.235	373.491	239.929	151.143	192.096	366.713	0.0006684	0.00041882	0.00010728	1093.2	7.1419e-06	1.7432e-06	1189.7	224.6	4.1853e-06	5.1762e-06	282.41	79.938	63.493	18.307	1.8737e-06	25.451	0.00024225	0.00023518	6.5081e-05	1076.5	2.5562e-06	2.5751e-06	1169	222.69	2.6499e-06	2.6099e-06	278.77	79.775	63.157	18.683	2.7034e-06	25.824	318.082	153.896	90.843	89.265	259.794	280.711	89.317	97.085	246.739	112.032	96.904	103.831	104.019	110.808	94.018	110.418	-8191	255	
20879.479	1	1	0	0	0.1045	0.12695	0.30028	0.24777	0.18753	0.21193	0.14611	0.16135	0.0035802	0.12275	0.21761	0.087835	0.12135	0.33487	0.22678	0.19229	-1.8438	-2.7771	-2.4625	-2.6479	-2.7708	-2.2521	-2.75	-2.6646	-2.2354	-2.7521	-2.5938	-2.4667	-2.8333	-2.3021	-2.6979	-2.6854	381.482	389.639	305.374	382.337	351.767	343.849	360.270	372.485	180.606	118.254	81.406	395.271	113.658	418.411	436.149	369.406	0.00074057	0.00015694	0.00013953	1101.2	2.6509e-06	3.105e-06	1195	225.16	4.3682e-06	9.9163e-07	281.58	80.366	63.41	18.291	4.6495e-06	25.458	0.00025308	0.00025031	6.8552e-05	1082.5	2.7542e-06	2.7509e-06	1170.5	223.07	2.7849e-06	2.7051e-06	279.21	79.843	63.132	18.709	2.7133e-06	25.812	307.827	257.115	159.400	89.433	259.280	261.350	89.104	97.268	195.820	119.122	96.666	103.984	104.364	111.062	246.642	110.745	-8191	255	
20879.574	1	1	0	0	0.13054	0.025157	0.18596	0.26872	0.14413	0.18246	0.43283	0.090112	0.088496	0.21148	0.25191	0.17669	0.19778	0.06662	0.1363	0.15793	-1.8771	-2.7292	-2.4146	-2.5021	-2.7271	-2.3292	-2.8208	-2.5896	-2.0833	-2.625	-2.7146	-2.4479	-2.5958	-2.3312	-2.5917	-2.7729	400.773	84.239	167.679	320.339	435.599	249.291	345.032	429.080	130.958	418.017	354.616	383.185	194.336	242.973	171.387	137.153	0.00059092	0.00032068	0.0001622	1098	2.5131e-06	2.1523e-06	1194.6	224.38	1.402e-06	7.0481e-06	283.48	80.042	63.507	18.488	4.8651e-06	25.609	0.00024414	0.00024028	6.6392e-05	1080.2	2.5443e-06	2.4962e-06	1167.9	222.33	2.4664e-06	2.473e-06	278.93	79.601	62.81	18.657	2.4447e-06	25.743	317.681	226.949	169.639	89.313	191.135	226.949	89.357	96.986	332.130	199.609	96.636	103.422	104.478	111.101	221.988	110.285	-8191	255	
20879.693	1	1	0	0	0.071036	0.14572	0.26543	0.016762	0.14244	0.13591	0.32225	0.10449	0.27048	0.061873	0.15227	0.25463	0.058487	0.46105	0.02907	0.12677	-1.9125	-2.6771	-2.2958	-2.4646	-2.9229	-2.4625	-2.6271	-2.7833	-2.3333	-2.6417	-2.6896	-2.4479	-2.9146	-2.4375	-2.4708	-2.7229	380.183	215.821	204.881	242.110	340.757	226.789	382.607	165.125	322.289	95.308	115.045	267.448	159.934	396.010	381.311	423.400	0.00064881	0.00051929	8.7882e-05	1098.8	2.7128e-06	7.635e-06	1193.7	225.45	2.6661e-06	5.1769e-06	281.7	80.628	63.513	18.247	4.4714e-06	25.365	0.00023344	0.00022468	6.2831e-05	1080.2	2.517e-06	2.4513e-06	1167.5	222.36	2.4279e-06	2.4595e-06	277.97	79.722	62.862	18.609	2.4414e-06	25.644	306.002	182.768	191.377	89.684	200.321	160.700	89.344	97.167	249.031	307.459	96.689	103.981	104.374	110.702	278.260	110.187	-8191	255	
20879.789	1	1	0	0	0.16396	0.11229	0.21567	0.078168	0.080674	0.17225	0.08379	0.073125	0.13305	0.24829	0.24626	0.17371	0.24984	0.15504	0.089973	0.16559	-1.9354	-2.4854	-2.5042	-2.4021	-2.7292	-2.6813	-2.5979	-2.8417	-2.3479	-2.5687	-2.7771	-2.3854	-2.6417	-2.6188	-2.4333	-2.8333	153.646	290.025	220.096	404.426	272.034	244.380	259.479	79.854	426.856	314.617	375.551	264.406	340.718	151.889	219.719	230.356	0.00058768	0.00042788	0.00015622	1097.7	4.646e-06	4.5723e-06	1197	224.4	4.4368e-06	3.1159e-06	282.41	80.632	63.139	18.401	5.528e-06	25.13	0.0002281	0.00022051	6.1133e-05	1078.1	2.4334e-06	2.3998e-06	1166.9	222.09	2.3618e-06	2.3723e-06	277.72	79.573	62.549	18.545	2.3021e-06	25.538	302.407	207.007	213.992	89.395	246.868	196.777	89.287	97.280	225.948	279.618	96.508	104.021	103.709	110.983	140.984	109.923	-8191	255	
20879.885	1	1	0	0	0.12556	0.074958	0.24144	0.20695	0.17392	0.085633	0.19702	0.11092	0.098079	0.11578	0.10224	0.21986	0.087596	0.27055	0.13666	0.18461	-2.0438	-2.5854	-2.6562	-2.4583	-2.5708	-2.6104	-2.5104	-2.9562	-2.325	-2.5208	-2.6917	-2.4083	-2.8125	-2.5896	-2.5146	-2.9646	343.925	432.899	163.171	405.542	143.515	429.593	363.912	83.982	317.036	103.642	353.597	353.164	410.733	356.712	102.446	340.529	0.00054666	0.00025135	0.00015112	1088.8	2.2508e-06	3.5828e-06	1191.2	222.63	4.069e-06	2.3411e-06	282.16	80.198	62.749	18.369	1.6046e-06	25.284	0.00021549	0.00020783	5.7994e-05	1072.3	2.2938e-06	2.275e-06	1162.4	221.22	2.294e-06	2.2982e-06	277.23	79.3	62.271	18.513	2.2847e-06	25.536	310.029	243.889	187.664	89.394	267.630	184.978	89.533	97.209	275.909	186.087	96.897	103.926	104.286	111.292	272.158	110.000	-8191	255	
20879.980	1	1	0	0	0.285	0.2416	0.11694	0.32466	0.081646	0.10288	0.25933	0.14021	0.16119	0.19815	0.22875	0.082778	0.039676	0.32853	0.10402	0.3542	-1.9896	-2.4458	-2.7583	-2.3021	-2.6542	-2.4917	-2.4521	-2.7917	-2.3375	-2.5917	-2.8729	-2.4062	-2.725	-2.7042	-2.25	-2.6708	117.375	260.408	199.474	351.946	153.279	303.466	335.555	359.094	300.036	206.945	104.378	303.810	240.145	92.518	151.828	390.532	0.00050553	0.0001816	0.00016287	1093.1	5.8039e-06	1.0723e-06	1194	224.74	3.5208e-06	7.2856e-06	280.7	80.6	63.09	18.284	6.1635e-06	25.269	0.00021241	0.0002082	5.8042e-05	1073.6	2.3008e-06	2.2548e-06	1164	221.26	2.2488e-06	2.2401e-06	277.06	79.289	62.442	18.483	2.2131e-06	25.504	315.366	216.737	118.380	89.360	280.466	130.144	89.381	97.290	279.160	226.129	97.012	103.921	104.300	110.834	169.313	110.264	-8191	255	
20880.078	1	1	0	0	0.36919	0.2081	0.060556	0.13543	0.13228	0.065747	0.08518	0.29925	0.17293	0.2192	0.23917	0.34914	0.11324	0.134	0.16915	0.086826	-2	-2.2771	-2.8271	-2.4771	-2.5396	-2.6792	-2.5125	-2.8875	-2.5667	-2.5563	-2.8979	-2.2062	-2.7292	-2.8396	-2.3104	-2.7042	214.818	318.957	198.639	367.537	346.554	234.948	245.580	362.319	413.012	220.421	393.284	82.318	91.637	266.521	199.555	194.541	0.00054832	0.0004272	0.00016674	1091.9	5.8449e-06	5.2893e-06	1188.7	224.38	7.0895e-06	9.5363e-07	279.71	80.307	63.178	18.269	1.1918e-06	25.336	0.00021287	0.00020631	5.7087e-05	1071.6	2.2757e-06	2.2504e-06	1161.2	221.37	2.2739e-06	2.3031e-06	276.46	79.293	62.306	18.507	2.2967e-06	25.52	312.713	162.846	183.333	89.641	290.776	230.470	89.389	97.396	286.905	120.200	96.561	103.491	104.128	111.208	211.333	110.620	-8191	255	
20880.174	1	1	0	0	0.11271	0.25769	0.092375	0.25395	0.043779	0.20659	0.17529	0.1971	0.019623	0.036744	0.084014	0.28952	0.066822	0.1257	0.13976	0.087401	-2.1542	-2.4333	-2.7167	-2.5292	-2.4646	-2.9167	-2.4917	-2.7917	-2.5146	-2.4562	-2.7292	-2.4729	-2.5271	-2.7812	-2.3479	-2.6688	278.637	101.251	165.431	438.720	191.061	112.564	304.857	332.081	284.276	414.296	388.955	382.516	337.494	406.232	213.241	350.439	0.00060866	0.0004138	0.00013589	1094.8	5.7289e-06	5.8692e-07	1182.4	223.83	4.0464e-06	6.5446e-06	280.57	79.808	63.167	18.092	3.6056e-06	25.205	0.00021587	0.00020789	5.7754e-05	1071.7	2.2867e-06	2.2573e-06	1159.8	220.78	2.2761e-06	2.1868e-06	276.12	79.156	62.396	18.428	2.2097e-06	25.4	298.072	159.954	185.579	89.415	272.721	328.122	89.564	97.485	339.957	195.505	96.542	103.944	103.959	110.696	272.333	109.731	-8191	255	
20880.295	1	1	0	0	0.35593	0.29847	0.060817	0.14646	0.11824	0.22392	0.15728	0.18259	0.049456	0.2381	0.09577	0.091956	0.11043	0.042786	0.18838	0.065309	-1.8979	-2.2896	-2.7917	-2.4521	-2.3333	-2.6771	-2.5062	-2.725	-2.6979	-2.2729	-2.7833	-2.3208	-2.3937	-2.8312	-2.3875	-2.5812	438.201	188.041	362.035	431.934	427.032	415.493	386.038	391.678	248.670	214.824	391.197	106.092	324.576	413.444	418.660	126.674	0.00052564	0.00017992	4.419e-05	1088.9	6.0258e-06	2.215e-06	1186.8	224.41	3.0524e-06	1.8727e-06	280	80.26	63.298	18.214	5.55e-06	25.256	0.00021104	0.00020454	5.526e-05	1069.4	2.2414e-06	2.2011e-06	1159.8	221.12	2.2242e-06	2.2195e-06	276.42	79.264	62.248	18.462	2.2533e-06	25.514	325.123	175.713	140.615	89.407	218.603	192.742	89.532	97.160	211.252	220.878	97.070	103.947	104.532	111.132	161.867	110.152	-8191	255	
20880.391	1	1	0	0	0.1323	0.17098	0.13203	0.17969	0.2147	0.060648	0.20941	0.23723	0.201	0.16782	0.13687	0.10434	0.27512	0.17849	0.32828	0.2725	-2.1271	-2.3292	-2.5833	-2.6958	-2.4333	-2.6625	-2.4604	-2.4813	-2.6917	-2.2333	-2.6479	-2.5708	-2.425	-2.7104	-2.3375	-2.5854	161.298	210.832	435.120	376.310	382.645	125.672	109.409	382.013	81.114	189.303	358.237	150.268	199.809	361.087	182.845	410.115	0.00072025	0.00048098	0.0001314	1086.7	8.4253e-07	3.7512e-06	1183.5	224.04	7.1541e-06	1.9654e-06	281.47	80.005	62.942	18.077	5.5239e-06	25.344	0.00021414	0.00020449	5.7348e-05	1069.4	2.3164e-06	2.2364e-06	1159.4	221.21	2.2589e-06	2.2307e-06	276.9	79.146	62.445	18.443	2.2857e-06	25.568	315.164	147.593	111.586	89.458	154.366	242.860	89.540	97.162	303.550	182.593	96.562	104.035	104.154	111.123	255.942	110.592	-8191	255	
20880.486	1	1	0	0	0.063724	0.13855	0.168	0.11502	0.22346	0.18505	0.3084	0.20002	0.092116	0.19676	0.25438	0.16385	0.2131	0.074731	0.11165	0.064472	-2.1896	-2.2146	-2.6354	-2.6208	-2.3625	-2.8229	-2.3583	-2.5375	-2.7917	-2.3125	-2.7396	-2.6083	-2.3875	-2.7292	-2.5	-2.5396	153.814	168.918	379.304	84.644	302.205	335.690	282.903	376.986	197.567	122.769	400.279	400.391	417.711	235.467	354.309	432.014	0.00058008	0.00029283	0.00010938	1088	5.1528e-06	6.3085e-07	1189.4	222.51	2.8223e-06	1.8036e-07	281.27	80.167	63.118	18.196	1.7606e-06	25.268	0.00021598	0.00020941	5.7902e-05	1070.5	2.3472e-06	2.2936e-06	1160.9	220.66	2.2797e-06	2.2669e-06	277.33	79.063	62.415	18.458	2.3083e-06	25.569	313.641	158.070	216.552	89.505	269.450	82.918	89.361	97.199	353.062	129.680	96.967	104.051	103.957	110.641	192.258	110.237	-8191	255	
20880.582	1	1	0	0	0.1436	0.15711	0.11356	0.21864	0.1118	0.17615	0.23802	0.2543	0.11746	0.18146	0.061	0.24471	0.27377	0.36822	0.19794	0.20675	-2.0958	-2.1771	-2.6458	-2.7708	-2.2583	-2.9083	-2.725	-2.4583	-2.8708	-2.3542	-2.7292	-2.7104	-2.2479	-2.6813	-2.3479	-2.325	200.349	354.648	310.584	94.643	215.159	282.132	351.994	346.782	115.168	141.542	196.583	144.960	337.112	405.119	425.417	262.924	0.00068376	0.00053595	5.8528e-05	1092.4	4.7299e-06	4.7907e-06	1193.8	223.18	2.5057e-06	2.5049e-06	280.42	79.664	62.676	18.156	1.2417e-06	25.126	0.00021618	0.00021046	5.9112e-05	1073.6	2.3317e-06	2.2842e-06	1161.7	221.05	2.2778e-06	2.282e-06	277.13	79.12	62.296	18.469	2.2801e-06	25.458	322.007	172.367	168.011	89.467	276.587	280.036	89.382	97.355	198.503	198.315	96.487	104.132	104.070	110.727	247.971	110.029	-8191	255	
20880.678	1	1	0	0	0.07263	0.10416	0.1309	0.28923	0.16107	0.12582	0.18667	0.14994	0.18287	0.29338	0.30542	0.12357	0.10321	0.1524	0.20604	0.094704	-2.1521	-2.2938	-2.4458	-2.9437	-2.2979	-2.7958	-2.6917	-2.4396	-2.7917	-2.4292	-2.825	-2.8937	-2.4146	-2.8667	-2.5292	-2.6646	259.891	185.104	251.817	391.589	179.874	289.578	425.499	398.759	159.155	332.162	313.964	151.454	377.255	97.252	405.875	281.203	0.00065674	0.00010244	9.1862e-05	1093.4	3.4725e-06	2.352e-06	1187.8	222.43	6.1736e-06	3.2907e-06	280.89	79.782	63.099	18.226	1.8714e-06	25.252	0.00021329	0.00020636	5.8067e-05	1071.1	2.3245e-06	2.2876e-06	1160.3	220.84	2.316e-06	2.2968e-06	277.27	79.147	62.528	18.478	2.3506e-06	25.542	315.869	205.909	173.381	89.428	210.387	317.435	89.480	97.413	238.863	209.062	96.636	103.262	104.703	111.376	211.569	110.229	-8191	255	
20880.773	1	1	0	0	0.23491	0.088695	0.34502	0.13239	0.17465	0.26441	0.22692	0.13158	0.05042	0.15345	0.26394	0.12581	0.21385	0.17828	0.051208	0.056026	-2.4792	-2.5333	-2.3479	-2.9667	-2.3042	-2.7625	-2.8146	-2.3958	-2.6875	-2.4417	-2.4667	-2.8104	-2.3604	-2.7375	-2.6625	-2.3875	425.245	153.003	287.942	89.771	132.911	273.335	364.004	381.667	247.936	274.440	316.764	377.768	353.152	85.702	283.014	350.257	0.00060203	0.00036329	5.255e-05	1093.2	3.1494e-06	4.4162e-06	1184.1	222.24	2.7165e-06	5.1879e-06	281.66	79.986	63.353	18.305	4.7147e-06	25.238	0.00021652	0.00021375	5.8702e-05	1072.5	2.324e-06	2.3159e-06	1159	220.99	2.3216e-06	2.3059e-06	277.32	79.086	62.547	18.496	2.3101e-06	25.483	317.398	429.739	419.714	89.448	203.899	271.671	89.469	97.123	315.014	191.105	96.622	103.569	103.957	111.045	177.920	110.433	-8191	255	
20880.869	1	1	0	0	0.021735	0.056651	0.039788	0.13464	0.16817	0.23994	0.20589	0.25248	0.10296	0.070805	0.3649	0.28949	0.30474	0.17634	0.072676	0.24235	-2.1771	-2.4417	-2.4583	-3.0292	-2.2917	-2.5042	-2.7833	-2.2438	-2.85	-2.5417	-2.4833	-2.9208	-2.3958	-2.5375	-2.7917	-2.375	290.742	342.444	260.979	429.638	225.487	142.918	408.326	366.760	397.004	393.805	371.120	312.342	365.748	261.213	167.588	314.893	0.00054582	0.00070989	0.00021598	1088.3	3.031e-06	4.3744e-06	1186.5	224.87	7.3329e-06	3.9913e-06	282.27	80.138	63.009	18.181	3.5141e-06	25.369	0.00021823	0.00021113	5.8714e-05	1070.2	2.2927e-06	2.2727e-06	1160	220.96	2.2868e-06	2.241e-06	277.31	79.16	62.363	18.423	2.2752e-06	25.519	322.495	140.578	161.571	89.533	200.911	187.725	89.384	97.392	265.778	215.175	96.243	103.622	104.267	110.915	221.397	110.144	-8191	255	
20880.967	1	1	0	0	0.17763	0.11759	0.28971	0.22789	0.19739	0.23911	0.31039	0.11627	0.14893	0.15052	0.17334	0.12006	0.179	0.19406	0.1616	0.22614	-2.2667	-2.5104	-2.5792	-2.8167	-2.3042	-2.6458	-2.8375	-2.3542	-2.7562	-2.4458	-2.5146	-2.8167	-2.4729	-2.4229	-2.4938	-2.3167	307.543	431.622	129.393	87.500	171.781	221.618	432.431	325.995	304.409	371.715	208.116	347.870	393.707	392.238	108.509	306.014	0.00063113	0.00027608	0.00011657	1089.9	4.8207e-06	2.4682e-06	1184.3	223.54	2.5877e-06	4.2476e-06	279.93	80.282	62.66	18.274	3.8198e-06	25.275	0.00021909	0.0002112	5.8584e-05	1072.1	2.3364e-06	2.3448e-06	1159.9	220.8	2.3353e-06	2.3416e-06	276.76	79.354	62.374	18.487	2.3441e-06	25.519	309.755	175.194	177.182	89.410	180.268	208.707	89.408	96.963	213.398	248.655	96.755	103.669	104.091	110.744	237.864	110.363	-8191	255	
20881.086	1	1	0	0	0.12027	0.073229	0.024042	0.20928	0.14704	0.13399	0.2346	0.25217	0.24146	0.20765	0.036602	0.21622	0.23938	0.22369	0.044915	0.022084	-2.2375	-2.5542	-2.2875	-2.7896	-2.3625	-2.6458	-2.8521	-2.4875	-2.8063	-2.5958	-2.5333	-2.7896	-2.6562	-2.4979	-2.8438	-2.3146	218.516	260.328	300.413	381.957	362.537	286.922	345.334	390.795	337.858	173.514	333.185	325.457	343.246	325.945	128.957	291.967	0.00063015	0.00032805	7.2369e-05	1091.7	3.3217e-06	1.4886e-06	1184.7	223.76	5.4258e-06	4.1161e-06	279.98	79.833	63.03	18.11	2.7623e-06	25.093	0.00022076	0.00021484	5.9297e-05	1072.3	2.3898e-06	2.3761e-06	1161	221.43	2.3446e-06	2.3565e-06	276.74	79.034	62.332	18.453	2.3327e-06	25.502	301.326	130.024	101.519	89.587	269.274	244.602	89.456	96.906	269.058	301.490	96.773	103.574	103.928	110.875	226.431	110.209	-8191	255	
20881.182	1	1	0	0	0.31381	0.07206	0.27854	0.22328	0.16642	0.25903	0.088755	0.26404	0.11669	0.13667	0.18232	0.25108	0.16287	0.089718	0.17692	0.19197	-2.0938	-2.6979	-2.3187	-3.0208	-2.4229	-2.3646	-2.8812	-2.5687	-2.4854	-2.6	-2.4813	-2.8521	-2.55	-2.2479	-2.8667	-2.6292	196.017	297.053	227.583	381.342	365.506	111.412	104.469	414.993	181.321	425.889	85.500	221.533	438.088	421.412	331.921	338.373	0.00056184	0.00078222	0.00021137	1090.8	5.4873e-06	3.3977e-06	1189.5	223.24	4.8907e-06	5.0653e-06	279.96	79.665	62.743	18.218	1.961e-06	25.287	0.00021545	0.00020979	5.8276e-05	1072.9	2.3093e-06	2.2842e-06	1163.2	220.83	2.3074e-06	2.2539e-06	276.01	79.036	62.268	18.46	2.2731e-06	25.511	310.827	159.517	154.531	89.583	282.619	188.039	89.695	97.475	222.725	263.024	96.777	103.655	103.951	110.853	139.398	110.412	-8191	255	
20881.254	1	1	0	0	0.02517	0.046597	0.18714	0.24288	0.019528	0.14904	0.12563	0.18278	0.26376	0.28001	0.22943	0.14226	0.094366	0.1465	0.10259	0.30205	-2.0771	-2.8063	-2.2917	-2.8521	-2.5104	-2.2833	-2.8854	-2.4771	-2.5667	-2.7917	-2.3625	-2.8646	-2.5854	-2.3896	-2.8833	-2.3729	180.130	420.080	267.815	410.823	150.503	133.245	301.323	309.699	290.305	167.382	419.595	189.699	338.419	352.910	127.517	390.007	0.00059332	0.000546	9.8993e-05	1089.9	2.5482e-06	1.7219e-06	1189.8	223.34	3.8552e-06	3.0973e-06	281.02	80.658	63.209	18.242	4.477e-06	25.073	0.00021175	0.00020653	5.6835e-05	1071.1	2.2919e-06	2.2381e-06	1160.9	221.11	2.2618e-06	2.254e-06	276.65	79.326	62.498	18.453	2.2703e-06	25.47	321.301	161.923	247.386	89.251	222.108	397.311	89.455	97.675	310.600	153.963	96.412	103.808	104.151	111.100	275.439	110.441	-8191	255	
20881.375	1	1	0	0	0.058226	0.10453	0.14845	0.20595	0.15791	0.085502	0.17179	0.20652	0.18115	0.31354	0.36429	0.19042	0.163	0.033403	0.15725	0.24595	-2.0438	-2.8146	-2.2458	-2.75	-2.6208	-2.2687	-2.975	-2.6042	-2.5	-2.7271	-2.3292	-2.4542	-2.6688	-2.2354	-2.7812	-2.6354	359.046	131.523	209.313	111.130	427.400	424.209	304.297	154.280	280.118	356.515	429.843	384.332	427.852	151.225	122.307	315.233	0.00069709	0.00022432	9.5913e-05	1090.7	3.2241e-06	1.5389e-06	1191.6	225.03	1.4031e-06	4.4344e-06	280.5	79.425	62.876	18.153	2.9832e-06	25.381	0.00021404	0.0002048	5.7932e-05	1072.5	2.3037e-06	2.2697e-06	1159.9	221.46	2.2504e-06	2.2312e-06	276.84	78.955	62.338	18.407	2.2352e-06	25.485	312.272	82.877	113.558	89.488	294.675	272.521	89.370	97.311	254.055	178.344	96.664	103.864	104.138	110.971	164.546	109.864	-8191	255	
20881.471	1	1	0	0	0.11368	0.14664	0.11857	0.15635	0.12861	0.21055	0.23318	0.12953	0.12203	0.24839	0.32808	0.14363	0.075119	0.21801	0.062813	0.18868	-1.7542	-2.7458	-2.1146	-2.6188	-2.6229	-2.2062	-2.9062	-2.7854	-2.2354	-2.7979	-2.4688	-2.4292	-2.7667	-2.3187	-2.6813	-2.6604	118.806	301.223	427.193	87.075	339.189	212.509	401.343	220.132	341.407	231.620	107.997	286.221	289.512	129.834	79.863	428.281	0.00066972	0.00050211	8.7593e-05	1088.4	2.3635e-06	1.8659e-06	1184.8	222.88	1.953e-06	2.5242e-06	280.18	79.862	63.067	18.164	1.4474e-06	25.227	0.00021062	0.0002043	5.6709e-05	1070.7	2.2437e-06	2.2067e-06	1159.7	220.61	2.2503e-06	2.2209e-06	276.36	79.184	62.442	18.459	2.2295e-06	25.471	307.710	163.036	132.756	89.246	241.371	189.815	89.446	97.313	271.084	246.240	96.784	104.227	104.351	111.047	256.012	110.373	-8191	255	
20881.566	1	1	0	0	0.11108	0.10653	0.16564	0.17026	0.34149	0.10959	0.22518	0.13956	0.088697	0.096993	0.24001	0.10231	0.02693	0.067419	0.15662	0.055663	-1.9375	-2.8083	-2.3292	-2.7417	-2.7083	-2.1396	-2.8833	-2.9292	-2.3729	-2.9229	-2.5521	-2.475	-2.8042	-2.3042	-2.6021	-2.7271	280.769	243.370	258.540	97.285	335.300	231.467	399.574	404.555	108.558	429.230	136.283	213.011	434.155	416.181	420.860	355.540	0.00056243	0.00045312	4.8524e-05	1089	6.8866e-06	4.7612e-06	1189.6	223.61	4.1905e-06	3.3732e-06	281.47	80.27	63.082	18.253	2.828e-06	25.216	0.00020712	0.00020257	5.5158e-05	1071.1	2.1887e-06	2.1973e-06	1160.5	220.84	2.2508e-06	2.2455e-06	276.77	79.029	62.514	18.445	2.2409e-06	25.431	302.139	242.454	210.396	89.378	200.318	192.705	89.578	97.167	269.055	346.121	96.613	103.957	104.323	110.926	217.778	110.122	-8191	255	
20881.662	1	1	0	0	0.092138	0.15551	0.12251	0.33116	0.11375	0.13182	0.19228	0.04953	0.087509	0.30785	0.13835	0.2308	0.28758	0.21622	0.063283	0.16699	-1.95	-2.5771	-2.4104	-2.5729	-2.7208	-2.575	-2.8542	-2.7229	-2.3208	-2.675	-2.4958	-2.5812	-2.7479	-2.1333	-2.3479	-2.725	188.106	284.071	352.689	381.804	334.811	135.946	348.677	325.031	108.293	352.157	189.687	306.566	316.559	428.950	305.915	125.405	0.00058126	0.00035395	9.4341e-05	1089	2.5734e-06	2.115e-06	1186.6	223.16	5.1409e-06	4.0137e-06	278.9	79.849	63.141	18.209	4.7112e-06	25.114	0.0002104	0.00020468	5.754e-05	1070.5	2.2642e-06	2.2018e-06	1160.3	220.48	2.2247e-06	2.2047e-06	276.18	78.967	62.244	18.404	2.2134e-06	25.438	305.961	95.749	161.981	89.713	278.824	261.547	89.458	96.932	324.407	208.529	96.795	103.493	104.059	111.098	241.183	110.051	-8191	255	
20881.781	1	1	0	0	0.14994	0.12314	0.1209	0.080273	0.08757	0.29876	0.23664	0.033466	0.13973	0.22458	0.11336	0.069909	0.11248	0.1436	0.065166	0.050037	-1.7958	-2.8375	-2.4792	-2.45	-2.7646	-2.4417	-2.6896	-2.8667	-2.2354	-2.8187	-2.5854	-2.3167	-2.6958	-2.6229	-2.6437	-2.6813	110.410	307.412	321.364	207.329	406.739	404.755	376.648	112.265	257.374	273.526	416.793	363.327	390.847	172.586	178.646	198.274	0.00068081	0.00015735	8.3145e-05	1087.8	4.9765e-06	1.8191e-06	1185	223.81	7.4582e-06	3.0501e-06	281.74	80.102	62.693	18.178	1.75e-06	25.307	0.00021139	0.00020512	5.6745e-05	1070.9	2.245e-06	2.225e-06	1158.2	220.53	2.2164e-06	2.2091e-06	277.2	79.121	62.219	18.465	2.241e-06	25.49	315.813	188.852	240.176	89.529	248.408	182.028	89.687	96.995	260.109	176.600	96.513	103.672	103.735	111.085	276.984	110.292	-8191	255	
20881.879	1	1	0	0	0.24287	0.22878	0.37631	0.23188	0.04276	0.11688	0.23728	0.10921	0.33693	0.23099	0.27852	0.097766	0.20003	0.18678	0.28925	0.086014	-1.9688	-2.7125	-2.55	-2.3833	-2.8187	-2.3333	-2.5187	-2.8271	-2.1771	-2.575	-2.7958	-2.3875	-2.7729	-2.6125	-2.3521	-2.8958	111.899	83.234	245.039	372.205	428.561	177.475	361.833	159.304	219.831	331.392	82.608	176.846	142.201	420.391	267.362	439.016	0.00060417	0.00043321	0.00018105	1093	2.1757e-06	3.603e-06	1191.8	223.45	5.6004e-06	5.4604e-06	279.86	79.62	63.224	18.169	5.3928e-06	25.25	0.00021071	0.00020518	5.6729e-05	1072.3	2.2477e-06	2.1895e-06	1159.5	220.52	2.1944e-06	2.2255e-06	275.84	78.816	62.324	18.412	2.2006e-06	25.439	324.484	160.107	190.631	89.420	195.918	285.817	89.469	97.493	291.718	182.181	96.405	103.820	104.082	110.993	172.200	110.399	-8191	255	
20881.975	1	1	0	0	0.25981	0.12546	0.33355	0.05564	0.086489	0.11482	0.20689	0.31411	0.026979	0.082211	0.26152	0.29611	0.14888	0.11954	0.19677	0.16487	-1.8396	-2.6542	-2.675	-2.4292	-2.8458	-2.6917	-2.5375	-2.9625	-2.3042	-2.6562	-2.8792	-2.4042	-2.7167	-2.5667	-2.4562	-2.8646	404.954	152.530	107.244	85.467	409.841	90.774	299.792	322.037	183.443	436.593	334.418	390.654	221.858	117.952	316.639	348.487	0.00062793	0.00063696	5.8159e-05	1091.6	4.3567e-06	1.9921e-06	1185.9	222.49	2.6597e-06	7.1339e-06	282.04	80.176	62.826	18.216	3.4971e-06	25.285	0.00020895	0.00020246	5.6626e-05	1069.7	2.2632e-06	2.2254e-06	1160	220.33	2.2097e-06	2.2346e-06	276.8	79.03	62.251	18.45	2.2309e-06	25.405	316.962	186.432	104.977	89.443	189.337	260.762	89.353	97.108	309.122	181.972	96.366	103.977	103.784	110.680	161.811	109.960	-8191	255	
20882.070	1	1	0	0	0.1598	0.1382	0.095709	0.23922	0.25395	0.13377	0.17985	0.11251	0.12002	0.13092	0.10543	0.14596	0.24909	0.07988	0.12984	0.10592	-1.6979	-2.5021	-2.5354	-2.3646	-2.6646	-2.5104	-2.4562	-2.9437	-2.4938	-2.5417	-2.8708	-2.3187	-2.7625	-2.725	-2.0729	-2.6708	143.957	86.267	252.788	117.463	188.109	298.423	428.170	117.559	393.702	180.483	91.144	303.480	353.519	330.984	126.717	308.228	0.00067955	0.00032095	0.00010558	1092.4	1.5071e-06	4.2977e-07	1189.8	223.19	2.7042e-06	8.5094e-06	280.7	80.032	62.688	18.309	2.8217e-06	25.12	0.00021096	0.00020566	5.698e-05	1072.9	2.2798e-06	2.2588e-06	1163.1	221.15	2.2657e-06	2.2781e-06	276.87	79.067	62.136	18.46	2.2396e-06	25.439	315.830	103.048	231.521	89.613	244.460	309.024	89.332	97.250	289.046	232.031	96.412	104.017	104.166	111.029	349.011	110.536	-8191	255	
20882.168	1	1	0	0	0.27619	0.16598	0.095506	0.19789	0.18826	0.2416	0.30571	0.21566	0.16258	0.06522	0.15483	0.22053	0.042478	0.33981	0.24981	0.11152	-1.7542	-2.2687	-2.7333	-2.3479	-2.4396	-2.6583	-2.4667	-2.925	-2.4646	-2.3917	-2.8333	-2.4688	-2.5563	-2.8292	-2.3792	-2.9146	323.629	97.798	131.370	395.739	106.802	367.305	385.899	389.177	98.335	433.070	346.455	422.341	277.777	399.282	438.674	124.348	0.00066042	5.4625e-05	0.00014521	1093.6	3.0895e-06	3.4054e-06	1188	224.97	4.3755e-06	4.0267e-06	280.06	80.235	62.901	18.158	5.1336e-06	25.303	0.00020919	0.00020423	5.6398e-05	1071.6	2.2321e-06	2.258e-06	1159.5	221	2.2357e-06	2.1996e-06	276.37	79.105	62.236	18.402	2.2061e-06	25.437	315.319	381.581	167.808	89.411	257.204	256.916	89.339	97.120	343.403	216.219	97.012	103.851	104.370	111.251	273.142	110.188	-8191	255	
20882.264	1	1	0	0	0.084813	0.036029	0.089864	0.35171	0.077702	0.23527	0.27118	0.26711	0.21798	0.090491	0.23959	0.2562	0.038224	0.25805	0.18523	0.18061	-1.9979	-2.3063	-2.9104	-2.5583	-2.4979	-2.7938	-2.35	-2.8208	-2.6542	-2.2521	-2.95	-2.3354	-2.5812	-2.6188	-2.2792	-2.6833	386.198	142.670	225.457	88.284	361.604	408.039	360.073	304.073	394.108	180.216	333.308	393.528	91.656	322.191	261.537	337.028	0.00067126	0.00015535	0.00010408	1089	3.0348e-06	2.0604e-06	1182.8	222.13	4.4257e-06	5.7383e-06	279.24	79.927	62.856	18.218	1.7955e-06	25.172	0.00020911	0.00020131	5.6389e-05	1069.1	2.226e-06	2.1916e-06	1157.5	220.3	2.2228e-06	2.2013e-06	275.94	79.017	62.213	18.472	2.2304e-06	25.513	312.189	268.193	155.923	89.309	161.490	204.974	89.353	97.076	295.732	217.331	96.784	103.833	103.759	110.855	274.940	110.260	-8191	255	
20882.383	1	1	0	0	0.18037	0.31908	0.063461	0.18556	0.30561	0.14527	0.41041	0.29975	0.098254	0.28119	0.099449	0.14107	0.27024	0.077486	0.03357	0.13984	-2.0604	-2.2458	-2.7458	-2.5229	-2.4958	-2.8167	-2.4938	-2.7062	-2.5333	-2.1229	-2.9208	-2.3396	-2.3937	-2.7687	-2.2521	-2.6646	408.413	384.999	112.996	393.780	280.224	212.758	376.311	409.792	322.664	374.168	219.512	396.192	387.472	209.370	93.319	97.897	0.00063213	0.00029277	4.4429e-05	1086.5	2.3172e-06	3.1929e-06	1195.7	225.54	4.3313e-06	3.3883e-06	281.13	79.842	62.807	18.099	6.3613e-06	25.226	0.00021141	0.00020475	5.5457e-05	1067.8	2.2972e-06	2.235e-06	1160.1	220.87	2.2715e-06	2.2523e-06	276.6	78.942	62.245	18.388	2.2328e-06	25.458	308.208	163.546	145.710	89.508	182.079	275.778	89.475	97.090	236.953	210.343	96.578	103.921	104.149	111.148	251.580	110.253	-8191	255	
20882.480	1	1	0	0	0.34265	0.38715	0.22206	0.34554	0.034715	0.051499	0.23955	0.067464	0.21874	0.10456	0.19991	0.27246	0.10558	0.21768	0.13561	0.17506	-2.2313	-2.4104	-2.6896	-2.7062	-2.5438	-2.7896	-2.5583	-2.7438	-2.6771	-2.4375	-2.8292	-2.5208	-2.3542	-2.8896	-2.3292	-2.6604	341.002	232.602	362.320	386.131	353.452	226.913	436.785	390.655	283.452	376.450	113.534	371.638	290.029	326.017	244.848	290.597	0.00067006	0.00047935	7.7294e-05	1091.1	6.4544e-06	4.0576e-06	1185.8	223.39	1.9056e-06	5.6913e-06	279.19	79.917	63.178	18.177	3.1944e-06	25.493	0.00021387	0.00020641	5.7417e-05	1069.4	2.2678e-06	2.289e-06	1160.5	220.42	2.2705e-06	2.2586e-06	276.13	79.126	62.365	18.422	2.2938e-06	25.529	322.765	222.587	132.801	89.530	240.406	251.596	89.733	97.230	393.047	217.822	96.746	103.677	103.957	110.620	175.365	110.298	-8191	255	
20882.551	1	1	0	0	0.2815	0.33259	0.092156	0.22836	0.16399	0.14178	0.64259	0.068378	0.21999	0.15806	0.095974	0.20929	0.19729	0.14967	0.24415	0.2744	-2.3896	-2.1771	-2.5812	-2.775	-2.3208	-2.8229	-2.6229	-2.5896	-2.7062	-2.3438	-2.7625	-2.5375	-2.3646	-2.7667	-2.4021	-2.5687	438.227	396.896	425.318	293.526	218.076	273.132	370.729	332.220	267.982	287.339	361.275	387.343	108.111	401.973	428.882	389.977	0.00054836	0.00044974	0.00013862	1088.9	1.8144e-06	3.4214e-06	1182.7	223.8	3.7763e-06	3.4987e-06	279.11	80.163	62.34	18.202	7.1984e-06	25.18	0.00021524	0.00020771	5.7445e-05	1069.8	2.2828e-06	2.2637e-06	1157.7	220.72	2.2723e-06	2.258e-06	276.06	79.091	62.271	18.403	2.2633e-06	25.422	312.863	141.484	429.910	89.290	268.614	215.060	89.616	97.361	268.770	314.498	96.696	104.137	104.458	111.040	202.749	110.322	-8191	255	
20882.646	1	1	0	0	0.34665	0.12799	0.050007	0.12493	0.19248	0.16858	0.039308	0.39653	0.17402	0.059286	0.20393	0.14896	0.21459	0.21287	0.16792	0.11038	-2.5042	-2.275	-2.8438	-2.7917	-2.3583	-2.85	-2.6958	-2.5167	-2.7417	-2.3688	-2.6146	-2.7083	-2.4729	-2.7542	-2.5271	-2.3208	328.941	369.317	256.037	421.586	298.566	98.704	355.216	353.836	220.137	427.854	80.940	437.198	359.184	407.077	140.778	426.687	0.00046089	0.00039816	4.7145e-05	1089	3.7718e-06	1.5193e-06	1185	222.79	2.0951e-06	2.4287e-06	280.47	79.529	62.985	18.241	4.3993e-06	25.221	0.00020858	0.00020852	5.7703e-05	1070.2	2.2994e-06	2.2416e-06	1157.6	219.98	2.2413e-06	2.2133e-06	276.24	78.873	62.237	18.41	2.225e-06	25.482	315.621	209.748	121.433	89.610	253.700	288.022	89.448	97.098	247.215	374.699	96.310	103.741	104.238	110.821	224.222	110.128	-8191	255	
20882.766	1	1	0	0	0.03763	0.20801	0.081882	0.1231	0.1209	0.096432	0.2029	0.13115	0.14232	0.22481	0.22448	0.041356	0.040864	0.11437	0.1591	0.23586	-2.3958	-2.2562	-2.475	-2.8583	-2.1646	-2.6021	-2.7313	-2.4396	-2.7271	-2.3063	-2.5771	-2.8917	-2.3	-2.7062	-2.6188	-2.6562	106.552	115.601	89.325	135.786	232.687	299.727	184.441	350.223	268.415	304.889	396.739	308.792	220.589	371.506	407.424	356.888	0.000627	0.00029975	5.5594e-05	1087.4	6.7154e-06	4.79e-06	1181.7	224.42	5.0727e-06	3.1819e-06	281.35	80.042	63.012	18.23	2.0902e-06	25.073	0.00021448	0.00020444	5.6947e-05	1068	2.2321e-06	2.2258e-06	1157.6	220.98	2.2059e-06	2.2055e-06	276.61	78.964	62.203	18.435	2.206e-06	25.439	314.412	205.940	238.767	89.534	225.559	266.893	89.388	97.068	249.632	323.556	96.792	103.926	104.128	111.081	242.094	110.015	-8191	255	
20882.861	1	1	0	0	0.14714	0.2593	0.21358	0.26523	0.20472	0.12247	0.14098	0.28341	0.10782	0.15382	0.1626	0.21549	0.16653	0.067486	0.082244	0.058307	-2.3708	-2.3417	-2.4354	-2.8396	-2.4104	-2.7167	-2.7271	-2.3417	-2.7396	-2.5062	-2.4625	-2.7896	-2.2917	-2.8083	-2.4979	-2.275	312.117	104.462	262.965	130.470	371.025	438.424	362.242	406.007	121.844	413.236	417.801	374.271	80.940	288.649	135.904	409.298	0.00057386	0.00061482	0.00027669	1088.8	6.3838e-06	5.8142e-06	1190.6	224.47	5.3266e-06	2.3206e-06	279.39	79.733	62.955	18.19	1.9551e-06	25.308	0.00021133	0.00020371	5.7137e-05	1070.2	2.2262e-06	2.2349e-06	1160.8	220.84	2.2451e-06	2.244e-06	276.25	78.989	62.219	18.442	2.2396e-06	25.505	307.919	123.230	163.874	89.344	265.949	273.346	89.532	97.261	278.814	333.589	96.492	103.644	104.053	111.480	356.693	110.081	-8191	255	
20882.959	1	1	0	0	0.13052	0.063354	0.1539	0.49201	0.20888	0.031206	0.27837	0.2389	0.16914	0.10435	0.2647	0.039902	0.12489	0.095505	0.061107	0.18753	-2.3729	-2.5021	-2.3417	-2.7562	-2.4562	-2.6167	-2.7812	-2.225	-2.8083	-2.3229	-2.4104	-2.7729	-2.2812	-2.7042	-2.6458	-2.4562	369.561	90.391	414.777	350.045	257.267	268.643	366.940	405.537	217.679	327.657	345.812	369.459	110.700	334.389	109.835	191.580	0.0006776	0.00049099	0.00012615	1088.9	1.958e-06	4.3196e-06	1184.5	223.25	5.0312e-06	3.6818e-06	280.76	79.467	63.02	18.086	3.5226e-06	25.298	0.00020753	0.00020407	5.5718e-05	1069.8	2.2481e-06	2.177e-06	1158.3	220.57	2.2125e-06	2.2232e-06	276.17	79.06	62.309	18.367	2.2131e-06	25.417	301.409	151.830	130.268	89.325	230.747	229.229	89.427	97.565	281.094	158.941	96.746	103.378	104.444	111.289	159.715	110.203	-8191	255	
20883.055	1	1	0	0	0.08767	0.10294	0.10551	0.25981	0.15382	0.089711	0.18359	0.41394	0.30824	0.10165	0.14905	0.17039	0.28263	0.12004	0.19037	0.02966	-2.3375	-2.5104	-2.45	-3	-2.3042	-2.5812	-2.7167	-2.4188	-2.6917	-2.7417	-2.4042	-2.9854	-2.5042	-2.4667	-2.5583	-2.1625	262.693	175.123	226.770	416.640	236.127	137.672	300.601	363.799	353.487	286.037	143.794	84.495	387.092	131.525	435.023	435.183	0.00072047	0.00024353	0.0001148	1088	2.4348e-06	3.0543e-06	1184.7	224.15	1.8907e-06	3.6612e-06	280.05	80.506	62.612	18.098	6.2299e-06	25.186	0.00021195	0.00020402	5.6649e-05	1069.1	2.2553e-06	2.2253e-06	1158.3	221.07	2.2375e-06	2.2027e-06	276.23	79.184	62.132	18.398	2.2261e-06	25.424	317.520	139.690	227.743	89.427	229.399	203.864	89.426	97.220	317.011	183.605	96.631	104.006	104.187	111.094	275.756	109.855	-8191	255	
20883.150	1	1	0	0	0.25542	0.13209	0.2622	0.19105	0.1584	0.28658	0.076934	0.1754	0.017939	0.18158	0.092137	0.28807	0.29132	0.10847	0.056592	0.11897	-2.1167	-2.4	-2.3937	-2.8854	-2.3979	-2.5667	-2.7583	-2.6083	-2.6875	-2.5333	-2.3937	-2.7104	-2.5438	-2.4521	-2.7313	-2.4958	143.941	181.214	411.571	122.625	160.097	194.911	274.312	255.016	331.189	372.870	304.867	371.315	405.597	438.327	95.154	357.870	0.00064825	0.00047781	0.00015114	1089.3	5.6375e-06	1.9152e-06	1184.3	223.44	4.4501e-06	1.8508e-06	281.34	79.499	62.775	18.264	3.2834e-06	25.182	0.00020976	0.00020346	5.7204e-05	1070.9	2.2514e-06	2.215e-06	1159.6	220.83	2.2244e-06	2.2012e-06	276.36	78.895	62.148	18.431	2.1886e-06	25.408	304.931	126.200	157.270	89.679	219.221	164.346	89.290	97.172	253.718	416.337	96.953	103.841	104.009	111.022	297.227	110.331	-8191	255	
20883.246	1	1	0	0	0.18744	0.138	0.14723	0.20447	0.12528	0.030486	0.19118	0.19687	0.17002	0.29464	0.21745	0.25967	0.24344	0.20831	0.18929	0.058004	-2.2188	-2.6604	-2.3104	-2.9562	-2.5563	-2.5021	-2.9708	-2.3354	-2.5958	-2.775	-2.3521	-2.8521	-2.5333	-2.2646	-2.7792	-2.4375	318.273	299.822	387.105	410.007	377.083	188.897	376.555	399.476	182.001	273.581	423.426	346.856	168.823	87.109	317.643	156.851	0.00063249	0.0003847	0.00025563	1090.7	4.4128e-06	4.2126e-07	1185.2	223.15	4.1826e-06	4.8963e-06	279.9	80.022	63.386	18.184	9.8242e-07	25.238	0.00020886	0.00020195	5.6416e-05	1069.8	2.2392e-06	2.1828e-06	1158.8	220.73	2.2138e-06	2.1916e-06	276.11	78.973	62.262	18.434	2.2179e-06	25.501	305.522	185.219	152.397	89.410	222.996	174.003	89.398	97.127	322.765	204.040	96.487	103.600	104.221	111.291	286.747	109.950	-8191	255	
20883.344	1	1	0	0	0.19809	0.089073	0.037626	0.2026	0.051668	0.24337	0.29846	0.26084	0.11553	0.33316	0.17708	0.26997	0.22535	0.103	0.22823	0.323	-1.9521	-2.5875	-2.1167	-2.9521	-2.5479	-2.4604	-2.9188	-2.6	-2.5104	-2.7792	-2.2042	-2.8042	-2.6167	-2.1562	-2.7229	-2.3563	342.874	374.730	188.874	382.552	105.334	106.156	374.626	403.744	278.224	116.488	337.684	433.261	306.596	408.810	124.132	366.353	0.00054896	0.00032245	9.3259e-06	1088.7	4.3606e-06	1.1737e-06	1189.2	223.45	5.8643e-06	7.3532e-06	279.97	79.589	62.394	18.209	3.7766e-06	25.201	0.0002099	0.00019921	5.5961e-05	1069.8	2.2389e-06	2.2187e-06	1158.3	220.87	2.2472e-06	2.2101e-06	276.04	78.759	62.038	18.386	2.1956e-06	25.396	309.135	121.423	114.870	89.489	145.241	104.195	89.436	97.192	312.472	265.099	96.601	103.565	103.963	111.338	111.932	110.449	-8191	255	
20883.465	1	1	0	0	0.094704	0.067284	0.23035	0.49914	0.34529	0.15571	0.10011	0.091817	0.1463	0.12355	0.099029	0.27997	0.089861	0.16806	0.11785	0.069154	-2.0792	-2.6646	-2.3312	-2.7375	-2.6229	-2.3583	-2.9479	-2.5021	-2.3563	-2.6896	-2.4062	-2.5771	-2.7562	-2.25	-2.8312	-2.5062	362.566	162.115	206.245	396.208	176.655	282.061	345.802	411.469	261.271	131.676	137.771	116.596	147.065	156.888	405.245	123.761	0.00069512	0.00018937	0.00014643	1092.3	8.0961e-07	1.6121e-06	1180.6	222.28	2.9546e-06	3.368e-06	279.63	79.811	62.507	18.121	2.4292e-06	25.033	0.00020658	0.0001977	5.4817e-05	1069	2.1791e-06	2.145e-06	1157.1	220.27	2.1529e-06	2.1038e-06	275.32	78.845	61.933	18.366	2.1075e-06	25.393	319.703	280.901	228.245	89.427	83.115	238.700	89.538	97.260	278.690	237.008	96.865	104.115	104.281	110.819	214.904	110.299	-8191	255	
20883.561	1	1	0	0	0.29798	0.044175	0.067312	0.16566	0.090957	0.27156	0.11172	0.071663	0.014173	0.10611	0.17353	0.14124	0.17608	0.053414	0.056916	0.10962	-1.8687	-2.9479	-2.5083	-2.7271	-2.6229	-2.3292	-2.8042	-2.7583	-2.2021	-2.7896	-2.3417	-2.5604	-2.8875	-2.3958	-2.675	-2.5479	409.787	214.063	153.140	80.584	429.650	221.316	319.051	339.173	339.699	86.359	427.777	335.285	421.329	341.223	235.094	427.844	0.00051674	0.00027706	0.00013287	1089.6	3.6823e-06	3.2931e-06	1181.2	224.26	4.1635e-06	2.385e-06	278.84	79.842	62.788	18.206	4.2315e-06	25.185	0.00019949	0.0001911	5.3248e-05	1067.8	2.1229e-06	2.0898e-06	1153.9	220.31	2.0988e-06	2.0913e-06	275.15	78.718	61.768	18.331	2.0436e-06	25.293	294.615	285.455	161.823	89.418	220.561	221.467	89.347	97.395	310.567	239.454	96.697	104.174	104.156	111.138	242.886	110.063	-8191	255	
20883.656	1	1	0	0	0.060028	0.35015	0.042315	0.16257	0.052272	0.096453	0.16984	0.18461	0.28744	0.07617	0.14054	0.13967	0.048178	0.26641	0.12661	0.045096	-1.9271	-2.6375	-2.3	-2.5646	-2.6688	-2.2438	-2.8667	-2.6458	-2.5292	-2.8542	-2.4979	-2.4479	-2.7833	-2.2271	-2.6937	-2.7417	428.205	116.963	269.013	379.083	419.298	209.439	419.120	91.495	159.636	366.872	122.293	338.925	250.016	231.270	351.435	107.417	0.00061162	0.00021415	0.00020685	1087	5.5831e-06	2.9916e-06	1183.8	220.98	7.1642e-07	5.2592e-06	279.61	79.908	62.56	18.027	8.3483e-06	24.938	0.00019681	0.00018772	5.2722e-05	1064.9	2.1002e-06	2.0404e-06	1153.9	219.18	2.058e-06	2.055e-06	275.21	78.779	61.948	18.262	2.0764e-06	25.215	317.189	203.901	139.674	89.590	283.021	243.372	89.438	97.467	161.160	234.743	96.538	103.806	103.539	110.980	207.653	110.470	-8191	255	
20883.775	1	1	0	0	0.25211	0.31594	0.053719	0.17435	0.23906	0.12864	0.054168	0.20379	0.33614	0.18114	0.22576	0.25711	0.099328	0.22119	0.071324	0.20261	-1.7354	-2.6375	-2.2896	-2.6104	-2.7708	-2.5312	-2.7146	-2.7271	-2.1604	-2.8083	-2.5604	-2.2958	-2.8479	-2.3708	-2.675	-2.8125	240.402	420.541	218.266	285.220	382.143	370.201	142.846	434.817	393.591	166.539	410.514	423.979	376.767	121.734	159.076	104.840	0.00043965	5.6559e-05	0.00017184	1086.3	6.9306e-06	3.7692e-06	1178.5	222.53	2e-06	8.146e-06	278.6	79.502	62.623	18.158	1.729e-06	25.078	0.0001945	0.00018761	5.2306e-05	1064	2.0395e-06	2.0227e-06	1149	219.44	2.045e-06	2.0137e-06	274.74	78.358	61.715	18.249	2.043e-06	25.268	316.252	412.836	184.112	89.466	203.379	170.314	89.669	97.534	269.419	300.631	96.980	103.929	103.680	111.155	225.196	110.210	-8191	255	
20883.848	1	1	0	0	0.063989	0.097229	0.15204	0.25334	0.1256	0.17184	0.24095	0.16584	0.049383	0.081782	0.21969	0.31401	0.20278	0.17181	0.23872	0.05154	-1.8771	-2.5958	-2.4396	-2.575	-2.7542	-2.2479	-2.8563	-2.7958	-2.225	-2.7458	-2.7354	-2.3958	-2.7667	-2.4229	-2.5958	-2.8063	179.529	327.630	340.308	365.956	105.280	362.202	408.058	417.257	81.329	298.153	416.828	385.416	364.538	93.860	378.904	425.477	0.00061505	0.00030643	3.7336e-05	1080	2.803e-06	1.9956e-06	1178.2	223.29	2.4404e-06	3.3584e-06	279.47	79.48	62.242	18.065	5.8419e-06	25.048	0.00019065	0.00018105	5.1511e-05	1061.1	2.0378e-06	1.9763e-06	1148.7	218.76	1.9733e-06	1.9703e-06	273.96	78.266	61.466	18.202	1.9614e-06	25.19	319.123	219.315	197.797	89.584	280.122	283.800	89.486	97.399	243.855	286.175	96.869	103.835	104.050	111.484	226.576	110.204	-8191	255	
20883.943	1	1	0	0	0.20568	0.054153	0.28747	0.27711	0.13804	0.12471	0.19924	0.088478	0.024677	0.18093	0.014977	0.33696	0.37546	0.16659	0.057866	0.08867	-1.8813	-2.7812	-2.5042	-2.3833	-2.7812	-2.4042	-2.6583	-2.5729	-2.3604	-2.575	-2.7229	-2.3771	-2.6896	-2.4646	-2.5687	-2.8146	165.707	284.981	182.167	428.418	279.742	282.085	418.844	79.180	350.117	160.968	234.590	325.516	326.554	397.795	231.259	278.358	0.00070096	0.00028935	0.00023543	1081.9	3.6576e-06	3.0996e-06	1176.4	220.96	3.9191e-06	2.7851e-06	278.81	78.799	62.688	17.948	3.312e-06	25.212	0.00018403	0.00017962	4.9496e-05	1059.6	1.9869e-06	1.9654e-06	1148.8	218.43	1.9803e-06	1.9783e-06	273.71	78.044	61.588	18.165	2.0103e-06	25.207	295.940	210.260	199.837	89.490	220.238	268.886	89.553	97.157	319.234	240.199	96.244	104.012	103.929	110.862	237.498	110.259	-8191	255	
20884.062	1	1	0	0	0.092342	0.36935	0.04952	0.24603	0.36057	0.32375	0.12631	0.20656	0.21444	0.1275	0.22656	0.25749	0.091397	0.20538	0.092757	0.12322	-1.8937	-2.65	-2.8104	-2.4542	-2.8229	-2.4917	-2.5812	-2.8312	-2.5667	-2.7229	-2.8625	-2.2667	-2.7583	-2.4625	-2.3708	-2.9313	280.893	366.785	230.656	129.906	250.244	327.264	357.027	150.450	335.310	408.657	410.741	287.275	378.652	388.081	189.865	297.847	0.00055424	0.0002114	3.8465e-05	1081	3.1826e-06	1.0071e-06	1177.8	221.59	3.1533e-06	3.6839e-06	276.66	79.335	62.034	18.062	4.0352e-06	25.128	0.00018873	0.00018227	4.9773e-05	1059.7	1.9915e-06	2.0014e-06	1149.8	218.42	1.9629e-06	1.9992e-06	272.93	78.208	61.52	18.212	1.9787e-06	25.27	301.482	249.163	245.855	89.697	200.635	278.908	89.633	97.526	246.597	173.398	96.396	103.771	104.553	110.839	231.104	110.212	-8191	255	
20884.160	1	1	0	0	0.35694	0.12399	0.040771	0.078251	0.12291	0.14919	0.09249	0.059976	0.035193	0.29161	0.14628	0.16007	0.31065	0.23239	0.14782	0.13561	-1.7083	-2.4667	-2.9083	-2.3875	-2.6188	-2.6542	-2.5167	-2.7958	-2.525	-2.6875	-2.6958	-2.2104	-2.9062	-2.4938	-2.3771	-2.8479	404.945	398.223	283.359	299.696	259.669	109.337	354.642	225.927	257.035	235.800	422.820	247.730	357.511	88.083	332.905	127.262	0.00051888	0.00034247	9.2442e-05	1080.7	4.5492e-06	1.2605e-06	1175.9	220.19	2.1444e-06	2.3536e-06	279.07	79.88	62.404	17.954	6.391e-06	24.817	0.00018812	0.00018235	5.0416e-05	1060.2	1.9891e-06	1.9572e-06	1148.7	218.04	1.9899e-06	1.9702e-06	274.04	78.284	61.504	18.153	1.9854e-06	25.098	319.713	155.767	123.273	89.686	260.424	144.917	89.741	96.996	334.506	362.207	96.660	103.904	104.434	110.827	159.081	110.234	-8191	255	
20884.256	1	1	0	0	0.068118	0.047182	0.10603	0.20827	0.19319	0.07209	0.35066	0.17752	0.15976	0.094638	0.15895	0.14382	0.20453	0.23624	0.15398	0.15815	-1.875	-2.5771	-2.7708	-2.775	-2.5542	-2.6063	-2.4896	-2.9354	-2.4542	-2.4542	-2.9688	-2.3729	-2.7354	-2.6312	-2.1583	-2.8187	399.040	428.711	192.034	434.560	403.697	137.097	407.853	403.170	381.451	254.724	81.699	400.821	111.593	425.274	419.493	262.048	0.00066334	0.00055684	0.00010381	1084.5	8.1093e-06	1.1462e-06	1174.9	221.41	3.5168e-06	2.4803e-06	279.79	78.818	62.441	18.028	2.2522e-06	25.054	0.00018696	0.0001794	5.0167e-05	1062.2	2.0118e-06	1.9936e-06	1150.1	218.3	1.9986e-06	1.9962e-06	274.37	78.267	61.485	18.272	2.008e-06	25.218	315.655	201.726	259.358	89.531	245.129	121.285	89.509	97.147	271.320	330.655	96.723	103.845	103.826	111.030	206.302	110.276	-8191	255	
20884.352	1	1	0	0	0.15463	0.1698	0.13807	0.1045	0.058041	0.094638	0.33801	0.092906	0.036922	0.28554	0.23922	0.065028	0.13514	0.17659	0.15141	0.24043	-2.1667	-2.3312	-2.8271	-2.3208	-2.5167	-2.6229	-2.4417	-2.7188	-2.575	-2.3979	-2.8729	-2.1604	-2.4875	-2.6521	-2.4083	-2.7521	426.420	182.408	282.915	91.865	269.171	328.926	376.890	377.057	230.517	100.680	105.011	277.200	86.271	433.722	214.896	340.447	0.00049849	0.00046228	0.00011731	1082.9	3.8975e-06	3.774e-06	1182	222.05	3.1819e-06	3.9979e-06	278.18	79.524	62.39	18.11	2.1437e-06	24.935	0.00019142	0.00018156	4.9973e-05	1061	2.0007e-06	1.9552e-06	1151.4	218.66	1.9861e-06	1.9897e-06	273.48	78.246	61.585	18.249	1.9822e-06	25.153	310.779	175.670	200.083	89.640	280.293	256.558	89.356	97.288	244.589	218.555	96.618	103.822	104.240	111.183	243.193	110.380	-8191	255	
20884.447	1	1	0	0	0.13199	0.20548	0.19013	0.19481	0.17036	0.2089	0.029804	0.12103	0.12371	0.24643	0.28165	0.298	0.052019	0.05453	0.26525	0.22105	-2.2375	-2.5062	-2.7708	-2.4021	-2.5604	-2.6771	-2.45	-2.7458	-2.5396	-2.4583	-2.8667	-2.3688	-2.5	-2.7	-2.1958	-2.6167	385.945	320.288	389.245	350.645	384.696	214.363	87.132	227.050	220.986	148.235	295.478	346.371	369.492	317.245	391.953	359.721	0.00061345	0.00047088	1.6183e-05	1078.9	4.0356e-06	3.6138e-06	1177.8	221.57	4.7694e-06	3.5184e-06	278.26	78.932	62.355	18.183	1.8635e-06	24.974	0.00018633	0.00018002	5.0682e-05	1060.8	1.9714e-06	1.9825e-06	1149.6	218.18	1.9926e-06	1.9893e-06	273.7	78.099	61.392	18.226	2.0006e-06	25.161	316.439	176.967	347.765	89.445	250.373	248.320	89.519	97.094	284.827	250.670	96.798	104.006	103.981	110.711	149.777	110.345	-8191	255	
20884.545	1	1	0	0	0.112	0.069024	0.1428	0.14849	0.15212	0.057812	0.35028	0.45019	0.29013	0.088417	0.28667	0.15619	0.1235	0.18571	0.1451	0.19711	-1.9583	-2.2396	-2.8625	-2.625	-2.4271	-2.8125	-2.5771	-2.5271	-2.7167	-2.3792	-2.7896	-2.6562	-2.4229	-2.6979	-2.3354	-2.5208	386.673	219.383	415.841	139.339	365.225	303.077	327.632	380.643	258.517	408.588	391.626	343.473	274.151	387.706	280.295	392.016	0.00063903	0.00028277	0.00010619	1080.7	4.4544e-06	3.9435e-06	1179.4	222.42	8.0586e-06	4.4913e-06	278.14	79.375	62.389	18.001	4.5446e-06	24.956	0.00018744	0.0001843	4.9938e-05	1059.3	2.0075e-06	2.0032e-06	1149.3	218.72	2.0224e-06	1.9921e-06	273.67	78.17	61.512	18.194	2.0019e-06	25.215	308.384	166.232	224.322	89.400	278.089	279.859	89.470	97.460	288.766	193.897	96.473	103.878	103.898	111.545	229.006	110.397	-8191	255	
20884.641	1	1	0	0	0.12383	0.063506	0.18162	0.34309	0.13996	0.34917	0.30062	0.18185	0.27185	0.27567	0.29291	0.17101	0.18372	0.22952	0.13562	0.28134	-2.225	-2.2604	-2.7896	-2.8479	-2.4896	-2.7896	-2.2979	-2.6417	-2.5875	-2.4167	-2.7687	-2.725	-2.3083	-2.8333	-2.4354	-2.675	366.676	236.782	358.277	410.171	115.705	89.669	383.452	399.453	262.896	196.329	431.913	285.288	398.643	93.113	256.417	396.099	0.00052005	0.00037504	0.00010254	1082.4	5.0673e-06	1.51e-06	1173.9	221.37	5.9223e-06	2.5409e-06	278.01	79.085	62.585	18.017	3.6423e-06	25.069	0.00019056	0.00018175	4.9863e-05	1059.9	2.0114e-06	1.9616e-06	1147.8	218.33	1.9892e-06	2.0092e-06	273.74	78.259	61.548	18.212	2.0221e-06	25.176	315.325	136.563	139.417	89.677	274.538	347.393	89.599	97.441	235.913	222.002	96.453	103.844	104.291	111.384	231.553	110.416	-8191	255	
20884.736	1	1	0	0	0.096129	0.12479	0.14003	0.28171	0.18183	0.3437	0.27402	0.22257	0.08237	0.039844	0.14628	0.093666	0.13621	0.076564	0.22096	0.138	-2.3792	-2.2875	-2.6688	-2.7625	-2.1958	-2.8208	-2.6708	-2.5021	-2.9042	-2.3771	-2.6833	-2.6937	-2.4396	-3.0563	-2.4771	-2.5542	179.518	100.276	302.307	399.416	400.458	155.624	368.891	276.552	116.931	350.163	211.098	164.580	395.241	284.407	429.603	403.244	0.00058461	0.00042647	6.0643e-05	1081.5	1.396e-06	4.3109e-06	1171.8	221.01	3.9646e-06	4.4379e-06	278.89	79.392	62.402	18.131	3.1789e-06	24.922	0.00018774	0.00018214	5.0096e-05	1061.3	1.9972e-06	1.9779e-06	1147.3	218.23	1.9757e-06	1.9689e-06	274.1	78.203	61.586	18.251	1.9849e-06	25.214	310.141	403.914	223.571	89.632	189.901	221.085	89.417	96.952	267.529	255.266	96.786	103.776	104.280	111.095	270.507	109.928	-8191	255	
20884.855	1	1	0	0	0.11302	0.20283	0.15567	0.27015	0.11899	0.1603	0.35589	0.079869	0.090024	0.26218	0.19863	0.29804	0.074862	0.12668	0.15969	0.16604	-2.2396	-2.1458	-2.6979	-3.0375	-2.3146	-2.7167	-2.6979	-2.4354	-2.8688	-2.4083	-2.6625	-2.7562	-2.3292	-2.5938	-2.6521	-2.4271	407.772	155.480	151.749	100.336	363.377	299.612	397.918	284.852	279.467	322.337	388.956	378.605	239.109	368.017	435.768	257.270	0.00069973	0.00052024	6.7432e-05	1077.4	3.3232e-06	5.5393e-06	1179.1	222.03	1.3805e-06	2.3202e-06	279.5	79.399	62.688	18.068	4.2493e-06	25.026	0.00019022	0.0001827	5.0429e-05	1059	2.016e-06	1.9982e-06	1148	218.75	2.0532e-06	2.008e-06	274.43	78.402	61.526	18.238	1.9739e-06	25.236	318.607	168.481	85.713	89.442	146.563	194.509	89.544	97.254	235.112	333.745	96.827	103.712	103.966	110.873	229.147	110.724	-8191	255	
20884.951	1	1	0	0	0.047876	0.091049	0.14566	0.36174	0.15583	0.061024	0.22179	0.21197	0.12648	0.14581	0.2479	0.079121	0.22435	0.32261	0.10954	0.08967	-2.4333	-2.3646	-2.3917	-3.0062	-2.3542	-2.6792	-2.8292	-2.4479	-2.8125	-2.4792	-2.5792	-2.7396	-2.3208	-2.6917	-2.5729	-2.2333	206.784	249.888	165.292	436.177	400.911	189.331	339.186	339.391	190.870	217.783	426.546	361.944	93.706	369.505	299.282	292.001	0.00056612	0.00071207	0.00010104	1078.8	5.8033e-06	2.6748e-06	1174.2	221.45	1.0818e-05	3.4154e-06	279.89	78.955	62.688	18.024	6.2183e-06	25.036	0.00018747	0.00018367	5.0612e-05	1057.5	2.0098e-06	1.9779e-06	1147	218.17	2.0181e-06	1.9826e-06	274.16	78.172	61.54	18.213	2.0081e-06	25.14	307.522	162.965	158.173	89.391	231.747	250.641	89.501	97.342	268.526	206.100	96.776	103.640	104.036	111.597	195.475	110.061	-8191	255	
20885.049	1	1	0	0	0.038926	0.1825	0.082945	0.10426	0.077534	0.20716	0.25162	0.07131	0.15309	0.088287	0.13517	0.14356	0.17379	0.22604	0.23759	0.25046	-2.375	-2.4104	-2.4646	-2.8583	-2.3479	-2.7021	-2.8125	-2.3563	-2.8667	-2.5667	-2.5771	-2.7583	-2.4083	-2.6354	-2.6542	-2.4833	256.738	357.736	122.653	83.641	400.395	404.763	365.569	155.355	164.358	121.088	415.706	120.247	327.213	429.377	397.321	317.522	0.00061177	0.00022054	7.9188e-05	1081.1	3.8562e-06	2.651e-06	1177.9	221.12	2.9014e-06	3.5157e-06	278.46	79.47	62.497	18.13	5.8517e-06	25.168	0.00018706	0.00018634	5.146e-05	1060.4	2.0432e-06	2.0112e-06	1149.1	218.35	1.9998e-06	2.0358e-06	273.35	78.329	61.448	18.255	2.0321e-06	25.264	309.264	165.883	158.288	89.602	206.584	230.180	89.598	97.362	162.803	316.512	96.666	103.677	104.452	111.170	204.253	110.232	-8191	255	
20885.145	1	1	0	0	0.060738	0.092502	0.16785	0.22702	0.044545	0.37643	0.024038	0.12258	0.15567	0.15239	0.15428	0.074835	0.23918	0.25091	0.072553	0.079523	-2.2146	-2.5167	-2.3292	-2.9542	-2.3729	-2.6542	-2.8625	-2.4729	-2.7812	-2.5104	-2.5583	-2.8896	-2.2354	-2.4688	-2.7396	-2.3021	425.291	151.909	283.046	391.640	410.574	429.579	140.649	382.552	292.973	238.994	152.819	145.520	311.453	381.805	378.073	384.799	0.00072792	0.00043305	0.00011114	1075.7	8.0253e-07	1.8482e-06	1177.3	221.69	3.0414e-06	5.117e-06	277.44	79.039	62.488	18.093	4.2144e-06	25.131	0.00019321	0.00018902	5.2363e-05	1058.6	2.1005e-06	2.005e-06	1148.2	218.45	2.0481e-06	2.0037e-06	273.32	78.384	61.546	18.248	2.0276e-06	25.19	314.085	421.264	229.941	89.220	300.354	166.117	89.437	97.253	204.615	213.480	96.554	103.818	104.366	111.010	301.219	110.038	-8191	255	
20885.240	1	1	0	0	0.2891	0.16864	0.12439	0.30297	0.18463	0.26522	0.19759	0.14707	0.14408	0.030051	0.067837	0.15255	0.20255	0.15375	0.17705	0.076915	-2.275	-2.5021	-2.3625	-2.7729	-2.3417	-2.5042	-2.8396	-2.3604	-2.7375	-2.5938	-2.3854	-2.7104	-2.5417	-2.5729	-2.7833	-2.3479	401.018	386.903	253.474	366.237	138.161	297.690	294.104	428.429	436.373	354.311	181.514	338.078	334.429	345.061	220.560	145.346	0.00061516	0.00012625	0.00010144	1077.5	4.8848e-06	4.2571e-06	1175.1	221.72	5.8371e-06	1.4989e-06	277.52	79.054	62.564	18.163	2.4735e-06	25.103	0.00019223	0.00018652	5.1616e-05	1058.4	2.0757e-06	2.063e-06	1148.8	218.69	2.1002e-06	2.0468e-06	273.39	78.346	61.702	18.304	2.0216e-06	25.251	307.879	307.542	242.048	89.264	169.656	260.704	89.594	97.432	292.210	294.284	96.900	103.412	104.309	110.733	208.922	110.248	-8191	255	
20885.336	1	1	0	0	0.20394	0.098264	0.32122	0.28713	0.12918	0.26362	0.3147	0.3692	0.26545	0.082602	0.1252	0.15262	0.13268	0.23074	0.048302	0.23328	-2.2625	-2.7146	-2.4562	-2.9625	-2.4271	-2.5563	-2.7354	-2.3729	-2.6375	-2.5729	-2.4333	-2.7208	-2.4396	-2.1688	-2.6854	-2.35	364.342	309.426	341.231	407.418	218.376	259.556	371.714	349.706	377.980	369.326	211.817	85.258	284.193	438.411	281.236	430.383	0.00059795	0.00055232	4.6175e-05	1075.8	5.0667e-06	2.8005e-06	1179.2	221.39	3.3263e-06	1.1831e-06	276.78	79.133	62.384	18.031	2.7175e-06	25.137	0.00019591	0.00018815	5.2217e-05	1057.9	2.0669e-06	2.013e-06	1149	218.46	2.0046e-06	1.9952e-06	273.29	78.191	61.618	18.246	1.9889e-06	25.156	319.725	161.243	226.867	89.552	240.070	211.315	89.433	97.158	304.699	248.176	96.840	103.582	103.970	110.877	146.977	110.341	-8191	255	
20885.457	1	1	0	0	0.35106	0.037848	0.13803	0.04387	0.097019	0.11982	0.21381	0.20328	0.036433	0.033477	0.19095	0.1502	0.024056	0.084823	0.052592	0.1817	-2.2125	-2.6021	-2.0438	-2.8021	-2.3792	-2.5167	-3.1937	-2.3167	-2.5833	-2.7417	-2.2562	-2.8521	-2.4729	-2.3729	-2.8438	-2.3021	353.223	402.271	359.185	206.082	181.599	407.468	391.280	356.595	238.966	241.632	143.228	214.481	98.357	101.050	347.989	421.653	0.00056561	0.00049561	0.00017733	1079.5	5.3278e-06	2.8933e-06	1175.6	222.81	3.4052e-06	1.8231e-06	280.4	79.528	62.627	18.19	6.3834e-06	25.08	0.00019044	0.00018608	5.1302e-05	1056.5	2.0042e-06	1.9895e-06	1147	218.58	1.986e-06	1.9751e-06	274.3	78.421	61.497	18.278	2.0363e-06	25.202	315.205	141.260	171.073	89.408	206.768	209.403	89.463	97.317	335.353	334.359	96.678	103.769	104.024	111.215	224.960	110.179	-8191	255	
20885.553	1	1	0	0	0.20614	0.011705	0.091774	0.12493	0.18599	0.10996	0.23563	0.25274	0.049446	0.1766	0.070362	0.15138	0.13675	0.08291	0.092874	0.089474	-2.0271	-2.6396	-2.2521	-2.6312	-2.6229	-2.2458	-2.8458	-2.4104	-2.5	-2.8792	-2.5812	-2.6604	-2.475	-2.3271	-2.6813	-2.3937	406.189	367.575	426.779	339.180	335.113	312.628	346.492	148.030	244.789	258.358	370.010	179.148	251.157	193.888	128.838	338.182	0.00054171	0.00029401	0.00022314	1080.1	2.7328e-06	2.442e-06	1177.4	222.19	3.8316e-06	1.2754e-06	278.09	79.737	62.358	18.11	4.8099e-06	25.25	0.00018834	0.00018166	5.0229e-05	1058.8	1.9849e-06	1.9708e-06	1145.6	218.4	1.9511e-06	1.9528e-06	273.62	78.387	61.682	18.23	1.9818e-06	25.239	315.696	138.307	399.628	89.376	228.102	253.821	89.174	97.156	269.124	204.608	96.711	103.852	104.298	110.623	212.865	110.152	-8191	255	
20885.646	1	1	0	0	0.13696	0.018513	0.14258	0.094108	0.079923	0.2814	0.073589	0.045243	0.0504	0.17029	0.33891	0.052338	0.35027	0.21907	0.15161	0.15267	-1.95	-2.7896	-2.35	-3	-2.6958	-2.4917	-2.8417	-2.5292	-2.4604	-2.9021	-2.3542	-2.7562	-2.625	-2.2562	-2.6417	-2.7917	263.483	290.036	184.602	391.638	434.141	384.198	409.509	185.162	347.546	391.472	87.873	417.742	89.739	378.246	114.926	97.146	0.00050462	0.0005914	0.00014215	1081.5	3.5175e-06	1.6899e-06	1175.9	222.19	2.2651e-06	1.721e-06	279.81	79.499	62.618	18.095	1.9285e-06	24.998	0.00018976	0.00018011	5.0571e-05	1059.1	1.9941e-06	1.9966e-06	1148.3	218.73	1.9849e-06	1.9712e-06	273.69	78.084	61.503	18.222	1.9831e-06	25.186	304.492	148.504	92.827	89.494	188.092	431.338	89.451	97.229	261.015	177.187	96.686	103.222	103.999	111.187	210.588	110.030	-8191	255	
20885.744	1	1	0	0	0.046862	0.045685	0.076885	0.076497	0.12592	0.25397	0.18343	0.084522	0.19162	0.062679	0.30305	0.070595	0.13079	0.2265	0.10442	0.11471	-1.8729	-2.5583	-2.2458	-2.7083	-2.5875	-2.3271	-2.9292	-2.75	-2.3458	-2.8375	-2.4917	-2.3729	-2.7687	-2.3	-2.8312	-2.725	195.795	430.319	352.666	424.336	320.359	369.016	423.877	352.540	191.841	89.399	369.431	176.806	360.160	390.863	303.721	380.339	0.00051838	0.00057626	3.685e-05	1082.4	7.5335e-06	1.1113e-06	1178.3	221.74	6.7668e-06	5.1505e-06	277.8	79.481	62.801	17.934	3.1468e-06	24.981	0.00018914	0.00017979	4.9386e-05	1058.6	1.9734e-06	1.9791e-06	1145.8	218.52	1.954e-06	1.9168e-06	272.95	78.282	61.606	18.154	1.9728e-06	25.16	297.078	223.204	227.485	89.427	200.796	399.543	89.773	97.245	271.677	184.056	96.887	103.694	104.090	111.292	254.361	110.026	-8191	255	
20885.840	1	1	0	0	0.013957	0.39527	0.2634	0.21306	0.10821	0.19959	0.32416	0.23554	0.16336	0.14102	0.23986	0.24646	0.26682	0.20578	0.26083	0.18004	-1.9479	-2.5792	-2.4958	-2.7292	-2.7229	-2.15	-2.7167	-2.675	-2.2938	-2.8688	-2.5	-2.4417	-2.8354	-2.375	-2.7354	-2.725	236.012	394.459	347.533	404.788	257.129	247.921	366.150	375.818	335.291	120.328	431.174	383.171	113.056	374.571	334.848	251.164	0.00059992	0.00050425	0.00011721	1078.6	5.898e-06	2.5122e-06	1172	220.6	1.1112e-06	3.6675e-06	279.35	79.675	61.975	18.153	8.748e-07	25.28	0.0001862	0.00017653	4.9668e-05	1057	1.9675e-06	1.9371e-06	1145.2	217.81	1.97e-06	1.9057e-06	273.68	78.457	61.34	18.22	1.962e-06	25.233	306.729	168.138	214.429	89.440	213.619	283.802	89.519	97.081	214.232	251.190	96.579	103.341	104.247	111.013	304.632	110.446	-8191	255	
20885.936	1	1	0	0	0.10009	0.20997	0.19503	0.36864	0.13971	0.24525	0.22014	0.079187	0.21837	0.15432	0.29778	0.20001	0.1834	0.1106	0.029902	0.1578	-1.8771	-2.8542	-2.4625	-2.5292	-2.8187	-2.3937	-2.8521	-2.9083	-2.4	-2.7458	-2.6	-2.3833	-2.8979	-2.4	-2.6125	-2.7458	395.250	88.241	335.584	121.796	87.972	253.305	353.321	101.985	403.525	242.208	81.353	362.057	307.434	328.403	351.057	116.700	0.00046119	0.00022207	6.7258e-05	1073.8	2.7942e-06	3.6064e-06	1172.8	222.27	4.2929e-06	2.1231e-06	278.26	79.155	62.56	17.892	5.2745e-06	24.755	0.00018532	0.0001805	4.934e-05	1055.2	1.9469e-06	1.9475e-06	1144.9	218.25	1.9506e-06	1.9573e-06	273.08	78.025	61.386	18.171	1.9694e-06	25.12	321.216	163.678	260.881	89.440	122.894	194.204	89.374	97.086	329.244	176.786	96.826	103.867	104.128	111.181	247.131	110.253	-8191	255	
20886.031	1	1	0	0	0.36845	0.03569	0.21308	0.063229	0.1457	0.16809	0.1114	0.19015	0.071806	0.097081	0.09593	0.14105	0.14336	0.3016	0.051611	0.093448	-1.7896	-2.6396	-2.4854	-2.3896	-2.8312	-2.3854	-2.7104	-2.8417	-1.9417	-2.675	-2.6813	-2.4542	-2.7438	-2.3417	-2.4854	-2.8667	194.623	218.058	410.281	88.657	348.433	389.636	290.399	310.251	112.623	438.876	133.447	416.247	154.334	209.561	361.814	362.531	0.00061589	0.00036937	9.2356e-05	1075.1	4.9218e-06	3.395e-06	1172.9	222.24	3.4551e-06	3.4811e-06	279.02	79.34	62.569	18.044	2.1654e-06	25.062	0.00018428	0.00017927	4.9536e-05	1057.2	1.9508e-06	1.916e-06	1143.6	218.45	1.9322e-06	1.9112e-06	273.74	78.184	61.514	18.159	1.926e-06	25.078	310.123	170.445	150.592	89.476	155.396	184.428	89.445	97.163	286.402	245.545	96.595	103.900	104.403	111.126	216.593	110.188	-8191	255	
20886.152	1	1	0	0	0.1075	0.045091	0.08967	0.37706	0.20093	0.19209	0.21583	0.37925	0.27814	0.17111	0.2071	0.058918	0.15538	0.21629	0.16607	0.10223	-1.9438	-2.7708	-2.6458	-2.4146	-2.6	-2.5917	-2.5	-2.7792	-2.3458	-2.75	-2.5312	-2.3771	-2.7583	-2.3729	-2.4417	-2.9167	333.699	84.442	396.094	432.115	147.185	260.331	378.703	91.886	193.141	177.184	374.701	168.774	263.478	384.340	327.424	422.957	0.00056248	0.00077971	9.6279e-05	1079.7	7.2015e-06	2.0307e-06	1168.6	221.66	3.8133e-06	4.7681e-06	279.53	79.133	62.251	18.04	3.2306e-06	25.149	0.00018414	0.00017583	4.9055e-05	1055.3	1.9267e-06	1.9199e-06	1144.4	217.98	1.9515e-06	1.9627e-06	273.4	78.11	61.42	18.151	1.9421e-06	25.186	311.306	115.884	179.264	89.342	231.958	286.329	89.387	97.063	212.249	230.425	96.452	104.283	104.056	110.658	410.388	110.278	-8191	255	
20886.248	1	1	0	0	0.081784	0.16392	0.10691	0.13191	0.0078964	0.17265	0.13457	0.16054	0.18976	0.091386	0.23671	0.24945	0.35176	0.17879	0.18538	0.12363	-1.9062	-2.3542	-2.5938	-2.3917	-2.7667	-2.5958	-2.5896	-2.9229	-2.425	-2.6813	-2.9542	-2.3167	-2.7188	-2.6979	-2.3583	-2.9938	191.370	141.987	96.746	366.066	388.767	176.079	390.291	401.292	426.690	134.169	312.043	120.017	360.249	248.709	423.481	97.849	0.00066411	0.00042621	8.143e-05	1080.1	4.3171e-06	2.7115e-06	1170.2	221.59	3.9103e-06	4.538e-06	278.4	79.236	62.246	18.002	4.6205e-06	25.079	0.00018288	0.00017971	4.9772e-05	1056.5	1.9588e-06	1.9237e-06	1143.8	218.12	1.9909e-06	1.997e-06	273.4	78.193	61.475	18.21	1.9719e-06	25.17	310.169	140.549	137.472	89.559	239.990	319.270	89.327	97.354	275.581	222.713	96.450	103.843	104.194	110.954	206.965	110.143	-8191	255	
20886.320	1	1	0	0	0.096845	0.10456	0.16618	0.16397	0.2062	0.32594	0.36387	0.049556	0.060379	0.20595	0.13537	0.2438	0.046887	0.084054	0.10279	0.2001	-2.0854	-2.2854	-2.7583	-2.3417	-2.7208	-2.6604	-2.5312	-2.9604	-2.2792	-2.7208	-2.8854	-2.2208	-2.8063	-2.7188	-2.3521	-2.7521	111.060	121.228	252.842	434.706	356.701	221.204	335.535	85.838	420.215	387.650	91.987	400.622	199.875	407.640	244.695	376.112	0.00056205	0.00043566	0.00022485	1073.7	7.1478e-06	3.9804e-06	1167.6	222.3	1.0239e-06	4.8079e-06	279.44	79.119	62.354	18.073	4.1124e-06	25.058	0.000184	0.00018123	4.9301e-05	1055	1.9471e-06	1.9071e-06	1141.8	218.15	1.9152e-06	1.938e-06	273.12	78.181	61.419	18.158	1.9701e-06	25.188	307.191	119.281	132.890	89.401	232.692	260.362	89.514	97.411	229.587	200.808	96.619	103.502	104.097	110.963	225.460	110.214	-8191	255	
#DATA ENDS
