BOXY.EXE: ISS Imagent and Oximeter Data Acquisition Program Version 0.80
Ascii Record File

#ACQ INFORMATION
2  Detector Channels 
16  External MUX Channels 
1  Auxiliary Channels 
5000  Waveform (CCF) Frequency (Hz)
1  Waveforms Skipped 
30  Waveforms Averaged 
1  Cycles Averaged 
16  Acquisitions per Waveform 
10.0806  Updata Rate (Hz) 

#FILE INFORMATION
TRUE -- External MUX Channel results are PARSED.
FALSE -- AC DC and Phase are NOT grouped.
TRUE -- Companion Program Settings File CREATED.
FALSE -- AC data not excluded
FALSE -- DC data not excluded
FALSE -- Phase data not excluded
FALSE -- Auxillary Chn. data not excluded
Tab delimiters

#CALIBRATION STATE
TRUE -- Waveform Calibration Values APPLIED.


#AUX CALIBRATION VALUES
Val Type	aux-1	

Term	1.0000e+00	
Factor	0.0000e+00	


#WF CALIBRATION VALUES
A = Detector Channel
Val Type	A-AC1	A-AC2	A-AC3	A-AC4	A-AC5	A-AC6	A-AC7	A-AC8	A-AC9	A-AC10	A-AC11	A-AC12	A-AC13	A-AC14	A-AC15	A-AC16	A-DC1	A-DC2	A-DC3	A-DC4	A-DC5	A-DC6	A-DC7	A-DC8	A-DC9	A-DC10	A-DC11	A-DC12	A-DC13	A-DC14	A-DC15	A-DC16	A-Ph1	A-Ph2	A-Ph3	A-Ph4	A-Ph5	A-Ph6	A-Ph7	A-Ph8	A-Ph9	A-Ph10	A-Ph11	A-Ph12	A-Ph13	A-Ph14	A-Ph15	A-Ph16	

Term	0.00000e+00	0.00000e+00	0.00000e+00	0.00000e+00	0.00000e+00	0.00000e+00	0.00000e+00	0.00000e+00	0.00000e+00	0.00000e+00	0.00000e+00	0.00000e+00	0.00000e+00	0.00000e+00	0.00000e+00	0.00000e+00	0.00000e+00	0.00000e+00	0.00000e+00	0.00000e+00	0.00000e+00	0.00000e+00	0.00000e+00	0.00000e+00	0.00000e+00	0.00000e+00	0.00000e+00	0.00000e+00	0.00000e+00	0.00000e+00	0.00000e+00	0.00000e+00	0.00000e+00	0.00000e+00	0.00000e+00	0.00000e+00	0.00000e+00	0.00000e+00	0.00000e+00	0.00000e+00	0.00000e+00	0.00000e+00	0.00000e+00	0.00000e+00	0.00000e+00	0.00000e+00	0.00000e+00	0.00000e+00	
Factor	1.00000e+00	1.00000e+00	1.00000e+00	1.00000e+00	1.00000e+00	1.00000e+00	1.00000e+00	1.00000e+00	1.00000e+00	1.00000e+00	1.00000e+00	1.00000e+00	1.00000e+00	1.00000e+00	1.00000e+00	1.00000e+00	1.00000e+00	1.00000e+00	1.00000e+00	1.00000e+00	1.00000e+00	1.00000e+00	1.00000e+00	1.00000e+00	1.00000e+00	1.00000e+00	1.00000e+00	1.00000e+00	1.00000e+00	1.00000e+00	1.00000e+00	1.00000e+00	X	X	X	X	X	X	X	X	X	X	X	X	X	X	X	X	

B = Detector Channel
Val Type	B-AC1	B-AC2	B-AC3	B-AC4	B-AC5	B-AC6	B-AC7	B-AC8	B-AC9	B-AC10	B-AC11	B-AC12	B-AC13	B-AC14	B-AC15	B-AC16	B-DC1	B-DC2	B-DC3	B-DC4	B-DC5	B-DC6	B-DC7	B-DC8	B-DC9	B-DC10	B-DC11	B-DC12	B-DC13	B-DC14	B-DC15	B-DC16	B-Ph1	B-Ph2	B-Ph3	B-Ph4	B-Ph5	B-Ph6	B-Ph7	B-Ph8	B-Ph9	B-Ph10	B-Ph11	B-Ph12	B-Ph13	B-Ph14	B-Ph15	B-Ph16	

Term	0.00000e+00	0.00000e+00	0.00000e+00	0.00000e+00	0.00000e+00	0.00000e+00	0.00000e+00	0.00000e+00	0.00000e+00	0.00000e+00	0.00000e+00	0.00000e+00	0.00000e+00	0.00000e+00	0.00000e+00	0.00000e+00	0.00000e+00	0.00000e+00	0.00000e+00	0.00000e+00	0.00000e+00	0.00000e+00	0.00000e+00	0.00000e+00	0.00000e+00	0.00000e+00	0.00000e+00	0.00000e+00	0.00000e+00	0.00000e+00	0.00000e+00	0.00000e+00	1.18084e+01	-1.38873e+02	-1.24998e+02	-1.83146e+02	-7.27340e+01	-6.37033e+01	-1.60638e+02	-1.62015e+02	-3.12208e+01	-6.27560e+01	-1.72582e+02	-1.72483e+02	-1.83079e+02	-1.78092e+02	-9.56933e+01	-1.50919e+02	
Factor	4.44032e-05	1.51227e-04	4.59897e-05	1.52212e-01	1.40126e-06	1.22182e-06	1.72356e-01	5.67285e-02	1.37058e-06	1.58077e-06	8.83220e-02	2.95593e-02	2.80079e-02	9.00119e-03	1.53101e-06	1.30876e-02	1.36817e-06	1.41543e-06	3.92752e-07	7.76740e-02	1.54102e-08	1.54915e-08	8.23777e-02	2.87967e-02	1.53811e-08	1.54814e-08	4.31705e-02	1.44196e-02	1.41529e-02	4.56543e-03	1.54541e-08	6.40635e-03	X	X	X	X	X	X	X	X	X	X	X	X	X	X	X	X	



#DISTANCE SETTINGS
A = Detector Channel
A-1	A-2	A-3	A-4	A-5	A-6	A-7	A-8	A-9	A-10	A-11	A-12	A-13	A-14	A-15	A-16	

2.5000e+00	3.0000e+00	2.5000e+00	3.0000e+00	2.0000e+00	3.0000e+00	1.5000e+00	3.0000e+00	3.0000e+00	3.0000e+00	3.0000e+00	3.0000e+00	3.0000e+00	3.0000e+00	1.5000e+00	3.0000e+00	

B = Detector Channel
B-1	B-2	B-3	B-4	B-5	B-6	B-7	B-8	B-9	B-10	B-11	B-12	B-13	B-14	B-15	B-16	

1.0000e+01	1.0000e+01	1.0000e+01	1.4400e+00	1.0000e+01	1.0000e+01	1.5100e+00	1.9400e+00	1.0000e+01	1.0000e+01	1.9900e+00	2.4900e+00	2.4100e+00	2.9000e+00	1.0000e+01	2.9800e+00	




#DATA BEGINS
time	group	step	mark	flag	A-AC1	A-AC2	A-AC3	A-AC4	A-AC5	A-AC6	A-AC7	A-AC8	A-AC9	A-AC10	A-AC11	A-AC12	A-AC13	A-AC14	A-AC15	A-AC16	A-DC1	A-DC2	A-DC3	A-DC4	A-DC5	A-DC6	A-DC7	A-DC8	A-DC9	A-DC10	A-DC11	A-DC12	A-DC13	A-DC14	A-DC15	A-DC16	A-Ph1	A-Ph2	A-Ph3	A-Ph4	A-Ph5	A-Ph6	A-Ph7	A-Ph8	A-Ph9	A-Ph10	A-Ph11	A-Ph12	A-Ph13	A-Ph14	A-Ph15	A-Ph16	B-AC1	B-AC2	B-AC3	B-AC4	B-AC5	B-AC6	B-AC7	B-AC8	B-AC9	B-AC10	B-AC11	B-AC12	B-AC13	B-AC14	B-AC15	B-AC16	B-DC1	B-DC2	B-DC3	B-DC4	B-DC5	B-DC6	B-DC7	B-DC8	B-DC9	B-DC10	B-DC11	B-DC12	B-DC13	B-DC14	B-DC15	B-DC16	B-Ph1	B-Ph2	B-Ph3	B-Ph4	B-Ph5	B-Ph6	B-Ph7	B-Ph8	B-Ph9	B-Ph10	B-Ph11	B-Ph12	B-Ph13	B-Ph14	B-Ph15	B-Ph16	aux-1	digaux	

21284.152	1	1	0	256	0.19132	0.15212	0.1926	0.13078	0.25359	0.11377	0.3822	0.26429	0.25336	0.19759	0.22662	0.21161	0.073158	0.2573	0.16106	0.24119	-1.8542	-2.7208	-2.3458	-2.4521	-2.5167	-2.1979	-2.6083	-2.8125	-2.2333	-2.7375	-2.5771	-2.4833	-2.7229	-2.3042	-2.5312	-2.7354	68.302	334.659	172.503	40.904	223.657	275.756	269.939	-16.035	-16.142	294.681	236.846	314.368	169.802	46.934	168.235	243.102	8.1762e-05	0.0010729	0.00030379	397.34	6.5606e-06	3.1009e-06	497.6	107.73	4.7862e-06	1.3546e-06	169.57	60.574	34.239	11.565	4.9025e-06	30.158	0.00049194	0.00050192	0.00013812	410.49	5.3878e-06	5.3536e-06	504.33	113.07	5.2869e-06	5.3924e-06	176.82	62.683	37.502	12.641	5.5302e-06	30.598	-20.780	117.858	91.575	-8.913	46.433	216.017	-9.470	-3.581	87.896	212.132	-5.036	-0.291	-0.368	4.191	58.220	2.305	-8191	255	
21284.248	1	1	0	0	0.13971	0.12719	0.13699	0.20176	0.42369	0.18646	0.26368	0.20662	0.20831	0.12495	0.071541	0.081316	0.32484	0.20906	0.17264	0.059146	-1.7	-2.6813	-2.4604	-2.5333	-2.6854	-2.4417	-2.6167	-2.5938	-2.2062	-2.7479	-2.6312	-2.1729	-2.6708	-2.5438	-2.4354	-2.8521	168.574	16.550	152.508	21.672	20.524	-16.360	288.362	284.114	312.103	44.162	3.995	330.366	94.948	230.854	337.107	226.053	0.00041318	0.00034814	0.00024278	397.24	6.1486e-06	5.5496e-06	494.85	108.29	9.9132e-06	1.4519e-06	170.77	60.928	34.207	11.714	2.9482e-06	30.031	0.00049009	0.00050335	0.0001381	408.76	5.4396e-06	5.3519e-06	502.68	113.48	5.3713e-06	5.4877e-06	176.38	62.902	37.319	12.712	5.3962e-06	30.723	294.470	119.483	324.179	-8.909	80.430	166.496	-9.305	-4.023	149.617	296.778	-4.990	-0.539	0.824	4.078	126.008	2.345	-8191	255	
21284.367	1	1	0	0	0.1982	0.17147	0.12133	0.15379	0.10745	0.11093	0.21814	0.10845	0.27609	0.19151	0.23271	0.097628	0.17358	0.32845	0.11521	0.28138	-1.8125	-2.4479	-2.8146	-2.4979	-2.625	-2.3896	-2.7583	-2.7292	-2.0625	-2.5875	-2.7458	-2.2479	-2.6833	-2.3708	-2.3458	-2.6771	-13.297	111.877	242.872	108.604	270.758	219.110	335.955	207.514	18.620	157.352	124.983	26.782	169.699	253.765	324.489	-5.231	0.00033744	0.00085729	4.7944e-05	398.74	7.7742e-06	1.28e-06	500.72	108.29	3.9534e-06	2.0614e-06	170.32	61.207	34.704	11.709	1.9177e-06	30.185	0.00047905	0.00049729	0.00013592	409.15	5.2999e-06	5.2958e-06	504.76	113.67	5.2347e-06	5.3254e-06	176.6	63.035	37.407	12.693	5.2301e-06	30.817	275.654	308.151	30.283	-8.957	229.682	107.610	-9.015	-3.189	96.696	150.988	-5.069	-0.494	0.149	4.274	156.014	2.178	-8191	255	
21284.439	1	1	0	0	0.02213	0.10237	0.29139	0.10604	0.11532	0.1856	0.12419	0.15614	0.27965	0.17981	0.25937	0.14719	0.25416	0.10077	0.047292	0.11735	-2.0833	-2.6208	-2.6292	-2.3542	-2.7292	-2.5354	-2.5021	-2.7833	-2.3292	-2.5521	-2.8438	-2.3438	-2.7583	-2.4417	-2.6375	-2.9104	232.192	248.890	78.442	267.822	323.979	85.111	95.319	-19.633	62.165	172.855	59.285	104.857	65.184	-5.095	196.080	104.578	0.00035433	0.00067824	0.00018251	399.4	2.4504e-06	1.1711e-06	500.64	108.69	3.0649e-06	7.7114e-06	170.83	61.07	34.369	11.692	8.5948e-06	30.257	0.00045983	0.00048257	0.0001299	409.93	5.2633e-06	5.3002e-06	504.73	113.73	5.2592e-06	5.2968e-06	177.27	63.029	37.551	12.719	5.2751e-06	30.888	271.477	75.593	72.073	-8.991	122.710	39.654	-9.402	-3.803	45.911	145.895	-4.954	-0.327	0.322	4.020	117.072	1.928	-8191	255	
21284.535	1	1	0	0	0.20445	0.055709	0.079295	0.12673	0.25151	0.26235	0.12732	0.12218	0.3083	0.14107	0.041953	0.14387	0.1109	0.054262	0.29115	0.26588	-1.9104	-2.425	-2.5938	-2.4417	-2.9125	-2.7625	-2.3667	-2.8312	-2.4104	-2.6771	-2.7938	-2.1688	-2.8021	-2.7938	-2.3896	-3.0125	108.713	226.722	100.021	82.818	221.359	99.497	111.525	123.461	177.512	235.607	266.125	117.972	139.008	321.805	207.329	0.979	0.00019415	0.00075083	0.00014781	400.94	6.3445e-06	3.9538e-06	497.29	108.36	2.5687e-06	7.4252e-06	168.98	60.336	34.206	11.701	6.8334e-07	29.843	0.00047189	0.00048589	0.00013278	410.16	5.2539e-06	5.2183e-06	503.05	113.17	5.1508e-06	5.2248e-06	175.37	62.287	37.184	12.61	5.2108e-06	30.516	246.296	167.151	114.761	-8.920	192.559	79.613	-9.000	-3.441	195.698	9.890	-4.719	-0.437	0.281	3.807	279.079	2.159	-8191	255	
21284.656	1	1	0	0	0.22265	0.24646	0.32122	0.099522	0.070345	0.28088	0.11306	0.24245	0.15108	0.10772	0.26903	0.35263	0.048326	0.16587	0.17521	0.14026	-2.0229	-2.5771	-2.5979	-2.1229	-2.6875	-2.5687	-2.3375	-2.6604	-2.5729	-2.5521	-2.7458	-2.1396	-2.5479	-2.6896	-2.4458	-2.7417	251.761	138.671	23.811	286.775	263.737	129.316	191.672	258.911	172.841	262.147	287.210	193.157	170.073	214.627	119.417	324.914	0.0003668	0.0001888	0.00031954	397.59	4.8829e-06	3.2146e-06	491.75	107.1	1.7021e-06	4.4337e-06	168.5	60.389	33.983	11.476	1.0428e-06	29.965	0.00046845	0.00048232	0.00013385	407.03	5.2628e-06	5.2932e-06	499.52	112.09	5.1853e-06	5.2495e-06	174.05	61.887	36.928	12.464	5.1752e-06	30.429	212.608	116.943	100.261	-8.915	193.961	204.541	-9.281	-4.239	111.113	153.869	-4.875	-0.338	0.399	4.471	245.451	1.999	-8191	255	
21284.752	1	1	0	0	0.32439	0.35885	0.048361	0.19009	0.15641	0.090486	0.26038	0.061519	0.30435	0.14788	0.10905	0.23315	0.083773	0.27877	0.10305	0.25502	-1.9417	-2.1562	-2.825	-2.3833	-2.4896	-2.5625	-2.3688	-2.8896	-2.3479	-2.5187	-2.6958	-2.2417	-2.4813	-2.7667	-2.4125	-2.4813	255.044	88.622	34.307	284.885	134.897	267.264	287.572	335.853	154.757	134.341	137.366	-10.247	129.804	49.095	52.453	199.053	0.0001843	0.00054809	0.00014138	397.57	9.3249e-06	1.9001e-06	492.81	106.43	2.0502e-06	5.8796e-06	168.07	59.645	34.157	11.388	8.0702e-06	29.783	0.00046586	0.00047925	0.00013123	406.49	5.1151e-06	5.0857e-06	498.76	111.02	4.987e-06	4.9999e-06	172.92	61.63	36.614	12.397	4.9822e-06	30.385	286.547	9.367	194.052	-9.105	182.279	148.021	-9.281	-3.795	172.117	132.214	-4.769	-0.125	0.326	4.457	137.311	2.098	-8191	255	
21284.848	1	1	0	0	0.13359	0.16906	0.15339	0.30054	0.13514	0.055021	0.1637	0.18321	0.060423	0.093838	0.11169	0.28826	0.048156	0.078621	0.17281	0.28073	-2.1375	-2.2083	-2.8667	-2.3625	-2.5333	-2.6792	-2.3333	-2.8187	-2.6063	-2.275	-2.9021	-2.4958	-2.4625	-2.8458	-2.2938	-2.4688	70.780	2.190	135.516	216.390	140.305	23.312	262.329	144.788	75.714	79.324	183.595	281.072	154.594	73.912	173.408	305.186	0.00037027	0.00036193	0.00013724	396.98	1.2026e-06	2.8656e-06	486.65	105.49	1.1157e-06	8.4808e-06	166.49	59.558	33.84	11.416	5.9927e-06	29.745	0.0004562	0.00046485	0.00012847	405.18	5.1338e-06	5.0814e-06	496.36	110.5	5.0951e-06	5.1407e-06	171.42	61.173	36.399	12.403	5.1805e-06	30.187	287.770	13.273	65.872	-9.003	100.933	250.288	-9.265	-3.742	42.461	112.923	-5.014	-0.248	0.091	3.972	143.289	2.397	-8191	255	
21284.943	1	1	0	0	0.24873	0.18148	0.22375	0.075074	0.15073	0.17855	0.19972	0.07581	0.1884	0.11408	0.14687	0.039922	0.16105	0.2084	0.13185	0.014268	-2.0146	-2.3438	-2.7125	-2.4542	-2.35	-2.7125	-2.2979	-2.5875	-2.5979	-2.45	-2.6583	-2.6354	-2.5271	-2.8958	-2.3312	-2.6354	249.864	215.778	-7.603	212.710	298.725	102.707	40.590	266.740	308.674	62.611	133.907	141.743	-15.158	28.715	75.679	60.924	0.00034884	0.00059058	7.3723e-05	396.57	4.0271e-06	1.5261e-06	485.12	104.36	2.1387e-06	4.1682e-06	164.25	58.741	33.145	11.306	2.4189e-06	29.119	0.00046489	0.00046621	0.00012924	403.32	5.066e-06	5.0885e-06	491.83	108.72	4.985e-06	5.0027e-06	168.92	60.528	35.887	12.25	4.9662e-06	29.795	246.636	59.655	18.378	-9.032	334.286	104.811	-9.156	-4.037	330.302	206.275	-4.967	-0.128	-0.154	4.414	280.620	1.888	-8191	255	
21285.039	1	1	0	0	0.18475	0.15472	0.16226	0.29262	0.15261	0.20698	0.056231	0.22526	0.047949	0.13801	0.059862	0.17239	0.080193	0.076391	0.12554	0.071422	-2.2313	-2.1937	-2.6542	-2.5687	-2.3042	-2.8563	-2.2708	-2.5875	-2.5062	-2.2542	-2.6437	-2.4667	-2.4333	-2.6312	-2.4896	-2.6417	53.661	236.784	126.413	-18.544	7.682	291.741	174.317	-19.407	54.087	251.845	173.507	115.590	213.057	63.655	260.697	243.935	0.00034191	0.00055387	0.0002567	389.98	6.4361e-06	4.869e-06	483.2	101.94	2.1953e-06	4.9728e-06	161.13	58.429	32.484	11.23	3.0968e-06	29.013	0.0004491	0.00045961	0.0001288	399.39	5.1113e-06	5.1471e-06	489.41	107.75	5.1733e-06	5.1913e-06	167.09	60.158	35.754	12.266	5.2736e-06	29.744	226.791	289.190	111.248	-9.418	137.669	150.571	-9.450	-3.874	147.278	14.500	-4.841	-0.399	0.308	3.978	18.644	2.525	-8191	255	
21285.137	1	1	0	0	0.11619	0.065448	0.32346	0.071937	0.070848	0.26251	0.16828	0.19458	0.28845	0.092477	0.33269	0.019085	0.23464	0.1394	0.11794	0.19862	-2.2625	-2.1604	-2.4938	-2.6667	-2.125	-2.7229	-2.4104	-2.3542	-2.7562	-2.2396	-2.7188	-2.4792	-2.3625	-2.7958	-2.5146	-2.3021	153.524	97.733	27.433	270.651	110.791	221.536	28.405	49.973	58.666	212.547	251.565	222.935	62.530	107.315	295.618	263.880	0.00044692	0.0009346	0.00038876	387.45	7.1561e-07	5.0183e-06	481.6	102.37	1.9798e-06	2.0276e-06	162.8	57.972	32.712	11.295	6.7267e-06	29.434	0.00047226	0.00047499	0.00013503	398.5	5.182e-06	5.2904e-06	487.02	107.59	5.1639e-06	5.2033e-06	167.18	59.96	35.878	12.253	5.222e-06	29.952	290.456	41.753	135.524	-9.360	191.569	147.966	-8.903	-3.562	186.869	30.653	-4.579	-0.563	0.330	4.350	145.084	2.335	-8191	255	
21285.232	1	1	0	0	0.03637	0.091781	0.08329	0.070512	0.165	0.16726	0.33052	0.037511	0.099221	0.2193	0.1243	0.0080317	0.12295	0.0074174	0.22192	0.08332	-2.325	-2.3208	-2.6	-2.7646	-2.5583	-2.7062	-2.5208	-2.3125	-2.8229	-2.4042	-2.7687	-2.9	-2.4208	-2.7104	-2.5625	-2.3229	93.643	288.488	-0.974	236.429	115.843	193.443	269.872	311.125	129.092	46.548	239.848	34.380	131.910	295.462	140.315	278.698	0.00017539	0.00039993	0.0001172	388.1	4.8236e-06	1.5443e-06	480.84	102.47	6.5584e-06	1.1373e-05	159.83	57.998	32.876	11.283	6.8206e-06	29.218	0.00047642	0.00047705	0.00013632	397.21	5.2589e-06	5.2959e-06	485.55	107.53	5.212e-06	5.2274e-06	166.49	60.092	35.743	12.342	5.3431e-06	29.967	268.164	280.886	60.158	-9.294	325.717	117.024	-9.559	-3.914	217.533	195.889	-4.942	-0.323	0.559	4.051	106.370	2.323	-8191	255	
21285.328	1	1	0	0	0.1375	0.10511	0.21616	0.15937	0.11699	0.21095	0.28443	0.22319	0.23236	0.10006	0.14651	0.16961	0.0094889	0.17582	0.30174	0.15175	-2.3167	-2.3771	-2.3583	-2.7104	-2.1562	-2.6437	-2.4583	-2.4021	-2.8333	-2.4458	-2.6979	-2.7438	-2.3708	-2.5104	-2.5833	-2.3625	182.927	108.005	196.423	277.929	301.000	216.674	0.045	332.058	236.439	16.430	4.812	274.763	279.993	94.284	72.355	59.969	0.00028765	0.00063527	0.00022548	385.59	7.3502e-07	2.4461e-06	476.14	101.19	3.7369e-06	3.5047e-06	159.77	57.081	31.97	11.301	2.0364e-06	29.017	0.0004855	0.00048712	0.00013984	396.71	5.3714e-06	5.4741e-06	484.97	107.48	5.4705e-06	5.414e-06	165.51	59.85	35.635	12.305	5.4946e-06	29.718	249.966	252.952	104.501	-9.134	84.998	230.625	-9.000	-4.153	131.630	55.027	-5.414	-0.704	0.036	4.427	94.484	2.097	-8191	255	
21285.449	1	1	0	0	0.2441	0.16338	0.10474	0.1822	0.091345	0.21367	0.047228	0.20297	0.11436	0.19222	0.11721	0.10285	0.1511	0.27238	0.16497	0.10154	-2.1292	-2.4292	-2.3333	-2.7208	-2.2896	-2.6583	-2.7667	-2.2875	-2.6063	-2.5625	-2.5687	-2.7125	-2.2125	-2.6792	-2.6583	-2.1667	223.056	304.554	329.160	266.582	-19.579	336.820	172.786	159.216	245.400	279.091	136.832	206.699	217.187	328.765	36.269	180.942	0.00016967	0.00058673	9.9742e-05	382.32	1.9072e-06	7.0112e-06	473.97	102.34	4.4316e-06	3.6207e-06	158.17	56.616	32.806	11.199	9.5252e-06	28.909	0.00049849	0.00050186	0.00014302	394.89	5.4316e-06	5.5907e-06	481.44	107.3	5.4609e-06	5.3646e-06	165.73	59.27	35.712	12.253	5.3618e-06	29.752	310.270	80.783	151.726	-8.952	251.982	111.351	-9.327	-4.192	171.226	159.286	-5.276	-0.512	0.318	4.165	-14.331	2.437	-8191	255	
21285.545	1	1	0	0	0.20695	0.24734	0.14873	0.068935	0.15342	0.18695	0.12796	0.1367	0.15908	0.20182	0.17453	0.15623	0.12364	0.12186	0.29905	0.085515	-2.3417	-2.4333	-2.4646	-2.7	-2.4146	-2.7917	-2.5625	-2.2	-2.7104	-2.575	-2.2854	-2.7875	-2.2792	-2.4813	-2.7167	-2.4083	303.629	166.239	31.335	214.080	-6.725	118.454	309.802	253.071	113.575	188.565	305.630	246.340	38.384	204.984	180.517	258.936	0.00032449	0.00027335	0.00018153	388.01	2.4857e-06	6.2741e-07	477.64	102.4	4.3789e-06	7.0281e-06	161.39	58.036	32.853	11.421	2.2108e-06	29.584	0.00048489	0.00047906	0.00013562	396.68	5.2071e-06	5.2469e-06	484.63	107.58	5.205e-06	5.1646e-06	167.15	59.954	35.792	12.37	5.3233e-06	29.964	300.901	129.178	57.832	-9.322	203.031	62.054	-9.318	-3.780	201.865	135.180	-4.836	-0.430	0.169	4.205	122.319	2.216	-8191	255	
21285.641	1	1	0	0	0.20491	0.12897	0.20477	0.12863	0.11473	0.26445	0.23766	0.2479	0.14503	0.13927	0.16492	0.099469	0.10816	0.14911	0.090944	0.13222	-2.1688	-2.4604	-2.3208	-2.8875	-2.2667	-2.4125	-2.7208	-2.325	-2.525	-2.6063	-2.5917	-2.7687	-2.3083	-2.3646	-2.7375	-2.3917	112.019	133.136	25.636	260.546	204.995	27.307	199.495	-17.551	311.667	59.156	281.035	223.664	266.479	244.689	287.387	307.003	0.00040779	0.00014091	0.00015459	386.14	4.7891e-06	1.3282e-06	481.23	103.66	9.4967e-06	6.5629e-06	161.44	58.32	32.918	11.315	9.1212e-07	29.445	0.00047885	0.00048464	0.00013443	398.47	5.2603e-06	5.3856e-06	487.5	108.31	5.3551e-06	5.31e-06	167.72	60.373	35.953	12.377	5.3014e-06	30.121	304.203	275.439	271.107	-8.902	61.788	323.584	-9.222	-3.486	93.944	220.075	-4.706	-0.517	0.213	4.337	80.567	2.314	-8191	255	
21285.736	1	1	0	0	0.19295	0.14517	0.16695	0.046916	0.11293	0.106	0.12659	0.19089	0.32816	0.1271	0.033278	0.11935	0.35949	0.27317	0.2847	0.12238	-2.2271	-2.5875	-2.3396	-2.8187	-2.3792	-2.4646	-2.9896	-2.3042	-2.5375	-2.7667	-2.4083	-2.8833	-2.1813	-2.3417	-2.7229	-2.5479	263.239	229.867	275.694	16.198	160.615	40.544	247.023	296.590	122.942	213.896	62.247	-14.181	-4.015	293.587	271.646	5.245	0.000417	0.00041582	0.00012985	390.16	3.2184e-06	2.4017e-06	482.4	105.2	2.1374e-06	5.7118e-06	163.1	58.935	33.449	11.405	5.5768e-06	29.464	0.00047416	0.00048066	0.00013191	400.51	5.1352e-06	5.1486e-06	490.51	108.95	5.0527e-06	5.0383e-06	168.76	60.696	36.183	12.359	4.9734e-06	30.115	281.881	96.105	-10.904	-9.126	158.928	220.605	-9.354	-3.408	304.796	66.059	-4.377	-0.839	-0.036	3.883	42.606	2.011	-8191	255	
21285.832	1	1	0	0	0.19685	0.18146	0.15718	0.23505	0.10545	0.10571	0.21909	0.19711	0.048209	0.2338	0.16796	0.21599	0.11782	0.22698	0.11255	0.16425	-2.1104	-2.7208	-2.3083	-2.9125	-2.5458	-2.2646	-2.7229	-2.3604	-2.5771	-2.6667	-2.35	-2.6396	-2.6292	-2.2125	-2.5917	-2.6667	-9.675	160.833	225.920	220.750	99.437	301.979	277.820	266.611	233.772	151.969	294.932	213.499	34.282	307.382	323.747	19.170	0.00025219	0.00034969	4.9306e-05	392.11	6.8606e-06	2.231e-06	483.11	105.67	5.2695e-06	3.5849e-06	164.23	59.646	33.519	11.542	1.1189e-05	29.835	0.00045392	0.00045131	0.00012556	400.29	4.9167e-06	4.9878e-06	490.1	109.51	4.9215e-06	4.948e-06	169.35	61.205	36.284	12.404	4.9519e-06	30.279	285.948	95.131	85.252	-8.770	40.895	286.633	-9.240	-3.519	143.475	119.877	-4.621	-0.292	0.219	4.792	106.429	2.305	-8191	255	
21285.928	1	1	0	0	0.18434	0.1416	0.15395	0.10143	0.13164	0.15503	0.16045	0.16714	0.10622	0.24607	0.23311	0.11908	0.19818	0.27828	0.1109	0.36327	-2.0687	-2.6188	-2.3583	-2.6729	-2.7771	-2.3396	-2.7896	-2.5792	-2.4813	-2.775	-2.3958	-2.6833	-2.625	-2.2521	-2.8563	-2.6188	275.775	13.417	206.478	296.081	128.104	297.255	-21.063	328.357	297.055	261.287	239.154	180.604	122.455	-12.155	138.403	202.305	0.00026194	0.00060087	4.6067e-05	394.17	6.973e-06	4.1908e-06	492.02	106.34	5.4484e-06	2.0712e-06	164.94	59.901	34.084	11.642	2.4371e-06	30.216	0.00044449	0.00044946	0.00012414	402.24	4.8679e-06	4.8823e-06	494.22	110.33	4.9366e-06	4.91e-06	170.24	61.411	36.615	12.496	4.9628e-06	30.454	258.595	73.422	210.460	-8.728	115.725	140.406	-9.225	-3.479	54.562	97.924	-4.886	-0.247	0.153	4.391	322.268	2.123	-8191	255	
21286.049	1	1	0	0	0.22777	0.30899	0.31875	0.10838	0.26877	0.16055	0.18113	0.072028	0.145	0.053472	0.071998	0.17343	0.38645	0.23236	0.11083	0.046025	-1.9646	-2.7792	-2.2542	-2.6542	-2.5521	-2.3979	-2.8604	-2.6146	-2.3917	-2.8771	-2.4271	-2.5875	-2.6208	-2.275	-2.625	-2.4646	186.318	322.985	248.267	282.245	-17.707	50.916	301.026	335.360	-18.122	213.070	98.218	23.843	277.524	117.039	97.028	81.735	0.00022136	0.00052581	5.3071e-05	394.95	6.1728e-06	2.4845e-06	491.13	106.6	7.714e-06	7.3646e-06	166.64	60.133	34.094	11.502	6.9607e-06	30.205	0.0004482	0.00045253	0.00012275	403.78	4.8808e-06	4.8314e-06	495.79	111.08	4.892e-06	4.9029e-06	171.77	62.05	36.757	12.474	4.8457e-06	30.667	209.903	80.144	199.595	-9.683	203.626	1.628	-9.334	-3.551	198.536	89.285	-4.925	-0.238	0.555	4.509	112.863	2.566	-8191	255	
21286.145	1	1	0	0	0.10181	0.046165	0.091163	0.322	0.18964	0.18	0.15848	0.084261	0.33017	0.066644	0.17928	0.1893	0.050171	0.011892	0.11217	0.14651	-1.9667	-2.6521	-2.3937	-2.6021	-2.7979	-2.4479	-2.825	-2.4583	-2.2562	-2.8583	-2.4792	-2.5958	-2.8354	-2.1437	-2.7271	-2.6354	270.090	25.936	7.011	-7.811	115.247	196.501	207.827	156.415	123.572	149.694	18.871	206.086	144.489	100.287	177.145	212.523	0.00033654	0.00069939	0.00013811	398.88	5.7694e-06	6.4547e-06	491.97	107.9	5.2587e-06	2.0307e-06	169.41	60.678	34.342	11.568	8.0209e-06	29.993	0.0004425	0.00044635	0.00012256	405.68	4.9124e-06	4.8302e-06	499.21	112.08	4.8887e-06	4.977e-06	173.24	62.148	36.709	12.461	4.9328e-06	30.487	293.919	11.833	80.695	-9.191	62.806	136.526	-9.178	-3.290	302.227	146.141	-5.205	-0.112	0.109	3.912	202.820	2.405	-8191	255	
21286.240	1	1	0	0	0.19549	0.10277	0.12953	0.15942	0.12795	0.1087	0.11311	0.1921	0.049423	0.29684	0.22365	0.1794	0.21273	0.054087	0.2004	0.10146	-1.9188	-2.6292	-2.5687	-2.4583	-2.7646	-2.4896	-2.675	-2.6083	-2.1875	-2.6792	-2.5812	-2.1854	-2.775	-2.3646	-2.5854	-2.8042	89.065	137.819	94.725	9.544	30.202	35.957	230.985	286.098	330.463	101.567	244.860	312.094	9.576	209.874	178.582	290.811	0.00025789	0.00045312	6.7788e-05	395.01	4.1585e-06	3.1214e-06	490.07	108.37	8.6712e-06	9.6587e-06	168.07	60.532	34.074	11.545	5.417e-06	30.138	0.00043919	0.0004443	0.00012147	403.84	4.8118e-06	4.7739e-06	497.39	112.04	4.7961e-06	4.8315e-06	173.16	61.928	36.841	12.432	4.8335e-06	30.448	265.589	67.225	-19.534	-9.205	307.876	267.360	-9.725	-3.944	209.423	59.271	-4.956	-0.275	0.497	4.080	69.665	2.381	-8191	255	
21286.312	1	1	0	0	0.10026	0.089114	0.060204	0.061406	0.080188	0.11708	0.43785	0.15395	0.27417	0.096786	0.081449	0.38477	0.038685	0.19368	0.071195	0.32533	-1.6542	-2.8167	-2.6875	-2.4938	-2.7333	-2.3708	-2.7375	-2.6271	-2.3417	-2.9104	-2.5917	-2.3187	-2.8063	-2.4813	-2.4188	-2.6229	120.310	230.638	99.667	189.900	171.946	281.270	254.362	21.219	-20.107	207.109	224.496	271.912	-10.342	276.270	219.993	-20.581	0.0004255	0.00043903	9.7579e-05	395.37	2.9676e-06	1.6973e-06	495.38	107.21	6.8289e-06	5.3146e-06	167.14	60.784	34.284	11.631	6.1314e-06	30.159	0.00043202	0.00043956	0.00012154	404.64	4.7798e-06	4.7413e-06	499.38	111.2	4.7159e-06	4.8563e-06	172.76	62.186	36.772	12.465	4.9197e-06	30.625	245.794	282.133	149.451	-9.277	101.662	99.360	-9.340	-4.104	181.067	91.693	-5.122	-0.342	0.367	3.863	111.249	2.100	-8191	255	
21286.434	1	1	0	0	0.096613	0.079364	0.10763	0.27326	0.077875	0.08581	0.01359	0.22655	0.12446	0.15076	0.10748	0.079226	0.0094836	0.19676	0.064519	0.1695	-1.9271	-2.5917	-2.525	-2.2875	-2.7458	-2.3646	-2.6479	-2.7646	-2.1396	-2.5958	-2.6562	-2.3542	-2.5792	-2.6042	-2.4938	-2.75	242.365	62.136	317.024	228.725	39.654	153.889	141.702	202.193	152.434	335.969	207.653	202.211	294.822	36.132	245.854	41.872	0.00034793	0.00049565	0.00025862	400.26	3.0642e-06	4.4032e-06	496.87	108.31	4.6181e-06	4.7747e-06	169.61	60.976	34.421	11.607	5.5589e-06	30.427	0.00043829	0.00044915	0.00012308	406.4	4.8443e-06	4.8004e-06	500.49	111.95	4.7568e-06	4.8302e-06	174.46	62.501	36.989	12.491	4.794e-06	30.883	261.310	52.494	58.861	-8.714	-9.253	85.441	-9.170	-4.198	102.263	144.177	-5.291	-0.068	-0.264	3.883	101.360	1.937	-8191	255	
21286.529	1	1	0	0	0.097069	0.15403	0.21194	0.055886	0.17525	0.054937	0.24139	0.1772	0.068981	0.18792	0.070809	0.24035	0.19944	0.22307	0.26499	0.22458	-1.7958	-2.6896	-2.4896	-2.2812	-2.8063	-2.4604	-2.4417	-2.6417	-2.4083	-2.7562	-2.725	-2.2667	-2.7646	-2.4667	-2.3792	-2.9542	203.183	249.719	94.139	283.405	-0.229	134.978	262.143	290.204	235.865	67.031	19.596	131.230	30.528	70.849	125.901	47.176	0.00032497	0.00047216	2.6405e-05	402.06	4.8252e-06	3.2087e-06	501.19	107.74	4.2697e-06	8.2867e-06	172.86	61.73	34.647	11.676	2.7617e-06	30.262	0.00042757	0.00044049	0.00011985	409.26	4.7179e-06	4.7269e-06	503.96	112.51	4.5911e-06	4.7369e-06	175.64	62.698	37.085	12.523	4.7477e-06	30.672	260.147	5.095	62.368	-9.122	255.010	160.568	-9.300	-3.558	114.492	335.609	-4.891	-0.630	0.358	3.735	234.428	2.193	-8191	255	
21286.625	1	1	0	0	0.18839	0.093842	0.16511	0.079709	0.22193	0.20895	0.15129	0.12399	0.084695	0.25942	0.16125	0.088048	0.16272	0.22416	0.11375	0.22609	-1.9125	-2.4813	-2.6688	-2.4313	-2.7833	-2.5583	-2.3625	-2.7687	-2.3604	-2.5271	-2.6917	-2.4188	-2.7292	-2.5667	-2.2583	-2.8688	-14.944	143.280	297.925	262.334	20.528	-3.477	105.432	267.587	-1.765	315.717	135.632	239.218	291.308	127.345	37.450	262.335	0.0003298	0.00043946	0.00011101	396.92	7.6697e-06	3.7176e-06	496.01	108.24	2.1033e-06	4.8144e-06	169.87	61.188	34.517	11.598	7.1433e-06	30.311	0.00041876	0.00043381	0.00012013	405.4	4.6697e-06	4.7127e-06	499.84	112.24	4.6404e-06	4.7547e-06	174.14	62.391	36.916	12.479	4.6896e-06	30.661	289.472	-12.001	282.317	-8.700	173.991	101.347	-9.368	-3.484	50.585	120.621	-4.943	-0.415	-0.072	4.642	171.326	2.040	-8191	255	
21286.721	1	1	0	0	0.087803	0.13749	0.12973	0.16615	0.1463	0.088741	0.27994	0.096547	0.050078	0.14944	0.11731	0.10446	0.096887	0.045153	0.17179	0.088962	-1.9729	-2.6458	-2.6375	-2.425	-2.5979	-2.7104	-2.4271	-2.9	-2.525	-2.6437	-2.725	-2.4313	-2.6896	-2.7917	-2.2708	-2.7542	231.398	183.003	87.493	-17.251	70.959	269.942	319.926	61.593	295.053	173.250	192.701	31.662	49.865	175.996	12.503	268.849	0.00024833	0.00043066	0.00018019	399.6	5.5583e-06	2.2701e-06	496.98	108.58	6.829e-06	4.2643e-06	170.55	61.049	34.963	11.601	6.2133e-06	30.566	0.00042138	0.00043675	0.00012032	406.36	4.7631e-06	4.7634e-06	500.78	112.49	4.6714e-06	4.7319e-06	174.82	62.493	37.239	12.478	4.6856e-06	30.897	287.031	101.918	10.129	-9.044	90.569	26.411	-9.493	-3.998	81.210	44.727	-4.928	-0.659	0.123	4.004	99.472	1.802	-8191	255	
21286.840	1	1	0	0	0.06204	0.33338	0.17326	0.11204	0.17711	0.17935	0.12123	0.27121	0.2623	0.077301	0.24213	0.031346	0.26406	0.048765	0.21491	0.10929	-2.0687	-2.3187	-2.6604	-2.5	-2.7646	-2.5771	-2.2729	-2.8833	-2.6688	-2.4583	-2.7417	-2.3125	-2.4813	-2.7083	-2.4229	-2.7375	71.273	14.020	88.043	121.944	-5.471	-9.421	335.431	-4.201	68.294	131.827	3.902	320.003	101.449	181.769	294.212	136.623	0.000417	0.00093306	0.00019137	401.23	4.3554e-06	4.214e-06	501.16	108.91	3.2518e-06	2.6016e-06	172.49	62.014	34.636	11.742	3.4585e-06	30.405	0.00042602	0.00042929	0.00011946	408.26	4.6181e-06	4.6769e-06	503.47	113.19	4.642e-06	4.6945e-06	176.46	63.02	37.269	12.59	4.6328e-06	31.021	299.523	6.318	23.599	-8.881	96.847	35.235	-9.532	-3.549	197.876	222.946	-4.885	-0.392	0.102	4.715	125.873	2.198	-8191	255	
21286.912	1	1	0	0	0.13014	0.044744	0.17025	0.076423	0.22993	0.10427	0.24637	0.24425	0.15622	0.14045	0.18193	0.070252	0.32141	0.11724	0.1451	0.152	-2.0875	-2.325	-2.6813	-2.4479	-2.4729	-2.7604	-2.2938	-2.6	-2.5479	-2.2896	-2.9104	-2.4229	-2.5062	-2.8104	-2.2562	-2.6146	-17.486	74.212	14.076	126.014	18.885	315.709	249.151	67.734	169.645	286.051	261.982	-8.739	242.492	313.117	232.128	187.116	0.00036036	0.00034907	0.00033701	403.35	5.954e-06	3.2964e-06	504.29	109.1	2.3352e-06	4.0618e-06	172.39	62	34.713	11.772	1.8763e-06	30.551	0.00042407	0.00042434	0.00011877	409.51	4.7255e-06	4.6968e-06	505.16	113.03	4.6058e-06	4.6618e-06	176.44	63.028	37.29	12.541	4.5419e-06	30.794	287.369	5.093	18.260	-9.128	106.160	231.863	-9.419	-3.596	280.946	112.700	-4.858	-0.471	0.352	4.062	26.600	2.208	-8191	255	
21287.008	1	1	0	0	0.12458	0.062024	0.10966	0.19264	0.25554	0.077375	0.18597	0.16962	0.24367	0.19919	0.25513	0.15205	0.078428	0.02831	0.04632	0.039532	-2.1396	-2.3479	-2.5854	-2.4479	-2.4896	-2.6792	-2.3937	-2.6937	-2.5229	-2.1271	-2.6042	-2.4813	-2.3854	-2.8146	-2.3375	-2.6813	194.856	87.367	159.042	336.266	275.219	193.613	123.759	326.072	227.822	118.257	257.052	89.025	301.110	-16.282	117.956	-18.212	0.0002918	1.6121e-05	0.00016352	402.89	3.9585e-06	3.4451e-06	498.65	108.99	2.2994e-06	3.9005e-06	172.17	61.542	34.854	11.687	4.491e-06	30.585	0.00041661	0.00042163	0.00011751	407.96	4.5987e-06	4.5642e-06	501.36	112.84	4.5256e-06	4.454e-06	175.9	62.864	37.13	12.507	4.4978e-06	30.779	325.104	262.756	109.006	-9.286	154.164	21.077	-9.249	-3.490	325.579	9.042	-5.247	-0.212	0.780	4.971	79.402	2.121	-8191	255	
21287.129	1	1	0	0	0.086967	0.031176	0.29789	0.12656	0.37089	0.10067	0.14886	0.11332	0.11084	0.1845	0.28335	0.31486	0.16654	0.1069	0.16103	0.20132	-2.1312	-2.0563	-2.6875	-2.3812	-2.5812	-2.6875	-2.4521	-2.5792	-2.6667	-2.3021	-2.6312	-2.5729	-2.3875	-2.7708	-2.2542	-2.6188	134.261	105.573	58.591	74.973	269.528	101.884	3.105	321.563	35.215	188.463	289.902	-9.905	228.946	301.263	1.785	287.540	0.00029517	0.00019942	8.5623e-05	400.53	4.7591e-06	3.9855e-06	497.71	109.77	1.1173e-06	5.0097e-06	172.48	61.345	35.025	11.767	2.9173e-06	30.197	0.00041528	0.00041899	0.00011841	408.23	4.6818e-06	4.6651e-06	502.76	113.38	4.7597e-06	4.8005e-06	176.13	63.062	37.437	12.586	4.7527e-06	30.717	252.663	296.279	19.716	-9.152	146.584	180.155	-9.674	-3.740	88.994	108.663	-5.190	-0.600	0.027	4.311	319.736	2.635	-8191	255	
21287.225	1	1	0	0	0.18941	0.16623	0.048996	0.039649	0.21357	0.23446	0.27122	0.078013	0.1491	0.15046	0.19234	0.12046	0.39734	0.12174	0.096884	0.18936	-2.1708	-2.2771	-2.5687	-2.5438	-2.3229	-2.7375	-2.5187	-2.5271	-2.6292	-2.2188	-2.6521	-2.7083	-2.1729	-2.8979	-2.475	-2.5396	269.888	70.131	182.274	183.866	96.722	288.865	16.422	210.774	86.046	176.304	-20.259	207.541	258.578	266.542	89.775	241.137	0.00033297	0.00012049	0.00017188	402.99	2.7946e-06	6.2612e-06	500.97	109.89	5.2628e-06	7.9485e-06	171.49	62.144	35.111	11.731	8.739e-06	30.469	0.00043439	0.00043577	0.00012228	408.89	4.7211e-06	4.7607e-06	504.57	113.56	4.7864e-06	4.759e-06	177.16	63.323	37.503	12.571	4.8582e-06	30.841	271.970	35.685	39.558	-8.950	82.684	244.363	-9.681	-3.524	193.048	189.777	-4.878	-0.554	0.811	4.469	102.212	2.000	-8191	255	
21287.320	1	1	0	0	0.24115	0.14095	0.23284	0.20532	0.27105	0.13048	0.32817	0.078659	0.11236	0.12675	0.2972	0.10563	0.18684	0.25161	0.10746	0.052078	-2.3979	-2.3458	-2.6042	-2.65	-2.2125	-2.7396	-2.5938	-2.4958	-2.6208	-2.3354	-2.5083	-2.5667	-2.225	-2.8	-2.5542	-2.4	154.151	16.573	132.522	28.598	196.181	283.439	261.073	111.885	307.765	124.783	16.741	229.085	132.464	320.217	61.993	143.531	0.00044014	0.00071449	0.0002195	400.68	9.1783e-06	2.1408e-06	497.5	108.11	2.2204e-06	6.0395e-06	172.17	61.024	35.187	11.651	2.0777e-06	30.3	0.00044108	0.00044285	0.00012589	409.23	4.8772e-06	4.9446e-06	503.51	112.88	4.8101e-06	4.814e-06	176.31	62.667	37.244	12.503	4.7982e-06	30.661	291.250	97.330	-12.630	-9.170	162.073	227.332	-9.365	-3.903	150.012	336.268	-4.934	-0.488	0.265	4.111	186.987	2.193	-8191	255	
21287.441	1	1	0	0	0.22757	0.20392	0.053487	0.18364	0.089616	0.32435	0.32263	0.083276	0.31192	0.088209	0.12869	0.15396	0.19632	0.069144	0.22093	0.12528	-2.3125	-2.3625	-2.6417	-2.5979	-2.325	-2.7583	-2.4875	-2.5062	-2.7708	-2.4604	-2.4208	-2.7021	-2.275	-2.6646	-2.4167	-2.1542	84.785	100.018	245.256	253.701	160.219	196.838	330.354	117.588	107.514	306.033	80.896	105.330	-19.621	13.178	77.993	266.607	0.00023056	0.00047614	0.00018223	400.33	2.8825e-06	1.41e-06	494.87	108.59	5.3961e-06	5.9492e-06	169.95	60.812	34.378	11.696	3.0602e-06	30.302	0.00042967	0.00042937	0.00011978	407.93	4.6893e-06	4.7668e-06	500.9	112.4	4.6726e-06	4.6793e-06	174.7	62.228	36.779	12.453	4.6328e-06	30.535	269.832	331.278	53.171	-8.892	260.464	123.654	-9.347	-3.539	52.701	135.415	-5.261	-0.637	-0.268	4.508	-0.015	2.383	-8191	255	
21287.537	1	1	0	0	0.15199	0.04835	0.091892	0.32045	0.2482	0.19051	0.15524	0.28098	0.2577	0.26948	0.19645	0.20319	0.17237	0.070252	0.15619	0.15051	-2.4188	-2.3792	-2.575	-2.8021	-2.3375	-2.7146	-2.6354	-2.1729	-2.7229	-2.3688	-2.375	-2.7958	-2.2583	-2.6229	-2.4833	-2.3354	117.295	114.789	96.373	279.071	13.387	199.639	230.575	-14.338	-21.159	167.228	73.595	249.451	303.738	265.875	2.751	202.378	0.00031452	0.00027672	0.00018385	399.23	3.4272e-06	2.6789e-06	502.78	108.84	3.8993e-06	3.5627e-06	170.7	60.9	34.207	11.593	5.2604e-06	30.249	0.00041519	0.00041853	0.00011857	407.99	4.5208e-06	4.6856e-06	502.8	112.58	4.6579e-06	4.5918e-06	174.73	62.446	36.832	12.436	4.7416e-06	30.557	296.797	75.836	39.629	-8.926	124.642	130.473	-9.128	-3.457	280.404	260.709	-4.830	-0.561	0.219	4.151	93.841	2.334	-8191	255	
21287.609	1	1	0	0	0.19659	0.18313	0.18571	0.16013	0.11845	0.12933	0.27262	0.26357	0.048486	0.27365	0.16618	0.14056	0.070062	0.18015	0.063628	0.16207	-2.2042	-2.2729	-2.3375	-2.6875	-2.3854	-2.4437	-2.5604	-2.2771	-2.4813	-2.4958	-2.2625	-2.7938	-2.4333	-2.6437	-2.5854	-2.2687	135.416	124.756	235.283	190.867	182.855	192.815	153.290	179.468	141.620	262.226	121.930	91.500	42.295	269.568	280.521	91.194	0.00022605	0.00077499	0.0001176	401.98	4.4138e-06	4.2471e-06	499.36	109.19	2.8033e-06	4.2557e-06	169.91	60.557	34.476	11.518	3.9112e-06	29.802	0.00042703	0.00042668	0.00011932	407.79	4.6507e-06	4.7791e-06	502.02	112.54	4.5885e-06	4.6611e-06	174.52	62.397	36.861	12.413	4.6668e-06	30.334	275.164	92.213	71.063	-8.785	117.401	139.220	-9.241	-3.656	141.181	195.036	-4.910	-0.232	0.065	4.468	82.324	2.657	-8191	255	
21287.729	1	1	0	0	0.030885	0.19377	0.056643	0.11884	0.090269	0.16687	0.19368	0.21108	0.15156	0.18743	0.052813	0.18024	0.18954	0.12734	0.085293	0.10727	-2.2167	-2.5375	-2.3521	-2.7625	-2.2979	-2.6021	-2.7458	-2.3479	-2.5458	-2.3563	-2.3333	-2.7167	-2.3125	-2.5042	-2.6875	-2.3271	26.724	321.049	302.095	184.166	294.839	275.345	224.578	-0.168	131.047	198.929	104.663	300.168	308.322	260.512	264.339	234.454	0.0001051	0.0001306	6.3581e-05	401.36	6.7436e-06	5.333e-06	498.52	107.07	1.8269e-06	9.2088e-07	168.35	60.488	34.465	11.468	2.6033e-06	29.938	0.00042032	0.00043173	0.00011887	407.62	4.6361e-06	4.6903e-06	500.5	111.05	4.5916e-06	4.5728e-06	173.03	62.145	36.584	12.274	4.4945e-06	30.194	280.575	243.024	312.882	-9.037	294.799	-6.740	-9.085	-3.624	244.272	167.248	-4.736	-0.338	0.186	4.295	307.105	2.523	-8191	255	
21287.824	1	1	0	0	0.068542	0.13985	0.091988	0.38841	0.23178	0.13226	0.26471	0.11771	0.16517	0.27011	0.18531	0.067783	0.14687	0.2335	0.12364	0.073469	-2.075	-2.45	-2.325	-2.8	-2.5125	-2.3208	-2.8063	-2.2104	-2.5521	-2.5625	-2.35	-2.7458	-2.4167	-2.3604	-2.9479	-2.2167	151.940	273.504	177.265	320.630	49.994	4.150	176.738	176.273	11.010	8.149	316.901	277.270	266.017	272.121	175.873	-19.592	0.00022806	0.0001728	0.00016966	399.9	2.69e-06	1.3593e-06	495.99	107.62	5.1741e-06	6.2979e-06	168.56	60.187	33.994	11.515	7.2015e-06	29.853	0.00040455	0.00040323	0.0001101	404.31	4.3338e-06	4.3801e-06	497.92	110.29	4.3038e-06	4.2912e-06	170.96	61.429	36.157	12.201	4.2808e-06	30.089	298.090	99.360	225.074	-9.459	238.027	120.378	-9.221	-3.778	181.246	39.599	-4.729	-0.517	0.965	4.222	101.636	1.914	-8191	255	
21287.922	1	1	0	0	0.17078	0.21056	0.23271	0.083378	0.047253	0.064185	0.022822	0.11188	0.26595	0.041753	0.198	0.17541	0.034093	0.13961	0.027008	0.14752	-2.0125	-2.7083	-2.1854	-2.8021	-2.5062	-2.2771	-2.9062	-2.2854	-2.5938	-2.9333	-2.3625	-2.5938	-2.6729	-2.3646	-2.8563	-2.5167	192.544	11.014	318.668	34.605	155.558	29.738	247.045	289.116	235.319	93.080	79.894	125.731	217.133	167.467	14.850	288.523	0.00035413	0.00041166	0.00014074	400.8	1.5872e-06	2.3884e-06	495.57	107.27	1.8197e-06	5.8822e-06	166.96	59.818	33.926	11.397	4.6502e-06	29.834	0.00039497	0.00039104	0.00010684	404.38	4.2992e-06	4.3397e-06	495.58	109.94	4.3519e-06	4.3038e-06	169.78	61.024	35.949	12.181	4.2277e-06	30.063	274.865	304.710	85.969	-9.289	197.028	87.905	-9.367	-3.764	132.209	125.658	-4.757	-0.210	0.563	4.138	152.864	2.315	-8191	255	
21288.018	1	1	0	0	0.18306	0.053784	0.31339	0.061743	0.072567	0.22236	0.24228	0.1183	0.090439	0.087291	0.21855	0.062799	0.3068	0.2649	0.034879	0.062834	-1.9188	-2.5667	-2.2562	-2.7979	-2.5479	-2.3063	-2.8521	-2.5563	-2.4542	-2.775	-2.3667	-2.7083	-2.6146	-2.2917	-2.7875	-2.65	72.492	189.792	236.577	80.677	318.246	322.745	79.461	29.777	227.381	203.236	238.186	291.209	294.736	67.665	45.855	328.093	0.00037127	0.0006911	0.00013307	400.17	5.3723e-07	6.9607e-06	496.72	105.83	2.8994e-06	4.0164e-06	166.54	59.623	33.885	11.33	5.2646e-06	30.053	0.0003847	0.0003864	0.00010563	403.86	4.2017e-06	4.1599e-06	496.08	109.17	4.2179e-06	4.1968e-06	169.38	61.155	35.895	12.143	4.2663e-06	30.225	243.183	-13.270	302.249	-9.082	328.653	251.991	-9.389	-3.809	298.765	120.738	-4.903	-0.442	0.627	3.953	119.285	2.512	-8191	255	
21288.137	1	1	0	0	0.45094	0.12207	0.095902	0.21388	0.11535	0.0813	0.23378	0.18308	0.05968	0.12381	0.15249	0.32708	0.12561	0.24681	0.16657	0.33364	-2.0958	-2.7646	-2.2375	-2.7792	-2.6188	-2.1875	-2.7854	-2.3708	-2.4896	-2.5458	-2.3312	-2.7271	-2.7687	-2.1042	-2.6271	-2.6375	67.599	142.754	14.917	222.836	91.579	254.996	36.140	302.619	205.171	164.378	114.060	276.901	79.729	179.500	-12.692	183.673	0.00033521	0.00076684	0.00021502	397.17	1.8588e-06	5.6899e-06	494.37	106.22	3.1653e-06	4.3153e-06	165.05	59.939	34.225	11.546	2.4412e-06	29.865	0.0003894	0.00038816	0.00010764	402.43	4.2176e-06	4.23e-06	497.32	109.48	4.2916e-06	4.2785e-06	169.19	61.214	35.984	12.188	4.2234e-06	30.191	282.236	26.577	-12.408	-9.165	301.692	128.377	-9.258	-3.933	56.390	179.615	-4.812	-0.206	-0.189	4.253	101.122	2.326	-8191	255	
21288.209	1	1	0	0	0.072534	0.19285	0.020622	0.14915	0.18112	0.18712	0.017803	0.16635	0.31057	0.13909	0.21092	0.022621	0.10326	0.080713	0.28242	0.063935	-1.7833	-2.7833	-2.4729	-2.4646	-2.8	-2.3521	-2.8417	-2.5917	-2.3875	-2.9042	-2.5	-2.2604	-2.8688	-2.2396	-2.5021	-2.5146	100.995	125.866	83.654	-9.801	115.282	89.318	-16.324	313.111	-2.313	158.865	214.630	131.970	-2.068	190.536	48.897	161.699	0.00034285	0.0001727	7.2793e-05	395.92	7.0307e-06	1.0642e-06	492.62	105.58	5.798e-06	3.5932e-06	163.49	59.347	33.566	11.463	2.9164e-06	29.693	0.00038663	0.00039113	0.00010827	401.73	4.3245e-06	4.2894e-06	493.59	108.48	4.3291e-06	4.3718e-06	167.92	60.501	35.734	12.107	4.426e-06	29.937	278.293	29.871	252.499	-9.411	172.998	111.006	-9.357	-3.931	169.854	44.451	-4.750	-0.620	-0.253	4.496	96.352	2.472	-8191	255	
21288.305	1	1	0	0	0.18829	0.070039	0.028343	0.12018	0.089656	0.16701	0.22241	0.23941	0.13929	0.097618	0.098548	0.22734	0.14621	0.21139	0.13324	0.13348	-1.8271	-2.9604	-2.4875	-2.5042	-2.7542	-2.4813	-2.7271	-2.4979	-2.3208	-2.9062	-2.6146	-2.4229	-2.9458	-2.2375	-2.5896	-2.5854	12.509	120.184	274.234	43.275	89.997	75.132	313.884	325.891	49.853	15.473	149.938	163.807	250.168	271.422	1.190	71.980	0.00021016	0.00017548	8.5874e-05	396.08	6.916e-06	2.9902e-06	488.86	106.13	5.3588e-06	4.6661e-06	165.08	59.854	33.68	11.431	1.5568e-06	29.694	0.00039654	0.00039984	0.00011187	400.57	4.4615e-06	4.4042e-06	492.25	109.43	4.4817e-06	4.556e-06	168.33	60.93	36.067	12.269	4.6524e-06	30.036	288.625	53.158	11.144	-9.270	80.004	201.356	-9.158	-3.550	153.046	190.548	-4.487	-0.647	0.234	4.589	45.935	2.108	-8191	255	
21288.400	1	1	0	0	0.057927	0.16386	0.02835	0.1833	0.16046	0.21941	0.26427	0.12171	0.048047	0.22413	0.12984	0.25575	0.21655	0.26516	0.098398	0.05888	-2.075	-2.8521	-2.5625	-2.275	-2.6354	-2.4542	-2.6583	-2.8292	-2.3396	-2.7625	-2.3917	-2.3292	-2.8542	-2.1875	-2.5687	-2.6833	24.838	114.005	175.578	284.905	110.846	26.777	201.307	80.653	105.904	-1.763	250.764	257.193	244.001	273.733	214.504	59.426	8.1741e-05	0.00041194	0.00015165	392.03	1.2437e-05	5.033e-06	488.43	105.76	1.2788e-05	4.3493e-06	163.87	59.162	33.683	11.373	1.3914e-06	29.749	0.00041369	0.0004256	0.00011691	400.49	4.6017e-06	4.6265e-06	491.46	109.5	4.5453e-06	4.5938e-06	168.24	60.798	36.064	12.265	4.6042e-06	30.042	311.712	153.410	9.202	-9.388	101.234	144.358	-9.153	-3.778	229.735	172.275	-5.278	-0.357	0.725	3.636	95.945	1.813	-8191	255	
21288.521	1	1	0	0	0.12587	0.042284	0.096786	0.22753	0.18697	0.10474	0.0176	0.26443	0.16364	0.16084	0.21341	0.043328	0.23757	0.1547	0.15771	0.12233	-1.9083	-2.525	-2.6125	-2.4313	-2.8083	-2.425	-2.6	-2.6771	-2.3729	-2.6688	-2.7104	-2.3792	-2.6396	-2.5875	-2.5812	-2.6021	161.987	34.808	85.500	277.017	228.697	13.681	258.432	280.477	214.997	185.350	2.878	105.033	288.430	17.485	70.464	185.452	0.00024527	0.00032684	7.9014e-05	396.79	3.1053e-06	2.6434e-06	494.87	105.4	2.3718e-06	4.5432e-06	167.81	59.911	33.622	11.53	7.214e-07	29.919	0.00041194	0.00042019	0.00011642	402.4	4.532e-06	4.4994e-06	495.74	109.5	4.4728e-06	4.6105e-06	170.31	61.264	36.174	12.294	4.6177e-06	30.248	252.378	85.709	52.894	-9.218	49.781	190.136	-9.329	-3.450	209.442	194.015	-5.011	0.071	0.357	4.434	174.581	1.843	-8191	255	
21288.615	1	1	0	0	0.10923	0.23789	0.096328	0.051409	0.022268	0.28098	0.0034724	0.079554	0.18183	0.20662	0.030281	0.10122	0.15408	0.019512	0.14021	0.12853	-1.9	-2.5687	-2.5646	-2.4708	-2.6917	-2.4437	-2.4958	-2.6854	-2.5417	-2.6854	-2.7313	-2.35	-2.75	-2.4729	-2.4104	-2.9646	4.373	36.988	112.971	70.595	299.087	99.066	292.198	117.160	330.986	258.505	25.094	306.061	58.988	247.399	158.094	26.356	0.00047908	0.00046246	2.8108e-05	394.09	3.461e-06	1.5072e-06	486.95	105.11	3.6831e-06	1.8485e-06	164.86	60.046	34.021	11.486	2.1669e-06	29.677	0.00040845	0.00042514	0.00011608	402.04	4.6464e-06	4.6171e-06	492.64	109.4	4.5769e-06	4.6488e-06	169.17	60.869	36.234	12.202	4.6912e-06	30.026	285.798	114.189	52.720	-9.134	21.057	185.899	-9.281	-3.907	12.627	176.146	-5.033	-0.489	0.312	3.929	92.790	2.028	-8191	255	
21288.713	1	1	0	0	0.22538	0.070486	0.11808	0.26102	0.13826	0.086737	0.1414	0.22531	0.10387	0.34218	0.16339	0.24673	0.13168	0.26616	0.2125	0.12253	-2	-2.5875	-2.6562	-2.2917	-2.625	-2.6667	-2.375	-2.8396	-2.375	-2.6	-2.6083	-2.1833	-2.8458	-2.7146	-2.3812	-2.8438	19.728	162.893	99.087	298.218	318.839	254.493	43.522	48.781	171.016	261.472	311.891	72.277	131.175	29.902	26.412	111.176	0.00022793	0.00080265	0.00025904	394.08	1.0077e-05	4.3673e-06	489.89	106.21	2.269e-06	1.5757e-06	166.16	59.625	34.049	11.48	2.7425e-06	29.661	0.00041834	0.00042813	0.0001168	402.08	4.5995e-06	4.634e-06	493.19	110.21	4.5646e-06	4.6376e-06	170.47	61.189	36.363	12.283	4.6188e-06	30.113	259.978	80.786	115.235	-9.411	202.805	133.242	-9.316	-3.748	29.794	31.306	-5.017	-0.309	0.092	3.923	148.259	2.074	-8191	255	
21288.811	1	1	0	0	0.15682	0.15588	0.060026	0.15868	0.26382	0.096198	0.030522	0.21508	0.15914	0.1851	0.25466	0.022174	0.08329	0.13851	0.29083	0.19859	-2.2417	-2.3937	-2.5583	-2.325	-2.6792	-2.5917	-2.3333	-2.8	-2.4146	-2.2896	-2.8125	-2.3083	-2.5687	-2.7021	-2.3979	-2.8	108.288	305.989	237.688	167.058	257.624	187.967	264.810	267.122	258.104	30.044	128.985	318.021	177.275	288.012	208.578	111.950	0.00039067	0.00031361	0.00018162	397.45	6.4803e-06	2.7455e-06	494.48	107.86	1.8929e-06	1.6044e-06	166.76	60.189	34.219	11.418	3.2311e-06	30.244	0.00041618	0.00042561	0.00011732	403.93	4.6413e-06	4.6443e-06	496.71	111.07	4.527e-06	4.647e-06	171.16	61.472	36.637	12.319	4.5218e-06	30.439	280.258	133.166	132.747	-8.838	171.134	222.100	-9.360	-3.951	139.580	50.684	-4.653	-0.516	0.030	5.037	129.808	2.144	-8191	255	
21288.904	1	1	0	0	0.030125	0.36216	0.099053	0.15549	0.1201	0.07669	0.045217	0.26302	0.18081	0.15844	0.037112	0.2459	0.092358	0.1424	0.41253	0.037567	-1.8333	-2.2625	-2.8375	-2.2479	-2.7167	-2.5187	-2.2354	-2.7229	-2.5896	-2.3458	-2.6604	-2.3854	-2.3187	-2.5833	-2.3438	-2.675	16.171	155.246	56.243	262.507	307.487	50.656	296.341	214.896	322.519	60.282	19.089	116.461	-15.624	237.506	83.801	248.822	0.00030956	0.00034321	7.9606e-05	400.8	3.2588e-06	4.0311e-06	493.81	107.85	6.1114e-07	4.86e-06	167.58	60.683	34.72	11.591	6.761e-06	30.231	0.00040471	0.00040825	0.00011387	404.35	4.4082e-06	4.432e-06	497.38	111.11	4.4219e-06	4.4791e-06	171.96	61.737	36.62	12.343	4.4339e-06	30.523	300.446	61.368	114.781	-9.437	297.683	103.754	-9.491	-4.043	163.271	39.257	-4.872	-0.420	0.398	4.460	139.074	2.057	-8191	255	
21289.002	1	1	0	0	0.039811	0.074503	0.12462	0.055816	0.098011	0.018839	0.21063	0.15171	0.09922	0.073306	0.20876	0.2227	0.45212	0.31269	0.08469	0.1852	-2.1333	-2.2604	-2.7646	-2.5021	-2.5354	-2.6396	-2.1833	-2.6625	-2.7	-2.3083	-2.8354	-2.5021	-2.6167	-2.6896	-2.2646	-2.5958	121.092	303.198	204.994	20.845	134.636	247.993	256.468	286.480	4.279	306.824	260.199	193.310	258.388	315.261	2.358	259.726	0.00023845	0.00054008	2.7868e-05	401.46	3.9298e-06	1.8383e-06	494.59	106.6	3.7298e-06	3.4799e-06	166.26	60.337	34.056	11.542	6.4987e-06	29.72	0.00040487	0.00040513	0.00011322	404.22	4.5104e-06	4.4735e-06	495.81	110.68	4.4993e-06	4.4398e-06	170.38	61.118	36.297	12.256	4.4917e-06	30.14	281.442	204.285	294.255	-9.071	204.032	137.647	-9.358	-3.997	46.641	97.770	-5.123	-0.423	-0.165	4.034	95.556	2.249	-8191	255	
21289.121	1	1	0	0	0.15551	0.10947	0.0082472	0.35317	0.31887	0.083851	0.17786	0.16177	0.22006	0.14142	0.070923	0.15567	0.11288	0.36352	0.082199	0.027553	-2.1875	-2.2667	-2.9062	-2.5563	-2.6188	-2.9229	-2.2687	-2.4979	-2.4521	-2.2396	-2.7313	-2.5792	-2.3563	-2.7583	-2.3167	-2.5104	187.244	323.433	24.122	-16.785	57.769	308.162	-20.054	310.070	169.962	125.406	182.543	311.249	77.287	63.600	110.027	332.657	0.00014171	0.00027993	4.0274e-05	396.66	9.2799e-06	2.8595e-06	493.91	107.22	5.073e-06	2.9853e-06	169.01	60.681	34.768	11.534	3.2478e-06	30.086	0.00040717	0.00040474	0.00011474	404.06	4.4786e-06	4.4776e-06	497.06	111.12	4.3729e-06	4.3735e-06	171.99	61.629	36.598	12.296	4.3911e-06	30.351	320.314	-0.659	56.034	-8.920	140.532	239.299	-9.406	-3.588	7.655	292.827	-4.878	-0.628	0.390	4.739	177.551	2.285	-8191	255	
21289.219	1	1	0	0	0.13743	0.15617	0.16565	0.21128	0.075616	0.044777	0.10581	0.085159	0.22226	0.23165	0.12304	0.35791	0.060345	0.076312	0.11628	0.12441	-2.2333	-2.3021	-2.7875	-2.5396	-2.2958	-2.7687	-2.3521	-2.5604	-2.6542	-2.1292	-2.5875	-2.6167	-2.2875	-2.7438	-2.3812	-2.5333	-13.415	322.528	111.598	-20.222	299.933	43.760	182.771	5.418	-3.603	215.016	14.125	282.247	-8.570	18.812	259.255	329.822	0.00027175	0.00061258	0.00018208	400.33	2.6077e-06	3.0114e-06	497.85	107.71	3.837e-06	5.716e-06	168.62	61.003	34.759	11.641	3.3286e-06	30.059	0.00040113	0.00040559	0.00011465	405.82	4.4852e-06	4.5278e-06	499.01	111.43	4.4747e-06	4.4041e-06	172.59	61.841	36.657	12.346	4.5e-06	30.433	264.594	326.973	319.779	-9.079	2.768	291.939	-9.298	-3.714	143.760	131.773	-4.540	-0.296	0.278	4.259	72.694	2.122	-8191	255	
21289.314	1	1	0	0	0.19207	0.14511	0.20154	0.036344	0.22775	0.079937	0.3465	0.048244	0.22133	0.20992	0.10083	0.073847	0.21011	0.12941	0.1109	0.13486	-2.3563	-2.0938	-2.6333	-2.7521	-2.2125	-2.8167	-2.425	-2.4688	-2.8021	-2.3854	-2.7083	-2.8042	-2.2896	-2.8542	-2.5812	-2.4688	29.489	68.575	15.349	56.402	176.962	27.313	143.397	313.849	74.976	-7.966	118.272	-6.599	41.624	335.896	208.592	142.359	0.00028021	0.00068618	0.00031555	399.59	3.7912e-06	1.1653e-06	500.6	107.88	3.7046e-06	7.5238e-06	169.17	60.469	34.545	11.634	4.3771e-06	30.508	0.00040952	0.00040885	0.00011458	405.86	4.3782e-06	4.4451e-06	500.55	111.77	4.3475e-06	4.3206e-06	173.37	61.992	36.601	12.339	4.3891e-06	30.615	297.955	-14.394	46.774	-9.053	285.620	310.479	-9.265	-3.282	199.161	61.202	-5.195	-0.367	0.065	4.120	128.777	2.590	-8191	255	
21289.410	1	1	0	0	0.082644	0.12386	0.10663	0.1007	0.12973	0.15467	0.19437	0.14955	0.23318	0.092696	0.13568	0.1558	0.19482	0.024232	0.21433	0.18021	-2.2938	-2.3625	-2.6271	-2.7438	-2.4292	-2.9208	-2.6083	-2.5542	-2.8167	-2.4562	-2.6875	-2.7687	-2.3688	-2.6479	-2.5854	-2.5479	315.004	98.477	332.397	176.185	41.271	132.320	96.625	170.194	0.153	51.552	335.256	216.085	239.442	331.322	183.851	114.534	0.00023035	0.00034919	0.00015594	404.64	5.5842e-06	3.2985e-06	503.42	109.29	3.9088e-06	1.8294e-06	168.48	60.477	33.891	11.516	3.1174e-06	30.01	0.00039066	0.0003911	0.00011237	407.54	4.3648e-06	4.4488e-06	501.13	111.67	4.3589e-06	4.4189e-06	171.72	61.457	36.158	12.238	4.3729e-06	30.152	292.243	313.312	69.462	-8.941	143.293	47.783	-9.122	-3.512	150.721	195.125	-4.896	-0.309	0.546	4.073	166.645	2.408	-8191	255	
21289.506	1	1	0	0	0.15538	0.17051	0.44083	0.10589	0.19501	0.033786	0.30421	0.038971	0.12962	0.11196	0.029925	0.28562	0.27454	0.12361	0.083093	0.13626	-2.3729	-2.4271	-2.5042	-2.7458	-2.2438	-2.8208	-2.6813	-2.2646	-2.8729	-2.2979	-2.3542	-2.8125	-2.2562	-2.6729	-2.45	-2.3979	37.472	247.052	192.272	200.830	216.597	58.467	3.168	234.123	96.050	220.621	123.200	275.391	167.290	268.403	-9.569	4.230	0.00011676	0.00027407	4.177e-05	399.85	5.5332e-06	2.7254e-06	496.13	107.92	4.2217e-06	3.3973e-06	169.35	60.54	34.511	11.609	1.7852e-06	30.153	0.00039884	0.00039605	0.0001117	405.19	4.3107e-06	4.444e-06	499.38	111.24	4.406e-06	4.3425e-06	172.67	61.758	36.468	12.314	4.3528e-06	30.335	287.229	280.846	198.424	-8.968	274.677	159.656	-9.460	-3.888	260.222	239.669	-4.594	-0.263	0.509	4.458	42.524	2.091	-8191	255	
21289.602	1	1	0	0	0.10354	0.21502	0.15182	0.18549	0.24655	0.064187	0.056206	0.02715	0.068412	0.10243	0.2789	0.17466	0.17269	0.1537	0.063078	0.083264	-2.5083	-2.4313	-2.4396	-2.7562	-2.3563	-2.6875	-2.6083	-2.4167	-2.6521	-2.4313	-2.4729	-2.7687	-2.3333	-2.6771	-2.6125	-2.2167	156.909	216.644	65.502	275.559	-10.505	-12.705	258.990	326.776	239.572	70.063	232.611	267.408	155.190	308.433	33.844	174.127	0.00015644	0.00038789	0.00021236	402.05	2.6406e-06	7.3756e-06	500.83	108.64	4.6234e-06	2.2093e-06	169.83	61.088	34.346	11.621	4.3186e-06	30.183	0.00039585	0.00040088	0.00011184	407.26	4.3317e-06	4.5003e-06	500.66	112.12	4.4639e-06	4.4222e-06	173.4	62.069	36.54	12.403	4.408e-06	30.526	269.037	77.251	54.281	-9.024	158.770	184.267	-9.210	-3.716	135.262	140.189	-4.960	-0.286	0.101	4.486	112.016	2.189	-8191	255	
21289.699	1	1	0	0	0.25531	0.13066	0.089102	0.12083	0.11467	0.14252	0.14276	0.22797	0.13452	0.3472	0.26699	0.28461	0.33511	0.22335	0.2292	0.042317	-2.3042	-2.4604	-2.1479	-2.7438	-2.5104	-2.7188	-2.8167	-2.2125	-2.7542	-2.5083	-2.3771	-2.9396	-2.325	-2.5271	-2.6562	-2.2687	94.783	149.464	215.994	-2.713	217.692	15.341	227.495	179.444	223.488	187.440	234.349	4.171	61.537	276.647	224.103	68.571	0.00051733	0.00048924	7.4466e-05	400.58	6.8821e-06	3.3947e-06	499.55	109.44	1.2177e-06	2.8488e-06	169.13	61.208	34.97	11.672	1.7119e-06	30.488	0.00040216	0.00040354	0.0001117	407.07	4.3732e-06	4.4091e-06	502.09	112.13	4.3867e-06	4.3162e-06	173.7	62.307	36.877	12.402	4.3367e-06	30.611	275.889	-18.495	28.532	-9.222	106.536	96.118	-9.204	-3.587	203.746	191.716	-4.582	-0.054	0.341	3.848	-16.604	2.730	-8191	255	
21289.795	1	1	0	0	0.15086	0.096761	0.14729	0.19889	0.22186	0.13674	0.14752	0.086791	0.26454	0.15208	0.10745	0.30509	0.13894	0.21271	0.15265	0.074202	-2.1604	-2.4375	-2.3292	-2.7958	-2.3104	-2.6271	-2.7146	-2.2229	-2.5646	-2.5979	-2.3	-2.7542	-2.4938	-2.3583	-2.8438	-2.3187	298.037	199.528	37.213	238.484	90.161	256.383	53.617	94.924	179.919	-20.467	241.601	283.354	230.010	204.797	-0.348	56.524	0.00026008	0.00020982	0.00016116	403.13	3.8162e-06	3.0544e-06	497.97	108.35	4.1453e-06	3.2113e-06	168.55	60.309	34.519	11.531	5.0688e-06	29.974	0.00039782	0.000397	0.0001094	407.45	4.3354e-06	4.3805e-06	499.54	111.23	4.3439e-06	4.3615e-06	172.78	61.534	36.474	12.249	4.3228e-06	30.184	280.640	290.909	59.303	-9.310	86.147	94.893	-9.473	-3.272	77.465	310.125	-5.371	-0.324	0.311	4.082	97.014	2.381	-8191	255	
21289.914	1	1	0	0	0.12165	0.16215	0.17375	0.089355	0.39107	0.26397	0.096844	0.10524	0.44102	0.14007	0.16245	0.10997	0.088807	0.15161	0.20949	0.20578	-2.0958	-2.4667	-2.1771	-2.7729	-2.5042	-2.4125	-2.7583	-2.1813	-2.4417	-2.8708	-2.2229	-2.7542	-2.3854	-2.4104	-2.8875	-2.4	337.853	337.984	333.107	309.427	43.679	35.202	310.521	97.238	310.719	5.917	274.020	14.782	271.679	215.174	296.259	26.821	0.00030723	0.00011321	0.00026719	402.26	5.7986e-06	2.8292e-06	497.07	107.98	2.0862e-06	3.4865e-06	167.54	60.26	34.48	11.487	3.1364e-06	30.128	0.00039416	0.0003918	0.00010817	406.06	4.3087e-06	4.2996e-06	498.1	110.9	4.355e-06	4.2998e-06	171.39	61.356	36.32	12.225	4.4293e-06	30.356	283.292	-1.431	16.272	-8.936	77.645	270.892	-9.164	-3.466	51.797	136.089	-5.082	-0.754	0.067	4.090	43.174	2.598	-8191	255	
21290.010	1	1	0	0	0.13729	0.15589	0.19863	0.080906	0.22064	0.24057	0.22471	0.17704	0.13252	0.3058	0.089441	0.16545	0.038072	0.22269	0.11038	0.10685	-2.1854	-2.6125	-2.2771	-2.8646	-2.775	-2.4229	-2.9167	-2.3812	-2.5521	-2.7958	-2.3146	-2.6271	-2.4833	-2.2812	-2.8187	-2.5417	320.422	156.809	105.707	222.010	70.047	233.987	276.180	-18.343	234.554	156.862	134.803	24.229	174.107	97.176	117.353	301.068	0.00021711	0.00058882	0.00017958	402.58	1.7188e-06	1.8174e-06	496.65	108.22	2.5214e-06	3.0178e-06	170.03	60.303	34.015	11.623	3.5688e-06	30.325	0.00040154	0.0003974	0.00011028	406.69	4.347e-06	4.3683e-06	499.27	111.07	4.3776e-06	4.3586e-06	172.13	61.519	36.354	12.325	4.3856e-06	30.408	292.097	109.868	24.099	-9.067	86.838	229.117	-9.693	-3.725	-8.024	273.047	-4.760	-0.338	0.568	4.441	79.363	1.953	-8191	255	
21290.080	1	1	0	0	0.10624	0.15576	0.096079	0.12388	0.038302	0.25521	0.1041	0.15566	0.015324	0.045364	0.2027	0.13428	0.27798	0.10947	0.087383	0.23422	-1.9917	-2.6437	-2.2667	-2.6958	-2.65	-2.4479	-2.7854	-2.5417	-2.5417	-2.7667	-2.2062	-2.4292	-2.5812	-2.4458	-2.7792	-2.5917	88.441	221.983	197.916	277.173	86.313	288.892	-13.191	76.820	188.394	271.816	274.543	4.298	281.931	2.336	315.329	152.277	0.00020921	0.0004695	6.8082e-05	402.74	1.3185e-06	9.0577e-07	499.45	108.39	6.5207e-06	6.2632e-07	169.57	60.697	34.236	11.601	3.8713e-06	30.24	0.00039501	0.00039557	0.00010994	407.2	4.3358e-06	4.3651e-06	501.62	111.62	4.372e-06	4.3936e-06	172.65	61.751	36.586	12.345	4.4483e-06	30.463	277.951	-12.392	195.643	-9.104	184.900	154.985	-9.216	-3.755	121.584	126.388	-4.832	-0.492	0.667	4.224	72.664	2.498	-8191	255	
21290.201	1	1	0	0	0.06974	0.18695	0.21772	0.082672	0.092438	0.0854	0.0748	0.14955	0.11697	0.073493	0.12161	0.066777	0.090891	0.080928	0.083604	0.1629	-1.9417	-2.7104	-2.1708	-2.8542	-2.8042	-2.3042	-2.7854	-2.5104	-2.2125	-2.8833	-2.4542	-2.6188	-2.6854	-2.2188	-2.625	-2.4896	-13.406	181.530	272.036	58.648	68.135	209.574	20.196	111.457	248.528	7.888	191.135	10.721	217.636	216.059	242.592	-8.022	0.00026197	0.00112	0.00012484	403.83	3.463e-06	3.6926e-06	495.03	107.03	4.3217e-06	4.4938e-06	166.02	59.731	34.077	11.51	4.2278e-06	29.897	0.00040687	0.00040847	0.00011235	407.55	4.443e-06	4.398e-06	497.96	110.83	4.3562e-06	4.4233e-06	170.29	61.039	36.106	12.213	4.4237e-06	30.214	283.725	36.173	152.006	-9.311	88.496	132.980	-9.493	-3.994	180.302	98.549	-4.846	-0.307	0.303	4.176	327.517	2.449	-8191	255	
21290.299	1	1	0	0	0.12363	0.1512	0.082045	0.17378	0.07509	0.13482	0.17129	0.089059	0.10568	0.31124	0.25222	0.37365	0.10204	0.37231	0.13258	0.097192	-1.8896	-2.6771	-2.4229	-2.5958	-2.6375	-2.4104	-2.7646	-2.5417	-2.375	-2.7708	-2.3937	-2.4583	-2.7917	-2.2188	-2.4542	-2.7333	14.384	268.788	292.554	65.596	264.755	241.437	262.132	289.856	65.602	259.805	296.512	311.767	221.721	249.185	129.815	-19.856	0.00032269	0.00030748	0.00018678	397.79	9.4829e-06	4.7147e-06	492.99	106.16	4.5385e-06	6.5069e-06	167.07	59.649	33.75	11.459	4.9652e-06	30.277	0.00039809	0.00040373	0.00011011	403.78	4.3334e-06	4.3053e-06	495.64	109.87	4.3304e-06	4.408e-06	169.97	60.723	36.08	12.213	4.4432e-06	30.21	292.311	184.505	80.875	-8.869	100.143	106.084	-9.222	-4.022	207.717	174.441	-4.872	-0.320	-0.184	4.337	91.873	2.199	-8191	255	
21290.395	1	1	0	0	0.088186	0.14411	0.092235	0.12524	0.26035	0.052885	0.3478	0.3398	0.19185	0.12295	0.18328	0.18528	0.077488	0.062999	0.029633	0.11725	-1.8896	-2.6729	-2.3396	-2.4271	-2.5229	-2.2917	-2.7417	-2.5458	-2.4583	-2.8646	-2.6021	-2.5125	-2.875	-2.2271	-2.55	-2.8187	66.716	189.779	59.867	-8.605	91.583	132.016	321.905	127.156	107.110	101.865	94.643	203.681	95.779	46.545	209.288	266.050	0.00025803	0.00070269	0.00011991	401.97	2.8157e-06	2.5464e-06	495.11	107.12	3.1319e-06	1.9346e-06	167.24	60.404	34.013	11.593	6.2115e-06	30.074	0.00038905	0.00040183	0.0001108	405.42	4.3328e-06	4.2898e-06	497.28	110.83	4.2918e-06	4.3303e-06	170.85	61.235	36.256	12.256	4.363e-06	30.34	262.644	72.619	270.710	-9.032	82.971	244.826	-9.284	-3.942	128.265	262.284	-5.197	-0.390	0.507	4.020	141.006	2.200	-8191	255	
21290.490	1	1	0	0	0.11045	0.1169	0.2453	0.085139	0.1381	0.070212	0.21684	0.1801	0.20966	0.13853	0.23667	0.12027	0.16732	0.035618	0.14649	0.14775	-1.7396	-2.6542	-2.6229	-2.4188	-2.6813	-2.4	-2.4792	-2.9354	-2.225	-2.7125	-2.6917	-2.5167	-2.8438	-2.3854	-2.5958	-2.8229	112.758	12.240	268.435	76.385	184.643	251.960	281.428	88.922	84.533	55.001	307.092	24.975	122.278	48.801	22.291	50.152	0.00031082	0.00047733	0.0001229	400.9	4.0201e-06	7.8484e-06	496.12	107.23	5.9186e-06	3.1657e-06	167.7	60.412	34.482	11.642	6.6053e-06	30.15	0.00039008	0.00039847	0.00010938	405.14	4.3042e-06	4.299e-06	498.68	110.95	4.3408e-06	4.4188e-06	171.47	61.485	36.499	12.306	4.3588e-06	30.362	255.452	71.774	209.737	-8.928	56.712	176.431	-9.286	-4.223	289.904	147.933	-5.124	-0.368	0.354	3.618	145.970	2.195	-8191	255	
21290.611	1	1	0	0	0.30809	0.17894	0.1868	0.09596	0.070459	0.24635	0.2511	0.094566	0.066445	0.16835	0.21459	0.302	0.10745	0.23516	0.068888	0.068577	-1.8375	-2.7146	-2.4813	-2.4146	-2.7979	-2.4604	-2.6937	-2.7625	-2.2646	-2.7562	-2.7229	-2.4062	-2.7208	-2.4062	-2.2958	-2.9021	271.313	-20.836	275.154	162.765	194.141	40.710	9.374	298.489	111.875	60.723	327.413	314.951	301.691	265.697	134.197	295.430	0.00031925	0.00033554	0.00012489	398.03	1.8481e-06	2.9888e-07	492.65	107.11	3.1807e-06	5.5523e-06	166.13	59.233	34.242	11.287	3.6109e-06	29.689	0.0003956	0.0004027	0.0001096	405.26	4.4134e-06	4.3728e-06	496.51	110.76	4.3269e-06	4.3676e-06	169.57	60.672	36.111	12.125	4.2915e-06	29.862	257.009	152.448	172.584	-9.294	99.003	190.520	-9.420	-3.684	167.619	187.442	-4.910	-0.659	0.326	4.378	171.347	2.374	-8191	255	
21290.705	1	1	0	0	0.056028	0.049504	0.075067	0.20367	0.31365	0.21861	0.18859	0.29172	0.071371	0.22315	0.17376	0.25574	0.13484	0.18302	0.21742	0.080582	-1.7396	-2.5333	-2.7021	-2.1875	-2.6417	-2.5042	-2.375	-2.8104	-2.5729	-2.6167	-2.6188	-2.3125	-2.7542	-2.575	-2.4458	-2.9667	277.963	245.430	124.952	108.210	178.400	309.618	251.531	289.790	234.810	74.500	-8.457	-11.557	319.528	222.831	227.336	50.270	0.00030524	0.00066344	6.4041e-05	398.62	4.9086e-06	5.1742e-06	492.94	106.38	6.264e-06	1.0391e-05	163.24	59.022	33.872	11.26	4.8309e-06	29.445	0.00038293	0.00039096	0.00010641	402.77	4.269e-06	4.2565e-06	492.08	108.97	4.2441e-06	4.2893e-06	167.02	60.086	35.626	11.962	4.3108e-06	29.664	289.008	68.131	245.338	-8.845	120.321	103.631	-9.410	-4.060	117.741	123.761	-4.751	-0.235	0.387	4.405	170.110	1.969	-8191	255	
21290.803	1	1	0	0	0.22968	0.14122	0.14647	0.089335	0.086994	0.21013	0.18755	0.22585	0.096984	0.10735	0.22121	0.24041	0.154	0.30523	0.067583	0.12121	-1.8708	-2.5625	-2.6396	-2.3792	-2.6083	-2.4583	-2.4792	-2.8167	-2.5521	-2.3833	-2.7646	-2.3292	-2.8979	-2.5729	-2.4042	-2.8625	245.735	307.439	35.418	268.014	167.454	209.092	154.368	82.048	208.741	-8.904	213.863	256.800	226.518	-19.494	97.280	-4.009	0.0002612	0.00046402	6.9976e-05	395.14	5.3049e-06	6.9858e-06	488.32	104.13	4.4496e-06	6.8154e-06	160.69	59.061	33.402	11.313	5.4379e-06	29.463	0.00039204	0.00039997	0.00010958	400.22	4.397e-06	4.3191e-06	490.3	107.84	4.258e-06	4.3761e-06	165.25	59.774	35.551	11.951	4.2188e-06	29.689	263.851	213.561	157.521	-9.236	217.080	223.116	-9.382	-4.171	108.220	159.215	-4.829	-0.520	0.442	4.114	118.143	2.558	-8191	255	
21290.898	1	1	0	0	0.02487	0.22866	0.23507	0.10345	0.17628	0.093684	0.066237	0.082463	0.35022	0.18005	0.19364	0.16336	0.39093	0.14977	0.10711	0.22103	-2.0146	-2.3375	-2.7354	-2.1479	-2.6604	-2.7417	-2.2354	-2.7979	-2.4625	-2.5375	-2.6771	-2.3167	-2.4437	-2.6229	-2.3375	-2.8104	42.112	4.727	104.487	278.127	292.496	176.501	250.004	289.277	106.470	331.739	74.416	325.902	12.274	-0.658	126.566	18.164	0.00050771	0.00011099	0.0001505	393	2.2376e-06	6.1435e-06	489.16	104.19	2.8902e-06	6.5854e-06	161.55	58.82	33.385	11.223	2.7161e-06	29.466	0.00037994	0.00038087	0.00010608	399.21	4.1652e-06	4.1086e-06	489.63	107.57	4.0729e-06	4.129e-06	165.27	59.658	35.26	11.914	4.1455e-06	29.706	300.070	10.382	152.040	-9.095	63.426	140.246	-9.634	-3.556	105.926	75.831	-5.005	-0.916	0.422	4.181	118.657	2.105	-8191	255	
21290.994	1	1	0	0	0.35969	0.2149	0.058787	0.040211	0.12345	0.13552	0.25058	0.18059	0.17782	0.2571	0.32377	0.16414	0.084962	0.26065	0.21723	0.027402	-1.9417	-2.4083	-2.7521	-2.4562	-2.5563	-2.5958	-2.1813	-2.7375	-2.4521	-2.3958	-2.8312	-2.3833	-2.4896	-2.7125	-2.2146	-2.7333	234.266	111.102	56.750	333.484	242.265	100.495	270.044	303.851	88.255	140.063	244.907	247.678	328.703	-17.360	292.465	0.065	0.00032639	0.00082464	8.6241e-05	398.19	4.5904e-06	3.197e-06	488.63	103.82	1.9584e-06	5.0336e-06	160.14	58.509	32.878	11.043	7.7999e-06	29.248	0.00037354	0.00038105	0.0001036	400.01	4.1334e-06	4.0605e-06	489.06	106.93	4.0049e-06	4.0844e-06	163.2	59.285	34.877	11.804	4.0134e-06	29.428	232.460	116.811	118.210	-9.010	135.123	130.267	-9.376	-3.874	164.193	268.477	-5.355	-1.154	0.622	4.525	165.252	2.009	-8191	255	
21291.090	1	1	0	0	0.20058	0.019894	0.27445	0.41234	0.13668	0.21698	0.277	0.093737	0.088477	0.16565	0.15906	0.078857	0.10758	0.1183	0.21741	0.11447	-2.4042	-2.2125	-2.8042	-2.4979	-2.4292	-2.7604	-2.3583	-2.7	-2.6229	-2.3771	-2.7958	-2.5417	-2.5333	-2.8625	-2.1667	-2.5542	101.453	9.530	213.815	235.264	236.060	164.693	-18.255	257.090	191.081	3.394	7.823	320.819	324.018	79.779	187.222	151.870	0.00034868	0.00026185	0.00013111	391.22	4.9572e-06	1.4219e-06	482.16	103.77	4.5714e-06	6.8389e-06	158.79	58.034	33.213	11.341	2.0885e-06	29.358	0.00037032	0.00036662	0.00010289	395.75	4.0799e-06	4.0723e-06	482.01	106.32	4.0376e-06	4.0628e-06	162.32	59.012	35.073	11.871	4.027e-06	29.433	286.746	311.904	23.821	-9.335	128.243	57.326	-9.626	-3.960	134.522	62.055	-5.571	-0.568	0.048	4.185	210.058	2.118	-8191	255	
21291.211	1	1	0	0	0.15222	0.13464	0.14406	0.076423	0.16691	0.073037	0.055907	0.11716	0.13493	0.20191	0.026491	0.21751	0.14891	0.1323	0.17168	0.087558	-2.2354	-2.2708	-2.7354	-2.4479	-2.3042	-2.7458	-2.3833	-2.6354	-2.6854	-2.1042	-2.9125	-2.5667	-2.3833	-2.8354	-2.4792	-2.5312	95.175	122.594	58.855	45.839	265.981	139.568	324.156	114.799	167.555	325.805	221.373	318.952	100.562	9.150	176.501	186.373	0.00017216	0.00040112	4.0971e-05	392.37	1.5043e-06	4.8026e-06	485.33	103.58	2.108e-06	8.4058e-07	160.92	58.371	33.186	11.269	6.2033e-06	29.591	0.00036926	0.00037259	0.00010397	395.62	4.0576e-06	4.074e-06	484.48	106.27	3.9851e-06	3.9911e-06	163.08	59.021	35.062	11.887	4.0097e-06	29.678	280.804	196.394	-10.962	-9.448	309.104	-7.661	-9.650	-3.733	251.001	337.770	-5.141	-0.638	-0.168	4.298	266.756	2.162	-8191	255	
21291.307	1	1	0	0	0.21486	0.1812	0.11733	0.068837	0.15673	0.31907	0.066198	0.083939	0.2315	0.16948	0.17164	0.14501	0.23764	0.2488	0.21775	0.38305	-2.4125	-2.2625	-2.6854	-2.4146	-2.4979	-2.9167	-2.475	-2.5479	-2.6583	-2.2854	-2.8563	-2.6375	-2.5271	-2.7604	-2.3917	-2.4104	219.272	169.994	196.555	-21.633	286.497	315.484	12.256	98.908	7.745	328.928	194.945	-8.605	336.031	5.198	44.815	-3.027	0.00027181	0.00065829	0.00023999	391.21	4.2721e-06	2.9105e-06	487.99	104.41	5.6202e-06	2.9624e-06	161.47	58.303	33.135	11.315	6.1959e-06	29.853	0.00037296	0.00037344	0.00010429	396.4	4.1286e-06	4.1822e-06	485.21	107.22	4.0764e-06	4.1249e-06	163.92	59.394	35.14	11.983	4.1714e-06	29.85	314.290	33.311	113.419	-9.076	181.456	75.937	-9.605	-4.074	112.843	291.454	-4.655	-0.800	0.517	4.332	183.591	2.372	-8191	255	
21291.379	1	1	0	0	0.36051	0.067677	0.21881	0.10612	0.068116	0.069055	0.21928	0.063177	0.19301	0.14867	0.16198	0.24521	0.16854	0.093776	0.16467	0.25807	-2.2438	-2.2687	-2.6542	-2.5729	-2.15	-2.9146	-2.5396	-2.4437	-2.6688	-2.2771	-2.8917	-2.7417	-2.3875	-2.6125	-2.4583	-2.5021	329.376	-13.510	206.610	35.222	220.641	279.424	269.791	33.185	188.266	301.541	262.454	185.175	286.385	197.867	176.117	303.071	0.00019678	0.00035416	4.8209e-05	393.72	2.9814e-06	2.8413e-06	489.71	103.98	1.2494e-06	3.0936e-06	160.07	58.455	33.27	11.336	5.0942e-06	29.412	0.00037881	0.00037498	0.000106	397.65	4.1587e-06	4.1546e-06	487.32	107.27	4.0937e-06	4.1445e-06	163.63	59.42	35.064	12.004	4.1112e-06	29.581	300.168	62.161	117.505	-8.988	264.884	232.818	-9.249	-3.346	209.100	36.827	-5.174	-0.215	-0.278	4.214	80.819	2.158	-8191	255	
21291.498	1	1	0	0	0.4112	0.11724	0.078718	0.31514	0.37504	0.24044	0.060237	0.10293	0.21663	0.18011	0.14634	0.20476	0.15626	0.20061	0.16802	0.25992	-2.4375	-2.3104	-2.7271	-2.5979	-2.1604	-2.8312	-2.5438	-2.4042	-2.9146	-2.3333	-2.5771	-2.6167	-2.45	-2.6208	-2.475	-2.3875	154.941	104.660	85.677	286.536	2.806	-14.383	110.815	239.537	336.712	228.051	147.687	-13.878	23.534	62.026	-10.373	2.605	0.00034485	0.00039443	0.00026066	388.41	6.5353e-06	3.3143e-06	481.16	104.01	3.027e-06	3.5633e-06	159.46	57.675	33.359	11.244	9.286e-06	29.269	0.00037939	0.00037646	0.00010673	394.7	4.1577e-06	4.2177e-06	482.41	106.77	4.2276e-06	4.1971e-06	163.06	58.841	35.06	11.982	4.2929e-06	29.448	277.035	151.190	79.532	-9.002	28.284	138.649	-9.448	-3.877	264.014	20.858	-5.502	-0.669	-0.185	4.008	89.815	2.135	-8191	255	
21291.594	1	1	0	0	0.17997	0.1802	0.18891	0.14067	0.24212	0.11799	0.31783	0.27567	0.16658	0.25003	0.11619	0.15491	0.21543	0.19363	0.0068682	0.16431	-2.3312	-2.3542	-2.5542	-2.5938	-2.2354	-2.6063	-2.5354	-2.2604	-2.7562	-2.5417	-2.4083	-2.7979	-2.325	-2.3604	-2.5042	-2.4229	9.007	293.843	4.571	34.072	259.000	13.077	269.691	89.005	149.258	334.125	317.597	49.101	287.081	-10.239	213.605	310.287	0.00032753	0.0010841	0.000112	390.98	3.2333e-06	2.8181e-06	481.6	103.61	7.3472e-06	1.2887e-06	160.83	57.921	33.349	11.26	5.3163e-06	29.468	0.00039187	0.00038733	0.00011028	396.21	4.2075e-06	4.2958e-06	483.56	107.23	4.2672e-06	4.1957e-06	164	59.065	35.341	11.988	4.2581e-06	29.535	270.634	121.403	92.282	-9.141	135.163	208.041	-9.524	-4.070	129.575	117.915	-5.170	-0.734	0.187	4.565	178.140	2.020	-8191	255	
21291.689	1	1	0	0	0.17196	0.25303	0.095384	0.094586	0.16828	0.19378	0.040793	0.15376	0.079306	0.3092	0.1584	0.10727	0.11359	0.14398	0.05306	0.22807	-2.4333	-2.3292	-2.4562	-2.775	-2.4667	-2.4771	-2.6646	-2.15	-2.5917	-2.4396	-2.5125	-2.7604	-2.3521	-2.5958	-2.5646	-2.2896	336.442	248.669	235.984	300.212	331.726	321.537	276.047	74.656	-5.276	195.403	319.201	200.782	18.205	-16.040	-21.105	192.323	0.00024001	0.00026544	0.00013673	391.85	3.7134e-06	6.6446e-06	483.76	104.09	3.3454e-06	3.7882e-06	160.76	58.419	33.09	11.234	5.1439e-06	29.458	0.00039095	0.0003902	0.00010927	396.85	4.3136e-06	4.3632e-06	485.32	107.11	4.3505e-06	4.348e-06	164.02	59.3	35.216	12.038	4.3268e-06	29.728	269.100	137.621	55.426	-9.383	129.163	7.071	-9.266	-3.615	176.311	260.183	-4.997	-0.555	0.229	3.967	138.841	2.364	-8191	255	
21291.785	1	1	0	0	0.16143	0.0864	0.22439	0.21513	0.18795	0.19756	0.039751	0.25419	0.13637	0.086639	0.16253	0.19024	0.15329	0.29266	0.36482	0.049887	-2.4437	-2.5792	-2.2938	-2.825	-2.3937	-2.4313	-2.7062	-2.2917	-2.5229	-2.5563	-2.5792	-2.75	-2.3833	-2.4458	-2.7354	-2.4	334.767	143.167	189.899	286.057	322.990	-13.270	334.864	287.682	-13.393	175.010	93.188	266.549	271.771	313.003	126.828	326.055	0.00034371	0.00051929	0.00017592	398.2	6.4676e-06	3.4885e-06	485.04	104.75	5.6918e-06	5.6539e-06	161.54	57.983	32.974	11.237	4.867e-06	29.466	0.00039639	0.00039202	0.0001105	399.33	4.2285e-06	4.316e-06	488.29	108.07	4.3147e-06	4.2758e-06	164.87	59.328	35.131	11.962	4.2973e-06	29.57	242.397	3.064	8.164	-9.278	314.949	42.978	-9.223	-3.912	118.563	233.201	-5.072	-0.394	-0.133	4.222	116.493	1.891	-8191	255	
21291.883	1	1	0	0	0.11744	0.096165	0.13102	0.23001	0.39148	0.20423	0.058991	0.17001	0.15229	0.26458	0.04225	0.2425	0.18684	0.16536	0.072026	0.1824	-2.1708	-2.5187	-2.3375	-2.8833	-2.2854	-2.6	-2.9458	-2.1917	-2.7313	-2.6583	-2.2687	-2.7729	-2.5021	-2.6104	-2.7271	-2.3854	282.989	2.061	247.238	231.504	95.428	299.110	-0.786	296.660	47.745	111.734	116.382	278.087	242.985	245.413	26.048	214.186	0.00013681	0.00075919	7.4836e-05	391.82	4.1406e-06	5.7135e-06	482.9	104.8	5.5432e-06	7.1785e-06	161.59	57.961	33.115	11.297	4.4432e-06	29.369	0.00039531	0.00038786	0.00010905	397.85	4.2486e-06	4.2746e-06	484.25	107.64	4.2957e-06	4.2338e-06	164.52	59.119	35.187	11.993	4.231e-06	29.501	325.261	88.209	1.930	-9.020	140.778	162.857	-9.394	-3.720	156.713	187.187	-5.089	-0.353	-0.246	3.766	152.208	1.930	-8191	255	
21291.979	1	1	0	0	0.03135	0.23029	0.36005	0.12864	0.12608	0.32505	0.14271	0.072359	0.22357	0.1093	0.2201	0.34649	0.10571	0.060865	0.20697	0.19106	-2.2667	-2.7687	-2.2208	-2.9375	-2.6333	-2.5062	-2.8229	-2.3521	-2.6771	-2.6354	-2.2812	-2.675	-2.4833	-2.2792	-2.7354	-2.6437	147.518	160.424	83.782	118.405	246.071	91.507	221.781	295.404	42.497	236.185	263.806	239.764	-13.061	56.603	180.077	250.763	0.0002694	0.00060686	2.3101e-05	392.84	4.4219e-06	2.1278e-06	484.13	104.82	5.9826e-06	3.9642e-06	162.05	58.512	33.369	11.289	4.7346e-06	29.324	0.00038612	0.00038315	0.00010753	398.54	4.1781e-06	4.2634e-06	486.24	107.83	4.2993e-06	4.2409e-06	164.9	59.558	35.514	12.024	4.2381e-06	29.622	263.262	109.557	303.510	-9.155	141.703	-20.843	-9.157	-3.823	195.723	185.192	-5.287	-0.465	0.048	4.608	-9.864	2.441	-8191	255	
21292.074	1	1	0	0	0.17127	0.087856	0.17766	0.11508	0.19528	0.13004	0.23013	0.068749	0.043134	0.080961	0.034987	0.099358	0.34014	0.12608	0.23944	0.022232	-2.0042	-2.6271	-2.2708	-2.8312	-2.6083	-2.4521	-2.9646	-2.2521	-2.4479	-2.6208	-2.2854	-2.6292	-2.6188	-2.3083	-2.8458	-2.4437	321.321	118.084	31.584	9.258	0.348	130.950	9.711	185.289	159.931	111.528	151.757	41.054	218.830	24.771	32.458	53.798	0.00038455	0.00034983	7.7853e-05	394.75	1.8731e-06	3.4414e-06	490.59	106.32	3.3355e-06	1.9391e-06	163.31	58.594	33.417	11.4	2.9129e-06	29.923	0.00038887	0.00039367	0.00010782	400.17	4.2729e-06	4.2273e-06	488.44	108.86	4.2806e-06	4.2622e-06	166.43	59.798	35.728	12.051	4.2882e-06	29.963	237.974	102.403	50.449	-9.282	197.224	251.387	-9.797	-4.017	215.170	36.720	-5.164	-0.672	0.516	4.200	184.098	2.237	-8191	255	
21292.172	1	1	0	0	0.069071	0.16375	0.27265	0.13075	0.23366	0.17904	0.020657	0.10626	0.14035	0.15196	0.21946	0.33304	0.0078957	0.21049	0.18885	0.1228	-1.8875	-2.7396	-2.3187	-2.6229	-2.6771	-2.4	-2.8333	-2.5042	-2.3771	-2.7938	-2.1458	-2.5104	-2.5792	-2.2938	-2.65	-2.6854	228.622	267.933	-21.839	129.350	151.096	308.395	-7.145	87.215	195.155	85.490	235.265	230.437	149.777	309.312	241.239	310.836	0.00041283	0.00047083	0.0001875	396.64	4.3839e-06	6.4468e-06	491.11	107.21	3.4765e-06	1.6739e-06	164.89	59.268	33.623	11.311	6.9001e-06	29.368	0.00038427	0.00038521	0.00010658	401.7	4.1773e-06	4.1642e-06	492.63	109.51	4.242e-06	4.1944e-06	167.02	60.123	35.62	12.016	4.1993e-06	29.747	296.500	63.144	196.092	-9.034	280.326	151.643	-9.349	-3.977	119.832	194.617	-5.353	-0.592	0.229	3.892	60.388	2.538	-8191	255	
21292.291	1	1	0	0	0.057477	0.10932	0.11026	0.063311	0.29794	0.21946	0.24304	0.25051	0.044965	0.20774	0.18414	0.11349	0.13552	0.13376	0.11399	0.10055	-1.8979	-2.8625	-2.3833	-2.7417	-2.7062	-2.4146	-2.7667	-2.5875	-2.4958	-2.7583	-2.35	-2.5542	-2.7521	-2.2667	-2.8292	-2.575	235.850	228.686	57.222	315.305	-6.752	60.619	313.825	277.228	80.563	319.820	-17.418	251.835	316.773	277.383	-6.655	101.369	0.00025082	0.00030754	2.3278e-05	394.95	5.8135e-06	5.4988e-06	486.83	105.76	5.6699e-06	5.4142e-06	163.3	58.677	33.618	11.462	2.9811e-06	29.537	0.00037976	0.00038403	0.00010559	400.63	4.217e-06	4.2137e-06	488.34	108.68	4.2623e-06	4.2333e-06	166.42	59.807	35.674	12.069	4.1833e-06	29.811	269.243	258.014	21.968	-9.084	66.573	144.593	-9.303	-3.772	183.468	115.321	-5.077	-0.333	0.018	4.456	47.813	2.047	-8191	255	
21292.387	1	1	0	0	0.17623	0.22172	0.18159	0.031699	0.11684	0.13737	0.030285	0.056903	0.13685	0.061108	0.35348	0.048147	0.20444	0.12645	0.2953	0.22317	-1.775	-2.7917	-2.5438	-2.5583	-2.7083	-2.325	-2.75	-2.6063	-2.3604	-2.8271	-2.5042	-2.4729	-2.7562	-2.1813	-2.5187	-2.4771	157.246	44.225	214.238	-0.456	31.721	84.794	336.194	160.822	293.283	302.527	305.678	188.807	98.209	62.088	-0.822	58.224	0.00025994	6.7084e-05	9.4721e-05	395.69	4.5753e-06	2.419e-06	494.7	105.47	5.83e-06	4.7016e-06	164.29	58.881	33.648	11.378	3.6791e-06	29.564	0.0003767	0.00038135	0.00010484	400.62	4.2375e-06	4.1522e-06	491.94	108.79	4.185e-06	4.2578e-06	166.57	60.168	35.748	12.044	4.2458e-06	29.847	278.195	189.762	-20.869	-9.170	54.018	46.192	-9.501	-3.943	146.918	213.566	-4.502	-0.919	0.062	4.069	190.867	2.323	-8191	255	
21292.482	1	1	0	0	0.1336	0.020192	0.13325	0.061695	0.16418	0.074666	0.25543	0.11362	0.28893	0.18076	0.086832	0.049828	0.078468	0.116	0.071214	0.083001	-1.8312	-2.6271	-2.3937	-2.3208	-2.9188	-2.4229	-2.5875	-2.7292	-2.2479	-2.7146	-2.4917	-2.3271	-2.5938	-2.425	-2.5542	-2.6521	3.511	296.824	330.082	331.957	8.306	323.663	193.539	307.467	50.801	74.460	246.943	81.859	144.016	75.057	77.172	304.909	0.0002942	0.000321	0.00032021	395.7	4.4305e-06	4.0953e-06	492.39	105.79	2.4207e-06	7.4439e-06	163.95	59.149	33.433	11.375	2.4555e-06	29.691	0.00038466	0.00039356	0.00010839	401.41	4.2658e-06	4.2112e-06	491.91	109.56	4.2517e-06	4.3179e-06	167.05	60.302	35.799	12.077	4.304e-06	29.919	298.147	216.488	103.718	-9.462	166.492	253.958	-9.050	-3.908	222.778	79.549	-5.093	-0.262	0.808	3.955	257.133	2.251	-8191	255	
21292.604	1	1	0	0	0.23045	0.21542	0.27408	0.33355	0.016051	0.26532	0.30506	0.11569	0.09199	0.092106	0.15306	0.058272	0.32743	0.1724	0.23568	0.10591	-1.7646	-2.5146	-2.4	-2.4188	-2.8063	-2.3479	-2.5521	-2.6229	-2.4375	-2.6708	-2.7417	-2.3771	-2.55	-2.3979	-2.5708	-2.7792	228.707	89.455	105.229	271.342	298.143	107.591	154.137	266.401	315.798	229.867	190.517	228.413	263.109	197.263	248.768	113.184	0.00030238	0.00063341	0.00015923	397.12	4.7297e-06	2.1654e-06	489.7	106.15	8.3082e-07	1.1934e-06	166	59.219	33.846	11.291	2.2452e-06	29.585	0.00038254	0.00038821	0.00010789	402.77	4.2755e-06	4.2464e-06	492.83	109.82	4.2269e-06	4.3133e-06	168.21	60.241	35.957	12.083	4.3233e-06	29.823	271.065	5.445	55.789	-8.791	98.522	88.443	-8.968	-4.058	131.343	63.544	-5.375	-0.638	0.290	3.542	245.010	2.129	-8191	255	
21292.676	1	1	0	0	0.1212	0.19876	0.18383	0.20123	0.2078	0.19261	0.24233	0.18062	0.22448	0.18851	0.087115	0.18692	0.099503	0.19343	0.20768	0.16869	-1.9062	-2.4958	-2.4458	-2.175	-2.6833	-2.2438	-2.4917	-2.6813	-2.1604	-2.6188	-2.5896	-2.2979	-2.7146	-2.575	-2.3208	-2.7625	207.929	54.623	152.956	-20.780	198.796	276.993	288.172	238.128	298.557	90.952	-10.064	21.829	321.511	330.284	67.685	148.413	0.00033514	0.00020332	9.9262e-05	395.39	2.6649e-06	4.0277e-06	487.67	106.64	4.7942e-06	2.5514e-06	163.72	58.938	33.761	11.346	6.1637e-06	29.881	0.00038468	0.00039264	0.00011026	400.65	4.2914e-06	4.2357e-06	490.11	109.64	4.1863e-06	4.2372e-06	166.44	59.983	35.686	12.063	4.203e-06	29.842	276.985	175.379	78.777	-9.152	227.832	115.299	-9.150	-3.801	285.338	206.956	-5.167	-0.446	0.329	4.250	7.997	2.226	-8191	255	
21292.770	1	1	0	0	0.35274	0.14838	0.40061	0.33545	0.05805	0.19502	0.12233	0.054329	0.19812	0.11698	0.28052	0.1499	0.086432	0.1618	0.21212	0.18368	-1.7792	-2.4479	-2.6125	-2.3458	-2.7562	-2.4979	-2.3937	-2.9562	-2.2729	-2.5896	-2.6875	-2.4604	-2.7792	-2.6229	-2.275	-2.9271	318.592	318.052	257.005	259.850	23.617	266.738	30.536	62.274	230.209	333.903	325.207	299.012	248.830	278.444	240.914	282.341	0.00035369	0.0005082	5.6375e-05	399.14	7.2267e-07	3.0545e-06	492.88	106.64	5.8087e-06	3.0193e-06	163.55	59.322	34.048	11.458	2.8965e-06	29.744	0.00037501	0.0003815	0.0001052	402.51	4.1868e-06	4.1698e-06	491.33	109.76	4.1578e-06	4.236e-06	167.17	60.3	35.894	12.062	4.2193e-06	29.827	254.424	183.405	290.618	-9.079	77.221	328.519	-9.157	-3.492	329.925	334.937	-5.142	-0.572	0.544	4.132	291.888	2.088	-8191	255	
21292.891	1	1	0	0	0.41949	0.092679	0.06565	0.09062	0.33198	0.10463	0.14691	0.25711	0.08669	0.15835	0.14342	0.10579	0.3979	0.26873	0.16151	0.071769	-1.8813	-2.4604	-2.6979	-2.0958	-2.45	-2.6417	-2.5062	-2.7208	-2.3125	-2.4854	-2.7125	-2.2687	-2.6042	-2.4708	-2.2562	-2.8438	-6.463	214.844	290.245	-1.144	109.332	207.982	12.052	291.665	285.363	239.911	273.436	103.210	306.503	331.976	317.034	334.913	0.00023864	0.00011819	9.3444e-05	396.25	3.1299e-06	4.0143e-06	489.79	107.08	4.5896e-06	2.103e-06	164.3	59.362	34.119	11.242	7.075e-06	29.909	0.00038346	0.0003894	0.00010859	401.88	4.3079e-06	4.2369e-06	492.2	109.86	4.2122e-06	4.2979e-06	167.88	60.538	36.041	12.08	4.2466e-06	29.975	255.713	317.592	11.666	-8.904	58.761	49.161	-9.040	-4.068	-1.739	33.481	-4.921	-0.636	0.487	4.257	64.927	2.322	-8191	255	
21292.986	1	1	0	0	0.16274	0.11249	0.11605	0.15108	0.19941	0.18056	0.099293	0.16592	0.24811	0.24372	0.10918	0.27984	0.047602	0.045052	0.076934	0.24624	-1.8917	-2.3042	-2.7	-2.3271	-2.5729	-2.7188	-2.1937	-2.7479	-2.275	-2.4521	-2.9125	-2.2083	-2.5396	-2.7083	-2.3604	-2.6667	291.699	256.256	149.295	37.005	183.800	185.937	-17.507	167.675	284.694	190.043	150.691	110.071	281.010	1.915	297.779	200.084	0.00050455	0.0004074	0.00017184	401.8	7.8531e-06	4.6155e-06	493.91	108.16	5.0839e-06	1.0408e-06	166.18	59.797	33.976	11.357	5.9677e-06	29.813	0.00038229	0.0003918	0.00010865	404.26	4.2438e-06	4.2938e-06	494.73	110.59	4.2073e-06	4.2319e-06	169.02	60.694	36.025	12.088	4.1808e-06	29.907	296.000	200.115	92.954	-8.921	84.223	157.472	-9.596	-3.538	107.928	172.051	-4.996	-0.490	0.654	3.985	127.783	2.043	-8191	255	
21293.082	1	1	0	0	0.23373	0.15998	0.23401	0.14257	0.090127	0.13837	0.27107	0.23462	0.35414	0.026569	0.15518	0.25278	0.26666	0.27526	0.20649	0.063964	-2.0667	-2.3	-2.8042	-2.3625	-2.6646	-2.7208	-2.3917	-2.6646	-2.6125	-2.2792	-2.6792	-2.2167	-2.4833	-2.7042	-2.3479	-2.625	-11.726	123.931	59.173	243.634	284.687	94.508	305.026	-14.345	328.034	240.645	128.761	309.758	125.956	306.317	137.158	132.696	0.0001141	0.00085345	0.00017865	398.69	1.7752e-06	3.8773e-06	494.03	107.23	5.0957e-06	7.6355e-06	164.92	59.136	33.849	11.4	3.0353e-06	29.429	0.00037698	0.00038725	0.00010677	403.28	4.2027e-06	4.1885e-06	491.91	110.09	4.1914e-06	4.1843e-06	167.34	59.969	35.876	12.106	4.1461e-06	29.677	303.858	80.523	92.746	-8.914	60.176	294.474	-9.330	-3.781	223.139	126.896	-5.291	-1.037	0.378	3.708	185.095	2.300	-8191	255	
21293.180	1	1	0	0	0.17305	0.20562	0.19469	0.070214	0.035944	0.084162	0.1979	0.026013	0.31726	0.17092	0.16024	0.44027	0.34348	0.059696	0.20881	0.11795	-2.0438	-2.0292	-2.6937	-2.275	-2.4375	-2.7021	-2.3604	-2.6583	-2.6333	-2.25	-2.7792	-2.2896	-2.3333	-2.6333	-2.2479	-2.8979	335.211	157.902	50.314	23.401	136.113	79.015	259.493	33.861	297.641	156.023	268.369	246.645	214.784	278.412	139.465	217.889	0.00036399	0.00040006	0.0002055	397.58	4.7587e-06	5.1913e-06	488.4	106.39	3.6442e-06	4.9115e-06	163.66	59.008	33.768	11.328	4.4617e-06	29.569	0.00038456	0.00038444	0.00010674	402.05	4.2587e-06	4.2313e-06	489.02	109.83	4.2063e-06	4.2261e-06	166.77	59.986	35.769	12.117	4.2186e-06	29.759	288.012	176.762	82.236	-9.134	96.538	123.985	-9.366	-3.513	186.569	179.554	-5.220	-0.677	-0.136	3.881	65.496	2.090	-8191	255	
21293.275	1	1	0	0	0.15525	0.24319	0.046062	0.084485	0.17543	0.48699	0.27007	0.10689	0.076779	0.11089	0.21689	0.058917	0.090503	0.11615	0.03143	0.043036	-2.1833	-2.2479	-2.4875	-2.6396	-2.2104	-2.8354	-2.3312	-2.5438	-2.6917	-2.25	-2.7521	-2.3729	-2.4375	-2.8292	-2.4771	-2.5396	270.294	257.976	232.226	7.243	314.506	31.599	282.338	300.176	240.077	176.675	185.586	77.797	280.809	305.985	38.281	59.447	0.00011042	0.00042618	0.00017263	400.44	5.3209e-06	5.307e-07	489.64	106.37	3.7079e-06	7.1007e-06	164.91	58.813	33.505	11.418	4.5628e-06	29.659	0.00039213	0.00038874	0.00010849	403.59	4.2838e-06	4.2536e-06	492.48	110.18	4.2998e-06	4.1846e-06	168.61	60.107	35.913	12.15	4.2224e-06	29.836	298.462	66.948	94.831	-9.634	212.904	180.448	-9.088	-3.731	196.528	105.819	-4.996	-0.406	0.641	4.863	48.043	2.152	-8191	255	
21293.371	1	1	0	0	0.21932	0.032097	0.087649	0.30047	0.075687	0.27803	0.27609	0.22728	0.12518	0.20118	0.17854	0.15749	0.051027	0.021981	0.35723	0.12615	-2.275	-2.2875	-2.6	-2.6833	-2.3	-2.7958	-2.4833	-2.4625	-2.5271	-2.3375	-2.5833	-2.6021	-2.2042	-2.8521	-2.3	-2.4271	287.281	19.823	39.189	272.870	210.956	13.237	213.877	-19.390	45.385	263.215	284.355	200.895	167.589	251.433	223.685	77.396	0.00025465	0.00030394	0.00014553	397.45	1.9998e-06	7.0546e-06	494.74	107.44	6.3875e-06	6.7122e-07	164.17	58.775	33.912	11.412	1.057e-06	29.715	0.00038998	0.00038598	0.00010957	403.79	4.3418e-06	4.3358e-06	494.21	110.34	4.2929e-06	4.2565e-06	168.19	60.138	35.987	12.143	4.2875e-06	29.827	240.845	281.519	182.112	-8.991	35.949	196.079	-9.263	-3.792	98.252	23.699	-5.107	-0.542	0.418	4.242	208.791	2.251	-8191	255	
21293.469	1	1	0	0	0.10563	0.10792	0.15949	0.060638	0.21171	0.14955	0.27697	0.11777	0.087163	0.17927	0.40029	0.15484	0.26586	0.19321	0.082004	0.31055	-2.1792	-2.2958	-2.8479	-2.6708	-2.3625	-2.65	-2.6542	-2.4854	-2.7562	-2.4021	-2.6417	-2.8063	-2.3167	-2.8958	-2.8021	-2.5708	211.023	11.002	195.116	90.664	44.894	170.020	230.149	190.039	113.363	248.378	20.472	304.641	328.527	295.803	329.200	234.173	0.00034521	0.0002838	0.00020496	396.6	8.172e-06	4.8491e-06	487.85	106.88	5.5507e-06	2.8415e-06	164.11	58.743	33.268	11.382	8.718e-06	29.498	0.00038873	0.00039167	0.000109	401.89	4.2172e-06	4.2356e-06	489.99	109.9	4.2175e-06	4.2083e-06	167.07	59.688	35.548	11.995	4.2035e-06	29.571	286.857	8.394	62.389	-9.335	235.392	53.902	-9.598	-3.613	182.373	25.736	-4.862	-0.400	0.217	3.899	118.978	2.014	-8191	255	
21293.564	1	1	0	0	0.12051	0.16284	0.078653	0.094096	0.20791	0.2056	0.13359	0.075672	0.023142	0.31038	0.14159	0.14633	0.1399	0.20844	0.032482	0.13226	-2.5167	-2.5062	-2.4417	-2.7917	-2.3271	-2.6875	-2.4979	-2.3146	-2.7812	-2.2229	-2.3812	-2.6896	-2.4375	-2.6417	-2.5	-2.2979	-12.053	66.568	141.457	169.521	102.969	290.349	250.700	180.994	94.741	-21.108	124.935	187.254	280.661	75.354	169.572	231.576	0.00020949	0.00054988	7.4464e-05	396.91	9.2287e-06	2.4446e-06	489.25	106.89	3.0371e-06	4.121e-06	163.85	58.889	33.49	11.297	3.6952e-06	29.381	0.000375	0.00037374	0.00010571	400.5	4.0496e-06	4.1667e-06	490.23	109.58	4.073e-06	4.0193e-06	166.26	59.513	35.363	12.019	4.0337e-06	29.541	277.916	75.971	271.315	-9.178	61.740	134.713	-9.290	-3.818	93.557	229.865	-5.122	-0.435	0.371	4.249	181.853	2.431	-8191	255	
21293.684	1	1	0	0	0.14399	0.18037	0.15899	0.10567	0.27683	0.11083	0.15182	0.25493	0.12384	0.11792	0.27192	0.1221	0.13423	0.046308	0.13651	0.092933	-2.4208	-2.4125	-2.4396	-2.6229	-2.1042	-2.6854	-2.7333	-2.1813	-2.7771	-2.3458	-2.4021	-2.6354	-2.2625	-2.4604	-2.4979	-2.3229	102.100	312.727	161.786	204.011	207.974	278.266	248.317	263.498	110.386	201.461	49.537	262.710	299.798	137.256	160.820	93.322	0.00023404	0.00031873	0.00021778	394.24	3.7739e-06	7.4406e-06	488.24	106.39	7.1277e-07	5.7439e-06	162.93	58.011	33.207	11.112	7.995e-07	29.208	0.00037138	0.00036603	0.00010376	400.47	4.05e-06	4.1114e-06	489.29	108.87	4.1475e-06	4.1676e-06	165.61	59.113	35.302	11.948	4.2854e-06	29.325	259.653	118.660	127.268	-8.879	115.567	213.329	-9.325	-3.767	138.467	119.949	-5.180	-0.351	0.331	3.968	336.848	2.139	-8191	255	
21293.779	1	1	0	0	0.055144	0.21789	0.22086	0.22669	0.15555	0.16849	0.16865	0.13332	0.060657	0.16437	0.097528	0.14589	0.10365	0.065992	0.15969	0.11013	-2.3792	-2.6021	-2.2479	-2.6562	-2.3604	-2.6396	-2.7812	-2.2521	-2.9667	-2.5604	-2.3729	-2.65	-2.1604	-2.4292	-2.7333	-2.3333	149.154	253.041	296.342	239.445	80.589	97.065	312.722	34.209	76.280	-4.315	191.142	178.412	268.323	143.915	195.094	103.567	0.00045773	2.6649e-05	0.00017602	394.28	8.4061e-06	2.8133e-06	484.24	104.41	1.9284e-06	5.1191e-06	161.02	57.362	32.755	11.261	6.7578e-06	29.024	0.00039055	0.0003895	0.00010922	399.06	4.2387e-06	4.3028e-06	485.32	107.97	4.2238e-06	4.1681e-06	163.74	58.423	34.781	11.873	4.1795e-06	29.172	278.044	173.281	61.363	-8.896	83.498	204.582	-9.535	-3.876	209.465	172.230	-5.256	-0.531	0.117	4.396	37.115	2.492	-8191	255	
21293.875	1	1	0	0	0.20295	0.070764	0.097192	0.14114	0.012837	0.23948	0.16651	0.098991	0.17392	0.11361	0.10804	0.26468	0.23321	0.095273	0.39689	0.26238	-2.1479	-2.4708	-2.1917	-2.8063	-2.2646	-2.625	-2.7979	-2.1771	-2.6396	-2.5104	-2.1833	-2.8979	-2.3021	-2.4542	-2.7354	-2.2042	284.563	-8.655	276.430	254.824	114.348	270.282	54.436	57.864	242.846	215.995	-14.107	313.924	44.739	180.032	147.874	316.429	0.00014542	0.00027364	4.8024e-05	392.71	3.9076e-06	3.9266e-06	480.75	103.36	2.9541e-06	5.0448e-06	158.88	56.779	32.087	11.044	7.3906e-07	28.544	0.00037514	0.00037601	0.00010318	397.05	4.0026e-06	4.134e-06	480.94	106.36	4.1018e-06	4.0764e-06	161.61	57.561	34.235	11.697	4.0107e-06	28.72	286.715	97.224	139.312	-9.304	160.502	211.290	-9.083	-3.979	227.936	144.221	-4.947	-0.912	0.384	4.253	249.957	2.557	-8191	255	
21293.971	1	1	0	0	0.14701	0.18417	0.061418	0.20031	0.11845	0.14125	0.15626	0.2653	0.10647	0.24317	0.10009	0.19331	0.11745	0.10542	0.20929	0.24506	-2.2458	-2.5792	-2.1375	-2.7792	-2.4625	-2.4	-2.7604	-2.3187	-2.5479	-2.6333	-2.3042	-2.6562	-2.5292	-2.2708	-2.8396	-2.2708	144.612	42.427	243.456	-21.889	11.169	106.834	269.760	319.742	25.801	91.201	238.701	299.726	298.656	262.956	-18.553	291.762	0.00030713	0.00019892	6.27e-05	388.85	4.6935e-06	3.122e-06	480.03	103.8	3.345e-06	4.1357e-06	157.42	56.773	32.25	11.181	5.9242e-06	28.514	0.00037115	0.00036799	0.00010205	394.17	3.9976e-06	4.0551e-06	479.32	105.76	4.0073e-06	3.9833e-06	160.23	57.363	34.094	11.707	3.9015e-06	28.697	288.637	261.592	190.147	-8.888	138.044	220.806	-9.712	-4.041	131.233	37.954	-5.031	-0.321	0.282	3.694	86.330	1.938	-8191	255	
#DATA ENDS
