BOXY.EXE: ISS Imagent and Oximeter Data Acquisition Program Version 0.80
Ascii Record File

#ACQ INFORMATION
2  Detector Channels 
16  External MUX Channels 
1  Auxiliary Channels 
5000  Waveform (CCF) Frequency (Hz)
1  Waveforms Skipped 
30  Waveforms Averaged 
1  Cycles Averaged 
16  Acquisitions per Waveform 
10.0806  Updata Rate (Hz) 

#FILE INFORMATION
TRUE -- External MUX Channel results are PARSED.
FALSE -- AC DC and Phase are NOT grouped.
TRUE -- Companion Program Settings File CREATED.
FALSE -- AC data not excluded
FALSE -- DC data not excluded
FALSE -- Phase data not excluded
FALSE -- Auxillary Chn. data not excluded
Tab delimiters

#CALIBRATION STATE
TRUE -- Waveform Calibration Values APPLIED.


#AUX CALIBRATION VALUES
Val Type	aux-1	

Term	1.0000e+00	
Factor	0.0000e+00	


#WF CALIBRATION VALUES
A = Detector Channel
Val Type	A-AC1	A-AC2	A-AC3	A-AC4	A-AC5	A-AC6	A-AC7	A-AC8	A-AC9	A-AC10	A-AC11	A-AC12	A-AC13	A-AC14	A-AC15	A-AC16	A-DC1	A-DC2	A-DC3	A-DC4	A-DC5	A-DC6	A-DC7	A-DC8	A-DC9	A-DC10	A-DC11	A-DC12	A-DC13	A-DC14	A-DC15	A-DC16	A-Ph1	A-Ph2	A-Ph3	A-Ph4	A-Ph5	A-Ph6	A-Ph7	A-Ph8	A-Ph9	A-Ph10	A-Ph11	A-Ph12	A-Ph13	A-Ph14	A-Ph15	A-Ph16	

Term	0.00000e+00	0.00000e+00	0.00000e+00	0.00000e+00	0.00000e+00	0.00000e+00	0.00000e+00	0.00000e+00	0.00000e+00	0.00000e+00	0.00000e+00	0.00000e+00	0.00000e+00	0.00000e+00	0.00000e+00	0.00000e+00	0.00000e+00	0.00000e+00	0.00000e+00	0.00000e+00	0.00000e+00	0.00000e+00	0.00000e+00	0.00000e+00	0.00000e+00	0.00000e+00	0.00000e+00	0.00000e+00	0.00000e+00	0.00000e+00	0.00000e+00	0.00000e+00	0.00000e+00	0.00000e+00	0.00000e+00	0.00000e+00	0.00000e+00	0.00000e+00	0.00000e+00	0.00000e+00	0.00000e+00	0.00000e+00	0.00000e+00	0.00000e+00	0.00000e+00	0.00000e+00	0.00000e+00	0.00000e+00	
Factor	1.00000e+00	1.00000e+00	1.00000e+00	1.00000e+00	1.00000e+00	1.00000e+00	1.00000e+00	1.00000e+00	1.00000e+00	1.00000e+00	1.00000e+00	1.00000e+00	1.00000e+00	1.00000e+00	1.00000e+00	1.00000e+00	1.00000e+00	1.00000e+00	1.00000e+00	1.00000e+00	1.00000e+00	1.00000e+00	1.00000e+00	1.00000e+00	1.00000e+00	1.00000e+00	1.00000e+00	1.00000e+00	1.00000e+00	1.00000e+00	1.00000e+00	1.00000e+00	X	X	X	X	X	X	X	X	X	X	X	X	X	X	X	X	

B = Detector Channel
Val Type	B-AC1	B-AC2	B-AC3	B-AC4	B-AC5	B-AC6	B-AC7	B-AC8	B-AC9	B-AC10	B-AC11	B-AC12	B-AC13	B-AC14	B-AC15	B-AC16	B-DC1	B-DC2	B-DC3	B-DC4	B-DC5	B-DC6	B-DC7	B-DC8	B-DC9	B-DC10	B-DC11	B-DC12	B-DC13	B-DC14	B-DC15	B-DC16	B-Ph1	B-Ph2	B-Ph3	B-Ph4	B-Ph5	B-Ph6	B-Ph7	B-Ph8	B-Ph9	B-Ph10	B-Ph11	B-Ph12	B-Ph13	B-Ph14	B-Ph15	B-Ph16	

Term	0.00000e+00	0.00000e+00	0.00000e+00	0.00000e+00	0.00000e+00	0.00000e+00	0.00000e+00	0.00000e+00	0.00000e+00	0.00000e+00	0.00000e+00	0.00000e+00	0.00000e+00	0.00000e+00	0.00000e+00	0.00000e+00	0.00000e+00	0.00000e+00	0.00000e+00	0.00000e+00	0.00000e+00	0.00000e+00	0.00000e+00	0.00000e+00	0.00000e+00	0.00000e+00	0.00000e+00	0.00000e+00	0.00000e+00	0.00000e+00	0.00000e+00	0.00000e+00	-2.03927e+02	-1.31831e+02	-1.25538e+02	-1.83254e+02	-8.09175e+01	-7.08768e+01	-1.60701e+02	-1.62015e+02	-9.04271e+01	-7.32347e+01	-1.72480e+02	-1.72818e+02	-1.83168e+02	-1.78087e+02	-6.61985e+01	-1.50828e+02	
Factor	3.89286e-05	1.23717e-04	3.30348e-05	1.37229e-01	1.13119e-06	1.25685e-06	1.52528e-01	4.65841e-02	1.24710e-06	1.41356e-06	7.24308e-02	2.45414e-02	2.28361e-02	7.36464e-03	1.53149e-06	1.05710e-02	3.04281e-06	3.29901e-06	9.19863e-07	7.35445e-02	3.56907e-08	3.63287e-08	7.68056e-02	2.49985e-02	3.56985e-08	3.62099e-08	3.76454e-02	1.27287e-02	1.23343e-02	3.98035e-03	3.59260e-08	5.53306e-03	X	X	X	X	X	X	X	X	X	X	X	X	X	X	X	X	



#DISTANCE SETTINGS
A = Detector Channel
A-1	A-2	A-3	A-4	A-5	A-6	A-7	A-8	A-9	A-10	A-11	A-12	A-13	A-14	A-15	A-16	

2.5000e+00	3.0000e+00	2.5000e+00	3.0000e+00	2.0000e+00	3.0000e+00	1.5000e+00	3.0000e+00	3.0000e+00	3.0000e+00	3.0000e+00	3.0000e+00	3.0000e+00	3.0000e+00	1.5000e+00	3.0000e+00	

B = Detector Channel
B-1	B-2	B-3	B-4	B-5	B-6	B-7	B-8	B-9	B-10	B-11	B-12	B-13	B-14	B-15	B-16	

1.0000e+01	1.0000e+01	1.0000e+01	1.4400e+00	1.0000e+01	1.0000e+01	1.5100e+00	1.9400e+00	1.0000e+01	1.0000e+01	1.9900e+00	2.4900e+00	2.4100e+00	2.9000e+00	1.0000e+01	2.9800e+00	




#DATA BEGINS
time	group	step	mark	flag	A-AC1	A-AC2	A-AC3	A-AC4	A-AC5	A-AC6	A-AC7	A-AC8	A-AC9	A-AC10	A-AC11	A-AC12	A-AC13	A-AC14	A-AC15	A-AC16	A-DC1	A-DC2	A-DC3	A-DC4	A-DC5	A-DC6	A-DC7	A-DC8	A-DC9	A-DC10	A-DC11	A-DC12	A-DC13	A-DC14	A-DC15	A-DC16	A-Ph1	A-Ph2	A-Ph3	A-Ph4	A-Ph5	A-Ph6	A-Ph7	A-Ph8	A-Ph9	A-Ph10	A-Ph11	A-Ph12	A-Ph13	A-Ph14	A-Ph15	A-Ph16	B-AC1	B-AC2	B-AC3	B-AC4	B-AC5	B-AC6	B-AC7	B-AC8	B-AC9	B-AC10	B-AC11	B-AC12	B-AC13	B-AC14	B-AC15	B-AC16	B-DC1	B-DC2	B-DC3	B-DC4	B-DC5	B-DC6	B-DC7	B-DC8	B-DC9	B-DC10	B-DC11	B-DC12	B-DC13	B-DC14	B-DC15	B-DC16	B-Ph1	B-Ph2	B-Ph3	B-Ph4	B-Ph5	B-Ph6	B-Ph7	B-Ph8	B-Ph9	B-Ph10	B-Ph11	B-Ph12	B-Ph13	B-Ph14	B-Ph15	B-Ph16	aux-1	digaux	

14835.612	1	1	0	256	0.064361	0.059588	0.21628	0.14084	0.18987	0.20325	0.22067	0.056519	0.086353	0.13192	0.15967	0.19093	0.16657	0.1971	0.19935	0.071174	-2.0604	-2.7625	-2.6875	-2.8208	-3.1417	-2.7604	-3.0292	-3.1562	-2.6708	-2.9646	-2.8063	-2.6979	-2.9896	-2.7896	-2.6521	-3.0792	193.227	8.240	-50.199	234.302	30.006	135.002	201.844	88.652	-116.945	159.512	207.533	190.078	213.931	230.104	215.020	-70.806	0.001062	0.0037899	0.00023981	887.67	3.0788e-05	1.2127e-05	1111.7	186.55	7.3986e-06	2.2675e-05	317.28	128.12	67.225	22.741	2.0091e-05	51.455	0.020861	0.022819	0.0063244	1351.4	0.00024575	0.00024882	1593.7	348.78	0.00024563	0.00025298	559.71	210.43	150.35	49.378	0.0002518	87.638	154.370	-113.830	-92.044	-105.663	-58.640	54.170	-105.345	-99.016	-63.047	-104.462	-99.615	-95.561	-94.535	-87.912	220.639	-90.548	-8191	255	
14835.709	1	1	0	0	0.27861	0.11847	0.053709	0.096788	0.25797	0.15027	0.19874	0.22848	0.021257	0.24264	0.29196	0.28809	0.20542	0.054072	0.16677	0.18197	-2.1021	-2.9042	-2.9042	-2.7062	-3.1292	-2.8021	-3.0354	-2.9625	-2.6208	-2.8667	-3.0146	-2.6958	-3.0729	-2.8812	-2.6875	-3.3729	234.522	216.875	-32.829	73.945	141.145	-102.455	207.411	101.350	-101.012	-67.233	145.881	181.713	-42.319	192.338	-109.517	111.676	0.00066776	0.0037555	0.0005104	892.12	3.7953e-05	2.5929e-05	1115.3	183.49	5.1348e-06	5.2087e-05	312.3	126.63	67.897	22.642	2.8872e-05	50.79	0.021099	0.023109	0.0064366	1357.7	0.00024831	0.00025287	1594.4	349.34	0.0002461	0.00025257	557.53	208.95	150.04	49.265	0.00024994	87.227	199.128	219.788	-115.287	-105.055	103.483	163.065	-105.295	-99.111	-6.726	72.164	-99.593	-95.492	-94.429	-87.966	113.380	-90.266	-8191	255	
14835.780	1	1	0	0	0.13598	0.011977	0.20067	0.1672	0.1582	0.3084	0.059517	0.22373	0.22689	0.16675	0.2526	0.19354	0.13569	0.18161	0.022783	0.13066	-2.1521	-2.9375	-2.9854	-2.725	-3.2792	-2.8104	-2.8958	-3.2896	-2.7229	-2.8333	-3.2021	-2.7854	-3.2021	-2.775	-2.6271	-3.2479	205.003	-37.692	204.222	189.018	45.714	97.346	38.365	224.345	54.283	71.648	-115.610	-94.766	147.172	199.536	-6.761	-75.161	0.0011474	0.0035427	0.00030151	893.27	3.6422e-05	3.0318e-05	1105.5	185.48	2.9887e-05	2.2341e-05	312.55	126.58	67.488	22.707	3.1389e-05	50.948	0.021015	0.023088	0.0064157	1356.9	0.00024795	0.00025359	1597.1	351.03	0.00024822	0.0002553	560.75	209.97	150.68	49.664	0.00025153	87.79	57.499	-80.004	-28.178	-105.232	-49.212	-12.191	-105.199	-99.042	99.824	-15.905	-100.617	-95.248	-94.340	-87.906	140.483	-90.242	-8191	255	
14835.899	1	1	0	0	0.064188	0.20554	0.17614	0.12488	0.1184	0.15751	0.29609	0.1416	0.14696	0.37894	0.32478	0.17353	0.11594	0.072616	0.34852	0.11168	-2.2646	-2.8354	-2.8937	-2.7104	-3.1292	-2.7354	-2.9146	-3.0229	-2.6104	-2.9437	-3.1312	-2.675	-3.0042	-2.9104	-2.6896	-3.15	-13.565	21.807	177.173	105.854	-115.769	148.802	199.741	153.389	212.529	213.540	124.404	225.783	-46.781	240.492	114.098	144.564	0.001489	0.0015558	0.00076307	898.3	3.5225e-05	3.5032e-05	1110	186.67	2.7272e-05	3.1251e-06	314.81	128.61	67.775	22.865	1.1618e-06	51.198	0.021232	0.023312	0.0064606	1364.4	0.00025116	0.00025527	1597.2	352.76	0.00024915	0.00025523	563.02	210.99	151.06	49.774	0.00025116	88.253	82.427	-30.248	-109.852	-105.393	81.676	71.043	-105.572	-98.783	161.896	202.137	-99.383	-95.126	-94.674	-88.193	3.626	-90.446	-8191	255	
14835.995	1	1	0	0	0.22939	0.13668	0.026752	0.17034	0.20314	0.15921	0.24461	0.15552	0.14849	0.15481	0.034739	0.17453	0.078798	0.19692	0.1623	0.11671	-2.2479	-2.5979	-3.0375	-2.6146	-2.8729	-3.0146	-2.7354	-3.1417	-2.6937	-2.8042	-3.2521	-2.6937	-2.825	-2.9896	-2.6688	-2.9729	-8.309	144.882	-96.076	205.804	86.422	133.535	-76.078	-82.854	-42.289	-103.087	32.508	158.872	28.178	-92.392	128.407	94.284	0.00013266	0.0016711	0.00074796	891.24	1.0033e-05	1.4575e-05	1117.5	185.58	1.0956e-05	2.621e-05	315.15	126.98	67.314	22.817	1.606e-05	50.405	0.021388	0.023416	0.0065237	1369.2	0.0002552	0.00026006	1609	355.77	0.00025385	0.00025877	566.36	210.76	151.66	49.803	0.00025092	87.943	204.705	126.309	-36.056	-105.017	162.920	-98.936	-105.522	-99.108	241.187	117.693	-99.445	-95.487	-94.403	-87.872	173.934	-89.946	-8191	255	
14836.091	1	1	0	0	0.12302	0.084134	0.32783	0.18272	0.28702	0.021731	0.063024	0.33708	0.19345	0.044796	0.1289	0.23482	0.16593	0.23912	0.16334	0.18157	-2.3187	-2.7458	-3.175	-2.7458	-2.9562	-2.9542	-2.8229	-3.0146	-2.9167	-2.7562	-3.2917	-2.8312	-2.8229	-3.0687	-2.6188	-3.0583	109.804	-72.312	110.600	-95.529	-19.829	165.188	115.876	179.001	-64.281	119.033	224.939	227.748	47.745	118.830	138.462	-22.252	0.00075517	0.00042846	0.00065469	889.05	6.1383e-06	2.1827e-05	1113	184.95	1.2334e-05	1.5654e-05	310.96	125.56	67.774	22.755	1.6535e-05	50.995	0.021247	0.023157	0.006441	1357.7	0.00025014	0.00025423	1591.2	351.49	0.00024927	0.00025297	559.39	209.21	150.46	49.563	0.00025001	87.501	160.021	192.756	19.803	-105.510	-60.804	-86.033	-105.505	-99.009	-13.703	29.015	-100.132	-95.358	-94.521	-87.830	178.047	-90.719	-8191	255	
14836.188	1	1	0	0	0.086876	0.083652	0.33338	0.34123	0.17425	0.23481	0.16545	0.11052	0.057906	0.038329	0.20498	0.25653	0.22442	0.17625	0.24926	0.23285	-2.4625	-2.5229	-3.0917	-2.8771	-2.7896	-2.8875	-2.8146	-2.9729	-2.9688	-2.5646	-3.2438	-2.8146	-2.7958	-3.225	-2.6083	-3.1229	-8.315	122.307	-45.867	231.304	-48.532	-79.247	213.967	158.642	-93.418	209.646	219.681	174.863	177.355	187.211	-114.187	-22.061	0.00058538	0.00020192	0.00020166	888.17	1.1517e-05	2.4927e-05	1105.8	184.24	9.7688e-06	3.7541e-05	312.72	127.32	67.676	22.836	2.3237e-05	50.997	0.021328	0.023088	0.0064551	1359.1	0.00025167	0.00025614	1590.5	352.02	0.00025044	0.00025451	562.18	210.54	151.63	49.892	0.00025219	88.06	21.311	-54.448	128.707	-105.003	69.301	32.868	-105.746	-99.402	52.149	-103.173	-99.987	-95.247	-94.814	-87.811	81.206	-90.182	-8191	255	
14836.308	1	1	0	0	0.1686	0.09962	0.19326	0.051918	0.21723	0.12208	0.30915	0.10506	0.19268	0.20337	0.20834	0.23907	0.30385	0.25612	0.12652	0.4041	-2.4792	-2.4188	-3.0646	-2.8937	-2.6833	-3.0208	-2.8042	-2.9521	-2.8229	-2.5146	-3.1188	-2.7458	-2.7104	-3.1312	-2.5729	-3.0563	91.535	66.138	137.115	225.771	142.848	-59.460	188.103	120.975	-90.359	168.591	143.113	166.363	16.344	-57.240	114.967	-117.233	0.00091914	0.0015625	0.001031	893.01	1.2231e-05	2.1338e-05	1111.6	186.42	8.6554e-06	3.6852e-05	311.13	127.33	68.228	22.678	4.4288e-05	51.177	0.021496	0.023185	0.0064932	1363.2	0.00025181	0.00025717	1595.7	354.06	0.00025209	0.00025569	565.84	212.16	151.99	50.024	0.00025233	88.412	141.093	-77.244	94.954	-105.644	23.525	145.479	-105.612	-99.472	99.781	-5.906	-99.722	-95.674	-94.494	-88.763	61.786	-89.868	-8191	255	
14836.404	1	1	0	0	0.074759	0.23411	0.076055	0.20067	0.19461	0.1469	0.21069	0.040545	0.14669	0.061575	0.10311	0.10548	0.22902	0.08263	0.15916	0.17994	-2.3146	-2.6729	-2.9479	-2.8979	-2.8333	-2.9417	-2.8063	-2.9854	-3.0396	-2.8479	-3.1813	-2.7375	-2.6479	-3.15	-2.9146	-2.9167	-45.797	-86.515	145.168	152.060	-49.972	26.520	238.025	113.472	12.683	8.316	169.620	114.718	131.321	233.294	170.363	154.821	0.0011684	0.0021971	0.0013153	888.38	1.861e-05	2.7078e-05	1110.5	184.52	1.3027e-05	1.2139e-05	312.72	126.77	67.076	22.262	2.9818e-05	50.87	0.021633	0.023304	0.0065363	1365.4	0.00025251	0.00025759	1602.2	353.38	0.00025216	0.00025515	565.17	211.38	151.47	49.724	0.00025225	87.804	120.189	-16.731	151.592	-105.239	20.849	238.301	-105.566	-98.967	53.209	185.325	-99.625	-95.189	-94.774	-88.129	-56.156	-89.987	-8191	255	
14836.476	1	1	0	0	0.28134	0.10917	0.17346	0.10478	0.092363	0.20741	0.64646	0.008411	0.082426	0.09107	0.19409	0.19358	0.037827	0.21147	0.091944	0.17476	-2.6437	-2.4875	-2.8083	-3.1208	-2.5958	-3.1375	-2.9437	-2.9104	-3.1708	-2.6771	-3.1292	-3.1875	-2.6979	-3.0458	-2.85	-2.9771	62.943	-28.858	230.581	154.152	-75.371	207.935	196.347	181.345	152.180	-87.219	185.522	114.668	-95.315	196.136	152.392	159.499	0.00029709	0.00091387	0.00086691	888.68	3.4487e-05	1.8474e-05	1102.3	182.92	3.2962e-06	2.163e-05	313.24	126.86	66.769	22.529	5.7444e-05	51.071	0.021327	0.022917	0.0064357	1355.3	0.00024656	0.00025112	1581.2	348.68	0.0002455	0.00024771	556	208.99	148.43	49.165	0.00024647	87.201	217.597	156.828	14.969	-105.462	17.916	61.524	-105.249	-98.643	-97.984	92.109	-99.326	-95.320	-94.528	-87.654	-90.301	-90.214	-8191	255	
14836.597	1	1	0	0	0.23552	0.10543	0.22484	0.13206	0.21764	0.26846	0.29155	0.145	0.19694	0.029873	0.16328	0.076885	0.1771	0.14363	0.13875	0.13449	-2.6188	-2.5062	-2.8125	-3.1917	-2.7604	-3.1667	-2.975	-2.575	-3.0833	-2.5833	-3.1208	-3.0917	-2.6521	-2.9521	-2.8125	-2.6646	10.252	227.692	-73.710	195.739	-59.216	230.071	-112.267	241.879	148.852	2.106	171.473	-66.204	-54.662	203.134	69.449	201.726	0.0012859	0.0021655	0.00037624	884.95	3.6216e-05	2.9372e-05	1107.6	186.12	9.6584e-06	2.2336e-05	312.36	127.09	67.623	22.943	1.5807e-05	51.238	0.02113	0.022766	0.0064469	1354.9	0.00024609	0.00025306	1586.7	349.6	0.000247	0.00025035	559.82	209.16	148.82	49.45	0.0002474	87.226	110.509	71.900	-63.172	-105.815	-75.634	-5.623	-105.433	-99.081	101.894	-11.187	-100.350	-95.408	-94.203	-88.567	12.245	-90.651	-8191	255	
14836.693	1	1	0	0	0.17252	0.063069	0.21747	0.42413	0.16451	0.20551	0.1975	0.081516	0.19974	0.13729	0.10777	0.17405	0.047824	0.28419	0.12866	0.23613	-2.7708	-2.6813	-2.6167	-3.0208	-2.4917	-3.1562	-3.0583	-2.6896	-3.0979	-2.7646	-2.8667	-3.025	-2.6042	-2.8333	-2.8	-2.6792	238.275	95.040	-110.053	-108.730	-59.080	92.529	-79.232	136.554	175.309	71.741	238.776	-110.631	183.362	236.328	165.428	206.768	0.00083043	0.0010057	0.0009039	886.11	7.0095e-06	3.6158e-05	1112.1	185.49	1.3516e-05	2.8998e-05	312.36	127.24	67.389	22.746	6.6431e-06	50.964	0.020972	0.022695	0.0063772	1347.3	0.00024308	0.00025078	1579.8	346.92	0.00024464	0.00024804	556.75	208.66	147.94	49.281	0.00024755	86.919	109.492	237.623	17.218	-105.024	109.465	161.095	-105.200	-98.844	-35.379	102.195	-99.693	-95.409	-94.777	-87.723	115.516	-90.062	-8191	255	
14836.789	1	1	0	0	0.024834	0.19176	0.11586	0.27474	0.10298	0.078609	0.40307	0.26189	0.084883	0.1174	0.10083	0.18759	0.1605	0.3062	0.16934	0.19669	-2.5708	-2.5625	-2.7417	-3.1063	-2.6979	-2.7958	-3.1625	-2.675	-3.0438	-2.7833	-2.9	-3.1104	-2.6063	-2.8354	-2.8479	-2.5229	-57.096	-23.393	200.637	203.652	84.963	28.452	231.935	209.122	205.509	236.329	91.072	-66.579	-34.667	183.033	-37.791	231.367	0.0007073	0.0021468	0.00020218	890.21	2.2093e-05	6.1809e-06	1105.2	185.5	4.2095e-05	5.5059e-05	312.64	126.95	67.027	22.806	1.7325e-05	51.04	0.020952	0.022542	0.0063801	1348.1	0.0002441	0.00025116	1585.1	347.03	0.00024632	0.00024954	558	209.03	148.83	49.457	0.00024926	87.019	60.509	-16.646	4.865	-105.306	-116.888	10.867	-105.532	-99.168	-10.069	194.766	-99.661	-95.770	-94.353	-88.113	-111.542	-90.136	-8191	255	
14836.908	1	1	0	0	0.10612	0.13754	0.10733	0.1099	0.33583	0.21952	0.39941	0.030476	0.14238	0.097219	0.14251	0.17145	0.24961	0.063306	0.075154	0.22224	-2.5187	-2.7812	-2.6833	-3.2313	-2.6292	-2.8312	-3.0812	-2.7687	-3.1271	-2.7583	-2.8042	-3.1437	-2.7812	-2.7313	-2.9229	-2.5146	154.624	113.125	108.233	-44.566	142.342	239.258	211.563	63.364	-16.753	149.560	61.005	181.184	165.119	-53.462	145.463	-62.791	0.0010794	0.0016596	0.00045825	885.22	1.9167e-05	3.3229e-05	1107	185.12	1.3491e-05	2.9643e-05	310.72	125.58	66.317	22.522	4.2689e-05	50.54	0.02118	0.023022	0.0064227	1354.3	0.00024605	0.00025361	1584.2	348.29	0.00024846	0.00025197	559.07	209.42	149.41	49.629	0.00025217	87.061	132.827	145.131	136.816	-105.374	-14.353	169.594	-105.214	-98.848	40.274	19.166	-99.600	-95.482	-94.620	-87.874	1.329	-90.052	-8191	255	
14837.004	1	1	0	0	0.092769	0.16569	0.19556	0.3077	0.24629	0.16272	0.22376	0.28472	0.13893	0.22899	0.22379	0.058282	0.17825	0.068957	0.12943	0.04501	-2.4583	-2.6771	-2.6063	-3.2	-2.6646	-2.8563	-3.0187	-2.6063	-2.9042	-2.9167	-2.6083	-3.0729	-2.8104	-2.7604	-3.0979	-2.7438	95.624	89.431	144.273	209.648	211.211	87.847	237.295	129.013	-34.144	103.531	154.721	84.786	120.750	3.130	139.802	181.373	0.0012105	0.0015269	0.00068416	891.88	1.8605e-05	2.2578e-05	1104.1	186.65	2.6167e-05	5.4058e-05	308.97	127.76	67.833	22.697	7.6852e-06	50.851	0.021413	0.023201	0.0064712	1360.9	0.00024945	0.00025741	1593.2	350.81	0.00025338	0.00025628	560.8	211.06	150.78	49.944	0.00025516	87.717	100.842	-64.725	13.130	-105.108	117.278	79.052	-105.189	-99.219	14.357	52.166	-99.715	-95.559	-94.117	-88.409	-29.944	-89.826	-8191	255	
14837.076	1	1	0	0	0.25803	0.10068	0.044365	0.21091	0.18345	0.10032	0.16583	0.2126	0.20967	0.030246	0.19154	0.16064	0.21955	0.074095	0.089207	0.13839	-2.5812	-2.8688	-2.5625	-2.9917	-2.7208	-2.6229	-3.1104	-2.6792	-2.8896	-2.9083	-2.7979	-3.0021	-2.7583	-2.525	-3.1333	-2.8958	99.846	130.712	-10.403	221.577	-85.961	214.274	138.355	173.160	58.611	85.322	-106.983	123.792	154.393	-47.740	15.797	-111.894	0.00029195	0.0034964	0.00041282	890.22	3.716e-05	1.1356e-05	1105.2	184.8	2.7207e-05	1.4742e-05	309.84	126.03	66.426	22.376	9.4493e-06	50.431	0.021666	0.023552	0.0065369	1369.8	0.00025458	0.00026222	1606.8	354.21	0.00025842	0.00026137	565.61	212.43	153.03	50.459	0.00025858	88.193	-99.848	-37.034	45.676	-105.364	130.290	100.535	-105.284	-99.415	-68.988	54.737	-99.898	-95.084	-95.525	-87.872	205.832	-90.130	-8191	255	
14837.196	1	1	0	0	0.2645	0.19513	0.14827	0.093409	0.16108	0.068683	0.060075	0.072827	0.21755	0.18223	0.056801	0.18311	0.19227	0.17395	0.16677	0.1975	-2.4437	-2.9625	-2.5208	-3.1104	-2.9021	-2.6292	-3.2229	-2.5917	-2.7438	-2.975	-2.7125	-3.0708	-3.0438	-2.6417	-3.0167	-2.85	121.433	-24.811	-50.551	48.759	-39.689	185.345	67.230	50.750	30.101	2.402	181.589	-114.208	-79.510	147.515	176.106	233.169	0.00087366	0.00097546	0.00055858	889.91	1.6823e-05	2.3887e-05	1104.5	183.54	8.7564e-06	3.7094e-06	308.8	125.71	67.039	22.635	1.1443e-05	50.155	0.022095	0.023861	0.0065998	1375.8	0.00025714	0.00026207	1610	354.96	0.00026016	0.000264	568.19	213.22	153.89	50.534	0.00026134	88.435	66.071	108.353	229.105	-105.300	-59.275	167.540	-105.253	-99.365	-82.009	-83.867	-99.314	-95.700	-94.731	-88.337	34.243	-89.896	-8191	255	
14837.292	1	1	0	0	0.1085	0.15395	0.2547	0.15552	0.15314	0.12447	0.156	0.15165	0.2688	0.18815	0.17066	0.14351	0.089664	0.14896	0.17971	0.25881	-2.3187	-3.0042	-2.6229	-3.0271	-2.8458	-2.6958	-3.2896	-2.6792	-2.6667	-3.1937	-2.6833	-2.9354	-2.8042	-2.4562	-3.1083	-2.925	139.423	77.854	213.989	224.874	197.825	132.967	139.960	171.954	83.420	83.647	-0.641	212.727	23.820	227.495	-46.722	-82.273	0.00084041	0.0019385	0.00065424	889.46	9.0392e-06	1.3656e-05	1098.4	184.21	1.3854e-06	3.0215e-05	309.12	126.2	66.191	22.549	6.5699e-06	50.498	0.022182	0.023851	0.0066099	1377.4	0.00025828	0.0002627	1608.5	355.77	0.00026007	0.00026422	566.95	213.47	154.02	50.577	0.00026377	89.101	84.942	-31.709	-59.939	-105.468	220.124	-38.299	-105.499	-99.130	106.754	124.279	-99.513	-95.271	-94.761	-87.612	-58.489	-90.311	-8191	255	
14837.389	1	1	0	0	0.17451	0.1087	0.32978	0.27321	0.10114	0.20613	0.26068	0.075091	0.10895	0.041113	0.11811	0.043393	0.14822	0.21439	0.17616	0.32186	-2.1917	-3.0125	-2.5479	-3.0792	-2.8875	-2.6479	-3.275	-2.6333	-2.7104	-2.8937	-2.625	-2.9313	-2.9458	-2.7062	-3.1646	-3.0312	225.593	223.517	-65.493	-112.643	103.639	235.666	-115.884	-46.015	79.750	174.896	191.731	-74.871	88.572	-116.193	128.661	-57.487	0.0010584	0.0024087	0.00078696	897.69	3.3705e-05	5.2224e-05	1111.1	185.42	1.5712e-05	6.9286e-06	311.09	125.62	67.443	22.496	1.9439e-05	50.79	0.022487	0.024427	0.0067704	1393.5	0.00026428	0.00026835	1620.7	359.51	0.00026325	0.0002669	570.34	214	154.36	50.593	0.00026262	89.024	76.116	205.982	-8.389	-105.500	130.205	-37.715	-105.509	-99.191	-108.894	46.887	-99.793	-95.534	-94.190	-87.946	-5.562	-90.303	-8191	255	
14837.485	1	1	0	0	0.10771	0.14401	0.20807	0.086444	0.23013	0.05381	0.20201	0.28322	0.24622	0.050045	0.086374	0.088348	0.15229	0.21901	0.1439	0.20049	-2.2917	-3.0604	-2.5458	-2.7646	-3.0542	-2.5917	-3.2167	-2.9271	-2.5271	-3.2729	-2.7438	-2.8937	-3.0938	-2.7021	-2.8354	-3.0646	-86.580	-79.810	-5.658	220.983	35.095	219.664	96.012	230.131	27.294	-27.004	-87.133	202.991	5.445	240.253	-74.629	124.974	0.0008341	0.0020779	0.00097628	887.43	2.3013e-05	3.351e-05	1109	183.64	2.5243e-05	4.917e-05	311.09	125.8	67.231	22.352	4.8131e-05	50.535	0.022273	0.024116	0.0067042	1384.2	0.00026101	0.00026491	1619.5	359.04	0.00026276	0.0002665	570.89	214.21	154	50.452	0.00026323	88.776	199.832	95.401	-11.323	-105.328	-42.884	128.877	-105.563	-99.109	-8.241	-28.961	-99.432	-95.069	-94.500	-87.756	149.477	-90.057	-8191	255	
14837.605	1	1	0	0	0.16757	0.17971	0.08707	0.2853	0.11997	0.037444	0.19123	0.058733	0.18172	0.28177	0.16324	0.13687	0.14184	0.1966	0.096844	0.10301	-2.1	-2.8937	-2.6667	-2.7896	-3.0625	-2.4875	-3.0062	-3.1125	-2.6396	-3.0292	-2.9292	-2.6271	-3.1375	-2.6125	-2.8958	-3.0146	176.407	15.896	240.086	-115.097	203.786	90.713	-109.321	116.480	107.037	53.132	-89.464	-82.557	180.155	-101.097	26.451	227.582	0.00098667	0.0016322	0.00082731	885.95	2.4683e-05	2.7878e-05	1103.2	182.34	1.1957e-05	5.9724e-06	307.3	125.11	66.626	22.133	3.1652e-05	49.909	0.022092	0.023977	0.00669	1382.5	0.00026011	0.00026297	1612.9	356.32	0.00025813	0.00026263	566.24	211.8	151.56	49.513	0.00025664	87.328	105.656	13.293	144.385	-105.317	44.077	18.745	-105.523	-99.242	169.874	72.646	-99.595	-95.770	-94.011	-87.617	136.507	-89.896	-8191	255	
14837.700	1	1	0	0	0.21556	0.1626	0.060682	0.27598	0.13856	0.41207	0.042085	0.23115	0.10783	0.012846	0.20571	0.014417	0.053537	0.22071	0.07131	0.12301	-1.9521	-2.8958	-2.6771	-2.7417	-2.925	-2.5458	-2.9125	-2.9771	-2.5125	-2.9583	-2.9625	-2.6604	-3.2021	-2.7542	-2.7958	-3.1167	71.375	-114.209	28.543	148.602	154.030	-110.487	170.116	40.212	19.526	69.435	233.902	162.053	-47.346	150.822	64.876	35.353	0.00074666	0.0019679	0.00062205	878.67	2.9769e-06	9.1611e-06	1101.1	181.2	4.2581e-06	1.2966e-05	305.12	123.75	66.539	22.11	6.9534e-05	49.231	0.02163	0.023636	0.0065968	1365.8	0.00025761	0.00026271	1612	356.06	0.00026158	0.00026887	569.5	212.15	153.99	50.09	0.00026487	87.7	196.782	125.526	16.653	-105.652	169.921	-89.771	-105.268	-99.043	-108.528	84.433	-100.099	-95.315	-94.430	-88.351	-111.378	-90.068	-8191	255	
14837.773	1	1	0	0	0.16944	0.17284	0.10331	0.44372	0.062252	0.076424	0.1569	0.078738	0.070032	0.11263	0.27088	0.08574	0.24564	0.24078	0.22617	0.1108	-1.9417	-2.875	-2.6417	-2.5875	-2.9104	-2.6167	-2.9875	-2.9875	-2.4729	-2.8875	-2.7687	-2.7854	-2.9062	-2.7792	-2.7146	-3.0938	-98.278	200.019	101.604	198.188	162.254	230.920	177.249	212.399	142.252	-90.706	171.189	-107.488	-54.919	116.064	129.682	181.747	0.0017002	0.00057201	0.00038584	891.23	1.7229e-05	2.873e-05	1094.6	179.37	1.0044e-05	2.2533e-05	301.23	123.1	65.258	21.888	5.6044e-05	48.496	0.021903	0.023926	0.0066616	1368.3	0.00025597	0.00026092	1597.8	352.06	0.00025819	0.00026684	566.82	211.68	155.04	50.952	0.00027481	89.382	128.757	96.976	28.316	-105.453	182.286	-46.472	-105.460	-99.006	129.168	142.272	-99.574	-95.422	-94.816	-87.674	215.256	-90.250	-8191	255	
14837.869	1	1	0	0	0.071198	0.22221	0.071487	0.33086	0.10787	0.04456	0.21232	0.045504	0.24954	0.080818	0.19649	0.21954	0.13179	0.17692	0.20771	0.17013	-2.0854	-2.625	-2.8292	-2.6063	-2.8958	-2.7083	-2.8187	-3.0208	-2.5333	-2.8438	-2.7417	-2.4042	-2.9125	-2.6688	-2.6958	-3.1375	100.690	112.777	16.244	172.755	173.582	120.164	238.402	-105.430	190.680	133.812	190.155	230.511	-23.287	151.208	-10.723	196.156	0.00078507	0.0027667	0.00037407	890.47	3.3127e-05	2.5364e-05	1101.1	180.28	2.6402e-05	1.5995e-05	300.03	121.68	64.835	21.706	4.0048e-05	49.022	0.023447	0.026016	0.00725	1422.8	0.00028403	0.00028929	1662.4	371.34	0.00028337	0.00029178	588.61	218.25	160.78	52.708	0.00028791	91.245	54.955	-31.784	224.818	-105.516	60.639	207.271	-105.442	-99.136	232.767	-50.479	-99.789	-95.564	-94.462	-88.260	64.752	-90.473	-8191	255	
14837.988	1	1	0	0	0.067923	0.32098	0.10677	0.09361	0.10605	0.085334	0.28613	0.13191	0.25867	0.071119	0.31886	0.1816	0.14443	0.24919	0.14646	0.35522	-2.1729	-2.6854	-2.8583	-2.6708	-2.9813	-2.6688	-2.7646	-3.0333	-2.5708	-2.9	-3.0479	-2.6583	-2.925	-2.8167	-2.5583	-3.0521	18.944	-17.108	-70.244	185.225	-66.059	-31.616	199.145	202.009	-78.290	-37.329	229.404	103.847	-45.197	209.461	-13.338	169.327	0.00034862	0.0015633	0.00090055	888.92	1.6789e-05	4.1097e-06	1094.8	181.53	2.8134e-05	5.1391e-05	305.8	123.24	65.619	21.414	1.116e-05	48.738	0.02433	0.026721	0.0074535	1435.6	0.00028971	0.00029647	1675.3	377.94	0.00029087	0.00029869	598.64	220.99	163.7	53.359	0.00029306	92.228	91.250	90.859	101.279	-105.566	15.210	155.146	-105.503	-99.650	-65.149	-76.022	-100.318	-95.923	-94.322	-88.486	61.079	-90.256	-8191	255	
14838.084	1	1	0	0	0.17608	0.26652	0.30328	0.28852	0.2147	0.11655	0.22372	0.18729	0.14054	0.12179	0.19221	0.38301	0.16536	0.079934	0.2767	0.11608	-2.1667	-2.7917	-2.8187	-2.6292	-2.8438	-2.6833	-2.8375	-3.0542	-2.6125	-2.75	-2.9938	-2.5938	-2.9292	-2.7521	-2.3167	-2.9917	9.415	231.333	164.803	233.676	155.498	57.660	190.102	80.541	-16.002	110.183	-70.120	217.668	228.145	206.664	75.589	203.397	0.000909	0.0016627	0.00057337	883.24	9.7588e-06	7.988e-06	1095.8	181.11	1.2445e-05	3.8818e-05	303.55	123.31	65.521	21.891	2.7083e-05	49.269	0.024815	0.027147	0.0075329	1440.9	0.00029315	0.00029899	1673.4	377.07	0.00028972	0.00029793	596.01	220.64	163.42	53.319	0.00029058	92.247	114.055	20.005	-50.749	-105.358	146.565	195.772	-105.531	-99.390	76.374	116.115	-99.798	-95.073	-94.837	-88.446	91.973	-89.841	-8191	255	
14838.180	1	1	0	0	0.1141	0.29223	0.081158	0.31972	0.24497	0.25253	0.10223	0.035621	0.11543	0.15944	0.11369	0.47326	0.16624	0.040505	0.10283	0.099853	-2.1875	-2.4208	-3.0604	-2.5604	-2.7167	-3.0125	-2.5042	-2.8542	-2.8271	-2.6604	-3.1083	-2.8104	-2.8354	-3.0771	-2.5583	-3.0563	148.463	38.791	-95.206	212.626	77.643	58.348	151.112	135.688	-34.241	3.442	74.499	201.733	-66.983	90.875	71.636	231.512	0.00038981	0.0014417	0.00080249	879.36	2.2405e-05	1.5962e-05	1088.1	180.99	2.9637e-05	2.0872e-05	306.56	122.93	65.917	21.861	1.5445e-05	49.158	0.024561	0.026713	0.0073692	1422.4	0.0002847	0.00028788	1642.7	370.67	0.00028164	0.00028626	587.2	217.85	160.57	52.398	0.00028035	90.932	140.257	-84.246	227.903	-105.712	197.233	9.141	-105.765	-99.421	-12.910	-34.789	-99.958	-95.400	-94.129	-88.018	120.974	-90.827	-8191	255	
14838.277	1	1	0	0	0.27808	0.16006	0.10117	0.17148	0.11367	0.20334	0.3449	0.13238	0.18943	0.2328	0.17554	0.23326	0.15746	0.16221	0.11561	0.11805	-2.3208	-2.55	-2.9542	-2.6312	-2.9062	-2.9542	-2.6646	-2.9021	-2.7396	-2.5646	-3.1312	-2.6583	-2.7896	-3.0521	-2.5042	-2.9979	-74.196	31.832	201.421	233.077	136.940	66.126	205.165	171.980	87.377	2.354	-55.049	206.426	225.508	173.695	15.595	-100.941	0.00071726	0.002677	0.00033178	882.49	1.9122e-05	5.9962e-05	1095.7	182.07	1.3828e-05	3.7615e-05	307.96	123.78	66.36	22.088	3.1227e-05	49.869	0.023836	0.025836	0.0072079	1412.7	0.00028065	0.00028539	1643.9	370	0.00027953	0.00028162	585.56	217.17	159.07	51.927	0.00027437	90.54	-61.112	-116.781	56.621	-105.507	2.155	-32.622	-105.719	-99.274	94.226	229.930	-99.645	-95.467	-94.352	-88.576	77.969	-90.155	-8191	255	
14838.373	1	1	0	0	0.20314	0.38617	0.12126	0.11615	0.095594	0.1475	0.15309	0.10324	0.17654	0.22719	0.22129	0.090078	0.11284	0.15527	0.35716	0.2412	-2.3937	-2.4938	-2.8958	-2.7229	-2.7042	-3.0687	-2.7438	-2.9437	-2.7958	-2.4958	-3.025	-3.0125	-2.4708	-3.0917	-2.5521	-2.8604	116.835	-16.396	132.688	222.151	125.073	194.528	-93.121	169.879	5.826	141.621	231.126	156.577	222.538	-57.765	191.201	137.284	0.00089106	0.0041112	0.00066737	880.3	3.2069e-05	1.6716e-05	1098.8	182.19	2.3826e-05	3.2289e-05	308.15	124.27	65.977	22.415	9.1234e-06	49.551	0.023268	0.025145	0.007049	1402.8	0.0002729	0.00027778	1628.8	365.31	0.00027193	0.00027276	577.35	215.17	156.84	51.152	0.00026734	89.251	89.374	94.712	-96.849	-105.088	54.712	195.071	-105.429	-99.089	49.539	192.705	-99.457	-95.615	-94.260	-88.148	183.490	-90.399	-8191	255	
14838.469	1	1	0	0	0.051651	0.077962	0.13659	0.1954	0.27841	0.20347	0.18695	0.16868	0.14846	0.05806	0.044678	0.27501	0.15018	0.16259	0.11994	0.031789	-2.4208	-2.45	-2.7438	-2.875	-2.4562	-2.9458	-2.4771	-2.8812	-2.925	-2.5458	-2.9	-2.9146	-2.5958	-2.9688	-2.6333	-2.9125	47.165	48.378	-110.598	175.669	-14.906	188.298	241.953	207.942	98.775	30.140	180.726	-100.373	192.300	167.257	128.134	91.748	0.00039143	0.0017735	0.0005883	884.26	2.4348e-05	2.1459e-05	1099.4	182.32	1.0319e-05	2.3977e-05	306.35	124.4	65.935	22.114	2.896e-05	49.897	0.022503	0.024183	0.0067709	1378.8	0.00025936	0.00026365	1599.2	356.64	0.00025807	0.00026001	563.37	210.81	151.38	49.611	0.0002532	87.267	125.984	178.344	46.245	-105.159	25.310	196.737	-105.671	-99.298	-86.216	54.582	-99.866	-95.233	-94.765	-88.055	98.250	-90.024	-8191	255	
14838.590	1	1	0	0	0.041418	0.27639	0.12273	0.24834	0.26483	0.017623	0.025388	0.3663	0.060398	0.17791	0.19515	0.15596	0.2814	0.13338	0.25136	0.27133	-2.4292	-2.5583	-2.9646	-2.8521	-2.4729	-2.8875	-2.7562	-2.7542	-3.0125	-2.5146	-2.8729	-2.825	-2.5958	-2.9188	-2.5854	-2.6104	68.431	99.983	4.265	169.360	53.481	-98.423	-49.084	212.067	116.775	-81.597	177.257	204.523	90.313	190.288	231.197	169.495	0.00042749	0.0021247	0.00082347	876.63	2.5006e-05	2.5895e-05	1091.5	184.78	2.7408e-05	4.2583e-05	309.54	125.34	67.039	22.331	1.7819e-05	50.272	0.021385	0.023014	0.0064741	1349.7	0.00024829	0.00025378	1577.1	349.08	0.0002489	0.00025154	557.87	208.53	149.19	49.158	0.0002501	87.354	3.271	-96.383	-85.438	-105.515	-72.495	0.567	-105.341	-99.027	110.993	181.032	-99.462	-95.411	-94.198	-87.792	124.344	-89.716	-8191	255	
14838.686	1	1	0	0	0.25918	0.35173	0.053203	0.21139	0.062361	0.10554	0.25716	0.29405	0.11326	0.0339	0.018693	0.34576	0.052471	0.072915	0.21971	0.17936	-2.4021	-2.4542	-2.7229	-3.0667	-2.5042	-2.9521	-2.8146	-2.5104	-2.8646	-2.7271	-2.9604	-2.9667	-2.5292	-3.0687	-2.6479	-2.6271	81.759	-20.547	221.790	139.357	-18.041	238.835	199.792	232.415	43.238	225.929	-109.993	167.851	225.998	-28.129	132.757	65.960	0.0013476	0.0012067	0.00079663	882.11	1.4268e-05	2.3237e-05	1107	181	1.9574e-05	4.4842e-05	309.12	125.2	66.654	22.215	1.9248e-05	50.5	0.021279	0.022959	0.0064924	1353	0.0002495	0.00025675	1590.9	350.45	0.00025045	0.00025367	560.92	209.9	149.83	49.338	0.00025188	87.146	84.210	205.704	228.457	-105.215	193.642	155.983	-105.361	-99.025	1.728	-36.801	-99.424	-95.737	-94.217	-88.065	190.470	-90.002	-8191	255	
14838.782	1	1	0	0	0.14401	0.14399	0.17135	0.33471	0.17205	0.27569	0.37191	0.17007	0.13125	0.10015	0.21234	0.2076	0.078489	0.1867	0.19146	0.17583	-2.5208	-2.6396	-2.6542	-3.0396	-2.4583	-2.8958	-2.95	-2.6146	-3.1396	-2.6083	-2.8312	-2.9958	-2.5479	-2.8854	-2.7208	-2.7062	152.104	216.989	44.398	203.187	-24.467	-70.718	196.872	177.086	225.080	80.579	141.136	-83.569	64.833	229.148	125.118	172.239	0.00032648	0.0013006	0.00073471	885.46	2.3207e-05	2.3209e-05	1096.3	184.74	4.8176e-05	1.1401e-05	310.61	126.87	65.951	22.23	9.9498e-06	50.364	0.021316	0.022951	0.006494	1350.1	0.00024566	0.00025278	1582	346.44	0.00024522	0.00024866	555.61	208.11	147.46	48.809	0.0002469	86.278	187.515	126.239	0.219	-105.330	18.806	88.719	-105.278	-99.134	81.730	25.484	-99.867	-95.039	-93.568	-88.377	-94.035	-89.737	-8191	255	
14838.878	1	1	0	0	0.10359	0.17154	0.28647	0.21788	0.084781	0.34536	0.46956	0.089996	0.15705	0.11544	0.17196	0.038495	0.065437	0.14394	0.23668	0.30322	-2.475	-2.6625	-2.7479	-3.075	-2.4854	-2.9083	-2.8167	-2.7208	-3.0375	-2.8104	-2.7396	-3.0208	-2.55	-2.7687	-2.7396	-2.5812	10.273	204.789	185.278	-86.791	120.862	127.646	158.484	-38.152	60.482	233.840	-67.864	212.828	208.113	170.284	24.795	98.139	0.00045552	0.0022468	0.00066122	882.65	1.8237e-05	2.5112e-05	1101.5	183.55	2.4013e-05	1.1861e-05	314.46	127.14	66.691	22.456	2.6865e-05	50.576	0.020956	0.022695	0.0063656	1343.7	0.00024261	0.00025022	1574.7	344.75	0.0002432	0.00024645	553.88	207.28	146.71	48.464	0.00024267	85.653	194.905	45.142	-41.663	-105.105	-88.093	42.508	-105.430	-98.760	46.283	124.568	-99.587	-95.143	-94.089	-88.450	-64.904	-90.424	-8191	255	
14838.972	1	1	0	0	0.092401	0.21462	0.22517	0.32732	0.28066	0.13248	0.1773	0.23724	0.10581	0.31686	0.061415	0.046514	0.096029	0.028446	0.098142	0.038107	-2.3833	-2.7208	-2.5208	-3.0292	-2.4458	-2.7708	-3.0479	-2.5354	-2.9771	-2.6792	-2.5396	-3.1542	-2.5708	-2.8021	-2.8646	-2.5	233.843	127.869	227.387	-88.638	14.615	160.112	146.305	-96.556	204.961	100.212	146.280	198.281	204.689	87.732	25.766	-91.770	0.001554	0.00090473	0.00064611	885.12	1.9157e-05	1.4964e-05	1099.9	182.45	2.3814e-05	3.2202e-05	311.69	127.15	66.618	22.614	1.5264e-05	50.867	0.020509	0.022259	0.0062105	1334.2	0.00023876	0.00024713	1571.3	342.18	0.00024089	0.0002447	550.15	206.89	146.71	48.446	0.00024153	85.918	136.253	137.359	121.454	-105.391	-89.951	18.786	-105.447	-98.576	77.346	235.459	-99.499	-95.632	-94.106	-88.200	-43.885	-90.123	-8191	255	
14839.069	1	1	0	0	0.16836	0.24398	0.13893	0.1545	0.17573	0.023135	0.098901	0.22533	0.098326	0.14871	0.26965	0.10488	0.201	0.21846	0.20926	0.22968	-2.3875	-2.7854	-2.4271	-3.0312	-2.6813	-2.875	-3.0667	-2.5167	-2.7375	-2.6896	-2.5979	-3.2417	-2.5687	-2.7188	-2.6917	-2.5792	210.511	117.998	226.175	241.905	28.442	-87.238	9.451	196.474	180.523	-86.515	242.140	-99.853	202.657	-106.700	-71.337	151.574	0.00016521	0.004001	0.00030035	885.94	1.7059e-05	3.0242e-06	1111.5	183.81	1.9525e-05	4.0829e-05	314.12	127.08	66.915	22.501	1.5252e-05	50.829	0.020617	0.022231	0.0062206	1339	0.00024011	0.00024675	1577.1	343.42	0.00024103	0.00024496	550.38	206.94	146.47	48.242	0.00023977	85.518	40.528	116.930	-3.187	-105.165	98.841	226.960	-105.374	-98.664	-80.092	93.560	-99.173	-95.189	-94.537	-88.397	-80.063	-90.155	-8191	255	
14839.165	1	1	0	0	0.077401	0.12232	0.19248	0.10736	0.267	0.13931	0.094515	0.12903	0.22032	0.09915	0.084274	0.23474	0.16387	0.40869	0.20325	0.12675	-2.3688	-2.8146	-2.475	-2.9729	-2.6312	-2.7417	-3.1583	-2.6292	-2.6125	-2.8854	-2.7687	-3.0771	-2.7438	-2.8042	-3.0438	-2.8	125.274	13.787	-56.873	-93.335	185.315	-92.704	212.831	92.282	-13.187	-56.141	-48.902	-75.322	230.743	194.441	-79.228	137.943	0.0009145	0.0015728	0.00083725	889.99	1.6248e-05	2.5567e-05	1116.4	184.85	3.2988e-05	1.6636e-05	312.79	126.62	67.145	22.472	2.7717e-05	50.049	0.020447	0.021974	0.0060965	1334.3	0.0002361	0.00024259	1572.9	341.14	0.00023916	0.00024122	549.39	206.94	146.61	48.379	0.00024112	85.575	136.575	27.455	60.743	-105.130	-60.008	39.667	-105.649	-99.158	56.446	134.236	-99.617	-95.211	-94.068	-87.923	70.905	-90.117	-8191	255	
14839.285	1	1	0	0	0.043066	0.1551	0.11093	0.36116	0.28684	0.25945	0.23232	0.31885	0.21628	0.14761	0.19741	0.28355	0.093206	0.22302	0.22419	0.23928	-2.4479	-2.9125	-2.4604	-2.9458	-2.8292	-2.5542	-3.2896	-2.6063	-2.8333	-2.9667	-2.6417	-3.0812	-2.95	-2.6604	-3.1458	-2.7104	204.746	-91.862	97.103	174.889	87.617	-28.336	-116.276	110.780	46.146	-0.328	222.593	237.910	-13.341	237.942	195.989	180.236	0.00084521	0.0019453	0.00028631	892.84	2e-05	3.7588e-05	1109.6	184.6	2.4446e-05	1.628e-05	311.95	126.24	68.307	22.43	1.2414e-05	50.065	0.020698	0.022289	0.0061959	1345.6	0.00024237	0.00024706	1580	345.12	0.00024484	0.00024855	553.69	208.23	148.72	49.05	0.00024887	86.459	175.422	139.243	138.735	-105.605	131.506	-93.577	-105.653	-99.465	98.963	67.832	-99.984	-95.263	-95.257	-87.738	57.874	-90.490	-8191	255	
14839.381	1	1	0	0	0.14626	0.059338	0.32971	0.17974	0.1346	0.19596	0.20311	0.24071	0.027243	0.087625	0.30978	0.23233	0.27534	0.14247	0.10925	0.2852	-2.1188	-2.9313	-2.4458	-2.8771	-2.7854	-2.5917	-3.0458	-2.7375	-2.6917	-2.9583	-2.5271	-2.725	-2.8396	-2.6958	-2.9125	-2.6229	72.544	233.437	96.421	143.661	-98.674	194.726	206.983	92.944	144.970	208.280	236.510	220.402	86.022	225.812	85.625	197.033	0.00092629	0.0027808	0.00053225	896.41	5.8398e-06	2.9432e-05	1113.8	184.5	1.7051e-05	1.9513e-05	309.72	125.11	67.42	22.307	1.6081e-05	49.618	0.021285	0.022997	0.0063686	1365.4	0.00024861	0.00025382	1598.4	350.07	0.00025031	0.00025365	553.83	208.38	148.52	48.695	0.00024811	85.907	149.350	-4.718	-30.325	-105.259	81.697	-6.943	-105.458	-99.205	-29.249	118.202	-99.361	-95.722	-94.374	-87.926	117.423	-90.195	-8191	255	
14839.478	1	1	0	0	0.1292	0.21262	0.20209	0.17822	0.12206	0.27461	0.39535	0.040172	0.097142	0.24222	0.18553	0.5747	0.18775	0.2809	0.10571	0.23394	-2.2458	-2.9208	-2.5062	-2.9	-2.9458	-2.575	-3.0333	-2.6292	-2.4875	-2.9458	-2.4458	-2.6854	-2.875	-2.4458	-3.0396	-2.9021	60.646	-70.395	235.191	137.621	190.008	46.182	133.390	211.839	-49.429	-55.557	160.119	233.239	82.842	-108.826	200.725	-92.881	0.0016241	0.0031998	0.00054293	891.62	1.9349e-05	2.3763e-05	1103	184.34	2.0551e-05	9.3363e-06	310.72	125.79	65.926	22.239	1.8449e-05	50.28	0.02092	0.022566	0.0062646	1352.1	0.00024241	0.00024597	1578.5	343.37	0.00024115	0.00024316	545.23	205.45	145.45	47.738	0.00024002	84.883	136.844	-59.362	107.332	-105.367	121.637	167.343	-105.391	-99.126	-116.675	-47.229	-99.730	-95.164	-94.925	-88.200	-92.727	-90.426	-8191	255	
14839.574	1	1	0	0	0.1116	0.092857	0.21042	0.17228	0.056029	0.29391	0.18579	0.14022	0.17547	0.26154	0.24146	0.31229	0.05858	0.10328	0.21287	0.24579	-2.0292	-2.875	-2.45	-2.7313	-2.9125	-2.6083	-3.1542	-2.775	-2.5167	-3.0896	-2.7062	-2.8333	-2.9729	-2.5708	-3.0208	-2.8187	-115.815	57.454	-28.827	28.946	-2.908	207.588	156.652	64.066	108.997	150.775	-4.006	204.973	167.039	214.026	43.853	118.578	0.0018018	0.0011859	0.0008919	883.63	3.1644e-05	1.9751e-05	1102.1	183.8	9.1703e-06	3.57e-05	306.81	125.35	66.509	22.442	1.3953e-05	50.062	0.02019	0.021815	0.0060308	1325.1	0.00023399	0.00023581	1554.6	337.45	0.00023195	0.00023566	538.3	203.03	144.3	47.268	0.00023677	84.593	176.452	-75.981	135.381	-105.508	24.266	103.140	-105.369	-99.284	-112.437	-43.556	-99.204	-95.217	-94.314	-88.008	180.884	-90.163	-8191	255	
14839.670	1	1	0	0	0.12194	0.11528	0.21047	0.35468	0.12402	0.14651	0.10201	0.19051	0.2126	0.187	0.11371	0.079523	0.11229	0.040123	0.17542	0.070368	-2.0375	-2.9042	-2.4813	-2.6937	-3.0229	-2.675	-3.0125	-2.7875	-2.6271	-2.9646	-2.8854	-2.7958	-3.0646	-2.6813	-2.7604	-2.9313	132.053	-72.206	43.482	231.727	-91.186	-74.042	224.757	-94.138	-72.878	60.292	185.809	-25.721	-44.473	183.362	25.329	-47.433	0.00075277	0.001801	0.00087526	887.6	1.9748e-05	1.7377e-05	1107.9	183.37	1.5939e-05	1.0823e-05	309.34	126.38	67.247	22.38	2.9129e-05	50.413	0.020011	0.02184	0.0060655	1329.9	0.00023539	0.00023865	1567.5	339.82	0.00023504	0.00024055	543.96	204.54	145.31	47.573	0.00023869	85.046	118.045	-82.013	75.920	-105.434	-31.056	-67.623	-105.332	-98.591	208.825	176.457	-99.548	-95.224	-94.515	-87.781	63.321	-90.104	-8191	255	
14839.766	1	1	0	0	0.089137	0.23661	0.066707	0.07663	0.18446	0.14568	0.15276	0.162	0.2264	0.21879	0.294	0.17438	0.12914	0.26538	0.12377	0.092739	-2.0938	-2.9354	-2.5563	-2.6917	-3.0229	-2.4021	-2.9167	-2.9542	-2.4167	-2.9542	-2.8417	-2.675	-2.9667	-2.4562	-2.5958	-3.1021	-85.540	-73.421	47.566	145.484	-77.555	5.821	50.086	161.137	234.426	-86.890	-111.249	208.035	-113.687	189.776	172.921	164.093	0.00074791	0.0022493	0.00044442	886.83	1.3304e-05	7.6052e-06	1109.3	184.96	3.0688e-05	3.7859e-05	311.1	126.79	67.161	22.387	3.8931e-05	50.576	0.019956	0.021811	0.0060353	1323.8	0.0002329	0.00023569	1560.4	337.65	0.00023033	0.00023604	541.76	203.76	144.13	47.429	0.00023623	84.845	97.901	-96.520	-51.070	-105.492	84.901	48.412	-105.646	-99.444	-2.976	-29.541	-99.772	-95.555	-94.300	-87.066	28.672	-90.058	-8191	255	
14839.862	1	1	0	0	0.23852	0.096349	0.20897	0.12607	0.091845	0.21814	0.12263	0.10839	0.25524	0.25656	0.20292	0.15089	0.08785	0.16279	0.29396	0.28859	-2.025	-2.9146	-2.775	-2.6729	-2.8312	-2.5563	-2.9854	-3.0396	-2.4979	-2.9854	-2.975	-2.5896	-2.9917	-2.5979	-2.6688	-3.0625	-79.329	213.697	36.419	-90.357	-1.858	124.574	193.508	19.008	199.216	-69.643	215.376	56.617	-92.551	-78.143	-41.696	152.433	0.00089944	0.0010482	0.00055598	887.59	1.959e-05	1.4743e-05	1118.6	184.08	1.7941e-05	2.5303e-05	312.1	125.91	67.537	22.714	2.9557e-06	50.169	0.019969	0.021942	0.0061113	1336.5	0.00023784	0.00024227	1580.7	342.29	0.00023679	0.00024376	547.46	205.21	146.32	47.755	0.00024075	85.104	162.691	188.347	187.731	-105.323	-5.883	71.773	-105.147	-99.190	95.577	11.395	-99.549	-95.295	-94.453	-87.568	127.397	-89.855	-8191	255	
14839.958	1	1	0	0	0.13698	0.1143	0.15958	0.29103	0.23474	0.16901	0.19196	0.10687	0.41151	0.087414	0.1211	0.18652	0.25228	0.087745	0.1634	0.24615	-2.1146	-2.8729	-2.6708	-2.7271	-2.8229	-2.6333	-2.8625	-2.8833	-2.6917	-2.9375	-2.9979	-2.7104	-3.1292	-2.6542	-2.4708	-3.0521	35.863	133.072	-26.690	241.165	217.926	-32.686	118.901	159.404	204.576	-92.289	218.405	90.103	193.248	-16.628	169.174	207.328	0.0010946	0.0021006	0.00068189	897.53	4.9751e-06	1.4243e-05	1118.9	185.52	7.0899e-06	2.4111e-05	313.16	126.29	66.653	22.505	6.0199e-05	50.617	0.020194	0.022211	0.0061503	1340	0.00023841	0.00024113	1572.4	340.9	0.00023392	0.00023969	543.78	203.17	144.87	47.527	0.00023525	84.454	57.593	7.055	200.128	-105.371	189.873	-88.639	-105.511	-98.823	97.304	185.612	-99.142	-95.425	-93.915	-87.467	65.166	-89.991	-8191	255	
14840.077	1	1	0	0	0.23876	0.21568	0.15682	0.23021	0.081021	0.12804	0.08553	0.13451	0.05767	0.17807	0.087158	0.1777	0.058187	0.29686	0.1073	0.25034	-2.2313	-2.7646	-2.8604	-2.5604	-2.9604	-2.5896	-2.7146	-2.9333	-2.3937	-2.7104	-2.9938	-2.5583	-2.8812	-2.75	-2.6271	-3.1417	135.944	-59.039	23.188	130.101	131.823	109.546	-8.854	-77.150	-86.972	-104.999	219.349	132.485	169.983	165.773	178.716	209.701	0.00054183	0.0030466	0.00091144	892.95	1.2133e-05	1.3153e-05	1114.1	185.92	6.6662e-06	4.6132e-05	312.51	125.65	66.876	22.269	2.5682e-05	50.457	0.019927	0.021805	0.0060438	1329.2	0.00023535	0.00024063	1569.4	341.41	0.00023761	0.00024362	549.31	205.44	147.59	48.216	0.00024136	85.623	186.306	-113.926	130.024	-105.493	-79.435	97.435	-105.282	-98.873	160.758	221.674	-99.965	-95.502	-94.382	-88.458	158.020	-90.576	-8191	255	
14840.173	1	1	0	0	0.27757	0.19561	0.05633	0.22837	0.21968	0.12727	0.38061	0.34887	0.15889	0.22985	0.11803	0.11179	0.20133	0.12764	0.12539	0.1325	-1.9937	-2.8958	-2.8875	-2.6417	-3.0104	-2.8583	-2.5417	-2.9979	-2.625	-2.7208	-3.0208	-2.6021	-2.9771	-2.9	-2.475	-3.1333	74.733	81.793	239.802	192.789	-89.750	81.124	216.440	206.610	186.018	97.642	77.445	213.593	-85.543	121.076	160.547	189.247	0.0012187	0.00095807	0.00075361	892.96	7.1592e-06	2.3658e-05	1113.7	184.91	2.7546e-05	1.3129e-05	312.59	126.97	68.012	22.405	1.2733e-05	50.356	0.020449	0.022423	0.0062124	1338.6	0.00024067	0.00024431	1578.5	344.08	0.00023837	0.00024452	551.83	206.08	147.88	48.35	0.00024217	85.605	223.560	202.755	-30.939	-105.483	-84.257	174.028	-105.748	-99.515	-108.745	154.802	-99.696	-95.565	-94.569	-87.931	130.801	-89.950	-8191	255	
14840.270	1	1	0	0	0.14754	0.10388	0.081309	0.29653	0.19377	0.23461	0.15472	0.20222	0.14696	0.070714	0.044911	0.24793	0.13175	0.070441	0.074265	0.2171	-2.2146	-2.3854	-2.8354	-2.5042	-2.8521	-2.8229	-2.7021	-2.8937	-2.7833	-2.6	-3.0812	-2.7292	-2.7625	-2.8812	-2.3937	-3.0458	145.441	32.424	202.123	194.652	117.903	74.201	-52.308	152.961	-21.432	118.441	-95.339	217.681	46.682	-19.744	70.307	204.743	0.0012485	0.0049171	0.00036907	897.71	2.2596e-06	4.0683e-05	1116.1	184.95	2.0475e-05	2.9855e-05	310.4	126.18	66.569	22.307	1.1832e-05	49.875	0.020623	0.022416	0.00627	1352.7	0.00024482	0.00024873	1588.1	346.61	0.00024387	0.00024827	554.12	207.39	148.66	48.493	0.00024394	85.987	66.916	-55.509	-80.394	-105.597	-99.550	-74.307	-105.296	-98.899	233.451	226.865	-99.391	-95.097	-94.020	-88.110	-87.039	-90.123	-8191	255	
14840.366	1	1	0	0	0.22832	0.11143	0.10848	0.23131	0.27387	0.073033	0.46113	0.24716	0.30314	0.30531	0.20472	0.20232	0.21109	0.077548	0.11868	0.068581	-2.1771	-2.5583	-3.0167	-2.6125	-2.6875	-2.7917	-2.5625	-2.8458	-2.6562	-2.5354	-2.9542	-2.6229	-2.8563	-2.7979	-2.5167	-2.9396	65.550	-98.629	25.470	188.888	-108.510	101.035	150.791	230.972	101.172	126.571	171.712	180.451	-83.643	-57.404	97.250	149.851	0.00064092	0.0012035	0.001052	893.41	1.2733e-05	2.0004e-05	1112	184.67	3.0514e-05	2.5545e-05	308.85	125.78	66.586	22.1	2.4527e-05	49.98	0.020663	0.022474	0.0062273	1343.6	0.000241	0.00024407	1572.6	342.69	0.00023707	0.00023984	543.02	203.71	145.26	47.485	0.00023522	84.627	92.478	215.343	13.258	-105.425	-20.147	-34.186	-105.613	-99.069	215.021	-37.503	-99.947	-95.359	-94.260	-87.451	111.041	-90.086	-8191	255	
14840.462	1	1	0	0	0.17479	0.068831	0.1606	0.045512	0.30322	0.033407	0.29601	0.25026	0.1257	0.13832	0.20238	0.25065	0.27257	0.079972	0.095662	0.10124	-2.4313	-2.5146	-3.0354	-2.6771	-2.6479	-2.8812	-2.775	-2.7333	-2.7687	-2.4979	-3.0396	-2.8458	-2.7875	-3.1458	-2.5417	-2.8229	201.699	33.748	-110.699	204.094	-71.231	-41.641	176.741	147.166	-12.557	81.395	234.690	165.773	172.555	-90.485	22.280	144.376	0.00053352	0.0011023	0.0004413	885.67	1.3347e-05	1.9349e-05	1105.8	183.77	1.48e-05	1.5406e-05	310.21	126.03	66.647	22.279	2.952e-05	49.665	0.020036	0.021582	0.0060413	1322.1	0.00023415	0.00023777	1555.6	339.06	0.00023489	0.00023814	543.58	203.54	145.28	47.644	0.0002347	84.531	128.535	-78.857	204.366	-105.241	135.193	-9.439	-105.365	-99.325	166.458	6.743	-99.647	-95.355	-94.790	-87.849	117.276	-90.379	-8191	255	
14840.558	1	1	0	0	0.15229	0.22751	0.16614	0.34399	0.24763	0.051823	0.29478	0.27544	0.35633	0.11488	0.34307	0.24051	0.072975	0.135	0.13577	0.3019	-2.3667	-2.375	-2.8979	-2.7229	-2.6104	-2.8875	-2.7104	-2.7417	-2.8125	-2.4562	-2.9292	-2.8917	-2.8146	-3.0042	-2.6792	-2.9917	37.334	-42.688	-95.795	204.646	72.355	126.454	159.434	147.941	148.631	-75.225	194.793	201.474	174.546	207.576	74.854	211.586	0.001269	0.00096342	0.00079281	883.54	3.1879e-05	2.9351e-05	1109.3	184.99	2.3018e-05	5.4724e-06	310.85	124.76	66.125	22.14	8.2557e-06	50.145	0.019915	0.021471	0.0060285	1317.3	0.00023266	0.0002366	1552	338.39	0.00023288	0.00023565	541.88	202.91	143.66	47.358	0.00023469	84.484	99.803	-27.700	239.304	-105.262	-113.476	12.702	-105.356	-99.158	12.964	-94.110	-99.339	-95.109	-94.507	-87.591	148.618	-89.935	-8191	255	
14840.679	1	1	0	0	0.018699	0.093123	0.17525	0.05676	0.11804	0.048162	0.059582	0.11691	0.42657	0.15484	0.13195	0.099303	0.127	0.09369	0.17178	0.17798	-2.4396	-2.4292	-2.8854	-2.9042	-2.6417	-2.8708	-2.7042	-2.7271	-2.8937	-2.4333	-2.8875	-2.8729	-2.4771	-3.225	-2.7104	-2.6958	11.017	-38.109	231.858	-97.041	66.474	95.130	122.752	177.439	-47.741	55.994	-93.346	239.327	109.413	75.844	112.267	-116.180	0.00089077	0.00061917	0.00032909	878.24	6.3015e-06	6.2117e-06	1108.4	183.72	1.0161e-05	4.3412e-05	308.8	125.35	66.491	21.972	4.053e-05	49.856	0.019952	0.02142	0.0060439	1315.3	0.00023245	0.00023738	1552.6	339.41	0.00023402	0.00023709	542.66	203.55	144.34	47.554	0.00023613	84.615	98.591	37.741	78.866	-105.310	29.458	-10.269	-105.315	-99.201	211.466	224.068	-99.830	-95.440	-94.409	-88.213	-84.902	-90.080	-8191	255	
14840.773	1	1	0	0	0.12604	0.073505	0.079041	0.008101	0.18764	0.072098	0.18317	0.2772	0.13501	0.27028	0.17771	0.12099	0.1163	0.13923	0.27869	0.35862	-2.2271	-2.6042	-2.6375	-3.0583	-2.4667	-2.9729	-2.8375	-2.7979	-2.8833	-2.5312	-2.775	-2.9292	-2.5479	-2.8667	-2.6521	-2.6271	-70.389	59.799	199.314	19.997	-7.499	180.409	188.433	93.360	215.818	-7.908	153.098	141.657	20.127	148.890	128.814	183.295	0.00060791	0.0052319	0.00045701	876.79	1.6777e-05	1.4532e-05	1104.7	183.32	1.5348e-05	1.0261e-05	305.12	124.41	66.261	22.077	3.4249e-05	49.765	0.020107	0.021598	0.0060899	1319	0.00023441	0.00023935	1552.7	338.64	0.00023518	0.00023755	542.11	202.42	143.78	47.295	0.00023637	83.978	135.597	106.558	-71.433	-105.653	45.204	188.289	-105.248	-98.822	177.616	154.521	-99.789	-95.245	-94.373	-87.572	145.775	-90.148	-8191	255	
14840.869	1	1	0	0	0.12989	0.15249	0.14546	0.069829	0.11139	0.1399	0.23509	0.2321	0.079272	0.23878	0.097262	0.31531	0.17602	0.054393	0.1817	0.137	-2.5583	-2.4229	-2.8104	-2.7104	-2.5208	-3.0333	-2.9542	-2.6292	-3.0104	-2.5208	-2.7583	-3.025	-2.6646	-3.0563	-2.7562	-2.7396	2.939	159.240	-102.121	41.762	120.805	169.887	134.824	228.975	159.235	126.751	169.682	187.254	164.603	94.047	53.080	175.577	0.00054828	0.0018376	0.0013677	881.76	1.7888e-05	1.0609e-05	1096.1	183.25	1.553e-05	2.0674e-05	305.69	123.79	65.819	22.097	1.8432e-05	49.187	0.020102	0.0217	0.0061161	1324.5	0.00023738	0.00024475	1562.9	341.99	0.00024245	0.00024566	549.6	205	147.08	48.5	0.00024773	85.435	107.175	65.324	9.364	-105.187	81.112	-41.633	-105.245	-99.296	-105.745	116.886	-99.244	-95.424	-95.119	-87.723	48.193	-89.782	-8191	255	
14840.943	1	1	0	0	0.12247	0.23257	0.13456	0.16227	0.12156	0.1196	0.17768	0.14564	0.26285	0.078313	0.29494	0.18152	0.12092	0.24501	0.06451	0.067435	-2.4396	-2.6958	-2.6917	-3.2438	-2.4292	-2.7667	-2.9021	-2.5083	-3.0583	-2.5854	-2.8708	-3.0438	-2.5042	-2.9292	-2.9208	-2.6833	147.142	20.824	165.328	213.137	55.771	122.888	159.207	-68.557	189.814	241.259	-25.868	208.296	-21.105	202.664	108.727	174.234	0.00086763	0.0030548	0.00087503	878.75	2.3204e-05	5.2331e-06	1099.1	181.76	4.5923e-06	1.1487e-05	302.75	123.29	65.513	21.659	3.9439e-05	49.438	0.021055	0.022764	0.0063839	1339.7	0.00024506	0.00025257	1577.1	344.56	0.00024726	0.00024988	552.1	205.66	147.01	48.434	0.00024787	85.093	150.240	80.727	61.230	-105.567	169.059	-97.476	-105.283	-99.672	209.813	-41.664	-99.730	-95.149	-94.238	-87.955	35.652	-90.079	-8191	255	
14841.061	1	1	0	0	0.14871	0.14897	0.042581	0.07463	0.21897	0.13804	0.14252	0.27068	0.29494	0.034316	0.23061	0.15445	0.14038	0.066693	0.11658	0.17757	-2.5729	-2.7062	-2.6833	-3.0896	-2.5875	-2.7333	-3.1771	-2.525	-2.9625	-2.6667	-2.7083	-3.1479	-2.7292	-2.9042	-2.7687	-2.7458	110.594	92.342	72.394	155.915	-77.450	15.316	153.390	194.195	-88.014	118.805	93.174	146.346	169.670	187.707	167.455	217.709	0.00054239	0.0026304	4.449e-05	875.15	1.3976e-06	2.0236e-05	1101	182.67	2.6959e-05	2.0841e-05	307.58	123.81	65.678	21.54	4.1539e-06	48.853	0.020889	0.022498	0.0062984	1330.6	0.00024074	0.00024603	1562.3	339.96	0.00024025	0.00024303	545.43	203.97	145.45	47.903	0.00024446	84.51	113.579	-109.356	31.437	-105.437	-10.495	52.998	-105.501	-98.964	36.168	171.520	-99.933	-95.128	-94.292	-88.113	22.159	-90.174	-8191	255	
14841.158	1	1	0	0	0.22106	0.23505	0.095665	0.10351	0.085092	0.087611	0.12739	0.0091073	0.11488	0.1434	0.20751	0.23203	0.11804	0.22581	0.21547	0.21631	-2.3688	-2.6729	-2.6104	-3.1458	-2.7396	-2.8896	-3.1625	-2.5958	-2.6917	-2.7687	-2.6188	-3.0687	-2.5771	-2.5771	-2.8604	-2.4062	-115.995	128.221	118.516	-66.534	-107.651	206.834	120.040	215.938	220.708	-20.026	155.390	155.365	204.466	235.991	48.645	186.611	0.00096772	0.00050155	0.00075054	880.41	1.514e-05	1.8915e-05	1097.9	180.57	2.2687e-05	3.3399e-06	303.07	123.08	65.278	21.979	3.3865e-05	49.082	0.020825	0.022592	0.0063067	1339.6	0.0002428	0.00025016	1569.8	342.1	0.00024545	0.00024879	547.28	204.71	146.52	48.258	0.00024631	84.66	23.990	124.071	148.210	-105.307	-66.510	-35.370	-105.510	-99.633	78.855	33.919	-99.586	-95.430	-94.844	-87.485	200.424	-90.175	-8191	255	
14841.254	1	1	0	0	0.091283	0.27798	0.027969	0.12402	0.25246	0.032484	0.19761	0.1425	0.10195	0.080889	0.31642	0.025955	0.29411	0.10316	0.16018	0.22181	-2.4979	-2.7062	-2.4708	-3.1813	-2.8208	-2.6042	-3.1271	-2.6375	-2.8667	-2.8812	-2.6042	-2.9042	-2.7917	-2.5479	-2.9562	-2.4813	-34.015	84.015	-21.692	134.797	33.636	120.636	176.803	-34.574	78.644	-42.029	195.662	-100.229	-116.593	114.807	-1.343	222.567	0.0011979	0.0032759	0.00097733	883.25	3.3062e-05	1.2097e-05	1096.4	180.35	2.6397e-05	1.0712e-05	303.99	122.97	65.148	21.906	2.4239e-05	49.01	0.021064	0.022802	0.0063465	1349.3	0.00024589	0.00025266	1576.2	343.36	0.00024701	0.00025072	548.58	205.12	147.56	48.408	0.00024826	84.936	75.895	-36.482	88.642	-105.280	52.771	69.103	-105.380	-98.884	153.308	166.598	-99.310	-95.292	-94.204	-88.347	12.359	-90.160	-8191	255	
14841.350	1	1	0	0	0.14996	0.2141	0.28043	0.21823	0.16707	0.045751	0.051147	0.32554	0.11711	0.17904	0.15851	0.38793	0.077938	0.18186	0.1273	0.072035	-2.2375	-2.9979	-2.4146	-2.9562	-2.8021	-2.6208	-3.1729	-2.6604	-2.7646	-2.9083	-2.6312	-2.8896	-2.6896	-2.65	-2.8417	-2.7438	237.160	183.116	225.995	235.586	221.034	235.061	111.483	198.380	180.618	11.775	144.016	131.661	145.444	58.863	98.247	117.604	0.0013359	0.0040701	0.0010079	885.82	1.11e-05	1.0184e-05	1103.9	182.12	1.6998e-05	4.1505e-05	309.99	124.18	66.749	22.153	2.6181e-05	49.266	0.021236	0.022966	0.0063981	1354.5	0.00024884	0.00025557	1590.4	347.85	0.00025176	0.00025472	555.01	207.6	149.39	48.745	0.00025088	85.607	113.995	-69.290	102.181	-105.403	153.437	231.417	-104.963	-98.813	-1.941	-92.101	-99.700	-95.241	-94.230	-87.801	81.495	-89.901	-8191	255	
14841.471	1	1	0	0	0.12838	0.24775	0.10252	0.23402	0.091034	0.31249	0.13827	0.25782	0.28183	0.051466	0.16851	0.16925	0.1432	0.011039	0.1643	0.039581	-2.3771	-2.8417	-2.5229	-3.0042	-2.5187	-2.5979	-3.0625	-2.7792	-2.6271	-2.9021	-2.4854	-2.7229	-2.6729	-2.5583	-2.9042	-2.6167	190.131	-109.191	-7.687	65.650	-95.853	237.753	242.294	188.926	108.810	27.803	-115.666	201.412	231.381	-59.640	100.640	59.804	0.00077212	0.0016011	0.00034139	889.56	4.9232e-05	2.2324e-05	1110.1	182.3	3.8656e-05	1.6478e-05	307.76	124.82	66.111	21.87	3.1347e-05	49.325	0.021453	0.023153	0.0064313	1366.2	0.00025202	0.00025715	1602.5	351.8	0.00025712	0.00026101	563.73	211.41	152.57	49.707	0.00026025	87.069	144.465	-12.039	-78.394	-105.421	-46.080	-14.051	-105.137	-98.859	161.289	49.322	-99.680	-95.353	-94.460	-88.989	189.742	-90.048	-8191	255	
14841.542	1	1	0	0	0.19539	0.1413	0.22736	0.28211	0.049611	0.29093	0.16717	0.20605	0.21419	0.31087	0.22377	0.019394	0.18871	0.22592	0.29358	0.12929	-2.3479	-2.8521	-2.5812	-3.0563	-2.8875	-2.5146	-3.1292	-2.7896	-2.4292	-3.0563	-2.6458	-2.8583	-2.8958	-2.5833	-3.05	-2.7771	213.171	81.116	149.079	198.031	34.456	128.373	-110.881	112.242	180.863	-102.886	168.274	171.851	181.027	166.681	-8.429	120.339	0.00093062	0.0031532	0.00043192	896.03	2.3559e-05	2.6768e-05	1103.4	181.71	1.373e-05	5.1604e-05	305	122.56	65.898	22.145	1.6053e-05	48.473	0.021933	0.023573	0.0065213	1369.2	0.00025291	0.00025755	1602.2	351.36	0.00025488	0.00025897	558.87	209.08	150.9	49.312	0.0002566	86.242	162.529	-53.941	179.223	-105.562	47.731	22.909	-105.350	-99.129	115.824	35.735	-99.883	-95.806	-94.318	-88.110	-90.587	-89.768	-8191	255	
14841.638	1	1	0	0	0.011987	0.073394	0.17724	0.34785	0.1581	0.22408	0.14196	0.029918	0.34912	0.094679	0.11636	0.24547	0.17635	0.19152	0.19378	0.091039	-2.1542	-2.9521	-2.6312	-2.9521	-2.9896	-2.3833	-3.1146	-2.6854	-2.5062	-3.0708	-2.7562	-2.8146	-2.9417	-2.5375	-3.0021	-2.8937	94.192	-115.415	-82.457	147.576	22.682	97.133	181.838	219.653	76.802	-94.752	63.971	-106.998	236.162	21.734	-105.795	202.556	0.00078889	0.0021256	0.00056042	885.61	2.0068e-05	2.3475e-05	1109.4	183.41	1.2455e-05	2.6298e-05	309.02	123.37	65.918	21.982	4.3202e-06	48.941	0.021628	0.023398	0.0064737	1363.5	0.00025044	0.0002527	1592.7	348.74	0.00024912	0.00025314	552.36	207.08	148.89	48.622	0.00025006	85.517	122.269	-54.289	169.444	-105.408	-52.326	-69.736	-105.480	-99.197	80.170	217.928	-99.906	-95.360	-93.851	-87.967	-17.790	-90.141	-8191	255	
14841.759	1	1	0	0	0.18599	0.16028	0.11392	0.10737	0.11374	0.26809	0.25549	0.11577	0.18537	0.099857	0.12222	0.30523	0.083537	0.20934	0.17708	0.22275	-2.0333	-2.9062	-2.4646	-2.8333	-3.0375	-2.4375	-2.9208	-2.8354	-2.65	-3.0083	-2.6604	-2.6771	-2.9625	-2.575	-2.7083	-3	232.945	142.203	-96.037	238.214	159.744	135.011	188.196	157.518	105.757	144.184	169.598	219.903	162.415	17.547	206.696	-84.773	0.00070742	0.0015473	0.0014675	889.38	1.3177e-05	3.0356e-06	1105.9	183.35	1.9635e-05	2.3547e-05	304.8	124.86	65.882	22.214	3.9898e-05	49.523	0.021067	0.022902	0.0063769	1358.5	0.00024783	0.00025179	1591.9	348.6	0.00024758	0.00025271	552.33	207.22	148.11	48.308	0.00024744	85.266	155.495	241.131	109.824	-105.415	63.912	160.805	-105.782	-98.935	34.877	-6.706	-99.893	-95.360	-94.290	-88.007	67.352	-90.173	-8191	255	
14841.853	1	1	0	0	0.029743	0.29448	0.16389	0.19136	0.22489	0.099492	0.38673	0.064909	0.24963	0.1409	0.24333	0.12149	0.17399	0.062427	0.062731	0.21314	-2.0083	-2.95	-2.65	-2.7583	-3.0875	-2.6	-3.0292	-2.8708	-2.5104	-3.0271	-3.0229	-2.8688	-3.0875	-2.7333	-2.7958	-2.8167	212.888	212.027	-17.005	184.081	-91.666	97.591	186.318	95.956	-64.521	-4.416	59.562	171.438	176.610	144.558	-102.004	220.459	0.0013086	0.0024831	0.00046285	891.31	1.5691e-05	1.5286e-05	1115.5	182.89	4.0933e-05	1.5589e-05	306.82	125.35	66.698	22.217	2.4839e-05	49.014	0.020763	0.022615	0.0062796	1349.9	0.00024422	0.00024759	1593.1	346.79	0.00024466	0.00025051	553.66	207.23	148.67	48.618	0.00025144	85.844	138.505	-79.861	240.447	-105.501	33.309	-26.930	-105.562	-99.289	182.875	80.978	-99.742	-95.155	-94.534	-88.614	-44.689	-90.052	-8191	255	
14841.951	1	1	0	0	0.14854	0.074932	0.32648	0.23254	0.07692	0.085265	0.22236	0.085369	0.17007	0.12165	0.043132	0.28209	0.045031	0.21605	0.11555	0.29648	-1.9917	-3.0083	-2.675	-2.7479	-3.025	-2.6875	-2.925	-3	-2.4958	-2.9375	-2.95	-2.5854	-3.1021	-2.5833	-2.7875	-3.0042	-27.583	192.810	150.165	171.761	34.562	-64.791	194.056	-72.672	-61.897	119.954	173.113	-104.181	77.786	-52.450	217.992	228.690	0.0016762	0.0047183	0.00057433	895.5	5.5245e-05	9.0979e-06	1115.3	184.46	4.1427e-05	2.0052e-05	305.65	123.23	66.631	22.003	3.095e-05	49.653	0.02111	0.023114	0.0064434	1364.2	0.00024865	0.00025261	1594.7	347.1	0.00024377	0.00024936	550.21	205.36	147.48	48.145	0.00024706	85.211	140.969	21.916	180.633	-105.331	40.242	14.566	-105.719	-99.026	12.036	139.928	-99.962	-95.843	-93.923	-88.042	-5.218	-89.860	-8191	255	
14842.070	1	1	0	0	0.17476	0.34566	0.20562	0.19678	0.27572	0.14584	0.32564	0.21213	0.15925	0.095887	0.13229	0.17535	0.17252	0.10399	0.17751	0.096658	-2.2062	-2.7	-2.7958	-2.6417	-2.9708	-2.6479	-2.6979	-3.0187	-2.5083	-2.8312	-2.8521	-2.675	-2.875	-2.9146	-2.6729	-2.975	237.063	-62.005	242.359	202.536	112.048	24.712	158.482	144.110	-41.012	-61.240	-4.363	-113.860	117.345	21.917	-31.509	217.620	0.00037567	0.0016391	0.00072509	893.8	1.5884e-05	2.7387e-05	1111	184.03	1.1938e-05	2.6556e-05	308.43	126.17	65.372	22.099	4.0604e-05	49.916	0.020728	0.022756	0.0063314	1348.2	0.00024566	0.0002484	1589.4	345.47	0.00024273	0.00024971	551.56	206.38	147.54	48.365	0.00024463	85.435	71.830	196.010	228.970	-105.204	85.754	62.410	-105.550	-98.980	174.617	50.582	-99.981	-95.452	-94.377	-87.913	85.607	-90.308	-8191	255	
14842.142	1	1	0	0	0.053533	0.15129	0.13688	0.33293	0.10692	0.12724	0.34348	0.17725	0.092939	0.03129	0.40387	0.090771	0.14311	0.13268	0.18647	0.26209	-2.0896	-2.7938	-2.7583	-2.6146	-3.0396	-2.6667	-2.8271	-3.1521	-2.625	-2.7021	-2.8646	-2.7458	-2.9146	-2.9854	-2.7333	-2.8917	-79.348	149.543	203.089	230.858	-73.241	108.620	201.958	203.107	144.790	13.980	-99.109	-89.183	-111.712	201.337	27.427	166.024	0.0014562	0.00078453	0.00072714	887.28	6.284e-06	3.8013e-05	1116.8	185.09	1.8253e-05	2.458e-05	310.93	126.39	67.023	22.57	4.1023e-05	50.537	0.02052	0.022501	0.006223	1338	0.00024121	0.00024463	1581.3	344.76	0.00023936	0.00024654	551.26	205.77	147.57	48.4	0.00024378	85.79	55.154	-103.658	-58.512	-105.149	160.680	223.518	-105.576	-98.560	59.964	146.215	-99.412	-95.583	-94.649	-87.687	-19.179	-89.775	-8191	255	
14842.238	1	1	0	0	0.30133	0.061011	0.20252	0.32761	0.11765	0.030702	0.13089	0.088711	0.06927	0.087391	0.23484	0.21435	0.18172	0.17414	0.084258	0.35254	-2.1458	-2.7313	-2.8458	-2.5417	-2.9458	-2.7833	-2.7229	-3.1188	-2.6875	-2.7687	-3.0896	-2.6813	-2.9833	-2.8542	-2.4396	-3.1146	-80.657	41.149	-51.126	164.418	208.762	-100.922	110.549	149.501	-20.592	46.140	223.924	174.755	-109.143	-100.729	60.355	164.047	0.0013696	0.00017711	0.0015672	900.11	4.1028e-05	2.8466e-05	1118.7	185	1.3795e-05	1.7467e-05	310.34	126.38	66.647	21.858	2.5921e-05	50.064	0.020564	0.022518	0.0062465	1348.2	0.0002429	0.00024693	1588.4	346.62	0.00024163	0.00024745	552.36	206.48	148.11	48.324	0.00024382	85.297	86.318	122.419	39.684	-105.057	-5.399	53.003	-105.435	-99.000	174.533	30.653	-99.916	-95.620	-94.636	-88.360	98.240	-90.008	-8191	255	
14842.359	1	1	0	0	0.11479	0.17629	0.29214	0.23842	0.091316	0.28403	0.21458	0.28623	0.23782	0.042523	0.17992	0.085564	0.14835	0.15501	0.096974	0.16104	-2	-2.6312	-2.9188	-2.5021	-3.0021	-2.8229	-2.8063	-3.1354	-2.6729	-2.5917	-3.0917	-2.6333	-2.9062	-2.875	-2.5187	-2.8958	172.139	81.713	-70.864	202.640	-35.284	-83.886	132.261	-13.853	62.969	150.786	180.457	214.327	-103.763	69.460	-15.593	155.979	0.00067677	0.00079575	0.0002386	891.39	1.8887e-05	2.9706e-06	1121.1	185.58	1.6898e-05	2.9137e-05	307.11	125.28	66.985	22.244	3.4764e-05	49.619	0.020637	0.022521	0.0062646	1349.6	0.00024268	0.00024521	1579.6	343.11	0.00023927	0.00024291	547.01	203.65	146.18	47.535	0.00023783	84.371	127.656	54.800	19.550	-105.366	143.705	-4.802	-105.594	-99.381	1.527	58.587	-99.542	-95.548	-94.210	-87.439	-67.069	-90.049	-8191	255	
14842.455	1	1	0	0	0.15884	0.08167	0.25883	0.25459	0.26776	0.10594	0.38155	0.21152	0.080139	0.15016	0.06523	0.12712	0.27101	0.067968	0.22563	0.34646	-2.4271	-2.3063	-2.8438	-2.5563	-2.7167	-2.9979	-2.5708	-2.9875	-2.7542	-2.5375	-3.2062	-2.6542	-2.6958	-2.9479	-2.6667	-2.8375	21.590	235.601	41.797	237.693	139.783	202.862	154.140	-8.402	151.574	178.778	117.840	126.306	-36.808	-58.478	10.105	215.169	0.0007944	0.0021523	0.00096831	895.81	8.1841e-06	2.9021e-05	1119.7	185.3	2.3051e-05	2.6186e-05	310.66	126.52	67.199	22.179	2.5125e-05	50.04	0.02016	0.021907	0.006129	1339.5	0.00023852	0.00024304	1577.8	343.76	0.00023872	0.00024209	547.23	204.8	146.88	47.923	0.00023885	84.985	122.042	48.783	-1.355	-104.990	96.018	33.982	-105.548	-99.271	-32.998	-23.836	-99.688	-95.485	-94.676	-87.832	83.193	-90.119	-8191	255	
14842.551	1	1	0	0	0.12237	0.24807	0.15183	0.28777	0.13974	0.17001	0.15801	0.051197	0.13055	0.17504	0.17546	0.13515	0.27653	0.16035	0.13681	0.186	-2.3833	-2.4771	-2.9292	-2.6562	-2.5792	-2.8917	-2.6437	-2.8771	-2.775	-2.5938	-3.0563	-2.8583	-2.8354	-3.0479	-2.6042	-2.8521	74.056	-13.600	108.189	216.345	144.839	77.058	190.963	181.624	-84.260	73.574	-90.775	222.783	168.347	234.527	107.249	233.713	0.0005074	0.0010109	0.00042451	900.36	2.2298e-05	1.655e-05	1121.3	184.64	6.5786e-06	9.6688e-06	312.51	125.86	67.501	22.508	4.1085e-05	50.415	0.020345	0.021997	0.0061344	1342.1	0.00023887	0.00024316	1577.4	344.64	0.00023942	0.00024249	549.58	205.42	147.29	48.183	0.00023851	85.385	-106.162	-81.038	-6.361	-105.671	110.339	41.756	-105.426	-99.050	20.207	-58.536	-99.784	-95.570	-94.700	-87.748	76.812	-90.181	-8191	255	
14842.647	1	1	0	0	0.13694	0.2544	0.37447	0.20005	0.13125	0.086039	0.37319	0.30867	0.19069	0.055543	0.22067	0.34293	0.077395	0.1053	0.23442	0.22211	-2.25	-2.4875	-2.9208	-2.7188	-2.6146	-2.9313	-2.4979	-2.7583	-2.7292	-2.6625	-2.9771	-2.9854	-2.5146	-3.0646	-2.5292	-2.9938	95.852	-116.761	194.992	163.469	201.805	240.145	198.481	81.245	39.713	-58.693	214.657	168.627	32.451	-5.202	136.815	126.899	0.00067638	0.0024833	0.00058423	903.14	1.1593e-05	1.3051e-05	1124.1	186.93	2.2384e-05	2.2805e-05	309.96	126.4	67.478	22.553	3.0147e-05	50.283	0.020375	0.022021	0.0061783	1349.3	0.00023914	0.00024425	1583.7	345.16	0.00023869	0.00024138	549.4	205.68	146.52	48.057	0.00023914	85.101	92.492	-73.062	241.934	-105.348	49.307	193.069	-105.340	-99.273	19.067	-11.545	-100.073	-95.436	-94.237	-87.977	183.581	-90.208	-8191	255	
14842.766	1	1	0	0	0.2706	0.10821	0.2285	0.049025	0.4852	0.15529	0.22759	0.2508	0.1518	0.33064	0.35081	0.41625	0.185	0.12026	0.14879	0.18365	-2.4958	-2.5083	-2.8688	-2.8854	-2.6708	-2.8854	-2.8083	-2.8542	-2.9479	-2.5729	-3.0583	-2.8542	-2.6021	-2.9938	-2.4354	-2.6688	61.393	61.383	213.696	-61.280	206.228	168.518	81.843	169.615	-84.601	215.158	242.558	214.060	-93.191	204.292	150.595	-108.375	0.00092656	0.0033474	0.0002808	903.82	2.3274e-05	2.6523e-06	1114.2	186.2	1.7371e-05	2.1328e-05	310.46	125.65	66.903	22.258	5.8449e-05	50.096	0.020437	0.02195	0.0061803	1352.2	0.00023841	0.00024442	1578.3	345.42	0.00023896	0.00024109	549.11	205.05	146.57	48.092	0.00024068	85.251	111.664	-11.348	-5.008	-105.509	-73.823	-16.731	-105.869	-99.404	140.993	81.848	-99.592	-95.618	-94.771	-87.722	101.884	-90.094	-8191	255	
14842.839	1	1	0	0	0.24872	0.31742	0.17746	0.14767	0.24572	0.17282	0.21212	0.29392	0.33435	0.27808	0.29024	0.022477	0.085716	0.087667	0.28773	0.11532	-2.3833	-2.4688	-2.8896	-2.8458	-2.6771	-3.0312	-2.6958	-2.8729	-3.0771	-2.5312	-2.8792	-3.0938	-2.5729	-3.1875	-2.7146	-2.725	212.298	161.906	-22.504	140.732	157.787	45.231	197.116	4.031	-38.403	-86.989	196.759	209.082	216.406	-112.754	-74.880	186.740	0.00057108	0.0015422	0.00074648	903.56	1.2356e-05	1.6481e-05	1116.6	186.76	1.474e-05	3.4075e-05	311.29	126.5	68.096	22.404	1.6267e-05	50.264	0.02051	0.022074	0.0062414	1350.5	0.00023914	0.00024496	1582.1	346.45	0.00023826	0.00024186	551.7	206.38	146.97	48.364	0.00024239	85.504	210.587	-99.393	-66.581	-105.054	48.489	139.887	-105.223	-99.734	102.080	-113.917	-99.840	-95.459	-94.569	-87.632	138.134	-90.081	-8191	255	
14842.936	1	1	0	0	0.18883	0.11545	0.22315	0.21182	0.19827	0.13647	0.22599	0.05256	0.2046	0.20278	0.11995	0.18576	0.22416	0.097642	0.28517	0.26011	-2.65	-2.5646	-2.7958	-3.0271	-2.4979	-2.8854	-2.8771	-2.475	-2.9938	-2.7396	-2.8083	-2.9813	-2.5792	-3.1042	-2.8167	-2.6562	157.904	109.469	160.352	-103.744	-85.048	140.418	214.819	0.092	47.211	226.279	223.846	-41.541	225.668	-28.157	110.125	104.105	0.00065898	0.0019845	0.00077637	902.81	8.2424e-07	4.6234e-05	1122.5	186.33	1.715e-05	4.6537e-05	311.17	126.7	67.698	22.411	1.1449e-05	49.999	0.020627	0.02223	0.006282	1356.4	0.00024123	0.00024823	1596.6	348.76	0.00024414	0.00024688	558.52	208.35	148.53	48.901	0.00024677	86.082	226.817	159.444	-99.236	-104.961	-80.981	27.583	-105.510	-99.097	66.996	52.760	-99.707	-95.773	-94.402	-87.885	-44.497	-90.209	-8191	255	
14843.032	1	1	0	0	0.048115	0.099995	0.2479	0.074455	0.25531	0.1688	0.10714	0.091534	0.21258	0.16212	0.12645	0.063365	0.23442	0.16295	0.080382	0.11357	-2.6396	-2.5083	-2.6333	-3.0854	-2.5375	-2.8292	-2.8083	-2.5458	-3.0167	-2.725	-2.7438	-3.0312	-2.5083	-2.9021	-2.9042	-2.7354	192.697	67.523	8.680	55.157	168.027	220.699	173.442	-98.928	-88.160	-96.946	215.094	236.771	154.693	-78.952	-18.025	-26.562	0.00058333	0.0037227	0.0007715	893.08	1.5312e-05	1.4384e-05	1125.1	186.05	2.3097e-05	1.6732e-05	313.84	126.43	67.772	22.318	1.5783e-05	50.136	0.020794	0.02238	0.0062937	1352.5	0.00023981	0.00024848	1593.3	346.33	0.00024217	0.00024726	556.7	207.83	147.91	48.95	0.00024662	85.88	1.477	25.086	52.846	-105.432	45.428	209.555	-105.290	-99.503	226.908	-2.650	-99.309	-95.164	-93.979	-87.797	-38.022	-90.273	-8191	255	
14843.151	1	1	0	0	0.23613	0.16707	0.13885	0.10184	0.31913	0.074458	0.12475	0.27647	0.14635	0.26165	0.18629	0.20449	0.15229	0.086619	0.22468	0.12383	-2.4979	-2.4792	-2.6688	-2.9771	-2.5333	-2.7542	-3.0792	-2.4979	-3.1312	-2.5396	-2.8271	-2.9875	-2.4417	-2.9167	-2.9042	-2.6104	44.078	132.684	114.797	192.349	-104.670	80.103	184.148	90.762	172.363	95.301	202.900	177.214	210.401	242.090	3.051	-21.310	0.00013839	0.0016291	0.0002909	896.57	1.5154e-05	1.1107e-05	1108.9	184.95	2.7267e-05	1.2847e-05	313.54	125.73	67.977	22.457	1.438e-05	50.159	0.02092	0.022557	0.0063305	1355.5	0.00024243	0.00025052	1586.4	346.5	0.00024429	0.00024814	556.11	207.18	147.99	48.914	0.00024695	85.806	107.425	90.780	30.333	-105.265	192.897	-114.581	-105.533	-98.858	-63.613	-11.623	-99.869	-95.000	-93.697	-87.641	149.576	-90.043	-8191	255	
14843.247	1	1	0	0	0.12282	0.093148	0.068267	0.28296	0.060265	0.17046	0.13816	0.24311	0.23294	0.074144	0.053611	0.10174	0.054522	0.10698	0.17454	0.18267	-2.4813	-2.5938	-2.6729	-3.1958	-2.3167	-2.8438	-3.1583	-2.575	-2.9333	-2.9146	-2.8438	-3.1042	-2.6437	-2.8063	-2.9417	-2.6042	38.014	90.498	60.782	220.545	6.612	207.787	137.120	50.110	238.881	-20.545	122.688	212.449	56.079	163.724	193.213	209.331	0.00084649	0.00037251	0.00075651	891.99	4.4065e-05	1.9228e-05	1113.3	184.29	1.4188e-05	2.1424e-05	310.68	125.11	66.915	22.227	4.6238e-05	50.091	0.021103	0.022827	0.0063825	1359.2	0.00024576	0.00025407	1597.2	349.03	0.00024864	0.00025291	558.23	208.72	149.25	49.467	0.00025128	86.479	157.628	117.620	-63.470	-105.602	151.603	21.660	-105.212	-98.986	71.325	56.528	-99.926	-95.291	-94.385	-87.942	168.845	-89.865	-8191	255	
14843.343	1	1	0	0	0.13309	0.23059	0.11335	0.052984	0.085602	0.1565	0.16372	0.10512	0.12501	0.14156	0.088962	0.38676	0.22301	0.25641	0.095238	0.40357	-2.5729	-2.7188	-2.4938	-3.0542	-2.4688	-2.7792	-3.2687	-2.6333	-2.9625	-2.9083	-2.6771	-3.15	-2.7625	-2.675	-3.0375	-2.6354	23.400	48.406	220.629	197.648	74.129	231.071	188.596	115.218	229.055	179.485	76.062	210.305	117.049	-106.039	-79.915	-56.379	0.0012442	0.0045842	0.00038291	899.6	2.8365e-05	7.0518e-06	1117.4	185.28	2.2245e-05	1.6845e-05	309.91	125.65	67.222	22.126	1.5809e-05	49.324	0.02148	0.023317	0.0064852	1374	0.00025241	0.00025967	1608.7	352.29	0.00025466	0.00025716	562.57	210.12	151.24	49.911	0.0002571	86.724	-24.506	127.004	25.510	-105.506	190.517	177.150	-105.674	-99.450	-3.899	19.391	-99.963	-95.475	-94.818	-88.505	-36.434	-90.411	-8191	255	
14843.439	1	1	0	0	0.12296	0.25129	0.15337	0.10504	0.14262	0.11267	0.23998	0.32622	0.1032	0.075115	0.055675	0.076521	0.159	0.1673	0.21323	0.19363	-2.4458	-2.8104	-2.3208	-2.9479	-2.7708	-2.6437	-3.0167	-2.5979	-2.6937	-2.9229	-2.5187	-2.9521	-2.7062	-2.5208	-2.9562	-2.7208	177.571	109.751	114.855	122.988	38.050	34.933	153.460	198.340	31.668	72.337	128.601	10.432	58.091	-66.701	150.256	196.129	0.0012645	0.0026499	0.00050276	901.17	2.089e-05	1.5361e-05	1121.1	185.7	2.1021e-05	3.4998e-05	308.2	125.11	66.9	22.34	4.8736e-05	49.213	0.021802	0.023516	0.0065156	1373.6	0.00025263	0.00025688	1607.2	350.11	0.00025335	0.00025659	559.37	209.4	151.05	49.656	0.00025572	86.756	170.990	14.173	193.150	-105.659	88.008	-51.620	-105.388	-99.621	235.085	-56.536	-99.741	-95.138	-94.570	-87.249	74.160	-90.541	-8191	255	
14843.535	1	1	0	0	0.28041	0.17752	0.020356	0.2051	0.11876	0.12647	0.38907	0.099093	0.18333	0.021297	0.13775	0.32318	0.054344	0.18921	0.10077	0.32484	-2.2396	-2.8458	-2.5354	-3.2229	-2.7792	-2.5687	-3.2	-2.6021	-2.7646	-2.7729	-2.5292	-2.8312	-2.7354	-2.6333	-3.0687	-2.775	170.261	77.793	1.040	199.452	160.584	87.453	202.698	-91.126	14.752	-109.259	49.468	-27.856	160.523	201.672	-29.796	155.377	0.00071582	0.0019373	0.00028244	893.76	8.7882e-06	3.4532e-05	1102.1	185.09	2.3171e-05	1.7485e-05	309.07	124.67	66.842	21.979	4.1923e-05	48.992	0.021858	0.023657	0.0065466	1380.1	0.00025569	0.00026073	1605.8	352.92	0.00025614	0.00025785	560.18	209.84	151.21	49.506	0.000256	86.648	101.176	82.880	-21.417	-105.833	172.359	13.947	-105.539	-99.386	99.187	125.772	-99.721	-95.709	-94.350	-88.433	105.671	-90.089	-8191	255	
14843.631	1	1	0	0	0.14278	0.032862	0.14378	0.17288	0.33623	0.20718	0.29186	0.19887	0.24609	0.16213	0.22128	0.38227	0.11111	0.141	0.20216	0.20059	-2.4188	-2.9146	-2.4771	-2.975	-2.9208	-2.5729	-3.1583	-2.6417	-2.6604	-2.9583	-2.525	-2.9437	-2.7938	-2.5542	-2.9833	-2.6375	6.051	132.746	124.997	191.724	39.675	73.917	146.743	214.740	109.058	-40.654	-68.562	234.358	-47.885	179.901	139.424	190.096	0.00084813	0.0019387	0.00053619	887.86	7.0605e-06	2.1999e-05	1109.2	183.19	3.6185e-05	2.4036e-05	307.86	124.06	65.224	22.308	7.7433e-06	49.336	0.02188	0.023662	0.0065636	1376.9	0.0002578	0.00026238	1611.3	355.73	0.00026123	0.00026517	567.19	212.49	153.72	50.176	0.00026355	87.849	159.335	43.633	110.824	-105.258	96.353	131.604	-105.657	-99.334	-79.547	18.105	-100.135	-95.261	-94.677	-88.546	-55.674	-90.128	-8191	255	
14843.752	1	1	0	0	0.07992	0.15807	0.30183	0.22741	0.20439	0.20198	0.25887	0.12482	0.17199	0.20885	0.28891	0.17707	0.17639	0.1646	0.026412	0.16395	-2.3104	-2.9375	-2.4188	-2.8438	-2.8375	-2.4771	-3.0896	-2.6521	-2.5187	-3.0521	-2.6833	-2.925	-2.9771	-2.5354	-2.7896	-2.7729	140.016	148.909	109.707	-57.674	24.890	-91.999	185.374	-93.209	-65.045	-89.576	111.719	-96.791	99.157	-85.744	123.663	242.051	0.00014435	0.0042472	0.00050214	884.78	2.2628e-05	2.5299e-05	1100.4	183.35	1.0293e-05	2.9602e-05	306.44	123.55	66.164	21.896	5.2372e-05	49.154	0.022319	0.024153	0.0066767	1385.3	0.00026073	0.00026417	1612.9	357.2	0.00026174	0.00026591	566.36	211.98	153.3	50.09	0.00026574	88.123	40.014	-14.507	228.730	-105.519	98.445	36.345	-105.567	-99.336	-98.302	156.137	-100.098	-95.550	-94.933	-87.770	177.650	-90.564	-8191	255	
14843.846	1	1	0	0	0.11522	0.30032	0.027936	0.064633	0.16497	0.095871	0.37878	0.08939	0.21094	0.052771	0.11929	0.14169	0.22013	0.11965	0.24196	0.20518	-2.025	-3.1104	-2.5354	-2.7042	-2.875	-2.4021	-2.7354	-2.6104	-2.6	-2.9354	-2.6625	-2.8125	-2.9771	-2.4896	-2.8521	-2.8	-15.627	30.541	45.980	234.425	-9.378	-15.896	218.158	238.365	90.748	72.875	-97.564	192.024	31.207	201.229	111.503	148.324	0.00047006	0.0029518	0.00056332	888.34	2.9261e-05	6.1387e-06	1099	182.81	4.6089e-05	3.5352e-05	303.47	123.07	65.246	21.75	5.109e-05	48.794	0.022444	0.024314	0.0067881	1387.7	0.00026461	0.0002671	1617.3	357.84	0.00026147	0.00026639	565.16	211.21	152.58	49.882	0.00026432	87.475	122.648	1.233	114.896	-105.654	-47.026	183.781	-105.604	-99.253	163.326	17.964	-100.099	-95.202	-94.237	-88.456	-64.087	-90.246	-8191	255	
14843.942	1	1	0	0	0.27139	0.061981	0.10501	0.12339	0.25727	0.1469	0.080683	0.16088	0.29027	0.20593	0.066736	0.27364	0.13048	0.13992	0.33316	0.19258	-2.1229	-2.8667	-2.6771	-2.6417	-2.9167	-2.4604	-2.9271	-2.8875	-2.6125	-2.9396	-2.8396	-2.5771	-2.7479	-2.3167	-2.6312	-2.9833	-113.024	170.855	-104.173	241.509	213.699	69.577	140.299	136.453	182.705	129.412	110.079	184.480	235.314	206.652	95.754	121.486	0.00078382	0.0049571	0.00031771	875.1	3.5782e-05	2.9004e-05	1091.9	181.77	4.3075e-05	3.2806e-05	304.77	122.49	65.015	21.565	2.659e-05	48.23	0.022172	0.024126	0.0067241	1372	0.00026109	0.00026527	1612.7	357.86	0.00026234	0.00027092	570.39	211.96	154.32	50.58	0.00027225	88.45	88.382	-46.432	-14.437	-106.174	-46.043	23.667	-105.432	-98.923	89.256	80.239	-100.247	-95.818	-95.009	-87.617	48.517	-90.417	-8191	255	
14844.040	1	1	0	0	0.18335	0.16524	0.11065	0.16312	0.031601	0.2325	0.37758	0.13035	0.18691	0.19848	0.22856	0.15646	0.13789	0.098097	0.23861	0.17391	-1.7854	-2.8333	-2.8542	-2.825	-2.8896	-2.7583	-3.0229	-2.9229	-2.3917	-3.0292	-2.8271	-2.6229	-2.9646	-2.5917	-2.8396	-3.0187	173.246	-41.185	-31.095	-63.847	67.344	79.378	184.810	151.941	67.992	188.740	241.641	178.185	125.557	-45.549	108.893	210.606	0.00040443	0.0010381	0.00054142	882.29	1.6713e-05	5.8317e-05	1094.5	183.31	1.4655e-05	1.2063e-05	302.64	122.87	65.822	21.905	3.941e-05	48.773	0.022883	0.025105	0.0069742	1393.1	0.00027083	0.00027704	1633.6	364.55	0.00027224	0.00028025	581.89	215.09	158.04	51.638	0.00027961	89.628	20.522	88.676	-88.098	-105.458	22.886	-22.513	-105.493	-99.324	216.697	93.316	-99.818	-95.922	-94.792	-87.247	191.188	-90.289	-8191	255	
14844.135	1	1	0	0	0.15727	0.16835	0.16052	0.23369	0.098902	0.10968	0.15816	0.18012	0.072509	0.13864	0.19499	0.14581	0.20406	0.076584	0.21697	0.12297	-2.1271	-2.8083	-2.8187	-2.6437	-3.1354	-2.625	-2.9667	-2.8875	-2.4313	-2.9458	-2.8688	-2.6083	-2.9271	-2.7625	-2.6542	-3.0729	104.968	-21.683	235.419	211.120	-96.242	-22.236	237.769	207.592	151.205	16.340	-40.742	-116.834	191.912	156.162	198.604	140.648	0.00052023	0.0032871	0.00019321	881.94	9.1024e-06	2.6647e-05	1100.1	182.85	2.5897e-05	8.1364e-07	307.77	123.35	65.913	21.958	2.4461e-05	48.305	0.023439	0.025756	0.0071532	1407.8	0.00027492	0.00027997	1642.4	366.52	0.00027299	0.00028141	583.11	215.6	158.11	51.826	0.00027996	90.001	224.167	64.372	21.200	-105.832	38.416	65.851	-105.691	-99.499	140.707	-81.530	-99.452	-95.791	-94.032	-88.143	-2.092	-90.473	-8191	255	
14844.231	1	1	0	0	0.20349	0.19295	0.18179	0.029887	0.19904	0.31721	0.13272	0.054112	0.14023	0.076816	0.15233	0.21591	0.11524	0.12737	0.08951	0.18604	-1.9333	-2.7167	-2.7125	-2.6063	-2.9708	-2.6708	-2.7	-3.0917	-2.6688	-2.9833	-3.0542	-2.525	-2.8417	-2.7062	-2.6292	-3.3583	27.017	155.551	105.265	209.266	226.206	221.145	217.357	224.163	80.220	-1.574	200.681	-98.754	16.212	-86.340	-69.349	175.096	0.00080771	0.0038625	0.00018244	892.8	1.556e-05	2.0881e-05	1101.3	182.22	1.3525e-05	2.332e-05	307.97	123.03	66.763	22.04	3.3326e-05	48.588	0.023591	0.02594	0.0072207	1414.9	0.00027985	0.0002856	1657.1	371.34	0.00027993	0.0002886	590.92	218.15	161.09	52.619	0.00028422	90.499	138.115	100.915	18.051	-105.412	34.444	151.408	-105.654	-99.403	-44.574	41.044	-100.018	-95.355	-94.849	-87.810	-79.625	-90.182	-8191	255	
14844.327	1	1	0	0	0.098484	0.12557	0.16239	0.21979	0.048043	0.1975	0.30125	0.17935	0.19653	0.13407	0.26805	0.21941	0.35873	0.091245	0.13271	0.23731	-2.0563	-2.6583	-2.8875	-2.725	-2.9208	-2.7438	-2.6458	-3.0833	-2.6229	-2.9292	-2.9583	-2.6063	-2.9313	-2.9208	-2.5875	-3.1042	105.317	36.966	226.540	208.566	175.069	62.846	179.677	-108.338	212.248	168.827	198.483	-13.048	-72.971	106.420	3.987	-59.311	0.00102	0.00083276	0.00069452	892.55	8.5082e-06	1.9779e-05	1106.5	186.52	8.7421e-06	3.5377e-05	307.84	122.99	66.754	22.173	2.7186e-05	49.082	0.023966	0.026196	0.007259	1419.9	0.00028149	0.0002855	1655.8	371.53	0.00027888	0.00028734	590.75	218.07	161.5	52.866	0.00028446	91.285	190.636	-17.437	-78.983	-105.280	-99.071	48.344	-105.282	-98.950	-19.735	174.533	-99.561	-95.260	-94.304	-88.310	87.257	-90.435	-8191	255	
14844.448	1	1	0	0	0.078786	0.27189	0.28626	0.26023	0.15771	0.20687	0.22312	0.11269	0.18809	0.11192	0.29221	0.21138	0.38725	0.04882	0.20732	0.06376	-2.2417	-2.7292	-2.9104	-2.7646	-2.8937	-2.9229	-2.8625	-3.1354	-2.7521	-2.5979	-3.1646	-2.8229	-2.9417	-2.7104	-2.5062	-3.0521	158.561	85.502	4.859	183.793	168.151	74.917	238.227	81.036	163.795	-107.384	199.011	95.276	198.400	-79.492	186.483	-4.958	0.00067981	0.0025485	0.00065506	891.73	1.616e-05	2.7546e-05	1106.4	183.57	3.3457e-06	7.5868e-06	308.24	124.7	67.182	22.238	8.5639e-06	49.372	0.024307	0.026651	0.0073808	1437.7	0.00028838	0.00029224	1670.1	375.38	0.00028301	0.00028739	590.36	218.15	160.64	52.574	0.00027781	90.885	233.002	87.841	238.752	-105.414	204.281	223.381	-105.393	-99.382	60.319	-108.596	-99.986	-95.396	-94.311	-87.863	-116.552	-90.102	-8191	255	
14844.544	1	1	0	0	0.084882	0.12229	0.24207	0.083528	0.10377	0.29911	0.22208	0.1784	0.34304	0.17763	0.22659	0.35698	0.20302	0.10107	0.084443	0.084126	-2.2562	-2.5854	-2.9208	-2.6	-2.6917	-2.85	-2.6479	-2.9896	-2.7625	-2.6354	-3.0854	-2.7917	-2.7479	-2.9625	-2.5854	-3.0583	31.915	224.485	-37.540	47.138	114.044	164.100	151.075	89.277	65.966	46.718	208.901	190.064	92.510	232.496	72.525	43.591	0.00036322	0.0022443	0.00095568	896.11	2.0378e-05	1.1103e-05	1111.2	183.79	1.2394e-05	1.6292e-05	311.9	125.17	67.539	22.388	3.5619e-05	49.869	0.023743	0.025769	0.0071784	1421.3	0.00028146	0.00028614	1661.5	374	0.00028187	0.00028597	592.69	219.29	162.03	52.939	0.00028226	91.842	185.968	-95.840	-19.213	-105.616	72.670	22.406	-105.294	-99.164	78.026	5.578	-99.754	-95.249	-93.953	-87.411	51.471	-90.185	-8191	255	
14844.640	1	1	0	0	0.027953	0.10051	0.12982	0.3524	0.1464	0.15431	0.29863	0.19467	0.18852	0.079735	0.16773	0.071286	0.24692	0.14078	0.16051	0.13123	-2.3292	-2.3833	-3.1167	-2.8021	-2.6229	-3.1583	-2.6667	-2.9417	-2.8271	-2.5271	-3.1625	-2.7521	-2.7938	-2.8875	-2.4375	-2.8792	6.305	124.802	27.873	172.090	-0.256	12.500	214.919	125.600	162.857	-93.014	177.964	110.176	-111.913	9.328	210.705	184.949	0.0009701	0.0031917	0.00035122	896.79	3.0405e-05	1.7787e-05	1107.4	187.12	2.2043e-05	3.0797e-05	308.05	123.66	67.548	22.396	3.2372e-05	49.287	0.024315	0.026307	0.007352	1439.8	0.0002859	0.00029088	1669.3	376.37	0.00028349	0.00028505	592.16	219.17	160.91	52.547	0.0002783	90.509	97.873	-23.936	-25.994	-104.942	166.886	-0.541	-105.350	-98.679	-2.628	145.226	-99.884	-95.114	-94.669	-88.467	-76.386	-89.807	-8191	255	
14844.712	1	1	0	0	0.11809	0.30419	0.093365	0.16301	0.16132	0.24534	0.19092	0.2227	0.19943	0.15237	0.040898	0.16341	0.041129	0.15326	0.17476	0.13479	-2.2396	-2.6542	-2.9458	-2.825	-2.7354	-3.0958	-2.5875	-2.7438	-2.8292	-2.375	-3.175	-2.7229	-2.5625	-2.9813	-2.5875	-3.0312	74.360	-93.901	-45.860	-114.231	-33.248	35.702	219.434	-14.239	-84.527	32.074	-39.424	140.739	-90.384	44.912	47.224	81.996	0.00031285	0.0036575	0.00042028	899.43	3.6517e-05	3.5403e-05	1111.1	184.22	2.5266e-05	2.1192e-05	308.62	124.89	66.6	22.367	8.5997e-06	49.498	0.023622	0.025431	0.0071054	1418.9	0.00027555	0.00028032	1651.2	370.33	0.00027704	0.00028009	589.21	218.12	160.06	52.292	0.00027824	90.698	104.181	33.572	159.777	-105.388	-113.136	189.541	-105.641	-99.275	87.473	19.294	-99.780	-95.473	-94.168	-87.746	43.114	-89.984	-8191	255	
14844.832	1	1	0	0	0.15139	0.06372	0.027681	0.27171	0.073072	0.12616	0.18753	0.25145	0.11986	0.056963	0.089957	0.3567	0.16654	0.23831	0.18113	0.16174	-2.6667	-2.3375	-3.0167	-2.9458	-2.5938	-3.1208	-2.6917	-2.6958	-2.8333	-2.4792	-2.825	-2.7375	-2.6333	-3.0083	-2.7021	-2.75	147.655	65.079	201.048	194.308	92.922	16.374	182.315	229.111	-111.967	39.782	11.217	134.950	125.641	162.342	103.768	240.175	0.00086408	0.0045514	0.00022447	896.42	3.7673e-05	1.9488e-05	1112.9	184.73	2.7255e-05	2.9277e-05	310.82	125.05	66.742	22.363	4.0163e-05	49.727	0.023729	0.025522	0.0072048	1426	0.00027674	0.00028261	1650.9	370.77	0.00027543	0.00027706	584.68	216.49	157.18	51.507	0.00027193	89.637	204.903	-97.337	63.516	-105.390	-80.063	-39.657	-105.544	-99.373	-20.889	123.584	-99.862	-95.403	-94.214	-87.900	7.927	-90.326	-8191	255	
14844.928	1	1	0	0	0.15761	0.046838	0.11857	0.15877	0.2566	0.11577	0.29247	0.043603	0.069471	0.17219	0.2093	0.19436	0.083502	0.43229	0.18127	0.31099	-2.4229	-2.5125	-2.8604	-2.9583	-2.6562	-2.7938	-2.7208	-2.6063	-3.0042	-2.475	-2.8312	-2.8833	-2.5396	-2.9333	-2.7396	-2.7167	-38.746	215.604	187.882	212.052	-100.813	177.754	224.067	130.211	-100.406	-88.289	40.906	222.940	122.640	229.489	58.684	171.346	0.00089831	0.0011797	0.00061023	892.49	3.2396e-05	3.7745e-05	1101.9	186.19	3.8129e-05	8.3774e-06	309.53	125.2	66.286	21.916	4.263e-05	49.207	0.023044	0.024912	0.0070272	1415	0.00027185	0.00027947	1650.6	369.38	0.00027416	0.00027803	587.45	217.72	158.53	51.973	0.00027676	90.155	125.227	88.362	210.125	-105.710	12.566	152.844	-105.333	-99.050	-61.746	26.470	-99.839	-95.561	-94.646	-87.960	-74.457	-90.021	-8191	255	
14845.023	1	1	0	0	0.23394	0.25992	0.1105	0.25065	0.14481	0.10752	0.3278	0.20774	0.0096583	0.32802	0.13041	0.23786	0.30079	0.17041	0.14066	0.1014	-2.3479	-2.5125	-2.5771	-2.8875	-2.3896	-2.7188	-2.9042	-2.7208	-3.0417	-2.5396	-2.8625	-2.8521	-2.6208	-2.9667	-2.8688	-2.6646	150.919	181.612	-84.465	206.963	91.454	185.737	185.830	159.453	134.777	-94.268	149.065	181.954	-91.830	-28.582	-96.317	23.669	0.00082918	0.0047459	0.00070799	897.76	2.6488e-05	8.9554e-06	1104.3	183.13	1.5704e-05	3.5474e-05	310.47	124.42	66.735	22.15	1.5684e-05	48.751	0.023478	0.025377	0.0071591	1420.5	0.00027326	0.0002803	1647.1	366.61	0.0002709	0.00027389	581.76	214.9	156.12	51.261	0.00027017	88.859	99.793	-72.900	8.488	-105.501	68.457	115.832	-105.275	-99.611	144.806	-113.163	-99.574	-95.782	-94.647	-88.196	-26.763	-89.742	-8191	255	
14845.121	1	1	0	0	0.036581	0.25227	0.16814	0.32616	0.19263	0.33318	0.060584	0.23861	0.22348	0.17665	0.22412	0.20834	0.11153	0.20337	0.22395	0.18819	-2.5167	-2.6271	-2.5396	-2.9458	-2.4958	-2.9688	-3.0167	-2.7104	-3.0083	-2.8021	-2.75	-2.9625	-2.6979	-2.9417	-2.8333	-2.6146	-65.240	27.414	142.246	229.695	24.342	200.345	114.534	-59.924	165.219	151.406	-88.087	230.967	-48.685	-106.458	30.999	191.195	0.00090381	0.0040889	0.00085599	897.37	1.0305e-05	1.6915e-05	1112.7	187.38	1.8201e-05	1.2558e-05	308.46	124.14	66.676	22.057	1.9227e-05	48.984	0.022931	0.024821	0.0069757	1409.8	0.00026854	0.00027758	1642.6	366.25	0.00027223	0.00027491	583.54	215.66	157.07	51.703	0.00027303	89.385	126.714	61.209	155.129	-105.678	187.488	190.235	-105.740	-99.120	201.066	117.717	-99.384	-95.700	-94.540	-87.845	10.269	-89.766	-8191	255	
14845.240	1	1	0	0	0.11804	0.087636	0.098464	0.18853	0.15286	0.25855	0.30537	0.04116	0.076721	0.022248	0.28412	0.13442	0.046058	0.08326	0.34864	0.24576	-2.4333	-2.6396	-2.6292	-2.9958	-2.6979	-2.8042	-2.9229	-2.5708	-3.0229	-2.6937	-2.6583	-3.0271	-2.7375	-2.8604	-2.9437	-2.6042	186.494	157.209	219.924	82.921	76.739	-111.942	113.745	242.103	-72.851	4.568	227.173	158.011	14.455	-28.991	178.275	200.401	0.00096734	0.0005996	0.00013657	891.95	3.8386e-05	9.1742e-06	1112.9	186.25	3.3858e-05	1.772e-05	308.3	124.75	66.384	22.402	1.4365e-05	49.534	0.02324	0.025095	0.0070628	1412.8	0.00027072	0.0002798	1646.6	366.54	0.00027311	0.00027739	583.91	216.49	158.26	52.271	0.00027806	90.033	121.932	81.315	78.803	-105.371	-16.722	29.969	-105.343	-98.628	-23.880	176.120	-99.363	-95.453	-94.674	-87.866	-5.546	-90.083	-8191	255	
14845.311	1	1	0	0	0.2295	0.23216	0.13122	0.32066	0.19389	0.28492	0.28368	0.089242	0.071407	0.27672	0.066677	0.33582	0.13179	0.17841	0.069593	0.13327	-2.5604	-2.6063	-2.5958	-3.1146	-2.4646	-2.7542	-3.2521	-2.4938	-2.6604	-2.8146	-2.525	-3.1604	-2.8396	-2.7146	-2.9333	-2.6	-114.449	28.199	-102.983	225.326	223.913	-74.772	158.724	227.020	208.829	-46.951	197.863	126.745	169.124	222.179	91.442	151.480	0.0010586	0.0025127	0.00080476	896.18	4.8134e-05	1.6436e-05	1122.2	185.13	1.631e-05	2.7838e-05	311.47	126.33	67.438	22.192	9.8557e-06	49.837	0.023641	0.025603	0.0071484	1424.3	0.00027463	0.00028298	1657.5	368.72	0.00027614	0.00027958	586.18	218.03	158.39	52.057	0.00027431	89.808	124.554	-56.386	-38.699	-105.366	61.364	-20.179	-105.531	-99.736	7.536	156.832	-100.001	-95.085	-94.321	-87.839	134.104	-90.225	-8191	255	
14845.432	1	1	0	0	0.32259	0.13081	0.19168	0.2288	0.12581	0.15392	0.10017	0.19943	0.15258	0.14026	0.2163	0.17225	0.064118	0.028995	0.12837	0.42783	-2.5438	-2.7354	-2.3563	-3.0792	-2.5812	-2.6125	-2.9375	-2.6167	-2.775	-2.8063	-2.675	-3.0146	-2.5833	-2.6125	-2.9167	-2.6875	-73.027	41.156	15.446	214.009	15.998	119.522	55.942	189.420	104.118	111.176	-43.227	36.861	192.293	-1.201	125.497	205.975	0.0011983	0.002548	0.00036504	898.59	2.7012e-05	3.8019e-05	1109.2	185.68	2.2438e-05	2.9868e-05	312.3	125.34	67.065	22.446	5.9261e-05	49.513	0.023236	0.024913	0.0068919	1401	0.00026403	0.00027085	1625.1	360.23	0.00026507	0.00026994	575.88	215.04	157.3	51.681	0.00027089	89.111	95.018	-4.883	13.816	-105.512	76.815	-74.520	-105.413	-99.624	86.044	167.198	-99.485	-95.441	-94.028	-88.286	95.095	-90.011	-8191	255	
#DATA ENDS
